time/ms;Fluo/V;P700 deltaI/I x10³;
-199.8000;0.2401;0.1266;
-199.5000;0.2369;0.1170;
-199.2000;0.2352;0.1075;
-198.9000;0.2344;0.1099;
-198.6000;0.2352;0.1122;
-198.3000;0.2369;0.1122;
-198.0000;0.2352;0.1075;
-197.7000;0.2344;0.1051;
-197.4000;0.2352;0.1027;
-197.1000;0.2352;0.1075;
-196.8000;0.2344;0.1003;
-196.5000;0.2344;0.1122;
-196.2000;0.2344;0.1099;
-195.9000;0.2361;0.1146;
-195.6000;0.2369;0.1122;
-195.3000;0.2369;0.1027;
-195.0000;0.2361;0.1027;
-194.7000;0.2369;0.1051;
-194.4000;0.2344;0.0979;
-194.1000;0.2369;0.1027;
-193.8000;0.2344;0.1027;
-193.5000;0.2377;0.1099;
-193.2000;0.2401;0.1218;
-192.9000;0.2361;0.1122;
-192.6000;0.2336;0.1051;
-192.3000;0.2344;0.1099;
-192.0000;0.2352;0.1099;
-191.7000;0.2393;0.1218;
-191.4000;0.2361;0.1146;
-191.1000;0.2344;0.1027;
-190.8000;0.2369;0.1075;
-190.5000;0.2344;0.0979;
-190.2000;0.2352;0.1003;
-189.9000;0.2369;0.1051;
-189.6000;0.2385;0.1146;
-189.3000;0.2361;0.1170;
-189.0000;0.2369;0.1122;
-188.7000;0.2377;0.1194;
-188.4000;0.2361;0.1170;
-188.1000;0.2369;0.1170;
-187.8000;0.2361;0.1122;
-187.5000;0.2344;0.1075;
-187.2000;0.2352;0.1099;
-186.9000;0.2361;0.1146;
-186.6000;0.2352;0.1170;
-186.3000;0.2361;0.1194;
-186.0000;0.2377;0.1218;
-185.7000;0.2369;0.1266;
-185.4000;0.2369;0.1194;
-185.1000;0.2336;0.1170;
-184.8000;0.2369;0.1146;
-184.5000;0.2369;0.1170;
-184.2000;0.2352;0.1146;
-183.9000;0.2336;0.1099;
-183.6000;0.2377;0.1194;
-183.3000;0.2352;0.1122;
-183.0000;0.2344;0.1075;
-182.7000;0.2393;0.1170;
-182.4000;0.2328;0.0955;
-182.1000;0.2361;0.1027;
-181.8000;0.2352;0.1027;
-181.5000;0.2328;0.1003;
-181.2000;0.2344;0.1051;
-180.9000;0.2336;0.1027;
-180.6000;0.2352;0.1051;
-180.3000;0.2369;0.1194;
-180.0000;0.2344;0.1122;
-179.7000;0.2344;0.1075;
-179.4000;0.2361;0.1099;
-179.1000;0.2361;0.1170;
-178.8000;0.2320;0.1146;
-178.5000;0.2361;0.1146;
-178.2000;0.2352;0.1122;
-177.9000;0.2361;0.1146;
-177.6000;0.2344;0.1122;
-177.3000;0.2352;0.1075;
-177.0000;0.2344;0.1051;
-176.7000;0.2352;0.1099;
-176.4000;0.2344;0.1194;
-176.1000;0.2344;0.1242;
-175.8000;0.2344;0.1242;
-175.5000;0.2344;0.1170;
-175.2000;0.2352;0.1146;
-174.9000;0.2320;0.1146;
-174.6000;0.2352;0.1266;
-174.3000;0.2352;0.1146;
-174.0000;0.2361;0.1122;
-173.7000;0.2361;0.1099;
-173.4000;0.2344;0.1027;
-173.1000;0.2352;0.1122;
-172.8000;0.2344;0.1075;
-172.5000;0.2344;0.1075;
-172.2000;0.2336;0.1170;
-171.9000;0.2352;0.1290;
-171.6000;0.2344;0.1242;
-171.3000;0.2352;0.1194;
-171.0000;0.2377;0.1170;
-170.7000;0.2352;0.1099;
-170.4000;0.2344;0.1146;
-170.1000;0.2344;0.1170;
-169.8000;0.2320;0.1122;
-169.5000;0.2361;0.1075;
-169.2000;0.2336;0.1051;
-168.9000;0.2352;0.1075;
-168.6000;0.2352;0.1146;
-168.3000;0.2369;0.1242;
-168.0000;0.2361;0.1242;
-167.7000;0.2352;0.1266;
-167.4000;0.2287;0.1027;
-167.1000;0.2361;0.1122;
-166.8000;0.2344;0.1146;
-166.5000;0.2320;0.1146;
-166.2000;0.2352;0.1290;
-165.9000;0.2352;0.1290;
-165.6000;0.2361;0.1242;
-165.3000;0.2344;0.1194;
-165.0000;0.2369;0.1194;
-164.7000;0.2336;0.1146;
-164.4000;0.2369;0.1194;
-164.1000;0.2352;0.1194;
-163.8000;0.2361;0.1194;
-163.5000;0.2344;0.1266;
-163.2000;0.2361;0.1242;
-162.9000;0.2369;0.1385;
-162.6000;0.2255;0.1075;
-162.3000;0.2312;0.1290;
-162.0000;0.2344;0.1385;
-161.7000;0.2344;0.1361;
-161.4000;0.2361;0.1385;
-161.1000;0.2361;0.1314;
-160.8000;0.2320;0.1122;
-160.5000;0.2361;0.1218;
-160.2000;0.2344;0.1266;
-159.9000;0.2328;0.1218;
-159.6000;0.2361;0.1409;
-159.3000;0.2352;0.1361;
-159.0000;0.2369;0.1457;
-158.7000;0.2328;0.1361;
-158.4000;0.2352;0.1290;
-158.1000;0.2279;0.1122;
-157.8000;0.2377;0.1314;
-157.5000;0.2336;0.1075;
-157.2000;0.2385;0.1146;
-156.9000;0.2409;0.1266;
-156.6000;0.2361;0.1170;
-156.3000;0.2361;0.1194;
-156.0000;0.2295;0.1051;
-155.7000;0.2352;0.1194;
-155.4000;0.2320;0.1122;
-155.1000;0.2361;0.1242;
-154.8000;0.2344;0.1194;
-154.5000;0.2361;0.1242;
-154.2000;0.2483;0.1505;
-153.9000;0.2369;0.1266;
-153.6000;0.2418;0.1385;
-153.3000;0.2361;0.1194;
-153.0000;0.2369;0.1242;
-152.7000;0.2352;0.1242;
-152.4000;0.2352;0.1218;
-152.1000;0.2369;0.1218;
-151.8000;0.2344;0.1218;
-151.5000;0.2336;0.1266;
-151.2000;0.2352;0.1242;
-150.9000;0.2361;0.1242;
-150.6000;0.2344;0.1099;
-150.3000;0.2336;0.1075;
-150.0000;0.2336;0.1122;
-149.7000;0.2328;0.1146;
-149.4000;0.2352;0.1242;
-149.1000;0.2369;0.1290;
-148.8000;0.2344;0.1218;
-148.5000;0.2352;0.1242;
-148.2000;0.2352;0.1337;
-147.9000;0.2344;0.1242;
-147.6000;0.2369;0.1290;
-147.3000;0.2361;0.1194;
-147.0000;0.2352;0.1170;
-146.7000;0.2336;0.1146;
-146.4000;0.2344;0.1194;
-146.1000;0.2352;0.1099;
-145.8000;0.2352;0.1242;
-145.5000;0.2369;0.1146;
-145.2000;0.2361;0.1170;
-144.9000;0.2369;0.1218;
-144.6000;0.2377;0.1194;
-144.3000;0.2352;0.1075;
-144.0000;0.2361;0.1027;
-143.7000;0.2287;0.1003;
-143.4000;0.2344;0.1051;
-143.1000;0.2369;0.1051;
-142.8000;0.2344;0.0931;
-142.5000;0.2361;0.1003;
-142.2000;0.2344;0.1075;
-141.9000;0.2344;0.1099;
-141.6000;0.2361;0.1146;
-141.3000;0.2418;0.1361;
-141.0000;0.2361;0.1194;
-140.7000;0.2344;0.1218;
-140.4000;0.2328;0.1170;
-140.1000;0.2336;0.1266;
-139.8000;0.2458;0.1624;
-139.5000;0.2304;0.1242;
-139.2000;0.2352;0.1290;
-138.9000;0.2344;0.1266;
-138.6000;0.2385;0.1385;
-138.3000;0.2352;0.1266;
-138.0000;0.2361;0.1290;
-137.7000;0.2344;0.1218;
-137.4000;0.2361;0.1266;
-137.1000;0.2361;0.1290;
-136.8000;0.2320;0.1290;
-136.5000;0.2352;0.1385;
-136.2000;0.2361;0.1433;
-135.9000;0.2352;0.1290;
-135.6000;0.2344;0.1099;
-135.3000;0.2361;0.1194;
-135.0000;0.2344;0.1146;
-134.7000;0.2361;0.1170;
-134.4000;0.2352;0.1170;
-134.1000;0.2328;0.1146;
-133.8000;0.2336;0.1194;
-133.5000;0.2361;0.1218;
-133.2000;0.2361;0.1146;
-132.9000;0.2483;0.1433;
-132.6000;0.2352;0.1146;
-132.3000;0.2312;0.1027;
-132.0000;0.2352;0.1170;
-131.7000;0.2369;0.1194;
-131.4000;0.2344;0.1266;
-131.1000;0.2361;0.1290;
-130.8000;0.2385;0.1385;
-130.5000;0.2361;0.1361;
-130.2000;0.2434;0.1505;
-129.9000;0.2344;0.1290;
-129.6000;0.2377;0.1337;
-129.3000;0.2352;0.1337;
-129.0000;0.2369;0.1433;
-128.7000;0.2369;0.1385;
-128.4000;0.2344;0.1337;
-128.1000;0.2336;0.1314;
-127.8000;0.2352;0.1385;
-127.5000;0.2361;0.1433;
-127.2000;0.2377;0.1409;
-126.9000;0.2352;0.1314;
-126.6000;0.2369;0.1337;
-126.3000;0.2328;0.1194;
-126.0000;0.2344;0.1194;
-125.7000;0.2344;0.1122;
-125.4000;0.2352;0.1075;
-125.1000;0.2344;0.1146;
-124.8000;0.2361;0.1242;
-124.5000;0.2369;0.1266;
-124.2000;0.2263;0.1075;
-123.9000;0.2369;0.1242;
-123.6000;0.2377;0.1290;
-123.3000;0.2361;0.1194;
-123.0000;0.2361;0.1122;
-122.7000;0.2393;0.1146;
-122.4000;0.2352;0.0979;
-122.1000;0.2385;0.1003;
-121.8000;0.2377;0.1051;
-121.5000;0.2369;0.1075;
-121.2000;0.2328;0.1051;
-120.9000;0.2344;0.1122;
-120.6000;0.2304;0.1051;
-120.3000;0.2352;0.1170;
-120.0000;0.2361;0.1194;
-119.7000;0.2352;0.1194;
-119.4000;0.2385;0.1242;
-119.1000;0.2344;0.1099;
-118.8000;0.2352;0.1027;
-118.5000;0.2344;0.1051;
-118.2000;0.2352;0.0979;
-117.9000;0.2336;0.1027;
-117.6000;0.2385;0.1122;
-117.3000;0.2344;0.1099;
-117.0000;0.2434;0.1266;
-116.7000;0.2336;0.0931;
-116.4000;0.2239;0.0573;
-116.1000;0.2328;0.0836;
-115.8000;0.2344;0.0860;
-115.5000;0.2393;0.0955;
-115.2000;0.2328;0.0931;
-114.9000;0.2328;0.0931;
-114.6000;0.2336;0.1003;
-114.3000;0.2369;0.1075;
-114.0000;0.2320;0.0979;
-113.7000;0.2336;0.1075;
-113.4000;0.2344;0.1194;
-113.1000;0.2336;0.1170;
-112.8000;0.2336;0.1194;
-112.5000;0.2361;0.1170;
-112.2000;0.2385;0.1218;
-111.9000;0.2336;0.1122;
-111.6000;0.2352;0.1075;
-111.3000;0.2344;0.1122;
-111.0000;0.2344;0.1146;
-110.7000;0.2352;0.1170;
-110.4000;0.2369;0.1194;
-110.1000;0.2344;0.1218;
-109.8000;0.2361;0.1242;
-109.5000;0.2320;0.1170;
-109.2000;0.2328;0.1122;
-108.9000;0.2344;0.1146;
-108.6000;0.2361;0.1218;
-108.3000;0.2450;0.1505;
-108.0000;0.2369;0.1290;
-107.7000;0.2344;0.1242;
-107.4000;0.2352;0.1290;
-107.1000;0.2361;0.1314;
-106.8000;0.2361;0.1266;
-106.5000;0.2369;0.1290;
-106.2000;0.2369;0.1314;
-105.9000;0.2352;0.1290;
-105.6000;0.2369;0.1194;
-105.3000;0.2320;0.1122;
-105.0000;0.2320;0.1027;
-104.7000;0.2344;0.1075;
-104.4000;0.2328;0.1003;
-104.1000;0.2344;0.1051;
-103.8000;0.2361;0.1146;
-103.5000;0.2361;0.1170;
-103.2000;0.2352;0.1170;
-102.9000;0.2295;0.0955;
-102.6000;0.2352;0.1027;
-102.3000;0.2344;0.1051;
-102.0000;0.2312;0.1003;
-101.7000;0.2361;0.1170;
-101.4000;0.2352;0.1146;
-101.1000;0.2344;0.1122;
-100.8000;0.2344;0.1099;
-100.5000;0.2361;0.1075;
-100.2000;0.2361;0.1027;
-99.9000;0.2361;0.0979;
-99.6000;0.2369;0.1075;
-99.3000;0.2385;0.1194;
-99.0000;0.2352;0.1075;
-98.7000;0.2361;0.0955;
-98.4000;0.2352;0.0955;
-98.1000;0.2361;0.0979;
-97.8000;0.2312;0.0764;
-97.5000;0.2361;0.0931;
-97.2000;0.2369;0.0955;
-96.9000;0.2344;0.0931;
-96.6000;0.2377;0.1003;
-96.3000;0.2361;0.0931;
-96.0000;0.2336;0.0884;
-95.7000;0.2344;0.0931;
-95.4000;0.2361;0.0931;
-95.1000;0.2385;0.1075;
-94.8000;0.2344;0.0979;
-94.5000;0.2385;0.1099;
-94.2000;0.2352;0.0979;
-93.9000;0.2344;0.0979;
-93.6000;0.2344;0.0955;
-93.3000;0.2352;0.0931;
-93.0000;0.2361;0.0884;
-92.7000;0.2361;0.0884;
-92.4000;0.2442;0.1170;
-92.1000;0.2344;0.0955;
-91.8000;0.2361;0.1146;
-91.5000;0.2361;0.1218;
-91.2000;0.2352;0.1122;
-90.9000;0.2352;0.1051;
-90.6000;0.2344;0.1027;
-90.3000;0.2312;0.0884;
-90.0000;0.2361;0.0979;
-89.7000;0.2344;0.0931;
-89.4000;0.2352;0.0979;
-89.1000;0.2361;0.1075;
-88.8000;0.2369;0.1051;
-88.5000;0.2385;0.1051;
-88.2000;0.2418;0.1122;
-87.9000;0.2271;0.0812;
-87.6000;0.2385;0.1122;
-87.3000;0.2393;0.1146;
-87.0000;0.2352;0.1027;
-86.7000;0.2361;0.1051;
-86.4000;0.2344;0.0979;
-86.1000;0.2352;0.1027;
-85.8000;0.2369;0.1122;
-85.5000;0.2401;0.1194;
-85.2000;0.2344;0.0979;
-84.9000;0.2401;0.1122;
-84.6000;0.2401;0.1075;
-84.3000;0.2344;0.0955;
-84.0000;0.2344;0.0955;
-83.7000;0.2352;0.1027;
-83.4000;0.2352;0.1051;
-83.1000;0.2352;0.1051;
-82.8000;0.2279;0.0931;
-82.5000;0.2369;0.1242;
-82.2000;0.2377;0.1242;
-81.9000;0.2336;0.1218;
-81.6000;0.2361;0.1266;
-81.3000;0.2344;0.1314;
-81.0000;0.2361;0.1314;
-80.7000;0.2352;0.1242;
-80.4000;0.2336;0.1170;
-80.1000;0.2377;0.1314;
-79.8000;0.2352;0.1290;
-79.5000;0.2369;0.1290;
-79.2000;0.2295;0.1099;
-78.9000;0.2344;0.1218;
-78.6000;0.2352;0.1122;
-78.3000;0.2344;0.1051;
-78.0000;0.2344;0.1122;
-77.7000;0.2344;0.1194;
-77.4000;0.2352;0.1170;
-77.1000;0.2442;0.1337;
-76.8000;0.2361;0.1075;
-76.5000;0.2352;0.1027;
-76.2000;0.2352;0.1075;
-75.9000;0.2361;0.1075;
-75.6000;0.2336;0.1122;
-75.3000;0.2336;0.1122;
-75.0000;0.2369;0.1170;
-74.7000;0.2369;0.1099;
-74.4000;0.2377;0.1170;
-74.1000;0.2344;0.1122;
-73.8000;0.2328;0.1027;
-73.5000;0.2352;0.1170;
-73.2000;0.2409;0.1242;
-72.9000;0.2336;0.0979;
-72.6000;0.2344;0.1027;
-72.3000;0.2352;0.1122;
-72.0000;0.2344;0.1051;
-71.7000;0.2271;0.0812;
-71.4000;0.2320;0.1075;
-71.1000;0.2344;0.1146;
-70.8000;0.2352;0.1122;
-70.5000;0.2336;0.1099;
-70.2000;0.2344;0.1051;
-69.9000;0.2336;0.1027;
-69.6000;0.2369;0.1099;
-69.3000;0.2426;0.1290;
-69.0000;0.2361;0.1099;
-68.7000;0.2361;0.1122;
-68.4000;0.2352;0.1122;
-68.1000;0.2385;0.1170;
-67.8000;0.2344;0.1027;
-67.5000;0.2344;0.1003;
-67.2000;0.2377;0.1051;
-66.9000;0.2369;0.0979;
-66.6000;0.2369;0.0979;
-66.3000;0.2312;0.0884;
-66.0000;0.2377;0.1003;
-65.7000;0.2377;0.1122;
-65.4000;0.2369;0.1122;
-65.1000;0.2361;0.1099;
-64.8000;0.2377;0.1146;
-64.5000;0.2352;0.1075;
-64.2000;0.2336;0.1051;
-63.9000;0.2336;0.1099;
-63.6000;0.2344;0.1194;
-63.3000;0.2352;0.1122;
-63.0000;0.2344;0.1122;
-62.7000;0.2336;0.1122;
-62.4000;0.2336;0.1122;
-62.1000;0.2361;0.1122;
-61.8000;0.2352;0.1099;
-61.5000;0.2295;0.1051;
-61.2000;0.2344;0.1051;
-60.9000;0.2344;0.1027;
-60.6000;0.2361;0.0955;
-60.3000;0.2352;0.0955;
-60.0000;0.2344;0.1003;
-59.7000;0.2361;0.1027;
-59.4000;0.2344;0.0908;
-59.1000;0.2352;0.0931;
-58.8000;0.2320;0.0836;
-58.5000;0.2328;0.0908;
-58.2000;0.2344;0.0955;
-57.9000;0.2361;0.0931;
-57.6000;0.2361;0.0931;
-57.3000;0.2344;0.0812;
-57.0000;0.2361;0.0908;
-56.7000;0.2369;0.1027;
-56.4000;0.2344;0.1027;
-56.1000;0.2344;0.0979;
-55.8000;0.2352;0.1003;
-55.5000;0.2352;0.1099;
-55.2000;0.2336;0.1003;
-54.9000;0.2230;0.0693;
-54.6000;0.2369;0.1075;
-54.3000;0.2377;0.1146;
-54.0000;0.2361;0.1027;
-53.7000;0.2361;0.1075;
-53.4000;0.2361;0.1146;
-53.1000;0.2336;0.1099;
-52.8000;0.2361;0.1051;
-52.5000;0.2369;0.1027;
-52.2000;0.2336;0.1003;
-51.9000;0.2361;0.0979;
-51.6000;0.2361;0.1027;
-51.3000;0.2344;0.0955;
-51.0000;0.2369;0.1051;
-50.7000;0.2466;0.1314;
-50.4000;0.2385;0.1027;
-50.1000;0.2320;0.0860;
-49.8000;0.2369;0.0979;
-49.5000;0.2393;0.1099;
-49.2000;0.2369;0.1051;
-48.9000;0.2344;0.1051;
-48.6000;0.2466;0.1290;
-48.3000;0.2352;0.1099;
-48.0000;0.2361;0.1170;
-47.7000;0.2312;0.1003;
-47.4000;0.2304;0.0931;
-47.1000;0.2336;0.1051;
-46.8000;0.2361;0.1122;
-46.5000;0.2361;0.1099;
-46.2000;0.2352;0.1075;
-45.9000;0.2344;0.1146;
-45.6000;0.2409;0.1409;
-45.3000;0.2361;0.1337;
-45.0000;0.2361;0.1266;
-44.7000;0.2361;0.1290;
-44.4000;0.2377;0.1314;
-44.1000;0.2377;0.1290;
-43.8000;0.2336;0.1146;
-43.5000;0.2344;0.1170;
-43.2000;0.2344;0.1146;
-42.9000;0.2385;0.1218;
-42.6000;0.2377;0.1146;
-42.3000;0.2385;0.1218;
-42.0000;0.2336;0.1122;
-41.7000;0.2336;0.1122;
-41.4000;0.2320;0.1003;
-41.1000;0.2409;0.1242;
-40.8000;0.2336;0.1051;
-40.5000;0.2344;0.1122;
-40.2000;0.2352;0.1170;
-39.9000;0.2352;0.1218;
-39.6000;0.2361;0.1194;
-39.3000;0.2401;0.1337;
-39.0000;0.2336;0.1290;
-38.7000;0.2352;0.1266;
-38.4000;0.2344;0.1266;
-38.1000;0.2344;0.1242;
-37.8000;0.2328;0.1146;
-37.5000;0.2344;0.1122;
-37.2000;0.2352;0.1194;
-36.9000;0.2328;0.1099;
-36.6000;0.2344;0.1099;
-36.3000;0.2352;0.1075;
-36.0000;0.2336;0.1075;
-35.7000;0.2344;0.1027;
-35.4000;0.2336;0.0979;
-35.1000;0.2352;0.1003;
-34.8000;0.2247;0.0716;
-34.5000;0.2352;0.1075;
-34.2000;0.2336;0.1051;
-33.9000;0.2344;0.1099;
-33.6000;0.2336;0.1099;
-33.3000;0.2255;0.0908;
-33.0000;0.2352;0.1194;
-32.7000;0.2352;0.1194;
-32.4000;0.2336;0.1218;
-32.1000;0.2320;0.1170;
-31.8000;0.2344;0.1266;
-31.5000;0.2361;0.1218;
-31.2000;0.2369;0.1266;
-30.9000;0.2344;0.1170;
-30.6000;0.2377;0.1314;
-30.3000;0.2312;0.1075;
-30.0000;0.2361;0.1242;
-29.7000;0.2361;0.1194;
-29.4000;0.2352;0.1194;
-29.1000;0.2352;0.1146;
-28.8000;0.2426;0.1314;
-28.5000;0.2385;0.1266;
-28.2000;0.2336;0.1170;
-27.9000;0.2344;0.1194;
-27.6000;0.2361;0.1122;
-27.3000;0.2304;0.0908;
-27.0000;0.2344;0.1051;
-26.7000;0.2344;0.1027;
-26.4000;0.2369;0.1051;
-26.1000;0.2361;0.0979;
-25.8000;0.2328;0.0979;
-25.5000;0.2344;0.0979;
-25.2000;0.2361;0.1003;
-24.9000;0.2336;0.0931;
-24.6000;0.2352;0.0931;
-24.3000;0.2352;0.0908;
-24.0000;0.2442;0.1170;
-23.7000;0.2401;0.1051;
-23.4000;0.2352;0.0955;
-23.1000;0.2352;0.1003;
-22.8000;0.2328;0.0908;
-22.5000;0.2393;0.1051;
-22.2000;0.2328;0.0884;
-21.9000;0.2344;0.0931;
-21.6000;0.2328;0.0836;
-21.3000;0.2369;0.1003;
-21.0000;0.2369;0.0955;
-20.7000;0.2344;0.0908;
-20.4000;0.2361;0.0860;
-20.1000;0.2344;0.0908;
-19.8000;0.2361;0.1075;
-19.5000;0.2352;0.1051;
-19.2000;0.2369;0.1075;
-18.9000;0.2361;0.1003;
-18.6000;0.2385;0.1003;
-18.3000;0.2369;0.1003;
-18.0000;0.2361;0.0955;
-17.7000;0.2361;0.1003;
-17.4000;0.2393;0.1146;
-17.1000;0.2352;0.1122;
-16.8000;0.2361;0.1194;
-16.5000;0.2361;0.1266;
-16.2000;0.2475;0.1552;
-15.9000;0.2344;0.1218;
-15.6000;0.2336;0.1194;
-15.3000;0.2361;0.1290;
-15.0000;0.2328;0.1290;
-14.7000;0.2361;0.1337;
-14.4000;0.2369;0.1337;
-14.1000;0.2369;0.1337;
-13.8000;0.2361;0.1266;
-13.5000;0.2361;0.1218;
-13.2000;0.2361;0.1146;
-12.9000;0.2442;0.1242;
-12.6000;0.2352;0.1003;
-12.3000;0.2344;0.1003;
-12.0000;0.2295;0.0908;
-11.7000;0.2369;0.1146;
-11.4000;0.2344;0.1003;
-11.1000;0.2336;0.1051;
-10.8000;0.2352;0.1194;
-10.5000;0.2361;0.1218;
-10.2000;0.2352;0.1122;
-9.9000;0.2255;0.0955;
-9.6000;0.2352;0.1218;
-9.3000;0.2393;0.1314;
-9.0000;0.2287;0.1051;
-8.7000;0.2344;0.1146;
-8.4000;0.2361;0.1122;
-8.1000;0.2312;0.1027;
-7.8000;0.2352;0.1099;
-7.5000;0.2361;0.1027;
-7.2000;0.2458;0.1314;
-6.9000;0.2361;0.1075;
-6.6000;0.2369;0.1122;
-6.3000;0.2369;0.1146;
-6.0000;0.2344;0.1075;
-5.7000;0.2361;0.1194;
-5.4000;0.2361;0.1218;
-5.1000;0.2377;0.1242;
-4.8000;0.2344;0.1146;
-4.5000;0.2361;0.1122;
-4.2000;0.2344;0.1003;
-3.9000;0.2344;0.0908;
-3.6000;0.2287;0.0788;
-3.3000;0.2336;0.0884;
-3.0000;0.2352;0.0908;
-2.7000;0.2352;0.0908;
-2.4000;0.2320;0.0788;
-2.1000;0.2352;0.0955;
-1.8000;0.2361;0.0979;
-1.5000;0.2328;0.0908;
-1.2000;0.2344;0.0931;
-0.9000;0.2320;0.0955;
-0.6000;0.2336;0.1075;
-0.3000;0.2344;0.1146;
0.0000;0.2344;0.1146;
0.3000;0.2352;0.1075;
0.6000;0.2304;0.0955;
0.9000;0.2352;0.1075;
1.2000;0.2369;0.1194;
1.5000;0.2377;0.1385;
1.8000;0.2344;0.1409;
2.1000;0.2344;0.1385;
2.4000;0.2336;0.1481;
2.7000;0.2336;0.1528;
3.0000;0.2352;0.1576;
3.3000;0.2336;0.1528;
3.6000;0.2336;0.1528;
3.9000;0.2336;0.1528;
4.2000;0.2304;0.1385;
4.5000;0.2361;0.1576;
4.8000;0.2312;0.1552;
5.1000;0.2336;0.1600;
5.4000;0.2352;0.1624;
5.7000;0.2361;0.1696;
6.0000;0.2352;0.1720;
6.3000;0.2287;0.1720;
6.6000;0.2369;0.1934;
6.9000;0.2328;0.1767;
7.2000;0.2279;0.1767;
7.5000;0.2401;0.2054;
7.8000;0.2377;0.1982;
8.1000;0.2344;0.1791;
8.4000;0.2369;0.1815;
8.7000;0.2336;0.1696;
9.0000;0.2320;0.1696;
9.3000;0.2336;0.1743;
9.6000;0.2344;0.1767;
9.9000;0.2369;0.1720;
10.2000;0.2352;0.1624;
10.5000;0.2336;0.1600;
10.8000;0.2369;0.1743;
11.1000;0.2361;0.1815;
11.4000;0.2361;0.1934;
11.7000;0.2344;0.1863;
12.0000;0.2304;0.1743;
12.3000;0.2344;0.1720;
12.6000;0.2336;0.1720;
12.9000;0.2361;0.1815;
13.2000;0.2328;0.1720;
13.5000;0.2344;0.1863;
13.8000;0.2312;0.1767;
14.1000;0.2344;0.1911;
14.4000;0.2336;0.1863;
14.7000;0.2352;0.1863;
15.0000;0.2352;0.1839;
15.3000;0.2336;0.1815;
15.6000;0.2320;0.1767;
15.9000;0.2352;0.1815;
16.2000;0.2361;0.1815;
16.5000;0.2352;0.1743;
16.8000;0.2352;0.1743;
17.1000;0.2336;0.1720;
17.4000;0.2328;0.1696;
17.7000;0.2344;0.1743;
18.0000;0.2344;0.1696;
18.3000;0.2336;0.1624;
18.6000;0.2336;0.1648;
18.9000;0.2344;0.1696;
19.2000;0.2361;0.1672;
19.5000;0.2336;0.1672;
19.8000;0.2287;0.1552;
20.1000;0.2361;0.1743;
20.4000;0.2328;0.1743;
20.7000;0.2336;0.1815;
21.0000;0.2344;0.1863;
21.3000;0.2361;0.1839;
21.6000;0.2344;0.1767;
21.9000;0.2328;0.1672;
22.2000;0.2352;0.1743;
22.5000;0.2352;0.1863;
22.8000;0.2393;0.1982;
23.1000;0.2320;0.1767;
23.4000;0.2328;0.1839;
23.7000;0.2344;0.1887;
24.0000;0.2304;0.1839;
24.3000;0.2434;0.2126;
24.6000;0.2320;0.1863;
24.9000;0.2336;0.1887;
25.2000;0.2352;0.1863;
25.5000;0.2239;0.1600;
25.8000;0.2344;0.1863;
26.1000;0.2328;0.1839;
26.4000;0.2369;0.1958;
26.7000;0.2328;0.1911;
27.0000;0.2361;0.1958;
27.3000;0.2336;0.1839;
27.6000;0.2377;0.1934;
27.9000;0.2352;0.1791;
28.2000;0.2344;0.1863;
28.5000;0.2385;0.1982;
28.8000;0.2336;0.1934;
29.1000;0.2352;0.1934;
29.4000;0.2344;0.1863;
29.7000;0.2336;0.1767;
30.0000;0.2344;0.1767;
30.3000;0.2344;0.1815;
30.6000;0.2190;0.1409;
30.9000;0.2361;0.1791;
31.2000;0.2312;0.1696;
31.5000;0.2328;0.1767;
31.8000;0.2320;0.1743;
32.1000;0.2409;0.1958;
32.4000;0.2344;0.1887;
32.7000;0.2344;0.1911;
33.0000;0.2344;0.1958;
33.3000;0.2336;0.1911;
33.6000;0.2336;0.1982;
33.9000;0.2336;0.1911;
34.2000;0.2352;0.1934;
34.5000;0.2312;0.1887;
34.8000;0.2312;0.1839;
35.1000;0.2328;0.1839;
35.4000;0.2328;0.1863;
35.7000;0.2328;0.1815;
36.0000;0.2352;0.1911;
36.3000;0.2320;0.1863;
36.6000;0.2336;0.1958;
36.9000;0.2320;0.1958;
37.2000;0.2336;0.1958;
37.5000;0.2344;0.2030;
37.8000;0.2312;0.1958;
38.1000;0.2320;0.2054;
38.4000;0.2320;0.2054;
38.7000;0.2336;0.2006;
39.0000;0.2352;0.2006;
39.3000;0.2344;0.2006;
39.6000;0.2344;0.1982;
39.9000;0.2344;0.2006;
40.2000;0.2352;0.2030;
40.5000;0.2352;0.2149;
40.8000;0.2312;0.2102;
41.1000;0.2336;0.2126;
41.4000;0.2287;0.1863;
41.7000;0.2344;0.1982;
42.0000;0.2344;0.1982;
42.3000;0.2336;0.1982;
42.6000;0.2352;0.2102;
42.9000;0.2352;0.2126;
43.2000;0.2295;0.1887;
43.5000;0.2312;0.1958;
43.8000;0.2328;0.2126;
44.1000;0.2336;0.2221;
44.4000;0.2312;0.2126;
44.7000;0.2312;0.2078;
45.0000;0.2328;0.2149;
45.3000;0.2344;0.2221;
45.6000;0.2344;0.2269;
45.9000;0.2352;0.2317;
46.2000;0.2336;0.2317;
46.5000;0.2377;0.2317;
46.8000;0.2328;0.2149;
47.1000;0.2361;0.2030;
47.4000;0.2336;0.1958;
47.7000;0.2336;0.2006;
48.0000;0.2344;0.2030;
48.3000;0.2336;0.2006;
48.6000;0.2361;0.2030;
48.9000;0.2336;0.1982;
49.2000;0.2336;0.2030;
49.5000;0.2295;0.1934;
49.8000;0.2344;0.2054;
50.1000;0.2336;0.2078;
50.4000;0.2320;0.1911;
50.7000;0.2320;0.1911;
51.0000;0.2344;0.2078;
51.3000;0.2320;0.2054;
51.6000;0.2361;0.2149;
51.9000;0.2344;0.2126;
52.2000;0.2320;0.1982;
52.5000;0.2352;0.2030;
52.8000;0.2352;0.2149;
53.1000;0.2344;0.2173;
53.4000;0.2336;0.2149;
53.7000;0.2352;0.2221;
54.0000;0.2336;0.2126;
54.3000;0.2328;0.2102;
54.6000;0.2320;0.2054;
54.9000;0.2336;0.2054;
55.2000;0.2344;0.2126;
55.5000;0.2336;0.2054;
55.8000;0.2320;0.2054;
56.1000;0.2401;0.2269;
56.4000;0.2336;0.2006;
56.7000;0.2304;0.1982;
57.0000;0.2336;0.1934;
57.3000;0.2320;0.1863;
57.6000;0.2295;0.1767;
57.9000;0.2336;0.1839;
58.2000;0.2344;0.1934;
58.5000;0.2328;0.1863;
58.8000;0.2328;0.1839;
59.1000;0.2320;0.1887;
59.4000;0.2328;0.1911;
59.7000;0.2328;0.1887;
60.0000;0.2328;0.1934;
60.3000;0.2304;0.1911;
60.6000;0.2336;0.2030;
60.9000;0.2295;0.1934;
61.2000;0.2328;0.2006;
61.5000;0.2336;0.2126;
61.8000;0.2320;0.2102;
62.1000;0.2352;0.2126;
62.4000;0.2344;0.2078;
62.7000;0.2369;0.2126;
63.0000;0.2336;0.2006;
63.3000;0.2328;0.2006;
63.6000;0.2328;0.2054;
63.9000;0.2344;0.2006;
64.2000;0.2287;0.1720;
64.5000;0.2320;0.1863;
64.8000;0.2344;0.1911;
65.1000;0.2328;0.1863;
65.4000;0.2328;0.1887;
65.7000;0.2336;0.1863;
66.0000;0.2344;0.1911;
66.3000;0.2320;0.1791;
66.6000;0.2271;0.1720;
66.9000;0.2344;0.1911;
67.2000;0.2352;0.1934;
67.5000;0.2352;0.1839;
67.8000;0.2344;0.1791;
68.1000;0.2312;0.1696;
68.4000;0.2304;0.1624;
68.7000;0.2336;0.1720;
69.0000;0.2328;0.1743;
69.3000;0.2312;0.1767;
69.6000;0.2377;0.1863;
69.9000;0.2352;0.1863;
70.2000;0.2328;0.1815;
70.5000;0.2385;0.1982;
70.8000;0.2328;0.1887;
71.1000;0.2344;0.1863;
71.4000;0.2304;0.1791;
71.7000;0.2328;0.1791;
72.0000;0.2352;0.1839;
72.3000;0.2295;0.1767;
72.6000;0.2401;0.2006;
72.9000;0.2328;0.1839;
73.2000;0.2328;0.1911;
73.5000;0.2393;0.2030;
73.8000;0.2320;0.1911;
74.1000;0.2328;0.1887;
74.4000;0.2344;0.1911;
74.7000;0.2344;0.1934;
75.0000;0.2336;0.1887;
75.3000;0.2344;0.1934;
75.6000;0.2336;0.1863;
75.9000;0.2328;0.1982;
76.2000;0.2336;0.2006;
76.5000;0.2320;0.2030;
76.8000;0.2320;0.1982;
77.1000;0.2344;0.2054;
77.4000;0.2344;0.1982;
77.7000;0.2361;0.1934;
78.0000;0.2344;0.1982;
78.3000;0.2336;0.1982;
78.6000;0.2344;0.1934;
78.9000;0.2336;0.1911;
79.2000;0.2328;0.1934;
79.5000;0.2328;0.1887;
79.8000;0.2279;0.1863;
80.1000;0.2336;0.1911;
80.4000;0.2320;0.1791;
80.7000;0.2320;0.1791;
81.0000;0.2328;0.1791;
81.3000;0.2312;0.1743;
81.6000;0.2344;0.1863;
81.9000;0.2336;0.1911;
82.2000;0.2352;0.1982;
82.5000;0.2336;0.2006;
82.8000;0.2320;0.2054;
83.1000;0.2336;0.2078;
83.4000;0.2328;0.2054;
83.7000;0.2336;0.2054;
84.0000;0.2336;0.1887;
84.3000;0.2328;0.1863;
84.6000;0.2336;0.1863;
84.9000;0.2336;0.1934;
85.2000;0.2369;0.2030;
85.5000;0.2328;0.1958;
85.8000;0.2312;0.1982;
86.1000;0.2336;0.2030;
86.4000;0.2328;0.1982;
86.7000;0.2352;0.2054;
87.0000;0.2328;0.2054;
87.3000;0.2312;0.1982;
87.6000;0.2336;0.1911;
87.9000;0.2328;0.1839;
88.2000;0.2328;0.1791;
88.5000;0.2328;0.1863;
88.8000;0.2336;0.1887;
89.1000;0.2352;0.1982;
89.4000;0.2312;0.1911;
89.7000;0.2336;0.2078;
90.0000;0.2320;0.2102;
90.3000;0.2361;0.2149;
90.6000;0.2304;0.2054;
90.9000;0.2312;0.2149;
91.2000;0.2336;0.2197;
91.5000;0.2377;0.2197;
91.8000;0.2328;0.2078;
92.1000;0.2328;0.2126;
92.4000;0.2304;0.2078;
92.7000;0.2320;0.2126;
93.0000;0.2320;0.2245;
93.3000;0.2336;0.2221;
93.6000;0.2336;0.2221;
93.9000;0.2320;0.2126;
94.2000;0.2320;0.2078;
94.5000;0.2328;0.2078;
94.8000;0.2328;0.2149;
95.1000;0.2344;0.2126;
95.4000;0.2328;0.2030;
95.7000;0.2304;0.1958;
96.0000;0.2328;0.2030;
96.3000;0.2320;0.2006;
96.6000;0.2336;0.2126;
96.9000;0.2409;0.2269;
97.2000;0.2328;0.2030;
97.5000;0.2287;0.1887;
97.8000;0.2328;0.2006;
98.1000;0.2328;0.2030;
98.4000;0.2336;0.1911;
98.7000;0.2336;0.1839;
99.0000;0.2336;0.1887;
99.3000;0.2336;0.1887;
99.6000;0.2336;0.1815;
99.9000;0.2344;0.1743;
100.2000;0.2328;0.1791;
100.5000;0.2328;0.1743;
100.8000;0.2336;0.1815;
101.1000;0.2336;0.1767;
101.4000;0.2336;0.1767;
101.7000;0.2352;0.1815;
102.0000;0.2352;0.1934;
102.3000;0.2328;0.1887;
102.6000;0.2320;0.1863;
102.9000;0.2320;0.1911;
103.2000;0.2328;0.1911;
103.5000;0.2336;0.1934;
103.8000;0.2320;0.1911;
104.1000;0.2344;0.1934;
104.4000;0.2320;0.1911;
104.7000;0.2279;0.1815;
105.0000;0.2361;0.2030;
105.3000;0.2336;0.1911;
105.6000;0.2328;0.1982;
105.9000;0.2320;0.1958;
106.2000;0.2336;0.1934;
106.5000;0.2328;0.1958;
106.8000;0.2336;0.1815;
107.1000;0.2312;0.1815;
107.4000;0.2336;0.1863;
107.7000;0.2328;0.1791;
108.0000;0.2320;0.1815;
108.3000;0.2336;0.1815;
108.6000;0.2287;0.1767;
108.9000;0.2328;0.1911;
109.2000;0.2344;0.1982;
109.5000;0.2352;0.2006;
109.8000;0.2344;0.1982;
110.1000;0.2344;0.1934;
110.4000;0.2426;0.2197;
110.7000;0.2361;0.2006;
111.0000;0.2336;0.2006;
111.3000;0.2344;0.2078;
111.6000;0.2328;0.2102;
111.9000;0.2328;0.2054;
112.2000;0.2312;0.1958;
112.5000;0.2328;0.1982;
112.8000;0.2336;0.2030;
113.1000;0.2328;0.2102;
113.4000;0.2125;0.1624;
113.7000;0.2320;0.2078;
114.0000;0.2287;0.2006;
114.3000;0.2255;0.1934;
114.6000;0.2328;0.2102;
114.9000;0.2328;0.2078;
115.2000;0.2328;0.2078;
115.5000;0.2255;0.1863;
115.8000;0.2344;0.2030;
116.1000;0.2336;0.2078;
116.4000;0.2328;0.2126;
116.7000;0.2304;0.2149;
117.0000;0.2336;0.2221;
117.3000;0.2320;0.2173;
117.6000;0.2320;0.2149;
117.9000;0.2328;0.2173;
118.2000;0.2312;0.2173;
118.5000;0.2320;0.2149;
118.8000;0.2320;0.2126;
119.1000;0.2328;0.2173;
119.4000;0.2336;0.2221;
119.7000;0.2295;0.2078;
120.0000;0.2320;0.2102;
120.3000;0.2312;0.2054;
120.6000;0.2320;0.2102;
120.9000;0.2344;0.2149;
121.2000;0.2312;0.2126;
121.5000;0.2361;0.2221;
121.8000;0.2320;0.2078;
122.1000;0.2312;0.2078;
122.4000;0.2320;0.2126;
122.7000;0.2328;0.2149;
123.0000;0.2320;0.2149;
123.3000;0.2336;0.2173;
123.6000;0.2361;0.2317;
123.9000;0.2320;0.2173;
124.2000;0.2279;0.2102;
124.5000;0.2320;0.2149;
124.8000;0.2361;0.2078;
125.1000;0.2336;0.1958;
125.4000;0.2344;0.1911;
125.7000;0.2230;0.1720;
126.0000;0.2361;0.2030;
126.3000;0.2328;0.1982;
126.6000;0.2320;0.1982;
126.9000;0.2336;0.2054;
127.2000;0.2304;0.2149;
127.5000;0.2328;0.2173;
127.8000;0.2295;0.2054;
128.1000;0.2320;0.2102;
128.4000;0.2336;0.2149;
128.7000;0.2352;0.2173;
129.0000;0.2304;0.2078;
129.3000;0.2361;0.2221;
129.6000;0.2401;0.2340;
129.9000;0.2344;0.2197;
130.2000;0.2344;0.2102;
130.5000;0.2312;0.1934;
130.8000;0.2336;0.1982;
131.1000;0.2344;0.1934;
131.4000;0.2336;0.1934;
131.7000;0.2328;0.1887;
132.0000;0.2304;0.1863;
132.3000;0.2336;0.2006;
132.6000;0.2320;0.2078;
132.9000;0.2328;0.2078;
133.2000;0.2328;0.2102;
133.5000;0.2344;0.2126;
133.8000;0.2328;0.2030;
134.1000;0.2344;0.2030;
134.4000;0.2344;0.1887;
134.7000;0.2328;0.1911;
135.0000;0.2361;0.2006;
135.3000;0.2344;0.1934;
135.6000;0.2328;0.1815;
135.9000;0.2320;0.1839;
136.2000;0.2385;0.2078;
136.5000;0.2344;0.1934;
136.8000;0.2328;0.1863;
137.1000;0.2328;0.1934;
137.4000;0.2328;0.2078;
137.7000;0.2320;0.1958;
138.0000;0.2312;0.1958;
138.3000;0.2304;0.1982;
138.6000;0.2271;0.1887;
138.9000;0.2344;0.2102;
139.2000;0.2328;0.2030;
139.5000;0.2328;0.2078;
139.8000;0.2344;0.2102;
140.1000;0.2328;0.2149;
140.4000;0.2409;0.2197;
140.7000;0.2352;0.2078;
141.0000;0.2320;0.2102;
141.3000;0.2393;0.2245;
141.6000;0.2328;0.2078;
141.9000;0.2328;0.2030;
142.2000;0.2328;0.2030;
142.5000;0.2336;0.2126;
142.8000;0.2328;0.2221;
143.1000;0.2336;0.2197;
143.4000;0.2320;0.2078;
143.7000;0.2344;0.2078;
144.0000;0.2320;0.2102;
144.3000;0.2328;0.2078;
144.6000;0.2344;0.2149;
144.9000;0.2328;0.2149;
145.2000;0.2344;0.2149;
145.5000;0.2320;0.2006;
145.8000;0.2344;0.1911;
146.1000;0.2320;0.1791;
146.4000;0.2328;0.1863;
146.7000;0.2385;0.1934;
147.0000;0.2336;0.1815;
147.3000;0.2312;0.1672;
147.6000;0.2255;0.1481;
147.9000;0.2320;0.1624;
148.2000;0.2320;0.1648;
148.5000;0.2320;0.1624;
148.8000;0.2328;0.1672;
149.1000;0.2304;0.1576;
149.4000;0.2328;0.1648;
149.7000;0.2328;0.1648;
150.0000;0.2320;0.1696;
150.3000;0.2336;0.1720;
150.6000;0.2344;0.1672;
150.9000;0.2328;0.1624;
151.2000;0.2320;0.1600;
151.5000;0.2352;0.1672;
151.8000;0.2336;0.1648;
152.1000;0.2344;0.1648;
152.4000;0.2312;0.1576;
152.7000;0.2312;0.1624;
153.0000;0.2328;0.1720;
153.3000;0.2385;0.1934;
153.6000;0.2352;0.1791;
153.9000;0.2328;0.1743;
154.2000;0.2336;0.1815;
154.5000;0.2336;0.1887;
154.8000;0.2320;0.1863;
155.1000;0.2344;0.1934;
155.4000;0.2295;0.1863;
155.7000;0.2312;0.1982;
156.0000;0.2336;0.2006;
156.3000;0.2328;0.2173;
156.6000;0.2279;0.1958;
156.9000;0.2344;0.2102;
157.2000;0.2336;0.2102;
157.5000;0.2377;0.2078;
157.8000;0.2320;0.2030;
158.1000;0.2328;0.1982;
158.4000;0.2263;0.1791;
158.7000;0.2328;0.1958;
159.0000;0.2328;0.1982;
159.3000;0.2263;0.1743;
159.6000;0.2328;0.1911;
159.9000;0.2320;0.2006;
160.2000;0.2344;0.2030;
160.5000;0.2385;0.2102;
160.8000;0.2361;0.2030;
161.1000;0.2328;0.1934;
161.4000;0.2320;0.1839;
161.7000;0.2336;0.1887;
162.0000;0.2320;0.1911;
162.3000;0.2247;0.1767;
162.6000;0.2304;0.1934;
162.9000;0.2312;0.1958;
163.2000;0.2344;0.2030;
163.5000;0.2271;0.1767;
163.8000;0.2312;0.1839;
164.1000;0.2328;0.1911;
164.4000;0.2377;0.2006;
164.7000;0.2385;0.2054;
165.0000;0.2320;0.1934;
165.3000;0.2385;0.2078;
165.6000;0.2409;0.2245;
165.9000;0.2352;0.1982;
166.2000;0.2344;0.2030;
166.5000;0.2328;0.2030;
166.8000;0.2361;0.2030;
167.1000;0.2344;0.1958;
167.4000;0.2369;0.2030;
167.7000;0.2344;0.2006;
168.0000;0.2336;0.2030;
168.3000;0.2328;0.2006;
168.6000;0.2328;0.1911;
168.9000;0.2352;0.1887;
169.2000;0.2320;0.1791;
169.5000;0.2328;0.1911;
169.8000;0.2344;0.1887;
170.1000;0.2418;0.2054;
170.4000;0.2328;0.1815;
170.7000;0.2336;0.1839;
171.0000;0.2328;0.1791;
171.3000;0.2320;0.1839;
171.6000;0.2320;0.1887;
171.9000;0.2320;0.1815;
172.2000;0.2336;0.1839;
172.5000;0.2336;0.1911;
172.8000;0.2320;0.1911;
173.1000;0.2377;0.1958;
173.4000;0.2328;0.1839;
173.7000;0.2312;0.1767;
174.0000;0.2320;0.1767;
174.3000;0.2320;0.1815;
174.6000;0.2328;0.1887;
174.9000;0.2328;0.1863;
175.2000;0.2304;0.1839;
175.5000;0.2336;0.1982;
175.8000;0.2336;0.2030;
176.1000;0.2352;0.2078;
176.4000;0.2328;0.2006;
176.7000;0.2312;0.1934;
177.0000;0.2336;0.1982;
177.3000;0.2304;0.1887;
177.6000;0.2328;0.1982;
177.9000;0.2328;0.1982;
178.2000;0.2320;0.1958;
178.5000;0.2320;0.1958;
178.8000;0.2312;0.1982;
179.1000;0.2206;0.1743;
179.4000;0.2214;0.1839;
179.7000;0.2320;0.2221;
180.0000;0.2328;0.2078;
180.3000;0.2312;0.2006;
180.6000;0.2312;0.2054;
180.9000;0.2320;0.2006;
181.2000;0.2336;0.2030;
181.5000;0.2336;0.1958;
181.8000;0.2328;0.1934;
182.1000;0.2320;0.1934;
182.4000;0.2336;0.1982;
182.7000;0.2328;0.2078;
183.0000;0.2304;0.2078;
183.3000;0.2320;0.2030;
183.6000;0.2401;0.2221;
183.9000;0.2255;0.1839;
184.2000;0.2328;0.2054;
184.5000;0.2320;0.2078;
184.8000;0.2336;0.2078;
185.1000;0.2263;0.1839;
185.4000;0.2312;0.2006;
185.7000;0.2336;0.2102;
186.0000;0.2320;0.2030;
186.3000;0.2328;0.2149;
186.6000;0.2320;0.2149;
186.9000;0.2328;0.2173;
187.2000;0.2344;0.2221;
187.5000;0.2295;0.2078;
187.8000;0.2328;0.2197;
188.1000;0.2328;0.2197;
188.4000;0.2312;0.2245;
188.7000;0.2336;0.2245;
189.0000;0.2409;0.2436;
189.3000;0.2344;0.2221;
189.6000;0.2328;0.2221;
189.9000;0.2328;0.2197;
190.2000;0.2320;0.2197;
190.5000;0.2328;0.2102;
190.8000;0.2336;0.2149;
191.1000;0.2361;0.2269;
191.4000;0.2336;0.2149;
191.7000;0.2320;0.2078;
192.0000;0.2328;0.2078;
192.3000;0.2344;0.2078;
192.6000;0.2336;0.1958;
192.9000;0.2328;0.1982;
193.2000;0.2336;0.2030;
193.5000;0.2352;0.2102;
193.8000;0.2328;0.2054;
194.1000;0.2352;0.2173;
194.4000;0.2312;0.2102;
194.7000;0.2344;0.2173;
195.0000;0.2328;0.2078;
195.3000;0.2304;0.1982;
195.6000;0.2312;0.1982;
195.9000;0.2336;0.2030;
196.2000;0.2328;0.2054;
196.5000;0.2320;0.2078;
196.8000;0.2328;0.2078;
197.1000;0.2320;0.2173;
197.4000;0.2352;0.2197;
197.7000;0.2255;0.1934;
198.0000;0.2344;0.2197;
198.3000;0.2312;0.2126;
198.6000;0.2328;0.2173;
198.9000;0.2320;0.2030;
199.2000;0.2312;0.1958;
199.5000;0.2320;0.1911;
199.8000;0.2328;0.1958;
200.1000;0.2328;0.1982;
200.4000;0.2287;0.1934;
200.7000;0.2320;0.2030;
201.0000;0.2336;0.2054;
201.3000;0.2369;0.2197;
201.6000;0.2344;0.2221;
201.9000;0.2320;0.2126;
202.2000;0.2336;0.2173;
202.5000;0.2287;0.2006;
202.8000;0.2344;0.2149;
203.1000;0.2336;0.2054;
203.4000;0.2336;0.2102;
203.7000;0.2328;0.2102;
204.0000;0.2328;0.2173;
204.3000;0.2312;0.2126;
204.6000;0.2320;0.2078;
204.9000;0.2328;0.2173;
205.2000;0.2320;0.2197;
205.5000;0.2247;0.1982;
205.8000;0.2336;0.2149;
206.1000;0.2328;0.2126;
206.4000;0.2409;0.2269;
206.7000;0.2320;0.2030;
207.0000;0.2336;0.2030;
207.3000;0.2271;0.1911;
207.6000;0.2328;0.1982;
207.9000;0.2336;0.1982;
208.2000;0.2393;0.2078;
208.5000;0.2312;0.1911;
208.8000;0.2320;0.1982;
209.1000;0.2336;0.1982;
209.4000;0.2328;0.2006;
209.7000;0.2312;0.1982;
210.0000;0.2320;0.1982;
210.3000;0.2336;0.2030;
210.6000;0.2328;0.2030;
210.9000;0.2328;0.1958;
211.2000;0.2336;0.1982;
211.5000;0.2336;0.2006;
211.8000;0.2344;0.2006;
212.1000;0.2295;0.1982;
212.4000;0.2344;0.2126;
212.7000;0.2320;0.1982;
213.0000;0.2377;0.2054;
213.3000;0.2320;0.1934;
213.6000;0.2336;0.1934;
213.9000;0.2328;0.1863;
214.2000;0.2344;0.1839;
214.5000;0.2336;0.1839;
214.8000;0.2336;0.1815;
215.1000;0.2312;0.1839;
215.4000;0.2328;0.1911;
215.7000;0.2393;0.2078;
216.0000;0.2320;0.1815;
216.3000;0.2295;0.1767;
216.6000;0.2328;0.1863;
216.9000;0.2344;0.2006;
217.2000;0.2336;0.2030;
217.5000;0.2361;0.2078;
217.8000;0.2336;0.2054;
218.1000;0.2361;0.2173;
218.4000;0.2344;0.2173;
218.7000;0.2328;0.2149;
219.0000;0.2336;0.2054;
219.3000;0.2304;0.1911;
219.6000;0.2344;0.1958;
219.9000;0.2328;0.1934;
220.2000;0.2344;0.1934;
220.5000;0.2344;0.1958;
220.8000;0.2361;0.2126;
221.1000;0.2336;0.2126;
221.4000;0.2312;0.2102;
221.7000;0.2369;0.2269;
222.0000;0.2344;0.2221;
222.3000;0.2312;0.2126;
222.6000;0.2336;0.2149;
222.9000;0.2328;0.2149;
223.2000;0.2336;0.2149;
223.5000;0.2385;0.2293;
223.8000;0.2263;0.1982;
224.1000;0.2312;0.2078;
224.4000;0.2344;0.2078;
224.7000;0.2312;0.1934;
225.0000;0.2287;0.1911;
225.3000;0.2312;0.1934;
225.6000;0.2312;0.1934;
225.9000;0.2320;0.1982;
226.2000;0.2328;0.1958;
226.5000;0.2336;0.1982;
226.8000;0.2287;0.1887;
227.1000;0.2320;0.1982;
227.4000;0.2336;0.2006;
227.7000;0.2328;0.2006;
228.0000;0.2434;0.2269;
228.3000;0.2320;0.2054;
228.6000;0.2320;0.1982;
228.9000;0.2320;0.1982;
229.2000;0.2328;0.2006;
229.5000;0.2328;0.1934;
229.8000;0.2312;0.1839;
230.1000;0.2295;0.1720;
230.4000;0.2312;0.1767;
230.7000;0.2328;0.1815;
231.0000;0.2320;0.1767;
231.3000;0.2312;0.1720;
231.6000;0.2271;0.1696;
231.9000;0.2320;0.1815;
232.2000;0.2328;0.1863;
232.5000;0.2377;0.2078;
232.8000;0.2271;0.1767;
233.1000;0.2312;0.1887;
233.4000;0.2320;0.1863;
233.7000;0.2336;0.1863;
234.0000;0.2304;0.1839;
234.3000;0.2222;0.1552;
234.6000;0.2377;0.1958;
234.9000;0.2312;0.1815;
235.2000;0.2320;0.1911;
235.5000;0.2336;0.1839;
235.8000;0.2352;0.1743;
236.1000;0.2312;0.1624;
236.4000;0.2304;0.1624;
236.7000;0.2312;0.1696;
237.0000;0.2312;0.1767;
237.3000;0.2247;0.1552;
237.6000;0.2320;0.1767;
237.9000;0.2304;0.1791;
238.2000;0.2328;0.1863;
238.5000;0.2344;0.2030;
238.8000;0.2295;0.1887;
239.1000;0.2320;0.1958;
239.4000;0.2328;0.1911;
239.7000;0.2320;0.1887;
240.0000;0.2336;0.1911;
240.3000;0.2312;0.1958;
240.6000;0.2361;0.2078;
240.9000;0.2344;0.2006;
241.2000;0.2320;0.1911;
241.5000;0.2320;0.1958;
241.8000;0.2287;0.1815;
242.1000;0.2304;0.1887;
242.4000;0.2320;0.1887;
242.7000;0.2328;0.1958;
243.0000;0.2312;0.1911;
243.3000;0.2328;0.1958;
243.6000;0.2295;0.1815;
243.9000;0.2352;0.1934;
244.2000;0.2320;0.1815;
244.5000;0.2279;0.1791;
244.8000;0.2312;0.1863;
245.1000;0.2304;0.1767;
245.4000;0.2328;0.1887;
245.7000;0.2320;0.1934;
246.0000;0.2328;0.1982;
246.3000;0.2312;0.1887;
246.6000;0.2328;0.1887;
246.9000;0.2336;0.1982;
247.2000;0.2328;0.2078;
247.5000;0.2328;0.2030;
247.8000;0.2312;0.1982;
248.1000;0.2320;0.1958;
248.4000;0.2230;0.1743;
248.7000;0.2328;0.2006;
249.0000;0.2344;0.2126;
249.3000;0.2352;0.2173;
249.6000;0.2320;0.2102;
249.9000;0.2328;0.2149;
250.2000;0.2312;0.2245;
250.5000;0.2271;0.2030;
250.8000;0.2328;0.2197;
251.1000;0.2336;0.2197;
251.4000;0.2304;0.2149;
251.7000;0.2320;0.2293;
252.0000;0.2369;0.2412;
252.3000;0.2344;0.2317;
252.6000;0.2336;0.2269;
252.9000;0.2328;0.2293;
253.2000;0.2320;0.2197;
253.5000;0.2434;0.2460;
253.8000;0.2320;0.2197;
254.1000;0.2312;0.2197;
254.4000;0.2328;0.2149;
254.7000;0.2344;0.2221;
255.0000;0.2336;0.2269;
255.3000;0.2255;0.2006;
255.6000;0.2328;0.2197;
255.9000;0.2328;0.2126;
256.2000;0.2320;0.2149;
256.5000;0.2336;0.2173;
256.8000;0.2320;0.2054;
257.1000;0.2312;0.2054;
257.4000;0.2312;0.2126;
257.7000;0.2385;0.2364;
258.0000;0.2304;0.2149;
258.3000;0.2369;0.2269;
258.6000;0.2344;0.2078;
258.9000;0.2320;0.2078;
259.2000;0.2328;0.2102;
259.5000;0.2304;0.2054;
259.8000;0.2320;0.2126;
260.1000;0.2336;0.2245;
260.4000;0.2344;0.2340;
260.7000;0.2328;0.2221;
261.0000;0.2279;0.2054;
261.3000;0.2369;0.2245;
261.6000;0.2344;0.2197;
261.9000;0.2369;0.2293;
262.2000;0.2336;0.2245;
262.5000;0.2320;0.2149;
262.8000;0.2320;0.2173;
263.1000;0.2328;0.2173;
263.4000;0.2336;0.2245;
263.7000;0.2352;0.2269;
264.0000;0.2361;0.2293;
264.3000;0.2344;0.2221;
264.6000;0.2328;0.2102;
264.9000;0.2312;0.2102;
265.2000;0.2344;0.2173;
265.5000;0.2328;0.2173;
265.8000;0.2483;0.2579;
266.1000;0.2312;0.2173;
266.4000;0.2312;0.2126;
266.7000;0.2336;0.2221;
267.0000;0.2328;0.2221;
267.3000;0.2304;0.2102;
267.6000;0.2336;0.2102;
267.9000;0.2320;0.2006;
268.2000;0.2312;0.1934;
268.5000;0.2320;0.1911;
268.8000;0.2312;0.1982;
269.1000;0.2328;0.2078;
269.4000;0.2344;0.2078;
269.7000;0.2344;0.2173;
270.0000;0.2361;0.2269;
270.3000;0.2328;0.2126;
270.6000;0.2304;0.2126;
270.9000;0.2328;0.2078;
271.2000;0.2312;0.1934;
271.5000;0.2336;0.2054;
271.8000;0.2320;0.1958;
272.1000;0.2336;0.1839;
272.4000;0.2320;0.1911;
272.7000;0.2320;0.1839;
273.0000;0.2328;0.1767;
273.3000;0.2385;0.1887;
273.6000;0.2312;0.1648;
273.9000;0.2320;0.1743;
274.2000;0.2304;0.1672;
274.5000;0.2295;0.1743;
274.8000;0.2328;0.1791;
275.1000;0.2344;0.1815;
275.4000;0.2352;0.1791;
275.7000;0.2352;0.1791;
276.0000;0.2295;0.1743;
276.3000;0.2336;0.1887;
276.6000;0.2328;0.1839;
276.9000;0.2328;0.1839;
277.2000;0.2328;0.1815;
277.5000;0.2295;0.1815;
277.8000;0.2312;0.1911;
278.1000;0.2344;0.1982;
278.4000;0.2320;0.1911;
278.7000;0.2336;0.1934;
279.0000;0.2320;0.1911;
279.3000;0.2344;0.1958;
279.6000;0.2336;0.1934;
279.9000;0.2328;0.1982;
280.2000;0.2344;0.1958;
280.5000;0.2369;0.2078;
280.8000;0.2336;0.2078;
281.1000;0.2320;0.2078;
281.4000;0.2328;0.1982;
281.7000;0.2320;0.1934;
282.0000;0.2336;0.1887;
282.3000;0.2328;0.1887;
282.6000;0.2312;0.1815;
282.9000;0.2320;0.1887;
283.2000;0.2336;0.1934;
283.5000;0.2328;0.1958;
283.8000;0.2304;0.1815;
284.1000;0.2336;0.1958;
284.4000;0.2312;0.1887;
284.7000;0.2304;0.1911;
285.0000;0.2344;0.2006;
285.3000;0.2320;0.1958;
285.6000;0.2344;0.2102;
285.9000;0.2352;0.2126;
286.2000;0.2336;0.2054;
286.5000;0.2320;0.2078;
286.8000;0.2328;0.2030;
287.1000;0.2328;0.2030;
287.4000;0.2304;0.1982;
287.7000;0.2312;0.1911;
288.0000;0.2328;0.1958;
288.3000;0.2247;0.1743;
288.6000;0.2320;0.1982;
288.9000;0.2328;0.1982;
289.2000;0.2320;0.1982;
289.5000;0.2344;0.1958;
289.8000;0.2336;0.1934;
290.1000;0.2336;0.1934;
290.4000;0.2312;0.1815;
290.7000;0.2328;0.1863;
291.0000;0.2320;0.1958;
291.3000;0.2328;0.1934;
291.6000;0.2320;0.1958;
291.9000;0.2352;0.1934;
292.2000;0.2320;0.1791;
292.5000;0.2312;0.1911;
292.8000;0.2328;0.1958;
293.1000;0.2328;0.1934;
293.4000;0.2312;0.1982;
293.7000;0.2336;0.2078;
294.0000;0.2320;0.2030;
294.3000;0.2320;0.2006;
294.6000;0.2336;0.2054;
294.9000;0.2328;0.2102;
295.2000;0.2320;0.2102;
295.5000;0.2304;0.2102;
295.8000;0.2377;0.2245;
296.1000;0.2344;0.1982;
296.4000;0.2295;0.1791;
296.7000;0.2385;0.2006;
297.0000;0.2320;0.1958;
297.3000;0.2328;0.1934;
297.6000;0.2304;0.1863;
297.9000;0.2304;0.1958;
298.2000;0.2320;0.1982;
298.5000;0.2328;0.1982;
298.8000;0.2320;0.1982;
299.1000;0.2328;0.1934;
299.4000;0.2450;0.2293;
299.7000;0.2320;0.2030;
300.0000;0.2336;0.2173;
300.3000;0.2247;0.2006;
300.6000;0.2336;0.2197;
300.9000;0.2320;0.2149;
301.2000;0.2328;0.2149;
301.5000;0.2328;0.2078;
301.8000;0.2328;0.2030;
302.1000;0.2320;0.1958;
302.4000;0.2320;0.1958;
302.7000;0.2320;0.1934;
303.0000;0.2295;0.1958;
303.3000;0.2312;0.2102;
303.6000;0.2328;0.2149;
303.9000;0.2344;0.2269;
304.2000;0.2328;0.2293;
304.5000;0.2312;0.2245;
304.8000;0.2328;0.2221;
305.1000;0.2352;0.2173;
305.4000;0.2336;0.2126;
305.7000;0.2328;0.2030;
306.0000;0.2328;0.1982;
306.3000;0.2320;0.1958;
306.6000;0.2312;0.1911;
306.9000;0.2328;0.1958;
307.2000;0.2320;0.1887;
307.5000;0.2328;0.1887;
307.8000;0.2320;0.1887;
308.1000;0.2361;0.1958;
308.4000;0.2312;0.1911;
308.7000;0.2320;0.1934;
309.0000;0.2336;0.2054;
309.3000;0.2344;0.2126;
309.6000;0.2328;0.2126;
309.9000;0.2312;0.2245;
310.2000;0.2279;0.2102;
310.5000;0.2328;0.2293;
310.8000;0.2320;0.2149;
311.1000;0.2320;0.2126;
311.4000;0.2287;0.2078;
311.7000;0.2344;0.2054;
312.0000;0.2320;0.2006;
312.3000;0.2336;0.1958;
312.6000;0.2352;0.1934;
312.9000;0.2304;0.1791;
313.2000;0.2312;0.1934;
313.5000;0.2320;0.2006;
313.8000;0.2328;0.2078;
314.1000;0.2328;0.2126;
314.4000;0.2320;0.2197;
314.7000;0.2328;0.2197;
315.0000;0.2344;0.2221;
315.3000;0.2320;0.2173;
315.6000;0.2401;0.2293;
315.9000;0.2320;0.2006;
316.2000;0.2344;0.2030;
316.5000;0.2336;0.2078;
316.8000;0.2328;0.2126;
317.1000;0.2336;0.2030;
317.4000;0.2328;0.2149;
317.7000;0.2295;0.2054;
318.0000;0.2328;0.2030;
318.3000;0.2312;0.1958;
318.6000;0.2271;0.1815;
318.9000;0.2320;0.1958;
319.2000;0.2344;0.2006;
319.5000;0.2312;0.1958;
319.8000;0.2320;0.2006;
320.1000;0.2344;0.2078;
320.4000;0.2344;0.2078;
320.7000;0.2320;0.1982;
321.0000;0.2304;0.1958;
321.3000;0.2312;0.2054;
321.6000;0.2328;0.2030;
321.9000;0.2312;0.2078;
322.2000;0.2312;0.2149;
322.5000;0.2328;0.2078;
322.8000;0.2328;0.2102;
323.1000;0.2312;0.2006;
323.4000;0.2230;0.1934;
323.7000;0.2312;0.2197;
324.0000;0.2336;0.2269;
324.3000;0.2336;0.2293;
324.6000;0.2304;0.2221;
324.9000;0.2312;0.2293;
325.2000;0.2312;0.2317;
325.5000;0.2320;0.2317;
325.8000;0.2352;0.2293;
326.1000;0.2312;0.2149;
326.4000;0.2320;0.2149;
326.7000;0.2352;0.2245;
327.0000;0.2361;0.2293;
327.3000;0.2312;0.2102;
327.6000;0.2328;0.2173;
327.9000;0.2312;0.2197;
328.2000;0.2312;0.2197;
328.5000;0.2320;0.2293;
328.8000;0.2328;0.2293;
329.1000;0.2336;0.2317;
329.4000;0.2255;0.2006;
329.7000;0.2328;0.2221;
330.0000;0.2320;0.2245;
330.3000;0.2328;0.2245;
330.6000;0.2352;0.2245;
330.9000;0.2328;0.2149;
331.2000;0.2336;0.2173;
331.5000;0.2312;0.2126;
331.8000;0.2328;0.2197;
332.1000;0.2344;0.2245;
332.4000;0.2336;0.2221;
332.7000;0.2328;0.2269;
333.0000;0.2344;0.2317;
333.3000;0.2328;0.2221;
333.6000;0.2328;0.2197;
333.9000;0.2393;0.2388;
334.2000;0.2320;0.2197;
334.5000;0.2312;0.2126;
334.8000;0.2328;0.2221;
335.1000;0.2328;0.2221;
335.4000;0.2328;0.2173;
335.7000;0.2328;0.2102;
336.0000;0.2328;0.1982;
336.3000;0.2320;0.1958;
336.6000;0.2320;0.1958;
336.9000;0.2336;0.2006;
337.2000;0.2320;0.2030;
337.5000;0.2312;0.2078;
337.8000;0.2304;0.2173;
338.1000;0.2328;0.2197;
338.4000;0.2352;0.2173;
338.7000;0.2320;0.2030;
339.0000;0.2344;0.2126;
339.3000;0.2320;0.2030;
339.6000;0.2320;0.2006;
339.9000;0.2344;0.2126;
340.2000;0.2320;0.1958;
340.5000;0.2377;0.2078;
340.8000;0.2295;0.1982;
341.1000;0.2198;0.1815;
341.4000;0.2320;0.2197;
341.7000;0.2466;0.2699;
342.0000;0.2344;0.2293;
342.3000;0.2312;0.2269;
342.6000;0.2320;0.2269;
342.9000;0.2230;0.2126;
343.2000;0.2344;0.2508;
343.5000;0.2336;0.2460;
343.8000;0.2344;0.2460;
344.1000;0.2336;0.2317;
344.4000;0.2328;0.2293;
344.7000;0.2312;0.2197;
345.0000;0.2222;0.1911;
345.3000;0.2352;0.2340;
345.6000;0.2312;0.2221;
345.9000;0.2304;0.2126;
346.2000;0.2312;0.2149;
346.5000;0.2336;0.2221;
346.8000;0.2320;0.2149;
347.1000;0.2328;0.2149;
347.4000;0.2328;0.2173;
347.7000;0.2328;0.2221;
348.0000;0.2320;0.2173;
348.3000;0.2320;0.2149;
348.6000;0.2393;0.2340;
348.9000;0.2320;0.2149;
349.2000;0.2304;0.2102;
349.5000;0.2328;0.2126;
349.8000;0.2328;0.2054;
350.1000;0.2344;0.2006;
350.4000;0.2247;0.1743;
350.7000;0.2409;0.2149;
351.0000;0.2328;0.1958;
351.3000;0.2214;0.1743;
351.6000;0.2385;0.2269;
351.9000;0.2344;0.2245;
352.2000;0.2328;0.2197;
352.5000;0.2312;0.2173;
352.8000;0.2222;0.1911;
353.1000;0.2312;0.2173;
353.4000;0.2336;0.2221;
353.7000;0.2369;0.2269;
354.0000;0.2336;0.2293;
354.3000;0.2312;0.2102;
354.6000;0.2352;0.2173;
354.9000;0.2312;0.2126;
355.2000;0.2295;0.2149;
355.5000;0.2312;0.2197;
355.8000;0.2271;0.2102;
356.1000;0.2320;0.2340;
356.4000;0.2320;0.2245;
356.7000;0.2336;0.2221;
357.0000;0.2320;0.2126;
357.3000;0.2328;0.2030;
357.6000;0.2271;0.1887;
357.9000;0.2320;0.1958;
358.2000;0.2344;0.2054;
358.5000;0.2344;0.2173;
358.8000;0.2312;0.2102;
359.1000;0.2328;0.2221;
359.4000;0.2312;0.2173;
359.7000;0.2320;0.2197;
360.0000;0.2328;0.2221;
360.3000;0.2320;0.2173;
360.6000;0.2295;0.2149;
360.9000;0.2320;0.2173;
361.2000;0.2352;0.2364;
361.5000;0.2328;0.2245;
361.8000;0.2295;0.2126;
362.1000;0.2312;0.2197;
362.4000;0.2336;0.2197;
362.7000;0.2320;0.2149;
363.0000;0.2304;0.2197;
363.3000;0.2328;0.2364;
363.6000;0.2320;0.2317;
363.9000;0.2344;0.2460;
364.2000;0.2312;0.2317;
364.5000;0.2312;0.2245;
364.8000;0.2385;0.2388;
365.1000;0.2336;0.2317;
365.4000;0.2320;0.2245;
365.7000;0.2320;0.2269;
366.0000;0.2222;0.2030;
366.3000;0.2344;0.2245;
366.6000;0.2352;0.2245;
366.9000;0.2352;0.2221;
367.2000;0.2344;0.2197;
367.5000;0.2352;0.2293;
367.8000;0.2352;0.2269;
368.1000;0.2385;0.2245;
368.4000;0.2344;0.2126;
368.7000;0.2336;0.2102;
369.0000;0.2369;0.2317;
369.3000;0.2320;0.2149;
369.6000;0.2401;0.2340;
369.9000;0.2328;0.2173;
370.2000;0.2352;0.2269;
370.5000;0.2320;0.2126;
370.8000;0.2255;0.1982;
371.1000;0.2328;0.2149;
371.4000;0.2401;0.2412;
371.7000;0.2344;0.2293;
372.0000;0.2320;0.2245;
372.3000;0.2409;0.2436;
372.6000;0.2328;0.2293;
372.9000;0.2328;0.2317;
373.2000;0.2312;0.2221;
373.5000;0.2336;0.2317;
373.8000;0.2328;0.2340;
374.1000;0.2312;0.2412;
374.4000;0.2377;0.2532;
374.7000;0.2320;0.2317;
375.0000;0.2279;0.2173;
375.3000;0.2336;0.2317;
375.6000;0.2312;0.2269;
375.9000;0.2304;0.2149;
376.2000;0.2328;0.2221;
376.5000;0.2344;0.2197;
376.8000;0.2328;0.2078;
377.1000;0.2320;0.2054;
377.4000;0.2344;0.2173;
377.7000;0.2328;0.2102;
378.0000;0.2336;0.2173;
378.3000;0.2352;0.2197;
378.6000;0.2336;0.2149;
378.9000;0.2344;0.2269;
379.2000;0.2336;0.2293;
379.5000;0.2328;0.2317;
379.8000;0.2287;0.2269;
380.1000;0.2320;0.2436;
380.4000;0.2304;0.2388;
380.7000;0.2385;0.2627;
381.0000;0.2304;0.2340;
381.3000;0.2328;0.2436;
381.6000;0.2336;0.2460;
381.9000;0.2336;0.2460;
382.2000;0.2320;0.2340;
382.5000;0.2312;0.2317;
382.8000;0.2328;0.2269;
383.1000;0.2418;0.2460;
383.4000;0.2295;0.2054;
383.7000;0.2352;0.2126;
384.0000;0.2328;0.2102;
384.3000;0.2312;0.2102;
384.6000;0.2295;0.2054;
384.9000;0.2320;0.2126;
385.2000;0.2328;0.2126;
385.5000;0.2336;0.2054;
385.8000;0.2312;0.2102;
386.1000;0.2328;0.2126;
386.4000;0.2328;0.2054;
386.7000;0.2344;0.2126;
387.0000;0.2320;0.2006;
387.3000;0.2312;0.2030;
387.6000;0.2239;0.1863;
387.9000;0.2336;0.2102;
388.2000;0.2328;0.2030;
388.5000;0.2328;0.2102;
388.8000;0.2320;0.2126;
389.1000;0.2336;0.2173;
389.4000;0.2336;0.2197;
389.7000;0.2320;0.2221;
390.0000;0.2320;0.2197;
390.3000;0.2328;0.2221;
390.6000;0.2312;0.2245;
390.9000;0.2336;0.2221;
391.2000;0.2304;0.2269;
391.5000;0.2312;0.2388;
391.8000;0.2320;0.2388;
392.1000;0.2328;0.2388;
392.4000;0.2247;0.2078;
392.7000;0.2369;0.2460;
393.0000;0.2336;0.2412;
393.3000;0.2320;0.2412;
393.6000;0.2279;0.2269;
393.9000;0.2344;0.2436;
394.2000;0.2320;0.2364;
394.5000;0.2247;0.2173;
394.8000;0.2279;0.2197;
395.1000;0.2295;0.2149;
395.4000;0.2255;0.1934;
395.7000;0.2320;0.2126;
396.0000;0.2312;0.2102;
396.3000;0.2312;0.2173;
396.6000;0.2320;0.2197;
396.9000;0.2320;0.2173;
397.2000;0.2312;0.2054;
397.5000;0.2328;0.2006;
397.8000;0.2328;0.1911;
398.1000;0.2328;0.1934;
398.4000;0.2328;0.1839;
398.7000;0.2320;0.1767;
399.0000;0.2328;0.1767;
399.3000;0.2287;0.1672;
399.6000;0.2312;0.1791;
399.9000;0.2385;0.1911;
400.2000;0.2320;0.1720;
400.5000;0.2328;0.1791;
400.8000;0.2352;0.1887;
401.1000;0.2320;0.1767;
401.4000;0.2304;0.1720;
401.7000;0.2328;0.1863;
402.0000;0.2312;0.1934;
402.3000;0.2312;0.1911;
402.6000;0.2320;0.1887;
402.9000;0.2312;0.1887;
403.2000;0.2328;0.2006;
403.5000;0.2336;0.2054;
403.8000;0.2312;0.1958;
404.1000;0.2320;0.1911;
404.4000;0.2336;0.1911;
404.7000;0.2336;0.1934;
405.0000;0.2287;0.1815;
405.3000;0.2336;0.1982;
405.6000;0.2336;0.2054;
405.9000;0.2304;0.2030;
406.2000;0.2312;0.2078;
406.5000;0.2295;0.2102;
406.8000;0.2304;0.2173;
407.1000;0.2304;0.2054;
407.4000;0.2336;0.2078;
407.7000;0.2304;0.1958;
408.0000;0.2328;0.2102;
408.3000;0.2344;0.2126;
408.6000;0.2344;0.2149;
408.9000;0.2320;0.2173;
409.2000;0.2336;0.2173;
409.5000;0.2336;0.2149;
409.8000;0.2279;0.2006;
410.1000;0.2304;0.1982;
410.4000;0.2344;0.2006;
410.7000;0.2295;0.1934;
411.0000;0.2328;0.1958;
411.3000;0.2328;0.1958;
411.6000;0.2312;0.1887;
411.9000;0.2312;0.1863;
412.2000;0.2328;0.1911;
412.5000;0.2320;0.1958;
412.8000;0.2320;0.2006;
413.1000;0.2320;0.1982;
413.4000;0.2328;0.2030;
413.7000;0.2328;0.2030;
414.0000;0.2320;0.2054;
414.3000;0.2320;0.2006;
414.6000;0.2328;0.2030;
414.9000;0.2312;0.2006;
415.2000;0.2295;0.1958;
415.5000;0.2344;0.2006;
415.8000;0.2312;0.1958;
416.1000;0.2328;0.2078;
416.4000;0.2312;0.2078;
416.7000;0.2352;0.2221;
417.0000;0.2312;0.2149;
417.3000;0.2328;0.2173;
417.6000;0.2295;0.2078;
417.9000;0.2312;0.2078;
418.2000;0.2312;0.2006;
418.5000;0.2320;0.1982;
418.8000;0.2320;0.1911;
419.1000;0.2320;0.1839;
419.4000;0.2304;0.1863;
419.7000;0.2287;0.1720;
420.0000;0.2320;0.1815;
420.3000;0.2304;0.1911;
420.6000;0.2320;0.1958;
420.9000;0.2214;0.1720;
421.2000;0.2312;0.1982;
421.5000;0.2320;0.1982;
421.8000;0.2320;0.2030;
422.1000;0.2426;0.2388;
422.4000;0.2336;0.2173;
422.7000;0.2320;0.2006;
423.0000;0.2344;0.2078;
423.3000;0.2320;0.2102;
423.6000;0.2361;0.2173;
423.9000;0.2344;0.2269;
424.2000;0.2328;0.2173;
424.5000;0.2312;0.2221;
424.8000;0.2336;0.2293;
425.1000;0.2344;0.2293;
425.4000;0.2320;0.2197;
425.7000;0.2336;0.2197;
426.0000;0.2312;0.2126;
426.3000;0.2295;0.2006;
426.6000;0.2304;0.2030;
426.9000;0.2328;0.2126;
427.2000;0.2295;0.2054;
427.5000;0.2328;0.2102;
427.8000;0.2320;0.2006;
428.1000;0.2369;0.2197;
428.4000;0.2304;0.2078;
428.7000;0.2328;0.2149;
429.0000;0.2320;0.2149;
429.3000;0.2312;0.2149;
429.6000;0.2320;0.2173;
429.9000;0.2328;0.2149;
430.2000;0.2271;0.2006;
430.5000;0.2344;0.2149;
430.8000;0.2312;0.2030;
431.1000;0.2336;0.2102;
431.4000;0.2312;0.2054;
431.7000;0.2320;0.2149;
432.0000;0.2320;0.2149;
432.3000;0.2336;0.2173;
432.6000;0.2344;0.2126;
432.9000;0.2320;0.2149;
433.2000;0.2312;0.2126;
433.5000;0.2312;0.2102;
433.8000;0.2320;0.2126;
434.1000;0.2344;0.2102;
434.4000;0.2312;0.2078;
434.7000;0.2312;0.2006;
435.0000;0.2320;0.2030;
435.3000;0.2312;0.2030;
435.6000;0.2393;0.2412;
435.9000;0.2271;0.2030;
436.2000;0.2312;0.2126;
436.5000;0.2336;0.2269;
436.8000;0.2328;0.2269;
437.1000;0.2320;0.2173;
437.4000;0.2230;0.1863;
437.7000;0.2312;0.2126;
438.0000;0.2328;0.2173;
438.3000;0.2336;0.2245;
438.6000;0.2320;0.2197;
438.9000;0.2328;0.2102;
439.2000;0.2328;0.2054;
439.5000;0.2328;0.2006;
439.8000;0.2312;0.2030;
440.1000;0.2312;0.2054;
440.4000;0.2263;0.1982;
440.7000;0.2328;0.2173;
441.0000;0.2312;0.2221;
441.3000;0.2328;0.2173;
441.6000;0.2328;0.2149;
441.9000;0.2458;0.2532;
442.2000;0.2328;0.2173;
442.5000;0.2328;0.2126;
442.8000;0.2320;0.2126;
443.1000;0.2361;0.2221;
443.4000;0.2328;0.2317;
443.7000;0.2239;0.2006;
444.0000;0.2320;0.2054;
444.3000;0.2320;0.2030;
444.6000;0.2328;0.2006;
444.9000;0.2312;0.1911;
445.2000;0.2336;0.2030;
445.5000;0.2361;0.2221;
445.8000;0.2320;0.2006;
446.1000;0.2336;0.2006;
446.4000;0.2328;0.2030;
446.7000;0.2312;0.2102;
447.0000;0.2328;0.2102;
447.3000;0.2287;0.2030;
447.6000;0.2328;0.2102;
447.9000;0.2336;0.2102;
448.2000;0.2328;0.2030;
448.5000;0.2328;0.2006;
448.8000;0.2279;0.1934;
449.1000;0.2312;0.2054;
449.4000;0.2336;0.2126;
449.7000;0.2328;0.2078;
450.0000;0.2320;0.2030;
450.3000;0.2320;0.2054;
450.6000;0.2312;0.2126;
450.9000;0.2320;0.2126;
451.2000;0.2320;0.2126;
451.5000;0.2312;0.2102;
451.8000;0.2271;0.2030;
452.1000;0.2320;0.2173;
452.4000;0.2328;0.2173;
452.7000;0.2312;0.2173;
453.0000;0.2320;0.2173;
453.3000;0.2328;0.2197;
453.6000;0.2336;0.2245;
453.9000;0.2320;0.2197;
454.2000;0.2328;0.2126;
454.5000;0.2328;0.2102;
454.8000;0.2230;0.1863;
455.1000;0.2328;0.2126;
455.4000;0.2320;0.1982;
455.7000;0.2361;0.2078;
456.0000;0.2304;0.1982;
456.3000;0.2312;0.1958;
456.6000;0.2279;0.1934;
456.9000;0.2320;0.1934;
457.2000;0.2336;0.2006;
457.5000;0.2328;0.2006;
457.8000;0.2320;0.2054;
458.1000;0.2263;0.1887;
458.4000;0.2320;0.2054;
458.7000;0.2328;0.2149;
459.0000;0.2320;0.2126;
459.3000;0.2336;0.2102;
459.6000;0.2320;0.2054;
459.9000;0.2320;0.2078;
460.2000;0.2320;0.2078;
460.5000;0.2312;0.2149;
460.8000;0.2328;0.2173;
461.1000;0.2320;0.2197;
461.4000;0.2352;0.2340;
461.7000;0.2295;0.2173;
462.0000;0.2320;0.2126;
462.3000;0.2352;0.2221;
462.6000;0.2320;0.2269;
462.9000;0.2320;0.2269;
463.2000;0.2304;0.2197;
463.5000;0.2328;0.2293;
463.8000;0.2255;0.2102;
464.1000;0.2328;0.2340;
464.4000;0.2328;0.2245;
464.7000;0.2320;0.2221;
465.0000;0.2328;0.2293;
465.3000;0.2344;0.2245;
465.6000;0.2312;0.2197;
465.9000;0.2418;0.2460;
466.2000;0.2361;0.2269;
466.5000;0.2279;0.2006;
466.8000;0.2320;0.2078;
467.1000;0.2320;0.2030;
467.4000;0.2312;0.2006;
467.7000;0.2320;0.1934;
468.0000;0.2320;0.1958;
468.3000;0.2295;0.1958;
468.6000;0.2328;0.2006;
468.9000;0.2312;0.1982;
469.2000;0.2304;0.2006;
469.5000;0.2328;0.2126;
469.8000;0.2295;0.2078;
470.1000;0.2312;0.2102;
470.4000;0.2320;0.2149;
470.7000;0.2279;0.1958;
471.0000;0.2320;0.2078;
471.3000;0.2312;0.2078;
471.6000;0.2328;0.2126;
471.9000;0.2336;0.2126;
472.2000;0.2328;0.2149;
472.5000;0.2344;0.2173;
472.8000;0.2304;0.2149;
473.1000;0.2336;0.2221;
473.4000;0.2320;0.2126;
473.7000;0.2385;0.2293;
474.0000;0.2328;0.2149;
474.3000;0.2312;0.2126;
474.6000;0.2328;0.2149;
474.9000;0.2336;0.2149;
475.2000;0.2295;0.2078;
475.5000;0.2336;0.2126;
475.8000;0.2336;0.2197;
476.1000;0.2320;0.2102;
476.4000;0.2320;0.2102;
476.7000;0.2279;0.1982;
477.0000;0.2336;0.2054;
477.3000;0.2312;0.2006;
477.6000;0.2336;0.2102;
477.9000;0.2312;0.2030;
478.2000;0.2304;0.2006;
478.5000;0.2320;0.2054;
478.8000;0.2304;0.2030;
479.1000;0.2328;0.2149;
479.4000;0.2271;0.1982;
479.7000;0.2312;0.1982;
480.0000;0.2328;0.2006;
480.3000;0.2320;0.2006;
480.6000;0.2336;0.2054;
480.9000;0.2336;0.2054;
481.2000;0.2344;0.2126;
481.5000;0.2320;0.2126;
481.8000;0.2320;0.2078;
482.1000;0.2344;0.2078;
482.4000;0.2263;0.2006;
482.7000;0.2312;0.2149;
483.0000;0.2263;0.1958;
483.3000;0.2336;0.2102;
483.6000;0.2295;0.1982;
483.9000;0.2344;0.2054;
484.2000;0.2312;0.1887;
484.5000;0.2312;0.1934;
484.8000;0.2312;0.1982;
485.1000;0.2312;0.1958;
485.4000;0.2287;0.1934;
485.7000;0.2328;0.2030;
486.0000;0.2320;0.2006;
486.3000;0.2336;0.2006;
486.6000;0.2320;0.2006;
486.9000;0.2320;0.2078;
487.2000;0.2328;0.2030;
487.5000;0.2328;0.2006;
487.8000;0.2295;0.1958;
488.1000;0.2328;0.2078;
488.4000;0.2320;0.2102;
488.7000;0.2328;0.2054;
489.0000;0.2312;0.1982;
489.3000;0.2336;0.2006;
489.6000;0.2295;0.1958;
489.9000;0.2312;0.1958;
490.2000;0.2328;0.2078;
490.5000;0.2336;0.2102;
490.8000;0.2320;0.2030;
491.1000;0.2336;0.2269;
491.4000;0.2344;0.2245;
491.7000;0.2328;0.2245;
492.0000;0.2279;0.2078;
492.3000;0.2352;0.2221;
492.6000;0.2336;0.2173;
492.9000;0.2336;0.2197;
493.2000;0.2295;0.2149;
493.5000;0.2312;0.2221;
493.8000;0.2328;0.2340;
494.1000;0.2328;0.2269;
494.4000;0.2320;0.2293;
494.7000;0.2328;0.2245;
495.0000;0.2312;0.2126;
495.3000;0.2336;0.2173;
495.6000;0.2352;0.2269;
495.9000;0.2320;0.2221;
496.2000;0.2287;0.2126;
496.5000;0.2320;0.2173;
496.8000;0.2336;0.2221;
497.1000;0.2328;0.2293;
497.4000;0.2320;0.2221;
497.7000;0.2361;0.2364;
498.0000;0.2320;0.2317;
498.3000;0.2312;0.2317;
498.6000;0.2328;0.2364;
498.9000;0.2304;0.2340;
499.2000;0.2320;0.2388;
499.5000;0.2279;0.2293;
499.8000;0.2320;0.2436;
500.1000;0.2320;0.2364;
500.4000;0.2312;0.2388;
500.7000;0.2328;0.2388;
501.0000;0.2320;0.2436;
501.3000;0.2320;0.2436;
501.6000;0.2344;0.2436;
501.9000;0.2369;0.2532;
502.2000;0.2312;0.2484;
502.5000;0.2320;0.2460;
502.8000;0.2336;0.2484;
503.1000;0.2312;0.2317;
503.4000;0.2344;0.2293;
503.7000;0.2312;0.2293;
504.0000;0.2312;0.2197;
504.3000;0.2312;0.2269;
504.6000;0.2287;0.2317;
504.9000;0.2320;0.2388;
505.2000;0.2320;0.2436;
505.5000;0.2312;0.2460;
505.8000;0.2320;0.2436;
506.1000;0.2312;0.2340;
506.4000;0.2328;0.2340;
506.7000;0.2312;0.2221;
507.0000;0.2336;0.2245;
507.3000;0.2328;0.2245;
507.6000;0.2263;0.1958;
507.9000;0.2344;0.2173;
508.2000;0.2320;0.2126;
508.5000;0.2312;0.2006;
508.8000;0.2312;0.1934;
509.1000;0.2320;0.2006;
509.4000;0.2320;0.2078;
509.7000;0.2320;0.2030;
510.0000;0.2287;0.1958;
510.3000;0.2320;0.2006;
510.6000;0.2328;0.2102;
510.9000;0.2271;0.1958;
511.2000;0.2320;0.2102;
511.5000;0.2320;0.2102;
511.8000;0.2336;0.2078;
512.1000;0.2328;0.2078;
512.4000;0.2377;0.2245;
512.7000;0.2312;0.2078;
513.0000;0.2320;0.2149;
513.3000;0.2336;0.2197;
513.6000;0.2320;0.2197;
513.9000;0.2263;0.2006;
514.2000;0.2328;0.2197;
514.5000;0.2336;0.2221;
514.8000;0.2287;0.2078;
515.1000;0.2320;0.2221;
515.4000;0.2328;0.2269;
515.7000;0.2312;0.2245;
516.0000;0.2336;0.2245;
516.3000;0.2344;0.2245;
516.6000;0.2328;0.2197;
516.9000;0.2320;0.2126;
517.2000;0.2336;0.2173;
517.5000;0.2344;0.2173;
517.8000;0.2328;0.2126;
518.1000;0.2344;0.2221;
518.4000;0.2328;0.2221;
518.7000;0.2328;0.2197;
519.0000;0.2312;0.2245;
519.3000;0.2320;0.2269;
519.6000;0.2320;0.2197;
519.9000;0.2328;0.2149;
520.2000;0.2320;0.2173;
520.5000;0.2328;0.2102;
520.8000;0.2336;0.2149;
521.1000;0.2336;0.2197;
521.4000;0.2312;0.2126;
521.7000;0.2320;0.2149;
522.0000;0.2263;0.2054;
522.3000;0.2328;0.2245;
522.6000;0.2336;0.2126;
522.9000;0.2344;0.2149;
523.2000;0.2320;0.2102;
523.5000;0.2239;0.1791;
523.8000;0.2328;0.2054;
524.1000;0.2287;0.2078;
524.4000;0.2320;0.2149;
524.7000;0.2320;0.2149;
525.0000;0.2312;0.2173;
525.3000;0.2108;0.1624;
525.6000;0.2328;0.2126;
525.9000;0.2328;0.2245;
526.2000;0.2320;0.2269;
526.5000;0.2320;0.2149;
526.8000;0.2320;0.2197;
527.1000;0.2328;0.2197;
527.4000;0.2328;0.2340;
527.7000;0.2312;0.2364;
528.0000;0.2385;0.2532;
528.3000;0.2336;0.2436;
528.6000;0.2336;0.2412;
528.9000;0.2320;0.2388;
529.2000;0.2320;0.2436;
529.5000;0.2295;0.2293;
529.8000;0.2312;0.2317;
530.1000;0.2320;0.2293;
530.4000;0.2401;0.2508;
530.7000;0.2312;0.2293;
531.0000;0.2336;0.2293;
531.3000;0.2328;0.2293;
531.6000;0.2328;0.2340;
531.9000;0.2336;0.2364;
532.2000;0.2336;0.2388;
532.5000;0.2336;0.2412;
532.8000;0.2336;0.2436;
533.1000;0.2320;0.2364;
533.4000;0.2336;0.2412;
533.7000;0.2312;0.2340;
534.0000;0.2328;0.2340;
534.3000;0.2287;0.2245;
534.6000;0.2304;0.2293;
534.9000;0.2287;0.2221;
535.2000;0.2328;0.2317;
535.5000;0.2320;0.2317;
535.8000;0.2320;0.2364;
536.1000;0.2312;0.2388;
536.4000;0.2320;0.2412;
536.7000;0.2320;0.2364;
537.0000;0.2328;0.2388;
537.3000;0.2320;0.2436;
537.6000;0.2475;0.2818;
537.9000;0.2320;0.2508;
538.2000;0.2312;0.2532;
538.5000;0.2328;0.2484;
538.8000;0.2320;0.2460;
539.1000;0.2328;0.2364;
539.4000;0.2304;0.2221;
539.7000;0.2426;0.2508;
540.0000;0.2312;0.2102;
540.3000;0.2320;0.2149;
540.6000;0.2409;0.2388;
540.9000;0.2312;0.2149;
541.2000;0.2312;0.2102;
541.5000;0.2320;0.2149;
541.8000;0.2320;0.2173;
542.1000;0.2312;0.2197;
542.4000;0.2320;0.2245;
542.7000;0.2336;0.2245;
543.0000;0.2304;0.2221;
543.3000;0.2312;0.2197;
543.6000;0.2263;0.2078;
543.9000;0.2320;0.2221;
544.2000;0.2304;0.2126;
544.5000;0.2320;0.2173;
544.8000;0.2328;0.2340;
545.1000;0.2336;0.2412;
545.4000;0.2320;0.2388;
545.7000;0.2328;0.2388;
546.0000;0.2320;0.2364;
546.3000;0.2304;0.2269;
546.6000;0.2320;0.2317;
546.9000;0.2312;0.2269;
547.2000;0.2328;0.2317;
547.5000;0.2418;0.2532;
547.8000;0.2312;0.2126;
548.1000;0.2336;0.2173;
548.4000;0.2409;0.2340;
548.7000;0.2320;0.2078;
549.0000;0.2255;0.1887;
549.3000;0.2271;0.1863;
549.6000;0.2328;0.1887;
549.9000;0.2312;0.1934;
550.2000;0.2328;0.2078;
550.5000;0.2271;0.1934;
550.8000;0.2442;0.2317;
551.1000;0.2312;0.2030;
551.4000;0.2336;0.2149;
551.7000;0.2320;0.2126;
552.0000;0.2190;0.1791;
552.3000;0.2304;0.2006;
552.6000;0.2295;0.2030;
552.9000;0.2320;0.2102;
553.2000;0.2304;0.2102;
553.5000;0.2320;0.2197;
553.8000;0.2312;0.2245;
554.1000;0.2328;0.2221;
554.4000;0.2320;0.2293;
554.7000;0.2295;0.2245;
555.0000;0.2312;0.2293;
555.3000;0.2279;0.2102;
555.6000;0.2312;0.2054;
555.9000;0.2312;0.2078;
556.2000;0.2295;0.2149;
556.5000;0.2312;0.2197;
556.8000;0.2336;0.2269;
557.1000;0.2312;0.2197;
557.4000;0.2328;0.2269;
557.7000;0.2320;0.2293;
558.0000;0.2336;0.2245;
558.3000;0.2409;0.2436;
558.6000;0.2312;0.2197;
558.9000;0.2320;0.2173;
559.2000;0.2320;0.2173;
559.5000;0.2304;0.2173;
559.8000;0.2320;0.2149;
560.1000;0.2295;0.2197;
560.4000;0.2320;0.2221;
560.7000;0.2328;0.2245;
561.0000;0.2369;0.2460;
561.3000;0.2312;0.2221;
561.6000;0.2336;0.2221;
561.9000;0.2328;0.2173;
562.2000;0.2328;0.2173;
562.5000;0.2336;0.2102;
562.8000;0.2271;0.1982;
563.1000;0.2328;0.2078;
563.4000;0.2320;0.2078;
563.7000;0.2279;0.2078;
564.0000;0.2320;0.2197;
564.3000;0.2352;0.2364;
564.6000;0.2312;0.2245;
564.9000;0.2320;0.2293;
565.2000;0.2320;0.2269;
565.5000;0.2320;0.2269;
565.8000;0.2336;0.2221;
566.1000;0.2328;0.2173;
566.4000;0.2320;0.2173;
566.7000;0.2336;0.2173;
567.0000;0.2295;0.2245;
567.3000;0.2336;0.2269;
567.6000;0.2304;0.2221;
567.9000;0.2458;0.2603;
568.2000;0.2336;0.2269;
568.5000;0.2385;0.2436;
568.8000;0.2344;0.2340;
569.1000;0.2320;0.2317;
569.4000;0.2328;0.2364;
569.7000;0.2320;0.2293;
570.0000;0.2328;0.2317;
570.3000;0.2328;0.2340;
570.6000;0.2312;0.2412;
570.9000;0.2320;0.2388;
571.2000;0.2320;0.2364;
571.5000;0.2295;0.2197;
571.8000;0.2312;0.2221;
572.1000;0.2336;0.2269;
572.4000;0.2336;0.2317;
572.7000;0.2328;0.2269;
573.0000;0.2328;0.2173;
573.3000;0.2320;0.2293;
573.6000;0.2328;0.2340;
573.9000;0.2271;0.2221;
574.2000;0.2336;0.2484;
574.5000;0.2344;0.2436;
574.8000;0.2328;0.2460;
575.1000;0.2312;0.2388;
575.4000;0.2304;0.2317;
575.7000;0.2320;0.2364;
576.0000;0.2320;0.2317;
576.3000;0.2304;0.2269;
576.6000;0.2328;0.2173;
576.9000;0.2344;0.2173;
577.2000;0.2369;0.2221;
577.5000;0.2312;0.2173;
577.8000;0.2328;0.2102;
578.1000;0.2336;0.2221;
578.4000;0.2369;0.2317;
578.7000;0.2312;0.2293;
579.0000;0.2320;0.2293;
579.3000;0.2287;0.2221;
579.6000;0.2320;0.2293;
579.9000;0.2312;0.2293;
580.2000;0.2312;0.2293;
580.5000;0.2295;0.2340;
580.8000;0.2320;0.2412;
581.1000;0.2312;0.2317;
581.4000;0.2320;0.2340;
581.7000;0.2304;0.2317;
582.0000;0.2320;0.2364;
582.3000;0.2271;0.2317;
582.6000;0.2312;0.2293;
582.9000;0.2295;0.2197;
583.2000;0.2328;0.2293;
583.5000;0.2352;0.2293;
583.8000;0.2328;0.2269;
584.1000;0.2320;0.2197;
584.4000;0.2287;0.2149;
584.7000;0.2336;0.2245;
585.0000;0.2344;0.2221;
585.3000;0.2312;0.2102;
585.6000;0.2336;0.2102;
585.9000;0.2328;0.2126;
586.2000;0.2312;0.2126;
586.5000;0.2401;0.2364;
586.8000;0.2320;0.2126;
587.1000;0.2312;0.2149;
587.4000;0.2320;0.2197;
587.7000;0.2320;0.2221;
588.0000;0.2320;0.2269;
588.3000;0.2344;0.2293;
588.6000;0.2336;0.2317;
588.9000;0.2369;0.2460;
589.2000;0.2336;0.2388;
589.5000;0.2304;0.2245;
589.8000;0.2320;0.2173;
590.1000;0.2328;0.2197;
590.4000;0.2320;0.2102;
590.7000;0.2287;0.2030;
591.0000;0.2304;0.2173;
591.3000;0.2336;0.2293;
591.6000;0.2320;0.2173;
591.9000;0.2271;0.2054;
592.2000;0.2320;0.2293;
592.5000;0.2328;0.2245;
592.8000;0.2312;0.2221;
593.1000;0.2320;0.2293;
593.4000;0.2336;0.2340;
593.7000;0.2320;0.2293;
594.0000;0.2271;0.2078;
594.3000;0.2312;0.2197;
594.6000;0.2312;0.2173;
594.9000;0.2336;0.2317;
595.2000;0.2336;0.2317;
595.5000;0.2312;0.2221;
595.8000;0.2312;0.2293;
596.1000;0.2312;0.2293;
596.4000;0.2361;0.2484;
596.7000;0.2312;0.2269;
597.0000;0.2312;0.2269;
597.3000;0.2328;0.2340;
597.6000;0.2312;0.2317;
597.9000;0.2328;0.2293;
598.2000;0.2320;0.2102;
598.5000;0.2344;0.2245;
598.8000;0.2320;0.2293;
599.1000;0.2328;0.2364;
599.4000;0.2320;0.2436;
599.7000;0.2320;0.2508;
600.0000;0.2312;0.2436;
600.3000;0.2344;0.2340;
600.6000;0.2418;0.2436;
600.9000;0.2320;0.2173;
601.2000;0.2328;0.2126;
601.5000;0.2336;0.2102;
601.8000;0.2295;0.2030;
602.1000;0.2328;0.2006;
602.4000;0.2328;0.1911;
602.7000;0.2312;0.1815;
603.0000;0.2336;0.1791;
603.3000;0.2328;0.1696;
603.6000;0.2344;0.1696;
603.9000;0.2328;0.1528;
604.2000;0.2352;0.1528;
604.5000;0.2312;0.1385;
604.8000;0.2295;0.1242;
605.1000;0.2336;0.1337;
605.4000;0.2336;0.1290;
605.7000;0.2320;0.1170;
606.0000;0.2328;0.1242;
606.3000;0.2328;0.1266;
606.6000;0.2328;0.1266;
606.9000;0.2320;0.1337;
607.2000;0.2336;0.1361;
607.5000;0.2304;0.1242;
607.8000;0.2328;0.1075;
608.1000;0.2336;0.1099;
608.4000;0.2304;0.1027;
608.7000;0.2328;0.1003;
609.0000;0.2328;0.1099;
609.3000;0.2328;0.1099;
609.6000;0.2336;0.1051;
609.9000;0.2344;0.1146;
610.2000;0.2328;0.1170;
610.5000;0.2344;0.1242;
610.8000;0.2361;0.1218;
611.1000;0.2336;0.1146;
611.4000;0.2344;0.1122;
611.7000;0.2320;0.1075;
612.0000;0.2287;0.0884;
612.3000;0.2312;0.0931;
612.6000;0.2344;0.1075;
612.9000;0.2352;0.1075;
613.2000;0.2328;0.1027;
613.5000;0.2328;0.1027;
613.8000;0.2328;0.1099;
614.1000;0.2369;0.1218;
614.4000;0.2328;0.1242;
614.7000;0.2336;0.1290;
615.0000;0.2352;0.1266;
615.3000;0.2344;0.1242;
615.6000;0.2336;0.1146;
615.9000;0.2352;0.1242;
616.2000;0.2328;0.1194;
616.5000;0.2344;0.1122;
616.8000;0.2320;0.1099;
617.1000;0.2336;0.1146;
617.4000;0.2336;0.1122;
617.7000;0.2304;0.1146;
618.0000;0.2320;0.1242;
618.3000;0.2304;0.1075;
618.6000;0.2344;0.1194;
618.9000;0.2336;0.1194;
619.2000;0.2344;0.1170;
619.5000;0.2336;0.1146;
619.8000;0.2320;0.1194;
620.1000;0.2336;0.1314;
620.4000;0.2320;0.1290;
620.7000;0.2336;0.1290;
621.0000;0.2393;0.1481;
621.3000;0.2328;0.1266;
621.6000;0.2352;0.1314;
621.9000;0.2344;0.1242;
622.2000;0.2336;0.1266;
622.5000;0.2336;0.1218;
622.8000;0.2352;0.1266;
623.1000;0.2361;0.1290;
623.4000;0.2336;0.1146;
623.7000;0.2352;0.1170;
624.0000;0.2287;0.1003;
624.3000;0.2344;0.1099;
624.6000;0.2328;0.1051;
624.9000;0.2336;0.1099;
625.2000;0.2336;0.1075;
625.5000;0.2295;0.1027;
625.8000;0.2336;0.1218;
626.1000;0.2328;0.1242;
626.4000;0.2320;0.1266;
626.7000;0.2328;0.1290;
627.0000;0.2344;0.1266;
627.3000;0.2328;0.1218;
627.6000;0.2361;0.1170;
627.9000;0.2328;0.0979;
628.2000;0.2344;0.1003;
628.5000;0.2312;0.0979;
628.8000;0.2328;0.1003;
629.1000;0.2328;0.1146;
629.4000;0.2320;0.1170;
629.7000;0.2352;0.1170;
630.0000;0.2336;0.1122;
630.3000;0.2328;0.1146;
630.6000;0.2328;0.1099;
630.9000;0.2352;0.1122;
631.2000;0.2336;0.1027;
631.5000;0.2328;0.0979;
631.8000;0.2344;0.1003;
632.1000;0.2352;0.1027;
632.4000;0.2320;0.0931;
632.7000;0.2336;0.0931;
633.0000;0.2369;0.1051;
633.3000;0.2344;0.0979;
633.6000;0.2385;0.1146;
633.9000;0.2336;0.1051;
634.2000;0.2336;0.1122;
634.5000;0.2336;0.1266;
634.8000;0.2344;0.1194;
635.1000;0.2344;0.1122;
635.4000;0.2344;0.1099;
635.7000;0.2344;0.1099;
636.0000;0.2352;0.1242;
636.3000;0.2336;0.1242;
636.6000;0.2320;0.1242;
636.9000;0.2352;0.1314;
637.2000;0.2426;0.1552;
637.5000;0.2336;0.1266;
637.8000;0.2336;0.1242;
638.1000;0.2271;0.1122;
638.4000;0.2336;0.1314;
638.7000;0.2336;0.1266;
639.0000;0.2344;0.1194;
639.3000;0.2393;0.1290;
639.6000;0.2385;0.1337;
639.9000;0.2344;0.1314;
640.2000;0.2385;0.1385;
640.5000;0.2336;0.1266;
640.8000;0.2328;0.1290;
641.1000;0.2336;0.1337;
641.4000;0.2336;0.1242;
641.7000;0.2336;0.1361;
642.0000;0.2328;0.1385;
642.3000;0.2263;0.1218;
642.6000;0.2312;0.1385;
642.9000;0.2385;0.1457;
643.2000;0.2344;0.1385;
643.5000;0.2344;0.1433;
643.8000;0.2336;0.1409;
644.1000;0.2312;0.1266;
644.4000;0.2434;0.1552;
644.7000;0.2336;0.1194;
645.0000;0.2344;0.1266;
645.3000;0.2336;0.1242;
645.6000;0.2344;0.1194;
645.9000;0.2328;0.1170;
646.2000;0.2344;0.1146;
646.5000;0.2352;0.1194;
646.8000;0.2328;0.1075;
647.1000;0.2336;0.1099;
647.4000;0.2336;0.1099;
647.7000;0.2344;0.1170;
648.0000;0.2304;0.1051;
648.3000;0.2344;0.1218;
648.6000;0.2352;0.1242;
648.9000;0.2336;0.1122;
649.2000;0.2352;0.1099;
649.5000;0.2344;0.1122;
649.8000;0.2352;0.1122;
650.1000;0.2361;0.1170;
650.4000;0.2344;0.1146;
650.7000;0.2344;0.1122;
651.0000;0.2377;0.1218;
651.3000;0.2352;0.1194;
651.6000;0.2352;0.1170;
651.9000;0.2409;0.1314;
652.2000;0.2328;0.1051;
652.5000;0.2320;0.1003;
652.8000;0.2344;0.1099;
653.1000;0.2320;0.1075;
653.4000;0.2295;0.1027;
653.7000;0.2336;0.1146;
654.0000;0.2328;0.1122;
654.3000;0.2328;0.1122;
654.6000;0.2336;0.1146;
654.9000;0.2385;0.1457;
655.2000;0.2352;0.1385;
655.5000;0.2361;0.1385;
655.8000;0.2344;0.1409;
656.1000;0.2328;0.1290;
656.4000;0.2352;0.1290;
656.7000;0.2336;0.1218;
657.0000;0.2336;0.1218;
657.3000;0.2344;0.1218;
657.6000;0.2336;0.1218;
657.9000;0.2344;0.1170;
658.2000;0.2336;0.1122;
658.5000;0.2320;0.0931;
658.8000;0.2312;0.0931;
659.1000;0.2328;0.1051;
659.4000;0.2312;0.0979;
659.7000;0.2361;0.1051;
660.0000;0.2344;0.0979;
660.3000;0.2336;0.1027;
660.6000;0.2312;0.0955;
660.9000;0.2336;0.1003;
661.2000;0.2328;0.0979;
661.5000;0.2377;0.1075;
661.8000;0.2230;0.0716;
662.1000;0.2344;0.0955;
662.4000;0.2352;0.1027;
662.7000;0.2336;0.1027;
663.0000;0.2401;0.1194;
663.3000;0.2352;0.1099;
663.6000;0.2328;0.0955;
663.9000;0.2336;0.0931;
664.2000;0.2336;0.0979;
664.5000;0.2328;0.0931;
664.8000;0.2426;0.1266;
665.1000;0.2344;0.1075;
665.4000;0.2344;0.1099;
665.7000;0.2328;0.1051;
666.0000;0.2344;0.1099;
666.3000;0.2336;0.1122;
666.6000;0.2352;0.1170;
666.9000;0.2336;0.1075;
667.2000;0.2320;0.1051;
667.5000;0.2336;0.1146;
667.8000;0.2328;0.1170;
668.1000;0.2328;0.1051;
668.4000;0.2336;0.1146;
668.7000;0.2295;0.1027;
669.0000;0.2328;0.1003;
669.3000;0.2336;0.0979;
669.6000;0.2328;0.0979;
669.9000;0.2263;0.0788;
670.2000;0.2344;0.1051;
670.5000;0.2336;0.0979;
670.8000;0.2344;0.1051;
671.1000;0.2312;0.1075;
671.4000;0.2320;0.1146;
671.7000;0.2344;0.1242;
672.0000;0.2344;0.1218;
672.3000;0.2409;0.1266;
672.6000;0.2369;0.1146;
672.9000;0.2328;0.1003;
673.2000;0.2409;0.1194;
673.5000;0.2328;0.1027;
673.8000;0.2328;0.0955;
674.1000;0.2328;0.0955;
674.4000;0.2401;0.1194;
674.7000;0.2336;0.1027;
675.0000;0.2344;0.1027;
675.3000;0.2336;0.1075;
675.6000;0.2361;0.1075;
675.9000;0.2344;0.1027;
676.2000;0.2312;0.0931;
676.5000;0.2352;0.0955;
676.8000;0.2312;0.0931;
677.1000;0.2336;0.0979;
677.4000;0.2336;0.0979;
677.7000;0.2352;0.0979;
678.0000;0.2336;0.1003;
678.3000;0.2361;0.0979;
678.6000;0.2336;0.0979;
678.9000;0.2336;0.1003;
679.2000;0.2361;0.1003;
679.5000;0.2361;0.1003;
679.8000;0.2328;0.1003;
680.1000;0.2320;0.0931;
680.4000;0.2361;0.1003;
680.7000;0.2336;0.1075;
681.0000;0.2369;0.1242;
681.3000;0.2328;0.1170;
681.6000;0.2369;0.1314;
681.9000;0.2361;0.1337;
682.2000;0.2336;0.1314;
682.5000;0.2336;0.1314;
682.8000;0.2377;0.1409;
683.1000;0.2352;0.1385;
683.4000;0.2328;0.1290;
683.7000;0.2336;0.1337;
684.0000;0.2344;0.1337;
684.3000;0.2344;0.1409;
684.6000;0.2344;0.1385;
684.9000;0.2263;0.1146;
685.2000;0.2320;0.1242;
685.5000;0.2344;0.1290;
685.8000;0.2409;0.1385;
686.1000;0.2287;0.1075;
686.4000;0.2344;0.1146;
686.7000;0.2409;0.1337;
687.0000;0.2271;0.0908;
687.3000;0.2344;0.1122;
687.6000;0.2344;0.1242;
687.9000;0.2361;0.1290;
688.2000;0.2320;0.1170;
688.5000;0.2352;0.1266;
688.8000;0.2361;0.1290;
689.1000;0.2344;0.1290;
689.4000;0.2361;0.1290;
689.7000;0.2361;0.1266;
690.0000;0.2344;0.1170;
690.3000;0.2336;0.1146;
690.6000;0.2344;0.1027;
690.9000;0.2426;0.1218;
691.2000;0.2328;0.1003;
691.5000;0.2393;0.1218;
691.8000;0.2320;0.1099;
692.1000;0.2352;0.1194;
692.4000;0.2361;0.1266;
692.7000;0.2352;0.1314;
693.0000;0.2361;0.1385;
693.3000;0.2352;0.1290;
693.6000;0.2328;0.1194;
693.9000;0.2320;0.1170;
694.2000;0.2328;0.1146;
694.5000;0.2336;0.1170;
694.8000;0.2320;0.1122;
695.1000;0.2344;0.1194;
695.4000;0.2344;0.1194;
695.7000;0.2344;0.1314;
696.0000;0.2344;0.1266;
696.3000;0.2336;0.1314;
696.6000;0.2344;0.1337;
696.9000;0.2361;0.1337;
697.2000;0.2377;0.1361;
697.5000;0.2361;0.1385;
697.8000;0.2361;0.1409;
698.1000;0.2361;0.1409;
698.4000;0.2352;0.1385;
698.7000;0.2369;0.1385;
699.0000;0.2352;0.1314;
699.3000;0.2393;0.1481;
699.6000;0.2352;0.1361;
699.9000;0.2401;0.1481;
700.2000;0.2344;0.1385;
700.5000;0.2206;0.1003;
700.8000;0.2352;0.1385;
701.1000;0.2377;0.1409;
701.4000;0.2344;0.1337;
701.7000;0.2361;0.1361;
702.0000;0.2361;0.1337;
702.3000;0.2369;0.1290;
702.6000;0.2352;0.1266;
702.9000;0.2352;0.1314;
703.2000;0.2352;0.1314;
703.5000;0.2328;0.1242;
703.8000;0.2361;0.1314;
704.1000;0.2336;0.1218;
704.4000;0.2336;0.1170;
704.7000;0.2344;0.1314;
705.0000;0.2352;0.1266;
705.3000;0.2361;0.1242;
705.6000;0.2320;0.1194;
705.9000;0.2352;0.1242;
706.2000;0.2361;0.1194;
706.5000;0.2352;0.1242;
706.8000;0.2361;0.1194;
707.1000;0.2304;0.1051;
707.4000;0.2352;0.1290;
707.7000;0.2352;0.1314;
708.0000;0.2320;0.1290;
708.3000;0.2263;0.1075;
708.6000;0.2344;0.1337;
708.9000;0.2320;0.1361;
709.2000;0.2344;0.1337;
709.5000;0.2361;0.1242;
709.8000;0.2328;0.1194;
710.1000;0.2328;0.1218;
710.4000;0.2336;0.1242;
710.7000;0.2328;0.1242;
711.0000;0.2336;0.1170;
711.3000;0.2385;0.1266;
711.6000;0.2336;0.1146;
711.9000;0.2385;0.1266;
712.2000;0.2344;0.1218;
712.5000;0.2336;0.1242;
712.8000;0.2312;0.1027;
713.1000;0.2312;0.1075;
713.4000;0.2336;0.1122;
713.7000;0.2369;0.1242;
714.0000;0.2361;0.1218;
714.3000;0.2336;0.1170;
714.6000;0.2336;0.1194;
714.9000;0.2336;0.1146;
715.2000;0.2352;0.1242;
715.5000;0.2385;0.1361;
715.8000;0.2287;0.1122;
716.1000;0.2352;0.1218;
716.4000;0.2377;0.1290;
716.7000;0.2401;0.1314;
717.0000;0.2320;0.1003;
717.3000;0.2401;0.1194;
717.6000;0.2271;0.0836;
717.9000;0.2328;0.0955;
718.2000;0.2377;0.1075;
718.5000;0.2336;0.0979;
718.8000;0.2320;0.0955;
719.1000;0.2344;0.0979;
719.4000;0.2369;0.1099;
719.7000;0.2336;0.1027;
720.0000;0.2328;0.1099;
720.3000;0.2344;0.1146;
720.6000;0.2320;0.1122;
720.9000;0.2344;0.1194;
721.2000;0.2320;0.1218;
721.5000;0.2344;0.1218;
721.8000;0.2344;0.1266;
722.1000;0.2336;0.1122;
722.4000;0.2344;0.1146;
722.7000;0.2336;0.1194;
723.0000;0.2344;0.1194;
723.3000;0.2344;0.1122;
723.6000;0.2336;0.1146;
723.9000;0.2336;0.1122;
724.2000;0.2344;0.1122;
724.5000;0.2336;0.1051;
724.8000;0.2336;0.1099;
725.1000;0.2312;0.1146;
725.4000;0.2361;0.1242;
725.7000;0.2361;0.1170;
726.0000;0.2377;0.1242;
726.3000;0.2361;0.1194;
726.6000;0.2361;0.1170;
726.9000;0.2336;0.1075;
727.2000;0.2344;0.1099;
727.5000;0.2352;0.1099;
727.8000;0.2344;0.1075;
728.1000;0.2369;0.1122;
728.4000;0.2336;0.1051;
728.7000;0.2361;0.1170;
729.0000;0.2369;0.1122;
729.3000;0.2361;0.1075;
729.6000;0.2352;0.1027;
729.9000;0.2344;0.0979;
730.2000;0.2295;0.0836;
730.5000;0.2344;0.0979;
730.8000;0.2377;0.1194;
731.1000;0.2409;0.1266;
731.4000;0.2336;0.1099;
731.7000;0.2361;0.1218;
732.0000;0.2295;0.1003;
732.3000;0.2385;0.1194;
732.6000;0.2352;0.1146;
732.9000;0.2344;0.1146;
733.2000;0.2344;0.1051;
733.5000;0.2344;0.1051;
733.8000;0.2312;0.1027;
734.1000;0.2450;0.1409;
734.4000;0.2312;0.1027;
734.7000;0.2344;0.1218;
735.0000;0.2361;0.1266;
735.3000;0.2336;0.1290;
735.6000;0.2401;0.1409;
735.9000;0.2287;0.1170;
736.2000;0.2271;0.1099;
736.5000;0.2352;0.1266;
736.8000;0.2369;0.1290;
737.1000;0.2369;0.1194;
737.4000;0.2361;0.1122;
737.7000;0.2361;0.1146;
738.0000;0.2352;0.1266;
738.3000;0.2344;0.1218;
738.6000;0.2409;0.1361;
738.9000;0.2352;0.1218;
739.2000;0.2344;0.1266;
739.5000;0.2320;0.1242;
739.8000;0.2344;0.1194;
740.1000;0.2295;0.1075;
740.4000;0.2336;0.1075;
740.7000;0.2295;0.1027;
741.0000;0.2344;0.1122;
741.3000;0.2344;0.1122;
741.6000;0.2344;0.1194;
741.9000;0.2336;0.1218;
742.2000;0.2336;0.1266;
742.5000;0.2328;0.1170;
742.8000;0.2336;0.1242;
743.1000;0.2352;0.1218;
743.4000;0.2352;0.1314;
743.7000;0.2352;0.1314;
744.0000;0.2344;0.1266;
744.3000;0.2344;0.1290;
744.6000;0.2369;0.1337;
744.9000;0.2361;0.1361;
745.2000;0.2450;0.1576;
745.5000;0.2361;0.1409;
745.8000;0.2352;0.1409;
746.1000;0.2336;0.1385;
746.4000;0.2361;0.1457;
746.7000;0.2304;0.1266;
747.0000;0.2344;0.1266;
747.3000;0.2336;0.1266;
747.6000;0.2328;0.1218;
747.9000;0.2369;0.1099;
748.2000;0.2361;0.1051;
748.5000;0.2352;0.1099;
748.8000;0.2352;0.1146;
749.1000;0.2344;0.1194;
749.4000;0.2369;0.1218;
749.7000;0.2352;0.1146;
750.0000;0.2361;0.1170;
750.3000;0.2320;0.1075;
750.6000;0.2361;0.1051;
750.9000;0.2361;0.1027;
751.2000;0.2361;0.1075;
751.5000;0.2352;0.1122;
751.8000;0.2344;0.1051;
752.1000;0.2377;0.1194;
752.4000;0.2344;0.1075;
752.7000;0.2344;0.0979;
753.0000;0.2434;0.1266;
753.3000;0.2450;0.1242;
753.6000;0.2361;0.1027;
753.9000;0.2361;0.1122;
754.2000;0.2344;0.1051;
754.5000;0.2369;0.1122;
754.8000;0.2369;0.1146;
755.1000;0.2344;0.1122;
755.4000;0.2352;0.1170;
755.7000;0.2344;0.1122;
756.0000;0.2312;0.0955;
756.3000;0.2344;0.1051;
756.6000;0.2336;0.1003;
756.9000;0.2352;0.1051;
757.2000;0.2385;0.1122;
757.5000;0.2385;0.1075;
757.8000;0.2344;0.1003;
758.1000;0.2369;0.1051;
758.4000;0.2352;0.1099;
758.7000;0.2352;0.1170;
759.0000;0.2304;0.1051;
759.3000;0.2344;0.1194;
759.6000;0.2361;0.1170;
759.9000;0.2401;0.1314;
760.2000;0.2361;0.1170;
760.5000;0.2328;0.1122;
760.8000;0.2352;0.1194;
761.1000;0.2361;0.1337;
761.4000;0.2352;0.1337;
761.7000;0.2336;0.1242;
762.0000;0.2344;0.1266;
762.3000;0.2320;0.1242;
762.6000;0.2361;0.1290;
762.9000;0.2344;0.1218;
763.2000;0.2336;0.1194;
763.5000;0.2336;0.1170;
763.8000;0.2352;0.1146;
764.1000;0.2344;0.1146;
764.4000;0.2344;0.1194;
764.7000;0.2361;0.1266;
765.0000;0.2344;0.1242;
765.3000;0.2344;0.1099;
765.6000;0.2344;0.1170;
765.9000;0.2328;0.1146;
766.2000;0.2361;0.1242;
766.5000;0.2328;0.1027;
766.8000;0.2344;0.1051;
767.1000;0.2344;0.1051;
767.4000;0.2361;0.1051;
767.7000;0.2344;0.1003;
768.0000;0.2361;0.1027;
768.3000;0.2328;0.0955;
768.6000;0.2344;0.0979;
768.9000;0.2344;0.1003;
769.2000;0.2352;0.0979;
769.5000;0.2361;0.1051;
769.8000;0.2344;0.1170;
770.1000;0.2361;0.1146;
770.4000;0.2361;0.1170;
770.7000;0.2393;0.1218;
771.0000;0.2361;0.1146;
771.3000;0.2336;0.1099;
771.6000;0.2352;0.1051;
771.9000;0.2352;0.0955;
772.2000;0.2344;0.0931;
772.5000;0.2352;0.0836;
772.8000;0.2336;0.0812;
773.1000;0.2336;0.0812;
773.4000;0.2352;0.0836;
773.7000;0.2361;0.0884;
774.0000;0.2352;0.0860;
774.3000;0.2344;0.0836;
774.6000;0.2352;0.0955;
774.9000;0.2361;0.1003;
775.2000;0.2361;0.0931;
775.5000;0.2344;0.0955;
775.8000;0.2344;0.0884;
776.1000;0.2352;0.0931;
776.4000;0.2385;0.1075;
776.7000;0.2369;0.1051;
777.0000;0.2344;0.1003;
777.3000;0.2352;0.1003;
777.6000;0.2361;0.1027;
777.9000;0.2352;0.0979;
778.2000;0.2369;0.0955;
778.5000;0.2361;0.1003;
778.8000;0.2352;0.1075;
779.1000;0.2361;0.1075;
779.4000;0.2344;0.1122;
779.7000;0.2336;0.1122;
780.0000;0.2361;0.1122;
780.3000;0.2352;0.1051;
780.6000;0.2352;0.1027;
780.9000;0.2344;0.1003;
781.2000;0.2442;0.1266;
781.5000;0.2369;0.1003;
781.8000;0.2312;0.0836;
782.1000;0.2344;0.0908;
782.4000;0.2361;0.0860;
782.7000;0.2377;0.0931;
783.0000;0.2352;0.1003;
783.3000;0.2279;0.0716;
783.6000;0.2361;0.0860;
783.9000;0.2352;0.0908;
784.2000;0.2369;0.0955;
784.5000;0.2361;0.0955;
784.8000;0.2352;0.0979;
785.1000;0.2393;0.1146;
785.4000;0.2344;0.1075;
785.7000;0.2352;0.1099;
786.0000;0.2458;0.1457;
786.3000;0.2352;0.1218;
786.6000;0.2369;0.1290;
786.9000;0.2344;0.1218;
787.2000;0.2361;0.1266;
787.5000;0.2352;0.1242;
787.8000;0.2344;0.1290;
788.1000;0.2344;0.1242;
788.4000;0.2352;0.1218;
788.7000;0.2344;0.1218;
789.0000;0.2361;0.1266;
789.3000;0.2361;0.1290;
789.6000;0.2385;0.1314;
789.9000;0.2344;0.1290;
790.2000;0.2377;0.1290;
790.5000;0.2361;0.1242;
790.8000;0.2344;0.1266;
791.1000;0.2352;0.1290;
791.4000;0.2328;0.1194;
791.7000;0.2247;0.0860;
792.0000;0.2369;0.1146;
792.3000;0.2361;0.1194;
792.6000;0.2336;0.1194;
792.9000;0.2361;0.1314;
793.2000;0.2361;0.1337;
793.5000;0.2361;0.1337;
793.8000;0.2239;0.1003;
794.1000;0.2352;0.1266;
794.4000;0.2344;0.1218;
794.7000;0.2336;0.1218;
795.0000;0.2361;0.1194;
795.3000;0.2361;0.1170;
795.6000;0.2344;0.1122;
795.9000;0.2336;0.1194;
796.2000;0.2361;0.1290;
796.5000;0.2344;0.1290;
796.8000;0.2352;0.1266;
797.1000;0.2336;0.1290;
797.4000;0.2369;0.1433;
797.7000;0.2336;0.1409;
798.0000;0.2369;0.1457;
798.3000;0.2344;0.1385;
798.6000;0.2361;0.1337;
798.9000;0.2352;0.1361;
799.2000;0.2352;0.1409;
799.5000;0.2385;0.1481;
799.8000;0.2336;0.1314;
800.1000;0.2336;0.1337;
800.4000;0.2336;0.1385;
800.7000;0.2352;0.1433;
801.0000;0.2369;0.1385;
801.3000;0.2344;0.1314;
801.6000;0.2336;0.1290;
801.9000;0.2328;0.1290;
802.2000;0.2385;0.1457;
802.5000;0.2361;0.1314;
802.8000;0.2361;0.1361;
803.1000;0.2328;0.1242;
803.4000;0.2409;0.1481;
803.7000;0.2352;0.1314;
804.0000;0.2344;0.1361;
804.3000;0.2279;0.1194;
804.6000;0.2352;0.1457;
804.9000;0.2361;0.1481;
805.2000;0.2369;0.1433;
805.5000;0.2361;0.1385;
805.8000;0.2361;0.1266;
806.1000;0.2361;0.1218;
806.4000;0.2361;0.1242;
806.7000;0.2336;0.1194;
807.0000;0.2336;0.1122;
807.3000;0.2352;0.1170;
807.6000;0.2336;0.1170;
807.9000;0.2304;0.0979;
808.2000;0.2361;0.1099;
808.5000;0.2352;0.1122;
808.8000;0.2352;0.1170;
809.1000;0.2255;0.0955;
809.4000;0.2361;0.1218;
809.7000;0.2369;0.1290;
810.0000;0.2401;0.1409;
810.3000;0.2344;0.1194;
810.6000;0.2377;0.1170;
810.9000;0.2361;0.1218;
811.2000;0.2361;0.1218;
811.5000;0.2344;0.1122;
811.8000;0.2279;0.0931;
812.1000;0.2344;0.1194;
812.4000;0.2369;0.1290;
812.7000;0.2377;0.1361;
813.0000;0.2361;0.1290;
813.3000;0.2369;0.1218;
813.6000;0.2352;0.1194;
813.9000;0.2271;0.0979;
814.2000;0.2336;0.1218;
814.5000;0.2352;0.1290;
814.8000;0.2352;0.1266;
815.1000;0.2352;0.1266;
815.4000;0.2352;0.1218;
815.7000;0.2344;0.1218;
816.0000;0.2369;0.1242;
816.3000;0.2352;0.1218;
816.6000;0.2328;0.1266;
816.9000;0.2336;0.1266;
817.2000;0.2352;0.1242;
817.5000;0.2344;0.1146;
817.8000;0.2320;0.1099;
818.1000;0.2320;0.1075;
818.4000;0.2214;0.0716;
818.7000;0.2361;0.1051;
819.0000;0.2369;0.1122;
819.3000;0.2442;0.1314;
819.6000;0.2320;0.1027;
819.9000;0.2361;0.1122;
820.2000;0.2352;0.1075;
820.5000;0.2344;0.1099;
820.8000;0.2263;0.0955;
821.1000;0.2344;0.1146;
821.4000;0.2344;0.1027;
821.7000;0.2336;0.1051;
822.0000;0.2352;0.1170;
822.3000;0.2369;0.1218;
822.6000;0.2352;0.1122;
822.9000;0.2336;0.1051;
823.2000;0.2328;0.1075;
823.5000;0.2352;0.1122;
823.8000;0.2393;0.1170;
824.1000;0.2312;0.0979;
824.4000;0.2344;0.1218;
824.7000;0.2369;0.1242;
825.0000;0.2377;0.1290;
825.3000;0.2361;0.1266;
825.6000;0.2352;0.1146;
825.9000;0.2385;0.1218;
826.2000;0.2434;0.1290;
826.5000;0.2344;0.1146;
826.8000;0.2352;0.1194;
827.1000;0.2377;0.1218;
827.4000;0.2393;0.1314;
827.7000;0.2361;0.1218;
828.0000;0.2344;0.1194;
828.3000;0.2344;0.1218;
828.6000;0.2352;0.1409;
828.9000;0.2352;0.1194;
829.2000;0.2344;0.1170;
829.5000;0.2344;0.1122;
829.8000;0.2336;0.1075;
830.1000;0.2287;0.1027;
830.4000;0.2361;0.1337;
830.7000;0.2344;0.1290;
831.0000;0.2352;0.1266;
831.3000;0.2361;0.1337;
831.6000;0.2377;0.1385;
831.9000;0.2369;0.1314;
832.2000;0.2352;0.1242;
832.5000;0.2320;0.1194;
832.8000;0.2352;0.1290;
833.1000;0.2352;0.1242;
833.4000;0.2336;0.1242;
833.7000;0.2352;0.1242;
834.0000;0.2393;0.1361;
834.3000;0.2352;0.1242;
834.6000;0.2361;0.1290;
834.9000;0.2352;0.1242;
835.2000;0.2377;0.1266;
835.5000;0.2361;0.1170;
835.8000;0.2369;0.1170;
836.1000;0.2377;0.1170;
836.4000;0.2344;0.1003;
836.7000;0.2352;0.1003;
837.0000;0.2369;0.1003;
837.3000;0.2369;0.1027;
837.6000;0.2361;0.1027;
837.9000;0.2393;0.1170;
838.2000;0.2369;0.1122;
838.5000;0.2344;0.1170;
838.8000;0.2369;0.1314;
839.1000;0.2344;0.1218;
839.4000;0.2344;0.1170;
839.7000;0.2344;0.1218;
840.0000;0.2336;0.1122;
840.3000;0.2344;0.1170;
840.6000;0.2361;0.1218;
840.9000;0.2320;0.1122;
841.2000;0.2369;0.1194;
841.5000;0.2352;0.1146;
841.8000;0.2352;0.1099;
842.1000;0.2369;0.1027;
842.4000;0.2369;0.1003;
842.7000;0.2352;0.1099;
843.0000;0.2361;0.1099;
843.3000;0.2304;0.0955;
843.6000;0.2352;0.1051;
843.9000;0.2320;0.0955;
844.2000;0.2369;0.1027;
844.5000;0.2344;0.0979;
844.8000;0.2328;0.1051;
845.1000;0.2352;0.1099;
845.4000;0.2352;0.1146;
845.7000;0.2377;0.1170;
846.0000;0.2361;0.1122;
846.3000;0.2352;0.1170;
846.6000;0.2385;0.1266;
846.9000;0.2361;0.1170;
847.2000;0.2336;0.1122;
847.5000;0.2336;0.1170;
847.8000;0.2361;0.1290;
848.1000;0.2377;0.1337;
848.4000;0.2352;0.1266;
848.7000;0.2352;0.1266;
849.0000;0.2352;0.1194;
849.3000;0.2352;0.1122;
849.6000;0.2344;0.1170;
849.9000;0.2361;0.1194;
850.2000;0.2401;0.1337;
850.5000;0.2377;0.1314;
850.8000;0.2344;0.1266;
851.1000;0.2312;0.1146;
851.4000;0.2352;0.1146;
851.7000;0.2352;0.1099;
852.0000;0.2401;0.1242;
852.3000;0.2361;0.1194;
852.6000;0.2361;0.1218;
852.9000;0.2344;0.1194;
853.2000;0.2344;0.1146;
853.5000;0.2344;0.1003;
853.8000;0.2336;0.1027;
854.1000;0.2344;0.1003;
854.4000;0.2352;0.1099;
854.7000;0.2352;0.1051;
855.0000;0.2361;0.1051;
855.3000;0.2369;0.1027;
855.6000;0.2344;0.1075;
855.9000;0.2442;0.1314;
856.2000;0.2352;0.1075;
856.5000;0.2369;0.1003;
856.8000;0.2369;0.1003;
857.1000;0.2361;0.1099;
857.4000;0.2361;0.1099;
857.7000;0.2369;0.1146;
858.0000;0.2361;0.1194;
858.3000;0.2385;0.1194;
858.6000;0.2418;0.1242;
858.9000;0.2230;0.0812;
859.2000;0.2344;0.1075;
859.5000;0.2377;0.1218;
859.8000;0.2344;0.1194;
860.1000;0.2369;0.1290;
860.4000;0.2328;0.1194;
860.7000;0.2369;0.1337;
861.0000;0.2344;0.1242;
861.3000;0.2352;0.1266;
861.6000;0.2352;0.1337;
861.9000;0.2401;0.1457;
862.2000;0.2361;0.1218;
862.5000;0.2352;0.1218;
862.8000;0.2361;0.1218;
863.1000;0.2385;0.1314;
863.4000;0.2418;0.1433;
863.7000;0.2344;0.1314;
864.0000;0.2352;0.1266;
864.3000;0.2304;0.1099;
864.6000;0.2352;0.1194;
864.9000;0.2344;0.1194;
865.2000;0.2336;0.1242;
865.5000;0.2336;0.1242;
865.8000;0.2352;0.1170;
866.1000;0.2352;0.1194;
866.4000;0.2426;0.1361;
866.7000;0.2361;0.1242;
867.0000;0.2369;0.1290;
867.3000;0.2369;0.1194;
867.6000;0.2361;0.1170;
867.9000;0.2336;0.1146;
868.2000;0.2344;0.1194;
868.5000;0.2344;0.1194;
868.8000;0.2352;0.1266;
869.1000;0.2352;0.1122;
869.4000;0.2352;0.1075;
869.7000;0.2361;0.1003;
870.0000;0.2369;0.1027;
870.3000;0.2352;0.0884;
870.6000;0.2369;0.0955;
870.9000;0.2230;0.0597;
871.2000;0.2344;0.0931;
871.5000;0.2295;0.0860;
871.8000;0.2369;0.1051;
872.1000;0.2377;0.1027;
872.4000;0.2401;0.1146;
872.7000;0.2361;0.1003;
873.0000;0.2361;0.0955;
873.3000;0.2377;0.0979;
873.6000;0.2369;0.1027;
873.9000;0.2312;0.0908;
874.2000;0.2344;0.0979;
874.5000;0.2312;0.0884;
874.8000;0.2361;0.1003;
875.1000;0.2304;0.0931;
875.4000;0.2320;0.0979;
875.7000;0.2352;0.1051;
876.0000;0.2352;0.1003;
876.3000;0.2361;0.1003;
876.6000;0.2336;0.1003;
876.9000;0.2304;0.0955;
877.2000;0.2344;0.1099;
877.5000;0.2369;0.1242;
877.8000;0.2312;0.1194;
878.1000;0.2344;0.1194;
878.4000;0.2304;0.1099;
878.7000;0.2377;0.1266;
879.0000;0.2336;0.1122;
879.3000;0.2352;0.1218;
879.6000;0.2361;0.1242;
879.9000;0.2377;0.1290;
880.2000;0.2352;0.1170;
880.5000;0.2312;0.1075;
880.8000;0.2344;0.1122;
881.1000;0.2369;0.1146;
881.4000;0.2352;0.1170;
881.7000;0.2361;0.1218;
882.0000;0.2377;0.1242;
882.3000;0.2385;0.1290;
882.6000;0.2377;0.1314;
882.9000;0.2369;0.1266;
883.2000;0.2352;0.1290;
883.5000;0.2369;0.1314;
883.8000;0.2361;0.1218;
884.1000;0.2344;0.1266;
884.4000;0.2304;0.1122;
884.7000;0.2369;0.1290;
885.0000;0.2344;0.1266;
885.3000;0.2377;0.1266;
885.6000;0.2344;0.1194;
885.9000;0.2352;0.1242;
886.2000;0.2344;0.1337;
886.5000;0.2336;0.1290;
886.8000;0.2352;0.1314;
887.1000;0.2352;0.1290;
887.4000;0.2361;0.1242;
887.7000;0.2369;0.1242;
888.0000;0.2361;0.1146;
888.3000;0.2328;0.1027;
888.6000;0.2361;0.1146;
888.9000;0.2344;0.1027;
889.2000;0.2352;0.1051;
889.5000;0.2409;0.1170;
889.8000;0.2377;0.1242;
890.1000;0.2361;0.1242;
890.4000;0.2352;0.1170;
890.7000;0.2352;0.1146;
891.0000;0.2377;0.1170;
891.3000;0.2361;0.1051;
891.6000;0.2328;0.1003;
891.9000;0.2336;0.0931;
892.2000;0.2352;0.1027;
892.5000;0.2491;0.1409;
892.8000;0.2336;0.1027;
893.1000;0.2352;0.1122;
893.4000;0.2401;0.1266;
893.7000;0.2401;0.1290;
894.0000;0.2385;0.1290;
894.3000;0.2377;0.1361;
894.6000;0.2352;0.1337;
894.9000;0.2361;0.1194;
895.2000;0.2385;0.1290;
895.5000;0.2361;0.1194;
895.8000;0.2352;0.1194;
896.1000;0.2344;0.1218;
896.4000;0.2328;0.1194;
896.7000;0.2377;0.1290;
897.0000;0.2352;0.1170;
897.3000;0.2328;0.1099;
897.6000;0.2361;0.1218;
897.9000;0.2336;0.1075;
898.2000;0.2352;0.1194;
898.5000;0.2263;0.0908;
898.8000;0.2255;0.0836;
899.1000;0.2369;0.1027;
899.4000;0.2328;0.0908;
899.7000;0.2377;0.1051;
900.0000;0.2344;0.1051;
900.3000;0.2352;0.1075;
900.6000;0.2377;0.1027;
900.9000;0.2279;0.0764;
901.2000;0.2377;0.1099;
901.5000;0.2361;0.1027;
901.8000;0.2336;0.1003;
902.1000;0.2434;0.1218;
902.4000;0.2369;0.1027;
902.7000;0.2393;0.1122;
903.0000;0.2320;0.0908;
903.3000;0.2361;0.1075;
903.6000;0.2328;0.1051;
903.9000;0.2385;0.1218;
904.2000;0.2369;0.1170;
904.5000;0.2361;0.1218;
904.8000;0.2328;0.1146;
905.1000;0.2344;0.1337;
905.4000;0.2361;0.1361;
905.7000;0.2352;0.1314;
906.0000;0.2336;0.1218;
906.3000;0.2352;0.1266;
906.6000;0.2385;0.1361;
906.9000;0.2336;0.1361;
907.2000;0.2352;0.1385;
907.5000;0.2336;0.1481;
907.8000;0.2369;0.1528;
908.1000;0.2377;0.1457;
908.4000;0.2377;0.1337;
908.7000;0.2377;0.1337;
909.0000;0.2344;0.1194;
909.3000;0.2361;0.1290;
909.6000;0.2377;0.1361;
909.9000;0.2385;0.1361;
910.2000;0.2352;0.1266;
910.5000;0.2393;0.1361;
910.8000;0.2393;0.1314;
911.1000;0.2352;0.1290;
911.4000;0.2320;0.1242;
911.7000;0.2352;0.1385;
912.0000;0.2361;0.1266;
912.3000;0.2361;0.1194;
912.6000;0.2385;0.1242;
912.9000;0.2344;0.1170;
913.2000;0.2271;0.1003;
913.5000;0.2344;0.1218;
913.8000;0.2418;0.1433;
914.1000;0.2361;0.1170;
914.4000;0.2369;0.1242;
914.7000;0.2377;0.1266;
915.0000;0.2401;0.1242;
915.3000;0.2344;0.1170;
915.6000;0.2361;0.1266;
915.9000;0.2418;0.1409;
916.2000;0.2361;0.1314;
916.5000;0.2361;0.1314;
916.8000;0.2328;0.1218;
917.1000;0.2361;0.1266;
917.4000;0.2336;0.1218;
917.7000;0.2361;0.1290;
918.0000;0.2369;0.1385;
918.3000;0.2385;0.1457;
918.6000;0.2361;0.1361;
918.9000;0.2361;0.1290;
919.2000;0.2344;0.1242;
919.5000;0.2385;0.1361;
919.8000;0.2344;0.1385;
920.1000;0.2344;0.1385;
920.4000;0.2344;0.1409;
920.7000;0.2352;0.1457;
921.0000;0.2344;0.1457;
921.3000;0.2312;0.1314;
921.6000;0.2352;0.1361;
921.9000;0.2361;0.1385;
922.2000;0.2352;0.1314;
922.5000;0.2328;0.1194;
922.8000;0.2336;0.1218;
923.1000;0.2361;0.1242;
923.4000;0.2361;0.1266;
923.7000;0.2336;0.1314;
924.0000;0.2263;0.1051;
924.3000;0.2320;0.1242;
924.6000;0.2328;0.1290;
924.9000;0.2328;0.1314;
925.2000;0.2312;0.1242;
925.5000;0.2336;0.1266;
925.8000;0.2361;0.1314;
926.1000;0.2361;0.1361;
926.4000;0.2352;0.1314;
926.7000;0.2344;0.1170;
927.0000;0.2304;0.1075;
927.3000;0.2361;0.1194;
927.6000;0.2352;0.1218;
927.9000;0.2352;0.1266;
928.2000;0.2352;0.1194;
928.5000;0.2369;0.1218;
928.8000;0.2393;0.1218;
929.1000;0.2361;0.1146;
929.4000;0.2385;0.1218;
929.7000;0.2385;0.1242;
930.0000;0.2377;0.1266;
930.3000;0.2352;0.1242;
930.6000;0.2385;0.1194;
930.9000;0.2377;0.1146;
931.2000;0.2361;0.1170;
931.5000;0.2369;0.1170;
931.8000;0.2369;0.1194;
932.1000;0.2377;0.1146;
932.4000;0.2385;0.1218;
932.7000;0.2369;0.1242;
933.0000;0.2361;0.1242;
933.3000;0.2361;0.1218;
933.6000;0.2377;0.1242;
933.9000;0.2369;0.1218;
934.2000;0.2377;0.1242;
934.5000;0.2377;0.1290;
934.8000;0.2377;0.1337;
935.1000;0.2377;0.1361;
935.4000;0.2361;0.1266;
935.7000;0.2271;0.1146;
936.0000;0.2361;0.1457;
936.3000;0.2434;0.1600;
936.6000;0.2361;0.1385;
936.9000;0.2361;0.1337;
937.2000;0.2377;0.1385;
937.5000;0.2377;0.1481;
937.8000;0.2361;0.1457;
938.1000;0.2361;0.1409;
938.4000;0.2352;0.1337;
938.7000;0.2361;0.1337;
939.0000;0.2369;0.1337;
939.3000;0.2328;0.1122;
939.6000;0.2361;0.1314;
939.9000;0.2361;0.1266;
940.2000;0.2304;0.1218;
940.5000;0.2328;0.1242;
940.8000;0.2385;0.1433;
941.1000;0.2352;0.1218;
941.4000;0.2361;0.1146;
941.7000;0.2352;0.1146;
942.0000;0.2361;0.1075;
942.3000;0.2377;0.1122;
942.6000;0.2361;0.1027;
942.9000;0.2361;0.1146;
943.2000;0.2361;0.1170;
943.5000;0.2352;0.1099;
943.8000;0.2418;0.1290;
944.1000;0.2295;0.0979;
944.4000;0.2491;0.1552;
944.7000;0.2377;0.1242;
945.0000;0.2344;0.1266;
945.3000;0.2426;0.1337;
945.6000;0.2352;0.1194;
945.9000;0.2304;0.1075;
946.2000;0.2442;0.1433;
946.5000;0.2344;0.1266;
946.8000;0.2369;0.1194;
947.1000;0.2344;0.1075;
947.4000;0.2352;0.1122;
947.7000;0.2377;0.1122;
948.0000;0.2377;0.1099;
948.3000;0.2401;0.1146;
948.6000;0.2328;0.0931;
948.9000;0.2352;0.1075;
949.2000;0.2361;0.1051;
949.5000;0.2352;0.0931;
949.8000;0.2352;0.1003;
950.1000;0.2361;0.1075;
950.4000;0.2377;0.1122;
950.7000;0.2336;0.1027;
951.0000;0.2369;0.1051;
951.3000;0.2352;0.1122;
951.6000;0.2369;0.1170;
951.9000;0.2361;0.1099;
952.2000;0.2377;0.1218;
952.5000;0.2377;0.1218;
952.8000;0.2377;0.1146;
953.1000;0.2361;0.1075;
953.4000;0.2352;0.1027;
953.7000;0.2361;0.1027;
954.0000;0.2361;0.0979;
954.3000;0.2344;0.1027;
954.6000;0.2344;0.1003;
954.9000;0.2361;0.1051;
955.2000;0.2369;0.0955;
955.5000;0.2385;0.0979;
955.8000;0.2361;0.0955;
956.1000;0.2361;0.1003;
956.4000;0.2352;0.1051;
956.7000;0.2377;0.1099;
957.0000;0.2361;0.1099;
957.3000;0.2377;0.1099;
957.6000;0.2377;0.1099;
957.9000;0.2369;0.1003;
958.2000;0.2352;0.0931;
958.5000;0.2377;0.1003;
958.8000;0.2361;0.0979;
959.1000;0.2377;0.1051;
959.4000;0.2344;0.1003;
959.7000;0.2352;0.1075;
960.0000;0.2336;0.1051;
960.3000;0.2344;0.1075;
960.6000;0.2361;0.1099;
960.9000;0.2361;0.0955;
961.2000;0.2344;0.0931;
961.5000;0.2361;0.0908;
961.8000;0.2344;0.0836;
962.1000;0.2361;0.0931;
962.4000;0.2369;0.0955;
962.7000;0.2344;0.0908;
963.0000;0.2352;0.1027;
963.3000;0.2361;0.1146;
963.6000;0.2328;0.1051;
963.9000;0.2263;0.0836;
964.2000;0.2409;0.1290;
964.5000;0.2361;0.1099;
964.8000;0.2352;0.1075;
965.1000;0.2369;0.1170;
965.4000;0.2377;0.1218;
965.7000;0.2434;0.1361;
966.0000;0.2385;0.1266;
966.3000;0.2304;0.1170;
966.6000;0.2361;0.1314;
966.9000;0.2369;0.1266;
967.2000;0.2295;0.1051;
967.5000;0.2344;0.1218;
967.8000;0.2344;0.1314;
968.1000;0.2385;0.1433;
968.4000;0.2344;0.1290;
968.7000;0.2336;0.1218;
969.0000;0.2361;0.1314;
969.3000;0.2361;0.1385;
969.6000;0.2361;0.1457;
969.9000;0.2344;0.1409;
970.2000;0.2352;0.1337;
970.5000;0.2377;0.1385;
970.8000;0.2369;0.1266;
971.1000;0.2369;0.1314;
971.4000;0.2352;0.1290;
971.7000;0.2344;0.1242;
972.0000;0.2320;0.1170;
972.3000;0.2377;0.1337;
972.6000;0.2361;0.1361;
972.9000;0.2385;0.1433;
973.2000;0.2352;0.1337;
973.5000;0.2295;0.1242;
973.8000;0.2344;0.1409;
974.1000;0.2222;0.1146;
974.4000;0.2344;0.1433;
974.7000;0.2361;0.1433;
975.0000;0.2352;0.1314;
975.3000;0.2352;0.1290;
975.6000;0.2361;0.1290;
975.9000;0.2352;0.1337;
976.2000;0.2361;0.1361;
976.5000;0.2361;0.1361;
976.8000;0.2369;0.1409;
977.1000;0.2361;0.1409;
977.4000;0.2352;0.1290;
977.7000;0.2352;0.1242;
978.0000;0.2352;0.1242;
978.3000;0.2369;0.1290;
978.6000;0.2361;0.1290;
978.9000;0.2352;0.1314;
979.2000;0.2352;0.1385;
979.5000;0.2361;0.1385;
979.8000;0.2385;0.1385;
980.1000;0.2352;0.1290;
980.4000;0.2312;0.1194;
980.7000;0.2352;0.1290;
981.0000;0.2385;0.1385;
981.3000;0.2361;0.1409;
981.6000;0.2352;0.1290;
981.9000;0.2320;0.1218;
982.2000;0.2352;0.1314;
982.5000;0.2361;0.1337;
982.8000;0.2352;0.1314;
983.1000;0.2361;0.1337;
983.4000;0.2352;0.1242;
983.7000;0.2377;0.1337;
984.0000;0.2361;0.1218;
984.3000;0.2352;0.1218;
984.6000;0.2352;0.1361;
984.9000;0.2336;0.1337;
985.2000;0.2418;0.1552;
985.5000;0.2361;0.1242;
985.8000;0.2361;0.1146;
986.1000;0.2361;0.1170;
986.4000;0.2361;0.1146;
986.7000;0.2344;0.1122;
987.0000;0.2344;0.1266;
987.3000;0.2369;0.1290;
987.6000;0.2361;0.1218;
987.9000;0.2361;0.1194;
988.2000;0.2344;0.1122;
988.5000;0.2377;0.1122;
988.8000;0.2352;0.1051;
989.1000;0.2336;0.1051;
989.4000;0.2352;0.1122;
989.7000;0.2361;0.1075;
990.0000;0.2352;0.1170;
990.3000;0.2409;0.1314;
990.6000;0.2361;0.1218;
990.9000;0.2336;0.1170;
991.2000;0.2361;0.1314;
991.5000;0.2361;0.1194;
991.8000;0.2377;0.1218;
992.1000;0.2320;0.1099;
992.4000;0.2361;0.1170;
992.7000;0.2361;0.1075;
993.0000;0.2352;0.1003;
993.3000;0.2361;0.1051;
993.6000;0.2352;0.1003;
993.9000;0.2393;0.1075;
994.2000;0.2352;0.1027;
994.5000;0.2344;0.1027;
994.8000;0.2352;0.1051;
995.1000;0.2409;0.1194;
995.4000;0.2320;0.1003;
995.7000;0.2344;0.1075;
996.0000;0.2361;0.1075;
996.3000;0.2385;0.1170;
996.6000;0.2361;0.1099;
996.9000;0.2352;0.1099;
997.2000;0.2361;0.1099;
997.5000;0.2369;0.1170;
997.8000;0.2361;0.1099;
998.1000;0.2377;0.1075;
998.4000;0.2377;0.1099;
998.7000;0.2361;0.1051;
999.0000;0.2304;0.0931;
999.3000;0.2336;0.1027;
999.6000;0.2369;0.1122;
999.9000;0.2361;0.1122;
1000.2000;0.2344;0.1122;
1000.5000;0.2352;0.1194;
1000.8000;0.2352;0.1218;
1001.1000;0.2369;0.1099;
1001.4000;0.2344;0.1003;
1001.7000;0.2361;0.1099;
1002.0000;0.2336;0.0979;
1002.3000;0.2475;0.1194;
1002.6000;0.2377;0.0884;
1002.9000;0.2369;0.0764;
1003.2000;0.2320;0.0693;
1003.5000;0.2361;0.0764;
1003.8000;0.2361;0.0764;
1004.1000;0.2377;0.0836;
1004.4000;0.2361;0.0812;
1004.7000;0.2361;0.0788;
1005.0000;0.2361;0.0884;
1005.3000;0.2361;0.0955;
1005.6000;0.2369;0.1027;
1005.9000;0.2377;0.1170;
1006.2000;0.2418;0.1337;
1006.5000;0.2344;0.1146;
1006.8000;0.2344;0.1146;
1007.1000;0.2352;0.1099;
1007.4000;0.2409;0.1290;
1007.7000;0.2328;0.1146;
1008.0000;0.2369;0.1242;
1008.3000;0.2369;0.1242;
1008.6000;0.2369;0.1218;
1008.9000;0.2369;0.1290;
1009.2000;0.2361;0.1290;
1009.5000;0.2361;0.1361;
1009.8000;0.2344;0.1314;
1010.1000;0.2361;0.1242;
1010.4000;0.2361;0.1218;
1010.7000;0.2361;0.1146;
1011.0000;0.2190;0.0764;
1011.3000;0.2369;0.1194;
1011.6000;0.2361;0.1146;
1011.9000;0.2336;0.1170;
1012.2000;0.2361;0.1290;
1012.5000;0.2361;0.1266;
1012.8000;0.2352;0.1218;
1013.1000;0.2377;0.1170;
1013.4000;0.2352;0.1099;
1013.7000;0.2483;0.1528;
1014.0000;0.2369;0.1218;
1014.3000;0.2385;0.1122;
1014.6000;0.2352;0.1075;
1014.9000;0.2385;0.1099;
1015.2000;0.2352;0.1051;
1015.5000;0.2336;0.1027;
1015.8000;0.2352;0.1122;
1016.1000;0.2344;0.1003;
1016.4000;0.2352;0.1099;
1016.7000;0.2385;0.1146;
1017.0000;0.2434;0.1290;
1017.3000;0.2361;0.1122;
1017.6000;0.2361;0.1051;
1017.9000;0.2320;0.1027;
1018.2000;0.2361;0.1146;
1018.5000;0.2344;0.1122;
1018.8000;0.2369;0.1051;
1019.1000;0.2352;0.0955;
1019.4000;0.2287;0.0788;
1019.7000;0.2344;0.1003;
1020.0000;0.2328;0.1027;
1020.3000;0.2352;0.1075;
1020.6000;0.2385;0.1051;
1020.9000;0.2361;0.0979;
1021.2000;0.2361;0.1027;
1021.5000;0.2352;0.1027;
1021.8000;0.2344;0.1027;
1022.1000;0.2377;0.1075;
1022.4000;0.2352;0.1051;
1022.7000;0.2377;0.1146;
1023.0000;0.2361;0.1099;
1023.3000;0.2377;0.1146;
1023.6000;0.2352;0.1075;
1023.9000;0.2369;0.1170;
1024.2000;0.2352;0.1242;
1024.5000;0.2344;0.1218;
1024.8000;0.2352;0.1146;
1025.1000;0.2352;0.1051;
1025.4000;0.2377;0.1075;
1025.7000;0.2369;0.1099;
1026.0000;0.2369;0.1075;
1026.3000;0.2344;0.1027;
1026.6000;0.2361;0.1027;
1026.9000;0.2377;0.1051;
1027.2000;0.2369;0.1027;
1027.5000;0.2352;0.1051;
1027.8000;0.2344;0.1003;
1028.1000;0.2352;0.1027;
1028.4000;0.2336;0.1170;
1028.7000;0.2377;0.1266;
1029.0000;0.2336;0.1266;
1029.3000;0.2344;0.1337;
1029.6000;0.2361;0.1361;
1029.9000;0.2312;0.1218;
1030.2000;0.2328;0.1290;
1030.5000;0.2377;0.1385;
1030.8000;0.2369;0.1409;
1031.1000;0.2352;0.1361;
1031.4000;0.2352;0.1385;
1031.7000;0.2352;0.1409;
1032.0000;0.2361;0.1481;
1032.3000;0.2369;0.1457;
1032.6000;0.2361;0.1433;
1032.9000;0.2377;0.1433;
1033.2000;0.2336;0.1242;
1033.5000;0.2393;0.1314;
1033.8000;0.2352;0.1170;
1034.1000;0.2369;0.1242;
1034.4000;0.2361;0.1170;
1034.7000;0.2328;0.1099;
1035.0000;0.2352;0.1170;
1035.3000;0.2320;0.1146;
1035.6000;0.2344;0.1170;
1035.9000;0.2328;0.1075;
1036.2000;0.2418;0.1242;
1036.5000;0.2369;0.1122;
1036.8000;0.2344;0.1099;
1037.1000;0.2344;0.1051;
1037.4000;0.2361;0.1051;
1037.7000;0.2369;0.1122;
1038.0000;0.2352;0.1194;
1038.3000;0.2385;0.1361;
1038.6000;0.2336;0.1290;
1038.9000;0.2352;0.1337;
1039.2000;0.2328;0.1290;
1039.5000;0.2263;0.1122;
1039.8000;0.2393;0.1385;
1040.1000;0.2352;0.1242;
1040.4000;0.2377;0.1266;
1040.7000;0.2336;0.1099;
1041.0000;0.2369;0.1218;
1041.3000;0.2352;0.1170;
1041.6000;0.2336;0.1170;
1041.9000;0.2369;0.1242;
1042.2000;0.2361;0.1290;
1042.5000;0.2344;0.1290;
1042.8000;0.2352;0.1314;
1043.1000;0.2377;0.1218;
1043.4000;0.2369;0.1266;
1043.7000;0.2393;0.1361;
1044.0000;0.2304;0.1194;
1044.3000;0.2401;0.1433;
1044.6000;0.2361;0.1314;
1044.9000;0.2377;0.1409;
1045.2000;0.2344;0.1361;
1045.5000;0.2361;0.1314;
1045.8000;0.2361;0.1290;
1046.1000;0.2344;0.1218;
1046.4000;0.2361;0.1266;
1046.7000;0.2361;0.1242;
1047.0000;0.2361;0.1218;
1047.3000;0.2361;0.1266;
1047.6000;0.2377;0.1170;
1047.9000;0.2328;0.1027;
1048.2000;0.2344;0.1146;
1048.5000;0.2361;0.1170;
1048.8000;0.2352;0.1218;
1049.1000;0.2361;0.1314;
1049.4000;0.2336;0.1242;
1049.7000;0.2377;0.1314;
1050.0000;0.2361;0.1314;
1050.3000;0.2344;0.1218;
1050.6000;0.2352;0.1218;
1050.9000;0.2409;0.1385;
1051.2000;0.2320;0.1146;
1051.5000;0.2352;0.1266;
1051.8000;0.2361;0.1290;
1052.1000;0.2369;0.1218;
1052.4000;0.2344;0.1242;
1052.7000;0.2369;0.1242;
1053.0000;0.2352;0.1170;
1053.3000;0.2352;0.1218;
1053.6000;0.2352;0.1266;
1053.9000;0.2328;0.1170;
1054.2000;0.2344;0.1194;
1054.5000;0.2385;0.1266;
1054.8000;0.2352;0.1170;
1055.1000;0.2377;0.1266;
1055.4000;0.2369;0.1242;
1055.7000;0.2361;0.1290;
1056.0000;0.2328;0.1194;
1056.3000;0.2361;0.1242;
1056.6000;0.2320;0.1170;
1056.9000;0.2377;0.1314;
1057.2000;0.2344;0.1242;
1057.5000;0.2426;0.1481;
1057.8000;0.2352;0.1290;
1058.1000;0.2385;0.1409;
1058.4000;0.2361;0.1314;
1058.7000;0.2385;0.1433;
1059.0000;0.2369;0.1433;
1059.3000;0.2328;0.1361;
1059.6000;0.2409;0.1600;
1059.9000;0.2352;0.1409;
1060.2000;0.2475;0.1696;
1060.5000;0.2369;0.1385;
1060.8000;0.2418;0.1552;
1061.1000;0.2361;0.1385;
1061.4000;0.2361;0.1385;
1061.7000;0.2336;0.1337;
1062.0000;0.2352;0.1314;
1062.3000;0.2352;0.1290;
1062.6000;0.2344;0.1194;
1062.9000;0.2369;0.1218;
1063.2000;0.2361;0.1266;
1063.5000;0.2361;0.1337;
1063.8000;0.2352;0.1266;
1064.1000;0.2385;0.1337;
1064.4000;0.2352;0.1361;
1064.7000;0.2344;0.1385;
1065.0000;0.2369;0.1409;
1065.3000;0.2361;0.1361;
1065.6000;0.2352;0.1314;
1065.9000;0.2344;0.1337;
1066.2000;0.2344;0.1337;
1066.5000;0.2361;0.1385;
1066.8000;0.2336;0.1290;
1067.1000;0.2361;0.1266;
1067.4000;0.2377;0.1314;
1067.7000;0.2369;0.1361;
1068.0000;0.2426;0.1481;
1068.3000;0.2377;0.1409;
1068.6000;0.2352;0.1433;
1068.9000;0.2385;0.1433;
1069.2000;0.2385;0.1337;
1069.5000;0.2393;0.1385;
1069.8000;0.2352;0.1218;
1070.1000;0.2369;0.1170;
1070.4000;0.2377;0.1194;
1070.7000;0.2377;0.1170;
1071.0000;0.2344;0.1075;
1071.3000;0.2393;0.1194;
1071.6000;0.2361;0.1218;
1071.9000;0.2352;0.1266;
1072.2000;0.2361;0.1266;
1072.5000;0.2377;0.1290;
1072.8000;0.2352;0.1242;
1073.1000;0.2369;0.1218;
1073.4000;0.2385;0.1266;
1073.7000;0.2336;0.1290;
1074.0000;0.2369;0.1409;
1074.3000;0.2352;0.1314;
1074.6000;0.2377;0.1337;
1074.9000;0.2369;0.1385;
1075.2000;0.2393;0.1433;
1075.5000;0.2369;0.1314;
1075.8000;0.2361;0.1290;
1076.1000;0.2361;0.1290;
1076.4000;0.2344;0.1290;
1076.7000;0.2393;0.1361;
1077.0000;0.2369;0.1314;
1077.3000;0.2385;0.1314;
1077.6000;0.2352;0.1218;
1077.9000;0.2361;0.1290;
1078.2000;0.2369;0.1361;
1078.5000;0.2385;0.1337;
1078.8000;0.2361;0.1194;
1079.1000;0.2377;0.1218;
1079.4000;0.2369;0.1099;
1079.7000;0.2369;0.1218;
1080.0000;0.2369;0.1170;
1080.3000;0.2369;0.1170;
1080.6000;0.2361;0.1218;
1080.9000;0.2255;0.0860;
1081.2000;0.2361;0.1170;
1081.5000;0.2352;0.1194;
1081.8000;0.2369;0.1194;
1082.1000;0.2352;0.1146;
1082.4000;0.2352;0.1242;
1082.7000;0.2352;0.1314;
1083.0000;0.2361;0.1337;
1083.3000;0.2361;0.1361;
1083.6000;0.2361;0.1314;
1083.9000;0.2344;0.1290;
1084.2000;0.2352;0.1337;
1084.5000;0.2352;0.1409;
1084.8000;0.2369;0.1385;
1085.1000;0.2361;0.1314;
1085.4000;0.2320;0.1194;
1085.7000;0.2361;0.1242;
1086.0000;0.2352;0.1218;
1086.3000;0.2361;0.1290;
1086.6000;0.2344;0.1218;
1086.9000;0.2352;0.1242;
1087.2000;0.2352;0.1242;
1087.5000;0.2336;0.1194;
1087.8000;0.2369;0.1385;
1088.1000;0.2369;0.1361;
1088.4000;0.2352;0.1337;
1088.7000;0.2352;0.1266;
1089.0000;0.2271;0.0979;
1089.3000;0.2361;0.1170;
1089.6000;0.2377;0.1099;
1089.9000;0.2352;0.1122;
1090.2000;0.2361;0.1099;
1090.5000;0.2369;0.1122;
1090.8000;0.2361;0.1075;
1091.1000;0.2361;0.1051;
1091.4000;0.2369;0.1003;
1091.7000;0.2361;0.1027;
1092.0000;0.2352;0.0979;
1092.3000;0.2369;0.1170;
1092.6000;0.2369;0.1290;
1092.9000;0.2369;0.1314;
1093.2000;0.2361;0.1194;
1093.5000;0.2352;0.1146;
1093.8000;0.2369;0.1075;
1094.1000;0.2344;0.1122;
1094.4000;0.2344;0.1170;
1094.7000;0.2401;0.1242;
1095.0000;0.2361;0.1122;
1095.3000;0.2401;0.1170;
1095.6000;0.2361;0.1146;
1095.9000;0.2361;0.1218;
1096.2000;0.2393;0.1361;
1096.5000;0.2377;0.1361;
1096.8000;0.2344;0.1290;
1097.1000;0.2328;0.1218;
1097.4000;0.2369;0.1337;
1097.7000;0.2369;0.1266;
1098.0000;0.2385;0.1337;
1098.3000;0.2344;0.1266;
1098.6000;0.2361;0.1266;
1098.9000;0.2361;0.1314;
1099.2000;0.2369;0.1433;
1099.5000;0.2377;0.1433;
1099.8000;0.2377;0.1337;
1100.1000;0.2344;0.1218;
1100.4000;0.2222;0.0884;
1100.7000;0.2344;0.1218;
1101.0000;0.2377;0.1194;
1101.3000;0.2361;0.1170;
1101.6000;0.2369;0.1194;
1101.9000;0.2352;0.1194;
1102.2000;0.2344;0.1314;
1102.5000;0.2361;0.1409;
1102.8000;0.2352;0.1361;
1103.1000;0.2361;0.1361;
1103.4000;0.2409;0.1433;
1103.7000;0.2352;0.1337;
1104.0000;0.2352;0.1314;
1104.3000;0.2352;0.1385;
1104.6000;0.2377;0.1361;
1104.9000;0.2369;0.1290;
1105.2000;0.2352;0.1194;
1105.5000;0.2385;0.1266;
1105.8000;0.2377;0.1242;
1106.1000;0.2361;0.1218;
1106.4000;0.2377;0.1314;
1106.7000;0.2344;0.1194;
1107.0000;0.2361;0.1218;
1107.3000;0.2352;0.1218;
1107.6000;0.2369;0.1266;
1107.9000;0.2344;0.1146;
1108.2000;0.2352;0.1194;
1108.5000;0.2369;0.1146;
1108.8000;0.2344;0.1170;
1109.1000;0.2369;0.1218;
1109.4000;0.2352;0.1146;
1109.7000;0.2377;0.1314;
1110.0000;0.2361;0.1337;
1110.3000;0.2344;0.1266;
1110.6000;0.2344;0.1337;
1110.9000;0.2312;0.1266;
1111.2000;0.2361;0.1409;
1111.5000;0.2361;0.1385;
1111.8000;0.2344;0.1385;
1112.1000;0.2336;0.1242;
1112.4000;0.2352;0.1266;
1112.7000;0.2344;0.1266;
1113.0000;0.2320;0.1266;
1113.3000;0.2352;0.1385;
1113.6000;0.2369;0.1337;
1113.9000;0.2369;0.1409;
1114.2000;0.2352;0.1409;
1114.5000;0.2352;0.1457;
1114.8000;0.2369;0.1481;
1115.1000;0.2328;0.1433;
1115.4000;0.2361;0.1528;
1115.7000;0.2369;0.1457;
1116.0000;0.2320;0.1337;
1116.3000;0.2369;0.1433;
1116.6000;0.2369;0.1433;
1116.9000;0.2377;0.1528;
1117.2000;0.2385;0.1576;
1117.5000;0.2369;0.1505;
1117.8000;0.2369;0.1433;
1118.1000;0.2385;0.1337;
1118.4000;0.2361;0.1146;
1118.7000;0.2377;0.1122;
1119.0000;0.2377;0.1170;
1119.3000;0.2369;0.1146;
1119.6000;0.2352;0.1051;
1119.9000;0.2377;0.1075;
1120.2000;0.2426;0.1170;
1120.5000;0.2393;0.1194;
1120.8000;0.2361;0.1122;
1121.1000;0.2361;0.1146;
1121.4000;0.2377;0.1242;
1121.7000;0.2361;0.1170;
1122.0000;0.2344;0.1170;
1122.3000;0.2418;0.1290;
1122.6000;0.2352;0.1218;
1122.9000;0.2352;0.1242;
1123.2000;0.2352;0.1290;
1123.5000;0.2352;0.1385;
1123.8000;0.2361;0.1433;
1124.1000;0.2361;0.1457;
1124.4000;0.2401;0.1505;
1124.7000;0.2344;0.1385;
1125.0000;0.2320;0.1266;
1125.3000;0.2401;0.1457;
1125.6000;0.2369;0.1361;
1125.9000;0.2247;0.1003;
1126.2000;0.2361;0.1337;
1126.5000;0.2361;0.1385;
1126.8000;0.2369;0.1433;
1127.1000;0.2361;0.1433;
1127.4000;0.2361;0.1314;
1127.7000;0.2369;0.1361;
1128.0000;0.2377;0.1337;
1128.3000;0.2361;0.1290;
1128.6000;0.2377;0.1337;
1128.9000;0.2352;0.1242;
1129.2000;0.2385;0.1337;
1129.5000;0.2361;0.1290;
1129.8000;0.2385;0.1314;
1130.1000;0.2361;0.1242;
1130.4000;0.2409;0.1385;
1130.7000;0.2361;0.1218;
1131.0000;0.2336;0.1218;
1131.3000;0.2369;0.1409;
1131.6000;0.2361;0.1337;
1131.9000;0.2385;0.1457;
1132.2000;0.2352;0.1433;
1132.5000;0.2385;0.1481;
1132.8000;0.2377;0.1457;
1133.1000;0.2344;0.1385;
1133.4000;0.2361;0.1385;
1133.7000;0.2352;0.1409;
1134.0000;0.2352;0.1409;
1134.3000;0.2369;0.1409;
1134.6000;0.2247;0.1218;
1134.9000;0.2401;0.1552;
1135.2000;0.2369;0.1433;
1135.5000;0.2393;0.1433;
1135.8000;0.2377;0.1314;
1136.1000;0.2369;0.1290;
1136.4000;0.2385;0.1266;
1136.7000;0.2385;0.1314;
1137.0000;0.2361;0.1290;
1137.3000;0.2361;0.1242;
1137.6000;0.2344;0.1170;
1137.9000;0.2361;0.1266;
1138.2000;0.2369;0.1361;
1138.5000;0.2344;0.1218;
1138.8000;0.2377;0.1266;
1139.1000;0.2361;0.1266;
1139.4000;0.2377;0.1337;
1139.7000;0.2369;0.1290;
1140.0000;0.2361;0.1218;
1140.3000;0.2328;0.1122;
1140.6000;0.2377;0.1170;
1140.9000;0.2352;0.1242;
1141.2000;0.2361;0.1194;
1141.5000;0.2377;0.1361;
1141.8000;0.2377;0.1314;
1142.1000;0.2352;0.1385;
1142.4000;0.2336;0.1385;
1142.7000;0.2393;0.1552;
1143.0000;0.2361;0.1433;
1143.3000;0.2287;0.1314;
1143.6000;0.2377;0.1481;
1143.9000;0.2369;0.1433;
1144.2000;0.2279;0.1170;
1144.5000;0.2377;0.1385;
1144.8000;0.2369;0.1314;
1145.1000;0.2377;0.1361;
1145.4000;0.2361;0.1290;
1145.7000;0.2361;0.1266;
1146.0000;0.2361;0.1337;
1146.3000;0.2393;0.1361;
1146.6000;0.2442;0.1552;
1146.9000;0.2377;0.1337;
1147.2000;0.2377;0.1242;
1147.5000;0.2352;0.1146;
1147.8000;0.2344;0.1122;
1148.1000;0.2361;0.1194;
1148.4000;0.2295;0.1099;
1148.7000;0.2352;0.1170;
1149.0000;0.2385;0.1242;
1149.3000;0.2361;0.1242;
1149.6000;0.2328;0.1122;
1149.9000;0.2352;0.1170;
1150.2000;0.2361;0.1122;
1150.5000;0.2352;0.1194;
1150.8000;0.2361;0.1314;
1151.1000;0.2361;0.1385;
1151.4000;0.2369;0.1457;
1151.7000;0.2369;0.1481;
1152.0000;0.2385;0.1457;
1152.3000;0.2377;0.1337;
1152.6000;0.2361;0.1385;
1152.9000;0.2255;0.1170;
1153.2000;0.2393;0.1457;
1153.5000;0.2434;0.1576;
1153.8000;0.2361;0.1385;
1154.1000;0.2393;0.1361;
1154.4000;0.2369;0.1242;
1154.7000;0.2304;0.1027;
1155.0000;0.2426;0.1409;
1155.3000;0.2352;0.1218;
1155.6000;0.2385;0.1361;
1155.9000;0.2361;0.1266;
1156.2000;0.2377;0.1266;
1156.5000;0.2328;0.1122;
1156.8000;0.2352;0.1194;
1157.1000;0.2361;0.1242;
1157.4000;0.2369;0.1314;
1157.7000;0.2369;0.1409;
1158.0000;0.2336;0.1242;
1158.3000;0.2377;0.1385;
1158.6000;0.2344;0.1266;
1158.9000;0.2361;0.1361;
1159.2000;0.2369;0.1409;
1159.5000;0.2442;0.1624;
1159.8000;0.2377;0.1505;
1160.1000;0.2377;0.1385;
1160.4000;0.2361;0.1409;
1160.7000;0.2377;0.1528;
1161.0000;0.2377;0.1576;
1161.3000;0.2344;0.1409;
1161.6000;0.2361;0.1505;
1161.9000;0.2369;0.1505;
1162.2000;0.2377;0.1481;
1162.5000;0.2377;0.1481;
1162.8000;0.2377;0.1505;
1163.1000;0.2377;0.1505;
1163.4000;0.2385;0.1361;
1163.7000;0.2361;0.1242;
1164.0000;0.2361;0.1146;
1164.3000;0.2393;0.1242;
1164.6000;0.2361;0.1266;
1164.9000;0.2385;0.1266;
1165.2000;0.2369;0.1361;
1165.5000;0.2361;0.1218;
1165.8000;0.2385;0.1242;
1166.1000;0.2369;0.1194;
1166.4000;0.2369;0.1146;
1166.7000;0.2312;0.1027;
1167.0000;0.2352;0.1122;
1167.3000;0.2336;0.1122;
1167.6000;0.2304;0.0979;
1167.9000;0.2361;0.1194;
1168.2000;0.2336;0.1099;
1168.5000;0.2361;0.1242;
1168.8000;0.2361;0.1290;
1169.1000;0.2344;0.1266;
1169.4000;0.2369;0.1266;
1169.7000;0.2336;0.1242;
1170.0000;0.2393;0.1409;
1170.3000;0.2361;0.1409;
1170.6000;0.2344;0.1361;
1170.9000;0.2336;0.1314;
1171.2000;0.2377;0.1361;
1171.5000;0.2385;0.1385;
1171.8000;0.2361;0.1409;
1172.1000;0.2377;0.1361;
1172.4000;0.2361;0.1290;
1172.7000;0.2377;0.1337;
1173.0000;0.2271;0.1003;
1173.3000;0.2361;0.1290;
1173.6000;0.2352;0.1242;
1173.9000;0.2377;0.1361;
1174.2000;0.2369;0.1409;
1174.5000;0.2361;0.1457;
1174.8000;0.2361;0.1433;
1175.1000;0.2393;0.1505;
1175.4000;0.2377;0.1457;
1175.7000;0.2369;0.1528;
1176.0000;0.2352;0.1385;
1176.3000;0.2361;0.1314;
1176.6000;0.2385;0.1409;
1176.9000;0.2377;0.1385;
1177.2000;0.2393;0.1481;
1177.5000;0.2401;0.1409;
1177.8000;0.2393;0.1385;
1178.1000;0.2247;0.1075;
1178.4000;0.2369;0.1337;
1178.7000;0.2361;0.1266;
1179.0000;0.2361;0.1385;
1179.3000;0.2361;0.1361;
1179.6000;0.2344;0.1337;
1179.9000;0.2352;0.1385;
1180.2000;0.2361;0.1385;
1180.5000;0.2369;0.1314;
1180.8000;0.2352;0.1266;
1181.1000;0.2361;0.1314;
1181.4000;0.2385;0.1314;
1181.7000;0.2361;0.1266;
1182.0000;0.2344;0.1266;
1182.3000;0.2377;0.1337;
1182.6000;0.2377;0.1337;
1182.9000;0.2377;0.1314;
1183.2000;0.2377;0.1314;
1183.5000;0.2361;0.1218;
1183.8000;0.2369;0.1194;
1184.1000;0.2361;0.1290;
1184.4000;0.2369;0.1290;
1184.7000;0.2385;0.1337;
1185.0000;0.2295;0.1075;
1185.3000;0.2377;0.1242;
1185.6000;0.2361;0.1194;
1185.9000;0.2361;0.1194;
1186.2000;0.2336;0.1194;
1186.5000;0.2361;0.1290;
1186.8000;0.2369;0.1337;
1187.1000;0.2352;0.1290;
1187.4000;0.2344;0.1194;
1187.7000;0.2361;0.1194;
1188.0000;0.2369;0.1242;
1188.3000;0.2369;0.1170;
1188.6000;0.2344;0.1075;
1188.9000;0.2344;0.1146;
1189.2000;0.2426;0.1409;
1189.5000;0.2361;0.1290;
1189.8000;0.2336;0.1218;
1190.1000;0.2369;0.1361;
1190.4000;0.2361;0.1337;
1190.7000;0.2393;0.1290;
1191.0000;0.2352;0.1242;
1191.3000;0.2312;0.1146;
1191.6000;0.2361;0.1218;
1191.9000;0.2344;0.1242;
1192.2000;0.2426;0.1481;
1192.5000;0.2369;0.1290;
1192.8000;0.2377;0.1314;
1193.1000;0.2385;0.1409;
1193.4000;0.2369;0.1337;
1193.7000;0.2369;0.1361;
1194.0000;0.2361;0.1314;
1194.3000;0.2369;0.1337;
1194.6000;0.2361;0.1361;
1194.9000;0.2369;0.1409;
1195.2000;0.2369;0.1385;
1195.5000;0.2361;0.1314;
1195.8000;0.2312;0.1218;
1196.1000;0.2352;0.1361;
1196.4000;0.2369;0.1314;
1196.7000;0.2369;0.1337;
1197.0000;0.2369;0.1194;
1197.3000;0.2409;0.1266;
1197.6000;0.2385;0.1242;
1197.9000;0.2401;0.1337;
1198.2000;0.2385;0.1266;
1198.5000;0.2361;0.1266;
1198.8000;0.2483;0.1648;
1199.1000;0.2361;0.1314;
1199.4000;0.2352;0.1361;
1199.7000;0.2369;0.1337;
1200.0000;0.2361;0.1218;
1200.3000;0.2369;0.1194;
1200.6000;0.2369;0.1194;
1200.9000;0.2361;0.1218;
1201.2000;0.2361;0.1218;
1201.5000;0.2377;0.1290;
1201.8000;0.2352;0.1218;
1202.1000;0.2369;0.1266;
1202.4000;0.2369;0.1266;
1202.7000;0.2369;0.1266;
1203.0000;0.2361;0.1194;
1203.3000;0.2377;0.1170;
1203.6000;0.2369;0.1075;
1203.9000;0.2418;0.1170;
1204.2000;0.2369;0.1099;
1204.5000;0.2361;0.1194;
1204.8000;0.2352;0.1146;
1205.1000;0.2361;0.1099;
1205.4000;0.2352;0.1218;
1205.7000;0.2352;0.1194;
1206.0000;0.2418;0.1385;
1206.3000;0.2361;0.1170;
1206.6000;0.2369;0.1218;
1206.9000;0.2442;0.1337;
1207.2000;0.2352;0.1218;
1207.5000;0.2361;0.1218;
1207.8000;0.2369;0.1122;
1208.1000;0.2369;0.1075;
1208.4000;0.2377;0.1170;
1208.7000;0.2369;0.1170;
1209.0000;0.2369;0.1266;
1209.3000;0.2369;0.1266;
1209.6000;0.2369;0.1314;
1209.9000;0.2361;0.1361;
1210.2000;0.2328;0.1314;
1210.5000;0.2336;0.1337;
1210.8000;0.2361;0.1361;
1211.1000;0.2369;0.1457;
1211.4000;0.2393;0.1528;
1211.7000;0.2336;0.1385;
1212.0000;0.2369;0.1505;
1212.3000;0.2377;0.1385;
1212.6000;0.2393;0.1409;
1212.9000;0.2361;0.1361;
1213.2000;0.2369;0.1409;
1213.5000;0.2377;0.1409;
1213.8000;0.2385;0.1385;
1214.1000;0.2369;0.1337;
1214.4000;0.2393;0.1505;
1214.7000;0.2157;0.0884;
1215.0000;0.2361;0.1481;
1215.3000;0.2344;0.1361;
1215.6000;0.2344;0.1433;
1215.9000;0.2352;0.1409;
1216.2000;0.2352;0.1337;
1216.5000;0.2312;0.1242;
1216.8000;0.2352;0.1337;
1217.1000;0.2377;0.1457;
1217.4000;0.2466;0.1672;
1217.7000;0.2352;0.1242;
1218.0000;0.2377;0.1242;
1218.3000;0.2361;0.1385;
1218.6000;0.2426;0.1600;
1218.9000;0.2369;0.1433;
1219.2000;0.2361;0.1409;
1219.5000;0.2369;0.1433;
1219.8000;0.2418;0.1552;
1220.1000;0.2352;0.1409;
1220.4000;0.2369;0.1385;
1220.7000;0.2361;0.1385;
1221.0000;0.2377;0.1361;
1221.3000;0.2385;0.1409;
1221.6000;0.2361;0.1361;
1221.9000;0.2344;0.1385;
1222.2000;0.2377;0.1457;
1222.5000;0.2369;0.1505;
1222.8000;0.2352;0.1385;
1223.1000;0.2377;0.1361;
1223.4000;0.2401;0.1457;
1223.7000;0.2369;0.1337;
1224.0000;0.2393;0.1266;
1224.3000;0.2361;0.1266;
1224.6000;0.2377;0.1409;
1224.9000;0.2352;0.1409;
1225.2000;0.2385;0.1361;
1225.5000;0.2336;0.1266;
1225.8000;0.2263;0.1122;
1226.1000;0.2320;0.1218;
1226.4000;0.2418;0.1481;
1226.7000;0.2344;0.1218;
1227.0000;0.2377;0.1314;
1227.3000;0.2377;0.1290;
1227.6000;0.2377;0.1242;
1227.9000;0.2369;0.1242;
1228.2000;0.2385;0.1290;
1228.5000;0.2369;0.1170;
1228.8000;0.2385;0.1290;
1229.1000;0.2393;0.1361;
1229.4000;0.2369;0.1337;
1229.7000;0.2361;0.1266;
1230.0000;0.2295;0.1099;
1230.3000;0.2377;0.1337;
1230.6000;0.2369;0.1385;
1230.9000;0.2344;0.1385;
1231.2000;0.2352;0.1433;
1231.5000;0.2377;0.1505;
1231.8000;0.2352;0.1433;
1232.1000;0.2344;0.1361;
1232.4000;0.2361;0.1361;
1232.7000;0.2369;0.1385;
1233.0000;0.2377;0.1433;
1233.3000;0.2377;0.1433;
1233.6000;0.2393;0.1457;
1233.9000;0.2344;0.1290;
1234.2000;0.2369;0.1409;
1234.5000;0.2385;0.1481;
1234.8000;0.2336;0.1337;
1235.1000;0.2369;0.1266;
1235.4000;0.2352;0.1170;
1235.7000;0.2385;0.1194;
1236.0000;0.2361;0.1170;
1236.3000;0.2369;0.1122;
1236.6000;0.2369;0.1218;
1236.9000;0.2377;0.1218;
1237.2000;0.2361;0.1099;
1237.5000;0.2377;0.1146;
1237.8000;0.2409;0.1337;
1238.1000;0.2361;0.1194;
1238.4000;0.2361;0.1122;
1238.7000;0.2369;0.1194;
1239.0000;0.2377;0.1170;
1239.3000;0.2361;0.1194;
1239.6000;0.2369;0.1361;
1239.9000;0.2352;0.1385;
1240.2000;0.2377;0.1433;
1240.5000;0.2344;0.1385;
1240.8000;0.2377;0.1457;
1241.1000;0.2369;0.1385;
1241.4000;0.2442;0.1576;
1241.7000;0.2361;0.1266;
1242.0000;0.2361;0.1314;
1242.3000;0.2352;0.1314;
1242.6000;0.2369;0.1337;
1242.9000;0.2458;0.1600;
1243.2000;0.2361;0.1242;
1243.5000;0.2361;0.1337;
1243.8000;0.2393;0.1361;
1244.1000;0.2377;0.1266;
1244.4000;0.2385;0.1218;
1244.7000;0.2361;0.1122;
1245.0000;0.2352;0.1075;
1245.3000;0.2377;0.1099;
1245.6000;0.2361;0.0908;
1245.9000;0.2344;0.0931;
1246.2000;0.2361;0.1003;
1246.5000;0.2442;0.1266;
1246.8000;0.2328;0.0955;
1247.1000;0.2361;0.1051;
1247.4000;0.2377;0.1075;
1247.7000;0.2369;0.1146;
1248.0000;0.2385;0.1194;
1248.3000;0.2385;0.1242;
1248.6000;0.2369;0.1170;
1248.9000;0.2393;0.1314;
1249.2000;0.2385;0.1266;
1249.5000;0.2369;0.1266;
1249.8000;0.2393;0.1314;
1250.1000;0.2361;0.1266;
1250.4000;0.2361;0.1290;
1250.7000;0.2361;0.1337;
1251.0000;0.2361;0.1314;
1251.3000;0.2352;0.1314;
1251.6000;0.2385;0.1481;
1251.9000;0.2385;0.1505;
1252.2000;0.2352;0.1361;
1252.5000;0.2352;0.1361;
1252.8000;0.2344;0.1361;
1253.1000;0.2377;0.1385;
1253.4000;0.2393;0.1361;
1253.7000;0.2377;0.1314;
1254.0000;0.2344;0.1194;
1254.3000;0.2361;0.1242;
1254.6000;0.2344;0.1170;
1254.9000;0.2409;0.1337;
1255.2000;0.2369;0.1266;
1255.5000;0.2352;0.1266;
1255.8000;0.2369;0.1385;
1256.1000;0.2352;0.1337;
1256.4000;0.2369;0.1409;
1256.7000;0.2377;0.1409;
1257.0000;0.2369;0.1266;
1257.3000;0.2369;0.1361;
1257.6000;0.2336;0.1385;
1257.9000;0.2344;0.1385;
1258.2000;0.2377;0.1528;
1258.5000;0.2304;0.1409;
1258.8000;0.2279;0.1290;
1259.1000;0.2418;0.1648;
1259.4000;0.2369;0.1505;
1259.7000;0.2377;0.1600;
1260.0000;0.2361;0.1457;
1260.3000;0.2377;0.1433;
1260.6000;0.2287;0.1194;
1260.9000;0.2369;0.1385;
1261.2000;0.2328;0.1146;
1261.5000;0.2352;0.1266;
1261.8000;0.2385;0.1337;
1262.1000;0.2361;0.1290;
1262.4000;0.2409;0.1457;
1262.7000;0.2328;0.1242;
1263.0000;0.2352;0.1361;
1263.3000;0.2377;0.1552;
1263.6000;0.2344;0.1385;
1263.9000;0.2385;0.1457;
1264.2000;0.2361;0.1361;
1264.5000;0.2369;0.1290;
1264.8000;0.2352;0.1314;
1265.1000;0.2377;0.1266;
1265.4000;0.2344;0.1170;
1265.7000;0.2369;0.1337;
1266.0000;0.2361;0.1290;
1266.3000;0.2352;0.1290;
1266.6000;0.2344;0.1242;
1266.9000;0.2320;0.1146;
1267.2000;0.2361;0.1194;
1267.5000;0.2369;0.1337;
1267.8000;0.2336;0.1290;
1268.1000;0.2369;0.1433;
1268.4000;0.2377;0.1361;
1268.7000;0.2352;0.1314;
1269.0000;0.2393;0.1457;
1269.3000;0.2352;0.1361;
1269.6000;0.2369;0.1361;
1269.9000;0.2377;0.1409;
1270.2000;0.2336;0.1314;
1270.5000;0.2369;0.1290;
1270.8000;0.2369;0.1266;
1271.1000;0.2336;0.1170;
1271.4000;0.2352;0.1099;
1271.7000;0.2344;0.1003;
1272.0000;0.2385;0.1170;
1272.3000;0.2344;0.1170;
1272.6000;0.2352;0.1218;
1272.9000;0.2336;0.1337;
1273.2000;0.2377;0.1361;
1273.5000;0.2377;0.1409;
1273.8000;0.2361;0.1290;
1274.1000;0.2344;0.1194;
1274.4000;0.2361;0.1194;
1274.7000;0.2295;0.1122;
1275.0000;0.2377;0.1337;
1275.3000;0.2352;0.1290;
1275.6000;0.2279;0.1122;
1275.9000;0.2369;0.1337;
1276.2000;0.2369;0.1433;
1276.5000;0.2344;0.1266;
1276.8000;0.2352;0.1361;
1277.1000;0.2263;0.1122;
1277.4000;0.2377;0.1385;
1277.7000;0.2369;0.1385;
1278.0000;0.2336;0.1266;
1278.3000;0.2369;0.1314;
1278.6000;0.2352;0.1194;
1278.9000;0.2369;0.1218;
1279.2000;0.2352;0.1266;
1279.5000;0.2344;0.1385;
1279.8000;0.2377;0.1409;
1280.1000;0.2361;0.1361;
1280.4000;0.2336;0.1337;
1280.7000;0.2385;0.1409;
1281.0000;0.2450;0.1576;
1281.3000;0.2369;0.1409;
1281.6000;0.2352;0.1266;
1281.9000;0.2377;0.1242;
1282.2000;0.2377;0.1242;
1282.5000;0.2328;0.1170;
1282.8000;0.2369;0.1337;
1283.1000;0.2352;0.1337;
1283.4000;0.2466;0.1600;
1283.7000;0.2361;0.1290;
1284.0000;0.2377;0.1409;
1284.3000;0.2344;0.1385;
1284.6000;0.2385;0.1505;
1284.9000;0.2409;0.1552;
1285.2000;0.2369;0.1385;
1285.5000;0.2369;0.1385;
1285.8000;0.2369;0.1361;
1286.1000;0.2361;0.1457;
1286.4000;0.2409;0.1648;
1286.7000;0.2369;0.1505;
1287.0000;0.2344;0.1337;
1287.3000;0.2344;0.1385;
1287.6000;0.2385;0.1528;
1287.9000;0.2369;0.1505;
1288.2000;0.2352;0.1385;
1288.5000;0.2279;0.1122;
1288.8000;0.2369;0.1385;
1289.1000;0.2336;0.1242;
1289.4000;0.2385;0.1361;
1289.7000;0.2312;0.1194;
1290.0000;0.2369;0.1266;
1290.3000;0.2401;0.1361;
1290.6000;0.2377;0.1266;
1290.9000;0.2361;0.1218;
1291.2000;0.2385;0.1242;
1291.5000;0.2393;0.1266;
1291.8000;0.2377;0.1290;
1292.1000;0.2377;0.1290;
1292.4000;0.2361;0.1290;
1292.7000;0.2352;0.1290;
1293.0000;0.2393;0.1266;
1293.3000;0.2344;0.1122;
1293.6000;0.2377;0.1170;
1293.9000;0.2369;0.1218;
1294.2000;0.2328;0.1099;
1294.5000;0.2361;0.1242;
1294.8000;0.2344;0.1218;
1295.1000;0.2361;0.1314;
1295.4000;0.2352;0.1266;
1295.7000;0.2377;0.1314;
1296.0000;0.2344;0.1075;
1296.3000;0.2385;0.1122;
1296.6000;0.2344;0.1027;
1296.9000;0.2418;0.1218;
1297.2000;0.2369;0.1027;
1297.5000;0.2352;0.1075;
1297.8000;0.2369;0.1122;
1298.1000;0.2377;0.1146;
1298.4000;0.2336;0.1027;
1298.7000;0.2255;0.0788;
1299.0000;0.2312;0.1003;
1299.3000;0.2287;0.1003;
1299.6000;0.2328;0.1146;
1299.9000;0.2385;0.1337;
1300.2000;0.2369;0.1337;
1300.5000;0.2344;0.1194;
1300.8000;0.2369;0.1122;
1301.1000;0.2442;0.1290;
1301.4000;0.2352;0.1099;
1301.7000;0.2385;0.1290;
1302.0000;0.2466;0.1505;
1302.3000;0.2361;0.1218;
1302.6000;0.2352;0.1194;
1302.9000;0.2401;0.1242;
1303.2000;0.2377;0.1146;
1303.5000;0.2369;0.1146;
1303.8000;0.2344;0.1075;
1304.1000;0.2361;0.0955;
1304.4000;0.2377;0.0979;
1304.7000;0.2393;0.1051;
1305.0000;0.2344;0.0955;
1305.3000;0.2328;0.0931;
1305.6000;0.2385;0.1027;
1305.9000;0.2377;0.1027;
1306.2000;0.2377;0.1051;
1306.5000;0.2418;0.1194;
1306.8000;0.2369;0.1099;
1307.1000;0.2369;0.1051;
1307.4000;0.2361;0.1075;
1307.7000;0.2385;0.1170;
1308.0000;0.2369;0.1242;
1308.3000;0.2361;0.1194;
1308.6000;0.2409;0.1242;
1308.9000;0.2361;0.1075;
1309.2000;0.2369;0.1051;
1309.5000;0.2344;0.1027;
1309.8000;0.2279;0.0812;
1310.1000;0.2369;0.1051;
1310.4000;0.2377;0.1099;
1310.7000;0.2352;0.1170;
1311.0000;0.2361;0.1146;
1311.3000;0.2352;0.1027;
1311.6000;0.2369;0.1003;
1311.9000;0.2369;0.1003;
1312.2000;0.2369;0.1003;
1312.5000;0.2352;0.1099;
1312.8000;0.2352;0.1170;
1313.1000;0.2377;0.1194;
1313.4000;0.2377;0.1218;
1313.7000;0.2344;0.1218;
1314.0000;0.2352;0.1290;
1314.3000;0.2361;0.1266;
1314.6000;0.2393;0.1337;
1314.9000;0.2344;0.1242;
1315.2000;0.2320;0.1099;
1315.5000;0.2401;0.1266;
1315.8000;0.2263;0.0979;
1316.1000;0.2377;0.1266;
1316.4000;0.2401;0.1314;
1316.7000;0.2361;0.1170;
1317.0000;0.2369;0.1170;
1317.3000;0.2263;0.0836;
1317.6000;0.2377;0.1075;
1317.9000;0.2369;0.1146;
1318.2000;0.2369;0.1146;
1318.5000;0.2361;0.1099;
1318.8000;0.2369;0.1194;
1319.1000;0.2369;0.1194;
1319.4000;0.2352;0.1146;
1319.7000;0.2393;0.1218;
1320.0000;0.2344;0.1170;
1320.3000;0.2352;0.1194;
1320.6000;0.2499;0.1576;
1320.9000;0.2401;0.1218;
1321.2000;0.2369;0.1051;
1321.5000;0.2361;0.1075;
1321.8000;0.2369;0.1170;
1322.1000;0.2361;0.1170;
1322.4000;0.2361;0.1170;
1322.7000;0.2369;0.1218;
1323.0000;0.2409;0.1337;
1323.3000;0.2369;0.1194;
1323.6000;0.2442;0.1361;
1323.9000;0.2377;0.1218;
1324.2000;0.2361;0.1099;
1324.5000;0.2385;0.1099;
1324.8000;0.2369;0.1003;
1325.1000;0.2328;0.0812;
1325.4000;0.2377;0.0979;
1325.7000;0.2369;0.1075;
1326.0000;0.2369;0.1051;
1326.3000;0.2361;0.0931;
1326.6000;0.2369;0.1027;
1326.9000;0.2418;0.1194;
1327.2000;0.2385;0.1122;
1327.5000;0.2369;0.1027;
1327.8000;0.2401;0.1075;
1328.1000;0.2377;0.1051;
1328.4000;0.2466;0.1218;
1328.7000;0.2401;0.1051;
1329.0000;0.2369;0.0955;
1329.3000;0.2263;0.0716;
1329.6000;0.2393;0.1051;
1329.9000;0.2361;0.1075;
1330.2000;0.2361;0.1099;
1330.5000;0.2369;0.1170;
1330.8000;0.2393;0.1361;
1331.1000;0.2377;0.1361;
1331.4000;0.2361;0.1266;
1331.7000;0.2336;0.1170;
1332.0000;0.2377;0.1266;
1332.3000;0.2361;0.1218;
1332.6000;0.2361;0.1290;
1332.9000;0.2361;0.1266;
1333.2000;0.2409;0.1409;
1333.5000;0.2361;0.1266;
1333.8000;0.2295;0.1146;
1334.1000;0.2344;0.1266;
1334.4000;0.2369;0.1242;
1334.7000;0.2352;0.1266;
1335.0000;0.2369;0.1218;
1335.3000;0.2336;0.1099;
1335.6000;0.2361;0.1242;
1335.9000;0.2320;0.1099;
1336.2000;0.2377;0.1170;
1336.5000;0.2377;0.1170;
1336.8000;0.2328;0.1051;
1337.1000;0.2377;0.1075;
1337.4000;0.2385;0.1075;
1337.7000;0.2361;0.1027;
1338.0000;0.2361;0.1051;
1338.3000;0.2377;0.1170;
1338.6000;0.2369;0.1194;
1338.9000;0.2385;0.1290;
1339.2000;0.2369;0.1266;
1339.5000;0.2377;0.1218;
1339.8000;0.2336;0.1122;
1340.1000;0.2361;0.1194;
1340.4000;0.2369;0.1218;
1340.7000;0.2369;0.1170;
1341.0000;0.2369;0.1266;
1341.3000;0.2393;0.1314;
1341.6000;0.2377;0.1194;
1341.9000;0.2401;0.1266;
1342.2000;0.2369;0.1194;
1342.5000;0.2369;0.1170;
1342.8000;0.2377;0.1170;
1343.1000;0.2352;0.1027;
1343.4000;0.2361;0.1051;
1343.7000;0.2369;0.1027;
1344.0000;0.2385;0.1027;
1344.3000;0.2369;0.1027;
1344.6000;0.2320;0.0931;
1344.9000;0.2344;0.1075;
1345.2000;0.2352;0.1075;
1345.5000;0.2385;0.1075;
1345.8000;0.2369;0.1027;
1346.1000;0.2377;0.1027;
1346.4000;0.2369;0.0979;
1346.7000;0.2426;0.1194;
1347.0000;0.2418;0.1099;
1347.3000;0.2352;0.0979;
1347.6000;0.2377;0.1099;
1347.9000;0.2369;0.1099;
1348.2000;0.2361;0.1099;
1348.5000;0.2295;0.0931;
1348.8000;0.2361;0.1218;
1349.1000;0.2369;0.1242;
1349.4000;0.2361;0.1194;
1349.7000;0.2344;0.1170;
1350.0000;0.2361;0.1122;
1350.3000;0.2377;0.1099;
1350.6000;0.2352;0.1003;
1350.9000;0.2475;0.1337;
1351.2000;0.2377;0.1027;
1351.5000;0.2369;0.0955;
1351.8000;0.2271;0.0669;
1352.1000;0.2369;0.1003;
1352.4000;0.2369;0.1122;
1352.7000;0.2385;0.1146;
1353.0000;0.2385;0.1075;
1353.3000;0.2369;0.1099;
1353.6000;0.2361;0.1170;
1353.9000;0.2369;0.1242;
1354.2000;0.2369;0.1242;
1354.5000;0.2369;0.1194;
1354.8000;0.2369;0.1218;
1355.1000;0.2377;0.1242;
1355.4000;0.2287;0.1027;
1355.7000;0.2385;0.1361;
1356.0000;0.2361;0.1266;
1356.3000;0.2385;0.1242;
1356.6000;0.2369;0.1170;
1356.9000;0.2336;0.1146;
1357.2000;0.2361;0.1290;
1357.5000;0.2361;0.1266;
1357.8000;0.2352;0.1170;
1358.1000;0.2385;0.1146;
1358.4000;0.2401;0.1099;
1358.7000;0.2369;0.1099;
1359.0000;0.2369;0.1218;
1359.3000;0.2401;0.1361;
1359.6000;0.2247;0.0955;
1359.9000;0.2377;0.1266;
1360.2000;0.2369;0.1170;
1360.5000;0.2247;0.0860;
1360.8000;0.2483;0.1552;
1361.1000;0.2369;0.1218;
1361.4000;0.2377;0.1218;
1361.7000;0.2377;0.1290;
1362.0000;0.2377;0.1314;
1362.3000;0.2369;0.1218;
1362.6000;0.2352;0.1242;
1362.9000;0.2385;0.1242;
1363.2000;0.2369;0.1170;
1363.5000;0.2369;0.1146;
1363.8000;0.2401;0.1266;
1364.1000;0.2409;0.1337;
1364.4000;0.2361;0.1242;
1364.7000;0.2344;0.1122;
1365.0000;0.2352;0.1122;
1365.3000;0.2344;0.1170;
1365.6000;0.2352;0.1218;
1365.9000;0.2336;0.1218;
1366.2000;0.2401;0.1361;
1366.5000;0.2369;0.1385;
1366.8000;0.2361;0.1385;
1367.1000;0.2385;0.1361;
1367.4000;0.2377;0.1337;
1367.7000;0.2369;0.1218;
1368.0000;0.2361;0.1194;
1368.3000;0.2377;0.1194;
1368.6000;0.2369;0.1146;
1368.9000;0.2369;0.1146;
1369.2000;0.2369;0.1099;
1369.5000;0.2377;0.1075;
1369.8000;0.2385;0.1122;
1370.1000;0.2352;0.0955;
1370.4000;0.2361;0.1003;
1370.7000;0.2377;0.1003;
1371.0000;0.2369;0.0931;
1371.3000;0.2352;0.1003;
1371.6000;0.2369;0.1099;
1371.9000;0.2385;0.1099;
1372.2000;0.2352;0.1027;
1372.5000;0.2369;0.1146;
1372.8000;0.2377;0.1290;
1373.1000;0.2385;0.1266;
1373.4000;0.2352;0.1170;
1373.7000;0.2377;0.1242;
1374.0000;0.2369;0.1337;
1374.3000;0.2352;0.1361;
1374.6000;0.2352;0.1314;
1374.9000;0.2344;0.1194;
1375.2000;0.2377;0.1194;
1375.5000;0.2352;0.1051;
1375.8000;0.2352;0.0979;
1376.1000;0.2385;0.1075;
1376.4000;0.2369;0.1122;
1376.7000;0.2287;0.0955;
1377.0000;0.2409;0.1290;
1377.3000;0.2491;0.1528;
1377.6000;0.2377;0.1242;
1377.9000;0.2393;0.1361;
1378.2000;0.2377;0.1290;
1378.5000;0.2247;0.0931;
1378.8000;0.2352;0.1242;
1379.1000;0.2352;0.1242;
1379.4000;0.2361;0.1314;
1379.7000;0.2361;0.1314;
1380.0000;0.2434;0.1433;
1380.3000;0.2352;0.1242;
1380.6000;0.2377;0.1242;
1380.9000;0.2361;0.1146;
1381.2000;0.2377;0.1170;
1381.5000;0.2385;0.1146;
1381.8000;0.2344;0.0955;
1382.1000;0.2344;0.0955;
1382.4000;0.2320;0.0908;
1382.7000;0.2361;0.0979;
1383.0000;0.2385;0.1194;
1383.3000;0.2369;0.1075;
1383.6000;0.2377;0.1122;
1383.9000;0.2434;0.1242;
1384.2000;0.2401;0.1146;
1384.5000;0.2361;0.1122;
1384.8000;0.2361;0.1194;
1385.1000;0.2336;0.1194;
1385.4000;0.2361;0.1314;
1385.7000;0.2328;0.1146;
1386.0000;0.2352;0.1146;
1386.3000;0.2361;0.1099;
1386.6000;0.2336;0.0979;
1386.9000;0.2352;0.1027;
1387.2000;0.2369;0.1099;
1387.5000;0.2377;0.1170;
1387.8000;0.2385;0.1194;
1388.1000;0.2361;0.1218;
1388.4000;0.2377;0.1266;
1388.7000;0.2393;0.1290;
1389.0000;0.2344;0.1218;
1389.3000;0.2352;0.1194;
1389.6000;0.2369;0.1194;
1389.9000;0.2377;0.1122;
1390.2000;0.2361;0.1051;
1390.5000;0.2369;0.1027;
1390.8000;0.2385;0.1051;
1391.1000;0.2385;0.1051;
1391.4000;0.2377;0.1003;
1391.7000;0.2328;0.0884;
1392.0000;0.2361;0.0860;
1392.3000;0.2369;0.0908;
1392.6000;0.2426;0.1027;
1392.9000;0.2377;0.1003;
1393.2000;0.2377;0.1027;
1393.5000;0.2385;0.1099;
1393.8000;0.2352;0.1075;
1394.1000;0.2393;0.1099;
1394.4000;0.2369;0.1099;
1394.7000;0.2312;0.0955;
1395.0000;0.2361;0.1242;
1395.3000;0.2361;0.1218;
1395.6000;0.2369;0.1194;
1395.9000;0.2369;0.1170;
1396.2000;0.2377;0.1242;
1396.5000;0.2312;0.1075;
1396.8000;0.2377;0.1290;
1397.1000;0.2352;0.1218;
1397.4000;0.2434;0.1385;
1397.7000;0.2369;0.1194;
1398.0000;0.2393;0.1194;
1398.3000;0.2377;0.1075;
1398.6000;0.2369;0.1099;
1398.9000;0.2328;0.1051;
1399.2000;0.2352;0.1099;
1399.5000;0.2385;0.1170;
1399.8000;0.2385;0.1170;
