time/ms;Fluo/V;P700 deltaI/I x10³;
-199.8000;0.4168;0.8567;
-199.5000;0.4160;0.8473;
-199.2000;0.4168;0.8473;
-198.9000;0.4192;0.8567;
-198.6000;0.4208;0.8591;
-198.3000;0.4184;0.8685;
-198.0000;0.4168;0.8685;
-197.7000;0.4192;0.8708;
-197.4000;0.4184;0.8732;
-197.1000;0.4176;0.8661;
-196.8000;0.4176;0.8661;
-196.5000;0.4176;0.8544;
-196.2000;0.4176;0.8544;
-195.9000;0.4176;0.8473;
-195.6000;0.4168;0.8379;
-195.3000;0.4168;0.8450;
-195.0000;0.4176;0.8520;
-194.7000;0.4168;0.8520;
-194.4000;0.4192;0.8544;
-194.1000;0.4143;0.8426;
-193.8000;0.4176;0.8473;
-193.5000;0.4184;0.8520;
-193.2000;0.4184;0.8473;
-192.9000;0.4160;0.8497;
-192.6000;0.4176;0.8497;
-192.3000;0.4176;0.8497;
-192.0000;0.4160;0.8450;
-191.7000;0.4168;0.8497;
-191.4000;0.4168;0.8497;
-191.1000;0.4168;0.8473;
-190.8000;0.4184;0.8520;
-190.5000;0.4176;0.8567;
-190.2000;0.4168;0.8567;
-189.9000;0.4184;0.8638;
-189.6000;0.4184;0.8544;
-189.3000;0.4151;0.8520;
-189.0000;0.4160;0.8403;
-188.7000;0.4176;0.8332;
-188.4000;0.4168;0.8379;
-188.1000;0.4168;0.8356;
-187.8000;0.4184;0.8426;
-187.5000;0.4184;0.8426;
-187.2000;0.4200;0.8450;
-186.9000;0.4176;0.8426;
-186.6000;0.4184;0.8473;
-186.3000;0.4192;0.8544;
-186.0000;0.4192;0.8544;
-185.7000;0.4192;0.8520;
-185.4000;0.4184;0.8567;
-185.1000;0.4184;0.8520;
-184.8000;0.4184;0.8614;
-184.5000;0.4168;0.8497;
-184.2000;0.4176;0.8473;
-183.9000;0.4168;0.8473;
-183.6000;0.4176;0.8450;
-183.3000;0.4176;0.8567;
-183.0000;0.4168;0.8497;
-182.7000;0.4176;0.8403;
-182.4000;0.4192;0.8450;
-182.1000;0.4176;0.8544;
-181.8000;0.4192;0.8591;
-181.5000;0.4176;0.8544;
-181.2000;0.4176;0.8544;
-180.9000;0.4168;0.8497;
-180.6000;0.4184;0.8497;
-180.3000;0.4176;0.8450;
-180.0000;0.4176;0.8450;
-179.7000;0.4160;0.8379;
-179.4000;0.4184;0.8450;
-179.1000;0.4176;0.8379;
-178.8000;0.4225;0.8614;
-178.5000;0.4192;0.8473;
-178.2000;0.4192;0.8403;
-177.9000;0.4168;0.8403;
-177.6000;0.4176;0.8403;
-177.3000;0.4192;0.8426;
-177.0000;0.4184;0.8356;
-176.7000;0.4192;0.8426;
-176.4000;0.4184;0.8403;
-176.1000;0.4184;0.8379;
-175.8000;0.4168;0.8356;
-175.5000;0.4078;0.8074;
-175.2000;0.4135;0.8332;
-174.9000;0.4176;0.8403;
-174.6000;0.4168;0.8426;
-174.3000;0.4168;0.8332;
-174.0000;0.4184;0.8262;
-173.7000;0.4184;0.8286;
-173.4000;0.4184;0.8215;
-173.1000;0.4184;0.8145;
-172.8000;0.4176;0.8145;
-172.5000;0.4184;0.8262;
-172.2000;0.4176;0.8286;
-171.9000;0.4094;0.8121;
-171.6000;0.4184;0.8309;
-171.3000;0.4168;0.8309;
-171.0000;0.4168;0.8403;
-170.7000;0.4176;0.8426;
-170.4000;0.4192;0.8473;
-170.1000;0.4184;0.8426;
-169.8000;0.4151;0.8450;
-169.5000;0.4184;0.8426;
-169.2000;0.4168;0.8356;
-168.9000;0.4168;0.8332;
-168.6000;0.4176;0.8309;
-168.3000;0.4160;0.8379;
-168.0000;0.4184;0.8497;
-167.7000;0.4160;0.8379;
-167.4000;0.4151;0.8309;
-167.1000;0.4208;0.8379;
-166.8000;0.4184;0.8379;
-166.5000;0.4176;0.8332;
-166.2000;0.4176;0.8379;
-165.9000;0.4184;0.8403;
-165.6000;0.4184;0.8332;
-165.3000;0.4184;0.8309;
-165.0000;0.4176;0.8286;
-164.7000;0.4176;0.8309;
-164.4000;0.4192;0.8309;
-164.1000;0.4160;0.8309;
-163.8000;0.4184;0.8379;
-163.5000;0.4192;0.8450;
-163.2000;0.4176;0.8379;
-162.9000;0.4184;0.8379;
-162.6000;0.4192;0.8497;
-162.3000;0.4078;0.8168;
-162.0000;0.4192;0.8426;
-161.7000;0.4184;0.8497;
-161.4000;0.4192;0.8403;
-161.1000;0.4176;0.8403;
-160.8000;0.4176;0.8309;
-160.5000;0.4192;0.8332;
-160.2000;0.4290;0.8591;
-159.9000;0.4184;0.8332;
-159.6000;0.4200;0.8332;
-159.3000;0.4168;0.8286;
-159.0000;0.4176;0.8379;
-158.7000;0.4176;0.8332;
-158.4000;0.4168;0.8332;
-158.1000;0.4176;0.8379;
-157.8000;0.4111;0.8098;
-157.5000;0.4176;0.8356;
-157.2000;0.4192;0.8403;
-156.9000;0.4192;0.8403;
-156.6000;0.4184;0.8309;
-156.3000;0.4176;0.8239;
-156.0000;0.4168;0.8356;
-155.7000;0.4160;0.8356;
-155.4000;0.4168;0.8332;
-155.1000;0.4168;0.8426;
-154.8000;0.4160;0.8379;
-154.5000;0.4200;0.8450;
-154.2000;0.4176;0.8497;
-153.9000;0.4184;0.8544;
-153.6000;0.4192;0.8520;
-153.3000;0.4168;0.8450;
-153.0000;0.4257;0.8567;
-152.7000;0.4176;0.8356;
-152.4000;0.4176;0.8309;
-152.1000;0.4135;0.8239;
-151.8000;0.4192;0.8262;
-151.5000;0.4192;0.8239;
-151.2000;0.4184;0.8262;
-150.9000;0.4168;0.8262;
-150.6000;0.4208;0.8356;
-150.3000;0.4168;0.8379;
-150.0000;0.4168;0.8426;
-149.7000;0.4184;0.8426;
-149.4000;0.4168;0.8473;
-149.1000;0.4176;0.8426;
-148.8000;0.4176;0.8356;
-148.5000;0.4151;0.8309;
-148.2000;0.4151;0.8379;
-147.9000;0.4184;0.8450;
-147.6000;0.4168;0.8356;
-147.3000;0.4168;0.8332;
-147.0000;0.4241;0.8426;
-146.7000;0.4184;0.8239;
-146.4000;0.4184;0.8215;
-146.1000;0.4168;0.8215;
-145.8000;0.4168;0.8286;
-145.5000;0.4176;0.8286;
-145.2000;0.4176;0.8356;
-144.9000;0.4184;0.8309;
-144.6000;0.4151;0.8262;
-144.3000;0.4160;0.8309;
-144.0000;0.4184;0.8286;
-143.7000;0.4225;0.8379;
-143.4000;0.4168;0.8403;
-143.1000;0.4192;0.8403;
-142.8000;0.4184;0.8450;
-142.5000;0.4192;0.8473;
-142.2000;0.4119;0.8356;
-141.9000;0.4176;0.8497;
-141.6000;0.4192;0.8544;
-141.3000;0.4184;0.8450;
-141.0000;0.4184;0.8286;
-140.7000;0.4176;0.8332;
-140.4000;0.4184;0.8309;
-140.1000;0.4168;0.8332;
-139.8000;0.4168;0.8309;
-139.5000;0.4176;0.8286;
-139.2000;0.4176;0.8192;
-138.9000;0.4168;0.8192;
-138.6000;0.4168;0.8286;
-138.3000;0.4168;0.8286;
-138.0000;0.4176;0.8379;
-137.7000;0.4184;0.8356;
-137.4000;0.4176;0.8379;
-137.1000;0.4168;0.8426;
-136.8000;0.4168;0.8497;
-136.5000;0.4176;0.8426;
-136.2000;0.4160;0.8450;
-135.9000;0.4168;0.8520;
-135.6000;0.4160;0.8426;
-135.3000;0.4176;0.8379;
-135.0000;0.4176;0.8403;
-134.7000;0.4192;0.8426;
-134.4000;0.4192;0.8426;
-134.1000;0.4168;0.8497;
-133.8000;0.4208;0.8567;
-133.5000;0.4143;0.8497;
-133.2000;0.4168;0.8426;
-132.9000;0.4184;0.8450;
-132.6000;0.4184;0.8473;
-132.3000;0.4176;0.8567;
-132.0000;0.4176;0.8591;
-131.7000;0.4176;0.8567;
-131.4000;0.4241;0.8802;
-131.1000;0.4168;0.8708;
-130.8000;0.4184;0.8732;
-130.5000;0.4176;0.8732;
-130.2000;0.4176;0.8732;
-129.9000;0.4176;0.8661;
-129.6000;0.4176;0.8638;
-129.3000;0.4192;0.8685;
-129.0000;0.4225;0.8755;
-128.7000;0.4192;0.8591;
-128.4000;0.4168;0.8591;
-128.1000;0.4176;0.8591;
-127.8000;0.4168;0.8614;
-127.5000;0.4160;0.8591;
-127.2000;0.4184;0.8661;
-126.9000;0.4176;0.8778;
-126.6000;0.4168;0.8778;
-126.3000;0.4176;0.8802;
-126.0000;0.4168;0.8825;
-125.7000;0.4168;0.8778;
-125.4000;0.4176;0.8732;
-125.1000;0.4086;0.8426;
-124.8000;0.4168;0.8520;
-124.5000;0.4184;0.8473;
-124.2000;0.4241;0.8732;
-123.9000;0.4249;0.8732;
-123.6000;0.4192;0.8520;
-123.3000;0.4176;0.8473;
-123.0000;0.4241;0.8638;
-122.7000;0.4257;0.8544;
-122.4000;0.4192;0.8356;
-122.1000;0.4192;0.8426;
-121.8000;0.4192;0.8520;
-121.5000;0.4184;0.8544;
-121.2000;0.4168;0.8520;
-120.9000;0.4168;0.8426;
-120.6000;0.4168;0.8520;
-120.3000;0.4111;0.8426;
-120.0000;0.4225;0.8638;
-119.7000;0.4103;0.8332;
-119.4000;0.4168;0.8614;
-119.1000;0.4176;0.8685;
-118.8000;0.4184;0.8614;
-118.5000;0.4184;0.8544;
-118.2000;0.4176;0.8520;
-117.9000;0.4176;0.8520;
-117.6000;0.4192;0.8544;
-117.3000;0.4151;0.8497;
-117.0000;0.4184;0.8591;
-116.7000;0.4184;0.8591;
-116.4000;0.4192;0.8638;
-116.1000;0.4184;0.8661;
-115.8000;0.4103;0.8356;
-115.5000;0.4176;0.8544;
-115.2000;0.4168;0.8520;
-114.9000;0.4184;0.8544;
-114.6000;0.4176;0.8544;
-114.3000;0.4176;0.8567;
-114.0000;0.4192;0.8544;
-113.7000;0.4184;0.8614;
-113.4000;0.4184;0.8614;
-113.1000;0.4143;0.8473;
-112.8000;0.4176;0.8638;
-112.5000;0.4192;0.8732;
-112.2000;0.4184;0.8661;
-111.9000;0.4176;0.8708;
-111.6000;0.4160;0.8614;
-111.3000;0.4176;0.8614;
-111.0000;0.4168;0.8497;
-110.7000;0.4151;0.8426;
-110.4000;0.4176;0.8520;
-110.1000;0.4192;0.8520;
-109.8000;0.4176;0.8473;
-109.5000;0.4062;0.8098;
-109.2000;0.4103;0.8239;
-108.9000;0.4143;0.8450;
-108.6000;0.4200;0.8544;
-108.3000;0.4176;0.8450;
-108.0000;0.4176;0.8450;
-107.7000;0.4184;0.8403;
-107.4000;0.4176;0.8426;
-107.1000;0.4192;0.8544;
-106.8000;0.4184;0.8473;
-106.5000;0.4168;0.8473;
-106.2000;0.4176;0.8450;
-105.9000;0.4168;0.8403;
-105.6000;0.4192;0.8426;
-105.3000;0.4184;0.8497;
-105.0000;0.4184;0.8426;
-104.7000;0.4176;0.8356;
-104.4000;0.4176;0.8356;
-104.1000;0.4184;0.8356;
-103.8000;0.4176;0.8332;
-103.5000;0.4168;0.8403;
-103.2000;0.4176;0.8473;
-102.9000;0.4225;0.8497;
-102.6000;0.4176;0.8403;
-102.3000;0.4200;0.8497;
-102.0000;0.4225;0.8638;
-101.7000;0.4143;0.8473;
-101.4000;0.4151;0.8520;
-101.1000;0.4241;0.8755;
-100.8000;0.4168;0.8567;
-100.5000;0.4176;0.8591;
-100.2000;0.4184;0.8567;
-99.9000;0.4176;0.8591;
-99.6000;0.4160;0.8591;
-99.3000;0.4192;0.8614;
-99.0000;0.4184;0.8544;
-98.7000;0.4192;0.8567;
-98.4000;0.4192;0.8520;
-98.1000;0.4168;0.8497;
-97.8000;0.4168;0.8473;
-97.5000;0.4160;0.8497;
-97.2000;0.4184;0.8661;
-96.9000;0.4176;0.8685;
-96.6000;0.4168;0.8755;
-96.3000;0.4200;0.8778;
-96.0000;0.4208;0.8849;
-95.7000;0.4176;0.8778;
-95.4000;0.4184;0.8825;
-95.1000;0.4143;0.8661;
-94.8000;0.4192;0.8661;
-94.5000;0.4160;0.8567;
-94.2000;0.4225;0.8802;
-93.9000;0.4184;0.8732;
-93.6000;0.4192;0.8778;
-93.3000;0.4192;0.8778;
-93.0000;0.4192;0.8732;
-92.7000;0.4176;0.8732;
-92.4000;0.4184;0.8685;
-92.1000;0.4176;0.8614;
-91.8000;0.4192;0.8802;
-91.5000;0.4168;0.8732;
-91.2000;0.4160;0.8708;
-90.9000;0.4160;0.8661;
-90.6000;0.4184;0.8614;
-90.3000;0.4168;0.8591;
-90.0000;0.4143;0.8520;
-89.7000;0.4160;0.8685;
-89.4000;0.4127;0.8497;
-89.1000;0.4192;0.8614;
-88.8000;0.4176;0.8520;
-88.5000;0.4330;0.8943;
-88.2000;0.4151;0.8520;
-87.9000;0.4192;0.8614;
-87.6000;0.4176;0.8567;
-87.3000;0.4192;0.8544;
-87.0000;0.4176;0.8614;
-86.7000;0.4184;0.8591;
-86.4000;0.4160;0.8520;
-86.1000;0.4184;0.8591;
-85.8000;0.4184;0.8661;
-85.5000;0.4168;0.8638;
-85.2000;0.4168;0.8661;
-84.9000;0.4168;0.8685;
-84.6000;0.4176;0.8708;
-84.3000;0.4168;0.8638;
-84.0000;0.4168;0.8567;
-83.7000;0.4168;0.8661;
-83.4000;0.4192;0.8732;
-83.1000;0.4168;0.8638;
-82.8000;0.4168;0.8614;
-82.5000;0.4176;0.8638;
-82.2000;0.4184;0.8567;
-81.9000;0.4290;0.8849;
-81.6000;0.4184;0.8473;
-81.3000;0.4176;0.8497;
-81.0000;0.4176;0.8426;
-80.7000;0.4184;0.8450;
-80.4000;0.4176;0.8473;
-80.1000;0.4160;0.8450;
-79.8000;0.4184;0.8426;
-79.5000;0.4184;0.8379;
-79.2000;0.4176;0.8379;
-78.9000;0.4168;0.8379;
-78.6000;0.4225;0.8591;
-78.3000;0.4176;0.8567;
-78.0000;0.4176;0.8544;
-77.7000;0.4176;0.8520;
-77.4000;0.4200;0.8544;
-77.1000;0.4184;0.8426;
-76.8000;0.4184;0.8426;
-76.5000;0.4168;0.8403;
-76.2000;0.4176;0.8450;
-75.9000;0.4168;0.8473;
-75.6000;0.4151;0.8473;
-75.3000;0.4184;0.8497;
-75.0000;0.4192;0.8473;
-74.7000;0.4184;0.8520;
-74.4000;0.4184;0.8614;
-74.1000;0.4192;0.8567;
-73.8000;0.4168;0.8520;
-73.5000;0.4184;0.8520;
-73.2000;0.4225;0.8638;
-72.9000;0.4151;0.8356;
-72.6000;0.4168;0.8379;
-72.3000;0.4160;0.8379;
-72.0000;0.4135;0.8309;
-71.7000;0.4176;0.8497;
-71.4000;0.4176;0.8544;
-71.1000;0.4160;0.8473;
-70.8000;0.4176;0.8450;
-70.5000;0.4176;0.8520;
-70.2000;0.4241;0.8685;
-69.9000;0.4160;0.8450;
-69.6000;0.4176;0.8473;
-69.3000;0.4192;0.8450;
-69.0000;0.4078;0.8098;
-68.7000;0.4184;0.8379;
-68.4000;0.4143;0.8332;
-68.1000;0.4200;0.8473;
-67.8000;0.4184;0.8426;
-67.5000;0.4184;0.8473;
-67.2000;0.4184;0.8473;
-66.9000;0.4168;0.8426;
-66.6000;0.4168;0.8309;
-66.3000;0.4160;0.8286;
-66.0000;0.4184;0.8262;
-65.7000;0.4176;0.8262;
-65.4000;0.4168;0.8332;
-65.1000;0.4192;0.8403;
-64.8000;0.4111;0.8192;
-64.5000;0.4192;0.8332;
-64.2000;0.4176;0.8309;
-63.9000;0.4184;0.8356;
-63.6000;0.4192;0.8356;
-63.3000;0.4200;0.8309;
-63.0000;0.4192;0.8309;
-62.7000;0.4168;0.8286;
-62.4000;0.4168;0.8286;
-62.1000;0.4176;0.8332;
-61.8000;0.4176;0.8332;
-61.5000;0.4192;0.8379;
-61.2000;0.4176;0.8356;
-60.9000;0.4184;0.8356;
-60.6000;0.4176;0.8379;
-60.3000;0.4184;0.8403;
-60.0000;0.4176;0.8450;
-59.7000;0.4176;0.8450;
-59.4000;0.4176;0.8473;
-59.1000;0.4160;0.8332;
-58.8000;0.4160;0.8356;
-58.5000;0.4168;0.8426;
-58.2000;0.4176;0.8450;
-57.9000;0.4192;0.8450;
-57.6000;0.4176;0.8379;
-57.3000;0.4160;0.8356;
-57.0000;0.4184;0.8403;
-56.7000;0.4184;0.8426;
-56.4000;0.4176;0.8356;
-56.1000;0.4168;0.8262;
-55.8000;0.4192;0.8168;
-55.5000;0.4192;0.8215;
-55.2000;0.4184;0.8192;
-54.9000;0.4168;0.8168;
-54.6000;0.4184;0.8215;
-54.3000;0.4184;0.8262;
-54.0000;0.4192;0.8262;
-53.7000;0.4274;0.8520;
-53.4000;0.4176;0.8379;
-53.1000;0.4168;0.8379;
-52.8000;0.4192;0.8403;
-52.5000;0.4192;0.8426;
-52.2000;0.4192;0.8356;
-51.9000;0.4176;0.8239;
-51.6000;0.4192;0.8286;
-51.3000;0.4192;0.8215;
-51.0000;0.4176;0.8215;
-50.7000;0.4151;0.8192;
-50.4000;0.4200;0.8309;
-50.1000;0.4176;0.8239;
-49.8000;0.4176;0.8168;
-49.5000;0.4176;0.8121;
-49.2000;0.4168;0.8215;
-48.9000;0.4160;0.8192;
-48.6000;0.4184;0.8286;
-48.3000;0.4184;0.8262;
-48.0000;0.4176;0.8239;
-47.7000;0.4176;0.8286;
-47.4000;0.4176;0.8239;
-47.1000;0.4168;0.8192;
-46.8000;0.4176;0.8262;
-46.5000;0.4184;0.8332;
-46.2000;0.4176;0.8239;
-45.9000;0.4168;0.8239;
-45.6000;0.4176;0.8239;
-45.3000;0.4184;0.8286;
-45.0000;0.4184;0.8262;
-44.7000;0.4168;0.8286;
-44.4000;0.4200;0.8332;
-44.1000;0.4168;0.8356;
-43.8000;0.4168;0.8379;
-43.5000;0.4176;0.8426;
-43.2000;0.4225;0.8520;
-42.9000;0.4184;0.8403;
-42.6000;0.4176;0.8262;
-42.3000;0.4184;0.8239;
-42.0000;0.4168;0.8192;
-41.7000;0.4184;0.8239;
-41.4000;0.4160;0.8121;
-41.1000;0.4176;0.8192;
-40.8000;0.4184;0.8168;
-40.5000;0.4151;0.8168;
-40.2000;0.4151;0.8215;
-39.9000;0.4176;0.8356;
-39.6000;0.4176;0.8450;
-39.3000;0.4176;0.8403;
-39.0000;0.4184;0.8567;
-38.7000;0.4184;0.8544;
-38.4000;0.4200;0.8591;
-38.1000;0.4168;0.8520;
-37.8000;0.4176;0.8473;
-37.5000;0.4176;0.8450;
-37.2000;0.4184;0.8450;
-36.9000;0.4208;0.8497;
-36.6000;0.4176;0.8450;
-36.3000;0.4168;0.8403;
-36.0000;0.4176;0.8403;
-35.7000;0.4168;0.8309;
-35.4000;0.4176;0.8379;
-35.1000;0.4168;0.8403;
-34.8000;0.4176;0.8403;
-34.5000;0.4160;0.8379;
-34.2000;0.4176;0.8309;
-33.9000;0.4192;0.8332;
-33.6000;0.4135;0.8098;
-33.3000;0.4176;0.8239;
-33.0000;0.4176;0.8286;
-32.7000;0.4168;0.8215;
-32.4000;0.4176;0.8168;
-32.1000;0.4160;0.8215;
-31.8000;0.4176;0.8215;
-31.5000;0.4151;0.8168;
-31.2000;0.4184;0.8239;
-30.9000;0.4176;0.8192;
-30.6000;0.4225;0.8356;
-30.3000;0.4200;0.8239;
-30.0000;0.4184;0.8215;
-29.7000;0.4078;0.7957;
-29.4000;0.4184;0.8192;
-29.1000;0.4192;0.8286;
-28.8000;0.4192;0.8332;
-28.5000;0.4168;0.8286;
-28.2000;0.4160;0.8286;
-27.9000;0.4176;0.8262;
-27.6000;0.4241;0.8403;
-27.3000;0.4176;0.8286;
-27.0000;0.4176;0.8309;
-26.7000;0.4184;0.8215;
-26.4000;0.4200;0.8262;
-26.1000;0.4184;0.8239;
-25.8000;0.4168;0.8215;
-25.5000;0.4168;0.8286;
-25.2000;0.4176;0.8332;
-24.9000;0.4176;0.8379;
-24.6000;0.4192;0.8426;
-24.3000;0.4168;0.8426;
-24.0000;0.4176;0.8379;
-23.7000;0.4176;0.8403;
-23.4000;0.4184;0.8309;
-23.1000;0.4192;0.8286;
-22.8000;0.4184;0.8192;
-22.5000;0.4200;0.8239;
-22.2000;0.4168;0.8145;
-21.9000;0.4200;0.8332;
-21.6000;0.4176;0.8239;
-21.3000;0.4225;0.8286;
-21.0000;0.4176;0.8192;
-20.7000;0.4168;0.8239;
-20.4000;0.4176;0.8262;
-20.1000;0.4151;0.8262;
-19.8000;0.4192;0.8192;
-19.5000;0.4184;0.8262;
-19.2000;0.4176;0.8356;
-18.9000;0.4184;0.8379;
-18.6000;0.4192;0.8379;
-18.3000;0.4208;0.8497;
-18.0000;0.4094;0.8145;
-17.7000;0.4184;0.8379;
-17.4000;0.4168;0.8426;
-17.1000;0.4151;0.8379;
-16.8000;0.4176;0.8403;
-16.5000;0.4192;0.8403;
-16.2000;0.4160;0.8309;
-15.9000;0.4208;0.8473;
-15.6000;0.4176;0.8426;
-15.3000;0.4225;0.8520;
-15.0000;0.4184;0.8426;
-14.7000;0.4184;0.8403;
-14.4000;0.4184;0.8403;
-14.1000;0.4200;0.8497;
-13.8000;0.4111;0.8286;
-13.5000;0.4184;0.8426;
-13.2000;0.4176;0.8426;
-12.9000;0.4111;0.8403;
-12.6000;0.4184;0.8567;
-12.3000;0.4184;0.8544;
-12.0000;0.4200;0.8497;
-11.7000;0.4151;0.8356;
-11.4000;0.4168;0.8379;
-11.1000;0.4119;0.8309;
-10.8000;0.4135;0.8309;
-10.5000;0.4143;0.8286;
-10.2000;0.4168;0.8356;
-9.9000;0.4192;0.8450;
-9.6000;0.4168;0.8497;
-9.3000;0.4184;0.8520;
-9.0000;0.4184;0.8544;
-8.7000;0.4168;0.8567;
-8.4000;0.4184;0.8614;
-8.1000;0.4160;0.8544;
-7.8000;0.4184;0.8473;
-7.5000;0.4200;0.8520;
-7.2000;0.4184;0.8473;
-6.9000;0.4176;0.8450;
-6.6000;0.4168;0.8403;
-6.3000;0.4168;0.8426;
-6.0000;0.4184;0.8379;
-5.7000;0.4151;0.8332;
-5.4000;0.4176;0.8403;
-5.1000;0.4168;0.8473;
-4.8000;0.4184;0.8544;
-4.5000;0.4184;0.8473;
-4.2000;0.4168;0.8426;
-3.9000;0.4176;0.8473;
-3.6000;0.4184;0.8426;
-3.3000;0.4168;0.8356;
-3.0000;0.4176;0.8356;
-2.7000;0.4176;0.8426;
-2.4000;0.4200;0.8426;
-2.1000;0.4184;0.8426;
-1.8000;0.4168;0.8332;
-1.5000;0.4160;0.8309;
-1.2000;0.4176;0.8356;
-0.9000;0.4111;0.8239;
-0.6000;0.4176;0.8426;
-0.3000;0.4200;0.8450;
0.0000;0.4200;0.8450;
0.3000;0.4298;0.8520;
0.6000;0.4575;0.8802;
0.9000;0.4648;0.8685;
1.2000;0.4794;0.8802;
1.5000;0.4925;0.8990;
1.8000;0.4982;0.9107;
2.1000;0.5063;0.9224;
2.4000;0.5096;0.9365;
2.7000;0.5153;0.9576;
3.0000;0.5185;0.9670;
3.3000;0.5193;0.9694;
3.6000;0.5185;0.9764;
3.9000;0.5234;0.9929;
4.2000;0.5242;0.9835;
4.5000;0.5234;0.9788;
4.8000;0.5275;0.9929;
5.1000;0.5267;0.9976;
5.4000;0.5381;1.0328;
5.7000;0.5234;0.9882;
6.0000;0.5307;1.0046;
6.3000;0.5324;1.0140;
6.6000;0.5389;1.0328;
6.9000;0.5364;1.0281;
7.2000;0.5348;1.0163;
7.5000;0.5429;1.0328;
7.8000;0.5364;1.0140;
8.1000;0.5372;1.0163;
8.4000;0.5372;1.0234;
8.7000;0.5429;1.0304;
9.0000;0.5397;1.0234;
9.3000;0.5405;1.0210;
9.6000;0.5421;1.0187;
9.9000;0.5478;1.0234;
10.2000;0.5413;1.0093;
10.5000;0.5470;1.0140;
10.8000;0.5438;1.0093;
11.1000;0.5438;1.0046;
11.4000;0.5462;1.0069;
11.7000;0.5486;1.0069;
12.0000;0.5503;1.0093;
12.3000;0.5495;1.0046;
12.6000;0.5495;1.0116;
12.9000;0.5503;1.0187;
13.2000;0.5519;1.0210;
13.5000;0.5527;1.0257;
13.8000;0.5551;1.0257;
14.1000;0.5535;1.0187;
14.4000;0.5551;1.0257;
14.7000;0.5551;1.0257;
15.0000;0.5568;1.0328;
15.3000;0.5568;1.0210;
15.6000;0.5592;1.0234;
15.9000;0.5576;1.0069;
16.2000;0.5576;1.0046;
16.5000;0.5600;1.0046;
16.8000;0.5592;0.9976;
17.1000;0.5657;1.0069;
17.4000;0.5608;0.9976;
17.7000;0.5608;1.0022;
18.0000;0.5608;1.0140;
18.3000;0.5641;1.0163;
18.6000;0.5608;1.0022;
18.9000;0.5739;1.0328;
19.2000;0.5641;1.0022;
19.5000;0.5665;1.0046;
19.8000;0.5649;1.0093;
20.1000;0.5674;1.0093;
20.4000;0.5592;0.9905;
20.7000;0.5690;1.0116;
21.0000;0.5731;1.0234;
21.3000;0.5682;1.0093;
21.6000;0.5690;1.0093;
21.9000;0.5690;1.0116;
22.2000;0.5706;1.0093;
22.5000;0.5698;1.0046;
22.8000;0.5714;1.0093;
23.1000;0.5747;1.0210;
23.4000;0.5722;1.0140;
23.7000;0.5731;1.0163;
24.0000;0.5706;1.0093;
24.3000;0.5731;1.0234;
24.6000;0.5763;1.0210;
24.9000;0.5739;1.0093;
25.2000;0.5763;1.0069;
25.5000;0.5771;1.0140;
25.8000;0.5755;1.0163;
26.1000;0.5828;1.0398;
26.4000;0.5755;1.0093;
26.7000;0.5804;1.0281;
27.0000;0.5788;1.0187;
27.3000;0.5788;1.0116;
27.6000;0.5788;1.0116;
27.9000;0.5788;1.0069;
28.2000;0.5804;1.0093;
28.5000;0.5812;1.0140;
28.8000;0.5804;1.0116;
29.1000;0.5804;1.0163;
29.4000;0.5820;1.0163;
29.7000;0.5796;1.0093;
30.0000;0.5812;1.0069;
30.3000;0.5812;1.0046;
30.6000;0.5796;0.9999;
30.9000;0.5820;1.0163;
31.2000;0.5845;1.0281;
31.5000;0.5804;1.0187;
31.8000;0.5853;1.0187;
32.1000;0.5836;1.0140;
32.4000;0.5845;1.0163;
32.7000;0.5853;1.0210;
33.0000;0.5861;1.0140;
33.3000;0.5861;1.0140;
33.6000;0.5877;1.0140;
33.9000;0.5861;1.0046;
34.2000;0.5861;1.0116;
34.5000;0.5877;1.0163;
34.8000;0.5885;1.0116;
35.1000;0.5877;1.0046;
35.4000;0.5877;0.9976;
35.7000;0.5893;1.0093;
36.0000;0.5893;1.0116;
36.3000;0.5885;1.0046;
36.6000;0.5877;0.9976;
36.9000;0.5893;0.9999;
37.2000;0.5910;1.0069;
37.5000;0.6007;1.0351;
37.8000;0.5910;1.0140;
38.1000;0.5902;1.0093;
38.4000;0.5910;1.0116;
38.7000;0.5918;1.0022;
39.0000;0.5934;1.0022;
39.3000;0.5918;0.9999;
39.6000;0.5910;0.9976;
39.9000;0.5926;1.0116;
40.2000;0.5926;1.0163;
40.5000;0.5926;1.0093;
40.8000;0.5999;1.0234;
41.1000;0.5926;0.9952;
41.4000;0.5918;0.9976;
41.7000;0.5926;1.0022;
42.0000;0.5942;1.0046;
42.3000;0.5942;1.0069;
42.6000;0.5942;1.0116;
42.9000;0.5934;1.0046;
43.2000;0.5918;1.0116;
43.5000;0.5958;1.0210;
43.8000;0.5950;1.0140;
44.1000;0.5950;1.0140;
44.4000;0.5942;1.0140;
44.7000;0.5942;1.0187;
45.0000;0.5934;1.0210;
45.3000;0.5967;1.0187;
45.6000;0.5950;1.0116;
45.9000;0.5967;1.0257;
46.2000;0.5958;1.0281;
46.5000;0.5950;1.0210;
46.8000;0.5967;1.0234;
47.1000;0.5967;1.0281;
47.4000;0.5967;1.0281;
47.7000;0.5958;1.0210;
48.0000;0.5983;1.0210;
48.3000;0.5975;1.0187;
48.6000;0.6040;1.0375;
48.9000;0.5950;1.0140;
49.2000;0.5958;1.0234;
49.5000;0.6015;1.0445;
49.8000;0.5958;1.0328;
50.1000;0.5950;1.0351;
50.4000;0.5910;1.0187;
50.7000;0.5910;1.0163;
51.0000;0.5983;1.0281;
51.3000;0.5999;1.0328;
51.6000;0.5975;1.0328;
51.9000;0.5983;1.0304;
52.2000;0.6007;1.0257;
52.5000;0.5999;1.0257;
52.8000;0.5991;1.0281;
53.1000;0.5975;1.0210;
53.4000;0.6007;1.0281;
53.7000;0.6007;1.0304;
54.0000;0.6007;1.0281;
54.3000;0.5999;1.0281;
54.6000;0.5999;1.0187;
54.9000;0.5999;1.0234;
55.2000;0.5999;1.0210;
55.5000;0.5999;1.0281;
55.8000;0.6007;1.0281;
56.1000;0.6015;1.0281;
56.4000;0.5999;1.0210;
56.7000;0.5999;1.0187;
57.0000;0.5999;1.0210;
57.3000;0.6007;1.0234;
57.6000;0.6081;1.0398;
57.9000;0.6024;1.0210;
58.2000;0.6007;1.0281;
58.5000;0.6015;1.0234;
58.8000;0.6007;1.0210;
59.1000;0.6024;1.0210;
59.4000;0.5991;1.0187;
59.7000;0.6015;1.0163;
60.0000;0.6015;1.0187;
60.3000;0.6015;1.0140;
60.6000;0.6015;1.0163;
60.9000;0.6015;1.0140;
61.2000;0.6089;1.0257;
61.5000;0.6024;1.0140;
61.8000;0.6015;1.0022;
62.1000;0.6015;1.0046;
62.4000;0.6032;1.0140;
62.7000;0.6040;1.0140;
63.0000;0.6032;1.0046;
63.3000;0.6024;0.9999;
63.6000;0.6048;1.0116;
63.9000;0.6032;1.0069;
64.2000;0.6040;1.0022;
64.5000;0.6032;1.0069;
64.8000;0.6024;0.9999;
65.1000;0.6032;1.0069;
65.4000;0.6040;1.0116;
65.7000;0.6048;1.0187;
66.0000;0.6056;1.0140;
66.3000;0.6081;1.0281;
66.6000;0.6064;1.0163;
66.9000;0.6024;1.0069;
67.2000;0.6032;1.0022;
67.5000;0.6064;1.0046;
67.8000;0.6048;0.9999;
68.1000;0.6056;1.0022;
68.4000;0.6040;1.0046;
68.7000;0.6056;1.0046;
69.0000;0.6064;1.0069;
69.3000;0.6048;1.0069;
69.6000;0.6048;1.0069;
69.9000;0.6056;1.0069;
70.2000;0.6113;1.0187;
70.5000;0.6056;1.0022;
70.8000;0.6048;1.0069;
71.1000;0.6056;1.0140;
71.4000;0.6064;1.0234;
71.7000;0.6056;1.0187;
72.0000;0.6056;1.0140;
72.3000;0.6056;1.0187;
72.6000;0.6097;1.0234;
72.9000;0.6064;1.0093;
73.2000;0.6048;1.0069;
73.5000;0.6048;1.0116;
73.8000;0.6040;1.0116;
74.1000;0.6064;1.0187;
74.4000;0.6056;1.0069;
74.7000;0.6056;1.0116;
75.0000;0.6072;1.0163;
75.3000;0.6072;1.0116;
75.6000;0.6024;1.0069;
75.9000;0.6097;1.0210;
76.2000;0.6056;1.0093;
76.5000;0.6056;1.0140;
76.8000;0.6072;1.0163;
77.1000;0.6072;1.0093;
77.4000;0.6056;0.9999;
77.7000;0.6072;1.0046;
78.0000;0.6056;1.0069;
78.3000;0.6072;1.0093;
78.6000;0.6072;1.0093;
78.9000;0.6081;1.0116;
79.2000;0.6072;1.0187;
79.5000;0.6072;1.0163;
79.8000;0.6040;1.0116;
80.1000;0.6072;1.0210;
80.4000;0.6072;1.0234;
80.7000;0.6081;1.0163;
81.0000;0.6072;1.0163;
81.3000;0.6089;1.0163;
81.6000;0.6064;1.0140;
81.9000;0.6056;1.0093;
82.2000;0.6064;1.0116;
82.5000;0.6072;1.0187;
82.8000;0.6081;1.0163;
83.1000;0.6081;1.0210;
83.4000;0.6056;1.0163;
83.7000;0.6097;1.0328;
84.0000;0.6081;1.0351;
84.3000;0.6081;1.0421;
84.6000;0.6064;1.0421;
84.9000;0.6081;1.0398;
85.2000;0.6072;1.0281;
85.5000;0.6064;1.0234;
85.8000;0.6081;1.0304;
86.1000;0.6081;1.0328;
86.4000;0.6048;1.0187;
86.7000;0.6081;1.0210;
87.0000;0.6081;1.0210;
87.3000;0.6081;1.0046;
87.6000;0.6089;1.0116;
87.9000;0.6097;1.0234;
88.2000;0.6072;1.0210;
88.5000;0.6081;1.0210;
88.8000;0.6097;1.0234;
89.1000;0.6072;1.0281;
89.4000;0.6081;1.0210;
89.7000;0.6081;1.0257;
90.0000;0.6097;1.0234;
90.3000;0.6081;1.0281;
90.6000;0.6089;1.0328;
90.9000;0.6097;1.0328;
91.2000;0.6081;1.0304;
91.5000;0.6089;1.0234;
91.8000;0.6105;1.0281;
92.1000;0.6105;1.0234;
92.4000;0.6056;1.0116;
92.7000;0.6089;1.0163;
93.0000;0.6081;1.0093;
93.3000;0.6081;1.0116;
93.6000;0.6097;1.0093;
93.9000;0.6089;1.0187;
94.2000;0.6064;1.0116;
94.5000;0.6081;1.0210;
94.8000;0.6072;1.0187;
95.1000;0.6081;1.0234;
95.4000;0.6072;1.0304;
95.7000;0.6072;1.0328;
96.0000;0.6081;1.0257;
96.3000;0.6072;1.0234;
96.6000;0.5999;1.0069;
96.9000;0.6113;1.0304;
97.2000;0.6089;1.0234;
97.5000;0.6081;1.0210;
97.8000;0.6097;1.0281;
98.1000;0.6064;1.0234;
98.4000;0.6072;1.0234;
98.7000;0.6097;1.0257;
99.0000;0.6089;1.0210;
99.3000;0.6089;1.0281;
99.6000;0.6089;1.0351;
99.9000;0.6072;1.0187;
100.2000;0.6097;1.0210;
100.5000;0.6089;1.0116;
100.8000;0.6040;1.0046;
101.1000;0.6105;1.0163;
101.4000;0.6105;1.0116;
101.7000;0.6105;1.0093;
102.0000;0.6105;1.0116;
102.3000;0.6097;1.0140;
102.6000;0.6097;1.0140;
102.9000;0.6178;1.0304;
103.2000;0.6105;1.0210;
103.5000;0.6089;1.0140;
103.8000;0.6097;1.0210;
104.1000;0.6097;1.0234;
104.4000;0.6097;1.0304;
104.7000;0.6105;1.0328;
105.0000;0.6105;1.0351;
105.3000;0.6097;1.0375;
105.6000;0.6097;1.0351;
105.9000;0.6113;1.0328;
106.2000;0.6089;1.0234;
106.5000;0.6105;1.0304;
106.8000;0.6105;1.0304;
107.1000;0.6113;1.0398;
107.4000;0.6072;1.0445;
107.7000;0.6097;1.0468;
108.0000;0.6089;1.0445;
108.3000;0.6113;1.0421;
108.6000;0.6105;1.0375;
108.9000;0.6178;1.0562;
109.2000;0.6097;1.0328;
109.5000;0.6089;1.0398;
109.8000;0.6089;1.0328;
110.1000;0.6081;1.0304;
110.4000;0.6105;1.0398;
110.7000;0.6113;1.0375;
111.0000;0.6081;1.0375;
111.3000;0.6081;1.0445;
111.6000;0.6081;1.0351;
111.9000;0.6105;1.0398;
112.2000;0.6097;1.0445;
112.5000;0.6089;1.0445;
112.8000;0.6056;1.0281;
113.1000;0.6138;1.0375;
113.4000;0.6089;1.0234;
113.7000;0.6089;1.0304;
114.0000;0.6089;1.0328;
114.3000;0.6097;1.0304;
114.6000;0.6129;1.0351;
114.9000;0.6121;1.0351;
115.2000;0.6146;1.0375;
115.5000;0.6105;1.0398;
115.8000;0.6154;1.0562;
116.1000;0.6105;1.0421;
116.4000;0.6072;1.0304;
116.7000;0.6089;1.0375;
117.0000;0.6089;1.0398;
117.3000;0.6097;1.0398;
117.6000;0.6105;1.0421;
117.9000;0.6097;1.0421;
118.2000;0.6097;1.0492;
118.5000;0.6105;1.0421;
118.8000;0.6129;1.0468;
119.1000;0.6081;1.0304;
119.4000;0.6195;1.0656;
119.7000;0.6105;1.0398;
120.0000;0.6113;1.0398;
120.3000;0.6105;1.0328;
120.6000;0.6097;1.0351;
120.9000;0.6097;1.0375;
121.2000;0.6097;1.0375;
121.5000;0.6105;1.0421;
121.8000;0.6129;1.0375;
122.1000;0.6097;1.0328;
122.4000;0.6089;1.0257;
122.7000;0.6113;1.0328;
123.0000;0.6105;1.0351;
123.3000;0.6121;1.0421;
123.6000;0.6105;1.0445;
123.9000;0.6089;1.0492;
124.2000;0.6097;1.0539;
124.5000;0.6105;1.0515;
124.8000;0.6097;1.0539;
125.1000;0.6113;1.0539;
125.4000;0.6097;1.0492;
125.7000;0.6032;1.0304;
126.0000;0.6097;1.0375;
126.3000;0.6097;1.0351;
126.6000;0.6113;1.0351;
126.9000;0.6129;1.0351;
127.2000;0.6113;1.0328;
127.5000;0.6121;1.0328;
127.8000;0.6064;1.0210;
128.1000;0.6121;1.0328;
128.4000;0.6105;1.0281;
128.7000;0.6129;1.0421;
129.0000;0.6072;1.0304;
129.3000;0.6097;1.0281;
129.6000;0.6097;1.0281;
129.9000;0.6064;1.0140;
130.2000;0.6105;1.0421;
130.5000;0.6105;1.0421;
130.8000;0.6105;1.0445;
131.1000;0.6113;1.0492;
131.4000;0.6105;1.0515;
131.7000;0.6105;1.0468;
132.0000;0.6113;1.0421;
132.3000;0.6121;1.0398;
132.6000;0.6170;1.0539;
132.9000;0.6097;1.0328;
133.2000;0.6089;1.0281;
133.5000;0.6105;1.0304;
133.8000;0.6129;1.0281;
134.1000;0.6105;1.0210;
134.4000;0.6089;1.0140;
134.7000;0.6138;1.0210;
135.0000;0.6129;1.0046;
135.3000;0.6113;1.0069;
135.6000;0.6072;0.9999;
135.9000;0.6097;1.0093;
136.2000;0.6097;1.0116;
136.5000;0.6105;1.0210;
136.8000;0.6081;1.0093;
137.1000;0.6162;1.0304;
137.4000;0.6105;1.0140;
137.7000;0.6064;1.0069;
138.0000;0.6089;1.0093;
138.3000;0.6056;0.9952;
138.6000;0.6121;1.0046;
138.9000;0.6089;1.0093;
139.2000;0.6097;1.0116;
139.5000;0.6113;1.0140;
139.8000;0.6097;1.0187;
140.1000;0.6154;1.0351;
140.4000;0.6105;1.0234;
140.7000;0.6040;1.0069;
141.0000;0.6097;1.0210;
141.3000;0.6097;1.0257;
141.6000;0.6081;1.0210;
141.9000;0.6097;1.0281;
142.2000;0.6097;1.0234;
142.5000;0.6178;1.0539;
142.8000;0.6097;1.0398;
143.1000;0.6089;1.0468;
143.4000;0.6089;1.0492;
143.7000;0.6097;1.0421;
144.0000;0.6105;1.0468;
144.3000;0.6089;1.0421;
144.6000;0.6081;1.0351;
144.9000;0.6121;1.0375;
145.2000;0.6113;1.0398;
145.5000;0.6097;1.0375;
145.8000;0.6105;1.0375;
146.1000;0.6113;1.0281;
146.4000;0.6097;1.0304;
146.7000;0.6097;1.0257;
147.0000;0.6081;1.0187;
147.3000;0.6105;1.0163;
147.6000;0.6121;1.0210;
147.9000;0.6105;1.0187;
148.2000;0.6121;1.0257;
148.5000;0.6121;1.0281;
148.8000;0.6121;1.0257;
149.1000;0.6129;1.0304;
149.4000;0.6105;1.0281;
149.7000;0.6097;1.0328;
150.0000;0.6105;1.0421;
150.3000;0.6113;1.0398;
150.6000;0.6113;1.0421;
150.9000;0.6113;1.0421;
151.2000;0.6121;1.0398;
151.5000;0.6178;1.0539;
151.8000;0.6121;1.0398;
152.1000;0.6097;1.0257;
152.4000;0.6121;1.0163;
152.7000;0.6129;1.0140;
153.0000;0.6105;1.0187;
153.3000;0.6113;1.0187;
153.6000;0.6121;1.0140;
153.9000;0.6113;1.0046;
154.2000;0.6089;1.0069;
154.5000;0.6089;1.0093;
154.8000;0.6211;1.0398;
155.1000;0.6113;1.0163;
155.4000;0.6105;1.0187;
155.7000;0.6113;1.0257;
156.0000;0.6105;1.0304;
156.3000;0.6105;1.0281;
156.6000;0.6121;1.0210;
156.9000;0.6097;1.0116;
157.2000;0.6097;1.0093;
157.5000;0.6089;1.0116;
157.8000;0.6097;1.0093;
158.1000;0.6105;1.0046;
158.4000;0.6113;1.0093;
158.7000;0.6072;0.9976;
159.0000;0.6097;1.0046;
159.3000;0.6138;1.0093;
159.6000;0.6105;1.0093;
159.9000;0.6097;1.0093;
160.2000;0.6113;1.0140;
160.5000;0.6113;1.0163;
160.8000;0.6121;1.0140;
161.1000;0.6129;1.0257;
161.4000;0.6121;1.0328;
161.7000;0.6113;1.0187;
162.0000;0.6064;1.0163;
162.3000;0.6097;1.0234;
162.6000;0.6105;1.0210;
162.9000;0.6105;1.0234;
163.2000;0.6097;1.0257;
163.5000;0.6097;1.0210;
163.8000;0.6097;1.0234;
164.1000;0.6105;1.0351;
164.4000;0.6105;1.0304;
164.7000;0.6081;1.0257;
165.0000;0.6113;1.0375;
165.3000;0.6097;1.0281;
165.6000;0.6121;1.0328;
165.9000;0.6113;1.0445;
166.2000;0.6113;1.0539;
166.5000;0.6113;1.0468;
166.8000;0.6121;1.0328;
167.1000;0.6203;1.0468;
167.4000;0.6097;1.0234;
167.7000;0.6105;1.0281;
168.0000;0.6105;1.0351;
168.3000;0.6113;1.0304;
168.6000;0.6089;1.0163;
168.9000;0.6105;1.0140;
169.2000;0.6113;1.0210;
169.5000;0.6105;1.0234;
169.8000;0.6105;1.0257;
170.1000;0.6105;1.0234;
170.4000;0.6105;1.0304;
170.7000;0.6113;1.0351;
171.0000;0.6129;1.0398;
171.3000;0.6113;1.0328;
171.6000;0.6129;1.0304;
171.9000;0.6105;1.0187;
172.2000;0.6121;1.0187;
172.5000;0.6097;1.0140;
172.8000;0.6113;1.0093;
173.1000;0.6113;1.0022;
173.4000;0.6097;0.9976;
173.7000;0.6089;0.9976;
174.0000;0.6121;1.0022;
174.3000;0.6105;0.9952;
174.6000;0.6113;0.9952;
174.9000;0.6129;0.9929;
175.2000;0.6105;0.9858;
175.5000;0.6129;0.9976;
175.8000;0.6105;0.9952;
176.1000;0.6129;0.9999;
176.4000;0.6121;1.0022;
176.7000;0.6121;0.9999;
177.0000;0.6121;1.0022;
177.3000;0.6105;0.9976;
177.6000;0.6105;1.0022;
177.9000;0.6105;1.0046;
178.2000;0.6121;1.0022;
178.5000;0.6154;1.0069;
178.8000;0.6113;0.9952;
179.1000;0.6105;1.0046;
179.4000;0.6081;0.9999;
179.7000;0.6105;1.0022;
180.0000;0.6105;0.9999;
180.3000;0.6113;0.9952;
180.6000;0.6121;0.9952;
180.9000;0.6121;0.9882;
181.2000;0.6097;0.9905;
181.5000;0.6154;1.0116;
181.8000;0.6129;0.9999;
182.1000;0.6113;1.0022;
182.4000;0.6121;1.0046;
182.7000;0.6170;1.0163;
183.0000;0.6121;1.0046;
183.3000;0.6105;0.9976;
183.6000;0.6105;0.9905;
183.9000;0.6113;0.9905;
184.2000;0.6121;0.9882;
184.5000;0.6121;0.9858;
184.8000;0.6113;0.9835;
185.1000;0.6105;0.9882;
185.4000;0.6121;0.9976;
185.7000;0.6113;1.0022;
186.0000;0.6129;1.0093;
186.3000;0.6121;1.0022;
186.6000;0.6129;0.9999;
186.9000;0.6113;1.0022;
187.2000;0.6113;1.0069;
187.5000;0.6113;1.0022;
187.8000;0.6113;1.0069;
188.1000;0.6121;1.0022;
188.4000;0.6129;1.0116;
188.7000;0.6105;1.0022;
189.0000;0.6105;0.9999;
189.3000;0.6113;0.9999;
189.6000;0.6121;0.9999;
189.9000;0.6121;0.9999;
190.2000;0.6105;0.9858;
190.5000;0.6129;0.9858;
190.8000;0.6129;0.9952;
191.1000;0.6121;0.9929;
191.4000;0.6129;0.9905;
191.7000;0.6121;0.9905;
192.0000;0.6129;0.9929;
192.3000;0.6121;0.9929;
192.6000;0.6105;0.9976;
192.9000;0.6121;1.0046;
193.2000;0.6113;1.0069;
193.5000;0.6105;1.0140;
193.8000;0.6089;1.0022;
194.1000;0.6089;0.9976;
194.4000;0.6113;1.0046;
194.7000;0.6105;0.9999;
195.0000;0.6121;1.0046;
195.3000;0.6121;1.0187;
195.6000;0.6121;1.0093;
195.9000;0.6129;1.0116;
196.2000;0.6105;1.0093;
196.5000;0.6121;1.0046;
196.8000;0.6056;0.9858;
197.1000;0.6097;0.9976;
197.4000;0.6097;0.9905;
197.7000;0.6097;0.9952;
198.0000;0.6113;1.0046;
198.3000;0.6121;1.0069;
198.6000;0.6105;1.0046;
198.9000;0.6105;1.0022;
199.2000;0.6129;0.9976;
199.5000;0.6146;0.9999;
199.8000;0.6113;1.0069;
200.1000;0.6211;1.0234;
200.4000;0.6113;1.0046;
200.7000;0.6121;1.0069;
201.0000;0.6146;1.0022;
201.3000;0.6138;1.0022;
201.6000;0.6129;1.0069;
201.9000;0.6113;1.0046;
202.2000;0.6129;1.0069;
202.5000;0.6195;1.0210;
202.8000;0.6113;0.9929;
203.1000;0.6105;0.9905;
203.4000;0.6105;0.9952;
203.7000;0.6129;1.0046;
204.0000;0.6121;1.0046;
204.3000;0.6121;0.9999;
204.6000;0.6113;0.9976;
204.9000;0.6129;1.0069;
205.2000;0.6121;1.0022;
205.5000;0.6105;0.9999;
205.8000;0.6121;1.0022;
206.1000;0.6129;0.9999;
206.4000;0.6121;0.9952;
206.7000;0.6113;0.9952;
207.0000;0.6113;0.9905;
207.3000;0.6113;0.9952;
207.6000;0.6105;0.9999;
207.9000;0.6105;1.0069;
208.2000;0.6105;1.0069;
208.5000;0.6113;1.0163;
208.8000;0.6105;1.0022;
209.1000;0.6113;1.0022;
209.4000;0.6113;1.0046;
209.7000;0.6113;0.9999;
210.0000;0.6121;1.0022;
210.3000;0.6129;0.9999;
210.6000;0.6113;0.9952;
210.9000;0.6121;0.9976;
211.2000;0.6015;0.9741;
211.5000;0.6138;1.0022;
211.8000;0.6097;0.9952;
212.1000;0.6089;0.9929;
212.4000;0.6097;0.9905;
212.7000;0.6097;0.9952;
213.0000;0.6105;1.0093;
213.3000;0.6105;1.0163;
213.6000;0.6121;1.0187;
213.9000;0.6113;1.0187;
214.2000;0.6105;1.0093;
214.5000;0.6121;1.0069;
214.8000;0.6121;0.9999;
215.1000;0.6113;0.9976;
215.4000;0.6186;1.0069;
215.7000;0.6129;0.9999;
216.0000;0.6186;1.0163;
216.3000;0.6121;1.0046;
216.6000;0.6105;1.0116;
216.9000;0.6138;1.0187;
217.2000;0.6154;1.0257;
217.5000;0.6105;1.0210;
217.8000;0.6097;1.0163;
218.1000;0.6105;1.0093;
218.4000;0.6129;1.0093;
218.7000;0.6121;1.0140;
219.0000;0.6064;1.0046;
219.3000;0.6105;1.0234;
219.6000;0.6129;1.0304;
219.9000;0.6146;1.0375;
220.2000;0.6129;1.0257;
220.5000;0.6129;1.0163;
220.8000;0.6129;1.0234;
221.1000;0.6081;1.0140;
221.4000;0.6129;1.0257;
221.7000;0.6129;1.0257;
222.0000;0.6129;1.0351;
222.3000;0.6121;1.0257;
222.6000;0.6121;1.0234;
222.9000;0.6113;1.0234;
223.2000;0.6105;1.0281;
223.5000;0.6129;1.0351;
223.8000;0.6121;1.0375;
224.1000;0.6195;1.0468;
224.4000;0.6178;1.0445;
224.7000;0.6121;1.0398;
225.0000;0.6138;1.0445;
225.3000;0.6129;1.0351;
225.6000;0.6121;1.0398;
225.9000;0.6129;1.0468;
226.2000;0.6097;1.0328;
226.5000;0.6138;1.0445;
226.8000;0.6113;1.0398;
227.1000;0.6121;1.0351;
227.4000;0.6113;1.0351;
227.7000;0.6121;1.0328;
228.0000;0.6121;1.0281;
228.3000;0.6121;1.0234;
228.6000;0.6146;1.0375;
228.9000;0.6105;1.0257;
229.2000;0.6121;1.0281;
229.5000;0.6178;1.0421;
229.8000;0.6129;1.0281;
230.1000;0.6154;1.0398;
230.4000;0.6129;1.0304;
230.7000;0.6040;0.9905;
231.0000;0.6138;1.0093;
231.3000;0.6154;1.0304;
231.6000;0.6064;1.0069;
231.9000;0.6113;1.0304;
232.2000;0.6064;1.0187;
232.5000;0.6097;1.0257;
232.8000;0.6129;1.0304;
233.1000;0.6129;1.0281;
233.4000;0.6105;1.0257;
233.7000;0.6015;1.0046;
234.0000;0.6097;1.0328;
234.3000;0.6121;1.0351;
234.6000;0.6089;1.0351;
234.9000;0.6129;1.0398;
235.2000;0.6129;1.0304;
235.5000;0.6097;1.0234;
235.8000;0.6105;1.0351;
236.1000;0.6113;1.0304;
236.4000;0.6081;1.0210;
236.7000;0.6121;1.0234;
237.0000;0.6138;1.0234;
237.3000;0.6121;1.0187;
237.6000;0.6113;1.0163;
237.9000;0.6113;1.0163;
238.2000;0.6121;1.0210;
238.5000;0.6162;1.0304;
238.8000;0.6129;1.0140;
239.1000;0.6121;1.0116;
239.4000;0.6121;1.0022;
239.7000;0.6113;1.0069;
240.0000;0.6129;1.0116;
240.3000;0.6138;1.0116;
240.6000;0.6129;1.0140;
240.9000;0.6097;0.9952;
241.2000;0.6129;0.9976;
241.5000;0.6138;0.9952;
241.8000;0.6121;0.9952;
242.1000;0.6105;1.0022;
242.4000;0.6113;0.9976;
242.7000;0.6121;0.9929;
243.0000;0.6105;0.9882;
243.3000;0.6105;0.9905;
243.6000;0.6097;0.9952;
243.9000;0.6121;1.0093;
244.2000;0.6129;1.0116;
244.5000;0.6121;1.0116;
244.8000;0.6129;1.0022;
245.1000;0.6170;1.0140;
245.4000;0.6129;0.9976;
245.7000;0.6138;1.0069;
246.0000;0.6154;1.0093;
246.3000;0.6138;1.0022;
246.6000;0.6113;0.9905;
246.9000;0.6121;0.9905;
247.2000;0.6121;0.9905;
247.5000;0.6129;0.9929;
247.8000;0.6146;0.9976;
248.1000;0.6129;0.9999;
248.4000;0.6113;0.9999;
248.7000;0.6129;0.9976;
249.0000;0.6138;1.0022;
249.3000;0.6129;1.0046;
249.6000;0.6129;0.9999;
249.9000;0.6129;1.0046;
250.2000;0.6121;1.0046;
250.5000;0.6154;1.0210;
250.8000;0.6138;1.0163;
251.1000;0.6162;1.0281;
251.4000;0.6138;1.0234;
251.7000;0.6129;1.0210;
252.0000;0.6113;1.0187;
252.3000;0.6129;1.0210;
252.6000;0.6138;1.0234;
252.9000;0.6129;1.0304;
253.2000;0.6138;1.0421;
253.5000;0.6146;1.0445;
253.8000;0.6203;1.0656;
254.1000;0.6113;1.0351;
254.4000;0.6121;1.0281;
254.7000;0.6129;1.0328;
255.0000;0.6121;1.0398;
255.3000;0.6170;1.0468;
255.6000;0.6138;1.0304;
255.9000;0.6138;1.0210;
256.2000;0.6105;1.0069;
256.5000;0.6138;1.0163;
256.8000;0.6121;1.0163;
257.1000;0.6089;1.0022;
257.4000;0.6129;1.0116;
257.7000;0.6097;1.0069;
258.0000;0.6129;1.0163;
258.3000;0.6121;1.0234;
258.6000;0.6129;1.0210;
258.9000;0.6121;1.0140;
259.2000;0.6121;1.0257;
259.5000;0.6113;1.0351;
259.8000;0.6113;1.0421;
260.1000;0.6129;1.0468;
260.4000;0.6129;1.0562;
260.7000;0.6138;1.0562;
261.0000;0.6121;1.0539;
261.3000;0.6097;1.0515;
261.6000;0.6105;1.0539;
261.9000;0.6121;1.0586;
262.2000;0.6162;1.0586;
262.5000;0.6113;1.0375;
262.8000;0.6121;1.0445;
263.1000;0.6146;1.0492;
263.4000;0.6121;1.0468;
263.7000;0.6121;1.0351;
264.0000;0.6129;1.0281;
264.3000;0.6121;1.0257;
264.6000;0.6113;1.0187;
264.9000;0.6146;1.0116;
265.2000;0.6113;1.0093;
265.5000;0.6129;1.0187;
265.8000;0.6129;1.0210;
266.1000;0.6129;1.0210;
266.4000;0.6121;1.0210;
266.7000;0.6121;1.0257;
267.0000;0.6146;1.0351;
267.3000;0.6113;1.0328;
267.6000;0.6121;1.0375;
267.9000;0.6121;1.0398;
268.2000;0.6129;1.0375;
268.5000;0.6129;1.0257;
268.8000;0.6121;1.0234;
269.1000;0.6146;1.0304;
269.4000;0.6138;1.0375;
269.7000;0.6146;1.0398;
270.0000;0.6129;1.0398;
270.3000;0.6146;1.0375;
270.6000;0.6129;1.0304;
270.9000;0.6138;1.0234;
271.2000;0.6129;1.0210;
271.5000;0.6219;1.0468;
271.8000;0.6129;1.0281;
272.1000;0.6121;1.0210;
272.4000;0.6129;1.0234;
272.7000;0.6129;1.0187;
273.0000;0.6105;1.0140;
273.3000;0.6105;1.0116;
273.6000;0.6129;1.0234;
273.9000;0.6113;1.0281;
274.2000;0.6113;1.0187;
274.5000;0.6203;1.0328;
274.8000;0.6105;1.0093;
275.1000;0.6129;1.0116;
275.4000;0.6129;1.0116;
275.7000;0.6105;1.0069;
276.0000;0.6138;1.0210;
276.3000;0.6113;1.0187;
276.6000;0.6121;1.0281;
276.9000;0.6040;0.9952;
277.2000;0.6146;1.0210;
277.5000;0.6081;1.0093;
277.8000;0.6121;1.0187;
278.1000;0.6097;1.0234;
278.4000;0.6121;1.0281;
278.7000;0.6138;1.0351;
279.0000;0.6121;1.0281;
279.3000;0.6040;1.0140;
279.6000;0.6162;1.0492;
279.9000;0.6113;1.0304;
280.2000;0.6129;1.0163;
280.5000;0.6138;1.0140;
280.8000;0.6129;1.0140;
281.1000;0.6097;1.0163;
281.4000;0.6138;1.0234;
281.7000;0.6129;1.0281;
282.0000;0.6146;1.0328;
282.3000;0.6129;1.0234;
282.6000;0.6113;1.0234;
282.9000;0.6121;1.0187;
283.2000;0.6146;1.0210;
283.5000;0.6129;1.0187;
283.8000;0.6121;1.0093;
284.1000;0.6129;1.0093;
284.4000;0.6138;1.0210;
284.7000;0.6129;1.0257;
285.0000;0.6129;1.0234;
285.3000;0.6129;1.0210;
285.6000;0.6113;1.0116;
285.9000;0.6113;1.0093;
286.2000;0.6129;1.0163;
286.5000;0.6113;1.0069;
286.8000;0.6129;1.0069;
287.1000;0.6138;1.0069;
287.4000;0.6138;1.0093;
287.7000;0.6121;1.0210;
288.0000;0.6129;1.0281;
288.3000;0.6121;1.0328;
288.6000;0.6113;1.0328;
288.9000;0.6129;1.0328;
289.2000;0.6129;1.0328;
289.5000;0.6138;1.0304;
289.8000;0.6129;1.0304;
290.1000;0.6129;1.0257;
290.4000;0.6129;1.0257;
290.7000;0.6138;1.0234;
291.0000;0.6138;1.0234;
291.3000;0.6129;1.0234;
291.6000;0.6138;1.0257;
291.9000;0.6138;1.0257;
292.2000;0.6162;1.0210;
292.5000;0.6138;1.0093;
292.8000;0.6129;1.0093;
293.1000;0.6154;1.0163;
293.4000;0.6146;1.0093;
293.7000;0.6138;1.0069;
294.0000;0.6105;0.9999;
294.3000;0.6129;1.0093;
294.6000;0.6162;1.0234;
294.9000;0.6129;1.0257;
295.2000;0.6138;1.0304;
295.5000;0.6170;1.0421;
295.8000;0.6129;1.0421;
296.1000;0.6121;1.0445;
296.4000;0.6121;1.0375;
296.7000;0.6089;1.0281;
297.0000;0.6105;1.0210;
297.3000;0.6186;1.0351;
297.6000;0.6121;1.0257;
297.9000;0.6105;1.0163;
298.2000;0.6138;1.0281;
298.5000;0.6129;1.0257;
298.8000;0.6121;1.0210;
299.1000;0.6113;1.0234;
299.4000;0.6129;1.0281;
299.7000;0.6138;1.0304;
300.0000;0.6146;1.0257;
300.3000;0.6113;1.0281;
300.6000;0.6138;1.0234;
300.9000;0.6138;1.0187;
301.2000;0.6138;1.0140;
301.5000;0.6138;1.0257;
301.8000;0.6113;1.0210;
302.1000;0.6121;1.0234;
302.4000;0.6138;1.0234;
302.7000;0.6113;1.0210;
303.0000;0.6097;1.0163;
303.3000;0.6089;1.0140;
303.6000;0.6081;1.0069;
303.9000;0.6138;1.0187;
304.2000;0.6121;1.0210;
304.5000;0.6064;1.0046;
304.8000;0.6178;1.0398;
305.1000;0.6154;1.0304;
305.4000;0.6146;1.0281;
305.7000;0.6129;1.0187;
306.0000;0.6129;1.0257;
306.3000;0.6146;1.0257;
306.6000;0.6121;1.0210;
306.9000;0.6129;1.0304;
307.2000;0.6121;1.0281;
307.5000;0.6129;1.0257;
307.8000;0.6138;1.0257;
308.1000;0.6121;1.0304;
308.4000;0.6138;1.0421;
308.7000;0.6138;1.0375;
309.0000;0.6113;1.0257;
309.3000;0.6113;1.0234;
309.6000;0.6138;1.0257;
309.9000;0.6129;1.0210;
310.2000;0.6121;1.0093;
310.5000;0.6138;1.0140;
310.8000;0.6121;1.0234;
311.1000;0.6146;1.0328;
311.4000;0.6121;1.0210;
311.7000;0.6113;1.0116;
312.0000;0.6105;0.9976;
312.3000;0.6138;1.0093;
312.6000;0.6129;1.0069;
312.9000;0.6129;1.0046;
313.2000;0.6129;1.0116;
313.5000;0.6129;1.0187;
313.8000;0.6121;1.0163;
314.1000;0.6129;1.0234;
314.4000;0.6146;1.0328;
314.7000;0.6154;1.0328;
315.0000;0.6129;1.0328;
315.3000;0.6129;1.0328;
315.6000;0.6129;1.0257;
315.9000;0.6129;1.0210;
316.2000;0.6154;1.0257;
316.5000;0.6138;1.0281;
316.8000;0.6097;1.0163;
317.1000;0.6129;1.0234;
317.4000;0.6154;1.0351;
317.7000;0.6138;1.0351;
318.0000;0.6138;1.0281;
318.3000;0.6162;1.0304;
318.6000;0.6154;1.0234;
318.9000;0.6121;1.0093;
319.2000;0.6317;1.0586;
319.5000;0.6138;1.0210;
319.8000;0.6138;1.0257;
320.1000;0.6146;1.0304;
320.4000;0.6227;1.0492;
320.7000;0.6186;1.0281;
321.0000;0.6138;1.0140;
321.3000;0.6170;1.0210;
321.6000;0.6129;1.0163;
321.9000;0.6129;1.0187;
322.2000;0.6121;1.0116;
322.5000;0.6138;1.0163;
322.8000;0.6146;1.0234;
323.1000;0.6113;1.0116;
323.4000;0.6146;1.0234;
323.7000;0.6195;1.0468;
324.0000;0.6138;1.0281;
324.3000;0.6129;1.0304;
324.6000;0.6129;1.0304;
324.9000;0.6121;1.0281;
325.2000;0.6129;1.0234;
325.5000;0.6121;1.0210;
325.8000;0.6129;1.0210;
326.1000;0.6129;1.0210;
326.4000;0.6138;1.0210;
326.7000;0.6121;1.0093;
327.0000;0.6105;1.0140;
327.3000;0.6203;1.0257;
327.6000;0.6154;1.0163;
327.9000;0.6129;1.0140;
328.2000;0.6097;1.0022;
328.5000;0.6154;1.0163;
328.8000;0.6138;1.0140;
329.1000;0.6129;1.0257;
329.4000;0.6097;1.0304;
329.7000;0.6129;1.0398;
330.0000;0.6129;1.0375;
330.3000;0.6138;1.0304;
330.6000;0.6121;1.0304;
330.9000;0.6121;1.0163;
331.2000;0.6138;1.0140;
331.5000;0.6170;1.0163;
331.8000;0.6129;0.9999;
332.1000;0.6129;1.0022;
332.4000;0.6129;0.9952;
332.7000;0.6138;1.0093;
333.0000;0.6138;1.0140;
333.3000;0.6138;1.0046;
333.6000;0.6121;0.9999;
333.9000;0.6129;1.0022;
334.2000;0.6138;1.0093;
334.5000;0.6146;1.0022;
334.8000;0.6121;1.0022;
335.1000;0.6129;1.0022;
335.4000;0.6113;0.9952;
335.7000;0.6146;0.9976;
336.0000;0.6138;0.9999;
336.3000;0.6146;1.0046;
336.6000;0.6146;1.0069;
336.9000;0.6129;1.0022;
337.2000;0.6129;1.0046;
337.5000;0.6138;1.0093;
337.8000;0.6121;1.0046;
338.1000;0.6138;1.0022;
338.4000;0.6138;1.0093;
338.7000;0.6138;1.0140;
339.0000;0.6138;1.0069;
339.3000;0.6129;0.9999;
339.6000;0.6121;0.9929;
339.9000;0.6146;0.9952;
340.2000;0.6138;1.0022;
340.5000;0.6129;1.0046;
340.8000;0.6121;1.0022;
341.1000;0.6121;0.9999;
341.4000;0.6129;1.0022;
341.7000;0.6121;0.9952;
342.0000;0.6138;0.9882;
342.3000;0.6121;0.9858;
342.6000;0.6121;0.9858;
342.9000;0.6121;0.9905;
343.2000;0.6121;0.9952;
343.5000;0.6138;0.9952;
343.8000;0.6138;0.9952;
344.1000;0.6032;0.9764;
344.4000;0.6129;0.9976;
344.7000;0.6138;0.9976;
345.0000;0.6121;0.9976;
345.3000;0.6105;0.9952;
345.6000;0.6113;0.9905;
345.9000;0.6121;0.9905;
346.2000;0.6113;0.9952;
346.5000;0.6056;0.9835;
346.8000;0.6121;0.9905;
347.1000;0.6113;0.9858;
347.4000;0.6121;0.9882;
347.7000;0.6129;0.9905;
348.0000;0.6121;0.9929;
348.3000;0.6129;0.9929;
348.6000;0.6121;0.9976;
348.9000;0.6129;1.0022;
349.2000;0.6129;0.9999;
349.5000;0.6113;0.9999;
349.8000;0.6097;0.9905;
350.1000;0.6105;0.9882;
350.4000;0.6162;1.0022;
350.7000;0.6129;0.9882;
351.0000;0.6032;0.9670;
351.3000;0.6129;0.9905;
351.6000;0.6121;1.0046;
351.9000;0.6146;1.0069;
352.2000;0.6121;0.9952;
352.5000;0.6129;0.9976;
352.8000;0.6219;1.0281;
353.1000;0.6113;1.0046;
353.4000;0.6195;1.0210;
353.7000;0.6154;1.0234;
354.0000;0.6146;1.0281;
354.3000;0.6146;1.0375;
354.6000;0.6097;1.0210;
354.9000;0.6121;1.0116;
355.2000;0.6138;1.0046;
355.5000;0.6146;1.0046;
355.8000;0.6129;0.9882;
356.1000;0.6121;0.9835;
356.4000;0.6138;0.9858;
356.7000;0.6032;0.9600;
357.0000;0.6129;0.9835;
357.3000;0.6146;0.9835;
357.6000;0.6089;0.9717;
357.9000;0.6121;0.9882;
358.2000;0.6146;0.9976;
358.5000;0.6129;0.9999;
358.8000;0.6121;1.0022;
359.1000;0.6138;1.0069;
359.4000;0.6121;0.9952;
359.7000;0.6138;0.9999;
360.0000;0.6121;0.9999;
360.3000;0.6146;1.0046;
360.6000;0.6154;1.0069;
360.9000;0.6113;0.9929;
361.2000;0.6138;0.9976;
361.5000;0.6138;1.0046;
361.8000;0.6105;0.9976;
362.1000;0.6129;0.9858;
362.4000;0.6121;0.9811;
362.7000;0.6138;0.9811;
363.0000;0.6129;0.9788;
363.3000;0.6113;0.9811;
363.6000;0.6138;0.9929;
363.9000;0.6146;0.9952;
364.2000;0.6129;0.9858;
364.5000;0.6146;0.9929;
364.8000;0.6195;1.0093;
365.1000;0.6129;0.9999;
365.4000;0.6219;1.0328;
365.7000;0.6154;1.0069;
366.0000;0.6154;1.0093;
366.3000;0.6146;0.9999;
366.6000;0.6138;0.9952;
366.9000;0.6146;0.9929;
367.2000;0.6227;1.0116;
367.5000;0.6146;0.9905;
367.8000;0.6121;0.9952;
368.1000;0.6105;0.9905;
368.4000;0.6162;1.0022;
368.7000;0.6113;0.9999;
369.0000;0.6129;1.0069;
369.3000;0.6121;1.0140;
369.6000;0.6121;1.0234;
369.9000;0.6121;1.0234;
370.2000;0.6121;1.0234;
370.5000;0.6129;1.0116;
370.8000;0.6129;1.0140;
371.1000;0.6113;1.0093;
371.4000;0.6129;1.0116;
371.7000;0.6146;1.0069;
372.0000;0.6154;1.0116;
372.3000;0.6129;1.0069;
372.6000;0.6121;1.0116;
372.9000;0.6138;1.0116;
373.2000;0.6138;1.0116;
373.5000;0.6146;1.0187;
373.8000;0.6162;1.0140;
374.1000;0.6105;0.9952;
374.4000;0.6162;1.0093;
374.7000;0.6146;1.0069;
375.0000;0.6154;1.0140;
375.3000;0.6211;1.0281;
375.6000;0.6129;1.0069;
375.9000;0.6105;1.0046;
376.2000;0.6138;1.0187;
376.5000;0.6121;1.0140;
376.8000;0.6121;1.0187;
377.1000;0.6146;1.0210;
377.4000;0.6138;1.0210;
377.7000;0.6138;1.0234;
378.0000;0.6154;1.0281;
378.3000;0.6146;1.0163;
378.6000;0.6146;1.0187;
378.9000;0.6138;1.0093;
379.2000;0.6138;1.0116;
379.5000;0.6146;1.0116;
379.8000;0.6129;1.0046;
380.1000;0.6129;0.9952;
380.4000;0.6138;0.9905;
380.7000;0.6138;1.0022;
381.0000;0.6138;1.0022;
381.3000;0.6138;0.9999;
381.6000;0.6113;0.9952;
381.9000;0.6129;0.9929;
382.2000;0.6138;0.9929;
382.5000;0.6129;0.9858;
382.8000;0.6121;0.9905;
383.1000;0.6129;0.9858;
383.4000;0.6154;0.9882;
383.7000;0.6129;0.9905;
384.0000;0.6138;0.9929;
384.3000;0.6154;0.9976;
384.6000;0.6154;0.9976;
384.9000;0.6154;0.9976;
385.2000;0.6154;0.9929;
385.5000;0.6154;0.9999;
385.8000;0.6146;0.9976;
386.1000;0.6219;1.0140;
386.4000;0.6154;1.0069;
386.7000;0.6138;1.0093;
387.0000;0.6195;1.0281;
387.3000;0.6121;1.0116;
387.6000;0.6146;1.0046;
387.9000;0.6113;0.9952;
388.2000;0.6081;0.9858;
388.5000;0.6138;0.9976;
388.8000;0.6138;0.9999;
389.1000;0.6121;0.9976;
389.4000;0.6081;0.9905;
389.7000;0.6121;0.9952;
390.0000;0.6211;1.0187;
390.3000;0.6146;1.0093;
390.6000;0.6129;1.0069;
390.9000;0.6129;1.0069;
391.2000;0.6129;1.0046;
391.5000;0.6121;1.0046;
391.8000;0.6146;1.0093;
392.1000;0.6146;1.0116;
392.4000;0.6097;1.0046;
392.7000;0.6089;0.9952;
393.0000;0.6129;1.0163;
393.3000;0.6138;1.0210;
393.6000;0.6129;1.0163;
393.9000;0.6146;1.0234;
394.2000;0.6129;1.0187;
394.5000;0.6097;1.0046;
394.8000;0.6056;0.9835;
395.1000;0.6129;0.9929;
395.4000;0.6138;1.0022;
395.7000;0.6138;1.0022;
396.0000;0.6146;1.0046;
396.3000;0.6056;0.9882;
396.6000;0.6113;0.9952;
396.9000;0.6129;0.9999;
397.2000;0.6138;0.9929;
397.5000;0.6146;0.9882;
397.8000;0.6129;0.9905;
398.1000;0.6203;1.0116;
398.4000;0.6138;1.0093;
398.7000;0.6146;0.9976;
399.0000;0.6138;0.9952;
399.3000;0.6121;0.9882;
399.6000;0.6146;0.9858;
399.9000;0.6146;0.9952;
400.2000;0.6195;1.0116;
400.5000;0.6146;1.0022;
400.8000;0.6138;1.0022;
401.1000;0.6138;1.0022;
401.4000;0.6129;1.0069;
401.7000;0.6113;1.0093;
402.0000;0.6121;1.0163;
402.3000;0.6129;1.0187;
402.6000;0.6113;1.0187;
402.9000;0.6129;1.0093;
403.2000;0.6138;1.0046;
403.5000;0.6121;1.0046;
403.8000;0.6129;1.0046;
404.1000;0.6129;1.0022;
404.4000;0.6138;1.0046;
404.7000;0.6121;0.9999;
405.0000;0.6146;0.9999;
405.3000;0.6138;0.9952;
405.6000;0.6138;0.9905;
405.9000;0.6138;0.9858;
406.2000;0.6138;0.9811;
406.5000;0.6129;0.9811;
406.8000;0.6129;0.9858;
407.1000;0.6121;0.9835;
407.4000;0.6138;0.9929;
407.7000;0.6129;0.9811;
408.0000;0.6121;0.9858;
408.3000;0.6146;0.9882;
408.6000;0.6146;0.9882;
408.9000;0.6138;0.9835;
409.2000;0.6129;0.9858;
409.5000;0.6154;0.9905;
409.8000;0.6146;0.9858;
410.1000;0.6121;0.9811;
410.4000;0.6121;0.9858;
410.7000;0.6113;0.9905;
411.0000;0.6129;0.9999;
411.3000;0.6129;1.0022;
411.6000;0.6129;1.0022;
411.9000;0.6138;0.9929;
412.2000;0.6113;0.9811;
412.5000;0.6121;0.9835;
412.8000;0.6129;0.9882;
413.1000;0.6138;0.9929;
413.4000;0.6227;1.0187;
413.7000;0.6113;0.9882;
414.0000;0.6154;1.0022;
414.3000;0.6121;1.0046;
414.6000;0.6129;0.9976;
414.9000;0.6129;0.9999;
415.2000;0.6121;1.0046;
415.5000;0.6186;1.0257;
415.8000;0.6113;1.0069;
416.1000;0.6113;1.0022;
416.4000;0.6178;1.0187;
416.7000;0.6129;1.0022;
417.0000;0.6129;0.9976;
417.3000;0.6129;0.9952;
417.6000;0.6129;0.9952;
417.9000;0.6138;0.9952;
418.2000;0.6146;0.9952;
418.5000;0.6146;0.9976;
418.8000;0.6138;1.0069;
419.1000;0.6081;0.9905;
419.4000;0.6138;1.0140;
419.7000;0.6129;1.0069;
420.0000;0.6138;1.0069;
420.3000;0.6138;1.0022;
420.6000;0.6121;1.0046;
420.9000;0.6121;1.0140;
421.2000;0.6129;1.0210;
421.5000;0.6138;1.0163;
421.8000;0.6138;1.0093;
422.1000;0.6121;1.0046;
422.4000;0.6138;1.0093;
422.7000;0.6146;1.0093;
423.0000;0.6138;1.0046;
423.3000;0.6138;1.0022;
423.6000;0.6129;0.9905;
423.9000;0.6129;0.9905;
424.2000;0.6138;0.9929;
424.5000;0.6129;0.9929;
424.8000;0.6154;0.9999;
425.1000;0.6146;1.0069;
425.4000;0.6129;1.0093;
425.7000;0.6170;1.0163;
426.0000;0.6129;1.0022;
426.3000;0.6138;0.9976;
426.6000;0.6129;0.9976;
426.9000;0.6138;1.0022;
427.2000;0.6121;0.9999;
427.5000;0.6129;1.0069;
427.8000;0.6113;1.0022;
428.1000;0.6129;1.0163;
428.4000;0.6138;1.0116;
428.7000;0.6097;1.0046;
429.0000;0.6146;1.0234;
429.3000;0.6129;1.0140;
429.6000;0.6138;1.0116;
429.9000;0.6129;1.0116;
430.2000;0.6138;1.0093;
430.5000;0.6129;1.0069;
430.8000;0.6081;0.9905;
431.1000;0.6138;0.9999;
431.4000;0.6129;0.9999;
431.7000;0.6138;0.9999;
432.0000;0.6138;0.9952;
432.3000;0.6121;1.0022;
432.6000;0.6129;1.0069;
432.9000;0.6138;1.0022;
433.2000;0.6121;0.9976;
433.5000;0.6146;1.0069;
433.8000;0.6138;1.0093;
434.1000;0.6162;1.0093;
434.4000;0.6129;1.0140;
434.7000;0.6097;0.9999;
435.0000;0.6129;1.0046;
435.3000;0.6097;0.9952;
435.6000;0.6146;1.0069;
435.9000;0.6146;1.0022;
436.2000;0.6203;1.0187;
436.5000;0.6129;1.0022;
436.8000;0.6138;0.9976;
437.1000;0.6129;0.9976;
437.4000;0.6121;1.0046;
437.7000;0.6138;1.0046;
438.0000;0.6138;1.0046;
438.3000;0.6138;1.0093;
438.6000;0.6113;1.0022;
438.9000;0.6146;1.0069;
439.2000;0.6113;1.0022;
439.5000;0.6129;1.0116;
439.8000;0.6129;1.0069;
440.1000;0.6121;0.9999;
440.4000;0.6138;1.0046;
440.7000;0.6170;1.0069;
441.0000;0.6089;0.9905;
441.3000;0.6113;0.9929;
441.6000;0.6129;0.9952;
441.9000;0.6138;0.9952;
442.2000;0.6138;0.9952;
442.5000;0.6129;0.9952;
442.8000;0.6129;1.0069;
443.1000;0.6138;1.0069;
443.4000;0.6154;1.0046;
443.7000;0.6138;0.9999;
444.0000;0.6146;1.0046;
444.3000;0.6146;1.0093;
444.6000;0.6138;1.0022;
444.9000;0.6121;0.9952;
445.2000;0.6129;0.9952;
445.5000;0.6138;0.9952;
445.8000;0.6219;1.0163;
446.1000;0.6146;0.9952;
446.4000;0.6129;0.9929;
446.7000;0.6138;0.9952;
447.0000;0.6146;0.9999;
447.3000;0.6138;1.0022;
447.6000;0.6138;1.0022;
447.9000;0.6154;0.9999;
448.2000;0.6154;0.9999;
448.5000;0.6146;0.9999;
448.8000;0.6154;0.9976;
449.1000;0.6146;0.9976;
449.4000;0.6162;0.9952;
449.7000;0.6170;0.9929;
450.0000;0.6170;0.9905;
450.3000;0.6146;0.9905;
450.6000;0.6146;1.0022;
450.9000;0.6138;1.0046;
451.2000;0.6121;0.9999;
451.5000;0.6138;0.9999;
451.8000;0.6170;1.0069;
452.1000;0.6138;1.0022;
452.4000;0.6121;1.0022;
452.7000;0.6146;0.9999;
453.0000;0.6129;1.0046;
453.3000;0.6146;1.0046;
453.6000;0.6138;1.0022;
453.9000;0.6195;1.0257;
454.2000;0.6138;1.0116;
454.5000;0.6154;1.0234;
454.8000;0.6154;1.0210;
455.1000;0.6121;1.0069;
455.4000;0.6162;1.0187;
455.7000;0.6154;1.0140;
456.0000;0.6129;1.0116;
456.3000;0.6138;1.0022;
456.6000;0.6138;0.9999;
456.9000;0.6138;1.0093;
457.2000;0.6129;1.0140;
457.5000;0.6146;1.0116;
457.8000;0.6138;1.0234;
458.1000;0.6146;1.0281;
458.4000;0.6162;1.0304;
458.7000;0.6138;1.0257;
459.0000;0.6146;1.0328;
459.3000;0.6129;1.0281;
459.6000;0.6146;1.0375;
459.9000;0.6113;1.0257;
460.2000;0.6138;1.0304;
460.5000;0.6154;1.0234;
460.8000;0.6162;1.0210;
461.1000;0.6138;1.0163;
461.4000;0.6129;1.0210;
461.7000;0.6129;1.0281;
462.0000;0.6138;1.0328;
462.3000;0.6129;1.0234;
462.6000;0.6129;1.0210;
462.9000;0.6113;1.0163;
463.2000;0.6129;1.0257;
463.5000;0.6089;1.0187;
463.8000;0.6129;1.0257;
464.1000;0.6146;1.0281;
464.4000;0.6121;1.0210;
464.7000;0.6113;1.0116;
465.0000;0.6129;1.0140;
465.3000;0.6129;1.0093;
465.6000;0.6129;1.0210;
465.9000;0.6129;1.0234;
466.2000;0.6146;1.0210;
466.5000;0.6138;1.0116;
466.8000;0.6138;1.0140;
467.1000;0.6064;0.9976;
467.4000;0.6154;1.0187;
467.7000;0.6146;1.0210;
468.0000;0.6138;1.0163;
468.3000;0.6138;1.0140;
468.6000;0.6129;1.0022;
468.9000;0.6129;0.9976;
469.2000;0.6113;1.0046;
469.5000;0.6146;1.0093;
469.8000;0.6138;1.0093;
470.1000;0.6138;1.0022;
470.4000;0.6138;0.9976;
470.7000;0.6138;0.9952;
471.0000;0.6146;0.9929;
471.3000;0.6154;0.9905;
471.6000;0.6146;0.9858;
471.9000;0.6121;0.9835;
472.2000;0.6138;0.9882;
472.5000;0.6129;0.9905;
472.8000;0.6121;0.9858;
473.1000;0.6138;0.9882;
473.4000;0.6138;0.9929;
473.7000;0.6138;1.0022;
474.0000;0.6121;1.0069;
474.3000;0.6146;1.0163;
474.6000;0.6146;1.0187;
474.9000;0.6105;1.0093;
475.2000;0.6146;1.0069;
475.5000;0.6146;1.0116;
475.8000;0.6129;1.0163;
476.1000;0.6146;1.0187;
476.4000;0.6138;1.0163;
476.7000;0.6072;0.9976;
477.0000;0.6129;1.0069;
477.3000;0.6154;1.0093;
477.6000;0.6154;1.0093;
477.9000;0.6170;1.0140;
478.2000;0.6162;0.9952;
478.5000;0.6154;0.9882;
478.8000;0.6170;0.9952;
479.1000;0.6154;0.9929;
479.4000;0.6162;1.0022;
479.7000;0.6138;0.9976;
480.0000;0.6154;1.0069;
480.3000;0.6154;1.0093;
480.6000;0.6121;0.9999;
480.9000;0.6138;1.0069;
481.2000;0.6154;1.0093;
481.5000;0.6162;1.0140;
481.8000;0.6138;1.0069;
482.1000;0.6072;0.9858;
482.4000;0.6081;0.9858;
482.7000;0.6129;0.9952;
483.0000;0.6146;1.0046;
483.3000;0.6121;0.9976;
483.6000;0.6129;0.9976;
483.9000;0.6129;0.9905;
484.2000;0.6154;0.9929;
484.5000;0.6138;0.9929;
484.8000;0.6178;0.9999;
485.1000;0.6162;0.9952;
485.4000;0.6121;0.9764;
485.7000;0.6129;0.9811;
486.0000;0.6162;0.9882;
486.3000;0.6129;0.9929;
486.6000;0.6113;0.9905;
486.9000;0.6129;0.9976;
487.2000;0.6113;0.9882;
487.5000;0.6129;1.0022;
487.8000;0.6129;1.0140;
488.1000;0.6146;1.0046;
488.4000;0.6121;1.0046;
488.7000;0.6129;1.0046;
489.0000;0.6138;1.0046;
489.3000;0.6121;0.9952;
489.6000;0.6170;1.0046;
489.9000;0.6138;0.9999;
490.2000;0.6146;1.0046;
490.5000;0.6129;1.0116;
490.8000;0.6138;1.0163;
491.1000;0.6138;1.0140;
491.4000;0.6138;1.0116;
491.7000;0.6032;0.9905;
492.0000;0.6138;1.0116;
492.3000;0.6186;1.0257;
492.6000;0.6138;1.0140;
492.9000;0.6129;1.0022;
493.2000;0.6129;0.9976;
493.5000;0.6138;0.9952;
493.8000;0.6146;0.9905;
494.1000;0.6138;0.9929;
494.4000;0.6162;0.9999;
494.7000;0.6129;0.9905;
495.0000;0.6146;0.9882;
495.3000;0.6138;0.9858;
495.6000;0.6170;0.9882;
495.9000;0.6138;0.9764;
496.2000;0.6138;0.9788;
496.5000;0.6138;0.9741;
496.8000;0.6138;0.9764;
497.1000;0.6170;0.9952;
497.4000;0.6195;1.0069;
497.7000;0.6138;0.9999;
498.0000;0.6154;0.9999;
498.3000;0.6138;0.9952;
498.6000;0.6170;1.0022;
498.9000;0.6154;1.0022;
499.2000;0.6154;0.9952;
499.5000;0.6105;0.9788;
499.8000;0.6113;0.9788;
500.1000;0.6146;0.9858;
500.4000;0.6154;0.9929;
500.7000;0.6129;0.9882;
501.0000;0.6129;0.9929;
501.3000;0.6129;0.9882;
501.6000;0.6146;0.9929;
501.9000;0.6129;0.9905;
502.2000;0.6154;0.9905;
502.5000;0.6162;0.9905;
502.8000;0.6121;0.9811;
503.1000;0.6072;0.9694;
503.4000;0.6146;0.9835;
503.7000;0.6138;0.9858;
504.0000;0.6138;0.9905;
504.3000;0.6138;0.9905;
504.6000;0.6146;0.9952;
504.9000;0.6146;0.9929;
505.2000;0.6138;0.9882;
505.5000;0.6178;0.9999;
505.8000;0.6146;0.9952;
506.1000;0.6081;0.9882;
506.4000;0.6105;0.9905;
506.7000;0.6154;0.9999;
507.0000;0.6154;0.9976;
507.3000;0.6129;0.9952;
507.6000;0.6129;0.9952;
507.9000;0.6138;0.9976;
508.2000;0.6064;0.9858;
508.5000;0.6129;0.9999;
508.8000;0.6146;1.0046;
509.1000;0.6170;1.0022;
509.4000;0.6129;0.9905;
509.7000;0.6146;0.9858;
510.0000;0.6129;0.9811;
510.3000;0.6162;0.9952;
510.6000;0.6146;0.9835;
510.9000;0.6138;0.9858;
511.2000;0.6129;0.9858;
511.5000;0.6146;0.9835;
511.8000;0.6138;0.9905;
512.1000;0.6162;0.9976;
512.4000;0.6138;0.9952;
512.7000;0.6138;1.0022;
513.0000;0.6146;1.0093;
513.3000;0.6129;1.0069;
513.6000;0.6146;1.0116;
513.9000;0.6146;1.0116;
514.2000;0.6146;1.0093;
514.5000;0.6146;1.0046;
514.8000;0.6129;1.0046;
515.1000;0.6138;1.0046;
515.4000;0.6138;1.0069;
515.7000;0.6129;1.0187;
516.0000;0.6138;1.0163;
516.3000;0.6097;1.0022;
516.6000;0.6154;1.0140;
516.9000;0.6129;1.0116;
517.2000;0.6089;0.9929;
517.5000;0.6129;0.9999;
517.8000;0.6138;1.0093;
518.1000;0.6146;1.0116;
518.4000;0.6138;1.0187;
518.7000;0.6138;1.0187;
519.0000;0.6129;1.0093;
519.3000;0.6146;1.0116;
519.6000;0.6146;1.0116;
519.9000;0.6129;1.0069;
520.2000;0.6129;1.0069;
520.5000;0.6162;1.0163;
520.8000;0.6146;1.0140;
521.1000;0.6154;1.0046;
521.4000;0.6170;1.0093;
521.7000;0.6146;0.9976;
522.0000;0.6138;0.9905;
522.3000;0.6138;0.9929;
522.6000;0.6089;0.9835;
522.9000;0.6138;0.9999;
523.2000;0.6154;1.0046;
523.5000;0.6138;0.9882;
523.8000;0.6146;0.9905;
524.1000;0.6146;0.9905;
524.4000;0.6138;0.9976;
524.7000;0.6138;0.9952;
525.0000;0.6129;0.9952;
525.3000;0.6154;0.9999;
525.6000;0.6154;0.9999;
525.9000;0.6121;0.9952;
526.2000;0.6121;0.9976;
526.5000;0.6138;0.9999;
526.8000;0.6138;0.9952;
527.1000;0.6146;0.9999;
527.4000;0.6162;1.0093;
527.7000;0.6146;1.0069;
528.0000;0.6146;1.0093;
528.3000;0.6146;0.9976;
528.6000;0.6162;0.9999;
528.9000;0.6170;1.0069;
529.2000;0.6170;1.0069;
529.5000;0.6162;1.0069;
529.8000;0.6146;1.0116;
530.1000;0.6121;1.0140;
530.4000;0.6072;0.9976;
530.7000;0.6138;1.0069;
531.0000;0.6146;1.0140;
531.3000;0.6121;1.0022;
531.6000;0.6129;0.9999;
531.9000;0.6138;1.0093;
532.2000;0.6129;1.0093;
532.5000;0.6146;1.0116;
532.8000;0.6138;1.0163;
533.1000;0.6146;1.0140;
533.4000;0.6146;1.0163;
533.7000;0.6138;1.0022;
534.0000;0.6138;1.0022;
534.3000;0.6170;1.0163;
534.6000;0.6089;0.9976;
534.9000;0.6146;1.0140;
535.2000;0.6138;1.0187;
535.5000;0.6138;1.0093;
535.8000;0.6146;1.0022;
536.1000;0.6129;0.9952;
536.4000;0.6121;0.9952;
536.7000;0.6146;0.9929;
537.0000;0.6146;1.0022;
537.3000;0.6203;1.0140;
537.6000;0.6121;1.0046;
537.9000;0.6138;1.0116;
538.2000;0.6146;1.0093;
538.5000;0.6154;1.0069;
538.8000;0.6129;1.0069;
539.1000;0.6146;1.0093;
539.4000;0.6146;1.0069;
539.7000;0.6138;1.0046;
540.0000;0.6146;0.9976;
540.3000;0.6129;0.9929;
540.6000;0.6138;0.9905;
540.9000;0.6154;0.9929;
541.2000;0.6146;0.9976;
541.5000;0.6129;0.9952;
541.8000;0.6138;0.9999;
542.1000;0.6154;1.0022;
542.4000;0.6154;1.0069;
542.7000;0.6138;0.9976;
543.0000;0.6146;0.9999;
543.3000;0.6154;1.0069;
543.6000;0.6138;0.9999;
543.9000;0.6154;0.9929;
544.2000;0.6146;0.9976;
544.5000;0.6138;0.9999;
544.8000;0.6138;1.0022;
545.1000;0.6146;1.0069;
545.4000;0.6203;1.0163;
545.7000;0.6105;1.0022;
546.0000;0.6146;1.0140;
546.3000;0.6129;1.0116;
546.6000;0.6121;1.0163;
546.9000;0.6154;1.0281;
547.2000;0.6146;1.0234;
547.5000;0.6146;1.0163;
547.8000;0.6138;1.0140;
548.1000;0.6146;1.0187;
548.4000;0.6146;1.0140;
548.7000;0.6146;1.0187;
549.0000;0.6129;1.0210;
549.3000;0.6146;1.0163;
549.6000;0.6121;1.0069;
549.9000;0.6154;1.0022;
550.2000;0.6146;0.9999;
550.5000;0.6138;0.9929;
550.8000;0.6154;0.9976;
551.1000;0.6154;0.9999;
551.4000;0.6129;0.9882;
551.7000;0.6138;0.9811;
552.0000;0.6146;0.9905;
552.3000;0.6162;0.9952;
552.6000;0.6138;0.9905;
552.9000;0.6162;0.9952;
553.2000;0.6162;0.9952;
553.5000;0.6162;0.9999;
553.8000;0.6219;1.0069;
554.1000;0.6203;0.9976;
554.4000;0.6162;0.9882;
554.7000;0.6146;0.9858;
555.0000;0.6162;0.9952;
555.3000;0.6154;0.9999;
555.6000;0.6138;0.9929;
555.9000;0.6146;0.9952;
556.2000;0.6162;0.9999;
556.5000;0.6138;0.9905;
556.8000;0.6146;0.9952;
557.1000;0.6154;0.9882;
557.4000;0.6138;0.9811;
557.7000;0.6186;0.9952;
558.0000;0.6121;0.9811;
558.3000;0.6146;0.9835;
558.6000;0.6154;0.9858;
558.9000;0.6138;0.9858;
559.2000;0.6129;0.9882;
559.5000;0.6129;0.9929;
559.8000;0.6138;0.9929;
560.1000;0.6129;0.9858;
560.4000;0.6138;0.9952;
560.7000;0.6129;0.9952;
561.0000;0.6211;1.0116;
561.3000;0.6138;0.9999;
561.6000;0.6129;1.0046;
561.9000;0.6154;0.9999;
562.2000;0.6211;1.0140;
562.5000;0.6146;1.0022;
562.8000;0.6138;1.0069;
563.1000;0.6138;1.0046;
563.4000;0.6129;1.0116;
563.7000;0.6138;1.0234;
564.0000;0.6146;1.0210;
564.3000;0.6129;1.0281;
564.6000;0.6121;1.0187;
564.9000;0.6097;1.0116;
565.2000;0.6129;1.0163;
565.5000;0.6121;1.0116;
565.8000;0.6154;1.0234;
566.1000;0.6146;1.0116;
566.4000;0.6154;1.0069;
566.7000;0.6154;1.0093;
567.0000;0.6203;1.0210;
567.3000;0.6138;1.0140;
567.6000;0.6178;1.0140;
567.9000;0.6121;0.9999;
568.2000;0.6162;0.9999;
568.5000;0.6146;0.9999;
568.8000;0.6138;0.9952;
569.1000;0.6138;0.9929;
569.4000;0.6056;0.9741;
569.7000;0.6162;1.0022;
570.0000;0.6154;0.9976;
570.3000;0.6138;0.9952;
570.6000;0.6129;0.9929;
570.9000;0.6219;1.0187;
571.2000;0.6162;1.0046;
571.5000;0.6138;1.0046;
571.8000;0.6121;1.0022;
572.1000;0.6138;0.9999;
572.4000;0.6138;1.0046;
572.7000;0.6089;0.9882;
573.0000;0.6138;0.9952;
573.3000;0.6138;0.9999;
573.6000;0.6154;0.9905;
573.9000;0.6121;0.9858;
574.2000;0.6056;0.9717;
574.5000;0.6129;0.9882;
574.8000;0.6138;0.9952;
575.1000;0.6146;0.9952;
575.4000;0.6138;0.9952;
575.7000;0.6162;0.9999;
576.0000;0.6105;0.9905;
576.3000;0.6138;0.9999;
576.6000;0.6146;0.9999;
576.9000;0.6138;1.0022;
577.2000;0.6146;1.0093;
577.5000;0.6154;1.0046;
577.8000;0.6146;1.0046;
578.1000;0.6121;0.9929;
578.4000;0.6072;0.9788;
578.7000;0.6064;0.9764;
579.0000;0.6162;1.0069;
579.3000;0.6129;0.9999;
579.6000;0.6129;0.9905;
579.9000;0.6121;0.9882;
580.2000;0.6113;0.9858;
580.5000;0.6138;0.9929;
580.8000;0.6138;0.9976;
581.1000;0.6146;0.9976;
581.4000;0.6154;1.0022;
581.7000;0.6146;1.0022;
582.0000;0.6138;0.9976;
582.3000;0.6146;0.9999;
582.6000;0.6154;0.9882;
582.9000;0.6146;0.9858;
583.2000;0.6146;0.9764;
583.5000;0.6129;0.9717;
583.8000;0.6146;0.9717;
584.1000;0.6138;0.9717;
584.4000;0.6129;0.9670;
584.7000;0.6146;0.9694;
585.0000;0.6138;0.9764;
585.3000;0.6129;0.9788;
585.6000;0.6097;0.9647;
585.9000;0.6129;0.9788;
586.2000;0.6129;0.9741;
586.5000;0.6146;0.9788;
586.8000;0.6121;0.9647;
587.1000;0.6146;0.9623;
587.4000;0.6146;0.9647;
587.7000;0.6154;0.9717;
588.0000;0.6121;0.9623;
588.3000;0.6162;0.9741;
588.6000;0.6162;0.9811;
588.9000;0.6129;0.9835;
589.2000;0.6154;0.9929;
589.5000;0.6162;0.9952;
589.8000;0.6138;0.9929;
590.1000;0.6138;0.9835;
590.4000;0.6146;0.9882;
590.7000;0.6138;0.9835;
591.0000;0.6146;0.9929;
591.3000;0.6154;0.9976;
591.6000;0.6146;0.9976;
591.9000;0.6129;0.9929;
592.2000;0.6138;0.9999;
592.5000;0.6146;1.0022;
592.8000;0.6146;0.9999;
593.1000;0.6113;0.9976;
593.4000;0.6162;1.0022;
593.7000;0.6146;0.9976;
594.0000;0.6162;0.9929;
594.3000;0.6154;0.9905;
594.6000;0.6138;0.9835;
594.9000;0.6146;0.9952;
595.2000;0.6121;0.9882;
595.5000;0.6138;0.9905;
595.8000;0.6138;0.9929;
596.1000;0.6138;0.9882;
596.4000;0.6129;0.9835;
596.7000;0.6154;0.9882;
597.0000;0.6129;0.9858;
597.3000;0.6235;1.0093;
597.6000;0.6138;0.9858;
597.9000;0.6146;0.9905;
598.2000;0.6146;0.9905;
598.5000;0.6089;0.9764;
598.8000;0.6154;0.9858;
599.1000;0.6089;0.9741;
599.4000;0.6162;0.9929;
599.7000;0.6162;0.9976;
600.0000;0.6081;0.9764;
600.3000;0.6138;0.9764;
600.6000;0.6146;0.9717;
600.9000;0.6129;0.9600;
601.2000;0.6113;0.9600;
601.5000;0.6113;0.9506;
601.8000;0.6081;0.9318;
602.1000;0.6024;0.9154;
602.4000;0.5999;0.9131;
602.7000;0.5991;0.9107;
603.0000;0.5950;0.9013;
603.3000;0.5975;0.9013;
603.6000;0.5918;0.8896;
603.9000;0.5902;0.8802;
604.2000;0.5877;0.8755;
604.5000;0.5845;0.8685;
604.8000;0.5861;0.8872;
605.1000;0.5828;0.8849;
605.4000;0.5771;0.8708;
605.7000;0.5763;0.8685;
606.0000;0.5755;0.8638;
606.3000;0.5739;0.8638;
606.6000;0.5714;0.8497;
606.9000;0.5706;0.8379;
607.2000;0.5698;0.8520;
607.5000;0.5682;0.8473;
607.8000;0.5674;0.8450;
608.1000;0.5665;0.8426;
608.4000;0.5649;0.8426;
608.7000;0.5649;0.8473;
609.0000;0.5641;0.8520;
609.3000;0.5633;0.8497;
609.6000;0.5600;0.8450;
609.9000;0.5584;0.8403;
610.2000;0.5592;0.8356;
610.5000;0.5576;0.8309;
610.8000;0.5568;0.8286;
611.1000;0.5560;0.8192;
611.4000;0.5527;0.8121;
611.7000;0.5560;0.8215;
612.0000;0.5551;0.8192;
612.3000;0.5543;0.8286;
612.6000;0.5503;0.8239;
612.9000;0.5503;0.8286;
613.2000;0.5495;0.8239;
613.5000;0.5486;0.8309;
613.8000;0.5462;0.8309;
614.1000;0.5470;0.8356;
614.4000;0.5470;0.8379;
614.7000;0.5454;0.8403;
615.0000;0.5438;0.8356;
615.3000;0.5429;0.8309;
615.6000;0.5421;0.8403;
615.9000;0.5397;0.8403;
616.2000;0.5421;0.8520;
616.5000;0.5429;0.8520;
616.8000;0.5405;0.8473;
617.1000;0.5397;0.8403;
617.4000;0.5397;0.8379;
617.7000;0.5389;0.8356;
618.0000;0.5413;0.8356;
618.3000;0.5381;0.8309;
618.6000;0.5364;0.8239;
618.9000;0.5348;0.8098;
619.2000;0.5356;0.8145;
619.5000;0.5324;0.8051;
619.8000;0.5324;0.8051;
620.1000;0.5324;0.8074;
620.4000;0.5332;0.8168;
620.7000;0.5332;0.8262;
621.0000;0.5348;0.8332;
621.3000;0.5340;0.8309;
621.6000;0.5291;0.8262;
621.9000;0.5324;0.8356;
622.2000;0.5299;0.8286;
622.5000;0.5234;0.8145;
622.8000;0.5275;0.8309;
623.1000;0.5275;0.8215;
623.4000;0.5258;0.8215;
623.7000;0.5258;0.8168;
624.0000;0.5210;0.8074;
624.3000;0.5291;0.8262;
624.6000;0.5267;0.8192;
624.9000;0.5226;0.8074;
625.2000;0.5201;0.8074;
625.5000;0.5258;0.8239;
625.8000;0.5226;0.8145;
626.1000;0.5201;0.8215;
626.4000;0.5201;0.8192;
626.7000;0.5193;0.8239;
627.0000;0.5193;0.8239;
627.3000;0.5128;0.8145;
627.6000;0.5177;0.8286;
627.9000;0.5177;0.8262;
628.2000;0.5169;0.8262;
628.5000;0.5161;0.8262;
628.8000;0.5169;0.8262;
629.1000;0.5136;0.8332;
629.4000;0.5144;0.8309;
629.7000;0.5144;0.8356;
630.0000;0.5136;0.8286;
630.3000;0.5153;0.8286;
630.6000;0.5112;0.8286;
630.9000;0.5120;0.8450;
631.2000;0.5112;0.8544;
631.5000;0.5112;0.8544;
631.8000;0.5088;0.8520;
632.1000;0.5112;0.8520;
632.4000;0.5096;0.8426;
632.7000;0.5096;0.8356;
633.0000;0.5104;0.8332;
633.3000;0.5128;0.8403;
633.6000;0.5063;0.8356;
633.9000;0.5079;0.8379;
634.2000;0.5071;0.8426;
634.5000;0.5055;0.8426;
634.8000;0.5071;0.8426;
635.1000;0.5055;0.8426;
635.4000;0.5039;0.8426;
635.7000;0.5063;0.8497;
636.0000;0.5104;0.8708;
636.3000;0.5047;0.8567;
636.6000;0.5031;0.8450;
636.9000;0.5039;0.8520;
637.2000;0.5022;0.8544;
637.5000;0.4949;0.8309;
637.8000;0.5055;0.8591;
638.1000;0.5071;0.8708;
638.4000;0.5014;0.8520;
638.7000;0.5014;0.8450;
639.0000;0.5014;0.8473;
639.3000;0.5006;0.8473;
639.6000;0.4917;0.8286;
639.9000;0.4990;0.8473;
640.2000;0.4998;0.8450;
640.5000;0.4949;0.8426;
640.8000;0.4965;0.8497;
641.1000;0.4982;0.8473;
641.4000;0.4957;0.8426;
641.7000;0.4974;0.8567;
642.0000;0.4957;0.8638;
642.3000;0.4974;0.8614;
642.6000;0.4949;0.8614;
642.9000;0.4965;0.8567;
643.2000;0.4949;0.8544;
643.5000;0.4957;0.8614;
643.8000;0.4933;0.8567;
644.1000;0.4925;0.8403;
644.4000;0.4925;0.8426;
644.7000;0.4917;0.8426;
645.0000;0.4925;0.8426;
645.3000;0.4900;0.8356;
645.6000;0.4917;0.8426;
645.9000;0.4908;0.8403;
646.2000;0.4835;0.8262;
646.5000;0.4900;0.8450;
646.8000;0.4835;0.8309;
647.1000;0.4892;0.8403;
647.4000;0.4917;0.8356;
647.7000;0.4884;0.8286;
648.0000;0.4860;0.8286;
648.3000;0.4925;0.8544;
648.6000;0.4933;0.8567;
648.9000;0.4876;0.8403;
649.2000;0.4860;0.8332;
649.5000;0.4860;0.8332;
649.8000;0.4803;0.8215;
650.1000;0.4851;0.8450;
650.4000;0.4851;0.8450;
650.7000;0.4860;0.8544;
651.0000;0.4868;0.8614;
651.3000;0.4835;0.8544;
651.6000;0.4835;0.8473;
651.9000;0.4851;0.8520;
652.2000;0.4835;0.8614;
652.5000;0.4835;0.8638;
652.8000;0.4835;0.8614;
653.1000;0.4778;0.8473;
653.4000;0.4811;0.8567;
653.7000;0.4762;0.8403;
654.0000;0.4827;0.8544;
654.3000;0.4770;0.8497;
654.6000;0.4811;0.8497;
654.9000;0.4811;0.8473;
655.2000;0.4786;0.8379;
655.5000;0.4794;0.8450;
655.8000;0.4786;0.8450;
656.1000;0.4811;0.8403;
656.4000;0.4819;0.8309;
656.7000;0.4786;0.8215;
657.0000;0.4786;0.8192;
657.3000;0.4786;0.8215;
657.6000;0.4778;0.8192;
657.9000;0.4770;0.8098;
658.2000;0.4762;0.8145;
658.5000;0.4786;0.8239;
658.8000;0.4770;0.8192;
659.1000;0.4786;0.8332;
659.4000;0.4770;0.8379;
659.7000;0.4778;0.8379;
660.0000;0.4778;0.8544;
660.3000;0.4762;0.8614;
660.6000;0.4762;0.8661;
660.9000;0.4778;0.8708;
661.2000;0.4746;0.8591;
661.5000;0.4737;0.8638;
661.8000;0.4746;0.8614;
662.1000;0.4697;0.8520;
662.4000;0.4737;0.8520;
662.7000;0.4737;0.8497;
663.0000;0.4746;0.8497;
663.3000;0.4729;0.8379;
663.6000;0.4746;0.8379;
663.9000;0.4737;0.8426;
664.2000;0.4721;0.8497;
664.5000;0.4721;0.8544;
664.8000;0.4705;0.8473;
665.1000;0.4713;0.8473;
665.4000;0.4681;0.8426;
665.7000;0.4786;0.8685;
666.0000;0.4697;0.8497;
666.3000;0.4713;0.8426;
666.6000;0.4721;0.8520;
666.9000;0.4689;0.8614;
667.2000;0.4689;0.8614;
667.5000;0.4697;0.8614;
667.8000;0.4681;0.8614;
668.1000;0.4697;0.8661;
668.4000;0.4681;0.8614;
668.7000;0.4713;0.8732;
669.0000;0.4681;0.8708;
669.3000;0.4689;0.8661;
669.6000;0.4681;0.8591;
669.9000;0.4721;0.8755;
670.2000;0.4713;0.8755;
670.5000;0.4681;0.8732;
670.8000;0.4664;0.8638;
671.1000;0.4664;0.8685;
671.4000;0.4681;0.8732;
671.7000;0.4689;0.8661;
672.0000;0.4640;0.8591;
672.3000;0.4656;0.8638;
672.6000;0.4664;0.8661;
672.9000;0.4705;0.8802;
673.2000;0.4697;0.8825;
673.5000;0.4656;0.8732;
673.8000;0.4705;0.8825;
674.1000;0.4648;0.8638;
674.4000;0.4640;0.8544;
674.7000;0.4648;0.8661;
675.0000;0.4640;0.8614;
675.3000;0.4640;0.8614;
675.6000;0.4640;0.8520;
675.9000;0.4672;0.8614;
676.2000;0.4681;0.8708;
676.5000;0.4632;0.8732;
676.8000;0.4615;0.8708;
677.1000;0.4640;0.8685;
677.4000;0.4624;0.8638;
677.7000;0.4664;0.8778;
678.0000;0.4615;0.8685;
678.3000;0.4607;0.8567;
678.6000;0.4624;0.8591;
678.9000;0.4624;0.8544;
679.2000;0.4624;0.8567;
679.5000;0.4615;0.8544;
679.8000;0.4607;0.8567;
680.1000;0.4632;0.8614;
680.4000;0.4632;0.8661;
680.7000;0.4615;0.8685;
681.0000;0.4591;0.8661;
681.3000;0.4615;0.8567;
681.6000;0.4599;0.8426;
681.9000;0.4591;0.8450;
682.2000;0.4607;0.8450;
682.5000;0.4599;0.8379;
682.8000;0.4591;0.8309;
683.1000;0.4583;0.8379;
683.4000;0.4599;0.8426;
683.7000;0.4591;0.8356;
684.0000;0.4607;0.8426;
684.3000;0.4583;0.8356;
684.6000;0.4575;0.8332;
684.9000;0.4591;0.8356;
685.2000;0.4583;0.8356;
685.5000;0.4599;0.8473;
685.8000;0.4558;0.8379;
686.1000;0.4607;0.8544;
686.4000;0.4591;0.8520;
686.7000;0.4599;0.8544;
687.0000;0.4575;0.8544;
687.3000;0.4583;0.8591;
687.6000;0.4575;0.8614;
687.9000;0.4591;0.8708;
688.2000;0.4599;0.8755;
688.5000;0.4567;0.8685;
688.8000;0.4583;0.8661;
689.1000;0.4583;0.8591;
689.4000;0.4583;0.8591;
689.7000;0.4550;0.8520;
690.0000;0.4607;0.8661;
690.3000;0.4567;0.8497;
690.6000;0.4567;0.8567;
690.9000;0.4550;0.8497;
691.2000;0.4567;0.8497;
691.5000;0.4567;0.8497;
691.8000;0.4591;0.8567;
692.1000;0.4583;0.8520;
692.4000;0.4558;0.8567;
692.7000;0.4615;0.8755;
693.0000;0.4558;0.8638;
693.3000;0.4550;0.8614;
693.6000;0.4550;0.8614;
693.9000;0.4624;0.8732;
694.2000;0.4558;0.8544;
694.5000;0.4583;0.8708;
694.8000;0.4534;0.8520;
695.1000;0.4542;0.8591;
695.4000;0.4518;0.8473;
695.7000;0.4526;0.8520;
696.0000;0.4567;0.8708;
696.3000;0.4518;0.8591;
696.6000;0.4534;0.8591;
696.9000;0.4444;0.8356;
697.2000;0.4501;0.8426;
697.5000;0.4534;0.8520;
697.8000;0.4485;0.8426;
698.1000;0.4550;0.8591;
698.4000;0.4575;0.8614;
698.7000;0.4453;0.8403;
699.0000;0.4526;0.8591;
699.3000;0.4550;0.8661;
699.6000;0.4526;0.8544;
699.9000;0.4518;0.8544;
700.2000;0.4542;0.8497;
700.5000;0.4526;0.8591;
700.8000;0.4550;0.8638;
701.1000;0.4526;0.8591;
701.4000;0.4510;0.8591;
701.7000;0.4501;0.8638;
702.0000;0.4518;0.8685;
702.3000;0.4501;0.8661;
702.6000;0.4493;0.8661;
702.9000;0.4485;0.8732;
703.2000;0.4510;0.8638;
703.5000;0.4518;0.8591;
703.8000;0.4501;0.8614;
704.1000;0.4526;0.8638;
704.4000;0.4526;0.8638;
704.7000;0.4518;0.8614;
705.0000;0.4510;0.8661;
705.3000;0.4501;0.8661;
705.6000;0.4526;0.8661;
705.9000;0.4518;0.8661;
706.2000;0.4485;0.8638;
706.5000;0.4493;0.8638;
706.8000;0.4477;0.8614;
707.1000;0.4501;0.8778;
707.4000;0.4485;0.8778;
707.7000;0.4493;0.8732;
708.0000;0.4518;0.8708;
708.3000;0.4493;0.8755;
708.6000;0.4485;0.8685;
708.9000;0.4477;0.8708;
709.2000;0.4477;0.8685;
709.5000;0.4493;0.8638;
709.8000;0.4501;0.8614;
710.1000;0.4510;0.8661;
710.4000;0.4469;0.8520;
710.7000;0.4493;0.8614;
711.0000;0.4469;0.8614;
711.3000;0.4453;0.8614;
711.6000;0.4477;0.8661;
711.9000;0.4477;0.8661;
712.2000;0.4485;0.8732;
712.5000;0.4534;0.8896;
712.8000;0.4436;0.8544;
713.1000;0.4428;0.8426;
713.4000;0.4477;0.8426;
713.7000;0.4477;0.8473;
714.0000;0.4461;0.8473;
714.3000;0.4469;0.8497;
714.6000;0.4477;0.8567;
714.9000;0.4485;0.8614;
715.2000;0.4477;0.8638;
715.5000;0.4453;0.8497;
715.8000;0.4493;0.8614;
716.1000;0.4469;0.8591;
716.4000;0.4469;0.8614;
716.7000;0.4453;0.8544;
717.0000;0.4461;0.8450;
717.3000;0.4477;0.8473;
717.6000;0.4428;0.8450;
717.9000;0.4453;0.8403;
718.2000;0.4510;0.8544;
718.5000;0.4477;0.8473;
718.8000;0.4477;0.8426;
719.1000;0.4461;0.8356;
719.4000;0.4461;0.8356;
719.7000;0.4461;0.8403;
720.0000;0.4461;0.8450;
720.3000;0.4436;0.8520;
720.6000;0.4436;0.8520;
720.9000;0.4412;0.8473;
721.2000;0.4501;0.8661;
721.5000;0.4436;0.8473;
721.8000;0.4461;0.8544;
722.1000;0.4444;0.8497;
722.4000;0.4436;0.8403;
722.7000;0.4436;0.8473;
723.0000;0.4444;0.8520;
723.3000;0.4444;0.8591;
723.6000;0.4420;0.8567;
723.9000;0.4436;0.8520;
724.2000;0.4428;0.8544;
724.5000;0.4444;0.8638;
724.8000;0.4436;0.8661;
725.1000;0.4387;0.8520;
725.4000;0.4412;0.8614;
725.7000;0.4436;0.8638;
726.0000;0.4428;0.8685;
726.3000;0.4436;0.8732;
726.6000;0.4428;0.8661;
726.9000;0.4436;0.8685;
727.2000;0.4436;0.8544;
727.5000;0.4428;0.8544;
727.8000;0.4444;0.8591;
728.1000;0.4420;0.8661;
728.4000;0.4428;0.8708;
728.7000;0.4428;0.8708;
729.0000;0.4428;0.8614;
729.3000;0.4436;0.8591;
729.6000;0.4428;0.8638;
729.9000;0.4453;0.8708;
730.2000;0.4428;0.8614;
730.5000;0.4420;0.8591;
730.8000;0.4404;0.8544;
731.1000;0.4453;0.8685;
731.4000;0.4428;0.8685;
731.7000;0.4420;0.8685;
732.0000;0.4412;0.8614;
732.3000;0.4404;0.8661;
732.6000;0.4404;0.8591;
732.9000;0.4404;0.8544;
733.2000;0.4420;0.8614;
733.5000;0.4501;0.8802;
733.8000;0.4428;0.8661;
734.1000;0.4412;0.8614;
734.4000;0.4428;0.8544;
734.7000;0.4453;0.8591;
735.0000;0.4404;0.8473;
735.3000;0.4404;0.8567;
735.6000;0.4379;0.8544;
735.9000;0.4412;0.8708;
736.2000;0.4436;0.8802;
736.5000;0.4412;0.8778;
736.8000;0.4404;0.8708;
737.1000;0.4412;0.8732;
737.4000;0.4412;0.8708;
737.7000;0.4436;0.8638;
738.0000;0.4404;0.8544;
738.3000;0.4412;0.8520;
738.6000;0.4420;0.8544;
738.9000;0.4396;0.8661;
739.2000;0.4396;0.8638;
739.5000;0.4420;0.8778;
739.8000;0.4412;0.8802;
740.1000;0.4298;0.8520;
740.4000;0.4387;0.8708;
740.7000;0.4387;0.8708;
741.0000;0.4396;0.8755;
741.3000;0.4379;0.8661;
741.6000;0.4396;0.8708;
741.9000;0.4412;0.8755;
742.2000;0.4396;0.8638;
742.5000;0.4396;0.8685;
742.8000;0.4396;0.8755;
743.1000;0.4363;0.8685;
743.4000;0.4396;0.8732;
743.7000;0.4396;0.8732;
744.0000;0.4387;0.8685;
744.3000;0.4379;0.8614;
744.6000;0.4379;0.8661;
744.9000;0.4387;0.8567;
745.2000;0.4387;0.8544;
745.5000;0.4371;0.8591;
745.8000;0.4363;0.8567;
746.1000;0.4469;0.8802;
746.4000;0.4379;0.8544;
746.7000;0.4379;0.8544;
747.0000;0.4387;0.8497;
747.3000;0.4396;0.8567;
747.6000;0.4387;0.8591;
747.9000;0.4396;0.8544;
748.2000;0.4420;0.8708;
748.5000;0.4379;0.8591;
748.8000;0.4379;0.8638;
749.1000;0.4412;0.8638;
749.4000;0.4387;0.8591;
749.7000;0.4371;0.8544;
750.0000;0.4379;0.8591;
750.3000;0.4379;0.8591;
750.6000;0.4379;0.8567;
750.9000;0.4371;0.8591;
751.2000;0.4379;0.8614;
751.5000;0.4355;0.8591;
751.8000;0.4371;0.8638;
752.1000;0.4379;0.8661;
752.4000;0.4379;0.8685;
752.7000;0.4379;0.8708;
753.0000;0.4387;0.8778;
753.3000;0.4396;0.8825;
753.6000;0.4371;0.8755;
753.9000;0.4387;0.8778;
754.2000;0.4371;0.8732;
754.5000;0.4420;0.8802;
754.8000;0.4363;0.8685;
755.1000;0.4387;0.8708;
755.4000;0.4322;0.8520;
755.7000;0.4363;0.8591;
756.0000;0.4371;0.8614;
756.3000;0.4298;0.8544;
756.6000;0.4379;0.8732;
756.9000;0.4371;0.8708;
757.2000;0.4371;0.8732;
757.5000;0.4444;0.8896;
757.8000;0.4371;0.8732;
758.1000;0.4347;0.8567;
758.4000;0.4363;0.8591;
758.7000;0.4371;0.8661;
759.0000;0.4363;0.8708;
759.3000;0.4363;0.8661;
759.6000;0.4461;0.8849;
759.9000;0.4371;0.8591;
760.2000;0.4355;0.8638;
760.5000;0.4371;0.8708;
760.8000;0.4347;0.8685;
761.1000;0.4371;0.8732;
761.4000;0.4379;0.8802;
761.7000;0.4379;0.8849;
762.0000;0.4298;0.8661;
762.3000;0.4371;0.8919;
762.6000;0.4363;0.8919;
762.9000;0.4371;0.8849;
763.2000;0.4363;0.8825;
763.5000;0.4371;0.8896;
763.8000;0.4363;0.8966;
764.1000;0.4371;0.9013;
764.4000;0.4314;0.8919;
764.7000;0.4339;0.8966;
765.0000;0.4355;0.9131;
765.3000;0.4363;0.9177;
765.6000;0.4363;0.9177;
765.9000;0.4355;0.9177;
766.2000;0.4347;0.9084;
766.5000;0.4339;0.8943;
766.8000;0.4371;0.8872;
767.1000;0.4347;0.8778;
767.4000;0.4355;0.8849;
767.7000;0.4355;0.8849;
768.0000;0.4355;0.8825;
768.3000;0.4347;0.8872;
768.6000;0.4339;0.8849;
768.9000;0.4355;0.8872;
769.2000;0.4314;0.8778;
769.5000;0.4322;0.8825;
769.8000;0.4330;0.8966;
770.1000;0.4347;0.9013;
770.4000;0.4339;0.8966;
770.7000;0.4339;0.9013;
771.0000;0.4322;0.8943;
771.3000;0.4347;0.8919;
771.6000;0.4347;0.8872;
771.9000;0.4339;0.8849;
772.2000;0.4339;0.8778;
772.5000;0.4339;0.8708;
772.8000;0.4330;0.8685;
773.1000;0.4339;0.8732;
773.4000;0.4355;0.8778;
773.7000;0.4330;0.8778;
774.0000;0.4355;0.8732;
774.3000;0.4339;0.8708;
774.6000;0.4298;0.8591;
774.9000;0.4330;0.8661;
775.2000;0.4339;0.8591;
775.5000;0.4290;0.8473;
775.8000;0.4330;0.8591;
776.1000;0.4330;0.8638;
776.4000;0.4347;0.8708;
776.7000;0.4355;0.8732;
777.0000;0.4347;0.8708;
777.3000;0.4355;0.8708;
777.6000;0.4314;0.8591;
777.9000;0.4355;0.8614;
778.2000;0.4330;0.8497;
778.5000;0.4379;0.8591;
778.8000;0.4396;0.8591;
779.1000;0.4330;0.8473;
779.4000;0.4322;0.8544;
779.7000;0.4322;0.8567;
780.0000;0.4322;0.8614;
780.3000;0.4322;0.8661;
780.6000;0.4314;0.8614;
780.9000;0.4428;0.8943;
781.2000;0.4330;0.8685;
781.5000;0.4330;0.8661;
781.8000;0.4330;0.8708;
782.1000;0.4306;0.8661;
782.4000;0.4314;0.8638;
782.7000;0.4322;0.8685;
783.0000;0.4314;0.8708;
783.3000;0.4330;0.8708;
783.6000;0.4330;0.8661;
783.9000;0.4322;0.8685;
784.2000;0.4322;0.8708;
784.5000;0.4322;0.8708;
784.8000;0.4330;0.8802;
785.1000;0.4298;0.8849;
785.4000;0.4322;0.8943;
785.7000;0.4314;0.8919;
786.0000;0.4314;0.8849;
786.3000;0.4322;0.8778;
786.6000;0.4322;0.8755;
786.9000;0.4339;0.8755;
787.2000;0.4298;0.8708;
787.5000;0.4306;0.8708;
787.8000;0.4306;0.8638;
788.1000;0.4314;0.8685;
788.4000;0.4330;0.8614;
788.7000;0.4298;0.8591;
789.0000;0.4314;0.8544;
789.3000;0.4306;0.8497;
789.6000;0.4306;0.8473;
789.9000;0.4322;0.8473;
790.2000;0.4330;0.8473;
790.5000;0.4322;0.8497;
790.8000;0.4314;0.8591;
791.1000;0.4322;0.8591;
791.4000;0.4314;0.8591;
791.7000;0.4306;0.8614;
792.0000;0.4306;0.8544;
792.3000;0.4363;0.8567;
792.6000;0.4290;0.8473;
792.9000;0.4363;0.8755;
793.2000;0.4306;0.8567;
793.5000;0.4306;0.8567;
793.8000;0.4314;0.8591;
794.1000;0.4298;0.8591;
794.4000;0.4306;0.8591;
794.7000;0.4306;0.8591;
795.0000;0.4314;0.8638;
795.3000;0.4314;0.8638;
795.6000;0.4322;0.8732;
795.9000;0.4290;0.8661;
796.2000;0.4290;0.8778;
796.5000;0.4314;0.8825;
796.8000;0.4314;0.8778;
797.1000;0.4314;0.8802;
797.4000;0.4306;0.8825;
797.7000;0.4314;0.8825;
798.0000;0.4298;0.8778;
798.3000;0.4314;0.8708;
798.6000;0.4282;0.8567;
798.9000;0.4339;0.8661;
799.2000;0.4322;0.8661;
799.5000;0.4322;0.8661;
799.8000;0.4322;0.8708;
800.1000;0.4314;0.8661;
800.4000;0.4322;0.8708;
800.7000;0.4347;0.8778;
801.0000;0.4298;0.8708;
801.3000;0.4306;0.8872;
801.6000;0.4298;0.8872;
801.9000;0.4339;0.8943;
802.2000;0.4306;0.8919;
802.5000;0.4306;0.8919;
802.8000;0.4306;0.8802;
803.1000;0.4330;0.8825;
803.4000;0.4298;0.8872;
803.7000;0.4290;0.8825;
804.0000;0.4298;0.8872;
804.3000;0.4314;0.8872;
804.6000;0.4298;0.8896;
804.9000;0.4274;0.8802;
805.2000;0.4290;0.8896;
805.5000;0.4363;0.9131;
805.8000;0.4249;0.8896;
806.1000;0.4306;0.9037;
806.4000;0.4290;0.9013;
806.7000;0.4314;0.9060;
807.0000;0.4298;0.8943;
807.3000;0.4290;0.8849;
807.6000;0.4298;0.8755;
807.9000;0.4274;0.8638;
808.2000;0.4290;0.8638;
808.5000;0.4290;0.8708;
808.8000;0.4314;0.8732;
809.1000;0.4298;0.8638;
809.4000;0.4290;0.8661;
809.7000;0.4330;0.8685;
810.0000;0.4290;0.8638;
810.3000;0.4306;0.8661;
810.6000;0.4314;0.8661;
810.9000;0.4298;0.8638;
811.2000;0.4322;0.8755;
811.5000;0.4314;0.8685;
811.8000;0.4306;0.8661;
812.1000;0.4298;0.8661;
812.4000;0.4298;0.8638;
812.7000;0.4282;0.8520;
813.0000;0.4282;0.8544;
813.3000;0.4290;0.8544;
813.6000;0.4282;0.8497;
813.9000;0.4298;0.8497;
814.2000;0.4339;0.8661;
814.5000;0.4282;0.8497;
814.8000;0.4282;0.8426;
815.1000;0.4290;0.8544;
815.4000;0.4265;0.8520;
815.7000;0.4290;0.8685;
816.0000;0.4298;0.8661;
816.3000;0.4314;0.8685;
816.6000;0.4298;0.8685;
816.9000;0.4290;0.8591;
817.2000;0.4339;0.8732;
817.5000;0.4290;0.8661;
817.8000;0.4257;0.8591;
818.1000;0.4290;0.8638;
818.4000;0.4282;0.8591;
818.7000;0.4274;0.8638;
819.0000;0.4265;0.8661;
819.3000;0.4282;0.8685;
819.6000;0.4265;0.8614;
819.9000;0.4322;0.8755;
820.2000;0.4282;0.8591;
820.5000;0.4274;0.8614;
820.8000;0.4298;0.8591;
821.1000;0.4290;0.8567;
821.4000;0.4282;0.8544;
821.7000;0.4298;0.8614;
822.0000;0.4306;0.8661;
822.3000;0.4290;0.8544;
822.6000;0.4298;0.8544;
822.9000;0.4282;0.8591;
823.2000;0.4274;0.8661;
823.5000;0.4314;0.8755;
823.8000;0.4290;0.8685;
824.1000;0.4274;0.8685;
824.4000;0.4241;0.8591;
824.7000;0.4298;0.8685;
825.0000;0.4257;0.8614;
825.3000;0.4274;0.8591;
825.6000;0.4274;0.8567;
825.9000;0.4184;0.8379;
826.2000;0.4274;0.8591;
826.5000;0.4192;0.8450;
826.8000;0.4290;0.8685;
827.1000;0.4176;0.8356;
827.4000;0.4282;0.8732;
827.7000;0.4282;0.8661;
828.0000;0.4274;0.8591;
828.3000;0.4274;0.8591;
828.6000;0.4257;0.8473;
828.9000;0.4176;0.8309;
829.2000;0.4282;0.8591;
829.5000;0.4274;0.8544;
829.8000;0.4265;0.8520;
830.1000;0.4290;0.8591;
830.4000;0.4265;0.8544;
830.7000;0.4265;0.8567;
831.0000;0.4274;0.8614;
831.3000;0.4290;0.8591;
831.6000;0.4282;0.8473;
831.9000;0.4298;0.8450;
832.2000;0.4306;0.8450;
832.5000;0.4298;0.8403;
832.8000;0.4314;0.8450;
833.1000;0.4298;0.8497;
833.4000;0.4282;0.8473;
833.7000;0.4290;0.8520;
834.0000;0.4290;0.8473;
834.3000;0.4290;0.8497;
834.6000;0.4282;0.8497;
834.9000;0.4298;0.8567;
835.2000;0.4290;0.8614;
835.5000;0.4265;0.8614;
835.8000;0.4314;0.8685;
836.1000;0.4290;0.8685;
836.4000;0.4274;0.8732;
836.7000;0.4274;0.8802;
837.0000;0.4274;0.8825;
837.3000;0.4233;0.8685;
837.6000;0.4274;0.8685;
837.9000;0.4274;0.8638;
838.2000;0.4274;0.8520;
838.5000;0.4265;0.8450;
838.8000;0.4257;0.8426;
839.1000;0.4257;0.8450;
839.4000;0.4265;0.8520;
839.7000;0.4274;0.8497;
840.0000;0.4265;0.8426;
840.3000;0.4282;0.8497;
840.6000;0.4257;0.8497;
840.9000;0.4282;0.8497;
841.2000;0.4249;0.8520;
841.5000;0.4274;0.8567;
841.8000;0.4274;0.8544;
842.1000;0.4217;0.8450;
842.4000;0.4290;0.8614;
842.7000;0.4290;0.8661;
843.0000;0.4274;0.8661;
843.3000;0.4282;0.8685;
843.6000;0.4282;0.8638;
843.9000;0.4274;0.8685;
844.2000;0.4265;0.8591;
844.5000;0.4282;0.8614;
844.8000;0.4249;0.8591;
845.1000;0.4282;0.8614;
845.4000;0.4282;0.8638;
845.7000;0.4282;0.8544;
846.0000;0.4257;0.8638;
846.3000;0.4265;0.8732;
846.6000;0.4257;0.8638;
846.9000;0.4347;0.8896;
847.2000;0.4265;0.8708;
847.5000;0.4265;0.8591;
847.8000;0.4265;0.8614;
848.1000;0.4265;0.8614;
848.4000;0.4249;0.8591;
848.7000;0.4290;0.8661;
849.0000;0.4282;0.8661;
849.3000;0.4274;0.8661;
849.6000;0.4208;0.8520;
849.9000;0.4298;0.8708;
850.2000;0.4249;0.8685;
850.5000;0.4233;0.8685;
850.8000;0.4257;0.8755;
851.1000;0.4274;0.8708;
851.4000;0.4241;0.8614;
851.7000;0.4274;0.8591;
852.0000;0.4274;0.8661;
852.3000;0.4265;0.8661;
852.6000;0.4257;0.8685;
852.9000;0.4217;0.8544;
853.2000;0.4241;0.8638;
853.5000;0.4249;0.8638;
853.8000;0.4257;0.8591;
854.1000;0.4265;0.8614;
854.4000;0.4249;0.8567;
854.7000;0.4257;0.8591;
855.0000;0.4265;0.8520;
855.3000;0.4282;0.8544;
855.6000;0.4257;0.8497;
855.9000;0.4257;0.8544;
856.2000;0.4265;0.8591;
856.5000;0.4282;0.8661;
856.8000;0.4265;0.8638;
857.1000;0.4249;0.8661;
857.4000;0.4298;0.8802;
857.7000;0.4265;0.8685;
858.0000;0.4274;0.8638;
858.3000;0.4265;0.8614;
858.6000;0.4257;0.8567;
858.9000;0.4257;0.8567;
859.2000;0.4241;0.8544;
859.5000;0.4265;0.8614;
859.8000;0.4257;0.8520;
860.1000;0.4249;0.8497;
860.4000;0.4265;0.8473;
860.7000;0.4330;0.8591;
861.0000;0.4274;0.8473;
861.3000;0.4274;0.8426;
861.6000;0.4265;0.8497;
861.9000;0.4274;0.8567;
862.2000;0.4274;0.8520;
862.5000;0.4249;0.8497;
862.8000;0.4241;0.8473;
863.1000;0.4274;0.8520;
863.4000;0.4241;0.8450;
863.7000;0.4249;0.8450;
864.0000;0.4257;0.8497;
864.3000;0.4249;0.8520;
864.6000;0.4282;0.8638;
864.9000;0.4241;0.8567;
865.2000;0.4274;0.8685;
865.5000;0.4282;0.8708;
865.8000;0.4257;0.8685;
866.1000;0.4249;0.8638;
866.4000;0.4257;0.8685;
866.7000;0.4282;0.8802;
867.0000;0.4249;0.8685;
867.3000;0.4257;0.8732;
867.6000;0.4257;0.8755;
867.9000;0.4257;0.8732;
868.2000;0.4160;0.8403;
868.5000;0.4257;0.8567;
868.8000;0.4257;0.8567;
869.1000;0.4249;0.8544;
869.4000;0.4257;0.8520;
869.7000;0.4265;0.8544;
870.0000;0.4249;0.8614;
870.3000;0.4257;0.8685;
870.6000;0.4274;0.8732;
870.9000;0.4257;0.8638;
871.2000;0.4257;0.8614;
871.5000;0.4233;0.8638;
871.8000;0.4257;0.8732;
872.1000;0.4257;0.8708;
872.4000;0.4282;0.8732;
872.7000;0.4257;0.8708;
873.0000;0.4265;0.8685;
873.3000;0.4257;0.8614;
873.6000;0.4257;0.8638;
873.9000;0.4225;0.8567;
874.2000;0.4265;0.8685;
874.5000;0.4241;0.8567;
874.8000;0.4257;0.8638;
875.1000;0.4241;0.8755;
875.4000;0.4298;0.8919;
875.7000;0.4241;0.8896;
876.0000;0.4249;0.8849;
876.3000;0.4225;0.8755;
876.6000;0.4249;0.8778;
876.9000;0.4249;0.8732;
877.2000;0.4257;0.8755;
877.5000;0.4257;0.8708;
877.8000;0.4249;0.8685;
878.1000;0.4249;0.8567;
878.4000;0.4241;0.8544;
878.7000;0.4249;0.8591;
879.0000;0.4290;0.8638;
879.3000;0.4257;0.8614;
879.6000;0.4257;0.8591;
879.9000;0.4241;0.8591;
880.2000;0.4274;0.8567;
880.5000;0.4257;0.8544;
880.8000;0.4265;0.8567;
881.1000;0.4241;0.8544;
881.4000;0.4249;0.8497;
881.7000;0.4274;0.8497;
882.0000;0.4249;0.8426;
882.3000;0.4257;0.8473;
882.6000;0.4249;0.8544;
882.9000;0.4233;0.8567;
883.2000;0.4257;0.8638;
883.5000;0.4249;0.8614;
883.8000;0.4249;0.8591;
884.1000;0.4249;0.8567;
884.4000;0.4249;0.8473;
884.7000;0.4257;0.8544;
885.0000;0.4249;0.8544;
885.3000;0.4225;0.8473;
885.6000;0.4249;0.8567;
885.9000;0.4233;0.8450;
886.2000;0.4225;0.8403;
886.5000;0.4233;0.8473;
886.8000;0.4208;0.8403;
887.1000;0.4249;0.8426;
887.4000;0.4249;0.8473;
887.7000;0.4225;0.8497;
888.0000;0.4241;0.8638;
888.3000;0.4151;0.8450;
888.6000;0.4249;0.8732;
888.9000;0.4225;0.8755;
889.2000;0.4241;0.8708;
889.5000;0.4241;0.8567;
889.8000;0.4249;0.8614;
890.1000;0.4233;0.8614;
890.4000;0.4241;0.8685;
890.7000;0.4257;0.8708;
891.0000;0.4225;0.8638;
891.3000;0.4233;0.8614;
891.6000;0.4274;0.8708;
891.9000;0.4265;0.8661;
892.2000;0.4257;0.8661;
892.5000;0.4265;0.8685;
892.8000;0.4322;0.8896;
893.1000;0.4257;0.8614;
893.4000;0.4257;0.8638;
893.7000;0.4241;0.8614;
894.0000;0.4241;0.8520;
894.3000;0.4249;0.8473;
894.6000;0.4265;0.8567;
894.9000;0.4274;0.8591;
895.2000;0.4257;0.8520;
895.5000;0.4176;0.8309;
895.8000;0.4306;0.8544;
896.1000;0.4200;0.8332;
896.4000;0.4257;0.8497;
896.7000;0.4306;0.8614;
897.0000;0.4257;0.8426;
897.3000;0.4241;0.8497;
897.6000;0.4274;0.8544;
897.9000;0.4233;0.8450;
898.2000;0.4233;0.8473;
898.5000;0.4249;0.8591;
898.8000;0.4168;0.8356;
899.1000;0.4217;0.8497;
899.4000;0.4241;0.8520;
899.7000;0.4249;0.8544;
900.0000;0.4225;0.8520;
900.3000;0.4249;0.8544;
900.6000;0.4274;0.8614;
900.9000;0.4249;0.8591;
901.2000;0.4241;0.8567;
901.5000;0.4225;0.8544;
901.8000;0.4208;0.8544;
902.1000;0.4233;0.8685;
902.4000;0.4241;0.8638;
902.7000;0.4233;0.8638;
903.0000;0.4233;0.8685;
903.3000;0.4249;0.8732;
903.6000;0.4241;0.8685;
903.9000;0.4225;0.8638;
904.2000;0.4298;0.8825;
904.5000;0.4233;0.8708;
904.8000;0.4241;0.8638;
905.1000;0.4265;0.8520;
905.4000;0.4355;0.8778;
905.7000;0.4225;0.8544;
906.0000;0.4257;0.8661;
906.3000;0.4249;0.8591;
906.6000;0.4233;0.8567;
906.9000;0.4249;0.8591;
907.2000;0.4298;0.8825;
907.5000;0.4249;0.8661;
907.8000;0.4241;0.8661;
908.1000;0.4233;0.8685;
908.4000;0.4233;0.8708;
908.7000;0.4249;0.8732;
909.0000;0.4274;0.8802;
909.3000;0.4241;0.8638;
909.6000;0.4225;0.8520;
909.9000;0.4233;0.8544;
910.2000;0.4249;0.8544;
910.5000;0.4241;0.8544;
910.8000;0.4241;0.8685;
911.1000;0.4241;0.8755;
911.4000;0.4233;0.8825;
911.7000;0.4241;0.8732;
912.0000;0.4233;0.8755;
912.3000;0.4168;0.8638;
912.6000;0.4249;0.8755;
912.9000;0.4225;0.8661;
913.2000;0.4217;0.8638;
913.5000;0.4233;0.8732;
913.8000;0.4241;0.8732;
914.1000;0.4217;0.8685;
914.4000;0.4241;0.8661;
914.7000;0.4217;0.8591;
915.0000;0.4241;0.8708;
915.3000;0.4241;0.8708;
915.6000;0.4225;0.8708;
915.9000;0.4233;0.8778;
916.2000;0.4249;0.8802;
916.5000;0.4225;0.8708;
916.8000;0.4241;0.8732;
917.1000;0.4233;0.8708;
917.4000;0.4249;0.8685;
917.7000;0.4249;0.8685;
918.0000;0.4371;0.8990;
918.3000;0.4249;0.8708;
918.6000;0.4241;0.8778;
918.9000;0.4249;0.8872;
919.2000;0.4233;0.8802;
919.5000;0.4176;0.8614;
919.8000;0.4249;0.8732;
920.1000;0.4274;0.8802;
920.4000;0.4192;0.8614;
920.7000;0.4184;0.8567;
921.0000;0.4241;0.8732;
921.3000;0.4233;0.8802;
921.6000;0.4225;0.8802;
921.9000;0.4217;0.8825;
922.2000;0.4225;0.8896;
922.5000;0.4225;0.8896;
922.8000;0.4208;0.8919;
923.1000;0.4217;0.8966;
923.4000;0.4225;0.8872;
923.7000;0.4217;0.8849;
924.0000;0.4217;0.8778;
924.3000;0.4217;0.8708;
924.6000;0.4200;0.8614;
924.9000;0.4241;0.8755;
925.2000;0.4225;0.8778;
925.5000;0.4225;0.8802;
925.8000;0.4208;0.8802;
926.1000;0.4160;0.8732;
926.4000;0.4233;0.8896;
926.7000;0.4233;0.8919;
927.0000;0.4233;0.8919;
927.3000;0.4192;0.8849;
927.6000;0.4265;0.8872;
927.9000;0.4233;0.8778;
928.2000;0.4200;0.8802;
928.5000;0.4241;0.8872;
928.8000;0.4241;0.8919;
929.1000;0.4233;0.8896;
929.4000;0.4274;0.8943;
929.7000;0.4241;0.8849;
930.0000;0.4241;0.8872;
930.3000;0.4282;0.9013;
930.6000;0.4249;0.8896;
930.9000;0.4241;0.8825;
931.2000;0.4274;0.8896;
931.5000;0.4233;0.8685;
931.8000;0.4233;0.8732;
932.1000;0.4225;0.8732;
932.4000;0.4241;0.8802;
932.7000;0.4241;0.8732;
933.0000;0.4225;0.8755;
933.3000;0.4225;0.8638;
933.6000;0.4225;0.8685;
933.9000;0.4233;0.8755;
934.2000;0.4225;0.8755;
934.5000;0.4217;0.8708;
934.8000;0.4249;0.8778;
935.1000;0.4233;0.8802;
935.4000;0.4241;0.8849;
935.7000;0.4233;0.8802;
936.0000;0.4241;0.8755;
936.3000;0.4249;0.8825;
936.6000;0.4241;0.8778;
936.9000;0.4168;0.8638;
937.2000;0.4257;0.8872;
937.5000;0.4241;0.8778;
937.8000;0.4249;0.8732;
938.1000;0.4208;0.8685;
938.4000;0.4225;0.8661;
938.7000;0.4249;0.8732;
939.0000;0.4249;0.8732;
939.3000;0.4233;0.8778;
939.6000;0.4217;0.8638;
939.9000;0.4208;0.8614;
940.2000;0.4225;0.8591;
940.5000;0.4241;0.8638;
940.8000;0.4282;0.8802;
941.1000;0.4208;0.8708;
941.4000;0.4233;0.8661;
941.7000;0.4249;0.8708;
942.0000;0.4184;0.8567;
942.3000;0.4225;0.8591;
942.6000;0.4233;0.8591;
942.9000;0.4184;0.8497;
943.2000;0.4208;0.8567;
943.5000;0.4225;0.8567;
943.8000;0.4217;0.8614;
944.1000;0.4233;0.8708;
944.4000;0.4233;0.8708;
944.7000;0.4225;0.8661;
945.0000;0.4257;0.8661;
945.3000;0.4233;0.8708;
945.6000;0.4225;0.8778;
945.9000;0.4217;0.8732;
946.2000;0.4233;0.8708;
946.5000;0.4233;0.8732;
946.8000;0.4233;0.8661;
947.1000;0.4208;0.8520;
947.4000;0.4225;0.8567;
947.7000;0.4176;0.8497;
948.0000;0.4225;0.8708;
948.3000;0.4217;0.8638;
948.6000;0.4225;0.8591;
948.9000;0.4217;0.8614;
949.2000;0.4249;0.8732;
949.5000;0.4241;0.8732;
949.8000;0.4233;0.8732;
950.1000;0.4233;0.8708;
950.4000;0.4225;0.8732;
950.7000;0.4233;0.8778;
951.0000;0.4233;0.8685;
951.3000;0.4241;0.8567;
951.6000;0.4249;0.8614;
951.9000;0.4241;0.8614;
952.2000;0.4200;0.8614;
952.5000;0.4233;0.8614;
952.8000;0.4233;0.8638;
953.1000;0.4233;0.8638;
953.4000;0.4225;0.8638;
953.7000;0.4233;0.8614;
954.0000;0.4241;0.8708;
954.3000;0.4233;0.8778;
954.6000;0.4217;0.8685;
954.9000;0.4225;0.8778;
955.2000;0.4241;0.8732;
955.5000;0.4233;0.8755;
955.8000;0.4225;0.8802;
956.1000;0.4225;0.8802;
956.4000;0.4208;0.8849;
956.7000;0.4233;0.8896;
957.0000;0.4241;0.8849;
957.3000;0.4184;0.8567;
957.6000;0.4233;0.8661;
957.9000;0.4225;0.8638;
958.2000;0.4233;0.8685;
958.5000;0.4225;0.8732;
958.8000;0.4208;0.8755;
959.1000;0.4127;0.8544;
959.4000;0.4233;0.8825;
959.7000;0.4217;0.8872;
960.0000;0.4208;0.8896;
960.3000;0.4241;0.8896;
960.6000;0.4233;0.8896;
960.9000;0.4257;0.8896;
961.2000;0.4225;0.8849;
961.5000;0.4233;0.8896;
961.8000;0.4233;0.8919;
962.1000;0.4233;0.8849;
962.4000;0.4208;0.8755;
962.7000;0.4306;0.9177;
963.0000;0.4225;0.9037;
963.3000;0.4225;0.9037;
963.6000;0.4233;0.9037;
963.9000;0.4241;0.9013;
964.2000;0.4233;0.8919;
964.5000;0.4249;0.8966;
964.8000;0.4217;0.8849;
965.1000;0.4225;0.8825;
965.4000;0.4241;0.8849;
965.7000;0.4249;0.8849;
966.0000;0.4151;0.8591;
966.3000;0.4225;0.8872;
966.6000;0.4257;0.9013;
966.9000;0.4143;0.8732;
967.2000;0.4217;0.8919;
967.5000;0.4233;0.9013;
967.8000;0.4225;0.9084;
968.1000;0.4192;0.8919;
968.4000;0.4225;0.8966;
968.7000;0.4314;0.9154;
969.0000;0.4200;0.8778;
969.3000;0.4200;0.8755;
969.6000;0.4225;0.8896;
969.9000;0.4208;0.8896;
970.2000;0.4225;0.8896;
970.5000;0.4265;0.8966;
970.8000;0.4225;0.8896;
971.1000;0.4217;0.8825;
971.4000;0.4233;0.8802;
971.7000;0.4233;0.8685;
972.0000;0.4282;0.8825;
972.3000;0.4208;0.8638;
972.6000;0.4168;0.8591;
972.9000;0.4241;0.8825;
973.2000;0.4233;0.8872;
973.5000;0.4225;0.8896;
973.8000;0.4233;0.8872;
974.1000;0.4200;0.8802;
974.4000;0.4233;0.8802;
974.7000;0.4217;0.8849;
975.0000;0.4143;0.8591;
975.3000;0.4233;0.8755;
975.6000;0.4233;0.8755;
975.9000;0.4208;0.8732;
976.2000;0.4208;0.8685;
976.5000;0.4217;0.8685;
976.8000;0.4233;0.8685;
977.1000;0.4233;0.8732;
977.4000;0.4225;0.8778;
977.7000;0.4217;0.8802;
978.0000;0.4225;0.8872;
978.3000;0.4225;0.8896;
978.6000;0.4217;0.8896;
978.9000;0.4208;0.8755;
979.2000;0.4241;0.8732;
979.5000;0.4233;0.8732;
979.8000;0.4184;0.8544;
980.1000;0.4225;0.8614;
980.4000;0.4225;0.8614;
980.7000;0.4217;0.8544;
981.0000;0.4233;0.8450;
981.3000;0.4225;0.8403;
981.6000;0.4225;0.8426;
981.9000;0.4217;0.8520;
982.2000;0.4233;0.8520;
982.5000;0.4241;0.8661;
982.8000;0.4200;0.8614;
983.1000;0.4135;0.8473;
983.4000;0.4225;0.8661;
983.7000;0.4225;0.8708;
984.0000;0.4225;0.8732;
984.3000;0.4225;0.8732;
984.6000;0.4233;0.8755;
984.9000;0.4249;0.8755;
985.2000;0.4233;0.8755;
985.5000;0.4225;0.8708;
985.8000;0.4217;0.8732;
986.1000;0.4233;0.8825;
986.4000;0.4225;0.8802;
986.7000;0.4225;0.8825;
987.0000;0.4217;0.8872;
987.3000;0.4225;0.8966;
987.6000;0.4208;0.8943;
987.9000;0.4200;0.8825;
988.2000;0.4225;0.8943;
988.5000;0.4225;0.8990;
988.8000;0.4217;0.8966;
989.1000;0.4225;0.8919;
989.4000;0.4217;0.8966;
989.7000;0.4225;0.8966;
990.0000;0.4265;0.9037;
990.3000;0.4217;0.8896;
990.6000;0.4233;0.8896;
990.9000;0.4274;0.9037;
991.2000;0.4225;0.8896;
991.5000;0.4200;0.8755;
991.8000;0.4217;0.8778;
992.1000;0.4208;0.8802;
992.4000;0.4225;0.8755;
992.7000;0.4233;0.8755;
993.0000;0.4217;0.8778;
993.3000;0.4217;0.8849;
993.6000;0.4225;0.8896;
993.9000;0.4225;0.8802;
994.2000;0.4233;0.8849;
994.5000;0.4225;0.8849;
994.8000;0.4225;0.8825;
995.1000;0.4208;0.8685;
995.4000;0.4217;0.8661;
995.7000;0.4265;0.8825;
996.0000;0.4217;0.8732;
996.3000;0.4225;0.8802;
996.6000;0.4217;0.8919;
996.9000;0.4200;0.8872;
997.2000;0.4208;0.8802;
997.5000;0.4322;0.9060;
997.8000;0.4217;0.8849;
998.1000;0.4208;0.8825;
998.4000;0.4217;0.8802;
998.7000;0.4217;0.8755;
999.0000;0.4233;0.8661;
999.3000;0.4217;0.8591;
999.6000;0.4225;0.8591;
999.9000;0.4233;0.8591;
1000.2000;0.4233;0.8591;
1000.5000;0.4217;0.8614;
1000.8000;0.4225;0.8708;
1001.1000;0.4160;0.8520;
1001.4000;0.4217;0.8685;
1001.7000;0.4208;0.8614;
1002.0000;0.4208;0.8708;
1002.3000;0.4225;0.8825;
1002.6000;0.4217;0.8708;
1002.9000;0.4290;0.8872;
1003.2000;0.4217;0.8638;
1003.5000;0.4208;0.8685;
1003.8000;0.4225;0.8708;
1004.1000;0.4233;0.8778;
1004.4000;0.4208;0.8732;
1004.7000;0.4217;0.8638;
1005.0000;0.4225;0.8661;
1005.3000;0.4233;0.8567;
1005.6000;0.4208;0.8567;
1005.9000;0.4217;0.8591;
1006.2000;0.4208;0.8473;
1006.5000;0.4249;0.8732;
1006.8000;0.4208;0.8755;
1007.1000;0.4200;0.8661;
1007.4000;0.4233;0.8708;
1007.7000;0.4249;0.8778;
1008.0000;0.4217;0.8685;
1008.3000;0.4208;0.8778;
1008.6000;0.4208;0.8755;
1008.9000;0.4225;0.8778;
1009.2000;0.4225;0.8755;
1009.5000;0.4208;0.8685;
1009.8000;0.4217;0.8755;
1010.1000;0.4225;0.8825;
1010.4000;0.4225;0.8802;
1010.7000;0.4217;0.8778;
1011.0000;0.4249;0.8825;
1011.3000;0.4217;0.8732;
1011.6000;0.4217;0.8638;
1011.9000;0.4241;0.8685;
1012.2000;0.4225;0.8591;
1012.5000;0.4225;0.8685;
1012.8000;0.4217;0.8614;
1013.1000;0.4208;0.8567;
1013.4000;0.4217;0.8591;
1013.7000;0.4208;0.8661;
1014.0000;0.4265;0.8802;
1014.3000;0.4208;0.8708;
1014.6000;0.4306;0.8943;
1014.9000;0.4208;0.8661;
1015.2000;0.4192;0.8708;
1015.5000;0.4208;0.8685;
1015.8000;0.4233;0.8778;
1016.1000;0.4217;0.8872;
1016.4000;0.4208;0.8778;
1016.7000;0.4208;0.8732;
1017.0000;0.4200;0.8685;
1017.3000;0.4200;0.8661;
1017.6000;0.4225;0.8755;
1017.9000;0.4241;0.8778;
1018.2000;0.4217;0.8778;
1018.5000;0.4208;0.8849;
1018.8000;0.4265;0.8943;
1019.1000;0.4330;0.9060;
1019.4000;0.4233;0.8849;
1019.7000;0.4233;0.8825;
1020.0000;0.4241;0.8825;
1020.3000;0.4225;0.8896;
1020.6000;0.4225;0.8825;
1020.9000;0.4225;0.8755;
1021.2000;0.4257;0.8778;
1021.5000;0.4208;0.8708;
1021.8000;0.4192;0.8732;
1022.1000;0.4176;0.8661;
1022.4000;0.4322;0.8990;
1022.7000;0.4208;0.8685;
1023.0000;0.4225;0.8802;
1023.3000;0.4168;0.8614;
1023.6000;0.4225;0.8778;
1023.9000;0.4208;0.8802;
1024.2000;0.4208;0.8732;
1024.5000;0.4217;0.8661;
1024.8000;0.4192;0.8520;
1025.1000;0.4192;0.8497;
1025.4000;0.4217;0.8544;
1025.7000;0.4217;0.8520;
1026.0000;0.4225;0.8732;
1026.3000;0.4192;0.8685;
1026.6000;0.4200;0.8732;
1026.9000;0.4200;0.8685;
1027.2000;0.4200;0.8567;
1027.5000;0.4192;0.8567;
1027.8000;0.4217;0.8614;
1028.1000;0.4217;0.8638;
1028.4000;0.4184;0.8520;
1028.7000;0.4192;0.8520;
1029.0000;0.4208;0.8497;
1029.3000;0.4200;0.8497;
1029.6000;0.4225;0.8544;
1029.9000;0.4217;0.8567;
1030.2000;0.4208;0.8520;
1030.5000;0.4233;0.8473;
1030.8000;0.4200;0.8473;
1031.1000;0.4200;0.8473;
1031.4000;0.4225;0.8591;
1031.7000;0.4233;0.8661;
1032.0000;0.4217;0.8638;
1032.3000;0.4200;0.8614;
1032.6000;0.4249;0.8661;
1032.9000;0.4225;0.8591;
1033.2000;0.4233;0.8708;
1033.5000;0.4208;0.8732;
1033.8000;0.4192;0.8708;
1034.1000;0.4208;0.8708;
1034.4000;0.4217;0.8638;
1034.7000;0.4257;0.8708;
1035.0000;0.4208;0.8708;
1035.3000;0.4217;0.8755;
1035.6000;0.4241;0.8708;
1035.9000;0.4208;0.8661;
1036.2000;0.4217;0.8591;
1036.5000;0.4217;0.8638;
1036.8000;0.4200;0.8661;
1037.1000;0.4176;0.8520;
1037.4000;0.4200;0.8544;
1037.7000;0.4200;0.8473;
1038.0000;0.4217;0.8520;
1038.3000;0.4208;0.8473;
1038.6000;0.4208;0.8591;
1038.9000;0.4208;0.8638;
1039.2000;0.4192;0.8661;
1039.5000;0.4208;0.8685;
1039.8000;0.4225;0.8755;
1040.1000;0.4225;0.8755;
1040.4000;0.4217;0.8778;
1040.7000;0.4225;0.8778;
1041.0000;0.4208;0.8661;
1041.3000;0.4192;0.8544;
1041.6000;0.4208;0.8567;
1041.9000;0.4217;0.8544;
1042.2000;0.4249;0.8614;
1042.5000;0.4217;0.8520;
1042.8000;0.4200;0.8450;
1043.1000;0.4265;0.8567;
1043.4000;0.4274;0.8591;
1043.7000;0.4192;0.8403;
1044.0000;0.4217;0.8520;
1044.3000;0.4217;0.8497;
1044.6000;0.4217;0.8497;
1044.9000;0.4217;0.8497;
1045.2000;0.4217;0.8520;
1045.5000;0.4208;0.8450;
1045.8000;0.4208;0.8497;
1046.1000;0.4208;0.8544;
1046.4000;0.4233;0.8614;
1046.7000;0.4217;0.8614;
1047.0000;0.4225;0.8685;
1047.3000;0.4168;0.8614;
1047.6000;0.4200;0.8732;
1047.9000;0.4208;0.8732;
1048.2000;0.4192;0.8732;
1048.5000;0.4200;0.8661;
1048.8000;0.4217;0.8732;
1049.1000;0.4200;0.8685;
1049.4000;0.4192;0.8638;
1049.7000;0.4200;0.8638;
1050.0000;0.4200;0.8638;
1050.3000;0.4143;0.8544;
1050.6000;0.4184;0.8732;
1050.9000;0.4184;0.8661;
1051.2000;0.4208;0.8802;
1051.5000;0.4208;0.8849;
1051.8000;0.4208;0.8896;
1052.1000;0.4127;0.8638;
1052.4000;0.4233;0.8872;
1052.7000;0.4200;0.8849;
1053.0000;0.4265;0.9013;
1053.3000;0.4184;0.8849;
1053.6000;0.4217;0.8872;
1053.9000;0.4208;0.8778;
1054.2000;0.4225;0.8732;
1054.5000;0.4217;0.8708;
1054.8000;0.4225;0.8732;
1055.1000;0.4217;0.8778;
1055.4000;0.4208;0.8802;
1055.7000;0.4225;0.8778;
1056.0000;0.4200;0.8638;
1056.3000;0.4208;0.8638;
1056.6000;0.4217;0.8708;
1056.9000;0.4225;0.8708;
1057.2000;0.4233;0.8614;
1057.5000;0.4217;0.8591;
1057.8000;0.4208;0.8473;
1058.1000;0.4233;0.8638;
1058.4000;0.4225;0.8591;
1058.7000;0.4208;0.8591;
1059.0000;0.4225;0.8661;
1059.3000;0.4225;0.8708;
1059.6000;0.4233;0.8661;
1059.9000;0.4217;0.8661;
1060.2000;0.4200;0.8591;
1060.5000;0.4225;0.8614;
1060.8000;0.4225;0.8708;
1061.1000;0.4208;0.8661;
1061.4000;0.4225;0.8708;
1061.7000;0.4257;0.8849;
1062.0000;0.4217;0.8778;
1062.3000;0.4200;0.8755;
1062.6000;0.4200;0.8778;
1062.9000;0.4192;0.8802;
1063.2000;0.4217;0.8825;
1063.5000;0.4217;0.8661;
1063.8000;0.4208;0.8661;
1064.1000;0.4208;0.8732;
1064.4000;0.4208;0.8685;
1064.7000;0.4208;0.8661;
1065.0000;0.4208;0.8567;
1065.3000;0.4217;0.8544;
1065.6000;0.4200;0.8591;
1065.9000;0.4208;0.8661;
1066.2000;0.4192;0.8661;
1066.5000;0.4200;0.8685;
1066.8000;0.4208;0.8685;
1067.1000;0.4217;0.8732;
1067.4000;0.4208;0.8685;
1067.7000;0.4192;0.8685;
1068.0000;0.4208;0.8732;
1068.3000;0.4225;0.8685;
1068.6000;0.4233;0.8685;
1068.9000;0.4200;0.8614;
1069.2000;0.4208;0.8497;
1069.5000;0.4225;0.8520;
1069.8000;0.4225;0.8544;
1070.1000;0.4217;0.8544;
1070.4000;0.4208;0.8638;
1070.7000;0.4192;0.8614;
1071.0000;0.4217;0.8685;
1071.3000;0.4208;0.8685;
1071.6000;0.4208;0.8685;
1071.9000;0.4208;0.8614;
1072.2000;0.4208;0.8614;
1072.5000;0.4200;0.8520;
1072.8000;0.4200;0.8567;
1073.1000;0.4200;0.8614;
1073.4000;0.4200;0.8708;
1073.7000;0.4200;0.8755;
1074.0000;0.4192;0.8732;
1074.3000;0.4135;0.8544;
1074.6000;0.4192;0.8708;
1074.9000;0.4217;0.8708;
1075.2000;0.4225;0.8708;
1075.5000;0.4208;0.8732;
1075.8000;0.4217;0.8755;
1076.1000;0.4127;0.8497;
1076.4000;0.4217;0.8755;
1076.7000;0.4168;0.8614;
1077.0000;0.4217;0.8661;
1077.3000;0.4225;0.8614;
1077.6000;0.4200;0.8567;
1077.9000;0.4208;0.8638;
1078.2000;0.4192;0.8638;
1078.5000;0.4217;0.8685;
1078.8000;0.4192;0.8614;
1079.1000;0.4192;0.8614;
1079.4000;0.4217;0.8708;
1079.7000;0.4217;0.8708;
1080.0000;0.4217;0.8685;
1080.3000;0.4208;0.8685;
1080.6000;0.4208;0.8685;
1080.9000;0.4208;0.8732;
1081.2000;0.4208;0.8685;
1081.5000;0.4200;0.8661;
1081.8000;0.4217;0.8614;
1082.1000;0.4200;0.8591;
1082.4000;0.4208;0.8591;
1082.7000;0.4217;0.8708;
1083.0000;0.4151;0.8614;
1083.3000;0.4192;0.8778;
1083.6000;0.4208;0.8849;
1083.9000;0.4184;0.8778;
1084.2000;0.4225;0.8896;
1084.5000;0.4217;0.8943;
1084.8000;0.4233;0.9013;
1085.1000;0.4192;0.8802;
1085.4000;0.4233;0.8872;
1085.7000;0.4217;0.8802;
1086.0000;0.4217;0.8802;
1086.3000;0.4192;0.8638;
1086.6000;0.4217;0.8614;
1086.9000;0.4208;0.8544;
1087.2000;0.4208;0.8661;
1087.5000;0.4208;0.8708;
1087.8000;0.4200;0.8778;
1088.1000;0.4200;0.8802;
1088.4000;0.4208;0.8802;
1088.7000;0.4225;0.8825;
1089.0000;0.4217;0.8802;
1089.3000;0.4208;0.8802;
1089.6000;0.4217;0.8755;
1089.9000;0.4225;0.8732;
1090.2000;0.4225;0.8708;
1090.5000;0.4225;0.8661;
1090.8000;0.4208;0.8708;
1091.1000;0.4225;0.8755;
1091.4000;0.4217;0.8802;
1091.7000;0.4192;0.8732;
1092.0000;0.4217;0.8919;
1092.3000;0.4217;0.8896;
1092.6000;0.4200;0.8849;
1092.9000;0.4225;0.8896;
1093.2000;0.4225;0.8896;
1093.5000;0.4200;0.8849;
1093.8000;0.4208;0.8896;
1094.1000;0.4208;0.8919;
1094.4000;0.4200;0.8825;
1094.7000;0.4217;0.8849;
1095.0000;0.4192;0.8778;
1095.3000;0.4208;0.8778;
1095.6000;0.4200;0.8732;
1095.9000;0.4217;0.8685;
1096.2000;0.4225;0.8732;
1096.5000;0.4233;0.8778;
1096.8000;0.4225;0.8755;
1097.1000;0.4200;0.8614;
1097.4000;0.4217;0.8614;
1097.7000;0.4225;0.8708;
1098.0000;0.4200;0.8685;
1098.3000;0.4208;0.8732;
1098.6000;0.4233;0.8708;
1098.9000;0.4225;0.8685;
1099.2000;0.4151;0.8567;
1099.5000;0.4217;0.8732;
1099.8000;0.4217;0.8732;
1100.1000;0.4225;0.8802;
1100.4000;0.4233;0.8778;
1100.7000;0.4208;0.8755;
1101.0000;0.4217;0.8778;
1101.3000;0.4225;0.8708;
1101.6000;0.4217;0.8661;
1101.9000;0.4208;0.8614;
1102.2000;0.4217;0.8544;
1102.5000;0.4208;0.8614;
1102.8000;0.4217;0.8591;
1103.1000;0.4217;0.8567;
1103.4000;0.4217;0.8520;
1103.7000;0.4208;0.8567;
1104.0000;0.4306;0.8755;
1104.3000;0.4225;0.8520;
1104.6000;0.4217;0.8544;
1104.9000;0.4217;0.8567;
1105.2000;0.4225;0.8567;
1105.5000;0.4184;0.8450;
1105.8000;0.4208;0.8497;
1106.1000;0.4233;0.8567;
1106.4000;0.4208;0.8614;
1106.7000;0.4200;0.8638;
1107.0000;0.4217;0.8638;
1107.3000;0.4208;0.8638;
1107.6000;0.4217;0.8685;
1107.9000;0.4160;0.8567;
1108.2000;0.4208;0.8755;
1108.5000;0.4208;0.8732;
1108.8000;0.4192;0.8661;
1109.1000;0.4200;0.8638;
1109.4000;0.4200;0.8638;
1109.7000;0.4208;0.8591;
1110.0000;0.4217;0.8685;
1110.3000;0.4192;0.8732;
1110.6000;0.4225;0.8755;
1110.9000;0.4208;0.8685;
1111.2000;0.4208;0.8685;
1111.5000;0.4217;0.8778;
1111.8000;0.4192;0.8732;
1112.1000;0.4176;0.8708;
1112.4000;0.4184;0.8732;
1112.7000;0.4192;0.8755;
1113.0000;0.4192;0.8732;
1113.3000;0.4200;0.8802;
1113.6000;0.4208;0.8896;
1113.9000;0.4192;0.8849;
1114.2000;0.4200;0.8896;
1114.5000;0.4192;0.8802;
1114.8000;0.4200;0.8802;
1115.1000;0.4217;0.8755;
1115.4000;0.4192;0.8708;
1115.7000;0.4200;0.8614;
1116.0000;0.4274;0.8778;
1116.3000;0.4208;0.8685;
1116.6000;0.4200;0.8685;
1116.9000;0.4192;0.8567;
1117.2000;0.4192;0.8591;
1117.5000;0.4208;0.8544;
1117.8000;0.4200;0.8497;
1118.1000;0.4184;0.8567;
1118.4000;0.4200;0.8591;
1118.7000;0.4208;0.8591;
1119.0000;0.4217;0.8497;
1119.3000;0.4208;0.8544;
1119.6000;0.4192;0.8497;
1119.9000;0.4217;0.8567;
1120.2000;0.4208;0.8567;
1120.5000;0.4200;0.8614;
1120.8000;0.4208;0.8544;
1121.1000;0.4200;0.8497;
1121.4000;0.4208;0.8426;
1121.7000;0.4241;0.8379;
1122.0000;0.4192;0.8215;
1122.3000;0.4200;0.8309;
1122.6000;0.4208;0.8356;
1122.9000;0.4217;0.8403;
1123.2000;0.4208;0.8309;
1123.5000;0.4200;0.8450;
1123.8000;0.4233;0.8544;
1124.1000;0.4208;0.8544;
1124.4000;0.4208;0.8497;
1124.7000;0.4233;0.8614;
1125.0000;0.4200;0.8497;
1125.3000;0.4208;0.8544;
1125.6000;0.4217;0.8567;
1125.9000;0.4208;0.8567;
1126.2000;0.4225;0.8638;
1126.5000;0.4200;0.8591;
1126.8000;0.4208;0.8567;
1127.1000;0.4192;0.8450;
1127.4000;0.4200;0.8450;
1127.7000;0.4184;0.8356;
1128.0000;0.4217;0.8567;
1128.3000;0.4208;0.8591;
1128.6000;0.4151;0.8426;
1128.9000;0.4200;0.8497;
1129.2000;0.4208;0.8450;
1129.5000;0.4192;0.8567;
1129.8000;0.4290;0.8825;
1130.1000;0.4208;0.8567;
1130.4000;0.4217;0.8661;
1130.7000;0.4249;0.8825;
1131.0000;0.4265;0.8825;
1131.3000;0.4208;0.8685;
1131.6000;0.4298;0.8896;
1131.9000;0.4208;0.8685;
1132.2000;0.4192;0.8638;
1132.5000;0.4192;0.8567;
1132.8000;0.4200;0.8426;
1133.1000;0.4119;0.8192;
1133.4000;0.4200;0.8426;
1133.7000;0.4217;0.8473;
1134.0000;0.4200;0.8497;
1134.3000;0.4225;0.8591;
1134.6000;0.4208;0.8544;
1134.9000;0.4200;0.8497;
1135.2000;0.4249;0.8732;
1135.5000;0.4249;0.8708;
1135.8000;0.4208;0.8638;
1136.1000;0.4192;0.8661;
1136.4000;0.4192;0.8708;
1136.7000;0.4200;0.8708;
1137.0000;0.4208;0.8708;
1137.3000;0.4168;0.8497;
1137.6000;0.4200;0.8520;
1137.9000;0.4192;0.8497;
1138.2000;0.4249;0.8755;
1138.5000;0.4200;0.8638;
1138.8000;0.4184;0.8614;
1139.1000;0.4200;0.8614;
1139.4000;0.4192;0.8567;
1139.7000;0.4200;0.8638;
1140.0000;0.4184;0.8661;
1140.3000;0.4192;0.8685;
1140.6000;0.4200;0.8685;
1140.9000;0.4168;0.8638;
1141.2000;0.4200;0.8638;
1141.5000;0.4192;0.8567;
1141.8000;0.4200;0.8614;
1142.1000;0.4192;0.8520;
1142.4000;0.4168;0.8473;
1142.7000;0.4192;0.8544;
1143.0000;0.4176;0.8520;
1143.3000;0.4200;0.8614;
1143.6000;0.4208;0.8708;
1143.9000;0.4192;0.8614;
1144.2000;0.4200;0.8661;
1144.5000;0.4208;0.8708;
1144.8000;0.4192;0.8685;
1145.1000;0.4217;0.8755;
1145.4000;0.4200;0.8708;
1145.7000;0.4208;0.8732;
1146.0000;0.4184;0.8638;
1146.3000;0.4192;0.8661;
1146.6000;0.4200;0.8685;
1146.9000;0.4111;0.8332;
1147.2000;0.4192;0.8544;
1147.5000;0.4168;0.8473;
1147.8000;0.4200;0.8567;
1148.1000;0.4192;0.8638;
1148.4000;0.4192;0.8591;
1148.7000;0.4200;0.8567;
1149.0000;0.4184;0.8403;
1149.3000;0.4192;0.8379;
1149.6000;0.4200;0.8379;
1149.9000;0.4184;0.8262;
1150.2000;0.4208;0.8286;
1150.5000;0.4208;0.8403;
1150.8000;0.4208;0.8356;
1151.1000;0.4217;0.8356;
1151.4000;0.4208;0.8356;
1151.7000;0.4200;0.8426;
1152.0000;0.4176;0.8473;
1152.3000;0.4200;0.8591;
1152.6000;0.4192;0.8614;
1152.9000;0.4208;0.8638;
1153.2000;0.4200;0.8614;
1153.5000;0.4192;0.8638;
1153.8000;0.4176;0.8638;
1154.1000;0.4168;0.8567;
1154.4000;0.4208;0.8802;
1154.7000;0.4200;0.8849;
1155.0000;0.4184;0.8755;
1155.3000;0.4192;0.8732;
1155.6000;0.4233;0.8825;
1155.9000;0.4192;0.8614;
1156.2000;0.4176;0.8614;
1156.5000;0.4168;0.8520;
1156.8000;0.4135;0.8356;
1157.1000;0.4192;0.8544;
1157.4000;0.4192;0.8497;
1157.7000;0.4192;0.8450;
1158.0000;0.4200;0.8544;
1158.3000;0.4200;0.8544;
1158.6000;0.4176;0.8520;
1158.9000;0.4217;0.8638;
1159.2000;0.4208;0.8661;
1159.5000;0.4225;0.8685;
1159.8000;0.4184;0.8544;
1160.1000;0.4208;0.8661;
1160.4000;0.4200;0.8591;
1160.7000;0.4176;0.8544;
1161.0000;0.4225;0.8638;
1161.3000;0.4208;0.8638;
1161.6000;0.4184;0.8544;
1161.9000;0.4217;0.8638;
1162.2000;0.4208;0.8708;
1162.5000;0.4184;0.8567;
1162.8000;0.4192;0.8708;
1163.1000;0.4208;0.8778;
1163.4000;0.4200;0.8825;
1163.7000;0.4200;0.8732;
1164.0000;0.4200;0.8732;
1164.3000;0.4208;0.8708;
1164.6000;0.4192;0.8708;
1164.9000;0.4192;0.8661;
1165.2000;0.4127;0.8614;
1165.5000;0.4200;0.8755;
1165.8000;0.4151;0.8685;
1166.1000;0.4184;0.8802;
1166.4000;0.4192;0.8755;
1166.7000;0.4192;0.8778;
1167.0000;0.4208;0.8755;
1167.3000;0.4217;0.8778;
1167.6000;0.4208;0.8755;
1167.9000;0.4200;0.8778;
1168.2000;0.4233;0.8778;
1168.5000;0.4217;0.8638;
1168.8000;0.4217;0.8638;
1169.1000;0.4233;0.8708;
1169.4000;0.4208;0.8708;
1169.7000;0.4217;0.8778;
1170.0000;0.4208;0.8802;
1170.3000;0.4192;0.8802;
1170.6000;0.4208;0.8872;
1170.9000;0.4208;0.8872;
1171.2000;0.4225;0.8919;
1171.5000;0.4217;0.8825;
1171.8000;0.4192;0.8778;
1172.1000;0.4184;0.8732;
1172.4000;0.4200;0.8685;
1172.7000;0.4192;0.8567;
1173.0000;0.4176;0.8520;
1173.3000;0.4208;0.8544;
1173.6000;0.4200;0.8497;
1173.9000;0.4192;0.8426;
1174.2000;0.4192;0.8356;
1174.5000;0.4200;0.8426;
1174.8000;0.4192;0.8426;
1175.1000;0.4143;0.8215;
1175.4000;0.4200;0.8403;
1175.7000;0.4184;0.8309;
1176.0000;0.4184;0.8286;
1176.3000;0.4225;0.8379;
1176.6000;0.4274;0.8638;
1176.9000;0.4200;0.8332;
1177.2000;0.4200;0.8450;
1177.5000;0.4265;0.8591;
1177.8000;0.4184;0.8356;
1178.1000;0.4208;0.8379;
1178.4000;0.4217;0.8450;
1178.7000;0.4200;0.8332;
1179.0000;0.4208;0.8379;
1179.3000;0.4192;0.8426;
1179.6000;0.4200;0.8450;
1179.9000;0.4217;0.8473;
1180.2000;0.4217;0.8497;
1180.5000;0.4314;0.8802;
1180.8000;0.4225;0.8544;
1181.1000;0.4208;0.8638;
1181.4000;0.4192;0.8591;
1181.7000;0.4192;0.8661;
1182.0000;0.4192;0.8685;
1182.3000;0.4217;0.8661;
1182.6000;0.4225;0.8591;
1182.9000;0.4200;0.8567;
1183.2000;0.4127;0.8520;
1183.5000;0.4119;0.8450;
1183.8000;0.4217;0.8708;
1184.1000;0.4208;0.8614;
1184.4000;0.4200;0.8661;
1184.7000;0.4200;0.8755;
1185.0000;0.4208;0.8732;
1185.3000;0.4217;0.8755;
1185.6000;0.4192;0.8778;
1185.9000;0.4225;0.8802;
1186.2000;0.4200;0.8685;
1186.5000;0.4208;0.8755;
1186.8000;0.4160;0.8638;
1187.1000;0.4200;0.8755;
1187.4000;0.4208;0.8825;
1187.7000;0.4225;0.8872;
1188.0000;0.4200;0.8825;
1188.3000;0.4192;0.8872;
1188.6000;0.4184;0.8802;
1188.9000;0.4217;0.8802;
1189.2000;0.4274;0.8966;
1189.5000;0.4192;0.8685;
1189.8000;0.4208;0.8778;
1190.1000;0.4208;0.8802;
1190.4000;0.4200;0.8778;
1190.7000;0.4192;0.8732;
1191.0000;0.4249;0.8849;
1191.3000;0.4217;0.8825;
1191.6000;0.4168;0.8614;
1191.9000;0.4184;0.8685;
1192.2000;0.4151;0.8732;
1192.5000;0.4184;0.8802;
1192.8000;0.4306;0.9154;
1193.1000;0.4176;0.8872;
1193.4000;0.4192;0.8919;
1193.7000;0.4225;0.8919;
1194.0000;0.4208;0.8919;
1194.3000;0.4249;0.8872;
1194.6000;0.4208;0.8825;
1194.9000;0.4168;0.8849;
1195.2000;0.4200;0.8919;
1195.5000;0.4208;0.9013;
1195.8000;0.4176;0.8802;
1196.1000;0.4208;0.8825;
1196.4000;0.4176;0.8778;
1196.7000;0.4241;0.9013;
1197.0000;0.4208;0.8896;
1197.3000;0.4208;0.8943;
1197.6000;0.4184;0.8919;
1197.9000;0.4192;0.8919;
1198.2000;0.4200;0.8943;
1198.5000;0.4184;0.8943;
1198.8000;0.4184;0.8943;
1199.1000;0.4208;0.8966;
1199.4000;0.4192;0.8872;
1199.7000;0.4184;0.8778;
1200.0000;0.4200;0.8755;
1200.3000;0.4208;0.8685;
1200.6000;0.4176;0.8614;
1200.9000;0.4184;0.8661;
1201.2000;0.4200;0.8638;
1201.5000;0.4192;0.8591;
1201.8000;0.4208;0.8661;
1202.1000;0.4208;0.8591;
1202.4000;0.4200;0.8638;
1202.7000;0.4233;0.8802;
1203.0000;0.4208;0.8778;
1203.3000;0.4192;0.8825;
1203.6000;0.4200;0.8849;
1203.9000;0.4225;0.8802;
1204.2000;0.4200;0.8661;
1204.5000;0.4225;0.8661;
1204.8000;0.4192;0.8614;
1205.1000;0.4192;0.8661;
1205.4000;0.4225;0.8661;
1205.7000;0.4200;0.8638;
1206.0000;0.4176;0.8614;
1206.3000;0.4208;0.8732;
1206.6000;0.4217;0.8755;
1206.9000;0.4200;0.8778;
1207.2000;0.4225;0.8802;
1207.5000;0.4200;0.8685;
1207.8000;0.4176;0.8638;
1208.1000;0.4192;0.8638;
1208.4000;0.4225;0.8614;
1208.7000;0.4200;0.8497;
1209.0000;0.4257;0.8661;
1209.3000;0.4184;0.8403;
1209.6000;0.4208;0.8520;
1209.9000;0.4200;0.8544;
1210.2000;0.4176;0.8426;
1210.5000;0.4200;0.8426;
1210.8000;0.4192;0.8403;
1211.1000;0.4184;0.8426;
1211.4000;0.4200;0.8450;
1211.7000;0.4192;0.8520;
1212.0000;0.4192;0.8520;
1212.3000;0.4160;0.8450;
1212.6000;0.4200;0.8520;
1212.9000;0.4208;0.8591;
1213.2000;0.4208;0.8591;
1213.5000;0.4135;0.8403;
1213.8000;0.4200;0.8591;
1214.1000;0.4225;0.8732;
1214.4000;0.4200;0.8661;
1214.7000;0.4208;0.8732;
1215.0000;0.4208;0.8778;
1215.3000;0.4200;0.8755;
1215.6000;0.4184;0.8661;
1215.9000;0.4192;0.8638;
1216.2000;0.4176;0.8567;
1216.5000;0.4217;0.8614;
1216.8000;0.4257;0.8802;
1217.1000;0.4200;0.8732;
1217.4000;0.4192;0.8685;
1217.7000;0.4192;0.8778;
1218.0000;0.4225;0.8849;
1218.3000;0.4200;0.8802;
1218.6000;0.4200;0.8732;
1218.9000;0.4208;0.8778;
1219.2000;0.4217;0.8802;
1219.5000;0.4200;0.8755;
1219.8000;0.4192;0.8685;
1220.1000;0.4200;0.8732;
1220.4000;0.4200;0.8708;
1220.7000;0.4200;0.8755;
1221.0000;0.4265;0.8825;
1221.3000;0.4208;0.8661;
1221.6000;0.4200;0.8708;
1221.9000;0.4192;0.8755;
1222.2000;0.4192;0.8755;
1222.5000;0.4160;0.8661;
1222.8000;0.4217;0.8778;
1223.1000;0.4200;0.8685;
1223.4000;0.4176;0.8708;
1223.7000;0.4192;0.8708;
1224.0000;0.4200;0.8825;
1224.3000;0.4192;0.8872;
1224.6000;0.4192;0.8919;
1224.9000;0.4233;0.8872;
1225.2000;0.4208;0.8802;
1225.5000;0.4200;0.8825;
1225.8000;0.4192;0.8802;
1226.1000;0.4192;0.8849;
1226.4000;0.4200;0.8849;
1226.7000;0.4208;0.8919;
1227.0000;0.4217;0.8966;
1227.3000;0.4200;0.8990;
1227.6000;0.4184;0.9013;
1227.9000;0.4225;0.9013;
1228.2000;0.4208;0.8919;
1228.5000;0.4192;0.8943;
1228.8000;0.4208;0.8896;
1229.1000;0.4208;0.8990;
1229.4000;0.4208;0.8990;
1229.7000;0.4192;0.8896;
1230.0000;0.4200;0.8896;
1230.3000;0.4192;0.8872;
1230.6000;0.4200;0.8896;
1230.9000;0.4200;0.8872;
1231.2000;0.4233;0.9037;
1231.5000;0.4192;0.8943;
1231.8000;0.4192;0.8943;
1232.1000;0.4192;0.8943;
1232.4000;0.4200;0.8919;
1232.7000;0.4184;0.8943;
1233.0000;0.4200;0.9037;
1233.3000;0.4192;0.8943;
1233.6000;0.4184;0.8919;
1233.9000;0.4184;0.8896;
1234.2000;0.4200;0.8849;
1234.5000;0.4200;0.8825;
1234.8000;0.4200;0.8732;
1235.1000;0.4200;0.8708;
1235.4000;0.4225;0.8755;
1235.7000;0.4200;0.8755;
1236.0000;0.4200;0.8802;
1236.3000;0.4192;0.8778;
1236.6000;0.4200;0.8755;
1236.9000;0.4184;0.8778;
1237.2000;0.4200;0.8872;
1237.5000;0.4184;0.8849;
1237.8000;0.4176;0.8778;
1238.1000;0.4192;0.8732;
1238.4000;0.4200;0.8755;
1238.7000;0.4217;0.8802;
1239.0000;0.4184;0.8708;
1239.3000;0.4200;0.8755;
1239.6000;0.4217;0.8755;
1239.9000;0.4192;0.8732;
1240.2000;0.4208;0.8778;
1240.5000;0.4217;0.8778;
1240.8000;0.4168;0.8755;
1241.1000;0.4200;0.8872;
1241.4000;0.4208;0.8896;
1241.7000;0.4208;0.8872;
1242.0000;0.4217;0.8896;
1242.3000;0.4200;0.8872;
1242.6000;0.4192;0.8802;
1242.9000;0.4217;0.8966;
1243.2000;0.4200;0.8990;
1243.5000;0.4200;0.8990;
1243.8000;0.4217;0.9107;
1244.1000;0.4241;0.9060;
1244.4000;0.4208;0.8943;
1244.7000;0.4257;0.8990;
1245.0000;0.4192;0.8849;
1245.3000;0.4184;0.8896;
1245.6000;0.4200;0.8849;
1245.9000;0.4184;0.8755;
1246.2000;0.4200;0.8755;
1246.5000;0.4184;0.8685;
1246.8000;0.4176;0.8661;
1247.1000;0.4151;0.8520;
1247.4000;0.4200;0.8614;
1247.7000;0.4160;0.8544;
1248.0000;0.4184;0.8497;
1248.3000;0.4200;0.8661;
1248.6000;0.4200;0.8732;
1248.9000;0.4160;0.8567;
1249.2000;0.4200;0.8708;
1249.5000;0.4208;0.8732;
1249.8000;0.4208;0.8802;
1250.1000;0.4200;0.8732;
1250.4000;0.4208;0.8872;
1250.7000;0.4208;0.8849;
1251.0000;0.4208;0.8849;
1251.3000;0.4241;0.8849;
1251.6000;0.4176;0.8661;
1251.9000;0.4184;0.8661;
1252.2000;0.4233;0.8661;
1252.5000;0.4184;0.8591;
1252.8000;0.4208;0.8614;
1253.1000;0.4192;0.8638;
1253.4000;0.4184;0.8661;
1253.7000;0.4217;0.8732;
1254.0000;0.4200;0.8661;
1254.3000;0.4192;0.8732;
1254.6000;0.4208;0.8755;
1254.9000;0.4143;0.8661;
1255.2000;0.4184;0.8755;
1255.5000;0.4200;0.8802;
1255.8000;0.4103;0.8544;
1256.1000;0.4192;0.8778;
1256.4000;0.4192;0.8755;
1256.7000;0.4184;0.8732;
1257.0000;0.4217;0.8755;
1257.3000;0.4184;0.8685;
1257.6000;0.4192;0.8802;
1257.9000;0.4192;0.8778;
1258.2000;0.4208;0.8685;
1258.5000;0.4192;0.8755;
1258.8000;0.4200;0.8778;
1259.1000;0.4192;0.8802;
1259.4000;0.4200;0.8802;
1259.7000;0.4208;0.8896;
1260.0000;0.4225;0.8849;
1260.3000;0.4184;0.8778;
1260.6000;0.4208;0.8872;
1260.9000;0.4208;0.8943;
1261.2000;0.4257;0.9013;
1261.5000;0.4192;0.8896;
1261.8000;0.4265;0.8990;
1262.1000;0.4200;0.8849;
1262.4000;0.4184;0.8825;
1262.7000;0.4208;0.8896;
1263.0000;0.4200;0.8872;
1263.3000;0.4200;0.8872;
1263.6000;0.4387;0.9365;
1263.9000;0.4200;0.8825;
1264.2000;0.4192;0.8825;
1264.5000;0.4208;0.8825;
1264.8000;0.4241;0.8825;
1265.1000;0.4192;0.8778;
1265.4000;0.4265;0.8849;
1265.7000;0.4200;0.8732;
1266.0000;0.4192;0.8755;
1266.3000;0.4192;0.8732;
1266.6000;0.4168;0.8685;
1266.9000;0.4192;0.8802;
1267.2000;0.4208;0.8825;
1267.5000;0.4200;0.8802;
1267.8000;0.4200;0.8872;
1268.1000;0.4233;0.8943;
1268.4000;0.4200;0.8872;
1268.7000;0.4217;0.8919;
1269.0000;0.4192;0.8849;
1269.3000;0.4192;0.8778;
1269.6000;0.4184;0.8638;
1269.9000;0.4200;0.8755;
1270.2000;0.4200;0.8708;
1270.5000;0.4151;0.8685;
1270.8000;0.4184;0.8755;
1271.1000;0.4135;0.8614;
1271.4000;0.4192;0.8755;
1271.7000;0.4208;0.8825;
1272.0000;0.4176;0.8872;
1272.3000;0.4184;0.8943;
1272.6000;0.4192;0.8872;
1272.9000;0.4176;0.8802;
1273.2000;0.4200;0.8778;
1273.5000;0.4208;0.8708;
1273.8000;0.4192;0.8685;
1274.1000;0.4208;0.8732;
1274.4000;0.4200;0.8708;
1274.7000;0.4282;0.8943;
1275.0000;0.4200;0.8802;
1275.3000;0.4233;0.8825;
1275.6000;0.4184;0.8732;
1275.9000;0.4192;0.8778;
1276.2000;0.4184;0.8778;
1276.5000;0.4200;0.8825;
1276.8000;0.4184;0.8732;
1277.1000;0.4200;0.8778;
1277.4000;0.4192;0.8778;
1277.7000;0.4168;0.8661;
1278.0000;0.4192;0.8802;
1278.3000;0.4184;0.8778;
1278.6000;0.4176;0.8685;
1278.9000;0.4208;0.8802;
1279.2000;0.4184;0.8732;
1279.5000;0.4176;0.8755;
1279.8000;0.4200;0.8755;
1280.1000;0.4217;0.8802;
1280.4000;0.4192;0.8732;
1280.7000;0.4208;0.8825;
1281.0000;0.4151;0.8614;
1281.3000;0.4200;0.8708;
1281.6000;0.4184;0.8661;
1281.9000;0.4233;0.8802;
1282.2000;0.4200;0.8732;
1282.5000;0.4225;0.8849;
1282.8000;0.4217;0.8778;
1283.1000;0.4208;0.8732;
1283.4000;0.4200;0.8778;
1283.7000;0.4184;0.8732;
1284.0000;0.4208;0.8872;
1284.3000;0.4143;0.8638;
1284.6000;0.4208;0.8802;
1284.9000;0.4217;0.8825;
1285.2000;0.4192;0.8685;
1285.5000;0.4200;0.8661;
1285.8000;0.4037;0.8286;
1286.1000;0.4249;0.8802;
1286.4000;0.4208;0.8661;
1286.7000;0.4176;0.8661;
1287.0000;0.4176;0.8685;
1287.3000;0.4225;0.8849;
1287.6000;0.4233;0.8802;
1287.9000;0.4200;0.8732;
1288.2000;0.4176;0.8708;
1288.5000;0.4200;0.8732;
1288.8000;0.4184;0.8732;
1289.1000;0.4184;0.8732;
1289.4000;0.4176;0.8732;
1289.7000;0.4200;0.8802;
1290.0000;0.4200;0.8802;
1290.3000;0.4208;0.8778;
1290.6000;0.4184;0.8661;
1290.9000;0.4168;0.8567;
1291.2000;0.4192;0.8638;
1291.5000;0.4127;0.8614;
1291.8000;0.4184;0.8755;
1292.1000;0.4184;0.8802;
1292.4000;0.4184;0.8872;
1292.7000;0.4200;0.8849;
1293.0000;0.4200;0.8872;
1293.3000;0.4208;0.8919;
1293.6000;0.4192;0.8919;
1293.9000;0.4200;0.8943;
1294.2000;0.4192;0.8872;
1294.5000;0.4184;0.8778;
1294.8000;0.4208;0.8755;
1295.1000;0.4249;0.8919;
1295.4000;0.4241;0.8990;
1295.7000;0.4208;0.8919;
1296.0000;0.4176;0.8896;
1296.3000;0.4192;0.8849;
1296.6000;0.4127;0.8614;
1296.9000;0.4200;0.8802;
1297.2000;0.4200;0.8825;
1297.5000;0.4225;0.8966;
1297.8000;0.4208;0.8896;
1298.1000;0.4176;0.8849;
1298.4000;0.4184;0.8802;
1298.7000;0.4192;0.8755;
1299.0000;0.4200;0.8755;
1299.3000;0.4208;0.8825;
1299.6000;0.4192;0.8755;
1299.9000;0.4176;0.8732;
1300.2000;0.4143;0.8638;
1300.5000;0.4192;0.8732;
1300.8000;0.4192;0.8755;
1301.1000;0.4176;0.8755;
1301.4000;0.4192;0.8778;
1301.7000;0.4111;0.8567;
1302.0000;0.4192;0.8849;
1302.3000;0.4168;0.8755;
1302.6000;0.4192;0.8872;
1302.9000;0.4200;0.8966;
1303.2000;0.4200;0.8896;
1303.5000;0.4184;0.8896;
1303.8000;0.4184;0.8849;
1304.1000;0.4176;0.8896;
1304.4000;0.4265;0.9107;
1304.7000;0.4192;0.8849;
1305.0000;0.4200;0.8849;
1305.3000;0.4208;0.8802;
1305.6000;0.4208;0.8778;
1305.9000;0.4160;0.8685;
1306.2000;0.4200;0.8778;
1306.5000;0.4192;0.8778;
1306.8000;0.4168;0.8849;
1307.1000;0.4200;0.8919;
1307.4000;0.4192;0.8825;
1307.7000;0.4119;0.8591;
1308.0000;0.4184;0.8708;
1308.3000;0.4208;0.8778;
1308.6000;0.4200;0.8732;
1308.9000;0.4217;0.8802;
1309.2000;0.4184;0.8755;
1309.5000;0.4208;0.8872;
1309.8000;0.4151;0.8661;
1310.1000;0.4168;0.8732;
1310.4000;0.4184;0.8732;
1310.7000;0.4184;0.8849;
1311.0000;0.4184;0.8802;
1311.3000;0.4249;0.8919;
1311.6000;0.4200;0.8778;
1311.9000;0.4192;0.8802;
1312.2000;0.4192;0.8661;
1312.5000;0.4200;0.8685;
1312.8000;0.4168;0.8567;
1313.1000;0.4192;0.8614;
1313.4000;0.4217;0.8591;
1313.7000;0.4192;0.8544;
1314.0000;0.4184;0.8520;
1314.3000;0.4208;0.8591;
1314.6000;0.4208;0.8520;
1314.9000;0.4200;0.8497;
1315.2000;0.4192;0.8544;
1315.5000;0.4176;0.8567;
1315.8000;0.4192;0.8708;
1316.1000;0.4143;0.8638;
1316.4000;0.4192;0.8778;
1316.7000;0.4217;0.8802;
1317.0000;0.4200;0.8778;
1317.3000;0.4184;0.8708;
1317.6000;0.4184;0.8802;
1317.9000;0.4184;0.8872;
1318.2000;0.4217;0.8849;
1318.5000;0.4208;0.8778;
1318.8000;0.4208;0.8802;
1319.1000;0.4217;0.8708;
1319.4000;0.4217;0.8802;
1319.7000;0.4200;0.8755;
1320.0000;0.4200;0.8755;
1320.3000;0.4184;0.8778;
1320.6000;0.4192;0.8825;
1320.9000;0.4200;0.8872;
1321.2000;0.4184;0.8849;
1321.5000;0.4184;0.8802;
1321.8000;0.4168;0.8778;
1322.1000;0.4200;0.8755;
1322.4000;0.4233;0.8896;
1322.7000;0.4192;0.8802;
1323.0000;0.4200;0.8825;
1323.3000;0.4200;0.8872;
1323.6000;0.4217;0.8872;
1323.9000;0.4151;0.8732;
1324.2000;0.4094;0.8661;
1324.5000;0.4200;0.8966;
1324.8000;0.4192;0.8919;
1325.1000;0.4192;0.8919;
1325.4000;0.4200;0.8896;
1325.7000;0.4192;0.8872;
1326.0000;0.4160;0.8685;
1326.3000;0.4200;0.8755;
1326.6000;0.4184;0.8778;
1326.9000;0.4160;0.8732;
1327.2000;0.4168;0.8755;
1327.5000;0.4200;0.8802;
1327.8000;0.4184;0.8896;
1328.1000;0.4200;0.8919;
1328.4000;0.4208;0.8896;
1328.7000;0.4282;0.9060;
1329.0000;0.4208;0.8872;
1329.3000;0.4200;0.8849;
1329.6000;0.4208;0.8849;
1329.9000;0.4208;0.8825;
1330.2000;0.4192;0.8802;
1330.5000;0.4192;0.8849;
1330.8000;0.4200;0.8825;
1331.1000;0.4208;0.8802;
1331.4000;0.4200;0.8732;
1331.7000;0.4192;0.8638;
1332.0000;0.4208;0.8708;
1332.3000;0.4208;0.8732;
1332.6000;0.4192;0.8708;
1332.9000;0.4208;0.8732;
1333.2000;0.4225;0.8755;
1333.5000;0.4200;0.8755;
1333.8000;0.4192;0.8732;
1334.1000;0.4200;0.8872;
1334.4000;0.4200;0.8755;
1334.7000;0.4184;0.8802;
1335.0000;0.4192;0.8849;
1335.3000;0.4184;0.8825;
1335.6000;0.4184;0.8802;
1335.9000;0.4176;0.8778;
1336.2000;0.4168;0.8802;
1336.5000;0.4192;0.8849;
1336.8000;0.4184;0.8825;
1337.1000;0.4208;0.8919;
1337.4000;0.4200;0.8872;
1337.7000;0.4200;0.8825;
1338.0000;0.4200;0.8802;
1338.3000;0.4200;0.8755;
1338.6000;0.4200;0.8802;
1338.9000;0.4192;0.8825;
1339.2000;0.4184;0.8849;
1339.5000;0.4200;0.8849;
1339.8000;0.4208;0.8872;
1340.1000;0.4184;0.8755;
1340.4000;0.4200;0.8802;
1340.7000;0.4208;0.8825;
1341.0000;0.4200;0.8755;
1341.3000;0.4233;0.8825;
1341.6000;0.4208;0.8708;
1341.9000;0.4184;0.8614;
1342.2000;0.4192;0.8661;
1342.5000;0.4200;0.8638;
1342.8000;0.4192;0.8685;
1343.1000;0.4184;0.8685;
1343.4000;0.4200;0.8708;
1343.7000;0.4160;0.8614;
1344.0000;0.4208;0.8708;
1344.3000;0.4192;0.8661;
1344.6000;0.4282;0.8872;
1344.9000;0.4184;0.8638;
1345.2000;0.4200;0.8661;
1345.5000;0.4217;0.8732;
1345.8000;0.4249;0.8849;
1346.1000;0.4200;0.8732;
1346.4000;0.4192;0.8661;
1346.7000;0.4192;0.8685;
1347.0000;0.4200;0.8708;
1347.3000;0.4208;0.8732;
1347.6000;0.4192;0.8755;
1347.9000;0.4184;0.8755;
1348.2000;0.4143;0.8661;
1348.5000;0.4192;0.8755;
1348.8000;0.4176;0.8778;
1349.1000;0.4176;0.8802;
1349.4000;0.4192;0.8872;
1349.7000;0.4168;0.8802;
1350.0000;0.4192;0.8778;
1350.3000;0.4192;0.8732;
1350.6000;0.4184;0.8732;
1350.9000;0.4192;0.8732;
1351.2000;0.4200;0.8755;
1351.5000;0.4208;0.8685;
1351.8000;0.4208;0.8591;
1352.1000;0.4208;0.8708;
1352.4000;0.4192;0.8591;
1352.7000;0.4208;0.8661;
1353.0000;0.4192;0.8614;
1353.3000;0.4168;0.8614;
1353.6000;0.4208;0.8755;
1353.9000;0.4176;0.8708;
1354.2000;0.4192;0.8755;
1354.5000;0.4200;0.8661;
1354.8000;0.4249;0.8778;
1355.1000;0.4200;0.8591;
1355.4000;0.4184;0.8497;
1355.7000;0.4192;0.8567;
1356.0000;0.4184;0.8638;
1356.3000;0.4192;0.8567;
1356.6000;0.4160;0.8520;
1356.9000;0.4233;0.8708;
1357.2000;0.4208;0.8614;
1357.5000;0.4208;0.8614;
1357.8000;0.4176;0.8497;
1358.1000;0.4192;0.8591;
1358.4000;0.4192;0.8567;
1358.7000;0.4184;0.8591;
1359.0000;0.4192;0.8591;
1359.3000;0.4200;0.8685;
1359.6000;0.4176;0.8567;
1359.9000;0.4168;0.8567;
1360.2000;0.4192;0.8661;
1360.5000;0.4176;0.8685;
1360.8000;0.4282;0.8849;
1361.1000;0.4208;0.8591;
1361.4000;0.4225;0.8638;
1361.7000;0.4192;0.8544;
1362.0000;0.4241;0.8638;
1362.3000;0.4200;0.8567;
1362.6000;0.4184;0.8544;
1362.9000;0.4200;0.8638;
1363.2000;0.4192;0.8638;
1363.5000;0.4094;0.8473;
1363.8000;0.4192;0.8732;
1364.1000;0.4192;0.8825;
1364.4000;0.4192;0.8802;
1364.7000;0.4184;0.8755;
1365.0000;0.4192;0.8755;
1365.3000;0.4200;0.8778;
1365.6000;0.4184;0.8778;
1365.9000;0.4200;0.8755;
1366.2000;0.4208;0.8708;
1366.5000;0.4192;0.8778;
1366.8000;0.4217;0.8778;
1367.1000;0.4184;0.8825;
1367.4000;0.4184;0.8802;
1367.7000;0.4208;0.8849;
1368.0000;0.4184;0.8708;
1368.3000;0.4200;0.8685;
1368.6000;0.4208;0.8802;
1368.9000;0.4200;0.8872;
1369.2000;0.4217;0.8919;
1369.5000;0.4184;0.8825;
1369.8000;0.4176;0.8919;
1370.1000;0.4192;0.8919;
1370.4000;0.4119;0.8778;
1370.7000;0.4184;0.8896;
1371.0000;0.4200;0.8872;
1371.3000;0.4184;0.8849;
1371.6000;0.4241;0.8990;
1371.9000;0.4168;0.8614;
1372.2000;0.4160;0.8520;
1372.5000;0.4200;0.8614;
1372.8000;0.4168;0.8591;
1373.1000;0.4176;0.8567;
1373.4000;0.4192;0.8591;
1373.7000;0.4184;0.8544;
1374.0000;0.4200;0.8638;
1374.3000;0.4184;0.8591;
1374.6000;0.4184;0.8614;
1374.9000;0.4192;0.8661;
1375.2000;0.4217;0.8732;
1375.5000;0.4192;0.8685;
1375.8000;0.4192;0.8567;
1376.1000;0.4176;0.8497;
1376.4000;0.4192;0.8497;
1376.7000;0.4217;0.8614;
1377.0000;0.4184;0.8661;
1377.3000;0.4176;0.8685;
1377.6000;0.4282;0.8896;
1377.9000;0.4200;0.8685;
1378.2000;0.4225;0.8685;
1378.5000;0.4208;0.8567;
1378.8000;0.4200;0.8544;
1379.1000;0.4217;0.8567;
1379.4000;0.4192;0.8497;
1379.7000;0.4208;0.8473;
1380.0000;0.4200;0.8497;
1380.3000;0.4208;0.8497;
1380.6000;0.4200;0.8591;
1380.9000;0.4208;0.8661;
1381.2000;0.4217;0.8732;
1381.5000;0.4192;0.8685;
1381.8000;0.4200;0.8778;
1382.1000;0.4168;0.8685;
1382.4000;0.4233;0.8943;
1382.7000;0.4200;0.8849;
1383.0000;0.4200;0.8872;
1383.3000;0.4184;0.8849;
1383.6000;0.4192;0.8755;
1383.9000;0.4200;0.8849;
1384.2000;0.4176;0.8708;
1384.5000;0.4217;0.8872;
1384.8000;0.4192;0.8896;
1385.1000;0.4200;0.8778;
1385.4000;0.4192;0.8685;
1385.7000;0.4184;0.8638;
1386.0000;0.4151;0.8473;
1386.3000;0.4184;0.8567;
1386.6000;0.4184;0.8638;
1386.9000;0.4208;0.8661;
1387.2000;0.4208;0.8638;
1387.5000;0.4176;0.8638;
1387.8000;0.4200;0.8755;
1388.1000;0.4200;0.8755;
1388.4000;0.4192;0.8661;
1388.7000;0.4143;0.8614;
1389.0000;0.4192;0.8661;
1389.3000;0.4200;0.8638;
1389.6000;0.4160;0.8473;
1389.9000;0.4176;0.8473;
1390.2000;0.4200;0.8520;
1390.5000;0.4200;0.8638;
1390.8000;0.4200;0.8591;
1391.1000;0.4192;0.8614;
1391.4000;0.4184;0.8567;
1391.7000;0.4184;0.8591;
1392.0000;0.4184;0.8544;
1392.3000;0.4217;0.8661;
1392.6000;0.4192;0.8591;
1392.9000;0.4184;0.8520;
1393.2000;0.4168;0.8473;
1393.5000;0.4176;0.8567;
1393.8000;0.4176;0.8591;
1394.1000;0.4200;0.8638;
1394.4000;0.4208;0.8708;
1394.7000;0.4192;0.8591;
1395.0000;0.4208;0.8591;
1395.3000;0.4200;0.8567;
1395.6000;0.4160;0.8497;
1395.9000;0.4192;0.8544;
1396.2000;0.4192;0.8591;
1396.5000;0.4200;0.8638;
1396.8000;0.4184;0.8661;
1397.1000;0.4192;0.8661;
1397.4000;0.4160;0.8591;
1397.7000;0.4151;0.8497;
1398.0000;0.4184;0.8614;
1398.3000;0.4225;0.8685;
1398.6000;0.4200;0.8567;
1398.9000;0.4208;0.8614;
1399.2000;0.4192;0.8567;
1399.5000;0.4241;0.8614;
1399.8000;0.4200;0.8473;
