time/ms;Fluo/V;P700 deltaI/I x10³;
-199.8000;0.4965;1.4664;
-199.5000;0.4949;1.4688;
-199.2000;0.4917;1.4664;
-198.9000;0.4949;1.4688;
-198.6000;0.4957;1.4713;
-198.3000;0.4941;1.4639;
-198.0000;0.4933;1.4639;
-197.7000;0.4941;1.4639;
-197.4000;0.4917;1.4590;
-197.1000;0.4933;1.4639;
-196.8000;0.4941;1.4566;
-196.5000;0.4941;1.4566;
-196.2000;0.4941;1.4615;
-195.9000;0.4949;1.4566;
-195.6000;0.4949;1.4639;
-195.3000;0.4941;1.4566;
-195.0000;0.4925;1.4566;
-194.7000;0.4933;1.4590;
-194.4000;0.4933;1.4541;
-194.1000;0.4908;1.4517;
-193.8000;0.4965;1.4590;
-193.5000;0.4949;1.4541;
-193.2000;0.4941;1.4615;
-192.9000;0.4933;1.4541;
-192.6000;0.4949;1.4590;
-192.3000;0.4917;1.4590;
-192.0000;0.4925;1.4639;
-191.7000;0.4941;1.4713;
-191.4000;0.4933;1.4761;
-191.1000;0.4933;1.4786;
-190.8000;0.4933;1.4786;
-190.5000;0.4925;1.4859;
-190.2000;0.4933;1.4810;
-189.9000;0.4925;1.4884;
-189.6000;0.4933;1.4932;
-189.3000;0.4949;1.4932;
-189.0000;0.4925;1.4859;
-188.7000;0.4933;1.4786;
-188.4000;0.4933;1.4737;
-188.1000;0.4982;1.4761;
-187.8000;0.4925;1.4615;
-187.5000;0.4933;1.4639;
-187.2000;0.4949;1.4761;
-186.9000;0.4957;1.4810;
-186.6000;0.4933;1.4713;
-186.3000;0.4933;1.4688;
-186.0000;0.4941;1.4688;
-185.7000;0.4925;1.4688;
-185.4000;0.4925;1.4590;
-185.1000;0.4925;1.4541;
-184.8000;0.4957;1.4688;
-184.5000;0.4957;1.4786;
-184.2000;0.4949;1.4688;
-183.9000;0.4933;1.4615;
-183.6000;0.4941;1.4688;
-183.3000;0.4990;1.4786;
-183.0000;0.4941;1.4786;
-182.7000;0.4933;1.4810;
-182.4000;0.4941;1.4713;
-182.1000;0.4949;1.4713;
-181.8000;0.4949;1.4737;
-181.5000;0.4933;1.4688;
-181.2000;0.4941;1.4713;
-180.9000;0.4925;1.4737;
-180.6000;0.4933;1.4761;
-180.3000;0.4974;1.4810;
-180.0000;0.4949;1.4713;
-179.7000;0.4933;1.4688;
-179.4000;0.4941;1.4810;
-179.1000;0.4949;1.4786;
-178.8000;0.4941;1.4786;
-178.5000;0.4941;1.4786;
-178.2000;0.4949;1.4835;
-177.9000;0.4941;1.4810;
-177.6000;0.4925;1.4835;
-177.3000;0.4974;1.4957;
-177.0000;0.4949;1.4810;
-176.7000;0.4957;1.4884;
-176.4000;0.4941;1.4908;
-176.1000;0.4949;1.4884;
-175.8000;0.4941;1.4835;
-175.5000;0.4949;1.4810;
-175.2000;0.5039;1.5030;
-174.9000;0.4941;1.4761;
-174.6000;0.4949;1.4786;
-174.3000;0.4941;1.4761;
-174.0000;0.4949;1.4737;
-173.7000;0.4941;1.4835;
-173.4000;0.4957;1.4859;
-173.1000;0.4949;1.4835;
-172.8000;0.4941;1.4810;
-172.5000;0.4957;1.4761;
-172.2000;0.5039;1.5006;
-171.9000;0.4908;1.4786;
-171.6000;0.4949;1.4932;
-171.3000;0.4982;1.5079;
-171.0000;0.4949;1.4908;
-170.7000;0.4933;1.4908;
-170.4000;0.4949;1.4884;
-170.1000;0.4974;1.4835;
-169.8000;0.4908;1.4639;
-169.5000;0.4933;1.4590;
-169.2000;0.4941;1.4590;
-168.9000;0.4949;1.4639;
-168.6000;0.4933;1.4639;
-168.3000;0.4933;1.4737;
-168.0000;0.4941;1.4737;
-167.7000;0.4892;1.4517;
-167.4000;0.4908;1.4566;
-167.1000;0.4925;1.4615;
-166.8000;0.4982;1.4810;
-166.5000;0.4949;1.4713;
-166.2000;0.4941;1.4761;
-165.9000;0.4917;1.4664;
-165.6000;0.4925;1.4688;
-165.3000;0.4917;1.4615;
-165.0000;0.4917;1.4615;
-164.7000;0.4908;1.4664;
-164.4000;0.4925;1.4713;
-164.1000;0.4949;1.4688;
-163.8000;0.4949;1.4737;
-163.5000;0.5006;1.4957;
-163.2000;0.4925;1.4688;
-162.9000;0.4933;1.4639;
-162.6000;0.4957;1.4615;
-162.3000;0.4957;1.4566;
-162.0000;0.4884;1.4395;
-161.7000;0.4941;1.4493;
-161.4000;0.4949;1.4566;
-161.1000;0.4941;1.4566;
-160.8000;0.4941;1.4541;
-160.5000;0.4974;1.4688;
-160.2000;0.4949;1.4639;
-159.9000;0.4949;1.4664;
-159.6000;0.4949;1.4713;
-159.3000;0.4957;1.4786;
-159.0000;0.4917;1.4639;
-158.7000;0.4949;1.4639;
-158.4000;0.4949;1.4493;
-158.1000;0.4949;1.4493;
-157.8000;0.4949;1.4517;
-157.5000;0.4965;1.4615;
-157.2000;0.4941;1.4566;
-156.9000;0.4982;1.4639;
-156.6000;0.4957;1.4541;
-156.3000;0.4933;1.4493;
-156.0000;0.4900;1.4395;
-155.7000;0.4933;1.4493;
-155.4000;0.4949;1.4493;
-155.1000;0.4941;1.4468;
-154.8000;0.4949;1.4444;
-154.5000;0.4925;1.4419;
-154.2000;0.4949;1.4517;
-153.9000;0.4917;1.4541;
-153.6000;0.4941;1.4566;
-153.3000;0.4925;1.4468;
-153.0000;0.4941;1.4444;
-152.7000;0.4957;1.4444;
-152.4000;0.4908;1.4419;
-152.1000;0.4925;1.4444;
-151.8000;0.4941;1.4566;
-151.5000;0.4941;1.4639;
-151.2000;0.4957;1.4688;
-150.9000;0.4933;1.4615;
-150.6000;0.4933;1.4517;
-150.3000;0.4949;1.4615;
-150.0000;0.4925;1.4541;
-149.7000;0.4933;1.4444;
-149.4000;0.4925;1.4493;
-149.1000;0.4925;1.4468;
-148.8000;0.4925;1.4419;
-148.5000;0.4957;1.4419;
-148.2000;0.4933;1.4297;
-147.9000;0.4933;1.4346;
-147.6000;0.4957;1.4395;
-147.3000;0.4957;1.4419;
-147.0000;0.4949;1.4370;
-146.7000;0.4941;1.4346;
-146.4000;0.4941;1.4419;
-146.1000;0.4925;1.4395;
-145.8000;0.4892;1.4297;
-145.5000;0.4949;1.4444;
-145.2000;0.4949;1.4444;
-144.9000;0.4941;1.4468;
-144.6000;0.4933;1.4517;
-144.3000;0.4925;1.4566;
-144.0000;0.4908;1.4517;
-143.7000;0.4941;1.4566;
-143.4000;0.4949;1.4590;
-143.1000;0.4957;1.4541;
-142.8000;0.4933;1.4468;
-142.5000;0.4949;1.4493;
-142.2000;0.4941;1.4419;
-141.9000;0.4933;1.4370;
-141.6000;0.4933;1.4419;
-141.3000;0.4933;1.4444;
-141.0000;0.4933;1.4370;
-140.7000;0.4925;1.4370;
-140.4000;0.4925;1.4395;
-140.1000;0.4933;1.4444;
-139.8000;0.4949;1.4493;
-139.5000;0.4941;1.4444;
-139.2000;0.4925;1.4444;
-138.9000;0.4941;1.4468;
-138.6000;0.4949;1.4566;
-138.3000;0.4925;1.4590;
-138.0000;0.4982;1.4639;
-137.7000;0.4957;1.4493;
-137.4000;0.4917;1.4419;
-137.1000;0.4941;1.4468;
-136.8000;0.4925;1.4468;
-136.5000;0.5022;1.4737;
-136.2000;0.4941;1.4541;
-135.9000;0.4941;1.4615;
-135.6000;0.4908;1.4664;
-135.3000;0.4933;1.4688;
-135.0000;0.4876;1.4566;
-134.7000;0.4933;1.4664;
-134.4000;0.4941;1.4639;
-134.1000;0.4965;1.4664;
-133.8000;0.4925;1.4493;
-133.5000;0.4957;1.4590;
-133.2000;0.4925;1.4590;
-132.9000;0.4949;1.4517;
-132.6000;0.4933;1.4517;
-132.3000;0.4925;1.4395;
-132.0000;0.4974;1.4493;
-131.7000;0.4925;1.4370;
-131.4000;0.4941;1.4321;
-131.1000;0.4957;1.4370;
-130.8000;0.4949;1.4346;
-130.5000;0.4925;1.4248;
-130.2000;0.4908;1.4175;
-129.9000;0.4908;1.4150;
-129.6000;0.4941;1.4248;
-129.3000;0.4925;1.4346;
-129.0000;0.4925;1.4419;
-128.7000;0.4925;1.4419;
-128.4000;0.4949;1.4493;
-128.1000;0.4917;1.4493;
-127.8000;0.4917;1.4517;
-127.5000;0.4957;1.4590;
-127.2000;0.4917;1.4468;
-126.9000;0.4925;1.4346;
-126.6000;0.4933;1.4395;
-126.3000;0.4933;1.4395;
-126.0000;0.4941;1.4468;
-125.7000;0.4933;1.4444;
-125.4000;0.4941;1.4444;
-125.1000;0.4925;1.4444;
-124.8000;0.4892;1.4370;
-124.5000;0.4933;1.4419;
-124.2000;0.4949;1.4444;
-123.9000;0.4933;1.4468;
-123.6000;0.4965;1.4541;
-123.3000;0.4941;1.4468;
-123.0000;0.4941;1.4468;
-122.7000;0.4982;1.4615;
-122.4000;0.4933;1.4468;
-122.1000;0.4965;1.4541;
-121.8000;0.4933;1.4468;
-121.5000;0.4949;1.4419;
-121.2000;0.4933;1.4395;
-120.9000;0.4941;1.4419;
-120.6000;0.4941;1.4321;
-120.3000;0.4933;1.4395;
-120.0000;0.4941;1.4419;
-119.7000;0.4941;1.4419;
-119.4000;0.4925;1.4419;
-119.1000;0.4941;1.4419;
-118.8000;0.4933;1.4468;
-118.5000;0.4917;1.4395;
-118.2000;0.4957;1.4395;
-117.9000;0.4941;1.4395;
-117.6000;0.4941;1.4444;
-117.3000;0.4941;1.4444;
-117.0000;0.4925;1.4370;
-116.7000;0.4990;1.4541;
-116.4000;0.4925;1.4321;
-116.1000;0.4933;1.4370;
-115.8000;0.4990;1.4517;
-115.5000;0.4925;1.4346;
-115.2000;0.4941;1.4493;
-114.9000;0.4925;1.4468;
-114.6000;0.4949;1.4541;
-114.3000;0.4949;1.4541;
-114.0000;0.4933;1.4590;
-113.7000;0.4933;1.4541;
-113.4000;0.4949;1.4493;
-113.1000;0.4941;1.4444;
-112.8000;0.4941;1.4419;
-112.5000;0.4957;1.4444;
-112.2000;0.4941;1.4395;
-111.9000;0.4957;1.4395;
-111.6000;0.4941;1.4493;
-111.3000;0.4941;1.4541;
-111.0000;0.4917;1.4468;
-110.7000;0.4917;1.4395;
-110.4000;0.4941;1.4444;
-110.1000;0.4941;1.4444;
-109.8000;0.4965;1.4419;
-109.5000;0.4941;1.4346;
-109.2000;0.4933;1.4370;
-108.9000;0.4949;1.4419;
-108.6000;0.4941;1.4419;
-108.3000;0.4941;1.4419;
-108.0000;0.4957;1.4566;
-107.7000;0.4949;1.4517;
-107.4000;0.4949;1.4566;
-107.1000;0.4925;1.4493;
-106.8000;0.4949;1.4590;
-106.5000;0.4933;1.4639;
-106.2000;0.4949;1.4590;
-105.9000;0.4933;1.4566;
-105.6000;0.4949;1.4639;
-105.3000;0.4949;1.4615;
-105.0000;0.4925;1.4493;
-104.7000;0.4941;1.4517;
-104.4000;0.4957;1.4541;
-104.1000;0.4949;1.4493;
-103.8000;0.4917;1.4395;
-103.5000;0.4933;1.4517;
-103.2000;0.4860;1.4321;
-102.9000;0.4949;1.4517;
-102.6000;0.4957;1.4517;
-102.3000;0.4965;1.4541;
-102.0000;0.4965;1.4541;
-101.7000;0.4917;1.4395;
-101.4000;0.4957;1.4468;
-101.1000;0.4941;1.4444;
-100.8000;0.4965;1.4615;
-100.5000;0.4941;1.4493;
-100.2000;0.4949;1.4468;
-99.9000;0.4941;1.4493;
-99.6000;0.4925;1.4444;
-99.3000;0.5047;1.4713;
-99.0000;0.4933;1.4370;
-98.7000;0.4925;1.4395;
-98.4000;0.4941;1.4419;
-98.1000;0.4933;1.4419;
-97.8000;0.4908;1.4395;
-97.5000;0.4917;1.4395;
-97.2000;0.4957;1.4444;
-96.9000;0.4949;1.4321;
-96.6000;0.4933;1.4273;
-96.3000;0.4917;1.4297;
-96.0000;0.4917;1.4370;
-95.7000;0.4925;1.4419;
-95.4000;0.4925;1.4419;
-95.1000;0.4925;1.4370;
-94.8000;0.4949;1.4395;
-94.5000;0.4949;1.4321;
-94.2000;0.4949;1.4346;
-93.9000;0.4949;1.4273;
-93.6000;0.4925;1.4224;
-93.3000;0.4925;1.4248;
-93.0000;0.4941;1.4321;
-92.7000;0.4941;1.4395;
-92.4000;0.4933;1.4419;
-92.1000;0.4933;1.4517;
-91.8000;0.4933;1.4590;
-91.5000;0.4941;1.4639;
-91.2000;0.4933;1.4566;
-90.9000;0.4998;1.4713;
-90.6000;0.4941;1.4590;
-90.3000;0.4925;1.4566;
-90.0000;0.4908;1.4493;
-89.7000;0.4933;1.4566;
-89.4000;0.4949;1.4566;
-89.1000;0.4949;1.4541;
-88.8000;0.4941;1.4517;
-88.5000;0.4925;1.4468;
-88.2000;0.4925;1.4419;
-87.9000;0.4941;1.4444;
-87.6000;0.4941;1.4419;
-87.3000;0.4925;1.4444;
-87.0000;0.4941;1.4444;
-86.7000;0.4900;1.4468;
-86.4000;0.4949;1.4566;
-86.1000;0.4900;1.4444;
-85.8000;0.4941;1.4517;
-85.5000;0.4941;1.4444;
-85.2000;0.4925;1.4468;
-84.9000;0.4908;1.4493;
-84.6000;0.4908;1.4493;
-84.3000;0.4933;1.4639;
-84.0000;0.4941;1.4590;
-83.7000;0.4949;1.4566;
-83.4000;0.4965;1.4566;
-83.1000;0.4925;1.4517;
-82.8000;0.4957;1.4566;
-82.5000;0.4957;1.4566;
-82.2000;0.4965;1.4566;
-81.9000;0.4957;1.4493;
-81.6000;0.4941;1.4468;
-81.3000;0.4974;1.4517;
-81.0000;0.4941;1.4517;
-80.7000;0.4957;1.4590;
-80.4000;0.4949;1.4615;
-80.1000;0.4925;1.4615;
-79.8000;0.4900;1.4517;
-79.5000;0.4925;1.4615;
-79.2000;0.4917;1.4615;
-78.9000;0.4933;1.4566;
-78.6000;0.4941;1.4566;
-78.3000;0.4941;1.4590;
-78.0000;0.4933;1.4590;
-77.7000;0.4908;1.4566;
-77.4000;0.4941;1.4664;
-77.1000;0.4900;1.4541;
-76.8000;0.4900;1.4541;
-76.5000;0.4949;1.4615;
-76.2000;0.4957;1.4590;
-75.9000;0.4933;1.4590;
-75.6000;0.4884;1.4468;
-75.3000;0.5014;1.4737;
-75.0000;0.4957;1.4590;
-74.7000;0.4933;1.4493;
-74.4000;0.4933;1.4468;
-74.1000;0.4908;1.4517;
-73.8000;0.4957;1.4566;
-73.5000;0.4957;1.4664;
-73.2000;0.4941;1.4639;
-72.9000;0.4925;1.4566;
-72.6000;0.4949;1.4615;
-72.3000;0.4925;1.4541;
-72.0000;0.4933;1.4566;
-71.7000;0.4925;1.4590;
-71.4000;0.4941;1.4664;
-71.1000;0.4933;1.4688;
-70.8000;0.4908;1.4590;
-70.5000;0.4941;1.4590;
-70.2000;0.4933;1.4590;
-69.9000;0.4925;1.4688;
-69.6000;0.4941;1.4737;
-69.3000;0.4933;1.4761;
-69.0000;0.4941;1.4737;
-68.7000;0.4933;1.4664;
-68.4000;0.4965;1.4713;
-68.1000;0.4925;1.4688;
-67.8000;0.4949;1.4786;
-67.5000;0.4957;1.4737;
-67.2000;0.4925;1.4615;
-66.9000;0.4941;1.4615;
-66.6000;0.4957;1.4615;
-66.3000;0.4965;1.4688;
-66.0000;0.4949;1.4688;
-65.7000;0.4949;1.4615;
-65.4000;0.4990;1.4737;
-65.1000;0.4925;1.4566;
-64.8000;0.4925;1.4615;
-64.5000;0.4933;1.4713;
-64.2000;0.4941;1.4664;
-63.9000;0.4949;1.4639;
-63.6000;0.4941;1.4566;
-63.3000;0.4949;1.4541;
-63.0000;0.4933;1.4493;
-62.7000;0.4957;1.4566;
-62.4000;0.4949;1.4566;
-62.1000;0.4933;1.4566;
-61.8000;0.4941;1.4590;
-61.5000;0.4917;1.4590;
-61.2000;0.4933;1.4566;
-60.9000;0.4917;1.4541;
-60.6000;0.4876;1.4346;
-60.3000;0.4925;1.4493;
-60.0000;0.4917;1.4493;
-59.7000;0.4990;1.4639;
-59.4000;0.4917;1.4419;
-59.1000;0.4949;1.4444;
-58.8000;0.4949;1.4468;
-58.5000;0.4949;1.4541;
-58.2000;0.4957;1.4566;
-57.9000;0.4957;1.4590;
-57.6000;0.4957;1.4590;
-57.3000;0.4974;1.4639;
-57.0000;0.4957;1.4590;
-56.7000;0.4941;1.4615;
-56.4000;0.4949;1.4541;
-56.1000;0.4949;1.4493;
-55.8000;0.4933;1.4468;
-55.5000;0.4941;1.4541;
-55.2000;0.5014;1.4737;
-54.9000;0.4933;1.4590;
-54.6000;0.4957;1.4639;
-54.3000;0.4941;1.4493;
-54.0000;0.4949;1.4517;
-53.7000;0.4965;1.4468;
-53.4000;0.4957;1.4468;
-53.1000;0.4884;1.4321;
-52.8000;0.4941;1.4468;
-52.5000;0.4941;1.4493;
-52.2000;0.4949;1.4566;
-51.9000;0.4941;1.4566;
-51.6000;0.4933;1.4688;
-51.3000;0.4933;1.4761;
-51.0000;0.4965;1.4835;
-50.7000;0.4917;1.4737;
-50.4000;0.4917;1.4688;
-50.1000;0.4933;1.4615;
-49.8000;0.4941;1.4590;
-49.5000;0.4941;1.4517;
-49.2000;0.4933;1.4493;
-48.9000;0.4917;1.4468;
-48.6000;0.4949;1.4541;
-48.3000;0.4925;1.4517;
-48.0000;0.4925;1.4541;
-47.7000;0.4925;1.4517;
-47.4000;0.4949;1.4517;
-47.1000;0.4949;1.4541;
-46.8000;0.4925;1.4517;
-46.5000;0.5006;1.4664;
-46.2000;0.4933;1.4370;
-45.9000;0.4925;1.4419;
-45.6000;0.4941;1.4419;
-45.3000;0.4884;1.4346;
-45.0000;0.4925;1.4566;
-44.7000;0.4933;1.4541;
-44.4000;0.4941;1.4566;
-44.1000;0.4933;1.4517;
-43.8000;0.4957;1.4493;
-43.5000;0.4941;1.4444;
-43.2000;0.4965;1.4419;
-42.9000;0.4957;1.4346;
-42.6000;0.4957;1.4419;
-42.3000;0.4949;1.4444;
-42.0000;0.4949;1.4444;
-41.7000;0.4974;1.4541;
-41.4000;0.4925;1.4395;
-41.1000;0.4908;1.4468;
-40.8000;0.4925;1.4517;
-40.5000;0.4925;1.4541;
-40.2000;0.4957;1.4590;
-39.9000;0.4941;1.4541;
-39.6000;0.4925;1.4444;
-39.3000;0.4949;1.4517;
-39.0000;0.4933;1.4468;
-38.7000;0.4941;1.4517;
-38.4000;0.4949;1.4566;
-38.1000;0.4925;1.4566;
-37.8000;0.4949;1.4566;
-37.5000;0.4925;1.4590;
-37.2000;0.4941;1.4517;
-36.9000;0.4925;1.4444;
-36.6000;0.4925;1.4468;
-36.3000;0.4933;1.4493;
-36.0000;0.4949;1.4493;
-35.7000;0.4941;1.4493;
-35.4000;0.4925;1.4541;
-35.1000;0.4941;1.4615;
-34.8000;0.4917;1.4566;
-34.5000;0.4941;1.4590;
-34.2000;0.4925;1.4590;
-33.9000;0.4974;1.4664;
-33.6000;0.4949;1.4517;
-33.3000;0.4941;1.4444;
-33.0000;0.4990;1.4493;
-32.7000;0.4941;1.4419;
-32.4000;0.4933;1.4444;
-32.1000;0.4957;1.4493;
-31.8000;0.4965;1.4468;
-31.5000;0.4933;1.4444;
-31.2000;0.4917;1.4444;
-30.9000;0.4949;1.4541;
-30.6000;0.4933;1.4468;
-30.3000;0.4925;1.4517;
-30.0000;0.4957;1.4590;
-29.7000;0.4949;1.4639;
-29.4000;0.4965;1.4688;
-29.1000;0.4949;1.4590;
-28.8000;0.4917;1.4444;
-28.5000;0.4949;1.4493;
-28.2000;0.4933;1.4468;
-27.9000;0.4949;1.4444;
-27.6000;0.4925;1.4419;
-27.3000;0.4941;1.4444;
-27.0000;0.4957;1.4493;
-26.7000;0.4941;1.4444;
-26.4000;0.4949;1.4419;
-26.1000;0.4917;1.4346;
-25.8000;0.4892;1.4321;
-25.5000;0.4908;1.4370;
-25.2000;0.4933;1.4346;
-24.9000;0.4933;1.4297;
-24.6000;0.4933;1.4321;
-24.3000;0.4908;1.4297;
-24.0000;0.4949;1.4395;
-23.7000;0.4941;1.4346;
-23.4000;0.4949;1.4370;
-23.1000;0.4941;1.4321;
-22.8000;0.4933;1.4395;
-22.5000;0.4892;1.4297;
-22.2000;0.4933;1.4468;
-21.9000;0.4957;1.4444;
-21.6000;0.4949;1.4444;
-21.3000;0.4949;1.4468;
-21.0000;0.4965;1.4541;
-20.7000;0.4974;1.4639;
-20.4000;0.4941;1.4590;
-20.1000;0.4925;1.4566;
-19.8000;0.4933;1.4541;
-19.5000;0.4892;1.4468;
-19.2000;0.4941;1.4615;
-18.9000;0.4933;1.4590;
-18.6000;0.4941;1.4590;
-18.3000;0.4925;1.4566;
-18.0000;0.4933;1.4541;
-17.7000;0.4908;1.4444;
-17.4000;0.4941;1.4493;
-17.1000;0.4957;1.4517;
-16.8000;0.4941;1.4541;
-16.5000;0.5006;1.4713;
-16.2000;0.4917;1.4615;
-15.9000;0.4925;1.4664;
-15.6000;0.4925;1.4761;
-15.3000;0.4933;1.4737;
-15.0000;0.4908;1.4639;
-14.7000;0.4941;1.4615;
-14.4000;0.4925;1.4713;
-14.1000;0.4949;1.4737;
-13.8000;0.4892;1.4541;
-13.5000;0.4925;1.4664;
-13.2000;0.4949;1.4761;
-12.9000;0.4949;1.4713;
-12.6000;0.4917;1.4737;
-12.3000;0.4957;1.4737;
-12.0000;0.4933;1.4713;
-11.7000;0.4941;1.4664;
-11.4000;0.4941;1.4664;
-11.1000;0.4941;1.4688;
-10.8000;0.4925;1.4639;
-10.5000;0.4925;1.4566;
-10.2000;0.4957;1.4566;
-9.9000;0.4933;1.4468;
-9.6000;0.4933;1.4468;
-9.3000;0.4957;1.4395;
-9.0000;0.4933;1.4468;
-8.7000;0.4982;1.4590;
-8.4000;0.4933;1.4566;
-8.1000;0.4974;1.4664;
-7.8000;0.4933;1.4468;
-7.5000;0.4949;1.4541;
-7.2000;0.4925;1.4444;
-6.9000;0.4917;1.4468;
-6.6000;0.4941;1.4444;
-6.3000;0.4957;1.4541;
-6.0000;0.4941;1.4541;
-5.7000;0.4917;1.4444;
-5.4000;0.4949;1.4493;
-5.1000;0.4851;1.4321;
-4.8000;0.4900;1.4419;
-4.5000;0.4917;1.4444;
-4.2000;0.4933;1.4419;
-3.9000;0.4941;1.4493;
-3.6000;0.4933;1.4566;
-3.3000;0.4949;1.4639;
-3.0000;0.4949;1.4615;
-2.7000;0.4949;1.4664;
-2.4000;0.4933;1.4615;
-2.1000;0.4941;1.4615;
-1.8000;0.4925;1.4541;
-1.5000;0.4908;1.4517;
-1.2000;0.4917;1.4541;
-0.9000;0.4892;1.4493;
-0.6000;0.4949;1.4541;
-0.3000;0.4933;1.4517;
0.0000;0.4933;1.4517;
0.3000;0.5006;1.4444;
0.6000;0.5177;1.4786;
0.9000;0.5332;1.5055;
1.2000;0.5429;1.5299;
1.5000;0.5495;1.5568;
1.8000;0.5576;1.5837;
2.1000;0.5633;1.6130;
2.4000;0.5665;1.6277;
2.7000;0.5698;1.6423;
3.0000;0.5706;1.6521;
3.3000;0.5739;1.6545;
3.6000;0.5763;1.6545;
3.9000;0.5771;1.6545;
4.2000;0.5788;1.6545;
4.5000;0.5845;1.6765;
4.8000;0.5845;1.6765;
5.1000;0.5877;1.6814;
5.4000;0.5926;1.6863;
5.7000;0.5893;1.6814;
6.0000;0.5983;1.6961;
6.3000;0.5934;1.6888;
6.6000;0.5926;1.6888;
6.9000;0.5934;1.7034;
7.2000;0.5958;1.7108;
7.5000;0.5975;1.7132;
7.8000;0.5958;1.7059;
8.1000;0.5999;1.7083;
8.4000;0.5983;1.7059;
8.7000;0.6007;1.7083;
9.0000;0.5999;1.7059;
9.3000;0.6056;1.7156;
9.6000;0.6032;1.7059;
9.9000;0.6040;1.7083;
10.2000;0.6024;1.7034;
10.5000;0.6048;1.7010;
10.8000;0.6048;1.6961;
11.1000;0.6072;1.7010;
11.4000;0.6064;1.7059;
11.7000;0.6089;1.7205;
12.0000;0.6089;1.7156;
12.3000;0.6097;1.7132;
12.6000;0.6064;1.7059;
12.9000;0.6089;1.7034;
13.2000;0.6064;1.7010;
13.5000;0.6129;1.7108;
13.8000;0.6097;1.7132;
14.1000;0.6081;1.7108;
14.4000;0.6097;1.7034;
14.7000;0.6129;1.7132;
15.0000;0.6064;1.6863;
15.3000;0.6211;1.7230;
15.6000;0.6138;1.7010;
15.9000;0.6146;1.7059;
16.2000;0.6146;1.7010;
16.5000;0.6170;1.7034;
16.8000;0.6097;1.6863;
17.1000;0.6113;1.6888;
17.4000;0.6170;1.7083;
17.7000;0.6203;1.7181;
18.0000;0.6170;1.7059;
18.3000;0.6170;1.7059;
18.6000;0.6178;1.6985;
18.9000;0.6260;1.7156;
19.2000;0.6162;1.7010;
19.5000;0.6178;1.7034;
19.8000;0.6170;1.6961;
20.1000;0.6235;1.7108;
20.4000;0.6195;1.7108;
20.7000;0.6203;1.7254;
21.0000;0.6203;1.7205;
21.3000;0.6203;1.7132;
21.6000;0.6203;1.7108;
21.9000;0.6178;1.7083;
22.2000;0.6219;1.7205;
22.5000;0.6219;1.7181;
22.8000;0.6203;1.7205;
23.1000;0.6227;1.7230;
23.4000;0.6211;1.7083;
23.7000;0.6227;1.7132;
24.0000;0.6235;1.7156;
24.3000;0.6235;1.7083;
24.6000;0.6235;1.6985;
24.9000;0.6252;1.6985;
25.2000;0.6235;1.7059;
25.5000;0.6219;1.7059;
25.8000;0.6227;1.7034;
26.1000;0.6235;1.7083;
26.4000;0.6243;1.7108;
26.7000;0.6235;1.7181;
27.0000;0.6227;1.7108;
27.3000;0.6243;1.7132;
27.6000;0.6219;1.7010;
27.9000;0.6268;1.7181;
28.2000;0.6243;1.7156;
28.5000;0.6235;1.7132;
28.8000;0.6260;1.7132;
29.1000;0.6243;1.7083;
29.4000;0.6252;1.7010;
29.7000;0.6252;1.7010;
30.0000;0.6235;1.6961;
30.3000;0.6260;1.7034;
30.6000;0.6260;1.6961;
30.9000;0.6276;1.7034;
31.2000;0.6284;1.6936;
31.5000;0.6284;1.6985;
31.8000;0.6276;1.6936;
32.1000;0.6284;1.6985;
32.4000;0.6284;1.6936;
32.7000;0.6276;1.6912;
33.0000;0.6325;1.7010;
33.3000;0.6276;1.6863;
33.6000;0.6260;1.6961;
33.9000;0.6276;1.7010;
34.2000;0.6284;1.6961;
34.5000;0.6260;1.6888;
34.8000;0.6252;1.6863;
35.1000;0.6276;1.6863;
35.4000;0.6276;1.6888;
35.7000;0.6292;1.6888;
36.0000;0.6276;1.6790;
36.3000;0.6276;1.6936;
36.6000;0.6276;1.6912;
36.9000;0.6284;1.6936;
37.2000;0.6276;1.6863;
37.5000;0.6284;1.6741;
37.8000;0.6276;1.6692;
38.1000;0.6309;1.6790;
38.4000;0.6268;1.6717;
38.7000;0.6284;1.6717;
39.0000;0.6292;1.6643;
39.3000;0.6309;1.6765;
39.6000;0.6300;1.6814;
39.9000;0.6292;1.6717;
40.2000;0.6284;1.6741;
40.5000;0.6292;1.6741;
40.8000;0.6243;1.6643;
41.1000;0.6300;1.6741;
41.4000;0.6292;1.6717;
41.7000;0.6365;1.6888;
42.0000;0.6341;1.6863;
42.3000;0.6252;1.6668;
42.6000;0.6309;1.6692;
42.9000;0.6300;1.6692;
43.2000;0.6300;1.6765;
43.5000;0.6292;1.6863;
43.8000;0.6292;1.6863;
44.1000;0.6268;1.6863;
44.4000;0.6309;1.6936;
44.7000;0.6292;1.6790;
45.0000;0.6300;1.6717;
45.3000;0.6300;1.6790;
45.6000;0.6300;1.6790;
45.9000;0.6309;1.6839;
46.2000;0.6309;1.6814;
46.5000;0.6300;1.6765;
46.8000;0.6325;1.6863;
47.1000;0.6300;1.6863;
47.4000;0.6317;1.6765;
47.7000;0.6309;1.6765;
48.0000;0.6317;1.6692;
48.3000;0.6325;1.6692;
48.6000;0.6317;1.6692;
48.9000;0.6300;1.6790;
49.2000;0.6317;1.6888;
49.5000;0.6349;1.7059;
49.8000;0.6333;1.6912;
50.1000;0.6325;1.6961;
50.4000;0.6341;1.6961;
50.7000;0.6325;1.6888;
51.0000;0.6341;1.6790;
51.3000;0.6309;1.6790;
51.6000;0.6317;1.6790;
51.9000;0.6317;1.6790;
52.2000;0.6341;1.6814;
52.5000;0.6333;1.6765;
52.8000;0.6317;1.6790;
53.1000;0.6390;1.6985;
53.4000;0.6333;1.6839;
53.7000;0.6325;1.6814;
54.0000;0.6325;1.6863;
54.3000;0.6292;1.6717;
54.6000;0.6325;1.6741;
54.9000;0.6317;1.6717;
55.2000;0.6325;1.6717;
55.5000;0.6341;1.6717;
55.8000;0.6325;1.6692;
56.1000;0.6341;1.6765;
56.4000;0.6317;1.6839;
56.7000;0.6341;1.6839;
57.0000;0.6333;1.6790;
57.3000;0.6325;1.6839;
57.6000;0.6333;1.6888;
57.9000;0.6333;1.6790;
58.2000;0.6341;1.6765;
58.5000;0.6349;1.6765;
58.8000;0.6349;1.6863;
59.1000;0.6349;1.6888;
59.4000;0.6333;1.6790;
59.7000;0.6357;1.6863;
60.0000;0.6325;1.6765;
60.3000;0.6325;1.6741;
60.6000;0.6341;1.6790;
60.9000;0.6357;1.6814;
61.2000;0.6317;1.6692;
61.5000;0.6325;1.6717;
61.8000;0.6349;1.6790;
62.1000;0.6341;1.6814;
62.4000;0.6341;1.6741;
62.7000;0.6349;1.6790;
63.0000;0.6349;1.6790;
63.3000;0.6333;1.6765;
63.6000;0.6341;1.6765;
63.9000;0.6341;1.6839;
64.2000;0.6317;1.6839;
64.5000;0.6349;1.6888;
64.8000;0.6341;1.6741;
65.1000;0.6333;1.6814;
65.4000;0.6309;1.6814;
65.7000;0.6341;1.6839;
66.0000;0.6382;1.6863;
66.3000;0.6357;1.6741;
66.6000;0.6341;1.6717;
66.9000;0.6349;1.6741;
67.2000;0.6357;1.6717;
67.5000;0.6357;1.6765;
67.8000;0.6365;1.6717;
68.1000;0.6341;1.6668;
68.4000;0.6365;1.6717;
68.7000;0.6357;1.6765;
69.0000;0.6325;1.6717;
69.3000;0.6365;1.6790;
69.6000;0.6390;1.6961;
69.9000;0.6365;1.6936;
70.2000;0.6349;1.6888;
70.5000;0.6357;1.6936;
70.8000;0.6365;1.6961;
71.1000;0.6365;1.6961;
71.4000;0.6357;1.7010;
71.7000;0.6365;1.7108;
72.0000;0.6365;1.7010;
72.3000;0.6365;1.7010;
72.6000;0.6374;1.6936;
72.9000;0.6317;1.6814;
73.2000;0.6333;1.6888;
73.5000;0.6357;1.6912;
73.8000;0.6341;1.6741;
74.1000;0.6333;1.6741;
74.4000;0.6365;1.6814;
74.7000;0.6374;1.6790;
75.0000;0.6374;1.6790;
75.3000;0.6325;1.6668;
75.6000;0.6365;1.6839;
75.9000;0.6357;1.6863;
76.2000;0.6349;1.6936;
76.5000;0.6357;1.7034;
76.8000;0.6357;1.7034;
77.1000;0.6341;1.7083;
77.4000;0.6365;1.7059;
77.7000;0.6357;1.6985;
78.0000;0.6382;1.7108;
78.3000;0.6325;1.7010;
78.6000;0.6341;1.7059;
78.9000;0.6341;1.7034;
79.2000;0.6414;1.7181;
79.5000;0.6341;1.7010;
79.8000;0.6292;1.6863;
80.1000;0.6341;1.6961;
80.4000;0.6349;1.6961;
80.7000;0.6357;1.6985;
81.0000;0.6365;1.6985;
81.3000;0.6341;1.6936;
81.6000;0.6382;1.7108;
81.9000;0.6390;1.7181;
82.2000;0.6374;1.7034;
82.5000;0.6382;1.7034;
82.8000;0.6357;1.6912;
83.1000;0.6365;1.6936;
83.4000;0.6365;1.6961;
83.7000;0.6357;1.6961;
84.0000;0.6357;1.6985;
84.3000;0.6357;1.6985;
84.6000;0.6357;1.7010;
84.9000;0.6365;1.7010;
85.2000;0.6398;1.7083;
85.5000;0.6341;1.6936;
85.8000;0.6357;1.6936;
86.1000;0.6374;1.6936;
86.4000;0.6365;1.6912;
86.7000;0.6365;1.6888;
87.0000;0.6374;1.6961;
87.3000;0.6349;1.6936;
87.6000;0.6365;1.6961;
87.9000;0.6349;1.6912;
88.2000;0.6349;1.6936;
88.5000;0.6365;1.6985;
88.8000;0.6365;1.6961;
89.1000;0.6333;1.6888;
89.4000;0.6341;1.6839;
89.7000;0.6349;1.6863;
90.0000;0.6349;1.6863;
90.3000;0.6357;1.6814;
90.6000;0.6382;1.6888;
90.9000;0.6357;1.6814;
91.2000;0.6365;1.6790;
91.5000;0.6357;1.6790;
91.8000;0.6300;1.6717;
92.1000;0.6374;1.6912;
92.4000;0.6374;1.6912;
92.7000;0.6333;1.6839;
93.0000;0.6382;1.6961;
93.3000;0.6349;1.6888;
93.6000;0.6374;1.6863;
93.9000;0.6357;1.6814;
94.2000;0.6349;1.6790;
94.5000;0.6398;1.6839;
94.8000;0.6374;1.6863;
95.1000;0.6390;1.6936;
95.4000;0.6357;1.6985;
95.7000;0.6357;1.6985;
96.0000;0.6349;1.6912;
96.3000;0.6357;1.6912;
96.6000;0.6414;1.6985;
96.9000;0.6357;1.6863;
97.2000;0.6382;1.6888;
97.5000;0.6365;1.6839;
97.8000;0.6365;1.6839;
98.1000;0.6374;1.6814;
98.4000;0.6365;1.6790;
98.7000;0.6390;1.6839;
99.0000;0.6382;1.6765;
99.3000;0.6390;1.6717;
99.6000;0.6365;1.6668;
99.9000;0.6374;1.6668;
100.2000;0.6382;1.6692;
100.5000;0.6357;1.6692;
100.8000;0.6357;1.6692;
101.1000;0.6374;1.6643;
101.4000;0.6406;1.6790;
101.7000;0.6365;1.6668;
102.0000;0.6365;1.6570;
102.3000;0.6325;1.6521;
102.6000;0.6365;1.6619;
102.9000;0.6365;1.6692;
103.2000;0.6349;1.6594;
103.5000;0.6284;1.6423;
103.8000;0.6374;1.6619;
104.1000;0.6374;1.6692;
104.4000;0.6382;1.6790;
104.7000;0.6365;1.6814;
105.0000;0.6349;1.6839;
105.3000;0.6390;1.6985;
105.6000;0.6374;1.6912;
105.9000;0.6365;1.6912;
106.2000;0.6382;1.6961;
106.5000;0.6382;1.6961;
106.8000;0.6349;1.6888;
107.1000;0.6374;1.6936;
107.4000;0.6365;1.6888;
107.7000;0.6390;1.6863;
108.0000;0.6365;1.6790;
108.3000;0.6325;1.6668;
108.6000;0.6317;1.6570;
108.9000;0.6414;1.6790;
109.2000;0.6365;1.6741;
109.5000;0.6382;1.6814;
109.8000;0.6365;1.6692;
110.1000;0.6390;1.6765;
110.4000;0.6398;1.6765;
110.7000;0.6390;1.6839;
111.0000;0.6365;1.6765;
111.3000;0.6439;1.7010;
111.6000;0.6374;1.6912;
111.9000;0.6349;1.6814;
112.2000;0.6349;1.6863;
112.5000;0.6374;1.6888;
112.8000;0.6431;1.7010;
113.1000;0.6374;1.6839;
113.4000;0.6349;1.6863;
113.7000;0.6365;1.6888;
114.0000;0.6374;1.6912;
114.3000;0.6382;1.6839;
114.6000;0.6406;1.6961;
114.9000;0.6365;1.6888;
115.2000;0.6382;1.6912;
115.5000;0.6390;1.6863;
115.8000;0.6390;1.6814;
116.1000;0.6349;1.6692;
116.4000;0.6382;1.6790;
116.7000;0.6382;1.6790;
117.0000;0.6382;1.6741;
117.3000;0.6374;1.6692;
117.6000;0.6365;1.6619;
117.9000;0.6382;1.6668;
118.2000;0.6382;1.6643;
118.5000;0.6374;1.6619;
118.8000;0.6382;1.6594;
119.1000;0.6365;1.6594;
119.4000;0.6374;1.6570;
119.7000;0.6365;1.6521;
120.0000;0.6333;1.6545;
120.3000;0.6374;1.6717;
120.6000;0.6374;1.6692;
120.9000;0.6365;1.6741;
121.2000;0.6365;1.6790;
121.5000;0.6390;1.6839;
121.8000;0.6398;1.6814;
122.1000;0.6422;1.6961;
122.4000;0.6390;1.6839;
122.7000;0.6374;1.6692;
123.0000;0.6398;1.6668;
123.3000;0.6382;1.6668;
123.6000;0.6414;1.6741;
123.9000;0.6447;1.6936;
124.2000;0.6374;1.6717;
124.5000;0.6374;1.6765;
124.8000;0.6398;1.6765;
125.1000;0.6374;1.6765;
125.4000;0.6374;1.6814;
125.7000;0.6382;1.6936;
126.0000;0.6382;1.6888;
126.3000;0.6374;1.6790;
126.6000;0.6382;1.6912;
126.9000;0.6447;1.7132;
127.2000;0.6382;1.6936;
127.5000;0.6365;1.6888;
127.8000;0.6398;1.6936;
128.1000;0.6406;1.6985;
128.4000;0.6365;1.6888;
128.7000;0.6317;1.6741;
129.0000;0.6382;1.6912;
129.3000;0.6374;1.6936;
129.6000;0.6374;1.6863;
129.9000;0.6422;1.6985;
130.2000;0.6374;1.6863;
130.5000;0.6382;1.6814;
130.8000;0.6406;1.6839;
131.1000;0.6357;1.6717;
131.4000;0.6325;1.6619;
131.7000;0.6365;1.6741;
132.0000;0.6365;1.6765;
132.3000;0.6365;1.6692;
132.6000;0.6349;1.6717;
132.9000;0.6406;1.6863;
133.2000;0.6414;1.6863;
133.5000;0.6374;1.6717;
133.8000;0.6333;1.6643;
134.1000;0.6374;1.6692;
134.4000;0.6341;1.6643;
134.7000;0.6439;1.6790;
135.0000;0.6374;1.6594;
135.3000;0.6382;1.6668;
135.6000;0.6365;1.6668;
135.9000;0.6374;1.6668;
136.2000;0.6365;1.6594;
136.5000;0.6374;1.6594;
136.8000;0.6382;1.6570;
137.1000;0.6374;1.6521;
137.4000;0.6374;1.6497;
137.7000;0.6357;1.6497;
138.0000;0.6357;1.6521;
138.3000;0.6374;1.6668;
138.6000;0.6374;1.6668;
138.9000;0.6374;1.6594;
139.2000;0.6374;1.6545;
139.5000;0.6365;1.6619;
139.8000;0.6365;1.6594;
140.1000;0.6365;1.6570;
140.4000;0.6357;1.6643;
140.7000;0.6406;1.6765;
141.0000;0.6382;1.6668;
141.3000;0.6374;1.6594;
141.6000;0.6374;1.6594;
141.9000;0.6365;1.6619;
142.2000;0.6374;1.6619;
142.5000;0.6406;1.6717;
142.8000;0.6365;1.6594;
143.1000;0.6365;1.6668;
143.4000;0.6357;1.6668;
143.7000;0.6357;1.6668;
144.0000;0.6341;1.6741;
144.3000;0.6341;1.6717;
144.6000;0.6374;1.6765;
144.9000;0.6374;1.6765;
145.2000;0.6365;1.6765;
145.5000;0.6374;1.6790;
145.8000;0.6365;1.6790;
146.1000;0.6333;1.6668;
146.4000;0.6382;1.6790;
146.7000;0.6365;1.6765;
147.0000;0.6374;1.6594;
147.3000;0.6414;1.6717;
147.6000;0.6390;1.6643;
147.9000;0.6365;1.6619;
148.2000;0.6382;1.6643;
148.5000;0.6414;1.6692;
148.8000;0.6390;1.6692;
149.1000;0.6365;1.6594;
149.4000;0.6365;1.6619;
149.7000;0.6374;1.6619;
150.0000;0.6374;1.6692;
150.3000;0.6414;1.6814;
150.6000;0.6390;1.6765;
150.9000;0.6422;1.6961;
151.2000;0.6398;1.6912;
151.5000;0.6365;1.6888;
151.8000;0.6365;1.6912;
152.1000;0.6365;1.7010;
152.4000;0.6349;1.7010;
152.7000;0.6309;1.6814;
153.0000;0.6422;1.7034;
153.3000;0.6365;1.6863;
153.6000;0.6414;1.6888;
153.9000;0.6365;1.6668;
154.2000;0.6365;1.6594;
154.5000;0.6357;1.6594;
154.8000;0.6365;1.6668;
155.1000;0.6374;1.6692;
155.4000;0.6357;1.6643;
155.7000;0.6365;1.6643;
156.0000;0.6463;1.6936;
156.3000;0.6365;1.6717;
156.6000;0.6374;1.6765;
156.9000;0.6390;1.6790;
157.2000;0.6365;1.6692;
157.5000;0.6374;1.6668;
157.8000;0.6374;1.6717;
158.1000;0.6374;1.6765;
158.4000;0.6374;1.6765;
158.7000;0.6374;1.6814;
159.0000;0.6349;1.6717;
159.3000;0.6357;1.6814;
159.6000;0.6374;1.6863;
159.9000;0.6357;1.6839;
160.2000;0.6365;1.6790;
160.5000;0.6357;1.6717;
160.8000;0.6357;1.6717;
161.1000;0.6365;1.6790;
161.4000;0.6365;1.6814;
161.7000;0.6398;1.6839;
162.0000;0.6365;1.6570;
162.3000;0.6374;1.6643;
162.6000;0.6382;1.6668;
162.9000;0.6382;1.6668;
163.2000;0.6374;1.6668;
163.5000;0.6357;1.6594;
163.8000;0.6382;1.6594;
164.1000;0.6365;1.6545;
164.4000;0.6357;1.6497;
164.7000;0.6455;1.6863;
165.0000;0.6357;1.6643;
165.3000;0.6365;1.6619;
165.6000;0.6382;1.6692;
165.9000;0.6357;1.6692;
166.2000;0.6374;1.6863;
166.5000;0.6333;1.6790;
166.8000;0.6374;1.6765;
167.1000;0.6357;1.6643;
167.4000;0.6382;1.6741;
167.7000;0.6398;1.6790;
168.0000;0.6390;1.6790;
168.3000;0.6374;1.6790;
168.6000;0.6382;1.6814;
168.9000;0.6390;1.6839;
169.2000;0.6382;1.6839;
169.5000;0.6365;1.6839;
169.8000;0.6349;1.6814;
170.1000;0.6365;1.6936;
170.4000;0.6365;1.6912;
170.7000;0.6357;1.6863;
171.0000;0.6365;1.6814;
171.3000;0.6463;1.7108;
171.6000;0.6357;1.6888;
171.9000;0.6365;1.6814;
172.2000;0.6374;1.6839;
172.5000;0.6390;1.6936;
172.8000;0.6357;1.6814;
173.1000;0.6349;1.6790;
173.4000;0.6357;1.6839;
173.7000;0.6382;1.6936;
174.0000;0.6341;1.6814;
174.3000;0.6374;1.6888;
174.6000;0.6349;1.6888;
174.9000;0.6357;1.6936;
175.2000;0.6341;1.6814;
175.5000;0.6398;1.7010;
175.8000;0.6357;1.6888;
176.1000;0.6365;1.6888;
176.4000;0.6365;1.6888;
176.7000;0.6382;1.6961;
177.0000;0.6341;1.6936;
177.3000;0.6382;1.7034;
177.6000;0.6341;1.6839;
177.9000;0.6374;1.6961;
178.2000;0.6374;1.7010;
178.5000;0.6357;1.6961;
178.8000;0.6317;1.6863;
179.1000;0.6349;1.6863;
179.4000;0.6357;1.6839;
179.7000;0.6365;1.6839;
180.0000;0.6341;1.6790;
180.3000;0.6357;1.6961;
180.6000;0.6374;1.7034;
180.9000;0.6349;1.7059;
181.2000;0.6357;1.7083;
181.5000;0.6357;1.7083;
181.8000;0.6365;1.7083;
182.1000;0.6349;1.7059;
182.4000;0.6357;1.7083;
182.7000;0.6382;1.7010;
183.0000;0.6276;1.6643;
183.3000;0.6365;1.6888;
183.6000;0.6349;1.6888;
183.9000;0.6357;1.6985;
184.2000;0.6349;1.7059;
184.5000;0.6341;1.7010;
184.8000;0.6349;1.7083;
185.1000;0.6374;1.7108;
185.4000;0.6357;1.7083;
185.7000;0.6341;1.6985;
186.0000;0.6357;1.7108;
186.3000;0.6357;1.7181;
186.6000;0.6390;1.7181;
186.9000;0.6365;1.7059;
187.2000;0.6374;1.7083;
187.5000;0.6365;1.7083;
187.8000;0.6374;1.7108;
188.1000;0.6365;1.7034;
188.4000;0.6374;1.6936;
188.7000;0.6406;1.7034;
189.0000;0.6390;1.7010;
189.3000;0.6349;1.6985;
189.6000;0.6341;1.6985;
189.9000;0.6341;1.7034;
190.2000;0.6357;1.7059;
190.5000;0.6341;1.7034;
190.8000;0.6357;1.7083;
191.1000;0.6374;1.7132;
191.4000;0.6374;1.7181;
191.7000;0.6374;1.7108;
192.0000;0.6341;1.6961;
192.3000;0.6357;1.7034;
192.6000;0.6365;1.7108;
192.9000;0.6357;1.7083;
193.2000;0.6325;1.6985;
193.5000;0.6374;1.7010;
193.8000;0.6333;1.6863;
194.1000;0.6349;1.6839;
194.4000;0.6349;1.6912;
194.7000;0.6341;1.6888;
195.0000;0.6422;1.7059;
195.3000;0.6309;1.6814;
195.6000;0.6341;1.6888;
195.9000;0.6357;1.6814;
196.2000;0.6300;1.6692;
196.5000;0.6357;1.6888;
196.8000;0.6349;1.6912;
197.1000;0.6357;1.6985;
197.4000;0.6349;1.7034;
197.7000;0.6365;1.7034;
198.0000;0.6374;1.7059;
198.3000;0.6357;1.7059;
198.6000;0.6357;1.7034;
198.9000;0.6357;1.7034;
199.2000;0.6341;1.7059;
199.5000;0.6357;1.7059;
199.8000;0.6349;1.7010;
200.1000;0.6349;1.6936;
200.4000;0.6357;1.6985;
200.7000;0.6365;1.6936;
201.0000;0.6406;1.6912;
201.3000;0.6349;1.6741;
201.6000;0.6325;1.6717;
201.9000;0.6365;1.6863;
202.2000;0.6382;1.6839;
202.5000;0.6357;1.6765;
202.8000;0.6374;1.6790;
203.1000;0.6365;1.6839;
203.4000;0.6349;1.6863;
203.7000;0.6390;1.6961;
204.0000;0.6333;1.6839;
204.3000;0.6357;1.6863;
204.6000;0.6357;1.6888;
204.9000;0.6382;1.6912;
205.2000;0.6333;1.6790;
205.5000;0.6341;1.6790;
205.8000;0.6357;1.6888;
206.1000;0.6341;1.6936;
206.4000;0.6333;1.6888;
206.7000;0.6341;1.6888;
207.0000;0.6374;1.6961;
207.3000;0.6349;1.6790;
207.6000;0.6341;1.6765;
207.9000;0.6357;1.6814;
208.2000;0.6365;1.6790;
208.5000;0.6349;1.6790;
208.8000;0.6349;1.6790;
209.1000;0.6357;1.6814;
209.4000;0.6349;1.6765;
209.7000;0.6325;1.6741;
210.0000;0.6349;1.6741;
210.3000;0.6317;1.6668;
210.6000;0.6357;1.6765;
210.9000;0.6349;1.6717;
211.2000;0.6341;1.6765;
211.5000;0.6365;1.6814;
211.8000;0.6374;1.6765;
212.1000;0.6365;1.6790;
212.4000;0.6365;1.6741;
212.7000;0.6374;1.6839;
213.0000;0.6414;1.6985;
213.3000;0.6374;1.7010;
213.6000;0.6341;1.6936;
213.9000;0.6357;1.6936;
214.2000;0.6349;1.6912;
214.5000;0.6357;1.7034;
214.8000;0.6365;1.7132;
215.1000;0.6325;1.7108;
215.4000;0.6349;1.7205;
215.7000;0.6341;1.7156;
216.0000;0.6349;1.7205;
216.3000;0.6341;1.7205;
216.6000;0.6341;1.7205;
216.9000;0.6292;1.7059;
217.2000;0.6349;1.7083;
217.5000;0.6341;1.7132;
217.8000;0.6333;1.7108;
218.1000;0.6341;1.7108;
218.4000;0.6341;1.7108;
218.7000;0.6333;1.7083;
219.0000;0.6325;1.7059;
219.3000;0.6349;1.7059;
219.6000;0.6317;1.7010;
219.9000;0.6382;1.7132;
220.2000;0.6333;1.7059;
220.5000;0.6349;1.7083;
220.8000;0.6341;1.6985;
221.1000;0.6357;1.7010;
221.4000;0.6349;1.7034;
221.7000;0.6349;1.7010;
222.0000;0.6357;1.7059;
222.3000;0.6365;1.7059;
222.6000;0.6333;1.6961;
222.9000;0.6357;1.6912;
223.2000;0.6341;1.6863;
223.5000;0.6349;1.6839;
223.8000;0.6341;1.6741;
224.1000;0.6398;1.6961;
224.4000;0.6349;1.6814;
224.7000;0.6325;1.6717;
225.0000;0.6349;1.6814;
225.3000;0.6349;1.6839;
225.6000;0.6341;1.6839;
225.9000;0.6365;1.7010;
226.2000;0.6349;1.6985;
226.5000;0.6357;1.6985;
226.8000;0.6357;1.6912;
227.1000;0.6341;1.6888;
227.4000;0.6349;1.6936;
227.7000;0.6333;1.6936;
228.0000;0.6365;1.7034;
228.3000;0.6333;1.7010;
228.6000;0.6349;1.7083;
228.9000;0.6341;1.6936;
229.2000;0.6349;1.6936;
229.5000;0.6349;1.7010;
229.8000;0.6341;1.7010;
230.1000;0.6349;1.7059;
230.4000;0.6349;1.7059;
230.7000;0.6357;1.7059;
231.0000;0.6333;1.7059;
231.3000;0.6341;1.7083;
231.6000;0.6349;1.6985;
231.9000;0.6357;1.7034;
232.2000;0.6365;1.7108;
232.5000;0.6341;1.6985;
232.8000;0.6333;1.6839;
233.1000;0.6325;1.6888;
233.4000;0.6349;1.6961;
233.7000;0.6365;1.7034;
234.0000;0.6341;1.7010;
234.3000;0.6292;1.6936;
234.6000;0.6341;1.7059;
234.9000;0.6349;1.7059;
235.2000;0.6341;1.7083;
235.5000;0.6341;1.6985;
235.8000;0.6365;1.7010;
236.1000;0.6349;1.6888;
236.4000;0.6365;1.6912;
236.7000;0.6398;1.7059;
237.0000;0.6357;1.7010;
237.3000;0.6349;1.6985;
237.6000;0.6349;1.7034;
237.9000;0.6341;1.7108;
238.2000;0.6374;1.7059;
238.5000;0.6349;1.7059;
238.8000;0.6309;1.6912;
239.1000;0.6341;1.6961;
239.4000;0.6333;1.6912;
239.7000;0.6341;1.6985;
240.0000;0.6341;1.6985;
240.3000;0.6349;1.6961;
240.6000;0.6333;1.6888;
240.9000;0.6357;1.6936;
241.2000;0.6284;1.6814;
241.5000;0.6365;1.6985;
241.8000;0.6333;1.6863;
242.1000;0.6349;1.6936;
242.4000;0.6382;1.7059;
242.7000;0.6374;1.7034;
243.0000;0.6349;1.6961;
243.3000;0.6317;1.6961;
243.6000;0.6333;1.6985;
243.9000;0.6357;1.7010;
244.2000;0.6284;1.6936;
244.5000;0.6341;1.7083;
244.8000;0.6300;1.6985;
245.1000;0.6341;1.7059;
245.4000;0.6333;1.7059;
245.7000;0.6317;1.7059;
246.0000;0.6357;1.7059;
246.3000;0.6349;1.6985;
246.6000;0.6406;1.7059;
246.9000;0.6341;1.6863;
247.2000;0.6333;1.6961;
247.5000;0.6333;1.6936;
247.8000;0.6341;1.6888;
248.1000;0.6317;1.6936;
248.4000;0.6333;1.6985;
248.7000;0.6235;1.6814;
249.0000;0.6349;1.7034;
249.3000;0.6325;1.6912;
249.6000;0.6333;1.6912;
249.9000;0.6333;1.6961;
250.2000;0.6349;1.6936;
250.5000;0.6325;1.6912;
250.8000;0.6333;1.6912;
251.1000;0.6349;1.6888;
251.4000;0.6325;1.6888;
251.7000;0.6333;1.6961;
252.0000;0.6341;1.6985;
252.3000;0.6333;1.7083;
252.6000;0.6349;1.7181;
252.9000;0.6357;1.7303;
253.2000;0.6349;1.7230;
253.5000;0.6317;1.7156;
253.8000;0.6325;1.7181;
254.1000;0.6341;1.7156;
254.4000;0.6309;1.7034;
254.7000;0.6325;1.7010;
255.0000;0.6325;1.6985;
255.3000;0.6325;1.6912;
255.6000;0.6325;1.6961;
255.9000;0.6365;1.7083;
256.2000;0.6333;1.6985;
256.5000;0.6341;1.7083;
256.8000;0.6341;1.7083;
257.1000;0.6317;1.6985;
257.4000;0.6309;1.6961;
257.7000;0.6325;1.7083;
258.0000;0.6341;1.7205;
258.3000;0.6309;1.7108;
258.6000;0.6325;1.7156;
258.9000;0.6357;1.7254;
259.2000;0.6333;1.7156;
259.5000;0.6333;1.7156;
259.8000;0.6333;1.7205;
260.1000;0.6325;1.7156;
260.4000;0.6357;1.7230;
260.7000;0.6341;1.7156;
261.0000;0.6325;1.7083;
261.3000;0.6341;1.7059;
261.6000;0.6333;1.7059;
261.9000;0.6357;1.7034;
262.2000;0.6333;1.6961;
262.5000;0.6365;1.7108;
262.8000;0.6333;1.6936;
263.1000;0.6317;1.6961;
263.4000;0.6292;1.6888;
263.7000;0.6333;1.6912;
264.0000;0.6317;1.6888;
264.3000;0.6333;1.6888;
264.6000;0.6309;1.6839;
264.9000;0.6333;1.6912;
265.2000;0.6325;1.6863;
265.5000;0.6341;1.6888;
265.8000;0.6317;1.6863;
266.1000;0.6309;1.6765;
266.4000;0.6333;1.6839;
266.7000;0.6317;1.6888;
267.0000;0.6341;1.6961;
267.3000;0.6325;1.6961;
267.6000;0.6341;1.7059;
267.9000;0.6374;1.7108;
268.2000;0.6365;1.7181;
268.5000;0.6333;1.7010;
268.8000;0.6317;1.7034;
269.1000;0.6357;1.7132;
269.4000;0.6341;1.7132;
269.7000;0.6374;1.7181;
270.0000;0.6341;1.7010;
270.3000;0.6325;1.7010;
270.6000;0.6365;1.7156;
270.9000;0.6333;1.7059;
271.2000;0.6341;1.7108;
271.5000;0.6333;1.7108;
271.8000;0.6341;1.7059;
272.1000;0.6325;1.6912;
272.4000;0.6341;1.6936;
272.7000;0.6333;1.6985;
273.0000;0.6349;1.7108;
273.3000;0.6341;1.7034;
273.6000;0.6325;1.6985;
273.9000;0.6333;1.6936;
274.2000;0.6300;1.6863;
274.5000;0.6333;1.6888;
274.8000;0.6325;1.6839;
275.1000;0.6333;1.6863;
275.4000;0.6317;1.6790;
275.7000;0.6333;1.6814;
276.0000;0.6309;1.6814;
276.3000;0.6317;1.6863;
276.6000;0.6317;1.6839;
276.9000;0.6333;1.6961;
277.2000;0.6349;1.7034;
277.5000;0.6325;1.6961;
277.8000;0.6333;1.6985;
278.1000;0.6325;1.7034;
278.4000;0.6333;1.6961;
278.7000;0.6349;1.6936;
279.0000;0.6333;1.6790;
279.3000;0.6333;1.6741;
279.6000;0.6333;1.6692;
279.9000;0.6292;1.6619;
280.2000;0.6325;1.6741;
280.5000;0.6349;1.6790;
280.8000;0.6333;1.6741;
281.1000;0.6422;1.6961;
281.4000;0.6333;1.6790;
281.7000;0.6382;1.6863;
282.0000;0.6276;1.6619;
282.3000;0.6357;1.6936;
282.6000;0.6317;1.6888;
282.9000;0.6325;1.6888;
283.2000;0.6276;1.6741;
283.5000;0.6325;1.6863;
283.8000;0.6300;1.6814;
284.1000;0.6341;1.6888;
284.4000;0.6276;1.6741;
284.7000;0.6341;1.6912;
285.0000;0.6333;1.6912;
285.3000;0.6349;1.6912;
285.6000;0.6317;1.6790;
285.9000;0.6325;1.6814;
286.2000;0.6300;1.6717;
286.5000;0.6317;1.6814;
286.8000;0.6333;1.6888;
287.1000;0.6309;1.6814;
287.4000;0.6325;1.6814;
287.7000;0.6317;1.6888;
288.0000;0.6325;1.6839;
288.3000;0.6309;1.6765;
288.6000;0.6325;1.6888;
288.9000;0.6309;1.6790;
289.2000;0.6325;1.6814;
289.5000;0.6325;1.6839;
289.8000;0.6333;1.6961;
290.1000;0.6276;1.6839;
290.4000;0.6341;1.6936;
290.7000;0.6349;1.6961;
291.0000;0.6333;1.6888;
291.3000;0.6317;1.6839;
291.6000;0.6333;1.6814;
291.9000;0.6333;1.6765;
292.2000;0.6325;1.6717;
292.5000;0.6325;1.6765;
292.8000;0.6317;1.6790;
293.1000;0.6333;1.6814;
293.4000;0.6317;1.6790;
293.7000;0.6300;1.6839;
294.0000;0.6325;1.6912;
294.3000;0.6309;1.6888;
294.6000;0.6341;1.6912;
294.9000;0.6341;1.6839;
295.2000;0.6317;1.6839;
295.5000;0.6325;1.6765;
295.8000;0.6333;1.6814;
296.1000;0.6317;1.6863;
296.4000;0.6309;1.6839;
296.7000;0.6317;1.6888;
297.0000;0.6333;1.6863;
297.3000;0.6333;1.6888;
297.6000;0.6325;1.6888;
297.9000;0.6333;1.6936;
298.2000;0.6325;1.6912;
298.5000;0.6333;1.6936;
298.8000;0.6309;1.6839;
299.1000;0.6276;1.6692;
299.4000;0.6325;1.6765;
299.7000;0.6341;1.6790;
300.0000;0.6317;1.6741;
300.3000;0.6317;1.6692;
300.6000;0.6317;1.6717;
300.9000;0.6325;1.6790;
301.2000;0.6325;1.6814;
301.5000;0.6325;1.6912;
301.8000;0.6333;1.6936;
302.1000;0.6317;1.6888;
302.4000;0.6325;1.6985;
302.7000;0.6365;1.7010;
303.0000;0.6325;1.6985;
303.3000;0.6333;1.7034;
303.6000;0.6309;1.6888;
303.9000;0.6325;1.6888;
304.2000;0.6317;1.6765;
304.5000;0.6309;1.6790;
304.8000;0.6333;1.6863;
305.1000;0.6260;1.6717;
305.4000;0.6284;1.6741;
305.7000;0.6349;1.6912;
306.0000;0.6349;1.6863;
306.3000;0.6317;1.6839;
306.6000;0.6317;1.6863;
306.9000;0.6325;1.6888;
307.2000;0.6357;1.6936;
307.5000;0.6325;1.6839;
307.8000;0.6325;1.6717;
308.1000;0.6300;1.6570;
308.4000;0.6252;1.6497;
308.7000;0.6325;1.6717;
309.0000;0.6317;1.6692;
309.3000;0.6317;1.6765;
309.6000;0.6317;1.6765;
309.9000;0.6317;1.6717;
310.2000;0.6325;1.6839;
310.5000;0.6317;1.6839;
310.8000;0.6325;1.6985;
311.1000;0.6325;1.6985;
311.4000;0.6325;1.6912;
311.7000;0.6300;1.6814;
312.0000;0.6325;1.6790;
312.3000;0.6325;1.6790;
312.6000;0.6325;1.6790;
312.9000;0.6309;1.6765;
313.2000;0.6309;1.6765;
313.5000;0.6284;1.6741;
313.8000;0.6333;1.6936;
314.1000;0.6317;1.6961;
314.4000;0.6341;1.6985;
314.7000;0.6317;1.6961;
315.0000;0.6333;1.6961;
315.3000;0.6292;1.6961;
315.6000;0.6235;1.6765;
315.9000;0.6300;1.6912;
316.2000;0.6317;1.7010;
316.5000;0.6317;1.7083;
316.8000;0.6309;1.7083;
317.1000;0.6317;1.7034;
317.4000;0.6325;1.7010;
317.7000;0.6276;1.6912;
318.0000;0.6300;1.6912;
318.3000;0.6317;1.6936;
318.6000;0.6382;1.7156;
318.9000;0.6333;1.7034;
319.2000;0.6309;1.6961;
319.5000;0.6317;1.6985;
319.8000;0.6300;1.6936;
320.1000;0.6325;1.6936;
320.4000;0.6300;1.7034;
320.7000;0.6309;1.6936;
321.0000;0.6317;1.6961;
321.3000;0.6317;1.7034;
321.6000;0.6317;1.7059;
321.9000;0.6300;1.7010;
322.2000;0.6317;1.7010;
322.5000;0.6292;1.6961;
322.8000;0.6309;1.7034;
323.1000;0.6317;1.7059;
323.4000;0.6317;1.7034;
323.7000;0.6325;1.7108;
324.0000;0.6268;1.6912;
324.3000;0.6292;1.6985;
324.6000;0.6300;1.6985;
324.9000;0.6317;1.6985;
325.2000;0.6260;1.6888;
325.5000;0.6309;1.6985;
325.8000;0.6300;1.6936;
326.1000;0.6292;1.6936;
326.4000;0.6333;1.6912;
326.7000;0.6300;1.6863;
327.0000;0.6317;1.6888;
327.3000;0.6317;1.6888;
327.6000;0.6309;1.6888;
327.9000;0.6333;1.7010;
328.2000;0.6325;1.7132;
328.5000;0.6325;1.7083;
328.8000;0.6317;1.7034;
329.1000;0.6325;1.7108;
329.4000;0.6406;1.7279;
329.7000;0.6300;1.6961;
330.0000;0.6325;1.6961;
330.3000;0.6317;1.6912;
330.6000;0.6309;1.6936;
330.9000;0.6300;1.6912;
331.2000;0.6284;1.6961;
331.5000;0.6309;1.7059;
331.8000;0.6300;1.7010;
332.1000;0.6252;1.6888;
332.4000;0.6333;1.7132;
332.7000;0.6325;1.7108;
333.0000;0.6309;1.7108;
333.3000;0.6317;1.7010;
333.6000;0.6309;1.6985;
333.9000;0.6325;1.7059;
334.2000;0.6309;1.7083;
334.5000;0.6300;1.7034;
334.8000;0.6309;1.6961;
335.1000;0.6341;1.7059;
335.4000;0.6309;1.6912;
335.7000;0.6292;1.6839;
336.0000;0.6325;1.6888;
336.3000;0.6325;1.6814;
336.6000;0.6300;1.6814;
336.9000;0.6300;1.6863;
337.2000;0.6292;1.6765;
337.5000;0.6309;1.6839;
337.8000;0.6317;1.6888;
338.1000;0.6235;1.6643;
338.4000;0.6325;1.6912;
338.7000;0.6317;1.6912;
339.0000;0.6227;1.6668;
339.3000;0.6309;1.6912;
339.6000;0.6252;1.6888;
339.9000;0.6300;1.6961;
340.2000;0.6276;1.6863;
340.5000;0.6309;1.6936;
340.8000;0.6349;1.7034;
341.1000;0.6300;1.6863;
341.4000;0.6292;1.6888;
341.7000;0.6309;1.6936;
342.0000;0.6292;1.6814;
342.3000;0.6325;1.6692;
342.6000;0.6268;1.6594;
342.9000;0.6309;1.6790;
343.2000;0.6284;1.6888;
343.5000;0.6284;1.6839;
343.8000;0.6300;1.6814;
344.1000;0.6292;1.6839;
344.4000;0.6292;1.6912;
344.7000;0.6300;1.6863;
345.0000;0.6284;1.6839;
345.3000;0.6309;1.6765;
345.6000;0.6300;1.6814;
345.9000;0.6268;1.6790;
346.2000;0.6300;1.6936;
346.5000;0.6300;1.6961;
346.8000;0.6292;1.7010;
347.1000;0.6243;1.6912;
347.4000;0.6276;1.6814;
347.7000;0.6292;1.6790;
348.0000;0.6284;1.6765;
348.3000;0.6309;1.6814;
348.6000;0.6292;1.6839;
348.9000;0.6292;1.6863;
349.2000;0.6292;1.6863;
349.5000;0.6300;1.6912;
349.8000;0.6292;1.6936;
350.1000;0.6325;1.6936;
350.4000;0.6309;1.6863;
350.7000;0.6309;1.6912;
351.0000;0.6284;1.6790;
351.3000;0.6284;1.6790;
351.6000;0.6325;1.6888;
351.9000;0.6309;1.6912;
352.2000;0.6284;1.6814;
352.5000;0.6300;1.6839;
352.8000;0.6268;1.6790;
353.1000;0.6292;1.6961;
353.4000;0.6309;1.6936;
353.7000;0.6309;1.6912;
354.0000;0.6317;1.6790;
354.3000;0.6309;1.6814;
354.6000;0.6300;1.6814;
354.9000;0.6292;1.6839;
355.2000;0.6276;1.6790;
355.5000;0.6284;1.6790;
355.8000;0.6292;1.6839;
356.1000;0.6292;1.6863;
356.4000;0.6203;1.6643;
356.7000;0.6284;1.6741;
357.0000;0.6309;1.6765;
357.3000;0.6243;1.6570;
357.6000;0.6300;1.6594;
357.9000;0.6300;1.6594;
358.2000;0.6284;1.6619;
358.5000;0.6357;1.6814;
358.8000;0.6300;1.6643;
359.1000;0.6235;1.6472;
359.4000;0.6292;1.6668;
359.7000;0.6292;1.6668;
360.0000;0.6309;1.6790;
360.3000;0.6333;1.6839;
360.6000;0.6309;1.6765;
360.9000;0.6325;1.6765;
361.2000;0.6349;1.6912;
361.5000;0.6292;1.6717;
361.8000;0.6309;1.6692;
362.1000;0.6317;1.6741;
362.4000;0.6309;1.6717;
362.7000;0.6325;1.6790;
363.0000;0.6333;1.6839;
363.3000;0.6292;1.6741;
363.6000;0.6300;1.6814;
363.9000;0.6252;1.6790;
364.2000;0.6300;1.6863;
364.5000;0.6309;1.6839;
364.8000;0.6317;1.6790;
365.1000;0.6309;1.6814;
365.4000;0.6325;1.6814;
365.7000;0.6276;1.6692;
366.0000;0.6292;1.6741;
366.3000;0.6292;1.6668;
366.6000;0.6292;1.6594;
366.9000;0.6325;1.6692;
367.2000;0.6292;1.6692;
367.5000;0.6284;1.6668;
367.8000;0.6284;1.6717;
368.1000;0.6292;1.6790;
368.4000;0.6284;1.6790;
368.7000;0.6276;1.6814;
369.0000;0.6292;1.6790;
369.3000;0.6300;1.6839;
369.6000;0.6292;1.6765;
369.9000;0.6276;1.6765;
370.2000;0.6284;1.6863;
370.5000;0.6300;1.6936;
370.8000;0.6300;1.6863;
371.1000;0.6292;1.6790;
371.4000;0.6284;1.6765;
371.7000;0.6284;1.6765;
372.0000;0.6309;1.6912;
372.3000;0.6300;1.6863;
372.6000;0.6276;1.6888;
372.9000;0.6317;1.7010;
373.2000;0.6300;1.7010;
373.5000;0.6300;1.6985;
373.8000;0.6300;1.6912;
374.1000;0.6292;1.6888;
374.4000;0.6292;1.6912;
374.7000;0.6300;1.6839;
375.0000;0.6300;1.6839;
375.3000;0.6325;1.6985;
375.6000;0.6300;1.6912;
375.9000;0.6349;1.7034;
376.2000;0.6333;1.6985;
376.5000;0.6276;1.6888;
376.8000;0.6284;1.6863;
377.1000;0.6292;1.6814;
377.4000;0.6309;1.6741;
377.7000;0.6300;1.6765;
378.0000;0.6203;1.6423;
378.3000;0.6284;1.6692;
378.6000;0.6292;1.6741;
378.9000;0.6292;1.6790;
379.2000;0.6284;1.6717;
379.5000;0.6300;1.6765;
379.8000;0.6309;1.6839;
380.1000;0.6284;1.6839;
380.4000;0.6219;1.6619;
380.7000;0.6292;1.6814;
381.0000;0.6292;1.6765;
381.3000;0.6309;1.6839;
381.6000;0.6260;1.6814;
381.9000;0.6292;1.6888;
382.2000;0.6276;1.6814;
382.5000;0.6292;1.6839;
382.8000;0.6300;1.6839;
383.1000;0.6252;1.6839;
383.4000;0.6300;1.6863;
383.7000;0.6300;1.6814;
384.0000;0.6292;1.6814;
384.3000;0.6276;1.6790;
384.6000;0.6300;1.6790;
384.9000;0.6284;1.6814;
385.2000;0.6284;1.6839;
385.5000;0.6333;1.6961;
385.8000;0.6309;1.6985;
386.1000;0.6276;1.6936;
386.4000;0.6276;1.6912;
386.7000;0.6300;1.7010;
387.0000;0.6300;1.7010;
387.3000;0.6309;1.6985;
387.6000;0.6284;1.6839;
387.9000;0.6292;1.6912;
388.2000;0.6325;1.6912;
388.5000;0.6292;1.6839;
388.8000;0.6309;1.6863;
389.1000;0.6300;1.6790;
389.4000;0.6276;1.6839;
389.7000;0.6300;1.6863;
390.0000;0.6268;1.6717;
390.3000;0.6276;1.6765;
390.6000;0.6284;1.6839;
390.9000;0.6300;1.6912;
391.2000;0.6292;1.6936;
391.5000;0.6284;1.6936;
391.8000;0.6252;1.6863;
392.1000;0.6300;1.6912;
392.4000;0.6292;1.6936;
392.7000;0.6284;1.6985;
393.0000;0.6276;1.6936;
393.3000;0.6284;1.6961;
393.6000;0.6284;1.7010;
393.9000;0.6349;1.7181;
394.2000;0.6292;1.7059;
394.5000;0.6284;1.7059;
394.8000;0.6268;1.6985;
395.1000;0.6276;1.6985;
395.4000;0.6252;1.6912;
395.7000;0.6268;1.6912;
396.0000;0.6284;1.7010;
396.3000;0.6276;1.7034;
396.6000;0.6252;1.7010;
396.9000;0.6268;1.7010;
397.2000;0.6309;1.6985;
397.5000;0.6325;1.6985;
397.8000;0.6292;1.6961;
398.1000;0.6300;1.7034;
398.4000;0.6284;1.7108;
398.7000;0.6292;1.7059;
399.0000;0.6276;1.6912;
399.3000;0.6300;1.7034;
399.6000;0.6260;1.7010;
399.9000;0.6292;1.7034;
400.2000;0.6317;1.7156;
400.5000;0.6325;1.7205;
400.8000;0.6268;1.7059;
401.1000;0.6268;1.7010;
401.4000;0.6268;1.6961;
401.7000;0.6284;1.6936;
402.0000;0.6276;1.6936;
402.3000;0.6284;1.6912;
402.6000;0.6309;1.7010;
402.9000;0.6333;1.7034;
403.2000;0.6300;1.7083;
403.5000;0.6284;1.6985;
403.8000;0.6300;1.7010;
404.1000;0.6292;1.6961;
404.4000;0.6243;1.6839;
404.7000;0.6276;1.6912;
405.0000;0.6284;1.6936;
405.3000;0.6235;1.6790;
405.6000;0.6260;1.6839;
405.9000;0.6252;1.6741;
406.2000;0.6268;1.6790;
406.5000;0.6260;1.6839;
406.8000;0.6276;1.6839;
407.1000;0.6276;1.6839;
407.4000;0.6219;1.6668;
407.7000;0.6300;1.6790;
408.0000;0.6260;1.6692;
408.3000;0.6276;1.6717;
408.6000;0.6292;1.6765;
408.9000;0.6235;1.6668;
409.2000;0.6317;1.6912;
409.5000;0.6284;1.6936;
409.8000;0.6292;1.6912;
410.1000;0.6284;1.6888;
410.4000;0.6292;1.6839;
410.7000;0.6284;1.6814;
411.0000;0.6317;1.6936;
411.3000;0.6284;1.6888;
411.6000;0.6317;1.6936;
411.9000;0.6284;1.6814;
412.2000;0.6276;1.6741;
412.5000;0.6284;1.6814;
412.8000;0.6284;1.6790;
413.1000;0.6284;1.6692;
413.4000;0.6276;1.6741;
413.7000;0.6284;1.6839;
414.0000;0.6268;1.6765;
414.3000;0.6325;1.6863;
414.6000;0.6300;1.6863;
414.9000;0.6227;1.6741;
415.2000;0.6300;1.6888;
415.5000;0.6284;1.6741;
415.8000;0.6276;1.6741;
416.1000;0.6284;1.6863;
416.4000;0.6284;1.6888;
416.7000;0.6284;1.6863;
417.0000;0.6252;1.6863;
417.3000;0.6292;1.6985;
417.6000;0.6276;1.6912;
417.9000;0.6227;1.6790;
418.2000;0.6268;1.6936;
418.5000;0.6309;1.6985;
418.8000;0.6349;1.7010;
419.1000;0.6300;1.7059;
419.4000;0.6292;1.7010;
419.7000;0.6292;1.7010;
420.0000;0.6195;1.6717;
420.3000;0.6284;1.6961;
420.6000;0.6292;1.7010;
420.9000;0.6268;1.7010;
421.2000;0.6284;1.7010;
421.5000;0.6276;1.6936;
421.8000;0.6276;1.6912;
422.1000;0.6292;1.7059;
422.4000;0.6252;1.6936;
422.7000;0.6325;1.7034;
423.0000;0.6276;1.7010;
423.3000;0.6276;1.6912;
423.6000;0.6284;1.6936;
423.9000;0.6300;1.6961;
424.2000;0.6309;1.7034;
424.5000;0.6243;1.6863;
424.8000;0.6260;1.6936;
425.1000;0.6292;1.7034;
425.4000;0.6284;1.7059;
425.7000;0.6276;1.7059;
426.0000;0.6284;1.7034;
426.3000;0.6260;1.6936;
426.6000;0.6374;1.7205;
426.9000;0.6284;1.7010;
427.2000;0.6292;1.7059;
427.5000;0.6309;1.7083;
427.8000;0.6284;1.7010;
428.1000;0.6292;1.7083;
428.4000;0.6268;1.6936;
428.7000;0.6276;1.6985;
429.0000;0.6333;1.6985;
429.3000;0.6292;1.6912;
429.6000;0.6284;1.6961;
429.9000;0.6309;1.7034;
430.2000;0.6276;1.6936;
430.5000;0.6227;1.6814;
430.8000;0.6300;1.6912;
431.1000;0.6268;1.6839;
431.4000;0.6268;1.6839;
431.7000;0.6276;1.7010;
432.0000;0.6268;1.7010;
432.3000;0.6227;1.6912;
432.6000;0.6243;1.6936;
432.9000;0.6268;1.7083;
433.2000;0.6268;1.7083;
433.5000;0.6284;1.7108;
433.8000;0.6309;1.7156;
434.1000;0.6268;1.6985;
434.4000;0.6284;1.6912;
434.7000;0.6235;1.6643;
435.0000;0.6284;1.6863;
435.3000;0.6260;1.6863;
435.6000;0.6276;1.6912;
435.9000;0.6227;1.6839;
436.2000;0.6276;1.6888;
436.5000;0.6268;1.6888;
436.8000;0.6211;1.6765;
437.1000;0.6276;1.6961;
437.4000;0.6268;1.6961;
437.7000;0.6260;1.6936;
438.0000;0.6284;1.6936;
438.3000;0.6276;1.6936;
438.6000;0.6268;1.6961;
438.9000;0.6268;1.6936;
439.2000;0.6268;1.6961;
439.5000;0.6268;1.6936;
439.8000;0.6268;1.6936;
440.1000;0.6268;1.6912;
440.4000;0.6284;1.6936;
440.7000;0.6276;1.6936;
441.0000;0.6268;1.7034;
441.3000;0.6260;1.6961;
441.6000;0.6276;1.7059;
441.9000;0.6284;1.7010;
442.2000;0.6268;1.7010;
442.5000;0.6268;1.7034;
442.8000;0.6268;1.6961;
443.1000;0.6276;1.6961;
443.4000;0.6284;1.6912;
443.7000;0.6276;1.6888;
444.0000;0.6268;1.6863;
444.3000;0.6276;1.6912;
444.6000;0.6292;1.7010;
444.9000;0.6268;1.6961;
445.2000;0.6276;1.6961;
445.5000;0.6276;1.6985;
445.8000;0.6260;1.6863;
446.1000;0.6243;1.6839;
446.4000;0.6252;1.6961;
446.7000;0.6276;1.6985;
447.0000;0.6268;1.7034;
447.3000;0.6268;1.6961;
447.6000;0.6235;1.6888;
447.9000;0.6292;1.6985;
448.2000;0.6300;1.6985;
448.5000;0.6252;1.6936;
448.8000;0.6284;1.6985;
449.1000;0.6292;1.6961;
449.4000;0.6252;1.6863;
449.7000;0.6284;1.6961;
450.0000;0.6276;1.6936;
450.3000;0.6268;1.6863;
450.6000;0.6268;1.6863;
450.9000;0.6178;1.6594;
451.2000;0.6243;1.6692;
451.5000;0.6260;1.6741;
451.8000;0.6235;1.6790;
452.1000;0.6260;1.6863;
452.4000;0.6292;1.6961;
452.7000;0.6276;1.6888;
453.0000;0.6276;1.6839;
453.3000;0.6284;1.6888;
453.6000;0.6252;1.6936;
453.9000;0.6268;1.6985;
454.2000;0.6317;1.7108;
454.5000;0.6292;1.7108;
454.8000;0.6292;1.7034;
455.1000;0.6317;1.7083;
455.4000;0.6195;1.6839;
455.7000;0.6260;1.7034;
456.0000;0.6260;1.6961;
456.3000;0.6284;1.7034;
456.6000;0.6227;1.6863;
456.9000;0.6227;1.6863;
457.2000;0.6268;1.6985;
457.5000;0.6276;1.7034;
457.8000;0.6333;1.7108;
458.1000;0.6292;1.6912;
458.4000;0.6300;1.6912;
458.7000;0.6252;1.6790;
459.0000;0.6276;1.6888;
459.3000;0.6268;1.6961;
459.6000;0.6284;1.7010;
459.9000;0.6276;1.6888;
460.2000;0.6333;1.7034;
460.5000;0.6252;1.6888;
460.8000;0.6292;1.6936;
461.1000;0.6260;1.6888;
461.4000;0.6252;1.6863;
461.7000;0.6268;1.6888;
462.0000;0.6276;1.6839;
462.3000;0.6276;1.6888;
462.6000;0.6284;1.6888;
462.9000;0.6260;1.6888;
463.2000;0.6268;1.6936;
463.5000;0.6292;1.7010;
463.8000;0.6276;1.6985;
464.1000;0.6243;1.6888;
464.4000;0.6276;1.7034;
464.7000;0.6268;1.6936;
465.0000;0.6268;1.6936;
465.3000;0.6268;1.6912;
465.6000;0.6260;1.6839;
465.9000;0.6268;1.6814;
466.2000;0.6260;1.6692;
466.5000;0.6260;1.6765;
466.8000;0.6252;1.6717;
467.1000;0.6260;1.6765;
467.4000;0.6276;1.6814;
467.7000;0.6268;1.6839;
468.0000;0.6284;1.6863;
468.3000;0.6284;1.6888;
468.6000;0.6284;1.6839;
468.9000;0.6268;1.6863;
469.2000;0.6268;1.6936;
469.5000;0.6325;1.7156;
469.8000;0.6260;1.7010;
470.1000;0.6292;1.7108;
470.4000;0.6252;1.6936;
470.7000;0.6252;1.6961;
471.0000;0.6309;1.7108;
471.3000;0.6276;1.7059;
471.6000;0.6268;1.7010;
471.9000;0.6268;1.6888;
472.2000;0.6235;1.6912;
472.5000;0.6268;1.6961;
472.8000;0.6235;1.6839;
473.1000;0.6292;1.6912;
473.4000;0.6260;1.6863;
473.7000;0.6276;1.6814;
474.0000;0.6268;1.6839;
474.3000;0.6284;1.6863;
474.6000;0.6252;1.6814;
474.9000;0.6276;1.6839;
475.2000;0.6219;1.6692;
475.5000;0.6252;1.6863;
475.8000;0.6243;1.6936;
476.1000;0.6268;1.7010;
476.4000;0.6252;1.7010;
476.7000;0.6252;1.6912;
477.0000;0.6252;1.6863;
477.3000;0.6292;1.6961;
477.6000;0.6276;1.6912;
477.9000;0.6260;1.6961;
478.2000;0.6252;1.6936;
478.5000;0.6252;1.7010;
478.8000;0.6243;1.7034;
479.1000;0.6243;1.6985;
479.4000;0.6252;1.6961;
479.7000;0.6260;1.6961;
480.0000;0.6260;1.6936;
480.3000;0.6268;1.6790;
480.6000;0.6260;1.6814;
480.9000;0.6252;1.6888;
481.2000;0.6260;1.6961;
481.5000;0.6284;1.7083;
481.8000;0.6260;1.7010;
482.1000;0.6284;1.7034;
482.4000;0.6252;1.6961;
482.7000;0.6268;1.7034;
483.0000;0.6276;1.6936;
483.3000;0.6276;1.7034;
483.6000;0.6276;1.7010;
483.9000;0.6284;1.6936;
484.2000;0.6284;1.6936;
484.5000;0.6252;1.6839;
484.8000;0.6268;1.6814;
485.1000;0.6268;1.6839;
485.4000;0.6252;1.6936;
485.7000;0.6252;1.6912;
486.0000;0.6260;1.6912;
486.3000;0.6292;1.6961;
486.6000;0.6268;1.6888;
486.9000;0.6235;1.6936;
487.2000;0.6268;1.7059;
487.5000;0.6243;1.7059;
487.8000;0.6268;1.7083;
488.1000;0.6268;1.7059;
488.4000;0.6268;1.7083;
488.7000;0.6268;1.7083;
489.0000;0.6260;1.7181;
489.3000;0.6268;1.7132;
489.6000;0.6268;1.7108;
489.9000;0.6243;1.7010;
490.2000;0.6284;1.7083;
490.5000;0.6284;1.7108;
490.8000;0.6227;1.6961;
491.1000;0.6268;1.6961;
491.4000;0.6252;1.6912;
491.7000;0.6284;1.6961;
492.0000;0.6219;1.6888;
492.3000;0.6252;1.7010;
492.6000;0.6284;1.7059;
492.9000;0.6276;1.7034;
493.2000;0.6129;1.6668;
493.5000;0.6252;1.7059;
493.8000;0.6260;1.7034;
494.1000;0.6235;1.7059;
494.4000;0.6276;1.7254;
494.7000;0.6309;1.7328;
495.0000;0.6268;1.7181;
495.3000;0.6268;1.7205;
495.6000;0.6243;1.7083;
495.9000;0.6268;1.7108;
496.2000;0.6252;1.7059;
496.5000;0.6219;1.6888;
496.8000;0.6268;1.7010;
497.1000;0.6252;1.7034;
497.4000;0.6268;1.7034;
497.7000;0.6252;1.6961;
498.0000;0.6268;1.7010;
498.3000;0.6252;1.6936;
498.6000;0.6235;1.6936;
498.9000;0.6243;1.6961;
499.2000;0.6252;1.6912;
499.5000;0.6260;1.6888;
499.8000;0.6243;1.6790;
500.1000;0.6235;1.6765;
500.4000;0.6292;1.6790;
500.7000;0.6260;1.6741;
501.0000;0.6243;1.6692;
501.3000;0.6252;1.6765;
501.6000;0.6268;1.6839;
501.9000;0.6260;1.6839;
502.2000;0.6260;1.6912;
502.5000;0.6260;1.6961;
502.8000;0.6260;1.6961;
503.1000;0.6260;1.6961;
503.4000;0.6227;1.6961;
503.7000;0.6252;1.6985;
504.0000;0.6252;1.6936;
504.3000;0.6268;1.6985;
504.6000;0.6243;1.6961;
504.9000;0.6252;1.6936;
505.2000;0.6252;1.6961;
505.5000;0.6260;1.6912;
505.8000;0.6260;1.6863;
506.1000;0.6243;1.6790;
506.4000;0.6260;1.6790;
506.7000;0.6268;1.6863;
507.0000;0.6268;1.6912;
507.3000;0.6268;1.6936;
507.6000;0.6260;1.6985;
507.9000;0.6243;1.7034;
508.2000;0.6243;1.7059;
508.5000;0.6252;1.7010;
508.8000;0.6268;1.6985;
509.1000;0.6268;1.7010;
509.4000;0.6276;1.7010;
509.7000;0.6333;1.7156;
510.0000;0.6235;1.6839;
510.3000;0.6252;1.6839;
510.6000;0.6243;1.6839;
510.9000;0.6260;1.6839;
511.2000;0.6252;1.6839;
511.5000;0.6235;1.6814;
511.8000;0.6252;1.6717;
512.1000;0.6243;1.6790;
512.4000;0.6268;1.6765;
512.7000;0.6252;1.6888;
513.0000;0.6268;1.6936;
513.3000;0.6260;1.6912;
513.6000;0.6243;1.6888;
513.9000;0.6268;1.6936;
514.2000;0.6235;1.6839;
514.5000;0.6211;1.6717;
514.8000;0.6243;1.6863;
515.1000;0.6235;1.6790;
515.4000;0.6235;1.6814;
515.7000;0.6243;1.6863;
516.0000;0.6268;1.6888;
516.3000;0.6260;1.6961;
516.6000;0.6235;1.6985;
516.9000;0.6260;1.7010;
517.2000;0.6235;1.6936;
517.5000;0.6235;1.6790;
517.8000;0.6260;1.6790;
518.1000;0.6309;1.6814;
518.4000;0.6260;1.6692;
518.7000;0.6243;1.6692;
519.0000;0.6284;1.6790;
519.3000;0.6252;1.6594;
519.6000;0.6252;1.6594;
519.9000;0.6235;1.6594;
520.2000;0.6243;1.6643;
520.5000;0.6235;1.6619;
520.8000;0.6260;1.6741;
521.1000;0.6260;1.6717;
521.4000;0.6260;1.6814;
521.7000;0.6260;1.6790;
522.0000;0.6252;1.6863;
522.3000;0.6268;1.6839;
522.6000;0.6243;1.6839;
522.9000;0.6292;1.7010;
523.2000;0.6268;1.7034;
523.5000;0.6252;1.7034;
523.8000;0.6195;1.6888;
524.1000;0.6235;1.7034;
524.4000;0.6252;1.7132;
524.7000;0.6268;1.7034;
525.0000;0.6243;1.6912;
525.3000;0.6292;1.6936;
525.6000;0.6276;1.6790;
525.9000;0.6309;1.6888;
526.2000;0.6268;1.6888;
526.5000;0.6325;1.6985;
526.8000;0.6260;1.6888;
527.1000;0.6276;1.6912;
527.4000;0.6260;1.6936;
527.7000;0.6284;1.6961;
528.0000;0.6235;1.6839;
528.3000;0.6260;1.6741;
528.6000;0.6260;1.6692;
528.9000;0.6260;1.6717;
529.2000;0.6252;1.6839;
529.5000;0.6268;1.6839;
529.8000;0.6260;1.6839;
530.1000;0.6219;1.6765;
530.4000;0.6243;1.6863;
530.7000;0.6260;1.6912;
531.0000;0.6284;1.7034;
531.3000;0.6260;1.6961;
531.6000;0.6243;1.6912;
531.9000;0.6227;1.6912;
532.2000;0.6268;1.6961;
532.5000;0.6252;1.7010;
532.8000;0.6284;1.7132;
533.1000;0.6252;1.7059;
533.4000;0.6268;1.7034;
533.7000;0.6252;1.7010;
534.0000;0.6252;1.6936;
534.3000;0.6243;1.6936;
534.6000;0.6243;1.6839;
534.9000;0.6227;1.6814;
535.2000;0.6227;1.6765;
535.5000;0.6219;1.6717;
535.8000;0.6243;1.6765;
536.1000;0.6227;1.6765;
536.4000;0.6235;1.6863;
536.7000;0.6227;1.6888;
537.0000;0.6235;1.6936;
537.3000;0.6252;1.6961;
537.6000;0.6235;1.7034;
537.9000;0.6243;1.7108;
538.2000;0.6252;1.7205;
538.5000;0.6252;1.7230;
538.8000;0.6300;1.7328;
539.1000;0.6292;1.7205;
539.4000;0.6243;1.7108;
539.7000;0.6252;1.7205;
540.0000;0.6260;1.7205;
540.3000;0.6252;1.7132;
540.6000;0.6365;1.7474;
540.9000;0.6252;1.7181;
541.2000;0.6211;1.7034;
541.5000;0.6235;1.7156;
541.8000;0.6268;1.7181;
542.1000;0.6219;1.7108;
542.4000;0.6195;1.7034;
542.7000;0.6243;1.7279;
543.0000;0.6219;1.7254;
543.3000;0.6235;1.7303;
543.6000;0.6333;1.7474;
543.9000;0.6284;1.7279;
544.2000;0.6243;1.7181;
544.5000;0.6276;1.7156;
544.8000;0.6243;1.7083;
545.1000;0.6235;1.7059;
545.4000;0.6235;1.6985;
545.7000;0.6235;1.7010;
546.0000;0.6252;1.7108;
546.3000;0.6243;1.7083;
546.6000;0.6243;1.7156;
546.9000;0.6252;1.7132;
547.2000;0.6227;1.7108;
547.5000;0.6235;1.7108;
547.8000;0.6243;1.7156;
548.1000;0.6260;1.7181;
548.4000;0.6268;1.7181;
548.7000;0.6252;1.7205;
549.0000;0.6243;1.7205;
549.3000;0.6243;1.7132;
549.6000;0.6235;1.7059;
549.9000;0.6219;1.7010;
550.2000;0.6235;1.7034;
550.5000;0.6243;1.6985;
550.8000;0.6227;1.6985;
551.1000;0.6260;1.6985;
551.4000;0.6276;1.6912;
551.7000;0.6227;1.6936;
552.0000;0.6243;1.6936;
552.3000;0.6260;1.6985;
552.6000;0.6243;1.6888;
552.9000;0.6252;1.6936;
553.2000;0.6252;1.6912;
553.5000;0.6243;1.6839;
553.8000;0.6252;1.6961;
554.1000;0.6260;1.6985;
554.4000;0.6243;1.7010;
554.7000;0.6235;1.7059;
555.0000;0.6252;1.7132;
555.3000;0.6227;1.7181;
555.6000;0.6227;1.7205;
555.9000;0.6154;1.7010;
556.2000;0.6243;1.7205;
556.5000;0.6243;1.7108;
556.8000;0.6235;1.7010;
557.1000;0.6227;1.7010;
557.4000;0.6219;1.7059;
557.7000;0.6235;1.7034;
558.0000;0.6243;1.7034;
558.3000;0.6219;1.6985;
558.6000;0.6235;1.7010;
558.9000;0.6227;1.6961;
559.2000;0.6235;1.6961;
559.5000;0.6227;1.6985;
559.8000;0.6243;1.6961;
560.1000;0.6243;1.7010;
560.4000;0.6235;1.6936;
560.7000;0.6292;1.7108;
561.0000;0.6235;1.7010;
561.3000;0.6227;1.7034;
561.6000;0.6235;1.7010;
561.9000;0.6268;1.7108;
562.2000;0.6211;1.6936;
562.5000;0.6243;1.7083;
562.8000;0.6300;1.7254;
563.1000;0.6325;1.7376;
563.4000;0.6252;1.7205;
563.7000;0.6235;1.7279;
564.0000;0.6243;1.7303;
564.3000;0.6243;1.7181;
564.6000;0.6243;1.7132;
564.9000;0.6252;1.7205;
565.2000;0.6309;1.7352;
565.5000;0.6219;1.7108;
565.8000;0.6235;1.7181;
566.1000;0.6235;1.7156;
566.4000;0.6235;1.7108;
566.7000;0.6243;1.7181;
567.0000;0.6235;1.7108;
567.3000;0.6235;1.7034;
567.6000;0.6260;1.7034;
567.9000;0.6260;1.7034;
568.2000;0.6300;1.7132;
568.5000;0.6276;1.7108;
568.8000;0.6252;1.7059;
569.1000;0.6235;1.7059;
569.4000;0.6195;1.6936;
569.7000;0.6243;1.7010;
570.0000;0.6219;1.6985;
570.3000;0.6235;1.7083;
570.6000;0.6243;1.7059;
570.9000;0.6243;1.7108;
571.2000;0.6235;1.7059;
571.5000;0.6186;1.6936;
571.8000;0.6243;1.7059;
572.1000;0.6243;1.7010;
572.4000;0.6219;1.6888;
572.7000;0.6252;1.6936;
573.0000;0.6260;1.6936;
573.3000;0.6227;1.6961;
573.6000;0.6243;1.7083;
573.9000;0.6243;1.7034;
574.2000;0.6235;1.6912;
574.5000;0.6235;1.6912;
574.8000;0.6227;1.6936;
575.1000;0.6284;1.6912;
575.4000;0.6243;1.6814;
575.7000;0.6252;1.6814;
576.0000;0.6235;1.6863;
576.3000;0.6235;1.6863;
576.6000;0.6235;1.6936;
576.9000;0.6284;1.7156;
577.2000;0.6227;1.6961;
577.5000;0.6227;1.6985;
577.8000;0.6276;1.7083;
578.1000;0.6284;1.7083;
578.4000;0.6243;1.6888;
578.7000;0.6260;1.6985;
579.0000;0.6227;1.7034;
579.3000;0.6243;1.7059;
579.6000;0.6243;1.7083;
579.9000;0.6235;1.7083;
580.2000;0.6227;1.7083;
580.5000;0.6243;1.7034;
580.8000;0.6235;1.6985;
581.1000;0.6227;1.6912;
581.4000;0.6219;1.7010;
581.7000;0.6227;1.7059;
582.0000;0.6235;1.7059;
582.3000;0.6219;1.6985;
582.6000;0.6243;1.6985;
582.9000;0.6227;1.6888;
583.2000;0.6243;1.6888;
583.5000;0.6227;1.6888;
583.8000;0.6227;1.6888;
584.1000;0.6227;1.6961;
584.4000;0.6252;1.6985;
584.7000;0.6260;1.6985;
585.0000;0.6252;1.6961;
585.3000;0.6243;1.6985;
585.6000;0.6276;1.7156;
585.9000;0.6219;1.7010;
586.2000;0.6227;1.7083;
586.5000;0.6170;1.6961;
586.8000;0.6243;1.7205;
587.1000;0.6268;1.7132;
587.4000;0.6243;1.7059;
587.7000;0.6235;1.7083;
588.0000;0.6268;1.7181;
588.3000;0.6252;1.7059;
588.6000;0.6170;1.6888;
588.9000;0.6227;1.6961;
589.2000;0.6227;1.6985;
589.5000;0.6260;1.7108;
589.8000;0.6235;1.7083;
590.1000;0.6186;1.6863;
590.4000;0.6203;1.6888;
590.7000;0.6235;1.6839;
591.0000;0.6211;1.6814;
591.3000;0.6219;1.6839;
591.6000;0.6243;1.6961;
591.9000;0.6227;1.6936;
592.2000;0.6276;1.6985;
592.5000;0.6235;1.6863;
592.8000;0.6235;1.6863;
593.1000;0.6260;1.6863;
593.4000;0.6243;1.6839;
593.7000;0.6235;1.6814;
594.0000;0.6235;1.6839;
594.3000;0.6235;1.6863;
594.6000;0.6243;1.6790;
594.9000;0.6252;1.6814;
595.2000;0.6219;1.6814;
595.5000;0.6325;1.7108;
595.8000;0.6243;1.6961;
596.1000;0.6211;1.6936;
596.4000;0.6235;1.6985;
596.7000;0.6235;1.6961;
597.0000;0.6243;1.7010;
597.3000;0.6243;1.7034;
597.6000;0.6235;1.7059;
597.9000;0.6243;1.7034;
598.2000;0.6235;1.7010;
598.5000;0.6252;1.6936;
598.8000;0.6235;1.6888;
599.1000;0.6235;1.6888;
599.4000;0.6186;1.6790;
599.7000;0.6243;1.7010;
600.0000;0.6219;1.6961;
600.3000;0.6227;1.6814;
600.6000;0.6178;1.6692;
600.9000;0.6081;1.6570;
601.2000;0.5999;1.6399;
601.5000;0.5902;1.6228;
601.8000;0.5788;1.6081;
602.1000;0.5682;1.5861;
602.4000;0.5576;1.5641;
602.7000;0.5470;1.5446;
603.0000;0.5413;1.5372;
603.3000;0.5340;1.5226;
603.6000;0.5250;1.5079;
603.9000;0.5153;1.4835;
604.2000;0.5088;1.4664;
604.5000;0.5063;1.4639;
604.8000;0.5014;1.4590;
605.1000;0.4957;1.4468;
605.4000;0.4884;1.4321;
605.7000;0.4860;1.4224;
606.0000;0.4851;1.4273;
606.3000;0.4754;1.4175;
606.6000;0.4737;1.4126;
606.9000;0.4705;1.4126;
607.2000;0.4713;1.4150;
607.5000;0.4640;1.4004;
607.8000;0.4632;1.3979;
608.1000;0.4632;1.4053;
608.4000;0.4558;1.4004;
608.7000;0.4550;1.4077;
609.0000;0.4542;1.4077;
609.3000;0.4518;1.4004;
609.6000;0.4469;1.3955;
609.9000;0.4461;1.3979;
610.2000;0.4396;1.3759;
610.5000;0.4436;1.3833;
610.8000;0.4387;1.3759;
611.1000;0.4387;1.3833;
611.4000;0.4371;1.3759;
611.7000;0.4339;1.3637;
612.0000;0.4330;1.3637;
612.3000;0.4306;1.3613;
612.6000;0.4290;1.3613;
612.9000;0.4282;1.3710;
613.2000;0.4290;1.3833;
613.5000;0.4249;1.3833;
613.8000;0.4225;1.3808;
614.1000;0.4233;1.3833;
614.4000;0.4225;1.3784;
614.7000;0.4208;1.3686;
615.0000;0.4233;1.3735;
615.3000;0.4176;1.3637;
615.6000;0.4168;1.3662;
615.9000;0.4168;1.3564;
616.2000;0.4160;1.3588;
616.5000;0.4135;1.3539;
616.8000;0.4160;1.3588;
617.1000;0.4143;1.3662;
617.4000;0.4111;1.3637;
617.7000;0.4094;1.3662;
618.0000;0.4127;1.3735;
618.3000;0.4086;1.3686;
618.6000;0.4094;1.3662;
618.9000;0.4094;1.3637;
619.2000;0.4062;1.3539;
619.5000;0.4054;1.3491;
619.8000;0.4062;1.3539;
620.1000;0.4078;1.3588;
620.4000;0.4046;1.3564;
620.7000;0.4037;1.3466;
621.0000;0.4037;1.3442;
621.3000;0.4013;1.3491;
621.6000;0.4037;1.3417;
621.9000;0.4029;1.3393;
622.2000;0.4054;1.3417;
622.5000;0.4005;1.3319;
622.8000;0.4021;1.3368;
623.1000;0.4005;1.3344;
623.4000;0.3948;1.3319;
623.7000;0.4005;1.3515;
624.0000;0.3989;1.3466;
624.3000;0.3964;1.3393;
624.6000;0.3964;1.3417;
624.9000;0.3907;1.3271;
625.2000;0.3932;1.3295;
625.5000;0.3956;1.3344;
625.8000;0.3948;1.3295;
626.1000;0.3915;1.3222;
626.4000;0.3940;1.3344;
626.7000;0.3923;1.3368;
627.0000;0.3883;1.3271;
627.3000;0.3907;1.3344;
627.6000;0.3915;1.3393;
627.9000;0.3883;1.3393;
628.2000;0.3932;1.3539;
628.5000;0.3899;1.3442;
628.8000;0.3915;1.3539;
629.1000;0.3907;1.3491;
629.4000;0.3907;1.3491;
629.7000;0.3842;1.3442;
630.0000;0.3883;1.3539;
630.3000;0.3899;1.3466;
630.6000;0.3867;1.3344;
630.9000;0.3875;1.3319;
631.2000;0.3842;1.3271;
631.5000;0.3858;1.3319;
631.8000;0.3842;1.3368;
632.1000;0.3940;1.3637;
632.4000;0.3867;1.3539;
632.7000;0.3858;1.3613;
633.0000;0.3810;1.3515;
633.3000;0.3858;1.3637;
633.6000;0.3834;1.3539;
633.9000;0.3867;1.3686;
634.2000;0.3810;1.3515;
634.5000;0.3842;1.3539;
634.8000;0.3850;1.3515;
635.1000;0.3826;1.3491;
635.4000;0.3826;1.3442;
635.7000;0.3834;1.3393;
636.0000;0.3826;1.3368;
636.3000;0.3801;1.3173;
636.6000;0.3842;1.3246;
636.9000;0.3810;1.3173;
637.2000;0.3810;1.3222;
637.5000;0.3785;1.3222;
637.8000;0.3818;1.3393;
638.1000;0.3818;1.3417;
638.4000;0.3785;1.3295;
638.7000;0.3801;1.3368;
639.0000;0.3858;1.3491;
639.3000;0.3769;1.3368;
639.6000;0.3793;1.3466;
639.9000;0.3793;1.3466;
640.2000;0.3785;1.3344;
640.5000;0.3777;1.3271;
640.8000;0.3736;1.3271;
641.1000;0.3793;1.3417;
641.4000;0.3793;1.3393;
641.7000;0.3793;1.3319;
642.0000;0.3777;1.3319;
642.3000;0.3761;1.3295;
642.6000;0.3769;1.3295;
642.9000;0.3801;1.3368;
643.2000;0.3793;1.3344;
643.5000;0.3744;1.3124;
643.8000;0.3769;1.3271;
644.1000;0.3761;1.3319;
644.4000;0.3753;1.3344;
644.7000;0.3753;1.3368;
645.0000;0.3769;1.3491;
645.3000;0.3769;1.3564;
645.6000;0.3736;1.3491;
645.9000;0.3736;1.3368;
646.2000;0.3736;1.3368;
646.5000;0.3753;1.3393;
646.8000;0.3769;1.3491;
647.1000;0.3744;1.3442;
647.4000;0.3744;1.3466;
647.7000;0.3753;1.3466;
648.0000;0.3736;1.3417;
648.3000;0.3728;1.3393;
648.6000;0.3720;1.3442;
648.9000;0.3744;1.3539;
649.2000;0.3769;1.3588;
649.5000;0.3712;1.3442;
649.8000;0.3712;1.3417;
650.1000;0.3712;1.3417;
650.4000;0.3728;1.3393;
650.7000;0.3720;1.3417;
651.0000;0.3753;1.3564;
651.3000;0.3712;1.3515;
651.6000;0.3720;1.3515;
651.9000;0.3696;1.3466;
652.2000;0.3679;1.3442;
652.5000;0.3696;1.3515;
652.8000;0.3687;1.3491;
653.1000;0.3704;1.3466;
653.4000;0.3712;1.3393;
653.7000;0.3671;1.3271;
654.0000;0.3687;1.3393;
654.3000;0.3663;1.3368;
654.6000;0.3671;1.3295;
654.9000;0.3679;1.3393;
655.2000;0.3728;1.3539;
655.5000;0.3687;1.3466;
655.8000;0.3671;1.3417;
656.1000;0.3696;1.3466;
656.4000;0.3696;1.3442;
656.7000;0.3696;1.3466;
657.0000;0.3663;1.3295;
657.3000;0.3679;1.3271;
657.6000;0.3679;1.3222;
657.9000;0.3696;1.3295;
658.2000;0.3687;1.3295;
658.5000;0.3736;1.3466;
658.8000;0.3679;1.3466;
659.1000;0.3679;1.3417;
659.4000;0.3687;1.3393;
659.7000;0.3663;1.3368;
660.0000;0.3753;1.3588;
660.3000;0.3679;1.3417;
660.6000;0.3606;1.3295;
660.9000;0.3655;1.3368;
661.2000;0.3647;1.3368;
661.5000;0.3647;1.3319;
661.8000;0.3679;1.3442;
662.1000;0.3663;1.3344;
662.4000;0.3663;1.3344;
662.7000;0.3655;1.3319;
663.0000;0.3663;1.3319;
663.3000;0.3687;1.3295;
663.6000;0.3655;1.3295;
663.9000;0.3655;1.3271;
664.2000;0.3639;1.3173;
664.5000;0.3582;1.3051;
664.8000;0.3639;1.3295;
665.1000;0.3647;1.3271;
665.4000;0.3639;1.3246;
665.7000;0.3614;1.3100;
666.0000;0.3630;1.3222;
666.3000;0.3663;1.3295;
666.6000;0.3639;1.3271;
666.9000;0.3630;1.3271;
667.2000;0.3630;1.3246;
667.5000;0.3647;1.3271;
667.8000;0.3630;1.3222;
668.1000;0.3639;1.3295;
668.4000;0.3655;1.3295;
668.7000;0.3606;1.3124;
669.0000;0.3622;1.3246;
669.3000;0.3622;1.3295;
669.6000;0.3630;1.3344;
669.9000;0.3655;1.3442;
670.2000;0.3712;1.3539;
670.5000;0.3614;1.3222;
670.8000;0.3622;1.3100;
671.1000;0.3663;1.3246;
671.4000;0.3614;1.3124;
671.7000;0.3622;1.3197;
672.0000;0.3639;1.3246;
672.3000;0.3639;1.3246;
672.6000;0.3614;1.3197;
672.9000;0.3598;1.3173;
673.2000;0.3655;1.3344;
673.5000;0.3630;1.3295;
673.8000;0.3606;1.3271;
674.1000;0.3606;1.3246;
674.4000;0.3614;1.3442;
674.7000;0.3614;1.3442;
675.0000;0.3606;1.3417;
675.3000;0.3582;1.3319;
675.6000;0.3606;1.3368;
675.9000;0.3590;1.3271;
676.2000;0.3606;1.3319;
676.5000;0.3598;1.3271;
676.8000;0.3557;1.3100;
677.1000;0.3598;1.3197;
677.4000;0.3590;1.3173;
677.7000;0.3598;1.3197;
678.0000;0.3606;1.3222;
678.3000;0.3582;1.3246;
678.6000;0.3598;1.3295;
678.9000;0.3590;1.3344;
679.2000;0.3590;1.3368;
679.5000;0.3606;1.3368;
679.8000;0.3590;1.3344;
680.1000;0.3565;1.3393;
680.4000;0.3598;1.3442;
680.7000;0.3582;1.3466;
681.0000;0.3582;1.3442;
681.3000;0.3606;1.3466;
681.6000;0.3598;1.3491;
681.9000;0.3582;1.3515;
682.2000;0.3525;1.3442;
682.5000;0.3590;1.3539;
682.8000;0.3582;1.3393;
683.1000;0.3582;1.3393;
683.4000;0.3598;1.3442;
683.7000;0.3590;1.3491;
684.0000;0.3516;1.3344;
684.3000;0.3573;1.3515;
684.6000;0.3590;1.3539;
684.9000;0.3582;1.3466;
685.2000;0.3573;1.3368;
685.5000;0.3565;1.3393;
685.8000;0.3573;1.3344;
686.1000;0.3573;1.3173;
686.4000;0.3565;1.3246;
686.7000;0.3573;1.3271;
687.0000;0.3565;1.3368;
687.3000;0.3565;1.3466;
687.6000;0.3565;1.3539;
687.9000;0.3590;1.3515;
688.2000;0.3549;1.3442;
688.5000;0.3565;1.3491;
688.8000;0.3582;1.3491;
689.1000;0.3565;1.3368;
689.4000;0.3516;1.3246;
689.7000;0.3606;1.3393;
690.0000;0.3549;1.3295;
690.3000;0.3541;1.3271;
690.6000;0.3565;1.3271;
690.9000;0.3557;1.3319;
691.2000;0.3549;1.3417;
691.5000;0.3533;1.3368;
691.8000;0.3565;1.3393;
692.1000;0.3541;1.3417;
692.4000;0.3549;1.3442;
692.7000;0.3533;1.3393;
693.0000;0.3549;1.3319;
693.3000;0.3516;1.3319;
693.6000;0.3557;1.3539;
693.9000;0.3557;1.3564;
694.2000;0.3525;1.3491;
694.5000;0.3557;1.3515;
694.8000;0.3582;1.3491;
695.1000;0.3590;1.3588;
695.4000;0.3533;1.3368;
695.7000;0.3533;1.3368;
696.0000;0.3565;1.3393;
696.3000;0.3557;1.3368;
696.6000;0.3557;1.3368;
696.9000;0.3541;1.3319;
697.2000;0.3557;1.3271;
697.5000;0.3557;1.3246;
697.8000;0.3541;1.3222;
698.1000;0.3557;1.3271;
698.4000;0.3549;1.3295;
698.7000;0.3508;1.3246;
699.0000;0.3500;1.3222;
699.3000;0.3557;1.3368;
699.6000;0.3565;1.3417;
699.9000;0.3549;1.3417;
700.2000;0.3614;1.3637;
700.5000;0.3582;1.3588;
700.8000;0.3508;1.3442;
701.1000;0.3525;1.3466;
701.4000;0.3492;1.3295;
701.7000;0.3557;1.3466;
702.0000;0.3525;1.3393;
702.3000;0.3533;1.3393;
702.6000;0.3451;1.3075;
702.9000;0.3541;1.3295;
703.2000;0.3476;1.3173;
703.5000;0.3541;1.3393;
703.8000;0.3525;1.3564;
704.1000;0.3573;1.3735;
704.4000;0.3549;1.3686;
704.7000;0.3533;1.3564;
705.0000;0.3508;1.3442;
705.3000;0.3484;1.3515;
705.6000;0.3484;1.3442;
705.9000;0.3516;1.3613;
706.2000;0.3492;1.3539;
706.5000;0.3533;1.3491;
706.8000;0.3508;1.3491;
707.1000;0.3508;1.3491;
707.4000;0.3533;1.3515;
707.7000;0.3525;1.3442;
708.0000;0.3582;1.3588;
708.3000;0.3508;1.3539;
708.6000;0.3525;1.3686;
708.9000;0.3516;1.3613;
709.2000;0.3516;1.3613;
709.5000;0.3525;1.3686;
709.8000;0.3508;1.3662;
710.1000;0.3516;1.3662;
710.4000;0.3492;1.3613;
710.7000;0.3500;1.3613;
711.0000;0.3460;1.3491;
711.3000;0.3549;1.3539;
711.6000;0.3492;1.3417;
711.9000;0.3508;1.3491;
712.2000;0.3500;1.3539;
712.5000;0.3565;1.3857;
712.8000;0.3500;1.3637;
713.1000;0.3516;1.3588;
713.4000;0.3500;1.3491;
713.7000;0.3484;1.3393;
714.0000;0.3492;1.3491;
714.3000;0.3492;1.3539;
714.6000;0.3484;1.3539;
714.9000;0.3500;1.3564;
715.2000;0.3508;1.3637;
715.5000;0.3541;1.3613;
715.8000;0.3508;1.3466;
716.1000;0.3516;1.3466;
716.4000;0.3476;1.3417;
716.7000;0.3476;1.3393;
717.0000;0.3484;1.3368;
717.3000;0.3500;1.3295;
717.6000;0.3500;1.3319;
717.9000;0.3508;1.3319;
718.2000;0.3598;1.3613;
718.5000;0.3484;1.3271;
718.8000;0.3533;1.3393;
719.1000;0.3500;1.3222;
719.4000;0.3549;1.3197;
719.7000;0.3484;1.3148;
720.0000;0.3500;1.3222;
720.3000;0.3460;1.3100;
720.6000;0.3460;1.3075;
720.9000;0.3508;1.3246;
721.2000;0.3468;1.3197;
721.5000;0.3460;1.3148;
721.8000;0.3484;1.3173;
722.1000;0.3468;1.3124;
722.4000;0.3468;1.3002;
722.7000;0.3508;1.3124;
723.0000;0.3492;1.3148;
723.3000;0.3500;1.3319;
723.6000;0.3484;1.3295;
723.9000;0.3565;1.3393;
724.2000;0.3468;1.3173;
724.5000;0.3476;1.3124;
724.8000;0.3492;1.3051;
725.1000;0.3492;1.3051;
725.4000;0.3516;1.3075;
725.7000;0.3443;1.2904;
726.0000;0.3460;1.2904;
726.3000;0.3492;1.3002;
726.6000;0.3451;1.2904;
726.9000;0.3468;1.3026;
727.2000;0.3419;1.3051;
727.5000;0.3468;1.3295;
727.8000;0.3476;1.3368;
728.1000;0.3468;1.3442;
728.4000;0.3476;1.3393;
728.7000;0.3508;1.3368;
729.0000;0.3476;1.3271;
729.3000;0.3460;1.3222;
729.6000;0.3476;1.3271;
729.9000;0.3476;1.3319;
730.2000;0.3492;1.3271;
730.5000;0.3468;1.3295;
730.8000;0.3476;1.3271;
731.1000;0.3492;1.3344;
731.4000;0.3484;1.3319;
731.7000;0.3476;1.3417;
732.0000;0.3516;1.3539;
732.3000;0.3460;1.3393;
732.6000;0.3468;1.3417;
732.9000;0.3476;1.3417;
733.2000;0.3468;1.3466;
733.5000;0.3492;1.3515;
733.8000;0.3460;1.3491;
734.1000;0.3468;1.3466;
734.4000;0.3460;1.3466;
734.7000;0.3460;1.3442;
735.0000;0.3468;1.3417;
735.3000;0.3468;1.3417;
735.6000;0.3468;1.3368;
735.9000;0.3451;1.3442;
736.2000;0.3427;1.3393;
736.5000;0.3500;1.3539;
736.8000;0.3476;1.3539;
737.1000;0.3460;1.3539;
737.4000;0.3525;1.3735;
737.7000;0.3443;1.3588;
738.0000;0.3451;1.3466;
738.3000;0.3460;1.3393;
738.6000;0.3460;1.3393;
738.9000;0.3451;1.3417;
739.2000;0.3468;1.3491;
739.5000;0.3460;1.3344;
739.8000;0.3451;1.3295;
740.1000;0.3460;1.3368;
740.4000;0.3468;1.3491;
740.7000;0.3451;1.3564;
741.0000;0.3435;1.3613;
741.3000;0.3427;1.3613;
741.6000;0.3443;1.3564;
741.9000;0.3435;1.3515;
742.2000;0.3411;1.3368;
742.5000;0.3451;1.3515;
742.8000;0.3435;1.3466;
743.1000;0.3378;1.3319;
743.4000;0.3451;1.3539;
743.7000;0.3443;1.3491;
744.0000;0.3394;1.3246;
744.3000;0.3460;1.3368;
744.6000;0.3451;1.3368;
744.9000;0.3451;1.3417;
745.2000;0.3443;1.3442;
745.5000;0.3468;1.3491;
745.8000;0.3443;1.3491;
746.1000;0.3411;1.3393;
746.4000;0.3435;1.3442;
746.7000;0.3451;1.3368;
747.0000;0.3443;1.3417;
747.3000;0.3435;1.3417;
747.6000;0.3443;1.3491;
747.9000;0.3451;1.3515;
748.2000;0.3460;1.3539;
748.5000;0.3451;1.3491;
748.8000;0.3443;1.3539;
749.1000;0.3451;1.3515;
749.4000;0.3451;1.3491;
749.7000;0.3451;1.3515;
750.0000;0.3460;1.3466;
750.3000;0.3451;1.3442;
750.6000;0.3451;1.3466;
750.9000;0.3443;1.3393;
751.2000;0.3435;1.3417;
751.5000;0.3435;1.3466;
751.8000;0.3451;1.3417;
752.1000;0.3443;1.3368;
752.4000;0.3468;1.3491;
752.7000;0.3435;1.3393;
753.0000;0.3435;1.3393;
753.3000;0.3435;1.3442;
753.6000;0.3427;1.3442;
753.9000;0.3443;1.3466;
754.2000;0.3435;1.3417;
754.5000;0.3443;1.3442;
754.8000;0.3451;1.3491;
755.1000;0.3443;1.3368;
755.4000;0.3427;1.3222;
755.7000;0.3451;1.3271;
756.0000;0.3451;1.3246;
756.3000;0.3403;1.3124;
756.6000;0.3435;1.3148;
756.9000;0.3427;1.3173;
757.2000;0.3435;1.3197;
757.5000;0.3427;1.3222;
757.8000;0.3427;1.3271;
758.1000;0.3435;1.3319;
758.4000;0.3451;1.3393;
758.7000;0.3419;1.3295;
759.0000;0.3435;1.3344;
759.3000;0.3354;1.3173;
759.6000;0.3435;1.3368;
759.9000;0.3435;1.3368;
760.2000;0.3411;1.3344;
760.5000;0.3337;1.3173;
760.8000;0.3435;1.3344;
761.1000;0.3435;1.3393;
761.4000;0.3427;1.3417;
761.7000;0.3435;1.3319;
762.0000;0.3435;1.3368;
762.3000;0.3435;1.3417;
762.6000;0.3443;1.3393;
762.9000;0.3435;1.3344;
763.2000;0.3443;1.3417;
763.5000;0.3443;1.3344;
763.8000;0.3427;1.3319;
764.1000;0.3427;1.3368;
764.4000;0.3443;1.3442;
764.7000;0.3443;1.3417;
765.0000;0.3427;1.3442;
765.3000;0.3468;1.3515;
765.6000;0.3427;1.3466;
765.9000;0.3443;1.3491;
766.2000;0.3427;1.3393;
766.5000;0.3419;1.3271;
766.8000;0.3378;1.3173;
767.1000;0.3346;1.3026;
767.4000;0.3411;1.3222;
767.7000;0.3403;1.3271;
768.0000;0.3411;1.3295;
768.3000;0.3378;1.3148;
768.6000;0.3427;1.3295;
768.9000;0.3419;1.3271;
769.2000;0.3419;1.3319;
769.5000;0.3419;1.3344;
769.8000;0.3451;1.3466;
770.1000;0.3419;1.3417;
770.4000;0.3411;1.3368;
770.7000;0.3419;1.3295;
771.0000;0.3427;1.3319;
771.3000;0.3419;1.3344;
771.6000;0.3411;1.3295;
771.9000;0.3403;1.3271;
772.2000;0.3419;1.3197;
772.5000;0.3419;1.3197;
772.8000;0.3386;1.3173;
773.1000;0.3411;1.3222;
773.4000;0.3329;1.3075;
773.7000;0.3419;1.3246;
774.0000;0.3403;1.3173;
774.3000;0.3403;1.3197;
774.6000;0.3419;1.3319;
774.9000;0.3411;1.3295;
775.2000;0.3411;1.3197;
775.5000;0.3419;1.3271;
775.8000;0.3411;1.3124;
776.1000;0.3468;1.3222;
776.4000;0.3419;1.3148;
776.7000;0.3411;1.3271;
777.0000;0.3403;1.3417;
777.3000;0.3411;1.3466;
777.6000;0.3411;1.3417;
777.9000;0.3419;1.3417;
778.2000;0.3403;1.3368;
778.5000;0.3460;1.3515;
778.8000;0.3427;1.3442;
779.1000;0.3411;1.3368;
779.4000;0.3451;1.3417;
779.7000;0.3427;1.3417;
780.0000;0.3419;1.3442;
780.3000;0.3419;1.3515;
780.6000;0.3411;1.3466;
780.9000;0.3411;1.3442;
781.2000;0.3427;1.3515;
781.5000;0.3386;1.3442;
781.8000;0.3403;1.3515;
782.1000;0.3403;1.3539;
782.4000;0.3370;1.3466;
782.7000;0.3394;1.3466;
783.0000;0.3411;1.3466;
783.3000;0.3394;1.3564;
783.6000;0.3403;1.3637;
783.9000;0.3403;1.3613;
784.2000;0.3403;1.3564;
784.5000;0.3411;1.3637;
784.8000;0.3443;1.3735;
785.1000;0.3403;1.3588;
785.4000;0.3411;1.3564;
785.7000;0.3394;1.3539;
786.0000;0.3419;1.3613;
786.3000;0.3427;1.3588;
786.6000;0.3411;1.3564;
786.9000;0.3403;1.3466;
787.2000;0.3394;1.3417;
787.5000;0.3411;1.3368;
787.8000;0.3403;1.3417;
788.1000;0.3419;1.3466;
788.4000;0.3394;1.3393;
788.7000;0.3378;1.3344;
789.0000;0.3492;1.3637;
789.3000;0.3386;1.3368;
789.6000;0.3394;1.3368;
789.9000;0.3378;1.3368;
790.2000;0.3403;1.3466;
790.5000;0.3403;1.3539;
790.8000;0.3394;1.3539;
791.1000;0.3386;1.3539;
791.4000;0.3419;1.3662;
791.7000;0.3378;1.3613;
792.0000;0.3403;1.3613;
792.3000;0.3411;1.3686;
792.6000;0.3403;1.3613;
792.9000;0.3451;1.3784;
793.2000;0.3394;1.3662;
793.5000;0.3419;1.3491;
793.8000;0.3354;1.3319;
794.1000;0.3386;1.3466;
794.4000;0.3403;1.3515;
794.7000;0.3378;1.3491;
795.0000;0.3427;1.3588;
795.3000;0.3362;1.3417;
795.6000;0.3403;1.3539;
795.9000;0.3394;1.3442;
796.2000;0.3411;1.3491;
796.5000;0.3411;1.3613;
796.8000;0.3378;1.3491;
797.1000;0.3403;1.3539;
797.4000;0.3362;1.3491;
797.7000;0.3394;1.3515;
798.0000;0.3297;1.3295;
798.3000;0.3451;1.3686;
798.6000;0.3451;1.3710;
798.9000;0.3403;1.3539;
799.2000;0.3411;1.3466;
799.5000;0.3411;1.3442;
799.8000;0.3403;1.3442;
800.1000;0.3403;1.3491;
800.4000;0.3394;1.3491;
800.7000;0.3460;1.3662;
801.0000;0.3403;1.3491;
801.3000;0.3427;1.3637;
801.6000;0.3386;1.3491;
801.9000;0.3386;1.3539;
802.2000;0.3394;1.3564;
802.5000;0.3346;1.3466;
802.8000;0.3378;1.3588;
803.1000;0.3378;1.3564;
803.4000;0.3403;1.3588;
803.7000;0.3419;1.3637;
804.0000;0.3378;1.3564;
804.3000;0.3394;1.3637;
804.6000;0.3386;1.3637;
804.9000;0.3411;1.3662;
805.2000;0.3403;1.3564;
805.5000;0.3313;1.3368;
805.8000;0.3370;1.3515;
806.1000;0.3378;1.3515;
806.4000;0.3378;1.3442;
806.7000;0.3394;1.3417;
807.0000;0.3386;1.3491;
807.3000;0.3394;1.3491;
807.6000;0.3419;1.3588;
807.9000;0.3386;1.3564;
808.2000;0.3370;1.3515;
808.5000;0.3386;1.3564;
808.8000;0.3394;1.3613;
809.1000;0.3370;1.3588;
809.4000;0.3394;1.3613;
809.7000;0.3386;1.3539;
810.0000;0.3394;1.3539;
810.3000;0.3394;1.3613;
810.6000;0.3370;1.3637;
810.9000;0.3378;1.3613;
811.2000;0.3378;1.3613;
811.5000;0.3394;1.3637;
811.8000;0.3346;1.3491;
812.1000;0.3419;1.3637;
812.4000;0.3378;1.3539;
812.7000;0.3362;1.3564;
813.0000;0.3370;1.3539;
813.3000;0.3443;1.3686;
813.6000;0.3378;1.3539;
813.9000;0.3386;1.3466;
814.2000;0.3378;1.3466;
814.5000;0.3386;1.3442;
814.8000;0.3329;1.3271;
815.1000;0.3435;1.3442;
815.4000;0.3394;1.3466;
815.7000;0.3394;1.3466;
816.0000;0.3443;1.3613;
816.3000;0.3305;1.3319;
816.6000;0.3386;1.3442;
816.9000;0.3378;1.3442;
817.2000;0.3386;1.3515;
817.5000;0.3378;1.3588;
817.8000;0.3321;1.3344;
818.1000;0.3362;1.3466;
818.4000;0.3346;1.3442;
818.7000;0.3378;1.3515;
819.0000;0.3394;1.3539;
819.3000;0.3329;1.3295;
819.6000;0.3354;1.3319;
819.9000;0.3386;1.3368;
820.2000;0.3362;1.3295;
820.5000;0.3362;1.3368;
820.8000;0.3362;1.3393;
821.1000;0.3354;1.3417;
821.4000;0.3370;1.3564;
821.7000;0.3378;1.3613;
822.0000;0.3321;1.3442;
822.3000;0.3394;1.3539;
822.6000;0.3378;1.3588;
822.9000;0.3403;1.3662;
823.2000;0.3468;1.3759;
823.5000;0.3329;1.3368;
823.8000;0.3370;1.3539;
824.1000;0.3378;1.3588;
824.4000;0.3370;1.3613;
824.7000;0.3378;1.3686;
825.0000;0.3370;1.3637;
825.3000;0.3362;1.3613;
825.6000;0.3362;1.3539;
825.9000;0.3386;1.3613;
826.2000;0.3394;1.3613;
826.5000;0.3370;1.3491;
826.8000;0.3403;1.3564;
827.1000;0.3370;1.3417;
827.4000;0.3354;1.3417;
827.7000;0.3370;1.3442;
828.0000;0.3370;1.3442;
828.3000;0.3362;1.3417;
828.6000;0.3378;1.3442;
828.9000;0.3362;1.3466;
829.2000;0.3370;1.3491;
829.5000;0.3280;1.3319;
829.8000;0.3378;1.3564;
830.1000;0.3386;1.3588;
830.4000;0.3386;1.3637;
830.7000;0.3354;1.3637;
831.0000;0.3362;1.3662;
831.3000;0.3346;1.3637;
831.6000;0.3337;1.3564;
831.9000;0.3337;1.3637;
832.2000;0.3346;1.3662;
832.5000;0.3362;1.3637;
832.8000;0.3370;1.3686;
833.1000;0.3370;1.3613;
833.4000;0.3378;1.3637;
833.7000;0.3370;1.3662;
834.0000;0.3378;1.3662;
834.3000;0.3370;1.3662;
834.6000;0.3370;1.3662;
834.9000;0.3362;1.3637;
835.2000;0.3411;1.3759;
835.5000;0.3386;1.3710;
835.8000;0.3411;1.3833;
836.1000;0.3354;1.3686;
836.4000;0.3378;1.3686;
836.7000;0.3354;1.3613;
837.0000;0.3362;1.3784;
837.3000;0.3370;1.3784;
837.6000;0.3362;1.3637;
837.9000;0.3329;1.3613;
838.2000;0.3337;1.3613;
838.5000;0.3378;1.3784;
838.8000;0.3394;1.3857;
839.1000;0.3354;1.3759;
839.4000;0.3386;1.3784;
839.7000;0.3370;1.3784;
840.0000;0.3305;1.3710;
840.3000;0.3280;1.3588;
840.6000;0.3386;1.3784;
840.9000;0.3346;1.3686;
841.2000;0.3337;1.3662;
841.5000;0.3354;1.3686;
841.8000;0.3346;1.3637;
842.1000;0.3354;1.3637;
842.4000;0.3370;1.3637;
842.7000;0.3362;1.3637;
843.0000;0.3354;1.3613;
843.3000;0.3354;1.3637;
843.6000;0.3362;1.3637;
843.9000;0.3329;1.3613;
844.2000;0.3362;1.3710;
844.5000;0.3370;1.3588;
844.8000;0.3370;1.3564;
845.1000;0.3337;1.3539;
845.4000;0.3354;1.3491;
845.7000;0.3378;1.3637;
846.0000;0.3362;1.3759;
846.3000;0.3354;1.3735;
846.6000;0.3370;1.3662;
846.9000;0.3378;1.3710;
847.2000;0.3370;1.3662;
847.5000;0.3362;1.3637;
847.8000;0.3329;1.3564;
848.1000;0.3370;1.3637;
848.4000;0.3346;1.3539;
848.7000;0.3370;1.3637;
849.0000;0.3370;1.3735;
849.3000;0.3362;1.3710;
849.6000;0.3362;1.3784;
849.9000;0.3354;1.3637;
850.2000;0.3354;1.3637;
850.5000;0.3394;1.3710;
850.8000;0.3354;1.3613;
851.1000;0.3362;1.3564;
851.4000;0.3337;1.3588;
851.7000;0.3394;1.3686;
852.0000;0.3346;1.3515;
852.3000;0.3362;1.3515;
852.6000;0.3346;1.3564;
852.9000;0.3346;1.3637;
853.2000;0.3346;1.3588;
853.5000;0.3460;1.3857;
853.8000;0.3354;1.3613;
854.1000;0.3313;1.3466;
854.4000;0.3337;1.3539;
854.7000;0.3346;1.3662;
855.0000;0.3337;1.3662;
855.3000;0.3362;1.3662;
855.6000;0.3362;1.3686;
855.9000;0.3354;1.3662;
856.2000;0.3337;1.3662;
856.5000;0.3370;1.3735;
856.8000;0.3354;1.3662;
857.1000;0.3305;1.3539;
857.4000;0.3346;1.3637;
857.7000;0.3305;1.3491;
858.0000;0.3329;1.3539;
858.3000;0.3329;1.3491;
858.6000;0.3378;1.3637;
858.9000;0.3403;1.3662;
859.2000;0.3354;1.3515;
859.5000;0.3346;1.3515;
859.8000;0.3362;1.3613;
860.1000;0.3378;1.3637;
860.4000;0.3354;1.3613;
860.7000;0.3337;1.3564;
861.0000;0.3451;1.3930;
861.3000;0.3346;1.3735;
861.6000;0.3370;1.3808;
861.9000;0.3346;1.3784;
862.2000;0.3354;1.3857;
862.5000;0.3362;1.3906;
862.8000;0.3346;1.3808;
863.1000;0.3354;1.3735;
863.4000;0.3354;1.3588;
863.7000;0.3362;1.3588;
864.0000;0.3354;1.3588;
864.3000;0.3313;1.3588;
864.6000;0.3362;1.3637;
864.9000;0.3346;1.3637;
865.2000;0.3354;1.3710;
865.5000;0.3337;1.3686;
865.8000;0.3354;1.3686;
866.1000;0.3354;1.3710;
866.4000;0.3354;1.3710;
866.7000;0.3354;1.3613;
867.0000;0.3346;1.3613;
867.3000;0.3329;1.3588;
867.6000;0.3337;1.3662;
867.9000;0.3337;1.3613;
868.2000;0.3354;1.3539;
868.5000;0.3337;1.3539;
868.8000;0.3337;1.3466;
869.1000;0.3346;1.3515;
869.4000;0.3329;1.3539;
869.7000;0.3346;1.3539;
870.0000;0.3337;1.3515;
870.3000;0.3370;1.3588;
870.6000;0.3297;1.3491;
870.9000;0.3337;1.3564;
871.2000;0.3362;1.3637;
871.5000;0.3346;1.3637;
871.8000;0.3354;1.3662;
872.1000;0.3337;1.3539;
872.4000;0.3313;1.3417;
872.7000;0.3337;1.3491;
873.0000;0.3403;1.3588;
873.3000;0.3354;1.3466;
873.6000;0.3346;1.3491;
873.9000;0.3329;1.3515;
874.2000;0.3362;1.3515;
874.5000;0.3346;1.3466;
874.8000;0.3386;1.3491;
875.1000;0.3370;1.3491;
875.4000;0.3346;1.3613;
875.7000;0.3337;1.3588;
876.0000;0.3354;1.3564;
876.3000;0.3337;1.3613;
876.6000;0.3337;1.3637;
876.9000;0.3337;1.3637;
877.2000;0.3321;1.3491;
877.5000;0.3346;1.3515;
877.8000;0.3354;1.3466;
878.1000;0.3337;1.3417;
878.4000;0.3346;1.3393;
878.7000;0.3354;1.3368;
879.0000;0.3451;1.3662;
879.3000;0.3337;1.3393;
879.6000;0.3337;1.3417;
879.9000;0.3337;1.3442;
880.2000;0.3346;1.3417;
880.5000;0.3329;1.3393;
880.8000;0.3427;1.3588;
881.1000;0.3337;1.3393;
881.4000;0.3337;1.3417;
881.7000;0.3337;1.3417;
882.0000;0.3337;1.3515;
882.3000;0.3346;1.3588;
882.6000;0.3354;1.3539;
882.9000;0.3362;1.3466;
883.2000;0.3346;1.3491;
883.5000;0.3337;1.3442;
883.8000;0.3354;1.3564;
884.1000;0.3354;1.3588;
884.4000;0.3354;1.3637;
884.7000;0.3337;1.3564;
885.0000;0.3386;1.3637;
885.3000;0.3362;1.3588;
885.6000;0.3354;1.3564;
885.9000;0.3346;1.3613;
886.2000;0.3346;1.3613;
886.5000;0.3346;1.3588;
886.8000;0.3337;1.3588;
887.1000;0.3346;1.3662;
887.4000;0.3329;1.3539;
887.7000;0.3346;1.3588;
888.0000;0.3354;1.3637;
888.3000;0.3337;1.3588;
888.6000;0.3346;1.3637;
888.9000;0.3362;1.3686;
889.2000;0.3346;1.3588;
889.5000;0.3337;1.3588;
889.8000;0.3346;1.3564;
890.1000;0.3337;1.3491;
890.4000;0.3346;1.3491;
890.7000;0.3337;1.3442;
891.0000;0.3346;1.3466;
891.3000;0.3272;1.3319;
891.6000;0.3346;1.3588;
891.9000;0.3346;1.3588;
892.2000;0.3329;1.3442;
892.5000;0.3321;1.3442;
892.8000;0.3305;1.3368;
893.1000;0.3354;1.3515;
893.4000;0.3354;1.3515;
893.7000;0.3337;1.3491;
894.0000;0.3337;1.3588;
894.3000;0.3337;1.3637;
894.6000;0.3427;1.3808;
894.9000;0.3337;1.3539;
895.2000;0.3378;1.3662;
895.5000;0.3354;1.3613;
895.8000;0.3346;1.3564;
896.1000;0.3321;1.3515;
896.4000;0.3321;1.3564;
896.7000;0.3346;1.3637;
897.0000;0.3329;1.3637;
897.3000;0.3346;1.3588;
897.6000;0.3329;1.3564;
897.9000;0.3362;1.3588;
898.2000;0.3297;1.3368;
898.5000;0.3337;1.3491;
898.8000;0.3354;1.3637;
899.1000;0.3329;1.3637;
899.4000;0.3354;1.3710;
899.7000;0.3329;1.3710;
900.0000;0.3313;1.3686;
900.3000;0.3321;1.3637;
900.6000;0.3337;1.3710;
900.9000;0.3346;1.3833;
901.2000;0.3337;1.3808;
901.5000;0.3329;1.3784;
901.8000;0.3346;1.3710;
902.1000;0.3337;1.3686;
902.4000;0.3329;1.3588;
902.7000;0.3321;1.3515;
903.0000;0.3362;1.3564;
903.3000;0.3354;1.3564;
903.6000;0.3313;1.3442;
903.9000;0.3337;1.3564;
904.2000;0.3354;1.3637;
904.5000;0.3337;1.3613;
904.8000;0.3370;1.3662;
905.1000;0.3346;1.3539;
905.4000;0.3354;1.3588;
905.7000;0.3329;1.3564;
906.0000;0.3362;1.3613;
906.3000;0.3337;1.3564;
906.6000;0.3337;1.3686;
906.9000;0.3337;1.3784;
907.2000;0.3329;1.3833;
907.5000;0.3337;1.3882;
907.8000;0.3346;1.3906;
908.1000;0.3321;1.3882;
908.4000;0.3329;1.3930;
908.7000;0.3354;1.3979;
909.0000;0.3411;1.4175;
909.3000;0.3337;1.3833;
909.6000;0.3337;1.3882;
909.9000;0.3354;1.3808;
910.2000;0.3329;1.3759;
910.5000;0.3321;1.3686;
910.8000;0.3337;1.3808;
911.1000;0.3346;1.3710;
911.4000;0.3337;1.3686;
911.7000;0.3337;1.3613;
912.0000;0.3346;1.3637;
912.3000;0.3346;1.3710;
912.6000;0.3337;1.3686;
912.9000;0.3378;1.3759;
913.2000;0.3346;1.3759;
913.5000;0.3346;1.3686;
913.8000;0.3329;1.3515;
914.1000;0.3337;1.3417;
914.4000;0.3313;1.3368;
914.7000;0.3321;1.3491;
915.0000;0.3329;1.3515;
915.3000;0.3337;1.3515;
915.6000;0.3337;1.3539;
915.9000;0.3321;1.3515;
916.2000;0.3297;1.3442;
916.5000;0.3313;1.3466;
916.8000;0.3337;1.3466;
917.1000;0.3362;1.3466;
917.4000;0.3370;1.3515;
917.7000;0.3329;1.3466;
918.0000;0.3362;1.3539;
918.3000;0.3362;1.3466;
918.6000;0.3337;1.3491;
918.9000;0.3313;1.3539;
919.2000;0.3329;1.3539;
919.5000;0.3313;1.3539;
919.8000;0.3329;1.3564;
920.1000;0.3329;1.3564;
920.4000;0.3386;1.3759;
920.7000;0.3337;1.3637;
921.0000;0.3321;1.3613;
921.3000;0.3337;1.3686;
921.6000;0.3321;1.3564;
921.9000;0.3337;1.3564;
922.2000;0.3321;1.3564;
922.5000;0.3337;1.3539;
922.8000;0.3289;1.3515;
923.1000;0.3313;1.3613;
923.4000;0.3337;1.3637;
923.7000;0.3337;1.3564;
924.0000;0.3346;1.3588;
924.3000;0.3354;1.3588;
924.6000;0.3354;1.3613;
924.9000;0.3337;1.3613;
925.2000;0.3337;1.3662;
925.5000;0.3337;1.3735;
925.8000;0.3329;1.3808;
926.1000;0.3337;1.3784;
926.4000;0.3321;1.3637;
926.7000;0.3321;1.3564;
927.0000;0.3337;1.3539;
927.3000;0.3321;1.3515;
927.6000;0.3346;1.3539;
927.9000;0.3297;1.3491;
928.2000;0.3305;1.3564;
928.5000;0.3354;1.3735;
928.8000;0.3289;1.3662;
929.1000;0.3346;1.3808;
929.4000;0.3321;1.3710;
929.7000;0.3329;1.3710;
930.0000;0.3354;1.3808;
930.3000;0.3346;1.3808;
930.6000;0.3321;1.3759;
930.9000;0.3321;1.3564;
931.2000;0.3321;1.3637;
931.5000;0.3305;1.3466;
931.8000;0.3337;1.3564;
932.1000;0.3386;1.3662;
932.4000;0.3337;1.3466;
932.7000;0.3321;1.3466;
933.0000;0.3321;1.3466;
933.3000;0.3354;1.3539;
933.6000;0.3313;1.3417;
933.9000;0.3329;1.3417;
934.2000;0.3321;1.3393;
934.5000;0.3337;1.3417;
934.8000;0.3321;1.3393;
935.1000;0.3313;1.3417;
935.4000;0.3337;1.3588;
935.7000;0.3329;1.3613;
936.0000;0.3378;1.3662;
936.3000;0.3289;1.3442;
936.6000;0.3329;1.3564;
936.9000;0.3329;1.3539;
937.2000;0.3305;1.3564;
937.5000;0.3370;1.3759;
937.8000;0.3329;1.3662;
938.1000;0.3329;1.3662;
938.4000;0.3256;1.3466;
938.7000;0.3337;1.3613;
939.0000;0.3329;1.3637;
939.3000;0.3337;1.3613;
939.6000;0.3321;1.3588;
939.9000;0.3313;1.3637;
940.2000;0.3329;1.3686;
940.5000;0.3329;1.3735;
940.8000;0.3264;1.3491;
941.1000;0.3313;1.3613;
941.4000;0.3386;1.3759;
941.7000;0.3386;1.3784;
942.0000;0.3321;1.3539;
942.3000;0.3337;1.3466;
942.6000;0.3329;1.3393;
942.9000;0.3305;1.3368;
943.2000;0.3329;1.3417;
943.5000;0.3329;1.3466;
943.8000;0.3305;1.3466;
944.1000;0.3329;1.3613;
944.4000;0.3329;1.3564;
944.7000;0.3329;1.3539;
945.0000;0.3394;1.3662;
945.3000;0.3337;1.3539;
945.6000;0.3329;1.3515;
945.9000;0.3313;1.3466;
946.2000;0.3337;1.3539;
946.5000;0.3354;1.3564;
946.8000;0.3297;1.3319;
947.1000;0.3321;1.3442;
947.4000;0.3329;1.3442;
947.7000;0.3305;1.3393;
948.0000;0.3329;1.3417;
948.3000;0.3321;1.3466;
948.6000;0.3321;1.3539;
948.9000;0.3386;1.3759;
949.2000;0.3329;1.3588;
949.5000;0.3321;1.3466;
949.8000;0.3280;1.3368;
950.1000;0.3354;1.3613;
950.4000;0.3329;1.3564;
950.7000;0.3321;1.3564;
951.0000;0.3362;1.3613;
951.3000;0.3329;1.3515;
951.6000;0.3329;1.3295;
951.9000;0.3321;1.3222;
952.2000;0.3321;1.3344;
952.5000;0.3362;1.3417;
952.8000;0.3321;1.3393;
953.1000;0.3297;1.3393;
953.4000;0.3329;1.3442;
953.7000;0.3329;1.3515;
954.0000;0.3354;1.3466;
954.3000;0.3346;1.3393;
954.6000;0.3321;1.3344;
954.9000;0.3280;1.3222;
955.2000;0.3256;1.3148;
955.5000;0.3321;1.3319;
955.8000;0.3313;1.3271;
956.1000;0.3354;1.3393;
956.4000;0.3321;1.3295;
956.7000;0.3329;1.3417;
957.0000;0.3329;1.3417;
957.3000;0.3305;1.3344;
957.6000;0.3346;1.3344;
957.9000;0.3321;1.3295;
958.2000;0.3337;1.3295;
958.5000;0.3321;1.3246;
958.8000;0.3321;1.3222;
959.1000;0.3329;1.3295;
959.4000;0.3305;1.3246;
959.7000;0.3305;1.3222;
960.0000;0.3321;1.3295;
960.3000;0.3329;1.3368;
960.6000;0.3329;1.3319;
960.9000;0.3337;1.3319;
961.2000;0.3264;1.3197;
961.5000;0.3313;1.3393;
961.8000;0.3354;1.3417;
962.1000;0.3321;1.3393;
962.4000;0.3370;1.3613;
962.7000;0.3313;1.3442;
963.0000;0.3337;1.3515;
963.3000;0.3329;1.3515;
963.6000;0.3370;1.3588;
963.9000;0.3321;1.3515;
964.2000;0.3337;1.3539;
964.5000;0.3321;1.3442;
964.8000;0.3289;1.3442;
965.1000;0.3313;1.3442;
965.4000;0.3321;1.3515;
965.7000;0.3321;1.3515;
966.0000;0.3305;1.3442;
966.3000;0.3329;1.3417;
966.6000;0.3329;1.3417;
966.9000;0.3313;1.3417;
967.2000;0.3329;1.3491;
967.5000;0.3329;1.3515;
967.8000;0.3321;1.3515;
968.1000;0.3346;1.3564;
968.4000;0.3329;1.3442;
968.7000;0.3321;1.3491;
969.0000;0.3329;1.3588;
969.3000;0.3337;1.3613;
969.6000;0.3321;1.3491;
969.9000;0.3321;1.3466;
970.2000;0.3329;1.3564;
970.5000;0.3321;1.3564;
970.8000;0.3297;1.3515;
971.1000;0.3329;1.3588;
971.4000;0.3313;1.3588;
971.7000;0.3386;1.3759;
972.0000;0.3289;1.3662;
972.3000;0.3305;1.3686;
972.6000;0.3313;1.3735;
972.9000;0.3321;1.3759;
973.2000;0.3329;1.3784;
973.5000;0.3305;1.3759;
973.8000;0.3329;1.3735;
974.1000;0.3337;1.3710;
974.4000;0.3329;1.3759;
974.7000;0.3321;1.3662;
975.0000;0.3329;1.3784;
975.3000;0.3313;1.3808;
975.6000;0.3321;1.3784;
975.9000;0.3321;1.3735;
976.2000;0.3321;1.3613;
976.5000;0.3313;1.3564;
976.8000;0.3337;1.3637;
977.1000;0.3313;1.3539;
977.4000;0.3313;1.3539;
977.7000;0.3337;1.3588;
978.0000;0.3313;1.3564;
978.3000;0.3313;1.3637;
978.6000;0.3337;1.3710;
978.9000;0.3394;1.3808;
979.2000;0.3346;1.3735;
979.5000;0.3313;1.3710;
979.8000;0.3313;1.3759;
980.1000;0.3329;1.3735;
980.4000;0.3329;1.3759;
980.7000;0.3321;1.3759;
981.0000;0.3329;1.3710;
981.3000;0.3313;1.3662;
981.6000;0.3313;1.3637;
981.9000;0.3305;1.3686;
982.2000;0.3297;1.3662;
982.5000;0.3313;1.3662;
982.8000;0.3305;1.3662;
983.1000;0.3297;1.3588;
983.4000;0.3313;1.3539;
983.7000;0.3313;1.3613;
984.0000;0.3329;1.3588;
984.3000;0.3313;1.3539;
984.6000;0.3337;1.3564;
984.9000;0.3313;1.3491;
985.2000;0.3313;1.3466;
985.5000;0.3378;1.3662;
985.8000;0.3321;1.3515;
986.1000;0.3313;1.3466;
986.4000;0.3305;1.3417;
986.7000;0.3321;1.3491;
987.0000;0.3346;1.3588;
987.3000;0.3337;1.3588;
987.6000;0.3305;1.3564;
987.9000;0.3321;1.3613;
988.2000;0.3240;1.3393;
988.5000;0.3313;1.3588;
988.8000;0.3321;1.3613;
989.1000;0.3305;1.3662;
989.4000;0.3305;1.3710;
989.7000;0.3321;1.3735;
990.0000;0.3313;1.3662;
990.3000;0.3264;1.3466;
990.6000;0.3321;1.3686;
990.9000;0.3297;1.3686;
991.2000;0.3305;1.3735;
991.5000;0.3297;1.3686;
991.8000;0.3313;1.3588;
992.1000;0.3313;1.3539;
992.4000;0.3240;1.3295;
992.7000;0.3321;1.3539;
993.0000;0.3321;1.3564;
993.3000;0.3248;1.3442;
993.6000;0.3305;1.3613;
993.9000;0.3321;1.3662;
994.2000;0.3321;1.3686;
994.5000;0.3370;1.3882;
994.8000;0.3305;1.3735;
995.1000;0.3313;1.3662;
995.4000;0.3337;1.3759;
995.7000;0.3313;1.3784;
996.0000;0.3256;1.3808;
996.3000;0.3313;1.3857;
996.6000;0.3313;1.3784;
996.9000;0.3321;1.3808;
997.2000;0.3305;1.3662;
997.5000;0.3321;1.3662;
997.8000;0.3321;1.3637;
998.1000;0.3305;1.3588;
998.4000;0.3297;1.3588;
998.7000;0.3305;1.3539;
999.0000;0.3313;1.3613;
999.3000;0.3346;1.3686;
999.6000;0.3313;1.3637;
999.9000;0.3313;1.3564;
1000.2000;0.3329;1.3662;
1000.5000;0.3313;1.3686;
1000.8000;0.3329;1.3759;
1001.1000;0.3337;1.3833;
1001.4000;0.3313;1.3735;
1001.7000;0.3289;1.3710;
1002.0000;0.3305;1.3784;
1002.3000;0.3305;1.3710;
1002.6000;0.3321;1.3637;
1002.9000;0.3272;1.3539;
1003.2000;0.3297;1.3662;
1003.5000;0.3321;1.3710;
1003.8000;0.3313;1.3662;
1004.1000;0.3280;1.3588;
1004.4000;0.3313;1.3637;
1004.7000;0.3313;1.3637;
1005.0000;0.3313;1.3662;
1005.3000;0.3321;1.3637;
1005.6000;0.3305;1.3564;
1005.9000;0.3321;1.3539;
1006.2000;0.3272;1.3442;
1006.5000;0.3329;1.3515;
1006.8000;0.3289;1.3515;
1007.1000;0.3313;1.3491;
1007.4000;0.3354;1.3588;
1007.7000;0.3289;1.3466;
1008.0000;0.3305;1.3564;
1008.3000;0.3321;1.3564;
1008.6000;0.3305;1.3442;
1008.9000;0.3297;1.3393;
1009.2000;0.3305;1.3344;
1009.5000;0.3378;1.3539;
1009.8000;0.3354;1.3515;
1010.1000;0.3329;1.3442;
1010.4000;0.3346;1.3491;
1010.7000;0.3321;1.3466;
1011.0000;0.3313;1.3466;
1011.3000;0.3329;1.3491;
1011.6000;0.3329;1.3515;
1011.9000;0.3297;1.3466;
1012.2000;0.3321;1.3564;
1012.5000;0.3240;1.3491;
1012.8000;0.3329;1.3710;
1013.1000;0.3313;1.3735;
1013.4000;0.3329;1.3784;
1013.7000;0.3321;1.3662;
1014.0000;0.3321;1.3588;
1014.3000;0.3362;1.3735;
1014.6000;0.3321;1.3613;
1014.9000;0.3321;1.3662;
1015.2000;0.3329;1.3564;
1015.5000;0.3256;1.3368;
1015.8000;0.3329;1.3564;
1016.1000;0.3305;1.3491;
1016.4000;0.3313;1.3417;
1016.7000;0.3313;1.3466;
1017.0000;0.3256;1.3344;
1017.3000;0.3329;1.3515;
1017.6000;0.3305;1.3466;
1017.9000;0.3289;1.3368;
1018.2000;0.3313;1.3491;
1018.5000;0.3313;1.3539;
1018.8000;0.3297;1.3564;
1019.1000;0.3297;1.3491;
1019.4000;0.3305;1.3515;
1019.7000;0.3313;1.3539;
1020.0000;0.3289;1.3564;
1020.3000;0.3313;1.3637;
1020.6000;0.3354;1.3784;
1020.9000;0.3305;1.3735;
1021.2000;0.3289;1.3637;
1021.5000;0.3297;1.3662;
1021.8000;0.3321;1.3662;
1022.1000;0.3305;1.3662;
1022.4000;0.3305;1.3613;
1022.7000;0.3492;1.3955;
1023.0000;0.3297;1.3442;
1023.3000;0.3248;1.3344;
1023.6000;0.3329;1.3466;
1023.9000;0.3346;1.3491;
1024.2000;0.3313;1.3491;
1024.5000;0.3264;1.3393;
1024.8000;0.3289;1.3491;
1025.1000;0.3337;1.3539;
1025.4000;0.3329;1.3564;
1025.7000;0.3313;1.3564;
1026.0000;0.3305;1.3515;
1026.3000;0.3313;1.3539;
1026.6000;0.3337;1.3564;
1026.9000;0.3321;1.3515;
1027.2000;0.3313;1.3515;
1027.5000;0.3313;1.3539;
1027.8000;0.3321;1.3613;
1028.1000;0.3337;1.3686;
1028.4000;0.3305;1.3613;
1028.7000;0.3346;1.3759;
1029.0000;0.3297;1.3588;
1029.3000;0.3321;1.3515;
1029.6000;0.3272;1.3417;
1029.9000;0.3305;1.3539;
1030.2000;0.3313;1.3539;
1030.5000;0.3280;1.3539;
1030.8000;0.3289;1.3515;
1031.1000;0.3313;1.3588;
1031.4000;0.3264;1.3417;
1031.7000;0.3280;1.3515;
1032.0000;0.3289;1.3491;
1032.3000;0.3297;1.3539;
1032.6000;0.3321;1.3588;
1032.9000;0.3313;1.3588;
1033.2000;0.3403;1.3735;
1033.5000;0.3297;1.3368;
1033.8000;0.3321;1.3442;
1034.1000;0.3321;1.3466;
1034.4000;0.3346;1.3613;
1034.7000;0.3297;1.3466;
1035.0000;0.3313;1.3539;
1035.3000;0.3321;1.3613;
1035.6000;0.3305;1.3588;
1035.9000;0.3305;1.3442;
1036.2000;0.3232;1.3271;
1036.5000;0.3297;1.3515;
1036.8000;0.3305;1.3417;
1037.1000;0.3289;1.3417;
1037.4000;0.3289;1.3393;
1037.7000;0.3289;1.3368;
1038.0000;0.3305;1.3344;
1038.3000;0.3329;1.3466;
1038.6000;0.3313;1.3515;
1038.9000;0.3313;1.3417;
1039.2000;0.3321;1.3368;
1039.5000;0.3329;1.3368;
1039.8000;0.3305;1.3295;
1040.1000;0.3297;1.3271;
1040.4000;0.3305;1.3271;
1040.7000;0.3297;1.3295;
1041.0000;0.3329;1.3515;
1041.3000;0.3313;1.3637;
1041.6000;0.3337;1.3613;
1041.9000;0.3289;1.3442;
1042.2000;0.3313;1.3491;
1042.5000;0.3305;1.3515;
1042.8000;0.3272;1.3442;
1043.1000;0.3305;1.3515;
1043.4000;0.3297;1.3466;
1043.7000;0.3329;1.3442;
1044.0000;0.3305;1.3466;
1044.3000;0.3313;1.3491;
1044.6000;0.3337;1.3515;
1044.9000;0.3297;1.3466;
1045.2000;0.3305;1.3442;
1045.5000;0.3321;1.3466;
1045.8000;0.3313;1.3344;
1046.1000;0.3313;1.3344;
1046.4000;0.3329;1.3319;
1046.7000;0.3313;1.3295;
1047.0000;0.3305;1.3344;
1047.3000;0.3337;1.3393;
1047.6000;0.3305;1.3393;
1047.9000;0.3272;1.3295;
1048.2000;0.3313;1.3417;
1048.5000;0.3313;1.3368;
1048.8000;0.3313;1.3368;
1049.1000;0.3394;1.3613;
1049.4000;0.3305;1.3417;
1049.7000;0.3280;1.3417;
1050.0000;0.3354;1.3613;
1050.3000;0.3297;1.3466;
1050.6000;0.3305;1.3466;
1050.9000;0.3305;1.3491;
1051.2000;0.3305;1.3466;
1051.5000;0.3305;1.3515;
1051.8000;0.3297;1.3491;
1052.1000;0.3370;1.3637;
1052.4000;0.3313;1.3491;
1052.7000;0.3378;1.3637;
1053.0000;0.3313;1.3491;
1053.3000;0.3313;1.3491;
1053.6000;0.3321;1.3491;
1053.9000;0.3305;1.3491;
1054.2000;0.3313;1.3491;
1054.5000;0.3313;1.3515;
1054.8000;0.3297;1.3466;
1055.1000;0.3289;1.3491;
1055.4000;0.3280;1.3344;
1055.7000;0.3289;1.3319;
1056.0000;0.3305;1.3393;
1056.3000;0.3289;1.3442;
1056.6000;0.3256;1.3417;
1056.9000;0.3305;1.3564;
1057.2000;0.3313;1.3637;
1057.5000;0.3289;1.3588;
1057.8000;0.3305;1.3515;
1058.1000;0.3354;1.3662;
1058.4000;0.3313;1.3613;
1058.7000;0.3313;1.3588;
1059.0000;0.3321;1.3637;
1059.3000;0.3305;1.3588;
1059.6000;0.3280;1.3515;
1059.9000;0.3313;1.3564;
1060.2000;0.3305;1.3564;
1060.5000;0.3321;1.3637;
1060.8000;0.3346;1.3710;
1061.1000;0.3289;1.3515;
1061.4000;0.3313;1.3564;
1061.7000;0.3289;1.3564;
1062.0000;0.3305;1.3637;
1062.3000;0.3289;1.3637;
1062.6000;0.3289;1.3442;
1062.9000;0.3264;1.3368;
1063.2000;0.3313;1.3491;
1063.5000;0.3305;1.3442;
1063.8000;0.3337;1.3515;
1064.1000;0.3321;1.3491;
1064.4000;0.3321;1.3442;
1064.7000;0.3362;1.3515;
1065.0000;0.3321;1.3466;
1065.3000;0.3329;1.3466;
1065.6000;0.3289;1.3344;
1065.9000;0.3313;1.3393;
1066.2000;0.3313;1.3393;
1066.5000;0.3321;1.3466;
1066.8000;0.3297;1.3491;
1067.1000;0.3297;1.3466;
1067.4000;0.3346;1.3564;
1067.7000;0.3297;1.3466;
1068.0000;0.3289;1.3466;
1068.3000;0.3313;1.3539;
1068.6000;0.3289;1.3515;
1068.9000;0.3256;1.3491;
1069.2000;0.3362;1.3784;
1069.5000;0.3321;1.3662;
1069.8000;0.3313;1.3613;
1070.1000;0.3337;1.3686;
1070.4000;0.3329;1.3637;
1070.7000;0.3321;1.3662;
1071.0000;0.3313;1.3588;
1071.3000;0.3321;1.3588;
1071.6000;0.3297;1.3588;
1071.9000;0.3305;1.3637;
1072.2000;0.3313;1.3662;
1072.5000;0.3313;1.3662;
1072.8000;0.3313;1.3662;
1073.1000;0.3321;1.3662;
1073.4000;0.3321;1.3662;
1073.7000;0.3305;1.3662;
1074.0000;0.3297;1.3662;
1074.3000;0.3321;1.3613;
1074.6000;0.3354;1.3662;
1074.9000;0.3321;1.3442;
1075.2000;0.3346;1.3491;
1075.5000;0.3305;1.3466;
1075.8000;0.3305;1.3564;
1076.1000;0.3313;1.3588;
1076.4000;0.3280;1.3442;
1076.7000;0.3305;1.3442;
1077.0000;0.3305;1.3393;
1077.3000;0.3305;1.3442;
1077.6000;0.3297;1.3442;
1077.9000;0.3313;1.3564;
1078.2000;0.3289;1.3662;
1078.5000;0.3305;1.3637;
1078.8000;0.3305;1.3515;
1079.1000;0.3305;1.3491;
1079.4000;0.3313;1.3442;
1079.7000;0.3297;1.3491;
1080.0000;0.3321;1.3515;
1080.3000;0.3313;1.3491;
1080.6000;0.3289;1.3368;
1080.9000;0.3370;1.3539;
1081.2000;0.3321;1.3417;
1081.5000;0.3313;1.3515;
1081.8000;0.3305;1.3515;
1082.1000;0.3305;1.3588;
1082.4000;0.3289;1.3588;
1082.7000;0.3321;1.3613;
1083.0000;0.3297;1.3539;
1083.3000;0.3305;1.3662;
1083.6000;0.3313;1.3613;
1083.9000;0.3305;1.3710;
1084.2000;0.3313;1.3857;
1084.5000;0.3305;1.3808;
1084.8000;0.3354;1.3857;
1085.1000;0.3321;1.3808;
1085.4000;0.3313;1.3857;
1085.7000;0.3305;1.3759;
1086.0000;0.3305;1.3735;
1086.3000;0.3289;1.3735;
1086.6000;0.3297;1.3784;
1086.9000;0.3272;1.3735;
1087.2000;0.3289;1.3710;
1087.5000;0.3248;1.3613;
1087.8000;0.3232;1.3491;
1088.1000;0.3297;1.3735;
1088.4000;0.3289;1.3637;
1088.7000;0.3305;1.3662;
1089.0000;0.3289;1.3613;
1089.3000;0.3321;1.3735;
1089.6000;0.3313;1.3637;
1089.9000;0.3321;1.3613;
1090.2000;0.3313;1.3539;
1090.5000;0.3297;1.3588;
1090.8000;0.3305;1.3564;
1091.1000;0.3297;1.3588;
1091.4000;0.3289;1.3588;
1091.7000;0.3289;1.3539;
1092.0000;0.3370;1.3735;
1092.3000;0.3313;1.3539;
1092.6000;0.3313;1.3564;
1092.9000;0.3305;1.3539;
1093.2000;0.3297;1.3588;
1093.5000;0.3321;1.3662;
1093.8000;0.3313;1.3686;
1094.1000;0.3403;1.3955;
1094.4000;0.3313;1.3588;
1094.7000;0.3321;1.3613;
1095.0000;0.3305;1.3613;
1095.3000;0.3321;1.3613;
1095.6000;0.3321;1.3539;
1095.9000;0.3321;1.3588;
1096.2000;0.3305;1.3662;
1096.5000;0.3280;1.3588;
1096.8000;0.3289;1.3564;
1097.1000;0.3305;1.3539;
1097.4000;0.3305;1.3442;
1097.7000;0.3289;1.3564;
1098.0000;0.3280;1.3515;
1098.3000;0.3305;1.3515;
1098.6000;0.3289;1.3393;
1098.9000;0.3305;1.3491;
1099.2000;0.3272;1.3442;
1099.5000;0.3321;1.3588;
1099.8000;0.3329;1.3686;
1100.1000;0.3321;1.3662;
1100.4000;0.3329;1.3662;
1100.7000;0.3305;1.3710;
1101.0000;0.3321;1.3686;
1101.3000;0.3305;1.3637;
1101.6000;0.3297;1.3613;
1101.9000;0.3305;1.3588;
1102.2000;0.3313;1.3637;
1102.5000;0.3289;1.3539;
1102.8000;0.3297;1.3491;
1103.1000;0.3305;1.3417;
1103.4000;0.3305;1.3442;
1103.7000;0.3305;1.3564;
1104.0000;0.3321;1.3588;
1104.3000;0.3297;1.3466;
1104.6000;0.3305;1.3368;
1104.9000;0.3362;1.3588;
1105.2000;0.3321;1.3442;
1105.5000;0.3305;1.3393;
1105.8000;0.3305;1.3442;
1106.1000;0.3297;1.3417;
1106.4000;0.3280;1.3393;
1106.7000;0.3289;1.3319;
1107.0000;0.3297;1.3319;
1107.3000;0.3313;1.3466;
1107.6000;0.3305;1.3466;
1107.9000;0.3305;1.3491;
1108.2000;0.3305;1.3466;
1108.5000;0.3313;1.3491;
1108.8000;0.3313;1.3442;
1109.1000;0.3313;1.3344;
1109.4000;0.3305;1.3393;
1109.7000;0.3305;1.3271;
1110.0000;0.3313;1.3295;
1110.3000;0.3321;1.3319;
1110.6000;0.3305;1.3368;
1110.9000;0.3297;1.3393;
1111.2000;0.3313;1.3491;
1111.5000;0.3305;1.3491;
1111.8000;0.3305;1.3491;
1112.1000;0.3313;1.3466;
1112.4000;0.3313;1.3466;
1112.7000;0.3313;1.3466;
1113.0000;0.3313;1.3466;
1113.3000;0.3297;1.3466;
1113.6000;0.3305;1.3491;
1113.9000;0.3321;1.3686;
1114.2000;0.3313;1.3662;
1114.5000;0.3297;1.3662;
1114.8000;0.3313;1.3613;
1115.1000;0.3313;1.3613;
1115.4000;0.3313;1.3637;
1115.7000;0.3289;1.3539;
1116.0000;0.3305;1.3539;
1116.3000;0.3297;1.3515;
1116.6000;0.3313;1.3539;
1116.9000;0.3313;1.3539;
1117.2000;0.3289;1.3588;
1117.5000;0.3305;1.3613;
1117.8000;0.3297;1.3588;
1118.1000;0.3305;1.3662;
1118.4000;0.3297;1.3539;
1118.7000;0.3321;1.3564;
1119.0000;0.3313;1.3613;
1119.3000;0.3240;1.3344;
1119.6000;0.3321;1.3491;
1119.9000;0.3378;1.3735;
1120.2000;0.3305;1.3539;
1120.5000;0.3297;1.3466;
1120.8000;0.3362;1.3637;
1121.1000;0.3313;1.3491;
1121.4000;0.3272;1.3368;
1121.7000;0.3305;1.3466;
1122.0000;0.3297;1.3442;
1122.3000;0.3289;1.3491;
1122.6000;0.3305;1.3539;
1122.9000;0.3215;1.3393;
1123.2000;0.3305;1.3588;
1123.5000;0.3305;1.3539;
1123.8000;0.3313;1.3613;
1124.1000;0.3305;1.3564;
1124.4000;0.3305;1.3491;
1124.7000;0.3289;1.3515;
1125.0000;0.3305;1.3564;
1125.3000;0.3305;1.3588;
1125.6000;0.3321;1.3515;
1125.9000;0.3289;1.3539;
1126.2000;0.3289;1.3491;
1126.5000;0.3289;1.3466;
1126.8000;0.3272;1.3442;
1127.1000;0.3280;1.3442;
1127.4000;0.3346;1.3613;
1127.7000;0.3297;1.3442;
1128.0000;0.3305;1.3442;
1128.3000;0.3280;1.3442;
1128.6000;0.3297;1.3417;
1128.9000;0.3313;1.3466;
1129.2000;0.3321;1.3515;
1129.5000;0.3289;1.3442;
1129.8000;0.3346;1.3588;
1130.1000;0.3305;1.3491;
1130.4000;0.3280;1.3417;
1130.7000;0.3305;1.3417;
1131.0000;0.3289;1.3393;
1131.3000;0.3297;1.3417;
1131.6000;0.3280;1.3417;
1131.9000;0.3297;1.3344;
1132.2000;0.3297;1.3466;
1132.5000;0.3280;1.3442;
1132.8000;0.3297;1.3344;
1133.1000;0.3370;1.3588;
1133.4000;0.3321;1.3515;
1133.7000;0.3313;1.3491;
1134.0000;0.3272;1.3515;
1134.3000;0.3321;1.3564;
1134.6000;0.3305;1.3564;
1134.9000;0.3289;1.3539;
1135.2000;0.3305;1.3588;
1135.5000;0.3313;1.3564;
1135.8000;0.3297;1.3539;
1136.1000;0.3305;1.3564;
1136.4000;0.3305;1.3539;
1136.7000;0.3305;1.3491;
1137.0000;0.3297;1.3442;
1137.3000;0.3297;1.3466;
1137.6000;0.3297;1.3466;
1137.9000;0.3272;1.3393;
1138.2000;0.3289;1.3417;
1138.5000;0.3297;1.3491;
1138.8000;0.3305;1.3515;
1139.1000;0.3337;1.3662;
1139.4000;0.3313;1.3539;
1139.7000;0.3305;1.3539;
1140.0000;0.3337;1.3613;
1140.3000;0.3313;1.3588;
1140.6000;0.3305;1.3662;
1140.9000;0.3321;1.3588;
1141.2000;0.3321;1.3588;
1141.5000;0.3289;1.3564;
1141.8000;0.3289;1.3564;
1142.1000;0.3362;1.3710;
1142.4000;0.3305;1.3539;
1142.7000;0.3297;1.3466;
1143.0000;0.3297;1.3442;
1143.3000;0.3272;1.3344;
1143.6000;0.3289;1.3442;
1143.9000;0.3289;1.3417;
1144.2000;0.3297;1.3466;
1144.5000;0.3313;1.3491;
1144.8000;0.3305;1.3466;
1145.1000;0.3297;1.3417;
1145.4000;0.3240;1.3271;
1145.7000;0.3297;1.3466;
1146.0000;0.3321;1.3491;
1146.3000;0.3264;1.3442;
1146.6000;0.3272;1.3442;
1146.9000;0.3297;1.3515;
1147.2000;0.3297;1.3515;
1147.5000;0.3280;1.3539;
1147.8000;0.3305;1.3637;
1148.1000;0.3321;1.3686;
1148.4000;0.3305;1.3686;
1148.7000;0.3305;1.3662;
1149.0000;0.3289;1.3735;
1149.3000;0.3305;1.3710;
1149.6000;0.3313;1.3735;
1149.9000;0.3289;1.3735;
1150.2000;0.3280;1.3759;
1150.5000;0.3289;1.3759;
1150.8000;0.3297;1.3735;
1151.1000;0.3272;1.3808;
1151.4000;0.3305;1.3906;
1151.7000;0.3297;1.3784;
1152.0000;0.3297;1.3857;
1152.3000;0.3297;1.3833;
1152.6000;0.3289;1.3759;
1152.9000;0.3313;1.3808;
1153.2000;0.3313;1.3808;
1153.5000;0.3346;1.3979;
1153.8000;0.3297;1.3882;
1154.1000;0.3297;1.3808;
1154.4000;0.3313;1.3735;
1154.7000;0.3305;1.3662;
1155.0000;0.3394;1.3857;
1155.3000;0.3305;1.3613;
1155.6000;0.3313;1.3613;
1155.9000;0.3305;1.3710;
1156.2000;0.3289;1.3710;
1156.5000;0.3321;1.3735;
1156.8000;0.3305;1.3686;
1157.1000;0.3297;1.3564;
1157.4000;0.3280;1.3515;
1157.7000;0.3313;1.3588;
1158.0000;0.3248;1.3491;
1158.3000;0.3321;1.3662;
1158.6000;0.3297;1.3686;
1158.9000;0.3305;1.3686;
1159.2000;0.3313;1.3686;
1159.5000;0.3321;1.3735;
1159.8000;0.3354;1.3759;
1160.1000;0.3248;1.3539;
1160.4000;0.3297;1.3637;
1160.7000;0.3305;1.3637;
1161.0000;0.3337;1.3857;
1161.3000;0.3289;1.3662;
1161.6000;0.3305;1.3759;
1161.9000;0.3264;1.3710;
1162.2000;0.3305;1.3759;
1162.5000;0.3297;1.3686;
1162.8000;0.3297;1.3637;
1163.1000;0.3321;1.3710;
1163.4000;0.3305;1.3735;
1163.7000;0.3313;1.3784;
1164.0000;0.3305;1.3808;
1164.3000;0.3297;1.3710;
1164.6000;0.3313;1.3710;
1164.9000;0.3297;1.3662;
1165.2000;0.3272;1.3588;
1165.5000;0.3280;1.3686;
1165.8000;0.3329;1.3857;
1166.1000;0.3289;1.3833;
1166.4000;0.3305;1.3882;
1166.7000;0.3297;1.3979;
1167.0000;0.3272;1.3857;
1167.3000;0.3297;1.3979;
1167.6000;0.3329;1.4077;
1167.9000;0.3280;1.3906;
1168.2000;0.3305;1.3955;
1168.5000;0.3297;1.3955;
1168.8000;0.3305;1.3955;
1169.1000;0.3297;1.3930;
1169.4000;0.3305;1.3906;
1169.7000;0.3313;1.3882;
1170.0000;0.3297;1.3833;
1170.3000;0.3297;1.3808;
1170.6000;0.3280;1.3710;
1170.9000;0.3297;1.3710;
1171.2000;0.3280;1.3588;
1171.5000;0.3297;1.3588;
1171.8000;0.3289;1.3588;
1172.1000;0.3305;1.3759;
1172.4000;0.3264;1.3735;
1172.7000;0.3289;1.3833;
1173.0000;0.3272;1.3906;
1173.3000;0.3313;1.3955;
1173.6000;0.3305;1.3979;
1173.9000;0.3313;1.4004;
1174.2000;0.3321;1.4102;
1174.5000;0.3305;1.3979;
1174.8000;0.3280;1.3882;
1175.1000;0.3305;1.3906;
1175.4000;0.3297;1.3857;
1175.7000;0.3297;1.3882;
1176.0000;0.3313;1.3930;
1176.3000;0.3272;1.3759;
1176.6000;0.3305;1.3833;
1176.9000;0.3313;1.3857;
1177.2000;0.3305;1.3833;
1177.5000;0.3329;1.3906;
1177.8000;0.3297;1.3759;
1178.1000;0.3305;1.3759;
1178.4000;0.3248;1.3686;
1178.7000;0.3305;1.3808;
1179.0000;0.3346;1.3882;
1179.3000;0.3313;1.3735;
1179.6000;0.3313;1.3686;
1179.9000;0.3297;1.3686;
1180.2000;0.3313;1.3686;
1180.5000;0.3280;1.3613;
1180.8000;0.3297;1.3662;
1181.1000;0.3272;1.3564;
1181.4000;0.3289;1.3710;
1181.7000;0.3297;1.3784;
1182.0000;0.3289;1.3710;
1182.3000;0.3329;1.3808;
1182.6000;0.3305;1.3784;
1182.9000;0.3305;1.3808;
1183.2000;0.3313;1.3930;
1183.5000;0.3321;1.3955;
1183.8000;0.3256;1.3882;
1184.1000;0.3297;1.3930;
1184.4000;0.3297;1.3979;
1184.7000;0.3297;1.4053;
1185.0000;0.3289;1.4077;
1185.3000;0.3337;1.4077;
1185.6000;0.3297;1.4004;
1185.9000;0.3297;1.3979;
1186.2000;0.3289;1.3882;
1186.5000;0.3280;1.3906;
1186.8000;0.3305;1.3882;
1187.1000;0.3297;1.3857;
1187.4000;0.3297;1.3857;
1187.7000;0.3305;1.3833;
1188.0000;0.3313;1.3833;
1188.3000;0.3305;1.3833;
1188.6000;0.3297;1.3930;
1188.9000;0.3305;1.3930;
1189.2000;0.3297;1.4004;
1189.5000;0.3305;1.4004;
1189.8000;0.3297;1.4028;
1190.1000;0.3289;1.3930;
1190.4000;0.3297;1.3930;
1190.7000;0.3289;1.3906;
1191.0000;0.3305;1.3955;
1191.3000;0.3337;1.3906;
1191.6000;0.3280;1.3808;
1191.9000;0.3313;1.3930;
1192.2000;0.3313;1.3979;
1192.5000;0.3280;1.4028;
1192.8000;0.3297;1.4053;
1193.1000;0.3305;1.4004;
1193.4000;0.3297;1.3930;
1193.7000;0.3313;1.3979;
1194.0000;0.3297;1.3955;
1194.3000;0.3305;1.3930;
1194.6000;0.3297;1.3906;
1194.9000;0.3313;1.3906;
1195.2000;0.3297;1.3833;
1195.5000;0.3297;1.3808;
1195.8000;0.3289;1.3833;
1196.1000;0.3280;1.3662;
1196.4000;0.3297;1.3662;
1196.7000;0.3280;1.3735;
1197.0000;0.3305;1.3759;
1197.3000;0.3280;1.3686;
1197.6000;0.3289;1.3735;
1197.9000;0.3297;1.3808;
1198.2000;0.3289;1.3710;
1198.5000;0.3305;1.3710;
1198.8000;0.3305;1.3686;
1199.1000;0.3289;1.3662;
1199.4000;0.3297;1.3662;
1199.7000;0.3264;1.3515;
1200.0000;0.3289;1.3539;
1200.3000;0.3329;1.3662;
1200.6000;0.3305;1.3564;
1200.9000;0.3256;1.3417;
1201.2000;0.3297;1.3515;
1201.5000;0.3272;1.3515;
1201.8000;0.3305;1.3613;
1202.1000;0.3305;1.3588;
1202.4000;0.3280;1.3588;
1202.7000;0.3280;1.3613;
1203.0000;0.3313;1.3808;
1203.3000;0.3313;1.3857;
1203.6000;0.3297;1.3784;
1203.9000;0.3313;1.3759;
1204.2000;0.3305;1.3759;
1204.5000;0.3305;1.3759;
1204.8000;0.3240;1.3491;
1205.1000;0.3297;1.3686;
1205.4000;0.3346;1.3882;
1205.7000;0.3321;1.3857;
1206.0000;0.3289;1.3857;
1206.3000;0.3305;1.3784;
1206.6000;0.3305;1.3808;
1206.9000;0.3313;1.3808;
1207.2000;0.3280;1.3808;
1207.5000;0.3272;1.3784;
1207.8000;0.3337;1.3955;
1208.1000;0.3297;1.3906;
1208.4000;0.3297;1.3930;
1208.7000;0.3264;1.3882;
1209.0000;0.3305;1.3930;
1209.3000;0.3280;1.3808;
1209.6000;0.3297;1.3808;
1209.9000;0.3297;1.3784;
1210.2000;0.3280;1.3808;
1210.5000;0.3305;1.3857;
1210.8000;0.3280;1.3808;
1211.1000;0.3289;1.3735;
1211.4000;0.3280;1.3686;
1211.7000;0.3313;1.3833;
1212.0000;0.3289;1.3808;
1212.3000;0.3346;1.3906;
1212.6000;0.3297;1.3808;
1212.9000;0.3362;1.3979;
1213.2000;0.3313;1.3808;
1213.5000;0.3297;1.3784;
1213.8000;0.3297;1.3735;
1214.1000;0.3305;1.3735;
1214.4000;0.3321;1.3857;
1214.7000;0.3313;1.3906;
1215.0000;0.3305;1.3833;
1215.3000;0.3297;1.3833;
1215.6000;0.3289;1.3833;
1215.9000;0.3313;1.3906;
1216.2000;0.3313;1.3955;
1216.5000;0.3305;1.3930;
1216.8000;0.3280;1.3906;
1217.1000;0.3297;1.3955;
1217.4000;0.3272;1.3808;
1217.7000;0.3297;1.3808;
1218.0000;0.3321;1.3857;
1218.3000;0.3305;1.3833;
1218.6000;0.3289;1.3784;
1218.9000;0.3297;1.3808;
1219.2000;0.3297;1.3808;
1219.5000;0.3272;1.3784;
1219.8000;0.3272;1.3833;
1220.1000;0.3297;1.3857;
1220.4000;0.3297;1.3735;
1220.7000;0.3313;1.3833;
1221.0000;0.3289;1.3735;
1221.3000;0.3321;1.3710;
1221.6000;0.3272;1.3710;
1221.9000;0.3289;1.3710;
1222.2000;0.3280;1.3662;
1222.5000;0.3321;1.3735;
1222.8000;0.3313;1.3735;
1223.1000;0.3240;1.3466;
1223.4000;0.3264;1.3564;
1223.7000;0.3297;1.3564;
1224.0000;0.3305;1.3588;
1224.3000;0.3280;1.3613;
1224.6000;0.3297;1.3637;
1224.9000;0.3256;1.3686;
1225.2000;0.3305;1.3930;
1225.5000;0.3289;1.3857;
1225.8000;0.3386;1.4248;
1226.1000;0.3305;1.3955;
1226.4000;0.3289;1.3906;
1226.7000;0.3313;1.3882;
1227.0000;0.3297;1.3784;
1227.3000;0.3280;1.3637;
1227.6000;0.3305;1.3637;
1227.9000;0.3297;1.3735;
1228.2000;0.3313;1.3759;
1228.5000;0.3305;1.3784;
1228.8000;0.3297;1.3784;
1229.1000;0.3289;1.3784;
1229.4000;0.3305;1.3833;
1229.7000;0.3297;1.3808;
1230.0000;0.3289;1.3759;
1230.3000;0.3305;1.3735;
1230.6000;0.3305;1.3662;
1230.9000;0.3313;1.3613;
1231.2000;0.3297;1.3662;
1231.5000;0.3289;1.3588;
1231.8000;0.3280;1.3564;
1232.1000;0.3289;1.3613;
1232.4000;0.3305;1.3613;
1232.7000;0.3305;1.3662;
1233.0000;0.3289;1.3686;
1233.3000;0.3280;1.3784;
1233.6000;0.3297;1.3735;
1233.9000;0.3289;1.3710;
1234.2000;0.3305;1.3808;
1234.5000;0.3305;1.3857;
1234.8000;0.3297;1.3906;
1235.1000;0.3297;1.3833;
1235.4000;0.3289;1.3759;
1235.7000;0.3305;1.3759;
1236.0000;0.3305;1.3784;
1236.3000;0.3289;1.3735;
1236.6000;0.3305;1.3735;
1236.9000;0.3305;1.3808;
1237.2000;0.3297;1.3857;
1237.5000;0.3289;1.3882;
1237.8000;0.3297;1.3930;
1238.1000;0.3272;1.3930;
1238.4000;0.3305;1.4004;
1238.7000;0.3297;1.3955;
1239.0000;0.3280;1.3906;
1239.3000;0.3313;1.4053;
1239.6000;0.3289;1.4077;
1239.9000;0.3297;1.4028;
1240.2000;0.3305;1.3930;
1240.5000;0.3297;1.3955;
1240.8000;0.3297;1.3930;
1241.1000;0.3313;1.3979;
1241.4000;0.3297;1.3979;
1241.7000;0.3289;1.3955;
1242.0000;0.3289;1.3930;
1242.3000;0.3313;1.3979;
1242.6000;0.3297;1.3979;
1242.9000;0.3280;1.3979;
1243.2000;0.3297;1.4053;
1243.5000;0.3305;1.4004;
1243.8000;0.3289;1.3979;
1244.1000;0.3297;1.4004;
1244.4000;0.3297;1.4053;
1244.7000;0.3297;1.4126;
1245.0000;0.3297;1.4102;
1245.3000;0.3280;1.4102;
1245.6000;0.3297;1.4102;
1245.9000;0.3297;1.4102;
1246.2000;0.3305;1.4199;
1246.5000;0.3280;1.4150;
1246.8000;0.3305;1.4248;
1247.1000;0.3321;1.4273;
1247.4000;0.3305;1.4175;
1247.7000;0.3297;1.4102;
1248.0000;0.3313;1.4175;
1248.3000;0.3289;1.4077;
1248.6000;0.3297;1.4053;
1248.9000;0.3305;1.4028;
1249.2000;0.3289;1.3955;
1249.5000;0.3297;1.3979;
1249.8000;0.3297;1.3955;
1250.1000;0.3280;1.3930;
1250.4000;0.3297;1.4028;
1250.7000;0.3280;1.4004;
1251.0000;0.3305;1.3955;
1251.3000;0.3272;1.3833;
1251.6000;0.3280;1.3833;
1251.9000;0.3248;1.3710;
1252.2000;0.3248;1.3808;
1252.5000;0.3207;1.3662;
1252.8000;0.3289;1.3979;
1253.1000;0.3289;1.3930;
1253.4000;0.3240;1.3857;
1253.7000;0.3289;1.4077;
1254.0000;0.3289;1.4028;
1254.3000;0.3272;1.3882;
1254.6000;0.3289;1.3930;
1254.9000;0.3297;1.3955;
1255.2000;0.3256;1.3833;
1255.5000;0.3280;1.3906;
1255.8000;0.3289;1.3906;
1256.1000;0.3289;1.3906;
1256.4000;0.3289;1.3979;
1256.7000;0.3272;1.3906;
1257.0000;0.3272;1.3882;
1257.3000;0.3256;1.3857;
1257.6000;0.3280;1.3906;
1257.9000;0.3280;1.3882;
1258.2000;0.3280;1.3906;
1258.5000;0.3289;1.3882;
1258.8000;0.3289;1.3930;
1259.1000;0.3264;1.3808;
1259.4000;0.3289;1.3833;
1259.7000;0.3297;1.3833;
1260.0000;0.3289;1.3882;
1260.3000;0.3321;1.3857;
1260.6000;0.3280;1.3930;
1260.9000;0.3297;1.4004;
1261.2000;0.3297;1.4102;
1261.5000;0.3313;1.4102;
1261.8000;0.3305;1.3979;
1262.1000;0.3289;1.3930;
1262.4000;0.3313;1.3955;
1262.7000;0.3305;1.3930;
1263.0000;0.3305;1.3979;
1263.3000;0.3305;1.3955;
1263.6000;0.3297;1.4028;
1263.9000;0.3297;1.3930;
1264.2000;0.3297;1.3979;
1264.5000;0.3313;1.4004;
1264.8000;0.3305;1.3979;
1265.1000;0.3297;1.3979;
1265.4000;0.3289;1.3906;
1265.7000;0.3289;1.3930;
1266.0000;0.3337;1.4004;
1266.3000;0.3289;1.3979;
1266.6000;0.3297;1.4004;
1266.9000;0.3264;1.4028;
1267.2000;0.3248;1.4004;
1267.5000;0.3280;1.4077;
1267.8000;0.3321;1.4199;
1268.1000;0.3280;1.4053;
1268.4000;0.3313;1.4053;
1268.7000;0.3289;1.3979;
1269.0000;0.3264;1.3906;
1269.3000;0.3297;1.3882;
1269.6000;0.3272;1.3882;
1269.9000;0.3248;1.3710;
1270.2000;0.3297;1.3906;
1270.5000;0.3305;1.3833;
1270.8000;0.3289;1.3882;
1271.1000;0.3297;1.3906;
1271.4000;0.3321;1.3955;
1271.7000;0.3297;1.3882;
1272.0000;0.3280;1.3930;
1272.3000;0.3248;1.3882;
1272.6000;0.3280;1.4028;
1272.9000;0.3280;1.3930;
1273.2000;0.3305;1.4004;
1273.5000;0.3305;1.4053;
1273.8000;0.3272;1.4028;
1274.1000;0.3305;1.3979;
1274.4000;0.3272;1.3930;
1274.7000;0.3329;1.4004;
1275.0000;0.3321;1.3882;
1275.3000;0.3313;1.3930;
1275.6000;0.3289;1.3906;
1275.9000;0.3272;1.3882;
1276.2000;0.3313;1.3906;
1276.5000;0.3313;1.3906;
1276.8000;0.3321;1.3955;
1277.1000;0.3289;1.3857;
1277.4000;0.3297;1.3906;
1277.7000;0.3305;1.4004;
1278.0000;0.3289;1.3979;
1278.3000;0.3297;1.4028;
1278.6000;0.3272;1.4077;
1278.9000;0.3289;1.4004;
1279.2000;0.3289;1.4053;
1279.5000;0.3264;1.4004;
1279.8000;0.3289;1.4028;
1280.1000;0.3329;1.4248;
1280.4000;0.3305;1.4199;
1280.7000;0.3289;1.4150;
1281.0000;0.3305;1.4199;
1281.3000;0.3305;1.4102;
1281.6000;0.3297;1.4126;
1281.9000;0.3289;1.4102;
1282.2000;0.3280;1.4102;
1282.5000;0.3280;1.4053;
1282.8000;0.3289;1.4028;
1283.1000;0.3313;1.3979;
1283.4000;0.3297;1.4004;
1283.7000;0.3305;1.3979;
1284.0000;0.3289;1.3930;
1284.3000;0.3297;1.3882;
1284.6000;0.3297;1.3857;
1284.9000;0.3280;1.3882;
1285.2000;0.3313;1.3930;
1285.5000;0.3305;1.3833;
1285.8000;0.3305;1.3784;
1286.1000;0.3305;1.3833;
1286.4000;0.3289;1.3808;
1286.7000;0.3313;1.3857;
1287.0000;0.3321;1.3833;
1287.3000;0.3289;1.3759;
1287.6000;0.3297;1.3833;
1287.9000;0.3297;1.3833;
1288.2000;0.3297;1.3833;
1288.5000;0.3280;1.3759;
1288.8000;0.3272;1.3808;
1289.1000;0.3289;1.3882;
1289.4000;0.3289;1.3808;
1289.7000;0.3305;1.3833;
1290.0000;0.3362;1.4028;
1290.3000;0.3337;1.3930;
1290.6000;0.3305;1.3882;
1290.9000;0.3272;1.3906;
1291.2000;0.3280;1.3979;
1291.5000;0.3264;1.3857;
1291.8000;0.3264;1.3808;
1292.1000;0.3297;1.3833;
1292.4000;0.3289;1.3784;
1292.7000;0.3313;1.3930;
1293.0000;0.3272;1.3979;
1293.3000;0.3289;1.4004;
1293.6000;0.3289;1.3906;
1293.9000;0.3313;1.3955;
1294.2000;0.3305;1.3906;
1294.5000;0.3305;1.3955;
1294.8000;0.3289;1.3906;
1295.1000;0.3272;1.3906;
1295.4000;0.3346;1.4028;
1295.7000;0.3313;1.3906;
1296.0000;0.3289;1.3759;
1296.3000;0.3297;1.3808;
1296.6000;0.3289;1.3808;
1296.9000;0.3321;1.3930;
1297.2000;0.3191;1.3613;
1297.5000;0.3264;1.3710;
1297.8000;0.3256;1.3710;
1298.1000;0.3329;1.3882;
1298.4000;0.3346;1.4004;
1298.7000;0.3297;1.3833;
1299.0000;0.3240;1.3710;
1299.3000;0.3313;1.3930;
1299.6000;0.3305;1.3955;
1299.9000;0.3289;1.3857;
1300.2000;0.3354;1.3955;
1300.5000;0.3362;1.3979;
1300.8000;0.3248;1.3833;
1301.1000;0.3280;1.3759;
1301.4000;0.3289;1.3784;
1301.7000;0.3289;1.3808;
1302.0000;0.3272;1.3882;
1302.3000;0.3280;1.3808;
1302.6000;0.3280;1.3710;
1302.9000;0.3280;1.3784;
1303.2000;0.3289;1.3882;
1303.5000;0.3305;1.3955;
1303.8000;0.3280;1.3906;
1304.1000;0.3289;1.3906;
1304.4000;0.3297;1.3955;
1304.7000;0.3297;1.3857;
1305.0000;0.3289;1.3808;
1305.3000;0.3264;1.3808;
1305.6000;0.3280;1.3857;
1305.9000;0.3297;1.3906;
1306.2000;0.3289;1.3882;
1306.5000;0.3305;1.3857;
1306.8000;0.3289;1.3906;
1307.1000;0.3289;1.3955;
1307.4000;0.3289;1.4004;
1307.7000;0.3280;1.3930;
1308.0000;0.3305;1.4028;
1308.3000;0.3240;1.3857;
1308.6000;0.3305;1.3955;
1308.9000;0.3297;1.3955;
1309.2000;0.3297;1.4004;
1309.5000;0.3297;1.3979;
1309.8000;0.3313;1.3979;
1310.1000;0.3256;1.3735;
1310.4000;0.3280;1.3808;
1310.7000;0.3313;1.3833;
1311.0000;0.3264;1.3784;
1311.3000;0.3256;1.3808;
1311.6000;0.3289;1.3857;
1311.9000;0.3329;1.4004;
1312.2000;0.3297;1.3906;
1312.5000;0.3305;1.3808;
1312.8000;0.3289;1.3784;
1313.1000;0.3289;1.3784;
1313.4000;0.3321;1.3930;
1313.7000;0.3329;1.3979;
1314.0000;0.3272;1.3833;
1314.3000;0.3313;1.3955;
1314.6000;0.3240;1.3784;
1314.9000;0.3313;1.4004;
1315.2000;0.3280;1.3979;
1315.5000;0.3305;1.4004;
1315.8000;0.3280;1.3955;
1316.1000;0.3289;1.3979;
1316.4000;0.3248;1.3857;
1316.7000;0.3272;1.3955;
1317.0000;0.3264;1.4004;
1317.3000;0.3305;1.4126;
1317.6000;0.3289;1.4126;
1317.9000;0.3240;1.3979;
1318.2000;0.3305;1.4077;
1318.5000;0.3256;1.3955;
1318.8000;0.3240;1.3882;
1319.1000;0.3297;1.4004;
1319.4000;0.3297;1.3930;
1319.7000;0.3305;1.3906;
1320.0000;0.3305;1.3882;
1320.3000;0.3297;1.3833;
1320.6000;0.3297;1.3735;
1320.9000;0.3297;1.3735;
1321.2000;0.3313;1.3808;
1321.5000;0.3289;1.3808;
1321.8000;0.3280;1.3710;
1322.1000;0.3289;1.3735;
1322.4000;0.3297;1.3759;
1322.7000;0.3305;1.3784;
1323.0000;0.3280;1.3735;
1323.3000;0.3297;1.3710;
1323.6000;0.3305;1.3784;
1323.9000;0.3313;1.3808;
1324.2000;0.3248;1.3686;
1324.5000;0.3305;1.3808;
1324.8000;0.3321;1.3882;
1325.1000;0.3305;1.3930;
1325.4000;0.3313;1.4028;
1325.7000;0.3289;1.3955;
1326.0000;0.3305;1.3979;
1326.3000;0.3354;1.4126;
1326.6000;0.3346;1.4053;
1326.9000;0.3305;1.3955;
1327.2000;0.3337;1.4102;
1327.5000;0.3289;1.4028;
1327.8000;0.3280;1.4102;
1328.1000;0.3280;1.4077;
1328.4000;0.3313;1.4053;
1328.7000;0.3297;1.3979;
1329.0000;0.3305;1.3979;
1329.3000;0.3362;1.4053;
1329.6000;0.3297;1.3833;
1329.9000;0.3321;1.3955;
1330.2000;0.3346;1.4028;
1330.5000;0.3289;1.3930;
1330.8000;0.3272;1.3906;
1331.1000;0.3313;1.3955;
1331.4000;0.3297;1.3906;
1331.7000;0.3305;1.3955;
1332.0000;0.3264;1.3882;
1332.3000;0.3272;1.3906;
1332.6000;0.3272;1.3906;
1332.9000;0.3289;1.3930;
1333.2000;0.3280;1.3955;
1333.5000;0.3305;1.4004;
1333.8000;0.3297;1.3979;
1334.1000;0.3280;1.3979;
1334.4000;0.3289;1.4004;
1334.7000;0.3297;1.4004;
1335.0000;0.3313;1.4028;
1335.3000;0.3337;1.4028;
1335.6000;0.3272;1.3882;
1335.9000;0.3297;1.3857;
1336.2000;0.3297;1.3808;
1336.5000;0.3305;1.3906;
1336.8000;0.3280;1.3882;
1337.1000;0.3337;1.3930;
1337.4000;0.3272;1.3857;
1337.7000;0.3289;1.3857;
1338.0000;0.3289;1.3833;
1338.3000;0.3289;1.3808;
1338.6000;0.3386;1.4102;
1338.9000;0.3280;1.3857;
1339.2000;0.3289;1.3906;
1339.5000;0.3297;1.3930;
1339.8000;0.3289;1.3882;
1340.1000;0.3264;1.3882;
1340.4000;0.3280;1.3930;
1340.7000;0.3289;1.4004;
1341.0000;0.3280;1.4004;
1341.3000;0.3313;1.4028;
1341.6000;0.3305;1.4126;
1341.9000;0.3256;1.4053;
1342.2000;0.3321;1.4102;
1342.5000;0.3280;1.3979;
1342.8000;0.3280;1.4028;
1343.1000;0.3272;1.4028;
1343.4000;0.3297;1.4053;
1343.7000;0.3297;1.4150;
1344.0000;0.3272;1.4077;
1344.3000;0.3289;1.4053;
1344.6000;0.3297;1.4053;
1344.9000;0.3289;1.3979;
1345.2000;0.3297;1.4028;
1345.5000;0.3313;1.4126;
1345.8000;0.3297;1.4077;
1346.1000;0.3321;1.4150;
1346.4000;0.3297;1.4077;
1346.7000;0.3305;1.4077;
1347.0000;0.3313;1.3955;
1347.3000;0.3297;1.3857;
1347.6000;0.3297;1.3833;
1347.9000;0.3297;1.3759;
1348.2000;0.3289;1.3710;
1348.5000;0.3305;1.3784;
1348.8000;0.3305;1.3857;
1349.1000;0.3289;1.3833;
1349.4000;0.3305;1.3808;
1349.7000;0.3297;1.3857;
1350.0000;0.3305;1.3906;
1350.3000;0.3329;1.4053;
1350.6000;0.3297;1.4077;
1350.9000;0.3297;1.4053;
1351.2000;0.3272;1.4028;
1351.5000;0.3305;1.4102;
1351.8000;0.3305;1.4102;
1352.1000;0.3305;1.4077;
1352.4000;0.3305;1.4004;
1352.7000;0.3305;1.4004;
1353.0000;0.3289;1.3979;
1353.3000;0.3297;1.4053;
1353.6000;0.3297;1.4175;
1353.9000;0.3297;1.4126;
1354.2000;0.3305;1.4028;
1354.5000;0.3321;1.4004;
1354.8000;0.3313;1.4028;
1355.1000;0.3280;1.3955;
1355.4000;0.3305;1.3955;
1355.7000;0.3313;1.3979;
1356.0000;0.3297;1.4053;
1356.3000;0.3329;1.4004;
1356.6000;0.3313;1.3930;
1356.9000;0.3305;1.3930;
1357.2000;0.3297;1.3882;
1357.5000;0.3289;1.3930;
1357.8000;0.3297;1.3906;
1358.1000;0.3297;1.3857;
1358.4000;0.3305;1.3857;
1358.7000;0.3272;1.3735;
1359.0000;0.3280;1.3833;
1359.3000;0.3289;1.3906;
1359.6000;0.3297;1.3955;
1359.9000;0.3289;1.3955;
1360.2000;0.3313;1.3979;
1360.5000;0.3305;1.3955;
1360.8000;0.3305;1.3955;
1361.1000;0.3289;1.3930;
1361.4000;0.3321;1.4077;
1361.7000;0.3297;1.4028;
1362.0000;0.3289;1.4028;
1362.3000;0.3280;1.4053;
1362.6000;0.3289;1.4004;
1362.9000;0.3305;1.3979;
1363.2000;0.3272;1.3906;
1363.5000;0.3289;1.3906;
1363.8000;0.3305;1.3906;
1364.1000;0.3297;1.3906;
1364.4000;0.3313;1.4004;
1364.7000;0.3297;1.4004;
1365.0000;0.3280;1.3857;
1365.3000;0.3329;1.3930;
1365.6000;0.3305;1.3906;
1365.9000;0.3305;1.3930;
1366.2000;0.3305;1.3979;
1366.5000;0.3297;1.3906;
1366.8000;0.3280;1.3955;
1367.1000;0.3289;1.3857;
1367.4000;0.3305;1.3955;
1367.7000;0.3297;1.3955;
1368.0000;0.3297;1.3882;
1368.3000;0.3289;1.3882;
1368.6000;0.3256;1.3808;
1368.9000;0.3346;1.4102;
1369.2000;0.3297;1.3955;
1369.5000;0.3264;1.3906;
1369.8000;0.3272;1.3955;
1370.1000;0.3289;1.4053;
1370.4000;0.3305;1.4175;
1370.7000;0.3313;1.4199;
1371.0000;0.3305;1.4150;
1371.3000;0.3280;1.4028;
1371.6000;0.3280;1.4053;
1371.9000;0.3256;1.3882;
1372.2000;0.3313;1.3979;
1372.5000;0.3289;1.3930;
1372.8000;0.3280;1.3930;
1373.1000;0.3297;1.3930;
1373.4000;0.3280;1.3906;
1373.7000;0.3280;1.3833;
1374.0000;0.3305;1.3784;
1374.3000;0.3280;1.3735;
1374.6000;0.3297;1.3857;
1374.9000;0.3297;1.3930;
1375.2000;0.3305;1.3979;
1375.5000;0.3289;1.4028;
1375.8000;0.3321;1.4077;
1376.1000;0.3289;1.4077;
1376.4000;0.3297;1.4077;
1376.7000;0.3289;1.4053;
1377.0000;0.3297;1.4175;
1377.3000;0.3313;1.4150;
1377.6000;0.3321;1.4028;
1377.9000;0.3289;1.3955;
1378.2000;0.3305;1.3979;
1378.5000;0.3280;1.3930;
1378.8000;0.3321;1.3979;
1379.1000;0.3305;1.3979;
1379.4000;0.3289;1.3857;
1379.7000;0.3305;1.3857;
1380.0000;0.3297;1.3882;
1380.3000;0.3280;1.4004;
1380.6000;0.3297;1.4028;
1380.9000;0.3329;1.4150;
1381.2000;0.3289;1.4028;
1381.5000;0.3289;1.3979;
1381.8000;0.3297;1.4077;
1382.1000;0.3264;1.3930;
1382.4000;0.3280;1.4004;
1382.7000;0.3280;1.3955;
1383.0000;0.3272;1.3955;
1383.3000;0.3289;1.4004;
1383.6000;0.3248;1.3906;
1383.9000;0.3272;1.4004;
1384.2000;0.3289;1.4028;
1384.5000;0.3305;1.4077;
1384.8000;0.3337;1.4102;
1385.1000;0.3289;1.4053;
1385.4000;0.3313;1.4102;
1385.7000;0.3329;1.4199;
1386.0000;0.3289;1.4102;
1386.3000;0.3305;1.4126;
1386.6000;0.3329;1.4199;
1386.9000;0.3346;1.4273;
1387.2000;0.3280;1.4150;
1387.5000;0.3321;1.4199;
1387.8000;0.3272;1.4077;
1388.1000;0.3305;1.4175;
1388.4000;0.3313;1.4102;
1388.7000;0.3280;1.4102;
1389.0000;0.3321;1.4248;
1389.3000;0.3297;1.4175;
1389.6000;0.3289;1.4053;
1389.9000;0.3289;1.4126;
1390.2000;0.3305;1.4077;
1390.5000;0.3280;1.4004;
1390.8000;0.3297;1.4150;
1391.1000;0.3305;1.4077;
1391.4000;0.3305;1.4028;
1391.7000;0.3289;1.4053;
1392.0000;0.3289;1.4126;
1392.3000;0.3280;1.4126;
1392.6000;0.3248;1.4150;
1392.9000;0.3289;1.4224;
1393.2000;0.3297;1.4199;
1393.5000;0.3280;1.4175;
1393.8000;0.3280;1.4150;
1394.1000;0.3297;1.4077;
1394.4000;0.3280;1.3930;
1394.7000;0.3297;1.3882;
1395.0000;0.3305;1.3833;
1395.3000;0.3305;1.3882;
1395.6000;0.3297;1.3882;
1395.9000;0.3305;1.3955;
1396.2000;0.3305;1.3930;
1396.5000;0.3297;1.4004;
1396.8000;0.3297;1.3930;
1397.1000;0.3297;1.3955;
1397.4000;0.3289;1.4004;
1397.7000;0.3289;1.4102;
1398.0000;0.3297;1.4126;
1398.3000;0.3297;1.4102;
1398.6000;0.3305;1.4053;
1398.9000;0.3289;1.4028;
1399.2000;0.3297;1.4028;
1399.5000;0.3297;1.4004;
1399.8000;0.3289;1.4053;
