time/ms;Fluo/V;P700 deltaI/I x10³;
-199.8000;0.4485;1.3393;
-199.5000;0.4493;1.3466;
-199.2000;0.4526;1.3539;
-198.9000;0.4510;1.3393;
-198.6000;0.4485;1.3368;
-198.3000;0.4493;1.3368;
-198.0000;0.4493;1.3466;
-197.7000;0.4477;1.3466;
-197.4000;0.4469;1.3515;
-197.1000;0.4510;1.3613;
-196.8000;0.4453;1.3442;
-196.5000;0.4444;1.3393;
-196.2000;0.4501;1.3564;
-195.9000;0.4485;1.3539;
-195.6000;0.4501;1.3588;
-195.3000;0.4485;1.3613;
-195.0000;0.4469;1.3539;
-194.7000;0.4526;1.3588;
-194.4000;0.4518;1.3564;
-194.1000;0.4526;1.3588;
-193.8000;0.4412;1.3246;
-193.5000;0.4493;1.3368;
-193.2000;0.4534;1.3491;
-192.9000;0.4526;1.3466;
-192.6000;0.4501;1.3491;
-192.3000;0.4461;1.3442;
-192.0000;0.4493;1.3515;
-191.7000;0.4485;1.3466;
-191.4000;0.4485;1.3442;
-191.1000;0.4501;1.3466;
-190.8000;0.4469;1.3344;
-190.5000;0.4501;1.3515;
-190.2000;0.4444;1.3368;
-189.9000;0.4485;1.3564;
-189.6000;0.4436;1.3491;
-189.3000;0.4542;1.3759;
-189.0000;0.4510;1.3613;
-188.7000;0.4542;1.3686;
-188.4000;0.4477;1.3539;
-188.1000;0.4510;1.3637;
-187.8000;0.4485;1.3588;
-187.5000;0.4510;1.3613;
-187.2000;0.4493;1.3466;
-186.9000;0.4501;1.3466;
-186.6000;0.4526;1.3588;
-186.3000;0.4444;1.3417;
-186.0000;0.4477;1.3613;
-185.7000;0.4477;1.3613;
-185.4000;0.4493;1.3637;
-185.1000;0.4493;1.3662;
-184.8000;0.4477;1.3588;
-184.5000;0.4485;1.3588;
-184.2000;0.4526;1.3686;
-183.9000;0.4493;1.3710;
-183.6000;0.4493;1.3662;
-183.3000;0.4501;1.3637;
-183.0000;0.4501;1.3588;
-182.7000;0.4510;1.3539;
-182.4000;0.4510;1.3564;
-182.1000;0.4501;1.3515;
-181.8000;0.4485;1.3539;
-181.5000;0.4493;1.3515;
-181.2000;0.4493;1.3491;
-180.9000;0.4485;1.3491;
-180.6000;0.4501;1.3491;
-180.3000;0.4461;1.3393;
-180.0000;0.4493;1.3466;
-179.7000;0.4493;1.3491;
-179.4000;0.4485;1.3442;
-179.1000;0.4493;1.3539;
-178.8000;0.4477;1.3539;
-178.5000;0.4469;1.3491;
-178.2000;0.4501;1.3515;
-177.9000;0.4518;1.3515;
-177.6000;0.4493;1.3466;
-177.3000;0.4477;1.3417;
-177.0000;0.4493;1.3466;
-176.7000;0.4493;1.3466;
-176.4000;0.4501;1.3442;
-176.1000;0.4501;1.3466;
-175.8000;0.4477;1.3442;
-175.5000;0.4501;1.3491;
-175.2000;0.4501;1.3466;
-174.9000;0.4493;1.3368;
-174.6000;0.4477;1.3368;
-174.3000;0.4501;1.3491;
-174.0000;0.4501;1.3539;
-173.7000;0.4477;1.3466;
-173.4000;0.4485;1.3515;
-173.1000;0.4501;1.3613;
-172.8000;0.4501;1.3784;
-172.5000;0.4493;1.3637;
-172.2000;0.4493;1.3564;
-171.9000;0.4493;1.3588;
-171.6000;0.4493;1.3539;
-171.3000;0.4485;1.3466;
-171.0000;0.4469;1.3417;
-170.7000;0.4485;1.3417;
-170.4000;0.4485;1.3417;
-170.1000;0.4469;1.3417;
-169.8000;0.4477;1.3539;
-169.5000;0.4469;1.3539;
-169.2000;0.4485;1.3588;
-168.9000;0.4493;1.3637;
-168.6000;0.4485;1.3588;
-168.3000;0.4501;1.3564;
-168.0000;0.4493;1.3613;
-167.7000;0.4501;1.3662;
-167.4000;0.4469;1.3564;
-167.1000;0.4501;1.3637;
-166.8000;0.4469;1.3466;
-166.5000;0.4493;1.3491;
-166.2000;0.4485;1.3466;
-165.9000;0.4461;1.3442;
-165.6000;0.4477;1.3466;
-165.3000;0.4469;1.3442;
-165.0000;0.4461;1.3466;
-164.7000;0.4518;1.3662;
-164.4000;0.4493;1.3613;
-164.1000;0.4469;1.3637;
-163.8000;0.4510;1.3686;
-163.5000;0.4469;1.3515;
-163.2000;0.4485;1.3515;
-162.9000;0.4501;1.3539;
-162.6000;0.4510;1.3564;
-162.3000;0.4493;1.3539;
-162.0000;0.4485;1.3588;
-161.7000;0.4526;1.3710;
-161.4000;0.4510;1.3637;
-161.1000;0.4469;1.3613;
-160.8000;0.4485;1.3637;
-160.5000;0.4477;1.3613;
-160.2000;0.4501;1.3613;
-159.9000;0.4485;1.3588;
-159.6000;0.4493;1.3686;
-159.3000;0.4485;1.3637;
-159.0000;0.4510;1.3686;
-158.7000;0.4501;1.3637;
-158.4000;0.4493;1.3564;
-158.1000;0.4510;1.3588;
-157.8000;0.4477;1.3491;
-157.5000;0.4510;1.3491;
-157.2000;0.4526;1.3564;
-156.9000;0.4501;1.3564;
-156.6000;0.4501;1.3588;
-156.3000;0.4493;1.3588;
-156.0000;0.4501;1.3686;
-155.7000;0.4493;1.3613;
-155.4000;0.4461;1.3491;
-155.1000;0.4518;1.3588;
-154.8000;0.4501;1.3539;
-154.5000;0.4510;1.3564;
-154.2000;0.4485;1.3662;
-153.9000;0.4501;1.3662;
-153.6000;0.4501;1.3662;
-153.3000;0.4493;1.3539;
-153.0000;0.4477;1.3613;
-152.7000;0.4485;1.3613;
-152.4000;0.4493;1.3686;
-152.1000;0.4493;1.3759;
-151.8000;0.4485;1.3662;
-151.5000;0.4501;1.3613;
-151.2000;0.4534;1.3662;
-150.9000;0.4469;1.3417;
-150.6000;0.4485;1.3466;
-150.3000;0.4493;1.3613;
-150.0000;0.4518;1.3759;
-149.7000;0.4501;1.3686;
-149.4000;0.4501;1.3686;
-149.1000;0.4510;1.3710;
-148.8000;0.4501;1.3784;
-148.5000;0.4493;1.3637;
-148.2000;0.4493;1.3637;
-147.9000;0.4493;1.3613;
-147.6000;0.4477;1.3588;
-147.3000;0.4485;1.3588;
-147.0000;0.4510;1.3662;
-146.7000;0.4485;1.3588;
-146.4000;0.4501;1.3539;
-146.1000;0.4518;1.3539;
-145.8000;0.4493;1.3442;
-145.5000;0.4477;1.3442;
-145.2000;0.4477;1.3368;
-144.9000;0.4493;1.3442;
-144.6000;0.4485;1.3491;
-144.3000;0.4493;1.3515;
-144.0000;0.4477;1.3539;
-143.7000;0.4501;1.3564;
-143.4000;0.4542;1.3662;
-143.1000;0.4518;1.3515;
-142.8000;0.4493;1.3417;
-142.5000;0.4501;1.3393;
-142.2000;0.4469;1.3417;
-141.9000;0.4501;1.3515;
-141.6000;0.4485;1.3564;
-141.3000;0.4477;1.3564;
-141.0000;0.4501;1.3588;
-140.7000;0.4501;1.3539;
-140.4000;0.4493;1.3564;
-140.1000;0.4493;1.3637;
-139.8000;0.4510;1.3735;
-139.5000;0.4501;1.3662;
-139.2000;0.4518;1.3686;
-138.9000;0.4436;1.3491;
-138.6000;0.4493;1.3539;
-138.3000;0.4518;1.3564;
-138.0000;0.4477;1.3442;
-137.7000;0.4493;1.3417;
-137.4000;0.4493;1.3368;
-137.1000;0.4485;1.3344;
-136.8000;0.4485;1.3344;
-136.5000;0.4534;1.3491;
-136.2000;0.4526;1.3442;
-135.9000;0.4493;1.3344;
-135.6000;0.4493;1.3466;
-135.3000;0.4493;1.3637;
-135.0000;0.4493;1.3710;
-134.7000;0.4485;1.3686;
-134.4000;0.4493;1.3662;
-134.1000;0.4534;1.3735;
-133.8000;0.4493;1.3735;
-133.5000;0.4542;1.3808;
-133.2000;0.4363;1.3368;
-132.9000;0.4493;1.3784;
-132.6000;0.4493;1.3710;
-132.3000;0.4444;1.3515;
-132.0000;0.4453;1.3613;
-131.7000;0.4493;1.3662;
-131.4000;0.4485;1.3588;
-131.1000;0.4501;1.3710;
-130.8000;0.4510;1.3735;
-130.5000;0.4501;1.3735;
-130.2000;0.4518;1.3759;
-129.9000;0.4501;1.3784;
-129.6000;0.4510;1.3735;
-129.3000;0.4501;1.3686;
-129.0000;0.4501;1.3662;
-128.7000;0.4493;1.3613;
-128.4000;0.4493;1.3491;
-128.1000;0.4501;1.3491;
-127.8000;0.4477;1.3442;
-127.5000;0.4510;1.3442;
-127.2000;0.4501;1.3417;
-126.9000;0.4493;1.3368;
-126.6000;0.4493;1.3417;
-126.3000;0.4485;1.3368;
-126.0000;0.4493;1.3319;
-125.7000;0.4485;1.3319;
-125.4000;0.4493;1.3368;
-125.1000;0.4493;1.3393;
-124.8000;0.4485;1.3515;
-124.5000;0.4493;1.3539;
-124.2000;0.4510;1.3466;
-123.9000;0.4477;1.3417;
-123.6000;0.4493;1.3466;
-123.3000;0.4501;1.3491;
-123.0000;0.4518;1.3515;
-122.7000;0.4493;1.3319;
-122.4000;0.4501;1.3344;
-122.1000;0.4501;1.3393;
-121.8000;0.4493;1.3417;
-121.5000;0.4493;1.3368;
-121.2000;0.4493;1.3368;
-120.9000;0.4477;1.3271;
-120.6000;0.4501;1.3393;
-120.3000;0.4485;1.3417;
-120.0000;0.4493;1.3344;
-119.7000;0.4510;1.3491;
-119.4000;0.4518;1.3613;
-119.1000;0.4510;1.3637;
-118.8000;0.4518;1.3613;
-118.5000;0.4518;1.3637;
-118.2000;0.4510;1.3588;
-117.9000;0.4485;1.3515;
-117.6000;0.4501;1.3491;
-117.3000;0.4501;1.3491;
-117.0000;0.4485;1.3491;
-116.7000;0.4501;1.3539;
-116.4000;0.4501;1.3588;
-116.1000;0.4485;1.3564;
-115.8000;0.4567;1.3759;
-115.5000;0.4583;1.3833;
-115.2000;0.4501;1.3613;
-114.9000;0.4485;1.3613;
-114.6000;0.4501;1.3735;
-114.3000;0.4518;1.3784;
-114.0000;0.4501;1.3784;
-113.7000;0.4493;1.3710;
-113.4000;0.4510;1.3686;
-113.1000;0.4510;1.3662;
-112.8000;0.4501;1.3613;
-112.5000;0.4493;1.3564;
-112.2000;0.4510;1.3466;
-111.9000;0.4510;1.3539;
-111.6000;0.4493;1.3442;
-111.3000;0.4485;1.3442;
-111.0000;0.4501;1.3442;
-110.7000;0.4493;1.3515;
-110.4000;0.4485;1.3466;
-110.1000;0.4485;1.3491;
-109.8000;0.4510;1.3539;
-109.5000;0.4493;1.3588;
-109.2000;0.4518;1.3735;
-108.9000;0.4501;1.3759;
-108.6000;0.4477;1.3710;
-108.3000;0.4493;1.3808;
-108.0000;0.4469;1.3784;
-107.7000;0.4501;1.3833;
-107.4000;0.4493;1.3808;
-107.1000;0.4485;1.3710;
-106.8000;0.4534;1.3759;
-106.5000;0.4493;1.3710;
-106.2000;0.4469;1.3710;
-105.9000;0.4501;1.3710;
-105.6000;0.4477;1.3710;
-105.3000;0.4510;1.3759;
-105.0000;0.4461;1.3710;
-104.7000;0.4485;1.3662;
-104.4000;0.4526;1.3759;
-104.1000;0.4510;1.3735;
-103.8000;0.4485;1.3686;
-103.5000;0.4493;1.3662;
-103.2000;0.4493;1.3686;
-102.9000;0.4485;1.3637;
-102.6000;0.4518;1.3710;
-102.3000;0.4493;1.3735;
-102.0000;0.4518;1.3808;
-101.7000;0.4493;1.3735;
-101.4000;0.4461;1.3686;
-101.1000;0.4510;1.3735;
-100.8000;0.4493;1.3759;
-100.5000;0.4453;1.3686;
-100.2000;0.4567;1.4028;
-99.9000;0.4485;1.3784;
-99.6000;0.4485;1.3784;
-99.3000;0.4493;1.3662;
-99.0000;0.4501;1.3662;
-98.7000;0.4493;1.3637;
-98.4000;0.4477;1.3588;
-98.1000;0.4493;1.3637;
-97.8000;0.4510;1.3662;
-97.5000;0.4501;1.3759;
-97.2000;0.4477;1.3735;
-96.9000;0.4510;1.3662;
-96.6000;0.4534;1.3662;
-96.3000;0.4477;1.3515;
-96.0000;0.4510;1.3466;
-95.7000;0.4493;1.3466;
-95.4000;0.4493;1.3515;
-95.1000;0.4501;1.3515;
-94.8000;0.4493;1.3442;
-94.5000;0.4493;1.3491;
-94.2000;0.4542;1.3735;
-93.9000;0.4550;1.3735;
-93.6000;0.4493;1.3613;
-93.3000;0.4501;1.3637;
-93.0000;0.4493;1.3564;
-92.7000;0.4485;1.3613;
-92.4000;0.4485;1.3564;
-92.1000;0.4469;1.3539;
-91.8000;0.4501;1.3588;
-91.5000;0.4493;1.3564;
-91.2000;0.4493;1.3466;
-90.9000;0.4493;1.3417;
-90.6000;0.4477;1.3393;
-90.3000;0.4493;1.3442;
-90.0000;0.4485;1.3564;
-89.7000;0.4485;1.3662;
-89.4000;0.4485;1.3637;
-89.1000;0.4510;1.3637;
-88.8000;0.4493;1.3613;
-88.5000;0.4501;1.3588;
-88.2000;0.4501;1.3588;
-87.9000;0.4510;1.3539;
-87.6000;0.4510;1.3613;
-87.3000;0.4493;1.3588;
-87.0000;0.4477;1.3613;
-86.7000;0.4510;1.3564;
-86.4000;0.4501;1.3539;
-86.1000;0.4493;1.3637;
-85.8000;0.4428;1.3539;
-85.5000;0.4493;1.3710;
-85.2000;0.4510;1.3710;
-84.9000;0.4453;1.3564;
-84.6000;0.4493;1.3613;
-84.3000;0.4501;1.3637;
-84.0000;0.4501;1.3613;
-83.7000;0.4493;1.3564;
-83.4000;0.4485;1.3491;
-83.1000;0.4510;1.3539;
-82.8000;0.4510;1.3564;
-82.5000;0.4485;1.3442;
-82.2000;0.4477;1.3368;
-81.9000;0.4469;1.3319;
-81.6000;0.4477;1.3442;
-81.3000;0.4501;1.3588;
-81.0000;0.4493;1.3564;
-80.7000;0.4469;1.3515;
-80.4000;0.4485;1.3564;
-80.1000;0.4493;1.3564;
-79.8000;0.4510;1.3637;
-79.5000;0.4510;1.3588;
-79.2000;0.4501;1.3539;
-78.9000;0.4501;1.3588;
-78.6000;0.4477;1.3466;
-78.3000;0.4493;1.3491;
-78.0000;0.4493;1.3442;
-77.7000;0.4501;1.3466;
-77.4000;0.4518;1.3515;
-77.1000;0.4477;1.3491;
-76.8000;0.4526;1.3491;
-76.5000;0.4493;1.3491;
-76.2000;0.4510;1.3564;
-75.9000;0.4485;1.3539;
-75.6000;0.4501;1.3588;
-75.3000;0.4493;1.3613;
-75.0000;0.4485;1.3564;
-74.7000;0.4469;1.3515;
-74.4000;0.4501;1.3637;
-74.1000;0.4485;1.3637;
-73.8000;0.4477;1.3588;
-73.5000;0.4501;1.3637;
-73.2000;0.4453;1.3491;
-72.9000;0.4501;1.3686;
-72.6000;0.4485;1.3637;
-72.3000;0.4591;1.3833;
-72.0000;0.4510;1.3515;
-71.7000;0.4534;1.3686;
-71.4000;0.4510;1.3637;
-71.1000;0.4485;1.3515;
-70.8000;0.4477;1.3442;
-70.5000;0.4453;1.3271;
-70.2000;0.4493;1.3393;
-69.9000;0.4501;1.3417;
-69.6000;0.4469;1.3368;
-69.3000;0.4493;1.3466;
-69.0000;0.4575;1.3686;
-68.7000;0.4485;1.3466;
-68.4000;0.4485;1.3466;
-68.1000;0.4477;1.3417;
-67.8000;0.4493;1.3344;
-67.5000;0.4444;1.3148;
-67.2000;0.4518;1.3344;
-66.9000;0.4436;1.3173;
-66.6000;0.4510;1.3393;
-66.3000;0.4501;1.3393;
-66.0000;0.4510;1.3442;
-65.7000;0.4477;1.3417;
-65.4000;0.4501;1.3466;
-65.1000;0.4493;1.3442;
-64.8000;0.4542;1.3539;
-64.5000;0.4583;1.3735;
-64.2000;0.4493;1.3515;
-63.9000;0.4453;1.3417;
-63.6000;0.4501;1.3491;
-63.3000;0.4510;1.3564;
-63.0000;0.4501;1.3564;
-62.7000;0.4583;1.3759;
-62.4000;0.4485;1.3491;
-62.1000;0.4485;1.3442;
-61.8000;0.4387;1.3222;
-61.5000;0.4485;1.3491;
-61.2000;0.4469;1.3491;
-60.9000;0.4485;1.3564;
-60.6000;0.4485;1.3588;
-60.3000;0.4510;1.3613;
-60.0000;0.4493;1.3613;
-59.7000;0.4510;1.3735;
-59.4000;0.4485;1.3686;
-59.1000;0.4501;1.3637;
-58.8000;0.4493;1.3564;
-58.5000;0.4493;1.3442;
-58.2000;0.4493;1.3417;
-57.9000;0.4485;1.3344;
-57.6000;0.4518;1.3466;
-57.3000;0.4501;1.3442;
-57.0000;0.4493;1.3491;
-56.7000;0.4477;1.3466;
-56.4000;0.4485;1.3442;
-56.1000;0.4501;1.3466;
-55.8000;0.4477;1.3442;
-55.5000;0.4477;1.3417;
-55.2000;0.4526;1.3466;
-54.9000;0.4485;1.3442;
-54.6000;0.4485;1.3466;
-54.3000;0.4477;1.3442;
-54.0000;0.4485;1.3417;
-53.7000;0.4510;1.3491;
-53.4000;0.4485;1.3515;
-53.1000;0.4485;1.3515;
-52.8000;0.4477;1.3442;
-52.5000;0.4469;1.3466;
-52.2000;0.4493;1.3564;
-51.9000;0.4501;1.3564;
-51.6000;0.4477;1.3393;
-51.3000;0.4493;1.3442;
-51.0000;0.4510;1.3466;
-50.7000;0.4485;1.3417;
-50.4000;0.4510;1.3442;
-50.1000;0.4510;1.3491;
-49.8000;0.4501;1.3491;
-49.5000;0.4510;1.3515;
-49.2000;0.4477;1.3466;
-48.9000;0.4485;1.3515;
-48.6000;0.4477;1.3466;
-48.3000;0.4444;1.3417;
-48.0000;0.4485;1.3491;
-47.7000;0.4526;1.3662;
-47.4000;0.4477;1.3662;
-47.1000;0.4501;1.3686;
-46.8000;0.4510;1.3662;
-46.5000;0.4493;1.3564;
-46.2000;0.4428;1.3466;
-45.9000;0.4485;1.3588;
-45.6000;0.4477;1.3613;
-45.3000;0.4469;1.3662;
-45.0000;0.4477;1.3613;
-44.7000;0.4453;1.3564;
-44.4000;0.4501;1.3613;
-44.1000;0.4485;1.3491;
-43.8000;0.4501;1.3539;
-43.5000;0.4493;1.3491;
-43.2000;0.4501;1.3466;
-42.9000;0.4485;1.3491;
-42.6000;0.4493;1.3564;
-42.3000;0.4510;1.3759;
-42.0000;0.4534;1.3808;
-41.7000;0.4453;1.3662;
-41.4000;0.4453;1.3588;
-41.1000;0.4469;1.3613;
-40.8000;0.4444;1.3466;
-40.5000;0.4485;1.3564;
-40.2000;0.4493;1.3491;
-39.9000;0.4453;1.3368;
-39.6000;0.4501;1.3491;
-39.3000;0.4510;1.3491;
-39.0000;0.4493;1.3417;
-38.7000;0.4501;1.3466;
-38.4000;0.4501;1.3539;
-38.1000;0.4501;1.3588;
-37.8000;0.4501;1.3539;
-37.5000;0.4493;1.3442;
-37.2000;0.4501;1.3442;
-36.9000;0.4501;1.3393;
-36.6000;0.4485;1.3368;
-36.3000;0.4485;1.3393;
-36.0000;0.4510;1.3368;
-35.7000;0.4477;1.3368;
-35.4000;0.4493;1.3368;
-35.1000;0.4493;1.3271;
-34.8000;0.4485;1.3197;
-34.5000;0.4485;1.3197;
-34.2000;0.4501;1.3368;
-33.9000;0.4493;1.3393;
-33.6000;0.4493;1.3491;
-33.3000;0.4510;1.3613;
-33.0000;0.4501;1.3613;
-32.7000;0.4493;1.3588;
-32.4000;0.4485;1.3491;
-32.1000;0.4477;1.3491;
-31.8000;0.4485;1.3515;
-31.5000;0.4461;1.3417;
-31.2000;0.4469;1.3319;
-30.9000;0.4485;1.3393;
-30.6000;0.4477;1.3417;
-30.3000;0.4485;1.3344;
-30.0000;0.4453;1.3319;
-29.7000;0.4485;1.3393;
-29.4000;0.4493;1.3417;
-29.1000;0.4501;1.3417;
-28.8000;0.4477;1.3368;
-28.5000;0.4501;1.3442;
-28.2000;0.4493;1.3442;
-27.9000;0.4501;1.3515;
-27.6000;0.4461;1.3515;
-27.3000;0.4493;1.3466;
-27.0000;0.4493;1.3368;
-26.7000;0.4518;1.3368;
-26.4000;0.4469;1.3344;
-26.1000;0.4485;1.3319;
-25.8000;0.4510;1.3368;
-25.5000;0.4510;1.3271;
-25.2000;0.4493;1.3295;
-24.9000;0.4493;1.3295;
-24.6000;0.4469;1.3246;
-24.3000;0.4493;1.3344;
-24.0000;0.4485;1.3319;
-23.7000;0.4485;1.3319;
-23.4000;0.4493;1.3319;
-23.1000;0.4477;1.3295;
-22.8000;0.4396;1.3148;
-22.5000;0.4518;1.3466;
-22.2000;0.4485;1.3344;
-21.9000;0.4493;1.3393;
-21.6000;0.4501;1.3442;
-21.3000;0.4501;1.3442;
-21.0000;0.4485;1.3491;
-20.7000;0.4501;1.3515;
-20.4000;0.4493;1.3491;
-20.1000;0.4493;1.3588;
-19.8000;0.4518;1.3710;
-19.5000;0.4501;1.3710;
-19.2000;0.4485;1.3710;
-18.9000;0.4534;1.3808;
-18.6000;0.4501;1.3686;
-18.3000;0.4453;1.3637;
-18.0000;0.4493;1.3857;
-17.7000;0.4501;1.3833;
-17.4000;0.4477;1.3735;
-17.1000;0.4493;1.3613;
-16.8000;0.4444;1.3539;
-16.5000;0.4493;1.3686;
-16.2000;0.4493;1.3662;
-15.9000;0.4436;1.3564;
-15.6000;0.4493;1.3662;
-15.3000;0.4510;1.3857;
-15.0000;0.4477;1.3735;
-14.7000;0.4485;1.3808;
-14.4000;0.4493;1.3735;
-14.1000;0.4501;1.3735;
-13.8000;0.4567;1.3857;
-13.5000;0.4477;1.3637;
-13.2000;0.4485;1.3539;
-12.9000;0.4493;1.3564;
-12.6000;0.4493;1.3539;
-12.3000;0.4510;1.3564;
-12.0000;0.4485;1.3515;
-11.7000;0.4501;1.3613;
-11.4000;0.4485;1.3564;
-11.1000;0.4501;1.3588;
-10.8000;0.4477;1.3662;
-10.5000;0.4461;1.3662;
-10.2000;0.4485;1.3686;
-9.9000;0.4510;1.3613;
-9.6000;0.4485;1.3466;
-9.3000;0.4477;1.3442;
-9.0000;0.4501;1.3539;
-8.7000;0.4493;1.3637;
-8.4000;0.4477;1.3564;
-8.1000;0.4485;1.3564;
-7.8000;0.4493;1.3515;
-7.5000;0.4477;1.3491;
-7.2000;0.4534;1.3588;
-6.9000;0.4469;1.3417;
-6.6000;0.4404;1.3222;
-6.3000;0.4501;1.3466;
-6.0000;0.4485;1.3442;
-5.7000;0.4461;1.3417;
-5.4000;0.4493;1.3442;
-5.1000;0.4485;1.3417;
-4.8000;0.4485;1.3368;
-4.5000;0.4493;1.3344;
-4.2000;0.4501;1.3393;
-3.9000;0.4501;1.3393;
-3.6000;0.4558;1.3539;
-3.3000;0.4493;1.3344;
-3.0000;0.4412;1.3148;
-2.7000;0.4477;1.3368;
-2.4000;0.4510;1.3442;
-2.1000;0.4542;1.3588;
-1.8000;0.4477;1.3466;
-1.5000;0.4485;1.3564;
-1.2000;0.4493;1.3613;
-0.9000;0.4493;1.3613;
-0.6000;0.4453;1.3491;
-0.3000;0.4469;1.3564;
0.0000;0.4469;1.3564;
0.3000;0.4607;1.3686;
0.6000;0.4860;1.3979;
0.9000;0.5079;1.4419;
1.2000;0.5250;1.4713;
1.5000;0.5356;1.4859;
1.8000;0.5462;1.5055;
2.1000;0.5511;1.5128;
2.4000;0.5617;1.5275;
2.7000;0.5657;1.5299;
3.0000;0.5714;1.5495;
3.3000;0.5739;1.5641;
3.6000;0.5779;1.5837;
3.9000;0.5779;1.5837;
4.2000;0.5853;1.6008;
4.5000;0.5869;1.6032;
4.8000;0.5893;1.6106;
5.1000;0.5910;1.6130;
5.4000;0.5950;1.6130;
5.7000;0.5967;1.6154;
6.0000;0.5983;1.6228;
6.3000;0.6015;1.6277;
6.6000;0.6024;1.6301;
6.9000;0.5999;1.6179;
7.2000;0.6081;1.6301;
7.5000;0.6138;1.6326;
7.8000;0.6105;1.6252;
8.1000;0.6097;1.6130;
8.4000;0.6105;1.6130;
8.7000;0.6146;1.6130;
9.0000;0.6154;1.6203;
9.3000;0.6146;1.6179;
9.6000;0.6170;1.6252;
9.9000;0.6178;1.6154;
10.2000;0.6235;1.6228;
10.5000;0.6219;1.6130;
10.8000;0.6219;1.6032;
11.1000;0.6227;1.6106;
11.4000;0.6252;1.6106;
11.7000;0.6268;1.6032;
12.0000;0.6243;1.5983;
12.3000;0.6268;1.6130;
12.6000;0.6300;1.6179;
12.9000;0.6341;1.6252;
13.2000;0.6309;1.6203;
13.5000;0.6276;1.6228;
13.8000;0.6325;1.6350;
14.1000;0.6325;1.6374;
14.4000;0.6333;1.6399;
14.7000;0.6333;1.6277;
15.0000;0.6374;1.6277;
15.3000;0.6374;1.6228;
15.6000;0.6374;1.6154;
15.9000;0.6349;1.6057;
16.2000;0.6414;1.6326;
16.5000;0.6431;1.6399;
16.8000;0.6309;1.6081;
17.1000;0.6422;1.6448;
17.4000;0.6398;1.6301;
17.7000;0.6414;1.6350;
18.0000;0.6431;1.6301;
18.3000;0.6422;1.6203;
18.6000;0.6431;1.6203;
18.9000;0.6431;1.6154;
19.2000;0.6431;1.6106;
19.5000;0.6390;1.5983;
19.8000;0.6455;1.6203;
20.1000;0.6479;1.6228;
20.4000;0.6471;1.6154;
20.7000;0.6479;1.6154;
21.0000;0.6536;1.6301;
21.3000;0.6479;1.6179;
21.6000;0.6471;1.6130;
21.9000;0.6471;1.6106;
22.2000;0.6479;1.6106;
22.5000;0.6585;1.6423;
22.8000;0.6479;1.6130;
23.1000;0.6488;1.6154;
23.4000;0.6512;1.6203;
23.7000;0.6488;1.6203;
24.0000;0.6504;1.6277;
24.3000;0.6610;1.6472;
24.6000;0.6512;1.6203;
24.9000;0.6520;1.6203;
25.2000;0.6569;1.6399;
25.5000;0.6520;1.6252;
25.8000;0.6520;1.6277;
26.1000;0.6545;1.6350;
26.4000;0.6520;1.6277;
26.7000;0.6545;1.6252;
27.0000;0.6496;1.6057;
27.3000;0.6536;1.6130;
27.6000;0.6545;1.6179;
27.9000;0.6553;1.6252;
28.2000;0.6553;1.6326;
28.5000;0.6569;1.6326;
28.8000;0.6536;1.6228;
29.1000;0.6520;1.6130;
29.4000;0.6536;1.6277;
29.7000;0.6536;1.6326;
30.0000;0.6536;1.6252;
30.3000;0.6504;1.6032;
30.6000;0.6553;1.6106;
30.9000;0.6561;1.6081;
31.2000;0.6602;1.6106;
31.5000;0.6561;1.5983;
31.8000;0.6585;1.5934;
32.1000;0.6488;1.5690;
32.4000;0.6561;1.6008;
32.7000;0.6569;1.5983;
33.0000;0.6577;1.6081;
33.3000;0.6602;1.6203;
33.6000;0.6569;1.6106;
33.9000;0.6553;1.5934;
34.2000;0.6577;1.5983;
34.5000;0.6585;1.6081;
34.8000;0.6561;1.6081;
35.1000;0.6553;1.6008;
35.4000;0.6577;1.6057;
35.7000;0.6593;1.6154;
36.0000;0.6577;1.6130;
36.3000;0.6577;1.6081;
36.6000;0.6610;1.6154;
36.9000;0.6602;1.6106;
37.2000;0.6618;1.6106;
37.5000;0.6650;1.6081;
37.8000;0.6610;1.5983;
38.1000;0.6602;1.5959;
38.4000;0.6642;1.6081;
38.7000;0.6602;1.6081;
39.0000;0.6602;1.6057;
39.3000;0.6618;1.6106;
39.6000;0.6618;1.6154;
39.9000;0.6634;1.6228;
40.2000;0.6659;1.6301;
40.5000;0.6593;1.6057;
40.8000;0.6634;1.6154;
41.1000;0.6610;1.6154;
41.4000;0.6675;1.6228;
41.7000;0.6602;1.6008;
42.0000;0.6634;1.6106;
42.3000;0.6618;1.6106;
42.6000;0.6610;1.6106;
42.9000;0.6634;1.6130;
43.2000;0.6650;1.6179;
43.5000;0.6626;1.6179;
43.8000;0.6626;1.6179;
44.1000;0.6618;1.6106;
44.4000;0.6618;1.6130;
44.7000;0.6618;1.6130;
45.0000;0.6626;1.6106;
45.3000;0.6626;1.6130;
45.6000;0.6634;1.5983;
45.9000;0.6618;1.5934;
46.2000;0.6626;1.6008;
46.5000;0.6626;1.5934;
46.8000;0.6610;1.5910;
47.1000;0.6675;1.6106;
47.4000;0.6577;1.5886;
47.7000;0.6650;1.6106;
48.0000;0.6650;1.6106;
48.3000;0.6650;1.6081;
48.6000;0.6650;1.6081;
48.9000;0.6659;1.6106;
49.2000;0.6650;1.6106;
49.5000;0.6659;1.6057;
49.8000;0.6593;1.5934;
50.1000;0.6659;1.6081;
50.4000;0.6659;1.6032;
50.7000;0.6699;1.6081;
51.0000;0.6667;1.5959;
51.3000;0.6626;1.5763;
51.6000;0.6659;1.5788;
51.9000;0.6659;1.5861;
52.2000;0.6667;1.5934;
52.5000;0.6659;1.5934;
52.8000;0.6667;1.5910;
53.1000;0.6659;1.5886;
53.4000;0.6659;1.5886;
53.7000;0.6691;1.6032;
54.0000;0.6659;1.5886;
54.3000;0.6650;1.5812;
54.6000;0.6650;1.5739;
54.9000;0.6659;1.5861;
55.2000;0.6618;1.5788;
55.5000;0.6675;1.5934;
55.8000;0.6732;1.6032;
56.1000;0.6659;1.5886;
56.4000;0.6659;1.5959;
56.7000;0.6667;1.6008;
57.0000;0.6675;1.6106;
57.3000;0.6650;1.5934;
57.6000;0.6675;1.5983;
57.9000;0.6667;1.5983;
58.2000;0.6683;1.5983;
58.5000;0.6675;1.5934;
58.8000;0.6675;1.5934;
59.1000;0.6667;1.5983;
59.4000;0.6659;1.6008;
59.7000;0.6667;1.5959;
60.0000;0.6667;1.5959;
60.3000;0.6659;1.5910;
60.6000;0.6675;1.5959;
60.9000;0.6675;1.5934;
61.2000;0.6691;1.5934;
61.5000;0.6683;1.5886;
61.8000;0.6683;1.5910;
62.1000;0.6683;1.5934;
62.4000;0.6675;1.5910;
62.7000;0.6691;1.6008;
63.0000;0.6683;1.5910;
63.3000;0.6683;1.5886;
63.6000;0.6691;1.5861;
63.9000;0.6683;1.5837;
64.2000;0.6683;1.5837;
64.5000;0.6781;1.6130;
64.8000;0.6683;1.5959;
65.1000;0.6691;1.5886;
65.4000;0.6691;1.5934;
65.7000;0.6691;1.5983;
66.0000;0.6683;1.5983;
66.3000;0.6675;1.5959;
66.6000;0.6707;1.5983;
66.9000;0.6691;1.5959;
67.2000;0.6683;1.5983;
67.5000;0.6716;1.5983;
67.8000;0.6691;1.5886;
68.1000;0.6683;1.5861;
68.4000;0.6724;1.5959;
68.7000;0.6724;1.6008;
69.0000;0.6724;1.6008;
69.3000;0.6764;1.6057;
69.6000;0.6724;1.5959;
69.9000;0.6699;1.5959;
70.2000;0.6707;1.5934;
70.5000;0.6699;1.6032;
70.8000;0.6707;1.6057;
71.1000;0.6740;1.6130;
71.4000;0.6716;1.6057;
71.7000;0.6699;1.6057;
72.0000;0.6716;1.5983;
72.3000;0.6707;1.5861;
72.6000;0.6707;1.5886;
72.9000;0.6716;1.5788;
73.2000;0.6691;1.5666;
73.5000;0.6675;1.5666;
73.8000;0.6691;1.5715;
74.1000;0.6732;1.5910;
74.4000;0.6699;1.5788;
74.7000;0.6707;1.5715;
75.0000;0.6707;1.5666;
75.3000;0.6707;1.5739;
75.6000;0.6748;1.5739;
75.9000;0.6699;1.5617;
76.2000;0.6707;1.5690;
76.5000;0.6699;1.5715;
76.8000;0.6707;1.5666;
77.1000;0.6707;1.5763;
77.4000;0.6740;1.5861;
77.7000;0.6724;1.5812;
78.0000;0.6716;1.5861;
78.3000;0.6675;1.5788;
78.6000;0.6716;1.5788;
78.9000;0.6707;1.5837;
79.2000;0.6724;1.5788;
79.5000;0.6716;1.5763;
79.8000;0.6716;1.5739;
80.1000;0.6716;1.5812;
80.4000;0.6724;1.5788;
80.7000;0.6724;1.5812;
81.0000;0.6716;1.5788;
81.3000;0.6732;1.5812;
81.6000;0.6732;1.5715;
81.9000;0.6772;1.5812;
82.2000;0.6732;1.5715;
82.5000;0.6740;1.5763;
82.8000;0.6748;1.5739;
83.1000;0.6740;1.5690;
83.4000;0.6732;1.5690;
83.7000;0.6732;1.5690;
84.0000;0.6724;1.5739;
84.3000;0.6724;1.5715;
84.6000;0.6789;1.5886;
84.9000;0.6724;1.5690;
85.2000;0.6740;1.5739;
85.5000;0.6724;1.5715;
85.8000;0.6740;1.5641;
86.1000;0.6748;1.5666;
86.4000;0.6724;1.5495;
86.7000;0.6740;1.5592;
87.0000;0.6748;1.5568;
87.3000;0.6732;1.5568;
87.6000;0.6740;1.5592;
87.9000;0.6732;1.5690;
88.2000;0.6732;1.5592;
88.5000;0.6724;1.5568;
88.8000;0.6732;1.5519;
89.1000;0.6732;1.5421;
89.4000;0.6756;1.5495;
89.7000;0.6732;1.5446;
90.0000;0.6716;1.5397;
90.3000;0.6740;1.5446;
90.6000;0.6724;1.5470;
90.9000;0.6683;1.5372;
91.2000;0.6772;1.5592;
91.5000;0.6748;1.5592;
91.8000;0.6748;1.5690;
92.1000;0.6740;1.5617;
92.4000;0.6724;1.5592;
92.7000;0.6756;1.5617;
93.0000;0.6740;1.5592;
93.3000;0.6716;1.5519;
93.6000;0.6756;1.5495;
93.9000;0.6748;1.5470;
94.2000;0.6732;1.5397;
94.5000;0.6748;1.5519;
94.8000;0.6716;1.5470;
95.1000;0.6683;1.5421;
95.4000;0.6748;1.5446;
95.7000;0.6691;1.5421;
96.0000;0.6740;1.5617;
96.3000;0.6740;1.5568;
96.6000;0.6748;1.5592;
96.9000;0.6748;1.5543;
97.2000;0.6740;1.5543;
97.5000;0.6748;1.5641;
97.8000;0.6724;1.5617;
98.1000;0.6732;1.5641;
98.4000;0.6732;1.5641;
98.7000;0.6716;1.5666;
99.0000;0.6724;1.5715;
99.3000;0.6732;1.5763;
99.6000;0.6748;1.5861;
99.9000;0.6732;1.5812;
100.2000;0.6740;1.5837;
100.5000;0.6748;1.5861;
100.8000;0.6740;1.5837;
101.1000;0.6740;1.5861;
101.4000;0.6748;1.5861;
101.7000;0.6748;1.5861;
102.0000;0.6764;1.5886;
102.3000;0.6740;1.5861;
102.6000;0.6756;1.5837;
102.9000;0.6756;1.5934;
103.2000;0.6740;1.5812;
103.5000;0.6756;1.5837;
103.8000;0.6732;1.5837;
104.1000;0.6740;1.5837;
104.4000;0.6732;1.5763;
104.7000;0.6756;1.5715;
105.0000;0.6732;1.5641;
105.3000;0.6748;1.5641;
105.6000;0.6740;1.5641;
105.9000;0.6724;1.5617;
106.2000;0.6740;1.5666;
106.5000;0.6764;1.5788;
106.8000;0.6740;1.5837;
107.1000;0.6732;1.5861;
107.4000;0.6724;1.5812;
107.7000;0.6748;1.5788;
108.0000;0.6748;1.5812;
108.3000;0.6740;1.5739;
108.6000;0.6732;1.5715;
108.9000;0.6740;1.5690;
109.2000;0.6772;1.5788;
109.5000;0.6732;1.5739;
109.8000;0.6740;1.5715;
110.1000;0.6740;1.5739;
110.4000;0.6740;1.5617;
110.7000;0.6764;1.5568;
111.0000;0.6707;1.5470;
111.3000;0.6748;1.5568;
111.6000;0.6748;1.5592;
111.9000;0.6756;1.5641;
112.2000;0.6740;1.5592;
112.5000;0.6707;1.5470;
112.8000;0.6748;1.5641;
113.1000;0.6724;1.5568;
113.4000;0.6748;1.5666;
113.7000;0.6732;1.5666;
114.0000;0.6748;1.5763;
114.3000;0.6740;1.5763;
114.6000;0.6748;1.5788;
114.9000;0.6740;1.5763;
115.2000;0.6764;1.5837;
115.5000;0.6756;1.5861;
115.8000;0.6756;1.5886;
116.1000;0.6732;1.5934;
116.4000;0.6740;1.5934;
116.7000;0.6748;1.5886;
117.0000;0.6748;1.5763;
117.3000;0.6781;1.5934;
117.6000;0.6748;1.5837;
117.9000;0.6756;1.5788;
118.2000;0.6740;1.5739;
118.5000;0.6707;1.5592;
118.8000;0.6740;1.5763;
119.1000;0.6740;1.5763;
119.4000;0.6764;1.5788;
119.7000;0.6740;1.5739;
120.0000;0.6748;1.5812;
120.3000;0.6748;1.5788;
120.6000;0.6756;1.5788;
120.9000;0.6667;1.5568;
121.2000;0.6756;1.5837;
121.5000;0.6740;1.5861;
121.8000;0.6748;1.5959;
122.1000;0.6764;1.5959;
122.4000;0.6748;1.5959;
122.7000;0.6740;1.5910;
123.0000;0.6748;1.5910;
123.3000;0.6748;1.5886;
123.6000;0.6740;1.5910;
123.9000;0.6732;1.5861;
124.2000;0.6748;1.5837;
124.5000;0.6756;1.5763;
124.8000;0.6707;1.5617;
125.1000;0.6724;1.5641;
125.4000;0.6748;1.5715;
125.7000;0.6748;1.5739;
126.0000;0.6756;1.5690;
126.3000;0.6764;1.5715;
126.6000;0.6748;1.5715;
126.9000;0.6732;1.5641;
127.2000;0.6756;1.5592;
127.5000;0.6756;1.5666;
127.8000;0.6748;1.5641;
128.1000;0.6756;1.5715;
128.4000;0.6756;1.5788;
128.7000;0.6740;1.5837;
129.0000;0.6748;1.5837;
129.3000;0.6740;1.5763;
129.6000;0.6740;1.5788;
129.9000;0.6772;1.5861;
130.2000;0.6740;1.5788;
130.5000;0.6781;1.5837;
130.8000;0.6748;1.5788;
131.1000;0.6764;1.5861;
131.4000;0.6748;1.5788;
131.7000;0.6756;1.5788;
132.0000;0.6740;1.5788;
132.3000;0.6756;1.5788;
132.6000;0.6748;1.5715;
132.9000;0.6764;1.5739;
133.2000;0.6756;1.5812;
133.5000;0.6756;1.5763;
133.8000;0.6740;1.5666;
134.1000;0.6756;1.5788;
134.4000;0.6756;1.5739;
134.7000;0.6748;1.5617;
135.0000;0.6748;1.5715;
135.3000;0.6740;1.5837;
135.6000;0.6805;1.5983;
135.9000;0.6740;1.5739;
136.2000;0.6732;1.5763;
136.5000;0.6724;1.5739;
136.8000;0.6781;1.5812;
137.1000;0.6724;1.5690;
137.4000;0.6732;1.5739;
137.7000;0.6740;1.5715;
138.0000;0.6764;1.5666;
138.3000;0.6781;1.5715;
138.6000;0.6740;1.5763;
138.9000;0.6732;1.5739;
139.2000;0.6748;1.5739;
139.5000;0.6748;1.5763;
139.8000;0.6748;1.5788;
140.1000;0.6764;1.5763;
140.4000;0.6732;1.5690;
140.7000;0.6732;1.5690;
141.0000;0.6716;1.5666;
141.3000;0.6740;1.5763;
141.6000;0.6724;1.5788;
141.9000;0.6740;1.5812;
142.2000;0.6764;1.5812;
142.5000;0.6748;1.5763;
142.8000;0.6764;1.5861;
143.1000;0.6740;1.5812;
143.4000;0.6764;1.5910;
143.7000;0.6748;1.5763;
144.0000;0.6854;1.5983;
144.3000;0.6732;1.5715;
144.6000;0.6772;1.5837;
144.9000;0.6772;1.5715;
145.2000;0.6764;1.5641;
145.5000;0.6699;1.5446;
145.8000;0.6732;1.5592;
146.1000;0.6805;1.5812;
146.4000;0.6748;1.5763;
146.7000;0.6862;1.6130;
147.0000;0.6740;1.5812;
147.3000;0.6675;1.5592;
147.6000;0.6740;1.5763;
147.9000;0.6740;1.5763;
148.2000;0.6764;1.5763;
148.5000;0.6740;1.5641;
148.8000;0.6772;1.5690;
149.1000;0.6724;1.5495;
149.4000;0.6732;1.5470;
149.7000;0.6829;1.5690;
150.0000;0.6756;1.5421;
150.3000;0.6724;1.5397;
150.6000;0.6740;1.5397;
150.9000;0.6724;1.5372;
151.2000;0.6756;1.5470;
151.5000;0.6740;1.5470;
151.8000;0.6740;1.5495;
152.1000;0.6740;1.5470;
152.4000;0.6732;1.5519;
152.7000;0.6740;1.5470;
153.0000;0.6748;1.5446;
153.3000;0.6748;1.5446;
153.6000;0.6740;1.5372;
153.9000;0.6724;1.5421;
154.2000;0.6732;1.5397;
154.5000;0.6724;1.5323;
154.8000;0.6748;1.5348;
155.1000;0.6740;1.5323;
155.4000;0.6740;1.5299;
155.7000;0.6740;1.5275;
156.0000;0.6740;1.5348;
156.3000;0.6740;1.5397;
156.6000;0.6748;1.5446;
156.9000;0.6724;1.5397;
157.2000;0.6764;1.5519;
157.5000;0.6748;1.5446;
157.8000;0.6748;1.5495;
158.1000;0.6740;1.5495;
158.4000;0.6732;1.5470;
158.7000;0.6740;1.5495;
159.0000;0.6748;1.5617;
159.3000;0.6748;1.5641;
159.6000;0.6732;1.5617;
159.9000;0.6740;1.5568;
160.2000;0.6764;1.5543;
160.5000;0.6740;1.5568;
160.8000;0.6724;1.5568;
161.1000;0.6732;1.5592;
161.4000;0.6724;1.5641;
161.7000;0.6756;1.5617;
162.0000;0.6716;1.5568;
162.3000;0.6748;1.5641;
162.6000;0.6724;1.5617;
162.9000;0.6716;1.5690;
163.2000;0.6732;1.5739;
163.5000;0.6740;1.5788;
163.8000;0.6716;1.5763;
164.1000;0.6707;1.5666;
164.4000;0.6716;1.5617;
164.7000;0.6764;1.5690;
165.0000;0.6748;1.5666;
165.3000;0.6724;1.5641;
165.6000;0.6748;1.5666;
165.9000;0.6740;1.5690;
166.2000;0.6764;1.5788;
166.5000;0.6756;1.5763;
166.8000;0.6748;1.5788;
167.1000;0.6756;1.5837;
167.4000;0.6748;1.5788;
167.7000;0.6716;1.5812;
168.0000;0.6748;1.5886;
168.3000;0.6748;1.5959;
168.6000;0.6732;1.5812;
168.9000;0.6748;1.5910;
169.2000;0.6756;1.6057;
169.5000;0.6699;1.5910;
169.8000;0.6732;1.5934;
170.1000;0.6797;1.6008;
170.4000;0.6732;1.5837;
170.7000;0.6772;1.5934;
171.0000;0.6740;1.5788;
171.3000;0.6772;1.5910;
171.6000;0.6740;1.5886;
171.9000;0.6732;1.5861;
172.2000;0.6716;1.5861;
172.5000;0.6724;1.5886;
172.8000;0.6732;1.5886;
173.1000;0.6724;1.5837;
173.4000;0.6740;1.5886;
173.7000;0.6707;1.5837;
174.0000;0.6764;1.5934;
174.3000;0.6724;1.5861;
174.6000;0.6724;1.5959;
174.9000;0.6732;1.5910;
175.2000;0.6724;1.5861;
175.5000;0.6732;1.5861;
175.8000;0.6724;1.5886;
176.1000;0.6716;1.5910;
176.4000;0.6740;1.5910;
176.7000;0.6748;1.5959;
177.0000;0.6732;1.5861;
177.3000;0.6724;1.5763;
177.6000;0.6740;1.5715;
177.9000;0.6740;1.5763;
178.2000;0.6740;1.5788;
178.5000;0.6716;1.5812;
178.8000;0.6724;1.5934;
179.1000;0.6724;1.5886;
179.4000;0.6732;1.5934;
179.7000;0.6716;1.5910;
180.0000;0.6732;1.5861;
180.3000;0.6724;1.5861;
180.6000;0.6699;1.5837;
180.9000;0.6740;1.5886;
181.2000;0.6716;1.5812;
181.5000;0.6724;1.5886;
181.8000;0.6724;1.5861;
182.1000;0.6732;1.5886;
182.4000;0.6716;1.5837;
182.7000;0.6716;1.5910;
183.0000;0.6732;1.5959;
183.3000;0.6724;1.5983;
183.6000;0.6707;1.5983;
183.9000;0.6732;1.5959;
184.2000;0.6740;1.5934;
184.5000;0.6724;1.5886;
184.8000;0.6732;1.5983;
185.1000;0.6724;1.6008;
185.4000;0.6691;1.5886;
185.7000;0.6732;1.5959;
186.0000;0.6732;1.5910;
186.3000;0.6764;1.6008;
186.6000;0.6740;1.5812;
186.9000;0.6740;1.5739;
187.2000;0.6724;1.5715;
187.5000;0.6732;1.5666;
187.8000;0.6724;1.5666;
188.1000;0.6732;1.5739;
188.4000;0.6732;1.5861;
188.7000;0.6724;1.5837;
189.0000;0.6789;1.6081;
189.3000;0.6724;1.5861;
189.6000;0.6724;1.5788;
189.9000;0.6707;1.5739;
190.2000;0.6732;1.5788;
190.5000;0.6764;1.5837;
190.8000;0.6732;1.5715;
191.1000;0.6740;1.5763;
191.4000;0.6716;1.5739;
191.7000;0.6740;1.5788;
192.0000;0.6716;1.5788;
192.3000;0.6716;1.5763;
192.6000;0.6724;1.5837;
192.9000;0.6732;1.6008;
193.2000;0.6781;1.6252;
193.5000;0.6707;1.6032;
193.8000;0.6732;1.6008;
194.1000;0.6732;1.6081;
194.4000;0.6724;1.6008;
194.7000;0.6732;1.5959;
195.0000;0.6724;1.5983;
195.3000;0.6716;1.5983;
195.6000;0.6716;1.5861;
195.9000;0.6724;1.5837;
196.2000;0.6716;1.5763;
196.5000;0.6732;1.5812;
196.8000;0.6732;1.5763;
197.1000;0.6716;1.5739;
197.4000;0.6724;1.5763;
197.7000;0.6716;1.5812;
198.0000;0.6707;1.5812;
198.3000;0.6716;1.5788;
198.6000;0.6740;1.5861;
198.9000;0.6691;1.5812;
199.2000;0.6724;1.5886;
199.5000;0.6724;1.5886;
199.8000;0.6683;1.5788;
200.1000;0.6716;1.5837;
200.4000;0.6716;1.5910;
200.7000;0.6732;1.5934;
201.0000;0.6724;1.5886;
201.3000;0.6724;1.5861;
201.6000;0.6724;1.5934;
201.9000;0.6732;1.5959;
202.2000;0.6740;1.5983;
202.5000;0.6716;1.5934;
202.8000;0.6699;1.5910;
203.1000;0.6707;1.5837;
203.4000;0.6691;1.5812;
203.7000;0.6716;1.5812;
204.0000;0.6707;1.5788;
204.3000;0.6716;1.5837;
204.6000;0.6732;1.5886;
204.9000;0.6732;1.5886;
205.2000;0.6699;1.5837;
205.5000;0.6699;1.5788;
205.8000;0.6691;1.5763;
206.1000;0.6716;1.5812;
206.4000;0.6716;1.5886;
206.7000;0.6724;1.5959;
207.0000;0.6732;1.5959;
207.3000;0.6724;1.5959;
207.6000;0.6724;1.5959;
207.9000;0.6659;1.5739;
208.2000;0.6675;1.5763;
208.5000;0.6716;1.5861;
208.8000;0.6724;1.5812;
209.1000;0.6659;1.5715;
209.4000;0.6724;1.5886;
209.7000;0.6699;1.5886;
210.0000;0.6797;1.6252;
210.3000;0.6634;1.5763;
210.6000;0.6716;1.5959;
210.9000;0.6724;1.5959;
211.2000;0.6707;1.5934;
211.5000;0.6716;1.5910;
211.8000;0.6732;1.6032;
212.1000;0.6699;1.5910;
212.4000;0.6691;1.5886;
212.7000;0.6716;1.5959;
213.0000;0.6789;1.6106;
213.3000;0.6724;1.5886;
213.6000;0.6724;1.5910;
213.9000;0.6716;1.5934;
214.2000;0.6732;1.5959;
214.5000;0.6716;1.5959;
214.8000;0.6724;1.5910;
215.1000;0.6707;1.5959;
215.4000;0.6716;1.6081;
215.7000;0.6716;1.6130;
216.0000;0.6748;1.6228;
216.3000;0.6716;1.6106;
216.6000;0.6716;1.6032;
216.9000;0.6659;1.5861;
217.2000;0.6724;1.5934;
217.5000;0.6724;1.5934;
217.8000;0.6716;1.5910;
218.1000;0.6716;1.5837;
218.4000;0.6716;1.5837;
218.7000;0.6699;1.5910;
219.0000;0.6716;1.5983;
219.3000;0.6699;1.5886;
219.6000;0.6716;1.5934;
219.9000;0.6707;1.5959;
220.2000;0.6707;1.6032;
220.5000;0.6699;1.5959;
220.8000;0.6724;1.6106;
221.1000;0.6732;1.6032;
221.4000;0.6716;1.5983;
221.7000;0.6716;1.6008;
222.0000;0.6716;1.5983;
222.3000;0.6724;1.5983;
222.6000;0.6691;1.5959;
222.9000;0.6707;1.6057;
223.2000;0.6716;1.6032;
223.5000;0.6724;1.6008;
223.8000;0.6724;1.5959;
224.1000;0.6716;1.5861;
224.4000;0.6732;1.5934;
224.7000;0.6699;1.5886;
225.0000;0.6724;1.5983;
225.3000;0.6707;1.5959;
225.6000;0.6699;1.6008;
225.9000;0.6707;1.6032;
226.2000;0.6732;1.6057;
226.5000;0.6691;1.5959;
226.8000;0.6675;1.5910;
227.1000;0.6699;1.5886;
227.4000;0.6756;1.6032;
227.7000;0.6716;1.5910;
228.0000;0.6683;1.5837;
228.3000;0.6699;1.5959;
228.6000;0.6707;1.6057;
228.9000;0.6707;1.6008;
229.2000;0.6699;1.6008;
229.5000;0.6691;1.5959;
229.8000;0.6716;1.5983;
230.1000;0.6699;1.5837;
230.4000;0.6683;1.5837;
230.7000;0.6732;1.5861;
231.0000;0.6642;1.5715;
231.3000;0.6707;1.5983;
231.6000;0.6691;1.5959;
231.9000;0.6740;1.6057;
232.2000;0.6748;1.6081;
232.5000;0.6707;1.5959;
232.8000;0.6707;1.6008;
233.1000;0.6691;1.5861;
233.4000;0.6707;1.5910;
233.7000;0.6691;1.5886;
234.0000;0.6699;1.5837;
234.3000;0.6691;1.5812;
234.6000;0.6699;1.5886;
234.9000;0.6691;1.5861;
235.2000;0.6716;1.5934;
235.5000;0.6699;1.5886;
235.8000;0.6699;1.5837;
236.1000;0.6716;1.5812;
236.4000;0.6699;1.5812;
236.7000;0.6699;1.5812;
237.0000;0.6707;1.5837;
237.3000;0.6699;1.5837;
237.6000;0.6716;1.5812;
237.9000;0.6626;1.5568;
238.2000;0.6699;1.5812;
238.5000;0.6699;1.5788;
238.8000;0.6707;1.5861;
239.1000;0.6699;1.5861;
239.4000;0.6683;1.5910;
239.7000;0.6618;1.5763;
240.0000;0.6642;1.5812;
240.3000;0.6691;1.5861;
240.6000;0.6683;1.5886;
240.9000;0.6699;1.5934;
241.2000;0.6707;1.5934;
241.5000;0.6699;1.5886;
241.8000;0.6683;1.5812;
242.1000;0.6683;1.5788;
242.4000;0.6683;1.5837;
242.7000;0.6699;1.5861;
243.0000;0.6691;1.5959;
243.3000;0.6691;1.5910;
243.6000;0.6691;1.5983;
243.9000;0.6683;1.5959;
244.2000;0.6683;1.5934;
244.5000;0.6683;1.5763;
244.8000;0.6659;1.5788;
245.1000;0.6699;1.5934;
245.4000;0.6691;1.5910;
245.7000;0.6675;1.5910;
246.0000;0.6691;1.6032;
246.3000;0.6699;1.5983;
246.6000;0.6724;1.6130;
246.9000;0.6667;1.5910;
247.2000;0.6724;1.6081;
247.5000;0.6667;1.5983;
247.8000;0.6748;1.6228;
248.1000;0.6699;1.6081;
248.4000;0.6659;1.5910;
248.7000;0.6716;1.5983;
249.0000;0.6691;1.5861;
249.3000;0.6683;1.5886;
249.6000;0.6716;1.5983;
249.9000;0.6691;1.5886;
250.2000;0.6699;1.5886;
250.5000;0.6699;1.5861;
250.8000;0.6789;1.6203;
251.1000;0.6683;1.5983;
251.4000;0.6707;1.6032;
251.7000;0.6683;1.5959;
252.0000;0.6691;1.5983;
252.3000;0.6691;1.5959;
252.6000;0.6683;1.5812;
252.9000;0.6699;1.5812;
253.2000;0.6699;1.5763;
253.5000;0.6699;1.5763;
253.8000;0.6699;1.5739;
254.1000;0.6691;1.5788;
254.4000;0.6691;1.5812;
254.7000;0.6707;1.5812;
255.0000;0.6724;1.5837;
255.3000;0.6691;1.5812;
255.6000;0.6699;1.5812;
255.9000;0.6675;1.5812;
256.2000;0.6740;1.5959;
256.5000;0.6691;1.5812;
256.8000;0.6667;1.5763;
257.1000;0.6716;1.5910;
257.4000;0.6683;1.5886;
257.7000;0.6683;1.5959;
258.0000;0.6691;1.5910;
258.3000;0.6618;1.5690;
258.6000;0.6691;1.5886;
258.9000;0.6699;1.5861;
259.2000;0.6683;1.5861;
259.5000;0.6716;1.5934;
259.8000;0.6699;1.5837;
260.1000;0.6691;1.5886;
260.4000;0.6683;1.5910;
260.7000;0.6707;1.6057;
261.0000;0.6683;1.6154;
261.3000;0.6691;1.6203;
261.6000;0.6764;1.6350;
261.9000;0.6691;1.6130;
262.2000;0.6691;1.6179;
262.5000;0.6732;1.6252;
262.8000;0.6691;1.6106;
263.1000;0.6667;1.6106;
263.4000;0.6683;1.6130;
263.7000;0.6683;1.6130;
264.0000;0.6691;1.6057;
264.3000;0.6691;1.6057;
264.6000;0.6675;1.5934;
264.9000;0.6675;1.5837;
265.2000;0.6675;1.5763;
265.5000;0.6707;1.5812;
265.8000;0.6683;1.5763;
266.1000;0.6699;1.5861;
266.4000;0.6683;1.5812;
266.7000;0.6683;1.5788;
267.0000;0.6699;1.5861;
267.3000;0.6683;1.5861;
267.6000;0.6691;1.5910;
267.9000;0.6707;1.5983;
268.2000;0.6699;1.5959;
268.5000;0.6667;1.5959;
268.8000;0.6691;1.6057;
269.1000;0.6683;1.6008;
269.4000;0.6659;1.5910;
269.7000;0.6683;1.5837;
270.0000;0.6667;1.5763;
270.3000;0.6667;1.5641;
270.6000;0.6659;1.5641;
270.9000;0.6691;1.5666;
271.2000;0.6724;1.5788;
271.5000;0.6667;1.5739;
271.8000;0.6707;1.5861;
272.1000;0.6634;1.5788;
272.4000;0.6732;1.6057;
272.7000;0.6699;1.6008;
273.0000;0.6707;1.6081;
273.3000;0.6716;1.6032;
273.6000;0.6691;1.5983;
273.9000;0.6683;1.6057;
274.2000;0.6691;1.6032;
274.5000;0.6707;1.6008;
274.8000;0.6675;1.6008;
275.1000;0.6667;1.5934;
275.4000;0.6691;1.5934;
275.7000;0.6732;1.6008;
276.0000;0.6699;1.5910;
276.3000;0.6683;1.5812;
276.6000;0.6691;1.5861;
276.9000;0.6716;1.5910;
277.2000;0.6683;1.5861;
277.5000;0.6683;1.5812;
277.8000;0.6683;1.5812;
278.1000;0.6675;1.5861;
278.4000;0.6650;1.5861;
278.7000;0.6569;1.5666;
279.0000;0.6683;1.5934;
279.3000;0.6683;1.5886;
279.6000;0.6667;1.5861;
279.9000;0.6667;1.5837;
280.2000;0.6593;1.5715;
280.5000;0.6675;1.5910;
280.8000;0.6634;1.5861;
281.1000;0.6699;1.6008;
281.4000;0.6667;1.5959;
281.7000;0.6707;1.6081;
282.0000;0.6634;1.5934;
282.3000;0.6642;1.5983;
282.6000;0.6667;1.6032;
282.9000;0.6699;1.6106;
283.2000;0.6659;1.6057;
283.5000;0.6667;1.6106;
283.8000;0.6667;1.6081;
284.1000;0.6675;1.6057;
284.4000;0.6683;1.6032;
284.7000;0.6675;1.5861;
285.0000;0.6675;1.5886;
285.3000;0.6667;1.5837;
285.6000;0.6610;1.5715;
285.9000;0.6699;1.5983;
286.2000;0.6675;1.6081;
286.5000;0.6634;1.5959;
286.8000;0.6691;1.6081;
287.1000;0.6642;1.5886;
287.4000;0.6683;1.6057;
287.7000;0.6667;1.6008;
288.0000;0.6683;1.6057;
288.3000;0.6691;1.6057;
288.6000;0.6675;1.6008;
288.9000;0.6683;1.5983;
289.2000;0.6675;1.5983;
289.5000;0.6667;1.5861;
289.8000;0.6675;1.5886;
290.1000;0.6675;1.5837;
290.4000;0.6675;1.5788;
290.7000;0.6691;1.5788;
291.0000;0.6683;1.5788;
291.3000;0.6683;1.5812;
291.6000;0.6675;1.5788;
291.9000;0.6691;1.5763;
292.2000;0.6707;1.5837;
292.5000;0.6675;1.5763;
292.8000;0.6634;1.5739;
293.1000;0.6659;1.5886;
293.4000;0.6683;1.5959;
293.7000;0.6675;1.5910;
294.0000;0.6675;1.5886;
294.3000;0.6659;1.5861;
294.6000;0.6667;1.5861;
294.9000;0.6675;1.5910;
295.2000;0.6716;1.6032;
295.5000;0.6626;1.5788;
295.8000;0.6683;1.5959;
296.1000;0.6650;1.5910;
296.4000;0.6691;1.6057;
296.7000;0.6667;1.5861;
297.0000;0.6683;1.5910;
297.3000;0.6675;1.5934;
297.6000;0.6691;1.6008;
297.9000;0.6691;1.6130;
298.2000;0.6683;1.6179;
298.5000;0.6683;1.6130;
298.8000;0.6618;1.5983;
299.1000;0.6650;1.6130;
299.4000;0.6667;1.6130;
299.7000;0.6675;1.6154;
300.0000;0.6667;1.6179;
300.3000;0.6683;1.6350;
300.6000;0.6691;1.6301;
300.9000;0.6659;1.6179;
301.2000;0.6683;1.6179;
301.5000;0.6683;1.6203;
301.8000;0.6659;1.6106;
302.1000;0.6724;1.6179;
302.4000;0.6675;1.6057;
302.7000;0.6691;1.6106;
303.0000;0.6691;1.6154;
303.3000;0.6683;1.6106;
303.6000;0.6683;1.6081;
303.9000;0.6667;1.5983;
304.2000;0.6691;1.5959;
304.5000;0.6675;1.5886;
304.8000;0.6707;1.5983;
305.1000;0.6667;1.5983;
305.4000;0.6659;1.5983;
305.7000;0.6659;1.5959;
306.0000;0.6740;1.6081;
306.3000;0.6740;1.6106;
306.6000;0.6683;1.5934;
306.9000;0.6667;1.5861;
307.2000;0.6659;1.5861;
307.5000;0.6691;1.5886;
307.8000;0.6675;1.5837;
308.1000;0.6659;1.5763;
308.4000;0.6667;1.5861;
308.7000;0.6691;1.5886;
309.0000;0.6659;1.5861;
309.3000;0.6667;1.5861;
309.6000;0.6659;1.5739;
309.9000;0.6659;1.5861;
310.2000;0.6650;1.5934;
310.5000;0.6659;1.5910;
310.8000;0.6650;1.5837;
311.1000;0.6667;1.5788;
311.4000;0.6675;1.5788;
311.7000;0.6667;1.5788;
312.0000;0.6610;1.5690;
312.3000;0.6675;1.5861;
312.6000;0.6667;1.5788;
312.9000;0.6675;1.5910;
313.2000;0.6650;1.5812;
313.5000;0.6650;1.5763;
313.8000;0.6659;1.5861;
314.1000;0.6667;1.5959;
314.4000;0.6634;1.5934;
314.7000;0.6650;1.5886;
315.0000;0.6667;1.5934;
315.3000;0.6683;1.5959;
315.6000;0.6667;1.6008;
315.9000;0.6634;1.5959;
316.2000;0.6659;1.5983;
316.5000;0.6667;1.6008;
316.8000;0.6659;1.6081;
317.1000;0.6659;1.6106;
317.4000;0.6634;1.6106;
317.7000;0.6659;1.6106;
318.0000;0.6683;1.6106;
318.3000;0.6659;1.6032;
318.6000;0.6699;1.6057;
318.9000;0.6667;1.6008;
319.2000;0.6659;1.5837;
319.5000;0.6659;1.5763;
319.8000;0.6667;1.5739;
320.1000;0.6691;1.5886;
320.4000;0.6667;1.5886;
320.7000;0.6691;1.5910;
321.0000;0.6650;1.5812;
321.3000;0.6659;1.5837;
321.6000;0.6659;1.5861;
321.9000;0.6683;1.5788;
322.2000;0.6683;1.5788;
322.5000;0.6675;1.5763;
322.8000;0.6667;1.5837;
323.1000;0.6667;1.5763;
323.4000;0.6642;1.5739;
323.7000;0.6496;1.5470;
324.0000;0.6675;1.5837;
324.3000;0.6667;1.5788;
324.6000;0.6642;1.5788;
324.9000;0.6642;1.5763;
325.2000;0.6634;1.5763;
325.5000;0.6650;1.5886;
325.8000;0.6707;1.6008;
326.1000;0.6659;1.5910;
326.4000;0.6699;1.5983;
326.7000;0.6683;1.5910;
327.0000;0.6634;1.5812;
327.3000;0.6650;1.5861;
327.6000;0.6659;1.5861;
327.9000;0.6642;1.5837;
328.2000;0.6593;1.5519;
328.5000;0.6675;1.5788;
328.8000;0.6650;1.5788;
329.1000;0.6732;1.5983;
329.4000;0.6642;1.5641;
329.7000;0.6650;1.5617;
330.0000;0.6659;1.5617;
330.3000;0.6650;1.5592;
330.6000;0.6659;1.5592;
330.9000;0.6634;1.5592;
331.2000;0.6667;1.5690;
331.5000;0.6683;1.5739;
331.8000;0.6659;1.5763;
332.1000;0.6667;1.5788;
332.4000;0.6667;1.5666;
332.7000;0.6683;1.5690;
333.0000;0.6577;1.5470;
333.3000;0.6659;1.5739;
333.6000;0.6659;1.5666;
333.9000;0.6650;1.5666;
334.2000;0.6667;1.5739;
334.5000;0.6642;1.5690;
334.8000;0.6732;1.5959;
335.1000;0.6667;1.5739;
335.4000;0.6642;1.5763;
335.7000;0.6634;1.5763;
336.0000;0.6634;1.5861;
336.3000;0.6650;1.5812;
336.6000;0.6667;1.5715;
336.9000;0.6593;1.5543;
337.2000;0.6642;1.5739;
337.5000;0.6650;1.5739;
337.8000;0.6659;1.5812;
338.1000;0.6642;1.5739;
338.4000;0.6650;1.5763;
338.7000;0.6642;1.5788;
339.0000;0.6667;1.5837;
339.3000;0.6667;1.5861;
339.6000;0.6650;1.5788;
339.9000;0.6650;1.5715;
340.2000;0.6659;1.5739;
340.5000;0.6650;1.5763;
340.8000;0.6659;1.5763;
341.1000;0.6659;1.5812;
341.4000;0.6642;1.5837;
341.7000;0.6659;1.5837;
342.0000;0.6675;1.5763;
342.3000;0.6577;1.5446;
342.6000;0.6642;1.5592;
342.9000;0.6642;1.5715;
343.2000;0.6610;1.5568;
343.5000;0.6683;1.5763;
343.8000;0.6650;1.5690;
344.1000;0.6724;1.5959;
344.4000;0.6642;1.5837;
344.7000;0.6634;1.5861;
345.0000;0.6667;1.5983;
345.3000;0.6650;1.5934;
345.6000;0.6667;1.6032;
345.9000;0.6650;1.6081;
346.2000;0.6650;1.5983;
346.5000;0.6659;1.5959;
346.8000;0.6642;1.6008;
347.1000;0.6667;1.6130;
347.4000;0.6642;1.6106;
347.7000;0.6650;1.6081;
348.0000;0.6650;1.5983;
348.3000;0.6610;1.5934;
348.6000;0.6659;1.6032;
348.9000;0.6642;1.6081;
349.2000;0.6659;1.6130;
349.5000;0.6642;1.6106;
349.8000;0.6610;1.6081;
350.1000;0.6650;1.6130;
350.4000;0.6642;1.6008;
350.7000;0.6642;1.5983;
351.0000;0.6634;1.5934;
351.3000;0.6618;1.5812;
351.6000;0.6626;1.5812;
351.9000;0.6659;1.5861;
352.2000;0.6650;1.5910;
352.5000;0.6691;1.6130;
352.8000;0.6634;1.5983;
353.1000;0.6659;1.6008;
353.4000;0.6659;1.5959;
353.7000;0.6764;1.6277;
354.0000;0.6642;1.5910;
354.3000;0.6642;1.5812;
354.6000;0.6675;1.5715;
354.9000;0.6650;1.5666;
355.2000;0.6650;1.5690;
355.5000;0.6650;1.5739;
355.8000;0.6593;1.5715;
356.1000;0.6642;1.5861;
356.4000;0.6650;1.5959;
356.7000;0.6642;1.6057;
357.0000;0.6659;1.6179;
357.3000;0.6659;1.6154;
357.6000;0.6585;1.5934;
357.9000;0.6642;1.6106;
358.2000;0.6634;1.6032;
358.5000;0.6650;1.6008;
358.8000;0.6642;1.6008;
359.1000;0.6634;1.5959;
359.4000;0.6642;1.6130;
359.7000;0.6626;1.6032;
360.0000;0.6650;1.6081;
360.3000;0.6618;1.6057;
360.6000;0.6659;1.6154;
360.9000;0.6642;1.6154;
361.2000;0.6642;1.6106;
361.5000;0.6650;1.6154;
361.8000;0.6650;1.6106;
362.1000;0.6667;1.6154;
362.4000;0.6626;1.6081;
362.7000;0.6634;1.6106;
363.0000;0.6691;1.6228;
363.3000;0.6659;1.6154;
363.6000;0.6650;1.6179;
363.9000;0.6634;1.6154;
364.2000;0.6650;1.6179;
364.5000;0.6642;1.6203;
364.8000;0.6634;1.6203;
365.1000;0.6634;1.6081;
365.4000;0.6626;1.6106;
365.7000;0.6642;1.6032;
366.0000;0.6642;1.6008;
366.3000;0.6650;1.6032;
366.6000;0.6634;1.6032;
366.9000;0.6650;1.5983;
367.2000;0.6642;1.6032;
367.5000;0.6650;1.5983;
367.8000;0.6618;1.5910;
368.1000;0.6707;1.6154;
368.4000;0.6642;1.6032;
368.7000;0.6683;1.6179;
369.0000;0.6626;1.6130;
369.3000;0.6642;1.6106;
369.6000;0.6642;1.6081;
369.9000;0.6642;1.6032;
370.2000;0.6642;1.5983;
370.5000;0.6642;1.5983;
370.8000;0.6650;1.5983;
371.1000;0.6642;1.6008;
371.4000;0.6634;1.5983;
371.7000;0.6642;1.6008;
372.0000;0.6634;1.6032;
372.3000;0.6650;1.6106;
372.6000;0.6642;1.6057;
372.9000;0.6634;1.5910;
373.2000;0.6659;1.5983;
373.5000;0.6650;1.5983;
373.8000;0.6642;1.5983;
374.1000;0.6634;1.5910;
374.4000;0.6618;1.5910;
374.7000;0.6642;1.5959;
375.0000;0.6642;1.5934;
375.3000;0.6602;1.5886;
375.6000;0.6626;1.5959;
375.9000;0.6626;1.6032;
376.2000;0.6634;1.5983;
376.5000;0.6593;1.5934;
376.8000;0.6626;1.6032;
377.1000;0.6675;1.6179;
377.4000;0.6659;1.6179;
377.7000;0.6691;1.6154;
378.0000;0.6659;1.6106;
378.3000;0.6650;1.6057;
378.6000;0.6691;1.6057;
378.9000;0.6634;1.5959;
379.2000;0.6634;1.5959;
379.5000;0.6634;1.5910;
379.8000;0.6659;1.5959;
380.1000;0.6675;1.5934;
380.4000;0.6642;1.5886;
380.7000;0.6724;1.6106;
381.0000;0.6634;1.5886;
381.3000;0.6634;1.5959;
381.6000;0.6634;1.5886;
381.9000;0.6683;1.5959;
382.2000;0.6659;1.5886;
382.5000;0.6667;1.5861;
382.8000;0.6642;1.5861;
383.1000;0.6650;1.5886;
383.4000;0.6659;1.5910;
383.7000;0.6642;1.6057;
384.0000;0.6642;1.6057;
384.3000;0.6634;1.5910;
384.6000;0.6634;1.5886;
384.9000;0.6642;1.5837;
385.2000;0.6650;1.5934;
385.5000;0.6626;1.5934;
385.8000;0.6642;1.5886;
386.1000;0.6634;1.5886;
386.4000;0.6642;1.5983;
386.7000;0.6634;1.6032;
387.0000;0.6634;1.6057;
387.3000;0.6650;1.6130;
387.6000;0.6650;1.6106;
387.9000;0.6634;1.6154;
388.2000;0.6634;1.6130;
388.5000;0.6642;1.6154;
388.8000;0.6634;1.6106;
389.1000;0.6650;1.6057;
389.4000;0.6593;1.6008;
389.7000;0.6642;1.6154;
390.0000;0.6634;1.6106;
390.3000;0.6626;1.6081;
390.6000;0.6642;1.6130;
390.9000;0.6642;1.6203;
391.2000;0.6618;1.6081;
391.5000;0.6659;1.6130;
391.8000;0.6577;1.6032;
392.1000;0.6610;1.6154;
392.4000;0.6650;1.6228;
392.7000;0.6626;1.6130;
393.0000;0.6618;1.6106;
393.3000;0.6634;1.6130;
393.6000;0.6618;1.6032;
393.9000;0.6626;1.6008;
394.2000;0.6650;1.6081;
394.5000;0.6618;1.6032;
394.8000;0.6691;1.6228;
395.1000;0.6626;1.6057;
395.4000;0.6626;1.6081;
395.7000;0.6634;1.6032;
396.0000;0.6683;1.6130;
396.3000;0.6675;1.6106;
396.6000;0.6634;1.6130;
396.9000;0.6634;1.6130;
397.2000;0.6659;1.6301;
397.5000;0.6650;1.6277;
397.8000;0.6642;1.6277;
398.1000;0.6536;1.6154;
398.4000;0.6593;1.6203;
398.7000;0.6667;1.6423;
399.0000;0.6626;1.6350;
399.3000;0.6553;1.6008;
399.6000;0.6593;1.6130;
399.9000;0.6618;1.6154;
400.2000;0.6634;1.6130;
400.5000;0.6634;1.6106;
400.8000;0.6634;1.6106;
401.1000;0.6618;1.6057;
401.4000;0.6650;1.6179;
401.7000;0.6626;1.6032;
402.0000;0.6626;1.6081;
402.3000;0.6626;1.6032;
402.6000;0.6667;1.6130;
402.9000;0.6650;1.6081;
403.2000;0.6618;1.6179;
403.5000;0.6618;1.6154;
403.8000;0.6634;1.6179;
404.1000;0.6626;1.6179;
404.4000;0.6610;1.6203;
404.7000;0.6610;1.6179;
405.0000;0.6642;1.6252;
405.3000;0.6642;1.6277;
405.6000;0.6626;1.6106;
405.9000;0.6634;1.6106;
406.2000;0.6642;1.6081;
406.5000;0.6642;1.5983;
406.8000;0.6650;1.5934;
407.1000;0.6634;1.5959;
407.4000;0.6634;1.5910;
407.7000;0.6642;1.5983;
408.0000;0.6618;1.6008;
408.3000;0.6593;1.6008;
408.6000;0.6618;1.6008;
408.9000;0.6650;1.6106;
409.2000;0.6626;1.6106;
409.5000;0.6602;1.6057;
409.8000;0.6626;1.6032;
410.1000;0.6642;1.6032;
410.4000;0.6626;1.6057;
410.7000;0.6618;1.6008;
411.0000;0.6642;1.6008;
411.3000;0.6659;1.6081;
411.6000;0.6642;1.6081;
411.9000;0.6553;1.5788;
412.2000;0.6650;1.6057;
412.5000;0.6634;1.6032;
412.8000;0.6634;1.6081;
413.1000;0.6650;1.6179;
413.4000;0.6585;1.5934;
413.7000;0.6634;1.6081;
414.0000;0.6593;1.5959;
414.3000;0.6634;1.6057;
414.6000;0.6577;1.5861;
414.9000;0.6634;1.6081;
415.2000;0.6634;1.6081;
415.5000;0.6626;1.6106;
415.8000;0.6618;1.6106;
416.1000;0.6618;1.6032;
416.4000;0.6634;1.6008;
416.7000;0.6650;1.6008;
417.0000;0.6585;1.5861;
417.3000;0.6626;1.6008;
417.6000;0.6618;1.5983;
417.9000;0.6626;1.6081;
418.2000;0.6610;1.6057;
418.5000;0.6626;1.6203;
418.8000;0.6618;1.6277;
419.1000;0.6593;1.6179;
419.4000;0.6634;1.6228;
419.7000;0.6618;1.6203;
420.0000;0.6650;1.6326;
420.3000;0.6626;1.6179;
420.6000;0.6618;1.6106;
420.9000;0.6610;1.6008;
421.2000;0.6602;1.6008;
421.5000;0.6618;1.6032;
421.8000;0.6626;1.5983;
422.1000;0.6618;1.6008;
422.4000;0.6626;1.6057;
422.7000;0.6634;1.6081;
423.0000;0.6634;1.6057;
423.3000;0.6650;1.6106;
423.6000;0.6634;1.6154;
423.9000;0.6610;1.6032;
424.2000;0.6642;1.6228;
424.5000;0.6626;1.6154;
424.8000;0.6618;1.6228;
425.1000;0.6626;1.6350;
425.4000;0.6626;1.6252;
425.7000;0.6618;1.6301;
426.0000;0.6618;1.6252;
426.3000;0.6618;1.6106;
426.6000;0.6593;1.6032;
426.9000;0.6634;1.6179;
427.2000;0.6642;1.6154;
427.5000;0.6642;1.6106;
427.8000;0.6626;1.6081;
428.1000;0.6634;1.6081;
428.4000;0.6626;1.6081;
428.7000;0.6618;1.6081;
429.0000;0.6634;1.6130;
429.3000;0.6618;1.6130;
429.6000;0.6667;1.6252;
429.9000;0.6585;1.6130;
430.2000;0.6610;1.6203;
430.5000;0.6634;1.6203;
430.8000;0.6610;1.6154;
431.1000;0.6626;1.6228;
431.4000;0.6618;1.6203;
431.7000;0.6610;1.6154;
432.0000;0.6618;1.6179;
432.3000;0.6618;1.6179;
432.6000;0.6642;1.6203;
432.9000;0.6618;1.6130;
433.2000;0.6626;1.6106;
433.5000;0.6610;1.6106;
433.8000;0.6610;1.6106;
434.1000;0.6626;1.6057;
434.4000;0.6618;1.6032;
434.7000;0.6626;1.6008;
435.0000;0.6610;1.6081;
435.3000;0.6667;1.6203;
435.6000;0.6593;1.6008;
435.9000;0.6626;1.6106;
436.2000;0.6561;1.5910;
436.5000;0.6626;1.6032;
436.8000;0.6634;1.6032;
437.1000;0.6634;1.6057;
437.4000;0.6593;1.6008;
437.7000;0.6626;1.6106;
438.0000;0.6561;1.5886;
438.3000;0.6691;1.6228;
438.6000;0.6675;1.6179;
438.9000;0.6756;1.6326;
439.2000;0.6634;1.6008;
439.5000;0.6634;1.6032;
439.8000;0.6618;1.6081;
440.1000;0.6618;1.6081;
440.4000;0.6593;1.6008;
440.7000;0.6602;1.6032;
441.0000;0.6602;1.6081;
441.3000;0.6602;1.6154;
441.6000;0.6602;1.6154;
441.9000;0.6642;1.6130;
442.2000;0.6602;1.6130;
442.5000;0.6618;1.6203;
442.8000;0.6618;1.6203;
443.1000;0.6626;1.6179;
443.4000;0.6626;1.6154;
443.7000;0.6602;1.6081;
444.0000;0.6561;1.6008;
444.3000;0.6561;1.6032;
444.6000;0.6618;1.6154;
444.9000;0.6618;1.6179;
445.2000;0.6602;1.6130;
445.5000;0.6618;1.6130;
445.8000;0.6618;1.6130;
446.1000;0.6593;1.6154;
446.4000;0.6610;1.6228;
446.7000;0.6618;1.6179;
447.0000;0.6634;1.6252;
447.3000;0.6618;1.6252;
447.6000;0.6642;1.6228;
447.9000;0.6626;1.6154;
448.2000;0.6626;1.6106;
448.5000;0.6642;1.6106;
448.8000;0.6618;1.5959;
449.1000;0.6626;1.5959;
449.4000;0.6634;1.6032;
449.7000;0.6610;1.5983;
450.0000;0.6602;1.5959;
450.3000;0.6585;1.5983;
450.6000;0.6610;1.6106;
450.9000;0.6691;1.6252;
451.2000;0.6626;1.6081;
451.5000;0.6618;1.5983;
451.8000;0.6602;1.6057;
452.1000;0.6626;1.6130;
452.4000;0.6618;1.6130;
452.7000;0.6610;1.6106;
453.0000;0.6618;1.6106;
453.3000;0.6610;1.6154;
453.6000;0.6634;1.6154;
453.9000;0.6634;1.6203;
454.2000;0.6618;1.6203;
454.5000;0.6626;1.6277;
454.8000;0.6626;1.6301;
455.1000;0.6569;1.6203;
455.4000;0.6618;1.6228;
455.7000;0.6626;1.6252;
456.0000;0.6602;1.6228;
456.3000;0.6610;1.6228;
456.6000;0.6618;1.6203;
456.9000;0.6707;1.6374;
457.2000;0.6618;1.6032;
457.5000;0.6618;1.5959;
457.8000;0.6618;1.6057;
458.1000;0.6618;1.5983;
458.4000;0.6618;1.6008;
458.7000;0.6626;1.6008;
459.0000;0.6569;1.5861;
459.3000;0.6634;1.6057;
459.6000;0.6610;1.5983;
459.9000;0.6585;1.5837;
460.2000;0.6618;1.5886;
460.5000;0.6602;1.6081;
460.8000;0.6561;1.6032;
461.1000;0.6618;1.6179;
461.4000;0.6716;1.6350;
461.7000;0.6610;1.6057;
462.0000;0.6675;1.6203;
462.3000;0.6585;1.6057;
462.6000;0.6602;1.6081;
462.9000;0.6626;1.6154;
463.2000;0.6593;1.6154;
463.5000;0.6610;1.6203;
463.8000;0.6553;1.5910;
464.1000;0.6618;1.6130;
464.4000;0.6610;1.6081;
464.7000;0.6618;1.6106;
465.0000;0.6610;1.6130;
465.3000;0.6659;1.6301;
465.6000;0.6610;1.6203;
465.9000;0.6618;1.6301;
466.2000;0.6618;1.6228;
466.5000;0.6602;1.6203;
466.8000;0.6593;1.6154;
467.1000;0.6602;1.6203;
467.4000;0.6650;1.6301;
467.7000;0.6618;1.6277;
468.0000;0.6610;1.6228;
468.3000;0.6610;1.6252;
468.6000;0.6634;1.6228;
468.9000;0.6585;1.6154;
469.2000;0.6602;1.6154;
469.5000;0.6585;1.6081;
469.8000;0.6593;1.6130;
470.1000;0.6593;1.6106;
470.4000;0.6593;1.6057;
470.7000;0.6634;1.6106;
471.0000;0.6618;1.6032;
471.3000;0.6618;1.6081;
471.6000;0.6553;1.5837;
471.9000;0.6626;1.6106;
472.2000;0.6602;1.6081;
472.5000;0.6602;1.6057;
472.8000;0.6610;1.6057;
473.1000;0.6528;1.5886;
473.4000;0.6602;1.6081;
473.7000;0.6667;1.6252;
474.0000;0.6602;1.6032;
474.3000;0.6610;1.6130;
474.6000;0.6691;1.6301;
474.9000;0.6577;1.6081;
475.2000;0.6610;1.6179;
475.5000;0.6618;1.6203;
475.8000;0.6618;1.6228;
476.1000;0.6618;1.6203;
476.4000;0.6626;1.6203;
476.7000;0.6602;1.6106;
477.0000;0.6602;1.6032;
477.3000;0.6634;1.6081;
477.6000;0.6610;1.6057;
477.9000;0.6602;1.6081;
478.2000;0.6626;1.6081;
478.5000;0.6610;1.6057;
478.8000;0.6667;1.6203;
479.1000;0.6610;1.6081;
479.4000;0.6593;1.5983;
479.7000;0.6577;1.5910;
480.0000;0.6610;1.5934;
480.3000;0.6610;1.5983;
480.6000;0.6610;1.5959;
480.9000;0.6545;1.5763;
481.2000;0.6610;1.6008;
481.5000;0.6618;1.6032;
481.8000;0.6593;1.5959;
482.1000;0.6585;1.5934;
482.4000;0.6602;1.5983;
482.7000;0.6593;1.5959;
483.0000;0.6585;1.5934;
483.3000;0.6610;1.6008;
483.6000;0.6610;1.5983;
483.9000;0.6602;1.6032;
484.2000;0.6642;1.6228;
484.5000;0.6602;1.6106;
484.8000;0.6593;1.6081;
485.1000;0.6593;1.6081;
485.4000;0.6626;1.6179;
485.7000;0.6626;1.6106;
486.0000;0.6610;1.6130;
486.3000;0.6634;1.6179;
486.6000;0.6610;1.6203;
486.9000;0.6626;1.6301;
487.2000;0.6512;1.6008;
487.5000;0.6602;1.6154;
487.8000;0.6593;1.6154;
488.1000;0.6610;1.6106;
488.4000;0.6618;1.6057;
488.7000;0.6707;1.6326;
489.0000;0.6675;1.6179;
489.3000;0.6618;1.6008;
489.6000;0.6634;1.6130;
489.9000;0.6610;1.6154;
490.2000;0.6667;1.6326;
490.5000;0.6593;1.6106;
490.8000;0.6602;1.6203;
491.1000;0.6536;1.6057;
491.4000;0.6618;1.6228;
491.7000;0.6610;1.6106;
492.0000;0.6561;1.5837;
492.3000;0.6561;1.5788;
492.6000;0.6602;1.5886;
492.9000;0.6593;1.5861;
493.2000;0.6569;1.5788;
493.5000;0.6569;1.5739;
493.8000;0.6536;1.5641;
494.1000;0.6602;1.5812;
494.4000;0.6602;1.5837;
494.7000;0.6561;1.5837;
495.0000;0.6602;1.5959;
495.3000;0.6593;1.5959;
495.6000;0.6675;1.6032;
495.9000;0.6585;1.5934;
496.2000;0.6610;1.5983;
496.5000;0.6610;1.6008;
496.8000;0.6610;1.6032;
497.1000;0.6569;1.5934;
497.4000;0.6593;1.5934;
497.7000;0.6479;1.5617;
498.0000;0.6610;1.6008;
498.3000;0.6610;1.6008;
498.6000;0.6650;1.6057;
498.9000;0.6602;1.5959;
499.2000;0.6618;1.6008;
499.5000;0.6610;1.6032;
499.8000;0.6618;1.5983;
500.1000;0.6602;1.5861;
500.4000;0.6593;1.5837;
500.7000;0.6610;1.5934;
501.0000;0.6585;1.5934;
501.3000;0.6626;1.6008;
501.6000;0.6626;1.6057;
501.9000;0.6610;1.5959;
502.2000;0.6593;1.5959;
502.5000;0.6593;1.5983;
502.8000;0.6585;1.5959;
503.1000;0.6602;1.6106;
503.4000;0.6642;1.6179;
503.7000;0.6602;1.6081;
504.0000;0.6626;1.6228;
504.3000;0.6593;1.6301;
504.6000;0.6585;1.6252;
504.9000;0.6593;1.6326;
505.2000;0.6610;1.6228;
505.5000;0.6602;1.6179;
505.8000;0.6593;1.6106;
506.1000;0.6650;1.6106;
506.4000;0.6585;1.5934;
506.7000;0.6602;1.6008;
507.0000;0.6545;1.5959;
507.3000;0.6593;1.6130;
507.6000;0.6569;1.6057;
507.9000;0.6626;1.6130;
508.2000;0.6618;1.6154;
508.5000;0.6626;1.6106;
508.8000;0.6577;1.6154;
509.1000;0.6667;1.6277;
509.4000;0.6545;1.6057;
509.7000;0.6593;1.6252;
510.0000;0.6577;1.6277;
510.3000;0.6536;1.6179;
510.6000;0.6593;1.6203;
510.9000;0.6585;1.6130;
511.2000;0.6593;1.6130;
511.5000;0.6699;1.6326;
511.8000;0.6618;1.6106;
512.1000;0.6585;1.6032;
512.4000;0.6602;1.6057;
512.7000;0.6602;1.6106;
513.0000;0.6602;1.6081;
513.3000;0.6610;1.6057;
513.6000;0.6593;1.6032;
513.9000;0.6593;1.6081;
514.2000;0.6642;1.6228;
514.5000;0.6602;1.6130;
514.8000;0.6593;1.6106;
515.1000;0.6553;1.6057;
515.4000;0.6593;1.6106;
515.7000;0.6602;1.6154;
516.0000;0.6545;1.6032;
516.3000;0.6561;1.6032;
516.6000;0.6585;1.6106;
516.9000;0.6577;1.6130;
517.2000;0.6602;1.6179;
517.5000;0.6602;1.6130;
517.8000;0.6561;1.6081;
518.1000;0.6593;1.6154;
518.4000;0.6602;1.6106;
518.7000;0.6634;1.6130;
519.0000;0.6593;1.6106;
519.3000;0.6593;1.6081;
519.6000;0.6602;1.6154;
519.9000;0.6593;1.6203;
520.2000;0.6593;1.6179;
520.5000;0.6593;1.6154;
520.8000;0.6593;1.6179;
521.1000;0.6585;1.6154;
521.4000;0.6585;1.6130;
521.7000;0.6577;1.6106;
522.0000;0.6610;1.6130;
522.3000;0.6626;1.6203;
522.6000;0.6602;1.6179;
522.9000;0.6602;1.6228;
523.2000;0.6610;1.6252;
523.5000;0.6618;1.6277;
523.8000;0.6618;1.6228;
524.1000;0.6593;1.6179;
524.4000;0.6602;1.6252;
524.7000;0.6618;1.6374;
525.0000;0.6593;1.6252;
525.3000;0.6593;1.6130;
525.6000;0.6577;1.6130;
525.9000;0.6585;1.6228;
526.2000;0.6593;1.6179;
526.5000;0.6585;1.6252;
526.8000;0.6585;1.6203;
527.1000;0.6577;1.6154;
527.4000;0.6569;1.6228;
527.7000;0.6585;1.6326;
528.0000;0.6577;1.6374;
528.3000;0.6585;1.6423;
528.6000;0.6577;1.6399;
528.9000;0.6577;1.6399;
529.2000;0.6593;1.6374;
529.5000;0.6577;1.6277;
529.8000;0.6585;1.6350;
530.1000;0.6585;1.6423;
530.4000;0.6602;1.6350;
530.7000;0.6593;1.6374;
531.0000;0.6569;1.6301;
531.3000;0.6593;1.6277;
531.6000;0.6512;1.6057;
531.9000;0.6536;1.6106;
532.2000;0.6585;1.6252;
532.5000;0.6618;1.6374;
532.8000;0.6585;1.6203;
533.1000;0.6626;1.6252;
533.4000;0.6610;1.6179;
533.7000;0.6585;1.6179;
534.0000;0.6602;1.6277;
534.3000;0.6577;1.6179;
534.6000;0.6585;1.6228;
534.9000;0.6634;1.6301;
535.2000;0.6602;1.6179;
535.5000;0.6577;1.6154;
535.8000;0.6585;1.6130;
536.1000;0.6593;1.6154;
536.4000;0.6593;1.6057;
536.7000;0.6593;1.6057;
537.0000;0.6602;1.6081;
537.3000;0.6585;1.6106;
537.6000;0.6593;1.6057;
537.9000;0.6577;1.6081;
538.2000;0.6593;1.6057;
538.5000;0.6593;1.5983;
538.8000;0.6593;1.6081;
539.1000;0.6585;1.6032;
539.4000;0.6569;1.5934;
539.7000;0.6585;1.5934;
540.0000;0.6593;1.6057;
540.3000;0.6585;1.6106;
540.6000;0.6585;1.6057;
540.9000;0.6593;1.6106;
541.2000;0.6593;1.6130;
541.5000;0.6593;1.6106;
541.8000;0.6602;1.6106;
542.1000;0.6593;1.6106;
542.4000;0.6602;1.6008;
542.7000;0.6610;1.6008;
543.0000;0.6593;1.6008;
543.3000;0.6585;1.6057;
543.6000;0.6602;1.6106;
543.9000;0.6593;1.6179;
544.2000;0.6585;1.6277;
544.5000;0.6585;1.6350;
544.8000;0.6585;1.6399;
545.1000;0.6585;1.6374;
545.4000;0.6585;1.6326;
545.7000;0.6593;1.6277;
546.0000;0.6585;1.6252;
546.3000;0.6585;1.6179;
546.6000;0.6577;1.6130;
546.9000;0.6602;1.6179;
547.2000;0.6585;1.6154;
547.5000;0.6593;1.6106;
547.8000;0.6585;1.6032;
548.1000;0.6593;1.6081;
548.4000;0.6593;1.6106;
548.7000;0.6593;1.6228;
549.0000;0.6593;1.6277;
549.3000;0.6585;1.6301;
549.6000;0.6585;1.6301;
549.9000;0.6585;1.6252;
550.2000;0.6585;1.6301;
550.5000;0.6602;1.6277;
550.8000;0.6593;1.6277;
551.1000;0.6634;1.6399;
551.4000;0.6569;1.6228;
551.7000;0.6602;1.6374;
552.0000;0.6553;1.6179;
552.3000;0.6577;1.6326;
552.6000;0.6593;1.6277;
552.9000;0.6585;1.6277;
553.2000;0.6602;1.6203;
553.5000;0.6618;1.6228;
553.8000;0.6593;1.6130;
554.1000;0.6561;1.6057;
554.4000;0.6593;1.6081;
554.7000;0.6553;1.6008;
555.0000;0.6545;1.5983;
555.3000;0.6585;1.6032;
555.6000;0.6585;1.6008;
555.9000;0.6602;1.6057;
556.2000;0.6593;1.6057;
556.5000;0.6618;1.6106;
556.8000;0.6585;1.6081;
557.1000;0.6520;1.5910;
557.4000;0.6602;1.6130;
557.7000;0.6602;1.6179;
558.0000;0.6593;1.6106;
558.3000;0.6610;1.6130;
558.6000;0.6593;1.6106;
558.9000;0.6634;1.6326;
559.2000;0.6585;1.6154;
559.5000;0.6553;1.6081;
559.8000;0.6561;1.6106;
560.1000;0.6577;1.6154;
560.4000;0.6569;1.6252;
560.7000;0.6593;1.6301;
561.0000;0.6585;1.6301;
561.3000;0.6634;1.6472;
561.6000;0.6585;1.6399;
561.9000;0.6569;1.6301;
562.2000;0.6569;1.6203;
562.5000;0.6577;1.6154;
562.8000;0.6577;1.6154;
563.1000;0.6593;1.6203;
563.4000;0.6569;1.6203;
563.7000;0.6593;1.6301;
564.0000;0.6577;1.6203;
564.3000;0.6577;1.6203;
564.6000;0.6577;1.6106;
564.9000;0.6561;1.6081;
565.2000;0.6577;1.6130;
565.5000;0.6585;1.6203;
565.8000;0.6585;1.6228;
566.1000;0.6585;1.6228;
566.4000;0.6585;1.6277;
566.7000;0.6504;1.6057;
567.0000;0.6593;1.6203;
567.3000;0.6585;1.6179;
567.6000;0.6593;1.6203;
567.9000;0.6602;1.6277;
568.2000;0.6585;1.6228;
568.5000;0.6577;1.6130;
568.8000;0.6593;1.6203;
569.1000;0.6610;1.6277;
569.4000;0.6602;1.6301;
569.7000;0.6585;1.6252;
570.0000;0.6512;1.6081;
570.3000;0.6585;1.6374;
570.6000;0.6496;1.6130;
570.9000;0.6569;1.6326;
571.2000;0.6577;1.6399;
571.5000;0.6577;1.6448;
571.8000;0.6610;1.6497;
572.1000;0.6577;1.6399;
572.4000;0.6561;1.6277;
572.7000;0.6577;1.6301;
573.0000;0.6593;1.6399;
573.3000;0.6585;1.6399;
573.6000;0.6577;1.6301;
573.9000;0.6593;1.6326;
574.2000;0.6585;1.6252;
574.5000;0.6585;1.6252;
574.8000;0.6585;1.6179;
575.1000;0.6577;1.6154;
575.4000;0.6569;1.6130;
575.7000;0.6569;1.6154;
576.0000;0.6577;1.6179;
576.3000;0.6569;1.6154;
576.6000;0.6545;1.6057;
576.9000;0.6585;1.6106;
577.2000;0.6577;1.6106;
577.5000;0.6569;1.6106;
577.8000;0.6577;1.6130;
578.1000;0.6626;1.6301;
578.4000;0.6634;1.6301;
578.7000;0.6634;1.6399;
579.0000;0.6585;1.6301;
579.3000;0.6577;1.6228;
579.6000;0.6585;1.6203;
579.9000;0.6577;1.6106;
580.2000;0.6593;1.6130;
580.5000;0.6504;1.5959;
580.8000;0.6520;1.5910;
581.1000;0.6545;1.5910;
581.4000;0.6602;1.6081;
581.7000;0.6577;1.6057;
582.0000;0.6585;1.6179;
582.3000;0.6593;1.6252;
582.6000;0.6561;1.6228;
582.9000;0.6650;1.6448;
583.2000;0.6545;1.6130;
583.5000;0.6577;1.6228;
583.8000;0.6512;1.6032;
584.1000;0.6569;1.6154;
584.4000;0.6585;1.6106;
584.7000;0.6618;1.6277;
585.0000;0.6610;1.6179;
585.3000;0.6577;1.6130;
585.6000;0.6577;1.6179;
585.9000;0.6585;1.6277;
586.2000;0.6512;1.6179;
586.5000;0.6577;1.6326;
586.8000;0.6561;1.6399;
587.1000;0.6561;1.6326;
587.4000;0.6585;1.6326;
587.7000;0.6610;1.6374;
588.0000;0.6577;1.6374;
588.3000;0.6602;1.6350;
588.6000;0.6585;1.6228;
588.9000;0.6561;1.6228;
589.2000;0.6577;1.6252;
589.5000;0.6577;1.6203;
589.8000;0.6585;1.6106;
590.1000;0.6577;1.6081;
590.4000;0.6585;1.5959;
590.7000;0.6585;1.5812;
591.0000;0.6569;1.5763;
591.3000;0.6569;1.5837;
591.6000;0.6577;1.5861;
591.9000;0.6585;1.6008;
592.2000;0.6585;1.6057;
592.5000;0.6593;1.6008;
592.8000;0.6569;1.6008;
593.1000;0.6577;1.6154;
593.4000;0.6602;1.6228;
593.7000;0.6569;1.6277;
594.0000;0.6577;1.6350;
594.3000;0.6585;1.6374;
594.6000;0.6585;1.6301;
594.9000;0.6585;1.6277;
595.2000;0.6569;1.6350;
595.5000;0.6585;1.6350;
595.8000;0.6561;1.6374;
596.1000;0.6577;1.6423;
596.4000;0.6561;1.6448;
596.7000;0.6585;1.6521;
597.0000;0.6593;1.6448;
597.3000;0.6577;1.6374;
597.6000;0.6577;1.6252;
597.9000;0.6593;1.6448;
598.2000;0.6577;1.6497;
598.5000;0.6602;1.6497;
598.8000;0.6593;1.6497;
599.1000;0.6577;1.6545;
599.4000;0.6577;1.6497;
599.7000;0.6577;1.6497;
600.0000;0.6569;1.6497;
600.3000;0.6536;1.6301;
600.6000;0.6496;1.6130;
600.9000;0.6431;1.5983;
601.2000;0.6309;1.5812;
601.5000;0.6178;1.5617;
601.8000;0.6089;1.5495;
602.1000;0.5983;1.5299;
602.4000;0.5853;1.5030;
602.7000;0.5747;1.4761;
603.0000;0.5682;1.4713;
603.3000;0.5600;1.4615;
603.6000;0.5470;1.4346;
603.9000;0.5421;1.4297;
604.2000;0.5340;1.4248;
604.5000;0.5267;1.4150;
604.8000;0.5226;1.4077;
605.1000;0.5088;1.3808;
605.4000;0.5120;1.3808;
605.7000;0.5055;1.3539;
606.0000;0.5014;1.3466;
606.3000;0.4933;1.3222;
606.6000;0.4949;1.3271;
606.9000;0.4900;1.3124;
607.2000;0.4851;1.3075;
607.5000;0.4811;1.2977;
607.8000;0.4868;1.3222;
608.1000;0.4762;1.3026;
608.4000;0.4648;1.2806;
608.7000;0.4656;1.2880;
609.0000;0.4672;1.3002;
609.3000;0.4583;1.2782;
609.6000;0.4640;1.3026;
609.9000;0.4599;1.3002;
610.2000;0.4575;1.3002;
610.5000;0.4558;1.3002;
610.8000;0.4518;1.2928;
611.1000;0.4526;1.2904;
611.4000;0.4510;1.2782;
611.7000;0.4485;1.2782;
612.0000;0.4477;1.2757;
612.3000;0.4469;1.2733;
612.6000;0.4444;1.2708;
612.9000;0.4428;1.2660;
613.2000;0.4412;1.2660;
613.5000;0.4387;1.2586;
613.8000;0.4387;1.2708;
614.1000;0.4371;1.2660;
614.4000;0.4355;1.2708;
614.7000;0.4330;1.2708;
615.0000;0.4298;1.2611;
615.3000;0.4298;1.2586;
615.6000;0.4282;1.2586;
615.9000;0.4282;1.2635;
616.2000;0.4314;1.2757;
616.5000;0.4257;1.2684;
616.8000;0.4233;1.2733;
617.1000;0.4233;1.2757;
617.4000;0.4249;1.2733;
617.7000;0.4217;1.2660;
618.0000;0.4200;1.2733;
618.3000;0.4192;1.2660;
618.6000;0.4200;1.2660;
618.9000;0.4168;1.2635;
619.2000;0.4160;1.2635;
619.5000;0.4176;1.2684;
619.8000;0.4119;1.2611;
620.1000;0.4127;1.2537;
620.4000;0.4094;1.2440;
620.7000;0.4103;1.2489;
621.0000;0.4119;1.2562;
621.3000;0.4103;1.2586;
621.6000;0.4111;1.2586;
621.9000;0.3997;1.2366;
622.2000;0.4078;1.2611;
622.5000;0.4046;1.2586;
622.8000;0.4054;1.2562;
623.1000;0.4037;1.2537;
623.4000;0.4078;1.2635;
623.7000;0.4046;1.2757;
624.0000;0.4029;1.2660;
624.3000;0.4062;1.2806;
624.6000;0.4037;1.2757;
624.9000;0.4013;1.2660;
625.2000;0.4013;1.2708;
625.5000;0.3940;1.2562;
625.8000;0.4021;1.2757;
626.1000;0.4013;1.2757;
626.4000;0.4070;1.2977;
626.7000;0.4005;1.2831;
627.0000;0.3997;1.2831;
627.3000;0.3997;1.2806;
627.6000;0.4013;1.2806;
627.9000;0.4021;1.2782;
628.2000;0.3997;1.2611;
628.5000;0.3980;1.2611;
628.8000;0.3972;1.2611;
629.1000;0.3972;1.2537;
629.4000;0.3964;1.2562;
629.7000;0.3923;1.2489;
630.0000;0.3940;1.2586;
630.3000;0.3972;1.2684;
630.6000;0.3940;1.2635;
630.9000;0.3948;1.2586;
631.2000;0.3907;1.2537;
631.5000;0.3932;1.2660;
631.8000;0.3948;1.2611;
632.1000;0.3932;1.2684;
632.4000;0.3940;1.2806;
632.7000;0.3932;1.2806;
633.0000;0.3932;1.2806;
633.3000;0.3915;1.2831;
633.6000;0.3923;1.2782;
633.9000;0.3915;1.2831;
634.2000;0.3875;1.2684;
634.5000;0.3907;1.2708;
634.8000;0.3883;1.2708;
635.1000;0.3867;1.2684;
635.4000;0.3891;1.2782;
635.7000;0.3883;1.2757;
636.0000;0.3850;1.2708;
636.3000;0.3891;1.2757;
636.6000;0.3875;1.2684;
636.9000;0.3883;1.2684;
637.2000;0.3842;1.2586;
637.5000;0.3875;1.2660;
637.8000;0.3867;1.2684;
638.1000;0.3858;1.2684;
638.4000;0.3858;1.2635;
638.7000;0.3842;1.2684;
639.0000;0.3883;1.2806;
639.3000;0.3858;1.2831;
639.6000;0.3842;1.2806;
639.9000;0.3842;1.2782;
640.2000;0.3850;1.2708;
640.5000;0.3850;1.2611;
640.8000;0.3801;1.2537;
641.1000;0.3818;1.2562;
641.4000;0.3842;1.2684;
641.7000;0.3826;1.2660;
642.0000;0.3834;1.2635;
642.3000;0.3818;1.2635;
642.6000;0.3883;1.2684;
642.9000;0.3801;1.2489;
643.2000;0.3810;1.2537;
643.5000;0.3793;1.2537;
643.8000;0.3818;1.2562;
644.1000;0.3810;1.2415;
644.4000;0.3818;1.2562;
644.7000;0.3818;1.2562;
645.0000;0.3801;1.2611;
645.3000;0.3801;1.2660;
645.6000;0.3818;1.2708;
645.9000;0.3810;1.2562;
646.2000;0.3834;1.2586;
646.5000;0.3769;1.2489;
646.8000;0.3801;1.2537;
647.1000;0.3736;1.2391;
647.4000;0.3842;1.2660;
647.7000;0.3769;1.2562;
648.0000;0.3801;1.2586;
648.3000;0.3744;1.2513;
648.6000;0.3777;1.2635;
648.9000;0.3777;1.2586;
649.2000;0.3793;1.2660;
649.5000;0.3753;1.2513;
649.8000;0.3736;1.2440;
650.1000;0.3801;1.2586;
650.4000;0.3801;1.2635;
650.7000;0.3769;1.2611;
651.0000;0.3769;1.2537;
651.3000;0.3826;1.2708;
651.6000;0.3728;1.2464;
651.9000;0.3769;1.2586;
652.2000;0.3687;1.2391;
652.5000;0.3728;1.2464;
652.8000;0.3769;1.2611;
653.1000;0.3736;1.2562;
653.4000;0.3744;1.2562;
653.7000;0.3753;1.2562;
654.0000;0.3744;1.2635;
654.3000;0.3728;1.2562;
654.6000;0.3736;1.2586;
654.9000;0.3712;1.2586;
655.2000;0.3728;1.2611;
655.5000;0.3728;1.2635;
655.8000;0.3712;1.2733;
656.1000;0.3712;1.2684;
656.4000;0.3712;1.2611;
656.7000;0.3744;1.2635;
657.0000;0.3736;1.2684;
657.3000;0.3720;1.2537;
657.6000;0.3671;1.2415;
657.9000;0.3728;1.2562;
658.2000;0.3728;1.2562;
658.5000;0.3728;1.2586;
658.8000;0.3712;1.2562;
659.1000;0.3704;1.2513;
659.4000;0.3712;1.2611;
659.7000;0.3704;1.2562;
660.0000;0.3712;1.2562;
660.3000;0.3704;1.2489;
660.6000;0.3704;1.2464;
660.9000;0.3712;1.2562;
661.2000;0.3704;1.2586;
661.5000;0.3687;1.2586;
661.8000;0.3712;1.2611;
662.1000;0.3712;1.2537;
662.4000;0.3696;1.2489;
662.7000;0.3687;1.2464;
663.0000;0.3663;1.2391;
663.3000;0.3679;1.2440;
663.6000;0.3671;1.2366;
663.9000;0.3663;1.2391;
664.2000;0.3696;1.2464;
664.5000;0.3704;1.2464;
664.8000;0.3663;1.2440;
665.1000;0.3630;1.2342;
665.4000;0.3679;1.2562;
665.7000;0.3687;1.2586;
666.0000;0.3704;1.2611;
666.3000;0.3679;1.2635;
666.6000;0.3679;1.2513;
666.9000;0.3671;1.2562;
667.2000;0.3679;1.2537;
667.5000;0.3655;1.2562;
667.8000;0.3655;1.2513;
668.1000;0.3671;1.2415;
668.4000;0.3663;1.2317;
668.7000;0.3679;1.2342;
669.0000;0.3671;1.2342;
669.3000;0.3704;1.2391;
669.6000;0.3679;1.2366;
669.9000;0.3639;1.2244;
670.2000;0.3647;1.2244;
670.5000;0.3639;1.2220;
670.8000;0.3671;1.2293;
671.1000;0.3606;1.2097;
671.4000;0.3655;1.2366;
671.7000;0.3622;1.2317;
672.0000;0.3655;1.2489;
672.3000;0.3663;1.2489;
672.6000;0.3655;1.2391;
672.9000;0.3663;1.2513;
673.2000;0.3663;1.2562;
673.5000;0.3655;1.2513;
673.8000;0.3606;1.2366;
674.1000;0.3647;1.2366;
674.4000;0.3573;1.2220;
674.7000;0.3647;1.2464;
675.0000;0.3639;1.2415;
675.3000;0.3622;1.2342;
675.6000;0.3630;1.2391;
675.9000;0.3647;1.2342;
676.2000;0.3647;1.2342;
676.5000;0.3630;1.2342;
676.8000;0.3647;1.2366;
677.1000;0.3639;1.2317;
677.4000;0.3622;1.2269;
677.7000;0.3639;1.2366;
678.0000;0.3639;1.2440;
678.3000;0.3590;1.2244;
678.6000;0.3622;1.2342;
678.9000;0.3614;1.2220;
679.2000;0.3614;1.2195;
679.5000;0.3614;1.2195;
679.8000;0.3622;1.2220;
680.1000;0.3622;1.2220;
680.4000;0.3598;1.2171;
680.7000;0.3598;1.2244;
681.0000;0.3622;1.2317;
681.3000;0.3557;1.2195;
681.6000;0.3647;1.2513;
681.9000;0.3606;1.2440;
682.2000;0.3606;1.2489;
682.5000;0.3614;1.2366;
682.8000;0.3614;1.2440;
683.1000;0.3647;1.2537;
683.4000;0.3614;1.2513;
683.7000;0.3606;1.2415;
684.0000;0.3614;1.2415;
684.3000;0.3598;1.2391;
684.6000;0.3622;1.2489;
684.9000;0.3606;1.2391;
685.2000;0.3606;1.2489;
685.5000;0.3598;1.2464;
685.8000;0.3614;1.2611;
686.1000;0.3606;1.2537;
686.4000;0.3598;1.2415;
686.7000;0.3606;1.2440;
687.0000;0.3582;1.2366;
687.3000;0.3622;1.2562;
687.6000;0.3598;1.2464;
687.9000;0.3639;1.2586;
688.2000;0.3508;1.2195;
688.5000;0.3549;1.2269;
688.8000;0.3598;1.2415;
689.1000;0.3598;1.2415;
689.4000;0.3590;1.2269;
689.7000;0.3582;1.2220;
690.0000;0.3590;1.2244;
690.3000;0.3598;1.2244;
690.6000;0.3598;1.2244;
690.9000;0.3590;1.2366;
691.2000;0.3565;1.2317;
691.5000;0.3557;1.2366;
691.8000;0.3573;1.2391;
692.1000;0.3598;1.2586;
692.4000;0.3582;1.2489;
692.7000;0.3565;1.2489;
693.0000;0.3590;1.2537;
693.3000;0.3590;1.2464;
693.6000;0.3573;1.2440;
693.9000;0.3582;1.2464;
694.2000;0.3573;1.2440;
694.5000;0.3565;1.2464;
694.8000;0.3573;1.2537;
695.1000;0.3541;1.2513;
695.4000;0.3598;1.2660;
695.7000;0.3476;1.2342;
696.0000;0.3565;1.2635;
696.3000;0.3606;1.2708;
696.6000;0.3565;1.2586;
696.9000;0.3582;1.2537;
697.2000;0.3557;1.2391;
697.5000;0.3590;1.2464;
697.8000;0.3565;1.2440;
698.1000;0.3565;1.2464;
698.4000;0.3557;1.2440;
698.7000;0.3565;1.2464;
699.0000;0.3565;1.2464;
699.3000;0.3557;1.2464;
699.6000;0.3582;1.2635;
699.9000;0.3582;1.2708;
700.2000;0.3565;1.2733;
700.5000;0.3557;1.2660;
700.8000;0.3557;1.2611;
701.1000;0.3582;1.2684;
701.4000;0.3598;1.2708;
701.7000;0.3557;1.2586;
702.0000;0.3557;1.2611;
702.3000;0.3590;1.2660;
702.6000;0.3557;1.2611;
702.9000;0.3549;1.2635;
703.2000;0.3630;1.2806;
703.5000;0.3557;1.2537;
703.8000;0.3606;1.2635;
704.1000;0.3549;1.2440;
704.4000;0.3565;1.2366;
704.7000;0.3500;1.2317;
705.0000;0.3565;1.2562;
705.3000;0.3573;1.2684;
705.6000;0.3549;1.2586;
705.9000;0.3541;1.2586;
706.2000;0.3549;1.2562;
706.5000;0.3541;1.2586;
706.8000;0.3525;1.2440;
707.1000;0.3516;1.2513;
707.4000;0.3582;1.2513;
707.7000;0.3541;1.2391;
708.0000;0.3549;1.2366;
708.3000;0.3516;1.2342;
708.6000;0.3525;1.2366;
708.9000;0.3541;1.2366;
709.2000;0.3525;1.2391;
709.5000;0.3533;1.2489;
709.8000;0.3533;1.2513;
710.1000;0.3557;1.2635;
710.4000;0.3541;1.2513;
710.7000;0.3516;1.2489;
711.0000;0.3525;1.2635;
711.3000;0.3541;1.2684;
711.6000;0.3533;1.2635;
711.9000;0.3557;1.2708;
712.2000;0.3516;1.2757;
712.5000;0.3525;1.2782;
712.8000;0.3500;1.2708;
713.1000;0.3451;1.2391;
713.4000;0.3533;1.2513;
713.7000;0.3533;1.2489;
714.0000;0.3557;1.2513;
714.3000;0.3525;1.2464;
714.6000;0.3516;1.2489;
714.9000;0.3500;1.2391;
715.2000;0.3492;1.2415;
715.5000;0.3525;1.2513;
715.8000;0.3508;1.2440;
716.1000;0.3500;1.2342;
716.4000;0.3541;1.2391;
716.7000;0.3525;1.2415;
717.0000;0.3500;1.2342;
717.3000;0.3516;1.2269;
717.6000;0.3516;1.2342;
717.9000;0.3516;1.2317;
718.2000;0.3533;1.2293;
718.5000;0.3500;1.2269;
718.8000;0.3516;1.2269;
719.1000;0.3354;1.1878;
719.4000;0.3460;1.2146;
719.7000;0.3508;1.2244;
720.0000;0.3500;1.2317;
720.3000;0.3549;1.2489;
720.6000;0.3500;1.2415;
720.9000;0.3541;1.2562;
721.2000;0.3508;1.2489;
721.5000;0.3500;1.2537;
721.8000;0.3492;1.2464;
722.1000;0.3492;1.2513;
722.4000;0.3492;1.2366;
722.7000;0.3500;1.2293;
723.0000;0.3500;1.2366;
723.3000;0.3500;1.2391;
723.6000;0.3460;1.2391;
723.9000;0.3500;1.2391;
724.2000;0.3500;1.2415;
724.5000;0.3492;1.2342;
724.8000;0.3492;1.2366;
725.1000;0.3500;1.2440;
725.4000;0.3508;1.2440;
725.7000;0.3508;1.2440;
726.0000;0.3484;1.2391;
726.3000;0.3443;1.2342;
726.6000;0.3484;1.2440;
726.9000;0.3500;1.2464;
727.2000;0.3508;1.2586;
727.5000;0.3500;1.2635;
727.8000;0.3500;1.2611;
728.1000;0.3508;1.2513;
728.4000;0.3508;1.2440;
728.7000;0.3500;1.2489;
729.0000;0.3500;1.2537;
729.3000;0.3500;1.2513;
729.6000;0.3500;1.2440;
729.9000;0.3508;1.2366;
730.2000;0.3484;1.2366;
730.5000;0.3500;1.2366;
730.8000;0.3525;1.2464;
731.1000;0.3476;1.2513;
731.4000;0.3500;1.2611;
731.7000;0.3508;1.2660;
732.0000;0.3484;1.2611;
732.3000;0.3492;1.2537;
732.6000;0.3476;1.2586;
732.9000;0.3533;1.2708;
733.2000;0.3516;1.2611;
733.5000;0.3516;1.2635;
733.8000;0.3492;1.2611;
734.1000;0.3500;1.2635;
734.4000;0.3484;1.2562;
734.7000;0.3492;1.2586;
735.0000;0.3476;1.2562;
735.3000;0.3468;1.2562;
735.6000;0.3500;1.2660;
735.9000;0.3476;1.2586;
736.2000;0.3468;1.2684;
736.5000;0.3500;1.2708;
736.8000;0.3492;1.2635;
737.1000;0.3427;1.2513;
737.4000;0.3427;1.2537;
737.7000;0.3468;1.2586;
738.0000;0.3492;1.2635;
738.3000;0.3500;1.2635;
738.6000;0.3476;1.2562;
738.9000;0.3500;1.2635;
739.2000;0.3500;1.2635;
739.5000;0.3565;1.2757;
739.8000;0.3492;1.2562;
740.1000;0.3411;1.2269;
740.4000;0.3460;1.2415;
740.7000;0.3460;1.2489;
741.0000;0.3476;1.2635;
741.3000;0.3484;1.2586;
741.6000;0.3386;1.2293;
741.9000;0.3386;1.2317;
742.2000;0.3403;1.2342;
742.5000;0.3476;1.2513;
742.8000;0.3500;1.2562;
743.1000;0.3525;1.2660;
743.4000;0.3460;1.2464;
743.7000;0.3476;1.2489;
744.0000;0.3492;1.2586;
744.3000;0.3549;1.2733;
744.6000;0.3484;1.2562;
744.9000;0.3419;1.2366;
745.2000;0.3394;1.2342;
745.5000;0.3484;1.2464;
745.8000;0.3468;1.2415;
746.1000;0.3468;1.2317;
746.4000;0.3451;1.2269;
746.7000;0.3460;1.2391;
747.0000;0.3468;1.2464;
747.3000;0.3492;1.2513;
747.6000;0.3460;1.2537;
747.9000;0.3476;1.2537;
748.2000;0.3516;1.2611;
748.5000;0.3484;1.2562;
748.8000;0.3500;1.2611;
749.1000;0.3476;1.2635;
749.4000;0.3476;1.2635;
749.7000;0.3468;1.2733;
750.0000;0.3435;1.2684;
750.3000;0.3443;1.2684;
750.6000;0.3460;1.2635;
750.9000;0.3460;1.2464;
751.2000;0.3451;1.2537;
751.5000;0.3468;1.2586;
751.8000;0.3451;1.2537;
752.1000;0.3451;1.2537;
752.4000;0.3443;1.2586;
752.7000;0.3451;1.2537;
753.0000;0.3468;1.2562;
753.3000;0.3468;1.2489;
753.6000;0.3460;1.2513;
753.9000;0.3476;1.2611;
754.2000;0.3468;1.2635;
754.5000;0.3476;1.2660;
754.8000;0.3435;1.2562;
755.1000;0.3443;1.2611;
755.4000;0.3451;1.2586;
755.7000;0.3460;1.2562;
756.0000;0.3468;1.2562;
756.3000;0.3460;1.2513;
756.6000;0.3451;1.2562;
756.9000;0.3468;1.2708;
757.2000;0.3460;1.2562;
757.5000;0.3451;1.2562;
757.8000;0.3468;1.2513;
758.1000;0.3427;1.2366;
758.4000;0.3460;1.2293;
758.7000;0.3451;1.2415;
759.0000;0.3460;1.2415;
759.3000;0.3451;1.2464;
759.6000;0.3468;1.2537;
759.9000;0.3460;1.2562;
760.2000;0.3443;1.2562;
760.5000;0.3476;1.2611;
760.8000;0.3460;1.2464;
761.1000;0.3451;1.2464;
761.4000;0.3427;1.2293;
761.7000;0.3460;1.2391;
762.0000;0.3443;1.2415;
762.3000;0.3394;1.2269;
762.6000;0.3492;1.2513;
762.9000;0.3460;1.2415;
763.2000;0.3460;1.2440;
763.5000;0.3468;1.2415;
763.8000;0.3484;1.2464;
764.1000;0.3451;1.2342;
764.4000;0.3492;1.2440;
764.7000;0.3443;1.2342;
765.0000;0.3435;1.2415;
765.3000;0.3435;1.2440;
765.6000;0.3403;1.2366;
765.9000;0.3435;1.2562;
766.2000;0.3443;1.2513;
766.5000;0.3443;1.2464;
766.8000;0.3435;1.2513;
767.1000;0.3508;1.2684;
767.4000;0.3468;1.2611;
767.7000;0.3435;1.2440;
768.0000;0.3451;1.2537;
768.3000;0.3435;1.2464;
768.6000;0.3460;1.2537;
768.9000;0.3443;1.2537;
769.2000;0.3427;1.2537;
769.5000;0.3427;1.2586;
769.8000;0.3460;1.2611;
770.1000;0.3443;1.2562;
770.4000;0.3443;1.2562;
770.7000;0.3443;1.2586;
771.0000;0.3443;1.2635;
771.3000;0.3427;1.2635;
771.6000;0.3427;1.2660;
771.9000;0.3435;1.2684;
772.2000;0.3435;1.2684;
772.5000;0.3427;1.2635;
772.8000;0.3435;1.2611;
773.1000;0.3443;1.2684;
773.4000;0.3427;1.2733;
773.7000;0.3427;1.2806;
774.0000;0.3419;1.2733;
774.3000;0.3427;1.2831;
774.6000;0.3411;1.2831;
774.9000;0.3451;1.2928;
775.2000;0.3411;1.2660;
775.5000;0.3427;1.2635;
775.8000;0.3484;1.2806;
776.1000;0.3435;1.2708;
776.4000;0.3525;1.2977;
776.7000;0.3403;1.2635;
777.0000;0.3427;1.2660;
777.3000;0.3443;1.2684;
777.6000;0.3419;1.2611;
777.9000;0.3435;1.2586;
778.2000;0.3476;1.2635;
778.5000;0.3427;1.2611;
778.8000;0.3411;1.2562;
779.1000;0.3411;1.2562;
779.4000;0.3427;1.2586;
779.7000;0.3386;1.2440;
780.0000;0.3394;1.2464;
780.3000;0.3427;1.2611;
780.6000;0.3411;1.2562;
780.9000;0.3411;1.2611;
781.2000;0.3403;1.2660;
781.5000;0.3419;1.2708;
781.8000;0.3508;1.2880;
782.1000;0.3435;1.2660;
782.4000;0.3443;1.2684;
782.7000;0.3427;1.2733;
783.0000;0.3427;1.2782;
783.3000;0.3419;1.2757;
783.6000;0.3427;1.2782;
783.9000;0.3427;1.2733;
784.2000;0.3411;1.2733;
784.5000;0.3403;1.2733;
784.8000;0.3403;1.2757;
785.1000;0.3403;1.2831;
785.4000;0.3435;1.2855;
785.7000;0.3411;1.2855;
786.0000;0.3419;1.2880;
786.3000;0.3403;1.2953;
786.6000;0.3411;1.2904;
786.9000;0.3411;1.2831;
787.2000;0.3460;1.2928;
787.5000;0.3419;1.2880;
787.8000;0.3427;1.2904;
788.1000;0.3419;1.2831;
788.4000;0.3419;1.2855;
788.7000;0.3419;1.2855;
789.0000;0.3427;1.2831;
789.3000;0.3419;1.2757;
789.6000;0.3419;1.2782;
789.9000;0.3411;1.2806;
790.2000;0.3427;1.2806;
790.5000;0.3427;1.2782;
790.8000;0.3411;1.2635;
791.1000;0.3411;1.2562;
791.4000;0.3394;1.2537;
791.7000;0.3419;1.2586;
792.0000;0.3394;1.2464;
792.3000;0.3427;1.2513;
792.6000;0.3403;1.2537;
792.9000;0.3419;1.2562;
793.2000;0.3394;1.2562;
793.5000;0.3411;1.2660;
793.8000;0.3419;1.2611;
794.1000;0.3411;1.2611;
794.4000;0.3443;1.2635;
794.7000;0.3411;1.2586;
795.0000;0.3394;1.2562;
795.3000;0.3411;1.2562;
795.6000;0.3411;1.2586;
795.9000;0.3419;1.2611;
796.2000;0.3435;1.2537;
796.5000;0.3419;1.2562;
796.8000;0.3419;1.2611;
797.1000;0.3435;1.2660;
797.4000;0.3435;1.2660;
797.7000;0.3427;1.2611;
798.0000;0.3435;1.2562;
798.3000;0.3427;1.2537;
798.6000;0.3435;1.2586;
798.9000;0.3443;1.2586;
799.2000;0.3427;1.2635;
799.5000;0.3411;1.2586;
799.8000;0.3411;1.2562;
800.1000;0.3427;1.2611;
800.4000;0.3386;1.2537;
800.7000;0.3394;1.2562;
801.0000;0.3403;1.2611;
801.3000;0.3419;1.2708;
801.6000;0.3411;1.2611;
801.9000;0.3403;1.2513;
802.2000;0.3378;1.2537;
802.5000;0.3411;1.2708;
802.8000;0.3427;1.2757;
803.1000;0.3419;1.2757;
803.4000;0.3419;1.2757;
803.7000;0.3411;1.2782;
804.0000;0.3427;1.2880;
804.3000;0.3419;1.2880;
804.6000;0.3419;1.2782;
804.9000;0.3337;1.2684;
805.2000;0.3394;1.2855;
805.5000;0.3394;1.2855;
805.8000;0.3403;1.2757;
806.1000;0.3403;1.2757;
806.4000;0.3419;1.2782;
806.7000;0.3411;1.2684;
807.0000;0.3386;1.2562;
807.3000;0.3403;1.2489;
807.6000;0.3411;1.2464;
807.9000;0.3427;1.2489;
808.2000;0.3411;1.2464;
808.5000;0.3411;1.2440;
808.8000;0.3411;1.2391;
809.1000;0.3394;1.2391;
809.4000;0.3419;1.2440;
809.7000;0.3394;1.2391;
810.0000;0.3394;1.2415;
810.3000;0.3394;1.2391;
810.6000;0.3411;1.2464;
810.9000;0.3403;1.2464;
811.2000;0.3386;1.2513;
811.5000;0.3394;1.2611;
811.8000;0.3394;1.2635;
812.1000;0.3435;1.2708;
812.4000;0.3403;1.2684;
812.7000;0.3386;1.2684;
813.0000;0.3419;1.2757;
813.3000;0.3411;1.2806;
813.6000;0.3362;1.2733;
813.9000;0.3419;1.2880;
814.2000;0.3427;1.2831;
814.5000;0.3419;1.2782;
814.8000;0.3329;1.2562;
815.1000;0.3403;1.2782;
815.4000;0.3411;1.2635;
815.7000;0.3403;1.2586;
816.0000;0.3403;1.2611;
816.3000;0.3386;1.2635;
816.6000;0.3403;1.2708;
816.9000;0.3443;1.2806;
817.2000;0.3394;1.2611;
817.5000;0.3419;1.2684;
817.8000;0.3403;1.2635;
818.1000;0.3411;1.2586;
818.4000;0.3419;1.2611;
818.7000;0.3443;1.2733;
819.0000;0.3386;1.2684;
819.3000;0.3394;1.2733;
819.6000;0.3403;1.2733;
819.9000;0.3394;1.2660;
820.2000;0.3378;1.2611;
820.5000;0.3403;1.2635;
820.8000;0.3394;1.2660;
821.1000;0.3386;1.2684;
821.4000;0.3403;1.2586;
821.7000;0.3386;1.2611;
822.0000;0.3403;1.2611;
822.3000;0.3394;1.2586;
822.6000;0.3378;1.2611;
822.9000;0.3394;1.2684;
823.2000;0.3362;1.2660;
823.5000;0.3386;1.2635;
823.8000;0.3370;1.2513;
824.1000;0.3321;1.2415;
824.4000;0.3386;1.2586;
824.7000;0.3386;1.2611;
825.0000;0.3386;1.2586;
825.3000;0.3378;1.2537;
825.6000;0.3427;1.2708;
825.9000;0.3386;1.2611;
826.2000;0.3329;1.2562;
826.5000;0.3394;1.2708;
826.8000;0.3354;1.2660;
827.1000;0.3394;1.2708;
827.4000;0.3378;1.2635;
827.7000;0.3370;1.2586;
828.0000;0.3362;1.2586;
828.3000;0.3378;1.2757;
828.6000;0.3403;1.2806;
828.9000;0.3386;1.2855;
829.2000;0.3394;1.2880;
829.5000;0.3403;1.2855;
829.8000;0.3403;1.2806;
830.1000;0.3403;1.2733;
830.4000;0.3386;1.2733;
830.7000;0.3394;1.2733;
831.0000;0.3370;1.2684;
831.3000;0.3394;1.2855;
831.6000;0.3370;1.2904;
831.9000;0.3378;1.2904;
832.2000;0.3427;1.2977;
832.5000;0.3386;1.2806;
832.8000;0.3378;1.2757;
833.1000;0.3370;1.2782;
833.4000;0.3403;1.2757;
833.7000;0.3403;1.2782;
834.0000;0.3427;1.2831;
834.3000;0.3403;1.2684;
834.6000;0.3378;1.2562;
834.9000;0.3370;1.2660;
835.2000;0.3370;1.2660;
835.5000;0.3394;1.2684;
835.8000;0.3394;1.2660;
836.1000;0.3378;1.2586;
836.4000;0.3354;1.2489;
836.7000;0.3378;1.2586;
837.0000;0.3394;1.2635;
837.3000;0.3403;1.2733;
837.6000;0.3346;1.2708;
837.9000;0.3394;1.2904;
838.2000;0.3362;1.2880;
838.5000;0.3346;1.2806;
838.8000;0.3378;1.2831;
839.1000;0.3378;1.2733;
839.4000;0.3419;1.2806;
839.7000;0.3378;1.2757;
840.0000;0.3386;1.2904;
840.3000;0.3297;1.2537;
840.6000;0.3394;1.2782;
840.9000;0.3362;1.2757;
841.2000;0.3403;1.2782;
841.5000;0.3378;1.2733;
841.8000;0.3354;1.2733;
842.1000;0.3378;1.2806;
842.4000;0.3386;1.2806;
842.7000;0.3378;1.2757;
843.0000;0.3386;1.2904;
843.3000;0.3346;1.2635;
843.6000;0.3370;1.2660;
843.9000;0.3370;1.2708;
844.2000;0.3378;1.2708;
844.5000;0.3403;1.2708;
844.8000;0.3321;1.2611;
845.1000;0.3378;1.2806;
845.4000;0.3362;1.2733;
845.7000;0.3386;1.2684;
846.0000;0.3378;1.2684;
846.3000;0.3354;1.2562;
846.6000;0.3378;1.2611;
846.9000;0.3394;1.2635;
847.2000;0.3394;1.2586;
847.5000;0.3370;1.2489;
847.8000;0.3370;1.2562;
848.1000;0.3370;1.2660;
848.4000;0.3394;1.2757;
848.7000;0.3386;1.2782;
849.0000;0.3337;1.2660;
849.3000;0.3370;1.2782;
849.6000;0.3354;1.2757;
849.9000;0.3394;1.2904;
850.2000;0.3386;1.2782;
850.5000;0.3386;1.2806;
850.8000;0.3386;1.2831;
851.1000;0.3362;1.2757;
851.4000;0.3354;1.2733;
851.7000;0.3362;1.2782;
852.0000;0.3386;1.2855;
852.3000;0.3403;1.2880;
852.6000;0.3370;1.2806;
852.9000;0.3337;1.2733;
853.2000;0.3378;1.2855;
853.5000;0.3378;1.2831;
853.8000;0.3354;1.2831;
854.1000;0.3378;1.2855;
854.4000;0.3354;1.2904;
854.7000;0.3280;1.2660;
855.0000;0.3403;1.2928;
855.3000;0.3362;1.2880;
855.6000;0.3362;1.2904;
855.9000;0.3329;1.2782;
856.2000;0.3386;1.2928;
856.5000;0.3362;1.2855;
856.8000;0.3443;1.3026;
857.1000;0.3370;1.2904;
857.4000;0.3411;1.2928;
857.7000;0.3403;1.2928;
858.0000;0.3403;1.2928;
858.3000;0.3346;1.2880;
858.6000;0.3354;1.2904;
858.9000;0.3394;1.2928;
859.2000;0.3370;1.2757;
859.5000;0.3354;1.2684;
859.8000;0.3354;1.2733;
860.1000;0.3370;1.2757;
860.4000;0.3362;1.2684;
860.7000;0.3354;1.2635;
861.0000;0.3354;1.2782;
861.3000;0.3394;1.2928;
861.6000;0.3370;1.2757;
861.9000;0.3354;1.2757;
862.2000;0.3354;1.2757;
862.5000;0.3337;1.2733;
862.8000;0.3386;1.2806;
863.1000;0.3378;1.2831;
863.4000;0.3386;1.2831;
863.7000;0.3378;1.2831;
864.0000;0.3394;1.2806;
864.3000;0.3370;1.2855;
864.6000;0.3354;1.2831;
864.9000;0.3378;1.2855;
865.2000;0.3386;1.2928;
865.5000;0.3362;1.2880;
865.8000;0.3370;1.2855;
866.1000;0.3386;1.2855;
866.4000;0.3378;1.2855;
866.7000;0.3370;1.2855;
867.0000;0.3354;1.2806;
867.3000;0.3305;1.2708;
867.6000;0.3419;1.2928;
867.9000;0.3362;1.2855;
868.2000;0.3370;1.2904;
868.5000;0.3362;1.2904;
868.8000;0.3386;1.2977;
869.1000;0.3378;1.3026;
869.4000;0.3354;1.2880;
869.7000;0.3370;1.2855;
870.0000;0.3370;1.2855;
870.3000;0.3370;1.2855;
870.6000;0.3378;1.2904;
870.9000;0.3378;1.2928;
871.2000;0.3362;1.2953;
871.5000;0.3362;1.2855;
871.8000;0.3378;1.2806;
872.1000;0.3370;1.2806;
872.4000;0.3362;1.2708;
872.7000;0.3394;1.2806;
873.0000;0.3362;1.2782;
873.3000;0.3378;1.2880;
873.6000;0.3370;1.2880;
873.9000;0.3411;1.3002;
874.2000;0.3337;1.2855;
874.5000;0.3337;1.2880;
874.8000;0.3435;1.3124;
875.1000;0.3354;1.2880;
875.4000;0.3362;1.2953;
875.7000;0.3370;1.2928;
876.0000;0.3394;1.3002;
876.3000;0.3370;1.2855;
876.6000;0.3321;1.2782;
876.9000;0.3411;1.2977;
877.2000;0.3297;1.2757;
877.5000;0.3370;1.2953;
877.8000;0.3394;1.3026;
878.1000;0.3337;1.2928;
878.4000;0.3370;1.3075;
878.7000;0.3476;1.3368;
879.0000;0.3362;1.3100;
879.3000;0.3354;1.3002;
879.6000;0.3354;1.2953;
879.9000;0.3354;1.2880;
880.2000;0.3321;1.2880;
880.5000;0.3354;1.3002;
880.8000;0.3362;1.2953;
881.1000;0.3370;1.2977;
881.4000;0.3329;1.2904;
881.7000;0.3346;1.2880;
882.0000;0.3354;1.2953;
882.3000;0.3354;1.2953;
882.6000;0.3362;1.2953;
882.9000;0.3378;1.2855;
883.2000;0.3362;1.2806;
883.5000;0.3362;1.2782;
883.8000;0.3354;1.2757;
884.1000;0.3460;1.3222;
884.4000;0.3354;1.2953;
884.7000;0.3354;1.2904;
885.0000;0.3346;1.2904;
885.3000;0.3240;1.2635;
885.6000;0.3346;1.2880;
885.9000;0.3354;1.2953;
886.2000;0.3386;1.2977;
886.5000;0.3354;1.2928;
886.8000;0.3354;1.2880;
887.1000;0.3362;1.2904;
887.4000;0.3411;1.3026;
887.7000;0.3411;1.3026;
888.0000;0.3354;1.2831;
888.3000;0.3378;1.2928;
888.6000;0.3362;1.2928;
888.9000;0.3362;1.3002;
889.2000;0.3346;1.2904;
889.5000;0.3370;1.2953;
889.8000;0.3337;1.2928;
890.1000;0.3346;1.2977;
890.4000;0.3362;1.3002;
890.7000;0.3370;1.3026;
891.0000;0.3337;1.3075;
891.3000;0.3346;1.3100;
891.6000;0.3394;1.3222;
891.9000;0.3346;1.3051;
892.2000;0.3411;1.3222;
892.5000;0.3378;1.3075;
892.8000;0.3362;1.3100;
893.1000;0.3370;1.3051;
893.4000;0.3329;1.2928;
893.7000;0.3346;1.2928;
894.0000;0.3394;1.3051;
894.3000;0.3354;1.3002;
894.6000;0.3370;1.2977;
894.9000;0.3337;1.2977;
895.2000;0.3329;1.2977;
895.5000;0.3370;1.3002;
895.8000;0.3386;1.3075;
896.1000;0.3362;1.3026;
896.4000;0.3378;1.3026;
896.7000;0.3370;1.2904;
897.0000;0.3370;1.2928;
897.3000;0.3354;1.2904;
897.6000;0.3337;1.2855;
897.9000;0.3346;1.2880;
898.2000;0.3313;1.2806;
898.5000;0.3313;1.2806;
898.8000;0.3354;1.3002;
899.1000;0.3362;1.3002;
899.4000;0.3403;1.2977;
899.7000;0.3354;1.2733;
900.0000;0.3427;1.2831;
900.3000;0.3346;1.2586;
900.6000;0.3362;1.2611;
900.9000;0.3346;1.2660;
901.2000;0.3321;1.2440;
901.5000;0.3346;1.2513;
901.8000;0.3362;1.2586;
902.1000;0.3354;1.2562;
902.4000;0.3337;1.2562;
902.7000;0.3354;1.2586;
903.0000;0.3354;1.2586;
903.3000;0.3394;1.2782;
903.6000;0.3354;1.2733;
903.9000;0.3329;1.2733;
904.2000;0.3289;1.2660;
904.5000;0.3321;1.2757;
904.8000;0.3346;1.2880;
905.1000;0.3354;1.2904;
905.4000;0.3346;1.2806;
905.7000;0.3346;1.2855;
906.0000;0.3362;1.2880;
906.3000;0.3346;1.2928;
906.6000;0.3346;1.2855;
906.9000;0.3362;1.3026;
907.2000;0.3362;1.3051;
907.5000;0.3354;1.3002;
907.8000;0.3346;1.2904;
908.1000;0.3362;1.2904;
908.4000;0.3362;1.2904;
908.7000;0.3354;1.2953;
909.0000;0.3346;1.2953;
909.3000;0.3337;1.2953;
909.6000;0.3337;1.3002;
909.9000;0.3346;1.3026;
910.2000;0.3337;1.3100;
910.5000;0.3337;1.3051;
910.8000;0.3337;1.3051;
911.1000;0.3370;1.3075;
911.4000;0.3313;1.2928;
911.7000;0.3313;1.2782;
912.0000;0.3354;1.2904;
912.3000;0.3386;1.3002;
912.6000;0.3354;1.2880;
912.9000;0.3362;1.2928;
913.2000;0.3362;1.2928;
913.5000;0.3354;1.2953;
913.8000;0.3354;1.2953;
914.1000;0.3354;1.2880;
914.4000;0.3362;1.2928;
914.7000;0.3329;1.2806;
915.0000;0.3346;1.2806;
915.3000;0.3386;1.2782;
915.6000;0.3305;1.2513;
915.9000;0.3346;1.2635;
916.2000;0.3329;1.2562;
916.5000;0.3337;1.2733;
916.8000;0.3354;1.2708;
917.1000;0.3346;1.2635;
917.4000;0.3346;1.2733;
917.7000;0.3354;1.2733;
918.0000;0.3346;1.2635;
918.3000;0.3337;1.2660;
918.6000;0.3354;1.2757;
918.9000;0.3337;1.2684;
919.2000;0.3346;1.2660;
919.5000;0.3346;1.2708;
919.8000;0.3370;1.2733;
920.1000;0.3354;1.2757;
920.4000;0.3337;1.2757;
920.7000;0.3419;1.2953;
921.0000;0.3346;1.2684;
921.3000;0.3346;1.2684;
921.6000;0.3362;1.2708;
921.9000;0.3354;1.2684;
922.2000;0.3337;1.2660;
922.5000;0.3354;1.2684;
922.8000;0.3329;1.2537;
923.1000;0.3346;1.2537;
923.4000;0.3346;1.2489;
923.7000;0.3354;1.2562;
924.0000;0.3329;1.2537;
924.3000;0.3354;1.2586;
924.6000;0.3346;1.2660;
924.9000;0.3337;1.2684;
925.2000;0.3321;1.2586;
925.5000;0.3354;1.2611;
925.8000;0.3346;1.2684;
926.1000;0.3337;1.2611;
926.4000;0.3337;1.2611;
926.7000;0.3329;1.2635;
927.0000;0.3337;1.2635;
927.3000;0.3329;1.2733;
927.6000;0.3354;1.2831;
927.9000;0.3370;1.2806;
928.2000;0.3329;1.2806;
928.5000;0.3354;1.2855;
928.8000;0.3346;1.2806;
929.1000;0.3354;1.2806;
929.4000;0.3329;1.2782;
929.7000;0.3346;1.2806;
930.0000;0.3346;1.2855;
930.3000;0.3272;1.2611;
930.6000;0.3362;1.2708;
930.9000;0.3346;1.2757;
931.2000;0.3321;1.2684;
931.5000;0.3305;1.2684;
931.8000;0.3321;1.2757;
932.1000;0.3321;1.2806;
932.4000;0.3329;1.2855;
932.7000;0.3362;1.2904;
933.0000;0.3346;1.2831;
933.3000;0.3435;1.3002;
933.6000;0.3354;1.2806;
933.9000;0.3354;1.2757;
934.2000;0.3346;1.2782;
934.5000;0.3354;1.2928;
934.8000;0.3346;1.2880;
935.1000;0.3305;1.2708;
935.4000;0.3362;1.2806;
935.7000;0.3329;1.2684;
936.0000;0.3346;1.2782;
936.3000;0.3346;1.2782;
936.6000;0.3354;1.2855;
936.9000;0.3337;1.2831;
937.2000;0.3329;1.2928;
937.5000;0.3362;1.3026;
937.8000;0.3346;1.3075;
938.1000;0.3337;1.3051;
938.4000;0.3346;1.2977;
938.7000;0.3354;1.3002;
939.0000;0.3346;1.2904;
939.3000;0.3337;1.2855;
939.6000;0.3346;1.2782;
939.9000;0.3337;1.2806;
940.2000;0.3337;1.2782;
940.5000;0.3346;1.2782;
940.8000;0.3346;1.2855;
941.1000;0.3337;1.2928;
941.4000;0.3337;1.2977;
941.7000;0.3370;1.2977;
942.0000;0.3337;1.2880;
942.3000;0.3329;1.2831;
942.6000;0.3354;1.2880;
942.9000;0.3346;1.2928;
943.2000;0.3427;1.3148;
943.5000;0.3362;1.2953;
943.8000;0.3354;1.2831;
944.1000;0.3354;1.2831;
944.4000;0.3370;1.2880;
944.7000;0.3346;1.2928;
945.0000;0.3411;1.3075;
945.3000;0.3354;1.2977;
945.6000;0.3370;1.3002;
945.9000;0.3329;1.2977;
946.2000;0.3346;1.3051;
946.5000;0.3337;1.3051;
946.8000;0.3289;1.2953;
947.1000;0.3329;1.3026;
947.4000;0.3329;1.2977;
947.7000;0.3346;1.3002;
948.0000;0.3329;1.2953;
948.3000;0.3346;1.2831;
948.6000;0.3362;1.2880;
948.9000;0.3256;1.2733;
949.2000;0.3329;1.2855;
949.5000;0.3337;1.2782;
949.8000;0.3329;1.2831;
950.1000;0.3354;1.2782;
950.4000;0.3337;1.2782;
950.7000;0.3329;1.2782;
951.0000;0.3337;1.2757;
951.3000;0.3370;1.2855;
951.6000;0.3362;1.2782;
951.9000;0.3329;1.2733;
952.2000;0.3321;1.2684;
952.5000;0.3346;1.2831;
952.8000;0.3346;1.2880;
953.1000;0.3337;1.2880;
953.4000;0.3378;1.3026;
953.7000;0.3329;1.2782;
954.0000;0.3354;1.2855;
954.3000;0.3337;1.2806;
954.6000;0.3337;1.2880;
954.9000;0.3354;1.2928;
955.2000;0.3329;1.2904;
955.5000;0.3378;1.3026;
955.8000;0.3362;1.2953;
956.1000;0.3321;1.2831;
956.4000;0.3346;1.2880;
956.7000;0.3346;1.2855;
957.0000;0.3329;1.2831;
957.3000;0.3313;1.2806;
957.6000;0.3354;1.2806;
957.9000;0.3346;1.2806;
958.2000;0.3346;1.2831;
958.5000;0.3346;1.2660;
958.8000;0.3337;1.2684;
959.1000;0.3346;1.2757;
959.4000;0.3305;1.2537;
959.7000;0.3346;1.2855;
960.0000;0.3329;1.2855;
960.3000;0.3329;1.2806;
960.6000;0.3329;1.2782;
960.9000;0.3354;1.2855;
961.2000;0.3321;1.2733;
961.5000;0.3337;1.2757;
961.8000;0.3354;1.2733;
962.1000;0.3321;1.2611;
962.4000;0.3337;1.2757;
962.7000;0.3337;1.2806;
963.0000;0.3329;1.2782;
963.3000;0.3354;1.2855;
963.6000;0.3337;1.2831;
963.9000;0.3346;1.2831;
964.2000;0.3329;1.2782;
964.5000;0.3337;1.2684;
964.8000;0.3329;1.2684;
965.1000;0.3313;1.2635;
965.4000;0.3346;1.2611;
965.7000;0.3362;1.2684;
966.0000;0.3329;1.2708;
966.3000;0.3329;1.2708;
966.6000;0.3321;1.2684;
966.9000;0.3337;1.2782;
967.2000;0.3354;1.2831;
967.5000;0.3346;1.2806;
967.8000;0.3346;1.2782;
968.1000;0.3354;1.2831;
968.4000;0.3337;1.2733;
968.7000;0.3329;1.2708;
969.0000;0.3370;1.2904;
969.3000;0.3337;1.2880;
969.6000;0.3337;1.2953;
969.9000;0.3346;1.2880;
970.2000;0.3305;1.2806;
970.5000;0.3346;1.2806;
970.8000;0.3337;1.2880;
971.1000;0.3305;1.2806;
971.4000;0.3354;1.2928;
971.7000;0.3354;1.2904;
972.0000;0.3362;1.2904;
972.3000;0.3329;1.2880;
972.6000;0.3337;1.2880;
972.9000;0.3280;1.2708;
973.2000;0.3337;1.2953;
973.5000;0.3354;1.3002;
973.8000;0.3337;1.2904;
974.1000;0.3346;1.2953;
974.4000;0.3354;1.2831;
974.7000;0.3329;1.2831;
975.0000;0.3337;1.2880;
975.3000;0.3329;1.2880;
975.6000;0.3354;1.2904;
975.9000;0.3354;1.2953;
976.2000;0.3329;1.2904;
976.5000;0.3329;1.2806;
976.8000;0.3346;1.2855;
977.1000;0.3329;1.2757;
977.4000;0.3321;1.2855;
977.7000;0.3329;1.2855;
978.0000;0.3337;1.2928;
978.3000;0.3305;1.2782;
978.6000;0.3321;1.2806;
978.9000;0.3321;1.2684;
979.2000;0.3362;1.2782;
979.5000;0.3289;1.2562;
979.8000;0.3346;1.2684;
980.1000;0.3321;1.2708;
980.4000;0.3337;1.2831;
980.7000;0.3354;1.2880;
981.0000;0.3337;1.2904;
981.3000;0.3321;1.2806;
981.6000;0.3329;1.2757;
981.9000;0.3297;1.2684;
982.2000;0.3346;1.2831;
982.5000;0.3321;1.2806;
982.8000;0.3313;1.2757;
983.1000;0.3256;1.2562;
983.4000;0.3346;1.2831;
983.7000;0.3362;1.2904;
984.0000;0.3321;1.2831;
984.3000;0.3346;1.2831;
984.6000;0.3329;1.2855;
984.9000;0.3297;1.2660;
985.2000;0.3346;1.2855;
985.5000;0.3321;1.2782;
985.8000;0.3354;1.2782;
986.1000;0.3313;1.2855;
986.4000;0.3329;1.2880;
986.7000;0.3346;1.2880;
987.0000;0.3321;1.2806;
987.3000;0.3313;1.2708;
987.6000;0.3337;1.2660;
987.9000;0.3362;1.2733;
988.2000;0.3337;1.2562;
988.5000;0.3354;1.2708;
988.8000;0.3329;1.2635;
989.1000;0.3289;1.2537;
989.4000;0.3329;1.2635;
989.7000;0.3337;1.2611;
990.0000;0.3337;1.2586;
990.3000;0.3329;1.2586;
990.6000;0.3329;1.2708;
990.9000;0.3337;1.2757;
991.2000;0.3329;1.2708;
991.5000;0.3329;1.2586;
991.8000;0.3297;1.2562;
992.1000;0.3362;1.2635;
992.4000;0.3313;1.2562;
992.7000;0.3329;1.2611;
993.0000;0.3321;1.2586;
993.3000;0.3337;1.2684;
993.6000;0.3329;1.2757;
993.9000;0.3329;1.2782;
994.2000;0.3313;1.2806;
994.5000;0.3346;1.2855;
994.8000;0.3346;1.2831;
995.1000;0.3346;1.2806;
995.4000;0.3337;1.2757;
995.7000;0.3321;1.2660;
996.0000;0.3346;1.2708;
996.3000;0.3329;1.2733;
996.6000;0.3313;1.2684;
996.9000;0.3346;1.2733;
997.2000;0.3337;1.2684;
997.5000;0.3329;1.2611;
997.8000;0.3370;1.2684;
998.1000;0.3337;1.2660;
998.4000;0.3329;1.2684;
998.7000;0.3337;1.2708;
999.0000;0.3346;1.2757;
999.3000;0.3289;1.2660;
999.6000;0.3329;1.2757;
999.9000;0.3329;1.2782;
1000.2000;0.3321;1.2684;
1000.5000;0.3321;1.2757;
1000.8000;0.3321;1.2782;
1001.1000;0.3305;1.2806;
1001.4000;0.3386;1.2928;
1001.7000;0.3329;1.2977;
1002.0000;0.3321;1.2977;
1002.3000;0.3337;1.3026;
1002.6000;0.3329;1.3051;
1002.9000;0.3337;1.3100;
1003.2000;0.3362;1.3051;
1003.5000;0.3329;1.2977;
1003.8000;0.3346;1.2880;
1004.1000;0.3346;1.2806;
1004.4000;0.3313;1.2684;
1004.7000;0.3346;1.2806;
1005.0000;0.3321;1.2806;
1005.3000;0.3346;1.2806;
1005.6000;0.3346;1.2684;
1005.9000;0.3346;1.2708;
1006.2000;0.3321;1.2611;
1006.5000;0.3329;1.2708;
1006.8000;0.3329;1.2855;
1007.1000;0.3305;1.2806;
1007.4000;0.3313;1.2635;
1007.7000;0.3313;1.2684;
1008.0000;0.3305;1.2660;
1008.3000;0.3280;1.2611;
1008.6000;0.3346;1.2806;
1008.9000;0.3337;1.2806;
1009.2000;0.3362;1.2880;
1009.5000;0.3329;1.2806;
1009.8000;0.3337;1.2831;
1010.1000;0.3346;1.2904;
1010.4000;0.3321;1.2757;
1010.7000;0.3321;1.2831;
1011.0000;0.3321;1.2806;
1011.3000;0.3337;1.2806;
1011.6000;0.3321;1.2782;
1011.9000;0.3329;1.2831;
1012.2000;0.3313;1.2684;
1012.5000;0.3337;1.2782;
1012.8000;0.3337;1.2708;
1013.1000;0.3305;1.2708;
1013.4000;0.3337;1.2733;
1013.7000;0.3329;1.2757;
1014.0000;0.3337;1.2782;
1014.3000;0.3337;1.2928;
1014.6000;0.3297;1.2831;
1014.9000;0.3272;1.2806;
1015.2000;0.3346;1.2953;
1015.5000;0.3337;1.2953;
1015.8000;0.3256;1.2757;
1016.1000;0.3329;1.2855;
1016.4000;0.3305;1.2782;
1016.7000;0.3329;1.2684;
1017.0000;0.3305;1.2635;
1017.3000;0.3346;1.2733;
1017.6000;0.3305;1.2586;
1017.9000;0.3337;1.2880;
1018.2000;0.3337;1.2904;
1018.5000;0.3354;1.2977;
1018.8000;0.3337;1.2831;
1019.1000;0.3337;1.2782;
1019.4000;0.3346;1.2782;
1019.7000;0.3329;1.2757;
1020.0000;0.3346;1.2782;
1020.3000;0.3313;1.2757;
1020.6000;0.3337;1.2855;
1020.9000;0.3321;1.2880;
1021.2000;0.3321;1.2928;
1021.5000;0.3337;1.2953;
1021.8000;0.3337;1.2928;
1022.1000;0.3305;1.2880;
1022.4000;0.3321;1.2977;
1022.7000;0.3346;1.3051;
1023.0000;0.3329;1.2953;
1023.3000;0.3337;1.2831;
1023.6000;0.3305;1.2855;
1023.9000;0.3337;1.2904;
1024.2000;0.3337;1.3002;
1024.5000;0.3337;1.2977;
1024.8000;0.3329;1.2855;
1025.1000;0.3329;1.2855;
1025.4000;0.3329;1.2806;
1025.7000;0.3321;1.2757;
1026.0000;0.3297;1.2684;
1026.3000;0.3337;1.2757;
1026.6000;0.3337;1.2733;
1026.9000;0.3370;1.2782;
1027.2000;0.3305;1.2660;
1027.5000;0.3337;1.2757;
1027.8000;0.3329;1.2733;
1028.1000;0.3329;1.2684;
1028.4000;0.3313;1.2660;
1028.7000;0.3329;1.2733;
1029.0000;0.3346;1.2782;
1029.3000;0.3337;1.2757;
1029.6000;0.3337;1.2806;
1029.9000;0.3329;1.2831;
1030.2000;0.3346;1.2880;
1030.5000;0.3346;1.2880;
1030.8000;0.3321;1.2806;
1031.1000;0.3329;1.2684;
1031.4000;0.3297;1.2684;
1031.7000;0.3321;1.2733;
1032.0000;0.3321;1.2733;
1032.3000;0.3321;1.2733;
1032.6000;0.3337;1.2782;
1032.9000;0.3329;1.2831;
1033.2000;0.3329;1.2855;
1033.5000;0.3297;1.2757;
1033.8000;0.3346;1.2782;
1034.1000;0.3337;1.2782;
1034.4000;0.3329;1.2733;
1034.7000;0.3321;1.2733;
1035.0000;0.3321;1.2757;
1035.3000;0.3337;1.2831;
1035.6000;0.3346;1.2831;
1035.9000;0.3321;1.2757;
1036.2000;0.3337;1.2733;
1036.5000;0.3321;1.2660;
1036.8000;0.3313;1.2757;
1037.1000;0.3248;1.2537;
1037.4000;0.3305;1.2733;
1037.7000;0.3321;1.2708;
1038.0000;0.3329;1.2733;
1038.3000;0.3329;1.2806;
1038.6000;0.3329;1.2855;
1038.9000;0.3346;1.2831;
1039.2000;0.3313;1.2757;
1039.5000;0.3321;1.2733;
1039.8000;0.3329;1.2733;
1040.1000;0.3337;1.2660;
1040.4000;0.3337;1.2611;
1040.7000;0.3321;1.2537;
1041.0000;0.3354;1.2684;
1041.3000;0.3337;1.2537;
1041.6000;0.3313;1.2537;
1041.9000;0.3329;1.2537;
1042.2000;0.3337;1.2562;
1042.5000;0.3321;1.2586;
1042.8000;0.3346;1.2684;
1043.1000;0.3313;1.2562;
1043.4000;0.3313;1.2513;
1043.7000;0.3378;1.2635;
1044.0000;0.3329;1.2586;
1044.3000;0.3346;1.2635;
1044.6000;0.3321;1.2684;
1044.9000;0.3321;1.2806;
1045.2000;0.3321;1.2757;
1045.5000;0.3346;1.2806;
1045.8000;0.3305;1.2831;
1046.1000;0.3248;1.2660;
1046.4000;0.3370;1.3002;
1046.7000;0.3337;1.2880;
1047.0000;0.3321;1.2855;
1047.3000;0.3297;1.2806;
1047.6000;0.3346;1.2928;
1047.9000;0.3362;1.2904;
1048.2000;0.3321;1.2782;
1048.5000;0.3313;1.2757;
1048.8000;0.3321;1.2831;
1049.1000;0.3329;1.2806;
1049.4000;0.3346;1.2831;
1049.7000;0.3329;1.2806;
1050.0000;0.3305;1.2660;
1050.3000;0.3321;1.2635;
1050.6000;0.3337;1.2635;
1050.9000;0.3305;1.2537;
1051.2000;0.3321;1.2635;
1051.5000;0.3346;1.2733;
1051.8000;0.3313;1.2611;
1052.1000;0.3321;1.2611;
1052.4000;0.3321;1.2708;
1052.7000;0.3280;1.2586;
1053.0000;0.3329;1.2757;
1053.3000;0.3337;1.2855;
1053.6000;0.3329;1.2831;
1053.9000;0.3329;1.2806;
1054.2000;0.3329;1.2831;
1054.5000;0.3329;1.2880;
1054.8000;0.3329;1.2928;
1055.1000;0.3362;1.3002;
1055.4000;0.3329;1.2928;
1055.7000;0.3313;1.2953;
1056.0000;0.3289;1.2880;
1056.3000;0.3313;1.2880;
1056.6000;0.3297;1.2757;
1056.9000;0.3305;1.2660;
1057.2000;0.3321;1.2635;
1057.5000;0.3305;1.2635;
1057.8000;0.3305;1.2611;
1058.1000;0.3329;1.2684;
1058.4000;0.3337;1.2684;
1058.7000;0.3337;1.2660;
1059.0000;0.3329;1.2757;
1059.3000;0.3321;1.2757;
1059.6000;0.3337;1.2806;
1059.9000;0.3386;1.2977;
1060.2000;0.3346;1.2928;
1060.5000;0.3321;1.2855;
1060.8000;0.3354;1.3002;
1061.1000;0.3329;1.2953;
1061.4000;0.3337;1.3002;
1061.7000;0.3337;1.2904;
1062.0000;0.3370;1.2953;
1062.3000;0.3337;1.2904;
1062.6000;0.3321;1.2904;
1062.9000;0.3297;1.2953;
1063.2000;0.3427;1.3344;
1063.5000;0.3321;1.3075;
1063.8000;0.3280;1.2928;
1064.1000;0.3329;1.3026;
1064.4000;0.3337;1.3075;
1064.7000;0.3337;1.3100;
1065.0000;0.3378;1.3295;
1065.3000;0.3321;1.3148;
1065.6000;0.3305;1.3026;
1065.9000;0.3313;1.2953;
1066.2000;0.3329;1.2904;
1066.5000;0.3329;1.3026;
1066.8000;0.3329;1.3026;
1067.1000;0.3329;1.2953;
1067.4000;0.3321;1.2880;
1067.7000;0.3329;1.2904;
1068.0000;0.3337;1.2904;
1068.3000;0.3346;1.2855;
1068.6000;0.3321;1.2831;
1068.9000;0.3321;1.2831;
1069.2000;0.3313;1.2782;
1069.5000;0.3354;1.2782;
1069.8000;0.3321;1.2733;
1070.1000;0.3305;1.2586;
1070.4000;0.3321;1.2635;
1070.7000;0.3305;1.2660;
1071.0000;0.3337;1.2708;
1071.3000;0.3346;1.2757;
1071.6000;0.3313;1.2733;
1071.9000;0.3337;1.2757;
1072.2000;0.3329;1.2708;
1072.5000;0.3305;1.2562;
1072.8000;0.3321;1.2562;
1073.1000;0.3297;1.2586;
1073.4000;0.3264;1.2586;
1073.7000;0.3329;1.2782;
1074.0000;0.3329;1.2806;
1074.3000;0.3337;1.2880;
1074.6000;0.3329;1.2904;
1074.9000;0.3337;1.2953;
1075.2000;0.3305;1.2855;
1075.5000;0.3321;1.2855;
1075.8000;0.3321;1.2928;
1076.1000;0.3280;1.2953;
1076.4000;0.3321;1.3002;
1076.7000;0.3289;1.2928;
1077.0000;0.3321;1.2904;
1077.3000;0.3346;1.2831;
1077.6000;0.3313;1.2904;
1077.9000;0.3329;1.2928;
1078.2000;0.3321;1.2880;
1078.5000;0.3313;1.2904;
1078.8000;0.3354;1.2953;
1079.1000;0.3305;1.2880;
1079.4000;0.3256;1.2855;
1079.7000;0.3329;1.2977;
1080.0000;0.3337;1.3124;
1080.3000;0.3313;1.3124;
1080.6000;0.3313;1.3173;
1080.9000;0.3232;1.2855;
1081.2000;0.3321;1.3002;
1081.5000;0.3321;1.2904;
1081.8000;0.3337;1.3002;
1082.1000;0.3305;1.2953;
1082.4000;0.3337;1.3051;
1082.7000;0.3321;1.3075;
1083.0000;0.3305;1.2928;
1083.3000;0.3337;1.3051;
1083.6000;0.3329;1.3124;
1083.9000;0.3321;1.3002;
1084.2000;0.3346;1.3075;
1084.5000;0.3321;1.3051;
1084.8000;0.3329;1.3075;
1085.1000;0.3337;1.3051;
1085.4000;0.3329;1.2977;
1085.7000;0.3329;1.3002;
1086.0000;0.3215;1.2733;
1086.3000;0.3329;1.3051;
1086.6000;0.3313;1.3026;
1086.9000;0.3313;1.2977;
1087.2000;0.3305;1.2855;
1087.5000;0.3337;1.2977;
1087.8000;0.3313;1.2953;
1088.1000;0.3321;1.2880;
1088.4000;0.3297;1.2855;
1088.7000;0.3337;1.2953;
1089.0000;0.3321;1.2880;
1089.3000;0.3321;1.2831;
1089.6000;0.3329;1.2880;
1089.9000;0.3337;1.2880;
1090.2000;0.3329;1.3026;
1090.5000;0.3329;1.3026;
1090.8000;0.3321;1.3002;
1091.1000;0.3313;1.3002;
1091.4000;0.3329;1.2977;
1091.7000;0.3305;1.2880;
1092.0000;0.3321;1.2904;
1092.3000;0.3346;1.2880;
1092.6000;0.3289;1.2684;
1092.9000;0.3313;1.2733;
1093.2000;0.3305;1.2782;
1093.5000;0.3321;1.2831;
1093.8000;0.3362;1.2977;
1094.1000;0.3321;1.2928;
1094.4000;0.3321;1.3026;
1094.7000;0.3329;1.2928;
1095.0000;0.3297;1.2806;
1095.3000;0.3321;1.2904;
1095.6000;0.3321;1.2782;
1095.9000;0.3313;1.2708;
1096.2000;0.3329;1.2708;
1096.5000;0.3313;1.2586;
1096.8000;0.3297;1.2611;
1097.1000;0.3321;1.2757;
1097.4000;0.3378;1.2953;
1097.7000;0.3305;1.2831;
1098.0000;0.3321;1.2757;
1098.3000;0.3321;1.2733;
1098.6000;0.3329;1.2806;
1098.9000;0.3272;1.2757;
1099.2000;0.3321;1.2880;
1099.5000;0.3297;1.2831;
1099.8000;0.3321;1.2904;
1100.1000;0.3248;1.2855;
1100.4000;0.3289;1.2928;
1100.7000;0.3386;1.3124;
1101.0000;0.3297;1.2904;
1101.3000;0.3313;1.2953;
1101.6000;0.3321;1.2953;
1101.9000;0.3297;1.2880;
1102.2000;0.3313;1.2880;
1102.5000;0.3329;1.2904;
1102.8000;0.3386;1.3075;
1103.1000;0.3289;1.2880;
1103.4000;0.3321;1.2904;
1103.7000;0.3354;1.2977;
1104.0000;0.3354;1.2977;
1104.3000;0.3337;1.2977;
1104.6000;0.3321;1.2928;
1104.9000;0.3354;1.2977;
1105.2000;0.3313;1.2953;
1105.5000;0.3337;1.3002;
1105.8000;0.3264;1.2855;
1106.1000;0.3289;1.2953;
1106.4000;0.3313;1.3100;
1106.7000;0.3321;1.3026;
1107.0000;0.3370;1.3124;
1107.3000;0.3305;1.2904;
1107.6000;0.3329;1.2953;
1107.9000;0.3313;1.2977;
1108.2000;0.3329;1.3026;
1108.5000;0.3329;1.3026;
1108.8000;0.3337;1.3026;
1109.1000;0.3370;1.3100;
1109.4000;0.3337;1.3100;
1109.7000;0.3305;1.3026;
1110.0000;0.3297;1.2977;
1110.3000;0.3329;1.3026;
1110.6000;0.3346;1.3124;
1110.9000;0.3321;1.3002;
1111.2000;0.3370;1.3173;
1111.5000;0.3321;1.3075;
1111.8000;0.3297;1.3051;
1112.1000;0.3305;1.3075;
1112.4000;0.3305;1.3002;
1112.7000;0.3321;1.3148;
1113.0000;0.3329;1.3173;
1113.3000;0.3329;1.3246;
1113.6000;0.3321;1.3173;
1113.9000;0.3346;1.3222;
1114.2000;0.3321;1.3124;
1114.5000;0.3313;1.3051;
1114.8000;0.3321;1.3002;
1115.1000;0.3321;1.3026;
1115.4000;0.3321;1.2977;
1115.7000;0.3329;1.2928;
1116.0000;0.3305;1.2904;
1116.3000;0.3313;1.2928;
1116.6000;0.3321;1.2928;
1116.9000;0.3346;1.3100;
1117.2000;0.3354;1.3124;
1117.5000;0.3313;1.3026;
1117.8000;0.3362;1.3002;
1118.1000;0.3297;1.2880;
1118.4000;0.3313;1.2977;
1118.7000;0.3346;1.3148;
1119.0000;0.3321;1.3075;
1119.3000;0.3329;1.3075;
1119.6000;0.3305;1.3075;
1119.9000;0.3329;1.3124;
1120.2000;0.3321;1.3075;
1120.5000;0.3321;1.3075;
1120.8000;0.3337;1.3026;
1121.1000;0.3313;1.2904;
1121.4000;0.3321;1.2880;
1121.7000;0.3289;1.2757;
1122.0000;0.3346;1.2904;
1122.3000;0.3354;1.2904;
1122.6000;0.3321;1.2855;
1122.9000;0.3386;1.3002;
1123.2000;0.3329;1.2831;
1123.5000;0.3337;1.2831;
1123.8000;0.3313;1.2757;
1124.1000;0.3329;1.2757;
1124.4000;0.3337;1.2831;
1124.7000;0.3321;1.2733;
1125.0000;0.3313;1.2708;
1125.3000;0.3321;1.2684;
1125.6000;0.3305;1.2611;
1125.9000;0.3346;1.2684;
1126.2000;0.3305;1.2611;
1126.5000;0.3313;1.2635;
1126.8000;0.3337;1.2611;
1127.1000;0.3313;1.2586;
1127.4000;0.3354;1.2782;
1127.7000;0.3321;1.2757;
1128.0000;0.3321;1.2904;
1128.3000;0.3313;1.2880;
1128.6000;0.3321;1.2904;
1128.9000;0.3280;1.2831;
1129.2000;0.3329;1.3026;
1129.5000;0.3313;1.2855;
1129.8000;0.3264;1.2757;
1130.1000;0.3280;1.2733;
1130.4000;0.3305;1.2733;
1130.7000;0.3321;1.2757;
1131.0000;0.3297;1.2684;
1131.3000;0.3289;1.2635;
1131.6000;0.3305;1.2611;
1131.9000;0.3337;1.2708;
1132.2000;0.3305;1.2660;
1132.5000;0.3305;1.2684;
1132.8000;0.3329;1.2684;
1133.1000;0.3313;1.2757;
1133.4000;0.3321;1.2733;
1133.7000;0.3329;1.2782;
1134.0000;0.3321;1.2782;
1134.3000;0.3305;1.2733;
1134.6000;0.3329;1.2831;
1134.9000;0.3305;1.2660;
1135.2000;0.3305;1.2660;
1135.5000;0.3313;1.2733;
1135.8000;0.3321;1.2782;
1136.1000;0.3337;1.2904;
1136.4000;0.3321;1.2782;
1136.7000;0.3321;1.2806;
1137.0000;0.3321;1.2880;
1137.3000;0.3321;1.2855;
1137.6000;0.3313;1.2806;
1137.9000;0.3305;1.2757;
1138.2000;0.3394;1.3075;
1138.5000;0.3329;1.2953;
1138.8000;0.3337;1.3026;
1139.1000;0.3313;1.3002;
1139.4000;0.3337;1.3051;
1139.7000;0.3354;1.3075;
1140.0000;0.3337;1.3002;
1140.3000;0.3321;1.3026;
1140.6000;0.3329;1.2953;
1140.9000;0.3321;1.2831;
1141.2000;0.3305;1.2831;
1141.5000;0.3313;1.2904;
1141.8000;0.3321;1.2928;
1142.1000;0.3321;1.2928;
1142.4000;0.3321;1.2855;
1142.7000;0.3313;1.2806;
1143.0000;0.3321;1.2855;
1143.3000;0.3305;1.2880;
1143.6000;0.3329;1.3002;
1143.9000;0.3370;1.3124;
1144.2000;0.3321;1.3026;
1144.5000;0.3329;1.3051;
1144.8000;0.3321;1.3002;
1145.1000;0.3313;1.3051;
1145.4000;0.3313;1.2953;
1145.7000;0.3305;1.2904;
1146.0000;0.3313;1.2904;
1146.3000;0.3313;1.2855;
1146.6000;0.3321;1.2806;
1146.9000;0.3280;1.2708;
1147.2000;0.3354;1.2855;
1147.5000;0.3305;1.2831;
1147.8000;0.3305;1.2904;
1148.1000;0.3313;1.2880;
1148.4000;0.3321;1.2977;
1148.7000;0.3313;1.2880;
1149.0000;0.3313;1.2928;
1149.3000;0.3272;1.2928;
1149.6000;0.3346;1.3173;
1149.9000;0.3321;1.3222;
1150.2000;0.3321;1.3197;
1150.5000;0.3313;1.3124;
1150.8000;0.3329;1.3051;
1151.1000;0.3337;1.3026;
1151.4000;0.3337;1.3026;
1151.7000;0.3321;1.3002;
1152.0000;0.3313;1.3051;
1152.3000;0.3321;1.3124;
1152.6000;0.3362;1.3197;
1152.9000;0.3329;1.3026;
1153.2000;0.3321;1.2977;
1153.5000;0.3305;1.2928;
1153.8000;0.3305;1.2831;
1154.1000;0.3346;1.2928;
1154.4000;0.3305;1.2855;
1154.7000;0.3354;1.3002;
1155.0000;0.3337;1.2977;
1155.3000;0.3305;1.3002;
1155.6000;0.3321;1.3148;
1155.9000;0.3321;1.3173;
1156.2000;0.3305;1.3100;
1156.5000;0.3313;1.3148;
1156.8000;0.3264;1.2977;
1157.1000;0.3256;1.3002;
1157.4000;0.3329;1.3148;
1157.7000;0.3305;1.3051;
1158.0000;0.3313;1.3051;
1158.3000;0.3280;1.3075;
1158.6000;0.3329;1.3124;
1158.9000;0.3321;1.3148;
1159.2000;0.3321;1.3100;
1159.5000;0.3321;1.3124;
1159.8000;0.3313;1.3124;
1160.1000;0.3297;1.3002;
1160.4000;0.3321;1.3026;
1160.7000;0.3329;1.3051;
1161.0000;0.3329;1.3051;
1161.3000;0.3329;1.3026;
1161.6000;0.3305;1.2953;
1161.9000;0.3313;1.3026;
1162.2000;0.3337;1.3051;
1162.5000;0.3321;1.3075;
1162.8000;0.3321;1.3075;
1163.1000;0.3280;1.2977;
1163.4000;0.3321;1.3124;
1163.7000;0.3321;1.3075;
1164.0000;0.3329;1.3051;
1164.3000;0.3329;1.3026;
1164.6000;0.3321;1.3026;
1164.9000;0.3305;1.3002;
1165.2000;0.3313;1.3002;
1165.5000;0.3305;1.2953;
1165.8000;0.3313;1.3002;
1166.1000;0.3329;1.3002;
1166.4000;0.3305;1.2953;
1166.7000;0.3289;1.2880;
1167.0000;0.3313;1.2880;
1167.3000;0.3321;1.2928;
1167.6000;0.3329;1.2928;
1167.9000;0.3289;1.2855;
1168.2000;0.3305;1.2831;
1168.5000;0.3313;1.2757;
1168.8000;0.3313;1.2757;
1169.1000;0.3305;1.2660;
1169.4000;0.3305;1.2806;
1169.7000;0.3329;1.2977;
1170.0000;0.3313;1.3002;
1170.3000;0.3321;1.2928;
1170.6000;0.3297;1.2855;
1170.9000;0.3305;1.2855;
1171.2000;0.3289;1.2757;
1171.5000;0.3313;1.2880;
1171.8000;0.3321;1.2880;
1172.1000;0.3394;1.3148;
1172.4000;0.3313;1.2904;
1172.7000;0.3305;1.2855;
1173.0000;0.3321;1.2855;
1173.3000;0.3321;1.2928;
1173.6000;0.3321;1.2904;
1173.9000;0.3329;1.2831;
1174.2000;0.3321;1.2806;
1174.5000;0.3305;1.2733;
1174.8000;0.3329;1.2880;
1175.1000;0.3329;1.2953;
1175.4000;0.3329;1.3002;
1175.7000;0.3321;1.3026;
1176.0000;0.3305;1.3002;
1176.3000;0.3305;1.2977;
1176.6000;0.3321;1.3002;
1176.9000;0.3313;1.3075;
1177.2000;0.3297;1.3075;
1177.5000;0.3337;1.3100;
1177.8000;0.3313;1.3075;
1178.1000;0.3272;1.2953;
1178.4000;0.3313;1.3075;
1178.7000;0.3272;1.2928;
1179.0000;0.3313;1.3075;
1179.3000;0.3305;1.3026;
1179.6000;0.3313;1.3051;
1179.9000;0.3280;1.2977;
1180.2000;0.3329;1.3026;
1180.5000;0.3329;1.3124;
1180.8000;0.3346;1.3148;
1181.1000;0.3280;1.3002;
1181.4000;0.3329;1.3148;
1181.7000;0.3386;1.3344;
1182.0000;0.3346;1.3051;
1182.3000;0.3354;1.3100;
1182.6000;0.3305;1.3051;
1182.9000;0.3313;1.3075;
1183.2000;0.3289;1.3124;
1183.5000;0.3264;1.3026;
1183.8000;0.3370;1.3271;
1184.1000;0.3370;1.3246;
1184.4000;0.3329;1.3148;
1184.7000;0.3329;1.3173;
1185.0000;0.3337;1.3124;
1185.3000;0.3354;1.3173;
1185.6000;0.3297;1.2977;
1185.9000;0.3329;1.3124;
1186.2000;0.3337;1.3100;
1186.5000;0.3305;1.2928;
1186.8000;0.3313;1.2880;
1187.1000;0.3321;1.2928;
1187.4000;0.3313;1.2904;
1187.7000;0.3305;1.2831;
1188.0000;0.3313;1.2757;
1188.3000;0.3313;1.2733;
1188.6000;0.3329;1.2782;
1188.9000;0.3337;1.2855;
1189.2000;0.3337;1.2977;
1189.5000;0.3313;1.2904;
1189.8000;0.3321;1.3002;
1190.1000;0.3321;1.3051;
1190.4000;0.3329;1.3026;
1190.7000;0.3313;1.2904;
1191.0000;0.3337;1.2977;
1191.3000;0.3329;1.2904;
1191.6000;0.3313;1.2953;
1191.9000;0.3297;1.2977;
1192.2000;0.3313;1.2904;
1192.5000;0.3321;1.2831;
1192.8000;0.3305;1.2733;
1193.1000;0.3329;1.2733;
1193.4000;0.3313;1.2757;
1193.7000;0.3313;1.2733;
1194.0000;0.3329;1.2684;
1194.3000;0.3329;1.2660;
1194.6000;0.3329;1.2684;
1194.9000;0.3321;1.2757;
1195.2000;0.3321;1.2733;
1195.5000;0.3329;1.2806;
1195.8000;0.3329;1.2855;
1196.1000;0.3329;1.2831;
1196.4000;0.3329;1.2806;
1196.7000;0.3289;1.2635;
1197.0000;0.3321;1.2733;
1197.3000;0.3329;1.2806;
1197.6000;0.3337;1.2855;
1197.9000;0.3354;1.2953;
1198.2000;0.3346;1.2928;
1198.5000;0.3305;1.2880;
1198.8000;0.3305;1.2806;
1199.1000;0.3346;1.2928;
1199.4000;0.3329;1.2855;
1199.7000;0.3337;1.2855;
1200.0000;0.3280;1.2733;
1200.3000;0.3313;1.2928;
1200.6000;0.3321;1.2953;
1200.9000;0.3313;1.2904;
1201.2000;0.3313;1.2855;
1201.5000;0.3313;1.2880;
1201.8000;0.3321;1.2953;
1202.1000;0.3272;1.2757;
1202.4000;0.3297;1.2904;
1202.7000;0.3313;1.2977;
1203.0000;0.3248;1.2855;
1203.3000;0.3321;1.2953;
1203.6000;0.3305;1.2806;
1203.9000;0.3297;1.2782;
1204.2000;0.3329;1.2855;
1204.5000;0.3297;1.2806;
1204.8000;0.3313;1.2977;
1205.1000;0.3289;1.2904;
1205.4000;0.3305;1.3051;
1205.7000;0.3305;1.3075;
1206.0000;0.3313;1.3124;
1206.3000;0.3346;1.3148;
1206.6000;0.3329;1.3100;
1206.9000;0.3305;1.3026;
1207.2000;0.3313;1.3002;
1207.5000;0.3297;1.2977;
1207.8000;0.3321;1.3075;
1208.1000;0.3386;1.3344;
1208.4000;0.3321;1.3124;
1208.7000;0.3337;1.3100;
1209.0000;0.3329;1.3051;
1209.3000;0.3329;1.3075;
1209.6000;0.3313;1.3002;
1209.9000;0.3313;1.2977;
1210.2000;0.3329;1.3002;
1210.5000;0.3313;1.2953;
1210.8000;0.3329;1.3051;
1211.1000;0.3337;1.3051;
1211.4000;0.3321;1.2953;
1211.7000;0.3313;1.3026;
1212.0000;0.3321;1.2928;
1212.3000;0.3337;1.2928;
1212.6000;0.3313;1.2831;
1212.9000;0.3313;1.2904;
1213.2000;0.3305;1.2977;
1213.5000;0.3337;1.3051;
1213.8000;0.3337;1.3124;
1214.1000;0.3354;1.3148;
1214.4000;0.3346;1.3173;
1214.7000;0.3321;1.3075;
1215.0000;0.3346;1.3222;
1215.3000;0.3313;1.3173;
1215.6000;0.3321;1.3173;
1215.9000;0.3329;1.3173;
1216.2000;0.3313;1.3075;
1216.5000;0.3321;1.3124;
1216.8000;0.3305;1.3026;
1217.1000;0.3346;1.3173;
1217.4000;0.3346;1.3148;
1217.7000;0.3305;1.3148;
1218.0000;0.3321;1.3148;
1218.3000;0.3289;1.3002;
1218.6000;0.3321;1.3026;
1218.9000;0.3313;1.2928;
1219.2000;0.3419;1.3246;
1219.5000;0.3313;1.3051;
1219.8000;0.3329;1.3148;
1220.1000;0.3305;1.3100;
1220.4000;0.3321;1.3197;
1220.7000;0.3297;1.3026;
1221.0000;0.3329;1.3075;
1221.3000;0.3297;1.3124;
1221.6000;0.3313;1.3222;
1221.9000;0.3313;1.3246;
1222.2000;0.3329;1.3319;
1222.5000;0.3313;1.3222;
1222.8000;0.3313;1.3197;
1223.1000;0.3313;1.3148;
1223.4000;0.3313;1.3124;
1223.7000;0.3305;1.3075;
1224.0000;0.3305;1.3051;
1224.3000;0.3313;1.3100;
1224.6000;0.3337;1.3100;
1224.9000;0.3297;1.3075;
1225.2000;0.3305;1.3075;
1225.5000;0.3305;1.3051;
1225.8000;0.3305;1.3026;
1226.1000;0.3313;1.3026;
1226.4000;0.3305;1.2977;
1226.7000;0.3329;1.3026;
1227.0000;0.3297;1.2904;
1227.3000;0.3329;1.2928;
1227.6000;0.3297;1.2904;
1227.9000;0.3305;1.2855;
1228.2000;0.3321;1.2904;
1228.5000;0.3321;1.2953;
1228.8000;0.3321;1.2855;
1229.1000;0.3305;1.2855;
1229.4000;0.3313;1.2904;
1229.7000;0.3337;1.3002;
1230.0000;0.3329;1.3051;
1230.3000;0.3313;1.3075;
1230.6000;0.3313;1.3100;
1230.9000;0.3329;1.3124;
1231.2000;0.3280;1.2977;
1231.5000;0.3321;1.3197;
1231.8000;0.3297;1.3246;
1232.1000;0.3264;1.3075;
1232.4000;0.3321;1.3124;
1232.7000;0.3346;1.3124;
1233.0000;0.3313;1.3026;
1233.3000;0.3337;1.3051;
1233.6000;0.3329;1.3026;
1233.9000;0.3297;1.2880;
1234.2000;0.3280;1.2684;
1234.5000;0.3321;1.2708;
1234.8000;0.3313;1.2611;
1235.1000;0.3321;1.2513;
1235.4000;0.3329;1.2562;
1235.7000;0.3289;1.2562;
1236.0000;0.3346;1.2757;
1236.3000;0.3329;1.2782;
1236.6000;0.3321;1.2806;
1236.9000;0.3297;1.2708;
1237.2000;0.3297;1.2660;
1237.5000;0.3305;1.2708;
1237.8000;0.3329;1.2757;
1238.1000;0.3313;1.2660;
1238.4000;0.3272;1.2586;
1238.7000;0.3411;1.2953;
1239.0000;0.3313;1.2708;
1239.3000;0.3354;1.2880;
1239.6000;0.3329;1.2782;
1239.9000;0.3362;1.2904;
1240.2000;0.3329;1.2855;
1240.5000;0.3313;1.2806;
1240.8000;0.3313;1.2782;
1241.1000;0.3305;1.2733;
1241.4000;0.3313;1.2806;
1241.7000;0.3289;1.2782;
1242.0000;0.3362;1.2977;
1242.3000;0.3305;1.2782;
1242.6000;0.3313;1.2782;
1242.9000;0.3313;1.2782;
1243.2000;0.3337;1.2806;
1243.5000;0.3305;1.2708;
1243.8000;0.3305;1.2684;
1244.1000;0.3305;1.2708;
1244.4000;0.3321;1.2733;
1244.7000;0.3256;1.2635;
1245.0000;0.3305;1.2806;
1245.3000;0.3297;1.2855;
1245.6000;0.3313;1.2806;
1245.9000;0.3289;1.2782;
1246.2000;0.3305;1.2855;
1246.5000;0.3329;1.2904;
1246.8000;0.3313;1.2904;
1247.1000;0.3321;1.2953;
1247.4000;0.3321;1.2904;
1247.7000;0.3329;1.2806;
1248.0000;0.3305;1.2733;
1248.3000;0.3297;1.2684;
1248.6000;0.3305;1.2635;
1248.9000;0.3329;1.2660;
1249.2000;0.3313;1.2611;
1249.5000;0.3337;1.2660;
1249.8000;0.3337;1.2684;
1250.1000;0.3280;1.2611;
1250.4000;0.3321;1.2757;
1250.7000;0.3313;1.2757;
1251.0000;0.3321;1.2880;
1251.3000;0.3329;1.2880;
1251.6000;0.3305;1.2831;
1251.9000;0.3305;1.2806;
1252.2000;0.3329;1.2928;
1252.5000;0.3337;1.2904;
1252.8000;0.3321;1.2953;
1253.1000;0.3313;1.2880;
1253.4000;0.3313;1.2806;
1253.7000;0.3313;1.2684;
1254.0000;0.3313;1.2660;
1254.3000;0.3313;1.2635;
1254.6000;0.3280;1.2562;
1254.9000;0.3321;1.2635;
1255.2000;0.3329;1.2586;
1255.5000;0.3321;1.2611;
1255.8000;0.3313;1.2611;
1256.1000;0.3313;1.2660;
1256.4000;0.3329;1.2635;
1256.7000;0.3321;1.2757;
1257.0000;0.3313;1.2806;
1257.3000;0.3313;1.2782;
1257.6000;0.3305;1.2708;
1257.9000;0.3346;1.2782;
1258.2000;0.3313;1.2757;
1258.5000;0.3321;1.2708;
1258.8000;0.3289;1.2635;
1259.1000;0.3321;1.2757;
1259.4000;0.3329;1.2782;
1259.7000;0.3280;1.2586;
1260.0000;0.3329;1.2708;
1260.3000;0.3346;1.2708;
1260.6000;0.3297;1.2684;
1260.9000;0.3321;1.2782;
1261.2000;0.3305;1.2782;
1261.5000;0.3321;1.2831;
1261.8000;0.3321;1.2880;
1262.1000;0.3297;1.2855;
1262.4000;0.3313;1.2953;
1262.7000;0.3321;1.2953;
1263.0000;0.3321;1.2904;
1263.3000;0.3305;1.2855;
1263.6000;0.3321;1.2928;
1263.9000;0.3321;1.2855;
1264.2000;0.3329;1.2880;
1264.5000;0.3313;1.2806;
1264.8000;0.3313;1.2757;
1265.1000;0.3297;1.2757;
1265.4000;0.3313;1.2782;
1265.7000;0.3321;1.2806;
1266.0000;0.3280;1.2684;
1266.3000;0.3321;1.2782;
1266.6000;0.3313;1.2757;
1266.9000;0.3305;1.2660;
1267.2000;0.3313;1.2684;
1267.5000;0.3321;1.2757;
1267.8000;0.3313;1.2806;
1268.1000;0.3329;1.2855;
1268.4000;0.3297;1.2806;
1268.7000;0.3321;1.2831;
1269.0000;0.3337;1.2806;
1269.3000;0.3337;1.2855;
1269.6000;0.3321;1.2757;
1269.9000;0.3329;1.2831;
1270.2000;0.3378;1.2977;
1270.5000;0.3346;1.2928;
1270.8000;0.3329;1.2831;
1271.1000;0.3378;1.3002;
1271.4000;0.3321;1.2855;
1271.7000;0.3305;1.2855;
1272.0000;0.3321;1.2977;
1272.3000;0.3305;1.2904;
1272.6000;0.3321;1.3002;
1272.9000;0.3329;1.2953;
1273.2000;0.3321;1.2880;
1273.5000;0.3305;1.2855;
1273.8000;0.3329;1.2928;
1274.1000;0.3313;1.2831;
1274.4000;0.3321;1.2831;
1274.7000;0.3305;1.2782;
1275.0000;0.3321;1.2855;
1275.3000;0.3313;1.2831;
1275.6000;0.3313;1.2880;
1275.9000;0.3313;1.2880;
1276.2000;0.3337;1.2880;
1276.5000;0.3313;1.2855;
1276.8000;0.3305;1.2880;
1277.1000;0.3321;1.2806;
1277.4000;0.3305;1.2806;
1277.7000;0.3305;1.2708;
1278.0000;0.3305;1.2806;
1278.3000;0.3313;1.2880;
1278.6000;0.3329;1.2977;
1278.9000;0.3305;1.2953;
1279.2000;0.3337;1.2855;
1279.5000;0.3337;1.2904;
1279.8000;0.3264;1.2660;
1280.1000;0.3329;1.2880;
1280.4000;0.3321;1.2782;
1280.7000;0.3272;1.2635;
1281.0000;0.3362;1.2855;
1281.3000;0.3321;1.2708;
1281.6000;0.3329;1.2733;
1281.9000;0.3321;1.2733;
1282.2000;0.3321;1.2733;
1282.5000;0.3297;1.2733;
1282.8000;0.3321;1.2757;
1283.1000;0.3321;1.2831;
1283.4000;0.3321;1.2782;
1283.7000;0.3321;1.2757;
1284.0000;0.3321;1.2806;
1284.3000;0.3346;1.2831;
1284.6000;0.3337;1.2831;
1284.9000;0.3313;1.2880;
1285.2000;0.3337;1.2953;
1285.5000;0.3256;1.2782;
1285.8000;0.3329;1.2977;
1286.1000;0.3313;1.3026;
1286.4000;0.3313;1.3002;
1286.7000;0.3346;1.3100;
1287.0000;0.3329;1.3051;
1287.3000;0.3321;1.3100;
1287.6000;0.3297;1.3026;
1287.9000;0.3305;1.3051;
1288.2000;0.3232;1.2708;
1288.5000;0.3321;1.2855;
1288.8000;0.3321;1.2806;
1289.1000;0.3321;1.2831;
1289.4000;0.3329;1.2855;
1289.7000;0.3305;1.2782;
1290.0000;0.3297;1.2806;
1290.3000;0.3313;1.2880;
1290.6000;0.3321;1.2977;
1290.9000;0.3313;1.2904;
1291.2000;0.3297;1.2782;
1291.5000;0.3313;1.2831;
1291.8000;0.3297;1.2757;
1292.1000;0.3313;1.2757;
1292.4000;0.3321;1.2806;
1292.7000;0.3305;1.2757;
1293.0000;0.3354;1.2733;
1293.3000;0.3305;1.2684;
1293.6000;0.3321;1.2733;
1293.9000;0.3313;1.2733;
1294.2000;0.3370;1.2904;
1294.5000;0.3313;1.2757;
1294.8000;0.3313;1.2831;
1295.1000;0.3346;1.2953;
1295.4000;0.3321;1.2977;
1295.7000;0.3378;1.3100;
1296.0000;0.3321;1.2880;
1296.3000;0.3297;1.2928;
1296.6000;0.3346;1.3051;
1296.9000;0.3313;1.2977;
1297.2000;0.3321;1.2904;
1297.5000;0.3305;1.2953;
1297.8000;0.3313;1.2928;
1298.1000;0.3321;1.2806;
1298.4000;0.3313;1.2757;
1298.7000;0.3313;1.2782;
1299.0000;0.3305;1.2684;
1299.3000;0.3305;1.2635;
1299.6000;0.3329;1.2782;
1299.9000;0.3321;1.2806;
1300.2000;0.3313;1.2831;
1300.5000;0.3321;1.2757;
1300.8000;0.3337;1.2831;
1301.1000;0.3313;1.2806;
1301.4000;0.3313;1.2928;
1301.7000;0.3313;1.2928;
1302.0000;0.3329;1.2904;
1302.3000;0.3354;1.2855;
1302.6000;0.3321;1.2733;
1302.9000;0.3305;1.2733;
1303.2000;0.3321;1.2757;
1303.5000;0.3297;1.2635;
1303.8000;0.3305;1.2684;
1304.1000;0.3329;1.2733;
1304.4000;0.3321;1.2660;
1304.7000;0.3297;1.2635;
1305.0000;0.3427;1.2977;
1305.3000;0.3329;1.2806;
1305.6000;0.3313;1.2806;
1305.9000;0.3313;1.2806;
1306.2000;0.3321;1.2880;
1306.5000;0.3313;1.2904;
1306.8000;0.3305;1.2880;
1307.1000;0.3313;1.2953;
1307.4000;0.3346;1.3002;
1307.7000;0.3313;1.2880;
1308.0000;0.3305;1.2928;
1308.3000;0.3378;1.3197;
1308.6000;0.3313;1.3026;
1308.9000;0.3321;1.3100;
1309.2000;0.3305;1.3100;
1309.5000;0.3321;1.3197;
1309.8000;0.3321;1.3197;
1310.1000;0.3313;1.3173;
1310.4000;0.3289;1.3173;
1310.7000;0.3264;1.3075;
1311.0000;0.3305;1.3197;
1311.3000;0.3313;1.3271;
1311.6000;0.3321;1.3271;
1311.9000;0.3346;1.3344;
1312.2000;0.3272;1.3173;
1312.5000;0.3313;1.3319;
1312.8000;0.3280;1.3100;
1313.1000;0.3297;1.3124;
1313.4000;0.3321;1.3197;
1313.7000;0.3329;1.3173;
1314.0000;0.3321;1.3197;
1314.3000;0.3313;1.3197;
1314.6000;0.3313;1.3246;
1314.9000;0.3329;1.3271;
1315.2000;0.3313;1.3197;
1315.5000;0.3305;1.3271;
1315.8000;0.3321;1.3173;
1316.1000;0.3289;1.3173;
1316.4000;0.3297;1.3295;
1316.7000;0.3297;1.3197;
1317.0000;0.3313;1.3246;
1317.3000;0.3337;1.3222;
1317.6000;0.3321;1.3197;
1317.9000;0.3321;1.3148;
1318.2000;0.3289;1.3026;
1318.5000;0.3329;1.3148;
1318.8000;0.3329;1.3173;
1319.1000;0.3313;1.3173;
1319.4000;0.3321;1.3148;
1319.7000;0.3337;1.3222;
1320.0000;0.3329;1.3148;
1320.3000;0.3280;1.3075;
1320.6000;0.3305;1.3100;
1320.9000;0.3329;1.3222;
1321.2000;0.3321;1.3197;
1321.5000;0.3329;1.3100;
1321.8000;0.3321;1.3026;
1322.1000;0.3305;1.2977;
1322.4000;0.3305;1.3051;
1322.7000;0.3329;1.3075;
1323.0000;0.3305;1.3026;
1323.3000;0.3321;1.3026;
1323.6000;0.3313;1.3002;
1323.9000;0.3329;1.3075;
1324.2000;0.3321;1.3002;
1324.5000;0.3321;1.3026;
1324.8000;0.3313;1.3051;
1325.1000;0.3321;1.3148;
1325.4000;0.3297;1.3075;
1325.7000;0.3313;1.3051;
1326.0000;0.3321;1.3002;
1326.3000;0.3305;1.2953;
1326.6000;0.3248;1.2733;
1326.9000;0.3240;1.2660;
1327.2000;0.3289;1.2806;
1327.5000;0.3313;1.2855;
1327.8000;0.3329;1.2806;
1328.1000;0.3297;1.2733;
1328.4000;0.3313;1.2806;
1328.7000;0.3403;1.3051;
1329.0000;0.3256;1.2708;
1329.3000;0.3305;1.2880;
1329.6000;0.3289;1.2757;
1329.9000;0.3329;1.3002;
1330.2000;0.3329;1.3051;
1330.5000;0.3297;1.3002;
1330.8000;0.3337;1.3026;
1331.1000;0.3329;1.2977;
1331.4000;0.3313;1.2928;
1331.7000;0.3370;1.3124;
1332.0000;0.3289;1.2928;
1332.3000;0.3297;1.2953;
1332.6000;0.3313;1.2928;
1332.9000;0.3329;1.2977;
1333.2000;0.3305;1.2953;
1333.5000;0.3305;1.3026;
1333.8000;0.3297;1.3100;
1334.1000;0.3321;1.3026;
1334.4000;0.3313;1.2977;
1334.7000;0.3370;1.3148;
1335.0000;0.3313;1.2953;
1335.3000;0.3337;1.3002;
1335.6000;0.3305;1.3002;
1335.9000;0.3232;1.2831;
1336.2000;0.3313;1.3002;
1336.5000;0.3305;1.2953;
1336.8000;0.3362;1.3075;
1337.1000;0.3329;1.2953;
1337.4000;0.3337;1.2880;
1337.7000;0.3321;1.2806;
1338.0000;0.3297;1.2806;
1338.3000;0.3305;1.2831;
1338.6000;0.3313;1.2806;
1338.9000;0.3321;1.2928;
1339.2000;0.3313;1.2855;
1339.5000;0.3321;1.2782;
1339.8000;0.3305;1.2757;
1340.1000;0.3321;1.2757;
1340.4000;0.3321;1.2855;
1340.7000;0.3305;1.2733;
1341.0000;0.3297;1.2782;
1341.3000;0.3313;1.2806;
1341.6000;0.3289;1.2757;
1341.9000;0.3321;1.2928;
1342.2000;0.3321;1.2880;
1342.5000;0.3321;1.2880;
1342.8000;0.3321;1.2880;
1343.1000;0.3329;1.2880;
1343.4000;0.3297;1.2855;
1343.7000;0.3329;1.2977;
1344.0000;0.3313;1.2904;
1344.3000;0.3329;1.3002;
1344.6000;0.3329;1.2953;
1344.9000;0.3329;1.2880;
1345.2000;0.3321;1.2953;
1345.5000;0.3321;1.2953;
1345.8000;0.3346;1.3026;
1346.1000;0.3321;1.2928;
1346.4000;0.3321;1.2928;
1346.7000;0.3313;1.2953;
1347.0000;0.3313;1.2928;
1347.3000;0.3329;1.2977;
1347.6000;0.3329;1.2953;
1347.9000;0.3297;1.2977;
1348.2000;0.3272;1.2928;
1348.5000;0.3289;1.2953;
1348.8000;0.3313;1.3075;
1349.1000;0.3313;1.3051;
1349.4000;0.3305;1.3075;
1349.7000;0.3321;1.3148;
1350.0000;0.3305;1.3026;
1350.3000;0.3329;1.2977;
1350.6000;0.3337;1.2977;
1350.9000;0.3329;1.2831;
1351.2000;0.3240;1.2562;
1351.5000;0.3313;1.2684;
1351.8000;0.3370;1.2855;
1352.1000;0.3305;1.2708;
1352.4000;0.3297;1.2635;
1352.7000;0.3297;1.2782;
1353.0000;0.3280;1.2855;
1353.3000;0.3280;1.2928;
1353.6000;0.3280;1.2831;
1353.9000;0.3337;1.3002;
1354.2000;0.3346;1.3026;
1354.5000;0.3305;1.2904;
1354.8000;0.3313;1.2880;
1355.1000;0.3313;1.2904;
1355.4000;0.3321;1.2880;
1355.7000;0.3321;1.2782;
1356.0000;0.3305;1.2782;
1356.3000;0.3346;1.2953;
1356.6000;0.3321;1.2831;
1356.9000;0.3289;1.2708;
1357.2000;0.3346;1.2928;
1357.5000;0.3313;1.2928;
1357.8000;0.3329;1.3051;
1358.1000;0.3321;1.3026;
1358.4000;0.3313;1.2928;
1358.7000;0.3305;1.2928;
1359.0000;0.3337;1.3026;
1359.3000;0.3329;1.2977;
1359.6000;0.3313;1.2953;
1359.9000;0.3313;1.2782;
1360.2000;0.3337;1.2757;
1360.5000;0.3289;1.2635;
1360.8000;0.3321;1.2684;
1361.1000;0.3321;1.2782;
1361.4000;0.3305;1.2831;
1361.7000;0.3321;1.2806;
1362.0000;0.3313;1.2708;
1362.3000;0.3329;1.2733;
1362.6000;0.3313;1.2684;
1362.9000;0.3321;1.2708;
1363.2000;0.3313;1.2733;
1363.5000;0.3297;1.2733;
1363.8000;0.3321;1.2806;
1364.1000;0.3313;1.2757;
1364.4000;0.3329;1.2733;
1364.7000;0.3297;1.2611;
1365.0000;0.3321;1.2611;
1365.3000;0.3321;1.2635;
1365.6000;0.3321;1.2684;
1365.9000;0.3313;1.2611;
1366.2000;0.3289;1.2611;
1366.5000;0.3321;1.2806;
1366.8000;0.3329;1.2904;
1367.1000;0.3321;1.2977;
1367.4000;0.3329;1.2977;
1367.7000;0.3321;1.3002;
1368.0000;0.3297;1.2904;
1368.3000;0.3313;1.2928;
1368.6000;0.3305;1.2782;
1368.9000;0.3321;1.2757;
1369.2000;0.3321;1.2757;
1369.5000;0.3337;1.2782;
1369.8000;0.3337;1.2782;
1370.1000;0.3305;1.2806;
1370.4000;0.3321;1.2855;
1370.7000;0.3337;1.2880;
1371.0000;0.3313;1.2855;
1371.3000;0.3313;1.2757;
1371.6000;0.3305;1.2708;
1371.9000;0.3346;1.2880;
1372.2000;0.3354;1.2855;
1372.5000;0.3329;1.2831;
1372.8000;0.3321;1.2831;
1373.1000;0.3329;1.2831;
1373.4000;0.3329;1.2880;
1373.7000;0.3313;1.2855;
1374.0000;0.3313;1.2806;
1374.3000;0.3337;1.2855;
1374.6000;0.3362;1.2977;
1374.9000;0.3321;1.2928;
1375.2000;0.3313;1.2928;
1375.5000;0.3305;1.2855;
1375.8000;0.3297;1.2782;
1376.1000;0.3289;1.2806;
1376.4000;0.3305;1.2831;
1376.7000;0.3321;1.2855;
1377.0000;0.3297;1.2806;
1377.3000;0.3313;1.2880;
1377.6000;0.3313;1.2928;
1377.9000;0.3337;1.2928;
1378.2000;0.3337;1.2977;
1378.5000;0.3337;1.2880;
1378.8000;0.3305;1.2660;
1379.1000;0.3305;1.2635;
1379.4000;0.3321;1.2684;
1379.7000;0.3337;1.2708;
1380.0000;0.3289;1.2684;
1380.3000;0.3329;1.2757;
1380.6000;0.3321;1.2733;
1380.9000;0.3321;1.2733;
1381.2000;0.3346;1.2831;
1381.5000;0.3313;1.2757;
1381.8000;0.3321;1.2733;
1382.1000;0.3329;1.2733;
1382.4000;0.3321;1.2757;
1382.7000;0.3329;1.2831;
1383.0000;0.3305;1.2831;
1383.3000;0.3337;1.2977;
1383.6000;0.3346;1.2831;
1383.9000;0.3313;1.2684;
1384.2000;0.3329;1.2733;
1384.5000;0.3313;1.2733;
1384.8000;0.3329;1.2757;
1385.1000;0.3321;1.2806;
1385.4000;0.3313;1.2733;
1385.7000;0.3329;1.2684;
1386.0000;0.3305;1.2562;
1386.3000;0.3321;1.2611;
1386.6000;0.3313;1.2537;
1386.9000;0.3329;1.2660;
1387.2000;0.3313;1.2684;
1387.5000;0.3313;1.2684;
1387.8000;0.3329;1.2611;
1388.1000;0.3272;1.2513;
1388.4000;0.3321;1.2708;
1388.7000;0.3394;1.2928;
1389.0000;0.3329;1.2684;
1389.3000;0.3346;1.2733;
1389.6000;0.3329;1.2684;
1389.9000;0.3321;1.2635;
1390.2000;0.3313;1.2660;
1390.5000;0.3329;1.2782;
1390.8000;0.3305;1.2733;
1391.1000;0.3354;1.2855;
1391.4000;0.3305;1.2782;
1391.7000;0.3305;1.2757;
1392.0000;0.3297;1.2831;
1392.3000;0.3232;1.2684;
1392.6000;0.3313;1.2831;
1392.9000;0.3321;1.2928;
1393.2000;0.3329;1.2806;
1393.5000;0.3321;1.2757;
1393.8000;0.3313;1.2782;
1394.1000;0.3232;1.2635;
1394.4000;0.3354;1.2928;
1394.7000;0.3370;1.3026;
1395.0000;0.3297;1.2880;
1395.3000;0.3386;1.3002;
1395.6000;0.3305;1.2733;
1395.9000;0.3329;1.2782;
1396.2000;0.3321;1.2733;
1396.5000;0.3305;1.2708;
1396.8000;0.3321;1.2708;
1397.1000;0.3321;1.2806;
1397.4000;0.3321;1.2831;
1397.7000;0.3272;1.2708;
1398.0000;0.3305;1.2782;
1398.3000;0.3297;1.2733;
1398.6000;0.3313;1.2831;
1398.9000;0.3411;1.3124;
1399.2000;0.3248;1.2611;
1399.5000;0.3313;1.2855;
1399.8000;0.3289;1.2880;
