time/ms;Fluo/V;P700 deltaI/I x10³;
-199.8000;0.4624;1.4077;
-199.5000;0.4624;1.4150;
-199.2000;0.4615;1.4199;
-198.9000;0.4624;1.4175;
-198.6000;0.4624;1.4126;
-198.3000;0.4632;1.4102;
-198.0000;0.4632;1.4126;
-197.7000;0.4632;1.4102;
-197.4000;0.4640;1.4126;
-197.1000;0.4632;1.4175;
-196.8000;0.4640;1.4199;
-196.5000;0.4599;1.4150;
-196.2000;0.4640;1.4126;
-195.9000;0.4640;1.4150;
-195.6000;0.4615;1.4199;
-195.3000;0.4591;1.4102;
-195.0000;0.4632;1.4248;
-194.7000;0.4624;1.4370;
-194.4000;0.4615;1.4370;
-194.1000;0.4624;1.4419;
-193.8000;0.4607;1.4321;
-193.5000;0.4632;1.4321;
-193.2000;0.4624;1.4273;
-192.9000;0.4624;1.4248;
-192.6000;0.4624;1.4297;
-192.3000;0.4632;1.4199;
-192.0000;0.4632;1.4175;
-191.7000;0.4632;1.4175;
-191.4000;0.4640;1.4126;
-191.1000;0.4632;1.4150;
-190.8000;0.4632;1.4102;
-190.5000;0.4640;1.4175;
-190.2000;0.4624;1.4175;
-189.9000;0.4624;1.4199;
-189.6000;0.4632;1.4297;
-189.3000;0.4624;1.4297;
-189.0000;0.4615;1.4395;
-188.7000;0.4664;1.4370;
-188.4000;0.4599;1.4175;
-188.1000;0.4697;1.4346;
-187.8000;0.4624;1.4150;
-187.5000;0.4632;1.4126;
-187.2000;0.4648;1.4224;
-186.9000;0.4640;1.4126;
-186.6000;0.4632;1.4028;
-186.3000;0.4640;1.4077;
-186.0000;0.4575;1.3955;
-185.7000;0.4648;1.4150;
-185.4000;0.4640;1.4126;
-185.1000;0.4632;1.4102;
-184.8000;0.4632;1.4126;
-184.5000;0.4640;1.4077;
-184.2000;0.4656;1.4199;
-183.9000;0.4664;1.4224;
-183.6000;0.4624;1.4126;
-183.3000;0.4656;1.4248;
-183.0000;0.4697;1.4297;
-182.7000;0.4599;1.4077;
-182.4000;0.4624;1.4126;
-182.1000;0.4656;1.4102;
-181.8000;0.4632;1.4004;
-181.5000;0.4640;1.3979;
-181.2000;0.4624;1.3955;
-180.9000;0.4632;1.3955;
-180.6000;0.4640;1.4053;
-180.3000;0.4624;1.4077;
-180.0000;0.4615;1.4102;
-179.7000;0.4632;1.4175;
-179.4000;0.4632;1.4224;
-179.1000;0.4656;1.4175;
-178.8000;0.4624;1.4102;
-178.5000;0.4624;1.4175;
-178.2000;0.4640;1.4224;
-177.9000;0.4689;1.4297;
-177.6000;0.4648;1.4273;
-177.3000;0.4640;1.4150;
-177.0000;0.4624;1.4199;
-176.7000;0.4632;1.4224;
-176.4000;0.4640;1.4273;
-176.1000;0.4632;1.4297;
-175.8000;0.4648;1.4297;
-175.5000;0.4567;1.4126;
-175.2000;0.4632;1.4297;
-174.9000;0.4624;1.4297;
-174.6000;0.4656;1.4419;
-174.3000;0.4632;1.4395;
-174.0000;0.4632;1.4370;
-173.7000;0.4640;1.4321;
-173.4000;0.4640;1.4273;
-173.1000;0.4640;1.4224;
-172.8000;0.4632;1.4126;
-172.5000;0.4632;1.4102;
-172.2000;0.4624;1.4102;
-171.9000;0.4705;1.4297;
-171.6000;0.4632;1.4150;
-171.3000;0.4615;1.4150;
-171.0000;0.4624;1.4224;
-170.7000;0.4624;1.4273;
-170.4000;0.4624;1.4199;
-170.1000;0.4550;1.4028;
-169.8000;0.4591;1.4126;
-169.5000;0.4632;1.4273;
-169.2000;0.4607;1.4199;
-168.9000;0.4615;1.4175;
-168.6000;0.4640;1.4175;
-168.3000;0.4624;1.4175;
-168.0000;0.4624;1.4248;
-167.7000;0.4640;1.4224;
-167.4000;0.4624;1.4175;
-167.1000;0.4640;1.4175;
-166.8000;0.4640;1.4053;
-166.5000;0.4632;1.3979;
-166.2000;0.4591;1.3979;
-165.9000;0.4640;1.4077;
-165.6000;0.4632;1.4102;
-165.3000;0.4640;1.4077;
-165.0000;0.4632;1.4004;
-164.7000;0.4624;1.4004;
-164.4000;0.4624;1.4053;
-164.1000;0.4640;1.4028;
-163.8000;0.4632;1.4028;
-163.5000;0.4615;1.4126;
-163.2000;0.4624;1.4126;
-162.9000;0.4615;1.4102;
-162.6000;0.4632;1.4126;
-162.3000;0.4615;1.4150;
-162.0000;0.4632;1.4126;
-161.7000;0.4632;1.4077;
-161.4000;0.4591;1.3955;
-161.1000;0.4615;1.4150;
-160.8000;0.4632;1.4102;
-160.5000;0.4640;1.4077;
-160.2000;0.4624;1.4028;
-159.9000;0.4640;1.4028;
-159.6000;0.4648;1.4028;
-159.3000;0.4624;1.4028;
-159.0000;0.4615;1.4126;
-158.7000;0.4624;1.4175;
-158.4000;0.4640;1.4224;
-158.1000;0.4632;1.4150;
-157.8000;0.4624;1.4175;
-157.5000;0.4640;1.4150;
-157.2000;0.4632;1.4077;
-156.9000;0.4648;1.4102;
-156.6000;0.4624;1.4102;
-156.3000;0.4624;1.4126;
-156.0000;0.4632;1.4248;
-155.7000;0.4632;1.4321;
-155.4000;0.4640;1.4395;
-155.1000;0.4607;1.4321;
-154.8000;0.4656;1.4395;
-154.5000;0.4624;1.4346;
-154.2000;0.4632;1.4321;
-153.9000;0.4624;1.4297;
-153.6000;0.4615;1.4199;
-153.3000;0.4632;1.4102;
-153.0000;0.4656;1.4126;
-152.7000;0.4689;1.4224;
-152.4000;0.4632;1.3979;
-152.1000;0.4632;1.3979;
-151.8000;0.4599;1.3882;
-151.5000;0.4607;1.3857;
-151.2000;0.4632;1.3979;
-150.9000;0.4640;1.4004;
-150.6000;0.4632;1.3979;
-150.3000;0.4640;1.4004;
-150.0000;0.4640;1.3979;
-149.7000;0.4624;1.3955;
-149.4000;0.4632;1.3955;
-149.1000;0.4615;1.3906;
-148.8000;0.4632;1.3906;
-148.5000;0.4648;1.4028;
-148.2000;0.4640;1.3979;
-147.9000;0.4640;1.3979;
-147.6000;0.4640;1.3930;
-147.3000;0.4656;1.4004;
-147.0000;0.4632;1.3882;
-146.7000;0.4632;1.4004;
-146.4000;0.4640;1.4053;
-146.1000;0.4640;1.4028;
-145.8000;0.4615;1.3955;
-145.5000;0.4632;1.3979;
-145.2000;0.4640;1.3979;
-144.9000;0.4624;1.3906;
-144.6000;0.4615;1.3833;
-144.3000;0.4632;1.3882;
-144.0000;0.4607;1.3882;
-143.7000;0.4607;1.4004;
-143.4000;0.4624;1.4102;
-143.1000;0.4624;1.4077;
-142.8000;0.4632;1.4028;
-142.5000;0.4648;1.4077;
-142.2000;0.4632;1.4077;
-141.9000;0.4632;1.4102;
-141.6000;0.4640;1.4150;
-141.3000;0.4624;1.4102;
-141.0000;0.4632;1.4126;
-140.7000;0.4607;1.4004;
-140.4000;0.4624;1.3955;
-140.1000;0.4632;1.4102;
-139.8000;0.4632;1.4077;
-139.5000;0.4632;1.4028;
-139.2000;0.4624;1.4028;
-138.9000;0.4721;1.4273;
-138.6000;0.4607;1.4004;
-138.3000;0.4648;1.4077;
-138.0000;0.4558;1.3759;
-137.7000;0.4615;1.4004;
-137.4000;0.4640;1.4028;
-137.1000;0.4632;1.4004;
-136.8000;0.4632;1.3955;
-136.5000;0.4632;1.3906;
-136.2000;0.4624;1.3979;
-135.9000;0.4689;1.4297;
-135.6000;0.4599;1.4150;
-135.3000;0.4632;1.4199;
-135.0000;0.4615;1.4224;
-134.7000;0.4615;1.4175;
-134.4000;0.4632;1.4248;
-134.1000;0.4632;1.4248;
-133.8000;0.4583;1.4175;
-133.5000;0.4640;1.4224;
-133.2000;0.4624;1.4248;
-132.9000;0.4624;1.4175;
-132.6000;0.4624;1.4199;
-132.3000;0.4640;1.4224;
-132.0000;0.4632;1.4199;
-131.7000;0.4624;1.4102;
-131.4000;0.4640;1.4150;
-131.1000;0.4624;1.4175;
-130.8000;0.4640;1.4077;
-130.5000;0.4632;1.4126;
-130.2000;0.4615;1.4126;
-129.9000;0.4672;1.4224;
-129.6000;0.4624;1.4077;
-129.3000;0.4624;1.4077;
-129.0000;0.4640;1.4077;
-128.7000;0.4632;1.4053;
-128.4000;0.4607;1.4028;
-128.1000;0.4615;1.3979;
-127.8000;0.4615;1.4028;
-127.5000;0.4632;1.4053;
-127.2000;0.4648;1.4126;
-126.9000;0.4615;1.4028;
-126.6000;0.4615;1.4004;
-126.3000;0.4567;1.3882;
-126.0000;0.4615;1.4053;
-125.7000;0.4632;1.4126;
-125.4000;0.4648;1.4102;
-125.1000;0.4615;1.4077;
-124.8000;0.4640;1.4150;
-124.5000;0.4607;1.4028;
-124.2000;0.4624;1.4150;
-123.9000;0.4607;1.4199;
-123.6000;0.4632;1.4248;
-123.3000;0.4640;1.4224;
-123.0000;0.4648;1.4175;
-122.7000;0.4640;1.4175;
-122.4000;0.4664;1.4248;
-122.1000;0.4640;1.4199;
-121.8000;0.4624;1.4126;
-121.5000;0.4648;1.4077;
-121.2000;0.4762;1.4419;
-120.9000;0.4624;1.3979;
-120.6000;0.4632;1.3955;
-120.3000;0.4615;1.3955;
-120.0000;0.4615;1.3955;
-119.7000;0.4615;1.3930;
-119.4000;0.4624;1.3979;
-119.1000;0.4607;1.3882;
-118.8000;0.4632;1.3979;
-118.5000;0.4632;1.4053;
-118.2000;0.4648;1.4053;
-117.9000;0.4640;1.3979;
-117.6000;0.4632;1.3833;
-117.3000;0.4632;1.3882;
-117.0000;0.4640;1.3906;
-116.7000;0.4656;1.3930;
-116.4000;0.4591;1.3784;
-116.1000;0.4640;1.3979;
-115.8000;0.4624;1.4077;
-115.5000;0.4624;1.4102;
-115.2000;0.4632;1.4102;
-114.9000;0.4640;1.4077;
-114.6000;0.4640;1.4028;
-114.3000;0.4615;1.4004;
-114.0000;0.4632;1.3955;
-113.7000;0.4615;1.3955;
-113.4000;0.4640;1.3979;
-113.1000;0.4624;1.4004;
-112.8000;0.4624;1.3979;
-112.5000;0.4632;1.4053;
-112.2000;0.4640;1.4224;
-111.9000;0.4607;1.4199;
-111.6000;0.4607;1.4224;
-111.3000;0.4624;1.4297;
-111.0000;0.4640;1.4224;
-110.7000;0.4591;1.4150;
-110.4000;0.4615;1.4199;
-110.1000;0.4607;1.4175;
-109.8000;0.4632;1.4199;
-109.5000;0.4624;1.4175;
-109.2000;0.4632;1.4175;
-108.9000;0.4632;1.4248;
-108.6000;0.4615;1.4175;
-108.3000;0.4632;1.4175;
-108.0000;0.4648;1.4199;
-107.7000;0.4632;1.4102;
-107.4000;0.4632;1.4199;
-107.1000;0.4632;1.4126;
-106.8000;0.4640;1.4150;
-106.5000;0.4664;1.4224;
-106.2000;0.4640;1.4248;
-105.9000;0.4632;1.4199;
-105.6000;0.4648;1.4102;
-105.3000;0.4640;1.4077;
-105.0000;0.4624;1.3955;
-104.7000;0.4615;1.3906;
-104.4000;0.4672;1.4028;
-104.1000;0.4640;1.3979;
-103.8000;0.4615;1.3906;
-103.5000;0.4640;1.4004;
-103.2000;0.4632;1.3979;
-102.9000;0.4624;1.3882;
-102.6000;0.4632;1.4004;
-102.3000;0.4648;1.4126;
-102.0000;0.4648;1.4126;
-101.7000;0.4648;1.4077;
-101.4000;0.4640;1.4028;
-101.1000;0.4632;1.4077;
-100.8000;0.4640;1.4150;
-100.5000;0.4632;1.4175;
-100.2000;0.4656;1.4175;
-99.9000;0.4607;1.4004;
-99.6000;0.4624;1.4102;
-99.3000;0.4632;1.4199;
-99.0000;0.4607;1.4126;
-98.7000;0.4632;1.4175;
-98.4000;0.4624;1.4199;
-98.1000;0.4615;1.4224;
-97.8000;0.4632;1.4199;
-97.5000;0.4599;1.4126;
-97.2000;0.4575;1.4053;
-96.9000;0.4632;1.4175;
-96.6000;0.4615;1.4175;
-96.3000;0.4632;1.4175;
-96.0000;0.4632;1.4199;
-95.7000;0.4648;1.4321;
-95.4000;0.4640;1.4248;
-95.1000;0.4681;1.4444;
-94.8000;0.4656;1.4395;
-94.5000;0.4624;1.4297;
-94.2000;0.4672;1.4395;
-93.9000;0.4615;1.4224;
-93.6000;0.4632;1.4321;
-93.3000;0.4624;1.4321;
-93.0000;0.4656;1.4297;
-92.7000;0.4640;1.4224;
-92.4000;0.4624;1.4199;
-92.1000;0.4632;1.4224;
-91.8000;0.4615;1.4224;
-91.5000;0.4640;1.4224;
-91.2000;0.4591;1.4175;
-90.9000;0.4575;1.4102;
-90.6000;0.4624;1.4248;
-90.3000;0.4624;1.4346;
-90.0000;0.4624;1.4297;
-89.7000;0.4615;1.4248;
-89.4000;0.4648;1.4346;
-89.1000;0.4624;1.4297;
-88.8000;0.4640;1.4297;
-88.5000;0.4632;1.4444;
-88.2000;0.4648;1.4370;
-87.9000;0.4599;1.4273;
-87.6000;0.4640;1.4321;
-87.3000;0.4624;1.4321;
-87.0000;0.4632;1.4248;
-86.7000;0.4624;1.4224;
-86.4000;0.4640;1.4224;
-86.1000;0.4632;1.4248;
-85.8000;0.4624;1.4248;
-85.5000;0.4607;1.4248;
-85.2000;0.4615;1.4199;
-84.9000;0.4615;1.4126;
-84.6000;0.4632;1.4077;
-84.3000;0.4632;1.4077;
-84.0000;0.4632;1.4004;
-83.7000;0.4697;1.4248;
-83.4000;0.4624;1.4028;
-83.1000;0.4624;1.3979;
-82.8000;0.4656;1.4077;
-82.5000;0.4615;1.4004;
-82.2000;0.4640;1.4028;
-81.9000;0.4632;1.4004;
-81.6000;0.4632;1.4053;
-81.3000;0.4567;1.3857;
-81.0000;0.4632;1.4004;
-80.7000;0.4640;1.4028;
-80.4000;0.4591;1.3930;
-80.1000;0.4607;1.3979;
-79.8000;0.4632;1.4053;
-79.5000;0.4632;1.4077;
-79.2000;0.4624;1.4028;
-78.9000;0.4632;1.4053;
-78.6000;0.4624;1.4053;
-78.3000;0.4632;1.4102;
-78.0000;0.4640;1.4102;
-77.7000;0.4640;1.4126;
-77.4000;0.4624;1.4126;
-77.1000;0.4632;1.4150;
-76.8000;0.4615;1.4150;
-76.5000;0.4640;1.4297;
-76.2000;0.4640;1.4321;
-75.9000;0.4632;1.4248;
-75.6000;0.4632;1.4297;
-75.3000;0.4542;1.4077;
-75.0000;0.4632;1.4224;
-74.7000;0.4632;1.4224;
-74.4000;0.4640;1.4224;
-74.1000;0.4607;1.4224;
-73.8000;0.4664;1.4346;
-73.5000;0.4640;1.4224;
-73.2000;0.4632;1.4175;
-72.9000;0.4632;1.4175;
-72.6000;0.4632;1.4224;
-72.3000;0.4624;1.4126;
-72.0000;0.4640;1.4077;
-71.7000;0.4624;1.4028;
-71.4000;0.4632;1.4028;
-71.1000;0.4632;1.4077;
-70.8000;0.4664;1.4224;
-70.5000;0.4615;1.4150;
-70.2000;0.4632;1.4224;
-69.9000;0.4615;1.4199;
-69.6000;0.4624;1.4126;
-69.3000;0.4656;1.4297;
-69.0000;0.4624;1.4248;
-68.7000;0.4632;1.4248;
-68.4000;0.4624;1.4175;
-68.1000;0.4648;1.4273;
-67.8000;0.4640;1.4224;
-67.5000;0.4648;1.4126;
-67.2000;0.4640;1.4053;
-66.9000;0.4632;1.4126;
-66.6000;0.4648;1.4102;
-66.3000;0.4640;1.4199;
-66.0000;0.4648;1.4175;
-65.7000;0.4664;1.4126;
-65.4000;0.4640;1.4126;
-65.1000;0.4583;1.3979;
-64.8000;0.4632;1.4053;
-64.5000;0.4632;1.4004;
-64.2000;0.4615;1.3930;
-63.9000;0.4640;1.4028;
-63.6000;0.4607;1.3979;
-63.3000;0.4615;1.3979;
-63.0000;0.4607;1.3930;
-62.7000;0.4689;1.4224;
-62.4000;0.4640;1.4175;
-62.1000;0.4640;1.4126;
-61.8000;0.4607;1.4028;
-61.5000;0.4640;1.4150;
-61.2000;0.4624;1.4028;
-60.9000;0.4632;1.3979;
-60.6000;0.4640;1.3979;
-60.3000;0.4648;1.4028;
-60.0000;0.4640;1.4004;
-59.7000;0.4615;1.3906;
-59.4000;0.4624;1.3930;
-59.1000;0.4632;1.3979;
-58.8000;0.4697;1.4199;
-58.5000;0.4624;1.3979;
-58.2000;0.4607;1.4028;
-57.9000;0.4615;1.4004;
-57.6000;0.4624;1.3979;
-57.3000;0.4607;1.3955;
-57.0000;0.4632;1.4077;
-56.7000;0.4640;1.4175;
-56.4000;0.4664;1.4273;
-56.1000;0.4624;1.4175;
-55.8000;0.4648;1.4102;
-55.5000;0.4681;1.4248;
-55.2000;0.4591;1.3979;
-54.9000;0.4615;1.4077;
-54.6000;0.4607;1.3979;
-54.3000;0.4615;1.3906;
-54.0000;0.4632;1.3955;
-53.7000;0.4624;1.3930;
-53.4000;0.4607;1.3882;
-53.1000;0.4624;1.3955;
-52.8000;0.4615;1.3955;
-52.5000;0.4632;1.3955;
-52.2000;0.4632;1.3882;
-51.9000;0.4615;1.3784;
-51.6000;0.4624;1.3833;
-51.3000;0.4664;1.3979;
-51.0000;0.4632;1.3882;
-50.7000;0.4632;1.3955;
-50.4000;0.4624;1.3955;
-50.1000;0.4624;1.3930;
-49.8000;0.4664;1.4004;
-49.5000;0.4624;1.3979;
-49.2000;0.4615;1.3930;
-48.9000;0.4632;1.4102;
-48.6000;0.4632;1.4126;
-48.3000;0.4615;1.4126;
-48.0000;0.4640;1.4126;
-47.7000;0.4672;1.4077;
-47.4000;0.4624;1.3955;
-47.1000;0.4640;1.4004;
-46.8000;0.4615;1.3930;
-46.5000;0.4575;1.3833;
-46.2000;0.4656;1.4297;
-45.9000;0.4607;1.4102;
-45.6000;0.4615;1.4150;
-45.3000;0.4664;1.4175;
-45.0000;0.4624;1.4077;
-44.7000;0.4607;1.3979;
-44.4000;0.4632;1.3979;
-44.1000;0.4632;1.3930;
-43.8000;0.4632;1.4028;
-43.5000;0.4632;1.4028;
-43.2000;0.4624;1.4028;
-42.9000;0.4689;1.4150;
-42.6000;0.4640;1.4004;
-42.3000;0.4632;1.3930;
-42.0000;0.4632;1.3979;
-41.7000;0.4664;1.4102;
-41.4000;0.4632;1.4102;
-41.1000;0.4575;1.3955;
-40.8000;0.4607;1.4053;
-40.5000;0.4632;1.4053;
-40.2000;0.4640;1.4224;
-39.9000;0.4640;1.4273;
-39.6000;0.4624;1.4224;
-39.3000;0.4615;1.4126;
-39.0000;0.4607;1.4028;
-38.7000;0.4632;1.4077;
-38.4000;0.4624;1.4028;
-38.1000;0.4583;1.3906;
-37.8000;0.4640;1.4004;
-37.5000;0.4615;1.4028;
-37.2000;0.4640;1.4199;
-36.9000;0.4615;1.4224;
-36.6000;0.4656;1.4224;
-36.3000;0.4640;1.4175;
-36.0000;0.4632;1.4150;
-35.7000;0.4648;1.4175;
-35.4000;0.4624;1.4102;
-35.1000;0.4648;1.4248;
-34.8000;0.4624;1.4175;
-34.5000;0.4615;1.4224;
-34.2000;0.4640;1.4150;
-33.9000;0.4648;1.4248;
-33.6000;0.4632;1.4248;
-33.3000;0.4640;1.4273;
-33.0000;0.4632;1.4224;
-32.7000;0.4599;1.4102;
-32.4000;0.4632;1.4248;
-32.1000;0.4607;1.4053;
-31.8000;0.4624;1.4102;
-31.5000;0.4656;1.4175;
-31.2000;0.4624;1.4175;
-30.9000;0.4632;1.4199;
-30.6000;0.4624;1.4175;
-30.3000;0.4656;1.4199;
-30.0000;0.4640;1.4053;
-29.7000;0.4624;1.4126;
-29.4000;0.4615;1.4150;
-29.1000;0.4607;1.4077;
-28.8000;0.4567;1.3906;
-28.5000;0.4640;1.4053;
-28.2000;0.4632;1.4004;
-27.9000;0.4624;1.4053;
-27.6000;0.4640;1.4053;
-27.3000;0.4648;1.4126;
-27.0000;0.4640;1.4199;
-26.7000;0.4640;1.4150;
-26.4000;0.4640;1.4175;
-26.1000;0.4640;1.4126;
-25.8000;0.4640;1.4126;
-25.5000;0.4632;1.4126;
-25.2000;0.4664;1.4248;
-24.9000;0.4656;1.4150;
-24.6000;0.4624;1.4102;
-24.3000;0.4632;1.4150;
-24.0000;0.4607;1.4053;
-23.7000;0.4632;1.4077;
-23.4000;0.4648;1.4175;
-23.1000;0.4615;1.4028;
-22.8000;0.4632;1.4150;
-22.5000;0.4632;1.4150;
-22.2000;0.4640;1.4150;
-21.9000;0.4648;1.4053;
-21.6000;0.4640;1.4028;
-21.3000;0.4615;1.4175;
-21.0000;0.4648;1.4175;
-20.7000;0.4632;1.4077;
-20.4000;0.4624;1.4126;
-20.1000;0.4632;1.4102;
-19.8000;0.4599;1.4004;
-19.5000;0.4558;1.3906;
-19.2000;0.4510;1.3710;
-18.9000;0.4607;1.3955;
-18.6000;0.4607;1.4004;
-18.3000;0.4640;1.4053;
-18.0000;0.4624;1.4150;
-17.7000;0.4624;1.4150;
-17.4000;0.4624;1.4175;
-17.1000;0.4615;1.4150;
-16.8000;0.4640;1.4199;
-16.5000;0.4648;1.4199;
-16.2000;0.4632;1.4126;
-15.9000;0.4607;1.3979;
-15.6000;0.4632;1.4004;
-15.3000;0.4640;1.4102;
-15.0000;0.4648;1.4102;
-14.7000;0.4624;1.4126;
-14.4000;0.4648;1.4126;
-14.1000;0.4615;1.4077;
-13.8000;0.4632;1.4150;
-13.5000;0.4624;1.4199;
-13.2000;0.4640;1.4224;
-12.9000;0.4632;1.4297;
-12.6000;0.4640;1.4346;
-12.3000;0.4640;1.4321;
-12.0000;0.4632;1.4297;
-11.7000;0.4640;1.4346;
-11.4000;0.4615;1.4321;
-11.1000;0.4624;1.4321;
-10.8000;0.4624;1.4321;
-10.5000;0.4640;1.4297;
-10.2000;0.4632;1.4297;
-9.9000;0.4624;1.4199;
-9.6000;0.4632;1.4224;
-9.3000;0.4632;1.4199;
-9.0000;0.4624;1.4224;
-8.7000;0.4624;1.4175;
-8.4000;0.4624;1.4175;
-8.1000;0.4624;1.4199;
-7.8000;0.4648;1.4248;
-7.5000;0.4632;1.4199;
-7.2000;0.4607;1.4126;
-6.9000;0.4615;1.4150;
-6.6000;0.4640;1.4126;
-6.3000;0.4624;1.4126;
-6.0000;0.4624;1.4126;
-5.7000;0.4632;1.4053;
-5.4000;0.4640;1.4077;
-5.1000;0.4672;1.4175;
-4.8000;0.4632;1.4102;
-4.5000;0.4632;1.4004;
-4.2000;0.4607;1.3955;
-3.9000;0.4624;1.3979;
-3.6000;0.4632;1.4028;
-3.3000;0.4632;1.4053;
-3.0000;0.4672;1.4248;
-2.7000;0.4624;1.4175;
-2.4000;0.4640;1.4224;
-2.1000;0.4615;1.4175;
-1.8000;0.4640;1.4199;
-1.5000;0.4640;1.4175;
-1.2000;0.4591;1.4102;
-0.9000;0.4632;1.4175;
-0.6000;0.4648;1.4273;
-0.3000;0.4640;1.4297;
0.0000;0.4640;1.4297;
0.3000;0.4729;1.4126;
0.6000;0.4925;1.4395;
0.9000;0.5144;1.4859;
1.2000;0.5283;1.5177;
1.5000;0.5372;1.5397;
1.8000;0.5462;1.5690;
2.1000;0.5551;1.5934;
2.4000;0.5584;1.6032;
2.7000;0.5625;1.6106;
3.0000;0.5665;1.6277;
3.3000;0.5804;1.6570;
3.6000;0.5747;1.6399;
3.9000;0.5779;1.6570;
4.2000;0.5788;1.6619;
4.5000;0.5820;1.6668;
4.8000;0.5845;1.6643;
5.1000;0.5828;1.6594;
5.4000;0.5861;1.6545;
5.7000;0.5885;1.6643;
6.0000;0.5910;1.6668;
6.3000;0.5918;1.6668;
6.6000;0.5950;1.6741;
6.9000;0.5967;1.6790;
7.2000;0.6015;1.6790;
7.5000;0.6089;1.7010;
7.8000;0.5999;1.6717;
8.1000;0.5991;1.6668;
8.4000;0.6024;1.6814;
8.7000;0.5975;1.6619;
9.0000;0.6048;1.6790;
9.3000;0.6072;1.6790;
9.6000;0.6064;1.6717;
9.9000;0.6081;1.6717;
10.2000;0.6072;1.6668;
10.5000;0.6064;1.6643;
10.8000;0.6081;1.6668;
11.1000;0.6089;1.6619;
11.4000;0.6121;1.6668;
11.7000;0.6219;1.6888;
12.0000;0.6129;1.6717;
12.3000;0.6211;1.6936;
12.6000;0.6162;1.6839;
12.9000;0.6162;1.6717;
13.2000;0.6186;1.6814;
13.5000;0.6203;1.6936;
13.8000;0.6178;1.6839;
14.1000;0.6203;1.6814;
14.4000;0.6203;1.6741;
14.7000;0.6211;1.6717;
15.0000;0.6219;1.6741;
15.3000;0.6268;1.6888;
15.6000;0.6211;1.6814;
15.9000;0.6211;1.6912;
16.2000;0.6300;1.7059;
16.5000;0.6235;1.6888;
16.8000;0.6227;1.6839;
17.1000;0.6235;1.6888;
17.4000;0.6276;1.6936;
17.7000;0.6268;1.6912;
18.0000;0.6284;1.6888;
18.3000;0.6292;1.6839;
18.6000;0.6268;1.6741;
18.9000;0.6284;1.6717;
19.2000;0.6309;1.6692;
19.5000;0.6276;1.6643;
19.8000;0.6276;1.6692;
20.1000;0.6292;1.6765;
20.4000;0.6276;1.6717;
20.7000;0.6317;1.6790;
21.0000;0.6317;1.6814;
21.3000;0.6317;1.6814;
21.6000;0.6333;1.6839;
21.9000;0.6349;1.6839;
22.2000;0.6333;1.6717;
22.5000;0.6300;1.6594;
22.8000;0.6325;1.6692;
23.1000;0.6349;1.6814;
23.4000;0.6365;1.6839;
23.7000;0.6374;1.6888;
24.0000;0.6365;1.6839;
24.3000;0.6317;1.6643;
24.6000;0.6365;1.6717;
24.9000;0.6390;1.6741;
25.2000;0.6374;1.6741;
25.5000;0.6357;1.6741;
25.8000;0.6365;1.6765;
26.1000;0.6357;1.6790;
26.4000;0.6374;1.6790;
26.7000;0.6333;1.6765;
27.0000;0.6374;1.6814;
27.3000;0.6365;1.6692;
27.6000;0.6398;1.6790;
27.9000;0.6374;1.6692;
28.2000;0.6390;1.6741;
28.5000;0.6390;1.6839;
28.8000;0.6390;1.6863;
29.1000;0.6357;1.6692;
29.4000;0.6398;1.6814;
29.7000;0.6390;1.6790;
30.0000;0.6406;1.6790;
30.3000;0.6406;1.6765;
30.6000;0.6406;1.6717;
30.9000;0.6406;1.6668;
31.2000;0.6398;1.6741;
31.5000;0.6398;1.6814;
31.8000;0.6406;1.6888;
32.1000;0.6414;1.7034;
32.4000;0.6406;1.7034;
32.7000;0.6357;1.6863;
33.0000;0.6447;1.6985;
33.3000;0.6422;1.6790;
33.6000;0.6422;1.6790;
33.9000;0.6447;1.6863;
34.2000;0.6422;1.6765;
34.5000;0.6431;1.6692;
34.8000;0.6439;1.6643;
35.1000;0.6422;1.6692;
35.4000;0.6439;1.6692;
35.7000;0.6431;1.6741;
36.0000;0.6439;1.6814;
36.3000;0.6439;1.6839;
36.6000;0.6390;1.6765;
36.9000;0.6431;1.6888;
37.2000;0.6431;1.6741;
37.5000;0.6447;1.6765;
37.8000;0.6479;1.6790;
38.1000;0.6455;1.6692;
38.4000;0.6455;1.6692;
38.7000;0.6431;1.6594;
39.0000;0.6439;1.6692;
39.3000;0.6431;1.6692;
39.6000;0.6422;1.6594;
39.9000;0.6496;1.6692;
40.2000;0.6447;1.6521;
40.5000;0.6455;1.6545;
40.8000;0.6431;1.6594;
41.1000;0.6439;1.6692;
41.4000;0.6447;1.6790;
41.7000;0.6439;1.6839;
42.0000;0.6422;1.6839;
42.3000;0.6447;1.6790;
42.6000;0.6463;1.6814;
42.9000;0.6488;1.6839;
43.2000;0.6463;1.6668;
43.5000;0.6463;1.6692;
43.8000;0.6463;1.6717;
44.1000;0.6479;1.6790;
44.4000;0.6447;1.6741;
44.7000;0.6447;1.6741;
45.0000;0.6455;1.6814;
45.3000;0.6520;1.7010;
45.6000;0.6463;1.6863;
45.9000;0.6471;1.6839;
46.2000;0.6471;1.6741;
46.5000;0.6463;1.6717;
46.8000;0.6471;1.6765;
47.1000;0.6471;1.6790;
47.4000;0.6479;1.6741;
47.7000;0.6479;1.6765;
48.0000;0.6471;1.6790;
48.3000;0.6488;1.6692;
48.6000;0.6471;1.6668;
48.9000;0.6479;1.6619;
49.2000;0.6479;1.6643;
49.5000;0.6479;1.6594;
49.8000;0.6479;1.6668;
50.1000;0.6471;1.6668;
50.4000;0.6479;1.6765;
50.7000;0.6488;1.6692;
51.0000;0.6479;1.6717;
51.3000;0.6488;1.6765;
51.6000;0.6488;1.6863;
51.9000;0.6496;1.6790;
52.2000;0.6471;1.6668;
52.5000;0.6463;1.6643;
52.8000;0.6479;1.6545;
53.1000;0.6479;1.6570;
53.4000;0.6463;1.6521;
53.7000;0.6488;1.6545;
54.0000;0.6488;1.6521;
54.3000;0.6512;1.6521;
54.6000;0.6488;1.6497;
54.9000;0.6479;1.6497;
55.2000;0.6488;1.6497;
55.5000;0.6488;1.6497;
55.8000;0.6488;1.6570;
56.1000;0.6471;1.6570;
56.4000;0.6471;1.6594;
56.7000;0.6496;1.6643;
57.0000;0.6496;1.6594;
57.3000;0.6488;1.6643;
57.6000;0.6496;1.6643;
57.9000;0.6536;1.6790;
58.2000;0.6520;1.6790;
58.5000;0.6479;1.6643;
58.8000;0.6520;1.6643;
59.1000;0.6536;1.6741;
59.4000;0.6504;1.6619;
59.7000;0.6536;1.6643;
60.0000;0.6512;1.6619;
60.3000;0.6504;1.6521;
60.6000;0.6496;1.6545;
60.9000;0.6512;1.6594;
61.2000;0.6512;1.6668;
61.5000;0.6504;1.6643;
61.8000;0.6528;1.6741;
62.1000;0.6488;1.6619;
62.4000;0.6512;1.6741;
62.7000;0.6496;1.6692;
63.0000;0.6520;1.6765;
63.3000;0.6520;1.6692;
63.6000;0.6520;1.6692;
63.9000;0.6528;1.6741;
64.2000;0.6528;1.6668;
64.5000;0.6593;1.6790;
64.8000;0.6504;1.6545;
65.1000;0.6520;1.6570;
65.4000;0.6512;1.6570;
65.7000;0.6528;1.6619;
66.0000;0.6520;1.6570;
66.3000;0.6520;1.6570;
66.6000;0.6528;1.6521;
66.9000;0.6528;1.6594;
67.2000;0.6520;1.6570;
67.5000;0.6520;1.6643;
67.8000;0.6512;1.6643;
68.1000;0.6512;1.6570;
68.4000;0.6536;1.6668;
68.7000;0.6512;1.6619;
69.0000;0.6545;1.6741;
69.3000;0.6545;1.6741;
69.6000;0.6512;1.6668;
69.9000;0.6520;1.6717;
70.2000;0.6512;1.6717;
70.5000;0.6520;1.6741;
70.8000;0.6528;1.6619;
71.1000;0.6504;1.6472;
71.4000;0.6520;1.6497;
71.7000;0.6528;1.6472;
72.0000;0.6520;1.6399;
72.3000;0.6536;1.6472;
72.6000;0.6520;1.6472;
72.9000;0.6520;1.6374;
73.2000;0.6528;1.6350;
73.5000;0.6520;1.6326;
73.8000;0.6528;1.6374;
74.1000;0.6520;1.6350;
74.4000;0.6520;1.6399;
74.7000;0.6512;1.6423;
75.0000;0.6569;1.6497;
75.3000;0.6504;1.6154;
75.6000;0.6536;1.6301;
75.9000;0.6536;1.6399;
76.2000;0.6512;1.6374;
76.5000;0.6520;1.6277;
76.8000;0.6520;1.6277;
77.1000;0.6528;1.6277;
77.4000;0.6536;1.6326;
77.7000;0.6520;1.6326;
78.0000;0.6536;1.6350;
78.3000;0.6536;1.6374;
78.6000;0.6553;1.6374;
78.9000;0.6545;1.6277;
79.2000;0.6545;1.6374;
79.5000;0.6545;1.6252;
79.8000;0.6528;1.6154;
80.1000;0.6536;1.6228;
80.4000;0.6528;1.6228;
80.7000;0.6536;1.6326;
81.0000;0.6536;1.6350;
81.3000;0.6528;1.6326;
81.6000;0.6553;1.6570;
81.9000;0.6545;1.6570;
82.2000;0.6553;1.6668;
82.5000;0.6561;1.6741;
82.8000;0.6545;1.6717;
83.1000;0.6504;1.6619;
83.4000;0.6553;1.6594;
83.7000;0.6545;1.6545;
84.0000;0.6545;1.6472;
84.3000;0.6561;1.6521;
84.6000;0.6512;1.6301;
84.9000;0.6504;1.6301;
85.2000;0.6536;1.6423;
85.5000;0.6569;1.6423;
85.8000;0.6618;1.6570;
86.1000;0.6618;1.6521;
86.4000;0.6536;1.6277;
86.7000;0.6520;1.6277;
87.0000;0.6528;1.6326;
87.3000;0.6545;1.6423;
87.6000;0.6561;1.6497;
87.9000;0.6545;1.6448;
88.2000;0.6536;1.6521;
88.5000;0.6593;1.6668;
88.8000;0.6561;1.6570;
89.1000;0.6561;1.6521;
89.4000;0.6545;1.6448;
89.7000;0.6553;1.6448;
90.0000;0.6545;1.6472;
90.3000;0.6496;1.6277;
90.6000;0.6545;1.6472;
90.9000;0.6536;1.6399;
91.2000;0.6512;1.6228;
91.5000;0.6561;1.6277;
91.8000;0.6528;1.6228;
92.1000;0.6545;1.6301;
92.4000;0.6545;1.6350;
92.7000;0.6536;1.6374;
93.0000;0.6496;1.6374;
93.3000;0.6545;1.6472;
93.6000;0.6528;1.6399;
93.9000;0.6553;1.6472;
94.2000;0.6561;1.6448;
94.5000;0.6528;1.6448;
94.8000;0.6536;1.6423;
95.1000;0.6536;1.6472;
95.4000;0.6536;1.6448;
95.7000;0.6520;1.6350;
96.0000;0.6512;1.6326;
96.3000;0.6545;1.6423;
96.6000;0.6504;1.6228;
96.9000;0.6528;1.6301;
97.2000;0.6528;1.6277;
97.5000;0.6545;1.6301;
97.8000;0.6536;1.6154;
98.1000;0.6536;1.6154;
98.4000;0.6536;1.6130;
98.7000;0.6569;1.6203;
99.0000;0.6496;1.6106;
99.3000;0.6545;1.6277;
99.6000;0.6536;1.6374;
99.9000;0.6585;1.6570;
100.2000;0.6561;1.6472;
100.5000;0.6553;1.6497;
100.8000;0.6528;1.6399;
101.1000;0.6577;1.6497;
101.4000;0.6561;1.6326;
101.7000;0.6528;1.6228;
102.0000;0.6520;1.6228;
102.3000;0.6545;1.6277;
102.6000;0.6545;1.6326;
102.9000;0.6553;1.6374;
103.2000;0.6545;1.6350;
103.5000;0.6561;1.6326;
103.8000;0.6561;1.6350;
104.1000;0.6536;1.6423;
104.4000;0.6569;1.6472;
104.7000;0.6561;1.6472;
105.0000;0.6553;1.6545;
105.3000;0.6545;1.6497;
105.6000;0.6536;1.6448;
105.9000;0.6545;1.6448;
106.2000;0.6561;1.6472;
106.5000;0.6545;1.6399;
106.8000;0.6520;1.6350;
107.1000;0.6536;1.6350;
107.4000;0.6577;1.6399;
107.7000;0.6536;1.6497;
108.0000;0.6545;1.6521;
108.3000;0.6488;1.6399;
108.6000;0.6504;1.6350;
108.9000;0.6569;1.6423;
109.2000;0.6593;1.6497;
109.5000;0.6561;1.6350;
109.8000;0.6561;1.6399;
110.1000;0.6675;1.6570;
110.4000;0.6553;1.6252;
110.7000;0.6577;1.6374;
111.0000;0.6577;1.6301;
111.3000;0.6593;1.6301;
111.6000;0.6553;1.6252;
111.9000;0.6479;1.6154;
112.2000;0.6545;1.6277;
112.5000;0.6561;1.6301;
112.8000;0.6561;1.6350;
113.1000;0.6561;1.6277;
113.4000;0.6626;1.6497;
113.7000;0.6561;1.6301;
114.0000;0.6569;1.6301;
114.3000;0.6593;1.6277;
114.6000;0.6561;1.6179;
114.9000;0.6561;1.6301;
115.2000;0.6561;1.6472;
115.5000;0.6610;1.6619;
115.8000;0.6569;1.6448;
116.1000;0.6561;1.6423;
116.4000;0.6496;1.6277;
116.7000;0.6536;1.6301;
117.0000;0.6512;1.6277;
117.3000;0.6545;1.6423;
117.6000;0.6553;1.6399;
117.9000;0.6545;1.6399;
118.2000;0.6528;1.6374;
118.5000;0.6536;1.6399;
118.8000;0.6569;1.6545;
119.1000;0.6561;1.6472;
119.4000;0.6545;1.6497;
119.7000;0.6512;1.6423;
120.0000;0.6561;1.6472;
120.3000;0.6561;1.6448;
120.6000;0.6504;1.6301;
120.9000;0.6561;1.6472;
121.2000;0.6553;1.6545;
121.5000;0.6569;1.6594;
121.8000;0.6561;1.6570;
122.1000;0.6545;1.6570;
122.4000;0.6553;1.6570;
122.7000;0.6561;1.6521;
123.0000;0.6545;1.6497;
123.3000;0.6569;1.6570;
123.6000;0.6553;1.6497;
123.9000;0.6577;1.6423;
124.2000;0.6561;1.6350;
124.5000;0.6561;1.6350;
124.8000;0.6553;1.6399;
125.1000;0.6561;1.6521;
125.4000;0.6585;1.6545;
125.7000;0.6561;1.6497;
126.0000;0.6593;1.6545;
126.3000;0.6545;1.6423;
126.6000;0.6561;1.6472;
126.9000;0.6569;1.6497;
127.2000;0.6553;1.6448;
127.5000;0.6561;1.6545;
127.8000;0.6553;1.6448;
128.1000;0.6561;1.6472;
128.4000;0.6561;1.6545;
128.7000;0.6545;1.6521;
129.0000;0.6553;1.6545;
129.3000;0.6528;1.6521;
129.6000;0.6553;1.6497;
129.9000;0.6553;1.6521;
130.2000;0.6569;1.6545;
130.5000;0.6528;1.6374;
130.8000;0.6577;1.6594;
131.1000;0.6602;1.6668;
131.4000;0.6618;1.6717;
131.7000;0.6553;1.6594;
132.0000;0.6545;1.6594;
132.3000;0.6553;1.6570;
132.6000;0.6545;1.6497;
132.9000;0.6561;1.6594;
133.2000;0.6553;1.6643;
133.5000;0.6536;1.6594;
133.8000;0.6577;1.6643;
134.1000;0.6593;1.6594;
134.4000;0.6463;1.6277;
134.7000;0.6545;1.6472;
135.0000;0.6569;1.6594;
135.3000;0.6528;1.6423;
135.6000;0.6536;1.6497;
135.9000;0.6569;1.6594;
136.2000;0.6536;1.6545;
136.5000;0.6553;1.6619;
136.8000;0.6577;1.6668;
137.1000;0.6536;1.6594;
137.4000;0.6536;1.6619;
137.7000;0.6553;1.6643;
138.0000;0.6528;1.6521;
138.3000;0.6593;1.6668;
138.6000;0.6561;1.6643;
138.9000;0.6545;1.6643;
139.2000;0.6585;1.6790;
139.5000;0.6545;1.6717;
139.8000;0.6545;1.6570;
140.1000;0.6536;1.6570;
140.4000;0.6553;1.6521;
140.7000;0.6553;1.6594;
141.0000;0.6553;1.6521;
141.3000;0.6553;1.6472;
141.6000;0.6577;1.6570;
141.9000;0.6610;1.6594;
142.2000;0.6602;1.6521;
142.5000;0.6545;1.6521;
142.8000;0.6561;1.6594;
143.1000;0.6569;1.6619;
143.4000;0.6553;1.6619;
143.7000;0.6528;1.6521;
144.0000;0.6569;1.6497;
144.3000;0.6593;1.6619;
144.6000;0.6585;1.6594;
144.9000;0.6553;1.6545;
145.2000;0.6553;1.6570;
145.5000;0.6569;1.6521;
145.8000;0.6577;1.6472;
146.1000;0.6553;1.6374;
146.4000;0.6553;1.6301;
146.7000;0.6545;1.6399;
147.0000;0.6561;1.6448;
147.3000;0.6561;1.6497;
147.6000;0.6569;1.6570;
147.9000;0.6553;1.6594;
148.2000;0.6545;1.6545;
148.5000;0.6569;1.6545;
148.8000;0.6553;1.6594;
149.1000;0.6569;1.6594;
149.4000;0.6553;1.6521;
149.7000;0.6545;1.6545;
150.0000;0.6545;1.6594;
150.3000;0.6561;1.6594;
150.6000;0.6561;1.6643;
150.9000;0.6536;1.6668;
151.2000;0.6569;1.6741;
151.5000;0.6536;1.6643;
151.8000;0.6553;1.6692;
152.1000;0.6553;1.6717;
152.4000;0.6569;1.6692;
152.7000;0.6496;1.6497;
153.0000;0.6545;1.6619;
153.3000;0.6553;1.6692;
153.6000;0.6545;1.6692;
153.9000;0.6545;1.6545;
154.2000;0.6553;1.6472;
154.5000;0.6585;1.6570;
154.8000;0.6512;1.6350;
155.1000;0.6545;1.6497;
155.4000;0.6536;1.6521;
155.7000;0.6504;1.6521;
156.0000;0.6471;1.6301;
156.3000;0.6561;1.6472;
156.6000;0.6553;1.6399;
156.9000;0.6528;1.6423;
157.2000;0.6553;1.6472;
157.5000;0.6528;1.6497;
157.8000;0.6545;1.6594;
158.1000;0.6569;1.6643;
158.4000;0.6569;1.6643;
158.7000;0.6569;1.6594;
159.0000;0.6569;1.6521;
159.3000;0.6496;1.6374;
159.6000;0.6593;1.6545;
159.9000;0.6593;1.6619;
160.2000;0.6545;1.6619;
160.5000;0.6545;1.6668;
160.8000;0.6553;1.6717;
161.1000;0.6536;1.6643;
161.4000;0.6496;1.6545;
161.7000;0.6528;1.6643;
162.0000;0.6545;1.6717;
162.3000;0.6553;1.6570;
162.6000;0.6536;1.6545;
162.9000;0.6545;1.6423;
163.2000;0.6553;1.6374;
163.5000;0.6553;1.6374;
163.8000;0.6553;1.6399;
164.1000;0.6553;1.6399;
164.4000;0.6545;1.6423;
164.7000;0.6561;1.6472;
165.0000;0.6561;1.6545;
165.3000;0.6553;1.6570;
165.6000;0.6545;1.6668;
165.9000;0.6545;1.6594;
166.2000;0.6545;1.6521;
166.5000;0.6545;1.6497;
166.8000;0.6520;1.6545;
167.1000;0.6536;1.6619;
167.4000;0.6553;1.6570;
167.7000;0.6528;1.6521;
168.0000;0.6553;1.6497;
168.3000;0.6536;1.6423;
168.6000;0.6545;1.6448;
168.9000;0.6536;1.6448;
169.2000;0.6528;1.6545;
169.5000;0.6553;1.6594;
169.8000;0.6545;1.6545;
170.1000;0.6536;1.6472;
170.4000;0.6536;1.6399;
170.7000;0.6536;1.6399;
171.0000;0.6545;1.6374;
171.3000;0.6553;1.6399;
171.6000;0.6553;1.6350;
171.9000;0.6536;1.6277;
172.2000;0.6577;1.6350;
172.5000;0.6561;1.6326;
172.8000;0.6536;1.6252;
173.1000;0.6561;1.6399;
173.4000;0.6536;1.6374;
173.7000;0.6528;1.6399;
174.0000;0.6553;1.6497;
174.3000;0.6545;1.6374;
174.6000;0.6536;1.6423;
174.9000;0.6520;1.6448;
175.2000;0.6536;1.6472;
175.5000;0.6536;1.6472;
175.8000;0.6520;1.6497;
176.1000;0.6545;1.6521;
176.4000;0.6545;1.6594;
176.7000;0.6553;1.6619;
177.0000;0.6536;1.6545;
177.3000;0.6536;1.6545;
177.6000;0.6512;1.6545;
177.9000;0.6553;1.6668;
178.2000;0.6528;1.6619;
178.5000;0.6479;1.6472;
178.8000;0.6553;1.6717;
179.1000;0.6553;1.6643;
179.4000;0.6561;1.6692;
179.7000;0.6553;1.6668;
180.0000;0.6569;1.6765;
180.3000;0.6561;1.6765;
180.6000;0.6504;1.6643;
180.9000;0.6569;1.6765;
181.2000;0.6553;1.6692;
181.5000;0.6447;1.6350;
181.8000;0.6528;1.6497;
182.1000;0.6553;1.6570;
182.4000;0.6536;1.6521;
182.7000;0.6618;1.6643;
183.0000;0.6528;1.6423;
183.3000;0.6569;1.6497;
183.6000;0.6553;1.6521;
183.9000;0.6504;1.6448;
184.2000;0.6512;1.6472;
184.5000;0.6528;1.6619;
184.8000;0.6528;1.6643;
185.1000;0.6553;1.6619;
185.4000;0.6520;1.6497;
185.7000;0.6528;1.6521;
186.0000;0.6553;1.6643;
186.3000;0.6536;1.6545;
186.6000;0.6536;1.6472;
186.9000;0.6536;1.6448;
187.2000;0.6569;1.6570;
187.5000;0.6528;1.6570;
187.8000;0.6528;1.6497;
188.1000;0.6545;1.6570;
188.4000;0.6561;1.6619;
188.7000;0.6545;1.6643;
189.0000;0.6561;1.6619;
189.3000;0.6536;1.6521;
189.6000;0.6545;1.6594;
189.9000;0.6528;1.6570;
190.2000;0.6504;1.6497;
190.5000;0.6528;1.6594;
190.8000;0.6528;1.6619;
191.1000;0.6569;1.6765;
191.4000;0.6528;1.6717;
191.7000;0.6520;1.6643;
192.0000;0.6536;1.6619;
192.3000;0.6536;1.6692;
192.6000;0.6545;1.6692;
192.9000;0.6545;1.6619;
193.2000;0.6536;1.6570;
193.5000;0.6545;1.6594;
193.8000;0.6479;1.6423;
194.1000;0.6520;1.6521;
194.4000;0.6553;1.6643;
194.7000;0.6520;1.6692;
195.0000;0.6520;1.6643;
195.3000;0.6528;1.6668;
195.6000;0.6536;1.6570;
195.9000;0.6520;1.6545;
196.2000;0.6536;1.6570;
196.5000;0.6545;1.6521;
196.8000;0.6536;1.6497;
197.1000;0.6504;1.6399;
197.4000;0.6520;1.6350;
197.7000;0.6536;1.6374;
198.0000;0.6536;1.6399;
198.3000;0.6520;1.6472;
198.6000;0.6561;1.6643;
198.9000;0.6536;1.6643;
199.2000;0.6536;1.6594;
199.5000;0.6545;1.6545;
199.8000;0.6553;1.6594;
200.1000;0.6536;1.6594;
200.4000;0.6536;1.6545;
200.7000;0.6528;1.6472;
201.0000;0.6520;1.6521;
201.3000;0.6528;1.6497;
201.6000;0.6496;1.6374;
201.9000;0.6561;1.6570;
202.2000;0.6520;1.6423;
202.5000;0.6536;1.6374;
202.8000;0.6528;1.6326;
203.1000;0.6536;1.6448;
203.4000;0.6520;1.6545;
203.7000;0.6577;1.6741;
204.0000;0.6528;1.6570;
204.3000;0.6536;1.6570;
204.6000;0.6479;1.6472;
204.9000;0.6512;1.6594;
205.2000;0.6536;1.6643;
205.5000;0.6626;1.6863;
205.8000;0.6512;1.6570;
206.1000;0.6528;1.6497;
206.4000;0.6528;1.6472;
206.7000;0.6455;1.6350;
207.0000;0.6561;1.6643;
207.3000;0.6577;1.6692;
207.6000;0.6520;1.6594;
207.9000;0.6545;1.6668;
208.2000;0.6520;1.6643;
208.5000;0.6536;1.6643;
208.8000;0.6528;1.6668;
209.1000;0.6610;1.6814;
209.4000;0.6520;1.6521;
209.7000;0.6512;1.6545;
210.0000;0.6463;1.6497;
210.3000;0.6520;1.6643;
210.6000;0.6520;1.6619;
210.9000;0.6512;1.6545;
211.2000;0.6512;1.6497;
211.5000;0.6536;1.6668;
211.8000;0.6536;1.6643;
212.1000;0.6520;1.6570;
212.4000;0.6536;1.6521;
212.7000;0.6520;1.6472;
213.0000;0.6545;1.6594;
213.3000;0.6528;1.6619;
213.6000;0.6512;1.6643;
213.9000;0.6512;1.6619;
214.2000;0.6528;1.6570;
214.5000;0.6528;1.6545;
214.8000;0.6520;1.6521;
215.1000;0.6561;1.6545;
215.4000;0.6536;1.6423;
215.7000;0.6536;1.6374;
216.0000;0.6479;1.6179;
216.3000;0.6520;1.6326;
216.6000;0.6512;1.6423;
216.9000;0.6512;1.6472;
217.2000;0.6520;1.6497;
217.5000;0.6528;1.6472;
217.8000;0.6520;1.6521;
218.1000;0.6536;1.6521;
218.4000;0.6528;1.6545;
218.7000;0.6512;1.6545;
219.0000;0.6536;1.6619;
219.3000;0.6618;1.6888;
219.6000;0.6536;1.6668;
219.9000;0.6536;1.6594;
220.2000;0.6520;1.6521;
220.5000;0.6512;1.6497;
220.8000;0.6536;1.6545;
221.1000;0.6536;1.6619;
221.4000;0.6520;1.6594;
221.7000;0.6520;1.6643;
222.0000;0.6520;1.6643;
222.3000;0.6512;1.6594;
222.6000;0.6520;1.6594;
222.9000;0.6536;1.6692;
223.2000;0.6520;1.6692;
223.5000;0.6512;1.6668;
223.8000;0.6528;1.6790;
224.1000;0.6536;1.6814;
224.4000;0.6504;1.6741;
224.7000;0.6528;1.6668;
225.0000;0.6463;1.6423;
225.3000;0.6520;1.6497;
225.6000;0.6528;1.6545;
225.9000;0.6528;1.6619;
226.2000;0.6496;1.6497;
226.5000;0.6512;1.6448;
226.8000;0.6561;1.6521;
227.1000;0.6528;1.6399;
227.4000;0.6504;1.6326;
227.7000;0.6520;1.6301;
228.0000;0.6512;1.6277;
228.3000;0.6528;1.6350;
228.6000;0.6528;1.6326;
228.9000;0.6520;1.6423;
229.2000;0.6528;1.6399;
229.5000;0.6536;1.6423;
229.8000;0.6528;1.6497;
230.1000;0.6536;1.6594;
230.4000;0.6593;1.6717;
230.7000;0.6520;1.6448;
231.0000;0.6512;1.6399;
231.3000;0.6439;1.6252;
231.6000;0.6496;1.6472;
231.9000;0.6520;1.6594;
232.2000;0.6536;1.6643;
232.5000;0.6520;1.6570;
232.8000;0.6512;1.6521;
233.1000;0.6626;1.6888;
233.4000;0.6520;1.6570;
233.7000;0.6512;1.6497;
234.0000;0.6561;1.6643;
234.3000;0.6528;1.6570;
234.6000;0.6528;1.6692;
234.9000;0.6528;1.6741;
235.2000;0.6520;1.6619;
235.5000;0.6520;1.6594;
235.8000;0.6520;1.6594;
236.1000;0.6512;1.6521;
236.4000;0.6512;1.6521;
236.7000;0.6536;1.6521;
237.0000;0.6569;1.6594;
237.3000;0.6520;1.6545;
237.6000;0.6520;1.6545;
237.9000;0.6512;1.6521;
238.2000;0.6536;1.6594;
238.5000;0.6536;1.6594;
238.8000;0.6536;1.6472;
239.1000;0.6553;1.6570;
239.4000;0.6536;1.6570;
239.7000;0.6536;1.6619;
240.0000;0.6520;1.6521;
240.3000;0.6536;1.6545;
240.6000;0.6520;1.6423;
240.9000;0.6528;1.6497;
241.2000;0.6520;1.6497;
241.5000;0.6545;1.6545;
241.8000;0.6561;1.6692;
242.1000;0.6545;1.6790;
242.4000;0.6512;1.6692;
242.7000;0.6496;1.6692;
243.0000;0.6553;1.6741;
243.3000;0.6528;1.6594;
243.6000;0.6520;1.6521;
243.9000;0.6504;1.6497;
244.2000;0.6512;1.6570;
244.5000;0.6504;1.6545;
244.8000;0.6496;1.6570;
245.1000;0.6520;1.6643;
245.4000;0.6520;1.6570;
245.7000;0.6496;1.6594;
246.0000;0.6512;1.6545;
246.3000;0.6512;1.6594;
246.6000;0.6536;1.6619;
246.9000;0.6496;1.6594;
247.2000;0.6512;1.6643;
247.5000;0.6496;1.6570;
247.8000;0.6504;1.6668;
248.1000;0.6488;1.6619;
248.4000;0.6447;1.6521;
248.7000;0.6528;1.6692;
249.0000;0.6512;1.6594;
249.3000;0.6504;1.6570;
249.6000;0.6520;1.6545;
249.9000;0.6545;1.6594;
250.2000;0.6504;1.6594;
250.5000;0.6504;1.6668;
250.8000;0.6471;1.6594;
251.1000;0.6512;1.6668;
251.4000;0.6569;1.6765;
251.7000;0.6496;1.6570;
252.0000;0.6512;1.6545;
252.3000;0.6553;1.6692;
252.6000;0.6520;1.6643;
252.9000;0.6545;1.6765;
253.2000;0.6496;1.6668;
253.5000;0.6512;1.6790;
253.8000;0.6545;1.6741;
254.1000;0.6496;1.6594;
254.4000;0.6512;1.6619;
254.7000;0.6512;1.6594;
255.0000;0.6528;1.6619;
255.3000;0.6447;1.6570;
255.6000;0.6504;1.6717;
255.9000;0.6488;1.6741;
256.2000;0.6496;1.6790;
256.5000;0.6504;1.6741;
256.8000;0.6447;1.6619;
257.1000;0.6512;1.6717;
257.4000;0.6504;1.6619;
257.7000;0.6504;1.6545;
258.0000;0.6496;1.6521;
258.3000;0.6561;1.6619;
258.6000;0.6504;1.6521;
258.9000;0.6512;1.6521;
259.2000;0.6512;1.6497;
259.5000;0.6528;1.6423;
259.8000;0.6520;1.6472;
260.1000;0.6536;1.6570;
260.4000;0.6504;1.6423;
260.7000;0.6512;1.6521;
261.0000;0.6545;1.6570;
261.3000;0.6528;1.6643;
261.6000;0.6512;1.6570;
261.9000;0.6536;1.6594;
262.2000;0.6528;1.6594;
262.5000;0.6520;1.6643;
262.8000;0.6512;1.6619;
263.1000;0.6528;1.6619;
263.4000;0.6512;1.6545;
263.7000;0.6479;1.6399;
264.0000;0.6512;1.6497;
264.3000;0.6496;1.6448;
264.6000;0.6422;1.6326;
264.9000;0.6512;1.6521;
265.2000;0.6504;1.6497;
265.5000;0.6488;1.6497;
265.8000;0.6553;1.6741;
266.1000;0.6504;1.6619;
266.4000;0.6504;1.6668;
266.7000;0.6496;1.6619;
267.0000;0.6496;1.6619;
267.3000;0.6536;1.6643;
267.6000;0.6520;1.6619;
267.9000;0.6520;1.6643;
268.2000;0.6488;1.6717;
268.5000;0.6520;1.6839;
268.8000;0.6512;1.6814;
269.1000;0.6455;1.6741;
269.4000;0.6479;1.6863;
269.7000;0.6512;1.6863;
270.0000;0.6463;1.6839;
270.3000;0.6471;1.6936;
270.6000;0.6488;1.6839;
270.9000;0.6463;1.6741;
271.2000;0.6496;1.6741;
271.5000;0.6422;1.6521;
271.8000;0.6496;1.6790;
272.1000;0.6488;1.6741;
272.4000;0.6536;1.6888;
272.7000;0.6447;1.6717;
273.0000;0.6504;1.6741;
273.3000;0.6512;1.6619;
273.6000;0.6536;1.6594;
273.9000;0.6528;1.6521;
274.2000;0.6496;1.6448;
274.5000;0.6504;1.6521;
274.8000;0.6496;1.6545;
275.1000;0.6520;1.6668;
275.4000;0.6512;1.6619;
275.7000;0.6496;1.6594;
276.0000;0.6479;1.6594;
276.3000;0.6471;1.6619;
276.6000;0.6504;1.6643;
276.9000;0.6431;1.6423;
277.2000;0.6496;1.6717;
277.5000;0.6512;1.6692;
277.8000;0.6512;1.6643;
278.1000;0.6536;1.6741;
278.4000;0.6512;1.6643;
278.7000;0.6512;1.6717;
279.0000;0.6512;1.6765;
279.3000;0.6488;1.6741;
279.6000;0.6496;1.6692;
279.9000;0.6496;1.6668;
280.2000;0.6488;1.6668;
280.5000;0.6504;1.6668;
280.8000;0.6488;1.6668;
281.1000;0.6471;1.6668;
281.4000;0.6496;1.6594;
281.7000;0.6455;1.6423;
282.0000;0.6520;1.6570;
282.3000;0.6520;1.6545;
282.6000;0.6520;1.6545;
282.9000;0.6512;1.6521;
283.2000;0.6520;1.6594;
283.5000;0.6488;1.6545;
283.8000;0.6488;1.6497;
284.1000;0.6528;1.6594;
284.4000;0.6504;1.6643;
284.7000;0.6463;1.6521;
285.0000;0.6512;1.6643;
285.3000;0.6520;1.6619;
285.6000;0.6504;1.6570;
285.9000;0.6520;1.6594;
286.2000;0.6504;1.6570;
286.5000;0.6520;1.6668;
286.8000;0.6504;1.6643;
287.1000;0.6488;1.6545;
287.4000;0.6479;1.6619;
287.7000;0.6422;1.6472;
288.0000;0.6520;1.6717;
288.3000;0.6496;1.6765;
288.6000;0.6471;1.6692;
288.9000;0.6512;1.6765;
289.2000;0.6520;1.6790;
289.5000;0.6471;1.6619;
289.8000;0.6504;1.6692;
290.1000;0.6496;1.6692;
290.4000;0.6504;1.6668;
290.7000;0.6504;1.6643;
291.0000;0.6496;1.6619;
291.3000;0.6463;1.6570;
291.6000;0.6488;1.6619;
291.9000;0.6504;1.6594;
292.2000;0.6488;1.6545;
292.5000;0.6528;1.6643;
292.8000;0.6504;1.6521;
293.1000;0.6496;1.6545;
293.4000;0.6520;1.6668;
293.7000;0.6504;1.6668;
294.0000;0.6488;1.6741;
294.3000;0.6471;1.6643;
294.6000;0.6488;1.6668;
294.9000;0.6488;1.6692;
295.2000;0.6504;1.6765;
295.5000;0.6512;1.6863;
295.8000;0.6471;1.6692;
296.1000;0.6471;1.6765;
296.4000;0.6471;1.6741;
296.7000;0.6439;1.6668;
297.0000;0.6496;1.6912;
297.3000;0.6479;1.6863;
297.6000;0.6488;1.6814;
297.9000;0.6447;1.6741;
298.2000;0.6512;1.6888;
298.5000;0.6504;1.6863;
298.8000;0.6488;1.6863;
299.1000;0.6479;1.6790;
299.4000;0.6504;1.6839;
299.7000;0.6496;1.6888;
300.0000;0.6447;1.6692;
300.3000;0.6479;1.6765;
300.6000;0.6496;1.6839;
300.9000;0.6512;1.6814;
301.2000;0.6479;1.6814;
301.5000;0.6479;1.6765;
301.8000;0.6471;1.6741;
302.1000;0.6488;1.6643;
302.4000;0.6471;1.6521;
302.7000;0.6504;1.6521;
303.0000;0.6479;1.6570;
303.3000;0.6504;1.6594;
303.6000;0.6479;1.6570;
303.9000;0.6455;1.6619;
304.2000;0.6471;1.6668;
304.5000;0.6488;1.6619;
304.8000;0.6463;1.6594;
305.1000;0.6488;1.6643;
305.4000;0.6471;1.6570;
305.7000;0.6479;1.6594;
306.0000;0.6479;1.6619;
306.3000;0.6479;1.6570;
306.6000;0.6479;1.6619;
306.9000;0.6479;1.6619;
307.2000;0.6488;1.6668;
307.5000;0.6488;1.6668;
307.8000;0.6479;1.6741;
308.1000;0.6479;1.6717;
308.4000;0.6488;1.6790;
308.7000;0.6463;1.6668;
309.0000;0.6488;1.6717;
309.3000;0.6479;1.6765;
309.6000;0.6496;1.6790;
309.9000;0.6504;1.6790;
310.2000;0.6496;1.6741;
310.5000;0.6488;1.6692;
310.8000;0.6479;1.6619;
311.1000;0.6496;1.6497;
311.4000;0.6496;1.6521;
311.7000;0.6479;1.6497;
312.0000;0.6512;1.6594;
312.3000;0.6447;1.6423;
312.6000;0.6496;1.6521;
312.9000;0.6504;1.6643;
313.2000;0.6496;1.6594;
313.5000;0.6553;1.6717;
313.8000;0.6463;1.6472;
314.1000;0.6479;1.6423;
314.4000;0.6479;1.6423;
314.7000;0.6488;1.6545;
315.0000;0.6471;1.6594;
315.3000;0.6488;1.6668;
315.6000;0.6504;1.6668;
315.9000;0.6479;1.6643;
316.2000;0.6528;1.6814;
316.5000;0.6488;1.6643;
316.8000;0.6471;1.6497;
317.1000;0.6512;1.6594;
317.4000;0.6496;1.6521;
317.7000;0.6471;1.6399;
318.0000;0.6471;1.6423;
318.3000;0.6463;1.6374;
318.6000;0.6488;1.6448;
318.9000;0.6479;1.6423;
319.2000;0.6488;1.6374;
319.5000;0.6496;1.6399;
319.8000;0.6488;1.6448;
320.1000;0.6463;1.6399;
320.4000;0.6479;1.6374;
320.7000;0.6520;1.6423;
321.0000;0.6479;1.6301;
321.3000;0.6504;1.6399;
321.6000;0.6471;1.6350;
321.9000;0.6488;1.6423;
322.2000;0.6504;1.6619;
322.5000;0.6488;1.6545;
322.8000;0.6463;1.6448;
323.1000;0.6488;1.6399;
323.4000;0.6471;1.6448;
323.7000;0.6504;1.6472;
324.0000;0.6512;1.6472;
324.3000;0.6463;1.6448;
324.6000;0.6488;1.6619;
324.9000;0.6496;1.6619;
325.2000;0.6471;1.6545;
325.5000;0.6488;1.6643;
325.8000;0.6479;1.6594;
326.1000;0.6447;1.6472;
326.4000;0.6488;1.6643;
326.7000;0.6488;1.6692;
327.0000;0.6471;1.6668;
327.3000;0.6455;1.6570;
327.6000;0.6471;1.6570;
327.9000;0.6479;1.6545;
328.2000;0.6455;1.6594;
328.5000;0.6463;1.6570;
328.8000;0.6471;1.6521;
329.1000;0.6463;1.6374;
329.4000;0.6496;1.6374;
329.7000;0.6488;1.6399;
330.0000;0.6512;1.6497;
330.3000;0.6471;1.6448;
330.6000;0.6447;1.6497;
330.9000;0.6471;1.6497;
331.2000;0.6398;1.6350;
331.5000;0.6471;1.6472;
331.8000;0.6488;1.6497;
332.1000;0.6374;1.6179;
332.4000;0.6512;1.6472;
332.7000;0.6471;1.6374;
333.0000;0.6414;1.6252;
333.3000;0.6488;1.6472;
333.6000;0.6479;1.6423;
333.9000;0.6520;1.6497;
334.2000;0.6479;1.6423;
334.5000;0.6463;1.6472;
334.8000;0.6479;1.6545;
335.1000;0.6504;1.6643;
335.4000;0.6471;1.6619;
335.7000;0.6479;1.6668;
336.0000;0.6300;1.6203;
336.3000;0.6479;1.6717;
336.6000;0.6504;1.6717;
336.9000;0.6471;1.6692;
337.2000;0.6512;1.6814;
337.5000;0.6496;1.6765;
337.8000;0.6479;1.6717;
338.1000;0.6471;1.6717;
338.4000;0.6463;1.6741;
338.7000;0.6471;1.6790;
339.0000;0.6431;1.6619;
339.3000;0.6463;1.6545;
339.6000;0.6479;1.6594;
339.9000;0.6479;1.6619;
340.2000;0.6463;1.6643;
340.5000;0.6496;1.6668;
340.8000;0.6471;1.6717;
341.1000;0.6455;1.6692;
341.4000;0.6479;1.6717;
341.7000;0.6479;1.6692;
342.0000;0.6488;1.6643;
342.3000;0.6488;1.6692;
342.6000;0.6488;1.6717;
342.9000;0.6471;1.6668;
343.2000;0.6455;1.6668;
343.5000;0.6471;1.6692;
343.8000;0.6496;1.6717;
344.1000;0.6463;1.6668;
344.4000;0.6471;1.6790;
344.7000;0.6479;1.6765;
345.0000;0.6463;1.6692;
345.3000;0.6463;1.6643;
345.6000;0.6463;1.6692;
345.9000;0.6479;1.6717;
346.2000;0.6471;1.6643;
346.5000;0.6479;1.6594;
346.8000;0.6512;1.6643;
347.1000;0.6496;1.6521;
347.4000;0.6471;1.6521;
347.7000;0.6479;1.6472;
348.0000;0.6479;1.6594;
348.3000;0.6471;1.6521;
348.6000;0.6471;1.6545;
348.9000;0.6471;1.6643;
349.2000;0.6471;1.6643;
349.5000;0.6455;1.6521;
349.8000;0.6479;1.6765;
350.1000;0.6496;1.6814;
350.4000;0.6471;1.6839;
350.7000;0.6479;1.6912;
351.0000;0.6488;1.6912;
351.3000;0.6488;1.6839;
351.6000;0.6455;1.6765;
351.9000;0.6439;1.6643;
352.2000;0.6439;1.6692;
352.5000;0.6463;1.6717;
352.8000;0.6463;1.6692;
353.1000;0.6455;1.6570;
353.4000;0.6463;1.6668;
353.7000;0.6471;1.6717;
354.0000;0.6479;1.6765;
354.3000;0.6463;1.6765;
354.6000;0.6447;1.6717;
354.9000;0.6471;1.6790;
355.2000;0.6479;1.6863;
355.5000;0.6496;1.6814;
355.8000;0.6471;1.6814;
356.1000;0.6520;1.6912;
356.4000;0.6488;1.6717;
356.7000;0.6488;1.6717;
357.0000;0.6471;1.6741;
357.3000;0.6471;1.6668;
357.6000;0.6504;1.6839;
357.9000;0.6496;1.6839;
358.2000;0.6439;1.6741;
358.5000;0.6488;1.6790;
358.8000;0.6528;1.6961;
359.1000;0.6463;1.6692;
359.4000;0.6479;1.6765;
359.7000;0.6471;1.6717;
360.0000;0.6479;1.6668;
360.3000;0.6504;1.6765;
360.6000;0.6561;1.6912;
360.9000;0.6463;1.6545;
361.2000;0.6479;1.6570;
361.5000;0.6455;1.6497;
361.8000;0.6455;1.6521;
362.1000;0.6439;1.6570;
362.4000;0.6447;1.6570;
362.7000;0.6439;1.6521;
363.0000;0.6471;1.6692;
363.3000;0.6390;1.6448;
363.6000;0.6463;1.6717;
363.9000;0.6463;1.6643;
364.2000;0.6504;1.6741;
364.5000;0.6545;1.6790;
364.8000;0.6471;1.6594;
365.1000;0.6422;1.6521;
365.4000;0.6488;1.6741;
365.7000;0.6479;1.6741;
366.0000;0.6455;1.6765;
366.3000;0.6471;1.6741;
366.6000;0.6390;1.6448;
366.9000;0.6471;1.6717;
367.2000;0.6520;1.6839;
367.5000;0.6512;1.6814;
367.8000;0.6471;1.6790;
368.1000;0.6431;1.6692;
368.4000;0.6447;1.6717;
368.7000;0.6471;1.6790;
369.0000;0.6471;1.6765;
369.3000;0.6406;1.6594;
369.6000;0.6463;1.6668;
369.9000;0.6463;1.6741;
370.2000;0.6471;1.6741;
370.5000;0.6463;1.6741;
370.8000;0.6479;1.6741;
371.1000;0.6463;1.6765;
371.4000;0.6439;1.6765;
371.7000;0.6463;1.6863;
372.0000;0.6447;1.6839;
372.3000;0.6447;1.6839;
372.6000;0.6455;1.6888;
372.9000;0.6463;1.6765;
373.2000;0.6455;1.6668;
373.5000;0.6463;1.6692;
373.8000;0.6479;1.6741;
374.1000;0.6471;1.6717;
374.4000;0.6455;1.6643;
374.7000;0.6463;1.6619;
375.0000;0.6463;1.6545;
375.3000;0.6447;1.6423;
375.6000;0.6471;1.6497;
375.9000;0.6471;1.6545;
376.2000;0.6471;1.6545;
376.5000;0.6463;1.6570;
376.8000;0.6455;1.6521;
377.1000;0.6455;1.6521;
377.4000;0.6471;1.6497;
377.7000;0.6463;1.6545;
378.0000;0.6528;1.6717;
378.3000;0.6561;1.6863;
378.6000;0.6455;1.6594;
378.9000;0.6463;1.6619;
379.2000;0.6479;1.6643;
379.5000;0.6471;1.6594;
379.8000;0.6520;1.6619;
380.1000;0.6479;1.6545;
380.4000;0.6471;1.6619;
380.7000;0.6471;1.6741;
381.0000;0.6463;1.6692;
381.3000;0.6463;1.6741;
381.6000;0.6471;1.6765;
381.9000;0.6463;1.6790;
382.2000;0.6463;1.6741;
382.5000;0.6479;1.6790;
382.8000;0.6447;1.6717;
383.1000;0.6479;1.6717;
383.4000;0.6447;1.6570;
383.7000;0.6471;1.6594;
384.0000;0.6479;1.6692;
384.3000;0.6463;1.6643;
384.6000;0.6447;1.6619;
384.9000;0.6439;1.6545;
385.2000;0.6447;1.6545;
385.5000;0.6479;1.6692;
385.8000;0.6471;1.6717;
386.1000;0.6471;1.6790;
386.4000;0.6455;1.6668;
386.7000;0.6414;1.6497;
387.0000;0.6439;1.6570;
387.3000;0.6431;1.6521;
387.6000;0.6422;1.6497;
387.9000;0.6455;1.6570;
388.2000;0.6439;1.6497;
388.5000;0.6545;1.6790;
388.8000;0.6455;1.6741;
389.1000;0.6447;1.6790;
389.4000;0.6488;1.6863;
389.7000;0.6471;1.6839;
390.0000;0.6431;1.6668;
390.3000;0.6488;1.6717;
390.6000;0.6422;1.6472;
390.9000;0.6447;1.6521;
391.2000;0.6471;1.6521;
391.5000;0.6471;1.6521;
391.8000;0.6553;1.6790;
392.1000;0.6463;1.6619;
392.4000;0.6463;1.6692;
392.7000;0.6455;1.6668;
393.0000;0.6463;1.6717;
393.3000;0.6479;1.6839;
393.6000;0.6455;1.6790;
393.9000;0.6463;1.6814;
394.2000;0.6455;1.6765;
394.5000;0.6471;1.6814;
394.8000;0.6447;1.6814;
395.1000;0.6447;1.6741;
395.4000;0.6439;1.6668;
395.7000;0.6447;1.6692;
396.0000;0.6455;1.6717;
396.3000;0.6439;1.6717;
396.6000;0.6431;1.6717;
396.9000;0.6447;1.6790;
397.2000;0.6439;1.6717;
397.5000;0.6455;1.6765;
397.8000;0.6439;1.6643;
398.1000;0.6455;1.6692;
398.4000;0.6447;1.6668;
398.7000;0.6439;1.6619;
399.0000;0.6439;1.6594;
399.3000;0.6455;1.6594;
399.6000;0.6455;1.6643;
399.9000;0.6463;1.6643;
400.2000;0.6439;1.6570;
400.5000;0.6422;1.6643;
400.8000;0.6447;1.6692;
401.1000;0.6463;1.6790;
401.4000;0.6422;1.6692;
401.7000;0.6447;1.6741;
402.0000;0.6439;1.6790;
402.3000;0.6431;1.6814;
402.6000;0.6479;1.6863;
402.9000;0.6455;1.6888;
403.2000;0.6439;1.6912;
403.5000;0.6463;1.7010;
403.8000;0.6463;1.6888;
404.1000;0.6455;1.6814;
404.4000;0.6455;1.6863;
404.7000;0.6398;1.6741;
405.0000;0.6471;1.6814;
405.3000;0.6463;1.6717;
405.6000;0.6447;1.6668;
405.9000;0.6447;1.6643;
406.2000;0.6455;1.6717;
406.5000;0.6447;1.6668;
406.8000;0.6431;1.6668;
407.1000;0.6447;1.6692;
407.4000;0.6439;1.6741;
407.7000;0.6447;1.6717;
408.0000;0.6447;1.6643;
408.3000;0.6431;1.6545;
408.6000;0.6431;1.6521;
408.9000;0.6447;1.6570;
409.2000;0.6439;1.6497;
409.5000;0.6439;1.6423;
409.8000;0.6422;1.6423;
410.1000;0.6455;1.6545;
410.4000;0.6439;1.6448;
410.7000;0.6439;1.6423;
411.0000;0.6455;1.6448;
411.3000;0.6463;1.6472;
411.6000;0.6455;1.6497;
411.9000;0.6447;1.6521;
412.2000;0.6447;1.6668;
412.5000;0.6471;1.6765;
412.8000;0.6414;1.6668;
413.1000;0.6439;1.6717;
413.4000;0.6439;1.6741;
413.7000;0.6463;1.6790;
414.0000;0.6463;1.6888;
414.3000;0.6431;1.6765;
414.6000;0.6447;1.6790;
414.9000;0.6455;1.6863;
415.2000;0.6463;1.6839;
415.5000;0.6447;1.6717;
415.8000;0.6463;1.6692;
416.1000;0.6463;1.6594;
416.4000;0.6447;1.6472;
416.7000;0.6455;1.6521;
417.0000;0.6447;1.6545;
417.3000;0.6439;1.6497;
417.6000;0.6431;1.6472;
417.9000;0.6439;1.6521;
418.2000;0.6447;1.6619;
418.5000;0.6431;1.6619;
418.8000;0.6439;1.6692;
419.1000;0.6447;1.6717;
419.4000;0.6398;1.6594;
419.7000;0.6439;1.6741;
420.0000;0.6422;1.6765;
420.3000;0.6431;1.6692;
420.6000;0.6431;1.6668;
420.9000;0.6463;1.6692;
421.2000;0.6455;1.6741;
421.5000;0.6439;1.6643;
421.8000;0.6431;1.6570;
422.1000;0.6431;1.6619;
422.4000;0.6414;1.6521;
422.7000;0.6455;1.6619;
423.0000;0.6447;1.6594;
423.3000;0.6447;1.6545;
423.6000;0.6447;1.6521;
423.9000;0.6479;1.6521;
424.2000;0.6463;1.6497;
424.5000;0.6463;1.6545;
424.8000;0.6463;1.6570;
425.1000;0.6471;1.6619;
425.4000;0.6471;1.6692;
425.7000;0.6471;1.6643;
426.0000;0.6447;1.6570;
426.3000;0.6471;1.6594;
426.6000;0.6479;1.6545;
426.9000;0.6447;1.6399;
427.2000;0.6447;1.6448;
427.5000;0.6431;1.6423;
427.8000;0.6447;1.6423;
428.1000;0.6447;1.6497;
428.4000;0.6439;1.6448;
428.7000;0.6431;1.6399;
429.0000;0.6455;1.6448;
429.3000;0.6431;1.6399;
429.6000;0.6447;1.6448;
429.9000;0.6439;1.6521;
430.2000;0.6447;1.6423;
430.5000;0.6431;1.6448;
430.8000;0.6447;1.6448;
431.1000;0.6439;1.6374;
431.4000;0.6439;1.6472;
431.7000;0.6439;1.6472;
432.0000;0.6406;1.6448;
432.3000;0.6431;1.6448;
432.6000;0.6439;1.6497;
432.9000;0.6431;1.6570;
433.2000;0.6431;1.6594;
433.5000;0.6431;1.6545;
433.8000;0.6447;1.6545;
434.1000;0.6455;1.6570;
434.4000;0.6463;1.6594;
434.7000;0.6439;1.6521;
435.0000;0.6447;1.6521;
435.3000;0.6447;1.6570;
435.6000;0.6431;1.6594;
435.9000;0.6414;1.6570;
436.2000;0.6439;1.6570;
436.5000;0.6471;1.6619;
436.8000;0.6422;1.6570;
437.1000;0.6447;1.6570;
437.4000;0.6455;1.6594;
437.7000;0.6447;1.6692;
438.0000;0.6455;1.6692;
438.3000;0.6479;1.6765;
438.6000;0.6439;1.6765;
438.9000;0.6447;1.6912;
439.2000;0.6471;1.6912;
439.5000;0.6447;1.6912;
439.8000;0.6447;1.6961;
440.1000;0.6447;1.6961;
440.4000;0.6447;1.6912;
440.7000;0.6439;1.6863;
441.0000;0.6414;1.6790;
441.3000;0.6414;1.6741;
441.6000;0.6447;1.6692;
441.9000;0.6431;1.6643;
442.2000;0.6431;1.6643;
442.5000;0.6414;1.6594;
442.8000;0.6431;1.6619;
443.1000;0.6439;1.6643;
443.4000;0.6406;1.6643;
443.7000;0.6447;1.6765;
444.0000;0.6431;1.6717;
444.3000;0.6455;1.6741;
444.6000;0.6447;1.6717;
444.9000;0.6431;1.6692;
445.2000;0.6471;1.6717;
445.5000;0.6463;1.6643;
445.8000;0.6455;1.6545;
446.1000;0.6431;1.6497;
446.4000;0.6455;1.6643;
446.7000;0.6447;1.6668;
447.0000;0.6431;1.6570;
447.3000;0.6422;1.6497;
447.6000;0.6439;1.6570;
447.9000;0.6447;1.6668;
448.2000;0.6447;1.6717;
448.5000;0.6447;1.6741;
448.8000;0.6463;1.6741;
449.1000;0.6455;1.6668;
449.4000;0.6455;1.6497;
449.7000;0.6439;1.6423;
450.0000;0.6447;1.6399;
450.3000;0.6479;1.6570;
450.6000;0.6439;1.6545;
450.9000;0.6455;1.6570;
451.2000;0.6390;1.6448;
451.5000;0.6422;1.6448;
451.8000;0.6455;1.6472;
452.1000;0.6374;1.6374;
452.4000;0.6431;1.6570;
452.7000;0.6439;1.6619;
453.0000;0.6382;1.6472;
453.3000;0.6447;1.6643;
453.6000;0.6406;1.6619;
453.9000;0.6439;1.6619;
454.2000;0.6447;1.6643;
454.5000;0.6431;1.6643;
454.8000;0.6455;1.6765;
455.1000;0.6439;1.6692;
455.4000;0.6455;1.6765;
455.7000;0.6422;1.6741;
456.0000;0.6431;1.6668;
456.3000;0.6439;1.6619;
456.6000;0.6422;1.6570;
456.9000;0.6447;1.6594;
457.2000;0.6488;1.6594;
457.5000;0.6431;1.6374;
457.8000;0.6447;1.6277;
458.1000;0.6447;1.6277;
458.4000;0.6439;1.6228;
458.7000;0.6414;1.6277;
459.0000;0.6455;1.6472;
459.3000;0.6447;1.6423;
459.6000;0.6488;1.6521;
459.9000;0.6447;1.6350;
460.2000;0.6422;1.6326;
460.5000;0.6422;1.6374;
460.8000;0.6431;1.6472;
461.1000;0.6447;1.6521;
461.4000;0.6431;1.6570;
461.7000;0.6447;1.6668;
462.0000;0.6414;1.6545;
462.3000;0.6439;1.6545;
462.6000;0.6463;1.6619;
462.9000;0.6439;1.6521;
463.2000;0.6439;1.6521;
463.5000;0.6422;1.6521;
463.8000;0.6406;1.6423;
464.1000;0.6447;1.6545;
464.4000;0.6439;1.6594;
464.7000;0.6447;1.6619;
465.0000;0.6431;1.6692;
465.3000;0.6422;1.6643;
465.6000;0.6439;1.6668;
465.9000;0.6422;1.6668;
466.2000;0.6390;1.6570;
466.5000;0.6431;1.6741;
466.8000;0.6431;1.6765;
467.1000;0.6447;1.6790;
467.4000;0.6414;1.6741;
467.7000;0.6431;1.6790;
468.0000;0.6422;1.6741;
468.3000;0.6439;1.6717;
468.6000;0.6447;1.6814;
468.9000;0.6406;1.6790;
469.2000;0.6431;1.6790;
469.5000;0.6431;1.6814;
469.8000;0.6512;1.7059;
470.1000;0.6422;1.6814;
470.4000;0.6414;1.6765;
470.7000;0.6422;1.6765;
471.0000;0.6422;1.6839;
471.3000;0.6422;1.6790;
471.6000;0.6447;1.6814;
471.9000;0.6447;1.6790;
472.2000;0.6439;1.6765;
472.5000;0.6431;1.6692;
472.8000;0.6390;1.6521;
473.1000;0.6479;1.6741;
473.4000;0.6455;1.6765;
473.7000;0.6471;1.6863;
474.0000;0.6447;1.6839;
474.3000;0.6431;1.6863;
474.6000;0.6431;1.6839;
474.9000;0.6439;1.6790;
475.2000;0.6463;1.6741;
475.5000;0.6431;1.6692;
475.8000;0.6439;1.6717;
476.1000;0.6422;1.6692;
476.4000;0.6439;1.6741;
476.7000;0.6439;1.6741;
477.0000;0.6422;1.6692;
477.3000;0.6431;1.6741;
477.6000;0.6431;1.6741;
477.9000;0.6447;1.6717;
478.2000;0.6512;1.6814;
478.5000;0.6439;1.6717;
478.8000;0.6439;1.6790;
479.1000;0.6447;1.6741;
479.4000;0.6439;1.6741;
479.7000;0.6439;1.6790;
480.0000;0.6439;1.6814;
480.3000;0.6422;1.6790;
480.6000;0.6439;1.6741;
480.9000;0.6447;1.6717;
481.2000;0.6455;1.6790;
481.5000;0.6431;1.6692;
481.8000;0.6431;1.6668;
482.1000;0.6447;1.6765;
482.4000;0.6414;1.6668;
482.7000;0.6422;1.6765;
483.0000;0.6382;1.6717;
483.3000;0.6439;1.6790;
483.6000;0.6488;1.6863;
483.9000;0.6422;1.6668;
484.2000;0.6488;1.6741;
484.5000;0.6455;1.6594;
484.8000;0.6447;1.6619;
485.1000;0.6447;1.6570;
485.4000;0.6422;1.6594;
485.7000;0.6439;1.6643;
486.0000;0.6406;1.6619;
486.3000;0.6431;1.6594;
486.6000;0.6422;1.6643;
486.9000;0.6390;1.6643;
487.2000;0.6431;1.6765;
487.5000;0.6455;1.6790;
487.8000;0.6431;1.6790;
488.1000;0.6447;1.6790;
488.4000;0.6439;1.6741;
488.7000;0.6422;1.6692;
489.0000;0.6431;1.6717;
489.3000;0.6431;1.6741;
489.6000;0.6406;1.6717;
489.9000;0.6422;1.6717;
490.2000;0.6422;1.6692;
490.5000;0.6414;1.6668;
490.8000;0.6398;1.6619;
491.1000;0.6439;1.6741;
491.4000;0.6439;1.6814;
491.7000;0.6431;1.6839;
492.0000;0.6414;1.6814;
492.3000;0.6422;1.6839;
492.6000;0.6406;1.6741;
492.9000;0.6414;1.6717;
493.2000;0.6398;1.6643;
493.5000;0.6422;1.6692;
493.8000;0.6422;1.6717;
494.1000;0.6422;1.6692;
494.4000;0.6414;1.6668;
494.7000;0.6455;1.6717;
495.0000;0.6439;1.6668;
495.3000;0.6422;1.6643;
495.6000;0.6431;1.6497;
495.9000;0.6422;1.6497;
496.2000;0.6471;1.6570;
496.5000;0.6431;1.6521;
496.8000;0.6414;1.6448;
497.1000;0.6431;1.6545;
497.4000;0.6439;1.6717;
497.7000;0.6422;1.6717;
498.0000;0.6414;1.6741;
498.3000;0.6447;1.6888;
498.6000;0.6382;1.6717;
498.9000;0.6422;1.6912;
499.2000;0.6463;1.6985;
499.5000;0.6414;1.6839;
499.8000;0.6439;1.6814;
500.1000;0.6447;1.6839;
500.4000;0.6414;1.6765;
500.7000;0.6431;1.6692;
501.0000;0.6431;1.6692;
501.3000;0.6414;1.6717;
501.6000;0.6414;1.6668;
501.9000;0.6398;1.6643;
502.2000;0.6422;1.6570;
502.5000;0.6398;1.6448;
502.8000;0.6422;1.6521;
503.1000;0.6414;1.6448;
503.4000;0.6422;1.6472;
503.7000;0.6431;1.6472;
504.0000;0.6406;1.6521;
504.3000;0.6414;1.6521;
504.6000;0.6439;1.6643;
504.9000;0.6422;1.6570;
505.2000;0.6431;1.6570;
505.5000;0.6406;1.6448;
505.8000;0.6447;1.6594;
506.1000;0.6422;1.6619;
506.4000;0.6431;1.6570;
506.7000;0.6414;1.6570;
507.0000;0.6349;1.6472;
507.3000;0.6431;1.6594;
507.6000;0.6439;1.6643;
507.9000;0.6439;1.6717;
508.2000;0.6414;1.6643;
508.5000;0.6439;1.6643;
508.8000;0.6447;1.6668;
509.1000;0.6439;1.6594;
509.4000;0.6349;1.6350;
509.7000;0.6439;1.6619;
510.0000;0.6431;1.6643;
510.3000;0.6439;1.6717;
510.6000;0.6398;1.6594;
510.9000;0.6422;1.6643;
511.2000;0.6431;1.6619;
511.5000;0.6455;1.6717;
511.8000;0.6422;1.6643;
512.1000;0.6422;1.6643;
512.4000;0.6414;1.6570;
512.7000;0.6414;1.6570;
513.0000;0.6422;1.6472;
513.3000;0.6414;1.6399;
513.6000;0.6439;1.6497;
513.9000;0.6414;1.6448;
514.2000;0.6439;1.6545;
514.5000;0.6431;1.6448;
514.8000;0.6431;1.6423;
515.1000;0.6431;1.6545;
515.4000;0.6439;1.6619;
515.7000;0.6398;1.6619;
516.0000;0.6414;1.6619;
516.3000;0.6422;1.6668;
516.6000;0.6439;1.6692;
516.9000;0.6414;1.6619;
517.2000;0.6447;1.6619;
517.5000;0.6382;1.6521;
517.8000;0.6431;1.6668;
518.1000;0.6406;1.6594;
518.4000;0.6414;1.6643;
518.7000;0.6390;1.6668;
519.0000;0.6439;1.6741;
519.3000;0.6471;1.6863;
519.6000;0.6406;1.6594;
519.9000;0.6398;1.6692;
520.2000;0.6431;1.6814;
520.5000;0.6382;1.6717;
520.8000;0.6414;1.6741;
521.1000;0.6422;1.6765;
521.4000;0.6422;1.6790;
521.7000;0.6439;1.6741;
522.0000;0.6431;1.6814;
522.3000;0.6422;1.6863;
522.6000;0.6406;1.6765;
522.9000;0.6422;1.6814;
523.2000;0.6414;1.6717;
523.5000;0.6414;1.6692;
523.8000;0.6422;1.6619;
524.1000;0.6431;1.6594;
524.4000;0.6406;1.6570;
524.7000;0.6422;1.6594;
525.0000;0.6406;1.6570;
525.3000;0.6406;1.6570;
525.6000;0.6406;1.6570;
525.9000;0.6422;1.6594;
526.2000;0.6406;1.6521;
526.5000;0.6422;1.6619;
526.8000;0.6431;1.6619;
527.1000;0.6422;1.6594;
527.4000;0.6406;1.6570;
527.7000;0.6414;1.6545;
528.0000;0.6431;1.6619;
528.3000;0.6439;1.6692;
528.6000;0.6406;1.6619;
528.9000;0.6520;1.6961;
529.2000;0.6398;1.6594;
529.5000;0.6414;1.6692;
529.8000;0.6365;1.6521;
530.1000;0.6414;1.6668;
530.4000;0.6463;1.6741;
530.7000;0.6422;1.6668;
531.0000;0.6431;1.6643;
531.3000;0.6431;1.6570;
531.6000;0.6390;1.6423;
531.9000;0.6463;1.6668;
532.2000;0.6422;1.6521;
532.5000;0.6447;1.6619;
532.8000;0.6422;1.6570;
533.1000;0.6422;1.6570;
533.4000;0.6398;1.6594;
533.7000;0.6398;1.6643;
534.0000;0.6422;1.6594;
534.3000;0.6431;1.6545;
534.6000;0.6431;1.6521;
534.9000;0.6406;1.6497;
535.2000;0.6406;1.6545;
535.5000;0.6414;1.6619;
535.8000;0.6414;1.6643;
536.1000;0.6414;1.6594;
536.4000;0.6422;1.6692;
536.7000;0.6390;1.6545;
537.0000;0.6382;1.6521;
537.3000;0.6365;1.6497;
537.6000;0.6422;1.6594;
537.9000;0.6431;1.6570;
538.2000;0.6422;1.6570;
538.5000;0.6431;1.6472;
538.8000;0.6406;1.6374;
539.1000;0.6422;1.6472;
539.4000;0.6422;1.6423;
539.7000;0.6431;1.6521;
540.0000;0.6406;1.6497;
540.3000;0.6406;1.6497;
540.6000;0.6406;1.6521;
540.9000;0.6406;1.6423;
541.2000;0.6374;1.6350;
541.5000;0.6422;1.6374;
541.8000;0.6414;1.6374;
542.1000;0.6414;1.6350;
542.4000;0.6414;1.6374;
542.7000;0.6398;1.6374;
543.0000;0.6398;1.6374;
543.3000;0.6431;1.6448;
543.6000;0.6422;1.6545;
543.9000;0.6431;1.6399;
544.2000;0.6431;1.6497;
544.5000;0.6414;1.6497;
544.8000;0.6398;1.6423;
545.1000;0.6414;1.6374;
545.4000;0.6398;1.6301;
545.7000;0.6374;1.6301;
546.0000;0.6414;1.6521;
546.3000;0.6414;1.6545;
546.6000;0.6406;1.6472;
546.9000;0.6414;1.6545;
547.2000;0.6431;1.6521;
547.5000;0.6422;1.6570;
547.8000;0.6398;1.6570;
548.1000;0.6455;1.6717;
548.4000;0.6422;1.6448;
548.7000;0.6398;1.6277;
549.0000;0.6390;1.6350;
549.3000;0.6406;1.6448;
549.6000;0.6422;1.6423;
549.9000;0.6357;1.6277;
550.2000;0.6406;1.6448;
550.5000;0.6406;1.6399;
550.8000;0.6439;1.6399;
551.1000;0.6365;1.6301;
551.4000;0.6398;1.6326;
551.7000;0.6406;1.6497;
552.0000;0.6431;1.6570;
552.3000;0.6398;1.6594;
552.6000;0.6414;1.6619;
552.9000;0.6414;1.6619;
553.2000;0.6414;1.6594;
553.5000;0.6406;1.6619;
553.8000;0.6398;1.6570;
554.1000;0.6431;1.6594;
554.4000;0.6463;1.6668;
554.7000;0.6431;1.6570;
555.0000;0.6431;1.6570;
555.3000;0.6406;1.6472;
555.6000;0.6406;1.6521;
555.9000;0.6406;1.6594;
556.2000;0.6422;1.6717;
556.5000;0.6414;1.6692;
556.8000;0.6406;1.6765;
557.1000;0.6406;1.6741;
557.4000;0.6357;1.6643;
557.7000;0.6414;1.6765;
558.0000;0.6390;1.6668;
558.3000;0.6390;1.6619;
558.6000;0.6431;1.6668;
558.9000;0.6398;1.6521;
559.2000;0.6382;1.6472;
559.5000;0.6414;1.6497;
559.8000;0.6431;1.6521;
560.1000;0.6414;1.6472;
560.4000;0.6365;1.6472;
560.7000;0.6406;1.6594;
561.0000;0.6398;1.6545;
561.3000;0.6414;1.6643;
561.6000;0.6398;1.6594;
561.9000;0.6390;1.6570;
562.2000;0.6406;1.6570;
562.5000;0.6406;1.6619;
562.8000;0.6422;1.6619;
563.1000;0.6406;1.6570;
563.4000;0.6431;1.6545;
563.7000;0.6414;1.6570;
564.0000;0.6422;1.6545;
564.3000;0.6431;1.6497;
564.6000;0.6398;1.6521;
564.9000;0.6414;1.6521;
565.2000;0.6414;1.6497;
565.5000;0.6414;1.6619;
565.8000;0.6406;1.6692;
566.1000;0.6390;1.6692;
566.4000;0.6414;1.6668;
566.7000;0.6406;1.6570;
567.0000;0.6406;1.6472;
567.3000;0.6431;1.6570;
567.6000;0.6496;1.6814;
567.9000;0.6390;1.6497;
568.2000;0.6382;1.6472;
568.5000;0.6398;1.6521;
568.8000;0.6422;1.6594;
569.1000;0.6422;1.6570;
569.4000;0.6398;1.6423;
569.7000;0.6390;1.6497;
570.0000;0.6406;1.6545;
570.3000;0.6406;1.6521;
570.6000;0.6414;1.6497;
570.9000;0.6406;1.6472;
571.2000;0.6406;1.6472;
571.5000;0.6431;1.6570;
571.8000;0.6422;1.6497;
572.1000;0.6406;1.6472;
572.4000;0.6439;1.6570;
572.7000;0.6414;1.6570;
573.0000;0.6422;1.6668;
573.3000;0.6479;1.6790;
573.6000;0.6406;1.6643;
573.9000;0.6382;1.6472;
574.2000;0.6422;1.6545;
574.5000;0.6398;1.6619;
574.8000;0.6406;1.6594;
575.1000;0.6414;1.6545;
575.4000;0.6414;1.6545;
575.7000;0.6382;1.6472;
576.0000;0.6406;1.6545;
576.3000;0.6414;1.6545;
576.6000;0.6406;1.6545;
576.9000;0.6406;1.6570;
577.2000;0.6390;1.6448;
577.5000;0.6374;1.6448;
577.8000;0.6398;1.6423;
578.1000;0.6398;1.6521;
578.4000;0.6390;1.6448;
578.7000;0.6406;1.6497;
579.0000;0.6447;1.6497;
579.3000;0.6414;1.6350;
579.6000;0.6398;1.6350;
579.9000;0.6447;1.6497;
580.2000;0.6414;1.6326;
580.5000;0.6398;1.6228;
580.8000;0.6398;1.6277;
581.1000;0.6349;1.6106;
581.4000;0.6365;1.6106;
581.7000;0.6398;1.6154;
582.0000;0.6390;1.6130;
582.3000;0.6390;1.6130;
582.6000;0.6414;1.6277;
582.9000;0.6317;1.6057;
583.2000;0.6398;1.6228;
583.5000;0.6398;1.6252;
583.8000;0.6406;1.6277;
584.1000;0.6357;1.6179;
584.4000;0.6374;1.6228;
584.7000;0.6398;1.6277;
585.0000;0.6414;1.6326;
585.3000;0.6406;1.6326;
585.6000;0.6398;1.6350;
585.9000;0.6390;1.6277;
586.2000;0.6390;1.6277;
586.5000;0.6414;1.6228;
586.8000;0.6414;1.6252;
587.1000;0.6431;1.6277;
587.4000;0.6406;1.6252;
587.7000;0.6374;1.6154;
588.0000;0.6422;1.6252;
588.3000;0.6390;1.6252;
588.6000;0.6406;1.6277;
588.9000;0.6406;1.6399;
589.2000;0.6455;1.6497;
589.5000;0.6390;1.6326;
589.8000;0.6406;1.6301;
590.1000;0.6414;1.6374;
590.4000;0.6414;1.6448;
590.7000;0.6357;1.6252;
591.0000;0.6398;1.6301;
591.3000;0.6365;1.6154;
591.6000;0.6333;1.6081;
591.9000;0.6398;1.6277;
592.2000;0.6406;1.6301;
592.5000;0.6414;1.6277;
592.8000;0.6422;1.6350;
593.1000;0.6447;1.6374;
593.4000;0.6398;1.6228;
593.7000;0.6398;1.6252;
594.0000;0.6406;1.6301;
594.3000;0.6463;1.6448;
594.6000;0.6414;1.6399;
594.9000;0.6398;1.6301;
595.2000;0.6390;1.6277;
595.5000;0.6431;1.6277;
595.8000;0.6414;1.6154;
596.1000;0.6406;1.6057;
596.4000;0.6422;1.6081;
596.7000;0.6406;1.6130;
597.0000;0.6406;1.6154;
597.3000;0.6398;1.6154;
597.6000;0.6422;1.6228;
597.9000;0.6422;1.6154;
598.2000;0.6398;1.6130;
598.5000;0.6382;1.6032;
598.8000;0.6390;1.6008;
599.1000;0.6422;1.6106;
599.4000;0.6398;1.5983;
599.7000;0.6398;1.5934;
600.0000;0.6398;1.5959;
600.3000;0.6390;1.6057;
600.6000;0.6349;1.5886;
600.9000;0.6252;1.5739;
601.2000;0.6178;1.5690;
601.5000;0.6081;1.5470;
601.8000;0.5950;1.5177;
602.1000;0.5845;1.5030;
602.4000;0.5731;1.4932;
602.7000;0.5617;1.4713;
603.0000;0.5543;1.4664;
603.3000;0.5470;1.4541;
603.6000;0.5397;1.4493;
603.9000;0.5307;1.4273;
604.2000;0.5218;1.4150;
604.5000;0.5218;1.4199;
604.8000;0.5120;1.4053;
605.1000;0.5079;1.3930;
605.4000;0.5031;1.3930;
605.7000;0.4982;1.3808;
606.0000;0.4917;1.3710;
606.3000;0.4876;1.3539;
606.6000;0.4843;1.3515;
606.9000;0.4860;1.3588;
607.2000;0.4754;1.3442;
607.5000;0.4721;1.3417;
607.8000;0.4705;1.3491;
608.1000;0.4656;1.3393;
608.4000;0.4648;1.3393;
608.7000;0.4615;1.3319;
609.0000;0.4583;1.3295;
609.3000;0.4591;1.3271;
609.6000;0.4591;1.3368;
609.9000;0.4534;1.3222;
610.2000;0.4412;1.2953;
610.5000;0.4526;1.3295;
610.8000;0.4469;1.3246;
611.1000;0.4453;1.3222;
611.4000;0.4444;1.3222;
611.7000;0.4412;1.3271;
612.0000;0.4420;1.3319;
612.3000;0.4363;1.3222;
612.6000;0.4339;1.3124;
612.9000;0.4371;1.3197;
613.2000;0.4379;1.3197;
613.5000;0.4306;1.3100;
613.8000;0.4314;1.3051;
614.1000;0.4314;1.3026;
614.4000;0.4282;1.2953;
614.7000;0.4233;1.2782;
615.0000;0.4257;1.2806;
615.3000;0.4249;1.2708;
615.6000;0.4298;1.2977;
615.9000;0.4143;1.2513;
616.2000;0.4176;1.2733;
616.5000;0.4217;1.2782;
616.8000;0.4192;1.2733;
617.1000;0.4160;1.2733;
617.4000;0.4176;1.2831;
617.7000;0.4168;1.2928;
618.0000;0.4168;1.2928;
618.3000;0.4151;1.2928;
618.6000;0.4143;1.2904;
618.9000;0.4119;1.2757;
619.2000;0.4127;1.2782;
619.5000;0.4119;1.2782;
619.8000;0.4078;1.2757;
620.1000;0.4086;1.2660;
620.4000;0.4127;1.2806;
620.7000;0.4086;1.2733;
621.0000;0.4070;1.2757;
621.3000;0.4062;1.2757;
621.6000;0.4046;1.2660;
621.9000;0.4037;1.2660;
622.2000;0.4054;1.2684;
622.5000;0.4037;1.2660;
622.8000;0.4029;1.2684;
623.1000;0.4021;1.2684;
623.4000;0.4054;1.2831;
623.7000;0.4021;1.2708;
624.0000;0.4005;1.2611;
624.3000;0.4013;1.2708;
624.6000;0.4005;1.2733;
624.9000;0.4005;1.2782;
625.2000;0.3980;1.2806;
625.5000;0.3980;1.2782;
625.8000;0.3997;1.2806;
626.1000;0.3980;1.2831;
626.4000;0.3989;1.2855;
626.7000;0.3972;1.2831;
627.0000;0.3956;1.2757;
627.3000;0.3980;1.2806;
627.6000;0.3948;1.2708;
627.9000;0.3940;1.2708;
628.2000;0.3956;1.2831;
628.5000;0.3956;1.2782;
628.8000;0.3956;1.2684;
629.1000;0.3907;1.2586;
629.4000;0.3923;1.2635;
629.7000;0.3948;1.2660;
630.0000;0.3915;1.2635;
630.3000;0.3907;1.2684;
630.6000;0.3899;1.2708;
630.9000;0.3907;1.2708;
631.2000;0.3923;1.2757;
631.5000;0.3818;1.2537;
631.8000;0.3891;1.2757;
632.1000;0.3883;1.2757;
632.4000;0.3875;1.2831;
632.7000;0.3875;1.2855;
633.0000;0.3867;1.2757;
633.3000;0.3875;1.2806;
633.6000;0.3867;1.2806;
633.9000;0.3875;1.2757;
634.2000;0.3883;1.2782;
634.5000;0.3850;1.2684;
634.8000;0.3850;1.2757;
635.1000;0.3850;1.2757;
635.4000;0.3867;1.2782;
635.7000;0.3850;1.2733;
636.0000;0.3858;1.2757;
636.3000;0.3850;1.2782;
636.6000;0.3834;1.2806;
636.9000;0.3834;1.2757;
637.2000;0.3744;1.2586;
637.5000;0.3834;1.2782;
637.8000;0.3826;1.2660;
638.1000;0.3842;1.2880;
638.4000;0.3826;1.2806;
638.7000;0.3826;1.2782;
639.0000;0.3818;1.2831;
639.3000;0.3810;1.2831;
639.6000;0.3826;1.2928;
639.9000;0.3810;1.2928;
640.2000;0.3818;1.2928;
640.5000;0.3785;1.2904;
640.8000;0.3810;1.2953;
641.1000;0.3810;1.3026;
641.4000;0.3818;1.2977;
641.7000;0.3810;1.2855;
642.0000;0.3801;1.2831;
642.3000;0.3785;1.2733;
642.6000;0.3810;1.2855;
642.9000;0.3785;1.2806;
643.2000;0.3818;1.2880;
643.5000;0.3785;1.2806;
643.8000;0.3785;1.2757;
644.1000;0.3785;1.2757;
644.4000;0.3777;1.2733;
644.7000;0.3793;1.2757;
645.0000;0.3850;1.2977;
645.3000;0.3761;1.2806;
645.6000;0.3761;1.2855;
645.9000;0.3753;1.2855;
646.2000;0.3785;1.3051;
646.5000;0.3753;1.3002;
646.8000;0.3761;1.3026;
647.1000;0.3801;1.3026;
647.4000;0.3696;1.2586;
647.7000;0.3753;1.2708;
648.0000;0.3744;1.2733;
648.3000;0.3761;1.2684;
648.6000;0.3753;1.2733;
648.9000;0.3744;1.2635;
649.2000;0.3744;1.2586;
649.5000;0.3744;1.2611;
649.8000;0.3744;1.2537;
650.1000;0.3753;1.2489;
650.4000;0.3744;1.2464;
650.7000;0.3744;1.2464;
651.0000;0.3761;1.2611;
651.3000;0.3744;1.2660;
651.6000;0.3712;1.2611;
651.9000;0.3736;1.2660;
652.2000;0.3736;1.2708;
652.5000;0.3728;1.2684;
652.8000;0.3736;1.2733;
653.1000;0.3720;1.2635;
653.4000;0.3753;1.2684;
653.7000;0.3736;1.2708;
654.0000;0.3720;1.2757;
654.3000;0.3720;1.2806;
654.6000;0.3712;1.2806;
654.9000;0.3712;1.2855;
655.2000;0.3655;1.2660;
655.5000;0.3728;1.2806;
655.8000;0.3720;1.2806;
656.1000;0.3704;1.2684;
656.4000;0.3712;1.2782;
656.7000;0.3712;1.2757;
657.0000;0.3704;1.2806;
657.3000;0.3671;1.2880;
657.6000;0.3704;1.2953;
657.9000;0.3704;1.2904;
658.2000;0.3704;1.2977;
658.5000;0.3696;1.2977;
658.8000;0.3679;1.2928;
659.1000;0.3696;1.3075;
659.4000;0.3696;1.3002;
659.7000;0.3687;1.2880;
660.0000;0.3679;1.2831;
660.3000;0.3736;1.3075;
660.6000;0.3687;1.2880;
660.9000;0.3696;1.3002;
661.2000;0.3687;1.2977;
661.5000;0.3696;1.2977;
661.8000;0.3671;1.2855;
662.1000;0.3671;1.2855;
662.4000;0.3671;1.2782;
662.7000;0.3671;1.2880;
663.0000;0.3679;1.2953;
663.3000;0.3663;1.2953;
663.6000;0.3704;1.3051;
663.9000;0.3671;1.2953;
664.2000;0.3663;1.2806;
664.5000;0.3647;1.2757;
664.8000;0.3647;1.2782;
665.1000;0.3679;1.2855;
665.4000;0.3696;1.2855;
665.7000;0.3647;1.2855;
666.0000;0.3630;1.2880;
666.3000;0.3679;1.2977;
666.6000;0.3655;1.2928;
666.9000;0.3655;1.2904;
667.2000;0.3663;1.2880;
667.5000;0.3639;1.2782;
667.8000;0.3647;1.2806;
668.1000;0.3598;1.2782;
668.4000;0.3687;1.3026;
668.7000;0.3655;1.2880;
669.0000;0.3639;1.2831;
669.3000;0.3647;1.2806;
669.6000;0.3639;1.2855;
669.9000;0.3696;1.3002;
670.2000;0.3622;1.2733;
670.5000;0.3647;1.2782;
670.8000;0.3639;1.2757;
671.1000;0.3614;1.2708;
671.4000;0.3573;1.2611;
671.7000;0.3671;1.2928;
672.0000;0.3687;1.2977;
672.3000;0.3630;1.2855;
672.6000;0.3614;1.2831;
672.9000;0.3630;1.2904;
673.2000;0.3622;1.2880;
673.5000;0.3622;1.2904;
673.8000;0.3630;1.2855;
674.1000;0.3647;1.2928;
674.4000;0.3622;1.2831;
674.7000;0.3622;1.2855;
675.0000;0.3622;1.2782;
675.3000;0.3663;1.2928;
675.6000;0.3622;1.2953;
675.9000;0.3614;1.2904;
676.2000;0.3622;1.2880;
676.5000;0.3622;1.2806;
676.8000;0.3622;1.2782;
677.1000;0.3614;1.2782;
677.4000;0.3598;1.2733;
677.7000;0.3614;1.2782;
678.0000;0.3606;1.2831;
678.3000;0.3614;1.2928;
678.6000;0.3598;1.2831;
678.9000;0.3582;1.2733;
679.2000;0.3647;1.2953;
679.5000;0.3614;1.2831;
679.8000;0.3622;1.2831;
680.1000;0.3565;1.2684;
680.4000;0.3590;1.2831;
680.7000;0.3598;1.2831;
681.0000;0.3614;1.2953;
681.3000;0.3590;1.2831;
681.6000;0.3598;1.2831;
681.9000;0.3606;1.2831;
682.2000;0.3598;1.2831;
682.5000;0.3606;1.2831;
682.8000;0.3598;1.2782;
683.1000;0.3590;1.2782;
683.4000;0.3590;1.2757;
683.7000;0.3525;1.2513;
684.0000;0.3598;1.2733;
684.3000;0.3541;1.2635;
684.6000;0.3606;1.2806;
684.9000;0.3590;1.2757;
685.2000;0.3622;1.2880;
685.5000;0.3573;1.2757;
685.8000;0.3590;1.2684;
686.1000;0.3573;1.2586;
686.4000;0.3590;1.2660;
686.7000;0.3541;1.2537;
687.0000;0.3573;1.2708;
687.3000;0.3582;1.2733;
687.6000;0.3565;1.2733;
687.9000;0.3582;1.2806;
688.2000;0.3557;1.2806;
688.5000;0.3573;1.2880;
688.8000;0.3549;1.2880;
689.1000;0.3573;1.2904;
689.4000;0.3573;1.2880;
689.7000;0.3582;1.2880;
690.0000;0.3565;1.2806;
690.3000;0.3565;1.2806;
690.6000;0.3565;1.2806;
690.9000;0.3565;1.2831;
691.2000;0.3557;1.2831;
691.5000;0.3573;1.2855;
691.8000;0.3565;1.2782;
692.1000;0.3533;1.2806;
692.4000;0.3565;1.2806;
692.7000;0.3549;1.2733;
693.0000;0.3582;1.2782;
693.3000;0.3639;1.3002;
693.6000;0.3533;1.2635;
693.9000;0.3549;1.2684;
694.2000;0.3582;1.2782;
694.5000;0.3582;1.2806;
694.8000;0.3533;1.2611;
695.1000;0.3525;1.2464;
695.4000;0.3573;1.2586;
695.7000;0.3582;1.2611;
696.0000;0.3557;1.2660;
696.3000;0.3533;1.2611;
696.6000;0.3492;1.2513;
696.9000;0.3557;1.2708;
697.2000;0.3549;1.2708;
697.5000;0.3468;1.2611;
697.8000;0.3533;1.2782;
698.1000;0.3533;1.2806;
698.4000;0.3533;1.2684;
698.7000;0.3533;1.2708;
699.0000;0.3525;1.2806;
699.3000;0.3533;1.2831;
699.6000;0.3525;1.2806;
699.9000;0.3549;1.2806;
700.2000;0.3541;1.2831;
700.5000;0.3533;1.2831;
700.8000;0.3541;1.2831;
701.1000;0.3508;1.2831;
701.4000;0.3516;1.2855;
701.7000;0.3549;1.2928;
702.0000;0.3525;1.2831;
702.3000;0.3500;1.2708;
702.6000;0.3557;1.2831;
702.9000;0.3549;1.2880;
703.2000;0.3525;1.2806;
703.5000;0.3525;1.2855;
703.8000;0.3533;1.2977;
704.1000;0.3508;1.2977;
704.4000;0.3549;1.2953;
704.7000;0.3525;1.3002;
705.0000;0.3573;1.3148;
705.3000;0.3533;1.3002;
705.6000;0.3525;1.2977;
705.9000;0.3541;1.2855;
706.2000;0.3525;1.2831;
706.5000;0.3516;1.2806;
706.8000;0.3533;1.2831;
707.1000;0.3468;1.2586;
707.4000;0.3525;1.2733;
707.7000;0.3508;1.2660;
708.0000;0.3508;1.2733;
708.3000;0.3582;1.2831;
708.6000;0.3533;1.2635;
708.9000;0.3500;1.2684;
709.2000;0.3443;1.2660;
709.5000;0.3541;1.2831;
709.8000;0.3525;1.2782;
710.1000;0.3525;1.2782;
710.4000;0.3516;1.2708;
710.7000;0.3411;1.2440;
711.0000;0.3533;1.2782;
711.3000;0.3525;1.2733;
711.6000;0.3533;1.2733;
711.9000;0.3508;1.2806;
712.2000;0.3508;1.2855;
712.5000;0.3525;1.2880;
712.8000;0.3508;1.2831;
713.1000;0.3508;1.2855;
713.4000;0.3500;1.2806;
713.7000;0.3516;1.2831;
714.0000;0.3500;1.2806;
714.3000;0.3500;1.2855;
714.6000;0.3500;1.3026;
714.9000;0.3508;1.2977;
715.2000;0.3508;1.2928;
715.5000;0.3500;1.2880;
715.8000;0.3525;1.3051;
716.1000;0.3516;1.3002;
716.4000;0.3427;1.2782;
716.7000;0.3541;1.3075;
717.0000;0.3500;1.2953;
717.3000;0.3500;1.2928;
717.6000;0.3460;1.2831;
717.9000;0.3492;1.2831;
718.2000;0.3492;1.2831;
718.5000;0.3516;1.2855;
718.8000;0.3516;1.2904;
719.1000;0.3484;1.2831;
719.4000;0.3500;1.2855;
719.7000;0.3516;1.2953;
720.0000;0.3492;1.2928;
720.3000;0.3492;1.2953;
720.6000;0.3500;1.3026;
720.9000;0.3500;1.3002;
721.2000;0.3492;1.3026;
721.5000;0.3468;1.2977;
721.8000;0.3476;1.3026;
722.1000;0.3492;1.3075;
722.4000;0.3508;1.3051;
722.7000;0.3500;1.2977;
723.0000;0.3484;1.3051;
723.3000;0.3557;1.3246;
723.6000;0.3500;1.3075;
723.9000;0.3492;1.3026;
724.2000;0.3492;1.2953;
724.5000;0.3394;1.2708;
724.8000;0.3468;1.2928;
725.1000;0.3492;1.2880;
725.4000;0.3500;1.2806;
725.7000;0.3476;1.2831;
726.0000;0.3460;1.2806;
726.3000;0.3468;1.2953;
726.6000;0.3492;1.3026;
726.9000;0.3468;1.2928;
727.2000;0.3500;1.2904;
727.5000;0.3476;1.2806;
727.8000;0.3468;1.2953;
728.1000;0.3484;1.3026;
728.4000;0.3492;1.3075;
728.7000;0.3476;1.3026;
729.0000;0.3468;1.3026;
729.3000;0.3411;1.2831;
729.6000;0.3484;1.2953;
729.9000;0.3468;1.3051;
730.2000;0.3468;1.3051;
730.5000;0.3476;1.3124;
730.8000;0.3541;1.3222;
731.1000;0.3468;1.2977;
731.4000;0.3484;1.3051;
731.7000;0.3460;1.2904;
732.0000;0.3460;1.2831;
732.3000;0.3411;1.2708;
732.6000;0.3476;1.2855;
732.9000;0.3451;1.2708;
733.2000;0.3394;1.2586;
733.5000;0.3484;1.2904;
733.8000;0.3484;1.2953;
734.1000;0.3468;1.2953;
734.4000;0.3468;1.3026;
734.7000;0.3476;1.2953;
735.0000;0.3468;1.2977;
735.3000;0.3484;1.3002;
735.6000;0.3468;1.3026;
735.9000;0.3468;1.2953;
736.2000;0.3451;1.2977;
736.5000;0.3460;1.3100;
736.8000;0.3443;1.3002;
737.1000;0.3460;1.3002;
737.4000;0.3460;1.3002;
737.7000;0.3460;1.2977;
738.0000;0.3468;1.2880;
738.3000;0.3435;1.2880;
738.6000;0.3451;1.2904;
738.9000;0.3484;1.2928;
739.2000;0.3492;1.2977;
739.5000;0.3476;1.3051;
739.8000;0.3468;1.3051;
740.1000;0.3451;1.3075;
740.4000;0.3476;1.3002;
740.7000;0.3451;1.2953;
741.0000;0.3468;1.3002;
741.3000;0.3443;1.3051;
741.6000;0.3468;1.3124;
741.9000;0.3460;1.3051;
742.2000;0.3460;1.3051;
742.5000;0.3468;1.3075;
742.8000;0.3460;1.3075;
743.1000;0.3460;1.3026;
743.4000;0.3451;1.2977;
743.7000;0.3435;1.3002;
744.0000;0.3443;1.3051;
744.3000;0.3451;1.3051;
744.6000;0.3468;1.2977;
744.9000;0.3451;1.2977;
745.2000;0.3443;1.2977;
745.5000;0.3484;1.3100;
745.8000;0.3476;1.3148;
746.1000;0.3435;1.3173;
746.4000;0.3468;1.3222;
746.7000;0.3451;1.3173;
747.0000;0.3492;1.3173;
747.3000;0.3386;1.2977;
747.6000;0.3468;1.3124;
747.9000;0.3460;1.2928;
748.2000;0.3411;1.2708;
748.5000;0.3451;1.2806;
748.8000;0.3468;1.2928;
749.1000;0.3460;1.2977;
749.4000;0.3451;1.3026;
749.7000;0.3411;1.2977;
750.0000;0.3435;1.3124;
750.3000;0.3468;1.3246;
750.6000;0.3451;1.3271;
750.9000;0.3443;1.3222;
751.2000;0.3451;1.3246;
751.5000;0.3435;1.3246;
751.8000;0.3443;1.3246;
752.1000;0.3451;1.3246;
752.4000;0.3435;1.3148;
752.7000;0.3427;1.3124;
753.0000;0.3435;1.3124;
753.3000;0.3443;1.3148;
753.6000;0.3443;1.3100;
753.9000;0.3443;1.3100;
754.2000;0.3460;1.3051;
754.5000;0.3443;1.2953;
754.8000;0.3443;1.3002;
755.1000;0.3451;1.2953;
755.4000;0.3443;1.2904;
755.7000;0.3460;1.2928;
756.0000;0.3443;1.2855;
756.3000;0.3394;1.2782;
756.6000;0.3443;1.2880;
756.9000;0.3427;1.2928;
757.2000;0.3411;1.2855;
757.5000;0.3427;1.2880;
757.8000;0.3460;1.2928;
758.1000;0.3443;1.2855;
758.4000;0.3427;1.2806;
758.7000;0.3403;1.2757;
759.0000;0.3435;1.2831;
759.3000;0.3435;1.2855;
759.6000;0.3460;1.2880;
759.9000;0.3435;1.2831;
760.2000;0.3435;1.2855;
760.5000;0.3443;1.3051;
760.8000;0.3451;1.3051;
761.1000;0.3451;1.3002;
761.4000;0.3427;1.2977;
761.7000;0.3451;1.3051;
762.0000;0.3443;1.3075;
762.3000;0.3460;1.3100;
762.6000;0.3419;1.3075;
762.9000;0.3427;1.3173;
763.2000;0.3451;1.3173;
763.5000;0.3435;1.3148;
763.8000;0.3419;1.3173;
764.1000;0.3419;1.3100;
764.4000;0.3500;1.3222;
764.7000;0.3476;1.3148;
765.0000;0.3435;1.3026;
765.3000;0.3443;1.3002;
765.6000;0.3443;1.3051;
765.9000;0.3443;1.3075;
766.2000;0.3435;1.3075;
766.5000;0.3419;1.3051;
766.8000;0.3435;1.3051;
767.1000;0.3443;1.3100;
767.4000;0.3403;1.2928;
767.7000;0.3419;1.2977;
768.0000;0.3435;1.2953;
768.3000;0.3443;1.2904;
768.6000;0.3419;1.2831;
768.9000;0.3411;1.2831;
769.2000;0.3443;1.3002;
769.5000;0.3460;1.3026;
769.8000;0.3443;1.2953;
770.1000;0.3427;1.2806;
770.4000;0.3419;1.2880;
770.7000;0.3378;1.2806;
771.0000;0.3427;1.2928;
771.3000;0.3411;1.2928;
771.6000;0.3403;1.2904;
771.9000;0.3419;1.2953;
772.2000;0.3419;1.3002;
772.5000;0.3411;1.3026;
772.8000;0.3419;1.3051;
773.1000;0.3411;1.3148;
773.4000;0.3427;1.3173;
773.7000;0.3419;1.3197;
774.0000;0.3403;1.3100;
774.3000;0.3411;1.3148;
774.6000;0.3443;1.3173;
774.9000;0.3378;1.3026;
775.2000;0.3427;1.3148;
775.5000;0.3427;1.3197;
775.8000;0.3468;1.3295;
776.1000;0.3443;1.3222;
776.4000;0.3411;1.3148;
776.7000;0.3419;1.3173;
777.0000;0.3427;1.3197;
777.3000;0.3427;1.3295;
777.6000;0.3370;1.3100;
777.9000;0.3362;1.3002;
778.2000;0.3411;1.3124;
778.5000;0.3419;1.3026;
778.8000;0.3411;1.2953;
779.1000;0.3476;1.3051;
779.4000;0.3403;1.2904;
779.7000;0.3419;1.2880;
780.0000;0.3403;1.2880;
780.3000;0.3394;1.2855;
780.6000;0.3419;1.2953;
780.9000;0.3427;1.2977;
781.2000;0.3435;1.2977;
781.5000;0.3427;1.3026;
781.8000;0.3394;1.3026;
782.1000;0.3451;1.3100;
782.4000;0.3419;1.2953;
782.7000;0.3403;1.2928;
783.0000;0.3313;1.2733;
783.3000;0.3427;1.3075;
783.6000;0.3403;1.2977;
783.9000;0.3411;1.3026;
784.2000;0.3354;1.2782;
784.5000;0.3411;1.2953;
784.8000;0.3427;1.3051;
785.1000;0.3443;1.3075;
785.4000;0.3394;1.2977;
785.7000;0.3419;1.3026;
786.0000;0.3411;1.2977;
786.3000;0.3394;1.3002;
786.6000;0.3435;1.3026;
786.9000;0.3419;1.3002;
787.2000;0.3427;1.3051;
787.5000;0.3354;1.2904;
787.8000;0.3403;1.3051;
788.1000;0.3403;1.3051;
788.4000;0.3354;1.2953;
788.7000;0.3419;1.3173;
789.0000;0.3411;1.3100;
789.3000;0.3394;1.2953;
789.6000;0.3411;1.3002;
789.9000;0.3435;1.3051;
790.2000;0.3443;1.3075;
790.5000;0.3492;1.3124;
790.8000;0.3411;1.2855;
791.1000;0.3411;1.2977;
791.4000;0.3378;1.2977;
791.7000;0.3403;1.2977;
792.0000;0.3403;1.2928;
792.3000;0.3403;1.2977;
792.6000;0.3394;1.3075;
792.9000;0.3394;1.2977;
793.2000;0.3419;1.2904;
793.5000;0.3419;1.2904;
793.8000;0.3411;1.2855;
794.1000;0.3427;1.2831;
794.4000;0.3403;1.2782;
794.7000;0.3419;1.2733;
795.0000;0.3411;1.2660;
795.3000;0.3403;1.2684;
795.6000;0.3394;1.2806;
795.9000;0.3394;1.2928;
796.2000;0.3403;1.2831;
796.5000;0.3394;1.2855;
796.8000;0.3378;1.2782;
797.1000;0.3370;1.2880;
797.4000;0.3394;1.2977;
797.7000;0.3394;1.2953;
798.0000;0.3370;1.2855;
798.3000;0.3394;1.2855;
798.6000;0.3386;1.2782;
798.9000;0.3370;1.2684;
799.2000;0.3378;1.2660;
799.5000;0.3386;1.2611;
799.8000;0.3411;1.2660;
800.1000;0.3451;1.2904;
800.4000;0.3386;1.2757;
800.7000;0.3394;1.2733;
801.0000;0.3476;1.3051;
801.3000;0.3435;1.2880;
801.6000;0.3403;1.2831;
801.9000;0.3451;1.2953;
802.2000;0.3394;1.2806;
802.5000;0.3386;1.2806;
802.8000;0.3403;1.2831;
803.1000;0.3337;1.2708;
803.4000;0.3386;1.2953;
803.7000;0.3362;1.2928;
804.0000;0.3419;1.3026;
804.3000;0.3394;1.3026;
804.6000;0.3386;1.3002;
804.9000;0.3427;1.3026;
805.2000;0.3370;1.2953;
805.5000;0.3403;1.3002;
805.8000;0.3403;1.2953;
806.1000;0.3321;1.2904;
806.4000;0.3394;1.3124;
806.7000;0.3378;1.3124;
807.0000;0.3403;1.3075;
807.3000;0.3386;1.3026;
807.6000;0.3394;1.3100;
807.9000;0.3370;1.3051;
808.2000;0.3394;1.2977;
808.5000;0.3403;1.3051;
808.8000;0.3378;1.2977;
809.1000;0.3394;1.2977;
809.4000;0.3394;1.2855;
809.7000;0.3468;1.3197;
810.0000;0.3394;1.3026;
810.3000;0.3370;1.3002;
810.6000;0.3386;1.3075;
810.9000;0.3378;1.3051;
811.2000;0.3435;1.3124;
811.5000;0.3411;1.3002;
811.8000;0.3403;1.3002;
812.1000;0.3403;1.2953;
812.4000;0.3378;1.3002;
812.7000;0.3386;1.3051;
813.0000;0.3362;1.2977;
813.3000;0.3386;1.3051;
813.6000;0.3386;1.2977;
813.9000;0.3394;1.3026;
814.2000;0.3337;1.2831;
814.5000;0.3435;1.3100;
814.8000;0.3386;1.2953;
815.1000;0.3403;1.2977;
815.4000;0.3394;1.3002;
815.7000;0.3378;1.3002;
816.0000;0.3386;1.3026;
816.3000;0.3386;1.3051;
816.6000;0.3386;1.2977;
816.9000;0.3394;1.3002;
817.2000;0.3386;1.3002;
817.5000;0.3394;1.3002;
817.8000;0.3427;1.3124;
818.1000;0.3386;1.3002;
818.4000;0.3386;1.2977;
818.7000;0.3378;1.3124;
819.0000;0.3386;1.3124;
819.3000;0.3362;1.3197;
819.6000;0.3386;1.3173;
819.9000;0.3378;1.3222;
820.2000;0.3370;1.3271;
820.5000;0.3378;1.3246;
820.8000;0.3370;1.3222;
821.1000;0.3370;1.3222;
821.4000;0.3378;1.3173;
821.7000;0.3378;1.3026;
822.0000;0.3321;1.2855;
822.3000;0.3370;1.2928;
822.6000;0.3370;1.3002;
822.9000;0.3362;1.3051;
823.2000;0.3354;1.3075;
823.5000;0.3346;1.3026;
823.8000;0.3370;1.3002;
824.1000;0.3386;1.3026;
824.4000;0.3378;1.3026;
824.7000;0.3386;1.3075;
825.0000;0.3386;1.3100;
825.3000;0.3419;1.3148;
825.6000;0.3394;1.3124;
825.9000;0.3370;1.3148;
826.2000;0.3394;1.3246;
826.5000;0.3370;1.3173;
826.8000;0.3403;1.3197;
827.1000;0.3378;1.3197;
827.4000;0.3394;1.3173;
827.7000;0.3386;1.3148;
828.0000;0.3386;1.3173;
828.3000;0.3354;1.3148;
828.6000;0.3370;1.3197;
828.9000;0.3394;1.3295;
829.2000;0.3411;1.3124;
829.5000;0.3386;1.3026;
829.8000;0.3378;1.3051;
830.1000;0.3394;1.3026;
830.4000;0.3386;1.3075;
830.7000;0.3370;1.3002;
831.0000;0.3362;1.2977;
831.3000;0.3378;1.3124;
831.6000;0.3386;1.3173;
831.9000;0.3460;1.3344;
832.2000;0.3394;1.3075;
832.5000;0.3362;1.3026;
832.8000;0.3394;1.3051;
833.1000;0.3378;1.3100;
833.4000;0.3362;1.3075;
833.7000;0.3378;1.3197;
834.0000;0.3362;1.3148;
834.3000;0.3378;1.3246;
834.6000;0.3394;1.3222;
834.9000;0.3386;1.3246;
835.2000;0.3378;1.3319;
835.5000;0.3362;1.3246;
835.8000;0.3403;1.3368;
836.1000;0.3362;1.3246;
836.4000;0.3386;1.3271;
836.7000;0.3362;1.3222;
837.0000;0.3370;1.3173;
837.3000;0.3370;1.3100;
837.6000;0.3370;1.3124;
837.9000;0.3362;1.3124;
838.2000;0.3378;1.3124;
838.5000;0.3354;1.2977;
838.8000;0.3362;1.2928;
839.1000;0.3378;1.3002;
839.4000;0.3378;1.2928;
839.7000;0.3362;1.3002;
840.0000;0.3362;1.3100;
840.3000;0.3370;1.3075;
840.6000;0.3386;1.3051;
840.9000;0.3354;1.3051;
841.2000;0.3289;1.2806;
841.5000;0.3346;1.2977;
841.8000;0.3370;1.3075;
842.1000;0.3362;1.3100;
842.4000;0.3354;1.2953;
842.7000;0.3305;1.2904;
843.0000;0.3362;1.3002;
843.3000;0.3378;1.2977;
843.6000;0.3362;1.2977;
843.9000;0.3362;1.2904;
844.2000;0.3346;1.2855;
844.5000;0.3362;1.2831;
844.8000;0.3370;1.2953;
845.1000;0.3403;1.3026;
845.4000;0.3370;1.3026;
845.7000;0.3451;1.3222;
846.0000;0.3370;1.3002;
846.3000;0.3354;1.3075;
846.6000;0.3386;1.3148;
846.9000;0.3370;1.3075;
847.2000;0.3362;1.3124;
847.5000;0.3370;1.3148;
847.8000;0.3362;1.3271;
848.1000;0.3362;1.3319;
848.4000;0.3362;1.3295;
848.7000;0.3354;1.3246;
849.0000;0.3370;1.3197;
849.3000;0.3362;1.3173;
849.6000;0.3362;1.3197;
849.9000;0.3354;1.3222;
850.2000;0.3346;1.3173;
850.5000;0.3370;1.3246;
850.8000;0.3386;1.3246;
851.1000;0.3370;1.3295;
851.4000;0.3346;1.3197;
851.7000;0.3305;1.3100;
852.0000;0.3362;1.3271;
852.3000;0.3378;1.3295;
852.6000;0.3354;1.3173;
852.9000;0.3354;1.3222;
853.2000;0.3346;1.3173;
853.5000;0.3378;1.3148;
853.8000;0.3354;1.3148;
854.1000;0.3354;1.3100;
854.4000;0.3362;1.3148;
854.7000;0.3378;1.3075;
855.0000;0.3370;1.3051;
855.3000;0.3362;1.3075;
855.6000;0.3362;1.3148;
855.9000;0.3370;1.3222;
856.2000;0.3362;1.3271;
856.5000;0.3346;1.3222;
856.8000;0.3370;1.3271;
857.1000;0.3354;1.3222;
857.4000;0.3362;1.3295;
857.7000;0.3435;1.3491;
858.0000;0.3354;1.3197;
858.3000;0.3403;1.3222;
858.6000;0.3354;1.3100;
858.9000;0.3354;1.3051;
859.2000;0.3354;1.3100;
859.5000;0.3354;1.3124;
859.8000;0.3354;1.3148;
860.1000;0.3354;1.3295;
860.4000;0.3337;1.3246;
860.7000;0.3346;1.3222;
861.0000;0.3362;1.3197;
861.3000;0.3321;1.3075;
861.6000;0.3346;1.3075;
861.9000;0.3370;1.3173;
862.2000;0.3346;1.3100;
862.5000;0.3337;1.3026;
862.8000;0.3346;1.2928;
863.1000;0.3354;1.3026;
863.4000;0.3329;1.2977;
863.7000;0.3354;1.3002;
864.0000;0.3337;1.2880;
864.3000;0.3321;1.2855;
864.6000;0.3354;1.3075;
864.9000;0.3362;1.3173;
865.2000;0.3362;1.3197;
865.5000;0.3362;1.3197;
865.8000;0.3394;1.3246;
866.1000;0.3354;1.3197;
866.4000;0.3337;1.3148;
866.7000;0.3337;1.3173;
867.0000;0.3362;1.3246;
867.3000;0.3370;1.3222;
867.6000;0.3370;1.3148;
867.9000;0.3354;1.3148;
868.2000;0.3346;1.3100;
868.5000;0.3346;1.3124;
868.8000;0.3362;1.3100;
869.1000;0.3354;1.3026;
869.4000;0.3354;1.3051;
869.7000;0.3378;1.3051;
870.0000;0.3362;1.3075;
870.3000;0.3354;1.3075;
870.6000;0.3354;1.3124;
870.9000;0.3354;1.3100;
871.2000;0.3354;1.3124;
871.5000;0.3370;1.3148;
871.8000;0.3370;1.3124;
872.1000;0.3362;1.3124;
872.4000;0.3354;1.3075;
872.7000;0.3435;1.3222;
873.0000;0.3354;1.3051;
873.3000;0.3378;1.3051;
873.6000;0.3362;1.3026;
873.9000;0.3346;1.3051;
874.2000;0.3346;1.3075;
874.5000;0.3362;1.3100;
874.8000;0.3354;1.3051;
875.1000;0.3362;1.2977;
875.4000;0.3354;1.2928;
875.7000;0.3386;1.2977;
876.0000;0.3346;1.2953;
876.3000;0.3394;1.3100;
876.6000;0.3346;1.3002;
876.9000;0.3386;1.3173;
877.2000;0.3346;1.3051;
877.5000;0.3354;1.3100;
877.8000;0.3386;1.3173;
878.1000;0.3346;1.3026;
878.4000;0.3329;1.2977;
878.7000;0.3362;1.2880;
879.0000;0.3346;1.2855;
879.3000;0.3354;1.2904;
879.6000;0.3362;1.2831;
879.9000;0.3362;1.2904;
880.2000;0.3354;1.2928;
880.5000;0.3337;1.2953;
880.8000;0.3329;1.2953;
881.1000;0.3346;1.3051;
881.4000;0.3346;1.3026;
881.7000;0.3329;1.2928;
882.0000;0.3346;1.2977;
882.3000;0.3346;1.2831;
882.6000;0.3346;1.2855;
882.9000;0.3337;1.2904;
883.2000;0.3337;1.2855;
883.5000;0.3337;1.2928;
883.8000;0.3337;1.2953;
884.1000;0.3346;1.2977;
884.4000;0.3346;1.2928;
884.7000;0.3289;1.2806;
885.0000;0.3362;1.3075;
885.3000;0.3337;1.3075;
885.6000;0.3346;1.3124;
885.9000;0.3354;1.3222;
886.2000;0.3354;1.3222;
886.5000;0.3337;1.3148;
886.8000;0.3411;1.3173;
887.1000;0.3354;1.3002;
887.4000;0.3362;1.3100;
887.7000;0.3354;1.3051;
888.0000;0.3321;1.3051;
888.3000;0.3305;1.2977;
888.6000;0.3346;1.3051;
888.9000;0.3354;1.3075;
889.2000;0.3362;1.3148;
889.5000;0.3329;1.3148;
889.8000;0.3378;1.3222;
890.1000;0.3362;1.3222;
890.4000;0.3370;1.3271;
890.7000;0.3354;1.3173;
891.0000;0.3354;1.3173;
891.3000;0.3362;1.3173;
891.6000;0.3346;1.3197;
891.9000;0.3337;1.3222;
892.2000;0.3378;1.3197;
892.5000;0.3337;1.3222;
892.8000;0.3346;1.3100;
893.1000;0.3346;1.3002;
893.4000;0.3337;1.2977;
893.7000;0.3329;1.2904;
894.0000;0.3427;1.3173;
894.3000;0.3321;1.2953;
894.6000;0.3346;1.2977;
894.9000;0.3337;1.3002;
895.2000;0.3337;1.2977;
895.5000;0.3346;1.2953;
895.8000;0.3346;1.2977;
896.1000;0.3337;1.3002;
896.4000;0.3337;1.2977;
896.7000;0.3346;1.3124;
897.0000;0.3337;1.3148;
897.3000;0.3313;1.3026;
897.6000;0.3346;1.3246;
897.9000;0.3354;1.3368;
898.2000;0.3378;1.3368;
898.5000;0.3346;1.3222;
898.8000;0.3394;1.3222;
899.1000;0.3346;1.3197;
899.4000;0.3346;1.3148;
899.7000;0.3337;1.3075;
900.0000;0.3329;1.3100;
900.3000;0.3337;1.3075;
900.6000;0.3329;1.3075;
900.9000;0.3362;1.3051;
901.2000;0.3313;1.3002;
901.5000;0.3337;1.3100;
901.8000;0.3337;1.3075;
902.1000;0.3346;1.3026;
902.4000;0.3289;1.2880;
902.7000;0.3362;1.3197;
903.0000;0.3346;1.3100;
903.3000;0.3256;1.3002;
903.6000;0.3329;1.3148;
903.9000;0.3354;1.3222;
904.2000;0.3321;1.3148;
904.5000;0.3346;1.3148;
904.8000;0.3329;1.3075;
905.1000;0.3346;1.3124;
905.4000;0.3354;1.3173;
905.7000;0.3297;1.3026;
906.0000;0.3346;1.3148;
906.3000;0.3337;1.3100;
906.6000;0.3337;1.3197;
906.9000;0.3337;1.3124;
907.2000;0.3329;1.3075;
907.5000;0.3337;1.3148;
907.8000;0.3329;1.3173;
908.1000;0.3337;1.3148;
908.4000;0.3346;1.3197;
908.7000;0.3329;1.3075;
909.0000;0.3346;1.3148;
909.3000;0.3329;1.3100;
909.6000;0.3346;1.2977;
909.9000;0.3329;1.2904;
910.2000;0.3354;1.2904;
910.5000;0.3280;1.2684;
910.8000;0.3370;1.2904;
911.1000;0.3329;1.2855;
911.4000;0.3370;1.2977;
911.7000;0.3370;1.3075;
912.0000;0.3329;1.2977;
912.3000;0.3346;1.2977;
912.6000;0.3337;1.2977;
912.9000;0.3346;1.3026;
913.2000;0.3354;1.3002;
913.5000;0.3337;1.3051;
913.8000;0.3346;1.3051;
914.1000;0.3346;1.3051;
914.4000;0.3346;1.3051;
914.7000;0.3321;1.3002;
915.0000;0.3337;1.3051;
915.3000;0.3346;1.3026;
915.6000;0.3337;1.2977;
915.9000;0.3329;1.3026;
916.2000;0.3337;1.3075;
916.5000;0.3346;1.3075;
916.8000;0.3354;1.3173;
917.1000;0.3370;1.3173;
917.4000;0.3337;1.3051;
917.7000;0.3346;1.3051;
918.0000;0.3394;1.3124;
918.3000;0.3337;1.3075;
918.6000;0.3337;1.3026;
918.9000;0.3313;1.3051;
919.2000;0.3378;1.3319;
919.5000;0.3337;1.3222;
919.8000;0.3337;1.3197;
920.1000;0.3337;1.3271;
920.4000;0.3337;1.3222;
920.7000;0.3346;1.3222;
921.0000;0.3386;1.3246;
921.3000;0.3337;1.3173;
921.6000;0.3337;1.3148;
921.9000;0.3346;1.3197;
922.2000;0.3337;1.3197;
922.5000;0.3321;1.3173;
922.8000;0.3337;1.3197;
923.1000;0.3346;1.3075;
923.4000;0.3337;1.3075;
923.7000;0.3346;1.3100;
924.0000;0.3321;1.3026;
924.3000;0.3329;1.3148;
924.6000;0.3337;1.3148;
924.9000;0.3313;1.3075;
925.2000;0.3378;1.3173;
925.5000;0.3297;1.2904;
925.8000;0.3346;1.3100;
926.1000;0.3337;1.3075;
926.4000;0.3337;1.3100;
926.7000;0.3329;1.3124;
927.0000;0.3346;1.3051;
927.3000;0.3329;1.2953;
927.6000;0.3313;1.3026;
927.9000;0.3272;1.2928;
928.2000;0.3329;1.3197;
928.5000;0.3329;1.3246;
928.8000;0.3354;1.3246;
929.1000;0.3329;1.3222;
929.4000;0.3321;1.3295;
929.7000;0.3321;1.3319;
930.0000;0.3329;1.3295;
930.3000;0.3313;1.3222;
930.6000;0.3362;1.3222;
930.9000;0.3329;1.3075;
931.2000;0.3305;1.2977;
931.5000;0.3337;1.3002;
931.8000;0.3321;1.3026;
932.1000;0.3337;1.3100;
932.4000;0.3346;1.3026;
932.7000;0.3337;1.3026;
933.0000;0.3329;1.3002;
933.3000;0.3313;1.3075;
933.6000;0.3346;1.3197;
933.9000;0.3346;1.3222;
934.2000;0.3329;1.3295;
934.5000;0.3362;1.3368;
934.8000;0.3346;1.3295;
935.1000;0.3337;1.3417;
935.4000;0.3329;1.3368;
935.7000;0.3337;1.3442;
936.0000;0.3329;1.3442;
936.3000;0.3321;1.3393;
936.6000;0.3329;1.3368;
936.9000;0.3313;1.3368;
937.2000;0.3346;1.3442;
937.5000;0.3354;1.3368;
937.8000;0.3321;1.3271;
938.1000;0.3468;1.3759;
938.4000;0.3321;1.3417;
938.7000;0.3321;1.3393;
939.0000;0.3329;1.3417;
939.3000;0.3305;1.3344;
939.6000;0.3386;1.3564;
939.9000;0.3337;1.3368;
940.2000;0.3411;1.3491;
940.5000;0.3337;1.3246;
940.8000;0.3337;1.3173;
941.1000;0.3329;1.3148;
941.4000;0.3337;1.3148;
941.7000;0.3313;1.3100;
942.0000;0.3329;1.3173;
942.3000;0.3329;1.3051;
942.6000;0.3329;1.3075;
942.9000;0.3272;1.2977;
943.2000;0.3329;1.3075;
943.5000;0.3329;1.3246;
943.8000;0.3337;1.3222;
944.1000;0.3362;1.3271;
944.4000;0.3329;1.3222;
944.7000;0.3329;1.3271;
945.0000;0.3337;1.3246;
945.3000;0.3313;1.3148;
945.6000;0.3354;1.3197;
945.9000;0.3346;1.3173;
946.2000;0.3289;1.3051;
946.5000;0.3346;1.3173;
946.8000;0.3386;1.3271;
947.1000;0.3313;1.3148;
947.4000;0.3337;1.3173;
947.7000;0.3337;1.3100;
948.0000;0.3329;1.3075;
948.3000;0.3313;1.2977;
948.6000;0.3321;1.3075;
948.9000;0.3321;1.3100;
949.2000;0.3272;1.3002;
949.5000;0.3321;1.3173;
949.8000;0.3394;1.3271;
950.1000;0.3313;1.3075;
950.4000;0.3370;1.3222;
950.7000;0.3321;1.3051;
951.0000;0.3321;1.3124;
951.3000;0.3354;1.3246;
951.6000;0.3337;1.3124;
951.9000;0.3321;1.3026;
952.2000;0.3337;1.3124;
952.5000;0.3305;1.3222;
952.8000;0.3321;1.3246;
953.1000;0.3321;1.3222;
953.4000;0.3305;1.3222;
953.7000;0.3321;1.3271;
954.0000;0.3346;1.3295;
954.3000;0.3321;1.3222;
954.6000;0.3321;1.3246;
954.9000;0.3329;1.3246;
955.2000;0.3305;1.3197;
955.5000;0.3321;1.3246;
955.8000;0.3321;1.3197;
956.1000;0.3297;1.3100;
956.4000;0.3313;1.3197;
956.7000;0.3313;1.3148;
957.0000;0.3337;1.3173;
957.3000;0.3354;1.3197;
957.6000;0.3321;1.3197;
957.9000;0.3313;1.3222;
958.2000;0.3313;1.3246;
958.5000;0.3346;1.3295;
958.8000;0.3329;1.3222;
959.1000;0.3337;1.3271;
959.4000;0.3264;1.3075;
959.7000;0.3329;1.3124;
960.0000;0.3362;1.3197;
960.3000;0.3337;1.3148;
960.6000;0.3354;1.3197;
960.9000;0.3337;1.3100;
961.2000;0.3337;1.2977;
961.5000;0.3337;1.2953;
961.8000;0.3337;1.2953;
962.1000;0.3337;1.3002;
962.4000;0.3346;1.3100;
962.7000;0.3362;1.3197;
963.0000;0.3313;1.3075;
963.3000;0.3321;1.3124;
963.6000;0.3329;1.3148;
963.9000;0.3329;1.3197;
964.2000;0.3321;1.3246;
964.5000;0.3329;1.3295;
964.8000;0.3321;1.3271;
965.1000;0.3362;1.3319;
965.4000;0.3354;1.3246;
965.7000;0.3297;1.3197;
966.0000;0.3346;1.3295;
966.3000;0.3362;1.3368;
966.6000;0.3329;1.3295;
966.9000;0.3305;1.3271;
967.2000;0.3321;1.3197;
967.5000;0.3329;1.3124;
967.8000;0.3321;1.3075;
968.1000;0.3321;1.3075;
968.4000;0.3321;1.3051;
968.7000;0.3321;1.2977;
969.0000;0.3313;1.2953;
969.3000;0.3313;1.3051;
969.6000;0.3305;1.3026;
969.9000;0.3321;1.3051;
970.2000;0.3264;1.2904;
970.5000;0.3321;1.3051;
970.8000;0.3313;1.3100;
971.1000;0.3329;1.3222;
971.4000;0.3297;1.3148;
971.7000;0.3297;1.3148;
972.0000;0.3329;1.3319;
972.3000;0.3337;1.3368;
972.6000;0.3346;1.3442;
972.9000;0.3346;1.3442;
973.2000;0.3289;1.3319;
973.5000;0.3232;1.3100;
973.8000;0.3321;1.3368;
974.1000;0.3313;1.3319;
974.4000;0.3313;1.3197;
974.7000;0.3313;1.3124;
975.0000;0.3313;1.3197;
975.3000;0.3321;1.3148;
975.6000;0.3337;1.3148;
975.9000;0.3297;1.3222;
976.2000;0.3313;1.3222;
976.5000;0.3321;1.3295;
976.8000;0.3329;1.3295;
977.1000;0.3329;1.3295;
977.4000;0.3289;1.3197;
977.7000;0.3297;1.3246;
978.0000;0.3354;1.3417;
978.3000;0.3313;1.3393;
978.6000;0.3305;1.3368;
978.9000;0.3321;1.3344;
979.2000;0.3280;1.3148;
979.5000;0.3329;1.3271;
979.8000;0.3305;1.3222;
980.1000;0.3354;1.3246;
980.4000;0.3321;1.3100;
980.7000;0.3321;1.3124;
981.0000;0.3329;1.3148;
981.3000;0.3346;1.3148;
981.6000;0.3346;1.3173;
981.9000;0.3321;1.3124;
982.2000;0.3321;1.3100;
982.5000;0.3337;1.3173;
982.8000;0.3313;1.3148;
983.1000;0.3321;1.3197;
983.4000;0.3329;1.3271;
983.7000;0.3329;1.3271;
984.0000;0.3321;1.3246;
984.3000;0.3313;1.3148;
984.6000;0.3305;1.3100;
984.9000;0.3264;1.3075;
985.2000;0.3313;1.3197;
985.5000;0.3321;1.3100;
985.8000;0.3297;1.3075;
986.1000;0.3321;1.3124;
986.4000;0.3321;1.3100;
986.7000;0.3329;1.3026;
987.0000;0.3305;1.3026;
987.3000;0.3297;1.3051;
987.6000;0.3321;1.3075;
987.9000;0.3337;1.3197;
988.2000;0.3321;1.3124;
988.5000;0.3321;1.3100;
988.8000;0.3305;1.3100;
989.1000;0.3289;1.3051;
989.4000;0.3313;1.3051;
989.7000;0.3337;1.3075;
990.0000;0.3313;1.3002;
990.3000;0.3321;1.3051;
990.6000;0.3280;1.3026;
990.9000;0.3329;1.3148;
991.2000;0.3313;1.3026;
991.5000;0.3337;1.3002;
991.8000;0.3313;1.3051;
992.1000;0.3321;1.3051;
992.4000;0.3313;1.3026;
992.7000;0.3321;1.3100;
993.0000;0.3329;1.3124;
993.3000;0.3329;1.3124;
993.6000;0.3313;1.3100;
993.9000;0.3297;1.3075;
994.2000;0.3313;1.3124;
994.5000;0.3313;1.3173;
994.8000;0.3297;1.3100;
995.1000;0.3346;1.3124;
995.4000;0.3346;1.3124;
995.7000;0.3329;1.3100;
996.0000;0.3329;1.3100;
996.3000;0.3337;1.3173;
996.6000;0.3313;1.3148;
996.9000;0.3321;1.3197;
997.2000;0.3272;1.3002;
997.5000;0.3305;1.3100;
997.8000;0.3321;1.3124;
998.1000;0.3297;1.3148;
998.4000;0.3297;1.3197;
998.7000;0.3305;1.3222;
999.0000;0.3313;1.3246;
999.3000;0.3305;1.3222;
999.6000;0.3321;1.3271;
999.9000;0.3321;1.3295;
1000.2000;0.3297;1.3197;
1000.5000;0.3313;1.3197;
1000.8000;0.3329;1.3197;
1001.1000;0.3329;1.3173;
1001.4000;0.3313;1.3173;
1001.7000;0.3313;1.3100;
1002.0000;0.3305;1.3026;
1002.3000;0.3321;1.3002;
1002.6000;0.3305;1.2977;
1002.9000;0.3305;1.2977;
1003.2000;0.3305;1.3002;
1003.5000;0.3321;1.3051;
1003.8000;0.3305;1.3002;
1004.1000;0.3329;1.2977;
1004.4000;0.3321;1.3026;
1004.7000;0.3337;1.3148;
1005.0000;0.3329;1.3173;
1005.3000;0.3329;1.3100;
1005.6000;0.3337;1.3075;
1005.9000;0.3329;1.3075;
1006.2000;0.3321;1.3148;
1006.5000;0.3394;1.3197;
1006.8000;0.3329;1.3026;
1007.1000;0.3337;1.3051;
1007.4000;0.3321;1.2953;
1007.7000;0.3313;1.2928;
1008.0000;0.3329;1.2928;
1008.3000;0.3313;1.3002;
1008.6000;0.3297;1.3051;
1008.9000;0.3305;1.3026;
1009.2000;0.3297;1.3051;
1009.5000;0.3313;1.3100;
1009.8000;0.3321;1.3100;
1010.1000;0.3305;1.3026;
1010.4000;0.3329;1.3051;
1010.7000;0.3313;1.3051;
1011.0000;0.3305;1.2977;
1011.3000;0.3337;1.3026;
1011.6000;0.3313;1.2953;
1011.9000;0.3329;1.2928;
1012.2000;0.3305;1.2928;
1012.5000;0.3297;1.2855;
1012.8000;0.3305;1.2928;
1013.1000;0.3305;1.2928;
1013.4000;0.3297;1.2977;
1013.7000;0.3305;1.3075;
1014.0000;0.3305;1.3100;
1014.3000;0.3264;1.2904;
1014.6000;0.3305;1.3148;
1014.9000;0.3321;1.3197;
1015.2000;0.3321;1.3222;
1015.5000;0.3313;1.3271;
1015.8000;0.3313;1.3246;
1016.1000;0.3297;1.3197;
1016.4000;0.3321;1.3173;
1016.7000;0.3313;1.3051;
1017.0000;0.3337;1.3075;
1017.3000;0.3321;1.3124;
1017.6000;0.3297;1.3002;
1017.9000;0.3321;1.3148;
1018.2000;0.3329;1.3100;
1018.5000;0.3289;1.2953;
1018.8000;0.3370;1.3124;
1019.1000;0.3289;1.2928;
1019.4000;0.3321;1.3051;
1019.7000;0.3321;1.2977;
1020.0000;0.3411;1.3271;
1020.3000;0.3321;1.3026;
1020.6000;0.3313;1.3124;
1020.9000;0.3272;1.3148;
1021.2000;0.3313;1.3197;
1021.5000;0.3313;1.3197;
1021.8000;0.3329;1.3222;
1022.1000;0.3313;1.3173;
1022.4000;0.3256;1.2953;
1022.7000;0.3321;1.3173;
1023.0000;0.3305;1.3197;
1023.3000;0.3297;1.3173;
1023.6000;0.3329;1.3246;
1023.9000;0.3289;1.3222;
1024.2000;0.3305;1.3148;
1024.5000;0.3354;1.3173;
1024.8000;0.3321;1.3100;
1025.1000;0.3313;1.3124;
1025.4000;0.3305;1.3173;
1025.7000;0.3346;1.3344;
1026.0000;0.3297;1.3222;
1026.3000;0.3329;1.3319;
1026.6000;0.3305;1.3246;
1026.9000;0.3321;1.3271;
1027.2000;0.3321;1.3148;
1027.5000;0.3346;1.3295;
1027.8000;0.3321;1.3271;
1028.1000;0.3313;1.3295;
1028.4000;0.3313;1.3271;
1028.7000;0.3321;1.3246;
1029.0000;0.3313;1.3222;
1029.3000;0.3305;1.3100;
1029.6000;0.3313;1.3173;
1029.9000;0.3329;1.3222;
1030.2000;0.3305;1.3148;
1030.5000;0.3280;1.3075;
1030.8000;0.3321;1.3197;
1031.1000;0.3337;1.3222;
1031.4000;0.3313;1.3246;
1031.7000;0.3305;1.3222;
1032.0000;0.3305;1.3173;
1032.3000;0.3337;1.3319;
1032.6000;0.3305;1.3246;
1032.9000;0.3321;1.3173;
1033.2000;0.3305;1.3148;
1033.5000;0.3321;1.3197;
1033.8000;0.3329;1.3173;
1034.1000;0.3313;1.3148;
1034.4000;0.3313;1.3148;
1034.7000;0.3313;1.3173;
1035.0000;0.3297;1.3124;
1035.3000;0.3321;1.3222;
1035.6000;0.3305;1.3148;
1035.9000;0.3321;1.3197;
1036.2000;0.3329;1.3148;
1036.5000;0.3329;1.3173;
1036.8000;0.3378;1.3295;
1037.1000;0.3313;1.3124;
1037.4000;0.3346;1.3246;
1037.7000;0.3321;1.3246;
1038.0000;0.3313;1.3271;
1038.3000;0.3297;1.3222;
1038.6000;0.3337;1.3246;
1038.9000;0.3362;1.3295;
1039.2000;0.3289;1.3148;
1039.5000;0.3289;1.3197;
1039.8000;0.3289;1.3197;
1040.1000;0.3305;1.3148;
1040.4000;0.3297;1.3075;
1040.7000;0.3313;1.3100;
1041.0000;0.3337;1.3173;
1041.3000;0.3321;1.3148;
1041.6000;0.3337;1.3100;
1041.9000;0.3297;1.2953;
1042.2000;0.3313;1.3026;
1042.5000;0.3313;1.3026;
1042.8000;0.3313;1.2977;
1043.1000;0.3321;1.3002;
1043.4000;0.3346;1.3075;
1043.7000;0.3337;1.3124;
1044.0000;0.3329;1.3148;
1044.3000;0.3321;1.3197;
1044.6000;0.3313;1.3100;
1044.9000;0.3305;1.3100;
1045.2000;0.3313;1.3148;
1045.5000;0.3305;1.3075;
1045.8000;0.3313;1.3124;
1046.1000;0.3305;1.3197;
1046.4000;0.3411;1.3466;
1046.7000;0.3321;1.3222;
1047.0000;0.3305;1.3222;
1047.3000;0.3313;1.3271;
1047.6000;0.3289;1.3197;
1047.9000;0.3313;1.3173;
1048.2000;0.3305;1.3222;
1048.5000;0.3289;1.3100;
1048.8000;0.3321;1.3173;
1049.1000;0.3280;1.3051;
1049.4000;0.3297;1.3173;
1049.7000;0.3321;1.3222;
1050.0000;0.3305;1.3222;
1050.3000;0.3419;1.3466;
1050.6000;0.3337;1.3319;
1050.9000;0.3329;1.3222;
1051.2000;0.3289;1.3148;
1051.5000;0.3362;1.3295;
1051.8000;0.3321;1.3173;
1052.1000;0.3313;1.3246;
1052.4000;0.3386;1.3417;
1052.7000;0.3272;1.3075;
1053.0000;0.3403;1.3319;
1053.3000;0.3297;1.3124;
1053.6000;0.3289;1.3100;
1053.9000;0.3329;1.3124;
1054.2000;0.3321;1.3124;
1054.5000;0.3362;1.3124;
1054.8000;0.3321;1.3051;
1055.1000;0.3337;1.2953;
1055.4000;0.3329;1.2855;
1055.7000;0.3313;1.2831;
1056.0000;0.3313;1.2880;
1056.3000;0.3305;1.2904;
1056.6000;0.3329;1.2977;
1056.9000;0.3329;1.3026;
1057.2000;0.3305;1.2904;
1057.5000;0.3297;1.2904;
1057.8000;0.3305;1.2928;
1058.1000;0.3305;1.2953;
1058.4000;0.3305;1.2904;
1058.7000;0.3305;1.2855;
1059.0000;0.3321;1.2953;
1059.3000;0.3321;1.2953;
1059.6000;0.3297;1.3002;
1059.9000;0.3305;1.3051;
1060.2000;0.3289;1.3002;
1060.5000;0.3305;1.2953;
1060.8000;0.3305;1.3002;
1061.1000;0.3280;1.2977;
1061.4000;0.3313;1.3051;
1061.7000;0.3337;1.3173;
1062.0000;0.3313;1.3124;
1062.3000;0.3321;1.3197;
1062.6000;0.3297;1.3173;
1062.9000;0.3321;1.3173;
1063.2000;0.3280;1.3100;
1063.5000;0.3337;1.3246;
1063.8000;0.3305;1.3148;
1064.1000;0.3321;1.3148;
1064.4000;0.3280;1.3100;
1064.7000;0.3313;1.3002;
1065.0000;0.3321;1.3124;
1065.3000;0.3313;1.3124;
1065.6000;0.3313;1.3051;
1065.9000;0.3313;1.3002;
1066.2000;0.3305;1.2977;
1066.5000;0.3337;1.3100;
1066.8000;0.3329;1.3100;
1067.1000;0.3305;1.3026;
1067.4000;0.3264;1.2928;
1067.7000;0.3305;1.3026;
1068.0000;0.3329;1.3124;
1068.3000;0.3386;1.3271;
1068.6000;0.3305;1.3124;
1068.9000;0.3280;1.3173;
1069.2000;0.3313;1.3246;
1069.5000;0.3313;1.3246;
1069.8000;0.3305;1.3319;
1070.1000;0.3305;1.3393;
1070.4000;0.3329;1.3344;
1070.7000;0.3321;1.3344;
1071.0000;0.3321;1.3368;
1071.3000;0.3321;1.3417;
1071.6000;0.3297;1.3319;
1071.9000;0.3305;1.3344;
1072.2000;0.3289;1.3222;
1072.5000;0.3297;1.3148;
1072.8000;0.3289;1.3051;
1073.1000;0.3362;1.3271;
1073.4000;0.3297;1.3075;
1073.7000;0.3313;1.3148;
1074.0000;0.3313;1.3222;
1074.3000;0.3321;1.3271;
1074.6000;0.3321;1.3222;
1074.9000;0.3321;1.3222;
1075.2000;0.3321;1.3173;
1075.5000;0.3337;1.3344;
1075.8000;0.3305;1.3344;
1076.1000;0.3232;1.3075;
1076.4000;0.3321;1.3246;
1076.7000;0.3313;1.3246;
1077.0000;0.3313;1.3271;
1077.3000;0.3337;1.3295;
1077.6000;0.3321;1.3271;
1077.9000;0.3297;1.3197;
1078.2000;0.3329;1.3222;
1078.5000;0.3313;1.3271;
1078.8000;0.3305;1.3197;
1079.1000;0.3305;1.3246;
1079.4000;0.3313;1.3173;
1079.7000;0.3337;1.3246;
1080.0000;0.3321;1.3246;
1080.3000;0.3305;1.3271;
1080.6000;0.3297;1.3197;
1080.9000;0.3313;1.3246;
1081.2000;0.3297;1.3197;
1081.5000;0.3305;1.3197;
1081.8000;0.3329;1.3222;
1082.1000;0.3354;1.3222;
1082.4000;0.3280;1.2928;
1082.7000;0.3248;1.2806;
1083.0000;0.3313;1.3002;
1083.3000;0.3297;1.2928;
1083.6000;0.3297;1.2977;
1083.9000;0.3313;1.3002;
1084.2000;0.3394;1.3222;
1084.5000;0.3313;1.3075;
1084.8000;0.3297;1.3051;
1085.1000;0.3305;1.2977;
1085.4000;0.3329;1.3197;
1085.7000;0.3321;1.3197;
1086.0000;0.3313;1.3148;
1086.3000;0.3305;1.3222;
1086.6000;0.3337;1.3295;
1086.9000;0.3329;1.3319;
1087.2000;0.3313;1.3222;
1087.5000;0.3321;1.3100;
1087.8000;0.3313;1.3100;
1088.1000;0.3305;1.3100;
1088.4000;0.3337;1.3197;
1088.7000;0.3297;1.3148;
1089.0000;0.3289;1.3026;
1089.3000;0.3297;1.3051;
1089.6000;0.3337;1.3148;
1089.9000;0.3305;1.3026;
1090.2000;0.3297;1.3026;
1090.5000;0.3297;1.3051;
1090.8000;0.3305;1.3075;
1091.1000;0.3313;1.3148;
1091.4000;0.3313;1.3100;
1091.7000;0.3305;1.3051;
1092.0000;0.3313;1.3124;
1092.3000;0.3297;1.3173;
1092.6000;0.3321;1.3197;
1092.9000;0.3289;1.3197;
1093.2000;0.3305;1.3295;
1093.5000;0.3297;1.3271;
1093.8000;0.3289;1.3222;
1094.1000;0.3305;1.3295;
1094.4000;0.3280;1.3173;
1094.7000;0.3297;1.3246;
1095.0000;0.3305;1.3271;
1095.3000;0.3297;1.3271;
1095.6000;0.3305;1.3393;
1095.9000;0.3305;1.3393;
1096.2000;0.3297;1.3295;
1096.5000;0.3313;1.3344;
1096.8000;0.3305;1.3344;
1097.1000;0.3313;1.3319;
1097.4000;0.3329;1.3319;
1097.7000;0.3329;1.3246;
1098.0000;0.3305;1.3295;
1098.3000;0.3305;1.3344;
1098.6000;0.3305;1.3319;
1098.9000;0.3305;1.3246;
1099.2000;0.3256;1.3100;
1099.5000;0.3313;1.3173;
1099.8000;0.3329;1.3173;
1100.1000;0.3321;1.3197;
1100.4000;0.3313;1.3246;
1100.7000;0.3329;1.3222;
1101.0000;0.3313;1.3197;
1101.3000;0.3313;1.3222;
1101.6000;0.3313;1.3319;
1101.9000;0.3305;1.3319;
1102.2000;0.3305;1.3319;
1102.5000;0.3305;1.3197;
1102.8000;0.3289;1.3124;
1103.1000;0.3280;1.3246;
1103.4000;0.3313;1.3319;
1103.7000;0.3289;1.3393;
1104.0000;0.3305;1.3393;
1104.3000;0.3272;1.3295;
1104.6000;0.3280;1.3222;
1104.9000;0.3321;1.3222;
1105.2000;0.3411;1.3368;
1105.5000;0.3313;1.3148;
1105.8000;0.3313;1.3124;
1106.1000;0.3305;1.3100;
1106.4000;0.3297;1.3148;
1106.7000;0.3305;1.3173;
1107.0000;0.3305;1.3148;
1107.3000;0.3256;1.2904;
1107.6000;0.3305;1.3100;
1107.9000;0.3297;1.3075;
1108.2000;0.3289;1.3100;
1108.5000;0.3313;1.3197;
1108.8000;0.3240;1.3051;
1109.1000;0.3321;1.3246;
1109.4000;0.3305;1.3197;
1109.7000;0.3321;1.3222;
1110.0000;0.3289;1.3173;
1110.3000;0.3289;1.3173;
1110.6000;0.3313;1.3222;
1110.9000;0.3313;1.3271;
1111.2000;0.3305;1.3246;
1111.5000;0.3313;1.3344;
1111.8000;0.3305;1.3344;
1112.1000;0.3264;1.3295;
1112.4000;0.3394;1.3588;
1112.7000;0.3305;1.3319;
1113.0000;0.3329;1.3368;
1113.3000;0.3313;1.3319;
1113.6000;0.3354;1.3344;
1113.9000;0.3329;1.3344;
1114.2000;0.3305;1.3319;
1114.5000;0.3313;1.3295;
1114.8000;0.3321;1.3417;
1115.1000;0.3313;1.3491;
1115.4000;0.3346;1.3515;
1115.7000;0.3321;1.3393;
1116.0000;0.3321;1.3271;
1116.3000;0.3289;1.3197;
1116.6000;0.3313;1.3319;
1116.9000;0.3297;1.3295;
1117.2000;0.3313;1.3344;
1117.5000;0.3321;1.3271;
1117.8000;0.3313;1.3344;
1118.1000;0.3297;1.3319;
1118.4000;0.3313;1.3368;
1118.7000;0.3297;1.3344;
1119.0000;0.3337;1.3417;
1119.3000;0.3256;1.3319;
1119.6000;0.3272;1.3344;
1119.9000;0.3305;1.3442;
1120.2000;0.3256;1.3271;
1120.5000;0.3297;1.3319;
1120.8000;0.3321;1.3344;
1121.1000;0.3297;1.3271;
1121.4000;0.3321;1.3319;
1121.7000;0.3305;1.3246;
1122.0000;0.3321;1.3319;
1122.3000;0.3305;1.3295;
1122.6000;0.3321;1.3319;
1122.9000;0.3305;1.3319;
1123.2000;0.3240;1.3148;
1123.5000;0.3305;1.3148;
1123.8000;0.3272;1.3100;
1124.1000;0.3321;1.3246;
1124.4000;0.3289;1.3222;
1124.7000;0.3280;1.3124;
1125.0000;0.3305;1.3246;
1125.3000;0.3289;1.3319;
1125.6000;0.3305;1.3368;
1125.9000;0.3289;1.3295;
1126.2000;0.3386;1.3442;
1126.5000;0.3329;1.3271;
1126.8000;0.3297;1.3197;
1127.1000;0.3321;1.3246;
1127.4000;0.3305;1.3173;
1127.7000;0.3305;1.3148;
1128.0000;0.3313;1.3197;
1128.3000;0.3289;1.3197;
1128.6000;0.3280;1.3197;
1128.9000;0.3305;1.3271;
1129.2000;0.3305;1.3319;
1129.5000;0.3305;1.3271;
1129.8000;0.3305;1.3295;
1130.1000;0.3346;1.3442;
1130.4000;0.3346;1.3539;
1130.7000;0.3272;1.3344;
1131.0000;0.3297;1.3393;
1131.3000;0.3305;1.3442;
1131.6000;0.3297;1.3344;
1131.9000;0.3289;1.3344;
1132.2000;0.3289;1.3344;
1132.5000;0.3305;1.3466;
1132.8000;0.3305;1.3466;
1133.1000;0.3305;1.3368;
1133.4000;0.3289;1.3295;
1133.7000;0.3305;1.3344;
1134.0000;0.3305;1.3319;
1134.3000;0.3297;1.3246;
1134.6000;0.3305;1.3271;
1134.9000;0.3346;1.3466;
1135.2000;0.3313;1.3393;
1135.5000;0.3337;1.3442;
1135.8000;0.3313;1.3393;
1136.1000;0.3313;1.3417;
1136.4000;0.3313;1.3393;
1136.7000;0.3289;1.3319;
1137.0000;0.3297;1.3368;
1137.3000;0.3321;1.3319;
1137.6000;0.3305;1.3368;
1137.9000;0.3329;1.3344;
1138.2000;0.3321;1.3319;
1138.5000;0.3289;1.3344;
1138.8000;0.3321;1.3368;
1139.1000;0.3305;1.3417;
1139.4000;0.3313;1.3393;
1139.7000;0.3313;1.3393;
1140.0000;0.3313;1.3319;
1140.3000;0.3329;1.3417;
1140.6000;0.3313;1.3393;
1140.9000;0.3321;1.3319;
1141.2000;0.3329;1.3246;
1141.5000;0.3305;1.3271;
1141.8000;0.3321;1.3417;
1142.1000;0.3297;1.3393;
1142.4000;0.3313;1.3466;
1142.7000;0.3297;1.3344;
1143.0000;0.3264;1.3222;
1143.3000;0.3289;1.3295;
1143.6000;0.3297;1.3319;
1143.9000;0.3297;1.3246;
1144.2000;0.3329;1.3319;
1144.5000;0.3240;1.3100;
1144.8000;0.3297;1.3246;
1145.1000;0.3305;1.3271;
1145.4000;0.3264;1.3246;
1145.7000;0.3313;1.3368;
1146.0000;0.3313;1.3344;
1146.3000;0.3321;1.3295;
1146.6000;0.3297;1.3271;
1146.9000;0.3394;1.3491;
1147.2000;0.3321;1.3295;
1147.5000;0.3289;1.3222;
1147.8000;0.3305;1.3295;
1148.1000;0.3321;1.3271;
1148.4000;0.3313;1.3271;
1148.7000;0.3297;1.3148;
1149.0000;0.3313;1.3246;
1149.3000;0.3297;1.3222;
1149.6000;0.3280;1.3197;
1149.9000;0.3289;1.3222;
1150.2000;0.3305;1.3246;
1150.5000;0.3321;1.3246;
1150.8000;0.3297;1.3271;
1151.1000;0.3313;1.3271;
1151.4000;0.3305;1.3222;
1151.7000;0.3297;1.3271;
1152.0000;0.3305;1.3197;
1152.3000;0.3232;1.3026;
1152.6000;0.3313;1.3319;
1152.9000;0.3305;1.3271;
1153.2000;0.3313;1.3319;
1153.5000;0.3289;1.3295;
1153.8000;0.3289;1.3222;
1154.1000;0.3321;1.3222;
1154.4000;0.3280;1.3075;
1154.7000;0.3305;1.3100;
1155.0000;0.3297;1.3075;
1155.3000;0.3321;1.3051;
1155.6000;0.3305;1.3002;
1155.9000;0.3313;1.3124;
1156.2000;0.3289;1.3100;
1156.5000;0.3305;1.3173;
1156.8000;0.3321;1.3246;
1157.1000;0.3305;1.3173;
1157.4000;0.3297;1.3100;
1157.7000;0.3297;1.3100;
1158.0000;0.3321;1.3173;
1158.3000;0.3321;1.3197;
1158.6000;0.3289;1.3173;
1158.9000;0.3280;1.3148;
1159.2000;0.3321;1.3271;
1159.5000;0.3321;1.3222;
1159.8000;0.3215;1.2977;
1160.1000;0.3313;1.3271;
1160.4000;0.3289;1.3222;
1160.7000;0.3232;1.2977;
1161.0000;0.3280;1.3100;
1161.3000;0.3313;1.3222;
1161.6000;0.3305;1.3148;
1161.9000;0.3329;1.3197;
1162.2000;0.3297;1.3295;
1162.5000;0.3289;1.3417;
1162.8000;0.3321;1.3393;
1163.1000;0.3297;1.3271;
1163.4000;0.3305;1.3222;
1163.7000;0.3207;1.3002;
1164.0000;0.3264;1.3246;
1164.3000;0.3305;1.3271;
1164.6000;0.3280;1.3197;
1164.9000;0.3305;1.3197;
1165.2000;0.3354;1.3344;
1165.5000;0.3305;1.3295;
1165.8000;0.3305;1.3271;
1166.1000;0.3289;1.3319;
1166.4000;0.3337;1.3344;
1166.7000;0.3207;1.2977;
1167.0000;0.3370;1.3319;
1167.3000;0.3313;1.3148;
1167.6000;0.3297;1.3075;
1167.9000;0.3329;1.3075;
1168.2000;0.3329;1.3100;
1168.5000;0.3346;1.3197;
1168.8000;0.3272;1.3100;
1169.1000;0.3272;1.3197;
1169.4000;0.3264;1.3222;
1169.7000;0.3305;1.3319;
1170.0000;0.3297;1.3271;
1170.3000;0.3289;1.3173;
1170.6000;0.3297;1.3197;
1170.9000;0.3354;1.3319;
1171.2000;0.3289;1.3100;
1171.5000;0.3280;1.3051;
1171.8000;0.3297;1.3246;
1172.1000;0.3305;1.3197;
1172.4000;0.3313;1.3246;
1172.7000;0.3321;1.3295;
1173.0000;0.3289;1.3271;
1173.3000;0.3313;1.3393;
1173.6000;0.3313;1.3466;
1173.9000;0.3329;1.3442;
1174.2000;0.3297;1.3344;
1174.5000;0.3337;1.3344;
1174.8000;0.3305;1.3368;
1175.1000;0.3297;1.3417;
1175.4000;0.3297;1.3393;
1175.7000;0.3378;1.3539;
1176.0000;0.3313;1.3417;
1176.3000;0.3297;1.3393;
1176.6000;0.3329;1.3442;
1176.9000;0.3305;1.3368;
1177.2000;0.3329;1.3442;
1177.5000;0.3313;1.3417;
1177.8000;0.3305;1.3393;
1178.1000;0.3297;1.3344;
1178.4000;0.3297;1.3295;
1178.7000;0.3305;1.3271;
1179.0000;0.3313;1.3271;
1179.3000;0.3297;1.3271;
1179.6000;0.3321;1.3417;
1179.9000;0.3289;1.3393;
1180.2000;0.3297;1.3417;
1180.5000;0.3305;1.3417;
1180.8000;0.3297;1.3466;
1181.1000;0.3321;1.3515;
1181.4000;0.3362;1.3466;
1181.7000;0.3329;1.3393;
1182.0000;0.3321;1.3417;
1182.3000;0.3313;1.3491;
1182.6000;0.3305;1.3564;
1182.9000;0.3305;1.3613;
1183.2000;0.3305;1.3662;
1183.5000;0.3337;1.3735;
1183.8000;0.3313;1.3710;
1184.1000;0.3289;1.3637;
1184.4000;0.3256;1.3662;
1184.7000;0.3297;1.3686;
1185.0000;0.3305;1.3637;
1185.3000;0.3264;1.3539;
1185.6000;0.3297;1.3564;
1185.9000;0.3329;1.3588;
1186.2000;0.3321;1.3466;
1186.5000;0.3313;1.3491;
1186.8000;0.3305;1.3515;
1187.1000;0.3297;1.3491;
1187.4000;0.3297;1.3491;
1187.7000;0.3313;1.3539;
1188.0000;0.3321;1.3564;
1188.3000;0.3329;1.3466;
1188.6000;0.3321;1.3466;
1188.9000;0.3305;1.3491;
1189.2000;0.3305;1.3466;
1189.5000;0.3305;1.3417;
1189.8000;0.3305;1.3393;
1190.1000;0.3280;1.3417;
1190.4000;0.3280;1.3466;
1190.7000;0.3313;1.3417;
1191.0000;0.3289;1.3393;
1191.3000;0.3313;1.3393;
1191.6000;0.3289;1.3393;
1191.9000;0.3313;1.3417;
1192.2000;0.3248;1.3368;
1192.5000;0.3313;1.3564;
1192.8000;0.3289;1.3442;
1193.1000;0.3280;1.3417;
1193.4000;0.3305;1.3564;
1193.7000;0.3305;1.3515;
1194.0000;0.3297;1.3466;
1194.3000;0.3297;1.3368;
1194.6000;0.3280;1.3368;
1194.9000;0.3297;1.3393;
1195.2000;0.3305;1.3442;
1195.5000;0.3305;1.3466;
1195.8000;0.3289;1.3442;
1196.1000;0.3321;1.3417;
1196.4000;0.3321;1.3344;
1196.7000;0.3305;1.3344;
1197.0000;0.3305;1.3393;
1197.3000;0.3297;1.3417;
1197.6000;0.3305;1.3466;
1197.9000;0.3313;1.3417;
1198.2000;0.3305;1.3491;
1198.5000;0.3305;1.3466;
1198.8000;0.3297;1.3417;
1199.1000;0.3337;1.3515;
1199.4000;0.3305;1.3442;
1199.7000;0.3280;1.3417;
1200.0000;0.3329;1.3515;
1200.3000;0.3272;1.3344;
1200.6000;0.3313;1.3417;
1200.9000;0.3305;1.3491;
1201.2000;0.3297;1.3466;
1201.5000;0.3297;1.3368;
1201.8000;0.3223;1.3100;
1202.1000;0.3337;1.3466;
1202.4000;0.3272;1.3319;
1202.7000;0.3297;1.3417;
1203.0000;0.3297;1.3491;
1203.3000;0.3272;1.3515;
1203.6000;0.3321;1.3662;
1203.9000;0.3297;1.3637;
1204.2000;0.3297;1.3710;
1204.5000;0.3305;1.3662;
1204.8000;0.3289;1.3564;
1205.1000;0.3272;1.3588;
1205.4000;0.3289;1.3564;
1205.7000;0.3321;1.3613;
1206.0000;0.3321;1.3588;
1206.3000;0.3305;1.3564;
1206.6000;0.3272;1.3368;
1206.9000;0.3289;1.3319;
1207.2000;0.3272;1.3295;
1207.5000;0.3313;1.3417;
1207.8000;0.3297;1.3344;
1208.1000;0.3321;1.3417;
1208.4000;0.3289;1.3466;
1208.7000;0.3297;1.3515;
1209.0000;0.3305;1.3491;
1209.3000;0.3280;1.3417;
1209.6000;0.3297;1.3417;
1209.9000;0.3346;1.3466;
1210.2000;0.3305;1.3319;
1210.5000;0.3289;1.3197;
1210.8000;0.3297;1.3173;
1211.1000;0.3305;1.3197;
1211.4000;0.3313;1.3271;
1211.7000;0.3305;1.3319;
1212.0000;0.3297;1.3344;
1212.3000;0.3297;1.3393;
1212.6000;0.3297;1.3417;
1212.9000;0.3297;1.3491;
1213.2000;0.3289;1.3466;
1213.5000;0.3297;1.3466;
1213.8000;0.3297;1.3442;
1214.1000;0.3305;1.3417;
1214.4000;0.3321;1.3417;
1214.7000;0.3297;1.3344;
1215.0000;0.3297;1.3344;
1215.3000;0.3321;1.3466;
1215.6000;0.3305;1.3491;
1215.9000;0.3321;1.3564;
1216.2000;0.3297;1.3491;
1216.5000;0.3313;1.3515;
1216.8000;0.3313;1.3491;
1217.1000;0.3321;1.3442;
1217.4000;0.3321;1.3466;
1217.7000;0.3289;1.3466;
1218.0000;0.3305;1.3515;
1218.3000;0.3289;1.3515;
1218.6000;0.3305;1.3564;
1218.9000;0.3305;1.3466;
1219.2000;0.3305;1.3417;
1219.5000;0.3297;1.3417;
1219.8000;0.3297;1.3368;
1220.1000;0.3280;1.3271;
1220.4000;0.3313;1.3344;
1220.7000;0.3321;1.3344;
1221.0000;0.3305;1.3319;
1221.3000;0.3305;1.3368;
1221.6000;0.3337;1.3466;
1221.9000;0.3313;1.3417;
1222.2000;0.3313;1.3368;
1222.5000;0.3321;1.3344;
1222.8000;0.3329;1.3295;
1223.1000;0.3305;1.3271;
1223.4000;0.3313;1.3222;
1223.7000;0.3370;1.3491;
1224.0000;0.3313;1.3295;
1224.3000;0.3305;1.3222;
1224.6000;0.3289;1.3222;
1224.9000;0.3280;1.3197;
1225.2000;0.3346;1.3295;
1225.5000;0.3297;1.3148;
1225.8000;0.3305;1.3173;
1226.1000;0.3329;1.3222;
1226.4000;0.3297;1.3100;
1226.7000;0.3280;1.3100;
1227.0000;0.3305;1.3271;
1227.3000;0.3289;1.3271;
1227.6000;0.3297;1.3271;
1227.9000;0.3305;1.3271;
1228.2000;0.3305;1.3271;
1228.5000;0.3305;1.3271;
1228.8000;0.3264;1.3173;
1229.1000;0.3297;1.3295;
1229.4000;0.3297;1.3344;
1229.7000;0.3272;1.3319;
1230.0000;0.3305;1.3466;
1230.3000;0.3289;1.3491;
1230.6000;0.3305;1.3564;
1230.9000;0.3305;1.3564;
1231.2000;0.3289;1.3539;
1231.5000;0.3297;1.3539;
1231.8000;0.3313;1.3613;
1232.1000;0.3297;1.3564;
1232.4000;0.3313;1.3539;
1232.7000;0.3313;1.3515;
1233.0000;0.3313;1.3564;
1233.3000;0.3321;1.3588;
1233.6000;0.3313;1.3515;
1233.9000;0.3248;1.3319;
1234.2000;0.3313;1.3539;
1234.5000;0.3346;1.3564;
1234.8000;0.3313;1.3491;
1235.1000;0.3321;1.3368;
1235.4000;0.3305;1.3295;
1235.7000;0.3297;1.3344;
1236.0000;0.3297;1.3393;
1236.3000;0.3297;1.3417;
1236.6000;0.3297;1.3442;
1236.9000;0.3297;1.3466;
1237.2000;0.3297;1.3417;
1237.5000;0.3272;1.3368;
1237.8000;0.3280;1.3319;
1238.1000;0.3272;1.3295;
1238.4000;0.3289;1.3271;
1238.7000;0.3297;1.3344;
1239.0000;0.3297;1.3368;
1239.3000;0.3280;1.3295;
1239.6000;0.3280;1.3295;
1239.9000;0.3272;1.3368;
1240.2000;0.3289;1.3393;
1240.5000;0.3297;1.3319;
1240.8000;0.3329;1.3368;
1241.1000;0.3297;1.3344;
1241.4000;0.3321;1.3417;
1241.7000;0.3329;1.3368;
1242.0000;0.3321;1.3344;
1242.3000;0.3313;1.3295;
1242.6000;0.3289;1.3246;
1242.9000;0.3297;1.3246;
1243.2000;0.3297;1.3197;
1243.5000;0.3256;1.3026;
1243.8000;0.3280;1.3124;
1244.1000;0.3297;1.3222;
1244.4000;0.3297;1.3295;
1244.7000;0.3313;1.3344;
1245.0000;0.3264;1.3295;
1245.3000;0.3305;1.3271;
1245.6000;0.3313;1.3246;
1245.9000;0.3313;1.3246;
1246.2000;0.3297;1.3173;
1246.5000;0.3305;1.3197;
1246.8000;0.3289;1.3173;
1247.1000;0.3272;1.3100;
1247.4000;0.3289;1.3148;
1247.7000;0.3297;1.3173;
1248.0000;0.3305;1.3319;
1248.3000;0.3297;1.3319;
1248.6000;0.3289;1.3344;
1248.9000;0.3264;1.3319;
1249.2000;0.3297;1.3442;
1249.5000;0.3305;1.3515;
1249.8000;0.3305;1.3442;
1250.1000;0.3240;1.3295;
1250.4000;0.3305;1.3491;
1250.7000;0.3280;1.3491;
1251.0000;0.3297;1.3466;
1251.3000;0.3313;1.3344;
1251.6000;0.3305;1.3319;
1251.9000;0.3297;1.3344;
1252.2000;0.3305;1.3393;
1252.5000;0.3297;1.3368;
1252.8000;0.3289;1.3197;
1253.1000;0.3248;1.3148;
1253.4000;0.3272;1.3197;
1253.7000;0.3297;1.3319;
1254.0000;0.3280;1.3295;
1254.3000;0.3313;1.3344;
1254.6000;0.3305;1.3295;
1254.9000;0.3256;1.3173;
1255.2000;0.3248;1.3124;
1255.5000;0.3297;1.3246;
1255.8000;0.3305;1.3344;
1256.1000;0.3313;1.3319;
1256.4000;0.3451;1.3710;
1256.7000;0.3313;1.3271;
1257.0000;0.3272;1.3148;
1257.3000;0.3305;1.3271;
1257.6000;0.3305;1.3319;
1257.9000;0.3264;1.3246;
1258.2000;0.3305;1.3319;
1258.5000;0.3297;1.3295;
1258.8000;0.3297;1.3344;
1259.1000;0.3280;1.3246;
1259.4000;0.3289;1.3246;
1259.7000;0.3305;1.3271;
1260.0000;0.3280;1.3271;
1260.3000;0.3272;1.3271;
1260.6000;0.3297;1.3319;
1260.9000;0.3297;1.3368;
1261.2000;0.3313;1.3417;
1261.5000;0.3297;1.3344;
1261.8000;0.3280;1.3393;
1262.1000;0.3305;1.3442;
1262.4000;0.3305;1.3442;
1262.7000;0.3305;1.3417;
1263.0000;0.3305;1.3442;
1263.3000;0.3289;1.3539;
1263.6000;0.3289;1.3588;
1263.9000;0.3297;1.3564;
1264.2000;0.3297;1.3515;
1264.5000;0.3289;1.3368;
1264.8000;0.3346;1.3588;
1265.1000;0.3313;1.3613;
1265.4000;0.3297;1.3539;
1265.7000;0.3297;1.3613;
1266.0000;0.3280;1.3588;
1266.3000;0.3305;1.3539;
1266.6000;0.3272;1.3368;
1266.9000;0.3289;1.3344;
1267.2000;0.3305;1.3393;
1267.5000;0.3305;1.3344;
1267.8000;0.3305;1.3319;
1268.1000;0.3297;1.3368;
1268.4000;0.3272;1.3368;
1268.7000;0.3297;1.3442;
1269.0000;0.3280;1.3417;
1269.3000;0.3362;1.3539;
1269.6000;0.3289;1.3417;
1269.9000;0.3297;1.3344;
1270.2000;0.3305;1.3344;
1270.5000;0.3313;1.3295;
1270.8000;0.3313;1.3319;
1271.1000;0.3305;1.3393;
1271.4000;0.3321;1.3442;
1271.7000;0.3297;1.3344;
1272.0000;0.3305;1.3393;
1272.3000;0.3313;1.3442;
1272.6000;0.3272;1.3344;
1272.9000;0.3313;1.3368;
1273.2000;0.3305;1.3393;
1273.5000;0.3289;1.3393;
1273.8000;0.3313;1.3466;
1274.1000;0.3297;1.3368;
1274.4000;0.3272;1.3246;
1274.7000;0.3289;1.3368;
1275.0000;0.3297;1.3466;
1275.3000;0.3297;1.3442;
1275.6000;0.3264;1.3368;
1275.9000;0.3337;1.3491;
1276.2000;0.3313;1.3442;
1276.5000;0.3305;1.3466;
1276.8000;0.3289;1.3393;
1277.1000;0.3305;1.3393;
1277.4000;0.3305;1.3417;
1277.7000;0.3305;1.3295;
1278.0000;0.3280;1.3197;
1278.3000;0.3280;1.3148;
1278.6000;0.3297;1.3100;
1278.9000;0.3394;1.3368;
1279.2000;0.3280;1.3002;
1279.5000;0.3354;1.3197;
1279.8000;0.3305;1.3124;
1280.1000;0.3329;1.3271;
1280.4000;0.3313;1.3197;
1280.7000;0.3289;1.3173;
1281.0000;0.3305;1.3197;
1281.3000;0.3297;1.3222;
1281.6000;0.3297;1.3197;
1281.9000;0.3289;1.3246;
1282.2000;0.3337;1.3417;
1282.5000;0.3297;1.3344;
1282.8000;0.3337;1.3466;
1283.1000;0.3321;1.3393;
1283.4000;0.3289;1.3295;
1283.7000;0.3305;1.3295;
1284.0000;0.3289;1.3222;
1284.3000;0.3305;1.3271;
1284.6000;0.3272;1.3295;
1284.9000;0.3280;1.3319;
1285.2000;0.3232;1.3173;
1285.5000;0.3305;1.3368;
1285.8000;0.3289;1.3344;
1286.1000;0.3305;1.3368;
1286.4000;0.3313;1.3417;
1286.7000;0.3321;1.3393;
1287.0000;0.3305;1.3393;
1287.3000;0.3305;1.3491;
1287.6000;0.3305;1.3564;
1287.9000;0.3305;1.3515;
1288.2000;0.3297;1.3466;
1288.5000;0.3297;1.3442;
1288.8000;0.3337;1.3539;
1289.1000;0.3297;1.3417;
1289.4000;0.3280;1.3319;
1289.7000;0.3289;1.3344;
1290.0000;0.3305;1.3368;
1290.3000;0.3297;1.3417;
1290.6000;0.3313;1.3539;
1290.9000;0.3289;1.3442;
1291.2000;0.3305;1.3466;
1291.5000;0.3305;1.3539;
1291.8000;0.3313;1.3491;
1292.1000;0.3305;1.3564;
1292.4000;0.3313;1.3539;
1292.7000;0.3280;1.3442;
1293.0000;0.3280;1.3417;
1293.3000;0.3289;1.3368;
1293.6000;0.3289;1.3393;
1293.9000;0.3280;1.3466;
1294.2000;0.3289;1.3539;
1294.5000;0.3289;1.3515;
1294.8000;0.3280;1.3466;
1295.1000;0.3394;1.3710;
1295.4000;0.3321;1.3491;
1295.7000;0.3297;1.3442;
1296.0000;0.3313;1.3442;
1296.3000;0.3289;1.3466;
1296.6000;0.3305;1.3588;
1296.9000;0.3297;1.3613;
1297.2000;0.3289;1.3613;
1297.5000;0.3305;1.3539;
1297.8000;0.3305;1.3442;
1298.1000;0.3329;1.3442;
1298.4000;0.3411;1.3662;
1298.7000;0.3280;1.3417;
1299.0000;0.3313;1.3515;
1299.3000;0.3362;1.3588;
1299.6000;0.3248;1.3319;
1299.9000;0.3297;1.3466;
1300.2000;0.3289;1.3417;
1300.5000;0.3313;1.3442;
1300.8000;0.3329;1.3539;
1301.1000;0.3305;1.3539;
1301.4000;0.3305;1.3466;
1301.7000;0.3313;1.3491;
1302.0000;0.3313;1.3442;
1302.3000;0.3289;1.3442;
1302.6000;0.3289;1.3417;
1302.9000;0.3280;1.3393;
1303.2000;0.3321;1.3417;
1303.5000;0.3354;1.3515;
1303.8000;0.3289;1.3246;
1304.1000;0.3297;1.3271;
1304.4000;0.3305;1.3295;
1304.7000;0.3297;1.3295;
1305.0000;0.3305;1.3442;
1305.3000;0.3297;1.3417;
1305.6000;0.3313;1.3442;
1305.9000;0.3289;1.3442;
1306.2000;0.3289;1.3564;
1306.5000;0.3297;1.3466;
1306.8000;0.3289;1.3368;
1307.1000;0.3297;1.3344;
1307.4000;0.3305;1.3295;
1307.7000;0.3272;1.3271;
1308.0000;0.3297;1.3246;
1308.3000;0.3321;1.3222;
1308.6000;0.3289;1.3148;
1308.9000;0.3289;1.3173;
1309.2000;0.3289;1.3197;
1309.5000;0.3289;1.3271;
1309.8000;0.3289;1.3246;
1310.1000;0.3289;1.3197;
1310.4000;0.3289;1.3148;
1310.7000;0.3305;1.3222;
1311.0000;0.3362;1.3344;
1311.3000;0.3289;1.3197;
1311.6000;0.3297;1.3271;
1311.9000;0.3280;1.3197;
1312.2000;0.3305;1.3295;
1312.5000;0.3297;1.3246;
1312.8000;0.3297;1.3222;
1313.1000;0.3305;1.3222;
1313.4000;0.3337;1.3344;
1313.7000;0.3305;1.3295;
1314.0000;0.3297;1.3319;
1314.3000;0.3313;1.3368;
1314.6000;0.3305;1.3442;
1314.9000;0.3321;1.3442;
1315.2000;0.3305;1.3368;
1315.5000;0.3403;1.3662;
1315.8000;0.3329;1.3539;
1316.1000;0.3264;1.3319;
1316.4000;0.3354;1.3539;
1316.7000;0.3297;1.3344;
1317.0000;0.3305;1.3417;
1317.3000;0.3305;1.3442;
1317.6000;0.3297;1.3393;
1317.9000;0.3297;1.3515;
1318.2000;0.3297;1.3588;
1318.5000;0.3313;1.3564;
1318.8000;0.3297;1.3442;
1319.1000;0.3337;1.3491;
1319.4000;0.3297;1.3368;
1319.7000;0.3297;1.3515;
1320.0000;0.3297;1.3515;
1320.3000;0.3305;1.3417;
1320.6000;0.3329;1.3491;
1320.9000;0.3313;1.3319;
1321.2000;0.3289;1.3295;
1321.5000;0.3305;1.3295;
1321.8000;0.3321;1.3319;
1322.1000;0.3280;1.3319;
1322.4000;0.3305;1.3393;
1322.7000;0.3386;1.3637;
1323.0000;0.3305;1.3491;
1323.3000;0.3305;1.3515;
1323.6000;0.3297;1.3417;
1323.9000;0.3289;1.3319;
1324.2000;0.3272;1.3271;
1324.5000;0.3305;1.3319;
1324.8000;0.3289;1.3368;
1325.1000;0.3297;1.3393;
1325.4000;0.3289;1.3319;
1325.7000;0.3305;1.3368;
1326.0000;0.3313;1.3466;
1326.3000;0.3280;1.3368;
1326.6000;0.3232;1.3197;
1326.9000;0.3289;1.3271;
1327.2000;0.3297;1.3246;
1327.5000;0.3305;1.3173;
1327.8000;0.3289;1.3026;
1328.1000;0.3280;1.2953;
1328.4000;0.3289;1.3026;
1328.7000;0.3272;1.3026;
1329.0000;0.3297;1.2977;
1329.3000;0.3321;1.3002;
1329.6000;0.3305;1.2977;
1329.9000;0.3305;1.3075;
1330.2000;0.3337;1.3222;
1330.5000;0.3272;1.3051;
1330.8000;0.3313;1.3124;
1331.1000;0.3297;1.3100;
1331.4000;0.3305;1.3148;
1331.7000;0.3305;1.3100;
1332.0000;0.3313;1.3051;
1332.3000;0.3305;1.3051;
1332.6000;0.3313;1.3075;
1332.9000;0.3289;1.3100;
1333.2000;0.3232;1.2953;
1333.5000;0.3321;1.3222;
1333.8000;0.3313;1.3246;
1334.1000;0.3297;1.3271;
1334.4000;0.3289;1.3344;
1334.7000;0.3313;1.3368;
1335.0000;0.3305;1.3319;
1335.3000;0.3289;1.3368;
1335.6000;0.3305;1.3442;
1335.9000;0.3329;1.3442;
1336.2000;0.3297;1.3417;
1336.5000;0.3297;1.3368;
1336.8000;0.3289;1.3344;
1337.1000;0.3321;1.3442;
1337.4000;0.3313;1.3417;
1337.7000;0.3313;1.3344;
1338.0000;0.3321;1.3393;
1338.3000;0.3321;1.3466;
1338.6000;0.3321;1.3417;
1338.9000;0.3305;1.3344;
1339.2000;0.3305;1.3344;
1339.5000;0.3321;1.3271;
1339.8000;0.3297;1.3222;
1340.1000;0.3297;1.3197;
1340.4000;0.3321;1.3197;
1340.7000;0.3313;1.3222;
1341.0000;0.3305;1.3271;
1341.3000;0.3240;1.3124;
1341.6000;0.3305;1.3222;
1341.9000;0.3305;1.3148;
1342.2000;0.3313;1.3173;
1342.5000;0.3329;1.3148;
1342.8000;0.3297;1.3124;
1343.1000;0.3289;1.3148;
1343.4000;0.3297;1.3222;
1343.7000;0.3321;1.3319;
1344.0000;0.3313;1.3442;
1344.3000;0.3289;1.3442;
1344.6000;0.3280;1.3344;
1344.9000;0.3329;1.3491;
1345.2000;0.3313;1.3491;
1345.5000;0.3289;1.3466;
1345.8000;0.3289;1.3466;
1346.1000;0.3313;1.3539;
1346.4000;0.3329;1.3515;
1346.7000;0.3280;1.3417;
1347.0000;0.3313;1.3466;
1347.3000;0.3313;1.3491;
1347.6000;0.3346;1.3466;
1347.9000;0.3289;1.3344;
1348.2000;0.3305;1.3393;
1348.5000;0.3329;1.3393;
1348.8000;0.3354;1.3368;
1349.1000;0.3313;1.3271;
1349.4000;0.3305;1.3197;
1349.7000;0.3362;1.3319;
1350.0000;0.3305;1.3197;
1350.3000;0.3313;1.3271;
1350.6000;0.3313;1.3271;
1350.9000;0.3297;1.3271;
1351.2000;0.3305;1.3344;
1351.5000;0.3297;1.3319;
1351.8000;0.3354;1.3466;
1352.1000;0.3297;1.3222;
1352.4000;0.3313;1.3222;
1352.7000;0.3289;1.3222;
1353.0000;0.3305;1.3271;
1353.3000;0.3305;1.3295;
1353.6000;0.3297;1.3271;
1353.9000;0.3305;1.3368;
1354.2000;0.3289;1.3319;
1354.5000;0.3313;1.3222;
1354.8000;0.3297;1.3197;
1355.1000;0.3264;1.3075;
1355.4000;0.3305;1.3246;
1355.7000;0.3321;1.3271;
1356.0000;0.3297;1.3295;
1356.3000;0.3313;1.3393;
1356.6000;0.3289;1.3295;
1356.9000;0.3289;1.3271;
1357.2000;0.3305;1.3295;
1357.5000;0.3321;1.3271;
1357.8000;0.3321;1.3246;
1358.1000;0.3321;1.3222;
1358.4000;0.3386;1.3515;
1358.7000;0.3305;1.3271;
1359.0000;0.3321;1.3295;
1359.3000;0.3313;1.3344;
1359.6000;0.3297;1.3271;
1359.9000;0.3305;1.3295;
1360.2000;0.3280;1.3319;
1360.5000;0.3305;1.3417;
1360.8000;0.3321;1.3393;
1361.1000;0.3280;1.3344;
1361.4000;0.3321;1.3393;
1361.7000;0.3297;1.3344;
1362.0000;0.3313;1.3271;
1362.3000;0.3297;1.3148;
1362.6000;0.3305;1.3124;
1362.9000;0.3321;1.3197;
1363.2000;0.3313;1.3124;
1363.5000;0.3297;1.3051;
1363.8000;0.3289;1.3002;
1364.1000;0.3232;1.2757;
1364.4000;0.3297;1.3026;
1364.7000;0.3289;1.3026;
1365.0000;0.3305;1.3173;
1365.3000;0.3305;1.3100;
1365.6000;0.3305;1.3173;
1365.9000;0.3297;1.3173;
1366.2000;0.3305;1.3075;
1366.5000;0.3297;1.3100;
1366.8000;0.3297;1.3197;
1367.1000;0.3272;1.3197;
1367.4000;0.3297;1.3319;
1367.7000;0.3305;1.3368;
1368.0000;0.3321;1.3417;
1368.3000;0.3297;1.3417;
1368.6000;0.3297;1.3466;
1368.9000;0.3272;1.3417;
1369.2000;0.3289;1.3417;
1369.5000;0.3289;1.3417;
1369.8000;0.3289;1.3368;
1370.1000;0.3305;1.3442;
1370.4000;0.3280;1.3344;
1370.7000;0.3289;1.3271;
1371.0000;0.3289;1.3197;
1371.3000;0.3321;1.3173;
1371.6000;0.3289;1.3100;
1371.9000;0.3305;1.3148;
1372.2000;0.3289;1.3197;
1372.5000;0.3223;1.3051;
1372.8000;0.3321;1.3271;
1373.1000;0.3289;1.3222;
1373.4000;0.3403;1.3564;
1373.7000;0.3313;1.3295;
1374.0000;0.3256;1.3051;
1374.3000;0.3256;1.3075;
1374.6000;0.3313;1.3246;
1374.9000;0.3240;1.3051;
1375.2000;0.3313;1.3271;
1375.5000;0.3297;1.3222;
1375.8000;0.3256;1.3100;
1376.1000;0.3280;1.3148;
1376.4000;0.3272;1.3222;
1376.7000;0.3280;1.3222;
1377.0000;0.3297;1.3319;
1377.3000;0.3297;1.3368;
1377.6000;0.3297;1.3295;
1377.9000;0.3297;1.3197;
1378.2000;0.3305;1.3124;
1378.5000;0.3297;1.3148;
1378.8000;0.3297;1.3222;
1379.1000;0.3297;1.3173;
1379.4000;0.3305;1.3222;
1379.7000;0.3248;1.3002;
1380.0000;0.3280;1.3173;
1380.3000;0.3297;1.3173;
1380.6000;0.3313;1.3197;
1380.9000;0.3289;1.3197;
1381.2000;0.3280;1.3246;
1381.5000;0.3297;1.3222;
1381.8000;0.3297;1.3222;
1382.1000;0.3297;1.3197;
1382.4000;0.3313;1.3222;
1382.7000;0.3289;1.3271;
1383.0000;0.3313;1.3271;
1383.3000;0.3329;1.3344;
1383.6000;0.3370;1.3466;
1383.9000;0.3305;1.3271;
1384.2000;0.3321;1.3295;
1384.5000;0.3297;1.3173;
1384.8000;0.3272;1.3026;
1385.1000;0.3289;1.3075;
1385.4000;0.3305;1.3148;
1385.7000;0.3297;1.3124;
1386.0000;0.3313;1.3222;
1386.3000;0.3289;1.3148;
1386.6000;0.3289;1.3173;
1386.9000;0.3321;1.3271;
1387.2000;0.3289;1.3173;
1387.5000;0.3297;1.3222;
1387.8000;0.3313;1.3295;
1388.1000;0.3297;1.3222;
1388.4000;0.3256;1.3100;
1388.7000;0.3297;1.3173;
1389.0000;0.3280;1.3173;
1389.3000;0.3280;1.3197;
1389.6000;0.3289;1.3173;
1389.9000;0.3289;1.3222;
1390.2000;0.3297;1.3222;
1390.5000;0.3289;1.3222;
1390.8000;0.3305;1.3197;
1391.1000;0.3313;1.3148;
1391.4000;0.3289;1.3100;
1391.7000;0.3289;1.3148;
1392.0000;0.3321;1.3246;
1392.3000;0.3313;1.3271;
1392.6000;0.3305;1.3319;
1392.9000;0.3305;1.3246;
1393.2000;0.3313;1.3246;
1393.5000;0.3329;1.3271;
1393.8000;0.3280;1.3222;
1394.1000;0.3289;1.3173;
1394.4000;0.3313;1.3246;
1394.7000;0.3305;1.3246;
1395.0000;0.3280;1.3222;
1395.3000;0.3289;1.3271;
1395.6000;0.3280;1.3271;
1395.9000;0.3313;1.3295;
1396.2000;0.3289;1.3344;
1396.5000;0.3305;1.3368;
1396.8000;0.3280;1.3344;
1397.1000;0.3305;1.3319;
1397.4000;0.3280;1.3319;
1397.7000;0.3280;1.3295;
1398.0000;0.3280;1.3319;
1398.3000;0.3305;1.3246;
1398.6000;0.3313;1.3246;
1398.9000;0.3305;1.3197;
1399.2000;0.3280;1.3075;
1399.5000;0.3297;1.3051;
1399.8000;0.3305;1.3051;
