time/ms;Fluo/V;P700 deltaI/I x10³;
-199.8000;0.3451;0.8397;
-199.5000;0.3460;0.8374;
-199.2000;0.3435;0.8327;
-198.9000;0.3460;0.8327;
-198.6000;0.3460;0.8210;
-198.3000;0.3460;0.8187;
-198.0000;0.3451;0.8094;
-197.7000;0.3468;0.8140;
-197.4000;0.3460;0.8117;
-197.1000;0.3468;0.8140;
-196.8000;0.3468;0.8117;
-196.5000;0.3476;0.8140;
-196.2000;0.3468;0.8140;
-195.9000;0.3460;0.8047;
-195.6000;0.3460;0.8024;
-195.3000;0.3468;0.7977;
-195.0000;0.3468;0.8094;
-194.7000;0.3451;0.8024;
-194.4000;0.3460;0.8047;
-194.1000;0.3468;0.8117;
-193.8000;0.3476;0.8070;
-193.5000;0.3460;0.8047;
-193.2000;0.3476;0.8094;
-192.9000;0.3468;0.8094;
-192.6000;0.3460;0.8047;
-192.3000;0.3451;0.7930;
-192.0000;0.3460;0.7907;
-191.7000;0.3460;0.7977;
-191.4000;0.3460;0.8047;
-191.1000;0.3476;0.8047;
-190.8000;0.3460;0.8094;
-190.5000;0.3476;0.8047;
-190.2000;0.3451;0.8047;
-189.9000;0.3476;0.8094;
-189.6000;0.3468;0.8000;
-189.3000;0.3541;0.8187;
-189.0000;0.3476;0.8070;
-188.7000;0.3460;0.8047;
-188.4000;0.3468;0.8024;
-188.1000;0.3582;0.8257;
-187.8000;0.3435;0.7837;
-187.5000;0.3476;0.7977;
-187.2000;0.3460;0.7930;
-186.9000;0.3451;0.7907;
-186.6000;0.3460;0.7907;
-186.3000;0.3403;0.7744;
-186.0000;0.3492;0.8000;
-185.7000;0.3460;0.7930;
-185.4000;0.3468;0.7954;
-185.1000;0.3460;0.8000;
-184.8000;0.3468;0.7954;
-184.5000;0.3468;0.8047;
-184.2000;0.3460;0.8094;
-183.9000;0.3516;0.8280;
-183.6000;0.3468;0.8234;
-183.3000;0.3443;0.8187;
-183.0000;0.3468;0.8164;
-182.7000;0.3468;0.8024;
-182.4000;0.3484;0.8024;
-182.1000;0.3476;0.7977;
-181.8000;0.3476;0.7977;
-181.5000;0.3468;0.7930;
-181.2000;0.3492;0.7930;
-180.9000;0.3468;0.7907;
-180.6000;0.3484;0.7977;
-180.3000;0.3468;0.7954;
-180.0000;0.3468;0.7954;
-179.7000;0.3468;0.8070;
-179.4000;0.3451;0.8047;
-179.1000;0.3443;0.7884;
-178.8000;0.3451;0.7884;
-178.5000;0.3403;0.7767;
-178.2000;0.3484;0.7860;
-177.9000;0.3451;0.7954;
-177.6000;0.3443;0.8094;
-177.3000;0.3476;0.8164;
-177.0000;0.3451;0.8140;
-176.7000;0.3460;0.8140;
-176.4000;0.3460;0.8210;
-176.1000;0.3492;0.8234;
-175.8000;0.3476;0.8210;
-175.5000;0.3468;0.8257;
-175.2000;0.3451;0.8234;
-174.9000;0.3468;0.8234;
-174.6000;0.3484;0.8140;
-174.3000;0.3460;0.8047;
-174.0000;0.3460;0.8000;
-173.7000;0.3476;0.8094;
-173.4000;0.3460;0.8047;
-173.1000;0.3476;0.8140;
-172.8000;0.3460;0.8024;
-172.5000;0.3460;0.7884;
-172.2000;0.3460;0.8000;
-171.9000;0.3500;0.8117;
-171.6000;0.3460;0.7930;
-171.3000;0.3451;0.7930;
-171.0000;0.3460;0.7977;
-170.7000;0.3460;0.7954;
-170.4000;0.3460;0.8024;
-170.1000;0.3362;0.7837;
-169.8000;0.3370;0.7907;
-169.5000;0.3468;0.8164;
-169.2000;0.3468;0.8234;
-168.9000;0.3468;0.8140;
-168.6000;0.3468;0.8117;
-168.3000;0.3516;0.8164;
-168.0000;0.3460;0.7954;
-167.7000;0.3476;0.8000;
-167.4000;0.3476;0.8024;
-167.1000;0.3476;0.8047;
-166.8000;0.3484;0.8000;
-166.5000;0.3443;0.7930;
-166.2000;0.3394;0.7860;
-165.9000;0.3476;0.8000;
-165.6000;0.3460;0.8094;
-165.3000;0.3460;0.8094;
-165.0000;0.3468;0.8117;
-164.7000;0.3451;0.8070;
-164.4000;0.3468;0.8047;
-164.1000;0.3476;0.7954;
-163.8000;0.3451;0.7954;
-163.5000;0.3468;0.7977;
-163.2000;0.3460;0.7930;
-162.9000;0.3435;0.7860;
-162.6000;0.3476;0.8047;
-162.3000;0.3468;0.8070;
-162.0000;0.3468;0.8094;
-161.7000;0.3460;0.8094;
-161.4000;0.3476;0.8117;
-161.1000;0.3468;0.8070;
-160.8000;0.3443;0.8094;
-160.5000;0.3451;0.8047;
-160.2000;0.3484;0.8070;
-159.9000;0.3508;0.8094;
-159.6000;0.3451;0.8024;
-159.3000;0.3476;0.8070;
-159.0000;0.3460;0.8070;
-158.7000;0.3460;0.7977;
-158.4000;0.3533;0.8164;
-158.1000;0.3435;0.7907;
-157.8000;0.3435;0.8024;
-157.5000;0.3451;0.7954;
-157.2000;0.3460;0.7954;
-156.9000;0.3484;0.7977;
-156.6000;0.3443;0.7884;
-156.3000;0.3403;0.7767;
-156.0000;0.3468;0.7884;
-155.7000;0.3419;0.7697;
-155.4000;0.3484;0.7884;
-155.1000;0.3460;0.7884;
-154.8000;0.3451;0.7907;
-154.5000;0.3419;0.7907;
-154.2000;0.3435;0.7930;
-153.9000;0.3468;0.8024;
-153.6000;0.3451;0.8000;
-153.3000;0.3484;0.8094;
-153.0000;0.3460;0.7954;
-152.7000;0.3476;0.8000;
-152.4000;0.3427;0.8070;
-152.1000;0.3468;0.8140;
-151.8000;0.3476;0.8140;
-151.5000;0.3443;0.8000;
-151.2000;0.3460;0.7954;
-150.9000;0.3443;0.7860;
-150.6000;0.3468;0.7930;
-150.3000;0.3468;0.7860;
-150.0000;0.3492;0.7930;
-149.7000;0.3460;0.7977;
-149.4000;0.3484;0.8070;
-149.1000;0.3476;0.8070;
-148.8000;0.3468;0.7907;
-148.5000;0.3443;0.7954;
-148.2000;0.3476;0.8094;
-147.9000;0.3460;0.8094;
-147.6000;0.3435;0.8024;
-147.3000;0.3516;0.8187;
-147.0000;0.3468;0.8000;
-146.7000;0.3451;0.7907;
-146.4000;0.3476;0.8070;
-146.1000;0.3443;0.8024;
-145.8000;0.3443;0.7907;
-145.5000;0.3476;0.7930;
-145.2000;0.3468;0.7907;
-144.9000;0.3500;0.7977;
-144.6000;0.3500;0.7977;
-144.3000;0.3443;0.7907;
-144.0000;0.3484;0.8024;
-143.7000;0.3476;0.8024;
-143.4000;0.3460;0.8000;
-143.1000;0.3468;0.8047;
-142.8000;0.3468;0.8070;
-142.5000;0.3468;0.8094;
-142.2000;0.3468;0.8094;
-141.9000;0.3451;0.7954;
-141.6000;0.3468;0.8024;
-141.3000;0.3378;0.7837;
-141.0000;0.3451;0.7930;
-140.7000;0.3476;0.7977;
-140.4000;0.3468;0.7977;
-140.1000;0.3451;0.8024;
-139.8000;0.3435;0.7884;
-139.5000;0.3451;0.7930;
-139.2000;0.3460;0.7954;
-138.9000;0.3484;0.8000;
-138.6000;0.3468;0.7977;
-138.3000;0.3460;0.7977;
-138.0000;0.3516;0.8047;
-137.7000;0.3484;0.8024;
-137.4000;0.3460;0.8047;
-137.1000;0.3460;0.8024;
-136.8000;0.3484;0.8094;
-136.5000;0.3468;0.8094;
-136.2000;0.3460;0.8070;
-135.9000;0.3337;0.7744;
-135.6000;0.3451;0.8094;
-135.3000;0.3451;0.8070;
-135.0000;0.3435;0.8070;
-134.7000;0.3516;0.8234;
-134.4000;0.3460;0.8094;
-134.1000;0.3492;0.8024;
-133.8000;0.3460;0.8000;
-133.5000;0.3476;0.8117;
-133.2000;0.3451;0.8094;
-132.9000;0.3468;0.8187;
-132.6000;0.3460;0.8047;
-132.3000;0.3468;0.7907;
-132.0000;0.3460;0.7930;
-131.7000;0.3451;0.7930;
-131.4000;0.3516;0.8094;
-131.1000;0.3468;0.7977;
-130.8000;0.3476;0.7954;
-130.5000;0.3468;0.7930;
-130.2000;0.3435;0.7814;
-129.9000;0.3460;0.7930;
-129.6000;0.3443;0.8000;
-129.3000;0.3476;0.8094;
-129.0000;0.3476;0.8164;
-128.7000;0.3419;0.8024;
-128.4000;0.3468;0.8140;
-128.1000;0.3476;0.8117;
-127.8000;0.3468;0.8047;
-127.5000;0.3460;0.8047;
-127.2000;0.3476;0.8000;
-126.9000;0.3492;0.8164;
-126.6000;0.3468;0.8070;
-126.3000;0.3557;0.8350;
-126.0000;0.3476;0.8210;
-125.7000;0.3500;0.8304;
-125.4000;0.3468;0.8234;
-125.1000;0.3468;0.8234;
-124.8000;0.3468;0.8304;
-124.5000;0.3427;0.8210;
-124.2000;0.3451;0.8210;
-123.9000;0.3427;0.8117;
-123.6000;0.3443;0.8210;
-123.3000;0.3460;0.8164;
-123.0000;0.3451;0.8140;
-122.7000;0.3451;0.8234;
-122.4000;0.3451;0.8234;
-122.1000;0.3476;0.8187;
-121.8000;0.3460;0.8140;
-121.5000;0.3484;0.8164;
-121.2000;0.3476;0.8140;
-120.9000;0.3476;0.8140;
-120.6000;0.3443;0.8140;
-120.3000;0.3460;0.8140;
-120.0000;0.3451;0.8117;
-119.7000;0.3451;0.8070;
-119.4000;0.3468;0.8164;
-119.1000;0.3468;0.8210;
-118.8000;0.3443;0.8210;
-118.5000;0.3476;0.8257;
-118.2000;0.3468;0.8187;
-117.9000;0.3468;0.8164;
-117.6000;0.3435;0.8117;
-117.3000;0.3451;0.8164;
-117.0000;0.3443;0.8117;
-116.7000;0.3443;0.8117;
-116.4000;0.3435;0.8117;
-116.1000;0.3484;0.8257;
-115.8000;0.3460;0.8257;
-115.5000;0.3492;0.8327;
-115.2000;0.3460;0.8210;
-114.9000;0.3411;0.8117;
-114.6000;0.3476;0.8117;
-114.3000;0.3460;0.8117;
-114.0000;0.3451;0.8024;
-113.7000;0.3460;0.8094;
-113.4000;0.3460;0.8047;
-113.1000;0.3460;0.8117;
-112.8000;0.3476;0.8164;
-112.5000;0.3525;0.8257;
-112.2000;0.3476;0.8210;
-111.9000;0.3468;0.8280;
-111.6000;0.3451;0.8304;
-111.3000;0.3435;0.8257;
-111.0000;0.3427;0.8210;
-110.7000;0.3476;0.8350;
-110.4000;0.3443;0.8350;
-110.1000;0.3451;0.8467;
-109.8000;0.3468;0.8584;
-109.5000;0.3411;0.8397;
-109.2000;0.3427;0.8397;
-108.9000;0.3476;0.8420;
-108.6000;0.3435;0.8327;
-108.3000;0.3451;0.8374;
-108.0000;0.3468;0.8327;
-107.7000;0.3451;0.8327;
-107.4000;0.3476;0.8350;
-107.1000;0.3484;0.8374;
-106.8000;0.3468;0.8327;
-106.5000;0.3525;0.8537;
-106.2000;0.3468;0.8467;
-105.9000;0.3468;0.8420;
-105.6000;0.3476;0.8420;
-105.3000;0.3460;0.8374;
-105.0000;0.3460;0.8444;
-104.7000;0.3500;0.8467;
-104.4000;0.3468;0.8350;
-104.1000;0.3460;0.8350;
-103.8000;0.3476;0.8327;
-103.5000;0.3468;0.8304;
-103.2000;0.3468;0.8164;
-102.9000;0.3484;0.8234;
-102.6000;0.3468;0.8234;
-102.3000;0.3476;0.8257;
-102.0000;0.3460;0.8164;
-101.7000;0.3492;0.8280;
-101.4000;0.3476;0.8164;
-101.1000;0.3476;0.8164;
-100.8000;0.3460;0.8000;
-100.5000;0.3484;0.8070;
-100.2000;0.3468;0.8070;
-99.9000;0.3468;0.8117;
-99.6000;0.3500;0.8140;
-99.3000;0.3443;0.8024;
-99.0000;0.3451;0.7977;
-98.7000;0.3419;0.7907;
-98.4000;0.3451;0.7930;
-98.1000;0.3451;0.7907;
-97.8000;0.3435;0.7930;
-97.5000;0.3451;0.8000;
-97.2000;0.3460;0.7977;
-96.9000;0.3468;0.8000;
-96.6000;0.3476;0.8024;
-96.3000;0.3443;0.7977;
-96.0000;0.3468;0.8024;
-95.7000;0.3443;0.8000;
-95.4000;0.3451;0.8000;
-95.1000;0.3403;0.7837;
-94.8000;0.3476;0.7884;
-94.5000;0.3468;0.7954;
-94.2000;0.3443;0.7860;
-93.9000;0.3476;0.7954;
-93.6000;0.3484;0.8117;
-93.3000;0.3460;0.8047;
-93.0000;0.3468;0.8117;
-92.7000;0.3451;0.8164;
-92.4000;0.3468;0.8164;
-92.1000;0.3460;0.8187;
-91.8000;0.3484;0.8187;
-91.5000;0.3468;0.8047;
-91.2000;0.3460;0.8000;
-90.9000;0.3460;0.8094;
-90.6000;0.3460;0.8140;
-90.3000;0.3484;0.8187;
-90.0000;0.3460;0.8164;
-89.7000;0.3468;0.8164;
-89.4000;0.3516;0.8234;
-89.1000;0.3476;0.8070;
-88.8000;0.3476;0.8047;
-88.5000;0.3419;0.7884;
-88.2000;0.3468;0.8000;
-87.9000;0.3460;0.8024;
-87.6000;0.3460;0.8070;
-87.3000;0.3508;0.8187;
-87.0000;0.3451;0.8117;
-86.7000;0.3476;0.8117;
-86.4000;0.3468;0.8094;
-86.1000;0.3468;0.8187;
-85.8000;0.3468;0.8257;
-85.5000;0.3476;0.8280;
-85.2000;0.3451;0.8187;
-84.9000;0.3451;0.8187;
-84.6000;0.3476;0.8327;
-84.3000;0.3443;0.8280;
-84.0000;0.3476;0.8304;
-83.7000;0.3484;0.8234;
-83.4000;0.3476;0.8304;
-83.1000;0.3476;0.8164;
-82.8000;0.3484;0.8234;
-82.5000;0.3476;0.8280;
-82.2000;0.3443;0.8280;
-81.9000;0.3468;0.8397;
-81.6000;0.3484;0.8327;
-81.3000;0.3476;0.8280;
-81.0000;0.3533;0.8350;
-80.7000;0.3451;0.8140;
-80.4000;0.3508;0.8257;
-80.1000;0.3484;0.8280;
-79.8000;0.3451;0.8164;
-79.5000;0.3451;0.8094;
-79.2000;0.3460;0.8117;
-78.9000;0.3476;0.8117;
-78.6000;0.3460;0.8187;
-78.3000;0.3403;0.8047;
-78.0000;0.3476;0.8164;
-77.7000;0.3484;0.8257;
-77.4000;0.3508;0.8257;
-77.1000;0.3476;0.8187;
-76.8000;0.3500;0.8234;
-76.5000;0.3476;0.8094;
-76.2000;0.3451;0.8047;
-75.9000;0.3460;0.8117;
-75.6000;0.3460;0.8024;
-75.3000;0.3451;0.8024;
-75.0000;0.3427;0.8000;
-74.7000;0.3443;0.8000;
-74.4000;0.3460;0.8094;
-74.1000;0.3443;0.8117;
-73.8000;0.3500;0.8257;
-73.5000;0.3460;0.8094;
-73.2000;0.3468;0.8140;
-72.9000;0.3435;0.7977;
-72.6000;0.3468;0.8070;
-72.3000;0.3443;0.8094;
-72.0000;0.3460;0.8140;
-71.7000;0.3476;0.8187;
-71.4000;0.3460;0.8117;
-71.1000;0.3468;0.8234;
-70.8000;0.3516;0.8374;
-70.5000;0.3484;0.8187;
-70.2000;0.3476;0.8140;
-69.9000;0.3476;0.8117;
-69.6000;0.3460;0.8140;
-69.3000;0.3460;0.8047;
-69.0000;0.3476;0.7977;
-68.7000;0.3468;0.7907;
-68.4000;0.3460;0.7977;
-68.1000;0.3460;0.7977;
-67.8000;0.3468;0.7954;
-67.5000;0.3476;0.7954;
-67.2000;0.3468;0.7930;
-66.9000;0.3468;0.7884;
-66.6000;0.3460;0.7790;
-66.3000;0.3476;0.7907;
-66.0000;0.3468;0.7884;
-65.7000;0.3451;0.7860;
-65.4000;0.3443;0.7814;
-65.1000;0.3451;0.7884;
-64.8000;0.3468;0.7907;
-64.5000;0.3451;0.7837;
-64.2000;0.3451;0.7860;
-63.9000;0.3419;0.7954;
-63.6000;0.3443;0.7930;
-63.3000;0.3443;0.7930;
-63.0000;0.3468;0.8000;
-62.7000;0.3468;0.8024;
-62.4000;0.3451;0.8024;
-62.1000;0.3484;0.8234;
-61.8000;0.3443;0.8070;
-61.5000;0.3468;0.8140;
-61.2000;0.3468;0.8140;
-60.9000;0.3468;0.8140;
-60.6000;0.3460;0.8094;
-60.3000;0.3451;0.8024;
-60.0000;0.3427;0.8024;
-59.7000;0.3443;0.8024;
-59.4000;0.3451;0.8070;
-59.1000;0.3443;0.8000;
-58.8000;0.3468;0.7977;
-58.5000;0.3460;0.7977;
-58.2000;0.3460;0.8024;
-57.9000;0.3435;0.8000;
-57.6000;0.3460;0.8117;
-57.3000;0.3468;0.8140;
-57.0000;0.3492;0.8117;
-56.7000;0.3460;0.8094;
-56.4000;0.3451;0.8094;
-56.1000;0.3451;0.8094;
-55.8000;0.3476;0.8187;
-55.5000;0.3451;0.8070;
-55.2000;0.3435;0.8024;
-54.9000;0.3460;0.8070;
-54.6000;0.3476;0.8070;
-54.3000;0.3451;0.7977;
-54.0000;0.3460;0.7977;
-53.7000;0.3484;0.7977;
-53.4000;0.3516;0.8024;
-53.1000;0.3451;0.7837;
-52.8000;0.3468;0.7860;
-52.5000;0.3468;0.7907;
-52.2000;0.3476;0.7954;
-51.9000;0.3476;0.8047;
-51.6000;0.3468;0.8094;
-51.3000;0.3460;0.8094;
-51.0000;0.3460;0.8094;
-50.7000;0.3468;0.8164;
-50.4000;0.3451;0.8094;
-50.1000;0.3443;0.8000;
-49.8000;0.3460;0.8047;
-49.5000;0.3443;0.7977;
-49.2000;0.3419;0.7860;
-48.9000;0.3443;0.7884;
-48.6000;0.3460;0.7837;
-48.3000;0.3435;0.7814;
-48.0000;0.3460;0.7954;
-47.7000;0.3451;0.7930;
-47.4000;0.3460;0.7907;
-47.1000;0.3476;0.7977;
-46.8000;0.3476;0.8024;
-46.5000;0.3476;0.8117;
-46.2000;0.3476;0.8000;
-45.9000;0.3468;0.8047;
-45.6000;0.3476;0.8047;
-45.3000;0.3476;0.8047;
-45.0000;0.3468;0.7954;
-44.7000;0.3427;0.7907;
-44.4000;0.3476;0.7930;
-44.1000;0.3451;0.7977;
-43.8000;0.3484;0.8094;
-43.5000;0.3451;0.8117;
-43.2000;0.3460;0.8117;
-42.9000;0.3484;0.8234;
-42.6000;0.3451;0.8117;
-42.3000;0.3460;0.8094;
-42.0000;0.3460;0.8047;
-41.7000;0.3460;0.8094;
-41.4000;0.3411;0.8000;
-41.1000;0.3460;0.8187;
-40.8000;0.3492;0.8257;
-40.5000;0.3500;0.8304;
-40.2000;0.3451;0.8187;
-39.9000;0.3451;0.8187;
-39.6000;0.3451;0.8094;
-39.3000;0.3460;0.8094;
-39.0000;0.3435;0.8117;
-38.7000;0.3451;0.8047;
-38.4000;0.3443;0.8094;
-38.1000;0.3582;0.8467;
-37.8000;0.3451;0.8140;
-37.5000;0.3468;0.8257;
-37.2000;0.3451;0.8374;
-36.9000;0.3476;0.8444;
-36.6000;0.3476;0.8420;
-36.3000;0.3451;0.8374;
-36.0000;0.3451;0.8327;
-35.7000;0.3525;0.8444;
-35.4000;0.3468;0.8350;
-35.1000;0.3460;0.8234;
-34.8000;0.3460;0.8210;
-34.5000;0.3451;0.8234;
-34.2000;0.3460;0.8234;
-33.9000;0.3451;0.8187;
-33.6000;0.3468;0.8210;
-33.3000;0.3427;0.8094;
-33.0000;0.3443;0.8164;
-32.7000;0.3460;0.8187;
-32.4000;0.3460;0.8164;
-32.1000;0.3468;0.8164;
-31.8000;0.3468;0.8210;
-31.5000;0.3460;0.8164;
-31.2000;0.3443;0.8047;
-30.9000;0.3460;0.7907;
-30.6000;0.3476;0.7907;
-30.3000;0.3468;0.7884;
-30.0000;0.3468;0.7907;
-29.7000;0.3435;0.7907;
-29.4000;0.3403;0.7860;
-29.1000;0.3451;0.7954;
-28.8000;0.3427;0.8000;
-28.5000;0.3451;0.8047;
-28.2000;0.3435;0.7954;
-27.9000;0.3419;0.7884;
-27.6000;0.3451;0.7907;
-27.3000;0.3468;0.7860;
-27.0000;0.3451;0.7837;
-26.7000;0.3468;0.7977;
-26.4000;0.3460;0.7930;
-26.1000;0.3468;0.8047;
-25.8000;0.3549;0.8234;
-25.5000;0.3468;0.7977;
-25.2000;0.3516;0.8047;
-24.9000;0.3476;0.7884;
-24.6000;0.3370;0.7627;
-24.3000;0.3468;0.7907;
-24.0000;0.3533;0.7954;
-23.7000;0.3451;0.7837;
-23.4000;0.3460;0.7837;
-23.1000;0.3460;0.7790;
-22.8000;0.3468;0.7790;
-22.5000;0.3427;0.7744;
-22.2000;0.3435;0.7744;
-21.9000;0.3476;0.7860;
-21.6000;0.3443;0.7860;
-21.3000;0.3476;0.8024;
-21.0000;0.3460;0.8000;
-20.7000;0.3476;0.7954;
-20.4000;0.3460;0.7954;
-20.1000;0.3476;0.7930;
-19.8000;0.3460;0.8024;
-19.5000;0.3443;0.8000;
-19.2000;0.3435;0.7954;
-18.9000;0.3460;0.7930;
-18.6000;0.3460;0.7954;
-18.3000;0.3451;0.7977;
-18.0000;0.3460;0.8187;
-17.7000;0.3451;0.8187;
-17.4000;0.3403;0.7954;
-17.1000;0.3435;0.7954;
-16.8000;0.3435;0.7954;
-16.5000;0.3468;0.8047;
-16.2000;0.3468;0.8024;
-15.9000;0.3443;0.7837;
-15.6000;0.3468;0.7790;
-15.3000;0.3451;0.7860;
-15.0000;0.3476;0.7884;
-14.7000;0.3468;0.7837;
-14.4000;0.3476;0.7907;
-14.1000;0.3468;0.7954;
-13.8000;0.3500;0.8117;
-13.5000;0.3460;0.8000;
-13.2000;0.3468;0.8094;
-12.9000;0.3460;0.8164;
-12.6000;0.3508;0.8327;
-12.3000;0.3468;0.8257;
-12.0000;0.3500;0.8327;
-11.7000;0.3468;0.8117;
-11.4000;0.3484;0.8210;
-11.1000;0.3460;0.8117;
-10.8000;0.3476;0.8140;
-10.5000;0.3460;0.8234;
-10.2000;0.3460;0.8210;
-9.9000;0.3476;0.8257;
-9.6000;0.3476;0.8280;
-9.3000;0.3451;0.8280;
-9.0000;0.3460;0.8327;
-8.7000;0.3476;0.8327;
-8.4000;0.3435;0.8280;
-8.1000;0.3460;0.8327;
-7.8000;0.3460;0.8374;
-7.5000;0.3451;0.8280;
-7.2000;0.3476;0.8280;
-6.9000;0.3451;0.8234;
-6.6000;0.3484;0.8210;
-6.3000;0.3468;0.8234;
-6.0000;0.3443;0.8117;
-5.7000;0.3443;0.8000;
-5.4000;0.3476;0.8024;
-5.1000;0.3435;0.8117;
-4.8000;0.3476;0.8234;
-4.5000;0.3460;0.8187;
-4.2000;0.3451;0.8187;
-3.9000;0.3508;0.8304;
-3.6000;0.3435;0.8070;
-3.3000;0.3476;0.8140;
-3.0000;0.3468;0.8047;
-2.7000;0.3411;0.7930;
-2.4000;0.3443;0.8070;
-2.1000;0.3435;0.8047;
-1.8000;0.3386;0.7860;
-1.5000;0.3468;0.8117;
-1.2000;0.3460;0.8164;
-0.9000;0.3468;0.8140;
-0.6000;0.3451;0.8140;
-0.3000;0.3468;0.8187;
0.0000;0.3468;0.8187;
0.3000;0.3557;0.8024;
0.6000;0.3720;0.8187;
0.9000;0.3858;0.8234;
1.2000;0.3940;0.8397;
1.5000;0.4021;0.8607;
1.8000;0.4062;0.8747;
2.1000;0.4078;0.8840;
2.4000;0.4143;0.8933;
2.7000;0.4143;0.8980;
3.0000;0.4265;0.9237;
3.3000;0.4200;0.9120;
3.6000;0.4225;0.9237;
3.9000;0.4225;0.9330;
4.2000;0.4217;0.9423;
4.5000;0.4290;0.9633;
4.8000;0.4233;0.9540;
5.1000;0.4257;0.9633;
5.4000;0.4257;0.9680;
5.7000;0.4265;0.9750;
6.0000;0.4282;0.9820;
6.3000;0.4257;0.9680;
6.6000;0.4282;0.9703;
6.9000;0.4298;0.9703;
7.2000;0.4298;0.9750;
7.5000;0.4322;0.9796;
7.8000;0.4274;0.9820;
8.1000;0.4314;0.9890;
8.4000;0.4274;0.9773;
8.7000;0.4306;0.9773;
9.0000;0.4355;0.9820;
9.3000;0.4339;0.9726;
9.6000;0.4314;0.9750;
9.9000;0.4347;0.9796;
10.2000;0.4371;0.9913;
10.5000;0.4355;0.9936;
10.8000;0.4404;1.0030;
11.1000;0.4363;0.9913;
11.4000;0.4396;0.9936;
11.7000;0.4387;0.9796;
12.0000;0.4355;0.9680;
12.3000;0.4412;0.9820;
12.6000;0.4412;0.9796;
12.9000;0.4387;0.9773;
13.2000;0.4420;0.9843;
13.5000;0.4428;0.9913;
13.8000;0.4461;1.0100;
14.1000;0.4436;1.0030;
14.4000;0.4428;1.0030;
14.7000;0.4428;0.9913;
15.0000;0.4444;0.9960;
15.3000;0.4428;0.9983;
15.6000;0.4420;0.9890;
15.9000;0.4477;1.0030;
16.2000;0.4485;1.0076;
16.5000;0.4469;1.0076;
16.8000;0.4436;1.0030;
17.1000;0.4485;1.0053;
17.4000;0.4485;1.0030;
17.7000;0.4469;1.0076;
18.0000;0.4493;1.0193;
18.3000;0.4493;1.0170;
18.6000;0.4510;1.0146;
18.9000;0.4493;1.0100;
19.2000;0.4518;1.0123;
19.5000;0.4501;1.0053;
19.8000;0.4558;1.0170;
20.1000;0.4477;0.9913;
20.4000;0.4493;0.9960;
20.7000;0.4428;0.9843;
21.0000;0.4493;1.0006;
21.3000;0.4591;1.0170;
21.6000;0.4518;0.9843;
21.9000;0.4550;0.9866;
22.2000;0.4558;0.9913;
22.5000;0.4550;0.9773;
22.8000;0.4567;0.9726;
23.1000;0.4575;0.9773;
23.4000;0.4599;0.9843;
23.7000;0.4550;0.9656;
24.0000;0.4575;0.9703;
24.3000;0.4583;0.9773;
24.6000;0.4591;0.9843;
24.9000;0.4591;0.9890;
25.2000;0.4624;0.9960;
25.5000;0.4607;0.9936;
25.8000;0.4607;0.9960;
26.1000;0.4607;1.0053;
26.4000;0.4615;1.0076;
26.7000;0.4607;0.9960;
27.0000;0.4624;0.9936;
27.3000;0.4607;0.9843;
27.6000;0.4713;1.0146;
27.9000;0.4599;0.9866;
28.2000;0.4599;0.9866;
28.5000;0.4607;0.9936;
28.8000;0.4607;0.9936;
29.1000;0.4624;0.9913;
29.4000;0.4615;1.0030;
29.7000;0.4664;1.0076;
30.0000;0.4615;0.9936;
30.3000;0.4664;1.0030;
30.6000;0.4640;1.0006;
30.9000;0.4648;1.0006;
31.2000;0.4640;0.9936;
31.5000;0.4640;1.0006;
31.8000;0.4648;0.9936;
32.1000;0.4664;0.9983;
32.4000;0.4672;0.9890;
32.7000;0.4656;0.9866;
33.0000;0.4664;0.9890;
33.3000;0.4656;0.9866;
33.6000;0.4656;0.9796;
33.9000;0.4656;0.9703;
34.2000;0.4664;0.9703;
34.5000;0.4656;0.9703;
34.8000;0.4664;0.9586;
35.1000;0.4672;0.9680;
35.4000;0.4689;0.9726;
35.7000;0.4689;0.9773;
36.0000;0.4681;0.9796;
36.3000;0.4640;0.9726;
36.6000;0.4672;0.9773;
36.9000;0.4721;0.9866;
37.2000;0.4713;0.9820;
37.5000;0.4705;0.9703;
37.8000;0.4689;0.9680;
38.1000;0.4705;0.9680;
38.4000;0.4689;0.9610;
38.7000;0.4697;0.9633;
39.0000;0.4697;0.9563;
39.3000;0.4705;0.9586;
39.6000;0.4803;0.9820;
39.9000;0.4721;0.9656;
40.2000;0.4697;0.9656;
40.5000;0.4713;0.9633;
40.8000;0.4681;0.9470;
41.1000;0.4721;0.9586;
41.4000;0.4705;0.9726;
41.7000;0.4713;0.9750;
42.0000;0.4705;0.9796;
42.3000;0.4721;0.9866;
42.6000;0.4672;0.9726;
42.9000;0.4729;0.9726;
43.2000;0.4770;0.9796;
43.5000;0.4746;0.9726;
43.8000;0.4729;0.9656;
44.1000;0.4762;0.9726;
44.4000;0.4746;0.9750;
44.7000;0.4746;0.9750;
45.0000;0.4737;0.9703;
45.3000;0.4754;0.9750;
45.6000;0.4754;0.9820;
45.9000;0.4762;0.9773;
46.2000;0.4770;0.9843;
46.5000;0.4770;0.9866;
46.8000;0.4778;0.9890;
47.1000;0.4754;0.9890;
47.4000;0.4778;0.9936;
47.7000;0.4770;0.9960;
48.0000;0.4664;0.9610;
48.3000;0.4778;0.9890;
48.6000;0.4786;0.9820;
48.9000;0.4778;0.9843;
49.2000;0.4786;0.9890;
49.5000;0.4786;0.9983;
49.8000;0.4778;0.9983;
50.1000;0.4794;0.9913;
50.4000;0.4786;0.9796;
50.7000;0.4729;0.9656;
51.0000;0.4794;0.9726;
51.3000;0.4786;0.9773;
51.6000;0.4803;0.9680;
51.9000;0.4794;0.9703;
52.2000;0.4811;0.9656;
52.5000;0.4794;0.9726;
52.8000;0.4770;0.9656;
53.1000;0.4754;0.9633;
53.4000;0.4794;0.9680;
53.7000;0.4803;0.9633;
54.0000;0.4754;0.9563;
54.3000;0.4786;0.9610;
54.6000;0.4851;0.9726;
54.9000;0.4786;0.9656;
55.2000;0.4803;0.9820;
55.5000;0.4786;0.9773;
55.8000;0.4803;0.9703;
56.1000;0.4778;0.9726;
56.4000;0.4827;0.9843;
56.7000;0.4803;0.9750;
57.0000;0.4811;0.9773;
57.3000;0.4762;0.9656;
57.6000;0.4827;0.9796;
57.9000;0.4770;0.9610;
58.2000;0.4819;0.9843;
58.5000;0.4835;0.9866;
58.8000;0.4835;0.9890;
59.1000;0.4843;0.9866;
59.4000;0.4835;0.9913;
59.7000;0.4819;0.9796;
60.0000;0.4819;0.9656;
60.3000;0.4827;0.9656;
60.6000;0.4803;0.9656;
60.9000;0.4835;0.9726;
61.2000;0.4827;0.9680;
61.5000;0.4917;0.9960;
61.8000;0.4835;0.9866;
62.1000;0.4949;1.0170;
62.4000;0.4770;0.9726;
62.7000;0.4843;0.9936;
63.0000;0.4835;1.0006;
63.3000;0.4835;0.9983;
63.6000;0.4835;0.9866;
63.9000;0.4811;0.9843;
64.2000;0.4860;0.9796;
64.5000;0.4835;0.9773;
64.8000;0.4843;0.9820;
65.1000;0.4843;0.9890;
65.4000;0.4860;0.9820;
65.7000;0.4835;0.9773;
66.0000;0.4843;0.9843;
66.3000;0.4851;0.9843;
66.6000;0.4851;0.9796;
66.9000;0.4851;0.9656;
67.2000;0.4860;0.9726;
67.5000;0.4860;0.9726;
67.8000;0.4860;0.9796;
68.1000;0.4843;0.9820;
68.4000;0.4843;0.9820;
68.7000;0.4843;0.9726;
69.0000;0.4892;0.9866;
69.3000;0.4843;0.9796;
69.6000;0.4860;0.9773;
69.9000;0.4892;0.9843;
70.2000;0.4843;0.9586;
70.5000;0.4860;0.9610;
70.8000;0.4843;0.9563;
71.1000;0.4835;0.9610;
71.4000;0.4868;0.9750;
71.7000;0.4868;0.9726;
72.0000;0.4860;0.9820;
72.3000;0.4868;0.9843;
72.6000;0.4827;0.9680;
72.9000;0.4908;0.9820;
73.2000;0.4876;0.9820;
73.5000;0.4884;0.9843;
73.8000;0.4851;0.9866;
74.1000;0.4876;0.9890;
74.4000;0.4860;0.9843;
74.7000;0.4868;0.9820;
75.0000;0.4868;0.9866;
75.3000;0.4876;0.9936;
75.6000;0.4933;1.0100;
75.9000;0.4868;0.9843;
76.2000;0.4884;0.9960;
76.5000;0.4860;0.9913;
76.8000;0.4884;0.9913;
77.1000;0.4868;0.9913;
77.4000;0.4876;0.9936;
77.7000;0.4884;0.9866;
78.0000;0.4843;0.9796;
78.3000;0.4892;0.9913;
78.6000;0.4876;0.9843;
78.9000;0.4892;0.9936;
79.2000;0.4900;0.9936;
79.5000;0.4851;0.9773;
79.8000;0.4884;0.9796;
80.1000;0.4868;0.9773;
80.4000;0.4860;0.9796;
80.7000;0.4876;0.9913;
81.0000;0.4868;0.9843;
81.3000;0.4868;0.9936;
81.6000;0.4884;0.9936;
81.9000;0.4892;0.9890;
82.2000;0.4827;0.9726;
82.5000;0.4868;0.9890;
82.8000;0.4892;0.9960;
83.1000;0.4884;1.0006;
83.4000;0.4892;1.0006;
83.7000;0.4835;0.9890;
84.0000;0.4892;0.9936;
84.3000;0.4884;0.9866;
84.6000;0.4908;0.9843;
84.9000;0.4884;0.9750;
85.2000;0.4868;0.9773;
85.5000;0.4900;0.9913;
85.8000;0.4892;0.9960;
86.1000;0.4868;0.9913;
86.4000;0.4900;1.0076;
86.7000;0.4900;1.0100;
87.0000;0.4892;1.0100;
87.3000;0.4876;1.0030;
87.6000;0.4900;0.9983;
87.9000;0.4851;0.9890;
88.2000;0.4851;0.9890;
88.5000;0.4908;0.9913;
88.8000;0.4900;0.9773;
89.1000;0.4900;0.9796;
89.4000;0.4835;0.9610;
89.7000;0.4965;0.9866;
90.0000;0.4917;0.9750;
90.3000;0.4827;0.9516;
90.6000;0.4957;0.9913;
90.9000;0.4900;0.9750;
91.2000;0.4900;0.9750;
91.5000;0.4892;0.9726;
91.8000;0.4884;0.9703;
92.1000;0.4892;0.9843;
92.4000;0.4892;0.9890;
92.7000;0.4917;0.9936;
93.0000;0.4900;0.9913;
93.3000;0.4892;0.9890;
93.6000;0.4892;0.9913;
93.9000;0.4868;0.9866;
94.2000;0.4884;0.9890;
94.5000;0.4892;0.9913;
94.8000;0.4917;1.0030;
95.1000;0.4876;0.9913;
95.4000;0.4876;0.9960;
95.7000;0.4876;0.9890;
96.0000;0.4892;1.0006;
96.3000;0.4892;0.9960;
96.6000;0.4957;1.0030;
96.9000;0.4892;0.9960;
97.2000;0.4908;1.0006;
97.5000;0.4933;1.0123;
97.8000;0.4892;0.9936;
98.1000;0.4892;0.9890;
98.4000;0.4908;0.9890;
98.7000;0.4965;1.0030;
99.0000;0.4892;0.9866;
99.3000;0.4892;0.9983;
99.6000;0.4900;0.9960;
99.9000;0.4908;0.9936;
100.2000;0.4917;0.9866;
100.5000;0.4925;0.9820;
100.8000;0.4908;0.9750;
101.1000;0.4868;0.9726;
101.4000;0.4900;0.9656;
101.7000;0.4908;0.9586;
102.0000;0.4876;0.9586;
102.3000;0.4917;0.9773;
102.6000;0.4917;0.9773;
102.9000;0.4925;0.9796;
103.2000;0.4941;0.9796;
103.5000;0.4900;0.9726;
103.8000;0.4965;0.9843;
104.1000;0.4892;0.9656;
104.4000;0.4908;0.9703;
104.7000;0.4908;0.9750;
105.0000;0.4892;0.9726;
105.3000;0.4925;0.9866;
105.6000;0.4900;0.9913;
105.9000;0.4925;1.0030;
106.2000;0.4908;0.9960;
106.5000;0.4998;1.0216;
106.8000;0.4868;0.9890;
107.1000;0.4908;1.0006;
107.4000;0.4917;1.0030;
107.7000;0.4925;0.9983;
108.0000;0.4925;1.0006;
108.3000;0.4941;1.0076;
108.6000;0.4925;1.0123;
108.9000;0.4908;1.0146;
109.2000;0.4933;1.0146;
109.5000;0.4892;1.0053;
109.8000;0.4917;1.0076;
110.1000;0.4900;1.0193;
110.4000;0.4908;1.0216;
110.7000;0.4925;1.0146;
111.0000;0.4900;1.0100;
111.3000;0.4884;1.0170;
111.6000;0.4925;1.0286;
111.9000;0.4908;1.0193;
112.2000;0.4965;1.0193;
112.5000;0.4917;1.0006;
112.8000;0.4892;0.9866;
113.1000;0.4860;0.9773;
113.4000;0.4941;0.9960;
113.7000;0.4917;0.9960;
114.0000;0.4925;0.9960;
114.3000;0.4949;1.0053;
114.6000;0.4908;0.9960;
114.9000;0.4933;0.9913;
115.2000;0.4876;0.9913;
115.5000;0.4908;1.0030;
115.8000;0.4794;0.9773;
116.1000;0.4917;1.0076;
116.4000;0.4925;1.0030;
116.7000;0.4908;1.0053;
117.0000;0.4925;1.0030;
117.3000;0.4925;1.0053;
117.6000;0.4933;1.0006;
117.9000;0.4949;1.0030;
118.2000;0.4908;0.9913;
118.5000;0.4892;0.9866;
118.8000;0.4925;1.0053;
119.1000;0.4925;1.0076;
119.4000;0.4900;0.9983;
119.7000;0.4900;0.9960;
120.0000;0.4908;1.0030;
120.3000;0.4892;1.0030;
120.6000;0.4860;0.9913;
120.9000;0.4892;0.9960;
121.2000;0.4884;0.9960;
121.5000;0.4925;1.0076;
121.8000;0.4900;0.9960;
122.1000;0.4917;1.0030;
122.4000;0.4908;1.0030;
122.7000;0.4900;1.0030;
123.0000;0.4908;1.0006;
123.3000;0.4900;0.9936;
123.6000;0.4908;0.9983;
123.9000;0.4908;0.9913;
124.2000;0.4917;0.9960;
124.5000;0.4917;0.9983;
124.8000;0.4900;0.9983;
125.1000;0.4949;1.0146;
125.4000;0.4917;0.9960;
125.7000;0.4860;0.9773;
126.0000;0.4892;0.9820;
126.3000;0.4941;0.9913;
126.6000;0.4908;0.9913;
126.9000;0.4917;0.9960;
127.2000;0.4884;0.9936;
127.5000;0.4908;1.0006;
127.8000;0.4917;1.0053;
128.1000;0.4917;1.0053;
128.4000;0.4949;1.0216;
128.7000;0.4900;1.0123;
129.0000;0.4884;1.0076;
129.3000;0.4900;1.0076;
129.6000;0.4925;1.0076;
129.9000;0.4917;0.9983;
130.2000;0.4892;0.9866;
130.5000;0.4900;0.9843;
130.8000;0.4900;0.9866;
131.1000;0.4892;0.9890;
131.4000;0.4933;1.0006;
131.7000;0.4884;0.9866;
132.0000;0.4917;0.9960;
132.3000;0.4917;0.9960;
132.6000;0.4900;0.9960;
132.9000;0.4933;1.0076;
133.2000;0.4957;1.0053;
133.5000;0.4925;0.9843;
133.8000;0.4900;0.9960;
134.1000;0.4925;1.0100;
134.4000;0.4949;1.0216;
134.7000;0.4892;1.0100;
135.0000;0.4892;1.0100;
135.3000;0.4917;1.0170;
135.6000;0.4925;1.0053;
135.9000;0.4925;0.9960;
136.2000;0.4941;1.0006;
136.5000;0.4917;0.9866;
136.8000;0.4925;0.9913;
137.1000;0.4908;0.9936;
137.4000;0.4917;0.9913;
137.7000;0.4917;0.9983;
138.0000;0.4925;0.9936;
138.3000;0.4933;0.9960;
138.6000;0.4917;0.9960;
138.9000;0.4917;0.9960;
139.2000;0.4917;0.9890;
139.5000;0.4965;0.9983;
139.8000;0.4908;0.9866;
140.1000;0.4917;0.9913;
140.4000;0.4884;0.9750;
140.7000;0.4908;0.9703;
141.0000;0.4876;0.9703;
141.3000;0.4908;0.9843;
141.6000;0.4900;0.9866;
141.9000;0.4925;0.9866;
142.2000;0.4908;0.9750;
142.5000;0.4917;0.9773;
142.8000;0.4892;0.9680;
143.1000;0.4925;0.9703;
143.4000;0.4917;0.9680;
143.7000;0.4925;0.9680;
144.0000;0.4908;0.9820;
144.3000;0.4917;0.9960;
144.6000;0.4957;1.0123;
144.9000;0.4908;1.0123;
145.2000;0.4900;0.9983;
145.5000;0.4925;1.0030;
145.8000;0.4900;1.0006;
146.1000;0.4917;0.9983;
146.4000;0.4908;0.9983;
146.7000;0.4892;0.9960;
147.0000;0.4917;1.0100;
147.3000;0.4908;1.0100;
147.6000;0.4925;1.0076;
147.9000;0.4917;1.0100;
148.2000;0.4925;1.0123;
148.5000;0.4925;0.9983;
148.8000;0.4925;0.9983;
149.1000;0.4884;0.9890;
149.4000;0.4941;1.0053;
149.7000;0.4925;1.0030;
150.0000;0.4917;0.9983;
150.3000;0.4917;0.9913;
150.6000;0.4908;0.9960;
150.9000;0.4933;1.0030;
151.2000;0.4884;0.9890;
151.5000;0.4917;0.9936;
151.8000;0.4917;0.9913;
152.1000;0.4990;1.0053;
152.4000;0.4917;0.9866;
152.7000;0.4933;0.9890;
153.0000;0.4908;0.9796;
153.3000;0.4908;0.9750;
153.6000;0.4917;0.9773;
153.9000;0.4917;0.9820;
154.2000;0.4868;0.9726;
154.5000;0.4811;0.9610;
154.8000;0.4925;0.9913;
155.1000;0.4917;0.9890;
155.4000;0.4957;0.9913;
155.7000;0.4925;0.9796;
156.0000;0.4917;0.9843;
156.3000;0.4917;0.9843;
156.6000;0.4957;0.9913;
156.9000;0.4908;0.9866;
157.2000;0.4917;0.9866;
157.5000;0.4908;0.9913;
157.8000;0.4941;0.9913;
158.1000;0.4974;0.9960;
158.4000;0.4917;0.9843;
158.7000;0.4868;0.9703;
159.0000;0.4925;0.9820;
159.3000;0.4917;0.9866;
159.6000;0.4933;0.9913;
159.9000;0.4908;0.9890;
160.2000;0.4933;0.9960;
160.5000;0.4917;1.0006;
160.8000;0.4925;1.0006;
161.1000;0.4884;0.9843;
161.4000;0.4908;0.9960;
161.7000;0.4917;0.9890;
162.0000;0.4900;0.9890;
162.3000;0.4892;0.9866;
162.6000;0.4908;0.9866;
162.9000;0.4908;0.9960;
163.2000;0.4941;1.0030;
163.5000;0.4917;0.9936;
163.8000;0.4917;0.9890;
164.1000;0.4917;0.9796;
164.4000;0.4917;0.9866;
164.7000;0.4925;0.9866;
165.0000;0.4982;1.0100;
165.3000;0.4917;0.9960;
165.6000;0.4908;0.9983;
165.9000;0.4908;0.9960;
166.2000;0.4933;1.0030;
166.5000;0.4917;0.9960;
166.8000;0.4917;0.9843;
167.1000;0.4892;0.9773;
167.4000;0.4900;0.9820;
167.7000;0.4917;0.9796;
168.0000;0.4908;0.9750;
168.3000;0.4917;0.9796;
168.6000;0.4917;0.9820;
168.9000;0.4917;0.9866;
169.2000;0.4908;0.9843;
169.5000;0.4925;0.9913;
169.8000;0.4933;0.9913;
170.1000;0.4925;0.9866;
170.4000;0.4917;0.9796;
170.7000;0.4892;0.9773;
171.0000;0.4949;0.9866;
171.3000;0.4908;0.9843;
171.6000;0.4965;1.0006;
171.9000;0.4860;0.9773;
172.2000;0.4949;0.9936;
172.5000;0.4957;1.0053;
172.8000;0.4949;1.0053;
173.1000;0.4933;0.9983;
173.4000;0.4908;0.9983;
173.7000;0.4925;0.9960;
174.0000;0.4933;0.9983;
174.3000;0.4892;0.9913;
174.6000;0.4908;1.0076;
174.9000;0.4868;0.9983;
175.2000;0.4908;1.0100;
175.5000;0.4998;1.0216;
175.8000;0.4908;1.0076;
176.1000;0.4957;1.0193;
176.4000;0.4917;0.9983;
176.7000;0.4908;0.9843;
177.0000;0.4917;0.9796;
177.3000;0.4900;0.9820;
177.6000;0.4868;0.9680;
177.9000;0.4933;0.9796;
178.2000;0.4908;0.9866;
178.5000;0.4892;0.9773;
178.8000;0.4908;0.9820;
179.1000;0.4908;0.9820;
179.4000;0.4908;0.9750;
179.7000;0.4925;0.9703;
180.0000;0.4917;0.9680;
180.3000;0.4933;0.9703;
180.6000;0.4925;0.9680;
180.9000;0.4933;0.9726;
181.2000;0.4917;0.9680;
181.5000;0.4917;0.9633;
181.8000;0.4900;0.9586;
182.1000;0.4908;0.9656;
182.4000;0.4908;0.9703;
182.7000;0.4941;0.9820;
183.0000;0.4917;0.9773;
183.3000;0.4908;0.9796;
183.6000;0.4917;0.9820;
183.9000;0.4925;0.9890;
184.2000;0.4917;0.9890;
184.5000;0.4925;0.9820;
184.8000;0.4925;0.9796;
185.1000;0.4925;0.9890;
185.4000;0.4917;0.9820;
185.7000;0.4868;0.9750;
186.0000;0.4982;1.0030;
186.3000;0.4974;0.9960;
186.6000;0.4949;0.9866;
186.9000;0.4917;0.9796;
187.2000;0.4892;0.9726;
187.5000;0.4884;0.9750;
187.8000;0.4908;0.9820;
188.1000;0.4908;0.9820;
188.4000;0.4908;0.9796;
188.7000;0.4949;0.9890;
189.0000;0.4908;0.9750;
189.3000;0.4925;0.9843;
189.6000;0.4925;0.9866;
189.9000;0.4917;0.9890;
190.2000;0.4900;0.9866;
190.5000;0.4925;0.9913;
190.8000;0.4925;0.9936;
191.1000;0.4908;0.9936;
191.4000;0.4908;0.9890;
191.7000;0.4868;0.9773;
192.0000;0.4917;0.9890;
192.3000;0.4925;1.0030;
192.6000;0.4957;1.0170;
192.9000;0.4900;0.9890;
193.2000;0.4917;0.9936;
193.5000;0.4900;0.9866;
193.8000;0.4941;0.9866;
194.1000;0.4957;0.9843;
194.4000;0.4908;0.9773;
194.7000;0.4949;0.9866;
195.0000;0.4908;0.9820;
195.3000;0.4925;0.9843;
195.6000;0.4974;0.9960;
195.9000;0.4933;0.9843;
196.2000;0.4917;0.9890;
196.5000;0.4892;0.9796;
196.8000;0.4827;0.9656;
197.1000;0.4884;0.9750;
197.4000;0.4900;0.9773;
197.7000;0.4860;0.9680;
198.0000;0.4900;0.9796;
198.3000;0.4974;0.9890;
198.6000;0.4925;0.9750;
198.9000;0.4908;0.9820;
199.2000;0.4917;0.9866;
199.5000;0.4908;0.9866;
199.8000;0.4933;0.9843;
200.1000;0.4908;0.9750;
200.4000;0.4892;0.9680;
200.7000;0.4917;0.9750;
201.0000;0.4917;0.9726;
201.3000;0.4827;0.9586;
201.6000;0.4982;0.9866;
201.9000;0.4933;0.9890;
202.2000;0.4917;0.9936;
202.5000;0.4925;0.9936;
202.8000;0.4908;0.9796;
203.1000;0.4949;0.9913;
203.4000;0.4933;0.9913;
203.7000;0.4933;0.9750;
204.0000;0.4900;0.9680;
204.3000;0.4892;0.9633;
204.6000;0.4851;0.9423;
204.9000;0.4917;0.9633;
205.2000;0.4917;0.9656;
205.5000;0.4917;0.9656;
205.8000;0.4941;0.9750;
206.1000;0.4827;0.9516;
206.4000;0.4908;0.9680;
206.7000;0.5006;0.9890;
207.0000;0.4925;0.9703;
207.3000;0.4917;0.9726;
207.6000;0.4917;0.9680;
207.9000;0.4908;0.9750;
208.2000;0.4884;0.9633;
208.5000;0.4917;0.9750;
208.8000;0.4900;0.9703;
209.1000;0.4892;0.9750;
209.4000;0.4933;0.9936;
209.7000;0.4933;0.9913;
210.0000;0.4908;0.9866;
210.3000;0.4900;0.9936;
210.6000;0.4876;0.9773;
210.9000;0.4917;0.9820;
211.2000;0.4925;0.9866;
211.5000;0.4917;0.9843;
211.8000;0.4908;0.9843;
212.1000;0.4900;0.9726;
212.4000;0.4925;0.9750;
212.7000;0.4917;0.9750;
213.0000;0.4974;0.9820;
213.3000;0.4917;0.9773;
213.6000;0.4908;0.9750;
213.9000;0.4908;0.9703;
214.2000;0.4925;0.9750;
214.5000;0.4917;0.9726;
214.8000;0.4941;0.9703;
215.1000;0.4941;0.9750;
215.4000;0.4925;0.9726;
215.7000;0.4876;0.9540;
216.0000;0.4917;0.9656;
216.3000;0.4908;0.9563;
216.6000;0.4917;0.9633;
216.9000;0.4908;0.9633;
217.2000;0.4933;0.9656;
217.5000;0.4957;0.9703;
217.8000;0.4900;0.9610;
218.1000;0.4925;0.9680;
218.4000;0.4917;0.9680;
218.7000;0.4908;0.9680;
219.0000;0.4925;0.9726;
219.3000;0.4892;0.9703;
219.6000;0.4917;0.9820;
219.9000;0.4900;0.9820;
220.2000;0.4925;0.9913;
220.5000;0.4908;0.9913;
220.8000;0.4908;0.9890;
221.1000;0.4965;0.9960;
221.4000;0.4941;0.9913;
221.7000;0.4965;0.9890;
222.0000;0.4908;0.9703;
222.3000;0.4917;0.9796;
222.6000;0.4917;0.9820;
222.9000;0.4925;0.9796;
223.2000;0.4827;0.9516;
223.5000;0.4884;0.9703;
223.8000;0.4884;0.9773;
224.1000;0.4974;1.0006;
224.4000;0.4908;0.9843;
224.7000;0.4908;0.9843;
225.0000;0.4908;0.9773;
225.3000;0.4917;0.9796;
225.6000;0.4933;0.9890;
225.9000;0.4949;0.9890;
226.2000;0.4941;0.9820;
226.5000;0.4917;0.9773;
226.8000;0.4860;0.9703;
227.1000;0.4908;0.9796;
227.4000;0.4949;0.9890;
227.7000;0.4974;1.0006;
228.0000;0.4925;0.9890;
228.3000;0.4933;0.9890;
228.6000;0.4917;0.9843;
228.9000;0.4917;0.9773;
229.2000;0.4851;0.9610;
229.5000;0.4941;0.9820;
229.8000;0.4982;0.9820;
230.1000;0.4957;0.9773;
230.4000;0.4925;0.9703;
230.7000;0.5022;0.9960;
231.0000;0.4908;0.9610;
231.3000;0.4900;0.9540;
231.6000;0.4933;0.9610;
231.9000;0.4860;0.9493;
232.2000;0.4908;0.9586;
232.5000;0.4917;0.9656;
232.8000;0.4908;0.9726;
233.1000;0.4908;0.9750;
233.4000;0.4925;0.9726;
233.7000;0.4941;0.9773;
234.0000;0.4892;0.9680;
234.3000;0.4925;0.9680;
234.6000;0.4900;0.9656;
234.9000;0.4917;0.9680;
235.2000;0.4925;0.9703;
235.5000;0.4925;0.9773;
235.8000;0.4908;0.9820;
236.1000;0.4900;0.9773;
236.4000;0.4917;0.9773;
236.7000;0.4917;0.9773;
237.0000;0.4917;0.9843;
237.3000;0.4908;0.9866;
237.6000;0.4925;0.9960;
237.9000;0.4917;0.9890;
238.2000;0.4908;0.9866;
238.5000;0.5006;1.0100;
238.8000;0.4900;0.9843;
239.1000;0.4917;0.9820;
239.4000;0.4900;0.9796;
239.7000;0.4917;0.9843;
240.0000;0.4908;0.9750;
240.3000;0.4925;0.9773;
240.6000;0.4908;0.9680;
240.9000;0.4925;0.9726;
241.2000;0.4925;0.9726;
241.5000;0.4941;0.9750;
241.8000;0.4933;0.9773;
242.1000;0.4965;0.9843;
242.4000;0.4917;0.9773;
242.7000;0.4933;0.9890;
243.0000;0.4941;0.9983;
243.3000;0.4917;0.9913;
243.6000;0.4892;0.9750;
243.9000;0.4933;0.9726;
244.2000;0.4933;0.9750;
244.5000;0.4908;0.9796;
244.8000;0.4941;0.9796;
245.1000;0.4860;0.9656;
245.4000;0.4908;0.9750;
245.7000;0.4965;0.9820;
246.0000;0.4908;0.9750;
246.3000;0.4974;0.9913;
246.6000;0.4941;0.9866;
246.9000;0.4876;0.9703;
247.2000;0.4908;0.9866;
247.5000;0.4933;0.9936;
247.8000;0.4974;0.9983;
248.1000;0.4933;0.9913;
248.4000;0.4933;0.9936;
248.7000;0.4884;0.9890;
249.0000;0.4925;0.9913;
249.3000;0.4974;0.9983;
249.6000;0.4925;0.9820;
249.9000;0.4925;0.9843;
250.2000;0.4933;0.9796;
250.5000;0.4917;0.9750;
250.8000;0.4998;0.9843;
251.1000;0.4917;0.9703;
251.4000;0.4925;0.9773;
251.7000;0.4917;0.9750;
252.0000;0.4908;0.9680;
252.3000;0.4908;0.9750;
252.6000;0.4908;0.9726;
252.9000;0.4884;0.9610;
253.2000;0.4908;0.9633;
253.5000;0.4917;0.9703;
253.8000;0.4900;0.9773;
254.1000;0.4884;0.9726;
254.4000;0.4917;0.9866;
254.7000;0.4917;0.9890;
255.0000;0.4908;0.9866;
255.3000;0.4917;0.9866;
255.6000;0.4900;0.9936;
255.9000;0.4925;1.0053;
256.2000;0.4900;0.9983;
256.5000;0.4892;1.0076;
256.8000;0.4925;1.0100;
257.1000;0.4925;1.0100;
257.4000;0.4925;1.0053;
257.7000;0.4925;1.0053;
258.0000;0.4892;0.9936;
258.3000;0.4925;0.9983;
258.6000;0.4933;0.9960;
258.9000;0.4917;0.9913;
259.2000;0.4925;0.9866;
259.5000;0.4933;0.9890;
259.8000;0.4941;0.9960;
260.1000;0.4917;0.9843;
260.4000;0.4917;0.9820;
260.7000;0.4949;0.9936;
261.0000;0.4908;1.0053;
261.3000;0.4917;1.0123;
261.6000;0.4900;0.9983;
261.9000;0.4917;1.0006;
262.2000;0.4876;0.9983;
262.5000;0.4884;1.0053;
262.8000;0.4884;1.0030;
263.1000;0.4917;1.0030;
263.4000;0.4900;0.9960;
263.7000;0.4884;1.0006;
264.0000;0.5006;1.0286;
264.3000;0.4917;0.9983;
264.6000;0.5014;1.0263;
264.9000;0.4900;0.9983;
265.2000;0.4908;0.9960;
265.5000;0.4933;0.9913;
265.8000;0.4917;0.9890;
266.1000;0.4925;0.9913;
266.4000;0.4868;0.9843;
266.7000;0.4933;1.0076;
267.0000;0.4908;1.0030;
267.3000;0.4925;1.0076;
267.6000;0.4908;1.0076;
267.9000;0.4917;1.0030;
268.2000;0.4925;1.0146;
268.5000;0.4900;1.0100;
268.8000;0.4917;1.0123;
269.1000;0.4908;1.0006;
269.4000;0.4917;1.0006;
269.7000;0.4925;0.9936;
270.0000;0.4949;0.9960;
270.3000;0.5014;1.0030;
270.6000;0.4917;0.9820;
270.9000;0.4892;0.9843;
271.2000;0.4876;0.9773;
271.5000;0.4900;0.9866;
271.8000;0.4868;0.9820;
272.1000;0.4917;1.0006;
272.4000;0.4917;1.0006;
272.7000;0.4908;0.9913;
273.0000;0.4917;0.9843;
273.3000;0.4917;0.9890;
273.6000;0.4925;1.0030;
273.9000;0.4900;1.0030;
274.2000;0.4925;1.0076;
274.5000;0.4933;1.0030;
274.8000;0.4933;1.0053;
275.1000;0.4998;1.0123;
275.4000;0.4917;0.9983;
275.7000;0.4860;0.9936;
276.0000;0.4900;1.0030;
276.3000;0.4908;0.9983;
276.6000;0.4892;0.9913;
276.9000;0.4892;1.0006;
277.2000;0.4908;1.0076;
277.5000;0.4908;1.0100;
277.8000;0.4974;1.0193;
278.1000;0.4917;1.0053;
278.4000;0.4917;1.0146;
278.7000;0.4949;1.0146;
279.0000;0.4925;1.0100;
279.3000;0.4925;1.0006;
279.6000;0.4925;0.9843;
279.9000;0.4917;0.9726;
280.2000;0.4917;0.9703;
280.5000;0.4917;0.9750;
280.8000;0.4900;0.9773;
281.1000;0.4917;0.9843;
281.4000;0.4908;0.9796;
281.7000;0.4892;0.9843;
282.0000;0.4917;0.9773;
282.3000;0.4917;0.9726;
282.6000;0.4900;0.9796;
282.9000;0.4908;0.9750;
283.2000;0.4908;0.9820;
283.5000;0.4908;0.9796;
283.8000;0.4908;0.9820;
284.1000;0.4933;0.9820;
284.4000;0.4941;0.9843;
284.7000;0.4941;0.9796;
285.0000;0.4900;0.9703;
285.3000;0.4925;0.9796;
285.6000;0.4917;0.9703;
285.9000;0.4917;0.9726;
286.2000;0.4917;0.9750;
286.5000;0.4941;0.9866;
286.8000;0.4917;0.9913;
287.1000;0.5006;1.0193;
287.4000;0.4917;1.0006;
287.7000;0.4900;0.9983;
288.0000;0.4900;0.9983;
288.3000;0.4917;1.0053;
288.6000;0.5022;1.0403;
288.9000;0.4941;1.0193;
289.2000;0.4925;1.0146;
289.5000;0.4900;1.0100;
289.8000;0.4835;0.9913;
290.1000;0.4925;1.0146;
290.4000;0.4908;1.0123;
290.7000;0.4917;1.0123;
291.0000;0.4917;1.0076;
291.3000;0.4884;1.0053;
291.6000;0.4917;1.0123;
291.9000;0.4917;1.0076;
292.2000;0.4917;1.0030;
292.5000;0.4925;1.0053;
292.8000;0.4990;1.0146;
293.1000;0.4933;1.0076;
293.4000;0.4933;1.0053;
293.7000;0.4941;1.0053;
294.0000;0.4941;1.0076;
294.3000;0.4949;1.0123;
294.6000;0.4949;1.0123;
294.9000;0.4876;0.9913;
295.2000;0.4933;1.0076;
295.5000;0.4941;1.0053;
295.8000;0.4917;0.9960;
296.1000;0.4925;0.9890;
296.4000;0.4917;0.9960;
296.7000;0.4925;1.0006;
297.0000;0.4941;1.0030;
297.3000;0.4900;0.9936;
297.6000;0.4925;1.0006;
297.9000;0.4892;1.0006;
298.2000;0.4965;1.0193;
298.5000;0.4908;1.0076;
298.8000;0.4835;0.9936;
299.1000;0.4900;1.0030;
299.4000;0.4917;1.0053;
299.7000;0.4925;0.9913;
300.0000;0.4892;0.9843;
300.3000;0.4917;0.9890;
300.6000;0.4843;0.9796;
300.9000;0.4884;0.9960;
301.2000;0.4900;0.9843;
301.5000;0.4925;0.9936;
301.8000;0.4917;0.9960;
302.1000;0.4917;0.9936;
302.4000;0.4917;0.9983;
302.7000;0.4917;1.0006;
303.0000;0.4908;0.9936;
303.3000;0.4917;0.9936;
303.6000;0.4908;0.9936;
303.9000;0.4917;0.9960;
304.2000;0.4925;0.9960;
304.5000;0.4884;0.9890;
304.8000;0.4908;0.9843;
305.1000;0.4917;0.9773;
305.4000;0.4933;0.9866;
305.7000;0.4908;0.9890;
306.0000;0.4908;0.9890;
306.3000;0.4925;0.9936;
306.6000;0.4933;0.9866;
306.9000;0.4908;0.9820;
307.2000;0.4843;0.9680;
307.5000;0.4884;0.9820;
307.8000;0.4908;0.9936;
308.1000;0.4965;1.0030;
308.4000;0.4917;0.9866;
308.7000;0.4917;0.9913;
309.0000;0.4892;0.9890;
309.3000;0.4998;1.0146;
309.6000;0.4908;0.9913;
309.9000;0.4933;0.9890;
310.2000;0.4925;0.9820;
310.5000;0.4941;0.9936;
310.8000;0.4925;0.9913;
311.1000;0.4957;0.9960;
311.4000;0.4974;1.0030;
311.7000;0.4851;0.9796;
312.0000;0.4917;0.9866;
312.3000;0.4925;0.9843;
312.6000;0.4925;0.9866;
312.9000;0.4949;0.9843;
313.2000;0.4933;0.9820;
313.5000;0.4933;0.9866;
313.8000;0.4925;0.9936;
314.1000;0.4957;1.0123;
314.4000;0.4933;1.0100;
314.7000;0.4974;1.0193;
315.0000;0.4925;1.0053;
315.3000;0.4925;0.9960;
315.6000;0.4949;1.0100;
315.9000;0.4941;1.0100;
316.2000;0.4900;1.0053;
316.5000;0.4908;1.0030;
316.8000;0.4925;1.0100;
317.1000;0.4925;1.0123;
317.4000;0.4925;1.0076;
317.7000;0.4965;1.0123;
318.0000;0.4933;0.9960;
318.3000;0.4933;0.9890;
318.6000;0.4908;0.9796;
318.9000;0.4917;0.9796;
319.2000;0.4941;0.9843;
319.5000;0.4917;0.9890;
319.8000;0.4908;0.9913;
320.1000;0.4917;0.9890;
320.4000;0.4917;0.9820;
320.7000;0.4990;0.9913;
321.0000;0.4925;0.9750;
321.3000;0.4908;0.9820;
321.6000;0.4908;0.9866;
321.9000;0.4933;0.9820;
322.2000;0.4835;0.9633;
322.5000;0.4892;0.9820;
322.8000;0.4900;0.9843;
323.1000;0.4908;0.9890;
323.4000;0.4917;0.9866;
323.7000;0.4900;0.9890;
324.0000;0.4933;0.9960;
324.3000;0.4908;0.9913;
324.6000;0.4917;0.9843;
324.9000;0.4908;0.9796;
325.2000;0.4925;0.9866;
325.5000;0.4908;0.9866;
325.8000;0.4933;0.9913;
326.1000;0.4925;0.9936;
326.4000;0.4884;0.9913;
326.7000;0.4917;1.0053;
327.0000;0.4917;1.0053;
327.3000;0.4917;1.0006;
327.6000;0.4917;0.9960;
327.9000;0.4803;0.9750;
328.2000;0.4949;1.0053;
328.5000;0.4917;0.9960;
328.8000;0.4917;0.9866;
329.1000;0.4917;0.9913;
329.4000;0.4908;0.9960;
329.7000;0.4884;0.9866;
330.0000;0.4900;0.9890;
330.3000;0.4917;0.9890;
330.6000;0.4941;0.9750;
330.9000;0.4933;0.9726;
331.2000;0.4900;0.9796;
331.5000;0.4908;0.9773;
331.8000;0.5014;1.0053;
332.1000;0.4908;0.9820;
332.4000;0.4917;0.9843;
332.7000;0.4917;0.9796;
333.0000;0.4892;0.9726;
333.3000;0.4949;0.9820;
333.6000;0.4933;0.9726;
333.9000;0.4876;0.9610;
334.2000;0.4917;0.9796;
334.5000;0.4982;1.0030;
334.8000;0.4908;0.9890;
335.1000;0.4933;0.9983;
335.4000;0.4917;0.9960;
335.7000;0.4925;0.9983;
336.0000;0.5006;1.0076;
336.3000;0.4941;0.9936;
336.6000;0.4908;0.9983;
336.9000;0.4917;1.0030;
337.2000;0.4957;1.0146;
337.5000;0.4925;1.0030;
337.8000;0.4925;1.0006;
338.1000;0.4917;0.9913;
338.4000;0.4917;0.9936;
338.7000;0.4925;1.0030;
339.0000;0.4925;1.0030;
339.3000;0.4917;0.9936;
339.6000;0.4925;0.9936;
339.9000;0.4933;0.9936;
340.2000;0.4876;0.9750;
340.5000;0.4933;0.9936;
340.8000;0.4933;0.9983;
341.1000;0.4835;0.9890;
341.4000;0.4933;1.0030;
341.7000;0.4900;1.0006;
342.0000;0.4900;0.9936;
342.3000;0.4917;0.9960;
342.6000;0.4860;0.9750;
342.9000;0.4925;0.9843;
343.2000;0.4925;0.9866;
343.5000;0.4933;0.9866;
343.8000;0.4925;0.9913;
344.1000;0.4917;0.9843;
344.4000;0.4917;0.9866;
344.7000;0.4949;0.9983;
345.0000;0.4925;0.9843;
345.3000;0.4933;0.9913;
345.6000;0.4933;0.9936;
345.9000;0.4925;0.9936;
346.2000;0.4900;0.9913;
346.5000;0.4941;1.0053;
346.8000;0.5022;1.0286;
347.1000;0.4917;1.0006;
347.4000;0.4925;0.9890;
347.7000;0.4925;0.9866;
348.0000;0.4900;0.9913;
348.3000;0.4917;0.9913;
348.6000;0.4908;0.9913;
348.9000;0.4925;0.9890;
349.2000;0.4941;0.9866;
349.5000;0.4900;0.9703;
349.8000;0.4925;0.9820;
350.1000;0.4925;0.9796;
350.4000;0.4933;0.9913;
350.7000;0.4917;0.9890;
351.0000;0.4925;0.9936;
351.3000;0.4941;1.0053;
351.6000;0.4925;1.0006;
351.9000;0.4917;0.9960;
352.2000;0.4949;0.9936;
352.5000;0.4941;0.9890;
352.8000;0.4941;0.9890;
353.1000;0.4965;0.9866;
353.4000;0.4941;0.9913;
353.7000;0.4917;0.9866;
354.0000;0.4965;0.9820;
354.3000;0.4941;0.9726;
354.6000;0.4925;0.9633;
354.9000;0.4900;0.9586;
355.2000;0.4851;0.9540;
355.5000;0.4941;0.9866;
355.8000;0.4925;0.9913;
356.1000;0.4949;0.9890;
356.4000;0.4917;0.9820;
356.7000;0.4925;0.9913;
357.0000;0.4827;0.9680;
357.3000;0.4851;0.9656;
357.6000;0.4917;0.9820;
357.9000;0.4917;0.9820;
358.2000;0.5055;1.0100;
358.5000;0.4811;0.9493;
358.8000;0.4917;0.9796;
359.1000;0.4917;0.9866;
359.4000;0.4933;0.9866;
359.7000;0.4982;0.9983;
360.0000;0.4908;0.9820;
360.3000;0.4917;0.9773;
360.6000;0.4941;0.9820;
360.9000;0.4917;0.9843;
361.2000;0.4900;0.9890;
361.5000;0.4941;0.9913;
361.8000;0.4941;0.9890;
362.1000;0.4917;0.9866;
362.4000;0.4925;0.9936;
362.7000;0.4908;0.9936;
363.0000;0.4941;1.0076;
363.3000;0.4998;1.0123;
363.6000;0.4917;0.9866;
363.9000;0.4917;0.9866;
364.2000;0.4933;0.9796;
364.5000;0.4900;0.9726;
364.8000;0.4917;0.9773;
365.1000;0.4908;0.9750;
365.4000;0.4908;0.9726;
365.7000;0.4925;0.9726;
366.0000;0.4917;0.9726;
366.3000;0.4925;0.9726;
366.6000;0.4933;0.9796;
366.9000;0.4884;0.9726;
367.2000;0.4917;0.9843;
367.5000;0.4908;0.9936;
367.8000;0.4998;1.0123;
368.1000;0.4908;0.9913;
368.4000;0.4908;0.9960;
368.7000;0.4900;0.9983;
369.0000;0.4900;1.0006;
369.3000;0.4892;1.0053;
369.6000;0.4900;1.0076;
369.9000;0.4941;1.0006;
370.2000;0.4900;0.9890;
370.5000;0.4925;0.9936;
370.8000;0.4933;0.9960;
371.1000;0.4900;0.9913;
371.4000;0.4908;0.9913;
371.7000;0.4925;1.0030;
372.0000;0.4908;0.9983;
372.3000;0.4892;0.9866;
372.6000;0.4925;0.9796;
372.9000;0.4908;0.9820;
373.2000;0.4917;0.9843;
373.5000;0.4900;0.9913;
373.8000;0.4925;0.9913;
374.1000;0.4908;0.9820;
374.4000;0.4908;0.9866;
374.7000;0.4949;0.9936;
375.0000;0.4982;0.9960;
375.3000;0.4917;0.9820;
375.6000;0.4925;0.9866;
375.9000;0.4982;1.0006;
376.2000;0.4900;0.9750;
376.5000;0.4908;0.9796;
376.8000;0.4900;0.9656;
377.1000;0.4925;0.9680;
377.4000;0.5014;0.9913;
377.7000;0.4908;0.9633;
378.0000;0.4908;0.9680;
378.3000;0.4941;0.9773;
378.6000;0.4860;0.9516;
378.9000;0.4900;0.9680;
379.2000;0.4933;0.9773;
379.5000;0.4941;0.9890;
379.8000;0.4884;0.9750;
380.1000;0.4884;0.9773;
380.4000;0.4892;0.9796;
380.7000;0.4917;0.9866;
381.0000;0.4900;0.9866;
381.3000;0.4794;0.9516;
381.6000;0.4900;0.9750;
381.9000;0.4868;0.9540;
382.2000;0.4982;0.9773;
382.5000;0.4941;0.9726;
382.8000;0.4917;0.9680;
383.1000;0.4884;0.9726;
383.4000;0.4892;0.9726;
383.7000;0.4917;0.9796;
384.0000;0.4900;0.9820;
384.3000;0.4900;0.9866;
384.6000;0.4925;0.9843;
384.9000;0.4884;0.9726;
385.2000;0.4908;0.9820;
385.5000;0.4917;0.9843;
385.8000;0.4941;0.9890;
386.1000;0.4917;0.9796;
386.4000;0.4908;0.9843;
386.7000;0.4925;0.9843;
387.0000;0.4957;0.9936;
387.3000;0.4925;0.9983;
387.6000;0.4925;0.9936;
387.9000;0.4925;0.9890;
388.2000;0.4892;0.9796;
388.5000;0.4917;0.9843;
388.8000;0.4917;0.9796;
389.1000;0.4990;0.9960;
389.4000;0.4892;0.9796;
389.7000;0.4925;0.9866;
390.0000;0.4917;0.9750;
390.3000;0.4949;0.9796;
390.6000;0.4933;0.9656;
390.9000;0.4925;0.9703;
391.2000;0.4925;0.9703;
391.5000;0.4925;0.9680;
391.8000;0.4917;0.9680;
392.1000;0.4949;0.9843;
392.4000;0.4917;0.9843;
392.7000;0.4908;0.9843;
393.0000;0.4933;0.9890;
393.3000;0.4917;0.9890;
393.6000;0.4908;0.9843;
393.9000;0.4925;0.9890;
394.2000;0.4925;0.9913;
394.5000;0.4908;0.9843;
394.8000;0.4900;0.9820;
395.1000;0.4917;0.9796;
395.4000;0.4933;0.9750;
395.7000;0.4917;0.9680;
396.0000;0.4900;0.9703;
396.3000;0.4917;0.9796;
396.6000;0.4900;0.9773;
396.9000;0.4900;0.9820;
397.2000;0.4908;0.9820;
397.5000;0.4925;0.9843;
397.8000;0.4908;0.9726;
398.1000;0.4933;0.9703;
398.4000;0.4917;0.9633;
398.7000;0.4933;0.9726;
399.0000;0.4941;0.9820;
399.3000;0.4908;0.9726;
399.6000;0.4925;0.9796;
399.9000;0.4965;0.9913;
400.2000;0.4900;0.9773;
400.5000;0.4900;0.9820;
400.8000;0.4917;0.9843;
401.1000;0.4908;0.9890;
401.4000;0.4941;1.0006;
401.7000;0.4941;1.0076;
402.0000;0.4925;0.9983;
402.3000;0.4917;0.9936;
402.6000;0.4917;0.9866;
402.9000;0.4908;0.9796;
403.2000;0.4860;0.9680;
403.5000;0.4876;0.9633;
403.8000;0.4900;0.9726;
404.1000;0.5006;0.9936;
404.4000;0.4908;0.9703;
404.7000;0.4876;0.9703;
405.0000;0.4974;0.9890;
405.3000;0.4917;0.9703;
405.6000;0.4917;0.9610;
405.9000;0.4941;0.9633;
406.2000;0.4892;0.9516;
406.5000;0.4925;0.9633;
406.8000;0.4908;0.9610;
407.1000;0.4900;0.9586;
407.4000;0.4925;0.9540;
407.7000;0.4941;0.9516;
408.0000;0.4925;0.9610;
408.3000;0.4933;0.9680;
408.6000;0.4917;0.9680;
408.9000;0.4941;0.9726;
409.2000;0.4925;0.9680;
409.5000;0.4908;0.9750;
409.8000;0.4900;0.9750;
410.1000;0.4925;0.9796;
410.4000;0.4917;0.9773;
410.7000;0.4917;0.9773;
411.0000;0.4908;0.9726;
411.3000;0.4917;0.9726;
411.6000;0.4933;0.9726;
411.9000;0.4925;0.9750;
412.2000;0.4908;0.9750;
412.5000;0.4933;0.9866;
412.8000;0.4917;0.9843;
413.1000;0.4925;0.9890;
413.4000;0.4900;0.9843;
413.7000;0.4982;0.9960;
414.0000;0.4933;0.9890;
414.3000;0.4876;0.9750;
414.6000;0.4925;0.9820;
414.9000;0.4900;0.9726;
415.2000;0.4917;0.9866;
415.5000;0.4925;0.9936;
415.8000;0.4892;0.9890;
416.1000;0.4908;0.9936;
416.4000;0.4925;0.9890;
416.7000;0.4925;0.9866;
417.0000;0.4957;0.9820;
417.3000;0.4908;0.9773;
417.6000;0.4917;0.9890;
417.9000;0.4941;0.9866;
418.2000;0.4917;0.9866;
418.5000;0.4917;0.9866;
418.8000;0.4925;0.9913;
419.1000;0.4908;1.0006;
419.4000;0.4908;1.0100;
419.7000;0.4908;1.0100;
420.0000;0.4908;1.0123;
420.3000;0.4917;1.0100;
420.6000;0.4925;1.0030;
420.9000;0.4917;0.9983;
421.2000;0.4974;0.9936;
421.5000;0.4925;0.9866;
421.8000;0.4917;0.9843;
422.1000;0.4933;0.9913;
422.4000;0.4917;0.9866;
422.7000;0.4933;0.9843;
423.0000;0.4908;0.9796;
423.3000;0.4917;0.9843;
423.6000;0.4908;0.9796;
423.9000;0.4917;0.9796;
424.2000;0.4908;0.9726;
424.5000;0.4925;0.9750;
424.8000;0.4908;0.9703;
425.1000;0.4868;0.9726;
425.4000;0.4917;0.9796;
425.7000;0.4860;0.9656;
426.0000;0.4900;0.9843;
426.3000;0.4917;0.9820;
426.6000;0.4933;0.9843;
426.9000;0.4957;0.9866;
427.2000;0.4949;0.9890;
427.5000;0.4917;0.9820;
427.8000;0.4908;0.9750;
428.1000;0.4917;0.9773;
428.4000;0.4917;0.9773;
428.7000;0.4925;0.9773;
429.0000;0.4933;0.9820;
429.3000;0.4941;0.9820;
429.6000;0.4933;0.9796;
429.9000;0.4908;0.9773;
430.2000;0.4892;0.9703;
430.5000;0.4917;0.9796;
430.8000;0.4925;0.9726;
431.1000;0.4908;0.9610;
431.4000;0.4917;0.9563;
431.7000;0.4884;0.9563;
432.0000;0.4908;0.9680;
432.3000;0.4933;0.9680;
432.6000;0.4933;0.9820;
432.9000;0.4941;0.9843;
433.2000;0.4974;0.9890;
433.5000;0.4925;0.9820;
433.8000;0.4925;0.9890;
434.1000;0.4925;0.9890;
434.4000;0.4990;0.9983;
434.7000;0.4917;0.9913;
435.0000;0.4892;0.9843;
435.3000;0.4917;0.9820;
435.6000;0.4908;0.9726;
435.9000;0.4860;0.9633;
436.2000;0.4908;0.9796;
436.5000;0.4900;0.9820;
436.8000;0.4941;0.9936;
437.1000;0.4925;0.9936;
437.4000;0.4925;0.9866;
437.7000;0.4851;0.9726;
438.0000;0.4908;1.0030;
438.3000;0.4860;0.9866;
438.6000;0.4835;0.9773;
438.9000;0.4900;0.9866;
439.2000;0.4892;0.9796;
439.5000;0.4925;0.9796;
439.8000;0.4917;0.9750;
440.1000;0.4908;0.9773;
440.4000;0.4908;0.9866;
440.7000;0.4933;0.9890;
441.0000;0.4917;0.9890;
441.3000;0.4908;0.9843;
441.6000;0.4900;0.9726;
441.9000;0.4900;0.9750;
442.2000;0.4925;0.9890;
442.5000;0.4933;0.9913;
442.8000;0.4925;0.9913;
443.1000;0.4925;0.9890;
443.4000;0.4925;0.9866;
443.7000;0.4908;0.9843;
444.0000;0.4941;0.9820;
444.3000;0.4917;0.9750;
444.6000;0.4933;0.9773;
444.9000;0.4917;0.9796;
445.2000;0.4892;0.9726;
445.5000;0.4917;0.9796;
445.8000;0.4965;0.9936;
446.1000;0.4908;0.9936;
446.4000;0.4892;0.9890;
446.7000;0.4917;0.9913;
447.0000;0.4900;0.9890;
447.3000;0.4941;1.0006;
447.6000;0.4949;1.0100;
447.9000;0.4933;1.0006;
448.2000;0.4941;1.0006;
448.5000;0.4917;0.9913;
448.8000;0.4925;0.9843;
449.1000;0.4892;0.9843;
449.4000;0.4917;0.9843;
449.7000;0.4876;0.9680;
450.0000;0.4949;0.9773;
450.3000;0.4917;0.9703;
450.6000;0.4917;0.9680;
450.9000;0.4925;0.9656;
451.2000;0.4884;0.9610;
451.5000;0.4925;0.9726;
451.8000;0.4900;0.9703;
452.1000;0.4892;0.9703;
452.4000;0.4933;0.9796;
452.7000;0.4998;1.0006;
453.0000;0.4908;0.9820;
453.3000;0.4917;0.9820;
453.6000;0.4925;0.9773;
453.9000;0.4884;0.9656;
454.2000;0.5022;1.0006;
454.5000;0.4892;0.9610;
454.8000;0.4949;0.9680;
455.1000;0.4949;0.9680;
455.4000;0.4933;0.9656;
455.7000;0.4917;0.9633;
456.0000;0.4925;0.9540;
456.3000;0.4843;0.9423;
456.6000;0.4933;0.9586;
456.9000;0.4933;0.9633;
457.2000;0.4965;0.9750;
457.5000;0.4933;0.9680;
457.8000;0.4941;0.9750;
458.1000;0.4884;0.9703;
458.4000;0.4949;0.9866;
458.7000;0.4949;0.9843;
459.0000;0.4941;0.9820;
459.3000;0.5014;1.0030;
459.6000;0.4941;0.9890;
459.9000;0.4925;0.9890;
460.2000;0.5006;1.0076;
460.5000;0.4917;0.9796;
460.8000;0.4884;0.9633;
461.1000;0.4908;0.9563;
461.4000;0.4917;0.9586;
461.7000;0.4835;0.9353;
462.0000;0.4892;0.9540;
462.3000;0.4900;0.9586;
462.6000;0.4835;0.9353;
462.9000;0.4908;0.9586;
463.2000;0.4892;0.9633;
463.5000;0.4917;0.9750;
463.8000;0.4900;0.9680;
464.1000;0.4908;0.9680;
464.4000;0.4925;0.9610;
464.7000;0.4900;0.9610;
465.0000;0.4908;0.9680;
465.3000;0.4908;0.9680;
465.6000;0.4908;0.9680;
465.9000;0.4908;0.9750;
466.2000;0.4925;0.9750;
466.5000;0.4917;0.9656;
466.8000;0.4925;0.9516;
467.1000;0.4917;0.9540;
467.4000;0.4917;0.9540;
467.7000;0.4965;0.9680;
468.0000;0.4933;0.9633;
468.3000;0.4917;0.9726;
468.6000;0.4908;0.9726;
468.9000;0.4917;0.9750;
469.2000;0.4925;0.9820;
469.5000;0.4900;0.9843;
469.8000;0.4892;0.9866;
470.1000;0.4941;0.9936;
470.4000;0.4908;0.9890;
470.7000;0.4900;0.9960;
471.0000;0.4900;0.9960;
471.3000;0.4900;0.9960;
471.6000;0.4933;1.0030;
471.9000;0.4933;0.9890;
472.2000;0.4892;0.9773;
472.5000;0.4884;0.9703;
472.8000;0.4933;0.9796;
473.1000;0.4900;0.9796;
473.4000;0.4965;0.9983;
473.7000;0.4908;1.0030;
474.0000;0.4843;0.9866;
474.3000;0.4908;0.9983;
474.6000;0.4917;0.9890;
474.9000;0.4860;0.9773;
475.2000;0.4908;0.9843;
475.5000;0.4876;0.9796;
475.8000;0.4900;0.9866;
476.1000;0.4900;0.9866;
476.4000;0.4925;0.9890;
476.7000;0.4933;0.9936;
477.0000;0.4876;0.9726;
477.3000;0.4917;0.9843;
477.6000;0.4908;0.9936;
477.9000;0.4908;0.9936;
478.2000;0.4908;0.9843;
478.5000;0.4892;0.9913;
478.8000;0.4925;0.9983;
479.1000;0.4933;0.9936;
479.4000;0.4917;0.9820;
479.7000;0.4925;0.9796;
480.0000;0.4925;0.9820;
480.3000;0.4917;0.9913;
480.6000;0.4933;0.9960;
480.9000;0.4941;0.9866;
481.2000;0.4900;0.9796;
481.5000;0.4851;0.9703;
481.8000;0.4925;0.9820;
482.1000;0.4925;0.9796;
482.4000;0.4892;0.9773;
482.7000;0.4925;0.9866;
483.0000;0.4917;0.9843;
483.3000;0.4917;0.9843;
483.6000;0.4917;0.9890;
483.9000;0.4917;0.9890;
484.2000;0.4925;0.9936;
484.5000;0.4925;0.9843;
484.8000;0.4908;0.9796;
485.1000;0.4917;0.9866;
485.4000;0.4908;0.9750;
485.7000;0.4917;0.9703;
486.0000;0.4925;0.9726;
486.3000;0.4900;0.9726;
486.6000;0.4917;0.9796;
486.9000;0.4925;0.9796;
487.2000;0.4892;0.9703;
487.5000;0.4908;0.9726;
487.8000;0.4900;0.9726;
488.1000;0.4917;0.9726;
488.4000;0.4925;0.9726;
488.7000;0.4917;0.9703;
489.0000;0.4908;0.9796;
489.3000;0.4925;0.9936;
489.6000;0.4908;0.9936;
489.9000;0.4925;1.0030;
490.2000;0.4908;1.0053;
490.5000;0.4941;1.0146;
490.8000;0.4925;1.0076;
491.1000;0.4908;1.0006;
491.4000;0.4884;0.9960;
491.7000;0.4925;0.9936;
492.0000;0.4957;0.9983;
492.3000;0.4917;0.9843;
492.6000;0.4908;0.9796;
492.9000;0.4925;0.9890;
493.2000;0.4917;0.9866;
493.5000;0.4908;0.9866;
493.8000;0.4884;0.9773;
494.1000;0.4925;0.9866;
494.4000;0.4925;0.9960;
494.7000;0.4900;0.9936;
495.0000;0.5006;1.0076;
495.3000;0.4925;0.9866;
495.6000;0.4941;0.9890;
495.9000;0.4933;0.9843;
496.2000;0.4957;0.9960;
496.5000;0.4917;0.9890;
496.8000;0.4957;0.9960;
497.1000;0.4819;0.9610;
497.4000;0.4908;0.9750;
497.7000;0.4908;0.9773;
498.0000;0.4908;0.9843;
498.3000;0.4957;0.9936;
498.6000;0.4868;0.9703;
498.9000;0.4892;0.9796;
499.2000;0.4974;0.9890;
499.5000;0.4900;0.9750;
499.8000;0.4941;0.9796;
500.1000;0.4908;0.9773;
500.4000;0.4917;0.9820;
500.7000;0.4917;0.9773;
501.0000;0.4908;0.9843;
501.3000;0.4917;0.9796;
501.6000;0.4900;0.9703;
501.9000;0.4908;0.9656;
502.2000;0.4998;0.9890;
502.5000;0.4917;0.9773;
502.8000;0.4917;0.9750;
503.1000;0.4917;0.9773;
503.4000;0.4941;0.9773;
503.7000;0.4917;0.9796;
504.0000;0.4908;0.9750;
504.3000;0.4908;0.9750;
504.6000;0.4925;0.9773;
504.9000;0.4917;0.9773;
505.2000;0.4917;0.9773;
505.5000;0.4933;0.9726;
505.8000;0.4851;0.9586;
506.1000;0.4925;0.9866;
506.4000;0.4917;0.9960;
506.7000;0.4908;0.9913;
507.0000;0.4917;0.9890;
507.3000;0.4917;0.9843;
507.6000;0.4900;0.9820;
507.9000;0.4917;0.9773;
508.2000;0.4925;0.9750;
508.5000;0.4908;0.9750;
508.8000;0.4917;0.9703;
509.1000;0.4949;0.9750;
509.4000;0.4925;0.9843;
509.7000;0.4941;0.9820;
510.0000;0.4917;0.9796;
510.3000;0.4892;0.9703;
510.6000;0.4900;0.9750;
510.9000;0.4925;0.9773;
511.2000;0.4941;0.9750;
511.5000;0.4925;0.9680;
511.8000;0.4908;0.9680;
512.1000;0.4900;0.9703;
512.4000;0.4900;0.9773;
512.7000;0.4925;0.9843;
513.0000;0.4908;0.9866;
513.3000;0.4908;0.9890;
513.6000;0.4925;0.9913;
513.9000;0.4876;0.9820;
514.2000;0.4933;0.9983;
514.5000;0.4917;0.9890;
514.8000;0.4941;0.9936;
515.1000;0.4933;0.9983;
515.4000;0.4941;0.9936;
515.7000;0.4908;0.9866;
516.0000;0.4949;0.9960;
516.3000;0.4925;0.9796;
516.6000;0.4974;0.9796;
516.9000;0.4908;0.9726;
517.2000;0.4908;0.9726;
517.5000;0.4908;0.9750;
517.8000;0.4933;0.9726;
518.1000;0.4908;0.9680;
518.4000;0.4900;0.9656;
518.7000;0.4860;0.9586;
519.0000;0.4908;0.9633;
519.3000;0.4933;0.9633;
519.6000;0.4941;0.9726;
519.9000;0.4917;0.9656;
520.2000;0.4974;0.9843;
520.5000;0.4917;0.9703;
520.8000;0.4957;0.9820;
521.1000;0.4925;0.9796;
521.4000;0.4917;0.9820;
521.7000;0.4974;0.9960;
522.0000;0.4892;0.9820;
522.3000;0.4892;0.9796;
522.6000;0.4965;0.9983;
522.9000;0.4933;0.9960;
523.2000;0.4908;0.9866;
523.5000;0.4917;0.9866;
523.8000;0.4925;0.9936;
524.1000;0.4925;0.9913;
524.4000;0.4900;0.9773;
524.7000;0.4908;0.9843;
525.0000;0.4925;0.9960;
525.3000;0.4917;1.0006;
525.6000;0.5006;1.0100;
525.9000;0.4908;0.9936;
526.2000;0.4917;1.0030;
526.5000;0.4908;1.0053;
526.8000;0.4900;0.9960;
527.1000;0.4965;1.0030;
527.4000;0.4925;0.9913;
527.7000;0.4917;0.9913;
528.0000;0.4892;0.9843;
528.3000;0.4900;0.9820;
528.6000;0.4908;0.9866;
528.9000;0.4900;0.9843;
529.2000;0.4900;0.9890;
529.5000;0.4892;0.9796;
529.8000;0.4949;0.9960;
530.1000;0.4868;0.9703;
530.4000;0.4933;0.9983;
530.7000;0.4965;1.0030;
531.0000;0.4917;0.9913;
531.3000;0.4900;0.9843;
531.6000;0.5014;1.0146;
531.9000;0.4900;0.9843;
532.2000;0.4900;0.9820;
532.5000;0.4917;0.9773;
532.8000;0.4917;0.9750;
533.1000;0.4917;0.9773;
533.4000;0.4917;0.9796;
533.7000;0.4925;0.9866;
534.0000;0.4917;0.9866;
534.3000;0.4917;0.9866;
534.6000;0.4908;0.9773;
534.9000;0.4925;0.9890;
535.2000;0.4925;0.9983;
535.5000;0.4933;0.9890;
535.8000;0.4917;0.9866;
536.1000;0.4917;0.9936;
536.4000;0.4892;0.9913;
536.7000;0.4908;1.0006;
537.0000;0.4933;1.0100;
537.3000;0.4917;1.0076;
537.6000;0.4917;1.0123;
537.9000;0.4884;1.0100;
538.2000;0.4917;1.0240;
538.5000;0.4917;1.0240;
538.8000;0.4917;1.0216;
539.1000;0.4908;1.0146;
539.4000;0.4917;1.0146;
539.7000;0.4925;1.0193;
540.0000;0.4925;1.0146;
540.3000;0.4933;1.0216;
540.6000;0.4884;1.0100;
540.9000;0.4917;1.0053;
541.2000;0.4900;1.0100;
541.5000;0.4917;1.0146;
541.8000;0.4925;1.0193;
542.1000;0.4900;1.0076;
542.4000;0.4900;1.0123;
542.7000;0.4908;1.0216;
543.0000;0.4892;1.0240;
543.3000;0.4900;1.0333;
543.6000;0.4851;1.0123;
543.9000;0.4908;1.0170;
544.2000;0.4982;1.0356;
544.5000;0.4957;1.0286;
544.8000;0.4925;1.0030;
545.1000;0.4900;1.0006;
545.4000;0.4949;1.0053;
545.7000;0.4941;1.0030;
546.0000;0.4917;0.9913;
546.3000;0.4933;1.0006;
546.6000;0.4917;0.9890;
546.9000;0.4925;0.9843;
547.2000;0.4900;0.9866;
547.5000;0.4908;0.9890;
547.8000;0.4941;0.9936;
548.1000;0.4884;0.9843;
548.4000;0.4892;0.9866;
548.7000;0.4908;0.9913;
549.0000;0.4925;0.9960;
549.3000;0.4949;0.9983;
549.6000;0.4933;0.9913;
549.9000;0.4917;0.9843;
550.2000;0.4933;0.9960;
550.5000;0.4925;0.9936;
550.8000;0.4917;0.9890;
551.1000;0.5039;1.0240;
551.4000;0.4965;1.0123;
551.7000;0.4908;1.0030;
552.0000;0.4998;1.0286;
552.3000;0.4819;0.9866;
552.6000;0.4917;1.0170;
552.9000;0.4892;1.0076;
553.2000;0.4900;1.0053;
553.5000;0.4892;0.9960;
553.8000;0.4892;0.9960;
554.1000;0.4925;0.9983;
554.4000;0.4900;0.9890;
554.7000;0.4908;0.9750;
555.0000;0.4925;0.9820;
555.3000;0.4908;0.9843;
555.6000;0.4965;1.0006;
555.9000;0.4900;0.9866;
556.2000;0.4933;0.9843;
556.5000;0.4925;0.9913;
556.8000;0.4884;0.9913;
557.1000;0.4917;0.9983;
557.4000;0.4908;0.9983;
557.7000;0.4917;1.0100;
558.0000;0.4933;1.0170;
558.3000;0.4925;1.0240;
558.6000;0.4900;1.0146;
558.9000;0.4917;1.0216;
559.2000;0.4917;1.0216;
559.5000;0.4925;1.0193;
559.8000;0.4925;1.0100;
560.1000;0.4900;0.9960;
560.4000;0.4925;0.9936;
560.7000;0.4925;1.0006;
561.0000;0.4925;1.0076;
561.3000;0.4917;1.0076;
561.6000;0.4900;1.0053;
561.9000;0.4933;1.0146;
562.2000;0.4900;1.0100;
562.5000;0.4908;1.0146;
562.8000;0.4917;1.0216;
563.1000;0.4917;1.0170;
563.4000;0.4908;1.0100;
563.7000;0.4908;1.0076;
564.0000;0.4900;1.0053;
564.3000;0.4892;1.0053;
564.6000;0.4908;1.0100;
564.9000;0.4941;1.0170;
565.2000;0.4965;1.0286;
565.5000;0.4908;1.0216;
565.8000;0.4900;1.0263;
566.1000;0.4900;1.0333;
566.4000;0.4892;1.0380;
566.7000;0.5022;1.0729;
567.0000;0.4827;1.0193;
567.3000;0.4917;1.0333;
567.6000;0.4949;1.0263;
567.9000;0.4900;1.0216;
568.2000;0.4925;1.0240;
568.5000;0.4900;1.0146;
568.8000;0.4900;1.0170;
569.1000;0.4892;1.0146;
569.4000;0.4908;1.0123;
569.7000;0.4933;1.0100;
570.0000;0.4974;1.0146;
570.3000;0.4803;0.9750;
570.6000;0.4908;0.9913;
570.9000;0.4974;1.0076;
571.2000;0.4925;0.9983;
571.5000;0.4900;1.0030;
571.8000;0.4908;1.0076;
572.1000;0.4892;1.0030;
572.4000;0.4925;1.0170;
572.7000;0.4908;1.0193;
573.0000;0.4900;1.0216;
573.3000;0.4917;1.0216;
573.6000;0.4908;1.0170;
573.9000;0.4925;1.0170;
574.2000;0.4917;1.0100;
574.5000;0.4917;1.0076;
574.8000;0.4917;1.0100;
575.1000;0.4933;1.0240;
575.4000;0.4900;1.0123;
575.7000;0.4957;1.0263;
576.0000;0.4908;1.0170;
576.3000;0.4933;1.0100;
576.6000;0.4933;1.0076;
576.9000;0.4892;0.9983;
577.2000;0.4900;1.0030;
577.5000;0.4917;1.0170;
577.8000;0.4917;1.0310;
578.1000;0.4900;1.0263;
578.4000;0.4917;1.0310;
578.7000;0.4925;1.0263;
579.0000;0.4917;1.0263;
579.3000;0.4900;1.0263;
579.6000;0.4925;1.0263;
579.9000;0.4908;1.0310;
580.2000;0.4917;1.0403;
580.5000;0.4908;1.0426;
580.8000;0.4908;1.0333;
581.1000;0.4917;1.0333;
581.4000;0.4917;1.0310;
581.7000;0.4892;1.0193;
582.0000;0.4908;1.0193;
582.3000;0.4925;1.0286;
582.6000;0.4900;1.0170;
582.9000;0.4908;1.0193;
583.2000;0.4917;1.0123;
583.5000;0.4860;1.0006;
583.8000;0.4900;1.0053;
584.1000;0.4908;1.0123;
584.4000;0.4908;1.0146;
584.7000;0.4908;1.0030;
585.0000;0.4933;1.0053;
585.3000;0.4908;1.0076;
585.6000;0.4908;1.0123;
585.9000;0.4908;1.0030;
586.2000;0.4925;1.0006;
586.5000;0.4925;1.0100;
586.8000;0.4908;1.0146;
587.1000;0.4949;1.0193;
587.4000;0.4892;1.0123;
587.7000;0.4941;1.0193;
588.0000;0.4908;1.0076;
588.3000;0.4917;1.0053;
588.6000;0.4908;1.0193;
588.9000;0.4908;1.0216;
589.2000;0.5039;1.0519;
589.5000;0.4933;1.0170;
589.8000;0.4925;1.0123;
590.1000;0.4884;1.0006;
590.4000;0.4917;1.0100;
590.7000;0.4941;1.0146;
591.0000;0.4876;1.0100;
591.3000;0.4900;1.0123;
591.6000;0.4933;1.0170;
591.9000;0.4917;1.0076;
592.2000;0.4933;1.0100;
592.5000;0.4868;0.9866;
592.8000;0.4900;0.9936;
593.1000;0.4974;1.0146;
593.4000;0.4957;1.0123;
593.7000;0.4917;1.0193;
594.0000;0.4990;1.0449;
594.3000;0.4917;1.0286;
594.6000;0.4908;1.0193;
594.9000;0.4908;1.0123;
595.2000;0.4949;1.0193;
595.5000;0.4917;1.0100;
595.8000;0.4917;1.0030;
596.1000;0.4908;0.9983;
596.4000;0.4925;1.0076;
596.7000;0.4917;1.0170;
597.0000;0.4908;1.0193;
597.3000;0.4876;1.0076;
597.6000;0.4908;1.0030;
597.9000;0.4925;1.0030;
598.2000;0.4908;1.0100;
598.5000;0.4917;1.0076;
598.8000;0.4917;1.0146;
599.1000;0.4900;1.0216;
599.4000;0.4908;1.0193;
599.7000;0.4900;1.0216;
600.0000;0.4917;1.0286;
600.3000;0.4949;1.0310;
600.6000;0.4941;1.0240;
600.9000;0.4917;1.0076;
601.2000;0.4949;1.0100;
601.5000;0.4892;0.9936;
601.8000;0.4917;0.9866;
602.1000;0.4884;0.9633;
602.4000;0.4851;0.9516;
602.7000;0.4827;0.9470;
603.0000;0.4843;0.9447;
603.3000;0.4803;0.9353;
603.6000;0.4786;0.9190;
603.9000;0.4729;0.9050;
604.2000;0.4705;0.9003;
604.5000;0.4721;0.8957;
604.8000;0.4689;0.8887;
605.1000;0.4705;0.8887;
605.4000;0.4689;0.8840;
605.7000;0.4648;0.8770;
606.0000;0.4681;0.8887;
606.3000;0.4615;0.8817;
606.6000;0.4607;0.8770;
606.9000;0.4591;0.8607;
607.2000;0.4591;0.8537;
607.5000;0.4583;0.8537;
607.8000;0.4567;0.8490;
608.1000;0.4575;0.8514;
608.4000;0.4518;0.8467;
608.7000;0.4518;0.8420;
609.0000;0.4518;0.8467;
609.3000;0.4501;0.8374;
609.6000;0.4501;0.8374;
609.9000;0.4371;0.8047;
610.2000;0.4477;0.8257;
610.5000;0.4477;0.8234;
610.8000;0.4485;0.8327;
611.1000;0.4453;0.8350;
611.4000;0.4404;0.8187;
611.7000;0.4469;0.8397;
612.0000;0.4412;0.8304;
612.3000;0.4412;0.8187;
612.6000;0.4428;0.8234;
612.9000;0.4404;0.8280;
613.2000;0.4461;0.8537;
613.5000;0.4363;0.8304;
613.8000;0.4290;0.8234;
614.1000;0.4363;0.8374;
614.4000;0.4363;0.8374;
614.7000;0.4363;0.8327;
615.0000;0.4355;0.8350;
615.3000;0.4298;0.8257;
615.6000;0.4306;0.8234;
615.9000;0.4282;0.8140;
616.2000;0.4306;0.8280;
616.5000;0.4274;0.8257;
616.8000;0.4306;0.8374;
617.1000;0.4298;0.8444;
617.4000;0.4282;0.8420;
617.7000;0.4290;0.8444;
618.0000;0.4265;0.8420;
618.3000;0.4249;0.8444;
618.6000;0.4257;0.8350;
618.9000;0.4151;0.8070;
619.2000;0.4225;0.8304;
619.5000;0.4208;0.8187;
619.8000;0.4290;0.8444;
620.1000;0.4208;0.8327;
620.4000;0.4192;0.8257;
620.7000;0.4192;0.8304;
621.0000;0.4208;0.8234;
621.3000;0.4168;0.8187;
621.6000;0.4192;0.8327;
621.9000;0.4184;0.8327;
622.2000;0.4192;0.8374;
622.5000;0.4208;0.8444;
622.8000;0.4168;0.8257;
623.1000;0.4184;0.8280;
623.4000;0.4160;0.8164;
623.7000;0.4151;0.8094;
624.0000;0.4160;0.8094;
624.3000;0.4111;0.8164;
624.6000;0.4168;0.8280;
624.9000;0.4135;0.8164;
625.2000;0.4135;0.8047;
625.5000;0.4062;0.7860;
625.8000;0.4111;0.7884;
626.1000;0.4111;0.7837;
626.4000;0.4103;0.7930;
626.7000;0.4103;0.7954;
627.0000;0.4029;0.7720;
627.3000;0.4094;0.7977;
627.6000;0.4078;0.8024;
627.9000;0.4119;0.8140;
628.2000;0.4094;0.8047;
628.5000;0.4070;0.7954;
628.8000;0.4062;0.7907;
629.1000;0.4094;0.8024;
629.4000;0.4046;0.7930;
629.7000;0.4054;0.7884;
630.0000;0.4046;0.7907;
630.3000;0.4021;0.7930;
630.6000;0.4046;0.7977;
630.9000;0.3997;0.7860;
631.2000;0.4021;0.7954;
631.5000;0.4046;0.7954;
631.8000;0.4037;0.7930;
632.1000;0.4021;0.7907;
632.4000;0.4029;0.8000;
632.7000;0.4029;0.8047;
633.0000;0.4013;0.8047;
633.3000;0.3980;0.8024;
633.6000;0.3997;0.8140;
633.9000;0.3964;0.8140;
634.2000;0.3989;0.8187;
634.5000;0.3989;0.8140;
634.8000;0.3989;0.8094;
635.1000;0.3980;0.8070;
635.4000;0.3972;0.8070;
635.7000;0.3948;0.8047;
636.0000;0.3964;0.8070;
636.3000;0.3948;0.8164;
636.6000;0.3940;0.8070;
636.9000;0.3940;0.8047;
637.2000;0.3948;0.8024;
637.5000;0.3948;0.8024;
637.8000;0.3989;0.8070;
638.1000;0.3923;0.7954;
638.4000;0.3956;0.7977;
638.7000;0.3932;0.7907;
639.0000;0.3923;0.7907;
639.3000;0.3923;0.7977;
639.6000;0.3907;0.8000;
639.9000;0.3915;0.8070;
640.2000;0.3826;0.7930;
640.5000;0.3891;0.7954;
640.8000;0.3883;0.7954;
641.1000;0.3899;0.8070;
641.4000;0.3915;0.8210;
641.7000;0.3891;0.8117;
642.0000;0.3940;0.8140;
642.3000;0.3907;0.8094;
642.6000;0.3867;0.8070;
642.9000;0.3883;0.8164;
643.2000;0.3867;0.8117;
643.5000;0.3867;0.8117;
643.8000;0.3883;0.8117;
644.1000;0.3858;0.8024;
644.4000;0.3801;0.7860;
644.7000;0.3842;0.8070;
645.0000;0.3867;0.8140;
645.3000;0.3785;0.7907;
645.6000;0.3858;0.8070;
645.9000;0.3850;0.8070;
646.2000;0.3842;0.8094;
646.5000;0.3810;0.8024;
646.8000;0.3834;0.8047;
647.1000;0.3850;0.8140;
647.4000;0.3826;0.8140;
647.7000;0.3858;0.8210;
648.0000;0.3842;0.8164;
648.3000;0.3810;0.8024;
648.6000;0.3818;0.8000;
648.9000;0.3801;0.7884;
649.2000;0.3818;0.7907;
649.5000;0.3818;0.7930;
649.8000;0.3810;0.7837;
650.1000;0.3810;0.7860;
650.4000;0.3818;0.7954;
650.7000;0.3769;0.7860;
651.0000;0.3753;0.7790;
651.3000;0.3785;0.7977;
651.6000;0.3777;0.8024;
651.9000;0.3810;0.8210;
652.2000;0.3834;0.8280;
652.5000;0.3761;0.8094;
652.8000;0.3793;0.8117;
653.1000;0.3671;0.7954;
653.4000;0.3753;0.8140;
653.7000;0.3777;0.8187;
654.0000;0.3720;0.8000;
654.3000;0.3777;0.8140;
654.6000;0.3769;0.8140;
654.9000;0.3753;0.8117;
655.2000;0.3761;0.8117;
655.5000;0.3761;0.8117;
655.8000;0.3753;0.8140;
656.1000;0.3744;0.8117;
656.4000;0.3761;0.8164;
656.7000;0.3761;0.8140;
657.0000;0.3753;0.8094;
657.3000;0.3744;0.7954;
657.6000;0.3744;0.7907;
657.9000;0.3761;0.7884;
658.2000;0.3744;0.7860;
658.5000;0.3736;0.7744;
658.8000;0.3744;0.7790;
659.1000;0.3736;0.7837;
659.4000;0.3663;0.7744;
659.7000;0.3736;0.8000;
660.0000;0.3720;0.8070;
660.3000;0.3736;0.8000;
660.6000;0.3728;0.8024;
660.9000;0.3736;0.8094;
661.2000;0.3728;0.8117;
661.5000;0.3736;0.8164;
661.8000;0.3728;0.8164;
662.1000;0.3753;0.8234;
662.4000;0.3761;0.8234;
662.7000;0.3777;0.8210;
663.0000;0.3696;0.8094;
663.3000;0.3663;0.8070;
663.6000;0.3704;0.8164;
663.9000;0.3728;0.8187;
664.2000;0.3704;0.8187;
664.5000;0.3679;0.8094;
664.8000;0.3663;0.8070;
665.1000;0.3679;0.8140;
665.4000;0.3655;0.8164;
665.7000;0.3671;0.8210;
666.0000;0.3744;0.8304;
666.3000;0.3687;0.8094;
666.6000;0.3687;0.8094;
666.9000;0.3679;0.8047;
667.2000;0.3679;0.8094;
667.5000;0.3647;0.7907;
667.8000;0.3671;0.8047;
668.1000;0.3679;0.8117;
668.4000;0.3687;0.8140;
668.7000;0.3687;0.8117;
669.0000;0.3696;0.8047;
669.3000;0.3663;0.8024;
669.6000;0.3655;0.7977;
669.9000;0.3671;0.8000;
670.2000;0.3647;0.7907;
670.5000;0.3582;0.7744;
670.8000;0.3647;0.8000;
671.1000;0.3647;0.7954;
671.4000;0.3639;0.8024;
671.7000;0.3663;0.8000;
672.0000;0.3704;0.8070;
672.3000;0.3639;0.7907;
672.6000;0.3639;0.7790;
672.9000;0.3630;0.7720;
673.2000;0.3647;0.7790;
673.5000;0.3622;0.7837;
673.8000;0.3582;0.7744;
674.1000;0.3630;0.7837;
674.4000;0.3630;0.7837;
674.7000;0.3663;0.7977;
675.0000;0.3655;0.8070;
675.3000;0.3606;0.7930;
675.6000;0.3614;0.7907;
675.9000;0.3704;0.8164;
676.2000;0.3606;0.7954;
676.5000;0.3598;0.8000;
676.8000;0.3598;0.7977;
677.1000;0.3687;0.8164;
677.4000;0.3614;0.8140;
677.7000;0.3606;0.8094;
678.0000;0.3614;0.8094;
678.3000;0.3647;0.8140;
678.6000;0.3606;0.7930;
678.9000;0.3582;0.7907;
679.2000;0.3622;0.8094;
679.5000;0.3614;0.8187;
679.8000;0.3663;0.8257;
680.1000;0.3614;0.8117;
680.4000;0.3622;0.8187;
680.7000;0.3533;0.7860;
681.0000;0.3590;0.8047;
681.3000;0.3590;0.8070;
681.6000;0.3590;0.8140;
681.9000;0.3590;0.8210;
682.2000;0.3557;0.8117;
682.5000;0.3557;0.8070;
682.8000;0.3704;0.8350;
683.1000;0.3573;0.8070;
683.4000;0.3582;0.8140;
683.7000;0.3671;0.8304;
684.0000;0.3590;0.8140;
684.3000;0.3614;0.8140;
684.6000;0.3582;0.8024;
684.9000;0.3590;0.8000;
685.2000;0.3622;0.8164;
685.5000;0.3590;0.8234;
685.8000;0.3573;0.8187;
686.1000;0.3614;0.8304;
686.4000;0.3533;0.8140;
686.7000;0.3573;0.8210;
687.0000;0.3565;0.8210;
687.3000;0.3582;0.8210;
687.6000;0.3582;0.8117;
687.9000;0.3565;0.8117;
688.2000;0.3549;0.8000;
688.5000;0.3630;0.8140;
688.8000;0.3573;0.8047;
689.1000;0.3573;0.8070;
689.4000;0.3557;0.8187;
689.7000;0.3582;0.8210;
690.0000;0.3573;0.8210;
690.3000;0.3557;0.8187;
690.6000;0.3565;0.8257;
690.9000;0.3565;0.8257;
691.2000;0.3557;0.8234;
691.5000;0.3565;0.8257;
691.8000;0.3557;0.8257;
692.1000;0.3557;0.8257;
692.4000;0.3622;0.8350;
692.7000;0.3557;0.8304;
693.0000;0.3533;0.8187;
693.3000;0.3541;0.8140;
693.6000;0.3557;0.8187;
693.9000;0.3541;0.8140;
694.2000;0.3549;0.8117;
694.5000;0.3614;0.8234;
694.8000;0.3557;0.8140;
695.1000;0.3525;0.7930;
695.4000;0.3533;0.7977;
695.7000;0.3525;0.7884;
696.0000;0.3549;0.7954;
696.3000;0.3541;0.8094;
696.6000;0.3541;0.8164;
696.9000;0.3598;0.8350;
697.2000;0.3573;0.8280;
697.5000;0.3525;0.8187;
697.8000;0.3516;0.8210;
698.1000;0.3516;0.8210;
698.4000;0.3549;0.8280;
698.7000;0.3508;0.8304;
699.0000;0.3541;0.8304;
699.3000;0.3411;0.7930;
699.6000;0.3533;0.8257;
699.9000;0.3533;0.8327;
700.2000;0.3533;0.8350;
700.5000;0.3508;0.8327;
700.8000;0.3468;0.8210;
701.1000;0.3500;0.8350;
701.4000;0.3525;0.8467;
701.7000;0.3508;0.8350;
702.0000;0.3484;0.8327;
702.3000;0.3435;0.8257;
702.6000;0.3492;0.8234;
702.9000;0.3500;0.8350;
703.2000;0.3516;0.8374;
703.5000;0.3516;0.8350;
703.8000;0.3484;0.8210;
704.1000;0.3549;0.8420;
704.4000;0.3508;0.8327;
704.7000;0.3492;0.8327;
705.0000;0.3500;0.8304;
705.3000;0.3516;0.8374;
705.6000;0.3516;0.8327;
705.9000;0.3492;0.8280;
706.2000;0.3516;0.8350;
706.5000;0.3484;0.8327;
706.8000;0.3492;0.8327;
707.1000;0.3476;0.8304;
707.4000;0.3508;0.8350;
707.7000;0.3468;0.8327;
708.0000;0.3451;0.8304;
708.3000;0.3508;0.8350;
708.6000;0.3443;0.8304;
708.9000;0.3500;0.8467;
709.2000;0.3492;0.8397;
709.5000;0.3468;0.8420;
709.8000;0.3460;0.8350;
710.1000;0.3516;0.8444;
710.4000;0.3533;0.8607;
710.7000;0.3460;0.8420;
711.0000;0.3492;0.8490;
711.3000;0.3468;0.8350;
711.6000;0.3492;0.8304;
711.9000;0.3476;0.8280;
712.2000;0.3476;0.8257;
712.5000;0.3500;0.8304;
712.8000;0.3500;0.8350;
713.1000;0.3468;0.8374;
713.4000;0.3484;0.8327;
713.7000;0.3484;0.8210;
714.0000;0.3476;0.8234;
714.3000;0.3500;0.8257;
714.6000;0.3484;0.8304;
714.9000;0.3476;0.8164;
715.2000;0.3500;0.8140;
715.5000;0.3492;0.8140;
715.8000;0.3484;0.8164;
716.1000;0.3484;0.8094;
716.4000;0.3460;0.7954;
716.7000;0.3460;0.7954;
717.0000;0.3443;0.7954;
717.3000;0.3476;0.8094;
717.6000;0.3443;0.8047;
717.9000;0.3468;0.8117;
718.2000;0.3468;0.8164;
718.5000;0.3460;0.8210;
718.8000;0.3451;0.8140;
719.1000;0.3427;0.8000;
719.4000;0.3443;0.8047;
719.7000;0.3468;0.8094;
720.0000;0.3451;0.8070;
720.3000;0.3476;0.8117;
720.6000;0.3460;0.8117;
720.9000;0.3419;0.8117;
721.2000;0.3419;0.8117;
721.5000;0.3468;0.8234;
721.8000;0.3468;0.8140;
722.1000;0.3443;0.8047;
722.4000;0.3476;0.8047;
722.7000;0.3460;0.8094;
723.0000;0.3386;0.8000;
723.3000;0.3451;0.8117;
723.6000;0.3460;0.8164;
723.9000;0.3451;0.8094;
724.2000;0.3525;0.8327;
724.5000;0.3468;0.8164;
724.8000;0.3435;0.8117;
725.1000;0.3435;0.8140;
725.4000;0.3484;0.8187;
725.7000;0.3460;0.8164;
726.0000;0.3435;0.8210;
726.3000;0.3329;0.7977;
726.6000;0.3460;0.8327;
726.9000;0.3460;0.8234;
727.2000;0.3451;0.8140;
727.5000;0.3460;0.8117;
727.8000;0.3443;0.8094;
728.1000;0.3443;0.8047;
728.4000;0.3476;0.8234;
728.7000;0.3435;0.8117;
729.0000;0.3419;0.8047;
729.3000;0.3500;0.8257;
729.6000;0.3460;0.8210;
729.9000;0.3443;0.8187;
730.2000;0.3435;0.8164;
730.5000;0.3476;0.8210;
730.8000;0.3443;0.8117;
731.1000;0.3443;0.8094;
731.4000;0.3435;0.8094;
731.7000;0.3435;0.8164;
732.0000;0.3451;0.8210;
732.3000;0.3460;0.8187;
732.6000;0.3419;0.8070;
732.9000;0.3435;0.8094;
733.2000;0.3435;0.8070;
733.5000;0.3451;0.8117;
733.8000;0.3427;0.8070;
734.1000;0.3435;0.8094;
734.4000;0.3443;0.8210;
734.7000;0.3451;0.8234;
735.0000;0.3427;0.8164;
735.3000;0.3443;0.8117;
735.6000;0.3435;0.8047;
735.9000;0.3451;0.8094;
736.2000;0.3443;0.8047;
736.5000;0.3451;0.8070;
736.8000;0.3443;0.8117;
737.1000;0.3460;0.8187;
737.4000;0.3427;0.8140;
737.7000;0.3419;0.8164;
738.0000;0.3419;0.8140;
738.3000;0.3484;0.8164;
738.6000;0.3419;0.7954;
738.9000;0.3403;0.7930;
739.2000;0.3435;0.8000;
739.5000;0.3337;0.7790;
739.8000;0.3427;0.8070;
740.1000;0.3419;0.8164;
740.4000;0.3403;0.8187;
740.7000;0.3435;0.8257;
741.0000;0.3443;0.8257;
741.3000;0.3435;0.8327;
741.6000;0.3419;0.8187;
741.9000;0.3411;0.8210;
742.2000;0.3435;0.8210;
742.5000;0.3419;0.8210;
742.8000;0.3394;0.8140;
743.1000;0.3403;0.8117;
743.4000;0.3394;0.8047;
743.7000;0.3419;0.8140;
744.0000;0.3460;0.8280;
744.3000;0.3394;0.8210;
744.6000;0.3403;0.8140;
744.9000;0.3476;0.8304;
745.2000;0.3411;0.8187;
745.5000;0.3435;0.8094;
745.8000;0.3411;0.8024;
746.1000;0.3427;0.8094;
746.4000;0.3394;0.8047;
746.7000;0.3435;0.8094;
747.0000;0.3403;0.7977;
747.3000;0.3394;0.8000;
747.6000;0.3427;0.8047;
747.9000;0.3411;0.8047;
748.2000;0.3411;0.8047;
748.5000;0.3419;0.8094;
748.8000;0.3411;0.8024;
749.1000;0.3419;0.8094;
749.4000;0.3378;0.8000;
749.7000;0.3419;0.8024;
750.0000;0.3394;0.8024;
750.3000;0.3378;0.8070;
750.6000;0.3394;0.8140;
750.9000;0.3419;0.8280;
751.2000;0.3394;0.8187;
751.5000;0.3427;0.8280;
751.8000;0.3403;0.8280;
752.1000;0.3403;0.8187;
752.4000;0.3411;0.8070;
752.7000;0.3403;0.8000;
753.0000;0.3394;0.8070;
753.3000;0.3500;0.8350;
753.6000;0.3370;0.7930;
753.9000;0.3411;0.7930;
754.2000;0.3370;0.7907;
754.5000;0.3419;0.8000;
754.8000;0.3403;0.8000;
755.1000;0.3411;0.8024;
755.4000;0.3386;0.7930;
755.7000;0.3386;0.8024;
756.0000;0.3403;0.8070;
756.3000;0.3370;0.8024;
756.6000;0.3419;0.8024;
756.9000;0.3378;0.8070;
757.2000;0.3378;0.8140;
757.5000;0.3403;0.8140;
757.8000;0.3378;0.8094;
758.1000;0.3354;0.7954;
758.4000;0.3370;0.7930;
758.7000;0.3386;0.7977;
759.0000;0.3394;0.8000;
759.3000;0.3403;0.8024;
759.6000;0.3378;0.8000;
759.9000;0.3386;0.8070;
760.2000;0.3386;0.8117;
760.5000;0.3484;0.8350;
760.8000;0.3403;0.8164;
761.1000;0.3403;0.8164;
761.4000;0.3492;0.8210;
761.7000;0.3403;0.7977;
762.0000;0.3386;0.7907;
762.3000;0.3386;0.7860;
762.6000;0.3403;0.7860;
762.9000;0.3394;0.7790;
763.2000;0.3378;0.7837;
763.5000;0.3394;0.7954;
763.8000;0.3394;0.7977;
764.1000;0.3403;0.8047;
764.4000;0.3370;0.8070;
764.7000;0.3378;0.8024;
765.0000;0.3403;0.8117;
765.3000;0.3411;0.8187;
765.6000;0.3370;0.8047;
765.9000;0.3386;0.8000;
766.2000;0.3403;0.8024;
766.5000;0.3394;0.7860;
766.8000;0.3370;0.7907;
767.1000;0.3337;0.7907;
767.4000;0.3346;0.7907;
767.7000;0.3378;0.7977;
768.0000;0.3354;0.7954;
768.3000;0.3362;0.7977;
768.6000;0.3362;0.8000;
768.9000;0.3370;0.8000;
769.2000;0.3346;0.7954;
769.5000;0.3370;0.7977;
769.8000;0.3370;0.7884;
770.1000;0.3378;0.7814;
770.4000;0.3370;0.7790;
770.7000;0.3362;0.7860;
771.0000;0.3386;0.7884;
771.3000;0.3370;0.7930;
771.6000;0.3378;0.7977;
771.9000;0.3370;0.7977;
772.2000;0.3354;0.7930;
772.5000;0.3370;0.7977;
772.8000;0.3403;0.7954;
773.1000;0.3378;0.7954;
773.4000;0.3386;0.7860;
773.7000;0.3370;0.7860;
774.0000;0.3386;0.7954;
774.3000;0.3370;0.7977;
774.6000;0.3354;0.8047;
774.9000;0.3378;0.8117;
775.2000;0.3370;0.8070;
775.5000;0.3370;0.8140;
775.8000;0.3394;0.8140;
776.1000;0.3297;0.7977;
776.4000;0.3386;0.8280;
776.7000;0.3386;0.8164;
777.0000;0.3378;0.8117;
777.3000;0.3427;0.8210;
777.6000;0.3346;0.7930;
777.9000;0.3378;0.8024;
778.2000;0.3354;0.8000;
778.5000;0.3370;0.8070;
778.8000;0.3419;0.8164;
779.1000;0.3280;0.7767;
779.4000;0.3354;0.8000;
779.7000;0.3362;0.8140;
780.0000;0.3362;0.8164;
780.3000;0.3362;0.8187;
780.6000;0.3362;0.8187;
780.9000;0.3346;0.8234;
781.2000;0.3370;0.8234;
781.5000;0.3354;0.8140;
781.8000;0.3386;0.8164;
782.1000;0.3378;0.8117;
782.4000;0.3346;0.7954;
782.7000;0.3354;0.7930;
783.0000;0.3370;0.7977;
783.3000;0.3419;0.8094;
783.6000;0.3362;0.8047;
783.9000;0.3354;0.7977;
784.2000;0.3362;0.7954;
784.5000;0.3386;0.8000;
784.8000;0.3354;0.7977;
785.1000;0.3346;0.7977;
785.4000;0.3362;0.8000;
785.7000;0.3378;0.7954;
786.0000;0.3354;0.7884;
786.3000;0.3411;0.8094;
786.6000;0.3378;0.8140;
786.9000;0.3403;0.8140;
787.2000;0.3370;0.8210;
787.5000;0.3329;0.8257;
787.8000;0.3329;0.8234;
788.1000;0.3354;0.8234;
788.4000;0.3346;0.8257;
788.7000;0.3346;0.8280;
789.0000;0.3313;0.8094;
789.3000;0.3329;0.8187;
789.6000;0.3354;0.8140;
789.9000;0.3378;0.8187;
790.2000;0.3337;0.8094;
790.5000;0.3362;0.8210;
790.8000;0.3427;0.8444;
791.1000;0.3346;0.8187;
791.4000;0.3354;0.8210;
791.7000;0.3354;0.8164;
792.0000;0.3337;0.8117;
792.3000;0.3362;0.8187;
792.6000;0.3346;0.8257;
792.9000;0.3362;0.8257;
793.2000;0.3354;0.8304;
793.5000;0.3370;0.8304;
793.8000;0.3403;0.8444;
794.1000;0.3370;0.8327;
794.4000;0.3362;0.8304;
794.7000;0.3346;0.8350;
795.0000;0.3346;0.8397;
795.3000;0.3337;0.8374;
795.6000;0.3346;0.8397;
795.9000;0.3362;0.8397;
796.2000;0.3313;0.8304;
796.5000;0.3313;0.8187;
796.8000;0.3362;0.8304;
797.1000;0.3346;0.8350;
797.4000;0.3321;0.8257;
797.7000;0.3289;0.8164;
798.0000;0.3386;0.8327;
798.3000;0.3362;0.8304;
798.6000;0.3329;0.8304;
798.9000;0.3337;0.8257;
799.2000;0.3280;0.8140;
799.5000;0.3321;0.8257;
799.8000;0.3329;0.8234;
800.1000;0.3411;0.8374;
800.4000;0.3378;0.8327;
800.7000;0.3411;0.8444;
801.0000;0.3370;0.8327;
801.3000;0.3248;0.8070;
801.6000;0.3337;0.8257;
801.9000;0.3337;0.8280;
802.2000;0.3354;0.8444;
802.5000;0.3337;0.8397;
802.8000;0.3337;0.8397;
803.1000;0.3329;0.8397;
803.4000;0.3297;0.8397;
803.7000;0.3329;0.8444;
804.0000;0.3305;0.8327;
804.3000;0.3321;0.8280;
804.6000;0.3337;0.8350;
804.9000;0.3346;0.8234;
805.2000;0.3305;0.8187;
805.5000;0.3337;0.8140;
805.8000;0.3337;0.8164;
806.1000;0.3427;0.8397;
806.4000;0.3394;0.8327;
806.7000;0.3329;0.8187;
807.0000;0.3346;0.8210;
807.3000;0.3394;0.8257;
807.6000;0.3362;0.8140;
807.9000;0.3346;0.8094;
808.2000;0.3337;0.8094;
808.5000;0.3337;0.8094;
808.8000;0.3346;0.8164;
809.1000;0.3337;0.8164;
809.4000;0.3354;0.8257;
809.7000;0.3337;0.8280;
810.0000;0.3313;0.8234;
810.3000;0.3337;0.8210;
810.6000;0.3321;0.8140;
810.9000;0.3321;0.8070;
811.2000;0.3329;0.8094;
811.5000;0.3305;0.8117;
811.8000;0.3362;0.8234;
812.1000;0.3337;0.8164;
812.4000;0.3337;0.8070;
812.7000;0.3346;0.8140;
813.0000;0.3321;0.8140;
813.3000;0.3337;0.8094;
813.6000;0.3313;0.8024;
813.9000;0.3289;0.8117;
814.2000;0.3289;0.8164;
814.5000;0.3297;0.8210;
814.8000;0.3346;0.8374;
815.1000;0.3476;0.8770;
815.4000;0.3321;0.8374;
815.7000;0.3305;0.8257;
816.0000;0.3337;0.8257;
816.3000;0.3329;0.8187;
816.6000;0.3329;0.8164;
816.9000;0.3329;0.8117;
817.2000;0.3313;0.8164;
817.5000;0.3346;0.8280;
817.8000;0.3329;0.8304;
818.1000;0.3313;0.8350;
818.4000;0.3346;0.8490;
818.7000;0.3370;0.8514;
819.0000;0.3337;0.8374;
819.3000;0.3321;0.8350;
819.6000;0.3354;0.8374;
819.9000;0.3305;0.8257;
820.2000;0.3370;0.8490;
820.5000;0.3362;0.8444;
820.8000;0.3346;0.8374;
821.1000;0.3280;0.8210;
821.4000;0.3362;0.8397;
821.7000;0.3272;0.8164;
822.0000;0.3321;0.8374;
822.3000;0.3354;0.8397;
822.6000;0.3354;0.8420;
822.9000;0.3337;0.8327;
823.2000;0.3403;0.8537;
823.5000;0.3264;0.8257;
823.8000;0.3346;0.8397;
824.1000;0.3321;0.8374;
824.4000;0.3354;0.8374;
824.7000;0.3321;0.8280;
825.0000;0.3256;0.8117;
825.3000;0.3305;0.8257;
825.6000;0.3329;0.8350;
825.9000;0.3297;0.8304;
826.2000;0.3362;0.8514;
826.5000;0.3427;0.8630;
826.8000;0.3354;0.8420;
827.1000;0.3337;0.8304;
827.4000;0.3232;0.8140;
827.7000;0.3321;0.8397;
828.0000;0.3337;0.8444;
828.3000;0.3329;0.8467;
828.6000;0.3321;0.8397;
828.9000;0.3321;0.8397;
829.2000;0.3346;0.8490;
829.5000;0.3297;0.8327;
829.8000;0.3321;0.8327;
830.1000;0.3321;0.8187;
830.4000;0.3313;0.8164;
830.7000;0.3313;0.8164;
831.0000;0.3313;0.8140;
831.3000;0.3337;0.8234;
831.6000;0.3362;0.8234;
831.9000;0.3305;0.8117;
832.2000;0.3305;0.8210;
832.5000;0.3378;0.8444;
832.8000;0.3329;0.8350;
833.1000;0.3313;0.8327;
833.4000;0.3329;0.8350;
833.7000;0.3329;0.8350;
834.0000;0.3313;0.8280;
834.3000;0.3256;0.8094;
834.6000;0.3321;0.8374;
834.9000;0.3289;0.8350;
835.2000;0.3297;0.8467;
835.5000;0.3305;0.8490;
835.8000;0.3313;0.8420;
836.1000;0.3305;0.8397;
836.4000;0.3321;0.8420;
836.7000;0.3313;0.8327;
837.0000;0.3346;0.8374;
837.3000;0.3289;0.8187;
837.6000;0.3313;0.8327;
837.9000;0.3337;0.8397;
838.2000;0.3329;0.8327;
838.5000;0.3305;0.8164;
838.8000;0.3305;0.8164;
839.1000;0.3403;0.8420;
839.4000;0.3354;0.8280;
839.7000;0.3289;0.8164;
840.0000;0.3354;0.8210;
840.3000;0.3305;0.8070;
840.6000;0.3305;0.8024;
840.9000;0.3313;0.8024;
841.2000;0.3313;0.8047;
841.5000;0.3297;0.8024;
841.8000;0.3370;0.8234;
842.1000;0.3337;0.8187;
842.4000;0.3297;0.8187;
842.7000;0.3305;0.8187;
843.0000;0.3313;0.8304;
843.3000;0.3280;0.8257;
843.6000;0.3289;0.8280;
843.9000;0.3337;0.8444;
844.2000;0.3305;0.8467;
844.5000;0.3313;0.8467;
844.8000;0.3313;0.8490;
845.1000;0.3305;0.8514;
845.4000;0.3280;0.8467;
845.7000;0.3305;0.8490;
846.0000;0.3305;0.8420;
846.3000;0.3297;0.8490;
846.6000;0.3321;0.8584;
846.9000;0.3321;0.8467;
847.2000;0.3297;0.8420;
847.5000;0.3305;0.8397;
847.8000;0.3313;0.8327;
848.1000;0.3305;0.8350;
848.4000;0.3305;0.8280;
848.7000;0.3289;0.8210;
849.0000;0.3313;0.8234;
849.3000;0.3329;0.8327;
849.6000;0.3297;0.8374;
849.9000;0.3305;0.8234;
850.2000;0.3305;0.8187;
850.5000;0.3305;0.8187;
850.8000;0.3305;0.8210;
851.1000;0.3280;0.8210;
851.4000;0.3215;0.8047;
851.7000;0.3297;0.8280;
852.0000;0.3313;0.8327;
852.3000;0.3264;0.8304;
852.6000;0.3289;0.8304;
852.9000;0.3313;0.8374;
853.2000;0.3321;0.8350;
853.5000;0.3297;0.8374;
853.8000;0.3313;0.8350;
854.1000;0.3297;0.8327;
854.4000;0.3264;0.8280;
854.7000;0.3305;0.8374;
855.0000;0.3321;0.8397;
855.3000;0.3289;0.8304;
855.6000;0.3280;0.8257;
855.9000;0.3297;0.8210;
856.2000;0.3289;0.8187;
856.5000;0.3297;0.8187;
856.8000;0.3280;0.8140;
857.1000;0.3313;0.8187;
857.4000;0.3305;0.8164;
857.7000;0.3280;0.8164;
858.0000;0.3313;0.8280;
858.3000;0.3313;0.8210;
858.6000;0.3313;0.8257;
858.9000;0.3297;0.8257;
859.2000;0.3313;0.8234;
859.5000;0.3305;0.8210;
859.8000;0.3305;0.8280;
860.1000;0.3289;0.8280;
860.4000;0.3305;0.8304;
860.7000;0.3313;0.8210;
861.0000;0.3329;0.8257;
861.3000;0.3305;0.8234;
861.6000;0.3280;0.8327;
861.9000;0.3264;0.8374;
862.2000;0.3305;0.8467;
862.5000;0.3305;0.8350;
862.8000;0.3289;0.8327;
863.1000;0.3248;0.8280;
863.4000;0.3321;0.8420;
863.7000;0.3321;0.8327;
864.0000;0.3297;0.8280;
864.3000;0.3289;0.8257;
864.6000;0.3305;0.8304;
864.9000;0.3289;0.8234;
865.2000;0.3313;0.8350;
865.5000;0.3305;0.8304;
865.8000;0.3280;0.8304;
866.1000;0.3346;0.8467;
866.4000;0.3313;0.8350;
866.7000;0.3329;0.8304;
867.0000;0.3305;0.8350;
867.3000;0.3305;0.8327;
867.6000;0.3297;0.8187;
867.9000;0.3305;0.8280;
868.2000;0.3305;0.8210;
868.5000;0.3289;0.8117;
868.8000;0.3305;0.8164;
869.1000;0.3329;0.8280;
869.4000;0.3329;0.8304;
869.7000;0.3305;0.8257;
870.0000;0.3297;0.8304;
870.3000;0.3280;0.8327;
870.6000;0.3280;0.8327;
870.9000;0.3305;0.8327;
871.2000;0.3297;0.8210;
871.5000;0.3297;0.8164;
871.8000;0.3289;0.8117;
872.1000;0.3305;0.8187;
872.4000;0.3297;0.8187;
872.7000;0.3297;0.8164;
873.0000;0.3280;0.8140;
873.3000;0.3305;0.8210;
873.6000;0.3297;0.8257;
873.9000;0.3305;0.8327;
874.2000;0.3305;0.8327;
874.5000;0.3289;0.8304;
874.8000;0.3297;0.8397;
875.1000;0.3280;0.8304;
875.4000;0.3280;0.8304;
875.7000;0.3289;0.8327;
876.0000;0.3289;0.8420;
876.3000;0.3280;0.8280;
876.6000;0.3289;0.8304;
876.9000;0.3297;0.8304;
877.2000;0.3305;0.8327;
877.5000;0.3280;0.8257;
877.8000;0.3280;0.8234;
878.1000;0.3289;0.8257;
878.4000;0.3280;0.8327;
878.7000;0.3297;0.8374;
879.0000;0.3305;0.8444;
879.3000;0.3240;0.8350;
879.6000;0.3297;0.8420;
879.9000;0.3313;0.8467;
880.2000;0.3264;0.8327;
880.5000;0.3297;0.8350;
880.8000;0.3289;0.8350;
881.1000;0.3272;0.8397;
881.4000;0.3297;0.8467;
881.7000;0.3289;0.8467;
882.0000;0.3289;0.8397;
882.3000;0.3264;0.8420;
882.6000;0.3280;0.8467;
882.9000;0.3305;0.8514;
883.2000;0.3280;0.8490;
883.5000;0.3289;0.8467;
883.8000;0.3305;0.8444;
884.1000;0.3289;0.8350;
884.4000;0.3264;0.8304;
884.7000;0.3264;0.8280;
885.0000;0.3297;0.8420;
885.3000;0.3297;0.8374;
885.6000;0.3280;0.8350;
885.9000;0.3394;0.8630;
886.2000;0.3297;0.8397;
886.5000;0.3256;0.8280;
886.8000;0.3289;0.8280;
887.1000;0.3280;0.8304;
887.4000;0.3280;0.8280;
887.7000;0.3280;0.8350;
888.0000;0.3305;0.8374;
888.3000;0.3248;0.8234;
888.6000;0.3289;0.8327;
888.9000;0.3297;0.8350;
889.2000;0.3272;0.8327;
889.5000;0.3297;0.8350;
889.8000;0.3289;0.8210;
890.1000;0.3280;0.8164;
890.4000;0.3297;0.8187;
890.7000;0.3321;0.8234;
891.0000;0.3321;0.8257;
891.3000;0.3305;0.8350;
891.6000;0.3223;0.8117;
891.9000;0.3289;0.8257;
892.2000;0.3272;0.8257;
892.5000;0.3272;0.8234;
892.8000;0.3321;0.8304;
893.1000;0.3272;0.8164;
893.4000;0.3289;0.8280;
893.7000;0.3280;0.8187;
894.0000;0.3305;0.8280;
894.3000;0.3305;0.8257;
894.6000;0.3321;0.8327;
894.9000;0.3272;0.8187;
895.2000;0.3297;0.8304;
895.5000;0.3362;0.8467;
895.8000;0.3305;0.8280;
896.1000;0.3272;0.8187;
896.4000;0.3305;0.8304;
896.7000;0.3256;0.8117;
897.0000;0.3297;0.8234;
897.3000;0.3289;0.8164;
897.6000;0.3264;0.7977;
897.9000;0.3264;0.8070;
898.2000;0.3158;0.7790;
898.5000;0.3240;0.8047;
898.8000;0.3264;0.8070;
899.1000;0.3272;0.8047;
899.4000;0.3289;0.8047;
899.7000;0.3280;0.8094;
900.0000;0.3297;0.8117;
900.3000;0.3289;0.8164;
900.6000;0.3289;0.8164;
900.9000;0.3289;0.8164;
901.2000;0.3280;0.8047;
901.5000;0.3297;0.8024;
901.8000;0.3264;0.7954;
902.1000;0.3289;0.8117;
902.4000;0.3280;0.8094;
902.7000;0.3272;0.8140;
903.0000;0.3264;0.8047;
903.3000;0.3280;0.8047;
903.6000;0.3272;0.8024;
903.9000;0.3313;0.8164;
904.2000;0.3264;0.8164;
904.5000;0.3272;0.8257;
904.8000;0.3346;0.8350;
905.1000;0.3264;0.8117;
905.4000;0.3272;0.8140;
905.7000;0.3272;0.8094;
906.0000;0.3272;0.8094;
906.3000;0.3289;0.8140;
906.6000;0.3346;0.8234;
906.9000;0.3272;0.8024;
907.2000;0.3264;0.7977;
907.5000;0.3297;0.8117;
907.8000;0.3264;0.8117;
908.1000;0.3240;0.8140;
908.4000;0.3272;0.8164;
908.7000;0.3289;0.8140;
909.0000;0.3289;0.8187;
909.3000;0.3272;0.8164;
909.6000;0.3280;0.8047;
909.9000;0.3264;0.7954;
910.2000;0.3256;0.7930;
910.5000;0.3280;0.8047;
910.8000;0.3272;0.8070;
911.1000;0.3289;0.8094;
911.4000;0.3280;0.8094;
911.7000;0.3264;0.8094;
912.0000;0.3183;0.7954;
912.3000;0.3272;0.8117;
912.6000;0.3289;0.8117;
912.9000;0.3256;0.8024;
913.2000;0.3264;0.7977;
913.5000;0.3272;0.8000;
913.8000;0.3289;0.8164;
914.1000;0.3280;0.8187;
914.4000;0.3280;0.8210;
914.7000;0.3272;0.8164;
915.0000;0.3280;0.8117;
915.3000;0.3280;0.8070;
915.6000;0.3289;0.8094;
915.9000;0.3289;0.8094;
916.2000;0.3272;0.8140;
916.5000;0.3289;0.8140;
916.8000;0.3256;0.8094;
917.1000;0.3305;0.8234;
917.4000;0.3264;0.8187;
917.7000;0.3313;0.8280;
918.0000;0.3264;0.8140;
918.3000;0.3337;0.8280;
918.6000;0.3207;0.8070;
918.9000;0.3272;0.8280;
919.2000;0.3240;0.8327;
919.5000;0.3272;0.8350;
919.8000;0.3297;0.8327;
920.1000;0.3248;0.8374;
920.4000;0.3313;0.8560;
920.7000;0.3272;0.8537;
921.0000;0.3280;0.8630;
921.3000;0.3256;0.8584;
921.6000;0.3256;0.8514;
921.9000;0.3272;0.8514;
922.2000;0.3256;0.8514;
922.5000;0.3215;0.8374;
922.8000;0.3264;0.8490;
923.1000;0.3256;0.8490;
923.4000;0.3313;0.8537;
923.7000;0.3272;0.8397;
924.0000;0.3272;0.8490;
924.3000;0.3329;0.8467;
924.6000;0.3289;0.8350;
924.9000;0.3272;0.8234;
925.2000;0.3272;0.8234;
925.5000;0.3289;0.8257;
925.8000;0.3297;0.8257;
926.1000;0.3305;0.8397;
926.4000;0.3313;0.8420;
926.7000;0.3264;0.8304;
927.0000;0.3280;0.8304;
927.3000;0.3297;0.8350;
927.6000;0.3289;0.8420;
927.9000;0.3280;0.8467;
928.2000;0.3256;0.8350;
928.5000;0.3256;0.8374;
928.8000;0.3305;0.8490;
929.1000;0.3264;0.8327;
929.4000;0.3272;0.8327;
929.7000;0.3280;0.8327;
930.0000;0.3297;0.8280;
930.3000;0.3289;0.8257;
930.6000;0.3272;0.8304;
930.9000;0.3289;0.8327;
931.2000;0.3264;0.8304;
931.5000;0.3280;0.8397;
931.8000;0.3297;0.8397;
932.1000;0.3264;0.8280;
932.4000;0.3264;0.8210;
932.7000;0.3289;0.8210;
933.0000;0.3321;0.8257;
933.3000;0.3313;0.8210;
933.6000;0.3297;0.8117;
933.9000;0.3289;0.8117;
934.2000;0.3215;0.7977;
934.5000;0.3297;0.8234;
934.8000;0.3272;0.8187;
935.1000;0.3297;0.8374;
935.4000;0.3272;0.8304;
935.7000;0.3362;0.8467;
936.0000;0.3289;0.8257;
936.3000;0.3264;0.8257;
936.6000;0.3297;0.8327;
936.9000;0.3256;0.8280;
937.2000;0.3256;0.8304;
937.5000;0.3264;0.8327;
937.8000;0.3272;0.8257;
938.1000;0.3191;0.8000;
938.4000;0.3248;0.8094;
938.7000;0.3280;0.8234;
939.0000;0.3272;0.8257;
939.3000;0.3207;0.8070;
939.6000;0.3256;0.8234;
939.9000;0.3264;0.8234;
940.2000;0.3313;0.8257;
940.5000;0.3313;0.8280;
940.8000;0.3272;0.8187;
941.1000;0.3280;0.8350;
941.4000;0.3272;0.8327;
941.7000;0.3264;0.8280;
942.0000;0.3264;0.8187;
942.3000;0.3248;0.8187;
942.6000;0.3248;0.8210;
942.9000;0.3264;0.8327;
943.2000;0.3272;0.8304;
943.5000;0.3232;0.8234;
943.8000;0.3248;0.8280;
944.1000;0.3272;0.8304;
944.4000;0.3215;0.8187;
944.7000;0.3280;0.8374;
945.0000;0.3256;0.8350;
945.3000;0.3272;0.8444;
945.6000;0.3264;0.8374;
945.9000;0.3280;0.8374;
946.2000;0.3264;0.8374;
946.5000;0.3313;0.8514;
946.8000;0.3272;0.8514;
947.1000;0.3240;0.8490;
947.4000;0.3248;0.8490;
947.7000;0.3256;0.8467;
948.0000;0.3248;0.8467;
948.3000;0.3264;0.8514;
948.6000;0.3199;0.8397;
948.9000;0.3256;0.8514;
949.2000;0.3264;0.8490;
949.5000;0.3272;0.8444;
949.8000;0.3256;0.8444;
950.1000;0.3297;0.8537;
950.4000;0.3256;0.8420;
950.7000;0.3256;0.8420;
951.0000;0.3297;0.8514;
951.3000;0.3280;0.8444;
951.6000;0.3264;0.8374;
951.9000;0.3272;0.8350;
952.2000;0.3223;0.8234;
952.5000;0.3289;0.8444;
952.8000;0.3264;0.8397;
953.1000;0.3264;0.8374;
953.4000;0.3272;0.8420;
953.7000;0.3248;0.8397;
954.0000;0.3248;0.8420;
954.3000;0.3280;0.8444;
954.6000;0.3199;0.8257;
954.9000;0.3232;0.8374;
955.2000;0.3248;0.8327;
955.5000;0.3313;0.8397;
955.8000;0.3256;0.8210;
956.1000;0.3272;0.8187;
956.4000;0.3240;0.8164;
956.7000;0.3256;0.8140;
957.0000;0.3215;0.8070;
957.3000;0.3264;0.8257;
957.6000;0.3215;0.8210;
957.9000;0.3272;0.8350;
958.2000;0.3256;0.8420;
958.5000;0.3248;0.8280;
958.8000;0.3264;0.8327;
959.1000;0.3329;0.8444;
959.4000;0.3272;0.8304;
959.7000;0.3264;0.8304;
960.0000;0.3280;0.8374;
960.3000;0.3272;0.8257;
960.6000;0.3321;0.8420;
960.9000;0.3264;0.8350;
961.2000;0.3264;0.8280;
961.5000;0.3256;0.8304;
961.8000;0.3272;0.8257;
962.1000;0.3272;0.8234;
962.4000;0.3248;0.8234;
962.7000;0.3272;0.8304;
963.0000;0.3264;0.8257;
963.3000;0.3272;0.8350;
963.6000;0.3272;0.8420;
963.9000;0.3248;0.8350;
964.2000;0.3248;0.8304;
964.5000;0.3280;0.8350;
964.8000;0.3240;0.8327;
965.1000;0.3240;0.8374;
965.4000;0.3272;0.8444;
965.7000;0.3289;0.8490;
966.0000;0.3297;0.8560;
966.3000;0.3289;0.8467;
966.6000;0.3305;0.8514;
966.9000;0.3280;0.8584;
967.2000;0.3264;0.8514;
967.5000;0.3240;0.8444;
967.8000;0.3248;0.8374;
968.1000;0.3256;0.8420;
968.4000;0.3272;0.8444;
968.7000;0.3248;0.8350;
969.0000;0.3248;0.8304;
969.3000;0.3232;0.8257;
969.6000;0.3280;0.8234;
969.9000;0.3256;0.8280;
970.2000;0.3248;0.8327;
970.5000;0.3264;0.8420;
970.8000;0.3248;0.8444;
971.1000;0.3264;0.8444;
971.4000;0.3240;0.8397;
971.7000;0.3256;0.8397;
972.0000;0.3256;0.8350;
972.3000;0.3264;0.8257;
972.6000;0.3272;0.8304;
972.9000;0.3256;0.8187;
973.2000;0.3272;0.8187;
973.5000;0.3240;0.8210;
973.8000;0.3264;0.8350;
974.1000;0.3248;0.8234;
974.4000;0.3207;0.8140;
974.7000;0.3280;0.8327;
975.0000;0.3248;0.8280;
975.3000;0.3264;0.8350;
975.6000;0.3280;0.8467;
975.9000;0.3256;0.8490;
976.2000;0.3264;0.8467;
976.5000;0.3256;0.8467;
976.8000;0.3240;0.8420;
977.1000;0.3264;0.8374;
977.4000;0.3256;0.8397;
977.7000;0.3264;0.8304;
978.0000;0.3256;0.8350;
978.3000;0.3264;0.8420;
978.6000;0.3272;0.8490;
978.9000;0.3313;0.8677;
979.2000;0.3256;0.8490;
979.5000;0.3272;0.8374;
979.8000;0.3280;0.8374;
980.1000;0.3256;0.8350;
980.4000;0.3240;0.8280;
980.7000;0.3264;0.8257;
981.0000;0.3264;0.8210;
981.3000;0.3264;0.8164;
981.6000;0.3256;0.8070;
981.9000;0.3280;0.8117;
982.2000;0.3346;0.8257;
982.5000;0.3280;0.8094;
982.8000;0.3337;0.8210;
983.1000;0.3232;0.7954;
983.4000;0.3256;0.8024;
983.7000;0.3248;0.8047;
984.0000;0.3248;0.8000;
984.3000;0.3256;0.8047;
984.6000;0.3256;0.8000;
984.9000;0.3256;0.8094;
985.2000;0.3256;0.8117;
985.5000;0.3240;0.8164;
985.8000;0.3321;0.8467;
986.1000;0.3256;0.8210;
986.4000;0.3280;0.8234;
986.7000;0.3256;0.8187;
987.0000;0.3272;0.8257;
987.3000;0.3297;0.8397;
987.6000;0.3280;0.8397;
987.9000;0.3256;0.8374;
988.2000;0.3248;0.8257;
988.5000;0.3256;0.8257;
988.8000;0.3264;0.8304;
989.1000;0.3248;0.8374;
989.4000;0.3240;0.8374;
989.7000;0.3280;0.8560;
990.0000;0.3264;0.8467;
990.3000;0.3240;0.8374;
990.6000;0.3256;0.8444;
990.9000;0.3248;0.8350;
991.2000;0.3256;0.8304;
991.5000;0.3240;0.8210;
991.8000;0.3223;0.8187;
992.1000;0.3256;0.8280;
992.4000;0.3240;0.8280;
992.7000;0.3264;0.8280;
993.0000;0.3280;0.8280;
993.3000;0.3272;0.8327;
993.6000;0.3313;0.8444;
993.9000;0.3256;0.8444;
994.2000;0.3248;0.8514;
994.5000;0.3240;0.8420;
994.8000;0.3256;0.8514;
995.1000;0.3256;0.8537;
995.4000;0.3280;0.8560;
995.7000;0.3240;0.8350;
996.0000;0.3240;0.8374;
996.3000;0.3215;0.8350;
996.6000;0.3256;0.8350;
996.9000;0.3272;0.8374;
997.2000;0.3256;0.8327;
997.5000;0.3280;0.8490;
997.8000;0.3207;0.8374;
998.1000;0.3272;0.8444;
998.4000;0.3264;0.8304;
998.7000;0.3272;0.8304;
999.0000;0.3248;0.8234;
999.3000;0.3248;0.8210;
999.6000;0.3248;0.8164;
999.9000;0.3232;0.8047;
1000.2000;0.3264;0.8117;
1000.5000;0.3256;0.8094;
1000.8000;0.3256;0.8000;
1001.1000;0.3264;0.8070;
1001.4000;0.3256;0.8047;
1001.7000;0.3280;0.8164;
1002.0000;0.3256;0.8187;
1002.3000;0.3264;0.8257;
1002.6000;0.3272;0.8304;
1002.9000;0.3280;0.8327;
1003.2000;0.3248;0.8374;
1003.5000;0.3248;0.8350;
1003.8000;0.3248;0.8280;
1004.1000;0.3256;0.8280;
1004.4000;0.3240;0.8164;
1004.7000;0.3248;0.8210;
1005.0000;0.3240;0.8327;
1005.3000;0.3321;0.8467;
1005.6000;0.3248;0.8350;
1005.9000;0.3280;0.8420;
1006.2000;0.3297;0.8397;
1006.5000;0.3264;0.8280;
1006.8000;0.3289;0.8280;
1007.1000;0.3256;0.8187;
1007.4000;0.3289;0.8257;
1007.7000;0.3272;0.8164;
1008.0000;0.3232;0.8070;
1008.3000;0.3272;0.8164;
1008.6000;0.3248;0.8070;
1008.9000;0.3248;0.8140;
1009.2000;0.3264;0.8140;
1009.5000;0.3248;0.8140;
1009.8000;0.3232;0.8140;
1010.1000;0.3256;0.8210;
1010.4000;0.3280;0.8327;
1010.7000;0.3215;0.8140;
1011.0000;0.3256;0.8210;
1011.3000;0.3289;0.8304;
1011.6000;0.3248;0.8164;
1011.9000;0.3240;0.8117;
1012.2000;0.3264;0.8140;
1012.5000;0.3256;0.8140;
1012.8000;0.3264;0.8210;
1013.1000;0.3264;0.8327;
1013.4000;0.3232;0.8257;
1013.7000;0.3248;0.8210;
1014.0000;0.3272;0.8210;
1014.3000;0.3248;0.8210;
1014.6000;0.3280;0.8327;
1014.9000;0.3280;0.8397;
1015.2000;0.3232;0.8187;
1015.5000;0.3337;0.8397;
1015.8000;0.3248;0.8304;
1016.1000;0.3321;0.8584;
1016.4000;0.3191;0.8210;
1016.7000;0.3240;0.8234;
1017.0000;0.3256;0.8280;
1017.3000;0.3256;0.8280;
1017.6000;0.3248;0.8304;
1017.9000;0.3232;0.8327;
1018.2000;0.3248;0.8304;
1018.5000;0.3240;0.8257;
1018.8000;0.3256;0.8187;
1019.1000;0.3272;0.8234;
1019.4000;0.3232;0.8234;
1019.7000;0.3256;0.8187;
1020.0000;0.3223;0.8047;
1020.3000;0.3240;0.8024;
1020.6000;0.3272;0.8210;
1020.9000;0.3280;0.8187;
1021.2000;0.3232;0.8070;
1021.5000;0.3248;0.8164;
1021.8000;0.3240;0.8140;
1022.1000;0.3183;0.8024;
1022.4000;0.3240;0.8164;
1022.7000;0.3248;0.8304;
1023.0000;0.3264;0.8234;
1023.3000;0.3240;0.8210;
1023.6000;0.3248;0.8140;
1023.9000;0.3297;0.8094;
1024.2000;0.3272;0.8094;
1024.5000;0.3256;0.8210;
1024.8000;0.3256;0.8164;
1025.1000;0.3272;0.8234;
1025.4000;0.3240;0.8164;
1025.7000;0.3240;0.8117;
1026.0000;0.3240;0.8164;
1026.3000;0.3240;0.8187;
1026.6000;0.3256;0.8304;
1026.9000;0.3248;0.8304;
1027.2000;0.3207;0.8280;
1027.5000;0.3215;0.8444;
1027.8000;0.3240;0.8420;
1028.1000;0.3232;0.8350;
1028.4000;0.3280;0.8444;
1028.7000;0.3248;0.8374;
1029.0000;0.3256;0.8350;
1029.3000;0.3248;0.8257;
1029.6000;0.3256;0.8280;
1029.9000;0.3248;0.8304;
1030.2000;0.3256;0.8374;
1030.5000;0.3240;0.8304;
1030.8000;0.3207;0.8234;
1031.1000;0.3240;0.8280;
1031.4000;0.3240;0.8280;
1031.7000;0.3264;0.8374;
1032.0000;0.3256;0.8444;
1032.3000;0.3256;0.8444;
1032.6000;0.3240;0.8467;
1032.9000;0.3378;0.8747;
1033.2000;0.3264;0.8490;
1033.5000;0.3256;0.8374;
1033.8000;0.3256;0.8374;
1034.1000;0.3256;0.8350;
1034.4000;0.3272;0.8350;
1034.7000;0.3264;0.8280;
1035.0000;0.3240;0.8280;
1035.3000;0.3240;0.8257;
1035.6000;0.3199;0.8234;
1035.9000;0.3248;0.8304;
1036.2000;0.3223;0.8257;
1036.5000;0.3264;0.8304;
1036.8000;0.3256;0.8374;
1037.1000;0.3272;0.8374;
1037.4000;0.3256;0.8234;
1037.7000;0.3199;0.8024;
1038.0000;0.3207;0.7954;
1038.3000;0.3248;0.8094;
1038.6000;0.3223;0.8070;
1038.9000;0.3248;0.8257;
1039.2000;0.3256;0.8327;
1039.5000;0.3240;0.8280;
1039.8000;0.3240;0.8327;
1040.1000;0.3321;0.8560;
1040.4000;0.3248;0.8280;
1040.7000;0.3191;0.8164;
1041.0000;0.3272;0.8327;
1041.3000;0.3305;0.8420;
1041.6000;0.3240;0.8280;
1041.9000;0.3191;0.8070;
1042.2000;0.3240;0.8140;
1042.5000;0.3264;0.8187;
1042.8000;0.3264;0.8304;
1043.1000;0.3272;0.8374;
1043.4000;0.3248;0.8374;
1043.7000;0.3272;0.8444;
1044.0000;0.3223;0.8397;
1044.3000;0.3240;0.8490;
1044.6000;0.3264;0.8560;
1044.9000;0.3207;0.8350;
1045.2000;0.3240;0.8537;
1045.5000;0.3240;0.8514;
1045.8000;0.3321;0.8677;
1046.1000;0.3256;0.8584;
1046.4000;0.3232;0.8514;
1046.7000;0.3232;0.8444;
1047.0000;0.3264;0.8490;
1047.3000;0.3248;0.8467;
1047.6000;0.3272;0.8467;
1047.9000;0.3248;0.8467;
1048.2000;0.3232;0.8350;
1048.5000;0.3248;0.8467;
1048.8000;0.3223;0.8420;
1049.1000;0.3329;0.8677;
1049.4000;0.3175;0.8397;
1049.7000;0.3272;0.8514;
1050.0000;0.3232;0.8420;
1050.3000;0.3256;0.8420;
1050.6000;0.3248;0.8304;
1050.9000;0.3232;0.8304;
1051.2000;0.3256;0.8350;
1051.5000;0.3248;0.8327;
1051.8000;0.3240;0.8374;
1052.1000;0.3215;0.8327;
1052.4000;0.3240;0.8420;
1052.7000;0.3248;0.8420;
1053.0000;0.3256;0.8444;
1053.3000;0.3256;0.8444;
1053.6000;0.3264;0.8490;
1053.9000;0.3248;0.8467;
1054.2000;0.3232;0.8420;
1054.5000;0.3272;0.8514;
1054.8000;0.3264;0.8374;
1055.1000;0.3272;0.8350;
1055.4000;0.3240;0.8350;
1055.7000;0.3232;0.8210;
1056.0000;0.3240;0.8257;
1056.3000;0.3256;0.8327;
1056.6000;0.3256;0.8280;
1056.9000;0.3240;0.8257;
1057.2000;0.3248;0.8210;
1057.5000;0.3256;0.8210;
1057.8000;0.3248;0.8094;
1058.1000;0.3272;0.8070;
1058.4000;0.3248;0.7977;
1058.7000;0.3256;0.8000;
1059.0000;0.3256;0.7954;
1059.3000;0.3240;0.8024;
1059.6000;0.3297;0.8164;
1059.9000;0.3232;0.8070;
1060.2000;0.3256;0.8187;
1060.5000;0.3256;0.8304;
1060.8000;0.3248;0.8374;
1061.1000;0.3264;0.8397;
1061.4000;0.3232;0.8304;
1061.7000;0.3240;0.8257;
1062.0000;0.3223;0.8187;
1062.3000;0.3248;0.8257;
1062.6000;0.3240;0.8257;
1062.9000;0.3256;0.8210;
1063.2000;0.3248;0.8280;
1063.5000;0.3248;0.8117;
1063.8000;0.3223;0.8094;
1064.1000;0.3248;0.8257;
1064.4000;0.3289;0.8350;
1064.7000;0.3248;0.8327;
1065.0000;0.3337;0.8560;
1065.3000;0.3280;0.8467;
1065.6000;0.3248;0.8374;
1065.9000;0.3232;0.8374;
1066.2000;0.3264;0.8467;
1066.5000;0.3256;0.8467;
1066.8000;0.3215;0.8420;
1067.1000;0.3240;0.8420;
1067.4000;0.3248;0.8467;
1067.7000;0.3305;0.8560;
1068.0000;0.3264;0.8420;
1068.3000;0.3240;0.8350;
1068.6000;0.3264;0.8490;
1068.9000;0.3207;0.8420;
1069.2000;0.3280;0.8467;
1069.5000;0.3264;0.8420;
1069.8000;0.3232;0.8304;
1070.1000;0.3264;0.8397;
1070.4000;0.3264;0.8514;
1070.7000;0.3223;0.8490;
1071.0000;0.3264;0.8444;
1071.3000;0.3215;0.8327;
1071.6000;0.3256;0.8350;
1071.9000;0.3232;0.8210;
1072.2000;0.3240;0.8234;
1072.5000;0.3240;0.8234;
1072.8000;0.3240;0.8304;
1073.1000;0.3215;0.8304;
1073.4000;0.3232;0.8327;
1073.7000;0.3240;0.8397;
1074.0000;0.3248;0.8374;
1074.3000;0.3256;0.8350;
1074.6000;0.3240;0.8350;
1074.9000;0.3264;0.8420;
1075.2000;0.3223;0.8304;
1075.5000;0.3264;0.8420;
1075.8000;0.3248;0.8210;
1076.1000;0.3264;0.8187;
1076.4000;0.3232;0.8257;
1076.7000;0.3248;0.8350;
1077.0000;0.3240;0.8350;
1077.3000;0.3264;0.8420;
1077.6000;0.3240;0.8374;
1077.9000;0.3240;0.8350;
1078.2000;0.3256;0.8374;
1078.5000;0.3248;0.8467;
1078.8000;0.3240;0.8560;
1079.1000;0.3248;0.8630;
1079.4000;0.3240;0.8584;
1079.7000;0.3264;0.8607;
1080.0000;0.3248;0.8514;
1080.3000;0.3248;0.8444;
1080.6000;0.3264;0.8560;
1080.9000;0.3256;0.8514;
1081.2000;0.3256;0.8584;
1081.5000;0.3223;0.8490;
1081.8000;0.3272;0.8607;
1082.1000;0.3248;0.8467;
1082.4000;0.3232;0.8397;
1082.7000;0.3264;0.8467;
1083.0000;0.3240;0.8490;
1083.3000;0.3232;0.8514;
1083.6000;0.3240;0.8514;
1083.9000;0.3256;0.8537;
1084.2000;0.3256;0.8537;
1084.5000;0.3272;0.8607;
1084.8000;0.3264;0.8584;
1085.1000;0.3256;0.8537;
1085.4000;0.3232;0.8514;
1085.7000;0.3362;0.8723;
1086.0000;0.3264;0.8444;
1086.3000;0.3150;0.8210;
1086.6000;0.3215;0.8397;
1086.9000;0.3191;0.8374;
1087.2000;0.3248;0.8467;
1087.5000;0.3232;0.8397;
1087.8000;0.3240;0.8490;
1088.1000;0.3256;0.8630;
1088.4000;0.3305;0.8770;
1088.7000;0.3150;0.8467;
1089.0000;0.3264;0.8677;
1089.3000;0.3289;0.8770;
1089.6000;0.3256;0.8747;
1089.9000;0.3248;0.8677;
1090.2000;0.3223;0.8584;
1090.5000;0.3256;0.8630;
1090.8000;0.3264;0.8630;
1091.1000;0.3232;0.8560;
1091.4000;0.3280;0.8653;
1091.7000;0.3256;0.8537;
1092.0000;0.3248;0.8514;
1092.3000;0.3223;0.8467;
1092.6000;0.3248;0.8444;
1092.9000;0.3248;0.8420;
1093.2000;0.3256;0.8420;
1093.5000;0.3248;0.8397;
1093.8000;0.3240;0.8350;
1094.1000;0.3346;0.8677;
1094.4000;0.3248;0.8397;
1094.7000;0.3240;0.8420;
1095.0000;0.3248;0.8350;
1095.3000;0.3248;0.8374;
1095.6000;0.3248;0.8327;
1095.9000;0.3240;0.8327;
1096.2000;0.3240;0.8327;
1096.5000;0.3232;0.8374;
1096.8000;0.3232;0.8420;
1097.1000;0.3232;0.8350;
1097.4000;0.3223;0.8257;
1097.7000;0.3223;0.8234;
1098.0000;0.3232;0.8234;
1098.3000;0.3248;0.8257;
1098.6000;0.3248;0.8327;
1098.9000;0.3240;0.8280;
1099.2000;0.3191;0.8117;
1099.5000;0.3248;0.8304;
1099.8000;0.3264;0.8257;
1100.1000;0.3232;0.8234;
1100.4000;0.3232;0.8257;
1100.7000;0.3248;0.8304;
1101.0000;0.3248;0.8374;
1101.3000;0.3264;0.8467;
1101.6000;0.3223;0.8444;
1101.9000;0.3248;0.8467;
1102.2000;0.3248;0.8397;
1102.5000;0.3232;0.8234;
1102.8000;0.3248;0.8257;
1103.1000;0.3240;0.8350;
1103.4000;0.3256;0.8327;
1103.7000;0.3305;0.8514;
1104.0000;0.3272;0.8374;
1104.3000;0.3240;0.8350;
1104.6000;0.3248;0.8397;
1104.9000;0.3248;0.8374;
1105.2000;0.3240;0.8374;
1105.5000;0.3248;0.8467;
1105.8000;0.3256;0.8444;
1106.1000;0.3248;0.8374;
1106.4000;0.3232;0.8257;
1106.7000;0.3264;0.8327;
1107.0000;0.3215;0.8304;
1107.3000;0.3297;0.8490;
1107.6000;0.3280;0.8444;
1107.9000;0.3240;0.8257;
1108.2000;0.3256;0.8327;
1108.5000;0.3256;0.8397;
1108.8000;0.3199;0.8280;
1109.1000;0.3256;0.8560;
1109.4000;0.3256;0.8677;
1109.7000;0.3223;0.8630;
1110.0000;0.3248;0.8723;
1110.3000;0.3289;0.8677;
1110.6000;0.3256;0.8514;
1110.9000;0.3232;0.8444;
1111.2000;0.3280;0.8467;
1111.5000;0.3248;0.8327;
1111.8000;0.3272;0.8397;
1112.1000;0.3240;0.8374;
1112.4000;0.3240;0.8444;
1112.7000;0.3256;0.8374;
1113.0000;0.3264;0.8350;
1113.3000;0.3232;0.8234;
1113.6000;0.3232;0.8280;
1113.9000;0.3280;0.8280;
1114.2000;0.3256;0.8117;
1114.5000;0.3232;0.8117;
1114.8000;0.3183;0.8047;
1115.1000;0.3280;0.8327;
1115.4000;0.3264;0.8187;
1115.7000;0.3240;0.8117;
1116.0000;0.3256;0.8304;
1116.3000;0.3272;0.8327;
1116.6000;0.3223;0.8094;
1116.9000;0.3223;0.8024;
1117.2000;0.3264;0.8164;
1117.5000;0.3240;0.8117;
1117.8000;0.3240;0.8164;
1118.1000;0.3207;0.8210;
1118.4000;0.3223;0.8374;
1118.7000;0.3280;0.8490;
1119.0000;0.3232;0.8444;
1119.3000;0.3240;0.8374;
1119.6000;0.3272;0.8397;
1119.9000;0.3248;0.8420;
1120.2000;0.3223;0.8327;
1120.5000;0.3272;0.8304;
1120.8000;0.3240;0.8187;
1121.1000;0.3223;0.8187;
1121.4000;0.3240;0.8210;
1121.7000;0.3232;0.8187;
1122.0000;0.3223;0.8304;
1122.3000;0.3166;0.8140;
1122.6000;0.3272;0.8467;
1122.9000;0.3321;0.8560;
1123.2000;0.3223;0.8234;
1123.5000;0.3232;0.8327;
1123.8000;0.3223;0.8304;
1124.1000;0.3223;0.8234;
1124.4000;0.3256;0.8397;
1124.7000;0.3183;0.8257;
1125.0000;0.3223;0.8350;
1125.3000;0.3240;0.8350;
1125.6000;0.3223;0.8304;
1125.9000;0.3370;0.8747;
1126.2000;0.3223;0.8444;
1126.5000;0.3264;0.8560;
1126.8000;0.3248;0.8560;
1127.1000;0.3256;0.8537;
1127.4000;0.3297;0.8584;
1127.7000;0.3134;0.8164;
1128.0000;0.3240;0.8374;
1128.3000;0.3248;0.8350;
1128.6000;0.3158;0.8210;
1128.9000;0.3223;0.8397;
1129.2000;0.3256;0.8467;
1129.5000;0.3232;0.8467;
1129.8000;0.3232;0.8374;
1130.1000;0.3240;0.8374;
1130.4000;0.3313;0.8537;
1130.7000;0.3256;0.8327;
1131.0000;0.3232;0.8187;
1131.3000;0.3248;0.8164;
1131.6000;0.3158;0.8000;
1131.9000;0.3240;0.8327;
1132.2000;0.3272;0.8420;
1132.5000;0.3207;0.8374;
1132.8000;0.3223;0.8397;
1133.1000;0.3240;0.8514;
1133.4000;0.3280;0.8607;
1133.7000;0.3248;0.8467;
1134.0000;0.3248;0.8444;
1134.3000;0.3166;0.8257;
1134.6000;0.3240;0.8397;
1134.9000;0.3175;0.8117;
1135.2000;0.3240;0.8257;
1135.5000;0.3248;0.8257;
1135.8000;0.3256;0.8327;
1136.1000;0.3232;0.8304;
1136.4000;0.3264;0.8327;
1136.7000;0.3240;0.8304;
1137.0000;0.3248;0.8304;
1137.3000;0.3191;0.8117;
1137.6000;0.3264;0.8234;
1137.9000;0.3207;0.8187;
1138.2000;0.3223;0.8164;
1138.5000;0.3232;0.8234;
1138.8000;0.3240;0.8327;
1139.1000;0.3232;0.8350;
1139.4000;0.3240;0.8397;
1139.7000;0.3256;0.8420;
1140.0000;0.3223;0.8350;
1140.3000;0.3240;0.8397;
1140.6000;0.3240;0.8327;
1140.9000;0.3264;0.8350;
1141.2000;0.3223;0.8234;
1141.5000;0.3248;0.8350;
1141.8000;0.3337;0.8490;
1142.1000;0.3264;0.8374;
1142.4000;0.3256;0.8444;
1142.7000;0.3232;0.8420;
1143.0000;0.3280;0.8560;
1143.3000;0.3240;0.8490;
1143.6000;0.3240;0.8467;
1143.9000;0.3280;0.8630;
1144.2000;0.3232;0.8420;
1144.5000;0.3223;0.8350;
1144.8000;0.3256;0.8327;
1145.1000;0.3207;0.8210;
1145.4000;0.3240;0.8280;
1145.7000;0.3256;0.8257;
1146.0000;0.3240;0.8210;
1146.3000;0.3248;0.8164;
1146.6000;0.3264;0.8257;
1146.9000;0.3232;0.8187;
1147.2000;0.3215;0.8070;
1147.5000;0.3223;0.8070;
1147.8000;0.3191;0.8047;
1148.1000;0.3223;0.8117;
1148.4000;0.3248;0.8140;
1148.7000;0.3215;0.8070;
1149.0000;0.3248;0.8164;
1149.3000;0.3232;0.8164;
1149.6000;0.3248;0.8210;
1149.9000;0.3232;0.8187;
1150.2000;0.3232;0.8140;
1150.5000;0.3264;0.8187;
1150.8000;0.3248;0.8140;
1151.1000;0.3223;0.8047;
1151.4000;0.3297;0.8257;
1151.7000;0.3321;0.8374;
1152.0000;0.3232;0.8210;
1152.3000;0.3240;0.8210;
1152.6000;0.3232;0.8094;
1152.9000;0.3256;0.8094;
1153.2000;0.3232;0.8117;
1153.5000;0.3215;0.8164;
1153.8000;0.3240;0.8210;
1154.1000;0.3232;0.8210;
1154.4000;0.3166;0.8140;
1154.7000;0.3199;0.8234;
1155.0000;0.3199;0.8374;
1155.3000;0.3240;0.8584;
1155.6000;0.3240;0.8677;
1155.9000;0.3232;0.8747;
1156.2000;0.3215;0.8770;
1156.5000;0.3215;0.8817;
1156.8000;0.3264;0.8817;
1157.1000;0.3313;0.8863;
1157.4000;0.3313;0.8817;
1157.7000;0.3223;0.8653;
1158.0000;0.3232;0.8770;
1158.3000;0.3191;0.8630;
1158.6000;0.3215;0.8584;
1158.9000;0.3232;0.8420;
1159.2000;0.3223;0.8350;
1159.5000;0.3232;0.8374;
1159.8000;0.3142;0.8164;
1160.1000;0.3232;0.8374;
1160.4000;0.3223;0.8234;
1160.7000;0.3240;0.8280;
1161.0000;0.3272;0.8397;
1161.3000;0.3232;0.8397;
1161.6000;0.3232;0.8327;
1161.9000;0.3215;0.8304;
1162.2000;0.3215;0.8420;
1162.5000;0.3232;0.8374;
1162.8000;0.3240;0.8350;
1163.1000;0.3199;0.8327;
1163.4000;0.3280;0.8444;
1163.7000;0.3264;0.8444;
1164.0000;0.3223;0.8514;
1164.3000;0.3207;0.8514;
1164.6000;0.3240;0.8607;
1164.9000;0.3240;0.8607;
1165.2000;0.3272;0.8584;
1165.5000;0.3248;0.8444;
1165.8000;0.3240;0.8327;
1166.1000;0.3248;0.8374;
1166.4000;0.3272;0.8397;
1166.7000;0.3256;0.8374;
1167.0000;0.3256;0.8350;
1167.3000;0.3240;0.8327;
1167.6000;0.3223;0.8304;
1167.9000;0.3207;0.8280;
1168.2000;0.3248;0.8327;
1168.5000;0.3232;0.8234;
1168.8000;0.3223;0.8257;
1169.1000;0.3215;0.8257;
1169.4000;0.3248;0.8304;
1169.7000;0.3232;0.8234;
1170.0000;0.3232;0.8210;
1170.3000;0.3223;0.8257;
1170.6000;0.3232;0.8374;
1170.9000;0.3232;0.8397;
1171.2000;0.3256;0.8280;
1171.5000;0.3248;0.8257;
1171.8000;0.3256;0.8327;
1172.1000;0.3223;0.8257;
1172.4000;0.3223;0.8187;
1172.7000;0.3240;0.8164;
1173.0000;0.3248;0.8234;
1173.3000;0.3240;0.8257;
1173.6000;0.3248;0.8257;
1173.9000;0.3240;0.8210;
1174.2000;0.3232;0.8187;
1174.5000;0.3215;0.8187;
1174.8000;0.3248;0.8164;
1175.1000;0.3248;0.8187;
1175.4000;0.3223;0.8164;
1175.7000;0.3232;0.8164;
1176.0000;0.3232;0.8210;
1176.3000;0.3272;0.8327;
1176.6000;0.3240;0.8304;
1176.9000;0.3264;0.8374;
1177.2000;0.3240;0.8397;
1177.5000;0.3248;0.8397;
1177.8000;0.3223;0.8350;
1178.1000;0.3248;0.8350;
1178.4000;0.3175;0.8117;
1178.7000;0.3223;0.8257;
1179.0000;0.3223;0.8304;
1179.3000;0.3232;0.8350;
1179.6000;0.3215;0.8304;
1179.9000;0.3223;0.8374;
1180.2000;0.3207;0.8304;
1180.5000;0.3215;0.8280;
1180.8000;0.3240;0.8374;
1181.1000;0.3199;0.8164;
1181.4000;0.3264;0.8327;
1181.7000;0.3215;0.8164;
1182.0000;0.3240;0.8164;
1182.3000;0.3305;0.8397;
1182.6000;0.3256;0.8327;
1182.9000;0.3215;0.8257;
1183.2000;0.3232;0.8374;
1183.5000;0.3191;0.8187;
1183.8000;0.3207;0.8257;
1184.1000;0.3248;0.8327;
1184.4000;0.3232;0.8304;
1184.7000;0.3232;0.8350;
1185.0000;0.3232;0.8374;
1185.3000;0.3248;0.8420;
1185.6000;0.3240;0.8304;
1185.9000;0.3191;0.8257;
1186.2000;0.3280;0.8467;
1186.5000;0.3158;0.8164;
1186.8000;0.3256;0.8420;
1187.1000;0.3256;0.8467;
1187.4000;0.3313;0.8677;
1187.7000;0.3256;0.8514;
1188.0000;0.3240;0.8374;
1188.3000;0.3248;0.8327;
1188.6000;0.3248;0.8257;
1188.9000;0.3232;0.8187;
1189.2000;0.3232;0.8164;
1189.5000;0.3223;0.8140;
1189.8000;0.3232;0.8210;
1190.1000;0.3256;0.8374;
1190.4000;0.3256;0.8304;
1190.7000;0.3215;0.8327;
1191.0000;0.3240;0.8374;
1191.3000;0.3158;0.8164;
1191.6000;0.3248;0.8350;
1191.9000;0.3240;0.8537;
1192.2000;0.3215;0.8467;
1192.5000;0.3264;0.8584;
1192.8000;0.3248;0.8537;
1193.1000;0.3232;0.8490;
1193.4000;0.3240;0.8537;
1193.7000;0.3215;0.8514;
1194.0000;0.3240;0.8514;
1194.3000;0.3232;0.8490;
1194.6000;0.3256;0.8490;
1194.9000;0.3240;0.8350;
1195.2000;0.3232;0.8257;
1195.5000;0.3248;0.8304;
1195.8000;0.3240;0.8280;
1196.1000;0.3240;0.8420;
1196.4000;0.3232;0.8467;
1196.7000;0.3240;0.8560;
1197.0000;0.3248;0.8537;
1197.3000;0.3240;0.8490;
1197.6000;0.3256;0.8420;
1197.9000;0.3232;0.8397;
1198.2000;0.3264;0.8490;
1198.5000;0.3232;0.8467;
1198.8000;0.3248;0.8444;
1199.1000;0.3240;0.8374;
1199.4000;0.3272;0.8444;
1199.7000;0.3232;0.8420;
1200.0000;0.3248;0.8350;
1200.3000;0.3337;0.8537;
1200.6000;0.3240;0.8257;
1200.9000;0.3215;0.8210;
1201.2000;0.3232;0.8164;
1201.5000;0.3264;0.8140;
1201.8000;0.3248;0.8047;
1202.1000;0.3223;0.8047;
1202.4000;0.3232;0.8024;
1202.7000;0.3256;0.8070;
1203.0000;0.3240;0.8210;
1203.3000;0.3223;0.8140;
1203.6000;0.3223;0.8164;
1203.9000;0.3223;0.8187;
1204.2000;0.3232;0.8257;
1204.5000;0.3240;0.8327;
1204.8000;0.3256;0.8374;
1205.1000;0.3191;0.8257;
1205.4000;0.3223;0.8304;
1205.7000;0.3240;0.8257;
1206.0000;0.3248;0.8350;
1206.3000;0.3232;0.8350;
1206.6000;0.3232;0.8420;
1206.9000;0.3232;0.8537;
1207.2000;0.3337;0.8817;
1207.5000;0.3256;0.8514;
1207.8000;0.3256;0.8584;
1208.1000;0.3232;0.8584;
1208.4000;0.3256;0.8700;
1208.7000;0.3158;0.8467;
1209.0000;0.3223;0.8653;
1209.3000;0.3240;0.8700;
1209.6000;0.3232;0.8630;
1209.9000;0.3240;0.8514;
1210.2000;0.3232;0.8490;
1210.5000;0.3215;0.8444;
1210.8000;0.3223;0.8467;
1211.1000;0.3232;0.8467;
1211.4000;0.3240;0.8397;
1211.7000;0.3232;0.8374;
1212.0000;0.3240;0.8374;
1212.3000;0.3305;0.8630;
1212.6000;0.3240;0.8560;
1212.9000;0.3272;0.8560;
1213.2000;0.3248;0.8397;
1213.5000;0.3248;0.8467;
1213.8000;0.3240;0.8514;
1214.1000;0.3215;0.8560;
1214.4000;0.3248;0.8677;
1214.7000;0.3232;0.8630;
1215.0000;0.3223;0.8607;
1215.3000;0.3240;0.8607;
1215.6000;0.3223;0.8560;
1215.9000;0.3223;0.8490;
1216.2000;0.3207;0.8444;
1216.5000;0.3215;0.8514;
1216.8000;0.3215;0.8514;
1217.1000;0.3215;0.8490;
1217.4000;0.3199;0.8514;
1217.7000;0.3223;0.8514;
1218.0000;0.3150;0.8210;
1218.3000;0.3240;0.8420;
1218.6000;0.3256;0.8420;
1218.9000;0.3248;0.8444;
1219.2000;0.3248;0.8304;
1219.5000;0.3232;0.8257;
1219.8000;0.3240;0.8304;
1220.1000;0.3232;0.8280;
1220.4000;0.3272;0.8327;
1220.7000;0.3232;0.8234;
1221.0000;0.3248;0.8374;
1221.3000;0.3297;0.8467;
1221.6000;0.3232;0.8280;
1221.9000;0.3223;0.8210;
1222.2000;0.3232;0.8234;
1222.5000;0.3240;0.8304;
1222.8000;0.3232;0.8257;
1223.1000;0.3232;0.8350;
1223.4000;0.3256;0.8374;
1223.7000;0.3248;0.8350;
1224.0000;0.3215;0.8420;
1224.3000;0.3256;0.8420;
1224.6000;0.3223;0.8420;
1224.9000;0.3240;0.8397;
1225.2000;0.3232;0.8374;
1225.5000;0.3232;0.8374;
1225.8000;0.3191;0.8374;
1226.1000;0.3223;0.8327;
1226.4000;0.3199;0.8257;
1226.7000;0.3223;0.8304;
1227.0000;0.3207;0.8210;
1227.3000;0.3223;0.8304;
1227.6000;0.3232;0.8397;
1227.9000;0.3215;0.8420;
1228.2000;0.3232;0.8444;
1228.5000;0.3223;0.8444;
1228.8000;0.3248;0.8350;
1229.1000;0.3256;0.8397;
1229.4000;0.3248;0.8397;
1229.7000;0.3215;0.8280;
1230.0000;0.3232;0.8304;
1230.3000;0.3264;0.8257;
1230.6000;0.3223;0.8140;
1230.9000;0.3256;0.8187;
1231.2000;0.3248;0.8164;
1231.5000;0.3232;0.8164;
1231.8000;0.3232;0.8164;
1232.1000;0.3223;0.8070;
1232.4000;0.3223;0.8047;
1232.7000;0.3240;0.8140;
1233.0000;0.3232;0.8140;
1233.3000;0.3232;0.8070;
1233.6000;0.3240;0.8140;
1233.9000;0.3256;0.8210;
1234.2000;0.3256;0.8140;
1234.5000;0.3240;0.8140;
1234.8000;0.3207;0.8187;
1235.1000;0.3297;0.8467;
1235.4000;0.3248;0.8350;
1235.7000;0.3240;0.8280;
1236.0000;0.3240;0.8280;
1236.3000;0.3264;0.8374;
1236.6000;0.3248;0.8327;
1236.9000;0.3207;0.8117;
1237.2000;0.3232;0.8140;
1237.5000;0.3248;0.8164;
1237.8000;0.3223;0.8187;
1238.1000;0.3223;0.8304;
1238.4000;0.3248;0.8420;
1238.7000;0.3248;0.8444;
1239.0000;0.3248;0.8514;
1239.3000;0.3248;0.8444;
1239.6000;0.3215;0.8397;
1239.9000;0.3248;0.8327;
1240.2000;0.3256;0.8374;
1240.5000;0.3199;0.8210;
1240.8000;0.3223;0.8234;
1241.1000;0.3232;0.8257;
1241.4000;0.3264;0.8397;
1241.7000;0.3223;0.8304;
1242.0000;0.3240;0.8327;
1242.3000;0.3232;0.8374;
1242.6000;0.3199;0.8374;
1242.9000;0.3191;0.8327;
1243.2000;0.3337;0.8700;
1243.5000;0.3232;0.8514;
1243.8000;0.3240;0.8584;
1244.1000;0.3248;0.8467;
1244.4000;0.3248;0.8467;
1244.7000;0.3232;0.8327;
1245.0000;0.3272;0.8420;
1245.3000;0.3240;0.8350;
1245.6000;0.3256;0.8374;
1245.9000;0.3256;0.8350;
1246.2000;0.3232;0.8280;
1246.5000;0.3232;0.8280;
1246.8000;0.3232;0.8234;
1247.1000;0.3240;0.8280;
1247.4000;0.3207;0.8164;
1247.7000;0.3248;0.8210;
1248.0000;0.3240;0.8210;
1248.3000;0.3232;0.8187;
1248.6000;0.3223;0.8257;
1248.9000;0.3232;0.8257;
1249.2000;0.3248;0.8327;
1249.5000;0.3223;0.8280;
1249.8000;0.3223;0.8234;
1250.1000;0.3232;0.8257;
1250.4000;0.3223;0.8304;
1250.7000;0.3264;0.8327;
1251.0000;0.3142;0.8024;
1251.3000;0.3232;0.8350;
1251.6000;0.3232;0.8420;
1251.9000;0.3313;0.8537;
1252.2000;0.3248;0.8397;
1252.5000;0.3240;0.8304;
1252.8000;0.3199;0.8117;
1253.1000;0.3223;0.8234;
1253.4000;0.3134;0.8024;
1253.7000;0.3240;0.8257;
1254.0000;0.3142;0.8024;
1254.3000;0.3223;0.8210;
1254.6000;0.3232;0.8280;
1254.9000;0.3232;0.8374;
1255.2000;0.3248;0.8350;
1255.5000;0.3240;0.8350;
1255.8000;0.3232;0.8304;
1256.1000;0.3223;0.8234;
1256.4000;0.3240;0.8280;
1256.7000;0.3232;0.8210;
1257.0000;0.3248;0.8234;
1257.3000;0.3223;0.8187;
1257.6000;0.3240;0.8164;
1257.9000;0.3223;0.8187;
1258.2000;0.3305;0.8280;
1258.5000;0.3215;0.8140;
1258.8000;0.3232;0.8164;
1259.1000;0.3232;0.8210;
1259.4000;0.3232;0.8164;
1259.7000;0.3240;0.8234;
1260.0000;0.3264;0.8304;
1260.3000;0.3240;0.8210;
1260.6000;0.3248;0.8234;
1260.9000;0.3215;0.8234;
1261.2000;0.3215;0.8304;
1261.5000;0.3223;0.8374;
1261.8000;0.3223;0.8374;
1262.1000;0.3256;0.8444;
1262.4000;0.3232;0.8374;
1262.7000;0.3240;0.8444;
1263.0000;0.3248;0.8374;
1263.3000;0.3223;0.8327;
1263.6000;0.3215;0.8280;
1263.9000;0.3264;0.8350;
1264.2000;0.3240;0.8397;
1264.5000;0.3240;0.8304;
1264.8000;0.3248;0.8304;
1265.1000;0.3240;0.8234;
1265.4000;0.3240;0.8234;
1265.7000;0.3223;0.8327;
1266.0000;0.3240;0.8280;
1266.3000;0.3248;0.8327;
1266.6000;0.3199;0.8234;
1266.9000;0.3215;0.8257;
1267.2000;0.3223;0.8257;
1267.5000;0.3215;0.8327;
1267.8000;0.3223;0.8350;
1268.1000;0.3240;0.8374;
1268.4000;0.3240;0.8304;
1268.7000;0.3232;0.8210;
1269.0000;0.3232;0.8140;
1269.3000;0.3158;0.7954;
1269.6000;0.3248;0.8164;
1269.9000;0.3248;0.8164;
1270.2000;0.3240;0.8257;
1270.5000;0.3248;0.8210;
1270.8000;0.3232;0.8164;
1271.1000;0.3223;0.8117;
1271.4000;0.3199;0.8117;
1271.7000;0.3223;0.8187;
1272.0000;0.3232;0.8187;
1272.3000;0.3256;0.8210;
1272.6000;0.3223;0.8117;
1272.9000;0.3297;0.8280;
1273.2000;0.3248;0.8164;
1273.5000;0.3215;0.8094;
1273.8000;0.3215;0.8187;
1274.1000;0.3240;0.8210;
1274.4000;0.3223;0.8210;
1274.7000;0.3199;0.8070;
1275.0000;0.3118;0.7907;
1275.3000;0.3289;0.8327;
1275.6000;0.3232;0.8140;
1275.9000;0.3199;0.8047;
1276.2000;0.3232;0.8117;
1276.5000;0.3223;0.8140;
1276.8000;0.3223;0.8187;
1277.1000;0.3240;0.8187;
1277.4000;0.3175;0.8070;
1277.7000;0.3223;0.8164;
1278.0000;0.3183;0.8164;
1278.3000;0.3191;0.8234;
1278.6000;0.3207;0.8164;
1278.9000;0.3215;0.8094;
1279.2000;0.3223;0.8164;
1279.5000;0.3240;0.8234;
1279.8000;0.3232;0.8234;
1280.1000;0.3248;0.8280;
1280.4000;0.3240;0.8210;
1280.7000;0.3240;0.8187;
1281.0000;0.3240;0.8164;
1281.3000;0.3232;0.8047;
1281.6000;0.3223;0.8070;
1281.9000;0.3223;0.8094;
1282.2000;0.3240;0.8117;
1282.5000;0.3232;0.8234;
1282.8000;0.3232;0.8257;
1283.1000;0.3207;0.8280;
1283.4000;0.3223;0.8280;
1283.7000;0.3240;0.8280;
1284.0000;0.3232;0.8210;
1284.3000;0.3223;0.8187;
1284.6000;0.3232;0.8187;
1284.9000;0.3232;0.8164;
1285.2000;0.3183;0.8140;
1285.5000;0.3207;0.8210;
1285.8000;0.3199;0.8257;
1286.1000;0.3240;0.8327;
1286.4000;0.3256;0.8280;
1286.7000;0.3215;0.8187;
1287.0000;0.3240;0.8327;
1287.3000;0.3240;0.8350;
1287.6000;0.3223;0.8327;
1287.9000;0.3240;0.8350;
1288.2000;0.3256;0.8374;
1288.5000;0.3240;0.8257;
1288.8000;0.3272;0.8304;
1289.1000;0.3232;0.8257;
1289.4000;0.3191;0.8210;
1289.7000;0.3240;0.8304;
1290.0000;0.3256;0.8327;
1290.3000;0.3232;0.8397;
1290.6000;0.3232;0.8280;
1290.9000;0.3240;0.8304;
1291.2000;0.3232;0.8257;
1291.5000;0.3232;0.8257;
1291.8000;0.3207;0.8280;
1292.1000;0.3240;0.8327;
1292.4000;0.3223;0.8397;
1292.7000;0.3248;0.8397;
1293.0000;0.3240;0.8374;
1293.3000;0.3240;0.8350;
1293.6000;0.3248;0.8397;
1293.9000;0.3223;0.8397;
1294.2000;0.3240;0.8420;
1294.5000;0.3215;0.8420;
1294.8000;0.3264;0.8537;
1295.1000;0.3240;0.8584;
1295.4000;0.3256;0.8537;
1295.7000;0.3223;0.8420;
1296.0000;0.3256;0.8444;
1296.3000;0.3223;0.8467;
1296.6000;0.3223;0.8467;
1296.9000;0.3248;0.8584;
1297.2000;0.3223;0.8467;
1297.5000;0.3280;0.8607;
1297.8000;0.3215;0.8304;
1298.1000;0.3240;0.8257;
1298.4000;0.3232;0.8140;
1298.7000;0.3191;0.8117;
1299.0000;0.3248;0.8257;
1299.3000;0.3248;0.8257;
1299.6000;0.3240;0.8327;
1299.9000;0.3175;0.8140;
1300.2000;0.3240;0.8304;
1300.5000;0.3142;0.8187;
1300.8000;0.3223;0.8490;
1301.1000;0.3232;0.8490;
1301.4000;0.3248;0.8537;
1301.7000;0.3232;0.8490;
1302.0000;0.3223;0.8467;
1302.3000;0.3215;0.8350;
1302.6000;0.3191;0.8164;
1302.9000;0.3223;0.8397;
1303.2000;0.3232;0.8420;
1303.5000;0.3232;0.8280;
1303.8000;0.3223;0.8210;
1304.1000;0.3248;0.8257;
1304.4000;0.3232;0.8280;
1304.7000;0.3248;0.8304;
1305.0000;0.3248;0.8350;
1305.3000;0.3215;0.8374;
1305.6000;0.3256;0.8444;
1305.9000;0.3240;0.8327;
1306.2000;0.3240;0.8327;
1306.5000;0.3248;0.8280;
1306.8000;0.3256;0.8257;
1307.1000;0.3289;0.8350;
1307.4000;0.3248;0.8280;
1307.7000;0.3248;0.8187;
1308.0000;0.3223;0.8070;
1308.3000;0.3207;0.8070;
1308.6000;0.3215;0.8140;
1308.9000;0.3248;0.8257;
1309.2000;0.3232;0.8280;
1309.5000;0.3240;0.8327;
1309.8000;0.3215;0.8280;
1310.1000;0.3232;0.8257;
1310.4000;0.3215;0.8350;
1310.7000;0.3232;0.8397;
1311.0000;0.3232;0.8420;
1311.3000;0.3248;0.8467;
1311.6000;0.3232;0.8397;
1311.9000;0.3240;0.8350;
1312.2000;0.3223;0.8327;
1312.5000;0.3223;0.8327;
1312.8000;0.3183;0.8187;
1313.1000;0.3199;0.8187;
1313.4000;0.3175;0.8187;
1313.7000;0.3223;0.8280;
1314.0000;0.3232;0.8327;
1314.3000;0.3256;0.8327;
1314.6000;0.3240;0.8257;
1314.9000;0.3191;0.8094;
1315.2000;0.3150;0.8000;
1315.5000;0.3223;0.8164;
1315.8000;0.3215;0.8117;
1316.1000;0.3232;0.8164;
1316.4000;0.3158;0.8117;
1316.7000;0.3240;0.8304;
1317.0000;0.3240;0.8327;
1317.3000;0.3232;0.8304;
1317.6000;0.3232;0.8327;
1317.9000;0.3232;0.8444;
1318.2000;0.3232;0.8420;
1318.5000;0.3215;0.8397;
1318.8000;0.3223;0.8257;
1319.1000;0.3232;0.8140;
1319.4000;0.3264;0.8117;
1319.7000;0.3215;0.8024;
1320.0000;0.3232;0.8140;
1320.3000;0.3191;0.8070;
1320.6000;0.3223;0.8164;
1320.9000;0.3215;0.8117;
1321.2000;0.3232;0.8094;
1321.5000;0.3223;0.8094;
1321.8000;0.3232;0.8140;
1322.1000;0.3240;0.8164;
1322.4000;0.3232;0.8164;
1322.7000;0.3240;0.8210;
1323.0000;0.3321;0.8467;
1323.3000;0.3223;0.8187;
1323.6000;0.3240;0.8187;
1323.9000;0.3223;0.8210;
1324.2000;0.3232;0.8327;
1324.5000;0.3256;0.8444;
1324.8000;0.3223;0.8420;
1325.1000;0.3240;0.8467;
1325.4000;0.3297;0.8560;
1325.7000;0.3232;0.8420;
1326.0000;0.3223;0.8374;
1326.3000;0.3313;0.8584;
1326.6000;0.3240;0.8444;
1326.9000;0.3240;0.8444;
1327.2000;0.3240;0.8420;
1327.5000;0.3232;0.8350;
1327.8000;0.3240;0.8374;
1328.1000;0.3297;0.8444;
1328.4000;0.3240;0.8280;
1328.7000;0.3223;0.8304;
1329.0000;0.3223;0.8257;
1329.3000;0.3240;0.8350;
1329.6000;0.3240;0.8420;
1329.9000;0.3232;0.8397;
1330.2000;0.3248;0.8350;
1330.5000;0.3232;0.8304;
1330.8000;0.3232;0.8304;
1331.1000;0.3199;0.8257;
1331.4000;0.3232;0.8304;
1331.7000;0.3256;0.8374;
1332.0000;0.3223;0.8397;
1332.3000;0.3215;0.8374;
1332.6000;0.3223;0.8444;
1332.9000;0.3223;0.8467;
1333.2000;0.3207;0.8420;
1333.5000;0.3248;0.8467;
1333.8000;0.3223;0.8350;
1334.1000;0.3232;0.8350;
1334.4000;0.3223;0.8350;
1334.7000;0.3232;0.8327;
1335.0000;0.3215;0.8374;
1335.3000;0.3223;0.8350;
1335.6000;0.3150;0.8164;
1335.9000;0.3215;0.8420;
1336.2000;0.3256;0.8420;
1336.5000;0.3215;0.8327;
1336.8000;0.3240;0.8304;
1337.1000;0.3158;0.8140;
1337.4000;0.3248;0.8304;
1337.7000;0.3240;0.8304;
1338.0000;0.3232;0.8280;
1338.3000;0.3215;0.8304;
1338.6000;0.3240;0.8397;
1338.9000;0.3223;0.8420;
1339.2000;0.3223;0.8444;
1339.5000;0.3240;0.8444;
1339.8000;0.3248;0.8420;
1340.1000;0.3240;0.8444;
1340.4000;0.3248;0.8444;
1340.7000;0.3280;0.8467;
1341.0000;0.3215;0.8374;
1341.3000;0.3223;0.8374;
1341.6000;0.3223;0.8350;
1341.9000;0.3215;0.8397;
1342.2000;0.3232;0.8420;
1342.5000;0.3223;0.8374;
1342.8000;0.3272;0.8490;
1343.1000;0.3248;0.8374;
1343.4000;0.3248;0.8304;
1343.7000;0.3232;0.8304;
1344.0000;0.3223;0.8257;
1344.3000;0.3223;0.8280;
1344.6000;0.3272;0.8514;
1344.9000;0.3223;0.8327;
1345.2000;0.3207;0.8350;
1345.5000;0.3280;0.8420;
1345.8000;0.3223;0.8257;
1346.1000;0.3256;0.8280;
1346.4000;0.3183;0.8094;
1346.7000;0.3240;0.8280;
1347.0000;0.3232;0.8257;
1347.3000;0.3240;0.8280;
1347.6000;0.3232;0.8327;
1347.9000;0.3232;0.8234;
1348.2000;0.3256;0.8374;
1348.5000;0.3232;0.8234;
1348.8000;0.3232;0.8164;
1349.1000;0.3256;0.8280;
1349.4000;0.3248;0.8420;
1349.7000;0.3232;0.8374;
1350.0000;0.3272;0.8467;
1350.3000;0.3232;0.8234;
1350.6000;0.3240;0.8210;
1350.9000;0.3240;0.8117;
1351.2000;0.3223;0.8164;
1351.5000;0.3264;0.8304;
1351.8000;0.3232;0.8210;
1352.1000;0.3232;0.8094;
1352.4000;0.3256;0.8234;
1352.7000;0.3166;0.8024;
1353.0000;0.3232;0.8117;
1353.3000;0.3223;0.8164;
1353.6000;0.3207;0.8164;
1353.9000;0.3215;0.8140;
1354.2000;0.3215;0.8210;
1354.5000;0.3256;0.8187;
1354.8000;0.3223;0.8117;
1355.1000;0.3240;0.8210;
1355.4000;0.3232;0.8234;
1355.7000;0.3223;0.8187;
1356.0000;0.3232;0.8094;
1356.3000;0.3232;0.8047;
1356.6000;0.3223;0.8094;
1356.9000;0.3248;0.8210;
1357.2000;0.3232;0.8257;
1357.5000;0.3207;0.8280;
1357.8000;0.3232;0.8280;
1358.1000;0.3223;0.8374;
1358.4000;0.3232;0.8257;
1358.7000;0.3248;0.8304;
1359.0000;0.3215;0.8210;
1359.3000;0.3207;0.8210;
1359.6000;0.3223;0.8304;
1359.9000;0.3240;0.8374;
1360.2000;0.3232;0.8257;
1360.5000;0.3223;0.8187;
1360.8000;0.3223;0.8140;
1361.1000;0.3215;0.8187;
1361.4000;0.3264;0.8210;
1361.7000;0.3240;0.8187;
1362.0000;0.3215;0.8140;
1362.3000;0.3215;0.8117;
1362.6000;0.3232;0.8094;
1362.9000;0.3232;0.8140;
1363.2000;0.3232;0.8187;
1363.5000;0.3240;0.8187;
1363.8000;0.3223;0.8210;
1364.1000;0.3215;0.8187;
1364.4000;0.3240;0.8164;
1364.7000;0.3240;0.8304;
1365.0000;0.3232;0.8304;
1365.3000;0.3232;0.8327;
1365.6000;0.3248;0.8420;
1365.9000;0.3223;0.8350;
1366.2000;0.3256;0.8327;
1366.5000;0.3232;0.8257;
1366.8000;0.3215;0.8257;
1367.1000;0.3289;0.8374;
1367.4000;0.3191;0.8047;
1367.7000;0.3240;0.8117;
1368.0000;0.3264;0.8210;
1368.3000;0.3232;0.8140;
1368.6000;0.3264;0.8187;
1368.9000;0.3272;0.8280;
1369.2000;0.3199;0.8024;
1369.5000;0.3215;0.8140;
1369.8000;0.3256;0.8140;
1370.1000;0.3256;0.8210;
1370.4000;0.3280;0.8327;
1370.7000;0.3207;0.8210;
1371.0000;0.3207;0.8210;
1371.3000;0.3150;0.8070;
1371.6000;0.3215;0.8257;
1371.9000;0.3337;0.8537;
1372.2000;0.3232;0.8234;
1372.5000;0.3223;0.8140;
1372.8000;0.3240;0.8280;
1373.1000;0.3256;0.8327;
1373.4000;0.3232;0.8327;
1373.7000;0.3215;0.8304;
1374.0000;0.3118;0.8094;
1374.3000;0.3207;0.8257;
1374.6000;0.3240;0.8257;
1374.9000;0.3232;0.8304;
1375.2000;0.3223;0.8257;
1375.5000;0.3223;0.8304;
1375.8000;0.3297;0.8490;
1376.1000;0.3215;0.8304;
1376.4000;0.3232;0.8280;
1376.7000;0.3215;0.8304;
1377.0000;0.3232;0.8304;
1377.3000;0.3232;0.8327;
1377.6000;0.3223;0.8350;
1377.9000;0.3232;0.8397;
1378.2000;0.3232;0.8420;
1378.5000;0.3240;0.8490;
1378.8000;0.3240;0.8467;
1379.1000;0.3223;0.8467;
1379.4000;0.3256;0.8490;
1379.7000;0.3232;0.8444;
1380.0000;0.3223;0.8327;
1380.3000;0.3223;0.8350;
1380.6000;0.3215;0.8397;
1380.9000;0.3232;0.8304;
1381.2000;0.3207;0.8304;
1381.5000;0.3232;0.8304;
1381.8000;0.3240;0.8374;
1382.1000;0.3223;0.8257;
1382.4000;0.3240;0.8374;
1382.7000;0.3232;0.8374;
1383.0000;0.3232;0.8420;
1383.3000;0.3248;0.8467;
1383.6000;0.3223;0.8327;
1383.9000;0.3240;0.8420;
1384.2000;0.3223;0.8374;
1384.5000;0.3240;0.8374;
1384.8000;0.3248;0.8444;
1385.1000;0.3223;0.8397;
1385.4000;0.3232;0.8514;
1385.7000;0.3223;0.8490;
1386.0000;0.3215;0.8537;
1386.3000;0.3223;0.8490;
1386.6000;0.3215;0.8514;
1386.9000;0.3223;0.8490;
1387.2000;0.3232;0.8444;
1387.5000;0.3232;0.8420;
1387.8000;0.3232;0.8514;
1388.1000;0.3240;0.8514;
1388.4000;0.3240;0.8514;
1388.7000;0.3248;0.8560;
1389.0000;0.3240;0.8560;
1389.3000;0.3232;0.8490;
1389.6000;0.3199;0.8420;
1389.9000;0.3248;0.8584;
1390.2000;0.3232;0.8584;
1390.5000;0.3215;0.8467;
1390.8000;0.3240;0.8444;
1391.1000;0.3223;0.8467;
1391.4000;0.3240;0.8444;
1391.7000;0.3240;0.8584;
1392.0000;0.3232;0.8514;
1392.3000;0.3223;0.8490;
1392.6000;0.3215;0.8490;
1392.9000;0.3232;0.8537;
1393.2000;0.3232;0.8490;
1393.5000;0.3207;0.8350;
1393.8000;0.3207;0.8350;
1394.1000;0.3215;0.8350;
1394.4000;0.3232;0.8420;
1394.7000;0.3240;0.8467;
1395.0000;0.3232;0.8537;
1395.3000;0.3223;0.8607;
1395.6000;0.3240;0.8653;
1395.9000;0.3232;0.8607;
1396.2000;0.3215;0.8560;
1396.5000;0.3223;0.8467;
1396.8000;0.3215;0.8397;
1397.1000;0.3232;0.8420;
1397.4000;0.3240;0.8304;
1397.7000;0.3240;0.8397;
1398.0000;0.3232;0.8304;
1398.3000;0.3248;0.8397;
1398.6000;0.3223;0.8397;
1398.9000;0.3215;0.8350;
1399.2000;0.3215;0.8397;
1399.5000;0.3223;0.8537;
1399.8000;0.3223;0.8537;
