time/ms;Fluo/V;P700 deltaI/I x10³;
-199.8000;0.4477;1.0146;
-199.5000;0.4477;1.0193;
-199.2000;0.4493;1.0216;
-198.9000;0.4485;1.0006;
-198.6000;0.4461;0.9936;
-198.3000;0.4477;0.9843;
-198.0000;0.4526;1.0006;
-197.7000;0.4412;0.9843;
-197.4000;0.4485;1.0123;
-197.1000;0.4461;1.0053;
-196.8000;0.4387;0.9773;
-196.5000;0.4510;1.0076;
-196.2000;0.4453;0.9890;
-195.9000;0.4461;0.9913;
-195.6000;0.4477;1.0076;
-195.3000;0.4493;1.0100;
-195.0000;0.4461;1.0100;
-194.7000;0.4477;1.0193;
-194.4000;0.4477;1.0216;
-194.1000;0.4542;1.0403;
-193.8000;0.4444;1.0170;
-193.5000;0.4461;1.0216;
-193.2000;0.4477;1.0216;
-192.9000;0.4501;1.0193;
-192.6000;0.4493;1.0263;
-192.3000;0.4477;1.0170;
-192.0000;0.4510;1.0216;
-191.7000;0.4461;1.0193;
-191.4000;0.4436;1.0123;
-191.1000;0.4461;1.0146;
-190.8000;0.4469;1.0146;
-190.5000;0.4493;1.0286;
-190.2000;0.4510;1.0216;
-189.9000;0.4461;1.0076;
-189.6000;0.4428;0.9866;
-189.3000;0.4461;0.9913;
-189.0000;0.4493;0.9936;
-188.7000;0.4501;1.0006;
-188.4000;0.4501;0.9960;
-188.1000;0.4469;0.9890;
-187.8000;0.4526;1.0006;
-187.5000;0.4477;0.9866;
-187.2000;0.4493;0.9960;
-186.9000;0.4501;1.0053;
-186.6000;0.4493;1.0053;
-186.3000;0.4485;1.0030;
-186.0000;0.4485;1.0030;
-185.7000;0.4526;1.0240;
-185.4000;0.4534;1.0263;
-185.1000;0.4444;0.9960;
-184.8000;0.4501;0.9960;
-184.5000;0.4493;0.9936;
-184.2000;0.4477;0.9890;
-183.9000;0.4485;0.9936;
-183.6000;0.4477;0.9866;
-183.3000;0.4493;1.0006;
-183.0000;0.4485;1.0006;
-182.7000;0.4510;1.0053;
-182.4000;0.4477;0.9960;
-182.1000;0.4510;0.9983;
-181.8000;0.4493;0.9960;
-181.5000;0.4469;1.0006;
-181.2000;0.4461;1.0076;
-180.9000;0.4485;1.0100;
-180.6000;0.4485;1.0123;
-180.3000;0.4477;1.0053;
-180.0000;0.4412;0.9913;
-179.7000;0.4461;0.9960;
-179.4000;0.4485;0.9936;
-179.1000;0.4485;0.9983;
-178.8000;0.4493;1.0076;
-178.5000;0.4501;1.0100;
-178.2000;0.4485;0.9983;
-177.9000;0.4485;0.9960;
-177.6000;0.4493;0.9983;
-177.3000;0.4485;0.9913;
-177.0000;0.4485;0.9913;
-176.7000;0.4461;0.9983;
-176.4000;0.4477;1.0100;
-176.1000;0.4477;1.0006;
-175.8000;0.4469;0.9936;
-175.5000;0.4485;0.9890;
-175.2000;0.4396;0.9703;
-174.9000;0.4558;1.0030;
-174.6000;0.4477;0.9866;
-174.3000;0.4493;0.9866;
-174.0000;0.4412;0.9680;
-173.7000;0.4461;0.9866;
-173.4000;0.4477;0.9913;
-173.1000;0.4477;0.9820;
-172.8000;0.4493;0.9773;
-172.5000;0.4493;0.9796;
-172.2000;0.4477;0.9843;
-171.9000;0.4477;0.9913;
-171.6000;0.4485;0.9890;
-171.3000;0.4501;0.9866;
-171.0000;0.4485;0.9890;
-170.7000;0.4477;0.9773;
-170.4000;0.4477;0.9796;
-170.1000;0.4477;0.9773;
-169.8000;0.4485;0.9843;
-169.5000;0.4477;0.9773;
-169.2000;0.4469;0.9866;
-168.9000;0.4493;0.9960;
-168.6000;0.4550;1.0216;
-168.3000;0.4501;1.0100;
-168.0000;0.4477;1.0053;
-167.7000;0.4477;1.0076;
-167.4000;0.4477;1.0100;
-167.1000;0.4485;1.0076;
-166.8000;0.4469;1.0076;
-166.5000;0.4477;1.0053;
-166.2000;0.4493;1.0123;
-165.9000;0.4485;1.0030;
-165.6000;0.4461;0.9960;
-165.3000;0.4453;0.9913;
-165.0000;0.4469;0.9960;
-164.7000;0.4469;0.9960;
-164.4000;0.4485;0.9936;
-164.1000;0.4477;1.0053;
-163.8000;0.4542;1.0193;
-163.5000;0.4469;1.0053;
-163.2000;0.4477;1.0100;
-162.9000;0.4469;1.0146;
-162.6000;0.4477;1.0170;
-162.3000;0.4493;1.0146;
-162.0000;0.4477;1.0053;
-161.7000;0.4493;1.0053;
-161.4000;0.4477;1.0006;
-161.1000;0.4469;0.9983;
-160.8000;0.4477;1.0076;
-160.5000;0.4461;1.0076;
-160.2000;0.4469;1.0006;
-159.9000;0.4485;0.9960;
-159.6000;0.4485;0.9890;
-159.3000;0.4469;0.9866;
-159.0000;0.4436;0.9843;
-158.7000;0.4477;0.9936;
-158.4000;0.4485;1.0053;
-158.1000;0.4444;0.9890;
-157.8000;0.4469;0.9913;
-157.5000;0.4477;0.9936;
-157.2000;0.4534;1.0216;
-156.9000;0.4485;1.0053;
-156.6000;0.4485;0.9936;
-156.3000;0.4461;0.9936;
-156.0000;0.4453;0.9866;
-155.7000;0.4461;0.9936;
-155.4000;0.4477;0.9913;
-155.1000;0.4461;0.9983;
-154.8000;0.4477;1.0053;
-154.5000;0.4510;1.0146;
-154.2000;0.4347;0.9773;
-153.9000;0.4477;1.0123;
-153.6000;0.4485;1.0030;
-153.3000;0.4444;1.0006;
-153.0000;0.4469;1.0053;
-152.7000;0.4453;1.0053;
-152.4000;0.4485;1.0053;
-152.1000;0.4501;1.0123;
-151.8000;0.4477;1.0076;
-151.5000;0.4444;1.0030;
-151.2000;0.4461;1.0076;
-150.9000;0.4485;1.0076;
-150.6000;0.4477;1.0053;
-150.3000;0.4477;1.0030;
-150.0000;0.4477;0.9983;
-149.7000;0.4485;1.0006;
-149.4000;0.4493;1.0100;
-149.1000;0.4510;1.0030;
-148.8000;0.4469;0.9983;
-148.5000;0.4501;0.9983;
-148.2000;0.4493;1.0030;
-147.9000;0.4485;0.9983;
-147.6000;0.4477;1.0006;
-147.3000;0.4501;1.0076;
-147.0000;0.4501;1.0100;
-146.7000;0.4444;0.9983;
-146.4000;0.4461;0.9960;
-146.1000;0.4493;0.9983;
-145.8000;0.4469;0.9936;
-145.5000;0.4453;0.9913;
-145.2000;0.4518;1.0216;
-144.9000;0.4371;0.9913;
-144.6000;0.4493;1.0170;
-144.3000;0.4501;1.0146;
-144.0000;0.4461;1.0006;
-143.7000;0.4469;1.0006;
-143.4000;0.4518;1.0240;
-143.1000;0.4477;1.0146;
-142.8000;0.4469;1.0170;
-142.5000;0.4550;1.0356;
-142.2000;0.4469;1.0170;
-141.9000;0.4477;1.0263;
-141.6000;0.4485;1.0216;
-141.3000;0.4493;1.0286;
-141.0000;0.4477;1.0310;
-140.7000;0.4436;1.0146;
-140.4000;0.4469;1.0123;
-140.1000;0.4477;1.0100;
-139.8000;0.4477;1.0123;
-139.5000;0.4477;1.0053;
-139.2000;0.4477;1.0006;
-138.9000;0.4461;0.9890;
-138.6000;0.4510;1.0030;
-138.3000;0.4526;1.0100;
-138.0000;0.4518;1.0053;
-137.7000;0.4501;1.0006;
-137.4000;0.4477;1.0053;
-137.1000;0.4461;0.9983;
-136.8000;0.4567;1.0240;
-136.5000;0.4485;1.0030;
-136.2000;0.4485;0.9983;
-135.9000;0.4599;1.0263;
-135.6000;0.4493;0.9936;
-135.3000;0.4477;0.9960;
-135.0000;0.4469;0.9960;
-134.7000;0.4469;0.9913;
-134.4000;0.4493;1.0076;
-134.1000;0.4526;1.0076;
-133.8000;0.4469;0.9866;
-133.5000;0.4469;0.9983;
-133.2000;0.4518;1.0076;
-132.9000;0.4461;0.9936;
-132.6000;0.4477;1.0006;
-132.3000;0.4404;0.9820;
-132.0000;0.4526;1.0053;
-131.7000;0.4461;0.9890;
-131.4000;0.4477;1.0076;
-131.1000;0.4485;1.0076;
-130.8000;0.4477;1.0216;
-130.5000;0.4518;1.0240;
-130.2000;0.4493;1.0123;
-129.9000;0.4493;1.0216;
-129.6000;0.4436;0.9983;
-129.3000;0.4444;0.9890;
-129.0000;0.4477;1.0053;
-128.7000;0.4550;1.0216;
-128.4000;0.4461;1.0030;
-128.1000;0.4469;1.0030;
-127.8000;0.4477;0.9983;
-127.5000;0.4493;1.0053;
-127.2000;0.4477;1.0053;
-126.9000;0.4461;0.9960;
-126.6000;0.4485;0.9960;
-126.3000;0.4436;0.9913;
-126.0000;0.4469;0.9936;
-125.7000;0.4485;1.0030;
-125.4000;0.4461;1.0030;
-125.1000;0.4477;0.9983;
-124.8000;0.4453;0.9983;
-124.5000;0.4469;1.0030;
-124.2000;0.4501;1.0030;
-123.9000;0.4485;0.9890;
-123.6000;0.4428;0.9843;
-123.3000;0.4412;0.9820;
-123.0000;0.4485;1.0006;
-122.7000;0.4485;1.0076;
-122.4000;0.4461;0.9983;
-122.1000;0.4485;0.9983;
-121.8000;0.4477;0.9960;
-121.5000;0.4493;0.9983;
-121.2000;0.4485;0.9983;
-120.9000;0.4453;0.9960;
-120.6000;0.4469;0.9936;
-120.3000;0.4493;1.0006;
-120.0000;0.4485;0.9936;
-119.7000;0.4469;1.0006;
-119.4000;0.4444;1.0076;
-119.1000;0.4510;1.0170;
-118.8000;0.4526;1.0193;
-118.5000;0.4485;1.0123;
-118.2000;0.4493;1.0240;
-117.9000;0.4461;1.0146;
-117.6000;0.4575;1.0473;
-117.3000;0.4469;1.0216;
-117.0000;0.4461;1.0053;
-116.7000;0.4477;1.0076;
-116.4000;0.4485;1.0123;
-116.1000;0.4542;1.0310;
-115.8000;0.4444;1.0100;
-115.5000;0.4469;1.0100;
-115.2000;0.4420;0.9936;
-114.9000;0.4493;1.0100;
-114.6000;0.4477;1.0006;
-114.3000;0.4477;1.0030;
-114.0000;0.4469;1.0006;
-113.7000;0.4518;1.0193;
-113.4000;0.4485;1.0146;
-113.1000;0.4518;1.0193;
-112.8000;0.4469;1.0100;
-112.5000;0.4477;1.0076;
-112.2000;0.4518;1.0076;
-111.9000;0.4485;1.0030;
-111.6000;0.4469;1.0030;
-111.3000;0.4477;0.9983;
-111.0000;0.4493;0.9960;
-110.7000;0.4469;0.9936;
-110.4000;0.4469;0.9960;
-110.1000;0.4477;1.0053;
-109.8000;0.4501;1.0170;
-109.5000;0.4453;1.0146;
-109.2000;0.4453;1.0146;
-108.9000;0.4436;1.0053;
-108.6000;0.4469;1.0076;
-108.3000;0.4436;1.0100;
-108.0000;0.4477;1.0193;
-107.7000;0.4469;1.0240;
-107.4000;0.4469;1.0286;
-107.1000;0.4485;1.0170;
-106.8000;0.4485;1.0170;
-106.5000;0.4469;1.0076;
-106.2000;0.4469;1.0076;
-105.9000;0.4461;1.0076;
-105.6000;0.4461;1.0030;
-105.3000;0.4485;1.0076;
-105.0000;0.4510;1.0123;
-104.7000;0.4477;1.0123;
-104.4000;0.4485;1.0170;
-104.1000;0.4485;1.0240;
-103.8000;0.4493;1.0193;
-103.5000;0.4461;1.0193;
-103.2000;0.4485;1.0240;
-102.9000;0.4477;1.0193;
-102.6000;0.4485;1.0170;
-102.3000;0.4485;1.0240;
-102.0000;0.4501;1.0193;
-101.7000;0.4485;1.0240;
-101.4000;0.4493;1.0216;
-101.1000;0.4477;1.0170;
-100.8000;0.4444;1.0006;
-100.5000;0.4469;1.0053;
-100.2000;0.4485;1.0006;
-99.9000;0.4510;1.0123;
-99.6000;0.4493;1.0076;
-99.3000;0.4444;1.0006;
-99.0000;0.4526;1.0216;
-98.7000;0.4477;1.0053;
-98.4000;0.4469;1.0123;
-98.1000;0.4469;1.0123;
-97.8000;0.4461;1.0053;
-97.5000;0.4461;1.0030;
-97.2000;0.4493;0.9960;
-96.9000;0.4477;0.9890;
-96.6000;0.4493;0.9913;
-96.3000;0.4387;0.9656;
-96.0000;0.4501;0.9890;
-95.7000;0.4469;0.9890;
-95.4000;0.4501;0.9843;
-95.1000;0.4477;0.9773;
-94.8000;0.4493;0.9843;
-94.5000;0.4469;0.9796;
-94.2000;0.4542;0.9866;
-93.9000;0.4444;0.9680;
-93.6000;0.4526;0.9866;
-93.3000;0.4485;0.9796;
-93.0000;0.4485;0.9843;
-92.7000;0.4526;1.0006;
-92.4000;0.4501;0.9936;
-92.1000;0.4501;0.9890;
-91.8000;0.4583;1.0100;
-91.5000;0.4485;0.9820;
-91.2000;0.4501;0.9820;
-90.9000;0.4501;0.9936;
-90.6000;0.4469;0.9936;
-90.3000;0.4469;0.9890;
-90.0000;0.4477;0.9960;
-89.7000;0.4477;1.0006;
-89.4000;0.4493;1.0100;
-89.1000;0.4461;0.9983;
-88.8000;0.4477;0.9983;
-88.5000;0.4485;1.0006;
-88.2000;0.4485;0.9936;
-87.9000;0.4444;0.9913;
-87.6000;0.4453;0.9960;
-87.3000;0.4534;1.0053;
-87.0000;0.4461;0.9913;
-86.7000;0.4444;0.9820;
-86.4000;0.4461;0.9960;
-86.1000;0.4461;1.0053;
-85.8000;0.4493;1.0053;
-85.5000;0.4477;1.0030;
-85.2000;0.4461;1.0076;
-84.9000;0.4444;1.0076;
-84.6000;0.4469;1.0123;
-84.3000;0.4461;1.0123;
-84.0000;0.4477;1.0146;
-83.7000;0.4477;1.0100;
-83.4000;0.4477;1.0100;
-83.1000;0.4534;1.0146;
-82.8000;0.4469;1.0006;
-82.5000;0.4477;1.0030;
-82.2000;0.4469;1.0123;
-81.9000;0.4404;0.9866;
-81.6000;0.4477;1.0053;
-81.3000;0.4477;1.0006;
-81.0000;0.4493;1.0076;
-80.7000;0.4518;1.0053;
-80.4000;0.4501;0.9936;
-80.1000;0.4493;0.9890;
-79.8000;0.4469;0.9796;
-79.5000;0.4485;0.9866;
-79.2000;0.4501;0.9820;
-78.9000;0.4485;0.9820;
-78.6000;0.4461;0.9750;
-78.3000;0.4477;0.9843;
-78.0000;0.4493;0.9936;
-77.7000;0.4453;0.9913;
-77.4000;0.4477;0.9983;
-77.1000;0.4542;1.0123;
-76.8000;0.4485;0.9983;
-76.5000;0.4485;0.9983;
-76.2000;0.4453;1.0030;
-75.9000;0.4477;1.0146;
-75.6000;0.4485;1.0123;
-75.3000;0.4477;1.0030;
-75.0000;0.4477;1.0006;
-74.7000;0.4469;0.9983;
-74.4000;0.4526;1.0030;
-74.1000;0.4485;0.9843;
-73.8000;0.4436;0.9773;
-73.5000;0.4526;0.9960;
-73.2000;0.4485;0.9890;
-72.9000;0.4510;1.0006;
-72.6000;0.4420;0.9820;
-72.3000;0.4444;0.9890;
-72.0000;0.4477;1.0053;
-71.7000;0.4485;1.0100;
-71.4000;0.4461;1.0053;
-71.1000;0.4477;1.0100;
-70.8000;0.4371;0.9913;
-70.5000;0.4469;1.0076;
-70.2000;0.4477;1.0030;
-69.9000;0.4363;0.9750;
-69.6000;0.4485;1.0006;
-69.3000;0.4477;0.9913;
-69.0000;0.4477;1.0006;
-68.7000;0.4493;1.0100;
-68.4000;0.4477;1.0053;
-68.1000;0.4469;1.0006;
-67.8000;0.4518;1.0100;
-67.5000;0.4477;1.0170;
-67.2000;0.4493;1.0170;
-66.9000;0.4428;1.0053;
-66.6000;0.4485;1.0100;
-66.3000;0.4461;0.9960;
-66.0000;0.4493;0.9983;
-65.7000;0.4469;0.9913;
-65.4000;0.4485;0.9983;
-65.1000;0.4485;0.9983;
-64.8000;0.4469;0.9983;
-64.5000;0.4477;0.9960;
-64.2000;0.4444;0.9890;
-63.9000;0.4469;1.0076;
-63.6000;0.4461;1.0123;
-63.3000;0.4477;1.0170;
-63.0000;0.4453;1.0076;
-62.7000;0.4461;1.0100;
-62.4000;0.4461;1.0123;
-62.1000;0.4477;1.0146;
-61.8000;0.4428;1.0006;
-61.5000;0.4485;1.0076;
-61.2000;0.4461;0.9983;
-60.9000;0.4436;0.9773;
-60.6000;0.4477;0.9773;
-60.3000;0.4485;0.9750;
-60.0000;0.4477;0.9703;
-59.7000;0.4510;0.9820;
-59.4000;0.4501;0.9890;
-59.1000;0.4469;0.9843;
-58.8000;0.4469;0.9773;
-58.5000;0.4453;0.9656;
-58.2000;0.4461;0.9773;
-57.9000;0.4477;0.9820;
-57.6000;0.4485;0.9843;
-57.3000;0.4485;0.9843;
-57.0000;0.4485;0.9913;
-56.7000;0.4485;0.9936;
-56.4000;0.4485;0.9913;
-56.1000;0.4477;0.9866;
-55.8000;0.4469;0.9796;
-55.5000;0.4477;0.9820;
-55.2000;0.4501;0.9913;
-54.9000;0.4485;0.9890;
-54.6000;0.4510;0.9960;
-54.3000;0.4485;0.9890;
-54.0000;0.4501;0.9983;
-53.7000;0.4453;0.9936;
-53.4000;0.4477;0.9913;
-53.1000;0.4493;0.9960;
-52.8000;0.4493;1.0053;
-52.5000;0.4477;1.0123;
-52.2000;0.4453;1.0100;
-51.9000;0.4501;1.0146;
-51.6000;0.4542;1.0240;
-51.3000;0.4534;1.0146;
-51.0000;0.4461;0.9983;
-50.7000;0.4461;1.0053;
-50.4000;0.4469;1.0123;
-50.1000;0.4477;1.0100;
-49.8000;0.4469;1.0053;
-49.5000;0.4469;1.0193;
-49.2000;0.4412;1.0053;
-48.9000;0.4485;1.0146;
-48.6000;0.4453;1.0076;
-48.3000;0.4485;1.0123;
-48.0000;0.4469;0.9960;
-47.7000;0.4526;1.0123;
-47.4000;0.4477;0.9936;
-47.1000;0.4461;0.9866;
-46.8000;0.4469;1.0006;
-46.5000;0.4485;0.9936;
-46.2000;0.4477;0.9890;
-45.9000;0.4485;0.9960;
-45.6000;0.4542;1.0076;
-45.3000;0.4469;0.9866;
-45.0000;0.4485;0.9913;
-44.7000;0.4485;0.9960;
-44.4000;0.4510;1.0076;
-44.1000;0.4420;0.9820;
-43.8000;0.4485;0.9983;
-43.5000;0.4493;1.0053;
-43.2000;0.4510;1.0100;
-42.9000;0.4477;1.0030;
-42.6000;0.4501;0.9983;
-42.3000;0.4485;0.9983;
-42.0000;0.4469;0.9983;
-41.7000;0.4469;1.0053;
-41.4000;0.4461;1.0030;
-41.1000;0.4469;1.0076;
-40.8000;0.4526;1.0170;
-40.5000;0.4477;1.0006;
-40.2000;0.4453;1.0006;
-39.9000;0.4469;1.0193;
-39.6000;0.4485;1.0216;
-39.3000;0.4469;1.0216;
-39.0000;0.4493;1.0240;
-38.7000;0.4469;1.0170;
-38.4000;0.4461;1.0193;
-38.1000;0.4461;1.0286;
-37.8000;0.4469;1.0263;
-37.5000;0.4444;1.0216;
-37.2000;0.4526;1.0403;
-36.9000;0.4501;1.0286;
-36.6000;0.4477;1.0263;
-36.3000;0.4461;1.0263;
-36.0000;0.4477;1.0333;
-35.7000;0.4477;1.0333;
-35.4000;0.4461;1.0170;
-35.1000;0.4469;1.0263;
-34.8000;0.4493;1.0333;
-34.5000;0.4485;1.0310;
-34.2000;0.4469;1.0170;
-33.9000;0.4461;1.0170;
-33.6000;0.4485;1.0263;
-33.3000;0.4501;1.0216;
-33.0000;0.4485;1.0216;
-32.7000;0.4485;1.0216;
-32.4000;0.4485;1.0263;
-32.1000;0.4485;1.0240;
-31.8000;0.4501;1.0286;
-31.5000;0.4493;1.0286;
-31.2000;0.4461;1.0240;
-30.9000;0.4461;1.0240;
-30.6000;0.4485;1.0240;
-30.3000;0.4461;1.0123;
-30.0000;0.4461;1.0100;
-29.7000;0.4477;1.0100;
-29.4000;0.4501;1.0170;
-29.1000;0.4461;1.0076;
-28.8000;0.4526;1.0286;
-28.5000;0.4493;1.0216;
-28.2000;0.4477;1.0263;
-27.9000;0.4518;1.0310;
-27.6000;0.4526;1.0263;
-27.3000;0.4510;1.0193;
-27.0000;0.4493;1.0100;
-26.7000;0.4453;0.9936;
-26.4000;0.4461;0.9936;
-26.1000;0.4510;1.0053;
-25.8000;0.4493;1.0006;
-25.5000;0.4510;1.0146;
-25.2000;0.4526;1.0076;
-24.9000;0.4477;0.9960;
-24.6000;0.4501;1.0030;
-24.3000;0.4510;1.0053;
-24.0000;0.4485;1.0006;
-23.7000;0.4542;1.0170;
-23.4000;0.4477;0.9983;
-23.1000;0.4493;1.0006;
-22.8000;0.4493;1.0053;
-22.5000;0.4477;1.0053;
-22.2000;0.4396;0.9843;
-21.9000;0.4485;1.0123;
-21.6000;0.4510;1.0216;
-21.3000;0.4567;1.0356;
-21.0000;0.4485;1.0100;
-20.7000;0.4550;1.0240;
-20.4000;0.4444;0.9936;
-20.1000;0.4461;0.9866;
-19.8000;0.4518;0.9983;
-19.5000;0.4477;0.9913;
-19.2000;0.4461;0.9890;
-18.9000;0.4453;0.9866;
-18.6000;0.4477;0.9960;
-18.3000;0.4453;0.9983;
-18.0000;0.4501;1.0146;
-17.7000;0.4469;1.0006;
-17.4000;0.4469;0.9983;
-17.1000;0.4485;1.0030;
-16.8000;0.4453;1.0030;
-16.5000;0.4485;1.0100;
-16.2000;0.4461;1.0123;
-15.9000;0.4461;1.0100;
-15.6000;0.4493;1.0146;
-15.3000;0.4493;1.0170;
-15.0000;0.4461;1.0030;
-14.7000;0.4477;1.0053;
-14.4000;0.4477;0.9983;
-14.1000;0.4485;1.0053;
-13.8000;0.4477;1.0053;
-13.5000;0.4428;0.9936;
-13.2000;0.4428;0.9890;
-12.9000;0.4477;1.0123;
-12.6000;0.4477;0.9960;
-12.3000;0.4461;0.9843;
-12.0000;0.4518;0.9983;
-11.7000;0.4477;0.9913;
-11.4000;0.4477;0.9936;
-11.1000;0.4469;0.9936;
-10.8000;0.4469;0.9843;
-10.5000;0.4493;0.9960;
-10.2000;0.4485;0.9983;
-9.9000;0.4485;1.0146;
-9.6000;0.4477;1.0100;
-9.3000;0.4493;1.0030;
-9.0000;0.4510;1.0100;
-8.7000;0.4485;1.0100;
-8.4000;0.4485;1.0123;
-8.1000;0.4493;1.0193;
-7.8000;0.4469;1.0146;
-7.5000;0.4444;1.0053;
-7.2000;0.4461;1.0030;
-6.9000;0.4477;1.0053;
-6.6000;0.4477;1.0123;
-6.3000;0.4493;1.0170;
-6.0000;0.4461;1.0076;
-5.7000;0.4493;1.0123;
-5.4000;0.4461;1.0170;
-5.1000;0.4510;1.0216;
-4.8000;0.4485;1.0240;
-4.5000;0.4501;1.0286;
-4.2000;0.4412;1.0076;
-3.9000;0.4493;1.0170;
-3.6000;0.4510;1.0146;
-3.3000;0.4493;1.0053;
-3.0000;0.4510;1.0053;
-2.7000;0.4469;0.9983;
-2.4000;0.4485;1.0053;
-2.1000;0.4485;1.0123;
-1.8000;0.4420;1.0006;
-1.5000;0.4477;1.0123;
-1.2000;0.4477;1.0100;
-0.9000;0.4453;1.0006;
-0.6000;0.4428;0.9913;
-0.3000;0.4444;0.9936;
0.0000;0.4444;0.9936;
0.3000;0.4485;0.9633;
0.6000;0.4444;0.9796;
0.9000;0.4518;1.0170;
1.2000;0.4404;1.0216;
1.5000;0.4420;1.0403;
1.8000;0.4379;1.0380;
2.1000;0.4436;1.0566;
2.4000;0.4330;1.0403;
2.7000;0.4436;1.0776;
3.0000;0.4387;1.0776;
3.3000;0.4469;1.0986;
3.6000;0.4396;1.0869;
3.9000;0.4387;1.0916;
4.2000;0.4396;1.0916;
4.5000;0.4396;1.0939;
4.8000;0.4290;1.0613;
5.1000;0.4371;1.0846;
5.4000;0.4371;1.0893;
5.7000;0.4387;1.0916;
6.0000;0.4371;1.0893;
6.3000;0.4387;1.0916;
6.6000;0.4396;1.1009;
6.9000;0.4379;1.1079;
7.2000;0.4396;1.1103;
7.5000;0.4379;1.1056;
7.8000;0.4396;1.1079;
8.1000;0.4387;1.0963;
8.4000;0.4396;1.0939;
8.7000;0.4428;1.1009;
9.0000;0.4396;1.1056;
9.3000;0.4396;1.1126;
9.6000;0.4347;1.1009;
9.9000;0.4404;1.1126;
10.2000;0.4396;1.1079;
10.5000;0.4396;1.1126;
10.8000;0.4412;1.1219;
11.1000;0.4387;1.1266;
11.4000;0.4396;1.1312;
11.7000;0.4444;1.1289;
12.0000;0.4396;1.1126;
12.3000;0.4420;1.1196;
12.6000;0.4420;1.1173;
12.9000;0.4404;1.1126;
13.2000;0.4404;1.1149;
13.5000;0.4412;1.1219;
13.8000;0.4412;1.1336;
14.1000;0.4387;1.1266;
14.4000;0.4396;1.1382;
14.7000;0.4404;1.1359;
15.0000;0.4396;1.1406;
15.3000;0.4436;1.1522;
15.6000;0.4428;1.1499;
15.9000;0.4396;1.1452;
16.2000;0.4363;1.1289;
16.5000;0.4404;1.1359;
16.8000;0.4412;1.1266;
17.1000;0.4444;1.1289;
17.4000;0.4412;1.1173;
17.7000;0.4387;1.1103;
18.0000;0.4428;1.1243;
18.3000;0.4428;1.1243;
18.6000;0.4428;1.1312;
18.9000;0.4444;1.1382;
19.2000;0.4420;1.1243;
19.5000;0.4412;1.1173;
19.8000;0.4420;1.1149;
20.1000;0.4428;1.1173;
20.4000;0.4412;1.1149;
20.7000;0.4404;1.1149;
21.0000;0.4412;1.1243;
21.3000;0.4428;1.1243;
21.6000;0.4420;1.1219;
21.9000;0.4436;1.1243;
22.2000;0.4444;1.1196;
22.5000;0.4428;1.1103;
22.8000;0.4534;1.1336;
23.1000;0.4412;1.1033;
23.4000;0.4379;1.0986;
23.7000;0.4420;1.1079;
24.0000;0.4444;1.1149;
24.3000;0.4412;1.1079;
24.6000;0.4412;1.1056;
24.9000;0.4412;1.0986;
25.2000;0.4428;1.0963;
25.5000;0.4436;1.0986;
25.8000;0.4436;1.0986;
26.1000;0.4420;1.1009;
26.4000;0.4420;1.1149;
26.7000;0.4412;1.1173;
27.0000;0.4420;1.1149;
27.3000;0.4420;1.1219;
27.6000;0.4436;1.1266;
27.9000;0.4371;1.1149;
28.2000;0.4436;1.1289;
28.5000;0.4436;1.1289;
28.8000;0.4444;1.1243;
29.1000;0.4501;1.1452;
29.4000;0.4436;1.1173;
29.7000;0.4412;1.1266;
30.0000;0.4436;1.1336;
30.3000;0.4436;1.1289;
30.6000;0.4420;1.1196;
30.9000;0.4420;1.1173;
31.2000;0.4412;1.1126;
31.5000;0.4436;1.1126;
31.8000;0.4420;1.1173;
32.1000;0.4404;1.1173;
32.4000;0.4412;1.1266;
32.7000;0.4420;1.1312;
33.0000;0.4436;1.1336;
33.3000;0.4428;1.1289;
33.6000;0.4428;1.1266;
33.9000;0.4526;1.1616;
34.2000;0.4444;1.1382;
34.5000;0.4436;1.1359;
34.8000;0.4428;1.1312;
35.1000;0.4420;1.1382;
35.4000;0.4444;1.1359;
35.7000;0.4436;1.1406;
36.0000;0.4493;1.1569;
36.3000;0.4428;1.1406;
36.6000;0.4453;1.1359;
36.9000;0.4461;1.1429;
37.2000;0.4453;1.1406;
37.5000;0.4444;1.1382;
37.8000;0.4469;1.1382;
38.1000;0.4510;1.1429;
38.4000;0.4444;1.1312;
38.7000;0.4444;1.1266;
39.0000;0.4444;1.1289;
39.3000;0.4436;1.1336;
39.6000;0.4444;1.1382;
39.9000;0.4412;1.1406;
40.2000;0.4420;1.1499;
40.5000;0.4428;1.1429;
40.8000;0.4444;1.1452;
41.1000;0.4444;1.1406;
41.4000;0.4518;1.1592;
41.7000;0.4453;1.1359;
42.0000;0.4436;1.1336;
42.3000;0.4436;1.1289;
42.6000;0.4485;1.1336;
42.9000;0.4453;1.1219;
43.2000;0.4436;1.1149;
43.5000;0.4330;1.0939;
43.8000;0.4428;1.1336;
44.1000;0.4436;1.1359;
44.4000;0.4436;1.1336;
44.7000;0.4436;1.1359;
45.0000;0.4444;1.1382;
45.3000;0.4453;1.1429;
45.6000;0.4428;1.1382;
45.9000;0.4444;1.1429;
46.2000;0.4444;1.1382;
46.5000;0.4436;1.1359;
46.8000;0.4396;1.1312;
47.1000;0.4469;1.1429;
47.4000;0.4436;1.1312;
47.7000;0.4453;1.1312;
48.0000;0.4453;1.1336;
48.3000;0.4444;1.1336;
48.6000;0.4453;1.1336;
48.9000;0.4461;1.1359;
49.2000;0.4404;1.1243;
49.5000;0.4436;1.1289;
49.8000;0.4461;1.1243;
50.1000;0.4453;1.1196;
50.4000;0.4453;1.1266;
50.7000;0.4453;1.1359;
51.0000;0.4461;1.1359;
51.3000;0.4444;1.1336;
51.6000;0.4428;1.1243;
51.9000;0.4510;1.1429;
52.2000;0.4436;1.1312;
52.5000;0.4444;1.1312;
52.8000;0.4444;1.1289;
53.1000;0.4461;1.1336;
53.4000;0.4469;1.1406;
53.7000;0.4485;1.1406;
54.0000;0.4436;1.1312;
54.3000;0.4436;1.1266;
54.6000;0.4453;1.1359;
54.9000;0.4428;1.1243;
55.2000;0.4396;1.1079;
55.5000;0.4469;1.1312;
55.8000;0.4444;1.1359;
56.1000;0.4428;1.1429;
56.4000;0.4444;1.1382;
56.7000;0.4436;1.1289;
57.0000;0.4453;1.1243;
57.3000;0.4469;1.1289;
57.6000;0.4420;1.1266;
57.9000;0.4444;1.1359;
58.2000;0.4444;1.1382;
58.5000;0.4436;1.1406;
58.8000;0.4444;1.1406;
59.1000;0.4453;1.1452;
59.4000;0.4461;1.1429;
59.7000;0.4444;1.1406;
60.0000;0.4461;1.1476;
60.3000;0.4510;1.1592;
60.6000;0.4453;1.1452;
60.9000;0.4526;1.1522;
61.2000;0.4453;1.1336;
61.5000;0.4461;1.1336;
61.8000;0.4436;1.1289;
62.1000;0.4493;1.1429;
62.4000;0.4485;1.1476;
62.7000;0.4428;1.1312;
63.0000;0.4461;1.1289;
63.3000;0.4436;1.1312;
63.6000;0.4428;1.1312;
63.9000;0.4444;1.1359;
64.2000;0.4428;1.1336;
64.5000;0.4444;1.1429;
64.8000;0.4501;1.1616;
65.1000;0.4453;1.1569;
65.4000;0.4469;1.1592;
65.7000;0.4396;1.1429;
66.0000;0.4453;1.1452;
66.3000;0.4428;1.1289;
66.6000;0.4428;1.1382;
66.9000;0.4436;1.1406;
67.2000;0.4428;1.1382;
67.5000;0.4404;1.1336;
67.8000;0.4469;1.1452;
68.1000;0.4428;1.1289;
68.4000;0.4461;1.1382;
68.7000;0.4420;1.1336;
69.0000;0.4444;1.1406;
69.3000;0.4461;1.1452;
69.6000;0.4501;1.1499;
69.9000;0.4510;1.1499;
70.2000;0.4444;1.1336;
70.5000;0.4461;1.1429;
70.8000;0.4444;1.1406;
71.1000;0.4461;1.1452;
71.4000;0.4453;1.1289;
71.7000;0.4453;1.1289;
72.0000;0.4453;1.1219;
72.3000;0.4453;1.1196;
72.6000;0.4444;1.1243;
72.9000;0.4501;1.1452;
73.2000;0.4436;1.1359;
73.5000;0.4461;1.1452;
73.8000;0.4469;1.1429;
74.1000;0.4461;1.1522;
74.4000;0.4444;1.1546;
74.7000;0.4461;1.1522;
75.0000;0.4453;1.1476;
75.3000;0.4477;1.1499;
75.6000;0.4436;1.1312;
75.9000;0.4436;1.1382;
76.2000;0.4453;1.1359;
76.5000;0.4461;1.1406;
76.8000;0.4444;1.1359;
77.1000;0.4469;1.1382;
77.4000;0.4461;1.1359;
77.7000;0.4453;1.1336;
78.0000;0.4444;1.1429;
78.3000;0.4444;1.1382;
78.6000;0.4518;1.1499;
78.9000;0.4444;1.1289;
79.2000;0.4453;1.1289;
79.5000;0.4404;1.1196;
79.8000;0.4436;1.1289;
80.1000;0.4453;1.1336;
80.4000;0.4444;1.1336;
80.7000;0.4453;1.1266;
81.0000;0.4436;1.1289;
81.3000;0.4436;1.1336;
81.6000;0.4444;1.1406;
81.9000;0.4436;1.1429;
82.2000;0.4436;1.1429;
82.5000;0.4420;1.1359;
82.8000;0.4469;1.1359;
83.1000;0.4420;1.1266;
83.4000;0.4444;1.1382;
83.7000;0.4461;1.1406;
84.0000;0.4444;1.1452;
84.3000;0.4501;1.1592;
84.6000;0.4420;1.1452;
84.9000;0.4461;1.1522;
85.2000;0.4444;1.1476;
85.5000;0.4485;1.1662;
85.8000;0.4412;1.1522;
86.1000;0.4436;1.1452;
86.4000;0.4453;1.1522;
86.7000;0.4444;1.1452;
87.0000;0.4436;1.1359;
87.3000;0.4453;1.1406;
87.6000;0.4461;1.1336;
87.9000;0.4436;1.1336;
88.2000;0.4444;1.1312;
88.5000;0.4461;1.1336;
88.8000;0.4444;1.1336;
89.1000;0.4436;1.1312;
89.4000;0.4444;1.1452;
89.7000;0.4444;1.1359;
90.0000;0.4477;1.1359;
90.3000;0.4501;1.1406;
90.6000;0.4453;1.1382;
90.9000;0.4485;1.1452;
91.2000;0.4477;1.1476;
91.5000;0.4444;1.1452;
91.8000;0.4379;1.1406;
92.1000;0.4534;1.1756;
92.4000;0.4493;1.1569;
92.7000;0.4412;1.1336;
93.0000;0.4444;1.1406;
93.3000;0.4428;1.1382;
93.6000;0.4453;1.1382;
93.9000;0.4453;1.1406;
94.2000;0.4493;1.1406;
94.5000;0.4444;1.1266;
94.8000;0.4469;1.1289;
95.1000;0.4461;1.1219;
95.4000;0.4420;1.1126;
95.7000;0.4436;1.1149;
96.0000;0.4461;1.1312;
96.3000;0.4444;1.1243;
96.6000;0.4453;1.1382;
96.9000;0.4453;1.1429;
97.2000;0.4444;1.1452;
97.5000;0.4453;1.1406;
97.8000;0.4453;1.1382;
98.1000;0.4436;1.1359;
98.4000;0.4453;1.1289;
98.7000;0.4444;1.1312;
99.0000;0.4444;1.1243;
99.3000;0.4436;1.1219;
99.6000;0.4444;1.1243;
99.9000;0.4469;1.1266;
100.2000;0.4444;1.1196;
100.5000;0.4461;1.1266;
100.8000;0.4453;1.1429;
101.1000;0.4453;1.1406;
101.4000;0.4444;1.1359;
101.7000;0.4477;1.1429;
102.0000;0.4493;1.1476;
102.3000;0.4436;1.1312;
102.6000;0.4436;1.1266;
102.9000;0.4436;1.1312;
103.2000;0.4453;1.1452;
103.5000;0.4428;1.1382;
103.8000;0.4444;1.1429;
104.1000;0.4453;1.1429;
104.4000;0.4469;1.1476;
104.7000;0.4444;1.1406;
105.0000;0.4436;1.1382;
105.3000;0.4453;1.1359;
105.6000;0.4461;1.1312;
105.9000;0.4436;1.1289;
106.2000;0.4453;1.1289;
106.5000;0.4444;1.1149;
106.8000;0.4444;1.1149;
107.1000;0.4461;1.1243;
107.4000;0.4453;1.1336;
107.7000;0.4461;1.1289;
108.0000;0.4477;1.1289;
108.3000;0.4461;1.1312;
108.6000;0.4469;1.1382;
108.9000;0.4461;1.1382;
109.2000;0.4469;1.1476;
109.5000;0.4469;1.1452;
109.8000;0.4461;1.1406;
110.1000;0.4461;1.1382;
110.4000;0.4428;1.1406;
110.7000;0.4485;1.1546;
111.0000;0.4453;1.1382;
111.3000;0.4453;1.1266;
111.6000;0.4444;1.1243;
111.9000;0.4428;1.1149;
112.2000;0.4453;1.1173;
112.5000;0.4461;1.1173;
112.8000;0.4444;1.1103;
113.1000;0.4461;1.1243;
113.4000;0.4461;1.1243;
113.7000;0.4428;1.1219;
114.0000;0.4428;1.1149;
114.3000;0.4461;1.1289;
114.6000;0.4469;1.1219;
114.9000;0.4444;1.1196;
115.2000;0.4485;1.1266;
115.5000;0.4453;1.1196;
115.8000;0.4461;1.1336;
116.1000;0.4477;1.1429;
116.4000;0.4444;1.1359;
116.7000;0.4436;1.1336;
117.0000;0.4518;1.1522;
117.3000;0.4453;1.1359;
117.6000;0.4453;1.1359;
117.9000;0.4469;1.1406;
118.2000;0.4444;1.1336;
118.5000;0.4453;1.1312;
118.8000;0.4396;1.1289;
119.1000;0.4444;1.1382;
119.4000;0.4396;1.1243;
119.7000;0.4461;1.1312;
120.0000;0.4469;1.1266;
120.3000;0.4453;1.1266;
120.6000;0.4444;1.1219;
120.9000;0.4469;1.1406;
121.2000;0.4461;1.1289;
121.5000;0.4444;1.1266;
121.8000;0.4444;1.1289;
122.1000;0.4461;1.1429;
122.4000;0.4444;1.1429;
122.7000;0.4436;1.1429;
123.0000;0.4461;1.1429;
123.3000;0.4444;1.1382;
123.6000;0.4444;1.1406;
123.9000;0.4461;1.1499;
124.2000;0.4453;1.1406;
124.5000;0.4453;1.1359;
124.8000;0.4461;1.1382;
125.1000;0.4453;1.1452;
125.4000;0.4453;1.1476;
125.7000;0.4469;1.1499;
126.0000;0.4453;1.1359;
126.3000;0.4444;1.1312;
126.6000;0.4444;1.1406;
126.9000;0.4444;1.1406;
127.2000;0.4461;1.1429;
127.5000;0.4444;1.1243;
127.8000;0.4444;1.1312;
128.1000;0.4396;1.1173;
128.4000;0.4444;1.1173;
128.7000;0.4461;1.1126;
129.0000;0.4436;1.1126;
129.3000;0.4428;1.1196;
129.6000;0.4436;1.1219;
129.9000;0.4436;1.1219;
130.2000;0.4453;1.1243;
130.5000;0.4428;1.1243;
130.8000;0.4453;1.1312;
131.1000;0.4501;1.1452;
131.4000;0.4453;1.1406;
131.7000;0.4444;1.1382;
132.0000;0.4453;1.1452;
132.3000;0.4461;1.1452;
132.6000;0.4461;1.1429;
132.9000;0.4453;1.1336;
133.2000;0.4461;1.1336;
133.5000;0.4444;1.1312;
133.8000;0.4461;1.1522;
134.1000;0.4542;1.1756;
134.4000;0.4453;1.1476;
134.7000;0.4453;1.1429;
135.0000;0.4477;1.1522;
135.3000;0.4453;1.1406;
135.6000;0.4387;1.1219;
135.9000;0.4453;1.1289;
136.2000;0.4461;1.1289;
136.5000;0.4436;1.1336;
136.8000;0.4436;1.1429;
137.1000;0.4363;1.1289;
137.4000;0.4461;1.1452;
137.7000;0.4453;1.1476;
138.0000;0.4436;1.1429;
138.3000;0.4436;1.1406;
138.6000;0.4444;1.1476;
138.9000;0.4453;1.1476;
139.2000;0.4436;1.1382;
139.5000;0.4444;1.1382;
139.8000;0.4453;1.1452;
140.1000;0.4404;1.1336;
140.4000;0.4444;1.1382;
140.7000;0.4444;1.1382;
141.0000;0.4444;1.1429;
141.3000;0.4436;1.1522;
141.6000;0.4453;1.1616;
141.9000;0.4436;1.1522;
142.2000;0.4363;1.1336;
142.5000;0.4444;1.1499;
142.8000;0.4436;1.1499;
143.1000;0.4453;1.1476;
143.4000;0.4444;1.1429;
143.7000;0.4428;1.1406;
144.0000;0.4444;1.1452;
144.3000;0.4444;1.1476;
144.6000;0.4444;1.1452;
144.9000;0.4363;1.1173;
145.2000;0.4461;1.1476;
145.5000;0.4436;1.1452;
145.8000;0.4436;1.1382;
146.1000;0.4453;1.1336;
146.4000;0.4453;1.1289;
146.7000;0.4412;1.1243;
147.0000;0.4453;1.1359;
147.3000;0.4453;1.1406;
147.6000;0.4436;1.1429;
147.9000;0.4436;1.1476;
148.2000;0.4436;1.1476;
148.5000;0.4436;1.1499;
148.8000;0.4444;1.1476;
149.1000;0.4501;1.1522;
149.4000;0.4444;1.1476;
149.7000;0.4469;1.1616;
150.0000;0.4444;1.1522;
150.3000;0.4436;1.1522;
150.6000;0.4477;1.1592;
150.9000;0.4453;1.1499;
151.2000;0.4436;1.1499;
151.5000;0.4461;1.1476;
151.8000;0.4477;1.1499;
152.1000;0.4485;1.1522;
152.4000;0.4453;1.1499;
152.7000;0.4453;1.1546;
153.0000;0.4420;1.1499;
153.3000;0.4444;1.1429;
153.6000;0.4453;1.1429;
153.9000;0.4453;1.1359;
154.2000;0.4461;1.1312;
154.5000;0.4461;1.1289;
154.8000;0.4453;1.1266;
155.1000;0.4453;1.1359;
155.4000;0.4469;1.1406;
155.7000;0.4461;1.1359;
156.0000;0.4436;1.1289;
156.3000;0.4510;1.1406;
156.6000;0.4461;1.1476;
156.9000;0.4461;1.1452;
157.2000;0.4461;1.1406;
157.5000;0.4436;1.1359;
157.8000;0.4453;1.1359;
158.1000;0.4420;1.1382;
158.4000;0.4428;1.1382;
158.7000;0.4436;1.1406;
159.0000;0.4444;1.1452;
159.3000;0.4453;1.1336;
159.6000;0.4469;1.1289;
159.9000;0.4453;1.1266;
160.2000;0.4461;1.1266;
160.5000;0.4461;1.1336;
160.8000;0.4420;1.1266;
161.1000;0.4493;1.1476;
161.4000;0.4436;1.1406;
161.7000;0.4420;1.1382;
162.0000;0.4436;1.1522;
162.3000;0.4412;1.1406;
162.6000;0.4453;1.1569;
162.9000;0.4510;1.1732;
163.2000;0.4453;1.1546;
163.5000;0.4453;1.1522;
163.8000;0.4428;1.1452;
164.1000;0.4453;1.1499;
164.4000;0.4444;1.1452;
164.7000;0.4444;1.1406;
165.0000;0.4428;1.1289;
165.3000;0.4493;1.1406;
165.6000;0.4436;1.1312;
165.9000;0.4453;1.1243;
166.2000;0.4330;1.1056;
166.5000;0.4428;1.1266;
166.8000;0.4510;1.1382;
167.1000;0.4420;1.1173;
167.4000;0.4444;1.1196;
167.7000;0.4444;1.1196;
168.0000;0.4420;1.1126;
168.3000;0.4436;1.1173;
168.6000;0.4444;1.1196;
168.9000;0.4453;1.1243;
169.2000;0.4436;1.1173;
169.5000;0.4469;1.1173;
169.8000;0.4469;1.1126;
170.1000;0.4461;1.1126;
170.4000;0.4461;1.1173;
170.7000;0.4477;1.1289;
171.0000;0.4436;1.1243;
171.3000;0.4436;1.1219;
171.6000;0.4453;1.1243;
171.9000;0.4436;1.1219;
172.2000;0.4469;1.1336;
172.5000;0.4485;1.1382;
172.8000;0.4444;1.1336;
173.1000;0.4436;1.1266;
173.4000;0.4461;1.1196;
173.7000;0.4428;1.1196;
174.0000;0.4444;1.1266;
174.3000;0.4444;1.1289;
174.6000;0.4420;1.1312;
174.9000;0.4444;1.1289;
175.2000;0.4444;1.1243;
175.5000;0.4412;1.1243;
175.8000;0.4461;1.1312;
176.1000;0.4444;1.1382;
176.4000;0.4444;1.1312;
176.7000;0.4444;1.1196;
177.0000;0.4461;1.1243;
177.3000;0.4461;1.1266;
177.6000;0.4420;1.1173;
177.9000;0.4485;1.1312;
178.2000;0.4444;1.1219;
178.5000;0.4453;1.1312;
178.8000;0.4444;1.1266;
179.1000;0.4518;1.1476;
179.4000;0.4436;1.1289;
179.7000;0.4453;1.1312;
180.0000;0.4444;1.1359;
180.3000;0.4436;1.1429;
180.6000;0.4387;1.1266;
180.9000;0.4444;1.1312;
181.2000;0.4493;1.1452;
181.5000;0.4444;1.1336;
181.8000;0.4453;1.1219;
182.1000;0.4526;1.1429;
182.4000;0.4453;1.1289;
182.7000;0.4436;1.1219;
183.0000;0.4453;1.1266;
183.3000;0.4461;1.1429;
183.6000;0.4518;1.1662;
183.9000;0.4453;1.1429;
184.2000;0.4436;1.1336;
184.5000;0.4444;1.1336;
184.8000;0.4444;1.1336;
185.1000;0.4469;1.1382;
185.4000;0.4420;1.1289;
185.7000;0.4453;1.1382;
186.0000;0.4477;1.1382;
186.3000;0.4510;1.1406;
186.6000;0.4461;1.1289;
186.9000;0.4444;1.1126;
187.2000;0.4493;1.1266;
187.5000;0.4469;1.1219;
187.8000;0.4436;1.1219;
188.1000;0.4453;1.1219;
188.4000;0.4493;1.1289;
188.7000;0.4453;1.1196;
189.0000;0.4379;1.1033;
189.3000;0.4453;1.1266;
189.6000;0.4436;1.1266;
189.9000;0.4412;1.1266;
190.2000;0.4428;1.1312;
190.5000;0.4436;1.1243;
190.8000;0.4453;1.1336;
191.1000;0.4444;1.1219;
191.4000;0.4453;1.1219;
191.7000;0.4404;1.1056;
192.0000;0.4428;1.1149;
192.3000;0.4436;1.1149;
192.6000;0.4412;1.1173;
192.9000;0.4444;1.1336;
193.2000;0.4444;1.1312;
193.5000;0.4420;1.1266;
193.8000;0.4444;1.1359;
194.1000;0.4444;1.1406;
194.4000;0.4436;1.1382;
194.7000;0.4444;1.1452;
195.0000;0.4428;1.1406;
195.3000;0.4436;1.1406;
195.6000;0.4436;1.1382;
195.9000;0.4436;1.1359;
196.2000;0.4436;1.1429;
196.5000;0.4436;1.1406;
196.8000;0.4453;1.1429;
197.1000;0.4404;1.1243;
197.4000;0.4453;1.1289;
197.7000;0.4453;1.1336;
198.0000;0.4444;1.1336;
198.3000;0.4453;1.1429;
198.6000;0.4501;1.1522;
198.9000;0.4428;1.1359;
199.2000;0.4436;1.1312;
199.5000;0.4436;1.1359;
199.8000;0.4436;1.1312;
200.1000;0.4493;1.1452;
200.4000;0.4444;1.1406;
200.7000;0.4542;1.1756;
201.0000;0.4428;1.1569;
201.3000;0.4412;1.1452;
201.6000;0.4436;1.1476;
201.9000;0.4428;1.1429;
202.2000;0.4428;1.1336;
202.5000;0.4550;1.1592;
202.8000;0.4428;1.1219;
203.1000;0.4444;1.1289;
203.4000;0.4436;1.1336;
203.7000;0.4453;1.1429;
204.0000;0.4379;1.1196;
204.3000;0.4387;1.1243;
204.6000;0.4444;1.1452;
204.9000;0.4453;1.1476;
205.2000;0.4444;1.1382;
205.5000;0.4387;1.1219;
205.8000;0.4453;1.1243;
206.1000;0.4379;1.1173;
206.4000;0.4461;1.1429;
206.7000;0.4493;1.1546;
207.0000;0.4436;1.1359;
207.3000;0.4461;1.1452;
207.6000;0.4428;1.1359;
207.9000;0.4436;1.1382;
208.2000;0.4428;1.1382;
208.5000;0.4420;1.1266;
208.8000;0.4436;1.1219;
209.1000;0.4436;1.1149;
209.4000;0.4436;1.1196;
209.7000;0.4461;1.1336;
210.0000;0.4420;1.1289;
210.3000;0.4444;1.1429;
210.6000;0.4436;1.1359;
210.9000;0.4436;1.1266;
211.2000;0.4493;1.1452;
211.5000;0.4453;1.1336;
211.8000;0.4461;1.1452;
212.1000;0.4461;1.1452;
212.4000;0.4314;1.1126;
212.7000;0.4396;1.1243;
213.0000;0.4444;1.1336;
213.3000;0.4453;1.1429;
213.6000;0.4444;1.1382;
213.9000;0.4436;1.1336;
214.2000;0.4493;1.1406;
214.5000;0.4444;1.1312;
214.8000;0.4444;1.1312;
215.1000;0.4428;1.1382;
215.4000;0.4453;1.1476;
215.7000;0.4469;1.1429;
216.0000;0.4444;1.1336;
216.3000;0.4428;1.1312;
216.6000;0.4453;1.1336;
216.9000;0.4436;1.1289;
217.2000;0.4453;1.1312;
217.5000;0.4444;1.1312;
217.8000;0.4453;1.1359;
218.1000;0.4436;1.1289;
218.4000;0.4436;1.1173;
218.7000;0.4493;1.1289;
219.0000;0.4404;1.1079;
219.3000;0.4444;1.1173;
219.6000;0.4461;1.1196;
219.9000;0.4444;1.1196;
220.2000;0.4428;1.1079;
220.5000;0.4469;1.1219;
220.8000;0.4420;1.1103;
221.1000;0.4436;1.1173;
221.4000;0.4436;1.1266;
221.7000;0.4444;1.1219;
222.0000;0.4436;1.1173;
222.3000;0.4477;1.1243;
222.6000;0.4436;1.1173;
222.9000;0.4444;1.1219;
223.2000;0.4461;1.1266;
223.5000;0.4428;1.1149;
223.8000;0.4453;1.1243;
224.1000;0.4436;1.1173;
224.4000;0.4436;1.1312;
224.7000;0.4404;1.1312;
225.0000;0.4444;1.1499;
225.3000;0.4420;1.1499;
225.6000;0.4436;1.1499;
225.9000;0.4436;1.1406;
226.2000;0.4436;1.1289;
226.5000;0.4428;1.1219;
226.8000;0.4453;1.1243;
227.1000;0.4436;1.1126;
227.4000;0.4485;1.1312;
227.7000;0.4469;1.1406;
228.0000;0.4453;1.1452;
228.3000;0.4436;1.1476;
228.6000;0.4510;1.1522;
228.9000;0.4420;1.1312;
229.2000;0.4428;1.1336;
229.5000;0.4436;1.1429;
229.8000;0.4436;1.1382;
230.1000;0.4436;1.1429;
230.4000;0.4412;1.1336;
230.7000;0.4428;1.1289;
231.0000;0.4412;1.1312;
231.3000;0.4428;1.1312;
231.6000;0.4404;1.1219;
231.9000;0.4461;1.1266;
232.2000;0.4428;1.1126;
232.5000;0.4428;1.1033;
232.8000;0.4412;1.0986;
233.1000;0.4444;1.0963;
233.4000;0.4444;1.0963;
233.7000;0.4436;1.0986;
234.0000;0.4444;1.1009;
234.3000;0.4501;1.1056;
234.6000;0.4444;1.0963;
234.9000;0.4339;1.0799;
235.2000;0.4436;1.1103;
235.5000;0.4420;1.1103;
235.8000;0.4493;1.1219;
236.1000;0.4453;1.1079;
236.4000;0.4436;1.0986;
236.7000;0.4444;1.1079;
237.0000;0.4477;1.1173;
237.3000;0.4436;1.1009;
237.6000;0.4444;1.1009;
237.9000;0.4469;1.1173;
238.2000;0.4420;1.1079;
238.5000;0.4436;1.1033;
238.8000;0.4453;1.0963;
239.1000;0.4493;1.1126;
239.4000;0.4428;1.0986;
239.7000;0.4453;1.1056;
240.0000;0.4444;1.1009;
240.3000;0.4436;1.1056;
240.6000;0.4444;1.1056;
240.9000;0.4436;1.1103;
241.2000;0.4444;1.1149;
241.5000;0.4469;1.1149;
241.8000;0.4469;1.1196;
242.1000;0.4420;1.1103;
242.4000;0.4444;1.1219;
242.7000;0.4477;1.1266;
243.0000;0.4396;1.1103;
243.3000;0.4420;1.1173;
243.6000;0.4444;1.1126;
243.9000;0.4453;1.1149;
244.2000;0.4428;1.1126;
244.5000;0.4387;1.0986;
244.8000;0.4436;1.1103;
245.1000;0.4453;1.1103;
245.4000;0.4444;1.1056;
245.7000;0.4420;1.1079;
246.0000;0.4444;1.1103;
246.3000;0.4461;1.1033;
246.6000;0.4428;1.0986;
246.9000;0.4396;1.0963;
247.2000;0.4461;1.1103;
247.5000;0.4444;1.1173;
247.8000;0.4461;1.1266;
248.1000;0.4387;1.1126;
248.4000;0.4453;1.1312;
248.7000;0.4567;1.1592;
249.0000;0.4453;1.1266;
249.3000;0.4420;1.1243;
249.6000;0.4461;1.1243;
249.9000;0.4485;1.1266;
250.2000;0.4379;1.1033;
250.5000;0.4510;1.1382;
250.8000;0.4444;1.1173;
251.1000;0.4420;1.1056;
251.4000;0.4420;1.1079;
251.7000;0.4469;1.1219;
252.0000;0.4371;1.1033;
252.3000;0.4444;1.1126;
252.6000;0.4428;1.1103;
252.9000;0.4444;1.1196;
253.2000;0.4428;1.1196;
253.5000;0.4436;1.1243;
253.8000;0.4396;1.1266;
254.1000;0.4404;1.1266;
254.4000;0.4428;1.1289;
254.7000;0.4469;1.1289;
255.0000;0.4501;1.1336;
255.3000;0.4444;1.1149;
255.6000;0.4428;1.1056;
255.9000;0.4453;1.1173;
256.2000;0.4428;1.1056;
256.5000;0.4453;1.1196;
256.8000;0.4436;1.1196;
257.1000;0.4444;1.1196;
257.4000;0.4404;1.1243;
257.7000;0.4444;1.1336;
258.0000;0.4428;1.1266;
258.3000;0.4444;1.1149;
258.6000;0.4436;1.1103;
258.9000;0.4444;1.1033;
259.2000;0.4444;1.1009;
259.5000;0.4453;1.1033;
259.8000;0.4453;1.1033;
260.1000;0.4469;1.1149;
260.4000;0.4436;1.1173;
260.7000;0.4436;1.1149;
261.0000;0.4444;1.1079;
261.3000;0.4436;1.1126;
261.6000;0.4420;1.1103;
261.9000;0.4444;1.1173;
262.2000;0.4453;1.1219;
262.5000;0.4436;1.1266;
262.8000;0.4428;1.1289;
263.1000;0.4485;1.1476;
263.4000;0.4412;1.1266;
263.7000;0.4404;1.1243;
264.0000;0.4444;1.1359;
264.3000;0.4428;1.1219;
264.6000;0.4420;1.1173;
264.9000;0.4453;1.1149;
265.2000;0.4428;1.1056;
265.5000;0.4396;1.0986;
265.8000;0.4526;1.1359;
266.1000;0.4510;1.1382;
266.4000;0.4428;1.1173;
266.7000;0.4444;1.1219;
267.0000;0.4444;1.1243;
267.3000;0.4404;1.1243;
267.6000;0.4396;1.1126;
267.9000;0.4444;1.1173;
268.2000;0.4428;1.1079;
268.5000;0.4420;1.1149;
268.8000;0.4436;1.1219;
269.1000;0.4436;1.1196;
269.4000;0.4428;1.1219;
269.7000;0.4420;1.1312;
270.0000;0.4420;1.1289;
270.3000;0.4428;1.1243;
270.6000;0.4444;1.1173;
270.9000;0.4436;1.1103;
271.2000;0.4428;1.1103;
271.5000;0.4420;1.1173;
271.8000;0.4453;1.1173;
272.1000;0.4444;1.1103;
272.4000;0.4420;1.1126;
272.7000;0.4436;1.1149;
273.0000;0.4453;1.1126;
273.3000;0.4444;1.1126;
273.6000;0.4444;1.1219;
273.9000;0.4436;1.1266;
274.2000;0.4461;1.1406;
274.5000;0.4444;1.1382;
274.8000;0.4436;1.1359;
275.1000;0.4436;1.1243;
275.4000;0.4453;1.1312;
275.7000;0.4412;1.1103;
276.0000;0.4436;1.1149;
276.3000;0.4436;1.1103;
276.6000;0.4436;1.1079;
276.9000;0.4404;1.1033;
277.2000;0.4436;1.1009;
277.5000;0.4404;1.1033;
277.8000;0.4444;1.1103;
278.1000;0.4436;1.1149;
278.4000;0.4461;1.1149;
278.7000;0.4428;1.1149;
279.0000;0.4420;1.1126;
279.3000;0.4412;1.1126;
279.6000;0.4436;1.1126;
279.9000;0.4428;1.1009;
280.2000;0.4404;1.0986;
280.5000;0.4436;1.1103;
280.8000;0.4436;1.1103;
281.1000;0.4436;1.1056;
281.4000;0.4379;1.0916;
281.7000;0.4444;1.1126;
282.0000;0.4420;1.1149;
282.3000;0.4436;1.1243;
282.6000;0.4404;1.1243;
282.9000;0.4436;1.1266;
283.2000;0.4428;1.1173;
283.5000;0.4436;1.1079;
283.8000;0.4396;1.1079;
284.1000;0.4412;1.1103;
284.4000;0.4404;1.0939;
284.7000;0.4461;1.1103;
285.0000;0.4436;1.1126;
285.3000;0.4542;1.1359;
285.6000;0.4444;1.1196;
285.9000;0.4477;1.1289;
286.2000;0.4444;1.1126;
286.5000;0.4436;1.1103;
286.8000;0.4444;1.1173;
287.1000;0.4461;1.1196;
287.4000;0.4453;1.1243;
287.7000;0.4444;1.1266;
288.0000;0.4526;1.1359;
288.3000;0.4436;1.1196;
288.6000;0.4444;1.1196;
288.9000;0.4453;1.1196;
289.2000;0.4444;1.1336;
289.5000;0.4477;1.1476;
289.8000;0.4428;1.1382;
290.1000;0.4412;1.1336;
290.4000;0.4444;1.1452;
290.7000;0.4453;1.1429;
291.0000;0.4444;1.1452;
291.3000;0.4428;1.1452;
291.6000;0.4428;1.1382;
291.9000;0.4436;1.1359;
292.2000;0.4428;1.1289;
292.5000;0.4387;1.1149;
292.8000;0.4436;1.1266;
293.1000;0.4428;1.1243;
293.4000;0.4436;1.1266;
293.7000;0.4428;1.1312;
294.0000;0.4436;1.1359;
294.3000;0.4428;1.1336;
294.6000;0.4436;1.1336;
294.9000;0.4298;1.0963;
295.2000;0.4420;1.1196;
295.5000;0.4412;1.1243;
295.8000;0.4444;1.1243;
296.1000;0.4436;1.1243;
296.4000;0.4436;1.1312;
296.7000;0.4461;1.1406;
297.0000;0.4420;1.1336;
297.3000;0.4428;1.1243;
297.6000;0.4444;1.1196;
297.9000;0.4453;1.1149;
298.2000;0.4436;1.1149;
298.5000;0.4444;1.1219;
298.8000;0.4428;1.1219;
299.1000;0.4428;1.1196;
299.4000;0.4428;1.1173;
299.7000;0.4436;1.1266;
300.0000;0.4436;1.1243;
300.3000;0.4404;1.1103;
300.6000;0.4453;1.1266;
300.9000;0.4420;1.1312;
301.2000;0.4428;1.1312;
301.5000;0.4444;1.1336;
301.8000;0.4420;1.1289;
302.1000;0.4444;1.1359;
302.4000;0.4412;1.1266;
302.7000;0.4428;1.1289;
303.0000;0.4412;1.1289;
303.3000;0.4428;1.1219;
303.6000;0.4428;1.1243;
303.9000;0.4428;1.1219;
304.2000;0.4469;1.1243;
304.5000;0.4428;1.1173;
304.8000;0.4355;1.0916;
305.1000;0.4453;1.1149;
305.4000;0.4461;1.1126;
305.7000;0.4396;1.1009;
306.0000;0.4436;1.1009;
306.3000;0.4510;1.1243;
306.6000;0.4444;1.1079;
306.9000;0.4428;1.1126;
307.2000;0.4428;1.1103;
307.5000;0.4412;1.1126;
307.8000;0.4444;1.1219;
308.1000;0.4412;1.1056;
308.4000;0.4436;1.1056;
308.7000;0.4493;1.1196;
309.0000;0.4436;1.1009;
309.3000;0.4436;1.0963;
309.6000;0.4436;1.0963;
309.9000;0.4453;1.1033;
310.2000;0.4428;1.1033;
310.5000;0.4436;1.1056;
310.8000;0.4412;1.1056;
311.1000;0.4428;1.1079;
311.4000;0.4436;1.1033;
311.7000;0.4404;1.1009;
312.0000;0.4428;1.1126;
312.3000;0.4436;1.1219;
312.6000;0.4444;1.1359;
312.9000;0.4420;1.1289;
313.2000;0.4428;1.1196;
313.5000;0.4436;1.1243;
313.8000;0.4428;1.1196;
314.1000;0.4444;1.1266;
314.4000;0.4436;1.1359;
314.7000;0.4453;1.1429;
315.0000;0.4436;1.1406;
315.3000;0.4461;1.1336;
315.6000;0.4412;1.1289;
315.9000;0.4436;1.1359;
316.2000;0.4412;1.1312;
316.5000;0.4444;1.1382;
316.8000;0.4420;1.1336;
317.1000;0.4420;1.1429;
317.4000;0.4420;1.1406;
317.7000;0.4436;1.1522;
318.0000;0.4420;1.1476;
318.3000;0.4436;1.1452;
318.6000;0.4428;1.1476;
318.9000;0.4428;1.1569;
319.2000;0.4436;1.1616;
319.5000;0.4420;1.1452;
319.8000;0.4420;1.1429;
320.1000;0.4412;1.1382;
320.4000;0.4363;1.1149;
320.7000;0.4420;1.1219;
321.0000;0.4436;1.1429;
321.3000;0.4461;1.1452;
321.6000;0.4436;1.1476;
321.9000;0.4412;1.1336;
322.2000;0.4485;1.1452;
322.5000;0.4396;1.1173;
322.8000;0.4436;1.1219;
323.1000;0.4428;1.1173;
323.4000;0.4420;1.1196;
323.7000;0.4420;1.1196;
324.0000;0.4379;1.1079;
324.3000;0.4444;1.1243;
324.6000;0.4420;1.1173;
324.9000;0.4379;1.1126;
325.2000;0.4428;1.1289;
325.5000;0.4461;1.1406;
325.8000;0.4412;1.1289;
326.1000;0.4428;1.1312;
326.4000;0.4420;1.1312;
326.7000;0.4428;1.1336;
327.0000;0.4379;1.1219;
327.3000;0.4420;1.1266;
327.6000;0.4444;1.1289;
327.9000;0.4428;1.1266;
328.2000;0.4412;1.1219;
328.5000;0.4412;1.1173;
328.8000;0.4428;1.1219;
329.1000;0.4428;1.1312;
329.4000;0.4444;1.1429;
329.7000;0.4436;1.1452;
330.0000;0.4469;1.1452;
330.3000;0.4444;1.1266;
330.6000;0.4461;1.1173;
330.9000;0.4436;1.1149;
331.2000;0.4436;1.1056;
331.5000;0.4444;1.1149;
331.8000;0.4420;1.1173;
332.1000;0.4412;1.1219;
332.4000;0.4420;1.1173;
332.7000;0.4444;1.1126;
333.0000;0.4428;1.1149;
333.3000;0.4436;1.1196;
333.6000;0.4428;1.1079;
333.9000;0.4477;1.1173;
334.2000;0.4436;1.1103;
334.5000;0.4428;1.1079;
334.8000;0.4428;1.1103;
335.1000;0.4412;1.1103;
335.4000;0.4428;1.1173;
335.7000;0.4477;1.1312;
336.0000;0.4453;1.1289;
336.3000;0.4428;1.1289;
336.6000;0.4444;1.1266;
336.9000;0.4453;1.1382;
337.2000;0.4436;1.1382;
337.5000;0.4412;1.1219;
337.8000;0.4371;1.1126;
338.1000;0.4306;1.1103;
338.4000;0.4428;1.1312;
338.7000;0.4379;1.1173;
339.0000;0.4420;1.1219;
339.3000;0.4436;1.1289;
339.6000;0.4428;1.1196;
339.9000;0.4436;1.1219;
340.2000;0.4420;1.1126;
340.5000;0.4404;1.1196;
340.8000;0.4436;1.1289;
341.1000;0.4550;1.1522;
341.4000;0.4436;1.1266;
341.7000;0.4428;1.1266;
342.0000;0.4387;1.1149;
342.3000;0.4461;1.1266;
342.6000;0.4444;1.1219;
342.9000;0.4453;1.1312;
343.2000;0.4420;1.1219;
343.5000;0.4461;1.1336;
343.8000;0.4379;1.1009;
344.1000;0.4477;1.1336;
344.4000;0.4363;1.1103;
344.7000;0.4428;1.1289;
345.0000;0.4420;1.1289;
345.3000;0.4436;1.1336;
345.6000;0.4436;1.1382;
345.9000;0.4501;1.1569;
346.2000;0.4420;1.1429;
346.5000;0.4428;1.1406;
346.8000;0.4420;1.1359;
347.1000;0.4510;1.1639;
347.4000;0.4420;1.1406;
347.7000;0.4420;1.1359;
348.0000;0.4428;1.1382;
348.3000;0.4412;1.1429;
348.6000;0.4420;1.1359;
348.9000;0.4396;1.1289;
349.2000;0.4404;1.1312;
349.5000;0.4428;1.1266;
349.8000;0.4347;1.1033;
350.1000;0.4436;1.1312;
350.4000;0.4420;1.1289;
350.7000;0.4428;1.1312;
351.0000;0.4436;1.1312;
351.3000;0.4436;1.1266;
351.6000;0.4477;1.1382;
351.9000;0.4436;1.1266;
352.2000;0.4428;1.1359;
352.5000;0.4436;1.1312;
352.8000;0.4493;1.1452;
353.1000;0.4420;1.1289;
353.4000;0.4420;1.1312;
353.7000;0.4436;1.1336;
354.0000;0.4436;1.1149;
354.3000;0.4436;1.1149;
354.6000;0.4444;1.1173;
354.9000;0.4436;1.1196;
355.2000;0.4428;1.1196;
355.5000;0.4420;1.1243;
355.8000;0.4436;1.1359;
356.1000;0.4428;1.1406;
356.4000;0.4436;1.1406;
356.7000;0.4420;1.1359;
357.0000;0.4444;1.1429;
357.3000;0.4428;1.1499;
357.6000;0.4387;1.1382;
357.9000;0.4444;1.1522;
358.2000;0.4412;1.1452;
358.5000;0.4469;1.1546;
358.8000;0.4428;1.1359;
359.1000;0.4428;1.1266;
359.4000;0.4428;1.1312;
359.7000;0.4428;1.1289;
360.0000;0.4469;1.1382;
360.3000;0.4420;1.1312;
360.6000;0.4436;1.1382;
360.9000;0.4396;1.1359;
361.2000;0.4420;1.1359;
361.5000;0.4420;1.1312;
361.8000;0.4428;1.1359;
362.1000;0.4412;1.1266;
362.4000;0.4453;1.1266;
362.7000;0.4428;1.1173;
363.0000;0.4428;1.1219;
363.3000;0.4412;1.1243;
363.6000;0.4412;1.1219;
363.9000;0.4420;1.1149;
364.2000;0.4428;1.1219;
364.5000;0.4436;1.1196;
364.8000;0.4444;1.1149;
365.1000;0.4444;1.1149;
365.4000;0.4428;1.1289;
365.7000;0.4412;1.1266;
366.0000;0.4453;1.1382;
366.3000;0.4444;1.1406;
366.6000;0.4436;1.1406;
366.9000;0.4428;1.1429;
367.2000;0.4436;1.1476;
367.5000;0.4420;1.1382;
367.8000;0.4428;1.1336;
368.1000;0.4444;1.1243;
368.4000;0.4420;1.1103;
368.7000;0.4428;1.1196;
369.0000;0.4436;1.1196;
369.3000;0.4436;1.1149;
369.6000;0.4428;1.1126;
369.9000;0.4428;1.1149;
370.2000;0.4396;1.1103;
370.5000;0.4444;1.1149;
370.8000;0.4420;1.1126;
371.1000;0.4420;1.1173;
371.4000;0.4436;1.1126;
371.7000;0.4436;1.1266;
372.0000;0.4436;1.1219;
372.3000;0.4420;1.1126;
372.6000;0.4444;1.1126;
372.9000;0.4420;1.1149;
373.2000;0.4428;1.1243;
373.5000;0.4428;1.1289;
373.8000;0.4453;1.1406;
374.1000;0.4444;1.1336;
374.4000;0.4420;1.1289;
374.7000;0.4330;1.1056;
375.0000;0.4412;1.1219;
375.3000;0.4444;1.1219;
375.6000;0.4436;1.1219;
375.9000;0.4477;1.1312;
376.2000;0.4428;1.1266;
376.5000;0.4420;1.1243;
376.8000;0.4436;1.1243;
377.1000;0.4436;1.1173;
377.4000;0.4485;1.1126;
377.7000;0.4436;1.0916;
378.0000;0.4453;1.1009;
378.3000;0.4436;1.1033;
378.6000;0.4428;1.1009;
378.9000;0.4363;1.0939;
379.2000;0.4436;1.1173;
379.5000;0.4428;1.1126;
379.8000;0.4404;1.1126;
380.1000;0.4453;1.1312;
380.4000;0.4444;1.1289;
380.7000;0.4444;1.1359;
381.0000;0.4453;1.1406;
381.3000;0.4444;1.1382;
381.6000;0.4461;1.1312;
381.9000;0.4493;1.1359;
382.2000;0.4396;1.1149;
382.5000;0.4444;1.1243;
382.8000;0.4453;1.1312;
383.1000;0.4477;1.1406;
383.4000;0.4428;1.1359;
383.7000;0.4363;1.1149;
384.0000;0.4428;1.1382;
384.3000;0.4420;1.1336;
384.6000;0.4412;1.1312;
384.9000;0.4436;1.1289;
385.2000;0.4412;1.1173;
385.5000;0.4412;1.1219;
385.8000;0.4485;1.1382;
386.1000;0.4428;1.1126;
386.4000;0.4428;1.1056;
386.7000;0.4461;1.1149;
387.0000;0.4469;1.1173;
387.3000;0.4461;1.1173;
387.6000;0.4436;1.1103;
387.9000;0.4444;1.1149;
388.2000;0.4453;1.1126;
388.5000;0.4412;1.1033;
388.8000;0.4461;1.1079;
389.1000;0.4428;1.1056;
389.4000;0.4420;1.1079;
389.7000;0.4412;1.1103;
390.0000;0.4444;1.1196;
390.3000;0.4428;1.1149;
390.6000;0.4428;1.1173;
390.9000;0.4436;1.1243;
391.2000;0.4444;1.1266;
391.5000;0.4428;1.1289;
391.8000;0.4444;1.1196;
392.1000;0.4420;1.1103;
392.4000;0.4444;1.1103;
392.7000;0.4493;1.1196;
393.0000;0.4371;1.0986;
393.3000;0.4477;1.1243;
393.6000;0.4428;1.1149;
393.9000;0.4444;1.1196;
394.2000;0.4461;1.1289;
394.5000;0.4461;1.1289;
394.8000;0.4444;1.1289;
395.1000;0.4436;1.1289;
395.4000;0.4428;1.1312;
395.7000;0.4371;1.1219;
396.0000;0.4436;1.1429;
396.3000;0.4396;1.1359;
396.6000;0.4436;1.1522;
396.9000;0.4453;1.1616;
397.2000;0.4444;1.1546;
397.5000;0.4420;1.1499;
397.8000;0.4453;1.1499;
398.1000;0.4428;1.1359;
398.4000;0.4485;1.1546;
398.7000;0.4412;1.1336;
399.0000;0.4428;1.1336;
399.3000;0.4412;1.1266;
399.6000;0.4428;1.1289;
399.9000;0.4485;1.1336;
400.2000;0.4428;1.1266;
400.5000;0.4428;1.1312;
400.8000;0.4436;1.1336;
401.1000;0.4420;1.1173;
401.4000;0.4412;1.1103;
401.7000;0.4387;1.1033;
402.0000;0.4453;1.1173;
402.3000;0.4436;1.1219;
402.6000;0.4461;1.1312;
402.9000;0.4436;1.1359;
403.2000;0.4444;1.1382;
403.5000;0.4436;1.1452;
403.8000;0.4420;1.1499;
404.1000;0.4387;1.1382;
404.4000;0.4444;1.1429;
404.7000;0.4420;1.1336;
405.0000;0.4428;1.1429;
405.3000;0.4412;1.1312;
405.6000;0.4436;1.1336;
405.9000;0.4436;1.1336;
406.2000;0.4428;1.1312;
406.5000;0.4428;1.1336;
406.8000;0.4412;1.1336;
407.1000;0.4371;1.1219;
407.4000;0.4428;1.1312;
407.7000;0.4412;1.1289;
408.0000;0.4428;1.1312;
408.3000;0.4436;1.1359;
408.6000;0.4428;1.1382;
408.9000;0.4420;1.1499;
409.2000;0.4453;1.1592;
409.5000;0.4461;1.1499;
409.8000;0.4436;1.1429;
410.1000;0.4436;1.1359;
410.4000;0.4436;1.1382;
410.7000;0.4428;1.1406;
411.0000;0.4436;1.1382;
411.3000;0.4453;1.1406;
411.6000;0.4412;1.1289;
411.9000;0.4436;1.1429;
412.2000;0.4428;1.1452;
412.5000;0.4428;1.1452;
412.8000;0.4428;1.1429;
413.1000;0.4420;1.1406;
413.4000;0.4469;1.1452;
413.7000;0.4420;1.1289;
414.0000;0.4412;1.1289;
414.3000;0.4347;1.1173;
414.6000;0.4477;1.1499;
414.9000;0.4436;1.1476;
415.2000;0.4436;1.1382;
415.5000;0.4436;1.1336;
415.8000;0.4436;1.1243;
416.1000;0.4330;1.0869;
416.4000;0.4453;1.1173;
416.7000;0.4347;1.0823;
417.0000;0.4428;1.1009;
417.3000;0.4550;1.1336;
417.6000;0.4444;1.1103;
417.9000;0.4412;1.1103;
418.2000;0.4436;1.1196;
418.5000;0.4436;1.1243;
418.8000;0.4510;1.1522;
419.1000;0.4404;1.1336;
419.4000;0.4469;1.1406;
419.7000;0.4412;1.1359;
420.0000;0.4436;1.1406;
420.3000;0.4396;1.1243;
420.6000;0.4485;1.1452;
420.9000;0.4428;1.1359;
421.2000;0.4428;1.1312;
421.5000;0.4412;1.1266;
421.8000;0.4518;1.1522;
422.1000;0.4412;1.1312;
422.4000;0.4436;1.1312;
422.7000;0.4428;1.1219;
423.0000;0.4444;1.1266;
423.3000;0.4387;1.1173;
423.6000;0.4428;1.1336;
423.9000;0.4444;1.1452;
424.2000;0.4412;1.1243;
424.5000;0.4428;1.1219;
424.8000;0.4436;1.1196;
425.1000;0.4412;1.1173;
425.4000;0.4453;1.1196;
425.7000;0.4436;1.1219;
426.0000;0.4420;1.1289;
426.3000;0.4412;1.1312;
426.6000;0.4428;1.1266;
426.9000;0.4412;1.1219;
427.2000;0.4412;1.1219;
427.5000;0.4428;1.1266;
427.8000;0.4444;1.1312;
428.1000;0.4420;1.1289;
428.4000;0.4404;1.1289;
428.7000;0.4396;1.1149;
429.0000;0.4428;1.1336;
429.3000;0.4436;1.1406;
429.6000;0.4469;1.1546;
429.9000;0.4412;1.1406;
430.2000;0.4379;1.1452;
430.5000;0.4412;1.1546;
430.8000;0.4412;1.1499;
431.1000;0.4444;1.1569;
431.4000;0.4453;1.1546;
431.7000;0.4428;1.1452;
432.0000;0.4420;1.1476;
432.3000;0.4420;1.1569;
432.6000;0.4412;1.1476;
432.9000;0.4444;1.1546;
433.2000;0.4420;1.1429;
433.5000;0.4444;1.1452;
433.8000;0.4444;1.1429;
434.1000;0.4436;1.1476;
434.4000;0.4428;1.1429;
434.7000;0.4420;1.1359;
435.0000;0.4387;1.1359;
435.3000;0.4469;1.1546;
435.6000;0.4420;1.1359;
435.9000;0.4428;1.1359;
436.2000;0.4355;1.1126;
436.5000;0.4420;1.1266;
436.8000;0.4412;1.1219;
437.1000;0.4412;1.1126;
437.4000;0.4420;1.1056;
437.7000;0.4396;1.1009;
438.0000;0.4518;1.1359;
438.3000;0.4396;1.1126;
438.6000;0.4436;1.1196;
438.9000;0.4453;1.1196;
439.2000;0.4396;1.1056;
439.5000;0.4379;1.1033;
439.8000;0.4412;1.1149;
440.1000;0.4428;1.1126;
440.4000;0.4444;1.1219;
440.7000;0.4420;1.1173;
441.0000;0.4404;1.1079;
441.3000;0.4485;1.1312;
441.6000;0.4461;1.1289;
441.9000;0.4412;1.1149;
442.2000;0.4412;1.1196;
442.5000;0.4412;1.1196;
442.8000;0.4477;1.1359;
443.1000;0.4420;1.1266;
443.4000;0.4420;1.1382;
443.7000;0.4387;1.1359;
444.0000;0.4428;1.1312;
444.3000;0.4412;1.1219;
444.6000;0.4396;1.1219;
444.9000;0.4428;1.1289;
445.2000;0.4428;1.1196;
445.5000;0.4428;1.1243;
445.8000;0.4412;1.1266;
446.1000;0.4420;1.1196;
446.4000;0.4436;1.1266;
446.7000;0.4428;1.1243;
447.0000;0.4436;1.1289;
447.3000;0.4412;1.1289;
447.6000;0.4387;1.1196;
447.9000;0.4428;1.1289;
448.2000;0.4461;1.1406;
448.5000;0.4428;1.1476;
448.8000;0.4412;1.1406;
449.1000;0.4428;1.1406;
449.4000;0.4428;1.1336;
449.7000;0.4420;1.1359;
450.0000;0.4436;1.1382;
450.3000;0.4436;1.1266;
450.6000;0.4444;1.1336;
450.9000;0.4436;1.1289;
451.2000;0.4412;1.1243;
451.5000;0.4420;1.1312;
451.8000;0.4363;1.1219;
452.1000;0.4396;1.1266;
452.4000;0.4420;1.1406;
452.7000;0.4404;1.1359;
453.0000;0.4428;1.1336;
453.3000;0.4444;1.1382;
453.6000;0.4420;1.1336;
453.9000;0.4412;1.1336;
454.2000;0.4420;1.1406;
454.5000;0.4444;1.1336;
454.8000;0.4420;1.1219;
455.1000;0.4420;1.1312;
455.4000;0.4428;1.1382;
455.7000;0.4379;1.1266;
456.0000;0.4420;1.1312;
456.3000;0.4420;1.1289;
456.6000;0.4444;1.1289;
456.9000;0.4428;1.1219;
457.2000;0.4428;1.1196;
457.5000;0.4412;1.1173;
457.8000;0.4436;1.1243;
458.1000;0.4396;1.1079;
458.4000;0.4453;1.1173;
458.7000;0.4436;1.1173;
459.0000;0.4485;1.1312;
459.3000;0.4363;1.1103;
459.6000;0.4469;1.1336;
459.9000;0.4436;1.1243;
460.2000;0.4420;1.1149;
460.5000;0.4420;1.1126;
460.8000;0.4428;1.1149;
461.1000;0.4436;1.1219;
461.4000;0.4420;1.1243;
461.7000;0.4469;1.1359;
462.0000;0.4461;1.1336;
462.3000;0.4412;1.1336;
462.6000;0.4428;1.1336;
462.9000;0.4420;1.1312;
463.2000;0.4436;1.1359;
463.5000;0.4420;1.1336;
463.8000;0.4412;1.1266;
464.1000;0.4387;1.1149;
464.4000;0.4428;1.1219;
464.7000;0.4412;1.1103;
465.0000;0.4412;1.1056;
465.3000;0.4428;1.1126;
465.6000;0.4420;1.1243;
465.9000;0.4412;1.1312;
466.2000;0.4420;1.1289;
466.5000;0.4428;1.1289;
466.8000;0.4420;1.1312;
467.1000;0.4428;1.1312;
467.4000;0.4412;1.1336;
467.7000;0.4428;1.1266;
468.0000;0.4420;1.1056;
468.3000;0.4444;1.1009;
468.6000;0.4428;1.1009;
468.9000;0.4420;1.1056;
469.2000;0.4420;1.1056;
469.5000;0.4428;1.1149;
469.8000;0.4436;1.1149;
470.1000;0.4436;1.1149;
470.4000;0.4436;1.1266;
470.7000;0.4428;1.1196;
471.0000;0.4436;1.1126;
471.3000;0.4428;1.1103;
471.6000;0.4453;1.1196;
471.9000;0.4412;1.1219;
472.2000;0.4453;1.1289;
472.5000;0.4420;1.1289;
472.8000;0.4420;1.1266;
473.1000;0.4412;1.1359;
473.4000;0.4436;1.1382;
473.7000;0.4469;1.1476;
474.0000;0.4461;1.1406;
474.3000;0.4428;1.1336;
474.6000;0.4404;1.1312;
474.9000;0.4428;1.1382;
475.2000;0.4404;1.1243;
475.5000;0.4404;1.1126;
475.8000;0.4428;1.1196;
476.1000;0.4420;1.1126;
476.4000;0.4428;1.1196;
476.7000;0.4412;1.1103;
477.0000;0.4428;1.1126;
477.3000;0.4428;1.1079;
477.6000;0.4461;1.1103;
477.9000;0.4428;1.1033;
478.2000;0.4404;1.0963;
478.5000;0.4412;1.0939;
478.8000;0.4428;1.1033;
479.1000;0.4428;1.1033;
479.4000;0.4436;1.1103;
479.7000;0.4453;1.1173;
480.0000;0.4420;1.1079;
480.3000;0.4428;1.1079;
480.6000;0.4420;1.1149;
480.9000;0.4420;1.1196;
481.2000;0.4444;1.1196;
481.5000;0.4420;1.1149;
481.8000;0.4461;1.1312;
482.1000;0.4412;1.1243;
482.4000;0.4420;1.1266;
482.7000;0.4404;1.1219;
483.0000;0.4420;1.1149;
483.3000;0.4461;1.1312;
483.6000;0.4412;1.1196;
483.9000;0.4444;1.1289;
484.2000;0.4420;1.1289;
484.5000;0.4404;1.1266;
484.8000;0.4428;1.1312;
485.1000;0.4396;1.1266;
485.4000;0.4412;1.1312;
485.7000;0.4412;1.1336;
486.0000;0.4404;1.1312;
486.3000;0.4412;1.1336;
486.6000;0.4396;1.1243;
486.9000;0.4420;1.1149;
487.2000;0.4404;1.1173;
487.5000;0.4428;1.1243;
487.8000;0.4428;1.1243;
488.1000;0.4420;1.1196;
488.4000;0.4412;1.1173;
488.7000;0.4404;1.1219;
489.0000;0.4379;1.1126;
489.3000;0.4436;1.1126;
489.6000;0.4420;1.1173;
489.9000;0.4428;1.1173;
490.2000;0.4444;1.1173;
490.5000;0.4436;1.1173;
490.8000;0.4428;1.1243;
491.1000;0.4412;1.1243;
491.4000;0.4436;1.1406;
491.7000;0.4428;1.1406;
492.0000;0.4412;1.1429;
492.3000;0.4428;1.1476;
492.6000;0.4412;1.1452;
492.9000;0.4412;1.1382;
493.2000;0.4428;1.1336;
493.5000;0.4404;1.1289;
493.8000;0.4428;1.1406;
494.1000;0.4420;1.1359;
494.4000;0.4420;1.1312;
494.7000;0.4444;1.1312;
495.0000;0.4420;1.1429;
495.3000;0.4436;1.1359;
495.6000;0.4396;1.1219;
495.9000;0.4339;1.0986;
496.2000;0.4461;1.1312;
496.5000;0.4428;1.1289;
496.8000;0.4436;1.1289;
497.1000;0.4412;1.1312;
497.4000;0.4412;1.1312;
497.7000;0.4420;1.1312;
498.0000;0.4420;1.1219;
498.3000;0.4371;1.1056;
498.6000;0.4314;1.0986;
498.9000;0.4428;1.1196;
499.2000;0.4371;1.1103;
499.5000;0.4412;1.1266;
499.8000;0.4428;1.1336;
500.1000;0.4404;1.1289;
500.4000;0.4436;1.1359;
500.7000;0.4542;1.1686;
501.0000;0.4420;1.1429;
501.3000;0.4420;1.1406;
501.6000;0.4428;1.1429;
501.9000;0.4363;1.1219;
502.2000;0.4420;1.1406;
502.5000;0.4396;1.1312;
502.8000;0.4412;1.1312;
503.1000;0.4412;1.1266;
503.4000;0.4453;1.1336;
503.7000;0.4412;1.1336;
504.0000;0.4387;1.1266;
504.3000;0.4412;1.1336;
504.6000;0.4436;1.1312;
504.9000;0.4420;1.1266;
505.2000;0.4428;1.1382;
505.5000;0.4436;1.1382;
505.8000;0.4428;1.1266;
506.1000;0.4330;1.1033;
506.4000;0.4412;1.1219;
506.7000;0.4420;1.1266;
507.0000;0.4420;1.1219;
507.3000;0.4469;1.1312;
507.6000;0.4404;1.1173;
507.9000;0.4412;1.1243;
508.2000;0.4420;1.1243;
508.5000;0.4412;1.1173;
508.8000;0.4428;1.1173;
509.1000;0.4420;1.1079;
509.4000;0.4363;1.0986;
509.7000;0.4428;1.1219;
510.0000;0.4428;1.1289;
510.3000;0.4542;1.1546;
510.6000;0.4420;1.1289;
510.9000;0.4420;1.1336;
511.2000;0.4436;1.1312;
511.5000;0.4436;1.1289;
511.8000;0.4428;1.1312;
512.1000;0.4428;1.1382;
512.4000;0.4396;1.1429;
512.7000;0.4412;1.1429;
513.0000;0.4404;1.1359;
513.3000;0.4412;1.1359;
513.6000;0.4404;1.1382;
513.9000;0.4355;1.1359;
514.2000;0.4412;1.1429;
514.5000;0.4420;1.1359;
514.8000;0.4420;1.1312;
515.1000;0.4428;1.1406;
515.4000;0.4420;1.1382;
515.7000;0.4412;1.1406;
516.0000;0.4469;1.1522;
516.3000;0.4412;1.1406;
516.6000;0.4412;1.1429;
516.9000;0.4428;1.1382;
517.2000;0.4420;1.1382;
517.5000;0.4412;1.1336;
517.8000;0.4412;1.1312;
518.1000;0.4436;1.1266;
518.4000;0.4436;1.1149;
518.7000;0.4420;1.1126;
519.0000;0.4428;1.1219;
519.3000;0.4428;1.1266;
519.6000;0.4412;1.1336;
519.9000;0.4412;1.1359;
520.2000;0.4412;1.1476;
520.5000;0.4396;1.1476;
520.8000;0.4339;1.1336;
521.1000;0.4436;1.1592;
521.4000;0.4420;1.1522;
521.7000;0.4412;1.1406;
522.0000;0.4412;1.1406;
522.3000;0.4477;1.1662;
522.6000;0.4371;1.1429;
522.9000;0.4469;1.1616;
523.2000;0.4412;1.1406;
523.5000;0.4412;1.1406;
523.8000;0.4387;1.1336;
524.1000;0.4404;1.1406;
524.4000;0.4404;1.1452;
524.7000;0.4404;1.1452;
525.0000;0.4412;1.1452;
525.3000;0.4428;1.1406;
525.6000;0.4322;1.1126;
525.9000;0.4428;1.1312;
526.2000;0.4404;1.1312;
526.5000;0.4404;1.1312;
526.8000;0.4436;1.1336;
527.1000;0.4444;1.1382;
527.4000;0.4428;1.1382;
527.7000;0.4428;1.1382;
528.0000;0.4387;1.1359;
528.3000;0.4420;1.1499;
528.6000;0.4412;1.1499;
528.9000;0.4436;1.1616;
529.2000;0.4436;1.1592;
529.5000;0.4420;1.1546;
529.8000;0.4412;1.1522;
530.1000;0.4501;1.1709;
530.4000;0.4412;1.1546;
530.7000;0.4428;1.1592;
531.0000;0.4477;1.1686;
531.3000;0.4444;1.1662;
531.6000;0.4436;1.1522;
531.9000;0.4404;1.1592;
532.2000;0.4412;1.1616;
532.5000;0.4428;1.1686;
532.8000;0.4355;1.1546;
533.1000;0.4379;1.1476;
533.4000;0.4420;1.1499;
533.7000;0.4412;1.1522;
534.0000;0.4404;1.1522;
534.3000;0.4420;1.1569;
534.6000;0.4420;1.1499;
534.9000;0.4436;1.1476;
535.2000;0.4420;1.1499;
535.5000;0.4412;1.1429;
535.8000;0.4412;1.1382;
536.1000;0.4428;1.1429;
536.4000;0.4412;1.1522;
536.7000;0.4404;1.1476;
537.0000;0.4396;1.1546;
537.3000;0.4371;1.1452;
537.6000;0.4428;1.1452;
537.9000;0.4363;1.1312;
538.2000;0.4412;1.1289;
538.5000;0.4404;1.1243;
538.8000;0.4420;1.1219;
539.1000;0.4412;1.1312;
539.4000;0.4404;1.1312;
539.7000;0.4477;1.1476;
540.0000;0.4428;1.1336;
540.3000;0.4412;1.1336;
540.6000;0.4412;1.1429;
540.9000;0.4436;1.1406;
541.2000;0.4436;1.1312;
541.5000;0.4420;1.1336;
541.8000;0.4469;1.1429;
542.1000;0.4404;1.1289;
542.4000;0.4420;1.1289;
542.7000;0.4420;1.1312;
543.0000;0.4379;1.1196;
543.3000;0.4404;1.1266;
543.6000;0.4436;1.1336;
543.9000;0.4412;1.1382;
544.2000;0.4412;1.1476;
544.5000;0.4428;1.1429;
544.8000;0.4396;1.1382;
545.1000;0.4379;1.1266;
545.4000;0.4404;1.1289;
545.7000;0.4396;1.1243;
546.0000;0.4477;1.1406;
546.3000;0.4420;1.1382;
546.6000;0.4428;1.1382;
546.9000;0.4371;1.1266;
547.2000;0.4404;1.1359;
547.5000;0.4444;1.1476;
547.8000;0.4396;1.1382;
548.1000;0.4404;1.1312;
548.4000;0.4347;1.1149;
548.7000;0.4347;1.1149;
549.0000;0.4404;1.1312;
549.3000;0.4469;1.1382;
549.6000;0.4347;1.1103;
549.9000;0.4436;1.1289;
550.2000;0.4387;1.1173;
550.5000;0.4396;1.1219;
550.8000;0.4404;1.1312;
551.1000;0.4412;1.1336;
551.4000;0.4404;1.1406;
551.7000;0.4396;1.1476;
552.0000;0.4412;1.1499;
552.3000;0.4453;1.1499;
552.6000;0.4420;1.1359;
552.9000;0.4436;1.1476;
553.2000;0.4412;1.1406;
553.5000;0.4387;1.1429;
553.8000;0.4420;1.1406;
554.1000;0.4510;1.1569;
554.4000;0.4444;1.1359;
554.7000;0.4412;1.1312;
555.0000;0.4404;1.1359;
555.3000;0.4420;1.1406;
555.6000;0.4412;1.1289;
555.9000;0.4469;1.1382;
556.2000;0.4428;1.1243;
556.5000;0.4444;1.1289;
556.8000;0.4436;1.1359;
557.1000;0.4412;1.1336;
557.4000;0.4404;1.1312;
557.7000;0.4412;1.1336;
558.0000;0.4436;1.1359;
558.3000;0.4379;1.1173;
558.6000;0.4436;1.1289;
558.9000;0.4404;1.1336;
559.2000;0.4428;1.1266;
559.5000;0.4428;1.1219;
559.8000;0.4412;1.1289;
560.1000;0.4428;1.1289;
560.4000;0.4412;1.1312;
560.7000;0.4420;1.1382;
561.0000;0.4436;1.1452;
561.3000;0.4428;1.1406;
561.6000;0.4428;1.1382;
561.9000;0.4428;1.1476;
562.2000;0.4420;1.1522;
562.5000;0.4420;1.1522;
562.8000;0.4428;1.1592;
563.1000;0.4412;1.1359;
563.4000;0.4428;1.1312;
563.7000;0.4420;1.1382;
564.0000;0.4412;1.1359;
564.3000;0.4412;1.1266;
564.6000;0.4420;1.1243;
564.9000;0.4396;1.1243;
565.2000;0.4412;1.1289;
565.5000;0.4420;1.1243;
565.8000;0.4396;1.1219;
566.1000;0.4363;1.1173;
566.4000;0.4396;1.1312;
566.7000;0.4420;1.1429;
567.0000;0.4428;1.1406;
567.3000;0.4396;1.1289;
567.6000;0.4404;1.1196;
567.9000;0.4396;1.1126;
568.2000;0.4387;1.1149;
568.5000;0.4396;1.1126;
568.8000;0.4404;1.1266;
569.1000;0.4428;1.1289;
569.4000;0.4387;1.1289;
569.7000;0.4412;1.1336;
570.0000;0.4477;1.1476;
570.3000;0.4371;1.1243;
570.6000;0.4510;1.1546;
570.9000;0.4404;1.1266;
571.2000;0.4396;1.1289;
571.5000;0.4412;1.1336;
571.8000;0.4428;1.1406;
572.1000;0.4428;1.1429;
572.4000;0.4518;1.1616;
572.7000;0.4404;1.1312;
573.0000;0.4371;1.1312;
573.3000;0.4404;1.1476;
573.6000;0.4420;1.1569;
573.9000;0.4404;1.1452;
574.2000;0.4428;1.1452;
574.5000;0.4453;1.1499;
574.8000;0.4412;1.1452;
575.1000;0.4453;1.1639;
575.4000;0.4412;1.1452;
575.7000;0.4428;1.1406;
576.0000;0.4428;1.1452;
576.3000;0.4420;1.1312;
576.6000;0.4412;1.1312;
576.9000;0.4404;1.1289;
577.2000;0.4493;1.1382;
577.5000;0.4396;1.1079;
577.8000;0.4404;1.1103;
578.1000;0.4420;1.1103;
578.4000;0.4420;1.1126;
578.7000;0.4420;1.1196;
579.0000;0.4420;1.1173;
579.3000;0.4436;1.1173;
579.6000;0.4371;1.1103;
579.9000;0.4404;1.1266;
580.2000;0.4428;1.1406;
580.5000;0.4404;1.1243;
580.8000;0.4387;1.1173;
581.1000;0.4412;1.1219;
581.4000;0.4404;1.1196;
581.7000;0.4469;1.1359;
582.0000;0.4428;1.1243;
582.3000;0.4436;1.1243;
582.6000;0.4404;1.1196;
582.9000;0.4444;1.1336;
583.2000;0.4412;1.1266;
583.5000;0.4420;1.1336;
583.8000;0.4412;1.1289;
584.1000;0.4387;1.1219;
584.4000;0.4420;1.1289;
584.7000;0.4420;1.1312;
585.0000;0.4396;1.1243;
585.3000;0.4412;1.1196;
585.6000;0.4412;1.1173;
585.9000;0.4436;1.1173;
586.2000;0.4428;1.1173;
586.5000;0.4404;1.1196;
586.8000;0.4396;1.1196;
587.1000;0.4404;1.1196;
587.4000;0.4420;1.1196;
587.7000;0.4436;1.1196;
588.0000;0.4404;1.1196;
588.3000;0.4420;1.1219;
588.6000;0.4396;1.1219;
588.9000;0.4444;1.1336;
589.2000;0.4404;1.1289;
589.5000;0.4412;1.1266;
589.8000;0.4428;1.1266;
590.1000;0.4404;1.1243;
590.4000;0.4404;1.1243;
590.7000;0.4444;1.1219;
591.0000;0.4444;1.1312;
591.3000;0.4404;1.1219;
591.6000;0.4404;1.1149;
591.9000;0.4412;1.1126;
592.2000;0.4355;1.0986;
592.5000;0.4420;1.1056;
592.8000;0.4420;1.0963;
593.1000;0.4420;1.0963;
593.4000;0.4428;1.1009;
593.7000;0.4396;1.0916;
594.0000;0.4387;1.0986;
594.3000;0.4412;1.0986;
594.6000;0.4436;1.1009;
594.9000;0.4428;1.1056;
595.2000;0.4412;1.1009;
595.5000;0.4379;1.0869;
595.8000;0.4396;1.0916;
596.1000;0.4444;1.1033;
596.4000;0.4412;1.0916;
596.7000;0.4453;1.1033;
597.0000;0.4412;1.1056;
597.3000;0.4363;1.1103;
597.6000;0.4290;1.0916;
597.9000;0.4404;1.1289;
598.2000;0.4396;1.1173;
598.5000;0.4371;1.1149;
598.8000;0.4404;1.1266;
599.1000;0.4404;1.1289;
599.4000;0.4412;1.1289;
599.7000;0.4428;1.1312;
600.0000;0.4453;1.1429;
600.3000;0.4444;1.1266;
600.6000;0.4436;1.1149;
600.9000;0.4436;1.1079;
601.2000;0.4444;1.1033;
601.5000;0.4428;1.0939;
601.8000;0.4436;1.0799;
602.1000;0.4412;1.0613;
602.4000;0.4306;1.0333;
602.7000;0.4387;1.0426;
603.0000;0.4347;1.0240;
603.3000;0.4347;1.0216;
603.6000;0.4330;1.0146;
603.9000;0.4314;1.0076;
604.2000;0.4290;1.0030;
604.5000;0.4322;1.0076;
604.8000;0.4249;0.9796;
605.1000;0.4282;0.9960;
605.4000;0.4192;0.9796;
605.7000;0.4160;0.9796;
606.0000;0.4151;0.9773;
606.3000;0.4168;0.9820;
606.6000;0.4143;0.9773;
606.9000;0.4127;0.9750;
607.2000;0.4119;0.9866;
607.5000;0.4119;0.9936;
607.8000;0.4111;0.9913;
608.1000;0.4094;0.9890;
608.4000;0.4094;0.9843;
608.7000;0.4070;0.9843;
609.0000;0.4078;0.9866;
609.3000;0.4046;0.9773;
609.6000;0.4029;0.9726;
609.9000;0.4037;0.9703;
610.2000;0.4013;0.9703;
610.5000;0.4013;0.9633;
610.8000;0.3989;0.9493;
611.1000;0.3972;0.9493;
611.4000;0.4013;0.9656;
611.7000;0.3956;0.9493;
612.0000;0.3899;0.9447;
612.3000;0.3964;0.9516;
612.6000;0.3948;0.9447;
612.9000;0.3915;0.9423;
613.2000;0.3923;0.9470;
613.5000;0.3915;0.9493;
613.8000;0.3915;0.9493;
614.1000;0.3932;0.9540;
614.4000;0.3907;0.9400;
614.7000;0.3875;0.9400;
615.0000;0.3891;0.9447;
615.3000;0.3899;0.9470;
615.6000;0.3842;0.9423;
615.9000;0.3867;0.9493;
616.2000;0.3842;0.9447;
616.5000;0.3842;0.9447;
616.8000;0.3867;0.9423;
617.1000;0.3818;0.9237;
617.4000;0.3826;0.9307;
617.7000;0.3826;0.9237;
618.0000;0.3834;0.9330;
618.3000;0.3785;0.9307;
618.6000;0.3801;0.9330;
618.9000;0.3801;0.9307;
619.2000;0.3753;0.9237;
619.5000;0.3810;0.9330;
619.8000;0.3793;0.9283;
620.1000;0.3769;0.9377;
620.4000;0.3785;0.9423;
620.7000;0.3720;0.9307;
621.0000;0.3744;0.9283;
621.3000;0.3753;0.9307;
621.6000;0.3736;0.9260;
621.9000;0.3777;0.9353;
622.2000;0.3761;0.9423;
622.5000;0.3744;0.9400;
622.8000;0.3736;0.9353;
623.1000;0.3744;0.9400;
623.4000;0.3712;0.9283;
623.7000;0.3777;0.9493;
624.0000;0.3720;0.9330;
624.3000;0.3793;0.9563;
624.6000;0.3712;0.9353;
624.9000;0.3687;0.9330;
625.2000;0.3663;0.9283;
625.5000;0.3671;0.9353;
625.8000;0.3696;0.9377;
626.1000;0.3663;0.9283;
626.4000;0.3582;0.9097;
626.7000;0.3663;0.9283;
627.0000;0.3655;0.9213;
627.3000;0.3614;0.9237;
627.6000;0.3655;0.9283;
627.9000;0.3712;0.9470;
628.2000;0.3639;0.9283;
628.5000;0.3728;0.9400;
628.8000;0.3655;0.9143;
629.1000;0.3647;0.9190;
629.4000;0.3614;0.9237;
629.7000;0.3622;0.9283;
630.0000;0.3647;0.9307;
630.3000;0.3614;0.9283;
630.6000;0.3614;0.9283;
630.9000;0.3606;0.9190;
631.2000;0.3606;0.9143;
631.5000;0.3606;0.9260;
631.8000;0.3614;0.9307;
632.1000;0.3598;0.9307;
632.4000;0.3590;0.9307;
632.7000;0.3614;0.9377;
633.0000;0.3622;0.9493;
633.3000;0.3573;0.9377;
633.6000;0.3598;0.9330;
633.9000;0.3590;0.9330;
634.2000;0.3565;0.9353;
634.5000;0.3573;0.9330;
634.8000;0.3598;0.9423;
635.1000;0.3492;0.9120;
635.4000;0.3573;0.9213;
635.7000;0.3557;0.9190;
636.0000;0.3557;0.9120;
636.3000;0.3557;0.9120;
636.6000;0.3541;0.9167;
636.9000;0.3516;0.9143;
637.2000;0.3557;0.9260;
637.5000;0.3525;0.9330;
637.8000;0.3549;0.9330;
638.1000;0.3573;0.9377;
638.4000;0.3516;0.9330;
638.7000;0.3516;0.9307;
639.0000;0.3508;0.9377;
639.3000;0.3582;0.9470;
639.6000;0.3541;0.9377;
639.9000;0.3492;0.9377;
640.2000;0.3541;0.9353;
640.5000;0.3525;0.9330;
640.8000;0.3492;0.9260;
641.1000;0.3516;0.9307;
641.4000;0.3484;0.9190;
641.7000;0.3403;0.8957;
642.0000;0.3508;0.9143;
642.3000;0.3468;0.9073;
642.6000;0.3484;0.9120;
642.9000;0.3451;0.9050;
643.2000;0.3541;0.9283;
643.5000;0.3484;0.9283;
643.8000;0.3468;0.9237;
644.1000;0.3492;0.9260;
644.4000;0.3476;0.9237;
644.7000;0.3451;0.9283;
645.0000;0.3476;0.9260;
645.3000;0.3451;0.9213;
645.6000;0.3460;0.9283;
645.9000;0.3460;0.9260;
646.2000;0.3435;0.9167;
646.5000;0.3394;0.9190;
646.8000;0.3435;0.9307;
647.1000;0.3435;0.9353;
647.4000;0.3443;0.9353;
647.7000;0.3419;0.9353;
648.0000;0.3451;0.9353;
648.3000;0.3468;0.9423;
648.6000;0.3435;0.9353;
648.9000;0.3403;0.9330;
649.2000;0.3435;0.9400;
649.5000;0.3394;0.9260;
649.8000;0.3443;0.9307;
650.1000;0.3370;0.9073;
650.4000;0.3427;0.9190;
650.7000;0.3411;0.9213;
651.0000;0.3435;0.9307;
651.3000;0.3419;0.9237;
651.6000;0.3419;0.9097;
651.9000;0.3403;0.9050;
652.2000;0.3411;0.9097;
652.5000;0.3403;0.9097;
652.8000;0.3346;0.9027;
653.1000;0.3394;0.9213;
653.4000;0.3411;0.9213;
653.7000;0.3403;0.9260;
654.0000;0.3403;0.9237;
654.3000;0.3370;0.9190;
654.6000;0.3370;0.9143;
654.9000;0.3419;0.9307;
655.2000;0.3386;0.9190;
655.5000;0.3370;0.9073;
655.8000;0.3394;0.9097;
656.1000;0.3411;0.9213;
656.4000;0.3378;0.9120;
656.7000;0.3346;0.8957;
657.0000;0.3378;0.9050;
657.3000;0.3362;0.9143;
657.6000;0.3378;0.9213;
657.9000;0.3362;0.9143;
658.2000;0.3354;0.9143;
658.5000;0.3362;0.9190;
658.8000;0.3386;0.9237;
659.1000;0.3411;0.9307;
659.4000;0.3329;0.9097;
659.7000;0.3386;0.9260;
660.0000;0.3427;0.9400;
660.3000;0.3321;0.9027;
660.6000;0.3346;0.8957;
660.9000;0.3362;0.8910;
661.2000;0.3354;0.9027;
661.5000;0.3362;0.9003;
661.8000;0.3321;0.9073;
662.1000;0.3329;0.9190;
662.4000;0.3362;0.9167;
662.7000;0.3305;0.9003;
663.0000;0.3321;0.9050;
663.3000;0.3403;0.9423;
663.6000;0.3329;0.9260;
663.9000;0.3321;0.9167;
664.2000;0.3346;0.9073;
664.5000;0.3321;0.9027;
664.8000;0.3313;0.9027;
665.1000;0.3337;0.9097;
665.4000;0.3337;0.9050;
665.7000;0.3354;0.9097;
666.0000;0.3232;0.8840;
666.3000;0.3313;0.9003;
666.6000;0.3313;0.9003;
666.9000;0.3329;0.9027;
667.2000;0.3321;0.8980;
667.5000;0.3272;0.8933;
667.8000;0.3354;0.9143;
668.1000;0.3297;0.9003;
668.4000;0.3297;0.9003;
668.7000;0.3321;0.9167;
669.0000;0.3313;0.9167;
669.3000;0.3321;0.9190;
669.6000;0.3337;0.9260;
669.9000;0.3321;0.9283;
670.2000;0.3289;0.9260;
670.5000;0.3394;0.9563;
670.8000;0.3313;0.9260;
671.1000;0.3362;0.9260;
671.4000;0.3305;0.9120;
671.7000;0.3280;0.9213;
672.0000;0.3280;0.9237;
672.3000;0.3337;0.9400;
672.6000;0.3313;0.9330;
672.9000;0.3272;0.9143;
673.2000;0.3280;0.9143;
673.5000;0.3289;0.9143;
673.8000;0.3289;0.8910;
674.1000;0.3272;0.8933;
674.4000;0.3394;0.9283;
674.7000;0.3280;0.8980;
675.0000;0.3272;0.8980;
675.3000;0.3272;0.9003;
675.6000;0.3280;0.9050;
675.9000;0.3272;0.9097;
676.2000;0.3264;0.9120;
676.5000;0.3264;0.9190;
676.8000;0.3256;0.9167;
677.1000;0.3264;0.9307;
677.4000;0.3272;0.9190;
677.7000;0.3280;0.9213;
678.0000;0.3346;0.9447;
678.3000;0.3240;0.9190;
678.6000;0.3215;0.8957;
678.9000;0.3256;0.9073;
679.2000;0.3280;0.9167;
679.5000;0.3264;0.9097;
679.8000;0.3280;0.9190;
680.1000;0.3207;0.9050;
680.4000;0.3264;0.9283;
680.7000;0.3264;0.9167;
681.0000;0.3264;0.9190;
681.3000;0.3256;0.9167;
681.6000;0.3272;0.9097;
681.9000;0.3264;0.9097;
682.2000;0.3280;0.9190;
682.5000;0.3264;0.9120;
682.8000;0.3248;0.9003;
683.1000;0.3240;0.9003;
683.4000;0.3223;0.9073;
683.7000;0.3183;0.8933;
684.0000;0.3207;0.8933;
684.3000;0.3223;0.8980;
684.6000;0.3223;0.9027;
684.9000;0.3232;0.9003;
685.2000;0.3215;0.8933;
685.5000;0.3223;0.8957;
685.8000;0.3248;0.8980;
686.1000;0.3215;0.8933;
686.4000;0.3240;0.9143;
686.7000;0.3207;0.9120;
687.0000;0.3191;0.9050;
687.3000;0.3183;0.9120;
687.6000;0.3313;0.9330;
687.9000;0.3248;0.9213;
688.2000;0.3175;0.9027;
688.5000;0.3240;0.9260;
688.8000;0.3232;0.9237;
689.1000;0.3223;0.9283;
689.4000;0.3223;0.9283;
689.7000;0.3232;0.9423;
690.0000;0.3215;0.9353;
690.3000;0.3280;0.9423;
690.6000;0.3215;0.9237;
690.9000;0.3232;0.9213;
691.2000;0.3215;0.9097;
691.5000;0.3240;0.9167;
691.8000;0.3215;0.9167;
692.1000;0.3199;0.9190;
692.4000;0.3215;0.9190;
692.7000;0.3199;0.9143;
693.0000;0.3199;0.9143;
693.3000;0.3207;0.9213;
693.6000;0.3199;0.9237;
693.9000;0.3199;0.9190;
694.2000;0.3191;0.9190;
694.5000;0.3183;0.9120;
694.8000;0.3223;0.9167;
695.1000;0.3199;0.9143;
695.4000;0.3207;0.9237;
695.7000;0.3183;0.9190;
696.0000;0.3191;0.9097;
696.3000;0.3199;0.9213;
696.6000;0.3166;0.9190;
696.9000;0.3207;0.9237;
697.2000;0.3199;0.9143;
697.5000;0.3183;0.9097;
697.8000;0.3166;0.9120;
698.1000;0.3199;0.9213;
698.4000;0.3191;0.9213;
698.7000;0.3158;0.9167;
699.0000;0.3183;0.9237;
699.3000;0.3199;0.9307;
699.6000;0.3215;0.9260;
699.9000;0.3199;0.9237;
700.2000;0.3191;0.9307;
700.5000;0.3207;0.9400;
700.8000;0.3175;0.9377;
701.1000;0.3207;0.9330;
701.4000;0.3191;0.9307;
701.7000;0.3240;0.9470;
702.0000;0.3191;0.9377;
702.3000;0.3175;0.9330;
702.6000;0.3199;0.9377;
702.9000;0.3158;0.9307;
703.2000;0.3207;0.9447;
703.5000;0.3175;0.9423;
703.8000;0.3183;0.9447;
704.1000;0.3166;0.9447;
704.4000;0.3191;0.9447;
704.7000;0.3183;0.9400;
705.0000;0.3085;0.9213;
705.3000;0.3183;0.9307;
705.6000;0.3183;0.9283;
705.9000;0.3199;0.9283;
706.2000;0.3191;0.9260;
706.5000;0.3175;0.9283;
706.8000;0.3183;0.9307;
707.1000;0.3183;0.9330;
707.4000;0.3223;0.9400;
707.7000;0.3166;0.9353;
708.0000;0.3166;0.9377;
708.3000;0.3166;0.9353;
708.6000;0.3199;0.9447;
708.9000;0.3150;0.9190;
709.2000;0.3118;0.9050;
709.5000;0.3175;0.9097;
709.8000;0.3158;0.9050;
710.1000;0.3223;0.9190;
710.4000;0.3175;0.9120;
710.7000;0.3175;0.9143;
711.0000;0.3142;0.9073;
711.3000;0.3264;0.9377;
711.6000;0.3158;0.9190;
711.9000;0.3142;0.9143;
712.2000;0.3109;0.8980;
712.5000;0.3150;0.9027;
712.8000;0.3166;0.9027;
713.1000;0.3142;0.9073;
713.4000;0.3215;0.9213;
713.7000;0.3142;0.9120;
714.0000;0.3158;0.9167;
714.3000;0.3142;0.9143;
714.6000;0.3142;0.9190;
714.9000;0.3166;0.9167;
715.2000;0.3126;0.9050;
715.5000;0.3134;0.9143;
715.8000;0.3142;0.9167;
716.1000;0.3175;0.9190;
716.4000;0.3150;0.9097;
716.7000;0.3150;0.9097;
717.0000;0.3150;0.9120;
717.3000;0.3134;0.9167;
717.6000;0.3158;0.9190;
717.9000;0.3142;0.9073;
718.2000;0.3134;0.9050;
718.5000;0.3158;0.9143;
718.8000;0.3134;0.9097;
719.1000;0.3126;0.9073;
719.4000;0.3126;0.9073;
719.7000;0.3142;0.9073;
720.0000;0.3134;0.9120;
720.3000;0.3142;0.9073;
720.6000;0.3142;0.9190;
720.9000;0.3142;0.9213;
721.2000;0.3183;0.9377;
721.5000;0.3126;0.9237;
721.8000;0.3142;0.9307;
722.1000;0.3118;0.9237;
722.4000;0.3126;0.9330;
722.7000;0.3118;0.9330;
723.0000;0.3150;0.9330;
723.3000;0.3126;0.9353;
723.6000;0.3109;0.9353;
723.9000;0.3085;0.9330;
724.2000;0.3126;0.9447;
724.5000;0.3101;0.9353;
724.8000;0.3134;0.9470;
725.1000;0.3134;0.9516;
725.4000;0.3118;0.9423;
725.7000;0.3126;0.9540;
726.0000;0.3118;0.9423;
726.3000;0.3126;0.9353;
726.6000;0.3109;0.9260;
726.9000;0.3109;0.9213;
727.2000;0.3134;0.9237;
727.5000;0.3118;0.9237;
727.8000;0.3142;0.9353;
728.1000;0.3215;0.9563;
728.4000;0.3085;0.9283;
728.7000;0.3101;0.9307;
729.0000;0.3109;0.9307;
729.3000;0.3093;0.9213;
729.6000;0.3134;0.9237;
729.9000;0.3126;0.9260;
730.2000;0.3150;0.9283;
730.5000;0.3118;0.9213;
730.8000;0.3126;0.9190;
731.1000;0.3101;0.9143;
731.4000;0.3085;0.9073;
731.7000;0.3109;0.9097;
732.0000;0.3109;0.9190;
732.3000;0.3101;0.9213;
732.6000;0.3069;0.9097;
732.9000;0.3109;0.9097;
733.2000;0.3126;0.9120;
733.5000;0.3101;0.9073;
733.8000;0.3101;0.9167;
734.1000;0.3134;0.9213;
734.4000;0.3101;0.9097;
734.7000;0.3077;0.9027;
735.0000;0.3109;0.9190;
735.3000;0.3118;0.9143;
735.6000;0.3093;0.9050;
735.9000;0.3069;0.9027;
736.2000;0.3101;0.9097;
736.5000;0.3118;0.9120;
736.8000;0.3109;0.9143;
737.1000;0.3126;0.9213;
737.4000;0.3053;0.8957;
737.7000;0.3109;0.9027;
738.0000;0.3126;0.9097;
738.3000;0.3109;0.9050;
738.6000;0.3085;0.8957;
738.9000;0.3101;0.9097;
739.2000;0.3118;0.9260;
739.5000;0.3061;0.9190;
739.8000;0.3101;0.9307;
740.1000;0.3101;0.9377;
740.4000;0.3158;0.9400;
740.7000;0.3101;0.9213;
741.0000;0.3085;0.9097;
741.3000;0.3053;0.9027;
741.6000;0.3093;0.9050;
741.9000;0.3118;0.9143;
742.2000;0.3077;0.9050;
742.5000;0.3085;0.8980;
742.8000;0.3109;0.9120;
743.1000;0.3085;0.9073;
743.4000;0.3118;0.9097;
743.7000;0.3101;0.9050;
744.0000;0.3093;0.9120;
744.3000;0.3256;0.9563;
744.6000;0.3077;0.9237;
744.9000;0.3109;0.9307;
745.2000;0.3028;0.8957;
745.5000;0.3077;0.9167;
745.8000;0.3077;0.9167;
746.1000;0.3109;0.9213;
746.4000;0.3069;0.9097;
746.7000;0.3207;0.9447;
747.0000;0.3101;0.9167;
747.3000;0.3093;0.9120;
747.6000;0.3166;0.9213;
747.9000;0.3085;0.9027;
748.2000;0.3077;0.9027;
748.5000;0.3012;0.8933;
748.8000;0.3077;0.9120;
749.1000;0.3085;0.9167;
749.4000;0.3069;0.9167;
749.7000;0.3093;0.9167;
750.0000;0.3053;0.9027;
750.3000;0.3085;0.9190;
750.6000;0.3093;0.9167;
750.9000;0.3061;0.9097;
751.2000;0.3069;0.9073;
751.5000;0.3085;0.9097;
751.8000;0.3036;0.9027;
752.1000;0.3101;0.9143;
752.4000;0.3093;0.9143;
752.7000;0.3077;0.9027;
753.0000;0.3069;0.9027;
753.3000;0.3109;0.9073;
753.6000;0.3093;0.9050;
753.9000;0.3077;0.9027;
754.2000;0.3069;0.8910;
754.5000;0.3175;0.9120;
754.8000;0.3077;0.8863;
755.1000;0.3085;0.8957;
755.4000;0.3061;0.9003;
755.7000;0.3077;0.9050;
756.0000;0.3118;0.9307;
756.3000;0.3028;0.9073;
756.6000;0.3077;0.9167;
756.9000;0.3069;0.9050;
757.2000;0.3053;0.8980;
757.5000;0.3077;0.9050;
757.8000;0.3077;0.9027;
758.1000;0.3085;0.9073;
758.4000;0.3069;0.8980;
758.7000;0.3069;0.9050;
759.0000;0.3044;0.9027;
759.3000;0.3077;0.9027;
759.6000;0.3077;0.9143;
759.9000;0.3069;0.9167;
760.2000;0.3175;0.9423;
760.5000;0.3053;0.9213;
760.8000;0.3101;0.9307;
761.1000;0.3085;0.9190;
761.4000;0.3061;0.9167;
761.7000;0.3077;0.9260;
762.0000;0.3069;0.9097;
762.3000;0.3077;0.9120;
762.6000;0.3077;0.9167;
762.9000;0.3085;0.9237;
763.2000;0.3053;0.9190;
763.5000;0.3093;0.9213;
763.8000;0.3069;0.9260;
764.1000;0.3028;0.9073;
764.4000;0.3069;0.9143;
764.7000;0.3085;0.9260;
765.0000;0.3077;0.9237;
765.3000;0.3077;0.9213;
765.6000;0.3069;0.9213;
765.9000;0.3020;0.9097;
766.2000;0.3053;0.9050;
766.5000;0.3053;0.9097;
766.8000;0.3061;0.9237;
767.1000;0.3044;0.9143;
767.4000;0.3077;0.9213;
767.7000;0.3053;0.9167;
768.0000;0.3069;0.9213;
768.3000;0.3101;0.9330;
768.6000;0.3069;0.9237;
768.9000;0.3053;0.9167;
769.2000;0.3093;0.9260;
769.5000;0.3061;0.9167;
769.8000;0.3053;0.9120;
770.1000;0.3093;0.9213;
770.4000;0.3077;0.9213;
770.7000;0.3093;0.9260;
771.0000;0.3085;0.9260;
771.3000;0.3061;0.9213;
771.6000;0.3069;0.9213;
771.9000;0.3044;0.9143;
772.2000;0.3028;0.9167;
772.5000;0.3028;0.9143;
772.8000;0.3093;0.9330;
773.1000;0.3044;0.9120;
773.4000;0.3044;0.9213;
773.7000;0.3061;0.9143;
774.0000;0.3061;0.9120;
774.3000;0.3028;0.9097;
774.6000;0.3053;0.9073;
774.9000;0.3020;0.9120;
775.2000;0.3036;0.9237;
775.5000;0.3053;0.9283;
775.8000;0.3077;0.9353;
776.1000;0.3053;0.9353;
776.4000;0.3036;0.9307;
776.7000;0.3044;0.9237;
777.0000;0.3053;0.9260;
777.3000;0.3036;0.9237;
777.6000;0.3061;0.9260;
777.9000;0.3069;0.9260;
778.2000;0.3069;0.9213;
778.5000;0.3069;0.9190;
778.8000;0.3044;0.9143;
779.1000;0.3053;0.9097;
779.4000;0.3012;0.8910;
779.7000;0.3044;0.9073;
780.0000;0.3036;0.9073;
780.3000;0.3053;0.9073;
780.6000;0.3044;0.9097;
780.9000;0.3061;0.9120;
781.2000;0.3036;0.9167;
781.5000;0.3044;0.9307;
781.8000;0.3004;0.9237;
782.1000;0.2947;0.9027;
782.4000;0.3061;0.9237;
782.7000;0.3044;0.9167;
783.0000;0.3134;0.9307;
783.3000;0.3044;0.8980;
783.6000;0.3004;0.8887;
783.9000;0.3061;0.8980;
784.2000;0.3118;0.9073;
784.5000;0.3085;0.9003;
784.8000;0.3069;0.8980;
785.1000;0.3061;0.9073;
785.4000;0.3044;0.9027;
785.7000;0.3028;0.9073;
786.0000;0.3036;0.9073;
786.3000;0.3077;0.9190;
786.6000;0.3053;0.9190;
786.9000;0.3150;0.9400;
787.2000;0.3036;0.9143;
787.5000;0.3061;0.9190;
787.8000;0.3069;0.9213;
788.1000;0.3044;0.9050;
788.4000;0.3093;0.9120;
788.7000;0.3053;0.9050;
789.0000;0.3036;0.9027;
789.3000;0.2971;0.8887;
789.6000;0.3036;0.9003;
789.9000;0.3028;0.8957;
790.2000;0.3036;0.9027;
790.5000;0.3012;0.9027;
790.8000;0.2987;0.9003;
791.1000;0.3053;0.9073;
791.4000;0.3020;0.8980;
791.7000;0.3028;0.8957;
792.0000;0.3028;0.8817;
792.3000;0.3020;0.8770;
792.6000;0.3044;0.8723;
792.9000;0.3044;0.8747;
793.2000;0.3044;0.8840;
793.5000;0.3028;0.8793;
793.8000;0.3061;0.9027;
794.1000;0.3069;0.9050;
794.4000;0.3069;0.9097;
794.7000;0.2987;0.8980;
795.0000;0.3036;0.9097;
795.3000;0.3036;0.9213;
795.6000;0.3036;0.9190;
795.9000;0.3028;0.9213;
796.2000;0.3044;0.9307;
796.5000;0.3061;0.9260;
796.8000;0.3036;0.9190;
797.1000;0.3028;0.9097;
797.4000;0.3028;0.9120;
797.7000;0.3020;0.9120;
798.0000;0.3028;0.9143;
798.3000;0.3028;0.9097;
798.6000;0.3004;0.9120;
798.9000;0.3053;0.9167;
799.2000;0.3036;0.9073;
799.5000;0.3028;0.9120;
799.8000;0.3028;0.9143;
800.1000;0.3044;0.9190;
800.4000;0.3036;0.9097;
800.7000;0.3069;0.9237;
801.0000;0.3004;0.9050;
801.3000;0.3020;0.9027;
801.6000;0.3077;0.9190;
801.9000;0.3077;0.9143;
802.2000;0.3061;0.9120;
802.5000;0.3004;0.8933;
802.8000;0.3036;0.9050;
803.1000;0.3012;0.9050;
803.4000;0.3028;0.9050;
803.7000;0.3012;0.9027;
804.0000;0.3134;0.9400;
804.3000;0.3044;0.9120;
804.6000;0.3069;0.9167;
804.9000;0.3028;0.9003;
805.2000;0.3020;0.9027;
805.5000;0.3028;0.8957;
805.8000;0.3077;0.9143;
806.1000;0.3004;0.9073;
806.4000;0.3036;0.9167;
806.7000;0.3020;0.9237;
807.0000;0.3020;0.9237;
807.3000;0.2971;0.9143;
807.6000;0.3109;0.9400;
807.9000;0.3012;0.9260;
808.2000;0.3036;0.9283;
808.5000;0.3069;0.9307;
808.8000;0.3036;0.9260;
809.1000;0.3044;0.9237;
809.4000;0.3028;0.9167;
809.7000;0.2996;0.9120;
810.0000;0.3036;0.9143;
810.3000;0.3036;0.9073;
810.6000;0.3044;0.9027;
810.9000;0.3044;0.9097;
811.2000;0.3020;0.9073;
811.5000;0.3012;0.9167;
811.8000;0.3020;0.9167;
812.1000;0.3020;0.9097;
812.4000;0.3028;0.9143;
812.7000;0.3004;0.9097;
813.0000;0.3028;0.9143;
813.3000;0.3077;0.9470;
813.6000;0.3004;0.9307;
813.9000;0.3028;0.9353;
814.2000;0.3028;0.9400;
814.5000;0.2996;0.9400;
814.8000;0.3036;0.9470;
815.1000;0.3036;0.9377;
815.4000;0.3053;0.9353;
815.7000;0.3061;0.9237;
816.0000;0.3012;0.9143;
816.3000;0.3020;0.9143;
816.6000;0.3028;0.9283;
816.9000;0.3036;0.9353;
817.2000;0.3020;0.9237;
817.5000;0.3020;0.9190;
817.8000;0.3020;0.9097;
818.1000;0.3020;0.9073;
818.4000;0.3020;0.9120;
818.7000;0.3036;0.9167;
819.0000;0.3109;0.9307;
819.3000;0.3036;0.9237;
819.6000;0.3028;0.9237;
819.9000;0.3069;0.9260;
820.2000;0.3020;0.9120;
820.5000;0.3036;0.9143;
820.8000;0.3028;0.9120;
821.1000;0.3028;0.9167;
821.4000;0.3004;0.9167;
821.7000;0.3020;0.9167;
822.0000;0.3036;0.9260;
822.3000;0.3028;0.9143;
822.6000;0.3004;0.9073;
822.9000;0.3061;0.9167;
823.2000;0.3044;0.9027;
823.5000;0.3044;0.9003;
823.8000;0.3028;0.8933;
824.1000;0.3028;0.8910;
824.4000;0.3020;0.8933;
824.7000;0.3020;0.8933;
825.0000;0.3118;0.9143;
825.3000;0.3028;0.9027;
825.6000;0.2979;0.8980;
825.9000;0.3020;0.9073;
826.2000;0.3004;0.9073;
826.5000;0.2996;0.9073;
826.8000;0.3020;0.9097;
827.1000;0.3004;0.9073;
827.4000;0.3012;0.9120;
827.7000;0.3012;0.9237;
828.0000;0.3036;0.9237;
828.3000;0.3020;0.9120;
828.6000;0.3069;0.9283;
828.9000;0.3020;0.9213;
829.2000;0.3012;0.9167;
829.5000;0.2987;0.9120;
829.8000;0.3028;0.9237;
830.1000;0.3004;0.9190;
830.4000;0.3004;0.9260;
830.7000;0.3004;0.9260;
831.0000;0.3028;0.9213;
831.3000;0.3004;0.9190;
831.6000;0.3004;0.9213;
831.9000;0.3004;0.9213;
832.2000;0.3012;0.9097;
832.5000;0.3012;0.9143;
832.8000;0.3020;0.9073;
833.1000;0.2996;0.9073;
833.4000;0.2996;0.9120;
833.7000;0.2979;0.9073;
834.0000;0.3004;0.9120;
834.3000;0.3012;0.9073;
834.6000;0.3012;0.9003;
834.9000;0.3020;0.9143;
835.2000;0.3004;0.9237;
835.5000;0.3012;0.9307;
835.8000;0.2996;0.9260;
836.1000;0.3004;0.9237;
836.4000;0.3012;0.9190;
836.7000;0.2996;0.9097;
837.0000;0.3004;0.9190;
837.3000;0.2996;0.9190;
837.6000;0.3004;0.9260;
837.9000;0.2996;0.9237;
838.2000;0.3012;0.9213;
838.5000;0.2996;0.9190;
838.8000;0.3093;0.9423;
839.1000;0.3012;0.9260;
839.4000;0.3020;0.9213;
839.7000;0.3118;0.9400;
840.0000;0.3028;0.9120;
840.3000;0.3020;0.9143;
840.6000;0.2996;0.9120;
840.9000;0.3012;0.9120;
841.2000;0.3044;0.9377;
841.5000;0.3053;0.9400;
841.8000;0.3036;0.9353;
842.1000;0.3093;0.9493;
842.4000;0.2996;0.9213;
842.7000;0.2979;0.9167;
843.0000;0.2996;0.9120;
843.3000;0.3004;0.9120;
843.6000;0.2996;0.9143;
843.9000;0.3004;0.9143;
844.2000;0.3012;0.9120;
844.5000;0.3004;0.9003;
844.8000;0.3028;0.9120;
845.1000;0.3020;0.9120;
845.4000;0.2987;0.8980;
845.7000;0.3020;0.8980;
846.0000;0.3020;0.8980;
846.3000;0.3004;0.8957;
846.6000;0.3012;0.9003;
846.9000;0.3020;0.8980;
847.2000;0.3004;0.9003;
847.5000;0.3004;0.9050;
847.8000;0.3012;0.9027;
848.1000;0.3004;0.9003;
848.4000;0.3004;0.9003;
848.7000;0.2996;0.9003;
849.0000;0.3020;0.9167;
849.3000;0.3069;0.9283;
849.6000;0.3004;0.9073;
849.9000;0.2987;0.9167;
850.2000;0.3004;0.9307;
850.5000;0.3004;0.9283;
850.8000;0.3020;0.9377;
851.1000;0.3036;0.9377;
851.4000;0.3020;0.9307;
851.7000;0.3012;0.9330;
852.0000;0.2939;0.9213;
852.3000;0.3012;0.9330;
852.6000;0.2979;0.9307;
852.9000;0.3012;0.9400;
853.2000;0.3012;0.9377;
853.5000;0.2996;0.9307;
853.8000;0.2996;0.9307;
854.1000;0.3142;0.9680;
854.4000;0.3004;0.9377;
854.7000;0.3004;0.9377;
855.0000;0.3004;0.9330;
855.3000;0.2987;0.9260;
855.6000;0.2971;0.9260;
855.9000;0.2898;0.9003;
856.2000;0.2996;0.9237;
856.5000;0.3020;0.9283;
856.8000;0.2939;0.9213;
857.1000;0.2979;0.9213;
857.4000;0.2996;0.9260;
857.7000;0.3012;0.9237;
858.0000;0.2979;0.9213;
858.3000;0.3012;0.9283;
858.6000;0.3004;0.9237;
858.9000;0.3012;0.9353;
859.2000;0.3012;0.9400;
859.5000;0.3012;0.9423;
859.8000;0.3028;0.9516;
860.1000;0.3012;0.9353;
860.4000;0.3012;0.9447;
860.7000;0.3012;0.9423;
861.0000;0.2987;0.9283;
861.3000;0.2996;0.9260;
861.6000;0.3004;0.9283;
861.9000;0.3004;0.9330;
862.2000;0.2971;0.9400;
862.5000;0.3044;0.9563;
862.8000;0.2996;0.9377;
863.1000;0.3004;0.9377;
863.4000;0.3012;0.9377;
863.7000;0.2987;0.9307;
864.0000;0.3004;0.9330;
864.3000;0.3004;0.9260;
864.6000;0.3012;0.9260;
864.9000;0.3020;0.9213;
865.2000;0.3012;0.9237;
865.5000;0.2987;0.9190;
865.8000;0.2971;0.9120;
866.1000;0.3053;0.9283;
866.4000;0.3028;0.9283;
866.7000;0.3012;0.9283;
867.0000;0.3012;0.9283;
867.3000;0.2996;0.9237;
867.6000;0.2996;0.9307;
867.9000;0.2987;0.9353;
868.2000;0.3004;0.9493;
868.5000;0.2979;0.9353;
868.8000;0.3012;0.9353;
869.1000;0.3004;0.9400;
869.4000;0.3020;0.9447;
869.7000;0.2987;0.9423;
870.0000;0.3020;0.9470;
870.3000;0.3004;0.9540;
870.6000;0.2979;0.9610;
870.9000;0.3044;0.9820;
871.2000;0.3028;0.9796;
871.5000;0.3004;0.9680;
871.8000;0.3004;0.9563;
872.1000;0.3012;0.9586;
872.4000;0.2996;0.9470;
872.7000;0.3004;0.9447;
873.0000;0.3004;0.9540;
873.3000;0.2987;0.9540;
873.6000;0.2987;0.9516;
873.9000;0.3004;0.9516;
874.2000;0.2914;0.9307;
874.5000;0.3012;0.9656;
874.8000;0.2987;0.9656;
875.1000;0.2996;0.9633;
875.4000;0.3004;0.9656;
875.7000;0.2996;0.9656;
876.0000;0.3044;0.9773;
876.3000;0.2996;0.9610;
876.6000;0.2955;0.9493;
876.9000;0.2987;0.9586;
877.2000;0.3036;0.9680;
877.5000;0.2987;0.9633;
877.8000;0.2971;0.9586;
878.1000;0.2987;0.9563;
878.4000;0.3012;0.9680;
878.7000;0.2996;0.9680;
879.0000;0.2996;0.9656;
879.3000;0.3036;0.9843;
879.6000;0.2987;0.9726;
879.9000;0.2996;0.9656;
880.2000;0.2979;0.9563;
880.5000;0.3004;0.9586;
880.8000;0.3004;0.9516;
881.1000;0.3085;0.9586;
881.4000;0.2987;0.9353;
881.7000;0.3004;0.9470;
882.0000;0.2996;0.9493;
882.3000;0.2955;0.9353;
882.6000;0.2971;0.9447;
882.9000;0.2963;0.9353;
883.2000;0.2987;0.9400;
883.5000;0.2979;0.9470;
883.8000;0.2987;0.9470;
884.1000;0.3012;0.9493;
884.4000;0.2971;0.9493;
884.7000;0.2930;0.9423;
885.0000;0.3004;0.9563;
885.3000;0.2996;0.9493;
885.6000;0.3004;0.9516;
885.9000;0.2996;0.9540;
886.2000;0.3012;0.9447;
886.5000;0.2987;0.9516;
886.8000;0.3012;0.9540;
887.1000;0.2987;0.9353;
887.4000;0.3020;0.9400;
887.7000;0.2996;0.9283;
888.0000;0.3012;0.9377;
888.3000;0.3004;0.9400;
888.6000;0.2996;0.9307;
888.9000;0.3012;0.9377;
889.2000;0.3012;0.9330;
889.5000;0.2987;0.9260;
889.8000;0.2987;0.9260;
890.1000;0.2987;0.9213;
890.4000;0.2987;0.9237;
890.7000;0.2996;0.9353;
891.0000;0.3061;0.9540;
891.3000;0.2914;0.9213;
891.6000;0.3004;0.9423;
891.9000;0.3069;0.9586;
892.2000;0.2882;0.9050;
892.5000;0.3004;0.9260;
892.8000;0.2979;0.9237;
893.1000;0.2987;0.9330;
893.4000;0.3004;0.9377;
893.7000;0.3004;0.9353;
894.0000;0.2987;0.9400;
894.3000;0.3004;0.9400;
894.6000;0.2996;0.9377;
894.9000;0.2996;0.9400;
895.2000;0.2987;0.9400;
895.5000;0.2987;0.9447;
895.8000;0.2987;0.9353;
896.1000;0.3004;0.9377;
896.4000;0.2971;0.9353;
896.7000;0.2987;0.9423;
897.0000;0.3012;0.9447;
897.3000;0.3004;0.9470;
897.6000;0.2996;0.9330;
897.9000;0.3061;0.9516;
898.2000;0.3036;0.9447;
898.5000;0.3012;0.9377;
898.8000;0.2971;0.9307;
899.1000;0.2987;0.9400;
899.4000;0.3044;0.9586;
899.7000;0.2987;0.9493;
900.0000;0.2922;0.9353;
900.3000;0.2979;0.9447;
900.6000;0.3004;0.9493;
900.9000;0.2996;0.9493;
901.2000;0.2939;0.9330;
901.5000;0.3036;0.9680;
901.8000;0.3020;0.9656;
902.1000;0.2955;0.9493;
902.4000;0.2922;0.9493;
902.7000;0.2987;0.9703;
903.0000;0.2955;0.9610;
903.3000;0.2971;0.9516;
903.6000;0.3004;0.9563;
903.9000;0.2963;0.9423;
904.2000;0.2963;0.9447;
904.5000;0.2979;0.9423;
904.8000;0.2987;0.9400;
905.1000;0.2979;0.9400;
905.4000;0.2979;0.9377;
905.7000;0.3004;0.9400;
906.0000;0.3004;0.9400;
906.3000;0.3004;0.9447;
906.6000;0.3004;0.9447;
906.9000;0.2987;0.9353;
907.2000;0.2971;0.9353;
907.5000;0.2987;0.9423;
907.8000;0.2963;0.9423;
908.1000;0.2979;0.9447;
908.4000;0.3061;0.9633;
908.7000;0.3004;0.9493;
909.0000;0.2987;0.9493;
909.3000;0.2987;0.9400;
909.6000;0.2996;0.9400;
909.9000;0.2971;0.9307;
910.2000;0.3012;0.9423;
910.5000;0.2996;0.9330;
910.8000;0.3004;0.9377;
911.1000;0.3044;0.9516;
911.4000;0.3028;0.9563;
911.7000;0.2987;0.9516;
912.0000;0.2971;0.9493;
912.3000;0.2987;0.9540;
912.6000;0.2987;0.9493;
912.9000;0.2996;0.9470;
913.2000;0.2996;0.9423;
913.5000;0.2979;0.9470;
913.8000;0.2882;0.9353;
914.1000;0.2922;0.9447;
914.4000;0.2987;0.9633;
914.7000;0.2979;0.9680;
915.0000;0.2930;0.9586;
915.3000;0.2987;0.9656;
915.6000;0.2971;0.9586;
915.9000;0.2987;0.9586;
916.2000;0.2939;0.9447;
916.5000;0.2979;0.9470;
916.8000;0.3012;0.9447;
917.1000;0.2987;0.9447;
917.4000;0.2955;0.9377;
917.7000;0.2987;0.9400;
918.0000;0.3012;0.9493;
918.3000;0.2979;0.9470;
918.6000;0.2987;0.9563;
918.9000;0.2979;0.9540;
919.2000;0.2996;0.9633;
919.5000;0.3004;0.9703;
919.8000;0.2979;0.9610;
920.1000;0.2996;0.9703;
920.4000;0.2996;0.9703;
920.7000;0.2996;0.9656;
921.0000;0.2971;0.9516;
921.3000;0.2971;0.9563;
921.6000;0.3020;0.9633;
921.9000;0.3012;0.9633;
922.2000;0.2996;0.9586;
922.5000;0.2979;0.9447;
922.8000;0.2987;0.9493;
923.1000;0.2971;0.9447;
923.4000;0.2979;0.9493;
923.7000;0.3004;0.9586;
924.0000;0.2979;0.9493;
924.3000;0.2996;0.9540;
924.6000;0.2979;0.9377;
924.9000;0.2971;0.9377;
925.2000;0.2987;0.9377;
925.5000;0.2996;0.9353;
925.8000;0.2979;0.9283;
926.1000;0.2987;0.9377;
926.4000;0.2971;0.9353;
926.7000;0.2947;0.9307;
927.0000;0.3004;0.9400;
927.3000;0.3004;0.9423;
927.6000;0.2963;0.9377;
927.9000;0.2996;0.9400;
928.2000;0.2979;0.9423;
928.5000;0.2947;0.9377;
928.8000;0.2979;0.9423;
929.1000;0.2996;0.9470;
929.4000;0.2987;0.9516;
929.7000;0.3012;0.9540;
930.0000;0.2963;0.9470;
930.3000;0.2979;0.9563;
930.6000;0.2963;0.9447;
930.9000;0.2971;0.9516;
931.2000;0.2987;0.9586;
931.5000;0.2979;0.9540;
931.8000;0.2996;0.9563;
932.1000;0.2979;0.9563;
932.4000;0.2971;0.9563;
932.7000;0.2971;0.9516;
933.0000;0.2971;0.9610;
933.3000;0.2963;0.9610;
933.6000;0.2971;0.9610;
933.9000;0.2939;0.9423;
934.2000;0.2971;0.9540;
934.5000;0.2987;0.9563;
934.8000;0.2979;0.9493;
935.1000;0.2947;0.9447;
935.4000;0.2955;0.9400;
935.7000;0.3020;0.9586;
936.0000;0.2930;0.9447;
936.3000;0.2955;0.9586;
936.6000;0.2939;0.9516;
936.9000;0.2971;0.9470;
937.2000;0.2971;0.9400;
937.5000;0.2971;0.9400;
937.8000;0.2979;0.9447;
938.1000;0.2987;0.9493;
938.4000;0.2987;0.9516;
938.7000;0.2987;0.9540;
939.0000;0.2906;0.9353;
939.3000;0.2996;0.9563;
939.6000;0.2971;0.9563;
939.9000;0.2987;0.9563;
940.2000;0.3044;0.9610;
940.5000;0.3004;0.9633;
940.8000;0.2979;0.9540;
941.1000;0.2979;0.9563;
941.4000;0.2971;0.9563;
941.7000;0.2987;0.9540;
942.0000;0.2996;0.9563;
942.3000;0.2987;0.9610;
942.6000;0.2979;0.9470;
942.9000;0.2955;0.9447;
943.2000;0.3004;0.9516;
943.5000;0.2996;0.9540;
943.8000;0.2996;0.9586;
944.1000;0.2971;0.9516;
944.4000;0.3004;0.9610;
944.7000;0.2979;0.9586;
945.0000;0.2987;0.9586;
945.3000;0.2971;0.9680;
945.6000;0.2963;0.9680;
945.9000;0.2963;0.9610;
946.2000;0.2979;0.9610;
946.5000;0.2963;0.9586;
946.8000;0.2922;0.9586;
947.1000;0.2963;0.9610;
947.4000;0.2987;0.9563;
947.7000;0.2979;0.9610;
948.0000;0.2955;0.9470;
948.3000;0.2979;0.9493;
948.6000;0.2987;0.9470;
948.9000;0.2955;0.9377;
949.2000;0.2971;0.9330;
949.5000;0.2979;0.9353;
949.8000;0.2979;0.9423;
950.1000;0.2971;0.9307;
950.4000;0.2971;0.9330;
950.7000;0.2971;0.9307;
951.0000;0.2963;0.9307;
951.3000;0.2947;0.9120;
951.6000;0.2955;0.9097;
951.9000;0.2971;0.9213;
952.2000;0.2987;0.9283;
952.5000;0.3077;0.9493;
952.8000;0.2971;0.9213;
953.1000;0.2987;0.9330;
953.4000;0.3020;0.9377;
953.7000;0.3004;0.9237;
954.0000;0.3004;0.9260;
954.3000;0.2979;0.9377;
954.6000;0.3036;0.9447;
954.9000;0.2979;0.9307;
955.2000;0.2971;0.9307;
955.5000;0.2987;0.9353;
955.8000;0.2971;0.9400;
956.1000;0.2996;0.9353;
956.4000;0.2979;0.9330;
956.7000;0.2996;0.9283;
957.0000;0.2987;0.9400;
957.3000;0.2987;0.9353;
957.6000;0.2979;0.9330;
957.9000;0.2987;0.9353;
958.2000;0.2979;0.9353;
958.5000;0.2947;0.9260;
958.8000;0.3036;0.9493;
959.1000;0.2963;0.9260;
959.4000;0.2971;0.9237;
959.7000;0.2971;0.9260;
960.0000;0.2971;0.9260;
960.3000;0.2947;0.9237;
960.6000;0.2963;0.9330;
960.9000;0.2979;0.9330;
961.2000;0.3004;0.9516;
961.5000;0.2979;0.9516;
961.8000;0.2987;0.9610;
962.1000;0.2979;0.9656;
962.4000;0.2987;0.9610;
962.7000;0.2971;0.9470;
963.0000;0.2922;0.9400;
963.3000;0.2963;0.9586;
963.6000;0.2979;0.9586;
963.9000;0.2947;0.9400;
964.2000;0.2996;0.9516;
964.5000;0.2979;0.9516;
964.8000;0.2963;0.9493;
965.1000;0.2947;0.9377;
965.4000;0.2987;0.9423;
965.7000;0.2963;0.9377;
966.0000;0.2955;0.9400;
966.3000;0.2996;0.9493;
966.6000;0.2971;0.9423;
966.9000;0.2987;0.9447;
967.2000;0.2922;0.9353;
967.5000;0.2979;0.9470;
967.8000;0.2963;0.9516;
968.1000;0.2979;0.9563;
968.4000;0.2987;0.9563;
968.7000;0.2971;0.9493;
969.0000;0.2987;0.9563;
969.3000;0.2979;0.9470;
969.6000;0.2996;0.9516;
969.9000;0.2963;0.9493;
970.2000;0.2971;0.9540;
970.5000;0.2971;0.9540;
970.8000;0.2955;0.9540;
971.1000;0.2939;0.9493;
971.4000;0.2979;0.9516;
971.7000;0.2955;0.9447;
972.0000;0.2939;0.9470;
972.3000;0.2947;0.9447;
972.6000;0.2971;0.9493;
972.9000;0.2955;0.9586;
973.2000;0.2963;0.9610;
973.5000;0.2922;0.9516;
973.8000;0.2963;0.9680;
974.1000;0.2996;0.9656;
974.4000;0.2955;0.9563;
974.7000;0.2979;0.9586;
975.0000;0.2971;0.9540;
975.3000;0.2996;0.9540;
975.6000;0.2979;0.9516;
975.9000;0.2987;0.9540;
976.2000;0.2955;0.9563;
976.5000;0.2979;0.9633;
976.8000;0.3004;0.9703;
977.1000;0.2987;0.9703;
977.4000;0.2963;0.9656;
977.7000;0.2987;0.9680;
978.0000;0.2955;0.9540;
978.3000;0.2971;0.9516;
978.6000;0.2955;0.9516;
978.9000;0.2963;0.9563;
979.2000;0.2979;0.9656;
979.5000;0.2947;0.9447;
979.8000;0.2971;0.9400;
980.1000;0.2979;0.9283;
980.4000;0.2979;0.9307;
980.7000;0.2971;0.9260;
981.0000;0.2963;0.9260;
981.3000;0.2963;0.9283;
981.6000;0.2963;0.9307;
981.9000;0.2979;0.9377;
982.2000;0.2963;0.9423;
982.5000;0.2979;0.9447;
982.8000;0.2987;0.9353;
983.1000;0.2947;0.9213;
983.4000;0.2979;0.9283;
983.7000;0.2939;0.9190;
984.0000;0.2987;0.9353;
984.3000;0.2939;0.9260;
984.6000;0.2947;0.9377;
984.9000;0.2971;0.9353;
985.2000;0.2947;0.9377;
985.5000;0.2963;0.9330;
985.8000;0.2979;0.9330;
986.1000;0.2849;0.9097;
986.4000;0.2987;0.9493;
986.7000;0.3004;0.9516;
987.0000;0.2979;0.9563;
987.3000;0.2939;0.9563;
987.6000;0.2963;0.9516;
987.9000;0.2955;0.9586;
988.2000;0.2987;0.9656;
988.5000;0.2979;0.9540;
988.8000;0.2979;0.9656;
989.1000;0.3004;0.9656;
989.4000;0.3012;0.9726;
989.7000;0.3085;0.9866;
990.0000;0.2987;0.9493;
990.3000;0.2979;0.9447;
990.6000;0.2947;0.9400;
990.9000;0.2947;0.9470;
991.2000;0.3061;0.9750;
991.5000;0.3053;0.9750;
991.8000;0.2890;0.9423;
992.1000;0.2971;0.9563;
992.4000;0.2947;0.9493;
992.7000;0.2979;0.9563;
993.0000;0.2971;0.9470;
993.3000;0.2987;0.9540;
993.6000;0.2971;0.9540;
993.9000;0.2971;0.9586;
994.2000;0.2906;0.9423;
994.5000;0.2979;0.9540;
994.8000;0.2963;0.9447;
995.1000;0.3004;0.9493;
995.4000;0.2947;0.9330;
995.7000;0.2963;0.9353;
996.0000;0.2955;0.9307;
996.3000;0.2955;0.9377;
996.6000;0.2996;0.9586;
996.9000;0.2955;0.9540;
997.2000;0.2865;0.9330;
997.5000;0.2890;0.9400;
997.8000;0.2955;0.9563;
998.1000;0.2979;0.9610;
998.4000;0.2971;0.9540;
998.7000;0.2963;0.9447;
999.0000;0.3004;0.9423;
999.3000;0.2971;0.9377;
999.6000;0.2955;0.9423;
999.9000;0.2947;0.9470;
1000.2000;0.2930;0.9447;
1000.5000;0.2971;0.9540;
1000.8000;0.2939;0.9447;
1001.1000;0.2963;0.9540;
1001.4000;0.2987;0.9563;
1001.7000;0.2947;0.9447;
1002.0000;0.3004;0.9656;
1002.3000;0.3012;0.9680;
1002.6000;0.2930;0.9516;
1002.9000;0.2963;0.9516;
1003.2000;0.2971;0.9540;
1003.5000;0.2979;0.9656;
1003.8000;0.2996;0.9610;
1004.1000;0.2987;0.9633;
1004.4000;0.2955;0.9563;
1004.7000;0.3036;0.9796;
1005.0000;0.2987;0.9703;
1005.3000;0.2971;0.9633;
1005.6000;0.3004;0.9680;
1005.9000;0.2947;0.9540;
1006.2000;0.2979;0.9516;
1006.5000;0.2947;0.9400;
1006.8000;0.2979;0.9447;
1007.1000;0.2882;0.9190;
1007.4000;0.2996;0.9516;
1007.7000;0.2971;0.9470;
1008.0000;0.2947;0.9470;
1008.3000;0.2955;0.9516;
1008.6000;0.2971;0.9516;
1008.9000;0.2930;0.9307;
1009.2000;0.3004;0.9493;
1009.5000;0.2979;0.9563;
1009.8000;0.3012;0.9726;
1010.1000;0.2971;0.9610;
1010.4000;0.2971;0.9516;
1010.7000;0.2979;0.9540;
1011.0000;0.2955;0.9563;
1011.3000;0.2971;0.9610;
1011.6000;0.2939;0.9610;
1011.9000;0.2963;0.9680;
1012.2000;0.2987;0.9773;
1012.5000;0.3028;0.9773;
1012.8000;0.2963;0.9680;
1013.1000;0.3061;0.9843;
1013.4000;0.2963;0.9726;
1013.7000;0.3085;1.0006;
1014.0000;0.2979;0.9703;
1014.3000;0.3004;0.9796;
1014.6000;0.2971;0.9773;
1014.9000;0.2971;0.9750;
1015.2000;0.2979;0.9726;
1015.5000;0.2947;0.9516;
1015.8000;0.2971;0.9540;
1016.1000;0.2947;0.9400;
1016.4000;0.2955;0.9447;
1016.7000;0.2963;0.9516;
1017.0000;0.2955;0.9540;
1017.3000;0.2963;0.9516;
1017.6000;0.2963;0.9516;
1017.9000;0.2963;0.9540;
1018.2000;0.3004;0.9633;
1018.5000;0.3028;0.9703;
1018.8000;0.2996;0.9633;
1019.1000;0.2963;0.9516;
1019.4000;0.2939;0.9656;
1019.7000;0.2955;0.9656;
1020.0000;0.2996;0.9726;
1020.3000;0.2971;0.9610;
1020.6000;0.2979;0.9633;
1020.9000;0.2963;0.9680;
1021.2000;0.2971;0.9750;
1021.5000;0.2996;0.9773;
1021.8000;0.2963;0.9586;
1022.1000;0.2955;0.9586;
1022.4000;0.2963;0.9516;
1022.7000;0.2987;0.9610;
1023.0000;0.2987;0.9540;
1023.3000;0.2979;0.9470;
1023.6000;0.2979;0.9447;
1023.9000;0.2963;0.9470;
1024.2000;0.2987;0.9610;
1024.5000;0.2955;0.9610;
1024.8000;0.2963;0.9586;
1025.1000;0.2971;0.9656;
1025.4000;0.2922;0.9563;
1025.7000;0.2955;0.9586;
1026.0000;0.2963;0.9563;
1026.3000;0.2987;0.9633;
1026.6000;0.2979;0.9610;
1026.9000;0.2947;0.9586;
1027.2000;0.2955;0.9563;
1027.5000;0.2987;0.9726;
1027.8000;0.2971;0.9703;
1028.1000;0.2987;0.9726;
1028.4000;0.2971;0.9586;
1028.7000;0.2971;0.9610;
1029.0000;0.2987;0.9610;
1029.3000;0.2987;0.9516;
1029.6000;0.2963;0.9423;
1029.9000;0.2963;0.9400;
1030.2000;0.3020;0.9656;
1030.5000;0.2979;0.9516;
1030.8000;0.2963;0.9540;
1031.1000;0.2987;0.9563;
1031.4000;0.2939;0.9423;
1031.7000;0.2947;0.9330;
1032.0000;0.2922;0.9400;
1032.3000;0.2955;0.9493;
1032.6000;0.2947;0.9563;
1032.9000;0.2955;0.9586;
1033.2000;0.2955;0.9610;
1033.5000;0.2955;0.9563;
1033.8000;0.2971;0.9447;
1034.1000;0.2939;0.9353;
1034.4000;0.2971;0.9470;
1034.7000;0.3004;0.9726;
1035.0000;0.2947;0.9680;
1035.3000;0.2963;0.9703;
1035.6000;0.2963;0.9656;
1035.9000;0.2971;0.9656;
1036.2000;0.2955;0.9563;
1036.5000;0.2971;0.9610;
1036.8000;0.2955;0.9610;
1037.1000;0.2939;0.9516;
1037.4000;0.2963;0.9656;
1037.7000;0.2963;0.9656;
1038.0000;0.2963;0.9633;
1038.3000;0.2979;0.9470;
1038.6000;0.2987;0.9516;
1038.9000;0.2947;0.9400;
1039.2000;0.2971;0.9330;
1039.5000;0.2947;0.9307;
1039.8000;0.2930;0.9260;
1040.1000;0.2939;0.9307;
1040.4000;0.2971;0.9377;
1040.7000;0.3004;0.9447;
1041.0000;0.2963;0.9423;
1041.3000;0.2963;0.9516;
1041.6000;0.2987;0.9540;
1041.9000;0.2963;0.9470;
1042.2000;0.2939;0.9470;
1042.5000;0.2930;0.9423;
1042.8000;0.2955;0.9493;
1043.1000;0.2971;0.9447;
1043.4000;0.2963;0.9377;
1043.7000;0.2963;0.9353;
1044.0000;0.2963;0.9353;
1044.3000;0.2955;0.9213;
1044.6000;0.2971;0.9190;
1044.9000;0.2922;0.9073;
1045.2000;0.2947;0.9260;
1045.5000;0.2955;0.9307;
1045.8000;0.2996;0.9330;
1046.1000;0.2979;0.9330;
1046.4000;0.3004;0.9377;
1046.7000;0.3028;0.9470;
1047.0000;0.2947;0.9237;
1047.3000;0.2963;0.9330;
1047.6000;0.2955;0.9283;
1047.9000;0.2971;0.9190;
1048.2000;0.2963;0.9283;
1048.5000;0.2865;0.9073;
1048.8000;0.2914;0.9260;
1049.1000;0.2979;0.9400;
1049.4000;0.2947;0.9330;
1049.7000;0.2963;0.9353;
1050.0000;0.2963;0.9423;
1050.3000;0.2971;0.9470;
1050.6000;0.2971;0.9493;
1050.9000;0.2971;0.9516;
1051.2000;0.2971;0.9493;
1051.5000;0.2987;0.9493;
1051.8000;0.2996;0.9493;
1052.1000;0.2947;0.9353;
1052.4000;0.2996;0.9400;
1052.7000;0.2947;0.9353;
1053.0000;0.2963;0.9307;
1053.3000;0.2971;0.9307;
1053.6000;0.2979;0.9423;
1053.9000;0.2939;0.9400;
1054.2000;0.2939;0.9470;
1054.5000;0.2971;0.9516;
1054.8000;0.2963;0.9516;
1055.1000;0.2971;0.9516;
1055.4000;0.2963;0.9400;
1055.7000;0.2987;0.9400;
1056.0000;0.2963;0.9353;
1056.3000;0.2979;0.9377;
1056.6000;0.2963;0.9330;
1056.9000;0.2971;0.9447;
1057.2000;0.2987;0.9423;
1057.5000;0.2963;0.9307;
1057.8000;0.2979;0.9377;
1058.1000;0.2979;0.9330;
1058.4000;0.2947;0.9353;
1058.7000;0.2963;0.9307;
1059.0000;0.2963;0.9377;
1059.3000;0.2971;0.9447;
1059.6000;0.2955;0.9377;
1059.9000;0.2971;0.9423;
1060.2000;0.2971;0.9307;
1060.5000;0.2971;0.9377;
1060.8000;0.2963;0.9353;
1061.1000;0.2963;0.9307;
1061.4000;0.2930;0.9307;
1061.7000;0.2955;0.9353;
1062.0000;0.2963;0.9330;
1062.3000;0.2947;0.9330;
1062.6000;0.2955;0.9307;
1062.9000;0.2971;0.9283;
1063.2000;0.2955;0.9307;
1063.5000;0.2947;0.9307;
1063.8000;0.2955;0.9283;
1064.1000;0.2963;0.9190;
1064.4000;0.2971;0.9307;
1064.7000;0.2979;0.9423;
1065.0000;0.3004;0.9447;
1065.3000;0.2955;0.9353;
1065.6000;0.2987;0.9447;
1065.9000;0.2971;0.9353;
1066.2000;0.2963;0.9330;
1066.5000;0.2963;0.9330;
1066.8000;0.2955;0.9400;
1067.1000;0.2979;0.9540;
1067.4000;0.2971;0.9563;
1067.7000;0.2963;0.9586;
1068.0000;0.2914;0.9447;
1068.3000;0.2963;0.9586;
1068.6000;0.2979;0.9563;
1068.9000;0.2947;0.9400;
1069.2000;0.2963;0.9377;
1069.5000;0.2963;0.9377;
1069.8000;0.2906;0.9307;
1070.1000;0.2963;0.9423;
1070.4000;0.3053;0.9540;
1070.7000;0.2963;0.9377;
1071.0000;0.2955;0.9447;
1071.3000;0.2963;0.9447;
1071.6000;0.2963;0.9470;
1071.9000;0.2979;0.9400;
1072.2000;0.2987;0.9400;
1072.5000;0.2971;0.9353;
1072.8000;0.3036;0.9493;
1073.1000;0.2979;0.9447;
1073.4000;0.2971;0.9447;
1073.7000;0.2922;0.9353;
1074.0000;0.2979;0.9516;
1074.3000;0.2947;0.9470;
1074.6000;0.2890;0.9447;
1074.9000;0.3069;1.0006;
1075.2000;0.2979;0.9773;
1075.5000;0.2963;0.9703;
1075.8000;0.2955;0.9633;
1076.1000;0.2963;0.9656;
1076.4000;0.2979;0.9656;
1076.7000;0.2955;0.9563;
1077.0000;0.2955;0.9633;
1077.3000;0.2963;0.9586;
1077.6000;0.2939;0.9516;
1077.9000;0.2971;0.9586;
1078.2000;0.2955;0.9470;
1078.5000;0.2979;0.9423;
1078.8000;0.2906;0.9237;
1079.1000;0.2947;0.9447;
1079.4000;0.2963;0.9493;
1079.7000;0.2971;0.9656;
1080.0000;0.2955;0.9750;
1080.3000;0.2971;0.9796;
1080.6000;0.3004;0.9913;
1080.9000;0.2979;0.9773;
1081.2000;0.2979;0.9750;
1081.5000;0.2987;0.9726;
1081.8000;0.2922;0.9563;
1082.1000;0.2963;0.9703;
1082.4000;0.2987;0.9680;
1082.7000;0.2947;0.9563;
1083.0000;0.2947;0.9516;
1083.3000;0.2930;0.9423;
1083.6000;0.2939;0.9470;
1083.9000;0.2979;0.9610;
1084.2000;0.3028;0.9726;
1084.5000;0.2939;0.9563;
1084.8000;0.2971;0.9633;
1085.1000;0.2947;0.9610;
1085.4000;0.2971;0.9563;
1085.7000;0.2939;0.9540;
1086.0000;0.2930;0.9516;
1086.3000;0.2971;0.9703;
1086.6000;0.2963;0.9586;
1086.9000;0.2963;0.9610;
1087.2000;0.2882;0.9377;
1087.5000;0.2971;0.9610;
1087.8000;0.2963;0.9610;
1088.1000;0.2947;0.9563;
1088.4000;0.2963;0.9516;
1088.7000;0.2963;0.9563;
1089.0000;0.2979;0.9680;
1089.3000;0.2922;0.9586;
1089.6000;0.3053;0.9773;
1089.9000;0.2963;0.9633;
1090.2000;0.2939;0.9516;
1090.5000;0.2971;0.9540;
1090.8000;0.2947;0.9516;
1091.1000;0.2979;0.9610;
1091.4000;0.2947;0.9563;
1091.7000;0.2963;0.9540;
1092.0000;0.2955;0.9447;
1092.3000;0.2996;0.9470;
1092.6000;0.2971;0.9377;
1092.9000;0.2947;0.9330;
1093.2000;0.2955;0.9307;
1093.5000;0.2955;0.9330;
1093.8000;0.2971;0.9353;
1094.1000;0.2963;0.9377;
1094.4000;0.2873;0.9190;
1094.7000;0.2955;0.9283;
1095.0000;0.2947;0.9307;
1095.3000;0.2979;0.9470;
1095.6000;0.2971;0.9400;
1095.9000;0.2979;0.9423;
1096.2000;0.2971;0.9540;
1096.5000;0.2971;0.9633;
1096.8000;0.2987;0.9773;
1097.1000;0.2987;0.9796;
1097.4000;0.2955;0.9796;
1097.7000;0.2947;0.9773;
1098.0000;0.2987;0.9866;
1098.3000;0.2971;0.9866;
1098.6000;0.2939;0.9750;
1098.9000;0.2955;0.9796;
1099.2000;0.2996;0.9843;
1099.5000;0.2947;0.9750;
1099.8000;0.2963;0.9820;
1100.1000;0.2939;0.9890;
1100.4000;0.2979;0.9913;
1100.7000;0.2939;0.9796;
1101.0000;0.2939;0.9773;
1101.3000;0.2939;0.9773;
1101.6000;0.2979;0.9936;
1101.9000;0.2947;0.9866;
1102.2000;0.2939;0.9796;
1102.5000;0.2947;0.9680;
1102.8000;0.2955;0.9586;
1103.1000;0.2987;0.9563;
1103.4000;0.2947;0.9447;
1103.7000;0.2955;0.9470;
1104.0000;0.2914;0.9400;
1104.3000;0.2979;0.9516;
1104.6000;0.2971;0.9493;
1104.9000;0.3036;0.9633;
1105.2000;0.2971;0.9516;
1105.5000;0.2947;0.9493;
1105.8000;0.2955;0.9470;
1106.1000;0.2979;0.9563;
1106.4000;0.2987;0.9633;
1106.7000;0.2930;0.9540;
1107.0000;0.2971;0.9563;
1107.3000;0.2971;0.9610;
1107.6000;0.2963;0.9563;
1107.9000;0.2996;0.9563;
1108.2000;0.2955;0.9470;
1108.5000;0.2971;0.9586;
1108.8000;0.2939;0.9610;
1109.1000;0.2971;0.9750;
1109.4000;0.2979;0.9703;
1109.7000;0.2955;0.9633;
1110.0000;0.2906;0.9540;
1110.3000;0.3012;0.9890;
1110.6000;0.2979;0.9796;
1110.9000;0.2979;0.9820;
1111.2000;0.3069;1.0006;
1111.5000;0.2963;0.9750;
1111.8000;0.2955;0.9656;
1112.1000;0.3044;0.9866;
1112.4000;0.2947;0.9656;
1112.7000;0.2955;0.9656;
1113.0000;0.2963;0.9703;
1113.3000;0.2930;0.9540;
1113.6000;0.2955;0.9563;
1113.9000;0.2947;0.9586;
1114.2000;0.2979;0.9610;
1114.5000;0.2987;0.9656;
1114.8000;0.2963;0.9540;
1115.1000;0.2963;0.9610;
1115.4000;0.2971;0.9726;
1115.7000;0.2963;0.9680;
1116.0000;0.2979;0.9750;
1116.3000;0.2955;0.9796;
1116.6000;0.2963;0.9843;
1116.9000;0.2963;0.9796;
1117.2000;0.2971;0.9820;
1117.5000;0.2955;0.9820;
1117.8000;0.2963;0.9866;
1118.1000;0.2979;0.9843;
1118.4000;0.2955;0.9773;
1118.7000;0.2963;0.9750;
1119.0000;0.2955;0.9726;
1119.3000;0.2955;0.9726;
1119.6000;0.2955;0.9773;
1119.9000;0.2955;0.9656;
1120.2000;0.2930;0.9656;
1120.5000;0.2922;0.9703;
1120.8000;0.2947;0.9610;
1121.1000;0.2947;0.9656;
1121.4000;0.2939;0.9656;
1121.7000;0.2930;0.9633;
1122.0000;0.2971;0.9796;
1122.3000;0.2971;0.9726;
1122.6000;0.2947;0.9610;
1122.9000;0.2963;0.9586;
1123.2000;0.2963;0.9680;
1123.5000;0.2947;0.9656;
1123.8000;0.2955;0.9656;
1124.1000;0.2955;0.9633;
1124.4000;0.2987;0.9750;
1124.7000;0.2939;0.9610;
1125.0000;0.2947;0.9610;
1125.3000;0.2971;0.9586;
1125.6000;0.2963;0.9540;
1125.9000;0.2922;0.9563;
1126.2000;0.3053;0.9960;
1126.5000;0.2963;0.9773;
1126.8000;0.2947;0.9773;
1127.1000;0.3020;0.9960;
1127.4000;0.2987;0.9890;
1127.7000;0.2979;0.9820;
1128.0000;0.2955;0.9796;
1128.3000;0.2963;0.9750;
1128.6000;0.2939;0.9656;
1128.9000;0.2930;0.9610;
1129.2000;0.2882;0.9447;
1129.5000;0.2947;0.9540;
1129.8000;0.2955;0.9633;
1130.1000;0.2963;0.9610;
1130.4000;0.2939;0.9563;
1130.7000;0.2955;0.9633;
1131.0000;0.2971;0.9703;
1131.3000;0.2963;0.9656;
1131.6000;0.2971;0.9703;
1131.9000;0.2955;0.9610;
1132.2000;0.2930;0.9680;
1132.5000;0.2947;0.9703;
1132.8000;0.2971;0.9656;
1133.1000;0.2979;0.9540;
1133.4000;0.2947;0.9423;
1133.7000;0.2955;0.9493;
1134.0000;0.2955;0.9540;
1134.3000;0.2963;0.9586;
1134.6000;0.2955;0.9563;
1134.9000;0.2955;0.9656;
1135.2000;0.2930;0.9680;
1135.5000;0.2947;0.9633;
1135.8000;0.2955;0.9703;
1136.1000;0.2955;0.9680;
1136.4000;0.2963;0.9633;
1136.7000;0.2963;0.9586;
1137.0000;0.2955;0.9656;
1137.3000;0.2963;0.9633;
1137.6000;0.2963;0.9656;
1137.9000;0.2955;0.9586;
1138.2000;0.2971;0.9586;
1138.5000;0.2947;0.9540;
1138.8000;0.2963;0.9703;
1139.1000;0.2955;0.9656;
1139.4000;0.2963;0.9726;
1139.7000;0.2939;0.9726;
1140.0000;0.2963;0.9656;
1140.3000;0.2971;0.9610;
1140.6000;0.3028;0.9633;
1140.9000;0.2947;0.9447;
1141.2000;0.2979;0.9516;
1141.5000;0.3028;0.9680;
1141.8000;0.2947;0.9516;
1142.1000;0.2955;0.9447;
1142.4000;0.2955;0.9447;
1142.7000;0.2947;0.9400;
1143.0000;0.2971;0.9586;
1143.3000;0.2922;0.9516;
1143.6000;0.2939;0.9516;
1143.9000;0.2963;0.9540;
1144.2000;0.2947;0.9470;
1144.5000;0.2947;0.9516;
1144.8000;0.2898;0.9330;
1145.1000;0.2947;0.9447;
1145.4000;0.2955;0.9423;
1145.7000;0.2930;0.9307;
1146.0000;0.2987;0.9400;
1146.3000;0.2963;0.9307;
1146.6000;0.2963;0.9260;
1146.9000;0.2963;0.9260;
1147.2000;0.2955;0.9143;
1147.5000;0.2996;0.9260;
1147.8000;0.2955;0.9143;
1148.1000;0.2947;0.9143;
1148.4000;0.2955;0.9190;
1148.7000;0.2955;0.9237;
1149.0000;0.2963;0.9167;
1149.3000;0.2963;0.9213;
1149.6000;0.2873;0.9050;
1149.9000;0.2987;0.9213;
1150.2000;0.2955;0.9213;
1150.5000;0.3028;0.9423;
1150.8000;0.2930;0.9213;
1151.1000;0.2939;0.9377;
1151.4000;0.2955;0.9353;
1151.7000;0.2947;0.9260;
1152.0000;0.2963;0.9377;
1152.3000;0.2947;0.9377;
1152.6000;0.2947;0.9377;
1152.9000;0.2955;0.9377;
1153.2000;0.2971;0.9423;
1153.5000;0.2963;0.9447;
1153.8000;0.2939;0.9400;
1154.1000;0.2947;0.9377;
1154.4000;0.2955;0.9283;
1154.7000;0.2939;0.9260;
1155.0000;0.2939;0.9330;
1155.3000;0.2963;0.9283;
1155.6000;0.2947;0.9307;
1155.9000;0.2947;0.9377;
1156.2000;0.2955;0.9493;
1156.5000;0.2939;0.9516;
1156.8000;0.2963;0.9470;
1157.1000;0.2947;0.9493;
1157.4000;0.2955;0.9493;
1157.7000;0.2963;0.9470;
1158.0000;0.2971;0.9400;
1158.3000;0.2963;0.9330;
1158.6000;0.2963;0.9353;
1158.9000;0.2963;0.9400;
1159.2000;0.2930;0.9377;
1159.5000;0.2939;0.9353;
1159.8000;0.2971;0.9447;
1160.1000;0.2963;0.9493;
1160.4000;0.2922;0.9470;
1160.7000;0.2939;0.9610;
1161.0000;0.2947;0.9680;
1161.3000;0.2971;0.9773;
1161.6000;0.2939;0.9726;
1161.9000;0.3036;0.9936;
1162.2000;0.2947;0.9750;
1162.5000;0.2947;0.9750;
1162.8000;0.3061;0.9913;
1163.1000;0.2963;0.9633;
1163.4000;0.2955;0.9633;
1163.7000;0.2947;0.9610;
1164.0000;0.2955;0.9680;
1164.3000;0.2963;0.9633;
1164.6000;0.2955;0.9633;
1164.9000;0.2996;0.9610;
1165.2000;0.2971;0.9516;
1165.5000;0.2963;0.9470;
1165.8000;0.2947;0.9423;
1166.1000;0.2939;0.9470;
1166.4000;0.2955;0.9423;
1166.7000;0.2955;0.9353;
1167.0000;0.2955;0.9400;
1167.3000;0.2955;0.9470;
1167.6000;0.2947;0.9447;
1167.9000;0.2955;0.9470;
1168.2000;0.3004;0.9563;
1168.5000;0.2955;0.9470;
1168.8000;0.2873;0.9307;
1169.1000;0.2947;0.9493;
1169.4000;0.2947;0.9423;
1169.7000;0.2939;0.9377;
1170.0000;0.2947;0.9470;
1170.3000;0.2947;0.9540;
1170.6000;0.2939;0.9400;
1170.9000;0.2930;0.9353;
1171.2000;0.2947;0.9377;
1171.5000;0.2955;0.9400;
1171.8000;0.2979;0.9493;
1172.1000;0.2922;0.9423;
1172.4000;0.2947;0.9470;
1172.7000;0.2947;0.9563;
1173.0000;0.2947;0.9633;
1173.3000;0.3044;0.9843;
1173.6000;0.2987;0.9750;
1173.9000;0.2955;0.9726;
1174.2000;0.2971;0.9703;
1174.5000;0.2955;0.9703;
1174.8000;0.2841;0.9447;
1175.1000;0.2947;0.9656;
1175.4000;0.2955;0.9633;
1175.7000;0.2947;0.9563;
1176.0000;0.2963;0.9633;
1176.3000;0.2947;0.9493;
1176.6000;0.2922;0.9540;
1176.9000;0.2914;0.9563;
1177.2000;0.2963;0.9563;
1177.5000;0.2955;0.9563;
1177.8000;0.2963;0.9586;
1178.1000;0.2963;0.9516;
1178.4000;0.2979;0.9563;
1178.7000;0.2955;0.9610;
1179.0000;0.2955;0.9563;
1179.3000;0.3020;0.9703;
1179.6000;0.2963;0.9633;
1179.9000;0.2996;0.9610;
1180.2000;0.2955;0.9540;
1180.5000;0.2939;0.9470;
1180.8000;0.3004;0.9680;
1181.1000;0.2947;0.9540;
1181.4000;0.2955;0.9563;
1181.7000;0.2979;0.9610;
1182.0000;0.2955;0.9493;
1182.3000;0.2971;0.9540;
1182.6000;0.2955;0.9516;
1182.9000;0.2955;0.9516;
1183.2000;0.2939;0.9470;
1183.5000;0.2996;0.9540;
1183.8000;0.2939;0.9493;
1184.1000;0.2987;0.9680;
1184.4000;0.2963;0.9656;
1184.7000;0.2955;0.9633;
1185.0000;0.2939;0.9493;
1185.3000;0.2955;0.9493;
1185.6000;0.2955;0.9447;
1185.9000;0.3004;0.9610;
1186.2000;0.2963;0.9516;
1186.5000;0.2979;0.9493;
1186.8000;0.3004;0.9656;
1187.1000;0.2939;0.9470;
1187.4000;0.2979;0.9540;
1187.7000;0.2971;0.9493;
1188.0000;0.3004;0.9656;
1188.3000;0.2963;0.9563;
1188.6000;0.2971;0.9610;
1188.9000;0.2939;0.9516;
1189.2000;0.3036;0.9540;
1189.5000;0.2947;0.9470;
1189.8000;0.2963;0.9516;
1190.1000;0.2955;0.9540;
1190.4000;0.2930;0.9516;
1190.7000;0.2939;0.9493;
1191.0000;0.2955;0.9586;
1191.3000;0.2947;0.9516;
1191.6000;0.2955;0.9423;
1191.9000;0.2963;0.9447;
1192.2000;0.2947;0.9447;
1192.5000;0.2963;0.9470;
1192.8000;0.2955;0.9493;
1193.1000;0.2955;0.9586;
1193.4000;0.3020;0.9703;
1193.7000;0.2955;0.9633;
1194.0000;0.2955;0.9680;
1194.3000;0.2930;0.9656;
1194.6000;0.2987;0.9750;
1194.9000;0.2979;0.9750;
1195.2000;0.2955;0.9680;
1195.5000;0.2987;0.9633;
1195.8000;0.2963;0.9586;
1196.1000;0.2963;0.9563;
1196.4000;0.2987;0.9586;
1196.7000;0.2963;0.9610;
1197.0000;0.2971;0.9540;
1197.3000;0.2971;0.9470;
1197.6000;0.2963;0.9563;
1197.9000;0.2955;0.9586;
1198.2000;0.2963;0.9703;
1198.5000;0.2939;0.9680;
1198.8000;0.2971;0.9633;
1199.1000;0.2947;0.9563;
1199.4000;0.3012;0.9703;
1199.7000;0.2955;0.9610;
1200.0000;0.2955;0.9586;
1200.3000;0.2979;0.9563;
1200.6000;0.2987;0.9610;
1200.9000;0.2922;0.9516;
1201.2000;0.2963;0.9447;
1201.5000;0.2955;0.9307;
1201.8000;0.2963;0.9307;
1202.1000;0.2971;0.9423;
1202.4000;0.2996;0.9563;
1202.7000;0.2963;0.9540;
1203.0000;0.2963;0.9563;
1203.3000;0.2947;0.9563;
1203.6000;0.2955;0.9586;
1203.9000;0.2979;0.9586;
1204.2000;0.3069;0.9936;
1204.5000;0.2955;0.9563;
1204.8000;0.2963;0.9656;
1205.1000;0.2979;0.9750;
1205.4000;0.2947;0.9610;
1205.7000;0.2906;0.9470;
1206.0000;0.2963;0.9633;
1206.3000;0.2971;0.9633;
1206.6000;0.2979;0.9610;
1206.9000;0.2947;0.9586;
1207.2000;0.2947;0.9656;
1207.5000;0.2963;0.9726;
1207.8000;0.3028;0.9936;
1208.1000;0.3020;0.9843;
1208.4000;0.2939;0.9703;
1208.7000;0.2955;0.9703;
1209.0000;0.2947;0.9680;
1209.3000;0.2971;0.9633;
1209.6000;0.2963;0.9703;
1209.9000;0.2963;0.9656;
1210.2000;0.2955;0.9633;
1210.5000;0.2890;0.9400;
1210.8000;0.2955;0.9633;
1211.1000;0.2947;0.9680;
1211.4000;0.2939;0.9633;
1211.7000;0.2939;0.9680;
1212.0000;0.2776;0.9260;
1212.3000;0.2963;0.9633;
1212.6000;0.2963;0.9680;
1212.9000;0.2971;0.9726;
1213.2000;0.2930;0.9633;
1213.5000;0.2930;0.9610;
1213.8000;0.3004;0.9750;
1214.1000;0.2963;0.9656;
1214.4000;0.2947;0.9750;
1214.7000;0.2930;0.9656;
1215.0000;0.2939;0.9703;
1215.3000;0.2963;0.9726;
1215.6000;0.2955;0.9750;
1215.9000;0.2947;0.9773;
1216.2000;0.2955;0.9820;
1216.5000;0.2947;0.9773;
1216.8000;0.2906;0.9680;
1217.1000;0.2963;0.9866;
1217.4000;0.2947;0.9820;
1217.7000;0.2955;0.9913;
1218.0000;0.2979;1.0006;
1218.3000;0.2971;0.9960;
1218.6000;0.2947;0.9890;
1218.9000;0.2955;0.9890;
1219.2000;0.2955;0.9843;
1219.5000;0.2963;0.9866;
1219.8000;0.2955;0.9820;
1220.1000;0.2857;0.9493;
1220.4000;0.2996;0.9866;
1220.7000;0.2971;0.9936;
1221.0000;0.3053;1.0146;
1221.3000;0.2947;0.9820;
1221.6000;0.2963;0.9890;
1221.9000;0.3020;1.0076;
1222.2000;0.2955;0.9936;
1222.5000;0.2963;0.9913;
1222.8000;0.2955;0.9866;
1223.1000;0.2955;0.9936;
1223.4000;0.2963;0.9796;
1223.7000;0.2955;0.9726;
1224.0000;0.2971;0.9773;
1224.3000;0.2947;0.9703;
1224.6000;0.2963;0.9680;
1224.9000;0.2947;0.9586;
1225.2000;0.2979;0.9610;
1225.5000;0.2963;0.9493;
1225.8000;0.2963;0.9516;
1226.1000;0.2979;0.9470;
1226.4000;0.2930;0.9447;
1226.7000;0.2930;0.9516;
1227.0000;0.2971;0.9656;
1227.3000;0.2955;0.9633;
1227.6000;0.2939;0.9563;
1227.9000;0.2971;0.9726;
1228.2000;0.2996;0.9960;
1228.5000;0.2971;0.9890;
1228.8000;0.2930;0.9773;
1229.1000;0.2947;0.9726;
1229.4000;0.3028;0.9820;
1229.7000;0.2963;0.9633;
1230.0000;0.2955;0.9726;
1230.3000;0.2979;0.9820;
1230.6000;0.2955;0.9773;
1230.9000;0.2930;0.9633;
1231.2000;0.2987;0.9750;
1231.5000;0.2955;0.9680;
1231.8000;0.2971;0.9750;
1232.1000;0.2971;0.9726;
1232.4000;0.2898;0.9586;
1232.7000;0.2955;0.9726;
1233.0000;0.2955;0.9773;
1233.3000;0.2963;0.9680;
1233.6000;0.2955;0.9656;
1233.9000;0.2947;0.9656;
1234.2000;0.2955;0.9703;
1234.5000;0.2955;0.9680;
1234.8000;0.2955;0.9703;
1235.1000;0.2947;0.9586;
1235.4000;0.2930;0.9610;
1235.7000;0.2963;0.9656;
1236.0000;0.2971;0.9703;
1236.3000;0.2955;0.9586;
1236.6000;0.2971;0.9633;
1236.9000;0.2955;0.9610;
1237.2000;0.2979;0.9680;
1237.5000;0.2947;0.9586;
1237.8000;0.2939;0.9586;
1238.1000;0.2955;0.9610;
1238.4000;0.2963;0.9703;
1238.7000;0.2979;0.9820;
1239.0000;0.2947;0.9796;
1239.3000;0.2963;0.9820;
1239.6000;0.2987;0.9913;
1239.9000;0.2922;0.9750;
1240.2000;0.3085;1.0123;
1240.5000;0.2963;0.9773;
1240.8000;0.2963;0.9680;
1241.1000;0.2971;0.9680;
1241.4000;0.2939;0.9540;
1241.7000;0.2955;0.9540;
1242.0000;0.2987;0.9586;
1242.3000;0.2979;0.9540;
1242.6000;0.2939;0.9540;
1242.9000;0.2963;0.9656;
1243.2000;0.2963;0.9563;
1243.5000;0.2939;0.9447;
1243.8000;0.2930;0.9540;
1244.1000;0.2955;0.9656;
1244.4000;0.2955;0.9726;
1244.7000;0.2947;0.9656;
1245.0000;0.2979;0.9656;
1245.3000;0.2882;0.9400;
1245.6000;0.2955;0.9563;
1245.9000;0.2963;0.9633;
1246.2000;0.2955;0.9726;
1246.5000;0.2955;0.9750;
1246.8000;0.2963;0.9820;
1247.1000;0.2955;0.9820;
1247.4000;0.2939;0.9750;
1247.7000;0.2963;0.9750;
1248.0000;0.2987;0.9750;
1248.3000;0.2971;0.9750;
1248.6000;0.2979;0.9796;
1248.9000;0.2955;0.9796;
1249.2000;0.2955;0.9750;
1249.5000;0.2955;0.9750;
1249.8000;0.2971;0.9843;
1250.1000;0.2971;0.9843;
1250.4000;0.2963;0.9843;
1250.7000;0.2987;0.9843;
1251.0000;0.2971;0.9750;
1251.3000;0.2922;0.9610;
1251.6000;0.2930;0.9610;
1251.9000;0.2914;0.9586;
1252.2000;0.2906;0.9563;
1252.5000;0.2947;0.9680;
1252.8000;0.2898;0.9633;
1253.1000;0.2979;0.9656;
1253.4000;0.2963;0.9610;
1253.7000;0.2979;0.9680;
1254.0000;0.2963;0.9680;
1254.3000;0.2955;0.9656;
1254.6000;0.2947;0.9586;
1254.9000;0.2873;0.9377;
1255.2000;0.2922;0.9516;
1255.5000;0.2939;0.9470;
1255.8000;0.2939;0.9563;
1256.1000;0.2971;0.9586;
1256.4000;0.3004;0.9633;
1256.7000;0.2979;0.9633;
1257.0000;0.2971;0.9610;
1257.3000;0.2971;0.9633;
1257.6000;0.2963;0.9680;
1257.9000;0.2955;0.9656;
1258.2000;0.2939;0.9610;
1258.5000;0.2857;0.9423;
1258.8000;0.2882;0.9423;
1259.1000;0.2939;0.9470;
1259.4000;0.2955;0.9540;
1259.7000;0.2930;0.9540;
1260.0000;0.2963;0.9656;
1260.3000;0.3028;0.9866;
1260.6000;0.2955;0.9633;
1260.9000;0.2873;0.9353;
1261.2000;0.2963;0.9470;
1261.5000;0.2979;0.9516;
1261.8000;0.2963;0.9516;
1262.1000;0.2914;0.9563;
1262.4000;0.2955;0.9680;
1262.7000;0.2955;0.9726;
1263.0000;0.2963;0.9703;
1263.3000;0.2947;0.9703;
1263.6000;0.2963;0.9750;
1263.9000;0.2971;0.9773;
1264.2000;0.2955;0.9656;
1264.5000;0.2963;0.9633;
1264.8000;0.2979;0.9633;
1265.1000;0.2955;0.9656;
1265.4000;0.2979;0.9726;
1265.7000;0.2955;0.9610;
1266.0000;0.2922;0.9493;
1266.3000;0.2971;0.9516;
1266.6000;0.2963;0.9633;
1266.9000;0.2939;0.9563;
1267.2000;0.2955;0.9656;
1267.5000;0.2971;0.9726;
1267.8000;0.2963;0.9726;
1268.1000;0.2963;0.9703;
1268.4000;0.2930;0.9610;
1268.7000;0.2963;0.9680;
1269.0000;0.2979;0.9656;
1269.3000;0.2971;0.9633;
1269.6000;0.2963;0.9610;
1269.9000;0.2963;0.9586;
1270.2000;0.2971;0.9610;
1270.5000;0.2987;0.9656;
1270.8000;0.2979;0.9703;
1271.1000;0.2947;0.9703;
1271.4000;0.2947;0.9703;
1271.7000;0.2987;0.9773;
1272.0000;0.2963;0.9773;
1272.3000;0.2963;0.9866;
1272.6000;0.2955;0.9820;
1272.9000;0.2963;0.9843;
1273.2000;0.2955;0.9820;
1273.5000;0.2930;0.9726;
1273.8000;0.2947;0.9656;
1274.1000;0.2939;0.9656;
1274.4000;0.2939;0.9703;
1274.7000;0.2947;0.9680;
1275.0000;0.2955;0.9703;
1275.3000;0.3012;0.9913;
1275.6000;0.2955;0.9796;
1275.9000;0.2914;0.9656;
1276.2000;0.2930;0.9750;
1276.5000;0.2947;0.9773;
1276.8000;0.3044;0.9936;
1277.1000;0.2955;0.9633;
1277.4000;0.3004;0.9796;
1277.7000;0.2979;0.9680;
1278.0000;0.2979;0.9656;
1278.3000;0.2971;0.9610;
1278.6000;0.2996;0.9703;
1278.9000;0.2873;0.9470;
1279.2000;0.2963;0.9633;
1279.5000;0.2955;0.9633;
1279.8000;0.2987;0.9773;
1280.1000;0.2996;0.9843;
1280.4000;0.2906;0.9610;
1280.7000;0.2971;0.9750;
1281.0000;0.3004;0.9890;
1281.3000;0.3028;0.9936;
1281.6000;0.2979;0.9843;
1281.9000;0.2930;0.9796;
1282.2000;0.2914;0.9726;
1282.5000;0.2898;0.9680;
1282.8000;0.3028;1.0030;
1283.1000;0.2979;0.9890;
1283.4000;0.2939;0.9633;
1283.7000;0.2963;0.9703;
1284.0000;0.2963;0.9680;
1284.3000;0.2947;0.9610;
1284.6000;0.2963;0.9563;
1284.9000;0.2939;0.9633;
1285.2000;0.2930;0.9703;
1285.5000;0.2963;0.9843;
1285.8000;0.2963;0.9796;
1286.1000;0.2963;0.9820;
1286.4000;0.2955;0.9796;
1286.7000;0.2971;0.9796;
1287.0000;0.2963;0.9773;
1287.3000;0.2971;0.9773;
1287.6000;0.2947;0.9680;
1287.9000;0.2955;0.9633;
1288.2000;0.2987;0.9773;
1288.5000;0.2955;0.9703;
1288.8000;0.2939;0.9610;
1289.1000;0.2971;0.9680;
1289.4000;0.2963;0.9680;
1289.7000;0.2963;0.9866;
1290.0000;0.2963;0.9726;
1290.3000;0.2955;0.9750;
1290.6000;0.2947;0.9820;
1290.9000;0.2979;0.9960;
1291.2000;0.2930;0.9890;
1291.5000;0.2947;0.9983;
1291.8000;0.2939;0.9983;
1292.1000;0.2955;0.9983;
1292.4000;0.2947;0.9960;
1292.7000;0.2947;1.0006;
1293.0000;0.2930;0.9890;
1293.3000;0.3004;1.0053;
1293.6000;0.2963;0.9913;
1293.9000;0.2963;0.9866;
1294.2000;0.2955;0.9890;
1294.5000;0.2963;0.9773;
1294.8000;0.2963;0.9820;
1295.1000;0.2939;0.9773;
1295.4000;0.2971;0.9796;
1295.7000;0.2963;0.9773;
1296.0000;0.2979;0.9773;
1296.3000;0.2987;0.9750;
1296.6000;0.2963;0.9773;
1296.9000;0.2971;0.9703;
1297.2000;0.2963;0.9750;
1297.5000;0.2955;0.9750;
1297.8000;0.2971;0.9820;
1298.1000;0.2987;1.0006;
1298.4000;0.2930;0.9936;
1298.7000;0.2947;0.9960;
1299.0000;0.2930;0.9983;
1299.3000;0.2939;0.9936;
1299.6000;0.2963;0.9936;
1299.9000;0.3044;1.0146;
1300.2000;0.2955;0.9913;
1300.5000;0.2939;0.9843;
1300.8000;0.2971;0.9936;
1301.1000;0.2955;0.9983;
1301.4000;0.2906;0.9726;
1301.7000;0.2939;0.9796;
1302.0000;0.2906;0.9750;
1302.3000;0.2971;0.9866;
1302.6000;0.2955;0.9936;
1302.9000;0.2947;0.9913;
1303.2000;0.2947;0.9843;
1303.5000;0.2963;0.9936;
1303.8000;0.2971;0.9983;
1304.1000;0.2955;0.9843;
1304.4000;0.2939;0.9773;
1304.7000;0.2947;0.9773;
1305.0000;0.2963;0.9726;
1305.3000;0.2971;0.9656;
1305.6000;0.2922;0.9610;
1305.9000;0.2955;0.9726;
1306.2000;0.2971;0.9750;
1306.5000;0.2955;0.9773;
1306.8000;0.2947;0.9773;
1307.1000;0.2914;0.9750;
1307.4000;0.2955;0.9890;
1307.7000;0.2947;0.9866;
1308.0000;0.2947;0.9890;
1308.3000;0.2987;0.9983;
1308.6000;0.2955;0.9820;
1308.9000;0.2939;0.9890;
1309.2000;0.2922;0.9773;
1309.5000;0.2979;0.9820;
1309.8000;0.2947;0.9726;
1310.1000;0.2955;0.9633;
1310.4000;0.2955;0.9563;
1310.7000;0.2947;0.9540;
1311.0000;0.3044;0.9750;
1311.3000;0.2979;0.9610;
1311.6000;0.2947;0.9540;
1311.9000;0.2947;0.9540;
1312.2000;0.2963;0.9656;
1312.5000;0.2930;0.9750;
1312.8000;0.2955;0.9703;
1313.1000;0.2955;0.9726;
1313.4000;0.2947;0.9680;
1313.7000;0.2955;0.9796;
1314.0000;0.3044;0.9960;
1314.3000;0.2955;0.9866;
1314.6000;0.2963;0.9936;
1314.9000;0.2930;0.9913;
1315.2000;0.2947;0.9913;
1315.5000;0.2947;0.9913;
1315.8000;0.2947;0.9983;
1316.1000;0.2963;1.0006;
1316.4000;0.2963;0.9890;
1316.7000;0.2971;0.9796;
1317.0000;0.3077;1.0053;
1317.3000;0.2971;0.9796;
1317.6000;0.2947;0.9820;
1317.9000;0.2947;0.9890;
1318.2000;0.2987;0.9866;
1318.5000;0.2955;0.9750;
1318.8000;0.2955;0.9820;
1319.1000;0.2955;0.9820;
1319.4000;0.2947;0.9843;
1319.7000;0.2955;0.9890;
1320.0000;0.2947;0.9866;
1320.3000;0.2841;0.9493;
1320.6000;0.2930;0.9703;
1320.9000;0.2955;0.9703;
1321.2000;0.2955;0.9843;
1321.5000;0.2955;0.9866;
1321.8000;0.2947;0.9890;
1322.1000;0.2947;0.9983;
1322.4000;0.2963;0.9960;
1322.7000;0.2955;0.9936;
1323.0000;0.2955;0.9890;
1323.3000;0.2955;0.9796;
1323.6000;0.2939;0.9773;
1323.9000;0.3004;0.9890;
1324.2000;0.2987;0.9796;
1324.5000;0.2955;0.9750;
1324.8000;0.2955;0.9796;
1325.1000;0.2955;0.9843;
1325.4000;0.2939;0.9866;
1325.7000;0.2947;0.9820;
1326.0000;0.2955;0.9820;
1326.3000;0.2955;0.9750;
1326.6000;0.2971;0.9726;
1326.9000;0.3012;0.9866;
1327.2000;0.2996;0.9796;
1327.5000;0.2955;0.9703;
1327.8000;0.2955;0.9656;
1328.1000;0.2947;0.9610;
1328.4000;0.2971;0.9610;
1328.7000;0.2955;0.9493;
1329.0000;0.2947;0.9493;
1329.3000;0.2971;0.9610;
1329.6000;0.2971;0.9586;
1329.9000;0.2963;0.9633;
1330.2000;0.2939;0.9563;
1330.5000;0.2947;0.9563;
1330.8000;0.2963;0.9656;
1331.1000;0.2939;0.9703;
1331.4000;0.2955;0.9726;
1331.7000;0.3036;0.9890;
1332.0000;0.2979;0.9820;
1332.3000;0.2939;0.9750;
1332.6000;0.2963;0.9773;
1332.9000;0.2971;0.9796;
1333.2000;0.2955;0.9820;
1333.5000;0.2939;0.9680;
1333.8000;0.2955;0.9703;
1334.1000;0.2963;0.9820;
1334.4000;0.2930;0.9773;
1334.7000;0.2979;0.9866;
1335.0000;0.2987;0.9913;
1335.3000;0.2873;0.9633;
1335.6000;0.2955;0.9750;
1335.9000;0.2955;0.9656;
1336.2000;0.2939;0.9656;
1336.5000;0.2963;0.9796;
1336.8000;0.2955;0.9796;
1337.1000;0.2930;0.9633;
1337.4000;0.2947;0.9656;
1337.7000;0.2955;0.9680;
1338.0000;0.2955;0.9656;
1338.3000;0.2971;0.9750;
1338.6000;0.2947;0.9726;
1338.9000;0.2939;0.9680;
1339.2000;0.2922;0.9656;
1339.5000;0.2971;0.9656;
1339.8000;0.2947;0.9610;
1340.1000;0.2963;0.9633;
1340.4000;0.2979;0.9726;
1340.7000;0.2947;0.9726;
1341.0000;0.3044;0.9960;
1341.3000;0.2963;0.9866;
1341.6000;0.2947;0.9796;
1341.9000;0.2955;0.9750;
1342.2000;0.2930;0.9656;
1342.5000;0.2947;0.9680;
1342.8000;0.2955;0.9680;
1343.1000;0.2955;0.9633;
1343.4000;0.2947;0.9656;
1343.7000;0.2939;0.9680;
1344.0000;0.2939;0.9680;
1344.3000;0.2947;0.9750;
1344.6000;0.2930;0.9796;
1344.9000;0.2939;0.9843;
1345.2000;0.2939;0.9820;
1345.5000;0.3004;0.9913;
1345.8000;0.2939;0.9680;
1346.1000;0.2947;0.9703;
1346.4000;0.2914;0.9656;
1346.7000;0.2914;0.9540;
1347.0000;0.2922;0.9400;
1347.3000;0.2939;0.9353;
1347.6000;0.2939;0.9400;
1347.9000;0.2963;0.9493;
1348.2000;0.2922;0.9447;
1348.5000;0.2955;0.9633;
1348.8000;0.2987;0.9703;
1349.1000;0.2930;0.9563;
1349.4000;0.2987;0.9773;
1349.7000;0.3012;0.9936;
1350.0000;0.2971;0.9866;
1350.3000;0.2971;0.9796;
1350.6000;0.2963;0.9773;
1350.9000;0.2955;0.9773;
1351.2000;0.2914;0.9726;
1351.5000;0.2922;0.9890;
1351.8000;0.2987;1.0053;
1352.1000;0.2963;0.9960;
1352.4000;0.2979;0.9936;
1352.7000;0.2963;0.9866;
1353.0000;0.2922;0.9703;
1353.3000;0.2906;0.9610;
1353.6000;0.2971;0.9820;
1353.9000;0.2930;0.9703;
1354.2000;0.2963;0.9703;
1354.5000;0.2947;0.9656;
1354.8000;0.2955;0.9680;
1355.1000;0.2939;0.9633;
1355.4000;0.2947;0.9680;
1355.7000;0.2955;0.9726;
1356.0000;0.2979;0.9703;
1356.3000;0.2955;0.9726;
1356.6000;0.2955;0.9703;
1356.9000;0.2955;0.9750;
1357.2000;0.2955;0.9680;
1357.5000;0.2955;0.9633;
1357.8000;0.2947;0.9610;
1358.1000;0.2979;0.9750;
1358.4000;0.2996;0.9796;
1358.7000;0.2939;0.9610;
1359.0000;0.2922;0.9586;
1359.3000;0.2947;0.9796;
1359.6000;0.2947;0.9820;
1359.9000;0.2963;0.9726;
1360.2000;0.2955;0.9773;
1360.5000;0.2963;0.9820;
1360.8000;0.2963;0.9680;
1361.1000;0.2987;0.9796;
1361.4000;0.2939;0.9656;
1361.7000;0.2930;0.9680;
1362.0000;0.2947;0.9656;
1362.3000;0.2930;0.9563;
1362.6000;0.2955;0.9586;
1362.9000;0.2955;0.9586;
1363.2000;0.2906;0.9447;
1363.5000;0.2963;0.9633;
1363.8000;0.2939;0.9586;
1364.1000;0.2955;0.9703;
1364.4000;0.2955;0.9703;
1364.7000;0.2979;0.9703;
1365.0000;0.2979;0.9726;
1365.3000;0.2939;0.9680;
1365.6000;0.2939;0.9656;
1365.9000;0.2971;0.9726;
1366.2000;0.2939;0.9726;
1366.5000;0.2947;0.9703;
1366.8000;0.2963;0.9703;
1367.1000;0.2955;0.9656;
1367.4000;0.2955;0.9773;
1367.7000;0.2939;0.9726;
1368.0000;0.2955;0.9656;
1368.3000;0.2914;0.9563;
1368.6000;0.2947;0.9633;
1368.9000;0.2930;0.9563;
1369.2000;0.2963;0.9656;
1369.5000;0.2955;0.9703;
1369.8000;0.2922;0.9750;
1370.1000;0.2930;0.9750;
1370.4000;0.2947;0.9866;
1370.7000;0.2987;0.9843;
1371.0000;0.2947;0.9750;
1371.3000;0.2939;0.9773;
1371.6000;0.2939;0.9726;
1371.9000;0.2922;0.9680;
1372.2000;0.2939;0.9656;
1372.5000;0.2947;0.9610;
1372.8000;0.2947;0.9563;
1373.1000;0.2914;0.9423;
1373.4000;0.2914;0.9447;
1373.7000;0.3012;0.9703;
1374.0000;0.3004;0.9633;
1374.3000;0.2955;0.9423;
1374.6000;0.2939;0.9377;
1374.9000;0.2955;0.9353;
1375.2000;0.2971;0.9353;
1375.5000;0.2955;0.9283;
1375.8000;0.2914;0.9283;
1376.1000;0.2947;0.9423;
1376.4000;0.2922;0.9400;
1376.7000;0.2939;0.9447;
1377.0000;0.2987;0.9516;
1377.3000;0.2963;0.9470;
1377.6000;0.2963;0.9563;
1377.9000;0.2947;0.9516;
1378.2000;0.2971;0.9633;
1378.5000;0.2955;0.9586;
1378.8000;0.2963;0.9516;
1379.1000;0.2971;0.9470;
1379.4000;0.2987;0.9586;
1379.7000;0.2947;0.9540;
1380.0000;0.2971;0.9633;
1380.3000;0.3028;0.9703;
1380.6000;0.2947;0.9493;
1380.9000;0.2955;0.9516;
1381.2000;0.2996;0.9633;
1381.5000;0.2930;0.9540;
1381.8000;0.2939;0.9633;
1382.1000;0.2963;0.9680;
1382.4000;0.2930;0.9703;
1382.7000;0.2939;0.9726;
1383.0000;0.2971;0.9843;
1383.3000;0.2930;0.9750;
1383.6000;0.2963;0.9820;
1383.9000;0.2963;0.9796;
1384.2000;0.3004;0.9843;
1384.5000;0.2971;0.9820;
1384.8000;0.2955;0.9750;
1385.1000;0.2955;0.9773;
1385.4000;0.2939;0.9633;
1385.7000;0.2947;0.9610;
1386.0000;0.2963;0.9610;
1386.3000;0.2955;0.9470;
1386.6000;0.2947;0.9447;
1386.9000;0.2947;0.9447;
1387.2000;0.2955;0.9516;
1387.5000;0.2947;0.9470;
1387.8000;0.2987;0.9680;
1388.1000;0.2922;0.9540;
1388.4000;0.2955;0.9563;
1388.7000;0.3028;0.9703;
1389.0000;0.2955;0.9563;
1389.3000;0.2979;0.9726;
1389.6000;0.2955;0.9656;
1389.9000;0.2955;0.9633;
1390.2000;0.2873;0.9470;
1390.5000;0.2963;0.9656;
1390.8000;0.2971;0.9680;
1391.1000;0.3061;0.9960;
1391.4000;0.2955;0.9656;
1391.7000;0.2963;0.9750;
1392.0000;0.2971;0.9796;
1392.3000;0.2963;0.9750;
1392.6000;0.2963;0.9750;
1392.9000;0.2963;0.9726;
1393.2000;0.2930;0.9633;
1393.5000;0.2947;0.9703;
1393.8000;0.2963;0.9796;
1394.1000;0.2947;0.9726;
1394.4000;0.3077;1.0053;
1394.7000;0.2947;0.9726;
1395.0000;0.2963;0.9796;
1395.3000;0.3061;1.0053;
1395.6000;0.2955;0.9796;
1395.9000;0.2947;0.9656;
1396.2000;0.3012;0.9866;
1396.5000;0.2955;0.9726;
1396.8000;0.2955;0.9750;
1397.1000;0.2963;0.9680;
1397.4000;0.2955;0.9563;
1397.7000;0.2939;0.9470;
1398.0000;0.2947;0.9540;
1398.3000;0.2898;0.9493;
1398.6000;0.2947;0.9750;
1398.9000;0.2947;0.9750;
1399.2000;0.2996;0.9773;
1399.5000;0.2963;0.9703;
1399.8000;0.2955;0.9726;
