time/ms;Fluo/V;P700 deltaI/I x10³;
-199.8000;0.6903;0.9432;
-199.5000;0.6903;0.9504;
-199.2000;0.6919;0.9480;
-198.9000;0.6903;0.9480;
-198.6000;0.6927;0.9359;
-198.3000;0.6952;0.9383;
-198.0000;0.6984;0.9432;
-197.7000;0.6935;0.9310;
-197.4000;0.6960;0.9359;
-197.1000;0.6984;0.9383;
-196.8000;0.6992;0.9383;
-196.5000;0.6984;0.9335;
-196.2000;0.6992;0.9335;
-195.9000;0.7000;0.9383;
-195.6000;0.7025;0.9432;
-195.3000;0.7033;0.9504;
-195.0000;0.7025;0.9480;
-194.7000;0.7033;0.9432;
-194.4000;0.7041;0.9432;
-194.1000;0.7017;0.9407;
-193.8000;0.7049;0.9456;
-193.5000;0.7049;0.9407;
-193.2000;0.7057;0.9383;
-192.9000;0.7082;0.9359;
-192.6000;0.7074;0.9286;
-192.3000;0.7090;0.9335;
-192.0000;0.7123;0.9335;
-191.7000;0.7098;0.9262;
-191.4000;0.7098;0.9213;
-191.1000;0.7123;0.9335;
-190.8000;0.7131;0.9262;
-190.5000;0.7147;0.9286;
-190.2000;0.7155;0.9262;
-189.9000;0.7114;0.9116;
-189.6000;0.7139;0.9068;
-189.3000;0.7155;0.9092;
-189.0000;0.7228;0.9238;
-188.7000;0.7171;0.9116;
-188.4000;0.7179;0.9092;
-188.1000;0.7188;0.9116;
-187.8000;0.7204;0.9092;
-187.5000;0.7196;0.9068;
-187.2000;0.7204;0.9044;
-186.9000;0.7212;0.9141;
-186.6000;0.7228;0.9286;
-186.3000;0.7236;0.9335;
-186.0000;0.7253;0.9407;
-185.7000;0.7245;0.9528;
-185.4000;0.7269;0.9504;
-185.1000;0.7269;0.9456;
-184.8000;0.7277;0.9456;
-184.5000;0.7293;0.9504;
-184.2000;0.7293;0.9553;
-183.9000;0.7293;0.9432;
-183.6000;0.7310;0.9310;
-183.3000;0.7310;0.9213;
-183.0000;0.7318;0.9238;
-182.7000;0.7326;0.9335;
-182.4000;0.7318;0.9310;
-182.1000;0.7342;0.9359;
-181.8000;0.7350;0.9310;
-181.5000;0.7359;0.9310;
-181.2000;0.7383;0.9407;
-180.9000;0.7359;0.9432;
-180.6000;0.7383;0.9456;
-180.3000;0.7391;0.9480;
-180.0000;0.7383;0.9528;
-179.7000;0.7399;0.9383;
-179.4000;0.7399;0.9383;
-179.1000;0.7407;0.9359;
-178.8000;0.7399;0.9310;
-178.5000;0.7424;0.9383;
-178.2000;0.7440;0.9359;
-177.9000;0.7424;0.9335;
-177.6000;0.7440;0.9359;
-177.3000;0.7399;0.9335;
-177.0000;0.7473;0.9432;
-176.7000;0.7424;0.9310;
-176.4000;0.7497;0.9383;
-176.1000;0.7513;0.9310;
-175.8000;0.7497;0.9286;
-175.5000;0.7513;0.9238;
-175.2000;0.7538;0.9238;
-174.9000;0.7546;0.9189;
-174.6000;0.7530;0.9141;
-174.3000;0.7546;0.9092;
-174.0000;0.7554;0.9068;
-173.7000;0.7586;0.9068;
-173.4000;0.7570;0.9092;
-173.1000;0.7643;0.9286;
-172.8000;0.7586;0.9092;
-172.5000;0.7603;0.9092;
-172.2000;0.7603;0.9141;
-171.9000;0.7611;0.9092;
-171.6000;0.7611;0.9141;
-171.3000;0.7627;0.9189;
-171.0000;0.7635;0.9238;
-170.7000;0.7635;0.9238;
-170.4000;0.7652;0.9286;
-170.1000;0.7660;0.9286;
-169.8000;0.7668;0.9213;
-169.5000;0.7668;0.9213;
-169.2000;0.7668;0.9213;
-168.9000;0.7684;0.9116;
-168.6000;0.7700;0.9165;
-168.3000;0.7668;0.9141;
-168.0000;0.7700;0.9262;
-167.7000;0.7709;0.9335;
-167.4000;0.7700;0.9310;
-167.1000;0.7725;0.9335;
-166.8000;0.7725;0.9286;
-166.5000;0.7733;0.9286;
-166.2000;0.7757;0.9262;
-165.9000;0.7757;0.9141;
-165.6000;0.7774;0.9189;
-165.3000;0.7774;0.9141;
-165.0000;0.7798;0.9286;
-164.7000;0.7790;0.9310;
-164.4000;0.7798;0.9262;
-164.1000;0.7806;0.9165;
-163.8000;0.7823;0.9165;
-163.5000;0.7831;0.9116;
-163.2000;0.7814;0.9019;
-162.9000;0.7847;0.9116;
-162.6000;0.7855;0.9141;
-162.3000;0.7863;0.9165;
-162.0000;0.7880;0.9068;
-161.7000;0.7863;0.9044;
-161.4000;0.7888;0.9141;
-161.1000;0.7904;0.9238;
-160.8000;0.7937;0.9335;
-160.5000;0.7912;0.9310;
-160.2000;0.7912;0.9213;
-159.9000;0.7937;0.9238;
-159.6000;0.7937;0.9213;
-159.3000;0.7945;0.9238;
-159.0000;0.7945;0.9262;
-158.7000;0.7953;0.9262;
-158.4000;0.7961;0.9213;
-158.1000;0.7969;0.9116;
-157.8000;0.7961;0.9044;
-157.5000;0.7969;0.9044;
-157.2000;0.8002;0.9141;
-156.9000;0.7993;0.9165;
-156.6000;0.8002;0.9238;
-156.3000;0.7953;0.9141;
-156.0000;0.8018;0.9310;
-155.7000;0.8010;0.9286;
-155.4000;0.8034;0.9189;
-155.1000;0.8034;0.9092;
-154.8000;0.8050;0.9068;
-154.5000;0.8075;0.9092;
-154.2000;0.8067;0.9044;
-153.9000;0.8075;0.9019;
-153.6000;0.8099;0.9019;
-153.3000;0.8099;0.8947;
-153.0000;0.8099;0.9019;
-152.7000;0.8099;0.8898;
-152.4000;0.8140;0.8971;
-152.1000;0.8124;0.8898;
-151.8000;0.8140;0.8922;
-151.5000;0.8075;0.8777;
-151.2000;0.8124;0.8801;
-150.9000;0.8156;0.8874;
-150.6000;0.8132;0.8850;
-150.3000;0.8181;0.8995;
-150.0000;0.8189;0.8995;
-149.7000;0.8181;0.8947;
-149.4000;0.8205;0.8971;
-149.1000;0.8181;0.8922;
-148.8000;0.8221;0.8947;
-148.5000;0.8221;0.9044;
-148.2000;0.8254;0.9019;
-147.9000;0.8254;0.8947;
-147.6000;0.8238;0.8825;
-147.3000;0.8262;0.8874;
-147.0000;0.8278;0.8874;
-146.7000;0.8262;0.8947;
-146.4000;0.8254;0.8995;
-146.1000;0.8287;0.8971;
-145.8000;0.8278;0.8922;
-145.5000;0.8303;0.8922;
-145.2000;0.8303;0.8874;
-144.9000;0.8319;0.8995;
-144.6000;0.8319;0.8874;
-144.3000;0.8278;0.8753;
-144.0000;0.8335;0.8850;
-143.7000;0.8319;0.8850;
-143.4000;0.8376;0.8971;
-143.1000;0.8360;0.8922;
-142.8000;0.8287;0.8753;
-142.5000;0.8360;0.8874;
-142.2000;0.8295;0.8656;
-141.9000;0.8384;0.8825;
-141.6000;0.8376;0.8850;
-141.3000;0.8392;0.8971;
-141.0000;0.8400;0.8995;
-140.7000;0.8417;0.8995;
-140.4000;0.8425;0.9019;
-140.1000;0.8425;0.9019;
-139.8000;0.8449;0.8995;
-139.5000;0.8466;0.8947;
-139.2000;0.8449;0.8898;
-138.9000;0.8466;0.8971;
-138.6000;0.8466;0.8922;
-138.3000;0.8474;0.8971;
-138.0000;0.8482;0.8922;
-137.7000;0.8490;0.8874;
-137.4000;0.8498;0.8995;
-137.1000;0.8523;0.9068;
-136.8000;0.8514;0.9116;
-136.5000;0.8531;0.9141;
-136.2000;0.8539;0.9092;
-135.9000;0.8547;0.9019;
-135.6000;0.8571;0.9044;
-135.3000;0.8588;0.9068;
-135.0000;0.8571;0.9019;
-134.7000;0.8563;0.8947;
-134.4000;0.8588;0.8971;
-134.1000;0.8580;0.8971;
-133.8000;0.8563;0.8922;
-133.5000;0.8588;0.8995;
-133.2000;0.8620;0.9019;
-132.9000;0.8612;0.8995;
-132.6000;0.8612;0.9019;
-132.3000;0.8620;0.9019;
-132.0000;0.8620;0.8995;
-131.7000;0.8620;0.8971;
-131.4000;0.8653;0.9019;
-131.1000;0.8628;0.8971;
-130.8000;0.8645;0.8922;
-130.5000;0.8694;0.8971;
-130.2000;0.8685;0.8947;
-129.9000;0.8669;0.8947;
-129.6000;0.8694;0.8995;
-129.3000;0.8734;0.9068;
-129.0000;0.8694;0.9019;
-128.7000;0.8710;0.9019;
-128.4000;0.8734;0.9019;
-128.1000;0.8742;0.9116;
-127.8000;0.8751;0.9141;
-127.5000;0.8751;0.9044;
-127.2000;0.8694;0.8874;
-126.9000;0.8726;0.8898;
-126.6000;0.8783;0.8995;
-126.3000;0.8767;0.8922;
-126.0000;0.8783;0.8995;
-125.7000;0.8791;0.8971;
-125.4000;0.8824;0.9068;
-125.1000;0.8824;0.9044;
-124.8000;0.8824;0.9019;
-124.5000;0.8824;0.8971;
-124.2000;0.8848;0.8995;
-123.9000;0.8856;0.8995;
-123.6000;0.8848;0.9044;
-123.3000;0.8848;0.8971;
-123.0000;0.8864;0.9019;
-122.7000;0.8856;0.8995;
-122.4000;0.8873;0.8922;
-122.1000;0.8864;0.8947;
-121.8000;0.8913;0.9044;
-121.5000;0.8889;0.8971;
-121.2000;0.8881;0.8971;
-120.9000;0.8905;0.8922;
-120.6000;0.8905;0.8898;
-120.3000;0.8946;0.8995;
-120.0000;0.8913;0.9019;
-119.7000;0.8930;0.9092;
-119.4000;0.8946;0.9165;
-119.1000;0.8946;0.9141;
-118.8000;0.8954;0.9165;
-118.5000;0.8954;0.9165;
-118.2000;0.9035;0.9310;
-117.9000;0.8987;0.9116;
-117.6000;0.8978;0.9044;
-117.3000;0.8978;0.8971;
-117.0000;0.8995;0.8995;
-116.7000;0.8995;0.8947;
-116.4000;0.9003;0.8947;
-116.1000;0.9003;0.8947;
-115.8000;0.9011;0.8971;
-115.5000;0.9027;0.8922;
-115.2000;0.9035;0.8971;
-114.9000;0.9035;0.8947;
-114.6000;0.9052;0.8922;
-114.3000;0.9052;0.8922;
-114.0000;0.9068;0.8971;
-113.7000;0.9076;0.8971;
-113.4000;0.9060;0.8922;
-113.1000;0.9084;0.8971;
-112.8000;0.9117;0.9019;
-112.5000;0.9109;0.8995;
-112.2000;0.9133;0.8971;
-111.9000;0.9117;0.8898;
-111.6000;0.9117;0.8947;
-111.3000;0.9125;0.8947;
-111.0000;0.9125;0.8995;
-110.7000;0.9141;0.8995;
-110.4000;0.9149;0.9019;
-110.1000;0.9133;0.8947;
-109.8000;0.9182;0.9068;
-109.5000;0.9158;0.8971;
-109.2000;0.9166;0.8995;
-108.9000;0.9174;0.8922;
-108.6000;0.9182;0.8971;
-108.3000;0.9158;0.8850;
-108.0000;0.9190;0.9019;
-107.7000;0.9190;0.9019;
-107.4000;0.9214;0.9044;
-107.1000;0.9198;0.9019;
-106.8000;0.9239;0.9092;
-106.5000;0.9239;0.9068;
-106.2000;0.9239;0.9044;
-105.9000;0.9247;0.8995;
-105.6000;0.9247;0.8995;
-105.3000;0.9247;0.9044;
-105.0000;0.9255;0.9044;
-104.7000;0.9271;0.9141;
-104.4000;0.9271;0.9141;
-104.1000;0.9280;0.9044;
-103.8000;0.9304;0.9019;
-103.5000;0.9296;0.8971;
-103.2000;0.9296;0.9019;
-102.9000;0.9312;0.8971;
-102.6000;0.9312;0.8971;
-102.3000;0.9328;0.8971;
-102.0000;0.9328;0.8971;
-101.7000;0.9337;0.8971;
-101.4000;0.9345;0.8971;
-101.1000;0.9369;0.9019;
-100.8000;0.9353;0.9092;
-100.5000;0.9361;0.9068;
-100.2000;0.9369;0.9068;
-99.9000;0.9369;0.9019;
-99.6000;0.9385;0.9019;
-99.3000;0.9410;0.9092;
-99.0000;0.9385;0.9116;
-98.7000;0.9402;0.9141;
-98.4000;0.9426;0.9116;
-98.1000;0.9410;0.8971;
-97.8000;0.9385;0.8947;
-97.5000;0.9426;0.9141;
-97.2000;0.9434;0.9213;
-96.9000;0.9459;0.9286;
-96.6000;0.9434;0.9189;
-96.3000;0.9442;0.9141;
-96.0000;0.9459;0.9189;
-95.7000;0.9451;0.9116;
-95.4000;0.9451;0.9019;
-95.1000;0.9475;0.9019;
-94.8000;0.9475;0.8874;
-94.5000;0.9483;0.8922;
-94.2000;0.9459;0.8825;
-93.9000;0.9459;0.8825;
-93.6000;0.9491;0.8922;
-93.3000;0.9516;0.8947;
-93.0000;0.9524;0.8922;
-92.7000;0.9532;0.8995;
-92.4000;0.9516;0.8825;
-92.1000;0.9532;0.8728;
-91.8000;0.9548;0.8728;
-91.5000;0.9556;0.8825;
-91.2000;0.9532;0.8728;
-90.9000;0.9556;0.8753;
-90.6000;0.9540;0.8753;
-90.3000;0.9532;0.8777;
-90.0000;0.9548;0.8898;
-89.7000;0.9565;0.8898;
-89.4000;0.9548;0.8777;
-89.1000;0.9613;0.8971;
-88.8000;0.9573;0.8825;
-88.5000;0.9589;0.8898;
-88.2000;0.9621;0.8922;
-87.9000;0.9613;0.8898;
-87.6000;0.9621;0.8922;
-87.3000;0.9613;0.8850;
-87.0000;0.9638;0.8874;
-86.7000;0.9613;0.8850;
-86.4000;0.9646;0.8947;
-86.1000;0.9646;0.8898;
-85.8000;0.9646;0.8850;
-85.5000;0.9654;0.8728;
-85.2000;0.9646;0.8631;
-84.9000;0.9646;0.8753;
-84.6000;0.9670;0.8850;
-84.3000;0.9646;0.8753;
-84.0000;0.9687;0.8850;
-83.7000;0.9687;0.8801;
-83.4000;0.9695;0.8825;
-83.1000;0.9703;0.8874;
-82.8000;0.9703;0.8850;
-82.5000;0.9695;0.8753;
-82.2000;0.9711;0.8753;
-81.9000;0.9719;0.8753;
-81.6000;0.9719;0.8801;
-81.3000;0.9727;0.8801;
-81.0000;0.9735;0.8850;
-80.7000;0.9744;0.8801;
-80.4000;0.9744;0.8753;
-80.1000;0.9735;0.8777;
-79.8000;0.9752;0.8704;
-79.5000;0.9760;0.8777;
-79.2000;0.9784;0.8753;
-78.9000;0.9768;0.8728;
-78.6000;0.9817;0.8825;
-78.3000;0.9776;0.8704;
-78.0000;0.9792;0.8728;
-77.7000;0.9784;0.8753;
-77.4000;0.9801;0.8777;
-77.1000;0.9792;0.8753;
-76.8000;0.9801;0.8728;
-76.5000;0.9809;0.8728;
-76.2000;0.9817;0.8825;
-75.9000;0.9784;0.8850;
-75.6000;0.9833;0.8898;
-75.3000;0.9833;0.8801;
-75.0000;0.9849;0.8753;
-74.7000;0.9841;0.8656;
-74.4000;0.9866;0.8777;
-74.1000;0.9858;0.8656;
-73.8000;0.9898;0.8753;
-73.5000;0.9858;0.8631;
-73.2000;0.9841;0.8607;
-72.9000;0.9866;0.8631;
-72.6000;0.9866;0.8656;
-72.3000;0.9866;0.8559;
-72.0000;0.9890;0.8583;
-71.7000;0.9809;0.8413;
-71.4000;0.9882;0.8559;
-71.1000;0.9874;0.8559;
-70.8000;0.9882;0.8583;
-70.5000;0.9882;0.8534;
-70.2000;0.9898;0.8559;
-69.9000;0.9923;0.8704;
-69.6000;0.9890;0.8656;
-69.3000;0.9898;0.8607;
-69.0000;0.9931;0.8631;
-68.7000;0.9931;0.8631;
-68.4000;0.9923;0.8680;
-68.1000;0.9923;0.8656;
-67.8000;0.9923;0.8583;
-67.5000;0.9947;0.8631;
-67.2000;0.9972;0.8704;
-66.9000;0.9980;0.8825;
-66.6000;1.0012;0.8850;
-66.3000;0.9980;0.8680;
-66.0000;0.9980;0.8680;
-65.7000;0.9972;0.8680;
-65.4000;0.9972;0.8656;
-65.1000;0.9988;0.8680;
-64.8000;0.9980;0.8583;
-64.5000;0.9980;0.8534;
-64.2000;0.9980;0.8583;
-63.9000;0.9996;0.8607;
-63.6000;1.0020;0.8583;
-63.3000;1.0004;0.8559;
-63.0000;1.0020;0.8559;
-62.7000;1.0037;0.8607;
-62.4000;1.0012;0.8607;
-62.1000;0.9980;0.8486;
-61.8000;1.0020;0.8656;
-61.5000;1.0012;0.8656;
-61.2000;0.9980;0.8583;
-60.9000;1.0020;0.8656;
-60.6000;1.0028;0.8704;
-60.3000;1.0053;0.8704;
-60.0000;1.0061;0.8704;
-59.7000;1.0061;0.8704;
-59.4000;1.0053;0.8656;
-59.1000;1.0069;0.8704;
-58.8000;1.0053;0.8777;
-58.5000;1.0061;0.8801;
-58.2000;1.0085;0.8874;
-57.9000;1.0077;0.8874;
-57.6000;1.0069;0.8850;
-57.3000;1.0094;0.8850;
-57.0000;1.0175;0.8971;
-56.7000;1.0102;0.8825;
-56.4000;1.0118;0.8874;
-56.1000;1.0102;0.8704;
-55.8000;1.0094;0.8607;
-55.5000;1.0110;0.8680;
-55.2000;1.0183;0.8825;
-54.9000;1.0134;0.8728;
-54.6000;1.0134;0.8753;
-54.3000;1.0126;0.8874;
-54.0000;1.0126;0.8947;
-53.7000;1.0151;0.9019;
-53.4000;1.0142;0.9019;
-53.1000;1.0142;0.8947;
-52.8000;1.0159;0.9044;
-52.5000;1.0159;0.8995;
-52.2000;1.0167;0.9044;
-51.9000;1.0159;0.8971;
-51.6000;1.0159;0.8971;
-51.3000;1.0191;0.9019;
-51.0000;1.0183;0.8971;
-50.7000;1.0191;0.8947;
-50.4000;1.0183;0.8850;
-50.1000;1.0175;0.8850;
-49.8000;1.0183;0.8801;
-49.5000;1.0208;0.8825;
-49.2000;1.0183;0.8777;
-48.9000;1.0191;0.8874;
-48.6000;1.0208;0.8947;
-48.3000;1.0191;0.8947;
-48.0000;1.0208;0.8947;
-47.7000;1.0208;0.8947;
-47.4000;1.0216;0.8922;
-47.1000;1.0224;0.8874;
-46.8000;1.0232;0.8850;
-46.5000;1.0224;0.8728;
-46.2000;1.0248;0.8704;
-45.9000;1.0256;0.8728;
-45.6000;1.0248;0.8753;
-45.3000;1.0265;0.8753;
-45.0000;1.0265;0.8777;
-44.7000;1.0256;0.8801;
-44.4000;1.0265;0.8825;
-44.1000;1.0208;0.8656;
-43.8000;1.0256;0.8728;
-43.5000;1.0297;0.8898;
-43.2000;1.0265;0.8728;
-42.9000;1.0265;0.8680;
-42.6000;1.0305;0.8825;
-42.3000;1.0289;0.8801;
-42.0000;1.0346;0.8898;
-41.7000;1.0256;0.8656;
-41.4000;1.0281;0.8656;
-41.1000;1.0305;0.8680;
-40.8000;1.0297;0.8728;
-40.5000;1.0305;0.8753;
-40.2000;1.0289;0.8777;
-39.9000;1.0305;0.8825;
-39.6000;1.0338;0.9019;
-39.3000;1.0313;0.8995;
-39.0000;1.0305;0.8874;
-38.7000;1.0330;0.8850;
-38.4000;1.0330;0.8801;
-38.1000;1.0305;0.8753;
-37.8000;1.0387;0.9068;
-37.5000;1.0322;0.8922;
-37.2000;1.0338;0.8874;
-36.9000;1.0338;0.8825;
-36.6000;1.0338;0.8680;
-36.3000;1.0338;0.8728;
-36.0000;1.0354;0.8801;
-35.7000;1.0354;0.8777;
-35.4000;1.0354;0.8801;
-35.1000;1.0354;0.8850;
-34.8000;1.0354;0.8825;
-34.5000;1.0370;0.8825;
-34.2000;1.0346;0.8656;
-33.9000;1.0362;0.8704;
-33.6000;1.0354;0.8680;
-33.3000;1.0362;0.8704;
-33.0000;1.0411;0.8728;
-32.7000;1.0338;0.8607;
-32.4000;1.0362;0.8728;
-32.1000;1.0338;0.8680;
-31.8000;1.0411;0.8898;
-31.5000;1.0379;0.8777;
-31.2000;1.0403;0.8777;
-30.9000;1.0395;0.8753;
-30.6000;1.0411;0.8874;
-30.3000;1.0403;0.8874;
-30.0000;1.0411;0.8850;
-29.7000;1.0427;0.8898;
-29.4000;1.0452;0.8898;
-29.1000;1.0419;0.8801;
-28.8000;1.0403;0.8704;
-28.5000;1.0427;0.8704;
-28.2000;1.0427;0.8680;
-27.9000;1.0419;0.8607;
-27.6000;1.0435;0.8631;
-27.3000;1.0435;0.8631;
-27.0000;1.0452;0.8753;
-26.7000;1.0444;0.8777;
-26.4000;1.0444;0.8850;
-26.1000;1.0435;0.8801;
-25.8000;1.0444;0.8753;
-25.5000;1.0452;0.8777;
-25.2000;1.0452;0.8753;
-24.9000;1.0452;0.8801;
-24.6000;1.0452;0.8777;
-24.3000;1.0476;0.8874;
-24.0000;1.0460;0.8728;
-23.7000;1.0452;0.8728;
-23.4000;1.0444;0.8656;
-23.1000;1.0460;0.8704;
-22.8000;1.0460;0.8656;
-22.5000;1.0460;0.8704;
-22.2000;1.0484;0.8777;
-21.9000;1.0492;0.8777;
-21.6000;1.0484;0.8777;
-21.3000;1.0484;0.8777;
-21.0000;1.0492;0.8728;
-20.7000;1.0501;0.8728;
-20.4000;1.0468;0.8583;
-20.1000;1.0525;0.8680;
-19.8000;1.0509;0.8680;
-19.5000;1.0525;0.8777;
-19.2000;1.0509;0.8728;
-18.9000;1.0574;0.8922;
-18.6000;1.0492;0.8777;
-18.3000;1.0501;0.8753;
-18.0000;1.0517;0.8777;
-17.7000;1.0509;0.8777;
-17.4000;1.0509;0.8777;
-17.1000;1.0517;0.8753;
-16.8000;1.0541;0.8753;
-16.5000;1.0541;0.8777;
-16.2000;1.0566;0.8825;
-15.9000;1.0525;0.8704;
-15.6000;1.0566;0.8801;
-15.3000;1.0566;0.8850;
-15.0000;1.0541;0.8777;
-14.7000;1.0549;0.8801;
-14.4000;1.0549;0.8801;
-14.1000;1.0549;0.8874;
-13.8000;1.0549;0.8850;
-13.5000;1.0541;0.8850;
-13.2000;1.0541;0.8850;
-12.9000;1.0590;0.8825;
-12.6000;1.0558;0.8777;
-12.3000;1.0549;0.8825;
-12.0000;1.0549;0.8801;
-11.7000;1.0549;0.8801;
-11.4000;1.0574;0.8825;
-11.1000;1.0558;0.8777;
-10.8000;1.0566;0.8825;
-10.5000;1.0574;0.8850;
-10.2000;1.0549;0.8777;
-9.9000;1.0558;0.8777;
-9.6000;1.0574;0.8825;
-9.3000;1.0574;0.8777;
-9.0000;1.0582;0.8704;
-8.7000;1.0590;0.8656;
-8.4000;1.0566;0.8607;
-8.1000;1.0590;0.8680;
-7.8000;1.0582;0.8680;
-7.5000;1.0598;0.8728;
-7.2000;1.0606;0.8607;
-6.9000;1.0590;0.8583;
-6.6000;1.0631;0.8656;
-6.3000;1.0623;0.8680;
-6.0000;1.0615;0.8631;
-5.7000;1.0606;0.8559;
-5.4000;1.0598;0.8486;
-5.1000;1.0623;0.8559;
-4.8000;1.0631;0.8607;
-4.5000;1.0606;0.8680;
-4.2000;1.0574;0.8631;
-3.9000;1.0631;0.8801;
-3.6000;1.0615;0.8753;
-3.3000;1.0631;0.8777;
-3.0000;1.0704;0.8995;
-2.7000;1.0623;0.8777;
-2.4000;1.0582;0.8680;
-2.1000;1.0623;0.8753;
-1.8000;1.0623;0.8728;
-1.5000;1.0647;0.8777;
-1.2000;1.0598;0.8583;
-0.9000;1.0639;0.8656;
-0.6000;1.0639;0.8656;
-0.3000;1.0647;0.8656;
0.0000;1.0647;0.8656;
0.3000;1.1022;0.8656;
0.6000;1.1689;0.8995;
0.9000;1.2308;0.9650;
1.2000;1.2764;1.0110;
1.5000;1.3105;1.0426;
1.8000;1.3398;1.0814;
2.1000;1.3643;1.1007;
2.4000;1.3838;1.1153;
2.7000;1.4009;1.1274;
3.0000;1.4115;1.1274;
3.3000;1.4294;1.1589;
3.6000;1.4343;1.1395;
3.9000;1.4440;1.1517;
4.2000;1.4505;1.1541;
4.5000;1.4505;1.1541;
4.8000;1.4628;1.1711;
5.1000;1.4693;1.1735;
5.4000;1.4766;1.1808;
5.7000;1.4782;1.1662;
6.0000;1.4815;1.1735;
6.3000;1.4856;1.1735;
6.6000;1.4896;1.1735;
6.9000;1.4912;1.1686;
7.2000;1.4945;1.1759;
7.5000;1.4986;1.1783;
7.8000;1.5010;1.1783;
8.1000;1.5043;1.1783;
8.4000;1.5051;1.1808;
8.7000;1.5116;1.1929;
9.0000;1.5124;1.1953;
9.3000;1.5132;1.1905;
9.6000;1.5157;1.1880;
9.9000;1.5189;1.1856;
10.2000;1.5222;1.1856;
10.5000;1.5246;1.1856;
10.8000;1.5230;1.1783;
11.1000;1.5230;1.1662;
11.4000;1.5263;1.1638;
11.7000;1.5311;1.1711;
12.0000;1.5336;1.1759;
12.3000;1.5368;1.1759;
12.6000;1.5376;1.1686;
12.9000;1.5360;1.1614;
13.2000;1.5417;1.1686;
13.5000;1.5433;1.1711;
13.8000;1.5466;1.1735;
14.1000;1.5474;1.1711;
14.4000;1.5466;1.1638;
14.7000;1.5490;1.1711;
15.0000;1.5523;1.1783;
15.3000;1.5580;1.1929;
15.6000;1.5556;1.1808;
15.9000;1.5572;1.1808;
16.2000;1.5596;1.1832;
16.5000;1.5613;1.1735;
16.8000;1.5629;1.1686;
17.1000;1.5621;1.1541;
17.4000;1.5653;1.1468;
17.7000;1.5653;1.1420;
18.0000;1.5678;1.1444;
18.3000;1.5678;1.1492;
18.6000;1.5702;1.1492;
18.9000;1.5726;1.1541;
19.2000;1.5743;1.1492;
19.5000;1.5751;1.1444;
19.8000;1.5767;1.1420;
20.1000;1.5767;1.1420;
20.4000;1.5775;1.1420;
20.7000;1.5792;1.1444;
21.0000;1.5800;1.1420;
21.3000;1.5800;1.1420;
21.6000;1.5824;1.1444;
21.9000;1.5824;1.1323;
22.2000;1.5840;1.1420;
22.5000;1.5840;1.1468;
22.8000;1.5857;1.1468;
23.1000;1.5857;1.1444;
23.4000;1.5857;1.1371;
23.7000;1.5889;1.1395;
24.0000;1.5897;1.1371;
24.3000;1.5914;1.1323;
24.6000;1.5914;1.1274;
24.9000;1.5906;1.1274;
25.2000;1.5938;1.1347;
25.5000;1.5946;1.1323;
25.8000;1.5963;1.1323;
26.1000;1.5938;1.1298;
26.4000;1.5971;1.1395;
26.7000;1.5979;1.1468;
27.0000;1.5995;1.1444;
27.3000;1.5971;1.1395;
27.6000;1.5954;1.1347;
27.9000;1.5987;1.1395;
28.2000;1.6003;1.1468;
28.5000;1.6003;1.1468;
28.8000;1.6085;1.1589;
29.1000;1.6011;1.1395;
29.4000;1.5979;1.1347;
29.7000;1.6036;1.1420;
30.0000;1.6052;1.1371;
30.3000;1.6109;1.1444;
30.6000;1.6052;1.1298;
30.9000;1.6060;1.1274;
31.2000;1.6077;1.1298;
31.5000;1.6077;1.1323;
31.8000;1.6077;1.1274;
32.1000;1.6085;1.1250;
32.4000;1.6101;1.1201;
32.7000;1.6093;1.1129;
33.0000;1.6101;1.1129;
33.3000;1.6109;1.1201;
33.6000;1.6101;1.1177;
33.9000;1.6028;1.0959;
34.2000;1.6125;1.1250;
34.5000;1.6150;1.1201;
34.8000;1.6142;1.1177;
35.1000;1.6133;1.1250;
35.4000;1.6150;1.1323;
35.7000;1.6117;1.1274;
36.0000;1.6133;1.1298;
36.3000;1.6093;1.1226;
36.6000;1.6142;1.1274;
36.9000;1.6150;1.1250;
37.2000;1.6142;1.1226;
37.5000;1.6142;1.1153;
37.8000;1.6174;1.1250;
38.1000;1.6174;1.1201;
38.4000;1.6166;1.1201;
38.7000;1.6174;1.1274;
39.0000;1.6182;1.1177;
39.3000;1.6215;1.1201;
39.6000;1.6207;1.1274;
39.9000;1.6199;1.1226;
40.2000;1.6207;1.1201;
40.5000;1.6207;1.1274;
40.8000;1.6231;1.1274;
41.1000;1.6223;1.1250;
41.4000;1.6223;1.1153;
41.7000;1.6231;1.1104;
42.0000;1.6239;1.1080;
42.3000;1.6239;1.1104;
42.6000;1.6239;1.1007;
42.9000;1.6256;1.1032;
43.2000;1.6231;1.1056;
43.5000;1.6223;1.1056;
43.8000;1.6231;1.1032;
44.1000;1.6239;1.1032;
44.4000;1.6239;1.1007;
44.7000;1.6247;1.0935;
45.0000;1.6264;1.0983;
45.3000;1.6272;1.1080;
45.6000;1.6280;1.1007;
45.9000;1.6256;1.0983;
46.2000;1.6272;1.0959;
46.5000;1.6256;1.0910;
46.8000;1.6304;1.1080;
47.1000;1.6272;1.1056;
47.4000;1.6280;1.1080;
47.7000;1.6280;1.1080;
48.0000;1.6280;1.1056;
48.3000;1.6321;1.1177;
48.6000;1.6313;1.1298;
48.9000;1.6280;1.1177;
49.2000;1.6288;1.1153;
49.5000;1.6256;1.1056;
49.8000;1.6304;1.1129;
50.1000;1.6304;1.1080;
50.4000;1.6304;1.1104;
50.7000;1.6313;1.1080;
51.0000;1.6329;1.1104;
51.3000;1.6288;1.1032;
51.6000;1.6337;1.1056;
51.9000;1.6337;1.1129;
52.2000;1.6329;1.1032;
52.5000;1.6337;1.0983;
52.8000;1.6337;1.1007;
53.1000;1.6337;1.0983;
53.4000;1.6345;1.1032;
53.7000;1.6345;1.0935;
54.0000;1.6329;1.0862;
54.3000;1.6353;1.0886;
54.6000;1.6345;1.0741;
54.9000;1.6370;1.0814;
55.2000;1.6337;1.0862;
55.5000;1.6353;1.0862;
55.8000;1.6345;1.0886;
56.1000;1.6361;1.0862;
56.4000;1.6361;1.0910;
56.7000;1.6370;1.0910;
57.0000;1.6370;1.0886;
57.3000;1.6378;1.1007;
57.6000;1.6386;1.1007;
57.9000;1.6378;1.1056;
58.2000;1.6370;1.0983;
58.5000;1.6386;1.1007;
58.8000;1.6378;1.0959;
59.1000;1.6361;1.0910;
59.4000;1.6370;1.0886;
59.7000;1.6370;1.0862;
60.0000;1.6378;1.0814;
60.3000;1.6386;1.0838;
60.6000;1.6378;1.0838;
60.9000;1.6370;1.0789;
61.2000;1.6394;1.0838;
61.5000;1.6394;1.0741;
61.8000;1.6386;1.0668;
62.1000;1.6386;1.0644;
62.4000;1.6386;1.0547;
62.7000;1.6402;1.0644;
63.0000;1.6402;1.0717;
63.3000;1.6402;1.0789;
63.6000;1.6410;1.0886;
63.9000;1.6394;1.0862;
64.2000;1.6394;1.0910;
64.5000;1.6394;1.1032;
64.8000;1.6402;1.1080;
65.1000;1.6410;1.1056;
65.4000;1.6410;1.1007;
65.7000;1.6402;1.1007;
66.0000;1.6402;1.1056;
66.3000;1.6418;1.1032;
66.6000;1.6410;1.0959;
66.9000;1.6410;1.1032;
67.2000;1.6427;1.1032;
67.5000;1.6435;1.1056;
67.8000;1.6427;1.1032;
68.1000;1.6435;1.1080;
68.4000;1.6427;1.1104;
68.7000;1.6451;1.1104;
69.0000;1.6418;1.1056;
69.3000;1.6443;1.1104;
69.6000;1.6516;1.1298;
69.9000;1.6427;1.1032;
70.2000;1.6418;1.1080;
70.5000;1.6435;1.1080;
70.8000;1.6427;1.1104;
71.1000;1.6427;1.1129;
71.4000;1.6459;1.1129;
71.7000;1.6451;1.1056;
72.0000;1.6435;1.1007;
72.3000;1.6435;1.0910;
72.6000;1.6443;1.0983;
72.9000;1.6451;1.0910;
73.2000;1.6435;1.0741;
73.5000;1.6451;1.0765;
73.8000;1.6459;1.0741;
74.1000;1.6492;1.0741;
74.4000;1.6402;1.0498;
74.7000;1.6427;1.0644;
75.0000;1.6435;1.0644;
75.3000;1.6451;1.0717;
75.6000;1.6459;1.0717;
75.9000;1.6451;1.0741;
76.2000;1.6443;1.0717;
76.5000;1.6467;1.0644;
76.8000;1.6459;1.0668;
77.1000;1.6459;1.0765;
77.4000;1.6451;1.0692;
77.7000;1.6467;1.0741;
78.0000;1.6467;1.0741;
78.3000;1.6467;1.0814;
78.6000;1.6451;1.0838;
78.9000;1.6443;1.0838;
79.2000;1.6467;1.0886;
79.5000;1.6467;1.0862;
79.8000;1.6443;1.0814;
80.1000;1.6410;1.0668;
80.4000;1.6467;1.0789;
80.7000;1.6475;1.0765;
81.0000;1.6467;1.0838;
81.3000;1.6467;1.0789;
81.6000;1.6475;1.0789;
81.9000;1.6484;1.0838;
82.2000;1.6467;1.0741;
82.5000;1.6475;1.0692;
82.8000;1.6484;1.0717;
83.1000;1.6475;1.0571;
83.4000;1.6467;1.0547;
83.7000;1.6475;1.0595;
84.0000;1.6484;1.0644;
84.3000;1.6451;1.0571;
84.6000;1.6475;1.0644;
84.9000;1.6475;1.0571;
85.2000;1.6484;1.0692;
85.5000;1.6484;1.0644;
85.8000;1.6492;1.0692;
86.1000;1.6475;1.0668;
86.4000;1.6475;1.0741;
86.7000;1.6484;1.0692;
87.0000;1.6508;1.0741;
87.3000;1.6492;1.0741;
87.6000;1.6484;1.0717;
87.9000;1.6484;1.0644;
88.2000;1.6467;1.0595;
88.5000;1.6492;1.0595;
88.8000;1.6492;1.0620;
89.1000;1.6500;1.0644;
89.4000;1.6500;1.0620;
89.7000;1.6524;1.0668;
90.0000;1.6467;1.0523;
90.3000;1.6484;1.0571;
90.6000;1.6484;1.0523;
90.9000;1.6492;1.0595;
91.2000;1.6484;1.0523;
91.5000;1.6467;1.0498;
91.8000;1.6540;1.0644;
92.1000;1.6500;1.0571;
92.4000;1.6484;1.0571;
92.7000;1.6500;1.0547;
93.0000;1.6467;1.0523;
93.3000;1.6492;1.0595;
93.6000;1.6492;1.0620;
93.9000;1.6492;1.0523;
94.2000;1.6484;1.0498;
94.5000;1.6492;1.0474;
94.8000;1.6484;1.0523;
95.1000;1.6484;1.0498;
95.4000;1.6484;1.0498;
95.7000;1.6508;1.0474;
96.0000;1.6516;1.0523;
96.3000;1.6516;1.0474;
96.6000;1.6532;1.0595;
96.9000;1.6524;1.0595;
97.2000;1.6500;1.0595;
97.5000;1.6492;1.0571;
97.8000;1.6508;1.0668;
98.1000;1.6532;1.0717;
98.4000;1.6581;1.0862;
98.7000;1.6516;1.0668;
99.0000;1.6508;1.0595;
99.3000;1.6508;1.0692;
99.6000;1.6508;1.0741;
99.9000;1.6508;1.0717;
100.2000;1.6516;1.0765;
100.5000;1.6524;1.0789;
100.8000;1.6540;1.0862;
101.1000;1.6516;1.0814;
101.4000;1.6500;1.0789;
101.7000;1.6508;1.0668;
102.0000;1.6532;1.0741;
102.3000;1.6508;1.0620;
102.6000;1.6524;1.0595;
102.9000;1.6508;1.0595;
103.2000;1.6516;1.0595;
103.5000;1.6524;1.0571;
103.8000;1.6524;1.0644;
104.1000;1.6508;1.0595;
104.4000;1.6508;1.0595;
104.7000;1.6524;1.0620;
105.0000;1.6557;1.0717;
105.3000;1.6500;1.0571;
105.6000;1.6516;1.0620;
105.9000;1.6540;1.0668;
106.2000;1.6508;1.0620;
106.5000;1.6516;1.0692;
106.8000;1.6508;1.0717;
107.1000;1.6492;1.0644;
107.4000;1.6516;1.0668;
107.7000;1.6524;1.0595;
108.0000;1.6516;1.0595;
108.3000;1.6516;1.0595;
108.6000;1.6532;1.0644;
108.9000;1.6524;1.0571;
109.2000;1.6524;1.0547;
109.5000;1.6508;1.0523;
109.8000;1.6524;1.0620;
110.1000;1.6524;1.0620;
110.4000;1.6516;1.0523;
110.7000;1.6508;1.0547;
111.0000;1.6516;1.0595;
111.3000;1.6524;1.0668;
111.6000;1.6508;1.0571;
111.9000;1.6524;1.0547;
112.2000;1.6524;1.0547;
112.5000;1.6524;1.0571;
112.8000;1.6484;1.0498;
113.1000;1.6540;1.0741;
113.4000;1.6524;1.0741;
113.7000;1.6540;1.0692;
114.0000;1.6524;1.0547;
114.3000;1.6484;1.0450;
114.6000;1.6524;1.0595;
114.9000;1.6524;1.0620;
115.2000;1.6532;1.0741;
115.5000;1.6532;1.0741;
115.8000;1.6508;1.0644;
116.1000;1.6516;1.0595;
116.4000;1.6516;1.0571;
116.7000;1.6508;1.0523;
117.0000;1.6500;1.0523;
117.3000;1.6524;1.0498;
117.6000;1.6516;1.0401;
117.9000;1.6508;1.0401;
118.2000;1.6508;1.0353;
118.5000;1.6557;1.0401;
118.8000;1.6508;1.0353;
119.1000;1.6516;1.0450;
119.4000;1.6516;1.0450;
119.7000;1.6508;1.0401;
120.0000;1.6532;1.0353;
120.3000;1.6492;1.0207;
120.6000;1.6516;1.0329;
120.9000;1.6524;1.0426;
121.2000;1.6524;1.0401;
121.5000;1.6500;1.0304;
121.8000;1.6532;1.0329;
122.1000;1.6524;1.0329;
122.4000;1.6565;1.0450;
122.7000;1.6532;1.0401;
123.0000;1.6540;1.0474;
123.3000;1.6540;1.0426;
123.6000;1.6540;1.0401;
123.9000;1.6549;1.0377;
124.2000;1.6532;1.0353;
124.5000;1.6540;1.0304;
124.8000;1.6532;1.0329;
125.1000;1.6549;1.0426;
125.4000;1.6540;1.0474;
125.7000;1.6516;1.0474;
126.0000;1.6508;1.0401;
126.3000;1.6516;1.0401;
126.6000;1.6524;1.0426;
126.9000;1.6459;1.0304;
127.2000;1.6516;1.0474;
127.5000;1.6532;1.0547;
127.8000;1.6597;1.0692;
128.1000;1.6524;1.0450;
128.4000;1.6524;1.0353;
128.7000;1.6524;1.0304;
129.0000;1.6516;1.0280;
129.3000;1.6540;1.0426;
129.6000;1.6532;1.0450;
129.9000;1.6508;1.0401;
130.2000;1.6532;1.0426;
130.5000;1.6451;1.0232;
130.8000;1.6516;1.0304;
131.1000;1.6508;1.0207;
131.4000;1.6524;1.0207;
131.7000;1.6524;1.0183;
132.0000;1.6516;1.0183;
132.3000;1.6524;1.0135;
132.6000;1.6524;1.0086;
132.9000;1.6532;1.0110;
133.2000;1.6508;1.0062;
133.5000;1.6516;1.0110;
133.8000;1.6524;1.0256;
134.1000;1.6549;1.0353;
134.4000;1.6516;1.0304;
134.7000;1.6516;1.0353;
135.0000;1.6516;1.0377;
135.3000;1.6549;1.0498;
135.6000;1.6532;1.0523;
135.9000;1.6524;1.0547;
136.2000;1.6589;1.0717;
136.5000;1.6532;1.0644;
136.8000;1.6540;1.0644;
137.1000;1.6508;1.0668;
137.4000;1.6516;1.0765;
137.7000;1.6516;1.0789;
138.0000;1.6508;1.0741;
138.3000;1.6540;1.0717;
138.6000;1.6524;1.0644;
138.9000;1.6516;1.0571;
139.2000;1.6524;1.0474;
139.5000;1.6540;1.0523;
139.8000;1.6524;1.0498;
140.1000;1.6540;1.0595;
140.4000;1.6508;1.0498;
140.7000;1.6524;1.0547;
141.0000;1.6532;1.0547;
141.3000;1.6500;1.0426;
141.6000;1.6508;1.0450;
141.9000;1.6524;1.0498;
142.2000;1.6500;1.0547;
142.5000;1.6508;1.0547;
142.8000;1.6516;1.0498;
143.1000;1.6532;1.0498;
143.4000;1.6475;1.0377;
143.7000;1.6524;1.0474;
144.0000;1.6524;1.0450;
144.3000;1.6524;1.0353;
144.6000;1.6532;1.0377;
144.9000;1.6508;1.0426;
145.2000;1.6540;1.0547;
145.5000;1.6540;1.0547;
145.8000;1.6540;1.0474;
146.1000;1.6540;1.0450;
146.4000;1.6540;1.0523;
146.7000;1.6524;1.0498;
147.0000;1.6532;1.0474;
147.3000;1.6500;1.0377;
147.6000;1.6508;1.0498;
147.9000;1.6532;1.0595;
148.2000;1.6524;1.0692;
148.5000;1.6540;1.0765;
148.8000;1.6524;1.0741;
149.1000;1.6540;1.0789;
149.4000;1.6532;1.0741;
149.7000;1.6532;1.0692;
150.0000;1.6524;1.0692;
150.3000;1.6508;1.0717;
150.6000;1.6524;1.0741;
150.9000;1.6565;1.0789;
151.2000;1.6524;1.0789;
151.5000;1.6549;1.0838;
151.8000;1.6557;1.0765;
152.1000;1.6532;1.0644;
152.4000;1.6524;1.0595;
152.7000;1.6532;1.0620;
153.0000;1.6540;1.0644;
153.3000;1.6540;1.0620;
153.6000;1.6524;1.0620;
153.9000;1.6540;1.0620;
154.2000;1.6524;1.0571;
154.5000;1.6589;1.0717;
154.8000;1.6557;1.0668;
155.1000;1.6549;1.0620;
155.4000;1.6516;1.0523;
155.7000;1.6524;1.0498;
156.0000;1.6532;1.0426;
156.3000;1.6516;1.0474;
156.6000;1.6516;1.0571;
156.9000;1.6516;1.0571;
157.2000;1.6532;1.0571;
157.5000;1.6516;1.0547;
157.8000;1.6508;1.0498;
158.1000;1.6532;1.0450;
158.4000;1.6532;1.0426;
158.7000;1.6540;1.0474;
159.0000;1.6532;1.0498;
159.3000;1.6524;1.0547;
159.6000;1.6516;1.0523;
159.9000;1.6532;1.0450;
160.2000;1.6540;1.0426;
160.5000;1.6524;1.0353;
160.8000;1.6492;1.0232;
161.1000;1.6532;1.0304;
161.4000;1.6524;1.0304;
161.7000;1.6500;1.0280;
162.0000;1.6516;1.0474;
162.3000;1.6508;1.0523;
162.6000;1.6508;1.0498;
162.9000;1.6516;1.0498;
163.2000;1.6516;1.0523;
163.5000;1.6508;1.0426;
163.8000;1.6516;1.0450;
164.1000;1.6524;1.0474;
164.4000;1.6540;1.0571;
164.7000;1.6540;1.0595;
165.0000;1.6467;1.0450;
165.3000;1.6516;1.0692;
165.6000;1.6516;1.0644;
165.9000;1.6516;1.0668;
166.2000;1.6557;1.0789;
166.5000;1.6532;1.0717;
166.8000;1.6524;1.0595;
167.1000;1.6532;1.0571;
167.4000;1.6540;1.0571;
167.7000;1.6508;1.0523;
168.0000;1.6532;1.0620;
168.3000;1.6516;1.0620;
168.6000;1.6549;1.0644;
168.9000;1.6524;1.0571;
169.2000;1.6508;1.0644;
169.5000;1.6484;1.0620;
169.8000;1.6524;1.0692;
170.1000;1.6516;1.0692;
170.4000;1.6516;1.0668;
170.7000;1.6516;1.0717;
171.0000;1.6540;1.0741;
171.3000;1.6565;1.0814;
171.6000;1.6508;1.0717;
171.9000;1.6549;1.0741;
172.2000;1.6524;1.0692;
172.5000;1.6516;1.0692;
172.8000;1.6508;1.0692;
173.1000;1.6508;1.0692;
173.4000;1.6492;1.0595;
173.7000;1.6467;1.0498;
174.0000;1.6508;1.0620;
174.3000;1.6492;1.0620;
174.6000;1.6500;1.0571;
174.9000;1.6508;1.0595;
175.2000;1.6500;1.0571;
175.5000;1.6516;1.0595;
175.8000;1.6516;1.0571;
176.1000;1.6500;1.0498;
176.4000;1.6516;1.0547;
176.7000;1.6508;1.0523;
177.0000;1.6500;1.0523;
177.3000;1.6500;1.0426;
177.6000;1.6532;1.0474;
177.9000;1.6516;1.0523;
178.2000;1.6508;1.0571;
178.5000;1.6516;1.0668;
178.8000;1.6516;1.0692;
179.1000;1.6516;1.0717;
179.4000;1.6492;1.0668;
179.7000;1.6492;1.0620;
180.0000;1.6516;1.0644;
180.3000;1.6524;1.0668;
180.6000;1.6508;1.0595;
180.9000;1.6500;1.0523;
181.2000;1.6532;1.0571;
181.5000;1.6524;1.0498;
181.8000;1.6524;1.0450;
182.1000;1.6516;1.0474;
182.4000;1.6492;1.0547;
182.7000;1.6508;1.0571;
183.0000;1.6508;1.0547;
183.3000;1.6484;1.0426;
183.6000;1.6475;1.0377;
183.9000;1.6484;1.0426;
184.2000;1.6492;1.0450;
184.5000;1.6484;1.0498;
184.8000;1.6549;1.0523;
185.1000;1.6500;1.0401;
185.4000;1.6516;1.0426;
185.7000;1.6500;1.0401;
186.0000;1.6508;1.0377;
186.3000;1.6516;1.0498;
186.6000;1.6508;1.0474;
186.9000;1.6516;1.0353;
187.2000;1.6524;1.0450;
187.5000;1.6500;1.0450;
187.8000;1.6516;1.0547;
188.1000;1.6492;1.0595;
188.4000;1.6459;1.0498;
188.7000;1.6492;1.0668;
189.0000;1.6500;1.0668;
189.3000;1.6508;1.0595;
189.6000;1.6508;1.0644;
189.9000;1.6492;1.0595;
190.2000;1.6516;1.0668;
190.5000;1.6508;1.0547;
190.8000;1.6500;1.0498;
191.1000;1.6500;1.0523;
191.4000;1.6492;1.0523;
191.7000;1.6500;1.0498;
192.0000;1.6459;1.0329;
192.3000;1.6459;1.0377;
192.6000;1.6500;1.0474;
192.9000;1.6451;1.0304;
193.2000;1.6451;1.0353;
193.5000;1.6492;1.0450;
193.8000;1.6475;1.0474;
194.1000;1.6467;1.0498;
194.4000;1.6492;1.0595;
194.7000;1.6492;1.0547;
195.0000;1.6500;1.0474;
195.3000;1.6500;1.0523;
195.6000;1.6500;1.0426;
195.9000;1.6492;1.0474;
196.2000;1.6467;1.0426;
196.5000;1.6508;1.0474;
196.8000;1.6500;1.0426;
197.1000;1.6484;1.0304;
197.4000;1.6516;1.0329;
197.7000;1.6484;1.0353;
198.0000;1.6500;1.0426;
198.3000;1.6500;1.0450;
198.6000;1.6484;1.0523;
198.9000;1.6492;1.0620;
199.2000;1.6492;1.0668;
199.5000;1.6500;1.0717;
199.8000;1.6484;1.0717;
200.1000;1.6516;1.0741;
200.4000;1.6492;1.0644;
200.7000;1.6500;1.0620;
201.0000;1.6492;1.0547;
201.3000;1.6508;1.0644;
201.6000;1.6500;1.0692;
201.9000;1.6508;1.0668;
202.2000;1.6492;1.0644;
202.5000;1.6508;1.0595;
202.8000;1.6500;1.0595;
203.1000;1.6508;1.0450;
203.4000;1.6500;1.0547;
203.7000;1.6500;1.0498;
204.0000;1.6492;1.0547;
204.3000;1.6500;1.0547;
204.6000;1.6508;1.0547;
204.9000;1.6492;1.0547;
205.2000;1.6492;1.0498;
205.5000;1.6500;1.0474;
205.8000;1.6532;1.0547;
206.1000;1.6492;1.0498;
206.4000;1.6484;1.0547;
206.7000;1.6516;1.0571;
207.0000;1.6500;1.0498;
207.3000;1.6467;1.0498;
207.6000;1.6459;1.0426;
207.9000;1.6484;1.0474;
208.2000;1.6500;1.0523;
208.5000;1.6484;1.0474;
208.8000;1.6475;1.0498;
209.1000;1.6484;1.0474;
209.4000;1.6484;1.0547;
209.7000;1.6500;1.0668;
210.0000;1.6484;1.0620;
210.3000;1.6475;1.0571;
210.6000;1.6467;1.0644;
210.9000;1.6492;1.0644;
211.2000;1.6484;1.0595;
211.5000;1.6484;1.0595;
211.8000;1.6492;1.0620;
212.1000;1.6492;1.0595;
212.4000;1.6484;1.0620;
212.7000;1.6492;1.0595;
213.0000;1.6500;1.0523;
213.3000;1.6484;1.0426;
213.6000;1.6484;1.0377;
213.9000;1.6500;1.0450;
214.2000;1.6492;1.0450;
214.5000;1.6492;1.0426;
214.8000;1.6500;1.0450;
215.1000;1.6475;1.0401;
215.4000;1.6475;1.0426;
215.7000;1.6475;1.0474;
216.0000;1.6500;1.0401;
216.3000;1.6484;1.0450;
216.6000;1.6524;1.0498;
216.9000;1.6492;1.0426;
217.2000;1.6484;1.0547;
217.5000;1.6492;1.0620;
217.8000;1.6484;1.0620;
218.1000;1.6467;1.0547;
218.4000;1.6484;1.0644;
218.7000;1.6484;1.0571;
219.0000;1.6475;1.0571;
219.3000;1.6459;1.0571;
219.6000;1.6484;1.0571;
219.9000;1.6475;1.0523;
220.2000;1.6475;1.0547;
220.5000;1.6500;1.0595;
220.8000;1.6484;1.0692;
221.1000;1.6500;1.0692;
221.4000;1.6492;1.0814;
221.7000;1.6484;1.0862;
222.0000;1.6475;1.0838;
222.3000;1.6475;1.0838;
222.6000;1.6475;1.0765;
222.9000;1.6484;1.0814;
223.2000;1.6427;1.0644;
223.5000;1.6484;1.0717;
223.8000;1.6467;1.0668;
224.1000;1.6475;1.0717;
224.4000;1.6484;1.0717;
224.7000;1.6475;1.0717;
225.0000;1.6475;1.0668;
225.3000;1.6475;1.0595;
225.6000;1.6459;1.0498;
225.9000;1.6475;1.0523;
226.2000;1.6484;1.0498;
226.5000;1.6475;1.0523;
226.8000;1.6492;1.0620;
227.1000;1.6467;1.0571;
227.4000;1.6492;1.0571;
227.7000;1.6484;1.0547;
228.0000;1.6484;1.0547;
228.3000;1.6508;1.0620;
228.6000;1.6475;1.0498;
228.9000;1.6475;1.0426;
229.2000;1.6467;1.0426;
229.5000;1.6451;1.0377;
229.8000;1.6459;1.0498;
230.1000;1.6467;1.0595;
230.4000;1.6467;1.0547;
230.7000;1.6459;1.0547;
231.0000;1.6459;1.0595;
231.3000;1.6475;1.0668;
231.6000;1.6459;1.0620;
231.9000;1.6467;1.0644;
232.2000;1.6418;1.0450;
232.5000;1.6394;1.0426;
232.8000;1.6443;1.0547;
233.1000;1.6467;1.0547;
233.4000;1.6475;1.0620;
233.7000;1.6475;1.0668;
234.0000;1.6500;1.0644;
234.3000;1.6451;1.0595;
234.6000;1.6451;1.0571;
234.9000;1.6467;1.0644;
235.2000;1.6484;1.0717;
235.5000;1.6467;1.0765;
235.8000;1.6459;1.0765;
236.1000;1.6484;1.0717;
236.4000;1.6467;1.0571;
236.7000;1.6467;1.0450;
237.0000;1.6467;1.0377;
237.3000;1.6484;1.0426;
237.6000;1.6484;1.0498;
237.9000;1.6467;1.0571;
238.2000;1.6467;1.0595;
238.5000;1.6492;1.0692;
238.8000;1.6484;1.0717;
239.1000;1.6484;1.0789;
239.4000;1.6443;1.0692;
239.7000;1.6467;1.0692;
240.0000;1.6475;1.0789;
240.3000;1.6540;1.0983;
240.6000;1.6475;1.0789;
240.9000;1.6443;1.0644;
241.2000;1.6475;1.0692;
241.5000;1.6443;1.0668;
241.8000;1.6410;1.0547;
242.1000;1.6459;1.0620;
242.4000;1.6459;1.0547;
242.7000;1.6467;1.0620;
243.0000;1.6443;1.0523;
243.3000;1.6459;1.0620;
243.6000;1.6443;1.0692;
243.9000;1.6500;1.0814;
244.2000;1.6467;1.0765;
244.5000;1.6451;1.0692;
244.8000;1.6459;1.0765;
245.1000;1.6402;1.0595;
245.4000;1.6459;1.0717;
245.7000;1.6516;1.0814;
246.0000;1.6451;1.0692;
246.3000;1.6451;1.0571;
246.6000;1.6451;1.0644;
246.9000;1.6467;1.0595;
247.2000;1.6443;1.0620;
247.5000;1.6459;1.0692;
247.8000;1.6467;1.0717;
248.1000;1.6402;1.0547;
248.4000;1.6484;1.0668;
248.7000;1.6443;1.0595;
249.0000;1.6451;1.0717;
249.3000;1.6484;1.0741;
249.6000;1.6451;1.0692;
249.9000;1.6459;1.0668;
250.2000;1.6467;1.0644;
250.5000;1.6459;1.0620;
250.8000;1.6459;1.0595;
251.1000;1.6451;1.0595;
251.4000;1.6459;1.0547;
251.7000;1.6459;1.0668;
252.0000;1.6451;1.0644;
252.3000;1.6451;1.0547;
252.6000;1.6443;1.0547;
252.9000;1.6451;1.0523;
253.2000;1.6459;1.0450;
253.5000;1.6451;1.0450;
253.8000;1.6459;1.0450;
254.1000;1.6459;1.0474;
254.4000;1.6443;1.0426;
254.7000;1.6451;1.0474;
255.0000;1.6451;1.0474;
255.3000;1.6418;1.0450;
255.6000;1.6451;1.0523;
255.9000;1.6435;1.0547;
256.2000;1.6443;1.0620;
256.5000;1.6459;1.0523;
256.8000;1.6443;1.0547;
257.1000;1.6451;1.0741;
257.4000;1.6459;1.0620;
257.7000;1.6459;1.0717;
258.0000;1.6467;1.0668;
258.3000;1.6467;1.0644;
258.6000;1.6443;1.0426;
258.9000;1.6451;1.0450;
259.2000;1.6435;1.0547;
259.5000;1.6492;1.0595;
259.8000;1.6443;1.0498;
260.1000;1.6443;1.0523;
260.4000;1.6451;1.0474;
260.7000;1.6451;1.0571;
261.0000;1.6459;1.0595;
261.3000;1.6435;1.0547;
261.6000;1.6484;1.0571;
261.9000;1.6435;1.0474;
262.2000;1.6467;1.0498;
262.5000;1.6443;1.0401;
262.8000;1.6435;1.0353;
263.1000;1.6467;1.0523;
263.4000;1.6427;1.0474;
263.7000;1.6467;1.0620;
264.0000;1.6451;1.0620;
264.3000;1.6475;1.0620;
264.6000;1.6484;1.0644;
264.9000;1.6459;1.0595;
265.2000;1.6451;1.0595;
265.5000;1.6451;1.0523;
265.8000;1.6467;1.0523;
266.1000;1.6459;1.0620;
266.4000;1.6435;1.0620;
266.7000;1.6427;1.0620;
267.0000;1.6459;1.0644;
267.3000;1.6451;1.0668;
267.6000;1.6443;1.0692;
267.9000;1.6451;1.0717;
268.2000;1.6418;1.0644;
268.5000;1.6459;1.0668;
268.8000;1.6451;1.0692;
269.1000;1.6435;1.0717;
269.4000;1.6435;1.0789;
269.7000;1.6435;1.0862;
270.0000;1.6427;1.0814;
270.3000;1.6427;1.0814;
270.6000;1.6427;1.0717;
270.9000;1.6435;1.0644;
271.2000;1.6402;1.0620;
271.5000;1.6435;1.0741;
271.8000;1.6427;1.0741;
272.1000;1.6443;1.0692;
272.4000;1.6435;1.0620;
272.7000;1.6459;1.0595;
273.0000;1.6459;1.0644;
273.3000;1.6459;1.0644;
273.6000;1.6459;1.0717;
273.9000;1.6435;1.0692;
274.2000;1.6427;1.0644;
274.5000;1.6435;1.0717;
274.8000;1.6435;1.0644;
275.1000;1.6443;1.0595;
275.4000;1.6427;1.0547;
275.7000;1.6443;1.0595;
276.0000;1.6410;1.0644;
276.3000;1.6443;1.0717;
276.6000;1.6427;1.0668;
276.9000;1.6427;1.0644;
277.2000;1.6418;1.0547;
277.5000;1.6427;1.0595;
277.8000;1.6427;1.0547;
278.1000;1.6435;1.0595;
278.4000;1.6345;1.0498;
278.7000;1.6443;1.0717;
279.0000;1.6435;1.0717;
279.3000;1.6435;1.0668;
279.6000;1.6435;1.0692;
279.9000;1.6418;1.0668;
280.2000;1.6427;1.0692;
280.5000;1.6418;1.0717;
280.8000;1.6427;1.0717;
281.1000;1.6402;1.0668;
281.4000;1.6402;1.0668;
281.7000;1.6410;1.0717;
282.0000;1.6410;1.0765;
282.3000;1.6418;1.0765;
282.6000;1.6418;1.0741;
282.9000;1.6410;1.0765;
283.2000;1.6418;1.0668;
283.5000;1.6451;1.0814;
283.8000;1.6443;1.0814;
284.1000;1.6443;1.0741;
284.4000;1.6451;1.0644;
284.7000;1.6435;1.0547;
285.0000;1.6451;1.0571;
285.3000;1.6427;1.0523;
285.6000;1.6435;1.0547;
285.9000;1.6427;1.0571;
286.2000;1.6410;1.0571;
286.5000;1.6427;1.0547;
286.8000;1.6443;1.0595;
287.1000;1.6427;1.0571;
287.4000;1.6402;1.0620;
287.7000;1.6435;1.0668;
288.0000;1.6418;1.0644;
288.3000;1.6427;1.0644;
288.6000;1.6508;1.0838;
288.9000;1.6418;1.0668;
289.2000;1.6418;1.0668;
289.5000;1.6410;1.0765;
289.8000;1.6435;1.0765;
290.1000;1.6435;1.0717;
290.4000;1.6418;1.0668;
290.7000;1.6418;1.0717;
291.0000;1.6427;1.0765;
291.3000;1.6435;1.0789;
291.6000;1.6435;1.0765;
291.9000;1.6427;1.0789;
292.2000;1.6418;1.0717;
292.5000;1.6435;1.0741;
292.8000;1.6427;1.0765;
293.1000;1.6410;1.0741;
293.4000;1.6410;1.0814;
293.7000;1.6418;1.0838;
294.0000;1.6410;1.0862;
294.3000;1.6435;1.0886;
294.6000;1.6418;1.0814;
294.9000;1.6427;1.0789;
295.2000;1.6427;1.0789;
295.5000;1.6418;1.0814;
295.8000;1.6410;1.0717;
296.1000;1.6410;1.0717;
296.4000;1.6410;1.0668;
296.7000;1.6410;1.0717;
297.0000;1.6427;1.0765;
297.3000;1.6418;1.0765;
297.6000;1.6410;1.0838;
297.9000;1.6410;1.0886;
298.2000;1.6402;1.0862;
298.5000;1.6402;1.0959;
298.8000;1.6418;1.1007;
299.1000;1.6435;1.1080;
299.4000;1.6353;1.0910;
299.7000;1.6435;1.0983;
300.0000;1.6435;1.0959;
300.3000;1.6394;1.0886;
300.6000;1.6410;1.0862;
300.9000;1.6402;1.0814;
301.2000;1.6410;1.0886;
301.5000;1.6378;1.0838;
301.8000;1.6361;1.0814;
302.1000;1.6345;1.0765;
302.4000;1.6435;1.0959;
302.7000;1.6361;1.0814;
303.0000;1.6402;1.0862;
303.3000;1.6402;1.0789;
303.6000;1.6402;1.0838;
303.9000;1.6386;1.0765;
304.2000;1.6410;1.0741;
304.5000;1.6410;1.0765;
304.8000;1.6410;1.0765;
305.1000;1.6394;1.0717;
305.4000;1.6459;1.0935;
305.7000;1.6410;1.0765;
306.0000;1.6402;1.0789;
306.3000;1.6410;1.0838;
306.6000;1.6410;1.0862;
306.9000;1.6475;1.0983;
307.2000;1.6451;1.0935;
307.5000;1.6435;1.0910;
307.8000;1.6418;1.0935;
308.1000;1.6410;1.0983;
308.4000;1.6378;1.0910;
308.7000;1.6418;1.0959;
309.0000;1.6418;1.0959;
309.3000;1.6418;1.0886;
309.6000;1.6410;1.0838;
309.9000;1.6410;1.0838;
310.2000;1.6370;1.0765;
310.5000;1.6451;1.0959;
310.8000;1.6418;1.0838;
311.1000;1.6394;1.0862;
311.4000;1.6402;1.0838;
311.7000;1.6402;1.0886;
312.0000;1.6410;1.0838;
312.3000;1.6410;1.0765;
312.6000;1.6394;1.0741;
312.9000;1.6402;1.0838;
313.2000;1.6402;1.0862;
313.5000;1.6410;1.0814;
313.8000;1.6410;1.0814;
314.1000;1.6394;1.0765;
314.4000;1.6410;1.0862;
314.7000;1.6402;1.0910;
315.0000;1.6394;1.0886;
315.3000;1.6402;1.0910;
315.6000;1.6410;1.0935;
315.9000;1.6394;1.0814;
316.2000;1.6353;1.0595;
316.5000;1.6402;1.0668;
316.8000;1.6394;1.0717;
317.1000;1.6402;1.0765;
317.4000;1.6353;1.0717;
317.7000;1.6394;1.0886;
318.0000;1.6386;1.0886;
318.3000;1.6402;1.0959;
318.6000;1.6378;1.0959;
318.9000;1.6394;1.0983;
319.2000;1.6394;1.0983;
319.5000;1.6402;1.0983;
319.8000;1.6402;1.0959;
320.1000;1.6386;1.0983;
320.4000;1.6361;1.0910;
320.7000;1.6386;1.0983;
321.0000;1.6337;1.0765;
321.3000;1.6378;1.0886;
321.6000;1.6386;1.0959;
321.9000;1.6410;1.0959;
322.2000;1.6418;1.1007;
322.5000;1.6386;1.0959;
322.8000;1.6386;1.1007;
323.1000;1.6394;1.1056;
323.4000;1.6402;1.1129;
323.7000;1.6410;1.1104;
324.0000;1.6386;1.1056;
324.3000;1.6378;1.1007;
324.6000;1.6394;1.1080;
324.9000;1.6402;1.1129;
325.2000;1.6313;1.0959;
325.5000;1.6484;1.1420;
325.8000;1.6402;1.1226;
326.1000;1.6394;1.1226;
326.4000;1.6378;1.1298;
326.7000;1.6378;1.1201;
327.0000;1.6378;1.1153;
327.3000;1.6394;1.1129;
327.6000;1.6443;1.1177;
327.9000;1.6378;1.1056;
328.2000;1.6394;1.1153;
328.5000;1.6402;1.1177;
328.8000;1.6394;1.1201;
329.1000;1.6386;1.1226;
329.4000;1.6394;1.1250;
329.7000;1.6386;1.1226;
330.0000;1.6427;1.1250;
330.3000;1.6386;1.1104;
330.6000;1.6394;1.0959;
330.9000;1.6410;1.0983;
331.2000;1.6394;1.1007;
331.5000;1.6386;1.1032;
331.8000;1.6394;1.1080;
332.1000;1.6427;1.1153;
332.4000;1.6410;1.1080;
332.7000;1.6378;1.0935;
333.0000;1.6386;1.0935;
333.3000;1.6378;1.0935;
333.6000;1.6313;1.0765;
333.9000;1.6378;1.0935;
334.2000;1.6394;1.0983;
334.5000;1.6361;1.0886;
334.8000;1.6370;1.1007;
335.1000;1.6378;1.0910;
335.4000;1.6386;1.0910;
335.7000;1.6427;1.1032;
336.0000;1.6370;1.0910;
336.3000;1.6378;1.0959;
336.6000;1.6386;1.0935;
336.9000;1.6378;1.0910;
337.2000;1.6394;1.0983;
337.5000;1.6386;1.0935;
337.8000;1.6402;1.0935;
338.1000;1.6418;1.0983;
338.4000;1.6378;1.0862;
338.7000;1.6467;1.1080;
339.0000;1.6378;1.0910;
339.3000;1.6353;1.0862;
339.6000;1.6370;1.0886;
339.9000;1.6394;1.0983;
340.2000;1.6394;1.0983;
340.5000;1.6370;1.0935;
340.8000;1.6378;1.0910;
341.1000;1.6394;1.0983;
341.4000;1.6370;1.0959;
341.7000;1.6394;1.0910;
342.0000;1.6370;1.0935;
342.3000;1.6394;1.1056;
342.6000;1.6370;1.1056;
342.9000;1.6370;1.1032;
343.2000;1.6361;1.1007;
343.5000;1.6370;1.0959;
343.8000;1.6386;1.1007;
344.1000;1.6386;1.1032;
344.4000;1.6386;1.1104;
344.7000;1.6394;1.1080;
345.0000;1.6386;1.1153;
345.3000;1.6394;1.1153;
345.6000;1.6361;1.1104;
345.9000;1.6386;1.1080;
346.2000;1.6402;1.1153;
346.5000;1.6394;1.1056;
346.8000;1.6370;1.1007;
347.1000;1.6370;1.1056;
347.4000;1.6345;1.1007;
347.7000;1.6378;1.0959;
348.0000;1.6370;1.0983;
348.3000;1.6353;1.0935;
348.6000;1.6378;1.1032;
348.9000;1.6386;1.1080;
349.2000;1.6361;1.0959;
349.5000;1.6361;1.0935;
349.8000;1.6361;1.1056;
350.1000;1.6378;1.1080;
350.4000;1.6378;1.1056;
350.7000;1.6361;1.1032;
351.0000;1.6361;1.1056;
351.3000;1.6370;1.1129;
351.6000;1.6386;1.1104;
351.9000;1.6402;1.1177;
352.2000;1.6370;1.1056;
352.5000;1.6378;1.1104;
352.8000;1.6386;1.1080;
353.1000;1.6410;1.1201;
353.4000;1.6361;1.1129;
353.7000;1.6370;1.1129;
354.0000;1.6370;1.1104;
354.3000;1.6402;1.1153;
354.6000;1.6443;1.1250;
354.9000;1.6386;1.1007;
355.2000;1.6394;1.1032;
355.5000;1.6378;1.0959;
355.8000;1.6402;1.1007;
356.1000;1.6345;1.0886;
356.4000;1.6272;1.0644;
356.7000;1.6361;1.0959;
357.0000;1.6378;1.0959;
357.3000;1.6394;1.0935;
357.6000;1.6378;1.0935;
357.9000;1.6386;1.1080;
358.2000;1.6370;1.1032;
358.5000;1.6370;1.1056;
358.8000;1.6386;1.1056;
359.1000;1.6370;1.1007;
359.4000;1.6370;1.1080;
359.7000;1.6386;1.1080;
360.0000;1.6361;1.0983;
360.3000;1.6361;1.1032;
360.6000;1.6361;1.1153;
360.9000;1.6345;1.1177;
361.2000;1.6345;1.1153;
361.5000;1.6361;1.1274;
361.8000;1.6370;1.1298;
362.1000;1.6353;1.1371;
362.4000;1.6337;1.1371;
362.7000;1.6361;1.1395;
363.0000;1.6345;1.1298;
363.3000;1.6361;1.1274;
363.6000;1.6345;1.1226;
363.9000;1.6353;1.1104;
364.2000;1.6370;1.1104;
364.5000;1.6345;1.1056;
364.8000;1.6345;1.1056;
365.1000;1.6361;1.1056;
365.4000;1.6361;1.1129;
365.7000;1.6353;1.1080;
366.0000;1.6370;1.1153;
366.3000;1.6370;1.1153;
366.6000;1.6378;1.1153;
366.9000;1.6370;1.1250;
367.2000;1.6353;1.1201;
367.5000;1.6361;1.1080;
367.8000;1.6378;1.1129;
368.1000;1.6353;1.1104;
368.4000;1.6361;1.1129;
368.7000;1.6337;1.1129;
369.0000;1.6304;1.1104;
369.3000;1.6353;1.1226;
369.6000;1.6353;1.1226;
369.9000;1.6329;1.1177;
370.2000;1.6361;1.1226;
370.5000;1.6361;1.1201;
370.8000;1.6370;1.1226;
371.1000;1.6345;1.1129;
371.4000;1.6361;1.1153;
371.7000;1.6370;1.1129;
372.0000;1.6378;1.1056;
372.3000;1.6418;1.1153;
372.6000;1.6370;1.1007;
372.9000;1.6378;1.1032;
373.2000;1.6402;1.1007;
373.5000;1.6353;1.0886;
373.8000;1.6353;1.1007;
374.1000;1.6345;1.1056;
374.4000;1.6337;1.1056;
374.7000;1.6353;1.1104;
375.0000;1.6361;1.1032;
375.3000;1.6353;1.1032;
375.6000;1.6361;1.1104;
375.9000;1.6353;1.1104;
376.2000;1.6345;1.1129;
376.5000;1.6345;1.1201;
376.8000;1.6361;1.1323;
377.1000;1.6361;1.1323;
377.4000;1.6321;1.1201;
377.7000;1.6361;1.1250;
378.0000;1.6378;1.1201;
378.3000;1.6378;1.1298;
378.6000;1.6361;1.1226;
378.9000;1.6337;1.1104;
379.2000;1.6370;1.1080;
379.5000;1.6361;1.1032;
379.8000;1.6345;1.1007;
380.1000;1.6329;1.1007;
380.4000;1.6272;1.0814;
380.7000;1.6337;1.1056;
381.0000;1.6345;1.1032;
381.3000;1.6329;1.0935;
381.6000;1.6345;1.0983;
381.9000;1.6361;1.0983;
382.2000;1.6353;1.1129;
382.5000;1.6345;1.1153;
382.8000;1.6337;1.1298;
383.1000;1.6345;1.1444;
383.4000;1.6345;1.1371;
383.7000;1.6329;1.1226;
384.0000;1.6345;1.1298;
384.3000;1.6345;1.1323;
384.6000;1.6353;1.1323;
384.9000;1.6353;1.1323;
385.2000;1.6337;1.1250;
385.5000;1.6329;1.1274;
385.8000;1.6337;1.1323;
386.1000;1.6337;1.1323;
386.4000;1.6329;1.1298;
386.7000;1.6370;1.1347;
387.0000;1.6329;1.1274;
387.3000;1.6329;1.1395;
387.6000;1.6345;1.1395;
387.9000;1.6353;1.1420;
388.2000;1.6361;1.1444;
388.5000;1.6361;1.1395;
388.8000;1.6353;1.1347;
389.1000;1.6337;1.1250;
389.4000;1.6353;1.1323;
389.7000;1.6345;1.1347;
390.0000;1.6345;1.1371;
390.3000;1.6337;1.1323;
390.6000;1.6353;1.1323;
390.9000;1.6337;1.1323;
391.2000;1.6353;1.1323;
391.5000;1.6345;1.1298;
391.8000;1.6370;1.1298;
392.1000;1.6337;1.1153;
392.4000;1.6329;1.1153;
392.7000;1.6345;1.1226;
393.0000;1.6329;1.1274;
393.3000;1.6337;1.1274;
393.6000;1.6370;1.1371;
393.9000;1.6337;1.1298;
394.2000;1.6329;1.1274;
394.5000;1.6337;1.1371;
394.8000;1.6313;1.1395;
395.1000;1.6337;1.1444;
395.4000;1.6329;1.1444;
395.7000;1.6304;1.1274;
396.0000;1.6345;1.1468;
396.3000;1.6304;1.1444;
396.6000;1.6345;1.1517;
396.9000;1.6321;1.1565;
397.2000;1.6337;1.1614;
397.5000;1.6337;1.1492;
397.8000;1.6361;1.1541;
398.1000;1.6337;1.1395;
398.4000;1.6345;1.1420;
398.7000;1.6345;1.1371;
399.0000;1.6353;1.1420;
399.3000;1.6313;1.1323;
399.6000;1.6313;1.1420;
399.9000;1.6353;1.1395;
400.2000;1.6304;1.1250;
400.5000;1.6304;1.1226;
400.8000;1.6337;1.1347;
401.1000;1.6329;1.1323;
401.4000;1.6337;1.1298;
401.7000;1.6337;1.1371;
402.0000;1.6337;1.1395;
402.3000;1.6329;1.1371;
402.6000;1.6345;1.1347;
402.9000;1.6345;1.1323;
403.2000;1.6329;1.1323;
403.5000;1.6321;1.1298;
403.8000;1.6345;1.1371;
404.1000;1.6370;1.1371;
404.4000;1.6329;1.1347;
404.7000;1.6329;1.1347;
405.0000;1.6272;1.1177;
405.3000;1.6345;1.1298;
405.6000;1.6337;1.1250;
405.9000;1.6337;1.1177;
406.2000;1.6337;1.1274;
406.5000;1.6337;1.1250;
406.8000;1.6313;1.1153;
407.1000;1.6329;1.1153;
407.4000;1.6321;1.1177;
407.7000;1.6345;1.1201;
408.0000;1.6402;1.1323;
408.3000;1.6337;1.1201;
408.6000;1.6329;1.1177;
408.9000;1.6337;1.1250;
409.2000;1.6329;1.1274;
409.5000;1.6321;1.1323;
409.8000;1.6321;1.1323;
410.1000;1.6321;1.1371;
410.4000;1.6337;1.1347;
410.7000;1.6304;1.1274;
411.0000;1.6321;1.1298;
411.3000;1.6321;1.1395;
411.6000;1.6329;1.1298;
411.9000;1.6329;1.1298;
412.2000;1.6345;1.1371;
412.5000;1.6337;1.1395;
412.8000;1.6321;1.1395;
413.1000;1.6321;1.1347;
413.4000;1.6329;1.1323;
413.7000;1.6329;1.1323;
414.0000;1.6345;1.1420;
414.3000;1.6321;1.1444;
414.6000;1.6313;1.1468;
414.9000;1.6313;1.1420;
415.2000;1.6296;1.1395;
415.5000;1.6321;1.1444;
415.8000;1.6329;1.1420;
416.1000;1.6313;1.1298;
416.4000;1.6304;1.1347;
416.7000;1.6345;1.1517;
417.0000;1.6329;1.1492;
417.3000;1.6304;1.1444;
417.6000;1.6353;1.1541;
417.9000;1.6313;1.1468;
418.2000;1.6329;1.1517;
418.5000;1.6272;1.1420;
418.8000;1.6256;1.1395;
419.1000;1.6370;1.1565;
419.4000;1.6304;1.1347;
419.7000;1.6321;1.1347;
420.0000;1.6321;1.1274;
420.3000;1.6329;1.1226;
420.6000;1.6321;1.1226;
420.9000;1.6313;1.1274;
421.2000;1.6313;1.1274;
421.5000;1.6296;1.1298;
421.8000;1.6321;1.1323;
422.1000;1.6321;1.1323;
422.4000;1.6329;1.1395;
422.7000;1.6370;1.1517;
423.0000;1.6337;1.1420;
423.3000;1.6321;1.1395;
423.6000;1.6337;1.1395;
423.9000;1.6321;1.1444;
424.2000;1.6329;1.1371;
424.5000;1.6337;1.1420;
424.8000;1.6304;1.1395;
425.1000;1.6345;1.1638;
425.4000;1.6313;1.1565;
425.7000;1.6313;1.1589;
426.0000;1.6313;1.1614;
426.3000;1.6329;1.1662;
426.6000;1.6313;1.1589;
426.9000;1.6329;1.1589;
427.2000;1.6288;1.1492;
427.5000;1.6329;1.1565;
427.8000;1.6313;1.1541;
428.1000;1.6337;1.1565;
428.4000;1.6321;1.1492;
428.7000;1.6313;1.1444;
429.0000;1.6370;1.1541;
429.3000;1.6321;1.1517;
429.6000;1.6321;1.1662;
429.9000;1.6313;1.1638;
430.2000;1.6247;1.1468;
430.5000;1.6313;1.1614;
430.8000;1.6329;1.1686;
431.1000;1.6304;1.1638;
431.4000;1.6288;1.1662;
431.7000;1.6337;1.1662;
432.0000;1.6321;1.1517;
432.3000;1.6313;1.1444;
432.6000;1.6304;1.1395;
432.9000;1.6321;1.1395;
433.2000;1.6321;1.1444;
433.5000;1.6329;1.1589;
433.8000;1.6313;1.1614;
434.1000;1.6304;1.1565;
434.4000;1.6345;1.1614;
434.7000;1.6321;1.1492;
435.0000;1.6321;1.1444;
435.3000;1.6313;1.1420;
435.6000;1.6304;1.1347;
435.9000;1.6304;1.1347;
436.2000;1.6337;1.1395;
436.5000;1.6329;1.1371;
436.8000;1.6313;1.1347;
437.1000;1.6321;1.1371;
437.4000;1.6313;1.1250;
437.7000;1.6304;1.1201;
438.0000;1.6337;1.1250;
438.3000;1.6288;1.1177;
438.6000;1.6288;1.1177;
438.9000;1.6296;1.1226;
439.2000;1.6304;1.1323;
439.5000;1.6313;1.1298;
439.8000;1.6296;1.1347;
440.1000;1.6296;1.1371;
440.4000;1.6296;1.1347;
440.7000;1.6288;1.1323;
441.0000;1.6321;1.1395;
441.3000;1.6288;1.1371;
441.6000;1.6304;1.1420;
441.9000;1.6313;1.1420;
442.2000;1.6304;1.1468;
442.5000;1.6321;1.1492;
442.8000;1.6272;1.1420;
443.1000;1.6288;1.1517;
443.4000;1.6304;1.1589;
443.7000;1.6313;1.1638;
444.0000;1.6280;1.1686;
444.3000;1.6361;1.1905;
444.6000;1.6313;1.1759;
444.9000;1.6321;1.1686;
445.2000;1.6256;1.1541;
445.5000;1.6353;1.1783;
445.8000;1.6296;1.1565;
446.1000;1.6361;1.1686;
446.4000;1.6313;1.1614;
446.7000;1.6361;1.1662;
447.0000;1.6288;1.1420;
447.3000;1.6329;1.1395;
447.6000;1.6337;1.1517;
447.9000;1.6304;1.1420;
448.2000;1.6329;1.1444;
448.5000;1.6304;1.1323;
448.8000;1.6329;1.1371;
449.1000;1.6313;1.1420;
449.4000;1.6313;1.1468;
449.7000;1.6321;1.1517;
450.0000;1.6272;1.1347;
450.3000;1.6313;1.1492;
450.6000;1.6288;1.1468;
450.9000;1.6296;1.1492;
451.2000;1.6321;1.1662;
451.5000;1.6272;1.1565;
451.8000;1.6304;1.1662;
452.1000;1.6239;1.1468;
452.4000;1.6288;1.1492;
452.7000;1.6272;1.1517;
453.0000;1.6304;1.1614;
453.3000;1.6288;1.1614;
453.6000;1.6296;1.1589;
453.9000;1.6296;1.1589;
454.2000;1.6288;1.1565;
454.5000;1.6304;1.1565;
454.8000;1.6337;1.1517;
455.1000;1.6313;1.1444;
455.4000;1.6296;1.1444;
455.7000;1.6304;1.1371;
456.0000;1.6313;1.1468;
456.3000;1.6304;1.1468;
456.6000;1.6296;1.1347;
456.9000;1.6304;1.1274;
457.2000;1.6296;1.1226;
457.5000;1.6313;1.1274;
457.8000;1.6321;1.1323;
458.1000;1.6288;1.1274;
458.4000;1.6304;1.1347;
458.7000;1.6313;1.1420;
459.0000;1.6313;1.1492;
459.3000;1.6304;1.1468;
459.6000;1.6304;1.1444;
459.9000;1.6296;1.1347;
460.2000;1.6296;1.1323;
460.5000;1.6304;1.1347;
460.8000;1.6353;1.1420;
461.1000;1.6296;1.1250;
461.4000;1.6296;1.1274;
461.7000;1.6296;1.1468;
462.0000;1.6304;1.1492;
462.3000;1.6296;1.1541;
462.6000;1.6296;1.1517;
462.9000;1.6296;1.1541;
463.2000;1.6313;1.1468;
463.5000;1.6296;1.1444;
463.8000;1.6321;1.1468;
464.1000;1.6313;1.1420;
464.4000;1.6313;1.1420;
464.7000;1.6304;1.1371;
465.0000;1.6304;1.1371;
465.3000;1.6313;1.1323;
465.6000;1.6296;1.1298;
465.9000;1.6239;1.1032;
466.2000;1.6288;1.1153;
466.5000;1.6296;1.1129;
466.8000;1.6296;1.1032;
467.1000;1.6264;1.0886;
467.4000;1.6280;1.1007;
467.7000;1.6296;1.0983;
468.0000;1.6296;1.1007;
468.3000;1.6288;1.1032;
468.6000;1.6304;1.1153;
468.9000;1.6313;1.1274;
469.2000;1.6296;1.1274;
469.5000;1.6288;1.1274;
469.8000;1.6280;1.1298;
470.1000;1.6304;1.1347;
470.4000;1.6288;1.1323;
470.7000;1.6329;1.1347;
471.0000;1.6296;1.1201;
471.3000;1.6321;1.1395;
471.6000;1.6321;1.1468;
471.9000;1.6304;1.1541;
472.2000;1.6231;1.1347;
472.5000;1.6321;1.1541;
472.8000;1.6296;1.1614;
473.1000;1.6288;1.1565;
473.4000;1.6272;1.1565;
473.7000;1.6296;1.1614;
474.0000;1.6313;1.1662;
474.3000;1.6223;1.1468;
474.6000;1.6288;1.1614;
474.9000;1.6280;1.1565;
475.2000;1.6288;1.1589;
475.5000;1.6296;1.1565;
475.8000;1.6296;1.1541;
476.1000;1.6215;1.1298;
476.4000;1.6280;1.1444;
476.7000;1.6247;1.1323;
477.0000;1.6288;1.1492;
477.3000;1.6272;1.1492;
477.6000;1.6272;1.1492;
477.9000;1.6247;1.1347;
478.2000;1.6288;1.1492;
478.5000;1.6296;1.1468;
478.8000;1.6272;1.1395;
479.1000;1.6304;1.1420;
479.4000;1.6288;1.1444;
479.7000;1.6337;1.1589;
480.0000;1.6288;1.1517;
480.3000;1.6288;1.1614;
480.6000;1.6313;1.1638;
480.9000;1.6280;1.1517;
481.2000;1.6280;1.1517;
481.5000;1.6280;1.1492;
481.8000;1.6296;1.1444;
482.1000;1.6288;1.1395;
482.4000;1.6280;1.1468;
482.7000;1.6256;1.1395;
483.0000;1.6272;1.1371;
483.3000;1.6280;1.1395;
483.6000;1.6280;1.1395;
483.9000;1.6272;1.1492;
484.2000;1.6288;1.1492;
484.5000;1.6272;1.1468;
484.8000;1.6288;1.1492;
485.1000;1.6272;1.1492;
485.4000;1.6272;1.1444;
485.7000;1.6288;1.1420;
486.0000;1.6288;1.1444;
486.3000;1.6280;1.1420;
486.6000;1.6280;1.1347;
486.9000;1.6296;1.1323;
487.2000;1.6296;1.1395;
487.5000;1.6272;1.1347;
487.8000;1.6272;1.1347;
488.1000;1.6239;1.1347;
488.4000;1.6272;1.1444;
488.7000;1.6280;1.1444;
489.0000;1.6272;1.1468;
489.3000;1.6239;1.1420;
489.6000;1.6361;1.1686;
489.9000;1.6280;1.1614;
490.2000;1.6256;1.1565;
490.5000;1.6264;1.1541;
490.8000;1.6337;1.1735;
491.1000;1.6264;1.1541;
491.4000;1.6264;1.1468;
491.7000;1.6288;1.1541;
492.0000;1.6280;1.1517;
492.3000;1.6313;1.1638;
492.6000;1.6288;1.1541;
492.9000;1.6280;1.1614;
493.2000;1.6280;1.1614;
493.5000;1.6256;1.1614;
493.8000;1.6264;1.1662;
494.1000;1.6264;1.1614;
494.4000;1.6239;1.1468;
494.7000;1.6296;1.1541;
495.0000;1.6272;1.1541;
495.3000;1.6313;1.1638;
495.6000;1.6296;1.1589;
495.9000;1.6280;1.1517;
496.2000;1.6256;1.1347;
496.5000;1.6256;1.1517;
496.8000;1.6280;1.1492;
497.1000;1.6272;1.1468;
497.4000;1.6313;1.1565;
497.7000;1.6272;1.1468;
498.0000;1.6280;1.1444;
498.3000;1.6296;1.1420;
498.6000;1.6280;1.1444;
498.9000;1.6272;1.1517;
499.2000;1.6199;1.1444;
499.5000;1.6256;1.1492;
499.8000;1.6296;1.1565;
500.1000;1.6272;1.1614;
500.4000;1.6280;1.1638;
500.7000;1.6272;1.1638;
501.0000;1.6288;1.1638;
501.3000;1.6280;1.1686;
501.6000;1.6256;1.1589;
501.9000;1.6264;1.1468;
502.2000;1.6272;1.1468;
502.5000;1.6256;1.1395;
502.8000;1.6264;1.1347;
503.1000;1.6256;1.1371;
503.4000;1.6280;1.1492;
503.7000;1.6264;1.1492;
504.0000;1.6256;1.1444;
504.3000;1.6247;1.1371;
504.6000;1.6272;1.1444;
504.9000;1.6304;1.1541;
505.2000;1.6280;1.1468;
505.5000;1.6272;1.1541;
505.8000;1.6296;1.1735;
506.1000;1.6288;1.1711;
506.4000;1.6256;1.1614;
506.7000;1.6264;1.1565;
507.0000;1.6272;1.1614;
507.3000;1.6288;1.1638;
507.6000;1.6264;1.1589;
507.9000;1.6256;1.1614;
508.2000;1.6272;1.1589;
508.5000;1.6256;1.1638;
508.8000;1.6264;1.1565;
509.1000;1.6239;1.1468;
509.4000;1.6272;1.1492;
509.7000;1.6247;1.1468;
510.0000;1.6231;1.1444;
510.3000;1.6272;1.1638;
510.6000;1.6264;1.1638;
510.9000;1.6264;1.1614;
511.2000;1.6247;1.1565;
511.5000;1.6207;1.1468;
511.8000;1.6296;1.1711;
512.1000;1.6337;1.1832;
512.4000;1.6313;1.1735;
512.7000;1.6313;1.1589;
513.0000;1.6264;1.1517;
513.3000;1.6256;1.1468;
513.6000;1.6288;1.1614;
513.9000;1.6264;1.1565;
514.2000;1.6280;1.1614;
514.5000;1.6264;1.1589;
514.8000;1.6296;1.1614;
515.1000;1.6288;1.1492;
515.4000;1.6280;1.1638;
515.7000;1.6239;1.1565;
516.0000;1.6272;1.1735;
516.3000;1.6280;1.1808;
516.6000;1.6272;1.1662;
516.9000;1.6272;1.1638;
517.2000;1.6272;1.1614;
517.5000;1.6272;1.1686;
517.8000;1.6256;1.1759;
518.1000;1.6256;1.1759;
518.4000;1.6304;1.1832;
518.7000;1.6256;1.1856;
519.0000;1.6256;1.1880;
519.3000;1.6264;1.1929;
519.6000;1.6256;1.1905;
519.9000;1.6247;1.1783;
520.2000;1.6256;1.1711;
520.5000;1.6207;1.1662;
520.8000;1.6272;1.1783;
521.1000;1.6256;1.1759;
521.4000;1.6256;1.1783;
521.7000;1.6256;1.1783;
522.0000;1.6256;1.1735;
522.3000;1.6264;1.1783;
522.6000;1.6272;1.1783;
522.9000;1.6256;1.1735;
523.2000;1.6264;1.1808;
523.5000;1.6239;1.1735;
523.8000;1.6272;1.1783;
524.1000;1.6272;1.1759;
524.4000;1.6256;1.1783;
524.7000;1.6231;1.1759;
525.0000;1.6247;1.1832;
525.3000;1.6247;1.1856;
525.6000;1.6256;1.1905;
525.9000;1.6239;1.1856;
526.2000;1.6272;1.1905;
526.5000;1.6280;1.1929;
526.8000;1.6272;1.1929;
527.1000;1.6345;1.2099;
527.4000;1.6264;1.1929;
527.7000;1.6256;1.1832;
528.0000;1.6321;1.2074;
528.3000;1.6264;1.1953;
528.6000;1.6256;1.1953;
528.9000;1.6239;1.1905;
529.2000;1.6264;1.2002;
529.5000;1.6264;1.1977;
529.8000;1.6256;1.1880;
530.1000;1.6313;1.1953;
530.4000;1.6272;1.1905;
530.7000;1.6272;1.1929;
531.0000;1.6256;1.1783;
531.3000;1.6247;1.1929;
531.6000;1.6272;1.1977;
531.9000;1.6231;1.1905;
532.2000;1.6256;1.1953;
532.5000;1.6264;1.1953;
532.8000;1.6207;1.1832;
533.1000;1.6264;1.1953;
533.4000;1.6239;1.1905;
533.7000;1.6264;1.1929;
534.0000;1.6280;1.2002;
534.3000;1.6264;1.1880;
534.6000;1.6280;1.1929;
534.9000;1.6256;1.1783;
535.2000;1.6256;1.1711;
535.5000;1.6247;1.1711;
535.8000;1.6256;1.1711;
536.1000;1.6215;1.1638;
536.4000;1.6215;1.1735;
536.7000;1.6239;1.1783;
537.0000;1.6223;1.1686;
537.3000;1.6329;1.1905;
537.6000;1.6256;1.1759;
537.9000;1.6166;1.1492;
538.2000;1.6239;1.1686;
538.5000;1.6247;1.1638;
538.8000;1.6239;1.1565;
539.1000;1.6247;1.1565;
539.4000;1.6247;1.1565;
539.7000;1.6296;1.1735;
540.0000;1.6166;1.1468;
540.3000;1.6239;1.1589;
540.6000;1.6288;1.1686;
540.9000;1.6247;1.1614;
541.2000;1.6247;1.1614;
541.5000;1.6256;1.1638;
541.8000;1.6256;1.1638;
542.1000;1.6280;1.1638;
542.4000;1.6264;1.1517;
542.7000;1.6264;1.1541;
543.0000;1.6256;1.1565;
543.3000;1.6272;1.1541;
543.6000;1.6264;1.1517;
543.9000;1.6247;1.1420;
544.2000;1.6272;1.1468;
544.5000;1.6280;1.1541;
544.8000;1.6264;1.1565;
545.1000;1.6264;1.1589;
545.4000;1.6256;1.1541;
545.7000;1.6264;1.1589;
546.0000;1.6264;1.1638;
546.3000;1.6264;1.1686;
546.6000;1.6264;1.1686;
546.9000;1.6239;1.1662;
547.2000;1.6247;1.1686;
547.5000;1.6247;1.1735;
547.8000;1.6247;1.1759;
548.1000;1.6215;1.1711;
548.4000;1.6256;1.1735;
548.7000;1.6247;1.1711;
549.0000;1.6231;1.1589;
549.3000;1.6239;1.1614;
549.6000;1.6247;1.1614;
549.9000;1.6239;1.1541;
550.2000;1.6190;1.1444;
550.5000;1.6256;1.1614;
550.8000;1.6247;1.1711;
551.1000;1.6247;1.1638;
551.4000;1.6256;1.1686;
551.7000;1.6231;1.1686;
552.0000;1.6207;1.1638;
552.3000;1.6256;1.1735;
552.6000;1.6247;1.1735;
552.9000;1.6247;1.1759;
553.2000;1.6247;1.1711;
553.5000;1.6247;1.1735;
553.8000;1.6239;1.1686;
554.1000;1.6231;1.1711;
554.4000;1.6247;1.1880;
554.7000;1.6256;1.1832;
555.0000;1.6239;1.1808;
555.3000;1.6231;1.1783;
555.6000;1.6239;1.1759;
555.9000;1.6264;1.1783;
556.2000;1.6247;1.1832;
556.5000;1.6247;1.1856;
556.8000;1.6239;1.1832;
557.1000;1.6256;1.1856;
557.4000;1.6239;1.1880;
557.7000;1.6239;1.1905;
558.0000;1.6239;1.1783;
558.3000;1.6247;1.1832;
558.6000;1.6256;1.1929;
558.9000;1.6313;1.2026;
559.2000;1.6231;1.1832;
559.5000;1.6239;1.1783;
559.8000;1.6247;1.1832;
560.1000;1.6231;1.1759;
560.4000;1.6199;1.1711;
560.7000;1.6215;1.1759;
561.0000;1.6239;1.1759;
561.3000;1.6207;1.1711;
561.6000;1.6182;1.1735;
561.9000;1.6207;1.1783;
562.2000;1.6239;1.1880;
562.5000;1.6231;1.1808;
562.8000;1.6231;1.1735;
563.1000;1.6231;1.1686;
563.4000;1.6239;1.1711;
563.7000;1.6239;1.1614;
564.0000;1.6239;1.1541;
564.3000;1.6239;1.1589;
564.6000;1.6247;1.1638;
564.9000;1.6231;1.1662;
565.2000;1.6231;1.1711;
565.5000;1.6231;1.1735;
565.8000;1.6223;1.1759;
566.1000;1.6272;1.1953;
566.4000;1.6231;1.1856;
566.7000;1.6215;1.1735;
567.0000;1.6223;1.1808;
567.3000;1.6231;1.1856;
567.6000;1.6239;1.1880;
567.9000;1.6231;1.1832;
568.2000;1.6231;1.1783;
568.5000;1.6182;1.1686;
568.8000;1.6231;1.1832;
569.1000;1.6223;1.1832;
569.4000;1.6231;1.1880;
569.7000;1.6215;1.1905;
570.0000;1.6247;1.1977;
570.3000;1.6231;1.2002;
570.6000;1.6231;1.1977;
570.9000;1.6215;1.1929;
571.2000;1.6223;1.1783;
571.5000;1.6231;1.1856;
571.8000;1.6223;1.1856;
572.1000;1.6207;1.1759;
572.4000;1.6199;1.1686;
572.7000;1.6215;1.1686;
573.0000;1.6215;1.1735;
573.3000;1.6223;1.1783;
573.6000;1.6223;1.1856;
573.9000;1.6231;1.1905;
574.2000;1.6215;1.1808;
574.5000;1.6223;1.1759;
574.8000;1.6223;1.1856;
575.1000;1.6239;1.1856;
575.4000;1.6239;1.1905;
575.7000;1.6231;1.1977;
576.0000;1.6288;1.2026;
576.3000;1.6239;1.1856;
576.6000;1.6231;1.1856;
576.9000;1.6239;1.1832;
577.2000;1.6174;1.1711;
577.5000;1.6223;1.1856;
577.8000;1.6239;1.1929;
578.1000;1.6239;1.1929;
578.4000;1.6239;1.1953;
578.7000;1.6239;1.1905;
579.0000;1.6256;1.1953;
579.3000;1.6256;1.1953;
579.6000;1.6256;1.1880;
579.9000;1.6296;1.2050;
580.2000;1.6231;1.1929;
580.5000;1.6223;1.1977;
580.8000;1.6223;1.1953;
581.1000;1.6223;1.1880;
581.4000;1.6223;1.1929;
581.7000;1.6231;1.2026;
582.0000;1.6207;1.2002;
582.3000;1.6215;1.2026;
582.6000;1.6231;1.2026;
582.9000;1.6247;1.2050;
583.2000;1.6231;1.2050;
583.5000;1.6223;1.2099;
583.8000;1.6256;1.2196;
584.1000;1.6231;1.2123;
584.4000;1.6231;1.2099;
584.7000;1.6247;1.2099;
585.0000;1.6239;1.2123;
585.3000;1.6199;1.2099;
585.6000;1.6199;1.2099;
585.9000;1.6231;1.2099;
586.2000;1.6239;1.2123;
586.5000;1.6223;1.2099;
586.8000;1.6272;1.2220;
587.1000;1.6207;1.2026;
587.4000;1.6239;1.2050;
587.7000;1.6223;1.2074;
588.0000;1.6231;1.2099;
588.3000;1.6223;1.2026;
588.6000;1.6256;1.2074;
588.9000;1.6313;1.2220;
589.2000;1.6231;1.2050;
589.5000;1.6272;1.2171;
589.8000;1.6223;1.1977;
590.1000;1.6207;1.1953;
590.4000;1.6207;1.1977;
590.7000;1.6215;1.1929;
591.0000;1.6190;1.1953;
591.3000;1.6199;1.1929;
591.6000;1.6288;1.2220;
591.9000;1.6207;1.2026;
592.2000;1.6215;1.2050;
592.5000;1.6207;1.2002;
592.8000;1.6223;1.2074;
593.1000;1.6231;1.2050;
593.4000;1.6223;1.2002;
593.7000;1.6215;1.2026;
594.0000;1.6231;1.2099;
594.3000;1.6207;1.2099;
594.6000;1.6215;1.2123;
594.9000;1.6199;1.2099;
595.2000;1.6190;1.2074;
595.5000;1.6223;1.2171;
595.8000;1.6223;1.2123;
596.1000;1.6223;1.2147;
596.4000;1.6215;1.2123;
596.7000;1.6223;1.2123;
597.0000;1.6231;1.2244;
597.3000;1.6215;1.2268;
597.6000;1.6223;1.2268;
597.9000;1.6239;1.2268;
598.2000;1.6239;1.2341;
598.5000;1.6247;1.2317;
598.8000;1.6231;1.2365;
599.1000;1.6231;1.2414;
599.4000;1.6231;1.2414;
599.7000;1.6215;1.2341;
600.0000;1.6239;1.2365;
600.3000;1.6223;1.2147;
600.6000;1.6190;1.1977;
600.9000;1.6085;1.1686;
601.2000;1.5946;1.1395;
601.5000;1.5800;1.1298;
601.8000;1.5645;1.1129;
602.1000;1.5482;1.0910;
602.4000;1.5328;1.0692;
602.7000;1.5165;1.0523;
603.0000;1.5059;1.0450;
603.3000;1.4912;1.0280;
603.6000;1.4774;1.0159;
603.9000;1.4660;1.0062;
604.2000;1.4489;0.9844;
604.5000;1.4392;0.9844;
604.8000;1.4335;1.0062;
605.1000;1.4212;0.9965;
605.4000;1.4139;0.9941;
605.7000;1.4123;1.0062;
606.0000;1.3968;0.9941;
606.3000;1.3814;0.9698;
606.6000;1.3773;0.9722;
606.9000;1.3708;0.9795;
607.2000;1.3716;0.9965;
607.5000;1.3586;0.9844;
607.8000;1.3504;0.9747;
608.1000;1.3439;0.9674;
608.4000;1.3390;0.9747;
608.7000;1.3333;0.9747;
609.0000;1.3276;0.9674;
609.3000;1.3211;0.9650;
609.6000;1.3154;0.9625;
609.9000;1.3105;0.9625;
610.2000;1.3040;0.9528;
610.5000;1.2991;0.9480;
610.8000;1.2943;0.9480;
611.1000;1.2902;0.9480;
611.4000;1.2861;0.9504;
611.7000;1.2812;0.9504;
612.0000;1.2755;0.9456;
612.3000;1.2723;0.9456;
612.6000;1.2666;0.9432;
612.9000;1.2625;0.9407;
613.2000;1.2593;0.9383;
613.5000;1.2584;0.9383;
613.8000;1.2511;0.9335;
614.1000;1.2462;0.9359;
614.4000;1.2430;0.9238;
614.7000;1.2414;0.9262;
615.0000;1.2389;0.9359;
615.3000;1.2340;0.9310;
615.6000;1.2291;0.9286;
615.9000;1.2291;0.9335;
616.2000;1.2259;0.9432;
616.5000;1.2210;0.9407;
616.8000;1.2186;0.9383;
617.1000;1.2161;0.9383;
617.4000;1.2137;0.9383;
617.7000;1.2080;0.9310;
618.0000;1.2072;0.9359;
618.3000;1.2055;0.9480;
618.6000;1.2031;0.9383;
618.9000;1.1990;0.9335;
619.2000;1.1966;0.9383;
619.5000;1.1941;0.9359;
619.8000;1.1941;0.9383;
620.1000;1.1901;0.9407;
620.4000;1.1876;0.9335;
620.7000;1.1844;0.9286;
621.0000;1.1819;0.9359;
621.3000;1.1795;0.9286;
621.6000;1.1779;0.9359;
621.9000;1.1730;0.9213;
622.2000;1.1705;0.9238;
622.5000;1.1713;0.9359;
622.8000;1.1681;0.9383;
623.1000;1.1665;0.9359;
623.4000;1.1640;0.9335;
623.7000;1.1640;0.9310;
624.0000;1.1616;0.9213;
624.3000;1.1567;0.9238;
624.6000;1.1551;0.9359;
624.9000;1.1567;0.9456;
625.2000;1.1518;0.9335;
625.5000;1.1510;0.9213;
625.8000;1.1510;0.9213;
626.1000;1.1477;0.9165;
626.4000;1.1461;0.9189;
626.7000;1.1437;0.9238;
627.0000;1.1412;0.9189;
627.3000;1.1347;0.9165;
627.6000;1.1380;0.9359;
627.9000;1.1420;0.9456;
628.2000;1.1339;0.9359;
628.5000;1.1323;0.9310;
628.8000;1.1315;0.9262;
629.1000;1.1315;0.9310;
629.4000;1.1290;0.9310;
629.7000;1.1266;0.9286;
630.0000;1.1266;0.9310;
630.3000;1.1233;0.9432;
630.6000;1.1184;0.9359;
630.9000;1.1184;0.9407;
631.2000;1.1184;0.9286;
631.5000;1.1168;0.9189;
631.8000;1.1144;0.9044;
632.1000;1.1127;0.9044;
632.4000;1.1127;0.9068;
632.7000;1.1144;0.9213;
633.0000;1.1095;0.9116;
633.3000;1.1095;0.9141;
633.6000;1.1095;0.9189;
633.9000;1.1062;0.9141;
634.2000;1.1054;0.9165;
634.5000;1.1046;0.9189;
634.8000;1.1030;0.9116;
635.1000;1.1022;0.9141;
635.4000;1.0981;0.9092;
635.7000;1.0981;0.9165;
636.0000;1.0956;0.9116;
636.3000;1.0956;0.9141;
636.6000;1.0924;0.9019;
636.9000;1.0916;0.9019;
637.2000;1.0908;0.9141;
637.5000;1.0891;0.9238;
637.8000;1.0891;0.9310;
638.1000;1.0859;0.9310;
638.4000;1.0875;0.9238;
638.7000;1.0842;0.9165;
639.0000;1.0851;0.9213;
639.3000;1.0826;0.9165;
639.6000;1.0818;0.9141;
639.9000;1.0753;0.9141;
640.2000;1.0777;0.9238;
640.5000;1.0769;0.9213;
640.8000;1.0737;0.9116;
641.1000;1.0729;0.9141;
641.4000;1.0745;0.9213;
641.7000;1.0720;0.9286;
642.0000;1.0696;0.9286;
642.3000;1.0712;0.9286;
642.6000;1.0688;0.9310;
642.9000;1.0639;0.9213;
643.2000;1.0647;0.9359;
643.5000;1.0631;0.9335;
643.8000;1.0623;0.9310;
644.1000;1.0631;0.9359;
644.4000;1.0639;0.9359;
644.7000;1.0606;0.9238;
645.0000;1.0566;0.9213;
645.3000;1.0533;0.9116;
645.6000;1.0574;0.9335;
645.9000;1.0541;0.9310;
646.2000;1.0517;0.9238;
646.5000;1.0525;0.9262;
646.8000;1.0541;0.9383;
647.1000;1.0533;0.9383;
647.4000;1.0525;0.9456;
647.7000;1.0484;0.9407;
648.0000;1.0501;0.9504;
648.3000;1.0476;0.9456;
648.6000;1.0452;0.9383;
648.9000;1.0435;0.9407;
649.2000;1.0452;0.9432;
649.5000;1.0444;0.9456;
649.8000;1.0411;0.9359;
650.1000;1.0419;0.9359;
650.4000;1.0427;0.9359;
650.7000;1.0419;0.9359;
651.0000;1.0411;0.9335;
651.3000;1.0395;0.9213;
651.6000;1.0411;0.9359;
651.9000;1.0362;0.9262;
652.2000;1.0330;0.9286;
652.5000;1.0338;0.9286;
652.8000;1.0322;0.9213;
653.1000;1.0313;0.9238;
653.4000;1.0313;0.9213;
653.7000;1.0265;0.9068;
654.0000;1.0289;0.9141;
654.3000;1.0273;0.9116;
654.6000;1.0240;0.9044;
654.9000;1.0273;0.9165;
655.2000;1.0265;0.9165;
655.5000;1.0224;0.9116;
655.8000;1.0289;0.9310;
656.1000;1.0208;0.9141;
656.4000;1.0216;0.9213;
656.7000;1.0191;0.9286;
657.0000;1.0191;0.9262;
657.3000;1.0208;0.9335;
657.6000;1.0183;0.9310;
657.9000;1.0167;0.9262;
658.2000;1.0167;0.9189;
658.5000;1.0208;0.9286;
658.8000;1.0159;0.9238;
659.1000;1.0142;0.9189;
659.4000;1.0142;0.9213;
659.7000;1.0110;0.9189;
660.0000;1.0110;0.9213;
660.3000;1.0085;0.9310;
660.6000;1.0102;0.9310;
660.9000;1.0110;0.9310;
661.2000;1.0085;0.9238;
661.5000;1.0069;0.9213;
661.8000;1.0085;0.9286;
662.1000;1.0077;0.9335;
662.4000;1.0053;0.9359;
662.7000;1.0045;0.9359;
663.0000;1.0028;0.9335;
663.3000;1.0045;0.9335;
663.6000;1.0020;0.9262;
663.9000;0.9980;0.9189;
664.2000;1.0020;0.9238;
664.5000;0.9980;0.9068;
664.8000;0.9980;0.9019;
665.1000;0.9963;0.9019;
665.4000;0.9947;0.8995;
665.7000;0.9980;0.9165;
666.0000;0.9939;0.9165;
666.3000;0.9939;0.9238;
666.6000;0.9947;0.9262;
666.9000;0.9890;0.9189;
667.2000;0.9947;0.9383;
667.5000;0.9923;0.9335;
667.8000;0.9906;0.9286;
668.1000;0.9898;0.9335;
668.4000;0.9841;0.9335;
668.7000;0.9890;0.9456;
669.0000;0.9866;0.9359;
669.3000;0.9890;0.9432;
669.6000;0.9866;0.9359;
669.9000;0.9849;0.9310;
670.2000;0.9882;0.9335;
670.5000;0.9841;0.9262;
670.8000;0.9849;0.9262;
671.1000;0.9841;0.9238;
671.4000;0.9841;0.9286;
671.7000;0.9841;0.9262;
672.0000;0.9825;0.9262;
672.3000;0.9809;0.9213;
672.6000;0.9801;0.9189;
672.9000;0.9801;0.9238;
673.2000;0.9792;0.9286;
673.5000;0.9776;0.9335;
673.8000;0.9784;0.9335;
674.1000;0.9744;0.9262;
674.4000;0.9735;0.9238;
674.7000;0.9744;0.9310;
675.0000;0.9703;0.9213;
675.3000;0.9744;0.9335;
675.6000;0.9735;0.9335;
675.9000;0.9727;0.9480;
676.2000;0.9735;0.9456;
676.5000;0.9719;0.9407;
676.8000;0.9711;0.9335;
677.1000;0.9687;0.9359;
677.4000;0.9695;0.9407;
677.7000;0.9695;0.9407;
678.0000;0.9678;0.9335;
678.3000;0.9678;0.9286;
678.6000;0.9662;0.9286;
678.9000;0.9670;0.9262;
679.2000;0.9646;0.9213;
679.5000;0.9646;0.9238;
679.8000;0.9638;0.9286;
680.1000;0.9662;0.9335;
680.4000;0.9638;0.9359;
680.7000;0.9589;0.9335;
681.0000;0.9638;0.9456;
681.3000;0.9597;0.9407;
681.6000;0.9597;0.9456;
681.9000;0.9589;0.9383;
682.2000;0.9597;0.9335;
682.5000;0.9605;0.9335;
682.8000;0.9597;0.9213;
683.1000;0.9605;0.9310;
683.4000;0.9524;0.9092;
683.7000;0.9589;0.9359;
684.0000;0.9565;0.9310;
684.3000;0.9556;0.9238;
684.6000;0.9532;0.9262;
684.9000;0.9548;0.9286;
685.2000;0.9540;0.9310;
685.5000;0.9524;0.9213;
685.8000;0.9516;0.9213;
686.1000;0.9540;0.9286;
686.4000;0.9532;0.9286;
686.7000;0.9508;0.9262;
687.0000;0.9508;0.9310;
687.3000;0.9524;0.9335;
687.6000;0.9499;0.9310;
687.9000;0.9499;0.9238;
688.2000;0.9459;0.9116;
688.5000;0.9467;0.9116;
688.8000;0.9475;0.9165;
689.1000;0.9475;0.9165;
689.4000;0.9451;0.9165;
689.7000;0.9426;0.9213;
690.0000;0.9459;0.9262;
690.3000;0.9442;0.9116;
690.6000;0.9442;0.9092;
690.9000;0.9426;0.9116;
691.2000;0.9434;0.9262;
691.5000;0.9418;0.9262;
691.8000;0.9434;0.9310;
692.1000;0.9402;0.9286;
692.4000;0.9442;0.9359;
692.7000;0.9402;0.9286;
693.0000;0.9394;0.9359;
693.3000;0.9385;0.9383;
693.6000;0.9377;0.9335;
693.9000;0.9377;0.9262;
694.2000;0.9328;0.9165;
694.5000;0.9353;0.9262;
694.8000;0.9361;0.9359;
695.1000;0.9353;0.9359;
695.4000;0.9361;0.9286;
695.7000;0.9337;0.9189;
696.0000;0.9361;0.9116;
696.3000;0.9320;0.9116;
696.6000;0.9328;0.9189;
696.9000;0.9337;0.9238;
697.2000;0.9328;0.9165;
697.5000;0.9337;0.9213;
697.8000;0.9337;0.9310;
698.1000;0.9296;0.9359;
698.4000;0.9304;0.9335;
698.7000;0.9288;0.9286;
699.0000;0.9280;0.9213;
699.3000;0.9206;0.9068;
699.6000;0.9280;0.9189;
699.9000;0.9280;0.9189;
700.2000;0.9280;0.9262;
700.5000;0.9263;0.9165;
700.8000;0.9255;0.9165;
701.1000;0.9304;0.9310;
701.4000;0.9304;0.9335;
701.7000;0.9247;0.9213;
702.0000;0.9247;0.9238;
702.3000;0.9239;0.9359;
702.6000;0.9174;0.9189;
702.9000;0.9223;0.9262;
703.2000;0.9231;0.9262;
703.5000;0.9214;0.9262;
703.8000;0.9174;0.9189;
704.1000;0.9231;0.9286;
704.4000;0.9206;0.9286;
704.7000;0.9174;0.9189;
705.0000;0.9214;0.9310;
705.3000;0.9247;0.9335;
705.6000;0.9182;0.9189;
705.9000;0.9206;0.9165;
706.2000;0.9182;0.9116;
706.5000;0.9198;0.9116;
706.8000;0.9198;0.9262;
707.1000;0.9190;0.9262;
707.4000;0.9158;0.9335;
707.7000;0.9182;0.9335;
708.0000;0.9190;0.9383;
708.3000;0.9166;0.9335;
708.6000;0.9158;0.9262;
708.9000;0.9231;0.9432;
709.2000;0.9166;0.9286;
709.5000;0.9158;0.9262;
709.8000;0.9133;0.9310;
710.1000;0.9125;0.9286;
710.4000;0.9133;0.9359;
710.7000;0.9133;0.9383;
711.0000;0.9117;0.9335;
711.3000;0.9117;0.9310;
711.6000;0.9125;0.9383;
711.9000;0.9117;0.9383;
712.2000;0.9109;0.9432;
712.5000;0.9044;0.9310;
712.8000;0.9117;0.9480;
713.1000;0.9101;0.9504;
713.4000;0.9101;0.9504;
713.7000;0.9092;0.9577;
714.0000;0.9084;0.9528;
714.3000;0.9084;0.9456;
714.6000;0.9101;0.9383;
714.9000;0.9076;0.9286;
715.2000;0.9076;0.9238;
715.5000;0.9052;0.9116;
715.8000;0.9060;0.9116;
716.1000;0.9052;0.9044;
716.4000;0.9076;0.9165;
716.7000;0.9044;0.9141;
717.0000;0.9076;0.9262;
717.3000;0.9068;0.9335;
717.6000;0.9052;0.9335;
717.9000;0.9052;0.9262;
718.2000;0.9035;0.9262;
718.5000;0.9035;0.9286;
718.8000;0.9035;0.9310;
719.1000;0.9044;0.9383;
719.4000;0.9019;0.9383;
719.7000;0.9035;0.9432;
720.0000;0.9027;0.9456;
720.3000;0.9003;0.9262;
720.6000;0.9027;0.9286;
720.9000;0.9011;0.9286;
721.2000;0.9011;0.9359;
721.5000;0.9011;0.9359;
721.8000;0.8995;0.9407;
722.1000;0.8995;0.9432;
722.4000;0.8978;0.9432;
722.7000;0.8987;0.9407;
723.0000;0.8995;0.9456;
723.3000;0.8995;0.9383;
723.6000;0.8987;0.9407;
723.9000;0.8970;0.9359;
724.2000;0.8962;0.9383;
724.5000;0.8954;0.9480;
724.8000;0.8954;0.9407;
725.1000;0.8954;0.9335;
725.4000;0.8954;0.9238;
725.7000;0.8970;0.9213;
726.0000;0.8962;0.9238;
726.3000;0.8954;0.9189;
726.6000;0.8954;0.9213;
726.9000;0.8938;0.9310;
727.2000;0.8954;0.9480;
727.5000;0.8946;0.9407;
727.8000;0.8930;0.9407;
728.1000;0.8930;0.9383;
728.4000;0.8930;0.9359;
728.7000;0.8905;0.9310;
729.0000;0.8930;0.9407;
729.3000;0.8913;0.9335;
729.6000;0.8921;0.9407;
729.9000;0.8921;0.9407;
730.2000;0.8897;0.9335;
730.5000;0.8889;0.9383;
730.8000;0.8913;0.9335;
731.1000;0.8897;0.9310;
731.4000;0.8889;0.9189;
731.7000;0.8905;0.9165;
732.0000;0.8905;0.9213;
732.3000;0.8897;0.9213;
732.6000;0.8905;0.9286;
732.9000;0.8897;0.9310;
733.2000;0.8897;0.9310;
733.5000;0.8913;0.9335;
733.8000;0.8897;0.9383;
734.1000;0.8881;0.9383;
734.4000;0.8864;0.9335;
734.7000;0.8864;0.9286;
735.0000;0.8873;0.9310;
735.3000;0.8881;0.9359;
735.6000;0.8864;0.9262;
735.9000;0.8864;0.9286;
736.2000;0.8873;0.9335;
736.5000;0.8848;0.9238;
736.8000;0.8848;0.9238;
737.1000;0.8856;0.9310;
737.4000;0.8848;0.9335;
737.7000;0.8848;0.9213;
738.0000;0.8816;0.9019;
738.3000;0.8840;0.9044;
738.6000;0.8824;0.9044;
738.9000;0.8824;0.9068;
739.2000;0.8759;0.8995;
739.5000;0.8807;0.9068;
739.8000;0.8832;0.9189;
740.1000;0.8807;0.9165;
740.4000;0.8824;0.9189;
740.7000;0.8816;0.9238;
741.0000;0.8889;0.9504;
741.3000;0.8807;0.9383;
741.6000;0.8807;0.9286;
741.9000;0.8832;0.9359;
742.2000;0.8824;0.9335;
742.5000;0.8840;0.9335;
742.8000;0.8791;0.9238;
743.1000;0.8799;0.9262;
743.4000;0.8799;0.9286;
743.7000;0.8816;0.9335;
744.0000;0.8807;0.9238;
744.3000;0.8783;0.9189;
744.6000;0.8759;0.9189;
744.9000;0.8783;0.9310;
745.2000;0.8767;0.9262;
745.5000;0.8767;0.9238;
745.8000;0.8799;0.9286;
746.1000;0.8775;0.9238;
746.4000;0.8751;0.9141;
746.7000;0.8751;0.9165;
747.0000;0.8767;0.9189;
747.3000;0.8759;0.9141;
747.6000;0.8767;0.9238;
747.9000;0.8767;0.9165;
748.2000;0.8751;0.9165;
748.5000;0.8751;0.9165;
748.8000;0.8734;0.9068;
749.1000;0.8742;0.9068;
749.4000;0.8742;0.9068;
749.7000;0.8669;0.8850;
750.0000;0.8734;0.9044;
750.3000;0.8742;0.9141;
750.6000;0.8734;0.9044;
750.9000;0.8742;0.9068;
751.2000;0.8734;0.9141;
751.5000;0.8791;0.9262;
751.8000;0.8726;0.9141;
752.1000;0.8718;0.9092;
752.4000;0.8734;0.9238;
752.7000;0.8767;0.9335;
753.0000;0.8710;0.9165;
753.3000;0.8710;0.9092;
753.6000;0.8726;0.9092;
753.9000;0.8710;0.9116;
754.2000;0.8702;0.9044;
754.5000;0.8742;0.9141;
754.8000;0.8694;0.9044;
755.1000;0.8702;0.9189;
755.4000;0.8702;0.9189;
755.7000;0.8694;0.9213;
756.0000;0.8677;0.9213;
756.3000;0.8685;0.9213;
756.6000;0.8685;0.9189;
756.9000;0.8685;0.9262;
757.2000;0.8661;0.9238;
757.5000;0.8694;0.9359;
757.8000;0.8685;0.9335;
758.1000;0.8685;0.9359;
758.4000;0.8669;0.9310;
758.7000;0.8661;0.9238;
759.0000;0.8669;0.9262;
759.3000;0.8685;0.9383;
759.6000;0.8669;0.9286;
759.9000;0.8669;0.9238;
760.2000;0.8677;0.9310;
760.5000;0.8669;0.9383;
760.8000;0.8645;0.9310;
761.1000;0.8653;0.9310;
761.4000;0.8637;0.9213;
761.7000;0.8653;0.9262;
762.0000;0.8645;0.9165;
762.3000;0.8637;0.9141;
762.6000;0.8620;0.9092;
762.9000;0.8604;0.9092;
763.2000;0.8612;0.9068;
763.5000;0.8637;0.9141;
763.8000;0.8645;0.9141;
764.1000;0.8653;0.9165;
764.4000;0.8628;0.9044;
764.7000;0.8645;0.9019;
765.0000;0.8628;0.9068;
765.3000;0.8710;0.9238;
765.6000;0.8661;0.9116;
765.9000;0.8604;0.9092;
766.2000;0.8637;0.9141;
766.5000;0.8628;0.9068;
766.8000;0.8628;0.9092;
767.1000;0.8604;0.9092;
767.4000;0.8628;0.9141;
767.7000;0.8596;0.9092;
768.0000;0.8604;0.9116;
768.3000;0.8596;0.9116;
768.6000;0.8604;0.9092;
768.9000;0.8604;0.9116;
769.2000;0.8612;0.9213;
769.5000;0.8628;0.9238;
769.8000;0.8612;0.9141;
770.1000;0.8604;0.9238;
770.4000;0.8628;0.9310;
770.7000;0.8604;0.9262;
771.0000;0.8596;0.9262;
771.3000;0.8596;0.9310;
771.6000;0.8588;0.9335;
771.9000;0.8588;0.9407;
772.2000;0.8588;0.9335;
772.5000;0.8596;0.9383;
772.8000;0.8563;0.9310;
773.1000;0.8571;0.9359;
773.4000;0.8620;0.9456;
773.7000;0.8539;0.9213;
774.0000;0.8580;0.9359;
774.3000;0.8588;0.9432;
774.6000;0.8580;0.9407;
774.9000;0.8563;0.9407;
775.2000;0.8555;0.9432;
775.5000;0.8580;0.9480;
775.8000;0.8563;0.9335;
776.1000;0.8555;0.9432;
776.4000;0.8506;0.9262;
776.7000;0.8555;0.9407;
777.0000;0.8555;0.9335;
777.3000;0.8547;0.9335;
777.6000;0.8555;0.9335;
777.9000;0.8563;0.9383;
778.2000;0.8563;0.9456;
778.5000;0.8547;0.9432;
778.8000;0.8539;0.9310;
779.1000;0.8531;0.9262;
779.4000;0.8539;0.9310;
779.7000;0.8531;0.9310;
780.0000;0.8547;0.9359;
780.3000;0.8531;0.9335;
780.6000;0.8539;0.9359;
780.9000;0.8506;0.9310;
781.2000;0.8547;0.9359;
781.5000;0.8539;0.9432;
781.8000;0.8531;0.9432;
782.1000;0.8596;0.9698;
782.4000;0.8531;0.9504;
782.7000;0.8531;0.9601;
783.0000;0.8498;0.9553;
783.3000;0.8506;0.9553;
783.6000;0.8506;0.9553;
783.9000;0.8523;0.9601;
784.2000;0.8531;0.9650;
784.5000;0.8506;0.9577;
784.8000;0.8523;0.9601;
785.1000;0.8531;0.9553;
785.4000;0.8514;0.9432;
785.7000;0.8498;0.9359;
786.0000;0.8490;0.9383;
786.3000;0.8482;0.9407;
786.6000;0.8498;0.9432;
786.9000;0.8490;0.9335;
787.2000;0.8474;0.9335;
787.5000;0.8498;0.9359;
787.8000;0.8490;0.9359;
788.1000;0.8490;0.9359;
788.4000;0.8482;0.9407;
788.7000;0.8498;0.9407;
789.0000;0.8482;0.9407;
789.3000;0.8482;0.9456;
789.6000;0.8498;0.9383;
789.9000;0.8498;0.9335;
790.2000;0.8498;0.9262;
790.5000;0.8506;0.9238;
790.8000;0.8490;0.9213;
791.1000;0.8482;0.9092;
791.4000;0.8482;0.9116;
791.7000;0.8474;0.9116;
792.0000;0.8441;0.9141;
792.3000;0.8466;0.9141;
792.6000;0.8457;0.9238;
792.9000;0.8482;0.9359;
793.2000;0.8466;0.9310;
793.5000;0.8449;0.9262;
793.8000;0.8457;0.9213;
794.1000;0.8441;0.9189;
794.4000;0.8466;0.9286;
794.7000;0.8466;0.9359;
795.0000;0.8449;0.9238;
795.3000;0.8449;0.9189;
795.6000;0.8441;0.9165;
795.9000;0.8433;0.9213;
796.2000;0.8441;0.9238;
796.5000;0.8417;0.9213;
796.8000;0.8441;0.9165;
797.1000;0.8425;0.9165;
797.4000;0.8474;0.9189;
797.7000;0.8433;0.9092;
798.0000;0.8433;0.9068;
798.3000;0.8425;0.9165;
798.6000;0.8417;0.9165;
798.9000;0.8433;0.9262;
799.2000;0.8433;0.9189;
799.5000;0.8409;0.9141;
799.8000;0.8417;0.9189;
800.1000;0.8449;0.9286;
800.4000;0.8425;0.9262;
800.7000;0.8417;0.9286;
801.0000;0.8425;0.9310;
801.3000;0.8441;0.9335;
801.6000;0.8433;0.9286;
801.9000;0.8417;0.9335;
802.2000;0.8417;0.9310;
802.5000;0.8425;0.9407;
802.8000;0.8433;0.9359;
803.1000;0.8400;0.9310;
803.4000;0.8409;0.9238;
803.7000;0.8417;0.9238;
804.0000;0.8425;0.9286;
804.3000;0.8400;0.9359;
804.6000;0.8409;0.9407;
804.9000;0.8376;0.9359;
805.2000;0.8400;0.9504;
805.5000;0.8392;0.9407;
805.8000;0.8400;0.9383;
806.1000;0.8400;0.9407;
806.4000;0.8409;0.9359;
806.7000;0.8392;0.9335;
807.0000;0.8384;0.9213;
807.3000;0.8392;0.9238;
807.6000;0.8392;0.9213;
807.9000;0.8392;0.9189;
808.2000;0.8384;0.9189;
808.5000;0.8376;0.9238;
808.8000;0.8384;0.9310;
809.1000;0.8400;0.9310;
809.4000;0.8384;0.9310;
809.7000;0.8392;0.9286;
810.0000;0.8400;0.9335;
810.3000;0.8392;0.9310;
810.6000;0.8376;0.9383;
810.9000;0.8376;0.9359;
811.2000;0.8376;0.9407;
811.5000;0.8368;0.9335;
811.8000;0.8360;0.9310;
812.1000;0.8376;0.9238;
812.4000;0.8392;0.9213;
812.7000;0.8376;0.9262;
813.0000;0.8384;0.9407;
813.3000;0.8368;0.9383;
813.6000;0.8352;0.9310;
813.9000;0.8360;0.9262;
814.2000;0.8392;0.9407;
814.5000;0.8376;0.9383;
814.8000;0.8368;0.9383;
815.1000;0.8384;0.9407;
815.4000;0.8376;0.9432;
815.7000;0.8384;0.9480;
816.0000;0.8352;0.9383;
816.3000;0.8319;0.9359;
816.6000;0.8327;0.9383;
816.9000;0.8352;0.9480;
817.2000;0.8360;0.9456;
817.5000;0.8352;0.9383;
817.8000;0.8344;0.9359;
818.1000;0.8376;0.9480;
818.4000;0.8319;0.9359;
818.7000;0.8400;0.9601;
819.0000;0.8335;0.9528;
819.3000;0.8344;0.9504;
819.6000;0.8327;0.9432;
819.9000;0.8417;0.9625;
820.2000;0.8335;0.9456;
820.5000;0.8344;0.9432;
820.8000;0.8360;0.9359;
821.1000;0.8319;0.9310;
821.4000;0.8327;0.9456;
821.7000;0.8319;0.9480;
822.0000;0.8335;0.9456;
822.3000;0.8295;0.9335;
822.6000;0.8352;0.9383;
822.9000;0.8360;0.9456;
823.2000;0.8327;0.9335;
823.5000;0.8327;0.9310;
823.8000;0.8311;0.9335;
824.1000;0.8303;0.9432;
824.4000;0.8327;0.9528;
824.7000;0.8327;0.9553;
825.0000;0.8311;0.9504;
825.3000;0.8327;0.9456;
825.6000;0.8335;0.9456;
825.9000;0.8344;0.9504;
826.2000;0.8335;0.9480;
826.5000;0.8327;0.9456;
826.8000;0.8327;0.9456;
827.1000;0.8319;0.9480;
827.4000;0.8303;0.9456;
827.7000;0.8278;0.9310;
828.0000;0.8319;0.9383;
828.3000;0.8303;0.9335;
828.6000;0.8319;0.9286;
828.9000;0.8295;0.9213;
829.2000;0.8303;0.9310;
829.5000;0.8303;0.9407;
829.8000;0.8262;0.9359;
830.1000;0.8270;0.9407;
830.4000;0.8295;0.9553;
830.7000;0.8303;0.9456;
831.0000;0.8303;0.9407;
831.3000;0.8303;0.9407;
831.6000;0.8303;0.9432;
831.9000;0.8295;0.9456;
832.2000;0.8262;0.9432;
832.5000;0.8295;0.9407;
832.8000;0.8221;0.9238;
833.1000;0.8278;0.9432;
833.4000;0.8327;0.9577;
833.7000;0.8262;0.9432;
834.0000;0.8262;0.9383;
834.3000;0.8287;0.9432;
834.6000;0.8270;0.9407;
834.9000;0.8278;0.9383;
835.2000;0.8270;0.9335;
835.5000;0.8287;0.9432;
835.8000;0.8303;0.9432;
836.1000;0.8287;0.9432;
836.4000;0.8262;0.9383;
836.7000;0.8246;0.9310;
837.0000;0.8319;0.9480;
837.3000;0.8270;0.9262;
837.6000;0.8270;0.9262;
837.9000;0.8262;0.9213;
838.2000;0.8278;0.9286;
838.5000;0.8287;0.9335;
838.8000;0.8221;0.9238;
839.1000;0.8278;0.9407;
839.4000;0.8254;0.9335;
839.7000;0.8254;0.9359;
840.0000;0.8254;0.9335;
840.3000;0.8173;0.9189;
840.6000;0.8246;0.9335;
840.9000;0.8254;0.9504;
841.2000;0.8254;0.9553;
841.5000;0.8230;0.9504;
841.8000;0.8238;0.9480;
842.1000;0.8303;0.9650;
842.4000;0.8262;0.9528;
842.7000;0.8238;0.9480;
843.0000;0.8238;0.9480;
843.3000;0.8238;0.9553;
843.6000;0.8189;0.9432;
843.9000;0.8230;0.9528;
844.2000;0.8230;0.9601;
844.5000;0.8238;0.9577;
844.8000;0.8230;0.9504;
845.1000;0.8230;0.9456;
845.4000;0.8221;0.9432;
845.7000;0.8238;0.9432;
846.0000;0.8246;0.9407;
846.3000;0.8213;0.9335;
846.6000;0.8230;0.9335;
846.9000;0.8164;0.9141;
847.2000;0.8238;0.9310;
847.5000;0.8238;0.9238;
847.8000;0.8230;0.9189;
848.1000;0.8221;0.9238;
848.4000;0.8230;0.9238;
848.7000;0.8213;0.9213;
849.0000;0.8230;0.9286;
849.3000;0.8213;0.9286;
849.6000;0.8230;0.9238;
849.9000;0.8230;0.9238;
850.2000;0.8213;0.9213;
850.5000;0.8213;0.9141;
850.8000;0.8221;0.9213;
851.1000;0.8197;0.9262;
851.4000;0.8205;0.9310;
851.7000;0.8221;0.9310;
852.0000;0.8213;0.9359;
852.3000;0.8221;0.9432;
852.6000;0.8197;0.9335;
852.9000;0.8205;0.9359;
853.2000;0.8213;0.9432;
853.5000;0.8205;0.9432;
853.8000;0.8221;0.9504;
854.1000;0.8156;0.9286;
854.4000;0.8173;0.9359;
854.7000;0.8213;0.9310;
855.0000;0.8197;0.9335;
855.3000;0.8221;0.9407;
855.6000;0.8189;0.9456;
855.9000;0.8189;0.9383;
856.2000;0.8189;0.9383;
856.5000;0.8221;0.9480;
856.8000;0.8213;0.9504;
857.1000;0.8140;0.9286;
857.4000;0.8189;0.9383;
857.7000;0.8197;0.9310;
858.0000;0.8205;0.9407;
858.3000;0.8189;0.9335;
858.6000;0.8189;0.9383;
858.9000;0.8197;0.9407;
859.2000;0.8213;0.9432;
859.5000;0.8181;0.9383;
859.8000;0.8189;0.9407;
860.1000;0.8189;0.9383;
860.4000;0.8189;0.9432;
860.7000;0.8181;0.9432;
861.0000;0.8213;0.9504;
861.3000;0.8197;0.9504;
861.6000;0.8189;0.9528;
861.9000;0.8189;0.9553;
862.2000;0.8181;0.9480;
862.5000;0.8197;0.9432;
862.8000;0.8173;0.9407;
863.1000;0.8181;0.9407;
863.4000;0.8181;0.9335;
863.7000;0.8173;0.9383;
864.0000;0.8230;0.9601;
864.3000;0.8173;0.9456;
864.6000;0.8189;0.9504;
864.9000;0.8181;0.9577;
865.2000;0.8189;0.9553;
865.5000;0.8181;0.9528;
865.8000;0.8164;0.9456;
866.1000;0.8181;0.9553;
866.4000;0.8148;0.9625;
866.7000;0.8221;0.9819;
867.0000;0.8164;0.9601;
867.3000;0.8156;0.9504;
867.6000;0.8156;0.9504;
867.9000;0.8164;0.9432;
868.2000;0.8164;0.9456;
868.5000;0.8156;0.9383;
868.8000;0.8189;0.9456;
869.1000;0.8164;0.9407;
869.4000;0.8173;0.9432;
869.7000;0.8148;0.9456;
870.0000;0.8140;0.9407;
870.3000;0.8148;0.9407;
870.6000;0.8156;0.9432;
870.9000;0.8132;0.9383;
871.2000;0.8156;0.9480;
871.5000;0.8099;0.9407;
871.8000;0.8140;0.9601;
872.1000;0.8156;0.9650;
872.4000;0.8189;0.9747;
872.7000;0.8164;0.9674;
873.0000;0.8164;0.9650;
873.3000;0.8148;0.9577;
873.6000;0.8132;0.9528;
873.9000;0.8148;0.9650;
874.2000;0.8132;0.9625;
874.5000;0.8132;0.9625;
874.8000;0.8116;0.9553;
875.1000;0.8148;0.9650;
875.4000;0.8132;0.9601;
875.7000;0.8148;0.9625;
876.0000;0.8156;0.9601;
876.3000;0.8140;0.9674;
876.6000;0.8124;0.9674;
876.9000;0.8148;0.9747;
877.2000;0.8124;0.9698;
877.5000;0.8116;0.9553;
877.8000;0.8132;0.9528;
878.1000;0.8164;0.9553;
878.4000;0.8156;0.9553;
878.7000;0.8156;0.9528;
879.0000;0.8067;0.9359;
879.3000;0.8116;0.9432;
879.6000;0.8124;0.9480;
879.9000;0.8140;0.9480;
880.2000;0.8099;0.9359;
880.5000;0.8107;0.9359;
880.8000;0.8164;0.9577;
881.1000;0.8132;0.9528;
881.4000;0.8140;0.9601;
881.7000;0.8107;0.9674;
882.0000;0.8107;0.9674;
882.3000;0.8116;0.9625;
882.6000;0.8116;0.9553;
882.9000;0.8164;0.9577;
883.2000;0.8124;0.9407;
883.5000;0.8132;0.9456;
883.8000;0.8107;0.9480;
884.1000;0.8132;0.9504;
884.4000;0.8107;0.9553;
884.7000;0.8116;0.9528;
885.0000;0.8075;0.9407;
885.3000;0.8091;0.9504;
885.6000;0.8099;0.9504;
885.9000;0.8124;0.9528;
886.2000;0.8099;0.9504;
886.5000;0.8059;0.9286;
886.8000;0.8099;0.9359;
887.1000;0.8099;0.9335;
887.4000;0.8107;0.9189;
887.7000;0.8107;0.9262;
888.0000;0.8116;0.9359;
888.3000;0.8124;0.9504;
888.6000;0.8116;0.9601;
888.9000;0.8107;0.9650;
889.2000;0.8099;0.9698;
889.5000;0.8059;0.9601;
889.8000;0.8099;0.9698;
890.1000;0.8083;0.9650;
890.4000;0.8107;0.9674;
890.7000;0.8091;0.9601;
891.0000;0.8067;0.9383;
891.3000;0.8091;0.9432;
891.6000;0.8091;0.9504;
891.9000;0.8091;0.9528;
892.2000;0.8083;0.9480;
892.5000;0.8083;0.9456;
892.8000;0.8099;0.9504;
893.1000;0.8091;0.9480;
893.4000;0.8099;0.9553;
893.7000;0.8091;0.9553;
894.0000;0.8083;0.9601;
894.3000;0.8091;0.9577;
894.6000;0.8132;0.9771;
894.9000;0.8083;0.9674;
895.2000;0.8075;0.9625;
895.5000;0.7993;0.9480;
895.8000;0.8091;0.9698;
896.1000;0.8050;0.9625;
896.4000;0.8018;0.9528;
896.7000;0.8075;0.9674;
897.0000;0.8034;0.9528;
897.3000;0.8075;0.9625;
897.6000;0.8083;0.9698;
897.9000;0.8067;0.9722;
898.2000;0.8075;0.9747;
898.5000;0.8083;0.9771;
898.8000;0.8091;0.9747;
899.1000;0.8075;0.9722;
899.4000;0.8083;0.9747;
899.7000;0.8075;0.9819;
900.0000;0.8075;0.9819;
900.3000;0.8059;0.9771;
900.6000;0.8050;0.9747;
900.9000;0.8075;0.9819;
901.2000;0.8083;0.9868;
901.5000;0.8059;0.9771;
901.8000;0.8059;0.9698;
902.1000;0.8067;0.9747;
902.4000;0.8050;0.9795;
902.7000;0.8067;0.9771;
903.0000;0.8042;0.9795;
903.3000;0.8059;0.9722;
903.6000;0.8059;0.9698;
903.9000;0.8067;0.9795;
904.2000;0.8050;0.9747;
904.5000;0.8083;0.9698;
904.8000;0.8067;0.9844;
905.1000;0.8075;0.9892;
905.4000;0.8099;0.9965;
905.7000;0.8050;0.9722;
906.0000;0.8042;0.9674;
906.3000;0.8059;0.9625;
906.6000;0.8034;0.9553;
906.9000;0.8042;0.9625;
907.2000;0.8059;0.9625;
907.5000;0.8050;0.9698;
907.8000;0.8026;0.9650;
908.1000;0.8042;0.9650;
908.4000;0.8042;0.9625;
908.7000;0.8059;0.9771;
909.0000;0.8042;0.9722;
909.3000;0.8050;0.9674;
909.6000;0.8050;0.9601;
909.9000;0.8067;0.9625;
910.2000;0.8042;0.9577;
910.5000;0.8042;0.9601;
910.8000;0.8018;0.9456;
911.1000;0.8042;0.9601;
911.4000;0.8124;0.9722;
911.7000;0.8002;0.9335;
912.0000;0.8034;0.9407;
912.3000;0.7969;0.9189;
912.6000;0.8059;0.9383;
912.9000;0.8042;0.9407;
913.2000;0.8026;0.9383;
913.5000;0.8050;0.9528;
913.8000;0.8050;0.9577;
914.1000;0.8050;0.9625;
914.4000;0.8010;0.9504;
914.7000;0.8026;0.9528;
915.0000;0.8034;0.9504;
915.3000;0.8018;0.9553;
915.6000;0.8018;0.9553;
915.9000;0.7993;0.9504;
916.2000;0.8026;0.9504;
916.5000;0.8026;0.9553;
916.8000;0.8050;0.9674;
917.1000;0.8018;0.9650;
917.4000;0.8026;0.9674;
917.7000;0.8034;0.9625;
918.0000;0.8034;0.9553;
918.3000;0.7953;0.9335;
918.6000;0.8010;0.9528;
918.9000;0.7993;0.9553;
919.2000;0.8018;0.9722;
919.5000;0.8010;0.9747;
919.8000;0.8042;0.9771;
920.1000;0.8083;0.9965;
920.4000;0.8034;0.9819;
920.7000;0.8034;0.9747;
921.0000;0.8026;0.9771;
921.3000;0.8018;0.9747;
921.6000;0.8026;0.9771;
921.9000;0.8034;0.9819;
922.2000;0.8018;0.9747;
922.5000;0.8042;0.9868;
922.8000;0.8042;0.9916;
923.1000;0.8010;0.9819;
923.4000;0.8010;0.9771;
923.7000;0.8018;0.9722;
924.0000;0.8018;0.9747;
924.3000;0.8034;0.9698;
924.6000;0.8026;0.9650;
924.9000;0.8034;0.9625;
925.2000;0.8018;0.9601;
925.5000;0.8042;0.9650;
925.8000;0.8018;0.9601;
926.1000;0.8002;0.9650;
926.4000;0.8026;0.9577;
926.7000;0.8018;0.9553;
927.0000;0.8010;0.9504;
927.3000;0.7969;0.9407;
927.6000;0.8018;0.9407;
927.9000;0.8010;0.9335;
928.2000;0.8002;0.9383;
928.5000;0.7993;0.9480;
928.8000;0.8002;0.9528;
929.1000;0.7985;0.9528;
929.4000;0.7993;0.9528;
929.7000;0.8002;0.9577;
930.0000;0.8010;0.9504;
930.3000;0.8002;0.9553;
930.6000;0.7993;0.9528;
930.9000;0.8002;0.9528;
931.2000;0.7985;0.9432;
931.5000;0.7985;0.9432;
931.8000;0.8042;0.9650;
932.1000;0.7993;0.9601;
932.4000;0.7993;0.9577;
932.7000;0.7977;0.9528;
933.0000;0.7977;0.9528;
933.3000;0.7985;0.9601;
933.6000;0.7985;0.9577;
933.9000;0.7977;0.9528;
934.2000;0.7993;0.9504;
934.5000;0.7977;0.9553;
934.8000;0.7985;0.9553;
935.1000;0.7977;0.9456;
935.4000;0.8002;0.9528;
935.7000;0.8002;0.9553;
936.0000;0.7977;0.9504;
936.3000;0.7977;0.9432;
936.6000;0.7993;0.9528;
936.9000;0.7993;0.9528;
937.2000;0.7977;0.9553;
937.5000;0.8018;0.9553;
937.8000;0.7953;0.9359;
938.1000;0.7985;0.9383;
938.4000;0.7985;0.9528;
938.7000;0.7945;0.9359;
939.0000;0.7977;0.9432;
939.3000;0.7977;0.9383;
939.6000;0.7993;0.9383;
939.9000;0.7977;0.9359;
940.2000;0.8002;0.9456;
940.5000;0.8010;0.9456;
940.8000;0.7961;0.9359;
941.1000;0.7969;0.9407;
941.4000;0.7977;0.9407;
941.7000;0.8010;0.9528;
942.0000;0.7985;0.9553;
942.3000;0.7977;0.9577;
942.6000;0.7977;0.9577;
942.9000;0.7969;0.9504;
943.2000;0.7977;0.9480;
943.5000;0.7977;0.9432;
943.8000;0.7969;0.9432;
944.1000;0.7969;0.9456;
944.4000;0.7969;0.9528;
944.7000;0.7969;0.9504;
945.0000;0.7969;0.9553;
945.3000;0.7969;0.9504;
945.6000;0.7977;0.9577;
945.9000;0.7985;0.9601;
946.2000;0.7985;0.9601;
946.5000;0.7969;0.9625;
946.8000;0.7961;0.9674;
947.1000;0.7969;0.9698;
947.4000;0.7945;0.9553;
947.7000;0.7920;0.9528;
948.0000;0.7961;0.9601;
948.3000;0.7969;0.9577;
948.6000;0.7961;0.9504;
948.9000;0.7953;0.9504;
949.2000;0.7912;0.9456;
949.5000;0.7961;0.9625;
949.8000;0.7969;0.9674;
950.1000;0.7969;0.9674;
950.4000;0.7904;0.9504;
950.7000;0.7977;0.9577;
951.0000;0.7961;0.9480;
951.3000;0.8026;0.9577;
951.6000;0.7953;0.9383;
951.9000;0.7961;0.9383;
952.2000;0.7961;0.9407;
952.5000;0.7945;0.9383;
952.8000;0.7937;0.9407;
953.1000;0.7953;0.9480;
953.4000;0.7937;0.9359;
953.7000;0.7945;0.9310;
954.0000;0.7969;0.9286;
954.3000;0.7920;0.9141;
954.6000;0.7953;0.9335;
954.9000;0.7961;0.9286;
955.2000;0.7953;0.9262;
955.5000;0.7993;0.9504;
955.8000;0.7953;0.9553;
956.1000;0.7961;0.9601;
956.4000;0.7953;0.9553;
956.7000;0.7945;0.9577;
957.0000;0.7961;0.9650;
957.3000;0.7945;0.9577;
957.6000;0.7953;0.9553;
957.9000;0.7937;0.9504;
958.2000;0.7953;0.9577;
958.5000;0.7937;0.9553;
958.8000;0.7896;0.9504;
959.1000;0.7961;0.9625;
959.4000;0.7937;0.9577;
959.7000;0.7937;0.9698;
960.0000;0.7953;0.9674;
960.3000;0.7945;0.9747;
960.6000;0.7953;0.9722;
960.9000;0.7953;0.9650;
961.2000;0.7945;0.9577;
961.5000;0.7937;0.9528;
961.8000;0.7928;0.9553;
962.1000;0.7953;0.9553;
962.4000;0.7945;0.9553;
962.7000;0.7961;0.9553;
963.0000;0.7904;0.9528;
963.3000;0.7945;0.9698;
963.6000;0.7953;0.9674;
963.9000;0.7953;0.9722;
964.2000;0.8010;0.9989;
964.5000;0.7920;0.9698;
964.8000;0.7880;0.9601;
965.1000;0.7937;0.9771;
965.4000;0.7969;0.9795;
965.7000;0.7920;0.9650;
966.0000;0.7912;0.9601;
966.3000;0.7985;0.9795;
966.6000;0.7937;0.9698;
966.9000;0.7937;0.9674;
967.2000;0.7912;0.9698;
967.5000;0.7945;0.9747;
967.8000;0.7937;0.9698;
968.1000;0.7928;0.9698;
968.4000;0.7920;0.9722;
968.7000;0.7937;0.9747;
969.0000;0.7993;0.9892;
969.3000;0.8002;0.9819;
969.6000;0.7937;0.9674;
969.9000;0.7920;0.9601;
970.2000;0.7945;0.9601;
970.5000;0.7920;0.9528;
970.8000;0.7937;0.9504;
971.1000;0.7928;0.9577;
971.4000;0.7945;0.9650;
971.7000;0.7920;0.9625;
972.0000;0.7928;0.9722;
972.3000;0.7953;0.9747;
972.6000;0.7920;0.9722;
972.9000;0.7904;0.9674;
973.2000;0.7928;0.9747;
973.5000;0.7855;0.9601;
973.8000;0.7945;0.9819;
974.1000;0.7880;0.9625;
974.4000;0.7928;0.9722;
974.7000;0.7912;0.9698;
975.0000;0.7920;0.9795;
975.3000;0.7920;0.9795;
975.6000;0.7912;0.9771;
975.9000;0.7904;0.9771;
976.2000;0.7920;0.9795;
976.5000;0.7928;0.9795;
976.8000;0.7928;0.9747;
977.1000;0.7904;0.9625;
977.4000;0.7912;0.9698;
977.7000;0.7920;0.9795;
978.0000;0.7912;0.9771;
978.3000;0.7920;0.9698;
978.6000;0.7904;0.9674;
978.9000;0.7912;0.9722;
979.2000;0.7888;0.9650;
979.5000;0.7904;0.9674;
979.8000;0.7896;0.9625;
980.1000;0.7912;0.9698;
980.4000;0.7920;0.9722;
980.7000;0.7912;0.9747;
981.0000;0.7920;0.9747;
981.3000;0.7912;0.9795;
981.6000;0.7920;0.9868;
981.9000;0.7912;0.9795;
982.2000;0.7920;0.9819;
982.5000;0.7896;0.9747;
982.8000;0.7912;0.9819;
983.1000;0.7896;0.9819;
983.4000;0.7904;0.9722;
983.7000;0.7896;0.9601;
984.0000;0.7904;0.9601;
984.3000;0.7896;0.9650;
984.6000;0.7896;0.9650;
984.9000;0.7863;0.9577;
985.2000;0.7904;0.9650;
985.5000;0.7912;0.9650;
985.8000;0.7904;0.9601;
986.1000;0.7912;0.9577;
986.4000;0.7888;0.9528;
986.7000;0.7904;0.9601;
987.0000;0.7847;0.9432;
987.3000;0.7888;0.9577;
987.6000;0.7888;0.9601;
987.9000;0.7920;0.9650;
988.2000;0.7823;0.9359;
988.5000;0.7863;0.9456;
988.8000;0.7888;0.9553;
989.1000;0.7904;0.9650;
989.4000;0.7871;0.9674;
989.7000;0.7880;0.9650;
990.0000;0.7888;0.9625;
990.3000;0.7896;0.9625;
990.6000;0.7888;0.9601;
990.9000;0.7904;0.9625;
991.2000;0.7888;0.9625;
991.5000;0.7880;0.9577;
991.8000;0.7896;0.9601;
992.1000;0.7896;0.9625;
992.4000;0.7888;0.9577;
992.7000;0.7871;0.9577;
993.0000;0.7920;0.9698;
993.3000;0.7888;0.9625;
993.6000;0.7888;0.9625;
993.9000;0.7871;0.9625;
994.2000;0.7904;0.9747;
994.5000;0.7912;0.9747;
994.8000;0.7880;0.9722;
995.1000;0.7920;0.9795;
995.4000;0.7937;0.9795;
995.7000;0.7888;0.9625;
996.0000;0.7904;0.9625;
996.3000;0.7888;0.9650;
996.6000;0.7888;0.9650;
996.9000;0.7871;0.9625;
997.2000;0.7888;0.9674;
997.5000;0.7904;0.9698;
997.8000;0.7871;0.9674;
998.1000;0.7880;0.9722;
998.4000;0.7871;0.9698;
998.7000;0.7871;0.9698;
999.0000;0.7871;0.9674;
999.3000;0.7871;0.9722;
999.6000;0.7871;0.9650;
999.9000;0.7855;0.9577;
1000.2000;0.7871;0.9625;
1000.5000;0.7863;0.9650;
1000.8000;0.7871;0.9625;
1001.1000;0.7855;0.9601;
1001.4000;0.7871;0.9601;
1001.7000;0.7880;0.9601;
1002.0000;0.7880;0.9577;
1002.3000;0.7888;0.9674;
1002.6000;0.7855;0.9553;
1002.9000;0.7888;0.9601;
1003.2000;0.7880;0.9577;
1003.5000;0.7920;0.9650;
1003.8000;0.7871;0.9601;
1004.1000;0.7871;0.9553;
1004.4000;0.7855;0.9650;
1004.7000;0.7880;0.9771;
1005.0000;0.7847;0.9795;
1005.3000;0.7880;0.9916;
1005.6000;0.7888;0.9892;
1005.9000;0.7863;0.9771;
1006.2000;0.7871;0.9868;
1006.5000;0.7847;0.9868;
1006.8000;0.7871;0.9916;
1007.1000;0.7896;1.0062;
1007.4000;0.7839;1.0038;
1007.7000;0.7863;1.0086;
1008.0000;0.7855;1.0013;
1008.3000;0.7871;1.0062;
1008.6000;0.7912;1.0135;
1008.9000;0.7847;0.9892;
1009.2000;0.7847;0.9916;
1009.5000;0.7847;0.9819;
1009.8000;0.7855;0.9892;
1010.1000;0.7798;0.9722;
1010.4000;0.7871;0.9892;
1010.7000;0.7847;0.9941;
1011.0000;0.7863;0.9989;
1011.3000;0.7863;0.9868;
1011.6000;0.7855;0.9844;
1011.9000;0.7855;0.9868;
1012.2000;0.7863;0.9819;
1012.5000;0.7798;0.9747;
1012.8000;0.7847;0.9844;
1013.1000;0.7814;0.9819;
1013.4000;0.7847;0.9795;
1013.7000;0.7855;0.9795;
1014.0000;0.7855;0.9819;
1014.3000;0.7847;0.9844;
1014.6000;0.7847;0.9844;
1014.9000;0.7847;0.9819;
1015.2000;0.7855;0.9819;
1015.5000;0.7855;0.9844;
1015.8000;0.7863;0.9916;
1016.1000;0.7871;0.9965;
1016.4000;0.7847;0.9892;
1016.7000;0.7847;0.9819;
1017.0000;0.7855;0.9819;
1017.3000;0.7863;0.9795;
1017.6000;0.7855;0.9698;
1017.9000;0.7863;0.9625;
1018.2000;0.7847;0.9601;
1018.5000;0.7847;0.9577;
1018.8000;0.7847;0.9577;
1019.1000;0.7831;0.9553;
1019.4000;0.7839;0.9650;
1019.7000;0.7847;0.9650;
1020.0000;0.7839;0.9625;
1020.3000;0.7855;0.9528;
1020.6000;0.7847;0.9553;
1020.9000;0.7847;0.9625;
1021.2000;0.7871;0.9795;
1021.5000;0.7847;0.9747;
1021.8000;0.7831;0.9674;
1022.1000;0.7855;0.9650;
1022.4000;0.7839;0.9674;
1022.7000;0.7855;0.9771;
1023.0000;0.7847;0.9771;
1023.3000;0.7823;0.9698;
1023.6000;0.7831;0.9747;
1023.9000;0.7839;0.9747;
1024.2000;0.7831;0.9674;
1024.5000;0.7863;0.9722;
1024.8000;0.7839;0.9674;
1025.1000;0.7847;0.9601;
1025.4000;0.7839;0.9650;
1025.7000;0.7839;0.9698;
1026.0000;0.7831;0.9698;
1026.3000;0.7823;0.9771;
1026.6000;0.7855;0.9868;
1026.9000;0.7839;0.9819;
1027.2000;0.7847;0.9892;
1027.5000;0.7839;0.9868;
1027.8000;0.7839;0.9844;
1028.1000;0.7831;0.9747;
1028.4000;0.7920;0.9989;
1028.7000;0.7823;0.9844;
1029.0000;0.7839;0.9892;
1029.3000;0.7831;0.9844;
1029.6000;0.7814;0.9747;
1029.9000;0.7871;0.9868;
1030.2000;0.7823;0.9747;
1030.5000;0.7806;0.9698;
1030.8000;0.7863;0.9892;
1031.1000;0.7831;0.9771;
1031.4000;0.7823;0.9747;
1031.7000;0.7831;0.9771;
1032.0000;0.7814;0.9698;
1032.3000;0.7839;0.9844;
1032.6000;0.7839;0.9892;
1032.9000;0.7831;0.9916;
1033.2000;0.7814;0.9916;
1033.5000;0.7814;0.9892;
1033.8000;0.7806;0.9819;
1034.1000;0.7831;0.9819;
1034.4000;0.7839;0.9844;
1034.7000;0.7806;0.9819;
1035.0000;0.7790;0.9771;
1035.3000;0.7806;0.9747;
1035.6000;0.7806;0.9722;
1035.9000;0.7798;0.9795;
1036.2000;0.7814;0.9795;
1036.5000;0.7806;0.9747;
1036.8000;0.7831;0.9819;
1037.1000;0.7806;0.9771;
1037.4000;0.7823;0.9722;
1037.7000;0.7806;0.9771;
1038.0000;0.7839;0.9747;
1038.3000;0.7839;0.9771;
1038.6000;0.7823;0.9747;
1038.9000;0.7831;0.9795;
1039.2000;0.7823;0.9722;
1039.5000;0.7814;0.9747;
1039.8000;0.7814;0.9722;
1040.1000;0.7806;0.9698;
1040.4000;0.7823;0.9722;
1040.7000;0.7806;0.9722;
1041.0000;0.7806;0.9771;
1041.3000;0.7798;0.9771;
1041.6000;0.7823;0.9771;
1041.9000;0.7831;0.9771;
1042.2000;0.7806;0.9747;
1042.5000;0.7733;0.9528;
1042.8000;0.7806;0.9698;
1043.1000;0.7814;0.9747;
1043.4000;0.7823;0.9722;
1043.7000;0.7814;0.9698;
1044.0000;0.7823;0.9674;
1044.3000;0.7798;0.9601;
1044.6000;0.7798;0.9577;
1044.9000;0.7790;0.9553;
1045.2000;0.7774;0.9577;
1045.5000;0.7798;0.9698;
1045.8000;0.7798;0.9601;
1046.1000;0.7798;0.9577;
1046.4000;0.7798;0.9625;
1046.7000;0.7798;0.9650;
1047.0000;0.7790;0.9650;
1047.3000;0.7774;0.9601;
1047.6000;0.7814;0.9747;
1047.9000;0.7806;0.9747;
1048.2000;0.7798;0.9722;
1048.5000;0.7855;0.9819;
1048.8000;0.7798;0.9625;
1049.1000;0.7790;0.9650;
1049.4000;0.7806;0.9722;
1049.7000;0.7806;0.9795;
1050.0000;0.7798;0.9722;
1050.3000;0.7814;0.9771;
1050.6000;0.7823;0.9795;
1050.9000;0.7831;0.9747;
1051.2000;0.7806;0.9650;
1051.5000;0.7814;0.9601;
1051.8000;0.7806;0.9577;
1052.1000;0.7790;0.9480;
1052.4000;0.7806;0.9504;
1052.7000;0.7798;0.9504;
1053.0000;0.7814;0.9625;
1053.3000;0.7774;0.9504;
1053.6000;0.7814;0.9650;
1053.9000;0.7814;0.9747;
1054.2000;0.7782;0.9674;
1054.5000;0.7782;0.9553;
1054.8000;0.7814;0.9650;
1055.1000;0.7831;0.9771;
1055.4000;0.7806;0.9844;
1055.7000;0.7814;0.9916;
1056.0000;0.7806;0.9892;
1056.3000;0.7782;0.9844;
1056.6000;0.7774;0.9819;
1056.9000;0.7798;0.9892;
1057.2000;0.7766;0.9819;
1057.5000;0.7774;0.9771;
1057.8000;0.7790;0.9698;
1058.1000;0.7831;0.9941;
1058.4000;0.7790;0.9771;
1058.7000;0.7798;0.9747;
1059.0000;0.7790;0.9819;
1059.3000;0.7814;0.9892;
1059.6000;0.7782;0.9771;
1059.9000;0.7806;0.9819;
1060.2000;0.7774;0.9650;
1060.5000;0.7790;0.9650;
1060.8000;0.7798;0.9674;
1061.1000;0.7766;0.9577;
1061.4000;0.7782;0.9553;
1061.7000;0.7790;0.9577;
1062.0000;0.7806;0.9553;
1062.3000;0.7798;0.9553;
1062.6000;0.7798;0.9528;
1062.9000;0.7790;0.9601;
1063.2000;0.7823;0.9650;
1063.5000;0.7814;0.9674;
1063.8000;0.7790;0.9650;
1064.1000;0.7798;0.9698;
1064.4000;0.7774;0.9650;
1064.7000;0.7798;0.9747;
1065.0000;0.7774;0.9698;
1065.3000;0.7790;0.9795;
1065.6000;0.7798;0.9771;
1065.9000;0.7798;0.9650;
1066.2000;0.7757;0.9577;
1066.5000;0.7774;0.9577;
1066.8000;0.7774;0.9528;
1067.1000;0.7774;0.9504;
1067.4000;0.7782;0.9456;
1067.7000;0.7766;0.9504;
1068.0000;0.7717;0.9432;
1068.3000;0.7774;0.9504;
1068.6000;0.7774;0.9456;
1068.9000;0.7774;0.9480;
1069.2000;0.7790;0.9456;
1069.5000;0.7806;0.9528;
1069.8000;0.7798;0.9528;
1070.1000;0.7782;0.9528;
1070.4000;0.7757;0.9504;
1070.7000;0.7798;0.9480;
1071.0000;0.7806;0.9480;
1071.3000;0.7790;0.9528;
1071.6000;0.7839;0.9698;
1071.9000;0.7766;0.9650;
1072.2000;0.7766;0.9674;
1072.5000;0.7757;0.9698;
1072.8000;0.7774;0.9747;
1073.1000;0.7749;0.9698;
1073.4000;0.7790;0.9698;
1073.7000;0.7782;0.9674;
1074.0000;0.7782;0.9722;
1074.3000;0.7790;0.9747;
1074.6000;0.7774;0.9771;
1074.9000;0.7798;0.9868;
1075.2000;0.7774;0.9722;
1075.5000;0.7749;0.9698;
1075.8000;0.7774;0.9722;
1076.1000;0.7774;0.9747;
1076.4000;0.7766;0.9771;
1076.7000;0.7774;0.9795;
1077.0000;0.7766;0.9868;
1077.3000;0.7766;0.9844;
1077.6000;0.7790;0.9892;
1077.9000;0.7766;0.9844;
1078.2000;0.7774;0.9941;
1078.5000;0.7766;0.9892;
1078.8000;0.7774;0.9941;
1079.1000;0.7774;0.9844;
1079.4000;0.7774;0.9795;
1079.7000;0.7782;0.9868;
1080.0000;0.7749;0.9844;
1080.3000;0.7757;0.9819;
1080.6000;0.7741;0.9747;
1080.9000;0.7757;0.9747;
1081.2000;0.7774;0.9819;
1081.5000;0.7757;0.9698;
1081.8000;0.7766;0.9771;
1082.1000;0.7766;0.9868;
1082.4000;0.7766;0.9747;
1082.7000;0.7782;0.9819;
1083.0000;0.7774;0.9868;
1083.3000;0.7766;0.9868;
1083.6000;0.7684;0.9747;
1083.9000;0.7757;0.9892;
1084.2000;0.7757;0.9819;
1084.5000;0.7782;0.9868;
1084.8000;0.7782;0.9892;
1085.1000;0.7790;0.9916;
1085.4000;0.7766;0.9819;
1085.7000;0.7782;0.9844;
1086.0000;0.7757;0.9868;
1086.3000;0.7766;0.9916;
1086.6000;0.7766;0.9892;
1086.9000;0.7774;0.9795;
1087.2000;0.7782;0.9771;
1087.5000;0.7757;0.9722;
1087.8000;0.7782;0.9819;
1088.1000;0.7733;0.9771;
1088.4000;0.7741;0.9747;
1088.7000;0.7766;0.9941;
1089.0000;0.7782;1.0013;
1089.3000;0.7757;0.9916;
1089.6000;0.7766;0.9941;
1089.9000;0.7757;0.9916;
1090.2000;0.7725;0.9892;
1090.5000;0.7766;1.0013;
1090.8000;0.7766;1.0038;
1091.1000;0.7741;0.9965;
1091.4000;0.7725;0.9916;
1091.7000;0.7757;0.9989;
1092.0000;0.7766;1.0013;
1092.3000;0.7757;0.9989;
1092.6000;0.7757;1.0062;
1092.9000;0.7749;0.9989;
1093.2000;0.7782;1.0038;
1093.5000;0.7757;0.9941;
1093.8000;0.7766;0.9965;
1094.1000;0.7766;0.9941;
1094.4000;0.7774;0.9965;
1094.7000;0.7741;0.9941;
1095.0000;0.7766;0.9965;
1095.3000;0.7766;0.9965;
1095.6000;0.7774;0.9868;
1095.9000;0.7749;0.9868;
1096.2000;0.7757;0.9892;
1096.5000;0.7774;0.9965;
1096.8000;0.7725;0.9844;
1097.1000;0.7733;0.9844;
1097.4000;0.7749;0.9819;
1097.7000;0.7766;0.9844;
1098.0000;0.7757;0.9844;
1098.3000;0.7749;0.9795;
1098.6000;0.7774;0.9795;
1098.9000;0.7749;0.9771;
1099.2000;0.7757;0.9771;
1099.5000;0.7749;0.9747;
1099.8000;0.7757;0.9722;
1100.1000;0.7766;0.9795;
1100.4000;0.7782;0.9771;
1100.7000;0.7766;0.9868;
1101.0000;0.7749;0.9844;
1101.3000;0.7814;0.9965;
1101.6000;0.7757;0.9844;
1101.9000;0.7757;0.9916;
1102.2000;0.7749;1.0062;
1102.5000;0.7757;1.0013;
1102.8000;0.7741;0.9965;
1103.1000;0.7741;0.9868;
1103.4000;0.7741;0.9844;
1103.7000;0.7741;0.9819;
1104.0000;0.7741;0.9868;
1104.3000;0.7774;0.9892;
1104.6000;0.7757;0.9795;
1104.9000;0.7733;0.9819;
1105.2000;0.7749;0.9844;
1105.5000;0.7733;0.9819;
1105.8000;0.7749;0.9892;
1106.1000;0.7782;1.0013;
1106.4000;0.7668;0.9722;
1106.7000;0.7757;0.9965;
1107.0000;0.7717;0.9916;
1107.3000;0.7733;1.0062;
1107.6000;0.7652;0.9819;
1107.9000;0.7749;0.9965;
1108.2000;0.7733;0.9916;
1108.5000;0.7733;0.9965;
1108.8000;0.7733;0.9965;
1109.1000;0.7749;1.0086;
1109.4000;0.7741;1.0135;
1109.7000;0.7749;1.0110;
1110.0000;0.7733;1.0013;
1110.3000;0.7757;1.0062;
1110.6000;0.7749;1.0086;
1110.9000;0.7741;1.0062;
1111.2000;0.7749;1.0086;
1111.5000;0.7733;1.0062;
1111.8000;0.7733;1.0038;
1112.1000;0.7741;1.0086;
1112.4000;0.7741;1.0110;
1112.7000;0.7741;1.0110;
1113.0000;0.7733;1.0183;
1113.3000;0.7741;1.0183;
1113.6000;0.7749;1.0135;
1113.9000;0.7733;1.0159;
1114.2000;0.7733;1.0135;
1114.5000;0.7757;1.0207;
1114.8000;0.7749;1.0232;
1115.1000;0.7733;1.0232;
1115.4000;0.7733;1.0038;
1115.7000;0.7733;0.9989;
1116.0000;0.7741;0.9989;
1116.3000;0.7749;0.9989;
1116.6000;0.7725;0.9965;
1116.9000;0.7725;0.9916;
1117.2000;0.7717;0.9844;
1117.5000;0.7733;0.9892;
1117.8000;0.7717;0.9819;
1118.1000;0.7717;0.9819;
1118.4000;0.7725;0.9868;
1118.7000;0.7733;0.9844;
1119.0000;0.7733;0.9819;
1119.3000;0.7774;0.9916;
1119.6000;0.7733;0.9844;
1119.9000;0.7733;0.9722;
1120.2000;0.7741;0.9601;
1120.5000;0.7725;0.9625;
1120.8000;0.7749;0.9747;
1121.1000;0.7733;0.9698;
1121.4000;0.7749;0.9771;
1121.7000;0.7733;0.9819;
1122.0000;0.7757;0.9722;
1122.3000;0.7798;0.9698;
1122.6000;0.7733;0.9577;
1122.9000;0.7733;0.9504;
1123.2000;0.7741;0.9577;
1123.5000;0.7749;0.9674;
1123.8000;0.7733;0.9650;
1124.1000;0.7733;0.9747;
1124.4000;0.7741;0.9868;
1124.7000;0.7774;1.0038;
1125.0000;0.7741;1.0038;
1125.3000;0.7676;0.9795;
1125.6000;0.7725;0.9941;
1125.9000;0.7725;0.9941;
1126.2000;0.7757;0.9965;
1126.5000;0.7741;0.9916;
1126.8000;0.7733;0.9868;
1127.1000;0.7766;0.9868;
1127.4000;0.7725;0.9868;
1127.7000;0.7725;0.9819;
1128.0000;0.7668;0.9747;
1128.3000;0.7717;0.9892;
1128.6000;0.7692;0.9819;
1128.9000;0.7766;1.0038;
1129.2000;0.7725;0.9965;
1129.5000;0.7725;0.9965;
1129.8000;0.7725;0.9989;
1130.1000;0.7733;0.9965;
1130.4000;0.7766;0.9989;
1130.7000;0.7725;0.9941;
1131.0000;0.7749;1.0038;
1131.3000;0.7741;1.0038;
1131.6000;0.7733;0.9989;
1131.9000;0.7741;0.9989;
1132.2000;0.7733;1.0038;
1132.5000;0.7717;0.9941;
1132.8000;0.7741;0.9989;
1133.1000;0.7766;1.0110;
1133.4000;0.7717;0.9941;
1133.7000;0.7717;0.9965;
1134.0000;0.7717;0.9965;
1134.3000;0.7692;0.9819;
1134.6000;0.7725;0.9868;
1134.9000;0.7725;0.9892;
1135.2000;0.7709;0.9916;
1135.5000;0.7717;0.9844;
1135.8000;0.7725;0.9868;
1136.1000;0.7741;0.9819;
1136.4000;0.7749;0.9892;
1136.7000;0.7725;0.9892;
1137.0000;0.7717;0.9844;
1137.3000;0.7733;0.9844;
1137.6000;0.7717;0.9795;
1137.9000;0.7717;0.9771;
1138.2000;0.7790;0.9916;
1138.5000;0.7725;0.9747;
1138.8000;0.7725;0.9844;
1139.1000;0.7717;0.9771;
1139.4000;0.7717;0.9771;
1139.7000;0.7717;0.9698;
1140.0000;0.7733;0.9722;
1140.3000;0.7733;0.9819;
1140.6000;0.7717;0.9795;
1140.9000;0.7717;0.9747;
1141.2000;0.7814;0.9965;
1141.5000;0.7733;0.9795;
1141.8000;0.7733;0.9844;
1142.1000;0.7741;0.9844;
1142.4000;0.7774;0.9819;
1142.7000;0.7733;0.9698;
1143.0000;0.7717;0.9674;
1143.3000;0.7766;0.9771;
1143.6000;0.7717;0.9674;
1143.9000;0.7709;0.9625;
1144.2000;0.7709;0.9722;
1144.5000;0.7717;0.9747;
1144.8000;0.7725;0.9747;
1145.1000;0.7725;0.9722;
1145.4000;0.7717;0.9844;
1145.7000;0.7717;0.9771;
1146.0000;0.7717;0.9722;
1146.3000;0.7717;0.9674;
1146.6000;0.7725;0.9625;
1146.9000;0.7725;0.9650;
1147.2000;0.7717;0.9698;
1147.5000;0.7709;0.9722;
1147.8000;0.7733;0.9771;
1148.1000;0.7717;0.9625;
1148.4000;0.7709;0.9577;
1148.7000;0.7709;0.9601;
1149.0000;0.7725;0.9650;
1149.3000;0.7717;0.9698;
1149.6000;0.7717;0.9722;
1149.9000;0.7717;0.9795;
1150.2000;0.7798;1.0038;
1150.5000;0.7757;0.9941;
1150.8000;0.7717;0.9868;
1151.1000;0.7725;0.9892;
1151.4000;0.7700;0.9844;
1151.7000;0.7692;0.9747;
1152.0000;0.7709;0.9747;
1152.3000;0.7684;0.9674;
1152.6000;0.7684;0.9650;
1152.9000;0.7635;0.9601;
1153.2000;0.7741;0.9916;
1153.5000;0.7709;0.9771;
1153.8000;0.7692;0.9747;
1154.1000;0.7717;0.9868;
1154.4000;0.7700;0.9747;
1154.7000;0.7709;0.9674;
1155.0000;0.7709;0.9650;
1155.3000;0.7798;0.9795;
1155.6000;0.7717;0.9528;
1155.9000;0.7709;0.9553;
1156.2000;0.7709;0.9553;
1156.5000;0.7717;0.9553;
1156.8000;0.7717;0.9504;
1157.1000;0.7766;0.9553;
1157.4000;0.7717;0.9359;
1157.7000;0.7700;0.9480;
1158.0000;0.7709;0.9553;
1158.3000;0.7709;0.9625;
1158.6000;0.7709;0.9674;
1158.9000;0.7700;0.9650;
1159.2000;0.7627;0.9528;
1159.5000;0.7700;0.9674;
1159.8000;0.7692;0.9722;
1160.1000;0.7725;0.9844;
1160.4000;0.7725;0.9892;
1160.7000;0.7700;0.9795;
1161.0000;0.7717;0.9892;
1161.3000;0.7709;0.9892;
1161.6000;0.7684;0.9795;
1161.9000;0.7717;0.9868;
1162.2000;0.7717;0.9916;
1162.5000;0.7684;0.9868;
1162.8000;0.7692;0.9916;
1163.1000;0.7717;0.9965;
1163.4000;0.7700;0.9965;
1163.7000;0.7700;0.9965;
1164.0000;0.7692;0.9965;
1164.3000;0.7700;0.9916;
1164.6000;0.7709;0.9892;
1164.9000;0.7709;0.9819;
1165.2000;0.7709;0.9892;
1165.5000;0.7717;0.9916;
1165.8000;0.7709;0.9892;
1166.1000;0.7692;0.9795;
1166.4000;0.7709;0.9747;
1166.7000;0.7749;0.9795;
1167.0000;0.7709;0.9722;
1167.3000;0.7733;0.9771;
1167.6000;0.7684;0.9722;
1167.9000;0.7692;0.9795;
1168.2000;0.7709;0.9916;
1168.5000;0.7700;0.9965;
1168.8000;0.7684;0.9916;
1169.1000;0.7709;0.9941;
1169.4000;0.7717;0.9892;
1169.7000;0.7709;0.9868;
1170.0000;0.7709;0.9795;
1170.3000;0.7709;0.9844;
1170.6000;0.7717;0.9844;
1170.9000;0.7717;0.9819;
1171.2000;0.7700;0.9771;
1171.5000;0.7709;0.9771;
1171.8000;0.7692;0.9722;
1172.1000;0.7709;0.9722;
1172.4000;0.7692;0.9698;
1172.7000;0.7692;0.9650;
1173.0000;0.7692;0.9601;
1173.3000;0.7684;0.9650;
1173.6000;0.7709;0.9674;
1173.9000;0.7700;0.9650;
1174.2000;0.7676;0.9698;
1174.5000;0.7700;0.9650;
1174.8000;0.7709;0.9650;
1175.1000;0.7709;0.9722;
1175.4000;0.7709;0.9747;
1175.7000;0.7709;0.9674;
1176.0000;0.7684;0.9674;
1176.3000;0.7700;0.9722;
1176.6000;0.7692;0.9650;
1176.9000;0.7692;0.9698;
1177.2000;0.7709;0.9722;
1177.5000;0.7692;0.9650;
1177.8000;0.7692;0.9601;
1178.1000;0.7700;0.9650;
1178.4000;0.7709;0.9674;
1178.7000;0.7717;0.9674;
1179.0000;0.7700;0.9625;
1179.3000;0.7676;0.9577;
1179.6000;0.7692;0.9625;
1179.9000;0.7692;0.9553;
1180.2000;0.7717;0.9650;
1180.5000;0.7700;0.9601;
1180.8000;0.7700;0.9625;
1181.1000;0.7676;0.9504;
1181.4000;0.7684;0.9528;
1181.7000;0.7692;0.9601;
1182.0000;0.7692;0.9674;
1182.3000;0.7692;0.9795;
1182.6000;0.7700;0.9819;
1182.9000;0.7692;0.9771;
1183.2000;0.7676;0.9698;
1183.5000;0.7692;0.9722;
1183.8000;0.7692;0.9674;
1184.1000;0.7652;0.9553;
1184.4000;0.7692;0.9601;
1184.7000;0.7700;0.9577;
1185.0000;0.7725;0.9674;
1185.3000;0.7676;0.9625;
1185.6000;0.7676;0.9553;
1185.9000;0.7692;0.9577;
1186.2000;0.7660;0.9456;
1186.5000;0.7692;0.9625;
1186.8000;0.7676;0.9625;
1187.1000;0.7692;0.9601;
1187.4000;0.7709;0.9625;
1187.7000;0.7709;0.9650;
1188.0000;0.7709;0.9674;
1188.3000;0.7709;0.9528;
1188.6000;0.7709;0.9577;
1188.9000;0.7700;0.9650;
1189.2000;0.7700;0.9625;
1189.5000;0.7684;0.9601;
1189.8000;0.7700;0.9674;
1190.1000;0.7717;0.9698;
1190.4000;0.7700;0.9674;
1190.7000;0.7684;0.9674;
1191.0000;0.7684;0.9625;
1191.3000;0.7700;0.9674;
1191.6000;0.7700;0.9722;
1191.9000;0.7709;0.9747;
1192.2000;0.7692;0.9747;
1192.5000;0.7717;0.9722;
1192.8000;0.7660;0.9625;
1193.1000;0.7692;0.9771;
1193.4000;0.7684;0.9722;
1193.7000;0.7700;0.9795;
1194.0000;0.7676;0.9771;
1194.3000;0.7692;0.9747;
1194.6000;0.7684;0.9795;
1194.9000;0.7668;0.9747;
1195.2000;0.7700;0.9844;
1195.5000;0.7676;0.9868;
1195.8000;0.7668;0.9819;
1196.1000;0.7676;0.9892;
1196.4000;0.7668;0.9819;
1196.7000;0.7676;0.9844;
1197.0000;0.7717;0.9916;
1197.3000;0.7692;0.9795;
1197.6000;0.7684;0.9747;
1197.9000;0.7700;0.9795;
1198.2000;0.7684;0.9795;
1198.5000;0.7684;0.9795;
1198.8000;0.7741;0.9916;
1199.1000;0.7668;0.9771;
1199.4000;0.7652;0.9698;
1199.7000;0.7684;0.9747;
1200.0000;0.7660;0.9674;
1200.3000;0.7684;0.9722;
1200.6000;0.7660;0.9698;
1200.9000;0.7676;0.9747;
1201.2000;0.7652;0.9771;
1201.5000;0.7676;0.9819;
1201.8000;0.7635;0.9722;
1202.1000;0.7692;0.9868;
1202.4000;0.7692;0.9892;
1202.7000;0.7700;0.9916;
1203.0000;0.7684;0.9868;
1203.3000;0.7700;0.9892;
1203.6000;0.7676;0.9868;
1203.9000;0.7692;0.9868;
1204.2000;0.7717;0.9916;
1204.5000;0.7684;0.9795;
1204.8000;0.7676;0.9844;
1205.1000;0.7660;0.9795;
1205.4000;0.7684;0.9771;
1205.7000;0.7684;0.9771;
1206.0000;0.7684;0.9795;
1206.3000;0.7725;0.9941;
1206.6000;0.7684;0.9819;
1206.9000;0.7684;0.9771;
1207.2000;0.7684;0.9892;
1207.5000;0.7684;0.9941;
1207.8000;0.7676;0.9989;
1208.1000;0.7684;0.9892;
1208.4000;0.7676;0.9844;
1208.7000;0.7676;0.9892;
1209.0000;0.7692;0.9965;
1209.3000;0.7684;0.9916;
1209.6000;0.7676;0.9844;
1209.9000;0.7692;0.9892;
1210.2000;0.7684;0.9819;
1210.5000;0.7684;0.9795;
1210.8000;0.7676;0.9747;
1211.1000;0.7652;0.9674;
1211.4000;0.7676;0.9771;
1211.7000;0.7684;0.9844;
1212.0000;0.7692;0.9844;
1212.3000;0.7660;0.9868;
1212.6000;0.7684;0.9892;
1212.9000;0.7692;0.9892;
1213.2000;0.7692;0.9941;
1213.5000;0.7627;0.9795;
1213.8000;0.7684;0.9965;
1214.1000;0.7700;1.0038;
1214.4000;0.7684;1.0013;
1214.7000;0.7700;0.9965;
1215.0000;0.7668;0.9941;
1215.3000;0.7684;0.9965;
1215.6000;0.7684;0.9989;
1215.9000;0.7676;0.9868;
1216.2000;0.7692;0.9965;
1216.5000;0.7692;0.9916;
1216.8000;0.7619;0.9795;
1217.1000;0.7676;0.9965;
1217.4000;0.7660;0.9965;
1217.7000;0.7676;1.0038;
1218.0000;0.7668;1.0062;
1218.3000;0.7684;1.0062;
1218.6000;0.7676;1.0135;
1218.9000;0.7700;1.0183;
1219.2000;0.7676;1.0110;
1219.5000;0.7684;1.0110;
1219.8000;0.7643;0.9989;
1220.1000;0.7676;1.0038;
1220.4000;0.7684;0.9941;
1220.7000;0.7692;0.9989;
1221.0000;0.7660;0.9916;
1221.3000;0.7652;0.9844;
1221.6000;0.7684;0.9868;
1221.9000;0.7676;0.9819;
1222.2000;0.7676;0.9795;
1222.5000;0.7668;0.9819;
1222.8000;0.7660;0.9795;
1223.1000;0.7668;0.9916;
1223.4000;0.7660;0.9916;
1223.7000;0.7668;0.9819;
1224.0000;0.7684;0.9892;
1224.3000;0.7676;0.9916;
1224.6000;0.7692;0.9941;
1224.9000;0.7692;0.9819;
1225.2000;0.7652;0.9747;
1225.5000;0.7660;0.9844;
1225.8000;0.7676;0.9965;
1226.1000;0.7668;0.9916;
1226.4000;0.7684;0.9965;
1226.7000;0.7676;0.9965;
1227.0000;0.7668;0.9965;
1227.3000;0.7676;0.9989;
1227.6000;0.7692;1.0038;
1227.9000;0.7643;1.0038;
1228.2000;0.7709;1.0232;
1228.5000;0.7652;1.0110;
1228.8000;0.7668;1.0062;
1229.1000;0.7668;1.0110;
1229.4000;0.7684;1.0013;
1229.7000;0.7660;0.9916;
1230.0000;0.7660;0.9916;
1230.3000;0.7684;0.9965;
1230.6000;0.7660;0.9892;
1230.9000;0.7684;0.9892;
1231.2000;0.7676;0.9868;
1231.5000;0.7660;0.9868;
1231.8000;0.7652;0.9916;
1232.1000;0.7684;0.9965;
1232.4000;0.7652;0.9868;
1232.7000;0.7668;0.9844;
1233.0000;0.7660;0.9916;
1233.3000;0.7660;0.9916;
1233.6000;0.7660;0.9819;
1233.9000;0.7660;0.9868;
1234.2000;0.7660;0.9892;
1234.5000;0.7660;0.9916;
1234.8000;0.7676;0.9771;
1235.1000;0.7660;0.9795;
1235.4000;0.7652;0.9771;
1235.7000;0.7668;0.9819;
1236.0000;0.7668;0.9868;
1236.3000;0.7643;0.9747;
1236.6000;0.7643;0.9795;
1236.9000;0.7652;0.9771;
1237.2000;0.7660;0.9795;
1237.5000;0.7652;0.9771;
1237.8000;0.7668;0.9795;
1238.1000;0.7660;0.9795;
1238.4000;0.7652;0.9795;
1238.7000;0.7676;0.9795;
1239.0000;0.7676;0.9795;
1239.3000;0.7700;0.9868;
1239.6000;0.7684;0.9819;
1239.9000;0.7668;0.9795;
1240.2000;0.7676;0.9819;
1240.5000;0.7709;1.0013;
1240.8000;0.7676;0.9965;
1241.1000;0.7668;0.9965;
1241.4000;0.7652;0.9916;
1241.7000;0.7652;0.9844;
1242.0000;0.7652;0.9771;
1242.3000;0.7684;0.9844;
1242.6000;0.7668;0.9892;
1242.9000;0.7668;0.9941;
1243.2000;0.7627;0.9819;
1243.5000;0.7676;0.9892;
1243.8000;0.7643;0.9819;
1244.1000;0.7668;0.9916;
1244.4000;0.7700;1.0013;
1244.7000;0.7668;1.0013;
1245.0000;0.7652;0.9965;
1245.3000;0.7660;1.0038;
1245.6000;0.7652;0.9989;
1245.9000;0.7660;1.0038;
1246.2000;0.7643;0.9965;
1246.5000;0.7643;0.9941;
1246.8000;0.7660;0.9965;
1247.1000;0.7619;0.9844;
1247.4000;0.7676;0.9989;
1247.7000;0.7668;0.9965;
1248.0000;0.7668;0.9989;
1248.3000;0.7668;1.0038;
1248.6000;0.7684;1.0183;
1248.9000;0.7652;1.0086;
1249.2000;0.7660;1.0013;
1249.5000;0.7741;1.0159;
1249.8000;0.7676;0.9989;
1250.1000;0.7676;0.9989;
1250.4000;0.7676;0.9941;
1250.7000;0.7676;0.9965;
1251.0000;0.7684;1.0038;
1251.3000;0.7684;0.9965;
1251.6000;0.7643;0.9795;
1251.9000;0.7660;0.9795;
1252.2000;0.7660;0.9892;
1252.5000;0.7660;0.9941;
1252.8000;0.7668;0.9892;
1253.1000;0.7643;0.9941;
1253.4000;0.7627;1.0013;
1253.7000;0.7692;1.0110;
1254.0000;0.7668;1.0086;
1254.3000;0.7709;1.0013;
1254.6000;0.7652;0.9892;
1254.9000;0.7668;0.9844;
1255.2000;0.7684;0.9844;
1255.5000;0.7652;0.9819;
1255.8000;0.7643;0.9868;
1256.1000;0.7652;0.9892;
1256.4000;0.7652;0.9916;
1256.7000;0.7652;0.9941;
1257.0000;0.7652;1.0013;
1257.3000;0.7578;0.9795;
1257.6000;0.7652;1.0013;
1257.9000;0.7660;1.0038;
1258.2000;0.7643;0.9989;
1258.5000;0.7652;0.9989;
1258.8000;0.7627;0.9892;
1259.1000;0.7668;0.9892;
1259.4000;0.7660;0.9892;
1259.7000;0.7660;0.9892;
1260.0000;0.7692;0.9989;
1260.3000;0.7684;0.9916;
1260.6000;0.7676;0.9844;
1260.9000;0.7660;0.9892;
1261.2000;0.7652;0.9868;
1261.5000;0.7660;0.9868;
1261.8000;0.7643;0.9868;
1262.1000;0.7660;0.9819;
1262.4000;0.7619;0.9747;
1262.7000;0.7643;0.9722;
1263.0000;0.7668;0.9722;
1263.3000;0.7660;0.9698;
1263.6000;0.7660;0.9771;
1263.9000;0.7676;0.9844;
1264.2000;0.7676;0.9795;
1264.5000;0.7660;0.9747;
1264.8000;0.7660;0.9722;
1265.1000;0.7668;0.9771;
1265.4000;0.7676;0.9747;
1265.7000;0.7676;0.9747;
1266.0000;0.7676;0.9698;
1266.3000;0.7660;0.9650;
1266.6000;0.7668;0.9601;
1266.9000;0.7676;0.9577;
1267.2000;0.7660;0.9650;
1267.5000;0.7643;0.9674;
1267.8000;0.7619;0.9674;
1268.1000;0.7643;0.9747;
1268.4000;0.7717;0.9844;
1268.7000;0.7643;0.9577;
1269.0000;0.7652;0.9650;
1269.3000;0.7660;0.9771;
1269.6000;0.7652;0.9771;
1269.9000;0.7603;0.9625;
1270.2000;0.7660;0.9771;
1270.5000;0.7652;0.9771;
1270.8000;0.7660;0.9819;
1271.1000;0.7652;0.9819;
1271.4000;0.7668;0.9844;
1271.7000;0.7652;0.9819;
1272.0000;0.7660;0.9916;
1272.3000;0.7652;0.9916;
1272.6000;0.7643;0.9965;
1272.9000;0.7717;1.0110;
1273.2000;0.7595;0.9771;
1273.5000;0.7660;0.9965;
1273.8000;0.7668;0.9916;
1274.1000;0.7668;0.9941;
1274.4000;0.7660;0.9941;
1274.7000;0.7660;0.9965;
1275.0000;0.7660;0.9916;
1275.3000;0.7619;0.9795;
1275.6000;0.7660;0.9868;
1275.9000;0.7652;0.9771;
1276.2000;0.7652;0.9771;
1276.5000;0.7660;0.9844;
1276.8000;0.7668;0.9892;
1277.1000;0.7660;0.9916;
1277.4000;0.7643;0.9771;
1277.7000;0.7652;0.9795;
1278.0000;0.7660;0.9795;
1278.3000;0.7586;0.9625;
1278.6000;0.7643;0.9819;
1278.9000;0.7643;0.9892;
1279.2000;0.7668;0.9989;
1279.5000;0.7652;0.9989;
1279.8000;0.7652;1.0013;
1280.1000;0.7660;0.9989;
1280.4000;0.7660;0.9916;
1280.7000;0.7668;0.9941;
1281.0000;0.7668;0.9844;
1281.3000;0.7692;0.9868;
1281.6000;0.7652;0.9722;
1281.9000;0.7668;0.9722;
1282.2000;0.7660;0.9625;
1282.5000;0.7643;0.9722;
1282.8000;0.7643;0.9771;
1283.1000;0.7643;0.9722;
1283.4000;0.7660;0.9819;
1283.7000;0.7635;0.9771;
1284.0000;0.7652;0.9844;
1284.3000;0.7652;0.9892;
1284.6000;0.7741;1.0110;
1284.9000;0.7643;0.9868;
1285.2000;0.7635;0.9771;
1285.5000;0.7652;0.9844;
1285.8000;0.7684;0.9916;
1286.1000;0.7676;0.9844;
1286.4000;0.7668;0.9795;
1286.7000;0.7652;0.9747;
1287.0000;0.7643;0.9747;
1287.3000;0.7652;0.9844;
1287.6000;0.7652;0.9916;
1287.9000;0.7643;0.9916;
1288.2000;0.7652;0.9892;
1288.5000;0.7652;0.9844;
1288.8000;0.7570;0.9601;
1289.1000;0.7635;0.9819;
1289.4000;0.7643;0.9722;
1289.7000;0.7627;0.9722;
1290.0000;0.7652;0.9795;
1290.3000;0.7643;0.9892;
1290.6000;0.7668;0.9941;
1290.9000;0.7668;0.9941;
1291.2000;0.7676;0.9989;
1291.5000;0.7725;1.0135;
1291.8000;0.7643;0.9965;
1292.1000;0.7692;1.0038;
1292.4000;0.7676;0.9892;
1292.7000;0.7635;0.9844;
1293.0000;0.7660;0.9892;
1293.3000;0.7627;0.9795;
1293.6000;0.7635;0.9771;
1293.9000;0.7570;0.9625;
1294.2000;0.7643;0.9844;
1294.5000;0.7741;1.0110;
1294.8000;0.7668;0.9868;
1295.1000;0.7676;0.9819;
1295.4000;0.7660;0.9795;
1295.7000;0.7611;0.9722;
1296.0000;0.7668;0.9892;
1296.3000;0.7652;0.9819;
1296.6000;0.7660;0.9892;
1296.9000;0.7652;0.9868;
1297.2000;0.7652;0.9892;
1297.5000;0.7660;0.9916;
1297.8000;0.7652;0.9868;
1298.1000;0.7660;0.9892;
1298.4000;0.7660;0.9819;
1298.7000;0.7668;0.9916;
1299.0000;0.7652;0.9916;
1299.3000;0.7660;0.9916;
1299.6000;0.7660;0.9965;
1299.9000;0.7668;0.9868;
1300.2000;0.7643;0.9844;
1300.5000;0.7652;0.9989;
1300.8000;0.7668;1.0013;
1301.1000;0.7684;1.0110;
1301.4000;0.7652;1.0086;
1301.7000;0.7652;1.0086;
1302.0000;0.7660;1.0135;
1302.3000;0.7652;1.0086;
1302.6000;0.7643;1.0062;
1302.9000;0.7643;1.0038;
1303.2000;0.7660;0.9989;
1303.5000;0.7652;1.0013;
1303.8000;0.7668;1.0110;
1304.1000;0.7652;1.0013;
1304.4000;0.7668;1.0062;
1304.7000;0.7652;1.0062;
1305.0000;0.7660;1.0135;
1305.3000;0.7643;1.0062;
1305.6000;0.7643;1.0110;
1305.9000;0.7652;0.9989;
1306.2000;0.7635;0.9965;
1306.5000;0.7660;1.0013;
1306.8000;0.7643;0.9892;
1307.1000;0.7660;0.9941;
1307.4000;0.7676;1.0013;
1307.7000;0.7660;1.0013;
1308.0000;0.7676;0.9989;
1308.3000;0.7684;0.9989;
1308.6000;0.7652;0.9941;
1308.9000;0.7652;0.9892;
1309.2000;0.7660;0.9819;
1309.5000;0.7652;0.9771;
1309.8000;0.7652;0.9844;
1310.1000;0.7643;0.9844;
1310.4000;0.7652;0.9795;
1310.7000;0.7652;0.9747;
1311.0000;0.7635;0.9771;
1311.3000;0.7660;0.9941;
1311.6000;0.7643;0.9965;
1311.9000;0.7668;1.0013;
1312.2000;0.7660;0.9941;
1312.5000;0.7660;0.9965;
1312.8000;0.7643;0.9916;
1313.1000;0.7635;0.9941;
1313.4000;0.7619;0.9844;
1313.7000;0.7652;1.0038;
1314.0000;0.7660;1.0110;
1314.3000;0.7635;1.0013;
1314.6000;0.7652;0.9989;
1314.9000;0.7595;0.9795;
1315.2000;0.7643;0.9844;
1315.5000;0.7635;0.9795;
1315.8000;0.7643;0.9819;
1316.1000;0.7692;0.9892;
1316.4000;0.7652;0.9771;
1316.7000;0.7660;0.9868;
1317.0000;0.7660;0.9892;
1317.3000;0.7652;0.9844;
1317.6000;0.7676;0.9916;
1317.9000;0.7652;0.9819;
1318.2000;0.7652;0.9916;
1318.5000;0.7676;0.9916;
1318.8000;0.7660;0.9916;
1319.1000;0.7676;0.9916;
1319.4000;0.7660;0.9819;
1319.7000;0.7652;0.9795;
1320.0000;0.7643;0.9771;
1320.3000;0.7668;0.9795;
1320.6000;0.7652;0.9771;
1320.9000;0.7684;0.9892;
1321.2000;0.7643;0.9916;
1321.5000;0.7660;0.9965;
1321.8000;0.7643;0.9892;
1322.1000;0.7643;0.9892;
1322.4000;0.7643;0.9892;
1322.7000;0.7652;1.0013;
1323.0000;0.7660;1.0062;
1323.3000;0.7668;1.0013;
1323.6000;0.7652;1.0013;
1323.9000;0.7635;1.0013;
1324.2000;0.7652;0.9989;
1324.5000;0.7660;0.9989;
1324.8000;0.7635;0.9916;
1325.1000;0.7635;0.9892;
1325.4000;0.7635;0.9868;
1325.7000;0.7652;0.9989;
1326.0000;0.7635;1.0013;
1326.3000;0.7643;1.0038;
1326.6000;0.7652;1.0062;
1326.9000;0.7635;0.9989;
1327.2000;0.7660;0.9941;
1327.5000;0.7627;0.9916;
1327.8000;0.7652;0.9941;
1328.1000;0.7660;0.9965;
1328.4000;0.7635;0.9916;
1328.7000;0.7643;0.9892;
1329.0000;0.7676;0.9916;
1329.3000;0.7660;0.9844;
1329.6000;0.7684;1.0013;
1329.9000;0.7643;0.9916;
1330.2000;0.7643;0.9819;
1330.5000;0.7660;0.9868;
1330.8000;0.7652;0.9844;
1331.1000;0.7627;0.9844;
1331.4000;0.7668;0.9965;
1331.7000;0.7668;0.9892;
1332.0000;0.7627;0.9819;
1332.3000;0.7627;0.9747;
1332.6000;0.7660;0.9844;
1332.9000;0.7643;0.9819;
1333.2000;0.7643;0.9868;
1333.5000;0.7676;0.9965;
1333.8000;0.7643;0.9916;
1334.1000;0.7627;0.9844;
1334.4000;0.7619;0.9844;
1334.7000;0.7652;0.9989;
1335.0000;0.7611;0.9941;
1335.3000;0.7652;1.0038;
1335.6000;0.7643;1.0038;
1335.9000;0.7668;1.0062;
1336.2000;0.7643;1.0038;
1336.5000;0.7619;1.0038;
1336.8000;0.7643;1.0207;
1337.1000;0.7660;1.0183;
1337.4000;0.7668;1.0110;
1337.7000;0.7643;1.0038;
1338.0000;0.7692;1.0110;
1338.3000;0.7643;0.9892;
1338.6000;0.7652;0.9941;
1338.9000;0.7684;1.0013;
1339.2000;0.7643;0.9916;
1339.5000;0.7652;0.9916;
1339.8000;0.7643;0.9892;
1340.1000;0.7652;0.9965;
1340.4000;0.7643;1.0013;
1340.7000;0.7643;0.9989;
1341.0000;0.7660;1.0086;
1341.3000;0.7652;1.0013;
1341.6000;0.7652;0.9989;
1341.9000;0.7660;0.9989;
1342.2000;0.7660;0.9989;
1342.5000;0.7668;1.0013;
1342.8000;0.7660;0.9989;
1343.1000;0.7652;1.0038;
1343.4000;0.7668;1.0038;
1343.7000;0.7660;1.0038;
1344.0000;0.7660;1.0038;
1344.3000;0.7643;0.9941;
1344.6000;0.7652;1.0038;
1344.9000;0.7660;1.0062;
1345.2000;0.7643;1.0110;
1345.5000;0.7635;1.0038;
1345.8000;0.7652;1.0086;
1346.1000;0.7643;1.0062;
1346.4000;0.7668;1.0086;
1346.7000;0.7643;0.9989;
1347.0000;0.7660;0.9989;
1347.3000;0.7643;1.0062;
1347.6000;0.7643;1.0086;
1347.9000;0.7643;1.0062;
1348.2000;0.7652;1.0086;
1348.5000;0.7652;1.0062;
1348.8000;0.7660;1.0013;
1349.1000;0.7643;0.9965;
1349.4000;0.7652;1.0086;
1349.7000;0.7643;1.0013;
1350.0000;0.7660;1.0086;
1350.3000;0.7627;1.0013;
1350.6000;0.7635;0.9965;
1350.9000;0.7660;1.0086;
1351.2000;0.7643;1.0013;
1351.5000;0.7627;0.9892;
1351.8000;0.7619;0.9892;
1352.1000;0.7643;0.9989;
1352.4000;0.7635;0.9989;
1352.7000;0.7635;0.9941;
1353.0000;0.7643;0.9965;
1353.3000;0.7635;0.9965;
1353.6000;0.7652;1.0013;
1353.9000;0.7619;0.9868;
1354.2000;0.7635;0.9819;
1354.5000;0.7660;0.9941;
1354.8000;0.7643;0.9941;
1355.1000;0.7643;0.9916;
1355.4000;0.7660;0.9916;
1355.7000;0.7643;0.9941;
1356.0000;0.7668;0.9965;
1356.3000;0.7595;0.9844;
1356.6000;0.7643;0.9989;
1356.9000;0.7668;0.9965;
1357.2000;0.7652;0.9965;
1357.5000;0.7660;0.9989;
1357.8000;0.7652;0.9965;
1358.1000;0.7643;1.0038;
1358.4000;0.7643;1.0062;
1358.7000;0.7660;1.0110;
1359.0000;0.7652;1.0038;
1359.3000;0.7643;1.0062;
1359.6000;0.7652;1.0086;
1359.9000;0.7660;1.0135;
1360.2000;0.7660;1.0135;
1360.5000;0.7643;1.0183;
1360.8000;0.7643;1.0232;
1361.1000;0.7676;1.0280;
1361.4000;0.7668;1.0135;
1361.7000;0.7652;1.0038;
1362.0000;0.7709;1.0183;
1362.3000;0.7660;1.0038;
1362.6000;0.7660;0.9965;
1362.9000;0.7652;0.9965;
1363.2000;0.7643;1.0013;
1363.5000;0.7643;1.0038;
1363.8000;0.7652;1.0062;
1364.1000;0.7627;0.9989;
1364.4000;0.7635;0.9844;
1364.7000;0.7643;0.9941;
1365.0000;0.7643;0.9941;
1365.3000;0.7652;0.9941;
1365.6000;0.7578;0.9795;
1365.9000;0.7643;0.9989;
1366.2000;0.7668;1.0062;
1366.5000;0.7652;1.0062;
1366.8000;0.7603;1.0062;
1367.1000;0.7635;1.0135;
1367.4000;0.7668;1.0207;
1367.7000;0.7595;0.9941;
1368.0000;0.7635;1.0086;
1368.3000;0.7652;1.0207;
1368.6000;0.7627;1.0207;
1368.9000;0.7643;1.0207;
1369.2000;0.7660;1.0159;
1369.5000;0.7652;1.0135;
1369.8000;0.7643;1.0110;
1370.1000;0.7643;1.0062;
1370.4000;0.7635;0.9989;
1370.7000;0.7635;0.9892;
1371.0000;0.7635;0.9941;
1371.3000;0.7668;1.0062;
1371.6000;0.7635;0.9989;
1371.9000;0.7660;1.0062;
1372.2000;0.7635;0.9965;
1372.5000;0.7627;0.9941;
1372.8000;0.7643;0.9989;
1373.1000;0.7652;1.0013;
1373.4000;0.7635;1.0038;
1373.7000;0.7643;1.0013;
1374.0000;0.7635;1.0062;
1374.3000;0.7635;1.0062;
1374.6000;0.7643;1.0013;
1374.9000;0.7635;1.0062;
1375.2000;0.7652;1.0062;
1375.5000;0.7627;0.9916;
1375.8000;0.7627;0.9892;
1376.1000;0.7627;0.9868;
1376.4000;0.7627;0.9892;
1376.7000;0.7627;0.9916;
1377.0000;0.7643;1.0038;
1377.3000;0.7652;1.0038;
1377.6000;0.7635;0.9965;
1377.9000;0.7652;1.0013;
1378.2000;0.7619;0.9941;
1378.5000;0.7635;1.0013;
1378.8000;0.7652;0.9989;
1379.1000;0.7660;0.9941;
1379.4000;0.7652;0.9916;
1379.7000;0.7635;0.9868;
1380.0000;0.7676;0.9965;
1380.3000;0.7652;0.9916;
1380.6000;0.7668;0.9941;
1380.9000;0.7652;0.9868;
1381.2000;0.7627;0.9747;
1381.5000;0.7668;0.9916;
1381.8000;0.7635;0.9868;
1382.1000;0.7660;0.9892;
1382.4000;0.7643;0.9819;
1382.7000;0.7643;0.9868;
1383.0000;0.7595;0.9795;
1383.3000;0.7635;0.9916;
1383.6000;0.7635;0.9941;
1383.9000;0.7627;0.9941;
1384.2000;0.7684;1.0110;
1384.5000;0.7627;0.9989;
1384.8000;0.7643;1.0086;
1385.1000;0.7627;1.0013;
1385.4000;0.7668;1.0086;
1385.7000;0.7635;1.0062;
1386.0000;0.7635;1.0013;
1386.3000;0.7700;1.0110;
1386.6000;0.7652;0.9965;
1386.9000;0.7619;0.9892;
1387.2000;0.7627;0.9916;
1387.5000;0.7611;0.9965;
1387.8000;0.7643;1.0013;
1388.1000;0.7660;0.9989;
1388.4000;0.7643;0.9892;
1388.7000;0.7660;0.9941;
1389.0000;0.7643;0.9965;
1389.3000;0.7660;1.0086;
1389.6000;0.7643;0.9941;
1389.9000;0.7660;0.9941;
1390.2000;0.7643;0.9941;
1390.5000;0.7684;1.0062;
1390.8000;0.7652;0.9965;
1391.1000;0.7652;1.0062;
1391.4000;0.7643;0.9965;
1391.7000;0.7668;1.0038;
1392.0000;0.7652;1.0159;
1392.3000;0.7635;1.0135;
1392.6000;0.7700;1.0183;
1392.9000;0.7668;1.0013;
1393.2000;0.7643;0.9892;
1393.5000;0.7652;0.9965;
1393.8000;0.7668;1.0038;
1394.1000;0.7635;0.9965;
1394.4000;0.7643;1.0062;
1394.7000;0.7668;1.0135;
1395.0000;0.7660;1.0086;
1395.3000;0.7643;1.0135;
1395.6000;0.7652;1.0232;
1395.9000;0.7619;1.0135;
1396.2000;0.7635;1.0183;
1396.5000;0.7643;1.0207;
1396.8000;0.7635;1.0159;
1397.1000;0.7643;1.0159;
1397.4000;0.7652;1.0207;
1397.7000;0.7652;1.0159;
1398.0000;0.7635;1.0110;
1398.3000;0.7652;1.0280;
1398.6000;0.7660;1.0304;
1398.9000;0.7652;1.0256;
1399.2000;0.7660;1.0280;
1399.5000;0.7652;1.0159;
1399.8000;0.7643;1.0183;
