time/ms;Fluo/V;P700 deltaI/I x10³;
-199.8000;0.8555;1.2196;
-199.5000;0.8628;1.2365;
-199.2000;0.8563;1.2123;
-198.9000;0.8523;1.2123;
-198.6000;0.8571;1.2220;
-198.3000;0.8588;1.2292;
-198.0000;0.8580;1.2389;
-197.7000;0.8531;1.2292;
-197.4000;0.8563;1.2389;
-197.1000;0.8547;1.2292;
-196.8000;0.8563;1.2365;
-196.5000;0.8604;1.2438;
-196.2000;0.8547;1.2268;
-195.9000;0.8563;1.2317;
-195.6000;0.8563;1.2292;
-195.3000;0.8547;1.2268;
-195.0000;0.8555;1.2365;
-194.7000;0.8555;1.2341;
-194.4000;0.8563;1.2414;
-194.1000;0.8563;1.2438;
-193.8000;0.8571;1.2414;
-193.5000;0.8563;1.2389;
-193.2000;0.8612;1.2535;
-192.9000;0.8555;1.2317;
-192.6000;0.8571;1.2365;
-192.3000;0.8547;1.2268;
-192.0000;0.8604;1.2365;
-191.7000;0.8563;1.2317;
-191.4000;0.8563;1.2220;
-191.1000;0.8547;1.2268;
-190.8000;0.8555;1.2365;
-190.5000;0.8555;1.2414;
-190.2000;0.8539;1.2292;
-189.9000;0.8563;1.2341;
-189.6000;0.8555;1.2244;
-189.3000;0.8555;1.2171;
-189.0000;0.8580;1.2244;
-188.7000;0.8531;1.2171;
-188.4000;0.8571;1.2292;
-188.1000;0.8571;1.2220;
-187.8000;0.8563;1.2220;
-187.5000;0.8580;1.2292;
-187.2000;0.8588;1.2341;
-186.9000;0.8571;1.2341;
-186.6000;0.8563;1.2341;
-186.3000;0.8563;1.2341;
-186.0000;0.8571;1.2341;
-185.7000;0.8555;1.2268;
-185.4000;0.8555;1.2317;
-185.1000;0.8514;1.2220;
-184.8000;0.8514;1.2196;
-184.5000;0.8555;1.2268;
-184.2000;0.8571;1.2414;
-183.9000;0.8580;1.2438;
-183.6000;0.8612;1.2462;
-183.3000;0.8563;1.2414;
-183.0000;0.8539;1.2365;
-182.7000;0.8596;1.2438;
-182.4000;0.8563;1.2462;
-182.1000;0.8555;1.2365;
-181.8000;0.8571;1.2365;
-181.5000;0.8580;1.2389;
-181.2000;0.8612;1.2462;
-180.9000;0.8571;1.2317;
-180.6000;0.8596;1.2365;
-180.3000;0.8580;1.2389;
-180.0000;0.8580;1.2341;
-179.7000;0.8571;1.2317;
-179.4000;0.8563;1.2389;
-179.1000;0.8588;1.2389;
-178.8000;0.8563;1.2341;
-178.5000;0.8563;1.2414;
-178.2000;0.8555;1.2389;
-177.9000;0.8580;1.2486;
-177.6000;0.8580;1.2535;
-177.3000;0.8555;1.2486;
-177.0000;0.8466;1.2171;
-176.7000;0.8571;1.2365;
-176.4000;0.8555;1.2317;
-176.1000;0.8571;1.2292;
-175.8000;0.8555;1.2292;
-175.5000;0.8571;1.2317;
-175.2000;0.8547;1.2317;
-174.9000;0.8563;1.2317;
-174.6000;0.8580;1.2292;
-174.3000;0.8563;1.2244;
-174.0000;0.8628;1.2389;
-173.7000;0.8571;1.2268;
-173.4000;0.8580;1.2268;
-173.1000;0.8571;1.2244;
-172.8000;0.8588;1.2365;
-172.5000;0.8531;1.2317;
-172.2000;0.8563;1.2244;
-171.9000;0.8563;1.2268;
-171.6000;0.8563;1.2244;
-171.3000;0.8571;1.2196;
-171.0000;0.8571;1.2220;
-170.7000;0.8571;1.2268;
-170.4000;0.8555;1.2268;
-170.1000;0.8580;1.2268;
-169.8000;0.8539;1.2123;
-169.5000;0.8555;1.2074;
-169.2000;0.8571;1.2074;
-168.9000;0.8580;1.2147;
-168.6000;0.8580;1.2074;
-168.3000;0.8563;1.2002;
-168.0000;0.8563;1.2002;
-167.7000;0.8563;1.2026;
-167.4000;0.8571;1.2002;
-167.1000;0.8563;1.2002;
-166.8000;0.8563;1.2026;
-166.5000;0.8563;1.2026;
-166.2000;0.8571;1.2050;
-165.9000;0.8563;1.2002;
-165.6000;0.8571;1.1977;
-165.3000;0.8555;1.1953;
-165.0000;0.8555;1.2002;
-164.7000;0.8514;1.1953;
-164.4000;0.8555;1.2050;
-164.1000;0.8563;1.2026;
-163.8000;0.8588;1.2074;
-163.5000;0.8563;1.2002;
-163.2000;0.8571;1.2050;
-162.9000;0.8571;1.2171;
-162.6000;0.8547;1.2220;
-162.3000;0.8571;1.2220;
-162.0000;0.8580;1.2292;
-161.7000;0.8547;1.2268;
-161.4000;0.8563;1.2365;
-161.1000;0.8571;1.2317;
-160.8000;0.8547;1.2268;
-160.5000;0.8555;1.2220;
-160.2000;0.8571;1.2171;
-159.9000;0.8563;1.2171;
-159.6000;0.8547;1.2171;
-159.3000;0.8563;1.2171;
-159.0000;0.8604;1.2341;
-158.7000;0.8604;1.2341;
-158.4000;0.8571;1.2292;
-158.1000;0.8555;1.2268;
-157.8000;0.8580;1.2244;
-157.5000;0.8604;1.2268;
-157.2000;0.8563;1.2196;
-156.9000;0.8563;1.2147;
-156.6000;0.8563;1.2099;
-156.3000;0.8563;1.2099;
-156.0000;0.8571;1.2147;
-155.7000;0.8563;1.2220;
-155.4000;0.8580;1.2220;
-155.1000;0.8555;1.2099;
-154.8000;0.8539;1.2099;
-154.5000;0.8571;1.2123;
-154.2000;0.8555;1.2026;
-153.9000;0.8547;1.1977;
-153.6000;0.8571;1.2074;
-153.3000;0.8563;1.2123;
-153.0000;0.8547;1.2050;
-152.7000;0.8547;1.2099;
-152.4000;0.8563;1.2099;
-152.1000;0.8571;1.2196;
-151.8000;0.8571;1.2171;
-151.5000;0.8563;1.2147;
-151.2000;0.8571;1.2268;
-150.9000;0.8555;1.2317;
-150.6000;0.8620;1.2389;
-150.3000;0.8539;1.2196;
-150.0000;0.8555;1.2123;
-149.7000;0.8555;1.2123;
-149.4000;0.8547;1.2147;
-149.1000;0.8555;1.2171;
-148.8000;0.8547;1.2196;
-148.5000;0.8547;1.2220;
-148.2000;0.8563;1.2220;
-147.9000;0.8547;1.2268;
-147.6000;0.8547;1.2268;
-147.3000;0.8571;1.2317;
-147.0000;0.8588;1.2341;
-146.7000;0.8571;1.2244;
-146.4000;0.8555;1.2268;
-146.1000;0.8555;1.2244;
-145.8000;0.8571;1.2123;
-145.5000;0.8571;1.2074;
-145.2000;0.8571;1.2099;
-144.9000;0.8563;1.2099;
-144.6000;0.8604;1.2123;
-144.3000;0.8620;1.2196;
-144.0000;0.8563;1.2099;
-143.7000;0.8563;1.2123;
-143.4000;0.8580;1.2147;
-143.1000;0.8580;1.2244;
-142.8000;0.8531;1.2123;
-142.5000;0.8588;1.2317;
-142.2000;0.8571;1.2317;
-141.9000;0.8571;1.2317;
-141.6000;0.8571;1.2292;
-141.3000;0.8555;1.2317;
-141.0000;0.8571;1.2317;
-140.7000;0.8547;1.2244;
-140.4000;0.8555;1.2220;
-140.1000;0.8547;1.2220;
-139.8000;0.8637;1.2462;
-139.5000;0.8628;1.2389;
-139.2000;0.8571;1.2244;
-138.9000;0.8555;1.2171;
-138.6000;0.8547;1.2147;
-138.3000;0.8531;1.2099;
-138.0000;0.8539;1.2147;
-137.7000;0.8555;1.2244;
-137.4000;0.8588;1.2292;
-137.1000;0.8580;1.2268;
-136.8000;0.8563;1.2244;
-136.5000;0.8563;1.2317;
-136.2000;0.8563;1.2317;
-135.9000;0.8563;1.2389;
-135.6000;0.8571;1.2462;
-135.3000;0.8580;1.2438;
-135.0000;0.8563;1.2414;
-134.7000;0.8571;1.2438;
-134.4000;0.8580;1.2462;
-134.1000;0.8580;1.2462;
-133.8000;0.8555;1.2317;
-133.5000;0.8555;1.2268;
-133.2000;0.8580;1.2292;
-132.9000;0.8588;1.2292;
-132.6000;0.8571;1.2268;
-132.3000;0.8563;1.2147;
-132.0000;0.8580;1.2123;
-131.7000;0.8580;1.2026;
-131.4000;0.8580;1.2026;
-131.1000;0.8580;1.2123;
-130.8000;0.8588;1.2171;
-130.5000;0.8571;1.2196;
-130.2000;0.8563;1.2147;
-129.9000;0.8547;1.2147;
-129.6000;0.8563;1.2268;
-129.3000;0.8555;1.2268;
-129.0000;0.8547;1.2171;
-128.7000;0.8539;1.2220;
-128.4000;0.8555;1.2244;
-128.1000;0.8547;1.2147;
-127.8000;0.8563;1.2196;
-127.5000;0.8563;1.2099;
-127.2000;0.8531;1.2050;
-126.9000;0.8555;1.2099;
-126.6000;0.8563;1.2196;
-126.3000;0.8547;1.2268;
-126.0000;0.8547;1.2317;
-125.7000;0.8555;1.2317;
-125.4000;0.8506;1.2220;
-125.1000;0.8539;1.2244;
-124.8000;0.8588;1.2317;
-124.5000;0.8563;1.2220;
-124.2000;0.8571;1.2317;
-123.9000;0.8580;1.2317;
-123.6000;0.8555;1.2317;
-123.3000;0.8555;1.2414;
-123.0000;0.8547;1.2414;
-122.7000;0.8571;1.2511;
-122.4000;0.8555;1.2486;
-122.1000;0.8555;1.2365;
-121.8000;0.8547;1.2292;
-121.5000;0.8580;1.2341;
-121.2000;0.8571;1.2244;
-120.9000;0.8588;1.2220;
-120.6000;0.8588;1.2220;
-120.3000;0.8580;1.2220;
-120.0000;0.8571;1.2147;
-119.7000;0.8547;1.2123;
-119.4000;0.8563;1.2244;
-119.1000;0.8571;1.2171;
-118.8000;0.8580;1.2196;
-118.5000;0.8563;1.2220;
-118.2000;0.8555;1.2244;
-117.9000;0.8563;1.2268;
-117.6000;0.8571;1.2292;
-117.3000;0.8555;1.2292;
-117.0000;0.8547;1.2220;
-116.7000;0.8571;1.2317;
-116.4000;0.8580;1.2268;
-116.1000;0.8571;1.2341;
-115.8000;0.8563;1.2317;
-115.5000;0.8555;1.2268;
-115.2000;0.8571;1.2244;
-114.9000;0.8571;1.2292;
-114.6000;0.8563;1.2317;
-114.3000;0.8580;1.2292;
-114.0000;0.8563;1.2292;
-113.7000;0.8563;1.2341;
-113.4000;0.8555;1.2365;
-113.1000;0.8547;1.2292;
-112.8000;0.8547;1.2244;
-112.5000;0.8547;1.2268;
-112.2000;0.8547;1.2220;
-111.9000;0.8547;1.2268;
-111.6000;0.8571;1.2317;
-111.3000;0.8580;1.2317;
-111.0000;0.8563;1.2292;
-110.7000;0.8571;1.2292;
-110.4000;0.8523;1.2268;
-110.1000;0.8571;1.2414;
-109.8000;0.8580;1.2389;
-109.5000;0.8604;1.2414;
-109.2000;0.8563;1.2317;
-108.9000;0.8563;1.2389;
-108.6000;0.8563;1.2341;
-108.3000;0.8580;1.2292;
-108.0000;0.8547;1.2220;
-107.7000;0.8547;1.2220;
-107.4000;0.8563;1.2317;
-107.1000;0.8580;1.2365;
-106.8000;0.8571;1.2389;
-106.5000;0.8523;1.2438;
-106.2000;0.8571;1.2559;
-105.9000;0.8571;1.2559;
-105.6000;0.8563;1.2535;
-105.3000;0.8563;1.2486;
-105.0000;0.8580;1.2511;
-104.7000;0.8596;1.2511;
-104.4000;0.8563;1.2438;
-104.1000;0.8580;1.2414;
-103.8000;0.8563;1.2292;
-103.5000;0.8547;1.2292;
-103.2000;0.8555;1.2317;
-102.9000;0.8547;1.2292;
-102.6000;0.8547;1.2268;
-102.3000;0.8523;1.2171;
-102.0000;0.8555;1.2292;
-101.7000;0.8620;1.2462;
-101.4000;0.8580;1.2414;
-101.1000;0.8571;1.2535;
-100.8000;0.8555;1.2511;
-100.5000;0.8555;1.2608;
-100.2000;0.8580;1.2705;
-99.9000;0.8571;1.2753;
-99.6000;0.8588;1.2802;
-99.3000;0.8571;1.2632;
-99.0000;0.8539;1.2511;
-98.7000;0.8555;1.2511;
-98.4000;0.8571;1.2462;
-98.1000;0.8563;1.2559;
-97.8000;0.8555;1.2486;
-97.5000;0.8563;1.2462;
-97.2000;0.8555;1.2462;
-96.9000;0.8514;1.2341;
-96.6000;0.8531;1.2341;
-96.3000;0.8555;1.2341;
-96.0000;0.8539;1.2317;
-95.7000;0.8571;1.2389;
-95.4000;0.8580;1.2389;
-95.1000;0.8506;1.2196;
-94.8000;0.8580;1.2341;
-94.5000;0.8563;1.2317;
-94.2000;0.8563;1.2268;
-93.9000;0.8555;1.2220;
-93.6000;0.8555;1.2292;
-93.3000;0.8555;1.2220;
-93.0000;0.8580;1.2292;
-92.7000;0.8547;1.2196;
-92.4000;0.8555;1.2123;
-92.1000;0.8563;1.2074;
-91.8000;0.8555;1.2171;
-91.5000;0.8547;1.2147;
-91.2000;0.8555;1.2220;
-90.9000;0.8563;1.2196;
-90.6000;0.8563;1.2171;
-90.3000;0.8563;1.2123;
-90.0000;0.8563;1.2099;
-89.7000;0.8571;1.2171;
-89.4000;0.8563;1.2099;
-89.1000;0.8547;1.2002;
-88.8000;0.8563;1.2050;
-88.5000;0.8555;1.2171;
-88.2000;0.8580;1.2244;
-87.9000;0.8547;1.2292;
-87.6000;0.8547;1.2244;
-87.3000;0.8555;1.2341;
-87.0000;0.8571;1.2511;
-86.7000;0.8563;1.2511;
-86.4000;0.8563;1.2486;
-86.1000;0.8547;1.2414;
-85.8000;0.8580;1.2414;
-85.5000;0.8563;1.2389;
-85.2000;0.8571;1.2341;
-84.9000;0.8571;1.2292;
-84.6000;0.8580;1.2171;
-84.3000;0.8588;1.2147;
-84.0000;0.8571;1.2171;
-83.7000;0.8580;1.2220;
-83.4000;0.8571;1.2268;
-83.1000;0.8563;1.2268;
-82.8000;0.8571;1.2292;
-82.5000;0.8547;1.2196;
-82.2000;0.8580;1.2244;
-81.9000;0.8580;1.2268;
-81.6000;0.8563;1.2171;
-81.3000;0.8571;1.2099;
-81.0000;0.8555;1.2099;
-80.7000;0.8580;1.2220;
-80.4000;0.8580;1.2220;
-80.1000;0.8571;1.2171;
-79.8000;0.8580;1.2220;
-79.5000;0.8539;1.2171;
-79.2000;0.8555;1.2147;
-78.9000;0.8555;1.2196;
-78.6000;0.8498;1.1977;
-78.3000;0.8571;1.2099;
-78.0000;0.8571;1.2099;
-77.7000;0.8555;1.2026;
-77.4000;0.8506;1.2002;
-77.1000;0.8571;1.2123;
-76.8000;0.8571;1.2099;
-76.5000;0.8571;1.2171;
-76.2000;0.8555;1.2220;
-75.9000;0.8563;1.2268;
-75.6000;0.8563;1.2268;
-75.3000;0.8596;1.2389;
-75.0000;0.8563;1.2268;
-74.7000;0.8555;1.2365;
-74.4000;0.8555;1.2389;
-74.1000;0.8563;1.2317;
-73.8000;0.8555;1.2341;
-73.5000;0.8555;1.2389;
-73.2000;0.8571;1.2389;
-72.9000;0.8571;1.2317;
-72.6000;0.8555;1.2292;
-72.3000;0.8555;1.2268;
-72.0000;0.8563;1.2244;
-71.7000;0.8571;1.2268;
-71.4000;0.8555;1.2244;
-71.1000;0.8547;1.2244;
-70.8000;0.8531;1.2196;
-70.5000;0.8547;1.2244;
-70.2000;0.8571;1.2220;
-69.9000;0.8555;1.2220;
-69.6000;0.8628;1.2486;
-69.3000;0.8571;1.2317;
-69.0000;0.8571;1.2341;
-68.7000;0.8555;1.2268;
-68.4000;0.8555;1.2341;
-68.1000;0.8555;1.2268;
-67.8000;0.8555;1.2220;
-67.5000;0.8539;1.2171;
-67.2000;0.8547;1.2244;
-66.9000;0.8563;1.2171;
-66.6000;0.8563;1.2147;
-66.3000;0.8571;1.2074;
-66.0000;0.8555;1.2050;
-65.7000;0.8571;1.2171;
-65.4000;0.8580;1.2220;
-65.1000;0.8620;1.2365;
-64.8000;0.8588;1.2292;
-64.5000;0.8580;1.2317;
-64.2000;0.8563;1.2365;
-63.9000;0.8571;1.2341;
-63.6000;0.8580;1.2292;
-63.3000;0.8547;1.2196;
-63.0000;0.8563;1.2292;
-62.7000;0.8571;1.2317;
-62.4000;0.8563;1.2317;
-62.1000;0.8547;1.2268;
-61.8000;0.8563;1.2244;
-61.5000;0.8580;1.2244;
-61.2000;0.8563;1.2220;
-60.9000;0.8563;1.2268;
-60.6000;0.8571;1.2268;
-60.3000;0.8571;1.2292;
-60.0000;0.8571;1.2292;
-59.7000;0.8555;1.2292;
-59.4000;0.8571;1.2268;
-59.1000;0.8580;1.2341;
-58.8000;0.8580;1.2244;
-58.5000;0.8555;1.2220;
-58.2000;0.8571;1.2317;
-57.9000;0.8547;1.2365;
-57.6000;0.8563;1.2414;
-57.3000;0.8555;1.2389;
-57.0000;0.8539;1.2268;
-56.7000;0.8580;1.2389;
-56.4000;0.8563;1.2244;
-56.1000;0.8571;1.2220;
-55.8000;0.8514;1.2074;
-55.5000;0.8571;1.2365;
-55.2000;0.8580;1.2317;
-54.9000;0.8563;1.2147;
-54.6000;0.8555;1.2123;
-54.3000;0.8563;1.2147;
-54.0000;0.8571;1.2220;
-53.7000;0.8563;1.2244;
-53.4000;0.8563;1.2292;
-53.1000;0.8539;1.2147;
-52.8000;0.8563;1.2196;
-52.5000;0.8571;1.2196;
-52.2000;0.8563;1.2220;
-51.9000;0.8523;1.2123;
-51.6000;0.8571;1.2147;
-51.3000;0.8563;1.2123;
-51.0000;0.8596;1.2196;
-50.7000;0.8563;1.2123;
-50.4000;0.8571;1.2123;
-50.1000;0.8571;1.2196;
-49.8000;0.8563;1.2123;
-49.5000;0.8563;1.2220;
-49.2000;0.8571;1.2292;
-48.9000;0.8563;1.2268;
-48.6000;0.8563;1.2268;
-48.3000;0.8563;1.2244;
-48.0000;0.8555;1.2244;
-47.7000;0.8580;1.2317;
-47.4000;0.8563;1.2292;
-47.1000;0.8563;1.2317;
-46.8000;0.8539;1.2196;
-46.5000;0.8547;1.2196;
-46.2000;0.8580;1.2292;
-45.9000;0.8571;1.2244;
-45.6000;0.8563;1.2220;
-45.3000;0.8571;1.2220;
-45.0000;0.8571;1.2268;
-44.7000;0.8571;1.2220;
-44.4000;0.8563;1.2244;
-44.1000;0.8547;1.2341;
-43.8000;0.8620;1.2341;
-43.5000;0.8555;1.2171;
-43.2000;0.8571;1.2147;
-42.9000;0.8547;1.2074;
-42.6000;0.8563;1.2099;
-42.3000;0.8555;1.2147;
-42.0000;0.8563;1.2123;
-41.7000;0.8563;1.2123;
-41.4000;0.8547;1.2196;
-41.1000;0.8547;1.2196;
-40.8000;0.8563;1.2244;
-40.5000;0.8563;1.2268;
-40.2000;0.8571;1.2292;
-39.9000;0.8563;1.2292;
-39.6000;0.8580;1.2196;
-39.3000;0.8571;1.2147;
-39.0000;0.8474;1.1977;
-38.7000;0.8620;1.2292;
-38.4000;0.8620;1.2341;
-38.1000;0.8563;1.2147;
-37.8000;0.8555;1.2244;
-37.5000;0.8563;1.2317;
-37.2000;0.8580;1.2341;
-36.9000;0.8596;1.2462;
-36.6000;0.8563;1.2438;
-36.3000;0.8555;1.2438;
-36.0000;0.8580;1.2486;
-35.7000;0.8563;1.2414;
-35.4000;0.8604;1.2559;
-35.1000;0.8555;1.2414;
-34.8000;0.8563;1.2389;
-34.5000;0.8563;1.2292;
-34.2000;0.8563;1.2220;
-33.9000;0.8547;1.2147;
-33.6000;0.8571;1.2099;
-33.3000;0.8580;1.2099;
-33.0000;0.8547;1.2074;
-32.7000;0.8555;1.2099;
-32.4000;0.8563;1.2123;
-32.1000;0.8563;1.2147;
-31.8000;0.8571;1.2171;
-31.5000;0.8555;1.2147;
-31.2000;0.8563;1.2123;
-30.9000;0.8637;1.2317;
-30.6000;0.8539;1.2074;
-30.3000;0.8555;1.2268;
-30.0000;0.8571;1.2341;
-29.7000;0.8571;1.2341;
-29.4000;0.8580;1.2317;
-29.1000;0.8580;1.2317;
-28.8000;0.8571;1.2292;
-28.5000;0.8571;1.2292;
-28.2000;0.8571;1.2292;
-27.9000;0.8580;1.2268;
-27.6000;0.8555;1.2220;
-27.3000;0.8580;1.2220;
-27.0000;0.8588;1.2220;
-26.7000;0.8555;1.2171;
-26.4000;0.8555;1.2050;
-26.1000;0.8563;1.2026;
-25.8000;0.8571;1.2002;
-25.5000;0.8563;1.2026;
-25.2000;0.8563;1.2026;
-24.9000;0.8498;1.1977;
-24.6000;0.8555;1.2147;
-24.3000;0.8563;1.2244;
-24.0000;0.8539;1.2171;
-23.7000;0.8571;1.2196;
-23.4000;0.8563;1.2123;
-23.1000;0.8571;1.2123;
-22.8000;0.8571;1.2074;
-22.5000;0.8563;1.1929;
-22.2000;0.8563;1.1929;
-21.9000;0.8563;1.1929;
-21.6000;0.8563;1.1977;
-21.3000;0.8531;1.1929;
-21.0000;0.8547;1.2002;
-20.7000;0.8555;1.2123;
-20.4000;0.8571;1.2099;
-20.1000;0.8547;1.2002;
-19.8000;0.8531;1.1977;
-19.5000;0.8588;1.2074;
-19.2000;0.8498;1.1880;
-18.9000;0.8523;1.1953;
-18.6000;0.8539;1.2074;
-18.3000;0.8588;1.2220;
-18.0000;0.8596;1.2341;
-17.7000;0.8580;1.2244;
-17.4000;0.8571;1.2220;
-17.1000;0.8571;1.2244;
-16.8000;0.8571;1.2196;
-16.5000;0.8555;1.2292;
-16.2000;0.8563;1.2196;
-15.9000;0.8555;1.2147;
-15.6000;0.8563;1.2171;
-15.3000;0.8539;1.2099;
-15.0000;0.8571;1.2123;
-14.7000;0.8563;1.2099;
-14.4000;0.8580;1.2147;
-14.1000;0.8563;1.2147;
-13.8000;0.8563;1.2196;
-13.5000;0.8539;1.2147;
-13.2000;0.8555;1.2268;
-12.9000;0.8571;1.2171;
-12.6000;0.8563;1.2099;
-12.3000;0.8555;1.2074;
-12.0000;0.8555;1.2099;
-11.7000;0.8588;1.2244;
-11.4000;0.8588;1.2244;
-11.1000;0.8563;1.2292;
-10.8000;0.8531;1.2220;
-10.5000;0.8539;1.2317;
-10.2000;0.8563;1.2317;
-9.9000;0.8547;1.2292;
-9.6000;0.8563;1.2268;
-9.3000;0.8563;1.2292;
-9.0000;0.8563;1.2244;
-8.7000;0.8547;1.2147;
-8.4000;0.8523;1.2123;
-8.1000;0.8547;1.2196;
-7.8000;0.8563;1.2196;
-7.5000;0.8555;1.2171;
-7.2000;0.8555;1.2244;
-6.9000;0.8547;1.2220;
-6.6000;0.8555;1.2220;
-6.3000;0.8547;1.2196;
-6.0000;0.8571;1.2389;
-5.7000;0.8588;1.2389;
-5.4000;0.8563;1.2292;
-5.1000;0.8580;1.2292;
-4.8000;0.8571;1.2196;
-4.5000;0.8555;1.2171;
-4.2000;0.8580;1.2268;
-3.9000;0.8580;1.2220;
-3.6000;0.8563;1.2171;
-3.3000;0.8555;1.2171;
-3.0000;0.8539;1.2292;
-2.7000;0.8580;1.2389;
-2.4000;0.8547;1.2341;
-2.1000;0.8555;1.2317;
-1.8000;0.8661;1.2535;
-1.5000;0.8580;1.2244;
-1.2000;0.8571;1.2220;
-0.9000;0.8539;1.2220;
-0.6000;0.8571;1.2341;
-0.3000;0.8571;1.2365;
0.0000;0.8571;1.2365;
0.3000;0.8938;1.2220;
0.6000;0.9630;1.2850;
0.9000;1.0167;1.3505;
1.2000;1.0566;1.3990;
1.5000;1.0916;1.4329;
1.8000;1.1184;1.4693;
2.1000;1.1388;1.4984;
2.4000;1.1575;1.5202;
2.7000;1.1713;1.5396;
3.0000;1.1836;1.5444;
3.3000;1.1958;1.5493;
3.6000;1.2063;1.5614;
3.9000;1.2161;1.5735;
4.2000;1.2226;1.5735;
4.5000;1.2300;1.5808;
4.8000;1.2381;1.5929;
5.1000;1.2446;1.6051;
5.4000;1.2511;1.6148;
5.7000;1.2568;1.6099;
6.0000;1.2666;1.6148;
6.3000;1.2715;1.6172;
6.6000;1.2788;1.6123;
6.9000;1.2845;1.6172;
7.2000;1.2910;1.6172;
7.5000;1.2951;1.6026;
7.8000;1.3008;1.6002;
8.1000;1.3057;1.6075;
8.4000;1.3097;1.6148;
8.7000;1.3154;1.6148;
9.0000;1.3219;1.6196;
9.3000;1.3244;1.6051;
9.6000;1.3284;1.6075;
9.9000;1.3341;1.6051;
10.2000;1.3382;1.6099;
10.5000;1.3423;1.6148;
10.8000;1.3455;1.6172;
11.1000;1.3512;1.6366;
11.4000;1.3537;1.6293;
11.7000;1.3569;1.6269;
12.0000;1.3610;1.6196;
12.3000;1.3643;1.6099;
12.6000;1.3675;1.6075;
12.9000;1.3724;1.6293;
13.2000;1.3732;1.6245;
13.5000;1.3781;1.6245;
13.8000;1.3805;1.6123;
14.1000;1.3830;1.6123;
14.4000;1.3887;1.6148;
14.7000;1.3879;1.6002;
15.0000;1.3919;1.6075;
15.3000;1.3919;1.6051;
15.6000;1.4033;1.6220;
15.9000;1.4001;1.6148;
16.2000;1.4017;1.6172;
16.5000;1.4058;1.6220;
16.8000;1.4066;1.6293;
17.1000;1.4090;1.6366;
17.4000;1.4115;1.6390;
17.7000;1.4115;1.6366;
18.0000;1.4155;1.6390;
18.3000;1.4180;1.6341;
18.6000;1.4188;1.6293;
18.9000;1.4212;1.6341;
19.2000;1.4221;1.6341;
19.5000;1.4229;1.6317;
19.8000;1.4278;1.6414;
20.1000;1.4261;1.6317;
20.4000;1.4294;1.6366;
20.7000;1.4286;1.6245;
21.0000;1.4302;1.6220;
21.3000;1.4326;1.6269;
21.6000;1.4343;1.6269;
21.9000;1.4359;1.6269;
22.2000;1.4375;1.6341;
22.5000;1.4375;1.6341;
22.8000;1.4408;1.6390;
23.1000;1.4400;1.6269;
23.4000;1.4408;1.6245;
23.7000;1.4416;1.6269;
24.0000;1.4432;1.6220;
24.3000;1.4449;1.6148;
24.6000;1.4457;1.6123;
24.9000;1.4465;1.6123;
25.2000;1.4481;1.6172;
25.5000;1.4465;1.6148;
25.8000;1.4481;1.6148;
26.1000;1.4489;1.6245;
26.4000;1.4522;1.6220;
26.7000;1.4538;1.6245;
27.0000;1.4514;1.6220;
27.3000;1.4538;1.6317;
27.6000;1.4546;1.6341;
27.9000;1.4522;1.6293;
28.2000;1.4554;1.6487;
28.5000;1.4530;1.6414;
28.8000;1.4571;1.6390;
29.1000;1.4554;1.6366;
29.4000;1.4603;1.6487;
29.7000;1.4587;1.6390;
30.0000;1.4595;1.6293;
30.3000;1.4603;1.6293;
30.6000;1.4595;1.6293;
30.9000;1.4595;1.6196;
31.2000;1.4603;1.6220;
31.5000;1.4636;1.6293;
31.8000;1.4628;1.6245;
32.1000;1.4636;1.6293;
32.4000;1.4644;1.6366;
32.7000;1.4636;1.6317;
33.0000;1.4652;1.6341;
33.3000;1.4652;1.6390;
33.6000;1.4660;1.6341;
33.9000;1.4660;1.6293;
34.2000;1.4676;1.6341;
34.5000;1.4668;1.6317;
34.8000;1.4668;1.6245;
35.1000;1.4644;1.6196;
35.4000;1.4644;1.6123;
35.7000;1.4685;1.6293;
36.0000;1.4693;1.6293;
36.3000;1.4685;1.6341;
36.6000;1.4709;1.6390;
36.9000;1.4701;1.6341;
37.2000;1.4709;1.6366;
37.5000;1.4742;1.6341;
37.8000;1.4717;1.6220;
38.1000;1.4717;1.6196;
38.4000;1.4766;1.6317;
38.7000;1.4733;1.6293;
39.0000;1.4709;1.6317;
39.3000;1.4725;1.6390;
39.6000;1.4717;1.6341;
39.9000;1.4725;1.6293;
40.2000;1.4733;1.6317;
40.5000;1.4725;1.6245;
40.8000;1.4750;1.6293;
41.1000;1.4750;1.6220;
41.4000;1.4774;1.6245;
41.7000;1.4750;1.6148;
42.0000;1.4750;1.6148;
42.3000;1.4750;1.6172;
42.6000;1.4758;1.6172;
42.9000;1.4774;1.6245;
43.2000;1.4782;1.6269;
43.5000;1.4774;1.6172;
43.8000;1.4750;1.6148;
44.1000;1.4766;1.6148;
44.4000;1.4790;1.6172;
44.7000;1.4782;1.6148;
45.0000;1.4774;1.6172;
45.3000;1.4790;1.6148;
45.6000;1.4790;1.6099;
45.9000;1.4790;1.6026;
46.2000;1.4790;1.6026;
46.5000;1.4766;1.6002;
46.8000;1.4774;1.6051;
47.1000;1.4782;1.6123;
47.4000;1.4774;1.6148;
47.7000;1.4790;1.6196;
48.0000;1.4799;1.6196;
48.3000;1.4790;1.6123;
48.6000;1.4815;1.6123;
48.9000;1.4815;1.6099;
49.2000;1.4799;1.5978;
49.5000;1.4799;1.6026;
49.8000;1.4807;1.5978;
50.1000;1.4799;1.6026;
50.4000;1.4823;1.6196;
50.7000;1.4807;1.6148;
51.0000;1.4815;1.6196;
51.3000;1.4799;1.6196;
51.6000;1.4807;1.6269;
51.9000;1.4815;1.6148;
52.2000;1.4831;1.6196;
52.5000;1.4799;1.6123;
52.8000;1.4831;1.6075;
53.1000;1.4823;1.6051;
53.4000;1.4839;1.6002;
53.7000;1.4823;1.5978;
54.0000;1.4815;1.5929;
54.3000;1.4847;1.5978;
54.6000;1.4839;1.5978;
54.9000;1.4823;1.6026;
55.2000;1.4831;1.6075;
55.5000;1.4823;1.5978;
55.8000;1.4823;1.5929;
56.1000;1.4847;1.6002;
56.4000;1.4839;1.5954;
56.7000;1.4839;1.6026;
57.0000;1.4831;1.6123;
57.3000;1.4831;1.6099;
57.6000;1.4864;1.6196;
57.9000;1.4831;1.6196;
58.2000;1.4831;1.6196;
58.5000;1.4831;1.6245;
58.8000;1.4872;1.6269;
59.1000;1.4856;1.6148;
59.4000;1.4856;1.6123;
59.7000;1.4856;1.6099;
60.0000;1.4856;1.6123;
60.3000;1.4872;1.6123;
60.6000;1.4847;1.6220;
60.9000;1.4856;1.6172;
61.2000;1.4823;1.6172;
61.5000;1.4839;1.6196;
61.8000;1.4856;1.6148;
62.1000;1.4856;1.6051;
62.4000;1.4864;1.6099;
62.7000;1.4864;1.6148;
63.0000;1.4880;1.6123;
63.3000;1.4847;1.6002;
63.6000;1.4880;1.6026;
63.9000;1.4880;1.6123;
64.2000;1.4880;1.6172;
64.5000;1.4945;1.6341;
64.8000;1.4872;1.6172;
65.1000;1.4872;1.6148;
65.4000;1.4880;1.6148;
65.7000;1.4872;1.6172;
66.0000;1.4864;1.6196;
66.3000;1.4888;1.6220;
66.6000;1.4856;1.6123;
66.9000;1.4872;1.6148;
67.2000;1.4904;1.6196;
67.5000;1.4872;1.6075;
67.8000;1.4912;1.6172;
68.1000;1.4880;1.6123;
68.4000;1.4864;1.6148;
68.7000;1.4880;1.6172;
69.0000;1.4888;1.6148;
69.3000;1.4839;1.6051;
69.6000;1.4872;1.6245;
69.9000;1.4888;1.6293;
70.2000;1.4896;1.6293;
70.5000;1.4896;1.6293;
70.8000;1.4880;1.6269;
71.1000;1.4880;1.6269;
71.4000;1.4888;1.6293;
71.7000;1.4888;1.6293;
72.0000;1.4872;1.6172;
72.3000;1.4856;1.6075;
72.6000;1.4888;1.6148;
72.9000;1.4872;1.6172;
73.2000;1.4912;1.6148;
73.5000;1.4880;1.6099;
73.8000;1.4896;1.6051;
74.1000;1.4904;1.5978;
74.4000;1.4896;1.6002;
74.7000;1.4912;1.6026;
75.0000;1.4912;1.6099;
75.3000;1.4961;1.6245;
75.6000;1.4896;1.5929;
75.9000;1.4888;1.5905;
76.2000;1.4912;1.5954;
76.5000;1.4904;1.6026;
76.8000;1.4912;1.6026;
77.1000;1.4921;1.6026;
77.4000;1.4888;1.5929;
77.7000;1.4912;1.6002;
78.0000;1.4953;1.6123;
78.3000;1.4888;1.6075;
78.6000;1.4904;1.6123;
78.9000;1.4888;1.6148;
79.2000;1.4904;1.6196;
79.5000;1.4896;1.6172;
79.8000;1.4904;1.6075;
80.1000;1.4912;1.6026;
80.4000;1.4912;1.6026;
80.7000;1.4904;1.6026;
81.0000;1.4904;1.5978;
81.3000;1.4904;1.6002;
81.6000;1.4912;1.6026;
81.9000;1.4937;1.6099;
82.2000;1.4782;1.5760;
82.5000;1.4904;1.6002;
82.8000;1.4904;1.6002;
83.1000;1.4986;1.6220;
83.4000;1.4888;1.6099;
83.7000;1.4888;1.6099;
84.0000;1.4912;1.6172;
84.3000;1.4912;1.6269;
84.6000;1.4904;1.6245;
84.9000;1.4929;1.6317;
85.2000;1.4921;1.6293;
85.5000;1.4912;1.6245;
85.8000;1.4912;1.6220;
86.1000;1.4888;1.6196;
86.4000;1.4921;1.6293;
86.7000;1.4921;1.6196;
87.0000;1.4921;1.6172;
87.3000;1.4888;1.6099;
87.6000;1.4880;1.6099;
87.9000;1.4921;1.6196;
88.2000;1.4912;1.6220;
88.5000;1.4912;1.6220;
88.8000;1.4896;1.6220;
89.1000;1.4872;1.6148;
89.4000;1.4912;1.6220;
89.7000;1.4904;1.6293;
90.0000;1.4912;1.6317;
90.3000;1.4921;1.6269;
90.6000;1.4912;1.6220;
90.9000;1.4921;1.6172;
91.2000;1.5026;1.6463;
91.5000;1.4937;1.6220;
91.8000;1.4929;1.6245;
92.1000;1.4929;1.6196;
92.4000;1.4953;1.6269;
92.7000;1.4929;1.6196;
93.0000;1.4929;1.6099;
93.3000;1.4856;1.5978;
93.6000;1.4937;1.6196;
93.9000;1.4921;1.6123;
94.2000;1.4937;1.6220;
94.5000;1.4921;1.6245;
94.8000;1.4921;1.6220;
95.1000;1.4929;1.6317;
95.4000;1.4937;1.6366;
95.7000;1.4937;1.6317;
96.0000;1.4929;1.6269;
96.3000;1.4904;1.6148;
96.6000;1.4945;1.6245;
96.9000;1.4937;1.6245;
97.2000;1.4929;1.6148;
97.5000;1.4921;1.6075;
97.8000;1.4896;1.6099;
98.1000;1.4921;1.6196;
98.4000;1.4904;1.6148;
98.7000;1.4904;1.6123;
99.0000;1.4929;1.6220;
99.3000;1.4921;1.6123;
99.6000;1.4929;1.6123;
99.9000;1.4912;1.6148;
100.2000;1.4888;1.6099;
100.5000;1.4937;1.6148;
100.8000;1.4921;1.6148;
101.1000;1.4921;1.6196;
101.4000;1.4921;1.6196;
101.7000;1.4904;1.6148;
102.0000;1.4896;1.6051;
102.3000;1.4961;1.6172;
102.6000;1.4896;1.5954;
102.9000;1.4912;1.5954;
103.2000;1.4912;1.6026;
103.5000;1.4921;1.6099;
103.8000;1.4831;1.5954;
104.1000;1.4912;1.6220;
104.4000;1.4896;1.6269;
104.7000;1.4921;1.6269;
105.0000;1.4929;1.6366;
105.3000;1.4904;1.6341;
105.6000;1.4921;1.6390;
105.9000;1.4921;1.6341;
106.2000;1.4929;1.6341;
106.5000;1.4937;1.6269;
106.8000;1.4912;1.6148;
107.1000;1.4937;1.6220;
107.4000;1.4969;1.6293;
107.7000;1.4921;1.6148;
108.0000;1.4921;1.6172;
108.3000;1.4888;1.6051;
108.6000;1.4904;1.6002;
108.9000;1.4921;1.6026;
109.2000;1.4904;1.6051;
109.5000;1.4888;1.6051;
109.8000;1.4937;1.6123;
110.1000;1.4986;1.6390;
110.4000;1.4904;1.6148;
110.7000;1.4896;1.6172;
111.0000;1.4945;1.6196;
111.3000;1.4921;1.6172;
111.6000;1.4937;1.6245;
111.9000;1.4912;1.6123;
112.2000;1.4953;1.6196;
112.5000;1.4929;1.6196;
112.8000;1.4953;1.6172;
113.1000;1.4912;1.6099;
113.4000;1.4945;1.6172;
113.7000;1.4912;1.6075;
114.0000;1.4921;1.6026;
114.3000;1.4921;1.5954;
114.6000;1.4921;1.5954;
114.9000;1.4929;1.5978;
115.2000;1.4945;1.6051;
115.5000;1.4929;1.5978;
115.8000;1.4929;1.5978;
116.1000;1.4945;1.6026;
116.4000;1.4937;1.6123;
116.7000;1.4896;1.6051;
117.0000;1.4929;1.6123;
117.3000;1.4929;1.6123;
117.6000;1.4937;1.6099;
117.9000;1.4921;1.5954;
118.2000;1.4953;1.6002;
118.5000;1.4929;1.6002;
118.8000;1.4929;1.6099;
119.1000;1.4929;1.6172;
119.4000;1.4929;1.6196;
119.7000;1.4945;1.6220;
120.0000;1.4937;1.6196;
120.3000;1.4937;1.6196;
120.6000;1.4937;1.6148;
120.9000;1.4945;1.6123;
121.2000;1.4904;1.6051;
121.5000;1.4961;1.6172;
121.8000;1.4945;1.6148;
122.1000;1.5010;1.6269;
122.4000;1.4937;1.6075;
122.7000;1.4904;1.5929;
123.0000;1.4937;1.6075;
123.3000;1.4880;1.5905;
123.6000;1.4969;1.6148;
123.9000;1.4929;1.6099;
124.2000;1.4937;1.6075;
124.5000;1.4961;1.6123;
124.8000;1.4937;1.6051;
125.1000;1.4945;1.6075;
125.4000;1.4945;1.6075;
125.7000;1.4888;1.5905;
126.0000;1.4937;1.6026;
126.3000;1.4929;1.6026;
126.6000;1.4912;1.6051;
126.9000;1.4921;1.6123;
127.2000;1.4921;1.6075;
127.5000;1.4921;1.6099;
127.8000;1.4945;1.6123;
128.1000;1.4921;1.6099;
128.4000;1.4921;1.6051;
128.7000;1.4929;1.6075;
129.0000;1.4937;1.6099;
129.3000;1.4921;1.6026;
129.6000;1.4888;1.5954;
129.9000;1.4945;1.6099;
130.2000;1.4945;1.6051;
130.5000;1.4945;1.6026;
130.8000;1.4921;1.6026;
131.1000;1.4921;1.6026;
131.4000;1.4937;1.6099;
131.7000;1.4929;1.6148;
132.0000;1.4904;1.6026;
132.3000;1.4945;1.6196;
132.6000;1.4937;1.6220;
132.9000;1.4937;1.6172;
133.2000;1.4921;1.6196;
133.5000;1.4912;1.6172;
133.8000;1.4937;1.6148;
134.1000;1.4912;1.6099;
134.4000;1.4978;1.6099;
134.7000;1.4929;1.5905;
135.0000;1.4929;1.5978;
135.3000;1.4937;1.6002;
135.6000;1.4945;1.6026;
135.9000;1.4912;1.6026;
136.2000;1.4921;1.6099;
136.5000;1.4929;1.6051;
136.8000;1.4945;1.6051;
137.1000;1.4945;1.6075;
137.4000;1.4961;1.6075;
137.7000;1.4929;1.5929;
138.0000;1.4953;1.6002;
138.3000;1.4961;1.6075;
138.6000;1.4929;1.6075;
138.9000;1.4945;1.6026;
139.2000;1.4929;1.5857;
139.5000;1.4929;1.5832;
139.8000;1.4937;1.5784;
140.1000;1.4937;1.5784;
140.4000;1.4929;1.5735;
140.7000;1.4921;1.5857;
141.0000;1.4937;1.5857;
141.3000;1.4921;1.5881;
141.6000;1.4945;1.6026;
141.9000;1.4953;1.6002;
142.2000;1.4929;1.5954;
142.5000;1.4929;1.5954;
142.8000;1.4921;1.5881;
143.1000;1.4937;1.6051;
143.4000;1.4937;1.6051;
143.7000;1.4929;1.6075;
144.0000;1.4937;1.6099;
144.3000;1.4929;1.6099;
144.6000;1.4929;1.6026;
144.9000;1.4945;1.6026;
145.2000;1.4937;1.6002;
145.5000;1.4969;1.6123;
145.8000;1.4945;1.6051;
146.1000;1.4904;1.5905;
146.4000;1.4929;1.5857;
146.7000;1.4904;1.5857;
147.0000;1.4961;1.6026;
147.3000;1.4929;1.6026;
147.6000;1.4921;1.5978;
147.9000;1.4929;1.5978;
148.2000;1.4945;1.6002;
148.5000;1.4912;1.5954;
148.8000;1.4937;1.6026;
149.1000;1.4945;1.6075;
149.4000;1.4929;1.6075;
149.7000;1.4937;1.6123;
150.0000;1.4937;1.6002;
150.3000;1.4937;1.5954;
150.6000;1.4921;1.5929;
150.9000;1.4921;1.5881;
151.2000;1.4912;1.5808;
151.5000;1.4945;1.5832;
151.8000;1.4945;1.5857;
152.1000;1.4945;1.5857;
152.4000;1.4921;1.5663;
152.7000;1.4929;1.5760;
153.0000;1.4937;1.5905;
153.3000;1.4904;1.5954;
153.6000;1.4929;1.6002;
153.9000;1.4929;1.5978;
154.2000;1.4929;1.5978;
154.5000;1.4929;1.5929;
154.8000;1.4937;1.5929;
155.1000;1.4953;1.5832;
155.4000;1.4945;1.5760;
155.7000;1.4969;1.5760;
156.0000;1.4929;1.5760;
156.3000;1.4937;1.5735;
156.6000;1.4937;1.5687;
156.9000;1.4945;1.5711;
157.2000;1.4929;1.5735;
157.5000;1.4937;1.5784;
157.8000;1.4921;1.5808;
158.1000;1.4937;1.5832;
158.4000;1.4937;1.5881;
158.7000;1.4929;1.5905;
159.0000;1.4921;1.5929;
159.3000;1.4937;1.6051;
159.6000;1.4945;1.6148;
159.9000;1.4937;1.6099;
160.2000;1.4978;1.6051;
160.5000;1.4945;1.5929;
160.8000;1.4945;1.5881;
161.1000;1.4945;1.5857;
161.4000;1.4912;1.5808;
161.7000;1.4937;1.5881;
162.0000;1.4937;1.5857;
162.3000;1.4937;1.5905;
162.6000;1.4937;1.5929;
162.9000;1.4921;1.5954;
163.2000;1.4937;1.5978;
163.5000;1.4953;1.5978;
163.8000;1.4929;1.5929;
164.1000;1.4929;1.5978;
164.4000;1.4912;1.5954;
164.7000;1.4945;1.5954;
165.0000;1.4929;1.5954;
165.3000;1.4896;1.5954;
165.6000;1.4945;1.6002;
165.9000;1.4929;1.5954;
166.2000;1.4937;1.5905;
166.5000;1.4929;1.5881;
166.8000;1.4929;1.5954;
167.1000;1.4937;1.5929;
167.4000;1.4945;1.6002;
167.7000;1.4945;1.5978;
168.0000;1.4929;1.6026;
168.3000;1.4937;1.6099;
168.6000;1.5002;1.6196;
168.9000;1.4888;1.5857;
169.2000;1.4961;1.6002;
169.5000;1.4961;1.6026;
169.8000;1.4929;1.6026;
170.1000;1.4929;1.6075;
170.4000;1.4961;1.6148;
170.7000;1.4953;1.6099;
171.0000;1.4937;1.6026;
171.3000;1.4912;1.5978;
171.6000;1.4912;1.5857;
171.9000;1.4904;1.5784;
172.2000;1.4864;1.5711;
172.5000;1.4888;1.5735;
172.8000;1.4929;1.5808;
173.1000;1.4937;1.5832;
173.4000;1.4929;1.5735;
173.7000;1.4945;1.5735;
174.0000;1.4929;1.5784;
174.3000;1.4953;1.5881;
174.6000;1.4921;1.5784;
174.9000;1.4937;1.5881;
175.2000;1.4921;1.5905;
175.5000;1.4929;1.5905;
175.8000;1.4986;1.6075;
176.1000;1.4929;1.5881;
176.4000;1.4921;1.5784;
176.7000;1.4929;1.5784;
177.0000;1.4904;1.5784;
177.3000;1.4929;1.5832;
177.6000;1.4929;1.5857;
177.9000;1.4929;1.5808;
178.2000;1.4929;1.5808;
178.5000;1.4921;1.5735;
178.8000;1.4929;1.5760;
179.1000;1.4929;1.5832;
179.4000;1.4921;1.5784;
179.7000;1.4937;1.5808;
180.0000;1.4945;1.5832;
180.3000;1.4929;1.5808;
180.6000;1.4929;1.5881;
180.9000;1.4929;1.5832;
181.2000;1.4937;1.5881;
181.5000;1.4921;1.5954;
181.8000;1.4921;1.5881;
182.1000;1.4921;1.5832;
182.4000;1.4921;1.5881;
182.7000;1.4921;1.5929;
183.0000;1.4921;1.5905;
183.3000;1.4937;1.5857;
183.6000;1.4929;1.5881;
183.9000;1.4929;1.5857;
184.2000;1.4929;1.5954;
184.5000;1.4921;1.5978;
184.8000;1.4937;1.6002;
185.1000;1.4921;1.5929;
185.4000;1.4929;1.5905;
185.7000;1.4929;1.5929;
186.0000;1.4912;1.5905;
186.3000;1.4880;1.5784;
186.6000;1.4945;1.5857;
186.9000;1.4904;1.5784;
187.2000;1.4872;1.5687;
187.5000;1.4937;1.5905;
187.8000;1.4937;1.5978;
188.1000;1.4945;1.5954;
188.4000;1.4969;1.6002;
188.7000;1.4937;1.5808;
189.0000;1.4945;1.5832;
189.3000;1.4937;1.5881;
189.6000;1.4929;1.5832;
189.9000;1.4945;1.5954;
190.2000;1.4953;1.6026;
190.5000;1.4945;1.6026;
190.8000;1.4937;1.6099;
191.1000;1.4921;1.6172;
191.4000;1.4921;1.6196;
191.7000;1.4921;1.6051;
192.0000;1.4921;1.6026;
192.3000;1.4929;1.6002;
192.6000;1.4937;1.6099;
192.9000;1.4904;1.5978;
193.2000;1.4921;1.6026;
193.5000;1.4937;1.5929;
193.8000;1.4929;1.5808;
194.1000;1.4929;1.5784;
194.4000;1.4921;1.5735;
194.7000;1.4921;1.5784;
195.0000;1.4929;1.5808;
195.3000;1.4912;1.5784;
195.6000;1.4945;1.5857;
195.9000;1.4912;1.5832;
196.2000;1.4912;1.5881;
196.5000;1.4929;1.5929;
196.8000;1.4937;1.5978;
197.1000;1.4912;1.5978;
197.4000;1.4912;1.6026;
197.7000;1.4945;1.6099;
198.0000;1.4921;1.6123;
198.3000;1.4929;1.6051;
198.6000;1.4921;1.6002;
198.9000;1.4937;1.5954;
199.2000;1.4961;1.6051;
199.5000;1.4945;1.6075;
199.8000;1.4929;1.5905;
200.1000;1.4921;1.5905;
200.4000;1.4929;1.5832;
200.7000;1.4929;1.5905;
201.0000;1.4912;1.5905;
201.3000;1.4912;1.5978;
201.6000;1.4912;1.6002;
201.9000;1.4872;1.5857;
202.2000;1.4912;1.5929;
202.5000;1.4921;1.6026;
202.8000;1.4880;1.5857;
203.1000;1.4831;1.5760;
203.4000;1.4961;1.6051;
203.7000;1.4937;1.6002;
204.0000;1.4929;1.5954;
204.3000;1.4888;1.5905;
204.6000;1.4945;1.5954;
204.9000;1.4945;1.6026;
205.2000;1.4929;1.6002;
205.5000;1.4921;1.6051;
205.8000;1.4921;1.5929;
206.1000;1.4912;1.5929;
206.4000;1.4912;1.5881;
206.7000;1.4953;1.5929;
207.0000;1.4904;1.5832;
207.3000;1.4945;1.5832;
207.6000;1.4937;1.5808;
207.9000;1.4921;1.5760;
208.2000;1.4929;1.5832;
208.5000;1.4912;1.5760;
208.8000;1.4904;1.5784;
209.1000;1.4929;1.5881;
209.4000;1.4929;1.5857;
209.7000;1.4929;1.5905;
210.0000;1.4912;1.5881;
210.3000;1.4912;1.5857;
210.6000;1.4904;1.5881;
210.9000;1.4921;1.5832;
211.2000;1.4937;1.5857;
211.5000;1.4921;1.5808;
211.8000;1.4921;1.5881;
212.1000;1.4937;1.5929;
212.4000;1.4937;1.5929;
212.7000;1.4921;1.5954;
213.0000;1.4945;1.5929;
213.3000;1.4945;1.5929;
213.6000;1.4929;1.5832;
213.9000;1.4953;1.5857;
214.2000;1.4945;1.5881;
214.5000;1.4937;1.5832;
214.8000;1.4929;1.5760;
215.1000;1.4921;1.5784;
215.4000;1.4953;1.5784;
215.7000;1.4896;1.5711;
216.0000;1.4953;1.5857;
216.3000;1.4929;1.5832;
216.6000;1.4912;1.5808;
216.9000;1.4937;1.5808;
217.2000;1.4888;1.5638;
217.5000;1.4945;1.5663;
217.8000;1.4912;1.5614;
218.1000;1.4921;1.5760;
218.4000;1.4912;1.5760;
218.7000;1.4904;1.5784;
219.0000;1.4921;1.5857;
219.3000;1.4921;1.5929;
219.6000;1.4929;1.5905;
219.9000;1.4921;1.5857;
220.2000;1.4921;1.5929;
220.5000;1.4856;1.5735;
220.8000;1.4929;1.5905;
221.1000;1.4921;1.5929;
221.4000;1.4921;1.5832;
221.7000;1.4912;1.5905;
222.0000;1.4929;1.5929;
222.3000;1.4929;1.5881;
222.6000;1.4904;1.5832;
222.9000;1.4953;1.5978;
223.2000;1.4945;1.5905;
223.5000;1.4904;1.5808;
223.8000;1.4921;1.5808;
224.1000;1.4921;1.5808;
224.4000;1.4945;1.5881;
224.7000;1.4937;1.5929;
225.0000;1.4978;1.6099;
225.3000;1.4937;1.5978;
225.6000;1.4896;1.5905;
225.9000;1.4904;1.5954;
226.2000;1.4904;1.6051;
226.5000;1.4880;1.6075;
226.8000;1.4904;1.6196;
227.1000;1.4912;1.6123;
227.4000;1.4872;1.6051;
227.7000;1.4921;1.6051;
228.0000;1.4864;1.6002;
228.3000;1.4921;1.6051;
228.6000;1.4929;1.6075;
228.9000;1.4929;1.6123;
229.2000;1.4912;1.6075;
229.5000;1.4921;1.6002;
229.8000;1.4953;1.6051;
230.1000;1.4921;1.6051;
230.4000;1.4912;1.6051;
230.7000;1.4921;1.6002;
231.0000;1.4929;1.6026;
231.3000;1.4945;1.6172;
231.6000;1.4921;1.6075;
231.9000;1.4912;1.6075;
232.2000;1.4912;1.6123;
232.5000;1.4929;1.6123;
232.8000;1.4937;1.6172;
233.1000;1.4921;1.6051;
233.4000;1.4921;1.6026;
233.7000;1.4896;1.6026;
234.0000;1.4929;1.6099;
234.3000;1.4945;1.6220;
234.6000;1.4929;1.6196;
234.9000;1.4921;1.6269;
235.2000;1.4921;1.6099;
235.5000;1.4929;1.6172;
235.8000;1.4921;1.6148;
236.1000;1.4937;1.6148;
236.4000;1.4929;1.6148;
236.7000;1.4921;1.6075;
237.0000;1.4904;1.6099;
237.3000;1.4937;1.6220;
237.6000;1.4929;1.6172;
237.9000;1.4929;1.6123;
238.2000;1.4904;1.6026;
238.5000;1.4912;1.6051;
238.8000;1.4929;1.6002;
239.1000;1.4921;1.6026;
239.4000;1.4904;1.6026;
239.7000;1.4912;1.6051;
240.0000;1.4912;1.5954;
240.3000;1.4912;1.5978;
240.6000;1.4864;1.5857;
240.9000;1.4929;1.6026;
241.2000;1.4921;1.6075;
241.5000;1.4945;1.6099;
241.8000;1.4912;1.6026;
242.1000;1.4912;1.6026;
242.4000;1.4904;1.6075;
242.7000;1.4929;1.6123;
243.0000;1.4921;1.6123;
243.3000;1.4929;1.6148;
243.6000;1.4921;1.6123;
243.9000;1.4921;1.6123;
244.2000;1.4904;1.6051;
244.5000;1.4912;1.6002;
244.8000;1.4904;1.5954;
245.1000;1.4921;1.5881;
245.4000;1.4945;1.5978;
245.7000;1.4921;1.5929;
246.0000;1.4921;1.5954;
246.3000;1.4921;1.5929;
246.6000;1.4921;1.5954;
246.9000;1.4921;1.6002;
247.2000;1.4969;1.6148;
247.5000;1.4912;1.6026;
247.8000;1.4912;1.6051;
248.1000;1.4929;1.6148;
248.4000;1.4929;1.6099;
248.7000;1.4937;1.6075;
249.0000;1.4929;1.6002;
249.3000;1.4929;1.6051;
249.6000;1.4896;1.5954;
249.9000;1.4888;1.5978;
250.2000;1.4880;1.5954;
250.5000;1.4929;1.6196;
250.8000;1.4921;1.6123;
251.1000;1.4929;1.6148;
251.4000;1.4937;1.6026;
251.7000;1.4921;1.5929;
252.0000;1.4921;1.5905;
252.3000;1.4904;1.5905;
252.6000;1.4921;1.5929;
252.9000;1.4921;1.5929;
253.2000;1.4921;1.5832;
253.5000;1.4921;1.5832;
253.8000;1.4921;1.5881;
254.1000;1.4929;1.5929;
254.4000;1.4921;1.5808;
254.7000;1.4904;1.5735;
255.0000;1.4904;1.5735;
255.3000;1.4929;1.5881;
255.6000;1.4921;1.5784;
255.9000;1.4912;1.5735;
256.2000;1.4904;1.5638;
256.5000;1.4880;1.5663;
256.8000;1.4912;1.5784;
257.1000;1.4904;1.5832;
257.4000;1.4921;1.5857;
257.7000;1.4921;1.5881;
258.0000;1.4929;1.5978;
258.3000;1.4831;1.5784;
258.6000;1.4921;1.6002;
258.9000;1.4945;1.5978;
259.2000;1.4978;1.5978;
259.5000;1.4937;1.5808;
259.8000;1.4912;1.5760;
260.1000;1.4929;1.5784;
260.4000;1.4929;1.5808;
260.7000;1.4953;1.5784;
261.0000;1.4929;1.5881;
261.3000;1.4921;1.5832;
261.6000;1.4953;1.5832;
261.9000;1.4937;1.5784;
262.2000;1.4921;1.5735;
262.5000;1.4921;1.5808;
262.8000;1.4921;1.5760;
263.1000;1.4904;1.5663;
263.4000;1.4921;1.5687;
263.7000;1.4921;1.5663;
264.0000;1.4978;1.5857;
264.3000;1.4921;1.5784;
264.6000;1.4904;1.5760;
264.9000;1.4929;1.5808;
265.2000;1.4921;1.5832;
265.5000;1.4847;1.5735;
265.8000;1.4945;1.5905;
266.1000;1.4904;1.5808;
266.4000;1.4904;1.5905;
266.7000;1.4921;1.5905;
267.0000;1.4912;1.5929;
267.3000;1.4961;1.5929;
267.6000;1.4921;1.5808;
267.9000;1.4921;1.5832;
268.2000;1.4929;1.5808;
268.5000;1.4929;1.5832;
268.8000;1.4921;1.5760;
269.1000;1.4896;1.5857;
269.4000;1.4921;1.6002;
269.7000;1.4969;1.6075;
270.0000;1.4921;1.5978;
270.3000;1.4921;1.5978;
270.6000;1.4921;1.5978;
270.9000;1.4912;1.5954;
271.2000;1.4953;1.5978;
271.5000;1.4921;1.5954;
271.8000;1.4929;1.6075;
272.1000;1.4929;1.6002;
272.4000;1.4912;1.6099;
272.7000;1.4937;1.6099;
273.0000;1.4912;1.6026;
273.3000;1.4896;1.6026;
273.6000;1.4912;1.6026;
273.9000;1.4904;1.6075;
274.2000;1.4896;1.6051;
274.5000;1.4904;1.6099;
274.8000;1.4912;1.6051;
275.1000;1.4904;1.6099;
275.4000;1.4904;1.6099;
275.7000;1.4912;1.6123;
276.0000;1.4929;1.6075;
276.3000;1.4921;1.6051;
276.6000;1.4912;1.6099;
276.9000;1.4921;1.6148;
277.2000;1.4912;1.6099;
277.5000;1.4921;1.6123;
277.8000;1.4912;1.6148;
278.1000;1.4904;1.6148;
278.4000;1.4896;1.6123;
278.7000;1.4929;1.6293;
279.0000;1.4929;1.6341;
279.3000;1.4929;1.6341;
279.6000;1.4921;1.6269;
279.9000;1.4921;1.6317;
280.2000;1.4921;1.6196;
280.5000;1.4929;1.6099;
280.8000;1.4912;1.6002;
281.1000;1.4937;1.6002;
281.4000;1.4921;1.5881;
281.7000;1.4921;1.5905;
282.0000;1.4929;1.5929;
282.3000;1.4921;1.5905;
282.6000;1.4921;1.5929;
282.9000;1.4921;1.5929;
283.2000;1.4929;1.5905;
283.5000;1.4929;1.6002;
283.8000;1.4929;1.6051;
284.1000;1.4912;1.6148;
284.4000;1.4921;1.6148;
284.7000;1.4912;1.6148;
285.0000;1.4912;1.6099;
285.3000;1.4929;1.6099;
285.6000;1.4912;1.5978;
285.9000;1.4880;1.5954;
286.2000;1.4912;1.6220;
286.5000;1.4994;1.6390;
286.8000;1.4921;1.6172;
287.1000;1.4872;1.6075;
287.4000;1.4929;1.6196;
287.7000;1.4921;1.6099;
288.0000;1.4912;1.6099;
288.3000;1.4904;1.6051;
288.6000;1.4912;1.6123;
288.9000;1.4921;1.6099;
289.2000;1.4896;1.6051;
289.5000;1.4896;1.6099;
289.8000;1.4904;1.6099;
290.1000;1.4921;1.6123;
290.4000;1.4912;1.6099;
290.7000;1.4921;1.6099;
291.0000;1.4921;1.6051;
291.3000;1.4937;1.5978;
291.6000;1.4937;1.5929;
291.9000;1.4929;1.5905;
292.2000;1.4921;1.5929;
292.5000;1.4921;1.5954;
292.8000;1.4912;1.5978;
293.1000;1.4921;1.6051;
293.4000;1.4912;1.6051;
293.7000;1.4912;1.6123;
294.0000;1.4921;1.6075;
294.3000;1.4912;1.6099;
294.6000;1.4912;1.6051;
294.9000;1.4921;1.6051;
295.2000;1.4937;1.6075;
295.5000;1.4880;1.6002;
295.8000;1.4921;1.6075;
296.1000;1.4929;1.6123;
296.4000;1.4929;1.6148;
296.7000;1.4864;1.5978;
297.0000;1.4912;1.6172;
297.3000;1.4921;1.6172;
297.6000;1.4921;1.6172;
297.9000;1.4921;1.6075;
298.2000;1.4904;1.6026;
298.5000;1.4888;1.5978;
298.8000;1.4912;1.6051;
299.1000;1.4912;1.6026;
299.4000;1.4896;1.6075;
299.7000;1.4896;1.6099;
300.0000;1.4912;1.6075;
300.3000;1.4904;1.5954;
300.6000;1.4912;1.5905;
300.9000;1.4921;1.5905;
301.2000;1.4912;1.5881;
301.5000;1.4912;1.5978;
301.8000;1.4921;1.5929;
302.1000;1.4912;1.5954;
302.4000;1.4896;1.5881;
302.7000;1.4921;1.5954;
303.0000;1.4929;1.6002;
303.3000;1.4912;1.5954;
303.6000;1.4912;1.5929;
303.9000;1.4912;1.5832;
304.2000;1.4921;1.5808;
304.5000;1.4921;1.5735;
304.8000;1.4921;1.5784;
305.1000;1.4904;1.5760;
305.4000;1.4912;1.5760;
305.7000;1.4912;1.5832;
306.0000;1.4912;1.5857;
306.3000;1.4896;1.5857;
306.6000;1.4921;1.5954;
306.9000;1.4912;1.5954;
307.2000;1.4929;1.5978;
307.5000;1.4912;1.5929;
307.8000;1.4921;1.5881;
308.1000;1.4912;1.5905;
308.4000;1.4912;1.5832;
308.7000;1.4921;1.5929;
309.0000;1.4912;1.6002;
309.3000;1.4929;1.6026;
309.6000;1.4912;1.6026;
309.9000;1.4904;1.6002;
310.2000;1.4921;1.5978;
310.5000;1.4912;1.6002;
310.8000;1.4896;1.5954;
311.1000;1.4896;1.5905;
311.4000;1.4912;1.5905;
311.7000;1.4912;1.5929;
312.0000;1.4904;1.5929;
312.3000;1.4921;1.5929;
312.6000;1.4904;1.5954;
312.9000;1.4921;1.6002;
313.2000;1.4921;1.6002;
313.5000;1.4904;1.5954;
313.8000;1.4880;1.5929;
314.1000;1.4912;1.6002;
314.4000;1.4912;1.6026;
314.7000;1.4921;1.5978;
315.0000;1.4921;1.6026;
315.3000;1.4921;1.6026;
315.6000;1.4912;1.6026;
315.9000;1.4912;1.6051;
316.2000;1.4880;1.5954;
316.5000;1.4912;1.6026;
316.8000;1.4896;1.6099;
317.1000;1.4937;1.6148;
317.4000;1.4945;1.6148;
317.7000;1.4839;1.5905;
318.0000;1.4864;1.5978;
318.3000;1.4912;1.6172;
318.6000;1.4929;1.6123;
318.9000;1.4872;1.6002;
319.2000;1.4888;1.6075;
319.5000;1.4945;1.6341;
319.8000;1.4912;1.6317;
320.1000;1.4912;1.6317;
320.4000;1.4904;1.6220;
320.7000;1.4912;1.6123;
321.0000;1.4921;1.6148;
321.3000;1.4912;1.6148;
321.6000;1.4912;1.6148;
321.9000;1.4921;1.6172;
322.2000;1.4921;1.6196;
322.5000;1.4921;1.6172;
322.8000;1.4921;1.6148;
323.1000;1.4921;1.6123;
323.4000;1.4921;1.6051;
323.7000;1.4912;1.5857;
324.0000;1.4978;1.5929;
324.3000;1.4912;1.5808;
324.6000;1.4904;1.5857;
324.9000;1.4937;1.5929;
325.2000;1.4912;1.5857;
325.5000;1.4912;1.5857;
325.8000;1.4912;1.5905;
326.1000;1.4929;1.5954;
326.4000;1.4896;1.5905;
326.7000;1.4929;1.5954;
327.0000;1.4929;1.5954;
327.3000;1.4929;1.5954;
327.6000;1.4912;1.6002;
327.9000;1.4945;1.6099;
328.2000;1.4921;1.6051;
328.5000;1.4929;1.6245;
328.8000;1.4921;1.6317;
329.1000;1.4912;1.6366;
329.4000;1.4912;1.6269;
329.7000;1.4921;1.6341;
330.0000;1.4904;1.6148;
330.3000;1.4961;1.6245;
330.6000;1.4912;1.6051;
330.9000;1.4921;1.6123;
331.2000;1.4912;1.6148;
331.5000;1.4904;1.6099;
331.8000;1.4912;1.6099;
332.1000;1.4921;1.6075;
332.4000;1.4929;1.6099;
332.7000;1.4921;1.6123;
333.0000;1.4896;1.6051;
333.3000;1.4945;1.6196;
333.6000;1.4929;1.6172;
333.9000;1.4912;1.6172;
334.2000;1.4994;1.6414;
334.5000;1.4872;1.6245;
334.8000;1.4921;1.6317;
335.1000;1.4921;1.6341;
335.4000;1.4904;1.6317;
335.7000;1.4872;1.6293;
336.0000;1.4921;1.6463;
336.3000;1.4921;1.6414;
336.6000;1.4896;1.6317;
336.9000;1.4904;1.6269;
337.2000;1.4912;1.6269;
337.5000;1.4896;1.6196;
337.8000;1.4912;1.6293;
338.1000;1.4896;1.6220;
338.4000;1.4912;1.6269;
338.7000;1.4912;1.6220;
339.0000;1.4945;1.6341;
339.3000;1.4888;1.6196;
339.6000;1.4912;1.6172;
339.9000;1.4921;1.6245;
340.2000;1.4912;1.6123;
340.5000;1.4896;1.6172;
340.8000;1.4904;1.6196;
341.1000;1.4921;1.6269;
341.4000;1.4904;1.6220;
341.7000;1.4880;1.6245;
342.0000;1.4945;1.6220;
342.3000;1.4912;1.6196;
342.6000;1.4953;1.6220;
342.9000;1.4880;1.6051;
343.2000;1.4888;1.6148;
343.5000;1.4888;1.6172;
343.8000;1.4904;1.6220;
344.1000;1.4912;1.6293;
344.4000;1.4896;1.6172;
344.7000;1.4904;1.6123;
345.0000;1.4921;1.6293;
345.3000;1.4921;1.6196;
345.6000;1.4904;1.6123;
345.9000;1.4912;1.6099;
346.2000;1.4921;1.6148;
346.5000;1.4888;1.6148;
346.8000;1.4912;1.6172;
347.1000;1.4921;1.6123;
347.4000;1.4912;1.6148;
347.7000;1.4929;1.6123;
348.0000;1.4904;1.6172;
348.3000;1.4896;1.6099;
348.6000;1.4921;1.6148;
348.9000;1.4912;1.6172;
349.2000;1.4929;1.6196;
349.5000;1.4912;1.6075;
349.8000;1.4904;1.6026;
350.1000;1.4921;1.6075;
350.4000;1.4912;1.6026;
350.7000;1.4896;1.6099;
351.0000;1.4888;1.6148;
351.3000;1.4912;1.6123;
351.6000;1.4888;1.6026;
351.9000;1.4880;1.5978;
352.2000;1.4888;1.6051;
352.5000;1.4912;1.6123;
352.8000;1.4896;1.6148;
353.1000;1.4904;1.6220;
353.4000;1.4912;1.6269;
353.7000;1.4904;1.6317;
354.0000;1.4904;1.6293;
354.3000;1.4921;1.6317;
354.6000;1.4912;1.6293;
354.9000;1.4904;1.6366;
355.2000;1.4921;1.6366;
355.5000;1.4921;1.6245;
355.8000;1.4904;1.6220;
356.1000;1.4921;1.6317;
356.4000;1.4912;1.6317;
356.7000;1.4929;1.6317;
357.0000;1.4921;1.6317;
357.3000;1.4896;1.6220;
357.6000;1.4912;1.6269;
357.9000;1.4896;1.6148;
358.2000;1.4880;1.6026;
358.5000;1.4896;1.6002;
358.8000;1.4921;1.6148;
359.1000;1.4856;1.6002;
359.4000;1.4880;1.6002;
359.7000;1.4856;1.5905;
360.0000;1.4929;1.6099;
360.3000;1.4888;1.6051;
360.6000;1.4904;1.6026;
360.9000;1.4904;1.6051;
361.2000;1.4888;1.6002;
361.5000;1.4904;1.6026;
361.8000;1.4904;1.6075;
362.1000;1.4921;1.6196;
362.4000;1.4888;1.6172;
362.7000;1.4912;1.6148;
363.0000;1.4937;1.6220;
363.3000;1.4904;1.6148;
363.6000;1.4921;1.6123;
363.9000;1.4929;1.6245;
364.2000;1.4912;1.6269;
364.5000;1.4912;1.6196;
364.8000;1.4921;1.6269;
365.1000;1.4929;1.6317;
365.4000;1.4921;1.6487;
365.7000;1.4921;1.6511;
366.0000;1.4904;1.6535;
366.3000;1.4864;1.6438;
366.6000;1.4896;1.6511;
366.9000;1.4896;1.6463;
367.2000;1.4880;1.6390;
367.5000;1.4880;1.6317;
367.8000;1.4904;1.6341;
368.1000;1.4912;1.6293;
368.4000;1.4904;1.6269;
368.7000;1.4888;1.6220;
369.0000;1.4912;1.6269;
369.3000;1.4904;1.6269;
369.6000;1.4888;1.6293;
369.9000;1.4921;1.6293;
370.2000;1.4904;1.6245;
370.5000;1.4896;1.6051;
370.8000;1.4912;1.6099;
371.1000;1.4896;1.6123;
371.4000;1.4896;1.6075;
371.7000;1.4912;1.6099;
372.0000;1.4904;1.6123;
372.3000;1.4896;1.6123;
372.6000;1.4904;1.6148;
372.9000;1.4904;1.6196;
373.2000;1.4921;1.6172;
373.5000;1.4904;1.6148;
373.8000;1.4921;1.6075;
374.1000;1.4912;1.6245;
374.4000;1.4904;1.6220;
374.7000;1.4872;1.6196;
375.0000;1.4904;1.6245;
375.3000;1.4912;1.6269;
375.6000;1.4912;1.6245;
375.9000;1.4904;1.6245;
376.2000;1.4912;1.6293;
376.5000;1.4896;1.6245;
376.8000;1.4904;1.6245;
377.1000;1.4888;1.6220;
377.4000;1.4904;1.6148;
377.7000;1.4896;1.6172;
378.0000;1.4896;1.6220;
378.3000;1.4929;1.6341;
378.6000;1.4912;1.6293;
378.9000;1.4921;1.6293;
379.2000;1.4912;1.6269;
379.5000;1.4929;1.6245;
379.8000;1.4912;1.6123;
380.1000;1.4912;1.6148;
380.4000;1.4912;1.6293;
380.7000;1.4896;1.6317;
381.0000;1.4912;1.6293;
381.3000;1.4880;1.6196;
381.6000;1.4904;1.6220;
381.9000;1.4904;1.6245;
382.2000;1.4961;1.6390;
382.5000;1.4937;1.6366;
382.8000;1.4896;1.6196;
383.1000;1.4896;1.6123;
383.4000;1.4921;1.6075;
383.7000;1.4929;1.6002;
384.0000;1.4904;1.6002;
384.3000;1.4896;1.5954;
384.6000;1.4921;1.6002;
384.9000;1.4945;1.6123;
385.2000;1.4921;1.6051;
385.5000;1.4912;1.6099;
385.8000;1.4961;1.6269;
386.1000;1.4929;1.6196;
386.4000;1.4921;1.6196;
386.7000;1.4904;1.6099;
387.0000;1.4912;1.6148;
387.3000;1.4929;1.6148;
387.6000;1.4921;1.6196;
387.9000;1.4896;1.6148;
388.2000;1.4896;1.6269;
388.5000;1.4921;1.6366;
388.8000;1.4912;1.6438;
389.1000;1.4921;1.6366;
389.4000;1.4921;1.6390;
389.7000;1.4921;1.6366;
390.0000;1.4929;1.6390;
390.3000;1.4921;1.6269;
390.6000;1.4904;1.6245;
390.9000;1.4921;1.6269;
391.2000;1.4921;1.6317;
391.5000;1.4864;1.6220;
391.8000;1.4888;1.6269;
392.1000;1.4904;1.6245;
392.4000;1.4904;1.6220;
392.7000;1.4929;1.6196;
393.0000;1.4904;1.6172;
393.3000;1.4896;1.6172;
393.6000;1.4912;1.6245;
393.9000;1.4896;1.6269;
394.2000;1.4904;1.6245;
394.5000;1.4929;1.6245;
394.8000;1.4912;1.6099;
395.1000;1.4921;1.6099;
395.4000;1.4888;1.5978;
395.7000;1.4921;1.6026;
396.0000;1.4921;1.6148;
396.3000;1.4945;1.6172;
396.6000;1.4921;1.6099;
396.9000;1.4896;1.6123;
397.2000;1.4904;1.6293;
397.5000;1.4912;1.6366;
397.8000;1.4912;1.6341;
398.1000;1.4896;1.6390;
398.4000;1.4937;1.6390;
398.7000;1.4904;1.6341;
399.0000;1.4904;1.6366;
399.3000;1.4912;1.6366;
399.6000;1.4912;1.6317;
399.9000;1.4921;1.6317;
400.2000;1.4921;1.6245;
400.5000;1.4921;1.6172;
400.8000;1.4929;1.6220;
401.1000;1.4921;1.6148;
401.4000;1.4921;1.6269;
401.7000;1.4904;1.6196;
402.0000;1.4921;1.6293;
402.3000;1.4904;1.6293;
402.6000;1.4904;1.6293;
402.9000;1.4904;1.6220;
403.2000;1.4888;1.6123;
403.5000;1.4888;1.6123;
403.8000;1.4904;1.6148;
404.1000;1.4912;1.6148;
404.4000;1.4896;1.6172;
404.7000;1.4888;1.6245;
405.0000;1.4978;1.6560;
405.3000;1.4904;1.6463;
405.6000;1.4912;1.6463;
405.9000;1.4904;1.6487;
406.2000;1.4904;1.6390;
406.5000;1.4921;1.6341;
406.8000;1.4904;1.6293;
407.1000;1.4912;1.6317;
407.4000;1.4912;1.6269;
407.7000;1.4904;1.6148;
408.0000;1.4929;1.6269;
408.3000;1.4904;1.6269;
408.6000;1.4896;1.6293;
408.9000;1.4921;1.6341;
409.2000;1.4929;1.6438;
409.5000;1.4896;1.6293;
409.8000;1.4888;1.6269;
410.1000;1.4888;1.6245;
410.4000;1.4921;1.6293;
410.7000;1.4921;1.6245;
411.0000;1.4912;1.6245;
411.3000;1.4912;1.6245;
411.6000;1.4847;1.6026;
411.9000;1.4896;1.6172;
412.2000;1.4904;1.6269;
412.5000;1.4904;1.6293;
412.8000;1.4904;1.6317;
413.1000;1.4912;1.6317;
413.4000;1.4888;1.6341;
413.7000;1.4872;1.6293;
414.0000;1.4888;1.6293;
414.3000;1.4888;1.6148;
414.6000;1.4888;1.6075;
414.9000;1.4904;1.6148;
415.2000;1.4904;1.6099;
415.5000;1.4912;1.6051;
415.8000;1.4921;1.6075;
416.1000;1.4921;1.5978;
416.4000;1.4904;1.5954;
416.7000;1.4929;1.6123;
417.0000;1.4912;1.6196;
417.3000;1.4929;1.6293;
417.6000;1.4912;1.6196;
417.9000;1.4912;1.6148;
418.2000;1.4904;1.6075;
418.5000;1.4912;1.6148;
418.8000;1.4880;1.6172;
419.1000;1.4912;1.6245;
419.4000;1.4904;1.6245;
419.7000;1.4888;1.6148;
420.0000;1.4880;1.6172;
420.3000;1.4888;1.6245;
420.6000;1.4888;1.6269;
420.9000;1.4896;1.6390;
421.2000;1.4872;1.6293;
421.5000;1.4896;1.6366;
421.8000;1.4912;1.6414;
422.1000;1.4896;1.6414;
422.4000;1.4921;1.6366;
422.7000;1.4880;1.6245;
423.0000;1.4953;1.6511;
423.3000;1.4896;1.6390;
423.6000;1.4888;1.6341;
423.9000;1.4937;1.6414;
424.2000;1.4904;1.6293;
424.5000;1.4896;1.6245;
424.8000;1.4888;1.6148;
425.1000;1.4904;1.6172;
425.4000;1.4904;1.6196;
425.7000;1.4912;1.6220;
426.0000;1.4904;1.6172;
426.3000;1.4921;1.6245;
426.6000;1.4912;1.6196;
426.9000;1.4912;1.6220;
427.2000;1.4904;1.6099;
427.5000;1.4912;1.6123;
427.8000;1.4937;1.6196;
428.1000;1.4929;1.6220;
428.4000;1.4888;1.6196;
428.7000;1.4888;1.6148;
429.0000;1.4896;1.6172;
429.3000;1.4880;1.6148;
429.6000;1.4912;1.6148;
429.9000;1.4880;1.6075;
430.2000;1.4896;1.6220;
430.5000;1.4921;1.6317;
430.8000;1.4888;1.6220;
431.1000;1.4904;1.6341;
431.4000;1.4904;1.6487;
431.7000;1.4945;1.6535;
432.0000;1.4880;1.6390;
432.3000;1.4904;1.6414;
432.6000;1.4872;1.6366;
432.9000;1.4888;1.6390;
433.2000;1.4912;1.6487;
433.5000;1.4896;1.6487;
433.8000;1.4888;1.6511;
434.1000;1.4888;1.6535;
434.4000;1.4896;1.6463;
434.7000;1.4880;1.6390;
435.0000;1.4978;1.6535;
435.3000;1.4929;1.6390;
435.6000;1.4904;1.6366;
435.9000;1.4888;1.6341;
436.2000;1.4888;1.6293;
436.5000;1.4896;1.6220;
436.8000;1.4888;1.6196;
437.1000;1.4856;1.6148;
437.4000;1.4888;1.6269;
437.7000;1.4896;1.6220;
438.0000;1.4896;1.6245;
438.3000;1.4880;1.6293;
438.6000;1.4888;1.6220;
438.9000;1.4888;1.6293;
439.2000;1.4896;1.6293;
439.5000;1.4888;1.6366;
439.8000;1.4888;1.6463;
440.1000;1.4888;1.6390;
440.4000;1.4896;1.6317;
440.7000;1.4880;1.6293;
441.0000;1.4896;1.6341;
441.3000;1.4904;1.6366;
441.6000;1.4872;1.6317;
441.9000;1.4896;1.6341;
442.2000;1.4888;1.6341;
442.5000;1.4880;1.6293;
442.8000;1.4904;1.6245;
443.1000;1.4904;1.6196;
443.4000;1.4880;1.6123;
443.7000;1.4888;1.6099;
444.0000;1.4888;1.6148;
444.3000;1.4888;1.6172;
444.6000;1.4888;1.6172;
444.9000;1.4904;1.6245;
445.2000;1.4896;1.6293;
445.5000;1.4880;1.6317;
445.8000;1.4896;1.6317;
446.1000;1.4912;1.6269;
446.4000;1.4831;1.6172;
446.7000;1.4904;1.6390;
447.0000;1.4880;1.6341;
447.3000;1.4904;1.6390;
447.6000;1.4872;1.6414;
447.9000;1.4969;1.6632;
448.2000;1.4904;1.6414;
448.5000;1.4904;1.6341;
448.8000;1.4888;1.6220;
449.1000;1.4888;1.6196;
449.4000;1.4896;1.6148;
449.7000;1.4839;1.6051;
450.0000;1.4904;1.6317;
450.3000;1.4896;1.6293;
450.6000;1.4896;1.6293;
450.9000;1.4888;1.6269;
451.2000;1.4929;1.6390;
451.5000;1.4904;1.6341;
451.8000;1.4904;1.6487;
452.1000;1.4904;1.6535;
452.4000;1.4880;1.6463;
452.7000;1.4864;1.6390;
453.0000;1.4896;1.6487;
453.3000;1.4937;1.6487;
453.6000;1.4896;1.6293;
453.9000;1.4929;1.6414;
454.2000;1.4856;1.6317;
454.5000;1.4888;1.6317;
454.8000;1.4880;1.6317;
455.1000;1.4888;1.6341;
455.4000;1.4896;1.6390;
455.7000;1.4896;1.6341;
456.0000;1.4921;1.6269;
456.3000;1.4904;1.6293;
456.6000;1.4888;1.6245;
456.9000;1.4904;1.6269;
457.2000;1.4880;1.6148;
457.5000;1.4921;1.6245;
457.8000;1.4864;1.6123;
458.1000;1.4929;1.6366;
458.4000;1.4904;1.6245;
458.7000;1.4912;1.6341;
459.0000;1.4896;1.6317;
459.3000;1.4896;1.6366;
459.6000;1.4888;1.6317;
459.9000;1.4872;1.6220;
460.2000;1.4888;1.6293;
460.5000;1.4904;1.6293;
460.8000;1.4888;1.6220;
461.1000;1.4847;1.6026;
461.4000;1.4912;1.6269;
461.7000;1.4904;1.6317;
462.0000;1.4888;1.6341;
462.3000;1.4880;1.6317;
462.6000;1.4904;1.6341;
462.9000;1.4912;1.6341;
463.2000;1.4888;1.6317;
463.5000;1.4888;1.6293;
463.8000;1.4888;1.6317;
464.1000;1.4839;1.6196;
464.4000;1.4912;1.6390;
464.7000;1.4880;1.6390;
465.0000;1.4896;1.6390;
465.3000;1.4880;1.6341;
465.6000;1.4880;1.6317;
465.9000;1.4880;1.6269;
466.2000;1.4856;1.6341;
466.5000;1.4896;1.6560;
466.8000;1.4888;1.6511;
467.1000;1.4880;1.6463;
467.4000;1.4856;1.6269;
467.7000;1.4896;1.6487;
468.0000;1.4904;1.6438;
468.3000;1.4864;1.6317;
468.6000;1.4921;1.6414;
468.9000;1.4912;1.6414;
469.2000;1.4912;1.6317;
469.5000;1.4904;1.6341;
469.8000;1.4880;1.6148;
470.1000;1.4896;1.6196;
470.4000;1.4904;1.6172;
470.7000;1.4880;1.6075;
471.0000;1.4896;1.6123;
471.3000;1.4929;1.6148;
471.6000;1.4888;1.6148;
471.9000;1.4896;1.6293;
472.2000;1.4880;1.6269;
472.5000;1.4896;1.6269;
472.8000;1.4904;1.6317;
473.1000;1.4888;1.6293;
473.4000;1.4880;1.6317;
473.7000;1.4896;1.6341;
474.0000;1.4831;1.6220;
474.3000;1.4896;1.6366;
474.6000;1.4864;1.6293;
474.9000;1.4896;1.6390;
475.2000;1.4864;1.6341;
475.5000;1.4904;1.6414;
475.8000;1.4880;1.6366;
476.1000;1.4929;1.6341;
476.4000;1.4856;1.6148;
476.7000;1.4896;1.6220;
477.0000;1.4896;1.6293;
477.3000;1.4896;1.6245;
477.6000;1.4912;1.6148;
477.9000;1.4912;1.6148;
478.2000;1.4888;1.6051;
478.5000;1.4953;1.6245;
478.8000;1.4929;1.6245;
479.1000;1.4904;1.6293;
479.4000;1.4880;1.6366;
479.7000;1.4888;1.6245;
480.0000;1.4880;1.6196;
480.3000;1.4896;1.6220;
480.6000;1.4896;1.6269;
480.9000;1.4856;1.6148;
481.2000;1.4880;1.6148;
481.5000;1.4896;1.6341;
481.8000;1.4888;1.6366;
482.1000;1.4896;1.6341;
482.4000;1.4880;1.6269;
482.7000;1.4872;1.6245;
483.0000;1.4864;1.6196;
483.3000;1.4896;1.6196;
483.6000;1.4888;1.6196;
483.9000;1.4896;1.6269;
484.2000;1.4904;1.6317;
484.5000;1.4904;1.6366;
484.8000;1.4872;1.6293;
485.1000;1.4815;1.6148;
485.4000;1.4872;1.6341;
485.7000;1.4872;1.6245;
486.0000;1.4888;1.6245;
486.3000;1.4880;1.6172;
486.6000;1.4888;1.6269;
486.9000;1.4888;1.6293;
487.2000;1.4888;1.6196;
487.5000;1.4888;1.6269;
487.8000;1.4888;1.6341;
488.1000;1.4896;1.6366;
488.4000;1.4896;1.6414;
488.7000;1.4896;1.6511;
489.0000;1.4880;1.6438;
489.3000;1.4896;1.6511;
489.6000;1.4888;1.6511;
489.9000;1.4888;1.6487;
490.2000;1.4880;1.6414;
490.5000;1.4872;1.6366;
490.8000;1.4872;1.6463;
491.1000;1.4896;1.6487;
491.4000;1.4864;1.6366;
491.7000;1.4864;1.6390;
492.0000;1.4880;1.6414;
492.3000;1.4888;1.6511;
492.6000;1.4888;1.6511;
492.9000;1.4856;1.6438;
493.2000;1.4880;1.6487;
493.5000;1.4904;1.6463;
493.8000;1.4888;1.6390;
494.1000;1.4896;1.6463;
494.4000;1.4888;1.6511;
494.7000;1.4896;1.6535;
495.0000;1.4880;1.6560;
495.3000;1.4880;1.6535;
495.6000;1.4880;1.6511;
495.9000;1.4896;1.6608;
496.2000;1.4888;1.6487;
496.5000;1.4896;1.6390;
496.8000;1.4888;1.6317;
497.1000;1.4904;1.6341;
497.4000;1.4896;1.6390;
497.7000;1.4888;1.6269;
498.0000;1.4888;1.6172;
498.3000;1.4937;1.6293;
498.6000;1.4888;1.6366;
498.9000;1.4896;1.6487;
499.2000;1.4847;1.6463;
499.5000;1.4912;1.6511;
499.8000;1.4896;1.6463;
500.1000;1.4880;1.6390;
500.4000;1.4880;1.6366;
500.7000;1.4872;1.6414;
501.0000;1.4896;1.6414;
501.3000;1.4880;1.6341;
501.6000;1.4872;1.6220;
501.9000;1.4880;1.6220;
502.2000;1.4856;1.6269;
502.5000;1.4872;1.6341;
502.8000;1.4880;1.6341;
503.1000;1.4880;1.6317;
503.4000;1.4896;1.6317;
503.7000;1.4904;1.6293;
504.0000;1.4872;1.6269;
504.3000;1.4872;1.6269;
504.6000;1.4872;1.6293;
504.9000;1.4872;1.6317;
505.2000;1.4880;1.6341;
505.5000;1.4864;1.6366;
505.8000;1.4880;1.6390;
506.1000;1.4888;1.6317;
506.4000;1.4880;1.6293;
506.7000;1.4856;1.6341;
507.0000;1.4864;1.6269;
507.3000;1.4880;1.6390;
507.6000;1.4888;1.6293;
507.9000;1.4880;1.6196;
508.2000;1.4904;1.6317;
508.5000;1.4904;1.6366;
508.8000;1.4904;1.6341;
509.1000;1.4888;1.6245;
509.4000;1.4864;1.6123;
509.7000;1.4888;1.6099;
510.0000;1.4896;1.6196;
510.3000;1.4888;1.6148;
510.6000;1.4823;1.5954;
510.9000;1.4864;1.6051;
511.2000;1.4864;1.6123;
511.5000;1.4847;1.6148;
511.8000;1.4872;1.6196;
512.1000;1.4912;1.6317;
512.4000;1.4896;1.6245;
512.7000;1.4872;1.6196;
513.0000;1.4888;1.6293;
513.3000;1.4880;1.6317;
513.6000;1.4880;1.6438;
513.9000;1.4888;1.6463;
514.2000;1.4978;1.6584;
514.5000;1.4831;1.6196;
514.8000;1.4929;1.6438;
515.1000;1.4888;1.6366;
515.4000;1.5018;1.6729;
515.7000;1.4888;1.6438;
516.0000;1.4896;1.6463;
516.3000;1.4921;1.6560;
516.6000;1.4880;1.6390;
516.9000;1.4904;1.6341;
517.2000;1.4896;1.6293;
517.5000;1.4896;1.6269;
517.8000;1.4904;1.6293;
518.1000;1.4888;1.6317;
518.4000;1.4896;1.6317;
518.7000;1.4912;1.6317;
519.0000;1.4978;1.6560;
519.3000;1.4904;1.6414;
519.6000;1.4888;1.6366;
519.9000;1.4904;1.6341;
520.2000;1.4904;1.6341;
520.5000;1.4896;1.6390;
520.8000;1.4888;1.6414;
521.1000;1.4904;1.6414;
521.4000;1.4888;1.6390;
521.7000;1.4880;1.6366;
522.0000;1.4839;1.6196;
522.3000;1.4872;1.6293;
522.6000;1.4896;1.6366;
522.9000;1.4888;1.6317;
523.2000;1.4880;1.6245;
523.5000;1.4872;1.6245;
523.8000;1.4896;1.6293;
524.1000;1.4912;1.6366;
524.4000;1.4896;1.6317;
524.7000;1.4896;1.6366;
525.0000;1.4888;1.6366;
525.3000;1.4880;1.6366;
525.6000;1.4880;1.6366;
525.9000;1.4904;1.6463;
526.2000;1.4872;1.6366;
526.5000;1.4888;1.6317;
526.8000;1.4831;1.6172;
527.1000;1.4880;1.6317;
527.4000;1.4888;1.6463;
527.7000;1.4880;1.6390;
528.0000;1.4888;1.6390;
528.3000;1.4912;1.6463;
528.6000;1.4872;1.6341;
528.9000;1.4896;1.6511;
529.2000;1.4921;1.6584;
529.5000;1.4896;1.6463;
529.8000;1.4856;1.6269;
530.1000;1.4896;1.6366;
530.4000;1.4880;1.6438;
530.7000;1.4921;1.6632;
531.0000;1.4872;1.6487;
531.3000;1.4856;1.6438;
531.6000;1.4888;1.6414;
531.9000;1.4888;1.6414;
532.2000;1.4912;1.6511;
532.5000;1.4872;1.6487;
532.8000;1.4896;1.6584;
533.1000;1.4888;1.6511;
533.4000;1.4896;1.6584;
533.7000;1.4880;1.6511;
534.0000;1.4888;1.6608;
534.3000;1.4904;1.6705;
534.6000;1.4872;1.6608;
534.9000;1.4888;1.6584;
535.2000;1.4921;1.6632;
535.5000;1.4880;1.6414;
535.8000;1.4904;1.6438;
536.1000;1.4896;1.6438;
536.4000;1.4856;1.6317;
536.7000;1.4896;1.6341;
537.0000;1.4896;1.6390;
537.3000;1.4872;1.6366;
537.6000;1.4880;1.6390;
537.9000;1.4880;1.6317;
538.2000;1.4880;1.6245;
538.5000;1.4880;1.6148;
538.8000;1.4880;1.6196;
539.1000;1.4880;1.6172;
539.4000;1.4904;1.6269;
539.7000;1.4880;1.6341;
540.0000;1.4872;1.6293;
540.3000;1.4921;1.6511;
540.6000;1.4888;1.6487;
540.9000;1.4912;1.6608;
541.2000;1.4880;1.6584;
541.5000;1.4856;1.6511;
541.8000;1.4896;1.6608;
542.1000;1.4839;1.6414;
542.4000;1.4872;1.6463;
542.7000;1.4872;1.6414;
543.0000;1.4831;1.6390;
543.3000;1.4864;1.6366;
543.6000;1.4872;1.6341;
543.9000;1.4864;1.6341;
544.2000;1.4872;1.6487;
544.5000;1.4888;1.6487;
544.8000;1.4880;1.6463;
545.1000;1.4856;1.6463;
545.4000;1.4864;1.6511;
545.7000;1.4880;1.6560;
546.0000;1.4807;1.6341;
546.3000;1.4872;1.6463;
546.6000;1.4872;1.6366;
546.9000;1.4872;1.6341;
547.2000;1.4872;1.6366;
547.5000;1.4839;1.6366;
547.8000;1.4807;1.6341;
548.1000;1.4864;1.6438;
548.4000;1.4872;1.6366;
548.7000;1.4872;1.6390;
549.0000;1.4847;1.6414;
549.3000;1.4888;1.6511;
549.6000;1.4904;1.6463;
549.9000;1.4921;1.6463;
550.2000;1.4856;1.6390;
550.5000;1.4896;1.6487;
550.8000;1.4904;1.6535;
551.1000;1.4880;1.6463;
551.4000;1.4880;1.6390;
551.7000;1.4880;1.6341;
552.0000;1.4880;1.6390;
552.3000;1.4888;1.6438;
552.6000;1.4872;1.6366;
552.9000;1.4929;1.6511;
553.2000;1.4888;1.6414;
553.5000;1.4880;1.6511;
553.8000;1.4888;1.6463;
554.1000;1.4872;1.6390;
554.4000;1.4872;1.6390;
554.7000;1.4880;1.6463;
555.0000;1.4896;1.6535;
555.3000;1.4896;1.6511;
555.6000;1.4880;1.6487;
555.9000;1.4888;1.6463;
556.2000;1.4880;1.6463;
556.5000;1.4872;1.6463;
556.8000;1.4880;1.6535;
557.1000;1.4872;1.6511;
557.4000;1.4896;1.6511;
557.7000;1.4872;1.6487;
558.0000;1.4872;1.6463;
558.3000;1.4880;1.6390;
558.6000;1.4872;1.6341;
558.9000;1.4872;1.6317;
559.2000;1.4880;1.6390;
559.5000;1.4864;1.6463;
559.8000;1.4872;1.6463;
560.1000;1.4872;1.6535;
560.4000;1.4872;1.6560;
560.7000;1.4864;1.6535;
561.0000;1.4856;1.6535;
561.3000;1.4880;1.6535;
561.6000;1.4856;1.6487;
561.9000;1.4872;1.6535;
562.2000;1.4856;1.6463;
562.5000;1.4880;1.6438;
562.8000;1.4872;1.6341;
563.1000;1.4864;1.6341;
563.4000;1.4856;1.6390;
563.7000;1.4880;1.6366;
564.0000;1.4872;1.6366;
564.3000;1.4831;1.6245;
564.6000;1.4864;1.6269;
564.9000;1.4896;1.6366;
565.2000;1.4888;1.6341;
565.5000;1.4880;1.6366;
565.8000;1.4880;1.6341;
566.1000;1.4880;1.6390;
566.4000;1.4872;1.6366;
566.7000;1.4872;1.6390;
567.0000;1.4888;1.6487;
567.3000;1.4872;1.6366;
567.6000;1.4872;1.6366;
567.9000;1.4864;1.6390;
568.2000;1.4872;1.6463;
568.5000;1.4880;1.6463;
568.8000;1.4880;1.6487;
569.1000;1.4872;1.6463;
569.4000;1.4888;1.6511;
569.7000;1.4880;1.6511;
570.0000;1.4912;1.6535;
570.3000;1.4896;1.6463;
570.6000;1.4896;1.6463;
570.9000;1.4880;1.6535;
571.2000;1.4880;1.6560;
571.5000;1.4888;1.6560;
571.8000;1.4880;1.6560;
572.1000;1.4945;1.6608;
572.4000;1.4847;1.6463;
572.7000;1.4856;1.6608;
573.0000;1.4896;1.6681;
573.3000;1.4872;1.6511;
573.6000;1.4880;1.6511;
573.9000;1.4872;1.6463;
574.2000;1.4880;1.6463;
574.5000;1.4880;1.6511;
574.8000;1.4864;1.6487;
575.1000;1.4872;1.6487;
575.4000;1.4872;1.6535;
575.7000;1.4864;1.6511;
576.0000;1.4880;1.6584;
576.3000;1.4896;1.6632;
576.6000;1.4888;1.6584;
576.9000;1.4847;1.6535;
577.2000;1.4864;1.6535;
577.5000;1.4888;1.6560;
577.8000;1.4888;1.6657;
578.1000;1.4880;1.6705;
578.4000;1.4896;1.6608;
578.7000;1.4872;1.6560;
579.0000;1.4888;1.6584;
579.3000;1.4880;1.6608;
579.6000;1.4880;1.6608;
579.9000;1.4880;1.6657;
580.2000;1.4888;1.6729;
580.5000;1.4872;1.6608;
580.8000;1.4880;1.6535;
581.1000;1.4880;1.6535;
581.4000;1.4880;1.6511;
581.7000;1.4888;1.6632;
582.0000;1.4888;1.6705;
582.3000;1.4864;1.6632;
582.6000;1.4888;1.6632;
582.9000;1.4888;1.6535;
583.2000;1.4880;1.6535;
583.5000;1.4872;1.6511;
583.8000;1.4880;1.6535;
584.1000;1.4888;1.6560;
584.4000;1.4872;1.6414;
584.7000;1.4872;1.6487;
585.0000;1.4888;1.6535;
585.3000;1.4847;1.6414;
585.6000;1.4864;1.6463;
585.9000;1.4864;1.6487;
586.2000;1.4880;1.6511;
586.5000;1.4790;1.6220;
586.8000;1.4880;1.6438;
587.1000;1.4921;1.6463;
587.4000;1.4872;1.6293;
587.7000;1.4872;1.6366;
588.0000;1.4872;1.6293;
588.3000;1.4880;1.6341;
588.6000;1.4872;1.6390;
588.9000;1.4872;1.6438;
589.2000;1.4864;1.6463;
589.5000;1.4896;1.6511;
589.8000;1.4864;1.6487;
590.1000;1.4929;1.6681;
590.4000;1.4880;1.6463;
590.7000;1.4872;1.6390;
591.0000;1.4864;1.6390;
591.3000;1.4872;1.6366;
591.6000;1.4872;1.6341;
591.9000;1.4872;1.6317;
592.2000;1.4864;1.6317;
592.5000;1.4872;1.6390;
592.8000;1.4880;1.6438;
593.1000;1.4880;1.6535;
593.4000;1.4880;1.6414;
593.7000;1.4864;1.6366;
594.0000;1.4864;1.6317;
594.3000;1.4864;1.6341;
594.6000;1.4872;1.6438;
594.9000;1.4872;1.6366;
595.2000;1.4872;1.6293;
595.5000;1.4872;1.6317;
595.8000;1.4888;1.6341;
596.1000;1.4872;1.6317;
596.4000;1.4880;1.6341;
596.7000;1.4896;1.6317;
597.0000;1.4896;1.6341;
597.3000;1.4880;1.6269;
597.6000;1.4888;1.6245;
597.9000;1.4872;1.6269;
598.2000;1.4872;1.6293;
598.5000;1.4872;1.6269;
598.8000;1.4872;1.6366;
599.1000;1.4896;1.6511;
599.4000;1.4880;1.6487;
599.7000;1.4807;1.6341;
600.0000;1.4872;1.6487;
600.3000;1.4864;1.6414;
600.6000;1.4872;1.6245;
600.9000;1.4790;1.6002;
601.2000;1.4660;1.5735;
601.5000;1.4546;1.5469;
601.8000;1.4416;1.5275;
602.1000;1.4278;1.5178;
602.4000;1.4139;1.5008;
602.7000;1.4017;1.4863;
603.0000;1.3887;1.4741;
603.3000;1.3805;1.4644;
603.6000;1.3635;1.4329;
603.9000;1.3521;1.4111;
604.2000;1.3350;1.3796;
604.5000;1.3325;1.3844;
604.8000;1.3203;1.3820;
605.1000;1.3114;1.3699;
605.4000;1.2975;1.3553;
605.7000;1.2951;1.3626;
606.0000;1.2853;1.3626;
606.3000;1.2764;1.3529;
606.6000;1.2723;1.3481;
606.9000;1.2617;1.3408;
607.2000;1.2552;1.3359;
607.5000;1.2503;1.3335;
607.8000;1.2397;1.3165;
608.1000;1.2316;1.3141;
608.4000;1.2243;1.3093;
608.7000;1.2177;1.2996;
609.0000;1.2120;1.2996;
609.3000;1.1982;1.2802;
609.6000;1.2055;1.3141;
609.9000;1.1917;1.2874;
610.2000;1.1860;1.2826;
610.5000;1.1836;1.2874;
610.8000;1.1754;1.2777;
611.1000;1.1697;1.2802;
611.4000;1.1632;1.2680;
611.7000;1.1559;1.2535;
612.0000;1.1534;1.2608;
612.3000;1.1420;1.2535;
612.6000;1.1412;1.2535;
612.9000;1.1331;1.2462;
613.2000;1.1315;1.2535;
613.5000;1.1266;1.2486;
613.8000;1.1217;1.2389;
614.1000;1.1144;1.2389;
614.4000;1.1103;1.2365;
614.7000;1.1079;1.2292;
615.0000;1.1054;1.2365;
615.3000;1.0956;1.2268;
615.6000;1.0924;1.2268;
615.9000;1.0875;1.2317;
616.2000;1.0851;1.2268;
616.5000;1.0786;1.2196;
616.8000;1.0769;1.2220;
617.1000;1.0802;1.2511;
617.4000;1.0672;1.2244;
617.7000;1.0639;1.2292;
618.0000;1.0606;1.2292;
618.3000;1.0566;1.2244;
618.6000;1.0525;1.2292;
618.9000;1.0484;1.2341;
619.2000;1.0444;1.2389;
619.5000;1.0403;1.2511;
619.8000;1.0313;1.2365;
620.1000;1.0330;1.2438;
620.4000;1.0305;1.2365;
620.7000;1.0265;1.2292;
621.0000;1.0248;1.2317;
621.3000;1.0232;1.2341;
621.6000;1.0175;1.2220;
621.9000;1.0126;1.2196;
622.2000;1.0110;1.2220;
622.5000;1.0077;1.2171;
622.8000;1.0045;1.2196;
623.1000;1.0004;1.2220;
623.4000;0.9972;1.2196;
623.7000;0.9972;1.2220;
624.0000;0.9931;1.2171;
624.3000;0.9906;1.2196;
624.6000;0.9882;1.2196;
624.9000;0.9849;1.2171;
625.2000;0.9817;1.2050;
625.5000;0.9792;1.2026;
625.8000;0.9760;1.2050;
626.1000;0.9744;1.1953;
626.4000;0.9719;1.2026;
626.7000;0.9687;1.2074;
627.0000;0.9646;1.2074;
627.3000;0.9646;1.2123;
627.6000;0.9613;1.2074;
627.9000;0.9581;1.2002;
628.2000;0.9565;1.1953;
628.5000;0.9548;1.1953;
628.8000;0.9508;1.1977;
629.1000;0.9499;1.2050;
629.4000;0.9451;1.1880;
629.7000;0.9483;1.1977;
630.0000;0.9426;1.1905;
630.3000;0.9402;1.1856;
630.6000;0.9410;1.1832;
630.9000;0.9361;1.1759;
631.2000;0.9328;1.1711;
631.5000;0.9328;1.1735;
631.8000;0.9361;1.1953;
632.1000;0.9271;1.1832;
632.4000;0.9255;1.1783;
632.7000;0.9239;1.1856;
633.0000;0.9214;1.1832;
633.3000;0.9190;1.1808;
633.6000;0.9190;1.1832;
633.9000;0.9182;1.1880;
634.2000;0.9141;1.1929;
634.5000;0.9125;1.1929;
634.8000;0.9101;1.1905;
635.1000;0.9084;1.1905;
635.4000;0.9068;1.1783;
635.7000;0.9052;1.1735;
636.0000;0.8995;1.1638;
636.3000;0.9019;1.1759;
636.6000;0.9027;1.1808;
636.9000;0.8930;1.1662;
637.2000;0.8962;1.1759;
637.5000;0.8921;1.1638;
637.8000;0.8946;1.1711;
638.1000;0.8921;1.1711;
638.4000;0.8905;1.1614;
638.7000;0.8897;1.1759;
639.0000;0.8881;1.1735;
639.3000;0.8856;1.1711;
639.6000;0.8848;1.1735;
639.9000;0.8791;1.1589;
640.2000;0.8824;1.1735;
640.5000;0.8799;1.1711;
640.8000;0.8791;1.1783;
641.1000;0.8759;1.1686;
641.4000;0.8759;1.1735;
641.7000;0.8751;1.1759;
642.0000;0.8759;1.1808;
642.3000;0.8718;1.1662;
642.6000;0.8710;1.1662;
642.9000;0.8645;1.1589;
643.2000;0.8685;1.1638;
643.5000;0.8661;1.1686;
643.8000;0.8628;1.1711;
644.1000;0.8685;1.1880;
644.4000;0.8637;1.1662;
644.7000;0.8620;1.1638;
645.0000;0.8547;1.1492;
645.3000;0.8604;1.1735;
645.6000;0.8571;1.1686;
645.9000;0.8490;1.1492;
646.2000;0.8555;1.1686;
646.5000;0.8555;1.1759;
646.8000;0.8531;1.1759;
647.1000;0.8514;1.1711;
647.4000;0.8498;1.1662;
647.7000;0.8498;1.1662;
648.0000;0.8506;1.1638;
648.3000;0.8506;1.1638;
648.6000;0.8474;1.1614;
648.9000;0.8457;1.1711;
649.2000;0.8466;1.1686;
649.5000;0.8449;1.1686;
649.8000;0.8433;1.1638;
650.1000;0.8433;1.1589;
650.4000;0.8417;1.1541;
650.7000;0.8400;1.1492;
651.0000;0.8392;1.1614;
651.3000;0.8368;1.1492;
651.6000;0.8360;1.1468;
651.9000;0.8376;1.1517;
652.2000;0.8344;1.1420;
652.5000;0.8335;1.1420;
652.8000;0.8335;1.1517;
653.1000;0.8335;1.1614;
653.4000;0.8327;1.1638;
653.7000;0.8319;1.1638;
654.0000;0.8311;1.1735;
654.3000;0.8295;1.1711;
654.6000;0.8262;1.1662;
654.9000;0.8246;1.1735;
655.2000;0.8246;1.1711;
655.5000;0.8278;1.1880;
655.8000;0.8213;1.1783;
656.1000;0.8246;1.1880;
656.4000;0.8213;1.1783;
656.7000;0.8189;1.1735;
657.0000;0.8197;1.1711;
657.3000;0.8197;1.1686;
657.6000;0.8164;1.1589;
657.9000;0.8181;1.1565;
658.2000;0.8173;1.1468;
658.5000;0.8156;1.1420;
658.8000;0.8164;1.1371;
659.1000;0.8140;1.1226;
659.4000;0.8132;1.1298;
659.7000;0.8181;1.1371;
660.0000;0.8099;1.1129;
660.3000;0.8107;1.1201;
660.6000;0.8107;1.1226;
660.9000;0.8116;1.1347;
661.2000;0.8124;1.1420;
661.5000;0.8075;1.1347;
661.8000;0.8083;1.1395;
662.1000;0.8083;1.1395;
662.4000;0.8083;1.1517;
662.7000;0.8050;1.1395;
663.0000;0.8059;1.1347;
663.3000;0.8050;1.1420;
663.6000;0.8010;1.1347;
663.9000;0.8034;1.1395;
664.2000;0.8018;1.1468;
664.5000;0.8018;1.1541;
664.8000;0.7993;1.1517;
665.1000;0.8010;1.1589;
665.4000;0.7985;1.1662;
665.7000;0.7985;1.1686;
666.0000;0.7969;1.1662;
666.3000;0.7969;1.1614;
666.6000;0.7969;1.1638;
666.9000;0.7977;1.1638;
667.2000;0.7945;1.1662;
667.5000;0.7953;1.1638;
667.8000;0.7937;1.1589;
668.1000;0.7928;1.1589;
668.4000;0.7928;1.1589;
668.7000;0.7928;1.1517;
669.0000;0.7888;1.1444;
669.3000;0.7912;1.1444;
669.6000;0.7912;1.1371;
669.9000;0.7937;1.1395;
670.2000;0.7904;1.1274;
670.5000;0.7896;1.1298;
670.8000;0.7896;1.1395;
671.1000;0.7847;1.1323;
671.4000;0.7871;1.1395;
671.7000;0.7855;1.1420;
672.0000;0.7863;1.1517;
672.3000;0.7855;1.1541;
672.6000;0.7847;1.1492;
672.9000;0.7839;1.1517;
673.2000;0.7847;1.1589;
673.5000;0.7847;1.1662;
673.8000;0.7823;1.1589;
674.1000;0.7823;1.1565;
674.4000;0.7798;1.1565;
674.7000;0.7749;1.1492;
675.0000;0.7823;1.1662;
675.3000;0.7806;1.1614;
675.6000;0.7814;1.1662;
675.9000;0.7774;1.1589;
676.2000;0.7774;1.1662;
676.5000;0.7774;1.1589;
676.8000;0.7700;1.1444;
677.1000;0.7749;1.1565;
677.4000;0.7733;1.1468;
677.7000;0.7774;1.1565;
678.0000;0.7749;1.1468;
678.3000;0.7741;1.1565;
678.6000;0.7749;1.1638;
678.9000;0.7733;1.1614;
679.2000;0.7692;1.1541;
679.5000;0.7652;1.1347;
679.8000;0.7725;1.1541;
680.1000;0.7725;1.1444;
680.4000;0.7709;1.1395;
680.7000;0.7709;1.1371;
681.0000;0.7700;1.1395;
681.3000;0.7684;1.1298;
681.6000;0.7676;1.1298;
681.9000;0.7668;1.1323;
682.2000;0.7684;1.1371;
682.5000;0.7676;1.1395;
682.8000;0.7627;1.1323;
683.1000;0.7643;1.1468;
683.4000;0.7676;1.1420;
683.7000;0.7676;1.1444;
684.0000;0.7668;1.1420;
684.3000;0.7652;1.1468;
684.6000;0.7652;1.1517;
684.9000;0.7619;1.1468;
685.2000;0.7660;1.1541;
685.5000;0.7676;1.1589;
685.8000;0.7627;1.1395;
686.1000;0.7643;1.1395;
686.4000;0.7619;1.1323;
686.7000;0.7619;1.1347;
687.0000;0.7554;1.1201;
687.3000;0.7603;1.1298;
687.6000;0.7619;1.1298;
687.9000;0.7603;1.1274;
688.2000;0.7595;1.1250;
688.5000;0.7578;1.1226;
688.8000;0.7603;1.1250;
689.1000;0.7586;1.1226;
689.4000;0.7554;1.1080;
689.7000;0.7530;1.1032;
690.0000;0.7578;1.1226;
690.3000;0.7570;1.1298;
690.6000;0.7570;1.1298;
690.9000;0.7554;1.1323;
691.2000;0.7562;1.1371;
691.5000;0.7570;1.1347;
691.8000;0.7554;1.1323;
692.1000;0.7546;1.1250;
692.4000;0.7595;1.1395;
692.7000;0.7538;1.1323;
693.0000;0.7530;1.1298;
693.3000;0.7530;1.1274;
693.6000;0.7546;1.1298;
693.9000;0.7546;1.1250;
694.2000;0.7505;1.1226;
694.5000;0.7521;1.1298;
694.8000;0.7489;1.1298;
695.1000;0.7497;1.1298;
695.4000;0.7521;1.1298;
695.7000;0.7505;1.1250;
696.0000;0.7497;1.1250;
696.3000;0.7497;1.1298;
696.6000;0.7489;1.1298;
696.9000;0.7489;1.1274;
697.2000;0.7481;1.1250;
697.5000;0.7473;1.1274;
697.8000;0.7505;1.1371;
698.1000;0.7481;1.1298;
698.4000;0.7481;1.1347;
698.7000;0.7473;1.1420;
699.0000;0.7489;1.1371;
699.3000;0.7473;1.1420;
699.6000;0.7464;1.1468;
699.9000;0.7456;1.1371;
700.2000;0.7464;1.1444;
700.5000;0.7464;1.1444;
700.8000;0.7432;1.1492;
701.1000;0.7456;1.1589;
701.4000;0.7473;1.1589;
701.7000;0.7464;1.1638;
702.0000;0.7448;1.1638;
702.3000;0.7432;1.1541;
702.6000;0.7424;1.1492;
702.9000;0.7407;1.1517;
703.2000;0.7424;1.1565;
703.5000;0.7416;1.1468;
703.8000;0.7448;1.1541;
704.1000;0.7399;1.1420;
704.4000;0.7456;1.1541;
704.7000;0.7407;1.1420;
705.0000;0.7375;1.1420;
705.3000;0.7407;1.1517;
705.6000;0.7416;1.1517;
705.9000;0.7391;1.1468;
706.2000;0.7375;1.1420;
706.5000;0.7391;1.1565;
706.8000;0.7424;1.1711;
707.1000;0.7383;1.1541;
707.4000;0.7391;1.1565;
707.7000;0.7367;1.1541;
708.0000;0.7383;1.1686;
708.3000;0.7391;1.1759;
708.6000;0.7391;1.1783;
708.9000;0.7359;1.1614;
709.2000;0.7375;1.1711;
709.5000;0.7375;1.1735;
709.8000;0.7375;1.1711;
710.1000;0.7359;1.1638;
710.4000;0.7367;1.1541;
710.7000;0.7383;1.1589;
711.0000;0.7399;1.1589;
711.3000;0.7350;1.1541;
711.6000;0.7359;1.1541;
711.9000;0.7342;1.1468;
712.2000;0.7342;1.1492;
712.5000;0.7342;1.1468;
712.8000;0.7326;1.1420;
713.1000;0.7334;1.1371;
713.4000;0.7326;1.1347;
713.7000;0.7326;1.1395;
714.0000;0.7318;1.1420;
714.3000;0.7326;1.1468;
714.6000;0.7318;1.1541;
714.9000;0.7310;1.1541;
715.2000;0.7318;1.1614;
715.5000;0.7318;1.1589;
715.8000;0.7326;1.1614;
716.1000;0.7310;1.1541;
716.4000;0.7302;1.1517;
716.7000;0.7310;1.1541;
717.0000;0.7310;1.1541;
717.3000;0.7334;1.1589;
717.6000;0.7285;1.1589;
717.9000;0.7302;1.1662;
718.2000;0.7293;1.1686;
718.5000;0.7293;1.1565;
718.8000;0.7293;1.1589;
719.1000;0.7293;1.1565;
719.4000;0.7302;1.1565;
719.7000;0.7293;1.1541;
720.0000;0.7277;1.1492;
720.3000;0.7293;1.1565;
720.6000;0.7285;1.1444;
720.9000;0.7293;1.1468;
721.2000;0.7285;1.1420;
721.5000;0.7261;1.1323;
721.8000;0.7261;1.1468;
722.1000;0.7277;1.1492;
722.4000;0.7261;1.1444;
722.7000;0.7261;1.1444;
723.0000;0.7261;1.1444;
723.3000;0.7228;1.1395;
723.6000;0.7245;1.1444;
723.9000;0.7236;1.1395;
724.2000;0.7245;1.1420;
724.5000;0.7261;1.1492;
724.8000;0.7261;1.1517;
725.1000;0.7245;1.1541;
725.4000;0.7245;1.1517;
725.7000;0.7228;1.1492;
726.0000;0.7253;1.1492;
726.3000;0.7236;1.1395;
726.6000;0.7236;1.1444;
726.9000;0.7212;1.1395;
727.2000;0.7212;1.1420;
727.5000;0.7236;1.1541;
727.8000;0.7228;1.1517;
728.1000;0.7220;1.1517;
728.4000;0.7220;1.1517;
728.7000;0.7245;1.1541;
729.0000;0.7196;1.1492;
729.3000;0.7228;1.1517;
729.6000;0.7228;1.1468;
729.9000;0.7204;1.1395;
730.2000;0.7212;1.1517;
730.5000;0.7220;1.1589;
730.8000;0.7212;1.1589;
731.1000;0.7212;1.1614;
731.4000;0.7204;1.1565;
731.7000;0.7179;1.1468;
732.0000;0.7196;1.1541;
732.3000;0.7196;1.1444;
732.6000;0.7204;1.1420;
732.9000;0.7196;1.1492;
733.2000;0.7196;1.1541;
733.5000;0.7179;1.1541;
733.8000;0.7179;1.1589;
734.1000;0.7179;1.1589;
734.4000;0.7196;1.1589;
734.7000;0.7163;1.1468;
735.0000;0.7179;1.1589;
735.3000;0.7171;1.1614;
735.6000;0.7179;1.1638;
735.9000;0.7171;1.1614;
736.2000;0.7131;1.1492;
736.5000;0.7163;1.1468;
736.8000;0.7163;1.1420;
737.1000;0.7163;1.1371;
737.4000;0.7171;1.1492;
737.7000;0.7155;1.1492;
738.0000;0.7171;1.1589;
738.3000;0.7163;1.1589;
738.6000;0.7163;1.1565;
738.9000;0.7155;1.1517;
739.2000;0.7139;1.1468;
739.5000;0.7147;1.1565;
739.8000;0.7163;1.1589;
740.1000;0.7155;1.1565;
740.4000;0.7163;1.1614;
740.7000;0.7163;1.1638;
741.0000;0.7139;1.1614;
741.3000;0.7155;1.1686;
741.6000;0.7155;1.1662;
741.9000;0.7147;1.1541;
742.2000;0.7147;1.1565;
742.5000;0.7147;1.1565;
742.8000;0.7147;1.1589;
743.1000;0.7131;1.1589;
743.4000;0.7131;1.1517;
743.7000;0.7139;1.1541;
744.0000;0.7139;1.1517;
744.3000;0.7123;1.1420;
744.6000;0.7131;1.1492;
744.9000;0.7131;1.1468;
745.2000;0.7139;1.1492;
745.5000;0.7114;1.1395;
745.8000;0.7114;1.1323;
746.1000;0.7131;1.1395;
746.4000;0.7074;1.1298;
746.7000;0.7123;1.1444;
747.0000;0.7106;1.1420;
747.3000;0.7098;1.1371;
747.6000;0.7139;1.1468;
747.9000;0.7098;1.1347;
748.2000;0.7098;1.1492;
748.5000;0.7106;1.1444;
748.8000;0.7098;1.1444;
749.1000;0.7090;1.1517;
749.4000;0.7131;1.1541;
749.7000;0.7098;1.1565;
750.0000;0.7098;1.1541;
750.3000;0.7114;1.1589;
750.6000;0.7098;1.1638;
750.9000;0.7098;1.1589;
751.2000;0.7098;1.1541;
751.5000;0.7106;1.1565;
751.8000;0.7098;1.1638;
752.1000;0.7106;1.1589;
752.4000;0.7098;1.1492;
752.7000;0.7082;1.1565;
753.0000;0.7155;1.1808;
753.3000;0.7082;1.1638;
753.6000;0.7074;1.1638;
753.9000;0.7074;1.1662;
754.2000;0.7074;1.1565;
754.5000;0.7057;1.1468;
754.8000;0.7090;1.1541;
755.1000;0.7090;1.1517;
755.4000;0.7074;1.1541;
755.7000;0.7106;1.1614;
756.0000;0.7066;1.1492;
756.3000;0.7074;1.1517;
756.6000;0.7066;1.1565;
756.9000;0.7066;1.1517;
757.2000;0.7057;1.1468;
757.5000;0.7017;1.1395;
757.8000;0.7066;1.1541;
758.1000;0.7123;1.1541;
758.4000;0.7066;1.1371;
758.7000;0.7074;1.1371;
759.0000;0.7082;1.1395;
759.3000;0.7090;1.1444;
759.6000;0.7074;1.1395;
759.9000;0.7066;1.1298;
760.2000;0.7082;1.1444;
760.5000;0.7074;1.1420;
760.8000;0.7066;1.1395;
761.1000;0.7057;1.1298;
761.4000;0.7074;1.1298;
761.7000;0.7082;1.1371;
762.0000;0.7057;1.1371;
762.3000;0.7074;1.1420;
762.6000;0.7123;1.1589;
762.9000;0.7041;1.1492;
763.2000;0.7082;1.1541;
763.5000;0.7066;1.1638;
763.8000;0.7066;1.1565;
764.1000;0.7066;1.1541;
764.4000;0.7041;1.1492;
764.7000;0.7057;1.1492;
765.0000;0.7041;1.1444;
765.3000;0.7033;1.1468;
765.6000;0.7041;1.1468;
765.9000;0.7041;1.1420;
766.2000;0.7041;1.1395;
766.5000;0.7033;1.1444;
766.8000;0.7025;1.1444;
767.1000;0.7041;1.1468;
767.4000;0.7041;1.1444;
767.7000;0.7033;1.1517;
768.0000;0.7066;1.1589;
768.3000;0.7017;1.1541;
768.6000;0.7041;1.1589;
768.9000;0.7033;1.1541;
769.2000;0.7041;1.1589;
769.5000;0.7041;1.1614;
769.8000;0.6992;1.1517;
770.1000;0.7009;1.1565;
770.4000;0.7025;1.1492;
770.7000;0.7025;1.1492;
771.0000;0.7017;1.1517;
771.3000;0.6976;1.1371;
771.6000;0.7017;1.1371;
771.9000;0.7017;1.1492;
772.2000;0.7033;1.1565;
772.5000;0.7017;1.1614;
772.8000;0.7009;1.1638;
773.1000;0.7025;1.1711;
773.4000;0.7000;1.1614;
773.7000;0.6992;1.1614;
774.0000;0.7000;1.1614;
774.3000;0.7009;1.1662;
774.6000;0.7009;1.1614;
774.9000;0.6992;1.1565;
775.2000;0.7017;1.1589;
775.5000;0.7017;1.1565;
775.8000;0.7000;1.1541;
776.1000;0.7049;1.1686;
776.4000;0.6935;1.1444;
776.7000;0.7009;1.1686;
777.0000;0.7009;1.1686;
777.3000;0.7000;1.1589;
777.6000;0.6992;1.1492;
777.9000;0.6960;1.1274;
778.2000;0.7033;1.1468;
778.5000;0.7000;1.1468;
778.8000;0.7000;1.1420;
779.1000;0.7025;1.1517;
779.4000;0.6984;1.1468;
779.7000;0.6992;1.1444;
780.0000;0.6992;1.1420;
780.3000;0.6968;1.1395;
780.6000;0.6992;1.1541;
780.9000;0.6984;1.1517;
781.2000;0.6968;1.1492;
781.5000;0.6984;1.1395;
781.8000;0.6992;1.1468;
782.1000;0.6984;1.1468;
782.4000;0.6984;1.1468;
782.7000;0.6976;1.1468;
783.0000;0.6968;1.1541;
783.3000;0.6976;1.1589;
783.6000;0.6992;1.1662;
783.9000;0.6984;1.1565;
784.2000;0.6960;1.1517;
784.5000;0.6984;1.1517;
784.8000;0.6992;1.1541;
785.1000;0.6984;1.1468;
785.4000;0.6960;1.1444;
785.7000;0.6968;1.1444;
786.0000;0.7000;1.1589;
786.3000;0.6984;1.1638;
786.6000;0.6968;1.1759;
786.9000;0.6968;1.1783;
787.2000;0.6976;1.1759;
787.5000;0.6960;1.1808;
787.8000;0.6952;1.1808;
788.1000;0.6960;1.1735;
788.4000;0.6968;1.1662;
788.7000;0.6968;1.1686;
789.0000;0.6943;1.1711;
789.3000;0.6935;1.1662;
789.6000;0.6935;1.1662;
789.9000;0.6952;1.1686;
790.2000;0.6960;1.1638;
790.5000;0.6935;1.1565;
790.8000;0.6952;1.1565;
791.1000;0.6952;1.1517;
791.4000;0.6943;1.1468;
791.7000;0.6960;1.1492;
792.0000;0.6984;1.1614;
792.3000;0.6968;1.1638;
792.6000;0.6968;1.1711;
792.9000;0.6943;1.1735;
793.2000;0.6976;1.1832;
793.5000;0.6952;1.1735;
793.8000;0.6935;1.1686;
794.1000;0.6943;1.1686;
794.4000;0.6943;1.1686;
794.7000;0.6968;1.1662;
795.0000;0.6943;1.1686;
795.3000;0.6943;1.1686;
795.6000;0.6943;1.1686;
795.9000;0.6919;1.1614;
796.2000;0.6927;1.1589;
796.5000;0.6943;1.1638;
796.8000;0.6911;1.1614;
797.1000;0.6952;1.1711;
797.4000;0.6895;1.1492;
797.7000;0.6943;1.1662;
798.0000;0.6927;1.1517;
798.3000;0.6943;1.1541;
798.6000;0.6935;1.1565;
798.9000;0.7090;1.1905;
799.2000;0.6943;1.1614;
799.5000;0.6935;1.1614;
799.8000;0.6895;1.1444;
800.1000;0.6943;1.1589;
800.4000;0.6943;1.1662;
800.7000;0.6935;1.1686;
801.0000;0.6943;1.1759;
801.3000;0.6935;1.1759;
801.6000;0.6935;1.1711;
801.9000;0.6943;1.1735;
802.2000;0.6927;1.1686;
802.5000;0.6911;1.1589;
802.8000;0.6935;1.1638;
803.1000;0.6886;1.1420;
803.4000;0.6935;1.1517;
803.7000;0.6919;1.1589;
804.0000;0.6911;1.1638;
804.3000;0.6846;1.1420;
804.6000;0.6911;1.1517;
804.9000;0.6911;1.1614;
805.2000;0.6927;1.1638;
805.5000;0.6927;1.1565;
805.8000;0.6919;1.1468;
806.1000;0.6911;1.1492;
806.4000;0.6919;1.1517;
806.7000;0.6911;1.1589;
807.0000;0.6903;1.1565;
807.3000;0.6919;1.1565;
807.6000;0.6911;1.1541;
807.9000;0.6919;1.1638;
808.2000;0.6919;1.1638;
808.5000;0.6911;1.1589;
808.8000;0.6878;1.1492;
809.1000;0.6911;1.1589;
809.4000;0.6911;1.1686;
809.7000;0.6886;1.1711;
810.0000;0.6911;1.1759;
810.3000;0.6903;1.1711;
810.6000;0.6919;1.1759;
810.9000;0.6952;1.1856;
811.2000;0.6854;1.1662;
811.5000;0.6911;1.1759;
811.8000;0.6886;1.1686;
812.1000;0.6903;1.1589;
812.4000;0.6895;1.1614;
812.7000;0.6895;1.1686;
813.0000;0.6911;1.1711;
813.3000;0.6984;1.1783;
813.6000;0.6895;1.1565;
813.9000;0.6903;1.1492;
814.2000;0.6911;1.1662;
814.5000;0.6886;1.1565;
814.8000;0.6870;1.1589;
815.1000;0.6895;1.1565;
815.4000;0.6895;1.1589;
815.7000;0.6903;1.1662;
816.0000;0.6854;1.1541;
816.3000;0.6919;1.1662;
816.6000;0.6903;1.1614;
816.9000;0.6895;1.1589;
817.2000;0.6903;1.1638;
817.5000;0.6911;1.1565;
817.8000;0.6870;1.1541;
818.1000;0.6911;1.1638;
818.4000;0.6895;1.1589;
818.7000;0.6886;1.1541;
819.0000;0.6911;1.1662;
819.3000;0.6895;1.1638;
819.6000;0.6895;1.1589;
819.9000;0.6903;1.1638;
820.2000;0.6903;1.1565;
820.5000;0.6895;1.1541;
820.8000;0.6895;1.1565;
821.1000;0.6854;1.1541;
821.4000;0.6870;1.1589;
821.7000;0.6878;1.1589;
822.0000;0.6878;1.1589;
822.3000;0.6878;1.1468;
822.6000;0.6870;1.1517;
822.9000;0.6911;1.1638;
823.2000;0.6886;1.1468;
823.5000;0.6895;1.1420;
823.8000;0.6862;1.1444;
824.1000;0.6886;1.1517;
824.4000;0.6870;1.1541;
824.7000;0.6878;1.1517;
825.0000;0.6878;1.1468;
825.3000;0.6862;1.1395;
825.6000;0.6878;1.1468;
825.9000;0.6878;1.1468;
826.2000;0.6878;1.1468;
826.5000;0.6878;1.1371;
826.8000;0.6878;1.1371;
827.1000;0.6878;1.1371;
827.4000;0.6878;1.1347;
827.7000;0.6870;1.1323;
828.0000;0.6943;1.1517;
828.3000;0.6862;1.1250;
828.6000;0.6870;1.1274;
828.9000;0.6862;1.1347;
829.2000;0.6927;1.1541;
829.5000;0.6862;1.1371;
829.8000;0.6895;1.1395;
830.1000;0.6878;1.1226;
830.4000;0.6878;1.1250;
830.7000;0.6886;1.1274;
831.0000;0.6878;1.1274;
831.3000;0.6870;1.1371;
831.6000;0.6870;1.1395;
831.9000;0.6886;1.1444;
832.2000;0.6854;1.1420;
832.5000;0.6862;1.1371;
832.8000;0.6870;1.1395;
833.1000;0.6886;1.1444;
833.4000;0.6797;1.1250;
833.7000;0.6846;1.1468;
834.0000;0.6846;1.1468;
834.3000;0.6886;1.1468;
834.6000;0.6862;1.1347;
834.9000;0.6862;1.1347;
835.2000;0.6911;1.1517;
835.5000;0.6846;1.1347;
835.8000;0.6854;1.1371;
836.1000;0.6862;1.1444;
836.4000;0.6854;1.1468;
836.7000;0.6854;1.1492;
837.0000;0.6862;1.1517;
837.3000;0.6846;1.1420;
837.6000;0.6854;1.1492;
837.9000;0.6854;1.1395;
838.2000;0.6846;1.1492;
838.5000;0.6854;1.1492;
838.8000;0.6854;1.1565;
839.1000;0.6862;1.1711;
839.4000;0.6862;1.1735;
839.7000;0.6854;1.1638;
840.0000;0.6829;1.1541;
840.3000;0.6854;1.1589;
840.6000;0.6829;1.1638;
840.9000;0.6870;1.1735;
841.2000;0.6846;1.1662;
841.5000;0.6846;1.1565;
841.8000;0.6862;1.1565;
842.1000;0.6854;1.1565;
842.4000;0.6862;1.1589;
842.7000;0.6846;1.1541;
843.0000;0.6854;1.1492;
843.3000;0.6862;1.1517;
843.6000;0.6854;1.1444;
843.9000;0.6862;1.1395;
844.2000;0.6829;1.1298;
844.5000;0.6870;1.1468;
844.8000;0.6846;1.1395;
845.1000;0.6829;1.1347;
845.4000;0.6846;1.1371;
845.7000;0.6781;1.1201;
846.0000;0.6846;1.1347;
846.3000;0.6838;1.1468;
846.6000;0.6846;1.1468;
846.9000;0.6829;1.1444;
847.2000;0.6838;1.1323;
847.5000;0.6838;1.1298;
847.8000;0.6829;1.1226;
848.1000;0.6838;1.1250;
848.4000;0.6829;1.1274;
848.7000;0.6838;1.1371;
849.0000;0.6846;1.1468;
849.3000;0.6829;1.1517;
849.6000;0.6821;1.1589;
849.9000;0.6829;1.1565;
850.2000;0.6813;1.1541;
850.5000;0.6789;1.1420;
850.8000;0.6829;1.1541;
851.1000;0.6821;1.1517;
851.4000;0.6829;1.1492;
851.7000;0.6862;1.1589;
852.0000;0.6838;1.1541;
852.3000;0.6846;1.1517;
852.6000;0.6846;1.1517;
852.9000;0.6813;1.1517;
853.2000;0.6821;1.1492;
853.5000;0.6854;1.1444;
853.8000;0.6846;1.1420;
854.1000;0.6846;1.1420;
854.4000;0.6829;1.1395;
854.7000;0.6821;1.1323;
855.0000;0.6821;1.1371;
855.3000;0.6813;1.1444;
855.6000;0.6821;1.1371;
855.9000;0.6829;1.1395;
856.2000;0.6854;1.1492;
856.5000;0.6829;1.1492;
856.8000;0.6862;1.1614;
857.1000;0.6821;1.1589;
857.4000;0.6895;1.1735;
857.7000;0.6805;1.1614;
858.0000;0.6821;1.1662;
858.3000;0.6829;1.1662;
858.6000;0.6821;1.1686;
858.9000;0.6838;1.1759;
859.2000;0.6797;1.1686;
859.5000;0.6805;1.1686;
859.8000;0.6838;1.1735;
860.1000;0.6829;1.1759;
860.4000;0.6821;1.1783;
860.7000;0.6781;1.1686;
861.0000;0.6813;1.1711;
861.3000;0.6821;1.1686;
861.6000;0.6805;1.1565;
861.9000;0.6805;1.1589;
862.2000;0.6805;1.1686;
862.5000;0.6829;1.1759;
862.8000;0.6797;1.1614;
863.1000;0.6813;1.1565;
863.4000;0.6829;1.1517;
863.7000;0.6854;1.1686;
864.0000;0.6813;1.1614;
864.3000;0.6821;1.1614;
864.6000;0.6821;1.1614;
864.9000;0.6821;1.1614;
865.2000;0.6821;1.1686;
865.5000;0.6781;1.1662;
865.8000;0.6821;1.1735;
866.1000;0.6772;1.1662;
866.4000;0.6805;1.1759;
866.7000;0.6813;1.1808;
867.0000;0.6797;1.1783;
867.3000;0.6813;1.1759;
867.6000;0.6813;1.1832;
867.9000;0.6797;1.1783;
868.2000;0.6821;1.1880;
868.5000;0.6797;1.1759;
868.8000;0.6797;1.1735;
869.1000;0.6797;1.1662;
869.4000;0.6805;1.1638;
869.7000;0.6805;1.1686;
870.0000;0.6813;1.1711;
870.3000;0.6813;1.1808;
870.6000;0.6813;1.1808;
870.9000;0.6805;1.1759;
871.2000;0.6805;1.1662;
871.5000;0.6813;1.1662;
871.8000;0.6813;1.1735;
872.1000;0.6854;1.1929;
872.4000;0.6797;1.1856;
872.7000;0.6805;1.1880;
873.0000;0.6756;1.1686;
873.3000;0.6805;1.1808;
873.6000;0.6813;1.1832;
873.9000;0.6797;1.1735;
874.2000;0.6829;1.1856;
874.5000;0.6764;1.1686;
874.8000;0.6846;1.1808;
875.1000;0.6772;1.1638;
875.4000;0.6789;1.1614;
875.7000;0.6789;1.1589;
876.0000;0.6789;1.1517;
876.3000;0.6797;1.1589;
876.6000;0.6805;1.1638;
876.9000;0.6797;1.1589;
877.2000;0.6805;1.1638;
877.5000;0.6797;1.1589;
877.8000;0.6797;1.1589;
878.1000;0.6789;1.1517;
878.4000;0.6781;1.1541;
878.7000;0.6838;1.1711;
879.0000;0.6797;1.1638;
879.3000;0.6813;1.1686;
879.6000;0.6789;1.1638;
879.9000;0.6805;1.1711;
880.2000;0.6781;1.1589;
880.5000;0.6805;1.1589;
880.8000;0.6813;1.1638;
881.1000;0.6789;1.1589;
881.4000;0.6789;1.1662;
881.7000;0.6805;1.1759;
882.0000;0.6732;1.1541;
882.3000;0.6748;1.1638;
882.6000;0.6748;1.1759;
882.9000;0.6781;1.1783;
883.2000;0.6764;1.1808;
883.5000;0.6781;1.1808;
883.8000;0.6789;1.1832;
884.1000;0.6772;1.1808;
884.4000;0.6781;1.1808;
884.7000;0.6789;1.1832;
885.0000;0.6781;1.1856;
885.3000;0.6772;1.1686;
885.6000;0.6764;1.1711;
885.9000;0.6797;1.1735;
886.2000;0.6789;1.1686;
886.5000;0.6789;1.1759;
886.8000;0.6781;1.1686;
887.1000;0.6781;1.1711;
887.4000;0.6781;1.1589;
887.7000;0.6781;1.1638;
888.0000;0.6838;1.1783;
888.3000;0.6764;1.1662;
888.6000;0.6789;1.1735;
888.9000;0.6764;1.1711;
889.2000;0.6781;1.1832;
889.5000;0.6772;1.1832;
889.8000;0.6772;1.1929;
890.1000;0.6748;1.1905;
890.4000;0.6740;1.1880;
890.7000;0.6781;1.2002;
891.0000;0.6772;1.2002;
891.3000;0.6829;1.2074;
891.6000;0.6781;1.1905;
891.9000;0.6829;1.2074;
892.2000;0.6772;1.1856;
892.5000;0.6781;1.1808;
892.8000;0.6764;1.1856;
893.1000;0.6781;1.1905;
893.4000;0.6781;1.1929;
893.7000;0.6772;1.1832;
894.0000;0.6756;1.1711;
894.3000;0.6772;1.1783;
894.6000;0.6772;1.1808;
894.9000;0.6781;1.1880;
895.2000;0.6756;1.1856;
895.5000;0.6756;1.1856;
895.8000;0.6772;1.1880;
896.1000;0.6772;1.1808;
896.4000;0.6781;1.1759;
896.7000;0.6781;1.1614;
897.0000;0.6740;1.1614;
897.3000;0.6764;1.1662;
897.6000;0.6724;1.1395;
897.9000;0.6756;1.1468;
898.2000;0.6772;1.1541;
898.5000;0.6756;1.1517;
898.8000;0.6764;1.1638;
899.1000;0.6772;1.1614;
899.4000;0.6756;1.1589;
899.7000;0.6772;1.1638;
900.0000;0.6764;1.1589;
900.3000;0.6781;1.1614;
900.6000;0.6797;1.1614;
900.9000;0.6756;1.1565;
901.2000;0.6772;1.1517;
901.5000;0.6756;1.1492;
901.8000;0.6756;1.1541;
902.1000;0.6764;1.1517;
902.4000;0.6781;1.1662;
902.7000;0.6764;1.1662;
903.0000;0.6764;1.1735;
903.3000;0.6772;1.1783;
903.6000;0.6764;1.1711;
903.9000;0.6772;1.1832;
904.2000;0.6756;1.1856;
904.5000;0.6756;1.1856;
904.8000;0.6781;1.1929;
905.1000;0.6756;1.1880;
905.4000;0.6764;1.1832;
905.7000;0.6789;1.1832;
906.0000;0.6772;1.1808;
906.3000;0.6781;1.1832;
906.6000;0.6764;1.1832;
906.9000;0.6748;1.1783;
907.2000;0.6781;1.1808;
907.5000;0.6764;1.1808;
907.8000;0.6732;1.1856;
908.1000;0.6740;1.1808;
908.4000;0.6756;1.1808;
908.7000;0.6748;1.1832;
909.0000;0.6756;1.1832;
909.3000;0.6740;1.1880;
909.6000;0.6764;1.1905;
909.9000;0.6756;1.1856;
910.2000;0.6764;1.1783;
910.5000;0.6764;1.1759;
910.8000;0.6821;1.1977;
911.1000;0.6748;1.1832;
911.4000;0.6781;1.1905;
911.7000;0.6805;1.2002;
912.0000;0.6716;1.1808;
912.3000;0.6772;1.1953;
912.6000;0.6740;1.1856;
912.9000;0.6732;1.1808;
913.2000;0.6748;1.1905;
913.5000;0.6764;1.1880;
913.8000;0.6748;1.1856;
914.1000;0.6716;1.1832;
914.4000;0.6781;1.2026;
914.7000;0.6740;1.1953;
915.0000;0.6748;1.1929;
915.3000;0.6764;1.1856;
915.6000;0.6748;1.1929;
915.9000;0.6764;1.1929;
916.2000;0.6764;1.1977;
916.5000;0.6740;1.2050;
916.8000;0.6748;1.1929;
917.1000;0.6740;1.1880;
917.4000;0.6724;1.1880;
917.7000;0.6748;1.1808;
918.0000;0.6740;1.1735;
918.3000;0.6740;1.1711;
918.6000;0.6732;1.1686;
918.9000;0.6748;1.1638;
919.2000;0.6740;1.1614;
919.5000;0.6748;1.1638;
919.8000;0.6748;1.1614;
920.1000;0.6756;1.1614;
920.4000;0.6756;1.1614;
920.7000;0.6748;1.1662;
921.0000;0.6699;1.1541;
921.3000;0.6756;1.1638;
921.6000;0.6748;1.1638;
921.9000;0.6756;1.1541;
922.2000;0.6748;1.1517;
922.5000;0.6764;1.1589;
922.8000;0.6748;1.1565;
923.1000;0.6740;1.1565;
923.4000;0.6740;1.1638;
923.7000;0.6748;1.1638;
924.0000;0.6732;1.1638;
924.3000;0.6732;1.1541;
924.6000;0.6772;1.1638;
924.9000;0.6740;1.1662;
925.2000;0.6756;1.1808;
925.5000;0.6740;1.1783;
925.8000;0.6740;1.1808;
926.1000;0.6748;1.1905;
926.4000;0.6740;1.1880;
926.7000;0.6740;1.1929;
927.0000;0.6748;1.2002;
927.3000;0.6789;1.2123;
927.6000;0.6748;1.2050;
927.9000;0.6748;1.2147;
928.2000;0.6772;1.2123;
928.5000;0.6732;1.2002;
928.8000;0.6748;1.1929;
929.1000;0.6764;1.2050;
929.4000;0.6724;1.1880;
929.7000;0.6724;1.1880;
930.0000;0.6740;1.1832;
930.3000;0.6707;1.1783;
930.6000;0.6740;1.1905;
930.9000;0.6748;1.1905;
931.2000;0.6732;1.1856;
931.5000;0.6748;1.1856;
931.8000;0.6707;1.1735;
932.1000;0.6732;1.1808;
932.4000;0.6691;1.1735;
932.7000;0.6740;1.1880;
933.0000;0.6740;1.1905;
933.3000;0.6716;1.1929;
933.6000;0.6772;1.2074;
933.9000;0.6764;1.2050;
934.2000;0.6740;1.1953;
934.5000;0.6740;1.1929;
934.8000;0.6764;1.2002;
935.1000;0.6724;1.2002;
935.4000;0.6772;1.2147;
935.7000;0.6740;1.2026;
936.0000;0.6707;1.2002;
936.3000;0.6732;1.2050;
936.6000;0.6772;1.2002;
936.9000;0.6699;1.1856;
937.2000;0.6732;1.1977;
937.5000;0.6716;1.1832;
937.8000;0.6748;1.1856;
938.1000;0.6732;1.1808;
938.4000;0.6716;1.1856;
938.7000;0.6772;1.1953;
939.0000;0.6724;1.1856;
939.3000;0.6716;1.1783;
939.6000;0.6691;1.1589;
939.9000;0.6732;1.1638;
940.2000;0.6724;1.1638;
940.5000;0.6740;1.1638;
940.8000;0.6716;1.1662;
941.1000;0.6724;1.1735;
941.4000;0.6732;1.1856;
941.7000;0.6683;1.1711;
942.0000;0.6716;1.1832;
942.3000;0.6724;1.1808;
942.6000;0.6740;1.1808;
942.9000;0.6789;1.1856;
943.2000;0.6740;1.1711;
943.5000;0.6724;1.1638;
943.8000;0.6716;1.1565;
944.1000;0.6707;1.1517;
944.4000;0.6732;1.1541;
944.7000;0.6732;1.1565;
945.0000;0.6716;1.1492;
945.3000;0.6724;1.1517;
945.6000;0.6699;1.1517;
945.9000;0.6716;1.1614;
946.2000;0.6699;1.1638;
946.5000;0.6724;1.1783;
946.8000;0.6675;1.1686;
947.1000;0.6732;1.1783;
947.4000;0.6724;1.1808;
947.7000;0.6724;1.1808;
948.0000;0.6732;1.1759;
948.3000;0.6748;1.1832;
948.6000;0.6805;1.2026;
948.9000;0.6716;1.1759;
949.2000;0.6724;1.1808;
949.5000;0.6740;1.1856;
949.8000;0.6707;1.1880;
950.1000;0.6764;1.2026;
950.4000;0.6707;1.1953;
950.7000;0.6724;1.1977;
951.0000;0.6756;1.2002;
951.3000;0.6724;1.1929;
951.6000;0.6707;1.1905;
951.9000;0.6724;1.2002;
952.2000;0.6724;1.2002;
952.5000;0.6707;1.1905;
952.8000;0.6724;1.1880;
953.1000;0.6732;1.1977;
953.4000;0.6740;1.2050;
953.7000;0.6642;1.1759;
954.0000;0.6716;1.1953;
954.3000;0.6732;1.1953;
954.6000;0.6724;1.1905;
954.9000;0.6707;1.1783;
955.2000;0.6691;1.1759;
955.5000;0.6707;1.1832;
955.8000;0.6707;1.1905;
956.1000;0.6707;1.2026;
956.4000;0.6707;1.2026;
956.7000;0.6707;1.2099;
957.0000;0.6707;1.2026;
957.3000;0.6707;1.1953;
957.6000;0.6707;1.2026;
957.9000;0.6683;1.2074;
958.2000;0.6707;1.2099;
958.5000;0.6667;1.1953;
958.8000;0.6699;1.2074;
959.1000;0.6724;1.2123;
959.4000;0.6707;1.2099;
959.7000;0.6699;1.2002;
960.0000;0.6699;1.1977;
960.3000;0.6732;1.1977;
960.6000;0.6699;1.1929;
960.9000;0.6716;1.1953;
961.2000;0.6716;1.1953;
961.5000;0.6716;1.1929;
961.8000;0.6716;1.1880;
962.1000;0.6707;1.1929;
962.4000;0.6699;1.1929;
962.7000;0.6675;1.1905;
963.0000;0.6691;1.1953;
963.3000;0.6699;1.1953;
963.6000;0.6707;1.2002;
963.9000;0.6691;1.1880;
964.2000;0.6699;1.1905;
964.5000;0.6724;1.1977;
964.8000;0.6691;1.1905;
965.1000;0.6724;1.2002;
965.4000;0.6707;1.1953;
965.7000;0.6732;1.2074;
966.0000;0.6699;1.2002;
966.3000;0.6691;1.2002;
966.6000;0.6699;1.1929;
966.9000;0.6707;1.1929;
967.2000;0.6724;1.2002;
967.5000;0.6699;1.1977;
967.8000;0.6716;1.1977;
968.1000;0.6699;1.1880;
968.4000;0.6716;1.1832;
968.7000;0.6724;1.1953;
969.0000;0.6691;1.1856;
969.3000;0.6740;1.2050;
969.6000;0.6707;1.2002;
969.9000;0.6716;1.1880;
970.2000;0.6707;1.1905;
970.5000;0.6699;1.1808;
970.8000;0.6716;1.1808;
971.1000;0.6724;1.1783;
971.4000;0.6707;1.1808;
971.7000;0.6707;1.1856;
972.0000;0.6716;1.1905;
972.3000;0.6699;1.1832;
972.6000;0.6699;1.1880;
972.9000;0.6716;1.1929;
973.2000;0.6699;1.1880;
973.5000;0.6707;1.1905;
973.8000;0.6724;1.1880;
974.1000;0.6716;1.1880;
974.4000;0.6699;1.1783;
974.7000;0.6699;1.1808;
975.0000;0.6691;1.1735;
975.3000;0.6716;1.1686;
975.6000;0.6699;1.1638;
975.9000;0.6691;1.1783;
976.2000;0.6691;1.1856;
976.5000;0.6716;1.2002;
976.8000;0.6683;1.1929;
977.1000;0.6740;1.2002;
977.4000;0.6756;1.2002;
977.7000;0.6699;1.1856;
978.0000;0.6756;1.2002;
978.3000;0.6707;1.1808;
978.6000;0.6764;1.1977;
978.9000;0.6699;1.1832;
979.2000;0.6699;1.1856;
979.5000;0.6642;1.1711;
979.8000;0.6683;1.1808;
980.1000;0.6707;1.1832;
980.4000;0.6667;1.1783;
980.7000;0.6716;1.1880;
981.0000;0.6675;1.1808;
981.3000;0.6691;1.1759;
981.6000;0.6707;1.1759;
981.9000;0.6691;1.1711;
982.2000;0.6699;1.1832;
982.5000;0.6707;1.1808;
982.8000;0.6699;1.1735;
983.1000;0.6707;1.1832;
983.4000;0.6707;1.1856;
983.7000;0.6707;1.1905;
984.0000;0.6691;1.1905;
984.3000;0.6707;1.1905;
984.6000;0.6691;1.1783;
984.9000;0.6675;1.1783;
985.2000;0.6707;1.1832;
985.5000;0.6699;1.1808;
985.8000;0.6699;1.1759;
986.1000;0.6691;1.1783;
986.4000;0.6691;1.1735;
986.7000;0.6691;1.1686;
987.0000;0.6724;1.1856;
987.3000;0.6683;1.1759;
987.6000;0.6691;1.1759;
987.9000;0.6699;1.1832;
988.2000;0.6683;1.1832;
988.5000;0.6683;1.1905;
988.8000;0.6707;1.1929;
989.1000;0.6691;1.1929;
989.4000;0.6691;1.1905;
989.7000;0.6667;1.1832;
990.0000;0.6683;1.1856;
990.3000;0.6675;1.1856;
990.6000;0.6675;1.1856;
990.9000;0.6683;1.1808;
991.2000;0.6659;1.1832;
991.5000;0.6659;1.1808;
991.8000;0.6699;1.1832;
992.1000;0.6683;1.1880;
992.4000;0.6707;1.1880;
992.7000;0.6667;1.1808;
993.0000;0.6699;1.1929;
993.3000;0.6699;1.1905;
993.6000;0.6683;1.1783;
993.9000;0.6691;1.1880;
994.2000;0.6683;1.1856;
994.5000;0.6724;1.1929;
994.8000;0.6683;1.1808;
995.1000;0.6675;1.1759;
995.4000;0.6716;1.1783;
995.7000;0.6683;1.1735;
996.0000;0.6691;1.1808;
996.3000;0.6691;1.1783;
996.6000;0.6675;1.1711;
996.9000;0.6716;1.1783;
997.2000;0.6691;1.1735;
997.5000;0.6667;1.1759;
997.8000;0.6691;1.1905;
998.1000;0.6716;1.1929;
998.4000;0.6659;1.1832;
998.7000;0.6675;1.1880;
999.0000;0.6683;1.1880;
999.3000;0.6699;1.1905;
999.6000;0.6675;1.1880;
999.9000;0.6675;1.1856;
1000.2000;0.6683;1.1832;
1000.5000;0.6667;1.1856;
1000.8000;0.6667;1.1832;
1001.1000;0.6675;1.1905;
1001.4000;0.6691;1.1832;
1001.7000;0.6667;1.1686;
1002.0000;0.6683;1.1783;
1002.3000;0.6659;1.1759;
1002.6000;0.6724;1.1929;
1002.9000;0.6683;1.1856;
1003.2000;0.6683;1.1832;
1003.5000;0.6675;1.1808;
1003.8000;0.6667;1.1759;
1004.1000;0.6650;1.1783;
1004.4000;0.6642;1.1735;
1004.7000;0.6699;1.1832;
1005.0000;0.6659;1.1783;
1005.3000;0.6650;1.1832;
1005.6000;0.6675;1.1905;
1005.9000;0.6699;1.1880;
1006.2000;0.6634;1.1856;
1006.5000;0.6667;1.1929;
1006.8000;0.6642;1.1880;
1007.1000;0.6683;1.2002;
1007.4000;0.6650;1.1929;
1007.7000;0.6667;1.1929;
1008.0000;0.6667;1.1977;
1008.3000;0.6716;1.2002;
1008.6000;0.6691;1.1977;
1008.9000;0.6683;1.1953;
1009.2000;0.6683;1.1905;
1009.5000;0.6675;1.1856;
1009.8000;0.6675;1.1783;
1010.1000;0.6675;1.1856;
1010.4000;0.6667;1.1808;
1010.7000;0.6667;1.1880;
1011.0000;0.6650;1.1856;
1011.3000;0.6683;1.1905;
1011.6000;0.6675;1.1953;
1011.9000;0.6659;1.1783;
1012.2000;0.6675;1.1759;
1012.5000;0.6667;1.1808;
1012.8000;0.6675;1.1880;
1013.1000;0.6732;1.2147;
1013.4000;0.6675;1.2074;
1013.7000;0.6675;1.2074;
1014.0000;0.6626;1.1856;
1014.3000;0.6683;1.1977;
1014.6000;0.6667;1.1953;
1014.9000;0.6675;1.2002;
1015.2000;0.6650;1.1953;
1015.5000;0.6667;1.2026;
1015.8000;0.6691;1.2050;
1016.1000;0.6683;1.1977;
1016.4000;0.6667;1.1905;
1016.7000;0.6667;1.1905;
1017.0000;0.6667;1.1905;
1017.3000;0.6675;1.1977;
1017.6000;0.6675;1.2050;
1017.9000;0.6683;1.2123;
1018.2000;0.6675;1.2123;
1018.5000;0.6683;1.2074;
1018.8000;0.6675;1.2026;
1019.1000;0.6675;1.1977;
1019.4000;0.6683;1.1977;
1019.7000;0.6650;1.1832;
1020.0000;0.6667;1.1808;
1020.3000;0.6675;1.1686;
1020.6000;0.6683;1.1880;
1020.9000;0.6634;1.1759;
1021.2000;0.6675;1.1832;
1021.5000;0.6642;1.1783;
1021.8000;0.6659;1.1905;
1022.1000;0.6667;1.1929;
1022.4000;0.6667;1.1905;
1022.7000;0.6675;1.2026;
1023.0000;0.6650;1.2026;
1023.3000;0.6667;1.2050;
1023.6000;0.6683;1.2026;
1023.9000;0.6683;1.2026;
1024.2000;0.6618;1.1977;
1024.5000;0.6650;1.2026;
1024.8000;0.6675;1.2099;
1025.1000;0.6675;1.2026;
1025.4000;0.6667;1.1880;
1025.7000;0.6659;1.1905;
1026.0000;0.6667;1.1905;
1026.3000;0.6675;1.1953;
1026.6000;0.6659;1.1856;
1026.9000;0.6667;1.1856;
1027.2000;0.6667;1.1880;
1027.5000;0.6683;1.1953;
1027.8000;0.6667;1.1953;
1028.1000;0.6642;1.1856;
1028.4000;0.6659;1.1977;
1028.7000;0.6659;1.1929;
1029.0000;0.6667;1.1953;
1029.3000;0.6675;1.2002;
1029.6000;0.6691;1.2074;
1029.9000;0.6683;1.2050;
1030.2000;0.6659;1.1977;
1030.5000;0.6642;1.1977;
1030.8000;0.6667;1.2002;
1031.1000;0.6659;1.2002;
1031.4000;0.6634;1.1929;
1031.7000;0.6667;1.1953;
1032.0000;0.6659;1.1977;
1032.3000;0.6667;1.2002;
1032.6000;0.6683;1.2123;
1032.9000;0.6691;1.2050;
1033.2000;0.6650;1.1905;
1033.5000;0.6667;1.1856;
1033.8000;0.6650;1.1856;
1034.1000;0.6732;1.1977;
1034.4000;0.6650;1.1783;
1034.7000;0.6667;1.1856;
1035.0000;0.6732;1.2147;
1035.3000;0.6659;1.2026;
1035.6000;0.6642;1.2074;
1035.9000;0.6650;1.2099;
1036.2000;0.6675;1.2147;
1036.5000;0.6650;1.2099;
1036.8000;0.6650;1.1977;
1037.1000;0.6659;1.1977;
1037.4000;0.6650;1.1856;
1037.7000;0.6675;1.1880;
1038.0000;0.6659;1.1783;
1038.3000;0.6642;1.1711;
1038.6000;0.6650;1.1686;
1038.9000;0.6642;1.1565;
1039.2000;0.6691;1.1662;
1039.5000;0.6667;1.1517;
1039.8000;0.6675;1.1614;
1040.1000;0.6667;1.1711;
1040.4000;0.6691;1.1711;
1040.7000;0.6659;1.1711;
1041.0000;0.6667;1.1783;
1041.3000;0.6659;1.1953;
1041.6000;0.6650;1.2026;
1041.9000;0.6659;1.2026;
1042.2000;0.6667;1.2002;
1042.5000;0.6650;1.1880;
1042.8000;0.6634;1.1832;
1043.1000;0.6618;1.1735;
1043.4000;0.6642;1.1880;
1043.7000;0.6699;1.2002;
1044.0000;0.6650;1.1832;
1044.3000;0.6650;1.1759;
1044.6000;0.6675;1.1832;
1044.9000;0.6650;1.1783;
1045.2000;0.6659;1.1880;
1045.5000;0.6691;1.1929;
1045.8000;0.6699;1.1929;
1046.1000;0.6610;1.1759;
1046.4000;0.6667;1.1905;
1046.7000;0.6683;1.1953;
1047.0000;0.6626;1.1832;
1047.3000;0.6667;1.1905;
1047.6000;0.6650;1.1929;
1047.9000;0.6659;1.1929;
1048.2000;0.6667;1.1832;
1048.5000;0.6667;1.1783;
1048.8000;0.6667;1.1808;
1049.1000;0.6667;1.1856;
1049.4000;0.6642;1.1832;
1049.7000;0.6667;1.1880;
1050.0000;0.6650;1.1856;
1050.3000;0.6650;1.1856;
1050.6000;0.6667;1.1905;
1050.9000;0.6675;1.1929;
1051.2000;0.6667;1.1929;
1051.5000;0.6650;1.1856;
1051.8000;0.6659;1.1880;
1052.1000;0.6642;1.1783;
1052.4000;0.6659;1.1880;
1052.7000;0.6675;1.1905;
1053.0000;0.6667;1.1832;
1053.3000;0.6659;1.1735;
1053.6000;0.6634;1.1589;
1053.9000;0.6650;1.1589;
1054.2000;0.6650;1.1589;
1054.5000;0.6699;1.1759;
1054.8000;0.6683;1.1783;
1055.1000;0.6667;1.1711;
1055.4000;0.6667;1.1832;
1055.7000;0.6650;1.1808;
1056.0000;0.6650;1.1856;
1056.3000;0.6626;1.1856;
1056.6000;0.6675;1.1953;
1056.9000;0.6667;1.1977;
1057.2000;0.6650;1.1929;
1057.5000;0.6650;1.1929;
1057.8000;0.6626;1.1808;
1058.1000;0.6650;1.1880;
1058.4000;0.6642;1.1856;
1058.7000;0.6748;1.2074;
1059.0000;0.6642;1.1783;
1059.3000;0.6650;1.1783;
1059.6000;0.6667;1.1832;
1059.9000;0.6650;1.1783;
1060.2000;0.6659;1.1832;
1060.5000;0.6667;1.1905;
1060.8000;0.6659;1.1929;
1061.1000;0.6650;1.1929;
1061.4000;0.6650;1.1953;
1061.7000;0.6659;1.1880;
1062.0000;0.6667;1.1711;
1062.3000;0.6650;1.1711;
1062.6000;0.6602;1.1711;
1062.9000;0.6659;1.1953;
1063.2000;0.6659;1.2026;
1063.5000;0.6642;1.2002;
1063.8000;0.6626;1.1977;
1064.1000;0.6626;1.2026;
1064.4000;0.6650;1.2123;
1064.7000;0.6659;1.2074;
1065.0000;0.6650;1.2171;
1065.3000;0.6659;1.2171;
1065.6000;0.6659;1.2147;
1065.9000;0.6683;1.2220;
1066.2000;0.6650;1.2099;
1066.5000;0.6650;1.2050;
1066.8000;0.6626;1.1953;
1067.1000;0.6667;1.2026;
1067.4000;0.6667;1.1953;
1067.7000;0.6707;1.2074;
1068.0000;0.6626;1.2026;
1068.3000;0.6634;1.2002;
1068.6000;0.6659;1.2002;
1068.9000;0.6675;1.2099;
1069.2000;0.6634;1.1832;
1069.5000;0.6675;1.1905;
1069.8000;0.6626;1.1856;
1070.1000;0.6650;1.1929;
1070.4000;0.6642;1.1905;
1070.7000;0.6659;1.2002;
1071.0000;0.6642;1.1929;
1071.3000;0.6642;1.1977;
1071.6000;0.6618;1.1905;
1071.9000;0.6618;1.1711;
1072.2000;0.6650;1.1832;
1072.5000;0.6642;1.1905;
1072.8000;0.6634;1.1880;
1073.1000;0.6626;1.1880;
1073.4000;0.6642;1.2026;
1073.7000;0.6626;1.2026;
1074.0000;0.6642;1.1977;
1074.3000;0.6626;1.2002;
1074.6000;0.6618;1.1929;
1074.9000;0.6642;1.1929;
1075.2000;0.6650;1.1929;
1075.5000;0.6618;1.1905;
1075.8000;0.6642;1.1929;
1076.1000;0.6659;1.1953;
1076.4000;0.6650;1.1929;
1076.7000;0.6634;1.1856;
1077.0000;0.6650;1.1856;
1077.3000;0.6659;1.1808;
1077.6000;0.6659;1.1856;
1077.9000;0.6650;1.1929;
1078.2000;0.6659;1.1905;
1078.5000;0.6642;1.1856;
1078.8000;0.6642;1.1880;
1079.1000;0.6626;1.1880;
1079.4000;0.6634;1.1856;
1079.7000;0.6618;1.1711;
1080.0000;0.6626;1.1783;
1080.3000;0.6642;1.1856;
1080.6000;0.6618;1.1686;
1080.9000;0.6642;1.1711;
1081.2000;0.6634;1.1686;
1081.5000;0.6634;1.1711;
1081.8000;0.6634;1.1711;
1082.1000;0.6618;1.1638;
1082.4000;0.6650;1.1759;
1082.7000;0.6659;1.1832;
1083.0000;0.6585;1.1638;
1083.3000;0.6691;1.1905;
1083.6000;0.6650;1.1880;
1083.9000;0.6642;1.1880;
1084.2000;0.6618;1.1832;
1084.5000;0.6642;1.1905;
1084.8000;0.6626;1.1929;
1085.1000;0.6634;1.1856;
1085.4000;0.6634;1.1905;
1085.7000;0.6626;1.1905;
1086.0000;0.6667;1.2026;
1086.3000;0.6650;1.1856;
1086.6000;0.6667;1.1832;
1086.9000;0.6634;1.1711;
1087.2000;0.6650;1.1638;
1087.5000;0.6642;1.1686;
1087.8000;0.6650;1.1808;
1088.1000;0.6618;1.1759;
1088.4000;0.6634;1.1808;
1088.7000;0.6650;1.1880;
1089.0000;0.6642;1.1808;
1089.3000;0.6634;1.1759;
1089.6000;0.6618;1.1735;
1089.9000;0.6642;1.1808;
1090.2000;0.6634;1.1735;
1090.5000;0.6618;1.1711;
1090.8000;0.6610;1.1662;
1091.1000;0.6634;1.1759;
1091.4000;0.6634;1.1832;
1091.7000;0.6650;1.1856;
1092.0000;0.6634;1.1856;
1092.3000;0.6626;1.1783;
1092.6000;0.6650;1.1808;
1092.9000;0.6634;1.1783;
1093.2000;0.6626;1.1759;
1093.5000;0.6626;1.1783;
1093.8000;0.6634;1.1808;
1094.1000;0.6683;1.1929;
1094.4000;0.6618;1.1735;
1094.7000;0.6626;1.1711;
1095.0000;0.6618;1.1711;
1095.3000;0.6626;1.1711;
1095.6000;0.6618;1.1735;
1095.9000;0.6618;1.1711;
1096.2000;0.6626;1.1686;
1096.5000;0.6675;1.1832;
1096.8000;0.6650;1.1832;
1097.1000;0.6634;1.1832;
1097.4000;0.6642;1.1759;
1097.7000;0.6650;1.1832;
1098.0000;0.6659;1.1856;
1098.3000;0.6642;1.1711;
1098.6000;0.6618;1.1711;
1098.9000;0.6634;1.1759;
1099.2000;0.6626;1.1735;
1099.5000;0.6659;1.1735;
1099.8000;0.6626;1.1614;
1100.1000;0.6634;1.1638;
1100.4000;0.6642;1.1662;
1100.7000;0.6626;1.1638;
1101.0000;0.6634;1.1735;
1101.3000;0.6634;1.1783;
1101.6000;0.6683;1.1953;
1101.9000;0.6650;1.1856;
1102.2000;0.6650;1.1783;
1102.5000;0.6642;1.1735;
1102.8000;0.6642;1.1711;
1103.1000;0.6675;1.1759;
1103.4000;0.6642;1.1662;
1103.7000;0.6626;1.1711;
1104.0000;0.6642;1.1783;
1104.3000;0.6642;1.1735;
1104.6000;0.6642;1.1686;
1104.9000;0.6626;1.1711;
1105.2000;0.6650;1.1783;
1105.5000;0.6626;1.1783;
1105.8000;0.6610;1.1808;
1106.1000;0.6634;1.1880;
1106.4000;0.6593;1.1783;
1106.7000;0.6642;1.1856;
1107.0000;0.6634;1.1905;
1107.3000;0.6642;1.1856;
1107.6000;0.6650;1.1905;
1107.9000;0.6642;1.1929;
1108.2000;0.6642;1.1929;
1108.5000;0.6618;1.1953;
1108.8000;0.6634;1.1929;
1109.1000;0.6634;1.1905;
1109.4000;0.6634;1.1977;
1109.7000;0.6650;1.2026;
1110.0000;0.6642;1.1929;
1110.3000;0.6618;1.1856;
1110.6000;0.6642;1.1856;
1110.9000;0.6634;1.1783;
1111.2000;0.6683;1.1905;
1111.5000;0.6642;1.1783;
1111.8000;0.6634;1.1783;
1112.1000;0.6642;1.1783;
1112.4000;0.6618;1.1759;
1112.7000;0.6610;1.1735;
1113.0000;0.6642;1.1808;
1113.3000;0.6634;1.1711;
1113.6000;0.6634;1.1662;
1113.9000;0.6634;1.1686;
1114.2000;0.6650;1.1759;
1114.5000;0.6634;1.1686;
1114.8000;0.6634;1.1711;
1115.1000;0.6634;1.1711;
1115.4000;0.6618;1.1783;
1115.7000;0.6634;1.1783;
1116.0000;0.6634;1.1759;
1116.3000;0.6634;1.1686;
1116.6000;0.6618;1.1686;
1116.9000;0.6634;1.1783;
1117.2000;0.6602;1.1686;
1117.5000;0.6618;1.1735;
1117.8000;0.6569;1.1638;
1118.1000;0.6675;1.1929;
1118.4000;0.6626;1.1783;
1118.7000;0.6634;1.1711;
1119.0000;0.6634;1.1735;
1119.3000;0.6634;1.1735;
1119.6000;0.6683;1.1856;
1119.9000;0.6626;1.1662;
1120.2000;0.6602;1.1565;
1120.5000;0.6634;1.1638;
1120.8000;0.6634;1.1686;
1121.1000;0.6642;1.1711;
1121.4000;0.6626;1.1662;
1121.7000;0.6634;1.1662;
1122.0000;0.6650;1.1711;
1122.3000;0.6642;1.1614;
1122.6000;0.6642;1.1589;
1122.9000;0.6634;1.1614;
1123.2000;0.6634;1.1614;
1123.5000;0.6626;1.1589;
1123.8000;0.6610;1.1614;
1124.1000;0.6618;1.1589;
1124.4000;0.6610;1.1492;
1124.7000;0.6634;1.1517;
1125.0000;0.6634;1.1565;
1125.3000;0.6610;1.1517;
1125.6000;0.6577;1.1395;
1125.9000;0.6602;1.1468;
1126.2000;0.6634;1.1589;
1126.5000;0.6626;1.1614;
1126.8000;0.6667;1.1686;
1127.1000;0.6634;1.1662;
1127.4000;0.6634;1.1662;
1127.7000;0.6634;1.1614;
1128.0000;0.6634;1.1662;
1128.3000;0.6642;1.1759;
1128.6000;0.6634;1.1808;
1128.9000;0.6650;1.1905;
1129.2000;0.6650;1.1905;
1129.5000;0.6626;1.1856;
1129.8000;0.6610;1.1808;
1130.1000;0.6634;1.1832;
1130.4000;0.6610;1.1686;
1130.7000;0.6610;1.1638;
1131.0000;0.6634;1.1686;
1131.3000;0.6618;1.1735;
1131.6000;0.6618;1.1808;
1131.9000;0.6626;1.1808;
1132.2000;0.6536;1.1541;
1132.5000;0.6626;1.1783;
1132.8000;0.6642;1.1856;
1133.1000;0.6650;1.1929;
1133.4000;0.6626;1.2002;
1133.7000;0.6634;1.1880;
1134.0000;0.6626;1.1880;
1134.3000;0.6626;1.1905;
1134.6000;0.6618;1.1905;
1134.9000;0.6626;1.1856;
1135.2000;0.6626;1.1880;
1135.5000;0.6610;1.1905;
1135.8000;0.6610;1.1880;
1136.1000;0.6634;1.1880;
1136.4000;0.6618;1.1759;
1136.7000;0.6618;1.1759;
1137.0000;0.6642;1.1735;
1137.3000;0.6626;1.1711;
1137.6000;0.6618;1.1735;
1137.9000;0.6593;1.1662;
1138.2000;0.6691;1.1929;
1138.5000;0.6634;1.1808;
1138.8000;0.6642;1.1905;
1139.1000;0.6593;1.1832;
1139.4000;0.6618;1.1856;
1139.7000;0.6626;1.1880;
1140.0000;0.6634;1.1905;
1140.3000;0.6602;1.1856;
1140.6000;0.6610;1.1880;
1140.9000;0.6569;1.1759;
1141.2000;0.6683;1.1929;
1141.5000;0.6634;1.1856;
1141.8000;0.6634;1.1783;
1142.1000;0.6610;1.1808;
1142.4000;0.6618;1.1929;
1142.7000;0.6618;1.1856;
1143.0000;0.6618;1.1856;
1143.3000;0.6610;1.1929;
1143.6000;0.6618;1.1929;
1143.9000;0.6618;1.1880;
1144.2000;0.6650;1.1856;
1144.5000;0.6610;1.1735;
1144.8000;0.6610;1.1905;
1145.1000;0.6618;1.1905;
1145.4000;0.6618;1.1856;
1145.7000;0.6593;1.1759;
1146.0000;0.6602;1.1711;
1146.3000;0.6626;1.1735;
1146.6000;0.6634;1.1783;
1146.9000;0.6634;1.1832;
1147.2000;0.6618;1.1735;
1147.5000;0.6634;1.1783;
1147.8000;0.6626;1.1759;
1148.1000;0.6618;1.1759;
1148.4000;0.6650;1.1880;
1148.7000;0.6626;1.1856;
1149.0000;0.6626;1.1832;
1149.3000;0.6626;1.1808;
1149.6000;0.6634;1.1856;
1149.9000;0.6634;1.1856;
1150.2000;0.6618;1.1686;
1150.5000;0.6602;1.1686;
1150.8000;0.6569;1.1614;
1151.1000;0.6610;1.1662;
1151.4000;0.6634;1.1614;
1151.7000;0.6634;1.1638;
1152.0000;0.6634;1.1662;
1152.3000;0.6602;1.1614;
1152.6000;0.6618;1.1735;
1152.9000;0.6602;1.1759;
1153.2000;0.6618;1.1856;
1153.5000;0.6602;1.1808;
1153.8000;0.6602;1.1808;
1154.1000;0.6626;1.1880;
1154.4000;0.6585;1.1783;
1154.7000;0.6626;1.1856;
1155.0000;0.6650;1.1977;
1155.3000;0.6610;1.1856;
1155.6000;0.6610;1.1880;
1155.9000;0.6593;1.1880;
1156.2000;0.6610;1.1856;
1156.5000;0.6618;1.1905;
1156.8000;0.6602;1.1880;
1157.1000;0.6602;1.1880;
1157.4000;0.6618;1.1880;
1157.7000;0.6618;1.1832;
1158.0000;0.6626;1.1832;
1158.3000;0.6610;1.1832;
1158.6000;0.6602;1.1711;
1158.9000;0.6610;1.1808;
1159.2000;0.6659;1.1929;
1159.5000;0.6667;1.2002;
1159.8000;0.6618;1.1856;
1160.1000;0.6610;1.1783;
1160.4000;0.6610;1.1735;
1160.7000;0.6610;1.1808;
1161.0000;0.6585;1.1735;
1161.3000;0.6626;1.1880;
1161.6000;0.6610;1.1905;
1161.9000;0.6610;1.1856;
1162.2000;0.6659;1.1929;
1162.5000;0.6602;1.1808;
1162.8000;0.6626;1.1808;
1163.1000;0.6602;1.1638;
1163.4000;0.6602;1.1711;
1163.7000;0.6610;1.1614;
1164.0000;0.6618;1.1589;
1164.3000;0.6618;1.1589;
1164.6000;0.6634;1.1686;
1164.9000;0.6626;1.1686;
1165.2000;0.6602;1.1686;
1165.5000;0.6642;1.1808;
1165.8000;0.6626;1.1759;
1166.1000;0.6610;1.1783;
1166.4000;0.6610;1.1808;
1166.7000;0.6618;1.1808;
1167.0000;0.6610;1.1759;
1167.3000;0.6602;1.1735;
1167.6000;0.6618;1.1832;
1167.9000;0.6610;1.1856;
1168.2000;0.6610;1.1905;
1168.5000;0.6610;1.1832;
1168.8000;0.6634;1.1880;
1169.1000;0.6618;1.1832;
1169.4000;0.6618;1.1783;
1169.7000;0.6626;1.1783;
1170.0000;0.6602;1.1735;
1170.3000;0.6593;1.1686;
1170.6000;0.6618;1.1711;
1170.9000;0.6618;1.1638;
1171.2000;0.6618;1.1541;
1171.5000;0.6626;1.1517;
1171.8000;0.6618;1.1468;
1172.1000;0.6618;1.1492;
1172.4000;0.6610;1.1517;
1172.7000;0.6610;1.1517;
1173.0000;0.6610;1.1565;
1173.3000;0.6626;1.1662;
1173.6000;0.6577;1.1614;
1173.9000;0.6602;1.1662;
1174.2000;0.6626;1.1638;
1174.5000;0.6626;1.1565;
1174.8000;0.6610;1.1614;
1175.1000;0.6569;1.1517;
1175.4000;0.6610;1.1686;
1175.7000;0.6618;1.1808;
1176.0000;0.6602;1.1783;
1176.3000;0.6585;1.1759;
1176.6000;0.6602;1.1759;
1176.9000;0.6602;1.1783;
1177.2000;0.6667;1.1929;
1177.5000;0.6602;1.1832;
1177.8000;0.6593;1.1832;
1178.1000;0.6602;1.1856;
1178.4000;0.6610;1.1856;
1178.7000;0.6602;1.1808;
1179.0000;0.6577;1.1735;
1179.3000;0.6602;1.1808;
1179.6000;0.6626;1.1832;
1179.9000;0.6618;1.1856;
1180.2000;0.6618;1.1832;
1180.5000;0.6593;1.1832;
1180.8000;0.6618;1.1880;
1181.1000;0.6642;1.1929;
1181.4000;0.6602;1.1905;
1181.7000;0.6602;1.1735;
1182.0000;0.6618;1.1735;
1182.3000;0.6618;1.1759;
1182.6000;0.6602;1.1783;
1182.9000;0.6634;1.1808;
1183.2000;0.6593;1.1638;
1183.5000;0.6610;1.1686;
1183.8000;0.6610;1.1686;
1184.1000;0.6618;1.1686;
1184.4000;0.6618;1.1711;
1184.7000;0.6618;1.1711;
1185.0000;0.6610;1.1614;
1185.3000;0.6602;1.1614;
1185.6000;0.6610;1.1614;
1185.9000;0.6618;1.1711;
1186.2000;0.6626;1.1783;
1186.5000;0.6593;1.1662;
1186.8000;0.6602;1.1662;
1187.1000;0.6610;1.1735;
1187.4000;0.6569;1.1711;
1187.7000;0.6593;1.1759;
1188.0000;0.6610;1.1880;
1188.3000;0.6602;1.1808;
1188.6000;0.6602;1.1856;
1188.9000;0.6602;1.1856;
1189.2000;0.6593;1.1783;
1189.5000;0.6602;1.1735;
1189.8000;0.6618;1.1832;
1190.1000;0.6610;1.1808;
1190.4000;0.6618;1.1832;
1190.7000;0.6610;1.1880;
1191.0000;0.6602;1.1856;
1191.3000;0.6610;1.1905;
1191.6000;0.6585;1.1856;
1191.9000;0.6610;1.1880;
1192.2000;0.6569;1.1759;
1192.5000;0.6618;1.1905;
1192.8000;0.6610;1.1783;
1193.1000;0.6618;1.1856;
1193.4000;0.6626;1.1783;
1193.7000;0.6626;1.1832;
1194.0000;0.6618;1.1856;
1194.3000;0.6602;1.1856;
1194.6000;0.6602;1.1686;
1194.9000;0.6602;1.1711;
1195.2000;0.6610;1.1711;
1195.5000;0.6593;1.1565;
1195.8000;0.6602;1.1614;
1196.1000;0.6642;1.1808;
1196.4000;0.6593;1.1711;
1196.7000;0.6602;1.1832;
1197.0000;0.6561;1.1735;
1197.3000;0.6602;1.1783;
1197.6000;0.6602;1.1735;
1197.9000;0.6602;1.1783;
1198.2000;0.6569;1.1686;
1198.5000;0.6602;1.1711;
1198.8000;0.6602;1.1662;
1199.1000;0.6585;1.1662;
1199.4000;0.6593;1.1638;
1199.7000;0.6585;1.1614;
1200.0000;0.6593;1.1662;
1200.3000;0.6610;1.1638;
1200.6000;0.6602;1.1711;
1200.9000;0.6618;1.1711;
1201.2000;0.6585;1.1638;
1201.5000;0.6602;1.1759;
1201.8000;0.6593;1.1735;
1202.1000;0.6593;1.1711;
1202.4000;0.6593;1.1735;
1202.7000;0.6618;1.1735;
1203.0000;0.6569;1.1735;
1203.3000;0.6577;1.1808;
1203.6000;0.6610;1.1880;
1203.9000;0.6593;1.1832;
1204.2000;0.6585;1.1735;
1204.5000;0.6577;1.1735;
1204.8000;0.6585;1.1808;
1205.1000;0.6593;1.1759;
1205.4000;0.6618;1.1662;
1205.7000;0.6602;1.1517;
1206.0000;0.6602;1.1541;
1206.3000;0.6618;1.1517;
1206.6000;0.6634;1.1541;
1206.9000;0.6593;1.1492;
1207.2000;0.6602;1.1517;
1207.5000;0.6618;1.1541;
1207.8000;0.6602;1.1565;
1208.1000;0.6593;1.1565;
1208.4000;0.6593;1.1589;
1208.7000;0.6610;1.1614;
1209.0000;0.6610;1.1686;
1209.3000;0.6618;1.1686;
1209.6000;0.6618;1.1735;
1209.9000;0.6602;1.1686;
1210.2000;0.6610;1.1759;
1210.5000;0.6610;1.1856;
1210.8000;0.6618;1.1905;
1211.1000;0.6618;1.1856;
1211.4000;0.6618;1.1880;
1211.7000;0.6585;1.1856;
1212.0000;0.6626;1.1905;
1212.3000;0.6593;1.1856;
1212.6000;0.6577;1.1808;
1212.9000;0.6593;1.1832;
1213.2000;0.6593;1.1880;
1213.5000;0.6585;1.1783;
1213.8000;0.6585;1.1662;
1214.1000;0.6593;1.1735;
1214.4000;0.6585;1.1686;
1214.7000;0.6577;1.1686;
1215.0000;0.6602;1.1711;
1215.3000;0.6593;1.1759;
1215.6000;0.6577;1.1711;
1215.9000;0.6569;1.1662;
1216.2000;0.6610;1.1783;
1216.5000;0.6585;1.1686;
1216.8000;0.6593;1.1783;
1217.1000;0.6585;1.1856;
1217.4000;0.6585;1.1856;
1217.7000;0.6593;1.1880;
1218.0000;0.6610;1.1905;
1218.3000;0.6577;1.1662;
1218.6000;0.6593;1.1638;
1218.9000;0.6585;1.1589;
1219.2000;0.6593;1.1638;
1219.5000;0.6602;1.1565;
1219.8000;0.6585;1.1638;
1220.1000;0.6561;1.1517;
1220.4000;0.6577;1.1638;
1220.7000;0.6634;1.1759;
1221.0000;0.6626;1.1759;
1221.3000;0.6593;1.1808;
1221.6000;0.6585;1.1783;
1221.9000;0.6577;1.1832;
1222.2000;0.6585;1.1880;
1222.5000;0.6585;1.1832;
1222.8000;0.6602;1.1856;
1223.1000;0.6610;1.1929;
1223.4000;0.6569;1.1856;
1223.7000;0.6593;1.1856;
1224.0000;0.6585;1.1662;
1224.3000;0.6602;1.1686;
1224.6000;0.6553;1.1589;
1224.9000;0.6602;1.1759;
1225.2000;0.6618;1.1832;
1225.5000;0.6610;1.1759;
1225.8000;0.6602;1.1686;
1226.1000;0.6593;1.1614;
1226.4000;0.6675;1.1929;
1226.7000;0.6602;1.1808;
1227.0000;0.6602;1.1856;
1227.3000;0.6585;1.1808;
1227.6000;0.6577;1.1783;
1227.9000;0.6602;1.1735;
1228.2000;0.6585;1.1711;
1228.5000;0.6585;1.1711;
1228.8000;0.6561;1.1686;
1229.1000;0.6585;1.1711;
1229.4000;0.6585;1.1662;
1229.7000;0.6585;1.1638;
1230.0000;0.6577;1.1638;
1230.3000;0.6585;1.1759;
1230.6000;0.6593;1.1759;
1230.9000;0.6602;1.1783;
1231.2000;0.6610;1.1880;
1231.5000;0.6602;1.1856;
1231.8000;0.6610;1.1929;
1232.1000;0.6602;1.1905;
1232.4000;0.6593;1.1783;
1232.7000;0.6602;1.1832;
1233.0000;0.6618;1.1953;
1233.3000;0.6593;1.1856;
1233.6000;0.6602;1.1832;
1233.9000;0.6593;1.1880;
1234.2000;0.6593;1.1905;
1234.5000;0.6593;1.1905;
1234.8000;0.6602;1.1977;
1235.1000;0.6593;1.1929;
1235.4000;0.6585;1.1929;
1235.7000;0.6602;1.1856;
1236.0000;0.6610;1.1759;
1236.3000;0.6610;1.1759;
1236.6000;0.6593;1.1783;
1236.9000;0.6602;1.1832;
1237.2000;0.6593;1.1856;
1237.5000;0.6561;1.1808;
1237.8000;0.6577;1.1880;
1238.1000;0.6585;1.1929;
1238.4000;0.6585;1.1929;
1238.7000;0.6593;1.1953;
1239.0000;0.6577;1.1905;
1239.3000;0.6593;1.1953;
1239.6000;0.6593;1.1977;
1239.9000;0.6593;1.1929;
1240.2000;0.6593;1.1905;
1240.5000;0.6585;1.1929;
1240.8000;0.6602;1.1953;
1241.1000;0.6593;1.1905;
1241.4000;0.6618;1.1953;
1241.7000;0.6618;1.2074;
1242.0000;0.6593;1.2026;
1242.3000;0.6602;1.1929;
1242.6000;0.6593;1.1856;
1242.9000;0.6593;1.1880;
1243.2000;0.6585;1.1856;
1243.5000;0.6593;1.1783;
1243.8000;0.6593;1.1711;
1244.1000;0.6577;1.1638;
1244.4000;0.6593;1.1759;
1244.7000;0.6569;1.1662;
1245.0000;0.6626;1.1832;
1245.3000;0.6602;1.1711;
1245.6000;0.6577;1.1662;
1245.9000;0.6585;1.1735;
1246.2000;0.6561;1.1638;
1246.5000;0.6593;1.1711;
1246.8000;0.6561;1.1686;
1247.1000;0.6577;1.1856;
1247.4000;0.6585;1.1856;
1247.7000;0.6585;1.1832;
1248.0000;0.6585;1.1832;
1248.3000;0.6626;1.1977;
1248.6000;0.6569;1.1808;
1248.9000;0.6593;1.1856;
1249.2000;0.6602;1.1929;
1249.5000;0.6585;1.1832;
1249.8000;0.6610;1.1929;
1250.1000;0.6528;1.1759;
1250.4000;0.6593;1.1856;
1250.7000;0.6610;1.1880;
1251.0000;0.6610;1.1880;
1251.3000;0.6602;1.1905;
1251.6000;0.6626;1.2026;
1251.9000;0.6610;1.2026;
1252.2000;0.6561;1.1977;
1252.5000;0.6585;1.2026;
1252.8000;0.6585;1.2002;
1253.1000;0.6593;1.2002;
1253.4000;0.6585;1.1929;
1253.7000;0.6593;1.1953;
1254.0000;0.6577;1.1905;
1254.3000;0.6593;1.1905;
1254.6000;0.6593;1.1856;
1254.9000;0.6593;1.1783;
1255.2000;0.6667;1.1905;
1255.5000;0.6569;1.1686;
1255.8000;0.6569;1.1638;
1256.1000;0.6610;1.1783;
1256.4000;0.6585;1.1783;
1256.7000;0.6585;1.1832;
1257.0000;0.6585;1.1783;
1257.3000;0.6577;1.1783;
1257.6000;0.6602;1.1880;
1257.9000;0.6536;1.1735;
1258.2000;0.6553;1.1783;
1258.5000;0.6585;1.1759;
1258.8000;0.6593;1.1856;
1259.1000;0.6585;1.1856;
1259.4000;0.6585;1.1832;
1259.7000;0.6593;1.1856;
1260.0000;0.6593;1.1832;
1260.3000;0.6593;1.1759;
1260.6000;0.6593;1.1759;
1260.9000;0.6602;1.1856;
1261.2000;0.6593;1.1808;
1261.5000;0.6593;1.1808;
1261.8000;0.6577;1.1711;
1262.1000;0.6593;1.1808;
1262.4000;0.6585;1.1759;
1262.7000;0.6610;1.1880;
1263.0000;0.6610;1.1929;
1263.3000;0.6593;1.1856;
1263.6000;0.6593;1.1905;
1263.9000;0.6577;1.1905;
1264.2000;0.6602;1.1953;
1264.5000;0.6585;1.2026;
1264.8000;0.6610;1.2074;
1265.1000;0.6593;1.2002;
1265.4000;0.6610;1.2026;
1265.7000;0.6626;1.2026;
1266.0000;0.6610;1.1977;
1266.3000;0.6610;1.2026;
1266.6000;0.6593;1.2002;
1266.9000;0.6593;1.2074;
1267.2000;0.6585;1.2050;
1267.5000;0.6593;1.2074;
1267.8000;0.6569;1.1977;
1268.1000;0.6585;1.2026;
1268.4000;0.6585;1.2074;
1268.7000;0.6593;1.2099;
1269.0000;0.6618;1.2147;
1269.3000;0.6585;1.2074;
1269.6000;0.6585;1.2026;
1269.9000;0.6585;1.1880;
1270.2000;0.6618;1.1905;
1270.5000;0.6593;1.1735;
1270.8000;0.6610;1.1759;
1271.1000;0.6536;1.1589;
1271.4000;0.6569;1.1686;
1271.7000;0.6593;1.1783;
1272.0000;0.6561;1.1638;
1272.3000;0.6602;1.1735;
1272.6000;0.6585;1.1735;
1272.9000;0.6585;1.1735;
1273.2000;0.6504;1.1589;
1273.5000;0.6585;1.1905;
1273.8000;0.6593;1.1953;
1274.1000;0.6650;1.2050;
1274.4000;0.6602;1.1856;
1274.7000;0.6585;1.1832;
1275.0000;0.6585;1.1856;
1275.3000;0.6569;1.1880;
1275.6000;0.6593;1.1977;
1275.9000;0.6569;1.1905;
1276.2000;0.6602;1.2002;
1276.5000;0.6577;1.1905;
1276.8000;0.6593;1.1880;
1277.1000;0.6561;1.1808;
1277.4000;0.6585;1.1929;
1277.7000;0.6593;1.1953;
1278.0000;0.6593;1.1905;
1278.3000;0.6593;1.1880;
1278.6000;0.6561;1.1953;
1278.9000;0.6593;1.2050;
1279.2000;0.6626;1.2123;
1279.5000;0.6593;1.2074;
1279.8000;0.6634;1.2196;
1280.1000;0.6577;1.2026;
1280.4000;0.6585;1.2050;
1280.7000;0.6610;1.2026;
1281.0000;0.6602;1.1953;
1281.3000;0.6577;1.1905;
1281.6000;0.6577;1.1856;
1281.9000;0.6585;1.1832;
1282.2000;0.6536;1.1759;
1282.5000;0.6577;1.1905;
1282.8000;0.6634;1.2002;
1283.1000;0.6577;1.1905;
1283.4000;0.6561;1.1856;
1283.7000;0.6593;1.1832;
1284.0000;0.6593;1.1905;
1284.3000;0.6577;1.1856;
1284.6000;0.6577;1.1832;
1284.9000;0.6593;1.1783;
1285.2000;0.6577;1.1880;
1285.5000;0.6585;1.1929;
1285.8000;0.6593;1.1856;
1286.1000;0.6585;1.1905;
1286.4000;0.6585;1.1880;
1286.7000;0.6585;1.1905;
1287.0000;0.6593;1.1977;
1287.3000;0.6602;1.1929;
1287.6000;0.6602;1.1880;
1287.9000;0.6593;1.1856;
1288.2000;0.6593;1.1880;
1288.5000;0.6569;1.1832;
1288.8000;0.6585;1.1929;
1289.1000;0.6585;1.1929;
1289.4000;0.6602;1.1929;
1289.7000;0.6569;1.1856;
1290.0000;0.6577;1.1783;
1290.3000;0.6569;1.1783;
1290.6000;0.6602;1.1832;
1290.9000;0.6618;1.1929;
1291.2000;0.6577;1.1808;
1291.5000;0.6577;1.1856;
1291.8000;0.6577;1.1880;
1292.1000;0.6634;1.1977;
1292.4000;0.6602;1.1880;
1292.7000;0.6585;1.1832;
1293.0000;0.6545;1.1735;
1293.3000;0.6577;1.1832;
1293.6000;0.6577;1.1880;
1293.9000;0.6569;1.1808;
1294.2000;0.6561;1.1832;
1294.5000;0.6585;1.1856;
1294.8000;0.6593;1.1808;
1295.1000;0.6577;1.1735;
1295.4000;0.6593;1.1832;
1295.7000;0.6585;1.1880;
1296.0000;0.6585;1.1953;
1296.3000;0.6577;1.1905;
1296.6000;0.6553;1.1880;
1296.9000;0.6577;1.1977;
1297.2000;0.6593;1.2050;
1297.5000;0.6577;1.2050;
1297.8000;0.6593;1.2123;
1298.1000;0.6585;1.2171;
1298.4000;0.6593;1.2171;
1298.7000;0.6602;1.2147;
1299.0000;0.6585;1.2123;
1299.3000;0.6610;1.2050;
1299.6000;0.6602;1.2050;
1299.9000;0.6593;1.2050;
1300.2000;0.6585;1.1953;
1300.5000;0.6593;1.1929;
1300.8000;0.6593;1.1953;
1301.1000;0.6593;1.1929;
1301.4000;0.6569;1.1832;
1301.7000;0.6593;1.1880;
1302.0000;0.6585;1.1905;
1302.3000;0.6602;1.1953;
1302.6000;0.6593;1.1929;
1302.9000;0.6585;1.1929;
1303.2000;0.6593;1.1977;
1303.5000;0.6602;1.2026;
1303.8000;0.6593;1.2026;
1304.1000;0.6593;1.2050;
1304.4000;0.6602;1.2050;
1304.7000;0.6602;1.2074;
1305.0000;0.6593;1.2050;
1305.3000;0.6569;1.1929;
1305.6000;0.6593;1.1929;
1305.9000;0.6585;1.1856;
1306.2000;0.6585;1.1856;
1306.5000;0.6569;1.1832;
1306.8000;0.6569;1.1783;
1307.1000;0.6569;1.1783;
1307.4000;0.6569;1.1832;
1307.7000;0.6577;1.1856;
1308.0000;0.6626;1.1929;
1308.3000;0.6585;1.1808;
1308.6000;0.6593;1.1808;
1308.9000;0.6593;1.1783;
1309.2000;0.6577;1.1711;
1309.5000;0.6553;1.1686;
1309.8000;0.6602;1.1880;
1310.1000;0.6585;1.1880;
1310.4000;0.6602;1.1977;
1310.7000;0.6585;1.1953;
1311.0000;0.6577;1.1977;
1311.3000;0.6593;1.1953;
1311.6000;0.6585;1.1977;
1311.9000;0.6569;1.1929;
1312.2000;0.6593;1.1953;
1312.5000;0.6593;1.1953;
1312.8000;0.6593;1.2002;
1313.1000;0.6585;1.1929;
1313.4000;0.6577;1.1905;
1313.7000;0.6593;1.1880;
1314.0000;0.6577;1.1856;
1314.3000;0.6626;1.2026;
1314.6000;0.6561;1.1880;
1314.9000;0.6593;1.2002;
1315.2000;0.6602;1.2002;
1315.5000;0.6577;1.1977;
1315.8000;0.6569;1.1977;
1316.1000;0.6569;1.2026;
1316.4000;0.6585;1.2050;
1316.7000;0.6577;1.2002;
1317.0000;0.6528;1.2002;
1317.3000;0.6577;1.2147;
1317.6000;0.6585;1.2099;
1317.9000;0.6585;1.2147;
1318.2000;0.6602;1.2123;
1318.5000;0.6585;1.1953;
1318.8000;0.6593;1.2002;
1319.1000;0.6602;1.2026;
1319.4000;0.6585;1.2002;
1319.7000;0.6569;1.1832;
1320.0000;0.6585;1.1880;
1320.3000;0.6585;1.1856;
1320.6000;0.6585;1.1832;
1320.9000;0.6569;1.1783;
1321.2000;0.6553;1.1808;
1321.5000;0.6528;1.1759;
1321.8000;0.6585;1.1880;
1322.1000;0.6577;1.1905;
1322.4000;0.6593;1.1880;
1322.7000;0.6577;1.1856;
1323.0000;0.6585;1.1856;
1323.3000;0.6585;1.1880;
1323.6000;0.6585;1.1856;
1323.9000;0.6610;1.1905;
1324.2000;0.6585;1.1953;
1324.5000;0.6577;1.1977;
1324.8000;0.6585;1.1977;
1325.1000;0.6618;1.2026;
1325.4000;0.6602;1.1977;
1325.7000;0.6593;1.1905;
1326.0000;0.6577;1.1880;
1326.3000;0.6593;1.1856;
1326.6000;0.6585;1.1880;
1326.9000;0.6593;1.1929;
1327.2000;0.6585;1.1929;
1327.5000;0.6577;1.1832;
1327.8000;0.6593;1.1905;
1328.1000;0.6610;1.1953;
1328.4000;0.6593;1.1929;
1328.7000;0.6577;1.1856;
1329.0000;0.6602;1.1808;
1329.3000;0.6585;1.1832;
1329.6000;0.6577;1.1832;
1329.9000;0.6593;1.1686;
1330.2000;0.6577;1.1711;
1330.5000;0.6577;1.1638;
1330.8000;0.6577;1.1638;
1331.1000;0.6585;1.1735;
1331.4000;0.6602;1.1759;
1331.7000;0.6593;1.1686;
1332.0000;0.6585;1.1638;
1332.3000;0.6577;1.1662;
1332.6000;0.6577;1.1662;
1332.9000;0.6593;1.1711;
1333.2000;0.6593;1.1614;
1333.5000;0.6585;1.1686;
1333.8000;0.6585;1.1759;
1334.1000;0.6593;1.1808;
1334.4000;0.6634;1.1953;
1334.7000;0.6593;1.1905;
1335.0000;0.6585;1.1929;
1335.3000;0.6561;1.1783;
1335.6000;0.6577;1.1735;
1335.9000;0.6561;1.1662;
1336.2000;0.6553;1.1759;
1336.5000;0.6545;1.1783;
1336.8000;0.6577;1.1856;
1337.1000;0.6561;1.1953;
1337.4000;0.6561;1.2026;
1337.7000;0.6585;1.2002;
1338.0000;0.6593;1.2050;
1338.3000;0.6569;1.2002;
1338.6000;0.6569;1.2026;
1338.9000;0.6569;1.1977;
1339.2000;0.6593;1.1953;
1339.5000;0.6602;1.1905;
1339.8000;0.6593;1.1929;
1340.1000;0.6610;1.1856;
1340.4000;0.6593;1.1735;
1340.7000;0.6593;1.1735;
1341.0000;0.6585;1.1686;
1341.3000;0.6569;1.1686;
1341.6000;0.6585;1.1735;
1341.9000;0.6593;1.1759;
1342.2000;0.6577;1.1808;
1342.5000;0.6569;1.1759;
1342.8000;0.6553;1.1783;
1343.1000;0.6585;1.1880;
1343.4000;0.6569;1.1905;
1343.7000;0.6577;1.1905;
1344.0000;0.6569;1.1832;
1344.3000;0.6577;1.1832;
1344.6000;0.6577;1.1759;
1344.9000;0.6585;1.1783;
1345.2000;0.6593;1.1832;
1345.5000;0.6585;1.1808;
1345.8000;0.6577;1.1759;
1346.1000;0.6577;1.1686;
1346.4000;0.6577;1.1711;
1346.7000;0.6577;1.1759;
1347.0000;0.6585;1.1759;
1347.3000;0.6561;1.1662;
1347.6000;0.6569;1.1686;
1347.9000;0.6585;1.1832;
1348.2000;0.6569;1.1808;
1348.5000;0.6577;1.1808;
1348.8000;0.6577;1.1856;
1349.1000;0.6626;1.1929;
1349.4000;0.6569;1.1735;
1349.7000;0.6593;1.1832;
1350.0000;0.6577;1.1783;
1350.3000;0.6626;1.2002;
1350.6000;0.6585;1.1929;
1350.9000;0.6569;1.1953;
1351.2000;0.6602;1.2026;
1351.5000;0.6577;1.1856;
1351.8000;0.6577;1.1759;
1352.1000;0.6569;1.1711;
1352.4000;0.6585;1.1759;
1352.7000;0.6577;1.1711;
1353.0000;0.6569;1.1686;
1353.3000;0.6585;1.1686;
1353.6000;0.6585;1.1686;
1353.9000;0.6577;1.1711;
1354.2000;0.6577;1.1711;
1354.5000;0.6569;1.1759;
1354.8000;0.6577;1.1662;
1355.1000;0.6569;1.1662;
1355.4000;0.6585;1.1638;
1355.7000;0.6561;1.1662;
1356.0000;0.6577;1.1735;
1356.3000;0.6585;1.1735;
1356.6000;0.6577;1.1686;
1356.9000;0.6585;1.1638;
1357.2000;0.6577;1.1638;
1357.5000;0.6577;1.1589;
1357.8000;0.6553;1.1565;
1358.1000;0.6569;1.1589;
1358.4000;0.6593;1.1783;
1358.7000;0.6585;1.1808;
1359.0000;0.6577;1.1856;
1359.3000;0.6577;1.1905;
1359.6000;0.6593;1.1977;
1359.9000;0.6593;1.2099;
1360.2000;0.6585;1.2026;
1360.5000;0.6577;1.2026;
1360.8000;0.6577;1.2002;
1361.1000;0.6585;1.2026;
1361.4000;0.6585;1.1929;
1361.7000;0.6536;1.1783;
1362.0000;0.6569;1.1856;
1362.3000;0.6577;1.1832;
1362.6000;0.6585;1.1905;
1362.9000;0.6569;1.1783;
1363.2000;0.6569;1.1735;
1363.5000;0.6577;1.1711;
1363.8000;0.6593;1.1686;
1364.1000;0.6577;1.1638;
1364.4000;0.6593;1.1711;
1364.7000;0.6593;1.1686;
1365.0000;0.6610;1.1808;
1365.3000;0.6577;1.1711;
1365.6000;0.6577;1.1711;
1365.9000;0.6577;1.1808;
1366.2000;0.6561;1.1711;
1366.5000;0.6561;1.1783;
1366.8000;0.6561;1.1759;
1367.1000;0.6569;1.1783;
1367.4000;0.6569;1.1856;
1367.7000;0.6593;1.1905;
1368.0000;0.6536;1.1783;
1368.3000;0.6569;1.1953;
1368.6000;0.6577;1.1929;
1368.9000;0.6585;1.1905;
1369.2000;0.6577;1.1905;
1369.5000;0.6561;1.1856;
1369.8000;0.6577;1.1880;
1370.1000;0.6593;1.1953;
1370.4000;0.6569;1.1905;
1370.7000;0.6569;1.1929;
1371.0000;0.6577;1.1953;
1371.3000;0.6561;1.1856;
1371.6000;0.6569;1.1856;
1371.9000;0.6593;1.1905;
1372.2000;0.6577;1.1856;
1372.5000;0.6561;1.1808;
1372.8000;0.6528;1.1638;
1373.1000;0.6602;1.1905;
1373.4000;0.6553;1.1783;
1373.7000;0.6585;1.1856;
1374.0000;0.6593;1.1880;
1374.3000;0.6569;1.1783;
1374.6000;0.6553;1.1856;
1374.9000;0.6553;1.1735;
1375.2000;0.6593;1.1783;
1375.5000;0.6593;1.1783;
1375.8000;0.6585;1.1759;
1376.1000;0.6577;1.1759;
1376.4000;0.6577;1.1808;
1376.7000;0.6569;1.1759;
1377.0000;0.6561;1.1783;
1377.3000;0.6569;1.1711;
1377.6000;0.6569;1.1711;
1377.9000;0.6577;1.1686;
1378.2000;0.6577;1.1711;
1378.5000;0.6561;1.1735;
1378.8000;0.6569;1.1783;
1379.1000;0.6569;1.1832;
1379.4000;0.6561;1.1880;
1379.7000;0.6569;1.1905;
1380.0000;0.6577;1.1953;
1380.3000;0.6569;1.1953;
1380.6000;0.6585;1.1977;
1380.9000;0.6561;1.2002;
1381.2000;0.6577;1.2026;
1381.5000;0.6585;1.2026;
1381.8000;0.6585;1.2026;
1382.1000;0.6553;1.2050;
1382.4000;0.6585;1.2050;
1382.7000;0.6577;1.1929;
1383.0000;0.6585;1.1905;
1383.3000;0.6569;1.1856;
1383.6000;0.6569;1.1808;
1383.9000;0.6553;1.1808;
1384.2000;0.6585;1.1929;
1384.5000;0.6577;1.1880;
1384.8000;0.6569;1.1783;
1385.1000;0.6577;1.1808;
1385.4000;0.6585;1.1929;
1385.7000;0.6569;1.1905;
1386.0000;0.6577;1.1929;
1386.3000;0.6593;1.2002;
1386.6000;0.6593;1.2002;
1386.9000;0.6577;1.1880;
1387.2000;0.6577;1.1856;
1387.5000;0.6585;1.1953;
1387.8000;0.6585;1.1905;
1388.1000;0.6593;1.1783;
1388.4000;0.6569;1.1735;
1388.7000;0.6585;1.1832;
1389.0000;0.6593;1.1929;
1389.3000;0.6585;1.1953;
1389.6000;0.6577;1.1929;
1389.9000;0.6585;1.1953;
1390.2000;0.6585;1.1905;
1390.5000;0.6585;1.1856;
1390.8000;0.6569;1.1832;
1391.1000;0.6561;1.1735;
1391.4000;0.6561;1.1686;
1391.7000;0.6585;1.1783;
1392.0000;0.6602;1.1832;
1392.3000;0.6577;1.1783;
1392.6000;0.6585;1.1832;
1392.9000;0.6577;1.1832;
1393.2000;0.6577;1.1929;
1393.5000;0.6553;1.1953;
1393.8000;0.6553;1.2074;
1394.1000;0.6577;1.2074;
1394.4000;0.6553;1.1953;
1394.7000;0.6577;1.1953;
1395.0000;0.6561;1.1880;
1395.3000;0.6536;1.1832;
1395.6000;0.6577;1.1977;
1395.9000;0.6569;1.2002;
1396.2000;0.6561;1.2002;
1396.5000;0.6577;1.2026;
1396.8000;0.6577;1.2050;
1397.1000;0.6561;1.2050;
1397.4000;0.6585;1.2074;
1397.7000;0.6569;1.2050;
1398.0000;0.6569;1.2026;
1398.3000;0.6585;1.2002;
1398.6000;0.6569;1.1905;
1398.9000;0.6561;1.1929;
1399.2000;0.6585;1.1977;
1399.5000;0.6585;1.2002;
1399.8000;0.6577;1.1929;
