time/ms;Fluo/V;P700 deltaI/I x10³;
-199.8000;1.2650;1.5663;
-199.5000;1.2625;1.5590;
-199.2000;1.2650;1.5711;
-198.9000;1.2641;1.5687;
-198.6000;1.2641;1.5614;
-198.3000;1.2650;1.5711;
-198.0000;1.2650;1.5711;
-197.7000;1.2641;1.5663;
-197.4000;1.2633;1.5663;
-197.1000;1.2633;1.5687;
-196.8000;1.2698;1.5735;
-196.5000;1.2650;1.5566;
-196.2000;1.2650;1.5566;
-195.9000;1.2641;1.5590;
-195.6000;1.2658;1.5638;
-195.3000;1.2658;1.5638;
-195.0000;1.2666;1.5590;
-194.7000;1.2666;1.5663;
-194.4000;1.2650;1.5638;
-194.1000;1.2650;1.5735;
-193.8000;1.2650;1.5735;
-193.5000;1.2658;1.5760;
-193.2000;1.2698;1.5929;
-192.9000;1.2658;1.5784;
-192.6000;1.2650;1.5735;
-192.3000;1.2650;1.5687;
-192.0000;1.2625;1.5663;
-191.7000;1.2650;1.5614;
-191.4000;1.2658;1.5590;
-191.1000;1.2641;1.5541;
-190.8000;1.2641;1.5566;
-190.5000;1.2650;1.5541;
-190.2000;1.2641;1.5638;
-189.9000;1.2658;1.5663;
-189.6000;1.2658;1.5566;
-189.3000;1.2641;1.5541;
-189.0000;1.2641;1.5614;
-188.7000;1.2650;1.5687;
-188.4000;1.2593;1.5566;
-188.1000;1.2666;1.5711;
-187.8000;1.2650;1.5711;
-187.5000;1.2658;1.5638;
-187.2000;1.2666;1.5638;
-186.9000;1.2641;1.5541;
-186.6000;1.2658;1.5566;
-186.3000;1.2666;1.5590;
-186.0000;1.2633;1.5541;
-185.7000;1.2658;1.5735;
-185.4000;1.2609;1.5687;
-185.1000;1.2658;1.5808;
-184.8000;1.2666;1.5832;
-184.5000;1.2560;1.5469;
-184.2000;1.2658;1.5687;
-183.9000;1.2658;1.5711;
-183.6000;1.2641;1.5663;
-183.3000;1.2666;1.5663;
-183.0000;1.2658;1.5735;
-182.7000;1.2666;1.5687;
-182.4000;1.2658;1.5735;
-182.1000;1.2674;1.5832;
-181.8000;1.2650;1.5784;
-181.5000;1.2658;1.5808;
-181.2000;1.2666;1.5808;
-180.9000;1.2666;1.5735;
-180.6000;1.2625;1.5711;
-180.3000;1.2658;1.5832;
-180.0000;1.2682;1.5857;
-179.7000;1.2641;1.5735;
-179.4000;1.2747;1.5954;
-179.1000;1.2609;1.5663;
-178.8000;1.2641;1.5687;
-178.5000;1.2568;1.5493;
-178.2000;1.2593;1.5493;
-177.9000;1.2658;1.5711;
-177.6000;1.2674;1.5711;
-177.3000;1.2609;1.5493;
-177.0000;1.2650;1.5735;
-176.7000;1.2658;1.5857;
-176.4000;1.2641;1.5735;
-176.1000;1.2707;1.5954;
-175.8000;1.2601;1.5663;
-175.5000;1.2658;1.5808;
-175.2000;1.2690;1.5954;
-174.9000;1.2682;1.6026;
-174.6000;1.2641;1.5784;
-174.3000;1.2658;1.5760;
-174.0000;1.2625;1.5735;
-173.7000;1.2674;1.5760;
-173.4000;1.2633;1.5663;
-173.1000;1.2674;1.5784;
-172.8000;1.2658;1.5808;
-172.5000;1.2601;1.5687;
-172.2000;1.2658;1.5808;
-171.9000;1.2666;1.5784;
-171.6000;1.2593;1.5614;
-171.3000;1.2641;1.5687;
-171.0000;1.2641;1.5566;
-170.7000;1.2593;1.5469;
-170.4000;1.2625;1.5566;
-170.1000;1.2633;1.5687;
-169.8000;1.2674;1.5784;
-169.5000;1.2658;1.5735;
-169.2000;1.2633;1.5663;
-168.9000;1.2674;1.5687;
-168.6000;1.2707;1.5784;
-168.3000;1.2674;1.5687;
-168.0000;1.2658;1.5541;
-167.7000;1.2666;1.5590;
-167.4000;1.2650;1.5590;
-167.1000;1.2666;1.5687;
-166.8000;1.2633;1.5541;
-166.5000;1.2666;1.5614;
-166.2000;1.2658;1.5638;
-165.9000;1.2650;1.5590;
-165.6000;1.2650;1.5663;
-165.3000;1.2650;1.5687;
-165.0000;1.2650;1.5735;
-164.7000;1.2617;1.5663;
-164.4000;1.2641;1.5735;
-164.1000;1.2633;1.5711;
-163.8000;1.2593;1.5638;
-163.5000;1.2674;1.5832;
-163.2000;1.2641;1.5760;
-162.9000;1.2650;1.5808;
-162.6000;1.2625;1.5808;
-162.3000;1.2641;1.5978;
-162.0000;1.2617;1.5905;
-161.7000;1.2674;1.5954;
-161.4000;1.2666;1.5832;
-161.1000;1.2658;1.5760;
-160.8000;1.2674;1.5760;
-160.5000;1.2666;1.5614;
-160.2000;1.2658;1.5590;
-159.9000;1.2625;1.5566;
-159.6000;1.2658;1.5541;
-159.3000;1.2650;1.5493;
-159.0000;1.2658;1.5541;
-158.7000;1.2682;1.5469;
-158.4000;1.2666;1.5469;
-158.1000;1.2666;1.5614;
-157.8000;1.2641;1.5541;
-157.5000;1.2641;1.5614;
-157.2000;1.2625;1.5638;
-156.9000;1.2650;1.5638;
-156.6000;1.2658;1.5590;
-156.3000;1.2633;1.5493;
-156.0000;1.2658;1.5541;
-155.7000;1.2650;1.5566;
-155.4000;1.2666;1.5614;
-155.1000;1.2609;1.5493;
-154.8000;1.2601;1.5493;
-154.5000;1.2666;1.5590;
-154.2000;1.2641;1.5590;
-153.9000;1.2658;1.5638;
-153.6000;1.2666;1.5663;
-153.3000;1.2690;1.5711;
-153.0000;1.2658;1.5638;
-152.7000;1.2674;1.5735;
-152.4000;1.2617;1.5638;
-152.1000;1.2666;1.5638;
-151.8000;1.2641;1.5566;
-151.5000;1.2641;1.5566;
-151.2000;1.2641;1.5541;
-150.9000;1.2641;1.5541;
-150.6000;1.2674;1.5493;
-150.3000;1.2650;1.5420;
-150.0000;1.2650;1.5347;
-149.7000;1.2601;1.5275;
-149.4000;1.2650;1.5347;
-149.1000;1.2641;1.5420;
-148.8000;1.2650;1.5444;
-148.5000;1.2641;1.5469;
-148.2000;1.2666;1.5493;
-147.9000;1.2658;1.5444;
-147.6000;1.2641;1.5469;
-147.3000;1.2641;1.5469;
-147.0000;1.2650;1.5469;
-146.7000;1.2641;1.5493;
-146.4000;1.2625;1.5493;
-146.1000;1.2666;1.5687;
-145.8000;1.2666;1.5687;
-145.5000;1.2650;1.5735;
-145.2000;1.2633;1.5711;
-144.9000;1.2650;1.5735;
-144.6000;1.2641;1.5760;
-144.3000;1.2755;1.5929;
-144.0000;1.2650;1.5663;
-143.7000;1.2633;1.5687;
-143.4000;1.2666;1.5735;
-143.1000;1.2674;1.5663;
-142.8000;1.2674;1.5638;
-142.5000;1.2650;1.5638;
-142.2000;1.2650;1.5663;
-141.9000;1.2650;1.5760;
-141.6000;1.2658;1.5784;
-141.3000;1.2641;1.5784;
-141.0000;1.2625;1.5735;
-140.7000;1.2650;1.5735;
-140.4000;1.2641;1.5711;
-140.1000;1.2658;1.5735;
-139.8000;1.2641;1.5687;
-139.5000;1.2674;1.5760;
-139.2000;1.2658;1.5663;
-138.9000;1.2650;1.5663;
-138.6000;1.2658;1.5711;
-138.3000;1.2666;1.5760;
-138.0000;1.2633;1.5711;
-137.7000;1.2650;1.5687;
-137.4000;1.2650;1.5663;
-137.1000;1.2650;1.5663;
-136.8000;1.2658;1.5784;
-136.5000;1.2658;1.5735;
-136.2000;1.2650;1.5663;
-135.9000;1.2625;1.5614;
-135.6000;1.2650;1.5614;
-135.3000;1.2641;1.5590;
-135.0000;1.2658;1.5638;
-134.7000;1.2641;1.5663;
-134.4000;1.2658;1.5711;
-134.1000;1.2650;1.5663;
-133.8000;1.2650;1.5663;
-133.5000;1.2666;1.5711;
-133.2000;1.2650;1.5663;
-132.9000;1.2658;1.5808;
-132.6000;1.2617;1.5687;
-132.3000;1.2641;1.5711;
-132.0000;1.2625;1.5687;
-131.7000;1.2650;1.5687;
-131.4000;1.2658;1.5663;
-131.1000;1.2641;1.5614;
-130.8000;1.2641;1.5687;
-130.5000;1.2650;1.5784;
-130.2000;1.2641;1.5760;
-129.9000;1.2568;1.5638;
-129.6000;1.2658;1.5735;
-129.3000;1.2633;1.5711;
-129.0000;1.2674;1.5832;
-128.7000;1.2641;1.5784;
-128.4000;1.2650;1.5735;
-128.1000;1.2658;1.5687;
-127.8000;1.2658;1.5711;
-127.5000;1.2666;1.5711;
-127.2000;1.2650;1.5638;
-126.9000;1.2650;1.5590;
-126.6000;1.2658;1.5566;
-126.3000;1.2658;1.5566;
-126.0000;1.2650;1.5517;
-125.7000;1.2658;1.5517;
-125.4000;1.2658;1.5614;
-125.1000;1.2641;1.5638;
-124.8000;1.2731;1.5857;
-124.5000;1.2650;1.5687;
-124.2000;1.2658;1.5687;
-123.9000;1.2641;1.5663;
-123.6000;1.2650;1.5663;
-123.3000;1.2682;1.5784;
-123.0000;1.2650;1.5784;
-122.7000;1.2666;1.5832;
-122.4000;1.2658;1.5808;
-122.1000;1.2658;1.5784;
-121.8000;1.2650;1.5735;
-121.5000;1.2715;1.5929;
-121.2000;1.2674;1.5832;
-120.9000;1.2658;1.5905;
-120.6000;1.2658;1.5832;
-120.3000;1.2674;1.5857;
-120.0000;1.2641;1.5760;
-119.7000;1.2641;1.5735;
-119.4000;1.2641;1.5760;
-119.1000;1.2666;1.5857;
-118.8000;1.2641;1.5881;
-118.5000;1.2715;1.6051;
-118.2000;1.2650;1.5905;
-117.9000;1.2633;1.5832;
-117.6000;1.2690;1.6026;
-117.3000;1.2666;1.5954;
-117.0000;1.2658;1.5905;
-116.7000;1.2690;1.6002;
-116.4000;1.2658;1.5929;
-116.1000;1.2641;1.5808;
-115.8000;1.2641;1.5735;
-115.5000;1.2650;1.5735;
-115.2000;1.2641;1.5687;
-114.9000;1.2650;1.5711;
-114.6000;1.2658;1.5735;
-114.3000;1.2650;1.5711;
-114.0000;1.2666;1.5663;
-113.7000;1.2666;1.5687;
-113.4000;1.2666;1.5735;
-113.1000;1.2658;1.5760;
-112.8000;1.2641;1.5735;
-112.5000;1.2666;1.5760;
-112.2000;1.2674;1.5760;
-111.9000;1.2658;1.5663;
-111.6000;1.2674;1.5687;
-111.3000;1.2658;1.5687;
-111.0000;1.2625;1.5687;
-110.7000;1.2690;1.5905;
-110.4000;1.2674;1.5905;
-110.1000;1.2641;1.5832;
-109.8000;1.2674;1.5929;
-109.5000;1.2650;1.5832;
-109.2000;1.2658;1.5808;
-108.9000;1.2650;1.5735;
-108.6000;1.2658;1.5735;
-108.3000;1.2650;1.5711;
-108.0000;1.2658;1.5614;
-107.7000;1.2641;1.5469;
-107.4000;1.2698;1.5566;
-107.1000;1.2641;1.5420;
-106.8000;1.2723;1.5517;
-106.5000;1.2658;1.5444;
-106.2000;1.2658;1.5469;
-105.9000;1.2666;1.5469;
-105.6000;1.2625;1.5299;
-105.3000;1.2633;1.5347;
-105.0000;1.2650;1.5396;
-104.7000;1.2650;1.5347;
-104.4000;1.2650;1.5444;
-104.1000;1.2641;1.5493;
-103.8000;1.2633;1.5444;
-103.5000;1.2650;1.5517;
-103.2000;1.2641;1.5517;
-102.9000;1.2641;1.5444;
-102.6000;1.2633;1.5517;
-102.3000;1.2658;1.5517;
-102.0000;1.2666;1.5541;
-101.7000;1.2641;1.5493;
-101.4000;1.2658;1.5614;
-101.1000;1.2650;1.5638;
-100.8000;1.2658;1.5663;
-100.5000;1.2674;1.5663;
-100.2000;1.2666;1.5711;
-99.9000;1.2658;1.5711;
-99.6000;1.2682;1.5784;
-99.3000;1.2658;1.5808;
-99.0000;1.2666;1.5881;
-98.7000;1.2650;1.5857;
-98.4000;1.2650;1.5905;
-98.1000;1.2650;1.5881;
-97.8000;1.2707;1.5954;
-97.5000;1.2658;1.5857;
-97.2000;1.2650;1.5832;
-96.9000;1.2658;1.5832;
-96.6000;1.2625;1.5735;
-96.3000;1.2625;1.5711;
-96.0000;1.2650;1.5735;
-95.7000;1.2674;1.5832;
-95.4000;1.2650;1.5784;
-95.1000;1.2650;1.5687;
-94.8000;1.2674;1.5663;
-94.5000;1.2641;1.5663;
-94.2000;1.2658;1.5687;
-93.9000;1.2650;1.5663;
-93.6000;1.2650;1.5760;
-93.3000;1.2658;1.5784;
-93.0000;1.2650;1.5663;
-92.7000;1.2568;1.5469;
-92.4000;1.2698;1.5760;
-92.1000;1.2666;1.5808;
-91.8000;1.2674;1.5808;
-91.5000;1.2650;1.5711;
-91.2000;1.2650;1.5663;
-90.9000;1.2650;1.5687;
-90.6000;1.2666;1.5663;
-90.3000;1.2650;1.5638;
-90.0000;1.2650;1.5711;
-89.7000;1.2633;1.5663;
-89.4000;1.2658;1.5711;
-89.1000;1.2650;1.5711;
-88.8000;1.2641;1.5663;
-88.5000;1.2633;1.5760;
-88.2000;1.2658;1.5857;
-87.9000;1.2568;1.5638;
-87.6000;1.2666;1.5929;
-87.3000;1.2650;1.5832;
-87.0000;1.2641;1.5832;
-86.7000;1.2650;1.5881;
-86.4000;1.2715;1.5929;
-86.1000;1.2650;1.5808;
-85.8000;1.2650;1.5784;
-85.5000;1.2658;1.5808;
-85.2000;1.2658;1.5832;
-84.9000;1.2650;1.5832;
-84.6000;1.2658;1.5905;
-84.3000;1.2658;1.5929;
-84.0000;1.2650;1.5905;
-83.7000;1.2633;1.5711;
-83.4000;1.2633;1.5760;
-83.1000;1.2650;1.5784;
-82.8000;1.2658;1.5760;
-82.5000;1.2658;1.5711;
-82.2000;1.2641;1.5590;
-81.9000;1.2650;1.5638;
-81.6000;1.2641;1.5663;
-81.3000;1.2650;1.5638;
-81.0000;1.2650;1.5614;
-80.7000;1.2650;1.5663;
-80.4000;1.2658;1.5638;
-80.1000;1.2666;1.5638;
-79.8000;1.2666;1.5638;
-79.5000;1.2666;1.5711;
-79.2000;1.2666;1.5663;
-78.9000;1.2666;1.5711;
-78.6000;1.2658;1.5711;
-78.3000;1.2641;1.5614;
-78.0000;1.2658;1.5711;
-77.7000;1.2666;1.5760;
-77.4000;1.2674;1.5832;
-77.1000;1.2650;1.5760;
-76.8000;1.2666;1.5784;
-76.5000;1.2666;1.5832;
-76.2000;1.2666;1.5832;
-75.9000;1.2650;1.5711;
-75.6000;1.2666;1.5760;
-75.3000;1.2658;1.5760;
-75.0000;1.2658;1.5687;
-74.7000;1.2650;1.5614;
-74.4000;1.2641;1.5541;
-74.1000;1.2650;1.5638;
-73.8000;1.2658;1.5614;
-73.5000;1.2625;1.5590;
-73.2000;1.2641;1.5590;
-72.9000;1.2633;1.5638;
-72.6000;1.2633;1.5590;
-72.3000;1.2650;1.5663;
-72.0000;1.2650;1.5735;
-71.7000;1.2658;1.5687;
-71.4000;1.2674;1.5687;
-71.1000;1.2650;1.5687;
-70.8000;1.2650;1.5663;
-70.5000;1.2641;1.5687;
-70.2000;1.2666;1.5735;
-69.9000;1.2674;1.5711;
-69.6000;1.2682;1.5784;
-69.3000;1.2633;1.5687;
-69.0000;1.2658;1.5687;
-68.7000;1.2666;1.5638;
-68.4000;1.2707;1.5735;
-68.1000;1.2650;1.5590;
-67.8000;1.2650;1.5590;
-67.5000;1.2633;1.5566;
-67.2000;1.2650;1.5663;
-66.9000;1.2650;1.5711;
-66.6000;1.2650;1.5760;
-66.3000;1.2666;1.5784;
-66.0000;1.2658;1.5784;
-65.7000;1.2715;1.5857;
-65.4000;1.2658;1.5735;
-65.1000;1.2715;1.5905;
-64.8000;1.2650;1.5663;
-64.5000;1.2658;1.5614;
-64.2000;1.2641;1.5590;
-63.9000;1.2650;1.5760;
-63.6000;1.2650;1.5832;
-63.3000;1.2641;1.5784;
-63.0000;1.2633;1.5760;
-62.7000;1.2650;1.5760;
-62.4000;1.2650;1.5638;
-62.1000;1.2658;1.5590;
-61.8000;1.2658;1.5590;
-61.5000;1.2593;1.5444;
-61.2000;1.2658;1.5638;
-60.9000;1.2625;1.5517;
-60.6000;1.2609;1.5469;
-60.3000;1.2666;1.5590;
-60.0000;1.2674;1.5638;
-59.7000;1.2593;1.5541;
-59.4000;1.2650;1.5784;
-59.1000;1.2641;1.5735;
-58.8000;1.2658;1.5735;
-58.5000;1.2674;1.5857;
-58.2000;1.2666;1.5832;
-57.9000;1.2650;1.5735;
-57.6000;1.2633;1.5663;
-57.3000;1.2650;1.5687;
-57.0000;1.2641;1.5735;
-56.7000;1.2633;1.5735;
-56.4000;1.2641;1.5663;
-56.1000;1.2658;1.5687;
-55.8000;1.2666;1.5711;
-55.5000;1.2658;1.5784;
-55.2000;1.2650;1.5735;
-54.9000;1.2666;1.5760;
-54.6000;1.2666;1.5760;
-54.3000;1.2690;1.5808;
-54.0000;1.2658;1.5711;
-53.7000;1.2658;1.5735;
-53.4000;1.2641;1.5687;
-53.1000;1.2666;1.5784;
-52.8000;1.2707;1.5905;
-52.5000;1.2658;1.5832;
-52.2000;1.2625;1.5735;
-51.9000;1.2650;1.5760;
-51.6000;1.2641;1.5760;
-51.3000;1.2650;1.5808;
-51.0000;1.2625;1.5711;
-50.7000;1.2641;1.5760;
-50.4000;1.2641;1.5735;
-50.1000;1.2633;1.5687;
-49.8000;1.2658;1.5735;
-49.5000;1.2633;1.5711;
-49.2000;1.2633;1.5735;
-48.9000;1.2658;1.5760;
-48.6000;1.2650;1.5735;
-48.3000;1.2641;1.5760;
-48.0000;1.2641;1.5784;
-47.7000;1.2641;1.5760;
-47.4000;1.2650;1.5760;
-47.1000;1.2650;1.5735;
-46.8000;1.2650;1.5735;
-46.5000;1.2650;1.5687;
-46.2000;1.2650;1.5711;
-45.9000;1.2674;1.5735;
-45.6000;1.2650;1.5808;
-45.3000;1.2641;1.5857;
-45.0000;1.2674;1.5881;
-44.7000;1.2650;1.5784;
-44.4000;1.2650;1.5784;
-44.1000;1.2650;1.5735;
-43.8000;1.2633;1.5687;
-43.5000;1.2666;1.5663;
-43.2000;1.2650;1.5663;
-42.9000;1.2658;1.5687;
-42.6000;1.2633;1.5590;
-42.3000;1.2658;1.5638;
-42.0000;1.2666;1.5638;
-41.7000;1.2658;1.5541;
-41.4000;1.2658;1.5541;
-41.1000;1.2650;1.5590;
-40.8000;1.2658;1.5663;
-40.5000;1.2650;1.5638;
-40.2000;1.2650;1.5687;
-39.9000;1.2650;1.5614;
-39.6000;1.2650;1.5566;
-39.3000;1.2674;1.5566;
-39.0000;1.2658;1.5420;
-38.7000;1.2584;1.5347;
-38.4000;1.2609;1.5420;
-38.1000;1.2641;1.5566;
-37.8000;1.2666;1.5663;
-37.5000;1.2641;1.5638;
-37.2000;1.2641;1.5784;
-36.9000;1.2666;1.5735;
-36.6000;1.2682;1.5735;
-36.3000;1.2625;1.5566;
-36.0000;1.2650;1.5566;
-35.7000;1.2658;1.5638;
-35.4000;1.2658;1.5711;
-35.1000;1.2666;1.5735;
-34.8000;1.2633;1.5760;
-34.5000;1.2617;1.5663;
-34.2000;1.2650;1.5687;
-33.9000;1.2650;1.5663;
-33.6000;1.2641;1.5614;
-33.3000;1.2650;1.5566;
-33.0000;1.2650;1.5638;
-32.7000;1.2641;1.5614;
-32.4000;1.2641;1.5590;
-32.1000;1.2650;1.5590;
-31.8000;1.2658;1.5638;
-31.5000;1.2674;1.5735;
-31.2000;1.2641;1.5735;
-30.9000;1.2650;1.5784;
-30.6000;1.2650;1.5784;
-30.3000;1.2650;1.5808;
-30.0000;1.2658;1.5832;
-29.7000;1.2650;1.5832;
-29.4000;1.2650;1.5857;
-29.1000;1.2674;1.5857;
-28.8000;1.2650;1.5857;
-28.5000;1.2650;1.5808;
-28.2000;1.2633;1.5784;
-27.9000;1.2666;1.5784;
-27.6000;1.2641;1.5687;
-27.3000;1.2633;1.5614;
-27.0000;1.2674;1.5760;
-26.7000;1.2666;1.5784;
-26.4000;1.2633;1.5687;
-26.1000;1.2650;1.5784;
-25.8000;1.2650;1.5760;
-25.5000;1.2658;1.5808;
-25.2000;1.2666;1.5760;
-24.9000;1.2633;1.5687;
-24.6000;1.2650;1.5663;
-24.3000;1.2609;1.5590;
-24.0000;1.2658;1.5808;
-23.7000;1.2641;1.5760;
-23.4000;1.2641;1.5832;
-23.1000;1.2641;1.5832;
-22.8000;1.2658;1.5857;
-22.5000;1.2715;1.6051;
-22.2000;1.2715;1.6002;
-21.9000;1.2658;1.5857;
-21.6000;1.2641;1.5832;
-21.3000;1.2650;1.5832;
-21.0000;1.2658;1.5784;
-20.7000;1.2650;1.5784;
-20.4000;1.2666;1.5857;
-20.1000;1.2658;1.5808;
-19.8000;1.2641;1.5638;
-19.5000;1.2641;1.5566;
-19.2000;1.2666;1.5566;
-18.9000;1.2658;1.5566;
-18.6000;1.2641;1.5590;
-18.3000;1.2641;1.5638;
-18.0000;1.2641;1.5638;
-17.7000;1.2658;1.5663;
-17.4000;1.2633;1.5590;
-17.1000;1.2625;1.5614;
-16.8000;1.2674;1.5784;
-16.5000;1.2674;1.5735;
-16.2000;1.2666;1.5687;
-15.9000;1.2650;1.5614;
-15.6000;1.2658;1.5638;
-15.3000;1.2674;1.5638;
-15.0000;1.2666;1.5663;
-14.7000;1.2641;1.5566;
-14.4000;1.2625;1.5590;
-14.1000;1.2650;1.5590;
-13.8000;1.2674;1.5663;
-13.5000;1.2658;1.5590;
-13.2000;1.2658;1.5541;
-12.9000;1.2658;1.5566;
-12.6000;1.2650;1.5493;
-12.3000;1.2650;1.5493;
-12.0000;1.2650;1.5493;
-11.7000;1.2650;1.5493;
-11.4000;1.2641;1.5541;
-11.1000;1.2650;1.5566;
-10.8000;1.2650;1.5590;
-10.5000;1.2650;1.5590;
-10.2000;1.2658;1.5638;
-9.9000;1.2690;1.5832;
-9.6000;1.2641;1.5760;
-9.3000;1.2650;1.5711;
-9.0000;1.2650;1.5711;
-8.7000;1.2658;1.5735;
-8.4000;1.2658;1.5735;
-8.1000;1.2650;1.5663;
-7.8000;1.2650;1.5638;
-7.5000;1.2674;1.5687;
-7.2000;1.2666;1.5687;
-6.9000;1.2633;1.5687;
-6.6000;1.2658;1.5735;
-6.3000;1.2650;1.5735;
-6.0000;1.2633;1.5735;
-5.7000;1.2658;1.5735;
-5.4000;1.2658;1.5711;
-5.1000;1.2650;1.5711;
-4.8000;1.2625;1.5638;
-4.5000;1.2609;1.5541;
-4.2000;1.2650;1.5493;
-3.9000;1.2658;1.5541;
-3.6000;1.2682;1.5735;
-3.3000;1.2641;1.5638;
-3.0000;1.2682;1.5735;
-2.7000;1.2658;1.5638;
-2.4000;1.2658;1.5687;
-2.1000;1.2641;1.5711;
-1.8000;1.2650;1.5784;
-1.5000;1.2682;1.5808;
-1.2000;1.2666;1.5735;
-0.9000;1.2641;1.5663;
-0.6000;1.2682;1.5735;
-0.3000;1.2650;1.5638;
0.0000;1.2650;1.5638;
0.3000;1.2674;1.5711;
0.6000;1.2739;1.5954;
0.9000;1.2821;1.6317;
1.2000;1.2869;1.6535;
1.5000;1.2902;1.6657;
1.8000;1.2926;1.6851;
2.1000;1.2943;1.6972;
2.4000;1.2967;1.7190;
2.7000;1.3008;1.7384;
3.0000;1.3000;1.7384;
3.3000;1.3032;1.7554;
3.6000;1.3065;1.7651;
3.9000;1.3073;1.7675;
4.2000;1.3065;1.7723;
4.5000;1.3081;1.7699;
4.8000;1.3089;1.7748;
5.1000;1.3114;1.7845;
5.4000;1.3114;1.7869;
5.7000;1.3114;1.7942;
6.0000;1.3122;1.7990;
6.3000;1.3146;1.8087;
6.6000;1.3154;1.8039;
6.9000;1.3146;1.7990;
7.2000;1.3171;1.8014;
7.5000;1.3122;1.7796;
7.8000;1.3195;1.7990;
8.1000;1.3187;1.8014;
8.4000;1.3187;1.8014;
8.7000;1.3195;1.8039;
9.0000;1.3236;1.8184;
9.3000;1.3203;1.8208;
9.6000;1.3195;1.8184;
9.9000;1.3203;1.8330;
10.2000;1.3228;1.8378;
10.5000;1.3236;1.8330;
10.8000;1.3228;1.8233;
11.1000;1.3228;1.8160;
11.4000;1.3260;1.8184;
11.7000;1.3236;1.8063;
12.0000;1.3252;1.7990;
12.3000;1.3228;1.7990;
12.6000;1.3244;1.8014;
12.9000;1.3252;1.8087;
13.2000;1.3260;1.8063;
13.5000;1.3244;1.7942;
13.8000;1.3252;1.7990;
14.1000;1.3293;1.8063;
14.4000;1.3276;1.7893;
14.7000;1.3268;1.7772;
15.0000;1.3268;1.7772;
15.3000;1.3284;1.7796;
15.6000;1.3276;1.7772;
15.9000;1.3276;1.7748;
16.2000;1.3276;1.7772;
16.5000;1.3341;1.7990;
16.8000;1.3293;1.7893;
17.1000;1.3366;1.8039;
17.4000;1.3293;1.7917;
17.7000;1.3301;1.7917;
18.0000;1.3317;1.7966;
18.3000;1.3301;1.7917;
18.6000;1.3293;1.7966;
18.9000;1.3293;1.7966;
19.2000;1.3309;1.8014;
19.5000;1.3325;1.8014;
19.8000;1.3317;1.8014;
20.1000;1.3309;1.7942;
20.4000;1.3325;1.7917;
20.7000;1.3301;1.7772;
21.0000;1.3333;1.7796;
21.3000;1.3317;1.7845;
21.6000;1.3293;1.7796;
21.9000;1.3333;1.7942;
22.2000;1.3333;1.7869;
22.5000;1.3333;1.7893;
22.8000;1.3317;1.7893;
23.1000;1.3317;1.7966;
23.4000;1.3317;1.7917;
23.7000;1.3309;1.7966;
24.0000;1.3317;1.7917;
24.3000;1.3268;1.7917;
24.6000;1.3284;1.7869;
24.9000;1.3309;1.7893;
25.2000;1.3317;1.7893;
25.5000;1.3333;1.7990;
25.8000;1.3309;1.7966;
26.1000;1.3325;1.7990;
26.4000;1.3333;1.7917;
26.7000;1.3317;1.7942;
27.0000;1.3333;1.7990;
27.3000;1.3333;1.7917;
27.6000;1.3333;1.8014;
27.9000;1.3333;1.7966;
28.2000;1.3358;1.8063;
28.5000;1.3366;1.8208;
28.8000;1.3333;1.8111;
29.1000;1.3325;1.8160;
29.4000;1.3341;1.8160;
29.7000;1.3341;1.8184;
30.0000;1.3350;1.8233;
30.3000;1.3333;1.8233;
30.6000;1.3341;1.8136;
30.9000;1.3341;1.8111;
31.2000;1.3341;1.8039;
31.5000;1.3341;1.7942;
31.8000;1.3350;1.7917;
32.1000;1.3350;1.7917;
32.4000;1.3350;1.7942;
32.7000;1.3350;1.7990;
33.0000;1.3350;1.7942;
33.3000;1.3358;1.7917;
33.6000;1.3341;1.7845;
33.9000;1.3341;1.7869;
34.2000;1.3350;1.7869;
34.5000;1.3366;1.7893;
34.8000;1.3350;1.7845;
35.1000;1.3341;1.7869;
35.4000;1.3350;1.7917;
35.7000;1.3341;1.7893;
36.0000;1.3358;1.7869;
36.3000;1.3333;1.7893;
36.6000;1.3325;1.7917;
36.9000;1.3382;1.8014;
37.2000;1.3366;1.7917;
37.5000;1.3358;1.7869;
37.8000;1.3358;1.7917;
38.1000;1.3358;1.7942;
38.4000;1.3366;1.7917;
38.7000;1.3366;1.7893;
39.0000;1.3358;1.7942;
39.3000;1.3358;1.7966;
39.6000;1.3382;1.8063;
39.9000;1.3341;1.7893;
40.2000;1.3350;1.7820;
40.5000;1.3333;1.7820;
40.8000;1.3350;1.7893;
41.1000;1.3358;1.7820;
41.4000;1.3333;1.7796;
41.7000;1.3341;1.7699;
42.0000;1.3350;1.7723;
42.3000;1.3439;1.7942;
42.6000;1.3407;1.7893;
42.9000;1.3341;1.7723;
43.2000;1.3350;1.7651;
43.5000;1.3317;1.7578;
43.8000;1.3350;1.7675;
44.1000;1.3333;1.7530;
44.4000;1.3333;1.7627;
44.7000;1.3341;1.7651;
45.0000;1.3341;1.7723;
45.3000;1.3333;1.7699;
45.6000;1.3317;1.7723;
45.9000;1.3325;1.7869;
46.2000;1.3358;1.7942;
46.5000;1.3333;1.7893;
46.8000;1.3325;1.7893;
47.1000;1.3341;1.7917;
47.4000;1.3358;1.7917;
47.7000;1.3366;1.7917;
48.0000;1.3358;1.7820;
48.3000;1.3293;1.7772;
48.6000;1.3382;1.7966;
48.9000;1.3350;1.7869;
49.2000;1.3333;1.7942;
49.5000;1.3309;1.7845;
49.8000;1.3333;1.7893;
50.1000;1.3350;1.7893;
50.4000;1.3350;1.7820;
50.7000;1.3341;1.7699;
51.0000;1.3350;1.7675;
51.3000;1.3358;1.7675;
51.6000;1.3341;1.7602;
51.9000;1.3341;1.7554;
52.2000;1.3317;1.7554;
52.5000;1.3350;1.7675;
52.8000;1.3358;1.7675;
53.1000;1.3268;1.7554;
53.4000;1.3317;1.7723;
53.7000;1.3341;1.7820;
54.0000;1.3350;1.7772;
54.3000;1.3293;1.7578;
54.6000;1.3350;1.7723;
54.9000;1.3341;1.7723;
55.2000;1.3341;1.7699;
55.5000;1.3284;1.7554;
55.8000;1.3350;1.7627;
56.1000;1.3358;1.7675;
56.4000;1.3366;1.7772;
56.7000;1.3366;1.7869;
57.0000;1.3366;1.7942;
57.3000;1.3358;1.7942;
57.6000;1.3350;1.7942;
57.9000;1.3358;1.7893;
58.2000;1.3350;1.7942;
58.5000;1.3382;1.7990;
58.8000;1.3350;1.7917;
59.1000;1.3341;1.7917;
59.4000;1.3358;1.7990;
59.7000;1.3358;1.7893;
60.0000;1.3358;1.7845;
60.3000;1.3341;1.7748;
60.6000;1.3341;1.7748;
60.9000;1.3333;1.7723;
61.2000;1.3390;1.7820;
61.5000;1.3366;1.7820;
61.8000;1.3341;1.7675;
62.1000;1.3325;1.7675;
62.4000;1.3358;1.7748;
62.7000;1.3341;1.7820;
63.0000;1.3358;1.7796;
63.3000;1.3341;1.7772;
63.6000;1.3341;1.7723;
63.9000;1.3358;1.7772;
64.2000;1.3358;1.7796;
64.5000;1.3341;1.7820;
64.8000;1.3358;1.7893;
65.1000;1.3325;1.7869;
65.4000;1.3341;1.7893;
65.7000;1.3333;1.7917;
66.0000;1.3325;1.7942;
66.3000;1.3350;1.7942;
66.6000;1.3341;1.7893;
66.9000;1.3341;1.7869;
67.2000;1.3317;1.7845;
67.5000;1.3350;1.7893;
67.8000;1.3341;1.7942;
68.1000;1.3350;1.7942;
68.4000;1.3350;1.7917;
68.7000;1.3333;1.7966;
69.0000;1.3333;1.7845;
69.3000;1.3317;1.7723;
69.6000;1.3293;1.7675;
69.9000;1.3333;1.7845;
70.2000;1.3325;1.7917;
70.5000;1.3341;1.7966;
70.8000;1.3333;1.8039;
71.1000;1.3325;1.8014;
71.4000;1.3341;1.7990;
71.7000;1.3350;1.7990;
72.0000;1.3333;1.8063;
72.3000;1.3366;1.8111;
72.6000;1.3358;1.8160;
72.9000;1.3358;1.8233;
73.2000;1.3350;1.8136;
73.5000;1.3341;1.8039;
73.8000;1.3341;1.7917;
74.1000;1.3341;1.7917;
74.4000;1.3260;1.7796;
74.7000;1.3333;1.7990;
75.0000;1.3415;1.8184;
75.3000;1.3341;1.8014;
75.6000;1.3341;1.7966;
75.9000;1.3341;1.7942;
76.2000;1.3350;1.7966;
76.5000;1.3325;1.8014;
76.8000;1.3317;1.8014;
77.1000;1.3325;1.8136;
77.4000;1.3317;1.8087;
77.7000;1.3333;1.8111;
78.0000;1.3350;1.8039;
78.3000;1.3333;1.7917;
78.6000;1.3317;1.7845;
78.9000;1.3341;1.7893;
79.2000;1.3341;1.7917;
79.5000;1.3317;1.7966;
79.8000;1.3325;1.7966;
80.1000;1.3317;1.7917;
80.4000;1.3374;1.7990;
80.7000;1.3325;1.8014;
81.0000;1.3325;1.7990;
81.3000;1.3317;1.7990;
81.6000;1.3317;1.8063;
81.9000;1.3325;1.8039;
82.2000;1.3333;1.8039;
82.5000;1.3341;1.8063;
82.8000;1.3350;1.8087;
83.1000;1.3350;1.8087;
83.4000;1.3325;1.8039;
83.7000;1.3341;1.7990;
84.0000;1.3333;1.7990;
84.3000;1.3341;1.8087;
84.6000;1.3317;1.7990;
84.9000;1.3366;1.8136;
85.2000;1.3325;1.7917;
85.5000;1.3341;1.7942;
85.8000;1.3341;1.8014;
86.1000;1.3333;1.8111;
86.4000;1.3341;1.8136;
86.7000;1.3341;1.8063;
87.0000;1.3317;1.7966;
87.3000;1.3341;1.8111;
87.6000;1.3317;1.8039;
87.9000;1.3317;1.8039;
88.2000;1.3301;1.8014;
88.5000;1.3309;1.8063;
88.8000;1.3325;1.8087;
89.1000;1.3309;1.8014;
89.4000;1.3325;1.8014;
89.7000;1.3325;1.7990;
90.0000;1.3325;1.7942;
90.3000;1.3325;1.7966;
90.6000;1.3423;1.8208;
90.9000;1.3341;1.7893;
91.2000;1.3333;1.7942;
91.5000;1.3317;1.7820;
91.8000;1.3293;1.7748;
92.1000;1.3293;1.7796;
92.4000;1.3415;1.8014;
92.7000;1.3317;1.7699;
93.0000;1.3309;1.7772;
93.3000;1.3341;1.7893;
93.6000;1.3309;1.7772;
93.9000;1.3309;1.7820;
94.2000;1.3284;1.7699;
94.5000;1.3333;1.7845;
94.8000;1.3341;1.7966;
95.1000;1.3341;1.7917;
95.4000;1.3333;1.7845;
95.7000;1.3333;1.7796;
96.0000;1.3341;1.7869;
96.3000;1.3325;1.7869;
96.6000;1.3358;1.7917;
96.9000;1.3341;1.7820;
97.2000;1.3341;1.7893;
97.5000;1.3341;1.7942;
97.8000;1.3325;1.7917;
98.1000;1.3317;1.7942;
98.4000;1.3325;1.8014;
98.7000;1.3325;1.7966;
99.0000;1.3350;1.7893;
99.3000;1.3350;1.7942;
99.6000;1.3341;1.7942;
99.9000;1.3317;1.7893;
100.2000;1.3325;1.7917;
100.5000;1.3333;1.7942;
100.8000;1.3333;1.7990;
101.1000;1.3325;1.8039;
101.4000;1.3341;1.8087;
101.7000;1.3333;1.8111;
102.0000;1.3341;1.8087;
102.3000;1.3333;1.8063;
102.6000;1.3350;1.8111;
102.9000;1.3293;1.8014;
103.2000;1.3317;1.7990;
103.5000;1.3333;1.7942;
103.8000;1.3341;1.7917;
104.1000;1.3341;1.7869;
104.4000;1.3325;1.7869;
104.7000;1.3341;1.8014;
105.0000;1.3301;1.7917;
105.3000;1.3325;1.7942;
105.6000;1.3325;1.7942;
105.9000;1.3317;1.7893;
106.2000;1.3325;1.7893;
106.5000;1.3325;1.7917;
106.8000;1.3333;1.7942;
107.1000;1.3333;1.7990;
107.4000;1.3325;1.7966;
107.7000;1.3341;1.7990;
108.0000;1.3276;1.7869;
108.3000;1.3317;1.7942;
108.6000;1.3333;1.8063;
108.9000;1.3317;1.8063;
109.2000;1.3325;1.8039;
109.5000;1.3309;1.8087;
109.8000;1.3317;1.8014;
110.1000;1.3341;1.7966;
110.4000;1.3325;1.8039;
110.7000;1.3325;1.8063;
111.0000;1.3333;1.8087;
111.3000;1.3325;1.8160;
111.6000;1.3317;1.8160;
111.9000;1.3325;1.8208;
112.2000;1.3350;1.8233;
112.5000;1.3325;1.8208;
112.8000;1.3325;1.8257;
113.1000;1.3301;1.8136;
113.4000;1.3317;1.8208;
113.7000;1.3358;1.8281;
114.0000;1.3325;1.8208;
114.3000;1.3333;1.8257;
114.6000;1.3325;1.8257;
114.9000;1.3341;1.8233;
115.2000;1.3382;1.8305;
115.5000;1.3309;1.8063;
115.8000;1.3317;1.8087;
116.1000;1.3358;1.8184;
116.4000;1.3350;1.8063;
116.7000;1.3284;1.7869;
117.0000;1.3317;1.7942;
117.3000;1.3268;1.7893;
117.6000;1.3382;1.8136;
117.9000;1.3341;1.7942;
118.2000;1.3350;1.7990;
118.5000;1.3276;1.7820;
118.8000;1.3325;1.8014;
119.1000;1.3333;1.8063;
119.4000;1.3317;1.8014;
119.7000;1.3301;1.7966;
120.0000;1.3325;1.8063;
120.3000;1.3325;1.8063;
120.6000;1.3309;1.7966;
120.9000;1.3325;1.8014;
121.2000;1.3341;1.8136;
121.5000;1.3325;1.7966;
121.8000;1.3309;1.7990;
122.1000;1.3366;1.8063;
122.4000;1.3317;1.7869;
122.7000;1.3333;1.7893;
123.0000;1.3309;1.7966;
123.3000;1.3309;1.8039;
123.6000;1.3317;1.7990;
123.9000;1.3317;1.7966;
124.2000;1.3317;1.8039;
124.5000;1.3309;1.8039;
124.8000;1.3309;1.8111;
125.1000;1.3317;1.8087;
125.4000;1.3358;1.8087;
125.7000;1.3341;1.7942;
126.0000;1.3325;1.8014;
126.3000;1.3341;1.8039;
126.6000;1.3390;1.8136;
126.9000;1.3317;1.7942;
127.2000;1.3309;1.7893;
127.5000;1.3317;1.7893;
127.8000;1.3317;1.7917;
128.1000;1.3309;1.7893;
128.4000;1.3317;1.7869;
128.7000;1.3309;1.7845;
129.0000;1.3317;1.7917;
129.3000;1.3325;1.7893;
129.6000;1.3309;1.7942;
129.9000;1.3301;1.7942;
130.2000;1.3317;1.7990;
130.5000;1.3333;1.7893;
130.8000;1.3317;1.7893;
131.1000;1.3309;1.7893;
131.4000;1.3317;1.7893;
131.7000;1.3333;1.7966;
132.0000;1.3309;1.7845;
132.3000;1.3333;1.7893;
132.6000;1.3309;1.7869;
132.9000;1.3309;1.7893;
133.2000;1.3309;1.7845;
133.5000;1.3309;1.7845;
133.8000;1.3317;1.7845;
134.1000;1.3309;1.7820;
134.4000;1.3309;1.7820;
134.7000;1.3301;1.7869;
135.0000;1.3317;1.7869;
135.3000;1.3317;1.7917;
135.6000;1.3301;1.7869;
135.9000;1.3317;1.8039;
136.2000;1.3309;1.7966;
136.5000;1.3301;1.8014;
136.8000;1.3317;1.8111;
137.1000;1.3317;1.8014;
137.4000;1.3325;1.7990;
137.7000;1.3276;1.7942;
138.0000;1.3301;1.7942;
138.3000;1.3317;1.7917;
138.6000;1.3284;1.7845;
138.9000;1.3293;1.7942;
139.2000;1.3358;1.8111;
139.5000;1.3317;1.8039;
139.8000;1.3309;1.8039;
140.1000;1.3309;1.8039;
140.4000;1.3317;1.8014;
140.7000;1.3317;1.7966;
141.0000;1.3317;1.8039;
141.3000;1.3317;1.8063;
141.6000;1.3317;1.8014;
141.9000;1.3325;1.8063;
142.2000;1.3309;1.8014;
142.5000;1.3244;1.7893;
142.8000;1.3301;1.8087;
143.1000;1.3309;1.8087;
143.4000;1.3317;1.8111;
143.7000;1.3309;1.8111;
144.0000;1.3293;1.8111;
144.3000;1.3301;1.7966;
144.6000;1.3309;1.7942;
144.9000;1.3301;1.7990;
145.2000;1.3301;1.8014;
145.5000;1.3317;1.8111;
145.8000;1.3309;1.8111;
146.1000;1.3309;1.8087;
146.4000;1.3284;1.8111;
146.7000;1.3293;1.8039;
147.0000;1.3317;1.8063;
147.3000;1.3293;1.8014;
147.6000;1.3309;1.8039;
147.9000;1.3301;1.8039;
148.2000;1.3301;1.8087;
148.5000;1.3284;1.8087;
148.8000;1.3301;1.8136;
149.1000;1.3317;1.8208;
149.4000;1.3341;1.8354;
149.7000;1.3309;1.8233;
150.0000;1.3325;1.8233;
150.3000;1.3309;1.8281;
150.6000;1.3284;1.8233;
150.9000;1.3309;1.8233;
151.2000;1.3374;1.8257;
151.5000;1.3301;1.7990;
151.8000;1.3301;1.7942;
152.1000;1.3325;1.7966;
152.4000;1.3301;1.7942;
152.7000;1.3317;1.8039;
153.0000;1.3301;1.8063;
153.3000;1.3341;1.8087;
153.6000;1.3309;1.7942;
153.9000;1.3301;1.7990;
154.2000;1.3293;1.7966;
154.5000;1.3309;1.8039;
154.8000;1.3317;1.8014;
155.1000;1.3325;1.8039;
155.4000;1.3309;1.7990;
155.7000;1.3325;1.7966;
156.0000;1.3325;1.7942;
156.3000;1.3317;1.7942;
156.6000;1.3350;1.7990;
156.9000;1.3301;1.7748;
157.2000;1.3276;1.7627;
157.5000;1.3284;1.7723;
157.8000;1.3284;1.7699;
158.1000;1.3293;1.7845;
158.4000;1.3317;1.7917;
158.7000;1.3325;1.7966;
159.0000;1.3293;1.7966;
159.3000;1.3284;1.7917;
159.6000;1.3301;1.7990;
159.9000;1.3309;1.8014;
160.2000;1.3301;1.8039;
160.5000;1.3309;1.8039;
160.8000;1.3301;1.8063;
161.1000;1.3301;1.8063;
161.4000;1.3301;1.8063;
161.7000;1.3293;1.8087;
162.0000;1.3301;1.8136;
162.3000;1.3309;1.8136;
162.6000;1.3309;1.8087;
162.9000;1.3301;1.8039;
163.2000;1.3301;1.8087;
163.5000;1.3350;1.8184;
163.8000;1.3309;1.8087;
164.1000;1.3309;1.8014;
164.4000;1.3293;1.7966;
164.7000;1.3317;1.7942;
165.0000;1.3309;1.7942;
165.3000;1.3301;1.7966;
165.6000;1.3317;1.8014;
165.9000;1.3301;1.8063;
166.2000;1.3293;1.8063;
166.5000;1.3309;1.8039;
166.8000;1.3325;1.8087;
167.1000;1.3301;1.8063;
167.4000;1.3309;1.8111;
167.7000;1.3301;1.8281;
168.0000;1.3293;1.8330;
168.3000;1.3293;1.8378;
168.6000;1.3276;1.8330;
168.9000;1.3293;1.8233;
169.2000;1.3284;1.8257;
169.5000;1.3260;1.8087;
169.8000;1.3284;1.8233;
170.1000;1.3284;1.8233;
170.4000;1.3276;1.8039;
170.7000;1.3293;1.8014;
171.0000;1.3252;1.7942;
171.3000;1.3293;1.7990;
171.6000;1.3309;1.8063;
171.9000;1.3301;1.8087;
172.2000;1.3284;1.8063;
172.5000;1.3301;1.8063;
172.8000;1.3293;1.8111;
173.1000;1.3293;1.8063;
173.4000;1.3284;1.8063;
173.7000;1.3276;1.8087;
174.0000;1.3284;1.8160;
174.3000;1.3276;1.8184;
174.6000;1.3276;1.8111;
174.9000;1.3293;1.8160;
175.2000;1.3293;1.8160;
175.5000;1.3301;1.8087;
175.8000;1.3309;1.8087;
176.1000;1.3309;1.8136;
176.4000;1.3268;1.8063;
176.7000;1.3293;1.8087;
177.0000;1.3284;1.8014;
177.3000;1.3309;1.8014;
177.6000;1.3325;1.8039;
177.9000;1.3301;1.7966;
178.2000;1.3284;1.7917;
178.5000;1.3284;1.7893;
178.8000;1.3309;1.7820;
179.1000;1.3293;1.7772;
179.4000;1.3301;1.7772;
179.7000;1.3219;1.7602;
180.0000;1.3309;1.7893;
180.3000;1.3317;1.7917;
180.6000;1.3350;1.7990;
180.9000;1.3309;1.7845;
181.2000;1.3309;1.7772;
181.5000;1.3301;1.7820;
181.8000;1.3309;1.7917;
182.1000;1.3293;1.7893;
182.4000;1.3293;1.7917;
182.7000;1.3268;1.7796;
183.0000;1.3301;1.7893;
183.3000;1.3301;1.7869;
183.6000;1.3301;1.7893;
183.9000;1.3309;1.7917;
184.2000;1.3309;1.7893;
184.5000;1.3309;1.7893;
184.8000;1.3276;1.7917;
185.1000;1.3317;1.8039;
185.4000;1.3317;1.8039;
185.7000;1.3309;1.8039;
186.0000;1.3293;1.8014;
186.3000;1.3325;1.8063;
186.6000;1.3317;1.8111;
186.9000;1.3317;1.8136;
187.2000;1.3260;1.7966;
187.5000;1.3276;1.8063;
187.8000;1.3293;1.8111;
188.1000;1.3301;1.8208;
188.4000;1.3284;1.8208;
188.7000;1.3260;1.8063;
189.0000;1.3293;1.8184;
189.3000;1.3309;1.8208;
189.6000;1.3293;1.8063;
189.9000;1.3293;1.8063;
190.2000;1.3252;1.7942;
190.5000;1.3301;1.8014;
190.8000;1.3293;1.8087;
191.1000;1.3252;1.8063;
191.4000;1.3276;1.8063;
191.7000;1.3284;1.8087;
192.0000;1.3219;1.7893;
192.3000;1.3293;1.8087;
192.6000;1.3293;1.8063;
192.9000;1.3293;1.8039;
193.2000;1.3284;1.8063;
193.5000;1.3301;1.8063;
193.8000;1.3284;1.7990;
194.1000;1.3268;1.7869;
194.4000;1.3293;1.7917;
194.7000;1.3284;1.7942;
195.0000;1.3276;1.7990;
195.3000;1.3276;1.7917;
195.6000;1.3252;1.7869;
195.9000;1.3293;1.7942;
196.2000;1.3276;1.7893;
196.5000;1.3301;1.7942;
196.8000;1.3293;1.7869;
197.1000;1.3293;1.7845;
197.4000;1.3293;1.7820;
197.7000;1.3293;1.7845;
198.0000;1.3301;1.7869;
198.3000;1.3309;1.7917;
198.6000;1.3284;1.7990;
198.9000;1.3276;1.8014;
199.2000;1.3293;1.8111;
199.5000;1.3268;1.8063;
199.8000;1.3268;1.8063;
200.1000;1.3268;1.8039;
200.4000;1.3268;1.8039;
200.7000;1.3284;1.8160;
201.0000;1.3236;1.8063;
201.3000;1.3268;1.8087;
201.6000;1.3293;1.8184;
201.9000;1.3236;1.8136;
202.2000;1.3284;1.8160;
202.5000;1.3268;1.8136;
202.8000;1.3284;1.8087;
203.1000;1.3284;1.8160;
203.4000;1.3293;1.8136;
203.7000;1.3284;1.8087;
204.0000;1.3284;1.8063;
204.3000;1.3284;1.8039;
204.6000;1.3293;1.8111;
204.9000;1.3293;1.8136;
205.2000;1.3276;1.8039;
205.5000;1.3293;1.8087;
205.8000;1.3276;1.8136;
206.1000;1.3284;1.8160;
206.4000;1.3293;1.8160;
206.7000;1.3268;1.8160;
207.0000;1.3325;1.8305;
207.3000;1.3293;1.8281;
207.6000;1.3293;1.8184;
207.9000;1.3350;1.8233;
208.2000;1.3309;1.8160;
208.5000;1.3374;1.8305;
208.8000;1.3301;1.8136;
209.1000;1.3252;1.8039;
209.4000;1.3301;1.8208;
209.7000;1.3382;1.8330;
210.0000;1.3301;1.8208;
210.3000;1.3301;1.8160;
210.6000;1.3284;1.8063;
210.9000;1.3268;1.7966;
211.2000;1.3276;1.8063;
211.5000;1.3293;1.8063;
211.8000;1.3244;1.8014;
212.1000;1.3244;1.8039;
212.4000;1.3244;1.8087;
212.7000;1.3236;1.8087;
213.0000;1.3268;1.8208;
213.3000;1.3268;1.8160;
213.6000;1.3293;1.8233;
213.9000;1.3276;1.8136;
214.2000;1.3236;1.8014;
214.5000;1.3268;1.8087;
214.8000;1.3293;1.8111;
215.1000;1.3268;1.8111;
215.4000;1.3268;1.8111;
215.7000;1.3276;1.8063;
216.0000;1.3276;1.7990;
216.3000;1.3276;1.7990;
216.6000;1.3260;1.7990;
216.9000;1.3276;1.8014;
217.2000;1.3284;1.8087;
217.5000;1.3293;1.8111;
217.8000;1.3293;1.8233;
218.1000;1.3366;1.8378;
218.4000;1.3268;1.8014;
218.7000;1.3301;1.8087;
219.0000;1.3293;1.7893;
219.3000;1.3284;1.7893;
219.6000;1.3293;1.7942;
219.9000;1.3284;1.8039;
220.2000;1.3293;1.8087;
220.5000;1.3276;1.7966;
220.8000;1.3293;1.8014;
221.1000;1.3276;1.8087;
221.4000;1.3268;1.8014;
221.7000;1.3276;1.8063;
222.0000;1.3268;1.8039;
222.3000;1.3276;1.8039;
222.6000;1.3276;1.8063;
222.9000;1.3276;1.8184;
223.2000;1.3284;1.8184;
223.5000;1.3276;1.8208;
223.8000;1.3301;1.8233;
224.1000;1.3293;1.8233;
224.4000;1.3293;1.8184;
224.7000;1.3252;1.8136;
225.0000;1.3276;1.8111;
225.3000;1.3268;1.8136;
225.6000;1.3276;1.8087;
225.9000;1.3293;1.8160;
226.2000;1.3276;1.8136;
226.5000;1.3268;1.8160;
226.8000;1.3276;1.8136;
227.1000;1.3276;1.8111;
227.4000;1.3236;1.8039;
227.7000;1.3130;1.7699;
228.0000;1.3284;1.8063;
228.3000;1.3228;1.7942;
228.6000;1.3293;1.8087;
228.9000;1.3276;1.8014;
229.2000;1.3276;1.7990;
229.5000;1.3276;1.7942;
229.8000;1.3260;1.7942;
230.1000;1.3276;1.7869;
230.4000;1.3293;1.7893;
230.7000;1.3276;1.7942;
231.0000;1.3268;1.7966;
231.3000;1.3260;1.7966;
231.6000;1.3252;1.7966;
231.9000;1.3276;1.7917;
232.2000;1.3301;1.7990;
232.5000;1.3309;1.8039;
232.8000;1.3284;1.8063;
233.1000;1.3276;1.8039;
233.4000;1.3301;1.8111;
233.7000;1.3301;1.8160;
234.0000;1.3317;1.8233;
234.3000;1.3317;1.8184;
234.6000;1.3325;1.8087;
234.9000;1.3284;1.7942;
235.2000;1.3293;1.7942;
235.5000;1.3284;1.7942;
235.8000;1.3293;1.8039;
236.1000;1.3309;1.8136;
236.4000;1.3293;1.8063;
236.7000;1.3268;1.8087;
237.0000;1.3268;1.8039;
237.3000;1.3268;1.8039;
237.6000;1.3260;1.7942;
237.9000;1.3268;1.8039;
238.2000;1.3284;1.8087;
238.5000;1.3284;1.8111;
238.8000;1.3293;1.8111;
239.1000;1.3293;1.8136;
239.4000;1.3293;1.8039;
239.7000;1.3284;1.8039;
240.0000;1.3268;1.8087;
240.3000;1.3276;1.8136;
240.6000;1.3284;1.8257;
240.9000;1.3252;1.8160;
241.2000;1.3252;1.8014;
241.5000;1.3276;1.8111;
241.8000;1.3284;1.8160;
242.1000;1.3301;1.8257;
242.4000;1.3268;1.8160;
242.7000;1.3268;1.8233;
243.0000;1.3276;1.8160;
243.3000;1.3293;1.8184;
243.6000;1.3276;1.8136;
243.9000;1.3284;1.8184;
244.2000;1.3268;1.8184;
244.5000;1.3276;1.8111;
244.8000;1.3301;1.8087;
245.1000;1.3276;1.8136;
245.4000;1.3284;1.8087;
245.7000;1.3284;1.8208;
246.0000;1.3244;1.8111;
246.3000;1.3276;1.8184;
246.6000;1.3309;1.8257;
246.9000;1.3284;1.8257;
247.2000;1.3276;1.8208;
247.5000;1.3301;1.8257;
247.8000;1.3276;1.8233;
248.1000;1.3293;1.8305;
248.4000;1.3301;1.8305;
248.7000;1.3268;1.8208;
249.0000;1.3293;1.8257;
249.3000;1.3268;1.8208;
249.6000;1.3244;1.8208;
249.9000;1.3252;1.8354;
250.2000;1.3236;1.8354;
250.5000;1.3236;1.8233;
250.8000;1.3268;1.8330;
251.1000;1.3268;1.8354;
251.4000;1.3244;1.8208;
251.7000;1.3301;1.8330;
252.0000;1.3268;1.8305;
252.3000;1.3301;1.8330;
252.6000;1.3260;1.8184;
252.9000;1.3284;1.8184;
253.2000;1.3276;1.8184;
253.5000;1.3284;1.8160;
253.8000;1.3260;1.8063;
254.1000;1.3268;1.8039;
254.4000;1.3284;1.8160;
254.7000;1.3276;1.8136;
255.0000;1.3284;1.8160;
255.3000;1.3276;1.8111;
255.6000;1.3284;1.8136;
255.9000;1.3284;1.8257;
256.2000;1.3276;1.8111;
256.5000;1.3276;1.8039;
256.8000;1.3276;1.8063;
257.1000;1.3260;1.8039;
257.4000;1.3284;1.8063;
257.7000;1.3260;1.7966;
258.0000;1.3293;1.8184;
258.3000;1.3268;1.8208;
258.6000;1.3268;1.8233;
258.9000;1.3276;1.8136;
259.2000;1.3260;1.8184;
259.5000;1.3236;1.8136;
259.8000;1.3268;1.8039;
260.1000;1.3260;1.8014;
260.4000;1.3244;1.7942;
260.7000;1.3244;1.7917;
261.0000;1.3268;1.8014;
261.3000;1.3244;1.8039;
261.6000;1.3252;1.8087;
261.9000;1.3268;1.8111;
262.2000;1.3260;1.8160;
262.5000;1.3276;1.8160;
262.8000;1.3252;1.8184;
263.1000;1.3252;1.8233;
263.4000;1.3260;1.8305;
263.7000;1.3260;1.8257;
264.0000;1.3268;1.8257;
264.3000;1.3268;1.8281;
264.6000;1.3317;1.8451;
264.9000;1.3260;1.8305;
265.2000;1.3252;1.8305;
265.5000;1.3276;1.8281;
265.8000;1.3284;1.8257;
266.1000;1.3284;1.8305;
266.4000;1.3276;1.8305;
266.7000;1.3268;1.8305;
267.0000;1.3276;1.8427;
267.3000;1.3260;1.8427;
267.6000;1.3325;1.8596;
267.9000;1.3260;1.8330;
268.2000;1.3276;1.8305;
268.5000;1.3284;1.8305;
268.8000;1.3260;1.8257;
269.1000;1.3276;1.8281;
269.4000;1.3268;1.8330;
269.7000;1.3244;1.8305;
270.0000;1.3260;1.8281;
270.3000;1.3260;1.8257;
270.6000;1.3252;1.8136;
270.9000;1.3252;1.7990;
271.2000;1.3268;1.8014;
271.5000;1.3260;1.7966;
271.8000;1.3260;1.8039;
272.1000;1.3244;1.8014;
272.4000;1.3211;1.7942;
272.7000;1.3309;1.8233;
273.0000;1.3284;1.8087;
273.3000;1.3260;1.8111;
273.6000;1.3268;1.8160;
273.9000;1.3276;1.8184;
274.2000;1.3301;1.8305;
274.5000;1.3293;1.8281;
274.8000;1.3236;1.8136;
275.1000;1.3276;1.8257;
275.4000;1.3268;1.8233;
275.7000;1.3260;1.8208;
276.0000;1.3268;1.8330;
276.3000;1.3276;1.8402;
276.6000;1.3268;1.8354;
276.9000;1.3268;1.8402;
277.2000;1.3268;1.8354;
277.5000;1.3268;1.8281;
277.8000;1.3268;1.8257;
278.1000;1.3268;1.8257;
278.4000;1.3260;1.8281;
278.7000;1.3260;1.8281;
279.0000;1.3268;1.8305;
279.3000;1.3284;1.8330;
279.6000;1.3268;1.8257;
279.9000;1.3268;1.8330;
280.2000;1.3268;1.8354;
280.5000;1.3268;1.8233;
280.8000;1.3260;1.8136;
281.1000;1.3276;1.8233;
281.4000;1.3325;1.8281;
281.7000;1.3252;1.8160;
282.0000;1.3252;1.8257;
282.3000;1.3317;1.8402;
282.6000;1.3276;1.8281;
282.9000;1.3268;1.8257;
283.2000;1.3260;1.8257;
283.5000;1.3236;1.8208;
283.8000;1.3260;1.8281;
284.1000;1.3268;1.8208;
284.4000;1.3252;1.8233;
284.7000;1.3252;1.8233;
285.0000;1.3276;1.8281;
285.3000;1.3276;1.8257;
285.6000;1.3284;1.8330;
285.9000;1.3260;1.8233;
286.2000;1.3268;1.8208;
286.5000;1.3309;1.8305;
286.8000;1.3252;1.8208;
287.1000;1.3252;1.8136;
287.4000;1.3268;1.8184;
287.7000;1.3276;1.8184;
288.0000;1.3268;1.8136;
288.3000;1.3276;1.8184;
288.6000;1.3260;1.8208;
288.9000;1.3268;1.8281;
289.2000;1.3276;1.8305;
289.5000;1.3260;1.8257;
289.8000;1.3260;1.8233;
290.1000;1.3276;1.8281;
290.4000;1.3284;1.8184;
290.7000;1.3276;1.8233;
291.0000;1.3268;1.8208;
291.3000;1.3276;1.8257;
291.6000;1.3309;1.8330;
291.9000;1.3252;1.8184;
292.2000;1.3276;1.8208;
292.5000;1.3268;1.8208;
292.8000;1.3276;1.8233;
293.1000;1.3228;1.8184;
293.4000;1.3268;1.8354;
293.7000;1.3252;1.8354;
294.0000;1.3268;1.8330;
294.3000;1.3268;1.8305;
294.6000;1.3244;1.8184;
294.9000;1.3260;1.8233;
295.2000;1.3228;1.8111;
295.5000;1.3268;1.8281;
295.8000;1.3252;1.8208;
296.1000;1.3244;1.8208;
296.4000;1.3252;1.8233;
296.7000;1.3268;1.8184;
297.0000;1.3252;1.8160;
297.3000;1.3268;1.8184;
297.6000;1.3268;1.8111;
297.9000;1.3276;1.8111;
298.2000;1.3276;1.8111;
298.5000;1.3260;1.8160;
298.8000;1.3252;1.8233;
299.1000;1.3268;1.8281;
299.4000;1.3260;1.8233;
299.7000;1.3293;1.8354;
300.0000;1.3276;1.8378;
300.3000;1.3268;1.8305;
300.6000;1.3268;1.8305;
300.9000;1.3268;1.8257;
301.2000;1.3260;1.8330;
301.5000;1.3244;1.8330;
301.8000;1.3276;1.8305;
302.1000;1.3244;1.8305;
302.4000;1.3252;1.8330;
302.7000;1.3260;1.8330;
303.0000;1.3252;1.8354;
303.3000;1.3211;1.8257;
303.6000;1.3244;1.8378;
303.9000;1.3236;1.8354;
304.2000;1.3179;1.8160;
304.5000;1.3228;1.8233;
304.8000;1.3236;1.8160;
305.1000;1.3284;1.8184;
305.4000;1.3325;1.8305;
305.7000;1.3228;1.7990;
306.0000;1.3260;1.8039;
306.3000;1.3284;1.8208;
306.6000;1.3276;1.8160;
306.9000;1.3284;1.8233;
307.2000;1.3276;1.8257;
307.5000;1.3260;1.8281;
307.8000;1.3260;1.8233;
308.1000;1.3260;1.8087;
308.4000;1.3252;1.8014;
308.7000;1.3260;1.8014;
309.0000;1.3244;1.7966;
309.3000;1.3252;1.7869;
309.6000;1.3236;1.7820;
309.9000;1.3260;1.7917;
310.2000;1.3252;1.7966;
310.5000;1.3252;1.8111;
310.8000;1.3260;1.8136;
311.1000;1.3228;1.8111;
311.4000;1.3228;1.8039;
311.7000;1.3244;1.8136;
312.0000;1.3268;1.8111;
312.3000;1.3260;1.8063;
312.6000;1.3252;1.8087;
312.9000;1.3268;1.8136;
313.2000;1.3244;1.8087;
313.5000;1.3236;1.8111;
313.8000;1.3260;1.8208;
314.1000;1.3252;1.8208;
314.4000;1.3260;1.8257;
314.7000;1.3252;1.8184;
315.0000;1.3260;1.8184;
315.3000;1.3260;1.8160;
315.6000;1.3260;1.8184;
315.9000;1.3260;1.8136;
316.2000;1.3252;1.8087;
316.5000;1.3244;1.8184;
316.8000;1.3244;1.8257;
317.1000;1.3236;1.8257;
317.4000;1.3244;1.8305;
317.7000;1.3244;1.8330;
318.0000;1.3228;1.8281;
318.3000;1.3260;1.8330;
318.6000;1.3260;1.8330;
318.9000;1.3244;1.8354;
319.2000;1.3276;1.8451;
319.5000;1.3252;1.8330;
319.8000;1.3244;1.8330;
320.1000;1.3244;1.8281;
320.4000;1.3293;1.8330;
320.7000;1.3252;1.8208;
321.0000;1.3244;1.8184;
321.3000;1.3260;1.8184;
321.6000;1.3276;1.8281;
321.9000;1.3260;1.8257;
322.2000;1.3211;1.8184;
322.5000;1.3284;1.8402;
322.8000;1.3244;1.8378;
323.1000;1.3219;1.8378;
323.4000;1.3268;1.8451;
323.7000;1.3268;1.8378;
324.0000;1.3252;1.8402;
324.3000;1.3276;1.8475;
324.6000;1.3260;1.8402;
324.9000;1.3260;1.8427;
325.2000;1.3195;1.8281;
325.5000;1.3244;1.8354;
325.8000;1.3260;1.8281;
326.1000;1.3252;1.8208;
326.4000;1.3244;1.8257;
326.7000;1.3236;1.8184;
327.0000;1.3276;1.8330;
327.3000;1.3293;1.8378;
327.6000;1.3284;1.8378;
327.9000;1.3276;1.8378;
328.2000;1.3244;1.8427;
328.5000;1.3309;1.8572;
328.8000;1.3236;1.8354;
329.1000;1.3228;1.8257;
329.4000;1.3236;1.8233;
329.7000;1.3252;1.8281;
330.0000;1.3252;1.8305;
330.3000;1.3244;1.8378;
330.6000;1.3219;1.8281;
330.9000;1.3236;1.8305;
331.2000;1.3236;1.8305;
331.5000;1.3252;1.8354;
331.8000;1.3236;1.8330;
332.1000;1.3252;1.8281;
332.4000;1.3244;1.8354;
332.7000;1.3252;1.8475;
333.0000;1.3236;1.8427;
333.3000;1.3252;1.8475;
333.6000;1.3260;1.8451;
333.9000;1.3252;1.8427;
334.2000;1.3244;1.8475;
334.5000;1.3244;1.8475;
334.8000;1.3252;1.8451;
335.1000;1.3252;1.8378;
335.4000;1.3260;1.8330;
335.7000;1.3244;1.8281;
336.0000;1.3244;1.8257;
336.3000;1.3268;1.8184;
336.6000;1.3244;1.8136;
336.9000;1.3252;1.8136;
337.2000;1.3244;1.8160;
337.5000;1.3187;1.8063;
337.8000;1.3268;1.8330;
338.1000;1.3244;1.8281;
338.4000;1.3252;1.8305;
338.7000;1.3252;1.8233;
339.0000;1.3236;1.8233;
339.3000;1.3236;1.8305;
339.6000;1.3252;1.8402;
339.9000;1.3252;1.8427;
340.2000;1.3228;1.8330;
340.5000;1.3252;1.8378;
340.8000;1.3228;1.8330;
341.1000;1.3268;1.8451;
341.4000;1.3244;1.8330;
341.7000;1.3219;1.8257;
342.0000;1.3260;1.8378;
342.3000;1.3244;1.8330;
342.6000;1.3260;1.8305;
342.9000;1.3260;1.8330;
343.2000;1.3252;1.8257;
343.5000;1.3268;1.8281;
343.8000;1.3252;1.8136;
344.1000;1.3236;1.8111;
344.4000;1.3252;1.8111;
344.7000;1.3187;1.7917;
345.0000;1.3252;1.8087;
345.3000;1.3268;1.8087;
345.6000;1.3244;1.8111;
345.9000;1.3252;1.8160;
346.2000;1.3293;1.8330;
346.5000;1.3268;1.8208;
346.8000;1.3252;1.8136;
347.1000;1.3268;1.8160;
347.4000;1.3268;1.8160;
347.7000;1.3252;1.8111;
348.0000;1.3276;1.8111;
348.3000;1.3244;1.8063;
348.6000;1.3236;1.8039;
348.9000;1.3236;1.8160;
349.2000;1.3236;1.8184;
349.5000;1.3244;1.8136;
349.8000;1.3228;1.8136;
350.1000;1.3236;1.8184;
350.4000;1.3244;1.8184;
350.7000;1.3236;1.8184;
351.0000;1.3236;1.8111;
351.3000;1.3236;1.8111;
351.6000;1.3236;1.8184;
351.9000;1.3236;1.8233;
352.2000;1.3236;1.8233;
352.5000;1.3236;1.8281;
352.8000;1.3171;1.8184;
353.1000;1.3236;1.8354;
353.4000;1.3244;1.8354;
353.7000;1.3228;1.8330;
354.0000;1.3244;1.8305;
354.3000;1.3236;1.8330;
354.6000;1.3236;1.8354;
354.9000;1.3236;1.8330;
355.2000;1.3228;1.8305;
355.5000;1.3236;1.8184;
355.8000;1.3244;1.8257;
356.1000;1.3236;1.8233;
356.4000;1.3252;1.8257;
356.7000;1.3252;1.8281;
357.0000;1.3252;1.8257;
357.3000;1.3244;1.8208;
357.6000;1.3244;1.8257;
357.9000;1.3236;1.8330;
358.2000;1.3244;1.8354;
358.5000;1.3236;1.8281;
358.8000;1.3236;1.8305;
359.1000;1.3252;1.8354;
359.4000;1.3244;1.8378;
359.7000;1.3236;1.8402;
360.0000;1.3236;1.8378;
360.3000;1.3219;1.8378;
360.6000;1.3244;1.8475;
360.9000;1.3244;1.8451;
361.2000;1.3236;1.8427;
361.5000;1.3228;1.8378;
361.8000;1.3236;1.8378;
362.1000;1.3228;1.8330;
362.4000;1.3236;1.8330;
362.7000;1.3236;1.8281;
363.0000;1.3244;1.8208;
363.3000;1.3228;1.8184;
363.6000;1.3244;1.8233;
363.9000;1.3228;1.8208;
364.2000;1.3236;1.8208;
364.5000;1.3244;1.8281;
364.8000;1.3236;1.8257;
365.1000;1.3219;1.8233;
365.4000;1.3219;1.8281;
365.7000;1.3236;1.8378;
366.0000;1.3236;1.8402;
366.3000;1.3236;1.8427;
366.6000;1.3244;1.8451;
366.9000;1.3244;1.8451;
367.2000;1.3244;1.8402;
367.5000;1.3236;1.8378;
367.8000;1.3228;1.8330;
368.1000;1.3244;1.8378;
368.4000;1.3252;1.8378;
368.7000;1.3293;1.8451;
369.0000;1.3244;1.8330;
369.3000;1.3236;1.8257;
369.6000;1.3252;1.8233;
369.9000;1.3187;1.8111;
370.2000;1.3236;1.8257;
370.5000;1.3228;1.8305;
370.8000;1.3252;1.8305;
371.1000;1.3236;1.8281;
371.4000;1.3228;1.8257;
371.7000;1.3228;1.8233;
372.0000;1.3244;1.8281;
372.3000;1.3244;1.8257;
372.6000;1.3219;1.8184;
372.9000;1.3236;1.8233;
373.2000;1.3244;1.8354;
373.5000;1.3244;1.8378;
373.8000;1.3244;1.8427;
374.1000;1.3236;1.8402;
374.4000;1.3236;1.8281;
374.7000;1.3244;1.8330;
375.0000;1.3244;1.8354;
375.3000;1.3236;1.8354;
375.6000;1.3236;1.8330;
375.9000;1.3244;1.8330;
376.2000;1.3260;1.8330;
376.5000;1.3236;1.8208;
376.8000;1.3236;1.8233;
377.1000;1.3252;1.8208;
377.4000;1.3244;1.8184;
377.7000;1.3236;1.8136;
378.0000;1.3244;1.8111;
378.3000;1.3236;1.8136;
378.6000;1.3252;1.8136;
378.9000;1.3244;1.8111;
379.2000;1.3244;1.8111;
379.5000;1.3244;1.8160;
379.8000;1.3236;1.8184;
380.1000;1.3236;1.8208;
380.4000;1.3228;1.8233;
380.7000;1.3244;1.8330;
381.0000;1.3244;1.8378;
381.3000;1.3228;1.8378;
381.6000;1.3244;1.8427;
381.9000;1.3236;1.8378;
382.2000;1.3244;1.8475;
382.5000;1.3260;1.8427;
382.8000;1.3219;1.8305;
383.1000;1.3228;1.8208;
383.4000;1.3203;1.8257;
383.7000;1.3244;1.8402;
384.0000;1.3244;1.8281;
384.3000;1.3252;1.8305;
384.6000;1.3236;1.8208;
384.9000;1.3236;1.8208;
385.2000;1.3244;1.8257;
385.5000;1.3195;1.8281;
385.8000;1.3228;1.8354;
386.1000;1.3236;1.8330;
386.4000;1.3228;1.8330;
386.7000;1.3211;1.8378;
387.0000;1.3219;1.8451;
387.3000;1.3236;1.8475;
387.6000;1.3228;1.8524;
387.9000;1.3228;1.8499;
388.2000;1.3219;1.8475;
388.5000;1.3252;1.8427;
388.8000;1.3252;1.8427;
389.1000;1.3244;1.8354;
389.4000;1.3228;1.8281;
389.7000;1.3252;1.8257;
390.0000;1.3236;1.8305;
390.3000;1.3203;1.8330;
390.6000;1.3228;1.8378;
390.9000;1.3228;1.8305;
391.2000;1.3252;1.8330;
391.5000;1.3195;1.8087;
391.8000;1.3236;1.8111;
392.1000;1.3244;1.8063;
392.4000;1.3252;1.8014;
392.7000;1.3244;1.7966;
393.0000;1.3228;1.8039;
393.3000;1.3236;1.8039;
393.6000;1.3244;1.8014;
393.9000;1.3252;1.8039;
394.2000;1.3252;1.8014;
394.5000;1.3228;1.7942;
394.8000;1.3244;1.8014;
395.1000;1.3211;1.7990;
395.4000;1.3228;1.8014;
395.7000;1.3236;1.8039;
396.0000;1.3244;1.8063;
396.3000;1.3236;1.8087;
396.6000;1.3236;1.8111;
396.9000;1.3236;1.8039;
397.2000;1.3228;1.7966;
397.5000;1.3236;1.7942;
397.8000;1.3244;1.7966;
398.1000;1.3236;1.7990;
398.4000;1.3236;1.7966;
398.7000;1.3236;1.7966;
399.0000;1.3244;1.7869;
399.3000;1.3244;1.7942;
399.6000;1.3236;1.7942;
399.9000;1.3244;1.7942;
400.2000;1.3244;1.7942;
400.5000;1.3244;1.7942;
400.8000;1.3236;1.7990;
401.1000;1.3228;1.7966;
401.4000;1.3219;1.7942;
401.7000;1.3236;1.7942;
402.0000;1.3219;1.7893;
402.3000;1.3228;1.7917;
402.6000;1.3228;1.7966;
402.9000;1.3219;1.7966;
403.2000;1.3228;1.7990;
403.5000;1.3203;1.8014;
403.8000;1.3228;1.8111;
404.1000;1.3236;1.8087;
404.4000;1.3219;1.7966;
404.7000;1.3195;1.7845;
405.0000;1.3252;1.7966;
405.3000;1.3252;1.7966;
405.6000;1.3244;1.7966;
405.9000;1.3228;1.8039;
406.2000;1.3228;1.8039;
406.5000;1.3219;1.8014;
406.8000;1.3236;1.8063;
407.1000;1.3219;1.8087;
407.4000;1.3276;1.8160;
407.7000;1.3260;1.8087;
408.0000;1.3195;1.7990;
408.3000;1.3219;1.8063;
408.6000;1.3228;1.8111;
408.9000;1.3154;1.7869;
409.2000;1.3228;1.8111;
409.5000;1.3219;1.8087;
409.8000;1.3219;1.7990;
410.1000;1.3244;1.8063;
410.4000;1.3203;1.7990;
410.7000;1.3228;1.8063;
411.0000;1.3228;1.8063;
411.3000;1.3228;1.8087;
411.6000;1.3244;1.8087;
411.9000;1.3236;1.8063;
412.2000;1.3219;1.8039;
412.5000;1.3228;1.8063;
412.8000;1.3228;1.8136;
413.1000;1.3228;1.8160;
413.4000;1.3211;1.8208;
413.7000;1.3236;1.8233;
414.0000;1.3211;1.8111;
414.3000;1.3228;1.8111;
414.6000;1.3236;1.8160;
414.9000;1.3228;1.8160;
415.2000;1.3236;1.8184;
415.5000;1.3244;1.8305;
415.8000;1.3228;1.8257;
416.1000;1.3252;1.8281;
416.4000;1.3228;1.8208;
416.7000;1.3293;1.8378;
417.0000;1.3252;1.8160;
417.3000;1.3236;1.8087;
417.6000;1.3244;1.8063;
417.9000;1.3228;1.8039;
418.2000;1.3301;1.8281;
418.5000;1.3130;1.7820;
418.8000;1.3228;1.8063;
419.1000;1.3203;1.8063;
419.4000;1.3219;1.7990;
419.7000;1.3244;1.7990;
420.0000;1.3244;1.7942;
420.3000;1.3276;1.8136;
420.6000;1.3236;1.8039;
420.9000;1.3236;1.8039;
421.2000;1.3244;1.8063;
421.5000;1.3219;1.7990;
421.8000;1.3252;1.8111;
422.1000;1.3228;1.8014;
422.4000;1.3228;1.7966;
422.7000;1.3219;1.7917;
423.0000;1.3219;1.7942;
423.3000;1.3228;1.8014;
423.6000;1.3219;1.8039;
423.9000;1.3219;1.8063;
424.2000;1.3228;1.8014;
424.5000;1.3236;1.8087;
424.8000;1.3236;1.8111;
425.1000;1.3228;1.8087;
425.4000;1.3236;1.8136;
425.7000;1.3228;1.8111;
426.0000;1.3228;1.8136;
426.3000;1.3195;1.8063;
426.6000;1.3211;1.8063;
426.9000;1.3219;1.8087;
427.2000;1.3228;1.7942;
427.5000;1.3203;1.7917;
427.8000;1.3211;1.7966;
428.1000;1.3219;1.7869;
428.4000;1.3228;1.7942;
428.7000;1.3195;1.7893;
429.0000;1.3228;1.8014;
429.3000;1.3203;1.7942;
429.6000;1.3211;1.7966;
429.9000;1.3162;1.7869;
430.2000;1.3219;1.8087;
430.5000;1.3211;1.8184;
430.8000;1.3219;1.8208;
431.1000;1.3211;1.8184;
431.4000;1.3228;1.8160;
431.7000;1.3219;1.8087;
432.0000;1.3203;1.8087;
432.3000;1.3219;1.8136;
432.6000;1.3244;1.8136;
432.9000;1.3171;1.7990;
433.2000;1.3293;1.8233;
433.5000;1.3228;1.8063;
433.8000;1.3219;1.8039;
434.1000;1.3325;1.8330;
434.4000;1.3195;1.7942;
434.7000;1.3228;1.7990;
435.0000;1.3228;1.8014;
435.3000;1.3228;1.8014;
435.6000;1.3236;1.8063;
435.9000;1.3228;1.8111;
436.2000;1.3228;1.8014;
436.5000;1.3252;1.8087;
436.8000;1.3219;1.8039;
437.1000;1.3219;1.8111;
437.4000;1.3228;1.8087;
437.7000;1.3211;1.8039;
438.0000;1.3244;1.8039;
438.3000;1.3228;1.8014;
438.6000;1.3228;1.8014;
438.9000;1.3228;1.8039;
439.2000;1.3244;1.8111;
439.5000;1.3203;1.7966;
439.8000;1.3236;1.8063;
440.1000;1.3203;1.7966;
440.4000;1.3228;1.8039;
440.7000;1.3228;1.8063;
441.0000;1.3211;1.8063;
441.3000;1.3252;1.8160;
441.6000;1.3219;1.8087;
441.9000;1.3211;1.8087;
442.2000;1.3236;1.8111;
442.5000;1.3228;1.8039;
442.8000;1.3211;1.8063;
443.1000;1.3179;1.7942;
443.4000;1.3219;1.8063;
443.7000;1.3236;1.8136;
444.0000;1.3309;1.8281;
444.3000;1.3260;1.8160;
444.6000;1.3219;1.8111;
444.9000;1.3236;1.8087;
445.2000;1.3252;1.8208;
445.5000;1.3228;1.8184;
445.8000;1.3219;1.8233;
446.1000;1.3219;1.8257;
446.4000;1.3219;1.8208;
446.7000;1.3228;1.8233;
447.0000;1.3203;1.8257;
447.3000;1.3276;1.8354;
447.6000;1.3211;1.8257;
447.9000;1.3228;1.8305;
448.2000;1.3219;1.8257;
448.5000;1.3203;1.8233;
448.8000;1.3219;1.8208;
449.1000;1.3203;1.8160;
449.4000;1.3219;1.8208;
449.7000;1.3236;1.8184;
450.0000;1.3195;1.8039;
450.3000;1.3228;1.8136;
450.6000;1.3219;1.8111;
450.9000;1.3219;1.8160;
451.2000;1.3236;1.8160;
451.5000;1.3219;1.8087;
451.8000;1.3211;1.8087;
452.1000;1.3211;1.8087;
452.4000;1.3228;1.8063;
452.7000;1.3195;1.8136;
453.0000;1.3228;1.8184;
453.3000;1.3211;1.8087;
453.6000;1.3219;1.8063;
453.9000;1.3219;1.8136;
454.2000;1.3276;1.8305;
454.5000;1.3211;1.8184;
454.8000;1.3187;1.8063;
455.1000;1.3211;1.8087;
455.4000;1.3211;1.8087;
455.7000;1.3211;1.8087;
456.0000;1.3219;1.8087;
456.3000;1.3203;1.7990;
456.6000;1.3211;1.8014;
456.9000;1.3203;1.8039;
457.2000;1.3252;1.8184;
457.5000;1.3203;1.8014;
457.8000;1.3219;1.8063;
458.1000;1.3211;1.8039;
458.4000;1.3236;1.8111;
458.7000;1.3236;1.8087;
459.0000;1.3219;1.8039;
459.3000;1.3203;1.7942;
459.6000;1.3252;1.8063;
459.9000;1.3203;1.7990;
460.2000;1.3211;1.8039;
460.5000;1.3236;1.8039;
460.8000;1.3219;1.8063;
461.1000;1.3203;1.8160;
461.4000;1.3211;1.8233;
461.7000;1.3211;1.8111;
462.0000;1.3211;1.8208;
462.3000;1.3236;1.8233;
462.6000;1.3228;1.8233;
462.9000;1.3219;1.8233;
463.2000;1.3228;1.8305;
463.5000;1.3211;1.8281;
463.8000;1.3203;1.8233;
464.1000;1.3179;1.8136;
464.4000;1.3219;1.8281;
464.7000;1.3219;1.8305;
465.0000;1.3203;1.8330;
465.3000;1.3228;1.8402;
465.6000;1.3228;1.8402;
465.9000;1.3211;1.8281;
466.2000;1.3219;1.8305;
466.5000;1.3211;1.8305;
466.8000;1.3219;1.8378;
467.1000;1.3211;1.8378;
467.4000;1.3211;1.8402;
467.7000;1.3228;1.8427;
468.0000;1.3203;1.8305;
468.3000;1.3211;1.8281;
468.6000;1.3203;1.8305;
468.9000;1.3203;1.8281;
469.2000;1.3219;1.8305;
469.5000;1.3211;1.8184;
469.8000;1.3203;1.8208;
470.1000;1.3203;1.8233;
470.4000;1.3203;1.8233;
470.7000;1.3219;1.8257;
471.0000;1.3203;1.8160;
471.3000;1.3228;1.8208;
471.6000;1.3203;1.8136;
471.9000;1.3228;1.8063;
472.2000;1.3244;1.8087;
472.5000;1.3219;1.8087;
472.8000;1.3219;1.8160;
473.1000;1.3211;1.8087;
473.4000;1.3211;1.8014;
473.7000;1.3195;1.8063;
474.0000;1.3203;1.8136;
474.3000;1.3203;1.8281;
474.6000;1.3211;1.8305;
474.9000;1.3236;1.8378;
475.2000;1.3219;1.8378;
475.5000;1.3244;1.8499;
475.8000;1.3228;1.8475;
476.1000;1.3211;1.8427;
476.4000;1.3219;1.8402;
476.7000;1.3236;1.8427;
477.0000;1.3228;1.8354;
477.3000;1.3244;1.8281;
477.6000;1.3260;1.8402;
477.9000;1.3211;1.8305;
478.2000;1.3171;1.8184;
478.5000;1.3195;1.8281;
478.8000;1.3236;1.8354;
479.1000;1.3187;1.8281;
479.4000;1.3203;1.8233;
479.7000;1.3203;1.8305;
480.0000;1.3219;1.8378;
480.3000;1.3187;1.8305;
480.6000;1.3195;1.8305;
480.9000;1.3236;1.8427;
481.2000;1.3203;1.8402;
481.5000;1.3195;1.8378;
481.8000;1.3219;1.8451;
482.1000;1.3228;1.8524;
482.4000;1.3219;1.8499;
482.7000;1.3219;1.8621;
483.0000;1.3211;1.8548;
483.3000;1.3203;1.8475;
483.6000;1.3244;1.8427;
483.9000;1.3211;1.8354;
484.2000;1.3219;1.8330;
484.5000;1.3219;1.8305;
484.8000;1.3219;1.8305;
485.1000;1.3219;1.8378;
485.4000;1.3203;1.8378;
485.7000;1.3219;1.8427;
486.0000;1.3219;1.8499;
486.3000;1.3219;1.8548;
486.6000;1.3195;1.8524;
486.9000;1.3211;1.8621;
487.2000;1.3187;1.8596;
487.5000;1.3195;1.8621;
487.8000;1.3211;1.8596;
488.1000;1.3203;1.8499;
488.4000;1.3219;1.8451;
488.7000;1.3236;1.8451;
489.0000;1.3211;1.8427;
489.3000;1.3203;1.8354;
489.6000;1.3203;1.8402;
489.9000;1.3187;1.8427;
490.2000;1.3203;1.8524;
490.5000;1.3195;1.8475;
490.8000;1.3211;1.8475;
491.1000;1.3203;1.8451;
491.4000;1.3211;1.8451;
491.7000;1.3219;1.8451;
492.0000;1.3211;1.8354;
492.3000;1.3211;1.8281;
492.6000;1.3203;1.8281;
492.9000;1.3203;1.8257;
493.2000;1.3211;1.8330;
493.5000;1.3219;1.8330;
493.8000;1.3203;1.8305;
494.1000;1.3195;1.8354;
494.4000;1.3219;1.8354;
494.7000;1.3236;1.8427;
495.0000;1.3195;1.8427;
495.3000;1.3195;1.8427;
495.6000;1.3187;1.8354;
495.9000;1.3211;1.8305;
496.2000;1.3219;1.8305;
496.5000;1.3195;1.8257;
496.8000;1.3203;1.8208;
497.1000;1.3211;1.8233;
497.4000;1.3162;1.8160;
497.7000;1.3236;1.8257;
498.0000;1.3211;1.8184;
498.3000;1.3211;1.8257;
498.6000;1.3219;1.8305;
498.9000;1.3195;1.8330;
499.2000;1.3211;1.8427;
499.5000;1.3211;1.8402;
499.8000;1.3236;1.8378;
500.1000;1.3228;1.8354;
500.4000;1.3122;1.8136;
500.7000;1.3195;1.8305;
501.0000;1.3211;1.8378;
501.3000;1.3219;1.8427;
501.6000;1.3211;1.8427;
501.9000;1.3187;1.8402;
502.2000;1.3211;1.8330;
502.5000;1.3203;1.8402;
502.8000;1.3219;1.8451;
503.1000;1.3211;1.8572;
503.4000;1.3195;1.8548;
503.7000;1.3162;1.8427;
504.0000;1.3211;1.8499;
504.3000;1.3211;1.8548;
504.6000;1.3187;1.8451;
504.9000;1.3203;1.8475;
505.2000;1.3293;1.8669;
505.5000;1.3203;1.8402;
505.8000;1.3195;1.8257;
506.1000;1.3203;1.8257;
506.4000;1.3203;1.8281;
506.7000;1.3203;1.8281;
507.0000;1.3203;1.8233;
507.3000;1.3211;1.8281;
507.6000;1.3211;1.8354;
507.9000;1.3228;1.8475;
508.2000;1.3228;1.8451;
508.5000;1.3195;1.8451;
508.8000;1.3219;1.8572;
509.1000;1.3211;1.8548;
509.4000;1.3219;1.8451;
509.7000;1.3179;1.8378;
510.0000;1.3171;1.8208;
510.3000;1.3162;1.8257;
510.6000;1.3203;1.8451;
510.9000;1.3268;1.8693;
511.2000;1.3211;1.8572;
511.5000;1.3219;1.8499;
511.8000;1.3203;1.8378;
512.1000;1.3211;1.8330;
512.4000;1.3195;1.8233;
512.7000;1.3228;1.8354;
513.0000;1.3154;1.8233;
513.3000;1.3203;1.8378;
513.6000;1.3179;1.8354;
513.9000;1.3203;1.8427;
514.2000;1.3195;1.8451;
514.5000;1.3195;1.8402;
514.8000;1.3203;1.8305;
515.1000;1.3195;1.8281;
515.4000;1.3211;1.8257;
515.7000;1.3195;1.8281;
516.0000;1.3203;1.8305;
516.3000;1.3187;1.8281;
516.6000;1.3211;1.8354;
516.9000;1.3203;1.8378;
517.2000;1.3187;1.8281;
517.5000;1.3187;1.8233;
517.8000;1.3195;1.8305;
518.1000;1.3187;1.8257;
518.4000;1.3203;1.8305;
518.7000;1.3187;1.8330;
519.0000;1.3195;1.8354;
519.3000;1.3203;1.8451;
519.6000;1.3187;1.8524;
519.9000;1.3171;1.8524;
520.2000;1.3195;1.8499;
520.5000;1.3203;1.8475;
520.8000;1.3195;1.8281;
521.1000;1.3195;1.8330;
521.4000;1.3252;1.8451;
521.7000;1.3203;1.8402;
522.0000;1.3219;1.8451;
522.3000;1.3203;1.8427;
522.6000;1.3203;1.8475;
522.9000;1.3211;1.8499;
523.2000;1.3195;1.8451;
523.5000;1.3203;1.8499;
523.8000;1.3138;1.8281;
524.1000;1.3236;1.8524;
524.4000;1.3195;1.8402;
524.7000;1.3187;1.8305;
525.0000;1.3203;1.8378;
525.3000;1.3211;1.8378;
525.6000;1.3195;1.8378;
525.9000;1.3203;1.8354;
526.2000;1.3179;1.8305;
526.5000;1.3187;1.8378;
526.8000;1.3211;1.8499;
527.1000;1.3203;1.8548;
527.4000;1.3203;1.8548;
527.7000;1.3203;1.8572;
528.0000;1.3219;1.8596;
528.3000;1.3187;1.8427;
528.6000;1.3219;1.8402;
528.9000;1.3211;1.8330;
529.2000;1.3211;1.8427;
529.5000;1.3211;1.8475;
529.8000;1.3195;1.8451;
530.1000;1.3195;1.8499;
530.4000;1.3203;1.8451;
530.7000;1.3203;1.8305;
531.0000;1.3179;1.8305;
531.3000;1.3195;1.8451;
531.6000;1.3203;1.8451;
531.9000;1.3203;1.8475;
532.2000;1.3187;1.8475;
532.5000;1.3187;1.8499;
532.8000;1.3211;1.8548;
533.1000;1.3211;1.8524;
533.4000;1.3211;1.8524;
533.7000;1.3211;1.8451;
534.0000;1.3195;1.8402;
534.3000;1.3244;1.8427;
534.6000;1.3203;1.8330;
534.9000;1.3187;1.8305;
535.2000;1.3195;1.8378;
535.5000;1.3244;1.8524;
535.8000;1.3211;1.8475;
536.1000;1.3179;1.8402;
536.4000;1.3171;1.8354;
536.7000;1.3171;1.8354;
537.0000;1.3154;1.8330;
537.3000;1.3203;1.8451;
537.6000;1.3195;1.8378;
537.9000;1.3219;1.8402;
538.2000;1.3211;1.8475;
538.5000;1.3203;1.8524;
538.8000;1.3195;1.8499;
539.1000;1.3187;1.8451;
539.4000;1.3203;1.8451;
539.7000;1.3203;1.8475;
540.0000;1.3195;1.8402;
540.3000;1.3179;1.8378;
540.6000;1.3203;1.8402;
540.9000;1.3219;1.8475;
541.2000;1.3203;1.8402;
541.5000;1.3187;1.8330;
541.8000;1.3187;1.8305;
542.1000;1.3211;1.8354;
542.4000;1.3203;1.8305;
542.7000;1.3195;1.8257;
543.0000;1.3203;1.8354;
543.3000;1.3195;1.8427;
543.6000;1.3219;1.8451;
543.9000;1.3195;1.8451;
544.2000;1.3179;1.8427;
544.5000;1.3195;1.8499;
544.8000;1.3219;1.8548;
545.1000;1.3187;1.8451;
545.4000;1.3219;1.8451;
545.7000;1.3252;1.8378;
546.0000;1.3187;1.8257;
546.3000;1.3187;1.8281;
546.6000;1.3187;1.8378;
546.9000;1.3187;1.8475;
547.2000;1.3195;1.8402;
547.5000;1.3162;1.8354;
547.8000;1.3154;1.8233;
548.1000;1.3179;1.8402;
548.4000;1.3195;1.8354;
548.7000;1.3203;1.8378;
549.0000;1.3195;1.8354;
549.3000;1.3179;1.8257;
549.6000;1.3187;1.8305;
549.9000;1.3195;1.8305;
550.2000;1.3187;1.8305;
550.5000;1.3179;1.8354;
550.8000;1.3195;1.8402;
551.1000;1.3179;1.8427;
551.4000;1.3211;1.8548;
551.7000;1.3211;1.8621;
552.0000;1.3203;1.8621;
552.3000;1.3179;1.8427;
552.6000;1.3219;1.8451;
552.9000;1.3211;1.8354;
553.2000;1.3203;1.8402;
553.5000;1.3203;1.8354;
553.8000;1.3211;1.8354;
554.1000;1.3179;1.8281;
554.4000;1.3195;1.8330;
554.7000;1.3219;1.8427;
555.0000;1.3203;1.8475;
555.3000;1.3195;1.8475;
555.6000;1.3162;1.8378;
555.9000;1.3187;1.8402;
556.2000;1.3195;1.8402;
556.5000;1.3187;1.8402;
556.8000;1.3195;1.8451;
557.1000;1.3154;1.8378;
557.4000;1.3195;1.8451;
557.7000;1.3252;1.8572;
558.0000;1.3179;1.8378;
558.3000;1.3195;1.8499;
558.6000;1.3195;1.8475;
558.9000;1.3211;1.8548;
559.2000;1.3203;1.8524;
559.5000;1.3179;1.8499;
559.8000;1.3195;1.8475;
560.1000;1.3187;1.8451;
560.4000;1.3179;1.8378;
560.7000;1.3187;1.8354;
561.0000;1.3179;1.8427;
561.3000;1.3130;1.8378;
561.6000;1.3195;1.8524;
561.9000;1.3187;1.8427;
562.2000;1.3171;1.8354;
562.5000;1.3179;1.8402;
562.8000;1.3187;1.8451;
563.1000;1.3187;1.8427;
563.4000;1.3187;1.8354;
563.7000;1.3203;1.8354;
564.0000;1.3195;1.8305;
564.3000;1.3187;1.8233;
564.6000;1.3187;1.8305;
564.9000;1.3203;1.8427;
565.2000;1.3203;1.8451;
565.5000;1.3195;1.8427;
565.8000;1.3171;1.8451;
566.1000;1.3179;1.8475;
566.4000;1.3244;1.8669;
566.7000;1.3179;1.8475;
567.0000;1.3187;1.8475;
567.3000;1.3187;1.8475;
567.6000;1.3187;1.8499;
567.9000;1.3179;1.8451;
568.2000;1.3171;1.8451;
568.5000;1.3179;1.8475;
568.8000;1.3219;1.8548;
569.1000;1.3187;1.8475;
569.4000;1.3171;1.8524;
569.7000;1.3195;1.8572;
570.0000;1.3179;1.8524;
570.3000;1.3179;1.8524;
570.6000;1.3179;1.8548;
570.9000;1.3179;1.8475;
571.2000;1.3162;1.8475;
571.5000;1.3179;1.8548;
571.8000;1.3252;1.8669;
572.1000;1.3187;1.8548;
572.4000;1.3171;1.8524;
572.7000;1.3179;1.8499;
573.0000;1.3179;1.8499;
573.3000;1.3162;1.8451;
573.6000;1.3195;1.8499;
573.9000;1.3203;1.8596;
574.2000;1.3187;1.8524;
574.5000;1.3203;1.8451;
574.8000;1.3195;1.8354;
575.1000;1.3195;1.8475;
575.4000;1.3187;1.8427;
575.7000;1.3187;1.8475;
576.0000;1.3203;1.8548;
576.3000;1.3195;1.8548;
576.6000;1.3211;1.8548;
576.9000;1.3195;1.8596;
577.2000;1.3203;1.8548;
577.5000;1.3219;1.8572;
577.8000;1.3203;1.8572;
578.1000;1.3203;1.8645;
578.4000;1.3203;1.8693;
578.7000;1.3195;1.8621;
579.0000;1.3187;1.8596;
579.3000;1.3195;1.8572;
579.6000;1.3187;1.8572;
579.9000;1.3187;1.8427;
580.2000;1.3187;1.8499;
580.5000;1.3203;1.8596;
580.8000;1.3187;1.8548;
581.1000;1.3171;1.8402;
581.4000;1.3187;1.8475;
581.7000;1.3171;1.8427;
582.0000;1.3171;1.8451;
582.3000;1.3171;1.8427;
582.6000;1.3122;1.8354;
582.9000;1.3179;1.8475;
583.2000;1.3187;1.8572;
583.5000;1.3162;1.8499;
583.8000;1.3154;1.8524;
584.1000;1.3187;1.8621;
584.4000;1.3219;1.8669;
584.7000;1.3179;1.8596;
585.0000;1.3187;1.8572;
585.3000;1.3179;1.8475;
585.6000;1.3195;1.8499;
585.9000;1.3187;1.8499;
586.2000;1.3171;1.8427;
586.5000;1.3162;1.8330;
586.8000;1.3179;1.8354;
587.1000;1.3179;1.8378;
587.4000;1.3097;1.8208;
587.7000;1.3171;1.8451;
588.0000;1.3162;1.8402;
588.3000;1.3171;1.8451;
588.6000;1.3162;1.8451;
588.9000;1.3154;1.8402;
589.2000;1.3195;1.8499;
589.5000;1.3203;1.8645;
589.8000;1.3171;1.8596;
590.1000;1.3162;1.8572;
590.4000;1.3171;1.8499;
590.7000;1.3171;1.8402;
591.0000;1.3179;1.8427;
591.3000;1.3179;1.8402;
591.6000;1.3179;1.8451;
591.9000;1.3195;1.8524;
592.2000;1.3195;1.8475;
592.5000;1.3154;1.8378;
592.8000;1.3171;1.8427;
593.1000;1.3162;1.8475;
593.4000;1.3187;1.8451;
593.7000;1.3162;1.8427;
594.0000;1.3162;1.8378;
594.3000;1.3171;1.8330;
594.6000;1.3154;1.8354;
594.9000;1.3179;1.8402;
595.2000;1.3171;1.8378;
595.5000;1.3171;1.8354;
595.8000;1.3179;1.8451;
596.1000;1.3171;1.8451;
596.4000;1.3179;1.8354;
596.7000;1.3179;1.8305;
597.0000;1.3187;1.8330;
597.3000;1.3179;1.8354;
597.6000;1.3171;1.8354;
597.9000;1.3179;1.8427;
598.2000;1.3187;1.8402;
598.5000;1.3203;1.8475;
598.8000;1.3179;1.8427;
599.1000;1.3203;1.8524;
599.4000;1.3211;1.8499;
599.7000;1.3187;1.8354;
600.0000;1.3187;1.8378;
600.3000;1.3203;1.8233;
600.6000;1.3171;1.8111;
600.9000;1.3130;1.8087;
601.2000;1.2983;1.7723;
601.5000;1.2886;1.7457;
601.8000;1.2780;1.7214;
602.1000;1.2666;1.7069;
602.4000;1.2519;1.6851;
602.7000;1.2405;1.6729;
603.0000;1.2275;1.6463;
603.3000;1.2186;1.6293;
603.6000;1.2072;1.6123;
603.9000;1.1950;1.5905;
604.2000;1.1868;1.5735;
604.5000;1.1795;1.5663;
604.8000;1.1713;1.5541;
605.1000;1.1640;1.5469;
605.4000;1.1534;1.5347;
605.7000;1.1510;1.5420;
606.0000;1.1380;1.5081;
606.3000;1.1331;1.5032;
606.6000;1.1290;1.5008;
606.9000;1.1201;1.4935;
607.2000;1.1152;1.4960;
607.5000;1.1079;1.4863;
607.8000;1.1022;1.4838;
608.1000;1.0948;1.4741;
608.4000;1.0891;1.4814;
608.7000;1.0851;1.4863;
609.0000;1.0769;1.4741;
609.3000;1.0769;1.4863;
609.6000;1.0663;1.4669;
609.9000;1.0631;1.4717;
610.2000;1.0582;1.4717;
610.5000;1.0509;1.4596;
610.8000;1.0476;1.4547;
611.1000;1.0452;1.4499;
611.4000;1.0387;1.4499;
611.7000;1.0338;1.4450;
612.0000;1.0281;1.4281;
612.3000;1.0256;1.4281;
612.6000;1.0240;1.4256;
612.9000;1.0199;1.4232;
613.2000;1.0126;1.4087;
613.5000;1.0085;1.4159;
613.8000;1.0037;1.4232;
614.1000;0.9996;1.4208;
614.4000;0.9947;1.4184;
614.7000;0.9931;1.4208;
615.0000;0.9890;1.4184;
615.3000;0.9849;1.4135;
615.6000;0.9801;1.4184;
615.9000;0.9752;1.4062;
616.2000;0.9752;1.3990;
616.5000;0.9703;1.3990;
616.8000;0.9678;1.4087;
617.1000;0.9638;1.4111;
617.4000;0.9621;1.4135;
617.7000;0.9613;1.4087;
618.0000;0.9540;1.3990;
618.3000;0.9524;1.3941;
618.6000;0.9499;1.3990;
618.9000;0.9467;1.3990;
619.2000;0.9385;1.3868;
619.5000;0.9442;1.4062;
619.8000;0.9369;1.4014;
620.1000;0.9337;1.4087;
620.4000;0.9304;1.4087;
620.7000;0.9280;1.3965;
621.0000;0.9255;1.3917;
621.3000;0.9206;1.3965;
621.6000;0.9214;1.4038;
621.9000;0.9174;1.3965;
622.2000;0.9141;1.3941;
622.5000;0.9109;1.3941;
622.8000;0.9092;1.3965;
623.1000;0.9076;1.3965;
623.4000;0.9035;1.3941;
623.7000;0.9035;1.3893;
624.0000;0.8995;1.3844;
624.3000;0.8970;1.3844;
624.6000;0.8938;1.3820;
624.9000;0.8930;1.3796;
625.2000;0.8921;1.3844;
625.5000;0.8897;1.3796;
625.8000;0.8856;1.3699;
626.1000;0.8848;1.3723;
626.4000;0.8840;1.3820;
626.7000;0.8824;1.3796;
627.0000;0.8824;1.3747;
627.3000;0.8791;1.3699;
627.6000;0.8759;1.3650;
627.9000;0.8734;1.3626;
628.2000;0.8742;1.3723;
628.5000;0.8694;1.3650;
628.8000;0.8685;1.3650;
629.1000;0.8726;1.3771;
629.4000;0.8661;1.3626;
629.7000;0.8612;1.3578;
630.0000;0.8694;1.3796;
630.3000;0.8596;1.3553;
630.6000;0.8571;1.3505;
630.9000;0.8547;1.3456;
631.2000;0.8539;1.3432;
631.5000;0.8506;1.3359;
631.8000;0.8523;1.3359;
632.1000;0.8498;1.3311;
632.4000;0.8498;1.3311;
632.7000;0.8466;1.3408;
633.0000;0.8449;1.3432;
633.3000;0.8368;1.3262;
633.6000;0.8425;1.3456;
633.9000;0.8425;1.3456;
634.2000;0.8409;1.3481;
634.5000;0.8400;1.3529;
634.8000;0.8352;1.3481;
635.1000;0.8352;1.3529;
635.4000;0.8368;1.3529;
635.7000;0.8344;1.3432;
636.0000;0.8303;1.3384;
636.3000;0.8311;1.3408;
636.6000;0.8303;1.3432;
636.9000;0.8303;1.3384;
637.2000;0.8270;1.3408;
637.5000;0.8262;1.3384;
637.8000;0.8270;1.3408;
638.1000;0.8246;1.3432;
638.4000;0.8238;1.3456;
638.7000;0.8213;1.3456;
639.0000;0.8213;1.3481;
639.3000;0.8205;1.3481;
639.6000;0.8164;1.3384;
639.9000;0.8164;1.3408;
640.2000;0.8164;1.3456;
640.5000;0.8140;1.3384;
640.8000;0.8132;1.3481;
641.1000;0.8116;1.3456;
641.4000;0.8107;1.3384;
641.7000;0.8116;1.3359;
642.0000;0.8099;1.3335;
642.3000;0.8107;1.3359;
642.6000;0.8099;1.3432;
642.9000;0.8042;1.3359;
643.2000;0.8034;1.3335;
643.5000;0.8026;1.3311;
643.8000;0.8018;1.3335;
644.1000;0.8034;1.3287;
644.4000;0.8002;1.3287;
644.7000;0.8002;1.3311;
645.0000;0.7985;1.3359;
645.3000;0.7977;1.3408;
645.6000;0.7953;1.3359;
645.9000;0.7961;1.3335;
646.2000;0.7969;1.3311;
646.5000;0.7937;1.3311;
646.8000;0.7945;1.3359;
647.1000;0.7937;1.3408;
647.4000;0.7953;1.3456;
647.7000;0.7863;1.3311;
648.0000;0.7920;1.3408;
648.3000;0.7912;1.3456;
648.6000;0.7912;1.3408;
648.9000;0.7888;1.3408;
649.2000;0.7896;1.3408;
649.5000;0.7863;1.3408;
649.8000;0.7871;1.3335;
650.1000;0.7880;1.3335;
650.4000;0.7831;1.3335;
650.7000;0.7823;1.3359;
651.0000;0.7806;1.3408;
651.3000;0.7823;1.3505;
651.6000;0.7823;1.3481;
651.9000;0.7814;1.3553;
652.2000;0.7798;1.3602;
652.5000;0.7774;1.3505;
652.8000;0.7774;1.3384;
653.1000;0.7766;1.3238;
653.4000;0.7766;1.3238;
653.7000;0.7757;1.3262;
654.0000;0.7741;1.3287;
654.3000;0.7717;1.3262;
654.6000;0.7733;1.3214;
654.9000;0.7717;1.3335;
655.2000;0.7692;1.3359;
655.5000;0.7717;1.3553;
655.8000;0.7692;1.3481;
656.1000;0.7676;1.3481;
656.4000;0.7684;1.3505;
656.7000;0.7684;1.3481;
657.0000;0.7684;1.3529;
657.3000;0.7684;1.3481;
657.6000;0.7668;1.3578;
657.9000;0.7652;1.3481;
658.2000;0.7668;1.3529;
658.5000;0.7643;1.3456;
658.8000;0.7635;1.3262;
659.1000;0.7627;1.3287;
659.4000;0.7627;1.3359;
659.7000;0.7619;1.3432;
660.0000;0.7635;1.3505;
660.3000;0.7611;1.3432;
660.6000;0.7595;1.3553;
660.9000;0.7603;1.3529;
661.2000;0.7611;1.3529;
661.5000;0.7562;1.3384;
661.8000;0.7586;1.3384;
662.1000;0.7578;1.3311;
662.4000;0.7562;1.3262;
662.7000;0.7554;1.3287;
663.0000;0.7578;1.3262;
663.3000;0.7578;1.3311;
663.6000;0.7530;1.3214;
663.9000;0.7530;1.3262;
664.2000;0.7538;1.3287;
664.5000;0.7538;1.3287;
664.8000;0.7521;1.3238;
665.1000;0.7595;1.3481;
665.4000;0.7497;1.3165;
665.7000;0.7505;1.3117;
666.0000;0.7513;1.3214;
666.3000;0.7464;1.3117;
666.6000;0.7497;1.3190;
666.9000;0.7489;1.3190;
667.2000;0.7489;1.3214;
667.5000;0.7505;1.3287;
667.8000;0.7497;1.3287;
668.1000;0.7473;1.3262;
668.4000;0.7489;1.3311;
668.7000;0.7473;1.3359;
669.0000;0.7464;1.3384;
669.3000;0.7407;1.3190;
669.6000;0.7424;1.3311;
669.9000;0.7440;1.3335;
670.2000;0.7456;1.3262;
670.5000;0.7424;1.3190;
670.8000;0.7424;1.3117;
671.1000;0.7464;1.3214;
671.4000;0.7424;1.3190;
671.7000;0.7440;1.3262;
672.0000;0.7399;1.3141;
672.3000;0.7383;1.3165;
672.6000;0.7407;1.3262;
672.9000;0.7391;1.3214;
673.2000;0.7375;1.3238;
673.5000;0.7407;1.3287;
673.8000;0.7383;1.3238;
674.1000;0.7367;1.3190;
674.4000;0.7375;1.3190;
674.7000;0.7375;1.3190;
675.0000;0.7383;1.3214;
675.3000;0.7375;1.3214;
675.6000;0.7367;1.3262;
675.9000;0.7367;1.3214;
676.2000;0.7359;1.3117;
676.5000;0.7342;1.3165;
676.8000;0.7342;1.3214;
677.1000;0.7359;1.3238;
677.4000;0.7334;1.3262;
677.7000;0.7334;1.3311;
678.0000;0.7310;1.3311;
678.3000;0.7326;1.3238;
678.6000;0.7326;1.3165;
678.9000;0.7302;1.3165;
679.2000;0.7318;1.3093;
679.5000;0.7302;1.2971;
679.8000;0.7326;1.3044;
680.1000;0.7293;1.3068;
680.4000;0.7277;1.3020;
680.7000;0.7318;1.3068;
681.0000;0.7277;1.3044;
681.3000;0.7285;1.3020;
681.6000;0.7269;1.3044;
681.9000;0.7277;1.3093;
682.2000;0.7253;1.3214;
682.5000;0.7269;1.3311;
682.8000;0.7253;1.3311;
683.1000;0.7277;1.3287;
683.4000;0.7245;1.3238;
683.7000;0.7261;1.3335;
684.0000;0.7245;1.3359;
684.3000;0.7253;1.3384;
684.6000;0.7253;1.3359;
684.9000;0.7236;1.3311;
685.2000;0.7245;1.3287;
685.5000;0.7245;1.3214;
685.8000;0.7228;1.3262;
686.1000;0.7228;1.3287;
686.4000;0.7228;1.3359;
686.7000;0.7245;1.3505;
687.0000;0.7220;1.3359;
687.3000;0.7196;1.3262;
687.6000;0.7171;1.3117;
687.9000;0.7220;1.3238;
688.2000;0.7204;1.3165;
688.5000;0.7196;1.3190;
688.8000;0.7196;1.3214;
689.1000;0.7220;1.3335;
689.4000;0.7204;1.3335;
689.7000;0.7188;1.3262;
690.0000;0.7188;1.3311;
690.3000;0.7155;1.3238;
690.6000;0.7188;1.3287;
690.9000;0.7212;1.3408;
691.2000;0.7155;1.3311;
691.5000;0.7171;1.3359;
691.8000;0.7171;1.3311;
692.1000;0.7082;1.3068;
692.4000;0.7155;1.3287;
692.7000;0.7171;1.3335;
693.0000;0.7155;1.3311;
693.3000;0.7179;1.3359;
693.6000;0.7147;1.3262;
693.9000;0.7155;1.3335;
694.2000;0.7163;1.3359;
694.5000;0.7139;1.3359;
694.8000;0.7123;1.3311;
695.1000;0.7139;1.3311;
695.4000;0.7123;1.3238;
695.7000;0.7131;1.3238;
696.0000;0.7123;1.3190;
696.3000;0.7139;1.3214;
696.6000;0.7131;1.3214;
696.9000;0.7114;1.3214;
697.2000;0.7123;1.3190;
697.5000;0.7106;1.3165;
697.8000;0.7098;1.3141;
698.1000;0.7123;1.3190;
698.4000;0.7098;1.3068;
698.7000;0.7098;1.3044;
699.0000;0.7106;1.2996;
699.3000;0.7114;1.3044;
699.6000;0.7106;1.3093;
699.9000;0.7106;1.3068;
700.2000;0.7098;1.3068;
700.5000;0.7106;1.3141;
700.8000;0.7098;1.3165;
701.1000;0.7074;1.3117;
701.4000;0.7066;1.2996;
701.7000;0.7082;1.3093;
702.0000;0.7082;1.3117;
702.3000;0.7090;1.3190;
702.6000;0.7066;1.3190;
702.9000;0.7066;1.3238;
703.2000;0.7082;1.3117;
703.5000;0.7106;1.3165;
703.8000;0.7057;1.3141;
704.1000;0.7066;1.3238;
704.4000;0.7066;1.3311;
704.7000;0.7057;1.3238;
705.0000;0.7049;1.3262;
705.3000;0.7041;1.3262;
705.6000;0.7041;1.3190;
705.9000;0.7041;1.3214;
706.2000;0.7033;1.3238;
706.5000;0.7025;1.3287;
706.8000;0.7033;1.3384;
707.1000;0.7033;1.3384;
707.4000;0.7025;1.3335;
707.7000;0.7017;1.3359;
708.0000;0.7025;1.3287;
708.3000;0.7025;1.3287;
708.6000;0.7009;1.3214;
708.9000;0.7017;1.3238;
709.2000;0.7009;1.3238;
709.5000;0.7057;1.3238;
709.8000;0.7049;1.3214;
710.1000;0.7017;1.3141;
710.4000;0.7025;1.3214;
710.7000;0.7017;1.3190;
711.0000;0.7025;1.3262;
711.3000;0.6992;1.3165;
711.6000;0.7041;1.3262;
711.9000;0.7000;1.3238;
712.2000;0.7000;1.3262;
712.5000;0.7000;1.3238;
712.8000;0.7017;1.3262;
713.1000;0.7000;1.3335;
713.4000;0.6992;1.3311;
713.7000;0.7009;1.3335;
714.0000;0.6984;1.3335;
714.3000;0.6952;1.3287;
714.6000;0.6976;1.3359;
714.9000;0.7017;1.3359;
715.2000;0.6968;1.3214;
715.5000;0.6960;1.3287;
715.8000;0.6984;1.3335;
716.1000;0.6992;1.3335;
716.4000;0.6968;1.3335;
716.7000;0.6968;1.3238;
717.0000;0.6960;1.3287;
717.3000;0.6976;1.3384;
717.6000;0.6960;1.3408;
717.9000;0.6935;1.3384;
718.2000;0.6952;1.3505;
718.5000;0.6960;1.3602;
718.8000;0.6943;1.3578;
719.1000;0.6935;1.3505;
719.4000;0.6935;1.3481;
719.7000;0.6960;1.3529;
720.0000;0.6943;1.3432;
720.3000;0.6960;1.3432;
720.6000;0.6935;1.3359;
720.9000;0.6960;1.3408;
721.2000;0.6943;1.3384;
721.5000;0.6935;1.3384;
721.8000;0.6919;1.3359;
722.1000;0.6952;1.3384;
722.4000;0.6927;1.3359;
722.7000;0.6935;1.3408;
723.0000;0.6927;1.3335;
723.3000;0.6943;1.3311;
723.6000;0.6952;1.3238;
723.9000;0.6935;1.3287;
724.2000;0.6927;1.3214;
724.5000;0.6919;1.3117;
724.8000;0.6919;1.3238;
725.1000;0.6919;1.3238;
725.4000;0.6903;1.3214;
725.7000;0.6911;1.3238;
726.0000;0.6919;1.3287;
726.3000;0.6919;1.3359;
726.6000;0.6886;1.3287;
726.9000;0.6943;1.3456;
727.2000;0.6895;1.3359;
727.5000;0.6960;1.3602;
727.8000;0.6895;1.3456;
728.1000;0.6903;1.3456;
728.4000;0.6886;1.3481;
728.7000;0.6919;1.3553;
729.0000;0.6895;1.3553;
729.3000;0.6886;1.3505;
729.6000;0.6886;1.3578;
729.9000;0.6895;1.3505;
730.2000;0.6895;1.3456;
730.5000;0.6943;1.3553;
730.8000;0.6911;1.3335;
731.1000;0.6870;1.3287;
731.4000;0.6870;1.3311;
731.7000;0.6878;1.3384;
732.0000;0.6813;1.3262;
732.3000;0.6886;1.3408;
732.6000;0.6862;1.3287;
732.9000;0.6862;1.3165;
733.2000;0.6862;1.3165;
733.5000;0.6870;1.3165;
733.8000;0.6805;1.3020;
734.1000;0.6870;1.3165;
734.4000;0.6854;1.3117;
734.7000;0.6862;1.3165;
735.0000;0.6862;1.3214;
735.3000;0.6862;1.3238;
735.6000;0.6854;1.3165;
735.9000;0.6862;1.3190;
736.2000;0.6862;1.3262;
736.5000;0.6862;1.3335;
736.8000;0.6813;1.3238;
737.1000;0.6821;1.3335;
737.4000;0.6846;1.3432;
737.7000;0.6829;1.3359;
738.0000;0.6821;1.3359;
738.3000;0.6838;1.3359;
738.6000;0.6846;1.3359;
738.9000;0.6878;1.3456;
739.2000;0.6854;1.3311;
739.5000;0.6838;1.3190;
739.8000;0.6838;1.3190;
740.1000;0.6854;1.3165;
740.4000;0.6838;1.3165;
740.7000;0.6838;1.3190;
741.0000;0.6821;1.3141;
741.3000;0.6781;1.3068;
741.6000;0.6829;1.3287;
741.9000;0.6805;1.3238;
742.2000;0.6789;1.3190;
742.5000;0.6846;1.3384;
742.8000;0.6838;1.3456;
743.1000;0.6813;1.3359;
743.4000;0.6821;1.3287;
743.7000;0.6829;1.3287;
744.0000;0.6821;1.3311;
744.3000;0.6838;1.3335;
744.6000;0.6829;1.3190;
744.9000;0.6813;1.3141;
745.2000;0.6821;1.3165;
745.5000;0.6829;1.3214;
745.8000;0.6805;1.3190;
746.1000;0.6821;1.3262;
746.4000;0.6821;1.3238;
746.7000;0.6813;1.3238;
747.0000;0.6813;1.3190;
747.3000;0.6797;1.3214;
747.6000;0.6789;1.3238;
747.9000;0.6797;1.3214;
748.2000;0.6789;1.3238;
748.5000;0.6805;1.3262;
748.8000;0.6797;1.3262;
749.1000;0.6797;1.3287;
749.4000;0.6764;1.3190;
749.7000;0.6813;1.3287;
750.0000;0.6813;1.3359;
750.3000;0.6805;1.3384;
750.6000;0.6805;1.3408;
750.9000;0.6829;1.3481;
751.2000;0.6797;1.3384;
751.5000;0.6789;1.3359;
751.8000;0.6789;1.3262;
752.1000;0.6781;1.3287;
752.4000;0.6781;1.3238;
752.7000;0.6772;1.3238;
753.0000;0.6813;1.3359;
753.3000;0.6781;1.3335;
753.6000;0.6781;1.3384;
753.9000;0.6789;1.3384;
754.2000;0.6781;1.3408;
754.5000;0.6829;1.3505;
754.8000;0.6756;1.3311;
755.1000;0.6748;1.3384;
755.4000;0.6764;1.3432;
755.7000;0.6781;1.3481;
756.0000;0.6764;1.3505;
756.3000;0.6772;1.3529;
756.6000;0.6764;1.3384;
756.9000;0.6772;1.3408;
757.2000;0.6781;1.3335;
757.5000;0.6764;1.3335;
757.8000;0.6772;1.3359;
758.1000;0.6756;1.3262;
758.4000;0.6764;1.3335;
758.7000;0.6781;1.3287;
759.0000;0.6740;1.3262;
759.3000;0.6756;1.3311;
759.6000;0.6764;1.3359;
759.9000;0.6756;1.3335;
760.2000;0.6748;1.3287;
760.5000;0.6764;1.3359;
760.8000;0.6756;1.3359;
761.1000;0.6789;1.3408;
761.4000;0.6748;1.3384;
761.7000;0.6748;1.3456;
762.0000;0.6748;1.3432;
762.3000;0.6756;1.3384;
762.6000;0.6748;1.3335;
762.9000;0.6740;1.3335;
763.2000;0.6764;1.3481;
763.5000;0.6748;1.3432;
763.8000;0.6732;1.3384;
764.1000;0.6732;1.3456;
764.4000;0.6740;1.3408;
764.7000;0.6724;1.3481;
765.0000;0.6789;1.3578;
765.3000;0.6740;1.3505;
765.6000;0.6740;1.3505;
765.9000;0.6740;1.3481;
766.2000;0.6732;1.3408;
766.5000;0.6732;1.3408;
766.8000;0.6740;1.3481;
767.1000;0.6748;1.3456;
767.4000;0.6732;1.3408;
767.7000;0.6732;1.3384;
768.0000;0.6724;1.3432;
768.3000;0.6724;1.3384;
768.6000;0.6724;1.3359;
768.9000;0.6724;1.3408;
769.2000;0.6732;1.3408;
769.5000;0.6716;1.3408;
769.8000;0.6740;1.3505;
770.1000;0.6740;1.3481;
770.4000;0.6732;1.3529;
770.7000;0.6748;1.3505;
771.0000;0.6740;1.3432;
771.3000;0.6748;1.3432;
771.6000;0.6716;1.3311;
771.9000;0.6756;1.3384;
772.2000;0.6716;1.3335;
772.5000;0.6683;1.3262;
772.8000;0.6716;1.3311;
773.1000;0.6748;1.3456;
773.4000;0.6716;1.3432;
773.7000;0.6716;1.3408;
774.0000;0.6707;1.3359;
774.3000;0.6716;1.3335;
774.6000;0.6707;1.3287;
774.9000;0.6691;1.3238;
775.2000;0.6707;1.3238;
775.5000;0.6699;1.3165;
775.8000;0.6716;1.3238;
776.1000;0.6716;1.3190;
776.4000;0.6699;1.3214;
776.7000;0.6691;1.3262;
777.0000;0.6691;1.3287;
777.3000;0.6724;1.3287;
777.6000;0.6699;1.3214;
777.9000;0.6691;1.3238;
778.2000;0.6707;1.3287;
778.5000;0.6683;1.3262;
778.8000;0.6732;1.3359;
779.1000;0.6683;1.3238;
779.4000;0.6691;1.3238;
779.7000;0.6667;1.3141;
780.0000;0.6691;1.3262;
780.3000;0.6699;1.3311;
780.6000;0.6691;1.3335;
780.9000;0.6683;1.3262;
781.2000;0.6691;1.3262;
781.5000;0.6699;1.3311;
781.8000;0.6699;1.3214;
782.1000;0.6691;1.3238;
782.4000;0.6691;1.3262;
782.7000;0.6683;1.3238;
783.0000;0.6683;1.3311;
783.3000;0.6699;1.3335;
783.6000;0.6691;1.3335;
783.9000;0.6683;1.3359;
784.2000;0.6650;1.3359;
784.5000;0.6683;1.3408;
784.8000;0.6675;1.3408;
785.1000;0.6740;1.3650;
785.4000;0.6659;1.3384;
785.7000;0.6659;1.3335;
786.0000;0.6675;1.3359;
786.3000;0.6667;1.3432;
786.6000;0.6667;1.3432;
786.9000;0.6650;1.3456;
787.2000;0.6650;1.3578;
787.5000;0.6659;1.3578;
787.8000;0.6659;1.3578;
788.1000;0.6659;1.3553;
788.4000;0.6642;1.3505;
788.7000;0.6667;1.3456;
789.0000;0.6667;1.3311;
789.3000;0.6707;1.3481;
789.6000;0.6659;1.3335;
789.9000;0.6659;1.3335;
790.2000;0.6659;1.3359;
790.5000;0.6667;1.3408;
790.8000;0.6650;1.3456;
791.1000;0.6667;1.3432;
791.4000;0.6667;1.3456;
791.7000;0.6667;1.3481;
792.0000;0.6659;1.3505;
792.3000;0.6659;1.3529;
792.6000;0.6659;1.3650;
792.9000;0.6650;1.3602;
793.2000;0.6650;1.3578;
793.5000;0.6650;1.3529;
793.8000;0.6650;1.3578;
794.1000;0.6642;1.3505;
794.4000;0.6659;1.3529;
794.7000;0.6667;1.3481;
795.0000;0.6642;1.3529;
795.3000;0.6659;1.3650;
795.6000;0.6634;1.3650;
795.9000;0.6634;1.3626;
796.2000;0.6650;1.3723;
796.5000;0.6618;1.3578;
796.8000;0.6650;1.3674;
797.1000;0.6683;1.3723;
797.4000;0.6691;1.3747;
797.7000;0.6593;1.3481;
798.0000;0.6634;1.3529;
798.3000;0.6634;1.3505;
798.6000;0.6593;1.3384;
798.9000;0.6634;1.3481;
799.2000;0.6626;1.3456;
799.5000;0.6626;1.3481;
799.8000;0.6626;1.3481;
800.1000;0.6618;1.3505;
800.4000;0.6626;1.3505;
800.7000;0.6659;1.3626;
801.0000;0.6626;1.3553;
801.3000;0.6634;1.3578;
801.6000;0.6642;1.3578;
801.9000;0.6618;1.3553;
802.2000;0.6610;1.3481;
802.5000;0.6642;1.3602;
802.8000;0.6602;1.3553;
803.1000;0.6610;1.3529;
803.4000;0.6667;1.3650;
803.7000;0.6667;1.3650;
804.0000;0.6659;1.3602;
804.3000;0.6634;1.3529;
804.6000;0.6618;1.3481;
804.9000;0.6618;1.3456;
805.2000;0.6618;1.3529;
805.5000;0.6618;1.3456;
805.8000;0.6585;1.3359;
806.1000;0.6602;1.3408;
806.4000;0.6634;1.3456;
806.7000;0.6610;1.3505;
807.0000;0.6716;1.3723;
807.3000;0.6659;1.3505;
807.6000;0.6618;1.3505;
807.9000;0.6675;1.3699;
808.2000;0.6618;1.3553;
808.5000;0.6593;1.3505;
808.8000;0.6626;1.3481;
809.1000;0.6593;1.3456;
809.4000;0.6618;1.3553;
809.7000;0.6618;1.3481;
810.0000;0.6602;1.3456;
810.3000;0.6610;1.3456;
810.6000;0.6593;1.3481;
810.9000;0.6699;1.3699;
811.2000;0.6610;1.3481;
811.5000;0.6610;1.3602;
811.8000;0.6618;1.3578;
812.1000;0.6618;1.3602;
812.4000;0.6610;1.3481;
812.7000;0.6618;1.3529;
813.0000;0.6626;1.3578;
813.3000;0.6618;1.3529;
813.6000;0.6610;1.3408;
813.9000;0.6569;1.3456;
814.2000;0.6561;1.3432;
814.5000;0.6585;1.3384;
814.8000;0.6593;1.3359;
815.1000;0.6602;1.3359;
815.4000;0.6585;1.3432;
815.7000;0.6610;1.3432;
816.0000;0.6553;1.3335;
816.3000;0.6577;1.3359;
816.6000;0.6618;1.3408;
816.9000;0.6602;1.3456;
817.2000;0.6610;1.3481;
817.5000;0.6569;1.3311;
817.8000;0.6593;1.3432;
818.1000;0.6618;1.3505;
818.4000;0.6593;1.3481;
818.7000;0.6602;1.3432;
819.0000;0.6593;1.3456;
819.3000;0.6585;1.3408;
819.6000;0.6585;1.3384;
819.9000;0.6577;1.3384;
820.2000;0.6626;1.3529;
820.5000;0.6585;1.3481;
820.8000;0.6593;1.3456;
821.1000;0.6659;1.3602;
821.4000;0.6561;1.3311;
821.7000;0.6593;1.3408;
822.0000;0.6585;1.3456;
822.3000;0.6585;1.3456;
822.6000;0.6569;1.3384;
822.9000;0.6512;1.3214;
823.2000;0.6602;1.3481;
823.5000;0.6585;1.3432;
823.8000;0.6642;1.3602;
824.1000;0.6585;1.3481;
824.4000;0.6602;1.3553;
824.7000;0.6561;1.3456;
825.0000;0.6585;1.3602;
825.3000;0.6569;1.3626;
825.6000;0.6577;1.3723;
825.9000;0.6585;1.3699;
826.2000;0.6577;1.3626;
826.5000;0.6585;1.3578;
826.8000;0.6585;1.3481;
827.1000;0.6593;1.3456;
827.4000;0.6593;1.3456;
827.7000;0.6626;1.3578;
828.0000;0.6585;1.3408;
828.3000;0.6569;1.3384;
828.6000;0.6545;1.3311;
828.9000;0.6553;1.3335;
829.2000;0.6569;1.3481;
829.5000;0.6569;1.3505;
829.8000;0.6520;1.3335;
830.1000;0.6561;1.3481;
830.4000;0.6561;1.3456;
830.7000;0.6561;1.3456;
831.0000;0.6634;1.3578;
831.3000;0.6569;1.3432;
831.6000;0.6577;1.3481;
831.9000;0.6618;1.3553;
832.2000;0.6585;1.3481;
832.5000;0.6577;1.3481;
832.8000;0.6569;1.3529;
833.1000;0.6561;1.3456;
833.4000;0.6569;1.3456;
833.7000;0.6561;1.3481;
834.0000;0.6561;1.3553;
834.3000;0.6553;1.3553;
834.6000;0.6553;1.3650;
834.9000;0.6553;1.3674;
835.2000;0.6545;1.3699;
835.5000;0.6561;1.3699;
835.8000;0.6561;1.3699;
836.1000;0.6569;1.3626;
836.4000;0.6569;1.3553;
836.7000;0.6561;1.3505;
837.0000;0.6545;1.3456;
837.3000;0.6569;1.3529;
837.6000;0.6585;1.3481;
837.9000;0.6561;1.3408;
838.2000;0.6561;1.3456;
838.5000;0.6569;1.3505;
838.8000;0.6553;1.3505;
839.1000;0.6569;1.3578;
839.4000;0.6569;1.3626;
839.7000;0.6593;1.3674;
840.0000;0.6561;1.3529;
840.3000;0.6561;1.3481;
840.6000;0.6561;1.3456;
840.9000;0.6561;1.3456;
841.2000;0.6545;1.3481;
841.5000;0.6569;1.3505;
841.8000;0.6545;1.3432;
842.1000;0.6553;1.3481;
842.4000;0.6553;1.3432;
842.7000;0.6553;1.3384;
843.0000;0.6561;1.3384;
843.3000;0.6504;1.3214;
843.6000;0.6520;1.3165;
843.9000;0.6585;1.3384;
844.2000;0.6528;1.3238;
844.5000;0.6528;1.3238;
844.8000;0.6553;1.3311;
845.1000;0.6553;1.3432;
845.4000;0.6545;1.3432;
845.7000;0.6536;1.3456;
846.0000;0.6528;1.3456;
846.3000;0.6488;1.3384;
846.6000;0.6561;1.3481;
846.9000;0.6545;1.3529;
847.2000;0.6536;1.3529;
847.5000;0.6553;1.3553;
847.8000;0.6545;1.3529;
848.1000;0.6545;1.3505;
848.4000;0.6561;1.3505;
848.7000;0.6561;1.3505;
849.0000;0.6553;1.3456;
849.3000;0.6545;1.3456;
849.6000;0.6545;1.3456;
849.9000;0.6545;1.3456;
850.2000;0.6553;1.3456;
850.5000;0.6553;1.3384;
850.8000;0.6536;1.3311;
851.1000;0.6536;1.3432;
851.4000;0.6536;1.3384;
851.7000;0.6561;1.3335;
852.0000;0.6577;1.3359;
852.3000;0.6561;1.3408;
852.6000;0.6553;1.3384;
852.9000;0.6569;1.3529;
853.2000;0.6536;1.3408;
853.5000;0.6536;1.3432;
853.8000;0.6536;1.3432;
854.1000;0.6593;1.3456;
854.4000;0.6528;1.3262;
854.7000;0.6528;1.3238;
855.0000;0.6536;1.3335;
855.3000;0.6536;1.3432;
855.6000;0.6536;1.3505;
855.9000;0.6536;1.3505;
856.2000;0.6504;1.3408;
856.5000;0.6528;1.3432;
856.8000;0.6520;1.3481;
857.1000;0.6553;1.3505;
857.4000;0.6536;1.3456;
857.7000;0.6496;1.3384;
858.0000;0.6536;1.3529;
858.3000;0.6512;1.3481;
858.6000;0.6504;1.3529;
858.9000;0.6520;1.3602;
859.2000;0.6520;1.3529;
859.5000;0.6512;1.3456;
859.8000;0.6520;1.3432;
860.1000;0.6528;1.3505;
860.4000;0.6536;1.3529;
860.7000;0.6504;1.3384;
861.0000;0.6512;1.3432;
861.3000;0.6512;1.3384;
861.6000;0.6528;1.3335;
861.9000;0.6528;1.3335;
862.2000;0.6479;1.3287;
862.5000;0.6520;1.3408;
862.8000;0.6512;1.3505;
863.1000;0.6520;1.3626;
863.4000;0.6520;1.3529;
863.7000;0.6504;1.3481;
864.0000;0.6512;1.3456;
864.3000;0.6504;1.3408;
864.6000;0.6512;1.3505;
864.9000;0.6496;1.3481;
865.2000;0.6520;1.3505;
865.5000;0.6512;1.3481;
865.8000;0.6496;1.3481;
866.1000;0.6496;1.3481;
866.4000;0.6512;1.3481;
866.7000;0.6512;1.3432;
867.0000;0.6512;1.3481;
867.3000;0.6496;1.3481;
867.6000;0.6545;1.3553;
867.9000;0.6512;1.3481;
868.2000;0.6528;1.3578;
868.5000;0.6512;1.3650;
868.8000;0.6504;1.3699;
869.1000;0.6536;1.3747;
869.4000;0.6488;1.3553;
869.7000;0.6496;1.3578;
870.0000;0.6512;1.3602;
870.3000;0.6504;1.3529;
870.6000;0.6512;1.3432;
870.9000;0.6504;1.3287;
871.2000;0.6504;1.3335;
871.5000;0.6488;1.3287;
871.8000;0.6520;1.3238;
872.1000;0.6504;1.3214;
872.4000;0.6504;1.3214;
872.7000;0.6504;1.3287;
873.0000;0.6528;1.3384;
873.3000;0.6528;1.3384;
873.6000;0.6512;1.3335;
873.9000;0.6504;1.3335;
874.2000;0.6504;1.3335;
874.5000;0.6512;1.3359;
874.8000;0.6504;1.3359;
875.1000;0.6496;1.3384;
875.4000;0.6504;1.3262;
875.7000;0.6496;1.3238;
876.0000;0.6504;1.3214;
876.3000;0.6512;1.3262;
876.6000;0.6520;1.3262;
876.9000;0.6512;1.3359;
877.2000;0.6512;1.3335;
877.5000;0.6512;1.3359;
877.8000;0.6488;1.3432;
878.1000;0.6504;1.3456;
878.4000;0.6479;1.3335;
878.7000;0.6504;1.3456;
879.0000;0.6488;1.3481;
879.3000;0.6528;1.3578;
879.6000;0.6479;1.3481;
879.9000;0.6479;1.3408;
880.2000;0.6479;1.3408;
880.5000;0.6488;1.3384;
880.8000;0.6496;1.3311;
881.1000;0.6504;1.3359;
881.4000;0.6512;1.3359;
881.7000;0.6488;1.3384;
882.0000;0.6488;1.3481;
882.3000;0.6479;1.3529;
882.6000;0.6488;1.3529;
882.9000;0.6479;1.3529;
883.2000;0.6504;1.3650;
883.5000;0.6496;1.3602;
883.8000;0.6479;1.3481;
884.1000;0.6496;1.3456;
884.4000;0.6488;1.3481;
884.7000;0.6504;1.3505;
885.0000;0.6479;1.3432;
885.3000;0.6520;1.3432;
885.6000;0.6504;1.3456;
885.9000;0.6528;1.3553;
886.2000;0.6496;1.3481;
886.5000;0.6504;1.3408;
886.8000;0.6496;1.3456;
887.1000;0.6479;1.3432;
887.4000;0.6504;1.3578;
887.7000;0.6471;1.3529;
888.0000;0.6479;1.3529;
888.3000;0.6496;1.3505;
888.6000;0.6471;1.3335;
888.9000;0.6455;1.3359;
889.2000;0.6463;1.3359;
889.5000;0.6463;1.3335;
889.8000;0.6488;1.3456;
890.1000;0.6488;1.3553;
890.4000;0.6479;1.3578;
890.7000;0.6463;1.3578;
891.0000;0.6479;1.3529;
891.3000;0.6488;1.3505;
891.6000;0.6479;1.3456;
891.9000;0.6471;1.3456;
892.2000;0.6512;1.3553;
892.5000;0.6479;1.3456;
892.8000;0.6479;1.3408;
893.1000;0.6455;1.3481;
893.4000;0.6479;1.3529;
893.7000;0.6479;1.3481;
894.0000;0.6471;1.3432;
894.3000;0.6479;1.3456;
894.6000;0.6545;1.3747;
894.9000;0.6471;1.3553;
895.2000;0.6455;1.3481;
895.5000;0.6455;1.3529;
895.8000;0.6455;1.3481;
896.1000;0.6553;1.3747;
896.4000;0.6447;1.3481;
896.7000;0.6471;1.3626;
897.0000;0.6447;1.3553;
897.3000;0.6488;1.3626;
897.6000;0.6431;1.3408;
897.9000;0.6479;1.3578;
898.2000;0.6471;1.3602;
898.5000;0.6471;1.3602;
898.8000;0.6471;1.3578;
899.1000;0.6431;1.3505;
899.4000;0.6545;1.3796;
899.7000;0.6488;1.3626;
900.0000;0.6447;1.3481;
900.3000;0.6455;1.3456;
900.6000;0.6479;1.3529;
900.9000;0.6479;1.3481;
901.2000;0.6504;1.3456;
901.5000;0.6471;1.3408;
901.8000;0.6463;1.3359;
902.1000;0.6463;1.3432;
902.4000;0.6479;1.3505;
902.7000;0.6471;1.3481;
903.0000;0.6471;1.3481;
903.3000;0.6455;1.3384;
903.6000;0.6463;1.3432;
903.9000;0.6455;1.3384;
904.2000;0.6528;1.3505;
904.5000;0.6447;1.3335;
904.8000;0.6447;1.3335;
905.1000;0.6463;1.3384;
905.4000;0.6471;1.3384;
905.7000;0.6471;1.3384;
906.0000;0.6479;1.3359;
906.3000;0.6455;1.3311;
906.6000;0.6447;1.3335;
906.9000;0.6447;1.3287;
907.2000;0.6520;1.3456;
907.5000;0.6471;1.3408;
907.8000;0.6471;1.3432;
908.1000;0.6447;1.3384;
908.4000;0.6447;1.3335;
908.7000;0.6471;1.3384;
909.0000;0.6488;1.3384;
909.3000;0.6488;1.3384;
909.6000;0.6463;1.3262;
909.9000;0.6471;1.3287;
910.2000;0.6463;1.3335;
910.5000;0.6471;1.3335;
910.8000;0.6463;1.3311;
911.1000;0.6488;1.3432;
911.4000;0.6463;1.3505;
911.7000;0.6471;1.3529;
912.0000;0.6463;1.3529;
912.3000;0.6447;1.3578;
912.6000;0.6463;1.3650;
912.9000;0.6471;1.3699;
913.2000;0.6439;1.3650;
913.5000;0.6496;1.3699;
913.8000;0.6439;1.3529;
914.1000;0.6447;1.3505;
914.4000;0.6422;1.3432;
914.7000;0.6463;1.3481;
915.0000;0.6431;1.3432;
915.3000;0.6545;1.3796;
915.6000;0.6463;1.3578;
915.9000;0.6455;1.3505;
916.2000;0.6463;1.3505;
916.5000;0.6447;1.3529;
916.8000;0.6528;1.3723;
917.1000;0.6439;1.3456;
917.4000;0.6447;1.3481;
917.7000;0.6455;1.3408;
918.0000;0.6447;1.3408;
918.3000;0.6479;1.3529;
918.6000;0.6431;1.3456;
918.9000;0.6479;1.3602;
919.2000;0.6447;1.3553;
919.5000;0.6447;1.3553;
919.8000;0.6398;1.3384;
920.1000;0.6463;1.3529;
920.4000;0.6455;1.3578;
920.7000;0.6455;1.3602;
921.0000;0.6414;1.3553;
921.3000;0.6463;1.3602;
921.6000;0.6471;1.3529;
921.9000;0.6504;1.3650;
922.2000;0.6422;1.3505;
922.5000;0.6447;1.3505;
922.8000;0.6439;1.3529;
923.1000;0.6463;1.3626;
923.4000;0.6488;1.3723;
923.7000;0.6431;1.3602;
924.0000;0.6422;1.3553;
924.3000;0.6463;1.3578;
924.6000;0.6455;1.3553;
924.9000;0.6431;1.3553;
925.2000;0.6439;1.3650;
925.5000;0.6463;1.3796;
925.8000;0.6447;1.3723;
926.1000;0.6447;1.3771;
926.4000;0.6439;1.3820;
926.7000;0.6447;1.3796;
927.0000;0.6455;1.3699;
927.3000;0.6439;1.3650;
927.6000;0.6414;1.3553;
927.9000;0.6374;1.3456;
928.2000;0.6439;1.3578;
928.5000;0.6447;1.3602;
928.8000;0.6439;1.3626;
929.1000;0.6422;1.3699;
929.4000;0.6431;1.3674;
929.7000;0.6422;1.3553;
930.0000;0.6431;1.3578;
930.3000;0.6439;1.3650;
930.6000;0.6455;1.3723;
930.9000;0.6447;1.3699;
931.2000;0.6439;1.3674;
931.5000;0.6447;1.3674;
931.8000;0.6439;1.3650;
932.1000;0.6447;1.3699;
932.4000;0.6455;1.3626;
932.7000;0.6422;1.3481;
933.0000;0.6431;1.3432;
933.3000;0.6439;1.3408;
933.6000;0.6431;1.3481;
933.9000;0.6439;1.3456;
934.2000;0.6463;1.3529;
934.5000;0.6447;1.3481;
934.8000;0.6455;1.3408;
935.1000;0.6431;1.3408;
935.4000;0.6479;1.3505;
935.7000;0.6439;1.3384;
936.0000;0.6471;1.3481;
936.3000;0.6414;1.3481;
936.6000;0.6422;1.3432;
936.9000;0.6455;1.3553;
937.2000;0.6439;1.3481;
937.5000;0.6374;1.3335;
937.8000;0.6431;1.3505;
938.1000;0.6422;1.3481;
938.4000;0.6439;1.3626;
938.7000;0.6414;1.3553;
939.0000;0.6382;1.3408;
939.3000;0.6488;1.3723;
939.6000;0.6431;1.3505;
939.9000;0.6374;1.3359;
940.2000;0.6422;1.3529;
940.5000;0.6439;1.3553;
940.8000;0.6390;1.3384;
941.1000;0.6422;1.3529;
941.4000;0.6422;1.3529;
941.7000;0.6431;1.3602;
942.0000;0.6447;1.3650;
942.3000;0.6504;1.3868;
942.6000;0.6439;1.3723;
942.9000;0.6422;1.3699;
943.2000;0.6422;1.3674;
943.5000;0.6422;1.3626;
943.8000;0.6431;1.3626;
944.1000;0.6431;1.3626;
944.4000;0.6422;1.3578;
944.7000;0.6422;1.3553;
945.0000;0.6414;1.3529;
945.3000;0.6431;1.3505;
945.6000;0.6463;1.3578;
945.9000;0.6439;1.3578;
946.2000;0.6439;1.3602;
946.5000;0.6414;1.3674;
946.8000;0.6431;1.3723;
947.1000;0.6422;1.3747;
947.4000;0.6414;1.3723;
947.7000;0.6431;1.3796;
948.0000;0.6382;1.3602;
948.3000;0.6431;1.3650;
948.6000;0.6422;1.3602;
948.9000;0.6414;1.3602;
949.2000;0.6431;1.3553;
949.5000;0.6414;1.3578;
949.8000;0.6447;1.3699;
950.1000;0.6431;1.3723;
950.4000;0.6406;1.3723;
950.7000;0.6422;1.3771;
951.0000;0.6447;1.3796;
951.3000;0.6431;1.3723;
951.6000;0.6414;1.3771;
951.9000;0.6414;1.3844;
952.2000;0.6463;1.3868;
952.5000;0.6431;1.3747;
952.8000;0.6406;1.3626;
953.1000;0.6414;1.3674;
953.4000;0.6398;1.3747;
953.7000;0.6422;1.3747;
954.0000;0.6382;1.3602;
954.3000;0.6414;1.3674;
954.6000;0.6422;1.3723;
954.9000;0.6406;1.3723;
955.2000;0.6414;1.3723;
955.5000;0.6414;1.3771;
955.8000;0.6422;1.3747;
956.1000;0.6414;1.3723;
956.4000;0.6422;1.3771;
956.7000;0.6455;1.3796;
957.0000;0.6422;1.3820;
957.3000;0.6414;1.3796;
957.6000;0.6422;1.3771;
957.9000;0.6406;1.3723;
958.2000;0.6422;1.3723;
958.5000;0.6414;1.3771;
958.8000;0.6406;1.3771;
959.1000;0.6406;1.3820;
959.4000;0.6406;1.3917;
959.7000;0.6422;1.3990;
960.0000;0.6406;1.3941;
960.3000;0.6422;1.3917;
960.6000;0.6374;1.3868;
960.9000;0.6431;1.3917;
961.2000;0.6414;1.3868;
961.5000;0.6414;1.3868;
961.8000;0.6406;1.3820;
962.1000;0.6390;1.3771;
962.4000;0.6414;1.3820;
962.7000;0.6382;1.3796;
963.0000;0.6406;1.3893;
963.3000;0.6406;1.3796;
963.6000;0.6414;1.3796;
963.9000;0.6414;1.3747;
964.2000;0.6414;1.3771;
964.5000;0.6406;1.3650;
964.8000;0.6431;1.3650;
965.1000;0.6414;1.3674;
965.4000;0.6406;1.3699;
965.7000;0.6406;1.3723;
966.0000;0.6455;1.3893;
966.3000;0.6406;1.3723;
966.6000;0.6431;1.3699;
966.9000;0.6382;1.3578;
967.2000;0.6414;1.3699;
967.5000;0.6422;1.3699;
967.8000;0.6431;1.3723;
968.1000;0.6439;1.3771;
968.4000;0.6406;1.3674;
968.7000;0.6357;1.3578;
969.0000;0.6406;1.3796;
969.3000;0.6414;1.3747;
969.6000;0.6414;1.3844;
969.9000;0.6406;1.3844;
970.2000;0.6422;1.3844;
970.5000;0.6382;1.3796;
970.8000;0.6406;1.3699;
971.1000;0.6398;1.3650;
971.4000;0.6406;1.3674;
971.7000;0.6414;1.3650;
972.0000;0.6398;1.3699;
972.3000;0.6390;1.3650;
972.6000;0.6422;1.3674;
972.9000;0.6406;1.3553;
973.2000;0.6447;1.3674;
973.5000;0.6414;1.3723;
973.8000;0.6374;1.3723;
974.1000;0.6390;1.3796;
974.4000;0.6398;1.3796;
974.7000;0.6414;1.3747;
975.0000;0.6422;1.3771;
975.3000;0.6422;1.3844;
975.6000;0.6398;1.3820;
975.9000;0.6382;1.3844;
976.2000;0.6422;1.3990;
976.5000;0.6406;1.3965;
976.8000;0.6406;1.3965;
977.1000;0.6382;1.3893;
977.4000;0.6398;1.3965;
977.7000;0.6390;1.3893;
978.0000;0.6422;1.3917;
978.3000;0.6390;1.3941;
978.6000;0.6398;1.3941;
978.9000;0.6398;1.3868;
979.2000;0.6390;1.3917;
979.5000;0.6390;1.3917;
979.8000;0.6406;1.3917;
980.1000;0.6406;1.3868;
980.4000;0.6374;1.3771;
980.7000;0.6398;1.3844;
981.0000;0.6398;1.3723;
981.3000;0.6398;1.3723;
981.6000;0.6406;1.3844;
981.9000;0.6406;1.3844;
982.2000;0.6414;1.3820;
982.5000;0.6374;1.3796;
982.8000;0.6382;1.3820;
983.1000;0.6422;1.3965;
983.4000;0.6382;1.3796;
983.7000;0.6374;1.3747;
984.0000;0.6398;1.3796;
984.3000;0.6398;1.3699;
984.6000;0.6382;1.3650;
984.9000;0.6406;1.3747;
985.2000;0.6390;1.3796;
985.5000;0.6390;1.3771;
985.8000;0.6406;1.3796;
986.1000;0.6398;1.3771;
986.4000;0.6333;1.3650;
986.7000;0.6374;1.3747;
987.0000;0.6398;1.3844;
987.3000;0.6382;1.3893;
987.6000;0.6390;1.3868;
987.9000;0.6422;1.3965;
988.2000;0.6398;1.3917;
988.5000;0.6398;1.3893;
988.8000;0.6398;1.3893;
989.1000;0.6390;1.3868;
989.4000;0.6422;1.3917;
989.7000;0.6398;1.3771;
990.0000;0.6390;1.3723;
990.3000;0.6398;1.3771;
990.6000;0.6398;1.3820;
990.9000;0.6414;1.3796;
991.2000;0.6406;1.3796;
991.5000;0.6341;1.3699;
991.8000;0.6390;1.3820;
992.1000;0.6357;1.3747;
992.4000;0.6398;1.3820;
992.7000;0.6406;1.3917;
993.0000;0.6390;1.3844;
993.3000;0.6431;1.3868;
993.6000;0.6422;1.3893;
993.9000;0.6439;1.3917;
994.2000;0.6374;1.3796;
994.5000;0.6382;1.3844;
994.8000;0.6390;1.3820;
995.1000;0.6365;1.3796;
995.4000;0.6382;1.3868;
995.7000;0.6390;1.3893;
996.0000;0.6406;1.3917;
996.3000;0.6414;1.3917;
996.6000;0.6374;1.3820;
996.9000;0.6341;1.3771;
997.2000;0.6382;1.3820;
997.5000;0.6390;1.3868;
997.8000;0.6382;1.3917;
998.1000;0.6398;1.3941;
998.4000;0.6390;1.3893;
998.7000;0.6365;1.3844;
999.0000;0.6382;1.3868;
999.3000;0.6382;1.3844;
999.6000;0.6398;1.3893;
999.9000;0.6390;1.3796;
1000.2000;0.6341;1.3723;
1000.5000;0.6398;1.3820;
1000.8000;0.6374;1.3796;
1001.1000;0.6382;1.3820;
1001.4000;0.6382;1.3747;
1001.7000;0.6374;1.3844;
1002.0000;0.6374;1.3917;
1002.3000;0.6406;1.3990;
1002.6000;0.6382;1.3820;
1002.9000;0.6398;1.3820;
1003.2000;0.6398;1.3844;
1003.5000;0.6406;1.3820;
1003.8000;0.6406;1.3771;
1004.1000;0.6398;1.3771;
1004.4000;0.6390;1.3796;
1004.7000;0.6398;1.3820;
1005.0000;0.6374;1.3820;
1005.3000;0.6390;1.3747;
1005.6000;0.6374;1.3650;
1005.9000;0.6398;1.3674;
1006.2000;0.6398;1.3699;
1006.5000;0.6382;1.3626;
1006.8000;0.6382;1.3626;
1007.1000;0.6398;1.3699;
1007.4000;0.6300;1.3456;
1007.7000;0.6357;1.3602;
1008.0000;0.6390;1.3602;
1008.3000;0.6382;1.3578;
1008.6000;0.6390;1.3626;
1008.9000;0.6382;1.3553;
1009.2000;0.6333;1.3456;
1009.5000;0.6309;1.3384;
1009.8000;0.6374;1.3602;
1010.1000;0.6390;1.3626;
1010.4000;0.6398;1.3747;
1010.7000;0.6382;1.3674;
1011.0000;0.6374;1.3602;
1011.3000;0.6365;1.3626;
1011.6000;0.6374;1.3674;
1011.9000;0.6374;1.3699;
1012.2000;0.6374;1.3723;
1012.5000;0.6382;1.3674;
1012.8000;0.6390;1.3723;
1013.1000;0.6374;1.3723;
1013.4000;0.6357;1.3674;
1013.7000;0.6382;1.3747;
1014.0000;0.6374;1.3699;
1014.3000;0.6382;1.3747;
1014.6000;0.6374;1.3771;
1014.9000;0.6390;1.3771;
1015.2000;0.6382;1.3771;
1015.5000;0.6317;1.3553;
1015.8000;0.6382;1.3699;
1016.1000;0.6382;1.3747;
1016.4000;0.6333;1.3674;
1016.7000;0.6390;1.3796;
1017.0000;0.6382;1.3771;
1017.3000;0.6390;1.3771;
1017.6000;0.6406;1.3747;
1017.9000;0.6382;1.3650;
1018.2000;0.6374;1.3650;
1018.5000;0.6374;1.3674;
1018.8000;0.6374;1.3747;
1019.1000;0.6374;1.3796;
1019.4000;0.6374;1.3796;
1019.7000;0.6390;1.3893;
1020.0000;0.6349;1.3820;
1020.3000;0.6390;1.3917;
1020.6000;0.6365;1.3893;
1020.9000;0.6365;1.3820;
1021.2000;0.6333;1.3771;
1021.5000;0.6398;1.3844;
1021.8000;0.6357;1.3747;
1022.1000;0.6382;1.3941;
1022.4000;0.6382;1.3893;
1022.7000;0.6382;1.3917;
1023.0000;0.6390;1.3917;
1023.3000;0.6382;1.3868;
1023.6000;0.6382;1.3844;
1023.9000;0.6374;1.3868;
1024.2000;0.6382;1.3893;
1024.5000;0.6390;1.3820;
1024.8000;0.6382;1.3796;
1025.1000;0.6390;1.3820;
1025.4000;0.6390;1.3917;
1025.7000;0.6374;1.3941;
1026.0000;0.6382;1.3965;
1026.3000;0.6382;1.3990;
1026.6000;0.6357;1.4014;
1026.9000;0.6374;1.4038;
1027.2000;0.6382;1.4014;
1027.5000;0.6382;1.4038;
1027.8000;0.6374;1.3965;
1028.1000;0.6365;1.3844;
1028.4000;0.6382;1.3868;
1028.7000;0.6374;1.3893;
1029.0000;0.6390;1.3893;
1029.3000;0.6374;1.3844;
1029.6000;0.6374;1.3796;
1029.9000;0.6365;1.3893;
1030.2000;0.6365;1.3917;
1030.5000;0.6325;1.3868;
1030.8000;0.6357;1.3844;
1031.1000;0.6414;1.3941;
1031.4000;0.6406;1.3893;
1031.7000;0.6325;1.3723;
1032.0000;0.6365;1.3868;
1032.3000;0.6357;1.3820;
1032.6000;0.6390;1.3893;
1032.9000;0.6382;1.3868;
1033.2000;0.6365;1.3917;
1033.5000;0.6374;1.3917;
1033.8000;0.6406;1.3965;
1034.1000;0.6374;1.3893;
1034.4000;0.6357;1.3796;
1034.7000;0.6365;1.3771;
1035.0000;0.6365;1.3844;
1035.3000;0.6365;1.3844;
1035.6000;0.6374;1.3917;
1035.9000;0.6349;1.3844;
1036.2000;0.6349;1.3723;
1036.5000;0.6357;1.3723;
1036.8000;0.6309;1.3650;
1037.1000;0.6365;1.3796;
1037.4000;0.6357;1.3796;
1037.7000;0.6357;1.3820;
1038.0000;0.6365;1.3868;
1038.3000;0.6374;1.3868;
1038.6000;0.6341;1.3796;
1038.9000;0.6365;1.3844;
1039.2000;0.6374;1.3820;
1039.5000;0.6365;1.3820;
1039.8000;0.6357;1.3747;
1040.1000;0.6357;1.3699;
1040.4000;0.6374;1.3747;
1040.7000;0.6374;1.3699;
1041.0000;0.6374;1.3699;
1041.3000;0.6317;1.3602;
1041.6000;0.6357;1.3771;
1041.9000;0.6357;1.3747;
1042.2000;0.6349;1.3699;
1042.5000;0.6349;1.3747;
1042.8000;0.6349;1.3771;
1043.1000;0.6374;1.3868;
1043.4000;0.6382;1.3893;
1043.7000;0.6374;1.3893;
1044.0000;0.6374;1.3917;
1044.3000;0.6300;1.3796;
1044.6000;0.6349;1.3990;
1044.9000;0.6357;1.4111;
1045.2000;0.6357;1.4062;
1045.5000;0.6333;1.3990;
1045.8000;0.6374;1.4014;
1046.1000;0.6349;1.3868;
1046.4000;0.6357;1.3893;
1046.7000;0.6365;1.3868;
1047.0000;0.6357;1.3820;
1047.3000;0.6357;1.3796;
1047.6000;0.6357;1.3796;
1047.9000;0.6382;1.3844;
1048.2000;0.6365;1.3820;
1048.5000;0.6365;1.3844;
1048.8000;0.6374;1.3868;
1049.1000;0.6365;1.3917;
1049.4000;0.6349;1.3893;
1049.7000;0.6382;1.3820;
1050.0000;0.6365;1.3820;
1050.3000;0.6398;1.3844;
1050.6000;0.6357;1.3699;
1050.9000;0.6341;1.3674;
1051.2000;0.6357;1.3771;
1051.5000;0.6374;1.3796;
1051.8000;0.6357;1.3771;
1052.1000;0.6333;1.3796;
1052.4000;0.6357;1.3868;
1052.7000;0.6398;1.3893;
1053.0000;0.6349;1.3820;
1053.3000;0.6390;1.3747;
1053.6000;0.6309;1.3553;
1053.9000;0.6374;1.3820;
1054.2000;0.6365;1.3820;
1054.5000;0.6333;1.3796;
1054.8000;0.6374;1.3868;
1055.1000;0.6357;1.3771;
1055.4000;0.6357;1.3699;
1055.7000;0.6365;1.3650;
1056.0000;0.6406;1.3796;
1056.3000;0.6333;1.3747;
1056.6000;0.6357;1.3844;
1056.9000;0.6292;1.3674;
1057.2000;0.6349;1.3844;
1057.5000;0.6341;1.3747;
1057.8000;0.6357;1.3771;
1058.1000;0.6382;1.3844;
1058.4000;0.6357;1.3796;
1058.7000;0.6365;1.3844;
1059.0000;0.6357;1.3820;
1059.3000;0.6365;1.3747;
1059.6000;0.6365;1.3796;
1059.9000;0.6382;1.3893;
1060.2000;0.6341;1.3820;
1060.5000;0.6357;1.3893;
1060.8000;0.6349;1.3893;
1061.1000;0.6374;1.3893;
1061.4000;0.6365;1.3868;
1061.7000;0.6357;1.3893;
1062.0000;0.6374;1.3893;
1062.3000;0.6349;1.3868;
1062.6000;0.6365;1.3893;
1062.9000;0.6349;1.3868;
1063.2000;0.6374;1.3941;
1063.5000;0.6357;1.3965;
1063.8000;0.6374;1.3990;
1064.1000;0.6365;1.3917;
1064.4000;0.6365;1.3965;
1064.7000;0.6357;1.3965;
1065.0000;0.6357;1.4014;
1065.3000;0.6333;1.3990;
1065.6000;0.6341;1.3965;
1065.9000;0.6341;1.3868;
1066.2000;0.6349;1.3893;
1066.5000;0.6341;1.3893;
1066.8000;0.6325;1.3844;
1067.1000;0.6357;1.3820;
1067.4000;0.6349;1.3796;
1067.7000;0.6349;1.3796;
1068.0000;0.6341;1.3796;
1068.3000;0.6276;1.3650;
1068.6000;0.6357;1.3893;
1068.9000;0.6357;1.3868;
1069.2000;0.6341;1.3796;
1069.5000;0.6349;1.3917;
1069.8000;0.6349;1.3893;
1070.1000;0.6365;1.3893;
1070.4000;0.6357;1.3893;
1070.7000;0.6349;1.3917;
1071.0000;0.6349;1.3820;
1071.3000;0.6365;1.3796;
1071.6000;0.6365;1.3796;
1071.9000;0.6349;1.3820;
1072.2000;0.6357;1.3844;
1072.5000;0.6349;1.3844;
1072.8000;0.6341;1.3796;
1073.1000;0.6341;1.3796;
1073.4000;0.6341;1.3868;
1073.7000;0.6357;1.3820;
1074.0000;0.6349;1.3844;
1074.3000;0.6341;1.3820;
1074.6000;0.6374;1.3868;
1074.9000;0.6357;1.3820;
1075.2000;0.6357;1.3868;
1075.5000;0.6374;1.3941;
1075.8000;0.6365;1.3941;
1076.1000;0.6349;1.3893;
1076.4000;0.6349;1.3747;
1076.7000;0.6398;1.3844;
1077.0000;0.6357;1.3771;
1077.3000;0.6349;1.3747;
1077.6000;0.6374;1.3747;
1077.9000;0.6341;1.3602;
1078.2000;0.6341;1.3602;
1078.5000;0.6333;1.3505;
1078.8000;0.6357;1.3578;
1079.1000;0.6349;1.3553;
1079.4000;0.6349;1.3602;
1079.7000;0.6349;1.3602;
1080.0000;0.6382;1.3747;
1080.3000;0.6349;1.3674;
1080.6000;0.6341;1.3674;
1080.9000;0.6325;1.3674;
1081.2000;0.6349;1.3747;
1081.5000;0.6349;1.3796;
1081.8000;0.6341;1.3820;
1082.1000;0.6414;1.3990;
1082.4000;0.6341;1.3844;
1082.7000;0.6349;1.3917;
1083.0000;0.6341;1.3965;
1083.3000;0.6317;1.3990;
1083.6000;0.6341;1.3893;
1083.9000;0.6333;1.3771;
1084.2000;0.6333;1.3771;
1084.5000;0.6349;1.3844;
1084.8000;0.6341;1.3868;
1085.1000;0.6365;1.3965;
1085.4000;0.6349;1.3917;
1085.7000;0.6349;1.3893;
1086.0000;0.6341;1.3990;
1086.3000;0.6357;1.3941;
1086.6000;0.6357;1.3990;
1086.9000;0.6333;1.3990;
1087.2000;0.6365;1.4062;
1087.5000;0.6357;1.4014;
1087.8000;0.6349;1.3941;
1088.1000;0.6333;1.3965;
1088.4000;0.6349;1.3941;
1088.7000;0.6341;1.3965;
1089.0000;0.6357;1.3941;
1089.3000;0.6374;1.3941;
1089.6000;0.6349;1.3917;
1089.9000;0.6357;1.3990;
1090.2000;0.6349;1.4014;
1090.5000;0.6357;1.4087;
1090.8000;0.6317;1.4087;
1091.1000;0.6341;1.4087;
1091.4000;0.6374;1.4135;
1091.7000;0.6349;1.4038;
1092.0000;0.6325;1.4014;
1092.3000;0.6341;1.3965;
1092.6000;0.6325;1.3868;
1092.9000;0.6341;1.3868;
1093.2000;0.6276;1.3771;
1093.5000;0.6333;1.3917;
1093.8000;0.6349;1.3893;
1094.1000;0.6317;1.3796;
1094.4000;0.6341;1.3868;
1094.7000;0.6349;1.3893;
1095.0000;0.6341;1.3917;
1095.3000;0.6349;1.4014;
1095.6000;0.6341;1.3990;
1095.9000;0.6349;1.3941;
1096.2000;0.6333;1.3893;
1096.5000;0.6317;1.3868;
1096.8000;0.6325;1.3941;
1097.1000;0.6349;1.3917;
1097.4000;0.6357;1.3965;
1097.7000;0.6341;1.3917;
1098.0000;0.6341;1.3965;
1098.3000;0.6333;1.3941;
1098.6000;0.6357;1.3917;
1098.9000;0.6333;1.3844;
1099.2000;0.6374;1.3965;
1099.5000;0.6357;1.4038;
1099.8000;0.6317;1.3917;
1100.1000;0.6325;1.3990;
1100.4000;0.6349;1.3990;
1100.7000;0.6341;1.3965;
1101.0000;0.6325;1.3844;
1101.3000;0.6349;1.3941;
1101.6000;0.6284;1.3796;
1101.9000;0.6357;1.3990;
1102.2000;0.6349;1.3917;
1102.5000;0.6341;1.3820;
1102.8000;0.6341;1.3893;
1103.1000;0.6333;1.3820;
1103.4000;0.6333;1.3917;
1103.7000;0.6349;1.4014;
1104.0000;0.6309;1.3965;
1104.3000;0.6333;1.3990;
1104.6000;0.6333;1.4014;
1104.9000;0.6349;1.4062;
1105.2000;0.6349;1.4159;
1105.5000;0.6349;1.4184;
1105.8000;0.6349;1.4159;
1106.1000;0.6349;1.4135;
1106.4000;0.6357;1.4014;
1106.7000;0.6349;1.4014;
1107.0000;0.6325;1.3941;
1107.3000;0.6349;1.4111;
1107.6000;0.6325;1.4087;
1107.9000;0.6349;1.4062;
1108.2000;0.6349;1.4038;
1108.5000;0.6349;1.3990;
1108.8000;0.6341;1.4038;
1109.1000;0.6349;1.4111;
1109.4000;0.6341;1.4087;
1109.7000;0.6341;1.4038;
1110.0000;0.6341;1.3990;
1110.3000;0.6325;1.3965;
1110.6000;0.6341;1.3990;
1110.9000;0.6349;1.3941;
1111.2000;0.6349;1.3893;
1111.5000;0.6365;1.3868;
1111.8000;0.6268;1.3674;
1112.1000;0.6325;1.3796;
1112.4000;0.6325;1.3844;
1112.7000;0.6325;1.3868;
1113.0000;0.6398;1.4135;
1113.3000;0.6357;1.4111;
1113.6000;0.6333;1.4062;
1113.9000;0.6333;1.3990;
1114.2000;0.6333;1.4087;
1114.5000;0.6341;1.4135;
1114.8000;0.6333;1.4135;
1115.1000;0.6317;1.4111;
1115.4000;0.6309;1.4038;
1115.7000;0.6333;1.4111;
1116.0000;0.6341;1.4062;
1116.3000;0.6333;1.4014;
1116.6000;0.6317;1.4014;
1116.9000;0.6325;1.4111;
1117.2000;0.6406;1.4232;
1117.5000;0.6317;1.4014;
1117.8000;0.6365;1.3990;
1118.1000;0.6325;1.3893;
1118.4000;0.6325;1.3941;
1118.7000;0.6317;1.3893;
1119.0000;0.6333;1.3844;
1119.3000;0.6309;1.3796;
1119.6000;0.6333;1.3820;
1119.9000;0.6333;1.3796;
1120.2000;0.6325;1.3796;
1120.5000;0.6333;1.3844;
1120.8000;0.6349;1.3796;
1121.1000;0.6349;1.3893;
1121.4000;0.6349;1.3941;
1121.7000;0.6349;1.3965;
1122.0000;0.6357;1.4014;
1122.3000;0.6341;1.3965;
1122.6000;0.6325;1.3965;
1122.9000;0.6357;1.4087;
1123.2000;0.6325;1.4087;
1123.5000;0.6365;1.4159;
1123.8000;0.6341;1.4135;
1124.1000;0.6333;1.3990;
1124.4000;0.6325;1.3990;
1124.7000;0.6341;1.4062;
1125.0000;0.6325;1.4111;
1125.3000;0.6333;1.4014;
1125.6000;0.6414;1.4232;
1125.9000;0.6341;1.4014;
1126.2000;0.6341;1.3965;
1126.5000;0.6309;1.3965;
1126.8000;0.6325;1.3990;
1127.1000;0.6333;1.3965;
1127.4000;0.6333;1.3917;
1127.7000;0.6325;1.3990;
1128.0000;0.6317;1.3990;
1128.3000;0.6333;1.4014;
1128.6000;0.6333;1.4087;
1128.9000;0.6325;1.3990;
1129.2000;0.6333;1.4111;
1129.5000;0.6325;1.4159;
1129.8000;0.6333;1.4111;
1130.1000;0.6276;1.3941;
1130.4000;0.6309;1.4038;
1130.7000;0.6341;1.3990;
1131.0000;0.6333;1.4014;
1131.3000;0.6333;1.4087;
1131.6000;0.6349;1.4111;
1131.9000;0.6317;1.4087;
1132.2000;0.6333;1.4062;
1132.5000;0.6333;1.4062;
1132.8000;0.6341;1.4062;
1133.1000;0.6325;1.4038;
1133.4000;0.6341;1.4087;
1133.7000;0.6325;1.4087;
1134.0000;0.6341;1.4135;
1134.3000;0.6333;1.4135;
1134.6000;0.6333;1.4038;
1134.9000;0.6333;1.4038;
1135.2000;0.6357;1.4159;
1135.5000;0.6333;1.4159;
1135.8000;0.6260;1.3917;
1136.1000;0.6341;1.4087;
1136.4000;0.6341;1.4111;
1136.7000;0.6341;1.4038;
1137.0000;0.6325;1.4062;
1137.3000;0.6390;1.4281;
1137.6000;0.6341;1.4087;
1137.9000;0.6341;1.4087;
1138.2000;0.6325;1.4038;
1138.5000;0.6333;1.4014;
1138.8000;0.6341;1.4014;
1139.1000;0.6333;1.3990;
1139.4000;0.6300;1.3965;
1139.7000;0.6333;1.4062;
1140.0000;0.6317;1.4087;
1140.3000;0.6333;1.4135;
1140.6000;0.6325;1.4062;
1140.9000;0.6300;1.3990;
1141.2000;0.6333;1.4038;
1141.5000;0.6341;1.4038;
1141.8000;0.6325;1.3990;
1142.1000;0.6333;1.4014;
1142.4000;0.6268;1.3990;
1142.7000;0.6309;1.4014;
1143.0000;0.6309;1.4038;
1143.3000;0.6325;1.4111;
1143.6000;0.6317;1.4159;
1143.9000;0.6317;1.4135;
1144.2000;0.6333;1.4135;
1144.5000;0.6317;1.4087;
1144.8000;0.6317;1.4014;
1145.1000;0.6325;1.4159;
1145.4000;0.6365;1.4208;
1145.7000;0.6333;1.4087;
1146.0000;0.6317;1.4038;
1146.3000;0.6309;1.4014;
1146.6000;0.6333;1.4062;
1146.9000;0.6325;1.4062;
1147.2000;0.6317;1.4014;
1147.5000;0.6325;1.3990;
1147.8000;0.6325;1.3941;
1148.1000;0.6325;1.3941;
1148.4000;0.6325;1.3917;
1148.7000;0.6325;1.3941;
1149.0000;0.6333;1.3868;
1149.3000;0.6341;1.3893;
1149.6000;0.6317;1.3868;
1149.9000;0.6317;1.3941;
1150.2000;0.6325;1.3941;
1150.5000;0.6300;1.3820;
1150.8000;0.6325;1.3868;
1151.1000;0.6317;1.3941;
1151.4000;0.6317;1.3917;
1151.7000;0.6317;1.3941;
1152.0000;0.6317;1.4014;
1152.3000;0.6333;1.4014;
1152.6000;0.6325;1.4062;
1152.9000;0.6309;1.3965;
1153.2000;0.6317;1.4014;
1153.5000;0.6317;1.3893;
1153.8000;0.6325;1.3941;
1154.1000;0.6382;1.4087;
1154.4000;0.6333;1.3917;
1154.7000;0.6325;1.3941;
1155.0000;0.6333;1.3893;
1155.3000;0.6341;1.3844;
1155.6000;0.6341;1.3820;
1155.9000;0.6333;1.3868;
1156.2000;0.6325;1.3868;
1156.5000;0.6317;1.3820;
1156.8000;0.6365;1.3893;
1157.1000;0.6341;1.3771;
1157.4000;0.6325;1.3868;
1157.7000;0.6325;1.3820;
1158.0000;0.6325;1.3844;
1158.3000;0.6300;1.3893;
1158.6000;0.6325;1.3917;
1158.9000;0.6309;1.3893;
1159.2000;0.6325;1.3941;
1159.5000;0.6309;1.3990;
1159.8000;0.6260;1.3844;
1160.1000;0.6284;1.3941;
1160.4000;0.6325;1.4087;
1160.7000;0.6309;1.4111;
1161.0000;0.6357;1.4232;
1161.3000;0.6309;1.4062;
1161.6000;0.6317;1.4111;
1161.9000;0.6341;1.4184;
1162.2000;0.6341;1.4135;
1162.5000;0.6317;1.4135;
1162.8000;0.6341;1.4232;
1163.1000;0.6374;1.4208;
1163.4000;0.6357;1.4159;
1163.7000;0.6333;1.4014;
1164.0000;0.6317;1.3965;
1164.3000;0.6317;1.3917;
1164.6000;0.6325;1.3941;
1164.9000;0.6317;1.3868;
1165.2000;0.6317;1.3796;
1165.5000;0.6325;1.3796;
1165.8000;0.6252;1.3602;
1166.1000;0.6309;1.3820;
1166.4000;0.6276;1.3699;
1166.7000;0.6317;1.3844;
1167.0000;0.6325;1.3868;
1167.3000;0.6341;1.3893;
1167.6000;0.6341;1.3965;
1167.9000;0.6309;1.3917;
1168.2000;0.6333;1.3965;
1168.5000;0.6333;1.3917;
1168.8000;0.6317;1.3917;
1169.1000;0.6325;1.3893;
1169.4000;0.6333;1.3965;
1169.7000;0.6325;1.3917;
1170.0000;0.6292;1.3844;
1170.3000;0.6317;1.3917;
1170.6000;0.6325;1.3941;
1170.9000;0.6317;1.3990;
1171.2000;0.6309;1.3965;
1171.5000;0.6309;1.3990;
1171.8000;0.6309;1.4087;
1172.1000;0.6317;1.3990;
1172.4000;0.6325;1.3965;
1172.7000;0.6341;1.3941;
1173.0000;0.6382;1.4087;
1173.3000;0.6365;1.4038;
1173.6000;0.6309;1.3893;
1173.9000;0.6309;1.3820;
1174.2000;0.6300;1.3893;
1174.5000;0.6325;1.3965;
1174.8000;0.6317;1.3965;
1175.1000;0.6325;1.3893;
1175.4000;0.6292;1.3796;
1175.7000;0.6333;1.3893;
1176.0000;0.6317;1.3917;
1176.3000;0.6300;1.3868;
1176.6000;0.6309;1.3796;
1176.9000;0.6317;1.3844;
1177.2000;0.6325;1.3965;
1177.5000;0.6300;1.3917;
1177.8000;0.6325;1.3990;
1178.1000;0.6300;1.3893;
1178.4000;0.6325;1.3917;
1178.7000;0.6325;1.3990;
1179.0000;0.6333;1.3990;
1179.3000;0.6317;1.4038;
1179.6000;0.6325;1.4111;
1179.9000;0.6333;1.4184;
1180.2000;0.6325;1.4111;
1180.5000;0.6325;1.4062;
1180.8000;0.6341;1.4062;
1181.1000;0.6292;1.4038;
1181.4000;0.6333;1.4014;
1181.7000;0.6300;1.3917;
1182.0000;0.6325;1.4014;
1182.3000;0.6292;1.3844;
1182.6000;0.6317;1.3820;
1182.9000;0.6309;1.3820;
1183.2000;0.6325;1.3820;
1183.5000;0.6341;1.3844;
1183.8000;0.6317;1.3796;
1184.1000;0.6349;1.3868;
1184.4000;0.6317;1.3650;
1184.7000;0.6333;1.3650;
1185.0000;0.6325;1.3674;
1185.3000;0.6341;1.3820;
1185.6000;0.6325;1.3747;
1185.9000;0.6325;1.3820;
1186.2000;0.6317;1.3796;
1186.5000;0.6325;1.3747;
1186.8000;0.6309;1.3699;
1187.1000;0.6325;1.3699;
1187.4000;0.6292;1.3699;
1187.7000;0.6309;1.3723;
1188.0000;0.6317;1.3699;
1188.3000;0.6300;1.3699;
1188.6000;0.6325;1.3674;
1188.9000;0.6341;1.3626;
1189.2000;0.6325;1.3529;
1189.5000;0.6317;1.3553;
1189.8000;0.6317;1.3602;
1190.1000;0.6317;1.3674;
1190.4000;0.6317;1.3699;
1190.7000;0.6317;1.3723;
1191.0000;0.6325;1.3699;
1191.3000;0.6325;1.3699;
1191.6000;0.6333;1.3820;
1191.9000;0.6317;1.3771;
1192.2000;0.6325;1.3820;
1192.5000;0.6325;1.3820;
1192.8000;0.6365;1.3917;
1193.1000;0.6317;1.3844;
1193.4000;0.6317;1.3844;
1193.7000;0.6325;1.3844;
1194.0000;0.6325;1.3990;
1194.3000;0.6300;1.3893;
1194.6000;0.6309;1.3917;
1194.9000;0.6325;1.3941;
1195.2000;0.6349;1.3990;
1195.5000;0.6317;1.3868;
1195.8000;0.6276;1.3771;
1196.1000;0.6292;1.3796;
1196.4000;0.6292;1.3820;
1196.7000;0.6309;1.3868;
1197.0000;0.6292;1.3893;
1197.3000;0.6300;1.3820;
1197.6000;0.6357;1.3965;
1197.9000;0.6309;1.3844;
1198.2000;0.6309;1.3893;
1198.5000;0.6325;1.3941;
1198.8000;0.6325;1.3990;
1199.1000;0.6317;1.3990;
1199.4000;0.6325;1.3941;
1199.7000;0.6309;1.3917;
1200.0000;0.6325;1.4014;
1200.3000;0.6325;1.4062;
1200.6000;0.6309;1.4111;
1200.9000;0.6300;1.4062;
1201.2000;0.6325;1.4038;
1201.5000;0.6317;1.3941;
1201.8000;0.6309;1.3893;
1202.1000;0.6284;1.3844;
1202.4000;0.6309;1.3844;
1202.7000;0.6292;1.3868;
1203.0000;0.6309;1.3917;
1203.3000;0.6300;1.3893;
1203.6000;0.6349;1.4038;
1203.9000;0.6325;1.3965;
1204.2000;0.6341;1.4014;
1204.5000;0.6300;1.3893;
1204.8000;0.6333;1.3917;
1205.1000;0.6309;1.3917;
1205.4000;0.6300;1.3941;
1205.7000;0.6325;1.3990;
1206.0000;0.6317;1.4038;
1206.3000;0.6300;1.4087;
1206.6000;0.6309;1.4159;
1206.9000;0.6309;1.4062;
1207.2000;0.6252;1.3917;
1207.5000;0.6309;1.3990;
1207.8000;0.6268;1.3820;
1208.1000;0.6341;1.4038;
1208.4000;0.6309;1.4014;
1208.7000;0.6292;1.3990;
1209.0000;0.6309;1.3990;
1209.3000;0.6341;1.4038;
1209.6000;0.6325;1.4014;
1209.9000;0.6309;1.4014;
1210.2000;0.6317;1.4038;
1210.5000;0.6365;1.4159;
1210.8000;0.6325;1.3965;
1211.1000;0.6317;1.3844;
1211.4000;0.6317;1.3868;
1211.7000;0.6317;1.3893;
1212.0000;0.6300;1.3844;
1212.3000;0.6317;1.3893;
1212.6000;0.6300;1.3820;
1212.9000;0.6333;1.3820;
1213.2000;0.6325;1.3820;
1213.5000;0.6300;1.3771;
1213.8000;0.6300;1.3820;
1214.1000;0.6325;1.3868;
1214.4000;0.6317;1.3893;
1214.7000;0.6317;1.3990;
1215.0000;0.6309;1.3965;
1215.3000;0.6309;1.3965;
1215.6000;0.6333;1.3965;
1215.9000;0.6325;1.3990;
1216.2000;0.6309;1.4111;
1216.5000;0.6317;1.4135;
1216.8000;0.6317;1.4087;
1217.1000;0.6325;1.4062;
1217.4000;0.6390;1.4208;
1217.7000;0.6317;1.4038;
1218.0000;0.6309;1.4062;
1218.3000;0.6292;1.4038;
1218.6000;0.6325;1.4111;
1218.9000;0.6300;1.3990;
1219.2000;0.6276;1.3868;
1219.5000;0.6349;1.4038;
1219.8000;0.6317;1.3893;
1220.1000;0.6276;1.3747;
1220.4000;0.6292;1.3820;
1220.7000;0.6300;1.3868;
1221.0000;0.6300;1.3893;
1221.3000;0.6309;1.3893;
1221.6000;0.6276;1.3771;
1221.9000;0.6292;1.3771;
1222.2000;0.6317;1.3723;
1222.5000;0.6390;1.3990;
1222.8000;0.6317;1.3820;
1223.1000;0.6317;1.3820;
1223.4000;0.6317;1.3820;
1223.7000;0.6300;1.3844;
1224.0000;0.6284;1.3844;
1224.3000;0.6300;1.3820;
1224.6000;0.6325;1.3844;
1224.9000;0.6309;1.3868;
1225.2000;0.6276;1.3747;
1225.5000;0.6300;1.3723;
1225.8000;0.6284;1.3650;
1226.1000;0.6300;1.3602;
1226.4000;0.6292;1.3650;
1226.7000;0.6284;1.3747;
1227.0000;0.6292;1.3674;
1227.3000;0.6341;1.3796;
1227.6000;0.6292;1.3723;
1227.9000;0.6349;1.3990;
1228.2000;0.6284;1.3796;
1228.5000;0.6325;1.3941;
1228.8000;0.6309;1.3941;
1229.1000;0.6309;1.3893;
1229.4000;0.6300;1.3893;
1229.7000;0.6309;1.3893;
1230.0000;0.6317;1.3990;
1230.3000;0.6349;1.4159;
1230.6000;0.6325;1.4062;
1230.9000;0.6317;1.4135;
1231.2000;0.6284;1.4087;
1231.5000;0.6292;1.4038;
1231.8000;0.6292;1.3917;
1232.1000;0.6300;1.3941;
1232.4000;0.6357;1.4062;
1232.7000;0.6260;1.3893;
1233.0000;0.6260;1.3844;
1233.3000;0.6349;1.4062;
1233.6000;0.6300;1.3965;
1233.9000;0.6309;1.3893;
1234.2000;0.6292;1.3893;
1234.5000;0.6292;1.3941;
1234.8000;0.6317;1.4038;
1235.1000;0.6292;1.3990;
1235.4000;0.6349;1.4087;
1235.7000;0.6309;1.4014;
1236.0000;0.6325;1.3965;
1236.3000;0.6317;1.3990;
1236.6000;0.6309;1.4038;
1236.9000;0.6276;1.4038;
1237.2000;0.6284;1.4111;
1237.5000;0.6292;1.4159;
1237.8000;0.6365;1.4353;
1238.1000;0.6300;1.4087;
1238.4000;0.6300;1.4038;
1238.7000;0.6292;1.4038;
1239.0000;0.6309;1.4111;
1239.3000;0.6284;1.4087;
1239.6000;0.6309;1.4062;
1239.9000;0.6284;1.3941;
1240.2000;0.6317;1.4014;
1240.5000;0.6292;1.4014;
1240.8000;0.6325;1.4184;
1241.1000;0.6325;1.4184;
1241.4000;0.6325;1.4159;
1241.7000;0.6309;1.4111;
1242.0000;0.6300;1.4062;
1242.3000;0.6292;1.4014;
1242.6000;0.6333;1.4087;
1242.9000;0.6300;1.4111;
1243.2000;0.6260;1.4087;
1243.5000;0.6292;1.4038;
1243.8000;0.6292;1.3917;
1244.1000;0.6325;1.4014;
1244.4000;0.6292;1.3990;
1244.7000;0.6292;1.3965;
1245.0000;0.6284;1.3941;
1245.3000;0.6284;1.4014;
1245.6000;0.6284;1.3965;
1245.9000;0.6309;1.3941;
1246.2000;0.6300;1.3990;
1246.5000;0.6292;1.4038;
1246.8000;0.6243;1.3990;
1247.1000;0.6300;1.4038;
1247.4000;0.6292;1.3965;
1247.7000;0.6309;1.3965;
1248.0000;0.6309;1.3990;
1248.3000;0.6284;1.3990;
1248.6000;0.6300;1.3990;
1248.9000;0.6300;1.3965;
1249.2000;0.6284;1.3941;
1249.5000;0.6317;1.3965;
1249.8000;0.6317;1.3990;
1250.1000;0.6284;1.3990;
1250.4000;0.6317;1.4111;
1250.7000;0.6349;1.4378;
1251.0000;0.6309;1.4232;
1251.3000;0.6317;1.4256;
1251.6000;0.6349;1.4305;
1251.9000;0.6292;1.4159;
1252.2000;0.6309;1.4232;
1252.5000;0.6292;1.4135;
1252.8000;0.6276;1.4111;
1253.1000;0.6284;1.4159;
1253.4000;0.6284;1.4062;
1253.7000;0.6284;1.4111;
1254.0000;0.6284;1.4062;
1254.3000;0.6349;1.4184;
1254.6000;0.6292;1.3990;
1254.9000;0.6317;1.4062;
1255.2000;0.6317;1.4062;
1255.5000;0.6325;1.3990;
1255.8000;0.6300;1.4014;
1256.1000;0.6309;1.4038;
1256.4000;0.6365;1.4135;
1256.7000;0.6309;1.4014;
1257.0000;0.6243;1.3868;
1257.3000;0.6252;1.3893;
1257.6000;0.6292;1.3965;
1257.9000;0.6292;1.3965;
1258.2000;0.6284;1.3917;
1258.5000;0.6292;1.3917;
1258.8000;0.6292;1.3844;
1259.1000;0.6292;1.3820;
1259.4000;0.6317;1.3893;
1259.7000;0.6276;1.3820;
1260.0000;0.6292;1.3917;
1260.3000;0.6333;1.4014;
1260.6000;0.6284;1.3893;
1260.9000;0.6235;1.3771;
1261.2000;0.6309;1.3990;
1261.5000;0.6309;1.4014;
1261.8000;0.6333;1.4111;
1262.1000;0.6333;1.4038;
1262.4000;0.6300;1.3917;
1262.7000;0.6317;1.3893;
1263.0000;0.6300;1.3771;
1263.3000;0.6300;1.3820;
1263.6000;0.6317;1.3868;
1263.9000;0.6309;1.3917;
1264.2000;0.6309;1.3844;
1264.5000;0.6317;1.3868;
1264.8000;0.6292;1.3820;
1265.1000;0.6260;1.3747;
1265.4000;0.6292;1.3771;
1265.7000;0.6317;1.3820;
1266.0000;0.6284;1.3747;
1266.3000;0.6292;1.3820;
1266.6000;0.6317;1.3820;
1266.9000;0.6349;1.3917;
1267.2000;0.6292;1.3820;
1267.5000;0.6284;1.3796;
1267.8000;0.6284;1.3699;
1268.1000;0.6292;1.3699;
1268.4000;0.6268;1.3747;
1268.7000;0.6284;1.3771;
1269.0000;0.6284;1.3796;
1269.3000;0.6292;1.3893;
1269.6000;0.6292;1.3844;
1269.9000;0.6292;1.3844;
1270.2000;0.6317;1.3965;
1270.5000;0.6300;1.3868;
1270.8000;0.6300;1.3941;
1271.1000;0.6309;1.3917;
1271.4000;0.6309;1.3893;
1271.7000;0.6300;1.3917;
1272.0000;0.6309;1.3868;
1272.3000;0.6292;1.3844;
1272.6000;0.6284;1.3820;
1272.9000;0.6300;1.3893;
1273.2000;0.6309;1.3917;
1273.5000;0.6317;1.3917;
1273.8000;0.6309;1.3917;
1274.1000;0.6317;1.3868;
1274.4000;0.6317;1.4014;
1274.7000;0.6309;1.4062;
1275.0000;0.6349;1.4232;
1275.3000;0.6309;1.4208;
1275.6000;0.6309;1.4159;
1275.9000;0.6276;1.4184;
1276.2000;0.6292;1.4256;
1276.5000;0.6300;1.4305;
1276.8000;0.6300;1.4232;
1277.1000;0.6284;1.4184;
1277.4000;0.6309;1.4256;
1277.7000;0.6284;1.4159;
1278.0000;0.6325;1.4208;
1278.3000;0.6325;1.4208;
1278.6000;0.6333;1.4159;
1278.9000;0.6317;1.4111;
1279.2000;0.6276;1.3990;
1279.5000;0.6284;1.4062;
1279.8000;0.6268;1.4038;
1280.1000;0.6268;1.4062;
1280.4000;0.6333;1.4159;
1280.7000;0.6309;1.4062;
1281.0000;0.6284;1.4014;
1281.3000;0.6292;1.3965;
1281.6000;0.6284;1.3844;
1281.9000;0.6309;1.3941;
1282.2000;0.6309;1.3965;
1282.5000;0.6300;1.3965;
1282.8000;0.6300;1.3990;
1283.1000;0.6309;1.3965;
1283.4000;0.6317;1.4038;
1283.7000;0.6219;1.3893;
1284.0000;0.6292;1.3990;
1284.3000;0.6300;1.3917;
1284.6000;0.6284;1.3868;
1284.9000;0.6292;1.3941;
1285.2000;0.6292;1.3965;
1285.5000;0.6300;1.3990;
1285.8000;0.6309;1.3941;
1286.1000;0.6317;1.3990;
1286.4000;0.6309;1.4111;
1286.7000;0.6300;1.4159;
1287.0000;0.6317;1.4135;
1287.3000;0.6309;1.4062;
1287.6000;0.6292;1.4014;
1287.9000;0.6284;1.3941;
1288.2000;0.6284;1.3917;
1288.5000;0.6292;1.3893;
1288.8000;0.6309;1.3941;
1289.1000;0.6252;1.3820;
1289.4000;0.6268;1.3893;
1289.7000;0.6284;1.3990;
1290.0000;0.6284;1.4014;
1290.3000;0.6325;1.4062;
1290.6000;0.6300;1.4062;
1290.9000;0.6292;1.4014;
1291.2000;0.6284;1.4014;
1291.5000;0.6317;1.4014;
1291.8000;0.6333;1.4111;
1292.1000;0.6292;1.3941;
1292.4000;0.6325;1.4111;
1292.7000;0.6309;1.4208;
1293.0000;0.6292;1.4135;
1293.3000;0.6292;1.4111;
1293.6000;0.6292;1.4135;
1293.9000;0.6292;1.4159;
1294.2000;0.6317;1.4184;
1294.5000;0.6284;1.4062;
1294.8000;0.6292;1.4038;
1295.1000;0.6292;1.4087;
1295.4000;0.6292;1.4062;
1295.7000;0.6276;1.4062;
1296.0000;0.6309;1.4062;
1296.3000;0.6300;1.4038;
1296.6000;0.6317;1.4111;
1296.9000;0.6292;1.4062;
1297.2000;0.6333;1.4111;
1297.5000;0.6317;1.4062;
1297.8000;0.6300;1.4062;
1298.1000;0.6333;1.4062;
1298.4000;0.6317;1.3941;
1298.7000;0.6382;1.4184;
1299.0000;0.6300;1.4038;
1299.3000;0.6374;1.4208;
1299.6000;0.6300;1.3965;
1299.9000;0.6309;1.3917;
1300.2000;0.6292;1.3868;
1300.5000;0.6284;1.3844;
1300.8000;0.6300;1.3917;
1301.1000;0.6300;1.4014;
1301.4000;0.6284;1.4062;
1301.7000;0.6292;1.4038;
1302.0000;0.6292;1.4062;
1302.3000;0.6309;1.4087;
1302.6000;0.6325;1.4208;
1302.9000;0.6309;1.4208;
1303.2000;0.6325;1.4256;
1303.5000;0.6309;1.4305;
1303.8000;0.6309;1.4329;
1304.1000;0.6300;1.4353;
1304.4000;0.6333;1.4450;
1304.7000;0.6268;1.4256;
1305.0000;0.6309;1.4281;
1305.3000;0.6284;1.4208;
1305.6000;0.6276;1.4135;
1305.9000;0.6284;1.4184;
1306.2000;0.6300;1.4208;
1306.5000;0.6325;1.4353;
1306.8000;0.6325;1.4378;
1307.1000;0.6276;1.4281;
1307.4000;0.6309;1.4256;
1307.7000;0.6325;1.4232;
1308.0000;0.6309;1.4256;
1308.3000;0.6292;1.4208;
1308.6000;0.6292;1.4232;
1308.9000;0.6300;1.4135;
1309.2000;0.6300;1.4014;
1309.5000;0.6276;1.4014;
1309.8000;0.6284;1.4014;
1310.1000;0.6284;1.4014;
1310.4000;0.6284;1.3990;
1310.7000;0.6276;1.3893;
1311.0000;0.6284;1.4038;
1311.3000;0.6284;1.4014;
1311.6000;0.6300;1.3965;
1311.9000;0.6284;1.3965;
1312.2000;0.6284;1.3965;
1312.5000;0.6300;1.3844;
1312.8000;0.6300;1.3941;
1313.1000;0.6211;1.3723;
1313.4000;0.6284;1.3796;
1313.7000;0.6309;1.3868;
1314.0000;0.6292;1.3868;
1314.3000;0.6300;1.3868;
1314.6000;0.6268;1.3820;
1314.9000;0.6276;1.3796;
1315.2000;0.6284;1.3844;
1315.5000;0.6252;1.3771;
1315.8000;0.6365;1.4111;
1316.1000;0.6276;1.3965;
1316.4000;0.6276;1.4038;
1316.7000;0.6317;1.4062;
1317.0000;0.6300;1.4062;
1317.3000;0.6292;1.4038;
1317.6000;0.6284;1.4014;
1317.9000;0.6292;1.4087;
1318.2000;0.6276;1.4014;
1318.5000;0.6284;1.3941;
1318.8000;0.6284;1.3941;
1319.1000;0.6284;1.3941;
1319.4000;0.6292;1.4038;
1319.7000;0.6284;1.4014;
1320.0000;0.6284;1.4014;
1320.3000;0.6309;1.4111;
1320.6000;0.6292;1.4038;
1320.9000;0.6252;1.3941;
1321.2000;0.6276;1.4135;
1321.5000;0.6300;1.4135;
1321.8000;0.6300;1.4232;
1322.1000;0.6276;1.4159;
1322.4000;0.6276;1.4087;
1322.7000;0.6292;1.4135;
1323.0000;0.6341;1.4281;
1323.3000;0.6292;1.4062;
1323.6000;0.6276;1.4038;
1323.9000;0.6333;1.4087;
1324.2000;0.6292;1.4014;
1324.5000;0.6276;1.4014;
1324.8000;0.6292;1.4038;
1325.1000;0.6276;1.4014;
1325.4000;0.6309;1.4087;
1325.7000;0.6300;1.4087;
1326.0000;0.6284;1.4159;
1326.3000;0.6317;1.4256;
1326.6000;0.6284;1.4184;
1326.9000;0.6276;1.4184;
1327.2000;0.6243;1.4087;
1327.5000;0.6227;1.4014;
1327.8000;0.6284;1.4062;
1328.1000;0.6292;1.4087;
1328.4000;0.6260;1.3941;
1328.7000;0.6284;1.4014;
1329.0000;0.6292;1.4038;
1329.3000;0.6300;1.4062;
1329.6000;0.6341;1.4135;
1329.9000;0.6292;1.4014;
1330.2000;0.6292;1.4014;
1330.5000;0.6300;1.4038;
1330.8000;0.6292;1.3965;
1331.1000;0.6276;1.3965;
1331.4000;0.6292;1.4087;
1331.7000;0.6284;1.4159;
1332.0000;0.6284;1.4135;
1332.3000;0.6300;1.4232;
1332.6000;0.6309;1.4256;
1332.9000;0.6284;1.4087;
1333.2000;0.6292;1.4135;
1333.5000;0.6309;1.4208;
1333.8000;0.6292;1.4135;
1334.1000;0.6284;1.4159;
1334.4000;0.6292;1.4159;
1334.7000;0.6276;1.4159;
1335.0000;0.6276;1.4208;
1335.3000;0.6227;1.4038;
1335.6000;0.6284;1.4208;
1335.9000;0.6276;1.4208;
1336.2000;0.6276;1.4159;
1336.5000;0.6235;1.4062;
1336.8000;0.6300;1.4184;
1337.1000;0.6284;1.4062;
1337.4000;0.6268;1.3990;
1337.7000;0.6292;1.3990;
1338.0000;0.6300;1.4087;
1338.3000;0.6284;1.4135;
1338.6000;0.6284;1.4111;
1338.9000;0.6292;1.4184;
1339.2000;0.6276;1.4087;
1339.5000;0.6309;1.4062;
1339.8000;0.6292;1.4038;
1340.1000;0.6276;1.4038;
1340.4000;0.6284;1.4062;
1340.7000;0.6284;1.4014;
1341.0000;0.6292;1.4062;
1341.3000;0.6292;1.4038;
1341.6000;0.6268;1.4062;
1341.9000;0.6284;1.4111;
1342.2000;0.6300;1.4111;
1342.5000;0.6284;1.4014;
1342.8000;0.6300;1.4014;
1343.1000;0.6284;1.4062;
1343.4000;0.6317;1.4184;
1343.7000;0.6292;1.4256;
1344.0000;0.6317;1.4329;
1344.3000;0.6309;1.4232;
1344.6000;0.6309;1.4256;
1344.9000;0.6382;1.4450;
1345.2000;0.6284;1.4232;
1345.5000;0.6292;1.4184;
1345.8000;0.6309;1.4208;
1346.1000;0.6276;1.4135;
1346.4000;0.6300;1.4014;
1346.7000;0.6276;1.3965;
1347.0000;0.6268;1.4062;
1347.3000;0.6300;1.4184;
1347.6000;0.6276;1.4038;
1347.9000;0.6341;1.4062;
1348.2000;0.6309;1.3941;
1348.5000;0.6284;1.3868;
1348.8000;0.6317;1.3941;
1349.1000;0.6268;1.3868;
1349.4000;0.6292;1.4014;
1349.7000;0.6309;1.3990;
1350.0000;0.6300;1.3844;
1350.3000;0.6309;1.3868;
1350.6000;0.6276;1.3893;
1350.9000;0.6292;1.3917;
1351.2000;0.6300;1.3941;
1351.5000;0.6276;1.3868;
1351.8000;0.6268;1.3868;
1352.1000;0.6300;1.3917;
1352.4000;0.6300;1.3965;
1352.7000;0.6276;1.3844;
1353.0000;0.6292;1.3868;
1353.3000;0.6284;1.3868;
1353.6000;0.6317;1.3917;
1353.9000;0.6276;1.3844;
1354.2000;0.6235;1.3699;
1354.5000;0.6325;1.4014;
1354.8000;0.6292;1.3917;
1355.1000;0.6268;1.3917;
1355.4000;0.6309;1.4038;
1355.7000;0.6284;1.3990;
1356.0000;0.6268;1.4014;
1356.3000;0.6260;1.3965;
1356.6000;0.6300;1.4038;
1356.9000;0.6276;1.3990;
1357.2000;0.6292;1.3990;
1357.5000;0.6284;1.4038;
1357.8000;0.6300;1.4087;
1358.1000;0.6284;1.4038;
1358.4000;0.6292;1.4111;
1358.7000;0.6300;1.4111;
1359.0000;0.6268;1.4038;
1359.3000;0.6260;1.3965;
1359.6000;0.6268;1.4038;
1359.9000;0.6276;1.4135;
1360.2000;0.6276;1.4208;
1360.5000;0.6276;1.4111;
1360.8000;0.6260;1.4038;
1361.1000;0.6276;1.4038;
1361.4000;0.6284;1.4038;
1361.7000;0.6260;1.3965;
1362.0000;0.6276;1.4014;
1362.3000;0.6276;1.4062;
1362.6000;0.6276;1.4087;
1362.9000;0.6284;1.4135;
1363.2000;0.6284;1.4062;
1363.5000;0.6292;1.4135;
1363.8000;0.6292;1.4135;
1364.1000;0.6284;1.4087;
1364.4000;0.6284;1.4038;
1364.7000;0.6284;1.4062;
1365.0000;0.6284;1.4087;
1365.3000;0.6300;1.4159;
1365.6000;0.6276;1.4159;
1365.9000;0.6284;1.4135;
1366.2000;0.6260;1.4111;
1366.5000;0.6276;1.4038;
1366.8000;0.6276;1.3965;
1367.1000;0.6276;1.3917;
1367.4000;0.6292;1.3941;
1367.7000;0.6284;1.3868;
1368.0000;0.6276;1.3868;
1368.3000;0.6268;1.3820;
1368.6000;0.6284;1.3796;
1368.9000;0.6292;1.3771;
1369.2000;0.6300;1.3893;
1369.5000;0.6284;1.3868;
1369.8000;0.6284;1.3893;
1370.1000;0.6341;1.4038;
1370.4000;0.6276;1.3868;
1370.7000;0.6284;1.3868;
1371.0000;0.6276;1.3844;
1371.3000;0.6317;1.3965;
1371.6000;0.6276;1.3965;
1371.9000;0.6276;1.3990;
1372.2000;0.6309;1.4038;
1372.5000;0.6317;1.3990;
1372.8000;0.6284;1.3941;
1373.1000;0.6292;1.3893;
1373.4000;0.6284;1.3941;
1373.7000;0.6284;1.3917;
1374.0000;0.6292;1.3965;
1374.3000;0.6292;1.4087;
1374.6000;0.6276;1.4087;
1374.9000;0.6268;1.4062;
1375.2000;0.6211;1.3820;
1375.5000;0.6292;1.4038;
1375.8000;0.6284;1.3965;
1376.1000;0.6284;1.4014;
1376.4000;0.6333;1.4159;
1376.7000;0.6284;1.4038;
1377.0000;0.6276;1.4014;
1377.3000;0.6276;1.3990;
1377.6000;0.6284;1.4014;
1377.9000;0.6276;1.4038;
1378.2000;0.6357;1.4184;
1378.5000;0.6284;1.3965;
1378.8000;0.6300;1.3965;
1379.1000;0.6300;1.3965;
1379.4000;0.6300;1.4038;
1379.7000;0.6268;1.4062;
1380.0000;0.6276;1.3990;
1380.3000;0.6268;1.4014;
1380.6000;0.6276;1.4135;
1380.9000;0.6276;1.4111;
1381.2000;0.6325;1.4256;
1381.5000;0.6276;1.4208;
1381.8000;0.6284;1.4087;
1382.1000;0.6276;1.4014;
1382.4000;0.6284;1.4038;
1382.7000;0.6276;1.3990;
1383.0000;0.6252;1.3990;
1383.3000;0.6252;1.3965;
1383.6000;0.6268;1.4062;
1383.9000;0.6300;1.4111;
1384.2000;0.6325;1.4184;
1384.5000;0.6276;1.4038;
1384.8000;0.6268;1.3990;
1385.1000;0.6284;1.4062;
1385.4000;0.6268;1.4087;
1385.7000;0.6276;1.4135;
1386.0000;0.6260;1.4135;
1386.3000;0.6260;1.4087;
1386.6000;0.6276;1.4184;
1386.9000;0.6276;1.4184;
1387.2000;0.6276;1.4111;
1387.5000;0.6276;1.4111;
1387.8000;0.6284;1.4159;
1388.1000;0.6276;1.4135;
1388.4000;0.6292;1.4111;
1388.7000;0.6268;1.4014;
1389.0000;0.6284;1.4111;
1389.3000;0.6309;1.4208;
1389.6000;0.6276;1.4087;
1389.9000;0.6276;1.4062;
1390.2000;0.6260;1.3965;
1390.5000;0.6284;1.4062;
1390.8000;0.6309;1.4184;
1391.1000;0.6276;1.4014;
1391.4000;0.6292;1.4111;
1391.7000;0.6349;1.4256;
1392.0000;0.6317;1.4111;
1392.3000;0.6276;1.4087;
1392.6000;0.6300;1.4111;
1392.9000;0.6260;1.4014;
1393.2000;0.6317;1.4111;
1393.5000;0.6268;1.4062;
1393.8000;0.6276;1.4062;
1394.1000;0.6252;1.3990;
1394.4000;0.6276;1.4062;
1394.7000;0.6276;1.4062;
1395.0000;0.6284;1.3990;
1395.3000;0.6252;1.3893;
1395.6000;0.6178;1.3796;
1395.9000;0.6300;1.4184;
1396.2000;0.6309;1.4208;
1396.5000;0.6300;1.4159;
1396.8000;0.6309;1.4281;
1397.1000;0.6292;1.4256;
1397.4000;0.6292;1.4281;
1397.7000;0.6268;1.4184;
1398.0000;0.6276;1.4208;
1398.3000;0.6276;1.4208;
1398.6000;0.6309;1.4256;
1398.9000;0.6268;1.4135;
1399.2000;0.6284;1.4135;
1399.5000;0.6292;1.4087;
1399.8000;0.6284;1.4038;
