time/ms;Fluo/V;P700 deltaI/I x10³;
-199.8000;1.1331;1.3456;
-199.5000;1.1355;1.3578;
-199.2000;1.1347;1.3529;
-198.9000;1.1347;1.3505;
-198.6000;1.1347;1.3408;
-198.3000;1.1363;1.3529;
-198.0000;1.1372;1.3505;
-197.7000;1.1339;1.3481;
-197.4000;1.1339;1.3432;
-197.1000;1.1331;1.3384;
-196.8000;1.1339;1.3384;
-196.5000;1.1347;1.3456;
-196.2000;1.1347;1.3481;
-195.9000;1.1339;1.3456;
-195.6000;1.1347;1.3481;
-195.3000;1.1363;1.3456;
-195.0000;1.1347;1.3359;
-194.7000;1.1347;1.3311;
-194.4000;1.1363;1.3408;
-194.1000;1.1355;1.3384;
-193.8000;1.1355;1.3481;
-193.5000;1.1363;1.3529;
-193.2000;1.1339;1.3505;
-192.9000;1.1355;1.3602;
-192.6000;1.1339;1.3578;
-192.3000;1.1339;1.3529;
-192.0000;1.1355;1.3553;
-191.7000;1.1339;1.3505;
-191.4000;1.1347;1.3408;
-191.1000;1.1339;1.3262;
-190.8000;1.1339;1.3359;
-190.5000;1.1331;1.3311;
-190.2000;1.1355;1.3311;
-189.9000;1.1363;1.3335;
-189.6000;1.1331;1.3384;
-189.3000;1.1355;1.3408;
-189.0000;1.1339;1.3384;
-188.7000;1.1339;1.3408;
-188.4000;1.1339;1.3384;
-188.1000;1.1355;1.3432;
-187.8000;1.1363;1.3481;
-187.5000;1.1347;1.3408;
-187.2000;1.1339;1.3408;
-186.9000;1.1347;1.3408;
-186.6000;1.1323;1.3335;
-186.3000;1.1331;1.3262;
-186.0000;1.1339;1.3359;
-185.7000;1.1331;1.3384;
-185.4000;1.1339;1.3432;
-185.1000;1.1347;1.3408;
-184.8000;1.1339;1.3432;
-184.5000;1.1347;1.3529;
-184.2000;1.1347;1.3553;
-183.9000;1.1355;1.3578;
-183.6000;1.1339;1.3456;
-183.3000;1.1347;1.3456;
-183.0000;1.1347;1.3481;
-182.7000;1.1363;1.3553;
-182.4000;1.1355;1.3481;
-182.1000;1.1355;1.3553;
-181.8000;1.1347;1.3602;
-181.5000;1.1347;1.3602;
-181.2000;1.1355;1.3578;
-180.9000;1.1339;1.3456;
-180.6000;1.1339;1.3432;
-180.3000;1.1347;1.3553;
-180.0000;1.1339;1.3578;
-179.7000;1.1339;1.3456;
-179.4000;1.1355;1.3456;
-179.1000;1.1339;1.3432;
-178.8000;1.1355;1.3384;
-178.5000;1.1339;1.3384;
-178.2000;1.1339;1.3384;
-177.9000;1.1339;1.3359;
-177.6000;1.1355;1.3384;
-177.3000;1.1331;1.3311;
-177.0000;1.1396;1.3408;
-176.7000;1.1339;1.3262;
-176.4000;1.1355;1.3311;
-176.1000;1.1339;1.3311;
-175.8000;1.1331;1.3335;
-175.5000;1.1347;1.3359;
-175.2000;1.1339;1.3384;
-174.9000;1.1347;1.3408;
-174.6000;1.1331;1.3335;
-174.3000;1.1339;1.3359;
-174.0000;1.1355;1.3335;
-173.7000;1.1355;1.3359;
-173.4000;1.1347;1.3359;
-173.1000;1.1355;1.3432;
-172.8000;1.1363;1.3384;
-172.5000;1.1347;1.3456;
-172.2000;1.1355;1.3529;
-171.9000;1.1331;1.3553;
-171.6000;1.1339;1.3529;
-171.3000;1.1347;1.3553;
-171.0000;1.1347;1.3481;
-170.7000;1.1331;1.3456;
-170.4000;1.1331;1.3481;
-170.1000;1.1347;1.3553;
-169.8000;1.1347;1.3650;
-169.5000;1.1339;1.3578;
-169.2000;1.1339;1.3602;
-168.9000;1.1347;1.3505;
-168.6000;1.1347;1.3456;
-168.3000;1.1347;1.3529;
-168.0000;1.1339;1.3481;
-167.7000;1.1347;1.3384;
-167.4000;1.1355;1.3481;
-167.1000;1.1339;1.3384;
-166.8000;1.1282;1.3238;
-166.5000;1.1347;1.3456;
-166.2000;1.1355;1.3408;
-165.9000;1.1355;1.3408;
-165.6000;1.1347;1.3505;
-165.3000;1.1323;1.3384;
-165.0000;1.1339;1.3456;
-164.7000;1.1339;1.3384;
-164.4000;1.1347;1.3384;
-164.1000;1.1339;1.3408;
-163.8000;1.1355;1.3481;
-163.5000;1.1363;1.3505;
-163.2000;1.1355;1.3481;
-162.9000;1.1339;1.3481;
-162.6000;1.1347;1.3481;
-162.3000;1.1355;1.3456;
-162.0000;1.1347;1.3456;
-161.7000;1.1347;1.3432;
-161.4000;1.1355;1.3359;
-161.1000;1.1355;1.3311;
-160.8000;1.1347;1.3311;
-160.5000;1.1355;1.3262;
-160.2000;1.1315;1.3214;
-159.9000;1.1347;1.3287;
-159.6000;1.1372;1.3384;
-159.3000;1.1355;1.3432;
-159.0000;1.1339;1.3384;
-158.7000;1.1347;1.3384;
-158.4000;1.1347;1.3384;
-158.1000;1.1347;1.3335;
-157.8000;1.1339;1.3384;
-157.5000;1.1347;1.3384;
-157.2000;1.1355;1.3408;
-156.9000;1.1355;1.3432;
-156.6000;1.1339;1.3359;
-156.3000;1.1347;1.3432;
-156.0000;1.1363;1.3408;
-155.7000;1.1347;1.3311;
-155.4000;1.1355;1.3262;
-155.1000;1.1347;1.3238;
-154.8000;1.1347;1.3287;
-154.5000;1.1380;1.3432;
-154.2000;1.1355;1.3287;
-153.9000;1.1339;1.3238;
-153.6000;1.1347;1.3262;
-153.3000;1.1347;1.3335;
-153.0000;1.1380;1.3384;
-152.7000;1.1347;1.3359;
-152.4000;1.1363;1.3335;
-152.1000;1.1363;1.3359;
-151.8000;1.1355;1.3359;
-151.5000;1.1347;1.3311;
-151.2000;1.1355;1.3311;
-150.9000;1.1363;1.3384;
-150.6000;1.1355;1.3408;
-150.3000;1.1323;1.3335;
-150.0000;1.1315;1.3335;
-149.7000;1.1339;1.3311;
-149.4000;1.1347;1.3456;
-149.1000;1.1347;1.3602;
-148.8000;1.1331;1.3602;
-148.5000;1.1347;1.3602;
-148.2000;1.1347;1.3529;
-147.9000;1.1339;1.3456;
-147.6000;1.1339;1.3481;
-147.3000;1.1339;1.3553;
-147.0000;1.1355;1.3553;
-146.7000;1.1372;1.3529;
-146.4000;1.1355;1.3529;
-146.1000;1.1363;1.3505;
-145.8000;1.1355;1.3553;
-145.5000;1.1355;1.3505;
-145.2000;1.1355;1.3456;
-144.9000;1.1347;1.3384;
-144.6000;1.1315;1.3359;
-144.3000;1.1339;1.3384;
-144.0000;1.1339;1.3432;
-143.7000;1.1347;1.3505;
-143.4000;1.1355;1.3578;
-143.1000;1.1347;1.3578;
-142.8000;1.1363;1.3602;
-142.5000;1.1339;1.3553;
-142.2000;1.1355;1.3578;
-141.9000;1.1347;1.3529;
-141.6000;1.1355;1.3553;
-141.3000;1.1347;1.3626;
-141.0000;1.1396;1.3699;
-140.7000;1.1363;1.3602;
-140.4000;1.1339;1.3553;
-140.1000;1.1339;1.3529;
-139.8000;1.1339;1.3432;
-139.5000;1.1347;1.3481;
-139.2000;1.1339;1.3481;
-138.9000;1.1388;1.3650;
-138.6000;1.1347;1.3602;
-138.3000;1.1355;1.3602;
-138.0000;1.1355;1.3626;
-137.7000;1.1347;1.3529;
-137.4000;1.1347;1.3529;
-137.1000;1.1315;1.3359;
-136.8000;1.1355;1.3384;
-136.5000;1.1355;1.3384;
-136.2000;1.1347;1.3335;
-135.9000;1.1339;1.3359;
-135.6000;1.1347;1.3384;
-135.3000;1.1363;1.3384;
-135.0000;1.1331;1.3359;
-134.7000;1.1347;1.3287;
-134.4000;1.1363;1.3311;
-134.1000;1.1298;1.3117;
-133.8000;1.1339;1.3359;
-133.5000;1.1339;1.3432;
-133.2000;1.1331;1.3408;
-132.9000;1.1355;1.3481;
-132.6000;1.1355;1.3456;
-132.3000;1.1331;1.3359;
-132.0000;1.1339;1.3432;
-131.7000;1.1355;1.3456;
-131.4000;1.1347;1.3481;
-131.1000;1.1347;1.3408;
-130.8000;1.1347;1.3456;
-130.5000;1.1339;1.3456;
-130.2000;1.1323;1.3456;
-129.9000;1.1363;1.3481;
-129.6000;1.1347;1.3456;
-129.3000;1.1315;1.3432;
-129.0000;1.1339;1.3505;
-128.7000;1.1347;1.3505;
-128.4000;1.1323;1.3481;
-128.1000;1.1347;1.3529;
-127.8000;1.1355;1.3456;
-127.5000;1.1347;1.3432;
-127.2000;1.1339;1.3359;
-126.9000;1.1347;1.3481;
-126.6000;1.1355;1.3626;
-126.3000;1.1339;1.3578;
-126.0000;1.1339;1.3456;
-125.7000;1.1347;1.3505;
-125.4000;1.1339;1.3481;
-125.1000;1.1331;1.3384;
-124.8000;1.1331;1.3384;
-124.5000;1.1306;1.3432;
-124.2000;1.1331;1.3432;
-123.9000;1.1339;1.3529;
-123.6000;1.1315;1.3408;
-123.3000;1.1372;1.3529;
-123.0000;1.1339;1.3408;
-122.7000;1.1339;1.3384;
-122.4000;1.1347;1.3384;
-122.1000;1.1347;1.3335;
-121.8000;1.1347;1.3359;
-121.5000;1.1372;1.3432;
-121.2000;1.1363;1.3505;
-120.9000;1.1339;1.3432;
-120.6000;1.1380;1.3553;
-120.3000;1.1363;1.3505;
-120.0000;1.1355;1.3481;
-119.7000;1.1347;1.3456;
-119.4000;1.1339;1.3432;
-119.1000;1.1347;1.3384;
-118.8000;1.1372;1.3408;
-118.5000;1.1339;1.3359;
-118.2000;1.1323;1.3432;
-117.9000;1.1347;1.3432;
-117.6000;1.1339;1.3384;
-117.3000;1.1347;1.3359;
-117.0000;1.1331;1.3287;
-116.7000;1.1331;1.3384;
-116.4000;1.1347;1.3505;
-116.1000;1.1355;1.3481;
-115.8000;1.1331;1.3432;
-115.5000;1.1355;1.3432;
-115.2000;1.1347;1.3456;
-114.9000;1.1404;1.3578;
-114.6000;1.1355;1.3408;
-114.3000;1.1347;1.3408;
-114.0000;1.1347;1.3335;
-113.7000;1.1372;1.3311;
-113.4000;1.1339;1.3311;
-113.1000;1.1355;1.3384;
-112.8000;1.1347;1.3335;
-112.5000;1.1347;1.3359;
-112.2000;1.1347;1.3432;
-111.9000;1.1347;1.3384;
-111.6000;1.1347;1.3335;
-111.3000;1.1315;1.3359;
-111.0000;1.1347;1.3311;
-110.7000;1.1331;1.3311;
-110.4000;1.1323;1.3384;
-110.1000;1.1396;1.3456;
-109.8000;1.1339;1.3408;
-109.5000;1.1331;1.3335;
-109.2000;1.1339;1.3287;
-108.9000;1.1347;1.3214;
-108.6000;1.1347;1.3190;
-108.3000;1.1331;1.3141;
-108.0000;1.1339;1.3044;
-107.7000;1.1347;1.3044;
-107.4000;1.1363;1.3044;
-107.1000;1.1274;1.2971;
-106.8000;1.1339;1.3165;
-106.5000;1.1323;1.3141;
-106.2000;1.1347;1.3117;
-105.9000;1.1339;1.3141;
-105.6000;1.1331;1.3020;
-105.3000;1.1306;1.2996;
-105.0000;1.1372;1.3238;
-104.7000;1.1339;1.3214;
-104.4000;1.1331;1.3141;
-104.1000;1.1323;1.3117;
-103.8000;1.1331;1.3117;
-103.5000;1.1355;1.3214;
-103.2000;1.1315;1.3238;
-102.9000;1.1347;1.3287;
-102.6000;1.1355;1.3311;
-102.3000;1.1339;1.3335;
-102.0000;1.1339;1.3311;
-101.7000;1.1339;1.3335;
-101.4000;1.1355;1.3311;
-101.1000;1.1355;1.3335;
-100.8000;1.1347;1.3384;
-100.5000;1.1363;1.3384;
-100.2000;1.1355;1.3335;
-99.9000;1.1388;1.3311;
-99.6000;1.1347;1.3238;
-99.3000;1.1339;1.3262;
-99.0000;1.1315;1.3214;
-98.7000;1.1339;1.3262;
-98.4000;1.1347;1.3190;
-98.1000;1.1355;1.3238;
-97.8000;1.1339;1.3165;
-97.5000;1.1347;1.3141;
-97.2000;1.1347;1.3238;
-96.9000;1.1363;1.3359;
-96.6000;1.1347;1.3384;
-96.3000;1.1347;1.3335;
-96.0000;1.1363;1.3432;
-95.7000;1.1355;1.3384;
-95.4000;1.1339;1.3359;
-95.1000;1.1363;1.3311;
-94.8000;1.1355;1.3238;
-94.5000;1.1298;1.3117;
-94.2000;1.1323;1.3238;
-93.9000;1.1315;1.3238;
-93.6000;1.1339;1.3335;
-93.3000;1.1331;1.3359;
-93.0000;1.1331;1.3287;
-92.7000;1.1331;1.3311;
-92.4000;1.1331;1.3335;
-92.1000;1.1331;1.3214;
-91.8000;1.1347;1.3214;
-91.5000;1.1347;1.3165;
-91.2000;1.1363;1.3141;
-90.9000;1.1363;1.3190;
-90.6000;1.1372;1.3262;
-90.3000;1.1372;1.3335;
-90.0000;1.1363;1.3311;
-89.7000;1.1355;1.3311;
-89.4000;1.1363;1.3335;
-89.1000;1.1347;1.3262;
-88.8000;1.1339;1.3238;
-88.5000;1.1347;1.3238;
-88.2000;1.1339;1.3141;
-87.9000;1.1347;1.3262;
-87.6000;1.1331;1.3262;
-87.3000;1.1331;1.3311;
-87.0000;1.1388;1.3384;
-86.7000;1.1347;1.3287;
-86.4000;1.1355;1.3335;
-86.1000;1.1339;1.3384;
-85.8000;1.1339;1.3335;
-85.5000;1.1388;1.3384;
-85.2000;1.1347;1.3262;
-84.9000;1.1347;1.3311;
-84.6000;1.1331;1.3262;
-84.3000;1.1339;1.3359;
-84.0000;1.1331;1.3287;
-83.7000;1.1331;1.3287;
-83.4000;1.1331;1.3359;
-83.1000;1.1363;1.3408;
-82.8000;1.1396;1.3408;
-82.5000;1.1339;1.3238;
-82.2000;1.1380;1.3311;
-81.9000;1.1355;1.3359;
-81.6000;1.1347;1.3214;
-81.3000;1.1331;1.3165;
-81.0000;1.1363;1.3165;
-80.7000;1.1339;1.3165;
-80.4000;1.1380;1.3335;
-80.1000;1.1339;1.3311;
-79.8000;1.1347;1.3359;
-79.5000;1.1347;1.3384;
-79.2000;1.1347;1.3359;
-78.9000;1.1363;1.3311;
-78.6000;1.1339;1.3408;
-78.3000;1.1323;1.3359;
-78.0000;1.1372;1.3408;
-77.7000;1.1331;1.3262;
-77.4000;1.1331;1.3238;
-77.1000;1.1331;1.3214;
-76.8000;1.1331;1.3165;
-76.5000;1.1339;1.3190;
-76.2000;1.1339;1.3238;
-75.9000;1.1323;1.3238;
-75.6000;1.1339;1.3214;
-75.3000;1.1339;1.3262;
-75.0000;1.1347;1.3238;
-74.7000;1.1331;1.3190;
-74.4000;1.1323;1.3262;
-74.1000;1.1339;1.3262;
-73.8000;1.1347;1.3238;
-73.5000;1.1331;1.3262;
-73.2000;1.1339;1.3335;
-72.9000;1.1339;1.3238;
-72.6000;1.1323;1.3287;
-72.3000;1.1331;1.3287;
-72.0000;1.1339;1.3384;
-71.7000;1.1363;1.3359;
-71.4000;1.1347;1.3190;
-71.1000;1.1347;1.3190;
-70.8000;1.1372;1.3190;
-70.5000;1.1347;1.3262;
-70.2000;1.1363;1.3456;
-69.9000;1.1355;1.3529;
-69.6000;1.1347;1.3505;
-69.3000;1.1363;1.3529;
-69.0000;1.1355;1.3481;
-68.7000;1.1355;1.3408;
-68.4000;1.1355;1.3481;
-68.1000;1.1331;1.3359;
-67.8000;1.1347;1.3335;
-67.5000;1.1347;1.3238;
-67.2000;1.1331;1.3141;
-66.9000;1.1331;1.3190;
-66.6000;1.1347;1.3262;
-66.3000;1.1315;1.3093;
-66.0000;1.1347;1.3190;
-65.7000;1.1331;1.3238;
-65.4000;1.1347;1.3287;
-65.1000;1.1323;1.3238;
-64.8000;1.1323;1.3238;
-64.5000;1.1347;1.3359;
-64.2000;1.1331;1.3335;
-63.9000;1.1347;1.3311;
-63.6000;1.1420;1.3432;
-63.3000;1.1339;1.3165;
-63.0000;1.1323;1.3068;
-62.7000;1.1339;1.3093;
-62.4000;1.1306;1.3020;
-62.1000;1.1323;1.2996;
-61.8000;1.1347;1.3020;
-61.5000;1.1323;1.2996;
-61.2000;1.1380;1.3068;
-60.9000;1.1347;1.3093;
-60.6000;1.1339;1.3141;
-60.3000;1.1355;1.3141;
-60.0000;1.1355;1.3141;
-59.7000;1.1347;1.3165;
-59.4000;1.1323;1.3141;
-59.1000;1.1355;1.3287;
-58.8000;1.1355;1.3359;
-58.5000;1.1339;1.3335;
-58.2000;1.1404;1.3408;
-57.9000;1.1347;1.3359;
-57.6000;1.1363;1.3335;
-57.3000;1.1372;1.3408;
-57.0000;1.1290;1.3190;
-56.7000;1.1347;1.3359;
-56.4000;1.1339;1.3262;
-56.1000;1.1306;1.3117;
-55.8000;1.1339;1.3165;
-55.5000;1.1339;1.3165;
-55.2000;1.1355;1.3238;
-54.9000;1.1355;1.3238;
-54.6000;1.1339;1.3214;
-54.3000;1.1388;1.3335;
-54.0000;1.1355;1.3287;
-53.7000;1.1339;1.3238;
-53.4000;1.1347;1.3190;
-53.1000;1.1347;1.3214;
-52.8000;1.1339;1.3093;
-52.5000;1.1347;1.3214;
-52.2000;1.1355;1.3238;
-51.9000;1.1347;1.3214;
-51.6000;1.1347;1.3117;
-51.3000;1.1347;1.3068;
-51.0000;1.1339;1.3044;
-50.7000;1.1347;1.3141;
-50.4000;1.1331;1.3117;
-50.1000;1.1339;1.3190;
-49.8000;1.1355;1.3238;
-49.5000;1.1339;1.3214;
-49.2000;1.1347;1.3117;
-48.9000;1.1347;1.3117;
-48.6000;1.1363;1.3262;
-48.3000;1.1347;1.3311;
-48.0000;1.1339;1.3287;
-47.7000;1.1355;1.3262;
-47.4000;1.1331;1.3287;
-47.1000;1.1347;1.3335;
-46.8000;1.1339;1.3359;
-46.5000;1.1347;1.3408;
-46.2000;1.1339;1.3408;
-45.9000;1.1306;1.3287;
-45.6000;1.1347;1.3359;
-45.3000;1.1339;1.3287;
-45.0000;1.1331;1.3238;
-44.7000;1.1355;1.3262;
-44.4000;1.1355;1.3262;
-44.1000;1.1315;1.3093;
-43.8000;1.1347;1.3165;
-43.5000;1.1339;1.3190;
-43.2000;1.1331;1.3238;
-42.9000;1.1339;1.3262;
-42.6000;1.1331;1.3262;
-42.3000;1.1339;1.3238;
-42.0000;1.1355;1.3238;
-41.7000;1.1331;1.3238;
-41.4000;1.1339;1.3311;
-41.1000;1.1347;1.3408;
-40.8000;1.1331;1.3456;
-40.5000;1.1347;1.3384;
-40.2000;1.1331;1.3335;
-39.9000;1.1347;1.3287;
-39.6000;1.1339;1.3238;
-39.3000;1.1306;1.3190;
-39.0000;1.1331;1.3335;
-38.7000;1.1339;1.3408;
-38.4000;1.1363;1.3505;
-38.1000;1.1323;1.3335;
-37.8000;1.1339;1.3311;
-37.5000;1.1347;1.3262;
-37.2000;1.1347;1.3190;
-36.9000;1.1339;1.3238;
-36.6000;1.1331;1.3214;
-36.3000;1.1347;1.3238;
-36.0000;1.1347;1.3311;
-35.7000;1.1339;1.3287;
-35.4000;1.1339;1.3262;
-35.1000;1.1347;1.3287;
-34.8000;1.1347;1.3262;
-34.5000;1.1355;1.3287;
-34.2000;1.1306;1.3117;
-33.9000;1.1331;1.3190;
-33.6000;1.1347;1.3262;
-33.3000;1.1323;1.3190;
-33.0000;1.1331;1.3238;
-32.7000;1.1339;1.3335;
-32.4000;1.1339;1.3359;
-32.1000;1.1331;1.3311;
-31.8000;1.1347;1.3335;
-31.5000;1.1339;1.3384;
-31.2000;1.1323;1.3384;
-30.9000;1.1347;1.3481;
-30.6000;1.1339;1.3456;
-30.3000;1.1331;1.3384;
-30.0000;1.1339;1.3335;
-29.7000;1.1331;1.3238;
-29.4000;1.1347;1.3335;
-29.1000;1.1363;1.3311;
-28.8000;1.1355;1.3359;
-28.5000;1.1355;1.3287;
-28.2000;1.1347;1.3262;
-27.9000;1.1339;1.3190;
-27.6000;1.1347;1.3214;
-27.3000;1.1339;1.3262;
-27.0000;1.1339;1.3311;
-26.7000;1.1347;1.3408;
-26.4000;1.1339;1.3384;
-26.1000;1.1347;1.3408;
-25.8000;1.1347;1.3456;
-25.5000;1.1355;1.3505;
-25.2000;1.1347;1.3456;
-24.9000;1.1363;1.3505;
-24.6000;1.1347;1.3505;
-24.3000;1.1380;1.3529;
-24.0000;1.1355;1.3481;
-23.7000;1.1363;1.3505;
-23.4000;1.1363;1.3602;
-23.1000;1.1347;1.3529;
-22.8000;1.1347;1.3578;
-22.5000;1.1380;1.3578;
-22.2000;1.1331;1.3432;
-21.9000;1.1339;1.3456;
-21.6000;1.1355;1.3456;
-21.3000;1.1355;1.3408;
-21.0000;1.1347;1.3481;
-20.7000;1.1347;1.3432;
-20.4000;1.1347;1.3408;
-20.1000;1.1347;1.3335;
-19.8000;1.1331;1.3384;
-19.5000;1.1323;1.3384;
-19.2000;1.1380;1.3602;
-18.9000;1.1355;1.3553;
-18.6000;1.1339;1.3529;
-18.3000;1.1372;1.3602;
-18.0000;1.1347;1.3481;
-17.7000;1.1339;1.3408;
-17.4000;1.1331;1.3408;
-17.1000;1.1339;1.3481;
-16.8000;1.1347;1.3456;
-16.5000;1.1339;1.3359;
-16.2000;1.1347;1.3408;
-15.9000;1.1355;1.3432;
-15.6000;1.1355;1.3432;
-15.3000;1.1347;1.3384;
-15.0000;1.1339;1.3456;
-14.7000;1.1355;1.3432;
-14.4000;1.1323;1.3335;
-14.1000;1.1355;1.3481;
-13.8000;1.1347;1.3408;
-13.5000;1.1331;1.3335;
-13.2000;1.1347;1.3335;
-12.9000;1.1372;1.3408;
-12.6000;1.1331;1.3456;
-12.3000;1.1339;1.3553;
-12.0000;1.1355;1.3505;
-11.7000;1.1347;1.3505;
-11.4000;1.1339;1.3505;
-11.1000;1.1339;1.3481;
-10.8000;1.1347;1.3456;
-10.5000;1.1347;1.3408;
-10.2000;1.1339;1.3359;
-9.9000;1.1363;1.3311;
-9.6000;1.1339;1.3238;
-9.3000;1.1331;1.3214;
-9.0000;1.1363;1.3238;
-8.7000;1.1339;1.3214;
-8.4000;1.1331;1.3238;
-8.1000;1.1355;1.3287;
-7.8000;1.1372;1.3359;
-7.5000;1.1339;1.3238;
-7.2000;1.1372;1.3384;
-6.9000;1.1331;1.3262;
-6.6000;1.1331;1.3287;
-6.3000;1.1339;1.3335;
-6.0000;1.1323;1.3311;
-5.7000;1.1323;1.3287;
-5.4000;1.1355;1.3311;
-5.1000;1.1339;1.3287;
-4.8000;1.1323;1.3214;
-4.5000;1.1323;1.3287;
-4.2000;1.1339;1.3262;
-3.9000;1.1347;1.3287;
-3.6000;1.1339;1.3238;
-3.3000;1.1339;1.3262;
-3.0000;1.1412;1.3456;
-2.7000;1.1461;1.3553;
-2.4000;1.1372;1.3432;
-2.1000;1.1339;1.3384;
-1.8000;1.1363;1.3529;
-1.5000;1.1306;1.3408;
-1.2000;1.1339;1.3529;
-0.9000;1.1323;1.3481;
-0.6000;1.1282;1.3384;
-0.3000;1.1209;1.3238;
0.0000;1.1209;1.3238;
0.3000;1.1526;1.3481;
0.6000;1.1893;1.3844;
0.9000;1.2177;1.4329;
1.2000;1.2414;1.4838;
1.5000;1.2601;1.5056;
1.8000;1.2747;1.5275;
2.1000;1.2886;1.5517;
2.4000;1.2967;1.5711;
2.7000;1.3048;1.5905;
3.0000;1.3105;1.5954;
3.3000;1.3195;1.6099;
3.6000;1.3244;1.6172;
3.9000;1.3325;1.6366;
4.2000;1.3341;1.6245;
4.5000;1.3374;1.6341;
4.8000;1.3431;1.6487;
5.1000;1.3480;1.6511;
5.4000;1.3496;1.6535;
5.7000;1.3529;1.6584;
6.0000;1.3586;1.6608;
6.3000;1.3553;1.6584;
6.6000;1.3635;1.6681;
6.9000;1.3618;1.6463;
7.2000;1.3643;1.6438;
7.5000;1.3732;1.6608;
7.8000;1.3732;1.6584;
8.1000;1.3700;1.6487;
8.4000;1.3765;1.6584;
8.7000;1.3789;1.6705;
9.0000;1.3732;1.6511;
9.3000;1.3830;1.6608;
9.6000;1.3854;1.6608;
9.9000;1.3871;1.6535;
10.2000;1.3871;1.6463;
10.5000;1.3911;1.6584;
10.8000;1.3944;1.6657;
11.1000;1.3952;1.6560;
11.4000;1.3985;1.6584;
11.7000;1.4017;1.6608;
12.0000;1.3993;1.6487;
12.3000;1.4050;1.6487;
12.6000;1.4033;1.6341;
12.9000;1.4050;1.6341;
13.2000;1.4066;1.6293;
13.5000;1.4058;1.6341;
13.8000;1.4107;1.6414;
14.1000;1.4155;1.6438;
14.4000;1.4107;1.6317;
14.7000;1.4107;1.6341;
15.0000;1.4139;1.6390;
15.3000;1.4139;1.6317;
15.6000;1.4155;1.6341;
15.9000;1.4172;1.6390;
16.2000;1.4180;1.6341;
16.5000;1.4188;1.6390;
16.8000;1.4212;1.6511;
17.1000;1.4180;1.6438;
17.4000;1.4204;1.6608;
17.7000;1.4229;1.6535;
18.0000;1.4196;1.6414;
18.3000;1.4221;1.6438;
18.6000;1.4229;1.6463;
18.9000;1.4229;1.6414;
19.2000;1.4245;1.6438;
19.5000;1.4245;1.6438;
19.8000;1.4245;1.6487;
20.1000;1.4261;1.6390;
20.4000;1.4269;1.6317;
20.7000;1.4269;1.6293;
21.0000;1.4294;1.6269;
21.3000;1.4278;1.6341;
21.6000;1.4310;1.6463;
21.9000;1.4286;1.6511;
22.2000;1.4302;1.6560;
22.5000;1.4318;1.6487;
22.8000;1.4318;1.6463;
23.1000;1.4294;1.6317;
23.4000;1.4310;1.6463;
23.7000;1.4326;1.6511;
24.0000;1.4318;1.6511;
24.3000;1.4343;1.6511;
24.6000;1.4269;1.6390;
24.9000;1.4335;1.6584;
25.2000;1.4351;1.6608;
25.5000;1.4359;1.6657;
25.8000;1.4367;1.6681;
26.1000;1.4351;1.6560;
26.4000;1.4359;1.6487;
26.7000;1.4375;1.6511;
27.0000;1.4375;1.6511;
27.3000;1.4400;1.6535;
27.6000;1.4375;1.6511;
27.9000;1.4416;1.6608;
28.2000;1.4392;1.6560;
28.5000;1.4400;1.6560;
28.8000;1.4375;1.6608;
29.1000;1.4400;1.6560;
29.4000;1.4392;1.6511;
29.7000;1.4392;1.6535;
30.0000;1.4424;1.6632;
30.3000;1.4351;1.6463;
30.6000;1.4400;1.6511;
30.9000;1.4400;1.6560;
31.2000;1.4383;1.6463;
31.5000;1.4383;1.6438;
31.8000;1.4383;1.6438;
32.1000;1.4375;1.6438;
32.4000;1.4383;1.6438;
32.7000;1.4440;1.6560;
33.0000;1.4400;1.6438;
33.3000;1.4408;1.6463;
33.6000;1.4392;1.6438;
33.9000;1.4424;1.6438;
34.2000;1.4416;1.6341;
34.5000;1.4400;1.6414;
34.8000;1.4449;1.6463;
35.1000;1.4408;1.6293;
35.4000;1.4424;1.6269;
35.7000;1.4481;1.6487;
36.0000;1.4449;1.6293;
36.3000;1.4432;1.6293;
36.6000;1.4440;1.6269;
36.9000;1.4449;1.6293;
37.2000;1.4440;1.6269;
37.5000;1.4432;1.6293;
37.8000;1.4392;1.6196;
38.1000;1.4416;1.6172;
38.4000;1.4440;1.6269;
38.7000;1.4514;1.6438;
39.0000;1.4481;1.6487;
39.3000;1.4457;1.6390;
39.6000;1.4465;1.6366;
39.9000;1.4449;1.6317;
40.2000;1.4449;1.6341;
40.5000;1.4449;1.6245;
40.8000;1.4449;1.6317;
41.1000;1.4440;1.6366;
41.4000;1.4449;1.6341;
41.7000;1.4449;1.6366;
42.0000;1.4465;1.6341;
42.3000;1.4383;1.6123;
42.6000;1.4457;1.6269;
42.9000;1.4473;1.6341;
43.2000;1.4514;1.6560;
43.5000;1.4457;1.6511;
43.8000;1.4473;1.6414;
44.1000;1.4457;1.6390;
44.4000;1.4449;1.6487;
44.7000;1.4481;1.6487;
45.0000;1.4457;1.6414;
45.3000;1.4465;1.6390;
45.6000;1.4457;1.6317;
45.9000;1.4473;1.6438;
46.2000;1.4465;1.6438;
46.5000;1.4457;1.6511;
46.8000;1.4481;1.6560;
47.1000;1.4473;1.6584;
47.4000;1.4416;1.6438;
47.7000;1.4457;1.6414;
48.0000;1.4457;1.6438;
48.3000;1.4465;1.6438;
48.6000;1.4489;1.6463;
48.9000;1.4473;1.6487;
49.2000;1.4473;1.6535;
49.5000;1.4465;1.6608;
49.8000;1.4481;1.6608;
50.1000;1.4465;1.6535;
50.4000;1.4465;1.6390;
50.7000;1.4489;1.6511;
51.0000;1.4473;1.6463;
51.3000;1.4465;1.6438;
51.6000;1.4457;1.6366;
51.9000;1.4473;1.6390;
52.2000;1.4489;1.6366;
52.5000;1.4465;1.6341;
52.8000;1.4473;1.6390;
53.1000;1.4465;1.6341;
53.4000;1.4481;1.6414;
53.7000;1.4497;1.6414;
54.0000;1.4481;1.6366;
54.3000;1.4473;1.6390;
54.6000;1.4497;1.6511;
54.9000;1.4473;1.6366;
55.2000;1.4481;1.6366;
55.5000;1.4497;1.6511;
55.8000;1.4465;1.6414;
56.1000;1.4514;1.6463;
56.4000;1.4489;1.6390;
56.7000;1.4489;1.6366;
57.0000;1.4562;1.6487;
57.3000;1.4497;1.6438;
57.6000;1.4489;1.6438;
57.9000;1.4481;1.6366;
58.2000;1.4473;1.6366;
58.5000;1.4497;1.6438;
58.8000;1.4497;1.6438;
59.1000;1.4481;1.6366;
59.4000;1.4489;1.6317;
59.7000;1.4514;1.6317;
60.0000;1.4497;1.6196;
60.3000;1.4473;1.6196;
60.6000;1.4473;1.6341;
60.9000;1.4489;1.6438;
61.2000;1.4481;1.6463;
61.5000;1.4489;1.6511;
61.8000;1.4481;1.6438;
62.1000;1.4489;1.6414;
62.4000;1.4522;1.6487;
62.7000;1.4546;1.6535;
63.0000;1.4481;1.6366;
63.3000;1.4481;1.6293;
63.6000;1.4497;1.6245;
63.9000;1.4505;1.6220;
64.2000;1.4505;1.6220;
64.5000;1.4497;1.6269;
64.8000;1.4481;1.6341;
65.1000;1.4473;1.6390;
65.4000;1.4497;1.6390;
65.7000;1.4481;1.6390;
66.0000;1.4505;1.6487;
66.3000;1.4505;1.6438;
66.6000;1.4473;1.6317;
66.9000;1.4489;1.6293;
67.2000;1.4481;1.6317;
67.5000;1.4481;1.6390;
67.8000;1.4481;1.6438;
68.1000;1.4481;1.6366;
68.4000;1.4473;1.6438;
68.7000;1.4481;1.6511;
69.0000;1.4481;1.6463;
69.3000;1.4497;1.6463;
69.6000;1.4554;1.6560;
69.9000;1.4497;1.6390;
70.2000;1.4497;1.6438;
70.5000;1.4554;1.6584;
70.8000;1.4481;1.6390;
71.1000;1.4481;1.6487;
71.4000;1.4505;1.6487;
71.7000;1.4481;1.6511;
72.0000;1.4497;1.6560;
72.3000;1.4473;1.6414;
72.6000;1.4489;1.6438;
72.9000;1.4497;1.6560;
73.2000;1.4481;1.6560;
73.5000;1.4489;1.6560;
73.8000;1.4497;1.6535;
74.1000;1.4514;1.6438;
74.4000;1.4505;1.6293;
74.7000;1.4465;1.6220;
75.0000;1.4497;1.6293;
75.3000;1.4497;1.6293;
75.6000;1.4481;1.6317;
75.9000;1.4473;1.6366;
76.2000;1.4457;1.6293;
76.5000;1.4489;1.6317;
76.8000;1.4481;1.6293;
77.1000;1.4481;1.6293;
77.4000;1.4489;1.6293;
77.7000;1.4497;1.6317;
78.0000;1.4505;1.6438;
78.3000;1.4489;1.6366;
78.6000;1.4481;1.6390;
78.9000;1.4514;1.6438;
79.2000;1.4505;1.6438;
79.5000;1.4505;1.6438;
79.8000;1.4489;1.6341;
80.1000;1.4522;1.6438;
80.4000;1.4505;1.6390;
80.7000;1.4505;1.6390;
81.0000;1.4497;1.6341;
81.3000;1.4489;1.6414;
81.6000;1.4489;1.6463;
81.9000;1.4497;1.6390;
82.2000;1.4473;1.6317;
82.5000;1.4481;1.6366;
82.8000;1.4481;1.6463;
83.1000;1.4489;1.6560;
83.4000;1.4489;1.6560;
83.7000;1.4481;1.6487;
84.0000;1.4465;1.6511;
84.3000;1.4505;1.6560;
84.6000;1.4489;1.6463;
84.9000;1.4489;1.6535;
85.2000;1.4514;1.6535;
85.5000;1.4514;1.6608;
85.8000;1.4514;1.6584;
86.1000;1.4538;1.6657;
86.4000;1.4522;1.6584;
86.7000;1.4489;1.6584;
87.0000;1.4432;1.6535;
87.3000;1.4481;1.6608;
87.6000;1.4465;1.6560;
87.9000;1.4489;1.6632;
88.2000;1.4497;1.6657;
88.5000;1.4497;1.6657;
88.8000;1.4497;1.6681;
89.1000;1.4505;1.6729;
89.4000;1.4481;1.6681;
89.7000;1.4514;1.6657;
90.0000;1.4481;1.6560;
90.3000;1.4505;1.6657;
90.6000;1.4481;1.6657;
90.9000;1.4481;1.6632;
91.2000;1.4489;1.6657;
91.5000;1.4473;1.6705;
91.8000;1.4489;1.6729;
92.1000;1.4481;1.6754;
92.4000;1.4481;1.6705;
92.7000;1.4481;1.6657;
93.0000;1.4489;1.6657;
93.3000;1.4505;1.6657;
93.6000;1.4481;1.6560;
93.9000;1.4497;1.6584;
94.2000;1.4481;1.6535;
94.5000;1.4497;1.6560;
94.8000;1.4505;1.6584;
95.1000;1.4481;1.6584;
95.4000;1.4465;1.6560;
95.7000;1.4505;1.6560;
96.0000;1.4497;1.6560;
96.3000;1.4514;1.6560;
96.6000;1.4489;1.6511;
96.9000;1.4489;1.6511;
97.2000;1.4481;1.6438;
97.5000;1.4505;1.6511;
97.8000;1.4489;1.6584;
98.1000;1.4497;1.6657;
98.4000;1.4505;1.6657;
98.7000;1.4489;1.6632;
99.0000;1.4522;1.6705;
99.3000;1.4514;1.6681;
99.6000;1.4505;1.6632;
99.9000;1.4489;1.6584;
100.2000;1.4497;1.6511;
100.5000;1.4522;1.6560;
100.8000;1.4530;1.6511;
101.1000;1.4497;1.6463;
101.4000;1.4505;1.6414;
101.7000;1.4481;1.6487;
102.0000;1.4497;1.6535;
102.3000;1.4505;1.6560;
102.6000;1.4481;1.6511;
102.9000;1.4481;1.6535;
103.2000;1.4497;1.6535;
103.5000;1.4481;1.6560;
103.8000;1.4489;1.6463;
104.1000;1.4562;1.6657;
104.4000;1.4489;1.6438;
104.7000;1.4554;1.6535;
105.0000;1.4505;1.6487;
105.3000;1.4489;1.6414;
105.6000;1.4546;1.6608;
105.9000;1.4554;1.6535;
106.2000;1.4481;1.6341;
106.5000;1.4489;1.6390;
106.8000;1.4481;1.6366;
107.1000;1.4481;1.6390;
107.4000;1.4489;1.6414;
107.7000;1.4489;1.6366;
108.0000;1.4473;1.6220;
108.3000;1.4473;1.6317;
108.6000;1.4497;1.6511;
108.9000;1.4473;1.6438;
109.2000;1.4497;1.6560;
109.5000;1.4497;1.6511;
109.8000;1.4505;1.6390;
110.1000;1.4473;1.6269;
110.4000;1.4497;1.6317;
110.7000;1.4497;1.6366;
111.0000;1.4530;1.6414;
111.3000;1.4514;1.6438;
111.6000;1.4505;1.6438;
111.9000;1.4497;1.6390;
112.2000;1.4497;1.6390;
112.5000;1.4505;1.6390;
112.8000;1.4505;1.6366;
113.1000;1.4432;1.6220;
113.4000;1.4489;1.6317;
113.7000;1.4489;1.6366;
114.0000;1.4416;1.6196;
114.3000;1.4481;1.6317;
114.6000;1.4497;1.6317;
114.9000;1.4546;1.6487;
115.2000;1.4538;1.6511;
115.5000;1.4497;1.6366;
115.8000;1.4522;1.6366;
116.1000;1.4497;1.6269;
116.4000;1.4481;1.6245;
116.7000;1.4497;1.6341;
117.0000;1.4489;1.6366;
117.3000;1.4481;1.6341;
117.6000;1.4489;1.6341;
117.9000;1.4481;1.6269;
118.2000;1.4481;1.6317;
118.5000;1.4489;1.6220;
118.8000;1.4481;1.6172;
119.1000;1.4489;1.6196;
119.4000;1.4473;1.6172;
119.7000;1.4489;1.6245;
120.0000;1.4505;1.6341;
120.3000;1.4538;1.6390;
120.6000;1.4497;1.6317;
120.9000;1.4465;1.6269;
121.2000;1.4505;1.6366;
121.5000;1.4497;1.6366;
121.8000;1.4457;1.6414;
122.1000;1.4465;1.6535;
122.4000;1.4505;1.6584;
122.7000;1.4473;1.6511;
123.0000;1.4465;1.6366;
123.3000;1.4481;1.6390;
123.6000;1.4481;1.6293;
123.9000;1.4505;1.6293;
124.2000;1.4416;1.6123;
124.5000;1.4408;1.6196;
124.8000;1.4481;1.6487;
125.1000;1.4481;1.6463;
125.4000;1.4481;1.6487;
125.7000;1.4505;1.6487;
126.0000;1.4481;1.6414;
126.3000;1.4497;1.6390;
126.6000;1.4465;1.6317;
126.9000;1.4489;1.6414;
127.2000;1.4497;1.6487;
127.5000;1.4514;1.6584;
127.8000;1.4465;1.6414;
128.1000;1.4481;1.6366;
128.4000;1.4530;1.6366;
128.7000;1.4481;1.6196;
129.0000;1.4514;1.6317;
129.3000;1.4497;1.6269;
129.6000;1.4473;1.6245;
129.9000;1.4473;1.6245;
130.2000;1.4497;1.6341;
130.5000;1.4505;1.6438;
130.8000;1.4481;1.6390;
131.1000;1.4489;1.6366;
131.4000;1.4481;1.6366;
131.7000;1.4473;1.6341;
132.0000;1.4481;1.6390;
132.3000;1.4465;1.6317;
132.6000;1.4473;1.6366;
132.9000;1.4497;1.6390;
133.2000;1.4465;1.6366;
133.5000;1.4481;1.6414;
133.8000;1.4481;1.6438;
134.1000;1.4497;1.6511;
134.4000;1.4481;1.6511;
134.7000;1.4473;1.6535;
135.0000;1.4481;1.6560;
135.3000;1.4481;1.6511;
135.6000;1.4481;1.6438;
135.9000;1.4481;1.6414;
136.2000;1.4489;1.6511;
136.5000;1.4489;1.6608;
136.8000;1.4497;1.6608;
137.1000;1.4530;1.6657;
137.4000;1.4497;1.6584;
137.7000;1.4489;1.6560;
138.0000;1.4465;1.6511;
138.3000;1.4497;1.6608;
138.6000;1.4489;1.6657;
138.9000;1.4489;1.6657;
139.2000;1.4481;1.6657;
139.5000;1.4481;1.6608;
139.8000;1.4481;1.6657;
140.1000;1.4481;1.6632;
140.4000;1.4497;1.6608;
140.7000;1.4481;1.6584;
141.0000;1.4465;1.6511;
141.3000;1.4481;1.6584;
141.6000;1.4432;1.6463;
141.9000;1.4473;1.6535;
142.2000;1.4473;1.6487;
142.5000;1.4489;1.6511;
142.8000;1.4489;1.6535;
143.1000;1.4505;1.6511;
143.4000;1.4505;1.6535;
143.7000;1.4505;1.6608;
144.0000;1.4497;1.6681;
144.3000;1.4497;1.6705;
144.6000;1.4481;1.6681;
144.9000;1.4514;1.6705;
145.2000;1.4505;1.6681;
145.5000;1.4473;1.6560;
145.8000;1.4489;1.6535;
146.1000;1.4473;1.6632;
146.4000;1.4505;1.6657;
146.7000;1.4497;1.6560;
147.0000;1.4505;1.6584;
147.3000;1.4497;1.6584;
147.6000;1.4497;1.6560;
147.9000;1.4554;1.6560;
148.2000;1.4546;1.6535;
148.5000;1.4473;1.6414;
148.8000;1.4497;1.6438;
149.1000;1.4473;1.6487;
149.4000;1.4457;1.6535;
149.7000;1.4473;1.6535;
150.0000;1.4497;1.6560;
150.3000;1.4465;1.6535;
150.6000;1.4465;1.6463;
150.9000;1.4489;1.6511;
151.2000;1.4481;1.6535;
151.5000;1.4538;1.6754;
151.8000;1.4489;1.6584;
152.1000;1.4497;1.6560;
152.4000;1.4473;1.6560;
152.7000;1.4473;1.6560;
153.0000;1.4473;1.6560;
153.3000;1.4473;1.6560;
153.6000;1.4481;1.6584;
153.9000;1.4473;1.6681;
154.2000;1.4465;1.6632;
154.5000;1.4481;1.6608;
154.8000;1.4481;1.6657;
155.1000;1.4489;1.6608;
155.4000;1.4489;1.6560;
155.7000;1.4497;1.6560;
156.0000;1.4489;1.6535;
156.3000;1.4465;1.6414;
156.6000;1.4473;1.6438;
156.9000;1.4473;1.6535;
157.2000;1.4481;1.6632;
157.5000;1.4473;1.6632;
157.8000;1.4481;1.6632;
158.1000;1.4481;1.6608;
158.4000;1.4489;1.6657;
158.7000;1.4481;1.6705;
159.0000;1.4473;1.6705;
159.3000;1.4481;1.6657;
159.6000;1.4481;1.6632;
159.9000;1.4465;1.6608;
160.2000;1.4465;1.6584;
160.5000;1.4473;1.6487;
160.8000;1.4465;1.6438;
161.1000;1.4481;1.6463;
161.4000;1.4473;1.6438;
161.7000;1.4473;1.6535;
162.0000;1.4514;1.6681;
162.3000;1.4473;1.6632;
162.6000;1.4481;1.6657;
162.9000;1.4481;1.6657;
163.2000;1.4481;1.6657;
163.5000;1.4489;1.6705;
163.8000;1.4538;1.6729;
164.1000;1.4497;1.6657;
164.4000;1.4481;1.6608;
164.7000;1.4489;1.6657;
165.0000;1.4481;1.6632;
165.3000;1.4481;1.6584;
165.6000;1.4505;1.6608;
165.9000;1.4481;1.6535;
166.2000;1.4489;1.6535;
166.5000;1.4481;1.6511;
166.8000;1.4400;1.6293;
167.1000;1.4489;1.6511;
167.4000;1.4489;1.6487;
167.7000;1.4440;1.6390;
168.0000;1.4449;1.6438;
168.3000;1.4473;1.6535;
168.6000;1.4489;1.6535;
168.9000;1.4473;1.6487;
169.2000;1.4473;1.6487;
169.5000;1.4465;1.6560;
169.8000;1.4465;1.6584;
170.1000;1.4481;1.6560;
170.4000;1.4481;1.6535;
170.7000;1.4489;1.6632;
171.0000;1.4473;1.6632;
171.3000;1.4481;1.6632;
171.6000;1.4473;1.6608;
171.9000;1.4457;1.6487;
172.2000;1.4473;1.6438;
172.5000;1.4481;1.6511;
172.8000;1.4457;1.6390;
173.1000;1.4465;1.6438;
173.4000;1.4489;1.6511;
173.7000;1.4449;1.6438;
174.0000;1.4481;1.6511;
174.3000;1.4473;1.6438;
174.6000;1.4473;1.6390;
174.9000;1.4473;1.6414;
175.2000;1.4481;1.6414;
175.5000;1.4481;1.6390;
175.8000;1.4489;1.6414;
176.1000;1.4489;1.6390;
176.4000;1.4481;1.6341;
176.7000;1.4465;1.6390;
177.0000;1.4465;1.6487;
177.3000;1.4505;1.6560;
177.6000;1.4473;1.6535;
177.9000;1.4416;1.6269;
178.2000;1.4481;1.6438;
178.5000;1.4481;1.6535;
178.8000;1.4489;1.6560;
179.1000;1.4481;1.6463;
179.4000;1.4465;1.6414;
179.7000;1.4465;1.6366;
180.0000;1.4489;1.6463;
180.3000;1.4522;1.6608;
180.6000;1.4457;1.6511;
180.9000;1.4465;1.6463;
181.2000;1.4473;1.6511;
181.5000;1.4481;1.6584;
181.8000;1.4457;1.6463;
182.1000;1.4449;1.6366;
182.4000;1.4449;1.6341;
182.7000;1.4473;1.6438;
183.0000;1.4457;1.6366;
183.3000;1.4473;1.6414;
183.6000;1.4449;1.6366;
183.9000;1.4481;1.6487;
184.2000;1.4473;1.6487;
184.5000;1.4489;1.6535;
184.8000;1.4473;1.6535;
185.1000;1.4465;1.6463;
185.4000;1.4481;1.6414;
185.7000;1.4457;1.6317;
186.0000;1.4457;1.6341;
186.3000;1.4481;1.6366;
186.6000;1.4505;1.6438;
186.9000;1.4473;1.6390;
187.2000;1.4473;1.6414;
187.5000;1.4457;1.6390;
187.8000;1.4481;1.6511;
188.1000;1.4481;1.6487;
188.4000;1.4538;1.6754;
188.7000;1.4465;1.6584;
189.0000;1.4465;1.6584;
189.3000;1.4473;1.6487;
189.6000;1.4546;1.6681;
189.9000;1.4489;1.6487;
190.2000;1.4457;1.6366;
190.5000;1.4473;1.6341;
190.8000;1.4465;1.6390;
191.1000;1.4473;1.6390;
191.4000;1.4473;1.6487;
191.7000;1.4473;1.6487;
192.0000;1.4473;1.6438;
192.3000;1.4449;1.6269;
192.6000;1.4489;1.6366;
192.9000;1.4505;1.6390;
193.2000;1.4538;1.6511;
193.5000;1.4457;1.6317;
193.8000;1.4424;1.6293;
194.1000;1.4465;1.6414;
194.4000;1.4530;1.6560;
194.7000;1.4457;1.6463;
195.0000;1.4449;1.6487;
195.3000;1.4473;1.6657;
195.6000;1.4465;1.6632;
195.9000;1.4375;1.6438;
196.2000;1.4449;1.6535;
196.5000;1.4505;1.6681;
196.8000;1.4449;1.6560;
197.1000;1.4457;1.6632;
197.4000;1.4473;1.6657;
197.7000;1.4473;1.6657;
198.0000;1.4473;1.6608;
198.3000;1.4465;1.6511;
198.6000;1.4457;1.6438;
198.9000;1.4481;1.6438;
199.2000;1.4473;1.6438;
199.5000;1.4489;1.6463;
199.8000;1.4465;1.6390;
200.1000;1.4465;1.6390;
200.4000;1.4481;1.6438;
200.7000;1.4473;1.6366;
201.0000;1.4465;1.6366;
201.3000;1.4457;1.6341;
201.6000;1.4473;1.6341;
201.9000;1.4473;1.6172;
202.2000;1.4432;1.6002;
202.5000;1.4489;1.6075;
202.8000;1.4481;1.6196;
203.1000;1.4497;1.6196;
203.4000;1.4473;1.6123;
203.7000;1.4481;1.6196;
204.0000;1.4514;1.6317;
204.3000;1.4473;1.6220;
204.6000;1.4465;1.6148;
204.9000;1.4465;1.6148;
205.2000;1.4457;1.6148;
205.5000;1.4481;1.6245;
205.8000;1.4473;1.6341;
206.1000;1.4457;1.6317;
206.4000;1.4449;1.6269;
206.7000;1.4465;1.6293;
207.0000;1.4481;1.6317;
207.3000;1.4449;1.6293;
207.6000;1.4481;1.6390;
207.9000;1.4457;1.6366;
208.2000;1.4473;1.6366;
208.5000;1.4473;1.6414;
208.8000;1.4481;1.6438;
209.1000;1.4440;1.6366;
209.4000;1.4465;1.6487;
209.7000;1.4465;1.6584;
210.0000;1.4449;1.6511;
210.3000;1.4465;1.6463;
210.6000;1.4457;1.6463;
210.9000;1.4473;1.6463;
211.2000;1.4473;1.6438;
211.5000;1.4457;1.6414;
211.8000;1.4497;1.6511;
212.1000;1.4489;1.6511;
212.4000;1.4465;1.6438;
212.7000;1.4489;1.6511;
213.0000;1.4457;1.6463;
213.3000;1.4465;1.6511;
213.6000;1.4465;1.6487;
213.9000;1.4465;1.6535;
214.2000;1.4408;1.6414;
214.5000;1.4465;1.6584;
214.8000;1.4473;1.6632;
215.1000;1.4465;1.6608;
215.4000;1.4465;1.6584;
215.7000;1.4481;1.6632;
216.0000;1.4473;1.6681;
216.3000;1.4449;1.6560;
216.6000;1.4457;1.6463;
216.9000;1.4457;1.6414;
217.2000;1.4424;1.6341;
217.5000;1.4473;1.6390;
217.8000;1.4465;1.6366;
218.1000;1.4481;1.6366;
218.4000;1.4481;1.6390;
218.7000;1.4473;1.6463;
219.0000;1.4457;1.6487;
219.3000;1.4465;1.6366;
219.6000;1.4465;1.6438;
219.9000;1.4440;1.6366;
220.2000;1.4465;1.6487;
220.5000;1.4497;1.6511;
220.8000;1.4473;1.6463;
221.1000;1.4465;1.6438;
221.4000;1.4449;1.6438;
221.7000;1.4457;1.6463;
222.0000;1.4465;1.6438;
222.3000;1.4473;1.6463;
222.6000;1.4481;1.6511;
222.9000;1.4473;1.6511;
223.2000;1.4457;1.6535;
223.5000;1.4440;1.6463;
223.8000;1.4473;1.6584;
224.1000;1.4465;1.6584;
224.4000;1.4465;1.6560;
224.7000;1.4465;1.6535;
225.0000;1.4473;1.6560;
225.3000;1.4457;1.6487;
225.6000;1.4449;1.6414;
225.9000;1.4481;1.6463;
226.2000;1.4449;1.6463;
226.5000;1.4465;1.6608;
226.8000;1.4449;1.6657;
227.1000;1.4375;1.6511;
227.4000;1.4473;1.6778;
227.7000;1.4481;1.6681;
228.0000;1.4489;1.6657;
228.3000;1.4473;1.6632;
228.6000;1.4473;1.6705;
228.9000;1.4481;1.6681;
229.2000;1.4432;1.6584;
229.5000;1.4473;1.6729;
229.8000;1.4465;1.6681;
230.1000;1.4440;1.6560;
230.4000;1.4465;1.6657;
230.7000;1.4465;1.6681;
231.0000;1.4465;1.6657;
231.3000;1.4457;1.6560;
231.6000;1.4457;1.6560;
231.9000;1.4449;1.6584;
232.2000;1.4400;1.6584;
232.5000;1.4457;1.6778;
232.8000;1.4440;1.6705;
233.1000;1.4400;1.6657;
233.4000;1.4449;1.6778;
233.7000;1.4440;1.6729;
234.0000;1.4457;1.6754;
234.3000;1.4457;1.6681;
234.6000;1.4481;1.6705;
234.9000;1.4457;1.6608;
235.2000;1.4530;1.6851;
235.5000;1.4440;1.6681;
235.8000;1.4449;1.6608;
236.1000;1.4449;1.6511;
236.4000;1.4457;1.6511;
236.7000;1.4465;1.6608;
237.0000;1.4440;1.6511;
237.3000;1.4481;1.6584;
237.6000;1.4473;1.6632;
237.9000;1.4522;1.6705;
238.2000;1.4424;1.6511;
238.5000;1.4465;1.6705;
238.8000;1.4538;1.6899;
239.1000;1.4473;1.6729;
239.4000;1.4457;1.6681;
239.7000;1.4449;1.6657;
240.0000;1.4457;1.6705;
240.3000;1.4465;1.6657;
240.6000;1.4424;1.6584;
240.9000;1.4457;1.6681;
241.2000;1.4497;1.6754;
241.5000;1.4473;1.6705;
241.8000;1.4449;1.6657;
242.1000;1.4465;1.6705;
242.4000;1.4457;1.6681;
242.7000;1.4432;1.6535;
243.0000;1.4449;1.6608;
243.3000;1.4457;1.6608;
243.6000;1.4440;1.6560;
243.9000;1.4473;1.6705;
244.2000;1.4457;1.6632;
244.5000;1.4424;1.6632;
244.8000;1.4449;1.6608;
245.1000;1.4473;1.6608;
245.4000;1.4481;1.6681;
245.7000;1.4424;1.6608;
246.0000;1.4408;1.6560;
246.3000;1.4440;1.6657;
246.6000;1.4457;1.6681;
246.9000;1.4449;1.6584;
247.2000;1.4457;1.6681;
247.5000;1.4440;1.6632;
247.8000;1.4473;1.6681;
248.1000;1.4432;1.6681;
248.4000;1.4457;1.6632;
248.7000;1.4457;1.6657;
249.0000;1.4465;1.6608;
249.3000;1.4473;1.6560;
249.6000;1.4465;1.6584;
249.9000;1.4457;1.6560;
250.2000;1.4481;1.6608;
250.5000;1.4457;1.6584;
250.8000;1.4457;1.6560;
251.1000;1.4432;1.6511;
251.4000;1.4465;1.6584;
251.7000;1.4465;1.6657;
252.0000;1.4481;1.6729;
252.3000;1.4457;1.6705;
252.6000;1.4465;1.6681;
252.9000;1.4457;1.6681;
253.2000;1.4481;1.6802;
253.5000;1.4457;1.6778;
253.8000;1.4465;1.6778;
254.1000;1.4440;1.6729;
254.4000;1.4481;1.6875;
254.7000;1.4465;1.6778;
255.0000;1.4505;1.6899;
255.3000;1.4473;1.6802;
255.6000;1.4481;1.6802;
255.9000;1.4457;1.6705;
256.2000;1.4432;1.6681;
256.5000;1.4465;1.6729;
256.8000;1.4473;1.6705;
257.1000;1.4465;1.6584;
257.4000;1.4457;1.6608;
257.7000;1.4449;1.6632;
258.0000;1.4481;1.6705;
258.3000;1.4465;1.6632;
258.6000;1.4473;1.6608;
258.9000;1.4416;1.6535;
259.2000;1.4449;1.6705;
259.5000;1.4473;1.6705;
259.8000;1.4449;1.6681;
260.1000;1.4465;1.6705;
260.4000;1.4465;1.6778;
260.7000;1.4457;1.6826;
261.0000;1.4457;1.6899;
261.3000;1.4465;1.6899;
261.6000;1.4538;1.7020;
261.9000;1.4449;1.6778;
262.2000;1.4473;1.6754;
262.5000;1.4449;1.6681;
262.8000;1.4449;1.6705;
263.1000;1.4465;1.6778;
263.4000;1.4440;1.6754;
263.7000;1.4481;1.6851;
264.0000;1.4457;1.6754;
264.3000;1.4457;1.6826;
264.6000;1.4457;1.6826;
264.9000;1.4424;1.6754;
265.2000;1.4440;1.6681;
265.5000;1.4457;1.6729;
265.8000;1.4457;1.6754;
266.1000;1.4457;1.6705;
266.4000;1.4457;1.6729;
266.7000;1.4457;1.6729;
267.0000;1.4457;1.6826;
267.3000;1.4457;1.6778;
267.6000;1.4489;1.6899;
267.9000;1.4457;1.6705;
268.2000;1.4432;1.6681;
268.5000;1.4457;1.6705;
268.8000;1.4449;1.6657;
269.1000;1.4440;1.6657;
269.4000;1.4457;1.6729;
269.7000;1.4465;1.6657;
270.0000;1.4432;1.6535;
270.3000;1.4457;1.6511;
270.6000;1.4465;1.6463;
270.9000;1.4489;1.6584;
271.2000;1.4449;1.6511;
271.5000;1.4465;1.6608;
271.8000;1.4473;1.6657;
272.1000;1.4473;1.6632;
272.4000;1.4465;1.6657;
272.7000;1.4457;1.6584;
273.0000;1.4465;1.6584;
273.3000;1.4465;1.6511;
273.6000;1.4465;1.6560;
273.9000;1.4481;1.6535;
274.2000;1.4473;1.6584;
274.5000;1.4473;1.6608;
274.8000;1.4473;1.6657;
275.1000;1.4481;1.6560;
275.4000;1.4440;1.6511;
275.7000;1.4473;1.6584;
276.0000;1.4481;1.6632;
276.3000;1.4489;1.6681;
276.6000;1.4481;1.6657;
276.9000;1.4465;1.6681;
277.2000;1.4465;1.6681;
277.5000;1.4473;1.6560;
277.8000;1.4465;1.6487;
278.1000;1.4465;1.6584;
278.4000;1.4440;1.6560;
278.7000;1.4432;1.6560;
279.0000;1.4440;1.6584;
279.3000;1.4440;1.6608;
279.6000;1.4432;1.6681;
279.9000;1.4457;1.6584;
280.2000;1.4440;1.6560;
280.5000;1.4457;1.6535;
280.8000;1.4522;1.6681;
281.1000;1.4457;1.6511;
281.4000;1.4440;1.6487;
281.7000;1.4449;1.6584;
282.0000;1.4424;1.6584;
282.3000;1.4465;1.6681;
282.6000;1.4457;1.6560;
282.9000;1.4440;1.6487;
283.2000;1.4473;1.6632;
283.5000;1.4449;1.6608;
283.8000;1.4514;1.6729;
284.1000;1.4367;1.6341;
284.4000;1.4457;1.6463;
284.7000;1.4465;1.6414;
285.0000;1.4465;1.6463;
285.3000;1.4465;1.6608;
285.6000;1.4449;1.6584;
285.9000;1.4473;1.6535;
286.2000;1.4473;1.6511;
286.5000;1.4457;1.6487;
286.8000;1.4400;1.6366;
287.1000;1.4489;1.6632;
287.4000;1.4457;1.6584;
287.7000;1.4449;1.6560;
288.0000;1.4440;1.6632;
288.3000;1.4457;1.6657;
288.6000;1.4457;1.6608;
288.9000;1.4465;1.6511;
289.2000;1.4449;1.6511;
289.5000;1.4440;1.6511;
289.8000;1.4449;1.6487;
290.1000;1.4481;1.6487;
290.4000;1.4440;1.6341;
290.7000;1.4457;1.6390;
291.0000;1.4473;1.6438;
291.3000;1.4457;1.6511;
291.6000;1.4449;1.6487;
291.9000;1.4457;1.6560;
292.2000;1.4449;1.6535;
292.5000;1.4473;1.6560;
292.8000;1.4457;1.6535;
293.1000;1.4473;1.6560;
293.4000;1.4432;1.6487;
293.7000;1.4449;1.6535;
294.0000;1.4449;1.6608;
294.3000;1.4432;1.6657;
294.6000;1.4449;1.6681;
294.9000;1.4440;1.6584;
295.2000;1.4449;1.6560;
295.5000;1.4449;1.6560;
295.8000;1.4449;1.6535;
296.1000;1.4449;1.6511;
296.4000;1.4449;1.6511;
296.7000;1.4440;1.6511;
297.0000;1.4449;1.6511;
297.3000;1.4408;1.6390;
297.6000;1.4457;1.6487;
297.9000;1.4449;1.6560;
298.2000;1.4440;1.6560;
298.5000;1.4432;1.6632;
298.8000;1.4440;1.6632;
299.1000;1.4457;1.6608;
299.4000;1.4449;1.6560;
299.7000;1.4465;1.6535;
300.0000;1.4465;1.6560;
300.3000;1.4457;1.6511;
300.6000;1.4440;1.6511;
300.9000;1.4465;1.6535;
301.2000;1.4465;1.6535;
301.5000;1.4465;1.6584;
301.8000;1.4473;1.6632;
302.1000;1.4457;1.6560;
302.4000;1.4457;1.6560;
302.7000;1.4465;1.6560;
303.0000;1.4457;1.6608;
303.3000;1.4449;1.6632;
303.6000;1.4416;1.6632;
303.9000;1.4449;1.6657;
304.2000;1.4449;1.6681;
304.5000;1.4457;1.6705;
304.8000;1.4400;1.6560;
305.1000;1.4432;1.6608;
305.4000;1.4440;1.6584;
305.7000;1.4449;1.6657;
306.0000;1.4449;1.6535;
306.3000;1.4449;1.6535;
306.6000;1.4440;1.6438;
306.9000;1.4424;1.6341;
307.2000;1.4424;1.6341;
307.5000;1.4432;1.6341;
307.8000;1.4440;1.6414;
308.1000;1.4440;1.6438;
308.4000;1.4449;1.6535;
308.7000;1.4440;1.6487;
309.0000;1.4449;1.6560;
309.3000;1.4440;1.6560;
309.6000;1.4424;1.6535;
309.9000;1.4424;1.6463;
310.2000;1.4416;1.6560;
310.5000;1.4449;1.6657;
310.8000;1.4432;1.6560;
311.1000;1.4457;1.6657;
311.4000;1.4489;1.6754;
311.7000;1.4465;1.6705;
312.0000;1.4497;1.6754;
312.3000;1.4465;1.6681;
312.6000;1.4400;1.6511;
312.9000;1.4424;1.6535;
313.2000;1.4440;1.6535;
313.5000;1.4465;1.6584;
313.8000;1.4440;1.6584;
314.1000;1.4457;1.6584;
314.4000;1.4457;1.6632;
314.7000;1.4440;1.6681;
315.0000;1.4424;1.6657;
315.3000;1.4440;1.6657;
315.6000;1.4457;1.6608;
315.9000;1.4449;1.6560;
316.2000;1.4449;1.6487;
316.5000;1.4449;1.6463;
316.8000;1.4465;1.6414;
317.1000;1.4457;1.6366;
317.4000;1.4457;1.6317;
317.7000;1.4440;1.6293;
318.0000;1.4432;1.6245;
318.3000;1.4465;1.6341;
318.6000;1.4440;1.6366;
318.9000;1.4440;1.6341;
319.2000;1.4457;1.6341;
319.5000;1.4424;1.6317;
319.8000;1.4449;1.6390;
320.1000;1.4440;1.6390;
320.4000;1.4449;1.6511;
320.7000;1.4457;1.6584;
321.0000;1.4440;1.6560;
321.3000;1.4440;1.6584;
321.6000;1.4432;1.6560;
321.9000;1.4416;1.6487;
322.2000;1.4473;1.6560;
322.5000;1.4457;1.6438;
322.8000;1.4440;1.6438;
323.1000;1.4449;1.6511;
323.4000;1.4449;1.6535;
323.7000;1.4424;1.6511;
324.0000;1.4432;1.6535;
324.3000;1.4440;1.6584;
324.6000;1.4424;1.6632;
324.9000;1.4440;1.6681;
325.2000;1.4432;1.6584;
325.5000;1.4465;1.6560;
325.8000;1.4457;1.6511;
326.1000;1.4367;1.6341;
326.4000;1.4473;1.6608;
326.7000;1.4432;1.6438;
327.0000;1.4457;1.6438;
327.3000;1.4457;1.6463;
327.6000;1.4440;1.6560;
327.9000;1.4424;1.6438;
328.2000;1.4449;1.6511;
328.5000;1.4449;1.6535;
328.8000;1.4440;1.6535;
329.1000;1.4440;1.6463;
329.4000;1.4465;1.6511;
329.7000;1.4416;1.6414;
330.0000;1.4440;1.6535;
330.3000;1.4440;1.6632;
330.6000;1.4424;1.6560;
330.9000;1.4457;1.6657;
331.2000;1.4457;1.6657;
331.5000;1.4457;1.6681;
331.8000;1.4416;1.6632;
332.1000;1.4449;1.6802;
332.4000;1.4440;1.6729;
332.7000;1.4457;1.6657;
333.0000;1.4440;1.6608;
333.3000;1.4457;1.6608;
333.6000;1.4457;1.6657;
333.9000;1.4432;1.6560;
334.2000;1.4432;1.6560;
334.5000;1.4432;1.6584;
334.8000;1.4392;1.6487;
335.1000;1.4449;1.6584;
335.4000;1.4440;1.6487;
335.7000;1.4440;1.6390;
336.0000;1.4497;1.6511;
336.3000;1.4424;1.6390;
336.6000;1.4449;1.6366;
336.9000;1.4457;1.6366;
337.2000;1.4416;1.6366;
337.5000;1.4432;1.6535;
337.8000;1.4440;1.6560;
338.1000;1.4440;1.6632;
338.4000;1.4449;1.6778;
338.7000;1.4424;1.6754;
339.0000;1.4449;1.6802;
339.3000;1.4432;1.6826;
339.6000;1.4383;1.6705;
339.9000;1.4440;1.6729;
340.2000;1.4440;1.6681;
340.5000;1.4432;1.6608;
340.8000;1.4440;1.6657;
341.1000;1.4449;1.6681;
341.4000;1.4457;1.6705;
341.7000;1.4432;1.6681;
342.0000;1.4416;1.6632;
342.3000;1.4449;1.6729;
342.6000;1.4449;1.6729;
342.9000;1.4440;1.6705;
343.2000;1.4432;1.6657;
343.5000;1.4457;1.6681;
343.8000;1.4465;1.6778;
344.1000;1.4440;1.6754;
344.4000;1.4432;1.6729;
344.7000;1.4449;1.6681;
345.0000;1.4465;1.6778;
345.3000;1.4449;1.6705;
345.6000;1.4457;1.6657;
345.9000;1.4440;1.6584;
346.2000;1.4457;1.6608;
346.5000;1.4465;1.6705;
346.8000;1.4449;1.6705;
347.1000;1.4457;1.6802;
347.4000;1.4473;1.6851;
347.7000;1.4457;1.6875;
348.0000;1.4440;1.6778;
348.3000;1.4457;1.6778;
348.6000;1.4457;1.6705;
348.9000;1.4449;1.6802;
349.2000;1.4432;1.6705;
349.5000;1.4457;1.6729;
349.8000;1.4432;1.6632;
350.1000;1.4465;1.6632;
350.4000;1.4432;1.6608;
350.7000;1.4424;1.6681;
351.0000;1.4440;1.6802;
351.3000;1.4440;1.6826;
351.6000;1.4432;1.6875;
351.9000;1.4440;1.6948;
352.2000;1.4465;1.6972;
352.5000;1.4375;1.6729;
352.8000;1.4440;1.6875;
353.1000;1.4424;1.6899;
353.4000;1.4424;1.6778;
353.7000;1.4408;1.6729;
354.0000;1.4432;1.6754;
354.3000;1.4449;1.6729;
354.6000;1.4424;1.6657;
354.9000;1.4440;1.6705;
355.2000;1.4449;1.6632;
355.5000;1.4449;1.6584;
355.8000;1.4383;1.6487;
356.1000;1.4416;1.6511;
356.4000;1.4457;1.6487;
356.7000;1.4449;1.6511;
357.0000;1.4440;1.6511;
357.3000;1.4375;1.6390;
357.6000;1.4457;1.6608;
357.9000;1.4440;1.6608;
358.2000;1.4522;1.6851;
358.5000;1.4432;1.6608;
358.8000;1.4432;1.6535;
359.1000;1.4505;1.6705;
359.4000;1.4432;1.6584;
359.7000;1.4416;1.6584;
360.0000;1.4424;1.6584;
360.3000;1.4416;1.6560;
360.6000;1.4416;1.6511;
360.9000;1.4440;1.6535;
361.2000;1.4465;1.6632;
361.5000;1.4440;1.6608;
361.8000;1.4440;1.6632;
362.1000;1.4449;1.6560;
362.4000;1.4440;1.6535;
362.7000;1.4424;1.6463;
363.0000;1.4514;1.6705;
363.3000;1.4432;1.6535;
363.6000;1.4440;1.6632;
363.9000;1.4473;1.6778;
364.2000;1.4457;1.6802;
364.5000;1.4440;1.6729;
364.8000;1.4449;1.6729;
365.1000;1.4432;1.6754;
365.4000;1.4449;1.6778;
365.7000;1.4440;1.6754;
366.0000;1.4440;1.6705;
366.3000;1.4457;1.6681;
366.6000;1.4457;1.6729;
366.9000;1.4449;1.6705;
367.2000;1.4432;1.6608;
367.5000;1.4449;1.6657;
367.8000;1.4432;1.6705;
368.1000;1.4432;1.6657;
368.4000;1.4432;1.6802;
368.7000;1.4440;1.6826;
369.0000;1.4383;1.6754;
369.3000;1.4457;1.6899;
369.6000;1.4449;1.6899;
369.9000;1.4440;1.6923;
370.2000;1.4440;1.6899;
370.5000;1.4449;1.6826;
370.8000;1.4432;1.6778;
371.1000;1.4416;1.6729;
371.4000;1.4424;1.6729;
371.7000;1.4432;1.6778;
372.0000;1.4408;1.6705;
372.3000;1.4449;1.6826;
372.6000;1.4432;1.6826;
372.9000;1.4449;1.6948;
373.2000;1.4449;1.6948;
373.5000;1.4440;1.6899;
373.8000;1.4432;1.6923;
374.1000;1.4465;1.6899;
374.4000;1.4440;1.6754;
374.7000;1.4432;1.6754;
375.0000;1.4424;1.6802;
375.3000;1.4440;1.6826;
375.6000;1.4432;1.6802;
375.9000;1.4416;1.6754;
376.2000;1.4416;1.6754;
376.5000;1.4432;1.6778;
376.8000;1.4432;1.6705;
377.1000;1.4367;1.6584;
377.4000;1.4416;1.6608;
377.7000;1.4424;1.6632;
378.0000;1.4424;1.6729;
378.3000;1.4432;1.6729;
378.6000;1.4497;1.6851;
378.9000;1.4432;1.6681;
379.2000;1.4449;1.6778;
379.5000;1.4440;1.6729;
379.8000;1.4424;1.6657;
380.1000;1.4457;1.6729;
380.4000;1.4432;1.6754;
380.7000;1.4408;1.6754;
381.0000;1.4416;1.6778;
381.3000;1.4383;1.6681;
381.6000;1.4416;1.6729;
381.9000;1.4432;1.6681;
382.2000;1.4440;1.6705;
382.5000;1.4424;1.6729;
382.8000;1.4473;1.6851;
383.1000;1.4432;1.6778;
383.4000;1.4449;1.6778;
383.7000;1.4424;1.6778;
384.0000;1.4432;1.6778;
384.3000;1.4432;1.6681;
384.6000;1.4440;1.6681;
384.9000;1.4424;1.6802;
385.2000;1.4408;1.6705;
385.5000;1.4408;1.6729;
385.8000;1.4465;1.6826;
386.1000;1.4432;1.6802;
386.4000;1.4424;1.6754;
386.7000;1.4432;1.6729;
387.0000;1.4432;1.6826;
387.3000;1.4424;1.6851;
387.6000;1.4416;1.6754;
387.9000;1.4432;1.6681;
388.2000;1.4449;1.6705;
388.5000;1.4440;1.6754;
388.8000;1.4457;1.6826;
389.1000;1.4440;1.6802;
389.4000;1.4457;1.6826;
389.7000;1.4440;1.6875;
390.0000;1.4440;1.6802;
390.3000;1.4416;1.6826;
390.6000;1.4432;1.6875;
390.9000;1.4440;1.6826;
391.2000;1.4432;1.6826;
391.5000;1.4416;1.6899;
391.8000;1.4424;1.6875;
392.1000;1.4440;1.6972;
392.4000;1.4440;1.6996;
392.7000;1.4432;1.6899;
393.0000;1.4473;1.6851;
393.3000;1.4449;1.6705;
393.6000;1.4449;1.6632;
393.9000;1.4432;1.6657;
394.2000;1.4432;1.6681;
394.5000;1.4457;1.6826;
394.8000;1.4457;1.6851;
395.1000;1.4440;1.6826;
395.4000;1.4408;1.6705;
395.7000;1.4457;1.6802;
396.0000;1.4457;1.6826;
396.3000;1.4449;1.6778;
396.6000;1.4449;1.6802;
396.9000;1.4424;1.6802;
397.2000;1.4457;1.6851;
397.5000;1.4408;1.6729;
397.8000;1.4416;1.6705;
398.1000;1.4481;1.6826;
398.4000;1.4432;1.6705;
398.7000;1.4457;1.6681;
399.0000;1.4440;1.6681;
399.3000;1.4440;1.6826;
399.6000;1.4449;1.6875;
399.9000;1.4449;1.6875;
400.2000;1.4424;1.6778;
400.5000;1.4424;1.6851;
400.8000;1.4424;1.6826;
401.1000;1.4424;1.6875;
401.4000;1.4416;1.6851;
401.7000;1.4416;1.6778;
402.0000;1.4473;1.6899;
402.3000;1.4408;1.6826;
402.6000;1.4473;1.6923;
402.9000;1.4449;1.6923;
403.2000;1.4432;1.6875;
403.5000;1.4440;1.6851;
403.8000;1.4424;1.6729;
404.1000;1.4449;1.6778;
404.4000;1.4424;1.6705;
404.7000;1.4432;1.6729;
405.0000;1.4440;1.6632;
405.3000;1.4432;1.6584;
405.6000;1.4440;1.6511;
405.9000;1.4465;1.6608;
406.2000;1.4440;1.6560;
406.5000;1.4432;1.6632;
406.8000;1.4424;1.6632;
407.1000;1.4400;1.6632;
407.4000;1.4440;1.6729;
407.7000;1.4432;1.6754;
408.0000;1.4416;1.6729;
408.3000;1.4416;1.6657;
408.6000;1.4424;1.6705;
408.9000;1.4416;1.6754;
409.2000;1.4432;1.6729;
409.5000;1.4416;1.6705;
409.8000;1.4424;1.6729;
410.1000;1.4424;1.6778;
410.4000;1.4440;1.6778;
410.7000;1.4408;1.6705;
411.0000;1.4424;1.6802;
411.3000;1.4424;1.6875;
411.6000;1.4408;1.6875;
411.9000;1.4416;1.6802;
412.2000;1.4416;1.6754;
412.5000;1.4432;1.6899;
412.8000;1.4416;1.6851;
413.1000;1.4416;1.6875;
413.4000;1.4440;1.6875;
413.7000;1.4416;1.6899;
414.0000;1.4440;1.7045;
414.3000;1.4432;1.6996;
414.6000;1.4432;1.6972;
414.9000;1.4424;1.6923;
415.2000;1.4424;1.6972;
415.5000;1.4432;1.6948;
415.8000;1.4424;1.6923;
416.1000;1.4432;1.6948;
416.4000;1.4424;1.6923;
416.7000;1.4449;1.6899;
417.0000;1.4424;1.6899;
417.3000;1.4432;1.6851;
417.6000;1.4416;1.6875;
417.9000;1.4449;1.6923;
418.2000;1.4432;1.6875;
418.5000;1.4416;1.6851;
418.8000;1.4440;1.6802;
419.1000;1.4424;1.6802;
419.4000;1.4473;1.6826;
419.7000;1.4416;1.6705;
420.0000;1.4457;1.6729;
420.3000;1.4400;1.6608;
420.6000;1.4424;1.6729;
420.9000;1.4449;1.6778;
421.2000;1.4432;1.6875;
421.5000;1.4481;1.7093;
421.8000;1.4424;1.6923;
422.1000;1.4432;1.6899;
422.4000;1.4440;1.6948;
422.7000;1.4408;1.6802;
423.0000;1.4424;1.6802;
423.3000;1.4408;1.6754;
423.6000;1.4432;1.6802;
423.9000;1.4432;1.6705;
424.2000;1.4424;1.6754;
424.5000;1.4440;1.6754;
424.8000;1.4424;1.6729;
425.1000;1.4440;1.6778;
425.4000;1.4440;1.6802;
425.7000;1.4449;1.6826;
426.0000;1.4424;1.6826;
426.3000;1.4424;1.6851;
426.6000;1.4424;1.6826;
426.9000;1.4424;1.6778;
427.2000;1.4424;1.6729;
427.5000;1.4416;1.6754;
427.8000;1.4432;1.6754;
428.1000;1.4457;1.6778;
428.4000;1.4424;1.6632;
428.7000;1.4424;1.6535;
429.0000;1.4465;1.6681;
429.3000;1.4440;1.6705;
429.6000;1.4432;1.6802;
429.9000;1.4383;1.6729;
430.2000;1.4432;1.6875;
430.5000;1.4457;1.6923;
430.8000;1.4465;1.6923;
431.1000;1.4424;1.6851;
431.4000;1.4432;1.6851;
431.7000;1.4432;1.6899;
432.0000;1.4416;1.6899;
432.3000;1.4424;1.6875;
432.6000;1.4432;1.6851;
432.9000;1.4432;1.6851;
433.2000;1.4432;1.6851;
433.5000;1.4424;1.6826;
433.8000;1.4424;1.6875;
434.1000;1.4424;1.6948;
434.4000;1.4432;1.6851;
434.7000;1.4424;1.6826;
435.0000;1.4432;1.6778;
435.3000;1.4416;1.6826;
435.6000;1.4424;1.6875;
435.9000;1.4440;1.6948;
436.2000;1.4424;1.6923;
436.5000;1.4416;1.6875;
436.8000;1.4440;1.6899;
437.1000;1.4432;1.6875;
437.4000;1.4416;1.6778;
437.7000;1.4424;1.6802;
438.0000;1.4392;1.6729;
438.3000;1.4408;1.6778;
438.6000;1.4432;1.6899;
438.9000;1.4432;1.6923;
439.2000;1.4440;1.6923;
439.5000;1.4424;1.6778;
439.8000;1.4432;1.6802;
440.1000;1.4432;1.6826;
440.4000;1.4432;1.6729;
440.7000;1.4440;1.6632;
441.0000;1.4432;1.6584;
441.3000;1.4416;1.6535;
441.6000;1.4432;1.6584;
441.9000;1.4432;1.6608;
442.2000;1.4440;1.6632;
442.5000;1.4416;1.6608;
442.8000;1.4424;1.6632;
443.1000;1.4424;1.6681;
443.4000;1.4440;1.6826;
443.7000;1.4432;1.6851;
444.0000;1.4367;1.6681;
444.3000;1.4449;1.6802;
444.6000;1.4424;1.6826;
444.9000;1.4473;1.6948;
445.2000;1.4432;1.6875;
445.5000;1.4432;1.6851;
445.8000;1.4449;1.6899;
446.1000;1.4424;1.6826;
446.4000;1.4416;1.6754;
446.7000;1.4424;1.6802;
447.0000;1.4416;1.6705;
447.3000;1.4432;1.6681;
447.6000;1.4432;1.6705;
447.9000;1.4416;1.6705;
448.2000;1.4432;1.6729;
448.5000;1.4432;1.6778;
448.8000;1.4432;1.6875;
449.1000;1.4440;1.6948;
449.4000;1.4440;1.6875;
449.7000;1.4440;1.6923;
450.0000;1.4457;1.7045;
450.3000;1.4400;1.6923;
450.6000;1.4424;1.6948;
450.9000;1.4424;1.6875;
451.2000;1.4432;1.6851;
451.5000;1.4432;1.6826;
451.8000;1.4432;1.6851;
452.1000;1.4424;1.6754;
452.4000;1.4481;1.6851;
452.7000;1.4424;1.6729;
453.0000;1.4432;1.6754;
453.3000;1.4432;1.6826;
453.6000;1.4432;1.6851;
453.9000;1.4408;1.6778;
454.2000;1.4408;1.6754;
454.5000;1.4424;1.6851;
454.8000;1.4416;1.6851;
455.1000;1.4424;1.6875;
455.4000;1.4449;1.6923;
455.7000;1.4424;1.6899;
456.0000;1.4432;1.6899;
456.3000;1.4440;1.6875;
456.6000;1.4465;1.6875;
456.9000;1.4416;1.6754;
457.2000;1.4416;1.6705;
457.5000;1.4440;1.6729;
457.8000;1.4497;1.6802;
458.1000;1.4449;1.6681;
458.4000;1.4440;1.6608;
458.7000;1.4432;1.6608;
459.0000;1.4400;1.6560;
459.3000;1.4408;1.6632;
459.6000;1.4424;1.6657;
459.9000;1.4416;1.6657;
460.2000;1.4449;1.6705;
460.5000;1.4383;1.6463;
460.8000;1.4440;1.6802;
461.1000;1.4432;1.6778;
461.4000;1.4424;1.6754;
461.7000;1.4408;1.6729;
462.0000;1.4473;1.6875;
462.3000;1.4440;1.6754;
462.6000;1.4416;1.6705;
462.9000;1.4432;1.6681;
463.2000;1.4424;1.6729;
463.5000;1.4416;1.6754;
463.8000;1.4432;1.6802;
464.1000;1.4400;1.6754;
464.4000;1.4408;1.6778;
464.7000;1.4457;1.6923;
465.0000;1.4416;1.6826;
465.3000;1.4424;1.6778;
465.6000;1.4424;1.6681;
465.9000;1.4424;1.6657;
466.2000;1.4432;1.6584;
466.5000;1.4424;1.6584;
466.8000;1.4424;1.6511;
467.1000;1.4408;1.6511;
467.4000;1.4424;1.6560;
467.7000;1.4432;1.6584;
468.0000;1.4416;1.6608;
468.3000;1.4416;1.6584;
468.6000;1.4351;1.6438;
468.9000;1.4424;1.6584;
469.2000;1.4424;1.6535;
469.5000;1.4424;1.6632;
469.8000;1.4432;1.6729;
470.1000;1.4432;1.6754;
470.4000;1.4432;1.6729;
470.7000;1.4440;1.6729;
471.0000;1.4432;1.6632;
471.3000;1.4440;1.6657;
471.6000;1.4416;1.6657;
471.9000;1.4400;1.6632;
472.2000;1.4416;1.6681;
472.5000;1.4424;1.6657;
472.8000;1.4449;1.6705;
473.1000;1.4424;1.6705;
473.4000;1.4416;1.6705;
473.7000;1.4408;1.6729;
474.0000;1.4440;1.6778;
474.3000;1.4392;1.6754;
474.6000;1.4408;1.6778;
474.9000;1.4432;1.6972;
475.2000;1.4416;1.6923;
475.5000;1.4424;1.6851;
475.8000;1.4416;1.6802;
476.1000;1.4424;1.6802;
476.4000;1.4416;1.6754;
476.7000;1.4416;1.6778;
477.0000;1.4351;1.6657;
477.3000;1.4408;1.6754;
477.6000;1.4408;1.6802;
477.9000;1.4449;1.6729;
478.2000;1.4432;1.6705;
478.5000;1.4432;1.6681;
478.8000;1.4416;1.6632;
479.1000;1.4440;1.6705;
479.4000;1.4408;1.6657;
479.7000;1.4416;1.6657;
480.0000;1.4408;1.6657;
480.3000;1.4432;1.6681;
480.6000;1.4432;1.6681;
480.9000;1.4416;1.6705;
481.2000;1.4408;1.6632;
481.5000;1.4408;1.6584;
481.8000;1.4424;1.6584;
482.1000;1.4424;1.6584;
482.4000;1.4432;1.6632;
482.7000;1.4400;1.6657;
483.0000;1.4392;1.6657;
483.3000;1.4408;1.6681;
483.6000;1.4408;1.6657;
483.9000;1.4424;1.6802;
484.2000;1.4408;1.6778;
484.5000;1.4416;1.6826;
484.8000;1.4424;1.6802;
485.1000;1.4400;1.6729;
485.4000;1.4416;1.6826;
485.7000;1.4440;1.6875;
486.0000;1.4424;1.6851;
486.3000;1.4416;1.6899;
486.6000;1.4424;1.6899;
486.9000;1.4408;1.6948;
487.2000;1.4432;1.6948;
487.5000;1.4408;1.6826;
487.8000;1.4424;1.6826;
488.1000;1.4432;1.6802;
488.4000;1.4432;1.6754;
488.7000;1.4424;1.6705;
489.0000;1.4375;1.6560;
489.3000;1.4408;1.6632;
489.6000;1.4408;1.6681;
489.9000;1.4416;1.6560;
490.2000;1.4375;1.6438;
490.5000;1.4408;1.6535;
490.8000;1.4432;1.6511;
491.1000;1.4424;1.6511;
491.4000;1.4432;1.6438;
491.7000;1.4432;1.6487;
492.0000;1.4449;1.6487;
492.3000;1.4416;1.6390;
492.6000;1.4416;1.6293;
492.9000;1.4400;1.6414;
493.2000;1.4457;1.6584;
493.5000;1.4375;1.6438;
493.8000;1.4375;1.6487;
494.1000;1.4408;1.6608;
494.4000;1.4416;1.6681;
494.7000;1.4432;1.6754;
495.0000;1.4424;1.6681;
495.3000;1.4408;1.6584;
495.6000;1.4440;1.6608;
495.9000;1.4424;1.6560;
496.2000;1.4432;1.6608;
496.5000;1.4416;1.6535;
496.8000;1.4424;1.6584;
497.1000;1.4416;1.6681;
497.4000;1.4449;1.6705;
497.7000;1.4408;1.6681;
498.0000;1.4408;1.6632;
498.3000;1.4408;1.6584;
498.6000;1.4424;1.6584;
498.9000;1.4416;1.6657;
499.2000;1.4416;1.6681;
499.5000;1.4408;1.6705;
499.8000;1.4416;1.6681;
500.1000;1.4400;1.6657;
500.4000;1.4408;1.6681;
500.7000;1.4408;1.6729;
501.0000;1.4408;1.6826;
501.3000;1.4408;1.6826;
501.6000;1.4408;1.6851;
501.9000;1.4416;1.6875;
502.2000;1.4432;1.6923;
502.5000;1.4432;1.6802;
502.8000;1.4392;1.6681;
503.1000;1.4432;1.6681;
503.4000;1.4424;1.6608;
503.7000;1.4392;1.6560;
504.0000;1.4408;1.6535;
504.3000;1.4432;1.6584;
504.6000;1.4424;1.6535;
504.9000;1.4440;1.6584;
505.2000;1.4416;1.6560;
505.5000;1.4416;1.6608;
505.8000;1.4440;1.6584;
506.1000;1.4432;1.6535;
506.4000;1.4408;1.6584;
506.7000;1.4457;1.6778;
507.0000;1.4489;1.6851;
507.3000;1.4432;1.6705;
507.6000;1.4416;1.6681;
507.9000;1.4408;1.6705;
508.2000;1.4400;1.6705;
508.5000;1.4408;1.6778;
508.8000;1.4367;1.6632;
509.1000;1.4416;1.6705;
509.4000;1.4392;1.6632;
509.7000;1.4432;1.6705;
510.0000;1.4408;1.6608;
510.3000;1.4424;1.6584;
510.6000;1.4416;1.6560;
510.9000;1.4432;1.6584;
511.2000;1.4408;1.6535;
511.5000;1.4400;1.6535;
511.8000;1.4351;1.6608;
512.1000;1.4432;1.6778;
512.4000;1.4424;1.6826;
512.7000;1.4424;1.6681;
513.0000;1.4416;1.6657;
513.3000;1.4416;1.6608;
513.6000;1.4457;1.6754;
513.9000;1.4408;1.6705;
514.2000;1.4424;1.6705;
514.5000;1.4400;1.6729;
514.8000;1.4408;1.6778;
515.1000;1.4424;1.6754;
515.4000;1.4416;1.6657;
515.7000;1.4408;1.6608;
516.0000;1.4416;1.6608;
516.3000;1.4400;1.6632;
516.6000;1.4408;1.6511;
516.9000;1.4416;1.6560;
517.2000;1.4408;1.6560;
517.5000;1.4408;1.6511;
517.8000;1.4400;1.6608;
518.1000;1.4408;1.6681;
518.4000;1.4424;1.6705;
518.7000;1.4416;1.6705;
519.0000;1.4367;1.6632;
519.3000;1.4416;1.6802;
519.6000;1.4400;1.6729;
519.9000;1.4416;1.6705;
520.2000;1.4432;1.6778;
520.5000;1.4416;1.6802;
520.8000;1.4416;1.6729;
521.1000;1.4416;1.6705;
521.4000;1.4416;1.6657;
521.7000;1.4416;1.6632;
522.0000;1.4416;1.6584;
522.3000;1.4424;1.6511;
522.6000;1.4424;1.6632;
522.9000;1.4465;1.6778;
523.2000;1.4408;1.6535;
523.5000;1.4424;1.6511;
523.8000;1.4424;1.6511;
524.1000;1.4424;1.6560;
524.4000;1.4432;1.6560;
524.7000;1.4416;1.6535;
525.0000;1.4424;1.6608;
525.3000;1.4424;1.6657;
525.6000;1.4408;1.6632;
525.9000;1.4408;1.6681;
526.2000;1.4424;1.6705;
526.5000;1.4416;1.6705;
526.8000;1.4400;1.6705;
527.1000;1.4408;1.6705;
527.4000;1.4416;1.6754;
527.7000;1.4416;1.6681;
528.0000;1.4416;1.6705;
528.3000;1.4408;1.6681;
528.6000;1.4424;1.6754;
528.9000;1.4440;1.6802;
529.2000;1.4408;1.6754;
529.5000;1.4383;1.6681;
529.8000;1.4408;1.6754;
530.1000;1.4424;1.6851;
530.4000;1.4408;1.6826;
530.7000;1.4375;1.6681;
531.0000;1.4408;1.6657;
531.3000;1.4408;1.6584;
531.6000;1.4416;1.6560;
531.9000;1.4416;1.6632;
532.2000;1.4408;1.6584;
532.5000;1.4400;1.6535;
532.8000;1.4416;1.6511;
533.1000;1.4416;1.6608;
533.4000;1.4416;1.6608;
533.7000;1.4440;1.6608;
534.0000;1.4408;1.6560;
534.3000;1.4408;1.6560;
534.6000;1.4416;1.6511;
534.9000;1.4400;1.6535;
535.2000;1.4424;1.6560;
535.5000;1.4416;1.6560;
535.8000;1.4416;1.6584;
536.1000;1.4400;1.6608;
536.4000;1.4408;1.6608;
536.7000;1.4416;1.6560;
537.0000;1.4400;1.6584;
537.3000;1.4400;1.6608;
537.6000;1.4416;1.6657;
537.9000;1.4416;1.6657;
538.2000;1.4400;1.6608;
538.5000;1.4392;1.6681;
538.8000;1.4408;1.6681;
539.1000;1.4424;1.6729;
539.4000;1.4440;1.6778;
539.7000;1.4408;1.6705;
540.0000;1.4416;1.6632;
540.3000;1.4400;1.6657;
540.6000;1.4400;1.6754;
540.9000;1.4383;1.6705;
541.2000;1.4416;1.6705;
541.5000;1.4367;1.6584;
541.8000;1.4432;1.6705;
542.1000;1.4392;1.6632;
542.4000;1.4400;1.6584;
542.7000;1.4416;1.6632;
543.0000;1.4408;1.6681;
543.3000;1.4400;1.6754;
543.6000;1.4408;1.6778;
543.9000;1.4400;1.6778;
544.2000;1.4449;1.6972;
544.5000;1.4424;1.6923;
544.8000;1.4424;1.6899;
545.1000;1.4408;1.6851;
545.4000;1.4408;1.6875;
545.7000;1.4424;1.6851;
546.0000;1.4408;1.6826;
546.3000;1.4465;1.6948;
546.6000;1.4408;1.6826;
546.9000;1.4473;1.6899;
547.2000;1.4392;1.6657;
547.5000;1.4408;1.6560;
547.8000;1.4408;1.6584;
548.1000;1.4400;1.6584;
548.4000;1.4375;1.6535;
548.7000;1.4392;1.6681;
549.0000;1.4408;1.6657;
549.3000;1.4432;1.6729;
549.6000;1.4432;1.6754;
549.9000;1.4432;1.6729;
550.2000;1.4416;1.6608;
550.5000;1.4408;1.6511;
550.8000;1.4416;1.6438;
551.1000;1.4424;1.6463;
551.4000;1.4400;1.6511;
551.7000;1.4367;1.6390;
552.0000;1.4424;1.6535;
552.3000;1.4424;1.6511;
552.6000;1.4408;1.6487;
552.9000;1.4424;1.6560;
553.2000;1.4408;1.6535;
553.5000;1.4392;1.6560;
553.8000;1.4367;1.6535;
554.1000;1.4400;1.6608;
554.4000;1.4432;1.6657;
554.7000;1.4351;1.6535;
555.0000;1.4473;1.6826;
555.3000;1.4416;1.6754;
555.6000;1.4408;1.6826;
555.9000;1.4416;1.6826;
556.2000;1.4408;1.6729;
556.5000;1.4375;1.6632;
556.8000;1.4392;1.6729;
557.1000;1.4359;1.6657;
557.4000;1.4400;1.6681;
557.7000;1.4400;1.6608;
558.0000;1.4400;1.6608;
558.3000;1.4400;1.6729;
558.6000;1.4408;1.6802;
558.9000;1.4400;1.6754;
559.2000;1.4392;1.6729;
559.5000;1.4416;1.6802;
559.8000;1.4432;1.6826;
560.1000;1.4440;1.6875;
560.4000;1.4432;1.6851;
560.7000;1.4416;1.6826;
561.0000;1.4416;1.6802;
561.3000;1.4408;1.6802;
561.6000;1.4408;1.6754;
561.9000;1.4416;1.6729;
562.2000;1.4400;1.6608;
562.5000;1.4400;1.6584;
562.8000;1.4400;1.6560;
563.1000;1.4375;1.6632;
563.4000;1.4400;1.6632;
563.7000;1.4416;1.6657;
564.0000;1.4408;1.6632;
564.3000;1.4416;1.6657;
564.6000;1.4408;1.6705;
564.9000;1.4424;1.6754;
565.2000;1.4408;1.6754;
565.5000;1.4408;1.6754;
565.8000;1.4408;1.6657;
566.1000;1.4400;1.6681;
566.4000;1.4392;1.6632;
566.7000;1.4400;1.6657;
567.0000;1.4392;1.6705;
567.3000;1.4408;1.6681;
567.6000;1.4392;1.6657;
567.9000;1.4400;1.6657;
568.2000;1.4367;1.6584;
568.5000;1.4424;1.6729;
568.8000;1.4383;1.6681;
569.1000;1.4400;1.6754;
569.4000;1.4416;1.6729;
569.7000;1.4424;1.6754;
570.0000;1.4400;1.6778;
570.3000;1.4383;1.6729;
570.6000;1.4424;1.6754;
570.9000;1.4400;1.6754;
571.2000;1.4408;1.6754;
571.5000;1.4408;1.6705;
571.8000;1.4400;1.6681;
572.1000;1.4416;1.6754;
572.4000;1.4400;1.6778;
572.7000;1.4465;1.6972;
573.0000;1.4408;1.6899;
573.3000;1.4416;1.6875;
573.6000;1.4424;1.6948;
573.9000;1.4432;1.6972;
574.2000;1.4408;1.6851;
574.5000;1.4392;1.6802;
574.8000;1.4416;1.6802;
575.1000;1.4449;1.6802;
575.4000;1.4416;1.6778;
575.7000;1.4424;1.6826;
576.0000;1.4432;1.6826;
576.3000;1.4416;1.6826;
576.6000;1.4408;1.6802;
576.9000;1.4416;1.6778;
577.2000;1.4400;1.6754;
577.5000;1.4416;1.6802;
577.8000;1.4400;1.6754;
578.1000;1.4408;1.6729;
578.4000;1.4400;1.6729;
578.7000;1.4392;1.6754;
579.0000;1.4416;1.6826;
579.3000;1.4400;1.6826;
579.6000;1.4400;1.6754;
579.9000;1.4408;1.6754;
580.2000;1.4424;1.6729;
580.5000;1.4424;1.6778;
580.8000;1.4400;1.6826;
581.1000;1.4400;1.6802;
581.4000;1.4408;1.6778;
581.7000;1.4416;1.6729;
582.0000;1.4400;1.6729;
582.3000;1.4400;1.6681;
582.6000;1.4408;1.6729;
582.9000;1.4408;1.6875;
583.2000;1.4400;1.6778;
583.5000;1.4408;1.6778;
583.8000;1.4408;1.6826;
584.1000;1.4400;1.6705;
584.4000;1.4400;1.6729;
584.7000;1.4400;1.6705;
585.0000;1.4408;1.6657;
585.3000;1.4424;1.6681;
585.6000;1.4400;1.6584;
585.9000;1.4416;1.6754;
586.2000;1.4392;1.6681;
586.5000;1.4408;1.6729;
586.8000;1.4408;1.6705;
587.1000;1.4400;1.6632;
587.4000;1.4383;1.6584;
587.7000;1.4392;1.6608;
588.0000;1.4383;1.6657;
588.3000;1.4383;1.6681;
588.6000;1.4400;1.6608;
588.9000;1.4383;1.6560;
589.2000;1.4400;1.6608;
589.5000;1.4392;1.6608;
589.8000;1.4375;1.6608;
590.1000;1.4383;1.6705;
590.4000;1.4383;1.6754;
590.7000;1.4383;1.6705;
591.0000;1.4383;1.6632;
591.3000;1.4400;1.6584;
591.6000;1.4392;1.6632;
591.9000;1.4400;1.6681;
592.2000;1.4400;1.6705;
592.5000;1.4408;1.6632;
592.8000;1.4408;1.6632;
593.1000;1.4408;1.6535;
593.4000;1.4400;1.6535;
593.7000;1.4392;1.6657;
594.0000;1.4400;1.6681;
594.3000;1.4408;1.6729;
594.6000;1.4408;1.6632;
594.9000;1.4416;1.6584;
595.2000;1.4416;1.6535;
595.5000;1.4408;1.6584;
595.8000;1.4400;1.6560;
596.1000;1.4408;1.6560;
596.4000;1.4392;1.6560;
596.7000;1.4424;1.6560;
597.0000;1.4424;1.6584;
597.3000;1.4408;1.6535;
597.6000;1.4416;1.6608;
597.9000;1.4424;1.6632;
598.2000;1.4416;1.6608;
598.5000;1.4400;1.6535;
598.8000;1.4392;1.6608;
599.1000;1.4335;1.6463;
599.4000;1.4408;1.6754;
599.7000;1.4408;1.6851;
600.0000;1.4359;1.6778;
600.3000;1.4400;1.6705;
600.6000;1.4392;1.6535;
600.9000;1.4310;1.6438;
601.2000;1.4196;1.6245;
601.5000;1.4058;1.6002;
601.8000;1.3944;1.5881;
602.1000;1.3862;1.5784;
602.4000;1.3667;1.5517;
602.7000;1.3545;1.5299;
603.0000;1.3407;1.5081;
603.3000;1.3317;1.4960;
603.6000;1.3187;1.4790;
603.9000;1.3065;1.4693;
604.2000;1.2991;1.4669;
604.5000;1.2902;1.4596;
604.8000;1.2788;1.4426;
605.1000;1.2707;1.4305;
605.4000;1.2609;1.4159;
605.7000;1.2544;1.4159;
606.0000;1.2503;1.4208;
606.3000;1.2357;1.3990;
606.6000;1.2324;1.4014;
606.9000;1.2169;1.3747;
607.2000;1.2177;1.3844;
607.5000;1.2096;1.3674;
607.8000;1.1958;1.3432;
608.1000;1.1958;1.3529;
608.4000;1.1884;1.3432;
608.7000;1.1795;1.3335;
609.0000;1.1746;1.3384;
609.3000;1.1673;1.3359;
609.6000;1.1632;1.3456;
609.9000;1.1543;1.3335;
610.2000;1.1494;1.3359;
610.5000;1.1412;1.3311;
610.8000;1.1388;1.3311;
611.1000;1.1339;1.3335;
611.4000;1.1258;1.3262;
611.7000;1.1282;1.3432;
612.0000;1.1168;1.3214;
612.3000;1.1127;1.3165;
612.6000;1.1013;1.2971;
612.9000;1.1013;1.3020;
613.2000;1.0973;1.3044;
613.5000;1.0924;1.2996;
613.8000;1.0891;1.2996;
614.1000;1.0826;1.2874;
614.4000;1.0794;1.2826;
614.7000;1.0745;1.2923;
615.0000;1.0712;1.2826;
615.3000;1.0647;1.2753;
615.6000;1.0623;1.2826;
615.9000;1.0582;1.2874;
616.2000;1.0541;1.2826;
616.5000;1.0492;1.2802;
616.8000;1.0452;1.2753;
617.1000;1.0419;1.2729;
617.4000;1.0403;1.2680;
617.7000;1.0354;1.2583;
618.0000;1.0313;1.2559;
618.3000;1.0273;1.2632;
618.6000;1.0248;1.2559;
618.9000;1.0199;1.2486;
619.2000;1.0151;1.2414;
619.5000;1.0142;1.2559;
619.8000;1.0102;1.2511;
620.1000;1.0061;1.2535;
620.4000;1.0020;1.2535;
620.7000;0.9996;1.2486;
621.0000;0.9955;1.2535;
621.3000;0.9931;1.2486;
621.6000;0.9898;1.2438;
621.9000;0.9882;1.2462;
622.2000;0.9858;1.2486;
622.5000;0.9817;1.2438;
622.8000;0.9768;1.2244;
623.1000;0.9776;1.2244;
623.4000;0.9727;1.2292;
623.7000;0.9703;1.2292;
624.0000;0.9670;1.2317;
624.3000;0.9638;1.2341;
624.6000;0.9613;1.2292;
624.9000;0.9597;1.2365;
625.2000;0.9565;1.2365;
625.5000;0.9508;1.2268;
625.8000;0.9516;1.2365;
626.1000;0.9475;1.2220;
626.4000;0.9491;1.2268;
626.7000;0.9451;1.2147;
627.0000;0.9418;1.2074;
627.3000;0.9394;1.2050;
627.6000;0.9402;1.2123;
627.9000;0.9345;1.2074;
628.2000;0.9296;1.2002;
628.5000;0.9320;1.2074;
628.8000;0.9280;1.1953;
629.1000;0.9247;1.2002;
629.4000;0.9223;1.1929;
629.7000;0.9206;1.1905;
630.0000;0.9214;1.1977;
630.3000;0.9149;1.1880;
630.6000;0.9133;1.1977;
630.9000;0.9125;1.1953;
631.2000;0.9109;1.2002;
631.5000;0.9076;1.1929;
631.8000;0.9068;1.1953;
632.1000;0.9052;1.2050;
632.4000;0.9044;1.2050;
632.7000;0.8987;1.1953;
633.0000;0.9003;1.1953;
633.3000;0.8938;1.1735;
633.6000;0.8954;1.1856;
633.9000;0.8946;1.1880;
634.2000;0.8913;1.1856;
634.5000;0.8873;1.1856;
634.8000;0.8889;1.1880;
635.1000;0.8881;1.1929;
635.4000;0.8848;1.2002;
635.7000;0.8848;1.2002;
636.0000;0.8824;1.2026;
636.3000;0.8807;1.2002;
636.6000;0.8807;1.1977;
636.9000;0.8799;1.2050;
637.2000;0.8759;1.2050;
637.5000;0.8751;1.2050;
637.8000;0.8726;1.2002;
638.1000;0.8734;1.2099;
638.4000;0.8702;1.2074;
638.7000;0.8694;1.2050;
639.0000;0.8677;1.2050;
639.3000;0.8661;1.2002;
639.6000;0.8653;1.1905;
639.9000;0.8645;1.1953;
640.2000;0.8628;1.1977;
640.5000;0.8604;1.1905;
640.8000;0.8604;1.1856;
641.1000;0.8596;1.1880;
641.4000;0.8637;1.1953;
641.7000;0.8571;1.1880;
642.0000;0.8547;1.1905;
642.3000;0.8531;1.2026;
642.6000;0.8531;1.2026;
642.9000;0.8514;1.1953;
643.2000;0.8490;1.1856;
643.5000;0.8482;1.1808;
643.8000;0.8433;1.1662;
644.1000;0.8490;1.1808;
644.4000;0.8457;1.1686;
644.7000;0.8506;1.1759;
645.0000;0.8441;1.1614;
645.3000;0.8433;1.1711;
645.6000;0.8400;1.1614;
645.9000;0.8400;1.1638;
646.2000;0.8384;1.1662;
646.5000;0.8384;1.1735;
646.8000;0.8376;1.1735;
647.1000;0.8278;1.1492;
647.4000;0.8344;1.1541;
647.7000;0.8335;1.1541;
648.0000;0.8368;1.1686;
648.3000;0.8295;1.1541;
648.6000;0.8295;1.1468;
648.9000;0.8295;1.1492;
649.2000;0.8221;1.1395;
649.5000;0.8287;1.1662;
649.8000;0.8262;1.1638;
650.1000;0.8246;1.1686;
650.4000;0.8262;1.1759;
650.7000;0.8262;1.1711;
651.0000;0.8213;1.1686;
651.3000;0.8197;1.1589;
651.6000;0.8213;1.1638;
651.9000;0.8213;1.1686;
652.2000;0.8197;1.1759;
652.5000;0.8189;1.1735;
652.8000;0.8181;1.1711;
653.1000;0.8164;1.1711;
653.4000;0.8140;1.1711;
653.7000;0.8148;1.1686;
654.0000;0.8132;1.1662;
654.3000;0.8116;1.1711;
654.6000;0.8116;1.1686;
654.9000;0.8107;1.1662;
655.2000;0.8091;1.1614;
655.5000;0.8116;1.1711;
655.8000;0.8091;1.1735;
656.1000;0.8067;1.1662;
656.4000;0.8132;1.1856;
656.7000;0.8059;1.1686;
657.0000;0.8050;1.1638;
657.3000;0.8034;1.1638;
657.6000;0.8026;1.1686;
657.9000;0.8026;1.1711;
658.2000;0.8010;1.1759;
658.5000;0.8010;1.1856;
658.8000;0.7993;1.1783;
659.1000;0.7993;1.1735;
659.4000;0.7985;1.1614;
659.7000;0.7985;1.1589;
660.0000;0.7961;1.1541;
660.3000;0.7961;1.1565;
660.6000;0.7961;1.1565;
660.9000;0.7953;1.1517;
661.2000;0.7969;1.1735;
661.5000;0.7953;1.1662;
661.8000;0.7920;1.1565;
662.1000;0.7945;1.1686;
662.4000;0.7937;1.1735;
662.7000;0.7912;1.1662;
663.0000;0.7912;1.1686;
663.3000;0.7920;1.1735;
663.6000;0.7896;1.1638;
663.9000;0.7896;1.1565;
664.2000;0.7928;1.1638;
664.5000;0.7855;1.1468;
664.8000;0.7863;1.1395;
665.1000;0.7847;1.1395;
665.4000;0.7855;1.1395;
665.7000;0.7871;1.1420;
666.0000;0.7847;1.1347;
666.3000;0.7839;1.1250;
666.6000;0.7823;1.1274;
666.9000;0.7839;1.1395;
667.2000;0.7823;1.1420;
667.5000;0.7823;1.1492;
667.8000;0.7823;1.1468;
668.1000;0.7766;1.1250;
668.4000;0.7814;1.1298;
668.7000;0.7806;1.1250;
669.0000;0.7766;1.1250;
669.3000;0.7814;1.1444;
669.6000;0.7774;1.1395;
669.9000;0.7782;1.1420;
670.2000;0.7757;1.1420;
670.5000;0.7741;1.1371;
670.8000;0.7749;1.1541;
671.1000;0.7757;1.1614;
671.4000;0.7725;1.1614;
671.7000;0.7733;1.1686;
672.0000;0.7741;1.1735;
672.3000;0.7717;1.1759;
672.6000;0.7700;1.1735;
672.9000;0.7709;1.1783;
673.2000;0.7709;1.1856;
673.5000;0.7700;1.1856;
673.8000;0.7709;1.1832;
674.1000;0.7676;1.1759;
674.4000;0.7668;1.1711;
674.7000;0.7692;1.1735;
675.0000;0.7660;1.1686;
675.3000;0.7660;1.1638;
675.6000;0.7643;1.1686;
675.9000;0.7700;1.1735;
676.2000;0.7668;1.1638;
676.5000;0.7652;1.1614;
676.8000;0.7660;1.1735;
677.1000;0.7643;1.1711;
677.4000;0.7643;1.1614;
677.7000;0.7652;1.1589;
678.0000;0.7611;1.1492;
678.3000;0.7643;1.1662;
678.6000;0.7619;1.1614;
678.9000;0.7619;1.1638;
679.2000;0.7611;1.1638;
679.5000;0.7627;1.1735;
679.8000;0.7578;1.1686;
680.1000;0.7570;1.1638;
680.4000;0.7578;1.1614;
680.7000;0.7570;1.1686;
681.0000;0.7554;1.1662;
681.3000;0.7578;1.1686;
681.6000;0.7554;1.1638;
681.9000;0.7513;1.1444;
682.2000;0.7562;1.1614;
682.5000;0.7562;1.1565;
682.8000;0.7546;1.1468;
683.1000;0.7530;1.1517;
683.4000;0.7521;1.1371;
683.7000;0.7546;1.1517;
684.0000;0.7530;1.1420;
684.3000;0.7562;1.1541;
684.6000;0.7521;1.1492;
684.9000;0.7530;1.1468;
685.2000;0.7521;1.1468;
685.5000;0.7505;1.1444;
685.8000;0.7464;1.1274;
686.1000;0.7505;1.1468;
686.4000;0.7513;1.1492;
686.7000;0.7513;1.1517;
687.0000;0.7497;1.1638;
687.3000;0.7505;1.1614;
687.6000;0.7497;1.1638;
687.9000;0.7473;1.1517;
688.2000;0.7481;1.1517;
688.5000;0.7464;1.1517;
688.8000;0.7473;1.1468;
689.1000;0.7448;1.1444;
689.4000;0.7489;1.1492;
689.7000;0.7456;1.1420;
690.0000;0.7448;1.1420;
690.3000;0.7456;1.1492;
690.6000;0.7456;1.1492;
690.9000;0.7448;1.1492;
691.2000;0.7456;1.1492;
691.5000;0.7432;1.1492;
691.8000;0.7432;1.1420;
692.1000;0.7448;1.1517;
692.4000;0.7440;1.1541;
692.7000;0.7440;1.1468;
693.0000;0.7473;1.1565;
693.3000;0.7432;1.1468;
693.6000;0.7391;1.1395;
693.9000;0.7432;1.1371;
694.2000;0.7416;1.1347;
694.5000;0.7407;1.1298;
694.8000;0.7399;1.1347;
695.1000;0.7416;1.1371;
695.4000;0.7407;1.1274;
695.7000;0.7375;1.1201;
696.0000;0.7391;1.1298;
696.3000;0.7383;1.1250;
696.6000;0.7367;1.1250;
696.9000;0.7399;1.1347;
697.2000;0.7359;1.1250;
697.5000;0.7375;1.1298;
697.8000;0.7334;1.1250;
698.1000;0.7359;1.1298;
698.4000;0.7359;1.1298;
698.7000;0.7367;1.1371;
699.0000;0.7367;1.1420;
699.3000;0.7350;1.1420;
699.6000;0.7334;1.1395;
699.9000;0.7318;1.1395;
700.2000;0.7375;1.1517;
700.5000;0.7350;1.1444;
700.8000;0.7310;1.1371;
701.1000;0.7342;1.1468;
701.4000;0.7334;1.1444;
701.7000;0.7318;1.1395;
702.0000;0.7367;1.1589;
702.3000;0.7326;1.1444;
702.6000;0.7367;1.1614;
702.9000;0.7375;1.1614;
703.2000;0.7318;1.1565;
703.5000;0.7310;1.1492;
703.8000;0.7318;1.1517;
704.1000;0.7326;1.1492;
704.4000;0.7318;1.1517;
704.7000;0.7293;1.1492;
705.0000;0.7253;1.1298;
705.3000;0.7367;1.1541;
705.6000;0.7285;1.1420;
705.9000;0.7293;1.1492;
706.2000;0.7302;1.1517;
706.5000;0.7236;1.1468;
706.8000;0.7277;1.1614;
707.1000;0.7285;1.1638;
707.4000;0.7277;1.1589;
707.7000;0.7261;1.1541;
708.0000;0.7261;1.1565;
708.3000;0.7261;1.1541;
708.6000;0.7236;1.1468;
708.9000;0.7245;1.1492;
709.2000;0.7277;1.1541;
709.5000;0.7269;1.1468;
709.8000;0.7269;1.1492;
710.1000;0.7261;1.1565;
710.4000;0.7261;1.1589;
710.7000;0.7253;1.1638;
711.0000;0.7236;1.1565;
711.3000;0.7245;1.1541;
711.6000;0.7253;1.1614;
711.9000;0.7253;1.1662;
712.2000;0.7228;1.1565;
712.5000;0.7236;1.1614;
712.8000;0.7220;1.1638;
713.1000;0.7261;1.1638;
713.4000;0.7220;1.1589;
713.7000;0.7228;1.1565;
714.0000;0.7245;1.1662;
714.3000;0.7228;1.1711;
714.6000;0.7228;1.1638;
714.9000;0.7188;1.1517;
715.2000;0.7196;1.1492;
715.5000;0.7220;1.1565;
715.8000;0.7212;1.1589;
716.1000;0.7212;1.1565;
716.4000;0.7212;1.1541;
716.7000;0.7204;1.1444;
717.0000;0.7212;1.1444;
717.3000;0.7196;1.1395;
717.6000;0.7228;1.1541;
717.9000;0.7196;1.1492;
718.2000;0.7147;1.1395;
718.5000;0.7196;1.1517;
718.8000;0.7204;1.1492;
719.1000;0.7163;1.1395;
719.4000;0.7196;1.1468;
719.7000;0.7171;1.1420;
720.0000;0.7163;1.1420;
720.3000;0.7179;1.1492;
720.6000;0.7171;1.1444;
720.9000;0.7188;1.1420;
721.2000;0.7163;1.1371;
721.5000;0.7155;1.1492;
721.8000;0.7163;1.1420;
722.1000;0.7163;1.1420;
722.4000;0.7147;1.1371;
722.7000;0.7147;1.1395;
723.0000;0.7188;1.1420;
723.3000;0.7123;1.1347;
723.6000;0.7147;1.1420;
723.9000;0.7188;1.1468;
724.2000;0.7163;1.1468;
724.5000;0.7163;1.1492;
724.8000;0.7163;1.1517;
725.1000;0.7131;1.1420;
725.4000;0.7155;1.1444;
725.7000;0.7188;1.1492;
726.0000;0.7123;1.1371;
726.3000;0.7155;1.1541;
726.6000;0.7179;1.1614;
726.9000;0.7171;1.1662;
727.2000;0.7131;1.1492;
727.5000;0.7123;1.1492;
727.8000;0.7131;1.1517;
728.1000;0.7114;1.1420;
728.4000;0.7106;1.1444;
728.7000;0.7131;1.1468;
729.0000;0.7114;1.1517;
729.3000;0.7123;1.1517;
729.6000;0.7123;1.1492;
729.9000;0.7106;1.1444;
730.2000;0.7106;1.1395;
730.5000;0.7106;1.1444;
730.8000;0.7106;1.1468;
731.1000;0.7106;1.1517;
731.4000;0.7098;1.1444;
731.7000;0.7098;1.1468;
732.0000;0.7106;1.1541;
732.3000;0.7114;1.1492;
732.6000;0.7082;1.1468;
732.9000;0.7090;1.1468;
733.2000;0.7131;1.1565;
733.5000;0.7090;1.1468;
733.8000;0.7123;1.1638;
734.1000;0.7082;1.1589;
734.4000;0.7098;1.1686;
734.7000;0.7090;1.1662;
735.0000;0.7106;1.1614;
735.3000;0.7082;1.1541;
735.6000;0.7074;1.1565;
735.9000;0.7082;1.1565;
736.2000;0.7074;1.1565;
736.5000;0.7082;1.1614;
736.8000;0.7082;1.1565;
737.1000;0.7090;1.1614;
737.4000;0.7074;1.1541;
737.7000;0.7074;1.1589;
738.0000;0.7082;1.1565;
738.3000;0.7057;1.1565;
738.6000;0.7074;1.1589;
738.9000;0.7025;1.1444;
739.2000;0.7041;1.1492;
739.5000;0.7082;1.1565;
739.8000;0.7066;1.1468;
740.1000;0.7074;1.1517;
740.4000;0.7066;1.1565;
740.7000;0.7033;1.1492;
741.0000;0.7057;1.1662;
741.3000;0.7041;1.1614;
741.6000;0.7049;1.1541;
741.9000;0.7049;1.1492;
742.2000;0.7106;1.1662;
742.5000;0.7033;1.1517;
742.8000;0.7033;1.1589;
743.1000;0.7041;1.1589;
743.4000;0.7041;1.1614;
743.7000;0.7049;1.1662;
744.0000;0.7041;1.1662;
744.3000;0.7033;1.1614;
744.6000;0.7033;1.1638;
744.9000;0.7033;1.1662;
745.2000;0.7041;1.1638;
745.5000;0.7025;1.1517;
745.8000;0.7033;1.1614;
746.1000;0.7090;1.1711;
746.4000;0.7033;1.1614;
746.7000;0.7033;1.1589;
747.0000;0.7017;1.1735;
747.3000;0.7009;1.1711;
747.6000;0.7009;1.1711;
747.9000;0.7017;1.1711;
748.2000;0.7000;1.1541;
748.5000;0.7017;1.1565;
748.8000;0.7017;1.1638;
749.1000;0.7025;1.1614;
749.4000;0.7017;1.1565;
749.7000;0.7017;1.1638;
750.0000;0.7033;1.1686;
750.3000;0.7017;1.1638;
750.6000;0.7009;1.1589;
750.9000;0.7009;1.1565;
751.2000;0.6992;1.1614;
751.5000;0.6984;1.1517;
751.8000;0.7000;1.1589;
752.1000;0.6992;1.1662;
752.4000;0.6960;1.1565;
752.7000;0.6992;1.1662;
753.0000;0.7000;1.1686;
753.3000;0.7009;1.1832;
753.6000;0.6976;1.1856;
753.9000;0.6984;1.1880;
754.2000;0.6943;1.1735;
754.5000;0.6976;1.1929;
754.8000;0.6968;1.1880;
755.1000;0.6984;1.1880;
755.4000;0.6984;1.1905;
755.7000;0.6976;1.1929;
756.0000;0.6976;1.1977;
756.3000;0.7000;1.2099;
756.6000;0.6984;1.1977;
756.9000;0.6984;1.1929;
757.2000;0.6968;1.1905;
757.5000;0.6976;1.1953;
757.8000;0.6976;1.1929;
758.1000;0.6960;1.1832;
758.4000;0.6960;1.1735;
758.7000;0.6992;1.1856;
759.0000;0.6968;1.1808;
759.3000;0.6992;1.1929;
759.6000;0.6984;1.1953;
759.9000;0.6992;1.2002;
760.2000;0.6984;1.2074;
760.5000;0.6952;1.2002;
760.8000;0.6960;1.1905;
761.1000;0.6960;1.1929;
761.4000;0.6952;1.1905;
761.7000;0.6984;1.1856;
762.0000;0.6976;1.1880;
762.3000;0.6952;1.1686;
762.6000;0.6935;1.1589;
762.9000;0.6960;1.1638;
763.2000;0.6960;1.1565;
763.5000;0.6895;1.1347;
763.8000;0.6960;1.1517;
764.1000;0.6960;1.1589;
764.4000;0.6935;1.1614;
764.7000;0.6943;1.1638;
765.0000;0.6911;1.1468;
765.3000;0.6960;1.1565;
765.6000;0.7000;1.1711;
765.9000;0.6952;1.1565;
766.2000;0.6960;1.1565;
766.5000;0.6870;1.1395;
766.8000;0.6960;1.1711;
767.1000;0.6943;1.1686;
767.4000;0.6935;1.1662;
767.7000;0.6935;1.1759;
768.0000;0.6935;1.1905;
768.3000;0.6927;1.1977;
768.6000;0.6927;1.2050;
768.9000;0.6935;1.2002;
769.2000;0.6935;1.1856;
769.5000;0.6943;1.1856;
769.8000;0.6935;1.1832;
770.1000;0.6927;1.1735;
770.4000;0.6935;1.1759;
770.7000;0.6943;1.1735;
771.0000;0.6935;1.1735;
771.3000;0.6927;1.1735;
771.6000;0.6943;1.1686;
771.9000;0.6903;1.1662;
772.2000;0.6927;1.1783;
772.5000;0.6911;1.1759;
772.8000;0.6911;1.1711;
773.1000;0.6927;1.1856;
773.4000;0.6911;1.1856;
773.7000;0.6903;1.1832;
774.0000;0.6919;1.1808;
774.3000;0.6911;1.1808;
774.6000;0.6927;1.1735;
774.9000;0.6919;1.1638;
775.2000;0.6886;1.1565;
775.5000;0.6927;1.1735;
775.8000;0.6911;1.1735;
776.1000;0.6919;1.1614;
776.4000;0.6911;1.1589;
776.7000;0.6911;1.1565;
777.0000;0.6911;1.1662;
777.3000;0.6927;1.1735;
777.6000;0.6886;1.1759;
777.9000;0.6846;1.1589;
778.2000;0.6911;1.1759;
778.5000;0.6903;1.1783;
778.8000;0.6886;1.1832;
779.1000;0.6878;1.1880;
779.4000;0.6903;1.1953;
779.7000;0.6903;1.1977;
780.0000;0.6878;1.2002;
780.3000;0.6862;1.2002;
780.6000;0.6886;1.2050;
780.9000;0.6878;1.2002;
781.2000;0.6895;1.1905;
781.5000;0.6878;1.1905;
781.8000;0.6886;1.1929;
782.1000;0.6870;1.1905;
782.4000;0.6878;1.1832;
782.7000;0.6895;1.1880;
783.0000;0.6895;1.1929;
783.3000;0.6895;1.1880;
783.6000;0.6878;1.1832;
783.9000;0.6878;1.1880;
784.2000;0.6854;1.1832;
784.5000;0.6862;1.1832;
784.8000;0.6886;1.1905;
785.1000;0.6870;1.1880;
785.4000;0.6870;1.1856;
785.7000;0.6895;1.1832;
786.0000;0.6870;1.1711;
786.3000;0.6862;1.1711;
786.6000;0.6878;1.1711;
786.9000;0.6870;1.1759;
787.2000;0.6886;1.1808;
787.5000;0.6878;1.1808;
787.8000;0.6870;1.1905;
788.1000;0.6862;1.1929;
788.4000;0.6886;1.1953;
788.7000;0.6838;1.1856;
789.0000;0.6870;1.1880;
789.3000;0.6878;1.1856;
789.6000;0.6870;1.1856;
789.9000;0.6862;1.1808;
790.2000;0.6862;1.1808;
790.5000;0.6854;1.1808;
790.8000;0.6870;1.1808;
791.1000;0.6878;1.1832;
791.4000;0.6854;1.1808;
791.7000;0.6846;1.1808;
792.0000;0.6846;1.1832;
792.3000;0.6870;1.1856;
792.6000;0.6838;1.1808;
792.9000;0.6895;1.1929;
793.2000;0.6846;1.1808;
793.5000;0.6854;1.1929;
793.8000;0.6854;1.2026;
794.1000;0.6886;1.2026;
794.4000;0.6870;1.1953;
794.7000;0.6870;1.1880;
795.0000;0.6862;1.1905;
795.3000;0.6854;1.1953;
795.6000;0.6846;1.2002;
795.9000;0.6862;1.2074;
796.2000;0.6797;1.1856;
796.5000;0.6862;1.1953;
796.8000;0.6854;1.1929;
797.1000;0.6870;1.1929;
797.4000;0.6862;1.1856;
797.7000;0.6854;1.1929;
798.0000;0.6821;1.1856;
798.3000;0.6846;1.1856;
798.6000;0.6846;1.1856;
798.9000;0.6772;1.1735;
799.2000;0.6821;1.1929;
799.5000;0.6838;1.2002;
799.8000;0.6862;1.2074;
800.1000;0.6846;1.2026;
800.4000;0.6838;1.1953;
800.7000;0.6821;1.1856;
801.0000;0.6846;1.1929;
801.3000;0.6838;1.1977;
801.6000;0.6797;1.1880;
801.9000;0.6764;1.1832;
802.2000;0.6838;1.1977;
802.5000;0.6846;1.1977;
802.8000;0.6789;1.1832;
803.1000;0.6797;1.1759;
803.4000;0.6821;1.1735;
803.7000;0.6838;1.1711;
804.0000;0.6895;1.1905;
804.3000;0.6838;1.1711;
804.6000;0.6846;1.1808;
804.9000;0.6838;1.1832;
805.2000;0.6838;1.1905;
805.5000;0.6838;1.1880;
805.8000;0.6838;1.1832;
806.1000;0.6829;1.1808;
806.4000;0.6846;1.1880;
806.7000;0.6838;1.1905;
807.0000;0.6805;1.1880;
807.3000;0.6829;1.1929;
807.6000;0.6821;1.1953;
807.9000;0.6821;1.1977;
808.2000;0.6821;1.2002;
808.5000;0.6797;1.1977;
808.8000;0.6813;1.2099;
809.1000;0.6821;1.2123;
809.4000;0.6813;1.2123;
809.7000;0.6797;1.2074;
810.0000;0.6813;1.2026;
810.3000;0.6813;1.2074;
810.6000;0.6805;1.1977;
810.9000;0.6821;1.2002;
811.2000;0.6797;1.1953;
811.5000;0.6805;1.1977;
811.8000;0.6829;1.2050;
812.1000;0.6797;1.2002;
812.4000;0.6797;1.1977;
812.7000;0.6829;1.2074;
813.0000;0.6813;1.2074;
813.3000;0.6805;1.1977;
813.6000;0.6789;1.1905;
813.9000;0.6838;1.1953;
814.2000;0.6789;1.1880;
814.5000;0.6805;1.1905;
814.8000;0.6797;1.1880;
815.1000;0.6756;1.1832;
815.4000;0.6789;1.1953;
815.7000;0.6797;1.2026;
816.0000;0.6805;1.2099;
816.3000;0.6813;1.2171;
816.6000;0.6813;1.2099;
816.9000;0.6797;1.2050;
817.2000;0.6789;1.2002;
817.5000;0.6813;1.2074;
817.8000;0.6797;1.2050;
818.1000;0.6756;1.1905;
818.4000;0.6789;1.1953;
818.7000;0.6805;1.1929;
819.0000;0.6805;1.2026;
819.3000;0.6748;1.1856;
819.6000;0.6797;1.1953;
819.9000;0.6797;1.1929;
820.2000;0.6789;1.1856;
820.5000;0.6805;1.1856;
820.8000;0.6789;1.1856;
821.1000;0.6781;1.1783;
821.4000;0.6797;1.1808;
821.7000;0.6805;1.1832;
822.0000;0.6789;1.1905;
822.3000;0.6781;1.1929;
822.6000;0.6789;1.1977;
822.9000;0.6797;1.1977;
823.2000;0.6781;1.1905;
823.5000;0.6781;1.1977;
823.8000;0.6781;1.1929;
824.1000;0.6789;1.1953;
824.4000;0.6813;1.2002;
824.7000;0.6781;1.1856;
825.0000;0.6789;1.1783;
825.3000;0.6789;1.1711;
825.6000;0.6789;1.1711;
825.9000;0.6797;1.1638;
826.2000;0.6781;1.1638;
826.5000;0.6781;1.1735;
826.8000;0.6740;1.1686;
827.1000;0.6789;1.1832;
827.4000;0.6781;1.1735;
827.7000;0.6789;1.1711;
828.0000;0.6789;1.1662;
828.3000;0.6805;1.1686;
828.6000;0.6789;1.1662;
828.9000;0.6789;1.1614;
829.2000;0.6797;1.1686;
829.5000;0.6789;1.1711;
829.8000;0.6764;1.1686;
830.1000;0.6772;1.1735;
830.4000;0.6789;1.1783;
830.7000;0.6781;1.1856;
831.0000;0.6772;1.1783;
831.3000;0.6781;1.1759;
831.6000;0.6789;1.1735;
831.9000;0.6781;1.1759;
832.2000;0.6789;1.1783;
832.5000;0.6772;1.1783;
832.8000;0.6764;1.1759;
833.1000;0.6772;1.1783;
833.4000;0.6772;1.1832;
833.7000;0.6764;1.1832;
834.0000;0.6772;1.1783;
834.3000;0.6781;1.1711;
834.6000;0.6764;1.1711;
834.9000;0.6813;1.1880;
835.2000;0.6772;1.1759;
835.5000;0.6764;1.1856;
835.8000;0.6781;1.1856;
836.1000;0.6756;1.1880;
836.4000;0.6756;1.1905;
836.7000;0.6748;1.1808;
837.0000;0.6764;1.1856;
837.3000;0.6772;1.1832;
837.6000;0.6748;1.1662;
837.9000;0.6764;1.1711;
838.2000;0.6748;1.1735;
838.5000;0.6781;1.1832;
838.8000;0.6740;1.1783;
839.1000;0.6748;1.1735;
839.4000;0.6756;1.1735;
839.7000;0.6748;1.1711;
840.0000;0.6764;1.1759;
840.3000;0.6772;1.1759;
840.6000;0.6756;1.1783;
840.9000;0.6764;1.1880;
841.2000;0.6756;1.1953;
841.5000;0.6748;1.2002;
841.8000;0.6756;1.2026;
842.1000;0.6772;1.2050;
842.4000;0.6716;1.1832;
842.7000;0.6772;1.2026;
843.0000;0.6764;1.1977;
843.3000;0.6716;1.1856;
843.6000;0.6756;1.2002;
843.9000;0.6756;1.2050;
844.2000;0.6748;1.2026;
844.5000;0.6707;1.1832;
844.8000;0.6740;1.1929;
845.1000;0.6756;1.1905;
845.4000;0.6740;1.1929;
845.7000;0.6748;1.1880;
846.0000;0.6772;1.1880;
846.3000;0.6756;1.1856;
846.6000;0.6740;1.1759;
846.9000;0.6724;1.1808;
847.2000;0.6748;1.1783;
847.5000;0.6740;1.1832;
847.8000;0.6732;1.1783;
848.1000;0.6740;1.1808;
848.4000;0.6756;1.1856;
848.7000;0.6732;1.1905;
849.0000;0.6724;1.1880;
849.3000;0.6740;1.1856;
849.6000;0.6740;1.1880;
849.9000;0.6740;1.1953;
850.2000;0.6732;1.1953;
850.5000;0.6724;1.1905;
850.8000;0.6740;1.2050;
851.1000;0.6691;1.1953;
851.4000;0.6748;1.2002;
851.7000;0.6740;1.1953;
852.0000;0.6732;1.1905;
852.3000;0.6748;1.1929;
852.6000;0.6740;1.1929;
852.9000;0.6691;1.1856;
853.2000;0.6748;1.1953;
853.5000;0.6740;1.2050;
853.8000;0.6748;1.2002;
854.1000;0.6756;1.1880;
854.4000;0.6740;1.1856;
854.7000;0.6732;1.1905;
855.0000;0.6724;1.1929;
855.3000;0.6740;1.1929;
855.6000;0.6724;1.1929;
855.9000;0.6732;1.2026;
856.2000;0.6732;1.1953;
856.5000;0.6699;1.1856;
856.8000;0.6732;1.1905;
857.1000;0.6732;1.1856;
857.4000;0.6740;1.1953;
857.7000;0.6732;1.1953;
858.0000;0.6707;1.1905;
858.3000;0.6732;1.2050;
858.6000;0.6732;1.2026;
858.9000;0.6732;1.2074;
859.2000;0.6683;1.1977;
859.5000;0.6667;1.1977;
859.8000;0.6716;1.2123;
860.1000;0.6716;1.2099;
860.4000;0.6707;1.2099;
860.7000;0.6707;1.2123;
861.0000;0.6724;1.2196;
861.3000;0.6732;1.2196;
861.6000;0.6732;1.2099;
861.9000;0.6716;1.2099;
862.2000;0.6707;1.2123;
862.5000;0.6724;1.2147;
862.8000;0.6732;1.2196;
863.1000;0.6716;1.2147;
863.4000;0.6724;1.2147;
863.7000;0.6732;1.2099;
864.0000;0.6732;1.2099;
864.3000;0.6716;1.2050;
864.6000;0.6707;1.2099;
864.9000;0.6789;1.2317;
865.2000;0.6716;1.2171;
865.5000;0.6724;1.2147;
865.8000;0.6699;1.2002;
866.1000;0.6732;1.2050;
866.4000;0.6724;1.2026;
866.7000;0.6732;1.2074;
867.0000;0.6732;1.2050;
867.3000;0.6724;1.2099;
867.6000;0.6724;1.2171;
867.9000;0.6732;1.2074;
868.2000;0.6716;1.2074;
868.5000;0.6716;1.2123;
868.8000;0.6724;1.2147;
869.1000;0.6716;1.2147;
869.4000;0.6740;1.2171;
869.7000;0.6724;1.2074;
870.0000;0.6707;1.1977;
870.3000;0.6707;1.2026;
870.6000;0.6699;1.2002;
870.9000;0.6691;1.1977;
871.2000;0.6675;1.1929;
871.5000;0.6707;1.2026;
871.8000;0.6716;1.2026;
872.1000;0.6764;1.2171;
872.4000;0.6724;1.2050;
872.7000;0.6716;1.1953;
873.0000;0.6724;1.2026;
873.3000;0.6699;1.1977;
873.6000;0.6716;1.1856;
873.9000;0.6724;1.1880;
874.2000;0.6699;1.1832;
874.5000;0.6707;1.1905;
874.8000;0.6707;1.1929;
875.1000;0.6740;1.2050;
875.4000;0.6707;1.1953;
875.7000;0.6691;1.1856;
876.0000;0.6707;1.1856;
876.3000;0.6707;1.1953;
876.6000;0.6707;1.1953;
876.9000;0.6691;1.1977;
877.2000;0.6683;1.1880;
877.5000;0.6707;1.1905;
877.8000;0.6732;1.1929;
878.1000;0.6707;1.1856;
878.4000;0.6716;1.1880;
878.7000;0.6724;1.1905;
879.0000;0.6716;1.1880;
879.3000;0.6707;1.1880;
879.6000;0.6716;1.1905;
879.9000;0.6716;1.1880;
880.2000;0.6716;1.1929;
880.5000;0.6707;1.1929;
880.8000;0.6716;1.1880;
881.1000;0.6642;1.1711;
881.4000;0.6699;1.1856;
881.7000;0.6740;1.1977;
882.0000;0.6699;1.1953;
882.3000;0.6716;1.2026;
882.6000;0.6699;1.1905;
882.9000;0.6707;1.1929;
883.2000;0.6683;1.1905;
883.5000;0.6683;1.1905;
883.8000;0.6699;1.1977;
884.1000;0.6683;1.2002;
884.4000;0.6659;1.1953;
884.7000;0.6691;1.2002;
885.0000;0.6675;1.1953;
885.3000;0.6667;1.1905;
885.6000;0.6683;1.1905;
885.9000;0.6683;1.1856;
886.2000;0.6716;1.1905;
886.5000;0.6699;1.1832;
886.8000;0.6683;1.1832;
887.1000;0.6667;1.1735;
887.4000;0.6691;1.1832;
887.7000;0.6675;1.1783;
888.0000;0.6691;1.1759;
888.3000;0.6716;1.1759;
888.6000;0.6683;1.1735;
888.9000;0.6683;1.1783;
889.2000;0.6691;1.1905;
889.5000;0.6691;1.1953;
889.8000;0.6683;1.1905;
890.1000;0.6732;1.2002;
890.4000;0.6683;1.1905;
890.7000;0.6691;1.1880;
891.0000;0.6683;1.1856;
891.3000;0.6707;1.1880;
891.6000;0.6667;1.1880;
891.9000;0.6691;1.1929;
892.2000;0.6707;1.1977;
892.5000;0.6667;1.1832;
892.8000;0.6667;1.1735;
893.1000;0.6683;1.1759;
893.4000;0.6675;1.1686;
893.7000;0.6667;1.1589;
894.0000;0.6667;1.1638;
894.3000;0.6683;1.1686;
894.6000;0.6683;1.1662;
894.9000;0.6675;1.1638;
895.2000;0.6707;1.1711;
895.5000;0.6667;1.1565;
895.8000;0.6683;1.1686;
896.1000;0.6667;1.1662;
896.4000;0.6675;1.1735;
896.7000;0.6675;1.1735;
897.0000;0.6683;1.1808;
897.3000;0.6650;1.1759;
897.6000;0.6675;1.1832;
897.9000;0.6675;1.1808;
898.2000;0.6642;1.1759;
898.5000;0.6667;1.1856;
898.8000;0.6659;1.1735;
899.1000;0.6667;1.1905;
899.4000;0.6691;1.1856;
899.7000;0.6683;1.1832;
900.0000;0.6691;1.1856;
900.3000;0.6659;1.1808;
900.6000;0.6675;1.1735;
900.9000;0.6683;1.1711;
901.2000;0.6667;1.1735;
901.5000;0.6675;1.1783;
901.8000;0.6683;1.1783;
902.1000;0.6699;1.1832;
902.4000;0.6659;1.1759;
902.7000;0.6675;1.1686;
903.0000;0.6683;1.1711;
903.3000;0.6675;1.1686;
903.6000;0.6683;1.1638;
903.9000;0.6667;1.1614;
904.2000;0.6675;1.1614;
904.5000;0.6683;1.1662;
904.8000;0.6667;1.1686;
905.1000;0.6667;1.1711;
905.4000;0.6683;1.1735;
905.7000;0.6667;1.1662;
906.0000;0.6675;1.1614;
906.3000;0.6667;1.1783;
906.6000;0.6667;1.1856;
906.9000;0.6699;1.1953;
907.2000;0.6659;1.1856;
907.5000;0.6659;1.1977;
907.8000;0.6675;1.1977;
908.1000;0.6667;1.1905;
908.4000;0.6659;1.1905;
908.7000;0.6675;1.2026;
909.0000;0.6667;1.2074;
909.3000;0.6626;1.2074;
909.6000;0.6707;1.2268;
909.9000;0.6667;1.2099;
910.2000;0.6642;1.2026;
910.5000;0.6659;1.2050;
910.8000;0.6659;1.1905;
911.1000;0.6740;1.2123;
911.4000;0.6642;1.1953;
911.7000;0.6659;1.2050;
912.0000;0.6667;1.2099;
912.3000;0.6626;1.2002;
912.6000;0.6667;1.2074;
912.9000;0.6659;1.2050;
913.2000;0.6618;1.2002;
913.5000;0.6667;1.2220;
913.8000;0.6683;1.2196;
914.1000;0.6659;1.2171;
914.4000;0.6634;1.2074;
914.7000;0.6667;1.2074;
915.0000;0.6667;1.2026;
915.3000;0.6667;1.2002;
915.6000;0.6667;1.1953;
915.9000;0.6667;1.1905;
916.2000;0.6659;1.1929;
916.5000;0.6659;1.1880;
916.8000;0.6642;1.1832;
917.1000;0.6650;1.1856;
917.4000;0.6667;1.1759;
917.7000;0.6667;1.1735;
918.0000;0.6707;1.1929;
918.3000;0.6626;1.1808;
918.6000;0.6667;1.1880;
918.9000;0.6699;1.2026;
919.2000;0.6659;1.1977;
919.5000;0.6642;1.1953;
919.8000;0.6650;1.2002;
920.1000;0.6650;1.2099;
920.4000;0.6650;1.2002;
920.7000;0.6659;1.1977;
921.0000;0.6642;1.1905;
921.3000;0.6634;1.1905;
921.6000;0.6634;1.1929;
921.9000;0.6650;1.1905;
922.2000;0.6650;1.2002;
922.5000;0.6642;1.1953;
922.8000;0.6659;1.1953;
923.1000;0.6642;1.1856;
923.4000;0.6650;1.1856;
923.7000;0.6659;1.1832;
924.0000;0.6667;1.1856;
924.3000;0.6650;1.1735;
924.6000;0.6650;1.1783;
924.9000;0.6667;1.1880;
925.2000;0.6659;1.1880;
925.5000;0.6650;1.1953;
925.8000;0.6683;1.1977;
926.1000;0.6650;1.1880;
926.4000;0.6650;1.1977;
926.7000;0.6642;1.1905;
927.0000;0.6642;1.1856;
927.3000;0.6626;1.1905;
927.6000;0.6650;1.1929;
927.9000;0.6659;1.1977;
928.2000;0.6642;1.2050;
928.5000;0.6642;1.2050;
928.8000;0.6740;1.2292;
929.1000;0.6642;1.2050;
929.4000;0.6659;1.2074;
929.7000;0.6634;1.2050;
930.0000;0.6650;1.2099;
930.3000;0.6626;1.2074;
930.6000;0.6642;1.2074;
930.9000;0.6634;1.2099;
931.2000;0.6642;1.2123;
931.5000;0.6699;1.2220;
931.8000;0.6634;1.2050;
932.1000;0.6626;1.2002;
932.4000;0.6634;1.2026;
932.7000;0.6634;1.1929;
933.0000;0.6610;1.1905;
933.3000;0.6610;1.1953;
933.6000;0.6634;1.2002;
933.9000;0.6634;1.2002;
934.2000;0.6642;1.2026;
934.5000;0.6626;1.2026;
934.8000;0.6626;1.1880;
935.1000;0.6642;1.1880;
935.4000;0.6667;1.1880;
935.7000;0.6634;1.1880;
936.0000;0.6642;1.1929;
936.3000;0.6602;1.1880;
936.6000;0.6642;1.1953;
936.9000;0.6650;1.1953;
937.2000;0.6634;1.1953;
937.5000;0.6675;1.2026;
937.8000;0.6626;1.1880;
938.1000;0.6634;1.1856;
938.4000;0.6577;1.1662;
938.7000;0.6642;1.1808;
939.0000;0.6650;1.1808;
939.3000;0.6626;1.1735;
939.6000;0.6634;1.1686;
939.9000;0.6634;1.1783;
940.2000;0.6650;1.1929;
940.5000;0.6634;1.1929;
940.8000;0.6634;1.1880;
941.1000;0.6626;1.1905;
941.4000;0.6642;1.2002;
941.7000;0.6650;1.2099;
942.0000;0.6642;1.2123;
942.3000;0.6626;1.2026;
942.6000;0.6626;1.2050;
942.9000;0.6634;1.2002;
943.2000;0.6634;1.2026;
943.5000;0.6610;1.1929;
943.8000;0.6634;1.1929;
944.1000;0.6618;1.1856;
944.4000;0.6642;1.1929;
944.7000;0.6626;1.1953;
945.0000;0.6650;1.2074;
945.3000;0.6642;1.2123;
945.6000;0.6659;1.2123;
945.9000;0.6634;1.2171;
946.2000;0.6618;1.2196;
946.5000;0.6634;1.2220;
946.8000;0.6642;1.2292;
947.1000;0.6626;1.2268;
947.4000;0.6642;1.2341;
947.7000;0.6618;1.2268;
948.0000;0.6650;1.2317;
948.3000;0.6593;1.2123;
948.6000;0.6634;1.2171;
948.9000;0.6610;1.2147;
949.2000;0.6610;1.2196;
949.5000;0.6626;1.2220;
949.8000;0.6642;1.2196;
950.1000;0.6634;1.2099;
950.4000;0.6634;1.2196;
950.7000;0.6634;1.2220;
951.0000;0.6610;1.2171;
951.3000;0.6610;1.2196;
951.6000;0.6626;1.2244;
951.9000;0.6675;1.2462;
952.2000;0.6642;1.2268;
952.5000;0.6618;1.2171;
952.8000;0.6683;1.2317;
953.1000;0.6618;1.2147;
953.4000;0.6626;1.2099;
953.7000;0.6610;1.2026;
954.0000;0.6618;1.2002;
954.3000;0.6626;1.2050;
954.6000;0.6642;1.2026;
954.9000;0.6626;1.2050;
955.2000;0.6626;1.2026;
955.5000;0.6618;1.2050;
955.8000;0.6618;1.2002;
956.1000;0.6626;1.2147;
956.4000;0.6593;1.2171;
956.7000;0.6610;1.2268;
957.0000;0.6602;1.2244;
957.3000;0.6634;1.2244;
957.6000;0.6610;1.2196;
957.9000;0.6618;1.2171;
958.2000;0.6626;1.2099;
958.5000;0.6626;1.2074;
958.8000;0.6626;1.2099;
959.1000;0.6602;1.1977;
959.4000;0.6634;1.2050;
959.7000;0.6642;1.2026;
960.0000;0.6634;1.2050;
960.3000;0.6618;1.2002;
960.6000;0.6618;1.1880;
960.9000;0.6626;1.1953;
961.2000;0.6561;1.1856;
961.5000;0.6610;1.1953;
961.8000;0.6618;1.1929;
962.1000;0.6602;1.2026;
962.4000;0.6593;1.1977;
962.7000;0.6610;1.2002;
963.0000;0.6602;1.1929;
963.3000;0.6610;1.2002;
963.6000;0.6642;1.2026;
963.9000;0.6602;1.1953;
964.2000;0.6626;1.1977;
964.5000;0.6602;1.1977;
964.8000;0.6610;1.1929;
965.1000;0.6626;1.2050;
965.4000;0.6585;1.1905;
965.7000;0.6602;1.2002;
966.0000;0.6593;1.2002;
966.3000;0.6561;1.1953;
966.6000;0.6610;1.2002;
966.9000;0.6585;1.1953;
967.2000;0.6618;1.2050;
967.5000;0.6610;1.2050;
967.8000;0.6602;1.2050;
968.1000;0.6610;1.1977;
968.4000;0.6626;1.1953;
968.7000;0.6610;1.1953;
969.0000;0.6642;1.2099;
969.3000;0.6569;1.1953;
969.6000;0.6585;1.2074;
969.9000;0.6626;1.2220;
970.2000;0.6618;1.2220;
970.5000;0.6634;1.2196;
970.8000;0.6593;1.2123;
971.1000;0.6610;1.2074;
971.4000;0.6626;1.2123;
971.7000;0.6602;1.2074;
972.0000;0.6593;1.2002;
972.3000;0.6610;1.2002;
972.6000;0.6618;1.2099;
972.9000;0.6618;1.2123;
973.2000;0.6602;1.2074;
973.5000;0.6602;1.2002;
973.8000;0.6593;1.2002;
974.1000;0.6593;1.1977;
974.4000;0.6593;1.2026;
974.7000;0.6618;1.2002;
975.0000;0.6593;1.2002;
975.3000;0.6593;1.2002;
975.6000;0.6602;1.1953;
975.9000;0.6602;1.1880;
976.2000;0.6593;1.1905;
976.5000;0.6610;1.1929;
976.8000;0.6585;1.1880;
977.1000;0.6602;1.1929;
977.4000;0.6593;1.1953;
977.7000;0.6610;1.2123;
978.0000;0.6618;1.2123;
978.3000;0.6602;1.2050;
978.6000;0.6593;1.2099;
978.9000;0.6610;1.2171;
979.2000;0.6593;1.2171;
979.5000;0.6602;1.2220;
979.8000;0.6602;1.2268;
980.1000;0.6602;1.2171;
980.4000;0.6585;1.2123;
980.7000;0.6610;1.2171;
981.0000;0.6602;1.2171;
981.3000;0.6610;1.2123;
981.6000;0.6626;1.2099;
981.9000;0.6610;1.2050;
982.2000;0.6569;1.1929;
982.5000;0.6610;1.2123;
982.8000;0.6618;1.2171;
983.1000;0.6610;1.2123;
983.4000;0.6602;1.2074;
983.7000;0.6602;1.2147;
984.0000;0.6610;1.2147;
984.3000;0.6602;1.2099;
984.6000;0.6593;1.2050;
984.9000;0.6610;1.2074;
985.2000;0.6610;1.2002;
985.5000;0.6602;1.1905;
985.8000;0.6593;1.1880;
986.1000;0.6610;1.1929;
986.4000;0.6634;1.2026;
986.7000;0.6610;1.2026;
987.0000;0.6585;1.2026;
987.3000;0.6593;1.2026;
987.6000;0.6593;1.1929;
987.9000;0.6593;1.1905;
988.2000;0.6593;1.1832;
988.5000;0.6577;1.1880;
988.8000;0.6602;1.1953;
989.1000;0.6553;1.1856;
989.4000;0.6585;1.2002;
989.7000;0.6553;1.1880;
990.0000;0.6602;1.1977;
990.3000;0.6593;1.2050;
990.6000;0.6593;1.1977;
990.9000;0.6569;1.1880;
991.2000;0.6569;1.1783;
991.5000;0.6585;1.1856;
991.8000;0.6585;1.1783;
992.1000;0.6593;1.1832;
992.4000;0.6585;1.1832;
992.7000;0.6642;1.2026;
993.0000;0.6593;1.1977;
993.3000;0.6577;1.1880;
993.6000;0.6585;1.1929;
993.9000;0.6593;1.2026;
994.2000;0.6602;1.2099;
994.5000;0.6593;1.2074;
994.8000;0.6593;1.2002;
995.1000;0.6602;1.1905;
995.4000;0.6602;1.1905;
995.7000;0.6593;1.1880;
996.0000;0.6634;1.1905;
996.3000;0.6593;1.1880;
996.6000;0.6593;1.2002;
996.9000;0.6593;1.1953;
997.2000;0.6585;1.1929;
997.5000;0.6593;1.1856;
997.8000;0.6602;1.1977;
998.1000;0.6602;1.1929;
998.4000;0.6593;1.1905;
998.7000;0.6602;1.1953;
999.0000;0.6585;1.1856;
999.3000;0.6642;1.2074;
999.6000;0.6593;1.1953;
999.9000;0.6577;1.1929;
1000.2000;0.6585;1.1929;
1000.5000;0.6593;1.1905;
1000.8000;0.6593;1.1856;
1001.1000;0.6504;1.1589;
1001.4000;0.6585;1.1735;
1001.7000;0.6593;1.1735;
1002.0000;0.6602;1.1783;
1002.3000;0.6593;1.1808;
1002.6000;0.6593;1.1808;
1002.9000;0.6593;1.1832;
1003.2000;0.6577;1.1880;
1003.5000;0.6585;1.1856;
1003.8000;0.6593;1.1929;
1004.1000;0.6593;1.1905;
1004.4000;0.6618;1.2002;
1004.7000;0.6602;1.1953;
1005.0000;0.6585;1.1905;
1005.3000;0.6593;1.1953;
1005.6000;0.6602;1.1977;
1005.9000;0.6585;1.2002;
1006.2000;0.6577;1.1905;
1006.5000;0.6585;1.1905;
1006.8000;0.6585;1.1856;
1007.1000;0.6602;1.1880;
1007.4000;0.6610;1.1929;
1007.7000;0.6593;1.1856;
1008.0000;0.6585;1.1880;
1008.3000;0.6610;1.2026;
1008.6000;0.6577;1.1953;
1008.9000;0.6585;1.2026;
1009.2000;0.6593;1.2074;
1009.5000;0.6585;1.1953;
1009.8000;0.6569;1.1929;
1010.1000;0.6577;1.1929;
1010.4000;0.6569;1.1880;
1010.7000;0.6585;1.1929;
1011.0000;0.6585;1.1929;
1011.3000;0.6545;1.1880;
1011.6000;0.6569;1.1880;
1011.9000;0.6585;1.1905;
1012.2000;0.6585;1.1880;
1012.5000;0.6577;1.1783;
1012.8000;0.6585;1.1783;
1013.1000;0.6569;1.1711;
1013.4000;0.6577;1.1759;
1013.7000;0.6593;1.1711;
1014.0000;0.6528;1.1614;
1014.3000;0.6569;1.1783;
1014.6000;0.6585;1.1905;
1014.9000;0.6626;1.2026;
1015.2000;0.6634;1.2099;
1015.5000;0.6593;1.2123;
1015.8000;0.6577;1.2099;
1016.1000;0.6585;1.2002;
1016.4000;0.6569;1.2002;
1016.7000;0.6577;1.2026;
1017.0000;0.6585;1.2002;
1017.3000;0.6585;1.2002;
1017.6000;0.6569;1.1977;
1017.9000;0.6593;1.2002;
1018.2000;0.6577;1.1977;
1018.5000;0.6585;1.2026;
1018.8000;0.6634;1.2050;
1019.1000;0.6585;1.1929;
1019.4000;0.6593;1.1953;
1019.7000;0.6585;1.2002;
1020.0000;0.6569;1.1880;
1020.3000;0.6577;1.1953;
1020.6000;0.6585;1.1929;
1020.9000;0.6569;1.1929;
1021.2000;0.6593;1.2002;
1021.5000;0.6561;1.1977;
1021.8000;0.6569;1.2002;
1022.1000;0.6585;1.2050;
1022.4000;0.6577;1.2074;
1022.7000;0.6585;1.2074;
1023.0000;0.6650;1.2317;
1023.3000;0.6561;1.2099;
1023.6000;0.6577;1.2196;
1023.9000;0.6561;1.2074;
1024.2000;0.6569;1.2026;
1024.5000;0.6577;1.1977;
1024.8000;0.6577;1.1953;
1025.1000;0.6602;1.2002;
1025.4000;0.6569;1.2026;
1025.7000;0.6585;1.1977;
1026.0000;0.6577;1.2026;
1026.3000;0.6593;1.2002;
1026.6000;0.6577;1.2002;
1026.9000;0.6569;1.2074;
1027.2000;0.6577;1.2050;
1027.5000;0.6569;1.2026;
1027.8000;0.6585;1.2099;
1028.1000;0.6610;1.2268;
1028.4000;0.6585;1.2147;
1028.7000;0.6618;1.2196;
1029.0000;0.6569;1.2050;
1029.3000;0.6593;1.2147;
1029.6000;0.6569;1.2026;
1029.9000;0.6577;1.2026;
1030.2000;0.6577;1.1977;
1030.5000;0.6561;1.2002;
1030.8000;0.6602;1.2050;
1031.1000;0.6569;1.2002;
1031.4000;0.6553;1.1977;
1031.7000;0.6561;1.1977;
1032.0000;0.6561;1.1929;
1032.3000;0.6585;1.2050;
1032.6000;0.6585;1.2074;
1032.9000;0.6577;1.2002;
1033.2000;0.6528;1.1977;
1033.5000;0.6634;1.2099;
1033.8000;0.6585;1.2026;
1034.1000;0.6561;1.1905;
1034.4000;0.6561;1.1905;
1034.7000;0.6569;1.1929;
1035.0000;0.6569;1.2026;
1035.3000;0.6569;1.2026;
1035.6000;0.6561;1.1977;
1035.9000;0.6528;1.1905;
1036.2000;0.6577;1.1953;
1036.5000;0.6577;1.1953;
1036.8000;0.6553;1.1929;
1037.1000;0.6561;1.2002;
1037.4000;0.6561;1.2074;
1037.7000;0.6569;1.2050;
1038.0000;0.6553;1.1953;
1038.3000;0.6561;1.2002;
1038.6000;0.6569;1.1977;
1038.9000;0.6553;1.1953;
1039.2000;0.6569;1.2002;
1039.5000;0.6593;1.1977;
1039.8000;0.6585;1.1977;
1040.1000;0.6569;1.2050;
1040.4000;0.6569;1.2074;
1040.7000;0.6528;1.1929;
1041.0000;0.6569;1.2050;
1041.3000;0.6553;1.2026;
1041.6000;0.6569;1.2099;
1041.9000;0.6577;1.2123;
1042.2000;0.6561;1.2026;
1042.5000;0.6561;1.1953;
1042.8000;0.6561;1.1929;
1043.1000;0.6593;1.2002;
1043.4000;0.6577;1.2026;
1043.7000;0.6618;1.2026;
1044.0000;0.6553;1.1808;
1044.3000;0.6561;1.1832;
1044.6000;0.6569;1.1832;
1044.9000;0.6569;1.1808;
1045.2000;0.6553;1.1759;
1045.5000;0.6553;1.1905;
1045.8000;0.6561;1.2002;
1046.1000;0.6536;1.2002;
1046.4000;0.6577;1.2050;
1046.7000;0.6593;1.2171;
1047.0000;0.6553;1.2002;
1047.3000;0.6536;1.1929;
1047.6000;0.6553;1.1953;
1047.9000;0.6577;1.2050;
1048.2000;0.6561;1.2123;
1048.5000;0.6561;1.2074;
1048.8000;0.6585;1.2123;
1049.1000;0.6577;1.2099;
1049.4000;0.6577;1.2123;
1049.7000;0.6569;1.2026;
1050.0000;0.6577;1.2002;
1050.3000;0.6561;1.1977;
1050.6000;0.6553;1.1953;
1050.9000;0.6610;1.2147;
1051.2000;0.6561;1.2026;
1051.5000;0.6577;1.2026;
1051.8000;0.6536;1.1856;
1052.1000;0.6553;1.1905;
1052.4000;0.6561;1.1929;
1052.7000;0.6553;1.1905;
1053.0000;0.6545;1.1905;
1053.3000;0.6569;1.1905;
1053.6000;0.6561;1.1953;
1053.9000;0.6528;1.1977;
1054.2000;0.6569;1.2074;
1054.5000;0.6577;1.2147;
1054.8000;0.6561;1.2074;
1055.1000;0.6545;1.2099;
1055.4000;0.6561;1.2099;
1055.7000;0.6512;1.2099;
1056.0000;0.6545;1.2196;
1056.3000;0.6561;1.2268;
1056.6000;0.6561;1.2268;
1056.9000;0.6561;1.2268;
1057.2000;0.6545;1.2244;
1057.5000;0.6569;1.2196;
1057.8000;0.6561;1.2147;
1058.1000;0.6528;1.2074;
1058.4000;0.6561;1.2050;
1058.7000;0.6561;1.2074;
1059.0000;0.6602;1.2147;
1059.3000;0.6545;1.2050;
1059.6000;0.6569;1.2123;
1059.9000;0.6496;1.1953;
1060.2000;0.6561;1.2244;
1060.5000;0.6561;1.2292;
1060.8000;0.6545;1.2244;
1061.1000;0.6553;1.2292;
1061.4000;0.6585;1.2292;
1061.7000;0.6561;1.2196;
1062.0000;0.6536;1.2074;
1062.3000;0.6536;1.1953;
1062.6000;0.6536;1.1929;
1062.9000;0.6585;1.2074;
1063.2000;0.6593;1.2123;
1063.5000;0.6585;1.2074;
1063.8000;0.6561;1.2074;
1064.1000;0.6585;1.2123;
1064.4000;0.6577;1.2050;
1064.7000;0.6536;1.1977;
1065.0000;0.6561;1.2026;
1065.3000;0.6553;1.2002;
1065.6000;0.6553;1.1977;
1065.9000;0.6520;1.1929;
1066.2000;0.6536;1.1953;
1066.5000;0.6528;1.1953;
1066.8000;0.6577;1.2147;
1067.1000;0.6536;1.2220;
1067.4000;0.6545;1.2244;
1067.7000;0.6536;1.2292;
1068.0000;0.6512;1.2244;
1068.3000;0.6553;1.2292;
1068.6000;0.6577;1.2317;
1068.9000;0.6545;1.2171;
1069.2000;0.6545;1.2099;
1069.5000;0.6561;1.2099;
1069.8000;0.6553;1.2171;
1070.1000;0.6569;1.2171;
1070.4000;0.6561;1.2244;
1070.7000;0.6577;1.2171;
1071.0000;0.6577;1.2050;
1071.3000;0.6561;1.1977;
1071.6000;0.6569;1.1977;
1071.9000;0.6561;1.2002;
1072.2000;0.6569;1.2074;
1072.5000;0.6561;1.2099;
1072.8000;0.6545;1.2026;
1073.1000;0.6528;1.2026;
1073.4000;0.6553;1.2074;
1073.7000;0.6593;1.2099;
1074.0000;0.6561;1.2050;
1074.3000;0.6577;1.2099;
1074.6000;0.6561;1.2123;
1074.9000;0.6569;1.2196;
1075.2000;0.6561;1.2099;
1075.5000;0.6569;1.2147;
1075.8000;0.6569;1.2099;
1076.1000;0.6553;1.2074;
1076.4000;0.6569;1.2026;
1076.7000;0.6561;1.2002;
1077.0000;0.6561;1.2050;
1077.3000;0.6561;1.2050;
1077.6000;0.6536;1.2074;
1077.9000;0.6536;1.2123;
1078.2000;0.6512;1.2099;
1078.5000;0.6553;1.2171;
1078.8000;0.6545;1.2147;
1079.1000;0.6553;1.2123;
1079.4000;0.6545;1.2147;
1079.7000;0.6545;1.2147;
1080.0000;0.6553;1.2196;
1080.3000;0.6553;1.2171;
1080.6000;0.6561;1.2099;
1080.9000;0.6536;1.2026;
1081.2000;0.6545;1.2002;
1081.5000;0.6553;1.2050;
1081.8000;0.6536;1.2026;
1082.1000;0.6536;1.2099;
1082.4000;0.6488;1.2099;
1082.7000;0.6553;1.2244;
1083.0000;0.6553;1.2196;
1083.3000;0.6569;1.2268;
1083.6000;0.6569;1.2171;
1083.9000;0.6553;1.2074;
1084.2000;0.6593;1.2220;
1084.5000;0.6561;1.2099;
1084.8000;0.6569;1.2171;
1085.1000;0.6553;1.2196;
1085.4000;0.6536;1.2074;
1085.7000;0.6536;1.2074;
1086.0000;0.6545;1.2099;
1086.3000;0.6553;1.2123;
1086.6000;0.6577;1.2196;
1086.9000;0.6536;1.2074;
1087.2000;0.6545;1.2099;
1087.5000;0.6528;1.2050;
1087.8000;0.6536;1.2026;
1088.1000;0.6553;1.2050;
1088.4000;0.6545;1.2026;
1088.7000;0.6528;1.2026;
1089.0000;0.6553;1.2147;
1089.3000;0.6536;1.2050;
1089.6000;0.6545;1.2099;
1089.9000;0.6545;1.2171;
1090.2000;0.6545;1.2147;
1090.5000;0.6553;1.2244;
1090.8000;0.6536;1.2268;
1091.1000;0.6561;1.2244;
1091.4000;0.6553;1.2244;
1091.7000;0.6536;1.2171;
1092.0000;0.6528;1.2171;
1092.3000;0.6536;1.2147;
1092.6000;0.6536;1.2123;
1092.9000;0.6545;1.2147;
1093.2000;0.6536;1.2147;
1093.5000;0.6553;1.2171;
1093.8000;0.6553;1.2123;
1094.1000;0.6520;1.2026;
1094.4000;0.6536;1.2074;
1094.7000;0.6561;1.2171;
1095.0000;0.6561;1.2220;
1095.3000;0.6553;1.2099;
1095.6000;0.6545;1.2074;
1095.9000;0.6569;1.2147;
1096.2000;0.6569;1.2147;
1096.5000;0.6545;1.2074;
1096.8000;0.6536;1.2074;
1097.1000;0.6545;1.2123;
1097.4000;0.6528;1.2123;
1097.7000;0.6545;1.2074;
1098.0000;0.6561;1.2050;
1098.3000;0.6536;1.2050;
1098.6000;0.6545;1.2074;
1098.9000;0.6553;1.2099;
1099.2000;0.6561;1.2123;
1099.5000;0.6545;1.2123;
1099.8000;0.6545;1.2147;
1100.1000;0.6602;1.2292;
1100.4000;0.6545;1.2123;
1100.7000;0.6545;1.2123;
1101.0000;0.6545;1.2220;
1101.3000;0.6536;1.2099;
1101.6000;0.6520;1.2050;
1101.9000;0.6536;1.2050;
1102.2000;0.6528;1.2074;
1102.5000;0.6536;1.2099;
1102.8000;0.6536;1.2171;
1103.1000;0.6536;1.2171;
1103.4000;0.6536;1.2171;
1103.7000;0.6536;1.2171;
1104.0000;0.6520;1.2171;
1104.3000;0.6504;1.2171;
1104.6000;0.6528;1.2220;
1104.9000;0.6553;1.2244;
1105.2000;0.6593;1.2317;
1105.5000;0.6545;1.2196;
1105.8000;0.6545;1.2123;
1106.1000;0.6545;1.2099;
1106.4000;0.6561;1.2147;
1106.7000;0.6553;1.2074;
1107.0000;0.6553;1.2196;
1107.3000;0.6512;1.2123;
1107.6000;0.6545;1.2099;
1107.9000;0.6536;1.2244;
1108.2000;0.6536;1.2147;
1108.5000;0.6553;1.2196;
1108.8000;0.6528;1.2074;
1109.1000;0.6536;1.2074;
1109.4000;0.6536;1.2074;
1109.7000;0.6545;1.2074;
1110.0000;0.6512;1.2002;
1110.3000;0.6536;1.2147;
1110.6000;0.6520;1.2074;
1110.9000;0.6536;1.2099;
1111.2000;0.6520;1.2171;
1111.5000;0.6528;1.2268;
1111.8000;0.6528;1.2341;
1112.1000;0.6536;1.2341;
1112.4000;0.6545;1.2244;
1112.7000;0.6545;1.2196;
1113.0000;0.6545;1.2171;
1113.3000;0.6536;1.2171;
1113.6000;0.6545;1.2220;
1113.9000;0.6545;1.2220;
1114.2000;0.6553;1.2268;
1114.5000;0.6536;1.2292;
1114.8000;0.6536;1.2220;
1115.1000;0.6512;1.2099;
1115.4000;0.6528;1.2074;
1115.7000;0.6553;1.2050;
1116.0000;0.6545;1.2050;
1116.3000;0.6553;1.2123;
1116.6000;0.6569;1.2196;
1116.9000;0.6536;1.2074;
1117.2000;0.6545;1.2171;
1117.5000;0.6536;1.2026;
1117.8000;0.6528;1.1977;
1118.1000;0.6536;1.1953;
1118.4000;0.6520;1.1977;
1118.7000;0.6528;1.1953;
1119.0000;0.6536;1.1929;
1119.3000;0.6545;1.1977;
1119.6000;0.6520;1.1977;
1119.9000;0.6528;1.1977;
1120.2000;0.6520;1.1953;
1120.5000;0.6536;1.2026;
1120.8000;0.6520;1.2147;
1121.1000;0.6536;1.2196;
1121.4000;0.6504;1.2074;
1121.7000;0.6536;1.2074;
1122.0000;0.6536;1.1953;
1122.3000;0.6545;1.1977;
1122.6000;0.6536;1.1953;
1122.9000;0.6536;1.1905;
1123.2000;0.6520;1.1953;
1123.5000;0.6536;1.1953;
1123.8000;0.6536;1.1929;
1124.1000;0.6536;1.2002;
1124.4000;0.6536;1.2002;
1124.7000;0.6536;1.2002;
1125.0000;0.6545;1.2002;
1125.3000;0.6536;1.2026;
1125.6000;0.6520;1.1905;
1125.9000;0.6536;1.1929;
1126.2000;0.6528;1.1905;
1126.5000;0.6536;1.1953;
1126.8000;0.6553;1.2026;
1127.1000;0.6553;1.2147;
1127.4000;0.6545;1.2123;
1127.7000;0.6528;1.2099;
1128.0000;0.6536;1.2147;
1128.3000;0.6536;1.2099;
1128.6000;0.6528;1.2123;
1128.9000;0.6536;1.2171;
1129.2000;0.6577;1.2171;
1129.5000;0.6528;1.2099;
1129.8000;0.6528;1.2074;
1130.1000;0.6528;1.2074;
1130.4000;0.6504;1.1977;
1130.7000;0.6569;1.2123;
1131.0000;0.6545;1.2050;
1131.3000;0.6528;1.2074;
1131.6000;0.6520;1.2002;
1131.9000;0.6536;1.2002;
1132.2000;0.6528;1.2002;
1132.5000;0.6520;1.2050;
1132.8000;0.6520;1.2123;
1133.1000;0.6504;1.2171;
1133.4000;0.6528;1.2268;
1133.7000;0.6520;1.2292;
1134.0000;0.6520;1.2220;
1134.3000;0.6520;1.2292;
1134.6000;0.6536;1.2414;
1134.9000;0.6528;1.2268;
1135.2000;0.6528;1.2244;
1135.5000;0.6520;1.2292;
1135.8000;0.6520;1.2341;
1136.1000;0.6561;1.2438;
1136.4000;0.6528;1.2292;
1136.7000;0.6528;1.2268;
1137.0000;0.6528;1.2244;
1137.3000;0.6528;1.2196;
1137.6000;0.6528;1.2196;
1137.9000;0.6520;1.2171;
1138.2000;0.6520;1.2123;
1138.5000;0.6536;1.2171;
1138.8000;0.6536;1.2147;
1139.1000;0.6545;1.2268;
1139.4000;0.6528;1.2292;
1139.7000;0.6512;1.2292;
1140.0000;0.6536;1.2317;
1140.3000;0.6536;1.2099;
1140.6000;0.6528;1.2074;
1140.9000;0.6545;1.2026;
1141.2000;0.6553;1.1977;
1141.5000;0.6536;1.1977;
1141.8000;0.6528;1.1977;
1142.1000;0.6520;1.2050;
1142.4000;0.6536;1.2147;
1142.7000;0.6528;1.2147;
1143.0000;0.6536;1.2268;
1143.3000;0.6512;1.2317;
1143.6000;0.6528;1.2365;
1143.9000;0.6528;1.2341;
1144.2000;0.6528;1.2244;
1144.5000;0.6512;1.2196;
1144.8000;0.6471;1.2123;
1145.1000;0.6528;1.2196;
1145.4000;0.6528;1.2220;
1145.7000;0.6528;1.2244;
1146.0000;0.6528;1.2268;
1146.3000;0.6528;1.2268;
1146.6000;0.6520;1.2268;
1146.9000;0.6520;1.2244;
1147.2000;0.6536;1.2268;
1147.5000;0.6577;1.2462;
1147.8000;0.6536;1.2341;
1148.1000;0.6504;1.2196;
1148.4000;0.6545;1.2292;
1148.7000;0.6528;1.2317;
1149.0000;0.6520;1.2414;
1149.3000;0.6520;1.2317;
1149.6000;0.6520;1.2220;
1149.9000;0.6471;1.2074;
1150.2000;0.6528;1.2196;
1150.5000;0.6528;1.2099;
1150.8000;0.6536;1.2147;
1151.1000;0.6496;1.2147;
1151.4000;0.6520;1.2171;
1151.7000;0.6528;1.2196;
1152.0000;0.6545;1.2317;
1152.3000;0.6528;1.2317;
1152.6000;0.6520;1.2292;
1152.9000;0.6512;1.2244;
1153.2000;0.6561;1.2365;
1153.5000;0.6528;1.2341;
1153.8000;0.6471;1.2244;
1154.1000;0.6520;1.2292;
1154.4000;0.6520;1.2268;
1154.7000;0.6512;1.2341;
1155.0000;0.6520;1.2292;
1155.3000;0.6569;1.2341;
1155.6000;0.6520;1.2196;
1155.9000;0.6479;1.2123;
1156.2000;0.6512;1.2244;
1156.5000;0.6520;1.2317;
1156.8000;0.6520;1.2268;
1157.1000;0.6512;1.2244;
1157.4000;0.6520;1.2220;
1157.7000;0.6528;1.2220;
1158.0000;0.6520;1.2171;
1158.3000;0.6520;1.2147;
1158.6000;0.6520;1.2220;
1158.9000;0.6536;1.2244;
1159.2000;0.6496;1.2220;
1159.5000;0.6536;1.2268;
1159.8000;0.6528;1.2341;
1160.1000;0.6528;1.2341;
1160.4000;0.6520;1.2244;
1160.7000;0.6520;1.2171;
1161.0000;0.6528;1.2196;
1161.3000;0.6528;1.2244;
1161.6000;0.6536;1.2292;
1161.9000;0.6536;1.2389;
1162.2000;0.6553;1.2462;
1162.5000;0.6528;1.2438;
1162.8000;0.6520;1.2438;
1163.1000;0.6520;1.2486;
1163.4000;0.6528;1.2462;
1163.7000;0.6512;1.2414;
1164.0000;0.6528;1.2462;
1164.3000;0.6520;1.2292;
1164.6000;0.6520;1.2244;
1164.9000;0.6528;1.2244;
1165.2000;0.6496;1.2196;
1165.5000;0.6520;1.2365;
1165.8000;0.6528;1.2365;
1166.1000;0.6520;1.2389;
1166.4000;0.6520;1.2317;
1166.7000;0.6528;1.2268;
1167.0000;0.6520;1.2196;
1167.3000;0.6520;1.2196;
1167.6000;0.6536;1.2196;
1167.9000;0.6545;1.2268;
1168.2000;0.6545;1.2220;
1168.5000;0.6528;1.2171;
1168.8000;0.6488;1.2099;
1169.1000;0.6520;1.2171;
1169.4000;0.6520;1.2171;
1169.7000;0.6520;1.2220;
1170.0000;0.6504;1.2171;
1170.3000;0.6471;1.2123;
1170.6000;0.6520;1.2171;
1170.9000;0.6536;1.2244;
1171.2000;0.6520;1.2220;
1171.5000;0.6520;1.2147;
1171.8000;0.6553;1.2196;
1172.1000;0.6536;1.2147;
1172.4000;0.6528;1.2268;
1172.7000;0.6528;1.2244;
1173.0000;0.6520;1.2268;
1173.3000;0.6463;1.2171;
1173.6000;0.6520;1.2292;
1173.9000;0.6504;1.2220;
1174.2000;0.6512;1.2196;
1174.5000;0.6536;1.2220;
1174.8000;0.6488;1.2050;
1175.1000;0.6512;1.2123;
1175.4000;0.6512;1.2196;
1175.7000;0.6504;1.2171;
1176.0000;0.6553;1.2438;
1176.3000;0.6553;1.2317;
1176.6000;0.6528;1.2220;
1176.9000;0.6520;1.2244;
1177.2000;0.6512;1.2171;
1177.5000;0.6520;1.2268;
1177.8000;0.6528;1.2292;
1178.1000;0.6545;1.2317;
1178.4000;0.6528;1.2147;
1178.7000;0.6536;1.2123;
1179.0000;0.6520;1.2171;
1179.3000;0.6520;1.2341;
1179.6000;0.6528;1.2365;
1179.9000;0.6504;1.2341;
1180.2000;0.6512;1.2317;
1180.5000;0.6520;1.2268;
1180.8000;0.6512;1.2244;
1181.1000;0.6471;1.2147;
1181.4000;0.6512;1.2147;
1181.7000;0.6512;1.2099;
1182.0000;0.6471;1.2026;
1182.3000;0.6512;1.2220;
1182.6000;0.6545;1.2341;
1182.9000;0.6520;1.2365;
1183.2000;0.6496;1.2365;
1183.5000;0.6528;1.2438;
1183.8000;0.6553;1.2414;
1184.1000;0.6512;1.2244;
1184.4000;0.6528;1.2171;
1184.7000;0.6512;1.2171;
1185.0000;0.6504;1.2317;
1185.3000;0.6528;1.2341;
1185.6000;0.6496;1.2220;
1185.9000;0.6504;1.2365;
1186.2000;0.6528;1.2365;
1186.5000;0.6520;1.2244;
1186.8000;0.6520;1.2341;
1187.1000;0.6520;1.2414;
1187.4000;0.6528;1.2365;
1187.7000;0.6520;1.2341;
1188.0000;0.6520;1.2365;
1188.3000;0.6512;1.2292;
1188.6000;0.6504;1.2268;
1188.9000;0.6520;1.2365;
1189.2000;0.6512;1.2438;
1189.5000;0.6512;1.2535;
1189.8000;0.6520;1.2583;
1190.1000;0.6520;1.2511;
1190.4000;0.6520;1.2559;
1190.7000;0.6536;1.2583;
1191.0000;0.6520;1.2608;
1191.3000;0.6520;1.2608;
1191.6000;0.6512;1.2535;
1191.9000;0.6504;1.2511;
1192.2000;0.6463;1.2462;
1192.5000;0.6569;1.2656;
1192.8000;0.6520;1.2535;
1193.1000;0.6512;1.2438;
1193.4000;0.6504;1.2462;
1193.7000;0.6520;1.2438;
1194.0000;0.6512;1.2438;
1194.3000;0.6593;1.2559;
1194.6000;0.6520;1.2292;
1194.9000;0.6512;1.2268;
1195.2000;0.6479;1.2220;
1195.5000;0.6496;1.2268;
1195.8000;0.6455;1.2123;
1196.1000;0.6496;1.2171;
1196.4000;0.6504;1.2099;
1196.7000;0.6496;1.2074;
1197.0000;0.6520;1.2026;
1197.3000;0.6528;1.2099;
1197.6000;0.6512;1.2244;
1197.9000;0.6520;1.2292;
1198.2000;0.6536;1.2317;
1198.5000;0.6520;1.2341;
1198.8000;0.6512;1.2389;
1199.1000;0.6512;1.2365;
1199.4000;0.6520;1.2486;
1199.7000;0.6528;1.2535;
1200.0000;0.6536;1.2486;
1200.3000;0.6488;1.2341;
1200.6000;0.6520;1.2389;
1200.9000;0.6504;1.2389;
1201.2000;0.6520;1.2414;
1201.5000;0.6504;1.2341;
1201.8000;0.6520;1.2317;
1202.1000;0.6512;1.2341;
1202.4000;0.6488;1.2268;
1202.7000;0.6520;1.2365;
1203.0000;0.6512;1.2365;
1203.3000;0.6504;1.2414;
1203.6000;0.6512;1.2389;
1203.9000;0.6520;1.2414;
1204.2000;0.6512;1.2341;
1204.5000;0.6520;1.2341;
1204.8000;0.6504;1.2341;
1205.1000;0.6536;1.2389;
1205.4000;0.6496;1.2414;
1205.7000;0.6496;1.2365;
1206.0000;0.6536;1.2462;
1206.3000;0.6496;1.2365;
1206.6000;0.6504;1.2317;
1206.9000;0.6520;1.2414;
1207.2000;0.6512;1.2414;
1207.5000;0.6512;1.2414;
1207.8000;0.6520;1.2414;
1208.1000;0.6512;1.2462;
1208.4000;0.6479;1.2462;
1208.7000;0.6504;1.2486;
1209.0000;0.6504;1.2583;
1209.3000;0.6520;1.2656;
1209.6000;0.6496;1.2559;
1209.9000;0.6512;1.2608;
1210.2000;0.6520;1.2511;
1210.5000;0.6496;1.2292;
1210.8000;0.6504;1.2244;
1211.1000;0.6520;1.2268;
1211.4000;0.6520;1.2292;
1211.7000;0.6504;1.2292;
1212.0000;0.6512;1.2244;
1212.3000;0.6520;1.2292;
1212.6000;0.6561;1.2389;
1212.9000;0.6520;1.2341;
1213.2000;0.6447;1.2123;
1213.5000;0.6504;1.2292;
1213.8000;0.6520;1.2292;
1214.1000;0.6528;1.2292;
1214.4000;0.6496;1.2317;
1214.7000;0.6512;1.2438;
1215.0000;0.6528;1.2462;
1215.3000;0.6504;1.2511;
1215.6000;0.6512;1.2511;
1215.9000;0.6512;1.2414;
1216.2000;0.6520;1.2317;
1216.5000;0.6545;1.2486;
1216.8000;0.6504;1.2414;
1217.1000;0.6520;1.2365;
1217.4000;0.6504;1.2365;
1217.7000;0.6496;1.2365;
1218.0000;0.6520;1.2438;
1218.3000;0.6512;1.2317;
1218.6000;0.6512;1.2317;
1218.9000;0.6512;1.2341;
1219.2000;0.6512;1.2389;
1219.5000;0.6504;1.2438;
1219.8000;0.6504;1.2438;
1220.1000;0.6496;1.2365;
1220.4000;0.6512;1.2317;
1220.7000;0.6512;1.2389;
1221.0000;0.6512;1.2414;
1221.3000;0.6569;1.2511;
1221.6000;0.6504;1.2389;
1221.9000;0.6536;1.2462;
1222.2000;0.6496;1.2389;
1222.5000;0.6512;1.2414;
1222.8000;0.6520;1.2341;
1223.1000;0.6520;1.2268;
1223.4000;0.6512;1.2244;
1223.7000;0.6504;1.2196;
1224.0000;0.6520;1.2171;
1224.3000;0.6512;1.2220;
1224.6000;0.6512;1.2196;
1224.9000;0.6520;1.2244;
1225.2000;0.6512;1.2292;
1225.5000;0.6520;1.2317;
1225.8000;0.6504;1.2244;
1226.1000;0.6504;1.2196;
1226.4000;0.6504;1.2220;
1226.7000;0.6479;1.2147;
1227.0000;0.6504;1.2147;
1227.3000;0.6496;1.2123;
1227.6000;0.6504;1.2074;
1227.9000;0.6496;1.2026;
1228.2000;0.6528;1.2026;
1228.5000;0.6496;1.2026;
1228.8000;0.6512;1.2099;
1229.1000;0.6512;1.2244;
1229.4000;0.6520;1.2268;
1229.7000;0.6520;1.2365;
1230.0000;0.6504;1.2317;
1230.3000;0.6512;1.2244;
1230.6000;0.6520;1.2220;
1230.9000;0.6496;1.2171;
1231.2000;0.6504;1.2244;
1231.5000;0.6504;1.2244;
1231.8000;0.6504;1.2244;
1232.1000;0.6504;1.2268;
1232.4000;0.6520;1.2268;
1232.7000;0.6512;1.2244;
1233.0000;0.6496;1.2292;
1233.3000;0.6488;1.2317;
1233.6000;0.6496;1.2220;
1233.9000;0.6504;1.2220;
1234.2000;0.6488;1.2147;
1234.5000;0.6520;1.2244;
1234.8000;0.6512;1.2244;
1235.1000;0.6504;1.2244;
1235.4000;0.6536;1.2268;
1235.7000;0.6447;1.2074;
1236.0000;0.6488;1.2171;
1236.3000;0.6471;1.2220;
1236.6000;0.6512;1.2317;
1236.9000;0.6504;1.2317;
1237.2000;0.6512;1.2196;
1237.5000;0.6520;1.2196;
1237.8000;0.6520;1.2220;
1238.1000;0.6577;1.2365;
1238.4000;0.6512;1.2220;
1238.7000;0.6504;1.2220;
1239.0000;0.6488;1.2171;
1239.3000;0.6512;1.2365;
1239.6000;0.6471;1.2220;
1239.9000;0.6488;1.2268;
1240.2000;0.6496;1.2220;
1240.5000;0.6431;1.2074;
1240.8000;0.6479;1.2196;
1241.1000;0.6520;1.2220;
1241.4000;0.6496;1.2196;
1241.7000;0.6504;1.2244;
1242.0000;0.6431;1.2050;
1242.3000;0.6528;1.2171;
1242.6000;0.6496;1.2123;
1242.9000;0.6504;1.2074;
1243.2000;0.6512;1.2002;
1243.5000;0.6512;1.2002;
1243.8000;0.6504;1.2050;
1244.1000;0.6512;1.2171;
1244.4000;0.6520;1.2292;
1244.7000;0.6520;1.2268;
1245.0000;0.6512;1.2244;
1245.3000;0.6520;1.2292;
1245.6000;0.6520;1.2292;
1245.9000;0.6536;1.2317;
1246.2000;0.6512;1.2196;
1246.5000;0.6496;1.2147;
1246.8000;0.6512;1.2147;
1247.1000;0.6463;1.2074;
1247.4000;0.6504;1.2171;
1247.7000;0.6479;1.2099;
1248.0000;0.6504;1.2074;
1248.3000;0.6504;1.2123;
1248.6000;0.6512;1.2050;
1248.9000;0.6520;1.2099;
1249.2000;0.6439;1.1880;
1249.5000;0.6520;1.2099;
1249.8000;0.6536;1.2074;
1250.1000;0.6512;1.2026;
1250.4000;0.6512;1.1953;
1250.7000;0.6504;1.1880;
1251.0000;0.6504;1.2002;
1251.3000;0.6512;1.2050;
1251.6000;0.6536;1.2147;
1251.9000;0.6504;1.2050;
1252.2000;0.6520;1.2002;
1252.5000;0.6496;1.2002;
1252.8000;0.6496;1.2002;
1253.1000;0.6471;1.2050;
1253.4000;0.6512;1.2171;
1253.7000;0.6496;1.2196;
1254.0000;0.6479;1.2171;
1254.3000;0.6488;1.2196;
1254.6000;0.6504;1.2171;
1254.9000;0.6504;1.2220;
1255.2000;0.6528;1.2292;
1255.5000;0.6512;1.2268;
1255.8000;0.6504;1.2389;
1256.1000;0.6561;1.2583;
1256.4000;0.6512;1.2389;
1256.7000;0.6512;1.2317;
1257.0000;0.6488;1.2292;
1257.3000;0.6504;1.2341;
1257.6000;0.6520;1.2317;
1257.9000;0.6496;1.2171;
1258.2000;0.6512;1.2196;
1258.5000;0.6520;1.2244;
1258.8000;0.6528;1.2220;
1259.1000;0.6496;1.2171;
1259.4000;0.6504;1.2147;
1259.7000;0.6504;1.2099;
1260.0000;0.6512;1.2220;
1260.3000;0.6504;1.2220;
1260.6000;0.6504;1.2147;
1260.9000;0.6512;1.2123;
1261.2000;0.6520;1.2196;
1261.5000;0.6504;1.2099;
1261.8000;0.6528;1.2074;
1262.1000;0.6520;1.1905;
1262.4000;0.6512;1.1929;
1262.7000;0.6479;1.1953;
1263.0000;0.6496;1.1977;
1263.3000;0.6496;1.1977;
1263.6000;0.6488;1.2002;
1263.9000;0.6496;1.2196;
1264.2000;0.6504;1.2292;
1264.5000;0.6496;1.2292;
1264.8000;0.6496;1.2317;
1265.1000;0.6496;1.2268;
1265.4000;0.6488;1.2147;
1265.7000;0.6504;1.2123;
1266.0000;0.6496;1.2147;
1266.3000;0.6504;1.2147;
1266.6000;0.6520;1.2099;
1266.9000;0.6528;1.2147;
1267.2000;0.6512;1.2074;
1267.5000;0.6512;1.2171;
1267.8000;0.6488;1.2026;
1268.1000;0.6504;1.2074;
1268.4000;0.6520;1.2196;
1268.7000;0.6504;1.2389;
1269.0000;0.6504;1.2389;
1269.3000;0.6479;1.2268;
1269.6000;0.6439;1.2196;
1269.9000;0.6545;1.2462;
1270.2000;0.6520;1.2365;
1270.5000;0.6512;1.2414;
1270.8000;0.6488;1.2317;
1271.1000;0.6479;1.2268;
1271.4000;0.6488;1.2365;
1271.7000;0.6479;1.2317;
1272.0000;0.6504;1.2389;
1272.3000;0.6520;1.2462;
1272.6000;0.6496;1.2462;
1272.9000;0.6520;1.2511;
1273.2000;0.6488;1.2535;
1273.5000;0.6479;1.2535;
1273.8000;0.6585;1.2705;
1274.1000;0.6512;1.2583;
1274.4000;0.6488;1.2462;
1274.7000;0.6496;1.2365;
1275.0000;0.6520;1.2292;
1275.3000;0.6520;1.2292;
1275.6000;0.6512;1.2341;
1275.9000;0.6496;1.2365;
1276.2000;0.6496;1.2317;
1276.5000;0.6512;1.2268;
1276.8000;0.6512;1.2268;
1277.1000;0.6488;1.2268;
1277.4000;0.6488;1.2341;
1277.7000;0.6455;1.2292;
1278.0000;0.6471;1.2341;
1278.3000;0.6479;1.2365;
1278.6000;0.6488;1.2317;
1278.9000;0.6504;1.2389;
1279.2000;0.6504;1.2414;
1279.5000;0.6414;1.2147;
1279.8000;0.6496;1.2244;
1280.1000;0.6512;1.2292;
1280.4000;0.6512;1.2268;
1280.7000;0.6504;1.2292;
1281.0000;0.6504;1.2365;
1281.3000;0.6496;1.2462;
1281.6000;0.6520;1.2438;
1281.9000;0.6504;1.2365;
1282.2000;0.6496;1.2341;
1282.5000;0.6520;1.2486;
1282.8000;0.6504;1.2389;
1283.1000;0.6512;1.2414;
1283.4000;0.6479;1.2389;
1283.7000;0.6504;1.2414;
1284.0000;0.6471;1.2317;
1284.3000;0.6512;1.2268;
1284.6000;0.6496;1.2268;
1284.9000;0.6488;1.2317;
1285.2000;0.6496;1.2389;
1285.5000;0.6488;1.2317;
1285.8000;0.6545;1.2389;
1286.1000;0.6496;1.2244;
1286.4000;0.6463;1.2171;
1286.7000;0.6479;1.2244;
1287.0000;0.6496;1.2244;
1287.3000;0.6496;1.2244;
1287.6000;0.6479;1.2268;
1287.9000;0.6512;1.2292;
1288.2000;0.6504;1.2365;
1288.5000;0.6496;1.2317;
1288.8000;0.6479;1.2244;
1289.1000;0.6496;1.2196;
1289.4000;0.6488;1.2147;
1289.7000;0.6496;1.2123;
1290.0000;0.6504;1.2147;
1290.3000;0.6536;1.2244;
1290.6000;0.6504;1.2292;
1290.9000;0.6512;1.2341;
1291.2000;0.6496;1.2268;
1291.5000;0.6463;1.2220;
1291.8000;0.6504;1.2268;
1292.1000;0.6512;1.2220;
1292.4000;0.6536;1.2220;
1292.7000;0.6520;1.2147;
1293.0000;0.6463;1.1953;
1293.3000;0.6504;1.2123;
1293.6000;0.6496;1.2196;
1293.9000;0.6528;1.2292;
1294.2000;0.6520;1.2317;
1294.5000;0.6496;1.2317;
1294.8000;0.6512;1.2317;
1295.1000;0.6528;1.2414;
1295.4000;0.6488;1.2438;
1295.7000;0.6496;1.2438;
1296.0000;0.6520;1.2559;
1296.3000;0.6520;1.2462;
1296.6000;0.6496;1.2317;
1296.9000;0.6496;1.2317;
1297.2000;0.6496;1.2292;
1297.5000;0.6504;1.2341;
1297.8000;0.6463;1.2341;
1298.1000;0.6471;1.2341;
1298.4000;0.6488;1.2414;
1298.7000;0.6504;1.2438;
1299.0000;0.6479;1.2292;
1299.3000;0.6496;1.2292;
1299.6000;0.6496;1.2244;
1299.9000;0.6496;1.2171;
1300.2000;0.6479;1.2196;
1300.5000;0.6504;1.2268;
1300.8000;0.6496;1.2244;
1301.1000;0.6504;1.2244;
1301.4000;0.6488;1.2220;
1301.7000;0.6488;1.2171;
1302.0000;0.6504;1.2196;
1302.3000;0.6504;1.2123;
1302.6000;0.6479;1.2074;
1302.9000;0.6512;1.2147;
1303.2000;0.6504;1.2171;
1303.5000;0.6504;1.2123;
1303.8000;0.6496;1.2171;
1304.1000;0.6479;1.2171;
1304.4000;0.6496;1.2171;
1304.7000;0.6479;1.2147;
1305.0000;0.6488;1.2099;
1305.3000;0.6488;1.2099;
1305.6000;0.6504;1.2123;
1305.9000;0.6512;1.2123;
1306.2000;0.6496;1.2147;
1306.5000;0.6496;1.2220;
1306.8000;0.6512;1.2244;
1307.1000;0.6488;1.2196;
1307.4000;0.6528;1.2220;
1307.7000;0.6439;1.2099;
1308.0000;0.6479;1.2196;
1308.3000;0.6553;1.2462;
1308.6000;0.6504;1.2341;
1308.9000;0.6512;1.2317;
1309.2000;0.6504;1.2317;
1309.5000;0.6496;1.2317;
1309.8000;0.6488;1.2244;
1310.1000;0.6463;1.2196;
1310.4000;0.6471;1.2268;
1310.7000;0.6447;1.2244;
1311.0000;0.6553;1.2535;
1311.3000;0.6422;1.2099;
1311.6000;0.6479;1.2244;
1311.9000;0.6488;1.2171;
1312.2000;0.6496;1.2147;
1312.5000;0.6496;1.2171;
1312.8000;0.6488;1.2123;
1313.1000;0.6528;1.2317;
1313.4000;0.6488;1.2268;
1313.7000;0.6512;1.2292;
1314.0000;0.6479;1.2341;
1314.3000;0.6488;1.2244;
1314.6000;0.6488;1.2268;
1314.9000;0.6471;1.2196;
1315.2000;0.6488;1.2268;
1315.5000;0.6479;1.2244;
1315.8000;0.6504;1.2268;
1316.1000;0.6512;1.2268;
1316.4000;0.6496;1.2268;
1316.7000;0.6488;1.2196;
1317.0000;0.6504;1.2220;
1317.3000;0.6504;1.2196;
1317.6000;0.6496;1.2220;
1317.9000;0.6496;1.2220;
1318.2000;0.6455;1.2147;
1318.5000;0.6479;1.2244;
1318.8000;0.6463;1.2244;
1319.1000;0.6488;1.2341;
1319.4000;0.6488;1.2268;
1319.7000;0.6545;1.2389;
1320.0000;0.6471;1.2220;
1320.3000;0.6488;1.2292;
1320.6000;0.6463;1.2292;
1320.9000;0.6431;1.2268;
1321.2000;0.6488;1.2341;
1321.5000;0.6488;1.2317;
1321.8000;0.6488;1.2268;
1322.1000;0.6496;1.2389;
1322.4000;0.6479;1.2462;
1322.7000;0.6496;1.2462;
1323.0000;0.6471;1.2414;
1323.3000;0.6496;1.2462;
1323.6000;0.6504;1.2511;
1323.9000;0.6488;1.2438;
1324.2000;0.6520;1.2365;
1324.5000;0.6504;1.2341;
1324.8000;0.6496;1.2292;
1325.1000;0.6488;1.2220;
1325.4000;0.6488;1.2220;
1325.7000;0.6479;1.2268;
1326.0000;0.6479;1.2292;
1326.3000;0.6504;1.2341;
1326.6000;0.6496;1.2414;
1326.9000;0.6488;1.2292;
1327.2000;0.6471;1.2317;
1327.5000;0.6504;1.2438;
1327.8000;0.6504;1.2389;
1328.1000;0.6496;1.2365;
1328.4000;0.6488;1.2365;
1328.7000;0.6496;1.2292;
1329.0000;0.6496;1.2292;
1329.3000;0.6479;1.2220;
1329.6000;0.6471;1.2196;
1329.9000;0.6488;1.2220;
1330.2000;0.6488;1.2074;
1330.5000;0.6496;1.2074;
1330.8000;0.6479;1.1977;
1331.1000;0.6471;1.2050;
1331.4000;0.6463;1.2050;
1331.7000;0.6479;1.2050;
1332.0000;0.6520;1.2074;
1332.3000;0.6545;1.2147;
1332.6000;0.6479;1.2026;
1332.9000;0.6496;1.2147;
1333.2000;0.6520;1.2268;
1333.5000;0.6471;1.2220;
1333.8000;0.6496;1.2365;
1334.1000;0.6455;1.2220;
1334.4000;0.6488;1.2292;
1334.7000;0.6471;1.2292;
1335.0000;0.6545;1.2462;
1335.3000;0.6585;1.2608;
1335.6000;0.6488;1.2414;
1335.9000;0.6496;1.2438;
1336.2000;0.6471;1.2462;
1336.5000;0.6496;1.2462;
1336.8000;0.6545;1.2583;
1337.1000;0.6496;1.2438;
1337.4000;0.6471;1.2365;
1337.7000;0.6496;1.2438;
1338.0000;0.6479;1.2462;
1338.3000;0.6496;1.2559;
1338.6000;0.6496;1.2511;
1338.9000;0.6479;1.2414;
1339.2000;0.6504;1.2438;
1339.5000;0.6496;1.2438;
1339.8000;0.6479;1.2511;
1340.1000;0.6504;1.2511;
1340.4000;0.6504;1.2486;
1340.7000;0.6496;1.2414;
1341.0000;0.6504;1.2438;
1341.3000;0.6536;1.2535;
1341.6000;0.6504;1.2462;
1341.9000;0.6488;1.2486;
1342.2000;0.6479;1.2365;
1342.5000;0.6488;1.2438;
1342.8000;0.6504;1.2559;
1343.1000;0.6504;1.2583;
1343.4000;0.6496;1.2559;
1343.7000;0.6471;1.2511;
1344.0000;0.6479;1.2438;
1344.3000;0.6447;1.2317;
1344.6000;0.6463;1.2292;
1344.9000;0.6463;1.2341;
1345.2000;0.6471;1.2268;
1345.5000;0.6488;1.2268;
1345.8000;0.6496;1.2365;
1346.1000;0.6479;1.2341;
1346.4000;0.6479;1.2317;
1346.7000;0.6488;1.2341;
1347.0000;0.6504;1.2486;
1347.3000;0.6471;1.2341;
1347.6000;0.6528;1.2559;
1347.9000;0.6504;1.2462;
1348.2000;0.6512;1.2535;
1348.5000;0.6471;1.2341;
1348.8000;0.6488;1.2317;
1349.1000;0.6504;1.2341;
1349.4000;0.6471;1.2317;
1349.7000;0.6504;1.2317;
1350.0000;0.6488;1.2244;
1350.3000;0.6488;1.2220;
1350.6000;0.6496;1.2220;
1350.9000;0.6496;1.2220;
1351.2000;0.6496;1.2171;
1351.5000;0.6496;1.2147;
1351.8000;0.6496;1.2099;
1352.1000;0.6496;1.2147;
1352.4000;0.6504;1.2147;
1352.7000;0.6479;1.2123;
1353.0000;0.6504;1.2171;
1353.3000;0.6520;1.2220;
1353.6000;0.6520;1.2196;
1353.9000;0.6512;1.2123;
1354.2000;0.6488;1.2171;
1354.5000;0.6496;1.2244;
1354.8000;0.6520;1.2389;
1355.1000;0.6488;1.2462;
1355.4000;0.6471;1.2438;
1355.7000;0.6536;1.2559;
1356.0000;0.6536;1.2559;
1356.3000;0.6479;1.2365;
1356.6000;0.6488;1.2365;
1356.9000;0.6488;1.2414;
1357.2000;0.6512;1.2462;
1357.5000;0.6496;1.2389;
1357.8000;0.6488;1.2389;
1358.1000;0.6479;1.2317;
1358.4000;0.6504;1.2292;
1358.7000;0.6504;1.2341;
1359.0000;0.6488;1.2389;
1359.3000;0.6488;1.2317;
1359.6000;0.6504;1.2244;
1359.9000;0.6479;1.2147;
1360.2000;0.6479;1.2196;
1360.5000;0.6479;1.2171;
1360.8000;0.6463;1.2171;
1361.1000;0.6488;1.2244;
1361.4000;0.6479;1.2268;
1361.7000;0.6479;1.2220;
1362.0000;0.6471;1.2244;
1362.3000;0.6479;1.2317;
1362.6000;0.6496;1.2268;
1362.9000;0.6479;1.2365;
1363.2000;0.6488;1.2462;
1363.5000;0.6512;1.2535;
1363.8000;0.6496;1.2559;
1364.1000;0.6488;1.2511;
1364.4000;0.6488;1.2632;
1364.7000;0.6488;1.2632;
1365.0000;0.6496;1.2559;
1365.3000;0.6488;1.2462;
1365.6000;0.6488;1.2462;
1365.9000;0.6520;1.2559;
1366.2000;0.6520;1.2486;
1366.5000;0.6488;1.2462;
1366.8000;0.6471;1.2414;
1367.1000;0.6471;1.2462;
1367.4000;0.6471;1.2414;
1367.7000;0.6479;1.2438;
1368.0000;0.6463;1.2414;
1368.3000;0.6471;1.2438;
1368.6000;0.6479;1.2462;
1368.9000;0.6536;1.2559;
1369.2000;0.6488;1.2486;
1369.5000;0.6512;1.2583;
1369.8000;0.6496;1.2583;
1370.1000;0.6496;1.2559;
1370.4000;0.6496;1.2559;
1370.7000;0.6479;1.2438;
1371.0000;0.6496;1.2414;
1371.3000;0.6488;1.2414;
1371.6000;0.6488;1.2292;
1371.9000;0.6479;1.2292;
1372.2000;0.6479;1.2365;
1372.5000;0.6488;1.2389;
1372.8000;0.6488;1.2414;
1373.1000;0.6496;1.2414;
1373.4000;0.6479;1.2438;
1373.7000;0.6488;1.2511;
1374.0000;0.6488;1.2389;
1374.3000;0.6553;1.2583;
1374.6000;0.6488;1.2462;
1374.9000;0.6528;1.2535;
1375.2000;0.6488;1.2486;
1375.5000;0.6488;1.2462;
1375.8000;0.6479;1.2511;
1376.1000;0.6479;1.2583;
1376.4000;0.6504;1.2559;
1376.7000;0.6488;1.2462;
1377.0000;0.6488;1.2389;
1377.3000;0.6496;1.2389;
1377.6000;0.6496;1.2341;
1377.9000;0.6463;1.2220;
1378.2000;0.6488;1.2268;
1378.5000;0.6496;1.2317;
1378.8000;0.6496;1.2365;
1379.1000;0.6479;1.2389;
1379.4000;0.6496;1.2292;
1379.7000;0.6488;1.2268;
1380.0000;0.6496;1.2341;
1380.3000;0.6479;1.2341;
1380.6000;0.6479;1.2341;
1380.9000;0.6463;1.2317;
1381.2000;0.6488;1.2292;
1381.5000;0.6488;1.2365;
1381.8000;0.6471;1.2365;
1382.1000;0.6471;1.2438;
1382.4000;0.6479;1.2317;
1382.7000;0.6488;1.2365;
1383.0000;0.6471;1.2389;
1383.3000;0.6488;1.2414;
1383.6000;0.6406;1.2196;
1383.9000;0.6479;1.2389;
1384.2000;0.6496;1.2389;
1384.5000;0.6488;1.2438;
1384.8000;0.6471;1.2414;
1385.1000;0.6488;1.2365;
1385.4000;0.6488;1.2268;
1385.7000;0.6496;1.2389;
1386.0000;0.6520;1.2414;
1386.3000;0.6471;1.2244;
1386.6000;0.6520;1.2389;
1386.9000;0.6431;1.2147;
1387.2000;0.6545;1.2438;
1387.5000;0.6512;1.2317;
1387.8000;0.6488;1.2268;
1388.1000;0.6479;1.2268;
1388.4000;0.6431;1.2147;
1388.7000;0.6479;1.2317;
1389.0000;0.6488;1.2341;
1389.3000;0.6488;1.2389;
1389.6000;0.6447;1.2292;
1389.9000;0.6479;1.2341;
1390.2000;0.6471;1.2414;
1390.5000;0.6447;1.2365;
1390.8000;0.6488;1.2438;
1391.1000;0.6471;1.2365;
1391.4000;0.6504;1.2365;
1391.7000;0.6488;1.2317;
1392.0000;0.6488;1.2317;
1392.3000;0.6471;1.2292;
1392.6000;0.6479;1.2292;
1392.9000;0.6479;1.2220;
1393.2000;0.6504;1.2220;
1393.5000;0.6479;1.2171;
1393.8000;0.6488;1.2147;
1394.1000;0.6512;1.2292;
1394.4000;0.6496;1.2268;
1394.7000;0.6479;1.2171;
1395.0000;0.6488;1.2196;
1395.3000;0.6512;1.2268;
1395.6000;0.6496;1.2268;
1395.9000;0.6479;1.2317;
1396.2000;0.6536;1.2511;
1396.5000;0.6488;1.2341;
1396.8000;0.6463;1.2244;
1397.1000;0.6479;1.2365;
1397.4000;0.6439;1.2268;
1397.7000;0.6479;1.2317;
1398.0000;0.6520;1.2365;
1398.3000;0.6471;1.2244;
1398.6000;0.6479;1.2317;
1398.9000;0.6479;1.2268;
1399.2000;0.6528;1.2341;
1399.5000;0.6479;1.2317;
1399.8000;0.6479;1.2317;
