time/ms;Fluo/V;P700 deltaI/I x10³;
-199.8000;1.1681;1.4062;
-199.5000;1.1681;1.4038;
-199.2000;1.1681;1.4038;
-198.9000;1.1722;1.4208;
-198.6000;1.1713;1.4232;
-198.3000;1.1689;1.4184;
-198.0000;1.1673;1.4087;
-197.7000;1.1616;1.3941;
-197.4000;1.1689;1.4062;
-197.1000;1.1722;1.4159;
-196.8000;1.1713;1.4087;
-196.5000;1.1673;1.4014;
-196.2000;1.1697;1.3941;
-195.9000;1.1705;1.4014;
-195.6000;1.1673;1.3990;
-195.3000;1.1770;1.4159;
-195.0000;1.1730;1.3990;
-194.7000;1.1705;1.3941;
-194.4000;1.1697;1.4014;
-194.1000;1.1754;1.4208;
-193.8000;1.1673;1.3965;
-193.5000;1.1689;1.3965;
-193.2000;1.1689;1.3965;
-192.9000;1.1689;1.3941;
-192.6000;1.1673;1.3917;
-192.3000;1.1705;1.3965;
-192.0000;1.1697;1.3893;
-191.7000;1.1681;1.3868;
-191.4000;1.1689;1.3965;
-191.1000;1.1697;1.3941;
-190.8000;1.1689;1.3965;
-190.5000;1.1705;1.3965;
-190.2000;1.1705;1.3917;
-189.9000;1.1640;1.3820;
-189.6000;1.1697;1.3941;
-189.3000;1.1681;1.3990;
-189.0000;1.1697;1.4062;
-188.7000;1.1689;1.4159;
-188.4000;1.1689;1.4087;
-188.1000;1.1697;1.4038;
-187.8000;1.1681;1.3965;
-187.5000;1.1673;1.3941;
-187.2000;1.1681;1.3941;
-186.9000;1.1697;1.3990;
-186.6000;1.1689;1.4014;
-186.3000;1.1697;1.4062;
-186.0000;1.1697;1.4038;
-185.7000;1.1697;1.4014;
-185.4000;1.1697;1.4038;
-185.1000;1.1697;1.4014;
-184.8000;1.1697;1.3941;
-184.5000;1.1697;1.3965;
-184.2000;1.1697;1.3917;
-183.9000;1.1713;1.3893;
-183.6000;1.1697;1.3868;
-183.3000;1.1689;1.3820;
-183.0000;1.1689;1.3820;
-182.7000;1.1697;1.3941;
-182.4000;1.1624;1.3820;
-182.1000;1.1681;1.4014;
-181.8000;1.1697;1.4062;
-181.5000;1.1632;1.3844;
-181.2000;1.1681;1.3941;
-180.9000;1.1640;1.3820;
-180.6000;1.1697;1.3917;
-180.3000;1.1738;1.4038;
-180.0000;1.1697;1.3965;
-179.7000;1.1697;1.3965;
-179.4000;1.1697;1.3965;
-179.1000;1.1697;1.4038;
-178.8000;1.1713;1.4087;
-178.5000;1.1689;1.4062;
-178.2000;1.1665;1.3941;
-177.9000;1.1673;1.3893;
-177.6000;1.1697;1.4014;
-177.3000;1.1681;1.3990;
-177.0000;1.1705;1.4014;
-176.7000;1.1656;1.3965;
-176.4000;1.1681;1.4014;
-176.1000;1.1722;1.4062;
-175.8000;1.1697;1.3990;
-175.5000;1.1689;1.4014;
-175.2000;1.1656;1.3941;
-174.9000;1.1697;1.4038;
-174.6000;1.1656;1.4014;
-174.3000;1.1689;1.3990;
-174.0000;1.1705;1.4038;
-173.7000;1.1673;1.3917;
-173.4000;1.1681;1.3917;
-173.1000;1.1689;1.3868;
-172.8000;1.1713;1.4038;
-172.5000;1.1689;1.4038;
-172.2000;1.1689;1.4087;
-171.9000;1.1689;1.4062;
-171.6000;1.1705;1.4111;
-171.3000;1.1705;1.4135;
-171.0000;1.1689;1.4087;
-170.7000;1.1689;1.4038;
-170.4000;1.1689;1.3965;
-170.1000;1.1705;1.4038;
-169.8000;1.1697;1.4038;
-169.5000;1.1689;1.4014;
-169.2000;1.1681;1.3990;
-168.9000;1.1689;1.4038;
-168.6000;1.1713;1.4062;
-168.3000;1.1681;1.4038;
-168.0000;1.1689;1.4038;
-167.7000;1.1689;1.3941;
-167.4000;1.1697;1.3941;
-167.1000;1.1705;1.3990;
-166.8000;1.1689;1.3868;
-166.5000;1.1705;1.3868;
-166.2000;1.1705;1.3820;
-165.9000;1.1705;1.3820;
-165.6000;1.1697;1.3796;
-165.3000;1.1713;1.3796;
-165.0000;1.1697;1.3820;
-164.7000;1.1738;1.3917;
-164.4000;1.1689;1.3965;
-164.1000;1.1697;1.4014;
-163.8000;1.1697;1.4038;
-163.5000;1.1697;1.3990;
-163.2000;1.1697;1.3965;
-162.9000;1.1681;1.3990;
-162.6000;1.1681;1.4014;
-162.3000;1.1689;1.4038;
-162.0000;1.1681;1.3941;
-161.7000;1.1681;1.3941;
-161.4000;1.1697;1.3990;
-161.1000;1.1713;1.4014;
-160.8000;1.1689;1.4135;
-160.5000;1.1705;1.4135;
-160.2000;1.1689;1.4038;
-159.9000;1.1689;1.4038;
-159.6000;1.1697;1.4014;
-159.3000;1.1689;1.3965;
-159.0000;1.1697;1.3990;
-158.7000;1.1705;1.3990;
-158.4000;1.1705;1.3965;
-158.1000;1.1681;1.4038;
-157.8000;1.1697;1.4087;
-157.5000;1.1697;1.4135;
-157.2000;1.1689;1.4184;
-156.9000;1.1697;1.4135;
-156.6000;1.1681;1.4038;
-156.3000;1.1656;1.3941;
-156.0000;1.1689;1.4111;
-155.7000;1.1689;1.4135;
-155.4000;1.1730;1.4184;
-155.1000;1.1673;1.4038;
-154.8000;1.1713;1.4087;
-154.5000;1.1697;1.3965;
-154.2000;1.1689;1.3917;
-153.9000;1.1697;1.3941;
-153.6000;1.1689;1.4014;
-153.3000;1.1689;1.4062;
-153.0000;1.1681;1.3941;
-152.7000;1.1681;1.3868;
-152.4000;1.1689;1.3941;
-152.1000;1.1697;1.3941;
-151.8000;1.1689;1.3941;
-151.5000;1.1689;1.3868;
-151.2000;1.1770;1.4062;
-150.9000;1.1689;1.3868;
-150.6000;1.1689;1.3820;
-150.3000;1.1697;1.3844;
-150.0000;1.1689;1.3820;
-149.7000;1.1697;1.3796;
-149.4000;1.1689;1.3820;
-149.1000;1.1689;1.3844;
-148.8000;1.1689;1.3965;
-148.5000;1.1697;1.3965;
-148.2000;1.1640;1.3796;
-147.9000;1.1681;1.3965;
-147.6000;1.1697;1.3941;
-147.3000;1.1689;1.3990;
-147.0000;1.1697;1.4038;
-146.7000;1.1697;1.4038;
-146.4000;1.1697;1.3965;
-146.1000;1.1697;1.3990;
-145.8000;1.1730;1.4062;
-145.5000;1.1713;1.4014;
-145.2000;1.1697;1.3941;
-144.9000;1.1705;1.3941;
-144.6000;1.1762;1.4062;
-144.3000;1.1697;1.3941;
-144.0000;1.1697;1.3917;
-143.7000;1.1730;1.3941;
-143.4000;1.1722;1.3990;
-143.1000;1.1689;1.3965;
-142.8000;1.1738;1.4014;
-142.5000;1.1697;1.3771;
-142.2000;1.1697;1.3723;
-141.9000;1.1697;1.3699;
-141.6000;1.1689;1.3820;
-141.3000;1.1689;1.3893;
-141.0000;1.1713;1.4135;
-140.7000;1.1697;1.4014;
-140.4000;1.1697;1.4038;
-140.1000;1.1673;1.3990;
-139.8000;1.1689;1.4038;
-139.5000;1.1689;1.3990;
-139.2000;1.1697;1.3893;
-138.9000;1.1697;1.3917;
-138.6000;1.1713;1.3990;
-138.3000;1.1697;1.3917;
-138.0000;1.1689;1.3868;
-137.7000;1.1681;1.3796;
-137.4000;1.1681;1.3747;
-137.1000;1.1689;1.3771;
-136.8000;1.1689;1.3723;
-136.5000;1.1681;1.3674;
-136.2000;1.1689;1.3674;
-135.9000;1.1697;1.3820;
-135.6000;1.1705;1.3844;
-135.3000;1.1640;1.3674;
-135.0000;1.1705;1.3868;
-134.7000;1.1689;1.3771;
-134.4000;1.1681;1.3699;
-134.1000;1.1697;1.3771;
-133.8000;1.1705;1.3771;
-133.5000;1.1697;1.3723;
-133.2000;1.1713;1.3844;
-132.9000;1.1705;1.3917;
-132.6000;1.1689;1.3868;
-132.3000;1.1705;1.3893;
-132.0000;1.1713;1.3844;
-131.7000;1.1697;1.3796;
-131.4000;1.1689;1.3868;
-131.1000;1.1689;1.3868;
-130.8000;1.1697;1.3893;
-130.5000;1.1697;1.3917;
-130.2000;1.1681;1.3917;
-129.9000;1.1681;1.3941;
-129.6000;1.1681;1.4014;
-129.3000;1.1681;1.3917;
-129.0000;1.1697;1.3941;
-128.7000;1.1665;1.3868;
-128.4000;1.1697;1.3941;
-128.1000;1.1697;1.3941;
-127.8000;1.1705;1.3917;
-127.5000;1.1713;1.4014;
-127.2000;1.1681;1.3893;
-126.9000;1.1681;1.3844;
-126.6000;1.1689;1.3868;
-126.3000;1.1713;1.3868;
-126.0000;1.1673;1.3796;
-125.7000;1.1689;1.3796;
-125.4000;1.1665;1.3747;
-125.1000;1.1705;1.3796;
-124.8000;1.1730;1.3844;
-124.5000;1.1705;1.3796;
-124.2000;1.1697;1.3796;
-123.9000;1.1689;1.3796;
-123.6000;1.1689;1.3796;
-123.3000;1.1713;1.3917;
-123.0000;1.1713;1.3941;
-122.7000;1.1689;1.3941;
-122.4000;1.1689;1.3893;
-122.1000;1.1705;1.3917;
-121.8000;1.1656;1.3796;
-121.5000;1.1697;1.3893;
-121.2000;1.1689;1.3868;
-120.9000;1.1697;1.3796;
-120.6000;1.1697;1.3747;
-120.3000;1.1705;1.3796;
-120.0000;1.1697;1.3771;
-119.7000;1.1697;1.3747;
-119.4000;1.1681;1.3747;
-119.1000;1.1746;1.3893;
-118.8000;1.1624;1.3578;
-118.5000;1.1689;1.3747;
-118.2000;1.1689;1.3771;
-117.9000;1.1697;1.3844;
-117.6000;1.1754;1.4038;
-117.3000;1.1689;1.3820;
-117.0000;1.1689;1.3893;
-116.7000;1.1697;1.3820;
-116.4000;1.1697;1.3796;
-116.1000;1.1689;1.3771;
-115.8000;1.1705;1.3844;
-115.5000;1.1689;1.3893;
-115.2000;1.1697;1.3941;
-114.9000;1.1681;1.3893;
-114.6000;1.1681;1.3820;
-114.3000;1.1689;1.3796;
-114.0000;1.1705;1.3747;
-113.7000;1.1697;1.3820;
-113.4000;1.1673;1.3747;
-113.1000;1.1689;1.3796;
-112.8000;1.1697;1.3868;
-112.5000;1.1697;1.3868;
-112.2000;1.1705;1.3844;
-111.9000;1.1673;1.3771;
-111.6000;1.1681;1.3796;
-111.3000;1.1681;1.3820;
-111.0000;1.1713;1.3771;
-110.7000;1.1681;1.3699;
-110.4000;1.1689;1.3723;
-110.1000;1.1689;1.3747;
-109.8000;1.1722;1.3771;
-109.5000;1.1689;1.3723;
-109.2000;1.1681;1.3747;
-108.9000;1.1689;1.3723;
-108.6000;1.1689;1.3650;
-108.3000;1.1689;1.3674;
-108.0000;1.1705;1.3820;
-107.7000;1.1697;1.3820;
-107.4000;1.1697;1.3796;
-107.1000;1.1697;1.3820;
-106.8000;1.1681;1.3771;
-106.5000;1.1705;1.3868;
-106.2000;1.1730;1.3941;
-105.9000;1.1681;1.3796;
-105.6000;1.1673;1.3747;
-105.3000;1.1673;1.3626;
-105.0000;1.1689;1.3626;
-104.7000;1.1705;1.3699;
-104.4000;1.1681;1.3747;
-104.1000;1.1681;1.3771;
-103.8000;1.1697;1.3796;
-103.5000;1.1705;1.3771;
-103.2000;1.1689;1.3771;
-102.9000;1.1656;1.3771;
-102.6000;1.1689;1.3893;
-102.3000;1.1697;1.3893;
-102.0000;1.1705;1.3868;
-101.7000;1.1681;1.3868;
-101.4000;1.1705;1.3990;
-101.1000;1.1697;1.3965;
-100.8000;1.1689;1.3965;
-100.5000;1.1697;1.3893;
-100.2000;1.1689;1.3844;
-99.9000;1.1689;1.3990;
-99.6000;1.1689;1.3893;
-99.3000;1.1689;1.3844;
-99.0000;1.1656;1.3747;
-98.7000;1.1697;1.3747;
-98.4000;1.1689;1.3723;
-98.1000;1.1681;1.3796;
-97.8000;1.1673;1.3820;
-97.5000;1.1689;1.3893;
-97.2000;1.1681;1.3844;
-96.9000;1.1689;1.3868;
-96.6000;1.1681;1.3796;
-96.3000;1.1608;1.3650;
-96.0000;1.1697;1.3965;
-95.7000;1.1673;1.3990;
-95.4000;1.1689;1.3990;
-95.1000;1.1665;1.3990;
-94.8000;1.1713;1.4062;
-94.5000;1.1681;1.4014;
-94.2000;1.1697;1.4014;
-93.9000;1.1681;1.4014;
-93.6000;1.1689;1.4062;
-93.3000;1.1697;1.4159;
-93.0000;1.1689;1.4038;
-92.7000;1.1689;1.4062;
-92.4000;1.1705;1.3941;
-92.1000;1.1705;1.3917;
-91.8000;1.1722;1.3990;
-91.5000;1.1681;1.3941;
-91.2000;1.1681;1.3941;
-90.9000;1.1705;1.3941;
-90.6000;1.1705;1.3917;
-90.3000;1.1665;1.3747;
-90.0000;1.1689;1.3844;
-89.7000;1.1697;1.3844;
-89.4000;1.1689;1.3868;
-89.1000;1.1697;1.3941;
-88.8000;1.1624;1.3820;
-88.5000;1.1697;1.3965;
-88.2000;1.1705;1.4038;
-87.9000;1.1697;1.4087;
-87.6000;1.1681;1.4062;
-87.3000;1.1689;1.4062;
-87.0000;1.1697;1.3990;
-86.7000;1.1713;1.4014;
-86.4000;1.1705;1.3990;
-86.1000;1.1697;1.3893;
-85.8000;1.1697;1.3965;
-85.5000;1.1697;1.3990;
-85.2000;1.1689;1.3941;
-84.9000;1.1681;1.3990;
-84.6000;1.1681;1.4062;
-84.3000;1.1697;1.4014;
-84.0000;1.1665;1.3965;
-83.7000;1.1689;1.4038;
-83.4000;1.1689;1.4135;
-83.1000;1.1738;1.4256;
-82.8000;1.1689;1.4159;
-82.5000;1.1681;1.4135;
-82.2000;1.1738;1.4184;
-81.9000;1.1705;1.3990;
-81.6000;1.1689;1.3868;
-81.3000;1.1697;1.3820;
-81.0000;1.1697;1.3820;
-80.7000;1.1705;1.3844;
-80.4000;1.1738;1.3965;
-80.1000;1.1681;1.3868;
-79.8000;1.1697;1.3844;
-79.5000;1.1705;1.3917;
-79.2000;1.1697;1.3868;
-78.9000;1.1705;1.3868;
-78.6000;1.1681;1.3868;
-78.3000;1.1705;1.3990;
-78.0000;1.1697;1.4038;
-77.7000;1.1681;1.3941;
-77.4000;1.1697;1.3893;
-77.1000;1.1689;1.3893;
-76.8000;1.1689;1.3868;
-76.5000;1.1705;1.3917;
-76.2000;1.1681;1.3941;
-75.9000;1.1689;1.3990;
-75.6000;1.1689;1.3990;
-75.3000;1.1689;1.3917;
-75.0000;1.1681;1.3844;
-74.7000;1.1697;1.3820;
-74.4000;1.1689;1.3796;
-74.1000;1.1689;1.3796;
-73.8000;1.1624;1.3602;
-73.5000;1.1689;1.3771;
-73.2000;1.1640;1.3626;
-72.9000;1.1697;1.3820;
-72.6000;1.1689;1.3820;
-72.3000;1.1697;1.3868;
-72.0000;1.1673;1.3917;
-71.7000;1.1673;1.3990;
-71.4000;1.1697;1.3941;
-71.1000;1.1681;1.3868;
-70.8000;1.1689;1.3844;
-70.5000;1.1673;1.3747;
-70.2000;1.1689;1.3699;
-69.9000;1.1673;1.3602;
-69.6000;1.1673;1.3553;
-69.3000;1.1689;1.3578;
-69.0000;1.1689;1.3578;
-68.7000;1.1673;1.3602;
-68.4000;1.1681;1.3650;
-68.1000;1.1673;1.3602;
-67.8000;1.1656;1.3650;
-67.5000;1.1697;1.3699;
-67.2000;1.1689;1.3650;
-66.9000;1.1697;1.3602;
-66.6000;1.1697;1.3674;
-66.3000;1.1697;1.3699;
-66.0000;1.1681;1.3699;
-65.7000;1.1697;1.3699;
-65.4000;1.1697;1.3796;
-65.1000;1.1697;1.3771;
-64.8000;1.1632;1.3602;
-64.5000;1.1697;1.3747;
-64.2000;1.1673;1.3723;
-63.9000;1.1697;1.3893;
-63.6000;1.1697;1.3820;
-63.3000;1.1689;1.3796;
-63.0000;1.1697;1.3820;
-62.7000;1.1689;1.3917;
-62.4000;1.1681;1.3941;
-62.1000;1.1681;1.3941;
-61.8000;1.1673;1.3990;
-61.5000;1.1697;1.4038;
-61.2000;1.1689;1.3917;
-60.9000;1.1681;1.3868;
-60.6000;1.1689;1.3796;
-60.3000;1.1697;1.3771;
-60.0000;1.1689;1.3771;
-59.7000;1.1705;1.3868;
-59.4000;1.1681;1.3917;
-59.1000;1.1697;1.4014;
-58.8000;1.1665;1.3990;
-58.5000;1.1697;1.4087;
-58.2000;1.1689;1.4014;
-57.9000;1.1713;1.4135;
-57.6000;1.1689;1.4062;
-57.3000;1.1689;1.4135;
-57.0000;1.1681;1.4135;
-56.7000;1.1697;1.4062;
-56.4000;1.1665;1.3941;
-56.1000;1.1681;1.3965;
-55.8000;1.1681;1.3893;
-55.5000;1.1738;1.3990;
-55.2000;1.1746;1.3941;
-54.9000;1.1713;1.3893;
-54.6000;1.1689;1.3941;
-54.3000;1.1697;1.3990;
-54.0000;1.1697;1.4038;
-53.7000;1.1722;1.4208;
-53.4000;1.1673;1.4135;
-53.1000;1.1681;1.4135;
-52.8000;1.1705;1.4208;
-52.5000;1.1697;1.4135;
-52.2000;1.1746;1.4087;
-51.9000;1.1705;1.4014;
-51.6000;1.1697;1.4062;
-51.3000;1.1648;1.3941;
-51.0000;1.1681;1.4038;
-50.7000;1.1713;1.4111;
-50.4000;1.1697;1.4062;
-50.1000;1.1689;1.4014;
-49.8000;1.1705;1.4014;
-49.5000;1.1705;1.3965;
-49.2000;1.1665;1.4014;
-48.9000;1.1681;1.4135;
-48.6000;1.1624;1.4038;
-48.3000;1.1640;1.4062;
-48.0000;1.1689;1.4232;
-47.7000;1.1656;1.4135;
-47.4000;1.1697;1.4208;
-47.1000;1.1705;1.4135;
-46.8000;1.1738;1.4159;
-46.5000;1.1689;1.4087;
-46.2000;1.1697;1.4087;
-45.9000;1.1705;1.4135;
-45.6000;1.1697;1.4087;
-45.3000;1.1681;1.4111;
-45.0000;1.1681;1.4111;
-44.7000;1.1705;1.4038;
-44.4000;1.1689;1.3965;
-44.1000;1.1689;1.3917;
-43.8000;1.1697;1.3868;
-43.5000;1.1689;1.3820;
-43.2000;1.1689;1.3917;
-42.9000;1.1689;1.3990;
-42.6000;1.1689;1.4087;
-42.3000;1.1713;1.4159;
-42.0000;1.1697;1.4111;
-41.7000;1.1713;1.4159;
-41.4000;1.1713;1.4062;
-41.1000;1.1754;1.4135;
-40.8000;1.1697;1.3990;
-40.5000;1.1713;1.3941;
-40.2000;1.1713;1.3820;
-39.9000;1.1689;1.3771;
-39.6000;1.1705;1.3771;
-39.3000;1.1746;1.3893;
-39.0000;1.1681;1.3747;
-38.7000;1.1697;1.3820;
-38.4000;1.1681;1.3820;
-38.1000;1.1681;1.3893;
-37.8000;1.1681;1.3917;
-37.5000;1.1689;1.3868;
-37.2000;1.1689;1.3868;
-36.9000;1.1689;1.3820;
-36.6000;1.1697;1.3893;
-36.3000;1.1697;1.3990;
-36.0000;1.1697;1.4038;
-35.7000;1.1730;1.4062;
-35.4000;1.1697;1.4038;
-35.1000;1.1681;1.4014;
-34.8000;1.1713;1.4135;
-34.5000;1.1730;1.4135;
-34.2000;1.1705;1.4087;
-33.9000;1.1697;1.4111;
-33.6000;1.1738;1.4159;
-33.3000;1.1689;1.4087;
-33.0000;1.1640;1.3917;
-32.7000;1.1697;1.3990;
-32.4000;1.1681;1.3965;
-32.1000;1.1754;1.4087;
-31.8000;1.1746;1.4159;
-31.5000;1.1673;1.4038;
-31.2000;1.1673;1.4038;
-30.9000;1.1681;1.4038;
-30.6000;1.1656;1.4038;
-30.3000;1.1681;1.4111;
-30.0000;1.1681;1.4062;
-29.7000;1.1705;1.4184;
-29.4000;1.1722;1.4208;
-29.1000;1.1705;1.4232;
-28.8000;1.1656;1.3990;
-28.5000;1.1689;1.3990;
-28.2000;1.1689;1.3965;
-27.9000;1.1673;1.3868;
-27.6000;1.1681;1.3965;
-27.3000;1.1713;1.4087;
-27.0000;1.1705;1.3990;
-26.7000;1.1665;1.3893;
-26.4000;1.1697;1.3941;
-26.1000;1.1730;1.3965;
-25.8000;1.1681;1.3917;
-25.5000;1.1697;1.3990;
-25.2000;1.1697;1.3941;
-24.9000;1.1697;1.3917;
-24.6000;1.1697;1.3917;
-24.3000;1.1697;1.3965;
-24.0000;1.1689;1.3941;
-23.7000;1.1681;1.3965;
-23.4000;1.1673;1.3965;
-23.1000;1.1697;1.4038;
-22.8000;1.1681;1.3917;
-22.5000;1.1681;1.3893;
-22.2000;1.1697;1.3941;
-21.9000;1.1705;1.3917;
-21.6000;1.1697;1.3917;
-21.3000;1.1673;1.3917;
-21.0000;1.1697;1.3941;
-20.7000;1.1705;1.3941;
-20.4000;1.1689;1.3990;
-20.1000;1.1689;1.4038;
-19.8000;1.1681;1.4038;
-19.5000;1.1681;1.4014;
-19.2000;1.1689;1.4038;
-18.9000;1.1681;1.4014;
-18.6000;1.1681;1.3965;
-18.3000;1.1697;1.3990;
-18.0000;1.1681;1.3941;
-17.7000;1.1673;1.3917;
-17.4000;1.1648;1.3771;
-17.1000;1.1689;1.3844;
-16.8000;1.1656;1.3844;
-16.5000;1.1689;1.3941;
-16.2000;1.1681;1.3990;
-15.9000;1.1697;1.4135;
-15.6000;1.1713;1.4184;
-15.3000;1.1673;1.4111;
-15.0000;1.1689;1.4087;
-14.7000;1.1689;1.4159;
-14.4000;1.1722;1.4159;
-14.1000;1.1689;1.4135;
-13.8000;1.1705;1.4159;
-13.5000;1.1697;1.4111;
-13.2000;1.1673;1.4062;
-12.9000;1.1705;1.4087;
-12.6000;1.1689;1.4014;
-12.3000;1.1697;1.3990;
-12.0000;1.1681;1.3941;
-11.7000;1.1713;1.3990;
-11.4000;1.1681;1.3893;
-11.1000;1.1673;1.3796;
-10.8000;1.1689;1.3893;
-10.5000;1.1697;1.3941;
-10.2000;1.1713;1.3893;
-9.9000;1.1689;1.3844;
-9.6000;1.1689;1.3796;
-9.3000;1.1697;1.3893;
-9.0000;1.1697;1.3941;
-8.7000;1.1681;1.3917;
-8.4000;1.1616;1.3771;
-8.1000;1.1689;1.3796;
-7.8000;1.1705;1.3820;
-7.5000;1.1689;1.3844;
-7.2000;1.1681;1.3893;
-6.9000;1.1689;1.3917;
-6.6000;1.1689;1.3917;
-6.3000;1.1697;1.3893;
-6.0000;1.1697;1.3868;
-5.7000;1.1705;1.3990;
-5.4000;1.1697;1.3941;
-5.1000;1.1705;1.3893;
-4.8000;1.1640;1.3747;
-4.5000;1.1673;1.3965;
-4.2000;1.1673;1.4038;
-3.9000;1.1697;1.4014;
-3.6000;1.1681;1.3965;
-3.3000;1.1673;1.3893;
-3.0000;1.1689;1.3868;
-2.7000;1.1697;1.3820;
-2.4000;1.1689;1.3771;
-2.1000;1.1689;1.3771;
-1.8000;1.1665;1.3723;
-1.5000;1.1697;1.3699;
-1.2000;1.1689;1.3650;
-0.9000;1.1681;1.3626;
-0.6000;1.1689;1.3578;
-0.3000;1.1697;1.3602;
0.0000;1.1697;1.3602;
0.3000;1.1844;1.3965;
0.6000;1.2145;1.4353;
0.9000;1.2373;1.4741;
1.2000;1.2576;1.5032;
1.5000;1.2731;1.5299;
1.8000;1.2837;1.5566;
2.1000;1.2943;1.5832;
2.4000;1.3016;1.6051;
2.7000;1.3089;1.6245;
3.0000;1.3130;1.6414;
3.3000;1.3195;1.6463;
3.6000;1.3252;1.6584;
3.9000;1.3284;1.6681;
4.2000;1.3325;1.6729;
4.5000;1.3366;1.6754;
4.8000;1.3423;1.6802;
5.1000;1.3415;1.6729;
5.4000;1.3472;1.6778;
5.7000;1.3504;1.6851;
6.0000;1.3529;1.6802;
6.3000;1.3537;1.6778;
6.6000;1.3545;1.6754;
6.9000;1.3586;1.6778;
7.2000;1.3618;1.6899;
7.5000;1.3643;1.6899;
7.8000;1.3667;1.6972;
8.1000;1.3602;1.6802;
8.4000;1.3675;1.6996;
8.7000;1.3708;1.6972;
9.0000;1.3765;1.7069;
9.3000;1.3748;1.6972;
9.6000;1.3740;1.6972;
9.9000;1.3781;1.7020;
10.2000;1.3814;1.7142;
10.5000;1.3830;1.7069;
10.8000;1.3887;1.7117;
11.1000;1.3830;1.6948;
11.4000;1.3854;1.6972;
11.7000;1.3862;1.6948;
12.0000;1.3871;1.6899;
12.3000;1.3879;1.6899;
12.6000;1.3895;1.6923;
12.9000;1.3903;1.6875;
13.2000;1.3903;1.6923;
13.5000;1.3919;1.6923;
13.8000;1.3928;1.6875;
14.1000;1.3944;1.6754;
14.4000;1.3952;1.6729;
14.7000;1.3976;1.6802;
15.0000;1.3976;1.6754;
15.3000;1.3985;1.6608;
15.6000;1.3985;1.6608;
15.9000;1.4009;1.6584;
16.2000;1.3993;1.6560;
16.5000;1.4017;1.6463;
16.8000;1.4017;1.6438;
17.1000;1.4017;1.6463;
17.4000;1.4050;1.6487;
17.7000;1.4058;1.6463;
18.0000;1.4042;1.6535;
18.3000;1.4042;1.6584;
18.6000;1.4058;1.6535;
18.9000;1.4082;1.6681;
19.2000;1.4066;1.6632;
19.5000;1.4074;1.6729;
19.8000;1.4074;1.6705;
20.1000;1.4107;1.6729;
20.4000;1.4050;1.6584;
20.7000;1.4098;1.6657;
21.0000;1.4098;1.6657;
21.3000;1.4107;1.6802;
21.6000;1.4107;1.6826;
21.9000;1.4066;1.6657;
22.2000;1.4098;1.6705;
22.5000;1.4107;1.6681;
22.8000;1.4115;1.6705;
23.1000;1.4123;1.6608;
23.4000;1.4115;1.6632;
23.7000;1.4131;1.6632;
24.0000;1.4139;1.6657;
24.3000;1.4139;1.6632;
24.6000;1.4123;1.6729;
24.9000;1.4139;1.6705;
25.2000;1.4115;1.6705;
25.5000;1.4155;1.6826;
25.8000;1.4147;1.6729;
26.1000;1.4155;1.6729;
26.4000;1.4139;1.6729;
26.7000;1.4172;1.6778;
27.0000;1.4155;1.6778;
27.3000;1.4155;1.6802;
27.6000;1.4155;1.6899;
27.9000;1.4172;1.6972;
28.2000;1.4172;1.6972;
28.5000;1.4180;1.6996;
28.8000;1.4180;1.6972;
29.1000;1.4172;1.6948;
29.4000;1.4172;1.6972;
29.7000;1.4237;1.7093;
30.0000;1.4147;1.6851;
30.3000;1.4188;1.6948;
30.6000;1.4188;1.6972;
30.9000;1.4188;1.6923;
31.2000;1.4172;1.7020;
31.5000;1.4188;1.6996;
31.8000;1.4196;1.7069;
32.1000;1.4204;1.7045;
32.4000;1.4196;1.6923;
32.7000;1.4196;1.6923;
33.0000;1.4229;1.6996;
33.3000;1.4204;1.6923;
33.6000;1.4196;1.6851;
33.9000;1.4212;1.6851;
34.2000;1.4196;1.6802;
34.5000;1.4204;1.6851;
34.8000;1.4221;1.6875;
35.1000;1.4196;1.6899;
35.4000;1.4212;1.6948;
35.7000;1.4212;1.7045;
36.0000;1.4221;1.7020;
36.3000;1.4221;1.6972;
36.6000;1.4212;1.6948;
36.9000;1.4212;1.7045;
37.2000;1.4212;1.7020;
37.5000;1.4204;1.6899;
37.8000;1.4245;1.7045;
38.1000;1.4221;1.6948;
38.4000;1.4221;1.6948;
38.7000;1.4229;1.6899;
39.0000;1.4212;1.6923;
39.3000;1.4212;1.6996;
39.6000;1.4261;1.7117;
39.9000;1.4204;1.6972;
40.2000;1.4221;1.6948;
40.5000;1.4221;1.6972;
40.8000;1.4212;1.6899;
41.1000;1.4237;1.6851;
41.4000;1.4221;1.6754;
41.7000;1.4245;1.6899;
42.0000;1.4237;1.6826;
42.3000;1.4253;1.6802;
42.6000;1.4212;1.6681;
42.9000;1.4229;1.6705;
43.2000;1.4229;1.6802;
43.5000;1.4229;1.6826;
43.8000;1.4245;1.6705;
44.1000;1.4221;1.6729;
44.4000;1.4261;1.6802;
44.7000;1.4237;1.6729;
45.0000;1.4245;1.6802;
45.3000;1.4212;1.6729;
45.6000;1.4237;1.6826;
45.9000;1.4278;1.6972;
46.2000;1.4318;1.7020;
46.5000;1.4221;1.6826;
46.8000;1.4237;1.6826;
47.1000;1.4261;1.6778;
47.4000;1.4253;1.6705;
47.7000;1.4261;1.6754;
48.0000;1.4237;1.6729;
48.3000;1.4245;1.6729;
48.6000;1.4237;1.6657;
48.9000;1.4229;1.6681;
49.2000;1.4229;1.6584;
49.5000;1.4229;1.6511;
49.8000;1.4278;1.6681;
50.1000;1.4229;1.6608;
50.4000;1.4245;1.6705;
50.7000;1.4269;1.6802;
51.0000;1.4261;1.6754;
51.3000;1.4261;1.6754;
51.6000;1.4253;1.6705;
51.9000;1.4245;1.6657;
52.2000;1.4245;1.6657;
52.5000;1.4253;1.6705;
52.8000;1.4245;1.6681;
53.1000;1.4253;1.6778;
53.4000;1.4253;1.6778;
53.7000;1.4196;1.6584;
54.0000;1.4237;1.6657;
54.3000;1.4253;1.6681;
54.6000;1.4245;1.6705;
54.9000;1.4237;1.6584;
55.2000;1.4261;1.6681;
55.5000;1.4212;1.6560;
55.8000;1.4253;1.6657;
56.1000;1.4237;1.6705;
56.4000;1.4245;1.6754;
56.7000;1.4253;1.6681;
57.0000;1.4237;1.6681;
57.3000;1.4261;1.6729;
57.6000;1.4261;1.6729;
57.9000;1.4253;1.6705;
58.2000;1.4286;1.6802;
58.5000;1.4253;1.6632;
58.8000;1.4261;1.6584;
59.1000;1.4253;1.6535;
59.4000;1.4245;1.6511;
59.7000;1.4269;1.6584;
60.0000;1.4261;1.6560;
60.3000;1.4269;1.6584;
60.6000;1.4237;1.6560;
60.9000;1.4302;1.6754;
61.2000;1.4269;1.6778;
61.5000;1.4245;1.6851;
61.8000;1.4253;1.6778;
62.1000;1.4253;1.6681;
62.4000;1.4261;1.6705;
62.7000;1.4221;1.6632;
63.0000;1.4253;1.6754;
63.3000;1.4269;1.6754;
63.6000;1.4261;1.6657;
63.9000;1.4237;1.6657;
64.2000;1.4253;1.6657;
64.5000;1.4261;1.6681;
64.8000;1.4237;1.6511;
65.1000;1.4253;1.6487;
65.4000;1.4221;1.6438;
65.7000;1.4294;1.6608;
66.0000;1.4269;1.6560;
66.3000;1.4261;1.6535;
66.6000;1.4253;1.6584;
66.9000;1.4286;1.6657;
67.2000;1.4261;1.6608;
67.5000;1.4269;1.6608;
67.8000;1.4269;1.6632;
68.1000;1.4245;1.6608;
68.4000;1.4261;1.6584;
68.7000;1.4221;1.6535;
69.0000;1.4253;1.6560;
69.3000;1.4269;1.6608;
69.6000;1.4245;1.6584;
69.9000;1.4261;1.6608;
70.2000;1.4269;1.6584;
70.5000;1.4261;1.6657;
70.8000;1.4269;1.6657;
71.1000;1.4245;1.6681;
71.4000;1.4261;1.6778;
71.7000;1.4253;1.6705;
72.0000;1.4237;1.6632;
72.3000;1.4253;1.6681;
72.6000;1.4269;1.6681;
72.9000;1.4269;1.6681;
73.2000;1.4253;1.6657;
73.5000;1.4253;1.6632;
73.8000;1.4261;1.6608;
74.1000;1.4278;1.6632;
74.4000;1.4261;1.6632;
74.7000;1.4261;1.6705;
75.0000;1.4245;1.6778;
75.3000;1.4261;1.6778;
75.6000;1.4310;1.6899;
75.9000;1.4253;1.6778;
76.2000;1.4269;1.6826;
76.5000;1.4278;1.6802;
76.8000;1.4269;1.6802;
77.1000;1.4180;1.6608;
77.4000;1.4253;1.6899;
77.7000;1.4261;1.6948;
78.0000;1.4261;1.6948;
78.3000;1.4261;1.6875;
78.6000;1.4245;1.6851;
78.9000;1.4245;1.6875;
79.2000;1.4245;1.6875;
79.5000;1.4229;1.6875;
79.8000;1.4237;1.6851;
80.1000;1.4237;1.6875;
80.4000;1.4253;1.6875;
80.7000;1.4261;1.6899;
81.0000;1.4237;1.6972;
81.3000;1.4261;1.6996;
81.6000;1.4253;1.6948;
81.9000;1.4253;1.6948;
82.2000;1.4245;1.6923;
82.5000;1.4253;1.6875;
82.8000;1.4253;1.6802;
83.1000;1.4261;1.6875;
83.4000;1.4212;1.6754;
83.7000;1.4278;1.6923;
84.0000;1.4278;1.6923;
84.3000;1.4278;1.6899;
84.6000;1.4245;1.6875;
84.9000;1.4261;1.6972;
85.2000;1.4245;1.6948;
85.5000;1.4261;1.6972;
85.8000;1.4253;1.6923;
86.1000;1.4278;1.6996;
86.4000;1.4261;1.6996;
86.7000;1.4294;1.6948;
87.0000;1.4261;1.6851;
87.3000;1.4253;1.6826;
87.6000;1.4310;1.6948;
87.9000;1.4261;1.6875;
88.2000;1.4286;1.6923;
88.5000;1.4278;1.6972;
88.8000;1.4245;1.6826;
89.1000;1.4253;1.6923;
89.4000;1.4261;1.6972;
89.7000;1.4212;1.6923;
90.0000;1.4253;1.6972;
90.3000;1.4237;1.6996;
90.6000;1.4261;1.7045;
90.9000;1.4253;1.7069;
91.2000;1.4245;1.7069;
91.5000;1.4253;1.7020;
91.8000;1.4253;1.7020;
92.1000;1.4269;1.7069;
92.4000;1.4237;1.6948;
92.7000;1.4253;1.6972;
93.0000;1.4245;1.6899;
93.3000;1.4253;1.6899;
93.6000;1.4253;1.6972;
93.9000;1.4245;1.7045;
94.2000;1.4253;1.6972;
94.5000;1.4253;1.7020;
94.8000;1.4253;1.6948;
95.1000;1.4245;1.6899;
95.4000;1.4237;1.6875;
95.7000;1.4261;1.6899;
96.0000;1.4253;1.6851;
96.3000;1.4237;1.6778;
96.6000;1.4245;1.6851;
96.9000;1.4269;1.6851;
97.2000;1.4261;1.6851;
97.5000;1.4269;1.6802;
97.8000;1.4261;1.6826;
98.1000;1.4302;1.6875;
98.4000;1.4278;1.6802;
98.7000;1.4269;1.6778;
99.0000;1.4278;1.6826;
99.3000;1.4269;1.6826;
99.6000;1.4261;1.6802;
99.9000;1.4245;1.6802;
100.2000;1.4245;1.6754;
100.5000;1.4245;1.6729;
100.8000;1.4261;1.6851;
101.1000;1.4245;1.6802;
101.4000;1.4245;1.6826;
101.7000;1.4212;1.6705;
102.0000;1.4318;1.7020;
102.3000;1.4278;1.6923;
102.6000;1.4261;1.6948;
102.9000;1.4229;1.6826;
103.2000;1.4245;1.6899;
103.5000;1.4253;1.6875;
103.8000;1.4253;1.6875;
104.1000;1.4253;1.6875;
104.4000;1.4253;1.6972;
104.7000;1.4261;1.7069;
105.0000;1.4253;1.7117;
105.3000;1.4278;1.7093;
105.6000;1.4261;1.6996;
105.9000;1.4261;1.6923;
106.2000;1.4278;1.6899;
106.5000;1.4221;1.6754;
106.8000;1.4253;1.6851;
107.1000;1.4278;1.6923;
107.4000;1.4253;1.6778;
107.7000;1.4261;1.6754;
108.0000;1.4261;1.6705;
108.3000;1.4261;1.6729;
108.6000;1.4278;1.6851;
108.9000;1.4253;1.6778;
109.2000;1.4253;1.6778;
109.5000;1.4269;1.6826;
109.8000;1.4237;1.6705;
110.1000;1.4253;1.6754;
110.4000;1.4253;1.6754;
110.7000;1.4261;1.6657;
111.0000;1.4302;1.6778;
111.3000;1.4261;1.6681;
111.6000;1.4261;1.6681;
111.9000;1.4261;1.6754;
112.2000;1.4261;1.6851;
112.5000;1.4253;1.6899;
112.8000;1.4229;1.6851;
113.1000;1.4261;1.6851;
113.4000;1.4261;1.6875;
113.7000;1.4269;1.6948;
114.0000;1.4253;1.6875;
114.3000;1.4253;1.6875;
114.6000;1.4269;1.6875;
114.9000;1.4253;1.6875;
115.2000;1.4245;1.6899;
115.5000;1.4253;1.6948;
115.8000;1.4253;1.6851;
116.1000;1.4261;1.6875;
116.4000;1.4253;1.6802;
116.7000;1.4253;1.6802;
117.0000;1.4172;1.6681;
117.3000;1.4245;1.6851;
117.6000;1.4261;1.6899;
117.9000;1.4261;1.6851;
118.2000;1.4261;1.6875;
118.5000;1.4261;1.6972;
118.8000;1.4261;1.6996;
119.1000;1.4261;1.6996;
119.4000;1.4253;1.6899;
119.7000;1.4269;1.6948;
120.0000;1.4261;1.6875;
120.3000;1.4261;1.6899;
120.6000;1.4245;1.6851;
120.9000;1.4269;1.6923;
121.2000;1.4253;1.6923;
121.5000;1.4294;1.7069;
121.8000;1.4245;1.6923;
122.1000;1.4253;1.6826;
122.4000;1.4261;1.6875;
122.7000;1.4196;1.6729;
123.0000;1.4237;1.6754;
123.3000;1.4261;1.6778;
123.6000;1.4245;1.6705;
123.9000;1.4245;1.6729;
124.2000;1.4269;1.6754;
124.5000;1.4237;1.6729;
124.8000;1.4237;1.6754;
125.1000;1.4245;1.6826;
125.4000;1.4245;1.6754;
125.7000;1.4245;1.6754;
126.0000;1.4245;1.6705;
126.3000;1.4269;1.6705;
126.6000;1.4245;1.6681;
126.9000;1.4269;1.6681;
127.2000;1.4245;1.6632;
127.5000;1.4253;1.6608;
127.8000;1.4253;1.6681;
128.1000;1.4245;1.6705;
128.4000;1.4253;1.6705;
128.7000;1.4253;1.6754;
129.0000;1.4261;1.6754;
129.3000;1.4245;1.6802;
129.6000;1.4245;1.6875;
129.9000;1.4237;1.6802;
130.2000;1.4221;1.6754;
130.5000;1.4237;1.6826;
130.8000;1.4221;1.6851;
131.1000;1.4318;1.7069;
131.4000;1.4253;1.6899;
131.7000;1.4229;1.6802;
132.0000;1.4269;1.6875;
132.3000;1.4245;1.6754;
132.6000;1.4269;1.6802;
132.9000;1.4237;1.6657;
133.2000;1.4245;1.6657;
133.5000;1.4245;1.6729;
133.8000;1.4261;1.6826;
134.1000;1.4269;1.6899;
134.4000;1.4261;1.6875;
134.7000;1.4261;1.6875;
135.0000;1.4269;1.6851;
135.3000;1.4261;1.6875;
135.6000;1.4261;1.6802;
135.9000;1.4245;1.6729;
136.2000;1.4245;1.6705;
136.5000;1.4245;1.6778;
136.8000;1.4253;1.6851;
137.1000;1.4237;1.6729;
137.4000;1.4245;1.6632;
137.7000;1.4261;1.6632;
138.0000;1.4245;1.6584;
138.3000;1.4253;1.6584;
138.6000;1.4245;1.6487;
138.9000;1.4261;1.6511;
139.2000;1.4245;1.6560;
139.5000;1.4253;1.6705;
139.8000;1.4261;1.6754;
140.1000;1.4245;1.6778;
140.4000;1.4261;1.6826;
140.7000;1.4245;1.6802;
141.0000;1.4237;1.6705;
141.3000;1.4229;1.6729;
141.6000;1.4253;1.6681;
141.9000;1.4278;1.6802;
142.2000;1.4229;1.6754;
142.5000;1.4253;1.6754;
142.8000;1.4245;1.6754;
143.1000;1.4253;1.6778;
143.4000;1.4253;1.6778;
143.7000;1.4253;1.6729;
144.0000;1.4237;1.6681;
144.3000;1.4253;1.6778;
144.6000;1.4237;1.6802;
144.9000;1.4245;1.6826;
145.2000;1.4237;1.6802;
145.5000;1.4269;1.6899;
145.8000;1.4245;1.6826;
146.1000;1.4237;1.6826;
146.4000;1.4245;1.6802;
146.7000;1.4237;1.6778;
147.0000;1.4229;1.6802;
147.3000;1.4212;1.6754;
147.6000;1.4180;1.6681;
147.9000;1.4237;1.6754;
148.2000;1.4196;1.6608;
148.5000;1.4237;1.6778;
148.8000;1.4229;1.6754;
149.1000;1.4245;1.6826;
149.4000;1.4245;1.6802;
149.7000;1.4261;1.6802;
150.0000;1.4237;1.6705;
150.3000;1.4221;1.6681;
150.6000;1.4245;1.6705;
150.9000;1.4253;1.6705;
151.2000;1.4237;1.6729;
151.5000;1.4253;1.6778;
151.8000;1.4245;1.6754;
152.1000;1.4261;1.6754;
152.4000;1.4237;1.6778;
152.7000;1.4237;1.6754;
153.0000;1.4245;1.6851;
153.3000;1.4229;1.6802;
153.6000;1.4245;1.6875;
153.9000;1.4245;1.6899;
154.2000;1.4196;1.6802;
154.5000;1.4196;1.6778;
154.8000;1.4253;1.6923;
155.1000;1.4229;1.6875;
155.4000;1.4229;1.6875;
155.7000;1.4326;1.7020;
156.0000;1.4245;1.6778;
156.3000;1.4204;1.6705;
156.6000;1.4278;1.6778;
156.9000;1.4237;1.6754;
157.2000;1.4245;1.6802;
157.5000;1.4237;1.6778;
157.8000;1.4229;1.6754;
158.1000;1.4229;1.6778;
158.4000;1.4237;1.6826;
158.7000;1.4229;1.6802;
159.0000;1.4245;1.6851;
159.3000;1.4229;1.6851;
159.6000;1.4245;1.6899;
159.9000;1.4237;1.6923;
160.2000;1.4221;1.6851;
160.5000;1.4245;1.6875;
160.8000;1.4318;1.7117;
161.1000;1.4221;1.6899;
161.4000;1.4237;1.6875;
161.7000;1.4221;1.6851;
162.0000;1.4229;1.6948;
162.3000;1.4229;1.6923;
162.6000;1.4229;1.6875;
162.9000;1.4221;1.6923;
163.2000;1.4245;1.6899;
163.5000;1.4237;1.6923;
163.8000;1.4237;1.6972;
164.1000;1.4221;1.6972;
164.4000;1.4237;1.6948;
164.7000;1.4253;1.6875;
165.0000;1.4253;1.6972;
165.3000;1.4245;1.6899;
165.6000;1.4237;1.6923;
165.9000;1.4245;1.6948;
166.2000;1.4253;1.6899;
166.5000;1.4245;1.6851;
166.8000;1.4237;1.6754;
167.1000;1.4237;1.6802;
167.4000;1.4269;1.6826;
167.7000;1.4253;1.6851;
168.0000;1.4237;1.6802;
168.3000;1.4245;1.6802;
168.6000;1.4188;1.6632;
168.9000;1.4237;1.6754;
169.2000;1.4253;1.6778;
169.5000;1.4237;1.6826;
169.8000;1.4245;1.6826;
170.1000;1.4237;1.6826;
170.4000;1.4286;1.6899;
170.7000;1.4229;1.6754;
171.0000;1.4245;1.6802;
171.3000;1.4237;1.6826;
171.6000;1.4229;1.6705;
171.9000;1.4278;1.6899;
172.2000;1.4188;1.6681;
172.5000;1.4237;1.6778;
172.8000;1.4261;1.6802;
173.1000;1.4221;1.6729;
173.4000;1.4229;1.6826;
173.7000;1.4229;1.6778;
174.0000;1.4245;1.6802;
174.3000;1.4229;1.6851;
174.6000;1.4229;1.6875;
174.9000;1.4237;1.7020;
175.2000;1.4245;1.7020;
175.5000;1.4237;1.6899;
175.8000;1.4221;1.6778;
176.1000;1.4253;1.6802;
176.4000;1.4294;1.7020;
176.7000;1.4229;1.6875;
177.0000;1.4212;1.6899;
177.3000;1.4261;1.7142;
177.6000;1.4237;1.7117;
177.9000;1.4221;1.7142;
178.2000;1.4229;1.7190;
178.5000;1.4229;1.7214;
178.8000;1.4212;1.7117;
179.1000;1.4221;1.7239;
179.4000;1.4212;1.7190;
179.7000;1.4221;1.7287;
180.0000;1.4237;1.7336;
180.3000;1.4245;1.7263;
180.6000;1.4212;1.7166;
180.9000;1.4221;1.7239;
181.2000;1.4245;1.7287;
181.5000;1.4212;1.7287;
181.8000;1.4229;1.7336;
182.1000;1.4221;1.7336;
182.4000;1.4237;1.7336;
182.7000;1.4245;1.7263;
183.0000;1.4221;1.7190;
183.3000;1.4212;1.7166;
183.6000;1.4253;1.7117;
183.9000;1.4237;1.7069;
184.2000;1.4253;1.7020;
184.5000;1.4245;1.6996;
184.8000;1.4180;1.6851;
185.1000;1.4245;1.6972;
185.4000;1.4261;1.7069;
185.7000;1.4245;1.7093;
186.0000;1.4237;1.7093;
186.3000;1.4245;1.7045;
186.6000;1.4237;1.7020;
186.9000;1.4245;1.7045;
187.2000;1.4229;1.7093;
187.5000;1.4221;1.7142;
187.8000;1.4237;1.7142;
188.1000;1.4229;1.7069;
188.4000;1.4212;1.7020;
188.7000;1.4245;1.7020;
189.0000;1.4229;1.6875;
189.3000;1.4237;1.6851;
189.6000;1.4221;1.6923;
189.9000;1.4229;1.6996;
190.2000;1.4237;1.7069;
190.5000;1.4237;1.7069;
190.8000;1.4245;1.7045;
191.1000;1.4253;1.6996;
191.4000;1.4237;1.7020;
191.7000;1.4245;1.7069;
192.0000;1.4229;1.7142;
192.3000;1.4221;1.7069;
192.6000;1.4261;1.7190;
192.9000;1.4237;1.7117;
193.2000;1.4212;1.6948;
193.5000;1.4221;1.6948;
193.8000;1.4229;1.6996;
194.1000;1.4229;1.7020;
194.4000;1.4221;1.6972;
194.7000;1.4229;1.6948;
195.0000;1.4221;1.6851;
195.3000;1.4229;1.6875;
195.6000;1.4221;1.6972;
195.9000;1.4221;1.7020;
196.2000;1.4221;1.6948;
196.5000;1.4229;1.6923;
196.8000;1.4229;1.6972;
197.1000;1.4229;1.6899;
197.4000;1.4229;1.6923;
197.7000;1.4229;1.6923;
198.0000;1.4237;1.6972;
198.3000;1.4245;1.7020;
198.6000;1.4237;1.7020;
198.9000;1.4172;1.6802;
199.2000;1.4286;1.7093;
199.5000;1.4237;1.6899;
199.8000;1.4245;1.6899;
200.1000;1.4253;1.6972;
200.4000;1.4237;1.6996;
200.7000;1.4245;1.7069;
201.0000;1.4229;1.7045;
201.3000;1.4204;1.6972;
201.6000;1.4221;1.6948;
201.9000;1.4237;1.6923;
202.2000;1.4229;1.6972;
202.5000;1.4221;1.6875;
202.8000;1.4221;1.6826;
203.1000;1.4221;1.6826;
203.4000;1.4212;1.6851;
203.7000;1.4221;1.6923;
204.0000;1.4221;1.6972;
204.3000;1.4204;1.6923;
204.6000;1.4221;1.6948;
204.9000;1.4221;1.6923;
205.2000;1.4229;1.6923;
205.5000;1.4237;1.6851;
205.8000;1.4221;1.6875;
206.1000;1.4221;1.6948;
206.4000;1.4229;1.6899;
206.7000;1.4229;1.6972;
207.0000;1.4229;1.7020;
207.3000;1.4221;1.7069;
207.6000;1.4221;1.7069;
207.9000;1.4221;1.7045;
208.2000;1.4229;1.7020;
208.5000;1.4237;1.6875;
208.8000;1.4237;1.6802;
209.1000;1.4245;1.6851;
209.4000;1.4237;1.6875;
209.7000;1.4229;1.6923;
210.0000;1.4237;1.6923;
210.3000;1.4261;1.6923;
210.6000;1.4237;1.6826;
210.9000;1.4229;1.6826;
211.2000;1.4221;1.6923;
211.5000;1.4221;1.6899;
211.8000;1.4237;1.6899;
212.1000;1.4229;1.6923;
212.4000;1.4229;1.6923;
212.7000;1.4229;1.6972;
213.0000;1.4221;1.6923;
213.3000;1.4237;1.6948;
213.6000;1.4229;1.6948;
213.9000;1.4212;1.6972;
214.2000;1.4172;1.6875;
214.5000;1.4229;1.7045;
214.8000;1.4229;1.7045;
215.1000;1.4221;1.7117;
215.4000;1.4221;1.7117;
215.7000;1.4221;1.7045;
216.0000;1.4229;1.7069;
216.3000;1.4229;1.7093;
216.6000;1.4155;1.6851;
216.9000;1.4196;1.6923;
217.2000;1.4245;1.7117;
217.5000;1.4212;1.7020;
217.8000;1.4221;1.6972;
218.1000;1.4221;1.6923;
218.4000;1.4221;1.6972;
218.7000;1.4269;1.7020;
219.0000;1.4229;1.7020;
219.3000;1.4221;1.7045;
219.6000;1.4212;1.7045;
219.9000;1.4204;1.7020;
220.2000;1.4180;1.6923;
220.5000;1.4229;1.7093;
220.8000;1.4229;1.7117;
221.1000;1.4229;1.7190;
221.4000;1.4229;1.7214;
221.7000;1.4221;1.7142;
222.0000;1.4221;1.7069;
222.3000;1.4221;1.6996;
222.6000;1.4229;1.7045;
222.9000;1.4204;1.6972;
223.2000;1.4204;1.7045;
223.5000;1.4237;1.7142;
223.8000;1.4229;1.7117;
224.1000;1.4204;1.7069;
224.4000;1.4172;1.6996;
224.7000;1.4212;1.7045;
225.0000;1.4229;1.7069;
225.3000;1.4188;1.7020;
225.6000;1.4204;1.7069;
225.9000;1.4237;1.7093;
226.2000;1.4245;1.7069;
226.5000;1.4212;1.6972;
226.8000;1.4229;1.7117;
227.1000;1.4204;1.7069;
227.4000;1.4221;1.6923;
227.7000;1.4286;1.7142;
228.0000;1.4229;1.6972;
228.3000;1.4212;1.6996;
228.6000;1.4229;1.6948;
228.9000;1.4212;1.6899;
229.2000;1.4221;1.6948;
229.5000;1.4221;1.6899;
229.8000;1.4196;1.6875;
230.1000;1.4212;1.6826;
230.4000;1.4204;1.6802;
230.7000;1.4204;1.6754;
231.0000;1.4204;1.6729;
231.3000;1.4229;1.6851;
231.6000;1.4212;1.6899;
231.9000;1.4212;1.6875;
232.2000;1.4229;1.6972;
232.5000;1.4221;1.7069;
232.8000;1.4229;1.7093;
233.1000;1.4286;1.7311;
233.4000;1.4221;1.7190;
233.7000;1.4212;1.7117;
234.0000;1.4221;1.7093;
234.3000;1.4204;1.6972;
234.6000;1.4221;1.6972;
234.9000;1.4237;1.6972;
235.2000;1.4237;1.6996;
235.5000;1.4229;1.6972;
235.8000;1.4221;1.6948;
236.1000;1.4229;1.6972;
236.4000;1.4261;1.7069;
236.7000;1.4269;1.7117;
237.0000;1.4245;1.6996;
237.3000;1.4229;1.6923;
237.6000;1.4237;1.6972;
237.9000;1.4229;1.6972;
238.2000;1.4212;1.6948;
238.5000;1.4204;1.6851;
238.8000;1.4237;1.6923;
239.1000;1.4237;1.6923;
239.4000;1.4155;1.6729;
239.7000;1.4212;1.6875;
240.0000;1.4229;1.6826;
240.3000;1.4212;1.6826;
240.6000;1.4212;1.6778;
240.9000;1.4221;1.6851;
241.2000;1.4294;1.6996;
241.5000;1.4204;1.6826;
241.8000;1.4221;1.6899;
242.1000;1.4204;1.6778;
242.4000;1.4221;1.6923;
242.7000;1.4221;1.7020;
243.0000;1.4196;1.6948;
243.3000;1.4204;1.6923;
243.6000;1.4204;1.6851;
243.9000;1.4221;1.6851;
244.2000;1.4229;1.6826;
244.5000;1.4212;1.6875;
244.8000;1.4212;1.6899;
245.1000;1.4204;1.6826;
245.4000;1.4221;1.6851;
245.7000;1.4221;1.6875;
246.0000;1.4204;1.6826;
246.3000;1.4229;1.6826;
246.6000;1.4221;1.6826;
246.9000;1.4229;1.6851;
247.2000;1.4221;1.6778;
247.5000;1.4229;1.6754;
247.8000;1.4204;1.6705;
248.1000;1.4229;1.6778;
248.4000;1.4221;1.6778;
248.7000;1.4204;1.6851;
249.0000;1.4204;1.6802;
249.3000;1.4212;1.6875;
249.6000;1.4204;1.6754;
249.9000;1.4188;1.6657;
250.2000;1.4212;1.6754;
250.5000;1.4204;1.6802;
250.8000;1.4196;1.6802;
251.1000;1.4261;1.6972;
251.4000;1.4212;1.6802;
251.7000;1.4188;1.6754;
252.0000;1.4180;1.6754;
252.3000;1.4212;1.6875;
252.6000;1.4212;1.6851;
252.9000;1.4204;1.6948;
253.2000;1.4212;1.6875;
253.5000;1.4221;1.6826;
253.8000;1.4229;1.6851;
254.1000;1.4237;1.6875;
254.4000;1.4221;1.6826;
254.7000;1.4221;1.6754;
255.0000;1.4180;1.6632;
255.3000;1.4221;1.6681;
255.6000;1.4221;1.6754;
255.9000;1.4196;1.6778;
256.2000;1.4139;1.6632;
256.5000;1.4212;1.6705;
256.8000;1.4212;1.6754;
257.1000;1.4229;1.6851;
257.4000;1.4221;1.6851;
257.7000;1.4237;1.6923;
258.0000;1.4237;1.6899;
258.3000;1.4237;1.6899;
258.6000;1.4221;1.6948;
258.9000;1.4221;1.6948;
259.2000;1.4229;1.6972;
259.5000;1.4221;1.6972;
259.8000;1.4204;1.6899;
260.1000;1.4221;1.6948;
260.4000;1.4229;1.6948;
260.7000;1.4221;1.6923;
261.0000;1.4221;1.6899;
261.3000;1.4229;1.6875;
261.6000;1.4204;1.6826;
261.9000;1.4221;1.6802;
262.2000;1.4212;1.6802;
262.5000;1.4221;1.6826;
262.8000;1.4204;1.6754;
263.1000;1.4221;1.6754;
263.4000;1.4221;1.6681;
263.7000;1.4229;1.6608;
264.0000;1.4237;1.6560;
264.3000;1.4237;1.6511;
264.6000;1.4212;1.6535;
264.9000;1.4237;1.6535;
265.2000;1.4212;1.6463;
265.5000;1.4212;1.6487;
265.8000;1.4212;1.6560;
266.1000;1.4212;1.6608;
266.4000;1.4212;1.6632;
266.7000;1.4180;1.6535;
267.0000;1.4286;1.6802;
267.3000;1.4212;1.6705;
267.6000;1.4221;1.6705;
267.9000;1.4172;1.6657;
268.2000;1.4221;1.6778;
268.5000;1.4204;1.6778;
268.8000;1.4212;1.6826;
269.1000;1.4229;1.6899;
269.4000;1.4221;1.6875;
269.7000;1.4229;1.6899;
270.0000;1.4278;1.7142;
270.3000;1.4204;1.7020;
270.6000;1.4204;1.6972;
270.9000;1.4229;1.6972;
271.2000;1.4212;1.6899;
271.5000;1.4204;1.6875;
271.8000;1.4204;1.6875;
272.1000;1.4172;1.6802;
272.4000;1.4172;1.6899;
272.7000;1.4180;1.6899;
273.0000;1.4204;1.6875;
273.3000;1.4221;1.6923;
273.6000;1.4212;1.6875;
273.9000;1.4221;1.6826;
274.2000;1.4196;1.6826;
274.5000;1.4196;1.6851;
274.8000;1.4229;1.6948;
275.1000;1.4204;1.6899;
275.4000;1.4196;1.6899;
275.7000;1.4212;1.6875;
276.0000;1.4237;1.6923;
276.3000;1.4212;1.6851;
276.6000;1.4155;1.6802;
276.9000;1.4212;1.6899;
277.2000;1.4229;1.6851;
277.5000;1.4212;1.6826;
277.8000;1.4212;1.6802;
278.1000;1.4196;1.6802;
278.4000;1.4221;1.6875;
278.7000;1.4221;1.6826;
279.0000;1.4229;1.6923;
279.3000;1.4204;1.6875;
279.6000;1.4212;1.6875;
279.9000;1.4212;1.6851;
280.2000;1.4204;1.6826;
280.5000;1.4204;1.6705;
280.8000;1.4212;1.6802;
281.1000;1.4221;1.6802;
281.4000;1.4204;1.6826;
281.7000;1.4204;1.6826;
282.0000;1.4204;1.6875;
282.3000;1.4196;1.6875;
282.6000;1.4221;1.6923;
282.9000;1.4204;1.6899;
283.2000;1.4212;1.6899;
283.5000;1.4204;1.6972;
283.8000;1.4155;1.6851;
284.1000;1.4229;1.7093;
284.4000;1.4212;1.7069;
284.7000;1.4221;1.7045;
285.0000;1.4221;1.6996;
285.3000;1.4229;1.6996;
285.6000;1.4212;1.6923;
285.9000;1.4229;1.6948;
286.2000;1.4196;1.6899;
286.5000;1.4212;1.6851;
286.8000;1.4188;1.6875;
287.1000;1.4221;1.6948;
287.4000;1.4221;1.6996;
287.7000;1.4180;1.6899;
288.0000;1.4188;1.6826;
288.3000;1.4212;1.6875;
288.6000;1.4196;1.6826;
288.9000;1.4245;1.6875;
289.2000;1.4188;1.6851;
289.5000;1.4212;1.6948;
289.8000;1.4188;1.6996;
290.1000;1.4229;1.7117;
290.4000;1.4196;1.6996;
290.7000;1.4196;1.6972;
291.0000;1.4196;1.6948;
291.3000;1.4196;1.6899;
291.6000;1.4212;1.6972;
291.9000;1.4204;1.6948;
292.2000;1.4204;1.6923;
292.5000;1.4204;1.6948;
292.8000;1.4131;1.6729;
293.1000;1.4196;1.6923;
293.4000;1.4204;1.6899;
293.7000;1.4212;1.6899;
294.0000;1.4212;1.6899;
294.3000;1.4229;1.6923;
294.6000;1.4229;1.6899;
294.9000;1.4221;1.6923;
295.2000;1.4212;1.6899;
295.5000;1.4212;1.6923;
295.8000;1.4204;1.6899;
296.1000;1.4180;1.6875;
296.4000;1.4196;1.6899;
296.7000;1.4180;1.6778;
297.0000;1.4204;1.6923;
297.3000;1.4172;1.6875;
297.6000;1.4253;1.7045;
297.9000;1.4196;1.6899;
298.2000;1.4204;1.6875;
298.5000;1.4196;1.7020;
298.8000;1.4172;1.6972;
299.1000;1.4188;1.6972;
299.4000;1.4204;1.6948;
299.7000;1.4196;1.6972;
300.0000;1.4212;1.6972;
300.3000;1.4269;1.7166;
300.6000;1.4196;1.6972;
300.9000;1.4196;1.7020;
301.2000;1.4204;1.7069;
301.5000;1.4221;1.7093;
301.8000;1.4269;1.7093;
302.1000;1.4196;1.6972;
302.4000;1.4196;1.6996;
302.7000;1.4204;1.6996;
303.0000;1.4212;1.7093;
303.3000;1.4221;1.7093;
303.6000;1.4221;1.7166;
303.9000;1.4229;1.7117;
304.2000;1.4212;1.7093;
304.5000;1.4221;1.7020;
304.8000;1.4212;1.7020;
305.1000;1.4221;1.7093;
305.4000;1.4221;1.7142;
305.7000;1.4212;1.7069;
306.0000;1.4221;1.7142;
306.3000;1.4196;1.6972;
306.6000;1.4204;1.6996;
306.9000;1.4212;1.7045;
307.2000;1.4212;1.7020;
307.5000;1.4188;1.7045;
307.8000;1.4196;1.7020;
308.1000;1.4204;1.6972;
308.4000;1.4204;1.6923;
308.7000;1.4212;1.7045;
309.0000;1.4212;1.7020;
309.3000;1.4188;1.7093;
309.6000;1.4237;1.7190;
309.9000;1.4221;1.7020;
310.2000;1.4196;1.7020;
310.5000;1.4180;1.6948;
310.8000;1.4196;1.6948;
311.1000;1.4188;1.6996;
311.4000;1.4204;1.7045;
311.7000;1.4188;1.6996;
312.0000;1.4204;1.7069;
312.3000;1.4172;1.6996;
312.6000;1.4196;1.7093;
312.9000;1.4212;1.7069;
313.2000;1.4221;1.6972;
313.5000;1.4196;1.6948;
313.8000;1.4269;1.7093;
314.1000;1.4212;1.6972;
314.4000;1.4204;1.6875;
314.7000;1.4212;1.6923;
315.0000;1.4204;1.6875;
315.3000;1.4188;1.6826;
315.6000;1.4212;1.6899;
315.9000;1.4237;1.6899;
316.2000;1.4229;1.6923;
316.5000;1.4221;1.6754;
316.8000;1.4221;1.6802;
317.1000;1.4212;1.6875;
317.4000;1.4237;1.7020;
317.7000;1.4204;1.7045;
318.0000;1.4196;1.7117;
318.3000;1.4147;1.6899;
318.6000;1.4188;1.6972;
318.9000;1.4204;1.7020;
319.2000;1.4196;1.7020;
319.5000;1.4204;1.7020;
319.8000;1.4188;1.7093;
320.1000;1.4204;1.7020;
320.4000;1.4188;1.6996;
320.7000;1.4204;1.7020;
321.0000;1.4212;1.7069;
321.3000;1.4212;1.7020;
321.6000;1.4204;1.6996;
321.9000;1.4196;1.6996;
322.2000;1.4196;1.7069;
322.5000;1.4188;1.7020;
322.8000;1.4204;1.6972;
323.1000;1.4196;1.7020;
323.4000;1.4204;1.6948;
323.7000;1.4196;1.6948;
324.0000;1.4188;1.6875;
324.3000;1.4188;1.6923;
324.6000;1.4204;1.6948;
324.9000;1.4196;1.6923;
325.2000;1.4188;1.6851;
325.5000;1.4204;1.6875;
325.8000;1.4204;1.6875;
326.1000;1.4196;1.6826;
326.4000;1.4212;1.6996;
326.7000;1.4204;1.7020;
327.0000;1.4212;1.7045;
327.3000;1.4221;1.7093;
327.6000;1.4196;1.7093;
327.9000;1.4196;1.7117;
328.2000;1.4221;1.7142;
328.5000;1.4196;1.7020;
328.8000;1.4196;1.7045;
329.1000;1.4212;1.7069;
329.4000;1.4212;1.7093;
329.7000;1.4204;1.7045;
330.0000;1.4196;1.6996;
330.3000;1.4221;1.7045;
330.6000;1.4237;1.7045;
330.9000;1.4212;1.7020;
331.2000;1.4204;1.6996;
331.5000;1.4196;1.7069;
331.8000;1.4196;1.7045;
332.1000;1.4204;1.7020;
332.4000;1.4212;1.7045;
332.7000;1.4188;1.6996;
333.0000;1.4196;1.7069;
333.3000;1.4188;1.7045;
333.6000;1.4196;1.6948;
333.9000;1.4188;1.6923;
334.2000;1.4221;1.6972;
334.5000;1.4164;1.6875;
334.8000;1.4204;1.6972;
335.1000;1.4196;1.6972;
335.4000;1.4180;1.6972;
335.7000;1.4204;1.6948;
336.0000;1.4196;1.6996;
336.3000;1.4204;1.6996;
336.6000;1.4204;1.7069;
336.9000;1.4204;1.7045;
337.2000;1.4204;1.7069;
337.5000;1.4237;1.7117;
337.8000;1.4204;1.7045;
338.1000;1.4204;1.7093;
338.4000;1.4212;1.7093;
338.7000;1.4204;1.7117;
339.0000;1.4147;1.7069;
339.3000;1.4196;1.7069;
339.6000;1.4196;1.7166;
339.9000;1.4204;1.7214;
340.2000;1.4212;1.7239;
340.5000;1.4204;1.7263;
340.8000;1.4221;1.7239;
341.1000;1.4221;1.7263;
341.4000;1.4180;1.7214;
341.7000;1.4204;1.7239;
342.0000;1.4196;1.7214;
342.3000;1.4212;1.7311;
342.6000;1.4196;1.7239;
342.9000;1.4196;1.7263;
343.2000;1.4188;1.7214;
343.5000;1.4196;1.7045;
343.8000;1.4196;1.7045;
344.1000;1.4188;1.7045;
344.4000;1.4180;1.6948;
344.7000;1.4172;1.7045;
345.0000;1.4204;1.7093;
345.3000;1.4188;1.7045;
345.6000;1.4188;1.6948;
345.9000;1.4196;1.7069;
346.2000;1.4212;1.7214;
346.5000;1.4204;1.7142;
346.8000;1.4196;1.7093;
347.1000;1.4204;1.7069;
347.4000;1.4212;1.7093;
347.7000;1.4196;1.7069;
348.0000;1.4204;1.7045;
348.3000;1.4196;1.7069;
348.6000;1.4196;1.7093;
348.9000;1.4196;1.6996;
349.2000;1.4196;1.6996;
349.5000;1.4204;1.6948;
349.8000;1.4212;1.6996;
350.1000;1.4196;1.6948;
350.4000;1.4221;1.6923;
350.7000;1.4196;1.6948;
351.0000;1.4188;1.6948;
351.3000;1.4204;1.7045;
351.6000;1.4196;1.7020;
351.9000;1.4196;1.7069;
352.2000;1.4180;1.7093;
352.5000;1.4221;1.7166;
352.8000;1.4204;1.6972;
353.1000;1.4188;1.6972;
353.4000;1.4196;1.6972;
353.7000;1.4180;1.7020;
354.0000;1.4188;1.7069;
354.3000;1.4196;1.7142;
354.6000;1.4188;1.7093;
354.9000;1.4261;1.7263;
355.2000;1.4204;1.7069;
355.5000;1.4180;1.6948;
355.8000;1.4188;1.6923;
356.1000;1.4204;1.6996;
356.4000;1.4204;1.7045;
356.7000;1.4221;1.7069;
357.0000;1.4172;1.6948;
357.3000;1.4147;1.6851;
357.6000;1.4188;1.6923;
357.9000;1.4221;1.6948;
358.2000;1.4196;1.6851;
358.5000;1.4172;1.6851;
358.8000;1.4180;1.6826;
359.1000;1.4196;1.6875;
359.4000;1.4204;1.6948;
359.7000;1.4196;1.6875;
360.0000;1.4188;1.6875;
360.3000;1.4212;1.6875;
360.6000;1.4204;1.6851;
360.9000;1.4188;1.6875;
361.2000;1.4196;1.6851;
361.5000;1.4212;1.6851;
361.8000;1.4212;1.6899;
362.1000;1.4196;1.6802;
362.4000;1.4204;1.6851;
362.7000;1.4188;1.6875;
363.0000;1.4196;1.6851;
363.3000;1.4172;1.6729;
363.6000;1.4196;1.6778;
363.9000;1.4196;1.6729;
364.2000;1.4188;1.6754;
364.5000;1.4196;1.6681;
364.8000;1.4196;1.6681;
365.1000;1.4204;1.6705;
365.4000;1.4261;1.6778;
365.7000;1.4204;1.6705;
366.0000;1.4286;1.6899;
366.3000;1.4204;1.6802;
366.6000;1.4204;1.6875;
366.9000;1.4229;1.6996;
367.2000;1.4204;1.6851;
367.5000;1.4204;1.6826;
367.8000;1.4212;1.6826;
368.1000;1.4237;1.6996;
368.4000;1.4196;1.6899;
368.7000;1.4188;1.6996;
369.0000;1.4196;1.7069;
369.3000;1.4196;1.7069;
369.6000;1.4188;1.7045;
369.9000;1.4188;1.7093;
370.2000;1.4180;1.7093;
370.5000;1.4196;1.7093;
370.8000;1.4204;1.7166;
371.1000;1.4196;1.7214;
371.4000;1.4204;1.7311;
371.7000;1.4204;1.7311;
372.0000;1.4204;1.7263;
372.3000;1.4196;1.7190;
372.6000;1.4212;1.7093;
372.9000;1.4204;1.7117;
373.2000;1.4196;1.7166;
373.5000;1.4212;1.7093;
373.8000;1.4196;1.7166;
374.1000;1.4180;1.7093;
374.4000;1.4204;1.7239;
374.7000;1.4196;1.7239;
375.0000;1.4237;1.7360;
375.3000;1.4212;1.7239;
375.6000;1.4188;1.7069;
375.9000;1.4221;1.7117;
376.2000;1.4204;1.7117;
376.5000;1.4196;1.7117;
376.8000;1.4221;1.7142;
377.1000;1.4212;1.7069;
377.4000;1.4204;1.6972;
377.7000;1.4196;1.6923;
378.0000;1.4196;1.6875;
378.3000;1.4253;1.7020;
378.6000;1.4196;1.6899;
378.9000;1.4180;1.6875;
379.2000;1.4188;1.6972;
379.5000;1.4172;1.6948;
379.8000;1.4188;1.6972;
380.1000;1.4180;1.6923;
380.4000;1.4196;1.6948;
380.7000;1.4188;1.6923;
381.0000;1.4212;1.6972;
381.3000;1.4204;1.6972;
381.6000;1.4196;1.6996;
381.9000;1.4196;1.7020;
382.2000;1.4188;1.6948;
382.5000;1.4221;1.7020;
382.8000;1.4196;1.6875;
383.1000;1.4212;1.6851;
383.4000;1.4204;1.6778;
383.7000;1.4180;1.6802;
384.0000;1.4196;1.6875;
384.3000;1.4172;1.6802;
384.6000;1.4188;1.6851;
384.9000;1.4180;1.6875;
385.2000;1.4172;1.6899;
385.5000;1.4188;1.6996;
385.8000;1.4204;1.6996;
386.1000;1.4196;1.6948;
386.4000;1.4212;1.6875;
386.7000;1.4196;1.6948;
387.0000;1.4204;1.6996;
387.3000;1.4172;1.6948;
387.6000;1.4212;1.7069;
387.9000;1.4196;1.7069;
388.2000;1.4188;1.7093;
388.5000;1.4180;1.7142;
388.8000;1.4221;1.7166;
389.1000;1.4123;1.6923;
389.4000;1.4180;1.7020;
389.7000;1.4196;1.7093;
390.0000;1.4188;1.7214;
390.3000;1.4180;1.7287;
390.6000;1.4172;1.7311;
390.9000;1.4155;1.7263;
391.2000;1.4204;1.7408;
391.5000;1.4180;1.7336;
391.8000;1.4172;1.7263;
392.1000;1.4196;1.7311;
392.4000;1.4196;1.7311;
392.7000;1.4204;1.7287;
393.0000;1.4180;1.7190;
393.3000;1.4188;1.7117;
393.6000;1.4180;1.7069;
393.9000;1.4180;1.7069;
394.2000;1.4188;1.7069;
394.5000;1.4196;1.7093;
394.8000;1.4196;1.7020;
395.1000;1.4180;1.6923;
395.4000;1.4196;1.6923;
395.7000;1.4196;1.6996;
396.0000;1.4180;1.7069;
396.3000;1.4196;1.7069;
396.6000;1.4188;1.7045;
396.9000;1.4221;1.7045;
397.2000;1.4204;1.6923;
397.5000;1.4204;1.6948;
397.8000;1.4204;1.7045;
398.1000;1.4164;1.7020;
398.4000;1.4196;1.7117;
398.7000;1.4188;1.7239;
399.0000;1.4188;1.7166;
399.3000;1.4188;1.7069;
399.6000;1.4180;1.7020;
399.9000;1.4155;1.6972;
400.2000;1.4180;1.6996;
400.5000;1.4188;1.6923;
400.8000;1.4212;1.7020;
401.1000;1.4221;1.6948;
401.4000;1.4188;1.6899;
401.7000;1.4180;1.6923;
402.0000;1.4237;1.7069;
402.3000;1.4188;1.6899;
402.6000;1.4164;1.6899;
402.9000;1.4196;1.6948;
403.2000;1.4212;1.6996;
403.5000;1.4196;1.6948;
403.8000;1.4212;1.6996;
404.1000;1.4196;1.6996;
404.4000;1.4180;1.7020;
404.7000;1.4261;1.7263;
405.0000;1.4204;1.7069;
405.3000;1.4212;1.7214;
405.6000;1.4131;1.7045;
405.9000;1.4204;1.7214;
406.2000;1.4164;1.7117;
406.5000;1.4196;1.7093;
406.8000;1.4188;1.6996;
407.1000;1.4204;1.7020;
407.4000;1.4204;1.6996;
407.7000;1.4212;1.7093;
408.0000;1.4204;1.7069;
408.3000;1.4196;1.7020;
408.6000;1.4212;1.7093;
408.9000;1.4204;1.7069;
409.2000;1.4188;1.7069;
409.5000;1.4188;1.7020;
409.8000;1.4212;1.7045;
410.1000;1.4237;1.7069;
410.4000;1.4245;1.7069;
410.7000;1.4204;1.6972;
411.0000;1.4253;1.7069;
411.3000;1.4188;1.6923;
411.6000;1.4212;1.7020;
411.9000;1.4196;1.6899;
412.2000;1.4188;1.6875;
412.5000;1.4212;1.6923;
412.8000;1.4221;1.6923;
413.1000;1.4212;1.6948;
413.4000;1.4180;1.6851;
413.7000;1.4196;1.6972;
414.0000;1.4212;1.7020;
414.3000;1.4172;1.6996;
414.6000;1.4188;1.6996;
414.9000;1.4180;1.6948;
415.2000;1.4172;1.7045;
415.5000;1.4196;1.7093;
415.8000;1.4139;1.7045;
416.1000;1.4180;1.7142;
416.4000;1.4172;1.7020;
416.7000;1.4180;1.7045;
417.0000;1.4164;1.6948;
417.3000;1.4172;1.6948;
417.6000;1.4180;1.6923;
417.9000;1.4172;1.6899;
418.2000;1.4180;1.6899;
418.5000;1.4196;1.6923;
418.8000;1.4131;1.6851;
419.1000;1.4172;1.6948;
419.4000;1.4180;1.6948;
419.7000;1.4180;1.6996;
420.0000;1.4180;1.6972;
420.3000;1.4164;1.6923;
420.6000;1.4180;1.6996;
420.9000;1.4180;1.6972;
421.2000;1.4180;1.6948;
421.5000;1.4188;1.6948;
421.8000;1.4196;1.6923;
422.1000;1.4196;1.6875;
422.4000;1.4204;1.6948;
422.7000;1.4188;1.6948;
423.0000;1.4204;1.6923;
423.3000;1.4196;1.6948;
423.6000;1.4196;1.6972;
423.9000;1.4204;1.6948;
424.2000;1.4188;1.6851;
424.5000;1.4204;1.6899;
424.8000;1.4196;1.6899;
425.1000;1.4188;1.6899;
425.4000;1.4188;1.6948;
425.7000;1.4164;1.6899;
426.0000;1.4131;1.6705;
426.3000;1.4188;1.6851;
426.6000;1.4253;1.6923;
426.9000;1.4180;1.6802;
427.2000;1.4212;1.6948;
427.5000;1.4196;1.6972;
427.8000;1.4188;1.6996;
428.1000;1.4188;1.7020;
428.4000;1.4188;1.7045;
428.7000;1.4229;1.7069;
429.0000;1.4196;1.7045;
429.3000;1.4196;1.6948;
429.6000;1.4196;1.6972;
429.9000;1.4164;1.6875;
430.2000;1.4180;1.7020;
430.5000;1.4123;1.6972;
430.8000;1.4204;1.7045;
431.1000;1.4155;1.6972;
431.4000;1.4180;1.7020;
431.7000;1.4188;1.7020;
432.0000;1.4164;1.7020;
432.3000;1.4188;1.7093;
432.6000;1.4172;1.7069;
432.9000;1.4188;1.7069;
433.2000;1.4196;1.7069;
433.5000;1.4196;1.7069;
433.8000;1.4188;1.7020;
434.1000;1.4188;1.7069;
434.4000;1.4212;1.7239;
434.7000;1.4204;1.7142;
435.0000;1.4188;1.7117;
435.3000;1.4188;1.7117;
435.6000;1.4180;1.7069;
435.9000;1.4188;1.6923;
436.2000;1.4180;1.6996;
436.5000;1.4180;1.6972;
436.8000;1.4261;1.7239;
437.1000;1.4188;1.7045;
437.4000;1.4172;1.7045;
437.7000;1.4180;1.7117;
438.0000;1.4188;1.7214;
438.3000;1.4172;1.7142;
438.6000;1.4180;1.7093;
438.9000;1.4204;1.7093;
439.2000;1.4188;1.6996;
439.5000;1.4188;1.7069;
439.8000;1.4196;1.7020;
440.1000;1.4164;1.6972;
440.4000;1.4188;1.6948;
440.7000;1.4204;1.6778;
441.0000;1.4196;1.6778;
441.3000;1.4164;1.6802;
441.6000;1.4164;1.6851;
441.9000;1.4204;1.6851;
442.2000;1.4172;1.6681;
442.5000;1.4172;1.6657;
442.8000;1.4172;1.6632;
443.1000;1.4180;1.6608;
443.4000;1.4172;1.6608;
443.7000;1.4172;1.6584;
444.0000;1.4172;1.6657;
444.3000;1.4188;1.6778;
444.6000;1.4196;1.6802;
444.9000;1.4164;1.6681;
445.2000;1.4172;1.6681;
445.5000;1.4172;1.6778;
445.8000;1.4180;1.6754;
446.1000;1.4204;1.6851;
446.4000;1.4188;1.6826;
446.7000;1.4172;1.6778;
447.0000;1.4196;1.6802;
447.3000;1.4188;1.6851;
447.6000;1.4131;1.6754;
447.9000;1.4172;1.6826;
448.2000;1.4164;1.6802;
448.5000;1.4188;1.6778;
448.8000;1.4172;1.6754;
449.1000;1.4196;1.6802;
449.4000;1.4188;1.6778;
449.7000;1.4155;1.6705;
450.0000;1.4188;1.6754;
450.3000;1.4196;1.6705;
450.6000;1.4204;1.6657;
450.9000;1.4196;1.6705;
451.2000;1.4164;1.6729;
451.5000;1.4212;1.6875;
451.8000;1.4188;1.6826;
452.1000;1.4188;1.6875;
452.4000;1.4221;1.6948;
452.7000;1.4188;1.6996;
453.0000;1.4196;1.7020;
453.3000;1.4204;1.6948;
453.6000;1.4188;1.6948;
453.9000;1.4196;1.6923;
454.2000;1.4196;1.6802;
454.5000;1.4180;1.6705;
454.8000;1.4204;1.6705;
455.1000;1.4188;1.6632;
455.4000;1.4196;1.6681;
455.7000;1.4172;1.6681;
456.0000;1.4180;1.6754;
456.3000;1.4180;1.6802;
456.6000;1.4188;1.6802;
456.9000;1.4261;1.6972;
457.2000;1.4180;1.6826;
457.5000;1.4221;1.6899;
457.8000;1.4180;1.6899;
458.1000;1.4172;1.6948;
458.4000;1.4188;1.6996;
458.7000;1.4188;1.6923;
459.0000;1.4180;1.6899;
459.3000;1.4180;1.6923;
459.6000;1.4172;1.7020;
459.9000;1.4188;1.7166;
460.2000;1.4188;1.7190;
460.5000;1.4180;1.7117;
460.8000;1.4172;1.7020;
461.1000;1.4180;1.7045;
461.4000;1.4180;1.7093;
461.7000;1.4221;1.7142;
462.0000;1.4164;1.6996;
462.3000;1.4172;1.6899;
462.6000;1.4172;1.6899;
462.9000;1.4180;1.6802;
463.2000;1.4188;1.6754;
463.5000;1.4188;1.6826;
463.8000;1.4196;1.6875;
464.1000;1.4188;1.6826;
464.4000;1.4172;1.6754;
464.7000;1.4172;1.6778;
465.0000;1.4204;1.6899;
465.3000;1.4180;1.6754;
465.6000;1.4155;1.6778;
465.9000;1.4180;1.6657;
466.2000;1.4172;1.6657;
466.5000;1.4172;1.6657;
466.8000;1.4172;1.6632;
467.1000;1.4164;1.6705;
467.4000;1.4172;1.6681;
467.7000;1.4188;1.6705;
468.0000;1.4180;1.6754;
468.3000;1.4164;1.6681;
468.6000;1.4164;1.6681;
468.9000;1.4155;1.6632;
469.2000;1.4188;1.6729;
469.5000;1.4188;1.6657;
469.8000;1.4180;1.6608;
470.1000;1.4180;1.6705;
470.4000;1.4164;1.6754;
470.7000;1.4172;1.6778;
471.0000;1.4172;1.6826;
471.3000;1.4180;1.6923;
471.6000;1.4180;1.6899;
471.9000;1.4164;1.6802;
472.2000;1.4180;1.6875;
472.5000;1.4172;1.6923;
472.8000;1.4204;1.6996;
473.1000;1.4180;1.6972;
473.4000;1.4164;1.6996;
473.7000;1.4180;1.6948;
474.0000;1.4188;1.6972;
474.3000;1.4180;1.7093;
474.6000;1.4188;1.6996;
474.9000;1.4172;1.6826;
475.2000;1.4180;1.6754;
475.5000;1.4180;1.6705;
475.8000;1.4172;1.6729;
476.1000;1.4180;1.6729;
476.4000;1.4221;1.6851;
476.7000;1.4188;1.6851;
477.0000;1.4196;1.6948;
477.3000;1.4172;1.6996;
477.6000;1.4172;1.6948;
477.9000;1.4172;1.6972;
478.2000;1.4180;1.6899;
478.5000;1.4180;1.6972;
478.8000;1.4188;1.6923;
479.1000;1.4172;1.6851;
479.4000;1.4212;1.6948;
479.7000;1.4188;1.6899;
480.0000;1.4188;1.6899;
480.3000;1.4172;1.6899;
480.6000;1.4172;1.6826;
480.9000;1.4196;1.6851;
481.2000;1.4188;1.6802;
481.5000;1.4180;1.6802;
481.8000;1.4188;1.6851;
482.1000;1.4188;1.6851;
482.4000;1.4180;1.6778;
482.7000;1.4180;1.6875;
483.0000;1.4229;1.6996;
483.3000;1.4172;1.6778;
483.6000;1.4172;1.6802;
483.9000;1.4172;1.6851;
484.2000;1.4180;1.6875;
484.5000;1.4147;1.6802;
484.8000;1.4221;1.6948;
485.1000;1.4172;1.6826;
485.4000;1.4188;1.6826;
485.7000;1.4180;1.6778;
486.0000;1.4164;1.6754;
486.3000;1.4172;1.6826;
486.6000;1.4172;1.6754;
486.9000;1.4180;1.6851;
487.2000;1.4164;1.6826;
487.5000;1.4164;1.6729;
487.8000;1.4123;1.6657;
488.1000;1.4180;1.6778;
488.4000;1.4196;1.6899;
488.7000;1.4155;1.6778;
489.0000;1.4155;1.6826;
489.3000;1.4172;1.6875;
489.6000;1.4188;1.6851;
489.9000;1.4172;1.6851;
490.2000;1.4172;1.6875;
490.5000;1.4172;1.6875;
490.8000;1.4188;1.6875;
491.1000;1.4180;1.6729;
491.4000;1.4172;1.6754;
491.7000;1.4245;1.6923;
492.0000;1.4164;1.6705;
492.3000;1.4188;1.6802;
492.6000;1.4172;1.6778;
492.9000;1.4172;1.6875;
493.2000;1.4188;1.6923;
493.5000;1.4180;1.6851;
493.8000;1.4172;1.6826;
494.1000;1.4172;1.6923;
494.4000;1.4139;1.6826;
494.7000;1.4164;1.6972;
495.0000;1.4180;1.6948;
495.3000;1.4180;1.6972;
495.6000;1.4155;1.6875;
495.9000;1.4164;1.6923;
496.2000;1.4188;1.6948;
496.5000;1.4164;1.6851;
496.8000;1.4172;1.6875;
497.1000;1.4172;1.6899;
497.4000;1.4196;1.7020;
497.7000;1.4172;1.6923;
498.0000;1.4188;1.6948;
498.3000;1.4188;1.6948;
498.6000;1.4172;1.6923;
498.9000;1.4172;1.6923;
499.2000;1.4164;1.6851;
499.5000;1.4172;1.6851;
499.8000;1.4164;1.6826;
500.1000;1.4180;1.6802;
500.4000;1.4139;1.6754;
500.7000;1.4172;1.6923;
501.0000;1.4172;1.6923;
501.3000;1.4172;1.6996;
501.6000;1.4180;1.7020;
501.9000;1.4155;1.6948;
502.2000;1.4172;1.6972;
502.5000;1.4172;1.7020;
502.8000;1.4172;1.6972;
503.1000;1.4180;1.6996;
503.4000;1.4180;1.6996;
503.7000;1.4172;1.6923;
504.0000;1.4172;1.6923;
504.3000;1.4180;1.6899;
504.6000;1.4172;1.6923;
504.9000;1.4155;1.6826;
505.2000;1.4180;1.6778;
505.5000;1.4115;1.6729;
505.8000;1.4188;1.6923;
506.1000;1.4172;1.6754;
506.4000;1.4172;1.6778;
506.7000;1.4164;1.6778;
507.0000;1.4155;1.6754;
507.3000;1.4172;1.6778;
507.6000;1.4172;1.6778;
507.9000;1.4164;1.6851;
508.2000;1.4164;1.6899;
508.5000;1.4172;1.6948;
508.8000;1.4180;1.6972;
509.1000;1.4172;1.6826;
509.4000;1.4188;1.6851;
509.7000;1.4139;1.6681;
510.0000;1.4164;1.6705;
510.3000;1.4155;1.6754;
510.6000;1.4164;1.6875;
510.9000;1.4172;1.6948;
511.2000;1.4188;1.6948;
511.5000;1.4164;1.6875;
511.8000;1.4139;1.6826;
512.1000;1.4180;1.6899;
512.4000;1.4164;1.6923;
512.7000;1.4115;1.6802;
513.0000;1.4147;1.6948;
513.3000;1.4155;1.6875;
513.6000;1.4155;1.6948;
513.9000;1.4164;1.7020;
514.2000;1.4172;1.6996;
514.5000;1.4172;1.6996;
514.8000;1.4164;1.7045;
515.1000;1.4180;1.7142;
515.4000;1.4164;1.7117;
515.7000;1.4164;1.7166;
516.0000;1.4172;1.7239;
516.3000;1.4180;1.7190;
516.6000;1.4196;1.7214;
516.9000;1.4172;1.7142;
517.2000;1.4188;1.7263;
517.5000;1.4180;1.7287;
517.8000;1.4172;1.7263;
518.1000;1.4155;1.7166;
518.4000;1.4164;1.7069;
518.7000;1.4155;1.6996;
519.0000;1.4180;1.6899;
519.3000;1.4098;1.6729;
519.6000;1.4172;1.6923;
519.9000;1.4196;1.6996;
520.2000;1.4180;1.6948;
520.5000;1.4155;1.6875;
520.8000;1.4164;1.6972;
521.1000;1.4180;1.6899;
521.4000;1.4180;1.6948;
521.7000;1.4204;1.7069;
522.0000;1.4164;1.7069;
522.3000;1.4221;1.7214;
522.6000;1.4115;1.6972;
522.9000;1.4180;1.7142;
523.2000;1.4147;1.7020;
523.5000;1.4180;1.7045;
523.8000;1.4164;1.7020;
524.1000;1.4164;1.6972;
524.4000;1.4180;1.6948;
524.7000;1.4164;1.6899;
525.0000;1.4164;1.6923;
525.3000;1.4188;1.6923;
525.6000;1.4164;1.6875;
525.9000;1.4164;1.6948;
526.2000;1.4164;1.6972;
526.5000;1.4172;1.7020;
526.8000;1.4172;1.7020;
527.1000;1.4172;1.6972;
527.4000;1.4172;1.6899;
527.7000;1.4164;1.6875;
528.0000;1.4164;1.6802;
528.3000;1.4164;1.6802;
528.6000;1.4172;1.6826;
528.9000;1.4164;1.6875;
529.2000;1.4164;1.6923;
529.5000;1.4196;1.6923;
529.8000;1.4164;1.6923;
530.1000;1.4164;1.6996;
530.4000;1.4164;1.7020;
530.7000;1.4172;1.7020;
531.0000;1.4172;1.6948;
531.3000;1.4180;1.6972;
531.6000;1.4196;1.6996;
531.9000;1.4172;1.6948;
532.2000;1.4172;1.6948;
532.5000;1.4172;1.6948;
532.8000;1.4172;1.6972;
533.1000;1.4172;1.6948;
533.4000;1.4164;1.7020;
533.7000;1.4188;1.6996;
534.0000;1.4180;1.6972;
534.3000;1.4164;1.7069;
534.6000;1.4164;1.7093;
534.9000;1.4164;1.7069;
535.2000;1.4164;1.7093;
535.5000;1.4180;1.7190;
535.8000;1.4164;1.7166;
536.1000;1.4147;1.7045;
536.4000;1.4164;1.7117;
536.7000;1.4155;1.7166;
537.0000;1.4155;1.7117;
537.3000;1.4164;1.7045;
537.6000;1.4180;1.7142;
537.9000;1.4147;1.7093;
538.2000;1.4164;1.7093;
538.5000;1.4164;1.6996;
538.8000;1.4147;1.7020;
539.1000;1.4164;1.7069;
539.4000;1.4164;1.6972;
539.7000;1.4164;1.6923;
540.0000;1.4164;1.6899;
540.3000;1.4172;1.6923;
540.6000;1.4164;1.6923;
540.9000;1.4155;1.7045;
541.2000;1.4155;1.7045;
541.5000;1.4131;1.6996;
541.8000;1.4155;1.6923;
542.1000;1.4115;1.6729;
542.4000;1.4155;1.6826;
542.7000;1.4155;1.6729;
543.0000;1.4147;1.6705;
543.3000;1.4261;1.6948;
543.6000;1.4164;1.6729;
543.9000;1.4155;1.6778;
544.2000;1.4155;1.6778;
544.5000;1.4196;1.6875;
544.8000;1.4164;1.6802;
545.1000;1.4123;1.6802;
545.4000;1.4131;1.6875;
545.7000;1.4139;1.6875;
546.0000;1.4155;1.6851;
546.3000;1.4172;1.6851;
546.6000;1.4164;1.6851;
546.9000;1.4172;1.6802;
547.2000;1.4164;1.6778;
547.5000;1.4172;1.6802;
547.8000;1.4139;1.6875;
548.1000;1.4155;1.6923;
548.4000;1.4164;1.6923;
548.7000;1.4172;1.6899;
549.0000;1.4164;1.6899;
549.3000;1.4155;1.6899;
549.6000;1.4164;1.6923;
549.9000;1.4221;1.7117;
550.2000;1.4155;1.6923;
550.5000;1.4147;1.6899;
550.8000;1.4164;1.6875;
551.1000;1.4155;1.6948;
551.4000;1.4172;1.6948;
551.7000;1.4164;1.6948;
552.0000;1.4172;1.6948;
552.3000;1.4155;1.6875;
552.6000;1.4155;1.6875;
552.9000;1.4164;1.6875;
553.2000;1.4172;1.6972;
553.5000;1.4164;1.6948;
553.8000;1.4164;1.6948;
554.1000;1.4180;1.6948;
554.4000;1.4172;1.6948;
554.7000;1.4180;1.6923;
555.0000;1.4139;1.6899;
555.3000;1.4164;1.6923;
555.6000;1.4147;1.6875;
555.9000;1.4107;1.6778;
556.2000;1.4164;1.6875;
556.5000;1.4212;1.6996;
556.8000;1.4155;1.6923;
557.1000;1.4155;1.6899;
557.4000;1.4180;1.6875;
557.7000;1.4164;1.6899;
558.0000;1.4164;1.6899;
558.3000;1.4155;1.6972;
558.6000;1.4188;1.6996;
558.9000;1.4155;1.6826;
559.2000;1.4155;1.6778;
559.5000;1.4164;1.6802;
559.8000;1.4147;1.6778;
560.1000;1.4139;1.6802;
560.4000;1.4164;1.6875;
560.7000;1.4164;1.6899;
561.0000;1.4164;1.6875;
561.3000;1.4164;1.6826;
561.6000;1.4155;1.6851;
561.9000;1.4147;1.6875;
562.2000;1.4172;1.6899;
562.5000;1.4155;1.6923;
562.8000;1.4164;1.6972;
563.1000;1.4180;1.6948;
563.4000;1.4172;1.6899;
563.7000;1.4131;1.6826;
564.0000;1.4155;1.6875;
564.3000;1.4155;1.6802;
564.6000;1.4147;1.6778;
564.9000;1.4123;1.6826;
565.2000;1.4172;1.6948;
565.5000;1.4147;1.6923;
565.8000;1.4147;1.6948;
566.1000;1.4164;1.7045;
566.4000;1.4180;1.7069;
566.7000;1.4172;1.6972;
567.0000;1.4155;1.6996;
567.3000;1.4164;1.7045;
567.6000;1.4164;1.6996;
567.9000;1.4147;1.6948;
568.2000;1.4147;1.6996;
568.5000;1.4164;1.7045;
568.8000;1.4147;1.7045;
569.1000;1.4164;1.7093;
569.4000;1.4180;1.7069;
569.7000;1.4139;1.6948;
570.0000;1.4196;1.7093;
570.3000;1.4139;1.6899;
570.6000;1.4155;1.6851;
570.9000;1.4155;1.6899;
571.2000;1.4155;1.6851;
571.5000;1.4164;1.6729;
571.8000;1.4164;1.6705;
572.1000;1.4139;1.6657;
572.4000;1.4164;1.6729;
572.7000;1.4164;1.6729;
573.0000;1.4155;1.6802;
573.3000;1.4164;1.6899;
573.6000;1.4147;1.6851;
573.9000;1.4229;1.6972;
574.2000;1.4147;1.6899;
574.5000;1.4155;1.6923;
574.8000;1.4155;1.6899;
575.1000;1.4164;1.6875;
575.4000;1.4172;1.6826;
575.7000;1.4155;1.6802;
576.0000;1.4147;1.6729;
576.3000;1.4180;1.6778;
576.6000;1.4147;1.6729;
576.9000;1.4139;1.6729;
577.2000;1.4155;1.6729;
577.5000;1.4164;1.6681;
577.8000;1.4180;1.6778;
578.1000;1.4155;1.6632;
578.4000;1.4164;1.6632;
578.7000;1.4172;1.6681;
579.0000;1.4155;1.6754;
579.3000;1.4180;1.6851;
579.6000;1.4155;1.6754;
579.9000;1.4155;1.6657;
580.2000;1.4155;1.6560;
580.5000;1.4147;1.6560;
580.8000;1.4139;1.6584;
581.1000;1.4123;1.6584;
581.4000;1.4139;1.6705;
581.7000;1.4147;1.6851;
582.0000;1.4147;1.6923;
582.3000;1.4155;1.6899;
582.6000;1.4180;1.6899;
582.9000;1.4164;1.6875;
583.2000;1.4131;1.6802;
583.5000;1.4155;1.6851;
583.8000;1.4164;1.6802;
584.1000;1.4115;1.6705;
584.4000;1.4155;1.6802;
584.7000;1.4164;1.6875;
585.0000;1.4155;1.6826;
585.3000;1.4131;1.6875;
585.6000;1.4147;1.6851;
585.9000;1.4155;1.6899;
586.2000;1.4147;1.6778;
586.5000;1.4147;1.6802;
586.8000;1.4155;1.6802;
587.1000;1.4155;1.6899;
587.4000;1.4172;1.6948;
587.7000;1.4155;1.6996;
588.0000;1.4164;1.7093;
588.3000;1.4115;1.6923;
588.6000;1.4139;1.6996;
588.9000;1.4172;1.7093;
589.2000;1.4155;1.6948;
589.5000;1.4155;1.6948;
589.8000;1.4147;1.6923;
590.1000;1.4147;1.6923;
590.4000;1.4147;1.6948;
590.7000;1.4164;1.6899;
591.0000;1.4147;1.6899;
591.3000;1.4123;1.6802;
591.6000;1.4139;1.6826;
591.9000;1.4147;1.6851;
592.2000;1.4155;1.6778;
592.5000;1.4188;1.6899;
592.8000;1.4172;1.6899;
593.1000;1.4164;1.6948;
593.4000;1.4164;1.6996;
593.7000;1.4115;1.6948;
594.0000;1.4164;1.7045;
594.3000;1.4180;1.7117;
594.6000;1.4147;1.6996;
594.9000;1.4147;1.6948;
595.2000;1.4155;1.6851;
595.5000;1.4115;1.6851;
595.8000;1.4155;1.6875;
596.1000;1.4139;1.6899;
596.4000;1.4164;1.7020;
596.7000;1.4147;1.6996;
597.0000;1.4147;1.7020;
597.3000;1.4139;1.7020;
597.6000;1.4139;1.6996;
597.9000;1.4164;1.7045;
598.2000;1.4172;1.7093;
598.5000;1.4147;1.6996;
598.8000;1.4147;1.6996;
599.1000;1.4164;1.6996;
599.4000;1.4188;1.7093;
599.7000;1.4131;1.6923;
600.0000;1.4147;1.6972;
600.3000;1.4164;1.6972;
600.6000;1.4147;1.6778;
600.9000;1.4074;1.6608;
601.2000;1.3976;1.6390;
601.5000;1.3846;1.6172;
601.8000;1.3716;1.6026;
602.1000;1.3569;1.5735;
602.4000;1.3423;1.5541;
602.7000;1.3309;1.5420;
603.0000;1.3195;1.5275;
603.3000;1.3073;1.5081;
603.6000;1.2959;1.5008;
603.9000;1.2869;1.4887;
604.2000;1.2772;1.4790;
604.5000;1.2682;1.4644;
604.8000;1.2593;1.4596;
605.1000;1.2536;1.4547;
605.4000;1.2381;1.4329;
605.7000;1.2300;1.4329;
606.0000;1.2161;1.4256;
606.3000;1.2161;1.4281;
606.6000;1.2072;1.4184;
606.9000;1.1998;1.4232;
607.2000;1.1925;1.4159;
607.5000;1.1860;1.4087;
607.8000;1.1803;1.4014;
608.1000;1.1738;1.3917;
608.4000;1.1681;1.3917;
608.7000;1.1624;1.3796;
609.0000;1.1543;1.3626;
609.3000;1.1486;1.3529;
609.6000;1.1437;1.3456;
609.9000;1.1363;1.3529;
610.2000;1.1306;1.3456;
610.5000;1.1258;1.3456;
610.8000;1.1201;1.3384;
611.1000;1.1152;1.3311;
611.4000;1.1087;1.3238;
611.7000;1.0997;1.3190;
612.0000;1.0989;1.3335;
612.3000;1.0956;1.3287;
612.6000;1.0899;1.3238;
612.9000;1.0834;1.3141;
613.2000;1.0794;1.3093;
613.5000;1.0761;1.3068;
613.8000;1.0712;1.3093;
614.1000;1.0696;1.3093;
614.4000;1.0623;1.3020;
614.7000;1.0582;1.3068;
615.0000;1.0558;1.3044;
615.3000;1.0444;1.2899;
615.6000;1.0452;1.3044;
615.9000;1.0411;1.2996;
616.2000;1.0330;1.2850;
616.5000;1.0354;1.2850;
616.8000;1.0289;1.2753;
617.1000;1.0265;1.2753;
617.4000;1.0216;1.2656;
617.7000;1.0183;1.2680;
618.0000;1.0159;1.2656;
618.3000;1.0126;1.2656;
618.6000;1.0077;1.2656;
618.9000;1.0028;1.2511;
619.2000;1.0012;1.2559;
619.5000;0.9980;1.2608;
619.8000;0.9947;1.2583;
620.1000;0.9890;1.2535;
620.4000;0.9874;1.2559;
620.7000;0.9866;1.2559;
621.0000;0.9817;1.2559;
621.3000;0.9784;1.2535;
621.6000;0.9760;1.2486;
621.9000;0.9727;1.2486;
622.2000;0.9711;1.2583;
622.5000;0.9687;1.2559;
622.8000;0.9646;1.2535;
623.1000;0.9605;1.2511;
623.4000;0.9540;1.2486;
623.7000;0.9565;1.2583;
624.0000;0.9548;1.2632;
624.3000;0.9516;1.2511;
624.6000;0.9491;1.2511;
624.9000;0.9491;1.2486;
625.2000;0.9459;1.2462;
625.5000;0.9418;1.2414;
625.8000;0.9385;1.2486;
626.1000;0.9377;1.2438;
626.4000;0.9337;1.2341;
626.7000;0.9304;1.2341;
627.0000;0.9296;1.2389;
627.3000;0.9271;1.2486;
627.6000;0.9239;1.2438;
627.9000;0.9223;1.2365;
628.2000;0.9166;1.2220;
628.5000;0.9182;1.2220;
628.8000;0.9149;1.2317;
629.1000;0.9141;1.2438;
629.4000;0.9109;1.2414;
629.7000;0.9092;1.2438;
630.0000;0.9117;1.2511;
630.3000;0.9068;1.2389;
630.6000;0.9044;1.2389;
630.9000;0.9003;1.2389;
631.2000;0.8995;1.2462;
631.5000;0.8970;1.2389;
631.8000;0.8962;1.2389;
632.1000;0.8946;1.2438;
632.4000;0.8921;1.2438;
632.7000;0.8995;1.2680;
633.0000;0.8889;1.2414;
633.3000;0.8889;1.2414;
633.6000;0.8864;1.2341;
633.9000;0.8848;1.2244;
634.2000;0.8832;1.2220;
634.5000;0.8824;1.2244;
634.8000;0.8783;1.2268;
635.1000;0.8791;1.2292;
635.4000;0.8807;1.2268;
635.7000;0.8751;1.2099;
636.0000;0.8742;1.2074;
636.3000;0.8718;1.2123;
636.6000;0.8694;1.2171;
636.9000;0.8685;1.2099;
637.2000;0.8694;1.2099;
637.5000;0.8580;1.1856;
637.8000;0.8653;1.2074;
638.1000;0.8612;1.2050;
638.4000;0.8612;1.2220;
638.7000;0.8653;1.2292;
639.0000;0.8588;1.2171;
639.3000;0.8555;1.2050;
639.6000;0.8563;1.2099;
639.9000;0.8547;1.2123;
640.2000;0.8539;1.2050;
640.5000;0.8563;1.2147;
640.8000;0.8514;1.2074;
641.1000;0.8523;1.2123;
641.4000;0.8441;1.2002;
641.7000;0.8482;1.2074;
642.0000;0.8449;1.1977;
642.3000;0.8425;1.2002;
642.6000;0.8498;1.2220;
642.9000;0.8425;1.2026;
643.2000;0.8409;1.2074;
643.5000;0.8409;1.2074;
643.8000;0.8360;1.2002;
644.1000;0.8384;1.2050;
644.4000;0.8360;1.2002;
644.7000;0.8344;1.2050;
645.0000;0.8344;1.2171;
645.3000;0.8368;1.2196;
645.6000;0.8319;1.2099;
645.9000;0.8319;1.2050;
646.2000;0.8303;1.2026;
646.5000;0.8295;1.2050;
646.8000;0.8287;1.2074;
647.1000;0.8270;1.2099;
647.4000;0.8262;1.2220;
647.7000;0.8238;1.2099;
648.0000;0.8254;1.2123;
648.3000;0.8254;1.2123;
648.6000;0.8148;1.1832;
648.9000;0.8213;1.1977;
649.2000;0.8205;1.2050;
649.5000;0.8181;1.2026;
649.8000;0.8189;1.2099;
650.1000;0.8173;1.2123;
650.4000;0.8173;1.2099;
650.7000;0.8148;1.2050;
651.0000;0.8107;1.1977;
651.3000;0.8107;1.2099;
651.6000;0.8156;1.2196;
651.9000;0.8124;1.2123;
652.2000;0.8132;1.2171;
652.5000;0.8091;1.2050;
652.8000;0.8124;1.2123;
653.1000;0.8042;1.1929;
653.4000;0.8091;1.2050;
653.7000;0.8059;1.2050;
654.0000;0.8059;1.2002;
654.3000;0.8083;1.2002;
654.6000;0.8010;1.1759;
654.9000;0.8002;1.1711;
655.2000;0.8018;1.1759;
655.5000;0.8018;1.1808;
655.8000;0.8018;1.1783;
656.1000;0.8002;1.1832;
656.4000;0.7985;1.1905;
656.7000;0.7961;1.1953;
657.0000;0.7977;1.1929;
657.3000;0.7969;1.1880;
657.6000;0.7953;1.1759;
657.9000;0.7961;1.1735;
658.2000;0.7969;1.1711;
658.5000;0.7920;1.1614;
658.8000;0.7953;1.1638;
659.1000;0.7945;1.1735;
659.4000;0.7904;1.1759;
659.7000;0.7920;1.1808;
660.0000;0.7928;1.1783;
660.3000;0.7896;1.1759;
660.6000;0.7888;1.1832;
660.9000;0.7896;1.1856;
661.2000;0.7896;1.1929;
661.5000;0.7904;1.2026;
661.8000;0.7880;1.1953;
662.1000;0.7863;1.1977;
662.4000;0.7847;1.1953;
662.7000;0.7863;1.1977;
663.0000;0.7847;1.1929;
663.3000;0.7847;1.1880;
663.6000;0.7823;1.1856;
663.9000;0.7806;1.1977;
664.2000;0.7814;1.1929;
664.5000;0.7814;1.1977;
664.8000;0.7782;1.1880;
665.1000;0.7798;1.1977;
665.4000;0.7749;1.1905;
665.7000;0.7782;1.1977;
666.0000;0.7798;1.2026;
666.3000;0.7766;1.1929;
666.6000;0.7814;1.2026;
666.9000;0.7757;1.1905;
667.2000;0.7749;1.1880;
667.5000;0.7741;1.1856;
667.8000;0.7749;1.1880;
668.1000;0.7741;1.1832;
668.4000;0.7733;1.1880;
668.7000;0.7733;1.1977;
669.0000;0.7717;1.2026;
669.3000;0.7741;1.2123;
669.6000;0.7725;1.2050;
669.9000;0.7709;1.1856;
670.2000;0.7692;1.1783;
670.5000;0.7717;1.1880;
670.8000;0.7692;1.1856;
671.1000;0.7700;1.1856;
671.4000;0.7676;1.1711;
671.7000;0.7676;1.1638;
672.0000;0.7660;1.1638;
672.3000;0.7676;1.1686;
672.6000;0.7676;1.1589;
672.9000;0.7652;1.1541;
673.2000;0.7652;1.1589;
673.5000;0.7660;1.1711;
673.8000;0.7668;1.1759;
674.1000;0.7676;1.1783;
674.4000;0.7627;1.1686;
674.7000;0.7635;1.1808;
675.0000;0.7627;1.1808;
675.3000;0.7603;1.1832;
675.6000;0.7603;1.1759;
675.9000;0.7619;1.1808;
676.2000;0.7595;1.1759;
676.5000;0.7578;1.1711;
676.8000;0.7586;1.1614;
677.1000;0.7570;1.1541;
677.4000;0.7562;1.1541;
677.7000;0.7562;1.1686;
678.0000;0.7554;1.1735;
678.3000;0.7546;1.1711;
678.6000;0.7562;1.1662;
678.9000;0.7554;1.1614;
679.2000;0.7538;1.1662;
679.5000;0.7538;1.1759;
679.8000;0.7538;1.1735;
680.1000;0.7530;1.1832;
680.4000;0.7521;1.1735;
680.7000;0.7513;1.1735;
681.0000;0.7521;1.1735;
681.3000;0.7530;1.1711;
681.6000;0.7521;1.1662;
681.9000;0.7546;1.1686;
682.2000;0.7481;1.1517;
682.5000;0.7513;1.1662;
682.8000;0.7513;1.1711;
683.1000;0.7497;1.1711;
683.4000;0.7505;1.1735;
683.7000;0.7497;1.1783;
684.0000;0.7497;1.1856;
684.3000;0.7489;1.1832;
684.6000;0.7489;1.1832;
684.9000;0.7481;1.1880;
685.2000;0.7448;1.1832;
685.5000;0.7464;1.1759;
685.8000;0.7456;1.1686;
686.1000;0.7448;1.1711;
686.4000;0.7464;1.1808;
686.7000;0.7424;1.1808;
687.0000;0.7424;1.1808;
687.3000;0.7456;1.1856;
687.6000;0.7416;1.1759;
687.9000;0.7416;1.1759;
688.2000;0.7391;1.1662;
688.5000;0.7424;1.1711;
688.8000;0.7473;1.1832;
689.1000;0.7416;1.1711;
689.4000;0.7383;1.1686;
689.7000;0.7407;1.1686;
690.0000;0.7416;1.1759;
690.3000;0.7399;1.1638;
690.6000;0.7383;1.1614;
690.9000;0.7383;1.1711;
691.2000;0.7391;1.1808;
691.5000;0.7391;1.1880;
691.8000;0.7334;1.1759;
692.1000;0.7375;1.1808;
692.4000;0.7416;1.1856;
692.7000;0.7359;1.1759;
693.0000;0.7367;1.1711;
693.3000;0.7293;1.1492;
693.6000;0.7375;1.1735;
693.9000;0.7367;1.1808;
694.2000;0.7375;1.1783;
694.5000;0.7359;1.1759;
694.8000;0.7350;1.1711;
695.1000;0.7342;1.1711;
695.4000;0.7342;1.1589;
695.7000;0.7350;1.1638;
696.0000;0.7342;1.1662;
696.3000;0.7416;1.1735;
696.6000;0.7342;1.1614;
696.9000;0.7350;1.1638;
697.2000;0.7342;1.1589;
697.5000;0.7350;1.1686;
697.8000;0.7334;1.1686;
698.1000;0.7277;1.1565;
698.4000;0.7310;1.1662;
698.7000;0.7359;1.1808;
699.0000;0.7350;1.1759;
699.3000;0.7302;1.1711;
699.6000;0.7302;1.1832;
699.9000;0.7326;1.1808;
700.2000;0.7310;1.1905;
700.5000;0.7293;1.1880;
700.8000;0.7293;1.1832;
701.1000;0.7188;1.1614;
701.4000;0.7285;1.1808;
701.7000;0.7285;1.1832;
702.0000;0.7277;1.1759;
702.3000;0.7293;1.1832;
702.6000;0.7293;1.1808;
702.9000;0.7310;1.1905;
703.2000;0.7285;1.1832;
703.5000;0.7285;1.1856;
703.8000;0.7269;1.1856;
704.1000;0.7277;1.1832;
704.4000;0.7245;1.1759;
704.7000;0.7245;1.1686;
705.0000;0.7253;1.1735;
705.3000;0.7245;1.1759;
705.6000;0.7253;1.1808;
705.9000;0.7261;1.1856;
706.2000;0.7236;1.1856;
706.5000;0.7253;1.1856;
706.8000;0.7253;1.1856;
707.1000;0.7228;1.1856;
707.4000;0.7245;1.1880;
707.7000;0.7212;1.1856;
708.0000;0.7228;1.1832;
708.3000;0.7212;1.1808;
708.6000;0.7204;1.1759;
708.9000;0.7212;1.1808;
709.2000;0.7220;1.1783;
709.5000;0.7204;1.1759;
709.8000;0.7131;1.1638;
710.1000;0.7220;1.1905;
710.4000;0.7188;1.1880;
710.7000;0.7220;1.1929;
711.0000;0.7196;1.1929;
711.3000;0.7212;1.1953;
711.6000;0.7212;1.1977;
711.9000;0.7220;1.1977;
712.2000;0.7139;1.1783;
712.5000;0.7196;1.1905;
712.8000;0.7204;1.1929;
713.1000;0.7179;1.1953;
713.4000;0.7171;1.1905;
713.7000;0.7179;1.1880;
714.0000;0.7171;1.2002;
714.3000;0.7179;1.1953;
714.6000;0.7179;1.1953;
714.9000;0.7171;1.2026;
715.2000;0.7171;1.1905;
715.5000;0.7204;1.2074;
715.8000;0.7171;1.2099;
716.1000;0.7163;1.2123;
716.4000;0.7171;1.2171;
716.7000;0.7171;1.2147;
717.0000;0.7171;1.2123;
717.3000;0.7171;1.2099;
717.6000;0.7155;1.2099;
717.9000;0.7131;1.2026;
718.2000;0.7155;1.2050;
718.5000;0.7155;1.2074;
718.8000;0.7139;1.2074;
719.1000;0.7139;1.2050;
719.4000;0.7147;1.2171;
719.7000;0.7139;1.2099;
720.0000;0.7131;1.2123;
720.3000;0.7123;1.2050;
720.6000;0.7131;1.2147;
720.9000;0.7139;1.2050;
721.2000;0.7114;1.2074;
721.5000;0.7106;1.2074;
721.8000;0.7123;1.2123;
722.1000;0.7123;1.2147;
722.4000;0.7114;1.2147;
722.7000;0.7114;1.2196;
723.0000;0.7131;1.2220;
723.3000;0.7090;1.2147;
723.6000;0.7123;1.2171;
723.9000;0.7049;1.2002;
724.2000;0.7106;1.2147;
724.5000;0.7082;1.2099;
724.8000;0.7066;1.2050;
725.1000;0.7041;1.2050;
725.4000;0.7106;1.2171;
725.7000;0.7082;1.2099;
726.0000;0.7090;1.2074;
726.3000;0.7066;1.2074;
726.6000;0.7082;1.2099;
726.9000;0.7098;1.2220;
727.2000;0.7106;1.2317;
727.5000;0.7098;1.2317;
727.8000;0.7082;1.2341;
728.1000;0.7106;1.2365;
728.4000;0.7082;1.2268;
728.7000;0.7074;1.2244;
729.0000;0.7098;1.2244;
729.3000;0.7066;1.2220;
729.6000;0.7074;1.2196;
729.9000;0.7114;1.2244;
730.2000;0.7098;1.2292;
730.5000;0.7090;1.2317;
730.8000;0.7074;1.2292;
731.1000;0.7017;1.2099;
731.4000;0.7049;1.2123;
731.7000;0.7000;1.2050;
732.0000;0.7057;1.2292;
732.3000;0.7066;1.2317;
732.6000;0.7057;1.2292;
732.9000;0.7049;1.2292;
733.2000;0.7098;1.2389;
733.5000;0.7066;1.2244;
733.8000;0.7025;1.2171;
734.1000;0.7057;1.2244;
734.4000;0.7009;1.2050;
734.7000;0.7041;1.2147;
735.0000;0.7049;1.2147;
735.3000;0.7025;1.2026;
735.6000;0.7033;1.2099;
735.9000;0.7041;1.2074;
736.2000;0.7017;1.2099;
736.5000;0.7082;1.2268;
736.8000;0.7033;1.2123;
737.1000;0.7033;1.2099;
737.4000;0.7033;1.1953;
737.7000;0.7041;1.1977;
738.0000;0.7041;1.2002;
738.3000;0.7049;1.2123;
738.6000;0.7017;1.2026;
738.9000;0.7033;1.2099;
739.2000;0.7025;1.2002;
739.5000;0.7025;1.2074;
739.8000;0.7009;1.2050;
740.1000;0.7025;1.2099;
740.4000;0.7017;1.2123;
740.7000;0.7017;1.2171;
741.0000;0.7025;1.2196;
741.3000;0.7017;1.2147;
741.6000;0.7009;1.2026;
741.9000;0.7017;1.1977;
742.2000;0.6984;1.1953;
742.5000;0.7017;1.2050;
742.8000;0.6960;1.1977;
743.1000;0.6984;1.2074;
743.4000;0.7025;1.2123;
743.7000;0.6992;1.2123;
744.0000;0.7000;1.2123;
744.3000;0.7009;1.2099;
744.6000;0.7000;1.2074;
744.9000;0.6992;1.2099;
745.2000;0.6984;1.2050;
745.5000;0.6976;1.2074;
745.8000;0.6976;1.2099;
746.1000;0.7009;1.2244;
746.4000;0.6992;1.2220;
746.7000;0.6976;1.2123;
747.0000;0.6976;1.2074;
747.3000;0.6943;1.1905;
747.6000;0.6984;1.2026;
747.9000;0.6968;1.2002;
748.2000;0.6976;1.2002;
748.5000;0.6976;1.2050;
748.8000;0.6984;1.2002;
749.1000;0.6976;1.2050;
749.4000;0.6960;1.2050;
749.7000;0.6968;1.2099;
750.0000;0.6943;1.2147;
750.3000;0.6952;1.2196;
750.6000;0.6952;1.2244;
750.9000;0.6968;1.2196;
751.2000;0.6976;1.2220;
751.5000;0.6968;1.2220;
751.8000;0.6952;1.2171;
752.1000;0.6968;1.2220;
752.4000;0.6960;1.2268;
752.7000;0.6960;1.2292;
753.0000;0.6935;1.2147;
753.3000;0.6943;1.2099;
753.6000;0.6968;1.2171;
753.9000;0.6919;1.2050;
754.2000;0.6984;1.2317;
754.5000;0.6960;1.2292;
754.8000;0.6952;1.2220;
755.1000;0.6952;1.2147;
755.4000;0.6952;1.2244;
755.7000;0.6943;1.2268;
756.0000;0.6935;1.2317;
756.3000;0.6943;1.2244;
756.6000;0.6943;1.2220;
756.9000;0.6927;1.2171;
757.2000;0.6927;1.2196;
757.5000;0.6976;1.2268;
757.8000;0.6968;1.2292;
758.1000;0.6927;1.2244;
758.4000;0.6935;1.2196;
758.7000;0.6943;1.2244;
759.0000;0.6943;1.2196;
759.3000;0.6935;1.2099;
759.6000;0.6935;1.2171;
759.9000;0.6911;1.2123;
760.2000;0.6943;1.2123;
760.5000;0.6927;1.2171;
760.8000;0.6935;1.2147;
761.1000;0.6903;1.2171;
761.4000;0.6903;1.2171;
761.7000;0.6919;1.2147;
762.0000;0.6903;1.2099;
762.3000;0.6935;1.2147;
762.6000;0.6935;1.2123;
762.9000;0.6919;1.2074;
763.2000;0.6919;1.2050;
763.5000;0.6903;1.2026;
763.8000;0.6935;1.2002;
764.1000;0.6927;1.2050;
764.4000;0.6927;1.2002;
764.7000;0.6927;1.2099;
765.0000;0.6903;1.2074;
765.3000;0.6919;1.2050;
765.6000;0.6919;1.1905;
765.9000;0.6903;1.1929;
766.2000;0.6911;1.2074;
766.5000;0.6886;1.2026;
766.8000;0.6919;1.2123;
767.1000;0.6911;1.2099;
767.4000;0.6911;1.2099;
767.7000;0.6911;1.2147;
768.0000;0.6895;1.2196;
768.3000;0.6911;1.2268;
768.6000;0.6895;1.2244;
768.9000;0.6895;1.2147;
769.2000;0.6895;1.2147;
769.5000;0.6911;1.2196;
769.8000;0.6903;1.2196;
770.1000;0.6862;1.2002;
770.4000;0.6878;1.2026;
770.7000;0.6903;1.1953;
771.0000;0.6878;1.1929;
771.3000;0.6821;1.1808;
771.6000;0.6886;1.1977;
771.9000;0.6878;1.2074;
772.2000;0.6862;1.2099;
772.5000;0.6862;1.2074;
772.8000;0.6870;1.2123;
773.1000;0.6886;1.2123;
773.4000;0.6895;1.2026;
773.7000;0.6870;1.1905;
774.0000;0.6870;1.1929;
774.3000;0.6886;1.1977;
774.6000;0.6886;1.1929;
774.9000;0.6927;1.2050;
775.2000;0.6878;1.1977;
775.5000;0.6878;1.2026;
775.8000;0.6870;1.2002;
776.1000;0.6846;1.1977;
776.4000;0.6870;1.2074;
776.7000;0.6870;1.2123;
777.0000;0.6878;1.2123;
777.3000;0.6870;1.2050;
777.6000;0.6862;1.2002;
777.9000;0.6862;1.1905;
778.2000;0.6870;1.1929;
778.5000;0.6854;1.1953;
778.8000;0.6870;1.1880;
779.1000;0.6870;1.1953;
779.4000;0.6862;1.1905;
779.7000;0.6870;1.1953;
780.0000;0.6854;1.1856;
780.3000;0.6862;1.1856;
780.6000;0.6854;1.1808;
780.9000;0.6862;1.1832;
781.2000;0.6846;1.1832;
781.5000;0.6781;1.1686;
781.8000;0.6862;1.1880;
782.1000;0.6838;1.1905;
782.4000;0.6838;1.1905;
782.7000;0.6854;1.1953;
783.0000;0.6854;1.2002;
783.3000;0.6846;1.2002;
783.6000;0.6838;1.1977;
783.9000;0.6838;1.1953;
784.2000;0.6838;1.1953;
784.5000;0.6886;1.2050;
784.8000;0.6821;1.1929;
785.1000;0.6829;1.2026;
785.4000;0.6838;1.2123;
785.7000;0.6838;1.2147;
786.0000;0.6854;1.2171;
786.3000;0.6821;1.2099;
786.6000;0.6821;1.2074;
786.9000;0.6846;1.2147;
787.2000;0.6846;1.2099;
787.5000;0.6838;1.2147;
787.8000;0.6838;1.2147;
788.1000;0.6846;1.2171;
788.4000;0.6829;1.2196;
788.7000;0.6846;1.2196;
789.0000;0.6846;1.2147;
789.3000;0.6838;1.2147;
789.6000;0.6829;1.2147;
789.9000;0.6829;1.2147;
790.2000;0.6854;1.2220;
790.5000;0.6829;1.2220;
790.8000;0.6829;1.2220;
791.1000;0.6829;1.2147;
791.4000;0.6821;1.2196;
791.7000;0.6821;1.2220;
792.0000;0.6829;1.2268;
792.3000;0.6829;1.2317;
792.6000;0.6821;1.2341;
792.9000;0.6821;1.2341;
793.2000;0.6838;1.2365;
793.5000;0.6846;1.2438;
793.8000;0.6821;1.2317;
794.1000;0.6797;1.2196;
794.4000;0.6813;1.2292;
794.7000;0.6821;1.2341;
795.0000;0.6813;1.2317;
795.3000;0.6821;1.2196;
795.6000;0.6740;1.2050;
795.9000;0.6813;1.2220;
796.2000;0.6821;1.2220;
796.5000;0.6878;1.2365;
796.8000;0.6821;1.2220;
797.1000;0.6813;1.2220;
797.4000;0.6813;1.2220;
797.7000;0.6805;1.2220;
798.0000;0.6878;1.2438;
798.3000;0.6813;1.2220;
798.6000;0.6813;1.2220;
798.9000;0.6821;1.2268;
799.2000;0.6797;1.2268;
799.5000;0.6797;1.2292;
799.8000;0.6821;1.2414;
800.1000;0.6805;1.2365;
800.4000;0.6805;1.2414;
800.7000;0.6821;1.2341;
801.0000;0.6813;1.2268;
801.3000;0.6781;1.2196;
801.6000;0.6805;1.2147;
801.9000;0.6821;1.2268;
802.2000;0.6789;1.2196;
802.5000;0.6797;1.2123;
802.8000;0.6813;1.2220;
803.1000;0.6797;1.2196;
803.4000;0.6797;1.2220;
803.7000;0.6805;1.2171;
804.0000;0.6797;1.2244;
804.3000;0.6748;1.2147;
804.6000;0.6789;1.2292;
804.9000;0.6789;1.2317;
805.2000;0.6789;1.2317;
805.5000;0.6789;1.2341;
805.8000;0.6797;1.2389;
806.1000;0.6789;1.2414;
806.4000;0.6805;1.2414;
806.7000;0.6781;1.2389;
807.0000;0.6781;1.2292;
807.3000;0.6797;1.2268;
807.6000;0.6781;1.2147;
807.9000;0.6781;1.2123;
808.2000;0.6789;1.2050;
808.5000;0.6838;1.2220;
808.8000;0.6789;1.2074;
809.1000;0.6789;1.2147;
809.4000;0.6789;1.2123;
809.7000;0.6764;1.2099;
810.0000;0.6764;1.2196;
810.3000;0.6764;1.2244;
810.6000;0.6764;1.2244;
810.9000;0.6805;1.2268;
811.2000;0.6781;1.2196;
811.5000;0.6789;1.2220;
811.8000;0.6781;1.2196;
812.1000;0.6764;1.2196;
812.4000;0.6813;1.2268;
812.7000;0.6854;1.2317;
813.0000;0.6789;1.2074;
813.3000;0.6772;1.2171;
813.6000;0.6764;1.2196;
813.9000;0.6781;1.2196;
814.2000;0.6789;1.2292;
814.5000;0.6772;1.2365;
814.8000;0.6772;1.2244;
815.1000;0.6846;1.2486;
815.4000;0.6772;1.2268;
815.7000;0.6797;1.2317;
816.0000;0.6756;1.2147;
816.3000;0.6764;1.2220;
816.6000;0.6772;1.2220;
816.9000;0.6756;1.2268;
817.2000;0.6756;1.2196;
817.5000;0.6772;1.2196;
817.8000;0.6740;1.2220;
818.1000;0.6748;1.2341;
818.4000;0.6716;1.2268;
818.7000;0.6740;1.2365;
819.0000;0.6756;1.2341;
819.3000;0.6772;1.2317;
819.6000;0.6772;1.2244;
819.9000;0.6764;1.2123;
820.2000;0.6772;1.2147;
820.5000;0.6772;1.2123;
820.8000;0.6764;1.2220;
821.1000;0.6756;1.2268;
821.4000;0.6772;1.2365;
821.7000;0.6772;1.2414;
822.0000;0.6772;1.2438;
822.3000;0.6756;1.2486;
822.6000;0.6756;1.2511;
822.9000;0.6764;1.2535;
823.2000;0.6756;1.2462;
823.5000;0.6740;1.2486;
823.8000;0.6732;1.2486;
824.1000;0.6732;1.2414;
824.4000;0.6748;1.2389;
824.7000;0.6748;1.2365;
825.0000;0.6764;1.2365;
825.3000;0.6756;1.2341;
825.6000;0.6748;1.2317;
825.9000;0.6748;1.2244;
826.2000;0.6748;1.2244;
826.5000;0.6748;1.2292;
826.8000;0.6748;1.2244;
827.1000;0.6756;1.2220;
827.4000;0.6740;1.2220;
827.7000;0.6764;1.2268;
828.0000;0.6756;1.2365;
828.3000;0.6716;1.2244;
828.6000;0.6724;1.2292;
828.9000;0.6748;1.2317;
829.2000;0.6740;1.2341;
829.5000;0.6756;1.2341;
829.8000;0.6781;1.2414;
830.1000;0.6756;1.2365;
830.4000;0.6748;1.2365;
830.7000;0.6748;1.2414;
831.0000;0.6732;1.2414;
831.3000;0.6740;1.2365;
831.6000;0.6724;1.2268;
831.9000;0.6740;1.2292;
832.2000;0.6732;1.2292;
832.5000;0.6724;1.2268;
832.8000;0.6724;1.2341;
833.1000;0.6732;1.2365;
833.4000;0.6732;1.2365;
833.7000;0.6732;1.2414;
834.0000;0.6732;1.2317;
834.3000;0.6797;1.2365;
834.6000;0.6740;1.2268;
834.9000;0.6805;1.2414;
835.2000;0.6724;1.2317;
835.5000;0.6740;1.2341;
835.8000;0.6748;1.2292;
836.1000;0.6732;1.2268;
836.4000;0.6732;1.2220;
836.7000;0.6740;1.2220;
837.0000;0.6740;1.2196;
837.3000;0.6732;1.2244;
837.6000;0.6732;1.2292;
837.9000;0.6716;1.2244;
838.2000;0.6748;1.2292;
838.5000;0.6659;1.2244;
838.8000;0.6732;1.2462;
839.1000;0.6732;1.2438;
839.4000;0.6732;1.2317;
839.7000;0.6732;1.2244;
840.0000;0.6724;1.2220;
840.3000;0.6724;1.2196;
840.6000;0.6724;1.2244;
840.9000;0.6724;1.2196;
841.2000;0.6732;1.2220;
841.5000;0.6724;1.2123;
841.8000;0.6716;1.2171;
842.1000;0.6699;1.2292;
842.4000;0.6732;1.2341;
842.7000;0.6724;1.2292;
843.0000;0.6724;1.2268;
843.3000;0.6732;1.2292;
843.6000;0.6716;1.2171;
843.9000;0.6707;1.2147;
844.2000;0.6707;1.2147;
844.5000;0.6699;1.2147;
844.8000;0.6699;1.2123;
845.1000;0.6716;1.2099;
845.4000;0.6716;1.2147;
845.7000;0.6716;1.2171;
846.0000;0.6724;1.2196;
846.3000;0.6675;1.1953;
846.6000;0.6724;1.2026;
846.9000;0.6716;1.2026;
847.2000;0.6764;1.2196;
847.5000;0.6707;1.2099;
847.8000;0.6707;1.2099;
848.1000;0.6707;1.2099;
848.4000;0.6716;1.2123;
848.7000;0.6707;1.2147;
849.0000;0.6699;1.2050;
849.3000;0.6683;1.2050;
849.6000;0.6691;1.2074;
849.9000;0.6707;1.2050;
850.2000;0.6691;1.2050;
850.5000;0.6724;1.2147;
850.8000;0.6716;1.2147;
851.1000;0.6732;1.2147;
851.4000;0.6699;1.2123;
851.7000;0.6707;1.2123;
852.0000;0.6707;1.2220;
852.3000;0.6691;1.2196;
852.6000;0.6707;1.2220;
852.9000;0.6691;1.2244;
853.2000;0.6691;1.2244;
853.5000;0.6699;1.2292;
853.8000;0.6683;1.2147;
854.1000;0.6683;1.2099;
854.4000;0.6675;1.2099;
854.7000;0.6683;1.2171;
855.0000;0.6707;1.2244;
855.3000;0.6732;1.2292;
855.6000;0.6691;1.2220;
855.9000;0.6716;1.2292;
856.2000;0.6667;1.2171;
856.5000;0.6707;1.2244;
856.8000;0.6683;1.2317;
857.1000;0.6707;1.2244;
857.4000;0.6691;1.2220;
857.7000;0.6764;1.2462;
858.0000;0.6740;1.2341;
858.3000;0.6691;1.2123;
858.6000;0.6691;1.2147;
858.9000;0.6675;1.2099;
859.2000;0.6675;1.2050;
859.5000;0.6675;1.1953;
859.8000;0.6683;1.2074;
860.1000;0.6675;1.2099;
860.4000;0.6683;1.2050;
860.7000;0.6691;1.2050;
861.0000;0.6650;1.2026;
861.3000;0.6707;1.2147;
861.6000;0.6683;1.2220;
861.9000;0.6667;1.2147;
862.2000;0.6707;1.2244;
862.5000;0.6683;1.2220;
862.8000;0.6691;1.2244;
863.1000;0.6691;1.2244;
863.4000;0.6691;1.2292;
863.7000;0.6699;1.2317;
864.0000;0.6699;1.2414;
864.3000;0.6691;1.2462;
864.6000;0.6667;1.2462;
864.9000;0.6602;1.2268;
865.2000;0.6683;1.2341;
865.5000;0.6675;1.2317;
865.8000;0.6675;1.2317;
866.1000;0.6716;1.2511;
866.4000;0.6707;1.2414;
866.7000;0.6683;1.2341;
867.0000;0.6683;1.2365;
867.3000;0.6683;1.2365;
867.6000;0.6675;1.2341;
867.9000;0.6659;1.2317;
868.2000;0.6675;1.2389;
868.5000;0.6667;1.2365;
868.8000;0.6675;1.2389;
869.1000;0.6675;1.2414;
869.4000;0.6675;1.2389;
869.7000;0.6667;1.2341;
870.0000;0.6675;1.2292;
870.3000;0.6683;1.2196;
870.6000;0.6683;1.2244;
870.9000;0.6667;1.2123;
871.2000;0.6683;1.2196;
871.5000;0.6675;1.2171;
871.8000;0.6675;1.2171;
872.1000;0.6683;1.2292;
872.4000;0.6659;1.2244;
872.7000;0.6675;1.2317;
873.0000;0.6650;1.2244;
873.3000;0.6659;1.2244;
873.6000;0.6716;1.2317;
873.9000;0.6675;1.2292;
874.2000;0.6593;1.2050;
874.5000;0.6659;1.2292;
874.8000;0.6659;1.2292;
875.1000;0.6659;1.2292;
875.4000;0.6683;1.2438;
875.7000;0.6683;1.2414;
876.0000;0.6659;1.2389;
876.3000;0.6659;1.2389;
876.6000;0.6659;1.2414;
876.9000;0.6716;1.2535;
877.2000;0.6626;1.2317;
877.5000;0.6659;1.2317;
877.8000;0.6707;1.2389;
878.1000;0.6650;1.2244;
878.4000;0.6659;1.2171;
878.7000;0.6659;1.2171;
879.0000;0.6740;1.2438;
879.3000;0.6667;1.2317;
879.6000;0.6659;1.2414;
879.9000;0.6642;1.2414;
880.2000;0.6691;1.2462;
880.5000;0.6667;1.2438;
880.8000;0.6659;1.2365;
881.1000;0.6659;1.2317;
881.4000;0.6659;1.2389;
881.7000;0.6675;1.2438;
882.0000;0.6675;1.2414;
882.3000;0.6650;1.2317;
882.6000;0.6667;1.2341;
882.9000;0.6659;1.2341;
883.2000;0.6667;1.2389;
883.5000;0.6634;1.2317;
883.8000;0.6650;1.2365;
884.1000;0.6610;1.2220;
884.4000;0.6683;1.2389;
884.7000;0.6675;1.2389;
885.0000;0.6659;1.2317;
885.3000;0.6659;1.2341;
885.6000;0.6659;1.2438;
885.9000;0.6659;1.2486;
886.2000;0.6659;1.2438;
886.5000;0.6667;1.2438;
886.8000;0.6659;1.2438;
887.1000;0.6683;1.2317;
887.4000;0.6667;1.2365;
887.7000;0.6650;1.2292;
888.0000;0.6650;1.2292;
888.3000;0.6642;1.2317;
888.6000;0.6650;1.2341;
888.9000;0.6602;1.2244;
889.2000;0.6724;1.2583;
889.5000;0.6667;1.2462;
889.8000;0.6634;1.2389;
890.1000;0.6634;1.2414;
890.4000;0.6626;1.2414;
890.7000;0.6642;1.2462;
891.0000;0.6650;1.2511;
891.3000;0.6642;1.2559;
891.6000;0.6650;1.2559;
891.9000;0.6650;1.2656;
892.2000;0.6618;1.2608;
892.5000;0.6650;1.2632;
892.8000;0.6634;1.2511;
893.1000;0.6642;1.2462;
893.4000;0.6618;1.2389;
893.7000;0.6634;1.2317;
894.0000;0.6642;1.2292;
894.3000;0.6634;1.2268;
894.6000;0.6642;1.2268;
894.9000;0.6634;1.2244;
895.2000;0.6626;1.2220;
895.5000;0.6650;1.2220;
895.8000;0.6650;1.2292;
896.1000;0.6650;1.2317;
896.4000;0.6659;1.2389;
896.7000;0.6642;1.2414;
897.0000;0.6667;1.2462;
897.3000;0.6650;1.2438;
897.6000;0.6642;1.2462;
897.9000;0.6650;1.2462;
898.2000;0.6642;1.2486;
898.5000;0.6650;1.2511;
898.8000;0.6618;1.2438;
899.1000;0.6642;1.2438;
899.4000;0.6626;1.2414;
899.7000;0.6659;1.2583;
900.0000;0.6659;1.2656;
900.3000;0.6618;1.2535;
900.6000;0.6618;1.2462;
900.9000;0.6650;1.2535;
901.2000;0.6642;1.2438;
901.5000;0.6634;1.2414;
901.8000;0.6585;1.2317;
902.1000;0.6593;1.2244;
902.4000;0.6626;1.2341;
902.7000;0.6634;1.2438;
903.0000;0.6634;1.2486;
903.3000;0.6626;1.2511;
903.6000;0.6626;1.2486;
903.9000;0.6642;1.2535;
904.2000;0.6626;1.2535;
904.5000;0.6602;1.2317;
904.8000;0.6626;1.2317;
905.1000;0.6667;1.2365;
905.4000;0.6626;1.2268;
905.7000;0.6634;1.2268;
906.0000;0.6634;1.2292;
906.3000;0.6642;1.2365;
906.6000;0.6618;1.2317;
906.9000;0.6618;1.2292;
907.2000;0.6642;1.2389;
907.5000;0.6634;1.2414;
907.8000;0.6634;1.2414;
908.1000;0.6618;1.2438;
908.4000;0.6642;1.2438;
908.7000;0.6642;1.2438;
909.0000;0.6618;1.2462;
909.3000;0.6626;1.2559;
909.6000;0.6610;1.2535;
909.9000;0.6626;1.2535;
910.2000;0.6659;1.2559;
910.5000;0.6626;1.2486;
910.8000;0.6602;1.2438;
911.1000;0.6650;1.2389;
911.4000;0.6626;1.2292;
911.7000;0.6626;1.2292;
912.0000;0.6618;1.2171;
912.3000;0.6659;1.2268;
912.6000;0.6610;1.2244;
912.9000;0.6634;1.2292;
913.2000;0.6634;1.2365;
913.5000;0.6626;1.2365;
913.8000;0.6642;1.2341;
914.1000;0.6626;1.2292;
914.4000;0.6593;1.2244;
914.7000;0.6618;1.2196;
915.0000;0.6634;1.2196;
915.3000;0.6602;1.2099;
915.6000;0.6602;1.2244;
915.9000;0.6593;1.2292;
916.2000;0.6602;1.2389;
916.5000;0.6626;1.2486;
916.8000;0.6593;1.2414;
917.1000;0.6593;1.2317;
917.4000;0.6618;1.2389;
917.7000;0.6626;1.2341;
918.0000;0.6626;1.2365;
918.3000;0.6618;1.2365;
918.6000;0.6626;1.2414;
918.9000;0.6659;1.2462;
919.2000;0.6650;1.2486;
919.5000;0.6610;1.2462;
919.8000;0.6634;1.2462;
920.1000;0.6610;1.2389;
920.4000;0.6610;1.2341;
920.7000;0.6602;1.2389;
921.0000;0.6618;1.2438;
921.3000;0.6626;1.2511;
921.6000;0.6618;1.2535;
921.9000;0.6642;1.2656;
922.2000;0.6610;1.2535;
922.5000;0.6618;1.2608;
922.8000;0.6610;1.2656;
923.1000;0.6585;1.2559;
923.4000;0.6577;1.2535;
923.7000;0.6610;1.2583;
924.0000;0.6626;1.2559;
924.3000;0.6634;1.2535;
924.6000;0.6602;1.2414;
924.9000;0.6602;1.2365;
925.2000;0.6626;1.2438;
925.5000;0.6577;1.2317;
925.8000;0.6610;1.2365;
926.1000;0.6610;1.2341;
926.4000;0.6585;1.2317;
926.7000;0.6602;1.2365;
927.0000;0.6553;1.2292;
927.3000;0.6610;1.2486;
927.6000;0.6610;1.2414;
927.9000;0.6610;1.2389;
928.2000;0.6626;1.2414;
928.5000;0.6593;1.2292;
928.8000;0.6610;1.2341;
929.1000;0.6602;1.2389;
929.4000;0.6602;1.2365;
929.7000;0.6593;1.2438;
930.0000;0.6618;1.2462;
930.3000;0.6610;1.2535;
930.6000;0.6602;1.2583;
930.9000;0.6602;1.2535;
931.2000;0.6602;1.2583;
931.5000;0.6610;1.2583;
931.8000;0.6593;1.2462;
932.1000;0.6602;1.2438;
932.4000;0.6610;1.2414;
932.7000;0.6618;1.2365;
933.0000;0.6602;1.2341;
933.3000;0.6561;1.2196;
933.6000;0.6626;1.2414;
933.9000;0.6602;1.2292;
934.2000;0.6602;1.2365;
934.5000;0.6610;1.2365;
934.8000;0.6593;1.2292;
935.1000;0.6602;1.2341;
935.4000;0.6618;1.2414;
935.7000;0.6593;1.2389;
936.0000;0.6553;1.2268;
936.3000;0.6650;1.2632;
936.6000;0.6593;1.2486;
936.9000;0.6577;1.2365;
937.2000;0.6585;1.2438;
937.5000;0.6577;1.2511;
937.8000;0.6585;1.2486;
938.1000;0.6577;1.2389;
938.4000;0.6602;1.2317;
938.7000;0.6585;1.2341;
939.0000;0.6593;1.2414;
939.3000;0.6610;1.2438;
939.6000;0.6593;1.2414;
939.9000;0.6602;1.2462;
940.2000;0.6577;1.2511;
940.5000;0.6602;1.2462;
940.8000;0.6650;1.2583;
941.1000;0.6593;1.2462;
941.4000;0.6610;1.2486;
941.7000;0.6553;1.2292;
942.0000;0.6593;1.2389;
942.3000;0.6642;1.2486;
942.6000;0.6618;1.2389;
942.9000;0.6593;1.2220;
943.2000;0.6642;1.2317;
943.5000;0.6602;1.2292;
943.8000;0.6593;1.2220;
944.1000;0.6593;1.2317;
944.4000;0.6585;1.2268;
944.7000;0.6618;1.2365;
945.0000;0.6593;1.2244;
945.3000;0.6602;1.2268;
945.6000;0.6585;1.2268;
945.9000;0.6602;1.2292;
946.2000;0.6585;1.2292;
946.5000;0.6626;1.2438;
946.8000;0.6610;1.2389;
947.1000;0.6610;1.2341;
947.4000;0.6553;1.2196;
947.7000;0.6577;1.2292;
948.0000;0.6593;1.2389;
948.3000;0.6593;1.2438;
948.6000;0.6585;1.2389;
948.9000;0.6585;1.2389;
949.2000;0.6618;1.2414;
949.5000;0.6593;1.2462;
949.8000;0.6593;1.2414;
950.1000;0.6569;1.2341;
950.4000;0.6593;1.2317;
950.7000;0.6561;1.2292;
951.0000;0.6593;1.2414;
951.3000;0.6593;1.2389;
951.6000;0.6569;1.2341;
951.9000;0.6585;1.2365;
952.2000;0.6585;1.2389;
952.5000;0.6585;1.2389;
952.8000;0.6585;1.2292;
953.1000;0.6593;1.2317;
953.4000;0.6569;1.2268;
953.7000;0.6585;1.2317;
954.0000;0.6610;1.2438;
954.3000;0.6593;1.2389;
954.6000;0.6585;1.2365;
954.9000;0.6577;1.2341;
955.2000;0.6569;1.2389;
955.5000;0.6585;1.2438;
955.8000;0.6569;1.2389;
956.1000;0.6593;1.2414;
956.4000;0.6561;1.2365;
956.7000;0.6577;1.2414;
957.0000;0.6602;1.2438;
957.3000;0.6585;1.2438;
957.6000;0.6561;1.2414;
957.9000;0.6553;1.2317;
958.2000;0.6520;1.2196;
958.5000;0.6569;1.2341;
958.8000;0.6585;1.2389;
959.1000;0.6618;1.2414;
959.4000;0.6585;1.2389;
959.7000;0.6569;1.2365;
960.0000;0.6585;1.2462;
960.3000;0.6569;1.2438;
960.6000;0.6634;1.2705;
960.9000;0.6593;1.2608;
961.2000;0.6569;1.2535;
961.5000;0.6561;1.2583;
961.8000;0.6553;1.2559;
962.1000;0.6553;1.2535;
962.4000;0.6593;1.2559;
962.7000;0.6561;1.2511;
963.0000;0.6553;1.2438;
963.3000;0.6577;1.2462;
963.6000;0.6577;1.2438;
963.9000;0.6577;1.2365;
964.2000;0.6577;1.2365;
964.5000;0.6585;1.2365;
964.8000;0.6585;1.2414;
965.1000;0.6585;1.2438;
965.4000;0.6561;1.2365;
965.7000;0.6569;1.2486;
966.0000;0.6585;1.2559;
966.3000;0.6585;1.2535;
966.6000;0.6618;1.2583;
966.9000;0.6577;1.2535;
967.2000;0.6561;1.2414;
967.5000;0.6585;1.2438;
967.8000;0.6553;1.2389;
968.1000;0.6569;1.2438;
968.4000;0.6610;1.2511;
968.7000;0.6569;1.2414;
969.0000;0.6569;1.2389;
969.3000;0.6610;1.2438;
969.6000;0.6593;1.2341;
969.9000;0.6553;1.2171;
970.2000;0.6577;1.2268;
970.5000;0.6618;1.2365;
970.8000;0.6561;1.2220;
971.1000;0.6577;1.2244;
971.4000;0.6626;1.2317;
971.7000;0.6577;1.2196;
972.0000;0.6561;1.2099;
972.3000;0.6585;1.2123;
972.6000;0.6577;1.2099;
972.9000;0.6577;1.2196;
973.2000;0.6528;1.2220;
973.5000;0.6634;1.2535;
973.8000;0.6585;1.2389;
974.1000;0.6569;1.2292;
974.4000;0.6553;1.2317;
974.7000;0.6536;1.2268;
975.0000;0.6585;1.2414;
975.3000;0.6553;1.2292;
975.6000;0.6553;1.2268;
975.9000;0.6585;1.2317;
976.2000;0.6585;1.2365;
976.5000;0.6667;1.2486;
976.8000;0.6569;1.2268;
977.1000;0.6553;1.2220;
977.4000;0.6561;1.2244;
977.7000;0.6577;1.2389;
978.0000;0.6553;1.2317;
978.3000;0.6569;1.2196;
978.6000;0.6569;1.2220;
978.9000;0.6569;1.2220;
979.2000;0.6593;1.2341;
979.5000;0.6569;1.2292;
979.8000;0.6512;1.2171;
980.1000;0.6593;1.2414;
980.4000;0.6569;1.2414;
980.7000;0.6569;1.2438;
981.0000;0.6553;1.2389;
981.3000;0.6602;1.2511;
981.6000;0.6577;1.2511;
981.9000;0.6545;1.2365;
982.2000;0.6553;1.2389;
982.5000;0.6561;1.2535;
982.8000;0.6585;1.2462;
983.1000;0.6528;1.2414;
983.4000;0.6561;1.2438;
983.7000;0.6553;1.2365;
984.0000;0.6577;1.2414;
984.3000;0.6569;1.2365;
984.6000;0.6577;1.2317;
984.9000;0.6561;1.2292;
985.2000;0.6569;1.2317;
985.5000;0.6577;1.2365;
985.8000;0.6553;1.2414;
986.1000;0.6569;1.2462;
986.4000;0.6577;1.2486;
986.7000;0.6553;1.2486;
987.0000;0.6536;1.2486;
987.3000;0.6536;1.2462;
987.6000;0.6545;1.2462;
987.9000;0.6553;1.2438;
988.2000;0.6553;1.2438;
988.5000;0.6569;1.2389;
988.8000;0.6545;1.2414;
989.1000;0.6577;1.2462;
989.4000;0.6561;1.2341;
989.7000;0.6569;1.2341;
990.0000;0.6561;1.2365;
990.3000;0.6512;1.2244;
990.6000;0.6618;1.2559;
990.9000;0.6561;1.2438;
991.2000;0.6561;1.2389;
991.5000;0.6569;1.2486;
991.8000;0.6569;1.2414;
992.1000;0.6553;1.2389;
992.4000;0.6545;1.2317;
992.7000;0.6553;1.2365;
993.0000;0.6545;1.2317;
993.3000;0.6569;1.2414;
993.6000;0.6545;1.2244;
993.9000;0.6553;1.2220;
994.2000;0.6585;1.2244;
994.5000;0.6593;1.2244;
994.8000;0.6545;1.2074;
995.1000;0.6545;1.2123;
995.4000;0.6561;1.2171;
995.7000;0.6545;1.2196;
996.0000;0.6577;1.2171;
996.3000;0.6585;1.2196;
996.6000;0.6577;1.2268;
996.9000;0.6561;1.2292;
997.2000;0.6553;1.2317;
997.5000;0.6536;1.2268;
997.8000;0.6602;1.2462;
998.1000;0.6626;1.2462;
998.4000;0.6545;1.2244;
998.7000;0.6561;1.2268;
999.0000;0.6512;1.2317;
999.3000;0.6618;1.2511;
999.6000;0.6561;1.2317;
999.9000;0.6545;1.2317;
1000.2000;0.6553;1.2341;
1000.5000;0.6536;1.2292;
1000.8000;0.6569;1.2414;
1001.1000;0.6569;1.2414;
1001.4000;0.6569;1.2438;
1001.7000;0.6561;1.2365;
1002.0000;0.6569;1.2365;
1002.3000;0.6520;1.2244;
1002.6000;0.6553;1.2244;
1002.9000;0.6553;1.2196;
1003.2000;0.6569;1.2244;
1003.5000;0.6545;1.2317;
1003.8000;0.6545;1.2292;
1004.1000;0.6512;1.2220;
1004.4000;0.6553;1.2292;
1004.7000;0.6561;1.2292;
1005.0000;0.6553;1.2268;
1005.3000;0.6545;1.2268;
1005.6000;0.6561;1.2317;
1005.9000;0.6553;1.2244;
1006.2000;0.6610;1.2438;
1006.5000;0.6536;1.2268;
1006.8000;0.6536;1.2220;
1007.1000;0.6569;1.2244;
1007.4000;0.6528;1.2244;
1007.7000;0.6545;1.2292;
1008.0000;0.6545;1.2438;
1008.3000;0.6553;1.2535;
1008.6000;0.6536;1.2511;
1008.9000;0.6602;1.2656;
1009.2000;0.6553;1.2535;
1009.5000;0.6545;1.2486;
1009.8000;0.6561;1.2486;
1010.1000;0.6545;1.2438;
1010.4000;0.6545;1.2462;
1010.7000;0.6545;1.2583;
1011.0000;0.6553;1.2535;
1011.3000;0.6577;1.2535;
1011.6000;0.6585;1.2559;
1011.9000;0.6569;1.2535;
1012.2000;0.6545;1.2583;
1012.5000;0.6553;1.2535;
1012.8000;0.6536;1.2414;
1013.1000;0.6536;1.2365;
1013.4000;0.6520;1.2341;
1013.7000;0.6536;1.2462;
1014.0000;0.6545;1.2486;
1014.3000;0.6536;1.2511;
1014.6000;0.6536;1.2535;
1014.9000;0.6545;1.2535;
1015.2000;0.6593;1.2583;
1015.5000;0.6536;1.2583;
1015.8000;0.6553;1.2583;
1016.1000;0.6536;1.2535;
1016.4000;0.6553;1.2438;
1016.7000;0.6545;1.2462;
1017.0000;0.6520;1.2341;
1017.3000;0.6561;1.2462;
1017.6000;0.6536;1.2438;
1017.9000;0.6512;1.2438;
1018.2000;0.6553;1.2559;
1018.5000;0.6545;1.2608;
1018.8000;0.6585;1.2777;
1019.1000;0.6488;1.2559;
1019.4000;0.6602;1.2753;
1019.7000;0.6553;1.2583;
1020.0000;0.6528;1.2511;
1020.3000;0.6520;1.2462;
1020.6000;0.6536;1.2559;
1020.9000;0.6553;1.2608;
1021.2000;0.6642;1.2826;
1021.5000;0.6520;1.2486;
1021.8000;0.6569;1.2632;
1022.1000;0.6577;1.2632;
1022.4000;0.6545;1.2438;
1022.7000;0.6545;1.2462;
1023.0000;0.6553;1.2608;
1023.3000;0.6536;1.2680;
1023.6000;0.6553;1.2705;
1023.9000;0.6536;1.2608;
1024.2000;0.6520;1.2535;
1024.5000;0.6536;1.2608;
1024.8000;0.6536;1.2705;
1025.1000;0.6536;1.2656;
1025.4000;0.6536;1.2559;
1025.7000;0.6528;1.2511;
1026.0000;0.6545;1.2632;
1026.3000;0.6528;1.2656;
1026.6000;0.6536;1.2632;
1026.9000;0.6528;1.2632;
1027.2000;0.6553;1.2632;
1027.5000;0.6536;1.2583;
1027.8000;0.6536;1.2656;
1028.1000;0.6536;1.2583;
1028.4000;0.6545;1.2535;
1028.7000;0.6536;1.2608;
1029.0000;0.6528;1.2656;
1029.3000;0.6545;1.2680;
1029.6000;0.6536;1.2656;
1029.9000;0.6528;1.2632;
1030.2000;0.6536;1.2802;
1030.5000;0.6528;1.2802;
1030.8000;0.6536;1.2802;
1031.1000;0.6536;1.2802;
1031.4000;0.6536;1.2705;
1031.7000;0.6528;1.2680;
1032.0000;0.6528;1.2705;
1032.3000;0.6545;1.2680;
1032.6000;0.6536;1.2583;
1032.9000;0.6528;1.2535;
1033.2000;0.6520;1.2462;
1033.5000;0.6536;1.2438;
1033.8000;0.6561;1.2511;
1034.1000;0.6536;1.2486;
1034.4000;0.6536;1.2462;
1034.7000;0.6536;1.2535;
1035.0000;0.6553;1.2608;
1035.3000;0.6504;1.2414;
1035.6000;0.6536;1.2559;
1035.9000;0.6536;1.2583;
1036.2000;0.6536;1.2535;
1036.5000;0.6553;1.2535;
1036.8000;0.6536;1.2511;
1037.1000;0.6528;1.2414;
1037.4000;0.6602;1.2559;
1037.7000;0.6545;1.2511;
1038.0000;0.6545;1.2486;
1038.3000;0.6536;1.2486;
1038.6000;0.6520;1.2511;
1038.9000;0.6553;1.2632;
1039.2000;0.6536;1.2632;
1039.5000;0.6536;1.2632;
1039.8000;0.6504;1.2486;
1040.1000;0.6553;1.2608;
1040.4000;0.6536;1.2559;
1040.7000;0.6536;1.2559;
1041.0000;0.6536;1.2583;
1041.3000;0.6553;1.2632;
1041.6000;0.6545;1.2632;
1041.9000;0.6545;1.2656;
1042.2000;0.6520;1.2608;
1042.5000;0.6536;1.2608;
1042.8000;0.6536;1.2608;
1043.1000;0.6536;1.2632;
1043.4000;0.6553;1.2777;
1043.7000;0.6528;1.2705;
1044.0000;0.6536;1.2753;
1044.3000;0.6520;1.2777;
1044.6000;0.6520;1.2753;
1044.9000;0.6471;1.2583;
1045.2000;0.6504;1.2680;
1045.5000;0.6545;1.2729;
1045.8000;0.6528;1.2680;
1046.1000;0.6512;1.2656;
1046.4000;0.6553;1.2705;
1046.7000;0.6528;1.2632;
1047.0000;0.6520;1.2608;
1047.3000;0.6520;1.2656;
1047.6000;0.6536;1.2729;
1047.9000;0.6536;1.2705;
1048.2000;0.6528;1.2632;
1048.5000;0.6528;1.2608;
1048.8000;0.6545;1.2632;
1049.1000;0.6536;1.2632;
1049.4000;0.6520;1.2608;
1049.7000;0.6520;1.2559;
1050.0000;0.6520;1.2608;
1050.3000;0.6536;1.2608;
1050.6000;0.6528;1.2632;
1050.9000;0.6577;1.2753;
1051.2000;0.6512;1.2559;
1051.5000;0.6520;1.2583;
1051.8000;0.6536;1.2583;
1052.1000;0.6512;1.2389;
1052.4000;0.6520;1.2438;
1052.7000;0.6471;1.2365;
1053.0000;0.6528;1.2535;
1053.3000;0.6545;1.2559;
1053.6000;0.6520;1.2608;
1053.9000;0.6520;1.2656;
1054.2000;0.6520;1.2656;
1054.5000;0.6512;1.2656;
1054.8000;0.6520;1.2632;
1055.1000;0.6512;1.2632;
1055.4000;0.6528;1.2608;
1055.7000;0.6528;1.2583;
1056.0000;0.6528;1.2583;
1056.3000;0.6504;1.2535;
1056.6000;0.6496;1.2438;
1056.9000;0.6545;1.2535;
1057.2000;0.6520;1.2438;
1057.5000;0.6528;1.2389;
1057.8000;0.6536;1.2486;
1058.1000;0.6545;1.2486;
1058.4000;0.6585;1.2680;
1058.7000;0.6520;1.2462;
1059.0000;0.6536;1.2511;
1059.3000;0.6561;1.2559;
1059.6000;0.6536;1.2632;
1059.9000;0.6536;1.2705;
1060.2000;0.6528;1.2729;
1060.5000;0.6520;1.2753;
1060.8000;0.6536;1.2753;
1061.1000;0.6528;1.2608;
1061.4000;0.6496;1.2414;
1061.7000;0.6528;1.2559;
1062.0000;0.6536;1.2608;
1062.3000;0.6545;1.2583;
1062.6000;0.6553;1.2680;
1062.9000;0.6536;1.2656;
1063.2000;0.6536;1.2705;
1063.5000;0.6520;1.2680;
1063.8000;0.6528;1.2583;
1064.1000;0.6528;1.2559;
1064.4000;0.6520;1.2511;
1064.7000;0.6536;1.2535;
1065.0000;0.6504;1.2389;
1065.3000;0.6520;1.2365;
1065.6000;0.6520;1.2389;
1065.9000;0.6512;1.2414;
1066.2000;0.6512;1.2438;
1066.5000;0.6512;1.2365;
1066.8000;0.6479;1.2268;
1067.1000;0.6528;1.2341;
1067.4000;0.6512;1.2365;
1067.7000;0.6504;1.2414;
1068.0000;0.6553;1.2583;
1068.3000;0.6512;1.2486;
1068.6000;0.6504;1.2511;
1068.9000;0.6504;1.2535;
1069.2000;0.6520;1.2608;
1069.5000;0.6520;1.2632;
1069.8000;0.6520;1.2680;
1070.1000;0.6577;1.2826;
1070.4000;0.6504;1.2583;
1070.7000;0.6479;1.2511;
1071.0000;0.6504;1.2559;
1071.3000;0.6504;1.2608;
1071.6000;0.6479;1.2511;
1071.9000;0.6520;1.2608;
1072.2000;0.6577;1.2656;
1072.5000;0.6512;1.2559;
1072.8000;0.6520;1.2559;
1073.1000;0.6512;1.2486;
1073.4000;0.6520;1.2511;
1073.7000;0.6520;1.2511;
1074.0000;0.6471;1.2365;
1074.3000;0.6512;1.2535;
1074.6000;0.6520;1.2559;
1074.9000;0.6488;1.2438;
1075.2000;0.6512;1.2486;
1075.5000;0.6504;1.2486;
1075.8000;0.6512;1.2583;
1076.1000;0.6504;1.2583;
1076.4000;0.6520;1.2535;
1076.7000;0.6512;1.2535;
1077.0000;0.6496;1.2438;
1077.3000;0.6520;1.2438;
1077.6000;0.6488;1.2414;
1077.9000;0.6504;1.2438;
1078.2000;0.6512;1.2438;
1078.5000;0.6512;1.2462;
1078.8000;0.6528;1.2365;
1079.1000;0.6520;1.2147;
1079.4000;0.6488;1.2050;
1079.7000;0.6520;1.2074;
1080.0000;0.6561;1.2292;
1080.3000;0.6504;1.2292;
1080.6000;0.6488;1.2317;
1080.9000;0.6504;1.2365;
1081.2000;0.6545;1.2438;
1081.5000;0.6520;1.2341;
1081.8000;0.6504;1.2365;
1082.1000;0.6504;1.2292;
1082.4000;0.6545;1.2292;
1082.7000;0.6520;1.2317;
1083.0000;0.6520;1.2365;
1083.3000;0.6504;1.2414;
1083.6000;0.6536;1.2535;
1083.9000;0.6528;1.2486;
1084.2000;0.6512;1.2486;
1084.5000;0.6536;1.2559;
1084.8000;0.6512;1.2462;
1085.1000;0.6528;1.2462;
1085.4000;0.6536;1.2486;
1085.7000;0.6512;1.2389;
1086.0000;0.6512;1.2365;
1086.3000;0.6496;1.2317;
1086.6000;0.6512;1.2292;
1086.9000;0.6512;1.2292;
1087.2000;0.6496;1.2220;
1087.5000;0.6512;1.2123;
1087.8000;0.6528;1.2341;
1088.1000;0.6512;1.2389;
1088.4000;0.6512;1.2438;
1088.7000;0.6479;1.2317;
1089.0000;0.6504;1.2389;
1089.3000;0.6545;1.2486;
1089.6000;0.6488;1.2292;
1089.9000;0.6512;1.2341;
1090.2000;0.6520;1.2341;
1090.5000;0.6512;1.2220;
1090.8000;0.6545;1.2341;
1091.1000;0.6528;1.2341;
1091.4000;0.6512;1.2220;
1091.7000;0.6496;1.2171;
1092.0000;0.6504;1.2196;
1092.3000;0.6504;1.2196;
1092.6000;0.6504;1.2292;
1092.9000;0.6439;1.2074;
1093.2000;0.6504;1.2292;
1093.5000;0.6528;1.2292;
1093.8000;0.6520;1.2220;
1094.1000;0.6504;1.2147;
1094.4000;0.6512;1.2123;
1094.7000;0.6512;1.2147;
1095.0000;0.6512;1.2220;
1095.3000;0.6520;1.2292;
1095.6000;0.6488;1.2196;
1095.9000;0.6479;1.2244;
1096.2000;0.6512;1.2317;
1096.5000;0.6512;1.2292;
1096.8000;0.6479;1.2171;
1097.1000;0.6545;1.2414;
1097.4000;0.6504;1.2365;
1097.7000;0.6504;1.2389;
1098.0000;0.6536;1.2414;
1098.3000;0.6512;1.2414;
1098.6000;0.6479;1.2414;
1098.9000;0.6504;1.2438;
1099.2000;0.6488;1.2438;
1099.5000;0.6496;1.2511;
1099.8000;0.6496;1.2535;
1100.1000;0.6463;1.2389;
1100.4000;0.6512;1.2462;
1100.7000;0.6504;1.2292;
1101.0000;0.6545;1.2317;
1101.3000;0.6488;1.2220;
1101.6000;0.6496;1.2292;
1101.9000;0.6455;1.2244;
1102.2000;0.6496;1.2317;
1102.5000;0.6504;1.2341;
1102.8000;0.6520;1.2438;
1103.1000;0.6520;1.2389;
1103.4000;0.6504;1.2341;
1103.7000;0.6496;1.2341;
1104.0000;0.6528;1.2414;
1104.3000;0.6504;1.2292;
1104.6000;0.6512;1.2292;
1104.9000;0.6504;1.2317;
1105.2000;0.6512;1.2365;
1105.5000;0.6512;1.2341;
1105.8000;0.6496;1.2292;
1106.1000;0.6488;1.2317;
1106.4000;0.6520;1.2414;
1106.7000;0.6504;1.2414;
1107.0000;0.6496;1.2462;
1107.3000;0.6496;1.2414;
1107.6000;0.6496;1.2438;
1107.9000;0.6528;1.2511;
1108.2000;0.6536;1.2559;
1108.5000;0.6504;1.2414;
1108.8000;0.6496;1.2438;
1109.1000;0.6520;1.2414;
1109.4000;0.6512;1.2365;
1109.7000;0.6496;1.2292;
1110.0000;0.6488;1.2220;
1110.3000;0.6496;1.2220;
1110.6000;0.6512;1.2244;
1110.9000;0.6504;1.2244;
1111.2000;0.6488;1.2268;
1111.5000;0.6512;1.2389;
1111.8000;0.6496;1.2486;
1112.1000;0.6504;1.2389;
1112.4000;0.6488;1.2414;
1112.7000;0.6496;1.2414;
1113.0000;0.6577;1.2608;
1113.3000;0.6528;1.2535;
1113.6000;0.6504;1.2486;
1113.9000;0.6496;1.2486;
1114.2000;0.6520;1.2511;
1114.5000;0.6447;1.2341;
1114.8000;0.6504;1.2511;
1115.1000;0.6577;1.2777;
1115.4000;0.6455;1.2414;
1115.7000;0.6528;1.2559;
1116.0000;0.6520;1.2486;
1116.3000;0.6479;1.2414;
1116.6000;0.6504;1.2511;
1116.9000;0.6528;1.2608;
1117.2000;0.6488;1.2608;
1117.5000;0.6496;1.2632;
1117.8000;0.6561;1.2777;
1118.1000;0.6496;1.2608;
1118.4000;0.6488;1.2656;
1118.7000;0.6496;1.2729;
1119.0000;0.6488;1.2753;
1119.3000;0.6512;1.2729;
1119.6000;0.6512;1.2729;
1119.9000;0.6512;1.2632;
1120.2000;0.6512;1.2511;
1120.5000;0.6504;1.2462;
1120.8000;0.6504;1.2414;
1121.1000;0.6512;1.2244;
1121.4000;0.6496;1.2147;
1121.7000;0.6479;1.2099;
1122.0000;0.6496;1.2196;
1122.3000;0.6455;1.2147;
1122.6000;0.6471;1.2244;
1122.9000;0.6488;1.2414;
1123.2000;0.6496;1.2486;
1123.5000;0.6496;1.2535;
1123.8000;0.6479;1.2535;
1124.1000;0.6496;1.2583;
1124.4000;0.6504;1.2511;
1124.7000;0.6479;1.2583;
1125.0000;0.6496;1.2535;
1125.3000;0.6479;1.2486;
1125.6000;0.6488;1.2486;
1125.9000;0.6496;1.2511;
1126.2000;0.6471;1.2438;
1126.5000;0.6504;1.2559;
1126.8000;0.6488;1.2559;
1127.1000;0.6504;1.2632;
1127.4000;0.6520;1.2608;
1127.7000;0.6496;1.2583;
1128.0000;0.6496;1.2680;
1128.3000;0.6512;1.2705;
1128.6000;0.6512;1.2656;
1128.9000;0.6504;1.2583;
1129.2000;0.6504;1.2583;
1129.5000;0.6488;1.2511;
1129.8000;0.6496;1.2559;
1130.1000;0.6479;1.2583;
1130.4000;0.6447;1.2462;
1130.7000;0.6488;1.2511;
1131.0000;0.6496;1.2486;
1131.3000;0.6496;1.2438;
1131.6000;0.6496;1.2438;
1131.9000;0.6504;1.2438;
1132.2000;0.6528;1.2486;
1132.5000;0.6520;1.2389;
1132.8000;0.6504;1.2317;
1133.1000;0.6479;1.2341;
1133.4000;0.6504;1.2317;
1133.7000;0.6496;1.2317;
1134.0000;0.6488;1.2341;
1134.3000;0.6463;1.2268;
1134.6000;0.6496;1.2462;
1134.9000;0.6496;1.2462;
1135.2000;0.6488;1.2438;
1135.5000;0.6496;1.2486;
1135.8000;0.6471;1.2389;
1136.1000;0.6496;1.2389;
1136.4000;0.6488;1.2292;
1136.7000;0.6471;1.2244;
1137.0000;0.6512;1.2317;
1137.3000;0.6504;1.2292;
1137.6000;0.6496;1.2220;
1137.9000;0.6463;1.2196;
1138.2000;0.6471;1.2147;
1138.5000;0.6488;1.2147;
1138.8000;0.6553;1.2244;
1139.1000;0.6479;1.2147;
1139.4000;0.6479;1.2220;
1139.7000;0.6496;1.2244;
1140.0000;0.6504;1.2292;
1140.3000;0.6553;1.2438;
1140.6000;0.6496;1.2292;
1140.9000;0.6504;1.2244;
1141.2000;0.6520;1.2317;
1141.5000;0.6488;1.2292;
1141.8000;0.6479;1.2268;
1142.1000;0.6496;1.2292;
1142.4000;0.6488;1.2389;
1142.7000;0.6479;1.2389;
1143.0000;0.6463;1.2365;
1143.3000;0.6463;1.2268;
1143.6000;0.6488;1.2244;
1143.9000;0.6488;1.2317;
1144.2000;0.6496;1.2414;
1144.5000;0.6488;1.2317;
1144.8000;0.6488;1.2389;
1145.1000;0.6496;1.2389;
1145.4000;0.6471;1.2317;
1145.7000;0.6479;1.2317;
1146.0000;0.6479;1.2389;
1146.3000;0.6496;1.2462;
1146.6000;0.6496;1.2438;
1146.9000;0.6496;1.2462;
1147.2000;0.6479;1.2389;
1147.5000;0.6496;1.2317;
1147.8000;0.6504;1.2341;
1148.1000;0.6471;1.2220;
1148.4000;0.6488;1.2268;
1148.7000;0.6488;1.2268;
1149.0000;0.6471;1.2147;
1149.3000;0.6471;1.2171;
1149.6000;0.6479;1.2147;
1149.9000;0.6488;1.2171;
1150.2000;0.6479;1.2171;
1150.5000;0.6496;1.2171;
1150.8000;0.6488;1.2220;
1151.1000;0.6479;1.2147;
1151.4000;0.6488;1.2196;
1151.7000;0.6488;1.2171;
1152.0000;0.6488;1.2171;
1152.3000;0.6471;1.2171;
1152.6000;0.6479;1.2220;
1152.9000;0.6471;1.2244;
1153.2000;0.6479;1.2292;
1153.5000;0.6479;1.2365;
1153.8000;0.6496;1.2462;
1154.1000;0.6504;1.2511;
1154.4000;0.6520;1.2680;
1154.7000;0.6496;1.2656;
1155.0000;0.6488;1.2729;
1155.3000;0.6488;1.2753;
1155.6000;0.6496;1.2753;
1155.9000;0.6471;1.2656;
1156.2000;0.6496;1.2680;
1156.5000;0.6512;1.2656;
1156.8000;0.6496;1.2608;
1157.1000;0.6504;1.2583;
1157.4000;0.6496;1.2632;
1157.7000;0.6504;1.2632;
1158.0000;0.6496;1.2632;
1158.3000;0.6479;1.2559;
1158.6000;0.6471;1.2608;
1158.9000;0.6496;1.2680;
1159.2000;0.6496;1.2680;
1159.5000;0.6479;1.2680;
1159.8000;0.6471;1.2608;
1160.1000;0.6512;1.2632;
1160.4000;0.6488;1.2656;
1160.7000;0.6512;1.2729;
1161.0000;0.6488;1.2559;
1161.3000;0.6488;1.2583;
1161.6000;0.6504;1.2632;
1161.9000;0.6463;1.2656;
1162.2000;0.6504;1.2729;
1162.5000;0.6496;1.2632;
1162.8000;0.6471;1.2535;
1163.1000;0.6496;1.2559;
1163.4000;0.6479;1.2535;
1163.7000;0.6479;1.2511;
1164.0000;0.6471;1.2559;
1164.3000;0.6496;1.2632;
1164.6000;0.6471;1.2632;
1164.9000;0.6431;1.2535;
1165.2000;0.6471;1.2632;
1165.5000;0.6504;1.2656;
1165.8000;0.6488;1.2705;
1166.1000;0.6488;1.2777;
1166.4000;0.6488;1.2753;
1166.7000;0.6520;1.2826;
1167.0000;0.6479;1.2777;
1167.3000;0.6479;1.2680;
1167.6000;0.6471;1.2583;
1167.9000;0.6488;1.2608;
1168.2000;0.6455;1.2583;
1168.5000;0.6455;1.2511;
1168.8000;0.6463;1.2462;
1169.1000;0.6463;1.2511;
1169.4000;0.6471;1.2511;
1169.7000;0.6512;1.2535;
1170.0000;0.6463;1.2389;
1170.3000;0.6496;1.2535;
1170.6000;0.6496;1.2511;
1170.9000;0.6488;1.2486;
1171.2000;0.6496;1.2535;
1171.5000;0.6488;1.2511;
1171.8000;0.6488;1.2486;
1172.1000;0.6471;1.2462;
1172.4000;0.6479;1.2486;
1172.7000;0.6471;1.2438;
1173.0000;0.6488;1.2438;
1173.3000;0.6520;1.2486;
1173.6000;0.6471;1.2365;
1173.9000;0.6406;1.2292;
1174.2000;0.6479;1.2389;
1174.5000;0.6479;1.2341;
1174.8000;0.6463;1.2341;
1175.1000;0.6471;1.2414;
1175.4000;0.6479;1.2414;
1175.7000;0.6479;1.2389;
1176.0000;0.6471;1.2389;
1176.3000;0.6488;1.2438;
1176.6000;0.6447;1.2414;
1176.9000;0.6496;1.2559;
1177.2000;0.6488;1.2583;
1177.5000;0.6479;1.2535;
1177.8000;0.6479;1.2511;
1178.1000;0.6488;1.2632;
1178.4000;0.6504;1.2729;
1178.7000;0.6479;1.2656;
1179.0000;0.6479;1.2632;
1179.3000;0.6479;1.2583;
1179.6000;0.6479;1.2486;
1179.9000;0.6496;1.2486;
1180.2000;0.6496;1.2438;
1180.5000;0.6488;1.2462;
1180.8000;0.6488;1.2438;
1181.1000;0.6504;1.2535;
1181.4000;0.6471;1.2486;
1181.7000;0.6471;1.2511;
1182.0000;0.6463;1.2608;
1182.3000;0.6488;1.2608;
1182.6000;0.6488;1.2632;
1182.9000;0.6479;1.2535;
1183.2000;0.6488;1.2535;
1183.5000;0.6463;1.2462;
1183.8000;0.6488;1.2583;
1184.1000;0.6479;1.2559;
1184.4000;0.6471;1.2535;
1184.7000;0.6520;1.2632;
1185.0000;0.6512;1.2680;
1185.3000;0.6488;1.2656;
1185.6000;0.6520;1.2705;
1185.9000;0.6496;1.2632;
1186.2000;0.6504;1.2511;
1186.5000;0.6536;1.2680;
1186.8000;0.6496;1.2559;
1187.1000;0.6488;1.2583;
1187.4000;0.6463;1.2559;
1187.7000;0.6471;1.2535;
1188.0000;0.6504;1.2583;
1188.3000;0.6479;1.2535;
1188.6000;0.6463;1.2583;
1188.9000;0.6455;1.2656;
1189.2000;0.6471;1.2705;
1189.5000;0.6471;1.2826;
1189.8000;0.6496;1.2777;
1190.1000;0.6479;1.2632;
1190.4000;0.6488;1.2583;
1190.7000;0.6479;1.2632;
1191.0000;0.6496;1.2680;
1191.3000;0.6471;1.2632;
1191.6000;0.6471;1.2608;
1191.9000;0.6479;1.2608;
1192.2000;0.6512;1.2608;
1192.5000;0.6488;1.2632;
1192.8000;0.6488;1.2583;
1193.1000;0.6488;1.2486;
1193.4000;0.6471;1.2486;
1193.7000;0.6512;1.2656;
1194.0000;0.6479;1.2511;
1194.3000;0.6504;1.2608;
1194.6000;0.6488;1.2559;
1194.9000;0.6471;1.2486;
1195.2000;0.6455;1.2462;
1195.5000;0.6471;1.2462;
1195.8000;0.6488;1.2511;
1196.1000;0.6496;1.2535;
1196.4000;0.6488;1.2438;
1196.7000;0.6479;1.2389;
1197.0000;0.6496;1.2535;
1197.3000;0.6479;1.2632;
1197.6000;0.6488;1.2632;
1197.9000;0.6471;1.2559;
1198.2000;0.6496;1.2656;
1198.5000;0.6447;1.2559;
1198.8000;0.6471;1.2632;
1199.1000;0.6479;1.2705;
1199.4000;0.6471;1.2656;
1199.7000;0.6496;1.2656;
1200.0000;0.6528;1.2802;
1200.3000;0.6479;1.2729;
1200.6000;0.6463;1.2632;
1200.9000;0.6479;1.2608;
1201.2000;0.6455;1.2438;
1201.5000;0.6496;1.2559;
1201.8000;0.6479;1.2608;
1202.1000;0.6471;1.2680;
1202.4000;0.6479;1.2729;
1202.7000;0.6479;1.2729;
1203.0000;0.6471;1.2753;
1203.3000;0.6463;1.2608;
1203.6000;0.6463;1.2511;
1203.9000;0.6496;1.2535;
1204.2000;0.6479;1.2486;
1204.5000;0.6479;1.2462;
1204.8000;0.6496;1.2462;
1205.1000;0.6471;1.2365;
1205.4000;0.6479;1.2341;
1205.7000;0.6479;1.2365;
1206.0000;0.6463;1.2317;
1206.3000;0.6479;1.2365;
1206.6000;0.6479;1.2389;
1206.9000;0.6479;1.2389;
1207.2000;0.6479;1.2438;
1207.5000;0.6431;1.2365;
1207.8000;0.6479;1.2486;
1208.1000;0.6479;1.2559;
1208.4000;0.6488;1.2535;
1208.7000;0.6471;1.2414;
1209.0000;0.6536;1.2583;
1209.3000;0.6463;1.2438;
1209.6000;0.6455;1.2486;
1209.9000;0.6463;1.2414;
1210.2000;0.6471;1.2486;
1210.5000;0.6528;1.2608;
1210.8000;0.6431;1.2414;
1211.1000;0.6463;1.2462;
1211.4000;0.6471;1.2535;
1211.7000;0.6471;1.2365;
1212.0000;0.6455;1.2341;
1212.3000;0.6471;1.2486;
1212.6000;0.6479;1.2511;
1212.9000;0.6471;1.2486;
1213.2000;0.6471;1.2486;
1213.5000;0.6463;1.2389;
1213.8000;0.6471;1.2317;
1214.1000;0.6504;1.2365;
1214.4000;0.6488;1.2317;
1214.7000;0.6471;1.2317;
1215.0000;0.6488;1.2389;
1215.3000;0.6488;1.2268;
1215.6000;0.6463;1.2220;
1215.9000;0.6479;1.2244;
1216.2000;0.6463;1.2244;
1216.5000;0.6463;1.2244;
1216.8000;0.6463;1.2220;
1217.1000;0.6471;1.2244;
1217.4000;0.6479;1.2244;
1217.7000;0.6471;1.2244;
1218.0000;0.6471;1.2317;
1218.3000;0.6471;1.2268;
1218.6000;0.6471;1.2365;
1218.9000;0.6471;1.2414;
1219.2000;0.6463;1.2462;
1219.5000;0.6471;1.2462;
1219.8000;0.6479;1.2486;
1220.1000;0.6455;1.2486;
1220.4000;0.6488;1.2583;
1220.7000;0.6471;1.2486;
1221.0000;0.6488;1.2632;
1221.3000;0.6471;1.2559;
1221.6000;0.6471;1.2511;
1221.9000;0.6471;1.2559;
1222.2000;0.6471;1.2559;
1222.5000;0.6463;1.2632;
1222.8000;0.6479;1.2535;
1223.1000;0.6463;1.2486;
1223.4000;0.6471;1.2559;
1223.7000;0.6463;1.2535;
1224.0000;0.6463;1.2559;
1224.3000;0.6496;1.2656;
1224.6000;0.6447;1.2511;
1224.9000;0.6463;1.2583;
1225.2000;0.6536;1.2777;
1225.5000;0.6496;1.2535;
1225.8000;0.6455;1.2511;
1226.1000;0.6447;1.2559;
1226.4000;0.6447;1.2583;
1226.7000;0.6471;1.2656;
1227.0000;0.6479;1.2729;
1227.3000;0.6496;1.2777;
1227.6000;0.6471;1.2680;
1227.9000;0.6496;1.2729;
1228.2000;0.6512;1.2729;
1228.5000;0.6471;1.2608;
1228.8000;0.6447;1.2511;
1229.1000;0.6479;1.2559;
1229.4000;0.6496;1.2608;
1229.7000;0.6431;1.2438;
1230.0000;0.6479;1.2511;
1230.3000;0.6422;1.2389;
1230.6000;0.6463;1.2583;
1230.9000;0.6504;1.2680;
1231.2000;0.6488;1.2753;
1231.5000;0.6471;1.2705;
1231.8000;0.6471;1.2632;
1232.1000;0.6479;1.2608;
1232.4000;0.6455;1.2535;
1232.7000;0.6471;1.2535;
1233.0000;0.6447;1.2462;
1233.3000;0.6463;1.2535;
1233.6000;0.6463;1.2583;
1233.9000;0.6463;1.2559;
1234.2000;0.6447;1.2511;
1234.5000;0.6455;1.2535;
1234.8000;0.6463;1.2535;
1235.1000;0.6455;1.2486;
1235.4000;0.6463;1.2535;
1235.7000;0.6471;1.2559;
1236.0000;0.6536;1.2705;
1236.3000;0.6455;1.2438;
1236.6000;0.6471;1.2535;
1236.9000;0.6479;1.2535;
1237.2000;0.6471;1.2535;
1237.5000;0.6471;1.2486;
1237.8000;0.6455;1.2535;
1238.1000;0.6447;1.2462;
1238.4000;0.6479;1.2656;
1238.7000;0.6463;1.2656;
1239.0000;0.6455;1.2680;
1239.3000;0.6455;1.2535;
1239.6000;0.6455;1.2583;
1239.9000;0.6463;1.2559;
1240.2000;0.6455;1.2511;
1240.5000;0.6471;1.2608;
1240.8000;0.6471;1.2656;
1241.1000;0.6455;1.2632;
1241.4000;0.6455;1.2583;
1241.7000;0.6471;1.2680;
1242.0000;0.6455;1.2656;
1242.3000;0.6455;1.2535;
1242.6000;0.6431;1.2486;
1242.9000;0.6463;1.2680;
1243.2000;0.6463;1.2705;
1243.5000;0.6479;1.2680;
1243.8000;0.6471;1.2608;
1244.1000;0.6488;1.2583;
1244.4000;0.6471;1.2462;
1244.7000;0.6471;1.2438;
1245.0000;0.6455;1.2438;
1245.3000;0.6479;1.2511;
1245.6000;0.6455;1.2486;
1245.9000;0.6414;1.2341;
1246.2000;0.6463;1.2511;
1246.5000;0.6422;1.2462;
1246.8000;0.6455;1.2462;
1247.1000;0.6496;1.2438;
1247.4000;0.6431;1.2292;
1247.7000;0.6447;1.2341;
1248.0000;0.6463;1.2365;
1248.3000;0.6471;1.2438;
1248.6000;0.6496;1.2486;
1248.9000;0.6471;1.2414;
1249.2000;0.6479;1.2462;
1249.5000;0.6431;1.2365;
1249.8000;0.6471;1.2535;
1250.1000;0.6455;1.2583;
1250.4000;0.6431;1.2535;
1250.7000;0.6496;1.2705;
1251.0000;0.6447;1.2535;
1251.3000;0.6463;1.2559;
1251.6000;0.6463;1.2559;
1251.9000;0.6455;1.2511;
1252.2000;0.6471;1.2511;
1252.5000;0.6463;1.2438;
1252.8000;0.6447;1.2486;
1253.1000;0.6447;1.2486;
1253.4000;0.6463;1.2414;
1253.7000;0.6479;1.2268;
1254.0000;0.6496;1.2317;
1254.3000;0.6479;1.2292;
1254.6000;0.6455;1.2268;
1254.9000;0.6471;1.2292;
1255.2000;0.6463;1.2292;
1255.5000;0.6455;1.2389;
1255.8000;0.6414;1.2317;
1256.1000;0.6479;1.2535;
1256.4000;0.6447;1.2559;
1256.7000;0.6479;1.2559;
1257.0000;0.6455;1.2535;
1257.3000;0.6471;1.2535;
1257.6000;0.6455;1.2511;
1257.9000;0.6463;1.2486;
1258.2000;0.6463;1.2462;
1258.5000;0.6447;1.2486;
1258.8000;0.6447;1.2462;
1259.1000;0.6471;1.2583;
1259.4000;0.6463;1.2511;
1259.7000;0.6479;1.2583;
1260.0000;0.6463;1.2632;
1260.3000;0.6463;1.2632;
1260.6000;0.6496;1.2680;
1260.9000;0.6447;1.2608;
1261.2000;0.6463;1.2535;
1261.5000;0.6471;1.2583;
1261.8000;0.6439;1.2511;
1262.1000;0.6463;1.2511;
1262.4000;0.6463;1.2559;
1262.7000;0.6463;1.2535;
1263.0000;0.6463;1.2414;
1263.3000;0.6463;1.2365;
1263.6000;0.6471;1.2365;
1263.9000;0.6488;1.2341;
1264.2000;0.6471;1.2365;
1264.5000;0.6471;1.2414;
1264.8000;0.6463;1.2438;
1265.1000;0.6471;1.2462;
1265.4000;0.6471;1.2389;
1265.7000;0.6455;1.2438;
1266.0000;0.6439;1.2438;
1266.3000;0.6463;1.2535;
1266.6000;0.6455;1.2462;
1266.9000;0.6455;1.2438;
1267.2000;0.6471;1.2389;
1267.5000;0.6447;1.2341;
1267.8000;0.6455;1.2317;
1268.1000;0.6463;1.2341;
1268.4000;0.6455;1.2414;
1268.7000;0.6463;1.2389;
1269.0000;0.6512;1.2438;
1269.3000;0.6439;1.2196;
1269.6000;0.6463;1.2196;
1269.9000;0.6455;1.2196;
1270.2000;0.6471;1.2244;
1270.5000;0.6455;1.2171;
1270.8000;0.6455;1.2220;
1271.1000;0.6406;1.2123;
1271.4000;0.6455;1.2244;
1271.7000;0.6471;1.2244;
1272.0000;0.6447;1.2171;
1272.3000;0.6447;1.2196;
1272.6000;0.6414;1.2099;
1272.9000;0.6479;1.2341;
1273.2000;0.6455;1.2268;
1273.5000;0.6479;1.2292;
1273.8000;0.6504;1.2462;
1274.1000;0.6471;1.2462;
1274.4000;0.6463;1.2414;
1274.7000;0.6455;1.2438;
1275.0000;0.6471;1.2462;
1275.3000;0.6479;1.2414;
1275.6000;0.6479;1.2389;
1275.9000;0.6471;1.2462;
1276.2000;0.6504;1.2559;
1276.5000;0.6471;1.2462;
1276.8000;0.6463;1.2486;
1277.1000;0.6455;1.2365;
1277.4000;0.6455;1.2438;
1277.7000;0.6471;1.2462;
1278.0000;0.6463;1.2389;
1278.3000;0.6463;1.2414;
1278.6000;0.6463;1.2389;
1278.9000;0.6455;1.2414;
1279.2000;0.6463;1.2414;
1279.5000;0.6463;1.2462;
1279.8000;0.6488;1.2486;
1280.1000;0.6479;1.2462;
1280.4000;0.6463;1.2462;
1280.7000;0.6488;1.2486;
1281.0000;0.6463;1.2317;
1281.3000;0.6463;1.2317;
1281.6000;0.6447;1.2292;
1281.9000;0.6479;1.2341;
1282.2000;0.6463;1.2317;
1282.5000;0.6471;1.2341;
1282.8000;0.6447;1.2365;
1283.1000;0.6447;1.2317;
1283.4000;0.6431;1.2292;
1283.7000;0.6439;1.2292;
1284.0000;0.6463;1.2292;
1284.3000;0.6455;1.2317;
1284.6000;0.6463;1.2341;
1284.9000;0.6455;1.2292;
1285.2000;0.6479;1.2292;
1285.5000;0.6463;1.2317;
1285.8000;0.6455;1.2389;
1286.1000;0.6479;1.2511;
1286.4000;0.6463;1.2414;
1286.7000;0.6463;1.2438;
1287.0000;0.6455;1.2438;
1287.3000;0.6463;1.2462;
1287.6000;0.6463;1.2389;
1287.9000;0.6455;1.2438;
1288.2000;0.6447;1.2438;
1288.5000;0.6447;1.2511;
1288.8000;0.6447;1.2438;
1289.1000;0.6455;1.2462;
1289.4000;0.6471;1.2535;
1289.7000;0.6479;1.2656;
1290.0000;0.6471;1.2632;
1290.3000;0.6463;1.2680;
1290.6000;0.6463;1.2632;
1290.9000;0.6463;1.2559;
1291.2000;0.6463;1.2535;
1291.5000;0.6447;1.2438;
1291.8000;0.6471;1.2535;
1292.1000;0.6463;1.2438;
1292.4000;0.6447;1.2365;
1292.7000;0.6447;1.2414;
1293.0000;0.6471;1.2462;
1293.3000;0.6398;1.2365;
1293.6000;0.6463;1.2583;
1293.9000;0.6439;1.2559;
1294.2000;0.6414;1.2559;
1294.5000;0.6463;1.2729;
1294.8000;0.6463;1.2705;
1295.1000;0.6455;1.2680;
1295.4000;0.6471;1.2705;
1295.7000;0.6471;1.2656;
1296.0000;0.6471;1.2535;
1296.3000;0.6455;1.2511;
1296.6000;0.6455;1.2438;
1296.9000;0.6455;1.2438;
1297.2000;0.6471;1.2389;
1297.5000;0.6455;1.2317;
1297.8000;0.6463;1.2462;
1298.1000;0.6471;1.2486;
1298.4000;0.6471;1.2462;
1298.7000;0.6471;1.2438;
1299.0000;0.6488;1.2535;
1299.3000;0.6463;1.2486;
1299.6000;0.6463;1.2462;
1299.9000;0.6504;1.2511;
1300.2000;0.6463;1.2486;
1300.5000;0.6455;1.2511;
1300.8000;0.6471;1.2583;
1301.1000;0.6406;1.2317;
1301.4000;0.6520;1.2632;
1301.7000;0.6447;1.2462;
1302.0000;0.6471;1.2486;
1302.3000;0.6471;1.2511;
1302.6000;0.6455;1.2511;
1302.9000;0.6422;1.2462;
1303.2000;0.6414;1.2414;
1303.5000;0.6455;1.2535;
1303.8000;0.6463;1.2535;
1304.1000;0.6471;1.2486;
1304.4000;0.6463;1.2511;
1304.7000;0.6463;1.2535;
1305.0000;0.6471;1.2608;
1305.3000;0.6471;1.2583;
1305.6000;0.6455;1.2583;
1305.9000;0.6471;1.2559;
1306.2000;0.6496;1.2632;
1306.5000;0.6455;1.2583;
1306.8000;0.6447;1.2583;
1307.1000;0.6439;1.2559;
1307.4000;0.6471;1.2583;
1307.7000;0.6455;1.2511;
1308.0000;0.6447;1.2535;
1308.3000;0.6447;1.2535;
1308.6000;0.6447;1.2656;
1308.9000;0.6463;1.2680;
1309.2000;0.6463;1.2680;
1309.5000;0.6463;1.2583;
1309.8000;0.6471;1.2583;
1310.1000;0.6414;1.2462;
1310.4000;0.6463;1.2583;
1310.7000;0.6463;1.2583;
1311.0000;0.6455;1.2583;
1311.3000;0.6463;1.2656;
1311.6000;0.6463;1.2680;
1311.9000;0.6447;1.2680;
1312.2000;0.6455;1.2802;
1312.5000;0.6463;1.2826;
1312.8000;0.6455;1.2826;
1313.1000;0.6447;1.2753;
1313.4000;0.6471;1.2777;
1313.7000;0.6463;1.2777;
1314.0000;0.6463;1.2826;
1314.3000;0.6447;1.2826;
1314.6000;0.6447;1.2753;
1314.9000;0.6463;1.2826;
1315.2000;0.6463;1.2802;
1315.5000;0.6447;1.2729;
1315.8000;0.6455;1.2753;
1316.1000;0.6471;1.2826;
1316.4000;0.6455;1.2826;
1316.7000;0.6463;1.2777;
1317.0000;0.6422;1.2608;
1317.3000;0.6447;1.2680;
1317.6000;0.6455;1.2680;
1317.9000;0.6471;1.2777;
1318.2000;0.6496;1.2753;
1318.5000;0.6447;1.2656;
1318.8000;0.6463;1.2705;
1319.1000;0.6479;1.2705;
1319.4000;0.6463;1.2656;
1319.7000;0.6455;1.2680;
1320.0000;0.6504;1.2826;
1320.3000;0.6406;1.2535;
1320.6000;0.6455;1.2753;
1320.9000;0.6463;1.2729;
1321.2000;0.6455;1.2680;
1321.5000;0.6479;1.2729;
1321.8000;0.6439;1.2680;
1322.1000;0.6439;1.2705;
1322.4000;0.6463;1.2705;
1322.7000;0.6398;1.2559;
1323.0000;0.6431;1.2680;
1323.3000;0.6447;1.2753;
1323.6000;0.6455;1.2705;
1323.9000;0.6471;1.2680;
1324.2000;0.6479;1.2680;
1324.5000;0.6455;1.2583;
1324.8000;0.6455;1.2438;
1325.1000;0.6455;1.2486;
1325.4000;0.6414;1.2486;
1325.7000;0.6455;1.2486;
1326.0000;0.6479;1.2608;
1326.3000;0.6504;1.2729;
1326.6000;0.6463;1.2608;
1326.9000;0.6536;1.2777;
1327.2000;0.6455;1.2559;
1327.5000;0.6463;1.2559;
1327.8000;0.6479;1.2608;
1328.1000;0.6398;1.2438;
1328.4000;0.6455;1.2511;
1328.7000;0.6406;1.2462;
1329.0000;0.6455;1.2608;
1329.3000;0.6447;1.2608;
1329.6000;0.6447;1.2608;
1329.9000;0.6439;1.2535;
1330.2000;0.6455;1.2559;
1330.5000;0.6463;1.2438;
1330.8000;0.6439;1.2317;
1331.1000;0.6463;1.2389;
1331.4000;0.6463;1.2438;
1331.7000;0.6471;1.2511;
1332.0000;0.6447;1.2559;
1332.3000;0.6471;1.2486;
1332.6000;0.6463;1.2462;
1332.9000;0.6471;1.2414;
1333.2000;0.6463;1.2462;
1333.5000;0.6455;1.2462;
1333.8000;0.6455;1.2462;
1334.1000;0.6463;1.2511;
1334.4000;0.6398;1.2365;
1334.7000;0.6455;1.2705;
1335.0000;0.6455;1.2729;
1335.3000;0.6455;1.2777;
1335.6000;0.6479;1.2753;
1335.9000;0.6455;1.2705;
1336.2000;0.6463;1.2729;
1336.5000;0.6488;1.2729;
1336.8000;0.6463;1.2656;
1337.1000;0.6439;1.2583;
1337.4000;0.6463;1.2656;
1337.7000;0.6463;1.2608;
1338.0000;0.6463;1.2608;
1338.3000;0.6447;1.2632;
1338.6000;0.6447;1.2583;
1338.9000;0.6447;1.2462;
1339.2000;0.6455;1.2583;
1339.5000;0.6439;1.2486;
1339.8000;0.6431;1.2535;
1340.1000;0.6463;1.2559;
1340.4000;0.6447;1.2535;
1340.7000;0.6439;1.2656;
1341.0000;0.6463;1.2705;
1341.3000;0.6447;1.2656;
1341.6000;0.6455;1.2632;
1341.9000;0.6455;1.2680;
1342.2000;0.6455;1.2680;
1342.5000;0.6455;1.2680;
1342.8000;0.6447;1.2729;
1343.1000;0.6504;1.2802;
1343.4000;0.6447;1.2608;
1343.7000;0.6463;1.2559;
1344.0000;0.6455;1.2559;
1344.3000;0.6463;1.2632;
1344.6000;0.6455;1.2608;
1344.9000;0.6488;1.2632;
1345.2000;0.6463;1.2632;
1345.5000;0.6455;1.2656;
1345.8000;0.6439;1.2656;
1346.1000;0.6447;1.2608;
1346.4000;0.6471;1.2608;
1346.7000;0.6455;1.2559;
1347.0000;0.6414;1.2486;
1347.3000;0.6455;1.2608;
1347.6000;0.6463;1.2826;
1347.9000;0.6439;1.2705;
1348.2000;0.6488;1.2753;
1348.5000;0.6471;1.2656;
1348.8000;0.6414;1.2535;
1349.1000;0.6406;1.2511;
1349.4000;0.6414;1.2511;
1349.7000;0.6439;1.2583;
1350.0000;0.6439;1.2632;
1350.3000;0.6431;1.2608;
1350.6000;0.6439;1.2632;
1350.9000;0.6455;1.2559;
1351.2000;0.6439;1.2583;
1351.5000;0.6463;1.2583;
1351.8000;0.6439;1.2680;
1352.1000;0.6447;1.2583;
1352.4000;0.6463;1.2632;
1352.7000;0.6463;1.2680;
1353.0000;0.6463;1.2656;
1353.3000;0.6447;1.2559;
1353.6000;0.6463;1.2680;
1353.9000;0.6463;1.2608;
1354.2000;0.6447;1.2608;
1354.5000;0.6455;1.2559;
1354.8000;0.6471;1.2656;
1355.1000;0.6463;1.2583;
1355.4000;0.6455;1.2535;
1355.7000;0.6447;1.2511;
1356.0000;0.6463;1.2511;
1356.3000;0.6447;1.2438;
1356.6000;0.6447;1.2486;
1356.9000;0.6447;1.2535;
1357.2000;0.6455;1.2559;
1357.5000;0.6455;1.2462;
1357.8000;0.6455;1.2462;
1358.1000;0.6455;1.2559;
1358.4000;0.6471;1.2559;
1358.7000;0.6422;1.2486;
1359.0000;0.6431;1.2511;
1359.3000;0.6447;1.2608;
1359.6000;0.6447;1.2511;
1359.9000;0.6447;1.2462;
1360.2000;0.6374;1.2244;
1360.5000;0.6439;1.2389;
1360.8000;0.6463;1.2438;
1361.1000;0.6447;1.2389;
1361.4000;0.6439;1.2462;
1361.7000;0.6439;1.2438;
1362.0000;0.6496;1.2608;
1362.3000;0.6422;1.2462;
1362.6000;0.6455;1.2608;
1362.9000;0.6447;1.2559;
1363.2000;0.6439;1.2559;
1363.5000;0.6463;1.2705;
1363.8000;0.6455;1.2729;
1364.1000;0.6431;1.2680;
1364.4000;0.6463;1.2753;
1364.7000;0.6455;1.2656;
1365.0000;0.6520;1.2777;
1365.3000;0.6512;1.2729;
1365.6000;0.6455;1.2511;
1365.9000;0.6447;1.2535;
1366.2000;0.6447;1.2559;
1366.5000;0.6455;1.2559;
1366.8000;0.6414;1.2414;
1367.1000;0.6471;1.2462;
1367.4000;0.6471;1.2462;
1367.7000;0.6463;1.2559;
1368.0000;0.6414;1.2389;
1368.3000;0.6439;1.2414;
1368.6000;0.6455;1.2462;
1368.9000;0.6455;1.2462;
1369.2000;0.6439;1.2511;
1369.5000;0.6447;1.2511;
1369.8000;0.6471;1.2535;
1370.1000;0.6463;1.2389;
1370.4000;0.6447;1.2292;
1370.7000;0.6431;1.2244;
1371.0000;0.6439;1.2292;
1371.3000;0.6431;1.2317;
1371.6000;0.6504;1.2486;
1371.9000;0.6431;1.2244;
1372.2000;0.6528;1.2535;
1372.5000;0.6455;1.2365;
1372.8000;0.6447;1.2389;
1373.1000;0.6455;1.2365;
1373.4000;0.6447;1.2365;
1373.7000;0.6455;1.2462;
1374.0000;0.6447;1.2511;
1374.3000;0.6439;1.2462;
1374.6000;0.6447;1.2438;
1374.9000;0.6439;1.2438;
1375.2000;0.6439;1.2365;
1375.5000;0.6447;1.2414;
1375.8000;0.6439;1.2365;
1376.1000;0.6382;1.2317;
1376.4000;0.6455;1.2414;
1376.7000;0.6447;1.2341;
1377.0000;0.6455;1.2438;
1377.3000;0.6455;1.2389;
1377.6000;0.6463;1.2414;
1377.9000;0.6463;1.2389;
1378.2000;0.6455;1.2389;
1378.5000;0.6455;1.2462;
1378.8000;0.6463;1.2414;
1379.1000;0.6479;1.2462;
1379.4000;0.6455;1.2438;
1379.7000;0.6439;1.2608;
1380.0000;0.6471;1.2656;
1380.3000;0.6455;1.2632;
1380.6000;0.6439;1.2486;
1380.9000;0.6439;1.2511;
1381.2000;0.6398;1.2414;
1381.5000;0.6414;1.2438;
1381.8000;0.6447;1.2511;
1382.1000;0.6455;1.2535;
1382.4000;0.6455;1.2511;
1382.7000;0.6455;1.2535;
1383.0000;0.6463;1.2632;
1383.3000;0.6479;1.2680;
1383.6000;0.6447;1.2511;
1383.9000;0.6455;1.2511;
1384.2000;0.6455;1.2511;
1384.5000;0.6439;1.2486;
1384.8000;0.6439;1.2486;
1385.1000;0.6455;1.2535;
1385.4000;0.6422;1.2438;
1385.7000;0.6447;1.2414;
1386.0000;0.6447;1.2341;
1386.3000;0.6447;1.2292;
1386.6000;0.6455;1.2244;
1386.9000;0.6431;1.2171;
1387.2000;0.6471;1.2292;
1387.5000;0.6455;1.2365;
1387.8000;0.6447;1.2365;
1388.1000;0.6447;1.2414;
1388.4000;0.6447;1.2462;
1388.7000;0.6447;1.2511;
1389.0000;0.6447;1.2608;
1389.3000;0.6390;1.2414;
1389.6000;0.6439;1.2511;
1389.9000;0.6414;1.2365;
1390.2000;0.6447;1.2389;
1390.5000;0.6447;1.2438;
1390.8000;0.6455;1.2462;
1391.1000;0.6431;1.2317;
1391.4000;0.6439;1.2414;
1391.7000;0.6447;1.2389;
1392.0000;0.6463;1.2486;
1392.3000;0.6447;1.2438;
1392.6000;0.6439;1.2486;
1392.9000;0.6447;1.2511;
1393.2000;0.6447;1.2535;
1393.5000;0.6439;1.2511;
1393.8000;0.6431;1.2511;
1394.1000;0.6504;1.2632;
1394.4000;0.6439;1.2462;
1394.7000;0.6447;1.2438;
1395.0000;0.6365;1.2341;
1395.3000;0.6455;1.2486;
1395.6000;0.6447;1.2438;
1395.9000;0.6439;1.2268;
1396.2000;0.6414;1.2074;
1396.5000;0.6447;1.2220;
1396.8000;0.6447;1.2220;
1397.1000;0.6439;1.2196;
1397.4000;0.6439;1.2171;
1397.7000;0.6463;1.2220;
1398.0000;0.6439;1.2292;
1398.3000;0.6455;1.2341;
1398.6000;0.6463;1.2389;
1398.9000;0.6447;1.2438;
1399.2000;0.6431;1.2389;
1399.5000;0.6447;1.2486;
1399.8000;0.6439;1.2438;
