time/ms;Fluo/V;P700 deltaI/I x10³;
-199.8000;0.8002;1.1652;
-199.5000;0.8018;1.1677;
-199.2000;0.8018;1.1602;
-198.9000;0.8010;1.1476;
-198.6000;0.8026;1.1552;
-198.3000;0.8010;1.1677;
-198.0000;0.7993;1.1552;
-197.7000;0.8026;1.1476;
-197.4000;0.8067;1.1652;
-197.1000;0.8018;1.1526;
-196.8000;0.8026;1.1627;
-196.5000;0.8010;1.1627;
-196.2000;0.8002;1.1602;
-195.9000;0.8026;1.1627;
-195.6000;0.8018;1.1602;
-195.3000;0.8018;1.1627;
-195.0000;0.8018;1.1652;
-194.7000;0.8010;1.1703;
-194.4000;0.8034;1.1728;
-194.1000;0.8018;1.1728;
-193.8000;0.8034;1.1703;
-193.5000;0.8026;1.1652;
-193.2000;0.8026;1.1728;
-192.9000;0.8002;1.1703;
-192.6000;0.8018;1.1652;
-192.3000;0.8042;1.1703;
-192.0000;0.8026;1.1728;
-191.7000;0.8002;1.1703;
-191.4000;0.8018;1.1627;
-191.1000;0.8002;1.1552;
-190.8000;0.8010;1.1552;
-190.5000;0.8026;1.1552;
-190.2000;0.8018;1.1476;
-189.9000;0.8026;1.1501;
-189.6000;0.8026;1.1401;
-189.3000;0.8018;1.1350;
-189.0000;0.8026;1.1401;
-188.7000;0.7969;1.1325;
-188.4000;0.8018;1.1426;
-188.1000;0.8018;1.1526;
-187.8000;0.8002;1.1501;
-187.5000;0.8002;1.1552;
-187.2000;0.8034;1.1627;
-186.9000;0.7953;1.1375;
-186.6000;0.8002;1.1627;
-186.3000;0.8010;1.1728;
-186.0000;0.7985;1.1728;
-185.7000;0.8034;1.1828;
-185.4000;0.8002;1.1803;
-185.1000;0.8002;1.1778;
-184.8000;0.8026;1.1828;
-184.5000;0.8002;1.1753;
-184.2000;0.8002;1.1803;
-183.9000;0.8002;1.1828;
-183.6000;0.7993;1.1803;
-183.3000;0.8010;1.1778;
-183.0000;0.8010;1.1728;
-182.7000;0.8002;1.1652;
-182.4000;0.8010;1.1728;
-182.1000;0.8018;1.1778;
-181.8000;0.8018;1.1854;
-181.5000;0.8010;1.1828;
-181.2000;0.7993;1.1803;
-180.9000;0.8018;1.1828;
-180.6000;0.8018;1.1778;
-180.3000;0.8018;1.1728;
-180.0000;0.8010;1.1677;
-179.7000;0.8067;1.1803;
-179.4000;0.8026;1.1602;
-179.1000;0.8018;1.1652;
-178.8000;0.8002;1.1627;
-178.5000;0.8010;1.1703;
-178.2000;0.8026;1.1703;
-177.9000;0.8010;1.1652;
-177.6000;0.8018;1.1753;
-177.3000;0.8010;1.1677;
-177.0000;0.8010;1.1652;
-176.7000;0.7985;1.1577;
-176.4000;0.8002;1.1602;
-176.1000;0.8018;1.1652;
-175.8000;0.7993;1.1602;
-175.5000;0.8002;1.1728;
-175.2000;0.8002;1.1677;
-174.9000;0.7993;1.1552;
-174.6000;0.8050;1.1703;
-174.3000;0.8026;1.1602;
-174.0000;0.7977;1.1501;
-173.7000;0.8010;1.1526;
-173.4000;0.8018;1.1602;
-173.1000;0.8018;1.1552;
-172.8000;0.8026;1.1552;
-172.5000;0.8002;1.1451;
-172.2000;0.8002;1.1476;
-171.9000;0.8026;1.1501;
-171.6000;0.8034;1.1401;
-171.3000;0.8002;1.1451;
-171.0000;0.8018;1.1476;
-170.7000;0.8010;1.1476;
-170.4000;0.8026;1.1501;
-170.1000;0.8067;1.1652;
-169.8000;0.8018;1.1526;
-169.5000;0.7928;1.1350;
-169.2000;0.8002;1.1526;
-168.9000;0.8010;1.1552;
-168.6000;0.8042;1.1627;
-168.3000;0.8010;1.1627;
-168.0000;0.7985;1.1577;
-167.7000;0.8034;1.1677;
-167.4000;0.8018;1.1602;
-167.1000;0.8010;1.1501;
-166.8000;0.8034;1.1627;
-166.5000;0.8010;1.1552;
-166.2000;0.8018;1.1627;
-165.9000;0.8026;1.1627;
-165.6000;0.7985;1.1602;
-165.3000;0.8018;1.1627;
-165.0000;0.8002;1.1577;
-164.7000;0.8026;1.1627;
-164.4000;0.7993;1.1602;
-164.1000;0.8018;1.1652;
-163.8000;0.8010;1.1753;
-163.5000;0.8002;1.1703;
-163.2000;0.8018;1.1703;
-162.9000;0.8018;1.1677;
-162.6000;0.8018;1.1652;
-162.3000;0.8002;1.1577;
-162.0000;0.8010;1.1627;
-161.7000;0.8010;1.1552;
-161.4000;0.8010;1.1552;
-161.1000;0.8026;1.1501;
-160.8000;0.8034;1.1526;
-160.5000;0.8010;1.1426;
-160.2000;0.8034;1.1451;
-159.9000;0.8018;1.1375;
-159.6000;0.8034;1.1325;
-159.3000;0.8018;1.1300;
-159.0000;0.8026;1.1350;
-158.7000;0.7937;1.1250;
-158.4000;0.8026;1.1526;
-158.1000;0.8010;1.1526;
-157.8000;0.8034;1.1728;
-157.5000;0.8018;1.1728;
-157.2000;0.8002;1.1602;
-156.9000;0.8059;1.1703;
-156.6000;0.8018;1.1602;
-156.3000;0.8042;1.1652;
-156.0000;0.8002;1.1526;
-155.7000;0.8010;1.1577;
-155.4000;0.8026;1.1526;
-155.1000;0.8010;1.1501;
-154.8000;0.8042;1.1526;
-154.5000;0.8010;1.1501;
-154.2000;0.8026;1.1526;
-153.9000;0.8026;1.1577;
-153.6000;0.8042;1.1677;
-153.3000;0.8002;1.1627;
-153.0000;0.8018;1.1677;
-152.7000;0.8002;1.1652;
-152.4000;0.7993;1.1451;
-152.1000;0.8034;1.1552;
-151.8000;0.8018;1.1451;
-151.5000;0.8002;1.1426;
-151.2000;0.7993;1.1401;
-150.9000;0.7993;1.1476;
-150.6000;0.7977;1.1451;
-150.3000;0.8018;1.1602;
-150.0000;0.8026;1.1577;
-149.7000;0.7993;1.1526;
-149.4000;0.8002;1.1552;
-149.1000;0.8010;1.1552;
-148.8000;0.8034;1.1526;
-148.5000;0.7985;1.1300;
-148.2000;0.7977;1.1401;
-147.9000;0.8010;1.1501;
-147.6000;0.8026;1.1526;
-147.3000;0.8026;1.1627;
-147.0000;0.8002;1.1677;
-146.7000;0.8018;1.1778;
-146.4000;0.8002;1.1677;
-146.1000;0.8010;1.1652;
-145.8000;0.7985;1.1577;
-145.5000;0.8002;1.1627;
-145.2000;0.8010;1.1677;
-144.9000;0.8018;1.1753;
-144.6000;0.8010;1.1652;
-144.3000;0.8010;1.1677;
-144.0000;0.8018;1.1552;
-143.7000;0.8010;1.1476;
-143.4000;0.8050;1.1552;
-143.1000;0.7993;1.1552;
-142.8000;0.8002;1.1602;
-142.5000;0.8010;1.1577;
-142.2000;0.8018;1.1552;
-141.9000;0.8002;1.1451;
-141.6000;0.8026;1.1476;
-141.3000;0.8010;1.1476;
-141.0000;0.8124;1.1753;
-140.7000;0.8075;1.1753;
-140.4000;0.7993;1.1426;
-140.1000;0.8002;1.1325;
-139.8000;0.8010;1.1401;
-139.5000;0.7993;1.1401;
-139.2000;0.7993;1.1401;
-138.9000;0.7961;1.1224;
-138.6000;0.7993;1.1375;
-138.3000;0.8010;1.1426;
-138.0000;0.7977;1.1350;
-137.7000;0.7985;1.1275;
-137.4000;0.7985;1.1350;
-137.1000;0.8010;1.1426;
-136.8000;0.7993;1.1300;
-136.5000;0.7993;1.1375;
-136.2000;0.8002;1.1451;
-135.9000;0.7993;1.1401;
-135.6000;0.8010;1.1476;
-135.3000;0.8010;1.1476;
-135.0000;0.8010;1.1526;
-134.7000;0.8010;1.1602;
-134.4000;0.7961;1.1451;
-134.1000;0.8034;1.1627;
-133.8000;0.8083;1.1803;
-133.5000;0.8018;1.1577;
-133.2000;0.8034;1.1627;
-132.9000;0.8050;1.1627;
-132.6000;0.8002;1.1526;
-132.3000;0.8018;1.1526;
-132.0000;0.8002;1.1577;
-131.7000;0.7993;1.1526;
-131.4000;0.8018;1.1602;
-131.1000;0.8010;1.1627;
-130.8000;0.7993;1.1577;
-130.5000;0.8018;1.1627;
-130.2000;0.8002;1.1552;
-129.9000;0.8010;1.1602;
-129.6000;0.8018;1.1677;
-129.3000;0.8026;1.1652;
-129.0000;0.8010;1.1602;
-128.7000;0.8010;1.1627;
-128.4000;0.8034;1.1627;
-128.1000;0.8026;1.1602;
-127.8000;0.8026;1.1703;
-127.5000;0.8018;1.1753;
-127.2000;0.8026;1.1753;
-126.9000;0.8010;1.1728;
-126.6000;0.8018;1.1778;
-126.3000;0.8018;1.1778;
-126.0000;0.8042;1.1854;
-125.7000;0.8026;1.1828;
-125.4000;0.8010;1.1778;
-125.1000;0.8002;1.1703;
-124.8000;0.8002;1.1703;
-124.5000;0.8010;1.1728;
-124.2000;0.8010;1.1753;
-123.9000;0.8010;1.1854;
-123.6000;0.8034;1.1954;
-123.3000;0.8018;1.1979;
-123.0000;0.8034;1.1929;
-122.7000;0.8026;1.1778;
-122.4000;0.7993;1.1652;
-122.1000;0.8034;1.1728;
-121.8000;0.8018;1.1677;
-121.5000;0.8018;1.1677;
-121.2000;0.7977;1.1577;
-120.9000;0.8018;1.1703;
-120.6000;0.8002;1.1627;
-120.3000;0.8010;1.1627;
-120.0000;0.8002;1.1652;
-119.7000;0.8018;1.1728;
-119.4000;0.8010;1.1627;
-119.1000;0.8026;1.1627;
-118.8000;0.7977;1.1426;
-118.5000;0.8018;1.1627;
-118.2000;0.8018;1.1677;
-117.9000;0.8026;1.1677;
-117.6000;0.8018;1.1552;
-117.3000;0.8010;1.1552;
-117.0000;0.7977;1.1401;
-116.7000;0.7945;1.1250;
-116.4000;0.8002;1.1401;
-116.1000;0.8067;1.1652;
-115.8000;0.7993;1.1526;
-115.5000;0.8002;1.1577;
-115.2000;0.7993;1.1577;
-114.9000;0.7985;1.1552;
-114.6000;0.8002;1.1602;
-114.3000;0.8018;1.1703;
-114.0000;0.8034;1.1753;
-113.7000;0.7977;1.1703;
-113.4000;0.7993;1.1728;
-113.1000;0.8018;1.1753;
-112.8000;0.8026;1.1753;
-112.5000;0.8002;1.1728;
-112.2000;0.8026;1.1778;
-111.9000;0.8083;1.1929;
-111.6000;0.8018;1.1753;
-111.3000;0.7953;1.1577;
-111.0000;0.8010;1.1677;
-110.7000;0.8010;1.1652;
-110.4000;0.7953;1.1552;
-110.1000;0.8010;1.1652;
-109.8000;0.8002;1.1627;
-109.5000;0.8099;1.1753;
-109.2000;0.8018;1.1501;
-108.9000;0.8026;1.1552;
-108.6000;0.8010;1.1501;
-108.3000;0.8010;1.1577;
-108.0000;0.8010;1.1552;
-107.7000;0.8010;1.1526;
-107.4000;0.7985;1.1476;
-107.1000;0.8018;1.1476;
-106.8000;0.8002;1.1426;
-106.5000;0.8010;1.1552;
-106.2000;0.7993;1.1526;
-105.9000;0.8002;1.1476;
-105.6000;0.7993;1.1552;
-105.3000;0.8002;1.1577;
-105.0000;0.8018;1.1602;
-104.7000;0.8010;1.1677;
-104.4000;0.8026;1.1652;
-104.1000;0.7985;1.1677;
-103.8000;0.8010;1.1703;
-103.5000;0.8026;1.1803;
-103.2000;0.8010;1.1854;
-102.9000;0.8018;1.1879;
-102.6000;0.7993;1.1703;
-102.3000;0.7993;1.1728;
-102.0000;0.8002;1.1728;
-101.7000;0.8018;1.1854;
-101.4000;0.8002;1.1778;
-101.1000;0.7985;1.1879;
-100.8000;0.7993;1.1828;
-100.5000;0.8018;1.1753;
-100.2000;0.8002;1.1677;
-99.9000;0.8018;1.1728;
-99.6000;0.7985;1.1728;
-99.3000;0.8018;1.1854;
-99.0000;0.8018;1.1854;
-98.7000;0.8002;1.1778;
-98.4000;0.8010;1.1677;
-98.1000;0.8026;1.1627;
-97.8000;0.7993;1.1552;
-97.5000;0.8002;1.1627;
-97.2000;0.7993;1.1602;
-96.9000;0.7993;1.1602;
-96.6000;0.7993;1.1552;
-96.3000;0.8010;1.1652;
-96.0000;0.8018;1.1627;
-95.7000;0.7953;1.1526;
-95.4000;0.7961;1.1602;
-95.1000;0.8034;1.1728;
-94.8000;0.8083;1.1828;
-94.5000;0.7920;1.1476;
-94.2000;0.8034;1.1728;
-93.9000;0.8026;1.1703;
-93.6000;0.8018;1.1728;
-93.3000;0.8026;1.1652;
-93.0000;0.8026;1.1627;
-92.7000;0.8010;1.1627;
-92.4000;0.8018;1.1677;
-92.1000;0.8059;1.1803;
-91.8000;0.8002;1.1627;
-91.5000;0.8010;1.1677;
-91.2000;0.8018;1.1803;
-90.9000;0.7977;1.1602;
-90.6000;0.8010;1.1627;
-90.3000;0.7993;1.1602;
-90.0000;0.8002;1.1602;
-89.7000;0.8002;1.1552;
-89.4000;0.8002;1.1526;
-89.1000;0.8018;1.1476;
-88.8000;0.8026;1.1451;
-88.5000;0.8018;1.1451;
-88.2000;0.8026;1.1476;
-87.9000;0.8002;1.1501;
-87.6000;0.7985;1.1476;
-87.3000;0.8018;1.1602;
-87.0000;0.8002;1.1627;
-86.7000;0.8002;1.1552;
-86.4000;0.8018;1.1577;
-86.1000;0.8002;1.1451;
-85.8000;0.8059;1.1677;
-85.5000;0.8034;1.1602;
-85.2000;0.8010;1.1652;
-84.9000;0.8002;1.1703;
-84.6000;0.8010;1.1703;
-84.3000;0.8002;1.1677;
-84.0000;0.8026;1.1677;
-83.7000;0.8018;1.1627;
-83.4000;0.8018;1.1627;
-83.1000;0.8010;1.1602;
-82.8000;0.8018;1.1703;
-82.5000;0.7993;1.1627;
-82.2000;0.8010;1.1753;
-81.9000;0.8002;1.1703;
-81.6000;0.8018;1.1703;
-81.3000;0.8010;1.1577;
-81.0000;0.8010;1.1526;
-80.7000;0.8034;1.1602;
-80.4000;0.7993;1.1703;
-80.1000;0.8050;1.1828;
-79.8000;0.7993;1.1728;
-79.5000;0.7993;1.1703;
-79.2000;0.7969;1.1627;
-78.9000;0.8002;1.1728;
-78.6000;0.8067;1.1854;
-78.3000;0.8018;1.1778;
-78.0000;0.8026;1.1778;
-77.7000;0.7993;1.1677;
-77.4000;0.8010;1.1753;
-77.1000;0.8018;1.1652;
-76.8000;0.8002;1.1577;
-76.5000;0.7953;1.1501;
-76.2000;0.8010;1.1652;
-75.9000;0.8018;1.1778;
-75.6000;0.8010;1.1677;
-75.3000;0.8010;1.1778;
-75.0000;0.8010;1.1778;
-74.7000;0.8018;1.1778;
-74.4000;0.8002;1.1728;
-74.1000;0.8026;1.1753;
-73.8000;0.8042;1.1703;
-73.5000;0.8010;1.1677;
-73.2000;0.8010;1.1728;
-72.9000;0.8026;1.1627;
-72.6000;0.8018;1.1552;
-72.3000;0.8018;1.1501;
-72.0000;0.8002;1.1476;
-71.7000;0.7985;1.1451;
-71.4000;0.8010;1.1526;
-71.1000;0.8010;1.1552;
-70.8000;0.8002;1.1526;
-70.5000;0.7985;1.1552;
-70.2000;0.8010;1.1627;
-69.9000;0.8018;1.1627;
-69.6000;0.8018;1.1602;
-69.3000;0.7993;1.1526;
-69.0000;0.8010;1.1526;
-68.7000;0.8010;1.1426;
-68.4000;0.8010;1.1526;
-68.1000;0.7985;1.1501;
-67.8000;0.8010;1.1476;
-67.5000;0.8010;1.1501;
-67.2000;0.7985;1.1401;
-66.9000;0.7985;1.1401;
-66.6000;0.7993;1.1401;
-66.3000;0.8010;1.1476;
-66.0000;0.8010;1.1426;
-65.7000;0.7993;1.1325;
-65.4000;0.7985;1.1275;
-65.1000;0.7977;1.1224;
-64.8000;0.8010;1.1224;
-64.5000;0.8010;1.1250;
-64.2000;0.8010;1.1300;
-63.9000;0.7993;1.1275;
-63.6000;0.8010;1.1325;
-63.3000;0.8002;1.1451;
-63.0000;0.8002;1.1451;
-62.7000;0.8010;1.1375;
-62.4000;0.8010;1.1426;
-62.1000;0.8002;1.1426;
-61.8000;0.8010;1.1451;
-61.5000;0.7993;1.1401;
-61.2000;0.8075;1.1602;
-60.9000;0.8010;1.1426;
-60.6000;0.7977;1.1375;
-60.3000;0.7993;1.1426;
-60.0000;0.8010;1.1426;
-59.7000;0.8002;1.1451;
-59.4000;0.8010;1.1350;
-59.1000;0.7985;1.1375;
-58.8000;0.8002;1.1375;
-58.5000;0.8050;1.1552;
-58.2000;0.8002;1.1401;
-57.9000;0.8002;1.1426;
-57.6000;0.8010;1.1501;
-57.3000;0.8010;1.1476;
-57.0000;0.8018;1.1476;
-56.7000;0.8010;1.1426;
-56.4000;0.8010;1.1401;
-56.1000;0.8018;1.1401;
-55.8000;0.7985;1.1300;
-55.5000;0.8116;1.1728;
-55.2000;0.7961;1.1300;
-54.9000;0.8010;1.1350;
-54.6000;0.7985;1.1350;
-54.3000;0.8018;1.1426;
-54.0000;0.8002;1.1552;
-53.7000;0.8002;1.1552;
-53.4000;0.8034;1.1577;
-53.1000;0.8010;1.1577;
-52.8000;0.8010;1.1602;
-52.5000;0.8002;1.1552;
-52.2000;0.8002;1.1526;
-51.9000;0.8010;1.1526;
-51.6000;0.7993;1.1451;
-51.3000;0.7993;1.1476;
-51.0000;0.8018;1.1552;
-50.7000;0.7993;1.1577;
-50.4000;0.7977;1.1501;
-50.1000;0.8018;1.1627;
-49.8000;0.8010;1.1652;
-49.5000;0.8010;1.1577;
-49.2000;0.8002;1.1476;
-48.9000;0.8018;1.1501;
-48.6000;0.8018;1.1526;
-48.3000;0.8018;1.1526;
-48.0000;0.7993;1.1451;
-47.7000;0.8010;1.1501;
-47.4000;0.8059;1.1652;
-47.1000;0.8018;1.1577;
-46.8000;0.8018;1.1627;
-46.5000;0.8002;1.1577;
-46.2000;0.8002;1.1526;
-45.9000;0.8042;1.1552;
-45.6000;0.7993;1.1375;
-45.3000;0.8002;1.1426;
-45.0000;0.7993;1.1375;
-44.7000;0.8010;1.1451;
-44.4000;0.8083;1.1602;
-44.1000;0.8002;1.1375;
-43.8000;0.8026;1.1375;
-43.5000;0.8018;1.1375;
-43.2000;0.8010;1.1401;
-42.9000;0.7977;1.1375;
-42.6000;0.7993;1.1375;
-42.3000;0.8026;1.1451;
-42.0000;0.8018;1.1426;
-41.7000;0.7985;1.1300;
-41.4000;0.7985;1.1224;
-41.1000;0.7985;1.1250;
-40.8000;0.8010;1.1149;
-40.5000;0.8002;1.1124;
-40.2000;0.8002;1.1224;
-39.9000;0.8018;1.1375;
-39.6000;0.8026;1.1426;
-39.3000;0.7977;1.1325;
-39.0000;0.8010;1.1375;
-38.7000;0.8018;1.1401;
-38.4000;0.8002;1.1325;
-38.1000;0.8002;1.1375;
-37.8000;0.7993;1.1350;
-37.5000;0.8010;1.1375;
-37.2000;0.8018;1.1451;
-36.9000;0.8018;1.1501;
-36.6000;0.8034;1.1602;
-36.3000;0.7993;1.1602;
-36.0000;0.7993;1.1526;
-35.7000;0.8010;1.1426;
-35.4000;0.7993;1.1300;
-35.1000;0.8018;1.1401;
-34.8000;0.7985;1.1375;
-34.5000;0.8002;1.1451;
-34.2000;0.8050;1.1577;
-33.9000;0.8002;1.1501;
-33.6000;0.8026;1.1552;
-33.3000;0.8018;1.1552;
-33.0000;0.8018;1.1501;
-32.7000;0.8002;1.1426;
-32.4000;0.8010;1.1401;
-32.1000;0.8010;1.1325;
-31.8000;0.8026;1.1350;
-31.5000;0.8018;1.1350;
-31.2000;0.8083;1.1577;
-30.9000;0.8002;1.1426;
-30.6000;0.7985;1.1350;
-30.3000;0.8010;1.1451;
-30.0000;0.8042;1.1627;
-29.7000;0.7993;1.1552;
-29.4000;0.7993;1.1552;
-29.1000;0.7993;1.1526;
-28.8000;0.8002;1.1602;
-28.5000;0.8010;1.1577;
-28.2000;0.7993;1.1652;
-27.9000;0.7985;1.1552;
-27.6000;0.8018;1.1552;
-27.3000;0.7993;1.1501;
-27.0000;0.7985;1.1526;
-26.7000;0.8034;1.1627;
-26.4000;0.7985;1.1501;
-26.1000;0.7993;1.1451;
-25.8000;0.7985;1.1476;
-25.5000;0.7993;1.1501;
-25.2000;0.7985;1.1451;
-24.9000;0.7969;1.1375;
-24.6000;0.8018;1.1451;
-24.3000;0.7993;1.1426;
-24.0000;0.7985;1.1401;
-23.7000;0.8018;1.1451;
-23.4000;0.7993;1.1426;
-23.1000;0.8002;1.1401;
-22.8000;0.8010;1.1451;
-22.5000;0.7985;1.1325;
-22.2000;0.7985;1.1401;
-21.9000;0.7993;1.1375;
-21.6000;0.8002;1.1526;
-21.3000;0.7993;1.1526;
-21.0000;0.8002;1.1526;
-20.7000;0.8034;1.1677;
-20.4000;0.7993;1.1627;
-20.1000;0.8042;1.1703;
-19.8000;0.7993;1.1501;
-19.5000;0.8018;1.1602;
-19.2000;0.8067;1.1677;
-18.9000;0.8026;1.1602;
-18.6000;0.7985;1.1451;
-18.3000;0.8002;1.1577;
-18.0000;0.8018;1.1627;
-17.7000;0.8010;1.1577;
-17.4000;0.8002;1.1526;
-17.1000;0.8002;1.1526;
-16.8000;0.8010;1.1552;
-16.5000;0.7993;1.1552;
-16.2000;0.7993;1.1501;
-15.9000;0.7985;1.1501;
-15.6000;0.7993;1.1501;
-15.3000;0.8026;1.1401;
-15.0000;0.8002;1.1375;
-14.7000;0.8010;1.1350;
-14.4000;0.8018;1.1401;
-14.1000;0.7993;1.1350;
-13.8000;0.8002;1.1451;
-13.5000;0.8002;1.1451;
-13.2000;0.7985;1.1501;
-12.9000;0.8002;1.1627;
-12.6000;0.8018;1.1577;
-12.3000;0.7985;1.1627;
-12.0000;0.8010;1.1677;
-11.7000;0.8042;1.1728;
-11.4000;0.8002;1.1552;
-11.1000;0.8042;1.1501;
-10.8000;0.7993;1.1350;
-10.5000;0.7985;1.1325;
-10.2000;0.8010;1.1375;
-9.9000;0.8018;1.1350;
-9.6000;0.8010;1.1350;
-9.3000;0.8010;1.1300;
-9.0000;0.8059;1.1375;
-8.7000;0.8018;1.1350;
-8.4000;0.8026;1.1401;
-8.1000;0.8067;1.1602;
-7.8000;0.8018;1.1577;
-7.5000;0.8002;1.1501;
-7.2000;0.8002;1.1476;
-6.9000;0.8026;1.1501;
-6.6000;0.7977;1.1350;
-6.3000;0.8010;1.1325;
-6.0000;0.7993;1.1250;
-5.7000;0.7993;1.1325;
-5.4000;0.7985;1.1250;
-5.1000;0.7985;1.1300;
-4.8000;0.8018;1.1401;
-4.5000;0.7993;1.1300;
-4.2000;0.8002;1.1350;
-3.9000;0.8059;1.1350;
-3.6000;0.8018;1.1325;
-3.3000;0.8034;1.1325;
-3.0000;0.8010;1.1250;
-2.7000;0.8002;1.1300;
-2.4000;0.8091;1.1552;
-2.1000;0.7993;1.1325;
-1.8000;0.7993;1.1350;
-1.5000;0.8010;1.1501;
-1.2000;0.8002;1.1476;
-0.9000;0.8010;1.1501;
-0.6000;0.7993;1.1451;
-0.3000;0.7985;1.1476;
0.0000;0.7985;1.1476;
0.3000;0.8246;1.1375;
0.6000;0.8710;1.2281;
0.9000;0.9076;1.3112;
1.2000;0.9304;1.3817;
1.5000;0.9524;1.4446;
1.8000;0.9662;1.4924;
2.1000;0.9784;1.5327;
2.4000;0.9874;1.5629;
2.7000;0.9988;1.5931;
3.0000;1.0045;1.6208;
3.3000;1.0102;1.6308;
3.6000;1.0175;1.6510;
3.9000;1.0199;1.6510;
4.2000;1.0191;1.6484;
4.5000;1.0289;1.6686;
4.8000;1.0313;1.6812;
5.1000;1.0362;1.6862;
5.4000;1.0346;1.6862;
5.7000;1.0427;1.7088;
6.0000;1.0444;1.7088;
6.3000;1.0411;1.7063;
6.6000;1.0501;1.7290;
6.9000;1.0541;1.7315;
7.2000;1.0598;1.7541;
7.5000;1.0615;1.7567;
7.8000;1.0574;1.7365;
8.1000;1.0615;1.7340;
8.4000;1.0655;1.7390;
8.7000;1.0680;1.7390;
9.0000;1.0704;1.7491;
9.3000;1.0729;1.7416;
9.6000;1.0745;1.7441;
9.9000;1.0777;1.7315;
10.2000;1.0777;1.7265;
10.5000;1.0826;1.7265;
10.8000;1.0834;1.7340;
11.1000;1.0859;1.7390;
11.4000;1.0891;1.7466;
11.7000;1.0908;1.7340;
12.0000;1.0924;1.7340;
12.3000;1.0875;1.7139;
12.6000;1.0981;1.7365;
12.9000;1.1005;1.7290;
13.2000;1.1005;1.7189;
13.5000;1.1030;1.7265;
13.8000;1.1046;1.7265;
14.1000;1.1070;1.7340;
14.4000;1.1079;1.7315;
14.7000;1.1095;1.7290;
15.0000;1.1079;1.7290;
15.3000;1.1274;1.7743;
15.6000;1.1152;1.7340;
15.9000;1.1127;1.7189;
16.2000;1.1193;1.7265;
16.5000;1.1217;1.7214;
16.8000;1.1193;1.7088;
17.1000;1.1241;1.7189;
17.4000;1.1290;1.7315;
17.7000;1.1274;1.7340;
18.0000;1.1290;1.7390;
18.3000;1.1290;1.7290;
18.6000;1.1225;1.7063;
18.9000;1.1315;1.7340;
19.2000;1.1290;1.7164;
19.5000;1.1315;1.7164;
19.8000;1.1331;1.7088;
20.1000;1.1306;1.7063;
20.4000;1.1372;1.7265;
20.7000;1.1388;1.7139;
21.0000;1.1404;1.7139;
21.3000;1.1445;1.7315;
21.6000;1.1494;1.7441;
21.9000;1.1469;1.7290;
22.2000;1.1420;1.7114;
22.5000;1.1420;1.7139;
22.8000;1.1469;1.7189;
23.1000;1.1461;1.7063;
23.4000;1.1477;1.7038;
23.7000;1.1510;1.6963;
24.0000;1.1510;1.6988;
24.3000;1.1510;1.7038;
24.6000;1.1510;1.7164;
24.9000;1.1559;1.7164;
25.2000;1.1559;1.7088;
25.5000;1.1575;1.7114;
25.8000;1.1543;1.7088;
26.1000;1.1526;1.6963;
26.4000;1.1575;1.7063;
26.7000;1.1575;1.7139;
27.0000;1.1583;1.7214;
27.3000;1.1575;1.7214;
27.6000;1.1567;1.7114;
27.9000;1.1583;1.7063;
28.2000;1.1591;1.7038;
28.5000;1.1608;1.7063;
28.8000;1.1600;1.7164;
29.1000;1.1608;1.7164;
29.4000;1.1616;1.7139;
29.7000;1.1616;1.7139;
30.0000;1.1616;1.7013;
30.3000;1.1640;1.7088;
30.6000;1.1640;1.7013;
30.9000;1.1624;1.6988;
31.2000;1.1640;1.7063;
31.5000;1.1665;1.7063;
31.8000;1.1665;1.6937;
32.1000;1.1665;1.6937;
32.4000;1.1681;1.6912;
32.7000;1.1681;1.6912;
33.0000;1.1697;1.6912;
33.3000;1.1689;1.6887;
33.6000;1.1665;1.6736;
33.9000;1.1681;1.6786;
34.2000;1.1681;1.6786;
34.5000;1.1746;1.6988;
34.8000;1.1697;1.6887;
35.1000;1.1705;1.6937;
35.4000;1.1689;1.6862;
35.7000;1.1689;1.6862;
36.0000;1.1738;1.6963;
36.3000;1.1697;1.6937;
36.6000;1.1705;1.6912;
36.9000;1.1616;1.6635;
37.2000;1.1705;1.6862;
37.5000;1.1713;1.6887;
37.8000;1.1722;1.6887;
38.1000;1.1713;1.6862;
38.4000;1.1811;1.7063;
38.7000;1.1689;1.6786;
39.0000;1.1713;1.6862;
39.3000;1.1648;1.6610;
39.6000;1.1722;1.6887;
39.9000;1.1722;1.7013;
40.2000;1.1730;1.7063;
40.5000;1.1730;1.7038;
40.8000;1.1730;1.6912;
41.1000;1.1762;1.7013;
41.4000;1.1730;1.6862;
41.7000;1.1754;1.6988;
42.0000;1.1762;1.6988;
42.3000;1.1770;1.6963;
42.6000;1.1770;1.6988;
42.9000;1.1754;1.6963;
43.2000;1.1762;1.6963;
43.5000;1.1754;1.6862;
43.8000;1.1738;1.6761;
44.1000;1.1836;1.7063;
44.4000;1.1787;1.6912;
44.7000;1.1762;1.6887;
45.0000;1.1770;1.6812;
45.3000;1.1689;1.6661;
45.6000;1.1779;1.6988;
45.9000;1.1746;1.6837;
46.2000;1.1770;1.6862;
46.5000;1.1787;1.6812;
46.8000;1.1787;1.6912;
47.1000;1.1795;1.6963;
47.4000;1.1795;1.6912;
47.7000;1.1762;1.6761;
48.0000;1.1779;1.6837;
48.3000;1.1811;1.6862;
48.6000;1.1770;1.6736;
48.9000;1.1779;1.6686;
49.2000;1.1795;1.6686;
49.5000;1.1819;1.6786;
49.8000;1.1811;1.6711;
50.1000;1.1803;1.6661;
50.4000;1.1762;1.6635;
50.7000;1.1901;1.7088;
51.0000;1.1819;1.6862;
51.3000;1.1795;1.6736;
51.6000;1.1795;1.6761;
51.9000;1.1819;1.6786;
52.2000;1.1738;1.6686;
52.5000;1.1795;1.6736;
52.8000;1.1795;1.6686;
53.1000;1.1811;1.6661;
53.4000;1.1819;1.6635;
53.7000;1.1827;1.6635;
54.0000;1.1836;1.6635;
54.3000;1.1844;1.6661;
54.6000;1.1836;1.6610;
54.9000;1.1844;1.6585;
55.2000;1.1836;1.6585;
55.5000;1.1827;1.6610;
55.8000;1.1836;1.6560;
56.1000;1.1836;1.6635;
56.4000;1.1836;1.6686;
56.7000;1.1844;1.6711;
57.0000;1.1819;1.6585;
57.3000;1.1827;1.6585;
57.6000;1.1844;1.6585;
57.9000;1.1819;1.6535;
58.2000;1.1827;1.6434;
58.5000;1.1844;1.6560;
58.8000;1.1852;1.6560;
59.1000;1.1836;1.6560;
59.4000;1.1876;1.6736;
59.7000;1.1827;1.6635;
60.0000;1.1852;1.6711;
60.3000;1.1876;1.6736;
60.6000;1.1852;1.6661;
60.9000;1.1868;1.6686;
61.2000;1.1860;1.6686;
61.5000;1.1852;1.6661;
61.8000;1.1787;1.6459;
62.1000;1.1860;1.6635;
62.4000;1.1860;1.6535;
62.7000;1.1852;1.6510;
63.0000;1.1852;1.6510;
63.3000;1.1860;1.6484;
63.6000;1.1844;1.6459;
63.9000;1.1852;1.6560;
64.2000;1.1852;1.6535;
64.5000;1.1860;1.6459;
64.8000;1.1884;1.6510;
65.1000;1.1852;1.6308;
65.4000;1.1860;1.6333;
65.7000;1.1876;1.6459;
66.0000;1.1868;1.6484;
66.3000;1.1860;1.6459;
66.6000;1.1852;1.6510;
66.9000;1.1884;1.6661;
67.2000;1.1884;1.6610;
67.5000;1.1876;1.6610;
67.8000;1.1860;1.6560;
68.1000;1.1844;1.6510;
68.4000;1.1852;1.6484;
68.7000;1.1844;1.6484;
69.0000;1.1836;1.6484;
69.3000;1.1852;1.6484;
69.6000;1.1868;1.6484;
69.9000;1.1868;1.6484;
70.2000;1.1868;1.6560;
70.5000;1.1868;1.6585;
70.8000;1.1884;1.6635;
71.1000;1.1876;1.6635;
71.4000;1.1884;1.6585;
71.7000;1.1893;1.6510;
72.0000;1.1990;1.6610;
72.3000;1.1884;1.6283;
72.6000;1.1860;1.6182;
72.9000;1.1876;1.6208;
73.2000;1.2007;1.6459;
73.5000;1.1884;1.6182;
73.8000;1.1876;1.6182;
74.1000;1.1811;1.6031;
74.4000;1.1860;1.6157;
74.7000;1.1893;1.6333;
75.0000;1.1893;1.6333;
75.3000;1.1893;1.6333;
75.6000;1.1901;1.6308;
75.9000;1.1901;1.6258;
76.2000;1.1909;1.6258;
76.5000;1.1893;1.6359;
76.8000;1.1901;1.6409;
77.1000;1.1884;1.6384;
77.4000;1.1909;1.6409;
77.7000;1.1884;1.6384;
78.0000;1.1893;1.6333;
78.3000;1.1876;1.6359;
78.6000;1.1901;1.6434;
78.9000;1.1909;1.6409;
79.2000;1.1909;1.6384;
79.5000;1.1901;1.6333;
79.8000;1.1876;1.6283;
80.1000;1.1909;1.6384;
80.4000;1.1901;1.6434;
80.7000;1.1909;1.6434;
81.0000;1.1901;1.6359;
81.3000;1.1901;1.6434;
81.6000;1.1917;1.6484;
81.9000;1.1917;1.6434;
82.2000;1.1925;1.6409;
82.5000;1.1909;1.6333;
82.8000;1.1909;1.6384;
83.1000;1.1893;1.6308;
83.4000;1.1909;1.6258;
83.7000;1.1909;1.6208;
84.0000;1.1909;1.6157;
84.3000;1.1909;1.6182;
84.6000;1.1909;1.6182;
84.9000;1.1917;1.6157;
85.2000;1.1893;1.6132;
85.5000;1.1901;1.6157;
85.8000;1.1901;1.6182;
86.1000;1.1884;1.6208;
86.4000;1.1941;1.6233;
86.7000;1.1925;1.6208;
87.0000;1.1827;1.6031;
87.3000;1.1925;1.6308;
87.6000;1.1925;1.6359;
87.9000;1.1917;1.6308;
88.2000;1.1925;1.6308;
88.5000;1.1909;1.6233;
88.8000;1.1933;1.6233;
89.1000;1.1836;1.5880;
89.4000;1.1950;1.6182;
89.7000;1.1917;1.6006;
90.0000;1.1933;1.6031;
90.3000;1.1925;1.5956;
90.6000;1.1909;1.5855;
90.9000;1.1925;1.5855;
91.2000;1.1933;1.5880;
91.5000;1.1925;1.5830;
91.8000;1.1933;1.5805;
92.1000;1.1941;1.5729;
92.4000;1.1917;1.5679;
92.7000;1.1933;1.5830;
93.0000;1.1950;1.5906;
93.3000;1.1925;1.5880;
93.6000;1.1917;1.5855;
93.9000;1.1917;1.5855;
94.2000;1.1917;1.5830;
94.5000;1.1909;1.5729;
94.8000;1.1909;1.5780;
95.1000;1.1950;1.5956;
95.4000;1.1933;1.5906;
95.7000;1.1925;1.5855;
96.0000;1.1966;1.5956;
96.3000;1.1933;1.5780;
96.6000;1.1998;1.5981;
96.9000;1.2039;1.6132;
97.2000;1.1941;1.5830;
97.5000;1.1941;1.5830;
97.8000;1.1933;1.5931;
98.1000;1.1998;1.6082;
98.4000;1.1950;1.5880;
98.7000;1.1925;1.5931;
99.0000;1.1933;1.5906;
99.3000;1.1909;1.5830;
99.6000;1.1925;1.5981;
99.9000;1.1925;1.6057;
100.2000;1.1941;1.6107;
100.5000;1.1941;1.6157;
100.8000;1.1933;1.6157;
101.1000;1.1933;1.6057;
101.4000;1.1933;1.6031;
101.7000;1.1941;1.6031;
102.0000;1.1925;1.6082;
102.3000;1.1933;1.6057;
102.6000;1.1941;1.6107;
102.9000;1.1925;1.6031;
103.2000;1.1941;1.6082;
103.5000;1.1950;1.6082;
103.8000;1.1950;1.6057;
104.1000;1.1958;1.6157;
104.4000;1.1950;1.6157;
104.7000;1.1933;1.6006;
105.0000;1.1941;1.5981;
105.3000;1.1941;1.6006;
105.6000;1.1925;1.5855;
105.9000;1.1941;1.5805;
106.2000;1.1933;1.5805;
106.5000;1.1884;1.5578;
106.8000;1.1950;1.5755;
107.1000;1.1893;1.5604;
107.4000;1.1966;1.5855;
107.7000;1.1974;1.5906;
108.0000;1.1941;1.5805;
108.3000;1.1941;1.5780;
108.6000;1.1950;1.5729;
108.9000;1.1933;1.5755;
109.2000;1.1933;1.5855;
109.5000;1.1950;1.5906;
109.8000;1.1933;1.5906;
110.1000;1.1941;1.5805;
110.4000;1.1941;1.5805;
110.7000;1.1950;1.5855;
111.0000;1.1941;1.5855;
111.3000;1.1933;1.5830;
111.6000;1.1958;1.5880;
111.9000;1.1950;1.5805;
112.2000;1.1941;1.5830;
112.5000;1.1941;1.5780;
112.8000;1.1958;1.5805;
113.1000;1.1958;1.5830;
113.4000;1.1966;1.5880;
113.7000;1.1950;1.5880;
114.0000;1.1950;1.5755;
114.3000;1.1966;1.5780;
114.6000;1.1966;1.5755;
114.9000;1.1950;1.5755;
115.2000;1.1917;1.5729;
115.5000;1.1941;1.5830;
115.8000;1.1950;1.5830;
116.1000;1.1950;1.5830;
116.4000;1.1950;1.5855;
116.7000;1.1950;1.5830;
117.0000;1.1958;1.5906;
117.3000;1.1933;1.5805;
117.6000;1.1950;1.5855;
117.9000;1.1941;1.5855;
118.2000;1.1950;1.5755;
118.5000;1.1950;1.5654;
118.8000;1.1941;1.5654;
119.1000;1.2055;1.6057;
119.4000;1.1950;1.5805;
119.7000;1.1958;1.5780;
120.0000;1.1966;1.5830;
120.3000;1.1950;1.5780;
120.6000;1.1958;1.5805;
120.9000;1.1958;1.5805;
121.2000;1.1958;1.5780;
121.5000;1.1950;1.5755;
121.8000;1.1933;1.5729;
122.1000;1.1974;1.5880;
122.4000;1.1941;1.5880;
122.7000;1.2015;1.6057;
123.0000;1.1966;1.5931;
123.3000;1.1998;1.5931;
123.6000;1.2023;1.6006;
123.9000;1.1958;1.5805;
124.2000;1.1941;1.5880;
124.5000;1.1958;1.5981;
124.8000;1.1941;1.5981;
125.1000;1.1933;1.5880;
125.4000;1.1941;1.5855;
125.7000;1.1941;1.5931;
126.0000;1.1933;1.5906;
126.3000;1.1933;1.5981;
126.6000;1.1958;1.6057;
126.9000;1.1958;1.6006;
127.2000;1.1974;1.6057;
127.5000;1.1958;1.5956;
127.8000;1.2007;1.6057;
128.1000;1.1966;1.5880;
128.4000;1.1950;1.5880;
128.7000;1.1950;1.5855;
129.0000;1.1974;1.5805;
129.3000;1.2023;1.6006;
129.6000;1.1917;1.5780;
129.9000;1.2047;1.6132;
130.2000;1.1950;1.5931;
130.5000;1.1941;1.5830;
130.8000;1.1966;1.5855;
131.1000;1.2072;1.6082;
131.4000;1.1982;1.5855;
131.7000;1.1933;1.5780;
132.0000;1.1925;1.5704;
132.3000;1.1974;1.5931;
132.6000;1.1974;1.5981;
132.9000;1.1941;1.5880;
133.2000;1.1974;1.6006;
133.5000;1.1941;1.5981;
133.8000;1.1982;1.6057;
134.1000;1.1917;1.5855;
134.4000;1.1966;1.5880;
134.7000;1.1974;1.5906;
135.0000;1.1966;1.5880;
135.3000;1.2023;1.5956;
135.6000;1.1950;1.5805;
135.9000;1.1974;1.5755;
136.2000;1.1958;1.5729;
136.5000;1.1974;1.5729;
136.8000;1.1966;1.5654;
137.1000;1.1974;1.5780;
137.4000;1.1982;1.5780;
137.7000;1.1966;1.5729;
138.0000;1.1966;1.5830;
138.3000;1.1958;1.5855;
138.6000;1.1974;1.5855;
138.9000;1.1950;1.5780;
139.2000;1.1941;1.5755;
139.5000;1.1941;1.5780;
139.8000;1.1958;1.5780;
140.1000;1.1958;1.5704;
140.4000;1.1998;1.5755;
140.7000;1.1958;1.5604;
141.0000;1.1958;1.5604;
141.3000;1.1941;1.5629;
141.6000;1.1958;1.5755;
141.9000;1.1950;1.5679;
142.2000;1.1950;1.5629;
142.5000;1.1966;1.5578;
142.8000;1.1966;1.5553;
143.1000;1.1933;1.5503;
143.4000;1.1974;1.5704;
143.7000;1.1966;1.5679;
144.0000;1.1950;1.5654;
144.3000;1.1941;1.5654;
144.6000;1.1966;1.5679;
144.9000;1.1974;1.5679;
145.2000;1.1958;1.5654;
145.5000;1.1933;1.5528;
145.8000;1.1950;1.5578;
146.1000;1.1974;1.5629;
146.4000;1.1958;1.5553;
146.7000;1.1966;1.5478;
147.0000;1.1950;1.5478;
147.3000;1.1966;1.5453;
147.6000;1.2063;1.5679;
147.9000;1.1950;1.5478;
148.2000;1.1966;1.5503;
148.5000;1.1950;1.5427;
148.8000;1.1941;1.5453;
149.1000;1.1974;1.5553;
149.4000;1.1974;1.5553;
149.7000;1.1958;1.5629;
150.0000;1.1990;1.5679;
150.3000;1.1974;1.5729;
150.6000;1.1950;1.5755;
150.9000;1.1982;1.5780;
151.2000;1.1966;1.5729;
151.5000;1.1966;1.5780;
151.8000;1.1950;1.5755;
152.1000;1.1958;1.5855;
152.4000;1.1917;1.5755;
152.7000;1.1974;1.5931;
153.0000;1.1966;1.5880;
153.3000;1.1998;1.5906;
153.6000;1.1982;1.5855;
153.9000;1.1909;1.5654;
154.2000;1.1958;1.5805;
154.5000;1.1925;1.5729;
154.8000;1.1950;1.5755;
155.1000;1.1941;1.5805;
155.4000;1.1950;1.5629;
155.7000;1.1974;1.5654;
156.0000;1.1941;1.5578;
156.3000;1.1974;1.5679;
156.6000;1.1974;1.5654;
156.9000;1.1958;1.5654;
157.2000;1.1958;1.5679;
157.5000;1.2055;1.5981;
157.8000;1.1982;1.5805;
158.1000;1.1974;1.5729;
158.4000;1.1974;1.5780;
158.7000;1.1974;1.5906;
159.0000;1.1958;1.5855;
159.3000;1.1982;1.5880;
159.6000;1.1966;1.5855;
159.9000;1.1958;1.5830;
160.2000;1.1966;1.5931;
160.5000;1.1966;1.6031;
160.8000;1.1941;1.5981;
161.1000;1.2007;1.6082;
161.4000;1.1950;1.5981;
161.7000;1.1966;1.5931;
162.0000;1.1966;1.5931;
162.3000;1.1941;1.5906;
162.6000;1.1982;1.5981;
162.9000;1.2023;1.6057;
163.2000;1.1966;1.5880;
163.5000;1.1950;1.5855;
163.8000;1.1966;1.5880;
164.1000;1.1958;1.5830;
164.4000;1.1958;1.5729;
164.7000;1.1950;1.5704;
165.0000;1.1982;1.5654;
165.3000;1.1974;1.5654;
165.6000;1.1950;1.5654;
165.9000;1.1950;1.5755;
166.2000;1.1958;1.5780;
166.5000;1.1966;1.5755;
166.8000;1.1958;1.5654;
167.1000;1.1958;1.5679;
167.4000;1.1950;1.5704;
167.7000;1.1958;1.5704;
168.0000;1.1974;1.5780;
168.3000;1.2015;1.5956;
168.6000;1.1982;1.5830;
168.9000;1.1990;1.5906;
169.2000;1.1974;1.6031;
169.5000;1.1974;1.6006;
169.8000;1.1974;1.5981;
170.1000;1.1974;1.6006;
170.4000;1.1974;1.6006;
170.7000;1.1958;1.6006;
171.0000;1.1966;1.5981;
171.3000;1.1982;1.5931;
171.6000;1.1958;1.5830;
171.9000;1.1966;1.5780;
172.2000;1.2039;1.5931;
172.5000;1.1958;1.5855;
172.8000;1.1966;1.5805;
173.1000;1.1982;1.5906;
173.4000;1.1958;1.5855;
173.7000;1.1966;1.5830;
174.0000;1.1958;1.5906;
174.3000;1.1966;1.5880;
174.6000;1.1933;1.5855;
174.9000;1.1974;1.5931;
175.2000;1.1933;1.5830;
175.5000;1.1966;1.5780;
175.8000;1.1966;1.5755;
176.1000;1.1950;1.5679;
176.4000;1.1974;1.5729;
176.7000;1.1958;1.5704;
177.0000;1.1950;1.5704;
177.3000;1.1966;1.5830;
177.6000;1.1950;1.5780;
177.9000;1.1974;1.5906;
178.2000;1.1941;1.5830;
178.5000;1.1966;1.5981;
178.8000;1.1958;1.5855;
179.1000;1.1982;1.5830;
179.4000;1.1974;1.5855;
179.7000;1.1958;1.5805;
180.0000;1.1966;1.5830;
180.3000;1.1966;1.5805;
180.6000;1.1982;1.5830;
180.9000;1.1966;1.5755;
181.2000;1.1974;1.5855;
181.5000;1.1966;1.5855;
181.8000;1.1950;1.5906;
182.1000;1.2007;1.6031;
182.4000;1.1982;1.5981;
182.7000;1.1966;1.5906;
183.0000;1.1958;1.5855;
183.3000;1.1958;1.5780;
183.6000;1.1966;1.5755;
183.9000;1.1958;1.5855;
184.2000;1.1950;1.5855;
184.5000;1.1933;1.5830;
184.8000;1.1974;1.5956;
185.1000;1.1958;1.5931;
185.4000;1.1958;1.5906;
185.7000;1.1974;1.5880;
186.0000;1.1958;1.5880;
186.3000;1.1950;1.5880;
186.6000;1.1990;1.5956;
186.9000;1.2039;1.6107;
187.2000;1.1966;1.5880;
187.5000;1.1950;1.5855;
187.8000;1.1958;1.5906;
188.1000;1.1998;1.5981;
188.4000;1.1990;1.5931;
188.7000;1.1974;1.5855;
189.0000;1.1909;1.5654;
189.3000;1.1974;1.5805;
189.6000;1.1933;1.5629;
189.9000;1.1966;1.5679;
190.2000;1.1917;1.5629;
190.5000;1.2031;1.5855;
190.8000;1.2007;1.5755;
191.1000;1.1966;1.5679;
191.4000;1.1966;1.5679;
191.7000;1.1958;1.5654;
192.0000;1.1950;1.5604;
192.3000;1.1990;1.5704;
192.6000;1.1958;1.5679;
192.9000;1.1958;1.5654;
193.2000;1.1966;1.5704;
193.5000;1.1966;1.5830;
193.8000;1.1950;1.5855;
194.1000;1.1966;1.5931;
194.4000;1.1966;1.6057;
194.7000;1.1958;1.6057;
195.0000;1.1950;1.6031;
195.3000;1.1950;1.5981;
195.6000;1.1933;1.5906;
195.9000;1.1966;1.5931;
196.2000;1.1950;1.5880;
196.5000;1.1950;1.5805;
196.8000;1.1990;1.5931;
197.1000;1.1974;1.5906;
197.4000;1.1974;1.5880;
197.7000;1.1982;1.5830;
198.0000;1.1982;1.5880;
198.3000;1.1982;1.5906;
198.6000;1.1990;1.5981;
198.9000;1.1966;1.6057;
199.2000;1.1925;1.5956;
199.5000;1.2055;1.6182;
199.8000;1.1982;1.5981;
200.1000;1.1950;1.5931;
200.4000;1.1966;1.5931;
200.7000;1.1950;1.5906;
201.0000;1.1974;1.5855;
201.3000;1.1966;1.5755;
201.6000;1.1998;1.5830;
201.9000;1.1966;1.5729;
202.2000;1.1974;1.5729;
202.5000;1.1990;1.5704;
202.8000;1.1941;1.5553;
203.1000;1.1982;1.5729;
203.4000;1.2072;1.6031;
203.7000;1.2007;1.6031;
204.0000;1.1982;1.5906;
204.3000;1.1974;1.5956;
204.6000;1.1933;1.5880;
204.9000;1.1950;1.5981;
205.2000;1.1958;1.6031;
205.5000;1.1974;1.6031;
205.8000;1.1966;1.6006;
206.1000;1.1998;1.6182;
206.4000;1.1941;1.5981;
206.7000;1.1966;1.6006;
207.0000;1.1974;1.5956;
207.3000;1.1982;1.5956;
207.6000;1.1958;1.5855;
207.9000;1.1966;1.5780;
208.2000;1.1901;1.5578;
208.5000;1.1982;1.5830;
208.8000;1.1958;1.5855;
209.1000;1.1966;1.5729;
209.4000;1.1958;1.5629;
209.7000;1.1958;1.5679;
210.0000;1.1990;1.5906;
210.3000;1.1974;1.5880;
210.6000;1.1998;1.5805;
210.9000;1.1974;1.5780;
211.2000;1.1958;1.5755;
211.5000;1.1958;1.5755;
211.8000;1.1966;1.5755;
212.1000;1.1990;1.5805;
212.4000;1.1966;1.5780;
212.7000;1.1982;1.5830;
213.0000;1.1933;1.5629;
213.3000;1.1998;1.5780;
213.6000;1.1990;1.5830;
213.9000;1.1950;1.5654;
214.2000;1.1966;1.5679;
214.5000;1.1966;1.5755;
214.8000;1.2039;1.5906;
215.1000;1.1958;1.5780;
215.4000;1.1966;1.5830;
215.7000;1.1941;1.5780;
216.0000;1.1974;1.5830;
216.3000;1.1925;1.5729;
216.6000;1.1941;1.5780;
216.9000;1.1941;1.5805;
217.2000;1.2031;1.6006;
217.5000;1.1950;1.5830;
217.8000;1.1982;1.5906;
218.1000;1.1974;1.5981;
218.4000;1.1974;1.6082;
218.7000;1.1966;1.6031;
219.0000;1.1966;1.5981;
219.3000;1.1966;1.5956;
219.6000;1.1950;1.5880;
219.9000;1.1982;1.5931;
220.2000;1.1966;1.5906;
220.5000;1.1950;1.5855;
220.8000;1.1974;1.5855;
221.1000;1.1982;1.5931;
221.4000;1.1966;1.5906;
221.7000;1.1966;1.5880;
222.0000;1.1982;1.5880;
222.3000;1.2072;1.6031;
222.6000;1.1966;1.5855;
222.9000;1.1950;1.5855;
223.2000;1.1950;1.5880;
223.5000;1.1958;1.5931;
223.8000;1.1966;1.6006;
224.1000;1.1941;1.5956;
224.4000;1.1950;1.5981;
224.7000;1.1990;1.5956;
225.0000;1.1966;1.5956;
225.3000;1.2072;1.6233;
225.6000;1.1950;1.5981;
225.9000;1.1966;1.6057;
226.2000;1.1958;1.6031;
226.5000;1.1974;1.5981;
226.8000;1.1958;1.6006;
227.1000;1.1933;1.5880;
227.4000;1.1909;1.5805;
227.7000;1.1966;1.5981;
228.0000;1.1974;1.6006;
228.3000;1.1950;1.6006;
228.6000;1.1998;1.6031;
228.9000;1.1974;1.6057;
229.2000;1.1966;1.6082;
229.5000;1.1941;1.6006;
229.8000;1.1966;1.6132;
230.1000;1.1941;1.6182;
230.4000;1.1966;1.6157;
230.7000;1.1860;1.5805;
231.0000;1.1950;1.5931;
231.3000;1.1966;1.5880;
231.6000;1.1982;1.5931;
231.9000;1.1974;1.5956;
232.2000;1.1950;1.5981;
232.5000;1.1966;1.6057;
232.8000;1.2031;1.6233;
233.1000;1.1958;1.6031;
233.4000;1.1974;1.6031;
233.7000;1.2007;1.6057;
234.0000;1.1958;1.5956;
234.3000;1.1998;1.5931;
234.6000;1.1876;1.5528;
234.9000;1.1925;1.5755;
235.2000;1.1941;1.5855;
235.5000;1.1933;1.5880;
235.8000;1.1950;1.5931;
236.1000;1.1958;1.5956;
236.4000;1.1950;1.5830;
236.7000;1.1950;1.5780;
237.0000;1.1958;1.5805;
237.3000;1.1966;1.5805;
237.6000;1.1950;1.5780;
237.9000;1.1958;1.5780;
238.2000;1.1958;1.5830;
238.5000;1.1950;1.5880;
238.8000;1.2039;1.6057;
239.1000;1.1966;1.5855;
239.4000;1.1974;1.5855;
239.7000;1.1974;1.5880;
240.0000;1.1966;1.5906;
240.3000;1.1974;1.5855;
240.6000;1.1966;1.5880;
240.9000;1.1950;1.5880;
241.2000;1.1950;1.5855;
241.5000;1.1941;1.5906;
241.8000;1.1966;1.5981;
242.1000;1.1958;1.5931;
242.4000;1.1950;1.5830;
242.7000;1.1982;1.5805;
243.0000;1.1974;1.5704;
243.3000;1.1966;1.5654;
243.6000;1.1974;1.5729;
243.9000;1.1998;1.5755;
244.2000;1.1982;1.5729;
244.5000;1.1933;1.5553;
244.8000;1.1958;1.5578;
245.1000;1.1941;1.5604;
245.4000;1.2047;1.5906;
245.7000;1.1974;1.5830;
246.0000;1.1982;1.5855;
246.3000;1.2007;1.5981;
246.6000;1.1876;1.5654;
246.9000;1.1950;1.5755;
247.2000;1.1933;1.5855;
247.5000;1.1966;1.5931;
247.8000;1.1990;1.6031;
248.1000;1.1974;1.6006;
248.4000;1.1860;1.5679;
248.7000;1.1990;1.6082;
249.0000;1.1990;1.6082;
249.3000;1.1958;1.5981;
249.6000;1.1974;1.5956;
249.9000;1.2063;1.6208;
250.2000;1.1860;1.5755;
250.5000;1.1950;1.6031;
250.8000;1.1958;1.6006;
251.1000;1.1876;1.5755;
251.4000;1.1950;1.5931;
251.7000;1.1909;1.5805;
252.0000;1.1917;1.5805;
252.3000;1.1941;1.5931;
252.6000;1.1933;1.5830;
252.9000;1.1966;1.5906;
253.2000;1.1950;1.5906;
253.5000;1.1925;1.5880;
253.8000;1.1982;1.5956;
254.1000;1.1958;1.5981;
254.4000;1.1966;1.5981;
254.7000;1.1990;1.6057;
255.0000;1.1966;1.5981;
255.3000;1.1958;1.5981;
255.6000;1.1958;1.6057;
255.9000;1.1974;1.6057;
256.2000;1.1950;1.5981;
256.5000;1.1950;1.5981;
256.8000;1.1966;1.5956;
257.1000;1.1958;1.5931;
257.4000;1.1998;1.6057;
257.7000;1.1941;1.5931;
258.0000;1.1974;1.6031;
258.3000;1.1950;1.5956;
258.6000;1.1966;1.6057;
258.9000;1.1950;1.6082;
259.2000;1.1941;1.6057;
259.5000;1.1958;1.5956;
259.8000;1.1958;1.5906;
260.1000;1.1950;1.5855;
260.4000;1.1966;1.5805;
260.7000;1.1950;1.5780;
261.0000;1.1950;1.5679;
261.3000;1.2023;1.5880;
261.6000;1.1950;1.5704;
261.9000;1.1966;1.5729;
262.2000;1.1966;1.5805;
262.5000;1.1958;1.5729;
262.8000;1.1950;1.5805;
263.1000;1.1974;1.5931;
263.4000;1.1966;1.5931;
263.7000;1.1966;1.5981;
264.0000;1.1974;1.6006;
264.3000;1.1974;1.5981;
264.6000;1.1966;1.6031;
264.9000;1.1966;1.6157;
265.2000;1.1941;1.6082;
265.5000;1.1958;1.6132;
265.8000;1.1958;1.6132;
266.1000;1.1958;1.6031;
266.4000;1.1974;1.6031;
266.7000;1.1966;1.5956;
267.0000;1.1958;1.5931;
267.3000;1.1909;1.5780;
267.6000;1.1966;1.5855;
267.9000;1.1982;1.5906;
268.2000;1.1966;1.5906;
268.5000;1.1966;1.5906;
268.8000;1.1966;1.5956;
269.1000;1.1974;1.6057;
269.4000;1.1974;1.5981;
269.7000;1.1982;1.6057;
270.0000;1.1966;1.6031;
270.3000;1.1974;1.6006;
270.6000;1.1941;1.5981;
270.9000;1.1958;1.6006;
271.2000;1.1933;1.5981;
271.5000;1.1950;1.6031;
271.8000;1.1950;1.5956;
272.1000;1.1950;1.6057;
272.4000;1.1958;1.6182;
272.7000;1.1958;1.6233;
273.0000;1.1941;1.6208;
273.3000;1.1925;1.6157;
273.6000;1.1950;1.6082;
273.9000;1.1941;1.6057;
274.2000;1.1990;1.6132;
274.5000;1.1974;1.6006;
274.8000;1.1958;1.5981;
275.1000;1.1990;1.6107;
275.4000;1.1950;1.5956;
275.7000;1.1933;1.5931;
276.0000;1.1958;1.5956;
276.3000;1.1966;1.5855;
276.6000;1.1925;1.5755;
276.9000;1.1958;1.5906;
277.2000;1.1966;1.5981;
277.5000;1.2080;1.6258;
277.8000;1.1958;1.5956;
278.1000;1.1974;1.6006;
278.4000;1.1974;1.6006;
278.7000;1.1958;1.6006;
279.0000;1.1966;1.6006;
279.3000;1.1958;1.5880;
279.6000;1.1950;1.5956;
279.9000;1.1966;1.6082;
280.2000;1.1958;1.6006;
280.5000;1.1950;1.5906;
280.8000;1.1958;1.5931;
281.1000;1.1941;1.5805;
281.4000;1.1925;1.5805;
281.7000;1.1950;1.6006;
282.0000;1.1925;1.5906;
282.3000;1.1966;1.6006;
282.6000;1.1974;1.6057;
282.9000;1.1958;1.6057;
283.2000;1.1950;1.6157;
283.5000;1.1950;1.6182;
283.8000;1.1958;1.6208;
284.1000;1.1966;1.6082;
284.4000;1.1941;1.6031;
284.7000;1.1950;1.6132;
285.0000;1.1958;1.6057;
285.3000;1.1901;1.5880;
285.6000;1.1958;1.6006;
285.9000;1.1933;1.5906;
286.2000;1.1974;1.6057;
286.5000;1.1950;1.6132;
286.8000;1.1950;1.6157;
287.1000;1.1958;1.6258;
287.4000;1.1950;1.6208;
287.7000;1.1958;1.6132;
288.0000;1.1966;1.6132;
288.3000;1.1925;1.6157;
288.6000;1.1990;1.6258;
288.9000;1.1958;1.6208;
289.2000;1.1966;1.6182;
289.5000;1.1958;1.6057;
289.8000;1.1982;1.6082;
290.1000;1.1974;1.6082;
290.4000;1.1950;1.6157;
290.7000;1.1941;1.6208;
291.0000;1.1941;1.6082;
291.3000;1.1950;1.5956;
291.6000;1.1958;1.5931;
291.9000;1.1950;1.5956;
292.2000;1.1958;1.6006;
292.5000;1.1966;1.6107;
292.8000;1.1950;1.6107;
293.1000;1.1941;1.6157;
293.4000;1.1958;1.6233;
293.7000;1.1958;1.6157;
294.0000;1.1958;1.6107;
294.3000;1.1966;1.6006;
294.6000;1.1950;1.6031;
294.9000;1.1974;1.6107;
295.2000;1.1966;1.6182;
295.5000;1.1941;1.6082;
295.8000;1.1966;1.6057;
296.1000;1.1941;1.6082;
296.4000;1.1950;1.6107;
296.7000;1.1958;1.6057;
297.0000;1.1950;1.6006;
297.3000;1.1941;1.6006;
297.6000;1.1966;1.6132;
297.9000;1.1925;1.6182;
298.2000;1.1950;1.6258;
298.5000;1.1958;1.6308;
298.8000;1.1941;1.6283;
299.1000;1.1933;1.6283;
299.4000;1.1950;1.6359;
299.7000;1.1925;1.6359;
300.0000;1.1958;1.6384;
300.3000;1.1925;1.6233;
300.6000;1.1950;1.6308;
300.9000;1.1941;1.6258;
301.2000;1.1958;1.6258;
301.5000;1.1958;1.6208;
301.8000;1.1966;1.6258;
302.1000;1.1933;1.6258;
302.4000;1.1966;1.6333;
302.7000;1.1966;1.6333;
303.0000;1.1958;1.6233;
303.3000;1.1966;1.6132;
303.6000;1.1966;1.6107;
303.9000;1.1958;1.6006;
304.2000;1.1966;1.6031;
304.5000;1.1950;1.6006;
304.8000;1.1958;1.6031;
305.1000;1.1950;1.6057;
305.4000;1.1974;1.6107;
305.7000;1.1941;1.6082;
306.0000;1.1958;1.6132;
306.3000;1.1974;1.6157;
306.6000;1.1958;1.6157;
306.9000;1.1941;1.6132;
307.2000;1.1982;1.6258;
307.5000;1.1958;1.6157;
307.8000;1.1966;1.6182;
308.1000;1.1950;1.6182;
308.4000;1.1958;1.6208;
308.7000;1.1933;1.6157;
309.0000;1.1958;1.6283;
309.3000;1.1950;1.6258;
309.6000;1.1950;1.6258;
309.9000;1.1950;1.6258;
310.2000;1.1966;1.6233;
310.5000;1.1933;1.6132;
310.8000;1.1917;1.6057;
311.1000;1.1933;1.6107;
311.4000;1.1933;1.6132;
311.7000;1.1974;1.6208;
312.0000;1.1941;1.6233;
312.3000;1.1998;1.6359;
312.6000;1.1966;1.6208;
312.9000;1.1958;1.6157;
313.2000;1.1950;1.6157;
313.5000;1.1950;1.6132;
313.8000;1.1966;1.6233;
314.1000;1.1950;1.6233;
314.4000;1.1941;1.6283;
314.7000;1.1958;1.6283;
315.0000;1.1941;1.6233;
315.3000;1.1958;1.6208;
315.6000;1.1941;1.6233;
315.9000;1.1941;1.6107;
316.2000;1.1958;1.6082;
316.5000;1.1933;1.6006;
316.8000;1.1941;1.6031;
317.1000;1.1933;1.6082;
317.4000;1.1901;1.5906;
317.7000;1.2007;1.6208;
318.0000;1.1958;1.6107;
318.3000;1.1941;1.6006;
318.6000;1.1933;1.6082;
318.9000;1.1950;1.6057;
319.2000;1.1974;1.6082;
319.5000;1.1941;1.6031;
319.8000;1.1941;1.6132;
320.1000;1.1933;1.6006;
320.4000;1.1982;1.6208;
320.7000;1.1941;1.6132;
321.0000;1.1941;1.6182;
321.3000;1.1950;1.6208;
321.6000;1.1941;1.6182;
321.9000;1.1941;1.6107;
322.2000;1.1958;1.6107;
322.5000;1.1941;1.6006;
322.8000;1.1950;1.5956;
323.1000;1.1974;1.5956;
323.4000;1.1950;1.5981;
323.7000;1.1941;1.6006;
324.0000;1.1933;1.5906;
324.3000;1.1958;1.6006;
324.6000;1.1966;1.6107;
324.9000;1.1950;1.6082;
325.2000;1.1958;1.6107;
325.5000;1.1950;1.6107;
325.8000;1.1950;1.6082;
326.1000;1.1966;1.6082;
326.4000;1.1941;1.5981;
326.7000;1.1982;1.6157;
327.0000;1.1950;1.6157;
327.3000;1.1966;1.6157;
327.6000;1.1950;1.6082;
327.9000;1.1958;1.6107;
328.2000;1.1966;1.6082;
328.5000;1.1933;1.5981;
328.8000;1.1950;1.6006;
329.1000;1.1950;1.5981;
329.4000;1.1974;1.6006;
329.7000;1.1966;1.6031;
330.0000;1.1933;1.5906;
330.3000;1.1982;1.6031;
330.6000;1.1966;1.6031;
330.9000;1.1917;1.5956;
331.2000;1.1933;1.6057;
331.5000;1.1933;1.6057;
331.8000;1.1941;1.6107;
332.1000;1.1950;1.6157;
332.4000;1.1958;1.6208;
332.7000;1.1941;1.6208;
333.0000;1.1958;1.6208;
333.3000;1.1950;1.6208;
333.6000;1.1950;1.6333;
333.9000;1.1933;1.6258;
334.2000;1.1950;1.6233;
334.5000;1.1941;1.6182;
334.8000;1.1958;1.6182;
335.1000;1.1941;1.6107;
335.4000;1.1998;1.6157;
335.7000;1.1950;1.6006;
336.0000;1.1941;1.6057;
336.3000;1.1966;1.6132;
336.6000;1.1958;1.6057;
336.9000;1.1966;1.6031;
337.2000;1.1950;1.5981;
337.5000;1.1941;1.5956;
337.8000;1.1941;1.6006;
338.1000;1.1950;1.5981;
338.4000;1.1966;1.6057;
338.7000;1.1933;1.6006;
339.0000;1.1941;1.6006;
339.3000;1.1941;1.5981;
339.6000;1.1868;1.5830;
339.9000;1.1990;1.6132;
340.2000;1.1933;1.6006;
340.5000;1.1966;1.6006;
340.8000;1.1852;1.5805;
341.1000;1.1925;1.6057;
341.4000;1.1950;1.6057;
341.7000;1.1950;1.6082;
342.0000;1.1925;1.5981;
342.3000;1.2055;1.6359;
342.6000;1.1941;1.6031;
342.9000;1.1950;1.6057;
343.2000;1.1941;1.6082;
343.5000;1.1974;1.6132;
343.8000;1.1893;1.5981;
344.1000;1.1933;1.6107;
344.4000;1.1933;1.6157;
344.7000;1.1884;1.6082;
345.0000;1.1901;1.6082;
345.3000;1.1941;1.6233;
345.6000;1.1933;1.6208;
345.9000;1.1958;1.6258;
346.2000;1.1811;1.5906;
346.5000;1.1941;1.6208;
346.8000;1.1933;1.6258;
347.1000;1.1941;1.6233;
347.4000;1.1941;1.6233;
347.7000;1.1941;1.6283;
348.0000;1.1941;1.6283;
348.3000;1.1990;1.6308;
348.6000;1.1950;1.6208;
348.9000;1.1933;1.6132;
349.2000;1.1958;1.6208;
349.5000;1.1958;1.6233;
349.8000;1.2015;1.6434;
350.1000;1.1941;1.6182;
350.4000;1.1958;1.6258;
350.7000;1.1941;1.6182;
351.0000;1.1950;1.6283;
351.3000;1.1941;1.6208;
351.6000;1.1925;1.6132;
351.9000;1.1958;1.6208;
352.2000;1.1974;1.6132;
352.5000;1.1958;1.6107;
352.8000;1.1950;1.6157;
353.1000;1.1941;1.6182;
353.4000;1.1966;1.6182;
353.7000;1.1974;1.6258;
354.0000;1.1950;1.6157;
354.3000;1.1933;1.6031;
354.6000;1.1860;1.5830;
354.9000;1.1933;1.6082;
355.2000;1.1925;1.6107;
355.5000;1.1950;1.6157;
355.8000;1.1966;1.6208;
356.1000;1.1950;1.6132;
356.4000;1.1925;1.6107;
356.7000;1.1925;1.6107;
357.0000;1.1933;1.6182;
357.3000;1.1941;1.6057;
357.6000;1.1941;1.6182;
357.9000;1.1917;1.6107;
358.2000;1.1925;1.6208;
358.5000;1.1958;1.6208;
358.8000;1.1933;1.6132;
359.1000;1.1941;1.6157;
359.4000;1.1982;1.6157;
359.7000;1.1950;1.6057;
360.0000;1.1998;1.6082;
360.3000;1.1941;1.6006;
360.6000;1.1941;1.6031;
360.9000;1.1925;1.5956;
361.2000;1.1941;1.6031;
361.5000;1.1941;1.6006;
361.8000;1.1925;1.5956;
362.1000;1.1925;1.5906;
362.4000;1.1974;1.6107;
362.7000;1.1917;1.6082;
363.0000;1.1933;1.6107;
363.3000;1.1933;1.6132;
363.6000;1.1958;1.6157;
363.9000;1.1909;1.6082;
364.2000;1.1933;1.6157;
364.5000;1.1909;1.6082;
364.8000;1.1966;1.6157;
365.1000;1.1941;1.6132;
365.4000;1.1998;1.6258;
365.7000;1.1933;1.6157;
366.0000;1.1950;1.6157;
366.3000;1.1941;1.6182;
366.6000;1.1860;1.5956;
366.9000;1.1950;1.6157;
367.2000;1.1933;1.6132;
367.5000;1.1950;1.6132;
367.8000;1.2007;1.6258;
368.1000;1.1941;1.6082;
368.4000;1.1933;1.6031;
368.7000;1.1958;1.6082;
369.0000;1.1941;1.6082;
369.3000;1.1941;1.6057;
369.6000;1.1941;1.6157;
369.9000;1.1941;1.6182;
370.2000;1.1884;1.5981;
370.5000;1.1941;1.6182;
370.8000;1.1950;1.6157;
371.1000;1.1933;1.6082;
371.4000;1.1941;1.6107;
371.7000;1.1958;1.6107;
372.0000;1.1917;1.5981;
372.3000;1.1819;1.5780;
372.6000;1.1941;1.6031;
372.9000;1.1933;1.6006;
373.2000;1.2007;1.6157;
373.5000;1.1925;1.5981;
373.8000;1.1966;1.6182;
374.1000;1.1941;1.6107;
374.4000;1.1917;1.5981;
374.7000;1.1958;1.6082;
375.0000;1.1950;1.6082;
375.3000;1.1950;1.6057;
375.6000;1.1950;1.6031;
375.9000;1.1941;1.5956;
376.2000;1.1941;1.5880;
376.5000;1.1941;1.5830;
376.8000;1.1917;1.5805;
377.1000;1.1958;1.5880;
377.4000;1.1933;1.5931;
377.7000;1.1941;1.5956;
378.0000;1.1933;1.5956;
378.3000;1.1925;1.5931;
378.6000;1.1950;1.5956;
378.9000;1.1803;1.5604;
379.2000;1.1950;1.6006;
379.5000;1.1893;1.5906;
379.8000;1.1933;1.6132;
380.1000;1.1893;1.6107;
380.4000;1.1860;1.6132;
380.7000;1.1925;1.6308;
381.0000;1.1901;1.6157;
381.3000;1.1941;1.6208;
381.6000;1.1933;1.6107;
381.9000;1.1933;1.6132;
382.2000;1.1917;1.6233;
382.5000;1.1933;1.6258;
382.8000;1.1941;1.6308;
383.1000;1.1925;1.6258;
383.4000;1.1901;1.6157;
383.7000;1.1901;1.6107;
384.0000;1.1950;1.6182;
384.3000;1.1941;1.6082;
384.6000;1.1933;1.6057;
384.9000;1.1941;1.6057;
385.2000;1.1925;1.6132;
385.5000;1.1925;1.6107;
385.8000;1.1933;1.6082;
386.1000;1.1917;1.6006;
386.4000;1.1941;1.5906;
386.7000;1.1941;1.5830;
387.0000;1.1941;1.5805;
387.3000;1.1917;1.5780;
387.6000;1.1860;1.5629;
387.9000;1.1917;1.5855;
388.2000;1.1933;1.5855;
388.5000;1.1950;1.6006;
388.8000;1.1909;1.5906;
389.1000;1.1958;1.5880;
389.4000;1.1933;1.5906;
389.7000;1.1950;1.5956;
390.0000;1.1925;1.5906;
390.3000;1.2055;1.6208;
390.6000;1.1884;1.5906;
390.9000;1.1933;1.6132;
391.2000;1.1941;1.6182;
391.5000;1.1950;1.6233;
391.8000;1.1893;1.6057;
392.1000;1.1933;1.6182;
392.4000;1.1933;1.6157;
392.7000;1.1909;1.6057;
393.0000;1.1966;1.6233;
393.3000;1.1933;1.6107;
393.6000;1.1933;1.6132;
393.9000;1.1933;1.6233;
394.2000;1.1917;1.6157;
394.5000;1.1917;1.6107;
394.8000;1.1917;1.6082;
395.1000;1.1933;1.6031;
395.4000;1.1933;1.6157;
395.7000;1.1925;1.6082;
396.0000;1.1933;1.6057;
396.3000;1.1852;1.5855;
396.6000;1.1884;1.5805;
396.9000;1.1950;1.6057;
397.2000;1.1982;1.6258;
397.5000;1.1933;1.6082;
397.8000;1.1933;1.6057;
398.1000;1.1966;1.6031;
398.4000;1.1941;1.5956;
398.7000;1.1925;1.5956;
399.0000;1.1941;1.6006;
399.3000;1.1950;1.6031;
399.6000;1.1950;1.6057;
399.9000;1.1950;1.6031;
400.2000;1.1909;1.6031;
400.5000;1.2007;1.6258;
400.8000;1.1941;1.6057;
401.1000;1.1950;1.6107;
401.4000;1.1925;1.6057;
401.7000;1.1966;1.6182;
402.0000;1.1933;1.6082;
402.3000;1.1933;1.6057;
402.6000;1.1933;1.6057;
402.9000;1.1950;1.6082;
403.2000;1.1876;1.5931;
403.5000;1.1958;1.6157;
403.8000;1.1933;1.6057;
404.1000;1.2015;1.6434;
404.4000;1.1933;1.6258;
404.7000;1.1909;1.6333;
405.0000;1.1941;1.6359;
405.3000;1.1941;1.6359;
405.6000;1.1982;1.6409;
405.9000;1.2015;1.6409;
406.2000;1.1933;1.6107;
406.5000;1.1901;1.5906;
406.8000;1.1950;1.6031;
407.1000;1.1868;1.5880;
407.4000;1.1933;1.6107;
407.7000;1.1933;1.6157;
408.0000;1.1933;1.6182;
408.3000;1.1941;1.6208;
408.6000;1.1966;1.6208;
408.9000;1.1933;1.6107;
409.2000;1.1950;1.6182;
409.5000;1.1974;1.6308;
409.8000;1.1941;1.6208;
410.1000;1.1950;1.6233;
410.4000;1.1925;1.6132;
410.7000;1.1941;1.6107;
411.0000;1.1925;1.6157;
411.3000;1.1925;1.6182;
411.6000;1.1925;1.6182;
411.9000;1.1950;1.6258;
412.2000;1.1925;1.6157;
412.5000;1.1933;1.6157;
412.8000;1.1941;1.6233;
413.1000;1.1925;1.6208;
413.4000;1.1925;1.6258;
413.7000;1.1868;1.6082;
414.0000;1.1909;1.6233;
414.3000;1.1941;1.6258;
414.6000;1.1974;1.6333;
414.9000;1.1925;1.6157;
415.2000;1.1844;1.5981;
415.5000;1.1925;1.6107;
415.8000;1.1941;1.6082;
416.1000;1.1950;1.6157;
416.4000;1.1917;1.6107;
416.7000;1.1925;1.6157;
417.0000;1.1941;1.6182;
417.3000;1.1933;1.6208;
417.6000;1.1990;1.6409;
417.9000;1.1933;1.6258;
418.2000;1.1925;1.6208;
418.5000;1.1941;1.6258;
418.8000;1.1925;1.6208;
419.1000;1.1917;1.6233;
419.4000;1.1925;1.6333;
419.7000;1.1901;1.6233;
420.0000;1.1925;1.6333;
420.3000;1.1933;1.6434;
420.6000;1.1933;1.6333;
420.9000;1.1933;1.6333;
421.2000;1.1925;1.6308;
421.5000;1.1941;1.6233;
421.8000;1.1933;1.6258;
422.1000;1.1941;1.6182;
422.4000;1.1966;1.6308;
422.7000;1.1901;1.6258;
423.0000;1.1933;1.6359;
423.3000;1.1909;1.6132;
423.6000;1.1933;1.6132;
423.9000;1.1941;1.6182;
424.2000;1.1933;1.6258;
424.5000;1.1950;1.6333;
424.8000;1.1950;1.6409;
425.1000;1.1933;1.6434;
425.4000;1.1925;1.6409;
425.7000;1.1933;1.6359;
426.0000;1.1925;1.6283;
426.3000;1.1933;1.6258;
426.6000;1.1917;1.6107;
426.9000;1.1950;1.6258;
427.2000;1.2023;1.6560;
427.5000;1.1925;1.6409;
427.8000;1.1925;1.6308;
428.1000;1.1941;1.6359;
428.4000;1.1917;1.6409;
428.7000;1.1941;1.6409;
429.0000;1.1950;1.6585;
429.3000;1.1893;1.6384;
429.6000;1.1917;1.6510;
429.9000;1.1925;1.6510;
430.2000;1.1941;1.6484;
430.5000;1.1925;1.6459;
430.8000;1.1941;1.6484;
431.1000;1.1941;1.6409;
431.4000;1.1933;1.6384;
431.7000;1.1917;1.6283;
432.0000;1.1917;1.6258;
432.3000;1.1941;1.6359;
432.6000;1.1925;1.6409;
432.9000;1.1917;1.6308;
433.2000;1.1933;1.6434;
433.5000;1.1925;1.6510;
433.8000;1.1933;1.6560;
434.1000;1.1917;1.6459;
434.4000;1.1941;1.6409;
434.7000;1.1917;1.6308;
435.0000;1.1974;1.6434;
435.3000;1.1933;1.6308;
435.6000;1.1925;1.6308;
435.9000;1.1917;1.6208;
436.2000;1.1925;1.6258;
436.5000;1.1901;1.6107;
436.8000;1.1909;1.6157;
437.1000;1.1974;1.6333;
437.4000;1.1925;1.6258;
437.7000;1.2031;1.6560;
438.0000;1.1893;1.6208;
438.3000;1.1917;1.6308;
438.6000;1.1941;1.6434;
438.9000;1.1925;1.6359;
439.2000;1.1950;1.6484;
439.5000;1.1933;1.6459;
439.8000;1.1941;1.6459;
440.1000;1.1941;1.6359;
440.4000;1.1933;1.6308;
440.7000;1.2031;1.6585;
441.0000;1.2015;1.6560;
441.3000;1.1925;1.6409;
441.6000;1.1901;1.6308;
441.9000;1.1917;1.6283;
442.2000;1.1909;1.6258;
442.5000;1.1982;1.6333;
442.8000;1.1827;1.5981;
443.1000;1.1917;1.6233;
443.4000;1.1933;1.6308;
443.7000;1.2063;1.6610;
444.0000;1.1925;1.6258;
444.3000;1.1917;1.6333;
444.6000;1.1933;1.6434;
444.9000;1.1933;1.6409;
445.2000;1.1925;1.6283;
445.5000;1.1909;1.6208;
445.8000;1.1909;1.6233;
446.1000;1.1925;1.6233;
446.4000;1.1925;1.6258;
446.7000;1.1925;1.6333;
447.0000;1.1933;1.6283;
447.3000;1.1917;1.6208;
447.6000;1.1917;1.6157;
447.9000;1.1917;1.6157;
448.2000;1.1917;1.6157;
448.5000;1.1925;1.6057;
448.8000;1.1933;1.6082;
449.1000;1.1933;1.6132;
449.4000;1.1917;1.6107;
449.7000;1.1933;1.6208;
450.0000;1.1950;1.6333;
450.3000;1.1893;1.6208;
450.6000;1.1909;1.6208;
450.9000;1.1884;1.6031;
451.2000;1.1893;1.6107;
451.5000;1.1925;1.6258;
451.8000;1.1909;1.6283;
452.1000;1.1982;1.6409;
452.4000;1.1917;1.6208;
452.7000;1.1925;1.6283;
453.0000;1.1917;1.6258;
453.3000;1.1941;1.6283;
453.6000;1.1901;1.6182;
453.9000;1.1925;1.6258;
454.2000;1.1933;1.6233;
454.5000;1.1941;1.6308;
454.8000;1.1933;1.6258;
455.1000;1.1909;1.6208;
455.4000;1.1941;1.6233;
455.7000;1.1933;1.6233;
456.0000;1.1958;1.6308;
456.3000;1.1925;1.6308;
456.6000;1.1982;1.6409;
456.9000;1.1868;1.6107;
457.2000;1.1917;1.6258;
457.5000;1.1925;1.6233;
457.8000;1.1917;1.6258;
458.1000;1.1909;1.6283;
458.4000;1.1925;1.6208;
458.7000;1.1950;1.6208;
459.0000;1.1974;1.6333;
459.3000;1.1933;1.6233;
459.6000;1.1933;1.6157;
459.9000;1.1941;1.6208;
460.2000;1.1990;1.6258;
460.5000;1.1925;1.6006;
460.8000;1.1909;1.5981;
461.1000;1.1917;1.6082;
461.4000;1.1933;1.6031;
461.7000;1.1787;1.5704;
462.0000;1.1941;1.6132;
462.3000;1.1909;1.6057;
462.6000;1.1941;1.6208;
462.9000;1.1925;1.6258;
463.2000;1.1941;1.6384;
463.5000;1.1950;1.6333;
463.8000;1.1925;1.6258;
464.1000;1.1933;1.6233;
464.4000;1.1909;1.6233;
464.7000;1.1941;1.6283;
465.0000;1.1909;1.6082;
465.3000;1.2007;1.6283;
465.6000;1.1933;1.6082;
465.9000;1.1941;1.6082;
466.2000;1.1893;1.6082;
466.5000;1.1933;1.6107;
466.8000;1.1933;1.6157;
467.1000;1.1893;1.6082;
467.4000;1.1909;1.6031;
467.7000;1.1901;1.6031;
468.0000;1.1901;1.6006;
468.3000;1.1917;1.5981;
468.6000;1.1893;1.5956;
468.9000;1.1917;1.5906;
469.2000;1.1917;1.5906;
469.5000;1.1933;1.5956;
469.8000;1.1917;1.5931;
470.1000;1.1925;1.5906;
470.4000;1.1925;1.5956;
470.7000;1.1925;1.5956;
471.0000;1.1925;1.6006;
471.3000;1.1941;1.6057;
471.6000;1.1925;1.6082;
471.9000;1.1917;1.6057;
472.2000;1.1917;1.6132;
472.5000;1.1893;1.6107;
472.8000;1.1917;1.6132;
473.1000;1.1884;1.6006;
473.4000;1.1917;1.5956;
473.7000;1.1909;1.5956;
474.0000;1.1925;1.6031;
474.3000;1.1901;1.6107;
474.6000;1.1990;1.6308;
474.9000;1.1933;1.6182;
475.2000;1.1917;1.6132;
475.5000;1.1925;1.6057;
475.8000;1.1901;1.6031;
476.1000;1.1941;1.6107;
476.4000;1.1925;1.6082;
476.7000;1.1917;1.6082;
477.0000;1.2007;1.6283;
477.3000;1.1917;1.6057;
477.6000;1.1925;1.6031;
477.9000;1.1893;1.5981;
478.2000;1.1925;1.5981;
478.5000;1.1917;1.5880;
478.8000;1.1925;1.5931;
479.1000;1.1925;1.6006;
479.4000;1.1917;1.6082;
479.7000;1.1925;1.6132;
480.0000;1.1933;1.6132;
480.3000;1.1941;1.6057;
480.6000;1.1844;1.5780;
480.9000;1.1884;1.5855;
481.2000;1.1925;1.5855;
481.5000;1.1933;1.5906;
481.8000;1.1884;1.5830;
482.1000;1.1917;1.5880;
482.4000;1.1917;1.5931;
482.7000;1.1884;1.5855;
483.0000;1.1917;1.5981;
483.3000;1.1901;1.5906;
483.6000;1.1901;1.5931;
483.9000;1.1950;1.6031;
484.2000;1.1909;1.5956;
484.5000;1.1917;1.6006;
484.8000;1.1909;1.5956;
485.1000;1.1941;1.6031;
485.4000;1.1925;1.6031;
485.7000;1.2039;1.6333;
486.0000;1.1933;1.6082;
486.3000;1.1933;1.6132;
486.6000;1.1950;1.6283;
486.9000;1.1950;1.6308;
487.2000;1.1917;1.6233;
487.5000;1.1917;1.6283;
487.8000;1.1917;1.6308;
488.1000;1.1917;1.6233;
488.4000;1.1933;1.6258;
488.7000;1.1852;1.6031;
489.0000;1.1941;1.6233;
489.3000;1.1925;1.6233;
489.6000;1.1909;1.6107;
489.9000;1.1909;1.6132;
490.2000;1.1893;1.6031;
490.5000;1.1933;1.6132;
490.8000;1.1950;1.6233;
491.1000;1.1917;1.6208;
491.4000;1.1909;1.6132;
491.7000;1.1901;1.6031;
492.0000;1.1933;1.6107;
492.3000;1.2031;1.6409;
492.6000;1.1917;1.6208;
492.9000;1.1909;1.6182;
493.2000;1.1925;1.6258;
493.5000;1.1917;1.6233;
493.8000;1.1925;1.6132;
494.1000;1.1925;1.6107;
494.4000;1.1958;1.6283;
494.7000;1.1925;1.6208;
495.0000;1.1925;1.6208;
495.3000;1.1901;1.6258;
495.6000;1.1901;1.6258;
495.9000;1.2023;1.6711;
496.2000;1.1917;1.6359;
496.5000;1.1909;1.6308;
496.8000;1.1925;1.6308;
497.1000;1.1925;1.6333;
497.4000;1.1933;1.6283;
497.7000;1.1901;1.6157;
498.0000;1.1941;1.6208;
498.3000;1.1860;1.6057;
498.6000;1.1917;1.6182;
498.9000;1.1917;1.6208;
499.2000;1.1933;1.6258;
499.5000;1.1950;1.6233;
499.8000;1.1925;1.6283;
500.1000;1.1917;1.6283;
500.4000;1.1909;1.6308;
500.7000;1.1941;1.6359;
501.0000;1.1925;1.6283;
501.3000;1.1909;1.6157;
501.6000;1.1925;1.6132;
501.9000;1.1917;1.6233;
502.2000;1.1925;1.6233;
502.5000;1.1909;1.6208;
502.8000;1.1909;1.6157;
503.1000;1.1893;1.6057;
503.4000;1.1925;1.6132;
503.7000;1.1901;1.6006;
504.0000;1.1917;1.6006;
504.3000;1.1901;1.5956;
504.6000;1.1925;1.6006;
504.9000;1.1917;1.5981;
505.2000;1.1917;1.5981;
505.5000;1.1901;1.5981;
505.8000;1.1893;1.6031;
506.1000;1.1925;1.6107;
506.4000;1.1901;1.6006;
506.7000;1.1860;1.5931;
507.0000;1.1917;1.6132;
507.3000;1.1909;1.6208;
507.6000;1.1884;1.6208;
507.9000;1.1925;1.6283;
508.2000;1.1909;1.6182;
508.5000;1.1950;1.6333;
508.8000;1.1917;1.6157;
509.1000;1.1917;1.6208;
509.4000;1.1933;1.6157;
509.7000;1.1982;1.6283;
510.0000;1.1917;1.6132;
510.3000;1.1925;1.6208;
510.6000;1.1909;1.6082;
510.9000;1.1893;1.6107;
511.2000;1.1909;1.6208;
511.5000;1.1917;1.6182;
511.8000;1.1909;1.6132;
512.1000;1.1893;1.6208;
512.4000;1.1917;1.6308;
512.7000;1.1901;1.6283;
513.0000;1.1909;1.6333;
513.3000;1.1901;1.6333;
513.6000;1.1958;1.6409;
513.9000;1.1917;1.6333;
514.2000;1.1933;1.6409;
514.5000;1.1860;1.6258;
514.8000;1.1909;1.6384;
515.1000;1.1811;1.6031;
515.4000;1.1917;1.6308;
515.7000;1.1811;1.6082;
516.0000;1.1917;1.6359;
516.3000;1.1925;1.6308;
516.6000;1.1950;1.6233;
516.9000;1.1893;1.6107;
517.2000;1.1925;1.6157;
517.5000;1.1933;1.6208;
517.8000;1.1925;1.6182;
518.1000;1.1901;1.6082;
518.4000;1.1917;1.6031;
518.7000;1.1941;1.6057;
519.0000;1.1893;1.5956;
519.3000;1.1917;1.6006;
519.6000;1.1933;1.6006;
519.9000;1.1925;1.5956;
520.2000;1.1909;1.5981;
520.5000;1.1925;1.6031;
520.8000;1.1901;1.6107;
521.1000;1.1925;1.6208;
521.4000;1.1917;1.6157;
521.7000;1.1893;1.6082;
522.0000;1.1909;1.6082;
522.3000;1.1909;1.6082;
522.6000;1.1909;1.6107;
522.9000;1.1893;1.6132;
523.2000;1.1893;1.6157;
523.5000;1.1909;1.6182;
523.8000;1.1917;1.6233;
524.1000;1.1982;1.6359;
524.4000;1.1925;1.6233;
524.7000;1.1917;1.6182;
525.0000;1.1909;1.6182;
525.3000;1.1909;1.6107;
525.6000;1.1917;1.6082;
525.9000;1.1901;1.6031;
526.2000;1.1917;1.5981;
526.5000;1.1933;1.6031;
526.8000;1.1917;1.6157;
527.1000;1.1909;1.6182;
527.4000;1.1925;1.6308;
527.7000;1.1917;1.6283;
528.0000;1.1917;1.6233;
528.3000;1.1917;1.6233;
528.6000;1.1917;1.6283;
528.9000;1.1933;1.6308;
529.2000;1.1917;1.6258;
529.5000;1.1917;1.6283;
529.8000;1.1917;1.6182;
530.1000;1.1917;1.6182;
530.4000;1.1884;1.6308;
530.7000;1.1925;1.6333;
531.0000;1.1901;1.6233;
531.3000;1.1901;1.6258;
531.6000;1.1917;1.6107;
531.9000;1.1893;1.6082;
532.2000;1.1893;1.6182;
532.5000;1.1909;1.6233;
532.8000;1.1893;1.6233;
533.1000;1.1884;1.6233;
533.4000;1.1909;1.6233;
533.7000;1.1909;1.6157;
534.0000;1.1901;1.6233;
534.3000;1.1925;1.6409;
534.6000;1.1901;1.6333;
534.9000;1.1893;1.6409;
535.2000;1.1998;1.6585;
535.5000;1.1909;1.6434;
535.8000;1.1893;1.6434;
536.1000;1.1909;1.6459;
536.4000;1.1901;1.6359;
536.7000;1.1909;1.6384;
537.0000;1.1901;1.6308;
537.3000;1.1884;1.6258;
537.6000;1.1917;1.6333;
537.9000;1.1917;1.6409;
538.2000;1.1909;1.6333;
538.5000;1.1876;1.6258;
538.8000;1.1901;1.6359;
539.1000;1.1893;1.6409;
539.4000;1.1909;1.6484;
539.7000;1.1893;1.6359;
540.0000;1.1917;1.6409;
540.3000;1.1917;1.6459;
540.6000;1.1909;1.6459;
540.9000;1.1909;1.6333;
541.2000;1.1884;1.6283;
541.5000;1.1893;1.6233;
541.8000;1.1884;1.6283;
542.1000;1.1925;1.6434;
542.4000;1.1893;1.6333;
542.7000;1.1901;1.6384;
543.0000;1.1909;1.6459;
543.3000;1.1901;1.6359;
543.6000;1.1893;1.6359;
543.9000;1.1901;1.6359;
544.2000;1.1884;1.6359;
544.5000;1.1893;1.6384;
544.8000;1.1901;1.6409;
545.1000;1.1909;1.6359;
545.4000;1.1941;1.6484;
545.7000;1.1909;1.6333;
546.0000;1.1974;1.6459;
546.3000;1.1901;1.6308;
546.6000;1.1917;1.6283;
546.9000;1.1884;1.6182;
547.2000;1.1893;1.6182;
547.5000;1.1901;1.6283;
547.8000;1.1901;1.6359;
548.1000;1.1901;1.6308;
548.4000;1.1909;1.6258;
548.7000;1.1909;1.6283;
549.0000;1.1884;1.6233;
549.3000;1.1901;1.6283;
549.6000;1.1876;1.6208;
549.9000;1.1909;1.6283;
550.2000;1.1901;1.6233;
550.5000;1.1990;1.6484;
550.8000;1.1901;1.6132;
551.1000;1.1909;1.6107;
551.4000;1.1909;1.6182;
551.7000;1.1901;1.6208;
552.0000;1.1884;1.6233;
552.3000;1.1893;1.6333;
552.6000;1.1884;1.6409;
552.9000;1.1917;1.6434;
553.2000;1.1917;1.6409;
553.5000;1.1893;1.6434;
553.8000;1.1950;1.6585;
554.1000;1.1876;1.6434;
554.4000;1.1893;1.6384;
554.7000;1.1884;1.6333;
555.0000;1.1901;1.6258;
555.3000;1.1884;1.6258;
555.6000;1.1893;1.6283;
555.9000;1.1819;1.6107;
556.2000;1.1868;1.6258;
556.5000;1.1884;1.6308;
556.8000;1.1893;1.6308;
557.1000;1.1933;1.6409;
557.4000;1.1893;1.6308;
557.7000;1.1844;1.6208;
558.0000;1.1884;1.6182;
558.3000;1.1950;1.6283;
558.6000;1.1901;1.6157;
558.9000;1.1909;1.6208;
559.2000;1.1893;1.6107;
559.5000;1.1917;1.6157;
559.8000;1.1917;1.6107;
560.1000;1.1893;1.6132;
560.4000;1.1901;1.6258;
560.7000;1.1917;1.6258;
561.0000;1.1933;1.6308;
561.3000;1.1909;1.6233;
561.6000;1.1893;1.6233;
561.9000;1.1901;1.6308;
562.2000;1.1909;1.6233;
562.5000;1.1901;1.6258;
562.8000;1.1917;1.6359;
563.1000;1.1917;1.6409;
563.4000;1.1893;1.6359;
563.7000;1.1909;1.6384;
564.0000;1.1884;1.6359;
564.3000;1.1909;1.6308;
564.6000;1.1909;1.6359;
564.9000;1.1893;1.6384;
565.2000;1.1901;1.6434;
565.5000;1.1901;1.6434;
565.8000;1.1925;1.6510;
566.1000;1.1917;1.6459;
566.4000;1.1884;1.6233;
566.7000;1.1893;1.6233;
567.0000;1.1917;1.6258;
567.3000;1.1901;1.6258;
567.6000;1.1893;1.6333;
567.9000;1.1925;1.6384;
568.2000;1.1901;1.6283;
568.5000;1.1893;1.6359;
568.8000;1.1884;1.6308;
569.1000;1.1844;1.6258;
569.4000;1.1884;1.6333;
569.7000;1.1844;1.6182;
570.0000;1.1876;1.6208;
570.3000;1.1827;1.6107;
570.6000;1.1868;1.6208;
570.9000;1.1884;1.6283;
571.2000;1.1884;1.6333;
571.5000;1.1893;1.6308;
571.8000;1.1901;1.6283;
572.1000;1.1901;1.6283;
572.4000;1.1893;1.6384;
572.7000;1.1893;1.6359;
573.0000;1.1860;1.6333;
573.3000;1.1901;1.6409;
573.6000;1.1893;1.6434;
573.9000;1.1884;1.6308;
574.2000;1.1917;1.6333;
574.5000;1.1876;1.6308;
574.8000;1.1901;1.6384;
575.1000;1.1909;1.6484;
575.4000;1.1884;1.6434;
575.7000;1.1901;1.6535;
576.0000;1.1893;1.6484;
576.3000;1.1901;1.6484;
576.6000;1.1884;1.6434;
576.9000;1.1876;1.6434;
577.2000;1.1868;1.6409;
577.5000;1.1893;1.6434;
577.8000;1.1836;1.6308;
578.1000;1.1909;1.6484;
578.4000;1.1917;1.6459;
578.7000;1.1901;1.6409;
579.0000;1.1901;1.6333;
579.3000;1.1884;1.6283;
579.6000;1.1893;1.6333;
579.9000;1.1966;1.6535;
580.2000;1.1876;1.6233;
580.5000;1.1893;1.6233;
580.8000;1.1893;1.6308;
581.1000;1.1868;1.6258;
581.4000;1.1893;1.6333;
581.7000;1.1893;1.6333;
582.0000;1.1884;1.6308;
582.3000;1.1901;1.6283;
582.6000;1.1868;1.6182;
582.9000;1.1884;1.6208;
583.2000;1.1876;1.6258;
583.5000;1.1901;1.6333;
583.8000;1.1884;1.6308;
584.1000;1.1893;1.6308;
584.4000;1.1884;1.6258;
584.7000;1.1917;1.6409;
585.0000;1.1893;1.6384;
585.3000;1.1909;1.6409;
585.6000;1.1901;1.6384;
585.9000;1.1901;1.6510;
586.2000;1.1909;1.6560;
586.5000;1.1884;1.6484;
586.8000;1.1901;1.6535;
587.1000;1.1901;1.6535;
587.4000;1.1884;1.6484;
587.7000;1.1893;1.6535;
588.0000;1.1860;1.6484;
588.3000;1.1893;1.6610;
588.6000;1.1884;1.6535;
588.9000;1.1893;1.6610;
589.2000;1.1811;1.6409;
589.5000;1.1868;1.6510;
589.8000;1.1909;1.6585;
590.1000;1.1893;1.6585;
590.4000;1.1868;1.6510;
590.7000;1.1884;1.6560;
591.0000;1.1884;1.6535;
591.3000;1.1901;1.6459;
591.6000;1.1893;1.6384;
591.9000;1.1884;1.6333;
592.2000;1.1827;1.6308;
592.5000;1.1893;1.6560;
592.8000;1.1893;1.6560;
593.1000;1.1901;1.6610;
593.4000;1.1884;1.6560;
593.7000;1.1884;1.6560;
594.0000;1.1884;1.6610;
594.3000;1.1901;1.6585;
594.6000;1.1909;1.6635;
594.9000;1.1868;1.6484;
595.2000;1.1909;1.6535;
595.5000;1.1884;1.6560;
595.8000;1.1884;1.6510;
596.1000;1.1893;1.6535;
596.4000;1.1876;1.6484;
596.7000;1.1876;1.6459;
597.0000;1.1893;1.6434;
597.3000;1.1884;1.6308;
597.6000;1.1917;1.6409;
597.9000;1.1917;1.6308;
598.2000;1.1893;1.6258;
598.5000;1.1893;1.6333;
598.8000;1.1893;1.6434;
599.1000;1.1917;1.6459;
599.4000;1.1876;1.6434;
599.7000;1.1868;1.6359;
600.0000;1.1876;1.6333;
600.3000;1.1917;1.6233;
600.6000;1.1941;1.6082;
600.9000;1.1925;1.5805;
601.2000;1.1860;1.5453;
601.5000;1.1795;1.5125;
601.8000;1.1713;1.4773;
602.1000;1.1656;1.4672;
602.4000;1.1551;1.4446;
602.7000;1.1543;1.4245;
603.0000;1.1429;1.3993;
603.3000;1.1363;1.3766;
603.6000;1.1355;1.3817;
603.9000;1.1217;1.3565;
604.2000;1.1160;1.3414;
604.5000;1.1103;1.3238;
604.8000;1.1103;1.3238;
605.1000;1.1013;1.3062;
605.4000;1.0981;1.3037;
605.7000;1.0924;1.3011;
606.0000;1.0859;1.2911;
606.3000;1.0883;1.3011;
606.6000;1.0777;1.2760;
606.9000;1.0753;1.2709;
607.2000;1.0647;1.2407;
607.5000;1.0688;1.2458;
607.8000;1.0672;1.2508;
608.1000;1.0598;1.2382;
608.4000;1.0574;1.2332;
608.7000;1.0525;1.2256;
609.0000;1.0501;1.2307;
609.3000;1.0468;1.2231;
609.6000;1.0452;1.2231;
609.9000;1.0427;1.2256;
610.2000;1.0460;1.2332;
610.5000;1.0387;1.2206;
610.8000;1.0362;1.2156;
611.1000;1.0338;1.2130;
611.4000;1.0305;1.2105;
611.7000;1.0265;1.1979;
612.0000;1.0224;1.1828;
612.3000;1.0289;1.2055;
612.6000;1.0183;1.1828;
612.9000;1.0199;1.1854;
613.2000;1.0094;1.1602;
613.5000;1.0126;1.1854;
613.8000;1.0159;1.2030;
614.1000;1.0142;1.1979;
614.4000;1.0069;1.1954;
614.7000;1.0053;1.1954;
615.0000;1.0028;1.1954;
615.3000;1.0004;1.2005;
615.6000;0.9988;1.1979;
615.9000;0.9988;1.2080;
616.2000;0.9972;1.2030;
616.5000;0.9955;1.1904;
616.8000;0.9931;1.1854;
617.1000;0.9923;1.1929;
617.4000;0.9898;1.1929;
617.7000;0.9866;1.1879;
618.0000;0.9882;1.1929;
618.3000;0.9849;1.1828;
618.6000;0.9858;1.1703;
618.9000;0.9825;1.1778;
619.2000;0.9817;1.1803;
619.5000;0.9792;1.1778;
619.8000;0.9792;1.1778;
620.1000;0.9768;1.1703;
620.4000;0.9776;1.1728;
620.7000;0.9752;1.1652;
621.0000;0.9752;1.1552;
621.3000;0.9727;1.1476;
621.6000;0.9711;1.1375;
621.9000;0.9695;1.1451;
622.2000;0.9678;1.1451;
622.5000;0.9678;1.1501;
622.8000;0.9662;1.1476;
623.1000;0.9662;1.1627;
623.4000;0.9621;1.1627;
623.7000;0.9621;1.1652;
624.0000;0.9638;1.1652;
624.3000;0.9605;1.1602;
624.6000;0.9573;1.1552;
624.9000;0.9573;1.1627;
625.2000;0.9613;1.1703;
625.5000;0.9565;1.1627;
625.8000;0.9573;1.1577;
626.1000;0.9540;1.1602;
626.4000;0.9548;1.1577;
626.7000;0.9630;1.1828;
627.0000;0.9532;1.1552;
627.3000;0.9556;1.1526;
627.6000;0.9516;1.1476;
627.9000;0.9499;1.1476;
628.2000;0.9565;1.1728;
628.5000;0.9467;1.1602;
628.8000;0.9402;1.1426;
629.1000;0.9475;1.1602;
629.4000;0.9459;1.1577;
629.7000;0.9451;1.1677;
630.0000;0.9459;1.1803;
630.3000;0.9434;1.1803;
630.6000;0.9345;1.1602;
630.9000;0.9434;1.1728;
631.2000;0.9394;1.1627;
631.5000;0.9402;1.1627;
631.8000;0.9442;1.1677;
632.1000;0.9442;1.1703;
632.4000;0.9361;1.1501;
632.7000;0.9361;1.1526;
633.0000;0.9353;1.1501;
633.3000;0.9337;1.1501;
633.6000;0.9328;1.1451;
633.9000;0.9328;1.1577;
634.2000;0.9337;1.1652;
634.5000;0.9328;1.1677;
634.8000;0.9345;1.1753;
635.1000;0.9312;1.1753;
635.4000;0.9320;1.1728;
635.7000;0.9312;1.1677;
636.0000;0.9304;1.1652;
636.3000;0.9296;1.1526;
636.6000;0.9280;1.1451;
636.9000;0.9288;1.1476;
637.2000;0.9263;1.1451;
637.5000;0.9263;1.1552;
637.8000;0.9263;1.1501;
638.1000;0.9263;1.1577;
638.4000;0.9231;1.1602;
638.7000;0.9231;1.1652;
639.0000;0.9206;1.1677;
639.3000;0.9214;1.1627;
639.6000;0.9206;1.1627;
639.9000;0.9223;1.1602;
640.2000;0.9206;1.1627;
640.5000;0.9198;1.1652;
640.8000;0.9198;1.1627;
641.1000;0.9182;1.1552;
641.4000;0.9182;1.1577;
641.7000;0.9190;1.1577;
642.0000;0.9182;1.1627;
642.3000;0.9206;1.1677;
642.6000;0.9190;1.1703;
642.9000;0.9158;1.1627;
643.2000;0.9158;1.1577;
643.5000;0.9166;1.1577;
643.8000;0.9133;1.1552;
644.1000;0.9133;1.1627;
644.4000;0.9101;1.1476;
644.7000;0.9133;1.1652;
645.0000;0.9109;1.1677;
645.3000;0.9133;1.1703;
645.6000;0.9190;1.1803;
645.9000;0.9109;1.1602;
646.2000;0.9109;1.1577;
646.5000;0.9125;1.1552;
646.8000;0.9125;1.1476;
647.1000;0.9101;1.1426;
647.4000;0.9092;1.1501;
647.7000;0.9092;1.1552;
648.0000;0.9019;1.1325;
648.3000;0.9068;1.1451;
648.6000;0.9084;1.1476;
648.9000;0.9060;1.1401;
649.2000;0.9052;1.1451;
649.5000;0.9076;1.1602;
649.8000;0.9060;1.1577;
650.1000;0.9133;1.1803;
650.4000;0.9084;1.1526;
650.7000;0.9027;1.1325;
651.0000;0.9092;1.1426;
651.3000;0.9027;1.1275;
651.6000;0.9019;1.1224;
651.9000;0.9027;1.1224;
652.2000;0.9019;1.1224;
652.5000;0.8954;1.1048;
652.8000;0.8995;1.1174;
653.1000;0.9011;1.1250;
653.4000;0.9003;1.1250;
653.7000;0.9003;1.1300;
654.0000;0.8978;1.1275;
654.3000;0.9027;1.1350;
654.6000;0.8995;1.1250;
654.9000;0.8987;1.1174;
655.2000;0.8978;1.1224;
655.5000;0.8962;1.1199;
655.8000;0.8995;1.1325;
656.1000;0.8987;1.1325;
656.4000;0.8930;1.1300;
656.7000;0.8962;1.1401;
657.0000;0.8970;1.1451;
657.3000;0.8970;1.1401;
657.6000;0.8970;1.1350;
657.9000;0.8946;1.1300;
658.2000;0.8946;1.1250;
658.5000;0.8954;1.1250;
658.8000;0.8946;1.1174;
659.1000;0.8921;1.1099;
659.4000;0.9003;1.1300;
659.7000;0.8913;1.1149;
660.0000;0.8930;1.1250;
660.3000;0.8905;1.1300;
660.6000;0.8921;1.1476;
660.9000;0.8913;1.1451;
661.2000;0.8889;1.1451;
661.5000;0.8905;1.1426;
661.8000;0.8897;1.1451;
662.1000;0.8938;1.1552;
662.4000;0.8897;1.1401;
662.7000;0.8930;1.1526;
663.0000;0.8832;1.1325;
663.3000;0.8840;1.1300;
663.6000;0.8889;1.1451;
663.9000;0.8889;1.1476;
664.2000;0.8889;1.1501;
664.5000;0.8856;1.1426;
664.8000;0.8864;1.1476;
665.1000;0.8873;1.1476;
665.4000;0.8864;1.1451;
665.7000;0.8856;1.1526;
666.0000;0.8848;1.1627;
666.3000;0.8864;1.1677;
666.6000;0.8848;1.1602;
666.9000;0.8840;1.1552;
667.2000;0.8856;1.1526;
667.5000;0.8864;1.1577;
667.8000;0.8840;1.1627;
668.1000;0.8848;1.1526;
668.4000;0.8832;1.1476;
668.7000;0.8840;1.1501;
669.0000;0.8832;1.1552;
669.3000;0.8840;1.1526;
669.6000;0.8824;1.1501;
669.9000;0.8759;1.1350;
670.2000;0.8816;1.1552;
670.5000;0.8807;1.1552;
670.8000;0.8864;1.1703;
671.1000;0.8816;1.1602;
671.4000;0.8807;1.1552;
671.7000;0.8807;1.1526;
672.0000;0.8775;1.1526;
672.3000;0.8791;1.1501;
672.6000;0.8783;1.1552;
672.9000;0.8807;1.1627;
673.2000;0.8791;1.1552;
673.5000;0.8767;1.1501;
673.8000;0.8791;1.1526;
674.1000;0.8702;1.1451;
674.4000;0.8759;1.1526;
674.7000;0.8759;1.1451;
675.0000;0.8791;1.1526;
675.3000;0.8791;1.1552;
675.6000;0.8767;1.1552;
675.9000;0.8767;1.1602;
676.2000;0.8775;1.1602;
676.5000;0.8767;1.1552;
676.8000;0.8759;1.1577;
677.1000;0.8807;1.1627;
677.4000;0.8751;1.1552;
677.7000;0.8759;1.1577;
678.0000;0.8751;1.1501;
678.3000;0.8742;1.1451;
678.6000;0.8661;1.1275;
678.9000;0.8751;1.1577;
679.2000;0.8742;1.1451;
679.5000;0.8718;1.1401;
679.8000;0.8645;1.1224;
680.1000;0.8751;1.1552;
680.4000;0.8734;1.1426;
680.7000;0.8726;1.1451;
681.0000;0.8726;1.1451;
681.3000;0.8718;1.1275;
681.6000;0.8742;1.1350;
681.9000;0.8685;1.1250;
682.2000;0.8710;1.1250;
682.5000;0.8702;1.1300;
682.8000;0.8710;1.1375;
683.1000;0.8702;1.1375;
683.4000;0.8685;1.1350;
683.7000;0.8677;1.1401;
684.0000;0.8694;1.1526;
684.3000;0.8694;1.1627;
684.6000;0.8669;1.1552;
684.9000;0.8661;1.1451;
685.2000;0.8677;1.1476;
685.5000;0.8685;1.1426;
685.8000;0.8694;1.1451;
686.1000;0.8685;1.1526;
686.4000;0.8677;1.1401;
686.7000;0.8710;1.1501;
687.0000;0.8685;1.1501;
687.3000;0.8669;1.1401;
687.6000;0.8685;1.1401;
687.9000;0.8669;1.1476;
688.2000;0.8669;1.1476;
688.5000;0.8669;1.1451;
688.8000;0.8645;1.1426;
689.1000;0.8677;1.1401;
689.4000;0.8669;1.1325;
689.7000;0.8628;1.1300;
690.0000;0.8645;1.1300;
690.3000;0.8653;1.1325;
690.6000;0.8677;1.1350;
690.9000;0.8637;1.1300;
691.2000;0.8661;1.1375;
691.5000;0.8653;1.1426;
691.8000;0.8653;1.1325;
692.1000;0.8645;1.1325;
692.4000;0.8637;1.1375;
692.7000;0.8645;1.1451;
693.0000;0.8653;1.1627;
693.3000;0.8637;1.1526;
693.6000;0.8620;1.1552;
693.9000;0.8620;1.1426;
694.2000;0.8628;1.1501;
694.5000;0.8628;1.1577;
694.8000;0.8547;1.1401;
695.1000;0.8612;1.1552;
695.4000;0.8612;1.1526;
695.7000;0.8604;1.1501;
696.0000;0.8620;1.1476;
696.3000;0.8604;1.1526;
696.6000;0.8596;1.1501;
696.9000;0.8628;1.1552;
697.2000;0.8588;1.1451;
697.5000;0.8596;1.1476;
697.8000;0.8580;1.1451;
698.1000;0.8612;1.1652;
698.4000;0.8604;1.1652;
698.7000;0.8580;1.1627;
699.0000;0.8571;1.1652;
699.3000;0.8596;1.1677;
699.6000;0.8596;1.1577;
699.9000;0.8596;1.1426;
700.2000;0.8580;1.1476;
700.5000;0.8588;1.1451;
700.8000;0.8571;1.1476;
701.1000;0.8571;1.1476;
701.4000;0.8563;1.1476;
701.7000;0.8588;1.1627;
702.0000;0.8571;1.1753;
702.3000;0.8571;1.1703;
702.6000;0.8637;1.1803;
702.9000;0.8580;1.1677;
703.2000;0.8555;1.1652;
703.5000;0.8555;1.1652;
703.8000;0.8563;1.1602;
704.1000;0.8563;1.1602;
704.4000;0.8555;1.1602;
704.7000;0.8571;1.1627;
705.0000;0.8580;1.1627;
705.3000;0.8555;1.1451;
705.6000;0.8547;1.1426;
705.9000;0.8563;1.1426;
706.2000;0.8539;1.1325;
706.5000;0.8555;1.1426;
706.8000;0.8547;1.1375;
707.1000;0.8555;1.1350;
707.4000;0.8531;1.1401;
707.7000;0.8547;1.1401;
708.0000;0.8563;1.1350;
708.3000;0.8539;1.1426;
708.6000;0.8547;1.1451;
708.9000;0.8506;1.1426;
709.2000;0.8531;1.1526;
709.5000;0.8531;1.1577;
709.8000;0.8523;1.1552;
710.1000;0.8531;1.1552;
710.4000;0.8523;1.1552;
710.7000;0.8547;1.1602;
711.0000;0.8523;1.1602;
711.3000;0.8539;1.1627;
711.6000;0.8531;1.1577;
711.9000;0.8523;1.1552;
712.2000;0.8555;1.1728;
712.5000;0.8506;1.1627;
712.8000;0.8514;1.1577;
713.1000;0.8531;1.1552;
713.4000;0.8514;1.1451;
713.7000;0.8539;1.1501;
714.0000;0.8531;1.1627;
714.3000;0.8514;1.1577;
714.6000;0.8523;1.1602;
714.9000;0.8514;1.1526;
715.2000;0.8555;1.1602;
715.5000;0.8506;1.1501;
715.8000;0.8547;1.1677;
716.1000;0.8531;1.1627;
716.4000;0.8490;1.1627;
716.7000;0.8531;1.1703;
717.0000;0.8514;1.1677;
717.3000;0.8506;1.1677;
717.6000;0.8482;1.1577;
717.9000;0.8506;1.1577;
718.2000;0.8498;1.1552;
718.5000;0.8474;1.1602;
718.8000;0.8539;1.1753;
719.1000;0.8482;1.1627;
719.4000;0.8490;1.1552;
719.7000;0.8490;1.1577;
720.0000;0.8466;1.1476;
720.3000;0.8474;1.1401;
720.6000;0.8466;1.1300;
720.9000;0.8474;1.1250;
721.2000;0.8449;1.1224;
721.5000;0.8498;1.1300;
721.8000;0.8474;1.1250;
722.1000;0.8474;1.1250;
722.4000;0.8466;1.1325;
722.7000;0.8409;1.1224;
723.0000;0.8474;1.1401;
723.3000;0.8490;1.1501;
723.6000;0.8474;1.1476;
723.9000;0.8474;1.1401;
724.2000;0.8441;1.1350;
724.5000;0.8474;1.1401;
724.8000;0.8474;1.1426;
725.1000;0.8466;1.1375;
725.4000;0.8466;1.1426;
725.7000;0.8457;1.1350;
726.0000;0.8466;1.1325;
726.3000;0.8441;1.1224;
726.6000;0.8449;1.1250;
726.9000;0.8466;1.1325;
727.2000;0.8482;1.1250;
727.5000;0.8457;1.1199;
727.8000;0.8466;1.1250;
728.1000;0.8425;1.1250;
728.4000;0.8457;1.1401;
728.7000;0.8449;1.1426;
729.0000;0.8466;1.1526;
729.3000;0.8433;1.1501;
729.6000;0.8457;1.1552;
729.9000;0.8441;1.1526;
730.2000;0.8433;1.1552;
730.5000;0.8449;1.1602;
730.8000;0.8441;1.1577;
731.1000;0.8482;1.1753;
731.4000;0.8409;1.1602;
731.7000;0.8433;1.1677;
732.0000;0.8376;1.1577;
732.3000;0.8441;1.1703;
732.6000;0.8441;1.1753;
732.9000;0.8392;1.1703;
733.2000;0.8425;1.1703;
733.5000;0.8425;1.1677;
733.8000;0.8425;1.1577;
734.1000;0.8400;1.1526;
734.4000;0.8425;1.1602;
734.7000;0.8417;1.1602;
735.0000;0.8409;1.1602;
735.3000;0.8409;1.1577;
735.6000;0.8409;1.1703;
735.9000;0.8417;1.1677;
736.2000;0.8425;1.1627;
736.5000;0.8425;1.1652;
736.8000;0.8409;1.1602;
737.1000;0.8417;1.1602;
737.4000;0.8433;1.1677;
737.7000;0.8409;1.1677;
738.0000;0.8409;1.1703;
738.3000;0.8392;1.1703;
738.6000;0.8449;1.1854;
738.9000;0.8409;1.1803;
739.2000;0.8417;1.1803;
739.5000;0.8457;1.1828;
739.8000;0.8409;1.1728;
740.1000;0.8441;1.1854;
740.4000;0.8441;1.1904;
740.7000;0.8400;1.1803;
741.0000;0.8409;1.1879;
741.3000;0.8400;1.1854;
741.6000;0.8384;1.1778;
741.9000;0.8400;1.1803;
742.2000;0.8400;1.1803;
742.5000;0.8409;1.1677;
742.8000;0.8409;1.1703;
743.1000;0.8392;1.1753;
743.4000;0.8392;1.1728;
743.7000;0.8384;1.1728;
744.0000;0.8360;1.1677;
744.3000;0.8376;1.1677;
744.6000;0.8384;1.1627;
744.9000;0.8392;1.1703;
745.2000;0.8287;1.1375;
745.5000;0.8400;1.1526;
745.8000;0.8409;1.1652;
746.1000;0.8344;1.1476;
746.4000;0.8392;1.1602;
746.7000;0.8409;1.1526;
747.0000;0.8400;1.1451;
747.3000;0.8376;1.1451;
747.6000;0.8384;1.1501;
747.9000;0.8368;1.1552;
748.2000;0.8409;1.1677;
748.5000;0.8376;1.1526;
748.8000;0.8327;1.1451;
749.1000;0.8376;1.1577;
749.4000;0.8311;1.1401;
749.7000;0.8368;1.1451;
750.0000;0.8384;1.1476;
750.3000;0.8392;1.1501;
750.6000;0.8384;1.1476;
750.9000;0.8368;1.1476;
751.2000;0.8384;1.1552;
751.5000;0.8417;1.1602;
751.8000;0.8376;1.1451;
752.1000;0.8368;1.1476;
752.4000;0.8368;1.1451;
752.7000;0.8376;1.1476;
753.0000;0.8376;1.1526;
753.3000;0.8360;1.1426;
753.6000;0.8376;1.1501;
753.9000;0.8400;1.1526;
754.2000;0.8352;1.1451;
754.5000;0.8360;1.1350;
754.8000;0.8344;1.1224;
755.1000;0.8360;1.1199;
755.4000;0.8376;1.1250;
755.7000;0.8344;1.1250;
756.0000;0.8352;1.1250;
756.3000;0.8360;1.1426;
756.6000;0.8335;1.1250;
756.9000;0.8352;1.1250;
757.2000;0.8466;1.1552;
757.5000;0.8327;1.1300;
757.8000;0.8352;1.1375;
758.1000;0.8352;1.1375;
758.4000;0.8368;1.1476;
758.7000;0.8344;1.1401;
759.0000;0.8303;1.1300;
759.3000;0.8335;1.1451;
759.6000;0.8335;1.1451;
759.9000;0.8319;1.1426;
760.2000;0.8344;1.1426;
760.5000;0.8327;1.1501;
760.8000;0.8352;1.1627;
761.1000;0.8368;1.1728;
761.4000;0.8368;1.1703;
761.7000;0.8376;1.1677;
762.0000;0.8335;1.1552;
762.3000;0.8295;1.1426;
762.6000;0.8352;1.1476;
762.9000;0.8352;1.1476;
763.2000;0.8303;1.1375;
763.5000;0.8295;1.1375;
763.8000;0.8344;1.1552;
764.1000;0.8327;1.1501;
764.4000;0.8319;1.1501;
764.7000;0.8400;1.1703;
765.0000;0.8295;1.1426;
765.3000;0.8327;1.1526;
765.6000;0.8335;1.1703;
765.9000;0.8311;1.1703;
766.2000;0.8335;1.1728;
766.5000;0.8327;1.1703;
766.8000;0.8311;1.1728;
767.1000;0.8319;1.1728;
767.4000;0.8327;1.1677;
767.7000;0.8311;1.1577;
768.0000;0.8319;1.1526;
768.3000;0.8327;1.1552;
768.6000;0.8417;1.1854;
768.9000;0.8311;1.1526;
769.2000;0.8344;1.1552;
769.5000;0.8311;1.1501;
769.8000;0.8311;1.1476;
770.1000;0.8287;1.1401;
770.4000;0.8352;1.1501;
770.7000;0.8311;1.1451;
771.0000;0.8319;1.1577;
771.3000;0.8311;1.1652;
771.6000;0.8311;1.1677;
771.9000;0.8295;1.1728;
772.2000;0.8319;1.1778;
772.5000;0.8303;1.1703;
772.8000;0.8311;1.1753;
773.1000;0.8335;1.1753;
773.4000;0.8278;1.1652;
773.7000;0.8303;1.1677;
774.0000;0.8303;1.1677;
774.3000;0.8311;1.1602;
774.6000;0.8303;1.1577;
774.9000;0.8303;1.1526;
775.2000;0.8303;1.1476;
775.5000;0.8270;1.1501;
775.8000;0.8327;1.1728;
776.1000;0.8287;1.1602;
776.4000;0.8327;1.1652;
776.7000;0.8319;1.1728;
777.0000;0.8303;1.1677;
777.3000;0.8295;1.1627;
777.6000;0.8295;1.1627;
777.9000;0.8303;1.1627;
778.2000;0.8295;1.1728;
778.5000;0.8303;1.1753;
778.8000;0.8295;1.1627;
779.1000;0.8295;1.1652;
779.4000;0.8327;1.1803;
779.7000;0.8278;1.1652;
780.0000;0.8295;1.1627;
780.3000;0.8295;1.1602;
780.6000;0.8246;1.1476;
780.9000;0.8270;1.1602;
781.2000;0.8278;1.1602;
781.5000;0.8295;1.1753;
781.8000;0.8278;1.1728;
782.1000;0.8311;1.1854;
782.4000;0.8295;1.1728;
782.7000;0.8278;1.1652;
783.0000;0.8262;1.1677;
783.3000;0.8278;1.1677;
783.6000;0.8270;1.1577;
783.9000;0.8270;1.1501;
784.2000;0.8262;1.1501;
784.5000;0.8246;1.1375;
784.8000;0.8303;1.1476;
785.1000;0.8278;1.1526;
785.4000;0.8368;1.1753;
785.7000;0.8311;1.1677;
786.0000;0.8270;1.1526;
786.3000;0.8278;1.1476;
786.6000;0.8238;1.1300;
786.9000;0.8278;1.1401;
787.2000;0.8270;1.1476;
787.5000;0.8262;1.1501;
787.8000;0.8262;1.1577;
788.1000;0.8270;1.1577;
788.4000;0.8254;1.1526;
788.7000;0.8270;1.1501;
789.0000;0.8270;1.1476;
789.3000;0.8262;1.1426;
789.6000;0.8270;1.1501;
789.9000;0.8262;1.1501;
790.2000;0.8254;1.1476;
790.5000;0.8262;1.1501;
790.8000;0.8213;1.1451;
791.1000;0.8270;1.1677;
791.4000;0.8278;1.1627;
791.7000;0.8270;1.1602;
792.0000;0.8246;1.1577;
792.3000;0.8278;1.1703;
792.6000;0.8262;1.1652;
792.9000;0.8254;1.1602;
793.2000;0.8262;1.1627;
793.5000;0.8278;1.1677;
793.8000;0.8254;1.1602;
794.1000;0.8295;1.1627;
794.4000;0.8262;1.1602;
794.7000;0.8278;1.1677;
795.0000;0.8254;1.1652;
795.3000;0.8254;1.1627;
795.6000;0.8254;1.1577;
795.9000;0.8270;1.1526;
796.2000;0.8278;1.1577;
796.5000;0.8270;1.1552;
796.8000;0.8238;1.1552;
797.1000;0.8262;1.1652;
797.4000;0.8254;1.1652;
797.7000;0.8221;1.1627;
798.0000;0.8246;1.1677;
798.3000;0.8246;1.1703;
798.6000;0.8246;1.1652;
798.9000;0.8221;1.1703;
799.2000;0.8230;1.1728;
799.5000;0.8254;1.1728;
799.8000;0.8238;1.1627;
800.1000;0.8238;1.1602;
800.4000;0.8254;1.1627;
800.7000;0.8262;1.1652;
801.0000;0.8262;1.1703;
801.3000;0.8230;1.1627;
801.6000;0.8254;1.1703;
801.9000;0.8327;1.1904;
802.2000;0.8254;1.1803;
802.5000;0.8254;1.1854;
802.8000;0.8238;1.1828;
803.1000;0.8287;1.1954;
803.4000;0.8238;1.1803;
803.7000;0.8254;1.1854;
804.0000;0.8238;1.1828;
804.3000;0.8221;1.1753;
804.6000;0.8230;1.1753;
804.9000;0.8254;1.1778;
805.2000;0.8230;1.1703;
805.5000;0.8238;1.1703;
805.8000;0.8221;1.1677;
806.1000;0.8221;1.1627;
806.4000;0.8230;1.1703;
806.7000;0.8246;1.1652;
807.0000;0.8246;1.1703;
807.3000;0.8221;1.1728;
807.6000;0.8254;1.1803;
807.9000;0.8230;1.1652;
808.2000;0.8230;1.1677;
808.5000;0.8181;1.1501;
808.8000;0.8213;1.1552;
809.1000;0.8213;1.1577;
809.4000;0.8230;1.1627;
809.7000;0.8205;1.1627;
810.0000;0.8221;1.1652;
810.3000;0.8238;1.1602;
810.6000;0.8221;1.1552;
810.9000;0.8221;1.1627;
811.2000;0.8238;1.1728;
811.5000;0.8164;1.1476;
811.8000;0.8205;1.1526;
812.1000;0.8213;1.1627;
812.4000;0.8221;1.1577;
812.7000;0.8213;1.1652;
813.0000;0.8303;1.1854;
813.3000;0.8221;1.1652;
813.6000;0.8230;1.1652;
813.9000;0.8213;1.1577;
814.2000;0.8189;1.1476;
814.5000;0.8230;1.1577;
814.8000;0.8221;1.1677;
815.1000;0.8213;1.1501;
815.4000;0.8287;1.1602;
815.7000;0.8197;1.1476;
816.0000;0.8205;1.1526;
816.3000;0.8238;1.1552;
816.6000;0.8246;1.1476;
816.9000;0.8213;1.1401;
817.2000;0.8221;1.1401;
817.5000;0.8213;1.1526;
817.8000;0.8221;1.1501;
818.1000;0.8295;1.1728;
818.4000;0.8221;1.1426;
818.7000;0.8221;1.1476;
819.0000;0.8230;1.1526;
819.3000;0.8221;1.1577;
819.6000;0.8221;1.1577;
819.9000;0.8197;1.1552;
820.2000;0.8221;1.1627;
820.5000;0.8197;1.1552;
820.8000;0.8213;1.1552;
821.1000;0.8173;1.1476;
821.4000;0.8205;1.1552;
821.7000;0.8205;1.1526;
822.0000;0.8189;1.1501;
822.3000;0.8205;1.1552;
822.6000;0.8221;1.1627;
822.9000;0.8164;1.1426;
823.2000;0.8205;1.1476;
823.5000;0.8262;1.1728;
823.8000;0.8205;1.1652;
824.1000;0.8262;1.1778;
824.4000;0.8205;1.1526;
824.7000;0.8205;1.1552;
825.0000;0.8254;1.1753;
825.3000;0.8189;1.1627;
825.6000;0.8205;1.1602;
825.9000;0.8181;1.1602;
826.2000;0.8189;1.1627;
826.5000;0.8205;1.1677;
826.8000;0.8189;1.1677;
827.1000;0.8197;1.1703;
827.4000;0.8205;1.1602;
827.7000;0.8205;1.1728;
828.0000;0.8205;1.1677;
828.3000;0.8205;1.1627;
828.6000;0.8213;1.1677;
828.9000;0.8197;1.1627;
829.2000;0.8205;1.1627;
829.5000;0.8197;1.1652;
829.8000;0.8197;1.1652;
830.1000;0.8205;1.1652;
830.4000;0.8213;1.1602;
830.7000;0.8156;1.1501;
831.0000;0.8197;1.1627;
831.3000;0.8189;1.1627;
831.6000;0.8197;1.1627;
831.9000;0.8197;1.1677;
832.2000;0.8164;1.1703;
832.5000;0.8230;1.1803;
832.8000;0.8189;1.1753;
833.1000;0.8213;1.1753;
833.4000;0.8197;1.1778;
833.7000;0.8189;1.1778;
834.0000;0.8181;1.1803;
834.3000;0.8197;1.1828;
834.6000;0.8197;1.1753;
834.9000;0.8173;1.1703;
835.2000;0.8156;1.1577;
835.5000;0.8181;1.1627;
835.8000;0.8197;1.1602;
836.1000;0.8181;1.1677;
836.4000;0.8189;1.1728;
836.7000;0.8189;1.1652;
837.0000;0.8099;1.1426;
837.3000;0.8181;1.1677;
837.6000;0.8173;1.1627;
837.9000;0.8189;1.1803;
838.2000;0.8205;1.1879;
838.5000;0.8164;1.1753;
838.8000;0.8189;1.1854;
839.1000;0.8173;1.1803;
839.4000;0.8181;1.1828;
839.7000;0.8181;1.1904;
840.0000;0.8173;1.1828;
840.3000;0.8189;1.1904;
840.6000;0.8132;1.1753;
840.9000;0.8173;1.1778;
841.2000;0.8197;1.1778;
841.5000;0.8189;1.1703;
841.8000;0.8091;1.1451;
842.1000;0.8189;1.1703;
842.4000;0.8189;1.1677;
842.7000;0.8173;1.1652;
843.0000;0.8197;1.1627;
843.3000;0.8132;1.1577;
843.6000;0.8173;1.1703;
843.9000;0.8173;1.1703;
844.2000;0.8181;1.1652;
844.5000;0.8189;1.1652;
844.8000;0.8164;1.1677;
845.1000;0.8189;1.1703;
845.4000;0.8124;1.1526;
845.7000;0.8181;1.1677;
846.0000;0.8173;1.1677;
846.3000;0.8173;1.1703;
846.6000;0.8181;1.1753;
846.9000;0.8197;1.1803;
847.2000;0.8173;1.1803;
847.5000;0.8189;1.1828;
847.8000;0.8189;1.1728;
848.1000;0.8173;1.1728;
848.4000;0.8181;1.1753;
848.7000;0.8164;1.1753;
849.0000;0.8181;1.1828;
849.3000;0.8181;1.1828;
849.6000;0.8181;1.1778;
849.9000;0.8156;1.1728;
850.2000;0.8148;1.1652;
850.5000;0.8148;1.1652;
850.8000;0.8156;1.1703;
851.1000;0.8156;1.1703;
851.4000;0.8156;1.1753;
851.7000;0.8164;1.1753;
852.0000;0.8164;1.1753;
852.3000;0.8173;1.1778;
852.6000;0.8156;1.1753;
852.9000;0.8173;1.1677;
853.2000;0.8181;1.1803;
853.5000;0.8132;1.1803;
853.8000;0.8156;1.1803;
854.1000;0.8156;1.1778;
854.4000;0.8173;1.1803;
854.7000;0.8189;1.1879;
855.0000;0.8156;1.1854;
855.3000;0.8156;1.1854;
855.6000;0.8173;1.1879;
855.9000;0.8156;1.1854;
856.2000;0.8189;1.1828;
856.5000;0.8173;1.1803;
856.8000;0.8156;1.1753;
857.1000;0.8173;1.1803;
857.4000;0.8132;1.1703;
857.7000;0.8132;1.1652;
858.0000;0.8156;1.1753;
858.3000;0.8099;1.1677;
858.6000;0.8164;1.1828;
858.9000;0.8156;1.1778;
859.2000;0.8164;1.1929;
859.5000;0.8075;1.1677;
859.8000;0.8164;1.1828;
860.1000;0.8173;1.1879;
860.4000;0.8205;1.1929;
860.7000;0.8164;1.1753;
861.0000;0.8173;1.1778;
861.3000;0.8059;1.1552;
861.6000;0.8116;1.1703;
861.9000;0.8156;1.1778;
862.2000;0.8213;1.1854;
862.5000;0.8148;1.1703;
862.8000;0.8173;1.1778;
863.1000;0.8173;1.1728;
863.4000;0.8156;1.1652;
863.7000;0.8156;1.1602;
864.0000;0.8221;1.1879;
864.3000;0.8075;1.1602;
864.6000;0.8156;1.1753;
864.9000;0.8124;1.1753;
865.2000;0.8091;1.1677;
865.5000;0.8132;1.1703;
865.8000;0.8213;1.1979;
866.1000;0.8148;1.1778;
866.4000;0.8164;1.1703;
866.7000;0.8140;1.1703;
867.0000;0.8124;1.1703;
867.3000;0.8148;1.1627;
867.6000;0.8083;1.1526;
867.9000;0.8140;1.1778;
868.2000;0.8156;1.1753;
868.5000;0.8156;1.1778;
868.8000;0.8132;1.1703;
869.1000;0.8140;1.1577;
869.4000;0.8132;1.1476;
869.7000;0.8148;1.1476;
870.0000;0.8132;1.1451;
870.3000;0.8132;1.1476;
870.6000;0.8124;1.1602;
870.9000;0.8148;1.1627;
871.2000;0.8132;1.1501;
871.5000;0.8116;1.1401;
871.8000;0.8124;1.1350;
872.1000;0.8124;1.1451;
872.4000;0.8132;1.1476;
872.7000;0.8124;1.1426;
873.0000;0.8050;1.1199;
873.3000;0.8189;1.1526;
873.6000;0.8124;1.1401;
873.9000;0.8132;1.1401;
874.2000;0.8148;1.1401;
874.5000;0.8132;1.1401;
874.8000;0.8140;1.1325;
875.1000;0.8140;1.1350;
875.4000;0.8107;1.1401;
875.7000;0.8140;1.1401;
876.0000;0.8148;1.1501;
876.3000;0.8124;1.1526;
876.6000;0.8148;1.1602;
876.9000;0.8124;1.1602;
877.2000;0.8140;1.1627;
877.5000;0.8132;1.1677;
877.8000;0.8132;1.1526;
878.1000;0.8124;1.1552;
878.4000;0.8164;1.1627;
878.7000;0.8173;1.1703;
879.0000;0.8124;1.1602;
879.3000;0.8124;1.1627;
879.6000;0.8107;1.1552;
879.9000;0.8173;1.1652;
880.2000;0.8124;1.1577;
880.5000;0.8205;1.1778;
880.8000;0.8173;1.1602;
881.1000;0.8116;1.1426;
881.4000;0.8116;1.1426;
881.7000;0.8099;1.1325;
882.0000;0.8148;1.1501;
882.3000;0.8140;1.1401;
882.6000;0.8124;1.1426;
882.9000;0.8124;1.1451;
883.2000;0.8124;1.1526;
883.5000;0.8107;1.1501;
883.8000;0.8246;1.1929;
884.1000;0.8107;1.1602;
884.4000;0.8099;1.1703;
884.7000;0.8140;1.1803;
885.0000;0.8140;1.1753;
885.3000;0.8140;1.1803;
885.6000;0.8107;1.1652;
885.9000;0.8116;1.1652;
886.2000;0.8140;1.1703;
886.5000;0.8107;1.1677;
886.8000;0.8124;1.1753;
887.1000;0.8140;1.1803;
887.4000;0.8148;1.1879;
887.7000;0.8132;1.1828;
888.0000;0.8124;1.1854;
888.3000;0.8067;1.1677;
888.6000;0.8132;1.1828;
888.9000;0.8132;1.1728;
889.2000;0.8148;1.1728;
889.5000;0.8124;1.1677;
889.8000;0.8107;1.1778;
890.1000;0.8132;1.1803;
890.4000;0.8124;1.1728;
890.7000;0.8107;1.1753;
891.0000;0.8124;1.1828;
891.3000;0.8189;1.1929;
891.6000;0.8099;1.1652;
891.9000;0.8173;1.1828;
892.2000;0.8083;1.1627;
892.5000;0.8116;1.1703;
892.8000;0.8124;1.1728;
893.1000;0.8140;1.1828;
893.4000;0.8140;1.1778;
893.7000;0.8140;1.1778;
894.0000;0.8124;1.1854;
894.3000;0.8132;1.1879;
894.6000;0.8140;1.1904;
894.9000;0.8107;1.1854;
895.2000;0.8107;1.1803;
895.5000;0.8124;1.1854;
895.8000;0.8107;1.1778;
896.1000;0.8124;1.1854;
896.4000;0.8132;1.1954;
896.7000;0.8116;1.1828;
897.0000;0.8010;1.1552;
897.3000;0.8132;1.1828;
897.6000;0.8116;1.1828;
897.9000;0.8189;1.1879;
898.2000;0.8116;1.1627;
898.5000;0.8099;1.1627;
898.8000;0.8116;1.1703;
899.1000;0.8124;1.1703;
899.4000;0.8107;1.1728;
899.7000;0.8107;1.1753;
900.0000;0.8107;1.1778;
900.3000;0.8091;1.1778;
900.6000;0.8067;1.1753;
900.9000;0.8099;1.1803;
901.2000;0.8107;1.1803;
901.5000;0.8116;1.1753;
901.8000;0.8140;1.1803;
902.1000;0.8116;1.1803;
902.4000;0.8107;1.1778;
902.7000;0.8124;1.1828;
903.0000;0.8124;1.1904;
903.3000;0.8099;1.1854;
903.6000;0.8075;1.1879;
903.9000;0.8083;1.1828;
904.2000;0.8116;1.1854;
904.5000;0.8132;1.1854;
904.8000;0.8107;1.1677;
905.1000;0.8099;1.1677;
905.4000;0.8075;1.1552;
905.7000;0.8083;1.1677;
906.0000;0.8099;1.1803;
906.3000;0.8099;1.1778;
906.6000;0.8107;1.1803;
906.9000;0.8091;1.1854;
907.2000;0.8140;1.1929;
907.5000;0.8042;1.1703;
907.8000;0.8140;1.1979;
908.1000;0.8116;1.1929;
908.4000;0.8099;1.1803;
908.7000;0.8107;1.1904;
909.0000;0.8107;1.1854;
909.3000;0.8091;1.1828;
909.6000;0.8124;1.1854;
909.9000;0.8116;1.1803;
910.2000;0.8099;1.1753;
910.5000;0.8116;1.1753;
910.8000;0.8083;1.1677;
911.1000;0.8067;1.1552;
911.4000;0.8107;1.1753;
911.7000;0.8116;1.1828;
912.0000;0.8083;1.1753;
912.3000;0.8107;1.1854;
912.6000;0.8107;1.1854;
912.9000;0.8107;1.1803;
913.2000;0.8107;1.1778;
913.5000;0.8091;1.1703;
913.8000;0.8083;1.1703;
914.1000;0.8197;1.1954;
914.4000;0.8107;1.1778;
914.7000;0.8099;1.1753;
915.0000;0.8107;1.1828;
915.3000;0.8083;1.1753;
915.6000;0.8099;1.1854;
915.9000;0.8083;1.1803;
916.2000;0.8124;1.1929;
916.5000;0.8116;1.1879;
916.8000;0.8099;1.1803;
917.1000;0.8091;1.1803;
917.4000;0.8099;1.1803;
917.7000;0.8099;1.1753;
918.0000;0.8099;1.1703;
918.3000;0.8099;1.1627;
918.6000;0.8083;1.1577;
918.9000;0.8091;1.1627;
919.2000;0.8075;1.1577;
919.5000;0.8083;1.1577;
919.8000;0.8099;1.1677;
920.1000;0.8091;1.1577;
920.4000;0.8091;1.1602;
920.7000;0.8099;1.1627;
921.0000;0.8083;1.1577;
921.3000;0.8083;1.1627;
921.6000;0.8099;1.1677;
921.9000;0.8099;1.1602;
922.2000;0.8091;1.1652;
922.5000;0.8099;1.1753;
922.8000;0.8107;1.1803;
923.1000;0.8107;1.1753;
923.4000;0.8099;1.1778;
923.7000;0.8099;1.1904;
924.0000;0.8075;1.1828;
924.3000;0.8091;1.1778;
924.6000;0.8091;1.1728;
924.9000;0.8075;1.1728;
925.2000;0.8075;1.1728;
925.5000;0.8099;1.1778;
925.8000;0.8091;1.1803;
926.1000;0.8197;1.2055;
926.4000;0.8099;1.1879;
926.7000;0.8091;1.1904;
927.0000;0.8099;1.1929;
927.3000;0.8091;1.1828;
927.6000;0.8067;1.1703;
927.9000;0.8091;1.1778;
928.2000;0.8099;1.1828;
928.5000;0.8083;1.1803;
928.8000;0.8116;1.1879;
929.1000;0.8091;1.1904;
929.4000;0.8091;1.1929;
929.7000;0.8091;1.1979;
930.0000;0.8034;1.1879;
930.3000;0.8083;1.2055;
930.6000;0.8075;1.1979;
930.9000;0.8091;1.1929;
931.2000;0.8083;1.1854;
931.5000;0.8107;1.1904;
931.8000;0.8164;1.2030;
932.1000;0.8164;1.2005;
932.4000;0.8075;1.1753;
932.7000;0.8083;1.1778;
933.0000;0.8002;1.1501;
933.3000;0.8091;1.1778;
933.6000;0.8091;1.1753;
933.9000;0.8091;1.1677;
934.2000;0.8107;1.1753;
934.5000;0.8067;1.1627;
934.8000;0.8075;1.1652;
935.1000;0.8083;1.1728;
935.4000;0.8067;1.1677;
935.7000;0.8091;1.1753;
936.0000;0.8099;1.1703;
936.3000;0.8099;1.1703;
936.6000;0.8099;1.1728;
936.9000;0.8083;1.1728;
937.2000;0.8091;1.1828;
937.5000;0.8075;1.1879;
937.8000;0.8075;1.1929;
938.1000;0.8083;1.1904;
938.4000;0.8116;1.2055;
938.7000;0.8091;1.1979;
939.0000;0.8091;1.1929;
939.3000;0.8091;1.1879;
939.6000;0.8059;1.1828;
939.9000;0.8075;1.1828;
940.2000;0.8099;1.1979;
940.5000;0.8075;1.1904;
940.8000;0.8083;1.1854;
941.1000;0.8067;1.1803;
941.4000;0.8099;1.1828;
941.7000;0.8083;1.1728;
942.0000;0.8116;1.1703;
942.3000;0.8059;1.1627;
942.6000;0.8059;1.1728;
942.9000;0.8067;1.1728;
943.2000;0.8107;1.1904;
943.5000;0.8059;1.1854;
943.8000;0.8083;1.1879;
944.1000;0.8075;1.1803;
944.4000;0.8148;1.2030;
944.7000;0.8075;1.1904;
945.0000;0.8148;1.2080;
945.3000;0.8067;1.1929;
945.6000;0.8075;1.1954;
945.9000;0.8091;1.1904;
946.2000;0.8091;1.2030;
946.5000;0.8067;1.1904;
946.8000;0.8083;1.1904;
947.1000;0.8059;1.1803;
947.4000;0.8099;1.1929;
947.7000;0.8083;1.1879;
948.0000;0.8083;1.1854;
948.3000;0.8091;1.1828;
948.6000;0.8132;1.1854;
948.9000;0.8083;1.1778;
949.2000;0.8075;1.1778;
949.5000;0.8067;1.1879;
949.8000;0.8091;1.1929;
950.1000;0.8075;1.1778;
950.4000;0.8075;1.1778;
950.7000;0.8059;1.1703;
951.0000;0.8083;1.1854;
951.3000;0.8083;1.1854;
951.6000;0.8116;1.1904;
951.9000;0.8091;1.1854;
952.2000;0.8083;1.1753;
952.5000;0.8091;1.1828;
952.8000;0.8107;1.1904;
953.1000;0.8067;1.1803;
953.4000;0.8083;1.1854;
953.7000;0.8083;1.1879;
954.0000;0.8124;1.2005;
954.3000;0.8067;1.1954;
954.6000;0.8059;1.1979;
954.9000;0.8083;1.2080;
955.2000;0.8091;1.2080;
955.5000;0.8059;1.1954;
955.8000;0.8059;1.1929;
956.1000;0.8091;1.2030;
956.4000;0.8067;1.2005;
956.7000;0.8083;1.1929;
957.0000;0.8107;1.2005;
957.3000;0.8083;1.1979;
957.6000;0.8026;1.1828;
957.9000;0.8075;1.1803;
958.2000;0.8083;1.1828;
958.5000;0.8067;1.1854;
958.8000;0.8026;1.1728;
959.1000;0.8059;1.1828;
959.4000;0.8050;1.1828;
959.7000;0.8067;1.1879;
960.0000;0.8075;1.1904;
960.3000;0.8083;1.1828;
960.6000;0.8075;1.1778;
960.9000;0.8050;1.1703;
961.2000;0.8067;1.1753;
961.5000;0.8091;1.1778;
961.8000;0.8059;1.1728;
962.1000;0.8075;1.1728;
962.4000;0.8083;1.1753;
962.7000;0.8099;1.1854;
963.0000;0.8075;1.1803;
963.3000;0.8075;1.1879;
963.6000;0.8059;1.1929;
963.9000;0.8050;1.1929;
964.2000;0.8083;1.1979;
964.5000;0.8059;1.1954;
964.8000;0.8075;1.2030;
965.1000;0.8059;1.1929;
965.4000;0.8075;1.1979;
965.7000;0.8059;1.1979;
966.0000;0.8059;1.1979;
966.3000;0.8067;1.1954;
966.6000;0.8091;1.2005;
966.9000;0.8132;1.2055;
967.2000;0.8083;1.1954;
967.5000;0.8083;1.1929;
967.8000;0.8067;1.1904;
968.1000;0.8173;1.2181;
968.4000;0.8075;1.1954;
968.7000;0.8075;1.1854;
969.0000;0.8099;1.1879;
969.3000;0.8042;1.1854;
969.6000;0.8091;1.1904;
969.9000;0.8059;1.1929;
970.2000;0.8059;1.1979;
970.5000;0.8083;1.1979;
970.8000;0.8059;1.1828;
971.1000;0.8075;1.1879;
971.4000;0.8067;1.1828;
971.7000;0.8059;1.1803;
972.0000;0.8042;1.1778;
972.3000;0.8067;1.1854;
972.6000;0.8107;1.1954;
972.9000;0.8075;1.1854;
973.2000;0.8067;1.1778;
973.5000;0.8059;1.1728;
973.8000;0.8083;1.1753;
974.1000;0.8067;1.1728;
974.4000;0.8050;1.1728;
974.7000;0.8050;1.1828;
975.0000;0.8059;1.1879;
975.3000;0.8083;1.1904;
975.6000;0.8002;1.1501;
975.9000;0.8059;1.1652;
976.2000;0.8059;1.1602;
976.5000;0.8050;1.1703;
976.8000;0.8059;1.1828;
977.1000;0.8050;1.1828;
977.4000;0.8042;1.1879;
977.7000;0.8050;1.1854;
978.0000;0.8050;1.1778;
978.3000;0.8050;1.1753;
978.6000;0.8042;1.1728;
978.9000;0.8042;1.1677;
979.2000;0.8067;1.1677;
979.5000;0.8042;1.1627;
979.8000;0.8067;1.1703;
980.1000;0.8116;1.1828;
980.4000;0.8059;1.1627;
980.7000;0.8059;1.1602;
981.0000;0.8042;1.1652;
981.3000;0.8083;1.1677;
981.6000;0.8034;1.1577;
981.9000;0.8059;1.1627;
982.2000;0.8050;1.1677;
982.5000;0.8099;1.1854;
982.8000;0.8059;1.1803;
983.1000;0.8050;1.1778;
983.4000;0.8083;1.1954;
983.7000;0.8067;1.1828;
984.0000;0.8059;1.1803;
984.3000;0.8067;1.1854;
984.6000;0.8042;1.1778;
984.9000;0.8059;1.1778;
985.2000;0.8099;1.1854;
985.5000;0.8075;1.1854;
985.8000;0.8067;1.1753;
986.1000;0.8050;1.1753;
986.4000;0.8050;1.1803;
986.7000;0.8067;1.1828;
987.0000;0.8059;1.1803;
987.3000;0.8050;1.1854;
987.6000;0.8034;1.1753;
987.9000;0.8083;1.1854;
988.2000;0.8067;1.1854;
988.5000;0.8173;1.2105;
988.8000;0.8067;1.1803;
989.1000;0.8050;1.1753;
989.4000;0.7969;1.1526;
989.7000;0.8034;1.1652;
990.0000;0.8067;1.1753;
990.3000;0.8059;1.1778;
990.6000;0.8050;1.1854;
990.9000;0.8050;1.1828;
991.2000;0.8042;1.1753;
991.5000;0.8059;1.1778;
991.8000;0.8059;1.1854;
992.1000;0.8042;1.1778;
992.4000;0.8050;1.1904;
992.7000;0.8059;1.1954;
993.0000;0.8067;1.2055;
993.3000;0.8164;1.2281;
993.6000;0.8050;1.1954;
993.9000;0.8067;1.1954;
994.2000;0.8059;1.1879;
994.5000;0.8059;1.1828;
994.8000;0.8050;1.1778;
995.1000;0.8034;1.1753;
995.4000;0.8075;1.1879;
995.7000;0.8050;1.1803;
996.0000;0.8067;1.1803;
996.3000;0.8059;1.1803;
996.6000;0.8050;1.1803;
996.9000;0.8059;1.1879;
997.2000;0.8034;1.1854;
997.5000;0.7969;1.1652;
997.8000;0.8059;1.1904;
998.1000;0.8042;1.1879;
998.4000;0.8059;1.1854;
998.7000;0.8042;1.1854;
999.0000;0.8059;1.1778;
999.3000;0.8050;1.1803;
999.6000;0.8107;1.1979;
999.9000;0.8050;1.1778;
1000.2000;0.8050;1.1778;
1000.5000;0.8067;1.1753;
1000.8000;0.8059;1.1703;
1001.1000;0.8050;1.1627;
1001.4000;0.8156;1.1904;
1001.7000;0.8067;1.1753;
1002.0000;0.8059;1.1778;
1002.3000;0.8059;1.1778;
1002.6000;0.8107;1.1879;
1002.9000;0.8067;1.1803;
1003.2000;0.8059;1.1828;
1003.5000;0.8050;1.1879;
1003.8000;0.8067;1.1904;
1004.1000;0.8050;1.1954;
1004.4000;0.8075;1.2030;
1004.7000;0.8059;1.2030;
1005.0000;0.8059;1.1929;
1005.3000;0.8050;1.1929;
1005.6000;0.8067;1.1879;
1005.9000;0.8067;1.1904;
1006.2000;0.8050;1.1854;
1006.5000;0.8042;1.1879;
1006.8000;0.8059;1.1929;
1007.1000;0.8002;1.1828;
1007.4000;0.8042;1.1929;
1007.7000;0.8042;1.1879;
1008.0000;0.8034;1.1879;
1008.3000;0.8042;1.1879;
1008.6000;0.8050;1.1879;
1008.9000;0.8034;1.1828;
1009.2000;0.8026;1.1854;
1009.5000;0.8042;1.1929;
1009.8000;0.8042;1.1954;
1010.1000;0.8042;1.2055;
1010.4000;0.8042;1.2005;
1010.7000;0.8059;1.2005;
1011.0000;0.8042;1.1904;
1011.3000;0.8042;1.1879;
1011.6000;0.8083;1.2055;
1011.9000;0.8042;1.1954;
1012.2000;0.8034;1.1954;
1012.5000;0.8034;1.1929;
1012.8000;0.8042;1.2005;
1013.1000;0.8059;1.2080;
1013.4000;0.8140;1.2281;
1013.7000;0.8067;1.1904;
1014.0000;0.8116;1.2080;
1014.3000;0.8042;1.1904;
1014.6000;0.8059;1.1904;
1014.9000;0.8042;1.1879;
1015.2000;0.8059;1.1904;
1015.5000;0.8034;1.1803;
1015.8000;0.8050;1.1828;
1016.1000;0.8059;1.1854;
1016.4000;0.8026;1.1803;
1016.7000;0.8042;1.1904;
1017.0000;0.8050;1.1954;
1017.3000;0.8042;1.1904;
1017.6000;0.8018;1.1854;
1017.9000;0.8059;1.1904;
1018.2000;0.8042;1.1854;
1018.5000;0.8059;1.1854;
1018.8000;0.8059;1.1854;
1019.1000;0.8059;1.1954;
1019.4000;0.8034;1.1879;
1019.7000;0.8050;1.1879;
1020.0000;0.8034;1.1854;
1020.3000;0.8018;1.1803;
1020.6000;0.8034;1.1778;
1020.9000;0.8059;1.1828;
1021.2000;0.8026;1.1728;
1021.5000;0.8107;1.2005;
1021.8000;0.8034;1.1854;
1022.1000;0.8042;1.1904;
1022.4000;0.8050;1.1828;
1022.7000;0.8034;1.1803;
1023.0000;0.8050;1.1803;
1023.3000;0.8050;1.1778;
1023.6000;0.8050;1.1803;
1023.9000;0.8067;1.1904;
1024.2000;0.8148;1.2181;
1024.5000;0.8059;1.1879;
1024.8000;0.8050;1.1828;
1025.1000;0.8116;1.2055;
1025.4000;0.8083;1.2055;
1025.7000;0.7993;1.1753;
1026.0000;0.8034;1.1803;
1026.3000;0.8026;1.1753;
1026.6000;0.8026;1.1703;
1026.9000;0.8018;1.1677;
1027.2000;0.8042;1.1753;
1027.5000;0.8034;1.1703;
1027.8000;0.8018;1.1652;
1028.1000;0.8010;1.1602;
1028.4000;0.8042;1.1677;
1028.7000;0.8002;1.1778;
1029.0000;0.8034;1.1778;
1029.3000;0.8034;1.1828;
1029.6000;0.8026;1.1778;
1029.9000;0.8050;1.1803;
1030.2000;0.8042;1.1803;
1030.5000;0.8034;1.1828;
1030.8000;0.8042;1.1854;
1031.1000;0.8034;1.1854;
1031.4000;0.8042;1.1929;
1031.7000;0.8034;1.1929;
1032.0000;0.8026;1.2005;
1032.3000;0.8042;1.2080;
1032.6000;0.8034;1.2030;
1032.9000;0.8018;1.1954;
1033.2000;0.8026;1.1929;
1033.5000;0.8034;1.1854;
1033.8000;0.8026;1.1879;
1034.1000;0.8034;1.1929;
1034.4000;0.8059;1.1954;
1034.7000;0.8034;1.1879;
1035.0000;0.8034;1.1879;
1035.3000;0.8091;1.1979;
1035.6000;0.8042;1.1879;
1035.9000;0.8026;1.1828;
1036.2000;0.8026;1.1929;
1036.5000;0.8026;1.1929;
1036.8000;0.8026;1.1954;
1037.1000;0.8002;1.1904;
1037.4000;0.8091;1.2156;
1037.7000;0.8034;1.2030;
1038.0000;0.8034;1.1954;
1038.3000;0.8042;1.2030;
1038.6000;0.8018;1.2055;
1038.9000;0.8083;1.2130;
1039.2000;0.7961;1.1778;
1039.5000;0.8026;1.1854;
1039.8000;0.8034;1.1803;
1040.1000;0.8050;1.1803;
1040.4000;0.8010;1.1728;
1040.7000;0.8010;1.1677;
1041.0000;0.8026;1.1627;
1041.3000;0.8042;1.1627;
1041.6000;0.8026;1.1627;
1041.9000;0.8002;1.1577;
1042.2000;0.8050;1.1753;
1042.5000;0.8034;1.1753;
1042.8000;0.8034;1.1828;
1043.1000;0.8034;1.1904;
1043.4000;0.8018;1.1803;
1043.7000;0.8026;1.1828;
1044.0000;0.8042;1.1803;
1044.3000;0.7993;1.1677;
1044.6000;0.8042;1.1778;
1044.9000;0.8010;1.1677;
1045.2000;0.8034;1.1778;
1045.5000;0.8034;1.1728;
1045.8000;0.8002;1.1577;
1046.1000;0.8018;1.1677;
1046.4000;0.8002;1.1652;
1046.7000;0.8010;1.1778;
1047.0000;0.7953;1.1652;
1047.3000;0.8002;1.1728;
1047.6000;0.7993;1.1703;
1047.9000;0.7969;1.1728;
1048.2000;0.8026;1.1828;
1048.5000;0.8034;1.1929;
1048.8000;0.8042;1.1854;
1049.1000;0.7863;1.1375;
1049.4000;0.8026;1.1854;
1049.7000;0.8026;1.1828;
1050.0000;0.8026;1.1803;
1050.3000;0.8026;1.1703;
1050.6000;0.8042;1.1728;
1050.9000;0.8018;1.1753;
1051.2000;0.8010;1.1778;
1051.5000;0.8002;1.1677;
1051.8000;0.8018;1.1703;
1052.1000;0.8026;1.1627;
1052.4000;0.8010;1.1627;
1052.7000;0.8067;1.1778;
1053.0000;0.8018;1.1552;
1053.3000;0.8010;1.1552;
1053.6000;0.8018;1.1602;
1053.9000;0.8034;1.1677;
1054.2000;0.8026;1.1652;
1054.5000;0.8042;1.1854;
1054.8000;0.8018;1.1828;
1055.1000;0.8042;1.1879;
1055.4000;0.8042;1.1979;
1055.7000;0.8026;1.1979;
1056.0000;0.8026;1.2030;
1056.3000;0.8059;1.2030;
1056.6000;0.8026;1.1854;
1056.9000;0.8026;1.1854;
1057.2000;0.8026;1.1904;
1057.5000;0.8042;1.1929;
1057.8000;0.8034;1.1954;
1058.1000;0.8075;1.2005;
1058.4000;0.8034;1.1854;
1058.7000;0.8026;1.1803;
1059.0000;0.8034;1.1778;
1059.3000;0.8042;1.1828;
1059.6000;0.8050;1.1753;
1059.9000;0.7969;1.1552;
1060.2000;0.8010;1.1703;
1060.5000;0.8026;1.1778;
1060.8000;0.8018;1.1728;
1061.1000;0.8018;1.1828;
1061.4000;0.8018;1.1828;
1061.7000;0.8050;1.2005;
1062.0000;0.8018;1.1954;
1062.3000;0.8026;1.1954;
1062.6000;0.8026;1.2005;
1062.9000;0.7977;1.1803;
1063.2000;0.8034;1.1929;
1063.5000;0.8026;1.1904;
1063.8000;0.8042;1.2005;
1064.1000;0.8034;1.1954;
1064.4000;0.8018;1.1929;
1064.7000;0.8042;1.1979;
1065.0000;0.8010;1.1904;
1065.3000;0.8026;1.1879;
1065.6000;0.8026;1.1929;
1065.9000;0.7993;1.1929;
1066.2000;0.8010;1.1954;
1066.5000;0.7977;1.1954;
1066.8000;0.8010;1.2005;
1067.1000;0.7945;1.1828;
1067.4000;0.8018;1.1979;
1067.7000;0.7961;1.1904;
1068.0000;0.8018;1.2206;
1068.3000;0.8026;1.2080;
1068.6000;0.8026;1.1979;
1068.9000;0.8010;1.1803;
1069.2000;0.8018;1.1828;
1069.5000;0.8067;1.1979;
1069.8000;0.8018;1.1803;
1070.1000;0.8050;1.2005;
1070.4000;0.8010;1.1979;
1070.7000;0.8059;1.2080;
1071.0000;0.8010;1.2005;
1071.3000;0.8026;1.2055;
1071.6000;0.7945;1.1904;
1071.9000;0.8018;1.2030;
1072.2000;0.8010;1.2030;
1072.5000;0.8018;1.2055;
1072.8000;0.8018;1.2105;
1073.1000;0.8002;1.2105;
1073.4000;0.8002;1.2156;
1073.7000;0.8026;1.2206;
1074.0000;0.8026;1.2231;
1074.3000;0.8034;1.2130;
1074.6000;0.8026;1.2030;
1074.9000;0.8026;1.2005;
1075.2000;0.8002;1.1879;
1075.5000;0.8018;1.1854;
1075.8000;0.8026;1.1803;
1076.1000;0.8026;1.1677;
1076.4000;0.8018;1.1677;
1076.7000;0.8083;1.1904;
1077.0000;0.8042;1.1854;
1077.3000;0.8018;1.1828;
1077.6000;0.8010;1.1828;
1077.9000;0.8002;1.1854;
1078.2000;0.8026;1.1929;
1078.5000;0.8026;1.1854;
1078.8000;0.8002;1.1778;
1079.1000;0.8050;1.1879;
1079.4000;0.8034;1.1879;
1079.7000;0.8091;1.2130;
1080.0000;0.8026;1.1954;
1080.3000;0.8050;1.2030;
1080.6000;0.8034;1.1979;
1080.9000;0.8018;1.1904;
1081.2000;0.8018;1.1879;
1081.5000;0.8059;1.1879;
1081.8000;0.8042;1.1879;
1082.1000;0.7928;1.1627;
1082.4000;0.8018;1.1929;
1082.7000;0.7993;1.1828;
1083.0000;0.8026;1.1854;
1083.3000;0.8034;1.1879;
1083.6000;0.8018;1.1879;
1083.9000;0.8018;1.1828;
1084.2000;0.8026;1.1803;
1084.5000;0.7961;1.1728;
1084.8000;0.8018;1.1854;
1085.1000;0.8018;1.1904;
1085.4000;0.8026;1.1904;
1085.7000;0.8018;1.1954;
1086.0000;0.8026;1.1879;
1086.3000;0.8050;1.1929;
1086.6000;0.8010;1.1929;
1086.9000;0.8034;1.1954;
1087.2000;0.8002;1.1954;
1087.5000;0.8010;1.1929;
1087.8000;0.8018;1.1879;
1088.1000;0.8002;1.1803;
1088.4000;0.8026;1.1854;
1088.7000;0.7985;1.1728;
1089.0000;0.7993;1.1803;
1089.3000;0.8018;1.1854;
1089.6000;0.8002;1.1854;
1089.9000;0.8018;1.1879;
1090.2000;0.8010;1.1854;
1090.5000;0.8002;1.1778;
1090.8000;0.8026;1.1854;
1091.1000;0.8010;1.1929;
1091.4000;0.8018;1.1879;
1091.7000;0.8050;1.1929;
1092.0000;0.7969;1.1753;
1092.3000;0.8026;1.1854;
1092.6000;0.7993;1.1828;
1092.9000;0.8010;1.1778;
1093.2000;0.7912;1.1501;
1093.5000;0.7993;1.1753;
1093.8000;0.8018;1.1854;
1094.1000;0.8010;1.1879;
1094.4000;0.8026;1.2005;
1094.7000;0.8018;1.1879;
1095.0000;0.8018;1.1879;
1095.3000;0.8026;1.1803;
1095.6000;0.7993;1.1753;
1095.9000;0.8026;1.1879;
1096.2000;0.8026;1.1954;
1096.5000;0.8002;1.1979;
1096.8000;0.8018;1.1979;
1097.1000;0.7969;1.1929;
1097.4000;0.8026;1.1979;
1097.7000;0.8026;1.1979;
1098.0000;0.8018;1.2080;
1098.3000;0.8026;1.2030;
1098.6000;0.8034;1.2080;
1098.9000;0.8018;1.2105;
1099.2000;0.8034;1.2156;
1099.5000;0.8018;1.2055;
1099.8000;0.8026;1.2105;
1100.1000;0.8067;1.2206;
1100.4000;0.8034;1.2030;
1100.7000;0.8026;1.2130;
1101.0000;0.8026;1.2030;
1101.3000;0.7937;1.1803;
1101.6000;0.8002;1.1828;
1101.9000;0.8042;1.1904;
1102.2000;0.8018;1.1803;
1102.5000;0.8026;1.1854;
1102.8000;0.8010;1.1929;
1103.1000;0.8026;1.1904;
1103.4000;0.8002;1.1904;
1103.7000;0.7993;1.1979;
1104.0000;0.8018;1.2130;
1104.3000;0.8010;1.2105;
1104.6000;0.8010;1.2080;
1104.9000;0.8010;1.2105;
1105.2000;0.7937;1.1979;
1105.5000;0.8034;1.2156;
1105.8000;0.8002;1.2105;
1106.1000;0.8010;1.2206;
1106.4000;0.8083;1.2256;
1106.7000;0.8002;1.2055;
1107.0000;0.7928;1.1828;
1107.3000;0.8018;1.2005;
1107.6000;0.8002;1.1929;
1107.9000;0.8067;1.2105;
1108.2000;0.8026;1.1979;
1108.5000;0.8026;1.2005;
1108.8000;0.8026;1.2005;
1109.1000;0.7945;1.1778;
1109.4000;0.8026;1.1979;
1109.7000;0.8091;1.2181;
1110.0000;0.8026;1.1929;
1110.3000;0.8042;1.2055;
1110.6000;0.8018;1.2030;
1110.9000;0.7985;1.2005;
1111.2000;0.8018;1.2156;
1111.5000;0.8018;1.2130;
1111.8000;0.8002;1.2105;
1112.1000;0.8010;1.2206;
1112.4000;0.8034;1.2256;
1112.7000;0.7904;1.1904;
1113.0000;0.8010;1.2080;
1113.3000;0.8002;1.1979;
1113.6000;0.8018;1.2105;
1113.9000;0.8018;1.2206;
1114.2000;0.8050;1.2206;
1114.5000;0.8018;1.2105;
1114.8000;0.8018;1.2055;
1115.1000;0.8002;1.1954;
1115.4000;0.8002;1.1929;
1115.7000;0.8026;1.1979;
1116.0000;0.7985;1.1954;
1116.3000;0.8026;1.2030;
1116.6000;0.8010;1.1954;
1116.9000;0.8002;1.1728;
1117.2000;0.8059;1.1904;
1117.5000;0.8026;1.1854;
1117.8000;0.8034;1.1828;
1118.1000;0.8050;1.1979;
1118.4000;0.8018;1.1879;
1118.7000;0.8010;1.1879;
1119.0000;0.8026;1.1904;
1119.3000;0.7993;1.1854;
1119.6000;0.8026;1.1904;
1119.9000;0.8010;1.1753;
1120.2000;0.8018;1.1828;
1120.5000;0.8026;1.1803;
1120.8000;0.8124;1.2181;
1121.1000;0.8026;1.1954;
1121.4000;0.8002;1.1879;
1121.7000;0.7977;1.1828;
1122.0000;0.8010;1.1929;
1122.3000;0.8010;1.2030;
1122.6000;0.8018;1.2080;
1122.9000;0.8026;1.2030;
1123.2000;0.8018;1.2005;
1123.5000;0.8002;1.2080;
1123.8000;0.7977;1.1929;
1124.1000;0.8010;1.2055;
1124.4000;0.8010;1.2055;
1124.7000;0.8026;1.2030;
1125.0000;0.8026;1.2080;
1125.3000;0.8010;1.2030;
1125.6000;0.8002;1.2005;
1125.9000;0.8034;1.2156;
1126.2000;0.7993;1.1979;
1126.5000;0.8002;1.2005;
1126.8000;0.8010;1.2080;
1127.1000;0.8002;1.2005;
1127.4000;0.8026;1.2105;
1127.7000;0.8018;1.2005;
1128.0000;0.8002;1.1879;
1128.3000;0.8010;1.1854;
1128.6000;0.7977;1.1728;
1128.9000;0.8050;1.2030;
1129.2000;0.8010;1.1954;
1129.5000;0.7993;1.1979;
1129.8000;0.7993;1.2005;
1130.1000;0.8018;1.2005;
1130.4000;0.8002;1.2005;
1130.7000;0.8018;1.2055;
1131.0000;0.8018;1.2005;
1131.3000;0.7993;1.2005;
1131.6000;0.7993;1.2055;
1131.9000;0.8026;1.2080;
1132.2000;0.8002;1.2105;
1132.5000;0.8018;1.2080;
1132.8000;0.7993;1.2030;
1133.1000;0.8002;1.2030;
1133.4000;0.8018;1.2181;
1133.7000;0.7993;1.2105;
1134.0000;0.7993;1.2005;
1134.3000;0.8018;1.2005;
1134.6000;0.7985;1.1929;
1134.9000;0.8067;1.2130;
1135.2000;0.8002;1.1979;
1135.5000;0.8018;1.1979;
1135.8000;0.8002;1.2030;
1136.1000;0.8010;1.2005;
1136.4000;0.8002;1.2055;
1136.7000;0.7993;1.1979;
1137.0000;0.8002;1.2005;
1137.3000;0.8026;1.2005;
1137.6000;0.8002;1.1854;
1137.9000;0.8002;1.1828;
1138.2000;0.8026;1.1879;
1138.5000;0.8010;1.1753;
1138.8000;0.8034;1.1703;
1139.1000;0.8018;1.1703;
1139.4000;0.8018;1.1778;
1139.7000;0.7920;1.1526;
1140.0000;0.8002;1.1778;
1140.3000;0.7993;1.1803;
1140.6000;0.7993;1.1854;
1140.9000;0.8010;1.1854;
1141.2000;0.7985;1.1828;
1141.5000;0.8002;1.1929;
1141.8000;0.8002;1.1904;
1142.1000;0.7993;1.1854;
1142.4000;0.8002;1.1778;
1142.7000;0.7969;1.1753;
1143.0000;0.8002;1.1854;
1143.3000;0.8018;1.1979;
1143.6000;0.8010;1.2080;
1143.9000;0.8002;1.2030;
1144.2000;0.8026;1.2105;
1144.5000;0.8018;1.2130;
1144.8000;0.8018;1.2105;
1145.1000;0.8010;1.2030;
1145.4000;0.8002;1.1979;
1145.7000;0.7937;1.1778;
1146.0000;0.8002;1.1879;
1146.3000;0.8002;1.1828;
1146.6000;0.8026;1.1879;
1146.9000;0.8010;1.1854;
1147.2000;0.7993;1.1828;
1147.5000;0.7993;1.1854;
1147.8000;0.8034;1.1979;
1148.1000;0.8018;1.1979;
1148.4000;0.8026;1.2030;
1148.7000;0.7993;1.2005;
1149.0000;0.7993;1.1954;
1149.3000;0.8010;1.1954;
1149.6000;0.8018;1.1954;
1149.9000;0.7985;1.1879;
1150.2000;0.7993;1.1879;
1150.5000;0.8018;1.2005;
1150.8000;0.8018;1.2055;
1151.1000;0.8002;1.1954;
1151.4000;0.8018;1.1979;
1151.7000;0.8010;1.1979;
1152.0000;0.8010;1.1904;
1152.3000;0.8010;1.1929;
1152.6000;0.8002;1.1879;
1152.9000;0.8002;1.1904;
1153.2000;0.7985;1.1803;
1153.5000;0.8010;1.1803;
1153.8000;0.8010;1.1753;
1154.1000;0.8002;1.1728;
1154.4000;0.7985;1.1803;
1154.7000;0.8010;1.1904;
1155.0000;0.7953;1.1803;
1155.3000;0.8010;1.1979;
1155.6000;0.8026;1.2030;
1155.9000;0.8010;1.2005;
1156.2000;0.7993;1.2080;
1156.5000;0.8010;1.2181;
1156.8000;0.7977;1.2105;
1157.1000;0.8018;1.2256;
1157.4000;0.8002;1.2206;
1157.7000;0.7977;1.2080;
1158.0000;0.8010;1.2130;
1158.3000;0.7928;1.1904;
1158.6000;0.8002;1.2055;
1158.9000;0.8010;1.2055;
1159.2000;0.7969;1.1828;
1159.5000;0.7928;1.1854;
1159.8000;0.8002;1.1929;
1160.1000;0.7993;1.1954;
1160.4000;0.7993;1.1954;
1160.7000;0.8042;1.2080;
1161.0000;0.8010;1.1879;
1161.3000;0.7993;1.1854;
1161.6000;0.8010;1.1954;
1161.9000;0.7993;1.1979;
1162.2000;0.7993;1.1879;
1162.5000;0.7993;1.1879;
1162.8000;0.7985;1.1879;
1163.1000;0.8002;1.1854;
1163.4000;0.7993;1.1828;
1163.7000;0.8075;1.2080;
1164.0000;0.8059;1.2080;
1164.3000;0.8018;1.1904;
1164.6000;0.8018;1.1879;
1164.9000;0.8018;1.1879;
1165.2000;0.8107;1.2105;
1165.5000;0.8002;1.1854;
1165.8000;0.8002;1.1954;
1166.1000;0.7993;1.1954;
1166.4000;0.7985;1.1979;
1166.7000;0.7969;1.1929;
1167.0000;0.7993;1.1879;
1167.3000;0.7993;1.1879;
1167.6000;0.8002;1.1904;
1167.9000;0.8002;1.1854;
1168.2000;0.7928;1.1778;
1168.5000;0.8018;1.1979;
1168.8000;0.8002;1.1979;
1169.1000;0.8075;1.2181;
1169.4000;0.8010;1.2005;
1169.7000;0.8010;1.1979;
1170.0000;0.8002;1.1954;
1170.3000;0.8002;1.2005;
1170.6000;0.7993;1.1929;
1170.9000;0.8002;1.1929;
1171.2000;0.7993;1.1929;
1171.5000;0.7993;1.1828;
1171.8000;0.7985;1.1879;
1172.1000;0.8002;1.1904;
1172.4000;0.8010;1.2055;
1172.7000;0.8002;1.2080;
1173.0000;0.7985;1.2055;
1173.3000;0.7993;1.2105;
1173.6000;0.8002;1.2130;
1173.9000;0.8002;1.2055;
1174.2000;0.8002;1.2005;
1174.5000;0.8002;1.2005;
1174.8000;0.8010;1.2030;
1175.1000;0.8010;1.1979;
1175.4000;0.8002;1.2005;
1175.7000;0.7985;1.1904;
1176.0000;0.8099;1.2281;
1176.3000;0.7985;1.1954;
1176.6000;0.7977;1.1879;
1176.9000;0.7985;1.1879;
1177.2000;0.7993;1.1979;
1177.5000;0.7993;1.2005;
1177.8000;0.7993;1.2005;
1178.1000;0.8010;1.2030;
1178.4000;0.8034;1.2156;
1178.7000;0.8018;1.2206;
1179.0000;0.8002;1.2130;
1179.3000;0.7888;1.1879;
1179.6000;0.8002;1.2181;
1179.9000;0.7985;1.2055;
1180.2000;0.8010;1.2105;
1180.5000;0.7961;1.2055;
1180.8000;0.7985;1.2080;
1181.1000;0.7993;1.2005;
1181.4000;0.7953;1.1879;
1181.7000;0.8002;1.2030;
1182.0000;0.7969;1.1879;
1182.3000;0.7985;1.2005;
1182.6000;0.7977;1.2005;
1182.9000;0.7977;1.1954;
1183.2000;0.7985;1.1904;
1183.5000;0.8018;1.1954;
1183.8000;0.7993;1.2030;
1184.1000;0.8002;1.2005;
1184.4000;0.7977;1.1854;
1184.7000;0.7985;1.1879;
1185.0000;0.8018;1.1954;
1185.3000;0.8002;1.2005;
1185.6000;0.7993;1.1954;
1185.9000;0.8002;1.1979;
1186.2000;0.7985;1.1929;
1186.5000;0.7985;1.1828;
1186.8000;0.8002;1.1828;
1187.1000;0.8002;1.1753;
1187.4000;0.7993;1.1703;
1187.7000;0.8002;1.1703;
1188.0000;0.7985;1.1627;
1188.3000;0.8059;1.1828;
1188.6000;0.7993;1.1627;
1188.9000;0.8002;1.1602;
1189.2000;0.8002;1.1652;
1189.5000;0.8018;1.1753;
1189.8000;0.8002;1.1803;
1190.1000;0.8002;1.1854;
1190.4000;0.7961;1.1828;
1190.7000;0.7985;1.1879;
1191.0000;0.7896;1.1753;
1191.3000;0.8018;1.2030;
1191.6000;0.8002;1.2030;
1191.9000;0.7977;1.2005;
1192.2000;0.7961;1.1854;
1192.5000;0.7985;1.1954;
1192.8000;0.8002;1.2030;
1193.1000;0.8002;1.2105;
1193.4000;0.7985;1.2130;
1193.7000;0.8010;1.2181;
1194.0000;0.8002;1.2181;
1194.3000;0.7928;1.2055;
1194.6000;0.8002;1.2156;
1194.9000;0.8002;1.2130;
1195.2000;0.7993;1.2055;
1195.5000;0.7993;1.1979;
1195.8000;0.8002;1.1954;
1196.1000;0.8002;1.2005;
1196.4000;0.8002;1.2005;
1196.7000;0.8002;1.1929;
1197.0000;0.7977;1.1879;
1197.3000;0.7937;1.1828;
1197.6000;0.7953;1.1828;
1197.9000;0.7961;1.1753;
1198.2000;0.7977;1.1677;
1198.5000;0.8018;1.1879;
1198.8000;0.7985;1.1803;
1199.1000;0.8002;1.1854;
1199.4000;0.7993;1.1854;
1199.7000;0.7993;1.1954;
1200.0000;0.7888;1.1703;
1200.3000;0.7993;1.1904;
1200.6000;0.7993;1.1954;
1200.9000;0.8034;1.2080;
1201.2000;0.7969;1.1954;
1201.5000;0.8010;1.2030;
1201.8000;0.7993;1.2030;
1202.1000;0.7985;1.1929;
1202.4000;0.7985;1.1979;
1202.7000;0.8018;1.2080;
1203.0000;0.8002;1.2005;
1203.3000;0.7985;1.1929;
1203.6000;0.8002;1.2030;
1203.9000;0.8002;1.2030;
1204.2000;0.7993;1.2005;
1204.5000;0.7993;1.2005;
1204.8000;0.7993;1.2030;
1205.1000;0.7985;1.2030;
1205.4000;0.7993;1.2030;
1205.7000;0.7985;1.2030;
1206.0000;0.7977;1.1929;
1206.3000;0.7969;1.1929;
1206.6000;0.7977;1.1954;
1206.9000;0.7953;1.1904;
1207.2000;0.7985;1.1904;
1207.5000;0.7993;1.1828;
1207.8000;0.8026;1.1929;
1208.1000;0.7977;1.1828;
1208.4000;0.7985;1.1854;
1208.7000;0.7993;1.1854;
1209.0000;0.7993;1.1904;
1209.3000;0.7945;1.1879;
1209.6000;0.8059;1.2080;
1209.9000;0.7985;1.1803;
1210.2000;0.7993;1.1854;
1210.5000;0.8002;1.1904;
1210.8000;0.7985;1.1854;
1211.1000;0.8002;1.1904;
1211.4000;0.7985;1.2005;
1211.7000;0.8002;1.2080;
1212.0000;0.7993;1.2055;
1212.3000;0.7993;1.2030;
1212.6000;0.7993;1.2080;
1212.9000;0.8002;1.2055;
1213.2000;0.7993;1.2030;
1213.5000;0.7993;1.2005;
1213.8000;0.7977;1.2105;
1214.1000;0.8026;1.2206;
1214.4000;0.8010;1.2105;
1214.7000;0.8002;1.2130;
1215.0000;0.7993;1.2080;
1215.3000;0.8010;1.2130;
1215.6000;0.8026;1.2130;
1215.9000;0.7993;1.2055;
1216.2000;0.7937;1.1854;
1216.5000;0.7977;1.2080;
1216.8000;0.7985;1.2130;
1217.1000;0.7961;1.2055;
1217.4000;0.7969;1.2130;
1217.7000;0.7977;1.2130;
1218.0000;0.7985;1.2080;
1218.3000;0.7880;1.1778;
1218.6000;0.7977;1.2080;
1218.9000;0.7985;1.2156;
1219.2000;0.7977;1.2156;
1219.5000;0.7985;1.2105;
1219.8000;0.7953;1.1954;
1220.1000;0.8002;1.2005;
1220.4000;0.7961;1.1979;
1220.7000;0.8002;1.2080;
1221.0000;0.7912;1.1904;
1221.3000;0.7985;1.2080;
1221.6000;0.7977;1.2005;
1221.9000;0.8075;1.2281;
1222.2000;0.8002;1.2130;
1222.5000;0.7961;1.2030;
1222.8000;0.7985;1.2055;
1223.1000;0.8034;1.2105;
1223.4000;0.7993;1.1979;
1223.7000;0.7977;1.1929;
1224.0000;0.8026;1.2055;
1224.3000;0.7985;1.2005;
1224.6000;0.7993;1.2030;
1224.9000;0.8042;1.2030;
1225.2000;0.7985;1.1904;
1225.5000;0.7993;1.1904;
1225.8000;0.7969;1.1904;
1226.1000;0.7937;1.1828;
1226.4000;0.7969;1.1904;
1226.7000;0.7993;1.1904;
1227.0000;0.7985;1.1854;
1227.3000;0.7977;1.1803;
1227.6000;0.7969;1.1778;
1227.9000;0.7993;1.1854;
1228.2000;0.8010;1.1828;
1228.5000;0.7969;1.1854;
1228.8000;0.7977;1.1904;
1229.1000;0.7969;1.1954;
1229.4000;0.7977;1.1929;
1229.7000;0.7969;1.1954;
1230.0000;0.7961;1.1954;
1230.3000;0.8059;1.2281;
1230.6000;0.8010;1.2256;
1230.9000;0.8002;1.2256;
1231.2000;0.7985;1.2181;
1231.5000;0.8002;1.2130;
1231.8000;0.8034;1.2181;
1232.1000;0.7961;1.1929;
1232.4000;0.7977;1.1979;
1232.7000;0.7969;1.1979;
1233.0000;0.7969;1.2030;
1233.3000;0.8034;1.2256;
1233.6000;0.7977;1.2130;
1233.9000;0.7969;1.2156;
1234.2000;0.7993;1.2256;
1234.5000;0.7993;1.2256;
1234.8000;0.7977;1.2130;
1235.1000;0.7969;1.2080;
1235.4000;0.7969;1.2055;
1235.7000;0.7937;1.1854;
1236.0000;0.7993;1.1929;
1236.3000;0.7977;1.1828;
1236.6000;0.7945;1.1627;
1236.9000;0.7985;1.1828;
1237.2000;0.7977;1.1854;
1237.5000;0.7993;1.1879;
1237.8000;0.7937;1.1803;
1238.1000;0.7977;1.1828;
1238.4000;0.7880;1.1627;
1238.7000;0.7977;1.1854;
1239.0000;0.7985;1.1854;
1239.3000;0.7985;1.1828;
1239.6000;0.7969;1.1803;
1239.9000;0.7977;1.1803;
1240.2000;0.7977;1.1803;
1240.5000;0.7985;1.1753;
1240.8000;0.7985;1.1728;
1241.1000;0.7977;1.1677;
1241.4000;0.7985;1.1728;
1241.7000;0.7953;1.1703;
1242.0000;0.7985;1.1778;
1242.3000;0.7985;1.1753;
1242.6000;0.7969;1.1728;
1242.9000;0.7985;1.1778;
1243.2000;0.7993;1.1753;
1243.5000;0.7993;1.1803;
1243.8000;0.8018;1.1854;
1244.1000;0.7985;1.1879;
1244.4000;0.7993;1.1929;
1244.7000;0.7985;1.1879;
1245.0000;0.8002;1.1929;
1245.3000;0.7985;1.1879;
1245.6000;0.7969;1.1803;
1245.9000;0.8026;1.1954;
1246.2000;0.7985;1.1854;
1246.5000;0.7969;1.1778;
1246.8000;0.7969;1.1854;
1247.1000;0.7993;1.1929;
1247.4000;0.8026;1.1979;
1247.7000;0.7985;1.1904;
1248.0000;0.7969;1.1904;
1248.3000;0.7969;1.2055;
1248.6000;0.7985;1.2156;
1248.9000;0.7961;1.2055;
1249.2000;0.7969;1.2055;
1249.5000;0.7985;1.2156;
1249.8000;0.7961;1.2105;
1250.1000;0.8002;1.2206;
1250.4000;0.7969;1.2130;
1250.7000;0.7993;1.2256;
1251.0000;0.8026;1.2357;
1251.3000;0.7985;1.2156;
1251.6000;0.7969;1.2130;
1251.9000;0.7969;1.2105;
1252.2000;0.7969;1.2055;
1252.5000;0.7977;1.2105;
1252.8000;0.8010;1.2181;
1253.1000;0.7961;1.1979;
1253.4000;0.7985;1.2005;
1253.7000;0.8018;1.2181;
1254.0000;0.7969;1.2080;
1254.3000;0.7969;1.2055;
1254.6000;0.7977;1.2055;
1254.9000;0.8042;1.2130;
1255.2000;0.7985;1.2005;
1255.5000;0.7945;1.1904;
1255.8000;0.7961;1.1904;
1256.1000;0.8002;1.1979;
1256.4000;0.7993;1.1904;
1256.7000;0.7953;1.1828;
1257.0000;0.7993;1.1904;
1257.3000;0.7888;1.1677;
1257.6000;0.7977;1.1904;
1257.9000;0.7961;1.1828;
1258.2000;0.7985;1.1753;
1258.5000;0.7985;1.1728;
1258.8000;0.7961;1.1703;
1259.1000;0.7993;1.1803;
1259.4000;0.7993;1.1828;
1259.7000;0.7969;1.1778;
1260.0000;0.7977;1.1778;
1260.3000;0.7985;1.1828;
1260.6000;0.8018;1.1904;
1260.9000;0.7961;1.1803;
1261.2000;0.8002;1.1854;
1261.5000;0.7977;1.1803;
1261.8000;0.7969;1.1753;
1262.1000;0.7969;1.1778;
1262.4000;0.7969;1.1753;
1262.7000;0.7945;1.1627;
1263.0000;0.7993;1.1854;
1263.3000;0.7969;1.1879;
1263.6000;0.7969;1.1929;
1263.9000;0.7985;1.1904;
1264.2000;0.7977;1.1929;
1264.5000;0.7993;1.1954;
1264.8000;0.7993;1.2030;
1265.1000;0.8002;1.1979;
1265.4000;0.7977;1.1954;
1265.7000;0.7985;1.1879;
1266.0000;0.7993;1.1854;
1266.3000;0.7993;1.1728;
1266.6000;0.7969;1.1652;
1266.9000;0.7993;1.1778;
1267.2000;0.7961;1.1753;
1267.5000;0.7985;1.1828;
1267.8000;0.7985;1.1728;
1268.1000;0.7969;1.1803;
1268.4000;0.7985;1.1828;
1268.7000;0.7961;1.1753;
1269.0000;0.8018;1.1879;
1269.3000;0.7993;1.1828;
1269.6000;0.8010;1.1979;
1269.9000;0.7977;1.1879;
1270.2000;0.7985;1.1929;
1270.5000;0.7969;1.1904;
1270.8000;0.7961;1.1979;
1271.1000;0.7888;1.1954;
1271.4000;0.7985;1.2181;
1271.7000;0.7977;1.2030;
1272.0000;0.7969;1.1979;
1272.3000;0.7945;1.1954;
1272.6000;0.7969;1.2030;
1272.9000;0.7961;1.2005;
1273.2000;0.7985;1.1979;
1273.5000;0.7961;1.1904;
1273.8000;0.7977;1.1904;
1274.1000;0.8010;1.1979;
1274.4000;0.7985;1.1904;
1274.7000;0.7977;1.1879;
1275.0000;0.7993;1.1954;
1275.3000;0.7953;1.1879;
1275.6000;0.7993;1.2005;
1275.9000;0.8002;1.2030;
1276.2000;0.7977;1.1929;
1276.5000;0.7985;1.1904;
1276.8000;0.7985;1.1854;
1277.1000;0.7993;1.1854;
1277.4000;0.7969;1.1728;
1277.7000;0.7985;1.1778;
1278.0000;0.7977;1.1728;
1278.3000;0.7985;1.1728;
1278.6000;0.8067;1.2030;
1278.9000;0.7985;1.1778;
1279.2000;0.7985;1.1803;
1279.5000;0.8010;1.1803;
1279.8000;0.7969;1.1677;
1280.1000;0.7993;1.1753;
1280.4000;0.7985;1.1803;
1280.7000;0.7993;1.1879;
1281.0000;0.7985;1.1803;
1281.3000;0.7961;1.1828;
1281.6000;0.7993;1.1828;
1281.9000;0.7993;1.1803;
1282.2000;0.7969;1.1753;
1282.5000;0.7993;1.1803;
1282.8000;0.7985;1.1778;
1283.1000;0.7969;1.1728;
1283.4000;0.7977;1.1703;
1283.7000;0.7961;1.1728;
1284.0000;0.7969;1.1803;
1284.3000;0.7937;1.1728;
1284.6000;0.7993;1.1904;
1284.9000;0.7985;1.1854;
1285.2000;0.7985;1.1778;
1285.5000;0.7993;1.1728;
1285.8000;0.7977;1.1728;
1286.1000;0.7945;1.1652;
1286.4000;0.7969;1.1803;
1286.7000;0.7993;1.1728;
1287.0000;0.7977;1.1677;
1287.3000;0.7904;1.1526;
1287.6000;0.7961;1.1803;
1287.9000;0.7969;1.1778;
1288.2000;0.7969;1.1677;
1288.5000;0.7969;1.1778;
1288.8000;0.7953;1.1778;
1289.1000;0.8010;1.1929;
1289.4000;0.7985;1.1854;
1289.7000;0.7953;1.1778;
1290.0000;0.7977;1.1879;
1290.3000;0.7977;1.1879;
1290.6000;0.7969;1.1728;
1290.9000;0.7977;1.1677;
1291.2000;0.7977;1.1602;
1291.5000;0.7969;1.1552;
1291.8000;0.7985;1.1703;
1292.1000;0.7985;1.1803;
1292.4000;0.7977;1.1753;
1292.7000;0.7945;1.1652;
1293.0000;0.7993;1.1728;
1293.3000;0.7977;1.1879;
1293.6000;0.7969;1.1879;
1293.9000;0.7945;1.1728;
1294.2000;0.7993;1.1854;
1294.5000;0.7880;1.1526;
1294.8000;0.7969;1.1728;
1295.1000;0.7928;1.1677;
1295.4000;0.7985;1.1854;
1295.7000;0.7993;1.1828;
1296.0000;0.7961;1.1677;
1296.3000;0.8083;1.1929;
1296.6000;0.7985;1.1753;
1296.9000;0.7985;1.1778;
1297.2000;0.7985;1.1728;
1297.5000;0.7977;1.1753;
1297.8000;0.7985;1.1854;
1298.1000;0.7985;1.1803;
1298.4000;0.7961;1.1703;
1298.7000;0.7888;1.1526;
1299.0000;0.7969;1.1677;
1299.3000;0.7969;1.1703;
1299.6000;0.7961;1.1577;
1299.9000;0.7961;1.1552;
1300.2000;0.7993;1.1652;
1300.5000;0.7977;1.1703;
1300.8000;0.7969;1.1627;
1301.1000;0.7977;1.1753;
1301.4000;0.7961;1.1703;
1301.7000;0.7920;1.1552;
1302.0000;0.7993;1.1778;
1302.3000;0.7993;1.1803;
1302.6000;0.7977;1.1728;
1302.9000;0.7993;1.1828;
1303.2000;0.7985;1.1854;
1303.5000;0.7969;1.1753;
1303.8000;0.7961;1.1778;
1304.1000;0.7985;1.1854;
1304.4000;0.7961;1.1828;
1304.7000;0.7969;1.1803;
1305.0000;0.7977;1.1828;
1305.3000;0.7993;1.1879;
1305.6000;0.7985;1.1954;
1305.9000;0.7993;1.1954;
1306.2000;0.7977;1.1904;
1306.5000;0.7977;1.1904;
1306.8000;0.7985;1.1879;
1307.1000;0.7985;1.1828;
1307.4000;0.8059;1.1929;
1307.7000;0.7961;1.1703;
1308.0000;0.7961;1.1677;
1308.3000;0.7969;1.1677;
1308.6000;0.7977;1.1602;
1308.9000;0.7969;1.1552;
1309.2000;0.7961;1.1501;
1309.5000;0.7961;1.1476;
1309.8000;0.7985;1.1501;
1310.1000;0.7985;1.1577;
1310.4000;0.7945;1.1501;
1310.7000;0.7969;1.1602;
1311.0000;0.7977;1.1677;
1311.3000;0.7920;1.1526;
1311.6000;0.7977;1.1728;
1311.9000;0.7985;1.1803;
1312.2000;0.7969;1.1703;
1312.5000;0.7953;1.1652;
1312.8000;0.7961;1.1728;
1313.1000;0.7953;1.1778;
1313.4000;0.7977;1.1904;
1313.7000;0.7977;1.1753;
1314.0000;0.8002;1.1753;
1314.3000;0.7977;1.1703;
1314.6000;0.8059;1.1904;
1314.9000;0.7977;1.1703;
1315.2000;0.7977;1.1803;
1315.5000;0.7993;1.1854;
1315.8000;0.7969;1.1778;
1316.1000;0.8018;1.1904;
1316.4000;0.7937;1.1627;
1316.7000;0.7961;1.1703;
1317.0000;0.8010;1.1803;
1317.3000;0.7953;1.1602;
1317.6000;0.7945;1.1526;
1317.9000;0.7969;1.1602;
1318.2000;0.8042;1.1879;
1318.5000;0.8042;1.1904;
1318.8000;0.7977;1.1803;
1319.1000;0.7985;1.1929;
1319.4000;0.7993;1.1954;
1319.7000;0.7977;1.1929;
1320.0000;0.7993;1.1929;
1320.3000;0.8018;1.1979;
1320.6000;0.7912;1.1627;
1320.9000;0.7945;1.1728;
1321.2000;0.7937;1.1703;
1321.5000;0.7937;1.1728;
1321.8000;0.7961;1.1753;
1322.1000;0.7953;1.1778;
1322.4000;0.7961;1.1728;
1322.7000;0.7969;1.1652;
1323.0000;0.7969;1.1677;
1323.3000;0.7977;1.1778;
1323.6000;0.7977;1.1803;
1323.9000;0.7969;1.1728;
1324.2000;0.7855;1.1501;
1324.5000;0.7977;1.1828;
1324.8000;0.7953;1.1854;
1325.1000;0.7977;1.1904;
1325.4000;0.7969;1.1879;
1325.7000;0.8050;1.2055;
1326.0000;0.7969;1.1904;
1326.3000;0.8002;1.1954;
1326.6000;0.7977;1.1954;
1326.9000;0.7977;1.1954;
1327.2000;0.7977;1.1954;
1327.5000;0.7993;1.2005;
1327.8000;0.7953;1.1854;
1328.1000;0.7969;1.1979;
1328.4000;0.7977;1.1929;
1328.7000;0.7969;1.1954;
1329.0000;0.7969;1.1954;
1329.3000;0.7961;1.1828;
1329.6000;0.7961;1.1803;
1329.9000;0.7977;1.1778;
1330.2000;0.7977;1.1753;
1330.5000;0.7961;1.1753;
1330.8000;0.7961;1.1753;
1331.1000;0.7977;1.1828;
1331.4000;0.7961;1.1854;
1331.7000;0.7977;1.1929;
1332.0000;0.7969;1.1828;
1332.3000;0.8026;1.1979;
1332.6000;0.7985;1.1828;
1332.9000;0.7937;1.1854;
1333.2000;0.7969;1.1954;
1333.5000;0.7977;1.2055;
1333.8000;0.7969;1.2005;
1334.1000;0.7985;1.2005;
1334.4000;0.7961;1.1954;
1334.7000;0.7969;1.1904;
1335.0000;0.7969;1.1954;
1335.3000;0.7953;1.1979;
1335.6000;0.7969;1.2105;
1335.9000;0.7969;1.2130;
1336.2000;0.7969;1.2055;
1336.5000;0.7953;1.2030;
1336.8000;0.7985;1.2105;
1337.1000;0.8002;1.2080;
1337.4000;0.7993;1.2005;
1337.7000;0.8002;1.2030;
1338.0000;0.7993;1.1979;
1338.3000;0.7969;1.1954;
1338.6000;0.7985;1.1904;
1338.9000;0.7969;1.1803;
1339.2000;0.7985;1.1854;
1339.5000;0.7969;1.1828;
1339.8000;0.7985;1.1854;
1340.1000;0.7985;1.1954;
1340.4000;0.7920;1.1828;
1340.7000;0.7969;1.1979;
1341.0000;0.7985;1.2005;
1341.3000;0.7977;1.1929;
1341.6000;0.7969;1.1904;
1341.9000;0.8018;1.1954;
1342.2000;0.7969;1.1803;
1342.5000;0.7961;1.1753;
1342.8000;0.7961;1.1627;
1343.1000;0.7937;1.1426;
1343.4000;0.7912;1.1476;
1343.7000;0.7977;1.1652;
1344.0000;0.7977;1.1778;
1344.3000;0.7985;1.1828;
1344.6000;0.7969;1.1828;
1344.9000;0.7977;1.1929;
1345.2000;0.7937;1.1904;
1345.5000;0.7985;1.1954;
1345.8000;0.7977;1.1828;
1346.1000;0.7977;1.1879;
1346.4000;0.7977;1.1904;
1346.7000;0.7977;1.1854;
1347.0000;0.7977;1.1854;
1347.3000;0.7977;1.1904;
1347.6000;0.7969;1.1904;
1347.9000;0.7961;1.1879;
1348.2000;0.7961;1.1828;
1348.5000;0.7969;1.1753;
1348.8000;0.7985;1.1854;
1349.1000;0.7969;1.1854;
1349.4000;0.7985;1.1803;
1349.7000;0.7977;1.1778;
1350.0000;0.7969;1.1828;
1350.3000;0.7985;1.1879;
1350.6000;0.7928;1.1753;
1350.9000;0.7961;1.1753;
1351.2000;0.7953;1.1677;
1351.5000;0.7969;1.1728;
1351.8000;0.8034;1.1954;
1352.1000;0.7969;1.1854;
1352.4000;0.8059;1.2030;
1352.7000;0.7969;1.1929;
1353.0000;0.7977;1.2055;
1353.3000;0.8197;1.2584;
1353.6000;0.7969;1.2080;
1353.9000;0.7961;1.2005;
1354.2000;0.7969;1.1979;
1354.5000;0.7985;1.2055;
1354.8000;0.7953;1.1979;
1355.1000;0.7977;1.1979;
1355.4000;0.7977;1.2005;
1355.7000;0.7961;1.1904;
1356.0000;0.7953;1.1828;
1356.3000;0.8067;1.2055;
1356.6000;0.7937;1.1778;
1356.9000;0.7953;1.1803;
1357.2000;0.7969;1.1879;
1357.5000;0.7961;1.1803;
1357.8000;0.7953;1.1753;
1358.1000;0.7953;1.1803;
1358.4000;0.7977;1.1828;
1358.7000;0.7961;1.1803;
1359.0000;0.7977;1.1854;
1359.3000;0.7977;1.1879;
1359.6000;0.7953;1.1803;
1359.9000;0.7985;1.1879;
1360.2000;0.7961;1.1854;
1360.5000;0.7969;1.1828;
1360.8000;0.7961;1.1778;
1361.1000;0.7969;1.1778;
1361.4000;0.7985;1.1728;
1361.7000;0.7985;1.1803;
1362.0000;0.7961;1.1854;
1362.3000;0.7953;1.1879;
1362.6000;0.7961;1.1828;
1362.9000;0.7977;1.1929;
1363.2000;0.7961;1.2005;
1363.5000;0.7985;1.1929;
1363.8000;0.7969;1.1929;
1364.1000;0.7969;1.1979;
1364.4000;0.7977;1.1879;
1364.7000;0.7969;1.1803;
1365.0000;0.7961;1.1778;
1365.3000;0.7945;1.1803;
1365.6000;0.8002;1.1979;
1365.9000;0.7969;1.1954;
1366.2000;0.7945;1.1803;
1366.5000;0.7985;1.1828;
1366.8000;0.7961;1.1753;
1367.1000;0.7961;1.1778;
1367.4000;0.7977;1.1753;
1367.7000;0.7977;1.1778;
1368.0000;0.7953;1.1753;
1368.3000;0.7969;1.1803;
1368.6000;0.7961;1.1803;
1368.9000;0.7912;1.1728;
1369.2000;0.7985;1.1929;
1369.5000;0.8067;1.2156;
1369.8000;0.7977;1.1854;
1370.1000;0.7945;1.1854;
1370.4000;0.7953;1.1879;
1370.7000;0.8010;1.1979;
1371.0000;0.7961;1.1929;
1371.3000;0.7953;1.1929;
1371.6000;0.7953;1.1954;
1371.9000;0.7977;1.2005;
1372.2000;0.7953;1.1929;
1372.5000;0.8067;1.2105;
1372.8000;0.7961;1.1854;
1373.1000;0.7977;1.1979;
1373.4000;0.7985;1.1954;
1373.7000;0.7969;1.1803;
1374.0000;0.7961;1.1703;
1374.3000;0.8010;1.1778;
1374.6000;0.7977;1.1854;
1374.9000;0.7977;1.1929;
1375.2000;0.7977;1.1904;
1375.5000;0.7937;1.1778;
1375.8000;0.7969;1.1879;
1376.1000;0.7977;1.1828;
1376.4000;0.7977;1.1879;
1376.7000;0.7985;1.1979;
1377.0000;0.7985;1.1979;
1377.3000;0.7953;1.1979;
1377.6000;0.7961;1.1979;
1377.9000;0.7969;1.2080;
1378.2000;0.7969;1.2030;
1378.5000;0.7985;1.2156;
1378.8000;0.7961;1.2005;
1379.1000;0.7961;1.1904;
1379.4000;0.7977;1.1979;
1379.7000;0.7969;1.1904;
1380.0000;0.7969;1.1954;
1380.3000;0.7945;1.1803;
1380.6000;0.7969;1.1879;
1380.9000;0.8018;1.2030;
1381.2000;0.7969;1.1854;
1381.5000;0.7969;1.1854;
1381.8000;0.7969;1.1879;
1382.1000;0.7969;1.1904;
1382.4000;0.7945;1.1954;
1382.7000;0.7961;1.2005;
1383.0000;0.7953;1.1979;
1383.3000;0.7961;1.2055;
1383.6000;0.7985;1.1979;
1383.9000;0.7961;1.1929;
1384.2000;0.7961;1.1979;
1384.5000;0.7961;1.1954;
1384.8000;0.7977;1.1929;
1385.1000;0.7961;1.1929;
1385.4000;0.7969;1.1879;
1385.7000;0.7969;1.1854;
1386.0000;0.7969;1.2005;
1386.3000;0.7961;1.1929;
1386.6000;0.7953;1.1929;
1386.9000;0.7961;1.2030;
1387.2000;0.7953;1.2055;
1387.5000;0.7961;1.2005;
1387.8000;0.7961;1.1854;
1388.1000;0.7961;1.1854;
1388.4000;0.7969;1.1854;
1388.7000;0.7969;1.1854;
1389.0000;0.7961;1.1803;
1389.3000;0.7961;1.1828;
1389.6000;0.7977;1.1803;
1389.9000;0.7977;1.1778;
1390.2000;0.7969;1.1703;
1390.5000;0.7961;1.1627;
1390.8000;0.7993;1.1753;
1391.1000;0.8002;1.1778;
1391.4000;0.7985;1.1652;
1391.7000;0.7961;1.1652;
1392.0000;0.7993;1.1803;
1392.3000;0.7985;1.1879;
1392.6000;0.8002;1.1979;
1392.9000;0.7977;1.1904;
1393.2000;0.7961;1.1854;
1393.5000;0.7969;1.1828;
1393.8000;0.7985;1.1929;
1394.1000;0.7969;1.1954;
1394.4000;0.7977;1.1929;
1394.7000;0.7993;1.1979;
1395.0000;0.7961;1.1929;
1395.3000;0.7985;1.1954;
1395.6000;0.7985;1.1954;
1395.9000;0.7977;1.1979;
1396.2000;0.8002;1.2030;
1396.5000;0.7985;1.2030;
1396.8000;0.7969;1.1979;
1397.1000;0.7961;1.2005;
1397.4000;0.7985;1.2005;
1397.7000;0.7993;1.2055;
1398.0000;0.7977;1.2005;
1398.3000;0.7993;1.2030;
1398.6000;0.7985;1.2005;
1398.9000;0.7977;1.1954;
1399.2000;0.7969;1.1879;
1399.5000;0.7969;1.1854;
1399.8000;0.7969;1.1728;
