time/ms;Fluo/V;P700 deltaI/I x10³;
-199.8000;0.9239;1.6562;
-199.5000;0.9190;1.6461;
-199.2000;0.9206;1.6385;
-198.9000;0.9198;1.6486;
-198.6000;0.9214;1.6537;
-198.3000;0.9206;1.6511;
-198.0000;0.9198;1.6486;
-197.7000;0.9190;1.6461;
-197.4000;0.9190;1.6461;
-197.1000;0.9174;1.6435;
-196.8000;0.9190;1.6486;
-196.5000;0.9198;1.6486;
-196.2000;0.9206;1.6587;
-195.9000;0.9206;1.6613;
-195.6000;0.9214;1.6664;
-195.3000;0.9206;1.6689;
-195.0000;0.9214;1.6714;
-194.7000;0.9174;1.6562;
-194.4000;0.9206;1.6613;
-194.1000;0.9206;1.6537;
-193.8000;0.9198;1.6562;
-193.5000;0.9182;1.6486;
-193.2000;0.9190;1.6587;
-192.9000;0.9198;1.6587;
-192.6000;0.9174;1.6410;
-192.3000;0.9206;1.6511;
-192.0000;0.9182;1.6461;
-191.7000;0.9190;1.6461;
-191.4000;0.9198;1.6511;
-191.1000;0.9182;1.6461;
-190.8000;0.9198;1.6511;
-190.5000;0.9214;1.6410;
-190.2000;0.9198;1.6334;
-189.9000;0.9206;1.6435;
-189.6000;0.9198;1.6461;
-189.3000;0.9198;1.6435;
-189.0000;0.9182;1.6486;
-188.7000;0.9198;1.6537;
-188.4000;0.9206;1.6562;
-188.1000;0.9190;1.6537;
-187.8000;0.9198;1.6461;
-187.5000;0.9206;1.6461;
-187.2000;0.9206;1.6461;
-186.9000;0.9214;1.6562;
-186.6000;0.9271;1.6664;
-186.3000;0.9190;1.6486;
-186.0000;0.9206;1.6537;
-185.7000;0.9206;1.6385;
-185.4000;0.9198;1.6410;
-185.1000;0.9198;1.6359;
-184.8000;0.9198;1.6334;
-184.5000;0.9214;1.6308;
-184.2000;0.9198;1.6283;
-183.9000;0.9198;1.6232;
-183.6000;0.9190;1.6156;
-183.3000;0.9206;1.6232;
-183.0000;0.9174;1.6232;
-182.7000;0.9206;1.6359;
-182.4000;0.9206;1.6410;
-182.1000;0.9214;1.6410;
-181.8000;0.9190;1.6385;
-181.5000;0.9190;1.6359;
-181.2000;0.9198;1.6359;
-180.9000;0.9190;1.6385;
-180.6000;0.9198;1.6359;
-180.3000;0.9125;1.6283;
-180.0000;0.9214;1.6410;
-179.7000;0.9214;1.6486;
-179.4000;0.9206;1.6511;
-179.1000;0.9198;1.6486;
-178.8000;0.9206;1.6486;
-178.5000;0.9198;1.6461;
-178.2000;0.9239;1.6511;
-177.9000;0.9223;1.6435;
-177.6000;0.9182;1.6359;
-177.3000;0.9182;1.6334;
-177.0000;0.9174;1.6232;
-176.7000;0.9174;1.6283;
-176.4000;0.9198;1.6385;
-176.1000;0.9190;1.6486;
-175.8000;0.9198;1.6410;
-175.5000;0.9198;1.6435;
-175.2000;0.9190;1.6486;
-174.9000;0.9214;1.6587;
-174.6000;0.9214;1.6562;
-174.3000;0.9214;1.6486;
-174.0000;0.9190;1.6461;
-173.7000;0.9206;1.6511;
-173.4000;0.9206;1.6587;
-173.1000;0.9206;1.6587;
-172.8000;0.9190;1.6537;
-172.5000;0.9190;1.6562;
-172.2000;0.9101;1.6308;
-171.9000;0.9206;1.6537;
-171.6000;0.9198;1.6537;
-171.3000;0.9149;1.6461;
-171.0000;0.9190;1.6537;
-170.7000;0.9206;1.6537;
-170.4000;0.9198;1.6385;
-170.1000;0.9214;1.6410;
-169.8000;0.9166;1.6258;
-169.5000;0.9198;1.6435;
-169.2000;0.9198;1.6537;
-168.9000;0.9223;1.6689;
-168.6000;0.9198;1.6714;
-168.3000;0.9198;1.6714;
-168.0000;0.9149;1.6562;
-167.7000;0.9174;1.6740;
-167.4000;0.9198;1.6866;
-167.1000;0.9198;1.6816;
-166.8000;0.9206;1.6892;
-166.5000;0.9223;1.6943;
-166.2000;0.9206;1.6790;
-165.9000;0.9206;1.6765;
-165.6000;0.9214;1.6790;
-165.3000;0.9198;1.6816;
-165.0000;0.9206;1.6714;
-164.7000;0.9206;1.6765;
-164.4000;0.9247;1.6790;
-164.1000;0.9223;1.6740;
-163.8000;0.9214;1.6765;
-163.5000;0.9223;1.6664;
-163.2000;0.9214;1.6587;
-162.9000;0.9190;1.6613;
-162.6000;0.9198;1.6689;
-162.3000;0.9231;1.6765;
-162.0000;0.9198;1.6816;
-161.7000;0.9206;1.6841;
-161.4000;0.9198;1.6917;
-161.1000;0.9198;1.6841;
-160.8000;0.9214;1.6841;
-160.5000;0.9117;1.6638;
-160.2000;0.9198;1.6816;
-159.9000;0.9198;1.6892;
-159.6000;0.9206;1.6917;
-159.3000;0.9190;1.6917;
-159.0000;0.9214;1.6917;
-158.7000;0.9198;1.6866;
-158.4000;0.9206;1.6790;
-158.1000;0.9198;1.6841;
-157.8000;0.9206;1.6816;
-157.5000;0.9182;1.6689;
-157.2000;0.9190;1.6613;
-156.9000;0.9206;1.6664;
-156.6000;0.9190;1.6765;
-156.3000;0.9182;1.6740;
-156.0000;0.9206;1.6816;
-155.7000;0.9214;1.6816;
-155.4000;0.9190;1.6765;
-155.1000;0.9206;1.6714;
-154.8000;0.9206;1.6664;
-154.5000;0.9198;1.6664;
-154.2000;0.9206;1.6740;
-153.9000;0.9214;1.6740;
-153.6000;0.9198;1.6689;
-153.3000;0.9214;1.6714;
-153.0000;0.9214;1.6765;
-152.7000;0.9206;1.6816;
-152.4000;0.9223;1.6790;
-152.1000;0.9182;1.6613;
-151.8000;0.9206;1.6587;
-151.5000;0.9214;1.6740;
-151.2000;0.9182;1.6689;
-150.9000;0.9190;1.6740;
-150.6000;0.9198;1.6790;
-150.3000;0.9198;1.6664;
-150.0000;0.9182;1.6613;
-149.7000;0.9198;1.6587;
-149.4000;0.9198;1.6587;
-149.1000;0.9214;1.6638;
-148.8000;0.9190;1.6562;
-148.5000;0.9206;1.6587;
-148.2000;0.9214;1.6613;
-147.9000;0.9206;1.6537;
-147.6000;0.9198;1.6537;
-147.3000;0.9206;1.6486;
-147.0000;0.9182;1.6486;
-146.7000;0.9198;1.6537;
-146.4000;0.9198;1.6435;
-146.1000;0.9125;1.6258;
-145.8000;0.9198;1.6587;
-145.5000;0.9206;1.6638;
-145.2000;0.9198;1.6638;
-144.9000;0.9174;1.6587;
-144.6000;0.9214;1.6638;
-144.3000;0.9198;1.6587;
-144.0000;0.9214;1.6613;
-143.7000;0.9223;1.6511;
-143.4000;0.9214;1.6486;
-143.1000;0.9198;1.6461;
-142.8000;0.9223;1.6562;
-142.5000;0.9198;1.6435;
-142.2000;0.9214;1.6435;
-141.9000;0.9190;1.6359;
-141.6000;0.9190;1.6385;
-141.3000;0.9206;1.6359;
-141.0000;0.9190;1.6385;
-140.7000;0.9214;1.6359;
-140.4000;0.9198;1.6232;
-140.1000;0.9206;1.6232;
-139.8000;0.9198;1.6156;
-139.5000;0.9182;1.6182;
-139.2000;0.9214;1.6385;
-138.9000;0.9206;1.6410;
-138.6000;0.9190;1.6308;
-138.3000;0.9198;1.6385;
-138.0000;0.9206;1.6486;
-137.7000;0.9141;1.6308;
-137.4000;0.9198;1.6511;
-137.1000;0.9206;1.6435;
-136.8000;0.9198;1.6410;
-136.5000;0.9166;1.6334;
-136.2000;0.9198;1.6486;
-135.9000;0.9190;1.6587;
-135.6000;0.9206;1.6664;
-135.3000;0.9190;1.6765;
-135.0000;0.9149;1.6537;
-134.7000;0.9288;1.6841;
-134.4000;0.9198;1.6613;
-134.1000;0.9182;1.6562;
-133.8000;0.9206;1.6613;
-133.5000;0.9198;1.6537;
-133.2000;0.9182;1.6461;
-132.9000;0.9182;1.6562;
-132.6000;0.9198;1.6613;
-132.3000;0.9166;1.6638;
-132.0000;0.9247;1.6866;
-131.7000;0.9198;1.6790;
-131.4000;0.9166;1.6689;
-131.1000;0.9182;1.6638;
-130.8000;0.9133;1.6587;
-130.5000;0.9214;1.6740;
-130.2000;0.9198;1.6714;
-129.9000;0.9198;1.6740;
-129.6000;0.9198;1.6689;
-129.3000;0.9263;1.6841;
-129.0000;0.9206;1.6765;
-128.7000;0.9198;1.6714;
-128.4000;0.9198;1.6638;
-128.1000;0.9190;1.6511;
-127.8000;0.9328;1.6866;
-127.5000;0.9214;1.6511;
-127.2000;0.9190;1.6486;
-126.9000;0.9231;1.6638;
-126.6000;0.9198;1.6587;
-126.3000;0.9223;1.6714;
-126.0000;0.9182;1.6689;
-125.7000;0.9190;1.6638;
-125.4000;0.9214;1.6740;
-125.1000;0.9223;1.6714;
-124.8000;0.9190;1.6689;
-124.5000;0.9198;1.6714;
-124.2000;0.9198;1.6638;
-123.9000;0.9182;1.6664;
-123.6000;0.9198;1.6816;
-123.3000;0.9198;1.6790;
-123.0000;0.9182;1.6613;
-122.7000;0.9190;1.6664;
-122.4000;0.9166;1.6638;
-122.1000;0.9198;1.6689;
-121.8000;0.9190;1.6664;
-121.5000;0.9190;1.6587;
-121.2000;0.9198;1.6638;
-120.9000;0.9182;1.6613;
-120.6000;0.9174;1.6562;
-120.3000;0.9190;1.6562;
-120.0000;0.9084;1.6207;
-119.7000;0.9223;1.6613;
-119.4000;0.9223;1.6537;
-119.1000;0.9288;1.6638;
-118.8000;0.9214;1.6537;
-118.5000;0.9271;1.6740;
-118.2000;0.9198;1.6587;
-117.9000;0.9206;1.6613;
-117.6000;0.9214;1.6537;
-117.3000;0.9198;1.6537;
-117.0000;0.9206;1.6613;
-116.7000;0.9198;1.6664;
-116.4000;0.9174;1.6537;
-116.1000;0.9190;1.6537;
-115.8000;0.9190;1.6410;
-115.5000;0.9198;1.6461;
-115.2000;0.9182;1.6435;
-114.9000;0.9214;1.6435;
-114.6000;0.9190;1.6410;
-114.3000;0.9182;1.6410;
-114.0000;0.9206;1.6435;
-113.7000;0.9190;1.6410;
-113.4000;0.9206;1.6486;
-113.1000;0.9206;1.6562;
-112.8000;0.9223;1.6511;
-112.5000;0.9206;1.6435;
-112.2000;0.9182;1.6359;
-111.9000;0.9206;1.6461;
-111.6000;0.9198;1.6435;
-111.3000;0.9182;1.6486;
-111.0000;0.9239;1.6664;
-110.7000;0.9198;1.6613;
-110.4000;0.9182;1.6664;
-110.1000;0.9255;1.6765;
-109.8000;0.9206;1.6562;
-109.5000;0.9206;1.6587;
-109.2000;0.9206;1.6613;
-108.9000;0.9182;1.6587;
-108.6000;0.9214;1.6689;
-108.3000;0.9174;1.6638;
-108.0000;0.9190;1.6664;
-107.7000;0.9182;1.6587;
-107.4000;0.9337;1.6943;
-107.1000;0.9223;1.6537;
-106.8000;0.9190;1.6486;
-106.5000;0.9214;1.6537;
-106.2000;0.9206;1.6511;
-105.9000;0.9125;1.6283;
-105.6000;0.9190;1.6435;
-105.3000;0.9190;1.6410;
-105.0000;0.9206;1.6461;
-104.7000;0.9206;1.6511;
-104.4000;0.9231;1.6664;
-104.1000;0.9206;1.6562;
-103.8000;0.9214;1.6587;
-103.5000;0.9214;1.6587;
-103.2000;0.9158;1.6461;
-102.9000;0.9263;1.6841;
-102.6000;0.9190;1.6664;
-102.3000;0.9190;1.6613;
-102.0000;0.9198;1.6613;
-101.7000;0.9182;1.6511;
-101.4000;0.9190;1.6511;
-101.1000;0.9190;1.6562;
-100.8000;0.9206;1.6664;
-100.5000;0.9190;1.6765;
-100.2000;0.9190;1.6714;
-99.9000;0.9206;1.6714;
-99.6000;0.9198;1.6714;
-99.3000;0.9198;1.6689;
-99.0000;0.9223;1.6714;
-98.7000;0.9198;1.6587;
-98.4000;0.9223;1.6638;
-98.1000;0.9214;1.6638;
-97.8000;0.9174;1.6562;
-97.5000;0.9198;1.6587;
-97.2000;0.9214;1.6613;
-96.9000;0.9223;1.6613;
-96.6000;0.9190;1.6486;
-96.3000;0.9174;1.6486;
-96.0000;0.9190;1.6537;
-95.7000;0.9198;1.6562;
-95.4000;0.9182;1.6435;
-95.1000;0.9190;1.6461;
-94.8000;0.9214;1.6562;
-94.5000;0.9198;1.6587;
-94.2000;0.9198;1.6511;
-93.9000;0.9182;1.6461;
-93.6000;0.9206;1.6486;
-93.3000;0.9190;1.6461;
-93.0000;0.9206;1.6435;
-92.7000;0.9101;1.6131;
-92.4000;0.9190;1.6410;
-92.1000;0.9263;1.6511;
-91.8000;0.9198;1.6308;
-91.5000;0.9214;1.6410;
-91.2000;0.9255;1.6511;
-90.9000;0.9174;1.6283;
-90.6000;0.9214;1.6359;
-90.3000;0.9190;1.6308;
-90.0000;0.9198;1.6410;
-89.7000;0.9206;1.6486;
-89.4000;0.9141;1.6385;
-89.1000;0.9084;1.6232;
-88.8000;0.9337;1.6892;
-88.5000;0.9247;1.6689;
-88.2000;0.9223;1.6638;
-87.9000;0.9174;1.6461;
-87.6000;0.9182;1.6385;
-87.3000;0.9223;1.6461;
-87.0000;0.9174;1.6410;
-86.7000;0.9182;1.6461;
-86.4000;0.9190;1.6461;
-86.1000;0.9158;1.6359;
-85.8000;0.9182;1.6435;
-85.5000;0.9223;1.6511;
-85.2000;0.9166;1.6562;
-84.9000;0.9133;1.6587;
-84.6000;0.9190;1.6816;
-84.3000;0.9190;1.6765;
-84.0000;0.9206;1.6714;
-83.7000;0.9223;1.6765;
-83.4000;0.9198;1.6740;
-83.1000;0.9198;1.6638;
-82.8000;0.9190;1.6537;
-82.5000;0.9190;1.6486;
-82.2000;0.9190;1.6562;
-81.9000;0.9206;1.6613;
-81.6000;0.9214;1.6638;
-81.3000;0.9190;1.6511;
-81.0000;0.9206;1.6638;
-80.7000;0.9288;1.6816;
-80.4000;0.9141;1.6461;
-80.1000;0.9198;1.6587;
-79.8000;0.9198;1.6410;
-79.5000;0.9101;1.6131;
-79.2000;0.9198;1.6359;
-78.9000;0.9206;1.6461;
-78.6000;0.9198;1.6410;
-78.3000;0.9190;1.6410;
-78.0000;0.9206;1.6435;
-77.7000;0.9206;1.6511;
-77.4000;0.9190;1.6511;
-77.1000;0.9190;1.6562;
-76.8000;0.9190;1.6613;
-76.5000;0.9206;1.6587;
-76.2000;0.9198;1.6511;
-75.9000;0.9182;1.6461;
-75.6000;0.9198;1.6562;
-75.3000;0.9214;1.6638;
-75.0000;0.9214;1.6587;
-74.7000;0.9198;1.6613;
-74.4000;0.9198;1.6689;
-74.1000;0.9109;1.6435;
-73.8000;0.9206;1.6689;
-73.5000;0.9206;1.6740;
-73.2000;0.9198;1.6740;
-72.9000;0.9190;1.6740;
-72.6000;0.9190;1.6689;
-72.3000;0.9174;1.6714;
-72.0000;0.9190;1.6740;
-71.7000;0.9182;1.6664;
-71.4000;0.9206;1.6689;
-71.1000;0.9190;1.6511;
-70.8000;0.9198;1.6435;
-70.5000;0.9214;1.6486;
-70.2000;0.9182;1.6562;
-69.9000;0.9190;1.6613;
-69.6000;0.9255;1.6714;
-69.3000;0.9190;1.6511;
-69.0000;0.9206;1.6486;
-68.7000;0.9182;1.6435;
-68.4000;0.9214;1.6587;
-68.1000;0.9206;1.6562;
-67.8000;0.9206;1.6587;
-67.5000;0.9206;1.6664;
-67.2000;0.9190;1.6664;
-66.9000;0.9206;1.6562;
-66.6000;0.9247;1.6689;
-66.3000;0.9239;1.6689;
-66.0000;0.9206;1.6638;
-65.7000;0.9206;1.6613;
-65.4000;0.9198;1.6511;
-65.1000;0.9206;1.6587;
-64.8000;0.9166;1.6435;
-64.5000;0.9166;1.6511;
-64.2000;0.9223;1.6638;
-63.9000;0.9263;1.6740;
-63.6000;0.9158;1.6461;
-63.3000;0.9190;1.6587;
-63.0000;0.9190;1.6562;
-62.7000;0.9198;1.6562;
-62.4000;0.9190;1.6461;
-62.1000;0.9190;1.6486;
-61.8000;0.9182;1.6435;
-61.5000;0.9206;1.6385;
-61.2000;0.9174;1.6258;
-60.9000;0.9182;1.6308;
-60.6000;0.9190;1.6283;
-60.3000;0.9190;1.6410;
-60.0000;0.9198;1.6511;
-59.7000;0.9190;1.6537;
-59.4000;0.9182;1.6537;
-59.1000;0.9190;1.6562;
-58.8000;0.9206;1.6587;
-58.5000;0.9206;1.6486;
-58.2000;0.9206;1.6385;
-57.9000;0.9206;1.6334;
-57.6000;0.9223;1.6385;
-57.3000;0.9214;1.6359;
-57.0000;0.9198;1.6385;
-56.7000;0.9190;1.6410;
-56.4000;0.9198;1.6461;
-56.1000;0.9198;1.6461;
-55.8000;0.9206;1.6435;
-55.5000;0.9198;1.6486;
-55.2000;0.9206;1.6537;
-54.9000;0.9223;1.6537;
-54.6000;0.9206;1.6486;
-54.3000;0.9206;1.6486;
-54.0000;0.9206;1.6511;
-53.7000;0.9206;1.6435;
-53.4000;0.9190;1.6385;
-53.1000;0.9198;1.6435;
-52.8000;0.9206;1.6562;
-52.5000;0.9198;1.6537;
-52.2000;0.9198;1.6537;
-51.9000;0.9223;1.6537;
-51.6000;0.9206;1.6511;
-51.3000;0.9206;1.6511;
-51.0000;0.9198;1.6511;
-50.7000;0.9182;1.6486;
-50.4000;0.9198;1.6435;
-50.1000;0.9288;1.6790;
-49.8000;0.9206;1.6562;
-49.5000;0.9214;1.6664;
-49.2000;0.9206;1.6613;
-48.9000;0.9206;1.6638;
-48.6000;0.9141;1.6410;
-48.3000;0.9190;1.6613;
-48.0000;0.9198;1.6613;
-47.7000;0.9198;1.6587;
-47.4000;0.9206;1.6537;
-47.1000;0.9190;1.6486;
-46.8000;0.9198;1.6385;
-46.5000;0.9198;1.6435;
-46.2000;0.9198;1.6587;
-45.9000;0.9182;1.6587;
-45.6000;0.9198;1.6714;
-45.3000;0.9223;1.6714;
-45.0000;0.9214;1.6689;
-44.7000;0.9190;1.6638;
-44.4000;0.9198;1.6638;
-44.1000;0.9158;1.6587;
-43.8000;0.9223;1.6638;
-43.5000;0.9239;1.6689;
-43.2000;0.9190;1.6562;
-42.9000;0.9182;1.6587;
-42.6000;0.9223;1.6689;
-42.3000;0.9141;1.6461;
-42.0000;0.9214;1.6613;
-41.7000;0.9206;1.6562;
-41.4000;0.9206;1.6511;
-41.1000;0.9206;1.6486;
-40.8000;0.9239;1.6613;
-40.5000;0.9206;1.6435;
-40.2000;0.9206;1.6537;
-39.9000;0.9206;1.6664;
-39.6000;0.9206;1.6638;
-39.3000;0.9198;1.6587;
-39.0000;0.9214;1.6613;
-38.7000;0.9231;1.6714;
-38.4000;0.9182;1.6613;
-38.1000;0.9198;1.6613;
-37.8000;0.9182;1.6537;
-37.5000;0.9117;1.6410;
-37.2000;0.9198;1.6562;
-36.9000;0.9198;1.6461;
-36.6000;0.9198;1.6435;
-36.3000;0.9198;1.6410;
-36.0000;0.9206;1.6435;
-35.7000;0.9190;1.6410;
-35.4000;0.9214;1.6486;
-35.1000;0.9182;1.6461;
-34.8000;0.9206;1.6435;
-34.5000;0.9101;1.6232;
-34.2000;0.9190;1.6537;
-33.9000;0.9198;1.6511;
-33.6000;0.9206;1.6410;
-33.3000;0.9206;1.6410;
-33.0000;0.9190;1.6435;
-32.7000;0.9198;1.6486;
-32.4000;0.9198;1.6486;
-32.1000;0.9198;1.6486;
-31.8000;0.9214;1.6461;
-31.5000;0.9206;1.6613;
-31.2000;0.9214;1.6689;
-30.9000;0.9141;1.6461;
-30.6000;0.9206;1.6562;
-30.3000;0.9166;1.6486;
-30.0000;0.9190;1.6562;
-29.7000;0.9206;1.6587;
-29.4000;0.9206;1.6587;
-29.1000;0.9133;1.6359;
-28.8000;0.9206;1.6537;
-28.5000;0.9182;1.6486;
-28.2000;0.9198;1.6511;
-27.9000;0.9206;1.6537;
-27.6000;0.9166;1.6511;
-27.3000;0.9190;1.6537;
-27.0000;0.9182;1.6435;
-26.7000;0.9198;1.6461;
-26.4000;0.9190;1.6461;
-26.1000;0.9214;1.6486;
-25.8000;0.9190;1.6461;
-25.5000;0.9190;1.6461;
-25.2000;0.9182;1.6410;
-24.9000;0.9206;1.6461;
-24.6000;0.9255;1.6689;
-24.3000;0.9190;1.6511;
-24.0000;0.9190;1.6587;
-23.7000;0.9206;1.6537;
-23.4000;0.9198;1.6486;
-23.1000;0.9190;1.6537;
-22.8000;0.9206;1.6537;
-22.5000;0.9198;1.6511;
-22.2000;0.9198;1.6537;
-21.9000;0.9190;1.6562;
-21.6000;0.9117;1.6283;
-21.3000;0.9198;1.6461;
-21.0000;0.9198;1.6511;
-20.7000;0.9198;1.6537;
-20.4000;0.9206;1.6537;
-20.1000;0.9182;1.6562;
-19.8000;0.9214;1.6613;
-19.5000;0.9198;1.6664;
-19.2000;0.9198;1.6638;
-18.9000;0.9190;1.6587;
-18.6000;0.9206;1.6613;
-18.3000;0.9190;1.6562;
-18.0000;0.9182;1.6613;
-17.7000;0.9182;1.6587;
-17.4000;0.9190;1.6689;
-17.1000;0.9190;1.6664;
-16.8000;0.9149;1.6562;
-16.5000;0.9198;1.6638;
-16.2000;0.9206;1.6638;
-15.9000;0.9206;1.6562;
-15.6000;0.9133;1.6359;
-15.3000;0.9206;1.6587;
-15.0000;0.9206;1.6486;
-14.7000;0.9198;1.6410;
-14.4000;0.9182;1.6334;
-14.1000;0.9206;1.6359;
-13.8000;0.9239;1.6385;
-13.5000;0.9214;1.6410;
-13.2000;0.9158;1.6334;
-12.9000;0.9174;1.6537;
-12.6000;0.9190;1.6613;
-12.3000;0.9166;1.6613;
-12.0000;0.9190;1.6613;
-11.7000;0.9109;1.6359;
-11.4000;0.9101;1.6283;
-11.1000;0.9198;1.6562;
-10.8000;0.9198;1.6638;
-10.5000;0.9198;1.6638;
-10.2000;0.9214;1.6714;
-9.9000;0.9206;1.6587;
-9.6000;0.9231;1.6638;
-9.3000;0.9223;1.6638;
-9.0000;0.9206;1.6664;
-8.7000;0.9198;1.6765;
-8.4000;0.9206;1.6740;
-8.1000;0.9214;1.6740;
-7.8000;0.9214;1.6689;
-7.5000;0.9190;1.6537;
-7.2000;0.9206;1.6537;
-6.9000;0.9214;1.6587;
-6.6000;0.9174;1.6385;
-6.3000;0.9174;1.6486;
-6.0000;0.9214;1.6511;
-5.7000;0.9214;1.6562;
-5.4000;0.9198;1.6562;
-5.1000;0.9223;1.6613;
-4.8000;0.9214;1.6562;
-4.5000;0.9206;1.6587;
-4.2000;0.9198;1.6537;
-3.9000;0.9206;1.6511;
-3.6000;0.9198;1.6461;
-3.3000;0.9182;1.6410;
-3.0000;0.9206;1.6410;
-2.7000;0.9198;1.6410;
-2.4000;0.9214;1.6410;
-2.1000;0.9198;1.6410;
-1.8000;0.9182;1.6435;
-1.5000;0.9214;1.6410;
-1.2000;0.9174;1.6283;
-0.9000;0.9198;1.6435;
-0.6000;0.9239;1.6511;
-0.3000;0.9304;1.6664;
0.0000;0.9304;1.6664;
0.3000;0.9206;1.6283;
0.6000;0.9231;1.6841;
0.9000;0.9206;1.7171;
1.2000;0.9247;1.7627;
1.5000;0.9231;1.7881;
1.8000;0.9214;1.8185;
2.1000;0.9223;1.8414;
2.4000;0.9223;1.8540;
2.7000;0.9223;1.8718;
3.0000;0.9231;1.8870;
3.3000;0.9231;1.8946;
3.6000;0.9239;1.9098;
3.9000;0.9239;1.9200;
4.2000;0.9247;1.9276;
4.5000;0.9174;1.9098;
4.8000;0.9255;1.9453;
5.1000;0.9255;1.9428;
5.4000;0.9239;1.9453;
5.7000;0.9271;1.9580;
6.0000;0.9394;1.9834;
6.3000;0.9231;1.9504;
6.6000;0.9247;1.9453;
6.9000;0.9247;1.9403;
7.2000;0.9280;1.9479;
7.5000;0.9231;1.9428;
7.8000;0.9247;1.9428;
8.1000;0.9280;1.9606;
8.4000;0.9223;1.9606;
8.7000;0.9255;1.9682;
9.0000;0.9239;1.9580;
9.3000;0.9263;1.9682;
9.6000;0.9288;1.9732;
9.9000;0.9239;1.9631;
10.2000;0.9158;1.9301;
10.5000;0.9214;1.9428;
10.8000;0.9231;1.9504;
11.1000;0.9231;1.9555;
11.4000;0.9239;1.9656;
11.7000;0.9206;1.9580;
12.0000;0.9255;1.9707;
12.3000;0.9271;1.9758;
12.6000;0.9296;1.9783;
12.9000;0.9239;1.9707;
13.2000;0.9247;1.9809;
13.5000;0.9255;1.9758;
13.8000;0.9247;1.9758;
14.1000;0.9247;1.9682;
14.4000;0.9263;1.9834;
14.7000;0.9271;1.9885;
15.0000;0.9271;1.9961;
15.3000;0.9280;1.9961;
15.6000;0.9271;1.9935;
15.9000;0.9271;1.9910;
16.2000;0.9271;1.9809;
16.5000;0.9263;1.9707;
16.8000;0.9255;1.9758;
17.1000;0.9296;1.9834;
17.4000;0.9263;1.9834;
17.7000;0.9255;1.9809;
18.0000;0.9239;1.9809;
18.3000;0.9247;1.9732;
18.6000;0.9280;1.9834;
18.9000;0.9255;1.9732;
19.2000;0.9263;1.9732;
19.5000;0.9255;1.9859;
19.8000;0.9263;2.0011;
20.1000;0.9263;1.9935;
20.4000;0.9247;1.9834;
20.7000;0.9239;1.9859;
21.0000;0.9271;1.9935;
21.3000;0.9263;1.9986;
21.6000;0.9328;2.0113;
21.9000;0.9263;1.9859;
22.2000;0.9280;1.9834;
22.5000;0.9255;1.9758;
22.8000;0.9255;1.9732;
23.1000;0.9263;1.9783;
23.4000;0.9206;1.9707;
23.7000;0.9255;1.9834;
24.0000;0.9247;1.9859;
24.3000;0.9239;1.9885;
24.6000;0.9166;1.9682;
24.9000;0.9271;1.9910;
25.2000;0.9239;1.9834;
25.5000;0.9247;1.9859;
25.8000;0.9247;1.9859;
26.1000;0.9239;1.9885;
26.4000;0.9263;1.9885;
26.7000;0.9247;1.9859;
27.0000;0.9247;1.9859;
27.3000;0.9255;1.9961;
27.6000;0.9223;1.9885;
27.9000;0.9239;1.9910;
28.2000;0.9198;1.9732;
28.5000;0.9239;1.9809;
28.8000;0.9263;1.9809;
29.1000;0.9255;1.9809;
29.4000;0.9239;1.9809;
29.7000;0.9214;1.9834;
30.0000;0.9255;2.0011;
30.3000;0.9247;1.9885;
30.6000;0.9206;1.9732;
30.9000;0.9231;1.9758;
31.2000;0.9231;1.9732;
31.5000;0.9190;1.9682;
31.8000;0.9255;1.9859;
32.1000;0.9206;1.9682;
32.4000;0.9223;1.9682;
32.7000;0.9231;1.9758;
33.0000;0.9231;1.9732;
33.3000;0.9247;1.9783;
33.6000;0.9247;1.9834;
33.9000;0.9247;1.9834;
34.2000;0.9239;1.9809;
34.5000;0.9247;1.9758;
34.8000;0.9263;1.9834;
35.1000;0.9190;1.9732;
35.4000;0.9263;1.9961;
35.7000;0.9231;1.9910;
36.0000;0.9231;1.9910;
36.3000;0.9239;2.0088;
36.6000;0.9263;2.0113;
36.9000;0.9231;2.0088;
37.2000;0.9231;2.0088;
37.5000;0.9214;2.0037;
37.8000;0.9214;1.9961;
38.1000;0.9206;1.9961;
38.4000;0.9206;1.9910;
38.7000;0.9239;1.9961;
39.0000;0.9231;1.9961;
39.3000;0.9214;2.0062;
39.6000;0.9223;2.0062;
39.9000;0.9247;2.0113;
40.2000;0.9231;2.0088;
40.5000;0.9255;2.0088;
40.8000;0.9247;2.0037;
41.1000;0.9247;1.9910;
41.4000;0.9223;1.9809;
41.7000;0.9239;1.9809;
42.0000;0.9239;1.9834;
42.3000;0.9214;1.9732;
42.6000;0.9158;1.9606;
42.9000;0.9214;1.9758;
43.2000;0.9198;1.9758;
43.5000;0.9223;1.9758;
43.8000;0.9206;1.9834;
44.1000;0.9214;1.9935;
44.4000;0.9206;1.9885;
44.7000;0.9214;1.9910;
45.0000;0.9223;1.9935;
45.3000;0.9223;1.9910;
45.6000;0.9223;1.9986;
45.9000;0.9214;2.0037;
46.2000;0.9214;2.0011;
46.5000;0.9190;1.9935;
46.8000;0.9223;1.9910;
47.1000;0.9214;1.9859;
47.4000;0.9223;1.9910;
47.7000;0.9206;1.9809;
48.0000;0.9206;1.9834;
48.3000;0.9198;1.9961;
48.6000;0.9198;2.0011;
48.9000;0.9198;2.0062;
49.2000;0.9214;2.0164;
49.5000;0.9231;2.0214;
49.8000;0.9214;2.0138;
50.1000;0.9231;2.0265;
50.4000;0.9223;2.0316;
50.7000;0.9231;2.0240;
51.0000;0.9223;2.0138;
51.3000;0.9223;2.0189;
51.6000;0.9247;2.0214;
51.9000;0.9214;2.0088;
52.2000;0.9223;2.0062;
52.5000;0.9223;1.9986;
52.8000;0.9223;1.9986;
53.1000;0.9206;1.9935;
53.4000;0.9214;1.9935;
53.7000;0.9206;1.9961;
54.0000;0.9214;1.9910;
54.3000;0.9304;2.0088;
54.6000;0.9214;1.9935;
54.9000;0.9214;1.9935;
55.2000;0.9214;1.9986;
55.5000;0.9174;1.9986;
55.8000;0.9206;1.9961;
56.1000;0.9280;2.0265;
56.4000;0.9214;1.9961;
56.7000;0.9206;1.9910;
57.0000;0.9223;1.9885;
57.3000;0.9198;1.9910;
57.6000;0.9198;1.9885;
57.9000;0.9198;1.9834;
58.2000;0.9206;1.9961;
58.5000;0.9198;1.9961;
58.8000;0.9182;1.9935;
59.1000;0.9174;1.9935;
59.4000;0.9214;1.9961;
59.7000;0.9206;2.0088;
60.0000;0.9198;2.0062;
60.3000;0.9280;2.0164;
60.6000;0.9214;2.0011;
60.9000;0.9206;2.0011;
61.2000;0.9206;1.9935;
61.5000;0.9198;1.9961;
61.8000;0.9214;2.0037;
62.1000;0.9223;2.0011;
62.4000;0.9190;1.9885;
62.7000;0.9190;1.9961;
63.0000;0.9206;2.0037;
63.3000;0.9182;1.9986;
63.6000;0.9190;2.0011;
63.9000;0.9190;2.0062;
64.2000;0.9223;2.0164;
64.5000;0.9141;2.0037;
64.8000;0.9182;2.0088;
65.1000;0.9198;2.0088;
65.4000;0.9214;2.0164;
65.7000;0.9206;2.0240;
66.0000;0.9174;2.0164;
66.3000;0.9198;2.0214;
66.6000;0.9198;2.0214;
66.9000;0.9198;2.0189;
67.2000;0.9190;2.0164;
67.5000;0.9174;2.0011;
67.8000;0.9206;2.0062;
68.1000;0.9182;1.9935;
68.4000;0.9174;1.9935;
68.7000;0.9190;2.0037;
69.0000;0.9182;2.0037;
69.3000;0.9206;2.0088;
69.6000;0.9149;1.9986;
69.9000;0.9198;2.0062;
70.2000;0.9223;2.0189;
70.5000;0.9255;2.0189;
70.8000;0.9190;2.0113;
71.1000;0.9190;2.0088;
71.4000;0.9206;2.0113;
71.7000;0.9182;2.0138;
72.0000;0.9198;2.0189;
72.3000;0.9206;2.0037;
72.6000;0.9166;1.9885;
72.9000;0.9190;1.9834;
73.2000;0.9206;1.9885;
73.5000;0.9223;1.9859;
73.8000;0.9182;1.9732;
74.1000;0.9182;1.9910;
74.4000;0.9206;1.9986;
74.7000;0.9166;1.9935;
75.0000;0.9190;1.9859;
75.3000;0.9190;1.9859;
75.6000;0.9190;1.9935;
75.9000;0.9190;2.0088;
76.2000;0.9190;2.0113;
76.5000;0.9182;2.0113;
76.8000;0.9190;2.0138;
77.1000;0.9125;1.9935;
77.4000;0.9214;2.0138;
77.7000;0.9174;2.0062;
78.0000;0.9198;2.0138;
78.3000;0.9182;2.0062;
78.6000;0.9190;2.0088;
78.9000;0.9174;1.9986;
79.2000;0.9174;1.9986;
79.5000;0.9158;1.9986;
79.8000;0.9174;2.0062;
80.1000;0.9182;2.0037;
80.4000;0.9182;1.9961;
80.7000;0.9174;1.9961;
81.0000;0.9166;1.9935;
81.3000;0.9158;1.9935;
81.6000;0.9182;1.9910;
81.9000;0.9198;1.9910;
82.2000;0.9174;1.9885;
82.5000;0.9239;2.0037;
82.8000;0.9149;1.9859;
83.1000;0.9174;1.9910;
83.4000;0.9190;1.9859;
83.7000;0.9166;1.9885;
84.0000;0.9182;1.9935;
84.3000;0.9174;1.9910;
84.6000;0.9174;1.9910;
84.9000;0.9174;1.9961;
85.2000;0.9198;2.0088;
85.5000;0.9182;2.0138;
85.8000;0.9182;2.0113;
86.1000;0.9174;2.0062;
86.4000;0.9158;2.0062;
86.7000;0.9158;2.0062;
87.0000;0.9198;2.0214;
87.3000;0.9190;2.0214;
87.6000;0.9182;2.0214;
87.9000;0.9223;2.0240;
88.2000;0.9109;2.0037;
88.5000;0.9125;2.0011;
88.8000;0.9182;2.0138;
89.1000;0.9141;2.0011;
89.4000;0.9190;2.0138;
89.7000;0.9190;2.0088;
90.0000;0.9158;2.0037;
90.3000;0.9182;2.0113;
90.6000;0.9182;2.0088;
90.9000;0.9198;2.0113;
91.2000;0.9190;2.0113;
91.5000;0.9149;2.0037;
91.8000;0.9182;2.0138;
92.1000;0.9174;2.0062;
92.4000;0.9182;2.0088;
92.7000;0.9174;2.0037;
93.0000;0.9182;2.0011;
93.3000;0.9214;2.0189;
93.6000;0.9158;2.0062;
93.9000;0.9182;2.0113;
94.2000;0.9158;1.9961;
94.5000;0.9174;1.9986;
94.8000;0.9198;2.0088;
95.1000;0.9190;2.0113;
95.4000;0.9149;2.0062;
95.7000;0.9198;2.0138;
96.0000;0.9174;2.0062;
96.3000;0.9166;1.9935;
96.6000;0.9109;1.9783;
96.9000;0.9158;1.9910;
97.2000;0.9174;1.9885;
97.5000;0.9141;1.9859;
97.8000;0.9158;1.9809;
98.1000;0.9141;1.9834;
98.4000;0.9182;2.0113;
98.7000;0.9166;2.0138;
99.0000;0.9214;2.0214;
99.3000;0.9092;1.9935;
99.6000;0.9174;2.0240;
99.9000;0.9166;2.0138;
100.2000;0.9133;1.9910;
100.5000;0.9174;2.0037;
100.8000;0.9166;2.0037;
101.1000;0.9166;1.9961;
101.4000;0.9296;2.0290;
101.7000;0.9117;1.9834;
102.0000;0.9149;1.9935;
102.3000;0.9182;2.0037;
102.6000;0.9149;1.9910;
102.9000;0.9141;1.9935;
103.2000;0.9125;1.9859;
103.5000;0.9166;1.9910;
103.8000;0.9190;2.0037;
104.1000;0.9198;2.0062;
104.4000;0.9141;1.9910;
104.7000;0.9158;1.9986;
105.0000;0.9182;2.0037;
105.3000;0.9166;2.0088;
105.6000;0.9174;1.9986;
105.9000;0.9174;2.0037;
106.2000;0.9166;2.0088;
106.5000;0.9190;2.0138;
106.8000;0.9182;2.0088;
107.1000;0.9182;2.0062;
107.4000;0.9198;2.0062;
107.7000;0.9198;2.0062;
108.0000;0.9182;2.0037;
108.3000;0.9174;2.0062;
108.6000;0.9166;1.9986;
108.9000;0.9174;1.9885;
109.2000;0.9174;1.9961;
109.5000;0.9166;1.9910;
109.8000;0.9174;1.9986;
110.1000;0.9174;2.0088;
110.4000;0.9174;2.0138;
110.7000;0.9166;1.9986;
111.0000;0.9174;1.9986;
111.3000;0.9174;1.9986;
111.6000;0.9182;1.9910;
111.9000;0.9174;1.9961;
112.2000;0.9166;1.9986;
112.5000;0.9174;1.9961;
112.8000;0.9166;2.0037;
113.1000;0.9158;2.0037;
113.4000;0.9109;1.9961;
113.7000;0.9158;2.0138;
114.0000;0.9149;2.0037;
114.3000;0.9166;2.0088;
114.6000;0.9158;1.9961;
114.9000;0.9158;2.0062;
115.2000;0.9280;2.0443;
115.5000;0.9166;2.0189;
115.8000;0.9158;2.0113;
116.1000;0.9166;2.0113;
116.4000;0.9174;2.0113;
116.7000;0.9158;2.0011;
117.0000;0.9158;2.0088;
117.3000;0.9174;2.0088;
117.6000;0.9166;2.0113;
117.9000;0.9158;1.9986;
118.2000;0.9190;2.0062;
118.5000;0.9141;1.9859;
118.8000;0.9166;1.9935;
119.1000;0.9166;1.9961;
119.4000;0.9166;2.0011;
119.7000;0.9182;1.9986;
120.0000;0.9182;1.9986;
120.3000;0.9158;2.0011;
120.6000;0.9158;2.0062;
120.9000;0.9166;2.0138;
121.2000;0.9214;2.0214;
121.5000;0.9166;1.9961;
121.8000;0.9174;2.0011;
122.1000;0.9158;2.0037;
122.4000;0.9174;2.0088;
122.7000;0.9206;2.0290;
123.0000;0.9182;2.0138;
123.3000;0.9166;2.0011;
123.6000;0.9149;2.0088;
123.9000;0.9141;2.0088;
124.2000;0.9174;2.0088;
124.5000;0.9141;2.0138;
124.8000;0.9141;2.0062;
125.1000;0.9117;1.9935;
125.4000;0.9158;2.0062;
125.7000;0.9141;1.9986;
126.0000;0.9158;2.0062;
126.3000;0.9158;2.0062;
126.6000;0.9174;2.0138;
126.9000;0.9158;2.0113;
127.2000;0.9158;2.0088;
127.5000;0.9158;2.0062;
127.8000;0.9182;2.0037;
128.1000;0.9158;2.0011;
128.4000;0.9149;1.9935;
128.7000;0.9141;1.9885;
129.0000;0.9166;1.9935;
129.3000;0.9060;1.9732;
129.6000;0.9141;1.9885;
129.9000;0.9133;1.9859;
130.2000;0.9158;1.9935;
130.5000;0.9149;1.9961;
130.8000;0.9149;1.9935;
131.1000;0.9158;1.9961;
131.4000;0.9158;1.9961;
131.7000;0.9149;2.0011;
132.0000;0.9149;2.0011;
132.3000;0.9166;1.9961;
132.6000;0.9158;2.0011;
132.9000;0.9166;2.0062;
133.2000;0.9166;1.9986;
133.5000;0.9141;2.0037;
133.8000;0.9158;2.0138;
134.1000;0.9158;2.0189;
134.4000;0.9158;2.0088;
134.7000;0.9149;2.0113;
135.0000;0.9141;2.0011;
135.3000;0.9101;1.9859;
135.6000;0.9149;2.0037;
135.9000;0.9166;2.0062;
136.2000;0.9149;2.0088;
136.5000;0.9149;2.0037;
136.8000;0.9166;2.0011;
137.1000;0.9166;2.0062;
137.4000;0.9158;2.0062;
137.7000;0.9182;2.0062;
138.0000;0.9166;2.0113;
138.3000;0.9158;2.0164;
138.6000;0.9223;2.0367;
138.9000;0.9166;2.0189;
139.2000;0.9149;2.0164;
139.5000;0.9158;2.0164;
139.8000;0.9141;2.0164;
140.1000;0.9141;2.0265;
140.4000;0.9149;2.0265;
140.7000;0.9149;2.0240;
141.0000;0.9158;2.0138;
141.3000;0.9166;2.0138;
141.6000;0.9223;2.0214;
141.9000;0.9166;2.0062;
142.2000;0.9182;2.0062;
142.5000;0.9166;1.9986;
142.8000;0.9158;1.9935;
143.1000;0.9158;1.9935;
143.4000;0.9149;1.9961;
143.7000;0.9133;1.9961;
144.0000;0.9149;2.0037;
144.3000;0.9174;2.0011;
144.6000;0.9158;1.9935;
144.9000;0.9092;1.9859;
145.2000;0.9158;1.9935;
145.5000;0.9158;2.0113;
145.8000;0.9280;2.0493;
146.1000;0.9166;2.0214;
146.4000;0.9166;2.0088;
146.7000;0.9149;2.0088;
147.0000;0.9174;2.0037;
147.3000;0.9149;1.9910;
147.6000;0.9149;1.9910;
147.9000;0.9158;2.0011;
148.2000;0.9158;2.0037;
148.5000;0.9141;1.9961;
148.8000;0.9133;1.9859;
149.1000;0.9182;2.0011;
149.4000;0.9149;1.9885;
149.7000;0.9166;1.9935;
150.0000;0.9158;1.9910;
150.3000;0.9149;1.9961;
150.6000;0.9149;1.9935;
150.9000;0.9141;1.9910;
151.2000;0.9141;1.9859;
151.5000;0.9158;1.9859;
151.8000;0.9166;1.9809;
152.1000;0.9166;1.9783;
152.4000;0.9174;1.9834;
152.7000;0.9133;1.9732;
153.0000;0.9158;1.9834;
153.3000;0.9158;1.9834;
153.6000;0.9149;1.9809;
153.9000;0.9166;1.9809;
154.2000;0.9149;1.9834;
154.5000;0.9158;1.9935;
154.8000;0.9141;1.9961;
155.1000;0.9158;1.9961;
155.4000;0.9158;1.9859;
155.7000;0.9174;1.9885;
156.0000;0.9182;2.0011;
156.3000;0.9158;1.9986;
156.6000;0.9149;1.9885;
156.9000;0.9166;2.0011;
157.2000;0.9182;2.0088;
157.5000;0.9141;2.0037;
157.8000;0.9141;1.9986;
158.1000;0.9182;2.0138;
158.4000;0.9149;2.0113;
158.7000;0.9092;2.0062;
159.0000;0.9158;2.0189;
159.3000;0.9141;2.0214;
159.6000;0.9141;2.0189;
159.9000;0.9117;2.0088;
160.2000;0.9166;2.0164;
160.5000;0.9125;2.0088;
160.8000;0.9141;2.0113;
161.1000;0.9149;2.0214;
161.4000;0.9190;2.0189;
161.7000;0.9141;2.0062;
162.0000;0.9149;2.0138;
162.3000;0.9149;2.0189;
162.6000;0.9141;1.9986;
162.9000;0.9149;1.9986;
163.2000;0.9149;2.0062;
163.5000;0.9149;2.0037;
163.8000;0.9133;1.9859;
164.1000;0.9141;1.9935;
164.4000;0.9133;1.9935;
164.7000;0.9149;2.0062;
165.0000;0.9149;2.0088;
165.3000;0.9133;2.0088;
165.6000;0.9158;2.0138;
165.9000;0.9166;2.0240;
166.2000;0.9149;2.0164;
166.5000;0.9149;2.0113;
166.8000;0.9166;2.0088;
167.1000;0.9149;2.0037;
167.4000;0.9166;2.0113;
167.7000;0.9158;2.0113;
168.0000;0.9141;2.0113;
168.3000;0.9182;2.0240;
168.6000;0.9133;2.0138;
168.9000;0.9141;2.0138;
169.2000;0.9133;2.0088;
169.5000;0.9166;2.0062;
169.8000;0.9166;2.0062;
170.1000;0.9166;2.0037;
170.4000;0.9141;2.0011;
170.7000;0.9149;2.0088;
171.0000;0.9158;2.0088;
171.3000;0.9158;2.0138;
171.6000;0.9141;2.0164;
171.9000;0.9149;2.0164;
172.2000;0.9158;2.0164;
172.5000;0.9141;2.0113;
172.8000;0.9133;2.0113;
173.1000;0.9149;2.0214;
173.4000;0.9125;2.0062;
173.7000;0.9149;2.0164;
174.0000;0.9125;2.0113;
174.3000;0.9141;2.0062;
174.6000;0.9141;2.0037;
174.9000;0.9141;2.0011;
175.2000;0.9060;1.9834;
175.5000;0.9166;2.0214;
175.8000;0.9149;2.0113;
176.1000;0.9133;2.0088;
176.4000;0.9133;2.0062;
176.7000;0.9141;2.0088;
177.0000;0.9158;2.0189;
177.3000;0.9141;2.0138;
177.6000;0.9141;2.0088;
177.9000;0.9149;2.0062;
178.2000;0.9149;2.0088;
178.5000;0.9141;2.0011;
178.8000;0.9133;2.0011;
179.1000;0.9149;2.0037;
179.4000;0.9125;2.0011;
179.7000;0.9198;2.0088;
180.0000;0.9166;2.0113;
180.3000;0.9158;2.0189;
180.6000;0.9174;2.0240;
180.9000;0.9158;2.0189;
181.2000;0.9158;2.0214;
181.5000;0.9158;2.0164;
181.8000;0.9158;2.0240;
182.1000;0.9206;2.0290;
182.4000;0.9149;2.0138;
182.7000;0.9141;2.0113;
183.0000;0.9133;2.0138;
183.3000;0.9149;2.0062;
183.6000;0.9280;2.0417;
183.9000;0.9158;2.0164;
184.2000;0.9133;2.0062;
184.5000;0.9117;2.0088;
184.8000;0.9133;2.0138;
185.1000;0.9141;2.0164;
185.4000;0.9206;2.0417;
185.7000;0.9101;2.0088;
186.0000;0.9141;2.0138;
186.3000;0.9158;2.0164;
186.6000;0.9141;1.9961;
186.9000;0.9141;1.9961;
187.2000;0.9149;1.9986;
187.5000;0.9158;2.0011;
187.8000;0.9141;2.0088;
188.1000;0.9158;2.0113;
188.4000;0.9166;2.0113;
188.7000;0.9101;2.0062;
189.0000;0.9149;2.0138;
189.3000;0.9141;2.0062;
189.6000;0.9141;2.0062;
189.9000;0.9158;2.0037;
190.2000;0.9149;2.0138;
190.5000;0.9125;2.0088;
190.8000;0.9149;2.0113;
191.1000;0.9149;2.0088;
191.4000;0.9174;2.0088;
191.7000;0.9166;2.0138;
192.0000;0.9166;2.0062;
192.3000;0.9133;2.0037;
192.6000;0.9149;2.0214;
192.9000;0.9133;2.0214;
193.2000;0.9141;2.0240;
193.5000;0.9125;2.0138;
193.8000;0.9125;2.0113;
194.1000;0.9263;2.0341;
194.4000;0.9125;1.9986;
194.7000;0.9125;2.0037;
195.0000;0.9133;2.0088;
195.3000;0.9133;2.0113;
195.6000;0.9141;2.0164;
195.9000;0.9141;2.0240;
196.2000;0.9174;2.0341;
196.5000;0.9174;2.0468;
196.8000;0.9133;2.0316;
197.1000;0.9133;2.0265;
197.4000;0.9141;2.0265;
197.7000;0.9149;2.0240;
198.0000;0.9141;2.0240;
198.3000;0.9133;2.0189;
198.6000;0.9149;2.0164;
198.9000;0.9149;2.0240;
199.2000;0.9125;2.0214;
199.5000;0.9117;2.0113;
199.8000;0.9141;2.0088;
200.1000;0.9141;2.0037;
200.4000;0.9158;2.0113;
200.7000;0.9158;2.0113;
201.0000;0.9133;2.0113;
201.3000;0.9133;2.0138;
201.6000;0.9141;2.0214;
201.9000;0.9133;2.0240;
202.2000;0.9109;2.0138;
202.5000;0.9125;2.0164;
202.8000;0.9149;2.0164;
203.1000;0.9141;2.0062;
203.4000;0.9166;2.0189;
203.7000;0.9101;2.0062;
204.0000;0.9141;2.0214;
204.3000;0.9133;2.0189;
204.6000;0.9117;2.0214;
204.9000;0.9141;2.0088;
205.2000;0.9149;2.0062;
205.5000;0.9141;2.0037;
205.8000;0.9133;2.0011;
206.1000;0.9141;2.0037;
206.4000;0.9101;1.9961;
206.7000;0.9101;1.9935;
207.0000;0.9133;2.0062;
207.3000;0.9117;1.9986;
207.6000;0.9141;2.0037;
207.9000;0.9158;2.0062;
208.2000;0.9133;1.9986;
208.5000;0.9149;2.0062;
208.8000;0.9133;2.0088;
209.1000;0.9231;2.0341;
209.4000;0.9158;2.0113;
209.7000;0.9125;2.0011;
210.0000;0.9141;2.0037;
210.3000;0.9141;2.0037;
210.6000;0.9149;2.0088;
210.9000;0.9158;2.0037;
211.2000;0.9158;2.0088;
211.5000;0.9149;2.0113;
211.8000;0.9166;2.0138;
212.1000;0.9141;2.0088;
212.4000;0.9068;1.9935;
212.7000;0.9125;2.0164;
213.0000;0.9141;2.0189;
213.3000;0.9149;2.0189;
213.6000;0.9125;2.0214;
213.9000;0.9141;2.0265;
214.2000;0.9158;2.0290;
214.5000;0.9223;2.0493;
214.8000;0.9141;2.0290;
215.1000;0.9101;2.0113;
215.4000;0.9158;2.0240;
215.7000;0.9190;2.0290;
216.0000;0.9125;2.0062;
216.3000;0.9117;2.0037;
216.6000;0.9174;2.0214;
216.9000;0.9158;2.0138;
217.2000;0.9117;2.0138;
217.5000;0.9158;2.0240;
217.8000;0.9149;2.0214;
218.1000;0.9141;2.0265;
218.4000;0.9133;2.0214;
218.7000;0.9133;2.0164;
219.0000;0.9125;2.0113;
219.3000;0.9149;2.0037;
219.6000;0.9125;1.9910;
219.9000;0.9125;1.9961;
220.2000;0.9141;2.0062;
220.5000;0.9133;2.0088;
220.8000;0.9133;2.0138;
221.1000;0.9133;2.0164;
221.4000;0.9117;2.0113;
221.7000;0.9125;2.0164;
222.0000;0.9166;2.0113;
222.3000;0.9149;2.0062;
222.6000;0.9117;1.9935;
222.9000;0.9133;1.9859;
223.2000;0.9141;1.9859;
223.5000;0.9133;1.9885;
223.8000;0.9133;1.9834;
224.1000;0.9117;1.9783;
224.4000;0.9141;1.9885;
224.7000;0.9125;1.9935;
225.0000;0.9125;1.9986;
225.3000;0.9109;1.9986;
225.6000;0.9133;2.0164;
225.9000;0.9141;2.0189;
226.2000;0.9125;2.0189;
226.5000;0.9125;2.0214;
226.8000;0.9117;2.0240;
227.1000;0.9133;2.0316;
227.4000;0.9133;2.0290;
227.7000;0.9133;2.0316;
228.0000;0.9117;2.0240;
228.3000;0.9133;2.0189;
228.6000;0.9125;2.0138;
228.9000;0.9133;2.0164;
229.2000;0.9133;2.0214;
229.5000;0.9158;2.0214;
229.8000;0.9125;2.0164;
230.1000;0.9149;2.0214;
230.4000;0.9133;2.0138;
230.7000;0.9125;2.0189;
231.0000;0.9149;2.0214;
231.3000;0.9125;2.0164;
231.6000;0.9141;2.0189;
231.9000;0.9141;2.0214;
232.2000;0.9133;2.0164;
232.5000;0.9133;2.0088;
232.8000;0.9125;2.0138;
233.1000;0.9141;2.0088;
233.4000;0.9174;2.0138;
233.7000;0.9141;2.0113;
234.0000;0.9133;2.0037;
234.3000;0.9141;1.9986;
234.6000;0.9206;2.0138;
234.9000;0.9141;1.9961;
235.2000;0.9149;2.0011;
235.5000;0.9182;2.0164;
235.8000;0.9133;2.0113;
236.1000;0.9141;2.0138;
236.4000;0.9133;2.0138;
236.7000;0.9101;2.0037;
237.0000;0.9149;2.0062;
237.3000;0.9133;1.9986;
237.6000;0.9133;1.9986;
237.9000;0.9149;1.9986;
238.2000;0.9141;1.9961;
238.5000;0.9158;2.0037;
238.8000;0.9263;2.0316;
239.1000;0.9019;1.9758;
239.4000;0.9141;2.0011;
239.7000;0.9149;2.0062;
240.0000;0.9092;1.9935;
240.3000;0.9133;2.0011;
240.6000;0.9149;2.0062;
240.9000;0.9141;2.0011;
241.2000;0.9149;2.0062;
241.5000;0.9109;1.9910;
241.8000;0.9133;2.0011;
242.1000;0.9141;2.0113;
242.4000;0.9149;2.0214;
242.7000;0.9133;2.0240;
243.0000;0.9125;2.0265;
243.3000;0.9125;2.0341;
243.6000;0.9117;2.0316;
243.9000;0.9117;2.0290;
244.2000;0.9141;2.0341;
244.5000;0.9158;2.0392;
244.8000;0.9141;2.0367;
245.1000;0.9125;2.0265;
245.4000;0.9133;2.0164;
245.7000;0.9158;2.0088;
246.0000;0.9141;1.9935;
246.3000;0.9198;2.0138;
246.6000;0.9141;2.0037;
246.9000;0.9133;2.0037;
247.2000;0.9141;2.0062;
247.5000;0.9133;2.0062;
247.8000;0.9125;2.0088;
248.1000;0.9133;2.0062;
248.4000;0.9125;1.9986;
248.7000;0.9133;1.9986;
249.0000;0.9117;1.9986;
249.3000;0.9117;1.9986;
249.6000;0.9133;2.0011;
249.9000;0.9101;2.0037;
250.2000;0.9117;2.0037;
250.5000;0.9206;2.0214;
250.8000;0.9084;1.9935;
251.1000;0.9125;2.0088;
251.4000;0.9133;2.0138;
251.7000;0.9125;2.0113;
252.0000;0.9125;2.0113;
252.3000;0.9149;2.0214;
252.6000;0.9141;2.0113;
252.9000;0.9125;2.0037;
253.2000;0.9206;2.0290;
253.5000;0.9125;2.0062;
253.8000;0.9109;1.9910;
254.1000;0.9117;1.9859;
254.4000;0.9125;1.9910;
254.7000;0.9158;2.0088;
255.0000;0.9206;2.0214;
255.3000;0.9141;1.9986;
255.6000;0.9133;2.0037;
255.9000;0.9125;2.0037;
256.2000;0.9141;1.9961;
256.5000;0.9149;2.0037;
256.8000;0.9133;2.0088;
257.1000;0.9117;2.0088;
257.4000;0.9109;2.0037;
257.7000;0.9117;2.0164;
258.0000;0.9109;2.0113;
258.3000;0.9133;2.0113;
258.6000;0.9133;2.0138;
258.9000;0.9133;2.0088;
259.2000;0.9141;2.0088;
259.5000;0.9149;2.0062;
259.8000;0.9149;2.0113;
260.1000;0.9149;2.0062;
260.4000;0.9141;2.0062;
260.7000;0.9101;1.9910;
261.0000;0.9149;2.0011;
261.3000;0.9133;1.9986;
261.6000;0.9117;1.9961;
261.9000;0.9117;1.9986;
262.2000;0.9133;2.0062;
262.5000;0.9133;2.0088;
262.8000;0.9141;1.9986;
263.1000;0.9141;1.9885;
263.4000;0.9133;1.9935;
263.7000;0.9149;2.0062;
264.0000;0.9133;2.0062;
264.3000;0.9133;2.0062;
264.6000;0.9125;2.0113;
264.9000;0.9141;2.0113;
265.2000;0.9158;2.0113;
265.5000;0.9133;2.0088;
265.8000;0.9141;2.0011;
266.1000;0.9133;1.9910;
266.4000;0.9141;1.9961;
266.7000;0.9133;2.0011;
267.0000;0.9117;1.9961;
267.3000;0.9125;1.9986;
267.6000;0.9141;1.9986;
267.9000;0.9133;2.0088;
268.2000;0.9141;2.0113;
268.5000;0.9141;2.0138;
268.8000;0.9141;2.0138;
269.1000;0.9141;2.0164;
269.4000;0.9149;2.0189;
269.7000;0.9109;2.0138;
270.0000;0.9125;2.0138;
270.3000;0.9125;2.0037;
270.6000;0.9101;1.9910;
270.9000;0.9101;1.9834;
271.2000;0.9149;1.9885;
271.5000;0.9133;1.9783;
271.8000;0.9133;1.9809;
272.1000;0.9117;1.9834;
272.4000;0.9166;1.9885;
272.7000;0.9133;1.9758;
273.0000;0.9133;1.9809;
273.3000;0.9133;1.9809;
273.6000;0.9133;1.9885;
273.9000;0.9158;1.9910;
274.2000;0.9190;2.0138;
274.5000;0.9084;1.9859;
274.8000;0.9133;2.0062;
275.1000;0.9125;2.0037;
275.4000;0.9125;1.9961;
275.7000;0.9117;1.9834;
276.0000;0.9133;1.9910;
276.3000;0.9141;2.0037;
276.6000;0.9206;2.0214;
276.9000;0.9133;1.9935;
277.2000;0.9141;1.9935;
277.5000;0.9174;2.0062;
277.8000;0.9133;2.0011;
278.1000;0.9117;2.0011;
278.4000;0.9117;1.9986;
278.7000;0.9141;2.0037;
279.0000;0.9125;2.0037;
279.3000;0.9133;2.0037;
279.6000;0.9133;2.0011;
279.9000;0.9133;2.0011;
280.2000;0.9125;1.9885;
280.5000;0.9125;2.0011;
280.8000;0.9003;1.9682;
281.1000;0.9117;1.9935;
281.4000;0.9141;1.9961;
281.7000;0.9133;1.9885;
282.0000;0.9125;1.9910;
282.3000;0.9109;1.9935;
282.6000;0.9125;2.0037;
282.9000;0.9117;2.0011;
283.2000;0.9133;2.0011;
283.5000;0.9141;1.9935;
283.8000;0.9117;1.9910;
284.1000;0.9117;1.9935;
284.4000;0.9125;2.0011;
284.7000;0.9117;1.9986;
285.0000;0.9117;1.9935;
285.3000;0.9133;2.0113;
285.6000;0.9133;2.0088;
285.9000;0.9117;2.0062;
286.2000;0.9117;2.0037;
286.5000;0.9117;2.0113;
286.8000;0.9133;2.0214;
287.1000;0.9109;2.0164;
287.4000;0.9133;2.0214;
287.7000;0.9117;2.0113;
288.0000;0.9141;2.0214;
288.3000;0.9133;2.0138;
288.6000;0.9141;2.0113;
288.9000;0.9133;2.0113;
289.2000;0.9133;2.0037;
289.5000;0.9109;1.9885;
289.8000;0.9109;1.9885;
290.1000;0.9133;1.9885;
290.4000;0.9117;1.9961;
290.7000;0.9133;2.0062;
291.0000;0.9149;2.0164;
291.3000;0.9101;2.0037;
291.6000;0.9117;2.0113;
291.9000;0.9092;2.0088;
292.2000;0.9125;2.0189;
292.5000;0.9109;2.0113;
292.8000;0.9125;2.0189;
293.1000;0.9109;2.0113;
293.4000;0.9109;2.0088;
293.7000;0.9109;2.0113;
294.0000;0.9133;1.9986;
294.3000;0.9141;1.9986;
294.6000;0.9125;1.9961;
294.9000;0.9141;1.9961;
295.2000;0.9133;1.9935;
295.5000;0.9133;2.0088;
295.8000;0.9141;2.0088;
296.1000;0.9133;2.0214;
296.4000;0.9149;2.0189;
296.7000;0.9133;2.0138;
297.0000;0.9117;2.0164;
297.3000;0.9133;2.0164;
297.6000;0.9125;2.0088;
297.9000;0.9109;2.0138;
298.2000;0.9133;2.0214;
298.5000;0.9117;2.0164;
298.8000;0.9076;2.0088;
299.1000;0.9174;2.0265;
299.4000;0.9149;2.0189;
299.7000;0.9109;2.0037;
300.0000;0.9125;2.0062;
300.3000;0.9133;2.0062;
300.6000;0.9068;2.0011;
300.9000;0.9158;2.0341;
301.2000;0.9133;2.0265;
301.5000;0.9149;2.0290;
301.8000;0.9133;2.0316;
302.1000;0.9141;2.0417;
302.4000;0.9117;2.0290;
302.7000;0.9141;2.0290;
303.0000;0.9182;2.0367;
303.3000;0.9255;2.0569;
303.6000;0.9133;2.0240;
303.9000;0.9125;2.0189;
304.2000;0.9133;2.0240;
304.5000;0.9141;2.0265;
304.8000;0.9182;2.0417;
305.1000;0.9133;2.0265;
305.4000;0.9109;2.0214;
305.7000;0.9117;2.0265;
306.0000;0.9133;2.0316;
306.3000;0.9125;2.0316;
306.6000;0.9133;2.0367;
306.9000;0.9141;2.0468;
307.2000;0.9141;2.0265;
307.5000;0.9125;2.0138;
307.8000;0.9117;2.0062;
308.1000;0.9133;2.0138;
308.4000;0.9125;2.0062;
308.7000;0.9141;2.0088;
309.0000;0.9149;2.0189;
309.3000;0.9133;2.0037;
309.6000;0.9133;2.0037;
309.9000;0.9109;2.0138;
310.2000;0.9133;2.0113;
310.5000;0.9125;2.0062;
310.8000;0.9133;2.0138;
311.1000;0.9101;2.0164;
311.4000;0.9141;2.0265;
311.7000;0.9141;2.0265;
312.0000;0.9141;2.0290;
312.3000;0.9133;2.0341;
312.6000;0.9117;2.0392;
312.9000;0.9141;2.0316;
313.2000;0.9133;2.0265;
313.5000;0.9125;2.0113;
313.8000;0.9117;2.0088;
314.1000;0.9109;2.0088;
314.4000;0.9174;2.0240;
314.7000;0.9133;2.0088;
315.0000;0.9117;2.0138;
315.3000;0.9133;2.0189;
315.6000;0.9133;2.0138;
315.9000;0.9133;2.0138;
316.2000;0.9133;2.0164;
316.5000;0.9101;2.0037;
316.8000;0.9125;2.0088;
317.1000;0.9125;2.0214;
317.4000;0.9133;2.0240;
317.7000;0.9125;2.0164;
318.0000;0.9133;2.0189;
318.3000;0.9125;2.0189;
318.6000;0.9125;2.0189;
318.9000;0.9109;2.0088;
319.2000;0.9141;2.0164;
319.5000;0.9125;2.0138;
319.8000;0.9125;2.0088;
320.1000;0.9084;1.9834;
320.4000;0.9125;1.9935;
320.7000;0.9117;1.9961;
321.0000;0.9125;1.9961;
321.3000;0.9133;1.9986;
321.6000;0.9117;1.9910;
321.9000;0.9149;2.0037;
322.2000;0.9125;1.9961;
322.5000;0.9125;1.9935;
322.8000;0.9109;1.9910;
323.1000;0.9117;1.9986;
323.4000;0.9092;1.9935;
323.7000;0.9198;2.0290;
324.0000;0.9149;2.0138;
324.3000;0.9101;1.9986;
324.6000;0.9141;2.0062;
324.9000;0.9158;2.0138;
325.2000;0.9149;2.0214;
325.5000;0.9125;2.0214;
325.8000;0.9125;2.0189;
326.1000;0.9141;2.0290;
326.4000;0.9133;2.0265;
326.7000;0.9141;2.0290;
327.0000;0.9101;2.0164;
327.3000;0.9133;2.0240;
327.6000;0.9133;2.0214;
327.9000;0.9141;2.0214;
328.2000;0.9166;2.0265;
328.5000;0.9182;2.0316;
328.8000;0.9166;2.0214;
329.1000;0.9109;2.0088;
329.4000;0.9133;2.0189;
329.7000;0.9141;2.0290;
330.0000;0.9125;2.0316;
330.3000;0.9125;2.0316;
330.6000;0.9158;2.0417;
330.9000;0.9117;2.0316;
331.2000;0.9166;2.0341;
331.5000;0.9231;2.0493;
331.8000;0.9223;2.0519;
332.1000;0.9141;2.0240;
332.4000;0.9158;2.0265;
332.7000;0.9125;2.0062;
333.0000;0.9133;2.0062;
333.3000;0.9125;2.0011;
333.6000;0.9133;2.0062;
333.9000;0.9117;1.9986;
334.2000;0.9182;2.0138;
334.5000;0.9125;2.0113;
334.8000;0.9133;2.0189;
335.1000;0.9076;2.0011;
335.4000;0.9125;2.0164;
335.7000;0.9125;2.0240;
336.0000;0.9149;2.0240;
336.3000;0.9117;2.0189;
336.6000;0.9133;2.0214;
336.9000;0.9149;2.0214;
337.2000;0.9125;2.0214;
337.5000;0.9125;2.0164;
337.8000;0.9133;2.0164;
338.1000;0.9133;2.0113;
338.4000;0.9133;2.0088;
338.7000;0.9149;2.0164;
339.0000;0.9133;2.0138;
339.3000;0.9149;2.0138;
339.6000;0.9149;2.0113;
339.9000;0.9149;2.0088;
340.2000;0.9125;2.0062;
340.5000;0.9166;2.0214;
340.8000;0.9141;2.0113;
341.1000;0.9125;2.0011;
341.4000;0.9109;1.9961;
341.7000;0.9141;2.0037;
342.0000;0.9125;1.9961;
342.3000;0.9133;2.0011;
342.6000;0.9141;2.0113;
342.9000;0.9125;2.0138;
343.2000;0.9117;2.0037;
343.5000;0.9133;2.0138;
343.8000;0.9174;2.0316;
344.1000;0.9117;2.0214;
344.4000;0.9125;2.0265;
344.7000;0.9255;2.0671;
345.0000;0.9109;2.0316;
345.3000;0.9133;2.0367;
345.6000;0.9117;2.0443;
345.9000;0.9117;2.0316;
346.2000;0.9133;2.0316;
346.5000;0.9133;2.0265;
346.8000;0.9019;1.9935;
347.1000;0.9117;2.0290;
347.4000;0.9125;2.0341;
347.7000;0.9125;2.0265;
348.0000;0.9133;2.0265;
348.3000;0.9141;2.0214;
348.6000;0.9125;2.0189;
348.9000;0.9149;2.0265;
349.2000;0.9174;2.0417;
349.5000;0.9158;2.0265;
349.8000;0.9125;2.0265;
350.1000;0.9133;2.0265;
350.4000;0.9125;2.0316;
350.7000;0.9125;2.0265;
351.0000;0.9125;2.0290;
351.3000;0.9166;2.0367;
351.6000;0.9092;2.0164;
351.9000;0.9141;2.0265;
352.2000;0.9166;2.0316;
352.5000;0.9117;2.0240;
352.8000;0.9133;2.0316;
353.1000;0.9125;2.0341;
353.4000;0.9109;2.0341;
353.7000;0.9084;2.0290;
354.0000;0.9125;2.0316;
354.3000;0.9141;2.0417;
354.6000;0.9092;2.0240;
354.9000;0.9019;2.0062;
355.2000;0.9117;2.0367;
355.5000;0.9101;2.0316;
355.8000;0.9125;2.0367;
356.1000;0.9125;2.0316;
356.4000;0.9125;2.0341;
356.7000;0.9198;2.0443;
357.0000;0.9133;2.0240;
357.3000;0.9125;2.0290;
357.6000;0.9125;2.0265;
357.9000;0.9052;2.0011;
358.2000;0.9101;2.0138;
358.5000;0.9117;2.0214;
358.8000;0.9133;2.0265;
359.1000;0.9109;2.0214;
359.4000;0.9125;2.0214;
359.7000;0.9109;2.0240;
360.0000;0.9117;2.0316;
360.3000;0.9149;2.0316;
360.6000;0.9141;2.0290;
360.9000;0.9125;2.0189;
361.2000;0.9125;2.0138;
361.5000;0.9133;2.0113;
361.8000;0.9133;2.0113;
362.1000;0.9174;2.0189;
362.4000;0.9125;2.0164;
362.7000;0.9149;2.0290;
363.0000;0.9125;2.0316;
363.3000;0.9125;2.0316;
363.6000;0.9133;2.0316;
363.9000;0.9117;2.0265;
364.2000;0.9133;2.0316;
364.5000;0.9117;2.0417;
364.8000;0.9125;2.0417;
365.1000;0.9092;2.0290;
365.4000;0.9133;2.0392;
365.7000;0.9125;2.0417;
366.0000;0.9133;2.0417;
366.3000;0.9125;2.0417;
366.6000;0.9174;2.0493;
366.9000;0.9101;2.0367;
367.2000;0.9117;2.0392;
367.5000;0.9149;2.0367;
367.8000;0.9141;2.0265;
368.1000;0.9125;2.0240;
368.4000;0.9117;2.0214;
368.7000;0.9125;2.0214;
369.0000;0.9109;2.0164;
369.3000;0.9133;2.0189;
369.6000;0.9101;2.0164;
369.9000;0.9133;2.0316;
370.2000;0.9125;2.0265;
370.5000;0.9109;2.0214;
370.8000;0.9117;2.0290;
371.1000;0.9125;2.0392;
371.4000;0.9125;2.0392;
371.7000;0.9190;2.0468;
372.0000;0.9166;2.0443;
372.3000;0.9182;2.0519;
372.6000;0.9109;2.0265;
372.9000;0.9133;2.0392;
373.2000;0.9133;2.0468;
373.5000;0.9109;2.0367;
373.8000;0.9092;2.0214;
374.1000;0.9125;2.0316;
374.4000;0.9149;2.0290;
374.7000;0.9133;2.0189;
375.0000;0.9125;2.0214;
375.3000;0.9133;2.0290;
375.6000;0.9133;2.0164;
375.9000;0.9133;2.0189;
376.2000;0.9149;2.0290;
376.5000;0.9125;2.0214;
376.8000;0.9125;2.0214;
377.1000;0.9133;2.0290;
377.4000;0.9125;2.0290;
377.7000;0.9141;2.0240;
378.0000;0.9125;2.0240;
378.3000;0.9125;2.0214;
378.6000;0.9117;2.0214;
378.9000;0.9133;2.0164;
379.2000;0.9263;2.0569;
379.5000;0.9109;2.0138;
379.8000;0.9133;2.0240;
380.1000;0.9125;2.0214;
380.4000;0.9109;2.0214;
380.7000;0.9125;2.0265;
381.0000;0.9141;2.0214;
381.3000;0.9125;2.0088;
381.6000;0.9117;2.0164;
381.9000;0.9117;2.0189;
382.2000;0.9117;2.0164;
382.5000;0.9035;1.9961;
382.8000;0.9109;2.0164;
383.1000;0.9133;2.0088;
383.4000;0.9117;2.0088;
383.7000;0.9133;2.0088;
384.0000;0.9109;2.0088;
384.3000;0.9133;2.0164;
384.6000;0.9149;2.0189;
384.9000;0.9133;2.0138;
385.2000;0.9125;2.0113;
385.5000;0.9125;2.0138;
385.8000;0.9125;2.0189;
386.1000;0.9117;2.0290;
386.4000;0.9133;2.0341;
386.7000;0.9125;2.0265;
387.0000;0.9125;2.0214;
387.3000;0.9133;2.0265;
387.6000;0.9109;2.0189;
387.9000;0.9125;2.0214;
388.2000;0.9125;2.0214;
388.5000;0.9125;2.0240;
388.8000;0.9125;2.0290;
389.1000;0.9092;2.0240;
389.4000;0.9149;2.0367;
389.7000;0.9133;2.0316;
390.0000;0.9101;2.0265;
390.3000;0.9092;2.0214;
390.6000;0.9166;2.0341;
390.9000;0.9117;2.0164;
391.2000;0.9133;2.0214;
391.5000;0.9158;2.0290;
391.8000;0.9109;2.0265;
392.1000;0.9149;2.0367;
392.4000;0.9158;2.0290;
392.7000;0.9092;2.0113;
393.0000;0.9092;2.0113;
393.3000;0.9133;2.0189;
393.6000;0.9133;2.0189;
393.9000;0.9149;2.0316;
394.2000;0.9117;2.0265;
394.5000;0.9117;2.0189;
394.8000;0.9141;2.0240;
395.1000;0.9101;2.0088;
395.4000;0.9092;1.9986;
395.7000;0.9092;1.9961;
396.0000;0.9158;2.0113;
396.3000;0.9133;2.0062;
396.6000;0.9133;2.0088;
396.9000;0.9198;2.0316;
397.2000;0.9133;2.0240;
397.5000;0.9101;2.0240;
397.8000;0.9133;2.0367;
398.1000;0.9125;2.0367;
398.4000;0.9133;2.0417;
398.7000;0.9141;2.0392;
399.0000;0.9117;2.0240;
399.3000;0.9092;2.0214;
399.6000;0.9125;2.0316;
399.9000;0.9092;2.0265;
400.2000;0.9101;2.0189;
400.5000;0.9117;2.0189;
400.8000;0.9084;2.0062;
401.1000;0.9125;2.0164;
401.4000;0.9117;2.0088;
401.7000;0.9117;2.0138;
402.0000;0.9125;2.0088;
402.3000;0.9109;2.0062;
402.6000;0.9092;2.0088;
402.9000;0.9133;2.0189;
403.2000;0.9125;2.0164;
403.5000;0.9125;2.0164;
403.8000;0.9125;2.0138;
404.1000;0.9109;2.0011;
404.4000;0.9125;2.0037;
404.7000;0.9109;2.0011;
405.0000;0.9133;2.0113;
405.3000;0.9109;2.0088;
405.6000;0.9117;2.0240;
405.9000;0.9141;2.0341;
406.2000;0.9117;2.0240;
406.5000;0.9133;2.0290;
406.8000;0.9109;2.0240;
407.1000;0.9109;2.0189;
407.4000;0.9133;2.0189;
407.7000;0.9133;2.0240;
408.0000;0.9141;2.0265;
408.3000;0.9092;2.0138;
408.6000;0.9141;2.0290;
408.9000;0.9141;2.0265;
409.2000;0.9117;2.0189;
409.5000;0.9117;2.0240;
409.8000;0.9141;2.0265;
410.1000;0.9117;2.0214;
410.4000;0.9149;2.0290;
410.7000;0.9125;2.0189;
411.0000;0.9125;2.0240;
411.3000;0.9092;2.0113;
411.6000;0.9125;2.0214;
411.9000;0.9133;2.0214;
412.2000;0.9125;2.0240;
412.5000;0.9149;2.0240;
412.8000;0.9255;2.0493;
413.1000;0.9125;2.0164;
413.4000;0.9117;2.0138;
413.7000;0.9125;2.0138;
414.0000;0.9125;2.0164;
414.3000;0.9092;2.0189;
414.6000;0.9117;2.0164;
414.9000;0.9125;2.0138;
415.2000;0.9109;2.0138;
415.5000;0.9109;2.0164;
415.8000;0.9133;2.0189;
416.1000;0.9125;2.0164;
416.4000;0.9117;2.0138;
416.7000;0.9117;2.0062;
417.0000;0.9084;1.9859;
417.3000;0.9125;2.0037;
417.6000;0.9133;2.0088;
417.9000;0.9117;2.0062;
418.2000;0.9117;2.0011;
418.5000;0.9125;2.0088;
418.8000;0.9084;2.0037;
419.1000;0.9117;2.0113;
419.4000;0.9117;2.0164;
419.7000;0.9125;2.0138;
420.0000;0.9133;2.0265;
420.3000;0.9141;2.0265;
420.6000;0.9125;2.0189;
420.9000;0.9109;2.0164;
421.2000;0.9149;2.0265;
421.5000;0.9141;2.0240;
421.8000;0.9117;2.0138;
422.1000;0.9117;2.0113;
422.4000;0.9125;2.0062;
422.7000;0.9060;1.9885;
423.0000;0.9125;2.0062;
423.3000;0.9133;2.0037;
423.6000;0.9109;2.0037;
423.9000;0.9060;1.9986;
424.2000;0.9117;2.0037;
424.5000;0.9109;2.0011;
424.8000;0.9076;1.9859;
425.1000;0.9125;1.9935;
425.4000;0.9125;1.9986;
425.7000;0.9133;1.9935;
426.0000;0.9133;1.9910;
426.3000;0.9117;1.9935;
426.6000;0.9133;1.9935;
426.9000;0.9117;1.9986;
427.2000;0.9117;1.9961;
427.5000;0.9149;2.0037;
427.8000;0.9109;1.9935;
428.1000;0.9109;1.9961;
428.4000;0.9101;1.9986;
428.7000;0.9125;2.0062;
429.0000;0.9133;2.0062;
429.3000;0.9117;2.0062;
429.6000;0.9101;1.9961;
429.9000;0.9117;1.9961;
430.2000;0.9117;1.9986;
430.5000;0.9141;2.0088;
430.8000;0.9117;2.0062;
431.1000;0.9117;2.0062;
431.4000;0.9052;1.9885;
431.7000;0.9101;2.0062;
432.0000;0.9133;2.0113;
432.3000;0.9125;2.0138;
432.6000;0.9141;2.0164;
432.9000;0.9117;2.0088;
433.2000;0.9101;1.9961;
433.5000;0.9125;1.9961;
433.8000;0.9133;1.9885;
434.1000;0.9092;1.9732;
434.4000;0.9117;1.9859;
434.7000;0.9101;1.9859;
435.0000;0.9117;1.9910;
435.3000;0.9141;1.9910;
435.6000;0.9158;1.9910;
435.9000;0.9133;1.9758;
436.2000;0.9133;1.9859;
436.5000;0.9125;1.9809;
436.8000;0.9133;1.9961;
437.1000;0.9133;2.0062;
437.4000;0.9092;2.0011;
437.7000;0.9125;2.0113;
438.0000;0.9141;2.0164;
438.3000;0.9101;2.0164;
438.6000;0.9084;1.9961;
438.9000;0.9133;2.0088;
439.2000;0.9133;2.0138;
439.5000;0.9117;2.0214;
439.8000;0.9125;2.0189;
440.1000;0.9125;2.0113;
440.4000;0.9117;2.0037;
440.7000;0.9125;1.9961;
441.0000;0.9117;1.9986;
441.3000;0.9133;1.9961;
441.6000;0.9133;2.0037;
441.9000;0.9133;2.0037;
442.2000;0.9133;2.0011;
442.5000;0.9125;1.9961;
442.8000;0.9190;2.0138;
443.1000;0.9117;1.9885;
443.4000;0.9109;1.9910;
443.7000;0.9092;1.9910;
444.0000;0.9109;1.9910;
444.3000;0.9117;1.9961;
444.6000;0.9133;1.9961;
444.9000;0.9125;1.9910;
445.2000;0.9109;1.9885;
445.5000;0.9133;2.0011;
445.8000;0.9117;1.9961;
446.1000;0.9117;1.9910;
446.4000;0.9125;1.9859;
446.7000;0.9117;1.9809;
447.0000;0.9125;1.9758;
447.3000;0.9076;1.9606;
447.6000;0.9125;1.9707;
447.9000;0.9125;1.9732;
448.2000;0.9133;1.9758;
448.5000;0.9117;1.9809;
448.8000;0.9125;1.9885;
449.1000;0.9125;1.9961;
449.4000;0.9133;2.0037;
449.7000;0.9125;2.0011;
450.0000;0.9117;2.0037;
450.3000;0.9109;1.9986;
450.6000;0.9109;2.0062;
450.9000;0.9133;2.0062;
451.2000;0.9117;2.0062;
451.5000;0.9141;2.0189;
451.8000;0.9133;2.0113;
452.1000;0.9133;2.0062;
452.4000;0.9117;2.0011;
452.7000;0.9068;1.9885;
453.0000;0.9133;1.9961;
453.3000;0.9133;1.9961;
453.6000;0.9109;1.9885;
453.9000;0.9125;1.9961;
454.2000;0.9117;2.0037;
454.5000;0.9117;2.0062;
454.8000;0.9109;2.0037;
455.1000;0.9101;2.0011;
455.4000;0.9182;2.0214;
455.7000;0.9255;2.0341;
456.0000;0.9141;2.0037;
456.3000;0.9190;2.0290;
456.6000;0.9125;2.0164;
456.9000;0.9141;2.0113;
457.2000;0.9076;1.9961;
457.5000;0.9092;2.0062;
457.8000;0.9117;2.0088;
458.1000;0.9133;2.0037;
458.4000;0.9092;2.0037;
458.7000;0.9125;2.0189;
459.0000;0.9092;2.0062;
459.3000;0.9109;2.0138;
459.6000;0.9133;2.0189;
459.9000;0.9109;2.0138;
460.2000;0.9101;2.0113;
460.5000;0.9133;2.0214;
460.8000;0.9141;2.0240;
461.1000;0.9133;2.0164;
461.4000;0.9125;2.0138;
461.7000;0.9125;2.0214;
462.0000;0.9060;1.9986;
462.3000;0.9101;2.0037;
462.6000;0.9076;1.9885;
462.9000;0.9133;2.0113;
463.2000;0.9109;2.0037;
463.5000;0.9109;2.0113;
463.8000;0.9158;2.0240;
464.1000;0.9101;2.0113;
464.4000;0.9182;2.0316;
464.7000;0.9092;2.0062;
465.0000;0.9125;2.0189;
465.3000;0.9109;2.0062;
465.6000;0.9092;2.0062;
465.9000;0.9117;2.0088;
466.2000;0.9133;2.0088;
466.5000;0.9117;2.0037;
466.8000;0.9125;2.0088;
467.1000;0.9109;2.0088;
467.4000;0.9117;2.0240;
467.7000;0.9125;2.0290;
468.0000;0.9101;2.0290;
468.3000;0.9125;2.0367;
468.6000;0.9133;2.0316;
468.9000;0.9133;2.0316;
469.2000;0.9133;2.0290;
469.5000;0.9092;2.0290;
469.8000;0.9125;2.0341;
470.1000;0.9109;2.0341;
470.4000;0.9101;2.0316;
470.7000;0.9101;2.0341;
471.0000;0.9109;2.0341;
471.3000;0.9092;2.0367;
471.6000;0.9109;2.0392;
471.9000;0.9125;2.0341;
472.2000;0.9117;2.0265;
472.5000;0.9109;2.0290;
472.8000;0.9174;2.0493;
473.1000;0.9076;2.0214;
473.4000;0.9214;2.0544;
473.7000;0.9125;2.0265;
474.0000;0.9092;2.0164;
474.3000;0.9117;2.0189;
474.6000;0.9109;2.0214;
474.9000;0.9133;2.0265;
475.2000;0.9092;2.0138;
475.5000;0.9101;2.0265;
475.8000;0.9109;2.0240;
476.1000;0.9133;2.0189;
476.4000;0.9109;2.0240;
476.7000;0.9133;2.0265;
477.0000;0.9117;2.0341;
477.3000;0.9133;2.0443;
477.6000;0.9117;2.0367;
477.9000;0.9125;2.0417;
478.2000;0.9084;2.0341;
478.5000;0.9133;2.0519;
478.8000;0.9117;2.0493;
479.1000;0.9117;2.0443;
479.4000;0.9084;2.0519;
479.7000;0.9117;2.0544;
480.0000;0.9117;2.0468;
480.3000;0.9190;2.0595;
480.6000;0.9125;2.0519;
480.9000;0.9133;2.0544;
481.2000;0.9149;2.0620;
481.5000;0.9109;2.0544;
481.8000;0.9125;2.0646;
482.1000;0.9109;2.0569;
482.4000;0.9133;2.0722;
482.7000;0.9109;2.0722;
483.0000;0.9133;2.0747;
483.3000;0.9117;2.0620;
483.6000;0.9174;2.0722;
483.9000;0.9125;2.0519;
484.2000;0.9117;2.0544;
484.5000;0.9052;2.0290;
484.8000;0.9133;2.0519;
485.1000;0.9109;2.0468;
485.4000;0.9166;2.0620;
485.7000;0.9133;2.0443;
486.0000;0.9092;2.0290;
486.3000;0.9109;2.0290;
486.6000;0.9174;2.0468;
486.9000;0.9133;2.0392;
487.2000;0.9133;2.0443;
487.5000;0.9133;2.0443;
487.8000;0.9133;2.0316;
488.1000;0.9068;2.0189;
488.4000;0.9141;2.0341;
488.7000;0.9133;2.0392;
489.0000;0.9117;2.0290;
489.3000;0.9133;2.0290;
489.6000;0.9052;2.0164;
489.9000;0.9092;2.0240;
490.2000;0.9117;2.0240;
490.5000;0.9133;2.0341;
490.8000;0.9109;2.0138;
491.1000;0.9125;2.0189;
491.4000;0.9125;2.0265;
491.7000;0.9117;2.0240;
492.0000;0.9158;2.0341;
492.3000;0.9133;2.0316;
492.6000;0.9125;2.0265;
492.9000;0.9141;2.0240;
493.2000;0.9117;2.0214;
493.5000;0.9117;2.0214;
493.8000;0.9101;2.0265;
494.1000;0.9109;2.0290;
494.4000;0.9101;2.0240;
494.7000;0.9125;2.0341;
495.0000;0.9117;2.0316;
495.3000;0.9125;2.0290;
495.6000;0.9084;2.0265;
495.9000;0.9092;2.0265;
496.2000;0.9190;2.0493;
496.5000;0.9117;2.0417;
496.8000;0.9092;2.0392;
497.1000;0.9117;2.0341;
497.4000;0.9101;2.0316;
497.7000;0.9101;2.0265;
498.0000;0.9101;2.0367;
498.3000;0.9101;2.0341;
498.6000;0.9133;2.0417;
498.9000;0.9125;2.0392;
499.2000;0.9166;2.0620;
499.5000;0.9166;2.0620;
499.8000;0.9092;2.0493;
500.1000;0.9117;2.0493;
500.4000;0.9109;2.0468;
500.7000;0.9133;2.0544;
501.0000;0.9125;2.0468;
501.3000;0.9141;2.0468;
501.6000;0.9125;2.0392;
501.9000;0.9101;2.0316;
502.2000;0.9117;2.0290;
502.5000;0.9117;2.0341;
502.8000;0.9109;2.0341;
503.1000;0.9101;2.0417;
503.4000;0.9117;2.0443;
503.7000;0.9133;2.0468;
504.0000;0.9141;2.0417;
504.3000;0.9133;2.0367;
504.6000;0.9125;2.0290;
504.9000;0.9117;2.0265;
505.2000;0.9125;2.0316;
505.5000;0.9011;2.0037;
505.8000;0.9125;2.0214;
506.1000;0.9117;2.0164;
506.4000;0.9133;2.0214;
506.7000;0.9076;2.0037;
507.0000;0.9117;2.0164;
507.3000;0.9133;2.0189;
507.6000;0.9125;2.0164;
507.9000;0.9117;2.0189;
508.2000;0.9117;2.0189;
508.5000;0.9109;2.0189;
508.8000;0.9060;2.0113;
509.1000;0.9117;2.0316;
509.4000;0.9109;2.0240;
509.7000;0.9133;2.0189;
510.0000;0.9125;2.0265;
510.3000;0.9101;2.0214;
510.6000;0.9109;2.0240;
510.9000;0.9076;2.0189;
511.2000;0.9101;2.0240;
511.5000;0.9117;2.0290;
511.8000;0.9101;2.0265;
512.1000;0.9117;2.0316;
512.4000;0.9101;2.0290;
512.7000;0.9133;2.0417;
513.0000;0.9101;2.0316;
513.3000;0.9109;2.0367;
513.6000;0.9166;2.0468;
513.9000;0.9133;2.0341;
514.2000;0.9109;2.0316;
514.5000;0.9092;2.0316;
514.8000;0.9174;2.0519;
515.1000;0.9109;2.0367;
515.4000;0.9133;2.0493;
515.7000;0.9149;2.0519;
516.0000;0.9149;2.0544;
516.3000;0.9109;2.0519;
516.6000;0.9125;2.0620;
516.9000;0.9125;2.0646;
517.2000;0.9125;2.0620;
517.5000;0.9117;2.0519;
517.8000;0.9125;2.0493;
518.1000;0.9101;2.0341;
518.4000;0.9125;2.0392;
518.7000;0.9076;2.0290;
519.0000;0.9109;2.0290;
519.3000;0.9125;2.0265;
519.6000;0.9109;2.0265;
519.9000;0.9109;2.0214;
520.2000;0.9101;2.0189;
520.5000;0.9109;2.0189;
520.8000;0.9092;2.0214;
521.1000;0.9092;2.0290;
521.4000;0.9109;2.0341;
521.7000;0.9125;2.0316;
522.0000;0.9101;2.0316;
522.3000;0.9125;2.0367;
522.6000;0.9101;2.0290;
522.9000;0.9092;2.0265;
523.2000;0.9092;2.0189;
523.5000;0.9141;2.0265;
523.8000;0.9076;2.0113;
524.1000;0.9109;2.0214;
524.4000;0.9019;1.9986;
524.7000;0.9109;2.0240;
525.0000;0.9109;2.0214;
525.3000;0.9076;2.0189;
525.6000;0.9084;2.0240;
525.9000;0.9101;2.0240;
526.2000;0.9109;2.0341;
526.5000;0.9084;2.0265;
526.8000;0.9133;2.0443;
527.1000;0.9125;2.0443;
527.4000;0.9190;2.0646;
527.7000;0.9133;2.0443;
528.0000;0.9133;2.0620;
528.3000;0.9117;2.0544;
528.6000;0.9133;2.0493;
528.9000;0.9174;2.0620;
529.2000;0.9133;2.0443;
529.5000;0.9133;2.0443;
529.8000;0.9125;2.0468;
530.1000;0.9109;2.0417;
530.4000;0.9117;2.0392;
530.7000;0.9109;2.0367;
531.0000;0.9117;2.0417;
531.3000;0.9101;2.0443;
531.6000;0.9109;2.0493;
531.9000;0.9133;2.0468;
532.2000;0.9133;2.0392;
532.5000;0.9133;2.0341;
532.8000;0.9125;2.0240;
533.1000;0.9109;2.0341;
533.4000;0.9125;2.0341;
533.7000;0.9125;2.0265;
534.0000;0.9125;2.0316;
534.3000;0.9117;2.0341;
534.6000;0.9109;2.0443;
534.9000;0.9109;2.0519;
535.2000;0.9109;2.0417;
535.5000;0.9101;2.0316;
535.8000;0.9076;2.0265;
536.1000;0.9109;2.0367;
536.4000;0.9109;2.0290;
536.7000;0.9101;2.0240;
537.0000;0.9133;2.0316;
537.3000;0.9133;2.0290;
537.6000;0.9231;2.0519;
537.9000;0.9117;2.0240;
538.2000;0.9133;2.0392;
538.5000;0.9117;2.0341;
538.8000;0.9149;2.0341;
539.1000;0.9182;2.0569;
539.4000;0.9174;2.0519;
539.7000;0.9125;2.0443;
540.0000;0.9068;2.0265;
540.3000;0.9109;2.0392;
540.6000;0.9125;2.0443;
540.9000;0.9117;2.0392;
541.2000;0.9109;2.0341;
541.5000;0.9101;2.0290;
541.8000;0.9158;2.0493;
542.1000;0.9133;2.0341;
542.4000;0.9092;2.0240;
542.7000;0.9239;2.0569;
543.0000;0.9101;2.0240;
543.3000;0.9109;2.0265;
543.6000;0.9109;2.0265;
543.9000;0.9092;2.0240;
544.2000;0.9206;2.0544;
544.5000;0.9141;2.0392;
544.8000;0.9092;2.0240;
545.1000;0.9109;2.0214;
545.4000;0.9092;2.0164;
545.7000;0.9133;2.0265;
546.0000;0.9109;2.0290;
546.3000;0.9117;2.0341;
546.6000;0.9092;2.0392;
546.9000;0.9084;2.0392;
547.2000;0.9101;2.0468;
547.5000;0.9125;2.0544;
547.8000;0.9092;2.0417;
548.1000;0.9092;2.0417;
548.4000;0.9109;2.0417;
548.7000;0.9101;2.0367;
549.0000;0.9117;2.0341;
549.3000;0.9109;2.0290;
549.6000;0.9117;2.0290;
549.9000;0.9117;2.0214;
550.2000;0.9101;2.0214;
550.5000;0.9109;2.0214;
550.8000;0.9117;2.0265;
551.1000;0.9133;2.0265;
551.4000;0.9117;2.0265;
551.7000;0.9125;2.0240;
552.0000;0.9109;2.0240;
552.3000;0.9060;2.0062;
552.6000;0.9117;2.0240;
552.9000;0.9109;2.0290;
553.2000;0.9109;2.0367;
553.5000;0.9109;2.0341;
553.8000;0.9109;2.0290;
554.1000;0.9117;2.0164;
554.4000;0.9101;2.0164;
554.7000;0.9117;2.0164;
555.0000;0.9125;2.0138;
555.3000;0.9109;2.0113;
555.6000;0.9052;1.9961;
555.9000;0.9125;2.0088;
556.2000;0.9125;2.0037;
556.5000;0.9076;1.9910;
556.8000;0.9109;2.0037;
557.1000;0.9109;1.9986;
557.4000;0.9084;1.9809;
557.7000;0.9133;2.0011;
558.0000;0.9019;1.9783;
558.3000;0.9125;2.0062;
558.6000;0.9109;2.0011;
558.9000;0.9117;2.0037;
559.2000;0.9149;2.0113;
559.5000;0.9109;2.0062;
559.8000;0.9044;1.9859;
560.1000;0.9035;1.9935;
560.4000;0.9084;2.0113;
560.7000;0.9101;2.0240;
561.0000;0.9101;2.0240;
561.3000;0.9125;2.0367;
561.6000;0.9117;2.0417;
561.9000;0.9101;2.0341;
562.2000;0.9092;2.0316;
562.5000;0.9133;2.0341;
562.8000;0.9101;2.0316;
563.1000;0.9117;2.0392;
563.4000;0.9141;2.0443;
563.7000;0.9109;2.0443;
564.0000;0.9101;2.0443;
564.3000;0.9109;2.0468;
564.6000;0.9109;2.0519;
564.9000;0.9125;2.0493;
565.2000;0.9125;2.0468;
565.5000;0.9133;2.0392;
565.8000;0.9174;2.0468;
566.1000;0.9101;2.0290;
566.4000;0.9101;2.0265;
566.7000;0.9117;2.0367;
567.0000;0.9109;2.0341;
567.3000;0.9109;2.0367;
567.6000;0.9101;2.0341;
567.9000;0.9133;2.0493;
568.2000;0.9101;2.0392;
568.5000;0.9117;2.0519;
568.8000;0.9125;2.0468;
569.1000;0.9109;2.0493;
569.4000;0.9092;2.0443;
569.7000;0.9092;2.0468;
570.0000;0.9084;2.0493;
570.3000;0.9076;2.0519;
570.6000;0.9084;2.0519;
570.9000;0.9125;2.0493;
571.2000;0.9125;2.0443;
571.5000;0.9109;2.0367;
571.8000;0.9117;2.0417;
572.1000;0.9117;2.0367;
572.4000;0.9133;2.0468;
572.7000;0.9035;2.0290;
573.0000;0.9117;2.0519;
573.3000;0.9109;2.0468;
573.6000;0.9101;2.0493;
573.9000;0.9117;2.0519;
574.2000;0.9109;2.0417;
574.5000;0.9109;2.0392;
574.8000;0.9101;2.0417;
575.1000;0.9109;2.0417;
575.4000;0.9101;2.0544;
575.7000;0.9125;2.0519;
576.0000;0.9125;2.0569;
576.3000;0.9133;2.0696;
576.6000;0.9117;2.0519;
576.9000;0.9109;2.0367;
577.2000;0.9076;2.0316;
577.5000;0.9125;2.0417;
577.8000;0.9133;2.0468;
578.1000;0.9125;2.0468;
578.4000;0.9133;2.0569;
578.7000;0.9125;2.0569;
579.0000;0.9125;2.0493;
579.3000;0.9101;2.0443;
579.6000;0.9117;2.0595;
579.9000;0.9109;2.0519;
580.2000;0.9117;2.0544;
580.5000;0.9027;2.0240;
580.8000;0.9092;2.0367;
581.1000;0.9149;2.0595;
581.4000;0.9190;2.0646;
581.7000;0.9141;2.0443;
582.0000;0.9125;2.0443;
582.3000;0.9101;2.0443;
582.6000;0.9101;2.0493;
582.9000;0.9141;2.0595;
583.2000;0.9076;2.0316;
583.5000;0.9101;2.0417;
583.8000;0.9166;2.0544;
584.1000;0.9003;2.0138;
584.4000;0.9117;2.0443;
584.7000;0.9109;2.0392;
585.0000;0.9101;2.0417;
585.3000;0.9101;2.0468;
585.6000;0.9076;2.0493;
585.9000;0.9076;2.0493;
586.2000;0.9166;2.0671;
586.5000;0.9101;2.0519;
586.8000;0.9125;2.0544;
587.1000;0.9101;2.0443;
587.4000;0.9117;2.0493;
587.7000;0.9141;2.0519;
588.0000;0.9133;2.0417;
588.3000;0.9117;2.0468;
588.6000;0.9117;2.0417;
588.9000;0.9133;2.0468;
589.2000;0.9141;2.0519;
589.5000;0.9092;2.0544;
589.8000;0.9141;2.0569;
590.1000;0.9101;2.0468;
590.4000;0.9125;2.0493;
590.7000;0.9125;2.0443;
591.0000;0.9092;2.0392;
591.3000;0.9174;2.0595;
591.6000;0.9109;2.0493;
591.9000;0.9109;2.0468;
592.2000;0.9084;2.0443;
592.5000;0.9092;2.0443;
592.8000;0.9109;2.0595;
593.1000;0.9092;2.0671;
593.4000;0.9109;2.0544;
593.7000;0.9117;2.0493;
594.0000;0.9117;2.0569;
594.3000;0.9076;2.0493;
594.6000;0.9101;2.0519;
594.9000;0.9101;2.0468;
595.2000;0.9109;2.0544;
595.5000;0.9109;2.0569;
595.8000;0.9109;2.0569;
596.1000;0.9158;2.0722;
596.4000;0.9109;2.0569;
596.7000;0.9101;2.0493;
597.0000;0.9101;2.0443;
597.3000;0.9109;2.0443;
597.6000;0.9166;2.0569;
597.9000;0.9117;2.0493;
598.2000;0.9117;2.0443;
598.5000;0.9133;2.0417;
598.8000;0.9133;2.0468;
599.1000;0.9101;2.0443;
599.4000;0.9109;2.0519;
599.7000;0.9117;2.0569;
600.0000;0.8987;2.0290;
600.3000;0.9117;2.0392;
600.6000;0.9174;2.0316;
600.9000;0.9101;1.9986;
601.2000;0.9092;1.9809;
601.5000;0.9052;1.9504;
601.8000;0.9027;1.9251;
602.1000;0.9011;1.8997;
602.4000;0.8930;1.8667;
602.7000;0.8930;1.8591;
603.0000;0.8807;1.8109;
603.3000;0.8791;1.7906;
603.6000;0.8726;1.7551;
603.9000;0.8718;1.7450;
604.2000;0.8702;1.7374;
604.5000;0.8677;1.7272;
604.8000;0.8612;1.7044;
605.1000;0.8506;1.6714;
605.4000;0.8563;1.6816;
605.7000;0.8539;1.6714;
606.0000;0.8580;1.6740;
606.3000;0.8466;1.6461;
606.6000;0.8449;1.6385;
606.9000;0.8335;1.6131;
607.2000;0.8400;1.6334;
607.5000;0.8392;1.6232;
607.8000;0.8376;1.6156;
608.1000;0.8319;1.6029;
608.4000;0.8311;1.6029;
608.7000;0.8295;1.5928;
609.0000;0.8278;1.5903;
609.3000;0.8278;1.6029;
609.6000;0.8246;1.6055;
609.9000;0.8221;1.6004;
610.2000;0.8213;1.5776;
610.5000;0.8197;1.5725;
610.8000;0.8189;1.5725;
611.1000;0.8181;1.5674;
611.4000;0.8148;1.5573;
611.7000;0.8181;1.5598;
612.0000;0.8140;1.5573;
612.3000;0.8124;1.5497;
612.6000;0.8091;1.5573;
612.9000;0.8099;1.5573;
613.2000;0.8083;1.5497;
613.5000;0.8059;1.5548;
613.8000;0.8042;1.5497;
614.1000;0.8034;1.5598;
614.4000;0.8026;1.5522;
614.7000;0.8026;1.5497;
615.0000;0.8026;1.5471;
615.3000;0.7969;1.5446;
615.6000;0.7993;1.5471;
615.9000;0.8002;1.5497;
616.2000;0.7969;1.5395;
616.5000;0.7937;1.5345;
616.8000;0.7969;1.5421;
617.1000;0.7945;1.5395;
617.4000;0.7928;1.5269;
617.7000;0.7888;1.5192;
618.0000;0.7920;1.5294;
618.3000;0.7928;1.5370;
618.6000;0.7888;1.5319;
618.9000;0.7855;1.5218;
619.2000;0.7896;1.5269;
619.5000;0.7790;1.4939;
619.8000;0.7880;1.5218;
620.1000;0.7904;1.5218;
620.4000;0.7863;1.5218;
620.7000;0.7871;1.5294;
621.0000;0.7855;1.5116;
621.3000;0.7855;1.5142;
621.6000;0.7904;1.5294;
621.9000;0.7823;1.5192;
622.2000;0.7855;1.5294;
622.5000;0.7839;1.5294;
622.8000;0.7823;1.5243;
623.1000;0.7806;1.5192;
623.4000;0.7823;1.5269;
623.7000;0.7863;1.5370;
624.0000;0.7814;1.5192;
624.3000;0.7814;1.5218;
624.6000;0.7790;1.5167;
624.9000;0.7757;1.5040;
625.2000;0.7757;1.5116;
625.5000;0.7774;1.5142;
625.8000;0.7774;1.4964;
626.1000;0.7749;1.4913;
626.4000;0.7757;1.4888;
626.7000;0.7823;1.4964;
627.0000;0.7717;1.4609;
627.3000;0.7774;1.4761;
627.6000;0.7749;1.4787;
627.9000;0.7717;1.4761;
628.2000;0.7741;1.4812;
628.5000;0.7749;1.4761;
628.8000;0.7749;1.4787;
629.1000;0.7725;1.4787;
629.4000;0.7717;1.4888;
629.7000;0.7725;1.4913;
630.0000;0.7676;1.4812;
630.3000;0.7684;1.4837;
630.6000;0.7692;1.4888;
630.9000;0.7668;1.4863;
631.2000;0.7676;1.4888;
631.5000;0.7692;1.4837;
631.8000;0.7684;1.4787;
632.1000;0.7692;1.4685;
632.4000;0.7676;1.4787;
632.7000;0.7660;1.4863;
633.0000;0.7668;1.4888;
633.3000;0.7676;1.4964;
633.6000;0.7660;1.4913;
633.9000;0.7692;1.4990;
634.2000;0.7603;1.4761;
634.5000;0.7660;1.4990;
634.8000;0.7562;1.4787;
635.1000;0.7635;1.4990;
635.4000;0.7652;1.5066;
635.7000;0.7749;1.5421;
636.0000;0.7652;1.5066;
636.3000;0.7643;1.5040;
636.6000;0.7643;1.5015;
636.9000;0.7619;1.5066;
637.2000;0.7643;1.5091;
637.5000;0.7643;1.5116;
637.8000;0.7668;1.5218;
638.1000;0.7603;1.4990;
638.4000;0.7627;1.5040;
638.7000;0.7635;1.4990;
639.0000;0.7619;1.4964;
639.3000;0.7611;1.4837;
639.6000;0.7611;1.4863;
639.9000;0.7619;1.4837;
640.2000;0.7684;1.5015;
640.5000;0.7643;1.4888;
640.8000;0.7611;1.4761;
641.1000;0.7611;1.4863;
641.4000;0.7611;1.4888;
641.7000;0.7595;1.4837;
642.0000;0.7603;1.4761;
642.3000;0.7595;1.4736;
642.6000;0.7586;1.4609;
642.9000;0.7586;1.4533;
643.2000;0.7595;1.4558;
643.5000;0.7578;1.4609;
643.8000;0.7603;1.4685;
644.1000;0.7586;1.4609;
644.4000;0.7578;1.4635;
644.7000;0.7562;1.4584;
645.0000;0.7595;1.4660;
645.3000;0.7570;1.4609;
645.6000;0.7562;1.4558;
645.9000;0.7562;1.4558;
646.2000;0.7562;1.4685;
646.5000;0.7586;1.4736;
646.8000;0.7554;1.4736;
647.1000;0.7570;1.4787;
647.4000;0.7578;1.4761;
647.7000;0.7603;1.4812;
648.0000;0.7570;1.4837;
648.3000;0.7546;1.4863;
648.6000;0.7554;1.4863;
648.9000;0.7538;1.4913;
649.2000;0.7538;1.4837;
649.5000;0.7554;1.4837;
649.8000;0.7554;1.4863;
650.1000;0.7554;1.4837;
650.4000;0.7530;1.4736;
650.7000;0.7538;1.4761;
651.0000;0.7530;1.4736;
651.3000;0.7546;1.4787;
651.6000;0.7546;1.4761;
651.9000;0.7505;1.4635;
652.2000;0.7554;1.4761;
652.5000;0.7546;1.4761;
652.8000;0.7554;1.4837;
653.1000;0.7530;1.4863;
653.4000;0.7456;1.4584;
653.7000;0.7530;1.4685;
654.0000;0.7497;1.4685;
654.3000;0.7513;1.4787;
654.6000;0.7497;1.4736;
654.9000;0.7521;1.4837;
655.2000;0.7521;1.4837;
655.5000;0.7489;1.4685;
655.8000;0.7505;1.4837;
656.1000;0.7505;1.4685;
656.4000;0.7448;1.4533;
656.7000;0.7505;1.4736;
657.0000;0.7505;1.4787;
657.3000;0.7513;1.4837;
657.6000;0.7489;1.4863;
657.9000;0.7562;1.5066;
658.2000;0.7513;1.4913;
658.5000;0.7505;1.4888;
658.8000;0.7513;1.4939;
659.1000;0.7497;1.4787;
659.4000;0.7513;1.4812;
659.7000;0.7554;1.4939;
660.0000;0.7497;1.4761;
660.3000;0.7489;1.4812;
660.6000;0.7481;1.4711;
660.9000;0.7473;1.4736;
661.2000;0.7464;1.4812;
661.5000;0.7497;1.4913;
661.8000;0.7456;1.4913;
662.1000;0.7473;1.4913;
662.4000;0.7481;1.4990;
662.7000;0.7481;1.4913;
663.0000;0.7489;1.4837;
663.3000;0.7464;1.4736;
663.6000;0.7448;1.4761;
663.9000;0.7440;1.4761;
664.2000;0.7456;1.4787;
664.5000;0.7521;1.4939;
664.8000;0.7456;1.4761;
665.1000;0.7448;1.4787;
665.4000;0.7497;1.4837;
665.7000;0.7473;1.4812;
666.0000;0.7432;1.4787;
666.3000;0.7464;1.4939;
666.6000;0.7456;1.4888;
666.9000;0.7448;1.4787;
667.2000;0.7432;1.4736;
667.5000;0.7432;1.4787;
667.8000;0.7440;1.4761;
668.1000;0.7464;1.4863;
668.4000;0.7464;1.5040;
668.7000;0.7456;1.5015;
669.0000;0.7456;1.4964;
669.3000;0.7456;1.4913;
669.6000;0.7391;1.4761;
669.9000;0.7448;1.4913;
670.2000;0.7432;1.4863;
670.5000;0.7399;1.4761;
670.8000;0.7432;1.4837;
671.1000;0.7424;1.4787;
671.4000;0.7399;1.4711;
671.7000;0.7464;1.4837;
672.0000;0.7464;1.4863;
672.3000;0.7416;1.4685;
672.6000;0.7416;1.4761;
672.9000;0.7424;1.4761;
673.2000;0.7424;1.4711;
673.5000;0.7416;1.4711;
673.8000;0.7432;1.4761;
674.1000;0.7424;1.4837;
674.4000;0.7318;1.4685;
674.7000;0.7521;1.5218;
675.0000;0.7464;1.4964;
675.3000;0.7416;1.4761;
675.6000;0.7391;1.4711;
675.9000;0.7391;1.4787;
676.2000;0.7399;1.4761;
676.5000;0.7407;1.4635;
676.8000;0.7416;1.4660;
677.1000;0.7383;1.4508;
677.4000;0.7334;1.4381;
677.7000;0.7432;1.4609;
678.0000;0.7326;1.4381;
678.3000;0.7367;1.4558;
678.6000;0.7407;1.4609;
678.9000;0.7399;1.4584;
679.2000;0.7416;1.4660;
679.5000;0.7424;1.4660;
679.8000;0.7399;1.4609;
680.1000;0.7391;1.4660;
680.4000;0.7407;1.4761;
680.7000;0.7424;1.4685;
681.0000;0.7407;1.4711;
681.3000;0.7407;1.4736;
681.6000;0.7407;1.4685;
681.9000;0.7416;1.4711;
682.2000;0.7416;1.4685;
682.5000;0.7481;1.4939;
682.8000;0.7464;1.4863;
683.1000;0.7334;1.4482;
683.4000;0.7383;1.4457;
683.7000;0.7391;1.4533;
684.0000;0.7391;1.4508;
684.3000;0.7399;1.4482;
684.6000;0.7367;1.4330;
684.9000;0.7399;1.4432;
685.2000;0.7383;1.4457;
685.5000;0.7399;1.4533;
685.8000;0.7277;1.4153;
686.1000;0.7375;1.4482;
686.4000;0.7359;1.4457;
686.7000;0.7375;1.4482;
687.0000;0.7367;1.4432;
687.3000;0.7416;1.4584;
687.6000;0.7407;1.4660;
687.9000;0.7367;1.4584;
688.2000;0.7350;1.4533;
688.5000;0.7383;1.4584;
688.8000;0.7375;1.4685;
689.1000;0.7367;1.4837;
689.4000;0.7367;1.4888;
689.7000;0.7391;1.4913;
690.0000;0.7350;1.4837;
690.3000;0.7334;1.4711;
690.6000;0.7350;1.4761;
690.9000;0.7342;1.4736;
691.2000;0.7359;1.4736;
691.5000;0.7342;1.4736;
691.8000;0.7359;1.4761;
692.1000;0.7367;1.4812;
692.4000;0.7334;1.4787;
692.7000;0.7350;1.4761;
693.0000;0.7367;1.4888;
693.3000;0.7326;1.4787;
693.6000;0.7342;1.4787;
693.9000;0.7359;1.4888;
694.2000;0.7375;1.4913;
694.5000;0.7375;1.4990;
694.8000;0.7473;1.5294;
695.1000;0.7334;1.4913;
695.4000;0.7399;1.5091;
695.7000;0.7334;1.4888;
696.0000;0.7350;1.4863;
696.3000;0.7350;1.4913;
696.6000;0.7302;1.4711;
696.9000;0.7350;1.4990;
697.2000;0.7342;1.4913;
697.5000;0.7342;1.4787;
697.8000;0.7334;1.4787;
698.1000;0.7350;1.4837;
698.4000;0.7375;1.4939;
698.7000;0.7359;1.4990;
699.0000;0.7277;1.4736;
699.3000;0.7318;1.4888;
699.6000;0.7334;1.4939;
699.9000;0.7326;1.4964;
700.2000;0.7318;1.4964;
700.5000;0.7342;1.4990;
700.8000;0.7318;1.4888;
701.1000;0.7334;1.4913;
701.4000;0.7302;1.4787;
701.7000;0.7310;1.4837;
702.0000;0.7334;1.5040;
702.3000;0.7310;1.4964;
702.6000;0.7318;1.5040;
702.9000;0.7318;1.5015;
703.2000;0.7334;1.4990;
703.5000;0.7342;1.5040;
703.8000;0.7253;1.4736;
704.1000;0.7367;1.5066;
704.4000;0.7293;1.4939;
704.7000;0.7310;1.4913;
705.0000;0.7302;1.4964;
705.3000;0.7293;1.5015;
705.6000;0.7302;1.4990;
705.9000;0.7326;1.4939;
706.2000;0.7261;1.4787;
706.5000;0.7318;1.5015;
706.8000;0.7334;1.5066;
707.1000;0.7318;1.5015;
707.4000;0.7448;1.5446;
707.7000;0.7302;1.4990;
708.0000;0.7310;1.4990;
708.3000;0.7326;1.5040;
708.6000;0.7334;1.4964;
708.9000;0.7318;1.4939;
709.2000;0.7318;1.4939;
709.5000;0.7326;1.4913;
709.8000;0.7310;1.4787;
710.1000;0.7310;1.4736;
710.4000;0.7367;1.4888;
710.7000;0.7326;1.4761;
711.0000;0.7334;1.4761;
711.3000;0.7334;1.4761;
711.6000;0.7302;1.4635;
711.9000;0.7310;1.4635;
712.2000;0.7310;1.4660;
712.5000;0.7310;1.4761;
712.8000;0.7310;1.4787;
713.1000;0.7302;1.4711;
713.4000;0.7334;1.4711;
713.7000;0.7285;1.4635;
714.0000;0.7326;1.4711;
714.3000;0.7277;1.4584;
714.6000;0.7285;1.4584;
714.9000;0.7285;1.4533;
715.2000;0.7285;1.4558;
715.5000;0.7285;1.4609;
715.8000;0.7326;1.4635;
716.1000;0.7310;1.4609;
716.4000;0.7293;1.4660;
716.7000;0.7310;1.4685;
717.0000;0.7310;1.4609;
717.3000;0.7302;1.4685;
717.6000;0.7310;1.4736;
717.9000;0.7310;1.4635;
718.2000;0.7293;1.4584;
718.5000;0.7302;1.4558;
718.8000;0.7293;1.4558;
719.1000;0.7277;1.4584;
719.4000;0.7310;1.4736;
719.7000;0.7293;1.4736;
720.0000;0.7269;1.4685;
720.3000;0.7310;1.4787;
720.6000;0.7285;1.4837;
720.9000;0.7277;1.4913;
721.2000;0.7293;1.4913;
721.5000;0.7269;1.4812;
721.8000;0.7269;1.4761;
722.1000;0.7277;1.4787;
722.4000;0.7302;1.4787;
722.7000;0.7285;1.4736;
723.0000;0.7285;1.4761;
723.3000;0.7285;1.4812;
723.6000;0.7277;1.4761;
723.9000;0.7277;1.4660;
724.2000;0.7269;1.4660;
724.5000;0.7277;1.4685;
724.8000;0.7277;1.4711;
725.1000;0.7269;1.4660;
725.4000;0.7277;1.4685;
725.7000;0.7285;1.4812;
726.0000;0.7285;1.4888;
726.3000;0.7196;1.4660;
726.6000;0.7269;1.4863;
726.9000;0.7269;1.4837;
727.2000;0.7261;1.4787;
727.5000;0.7277;1.4787;
727.8000;0.7285;1.4761;
728.1000;0.7277;1.4711;
728.4000;0.7261;1.4761;
728.7000;0.7269;1.4736;
729.0000;0.7253;1.4685;
729.3000;0.7277;1.4736;
729.6000;0.7261;1.4736;
729.9000;0.7285;1.4787;
730.2000;0.7326;1.4863;
730.5000;0.7245;1.4736;
730.8000;0.7245;1.4761;
731.1000;0.7261;1.4787;
731.4000;0.7253;1.4711;
731.7000;0.7253;1.4635;
732.0000;0.7236;1.4635;
732.3000;0.7261;1.4761;
732.6000;0.7261;1.4812;
732.9000;0.7236;1.4609;
733.2000;0.7245;1.4736;
733.5000;0.7236;1.4736;
733.8000;0.7261;1.4787;
734.1000;0.7236;1.4711;
734.4000;0.7261;1.4837;
734.7000;0.7236;1.4787;
735.0000;0.7253;1.4812;
735.3000;0.7261;1.4812;
735.6000;0.7261;1.4812;
735.9000;0.7277;1.4837;
736.2000;0.7269;1.4939;
736.5000;0.7269;1.4888;
736.8000;0.7261;1.4812;
737.1000;0.7245;1.4761;
737.4000;0.7261;1.4787;
737.7000;0.7261;1.4888;
738.0000;0.7261;1.4863;
738.3000;0.7261;1.4939;
738.6000;0.7253;1.4913;
738.9000;0.7269;1.5040;
739.2000;0.7261;1.4964;
739.5000;0.7245;1.4913;
739.8000;0.7245;1.4863;
740.1000;0.7245;1.4863;
740.4000;0.7245;1.4761;
740.7000;0.7245;1.4761;
741.0000;0.7196;1.4736;
741.3000;0.7245;1.4787;
741.6000;0.7220;1.4736;
741.9000;0.7285;1.4964;
742.2000;0.7147;1.4635;
742.5000;0.7253;1.4863;
742.8000;0.7253;1.4913;
743.1000;0.7245;1.4888;
743.4000;0.7253;1.4990;
743.7000;0.7236;1.4888;
744.0000;0.7245;1.4939;
744.3000;0.7253;1.4939;
744.6000;0.7253;1.4761;
744.9000;0.7236;1.4711;
745.2000;0.7245;1.4736;
745.5000;0.7261;1.4837;
745.8000;0.7196;1.4685;
746.1000;0.7236;1.4812;
746.4000;0.7245;1.4888;
746.7000;0.7261;1.4913;
747.0000;0.7245;1.4888;
747.3000;0.7277;1.4964;
747.6000;0.7245;1.4888;
747.9000;0.7253;1.4939;
748.2000;0.7179;1.4736;
748.5000;0.7236;1.4787;
748.8000;0.7228;1.4736;
749.1000;0.7245;1.4761;
749.4000;0.7261;1.4913;
749.7000;0.7245;1.4990;
750.0000;0.7245;1.4913;
750.3000;0.7253;1.4888;
750.6000;0.7245;1.4863;
750.9000;0.7123;1.4533;
751.2000;0.7106;1.4482;
751.5000;0.7236;1.4787;
751.8000;0.7220;1.4812;
752.1000;0.7228;1.4863;
752.4000;0.7220;1.4863;
752.7000;0.7261;1.4913;
753.0000;0.7261;1.4913;
753.3000;0.7285;1.5015;
753.6000;0.7236;1.4863;
753.9000;0.7245;1.4837;
754.2000;0.7253;1.4913;
754.5000;0.7228;1.4913;
754.8000;0.7228;1.4990;
755.1000;0.7261;1.5116;
755.4000;0.7236;1.4990;
755.7000;0.7253;1.5066;
756.0000;0.7236;1.5040;
756.3000;0.7236;1.5066;
756.6000;0.7220;1.4990;
756.9000;0.7236;1.4990;
757.2000;0.7220;1.4939;
757.5000;0.7228;1.4964;
757.8000;0.7228;1.5040;
758.1000;0.7236;1.5015;
758.4000;0.7220;1.4939;
758.7000;0.7163;1.4787;
759.0000;0.7196;1.4761;
759.3000;0.7228;1.4939;
759.6000;0.7155;1.4812;
759.9000;0.7220;1.5015;
760.2000;0.7220;1.5066;
760.5000;0.7236;1.5116;
760.8000;0.7236;1.5167;
761.1000;0.7204;1.5066;
761.4000;0.7212;1.5167;
761.7000;0.7220;1.5167;
762.0000;0.7228;1.5116;
762.3000;0.7220;1.5040;
762.6000;0.7245;1.5015;
762.9000;0.7228;1.5015;
763.2000;0.7236;1.5066;
763.5000;0.7220;1.4990;
763.8000;0.7188;1.4913;
764.1000;0.7220;1.4964;
764.4000;0.7220;1.5015;
764.7000;0.7196;1.4913;
765.0000;0.7188;1.4888;
765.3000;0.7212;1.4913;
765.6000;0.7212;1.4990;
765.9000;0.7236;1.4990;
766.2000;0.7188;1.4913;
766.5000;0.7212;1.4964;
766.8000;0.7196;1.4939;
767.1000;0.7204;1.4888;
767.4000;0.7204;1.4863;
767.7000;0.7204;1.4913;
768.0000;0.7228;1.4990;
768.3000;0.7228;1.5066;
768.6000;0.7212;1.5015;
768.9000;0.7212;1.5091;
769.2000;0.7212;1.5040;
769.5000;0.7196;1.5015;
769.8000;0.7171;1.4837;
770.1000;0.7236;1.4939;
770.4000;0.7196;1.4863;
770.7000;0.7212;1.4888;
771.0000;0.7212;1.4863;
771.3000;0.7155;1.4685;
771.6000;0.7220;1.4913;
771.9000;0.7179;1.4837;
772.2000;0.7220;1.4964;
772.5000;0.7204;1.4913;
772.8000;0.7318;1.5167;
773.1000;0.7212;1.4812;
773.4000;0.7220;1.4787;
773.7000;0.7212;1.4837;
774.0000;0.7188;1.4761;
774.3000;0.7204;1.4812;
774.6000;0.7220;1.4812;
774.9000;0.7074;1.4381;
775.2000;0.7261;1.4888;
775.5000;0.7196;1.4787;
775.8000;0.7163;1.4761;
776.1000;0.7196;1.4913;
776.4000;0.7204;1.4939;
776.7000;0.7188;1.4888;
777.0000;0.7196;1.5015;
777.3000;0.7171;1.4990;
777.6000;0.7318;1.5421;
777.9000;0.7188;1.5040;
778.2000;0.7196;1.4964;
778.5000;0.7204;1.5040;
778.8000;0.7220;1.5040;
779.1000;0.7188;1.4964;
779.4000;0.7188;1.4913;
779.7000;0.7188;1.5015;
780.0000;0.7082;1.4711;
780.3000;0.7212;1.4964;
780.6000;0.7261;1.5015;
780.9000;0.7188;1.4913;
781.2000;0.7196;1.4913;
781.5000;0.7188;1.4863;
781.8000;0.7196;1.4837;
782.1000;0.7204;1.4837;
782.4000;0.7212;1.4913;
782.7000;0.7204;1.4812;
783.0000;0.7179;1.4736;
783.3000;0.7196;1.4863;
783.6000;0.7188;1.4913;
783.9000;0.7204;1.5015;
784.2000;0.7204;1.5066;
784.5000;0.7188;1.5066;
784.8000;0.7188;1.5040;
785.1000;0.7171;1.5015;
785.4000;0.7163;1.5015;
785.7000;0.7196;1.5091;
786.0000;0.7204;1.5066;
786.3000;0.7139;1.4939;
786.6000;0.7155;1.5066;
786.9000;0.7196;1.5116;
787.2000;0.7204;1.5116;
787.5000;0.7204;1.5091;
787.8000;0.7196;1.5015;
788.1000;0.7196;1.5040;
788.4000;0.7188;1.4913;
788.7000;0.7171;1.4888;
789.0000;0.7188;1.4990;
789.3000;0.7179;1.4913;
789.6000;0.7204;1.4939;
789.9000;0.7179;1.4837;
790.2000;0.7188;1.4812;
790.5000;0.7179;1.4837;
790.8000;0.7196;1.4913;
791.1000;0.7155;1.4913;
791.4000;0.7196;1.4964;
791.7000;0.7155;1.4812;
792.0000;0.7212;1.4913;
792.3000;0.7212;1.4888;
792.6000;0.7220;1.4964;
792.9000;0.7179;1.4863;
793.2000;0.7196;1.4863;
793.5000;0.7212;1.4913;
793.8000;0.7179;1.4863;
794.1000;0.7261;1.5066;
794.4000;0.7155;1.4913;
794.7000;0.7163;1.4939;
795.0000;0.7188;1.5015;
795.3000;0.7196;1.5015;
795.6000;0.7204;1.4964;
795.9000;0.7179;1.4964;
796.2000;0.7188;1.5091;
796.5000;0.7179;1.5091;
796.8000;0.7196;1.5091;
797.1000;0.7155;1.5066;
797.4000;0.7163;1.5116;
797.7000;0.7196;1.5091;
798.0000;0.7171;1.5040;
798.3000;0.7196;1.5167;
798.6000;0.7179;1.5192;
798.9000;0.7106;1.5040;
799.2000;0.7139;1.5040;
799.5000;0.7188;1.5116;
799.8000;0.7196;1.5243;
800.1000;0.7179;1.5167;
800.4000;0.7179;1.5319;
800.7000;0.7171;1.5319;
801.0000;0.7179;1.5370;
801.3000;0.7245;1.5471;
801.6000;0.7196;1.5345;
801.9000;0.7163;1.5218;
802.2000;0.7188;1.5167;
802.5000;0.7196;1.5116;
802.8000;0.7188;1.5066;
803.1000;0.7147;1.4913;
803.4000;0.7188;1.5040;
803.7000;0.7228;1.5091;
804.0000;0.7163;1.4913;
804.3000;0.7277;1.5218;
804.6000;0.7171;1.5015;
804.9000;0.7171;1.4964;
805.2000;0.7179;1.5066;
805.5000;0.7204;1.5142;
805.8000;0.7196;1.5142;
806.1000;0.7188;1.5167;
806.4000;0.7171;1.5167;
806.7000;0.7188;1.5167;
807.0000;0.7179;1.5192;
807.3000;0.7277;1.5446;
807.6000;0.7245;1.5370;
807.9000;0.7171;1.5091;
808.2000;0.7147;1.4990;
808.5000;0.7179;1.5066;
808.8000;0.7171;1.5040;
809.1000;0.7179;1.4990;
809.4000;0.7220;1.5142;
809.7000;0.7179;1.5116;
810.0000;0.7171;1.5040;
810.3000;0.7171;1.5091;
810.6000;0.7179;1.5218;
810.9000;0.7188;1.5167;
811.2000;0.7155;1.5091;
811.5000;0.7179;1.5091;
811.8000;0.7163;1.5040;
812.1000;0.7196;1.5192;
812.4000;0.7171;1.5167;
812.7000;0.7147;1.5142;
813.0000;0.7139;1.5142;
813.3000;0.7163;1.5192;
813.6000;0.7155;1.5142;
813.9000;0.7179;1.5218;
814.2000;0.7188;1.5218;
814.5000;0.7171;1.5294;
814.8000;0.7163;1.5192;
815.1000;0.7179;1.5192;
815.4000;0.7171;1.5116;
815.7000;0.7171;1.5066;
816.0000;0.7139;1.5066;
816.3000;0.7147;1.5091;
816.6000;0.7171;1.5066;
816.9000;0.7163;1.5040;
817.2000;0.7220;1.5218;
817.5000;0.7171;1.5167;
817.8000;0.7179;1.5142;
818.1000;0.7163;1.5142;
818.4000;0.7155;1.5040;
818.7000;0.7171;1.4990;
819.0000;0.7155;1.4888;
819.3000;0.7171;1.4939;
819.6000;0.7147;1.4990;
819.9000;0.7188;1.5142;
820.2000;0.7131;1.4990;
820.5000;0.7171;1.5116;
820.8000;0.7147;1.4990;
821.1000;0.7155;1.5066;
821.4000;0.7196;1.5091;
821.7000;0.7179;1.5066;
822.0000;0.7155;1.4964;
822.3000;0.7179;1.4964;
822.6000;0.7163;1.5015;
822.9000;0.7171;1.5167;
823.2000;0.7171;1.5142;
823.5000;0.7163;1.5091;
823.8000;0.7155;1.5142;
824.1000;0.7163;1.5218;
824.4000;0.7163;1.5116;
824.7000;0.7163;1.4990;
825.0000;0.7163;1.5040;
825.3000;0.7220;1.5218;
825.6000;0.7163;1.5066;
825.9000;0.7163;1.5116;
826.2000;0.7171;1.5192;
826.5000;0.7155;1.5167;
826.8000;0.7163;1.5167;
827.1000;0.7147;1.5192;
827.4000;0.7196;1.5243;
827.7000;0.7204;1.5319;
828.0000;0.7188;1.5243;
828.3000;0.7171;1.5243;
828.6000;0.7212;1.5294;
828.9000;0.7163;1.5218;
829.2000;0.7188;1.5294;
829.5000;0.7179;1.5218;
829.8000;0.7155;1.5218;
830.1000;0.7163;1.5294;
830.4000;0.7155;1.5395;
830.7000;0.7163;1.5471;
831.0000;0.7139;1.5421;
831.3000;0.7155;1.5345;
831.6000;0.7147;1.5269;
831.9000;0.7155;1.5218;
832.2000;0.7163;1.5294;
832.5000;0.7179;1.5269;
832.8000;0.7155;1.5243;
833.1000;0.7155;1.5142;
833.4000;0.7171;1.5091;
833.7000;0.7163;1.5167;
834.0000;0.7171;1.5192;
834.3000;0.7147;1.5218;
834.6000;0.7171;1.5294;
834.9000;0.7139;1.5218;
835.2000;0.7163;1.5192;
835.5000;0.7163;1.5192;
835.8000;0.7139;1.5192;
836.1000;0.7139;1.5192;
836.4000;0.7147;1.5319;
836.7000;0.7147;1.5269;
837.0000;0.7163;1.5192;
837.3000;0.7139;1.5091;
837.6000;0.7147;1.5116;
837.9000;0.7163;1.5167;
838.2000;0.7147;1.5192;
838.5000;0.7147;1.5142;
838.8000;0.7171;1.5142;
839.1000;0.7179;1.5218;
839.4000;0.7155;1.5218;
839.7000;0.7163;1.5243;
840.0000;0.7163;1.5294;
840.3000;0.7171;1.5345;
840.6000;0.7139;1.5370;
840.9000;0.7155;1.5294;
841.2000;0.7171;1.5269;
841.5000;0.7179;1.5319;
841.8000;0.7147;1.5218;
842.1000;0.7171;1.5167;
842.4000;0.7163;1.5142;
842.7000;0.7131;1.5116;
843.0000;0.7171;1.5243;
843.3000;0.7057;1.4990;
843.6000;0.7220;1.5471;
843.9000;0.7131;1.5370;
844.2000;0.7082;1.5167;
844.5000;0.7147;1.5243;
844.8000;0.7204;1.5294;
845.1000;0.7147;1.5091;
845.4000;0.7163;1.5040;
845.7000;0.7155;1.5142;
846.0000;0.7155;1.5066;
846.3000;0.7155;1.5116;
846.6000;0.7147;1.5066;
846.9000;0.7139;1.5015;
847.2000;0.7139;1.4964;
847.5000;0.7163;1.4964;
847.8000;0.7147;1.5015;
848.1000;0.7179;1.5116;
848.4000;0.7163;1.5116;
848.7000;0.7163;1.5142;
849.0000;0.7163;1.5116;
849.3000;0.7171;1.5218;
849.6000;0.7155;1.5091;
849.9000;0.7155;1.5040;
850.2000;0.7269;1.5370;
850.5000;0.7114;1.5040;
850.8000;0.7163;1.5116;
851.1000;0.7155;1.5091;
851.4000;0.7188;1.5218;
851.7000;0.7155;1.5167;
852.0000;0.7163;1.5116;
852.3000;0.7139;1.5243;
852.6000;0.7171;1.5345;
852.9000;0.7163;1.5370;
853.2000;0.7155;1.5345;
853.5000;0.7163;1.5243;
853.8000;0.7163;1.5192;
854.1000;0.7163;1.5218;
854.4000;0.7163;1.5319;
854.7000;0.7147;1.5345;
855.0000;0.7139;1.5319;
855.3000;0.7114;1.5218;
855.6000;0.7147;1.5243;
855.9000;0.7155;1.5243;
856.2000;0.7114;1.5243;
856.5000;0.7131;1.5192;
856.8000;0.7147;1.5192;
857.1000;0.7147;1.5142;
857.4000;0.7139;1.5192;
857.7000;0.7123;1.5116;
858.0000;0.7139;1.5142;
858.3000;0.7155;1.5218;
858.6000;0.7155;1.5243;
858.9000;0.7139;1.5243;
859.2000;0.7147;1.5218;
859.5000;0.7139;1.5243;
859.8000;0.7171;1.5319;
860.1000;0.7106;1.5192;
860.4000;0.7147;1.5294;
860.7000;0.7025;1.4964;
861.0000;0.7147;1.5218;
861.3000;0.7163;1.5269;
861.6000;0.7147;1.5294;
861.9000;0.7155;1.5294;
862.2000;0.7155;1.5319;
862.5000;0.7139;1.5218;
862.8000;0.7163;1.5243;
863.1000;0.7139;1.5167;
863.4000;0.7155;1.5243;
863.7000;0.7131;1.5167;
864.0000;0.7139;1.5218;
864.3000;0.7171;1.5218;
864.6000;0.7139;1.5167;
864.9000;0.7106;1.5015;
865.2000;0.7179;1.5142;
865.5000;0.7123;1.5040;
865.8000;0.7139;1.5091;
866.1000;0.7131;1.5192;
866.4000;0.7139;1.5243;
866.7000;0.7106;1.5116;
867.0000;0.7147;1.5192;
867.3000;0.7155;1.5192;
867.6000;0.7098;1.5040;
867.9000;0.7139;1.5116;
868.2000;0.7147;1.5218;
868.5000;0.7155;1.5294;
868.8000;0.7131;1.5243;
869.1000;0.7131;1.5294;
869.4000;0.7090;1.5167;
869.7000;0.7163;1.5294;
870.0000;0.7204;1.5395;
870.3000;0.7131;1.5091;
870.6000;0.7139;1.5091;
870.9000;0.7131;1.5066;
871.2000;0.7131;1.5015;
871.5000;0.7131;1.4939;
871.8000;0.7123;1.4863;
872.1000;0.7139;1.4990;
872.4000;0.7163;1.5040;
872.7000;0.7139;1.4939;
873.0000;0.7147;1.4964;
873.3000;0.7123;1.4990;
873.6000;0.7139;1.5091;
873.9000;0.7147;1.5066;
874.2000;0.7123;1.4964;
874.5000;0.7131;1.4990;
874.8000;0.7139;1.4964;
875.1000;0.7139;1.4913;
875.4000;0.7131;1.4964;
875.7000;0.7114;1.4990;
876.0000;0.7123;1.5015;
876.3000;0.7131;1.4990;
876.6000;0.7066;1.4812;
876.9000;0.7139;1.5040;
877.2000;0.7147;1.5066;
877.5000;0.7147;1.5040;
877.8000;0.7106;1.4939;
878.1000;0.7131;1.4990;
878.4000;0.7139;1.5116;
878.7000;0.7123;1.5066;
879.0000;0.7139;1.5192;
879.3000;0.7123;1.5192;
879.6000;0.7139;1.5294;
879.9000;0.7139;1.5294;
880.2000;0.7139;1.5167;
880.5000;0.7106;1.5091;
880.8000;0.7147;1.5218;
881.1000;0.7163;1.5192;
881.4000;0.7123;1.5091;
881.7000;0.7123;1.5167;
882.0000;0.7123;1.5167;
882.3000;0.7147;1.5218;
882.6000;0.7147;1.5269;
882.9000;0.7131;1.5269;
883.2000;0.7131;1.5395;
883.5000;0.7155;1.5446;
883.8000;0.7098;1.5319;
884.1000;0.7123;1.5345;
884.4000;0.7106;1.5218;
884.7000;0.7147;1.5319;
885.0000;0.7139;1.5345;
885.3000;0.7147;1.5319;
885.6000;0.7049;1.5091;
885.9000;0.7131;1.5421;
886.2000;0.7147;1.5471;
886.5000;0.7131;1.5471;
886.8000;0.7123;1.5446;
887.1000;0.7066;1.5319;
887.4000;0.7106;1.5370;
887.7000;0.7147;1.5370;
888.0000;0.7155;1.5345;
888.3000;0.7074;1.5192;
888.6000;0.7155;1.5319;
888.9000;0.7147;1.5319;
889.2000;0.7131;1.5370;
889.5000;0.7131;1.5345;
889.8000;0.7090;1.5142;
890.1000;0.7147;1.5269;
890.4000;0.7139;1.5319;
890.7000;0.7139;1.5269;
891.0000;0.7123;1.5192;
891.3000;0.7123;1.5218;
891.6000;0.7066;1.5040;
891.9000;0.7123;1.5142;
892.2000;0.7123;1.5066;
892.5000;0.7123;1.5116;
892.8000;0.7090;1.5142;
893.1000;0.7123;1.5243;
893.4000;0.7179;1.5421;
893.7000;0.7131;1.5395;
894.0000;0.7131;1.5395;
894.3000;0.7114;1.5319;
894.6000;0.7114;1.5370;
894.9000;0.7114;1.5345;
895.2000;0.7147;1.5421;
895.5000;0.7131;1.5395;
895.8000;0.7123;1.5319;
896.1000;0.7139;1.5395;
896.4000;0.7114;1.5345;
896.7000;0.7114;1.5370;
897.0000;0.7131;1.5345;
897.3000;0.7106;1.5142;
897.6000;0.7123;1.5218;
897.9000;0.7139;1.5319;
898.2000;0.7123;1.5192;
898.5000;0.7114;1.5192;
898.8000;0.7114;1.5218;
899.1000;0.7131;1.5319;
899.4000;0.7131;1.5294;
899.7000;0.7066;1.5192;
900.0000;0.7114;1.5294;
900.3000;0.7253;1.5674;
900.6000;0.7131;1.5395;
900.9000;0.7123;1.5446;
901.2000;0.7139;1.5471;
901.5000;0.7139;1.5497;
901.8000;0.7139;1.5421;
902.1000;0.7123;1.5395;
902.4000;0.7114;1.5446;
902.7000;0.7147;1.5548;
903.0000;0.7147;1.5446;
903.3000;0.7139;1.5471;
903.6000;0.7139;1.5497;
903.9000;0.7147;1.5345;
904.2000;0.7123;1.5269;
904.5000;0.7123;1.5269;
904.8000;0.7057;1.5066;
905.1000;0.7171;1.5319;
905.4000;0.7123;1.5192;
905.7000;0.7114;1.5091;
906.0000;0.7123;1.5192;
906.3000;0.7131;1.5192;
906.6000;0.7147;1.5192;
906.9000;0.7131;1.5142;
907.2000;0.7155;1.5218;
907.5000;0.7139;1.5218;
907.8000;0.7066;1.5091;
908.1000;0.7131;1.5243;
908.4000;0.7131;1.5192;
908.7000;0.7114;1.5091;
909.0000;0.7139;1.5167;
909.3000;0.7147;1.5142;
909.6000;0.7123;1.5091;
909.9000;0.7131;1.5116;
910.2000;0.7204;1.5243;
910.5000;0.7155;1.5091;
910.8000;0.7139;1.5066;
911.1000;0.7139;1.5040;
911.4000;0.7139;1.5040;
911.7000;0.7131;1.5167;
912.0000;0.7123;1.5116;
912.3000;0.7131;1.5269;
912.6000;0.7123;1.5243;
912.9000;0.7147;1.5269;
913.2000;0.7123;1.5243;
913.5000;0.7123;1.5269;
913.8000;0.7123;1.5294;
914.1000;0.7131;1.5319;
914.4000;0.7147;1.5319;
914.7000;0.7106;1.5167;
915.0000;0.7114;1.5116;
915.3000;0.7131;1.5116;
915.6000;0.7188;1.5294;
915.9000;0.7114;1.5091;
916.2000;0.7114;1.5091;
916.5000;0.7114;1.5167;
916.8000;0.7090;1.5142;
917.1000;0.7114;1.5192;
917.4000;0.7147;1.5243;
917.7000;0.7131;1.5192;
918.0000;0.7123;1.5167;
918.3000;0.7147;1.5192;
918.6000;0.7114;1.5091;
918.9000;0.7114;1.5192;
919.2000;0.7131;1.5218;
919.5000;0.7123;1.5218;
919.8000;0.7131;1.5167;
920.1000;0.7090;1.5167;
920.4000;0.7123;1.5218;
920.7000;0.7114;1.5192;
921.0000;0.7106;1.5243;
921.3000;0.7131;1.5294;
921.6000;0.7123;1.5370;
921.9000;0.7123;1.5395;
922.2000;0.7179;1.5522;
922.5000;0.7131;1.5319;
922.8000;0.7106;1.5294;
923.1000;0.7123;1.5319;
923.4000;0.7123;1.5218;
923.7000;0.7114;1.5218;
924.0000;0.7139;1.5294;
924.3000;0.7155;1.5395;
924.6000;0.7123;1.5243;
924.9000;0.7131;1.5218;
925.2000;0.7106;1.5142;
925.5000;0.7082;1.4990;
925.8000;0.7131;1.5167;
926.1000;0.7114;1.5142;
926.4000;0.7098;1.5192;
926.7000;0.7131;1.5269;
927.0000;0.7074;1.5167;
927.3000;0.7123;1.5370;
927.6000;0.7114;1.5345;
927.9000;0.7123;1.5370;
928.2000;0.7123;1.5370;
928.5000;0.7114;1.5319;
928.8000;0.7155;1.5522;
929.1000;0.7123;1.5395;
929.4000;0.7114;1.5370;
929.7000;0.7123;1.5345;
930.0000;0.7114;1.5218;
930.3000;0.7139;1.5218;
930.6000;0.7123;1.5243;
930.9000;0.7139;1.5294;
931.2000;0.7106;1.5294;
931.5000;0.7131;1.5421;
931.8000;0.7098;1.5269;
932.1000;0.7123;1.5395;
932.4000;0.7123;1.5421;
932.7000;0.7106;1.5345;
933.0000;0.7123;1.5294;
933.3000;0.7123;1.5243;
933.6000;0.7106;1.5218;
933.9000;0.7123;1.5192;
934.2000;0.7131;1.5218;
934.5000;0.7123;1.5116;
934.8000;0.7131;1.5192;
935.1000;0.7082;1.5116;
935.4000;0.7163;1.5345;
935.7000;0.7163;1.5218;
936.0000;0.7114;1.5142;
936.3000;0.7114;1.5192;
936.6000;0.7114;1.5192;
936.9000;0.7090;1.5192;
937.2000;0.7139;1.5218;
937.5000;0.7098;1.5066;
937.8000;0.7131;1.5167;
938.1000;0.7123;1.5142;
938.4000;0.7131;1.5142;
938.7000;0.7139;1.5142;
939.0000;0.7131;1.5167;
939.3000;0.7123;1.5142;
939.6000;0.7139;1.5167;
939.9000;0.7123;1.5091;
940.2000;0.7082;1.5040;
940.5000;0.7082;1.5091;
940.8000;0.7131;1.5192;
941.1000;0.7131;1.5192;
941.4000;0.7131;1.5142;
941.7000;0.7114;1.5167;
942.0000;0.7155;1.5294;
942.3000;0.7139;1.5269;
942.6000;0.7114;1.5421;
942.9000;0.7106;1.5395;
943.2000;0.7123;1.5395;
943.5000;0.7139;1.5471;
943.8000;0.7123;1.5370;
944.1000;0.7123;1.5395;
944.4000;0.7179;1.5446;
944.7000;0.7188;1.5497;
945.0000;0.7131;1.5446;
945.3000;0.7131;1.5370;
945.6000;0.7131;1.5370;
945.9000;0.7131;1.5395;
946.2000;0.7123;1.5370;
946.5000;0.7082;1.5319;
946.8000;0.7114;1.5395;
947.1000;0.7123;1.5319;
947.4000;0.7155;1.5294;
947.7000;0.7131;1.5319;
948.0000;0.7106;1.5319;
948.3000;0.7114;1.5370;
948.6000;0.7082;1.5167;
948.9000;0.7114;1.5192;
949.2000;0.7123;1.5294;
949.5000;0.7123;1.5269;
949.8000;0.7106;1.5167;
950.1000;0.7098;1.5167;
950.4000;0.7155;1.5345;
950.7000;0.7123;1.5218;
951.0000;0.7098;1.5218;
951.3000;0.7131;1.5345;
951.6000;0.7114;1.5345;
951.9000;0.7114;1.5269;
952.2000;0.7131;1.5370;
952.5000;0.7139;1.5192;
952.8000;0.7049;1.4990;
953.1000;0.7155;1.5446;
953.4000;0.7139;1.5446;
953.7000;0.7123;1.5421;
954.0000;0.7123;1.5421;
954.3000;0.7098;1.5395;
954.6000;0.7123;1.5345;
954.9000;0.7131;1.5446;
955.2000;0.7131;1.5421;
955.5000;0.7123;1.5395;
955.8000;0.7106;1.5294;
956.1000;0.7114;1.5345;
956.4000;0.7106;1.5345;
956.7000;0.7123;1.5395;
957.0000;0.7123;1.5395;
957.3000;0.7098;1.5319;
957.6000;0.7114;1.5395;
957.9000;0.7106;1.5370;
958.2000;0.7114;1.5395;
958.5000;0.7114;1.5370;
958.8000;0.7131;1.5446;
959.1000;0.7106;1.5395;
959.4000;0.7155;1.5497;
959.7000;0.7123;1.5370;
960.0000;0.7106;1.5370;
960.3000;0.7106;1.5319;
960.6000;0.7123;1.5395;
960.9000;0.7074;1.5294;
961.2000;0.7090;1.5294;
961.5000;0.7066;1.5294;
961.8000;0.7057;1.5218;
962.1000;0.7090;1.5218;
962.4000;0.7123;1.5218;
962.7000;0.7106;1.5192;
963.0000;0.7123;1.5269;
963.3000;0.7123;1.5269;
963.6000;0.7123;1.5269;
963.9000;0.7147;1.5345;
964.2000;0.7123;1.5243;
964.5000;0.7114;1.5167;
964.8000;0.7123;1.5269;
965.1000;0.7131;1.5319;
965.4000;0.7106;1.5319;
965.7000;0.7131;1.5294;
966.0000;0.7155;1.5294;
966.3000;0.7106;1.5192;
966.6000;0.7098;1.5192;
966.9000;0.7106;1.5192;
967.2000;0.7106;1.5192;
967.5000;0.7123;1.5218;
967.8000;0.7123;1.5192;
968.1000;0.7114;1.5218;
968.4000;0.7114;1.5218;
968.7000;0.7106;1.5142;
969.0000;0.7098;1.5116;
969.3000;0.7123;1.5142;
969.6000;0.7106;1.5142;
969.9000;0.7139;1.5167;
970.2000;0.7114;1.5243;
970.5000;0.7074;1.5243;
970.8000;0.7098;1.5269;
971.1000;0.7106;1.5345;
971.4000;0.7114;1.5446;
971.7000;0.7114;1.5446;
972.0000;0.7106;1.5497;
972.3000;0.7114;1.5471;
972.6000;0.7114;1.5446;
972.9000;0.7114;1.5471;
973.2000;0.7106;1.5421;
973.5000;0.7000;1.5091;
973.8000;0.7123;1.5370;
974.1000;0.7123;1.5370;
974.4000;0.7106;1.5370;
974.7000;0.7098;1.5294;
975.0000;0.7123;1.5319;
975.3000;0.7106;1.5294;
975.6000;0.7155;1.5319;
975.9000;0.7106;1.5269;
976.2000;0.7123;1.5269;
976.5000;0.7139;1.5370;
976.8000;0.7074;1.5142;
977.1000;0.7131;1.5269;
977.4000;0.7131;1.5269;
977.7000;0.7114;1.5319;
978.0000;0.7131;1.5345;
978.3000;0.7106;1.5243;
978.6000;0.7123;1.5319;
978.9000;0.7114;1.5319;
979.2000;0.7098;1.5370;
979.5000;0.7114;1.5395;
979.8000;0.7163;1.5573;
980.1000;0.7090;1.5446;
980.4000;0.7098;1.5471;
980.7000;0.7106;1.5497;
981.0000;0.7090;1.5471;
981.3000;0.7131;1.5497;
981.6000;0.7114;1.5573;
981.9000;0.7123;1.5598;
982.2000;0.7147;1.5700;
982.5000;0.7098;1.5548;
982.8000;0.7114;1.5598;
983.1000;0.7147;1.5725;
983.4000;0.7049;1.5421;
983.7000;0.7098;1.5497;
984.0000;0.7114;1.5446;
984.3000;0.7179;1.5548;
984.6000;0.7114;1.5395;
984.9000;0.7106;1.5370;
985.2000;0.7106;1.5370;
985.5000;0.7123;1.5471;
985.8000;0.7123;1.5395;
986.1000;0.7106;1.5294;
986.4000;0.7114;1.5243;
986.7000;0.7123;1.5269;
987.0000;0.7098;1.5345;
987.3000;0.7114;1.5345;
987.6000;0.7123;1.5243;
987.9000;0.7114;1.5218;
988.2000;0.7114;1.5294;
988.5000;0.7123;1.5269;
988.8000;0.7131;1.5269;
989.1000;0.7123;1.5243;
989.4000;0.7123;1.5243;
989.7000;0.7098;1.5116;
990.0000;0.7106;1.5142;
990.3000;0.7090;1.5192;
990.6000;0.7114;1.5345;
990.9000;0.7074;1.5370;
991.2000;0.7106;1.5370;
991.5000;0.7098;1.5370;
991.8000;0.7114;1.5395;
992.1000;0.7017;1.5142;
992.4000;0.7114;1.5497;
992.7000;0.7123;1.5573;
993.0000;0.7106;1.5548;
993.3000;0.7106;1.5649;
993.6000;0.7106;1.5598;
993.9000;0.7106;1.5548;
994.2000;0.7114;1.5497;
994.5000;0.7106;1.5522;
994.8000;0.7106;1.5294;
995.1000;0.7114;1.5294;
995.4000;0.7106;1.5294;
995.7000;0.7098;1.5345;
996.0000;0.7114;1.5370;
996.3000;0.7106;1.5446;
996.6000;0.7114;1.5395;
996.9000;0.7131;1.5421;
997.2000;0.7114;1.5395;
997.5000;0.7147;1.5395;
997.8000;0.7123;1.5471;
998.1000;0.7123;1.5471;
998.4000;0.7106;1.5471;
998.7000;0.7147;1.5522;
999.0000;0.7131;1.5446;
999.3000;0.7114;1.5370;
999.6000;0.7163;1.5446;
999.9000;0.7106;1.5218;
1000.2000;0.7123;1.5243;
1000.5000;0.7114;1.5192;
1000.8000;0.7098;1.5243;
1001.1000;0.7106;1.5192;
1001.4000;0.7098;1.5294;
1001.7000;0.7114;1.5395;
1002.0000;0.7123;1.5471;
1002.3000;0.7090;1.5370;
1002.6000;0.7114;1.5446;
1002.9000;0.7098;1.5319;
1003.2000;0.7033;1.5192;
1003.5000;0.7114;1.5446;
1003.8000;0.7098;1.5395;
1004.1000;0.7106;1.5421;
1004.4000;0.7114;1.5446;
1004.7000;0.7123;1.5421;
1005.0000;0.7114;1.5345;
1005.3000;0.7106;1.5395;
1005.6000;0.7106;1.5395;
1005.9000;0.7090;1.5269;
1006.2000;0.7114;1.5370;
1006.5000;0.7114;1.5421;
1006.8000;0.7106;1.5421;
1007.1000;0.7114;1.5471;
1007.4000;0.7114;1.5471;
1007.7000;0.7106;1.5395;
1008.0000;0.7123;1.5395;
1008.3000;0.7114;1.5370;
1008.6000;0.7098;1.5319;
1008.9000;0.7098;1.5243;
1009.2000;0.7114;1.5218;
1009.5000;0.7098;1.5192;
1009.8000;0.7114;1.5142;
1010.1000;0.7114;1.5167;
1010.4000;0.7098;1.5142;
1010.7000;0.7131;1.5319;
1011.0000;0.7114;1.5243;
1011.3000;0.7098;1.5345;
1011.6000;0.7106;1.5370;
1011.9000;0.7106;1.5319;
1012.2000;0.7106;1.5218;
1012.5000;0.7082;1.5116;
1012.8000;0.7114;1.5243;
1013.1000;0.7098;1.5192;
1013.4000;0.7123;1.5294;
1013.7000;0.7123;1.5243;
1014.0000;0.7106;1.5243;
1014.3000;0.7171;1.5370;
1014.6000;0.7123;1.5218;
1014.9000;0.7123;1.5269;
1015.2000;0.7139;1.5294;
1015.5000;0.7123;1.5192;
1015.8000;0.7098;1.5192;
1016.1000;0.7114;1.5243;
1016.4000;0.7106;1.5243;
1016.7000;0.7106;1.5269;
1017.0000;0.7123;1.5243;
1017.3000;0.7123;1.5269;
1017.6000;0.7106;1.5243;
1017.9000;0.7123;1.5269;
1018.2000;0.7131;1.5345;
1018.5000;0.7106;1.5294;
1018.8000;0.7123;1.5345;
1019.1000;0.7123;1.5294;
1019.4000;0.7114;1.5319;
1019.7000;0.7123;1.5345;
1020.0000;0.7074;1.5243;
1020.3000;0.7098;1.5218;
1020.6000;0.7123;1.5091;
1020.9000;0.7082;1.5040;
1021.2000;0.7106;1.5116;
1021.5000;0.7163;1.5218;
1021.8000;0.7098;1.5116;
1022.1000;0.7106;1.5167;
1022.4000;0.7090;1.5066;
1022.7000;0.7098;1.5192;
1023.0000;0.7155;1.5345;
1023.3000;0.7106;1.5192;
1023.6000;0.7163;1.5370;
1023.9000;0.7106;1.5167;
1024.2000;0.7114;1.5218;
1024.5000;0.7123;1.5294;
1024.8000;0.7090;1.5269;
1025.1000;0.7106;1.5243;
1025.4000;0.7106;1.5192;
1025.7000;0.7106;1.5142;
1026.0000;0.7074;1.5116;
1026.3000;0.7106;1.5142;
1026.6000;0.7090;1.5116;
1026.9000;0.7098;1.5192;
1027.2000;0.7090;1.5192;
1027.5000;0.7098;1.5091;
1027.8000;0.7114;1.5091;
1028.1000;0.7106;1.5142;
1028.4000;0.7106;1.5192;
1028.7000;0.7123;1.5192;
1029.0000;0.7123;1.5167;
1029.3000;0.7098;1.5040;
1029.6000;0.7098;1.5015;
1029.9000;0.7114;1.5116;
1030.2000;0.7155;1.5370;
1030.5000;0.7098;1.5091;
1030.8000;0.7106;1.5091;
1031.1000;0.7114;1.5192;
1031.4000;0.7106;1.5192;
1031.7000;0.7106;1.5015;
1032.0000;0.7098;1.5040;
1032.3000;0.7106;1.5116;
1032.6000;0.7123;1.5167;
1032.9000;0.7123;1.5218;
1033.2000;0.7033;1.5040;
1033.5000;0.7204;1.5548;
1033.8000;0.7106;1.5345;
1034.1000;0.7106;1.5370;
1034.4000;0.7098;1.5421;
1034.7000;0.7114;1.5421;
1035.0000;0.7114;1.5319;
1035.3000;0.7098;1.5370;
1035.6000;0.7106;1.5421;
1035.9000;0.7106;1.5497;
1036.2000;0.7090;1.5294;
1036.5000;0.7106;1.5370;
1036.8000;0.7098;1.5294;
1037.1000;0.7114;1.5243;
1037.4000;0.7098;1.5319;
1037.7000;0.7106;1.5395;
1038.0000;0.7123;1.5370;
1038.3000;0.7123;1.5319;
1038.6000;0.7090;1.5116;
1038.9000;0.7114;1.5167;
1039.2000;0.7123;1.5116;
1039.5000;0.7114;1.5167;
1039.8000;0.7106;1.5218;
1040.1000;0.7114;1.5345;
1040.4000;0.7066;1.5294;
1040.7000;0.7090;1.5446;
1041.0000;0.7098;1.5421;
1041.3000;0.7123;1.5421;
1041.6000;0.7114;1.5345;
1041.9000;0.7131;1.5395;
1042.2000;0.7131;1.5395;
1042.5000;0.7123;1.5294;
1042.8000;0.7123;1.5218;
1043.1000;0.7114;1.5218;
1043.4000;0.7114;1.5269;
1043.7000;0.7106;1.5243;
1044.0000;0.7131;1.5345;
1044.3000;0.7114;1.5319;
1044.6000;0.7106;1.5269;
1044.9000;0.7123;1.5319;
1045.2000;0.7114;1.5243;
1045.5000;0.7123;1.5294;
1045.8000;0.7090;1.5218;
1046.1000;0.7106;1.5294;
1046.4000;0.7098;1.5192;
1046.7000;0.7090;1.5218;
1047.0000;0.7098;1.5294;
1047.3000;0.7074;1.5294;
1047.6000;0.7082;1.5218;
1047.9000;0.7098;1.5218;
1048.2000;0.7114;1.5294;
1048.5000;0.7114;1.5269;
1048.8000;0.7123;1.5345;
1049.1000;0.7114;1.5345;
1049.4000;0.7139;1.5395;
1049.7000;0.7196;1.5598;
1050.0000;0.7106;1.5395;
1050.3000;0.7098;1.5345;
1050.6000;0.7123;1.5421;
1050.9000;0.7106;1.5370;
1051.2000;0.7106;1.5294;
1051.5000;0.7131;1.5421;
1051.8000;0.7163;1.5421;
1052.1000;0.7098;1.5218;
1052.4000;0.7114;1.5218;
1052.7000;0.7171;1.5471;
1053.0000;0.7041;1.5192;
1053.3000;0.7114;1.5370;
1053.6000;0.7090;1.5370;
1053.9000;0.7114;1.5345;
1054.2000;0.7098;1.5192;
1054.5000;0.7114;1.5294;
1054.8000;0.7123;1.5294;
1055.1000;0.7098;1.5218;
1055.4000;0.7098;1.5243;
1055.7000;0.7163;1.5421;
1056.0000;0.7114;1.5370;
1056.3000;0.7098;1.5345;
1056.6000;0.7090;1.5345;
1056.9000;0.7106;1.5345;
1057.2000;0.7114;1.5319;
1057.5000;0.7098;1.5243;
1057.8000;0.7082;1.5218;
1058.1000;0.7114;1.5269;
1058.4000;0.7098;1.5142;
1058.7000;0.7098;1.5192;
1059.0000;0.7123;1.5269;
1059.3000;0.7114;1.5269;
1059.6000;0.7114;1.5345;
1059.9000;0.7098;1.5243;
1060.2000;0.7114;1.5319;
1060.5000;0.7123;1.5319;
1060.8000;0.7106;1.5370;
1061.1000;0.7106;1.5345;
1061.4000;0.7114;1.5319;
1061.7000;0.7106;1.5192;
1062.0000;0.7098;1.5040;
1062.3000;0.7098;1.5091;
1062.6000;0.7098;1.5167;
1062.9000;0.7106;1.5294;
1063.2000;0.7098;1.5319;
1063.5000;0.7106;1.5243;
1063.8000;0.7106;1.5370;
1064.1000;0.7106;1.5395;
1064.4000;0.7106;1.5421;
1064.7000;0.7123;1.5395;
1065.0000;0.7098;1.5294;
1065.3000;0.7114;1.5319;
1065.6000;0.7123;1.5269;
1065.9000;0.7123;1.5269;
1066.2000;0.7106;1.5218;
1066.5000;0.7106;1.5167;
1066.8000;0.7114;1.5192;
1067.1000;0.7131;1.5167;
1067.4000;0.7114;1.5269;
1067.7000;0.7114;1.5294;
1068.0000;0.7106;1.5269;
1068.3000;0.7098;1.5294;
1068.6000;0.7155;1.5370;
1068.9000;0.7131;1.5395;
1069.2000;0.7106;1.5294;
1069.5000;0.7131;1.5319;
1069.8000;0.7098;1.5218;
1070.1000;0.7114;1.5243;
1070.4000;0.7123;1.5243;
1070.7000;0.7106;1.5218;
1071.0000;0.7123;1.5218;
1071.3000;0.7106;1.5116;
1071.6000;0.7139;1.5192;
1071.9000;0.7106;1.5167;
1072.2000;0.7114;1.5167;
1072.5000;0.7131;1.5142;
1072.8000;0.7114;1.5116;
1073.1000;0.7131;1.5116;
1073.4000;0.7114;1.5091;
1073.7000;0.7123;1.5116;
1074.0000;0.7098;1.5091;
1074.3000;0.7106;1.5218;
1074.6000;0.7090;1.5142;
1074.9000;0.7098;1.5192;
1075.2000;0.7179;1.5345;
1075.5000;0.7123;1.5142;
1075.8000;0.7131;1.5243;
1076.1000;0.7049;1.4964;
1076.4000;0.7090;1.5066;
1076.7000;0.7123;1.5091;
1077.0000;0.7057;1.4939;
1077.3000;0.7106;1.4990;
1077.6000;0.7123;1.5091;
1077.9000;0.7123;1.5091;
1078.2000;0.7155;1.5116;
1078.5000;0.7114;1.5142;
1078.8000;0.7090;1.5091;
1079.1000;0.7114;1.5167;
1079.4000;0.7106;1.5218;
1079.7000;0.7106;1.5243;
1080.0000;0.7098;1.5243;
1080.3000;0.7114;1.5421;
1080.6000;0.7131;1.5471;
1080.9000;0.7114;1.5345;
1081.2000;0.7114;1.5269;
1081.5000;0.7131;1.5167;
1081.8000;0.7131;1.5192;
1082.1000;0.7123;1.5066;
1082.4000;0.7123;1.5040;
1082.7000;0.7106;1.5066;
1083.0000;0.7033;1.4913;
1083.3000;0.7123;1.5192;
1083.6000;0.7114;1.5218;
1083.9000;0.7114;1.5345;
1084.2000;0.7123;1.5421;
1084.5000;0.7057;1.5192;
1084.8000;0.7114;1.5294;
1085.1000;0.7123;1.5345;
1085.4000;0.7123;1.5395;
1085.7000;0.7106;1.5269;
1086.0000;0.7123;1.5243;
1086.3000;0.7106;1.5218;
1086.6000;0.7106;1.5243;
1086.9000;0.7114;1.5269;
1087.2000;0.7106;1.5294;
1087.5000;0.7123;1.5421;
1087.8000;0.7123;1.5370;
1088.1000;0.7114;1.5294;
1088.4000;0.7139;1.5446;
1088.7000;0.7106;1.5446;
1089.0000;0.7106;1.5421;
1089.3000;0.7106;1.5446;
1089.6000;0.7114;1.5370;
1089.9000;0.7106;1.5294;
1090.2000;0.7114;1.5319;
1090.5000;0.7123;1.5370;
1090.8000;0.7139;1.5370;
1091.1000;0.7123;1.5269;
1091.4000;0.7082;1.5269;
1091.7000;0.7220;1.5700;
1092.0000;0.7114;1.5446;
1092.3000;0.7114;1.5471;
1092.6000;0.7066;1.5319;
1092.9000;0.7098;1.5471;
1093.2000;0.7114;1.5522;
1093.5000;0.7114;1.5522;
1093.8000;0.7090;1.5446;
1094.1000;0.7114;1.5421;
1094.4000;0.7131;1.5395;
1094.7000;0.7114;1.5421;
1095.0000;0.7131;1.5446;
1095.3000;0.7098;1.5269;
1095.6000;0.7123;1.5192;
1095.9000;0.7139;1.5167;
1096.2000;0.7123;1.5218;
1096.5000;0.7114;1.5269;
1096.8000;0.7114;1.5243;
1097.1000;0.7139;1.5345;
1097.4000;0.7114;1.5243;
1097.7000;0.7057;1.5167;
1098.0000;0.7123;1.5345;
1098.3000;0.7114;1.5243;
1098.6000;0.7123;1.5192;
1098.9000;0.7123;1.5218;
1099.2000;0.7098;1.5218;
1099.5000;0.7123;1.5370;
1099.8000;0.7106;1.5421;
1100.1000;0.7123;1.5497;
1100.4000;0.7074;1.5370;
1100.7000;0.7114;1.5421;
1101.0000;0.7123;1.5497;
1101.3000;0.7114;1.5395;
1101.6000;0.7131;1.5446;
1101.9000;0.7114;1.5370;
1102.2000;0.7106;1.5370;
1102.5000;0.7123;1.5370;
1102.8000;0.7098;1.5142;
1103.1000;0.7090;1.5142;
1103.4000;0.7123;1.5142;
1103.7000;0.7131;1.5192;
1104.0000;0.7123;1.5192;
1104.3000;0.7114;1.5218;
1104.6000;0.7123;1.5192;
1104.9000;0.7114;1.5269;
1105.2000;0.7114;1.5345;
1105.5000;0.7033;1.5091;
1105.8000;0.7114;1.5319;
1106.1000;0.7114;1.5370;
1106.4000;0.7131;1.5269;
1106.7000;0.7114;1.5218;
1107.0000;0.7106;1.5218;
1107.3000;0.7123;1.5370;
1107.6000;0.7114;1.5395;
1107.9000;0.7114;1.5446;
1108.2000;0.7123;1.5522;
1108.5000;0.7106;1.5446;
1108.8000;0.7098;1.5446;
1109.1000;0.7114;1.5497;
1109.4000;0.7106;1.5446;
1109.7000;0.7123;1.5446;
1110.0000;0.7131;1.5421;
1110.3000;0.7123;1.5319;
1110.6000;0.7066;1.5269;
1110.9000;0.7114;1.5421;
1111.2000;0.7139;1.5421;
1111.5000;0.7106;1.5370;
1111.8000;0.7106;1.5319;
1112.1000;0.7106;1.5345;
1112.4000;0.7106;1.5294;
1112.7000;0.7090;1.5167;
1113.0000;0.7098;1.5142;
1113.3000;0.7106;1.5116;
1113.6000;0.7098;1.5116;
1113.9000;0.7114;1.5167;
1114.2000;0.7090;1.5167;
1114.5000;0.7114;1.5269;
1114.8000;0.7163;1.5345;
1115.1000;0.7106;1.5192;
1115.4000;0.7114;1.5269;
1115.7000;0.7123;1.5218;
1116.0000;0.7123;1.5218;
1116.3000;0.7131;1.5218;
1116.6000;0.7017;1.4837;
1116.9000;0.7098;1.4990;
1117.2000;0.7123;1.5142;
1117.5000;0.7123;1.5167;
1117.8000;0.7082;1.5116;
1118.1000;0.7106;1.5192;
1118.4000;0.7106;1.5243;
1118.7000;0.7196;1.5471;
1119.0000;0.7098;1.5243;
1119.3000;0.7098;1.5345;
1119.6000;0.7098;1.5345;
1119.9000;0.7123;1.5395;
1120.2000;0.7090;1.5319;
1120.5000;0.7114;1.5370;
1120.8000;0.7090;1.5370;
1121.1000;0.7106;1.5370;
1121.4000;0.7131;1.5319;
1121.7000;0.7106;1.5319;
1122.0000;0.7098;1.5218;
1122.3000;0.7098;1.5142;
1122.6000;0.7114;1.5116;
1122.9000;0.7106;1.5040;
1123.2000;0.7114;1.5243;
1123.5000;0.7106;1.5243;
1123.8000;0.7041;1.5091;
1124.1000;0.7106;1.5319;
1124.4000;0.7098;1.5142;
1124.7000;0.7098;1.5142;
1125.0000;0.7114;1.5167;
1125.3000;0.7131;1.5269;
1125.6000;0.7106;1.5192;
1125.9000;0.7098;1.5319;
1126.2000;0.7106;1.5319;
1126.5000;0.7114;1.5319;
1126.8000;0.7220;1.5649;
1127.1000;0.7106;1.5319;
1127.4000;0.7123;1.5192;
1127.7000;0.7098;1.5167;
1128.0000;0.7114;1.5167;
1128.3000;0.7106;1.5192;
1128.6000;0.7106;1.5142;
1128.9000;0.7131;1.5066;
1129.2000;0.7196;1.5243;
1129.5000;0.7098;1.4990;
1129.8000;0.7196;1.5243;
1130.1000;0.7114;1.5066;
1130.4000;0.7098;1.5066;
1130.7000;0.7163;1.5218;
1131.0000;0.7106;1.5091;
1131.3000;0.7114;1.5167;
1131.6000;0.7131;1.5319;
1131.9000;0.7106;1.5218;
1132.2000;0.7098;1.5167;
1132.5000;0.7106;1.5218;
1132.8000;0.7131;1.5192;
1133.1000;0.7114;1.5116;
1133.4000;0.7082;1.5142;
1133.7000;0.7123;1.5192;
1134.0000;0.7106;1.5218;
1134.3000;0.7082;1.5167;
1134.6000;0.7106;1.5091;
1134.9000;0.7114;1.5192;
1135.2000;0.7131;1.5294;
1135.5000;0.7123;1.5294;
1135.8000;0.7090;1.5218;
1136.1000;0.7106;1.5142;
1136.4000;0.7123;1.5167;
1136.7000;0.7123;1.5218;
1137.0000;0.7106;1.5142;
1137.3000;0.7106;1.5066;
1137.6000;0.7114;1.5091;
1137.9000;0.7106;1.5066;
1138.2000;0.7131;1.5015;
1138.5000;0.7131;1.4888;
1138.8000;0.7171;1.4964;
1139.1000;0.7114;1.4863;
1139.4000;0.7106;1.4888;
1139.7000;0.7123;1.4863;
1140.0000;0.7131;1.5040;
1140.3000;0.7090;1.5066;
1140.6000;0.7098;1.5066;
1140.9000;0.7114;1.5243;
1141.2000;0.7066;1.5167;
1141.5000;0.7114;1.5345;
1141.8000;0.7131;1.5345;
1142.1000;0.7123;1.5395;
1142.4000;0.7114;1.5218;
1142.7000;0.7131;1.5142;
1143.0000;0.7123;1.5218;
1143.3000;0.7131;1.5294;
1143.6000;0.7106;1.5167;
1143.9000;0.7139;1.5319;
1144.2000;0.7090;1.5243;
1144.5000;0.7106;1.5319;
1144.8000;0.7106;1.5243;
1145.1000;0.7098;1.5218;
1145.4000;0.7123;1.5319;
1145.7000;0.7098;1.5345;
1146.0000;0.7106;1.5294;
1146.3000;0.7123;1.5269;
1146.6000;0.7163;1.5370;
1146.9000;0.7074;1.5091;
1147.2000;0.7114;1.5345;
1147.5000;0.7066;1.5269;
1147.8000;0.7139;1.5446;
1148.1000;0.7106;1.5370;
1148.4000;0.7074;1.5294;
1148.7000;0.7106;1.5345;
1149.0000;0.7106;1.5395;
1149.3000;0.7090;1.5370;
1149.6000;0.7123;1.5421;
1149.9000;0.7106;1.5395;
1150.2000;0.7114;1.5497;
1150.5000;0.7131;1.5497;
1150.8000;0.7131;1.5370;
1151.1000;0.7098;1.5319;
1151.4000;0.7139;1.5421;
1151.7000;0.7106;1.5370;
1152.0000;0.7131;1.5446;
1152.3000;0.7139;1.5446;
1152.6000;0.7131;1.5345;
1152.9000;0.7106;1.5243;
1153.2000;0.7171;1.5395;
1153.5000;0.7123;1.5269;
1153.8000;0.7147;1.5370;
1154.1000;0.7131;1.5319;
1154.4000;0.7123;1.5218;
1154.7000;0.7131;1.5243;
1155.0000;0.7098;1.5142;
1155.3000;0.7090;1.5142;
1155.6000;0.7025;1.4939;
1155.9000;0.7114;1.5192;
1156.2000;0.7114;1.5269;
1156.5000;0.7106;1.5269;
1156.8000;0.7114;1.5294;
1157.1000;0.7123;1.5370;
1157.4000;0.7106;1.5294;
1157.7000;0.7106;1.5345;
1158.0000;0.7074;1.5243;
1158.3000;0.7106;1.5370;
1158.6000;0.7114;1.5370;
1158.9000;0.7106;1.5269;
1159.2000;0.7098;1.5269;
1159.5000;0.7090;1.5269;
1159.8000;0.7106;1.5116;
1160.1000;0.7106;1.5091;
1160.4000;0.7123;1.5116;
1160.7000;0.7123;1.5066;
1161.0000;0.7123;1.5040;
1161.3000;0.7123;1.5091;
1161.6000;0.7106;1.5091;
1161.9000;0.7123;1.5142;
1162.2000;0.7114;1.5142;
1162.5000;0.7106;1.5116;
1162.8000;0.7114;1.5167;
1163.1000;0.7123;1.5218;
1163.4000;0.7139;1.5218;
1163.7000;0.7025;1.5091;
1164.0000;0.7106;1.5269;
1164.3000;0.7139;1.5395;
1164.6000;0.7123;1.5395;
1164.9000;0.7123;1.5294;
1165.2000;0.7114;1.5319;
1165.5000;0.7123;1.5294;
1165.8000;0.7123;1.5345;
1166.1000;0.7066;1.5167;
1166.4000;0.7082;1.5192;
1166.7000;0.7098;1.5269;
1167.0000;0.7114;1.5345;
1167.3000;0.7188;1.5471;
1167.6000;0.7090;1.5218;
1167.9000;0.7106;1.5269;
1168.2000;0.7155;1.5370;
1168.5000;0.7139;1.5319;
1168.8000;0.7114;1.5218;
1169.1000;0.7114;1.5243;
1169.4000;0.7123;1.5142;
1169.7000;0.7188;1.5370;
1170.0000;0.7114;1.5319;
1170.3000;0.7082;1.5243;
1170.6000;0.7106;1.5345;
1170.9000;0.7114;1.5370;
1171.2000;0.7057;1.5116;
1171.5000;0.7082;1.5091;
1171.8000;0.7025;1.4888;
1172.1000;0.7123;1.5167;
1172.4000;0.7114;1.5167;
1172.7000;0.7057;1.5015;
1173.0000;0.7114;1.5243;
1173.3000;0.7123;1.5218;
1173.6000;0.7114;1.5192;
1173.9000;0.7114;1.5192;
1174.2000;0.7114;1.5294;
1174.5000;0.7123;1.5243;
1174.8000;0.7098;1.5192;
1175.1000;0.7106;1.5294;
1175.4000;0.7098;1.5269;
1175.7000;0.7106;1.5294;
1176.0000;0.7098;1.5243;
1176.3000;0.7106;1.5218;
1176.6000;0.7106;1.5218;
1176.9000;0.7090;1.5192;
1177.2000;0.7114;1.5269;
1177.5000;0.7106;1.5370;
1177.8000;0.7090;1.5345;
1178.1000;0.7098;1.5319;
1178.4000;0.7106;1.5345;
1178.7000;0.7106;1.5471;
1179.0000;0.7090;1.5370;
1179.3000;0.7131;1.5370;
1179.6000;0.7066;1.5294;
1179.9000;0.7131;1.5345;
1180.2000;0.7114;1.5446;
1180.5000;0.7106;1.5395;
1180.8000;0.7114;1.5345;
1181.1000;0.7098;1.5319;
1181.4000;0.7131;1.5446;
1181.7000;0.7114;1.5370;
1182.0000;0.7114;1.5294;
1182.3000;0.7098;1.5218;
1182.6000;0.7106;1.5192;
1182.9000;0.7106;1.5192;
1183.2000;0.7106;1.5269;
1183.5000;0.7114;1.5192;
1183.8000;0.7106;1.5167;
1184.1000;0.7114;1.5294;
1184.4000;0.7155;1.5345;
1184.7000;0.7106;1.5294;
1185.0000;0.7131;1.5243;
1185.3000;0.7123;1.5319;
1185.6000;0.7098;1.5243;
1185.9000;0.7123;1.5395;
1186.2000;0.7098;1.5345;
1186.5000;0.7074;1.5269;
1186.8000;0.7074;1.5218;
1187.1000;0.7114;1.5243;
1187.4000;0.7098;1.5243;
1187.7000;0.7123;1.5370;
1188.0000;0.7114;1.5243;
1188.3000;0.7196;1.5548;
1188.6000;0.7098;1.5319;
1188.9000;0.7123;1.5370;
1189.2000;0.7106;1.5319;
1189.5000;0.7147;1.5395;
1189.8000;0.7123;1.5319;
1190.1000;0.7114;1.5319;
1190.4000;0.7098;1.5421;
1190.7000;0.7098;1.5446;
1191.0000;0.7098;1.5522;
1191.3000;0.7082;1.5446;
1191.6000;0.7123;1.5497;
1191.9000;0.7098;1.5395;
1192.2000;0.7074;1.5345;
1192.5000;0.7139;1.5319;
1192.8000;0.7098;1.5218;
1193.1000;0.7123;1.5243;
1193.4000;0.7123;1.5269;
1193.7000;0.7123;1.5294;
1194.0000;0.7131;1.5294;
1194.3000;0.7114;1.5269;
1194.6000;0.7123;1.5269;
1194.9000;0.7098;1.5269;
1195.2000;0.7114;1.5319;
1195.5000;0.7139;1.5345;
1195.8000;0.7114;1.5218;
1196.1000;0.7131;1.5345;
1196.4000;0.7123;1.5395;
1196.7000;0.7131;1.5522;
1197.0000;0.7114;1.5471;
1197.3000;0.7171;1.5649;
1197.6000;0.7131;1.5497;
1197.9000;0.7123;1.5319;
1198.2000;0.7139;1.5446;
1198.5000;0.7114;1.5471;
1198.8000;0.7123;1.5471;
1199.1000;0.7131;1.5471;
1199.4000;0.7114;1.5395;
1199.7000;0.7123;1.5446;
1200.0000;0.7131;1.5446;
1200.3000;0.7131;1.5446;
1200.6000;0.7098;1.5395;
1200.9000;0.7114;1.5345;
1201.2000;0.7114;1.5471;
1201.5000;0.7123;1.5395;
1201.8000;0.7098;1.5345;
1202.1000;0.7098;1.5294;
1202.4000;0.7123;1.5421;
1202.7000;0.7098;1.5370;
1203.0000;0.7139;1.5446;
1203.3000;0.7114;1.5370;
1203.6000;0.7114;1.5269;
1203.9000;0.7131;1.5345;
1204.2000;0.7123;1.5395;
1204.5000;0.7114;1.5319;
1204.8000;0.7147;1.5421;
1205.1000;0.7123;1.5421;
1205.4000;0.7139;1.5446;
1205.7000;0.7049;1.5167;
1206.0000;0.7106;1.5370;
1206.3000;0.7098;1.5345;
1206.6000;0.7098;1.5471;
1206.9000;0.7114;1.5421;
1207.2000;0.7017;1.5243;
1207.5000;0.7114;1.5471;
1207.8000;0.7131;1.5573;
1208.1000;0.7123;1.5573;
1208.4000;0.7123;1.5598;
1208.7000;0.7106;1.5548;
1209.0000;0.7139;1.5598;
1209.3000;0.7114;1.5497;
1209.6000;0.7098;1.5471;
1209.9000;0.7123;1.5548;
1210.2000;0.7123;1.5522;
1210.5000;0.7114;1.5598;
1210.8000;0.7114;1.5548;
1211.1000;0.7098;1.5548;
1211.4000;0.7106;1.5522;
1211.7000;0.7220;1.5852;
1212.0000;0.7123;1.5548;
1212.3000;0.7114;1.5471;
1212.6000;0.7131;1.5624;
1212.9000;0.7114;1.5573;
1213.2000;0.7106;1.5598;
1213.5000;0.7123;1.5624;
1213.8000;0.7139;1.5674;
1214.1000;0.7139;1.5649;
1214.4000;0.7090;1.5573;
1214.7000;0.7123;1.5674;
1215.0000;0.7106;1.5573;
1215.3000;0.7114;1.5624;
1215.6000;0.7131;1.5573;
1215.9000;0.7098;1.5446;
1216.2000;0.7041;1.5319;
1216.5000;0.7123;1.5497;
1216.8000;0.7106;1.5395;
1217.1000;0.7098;1.5370;
1217.4000;0.7114;1.5395;
1217.7000;0.7114;1.5421;
1218.0000;0.7131;1.5497;
1218.3000;0.7114;1.5573;
1218.6000;0.7114;1.5624;
1218.9000;0.7131;1.5624;
1219.2000;0.7139;1.5548;
1219.5000;0.7049;1.5395;
1219.8000;0.7131;1.5421;
1220.1000;0.7114;1.5446;
1220.4000;0.7139;1.5395;
1220.7000;0.7131;1.5421;
1221.0000;0.7114;1.5421;
1221.3000;0.7066;1.5370;
1221.6000;0.7171;1.5674;
1221.9000;0.7123;1.5471;
1222.2000;0.7114;1.5370;
1222.5000;0.7123;1.5370;
1222.8000;0.7114;1.5421;
1223.1000;0.7114;1.5395;
1223.4000;0.7114;1.5421;
1223.7000;0.7098;1.5370;
1224.0000;0.7090;1.5269;
1224.3000;0.7106;1.5370;
1224.6000;0.7123;1.5446;
1224.9000;0.7114;1.5522;
1225.2000;0.7114;1.5548;
1225.5000;0.7114;1.5598;
1225.8000;0.7114;1.5548;
1226.1000;0.7106;1.5471;
1226.4000;0.7106;1.5294;
1226.7000;0.7123;1.5269;
1227.0000;0.7123;1.5421;
1227.3000;0.7123;1.5446;
1227.6000;0.7188;1.5674;
1227.9000;0.7114;1.5497;
1228.2000;0.7106;1.5421;
1228.5000;0.7098;1.5370;
1228.8000;0.7123;1.5370;
1229.1000;0.7114;1.5345;
1229.4000;0.7114;1.5319;
1229.7000;0.7131;1.5345;
1230.0000;0.7114;1.5370;
1230.3000;0.7139;1.5421;
1230.6000;0.7123;1.5471;
1230.9000;0.7123;1.5573;
1231.2000;0.7106;1.5471;
1231.5000;0.7114;1.5446;
1231.8000;0.7123;1.5497;
1232.1000;0.7106;1.5421;
1232.4000;0.7098;1.5421;
1232.7000;0.7123;1.5421;
1233.0000;0.7123;1.5471;
1233.3000;0.7123;1.5471;
1233.6000;0.7131;1.5471;
1233.9000;0.7163;1.5548;
1234.2000;0.7098;1.5294;
1234.5000;0.7163;1.5319;
1234.8000;0.7131;1.5269;
1235.1000;0.7123;1.5319;
1235.4000;0.7139;1.5522;
1235.7000;0.7098;1.5471;
1236.0000;0.7098;1.5497;
1236.3000;0.7106;1.5446;
1236.6000;0.7106;1.5624;
1236.9000;0.7123;1.5598;
1237.2000;0.7106;1.5624;
1237.5000;0.7106;1.5548;
1237.8000;0.7098;1.5421;
1238.1000;0.7114;1.5497;
1238.4000;0.7123;1.5446;
1238.7000;0.7114;1.5294;
1239.0000;0.7106;1.5192;
1239.3000;0.7139;1.5218;
1239.6000;0.7123;1.5218;
1239.9000;0.7139;1.5243;
1240.2000;0.7123;1.5269;
1240.5000;0.7123;1.5395;
1240.8000;0.7131;1.5471;
1241.1000;0.7123;1.5421;
1241.4000;0.7106;1.5395;
1241.7000;0.7114;1.5421;
1242.0000;0.7123;1.5471;
1242.3000;0.7196;1.5649;
1242.6000;0.7114;1.5497;
1242.9000;0.7147;1.5548;
1243.2000;0.7131;1.5471;
1243.5000;0.7123;1.5421;
1243.8000;0.7123;1.5395;
1244.1000;0.7114;1.5471;
1244.4000;0.7171;1.5674;
1244.7000;0.7131;1.5497;
1245.0000;0.7147;1.5497;
1245.3000;0.6984;1.4964;
1245.6000;0.7123;1.5345;
1245.9000;0.7139;1.5446;
1246.2000;0.7106;1.5319;
1246.5000;0.7074;1.5218;
1246.8000;0.7114;1.5395;
1247.1000;0.7090;1.5370;
1247.4000;0.7098;1.5319;
1247.7000;0.7106;1.5294;
1248.0000;0.7114;1.5370;
1248.3000;0.7090;1.5421;
1248.6000;0.7123;1.5446;
1248.9000;0.7082;1.5294;
1249.2000;0.7123;1.5370;
1249.5000;0.7139;1.5446;
1249.8000;0.7114;1.5370;
1250.1000;0.7090;1.5345;
1250.4000;0.7106;1.5421;
1250.7000;0.7131;1.5345;
1251.0000;0.7098;1.5243;
1251.3000;0.7114;1.5243;
1251.6000;0.7114;1.5319;
1251.9000;0.7114;1.5294;
1252.2000;0.7066;1.5218;
1252.5000;0.7114;1.5345;
1252.8000;0.7114;1.5269;
1253.1000;0.7131;1.5319;
1253.4000;0.7123;1.5471;
1253.7000;0.7123;1.5497;
1254.0000;0.7106;1.5319;
1254.3000;0.7131;1.5370;
1254.6000;0.7147;1.5497;
1254.9000;0.7131;1.5471;
1255.2000;0.7114;1.5395;
1255.5000;0.7098;1.5395;
1255.8000;0.7179;1.5573;
1256.1000;0.7123;1.5446;
1256.4000;0.7123;1.5446;
1256.7000;0.7123;1.5446;
1257.0000;0.7123;1.5471;
1257.3000;0.7147;1.5522;
1257.6000;0.7114;1.5446;
1257.9000;0.7123;1.5497;
1258.2000;0.7106;1.5471;
1258.5000;0.7139;1.5598;
1258.8000;0.7139;1.5598;
1259.1000;0.7090;1.5497;
1259.4000;0.7098;1.5497;
1259.7000;0.7131;1.5598;
1260.0000;0.7114;1.5624;
1260.3000;0.7041;1.5370;
1260.6000;0.7139;1.5548;
1260.9000;0.7123;1.5548;
1261.2000;0.7131;1.5573;
1261.5000;0.7114;1.5548;
1261.8000;0.7131;1.5497;
1262.1000;0.7147;1.5497;
1262.4000;0.7131;1.5497;
1262.7000;0.7082;1.5294;
1263.0000;0.7139;1.5522;
1263.3000;0.6927;1.4990;
1263.6000;0.7188;1.5776;
1263.9000;0.7131;1.5598;
1264.2000;0.7114;1.5573;
1264.5000;0.7179;1.5725;
1264.8000;0.7123;1.5624;
1265.1000;0.7131;1.5674;
1265.4000;0.7131;1.5674;
1265.7000;0.7106;1.5471;
1266.0000;0.7114;1.5497;
1266.3000;0.7123;1.5522;
1266.6000;0.7106;1.5548;
1266.9000;0.7106;1.5548;
1267.2000;0.7179;1.5725;
1267.5000;0.7106;1.5573;
1267.8000;0.7033;1.5345;
1268.1000;0.7106;1.5573;
1268.4000;0.7098;1.5522;
1268.7000;0.7139;1.5522;
1269.0000;0.7114;1.5471;
1269.3000;0.7114;1.5370;
1269.6000;0.7123;1.5446;
1269.9000;0.7123;1.5471;
1270.2000;0.7123;1.5446;
1270.5000;0.7098;1.5421;
1270.8000;0.7114;1.5573;
1271.1000;0.7131;1.5471;
1271.4000;0.7123;1.5497;
1271.7000;0.7106;1.5573;
1272.0000;0.7106;1.5649;
1272.3000;0.7106;1.5750;
1272.6000;0.7123;1.5700;
1272.9000;0.7106;1.5598;
1273.2000;0.7123;1.5548;
1273.5000;0.7123;1.5624;
1273.8000;0.7123;1.5649;
1274.1000;0.7123;1.5674;
1274.4000;0.7131;1.5674;
1274.7000;0.7123;1.5649;
1275.0000;0.7123;1.5649;
1275.3000;0.7131;1.5573;
1275.6000;0.7106;1.5548;
1275.9000;0.7090;1.5649;
1276.2000;0.7098;1.5624;
1276.5000;0.7123;1.5548;
1276.8000;0.7123;1.5548;
1277.1000;0.7106;1.5446;
1277.4000;0.7106;1.5471;
1277.7000;0.7131;1.5471;
1278.0000;0.7114;1.5471;
1278.3000;0.7082;1.5421;
1278.6000;0.7163;1.5548;
1278.9000;0.7123;1.5471;
1279.2000;0.7139;1.5446;
1279.5000;0.7147;1.5446;
1279.8000;0.7212;1.5674;
1280.1000;0.7098;1.5370;
1280.4000;0.7131;1.5471;
1280.7000;0.7131;1.5446;
1281.0000;0.7098;1.5471;
1281.3000;0.7106;1.5471;
1281.6000;0.7082;1.5497;
1281.9000;0.7114;1.5700;
1282.2000;0.7147;1.5750;
1282.5000;0.7131;1.5674;
1282.8000;0.7090;1.5497;
1283.1000;0.7147;1.5522;
1283.4000;0.7139;1.5548;
1283.7000;0.7131;1.5497;
1284.0000;0.7123;1.5598;
1284.3000;0.7245;1.5928;
1284.6000;0.7123;1.5598;
1284.9000;0.7131;1.5674;
1285.2000;0.7131;1.5649;
1285.5000;0.7123;1.5598;
1285.8000;0.7033;1.5345;
1286.1000;0.7025;1.5294;
1286.4000;0.7106;1.5421;
1286.7000;0.7114;1.5497;
1287.0000;0.7114;1.5573;
1287.3000;0.7114;1.5548;
1287.6000;0.7114;1.5624;
1287.9000;0.7114;1.5624;
1288.2000;0.7131;1.5548;
1288.5000;0.7114;1.5548;
1288.8000;0.7171;1.5674;
1289.1000;0.7123;1.5548;
1289.4000;0.7171;1.5725;
1289.7000;0.7090;1.5573;
1290.0000;0.7123;1.5750;
1290.3000;0.7179;1.5928;
1290.6000;0.7131;1.5700;
1290.9000;0.7139;1.5674;
1291.2000;0.7082;1.5598;
1291.5000;0.7106;1.5649;
1291.8000;0.7106;1.5598;
1292.1000;0.7114;1.5598;
1292.4000;0.7114;1.5573;
1292.7000;0.7123;1.5573;
1293.0000;0.7114;1.5573;
1293.3000;0.7131;1.5649;
1293.6000;0.7114;1.5624;
1293.9000;0.7114;1.5598;
1294.2000;0.7090;1.5649;
1294.5000;0.7179;1.5827;
1294.8000;0.7098;1.5674;
1295.1000;0.7114;1.5725;
1295.4000;0.7123;1.5700;
1295.7000;0.7114;1.5725;
1296.0000;0.7106;1.5649;
1296.3000;0.7090;1.5548;
1296.6000;0.7131;1.5598;
1296.9000;0.7123;1.5522;
1297.2000;0.7090;1.5395;
1297.5000;0.7131;1.5522;
1297.8000;0.7155;1.5598;
1298.1000;0.7131;1.5573;
1298.4000;0.7123;1.5598;
1298.7000;0.7123;1.5725;
1299.0000;0.7131;1.5750;
1299.3000;0.7139;1.5649;
1299.6000;0.7147;1.5700;
1299.9000;0.7131;1.5649;
1300.2000;0.7204;1.5877;
1300.5000;0.7131;1.5598;
1300.8000;0.7155;1.5649;
1301.1000;0.7163;1.5674;
1301.4000;0.7131;1.5624;
1301.7000;0.7131;1.5700;
1302.0000;0.7131;1.5624;
1302.3000;0.7114;1.5522;
1302.6000;0.7098;1.5548;
1302.9000;0.7131;1.5649;
1303.2000;0.7098;1.5548;
1303.5000;0.7131;1.5573;
1303.8000;0.7131;1.5598;
1304.1000;0.7131;1.5598;
1304.4000;0.7106;1.5573;
1304.7000;0.7123;1.5598;
1305.0000;0.7114;1.5598;
1305.3000;0.7261;1.5979;
1305.6000;0.7131;1.5548;
1305.9000;0.7131;1.5471;
1306.2000;0.7139;1.5573;
1306.5000;0.7114;1.5598;
1306.8000;0.7171;1.5877;
1307.1000;0.7106;1.5776;
1307.4000;0.7139;1.5776;
1307.7000;0.7131;1.5548;
1308.0000;0.7106;1.5370;
1308.3000;0.7131;1.5421;
1308.6000;0.7123;1.5345;
1308.9000;0.7098;1.5243;
1309.2000;0.7131;1.5497;
1309.5000;0.7123;1.5548;
1309.8000;0.7106;1.5497;
1310.1000;0.7106;1.5522;
1310.4000;0.7131;1.5548;
1310.7000;0.7114;1.5548;
1311.0000;0.7114;1.5497;
1311.3000;0.7131;1.5624;
1311.6000;0.7114;1.5649;
1311.9000;0.7106;1.5598;
1312.2000;0.7123;1.5522;
1312.5000;0.7106;1.5548;
1312.8000;0.7033;1.5370;
1313.1000;0.7123;1.5598;
1313.4000;0.7123;1.5548;
1313.7000;0.7123;1.5598;
1314.0000;0.7123;1.5573;
1314.3000;0.7098;1.5395;
1314.6000;0.7106;1.5395;
1314.9000;0.7139;1.5421;
1315.2000;0.7131;1.5345;
1315.5000;0.7131;1.5497;
1315.8000;0.7131;1.5624;
1316.1000;0.7131;1.5674;
1316.4000;0.7098;1.5598;
1316.7000;0.7131;1.5700;
1317.0000;0.7131;1.5649;
1317.3000;0.7114;1.5649;
1317.6000;0.7114;1.5674;
1317.9000;0.7106;1.5700;
1318.2000;0.7114;1.5573;
1318.5000;0.7131;1.5598;
1318.8000;0.7114;1.5598;
1319.1000;0.7123;1.5598;
1319.4000;0.7114;1.5598;
1319.7000;0.7098;1.5522;
1320.0000;0.7139;1.5395;
1320.3000;0.7106;1.5370;
1320.6000;0.7066;1.5192;
1320.9000;0.7114;1.5345;
1321.2000;0.7114;1.5370;
1321.5000;0.7106;1.5345;
1321.8000;0.7123;1.5370;
1322.1000;0.7171;1.5471;
1322.4000;0.7123;1.5421;
1322.7000;0.7106;1.5370;
1323.0000;0.7106;1.5471;
1323.3000;0.7131;1.5548;
1323.6000;0.7106;1.5497;
1323.9000;0.7098;1.5471;
1324.2000;0.7106;1.5421;
1324.5000;0.7090;1.5345;
1324.8000;0.7123;1.5446;
1325.1000;0.7114;1.5395;
1325.4000;0.7106;1.5497;
1325.7000;0.7131;1.5598;
1326.0000;0.7123;1.5573;
1326.3000;0.7131;1.5573;
1326.6000;0.7114;1.5598;
1326.9000;0.7131;1.5700;
1327.2000;0.7131;1.5649;
1327.5000;0.7114;1.5522;
1327.8000;0.7106;1.5548;
1328.1000;0.7114;1.5548;
1328.4000;0.7131;1.5598;
1328.7000;0.7123;1.5573;
1329.0000;0.7123;1.5548;
1329.3000;0.7131;1.5548;
1329.6000;0.7131;1.5471;
1329.9000;0.7131;1.5446;
1330.2000;0.7106;1.5497;
1330.5000;0.7114;1.5497;
1330.8000;0.7131;1.5624;
1331.1000;0.7090;1.5446;
1331.4000;0.7082;1.5395;
1331.7000;0.7106;1.5395;
1332.0000;0.7114;1.5446;
1332.3000;0.7131;1.5522;
1332.6000;0.7090;1.5421;
1332.9000;0.7131;1.5471;
1333.2000;0.7131;1.5497;
1333.5000;0.7131;1.5497;
1333.8000;0.7114;1.5319;
1334.1000;0.7155;1.5345;
1334.4000;0.7123;1.5319;
1334.7000;0.7147;1.5370;
1335.0000;0.7114;1.5395;
1335.3000;0.7131;1.5446;
1335.6000;0.7123;1.5446;
1335.9000;0.7131;1.5421;
1336.2000;0.7106;1.5319;
1336.5000;0.7131;1.5395;
1336.8000;0.7131;1.5395;
1337.1000;0.7123;1.5421;
1337.4000;0.7114;1.5446;
1337.7000;0.7114;1.5471;
1338.0000;0.7098;1.5497;
1338.3000;0.7139;1.5598;
1338.6000;0.7147;1.5548;
1338.9000;0.7163;1.5446;
1339.2000;0.7147;1.5497;
1339.5000;0.7123;1.5471;
1339.8000;0.7139;1.5573;
1340.1000;0.7131;1.5471;
1340.4000;0.7123;1.5446;
1340.7000;0.7090;1.5446;
1341.0000;0.7123;1.5497;
1341.3000;0.7123;1.5471;
1341.6000;0.7131;1.5522;
1341.9000;0.7114;1.5497;
1342.2000;0.7131;1.5598;
1342.5000;0.7139;1.5649;
1342.8000;0.7139;1.5522;
1343.1000;0.7114;1.5446;
1343.4000;0.7131;1.5522;
1343.7000;0.7057;1.5370;
1344.0000;0.7131;1.5421;
1344.3000;0.7123;1.5345;
1344.6000;0.7114;1.5294;
1344.9000;0.7123;1.5421;
1345.2000;0.7131;1.5446;
1345.5000;0.7114;1.5471;
1345.8000;0.7106;1.5446;
1346.1000;0.7106;1.5471;
1346.4000;0.7098;1.5497;
1346.7000;0.7106;1.5522;
1347.0000;0.7106;1.5497;
1347.3000;0.7139;1.5471;
1347.6000;0.7123;1.5395;
1347.9000;0.7106;1.5370;
1348.2000;0.7082;1.5294;
1348.5000;0.7114;1.5421;
1348.8000;0.7123;1.5370;
1349.1000;0.7114;1.5421;
1349.4000;0.7090;1.5319;
1349.7000;0.7114;1.5471;
1350.0000;0.7123;1.5497;
1350.3000;0.7131;1.5471;
1350.6000;0.7123;1.5421;
1350.9000;0.7114;1.5370;
1351.2000;0.7131;1.5471;
1351.5000;0.7082;1.5345;
1351.8000;0.7114;1.5395;
1352.1000;0.7106;1.5421;
1352.4000;0.7114;1.5522;
1352.7000;0.7123;1.5548;
1353.0000;0.7123;1.5446;
1353.3000;0.7114;1.5294;
1353.6000;0.7139;1.5294;
1353.9000;0.7123;1.5218;
1354.2000;0.7204;1.5471;
1354.5000;0.7123;1.5269;
1354.8000;0.7131;1.5370;
1355.1000;0.7131;1.5345;
1355.4000;0.7123;1.5269;
1355.7000;0.7131;1.5243;
1356.0000;0.7139;1.5116;
1356.3000;0.7098;1.5015;
1356.6000;0.7049;1.4863;
1356.9000;0.7131;1.5192;
1357.2000;0.7147;1.5167;
1357.5000;0.7114;1.5167;
1357.8000;0.7090;1.5116;
1358.1000;0.7114;1.5269;
1358.4000;0.7000;1.4964;
1358.7000;0.7098;1.5218;
1359.0000;0.7139;1.5370;
1359.3000;0.7204;1.5598;
1359.6000;0.7131;1.5497;
1359.9000;0.7131;1.5522;
1360.2000;0.7114;1.5522;
1360.5000;0.7131;1.5497;
1360.8000;0.7123;1.5446;
1361.1000;0.7131;1.5471;
1361.4000;0.7074;1.5294;
1361.7000;0.7123;1.5446;
1362.0000;0.7131;1.5548;
1362.3000;0.7114;1.5345;
1362.6000;0.7090;1.5218;
1362.9000;0.7123;1.5294;
1363.2000;0.7123;1.5294;
1363.5000;0.7123;1.5243;
1363.8000;0.7114;1.5243;
1364.1000;0.7147;1.5218;
1364.4000;0.7106;1.5218;
1364.7000;0.7163;1.5370;
1365.0000;0.7131;1.5294;
1365.3000;0.7123;1.5345;
1365.6000;0.7139;1.5395;
1365.9000;0.7139;1.5446;
1366.2000;0.7123;1.5395;
1366.5000;0.7098;1.5345;
1366.8000;0.7131;1.5446;
1367.1000;0.7131;1.5446;
1367.4000;0.7139;1.5522;
1367.7000;0.7139;1.5522;
1368.0000;0.7123;1.5471;
1368.3000;0.7114;1.5497;
1368.6000;0.7131;1.5522;
1368.9000;0.7123;1.5522;
1369.2000;0.7131;1.5522;
1369.5000;0.7106;1.5573;
1369.8000;0.7114;1.5548;
1370.1000;0.7131;1.5497;
1370.4000;0.7147;1.5548;
1370.7000;0.7123;1.5598;
1371.0000;0.7114;1.5598;
1371.3000;0.7147;1.5674;
1371.6000;0.7123;1.5573;
1371.9000;0.7131;1.5421;
1372.2000;0.7131;1.5421;
1372.5000;0.7123;1.5370;
1372.8000;0.7188;1.5548;
1373.1000;0.7123;1.5345;
1373.4000;0.7123;1.5269;
1373.7000;0.7131;1.5319;
1374.0000;0.7123;1.5395;
1374.3000;0.7114;1.5319;
1374.6000;0.7131;1.5395;
1374.9000;0.7139;1.5395;
1375.2000;0.7131;1.5421;
1375.5000;0.7131;1.5395;
1375.8000;0.7179;1.5573;
1376.1000;0.7139;1.5370;
1376.4000;0.7147;1.5471;
1376.7000;0.7131;1.5471;
1377.0000;0.7131;1.5471;
1377.3000;0.7049;1.5395;
1377.6000;0.7131;1.5548;
1377.9000;0.7155;1.5573;
1378.2000;0.7147;1.5522;
1378.5000;0.7131;1.5446;
1378.8000;0.7123;1.5497;
1379.1000;0.7131;1.5548;
1379.4000;0.7098;1.5522;
1379.7000;0.7123;1.5573;
1380.0000;0.7131;1.5446;
1380.3000;0.7179;1.5624;
1380.6000;0.7139;1.5522;
1380.9000;0.7123;1.5522;
1381.2000;0.7114;1.5497;
1381.5000;0.7139;1.5522;
1381.8000;0.7114;1.5471;
1382.1000;0.7139;1.5522;
1382.4000;0.7082;1.5395;
1382.7000;0.7131;1.5446;
1383.0000;0.7123;1.5421;
1383.3000;0.7220;1.5598;
1383.6000;0.7114;1.5370;
1383.9000;0.7123;1.5395;
1384.2000;0.7147;1.5446;
1384.5000;0.7131;1.5471;
1384.8000;0.7131;1.5446;
1385.1000;0.7139;1.5395;
1385.4000;0.7155;1.5345;
1385.7000;0.7131;1.5218;
1386.0000;0.7131;1.5218;
1386.3000;0.7147;1.5345;
1386.6000;0.7139;1.5395;
1386.9000;0.7131;1.5395;
1387.2000;0.7123;1.5370;
1387.5000;0.7163;1.5548;
1387.8000;0.7131;1.5573;
1388.1000;0.7139;1.5497;
1388.4000;0.7123;1.5370;
1388.7000;0.7139;1.5294;
1389.0000;0.7123;1.5370;
1389.3000;0.7139;1.5446;
1389.6000;0.7147;1.5370;
1389.9000;0.7123;1.5294;
1390.2000;0.7131;1.5319;
1390.5000;0.7131;1.5269;
1390.8000;0.7155;1.5370;
1391.1000;0.7131;1.5243;
1391.4000;0.7139;1.5218;
1391.7000;0.7155;1.5269;
1392.0000;0.7139;1.5269;
1392.3000;0.7106;1.5345;
1392.6000;0.7114;1.5395;
1392.9000;0.7131;1.5345;
1393.2000;0.7139;1.5421;
1393.5000;0.7139;1.5471;
1393.8000;0.7123;1.5421;
1394.1000;0.7131;1.5446;
1394.4000;0.7131;1.5395;
1394.7000;0.7114;1.5319;
1395.0000;0.7123;1.5319;
1395.3000;0.7123;1.5319;
1395.6000;0.7139;1.5345;
1395.9000;0.7139;1.5370;
1396.2000;0.7114;1.5446;
1396.5000;0.7114;1.5421;
1396.8000;0.7131;1.5446;
1397.1000;0.7106;1.5294;
1397.4000;0.7123;1.5370;
1397.7000;0.7114;1.5269;
1398.0000;0.7106;1.5319;
1398.3000;0.7131;1.5471;
1398.6000;0.7123;1.5471;
1398.9000;0.7131;1.5446;
1399.2000;0.7131;1.5421;
1399.5000;0.7131;1.5446;
1399.8000;0.7131;1.5471;
