time/ms;Fluo/V;P700 deltaI/I x10³;
-199.8000;0.9206;1.5192;
-199.5000;0.9174;1.5040;
-199.2000;0.9182;1.5116;
-198.9000;0.9182;1.5015;
-198.6000;0.9182;1.4990;
-198.3000;0.9198;1.5040;
-198.0000;0.9174;1.5091;
-197.7000;0.9190;1.5091;
-197.4000;0.9133;1.4939;
-197.1000;0.9198;1.5218;
-196.8000;0.9190;1.5192;
-196.5000;0.9174;1.5091;
-196.2000;0.9206;1.5091;
-195.9000;0.9206;1.5142;
-195.6000;0.9182;1.5116;
-195.3000;0.9166;1.5091;
-195.0000;0.9190;1.5142;
-194.7000;0.9198;1.5116;
-194.4000;0.9198;1.5066;
-194.1000;0.9223;1.5142;
-193.8000;0.9158;1.5040;
-193.5000;0.9198;1.5091;
-193.2000;0.9174;1.5040;
-192.9000;0.9182;1.5142;
-192.6000;0.9182;1.5091;
-192.3000;0.9174;1.5142;
-192.0000;0.9190;1.5192;
-191.7000;0.9182;1.5192;
-191.4000;0.9190;1.5192;
-191.1000;0.9190;1.5167;
-190.8000;0.9214;1.5192;
-190.5000;0.9182;1.5040;
-190.2000;0.9141;1.4990;
-189.9000;0.9174;1.5116;
-189.6000;0.9206;1.5091;
-189.3000;0.9133;1.4863;
-189.0000;0.9190;1.4939;
-188.7000;0.9198;1.4888;
-188.4000;0.9198;1.4812;
-188.1000;0.9182;1.4863;
-187.8000;0.9174;1.4913;
-187.5000;0.9190;1.4990;
-187.2000;0.9198;1.5091;
-186.9000;0.9198;1.5040;
-186.6000;0.9190;1.4964;
-186.3000;0.9190;1.4964;
-186.0000;0.9182;1.4964;
-185.7000;0.9190;1.5015;
-185.4000;0.9182;1.5040;
-185.1000;0.9182;1.5116;
-184.8000;0.9182;1.5116;
-184.5000;0.9182;1.5142;
-184.2000;0.9182;1.5142;
-183.9000;0.9174;1.5116;
-183.6000;0.9198;1.5116;
-183.3000;0.9198;1.5218;
-183.0000;0.9198;1.5243;
-182.7000;0.9206;1.5192;
-182.4000;0.9206;1.5218;
-182.1000;0.9198;1.5192;
-181.8000;0.9198;1.5040;
-181.5000;0.9190;1.5040;
-181.2000;0.9174;1.5015;
-180.9000;0.9206;1.5040;
-180.6000;0.9223;1.5192;
-180.3000;0.9247;1.5269;
-180.0000;0.9190;1.5091;
-179.7000;0.9182;1.5066;
-179.4000;0.9174;1.5066;
-179.1000;0.9174;1.5091;
-178.8000;0.9174;1.5015;
-178.5000;0.9198;1.5142;
-178.2000;0.9280;1.5319;
-177.9000;0.9190;1.5091;
-177.6000;0.9141;1.5015;
-177.3000;0.9190;1.5091;
-177.0000;0.9206;1.5040;
-176.7000;0.9190;1.4990;
-176.4000;0.9182;1.5015;
-176.1000;0.9182;1.4990;
-175.8000;0.9198;1.4990;
-175.5000;0.9198;1.4939;
-175.2000;0.9182;1.4990;
-174.9000;0.9182;1.5040;
-174.6000;0.9182;1.5040;
-174.3000;0.9223;1.5269;
-174.0000;0.9174;1.5218;
-173.7000;0.9190;1.5243;
-173.4000;0.9190;1.5192;
-173.1000;0.9190;1.5269;
-172.8000;0.9190;1.5345;
-172.5000;0.9190;1.5370;
-172.2000;0.9190;1.5395;
-171.9000;0.9190;1.5345;
-171.6000;0.9182;1.5294;
-171.3000;0.9182;1.5294;
-171.0000;0.9174;1.5243;
-170.7000;0.9182;1.5218;
-170.4000;0.9117;1.5066;
-170.1000;0.9158;1.5142;
-169.8000;0.9174;1.5142;
-169.5000;0.9174;1.5192;
-169.2000;0.9182;1.5142;
-168.9000;0.9174;1.5116;
-168.6000;0.9190;1.5091;
-168.3000;0.9206;1.5116;
-168.0000;0.9182;1.5116;
-167.7000;0.9198;1.5015;
-167.4000;0.9190;1.5040;
-167.1000;0.9198;1.5066;
-166.8000;0.9198;1.5192;
-166.5000;0.9239;1.5243;
-166.2000;0.9182;1.5091;
-165.9000;0.9190;1.4990;
-165.6000;0.9182;1.4939;
-165.3000;0.9174;1.4939;
-165.0000;0.9166;1.4990;
-164.7000;0.9158;1.5066;
-164.4000;0.9174;1.5091;
-164.1000;0.9182;1.5142;
-163.8000;0.9158;1.5066;
-163.5000;0.9190;1.5091;
-163.2000;0.9182;1.5091;
-162.9000;0.9182;1.5192;
-162.6000;0.9190;1.5243;
-162.3000;0.9174;1.5192;
-162.0000;0.9182;1.5091;
-161.7000;0.9198;1.5142;
-161.4000;0.9190;1.5116;
-161.1000;0.9182;1.5167;
-160.8000;0.9174;1.5142;
-160.5000;0.9198;1.5167;
-160.2000;0.9190;1.5192;
-159.9000;0.9182;1.5269;
-159.6000;0.9198;1.5192;
-159.3000;0.9182;1.5243;
-159.0000;0.9182;1.5345;
-158.7000;0.9182;1.5345;
-158.4000;0.9174;1.5269;
-158.1000;0.9174;1.5192;
-157.8000;0.9231;1.5345;
-157.5000;0.9198;1.5269;
-157.2000;0.9198;1.5218;
-156.9000;0.9206;1.5243;
-156.6000;0.9206;1.5243;
-156.3000;0.9206;1.5192;
-156.0000;0.9190;1.5192;
-155.7000;0.9198;1.5167;
-155.4000;0.9174;1.5091;
-155.1000;0.9182;1.5066;
-154.8000;0.9190;1.5091;
-154.5000;0.9182;1.5091;
-154.2000;0.9174;1.5066;
-153.9000;0.9190;1.5192;
-153.6000;0.9190;1.5243;
-153.3000;0.9182;1.5294;
-153.0000;0.9182;1.5269;
-152.7000;0.9182;1.5218;
-152.4000;0.9182;1.5167;
-152.1000;0.9214;1.5192;
-151.8000;0.9182;1.5116;
-151.5000;0.9182;1.5218;
-151.2000;0.9190;1.5192;
-150.9000;0.9198;1.5167;
-150.6000;0.9166;1.5066;
-150.3000;0.9231;1.5243;
-150.0000;0.9247;1.5319;
-149.7000;0.9141;1.5167;
-149.4000;0.9182;1.5167;
-149.1000;0.9206;1.5218;
-148.8000;0.9166;1.5142;
-148.5000;0.9182;1.5015;
-148.2000;0.9312;1.5345;
-147.9000;0.9158;1.4990;
-147.6000;0.9174;1.5091;
-147.3000;0.9166;1.5091;
-147.0000;0.9198;1.5116;
-146.7000;0.9198;1.5091;
-146.4000;0.9190;1.5091;
-146.1000;0.9198;1.5040;
-145.8000;0.9198;1.5116;
-145.5000;0.9182;1.5091;
-145.2000;0.9182;1.5116;
-144.9000;0.9190;1.5142;
-144.6000;0.9174;1.5116;
-144.3000;0.9182;1.5066;
-144.0000;0.9198;1.5142;
-143.7000;0.9206;1.5116;
-143.4000;0.9214;1.5167;
-143.1000;0.9198;1.5040;
-142.8000;0.9190;1.5015;
-142.5000;0.9206;1.5040;
-142.2000;0.9206;1.4990;
-141.9000;0.9190;1.5040;
-141.6000;0.9198;1.5066;
-141.3000;0.9206;1.5040;
-141.0000;0.9255;1.5142;
-140.7000;0.9190;1.5015;
-140.4000;0.9190;1.5091;
-140.1000;0.9198;1.5116;
-139.8000;0.9190;1.5167;
-139.5000;0.9149;1.5116;
-139.2000;0.9182;1.5192;
-138.9000;0.9190;1.5192;
-138.6000;0.9198;1.5167;
-138.3000;0.9174;1.5142;
-138.0000;0.9174;1.5066;
-137.7000;0.9190;1.5142;
-137.4000;0.9198;1.5116;
-137.1000;0.9198;1.5116;
-136.8000;0.9198;1.5040;
-136.5000;0.9174;1.5015;
-136.2000;0.9182;1.5015;
-135.9000;0.9206;1.5066;
-135.6000;0.9190;1.5116;
-135.3000;0.9174;1.5066;
-135.0000;0.9174;1.5142;
-134.7000;0.9182;1.5116;
-134.4000;0.9149;1.5116;
-134.1000;0.9166;1.5167;
-133.8000;0.9190;1.5167;
-133.5000;0.9182;1.5167;
-133.2000;0.9255;1.5370;
-132.9000;0.9092;1.4939;
-132.6000;0.9198;1.5142;
-132.3000;0.9190;1.5091;
-132.0000;0.9190;1.5015;
-131.7000;0.9084;1.4787;
-131.4000;0.9182;1.5142;
-131.1000;0.9190;1.5116;
-130.8000;0.9158;1.5116;
-130.5000;0.9166;1.5142;
-130.2000;0.9117;1.5116;
-129.9000;0.9190;1.5192;
-129.6000;0.9174;1.5167;
-129.3000;0.9158;1.5116;
-129.0000;0.9174;1.5243;
-128.7000;0.9182;1.5319;
-128.4000;0.9133;1.5116;
-128.1000;0.9166;1.5218;
-127.8000;0.9182;1.5243;
-127.5000;0.9198;1.5243;
-127.2000;0.9198;1.5345;
-126.9000;0.9182;1.5319;
-126.6000;0.9198;1.5345;
-126.3000;0.9198;1.5269;
-126.0000;0.9174;1.5269;
-125.7000;0.9190;1.5294;
-125.4000;0.9182;1.5319;
-125.1000;0.9158;1.5294;
-124.8000;0.9174;1.5345;
-124.5000;0.9117;1.5091;
-124.2000;0.9182;1.5116;
-123.9000;0.9182;1.5142;
-123.6000;0.9223;1.5243;
-123.3000;0.9190;1.5192;
-123.0000;0.9125;1.5040;
-122.7000;0.9174;1.5167;
-122.4000;0.9198;1.5294;
-122.1000;0.9190;1.5243;
-121.8000;0.9198;1.5167;
-121.5000;0.9190;1.5091;
-121.2000;0.9206;1.5167;
-120.9000;0.9190;1.5116;
-120.6000;0.9174;1.5091;
-120.3000;0.9158;1.5091;
-120.0000;0.9190;1.5218;
-119.7000;0.9198;1.5294;
-119.4000;0.9206;1.5370;
-119.1000;0.9198;1.5370;
-118.8000;0.9198;1.5243;
-118.5000;0.9198;1.5192;
-118.2000;0.9190;1.5142;
-117.9000;0.9182;1.5116;
-117.6000;0.9166;1.5040;
-117.3000;0.9190;1.5091;
-117.0000;0.9198;1.5040;
-116.7000;0.9198;1.5066;
-116.4000;0.9158;1.4964;
-116.1000;0.9182;1.5091;
-115.8000;0.9190;1.5142;
-115.5000;0.9182;1.5091;
-115.2000;0.9182;1.5040;
-114.9000;0.9190;1.5040;
-114.6000;0.9214;1.5116;
-114.3000;0.9190;1.5040;
-114.0000;0.9182;1.4990;
-113.7000;0.9149;1.4990;
-113.4000;0.9198;1.5192;
-113.1000;0.9198;1.5142;
-112.8000;0.9182;1.5066;
-112.5000;0.9198;1.5091;
-112.2000;0.9166;1.4990;
-111.9000;0.9198;1.5116;
-111.6000;0.9174;1.5142;
-111.3000;0.9239;1.5243;
-111.0000;0.9182;1.5116;
-110.7000;0.9166;1.5167;
-110.4000;0.9206;1.5218;
-110.1000;0.9125;1.4964;
-109.8000;0.9190;1.5091;
-109.5000;0.9239;1.5243;
-109.2000;0.9190;1.5167;
-108.9000;0.9092;1.4913;
-108.6000;0.9174;1.5142;
-108.3000;0.9182;1.5167;
-108.0000;0.9190;1.5142;
-107.7000;0.9198;1.5091;
-107.4000;0.9198;1.5091;
-107.1000;0.9206;1.4964;
-106.8000;0.9182;1.4964;
-106.5000;0.9190;1.4964;
-106.2000;0.9190;1.4990;
-105.9000;0.9198;1.4964;
-105.6000;0.9190;1.5015;
-105.3000;0.9182;1.4990;
-105.0000;0.9190;1.4939;
-104.7000;0.9166;1.4964;
-104.4000;0.9182;1.4964;
-104.1000;0.9247;1.5142;
-103.8000;0.9174;1.5015;
-103.5000;0.9198;1.5091;
-103.2000;0.9190;1.5142;
-102.9000;0.9182;1.5066;
-102.6000;0.9182;1.5167;
-102.3000;0.9182;1.5243;
-102.0000;0.9190;1.5269;
-101.7000;0.9206;1.5269;
-101.4000;0.9190;1.5192;
-101.1000;0.9247;1.5269;
-100.8000;0.9206;1.5142;
-100.5000;0.9182;1.5091;
-100.2000;0.9182;1.5091;
-99.9000;0.9214;1.5192;
-99.6000;0.9174;1.5066;
-99.3000;0.9117;1.4913;
-99.0000;0.9182;1.5167;
-98.7000;0.9149;1.5091;
-98.4000;0.9182;1.5091;
-98.1000;0.9190;1.5116;
-97.8000;0.9198;1.5218;
-97.5000;0.9174;1.5192;
-97.2000;0.9182;1.5192;
-96.9000;0.9182;1.5218;
-96.6000;0.9198;1.5192;
-96.3000;0.9182;1.5091;
-96.0000;0.9198;1.5167;
-95.7000;0.9190;1.5192;
-95.4000;0.9190;1.5243;
-95.1000;0.9198;1.5319;
-94.8000;0.9182;1.5319;
-94.5000;0.9149;1.5218;
-94.2000;0.9198;1.5345;
-93.9000;0.9133;1.5091;
-93.6000;0.9174;1.5091;
-93.3000;0.9060;1.4812;
-93.0000;0.9182;1.5116;
-92.7000;0.9190;1.5167;
-92.4000;0.9174;1.5040;
-92.1000;0.9190;1.5142;
-91.8000;0.9247;1.5269;
-91.5000;0.9182;1.5142;
-91.2000;0.9190;1.5218;
-90.9000;0.9076;1.4939;
-90.6000;0.9182;1.5269;
-90.3000;0.9198;1.5218;
-90.0000;0.9190;1.5243;
-89.7000;0.9158;1.5243;
-89.4000;0.9166;1.5218;
-89.1000;0.9166;1.5091;
-88.8000;0.9166;1.5167;
-88.5000;0.9166;1.5192;
-88.2000;0.9190;1.5218;
-87.9000;0.9182;1.5116;
-87.6000;0.9190;1.5142;
-87.3000;0.9190;1.5116;
-87.0000;0.9182;1.5116;
-86.7000;0.9190;1.5142;
-86.4000;0.9174;1.5015;
-86.1000;0.9190;1.5192;
-85.8000;0.9190;1.5066;
-85.5000;0.9182;1.5066;
-85.2000;0.9304;1.5421;
-84.9000;0.9190;1.5066;
-84.6000;0.9174;1.5066;
-84.3000;0.9182;1.5116;
-84.0000;0.9206;1.5116;
-83.7000;0.9190;1.5066;
-83.4000;0.9198;1.5015;
-83.1000;0.9206;1.4939;
-82.8000;0.9182;1.4863;
-82.5000;0.9190;1.4837;
-82.2000;0.9166;1.4787;
-81.9000;0.9190;1.4761;
-81.6000;0.9304;1.4990;
-81.3000;0.9174;1.4761;
-81.0000;0.9206;1.4863;
-80.7000;0.9182;1.4888;
-80.4000;0.9198;1.5015;
-80.1000;0.9198;1.5015;
-79.8000;0.9198;1.5040;
-79.5000;0.9190;1.5015;
-79.2000;0.9166;1.4990;
-78.9000;0.9206;1.4964;
-78.6000;0.9190;1.4964;
-78.3000;0.9190;1.5116;
-78.0000;0.9190;1.5116;
-77.7000;0.9182;1.5142;
-77.4000;0.9198;1.5116;
-77.1000;0.9190;1.5091;
-76.8000;0.9198;1.5066;
-76.5000;0.9174;1.4964;
-76.2000;0.9182;1.5015;
-75.9000;0.9182;1.4990;
-75.6000;0.9190;1.5066;
-75.3000;0.9158;1.5091;
-75.0000;0.9271;1.5294;
-74.7000;0.9158;1.4939;
-74.4000;0.9182;1.4990;
-74.1000;0.9190;1.5066;
-73.8000;0.9158;1.4990;
-73.5000;0.9158;1.5040;
-73.2000;0.9190;1.5142;
-72.9000;0.9206;1.5218;
-72.6000;0.9198;1.5167;
-72.3000;0.9190;1.5116;
-72.0000;0.9190;1.5142;
-71.7000;0.9190;1.5167;
-71.4000;0.9190;1.5167;
-71.1000;0.9190;1.5192;
-70.8000;0.9174;1.5167;
-70.5000;0.9166;1.5192;
-70.2000;0.9174;1.5167;
-69.9000;0.9174;1.5091;
-69.6000;0.9166;1.5040;
-69.3000;0.9182;1.4913;
-69.0000;0.9190;1.4913;
-68.7000;0.9182;1.4863;
-68.4000;0.9190;1.4913;
-68.1000;0.9182;1.4913;
-67.8000;0.9182;1.4964;
-67.5000;0.9198;1.4990;
-67.2000;0.9190;1.5015;
-66.9000;0.9174;1.4964;
-66.6000;0.9198;1.5091;
-66.3000;0.9190;1.5091;
-66.0000;0.9149;1.4990;
-65.7000;0.9190;1.5015;
-65.4000;0.9190;1.4990;
-65.1000;0.9198;1.5091;
-64.8000;0.9223;1.5142;
-64.5000;0.9158;1.4888;
-64.2000;0.9182;1.4863;
-63.9000;0.9182;1.4913;
-63.6000;0.9182;1.4812;
-63.3000;0.9158;1.4761;
-63.0000;0.9166;1.4863;
-62.7000;0.9141;1.4837;
-62.4000;0.9174;1.4888;
-62.1000;0.9174;1.4913;
-61.8000;0.9166;1.4888;
-61.5000;0.9174;1.4913;
-61.2000;0.9182;1.4990;
-60.9000;0.9166;1.4939;
-60.6000;0.9141;1.4888;
-60.3000;0.9166;1.4964;
-60.0000;0.9214;1.5167;
-59.7000;0.9190;1.5218;
-59.4000;0.9174;1.5218;
-59.1000;0.9198;1.5218;
-58.8000;0.9190;1.5167;
-58.5000;0.9190;1.5142;
-58.2000;0.9158;1.5066;
-57.9000;0.9182;1.5091;
-57.6000;0.9198;1.5116;
-57.3000;0.9312;1.5446;
-57.0000;0.9174;1.5192;
-56.7000;0.9198;1.5269;
-56.4000;0.9206;1.5218;
-56.1000;0.9206;1.5192;
-55.8000;0.9174;1.5040;
-55.5000;0.9166;1.5091;
-55.2000;0.9166;1.5066;
-54.9000;0.9304;1.5421;
-54.6000;0.9190;1.5116;
-54.3000;0.9206;1.5192;
-54.0000;0.9182;1.5091;
-53.7000;0.9190;1.5116;
-53.4000;0.9182;1.5040;
-53.1000;0.9149;1.5040;
-52.8000;0.9182;1.5142;
-52.5000;0.9206;1.5142;
-52.2000;0.9198;1.5091;
-51.9000;0.9174;1.5116;
-51.6000;0.9190;1.5116;
-51.3000;0.9174;1.5091;
-51.0000;0.9174;1.5091;
-50.7000;0.9158;1.5040;
-50.4000;0.9166;1.5015;
-50.1000;0.9174;1.5015;
-49.8000;0.9198;1.5167;
-49.5000;0.9166;1.5243;
-49.2000;0.9182;1.5319;
-48.9000;0.9190;1.5269;
-48.6000;0.9223;1.5345;
-48.3000;0.9174;1.5218;
-48.0000;0.9166;1.5142;
-47.7000;0.9182;1.4990;
-47.4000;0.9198;1.4964;
-47.1000;0.9182;1.4990;
-46.8000;0.9190;1.5091;
-46.5000;0.9182;1.5116;
-46.2000;0.9182;1.5192;
-45.9000;0.9174;1.5192;
-45.6000;0.9158;1.5066;
-45.3000;0.9296;1.5370;
-45.0000;0.9190;1.5091;
-44.7000;0.9141;1.4837;
-44.4000;0.9182;1.5015;
-44.1000;0.9166;1.4964;
-43.8000;0.9182;1.4964;
-43.5000;0.9206;1.5015;
-43.2000;0.9190;1.4990;
-42.9000;0.9198;1.5142;
-42.6000;0.9255;1.5243;
-42.3000;0.9198;1.5167;
-42.0000;0.9166;1.5116;
-41.7000;0.9190;1.5167;
-41.4000;0.9174;1.5116;
-41.1000;0.9206;1.5142;
-40.8000;0.9190;1.5142;
-40.5000;0.9190;1.5066;
-40.2000;0.9166;1.4939;
-39.9000;0.9190;1.4939;
-39.6000;0.9198;1.4964;
-39.3000;0.9174;1.4913;
-39.0000;0.9174;1.4964;
-38.7000;0.9174;1.4863;
-38.4000;0.9198;1.4964;
-38.1000;0.9166;1.4863;
-37.8000;0.9174;1.4913;
-37.5000;0.9174;1.4863;
-37.2000;0.9117;1.4761;
-36.9000;0.9206;1.4990;
-36.6000;0.9174;1.4888;
-36.3000;0.9190;1.4939;
-36.0000;0.9174;1.4761;
-35.7000;0.9182;1.4787;
-35.4000;0.9174;1.4685;
-35.1000;0.9190;1.4787;
-34.8000;0.9133;1.4685;
-34.5000;0.9182;1.4787;
-34.2000;0.9206;1.4913;
-33.9000;0.9166;1.4837;
-33.6000;0.9182;1.4863;
-33.3000;0.9190;1.4888;
-33.0000;0.9255;1.5142;
-32.7000;0.9182;1.4990;
-32.4000;0.9182;1.5015;
-32.1000;0.9182;1.4939;
-31.8000;0.9190;1.4913;
-31.5000;0.9190;1.4837;
-31.2000;0.9182;1.4837;
-30.9000;0.9198;1.4863;
-30.6000;0.9182;1.4812;
-30.3000;0.9166;1.4660;
-30.0000;0.9158;1.4711;
-29.7000;0.9190;1.4787;
-29.4000;0.9182;1.4761;
-29.1000;0.9182;1.4761;
-28.8000;0.9166;1.4635;
-28.5000;0.9198;1.4635;
-28.2000;0.9182;1.4660;
-27.9000;0.9190;1.4736;
-27.6000;0.9182;1.4736;
-27.3000;0.9198;1.4736;
-27.0000;0.9182;1.4711;
-26.7000;0.9182;1.4761;
-26.4000;0.9190;1.4711;
-26.1000;0.9190;1.4761;
-25.8000;0.9182;1.4761;
-25.5000;0.9280;1.5015;
-25.2000;0.9166;1.4787;
-24.9000;0.9166;1.4812;
-24.6000;0.9304;1.5116;
-24.3000;0.9182;1.4787;
-24.0000;0.9182;1.4863;
-23.7000;0.9174;1.4837;
-23.4000;0.9174;1.4761;
-23.1000;0.9182;1.4761;
-22.8000;0.9174;1.4685;
-22.5000;0.9141;1.4635;
-22.2000;0.9198;1.4812;
-21.9000;0.9174;1.4736;
-21.6000;0.9166;1.4761;
-21.3000;0.9174;1.4787;
-21.0000;0.9206;1.4837;
-20.7000;0.9174;1.4812;
-20.4000;0.9174;1.4837;
-20.1000;0.9158;1.4837;
-19.8000;0.9174;1.4787;
-19.5000;0.9174;1.4736;
-19.2000;0.9174;1.4761;
-18.9000;0.9190;1.4711;
-18.6000;0.9166;1.4635;
-18.3000;0.9166;1.4584;
-18.0000;0.9190;1.4635;
-17.7000;0.9174;1.4635;
-17.4000;0.9166;1.4685;
-17.1000;0.9198;1.4837;
-16.8000;0.9190;1.4812;
-16.5000;0.9231;1.5015;
-16.2000;0.9182;1.4913;
-15.9000;0.9166;1.4812;
-15.6000;0.9198;1.4913;
-15.3000;0.9198;1.4863;
-15.0000;0.9174;1.4837;
-14.7000;0.9182;1.4888;
-14.4000;0.9190;1.4939;
-14.1000;0.9174;1.4990;
-13.8000;0.9182;1.4990;
-13.5000;0.9190;1.4990;
-13.2000;0.9239;1.5167;
-12.9000;0.9190;1.5091;
-12.6000;0.9255;1.5243;
-12.3000;0.9198;1.5040;
-12.0000;0.9198;1.4913;
-11.7000;0.9182;1.4761;
-11.4000;0.9198;1.4863;
-11.1000;0.9182;1.4761;
-10.8000;0.9198;1.4736;
-10.5000;0.9198;1.4761;
-10.2000;0.9182;1.4660;
-9.9000;0.9231;1.4761;
-9.6000;0.9182;1.4685;
-9.3000;0.9190;1.4761;
-9.0000;0.9174;1.4711;
-8.7000;0.9190;1.4787;
-8.4000;0.9182;1.4812;
-8.1000;0.9206;1.4913;
-7.8000;0.9182;1.4990;
-7.5000;0.9190;1.4964;
-7.2000;0.9182;1.4913;
-6.9000;0.9223;1.5091;
-6.6000;0.9247;1.5091;
-6.3000;0.9174;1.4939;
-6.0000;0.9198;1.4964;
-5.7000;0.9166;1.4913;
-5.4000;0.9198;1.5015;
-5.1000;0.9198;1.5015;
-4.8000;0.9174;1.4888;
-4.5000;0.9190;1.4913;
-4.2000;0.9190;1.4939;
-3.9000;0.9190;1.4939;
-3.6000;0.9182;1.4863;
-3.3000;0.9174;1.4787;
-3.0000;0.9190;1.4837;
-2.7000;0.9182;1.4837;
-2.4000;0.9198;1.4964;
-2.1000;0.9190;1.4964;
-1.8000;0.9214;1.5091;
-1.5000;0.9206;1.5116;
-1.2000;0.9174;1.4964;
-0.9000;0.9182;1.4787;
-0.6000;0.9174;1.4812;
-0.3000;0.9182;1.4837;
0.0000;0.9182;1.4837;
0.3000;0.9190;1.4837;
0.6000;0.9214;1.5294;
0.9000;0.9239;1.5548;
1.2000;0.9255;1.5903;
1.5000;0.9263;1.6182;
1.8000;0.9271;1.6385;
2.1000;0.9296;1.6562;
2.4000;0.9271;1.6740;
2.7000;0.9288;1.6993;
3.0000;0.9280;1.7120;
3.3000;0.9296;1.7222;
3.6000;0.9296;1.7298;
3.9000;0.9198;1.7069;
4.2000;0.9280;1.7374;
4.5000;0.9328;1.7653;
4.8000;0.9304;1.7653;
5.1000;0.9312;1.7627;
5.4000;0.9320;1.7678;
5.7000;0.9328;1.7830;
6.0000;0.9337;1.7856;
6.3000;0.9328;1.7830;
6.6000;0.9328;1.7856;
6.9000;0.9328;1.7830;
7.2000;0.9345;1.7932;
7.5000;0.9361;1.8008;
7.8000;0.9320;1.7881;
8.1000;0.9337;1.7982;
8.4000;0.9353;1.7982;
8.7000;0.9353;1.7957;
9.0000;0.9345;1.7856;
9.3000;0.9345;1.7780;
9.6000;0.9337;1.7830;
9.9000;0.9361;1.7906;
10.2000;0.9345;1.7932;
10.5000;0.9337;1.7957;
10.8000;0.9345;1.8008;
11.1000;0.9361;1.7957;
11.4000;0.9353;1.7906;
11.7000;0.9353;1.7906;
12.0000;0.9320;1.7856;
12.3000;0.9369;1.7982;
12.6000;0.9361;1.7957;
12.9000;0.9377;1.8084;
13.2000;0.9345;1.8008;
13.5000;0.9328;1.8008;
13.8000;0.9337;1.8008;
14.1000;0.9312;1.7982;
14.4000;0.9328;1.8135;
14.7000;0.9328;1.8109;
15.0000;0.9337;1.8084;
15.3000;0.9337;1.8109;
15.6000;0.9353;1.8160;
15.9000;0.9353;1.8236;
16.2000;0.9345;1.8135;
16.5000;0.9345;1.8059;
16.8000;0.9304;1.7982;
17.1000;0.9288;1.7982;
17.4000;0.9353;1.8109;
17.7000;0.9345;1.8135;
18.0000;0.9345;1.8160;
18.3000;0.9345;1.8109;
18.6000;0.9345;1.8160;
18.9000;0.9353;1.8135;
19.2000;0.9353;1.8109;
19.5000;0.9345;1.7957;
19.8000;0.9353;1.7957;
20.1000;0.9361;1.8008;
20.4000;0.9353;1.7932;
20.7000;0.9345;1.7982;
21.0000;0.9361;1.8059;
21.3000;0.9369;1.8059;
21.6000;0.9402;1.8185;
21.9000;0.9345;1.8059;
22.2000;0.9353;1.8160;
22.5000;0.9361;1.8261;
22.8000;0.9353;1.8363;
23.1000;0.9271;1.8185;
23.4000;0.9353;1.8287;
23.7000;0.9320;1.8135;
24.0000;0.9353;1.8185;
24.3000;0.9345;1.8236;
24.6000;0.9467;1.8540;
24.9000;0.9353;1.8388;
25.2000;0.9337;1.8439;
25.5000;0.9337;1.8312;
25.8000;0.9320;1.8287;
26.1000;0.9353;1.8261;
26.4000;0.9345;1.8261;
26.7000;0.9345;1.8287;
27.0000;0.9345;1.8287;
27.3000;0.9304;1.8160;
27.6000;0.9345;1.8363;
27.9000;0.9345;1.8338;
28.2000;0.9337;1.8312;
28.5000;0.9353;1.8287;
28.8000;0.9394;1.8439;
29.1000;0.9345;1.8312;
29.4000;0.9337;1.8287;
29.7000;0.9345;1.8261;
30.0000;0.9377;1.8338;
30.3000;0.9345;1.8388;
30.6000;0.9328;1.8414;
30.9000;0.9328;1.8490;
31.2000;0.9345;1.8439;
31.5000;0.9328;1.8490;
31.8000;0.9320;1.8388;
32.1000;0.9377;1.8515;
32.4000;0.9345;1.8464;
32.7000;0.9345;1.8490;
33.0000;0.9353;1.8439;
33.3000;0.9328;1.8312;
33.6000;0.9280;1.8211;
33.9000;0.9361;1.8338;
34.2000;0.9337;1.8363;
34.5000;0.9345;1.8414;
34.8000;0.9214;1.8109;
35.1000;0.9418;1.8490;
35.4000;0.9361;1.8414;
35.7000;0.9328;1.8414;
36.0000;0.9353;1.8363;
36.3000;0.9320;1.8287;
36.6000;0.9320;1.8363;
36.9000;0.9394;1.8540;
37.2000;0.9353;1.8490;
37.5000;0.9328;1.8540;
37.8000;0.9345;1.8540;
38.1000;0.9337;1.8464;
38.4000;0.9328;1.8414;
38.7000;0.9263;1.8287;
39.0000;0.9377;1.8490;
39.3000;0.9385;1.8490;
39.6000;0.9337;1.8338;
39.9000;0.9320;1.8338;
40.2000;0.9304;1.8338;
40.5000;0.9320;1.8363;
40.8000;0.9369;1.8515;
41.1000;0.9320;1.8363;
41.4000;0.9304;1.8312;
41.7000;0.9328;1.8414;
42.0000;0.9320;1.8388;
42.3000;0.9394;1.8591;
42.6000;0.9328;1.8388;
42.9000;0.9345;1.8464;
43.2000;0.9320;1.8388;
43.5000;0.9337;1.8439;
43.8000;0.9353;1.8540;
44.1000;0.9337;1.8566;
44.4000;0.9328;1.8490;
44.7000;0.9345;1.8566;
45.0000;0.9320;1.8540;
45.3000;0.9337;1.8540;
45.6000;0.9328;1.8490;
45.9000;0.9320;1.8464;
46.2000;0.9312;1.8388;
46.5000;0.9328;1.8464;
46.8000;0.9337;1.8439;
47.1000;0.9328;1.8439;
47.4000;0.9304;1.8439;
47.7000;0.9320;1.8439;
48.0000;0.9320;1.8490;
48.3000;0.9320;1.8540;
48.6000;0.9312;1.8566;
48.9000;0.9312;1.8566;
49.2000;0.9337;1.8591;
49.5000;0.9320;1.8591;
49.8000;0.9312;1.8591;
50.1000;0.9320;1.8515;
50.4000;0.9312;1.8490;
50.7000;0.9320;1.8540;
51.0000;0.9361;1.8617;
51.3000;0.9296;1.8439;
51.6000;0.9296;1.8439;
51.9000;0.9304;1.8515;
52.2000;0.9304;1.8540;
52.5000;0.9304;1.8464;
52.8000;0.9296;1.8540;
53.1000;0.9337;1.8540;
53.4000;0.9304;1.8515;
53.7000;0.9304;1.8540;
54.0000;0.9328;1.8566;
54.3000;0.9320;1.8515;
54.6000;0.9304;1.8540;
54.9000;0.9288;1.8439;
55.2000;0.9304;1.8464;
55.5000;0.9312;1.8515;
55.8000;0.9296;1.8464;
56.1000;0.9304;1.8464;
56.4000;0.9304;1.8515;
56.7000;0.9320;1.8515;
57.0000;0.9328;1.8642;
57.3000;0.9328;1.8642;
57.6000;0.9280;1.8515;
57.9000;0.9385;1.8642;
58.2000;0.9312;1.8464;
58.5000;0.9328;1.8540;
58.8000;0.9158;1.8008;
59.1000;0.9312;1.8312;
59.4000;0.9345;1.8439;
59.7000;0.9369;1.8414;
60.0000;0.9304;1.8338;
60.3000;0.9377;1.8464;
60.6000;0.9296;1.8236;
60.9000;0.9320;1.8236;
61.2000;0.9320;1.8211;
61.5000;0.9304;1.8261;
61.8000;0.9353;1.8464;
62.1000;0.9288;1.8287;
62.4000;0.9263;1.8363;
62.7000;0.9304;1.8490;
63.0000;0.9320;1.8490;
63.3000;0.9304;1.8414;
63.6000;0.9304;1.8464;
63.9000;0.9296;1.8515;
64.2000;0.9312;1.8591;
64.5000;0.9312;1.8591;
64.8000;0.9312;1.8515;
65.1000;0.9280;1.8490;
65.4000;0.9296;1.8414;
65.7000;0.9312;1.8464;
66.0000;0.9304;1.8439;
66.3000;0.9320;1.8490;
66.6000;0.9288;1.8414;
66.9000;0.9312;1.8439;
67.2000;0.9328;1.8439;
67.5000;0.9312;1.8414;
67.8000;0.9312;1.8388;
68.1000;0.9312;1.8414;
68.4000;0.9304;1.8338;
68.7000;0.9328;1.8439;
69.0000;0.9288;1.8388;
69.3000;0.9320;1.8566;
69.6000;0.9320;1.8464;
69.9000;0.9296;1.8439;
70.2000;0.9312;1.8388;
70.5000;0.9296;1.8363;
70.8000;0.9296;1.8312;
71.1000;0.9288;1.8185;
71.4000;0.9271;1.8185;
71.7000;0.9263;1.8211;
72.0000;0.9304;1.8338;
72.3000;0.9296;1.8464;
72.6000;0.9304;1.8566;
72.9000;0.9280;1.8490;
73.2000;0.9304;1.8540;
73.5000;0.9304;1.8490;
73.8000;0.9296;1.8388;
74.1000;0.9320;1.8439;
74.4000;0.9312;1.8439;
74.7000;0.9288;1.8490;
75.0000;0.9296;1.8617;
75.3000;0.9377;1.8921;
75.6000;0.9288;1.8617;
75.9000;0.9304;1.8591;
76.2000;0.9280;1.8642;
76.5000;0.9271;1.8617;
76.8000;0.9328;1.8743;
77.1000;0.9312;1.8718;
77.4000;0.9296;1.8693;
77.7000;0.9271;1.8566;
78.0000;0.9280;1.8667;
78.3000;0.9296;1.8617;
78.6000;0.9247;1.8464;
78.9000;0.9288;1.8591;
79.2000;0.9312;1.8591;
79.5000;0.9280;1.8515;
79.8000;0.9296;1.8515;
80.1000;0.9296;1.8540;
80.4000;0.9288;1.8515;
80.7000;0.9280;1.8515;
81.0000;0.9312;1.8566;
81.3000;0.9328;1.8591;
81.6000;0.9247;1.8464;
81.9000;0.9280;1.8439;
82.2000;0.9296;1.8540;
82.5000;0.9288;1.8617;
82.8000;0.9247;1.8566;
83.1000;0.9288;1.8540;
83.4000;0.9288;1.8566;
83.7000;0.9312;1.8566;
84.0000;0.9271;1.8515;
84.3000;0.9288;1.8566;
84.6000;0.9280;1.8566;
84.9000;0.9288;1.8464;
85.2000;0.9280;1.8490;
85.5000;0.9288;1.8515;
85.8000;0.9288;1.8490;
86.1000;0.9288;1.8591;
86.4000;0.9280;1.8490;
86.7000;0.9271;1.8439;
87.0000;0.9271;1.8388;
87.3000;0.9296;1.8540;
87.6000;0.9288;1.8515;
87.9000;0.9288;1.8540;
88.2000;0.9280;1.8464;
88.5000;0.9296;1.8540;
88.8000;0.9288;1.8490;
89.1000;0.9271;1.8414;
89.4000;0.9280;1.8414;
89.7000;0.9280;1.8439;
90.0000;0.9280;1.8490;
90.3000;0.9255;1.8464;
90.6000;0.9280;1.8617;
90.9000;0.9280;1.8591;
91.2000;0.9288;1.8718;
91.5000;0.9296;1.8667;
91.8000;0.9271;1.8591;
92.1000;0.9271;1.8515;
92.4000;0.9288;1.8515;
92.7000;0.9271;1.8464;
93.0000;0.9280;1.8490;
93.3000;0.9280;1.8490;
93.6000;0.9296;1.8540;
93.9000;0.9288;1.8515;
94.2000;0.9296;1.8515;
94.5000;0.9280;1.8515;
94.8000;0.9263;1.8490;
95.1000;0.9296;1.8642;
95.4000;0.9280;1.8617;
95.7000;0.9320;1.8718;
96.0000;0.9271;1.8718;
96.3000;0.9263;1.8667;
96.6000;0.9271;1.8693;
96.9000;0.9247;1.8718;
97.2000;0.9271;1.8845;
97.5000;0.9271;1.8845;
97.8000;0.9280;1.8845;
98.1000;0.9271;1.8769;
98.4000;0.9280;1.8896;
98.7000;0.9296;1.8896;
99.0000;0.9288;1.8870;
99.3000;0.9263;1.8819;
99.6000;0.9271;1.8845;
99.9000;0.9231;1.8667;
100.2000;0.9337;1.8972;
100.5000;0.9385;1.9022;
100.8000;0.9271;1.8693;
101.1000;0.9288;1.8667;
101.4000;0.9271;1.8718;
101.7000;0.9280;1.8769;
102.0000;0.9271;1.8718;
102.3000;0.9255;1.8718;
102.6000;0.9280;1.8667;
102.9000;0.9280;1.8667;
103.2000;0.9271;1.8693;
103.5000;0.9271;1.8693;
103.8000;0.9288;1.8743;
104.1000;0.9271;1.8642;
104.4000;0.9271;1.8693;
104.7000;0.9263;1.8667;
105.0000;0.9271;1.8693;
105.3000;0.9271;1.8718;
105.6000;0.9271;1.8718;
105.9000;0.9255;1.8718;
106.2000;0.9263;1.8642;
106.5000;0.9271;1.8667;
106.8000;0.9247;1.8617;
107.1000;0.9231;1.8464;
107.4000;0.9263;1.8667;
107.7000;0.9280;1.8693;
108.0000;0.9280;1.8693;
108.3000;0.9255;1.8667;
108.6000;0.9280;1.8667;
108.9000;0.9182;1.8414;
109.2000;0.9304;1.8718;
109.5000;0.9288;1.8743;
109.8000;0.9255;1.8667;
110.1000;0.9271;1.8693;
110.4000;0.9271;1.8667;
110.7000;0.9280;1.8642;
111.0000;0.9271;1.8642;
111.3000;0.9271;1.8591;
111.6000;0.9288;1.8540;
111.9000;0.9255;1.8540;
112.2000;0.9271;1.8515;
112.5000;0.9288;1.8591;
112.8000;0.9288;1.8642;
113.1000;0.9288;1.8642;
113.4000;0.9288;1.8566;
113.7000;0.9239;1.8338;
114.0000;0.9288;1.8540;
114.3000;0.9271;1.8566;
114.6000;0.9263;1.8591;
114.9000;0.9255;1.8591;
115.2000;0.9231;1.8617;
115.5000;0.9271;1.8718;
115.8000;0.9255;1.8718;
116.1000;0.9271;1.8743;
116.4000;0.9271;1.8769;
116.7000;0.9271;1.8743;
117.0000;0.9239;1.8642;
117.3000;0.9280;1.8617;
117.6000;0.9247;1.8515;
117.9000;0.9271;1.8693;
118.2000;0.9288;1.8667;
118.5000;0.9263;1.8718;
118.8000;0.9280;1.8693;
119.1000;0.9263;1.8693;
119.4000;0.9280;1.8693;
119.7000;0.9271;1.8743;
120.0000;0.9263;1.8718;
120.3000;0.9255;1.8743;
120.6000;0.9255;1.8693;
120.9000;0.9280;1.8693;
121.2000;0.9255;1.8617;
121.5000;0.9271;1.8642;
121.8000;0.9271;1.8642;
122.1000;0.9223;1.8540;
122.4000;0.9304;1.8667;
122.7000;0.9271;1.8718;
123.0000;0.9214;1.8591;
123.3000;0.9271;1.8769;
123.6000;0.9271;1.8743;
123.9000;0.9271;1.8718;
124.2000;0.9271;1.8667;
124.5000;0.9271;1.8617;
124.8000;0.9312;1.8617;
125.1000;0.9271;1.8540;
125.4000;0.9271;1.8617;
125.7000;0.9255;1.8566;
126.0000;0.9271;1.8617;
126.3000;0.9247;1.8566;
126.6000;0.9271;1.8591;
126.9000;0.9271;1.8591;
127.2000;0.9247;1.8667;
127.5000;0.9255;1.8667;
127.8000;0.9255;1.8743;
128.1000;0.9231;1.8769;
128.4000;0.9271;1.8743;
128.7000;0.9263;1.8667;
129.0000;0.9361;1.8921;
129.3000;0.9280;1.8693;
129.6000;0.9271;1.8617;
129.9000;0.9247;1.8566;
130.2000;0.9263;1.8566;
130.5000;0.9280;1.8591;
130.8000;0.9280;1.8591;
131.1000;0.9280;1.8591;
131.4000;0.9271;1.8642;
131.7000;0.9263;1.8617;
132.0000;0.9247;1.8591;
132.3000;0.9247;1.8642;
132.6000;0.9255;1.8566;
132.9000;0.9263;1.8617;
133.2000;0.9263;1.8591;
133.5000;0.9280;1.8617;
133.8000;0.9255;1.8591;
134.1000;0.9198;1.8464;
134.4000;0.9271;1.8667;
134.7000;0.9255;1.8667;
135.0000;0.9239;1.8693;
135.3000;0.9271;1.8794;
135.6000;0.9263;1.8769;
135.9000;0.9263;1.8743;
136.2000;0.9247;1.8693;
136.5000;0.9247;1.8617;
136.8000;0.9255;1.8591;
137.1000;0.9247;1.8540;
137.4000;0.9255;1.8540;
137.7000;0.9247;1.8566;
138.0000;0.9271;1.8743;
138.3000;0.9296;1.8870;
138.6000;0.9263;1.8693;
138.9000;0.9255;1.8591;
139.2000;0.9247;1.8591;
139.5000;0.9288;1.8566;
139.8000;0.9280;1.8591;
140.1000;0.9271;1.8617;
140.4000;0.9263;1.8617;
140.7000;0.9296;1.8566;
141.0000;0.9288;1.8617;
141.3000;0.9255;1.8591;
141.6000;0.9263;1.8591;
141.9000;0.9271;1.8591;
142.2000;0.9255;1.8540;
142.5000;0.9255;1.8566;
142.8000;0.9263;1.8617;
143.1000;0.9280;1.8819;
143.4000;0.9263;1.8769;
143.7000;0.9255;1.8718;
144.0000;0.9247;1.8693;
144.3000;0.9239;1.8693;
144.6000;0.9247;1.8743;
144.9000;0.9255;1.8718;
145.2000;0.9239;1.8693;
145.5000;0.9255;1.8743;
145.8000;0.9263;1.8743;
146.1000;0.9247;1.8718;
146.4000;0.9255;1.8743;
146.7000;0.9239;1.8743;
147.0000;0.9223;1.8693;
147.3000;0.9263;1.8718;
147.6000;0.9247;1.8667;
147.9000;0.9247;1.8693;
148.2000;0.9263;1.8819;
148.5000;0.9263;1.8794;
148.8000;0.9166;1.8566;
149.1000;0.9255;1.8769;
149.4000;0.9304;1.8870;
149.7000;0.9255;1.8794;
150.0000;0.9263;1.8743;
150.3000;0.9239;1.8718;
150.6000;0.9296;1.8794;
150.9000;0.9247;1.8667;
151.2000;0.9239;1.8693;
151.5000;0.9263;1.8743;
151.8000;0.9304;1.8870;
152.1000;0.9263;1.8769;
152.4000;0.9280;1.8667;
152.7000;0.9255;1.8693;
153.0000;0.9255;1.8743;
153.3000;0.9280;1.8769;
153.6000;0.9337;1.9022;
153.9000;0.9255;1.8794;
154.2000;0.9255;1.8819;
154.5000;0.9271;1.8769;
154.8000;0.9255;1.8743;
155.1000;0.9255;1.8693;
155.4000;0.9247;1.8693;
155.7000;0.9255;1.8642;
156.0000;0.9263;1.8769;
156.3000;0.9247;1.8667;
156.6000;0.9255;1.8642;
156.9000;0.9263;1.8693;
157.2000;0.9263;1.8617;
157.5000;0.9271;1.8667;
157.8000;0.9247;1.8617;
158.1000;0.9239;1.8617;
158.4000;0.9174;1.8464;
158.7000;0.9255;1.8693;
159.0000;0.9247;1.8642;
159.3000;0.9247;1.8540;
159.6000;0.9255;1.8566;
159.9000;0.9247;1.8591;
160.2000;0.9239;1.8490;
160.5000;0.9296;1.8540;
160.8000;0.9247;1.8490;
161.1000;0.9280;1.8617;
161.4000;0.9247;1.8515;
161.7000;0.9231;1.8515;
162.0000;0.9231;1.8591;
162.3000;0.9247;1.8566;
162.6000;0.9255;1.8566;
162.9000;0.9255;1.8566;
163.2000;0.9255;1.8566;
163.5000;0.9263;1.8617;
163.8000;0.9239;1.8566;
164.1000;0.9255;1.8667;
164.4000;0.9263;1.8693;
164.7000;0.9304;1.8819;
165.0000;0.9271;1.8667;
165.3000;0.9280;1.8693;
165.6000;0.9247;1.8617;
165.9000;0.9247;1.8667;
166.2000;0.9231;1.8540;
166.5000;0.9255;1.8591;
166.8000;0.9239;1.8617;
167.1000;0.9247;1.8617;
167.4000;0.9280;1.8617;
167.7000;0.9190;1.8464;
168.0000;0.9263;1.8667;
168.3000;0.9247;1.8693;
168.6000;0.9255;1.8769;
168.9000;0.9255;1.8769;
169.2000;0.9255;1.8769;
169.5000;0.9239;1.8693;
169.8000;0.9263;1.8667;
170.1000;0.9247;1.8642;
170.4000;0.9239;1.8617;
170.7000;0.9247;1.8617;
171.0000;0.9345;1.8896;
171.3000;0.9239;1.8693;
171.6000;0.9255;1.8718;
171.9000;0.9247;1.8667;
172.2000;0.9214;1.8642;
172.5000;0.9255;1.8743;
172.8000;0.9247;1.8718;
173.1000;0.9247;1.8693;
173.4000;0.9271;1.8667;
173.7000;0.9247;1.8718;
174.0000;0.9247;1.8819;
174.3000;0.9247;1.8769;
174.6000;0.9247;1.8870;
174.9000;0.9255;1.8921;
175.2000;0.9239;1.8870;
175.5000;0.9247;1.8845;
175.8000;0.9231;1.8819;
176.1000;0.9239;1.8921;
176.4000;0.9247;1.8896;
176.7000;0.9231;1.8870;
177.0000;0.9255;1.8870;
177.3000;0.9247;1.8870;
177.6000;0.9255;1.8870;
177.9000;0.9247;1.8870;
178.2000;0.9239;1.8769;
178.5000;0.9255;1.8794;
178.8000;0.9280;1.8845;
179.1000;0.9255;1.8845;
179.4000;0.9263;1.8819;
179.7000;0.9255;1.8946;
180.0000;0.9255;1.9048;
180.3000;0.9255;1.8972;
180.6000;0.9247;1.8946;
180.9000;0.9239;1.8870;
181.2000;0.9239;1.8819;
181.5000;0.9255;1.8845;
181.8000;0.9255;1.8870;
182.1000;0.9247;1.8845;
182.4000;0.9231;1.8870;
182.7000;0.9255;1.8946;
183.0000;0.9247;1.8845;
183.3000;0.9231;1.8794;
183.6000;0.9255;1.8769;
183.9000;0.9247;1.8794;
184.2000;0.9263;1.8946;
184.5000;0.9255;1.8997;
184.8000;0.9263;1.9098;
185.1000;0.9255;1.9174;
185.4000;0.9223;1.9022;
185.7000;0.9255;1.9048;
186.0000;0.9263;1.9022;
186.3000;0.9255;1.9022;
186.6000;0.9271;1.9022;
186.9000;0.9239;1.8921;
187.2000;0.9247;1.8997;
187.5000;0.9117;1.8693;
187.8000;0.9320;1.9124;
188.1000;0.9239;1.8896;
188.4000;0.9247;1.9022;
188.7000;0.9255;1.9022;
189.0000;0.9255;1.9022;
189.3000;0.9174;1.8819;
189.6000;0.9247;1.8946;
189.9000;0.9263;1.8997;
190.2000;0.9206;1.8896;
190.5000;0.9231;1.8921;
190.8000;0.9223;1.8870;
191.1000;0.9239;1.8794;
191.4000;0.9223;1.8693;
191.7000;0.9263;1.8819;
192.0000;0.9247;1.8743;
192.3000;0.9247;1.8819;
192.6000;0.9239;1.8794;
192.9000;0.9247;1.8819;
193.2000;0.9247;1.8819;
193.5000;0.9239;1.8743;
193.8000;0.9255;1.8794;
194.1000;0.9239;1.8693;
194.4000;0.9231;1.8617;
194.7000;0.9247;1.8743;
195.0000;0.9247;1.8794;
195.3000;0.9247;1.8743;
195.6000;0.9247;1.8718;
195.9000;0.9247;1.8743;
196.2000;0.9247;1.8743;
196.5000;0.9239;1.8743;
196.8000;0.9239;1.8642;
197.1000;0.9255;1.8667;
197.4000;0.9231;1.8667;
197.7000;0.9247;1.8693;
198.0000;0.9255;1.8642;
198.3000;0.9255;1.8667;
198.6000;0.9247;1.8693;
198.9000;0.9247;1.8718;
199.2000;0.9263;1.8743;
199.5000;0.9247;1.8743;
199.8000;0.9288;1.8819;
200.1000;0.9239;1.8617;
200.4000;0.9239;1.8642;
200.7000;0.9255;1.8718;
201.0000;0.9247;1.8769;
201.3000;0.9239;1.8743;
201.6000;0.9247;1.8845;
201.9000;0.9247;1.8896;
202.2000;0.9214;1.8794;
202.5000;0.9247;1.8819;
202.8000;0.9231;1.8819;
203.1000;0.9247;1.8870;
203.4000;0.9239;1.8870;
203.7000;0.9223;1.8819;
204.0000;0.9263;1.8870;
204.3000;0.9247;1.8769;
204.6000;0.9223;1.8845;
204.9000;0.9206;1.8769;
205.2000;0.9231;1.8769;
205.5000;0.9239;1.8819;
205.8000;0.9247;1.8819;
206.1000;0.9223;1.8718;
206.4000;0.9198;1.8743;
206.7000;0.9231;1.8896;
207.0000;0.9231;1.8896;
207.3000;0.9223;1.8870;
207.6000;0.9206;1.8845;
207.9000;0.9239;1.8946;
208.2000;0.9247;1.8896;
208.5000;0.9231;1.8896;
208.8000;0.9280;1.8997;
209.1000;0.9239;1.8870;
209.4000;0.9231;1.8819;
209.7000;0.9263;1.8997;
210.0000;0.9239;1.8921;
210.3000;0.9239;1.8972;
210.6000;0.9141;1.8693;
210.9000;0.9239;1.8870;
211.2000;0.9247;1.8794;
211.5000;0.9361;1.9048;
211.8000;0.9206;1.8642;
212.1000;0.9223;1.8819;
212.4000;0.9231;1.8896;
212.7000;0.9239;1.8896;
213.0000;0.9255;1.8819;
213.3000;0.9263;1.8819;
213.6000;0.9255;1.8769;
213.9000;0.9255;1.8693;
214.2000;0.9263;1.8642;
214.5000;0.9280;1.8718;
214.8000;0.9214;1.8617;
215.1000;0.9239;1.8870;
215.4000;0.9231;1.8946;
215.7000;0.9239;1.8972;
216.0000;0.9206;1.8845;
216.3000;0.9247;1.8997;
216.6000;0.9247;1.9073;
216.9000;0.9255;1.9174;
217.2000;0.9263;1.9124;
217.5000;0.9239;1.8997;
217.8000;0.9239;1.8972;
218.1000;0.9247;1.8870;
218.4000;0.9255;1.8921;
218.7000;0.9231;1.8794;
219.0000;0.9214;1.8794;
219.3000;0.9223;1.8845;
219.6000;0.9239;1.8870;
219.9000;0.9231;1.8896;
220.2000;0.9206;1.8870;
220.5000;0.9231;1.8946;
220.8000;0.9271;1.8972;
221.1000;0.9231;1.8896;
221.4000;0.9231;1.8845;
221.7000;0.9239;1.8896;
222.0000;0.9239;1.8769;
222.3000;0.9247;1.8819;
222.6000;0.9255;1.8794;
222.9000;0.9247;1.8794;
223.2000;0.9255;1.8819;
223.5000;0.9247;1.8870;
223.8000;0.9231;1.8794;
224.1000;0.9255;1.8870;
224.4000;0.9239;1.8896;
224.7000;0.9263;1.8921;
225.0000;0.9101;1.8540;
225.3000;0.9231;1.8819;
225.6000;0.9214;1.8845;
225.9000;0.9255;1.8896;
226.2000;0.9231;1.8896;
226.5000;0.9247;1.8921;
226.8000;0.9247;1.8896;
227.1000;0.9288;1.8997;
227.4000;0.9231;1.8870;
227.7000;0.9239;1.8819;
228.0000;0.9255;1.8769;
228.3000;0.9255;1.8718;
228.6000;0.9255;1.8743;
228.9000;0.9231;1.8693;
229.2000;0.9247;1.8769;
229.5000;0.9263;1.8870;
229.8000;0.9247;1.8794;
230.1000;0.9231;1.8769;
230.4000;0.9214;1.8743;
230.7000;0.9255;1.8819;
231.0000;0.9247;1.8819;
231.3000;0.9247;1.8819;
231.6000;0.9231;1.8870;
231.9000;0.9247;1.8870;
232.2000;0.9255;1.8946;
232.5000;0.9288;1.9048;
232.8000;0.9223;1.8845;
233.1000;0.9223;1.8896;
233.4000;0.9239;1.8896;
233.7000;0.9141;1.8743;
234.0000;0.9231;1.8870;
234.3000;0.9231;1.8870;
234.6000;0.9247;1.9022;
234.9000;0.9206;1.8896;
235.2000;0.9231;1.8921;
235.5000;0.9271;1.8972;
235.8000;0.9214;1.8769;
236.1000;0.9247;1.8769;
236.4000;0.9255;1.8819;
236.7000;0.9231;1.8896;
237.0000;0.9231;1.9073;
237.3000;0.9328;1.9276;
237.6000;0.9247;1.9098;
237.9000;0.9271;1.9022;
238.2000;0.9239;1.8896;
238.5000;0.9231;1.8819;
238.8000;0.9247;1.8896;
239.1000;0.9239;1.8972;
239.4000;0.9231;1.9022;
239.7000;0.9239;1.8921;
240.0000;0.9231;1.8794;
240.3000;0.9214;1.8794;
240.6000;0.9247;1.8845;
240.9000;0.9214;1.8743;
241.2000;0.9231;1.8896;
241.5000;0.9231;1.8870;
241.8000;0.9231;1.8921;
242.1000;0.9247;1.8921;
242.4000;0.9247;1.8921;
242.7000;0.9255;1.8972;
243.0000;0.9247;1.8972;
243.3000;0.9247;1.9022;
243.6000;0.9255;1.8997;
243.9000;0.9214;1.8972;
244.2000;0.9214;1.9048;
244.5000;0.9239;1.9098;
244.8000;0.9198;1.8997;
245.1000;0.9247;1.9048;
245.4000;0.9223;1.8870;
245.7000;0.9239;1.8921;
246.0000;0.9239;1.8870;
246.3000;0.9239;1.8921;
246.6000;0.9263;1.8896;
246.9000;0.9231;1.8718;
247.2000;0.9247;1.8794;
247.5000;0.9271;1.8896;
247.8000;0.9239;1.8845;
248.1000;0.9271;1.8896;
248.4000;0.9239;1.8921;
248.7000;0.9239;1.9022;
249.0000;0.9280;1.9073;
249.3000;0.9247;1.8819;
249.6000;0.9239;1.8870;
249.9000;0.9247;1.8896;
250.2000;0.9198;1.8769;
250.5000;0.9239;1.8896;
250.8000;0.9231;1.8819;
251.1000;0.9263;1.8972;
251.4000;0.9231;1.8870;
251.7000;0.9239;1.8819;
252.0000;0.9206;1.8743;
252.3000;0.9239;1.8870;
252.6000;0.9223;1.8870;
252.9000;0.9231;1.8946;
253.2000;0.9231;1.8946;
253.5000;0.9247;1.8896;
253.8000;0.9239;1.8870;
254.1000;0.9239;1.8819;
254.4000;0.9239;1.8718;
254.7000;0.9239;1.8718;
255.0000;0.9231;1.8743;
255.3000;0.9239;1.8819;
255.6000;0.9280;1.8896;
255.9000;0.9223;1.8743;
256.2000;0.9149;1.8642;
256.5000;0.9198;1.8769;
256.8000;0.9231;1.8769;
257.1000;0.9214;1.8769;
257.4000;0.9206;1.8794;
257.7000;0.9223;1.8896;
258.0000;0.9223;1.8946;
258.3000;0.9214;1.8743;
258.6000;0.9223;1.8794;
258.9000;0.9239;1.8718;
259.2000;0.9231;1.8667;
259.5000;0.9223;1.8718;
259.8000;0.9231;1.8743;
260.1000;0.9223;1.8693;
260.4000;0.9239;1.8743;
260.7000;0.9223;1.8769;
261.0000;0.9223;1.8794;
261.3000;0.9231;1.8845;
261.6000;0.9239;1.8845;
261.9000;0.9206;1.8845;
262.2000;0.9231;1.8946;
262.5000;0.9149;1.8693;
262.8000;0.9239;1.8921;
263.1000;0.9214;1.8845;
263.4000;0.9214;1.8845;
263.7000;0.9239;1.8896;
264.0000;0.9247;1.8896;
264.3000;0.9141;1.8515;
264.6000;0.9223;1.8769;
264.9000;0.9223;1.8769;
265.2000;0.9223;1.8845;
265.5000;0.9149;1.8617;
265.8000;0.9198;1.8693;
266.1000;0.9239;1.8769;
266.4000;0.9231;1.8845;
266.7000;0.9231;1.8870;
267.0000;0.9255;1.8946;
267.3000;0.9239;1.8946;
267.6000;0.9198;1.8845;
267.9000;0.9247;1.8972;
268.2000;0.9247;1.8997;
268.5000;0.9239;1.9048;
268.8000;0.9280;1.9200;
269.1000;0.9239;1.9048;
269.4000;0.9255;1.8997;
269.7000;0.9141;1.8794;
270.0000;0.9239;1.9022;
270.3000;0.9223;1.8946;
270.6000;0.9288;1.9048;
270.9000;0.9231;1.8870;
271.2000;0.9239;1.8870;
271.5000;0.9231;1.8845;
271.8000;0.9239;1.8896;
272.1000;0.9231;1.8845;
272.4000;0.9239;1.8819;
272.7000;0.9206;1.8743;
273.0000;0.9223;1.8769;
273.3000;0.9231;1.8794;
273.6000;0.9247;1.8718;
273.9000;0.9239;1.8667;
274.2000;0.9255;1.8794;
274.5000;0.9223;1.8743;
274.8000;0.9223;1.8743;
275.1000;0.9239;1.8819;
275.4000;0.9239;1.8845;
275.7000;0.9231;1.8819;
276.0000;0.9239;1.8743;
276.3000;0.9231;1.8718;
276.6000;0.9239;1.8794;
276.9000;0.9231;1.8794;
277.2000;0.9223;1.8819;
277.5000;0.9247;1.8819;
277.8000;0.9223;1.8946;
278.1000;0.9247;1.8921;
278.4000;0.9231;1.8845;
278.7000;0.9231;1.8870;
279.0000;0.9239;1.8870;
279.3000;0.9247;1.8896;
279.6000;0.9263;1.8896;
279.9000;0.9247;1.8845;
280.2000;0.9231;1.8946;
280.5000;0.9239;1.8921;
280.8000;0.9296;1.9098;
281.1000;0.9239;1.8997;
281.4000;0.9223;1.8921;
281.7000;0.9231;1.8845;
282.0000;0.9190;1.8718;
282.3000;0.9288;1.8845;
282.6000;0.9214;1.8769;
282.9000;0.9288;1.8921;
283.2000;0.9255;1.8819;
283.5000;0.9223;1.8693;
283.8000;0.9247;1.8769;
284.1000;0.9223;1.8794;
284.4000;0.9231;1.8718;
284.7000;0.9231;1.8743;
285.0000;0.9223;1.8743;
285.3000;0.9255;1.8769;
285.6000;0.9247;1.8819;
285.9000;0.9239;1.8921;
286.2000;0.9239;1.8845;
286.5000;0.9158;1.8617;
286.8000;0.9190;1.8693;
287.1000;0.9198;1.8819;
287.4000;0.9304;1.9048;
287.7000;0.9247;1.8921;
288.0000;0.9149;1.8743;
288.3000;0.9206;1.8870;
288.6000;0.9239;1.8921;
288.9000;0.9239;1.8972;
289.2000;0.9206;1.8870;
289.5000;0.9214;1.8794;
289.8000;0.9231;1.8896;
290.1000;0.9223;1.8896;
290.4000;0.9231;1.8845;
290.7000;0.9255;1.8870;
291.0000;0.9206;1.8794;
291.3000;0.9231;1.8946;
291.6000;0.9231;1.8972;
291.9000;0.9223;1.8946;
292.2000;0.9231;1.8972;
292.5000;0.9206;1.8972;
292.8000;0.9214;1.9048;
293.1000;0.9231;1.9073;
293.4000;0.9231;1.9073;
293.7000;0.9296;1.9251;
294.0000;0.9190;1.8946;
294.3000;0.9214;1.8997;
294.6000;0.9231;1.9022;
294.9000;0.9206;1.9022;
295.2000;0.9214;1.8997;
295.5000;0.9214;1.8946;
295.8000;0.9231;1.9048;
296.1000;0.9214;1.9048;
296.4000;0.9239;1.8972;
296.7000;0.9231;1.9022;
297.0000;0.9239;1.9048;
297.3000;0.9239;1.8997;
297.6000;0.9231;1.9048;
297.9000;0.9231;1.9124;
298.2000;0.9247;1.9124;
298.5000;0.9239;1.9149;
298.8000;0.9239;1.9149;
299.1000;0.9239;1.9048;
299.4000;0.9247;1.9073;
299.7000;0.9231;1.8997;
300.0000;0.9214;1.8921;
300.3000;0.9223;1.8946;
300.6000;0.9231;1.8921;
300.9000;0.9255;1.8946;
301.2000;0.9255;1.9022;
301.5000;0.9214;1.8946;
301.8000;0.9231;1.8946;
302.1000;0.9231;1.8921;
302.4000;0.9223;1.8972;
302.7000;0.9166;1.8845;
303.0000;0.9214;1.9149;
303.3000;0.9223;1.9149;
303.6000;0.9158;1.8896;
303.9000;0.9223;1.8997;
304.2000;0.9223;1.8972;
304.5000;0.9223;1.9022;
304.8000;0.9223;1.8972;
305.1000;0.9190;1.8921;
305.4000;0.9231;1.9073;
305.7000;0.9328;1.9276;
306.0000;0.9214;1.8921;
306.3000;0.9231;1.8819;
306.6000;0.9231;1.8769;
306.9000;0.9166;1.8667;
307.2000;0.9231;1.8896;
307.5000;0.9198;1.8845;
307.8000;0.9206;1.8870;
308.1000;0.9223;1.8921;
308.4000;0.9231;1.8997;
308.7000;0.9231;1.9048;
309.0000;0.9296;1.9174;
309.3000;0.9239;1.9048;
309.6000;0.9247;1.9022;
309.9000;0.9198;1.8845;
310.2000;0.9239;1.8794;
310.5000;0.9271;1.8870;
310.8000;0.9214;1.8743;
311.1000;0.9206;1.8693;
311.4000;0.9174;1.8718;
311.7000;0.9198;1.8769;
312.0000;0.9223;1.8870;
312.3000;0.9223;1.8921;
312.6000;0.9206;1.8997;
312.9000;0.9206;1.8997;
313.2000;0.9198;1.9073;
313.5000;0.9182;1.8997;
313.8000;0.9206;1.9022;
314.1000;0.9223;1.8921;
314.4000;0.9231;1.8972;
314.7000;0.9223;1.8921;
315.0000;0.9231;1.8997;
315.3000;0.9239;1.9022;
315.6000;0.9247;1.9073;
315.9000;0.9223;1.9048;
316.2000;0.9231;1.9149;
316.5000;0.9223;1.9149;
316.8000;0.9231;1.9149;
317.1000;0.9214;1.9149;
317.4000;0.9214;1.9124;
317.7000;0.9198;1.9073;
318.0000;0.9223;1.9073;
318.3000;0.9223;1.9098;
318.6000;0.9214;1.9098;
318.9000;0.9214;1.9022;
319.2000;0.9223;1.9022;
319.5000;0.9239;1.9124;
319.8000;0.9263;1.9124;
320.1000;0.9255;1.9225;
320.4000;0.9223;1.9124;
320.7000;0.9231;1.9149;
321.0000;0.9231;1.9149;
321.3000;0.9231;1.9124;
321.6000;0.9239;1.9174;
321.9000;0.9239;1.9174;
322.2000;0.9223;1.9124;
322.5000;0.9231;1.9149;
322.8000;0.9223;1.9073;
323.1000;0.9214;1.9149;
323.4000;0.9214;1.9098;
323.7000;0.9239;1.9327;
324.0000;0.9231;1.9276;
324.3000;0.9198;1.9200;
324.6000;0.9223;1.9276;
324.9000;0.9214;1.9276;
325.2000;0.9223;1.9327;
325.5000;0.9158;1.9048;
325.8000;0.9231;1.9327;
326.1000;0.9214;1.9377;
326.4000;0.9223;1.9301;
326.7000;0.9271;1.9301;
327.0000;0.9223;1.9251;
327.3000;0.9239;1.9225;
327.6000;0.9133;1.8946;
327.9000;0.9247;1.9149;
328.2000;0.9223;1.8921;
328.5000;0.9353;1.9251;
328.8000;0.9239;1.8997;
329.1000;0.9223;1.9048;
329.4000;0.9263;1.9073;
329.7000;0.9223;1.8997;
330.0000;0.9239;1.8819;
330.3000;0.9206;1.8617;
330.6000;0.9214;1.8743;
330.9000;0.9206;1.8794;
331.2000;0.9231;1.8946;
331.5000;0.9231;1.9048;
331.8000;0.9353;1.9428;
332.1000;0.9206;1.9098;
332.4000;0.9231;1.9098;
332.7000;0.9239;1.9200;
333.0000;0.9214;1.9149;
333.3000;0.9239;1.9098;
333.6000;0.9247;1.9174;
333.9000;0.9239;1.9174;
334.2000;0.9247;1.9200;
334.5000;0.9239;1.9098;
334.8000;0.9312;1.9251;
335.1000;0.9198;1.9022;
335.4000;0.9223;1.9225;
335.7000;0.9231;1.9251;
336.0000;0.9247;1.9352;
336.3000;0.9223;1.9327;
336.6000;0.9223;1.9327;
336.9000;0.9304;1.9530;
337.2000;0.9223;1.9301;
337.5000;0.9231;1.9276;
337.8000;0.9231;1.9225;
338.1000;0.9223;1.9149;
338.4000;0.9223;1.9098;
338.7000;0.9231;1.9048;
339.0000;0.9231;1.9124;
339.3000;0.9239;1.9098;
339.6000;0.9239;1.9124;
339.9000;0.9239;1.9225;
340.2000;0.9312;1.9453;
340.5000;0.9223;1.9098;
340.8000;0.9231;1.9048;
341.1000;0.9206;1.9073;
341.4000;0.9223;1.9124;
341.7000;0.9223;1.9124;
342.0000;0.9239;1.9225;
342.3000;0.9231;1.9149;
342.6000;0.9223;1.9098;
342.9000;0.9214;1.9200;
343.2000;0.9214;1.9073;
343.5000;0.9223;1.9124;
343.8000;0.9223;1.9098;
344.1000;0.9206;1.9098;
344.4000;0.9223;1.9200;
344.7000;0.9223;1.9200;
345.0000;0.9231;1.9200;
345.3000;0.9247;1.9225;
345.6000;0.9247;1.9225;
345.9000;0.9231;1.9073;
346.2000;0.9214;1.9073;
346.5000;0.9214;1.9149;
346.8000;0.9223;1.9149;
347.1000;0.9223;1.9225;
347.4000;0.9174;1.9174;
347.7000;0.9223;1.9251;
348.0000;0.9190;1.9174;
348.3000;0.9223;1.9352;
348.6000;0.9214;1.9403;
348.9000;0.9231;1.9428;
349.2000;0.9223;1.9377;
349.5000;0.9239;1.9403;
349.8000;0.9214;1.9251;
350.1000;0.9214;1.9174;
350.4000;0.9133;1.8896;
350.7000;0.9214;1.9149;
351.0000;0.9214;1.9200;
351.3000;0.9190;1.9124;
351.6000;0.9214;1.9225;
351.9000;0.9271;1.9327;
352.2000;0.9206;1.9276;
352.5000;0.9337;1.9555;
352.8000;0.9223;1.9276;
353.1000;0.9239;1.9251;
353.4000;0.9231;1.9124;
353.7000;0.9239;1.9098;
354.0000;0.9255;1.9174;
354.3000;0.9239;1.9174;
354.6000;0.9255;1.9124;
354.9000;0.9190;1.8972;
355.2000;0.9255;1.9098;
355.5000;0.9255;1.9098;
355.8000;0.9223;1.9022;
356.1000;0.9198;1.8997;
356.4000;0.9271;1.9174;
356.7000;0.9198;1.9048;
357.0000;0.9239;1.9174;
357.3000;0.9255;1.9200;
357.6000;0.9231;1.9225;
357.9000;0.9247;1.9174;
358.2000;0.9223;1.9098;
358.5000;0.9223;1.9098;
358.8000;0.9231;1.9149;
359.1000;0.9247;1.9251;
359.4000;0.9190;1.9174;
359.7000;0.9304;1.9403;
360.0000;0.9223;1.9225;
360.3000;0.9231;1.9225;
360.6000;0.9231;1.9251;
360.9000;0.9231;1.9251;
361.2000;0.9125;1.8997;
361.5000;0.9223;1.9251;
361.8000;0.9231;1.9251;
362.1000;0.9223;1.9174;
362.4000;0.9223;1.9124;
362.7000;0.9288;1.9301;
363.0000;0.9223;1.9149;
363.3000;0.9231;1.9200;
363.6000;0.9304;1.9327;
363.9000;0.9231;1.9124;
364.2000;0.9312;1.9403;
364.5000;0.9231;1.9327;
364.8000;0.9247;1.9377;
365.1000;0.9223;1.9301;
365.4000;0.9255;1.9276;
365.7000;0.9247;1.9174;
366.0000;0.9198;1.9073;
366.3000;0.9223;1.9149;
366.6000;0.9223;1.9149;
366.9000;0.9223;1.9098;
367.2000;0.9239;1.9225;
367.5000;0.9231;1.9174;
367.8000;0.9231;1.9073;
368.1000;0.9231;1.9225;
368.4000;0.9231;1.9174;
368.7000;0.9247;1.9225;
369.0000;0.9125;1.8972;
369.3000;0.9247;1.9403;
369.6000;0.9231;1.9352;
369.9000;0.9231;1.9352;
370.2000;0.9190;1.9124;
370.5000;0.9247;1.9200;
370.8000;0.9231;1.9200;
371.1000;0.9214;1.9124;
371.4000;0.9239;1.9174;
371.7000;0.9223;1.9048;
372.0000;0.9182;1.8997;
372.3000;0.9206;1.9073;
372.6000;0.9214;1.9048;
372.9000;0.9353;1.9428;
373.2000;0.9231;1.9225;
373.5000;0.9239;1.9251;
373.8000;0.9214;1.9251;
374.1000;0.9239;1.9352;
374.4000;0.9410;1.9809;
374.7000;0.9223;1.9276;
375.0000;0.9263;1.9352;
375.3000;0.9231;1.9352;
375.6000;0.9231;1.9301;
375.9000;0.9239;1.9352;
376.2000;0.9214;1.9301;
376.5000;0.9231;1.9276;
376.8000;0.9214;1.9301;
377.1000;0.9239;1.9377;
377.4000;0.9206;1.9251;
377.7000;0.9206;1.9276;
378.0000;0.9198;1.9251;
378.3000;0.9166;1.9098;
378.6000;0.9239;1.9453;
378.9000;0.9231;1.9403;
379.2000;0.9190;1.9251;
379.5000;0.9271;1.9453;
379.8000;0.9198;1.9251;
380.1000;0.9206;1.9377;
380.4000;0.9206;1.9327;
380.7000;0.9206;1.9301;
381.0000;0.9223;1.9428;
381.3000;0.9141;1.9149;
381.6000;0.9206;1.9352;
381.9000;0.9223;1.9428;
382.2000;0.9345;1.9707;
382.5000;0.9296;1.9504;
382.8000;0.9280;1.9377;
383.1000;0.9231;1.9276;
383.4000;0.9239;1.9276;
383.7000;0.9231;1.9225;
384.0000;0.9239;1.9225;
384.3000;0.9255;1.9251;
384.6000;0.9255;1.9251;
384.9000;0.9239;1.9124;
385.2000;0.9174;1.8972;
385.5000;0.9214;1.9048;
385.8000;0.9231;1.9073;
386.1000;0.9223;1.9048;
386.4000;0.9223;1.8997;
386.7000;0.9337;1.9352;
387.0000;0.9239;1.9022;
387.3000;0.9231;1.9124;
387.6000;0.9239;1.9098;
387.9000;0.9223;1.9022;
388.2000;0.9231;1.8997;
388.5000;0.9223;1.9073;
388.8000;0.9214;1.9124;
389.1000;0.9206;1.9098;
389.4000;0.9214;1.9225;
389.7000;0.9223;1.9251;
390.0000;0.9206;1.9200;
390.3000;0.9223;1.9174;
390.6000;0.9198;1.9149;
390.9000;0.9239;1.9225;
391.2000;0.9280;1.9276;
391.5000;0.9214;1.9124;
391.8000;0.9214;1.9098;
392.1000;0.9214;1.9098;
392.4000;0.9247;1.9200;
392.7000;0.9223;1.9124;
393.0000;0.9231;1.9048;
393.3000;0.9223;1.8997;
393.6000;0.9190;1.8921;
393.9000;0.9247;1.8997;
394.2000;0.9223;1.8997;
394.5000;0.9214;1.9098;
394.8000;0.9231;1.9200;
395.1000;0.9263;1.9276;
395.4000;0.9231;1.9276;
395.7000;0.9214;1.9225;
396.0000;0.9239;1.9225;
396.3000;0.9231;1.9251;
396.6000;0.9223;1.9225;
396.9000;0.9158;1.9073;
397.2000;0.9223;1.9174;
397.5000;0.9223;1.9124;
397.8000;0.9223;1.8946;
398.1000;0.9231;1.8997;
398.4000;0.9223;1.8946;
398.7000;0.9304;1.9149;
399.0000;0.9223;1.9073;
399.3000;0.9231;1.9073;
399.6000;0.9223;1.9098;
399.9000;0.9239;1.9174;
400.2000;0.9223;1.9225;
400.5000;0.9223;1.9327;
400.8000;0.9214;1.9352;
401.1000;0.9214;1.9276;
401.4000;0.9223;1.9327;
401.7000;0.9239;1.9352;
402.0000;0.9223;1.9276;
402.3000;0.9182;1.9301;
402.6000;0.9198;1.9352;
402.9000;0.9239;1.9403;
403.2000;0.9231;1.9403;
403.5000;0.9190;1.9276;
403.8000;0.9239;1.9352;
404.1000;0.9231;1.9453;
404.4000;0.9239;1.9377;
404.7000;0.9231;1.9377;
405.0000;0.9231;1.9301;
405.3000;0.9223;1.9225;
405.6000;0.9214;1.9149;
405.9000;0.9231;1.9149;
406.2000;0.9296;1.9352;
406.5000;0.9214;1.9073;
406.8000;0.9206;1.9022;
407.1000;0.9214;1.9073;
407.4000;0.9231;1.9149;
407.7000;0.9214;1.9174;
408.0000;0.9214;1.9174;
408.3000;0.9214;1.9225;
408.6000;0.9231;1.9225;
408.9000;0.9239;1.9301;
409.2000;0.9247;1.9301;
409.5000;0.9214;1.9200;
409.8000;0.9247;1.9225;
410.1000;0.9239;1.9225;
410.4000;0.9223;1.9276;
410.7000;0.9231;1.9327;
411.0000;0.9231;1.9251;
411.3000;0.9247;1.9200;
411.6000;0.9223;1.9225;
411.9000;0.9206;1.9225;
412.2000;0.9247;1.9276;
412.5000;0.9231;1.9149;
412.8000;0.9231;1.9124;
413.1000;0.9223;1.9098;
413.4000;0.9206;1.9149;
413.7000;0.9223;1.9149;
414.0000;0.9239;1.9251;
414.3000;0.9190;1.9124;
414.6000;0.9223;1.9225;
414.9000;0.9223;1.9098;
415.2000;0.9223;1.9073;
415.5000;0.9239;1.9048;
415.8000;0.9214;1.8921;
416.1000;0.9239;1.8972;
416.4000;0.9214;1.8946;
416.7000;0.9231;1.9022;
417.0000;0.9206;1.9048;
417.3000;0.9223;1.9073;
417.6000;0.9239;1.9149;
417.9000;0.9239;1.9124;
418.2000;0.9239;1.9200;
418.5000;0.9231;1.9174;
418.8000;0.9223;1.9174;
419.1000;0.9247;1.9352;
419.4000;0.9214;1.9276;
419.7000;0.9239;1.9276;
420.0000;0.9223;1.9225;
420.3000;0.9214;1.9225;
420.6000;0.9231;1.9251;
420.9000;0.9247;1.9251;
421.2000;0.9231;1.9149;
421.5000;0.9206;1.9098;
421.8000;0.9149;1.9022;
422.1000;0.9247;1.9149;
422.4000;0.9206;1.9124;
422.7000;0.9198;1.9073;
423.0000;0.9149;1.8946;
423.3000;0.9214;1.9048;
423.6000;0.9214;1.9073;
423.9000;0.9223;1.9098;
424.2000;0.9223;1.9073;
424.5000;0.9271;1.9174;
424.8000;0.9206;1.9022;
425.1000;0.9239;1.9098;
425.4000;0.9239;1.9124;
425.7000;0.9239;1.9098;
426.0000;0.9239;1.9098;
426.3000;0.9214;1.9174;
426.6000;0.9223;1.9124;
426.9000;0.9231;1.9251;
427.2000;0.9206;1.9124;
427.5000;0.9223;1.9149;
427.8000;0.9223;1.9149;
428.1000;0.9247;1.9225;
428.4000;0.9239;1.9251;
428.7000;0.9231;1.9251;
429.0000;0.9239;1.9276;
429.3000;0.9247;1.9251;
429.6000;0.9239;1.9225;
429.9000;0.9214;1.9225;
430.2000;0.9214;1.9174;
430.5000;0.9223;1.9174;
430.8000;0.9223;1.9124;
431.1000;0.9214;1.8896;
431.4000;0.9214;1.8870;
431.7000;0.9223;1.8921;
432.0000;0.9198;1.8972;
432.3000;0.9174;1.8972;
432.6000;0.9214;1.8997;
432.9000;0.9206;1.8972;
433.2000;0.9214;1.8997;
433.5000;0.9198;1.8997;
433.8000;0.9190;1.8997;
434.1000;0.9214;1.8845;
434.4000;0.9223;1.8896;
434.7000;0.9214;1.8870;
435.0000;0.9223;1.8794;
435.3000;0.9223;1.8769;
435.6000;0.9231;1.8819;
435.9000;0.9206;1.8693;
436.2000;0.9198;1.8642;
436.5000;0.9190;1.8693;
436.8000;0.9214;1.8819;
437.1000;0.9206;1.8769;
437.4000;0.9214;1.8769;
437.7000;0.9223;1.8769;
438.0000;0.9206;1.8693;
438.3000;0.9214;1.8718;
438.6000;0.9206;1.8693;
438.9000;0.9223;1.8769;
439.2000;0.9166;1.8794;
439.5000;0.9206;1.8870;
439.8000;0.9223;1.8921;
440.1000;0.9223;1.9048;
440.4000;0.9353;1.9301;
440.7000;0.9206;1.9048;
441.0000;0.9206;1.8997;
441.3000;0.9214;1.9022;
441.6000;0.9239;1.9124;
441.9000;0.9223;1.9149;
442.2000;0.9247;1.9225;
442.5000;0.9239;1.9124;
442.8000;0.9231;1.9073;
443.1000;0.9239;1.9022;
443.4000;0.9288;1.9149;
443.7000;0.9198;1.8870;
444.0000;0.9223;1.8870;
444.3000;0.9247;1.8946;
444.6000;0.9239;1.8870;
444.9000;0.9158;1.8642;
445.2000;0.9223;1.8896;
445.5000;0.9231;1.9022;
445.8000;0.9223;1.9149;
446.1000;0.9263;1.9225;
446.4000;0.9231;1.9073;
446.7000;0.9223;1.9098;
447.0000;0.9223;1.9073;
447.3000;0.9239;1.9073;
447.6000;0.9214;1.9022;
447.9000;0.9214;1.9048;
448.2000;0.9239;1.9098;
448.5000;0.9288;1.9251;
448.8000;0.9223;1.9124;
449.1000;0.9239;1.9149;
449.4000;0.9239;1.9149;
449.7000;0.9214;1.9048;
450.0000;0.9214;1.9048;
450.3000;0.9206;1.9048;
450.6000;0.9231;1.9098;
450.9000;0.9263;1.9200;
451.2000;0.9223;1.9022;
451.5000;0.9239;1.9022;
451.8000;0.9231;1.9022;
452.1000;0.9223;1.9022;
452.4000;0.9206;1.9048;
452.7000;0.9206;1.9124;
453.0000;0.9206;1.9124;
453.3000;0.9255;1.9327;
453.6000;0.9206;1.9174;
453.9000;0.9206;1.9124;
454.2000;0.9206;1.9022;
454.5000;0.9214;1.9124;
454.8000;0.9214;1.9174;
455.1000;0.9198;1.9149;
455.4000;0.9223;1.9251;
455.7000;0.9206;1.9377;
456.0000;0.9214;1.9327;
456.3000;0.9214;1.9301;
456.6000;0.9223;1.9301;
456.9000;0.9198;1.9174;
457.2000;0.9223;1.9124;
457.5000;0.9206;1.9174;
457.8000;0.9214;1.9200;
458.1000;0.9206;1.9174;
458.4000;0.9223;1.9174;
458.7000;0.9223;1.9174;
459.0000;0.9206;1.9149;
459.3000;0.9214;1.9073;
459.6000;0.9223;1.9073;
459.9000;0.9223;1.9098;
460.2000;0.9206;1.9200;
460.5000;0.9223;1.9200;
460.8000;0.9206;1.9149;
461.1000;0.9223;1.9124;
461.4000;0.9223;1.9098;
461.7000;0.9214;1.9048;
462.0000;0.9214;1.9048;
462.3000;0.9231;1.9048;
462.6000;0.9223;1.8997;
462.9000;0.9174;1.8845;
463.2000;0.9231;1.9022;
463.5000;0.9223;1.9048;
463.8000;0.9223;1.9048;
464.1000;0.9231;1.9098;
464.4000;0.9206;1.9048;
464.7000;0.9214;1.8972;
465.0000;0.9214;1.9073;
465.3000;0.9223;1.9200;
465.6000;0.9231;1.9149;
465.9000;0.9174;1.8972;
466.2000;0.9255;1.9149;
466.5000;0.9206;1.8997;
466.8000;0.9223;1.9022;
467.1000;0.9214;1.9022;
467.4000;0.9337;1.9327;
467.7000;0.9214;1.9022;
468.0000;0.9182;1.8972;
468.3000;0.9247;1.9073;
468.6000;0.9206;1.9073;
468.9000;0.9231;1.9225;
469.2000;0.9214;1.9200;
469.5000;0.9247;1.9251;
469.8000;0.9214;1.9251;
470.1000;0.9214;1.9174;
470.4000;0.9239;1.9098;
470.7000;0.9231;1.9073;
471.0000;0.9223;1.9073;
471.3000;0.9158;1.8870;
471.6000;0.9214;1.8972;
471.9000;0.9214;1.9022;
472.2000;0.9231;1.9048;
472.5000;0.9190;1.8946;
472.8000;0.9214;1.9022;
473.1000;0.9214;1.8997;
473.4000;0.9206;1.9048;
473.7000;0.9223;1.9149;
474.0000;0.9247;1.9225;
474.3000;0.9239;1.9301;
474.6000;0.9223;1.9276;
474.9000;0.9239;1.9251;
475.2000;0.9223;1.9174;
475.5000;0.9337;1.9453;
475.8000;0.9231;1.9225;
476.1000;0.9182;1.9048;
476.4000;0.9214;1.9124;
476.7000;0.9206;1.9022;
477.0000;0.9206;1.8997;
477.3000;0.9198;1.9048;
477.6000;0.9206;1.9073;
477.9000;0.9198;1.9073;
478.2000;0.9190;1.9073;
478.5000;0.9206;1.9149;
478.8000;0.9206;1.9251;
479.1000;0.9231;1.9327;
479.4000;0.9214;1.9251;
479.7000;0.9206;1.9200;
480.0000;0.9231;1.9301;
480.3000;0.9214;1.9327;
480.6000;0.9206;1.9301;
480.9000;0.9231;1.9251;
481.2000;0.9296;1.9377;
481.5000;0.9206;1.9174;
481.8000;0.9190;1.9124;
482.1000;0.9198;1.9149;
482.4000;0.9206;1.9251;
482.7000;0.9223;1.9251;
483.0000;0.9214;1.9251;
483.3000;0.9206;1.9251;
483.6000;0.9117;1.9048;
483.9000;0.9231;1.9403;
484.2000;0.9231;1.9352;
484.5000;0.9231;1.9251;
484.8000;0.9223;1.9327;
485.1000;0.9223;1.9428;
485.4000;0.9239;1.9479;
485.7000;0.9223;1.9580;
486.0000;0.9361;1.9935;
486.3000;0.9223;1.9580;
486.6000;0.9231;1.9530;
486.9000;0.9223;1.9530;
487.2000;0.9214;1.9453;
487.5000;0.9231;1.9403;
487.8000;0.9231;1.9327;
488.1000;0.9231;1.9251;
488.4000;0.9223;1.9251;
488.7000;0.9231;1.9200;
489.0000;0.9223;1.9174;
489.3000;0.9198;1.9149;
489.6000;0.9206;1.9149;
489.9000;0.9223;1.9200;
490.2000;0.9223;1.9225;
490.5000;0.9223;1.9149;
490.8000;0.9231;1.9225;
491.1000;0.9223;1.9301;
491.4000;0.9223;1.9377;
491.7000;0.9214;1.9352;
492.0000;0.9231;1.9251;
492.3000;0.9206;1.9149;
492.6000;0.9190;1.9200;
492.9000;0.9214;1.9225;
493.2000;0.9149;1.8946;
493.5000;0.9263;1.9200;
493.8000;0.9223;1.9098;
494.1000;0.9198;1.9098;
494.4000;0.9223;1.9098;
494.7000;0.9206;1.8972;
495.0000;0.9223;1.8946;
495.3000;0.9231;1.9022;
495.6000;0.9214;1.9048;
495.9000;0.9198;1.9022;
496.2000;0.9214;1.9149;
496.5000;0.9223;1.9124;
496.8000;0.9206;1.9225;
497.1000;0.9109;1.8997;
497.4000;0.9206;1.9174;
497.7000;0.9223;1.9174;
498.0000;0.9223;1.9225;
498.3000;0.9214;1.9124;
498.6000;0.9231;1.9124;
498.9000;0.9247;1.9174;
499.2000;0.9214;1.9048;
499.5000;0.9328;1.9200;
499.8000;0.9231;1.9048;
500.1000;0.9247;1.9073;
500.4000;0.9223;1.9022;
500.7000;0.9239;1.9022;
501.0000;0.9231;1.8997;
501.3000;0.9231;1.8997;
501.6000;0.9231;1.9022;
501.9000;0.9214;1.8946;
502.2000;0.9223;1.8946;
502.5000;0.9231;1.9022;
502.8000;0.9231;1.9073;
503.1000;0.9214;1.8972;
503.4000;0.9231;1.8972;
503.7000;0.9214;1.8896;
504.0000;0.9231;1.8870;
504.3000;0.9214;1.8870;
504.6000;0.9239;1.8845;
504.9000;0.9206;1.8718;
505.2000;0.9214;1.8794;
505.5000;0.9214;1.8718;
505.8000;0.9190;1.8693;
506.1000;0.9206;1.8769;
506.4000;0.9223;1.8769;
506.7000;0.9231;1.8870;
507.0000;0.9174;1.8794;
507.3000;0.9190;1.8896;
507.6000;0.9214;1.8870;
507.9000;0.9214;1.8870;
508.2000;0.9223;1.8972;
508.5000;0.9206;1.8921;
508.8000;0.9214;1.8972;
509.1000;0.9206;1.8972;
509.4000;0.9223;1.9022;
509.7000;0.9223;1.8972;
510.0000;0.9214;1.8946;
510.3000;0.9223;1.8845;
510.6000;0.9223;1.8769;
510.9000;0.9239;1.8743;
511.2000;0.9223;1.8819;
511.5000;0.9190;1.8819;
511.8000;0.9231;1.8946;
512.1000;0.9231;1.8896;
512.4000;0.9231;1.8946;
512.7000;0.9214;1.9022;
513.0000;0.9206;1.9073;
513.3000;0.9223;1.9073;
513.6000;0.9141;1.8743;
513.9000;0.9231;1.8921;
514.2000;0.9109;1.8667;
514.5000;0.9190;1.8896;
514.8000;0.9231;1.9073;
515.1000;0.9231;1.9073;
515.4000;0.9223;1.9073;
515.7000;0.9280;1.9225;
516.0000;0.9214;1.9073;
516.3000;0.9223;1.9048;
516.6000;0.9214;1.9073;
516.9000;0.9214;1.8946;
517.2000;0.9206;1.9022;
517.5000;0.9198;1.9022;
517.8000;0.9263;1.9098;
518.1000;0.9174;1.8921;
518.4000;0.9198;1.8997;
518.7000;0.9223;1.8946;
519.0000;0.9214;1.8870;
519.3000;0.9214;1.8921;
519.6000;0.9223;1.8896;
519.9000;0.9231;1.8997;
520.2000;0.9223;1.8997;
520.5000;0.9247;1.9022;
520.8000;0.9214;1.8972;
521.1000;0.9223;1.8921;
521.4000;0.9223;1.8997;
521.7000;0.9214;1.8997;
522.0000;0.9214;1.9022;
522.3000;0.9288;1.9225;
522.6000;0.9214;1.8997;
522.9000;0.9231;1.9048;
523.2000;0.9255;1.9098;
523.5000;0.9206;1.8946;
523.8000;0.9206;1.8972;
524.1000;0.9206;1.8946;
524.4000;0.9214;1.8972;
524.7000;0.9214;1.8997;
525.0000;0.9206;1.8946;
525.3000;0.9214;1.8946;
525.6000;0.9239;1.8997;
525.9000;0.9223;1.8921;
526.2000;0.9231;1.8997;
526.5000;0.9223;1.9073;
526.8000;0.9206;1.9098;
527.1000;0.9231;1.9098;
527.4000;0.9239;1.9149;
527.7000;0.9223;1.9048;
528.0000;0.9214;1.8997;
528.3000;0.9174;1.8921;
528.6000;0.9214;1.9073;
528.9000;0.9174;1.8946;
529.2000;0.9214;1.9048;
529.5000;0.9223;1.9098;
529.8000;0.9239;1.9174;
530.1000;0.9214;1.9149;
530.4000;0.9214;1.9200;
530.7000;0.9231;1.9276;
531.0000;0.9231;1.9251;
531.3000;0.9214;1.9200;
531.6000;0.9206;1.9174;
531.9000;0.9214;1.9225;
532.2000;0.9206;1.9124;
532.5000;0.9190;1.9149;
532.8000;0.9190;1.9149;
533.1000;0.9214;1.9225;
533.4000;0.9223;1.9225;
533.7000;0.9231;1.9200;
534.0000;0.9214;1.9149;
534.3000;0.9214;1.9073;
534.6000;0.9190;1.8946;
534.9000;0.9214;1.9073;
535.2000;0.9231;1.9098;
535.5000;0.9190;1.9073;
535.8000;0.9223;1.9149;
536.1000;0.9223;1.9124;
536.4000;0.9223;1.9174;
536.7000;0.9206;1.9073;
537.0000;0.9231;1.9098;
537.3000;0.9214;1.9098;
537.6000;0.9149;1.8870;
537.9000;0.9231;1.9048;
538.2000;0.9214;1.9098;
538.5000;0.9190;1.9124;
538.8000;0.9198;1.9124;
539.1000;0.9206;1.9174;
539.4000;0.9158;1.8972;
539.7000;0.9271;1.9251;
540.0000;0.9214;1.9174;
540.3000;0.9190;1.9073;
540.6000;0.9190;1.9251;
540.9000;0.9182;1.9251;
541.2000;0.9231;1.9327;
541.5000;0.9223;1.9352;
541.8000;0.9214;1.9225;
542.1000;0.9231;1.9225;
542.4000;0.9214;1.9225;
542.7000;0.9198;1.9225;
543.0000;0.9206;1.9327;
543.3000;0.9223;1.9327;
543.6000;0.9223;1.9276;
543.9000;0.9223;1.9200;
544.2000;0.9214;1.9149;
544.5000;0.9231;1.9124;
544.8000;0.9206;1.9149;
545.1000;0.9141;1.8946;
545.4000;0.9223;1.9200;
545.7000;0.9214;1.9200;
546.0000;0.9231;1.9251;
546.3000;0.9206;1.9073;
546.6000;0.9214;1.9149;
546.9000;0.9214;1.9124;
547.2000;0.9214;1.9174;
547.5000;0.9206;1.9174;
547.8000;0.9214;1.9174;
548.1000;0.9214;1.9200;
548.4000;0.9206;1.9124;
548.7000;0.9223;1.9200;
549.0000;0.9231;1.9225;
549.3000;0.9206;1.9200;
549.6000;0.9239;1.9327;
549.9000;0.9231;1.9327;
550.2000;0.9206;1.9225;
550.5000;0.9223;1.9276;
550.8000;0.9198;1.9251;
551.1000;0.9255;1.9301;
551.4000;0.9223;1.9251;
551.7000;0.9263;1.9453;
552.0000;0.9214;1.9428;
552.3000;0.9223;1.9301;
552.6000;0.9288;1.9428;
552.9000;0.9190;1.9301;
553.2000;0.9198;1.9352;
553.5000;0.9214;1.9479;
553.8000;0.9247;1.9606;
554.1000;0.9223;1.9530;
554.4000;0.9206;1.9479;
554.7000;0.9231;1.9428;
555.0000;0.9223;1.9453;
555.3000;0.9206;1.9352;
555.6000;0.9223;1.9352;
555.9000;0.9174;1.9276;
556.2000;0.9214;1.9479;
556.5000;0.9223;1.9504;
556.8000;0.9206;1.9352;
557.1000;0.9247;1.9352;
557.4000;0.9223;1.9327;
557.7000;0.9247;1.9327;
558.0000;0.9231;1.9352;
558.3000;0.9271;1.9453;
558.6000;0.9231;1.9352;
558.9000;0.9214;1.9327;
559.2000;0.9214;1.9301;
559.5000;0.9280;1.9403;
559.8000;0.9231;1.9276;
560.1000;0.9223;1.9200;
560.4000;0.9231;1.9276;
560.7000;0.9223;1.9251;
561.0000;0.9214;1.9225;
561.3000;0.9223;1.9149;
561.6000;0.9141;1.8896;
561.9000;0.9206;1.9073;
562.2000;0.9214;1.9098;
562.5000;0.9182;1.9098;
562.8000;0.9247;1.9276;
563.1000;0.9214;1.9149;
563.4000;0.9223;1.9200;
563.7000;0.9166;1.9048;
564.0000;0.9206;1.9225;
564.3000;0.9223;1.9225;
564.6000;0.9214;1.9124;
564.9000;0.9231;1.9251;
565.2000;0.9198;1.9174;
565.5000;0.9198;1.9124;
565.8000;0.9214;1.9073;
566.1000;0.9223;1.9149;
566.4000;0.9223;1.9200;
566.7000;0.9214;1.9301;
567.0000;0.9198;1.9225;
567.3000;0.9182;1.9174;
567.6000;0.9223;1.9200;
567.9000;0.9214;1.9225;
568.2000;0.9231;1.9251;
568.5000;0.9198;1.9200;
568.8000;0.9214;1.9251;
569.1000;0.9296;1.9428;
569.4000;0.9214;1.9174;
569.7000;0.9223;1.9200;
570.0000;0.9231;1.9301;
570.3000;0.9214;1.9251;
570.6000;0.9214;1.9251;
570.9000;0.9223;1.9174;
571.2000;0.9214;1.9200;
571.5000;0.9223;1.9149;
571.8000;0.9231;1.9098;
572.1000;0.9214;1.9048;
572.4000;0.9206;1.9048;
572.7000;0.9214;1.9098;
573.0000;0.9214;1.9048;
573.3000;0.9214;1.9022;
573.6000;0.9214;1.8997;
573.9000;0.9263;1.9225;
574.2000;0.9231;1.9124;
574.5000;0.9214;1.9098;
574.8000;0.9312;1.9352;
575.1000;0.9214;1.9048;
575.4000;0.9231;1.9073;
575.7000;0.9141;1.8845;
576.0000;0.9206;1.8946;
576.3000;0.9214;1.9022;
576.6000;0.9190;1.8896;
576.9000;0.9206;1.8997;
577.2000;0.9166;1.8870;
577.5000;0.9214;1.9073;
577.8000;0.9206;1.8972;
578.1000;0.9214;1.8921;
578.4000;0.9206;1.8896;
578.7000;0.9206;1.8896;
579.0000;0.9198;1.8896;
579.3000;0.9231;1.9022;
579.6000;0.9214;1.8946;
579.9000;0.9198;1.8896;
580.2000;0.9255;1.9073;
580.5000;0.9223;1.9022;
580.8000;0.9223;1.9098;
581.1000;0.9214;1.9124;
581.4000;0.9231;1.9174;
581.7000;0.9206;1.9098;
582.0000;0.9092;1.8769;
582.3000;0.9206;1.8946;
582.6000;0.9166;1.8870;
582.9000;0.9231;1.8997;
583.2000;0.9206;1.8845;
583.5000;0.9214;1.8870;
583.8000;0.9206;1.8870;
584.1000;0.9206;1.8819;
584.4000;0.9206;1.8946;
584.7000;0.9231;1.8972;
585.0000;0.9206;1.8819;
585.3000;0.9206;1.8946;
585.6000;0.9214;1.8972;
585.9000;0.9280;1.9200;
586.2000;0.9190;1.9048;
586.5000;0.9198;1.8997;
586.8000;0.9231;1.9022;
587.1000;0.9223;1.9022;
587.4000;0.9190;1.8921;
587.7000;0.9214;1.9022;
588.0000;0.9239;1.9124;
588.3000;0.9271;1.9225;
588.6000;0.9239;1.9098;
588.9000;0.9239;1.9098;
589.2000;0.9239;1.9200;
589.5000;0.9206;1.9149;
589.8000;0.9214;1.9200;
590.1000;0.9231;1.9174;
590.4000;0.9231;1.9098;
590.7000;0.9214;1.8997;
591.0000;0.9223;1.8845;
591.3000;0.9198;1.8845;
591.6000;0.9206;1.8870;
591.9000;0.9206;1.8845;
592.2000;0.9231;1.8870;
592.5000;0.9247;1.8896;
592.8000;0.9214;1.8870;
593.1000;0.9223;1.8693;
593.4000;0.9271;1.8896;
593.7000;0.9214;1.8845;
594.0000;0.9231;1.8794;
594.3000;0.9239;1.8921;
594.6000;0.9223;1.8845;
594.9000;0.9214;1.8819;
595.2000;0.9214;1.8921;
595.5000;0.9231;1.8946;
595.8000;0.9223;1.8972;
596.1000;0.9206;1.8946;
596.4000;0.9223;1.8921;
596.7000;0.9214;1.8997;
597.0000;0.9239;1.9073;
597.3000;0.9214;1.9048;
597.6000;0.9198;1.9022;
597.9000;0.9214;1.9124;
598.2000;0.9198;1.9124;
598.5000;0.9214;1.9174;
598.8000;0.9223;1.9174;
599.1000;0.9198;1.9098;
599.4000;0.9223;1.9124;
599.7000;0.9223;1.9048;
600.0000;0.9223;1.9022;
600.3000;0.9158;1.8667;
600.6000;0.9231;1.8642;
600.9000;0.9255;1.8642;
601.2000;0.9214;1.8312;
601.5000;0.9149;1.7982;
601.8000;0.9109;1.7703;
602.1000;0.9117;1.7526;
602.4000;0.9035;1.7171;
602.7000;0.8970;1.6790;
603.0000;0.8938;1.6562;
603.3000;0.8889;1.6334;
603.6000;0.8873;1.6207;
603.9000;0.8824;1.5979;
604.2000;0.8799;1.5903;
604.5000;0.8775;1.5750;
604.8000;0.8726;1.5649;
605.1000;0.8669;1.5497;
605.4000;0.8653;1.5446;
605.7000;0.8645;1.5395;
606.0000;0.8612;1.5269;
606.3000;0.8596;1.5142;
606.6000;0.8563;1.4913;
606.9000;0.8506;1.4787;
607.2000;0.8449;1.4660;
607.5000;0.8490;1.4685;
607.8000;0.8441;1.4558;
608.1000;0.8441;1.4558;
608.4000;0.8482;1.4761;
608.7000;0.8400;1.4533;
609.0000;0.8376;1.4584;
609.3000;0.8352;1.4457;
609.6000;0.8352;1.4432;
609.9000;0.8335;1.4381;
610.2000;0.8303;1.4305;
610.5000;0.8287;1.4229;
610.8000;0.8254;1.4102;
611.1000;0.8278;1.4127;
611.4000;0.8238;1.4000;
611.7000;0.8221;1.3950;
612.0000;0.8221;1.3899;
612.3000;0.8189;1.3848;
612.6000;0.8181;1.3874;
612.9000;0.8181;1.3874;
613.2000;0.8156;1.3899;
613.5000;0.8140;1.3924;
613.8000;0.8140;1.4000;
614.1000;0.8116;1.4051;
614.4000;0.8124;1.4102;
614.7000;0.8107;1.4077;
615.0000;0.8107;1.4077;
615.3000;0.8075;1.4051;
615.6000;0.8083;1.4127;
615.9000;0.8059;1.4102;
616.2000;0.8059;1.4051;
616.5000;0.8002;1.3899;
616.8000;0.8010;1.3975;
617.1000;0.8018;1.3950;
617.4000;0.8002;1.3848;
617.7000;0.8010;1.3798;
618.0000;0.7993;1.3772;
618.3000;0.8026;1.3747;
618.6000;0.8002;1.3721;
618.9000;0.8010;1.3823;
619.2000;0.7977;1.3848;
619.5000;0.7969;1.3899;
619.8000;0.7961;1.3823;
620.1000;0.7945;1.3874;
620.4000;0.7904;1.3772;
620.7000;0.7945;1.3798;
621.0000;0.7928;1.3848;
621.3000;0.7896;1.3772;
621.6000;0.7904;1.3772;
621.9000;0.7904;1.3848;
622.2000;0.7985;1.4051;
622.5000;0.7896;1.3848;
622.8000;0.7839;1.3595;
623.1000;0.7871;1.3671;
623.4000;0.7871;1.3595;
623.7000;0.7871;1.3645;
624.0000;0.7880;1.3671;
624.3000;0.7863;1.3696;
624.6000;0.7855;1.3696;
624.9000;0.7863;1.3721;
625.2000;0.7871;1.3696;
625.5000;0.7831;1.3519;
625.8000;0.7847;1.3620;
626.1000;0.7855;1.3645;
626.4000;0.7823;1.3645;
626.7000;0.7855;1.3772;
627.0000;0.7823;1.3671;
627.3000;0.7798;1.3544;
627.6000;0.7847;1.3696;
627.9000;0.7798;1.3519;
628.2000;0.7863;1.3747;
628.5000;0.7798;1.3595;
628.8000;0.7709;1.3442;
629.1000;0.7766;1.3569;
629.4000;0.7774;1.3569;
629.7000;0.7839;1.3721;
630.0000;0.7847;1.3823;
630.3000;0.7847;1.3823;
630.6000;0.7831;1.3721;
630.9000;0.7749;1.3493;
631.2000;0.7660;1.3265;
631.5000;0.7774;1.3620;
631.8000;0.7766;1.3595;
632.1000;0.7757;1.3620;
632.4000;0.7757;1.3645;
632.7000;0.7757;1.3595;
633.0000;0.7717;1.3468;
633.3000;0.7660;1.3341;
633.6000;0.7660;1.3341;
633.9000;0.7725;1.3569;
634.2000;0.7717;1.3442;
634.5000;0.7717;1.3341;
634.8000;0.7725;1.3316;
635.1000;0.7717;1.3341;
635.4000;0.7733;1.3417;
635.7000;0.7741;1.3316;
636.0000;0.7692;1.3316;
636.3000;0.7709;1.3366;
636.6000;0.7709;1.3341;
636.9000;0.7700;1.3316;
637.2000;0.7709;1.3417;
637.5000;0.7700;1.3417;
637.8000;0.7684;1.3366;
638.1000;0.7684;1.3468;
638.4000;0.7692;1.3442;
638.7000;0.7692;1.3392;
639.0000;0.7709;1.3341;
639.3000;0.7684;1.3240;
639.6000;0.7684;1.3316;
639.9000;0.7660;1.3316;
640.2000;0.7700;1.3366;
640.5000;0.7668;1.3316;
640.8000;0.7668;1.3366;
641.1000;0.7741;1.3544;
641.4000;0.7668;1.3392;
641.7000;0.7676;1.3366;
642.0000;0.7668;1.3290;
642.3000;0.7668;1.3240;
642.6000;0.7668;1.3316;
642.9000;0.7660;1.3316;
643.2000;0.7611;1.3214;
643.5000;0.7635;1.3265;
643.8000;0.7660;1.3392;
644.1000;0.7619;1.3366;
644.4000;0.7627;1.3341;
644.7000;0.7643;1.3290;
645.0000;0.7700;1.3417;
645.3000;0.7627;1.3341;
645.6000;0.7611;1.3265;
645.9000;0.7635;1.3316;
646.2000;0.7595;1.3265;
646.5000;0.7643;1.3392;
646.8000;0.7619;1.3290;
647.1000;0.7603;1.3290;
647.4000;0.7611;1.3316;
647.7000;0.7660;1.3417;
648.0000;0.7619;1.3265;
648.3000;0.7619;1.3290;
648.6000;0.7586;1.3290;
648.9000;0.7611;1.3442;
649.2000;0.7473;1.3163;
649.5000;0.7562;1.3442;
649.8000;0.7603;1.3645;
650.1000;0.7586;1.3569;
650.4000;0.7586;1.3544;
650.7000;0.7603;1.3645;
651.0000;0.7603;1.3645;
651.3000;0.7660;1.3823;
651.6000;0.7603;1.3595;
651.9000;0.7586;1.3569;
652.2000;0.7603;1.3620;
652.5000;0.7578;1.3468;
652.8000;0.7586;1.3519;
653.1000;0.7578;1.3569;
653.4000;0.7586;1.3569;
653.7000;0.7570;1.3595;
654.0000;0.7595;1.3696;
654.3000;0.7586;1.3696;
654.6000;0.7627;1.3899;
654.9000;0.7570;1.3798;
655.2000;0.7554;1.3772;
655.5000;0.7586;1.3950;
655.8000;0.7562;1.3798;
656.1000;0.7570;1.3747;
656.4000;0.7586;1.3721;
656.7000;0.7546;1.3645;
657.0000;0.7570;1.3645;
657.3000;0.7578;1.3696;
657.6000;0.7611;1.3772;
657.9000;0.7570;1.3721;
658.2000;0.7538;1.3620;
658.5000;0.7562;1.3671;
658.8000;0.7578;1.3772;
659.1000;0.7554;1.3645;
659.4000;0.7554;1.3671;
659.7000;0.7554;1.3671;
660.0000;0.7538;1.3645;
660.3000;0.7562;1.3671;
660.6000;0.7562;1.3747;
660.9000;0.7538;1.3671;
661.2000;0.7554;1.3696;
661.5000;0.7538;1.3671;
661.8000;0.7562;1.3747;
662.1000;0.7554;1.3696;
662.4000;0.7546;1.3671;
662.7000;0.7521;1.3569;
663.0000;0.7538;1.3645;
663.3000;0.7530;1.3620;
663.6000;0.7521;1.3595;
663.9000;0.7464;1.3468;
664.2000;0.7530;1.3696;
664.5000;0.7538;1.3671;
664.8000;0.7505;1.3493;
665.1000;0.7513;1.3468;
665.4000;0.7530;1.3595;
665.7000;0.7530;1.3620;
666.0000;0.7546;1.3595;
666.3000;0.7513;1.3442;
666.6000;0.7521;1.3519;
666.9000;0.7505;1.3569;
667.2000;0.7513;1.3595;
667.5000;0.7497;1.3595;
667.8000;0.7473;1.3620;
668.1000;0.7513;1.3747;
668.4000;0.7505;1.3721;
668.7000;0.7505;1.3671;
669.0000;0.7497;1.3721;
669.3000;0.7505;1.3772;
669.6000;0.7481;1.3671;
669.9000;0.7489;1.3747;
670.2000;0.7578;1.3899;
670.5000;0.7538;1.3721;
670.8000;0.7505;1.3696;
671.1000;0.7489;1.3645;
671.4000;0.7505;1.3620;
671.7000;0.7570;1.3747;
672.0000;0.7481;1.3620;
672.3000;0.7481;1.3620;
672.6000;0.7473;1.3595;
672.9000;0.7464;1.3468;
673.2000;0.7481;1.3544;
673.5000;0.7481;1.3544;
673.8000;0.7505;1.3645;
674.1000;0.7473;1.3519;
674.4000;0.7464;1.3569;
674.7000;0.7464;1.3645;
675.0000;0.7586;1.3899;
675.3000;0.7464;1.3645;
675.6000;0.7473;1.3645;
675.9000;0.7464;1.3595;
676.2000;0.7440;1.3519;
676.5000;0.7473;1.3595;
676.8000;0.7481;1.3595;
677.1000;0.7456;1.3645;
677.4000;0.7416;1.3620;
677.7000;0.7448;1.3671;
678.0000;0.7456;1.3747;
678.3000;0.7464;1.3696;
678.6000;0.7456;1.3696;
678.9000;0.7416;1.3671;
679.2000;0.7448;1.3721;
679.5000;0.7464;1.3772;
679.8000;0.7375;1.3645;
680.1000;0.7456;1.3874;
680.4000;0.7464;1.3848;
680.7000;0.7464;1.3772;
681.0000;0.7448;1.3823;
681.3000;0.7424;1.3823;
681.6000;0.7448;1.3798;
681.9000;0.7440;1.3747;
682.2000;0.7464;1.3747;
682.5000;0.7440;1.3721;
682.8000;0.7432;1.3595;
683.1000;0.7432;1.3645;
683.4000;0.7424;1.3747;
683.7000;0.7432;1.3696;
684.0000;0.7416;1.3721;
684.3000;0.7440;1.3747;
684.6000;0.7432;1.3772;
684.9000;0.7440;1.3823;
685.2000;0.7432;1.3798;
685.5000;0.7448;1.3823;
685.8000;0.7440;1.3747;
686.1000;0.7440;1.3772;
686.4000;0.7513;1.3975;
686.7000;0.7416;1.3671;
687.0000;0.7424;1.3671;
687.3000;0.7440;1.3671;
687.6000;0.7432;1.3620;
687.9000;0.7440;1.3620;
688.2000;0.7424;1.3493;
688.5000;0.7424;1.3519;
688.8000;0.7424;1.3595;
689.1000;0.7432;1.3620;
689.4000;0.7448;1.3620;
689.7000;0.7440;1.3721;
690.0000;0.7424;1.3645;
690.3000;0.7407;1.3569;
690.6000;0.7432;1.3468;
690.9000;0.7424;1.3442;
691.2000;0.7424;1.3392;
691.5000;0.7416;1.3392;
691.8000;0.7383;1.3290;
692.1000;0.7432;1.3442;
692.4000;0.7424;1.3519;
692.7000;0.7424;1.3493;
693.0000;0.7416;1.3366;
693.3000;0.7407;1.3366;
693.6000;0.7424;1.3442;
693.9000;0.7342;1.3341;
694.2000;0.7407;1.3595;
694.5000;0.7416;1.3671;
694.8000;0.7399;1.3620;
695.1000;0.7416;1.3645;
695.4000;0.7424;1.3620;
695.7000;0.7407;1.3620;
696.0000;0.7407;1.3544;
696.3000;0.7416;1.3569;
696.6000;0.7407;1.3595;
696.9000;0.7407;1.3595;
697.2000;0.7456;1.3747;
697.5000;0.7399;1.3595;
697.8000;0.7407;1.3493;
698.1000;0.7391;1.3493;
698.4000;0.7424;1.3620;
698.7000;0.7416;1.3569;
699.0000;0.7440;1.3671;
699.3000;0.7440;1.3671;
699.6000;0.7399;1.3468;
699.9000;0.7391;1.3366;
700.2000;0.7391;1.3442;
700.5000;0.7407;1.3493;
700.8000;0.7399;1.3468;
701.1000;0.7391;1.3544;
701.4000;0.7432;1.3645;
701.7000;0.7407;1.3645;
702.0000;0.7391;1.3620;
702.3000;0.7399;1.3620;
702.6000;0.7399;1.3620;
702.9000;0.7375;1.3620;
703.2000;0.7375;1.3645;
703.5000;0.7375;1.3721;
703.8000;0.7375;1.3721;
704.1000;0.7367;1.3671;
704.4000;0.7375;1.3671;
704.7000;0.7391;1.3721;
705.0000;0.7367;1.3671;
705.3000;0.7375;1.3696;
705.6000;0.7367;1.3620;
705.9000;0.7367;1.3620;
706.2000;0.7383;1.3620;
706.5000;0.7391;1.3671;
706.8000;0.7383;1.3620;
707.1000;0.7375;1.3595;
707.4000;0.7342;1.3544;
707.7000;0.7367;1.3620;
708.0000;0.7367;1.3671;
708.3000;0.7448;1.3848;
708.6000;0.7383;1.3645;
708.9000;0.7367;1.3595;
709.2000;0.7375;1.3671;
709.5000;0.7383;1.3620;
709.8000;0.7367;1.3595;
710.1000;0.7367;1.3645;
710.4000;0.7375;1.3620;
710.7000;0.7367;1.3620;
711.0000;0.7359;1.3544;
711.3000;0.7350;1.3544;
711.6000;0.7359;1.3595;
711.9000;0.7318;1.3519;
712.2000;0.7375;1.3645;
712.5000;0.7367;1.3721;
712.8000;0.7424;1.3899;
713.1000;0.7350;1.3772;
713.4000;0.7350;1.3721;
713.7000;0.7326;1.3645;
714.0000;0.7367;1.3671;
714.3000;0.7367;1.3671;
714.6000;0.7334;1.3696;
714.9000;0.7367;1.3823;
715.2000;0.7302;1.3671;
715.5000;0.7367;1.3747;
715.8000;0.7359;1.3798;
716.1000;0.7350;1.3747;
716.4000;0.7359;1.3721;
716.7000;0.7350;1.3696;
717.0000;0.7359;1.3721;
717.3000;0.7342;1.3772;
717.6000;0.7302;1.3696;
717.9000;0.7342;1.3823;
718.2000;0.7326;1.3696;
718.5000;0.7350;1.3747;
718.8000;0.7350;1.3671;
719.1000;0.7334;1.3721;
719.4000;0.7359;1.3671;
719.7000;0.7334;1.3620;
720.0000;0.7318;1.3721;
720.3000;0.7326;1.3747;
720.6000;0.7350;1.3874;
720.9000;0.7318;1.3798;
721.2000;0.7334;1.3874;
721.5000;0.7342;1.3950;
721.8000;0.7350;1.3899;
722.1000;0.7416;1.4026;
722.4000;0.7350;1.3823;
722.7000;0.7342;1.3798;
723.0000;0.7359;1.3950;
723.3000;0.7359;1.3899;
723.6000;0.7359;1.3899;
723.9000;0.7407;1.4000;
724.2000;0.7350;1.3874;
724.5000;0.7342;1.3798;
724.8000;0.7342;1.3823;
725.1000;0.7326;1.3823;
725.4000;0.7407;1.3924;
725.7000;0.7310;1.3798;
726.0000;0.7359;1.3874;
726.3000;0.7350;1.3899;
726.6000;0.7293;1.3874;
726.9000;0.7334;1.3950;
727.2000;0.7334;1.3874;
727.5000;0.7456;1.4102;
727.8000;0.7326;1.3747;
728.1000;0.7326;1.3747;
728.4000;0.7261;1.3595;
728.7000;0.7334;1.3696;
729.0000;0.7277;1.3544;
729.3000;0.7334;1.3696;
729.6000;0.7326;1.3671;
729.9000;0.7342;1.3721;
730.2000;0.7326;1.3696;
730.5000;0.7326;1.3671;
730.8000;0.7342;1.3645;
731.1000;0.7326;1.3544;
731.4000;0.7285;1.3442;
731.7000;0.7334;1.3544;
732.0000;0.7318;1.3544;
732.3000;0.7228;1.3265;
732.6000;0.7326;1.3442;
732.9000;0.7318;1.3442;
733.2000;0.7310;1.3569;
733.5000;0.7310;1.3519;
733.8000;0.7310;1.3569;
734.1000;0.7293;1.3519;
734.4000;0.7318;1.3544;
734.7000;0.7326;1.3468;
735.0000;0.7342;1.3544;
735.3000;0.7318;1.3569;
735.6000;0.7310;1.3544;
735.9000;0.7302;1.3595;
736.2000;0.7293;1.3595;
736.5000;0.7326;1.3595;
736.8000;0.7302;1.3595;
737.1000;0.7302;1.3696;
737.4000;0.7269;1.3569;
737.7000;0.7302;1.3696;
738.0000;0.7318;1.3671;
738.3000;0.7318;1.3747;
738.6000;0.7399;1.4000;
738.9000;0.7302;1.3772;
739.2000;0.7261;1.3620;
739.5000;0.7293;1.3671;
739.8000;0.7302;1.3620;
740.1000;0.7318;1.3747;
740.4000;0.7326;1.3823;
740.7000;0.7302;1.3848;
741.0000;0.7293;1.3772;
741.3000;0.7302;1.3823;
741.6000;0.7318;1.3874;
741.9000;0.7310;1.3772;
742.2000;0.7310;1.3747;
742.5000;0.7285;1.3798;
742.8000;0.7302;1.3848;
743.1000;0.7318;1.3924;
743.4000;0.7285;1.3798;
743.7000;0.7269;1.3696;
744.0000;0.7253;1.3569;
744.3000;0.7261;1.3569;
744.6000;0.7285;1.3620;
744.9000;0.7293;1.3671;
745.2000;0.7302;1.3721;
745.5000;0.7310;1.3696;
745.8000;0.7302;1.3620;
746.1000;0.7253;1.3468;
746.4000;0.7326;1.3772;
746.7000;0.7302;1.3721;
747.0000;0.7302;1.3721;
747.3000;0.7285;1.3645;
747.6000;0.7269;1.3493;
747.9000;0.7285;1.3595;
748.2000;0.7293;1.3645;
748.5000;0.7302;1.3595;
748.8000;0.7310;1.3620;
749.1000;0.7302;1.3544;
749.4000;0.7342;1.3696;
749.7000;0.7285;1.3569;
750.0000;0.7285;1.3544;
750.3000;0.7293;1.3620;
750.6000;0.7293;1.3569;
750.9000;0.7269;1.3493;
751.2000;0.7293;1.3595;
751.5000;0.7310;1.3620;
751.8000;0.7277;1.3595;
752.1000;0.7277;1.3544;
752.4000;0.7318;1.3620;
752.7000;0.7277;1.3569;
753.0000;0.7310;1.3772;
753.3000;0.7293;1.3747;
753.6000;0.7285;1.3772;
753.9000;0.7302;1.3772;
754.2000;0.7310;1.3772;
754.5000;0.7285;1.3671;
754.8000;0.7285;1.3645;
755.1000;0.7285;1.3671;
755.4000;0.7318;1.3696;
755.7000;0.7269;1.3620;
756.0000;0.7302;1.3721;
756.3000;0.7285;1.3747;
756.6000;0.7302;1.3798;
756.9000;0.7261;1.3747;
757.2000;0.7310;1.3772;
757.5000;0.7285;1.3696;
757.8000;0.7147;1.3392;
758.1000;0.7293;1.3798;
758.4000;0.7253;1.3645;
758.7000;0.7293;1.3798;
759.0000;0.7285;1.3798;
759.3000;0.7269;1.3595;
759.6000;0.7310;1.3645;
759.9000;0.7302;1.3620;
760.2000;0.7269;1.3519;
760.5000;0.7285;1.3519;
760.8000;0.7269;1.3569;
761.1000;0.7277;1.3544;
761.4000;0.7285;1.3595;
761.7000;0.7236;1.3468;
762.0000;0.7285;1.3493;
762.3000;0.7277;1.3493;
762.6000;0.7269;1.3544;
762.9000;0.7277;1.3493;
763.2000;0.7367;1.3772;
763.5000;0.7277;1.3493;
763.8000;0.7285;1.3595;
764.1000;0.7269;1.3468;
764.4000;0.7277;1.3544;
764.7000;0.7269;1.3595;
765.0000;0.7269;1.3620;
765.3000;0.7269;1.3620;
765.6000;0.7285;1.3595;
765.9000;0.7269;1.3544;
766.2000;0.7277;1.3493;
766.5000;0.7293;1.3544;
766.8000;0.7269;1.3544;
767.1000;0.7269;1.3569;
767.4000;0.7293;1.3569;
767.7000;0.7261;1.3468;
768.0000;0.7293;1.3544;
768.3000;0.7285;1.3595;
768.6000;0.7277;1.3671;
768.9000;0.7285;1.3696;
769.2000;0.7269;1.3696;
769.5000;0.7285;1.3595;
769.8000;0.7269;1.3442;
770.1000;0.7285;1.3442;
770.4000;0.7261;1.3366;
770.7000;0.7269;1.3519;
771.0000;0.7318;1.3645;
771.3000;0.7285;1.3519;
771.6000;0.7253;1.3442;
771.9000;0.7245;1.3468;
772.2000;0.7269;1.3569;
772.5000;0.7236;1.3544;
772.8000;0.7261;1.3671;
773.1000;0.7253;1.3747;
773.4000;0.7228;1.3671;
773.7000;0.7253;1.3772;
774.0000;0.7261;1.3721;
774.3000;0.7253;1.3696;
774.6000;0.7261;1.3823;
774.9000;0.7261;1.3848;
775.2000;0.7261;1.3772;
775.5000;0.7236;1.3645;
775.8000;0.7253;1.3620;
776.1000;0.7253;1.3569;
776.4000;0.7236;1.3595;
776.7000;0.7147;1.3366;
777.0000;0.7245;1.3468;
777.3000;0.7277;1.3595;
777.6000;0.7245;1.3569;
777.9000;0.7293;1.3671;
778.2000;0.7261;1.3569;
778.5000;0.7253;1.3620;
778.8000;0.7253;1.3721;
779.1000;0.7245;1.3645;
779.4000;0.7245;1.3620;
779.7000;0.7269;1.3696;
780.0000;0.7253;1.3696;
780.3000;0.7245;1.3595;
780.6000;0.7269;1.3671;
780.9000;0.7269;1.3595;
781.2000;0.7253;1.3620;
781.5000;0.7253;1.3645;
781.8000;0.7269;1.3696;
782.1000;0.7261;1.3671;
782.4000;0.7261;1.3747;
782.7000;0.7228;1.3721;
783.0000;0.7228;1.3747;
783.3000;0.7228;1.3798;
783.6000;0.7220;1.3747;
783.9000;0.7277;1.3848;
784.2000;0.7245;1.3848;
784.5000;0.7245;1.3747;
784.8000;0.7236;1.3772;
785.1000;0.7261;1.3848;
785.4000;0.7236;1.3772;
785.7000;0.7293;1.4102;
786.0000;0.7261;1.3950;
786.3000;0.7245;1.3899;
786.6000;0.7171;1.3645;
786.9000;0.7220;1.3772;
787.2000;0.7228;1.3747;
787.5000;0.7334;1.4077;
787.8000;0.7245;1.3924;
788.1000;0.7245;1.3848;
788.4000;0.7236;1.3823;
788.7000;0.7245;1.3848;
789.0000;0.7261;1.3874;
789.3000;0.7253;1.3899;
789.6000;0.7253;1.3848;
789.9000;0.7228;1.3823;
790.2000;0.7261;1.3874;
790.5000;0.7245;1.3924;
790.8000;0.7123;1.3595;
791.1000;0.7269;1.3924;
791.4000;0.7245;1.3747;
791.7000;0.7253;1.3798;
792.0000;0.7228;1.3848;
792.3000;0.7212;1.3798;
792.6000;0.7245;1.3975;
792.9000;0.7228;1.3874;
793.2000;0.7220;1.3798;
793.5000;0.7236;1.3823;
793.8000;0.7228;1.3772;
794.1000;0.7245;1.3772;
794.4000;0.7245;1.3772;
794.7000;0.7245;1.3798;
795.0000;0.7245;1.3899;
795.3000;0.7253;1.3899;
795.6000;0.7220;1.3924;
795.9000;0.7236;1.4000;
796.2000;0.7236;1.3950;
796.5000;0.7261;1.4000;
796.8000;0.7212;1.3950;
797.1000;0.7228;1.3950;
797.4000;0.7204;1.3823;
797.7000;0.7212;1.3798;
798.0000;0.7236;1.3798;
798.3000;0.7220;1.3721;
798.6000;0.7228;1.3696;
798.9000;0.7228;1.3721;
799.2000;0.7236;1.3696;
799.5000;0.7359;1.4127;
799.8000;0.7253;1.3798;
800.1000;0.7253;1.3874;
800.4000;0.7253;1.3874;
800.7000;0.7253;1.3823;
801.0000;0.7269;1.3924;
801.3000;0.7261;1.3823;
801.6000;0.7236;1.3798;
801.9000;0.7302;1.3899;
802.2000;0.7220;1.3772;
802.5000;0.7326;1.3975;
802.8000;0.7277;1.3798;
803.1000;0.7196;1.3645;
803.4000;0.7212;1.3721;
803.7000;0.7236;1.3798;
804.0000;0.7228;1.3798;
804.3000;0.7245;1.3798;
804.6000;0.7245;1.3747;
804.9000;0.7236;1.3721;
805.2000;0.7228;1.3747;
805.5000;0.7236;1.3696;
805.8000;0.7236;1.3874;
806.1000;0.7253;1.3950;
806.4000;0.7236;1.3975;
806.7000;0.7236;1.3899;
807.0000;0.7212;1.3798;
807.3000;0.7293;1.4127;
807.6000;0.7261;1.4000;
807.9000;0.7245;1.3924;
808.2000;0.7220;1.3924;
808.5000;0.7220;1.3924;
808.8000;0.7220;1.3975;
809.1000;0.7253;1.3924;
809.4000;0.7220;1.3848;
809.7000;0.7204;1.3721;
810.0000;0.7204;1.3671;
810.3000;0.7293;1.3950;
810.6000;0.7236;1.3747;
810.9000;0.7212;1.3747;
811.2000;0.7212;1.3696;
811.5000;0.7245;1.3798;
811.8000;0.7212;1.3798;
812.1000;0.7220;1.3798;
812.4000;0.7204;1.3721;
812.7000;0.7188;1.3721;
813.0000;0.7212;1.3798;
813.3000;0.7293;1.3975;
813.6000;0.7212;1.3848;
813.9000;0.7220;1.3899;
814.2000;0.7236;1.3924;
814.5000;0.7228;1.3950;
814.8000;0.7204;1.3924;
815.1000;0.7220;1.3950;
815.4000;0.7245;1.4026;
815.7000;0.7245;1.4077;
816.0000;0.7220;1.3899;
816.3000;0.7245;1.3899;
816.6000;0.7228;1.3874;
816.9000;0.7228;1.3772;
817.2000;0.7212;1.3772;
817.5000;0.7212;1.3671;
817.8000;0.7228;1.3747;
818.1000;0.7245;1.3721;
818.4000;0.7155;1.3519;
818.7000;0.7245;1.3823;
819.0000;0.7220;1.3823;
819.3000;0.7220;1.3798;
819.6000;0.7236;1.3798;
819.9000;0.7163;1.3569;
820.2000;0.7245;1.3544;
820.5000;0.7228;1.3544;
820.8000;0.7204;1.3493;
821.1000;0.7212;1.3519;
821.4000;0.7236;1.3569;
821.7000;0.7228;1.3671;
822.0000;0.7204;1.3671;
822.3000;0.7204;1.3620;
822.6000;0.7212;1.3671;
822.9000;0.7277;1.3950;
823.2000;0.7277;1.3975;
823.5000;0.7204;1.3798;
823.8000;0.7212;1.3899;
824.1000;0.7220;1.3950;
824.4000;0.7220;1.3899;
824.7000;0.7220;1.3924;
825.0000;0.7228;1.4000;
825.3000;0.7245;1.4102;
825.6000;0.7236;1.4051;
825.9000;0.7245;1.4077;
826.2000;0.7245;1.4077;
826.5000;0.7293;1.4153;
826.8000;0.7212;1.3975;
827.1000;0.7204;1.3975;
827.4000;0.7212;1.4000;
827.7000;0.7220;1.4000;
828.0000;0.7212;1.3975;
828.3000;0.7228;1.3924;
828.6000;0.7220;1.3975;
828.9000;0.7245;1.4026;
829.2000;0.7196;1.3848;
829.5000;0.7220;1.3848;
829.8000;0.7228;1.3950;
830.1000;0.7245;1.4026;
830.4000;0.7245;1.3975;
830.7000;0.7245;1.3975;
831.0000;0.7228;1.3848;
831.3000;0.7236;1.3848;
831.6000;0.7245;1.3975;
831.9000;0.7220;1.3899;
832.2000;0.7188;1.3721;
832.5000;0.7228;1.3798;
832.8000;0.7228;1.3823;
833.1000;0.7212;1.3798;
833.4000;0.7196;1.3772;
833.7000;0.7147;1.3671;
834.0000;0.7310;1.4153;
834.3000;0.7228;1.3874;
834.6000;0.7204;1.3798;
834.9000;0.7188;1.3721;
835.2000;0.7204;1.3721;
835.5000;0.7204;1.3772;
835.8000;0.7196;1.3747;
836.1000;0.7204;1.3874;
836.4000;0.7212;1.3899;
836.7000;0.7188;1.3924;
837.0000;0.7196;1.3975;
837.3000;0.7212;1.4000;
837.6000;0.7212;1.3950;
837.9000;0.7212;1.3899;
838.2000;0.7212;1.3950;
838.5000;0.7212;1.3950;
838.8000;0.7204;1.3874;
839.1000;0.7212;1.4000;
839.4000;0.7204;1.3975;
839.7000;0.7236;1.3975;
840.0000;0.7212;1.4026;
840.3000;0.7236;1.4051;
840.6000;0.7212;1.3899;
840.9000;0.7188;1.3696;
841.2000;0.7220;1.3747;
841.5000;0.7204;1.3747;
841.8000;0.7204;1.3747;
842.1000;0.7220;1.3874;
842.4000;0.7204;1.3899;
842.7000;0.7204;1.3874;
843.0000;0.7204;1.3772;
843.3000;0.7228;1.3823;
843.6000;0.7204;1.3798;
843.9000;0.7212;1.3747;
844.2000;0.7204;1.3772;
844.5000;0.7204;1.3671;
844.8000;0.7228;1.3747;
845.1000;0.7196;1.3798;
845.4000;0.7269;1.3950;
845.7000;0.7204;1.3874;
846.0000;0.7204;1.3924;
846.3000;0.7196;1.4000;
846.6000;0.7188;1.3950;
846.9000;0.7196;1.3975;
847.2000;0.7212;1.4077;
847.5000;0.7212;1.4077;
847.8000;0.7212;1.4026;
848.1000;0.7171;1.3899;
848.4000;0.7204;1.3950;
848.7000;0.7277;1.4102;
849.0000;0.7196;1.3924;
849.3000;0.7188;1.3899;
849.6000;0.7196;1.3924;
849.9000;0.7212;1.3950;
850.2000;0.7204;1.3975;
850.5000;0.7212;1.3924;
850.8000;0.7220;1.3899;
851.1000;0.7204;1.3975;
851.4000;0.7196;1.3874;
851.7000;0.7220;1.3874;
852.0000;0.7196;1.3874;
852.3000;0.7188;1.3772;
852.6000;0.7196;1.3823;
852.9000;0.7196;1.3950;
853.2000;0.7285;1.4127;
853.5000;0.7220;1.3924;
853.8000;0.7212;1.3950;
854.1000;0.7147;1.3772;
854.4000;0.7196;1.3848;
854.7000;0.7212;1.3899;
855.0000;0.7155;1.3645;
855.3000;0.7204;1.3798;
855.6000;0.7204;1.3899;
855.9000;0.7204;1.3874;
856.2000;0.7204;1.3899;
856.5000;0.7204;1.3823;
856.8000;0.7114;1.3569;
857.1000;0.7139;1.3620;
857.4000;0.7212;1.3848;
857.7000;0.7245;1.4051;
858.0000;0.7196;1.3848;
858.3000;0.7196;1.3747;
858.6000;0.7196;1.3721;
858.9000;0.7179;1.3671;
859.2000;0.7179;1.3696;
859.5000;0.7212;1.3721;
859.8000;0.7090;1.3442;
860.1000;0.7188;1.3721;
860.4000;0.7212;1.3823;
860.7000;0.7196;1.3874;
861.0000;0.7212;1.3848;
861.3000;0.7204;1.3747;
861.6000;0.7212;1.3620;
861.9000;0.7204;1.3645;
862.2000;0.7220;1.3671;
862.5000;0.7179;1.3595;
862.8000;0.7196;1.3747;
863.1000;0.7204;1.3645;
863.4000;0.7155;1.3493;
863.7000;0.7204;1.3696;
864.0000;0.7228;1.3696;
864.3000;0.7253;1.3874;
864.6000;0.7204;1.3721;
864.9000;0.7188;1.3671;
865.2000;0.7212;1.3798;
865.5000;0.7155;1.3671;
865.8000;0.7204;1.3874;
866.1000;0.7196;1.3924;
866.4000;0.7236;1.4026;
866.7000;0.7196;1.3924;
867.0000;0.7204;1.3924;
867.3000;0.7204;1.3924;
867.6000;0.7220;1.3950;
867.9000;0.7220;1.3950;
868.2000;0.7188;1.3823;
868.5000;0.7179;1.3823;
868.8000;0.7179;1.3798;
869.1000;0.7188;1.3924;
869.4000;0.7261;1.4203;
869.7000;0.7228;1.4026;
870.0000;0.7204;1.4000;
870.3000;0.7204;1.4000;
870.6000;0.7204;1.4000;
870.9000;0.7188;1.4000;
871.2000;0.7179;1.3975;
871.5000;0.7196;1.4077;
871.8000;0.7171;1.4000;
872.1000;0.7212;1.4077;
872.4000;0.7147;1.3772;
872.7000;0.7204;1.4000;
873.0000;0.7163;1.3950;
873.3000;0.7179;1.4077;
873.6000;0.7188;1.4153;
873.9000;0.7212;1.4102;
874.2000;0.7196;1.4077;
874.5000;0.7204;1.4026;
874.8000;0.7196;1.4051;
875.1000;0.7196;1.4077;
875.4000;0.7196;1.4102;
875.7000;0.7196;1.4127;
876.0000;0.7179;1.4077;
876.3000;0.7220;1.4178;
876.6000;0.7212;1.4127;
876.9000;0.7188;1.4026;
877.2000;0.7196;1.4051;
877.5000;0.7277;1.4356;
877.8000;0.7204;1.4102;
878.1000;0.7212;1.4077;
878.4000;0.7196;1.4077;
878.7000;0.7196;1.4000;
879.0000;0.7171;1.3899;
879.3000;0.7188;1.3924;
879.6000;0.7188;1.3975;
879.9000;0.7179;1.3924;
880.2000;0.7196;1.4051;
880.5000;0.7188;1.4077;
880.8000;0.7188;1.3950;
881.1000;0.7188;1.4000;
881.4000;0.7196;1.4077;
881.7000;0.7188;1.4127;
882.0000;0.7179;1.4127;
882.3000;0.7204;1.4229;
882.6000;0.7204;1.4254;
882.9000;0.7196;1.4203;
883.2000;0.7188;1.4153;
883.5000;0.7188;1.4229;
883.8000;0.7188;1.4153;
884.1000;0.7212;1.4254;
884.4000;0.7253;1.4279;
884.7000;0.7204;1.4178;
885.0000;0.7212;1.4127;
885.3000;0.7204;1.4102;
885.6000;0.7196;1.4026;
885.9000;0.7204;1.4077;
886.2000;0.7171;1.4000;
886.5000;0.7212;1.4127;
886.8000;0.7204;1.4178;
887.1000;0.7188;1.4153;
887.4000;0.7204;1.4153;
887.7000;0.7196;1.4102;
888.0000;0.7196;1.4051;
888.3000;0.7188;1.4051;
888.6000;0.7196;1.4026;
888.9000;0.7236;1.4178;
889.2000;0.7228;1.4229;
889.5000;0.7179;1.4026;
889.8000;0.7196;1.4051;
890.1000;0.7155;1.4077;
890.4000;0.7204;1.4203;
890.7000;0.7196;1.4178;
891.0000;0.7204;1.4203;
891.3000;0.7179;1.4077;
891.6000;0.7261;1.4305;
891.9000;0.7196;1.4051;
892.2000;0.7163;1.3950;
892.5000;0.7212;1.4102;
892.8000;0.7179;1.4077;
893.1000;0.7155;1.4000;
893.4000;0.7163;1.4026;
893.7000;0.7179;1.3975;
894.0000;0.7236;1.4051;
894.3000;0.7196;1.3950;
894.6000;0.7188;1.4026;
894.9000;0.7171;1.3950;
895.2000;0.7098;1.3798;
895.5000;0.7074;1.3772;
895.8000;0.7188;1.4127;
896.1000;0.7163;1.4077;
896.4000;0.7188;1.4077;
896.7000;0.7188;1.4153;
897.0000;0.7212;1.4229;
897.3000;0.7188;1.4178;
897.6000;0.7171;1.4229;
897.9000;0.7171;1.4102;
898.2000;0.7179;1.4000;
898.5000;0.7171;1.4000;
898.8000;0.7188;1.4000;
899.1000;0.7204;1.4077;
899.4000;0.7212;1.4153;
899.7000;0.7188;1.4178;
900.0000;0.7196;1.4178;
900.3000;0.7188;1.4153;
900.6000;0.7179;1.4026;
900.9000;0.7188;1.4026;
901.2000;0.7188;1.4000;
901.5000;0.7204;1.4026;
901.8000;0.7196;1.4000;
902.1000;0.7236;1.4153;
902.4000;0.7179;1.4000;
902.7000;0.7163;1.3924;
903.0000;0.7179;1.4077;
903.3000;0.7188;1.4026;
903.6000;0.7188;1.4026;
903.9000;0.7245;1.4077;
904.2000;0.7204;1.3899;
904.5000;0.7179;1.3899;
904.8000;0.7188;1.3823;
905.1000;0.7179;1.3772;
905.4000;0.7204;1.3798;
905.7000;0.7123;1.3519;
906.0000;0.7196;1.3772;
906.3000;0.7179;1.3848;
906.6000;0.7188;1.3899;
906.9000;0.7196;1.3950;
907.2000;0.7188;1.3823;
907.5000;0.7171;1.3798;
907.8000;0.7188;1.3874;
908.1000;0.7188;1.3924;
908.4000;0.7196;1.4026;
908.7000;0.7057;1.3747;
909.0000;0.7179;1.4026;
909.3000;0.7196;1.4127;
909.6000;0.7188;1.4051;
909.9000;0.7204;1.4102;
910.2000;0.7179;1.3975;
910.5000;0.7188;1.4051;
910.8000;0.7171;1.4026;
911.1000;0.7188;1.4127;
911.4000;0.7277;1.4254;
911.7000;0.7188;1.4051;
912.0000;0.7179;1.4000;
912.3000;0.7179;1.4000;
912.6000;0.7171;1.3924;
912.9000;0.7196;1.3924;
913.2000;0.7196;1.3899;
913.5000;0.7179;1.3823;
913.8000;0.7139;1.3772;
914.1000;0.7179;1.3975;
914.4000;0.7196;1.4000;
914.7000;0.7179;1.4026;
915.0000;0.7188;1.4077;
915.3000;0.7163;1.4051;
915.6000;0.7188;1.4127;
915.9000;0.7188;1.4102;
916.2000;0.7123;1.4000;
916.5000;0.7196;1.4153;
916.8000;0.7171;1.4102;
917.1000;0.7196;1.4102;
917.4000;0.7163;1.4051;
917.7000;0.7171;1.4026;
918.0000;0.7293;1.4356;
918.3000;0.7147;1.3874;
918.6000;0.7179;1.3899;
918.9000;0.7163;1.3848;
919.2000;0.7179;1.3975;
919.5000;0.7212;1.4026;
919.8000;0.7204;1.3950;
920.1000;0.7171;1.3924;
920.4000;0.7179;1.3975;
920.7000;0.7196;1.3975;
921.0000;0.7179;1.3924;
921.3000;0.7179;1.4051;
921.6000;0.7179;1.4051;
921.9000;0.7106;1.3848;
922.2000;0.7171;1.4077;
922.5000;0.7171;1.4026;
922.8000;0.7196;1.4000;
923.1000;0.7179;1.4051;
923.4000;0.7171;1.4000;
923.7000;0.7171;1.4000;
924.0000;0.7179;1.3975;
924.3000;0.7155;1.3924;
924.6000;0.7179;1.4051;
924.9000;0.7179;1.4077;
925.2000;0.7171;1.4051;
925.5000;0.7196;1.4077;
925.8000;0.7155;1.4026;
926.1000;0.7179;1.3950;
926.4000;0.7171;1.3823;
926.7000;0.7179;1.3772;
927.0000;0.7171;1.3874;
927.3000;0.7196;1.3924;
927.6000;0.7171;1.3975;
927.9000;0.7163;1.4051;
928.2000;0.7196;1.4077;
928.5000;0.7179;1.4102;
928.8000;0.7171;1.4153;
929.1000;0.7163;1.4153;
929.4000;0.7171;1.4102;
929.7000;0.7171;1.4077;
930.0000;0.7188;1.4102;
930.3000;0.7171;1.4026;
930.6000;0.7179;1.3975;
930.9000;0.7179;1.3975;
931.2000;0.7179;1.3950;
931.5000;0.7155;1.3924;
931.8000;0.7171;1.3950;
932.1000;0.7147;1.3874;
932.4000;0.7204;1.4026;
932.7000;0.7188;1.3874;
933.0000;0.7179;1.3848;
933.3000;0.7163;1.3848;
933.6000;0.7188;1.3899;
933.9000;0.7163;1.3823;
934.2000;0.7074;1.3645;
934.5000;0.7188;1.3924;
934.8000;0.7204;1.3975;
935.1000;0.7171;1.3848;
935.4000;0.7123;1.3645;
935.7000;0.7204;1.3798;
936.0000;0.7196;1.3747;
936.3000;0.7179;1.3671;
936.6000;0.7212;1.3798;
936.9000;0.7155;1.3620;
937.2000;0.7188;1.3772;
937.5000;0.7171;1.3823;
937.8000;0.7163;1.3721;
938.1000;0.7179;1.3772;
938.4000;0.7179;1.3899;
938.7000;0.7163;1.3874;
939.0000;0.7188;1.3848;
939.3000;0.7139;1.3823;
939.6000;0.7171;1.3924;
939.9000;0.7204;1.3975;
940.2000;0.7204;1.4077;
940.5000;0.7163;1.3899;
940.8000;0.7155;1.3950;
941.1000;0.7171;1.4000;
941.4000;0.7171;1.3899;
941.7000;0.7147;1.3874;
942.0000;0.7171;1.3950;
942.3000;0.7179;1.3975;
942.6000;0.7163;1.3975;
942.9000;0.7171;1.3899;
943.2000;0.7171;1.3975;
943.5000;0.7188;1.4102;
943.8000;0.7179;1.4077;
944.1000;0.7179;1.4153;
944.4000;0.7179;1.4026;
944.7000;0.7074;1.3772;
945.0000;0.7179;1.3975;
945.3000;0.7179;1.4000;
945.6000;0.7155;1.3975;
945.9000;0.7171;1.3975;
946.2000;0.7171;1.3924;
946.5000;0.7163;1.3848;
946.8000;0.7179;1.3899;
947.1000;0.7196;1.3874;
947.4000;0.7147;1.3747;
947.7000;0.7179;1.3848;
948.0000;0.7123;1.3721;
948.3000;0.7220;1.3848;
948.6000;0.7188;1.3823;
948.9000;0.7163;1.3874;
949.2000;0.7155;1.4000;
949.5000;0.7163;1.3975;
949.8000;0.7188;1.4026;
950.1000;0.7171;1.3950;
950.4000;0.7179;1.4026;
950.7000;0.7171;1.4077;
951.0000;0.7163;1.4102;
951.3000;0.7179;1.4127;
951.6000;0.7171;1.4051;
951.9000;0.7179;1.4077;
952.2000;0.7179;1.3975;
952.5000;0.7196;1.3975;
952.8000;0.7196;1.3975;
953.1000;0.7147;1.3823;
953.4000;0.7179;1.4000;
953.7000;0.7163;1.3975;
954.0000;0.7171;1.3950;
954.3000;0.7147;1.3924;
954.6000;0.7155;1.4026;
954.9000;0.7155;1.4051;
955.2000;0.7196;1.4102;
955.5000;0.7171;1.3975;
955.8000;0.7188;1.4000;
956.1000;0.7188;1.4077;
956.4000;0.7155;1.4000;
956.7000;0.7188;1.4000;
957.0000;0.7171;1.4000;
957.3000;0.7163;1.4026;
957.6000;0.7220;1.4203;
957.9000;0.7171;1.4077;
958.2000;0.7179;1.4077;
958.5000;0.7285;1.4356;
958.8000;0.7204;1.4178;
959.1000;0.7188;1.4203;
959.4000;0.7147;1.4026;
959.7000;0.7220;1.4254;
960.0000;0.7147;1.4153;
960.3000;0.7179;1.4153;
960.6000;0.7204;1.4229;
960.9000;0.7171;1.4127;
961.2000;0.7188;1.4229;
961.5000;0.7212;1.4279;
961.8000;0.7155;1.3975;
962.1000;0.7228;1.4102;
962.4000;0.7147;1.3848;
962.7000;0.7188;1.3874;
963.0000;0.7139;1.3823;
963.3000;0.7163;1.3823;
963.6000;0.7155;1.3874;
963.9000;0.7188;1.3924;
964.2000;0.7196;1.3950;
964.5000;0.7163;1.3874;
964.8000;0.7147;1.3823;
965.1000;0.7155;1.3798;
965.4000;0.7179;1.3874;
965.7000;0.7057;1.3595;
966.0000;0.7196;1.4077;
966.3000;0.7188;1.4026;
966.6000;0.7179;1.4026;
966.9000;0.7131;1.3924;
967.2000;0.7179;1.4077;
967.5000;0.7163;1.4077;
967.8000;0.7188;1.4153;
968.1000;0.7179;1.4077;
968.4000;0.7188;1.4051;
968.7000;0.7179;1.4077;
969.0000;0.7196;1.4229;
969.3000;0.7179;1.4229;
969.6000;0.7179;1.4153;
969.9000;0.7196;1.4102;
970.2000;0.7147;1.3924;
970.5000;0.7179;1.3975;
970.8000;0.7171;1.3950;
971.1000;0.7017;1.3519;
971.4000;0.7179;1.3899;
971.7000;0.7188;1.3975;
972.0000;0.7179;1.4000;
972.3000;0.7171;1.4000;
972.6000;0.7171;1.3975;
972.9000;0.7171;1.4051;
973.2000;0.7163;1.4000;
973.5000;0.7155;1.4000;
973.8000;0.7163;1.4077;
974.1000;0.7090;1.3899;
974.4000;0.7171;1.4203;
974.7000;0.7188;1.4305;
975.0000;0.7155;1.4254;
975.3000;0.7179;1.4229;
975.6000;0.7179;1.4203;
975.9000;0.7171;1.4051;
976.2000;0.7171;1.4077;
976.5000;0.7171;1.3975;
976.8000;0.7179;1.4051;
977.1000;0.7171;1.4077;
977.4000;0.7179;1.4102;
977.7000;0.7179;1.4203;
978.0000;0.7179;1.4279;
978.3000;0.7261;1.4482;
978.6000;0.7171;1.4178;
978.9000;0.7163;1.4153;
979.2000;0.7188;1.4229;
979.5000;0.7179;1.4127;
979.8000;0.7196;1.4026;
980.1000;0.7179;1.4000;
980.4000;0.7204;1.4000;
980.7000;0.7188;1.4000;
981.0000;0.7179;1.4026;
981.3000;0.7179;1.4077;
981.6000;0.7179;1.4127;
981.9000;0.7220;1.4178;
982.2000;0.7188;1.4102;
982.5000;0.7155;1.4102;
982.8000;0.7171;1.4077;
983.1000;0.7179;1.4178;
983.4000;0.7179;1.4127;
983.7000;0.7171;1.4153;
984.0000;0.7147;1.4102;
984.3000;0.7179;1.4229;
984.6000;0.7123;1.4127;
984.9000;0.7179;1.4279;
985.2000;0.7285;1.4482;
985.5000;0.7171;1.4229;
985.8000;0.7179;1.4254;
986.1000;0.7179;1.4203;
986.4000;0.7179;1.4127;
986.7000;0.7171;1.4102;
987.0000;0.7188;1.4077;
987.3000;0.7188;1.4077;
987.6000;0.7179;1.4178;
987.9000;0.7155;1.4127;
988.2000;0.7123;1.4026;
988.5000;0.7188;1.4254;
988.8000;0.7163;1.4102;
989.1000;0.7277;1.4330;
989.4000;0.7171;1.4077;
989.7000;0.7179;1.4051;
990.0000;0.7245;1.4153;
990.3000;0.7171;1.3924;
990.6000;0.7196;1.3975;
990.9000;0.7196;1.3975;
991.2000;0.7188;1.3950;
991.5000;0.7188;1.4077;
991.8000;0.7171;1.4127;
992.1000;0.7163;1.4178;
992.4000;0.7163;1.4153;
992.7000;0.7179;1.4051;
993.0000;0.7171;1.3950;
993.3000;0.7253;1.4153;
993.6000;0.7179;1.3924;
993.9000;0.7171;1.3899;
994.2000;0.7139;1.3721;
994.5000;0.7188;1.3899;
994.8000;0.7220;1.4077;
995.1000;0.7147;1.3874;
995.4000;0.7179;1.4051;
995.7000;0.7188;1.4026;
996.0000;0.7179;1.3874;
996.3000;0.7179;1.3848;
996.6000;0.7179;1.3924;
996.9000;0.7179;1.3874;
997.2000;0.7163;1.3823;
997.5000;0.7171;1.3823;
997.8000;0.7155;1.3874;
998.1000;0.7236;1.4077;
998.4000;0.7171;1.3950;
998.7000;0.7163;1.3848;
999.0000;0.7179;1.3899;
999.3000;0.7171;1.3772;
999.6000;0.7179;1.3848;
999.9000;0.7196;1.3874;
1000.2000;0.7171;1.3874;
1000.5000;0.7179;1.3848;
1000.8000;0.7179;1.3848;
1001.1000;0.7163;1.3823;
1001.4000;0.7171;1.3823;
1001.7000;0.7179;1.3848;
1002.0000;0.7171;1.3924;
1002.3000;0.7163;1.3924;
1002.6000;0.7171;1.3950;
1002.9000;0.7163;1.4000;
1003.2000;0.7179;1.3924;
1003.5000;0.7171;1.3975;
1003.8000;0.7163;1.3899;
1004.1000;0.7163;1.3823;
1004.4000;0.7188;1.3798;
1004.7000;0.7188;1.3848;
1005.0000;0.7245;1.4000;
1005.3000;0.7204;1.3950;
1005.6000;0.7188;1.3924;
1005.9000;0.7188;1.3899;
1006.2000;0.7163;1.3899;
1006.5000;0.7179;1.3924;
1006.8000;0.7196;1.3950;
1007.1000;0.7179;1.4000;
1007.4000;0.7171;1.4000;
1007.7000;0.7155;1.3899;
1008.0000;0.7163;1.3823;
1008.3000;0.7188;1.3899;
1008.6000;0.7171;1.3899;
1008.9000;0.7163;1.3874;
1009.2000;0.7171;1.3950;
1009.5000;0.7196;1.4102;
1009.8000;0.7179;1.4077;
1010.1000;0.7179;1.3975;
1010.4000;0.7179;1.3924;
1010.7000;0.7196;1.4127;
1011.0000;0.7179;1.4051;
1011.3000;0.7147;1.3975;
1011.6000;0.7171;1.4026;
1011.9000;0.7171;1.4051;
1012.2000;0.7196;1.4153;
1012.5000;0.7114;1.3924;
1012.8000;0.7155;1.4077;
1013.1000;0.7179;1.4153;
1013.4000;0.7188;1.4178;
1013.7000;0.7196;1.4203;
1014.0000;0.7171;1.4279;
1014.3000;0.7163;1.4279;
1014.6000;0.7179;1.4305;
1014.9000;0.7163;1.4229;
1015.2000;0.7179;1.4229;
1015.5000;0.7155;1.4178;
1015.8000;0.7163;1.4127;
1016.1000;0.7179;1.4178;
1016.4000;0.7179;1.4077;
1016.7000;0.7188;1.4077;
1017.0000;0.7163;1.4026;
1017.3000;0.7179;1.4051;
1017.6000;0.7171;1.4000;
1017.9000;0.7171;1.4026;
1018.2000;0.7171;1.3950;
1018.5000;0.7171;1.3950;
1018.8000;0.7179;1.4077;
1019.1000;0.7163;1.4051;
1019.4000;0.7155;1.4000;
1019.7000;0.7188;1.4102;
1020.0000;0.7196;1.4077;
1020.3000;0.7163;1.3975;
1020.6000;0.7171;1.3924;
1020.9000;0.7188;1.4051;
1021.2000;0.7204;1.4178;
1021.5000;0.7171;1.4229;
1021.8000;0.7098;1.4026;
1022.1000;0.7196;1.4254;
1022.4000;0.7155;1.4229;
1022.7000;0.7163;1.4178;
1023.0000;0.7179;1.4203;
1023.3000;0.7179;1.4102;
1023.6000;0.7171;1.4178;
1023.9000;0.7147;1.4153;
1024.2000;0.7147;1.4077;
1024.5000;0.7163;1.4127;
1024.8000;0.7179;1.4127;
1025.1000;0.7171;1.4102;
1025.4000;0.7155;1.4153;
1025.7000;0.7163;1.4229;
1026.0000;0.7188;1.4381;
1026.3000;0.7179;1.4356;
1026.6000;0.7179;1.4356;
1026.9000;0.7179;1.4330;
1027.2000;0.7204;1.4432;
1027.5000;0.7171;1.4330;
1027.8000;0.7155;1.4279;
1028.1000;0.7188;1.4305;
1028.4000;0.7277;1.4482;
1028.7000;0.7179;1.4178;
1029.0000;0.7196;1.4102;
1029.3000;0.7188;1.4102;
1029.6000;0.7179;1.4026;
1029.9000;0.7090;1.3950;
1030.2000;0.7196;1.4229;
1030.5000;0.7171;1.4254;
1030.8000;0.7179;1.4279;
1031.1000;0.7179;1.4279;
1031.4000;0.7188;1.4381;
1031.7000;0.7163;1.4330;
1032.0000;0.7171;1.4356;
1032.3000;0.7196;1.4356;
1032.6000;0.7179;1.4279;
1032.9000;0.7155;1.4153;
1033.2000;0.7179;1.4178;
1033.5000;0.7163;1.4153;
1033.8000;0.7171;1.4102;
1034.1000;0.7212;1.4254;
1034.4000;0.7139;1.4077;
1034.7000;0.7188;1.4178;
1035.0000;0.7196;1.4153;
1035.3000;0.7179;1.4077;
1035.6000;0.7188;1.4077;
1035.9000;0.7188;1.4127;
1036.2000;0.7179;1.4127;
1036.5000;0.7171;1.4077;
1036.8000;0.7171;1.4026;
1037.1000;0.7179;1.4051;
1037.4000;0.7163;1.4077;
1037.7000;0.7171;1.4051;
1038.0000;0.7155;1.3975;
1038.3000;0.7171;1.4000;
1038.6000;0.7147;1.4077;
1038.9000;0.7163;1.4102;
1039.2000;0.7179;1.4102;
1039.5000;0.7163;1.4000;
1039.8000;0.7171;1.4026;
1040.1000;0.7179;1.4127;
1040.4000;0.7171;1.4203;
1040.7000;0.7171;1.4178;
1041.0000;0.7179;1.4203;
1041.3000;0.7179;1.4153;
1041.6000;0.7171;1.4153;
1041.9000;0.7163;1.4077;
1042.2000;0.7155;1.4051;
1042.5000;0.7171;1.4102;
1042.8000;0.7155;1.4102;
1043.1000;0.7188;1.4153;
1043.4000;0.7155;1.4102;
1043.7000;0.7171;1.4127;
1044.0000;0.7163;1.4203;
1044.3000;0.7049;1.4026;
1044.6000;0.7163;1.4254;
1044.9000;0.7123;1.4127;
1045.2000;0.7171;1.4229;
1045.5000;0.7171;1.4254;
1045.8000;0.7188;1.4254;
1046.1000;0.7179;1.4153;
1046.4000;0.7155;1.4102;
1046.7000;0.7188;1.4102;
1047.0000;0.7188;1.4077;
1047.3000;0.7188;1.4127;
1047.6000;0.7155;1.4026;
1047.9000;0.7188;1.4077;
1048.2000;0.7179;1.4102;
1048.5000;0.7163;1.4077;
1048.8000;0.7179;1.4153;
1049.1000;0.7163;1.4229;
1049.4000;0.7196;1.4356;
1049.7000;0.7179;1.4279;
1050.0000;0.7179;1.4254;
1050.3000;0.7131;1.4127;
1050.6000;0.7204;1.4279;
1050.9000;0.7171;1.4178;
1051.2000;0.7131;1.3950;
1051.5000;0.7163;1.4077;
1051.8000;0.7171;1.4127;
1052.1000;0.7171;1.4051;
1052.4000;0.7171;1.4026;
1052.7000;0.7196;1.4051;
1053.0000;0.7171;1.4000;
1053.3000;0.7179;1.4077;
1053.6000;0.7106;1.3924;
1053.9000;0.7163;1.4203;
1054.2000;0.7188;1.4203;
1054.5000;0.7171;1.4153;
1054.8000;0.7163;1.4153;
1055.1000;0.7163;1.4102;
1055.4000;0.7196;1.4127;
1055.7000;0.7179;1.4127;
1056.0000;0.7179;1.4229;
1056.3000;0.7155;1.4127;
1056.6000;0.7171;1.4153;
1056.9000;0.7163;1.4127;
1057.2000;0.7155;1.4127;
1057.5000;0.7155;1.4102;
1057.8000;0.7155;1.4077;
1058.1000;0.7155;1.4026;
1058.4000;0.7123;1.3975;
1058.7000;0.7171;1.4178;
1059.0000;0.7179;1.4254;
1059.3000;0.7204;1.4381;
1059.6000;0.7179;1.4229;
1059.9000;0.7188;1.4203;
1060.2000;0.7204;1.4229;
1060.5000;0.7179;1.4127;
1060.8000;0.7204;1.4127;
1061.1000;0.7188;1.4051;
1061.4000;0.7098;1.3899;
1061.7000;0.7196;1.4077;
1062.0000;0.7163;1.4000;
1062.3000;0.7163;1.4000;
1062.6000;0.7147;1.4051;
1062.9000;0.7179;1.4127;
1063.2000;0.7171;1.4102;
1063.5000;0.7163;1.4051;
1063.8000;0.7171;1.4127;
1064.1000;0.7163;1.4077;
1064.4000;0.7179;1.4203;
1064.7000;0.7196;1.4203;
1065.0000;0.7163;1.4178;
1065.3000;0.7179;1.4102;
1065.6000;0.7131;1.3874;
1065.9000;0.7179;1.4000;
1066.2000;0.7106;1.3975;
1066.5000;0.7163;1.4178;
1066.8000;0.7163;1.4077;
1067.1000;0.7090;1.3798;
1067.4000;0.7155;1.4026;
1067.7000;0.7123;1.3874;
1068.0000;0.7155;1.4026;
1068.3000;0.7114;1.3848;
1068.6000;0.7171;1.4051;
1068.9000;0.7131;1.4051;
1069.2000;0.7147;1.4127;
1069.5000;0.7171;1.4254;
1069.8000;0.7171;1.4279;
1070.1000;0.7179;1.4229;
1070.4000;0.7155;1.4178;
1070.7000;0.7179;1.4102;
1071.0000;0.7188;1.4178;
1071.3000;0.7179;1.4153;
1071.6000;0.7171;1.4153;
1071.9000;0.7179;1.4305;
1072.2000;0.7179;1.4279;
1072.5000;0.7147;1.4178;
1072.8000;0.7147;1.4229;
1073.1000;0.7179;1.4254;
1073.4000;0.7163;1.4254;
1073.7000;0.7171;1.4229;
1074.0000;0.7163;1.4203;
1074.3000;0.7196;1.4254;
1074.6000;0.7196;1.4203;
1074.9000;0.7171;1.4153;
1075.2000;0.7163;1.4153;
1075.5000;0.7188;1.4203;
1075.8000;0.7147;1.4254;
1076.1000;0.7188;1.4356;
1076.4000;0.7179;1.4254;
1076.7000;0.7163;1.4305;
1077.0000;0.7179;1.4381;
1077.3000;0.7171;1.4330;
1077.6000;0.7033;1.3950;
1077.9000;0.7179;1.4356;
1078.2000;0.7163;1.4330;
1078.5000;0.7163;1.4330;
1078.8000;0.7098;1.4102;
1079.1000;0.7155;1.4279;
1079.4000;0.7155;1.4305;
1079.7000;0.7171;1.4254;
1080.0000;0.7131;1.4178;
1080.3000;0.7074;1.3975;
1080.6000;0.7171;1.4203;
1080.9000;0.7139;1.4051;
1081.2000;0.7171;1.4127;
1081.5000;0.7163;1.4153;
1081.8000;0.7131;1.4102;
1082.1000;0.7163;1.4178;
1082.4000;0.7188;1.4254;
1082.7000;0.7163;1.4229;
1083.0000;0.7171;1.4229;
1083.3000;0.7171;1.4356;
1083.6000;0.7163;1.4229;
1083.9000;0.7196;1.4330;
1084.2000;0.7179;1.4229;
1084.5000;0.7155;1.4127;
1084.8000;0.7163;1.4178;
1085.1000;0.7212;1.4178;
1085.4000;0.7196;1.4127;
1085.7000;0.7196;1.4102;
1086.0000;0.7212;1.4077;
1086.3000;0.7204;1.4127;
1086.6000;0.7196;1.4102;
1086.9000;0.7204;1.4127;
1087.2000;0.7204;1.4178;
1087.5000;0.7171;1.4153;
1087.8000;0.7171;1.4203;
1088.1000;0.7179;1.4229;
1088.4000;0.7179;1.4229;
1088.7000;0.7179;1.4229;
1089.0000;0.7163;1.4254;
1089.3000;0.7188;1.4356;
1089.6000;0.7188;1.4406;
1089.9000;0.7163;1.4305;
1090.2000;0.7179;1.4305;
1090.5000;0.7155;1.4279;
1090.8000;0.7147;1.4229;
1091.1000;0.7179;1.4254;
1091.4000;0.7155;1.4127;
1091.7000;0.7179;1.4178;
1092.0000;0.7171;1.4178;
1092.3000;0.7163;1.4153;
1092.6000;0.7163;1.4102;
1092.9000;0.7114;1.4026;
1093.2000;0.7155;1.4102;
1093.5000;0.7163;1.4026;
1093.8000;0.7188;1.4102;
1094.1000;0.7179;1.4127;
1094.4000;0.7163;1.4026;
1094.7000;0.7179;1.4077;
1095.0000;0.7171;1.3924;
1095.3000;0.7171;1.3848;
1095.6000;0.7188;1.3899;
1095.9000;0.7188;1.3975;
1096.2000;0.7188;1.3975;
1096.5000;0.7179;1.3950;
1096.8000;0.7188;1.4000;
1097.1000;0.7179;1.4153;
1097.4000;0.7188;1.4203;
1097.7000;0.7147;1.4102;
1098.0000;0.7171;1.4127;
1098.3000;0.7074;1.3899;
1098.6000;0.7171;1.4203;
1098.9000;0.7163;1.4102;
1099.2000;0.7155;1.4127;
1099.5000;0.7171;1.4102;
1099.8000;0.7171;1.4127;
1100.1000;0.7147;1.4127;
1100.4000;0.7163;1.4153;
1100.7000;0.7163;1.4178;
1101.0000;0.7147;1.4127;
1101.3000;0.7163;1.4051;
1101.6000;0.7155;1.4051;
1101.9000;0.7163;1.4127;
1102.2000;0.7163;1.4178;
1102.5000;0.7171;1.4153;
1102.8000;0.7139;1.4153;
1103.1000;0.7179;1.4254;
1103.4000;0.7204;1.4457;
1103.7000;0.7179;1.4279;
1104.0000;0.7155;1.4305;
1104.3000;0.7163;1.4279;
1104.6000;0.7171;1.4356;
1104.9000;0.7204;1.4482;
1105.2000;0.7155;1.4330;
1105.5000;0.7131;1.4229;
1105.8000;0.7131;1.4229;
1106.1000;0.7163;1.4330;
1106.4000;0.7188;1.4381;
1106.7000;0.7179;1.4330;
1107.0000;0.7245;1.4482;
1107.3000;0.7171;1.4305;
1107.6000;0.7188;1.4330;
1107.9000;0.7171;1.4330;
1108.2000;0.7196;1.4406;
1108.5000;0.7179;1.4279;
1108.8000;0.7171;1.4356;
1109.1000;0.7171;1.4381;
1109.4000;0.7179;1.4406;
1109.7000;0.7171;1.4254;
1110.0000;0.7188;1.4279;
1110.3000;0.7179;1.4254;
1110.6000;0.7171;1.4279;
1110.9000;0.7171;1.4305;
1111.2000;0.7188;1.4229;
1111.5000;0.7179;1.4229;
1111.8000;0.7228;1.4381;
1112.1000;0.7171;1.4229;
1112.4000;0.7171;1.4254;
1112.7000;0.7163;1.4203;
1113.0000;0.7171;1.4178;
1113.3000;0.7179;1.4127;
1113.6000;0.7163;1.4229;
1113.9000;0.7188;1.4279;
1114.2000;0.7163;1.4229;
1114.5000;0.7171;1.4330;
1114.8000;0.7188;1.4356;
1115.1000;0.7179;1.4356;
1115.4000;0.7179;1.4178;
1115.7000;0.7179;1.4153;
1116.0000;0.7171;1.4153;
1116.3000;0.7188;1.4178;
1116.6000;0.7188;1.4254;
1116.9000;0.7171;1.4330;
1117.2000;0.7163;1.4305;
1117.5000;0.7188;1.4330;
1117.8000;0.7188;1.4406;
1118.1000;0.7171;1.4432;
1118.4000;0.7171;1.4432;
1118.7000;0.7163;1.4406;
1119.0000;0.7155;1.4406;
1119.3000;0.7245;1.4558;
1119.6000;0.7179;1.4305;
1119.9000;0.7179;1.4279;
1120.2000;0.7196;1.4229;
1120.5000;0.7179;1.4153;
1120.8000;0.7277;1.4533;
1121.1000;0.7171;1.4203;
1121.4000;0.7147;1.4102;
1121.7000;0.7179;1.4279;
1122.0000;0.7196;1.4279;
1122.3000;0.7163;1.4178;
1122.6000;0.7188;1.4279;
1122.9000;0.7171;1.4254;
1123.2000;0.7163;1.4229;
1123.5000;0.7163;1.4254;
1123.8000;0.7163;1.4254;
1124.1000;0.7171;1.4153;
1124.4000;0.7212;1.4254;
1124.7000;0.7155;1.4203;
1125.0000;0.7179;1.4229;
1125.3000;0.7188;1.4102;
1125.6000;0.7171;1.4000;
1125.9000;0.7147;1.4077;
1126.2000;0.7163;1.4203;
1126.5000;0.7155;1.4127;
1126.8000;0.7179;1.4254;
1127.1000;0.7155;1.4279;
1127.4000;0.7188;1.4356;
1127.7000;0.7163;1.4279;
1128.0000;0.7171;1.4305;
1128.3000;0.7131;1.4203;
1128.6000;0.7171;1.4229;
1128.9000;0.7171;1.4178;
1129.2000;0.7179;1.4178;
1129.5000;0.7163;1.4051;
1129.8000;0.7163;1.4026;
1130.1000;0.7155;1.3975;
1130.4000;0.7147;1.3950;
1130.7000;0.7155;1.3924;
1131.0000;0.7163;1.3950;
1131.3000;0.7163;1.4000;
1131.6000;0.7171;1.3950;
1131.9000;0.7163;1.4000;
1132.2000;0.7171;1.3975;
1132.5000;0.7155;1.4000;
1132.8000;0.7114;1.3874;
1133.1000;0.7179;1.4153;
1133.4000;0.7163;1.4178;
1133.7000;0.7179;1.4153;
1134.0000;0.7171;1.4051;
1134.3000;0.7285;1.4305;
1134.6000;0.7204;1.4077;
1134.9000;0.7212;1.4178;
1135.2000;0.7171;1.4051;
1135.5000;0.7188;1.3924;
1135.8000;0.7285;1.4229;
1136.1000;0.7155;1.3899;
1136.4000;0.7179;1.3975;
1136.7000;0.7188;1.3975;
1137.0000;0.7171;1.3975;
1137.3000;0.7212;1.4026;
1137.6000;0.7179;1.3924;
1137.9000;0.7179;1.3899;
1138.2000;0.7123;1.3772;
1138.5000;0.7179;1.3975;
1138.8000;0.7196;1.4000;
1139.1000;0.7123;1.3950;
1139.4000;0.7188;1.4077;
1139.7000;0.7163;1.4026;
1140.0000;0.7171;1.4178;
1140.3000;0.7171;1.4203;
1140.6000;0.7171;1.4178;
1140.9000;0.7188;1.4153;
1141.2000;0.7163;1.4127;
1141.5000;0.7179;1.4127;
1141.8000;0.7171;1.4051;
1142.1000;0.7163;1.4077;
1142.4000;0.7188;1.4051;
1142.7000;0.7179;1.4077;
1143.0000;0.7188;1.4153;
1143.3000;0.7188;1.4153;
1143.6000;0.7163;1.4077;
1143.9000;0.7147;1.4000;
1144.2000;0.7139;1.4026;
1144.5000;0.7188;1.4026;
1144.8000;0.7179;1.4026;
1145.1000;0.7179;1.4077;
1145.4000;0.7155;1.4000;
1145.7000;0.7179;1.4000;
1146.0000;0.7179;1.3950;
1146.3000;0.7163;1.3848;
1146.6000;0.7171;1.3798;
1146.9000;0.7179;1.3772;
1147.2000;0.7171;1.3924;
1147.5000;0.7155;1.3950;
1147.8000;0.7171;1.3899;
1148.1000;0.7179;1.4000;
1148.4000;0.7171;1.4026;
1148.7000;0.7147;1.4026;
1149.0000;0.7179;1.4153;
1149.3000;0.7155;1.4026;
1149.6000;0.7188;1.4203;
1149.9000;0.7171;1.4229;
1150.2000;0.7179;1.4229;
1150.5000;0.7188;1.4279;
1150.8000;0.7196;1.4153;
1151.1000;0.7212;1.4229;
1151.4000;0.7188;1.4102;
1151.7000;0.7179;1.4127;
1152.0000;0.7188;1.4102;
1152.3000;0.7155;1.3975;
1152.6000;0.7171;1.3975;
1152.9000;0.7188;1.3975;
1153.2000;0.7163;1.3924;
1153.5000;0.7179;1.4000;
1153.8000;0.7163;1.4000;
1154.1000;0.7171;1.4026;
1154.4000;0.7196;1.4051;
1154.7000;0.7171;1.4000;
1155.0000;0.7179;1.4051;
1155.3000;0.7155;1.4051;
1155.6000;0.7179;1.4153;
1155.9000;0.7179;1.4127;
1156.2000;0.7188;1.4178;
1156.5000;0.7179;1.4051;
1156.8000;0.7163;1.4026;
1157.1000;0.7163;1.4000;
1157.4000;0.7147;1.3950;
1157.7000;0.7147;1.3874;
1158.0000;0.7155;1.3848;
1158.3000;0.7196;1.3975;
1158.6000;0.7163;1.3924;
1158.9000;0.7147;1.3950;
1159.2000;0.7188;1.3950;
1159.5000;0.7179;1.3874;
1159.8000;0.7179;1.3924;
1160.1000;0.7188;1.3975;
1160.4000;0.7188;1.3924;
1160.7000;0.7179;1.3924;
1161.0000;0.7179;1.3924;
1161.3000;0.7171;1.3874;
1161.6000;0.7171;1.3874;
1161.9000;0.7179;1.3874;
1162.2000;0.7196;1.3874;
1162.5000;0.7179;1.3772;
1162.8000;0.7163;1.3747;
1163.1000;0.7179;1.3823;
1163.4000;0.7171;1.3874;
1163.7000;0.7163;1.3823;
1164.0000;0.7179;1.3798;
1164.3000;0.7188;1.3823;
1164.6000;0.7179;1.3924;
1164.9000;0.7188;1.3924;
1165.2000;0.7179;1.3874;
1165.5000;0.7179;1.3874;
1165.8000;0.7196;1.3874;
1166.1000;0.7179;1.3823;
1166.4000;0.7204;1.3848;
1166.7000;0.7188;1.3798;
1167.0000;0.7163;1.3874;
1167.3000;0.7188;1.3975;
1167.6000;0.7188;1.4102;
1167.9000;0.7196;1.4153;
1168.2000;0.7171;1.4026;
1168.5000;0.7171;1.4026;
1168.8000;0.7171;1.4077;
1169.1000;0.7163;1.3975;
1169.4000;0.7163;1.3975;
1169.7000;0.7123;1.3848;
1170.0000;0.7171;1.4026;
1170.3000;0.7188;1.4026;
1170.6000;0.7179;1.3975;
1170.9000;0.7179;1.4000;
1171.2000;0.7171;1.3924;
1171.5000;0.7163;1.3899;
1171.8000;0.7123;1.3848;
1172.1000;0.7171;1.4000;
1172.4000;0.7163;1.3975;
1172.7000;0.7179;1.3924;
1173.0000;0.7171;1.3899;
1173.3000;0.7179;1.3798;
1173.6000;0.7171;1.3772;
1173.9000;0.7163;1.3721;
1174.2000;0.7163;1.3848;
1174.5000;0.7179;1.3874;
1174.8000;0.7179;1.3899;
1175.1000;0.7163;1.4000;
1175.4000;0.7179;1.4000;
1175.7000;0.7171;1.3975;
1176.0000;0.7188;1.4026;
1176.3000;0.7196;1.4051;
1176.6000;0.7155;1.3950;
1176.9000;0.7196;1.3950;
1177.2000;0.7179;1.3950;
1177.5000;0.7171;1.3950;
1177.8000;0.7179;1.4000;
1178.1000;0.7163;1.3975;
1178.4000;0.7163;1.4026;
1178.7000;0.7147;1.4077;
1179.0000;0.7179;1.4127;
1179.3000;0.7155;1.4051;
1179.6000;0.7293;1.4330;
1179.9000;0.7179;1.4102;
1180.2000;0.7196;1.4229;
1180.5000;0.7163;1.4026;
1180.8000;0.7171;1.4102;
1181.1000;0.7139;1.3950;
1181.4000;0.7171;1.3975;
1181.7000;0.7155;1.3975;
1182.0000;0.7171;1.4051;
1182.3000;0.7179;1.4051;
1182.6000;0.7131;1.3950;
1182.9000;0.7179;1.3975;
1183.2000;0.7147;1.3950;
1183.5000;0.7163;1.4026;
1183.8000;0.7171;1.4102;
1184.1000;0.7114;1.4026;
1184.4000;0.7188;1.4229;
1184.7000;0.7179;1.4127;
1185.0000;0.7196;1.4077;
1185.3000;0.7179;1.4000;
1185.6000;0.7188;1.4000;
1185.9000;0.7171;1.4026;
1186.2000;0.7188;1.3924;
1186.5000;0.7171;1.3924;
1186.8000;0.7155;1.3874;
1187.1000;0.7188;1.3950;
1187.4000;0.7188;1.3950;
1187.7000;0.7155;1.3899;
1188.0000;0.7163;1.3899;
1188.3000;0.7179;1.3899;
1188.6000;0.7171;1.3975;
1188.9000;0.7179;1.3975;
1189.2000;0.7179;1.3950;
1189.5000;0.7163;1.3975;
1189.8000;0.7179;1.4051;
1190.1000;0.7171;1.4000;
1190.4000;0.7090;1.3747;
1190.7000;0.7163;1.3975;
1191.0000;0.7188;1.3924;
1191.3000;0.7179;1.3899;
1191.6000;0.7188;1.3874;
1191.9000;0.7188;1.3823;
1192.2000;0.7196;1.3823;
1192.5000;0.7171;1.3747;
1192.8000;0.7188;1.3772;
1193.1000;0.7139;1.3696;
1193.4000;0.7171;1.3848;
1193.7000;0.7163;1.3874;
1194.0000;0.7171;1.3874;
1194.3000;0.7155;1.3950;
1194.6000;0.7171;1.3950;
1194.9000;0.7171;1.3924;
1195.2000;0.7188;1.4000;
1195.5000;0.7179;1.4026;
1195.8000;0.7277;1.4254;
1196.1000;0.7171;1.3848;
1196.4000;0.7204;1.3823;
1196.7000;0.7179;1.3747;
1197.0000;0.7179;1.3823;
1197.3000;0.7163;1.3848;
1197.6000;0.7163;1.3924;
1197.9000;0.7131;1.3950;
1198.2000;0.7155;1.4026;
1198.5000;0.7204;1.4051;
1198.8000;0.7147;1.4051;
1199.1000;0.7139;1.3950;
1199.4000;0.7171;1.3975;
1199.7000;0.7163;1.3899;
1200.0000;0.7114;1.3747;
1200.3000;0.7188;1.3975;
1200.6000;0.7179;1.3924;
1200.9000;0.7147;1.3823;
1201.2000;0.7179;1.3924;
1201.5000;0.7261;1.4153;
1201.8000;0.7196;1.4026;
1202.1000;0.7171;1.3975;
1202.4000;0.7179;1.4051;
1202.7000;0.7106;1.3798;
1203.0000;0.7163;1.3899;
1203.3000;0.7179;1.3950;
1203.6000;0.7179;1.3899;
1203.9000;0.7179;1.3848;
1204.2000;0.7179;1.3924;
1204.5000;0.7171;1.3950;
1204.8000;0.7196;1.3950;
1205.1000;0.7171;1.3924;
1205.4000;0.7188;1.4000;
1205.7000;0.7179;1.3950;
1206.0000;0.7188;1.3924;
1206.3000;0.7179;1.3874;
1206.6000;0.7188;1.3899;
1206.9000;0.7188;1.3950;
1207.2000;0.7179;1.3848;
1207.5000;0.7179;1.3924;
1207.8000;0.7179;1.3924;
1208.1000;0.7163;1.3823;
1208.4000;0.7163;1.3874;
1208.7000;0.7196;1.4026;
1209.0000;0.7179;1.3975;
1209.3000;0.7188;1.3924;
1209.6000;0.7179;1.3848;
1209.9000;0.7188;1.3924;
1210.2000;0.7188;1.3950;
1210.5000;0.7212;1.4077;
1210.8000;0.7188;1.3975;
1211.1000;0.7171;1.3874;
1211.4000;0.7155;1.3747;
1211.7000;0.7179;1.3772;
1212.0000;0.7155;1.3772;
1212.3000;0.7179;1.3848;
1212.6000;0.7171;1.3874;
1212.9000;0.7179;1.3848;
1213.2000;0.7179;1.3721;
1213.5000;0.7188;1.3772;
1213.8000;0.7147;1.3823;
1214.1000;0.7163;1.3848;
1214.4000;0.7098;1.3620;
1214.7000;0.7163;1.3798;
1215.0000;0.7082;1.3620;
1215.3000;0.7179;1.3950;
1215.6000;0.7179;1.3899;
1215.9000;0.7179;1.3848;
1216.2000;0.7155;1.3899;
1216.5000;0.7155;1.3950;
1216.8000;0.7179;1.4026;
1217.1000;0.7204;1.4026;
1217.4000;0.7293;1.4279;
1217.7000;0.7188;1.4000;
1218.0000;0.7171;1.4127;
1218.3000;0.7179;1.4203;
1218.6000;0.7188;1.4178;
1218.9000;0.7139;1.4051;
1219.2000;0.7179;1.4077;
1219.5000;0.7188;1.4153;
1219.8000;0.7179;1.4127;
1220.1000;0.7204;1.4102;
1220.4000;0.7236;1.4356;
1220.7000;0.7179;1.4178;
1221.0000;0.7196;1.4254;
1221.3000;0.7155;1.4178;
1221.6000;0.7188;1.4279;
1221.9000;0.7098;1.3950;
1222.2000;0.7147;1.4026;
1222.5000;0.7114;1.3950;
1222.8000;0.7114;1.4026;
1223.1000;0.7171;1.4203;
1223.4000;0.7155;1.4000;
1223.7000;0.7171;1.4026;
1224.0000;0.7179;1.4026;
1224.3000;0.7188;1.4000;
1224.6000;0.7245;1.4102;
1224.9000;0.7163;1.3950;
1225.2000;0.7114;1.3874;
1225.5000;0.7196;1.4127;
1225.8000;0.7196;1.4102;
1226.1000;0.7179;1.4000;
1226.4000;0.7163;1.3950;
1226.7000;0.7171;1.3975;
1227.0000;0.7155;1.3899;
1227.3000;0.7212;1.4051;
1227.6000;0.7155;1.3899;
1227.9000;0.7179;1.3899;
1228.2000;0.7171;1.3924;
1228.5000;0.7179;1.4000;
1228.8000;0.7163;1.3950;
1229.1000;0.7163;1.4000;
1229.4000;0.7204;1.4102;
1229.7000;0.7188;1.4026;
1230.0000;0.7163;1.3899;
1230.3000;0.7188;1.3899;
1230.6000;0.7196;1.3899;
1230.9000;0.7188;1.3772;
1231.2000;0.7163;1.3671;
1231.5000;0.7171;1.3772;
1231.8000;0.7179;1.3823;
1232.1000;0.7188;1.3823;
1232.4000;0.7179;1.3772;
1232.7000;0.7171;1.3747;
1233.0000;0.7171;1.3798;
1233.3000;0.7171;1.3747;
1233.6000;0.7179;1.3899;
1233.9000;0.7155;1.3848;
1234.2000;0.7163;1.3823;
1234.5000;0.7188;1.3899;
1234.8000;0.7171;1.3899;
1235.1000;0.7179;1.3924;
1235.4000;0.7188;1.3950;
1235.7000;0.7179;1.3899;
1236.0000;0.7204;1.3874;
1236.3000;0.7147;1.3798;
1236.6000;0.7163;1.3848;
1236.9000;0.7220;1.3975;
1237.2000;0.7220;1.3924;
1237.5000;0.7179;1.3798;
1237.8000;0.7196;1.3874;
1238.1000;0.7179;1.3874;
1238.4000;0.7196;1.3950;
1238.7000;0.7179;1.3848;
1239.0000;0.7188;1.3975;
1239.3000;0.7253;1.4102;
1239.6000;0.7204;1.3950;
1239.9000;0.7196;1.3975;
1240.2000;0.7196;1.4000;
1240.5000;0.7188;1.3924;
1240.8000;0.7179;1.3848;
1241.1000;0.7163;1.3899;
1241.4000;0.7114;1.3798;
1241.7000;0.7163;1.3950;
1242.0000;0.7171;1.3924;
1242.3000;0.7171;1.3848;
1242.6000;0.7155;1.3823;
1242.9000;0.7179;1.3899;
1243.2000;0.7188;1.3975;
1243.5000;0.7179;1.3823;
1243.8000;0.7179;1.3798;
1244.1000;0.7188;1.3772;
1244.4000;0.7188;1.3823;
1244.7000;0.7188;1.3874;
1245.0000;0.7204;1.3823;
1245.3000;0.7204;1.3798;
1245.6000;0.7179;1.3798;
1245.9000;0.7196;1.3848;
1246.2000;0.7188;1.3823;
1246.5000;0.7196;1.3924;
1246.8000;0.7155;1.3747;
1247.1000;0.7188;1.3874;
1247.4000;0.7163;1.3848;
1247.7000;0.7163;1.3899;
1248.0000;0.7163;1.3848;
1248.3000;0.7163;1.3924;
1248.6000;0.7171;1.4026;
1248.9000;0.7179;1.4077;
1249.2000;0.7179;1.4102;
1249.5000;0.7179;1.4102;
1249.8000;0.7179;1.4127;
1250.1000;0.7155;1.4077;
1250.4000;0.7163;1.4153;
1250.7000;0.7188;1.4229;
1251.0000;0.7196;1.4254;
1251.3000;0.7204;1.4229;
1251.6000;0.7171;1.4051;
1251.9000;0.7196;1.4000;
1252.2000;0.7171;1.4000;
1252.5000;0.7179;1.4127;
1252.8000;0.7179;1.4153;
1253.1000;0.7179;1.4229;
1253.4000;0.7188;1.4229;
1253.7000;0.7188;1.4178;
1254.0000;0.7188;1.4153;
1254.3000;0.7171;1.4153;
1254.6000;0.7171;1.4127;
1254.9000;0.7188;1.4051;
1255.2000;0.7179;1.3975;
1255.5000;0.7196;1.3950;
1255.8000;0.7179;1.3899;
1256.1000;0.7204;1.3924;
1256.4000;0.7228;1.3950;
1256.7000;0.7188;1.3950;
1257.0000;0.7188;1.4000;
1257.3000;0.7188;1.4026;
1257.6000;0.7196;1.4000;
1257.9000;0.7155;1.3975;
1258.2000;0.7163;1.3823;
1258.5000;0.7204;1.3899;
1258.8000;0.7188;1.3899;
1259.1000;0.7196;1.3899;
1259.4000;0.7212;1.4102;
1259.7000;0.7196;1.4178;
1260.0000;0.7188;1.4203;
1260.3000;0.7204;1.4254;
1260.6000;0.7179;1.4051;
1260.9000;0.7123;1.3899;
1261.2000;0.7188;1.4077;
1261.5000;0.7171;1.4127;
1261.8000;0.7196;1.4203;
1262.1000;0.7196;1.4254;
1262.4000;0.7155;1.4178;
1262.7000;0.7171;1.4229;
1263.0000;0.7179;1.4153;
1263.3000;0.7179;1.4153;
1263.6000;0.7179;1.4102;
1263.9000;0.7179;1.4127;
1264.2000;0.7179;1.4178;
1264.5000;0.7171;1.4102;
1264.8000;0.7188;1.4178;
1265.1000;0.7204;1.4203;
1265.4000;0.7179;1.4153;
1265.7000;0.7179;1.4178;
1266.0000;0.7188;1.4203;
1266.3000;0.7196;1.4153;
1266.6000;0.7188;1.4102;
1266.9000;0.7179;1.4051;
1267.2000;0.7285;1.4330;
1267.5000;0.7196;1.4127;
1267.8000;0.7163;1.4026;
1268.1000;0.7253;1.4279;
1268.4000;0.7179;1.4178;
1268.7000;0.7212;1.4229;
1269.0000;0.7188;1.4153;
1269.3000;0.7196;1.4153;
1269.6000;0.7163;1.4203;
1269.9000;0.7179;1.4178;
1270.2000;0.7188;1.4279;
1270.5000;0.7188;1.4279;
1270.8000;0.7188;1.4178;
1271.1000;0.7196;1.4178;
1271.4000;0.7204;1.4178;
1271.7000;0.7179;1.4178;
1272.0000;0.7188;1.4102;
1272.3000;0.7179;1.3975;
1272.6000;0.7196;1.4127;
1272.9000;0.7310;1.4406;
1273.2000;0.7188;1.4102;
1273.5000;0.7179;1.4051;
1273.8000;0.7155;1.4026;
1274.1000;0.7188;1.4077;
1274.4000;0.7171;1.4051;
1274.7000;0.7179;1.4051;
1275.0000;0.7196;1.4026;
1275.3000;0.7196;1.4102;
1275.6000;0.7188;1.4102;
1275.9000;0.7196;1.4229;
1276.2000;0.7196;1.4153;
1276.5000;0.7212;1.4178;
1276.8000;0.7188;1.4127;
1277.1000;0.7236;1.4279;
1277.4000;0.7179;1.4153;
1277.7000;0.7236;1.4432;
1278.0000;0.7204;1.4381;
1278.3000;0.7179;1.4229;
1278.6000;0.7188;1.4279;
1278.9000;0.7196;1.4330;
1279.2000;0.7188;1.4356;
1279.5000;0.7188;1.4279;
1279.8000;0.7212;1.4381;
1280.1000;0.7171;1.4406;
1280.4000;0.7179;1.4432;
1280.7000;0.7188;1.4457;
1281.0000;0.7179;1.4432;
1281.3000;0.7188;1.4356;
1281.6000;0.7188;1.4381;
1281.9000;0.7179;1.4406;
1282.2000;0.7179;1.4330;
1282.5000;0.7179;1.4305;
1282.8000;0.7179;1.4279;
1283.1000;0.7188;1.4203;
1283.4000;0.7171;1.4203;
1283.7000;0.7155;1.4203;
1284.0000;0.7179;1.4229;
1284.3000;0.7196;1.4330;
1284.6000;0.7139;1.4178;
1284.9000;0.7163;1.4254;
1285.2000;0.7179;1.4305;
1285.5000;0.7179;1.4381;
1285.8000;0.7179;1.4432;
1286.1000;0.7179;1.4406;
1286.4000;0.7179;1.4330;
1286.7000;0.7220;1.4432;
1287.0000;0.7188;1.4305;
1287.3000;0.7204;1.4356;
1287.6000;0.7163;1.4330;
1287.9000;0.7188;1.4381;
1288.2000;0.7212;1.4508;
1288.5000;0.7188;1.4381;
1288.8000;0.7188;1.4457;
1289.1000;0.7310;1.4736;
1289.4000;0.7179;1.4305;
1289.7000;0.7204;1.4381;
1290.0000;0.7163;1.4330;
1290.3000;0.7204;1.4381;
1290.6000;0.7253;1.4584;
1290.9000;0.7114;1.4254;
1291.2000;0.7188;1.4305;
1291.5000;0.7188;1.4381;
1291.8000;0.7188;1.4381;
1292.1000;0.7179;1.4330;
1292.4000;0.7188;1.4254;
1292.7000;0.7188;1.4254;
1293.0000;0.7147;1.4153;
1293.3000;0.7163;1.4229;
1293.6000;0.7196;1.4254;
1293.9000;0.7179;1.4305;
1294.2000;0.7171;1.4254;
1294.5000;0.7171;1.4153;
1294.8000;0.7171;1.4127;
1295.1000;0.7179;1.4153;
1295.4000;0.7179;1.4153;
1295.7000;0.7179;1.4127;
1296.0000;0.7139;1.4026;
1296.3000;0.7171;1.4077;
1296.6000;0.7179;1.4077;
1296.9000;0.7261;1.4279;
1297.2000;0.7163;1.4026;
1297.5000;0.7163;1.4026;
1297.8000;0.7131;1.3950;
1298.1000;0.7204;1.4127;
1298.4000;0.7171;1.4026;
1298.7000;0.7098;1.3848;
1299.0000;0.7204;1.4077;
1299.3000;0.7188;1.4051;
1299.6000;0.7188;1.4178;
1299.9000;0.7188;1.4127;
1300.2000;0.7074;1.3823;
1300.5000;0.7188;1.4051;
1300.8000;0.7179;1.3950;
1301.1000;0.7188;1.3975;
1301.4000;0.7204;1.3874;
1301.7000;0.7196;1.3899;
1302.0000;0.7204;1.4051;
1302.3000;0.7196;1.4051;
1302.6000;0.7147;1.4000;
1302.9000;0.7188;1.4102;
1303.2000;0.7212;1.4102;
1303.5000;0.7163;1.3924;
1303.8000;0.7179;1.4000;
1304.1000;0.7171;1.4051;
1304.4000;0.7204;1.4127;
1304.7000;0.7188;1.4077;
1305.0000;0.7188;1.3950;
1305.3000;0.7188;1.3950;
1305.6000;0.7196;1.3874;
1305.9000;0.7188;1.3950;
1306.2000;0.7188;1.4077;
1306.5000;0.7171;1.4102;
1306.8000;0.7188;1.4077;
1307.1000;0.7179;1.4051;
1307.4000;0.7277;1.4279;
1307.7000;0.7188;1.3950;
1308.0000;0.7171;1.3899;
1308.3000;0.7196;1.3924;
1308.6000;0.7155;1.3874;
1308.9000;0.7236;1.4077;
1309.2000;0.7147;1.3899;
1309.5000;0.7147;1.3975;
1309.8000;0.7212;1.4178;
1310.1000;0.7188;1.4203;
1310.4000;0.7171;1.4279;
1310.7000;0.7179;1.4127;
1311.0000;0.7188;1.4203;
1311.3000;0.7163;1.4153;
1311.6000;0.7179;1.4305;
1311.9000;0.7147;1.4254;
1312.2000;0.7188;1.4356;
1312.5000;0.7188;1.4356;
1312.8000;0.7253;1.4381;
1313.1000;0.7163;1.4203;
1313.4000;0.7196;1.4279;
1313.7000;0.7179;1.4254;
1314.0000;0.7204;1.4254;
1314.3000;0.7228;1.4203;
1314.6000;0.7196;1.4203;
1314.9000;0.7204;1.4229;
1315.2000;0.7196;1.4229;
1315.5000;0.7090;1.4000;
1315.8000;0.7277;1.4457;
1316.1000;0.7196;1.4279;
1316.4000;0.7155;1.4127;
1316.7000;0.7179;1.4203;
1317.0000;0.7188;1.4153;
1317.3000;0.7196;1.4203;
1317.6000;0.7188;1.4178;
1317.9000;0.7179;1.4203;
1318.2000;0.7179;1.4279;
1318.5000;0.7204;1.4356;
1318.8000;0.7171;1.4279;
1319.1000;0.7163;1.4356;
1319.4000;0.7188;1.4330;
1319.7000;0.7155;1.4203;
1320.0000;0.7188;1.4229;
1320.3000;0.7163;1.4153;
1320.6000;0.7245;1.4457;
1320.9000;0.7204;1.4381;
1321.2000;0.7179;1.4330;
1321.5000;0.7163;1.4254;
1321.8000;0.7179;1.4356;
1322.1000;0.7179;1.4406;
1322.4000;0.7188;1.4330;
1322.7000;0.7196;1.4279;
1323.0000;0.7171;1.4254;
1323.3000;0.7163;1.4127;
1323.6000;0.7204;1.4330;
1323.9000;0.7188;1.4381;
1324.2000;0.7155;1.4254;
1324.5000;0.7196;1.4330;
1324.8000;0.7196;1.4254;
1325.1000;0.7188;1.4153;
1325.4000;0.7204;1.4153;
1325.7000;0.7204;1.4153;
1326.0000;0.7188;1.4102;
1326.3000;0.7179;1.4077;
1326.6000;0.7212;1.4000;
1326.9000;0.7090;1.3747;
1327.2000;0.7212;1.4051;
1327.5000;0.7204;1.4026;
1327.8000;0.7188;1.4127;
1328.1000;0.7179;1.4229;
1328.4000;0.7220;1.4356;
1328.7000;0.7220;1.4406;
1329.0000;0.7188;1.4203;
1329.3000;0.7155;1.4077;
1329.6000;0.7196;1.4178;
1329.9000;0.7212;1.4254;
1330.2000;0.7188;1.4330;
1330.5000;0.7188;1.4356;
1330.8000;0.7196;1.4381;
1331.1000;0.7212;1.4381;
1331.4000;0.7253;1.4533;
1331.7000;0.7090;1.4127;
1332.0000;0.7188;1.4381;
1332.3000;0.7212;1.4406;
1332.6000;0.7147;1.4178;
1332.9000;0.7212;1.4203;
1333.2000;0.7236;1.4279;
1333.5000;0.7074;1.3874;
1333.8000;0.7204;1.4203;
1334.1000;0.7171;1.4077;
1334.4000;0.7188;1.4026;
1334.7000;0.7220;1.4102;
1335.0000;0.7220;1.4102;
1335.3000;0.7171;1.4000;
1335.6000;0.7188;1.3975;
1335.9000;0.7188;1.3924;
1336.2000;0.7204;1.3924;
1336.5000;0.7204;1.3924;
1336.8000;0.7171;1.3848;
1337.1000;0.7196;1.3950;
1337.4000;0.7212;1.4000;
1337.7000;0.7212;1.3975;
1338.0000;0.7179;1.3975;
1338.3000;0.7179;1.4077;
1338.6000;0.7204;1.4026;
1338.9000;0.7179;1.4153;
1339.2000;0.7163;1.4153;
1339.5000;0.7188;1.4178;
1339.8000;0.7188;1.4254;
1340.1000;0.7228;1.4254;
1340.4000;0.7269;1.4356;
1340.7000;0.7179;1.4127;
1341.0000;0.7163;1.4051;
1341.3000;0.7188;1.4153;
1341.6000;0.7179;1.4153;
1341.9000;0.7196;1.4203;
1342.2000;0.7147;1.4077;
1342.5000;0.7179;1.4102;
1342.8000;0.7204;1.4102;
1343.1000;0.7171;1.4127;
1343.4000;0.7204;1.4229;
1343.7000;0.7196;1.4279;
1344.0000;0.7188;1.4254;
1344.3000;0.7171;1.4178;
1344.6000;0.7163;1.4127;
1344.9000;0.7171;1.4178;
1345.2000;0.7196;1.4203;
1345.5000;0.7179;1.4077;
1345.8000;0.7188;1.4026;
1346.1000;0.7196;1.4102;
1346.4000;0.7188;1.4203;
1346.7000;0.7188;1.4127;
1347.0000;0.7179;1.4127;
1347.3000;0.7188;1.4229;
1347.6000;0.7204;1.4254;
1347.9000;0.7204;1.4305;
1348.2000;0.7204;1.4330;
1348.5000;0.7179;1.4229;
1348.8000;0.7163;1.4127;
1349.1000;0.7196;1.4178;
1349.4000;0.7179;1.4229;
1349.7000;0.7163;1.4178;
1350.0000;0.7196;1.4279;
1350.3000;0.7179;1.4153;
1350.6000;0.7188;1.4178;
1350.9000;0.7196;1.4330;
1351.2000;0.7196;1.4254;
1351.5000;0.7212;1.4279;
1351.8000;0.7179;1.4203;
1352.1000;0.7236;1.4508;
1352.4000;0.7139;1.4178;
1352.7000;0.7188;1.4330;
1353.0000;0.7204;1.4330;
1353.3000;0.7212;1.4330;
1353.6000;0.7179;1.4279;
1353.9000;0.7179;1.4254;
1354.2000;0.7163;1.4102;
1354.5000;0.7179;1.4153;
1354.8000;0.7179;1.4203;
1355.1000;0.7196;1.4203;
1355.4000;0.7285;1.4305;
1355.7000;0.7204;1.4077;
1356.0000;0.7155;1.3950;
1356.3000;0.7163;1.3950;
1356.6000;0.7212;1.4102;
1356.9000;0.7196;1.4077;
1357.2000;0.7196;1.4178;
1357.5000;0.7196;1.4153;
1357.8000;0.7188;1.4254;
1358.1000;0.7188;1.4203;
1358.4000;0.7179;1.4153;
1358.7000;0.7188;1.4178;
1359.0000;0.7188;1.4254;
1359.3000;0.7179;1.4254;
1359.6000;0.7188;1.4330;
1359.9000;0.7123;1.4229;
1360.2000;0.7196;1.4356;
1360.5000;0.7179;1.4254;
1360.8000;0.7188;1.4203;
1361.1000;0.7204;1.4356;
1361.4000;0.7188;1.4305;
1361.7000;0.7269;1.4558;
1362.0000;0.7253;1.4584;
1362.3000;0.7179;1.4432;
1362.6000;0.7204;1.4482;
1362.9000;0.7179;1.4432;
1363.2000;0.7171;1.4330;
1363.5000;0.7196;1.4330;
1363.8000;0.7236;1.4356;
1364.1000;0.7196;1.4229;
1364.4000;0.7171;1.4102;
1364.7000;0.7179;1.4000;
1365.0000;0.7171;1.4077;
1365.3000;0.7196;1.4178;
1365.6000;0.7188;1.4127;
1365.9000;0.7196;1.4178;
1366.2000;0.7196;1.4178;
1366.5000;0.7204;1.4127;
1366.8000;0.7196;1.4102;
1367.1000;0.7204;1.4102;
1367.4000;0.7179;1.4000;
1367.7000;0.7188;1.3975;
1368.0000;0.7171;1.3975;
1368.3000;0.7155;1.3874;
1368.6000;0.7188;1.3874;
1368.9000;0.7188;1.3950;
1369.2000;0.7188;1.3950;
1369.5000;0.7188;1.4000;
1369.8000;0.7179;1.3950;
1370.1000;0.7261;1.4203;
1370.4000;0.7196;1.4000;
1370.7000;0.7196;1.4000;
1371.0000;0.7188;1.4026;
1371.3000;0.7293;1.4305;
1371.6000;0.7196;1.4178;
1371.9000;0.7179;1.4254;
1372.2000;0.7188;1.4356;
1372.5000;0.7188;1.4279;
1372.8000;0.7188;1.4254;
1373.1000;0.7090;1.4077;
1373.4000;0.7163;1.4381;
1373.7000;0.7179;1.4330;
1374.0000;0.7220;1.4356;
1374.3000;0.7196;1.4305;
1374.6000;0.7204;1.4254;
1374.9000;0.7171;1.4127;
1375.2000;0.7188;1.4051;
1375.5000;0.7245;1.4178;
1375.8000;0.7179;1.4026;
1376.1000;0.7245;1.4229;
1376.4000;0.7171;1.4051;
1376.7000;0.7196;1.4178;
1377.0000;0.7212;1.4229;
1377.3000;0.7188;1.4254;
1377.6000;0.7188;1.4254;
1377.9000;0.7179;1.4279;
1378.2000;0.7179;1.4305;
1378.5000;0.7261;1.4533;
1378.8000;0.7179;1.4330;
1379.1000;0.7285;1.4609;
1379.4000;0.7171;1.4254;
1379.7000;0.7204;1.4203;
1380.0000;0.7188;1.4229;
1380.3000;0.7196;1.4203;
1380.6000;0.7204;1.4203;
1380.9000;0.7261;1.4406;
1381.2000;0.7179;1.4254;
1381.5000;0.7204;1.4178;
1381.8000;0.7220;1.4178;
1382.1000;0.7204;1.4077;
1382.4000;0.7188;1.4077;
1382.7000;0.7204;1.4127;
1383.0000;0.7204;1.4102;
1383.3000;0.7204;1.4153;
1383.6000;0.7188;1.4279;
1383.9000;0.7188;1.4254;
1384.2000;0.7188;1.4254;
1384.5000;0.7204;1.4279;
1384.8000;0.7188;1.4203;
1385.1000;0.7196;1.4153;
1385.4000;0.7204;1.4178;
1385.7000;0.7196;1.4178;
1386.0000;0.7212;1.4229;
1386.3000;0.7196;1.4203;
1386.6000;0.7179;1.4178;
1386.9000;0.7196;1.4203;
1387.2000;0.7114;1.3975;
1387.5000;0.7196;1.4178;
1387.8000;0.7131;1.4026;
1388.1000;0.7188;1.4127;
1388.4000;0.7188;1.4153;
1388.7000;0.7188;1.4178;
1389.0000;0.7131;1.3950;
1389.3000;0.7123;1.3975;
1389.6000;0.7163;1.4077;
1389.9000;0.7196;1.4178;
1390.2000;0.7155;1.4102;
1390.5000;0.7179;1.4178;
1390.8000;0.7196;1.4229;
1391.1000;0.7188;1.4203;
1391.4000;0.7196;1.4203;
1391.7000;0.7204;1.4153;
1392.0000;0.7196;1.4153;
1392.3000;0.7196;1.4153;
1392.6000;0.7171;1.4127;
1392.9000;0.7220;1.4102;
1393.2000;0.7204;1.4051;
1393.5000;0.7277;1.4305;
1393.8000;0.7196;1.4178;
1394.1000;0.7220;1.4203;
1394.4000;0.7212;1.4203;
1394.7000;0.7188;1.4102;
1395.0000;0.7253;1.4203;
1395.3000;0.7236;1.4178;
1395.6000;0.7204;1.4102;
1395.9000;0.7212;1.4102;
1396.2000;0.7196;1.4051;
1396.5000;0.7204;1.4077;
1396.8000;0.7212;1.4178;
1397.1000;0.7204;1.4102;
1397.4000;0.7163;1.4026;
1397.7000;0.7179;1.4127;
1398.0000;0.7196;1.4127;
1398.3000;0.7204;1.4203;
1398.6000;0.7196;1.4051;
1398.9000;0.7269;1.4203;
1399.2000;0.7196;1.3975;
1399.5000;0.7179;1.3975;
1399.8000;0.7171;1.3975;
