time/ms;Fluo/V;P700 deltaI/I x10³;
-199.8000;0.8775;1.2326;
-199.5000;0.8751;1.2276;
-199.2000;0.8751;1.2276;
-198.9000;0.8783;1.2301;
-198.6000;0.8775;1.2301;
-198.3000;0.8767;1.2225;
-198.0000;0.8767;1.2301;
-197.7000;0.8767;1.2276;
-197.4000;0.8767;1.2352;
-197.1000;0.8767;1.2377;
-196.8000;0.8775;1.2403;
-196.5000;0.8759;1.2326;
-196.2000;0.8783;1.2403;
-195.9000;0.8791;1.2453;
-195.6000;0.8759;1.2352;
-195.3000;0.8775;1.2301;
-195.0000;0.8783;1.2225;
-194.7000;0.8734;1.2098;
-194.4000;0.8783;1.2174;
-194.1000;0.8767;1.2124;
-193.8000;0.8881;1.2428;
-193.5000;0.8783;1.2149;
-193.2000;0.8775;1.2098;
-192.9000;0.8767;1.2073;
-192.6000;0.8791;1.2200;
-192.3000;0.8775;1.2174;
-192.0000;0.8775;1.2174;
-191.7000;0.8775;1.2174;
-191.4000;0.8799;1.2200;
-191.1000;0.8848;1.2352;
-190.8000;0.8791;1.2124;
-190.5000;0.8783;1.2047;
-190.2000;0.8775;1.1971;
-189.9000;0.8783;1.2098;
-189.6000;0.8783;1.2073;
-189.3000;0.8742;1.2022;
-189.0000;0.8767;1.2047;
-188.7000;0.8840;1.2276;
-188.4000;0.8767;1.2098;
-188.1000;0.8759;1.2149;
-187.8000;0.8816;1.2326;
-187.5000;0.8751;1.2225;
-187.2000;0.8775;1.2174;
-186.9000;0.8775;1.2276;
-186.6000;0.8742;1.2124;
-186.3000;0.8767;1.2174;
-186.0000;0.8783;1.2200;
-185.7000;0.8742;1.2073;
-185.4000;0.8759;1.2098;
-185.1000;0.8775;1.2098;
-184.8000;0.8759;1.2225;
-184.5000;0.8889;1.2453;
-184.2000;0.8767;1.2250;
-183.9000;0.8775;1.2352;
-183.6000;0.8783;1.2301;
-183.3000;0.8807;1.2301;
-183.0000;0.8767;1.2174;
-182.7000;0.8710;1.1997;
-182.4000;0.8742;1.2073;
-182.1000;0.8702;1.1921;
-181.8000;0.8791;1.2098;
-181.5000;0.8775;1.2047;
-181.2000;0.8775;1.2200;
-180.9000;0.8783;1.2200;
-180.6000;0.8783;1.2276;
-180.3000;0.8767;1.2225;
-180.0000;0.8775;1.2225;
-179.7000;0.8767;1.2174;
-179.4000;0.8783;1.2225;
-179.1000;0.8685;1.1946;
-178.8000;0.8742;1.2174;
-178.5000;0.8767;1.2250;
-178.2000;0.8775;1.2301;
-177.9000;0.8791;1.2225;
-177.6000;0.8759;1.2124;
-177.3000;0.8881;1.2479;
-177.0000;0.8791;1.2250;
-176.7000;0.8759;1.2250;
-176.4000;0.8775;1.2276;
-176.1000;0.8824;1.2428;
-175.8000;0.8775;1.2352;
-175.5000;0.8775;1.2276;
-175.2000;0.8767;1.2149;
-174.9000;0.8751;1.2149;
-174.6000;0.8783;1.2225;
-174.3000;0.8767;1.2301;
-174.0000;0.8873;1.2529;
-173.7000;0.8767;1.2276;
-173.4000;0.8791;1.2377;
-173.1000;0.8685;1.2124;
-172.8000;0.8864;1.2504;
-172.5000;0.8783;1.2225;
-172.2000;0.8791;1.2250;
-171.9000;0.8775;1.2200;
-171.6000;0.8799;1.2301;
-171.3000;0.8767;1.2250;
-171.0000;0.8783;1.2250;
-170.7000;0.8791;1.2250;
-170.4000;0.8791;1.2301;
-170.1000;0.8783;1.2276;
-169.8000;0.8775;1.2326;
-169.5000;0.8783;1.2352;
-169.2000;0.8783;1.2479;
-168.9000;0.8742;1.2403;
-168.6000;0.8726;1.2403;
-168.3000;0.8767;1.2529;
-168.0000;0.8783;1.2529;
-167.7000;0.8799;1.2504;
-167.4000;0.8775;1.2479;
-167.1000;0.8775;1.2453;
-166.8000;0.8791;1.2403;
-166.5000;0.8799;1.2352;
-166.2000;0.8775;1.2250;
-165.9000;0.8759;1.2124;
-165.6000;0.8783;1.2225;
-165.3000;0.8767;1.2098;
-165.0000;0.8775;1.2174;
-164.7000;0.8767;1.2149;
-164.4000;0.8767;1.2174;
-164.1000;0.8775;1.2174;
-163.8000;0.8751;1.2149;
-163.5000;0.8767;1.2149;
-163.2000;0.8775;1.2073;
-162.9000;0.8783;1.2022;
-162.6000;0.8783;1.2124;
-162.3000;0.8791;1.2124;
-162.0000;0.8726;1.2047;
-161.7000;0.8775;1.2225;
-161.4000;0.8791;1.2326;
-161.1000;0.8889;1.2529;
-160.8000;0.8767;1.2073;
-160.5000;0.8799;1.2098;
-160.2000;0.8775;1.2047;
-159.9000;0.8775;1.2124;
-159.6000;0.8775;1.2124;
-159.3000;0.8767;1.2073;
-159.0000;0.8759;1.2073;
-158.7000;0.8759;1.2073;
-158.4000;0.8767;1.2174;
-158.1000;0.8783;1.2301;
-157.8000;0.8751;1.2174;
-157.5000;0.8775;1.2276;
-157.2000;0.8751;1.2225;
-156.9000;0.8694;1.2022;
-156.6000;0.8791;1.2301;
-156.3000;0.8742;1.2225;
-156.0000;0.8759;1.2200;
-155.7000;0.8767;1.2301;
-155.4000;0.8783;1.2276;
-155.1000;0.8767;1.2326;
-154.8000;0.8775;1.2403;
-154.5000;0.8767;1.2403;
-154.2000;0.8734;1.2301;
-153.9000;0.8767;1.2453;
-153.6000;0.8742;1.2403;
-153.3000;0.8751;1.2352;
-153.0000;0.8775;1.2377;
-152.7000;0.8767;1.2403;
-152.4000;0.8751;1.2403;
-152.1000;0.8759;1.2453;
-151.8000;0.8791;1.2555;
-151.5000;0.8767;1.2479;
-151.2000;0.8783;1.2453;
-150.9000;0.8742;1.2377;
-150.6000;0.8751;1.2479;
-150.3000;0.8775;1.2403;
-150.0000;0.8791;1.2326;
-149.7000;0.8759;1.2124;
-149.4000;0.8759;1.2124;
-149.1000;0.8799;1.2225;
-148.8000;0.8783;1.2149;
-148.5000;0.8775;1.2124;
-148.2000;0.8783;1.2250;
-147.9000;0.8775;1.2301;
-147.6000;0.8767;1.2250;
-147.3000;0.8775;1.2326;
-147.0000;0.8775;1.2225;
-146.7000;0.8783;1.2174;
-146.4000;0.8775;1.2250;
-146.1000;0.8759;1.2073;
-145.8000;0.8767;1.2047;
-145.5000;0.8791;1.2073;
-145.2000;0.8775;1.2098;
-144.9000;0.8783;1.2047;
-144.6000;0.8775;1.2098;
-144.3000;0.8783;1.2149;
-144.0000;0.8783;1.2149;
-143.7000;0.8791;1.2200;
-143.4000;0.8783;1.2301;
-143.1000;0.8832;1.2428;
-142.8000;0.8775;1.2301;
-142.5000;0.8767;1.2276;
-142.2000;0.8783;1.2326;
-141.9000;0.8751;1.2377;
-141.6000;0.8783;1.2504;
-141.3000;0.8742;1.2453;
-141.0000;0.8775;1.2479;
-140.7000;0.8767;1.2428;
-140.4000;0.8783;1.2428;
-140.1000;0.8848;1.2529;
-139.8000;0.8783;1.2326;
-139.5000;0.8783;1.2225;
-139.2000;0.8889;1.2555;
-138.9000;0.8775;1.2301;
-138.6000;0.8767;1.2225;
-138.3000;0.8783;1.2250;
-138.0000;0.8791;1.2250;
-137.7000;0.8783;1.2200;
-137.4000;0.8799;1.2276;
-137.1000;0.8783;1.2200;
-136.8000;0.8783;1.2200;
-136.5000;0.8791;1.2225;
-136.2000;0.8775;1.2174;
-135.9000;0.8791;1.2174;
-135.6000;0.8767;1.2149;
-135.3000;0.8783;1.2098;
-135.0000;0.8775;1.2073;
-134.7000;0.8759;1.2073;
-134.4000;0.8734;1.2022;
-134.1000;0.8775;1.2326;
-133.8000;0.8791;1.2403;
-133.5000;0.8661;1.2047;
-133.2000;0.8807;1.2403;
-132.9000;0.8759;1.2377;
-132.6000;0.8881;1.2631;
-132.3000;0.8791;1.2377;
-132.0000;0.8767;1.2326;
-131.7000;0.8889;1.2631;
-131.4000;0.8783;1.2250;
-131.1000;0.8767;1.2250;
-130.8000;0.8767;1.2250;
-130.5000;0.8783;1.2326;
-130.2000;0.8759;1.2276;
-129.9000;0.8742;1.2174;
-129.6000;0.8767;1.2250;
-129.3000;0.8734;1.2124;
-129.0000;0.8767;1.2149;
-128.7000;0.8694;1.1845;
-128.4000;0.8767;1.2098;
-128.1000;0.8775;1.2174;
-127.8000;0.8775;1.2124;
-127.5000;0.8873;1.2352;
-127.2000;0.8767;1.2022;
-126.9000;0.8775;1.2022;
-126.6000;0.8767;1.1946;
-126.3000;0.8775;1.2047;
-126.0000;0.8775;1.2047;
-125.7000;0.8783;1.2022;
-125.4000;0.8751;1.1997;
-125.1000;0.8767;1.2047;
-124.8000;0.8767;1.2098;
-124.5000;0.8751;1.2124;
-124.2000;0.8783;1.2098;
-123.9000;0.8759;1.2073;
-123.6000;0.8775;1.2047;
-123.3000;0.8840;1.2098;
-123.0000;0.8767;1.2073;
-122.7000;0.8783;1.2149;
-122.4000;0.8783;1.2124;
-122.1000;0.8767;1.2073;
-121.8000;0.8767;1.2073;
-121.5000;0.8783;1.2047;
-121.2000;0.8783;1.2022;
-120.9000;0.8791;1.2047;
-120.6000;0.8775;1.2073;
-120.3000;0.8759;1.1971;
-120.0000;0.8767;1.1971;
-119.7000;0.8759;1.1946;
-119.4000;0.8759;1.1794;
-119.1000;0.8775;1.1895;
-118.8000;0.8775;1.2022;
-118.5000;0.8775;1.2047;
-118.2000;0.8767;1.2047;
-117.9000;0.8767;1.2124;
-117.6000;0.8783;1.2149;
-117.3000;0.8775;1.2073;
-117.0000;0.8759;1.2022;
-116.7000;0.8783;1.2073;
-116.4000;0.8767;1.2073;
-116.1000;0.8791;1.2098;
-115.8000;0.8799;1.2124;
-115.5000;0.8775;1.1971;
-115.2000;0.8759;1.2022;
-114.9000;0.8791;1.2149;
-114.6000;0.8799;1.2200;
-114.3000;0.8775;1.2124;
-114.0000;0.8767;1.2047;
-113.7000;0.8799;1.2073;
-113.4000;0.8775;1.2124;
-113.1000;0.8791;1.2149;
-112.8000;0.8734;1.1971;
-112.5000;0.8799;1.2200;
-112.2000;0.8783;1.2174;
-111.9000;0.8783;1.2225;
-111.6000;0.8783;1.2200;
-111.3000;0.8791;1.2250;
-111.0000;0.8775;1.2276;
-110.7000;0.8759;1.2225;
-110.4000;0.8759;1.2200;
-110.1000;0.8759;1.2149;
-109.8000;0.8751;1.2174;
-109.5000;0.8751;1.2200;
-109.2000;0.8783;1.2276;
-108.9000;0.8824;1.2403;
-108.6000;0.8840;1.2479;
-108.3000;0.8767;1.2225;
-108.0000;0.8775;1.2276;
-107.7000;0.8742;1.2124;
-107.4000;0.8791;1.2250;
-107.1000;0.8767;1.2098;
-106.8000;0.8685;1.1895;
-106.5000;0.8775;1.2149;
-106.2000;0.8783;1.2174;
-105.9000;0.8767;1.2174;
-105.6000;0.8734;1.2022;
-105.3000;0.8759;1.2047;
-105.0000;0.8742;1.2022;
-104.7000;0.8767;1.2124;
-104.4000;0.8799;1.2326;
-104.1000;0.8759;1.2225;
-103.8000;0.8767;1.2225;
-103.5000;0.8767;1.2225;
-103.2000;0.8791;1.2276;
-102.9000;0.8742;1.2124;
-102.6000;0.8751;1.2073;
-102.3000;0.8726;1.2098;
-102.0000;0.8775;1.2225;
-101.7000;0.8791;1.2276;
-101.4000;0.8759;1.2149;
-101.1000;0.8767;1.2174;
-100.8000;0.8775;1.2149;
-100.5000;0.8767;1.2124;
-100.2000;0.8767;1.2149;
-99.9000;0.8751;1.2149;
-99.6000;0.8767;1.2200;
-99.3000;0.8759;1.2073;
-99.0000;0.8759;1.2124;
-98.7000;0.8767;1.2174;
-98.4000;0.8783;1.2276;
-98.1000;0.8783;1.2174;
-97.8000;0.8767;1.2124;
-97.5000;0.8767;1.2250;
-97.2000;0.8775;1.2301;
-96.9000;0.8767;1.2301;
-96.6000;0.8759;1.2301;
-96.3000;0.8751;1.2149;
-96.0000;0.8759;1.2073;
-95.7000;0.8759;1.1997;
-95.4000;0.8775;1.2022;
-95.1000;0.8742;1.1946;
-94.8000;0.8767;1.1997;
-94.5000;0.8864;1.2174;
-94.2000;0.8767;1.1895;
-93.9000;0.8767;1.1997;
-93.6000;0.8742;1.1997;
-93.3000;0.8767;1.2047;
-93.0000;0.8775;1.1997;
-92.7000;0.8759;1.1997;
-92.4000;0.8775;1.2073;
-92.1000;0.8799;1.2098;
-91.8000;0.8791;1.2073;
-91.5000;0.8783;1.2124;
-91.2000;0.8775;1.2073;
-90.9000;0.8767;1.2098;
-90.6000;0.8775;1.2098;
-90.3000;0.8783;1.2098;
-90.0000;0.8759;1.2073;
-89.7000;0.8759;1.2047;
-89.4000;0.8775;1.2098;
-89.1000;0.8783;1.2149;
-88.8000;0.8775;1.2124;
-88.5000;0.8783;1.2124;
-88.2000;0.8775;1.2124;
-87.9000;0.8759;1.2124;
-87.6000;0.8767;1.2124;
-87.3000;0.8807;1.2200;
-87.0000;0.8775;1.2174;
-86.7000;0.8767;1.2174;
-86.4000;0.8767;1.2225;
-86.1000;0.8742;1.2225;
-85.8000;0.8751;1.2276;
-85.5000;0.8783;1.2250;
-85.2000;0.8775;1.2149;
-84.9000;0.8767;1.2124;
-84.6000;0.8783;1.2098;
-84.3000;0.8783;1.2073;
-84.0000;0.8767;1.1997;
-83.7000;0.8759;1.2073;
-83.4000;0.8783;1.2124;
-83.1000;0.8783;1.2149;
-82.8000;0.8775;1.2200;
-82.5000;0.8742;1.2098;
-82.2000;0.8742;1.2098;
-81.9000;0.8775;1.2124;
-81.6000;0.8751;1.2022;
-81.3000;0.8751;1.1997;
-81.0000;0.8726;1.1921;
-80.7000;0.8791;1.2073;
-80.4000;0.8816;1.2047;
-80.1000;0.8775;1.1921;
-79.8000;0.8767;1.1946;
-79.5000;0.8767;1.1870;
-79.2000;0.8759;1.1946;
-78.9000;0.8791;1.2073;
-78.6000;0.8767;1.2022;
-78.3000;0.8783;1.2174;
-78.0000;0.8783;1.2124;
-77.7000;0.8791;1.2149;
-77.4000;0.8775;1.2149;
-77.1000;0.8775;1.2149;
-76.8000;0.8799;1.2225;
-76.5000;0.8759;1.2200;
-76.2000;0.8767;1.2073;
-75.9000;0.8751;1.2022;
-75.6000;0.8783;1.2073;
-75.3000;0.8775;1.2149;
-75.0000;0.8807;1.2174;
-74.7000;0.8767;1.2098;
-74.4000;0.8791;1.2225;
-74.1000;0.8775;1.2073;
-73.8000;0.8734;1.1997;
-73.5000;0.8783;1.2149;
-73.2000;0.8759;1.1997;
-72.9000;0.8767;1.2022;
-72.6000;0.8783;1.2047;
-72.3000;0.8767;1.1895;
-72.0000;0.8783;1.1895;
-71.7000;0.8799;1.1895;
-71.4000;0.8783;1.1895;
-71.1000;0.8767;1.1997;
-70.8000;0.8840;1.2174;
-70.5000;0.8775;1.2047;
-70.2000;0.8767;1.2098;
-69.9000;0.8751;1.2073;
-69.6000;0.8767;1.2174;
-69.3000;0.8718;1.2047;
-69.0000;0.8767;1.2174;
-68.7000;0.8775;1.2200;
-68.4000;0.8702;1.2047;
-68.1000;0.8783;1.2276;
-67.8000;0.8759;1.2225;
-67.5000;0.8791;1.2301;
-67.2000;0.8759;1.2250;
-66.9000;0.8734;1.2276;
-66.6000;0.8759;1.2301;
-66.3000;0.8759;1.2174;
-66.0000;0.8767;1.2174;
-65.7000;0.8751;1.2098;
-65.4000;0.8783;1.2098;
-65.1000;0.8759;1.2073;
-64.8000;0.8751;1.2124;
-64.5000;0.8767;1.2326;
-64.2000;0.8799;1.2377;
-63.9000;0.8775;1.2250;
-63.6000;0.8791;1.2326;
-63.3000;0.8759;1.2250;
-63.0000;0.8767;1.2301;
-62.7000;0.8807;1.2377;
-62.4000;0.8775;1.2301;
-62.1000;0.8767;1.2301;
-61.8000;0.8783;1.2301;
-61.5000;0.8759;1.2301;
-61.2000;0.8759;1.2352;
-60.9000;0.8767;1.2377;
-60.6000;0.8718;1.2276;
-60.3000;0.8767;1.2403;
-60.0000;0.8759;1.2352;
-59.7000;0.8783;1.2453;
-59.4000;0.8807;1.2352;
-59.1000;0.8783;1.2174;
-58.8000;0.8832;1.2174;
-58.5000;0.8759;1.1997;
-58.2000;0.8775;1.2047;
-57.9000;0.8775;1.2073;
-57.6000;0.8791;1.2149;
-57.3000;0.8710;1.2073;
-57.0000;0.8775;1.2250;
-56.7000;0.8783;1.2225;
-56.4000;0.8775;1.2250;
-56.1000;0.8775;1.2276;
-55.8000;0.8767;1.2326;
-55.5000;0.8767;1.2352;
-55.2000;0.8767;1.2326;
-54.9000;0.8775;1.2326;
-54.6000;0.8751;1.2377;
-54.3000;0.8767;1.2377;
-54.0000;0.8783;1.2428;
-53.7000;0.8759;1.2403;
-53.4000;0.8759;1.2352;
-53.1000;0.8759;1.2403;
-52.8000;0.8759;1.2352;
-52.5000;0.8759;1.2276;
-52.2000;0.8775;1.2225;
-51.9000;0.8751;1.2200;
-51.6000;0.8775;1.2149;
-51.3000;0.8767;1.2073;
-51.0000;0.8783;1.2124;
-50.7000;0.8751;1.2022;
-50.4000;0.8767;1.2022;
-50.1000;0.8759;1.2022;
-49.8000;0.8767;1.2022;
-49.5000;0.8767;1.1895;
-49.2000;0.8759;1.1819;
-48.9000;0.8759;1.1718;
-48.6000;0.8759;1.1743;
-48.3000;0.8816;1.1946;
-48.0000;0.8751;1.1718;
-47.7000;0.8775;1.1768;
-47.4000;0.8783;1.1768;
-47.1000;0.8718;1.1718;
-46.8000;0.8759;1.1895;
-46.5000;0.8791;1.1971;
-46.2000;0.8791;1.2047;
-45.9000;0.8677;1.1819;
-45.6000;0.8791;1.2073;
-45.3000;0.8767;1.1997;
-45.0000;0.8816;1.2073;
-44.7000;0.8767;1.1971;
-44.4000;0.8759;1.1971;
-44.1000;0.8677;1.1794;
-43.8000;0.8742;1.1971;
-43.5000;0.8832;1.2225;
-43.2000;0.8742;1.1971;
-42.9000;0.8742;1.1971;
-42.6000;0.8767;1.2022;
-42.3000;0.8791;1.2098;
-42.0000;0.8767;1.1971;
-41.7000;0.8783;1.1997;
-41.4000;0.8751;1.1997;
-41.1000;0.8751;1.1971;
-40.8000;0.8767;1.2022;
-40.5000;0.8710;1.1895;
-40.2000;0.8848;1.2200;
-39.9000;0.8775;1.2124;
-39.6000;0.8726;1.1921;
-39.3000;0.8710;1.1819;
-39.0000;0.8759;1.1997;
-38.7000;0.8751;1.2022;
-38.4000;0.8726;1.1946;
-38.1000;0.8840;1.2174;
-37.8000;0.8889;1.2326;
-37.5000;0.8807;1.2124;
-37.2000;0.8767;1.1971;
-36.9000;0.8775;1.2022;
-36.6000;0.8751;1.1946;
-36.3000;0.8791;1.2022;
-36.0000;0.8807;1.2047;
-35.7000;0.8742;1.1946;
-35.4000;0.8767;1.1971;
-35.1000;0.8759;1.1971;
-34.8000;0.8775;1.1997;
-34.5000;0.8726;1.1946;
-34.2000;0.8767;1.1946;
-33.9000;0.8767;1.1921;
-33.6000;0.8742;1.1794;
-33.3000;0.8767;1.1921;
-33.0000;0.8751;1.1971;
-32.7000;0.8767;1.1997;
-32.4000;0.8775;1.1921;
-32.1000;0.8759;1.1921;
-31.8000;0.8767;1.2022;
-31.5000;0.8775;1.1997;
-31.2000;0.8799;1.1946;
-30.9000;0.8775;1.1971;
-30.6000;0.8767;1.1946;
-30.3000;0.8775;1.1971;
-30.0000;0.8767;1.1921;
-29.7000;0.8775;1.1921;
-29.4000;0.8775;1.1895;
-29.1000;0.8759;1.1819;
-28.8000;0.8775;1.1946;
-28.5000;0.8791;1.1997;
-28.2000;0.8734;1.1946;
-27.9000;0.8799;1.2149;
-27.6000;0.8775;1.2022;
-27.3000;0.8791;1.2047;
-27.0000;0.8653;1.1718;
-26.7000;0.8775;1.2047;
-26.4000;0.8775;1.2098;
-26.1000;0.8775;1.2149;
-25.8000;0.8759;1.2073;
-25.5000;0.8742;1.1946;
-25.2000;0.8799;1.2047;
-24.9000;0.8767;1.1971;
-24.6000;0.8759;1.1921;
-24.3000;0.8759;1.1921;
-24.0000;0.8718;1.1895;
-23.7000;0.8759;1.2047;
-23.4000;0.8807;1.2073;
-23.1000;0.8742;1.1870;
-22.8000;0.8759;1.1946;
-22.5000;0.8791;1.1946;
-22.2000;0.8767;1.1895;
-21.9000;0.8742;1.1794;
-21.6000;0.8759;1.1743;
-21.3000;0.8775;1.1794;
-21.0000;0.8783;1.1895;
-20.7000;0.8751;1.1895;
-20.4000;0.8759;1.1895;
-20.1000;0.8783;1.1895;
-19.8000;0.8767;1.1845;
-19.5000;0.8759;1.1819;
-19.2000;0.8783;1.1895;
-18.9000;0.8751;1.1845;
-18.6000;0.8783;1.1870;
-18.3000;0.8775;1.1921;
-18.0000;0.8767;1.1870;
-17.7000;0.8783;1.1946;
-17.4000;0.8759;1.1895;
-17.1000;0.8775;1.1895;
-16.8000;0.8759;1.1845;
-16.5000;0.8767;1.1921;
-16.2000;0.8759;1.1946;
-15.9000;0.8759;1.1845;
-15.6000;0.8759;1.1895;
-15.3000;0.8791;1.1971;
-15.0000;0.8824;1.2022;
-14.7000;0.8783;1.1895;
-14.4000;0.8775;1.1971;
-14.1000;0.8767;1.1946;
-13.8000;0.8759;1.1870;
-13.5000;0.8881;1.2250;
-13.2000;0.8734;1.1845;
-12.9000;0.8775;1.1870;
-12.6000;0.8775;1.1870;
-12.3000;0.8775;1.1895;
-12.0000;0.8726;1.1819;
-11.7000;0.8759;1.1870;
-11.4000;0.8767;1.1870;
-11.1000;0.8734;1.1743;
-10.8000;0.8734;1.1718;
-10.5000;0.8759;1.1794;
-10.2000;0.8767;1.1743;
-9.9000;0.8742;1.1743;
-9.6000;0.8742;1.1819;
-9.3000;0.8759;1.1921;
-9.0000;0.8783;1.1921;
-8.7000;0.8775;1.1895;
-8.4000;0.8791;1.1845;
-8.1000;0.8767;1.1768;
-7.8000;0.8759;1.1718;
-7.5000;0.8775;1.1768;
-7.2000;0.8783;1.1794;
-6.9000;0.8799;1.1768;
-6.6000;0.8775;1.1819;
-6.3000;0.8775;1.1768;
-6.0000;0.8759;1.1768;
-5.7000;0.8767;1.1794;
-5.4000;0.8751;1.1845;
-5.1000;0.8767;1.1794;
-4.8000;0.8767;1.1870;
-4.5000;0.8783;1.1870;
-4.2000;0.8783;1.1845;
-3.9000;0.8767;1.1768;
-3.6000;0.8856;1.1921;
-3.3000;0.8775;1.1642;
-3.0000;0.8775;1.1616;
-2.7000;0.8775;1.1642;
-2.4000;0.8751;1.1667;
-2.1000;0.8775;1.1794;
-1.8000;0.8775;1.1819;
-1.5000;0.8759;1.1718;
-1.2000;0.8767;1.1743;
-0.9000;0.8775;1.1819;
-0.6000;0.8767;1.1819;
-0.3000;0.8767;1.1870;
0.0000;0.8767;1.1870;
0.3000;0.8840;1.2022;
0.6000;0.9027;1.2605;
0.9000;0.9052;1.2935;
1.2000;0.9133;1.3544;
1.5000;0.9206;1.3924;
1.8000;0.9369;1.4482;
2.1000;0.9263;1.4279;
2.4000;0.9328;1.4584;
2.7000;0.9361;1.4787;
3.0000;0.9369;1.4990;
3.3000;0.9402;1.5167;
3.6000;0.9410;1.5269;
3.9000;0.9418;1.5294;
4.2000;0.9402;1.5395;
4.5000;0.9451;1.5522;
4.8000;0.9467;1.5522;
5.1000;0.9467;1.5624;
5.4000;0.9475;1.5700;
5.7000;0.9499;1.5827;
6.0000;0.9508;1.5953;
6.3000;0.9508;1.5979;
6.6000;0.9499;1.5953;
6.9000;0.9532;1.5928;
7.2000;0.9540;1.5903;
7.5000;0.9524;1.5953;
7.8000;0.9540;1.6029;
8.1000;0.9540;1.6156;
8.4000;0.9573;1.6283;
8.7000;0.9573;1.6156;
9.0000;0.9565;1.6106;
9.3000;0.9613;1.6232;
9.6000;0.9613;1.6207;
9.9000;0.9581;1.6106;
10.2000;0.9581;1.6029;
10.5000;0.9581;1.5928;
10.8000;0.9597;1.6004;
11.1000;0.9613;1.5979;
11.4000;0.9613;1.6080;
11.7000;0.9597;1.6106;
12.0000;0.9630;1.6207;
12.3000;0.9613;1.6156;
12.6000;0.9621;1.6182;
12.9000;0.9621;1.6182;
13.2000;0.9654;1.6232;
13.5000;0.9727;1.6461;
13.8000;0.9621;1.6207;
14.1000;0.9638;1.6232;
14.4000;0.9646;1.6207;
14.7000;0.9646;1.6283;
15.0000;0.9662;1.6410;
15.3000;0.9654;1.6435;
15.6000;0.9662;1.6385;
15.9000;0.9662;1.6232;
16.2000;0.9662;1.6131;
16.5000;0.9662;1.6106;
16.8000;0.9678;1.6207;
17.1000;0.9695;1.6258;
17.4000;0.9613;1.6029;
17.7000;0.9703;1.6182;
18.0000;0.9711;1.6182;
18.3000;0.9695;1.6182;
18.6000;0.9719;1.6283;
18.9000;0.9711;1.6182;
19.2000;0.9670;1.6055;
19.5000;0.9727;1.6207;
19.8000;0.9711;1.6182;
20.1000;0.9711;1.6156;
20.4000;0.9678;1.6055;
20.7000;0.9695;1.6080;
21.0000;0.9711;1.6156;
21.3000;0.9719;1.6258;
21.6000;0.9752;1.6334;
21.9000;0.9744;1.6258;
22.2000;0.9695;1.6258;
22.5000;0.9727;1.6283;
22.8000;0.9735;1.6258;
23.1000;0.9719;1.6283;
23.4000;0.9752;1.6410;
23.7000;0.9735;1.6461;
24.0000;0.9703;1.6410;
24.3000;0.9719;1.6461;
24.6000;0.9752;1.6486;
24.9000;0.9752;1.6461;
25.2000;0.9760;1.6410;
25.5000;0.9735;1.6334;
25.8000;0.9744;1.6283;
26.1000;0.9744;1.6308;
26.4000;0.9744;1.6359;
26.7000;0.9760;1.6359;
27.0000;0.9744;1.6308;
27.3000;0.9760;1.6258;
27.6000;0.9760;1.6106;
27.9000;0.9776;1.6131;
28.2000;0.9744;1.6080;
28.5000;0.9768;1.6131;
28.8000;0.9768;1.6106;
29.1000;0.9776;1.6131;
29.4000;0.9768;1.6080;
29.7000;0.9768;1.6156;
30.0000;0.9760;1.6182;
30.3000;0.9727;1.6156;
30.6000;0.9760;1.6258;
30.9000;0.9752;1.6232;
31.2000;0.9744;1.6283;
31.5000;0.9768;1.6283;
31.8000;0.9776;1.6283;
32.1000;0.9760;1.6258;
32.4000;0.9760;1.6258;
32.7000;0.9760;1.6283;
33.0000;0.9784;1.6283;
33.3000;0.9744;1.6182;
33.6000;0.9760;1.6080;
33.9000;0.9776;1.6029;
34.2000;0.9792;1.5979;
34.5000;0.9752;1.5877;
34.8000;0.9768;1.5928;
35.1000;0.9752;1.5877;
35.4000;0.9760;1.5903;
35.7000;0.9776;1.6004;
36.0000;0.9752;1.5903;
36.3000;0.9776;1.5979;
36.6000;0.9776;1.5979;
36.9000;0.9744;1.5953;
37.2000;0.9752;1.6004;
37.5000;0.9784;1.6156;
37.8000;0.9784;1.6156;
38.1000;0.9776;1.6156;
38.4000;0.9719;1.6055;
38.7000;0.9768;1.6106;
39.0000;0.9784;1.6131;
39.3000;0.9752;1.6080;
39.6000;0.9776;1.6131;
39.9000;0.9760;1.6131;
40.2000;0.9687;1.5953;
40.5000;0.9752;1.6156;
40.8000;0.9744;1.6131;
41.1000;0.9768;1.6131;
41.4000;0.9727;1.6131;
41.7000;0.9784;1.6232;
42.0000;0.9776;1.6232;
42.3000;0.9752;1.6258;
42.6000;0.9760;1.6308;
42.9000;0.9768;1.6283;
43.2000;0.9776;1.6334;
43.5000;0.9752;1.6207;
43.8000;0.9744;1.6207;
44.1000;0.9760;1.6258;
44.4000;0.9744;1.6258;
44.7000;0.9752;1.6182;
45.0000;0.9735;1.6258;
45.3000;0.9752;1.6334;
45.6000;0.9784;1.6308;
45.9000;0.9760;1.6283;
46.2000;0.9768;1.6410;
46.5000;0.9768;1.6410;
46.8000;0.9760;1.6334;
47.1000;0.9760;1.6232;
47.4000;0.9727;1.6283;
47.7000;0.9768;1.6359;
48.0000;0.9752;1.6308;
48.3000;0.9735;1.6232;
48.6000;0.9744;1.6232;
48.9000;0.9768;1.6308;
49.2000;0.9768;1.6283;
49.5000;0.9760;1.6283;
49.8000;0.9760;1.6232;
50.1000;0.9703;1.6055;
50.4000;0.9744;1.6156;
50.7000;0.9768;1.6207;
51.0000;0.9752;1.6106;
51.3000;0.9801;1.6232;
51.6000;0.9760;1.6156;
51.9000;0.9768;1.6207;
52.2000;0.9760;1.6258;
52.5000;0.9760;1.6283;
52.8000;0.9760;1.6232;
53.1000;0.9760;1.6232;
53.4000;0.9760;1.6207;
53.7000;0.9817;1.6410;
54.0000;0.9760;1.6359;
54.3000;0.9801;1.6486;
54.6000;0.9768;1.6410;
54.9000;0.9768;1.6435;
55.2000;0.9760;1.6283;
55.5000;0.9768;1.6258;
55.8000;0.9752;1.6182;
56.1000;0.9792;1.6334;
56.4000;0.9752;1.6207;
56.7000;0.9768;1.6385;
57.0000;0.9752;1.6435;
57.3000;0.9744;1.6511;
57.6000;0.9662;1.6334;
57.9000;0.9792;1.6562;
58.2000;0.9776;1.6587;
58.5000;0.9768;1.6562;
58.8000;0.9703;1.6486;
59.1000;0.9744;1.6511;
59.4000;0.9760;1.6486;
59.7000;0.9719;1.6308;
60.0000;0.9744;1.6258;
60.3000;0.9809;1.6359;
60.6000;0.9768;1.6232;
60.9000;0.9752;1.6207;
61.2000;0.9752;1.6156;
61.5000;0.9752;1.6232;
61.8000;0.9744;1.6258;
62.1000;0.9744;1.6283;
62.4000;0.9735;1.6182;
62.7000;0.9744;1.6182;
63.0000;0.9760;1.6182;
63.3000;0.9719;1.6080;
63.6000;0.9752;1.6182;
63.9000;0.9760;1.6207;
64.2000;0.9752;1.6232;
64.5000;0.9752;1.6258;
64.8000;0.9752;1.6283;
65.1000;0.9744;1.6283;
65.4000;0.9744;1.6232;
65.7000;0.9752;1.6258;
66.0000;0.9784;1.6359;
66.3000;0.9727;1.6156;
66.6000;0.9760;1.6232;
66.9000;0.9752;1.6232;
67.2000;0.9727;1.6156;
67.5000;0.9768;1.6182;
67.8000;0.9776;1.6182;
68.1000;0.9760;1.6232;
68.4000;0.9752;1.6156;
68.7000;0.9760;1.6258;
69.0000;0.9744;1.6232;
69.3000;0.9760;1.6232;
69.6000;0.9735;1.6131;
69.9000;0.9744;1.6055;
70.2000;0.9744;1.6131;
70.5000;0.9752;1.6182;
70.8000;0.9752;1.6207;
71.1000;0.9752;1.6182;
71.4000;0.9744;1.6207;
71.7000;0.9760;1.6232;
72.0000;0.9735;1.6182;
72.3000;0.9719;1.6232;
72.6000;0.9727;1.6131;
72.9000;0.9727;1.6131;
73.2000;0.9744;1.6106;
73.5000;0.9744;1.6055;
73.8000;0.9760;1.6131;
74.1000;0.9752;1.6258;
74.4000;0.9752;1.6258;
74.7000;0.9744;1.6283;
75.0000;0.9735;1.6182;
75.3000;0.9801;1.6359;
75.6000;0.9735;1.6156;
75.9000;0.9735;1.6131;
76.2000;0.9703;1.6131;
76.5000;0.9687;1.6131;
76.8000;0.9744;1.6258;
77.1000;0.9784;1.6359;
77.4000;0.9727;1.6258;
77.7000;0.9735;1.6283;
78.0000;0.9752;1.6308;
78.3000;0.9817;1.6537;
78.6000;0.9719;1.6258;
78.9000;0.9849;1.6486;
79.2000;0.9727;1.6080;
79.5000;0.9678;1.5979;
79.8000;0.9719;1.6055;
80.1000;0.9711;1.6029;
80.4000;0.9719;1.6106;
80.7000;0.9613;1.5903;
81.0000;0.9719;1.6232;
81.3000;0.9581;1.5979;
81.6000;0.9752;1.6283;
81.9000;0.9695;1.6131;
82.2000;0.9719;1.6156;
82.5000;0.9744;1.6131;
82.8000;0.9695;1.5928;
83.1000;0.9719;1.5979;
83.4000;0.9719;1.6004;
83.7000;0.9678;1.5903;
84.0000;0.9727;1.6004;
84.3000;0.9719;1.5928;
84.6000;0.9735;1.6055;
84.9000;0.9727;1.6106;
85.2000;0.9727;1.6156;
85.5000;0.9719;1.6182;
85.8000;0.9719;1.6232;
86.1000;0.9727;1.6283;
86.4000;0.9711;1.6207;
86.7000;0.9735;1.6334;
87.0000;0.9809;1.6537;
87.3000;0.9744;1.6410;
87.6000;0.9752;1.6385;
87.9000;0.9744;1.6359;
88.2000;0.9760;1.6410;
88.5000;0.9760;1.6359;
88.8000;0.9727;1.6283;
89.1000;0.9744;1.6334;
89.4000;0.9744;1.6283;
89.7000;0.9744;1.6232;
90.0000;0.9719;1.6232;
90.3000;0.9735;1.6207;
90.6000;0.9695;1.6156;
90.9000;0.9711;1.6106;
91.2000;0.9752;1.6232;
91.5000;0.9735;1.6258;
91.8000;0.9727;1.6232;
92.1000;0.9719;1.6258;
92.4000;0.9703;1.6232;
92.7000;0.9727;1.6283;
93.0000;0.9703;1.6207;
93.3000;0.9735;1.6207;
93.6000;0.9784;1.6410;
93.9000;0.9735;1.6258;
94.2000;0.9719;1.6131;
94.5000;0.9719;1.6106;
94.8000;0.9727;1.6156;
95.1000;0.9719;1.6080;
95.4000;0.9703;1.6004;
95.7000;0.9727;1.6131;
96.0000;0.9703;1.6106;
96.3000;0.9727;1.6156;
96.6000;0.9719;1.6182;
96.9000;0.9719;1.6182;
97.2000;0.9662;1.6029;
97.5000;0.9752;1.6131;
97.8000;0.9735;1.6131;
98.1000;0.9744;1.6207;
98.4000;0.9703;1.6232;
98.7000;0.9719;1.6334;
99.0000;0.9727;1.6461;
99.3000;0.9711;1.6461;
99.6000;0.9687;1.6385;
99.9000;0.9719;1.6410;
100.2000;0.9727;1.6334;
100.5000;0.9719;1.6334;
100.8000;0.9801;1.6537;
101.1000;0.9735;1.6410;
101.4000;0.9752;1.6486;
101.7000;0.9703;1.6334;
102.0000;0.9703;1.6283;
102.3000;0.9841;1.6613;
102.6000;0.9719;1.6385;
102.9000;0.9719;1.6461;
103.2000;0.9735;1.6537;
103.5000;0.9727;1.6486;
103.8000;0.9711;1.6461;
104.1000;0.9711;1.6486;
104.4000;0.9719;1.6461;
104.7000;0.9687;1.6258;
105.0000;0.9597;1.5953;
105.3000;0.9662;1.6156;
105.6000;0.9719;1.6283;
105.9000;0.9719;1.6207;
106.2000;0.9719;1.6131;
106.5000;0.9711;1.6156;
106.8000;0.9727;1.6207;
107.1000;0.9711;1.6131;
107.4000;0.9792;1.6359;
107.7000;0.9735;1.6232;
108.0000;0.9703;1.6156;
108.3000;0.9727;1.6283;
108.6000;0.9735;1.6283;
108.9000;0.9727;1.6283;
109.2000;0.9703;1.6308;
109.5000;0.9719;1.6258;
109.8000;0.9727;1.6258;
110.1000;0.9678;1.6131;
110.4000;0.9727;1.6258;
110.7000;0.9719;1.6207;
111.0000;0.9719;1.6156;
111.3000;0.9768;1.6283;
111.6000;0.9735;1.6207;
111.9000;0.9719;1.6232;
112.2000;0.9719;1.6308;
112.5000;0.9776;1.6410;
112.8000;0.9727;1.6308;
113.1000;0.9727;1.6258;
113.4000;0.9719;1.6258;
113.7000;0.9719;1.6156;
114.0000;0.9695;1.6080;
114.3000;0.9727;1.6207;
114.6000;0.9711;1.6131;
114.9000;0.9630;1.5979;
115.2000;0.9744;1.6232;
115.5000;0.9703;1.6207;
115.8000;0.9744;1.6308;
116.1000;0.9703;1.6308;
116.4000;0.9711;1.6385;
116.7000;0.9735;1.6385;
117.0000;0.9678;1.6156;
117.3000;0.9703;1.6131;
117.6000;0.9703;1.6156;
117.9000;0.9711;1.6182;
118.2000;0.9695;1.6156;
118.5000;0.9695;1.6232;
118.8000;0.9687;1.6232;
119.1000;0.9703;1.6207;
119.4000;0.9678;1.6283;
119.7000;0.9695;1.6283;
120.0000;0.9695;1.6283;
120.3000;0.9703;1.6258;
120.6000;0.9711;1.6258;
120.9000;0.9719;1.6232;
121.2000;0.9719;1.6156;
121.5000;0.9695;1.6080;
121.8000;0.9711;1.6131;
122.1000;0.9711;1.6004;
122.4000;0.9703;1.5953;
122.7000;0.9719;1.6029;
123.0000;0.9703;1.5979;
123.3000;0.9703;1.5903;
123.6000;0.9719;1.5877;
123.9000;0.9711;1.5903;
124.2000;0.9695;1.5852;
124.5000;0.9727;1.5877;
124.8000;0.9703;1.5801;
125.1000;0.9727;1.5928;
125.4000;0.9776;1.6106;
125.7000;0.9703;1.5979;
126.0000;0.9703;1.6029;
126.3000;0.9711;1.6004;
126.6000;0.9703;1.6055;
126.9000;0.9727;1.6232;
127.2000;0.9703;1.6207;
127.5000;0.9695;1.6156;
127.8000;0.9727;1.6232;
128.1000;0.9719;1.6207;
128.4000;0.9678;1.6106;
128.7000;0.9695;1.6258;
129.0000;0.9703;1.6283;
129.3000;0.9792;1.6461;
129.6000;0.9711;1.6207;
129.9000;0.9687;1.6232;
130.2000;0.9727;1.6334;
130.5000;0.9703;1.6308;
130.8000;0.9695;1.6385;
131.1000;0.9703;1.6385;
131.4000;0.9703;1.6334;
131.7000;0.9687;1.6410;
132.0000;0.9719;1.6486;
132.3000;0.9638;1.6232;
132.6000;0.9703;1.6410;
132.9000;0.9703;1.6461;
133.2000;0.9703;1.6435;
133.5000;0.9719;1.6461;
133.8000;0.9703;1.6435;
134.1000;0.9768;1.6511;
134.4000;0.9703;1.6283;
134.7000;0.9703;1.6182;
135.0000;0.9703;1.6232;
135.3000;0.9687;1.6258;
135.6000;0.9695;1.6334;
135.9000;0.9703;1.6334;
136.2000;0.9678;1.6258;
136.5000;0.9695;1.6258;
136.8000;0.9695;1.6283;
137.1000;0.9695;1.6207;
137.4000;0.9687;1.6182;
137.7000;0.9695;1.6182;
138.0000;0.9703;1.6207;
138.3000;0.9719;1.6232;
138.6000;0.9678;1.6232;
138.9000;0.9711;1.6207;
139.2000;0.9719;1.6308;
139.5000;0.9711;1.6385;
139.8000;0.9801;1.6587;
140.1000;0.9670;1.6258;
140.4000;0.9719;1.6486;
140.7000;0.9711;1.6461;
141.0000;0.9687;1.6385;
141.3000;0.9687;1.6308;
141.6000;0.9703;1.6359;
141.9000;0.9695;1.6410;
142.2000;0.9687;1.6359;
142.5000;0.9687;1.6359;
142.8000;0.9687;1.6385;
143.1000;0.9687;1.6308;
143.4000;0.9695;1.6410;
143.7000;0.9711;1.6461;
144.0000;0.9687;1.6359;
144.3000;0.9695;1.6410;
144.6000;0.9687;1.6334;
144.9000;0.9687;1.6258;
145.2000;0.9638;1.6232;
145.5000;0.9687;1.6359;
145.8000;0.9678;1.6385;
146.1000;0.9678;1.6410;
146.4000;0.9662;1.6359;
146.7000;0.9695;1.6410;
147.0000;0.9703;1.6385;
147.3000;0.9630;1.6156;
147.6000;0.9695;1.6283;
147.9000;0.9687;1.6258;
148.2000;0.9581;1.6055;
148.5000;0.9695;1.6359;
148.8000;0.9695;1.6334;
149.1000;0.9703;1.6359;
149.4000;0.9687;1.6258;
149.7000;0.9695;1.6207;
150.0000;0.9687;1.6156;
150.3000;0.9678;1.6131;
150.6000;0.9703;1.6182;
150.9000;0.9760;1.6359;
151.2000;0.9711;1.6385;
151.5000;0.9687;1.6308;
151.8000;0.9565;1.5928;
152.1000;0.9695;1.6359;
152.4000;0.9695;1.6334;
152.7000;0.9687;1.6283;
153.0000;0.9768;1.6461;
153.3000;0.9695;1.6283;
153.6000;0.9695;1.6232;
153.9000;0.9670;1.6156;
154.2000;0.9703;1.6258;
154.5000;0.9703;1.6258;
154.8000;0.9711;1.6207;
155.1000;0.9687;1.6156;
155.4000;0.9581;1.5979;
155.7000;0.9678;1.6232;
156.0000;0.9695;1.6308;
156.3000;0.9670;1.6207;
156.6000;0.9678;1.6283;
156.9000;0.9678;1.6258;
157.2000;0.9687;1.6308;
157.5000;0.9687;1.6308;
157.8000;0.9646;1.6131;
158.1000;0.9703;1.6182;
158.4000;0.9711;1.6182;
158.7000;0.9687;1.6156;
159.0000;0.9695;1.6156;
159.3000;0.9695;1.6232;
159.6000;0.9695;1.6308;
159.9000;0.9695;1.6334;
160.2000;0.9711;1.6359;
160.5000;0.9678;1.6359;
160.8000;0.9678;1.6308;
161.1000;0.9703;1.6258;
161.4000;0.9695;1.6182;
161.7000;0.9703;1.6232;
162.0000;0.9760;1.6283;
162.3000;0.9719;1.6258;
162.6000;0.9703;1.6258;
162.9000;0.9687;1.6308;
163.2000;0.9703;1.6334;
163.5000;0.9687;1.6385;
163.8000;0.9695;1.6385;
164.1000;0.9695;1.6359;
164.4000;0.9695;1.6308;
164.7000;0.9703;1.6359;
165.0000;0.9678;1.6334;
165.3000;0.9678;1.6283;
165.6000;0.9735;1.6410;
165.9000;0.9703;1.6308;
166.2000;0.9695;1.6207;
166.5000;0.9678;1.6182;
166.8000;0.9703;1.6232;
167.1000;0.9678;1.6232;
167.4000;0.9703;1.6207;
167.7000;0.9687;1.6156;
168.0000;0.9662;1.6182;
168.3000;0.9670;1.6258;
168.6000;0.9695;1.6385;
168.9000;0.9654;1.6359;
169.2000;0.9695;1.6410;
169.5000;0.9711;1.6435;
169.8000;0.9695;1.6435;
170.1000;0.9744;1.6562;
170.4000;0.9654;1.6334;
170.7000;0.9654;1.6385;
171.0000;0.9670;1.6334;
171.3000;0.9735;1.6435;
171.6000;0.9670;1.6283;
171.9000;0.9670;1.6232;
172.2000;0.9711;1.6232;
172.5000;0.9670;1.6182;
172.8000;0.9695;1.6308;
173.1000;0.9678;1.6182;
173.4000;0.9687;1.6106;
173.7000;0.9678;1.6156;
174.0000;0.9678;1.6182;
174.3000;0.9703;1.6283;
174.6000;0.9678;1.6131;
174.9000;0.9703;1.6131;
175.2000;0.9678;1.6080;
175.5000;0.9678;1.6080;
175.8000;0.9687;1.6131;
176.1000;0.9678;1.6055;
176.4000;0.9678;1.6182;
176.7000;0.9670;1.6207;
177.0000;0.9621;1.6106;
177.3000;0.9678;1.6359;
177.6000;0.9768;1.6486;
177.9000;0.9678;1.6283;
178.2000;0.9687;1.6207;
178.5000;0.9687;1.6106;
178.8000;0.9711;1.6207;
179.1000;0.9605;1.5953;
179.4000;0.9695;1.6207;
179.7000;0.9719;1.6232;
180.0000;0.9711;1.6182;
180.3000;0.9711;1.6232;
180.6000;0.9687;1.6232;
180.9000;0.9744;1.6359;
181.2000;0.9752;1.6334;
181.5000;0.9678;1.6232;
181.8000;0.9687;1.6308;
182.1000;0.9711;1.6410;
182.4000;0.9703;1.6385;
182.7000;0.9695;1.6410;
183.0000;0.9678;1.6385;
183.3000;0.9703;1.6435;
183.6000;0.9687;1.6385;
183.9000;0.9687;1.6334;
184.2000;0.9695;1.6308;
184.5000;0.9727;1.6410;
184.8000;0.9678;1.6385;
185.1000;0.9638;1.6258;
185.4000;0.9703;1.6385;
185.7000;0.9670;1.6283;
186.0000;0.9646;1.6283;
186.3000;0.9678;1.6385;
186.6000;0.9670;1.6359;
186.9000;0.9662;1.6283;
187.2000;0.9678;1.6359;
187.5000;0.9573;1.6106;
187.8000;0.9646;1.6258;
188.1000;0.9662;1.6283;
188.4000;0.9670;1.6258;
188.7000;0.9687;1.6334;
189.0000;0.9638;1.6232;
189.3000;0.9678;1.6334;
189.6000;0.9613;1.6156;
189.9000;0.9678;1.6385;
190.2000;0.9670;1.6435;
190.5000;0.9678;1.6410;
190.8000;0.9678;1.6334;
191.1000;0.9687;1.6410;
191.4000;0.9687;1.6435;
191.7000;0.9687;1.6385;
192.0000;0.9670;1.6308;
192.3000;0.9687;1.6232;
192.6000;0.9621;1.6106;
192.9000;0.9678;1.6182;
193.2000;0.9719;1.6334;
193.5000;0.9678;1.6258;
193.8000;0.9695;1.6283;
194.1000;0.9719;1.6258;
194.4000;0.9670;1.6156;
194.7000;0.9662;1.6055;
195.0000;0.9678;1.6106;
195.3000;0.9744;1.6283;
195.6000;0.9678;1.6106;
195.9000;0.9662;1.6106;
196.2000;0.9654;1.6182;
196.5000;0.9687;1.6334;
196.8000;0.9776;1.6714;
197.1000;0.9670;1.6435;
197.4000;0.9654;1.6308;
197.7000;0.9678;1.6334;
198.0000;0.9703;1.6385;
198.3000;0.9670;1.6359;
198.6000;0.9670;1.6283;
198.9000;0.9670;1.6359;
199.2000;0.9678;1.6359;
199.5000;0.9662;1.6435;
199.8000;0.9613;1.6258;
200.1000;0.9670;1.6410;
200.4000;0.9678;1.6385;
200.7000;0.9662;1.6359;
201.0000;0.9670;1.6385;
201.3000;0.9670;1.6461;
201.6000;0.9695;1.6486;
201.9000;0.9605;1.6207;
202.2000;0.9662;1.6334;
202.5000;0.9670;1.6232;
202.8000;0.9687;1.6207;
203.1000;0.9687;1.6258;
203.4000;0.9678;1.6258;
203.7000;0.9678;1.6232;
204.0000;0.9605;1.6055;
204.3000;0.9687;1.6182;
204.6000;0.9670;1.6080;
204.9000;0.9548;1.5877;
205.2000;0.9719;1.6359;
205.5000;0.9662;1.6182;
205.8000;0.9654;1.6182;
206.1000;0.9670;1.6182;
206.4000;0.9678;1.6258;
206.7000;0.9678;1.6258;
207.0000;0.9678;1.6283;
207.3000;0.9670;1.6156;
207.6000;0.9695;1.6232;
207.9000;0.9687;1.6258;
208.2000;0.9678;1.6258;
208.5000;0.9670;1.6308;
208.8000;0.9678;1.6207;
209.1000;0.9670;1.6283;
209.4000;0.9670;1.6283;
209.7000;0.9662;1.6334;
210.0000;0.9662;1.6334;
210.3000;0.9662;1.6207;
210.6000;0.9678;1.6182;
210.9000;0.9678;1.6232;
211.2000;0.9662;1.6080;
211.5000;0.9678;1.6207;
211.8000;0.9678;1.6182;
212.1000;0.9670;1.6156;
212.4000;0.9678;1.6182;
212.7000;0.9654;1.6182;
213.0000;0.9670;1.6207;
213.3000;0.9678;1.6308;
213.6000;0.9687;1.6334;
213.9000;0.9760;1.6562;
214.2000;0.9687;1.6334;
214.5000;0.9687;1.6359;
214.8000;0.9670;1.6232;
215.1000;0.9662;1.6232;
215.4000;0.9662;1.6232;
215.7000;0.9654;1.6232;
216.0000;0.9662;1.6207;
216.3000;0.9630;1.6156;
216.6000;0.9638;1.6156;
216.9000;0.9654;1.6207;
217.2000;0.9670;1.6283;
217.5000;0.9654;1.6232;
217.8000;0.9670;1.6232;
218.1000;0.9678;1.6359;
218.4000;0.9662;1.6308;
218.7000;0.9678;1.6207;
219.0000;0.9670;1.6131;
219.3000;0.9670;1.6232;
219.6000;0.9662;1.6258;
219.9000;0.9678;1.6232;
220.2000;0.9670;1.6283;
220.5000;0.9735;1.6385;
220.8000;0.9687;1.6283;
221.1000;0.9695;1.6359;
221.4000;0.9654;1.6156;
221.7000;0.9646;1.6106;
222.0000;0.9695;1.6258;
222.3000;0.9670;1.6207;
222.6000;0.9670;1.6283;
222.9000;0.9670;1.6308;
223.2000;0.9670;1.6359;
223.5000;0.9670;1.6334;
223.8000;0.9662;1.6359;
224.1000;0.9703;1.6486;
224.4000;0.9801;1.6714;
224.7000;0.9687;1.6435;
225.0000;0.9670;1.6410;
225.3000;0.9678;1.6385;
225.6000;0.9678;1.6359;
225.9000;0.9678;1.6334;
226.2000;0.9670;1.6182;
226.5000;0.9662;1.6232;
226.8000;0.9670;1.6308;
227.1000;0.9678;1.6283;
227.4000;0.9678;1.6283;
227.7000;0.9662;1.6308;
228.0000;0.9678;1.6410;
228.3000;0.9687;1.6359;
228.6000;0.9678;1.6435;
228.9000;0.9670;1.6435;
229.2000;0.9638;1.6385;
229.5000;0.9695;1.6638;
229.8000;0.9670;1.6714;
230.1000;0.9695;1.6740;
230.4000;0.9678;1.6714;
230.7000;0.9670;1.6638;
231.0000;0.9670;1.6562;
231.3000;0.9662;1.6486;
231.6000;0.9638;1.6359;
231.9000;0.9670;1.6435;
232.2000;0.9670;1.6359;
232.5000;0.9654;1.6308;
232.8000;0.9662;1.6334;
233.1000;0.9695;1.6461;
233.4000;0.9678;1.6461;
233.7000;0.9711;1.6486;
234.0000;0.9654;1.6283;
234.3000;0.9662;1.6258;
234.6000;0.9654;1.6283;
234.9000;0.9654;1.6308;
235.2000;0.9654;1.6283;
235.5000;0.9621;1.6207;
235.8000;0.9654;1.6283;
236.1000;0.9654;1.6334;
236.4000;0.9662;1.6258;
236.7000;0.9703;1.6486;
237.0000;0.9670;1.6410;
237.3000;0.9662;1.6385;
237.6000;0.9662;1.6461;
237.9000;0.9654;1.6435;
238.2000;0.9670;1.6511;
238.5000;0.9654;1.6537;
238.8000;0.9670;1.6461;
239.1000;0.9646;1.6410;
239.4000;0.9662;1.6410;
239.7000;0.9670;1.6537;
240.0000;0.9670;1.6410;
240.3000;0.9687;1.6334;
240.6000;0.9662;1.6334;
240.9000;0.9662;1.6334;
241.2000;0.9662;1.6410;
241.5000;0.9662;1.6334;
241.8000;0.9654;1.6359;
242.1000;0.9735;1.6511;
242.4000;0.9662;1.6359;
242.7000;0.9670;1.6359;
243.0000;0.9646;1.6435;
243.3000;0.9662;1.6410;
243.6000;0.9678;1.6461;
243.9000;0.9670;1.6385;
244.2000;0.9678;1.6334;
244.5000;0.9670;1.6232;
244.8000;0.9670;1.6182;
245.1000;0.9654;1.6207;
245.4000;0.9687;1.6308;
245.7000;0.9638;1.6308;
246.0000;0.9670;1.6359;
246.3000;0.9662;1.6359;
246.6000;0.9646;1.6359;
246.9000;0.9670;1.6410;
247.2000;0.9695;1.6511;
247.5000;0.9646;1.6334;
247.8000;0.9654;1.6334;
248.1000;0.9662;1.6385;
248.4000;0.9719;1.6511;
248.7000;0.9670;1.6359;
249.0000;0.9670;1.6410;
249.3000;0.9654;1.6334;
249.6000;0.9687;1.6359;
249.9000;0.9678;1.6410;
250.2000;0.9654;1.6308;
250.5000;0.9662;1.6435;
250.8000;0.9670;1.6435;
251.1000;0.9678;1.6385;
251.4000;0.9662;1.6359;
251.7000;0.9670;1.6385;
252.0000;0.9687;1.6359;
252.3000;0.9678;1.6385;
252.6000;0.9670;1.6359;
252.9000;0.9662;1.6283;
253.2000;0.9719;1.6410;
253.5000;0.9670;1.6258;
253.8000;0.9670;1.6207;
254.1000;0.9760;1.6435;
254.4000;0.9662;1.6182;
254.7000;0.9670;1.6207;
255.0000;0.9646;1.6207;
255.3000;0.9646;1.6258;
255.6000;0.9638;1.6283;
255.9000;0.9646;1.6232;
256.2000;0.9662;1.6182;
256.5000;0.9662;1.6182;
256.8000;0.9662;1.6156;
257.1000;0.9670;1.6258;
257.4000;0.9662;1.6308;
257.7000;0.9662;1.6359;
258.0000;0.9695;1.6435;
258.3000;0.9670;1.6385;
258.6000;0.9662;1.6359;
258.9000;0.9670;1.6334;
259.2000;0.9654;1.6308;
259.5000;0.9662;1.6232;
259.8000;0.9662;1.6207;
260.1000;0.9670;1.6232;
260.4000;0.9646;1.6131;
260.7000;0.9670;1.6182;
261.0000;0.9711;1.6334;
261.3000;0.9662;1.6232;
261.6000;0.9662;1.6232;
261.9000;0.9654;1.6283;
262.2000;0.9646;1.6207;
262.5000;0.9662;1.6283;
262.8000;0.9687;1.6359;
263.1000;0.9687;1.6308;
263.4000;0.9670;1.6308;
263.7000;0.9687;1.6385;
264.0000;0.9678;1.6385;
264.3000;0.9662;1.6385;
264.6000;0.9662;1.6308;
264.9000;0.9670;1.6334;
265.2000;0.9662;1.6207;
265.5000;0.9654;1.6182;
265.8000;0.9670;1.6258;
266.1000;0.9670;1.6207;
266.4000;0.9654;1.6232;
266.7000;0.9662;1.6283;
267.0000;0.9654;1.6283;
267.3000;0.9662;1.6232;
267.6000;0.9670;1.6258;
267.9000;0.9670;1.6283;
268.2000;0.9687;1.6308;
268.5000;0.9662;1.6207;
268.8000;0.9678;1.6334;
269.1000;0.9670;1.6410;
269.4000;0.9662;1.6410;
269.7000;0.9670;1.6385;
270.0000;0.9662;1.6486;
270.3000;0.9678;1.6664;
270.6000;0.9678;1.6664;
270.9000;0.9711;1.6740;
271.2000;0.9678;1.6587;
271.5000;0.9662;1.6511;
271.8000;0.9646;1.6461;
272.1000;0.9646;1.6435;
272.4000;0.9662;1.6385;
272.7000;0.9678;1.6461;
273.0000;0.9654;1.6486;
273.3000;0.9662;1.6461;
273.6000;0.9662;1.6435;
273.9000;0.9638;1.6334;
274.2000;0.9678;1.6410;
274.5000;0.9662;1.6359;
274.8000;0.9613;1.6308;
275.1000;0.9662;1.6461;
275.4000;0.9670;1.6435;
275.7000;0.9646;1.6410;
276.0000;0.9646;1.6435;
276.3000;0.9662;1.6435;
276.6000;0.9670;1.6435;
276.9000;0.9654;1.6410;
277.2000;0.9646;1.6385;
277.5000;0.9670;1.6486;
277.8000;0.9662;1.6562;
278.1000;0.9654;1.6613;
278.4000;0.9654;1.6562;
278.7000;0.9654;1.6537;
279.0000;0.9646;1.6461;
279.3000;0.9646;1.6486;
279.6000;0.9646;1.6486;
279.9000;0.9662;1.6486;
280.2000;0.9670;1.6562;
280.5000;0.9670;1.6638;
280.8000;0.9687;1.6613;
281.1000;0.9654;1.6587;
281.4000;0.9662;1.6613;
281.7000;0.9678;1.6613;
282.0000;0.9768;1.6765;
282.3000;0.9638;1.6410;
282.6000;0.9687;1.6562;
282.9000;0.9727;1.6664;
283.2000;0.9646;1.6385;
283.5000;0.9654;1.6435;
283.8000;0.9638;1.6511;
284.1000;0.9662;1.6587;
284.4000;0.9678;1.6613;
284.7000;0.9630;1.6511;
285.0000;0.9646;1.6537;
285.3000;0.9662;1.6486;
285.6000;0.9670;1.6511;
285.9000;0.9654;1.6435;
286.2000;0.9752;1.6664;
286.5000;0.9670;1.6410;
286.8000;0.9654;1.6308;
287.1000;0.9670;1.6308;
287.4000;0.9662;1.6334;
287.7000;0.9654;1.6461;
288.0000;0.9646;1.6410;
288.3000;0.9638;1.6359;
288.6000;0.9638;1.6359;
288.9000;0.9638;1.6486;
289.2000;0.9687;1.6537;
289.5000;0.9662;1.6587;
289.8000;0.9662;1.6587;
290.1000;0.9621;1.6613;
290.4000;0.9597;1.6613;
290.7000;0.9646;1.6689;
291.0000;0.9646;1.6664;
291.3000;0.9703;1.6790;
291.6000;0.9654;1.6613;
291.9000;0.9662;1.6587;
292.2000;0.9646;1.6511;
292.5000;0.9638;1.6613;
292.8000;0.9670;1.6613;
293.1000;0.9678;1.6638;
293.4000;0.9654;1.6537;
293.7000;0.9630;1.6385;
294.0000;0.9670;1.6486;
294.3000;0.9646;1.6486;
294.6000;0.9654;1.6511;
294.9000;0.9654;1.6537;
295.2000;0.9670;1.6537;
295.5000;0.9654;1.6562;
295.8000;0.9662;1.6486;
296.1000;0.9662;1.6435;
296.4000;0.9670;1.6461;
296.7000;0.9670;1.6435;
297.0000;0.9670;1.6461;
297.3000;0.9670;1.6435;
297.6000;0.9646;1.6334;
297.9000;0.9662;1.6410;
298.2000;0.9670;1.6511;
298.5000;0.9654;1.6537;
298.8000;0.9646;1.6537;
299.1000;0.9662;1.6587;
299.4000;0.9654;1.6587;
299.7000;0.9662;1.6511;
300.0000;0.9662;1.6511;
300.3000;0.9662;1.6537;
300.6000;0.9687;1.6664;
300.9000;0.9646;1.6587;
301.2000;0.9662;1.6511;
301.5000;0.9630;1.6334;
301.8000;0.9678;1.6435;
302.1000;0.9670;1.6283;
302.4000;0.9654;1.6359;
302.7000;0.9687;1.6511;
303.0000;0.9605;1.6410;
303.3000;0.9638;1.6511;
303.6000;0.9687;1.6613;
303.9000;0.9565;1.6207;
304.2000;0.9646;1.6308;
304.5000;0.9662;1.6334;
304.8000;0.9670;1.6461;
305.1000;0.9662;1.6486;
305.4000;0.9646;1.6461;
305.7000;0.9678;1.6511;
306.0000;0.9662;1.6537;
306.3000;0.9654;1.6486;
306.6000;0.9654;1.6486;
306.9000;0.9678;1.6537;
307.2000;0.9670;1.6638;
307.5000;0.9654;1.6664;
307.8000;0.9670;1.6613;
308.1000;0.9695;1.6740;
308.4000;0.9662;1.6587;
308.7000;0.9646;1.6486;
309.0000;0.9744;1.6714;
309.3000;0.9638;1.6410;
309.6000;0.9678;1.6435;
309.9000;0.9654;1.6359;
310.2000;0.9662;1.6258;
310.5000;0.9670;1.6232;
310.8000;0.9670;1.6232;
311.1000;0.9662;1.6232;
311.4000;0.9646;1.6308;
311.7000;0.9670;1.6359;
312.0000;0.9646;1.6385;
312.3000;0.9662;1.6359;
312.6000;0.9662;1.6359;
312.9000;0.9654;1.6359;
313.2000;0.9670;1.6359;
313.5000;0.9703;1.6461;
313.8000;0.9687;1.6461;
314.1000;0.9638;1.6461;
314.4000;0.9654;1.6486;
314.7000;0.9646;1.6613;
315.0000;0.9654;1.6587;
315.3000;0.9621;1.6587;
315.6000;0.9654;1.6613;
315.9000;0.9621;1.6511;
316.2000;0.9654;1.6587;
316.5000;0.9646;1.6587;
316.8000;0.9662;1.6613;
317.1000;0.9662;1.6664;
317.4000;0.9662;1.6638;
317.7000;0.9662;1.6587;
318.0000;0.9654;1.6562;
318.3000;0.9760;1.6892;
318.6000;0.9654;1.6537;
318.9000;0.9654;1.6587;
319.2000;0.9662;1.6587;
319.5000;0.9662;1.6562;
319.8000;0.9654;1.6587;
320.1000;0.9662;1.6587;
320.4000;0.9646;1.6486;
320.7000;0.9638;1.6486;
321.0000;0.9670;1.6587;
321.3000;0.9638;1.6537;
321.6000;0.9638;1.6587;
321.9000;0.9654;1.6638;
322.2000;0.9670;1.6689;
322.5000;0.9654;1.6613;
322.8000;0.9646;1.6562;
323.1000;0.9662;1.6511;
323.4000;0.9678;1.6562;
323.7000;0.9670;1.6511;
324.0000;0.9670;1.6562;
324.3000;0.9654;1.6587;
324.6000;0.9662;1.6689;
324.9000;0.9654;1.6689;
325.2000;0.9638;1.6689;
325.5000;0.9638;1.6664;
325.8000;0.9711;1.6740;
326.1000;0.9711;1.6664;
326.4000;0.9646;1.6562;
326.7000;0.9711;1.6765;
327.0000;0.9565;1.6359;
327.3000;0.9654;1.6511;
327.6000;0.9695;1.6613;
327.9000;0.9638;1.6410;
328.2000;0.9630;1.6385;
328.5000;0.9662;1.6486;
328.8000;0.9662;1.6511;
329.1000;0.9646;1.6461;
329.4000;0.9662;1.6587;
329.7000;0.9670;1.6537;
330.0000;0.9662;1.6511;
330.3000;0.9662;1.6511;
330.6000;0.9646;1.6613;
330.9000;0.9662;1.6638;
331.2000;0.9670;1.6587;
331.5000;0.9654;1.6511;
331.8000;0.9654;1.6435;
332.1000;0.9670;1.6562;
332.4000;0.9662;1.6486;
332.7000;0.9662;1.6435;
333.0000;0.9646;1.6385;
333.3000;0.9638;1.6435;
333.6000;0.9654;1.6486;
333.9000;0.9638;1.6511;
334.2000;0.9630;1.6562;
334.5000;0.9654;1.6689;
334.8000;0.9646;1.6613;
335.1000;0.9573;1.6359;
335.4000;0.9662;1.6613;
335.7000;0.9654;1.6511;
336.0000;0.9654;1.6587;
336.3000;0.9516;1.6207;
336.6000;0.9654;1.6613;
336.9000;0.9654;1.6587;
337.2000;0.9768;1.6943;
337.5000;0.9646;1.6689;
337.8000;0.9662;1.6816;
338.1000;0.9670;1.6816;
338.4000;0.9678;1.6816;
338.7000;0.9662;1.6790;
339.0000;0.9662;1.6841;
339.3000;0.9638;1.6816;
339.6000;0.9654;1.6816;
339.9000;0.9654;1.6816;
340.2000;0.9638;1.6714;
340.5000;0.9638;1.6765;
340.8000;0.9630;1.6613;
341.1000;0.9646;1.6638;
341.4000;0.9654;1.6638;
341.7000;0.9646;1.6613;
342.0000;0.9654;1.6638;
342.3000;0.9678;1.6587;
342.6000;0.9670;1.6562;
342.9000;0.9613;1.6537;
343.2000;0.9638;1.6613;
343.5000;0.9646;1.6537;
343.8000;0.9597;1.6410;
344.1000;0.9662;1.6537;
344.4000;0.9654;1.6511;
344.7000;0.9678;1.6689;
345.0000;0.9654;1.6689;
345.3000;0.9670;1.6740;
345.6000;0.9646;1.6740;
345.9000;0.9638;1.6689;
346.2000;0.9687;1.6765;
346.5000;0.9670;1.6765;
346.8000;0.9654;1.6714;
347.1000;0.9670;1.6816;
347.4000;0.9654;1.6917;
347.7000;0.9678;1.6917;
348.0000;0.9695;1.6993;
348.3000;0.9638;1.6917;
348.6000;0.9638;1.6841;
348.9000;0.9638;1.6917;
349.2000;0.9621;1.6816;
349.5000;0.9638;1.6866;
349.8000;0.9687;1.6993;
350.1000;0.9654;1.6841;
350.4000;0.9638;1.6917;
350.7000;0.9727;1.6993;
351.0000;0.9638;1.6740;
351.3000;0.9638;1.6740;
351.6000;0.9654;1.6689;
351.9000;0.9646;1.6613;
352.2000;0.9654;1.6689;
352.5000;0.9646;1.6714;
352.8000;0.9670;1.6664;
353.1000;0.9646;1.6587;
353.4000;0.9654;1.6587;
353.7000;0.9735;1.6841;
354.0000;0.9662;1.6689;
354.3000;0.9662;1.6587;
354.6000;0.9654;1.6587;
354.9000;0.9662;1.6638;
355.2000;0.9654;1.6664;
355.5000;0.9662;1.6587;
355.8000;0.9670;1.6537;
356.1000;0.9670;1.6511;
356.4000;0.9646;1.6486;
356.7000;0.9744;1.6740;
357.0000;0.9654;1.6537;
357.3000;0.9654;1.6562;
357.6000;0.9630;1.6435;
357.9000;0.9662;1.6486;
358.2000;0.9630;1.6410;
358.5000;0.9646;1.6537;
358.8000;0.9630;1.6486;
359.1000;0.9654;1.6537;
359.4000;0.9646;1.6511;
359.7000;0.9638;1.6511;
360.0000;0.9646;1.6638;
360.3000;0.9630;1.6537;
360.6000;0.9654;1.6638;
360.9000;0.9621;1.6638;
361.2000;0.9589;1.6511;
361.5000;0.9646;1.6638;
361.8000;0.9646;1.6537;
362.1000;0.9662;1.6537;
362.4000;0.9662;1.6562;
362.7000;0.9654;1.6537;
363.0000;0.9711;1.6664;
363.3000;0.9654;1.6587;
363.6000;0.9646;1.6613;
363.9000;0.9613;1.6638;
364.2000;0.9630;1.6689;
364.5000;0.9646;1.6740;
364.8000;0.9662;1.6689;
365.1000;0.9670;1.6714;
365.4000;0.9662;1.6714;
365.7000;0.9654;1.6689;
366.0000;0.9646;1.6664;
366.3000;0.9654;1.6486;
366.6000;0.9605;1.6410;
366.9000;0.9670;1.6562;
367.2000;0.9670;1.6587;
367.5000;0.9654;1.6562;
367.8000;0.9613;1.6486;
368.1000;0.9662;1.6562;
368.4000;0.9711;1.6613;
368.7000;0.9654;1.6486;
369.0000;0.9662;1.6587;
369.3000;0.9662;1.6638;
369.6000;0.9670;1.6638;
369.9000;0.9654;1.6664;
370.2000;0.9678;1.6714;
370.5000;0.9662;1.6587;
370.8000;0.9678;1.6511;
371.1000;0.9678;1.6613;
371.4000;0.9638;1.6562;
371.7000;0.9646;1.6562;
372.0000;0.9646;1.6689;
372.3000;0.9646;1.6664;
372.6000;0.9638;1.6638;
372.9000;0.9630;1.6613;
373.2000;0.9654;1.6664;
373.5000;0.9630;1.6613;
373.8000;0.9646;1.6613;
374.1000;0.9630;1.6587;
374.4000;0.9654;1.6765;
374.7000;0.9646;1.6740;
375.0000;0.9581;1.6562;
375.3000;0.9646;1.6740;
375.6000;0.9638;1.6689;
375.9000;0.9646;1.6613;
376.2000;0.9670;1.6587;
376.5000;0.9654;1.6511;
376.8000;0.9654;1.6486;
377.1000;0.9646;1.6461;
377.4000;0.9646;1.6511;
377.7000;0.9646;1.6486;
378.0000;0.9646;1.6410;
378.3000;0.9662;1.6461;
378.6000;0.9678;1.6537;
378.9000;0.9662;1.6587;
379.2000;0.9654;1.6486;
379.5000;0.9670;1.6537;
379.8000;0.9654;1.6410;
380.1000;0.9711;1.6486;
380.4000;0.9670;1.6461;
380.7000;0.9654;1.6587;
381.0000;0.9670;1.6638;
381.3000;0.9654;1.6613;
381.6000;0.9654;1.6587;
381.9000;0.9646;1.6613;
382.2000;0.9678;1.6765;
382.5000;0.9654;1.6638;
382.8000;0.9646;1.6765;
383.1000;0.9752;1.6943;
383.4000;0.9654;1.6689;
383.7000;0.9662;1.6638;
384.0000;0.9646;1.6587;
384.3000;0.9654;1.6511;
384.6000;0.9670;1.6511;
384.9000;0.9654;1.6511;
385.2000;0.9630;1.6461;
385.5000;0.9654;1.6511;
385.8000;0.9662;1.6587;
386.1000;0.9638;1.6562;
386.4000;0.9638;1.6613;
386.7000;0.9654;1.6664;
387.0000;0.9621;1.6714;
387.3000;0.9638;1.6714;
387.6000;0.9630;1.6689;
387.9000;0.9654;1.6664;
388.2000;0.9638;1.6664;
388.5000;0.9646;1.6638;
388.8000;0.9654;1.6613;
389.1000;0.9638;1.6664;
389.4000;0.9662;1.6714;
389.7000;0.9662;1.6689;
390.0000;0.9630;1.6613;
390.3000;0.9654;1.6689;
390.6000;0.9654;1.6816;
390.9000;0.9638;1.6816;
391.2000;0.9670;1.6841;
391.5000;0.9662;1.6790;
391.8000;0.9662;1.6816;
392.1000;0.9662;1.6765;
392.4000;0.9662;1.6740;
392.7000;0.9662;1.6790;
393.0000;0.9613;1.6664;
393.3000;0.9662;1.6664;
393.6000;0.9654;1.6638;
393.9000;0.9670;1.6689;
394.2000;0.9646;1.6638;
394.5000;0.9670;1.6790;
394.8000;0.9581;1.6587;
395.1000;0.9654;1.6740;
395.4000;0.9646;1.6638;
395.7000;0.9678;1.6638;
396.0000;0.9719;1.6866;
396.3000;0.9654;1.6714;
396.6000;0.9630;1.6714;
396.9000;0.9646;1.6740;
397.2000;0.9654;1.6689;
397.5000;0.9646;1.6689;
397.8000;0.9621;1.6664;
398.1000;0.9654;1.6790;
398.4000;0.9662;1.6866;
398.7000;0.9670;1.6816;
399.0000;0.9654;1.6765;
399.3000;0.9638;1.6587;
399.6000;0.9654;1.6537;
399.9000;0.9646;1.6537;
400.2000;0.9646;1.6613;
400.5000;0.9646;1.6664;
400.8000;0.9662;1.6740;
401.1000;0.9646;1.6740;
401.4000;0.9646;1.6714;
401.7000;0.9662;1.6765;
402.0000;0.9662;1.6790;
402.3000;0.9687;1.6790;
402.6000;0.9654;1.6740;
402.9000;0.9646;1.6714;
403.2000;0.9654;1.6714;
403.5000;0.9662;1.6613;
403.8000;0.9646;1.6562;
404.1000;0.9646;1.6587;
404.4000;0.9662;1.6638;
404.7000;0.9654;1.6664;
405.0000;0.9638;1.6689;
405.3000;0.9646;1.6689;
405.6000;0.9646;1.6689;
405.9000;0.9670;1.6664;
406.2000;0.9678;1.6638;
406.5000;0.9646;1.6562;
406.8000;0.9727;1.6740;
407.1000;0.9621;1.6486;
407.4000;0.9646;1.6638;
407.7000;0.9646;1.6689;
408.0000;0.9654;1.6689;
408.3000;0.9646;1.6638;
408.6000;0.9654;1.6587;
408.9000;0.9662;1.6537;
409.2000;0.9540;1.6258;
409.5000;0.9646;1.6587;
409.8000;0.9687;1.6689;
410.1000;0.9646;1.6664;
410.4000;0.9654;1.6587;
410.7000;0.9654;1.6537;
411.0000;0.9654;1.6562;
411.3000;0.9719;1.6714;
411.6000;0.9646;1.6562;
411.9000;0.9703;1.6664;
412.2000;0.9703;1.6765;
412.5000;0.9654;1.6740;
412.8000;0.9508;1.6334;
413.1000;0.9646;1.6613;
413.4000;0.9654;1.6613;
413.7000;0.9662;1.6689;
414.0000;0.9524;1.6385;
414.3000;0.9646;1.6613;
414.6000;0.9646;1.6613;
414.9000;0.9670;1.6613;
415.2000;0.9662;1.6664;
415.5000;0.9646;1.6613;
415.8000;0.9630;1.6562;
416.1000;0.9646;1.6613;
416.4000;0.9646;1.6587;
416.7000;0.9654;1.6562;
417.0000;0.9621;1.6461;
417.3000;0.9630;1.6359;
417.6000;0.9621;1.6435;
417.9000;0.9621;1.6410;
418.2000;0.9630;1.6562;
418.5000;0.9638;1.6587;
418.8000;0.9621;1.6537;
419.1000;0.9638;1.6613;
419.4000;0.9638;1.6613;
419.7000;0.9638;1.6613;
420.0000;0.9670;1.6689;
420.3000;0.9654;1.6613;
420.6000;0.9638;1.6613;
420.9000;0.9646;1.6765;
421.2000;0.9630;1.6740;
421.5000;0.9646;1.6841;
421.8000;0.9646;1.6841;
422.1000;0.9621;1.6790;
422.4000;0.9638;1.6765;
422.7000;0.9654;1.6790;
423.0000;0.9638;1.6841;
423.3000;0.9630;1.6740;
423.6000;0.9654;1.6790;
423.9000;0.9654;1.6790;
424.2000;0.9654;1.6790;
424.5000;0.9621;1.6714;
424.8000;0.9654;1.6816;
425.1000;0.9638;1.6740;
425.4000;0.9646;1.6765;
425.7000;0.9638;1.6790;
426.0000;0.9638;1.6790;
426.3000;0.9638;1.6765;
426.6000;0.9646;1.6689;
426.9000;0.9621;1.6587;
427.2000;0.9638;1.6613;
427.5000;0.9638;1.6587;
427.8000;0.9638;1.6638;
428.1000;0.9630;1.6638;
428.4000;0.9638;1.6587;
428.7000;0.9646;1.6613;
429.0000;0.9630;1.6689;
429.3000;0.9630;1.6587;
429.6000;0.9646;1.6638;
429.9000;0.9662;1.6638;
430.2000;0.9646;1.6664;
430.5000;0.9630;1.6562;
430.8000;0.9638;1.6537;
431.1000;0.9630;1.6486;
431.4000;0.9654;1.6562;
431.7000;0.9630;1.6714;
432.0000;0.9630;1.6765;
432.3000;0.9630;1.6689;
432.6000;0.9646;1.6740;
432.9000;0.9646;1.6740;
433.2000;0.9638;1.6816;
433.5000;0.9630;1.6714;
433.8000;0.9630;1.6714;
434.1000;0.9678;1.6790;
434.4000;0.9613;1.6587;
434.7000;0.9630;1.6664;
435.0000;0.9654;1.6537;
435.3000;0.9662;1.6613;
435.6000;0.9654;1.6613;
435.9000;0.9662;1.6638;
436.2000;0.9630;1.6613;
436.5000;0.9613;1.6664;
436.8000;0.9638;1.6689;
437.1000;0.9646;1.6841;
437.4000;0.9556;1.6562;
437.7000;0.9638;1.6790;
438.0000;0.9670;1.6866;
438.3000;0.9621;1.6689;
438.6000;0.9556;1.6410;
438.9000;0.9670;1.6689;
439.2000;0.9687;1.6689;
439.5000;0.9654;1.6562;
439.8000;0.9654;1.6537;
440.1000;0.9630;1.6562;
440.4000;0.9654;1.6664;
440.7000;0.9695;1.6740;
441.0000;0.9662;1.6638;
441.3000;0.9646;1.6587;
441.6000;0.9646;1.6638;
441.9000;0.9646;1.6740;
442.2000;0.9678;1.6866;
442.5000;0.9654;1.6841;
442.8000;0.9646;1.6841;
443.1000;0.9638;1.6790;
443.4000;0.9638;1.6740;
443.7000;0.9654;1.6689;
444.0000;0.9670;1.6714;
444.3000;0.9630;1.6689;
444.6000;0.9638;1.6689;
444.9000;0.9630;1.6740;
445.2000;0.9630;1.6714;
445.5000;0.9646;1.6765;
445.8000;0.9621;1.6689;
446.1000;0.9630;1.6765;
446.4000;0.9638;1.6765;
446.7000;0.9646;1.6689;
447.0000;0.9646;1.6714;
447.3000;0.9654;1.6714;
447.6000;0.9638;1.6587;
447.9000;0.9638;1.6587;
448.2000;0.9654;1.6638;
448.5000;0.9654;1.6714;
448.8000;0.9670;1.6816;
449.1000;0.9670;1.6816;
449.4000;0.9654;1.6689;
449.7000;0.9646;1.6638;
450.0000;0.9630;1.6587;
450.3000;0.9638;1.6638;
450.6000;0.9638;1.6689;
450.9000;0.9646;1.6714;
451.2000;0.9573;1.6587;
451.5000;0.9532;1.6537;
451.8000;0.9646;1.6866;
452.1000;0.9581;1.6664;
452.4000;0.9630;1.6866;
452.7000;0.9687;1.6943;
453.0000;0.9638;1.6740;
453.3000;0.9638;1.6740;
453.6000;0.9638;1.6816;
453.9000;0.9613;1.6790;
454.2000;0.9638;1.6765;
454.5000;0.9630;1.6511;
454.8000;0.9646;1.6587;
455.1000;0.9621;1.6790;
455.4000;0.9646;1.6816;
455.7000;0.9646;1.6816;
456.0000;0.9646;1.6790;
456.3000;0.9638;1.6740;
456.6000;0.9654;1.6714;
456.9000;0.9670;1.6816;
457.2000;0.9630;1.6740;
457.5000;0.9646;1.6816;
457.8000;0.9638;1.6790;
458.1000;0.9662;1.6917;
458.4000;0.9735;1.6993;
458.7000;0.9662;1.6866;
459.0000;0.9638;1.6841;
459.3000;0.9556;1.6689;
459.6000;0.9646;1.6917;
459.9000;0.9654;1.6866;
460.2000;0.9654;1.6968;
460.5000;0.9654;1.7044;
460.8000;0.9646;1.7044;
461.1000;0.9687;1.7019;
461.4000;0.9646;1.6968;
461.7000;0.9670;1.6993;
462.0000;0.9662;1.7095;
462.3000;0.9654;1.6993;
462.6000;0.9646;1.6917;
462.9000;0.9638;1.6892;
463.2000;0.9662;1.6917;
463.5000;0.9662;1.6866;
463.8000;0.9638;1.6740;
464.1000;0.9638;1.6689;
464.4000;0.9654;1.6689;
464.7000;0.9662;1.6740;
465.0000;0.9646;1.6689;
465.3000;0.9654;1.6714;
465.6000;0.9662;1.6790;
465.9000;0.9670;1.6790;
466.2000;0.9662;1.6765;
466.5000;0.9630;1.6714;
466.8000;0.9654;1.6816;
467.1000;0.9613;1.6714;
467.4000;0.9638;1.6765;
467.7000;0.9646;1.6714;
468.0000;0.9630;1.6664;
468.3000;0.9646;1.6740;
468.6000;0.9687;1.6841;
468.9000;0.9646;1.6841;
469.2000;0.9646;1.6866;
469.5000;0.9646;1.6866;
469.8000;0.9654;1.6866;
470.1000;0.9654;1.6816;
470.4000;0.9638;1.6790;
470.7000;0.9654;1.6841;
471.0000;0.9703;1.6892;
471.3000;0.9687;1.6790;
471.6000;0.9630;1.6714;
471.9000;0.9646;1.6765;
472.2000;0.9630;1.6689;
472.5000;0.9703;1.6765;
472.8000;0.9638;1.6613;
473.1000;0.9630;1.6638;
473.4000;0.9654;1.6664;
473.7000;0.9662;1.6664;
474.0000;0.9589;1.6486;
474.3000;0.9711;1.6790;
474.6000;0.9695;1.6689;
474.9000;0.9662;1.6613;
475.2000;0.9638;1.6613;
475.5000;0.9646;1.6740;
475.8000;0.9646;1.6816;
476.1000;0.9662;1.6866;
476.4000;0.9752;1.7120;
476.7000;0.9646;1.6790;
477.0000;0.9638;1.6790;
477.3000;0.9565;1.6638;
477.6000;0.9662;1.6866;
477.9000;0.9670;1.6917;
478.2000;0.9646;1.6816;
478.5000;0.9646;1.6968;
478.8000;0.9646;1.6993;
479.1000;0.9621;1.6968;
479.4000;0.9638;1.6993;
479.7000;0.9670;1.6993;
480.0000;0.9670;1.6968;
480.3000;0.9630;1.6841;
480.6000;0.9638;1.6866;
480.9000;0.9646;1.6917;
481.2000;0.9654;1.6841;
481.5000;0.9719;1.6968;
481.8000;0.9605;1.6740;
482.1000;0.9654;1.6765;
482.4000;0.9695;1.6790;
482.7000;0.9695;1.6841;
483.0000;0.9613;1.6613;
483.3000;0.9646;1.6740;
483.6000;0.9646;1.6841;
483.9000;0.9678;1.6816;
484.2000;0.9646;1.6765;
484.5000;0.9662;1.6740;
484.8000;0.9662;1.6765;
485.1000;0.9711;1.6968;
485.4000;0.9654;1.6816;
485.7000;0.9630;1.6790;
486.0000;0.9621;1.6841;
486.3000;0.9646;1.6866;
486.6000;0.9638;1.6892;
486.9000;0.9621;1.6841;
487.2000;0.9638;1.6841;
487.5000;0.9646;1.6866;
487.8000;0.9638;1.6841;
488.1000;0.9605;1.6765;
488.4000;0.9638;1.6816;
488.7000;0.9654;1.6892;
489.0000;0.9654;1.6841;
489.3000;0.9646;1.6816;
489.6000;0.9638;1.6765;
489.9000;0.9638;1.6740;
490.2000;0.9621;1.6765;
490.5000;0.9630;1.6816;
490.8000;0.9597;1.6816;
491.1000;0.9621;1.6816;
491.4000;0.9630;1.6790;
491.7000;0.9621;1.6689;
492.0000;0.9621;1.6714;
492.3000;0.9662;1.6740;
492.6000;0.9638;1.6613;
492.9000;0.9630;1.6562;
493.2000;0.9638;1.6587;
493.5000;0.9621;1.6638;
493.8000;0.9646;1.6689;
494.1000;0.9662;1.6714;
494.4000;0.9646;1.6689;
494.7000;0.9654;1.6714;
495.0000;0.9646;1.6714;
495.3000;0.9678;1.6866;
495.6000;0.9654;1.6816;
495.9000;0.9646;1.6841;
496.2000;0.9654;1.6790;
496.5000;0.9638;1.6638;
496.8000;0.9646;1.6664;
497.1000;0.9638;1.6689;
497.4000;0.9678;1.6917;
497.7000;0.9662;1.6866;
498.0000;0.9711;1.6943;
498.3000;0.9662;1.6816;
498.6000;0.9638;1.6816;
498.9000;0.9654;1.6917;
499.2000;0.9711;1.7171;
499.5000;0.9752;1.7298;
499.8000;0.9662;1.6993;
500.1000;0.9654;1.6943;
500.4000;0.9646;1.6968;
500.7000;0.9654;1.6943;
501.0000;0.9646;1.6917;
501.3000;0.9654;1.6892;
501.6000;0.9646;1.7044;
501.9000;0.9630;1.7019;
502.2000;0.9613;1.6866;
502.5000;0.9630;1.6917;
502.8000;0.9646;1.6943;
503.1000;0.9646;1.6866;
503.4000;0.9646;1.6816;
503.7000;0.9654;1.6740;
504.0000;0.9630;1.6765;
504.3000;0.9662;1.6790;
504.6000;0.9613;1.6714;
504.9000;0.9646;1.6866;
505.2000;0.9638;1.6866;
505.5000;0.9638;1.6917;
505.8000;0.9638;1.6816;
506.1000;0.9662;1.6841;
506.4000;0.9638;1.6816;
506.7000;0.9654;1.6790;
507.0000;0.9630;1.6816;
507.3000;0.9646;1.6841;
507.6000;0.9638;1.6740;
507.9000;0.9638;1.6740;
508.2000;0.9646;1.6790;
508.5000;0.9621;1.6689;
508.8000;0.9646;1.6689;
509.1000;0.9662;1.6714;
509.4000;0.9662;1.6689;
509.7000;0.9638;1.6714;
510.0000;0.9662;1.6816;
510.3000;0.9654;1.6765;
510.6000;0.9662;1.6790;
510.9000;0.9646;1.6689;
511.2000;0.9646;1.6664;
511.5000;0.9638;1.6714;
511.8000;0.9638;1.6765;
512.1000;0.9613;1.6790;
512.4000;0.9630;1.6765;
512.7000;0.9654;1.6790;
513.0000;0.9638;1.6689;
513.3000;0.9613;1.6587;
513.6000;0.9605;1.6613;
513.9000;0.9646;1.6638;
514.2000;0.9654;1.6714;
514.5000;0.9654;1.6765;
514.8000;0.9621;1.6638;
515.1000;0.9646;1.6740;
515.4000;0.9654;1.6765;
515.7000;0.9638;1.6714;
516.0000;0.9638;1.6664;
516.3000;0.9630;1.6740;
516.6000;0.9646;1.6790;
516.9000;0.9654;1.6866;
517.2000;0.9638;1.6866;
517.5000;0.9646;1.6816;
517.8000;0.9638;1.6790;
518.1000;0.9621;1.6765;
518.4000;0.9646;1.6816;
518.7000;0.9630;1.6740;
519.0000;0.9654;1.6765;
519.3000;0.9646;1.6816;
519.6000;0.9646;1.6866;
519.9000;0.9638;1.6841;
520.2000;0.9654;1.6943;
520.5000;0.9654;1.7069;
520.8000;0.9654;1.6993;
521.1000;0.9646;1.6892;
521.4000;0.9621;1.6816;
521.7000;0.9744;1.7019;
522.0000;0.9638;1.6841;
522.3000;0.9711;1.7019;
522.6000;0.9630;1.6765;
522.9000;0.9548;1.6537;
523.2000;0.9719;1.6968;
523.5000;0.9630;1.6765;
523.8000;0.9630;1.6689;
524.1000;0.9654;1.6765;
524.4000;0.9638;1.6714;
524.7000;0.9630;1.6689;
525.0000;0.9646;1.6740;
525.3000;0.9621;1.6714;
525.6000;0.9638;1.6816;
525.9000;0.9630;1.6841;
526.2000;0.9638;1.6943;
526.5000;0.9646;1.6943;
526.8000;0.9654;1.6968;
527.1000;0.9646;1.6917;
527.4000;0.9621;1.6892;
527.7000;0.9630;1.6841;
528.0000;0.9662;1.6892;
528.3000;0.9638;1.6917;
528.6000;0.9638;1.6841;
528.9000;0.9556;1.6613;
529.2000;0.9646;1.6892;
529.5000;0.9638;1.6841;
529.8000;0.9630;1.6740;
530.1000;0.9646;1.6714;
530.4000;0.9613;1.6714;
530.7000;0.9654;1.6816;
531.0000;0.9711;1.6993;
531.3000;0.9646;1.6892;
531.6000;0.9630;1.6841;
531.9000;0.9654;1.6841;
532.2000;0.9654;1.6892;
532.5000;0.9646;1.6866;
532.8000;0.9565;1.6613;
533.1000;0.9654;1.6841;
533.4000;0.9711;1.6943;
533.7000;0.9630;1.6765;
534.0000;0.9646;1.6866;
534.3000;0.9646;1.6790;
534.6000;0.9646;1.6765;
534.9000;0.9646;1.6740;
535.2000;0.9638;1.6740;
535.5000;0.9646;1.6790;
535.8000;0.9654;1.6892;
536.1000;0.9597;1.6740;
536.4000;0.9638;1.6816;
536.7000;0.9646;1.6816;
537.0000;0.9654;1.6714;
537.3000;0.9630;1.6740;
537.6000;0.9630;1.6765;
537.9000;0.9646;1.6714;
538.2000;0.9654;1.6714;
538.5000;0.9630;1.6714;
538.8000;0.9638;1.6689;
539.1000;0.9638;1.6638;
539.4000;0.9638;1.6587;
539.7000;0.9646;1.6562;
540.0000;0.9646;1.6638;
540.3000;0.9638;1.6638;
540.6000;0.9654;1.6638;
540.9000;0.9646;1.6740;
541.2000;0.9662;1.6765;
541.5000;0.9646;1.6664;
541.8000;0.9678;1.6714;
542.1000;0.9654;1.6613;
542.4000;0.9646;1.6613;
542.7000;0.9638;1.6613;
543.0000;0.9638;1.6638;
543.3000;0.9654;1.6790;
543.6000;0.9638;1.6740;
543.9000;0.9646;1.6790;
544.2000;0.9638;1.6765;
544.5000;0.9678;1.6841;
544.8000;0.9654;1.6816;
545.1000;0.9630;1.6765;
545.4000;0.9646;1.6765;
545.7000;0.9687;1.6866;
546.0000;0.9654;1.6765;
546.3000;0.9638;1.6790;
546.6000;0.9638;1.6740;
546.9000;0.9630;1.6664;
547.2000;0.9630;1.6689;
547.5000;0.9621;1.6689;
547.8000;0.9638;1.6740;
548.1000;0.9646;1.6689;
548.4000;0.9646;1.6664;
548.7000;0.9654;1.6689;
549.0000;0.9654;1.6638;
549.3000;0.9662;1.6638;
549.6000;0.9662;1.6638;
549.9000;0.9654;1.6638;
550.2000;0.9670;1.6638;
550.5000;0.9654;1.6613;
550.8000;0.9646;1.6613;
551.1000;0.9630;1.6664;
551.4000;0.9621;1.6714;
551.7000;0.9638;1.6790;
552.0000;0.9638;1.6841;
552.3000;0.9621;1.6790;
552.6000;0.9646;1.6841;
552.9000;0.9613;1.6841;
553.2000;0.9638;1.6892;
553.5000;0.9638;1.6892;
553.8000;0.9638;1.6866;
554.1000;0.9646;1.6816;
554.4000;0.9760;1.7095;
554.7000;0.9654;1.6790;
555.0000;0.9662;1.6943;
555.3000;0.9654;1.6866;
555.6000;0.9654;1.6866;
555.9000;0.9654;1.6866;
556.2000;0.9630;1.6790;
556.5000;0.9630;1.6765;
556.8000;0.9638;1.6740;
557.1000;0.9638;1.6689;
557.4000;0.9646;1.6714;
557.7000;0.9630;1.6689;
558.0000;0.9646;1.6740;
558.3000;0.9654;1.6765;
558.6000;0.9556;1.6562;
558.9000;0.9630;1.6689;
559.2000;0.9589;1.6587;
559.5000;0.9646;1.6816;
559.8000;0.9638;1.6689;
560.1000;0.9654;1.6714;
560.4000;0.9630;1.6714;
560.7000;0.9654;1.6765;
561.0000;0.9654;1.6740;
561.3000;0.9638;1.6664;
561.6000;0.9662;1.6638;
561.9000;0.9621;1.6537;
562.2000;0.9695;1.6740;
562.5000;0.9646;1.6613;
562.8000;0.9646;1.6689;
563.1000;0.9630;1.6587;
563.4000;0.9638;1.6664;
563.7000;0.9638;1.6714;
564.0000;0.9638;1.6689;
564.3000;0.9630;1.6638;
564.6000;0.9630;1.6537;
564.9000;0.9654;1.6613;
565.2000;0.9654;1.6587;
565.5000;0.9646;1.6638;
565.8000;0.9662;1.6714;
566.1000;0.9646;1.6765;
566.4000;0.9646;1.6816;
566.7000;0.9613;1.6740;
567.0000;0.9630;1.6740;
567.3000;0.9646;1.6740;
567.6000;0.9638;1.6664;
567.9000;0.9638;1.6587;
568.2000;0.9654;1.6638;
568.5000;0.9678;1.6790;
568.8000;0.9638;1.6664;
569.1000;0.9630;1.6664;
569.4000;0.9760;1.6993;
569.7000;0.9646;1.6664;
570.0000;0.9646;1.6638;
570.3000;0.9654;1.6664;
570.6000;0.9621;1.6511;
570.9000;0.9630;1.6587;
571.2000;0.9638;1.6613;
571.5000;0.9646;1.6664;
571.8000;0.9630;1.6613;
572.1000;0.9605;1.6613;
572.4000;0.9654;1.6638;
572.7000;0.9621;1.6714;
573.0000;0.9638;1.6765;
573.3000;0.9613;1.6714;
573.6000;0.9630;1.6765;
573.9000;0.9630;1.6841;
574.2000;0.9630;1.6816;
574.5000;0.9630;1.6790;
574.8000;0.9646;1.6841;
575.1000;0.9638;1.6866;
575.4000;0.9646;1.6866;
575.7000;0.9646;1.6841;
576.0000;0.9630;1.6740;
576.3000;0.9630;1.6613;
576.6000;0.9662;1.6664;
576.9000;0.9654;1.6638;
577.2000;0.9638;1.6613;
577.5000;0.9630;1.6714;
577.8000;0.9605;1.6689;
578.1000;0.9605;1.6664;
578.4000;0.9678;1.6816;
578.7000;0.9703;1.6943;
579.0000;0.9638;1.6790;
579.3000;0.9654;1.6816;
579.6000;0.9646;1.6740;
579.9000;0.9654;1.6664;
580.2000;0.9646;1.6562;
580.5000;0.9646;1.6537;
580.8000;0.9752;1.6790;
581.1000;0.9638;1.6461;
581.4000;0.9654;1.6486;
581.7000;0.9638;1.6410;
582.0000;0.9638;1.6435;
582.3000;0.9630;1.6587;
582.6000;0.9638;1.6461;
582.9000;0.9646;1.6511;
583.2000;0.9630;1.6638;
583.5000;0.9630;1.6587;
583.8000;0.9646;1.6689;
584.1000;0.9638;1.6714;
584.4000;0.9638;1.6790;
584.7000;0.9662;1.6841;
585.0000;0.9630;1.6740;
585.3000;0.9646;1.6790;
585.6000;0.9638;1.6816;
585.9000;0.9670;1.6892;
586.2000;0.9638;1.6689;
586.5000;0.9589;1.6562;
586.8000;0.9638;1.6790;
587.1000;0.9638;1.6790;
587.4000;0.9654;1.6917;
587.7000;0.9621;1.6866;
588.0000;0.9630;1.6816;
588.3000;0.9662;1.6816;
588.6000;0.9630;1.6638;
588.9000;0.9630;1.6689;
589.2000;0.9638;1.6816;
589.5000;0.9646;1.6816;
589.8000;0.9638;1.6790;
590.1000;0.9695;1.6917;
590.4000;0.9670;1.6866;
590.7000;0.9638;1.6866;
591.0000;0.9654;1.6790;
591.3000;0.9646;1.6765;
591.6000;0.9638;1.6765;
591.9000;0.9630;1.6841;
592.2000;0.9499;1.6486;
592.5000;0.9621;1.6765;
592.8000;0.9630;1.6790;
593.1000;0.9654;1.6892;
593.4000;0.9630;1.6790;
593.7000;0.9654;1.6892;
594.0000;0.9638;1.6841;
594.3000;0.9630;1.6892;
594.6000;0.9654;1.6943;
594.9000;0.9646;1.6816;
595.2000;0.9646;1.6866;
595.5000;0.9638;1.6917;
595.8000;0.9638;1.6917;
596.1000;0.9638;1.6917;
596.4000;0.9630;1.6917;
596.7000;0.9687;1.7069;
597.0000;0.9670;1.6943;
597.3000;0.9613;1.6816;
597.6000;0.9613;1.6841;
597.9000;0.9638;1.6892;
598.2000;0.9646;1.6917;
598.5000;0.9613;1.6892;
598.8000;0.9630;1.6968;
599.1000;0.9605;1.6943;
599.4000;0.9621;1.6917;
599.7000;0.9638;1.6993;
600.0000;0.9630;1.6943;
600.3000;0.9662;1.6816;
600.6000;0.9662;1.6562;
600.9000;0.9662;1.6308;
601.2000;0.9621;1.6182;
601.5000;0.9548;1.5953;
601.8000;0.9565;1.5776;
602.1000;0.9434;1.5243;
602.4000;0.9467;1.5218;
602.7000;0.9402;1.5015;
603.0000;0.9361;1.4761;
603.3000;0.9328;1.4457;
603.6000;0.9288;1.4229;
603.9000;0.9239;1.4178;
604.2000;0.9206;1.4026;
604.5000;0.9174;1.4000;
604.8000;0.9141;1.3975;
605.1000;0.9133;1.3823;
605.4000;0.9076;1.3645;
605.7000;0.9060;1.3595;
606.0000;0.8995;1.3392;
606.3000;0.8978;1.3290;
606.6000;0.8970;1.3138;
606.9000;0.8938;1.3062;
607.2000;0.8913;1.2986;
607.5000;0.8897;1.2859;
607.8000;0.8864;1.2732;
608.1000;0.8775;1.2529;
608.4000;0.8816;1.2555;
608.7000;0.8791;1.2479;
609.0000;0.8783;1.2453;
609.3000;0.8783;1.2504;
609.6000;0.8751;1.2403;
609.9000;0.8718;1.2428;
610.2000;0.8710;1.2377;
610.5000;0.8718;1.2326;
610.8000;0.8661;1.2250;
611.1000;0.8637;1.2225;
611.4000;0.8620;1.2301;
611.7000;0.8620;1.2225;
612.0000;0.8604;1.2276;
612.3000;0.8580;1.2250;
612.6000;0.8563;1.2326;
612.9000;0.8555;1.2377;
613.2000;0.8539;1.2428;
613.5000;0.8531;1.2301;
613.8000;0.8506;1.2276;
614.1000;0.8571;1.2453;
614.4000;0.8490;1.2200;
614.7000;0.8514;1.2326;
615.0000;0.8490;1.2326;
615.3000;0.8474;1.2276;
615.6000;0.8490;1.2301;
615.9000;0.8441;1.2200;
616.2000;0.8433;1.2124;
616.5000;0.8417;1.2124;
616.8000;0.8433;1.2174;
617.1000;0.8409;1.2200;
617.4000;0.8384;1.2149;
617.7000;0.8360;1.2098;
618.0000;0.8360;1.2073;
618.3000;0.8360;1.1997;
618.6000;0.8352;1.1895;
618.9000;0.8344;1.1819;
619.2000;0.8352;1.1819;
619.5000;0.8352;1.1718;
619.8000;0.8344;1.1667;
620.1000;0.8319;1.1566;
620.4000;0.8311;1.1591;
620.7000;0.8278;1.1540;
621.0000;0.8270;1.1591;
621.3000;0.8270;1.1642;
621.6000;0.8254;1.1642;
621.9000;0.8246;1.1692;
622.2000;0.8278;1.1794;
622.5000;0.8254;1.1692;
622.8000;0.8254;1.1591;
623.1000;0.8181;1.1363;
623.4000;0.8238;1.1591;
623.7000;0.8173;1.1489;
624.0000;0.8238;1.1616;
624.3000;0.8230;1.1616;
624.6000;0.8213;1.1642;
624.9000;0.8156;1.1566;
625.2000;0.8164;1.1489;
625.5000;0.8221;1.1566;
625.8000;0.8197;1.1591;
626.1000;0.8197;1.1591;
626.4000;0.8164;1.1464;
626.7000;0.8181;1.1540;
627.0000;0.8140;1.1566;
627.3000;0.8148;1.1667;
627.6000;0.8213;1.1845;
627.9000;0.8156;1.1768;
628.2000;0.8107;1.1692;
628.5000;0.8164;1.1819;
628.8000;0.8148;1.1819;
629.1000;0.8148;1.1794;
629.4000;0.8148;1.1743;
629.7000;0.8173;1.1819;
630.0000;0.8099;1.1718;
630.3000;0.8099;1.1692;
630.6000;0.8107;1.1718;
630.9000;0.8116;1.1667;
631.2000;0.8091;1.1616;
631.5000;0.8099;1.1667;
631.8000;0.8091;1.1566;
632.1000;0.8059;1.1616;
632.4000;0.8091;1.1718;
632.7000;0.8075;1.1718;
633.0000;0.8091;1.1794;
633.3000;0.8091;1.1819;
633.6000;0.8099;1.1768;
633.9000;0.8083;1.1743;
634.2000;0.8059;1.1768;
634.5000;0.8075;1.1794;
634.8000;0.8075;1.1819;
635.1000;0.8042;1.1667;
635.4000;0.8075;1.1692;
635.7000;0.8034;1.1642;
636.0000;0.8067;1.1718;
636.3000;0.8050;1.1768;
636.6000;0.8050;1.1743;
636.9000;0.8050;1.1768;
637.2000;0.8026;1.1642;
637.5000;0.8034;1.1540;
637.8000;0.8026;1.1464;
638.1000;0.8018;1.1515;
638.4000;0.8018;1.1566;
638.7000;0.8091;1.1692;
639.0000;0.8034;1.1566;
639.3000;0.8010;1.1540;
639.6000;0.8010;1.1515;
639.9000;0.7937;1.1337;
640.2000;0.8026;1.1667;
640.5000;0.8091;1.1845;
640.8000;0.8010;1.1515;
641.1000;0.8042;1.1667;
641.4000;0.7993;1.1439;
641.7000;0.8059;1.1667;
642.0000;0.7993;1.1515;
642.3000;0.7993;1.1667;
642.6000;0.7977;1.1616;
642.9000;0.7969;1.1540;
643.2000;0.7961;1.1591;
643.5000;0.7961;1.1515;
643.8000;0.7993;1.1464;
644.1000;0.7928;1.1363;
644.4000;0.7945;1.1388;
644.7000;0.7969;1.1464;
645.0000;0.7977;1.1515;
645.3000;0.7977;1.1566;
645.6000;0.7977;1.1566;
645.9000;0.7969;1.1591;
646.2000;0.7945;1.1591;
646.5000;0.7969;1.1667;
646.8000;0.7961;1.1718;
647.1000;0.7937;1.1692;
647.4000;0.8018;1.1946;
647.7000;0.7961;1.1743;
648.0000;0.7937;1.1642;
648.3000;0.7888;1.1540;
648.6000;0.7953;1.1692;
648.9000;0.7937;1.1591;
649.2000;0.7985;1.1692;
649.5000;0.7945;1.1540;
649.8000;0.7945;1.1515;
650.1000;0.7945;1.1464;
650.4000;0.7920;1.1439;
650.7000;0.7904;1.1515;
651.0000;0.7928;1.1591;
651.3000;0.7953;1.1692;
651.6000;0.7928;1.1591;
651.9000;0.7912;1.1489;
652.2000;0.7912;1.1489;
652.5000;0.7937;1.1363;
652.8000;0.7928;1.1236;
653.1000;0.7904;1.1134;
653.4000;0.7904;1.1210;
653.7000;0.7920;1.1312;
654.0000;0.7928;1.1439;
654.3000;0.7912;1.1439;
654.6000;0.7904;1.1515;
654.9000;0.7920;1.1489;
655.2000;0.7896;1.1439;
655.5000;0.7831;1.1261;
655.8000;0.7904;1.1439;
656.1000;0.7912;1.1616;
656.4000;0.7888;1.1616;
656.7000;0.7896;1.1642;
657.0000;0.7888;1.1642;
657.3000;0.7880;1.1667;
657.6000;0.7880;1.1768;
657.9000;0.7888;1.1768;
658.2000;0.7871;1.1642;
658.5000;0.7847;1.1540;
658.8000;0.7904;1.1616;
659.1000;0.7880;1.1566;
659.4000;0.7831;1.1464;
659.7000;0.7871;1.1616;
660.0000;0.7928;1.1743;
660.3000;0.7871;1.1642;
660.6000;0.7969;1.1870;
660.9000;0.7863;1.1616;
661.2000;0.7855;1.1566;
661.5000;0.7863;1.1540;
661.8000;0.7912;1.1642;
662.1000;0.7847;1.1439;
662.4000;0.7855;1.1413;
662.7000;0.7782;1.1236;
663.0000;0.7863;1.1413;
663.3000;0.7928;1.1591;
663.6000;0.7896;1.1515;
663.9000;0.7863;1.1439;
664.2000;0.7855;1.1388;
664.5000;0.7855;1.1337;
664.8000;0.7863;1.1337;
665.1000;0.7774;1.1134;
665.4000;0.7937;1.1642;
665.7000;0.7896;1.1591;
666.0000;0.7831;1.1439;
666.3000;0.7855;1.1540;
666.6000;0.7855;1.1515;
666.9000;0.7896;1.1718;
667.2000;0.7814;1.1642;
667.5000;0.7831;1.1692;
667.8000;0.7831;1.1768;
668.1000;0.7814;1.1768;
668.4000;0.7839;1.1768;
668.7000;0.7839;1.1642;
669.0000;0.7855;1.1667;
669.3000;0.7839;1.1794;
669.6000;0.7831;1.1794;
669.9000;0.7831;1.1743;
670.2000;0.7814;1.1743;
670.5000;0.7823;1.1768;
670.8000;0.7774;1.1642;
671.1000;0.7806;1.1642;
671.4000;0.7806;1.1616;
671.7000;0.7806;1.1591;
672.0000;0.7839;1.1743;
672.3000;0.7880;1.1845;
672.6000;0.7904;1.1895;
672.9000;0.7823;1.1819;
673.2000;0.7806;1.1870;
673.5000;0.7798;1.1794;
673.8000;0.7806;1.1768;
674.1000;0.7798;1.1768;
674.4000;0.7806;1.1845;
674.7000;0.7814;1.1870;
675.0000;0.7790;1.1718;
675.3000;0.7782;1.1667;
675.6000;0.7823;1.1743;
675.9000;0.7782;1.1718;
676.2000;0.7774;1.1718;
676.5000;0.7806;1.1845;
676.8000;0.7782;1.1743;
677.1000;0.7782;1.1642;
677.4000;0.7798;1.1642;
677.7000;0.7782;1.1566;
678.0000;0.7790;1.1616;
678.3000;0.7790;1.1616;
678.6000;0.7798;1.1692;
678.9000;0.7774;1.1616;
679.2000;0.7798;1.1667;
679.5000;0.7790;1.1667;
679.8000;0.7790;1.1591;
680.1000;0.7790;1.1667;
680.4000;0.7790;1.1642;
680.7000;0.7782;1.1591;
681.0000;0.7823;1.1642;
681.3000;0.7790;1.1489;
681.6000;0.7733;1.1413;
681.9000;0.7798;1.1667;
682.2000;0.7782;1.1743;
682.5000;0.7766;1.1616;
682.8000;0.7766;1.1591;
683.1000;0.7782;1.1692;
683.4000;0.7757;1.1591;
683.7000;0.7766;1.1616;
684.0000;0.7790;1.1845;
684.3000;0.7782;1.1845;
684.6000;0.7766;1.1718;
684.9000;0.7798;1.1642;
685.2000;0.7766;1.1464;
685.5000;0.7774;1.1489;
685.8000;0.7766;1.1489;
686.1000;0.7757;1.1439;
686.4000;0.7757;1.1515;
686.7000;0.7766;1.1591;
687.0000;0.7757;1.1591;
687.3000;0.7798;1.1667;
687.6000;0.7757;1.1616;
687.9000;0.7757;1.1642;
688.2000;0.7782;1.1642;
688.5000;0.7733;1.1591;
688.8000;0.7709;1.1439;
689.1000;0.7757;1.1540;
689.4000;0.7766;1.1591;
689.7000;0.7774;1.1616;
690.0000;0.7733;1.1591;
690.3000;0.7774;1.1718;
690.6000;0.7733;1.1642;
690.9000;0.7749;1.1591;
691.2000;0.7749;1.1540;
691.5000;0.7733;1.1566;
691.8000;0.7733;1.1591;
692.1000;0.7766;1.1591;
692.4000;0.7741;1.1439;
692.7000;0.7741;1.1413;
693.0000;0.7741;1.1439;
693.3000;0.7757;1.1489;
693.6000;0.7725;1.1591;
693.9000;0.7733;1.1540;
694.2000;0.7733;1.1667;
694.5000;0.7749;1.1819;
694.8000;0.7741;1.1768;
695.1000;0.7757;1.1819;
695.4000;0.7725;1.1768;
695.7000;0.7757;1.1768;
696.0000;0.7717;1.1743;
696.3000;0.7749;1.1921;
696.6000;0.7676;1.1768;
696.9000;0.7733;1.1870;
697.2000;0.7725;1.1794;
697.5000;0.7741;1.1819;
697.8000;0.7741;1.1845;
698.1000;0.7717;1.1794;
698.4000;0.7741;1.1845;
698.7000;0.7733;1.1794;
699.0000;0.7725;1.1768;
699.3000;0.7733;1.1845;
699.6000;0.7757;1.1845;
699.9000;0.7741;1.1718;
700.2000;0.7823;1.1768;
700.5000;0.7733;1.1515;
700.8000;0.7757;1.1464;
701.1000;0.7741;1.1439;
701.4000;0.7725;1.1413;
701.7000;0.7709;1.1439;
702.0000;0.7757;1.1566;
702.3000;0.7749;1.1489;
702.6000;0.7717;1.1388;
702.9000;0.7709;1.1489;
703.2000;0.7700;1.1413;
703.5000;0.7709;1.1489;
703.8000;0.7692;1.1489;
704.1000;0.7700;1.1515;
704.4000;0.7684;1.1464;
704.7000;0.7692;1.1566;
705.0000;0.7709;1.1642;
705.3000;0.7692;1.1616;
705.6000;0.7717;1.1642;
705.9000;0.7709;1.1642;
706.2000;0.7676;1.1616;
706.5000;0.7700;1.1692;
706.8000;0.7684;1.1642;
707.1000;0.7814;1.2022;
707.4000;0.7692;1.1616;
707.7000;0.7676;1.1540;
708.0000;0.7733;1.1642;
708.3000;0.7766;1.1743;
708.6000;0.7692;1.1515;
708.9000;0.7700;1.1489;
709.2000;0.7692;1.1464;
709.5000;0.7692;1.1388;
709.8000;0.7814;1.1819;
710.1000;0.7717;1.1540;
710.4000;0.7676;1.1312;
710.7000;0.7700;1.1363;
711.0000;0.7700;1.1439;
711.3000;0.7700;1.1464;
711.6000;0.7692;1.1413;
711.9000;0.7676;1.1363;
712.2000;0.7684;1.1363;
712.5000;0.7709;1.1489;
712.8000;0.7692;1.1489;
713.1000;0.7676;1.1515;
713.4000;0.7692;1.1667;
713.7000;0.7709;1.1718;
714.0000;0.7676;1.1616;
714.3000;0.7684;1.1642;
714.6000;0.7700;1.1718;
714.9000;0.7700;1.1718;
715.2000;0.7700;1.1768;
715.5000;0.7676;1.1845;
715.8000;0.7692;1.1845;
716.1000;0.7692;1.1895;
716.4000;0.7684;1.1895;
716.7000;0.7668;1.1794;
717.0000;0.7627;1.1616;
717.3000;0.7692;1.1718;
717.6000;0.7676;1.1642;
717.9000;0.7668;1.1616;
718.2000;0.7676;1.1616;
718.5000;0.7700;1.1743;
718.8000;0.7684;1.1743;
719.1000;0.7709;1.1921;
719.4000;0.7684;1.1895;
719.7000;0.7709;1.1997;
720.0000;0.7684;1.1946;
720.3000;0.7684;1.1921;
720.6000;0.7660;1.1819;
720.9000;0.7700;1.1819;
721.2000;0.7684;1.1819;
721.5000;0.7652;1.1718;
721.8000;0.7668;1.1743;
722.1000;0.7652;1.1692;
722.4000;0.7676;1.1743;
722.7000;0.7660;1.1718;
723.0000;0.7668;1.1743;
723.3000;0.7676;1.1768;
723.6000;0.7660;1.1667;
723.9000;0.7684;1.1718;
724.2000;0.7668;1.1692;
724.5000;0.7652;1.1540;
724.8000;0.7668;1.1566;
725.1000;0.7660;1.1515;
725.4000;0.7660;1.1566;
725.7000;0.7652;1.1591;
726.0000;0.7643;1.1540;
726.3000;0.7676;1.1540;
726.6000;0.7660;1.1591;
726.9000;0.7668;1.1616;
727.2000;0.7652;1.1515;
727.5000;0.7652;1.1566;
727.8000;0.7652;1.1566;
728.1000;0.7635;1.1642;
728.4000;0.7643;1.1692;
728.7000;0.7668;1.1819;
729.0000;0.7643;1.1743;
729.3000;0.7643;1.1566;
729.6000;0.7652;1.1566;
729.9000;0.7709;1.1743;
730.2000;0.7643;1.1616;
730.5000;0.7652;1.1616;
730.8000;0.7652;1.1566;
731.1000;0.7668;1.1616;
731.4000;0.7652;1.1591;
731.7000;0.7660;1.1616;
732.0000;0.7717;1.1794;
732.3000;0.7652;1.1667;
732.6000;0.7652;1.1743;
732.9000;0.7652;1.1692;
733.2000;0.7652;1.1566;
733.5000;0.7700;1.1743;
733.8000;0.7635;1.1591;
734.1000;0.7676;1.1692;
734.4000;0.7652;1.1667;
734.7000;0.7635;1.1642;
735.0000;0.7627;1.1489;
735.3000;0.7643;1.1540;
735.6000;0.7627;1.1464;
735.9000;0.7627;1.1489;
736.2000;0.7660;1.1566;
736.5000;0.7627;1.1489;
736.8000;0.7643;1.1540;
737.1000;0.7652;1.1540;
737.4000;0.7652;1.1515;
737.7000;0.7652;1.1515;
738.0000;0.7766;1.1870;
738.3000;0.7627;1.1413;
738.6000;0.7643;1.1489;
738.9000;0.7603;1.1413;
739.2000;0.7660;1.1616;
739.5000;0.7635;1.1616;
739.8000;0.7635;1.1540;
740.1000;0.7643;1.1489;
740.4000;0.7652;1.1464;
740.7000;0.7643;1.1439;
741.0000;0.7611;1.1388;
741.3000;0.7643;1.1540;
741.6000;0.7643;1.1566;
741.9000;0.7603;1.1413;
742.2000;0.7619;1.1515;
742.5000;0.7627;1.1566;
742.8000;0.7643;1.1489;
743.1000;0.7643;1.1363;
743.4000;0.7635;1.1312;
743.7000;0.7643;1.1363;
744.0000;0.7643;1.1413;
744.3000;0.7627;1.1413;
744.6000;0.7619;1.1388;
744.9000;0.7635;1.1363;
745.2000;0.7635;1.1388;
745.5000;0.7635;1.1464;
745.8000;0.7635;1.1515;
746.1000;0.7635;1.1489;
746.4000;0.7652;1.1489;
746.7000;0.7643;1.1566;
747.0000;0.7643;1.1540;
747.3000;0.7627;1.1566;
747.6000;0.7619;1.1667;
747.9000;0.7635;1.1692;
748.2000;0.7627;1.1616;
748.5000;0.7643;1.1667;
748.8000;0.7627;1.1642;
749.1000;0.7627;1.1616;
749.4000;0.7643;1.1642;
749.7000;0.7635;1.1616;
750.0000;0.7619;1.1515;
750.3000;0.7652;1.1667;
750.6000;0.7652;1.1591;
750.9000;0.7643;1.1464;
751.2000;0.7627;1.1489;
751.5000;0.7635;1.1616;
751.8000;0.7635;1.1591;
752.1000;0.7635;1.1616;
752.4000;0.7619;1.1591;
752.7000;0.7538;1.1363;
753.0000;0.7603;1.1566;
753.3000;0.7619;1.1692;
753.6000;0.7611;1.1718;
753.9000;0.7619;1.1692;
754.2000;0.7627;1.1718;
754.5000;0.7635;1.1768;
754.8000;0.7586;1.1591;
755.1000;0.7611;1.1566;
755.4000;0.7627;1.1566;
755.7000;0.7627;1.1616;
756.0000;0.7619;1.1591;
756.3000;0.7521;1.1261;
756.6000;0.7627;1.1591;
756.9000;0.7627;1.1566;
757.2000;0.7684;1.1845;
757.5000;0.7611;1.1667;
757.8000;0.7627;1.1642;
758.1000;0.7643;1.1692;
758.4000;0.7627;1.1743;
758.7000;0.7611;1.1616;
759.0000;0.7684;1.1768;
759.3000;0.7619;1.1591;
759.6000;0.7660;1.1743;
759.9000;0.7619;1.1642;
760.2000;0.7627;1.1743;
760.5000;0.7619;1.1768;
760.8000;0.7603;1.1642;
761.1000;0.7611;1.1566;
761.4000;0.7635;1.1566;
761.7000;0.7627;1.1515;
762.0000;0.7652;1.1591;
762.3000;0.7611;1.1413;
762.6000;0.7619;1.1515;
762.9000;0.7668;1.1642;
763.2000;0.7619;1.1515;
763.5000;0.7603;1.1489;
763.8000;0.7603;1.1566;
764.1000;0.7603;1.1566;
764.4000;0.7611;1.1642;
764.7000;0.7619;1.1692;
765.0000;0.7619;1.1692;
765.3000;0.7611;1.1718;
765.6000;0.7611;1.1743;
765.9000;0.7619;1.1794;
766.2000;0.7611;1.1768;
766.5000;0.7595;1.1845;
766.8000;0.7603;1.1921;
767.1000;0.7603;1.1921;
767.4000;0.7603;1.1845;
767.7000;0.7603;1.1794;
768.0000;0.7619;1.1794;
768.3000;0.7611;1.1819;
768.6000;0.7603;1.1819;
768.9000;0.7611;1.1794;
769.2000;0.7611;1.1819;
769.5000;0.7619;1.1845;
769.8000;0.7619;1.1794;
770.1000;0.7611;1.1642;
770.4000;0.7546;1.1363;
770.7000;0.7619;1.1616;
771.0000;0.7603;1.1566;
771.3000;0.7595;1.1540;
771.6000;0.7619;1.1667;
771.9000;0.7627;1.1718;
772.2000;0.7595;1.1642;
772.5000;0.7611;1.1718;
772.8000;0.7595;1.1692;
773.1000;0.7668;1.1819;
773.4000;0.7619;1.1743;
773.7000;0.7570;1.1540;
774.0000;0.7595;1.1566;
774.3000;0.7595;1.1540;
774.6000;0.7586;1.1540;
774.9000;0.7603;1.1540;
775.2000;0.7570;1.1413;
775.5000;0.7603;1.1489;
775.8000;0.7586;1.1388;
776.1000;0.7603;1.1413;
776.4000;0.7603;1.1413;
776.7000;0.7660;1.1566;
777.0000;0.7595;1.1540;
777.3000;0.7603;1.1692;
777.6000;0.7578;1.1667;
777.9000;0.7619;1.1743;
778.2000;0.7611;1.1743;
778.5000;0.7578;1.1591;
778.8000;0.7586;1.1591;
779.1000;0.7611;1.1718;
779.4000;0.7660;1.1794;
779.7000;0.7611;1.1616;
780.0000;0.7554;1.1413;
780.3000;0.7554;1.1337;
780.6000;0.7595;1.1464;
780.9000;0.7635;1.1540;
781.2000;0.7652;1.1616;
781.5000;0.7586;1.1489;
781.8000;0.7603;1.1489;
782.1000;0.7586;1.1591;
782.4000;0.7603;1.1616;
782.7000;0.7595;1.1591;
783.0000;0.7570;1.1515;
783.3000;0.7603;1.1642;
783.6000;0.7635;1.1819;
783.9000;0.7570;1.1616;
784.2000;0.7578;1.1642;
784.5000;0.7586;1.1718;
784.8000;0.7643;1.1845;
785.1000;0.7578;1.1718;
785.4000;0.7595;1.1870;
785.7000;0.7586;1.1794;
786.0000;0.7611;1.1845;
786.3000;0.7603;1.1845;
786.6000;0.7595;1.1718;
786.9000;0.7595;1.1692;
787.2000;0.7586;1.1642;
787.5000;0.7595;1.1718;
787.8000;0.7578;1.1692;
788.1000;0.7586;1.1642;
788.4000;0.7595;1.1566;
788.7000;0.7603;1.1566;
789.0000;0.7586;1.1566;
789.3000;0.7570;1.1566;
789.6000;0.7611;1.1718;
789.9000;0.7595;1.1743;
790.2000;0.7586;1.1692;
790.5000;0.7595;1.1642;
790.8000;0.7595;1.1642;
791.1000;0.7611;1.1692;
791.4000;0.7570;1.1591;
791.7000;0.7619;1.1743;
792.0000;0.7578;1.1566;
792.3000;0.7570;1.1616;
792.6000;0.7595;1.1566;
792.9000;0.7595;1.1489;
793.2000;0.7578;1.1439;
793.5000;0.7570;1.1388;
793.8000;0.7578;1.1413;
794.1000;0.7652;1.1692;
794.4000;0.7586;1.1439;
794.7000;0.7627;1.1566;
795.0000;0.7586;1.1464;
795.3000;0.7603;1.1515;
795.6000;0.7578;1.1464;
795.9000;0.7554;1.1413;
796.2000;0.7668;1.1768;
796.5000;0.7578;1.1566;
796.8000;0.7603;1.1642;
797.1000;0.7635;1.1718;
797.4000;0.7505;1.1312;
797.7000;0.7595;1.1515;
798.0000;0.7578;1.1566;
798.3000;0.7578;1.1692;
798.6000;0.7538;1.1667;
798.9000;0.7578;1.1743;
799.2000;0.7570;1.1743;
799.5000;0.7570;1.1819;
799.8000;0.7578;1.1997;
800.1000;0.7611;1.2149;
800.4000;0.7586;1.1971;
800.7000;0.7562;1.1845;
801.0000;0.7570;1.1743;
801.3000;0.7578;1.1768;
801.6000;0.7570;1.1718;
801.9000;0.7595;1.1870;
802.2000;0.7578;1.1819;
802.5000;0.7595;1.1743;
802.8000;0.7489;1.1489;
803.1000;0.7562;1.1566;
803.4000;0.7554;1.1515;
803.7000;0.7570;1.1540;
804.0000;0.7586;1.1591;
804.3000;0.7570;1.1591;
804.6000;0.7578;1.1642;
804.9000;0.7554;1.1591;
805.2000;0.7530;1.1540;
805.5000;0.7578;1.1591;
805.8000;0.7603;1.1692;
806.1000;0.7562;1.1642;
806.4000;0.7595;1.1718;
806.7000;0.7562;1.1692;
807.0000;0.7562;1.1768;
807.3000;0.7586;1.1845;
807.6000;0.7603;1.1794;
807.9000;0.7562;1.1718;
808.2000;0.7562;1.1768;
808.5000;0.7570;1.1768;
808.8000;0.7595;1.1768;
809.1000;0.7586;1.1743;
809.4000;0.7578;1.1743;
809.7000;0.7578;1.1794;
810.0000;0.7578;1.1768;
810.3000;0.7570;1.1692;
810.6000;0.7586;1.1718;
810.9000;0.7578;1.1667;
811.2000;0.7578;1.1718;
811.5000;0.7586;1.1743;
811.8000;0.7586;1.1768;
812.1000;0.7562;1.1718;
812.4000;0.7562;1.1794;
812.7000;0.7546;1.1768;
813.0000;0.7554;1.1718;
813.3000;0.7554;1.1743;
813.6000;0.7570;1.1743;
813.9000;0.7554;1.1768;
814.2000;0.7586;1.1794;
814.5000;0.7570;1.1794;
814.8000;0.7578;1.1845;
815.1000;0.7643;1.1946;
815.4000;0.7578;1.1794;
815.7000;0.7578;1.1718;
816.0000;0.7578;1.1667;
816.3000;0.7586;1.1743;
816.6000;0.7578;1.1718;
816.9000;0.7570;1.1667;
817.2000;0.7562;1.1591;
817.5000;0.7570;1.1718;
817.8000;0.7595;1.1845;
818.1000;0.7554;1.1692;
818.4000;0.7570;1.1692;
818.7000;0.7562;1.1718;
819.0000;0.7595;1.1743;
819.3000;0.7578;1.1692;
819.6000;0.7562;1.1743;
819.9000;0.7603;1.1870;
820.2000;0.7570;1.1794;
820.5000;0.7570;1.1794;
820.8000;0.7570;1.1718;
821.1000;0.7456;1.1413;
821.4000;0.7538;1.1642;
821.7000;0.7562;1.1667;
822.0000;0.7538;1.1591;
822.3000;0.7578;1.1667;
822.6000;0.7546;1.1591;
822.9000;0.7570;1.1642;
823.2000;0.7562;1.1591;
823.5000;0.7700;1.1921;
823.8000;0.7562;1.1692;
824.1000;0.7562;1.1692;
824.4000;0.7570;1.1667;
824.7000;0.7562;1.1642;
825.0000;0.7578;1.1692;
825.3000;0.7570;1.1540;
825.6000;0.7586;1.1515;
825.9000;0.7546;1.1413;
826.2000;0.7538;1.1464;
826.5000;0.7562;1.1540;
826.8000;0.7578;1.1515;
827.1000;0.7578;1.1642;
827.4000;0.7570;1.1667;
827.7000;0.7570;1.1692;
828.0000;0.7570;1.1718;
828.3000;0.7521;1.1566;
828.6000;0.7554;1.1718;
828.9000;0.7578;1.1743;
829.2000;0.7578;1.1768;
829.5000;0.7627;1.1845;
829.8000;0.7570;1.1692;
830.1000;0.7546;1.1616;
830.4000;0.7570;1.1667;
830.7000;0.7554;1.1591;
831.0000;0.7530;1.1591;
831.3000;0.7530;1.1642;
831.6000;0.7562;1.1692;
831.9000;0.7562;1.1718;
832.2000;0.7546;1.1616;
832.5000;0.7538;1.1489;
832.8000;0.7554;1.1464;
833.1000;0.7554;1.1464;
833.4000;0.7530;1.1489;
833.7000;0.7546;1.1540;
834.0000;0.7554;1.1616;
834.3000;0.7538;1.1540;
834.6000;0.7562;1.1591;
834.9000;0.7554;1.1591;
835.2000;0.7554;1.1692;
835.5000;0.7570;1.1642;
835.8000;0.7570;1.1566;
836.1000;0.7546;1.1566;
836.4000;0.7570;1.1540;
836.7000;0.7546;1.1566;
837.0000;0.7464;1.1413;
837.3000;0.7530;1.1591;
837.6000;0.7546;1.1642;
837.9000;0.7562;1.1642;
838.2000;0.7586;1.1667;
838.5000;0.7530;1.1413;
838.8000;0.7546;1.1337;
839.1000;0.7546;1.1388;
839.4000;0.7521;1.1312;
839.7000;0.7570;1.1515;
840.0000;0.7489;1.1413;
840.3000;0.7554;1.1718;
840.6000;0.7538;1.1667;
840.9000;0.7586;1.1768;
841.2000;0.7595;1.1768;
841.5000;0.7546;1.1718;
841.8000;0.7562;1.1768;
842.1000;0.7530;1.1667;
842.4000;0.7538;1.1591;
842.7000;0.7554;1.1566;
843.0000;0.7578;1.1566;
843.3000;0.7546;1.1464;
843.6000;0.7562;1.1489;
843.9000;0.7538;1.1489;
844.2000;0.7530;1.1439;
844.5000;0.7562;1.1439;
844.8000;0.7546;1.1388;
845.1000;0.7546;1.1515;
845.4000;0.7562;1.1515;
845.7000;0.7578;1.1489;
846.0000;0.7570;1.1464;
846.3000;0.7562;1.1439;
846.6000;0.7546;1.1464;
846.9000;0.7521;1.1363;
847.2000;0.7554;1.1489;
847.5000;0.7546;1.1439;
847.8000;0.7481;1.1312;
848.1000;0.7554;1.1464;
848.4000;0.7538;1.1337;
848.7000;0.7554;1.1439;
849.0000;0.7521;1.1464;
849.3000;0.7554;1.1591;
849.6000;0.7570;1.1692;
849.9000;0.7562;1.1616;
850.2000;0.7570;1.1591;
850.5000;0.7578;1.1591;
850.8000;0.7562;1.1388;
851.1000;0.7538;1.1337;
851.4000;0.7513;1.1388;
851.7000;0.7530;1.1413;
852.0000;0.7538;1.1566;
852.3000;0.7546;1.1566;
852.6000;0.7521;1.1566;
852.9000;0.7538;1.1566;
853.2000;0.7554;1.1566;
853.5000;0.7554;1.1439;
853.8000;0.7538;1.1413;
854.1000;0.7513;1.1388;
854.4000;0.7554;1.1642;
854.7000;0.7554;1.1692;
855.0000;0.7562;1.1768;
855.3000;0.7538;1.1819;
855.6000;0.7538;1.1819;
855.9000;0.7554;1.1870;
856.2000;0.7546;1.1870;
856.5000;0.7521;1.1895;
856.8000;0.7521;1.1921;
857.1000;0.7530;1.1895;
857.4000;0.7538;1.1921;
857.7000;0.7554;1.1971;
858.0000;0.7660;1.2174;
858.3000;0.7562;1.1845;
858.6000;0.7562;1.1743;
858.9000;0.7538;1.1743;
859.2000;0.7546;1.1642;
859.5000;0.7538;1.1566;
859.8000;0.7554;1.1616;
860.1000;0.7538;1.1591;
860.4000;0.7530;1.1591;
860.7000;0.7554;1.1718;
861.0000;0.7643;1.1971;
861.3000;0.7538;1.1718;
861.6000;0.7530;1.1692;
861.9000;0.7538;1.1718;
862.2000;0.7538;1.1692;
862.5000;0.7546;1.1667;
862.8000;0.7554;1.1692;
863.1000;0.7554;1.1642;
863.4000;0.7546;1.1718;
863.7000;0.7562;1.1870;
864.0000;0.7562;1.1845;
864.3000;0.7521;1.1616;
864.6000;0.7554;1.1718;
864.9000;0.7586;1.1718;
865.2000;0.7546;1.1642;
865.5000;0.7546;1.1743;
865.8000;0.7554;1.1743;
866.1000;0.7603;1.1794;
866.4000;0.7554;1.1591;
866.7000;0.7546;1.1591;
867.0000;0.7530;1.1616;
867.3000;0.7546;1.1616;
867.6000;0.7530;1.1692;
867.9000;0.7538;1.1616;
868.2000;0.7554;1.1692;
868.5000;0.7546;1.1591;
868.8000;0.7546;1.1566;
869.1000;0.7570;1.1692;
869.4000;0.7538;1.1566;
869.7000;0.7473;1.1388;
870.0000;0.7546;1.1515;
870.3000;0.7546;1.1515;
870.6000;0.7546;1.1540;
870.9000;0.7676;1.1870;
871.2000;0.7554;1.1667;
871.5000;0.7424;1.1312;
871.8000;0.7538;1.1667;
872.1000;0.7538;1.1768;
872.4000;0.7521;1.1743;
872.7000;0.7530;1.1819;
873.0000;0.7530;1.1768;
873.3000;0.7538;1.1768;
873.6000;0.7562;1.1921;
873.9000;0.7538;1.1743;
874.2000;0.7521;1.1692;
874.5000;0.7530;1.1642;
874.8000;0.7513;1.1642;
875.1000;0.7546;1.1718;
875.4000;0.7554;1.1692;
875.7000;0.7546;1.1667;
876.0000;0.7554;1.1616;
876.3000;0.7538;1.1616;
876.6000;0.7521;1.1489;
876.9000;0.7530;1.1464;
877.2000;0.7595;1.1743;
877.5000;0.7513;1.1464;
877.8000;0.7570;1.1692;
878.1000;0.7530;1.1540;
878.4000;0.7546;1.1566;
878.7000;0.7538;1.1642;
879.0000;0.7521;1.1515;
879.3000;0.7562;1.1591;
879.6000;0.7538;1.1489;
879.9000;0.7530;1.1591;
880.2000;0.7554;1.1566;
880.5000;0.7546;1.1566;
880.8000;0.7538;1.1540;
881.1000;0.7530;1.1591;
881.4000;0.7554;1.1667;
881.7000;0.7538;1.1642;
882.0000;0.7538;1.1616;
882.3000;0.7554;1.1718;
882.6000;0.7546;1.1743;
882.9000;0.7546;1.1692;
883.2000;0.7521;1.1642;
883.5000;0.7538;1.1642;
883.8000;0.7554;1.1718;
884.1000;0.7554;1.1692;
884.4000;0.7538;1.1667;
884.7000;0.7505;1.1591;
885.0000;0.7546;1.1768;
885.3000;0.7546;1.1819;
885.6000;0.7521;1.1845;
885.9000;0.7538;1.1870;
886.2000;0.7538;1.1895;
886.5000;0.7546;1.1845;
886.8000;0.7578;1.1692;
887.1000;0.7530;1.1591;
887.4000;0.7530;1.1591;
887.7000;0.7562;1.1616;
888.0000;0.7538;1.1591;
888.3000;0.7530;1.1692;
888.6000;0.7554;1.1743;
888.9000;0.7635;1.2022;
889.2000;0.7603;1.1794;
889.5000;0.7538;1.1768;
889.8000;0.7521;1.1768;
890.1000;0.7562;1.1794;
890.4000;0.7619;1.1895;
890.7000;0.7586;1.1768;
891.0000;0.7530;1.1515;
891.3000;0.7554;1.1642;
891.6000;0.7554;1.1692;
891.9000;0.7530;1.1566;
892.2000;0.7521;1.1489;
892.5000;0.7546;1.1642;
892.8000;0.7546;1.1566;
893.1000;0.7554;1.1515;
893.4000;0.7554;1.1515;
893.7000;0.7554;1.1616;
894.0000;0.7530;1.1667;
894.3000;0.7611;1.1819;
894.6000;0.7538;1.1692;
894.9000;0.7538;1.1692;
895.2000;0.7570;1.1768;
895.5000;0.7595;1.1845;
895.8000;0.7538;1.1642;
896.1000;0.7538;1.1616;
896.4000;0.7538;1.1667;
896.7000;0.7554;1.1692;
897.0000;0.7562;1.1642;
897.3000;0.7546;1.1616;
897.6000;0.7505;1.1591;
897.9000;0.7562;1.1743;
898.2000;0.7530;1.1743;
898.5000;0.7513;1.1718;
898.8000;0.7521;1.1718;
899.1000;0.7530;1.1743;
899.4000;0.7554;1.1768;
899.7000;0.7538;1.1768;
900.0000;0.7546;1.1718;
900.3000;0.7546;1.1692;
900.6000;0.7530;1.1692;
900.9000;0.7530;1.1616;
901.2000;0.7513;1.1642;
901.5000;0.7546;1.1667;
901.8000;0.7464;1.1489;
902.1000;0.7538;1.1667;
902.4000;0.7521;1.1515;
902.7000;0.7530;1.1515;
903.0000;0.7530;1.1540;
903.3000;0.7538;1.1591;
903.6000;0.7521;1.1591;
903.9000;0.7521;1.1566;
904.2000;0.7530;1.1591;
904.5000;0.7505;1.1616;
904.8000;0.7546;1.1667;
905.1000;0.7513;1.1616;
905.4000;0.7546;1.1718;
905.7000;0.7530;1.1667;
906.0000;0.7538;1.1718;
906.3000;0.7538;1.1718;
906.6000;0.7562;1.1768;
906.9000;0.7554;1.1768;
907.2000;0.7538;1.1692;
907.5000;0.7530;1.1794;
907.8000;0.7521;1.1743;
908.1000;0.7530;1.1667;
908.4000;0.7530;1.1642;
908.7000;0.7530;1.1642;
909.0000;0.7530;1.1743;
909.3000;0.7554;1.1819;
909.6000;0.7538;1.1743;
909.9000;0.7546;1.1845;
910.2000;0.7530;1.1895;
910.5000;0.7538;1.1946;
910.8000;0.7530;1.1921;
911.1000;0.7464;1.1743;
911.4000;0.7570;1.1819;
911.7000;0.7546;1.1692;
912.0000;0.7521;1.1616;
912.3000;0.7505;1.1667;
912.6000;0.7521;1.1743;
912.9000;0.7538;1.1845;
913.2000;0.7554;1.1794;
913.5000;0.7530;1.1642;
913.8000;0.7489;1.1515;
914.1000;0.7554;1.1692;
914.4000;0.7538;1.1566;
914.7000;0.7586;1.1743;
915.0000;0.7546;1.1642;
915.3000;0.7578;1.1768;
915.6000;0.7538;1.1642;
915.9000;0.7562;1.1667;
916.2000;0.7538;1.1667;
916.5000;0.7530;1.1667;
916.8000;0.7530;1.1566;
917.1000;0.7513;1.1566;
917.4000;0.7530;1.1540;
917.7000;0.7538;1.1566;
918.0000;0.7521;1.1667;
918.3000;0.7562;1.1768;
918.6000;0.7521;1.1616;
918.9000;0.7562;1.1692;
919.2000;0.7513;1.1616;
919.5000;0.7473;1.1566;
919.8000;0.7611;1.1845;
920.1000;0.7521;1.1566;
920.4000;0.7521;1.1591;
920.7000;0.7538;1.1591;
921.0000;0.7530;1.1566;
921.3000;0.7456;1.1540;
921.6000;0.7530;1.1743;
921.9000;0.7513;1.1642;
922.2000;0.7513;1.1642;
922.5000;0.7546;1.1692;
922.8000;0.7530;1.1642;
923.1000;0.7530;1.1642;
923.4000;0.7546;1.1743;
923.7000;0.7530;1.1667;
924.0000;0.7521;1.1692;
924.3000;0.7530;1.1692;
924.6000;0.7530;1.1667;
924.9000;0.7530;1.1743;
925.2000;0.7521;1.1718;
925.5000;0.7538;1.1743;
925.8000;0.7530;1.1743;
926.1000;0.7530;1.1845;
926.4000;0.7530;1.1845;
926.7000;0.7546;1.1794;
927.0000;0.7546;1.1794;
927.3000;0.7538;1.1794;
927.6000;0.7530;1.1718;
927.9000;0.7489;1.1515;
928.2000;0.7538;1.1667;
928.5000;0.7538;1.1692;
928.8000;0.7530;1.1692;
929.1000;0.7521;1.1667;
929.4000;0.7530;1.1718;
929.7000;0.7530;1.1667;
930.0000;0.7538;1.1692;
930.3000;0.7505;1.1642;
930.6000;0.7538;1.1768;
930.9000;0.7554;1.1718;
931.2000;0.7538;1.1692;
931.5000;0.7521;1.1743;
931.8000;0.7538;1.1794;
932.1000;0.7530;1.1819;
932.4000;0.7554;1.1870;
932.7000;0.7538;1.1794;
933.0000;0.7521;1.1768;
933.3000;0.7530;1.1845;
933.6000;0.7554;1.1794;
933.9000;0.7538;1.1819;
934.2000;0.7521;1.1743;
934.5000;0.7538;1.1845;
934.8000;0.7521;1.1718;
935.1000;0.7497;1.1667;
935.4000;0.7505;1.1591;
935.7000;0.7554;1.1642;
936.0000;0.7538;1.1540;
936.3000;0.7505;1.1540;
936.6000;0.7538;1.1667;
936.9000;0.7546;1.1667;
937.2000;0.7570;1.1743;
937.5000;0.7521;1.1616;
937.8000;0.7464;1.1489;
938.1000;0.7538;1.1667;
938.4000;0.7554;1.1642;
938.7000;0.7530;1.1540;
939.0000;0.7521;1.1489;
939.3000;0.7538;1.1515;
939.6000;0.7521;1.1616;
939.9000;0.7489;1.1489;
940.2000;0.7513;1.1616;
940.5000;0.7497;1.1566;
940.8000;0.7521;1.1743;
941.1000;0.7546;1.1768;
941.4000;0.7521;1.1743;
941.7000;0.7530;1.1819;
942.0000;0.7578;1.1971;
942.3000;0.7521;1.1845;
942.6000;0.7513;1.1819;
942.9000;0.7505;1.1743;
943.2000;0.7546;1.1870;
943.5000;0.7530;1.1819;
943.8000;0.7530;1.1794;
944.1000;0.7538;1.1743;
944.4000;0.7521;1.1667;
944.7000;0.7546;1.1743;
945.0000;0.7546;1.1794;
945.3000;0.7546;1.1743;
945.6000;0.7521;1.1794;
945.9000;0.7538;1.1768;
946.2000;0.7538;1.1718;
946.5000;0.7538;1.1718;
946.8000;0.7546;1.1591;
947.1000;0.7554;1.1642;
947.4000;0.7530;1.1718;
947.7000;0.7530;1.1718;
948.0000;0.7530;1.1768;
948.3000;0.7538;1.1718;
948.6000;0.7530;1.1768;
948.9000;0.7538;1.1819;
949.2000;0.7530;1.1743;
949.5000;0.7513;1.1667;
949.8000;0.7521;1.1642;
950.1000;0.7546;1.1667;
950.4000;0.7521;1.1692;
950.7000;0.7513;1.1642;
951.0000;0.7521;1.1642;
951.3000;0.7554;1.1743;
951.6000;0.7530;1.1667;
951.9000;0.7530;1.1718;
952.2000;0.7530;1.1718;
952.5000;0.7521;1.1692;
952.8000;0.7513;1.1692;
953.1000;0.7546;1.1743;
953.4000;0.7513;1.1591;
953.7000;0.7530;1.1616;
954.0000;0.7554;1.1642;
954.3000;0.7521;1.1743;
954.6000;0.7530;1.1895;
954.9000;0.7530;1.1971;
955.2000;0.7440;1.1667;
955.5000;0.7505;1.1794;
955.8000;0.7538;1.1946;
956.1000;0.7538;1.1921;
956.4000;0.7513;1.1870;
956.7000;0.7530;1.1895;
957.0000;0.7562;1.1895;
957.3000;0.7530;1.1870;
957.6000;0.7513;1.1768;
957.9000;0.7505;1.1819;
958.2000;0.7489;1.1819;
958.5000;0.7521;1.1921;
958.8000;0.7530;1.1895;
959.1000;0.7464;1.1845;
959.4000;0.7530;1.2022;
959.7000;0.7521;1.2022;
960.0000;0.7513;1.1946;
960.3000;0.7513;1.1946;
960.6000;0.7505;1.1845;
960.9000;0.7538;1.1794;
961.2000;0.7521;1.1692;
961.5000;0.7538;1.1794;
961.8000;0.7497;1.1845;
962.1000;0.7513;1.1921;
962.4000;0.7521;1.1997;
962.7000;0.7530;1.2022;
963.0000;0.7530;1.2022;
963.3000;0.7538;1.2073;
963.6000;0.7505;1.2098;
963.9000;0.7481;1.1971;
964.2000;0.7521;1.2124;
964.5000;0.7546;1.2149;
964.8000;0.7538;1.2149;
965.1000;0.7546;1.2200;
965.4000;0.7530;1.2124;
965.7000;0.7530;1.2047;
966.0000;0.7497;1.1946;
966.3000;0.7586;1.2098;
966.6000;0.7562;1.1946;
966.9000;0.7538;1.1845;
967.2000;0.7530;1.1895;
967.5000;0.7505;1.1870;
967.8000;0.7554;1.1895;
968.1000;0.7538;1.1870;
968.4000;0.7505;1.1819;
968.7000;0.7513;1.1870;
969.0000;0.7521;1.1870;
969.3000;0.7473;1.1692;
969.6000;0.7562;1.1921;
969.9000;0.7530;1.1971;
970.2000;0.7538;1.1870;
970.5000;0.7521;1.1794;
970.8000;0.7432;1.1540;
971.1000;0.7513;1.1743;
971.4000;0.7546;1.1845;
971.7000;0.7627;1.2047;
972.0000;0.7562;1.1946;
972.3000;0.7497;1.1895;
972.6000;0.7530;1.1895;
972.9000;0.7521;1.1921;
973.2000;0.7513;1.1921;
973.5000;0.7530;1.1870;
973.8000;0.7546;1.1921;
974.1000;0.7489;1.1870;
974.4000;0.7513;1.1997;
974.7000;0.7530;1.2022;
975.0000;0.7538;1.1921;
975.3000;0.7562;1.1971;
975.6000;0.7530;1.1870;
975.9000;0.7521;1.1743;
976.2000;0.7521;1.1718;
976.5000;0.7497;1.1642;
976.8000;0.7538;1.1794;
977.1000;0.7481;1.1616;
977.4000;0.7546;1.1743;
977.7000;0.7521;1.1692;
978.0000;0.7513;1.1768;
978.3000;0.7554;1.1895;
978.6000;0.7570;1.1946;
978.9000;0.7530;1.1819;
979.2000;0.7521;1.1870;
979.5000;0.7530;1.1819;
979.8000;0.7521;1.1768;
980.1000;0.7530;1.1768;
980.4000;0.7546;1.1794;
980.7000;0.7521;1.1667;
981.0000;0.7521;1.1718;
981.3000;0.7521;1.1870;
981.6000;0.7505;1.1819;
981.9000;0.7513;1.1768;
982.2000;0.7530;1.1845;
982.5000;0.7530;1.1819;
982.8000;0.7554;1.1895;
983.1000;0.7530;1.1819;
983.4000;0.7530;1.1870;
983.7000;0.7497;1.1794;
984.0000;0.7521;1.1895;
984.3000;0.7562;1.1997;
984.6000;0.7521;1.1870;
984.9000;0.7521;1.1768;
985.2000;0.7530;1.1794;
985.5000;0.7473;1.1667;
985.8000;0.7521;1.1870;
986.1000;0.7530;1.1794;
986.4000;0.7521;1.1819;
986.7000;0.7554;1.1870;
987.0000;0.7513;1.1768;
987.3000;0.7570;1.1870;
987.6000;0.7538;1.1768;
987.9000;0.7538;1.1895;
988.2000;0.7627;1.2225;
988.5000;0.7505;1.1895;
988.8000;0.7505;1.1971;
989.1000;0.7546;1.1997;
989.4000;0.7546;1.2022;
989.7000;0.7554;1.1921;
990.0000;0.7481;1.1667;
990.3000;0.7578;1.1946;
990.6000;0.7554;1.1794;
990.9000;0.7546;1.1870;
991.2000;0.7530;1.1921;
991.5000;0.7530;1.1870;
991.8000;0.7538;1.1895;
992.1000;0.7530;1.1794;
992.4000;0.7521;1.1768;
992.7000;0.7546;1.1794;
993.0000;0.7505;1.1667;
993.3000;0.7513;1.1794;
993.6000;0.7497;1.1718;
993.9000;0.7530;1.1768;
994.2000;0.7505;1.1591;
994.5000;0.7554;1.1692;
994.8000;0.7497;1.1743;
995.1000;0.7530;1.1895;
995.4000;0.7554;1.1870;
995.7000;0.7611;1.1895;
996.0000;0.7521;1.1743;
996.3000;0.7505;1.1718;
996.6000;0.7513;1.1794;
996.9000;0.7538;1.1997;
997.2000;0.7521;1.1946;
997.5000;0.7513;1.1895;
997.8000;0.7546;1.1971;
998.1000;0.7538;1.1921;
998.4000;0.7521;1.1921;
998.7000;0.7538;1.1921;
999.0000;0.7521;1.1870;
999.3000;0.7538;1.1921;
999.6000;0.7513;1.1819;
999.9000;0.7521;1.1895;
1000.2000;0.7530;1.1845;
1000.5000;0.7505;1.1768;
1000.8000;0.7530;1.1895;
1001.1000;0.7432;1.1616;
1001.4000;0.7521;1.1946;
1001.7000;0.7554;1.2098;
1002.0000;0.7530;1.1997;
1002.3000;0.7521;1.2047;
1002.6000;0.7538;1.1997;
1002.9000;0.7513;1.1997;
1003.2000;0.7562;1.2098;
1003.5000;0.7530;1.2022;
1003.8000;0.7538;1.1971;
1004.1000;0.7521;1.1946;
1004.4000;0.7538;1.1946;
1004.7000;0.7538;1.1946;
1005.0000;0.7505;1.1768;
1005.3000;0.7538;1.1870;
1005.6000;0.7530;1.1946;
1005.9000;0.7538;1.1946;
1006.2000;0.7416;1.1616;
1006.5000;0.7521;1.1768;
1006.8000;0.7497;1.1743;
1007.1000;0.7497;1.1718;
1007.4000;0.7538;1.1895;
1007.7000;0.7407;1.1566;
1008.0000;0.7538;1.1870;
1008.3000;0.7538;1.1794;
1008.6000;0.7513;1.1819;
1008.9000;0.7521;1.1845;
1009.2000;0.7521;1.1946;
1009.5000;0.7562;1.2047;
1009.8000;0.7562;1.1971;
1010.1000;0.7481;1.1819;
1010.4000;0.7440;1.1566;
1010.7000;0.7546;1.1794;
1011.0000;0.7538;1.1819;
1011.3000;0.7652;1.2047;
1011.6000;0.7530;1.1743;
1011.9000;0.7538;1.1768;
1012.2000;0.7530;1.1794;
1012.5000;0.7562;1.1895;
1012.8000;0.7521;1.1870;
1013.1000;0.7538;1.1971;
1013.4000;0.7546;1.2022;
1013.7000;0.7530;1.2073;
1014.0000;0.7530;1.2022;
1014.3000;0.7497;1.1794;
1014.6000;0.7554;1.1845;
1014.9000;0.7530;1.1794;
1015.2000;0.7513;1.1692;
1015.5000;0.7530;1.1718;
1015.8000;0.7538;1.1743;
1016.1000;0.7530;1.1743;
1016.4000;0.7521;1.1819;
1016.7000;0.7530;1.1718;
1017.0000;0.7538;1.1819;
1017.3000;0.7546;1.1819;
1017.6000;0.7538;1.1819;
1017.9000;0.7513;1.1718;
1018.2000;0.7513;1.1692;
1018.5000;0.7554;1.1794;
1018.8000;0.7513;1.1692;
1019.1000;0.7530;1.1692;
1019.4000;0.7521;1.1667;
1019.7000;0.7554;1.1819;
1020.0000;0.7521;1.1819;
1020.3000;0.7513;1.1642;
1020.6000;0.7554;1.1743;
1020.9000;0.7538;1.1718;
1021.2000;0.7530;1.1718;
1021.5000;0.7546;1.1768;
1021.8000;0.7513;1.1667;
1022.1000;0.7530;1.1692;
1022.4000;0.7562;1.1921;
1022.7000;0.7554;1.1997;
1023.0000;0.7538;1.1921;
1023.3000;0.7546;1.1971;
1023.6000;0.7538;1.1946;
1023.9000;0.7530;1.1870;
1024.2000;0.7521;1.1768;
1024.5000;0.7513;1.1667;
1024.8000;0.7530;1.1667;
1025.1000;0.7660;1.2124;
1025.4000;0.7538;1.1768;
1025.7000;0.7521;1.1692;
1026.0000;0.7554;1.1819;
1026.3000;0.7627;1.2073;
1026.6000;0.7570;1.1921;
1026.9000;0.7546;1.1895;
1027.2000;0.7611;1.2098;
1027.5000;0.7513;1.1870;
1027.8000;0.7530;1.1845;
1028.1000;0.7546;1.1845;
1028.4000;0.7456;1.1642;
1028.7000;0.7481;1.1743;
1029.0000;0.7513;1.1870;
1029.3000;0.7521;1.1921;
1029.6000;0.7578;1.2047;
1029.9000;0.7554;1.1997;
1030.2000;0.7538;1.1997;
1030.5000;0.7489;1.1921;
1030.8000;0.7562;1.1946;
1031.1000;0.7513;1.1845;
1031.4000;0.7513;1.1845;
1031.7000;0.7570;1.2022;
1032.0000;0.7530;1.1870;
1032.3000;0.7513;1.1845;
1032.6000;0.7530;1.1845;
1032.9000;0.7513;1.1819;
1033.2000;0.7521;1.1718;
1033.5000;0.7513;1.1768;
1033.8000;0.7595;1.1946;
1034.1000;0.7497;1.1870;
1034.4000;0.7521;1.1946;
1034.7000;0.7521;1.1921;
1035.0000;0.7643;1.2225;
1035.3000;0.7505;1.1921;
1035.6000;0.7521;1.1946;
1035.9000;0.7530;1.1895;
1036.2000;0.7538;1.1921;
1036.5000;0.7489;1.1819;
1036.8000;0.7554;1.1971;
1037.1000;0.7521;1.1921;
1037.4000;0.7530;1.1946;
1037.7000;0.7530;1.1895;
1038.0000;0.7513;1.1768;
1038.3000;0.7521;1.1845;
1038.6000;0.7530;1.1819;
1038.9000;0.7521;1.1794;
1039.2000;0.7521;1.1845;
1039.5000;0.7530;1.1946;
1039.8000;0.7530;1.1997;
1040.1000;0.7546;1.2098;
1040.4000;0.7530;1.2098;
1040.7000;0.7505;1.2047;
1041.0000;0.7554;1.2073;
1041.3000;0.7521;1.2047;
1041.6000;0.7513;1.1971;
1041.9000;0.7530;1.2073;
1042.2000;0.7505;1.1997;
1042.5000;0.7530;1.2047;
1042.8000;0.7538;1.2022;
1043.1000;0.7562;1.2073;
1043.4000;0.7497;1.1870;
1043.7000;0.7530;1.1845;
1044.0000;0.7521;1.1819;
1044.3000;0.7530;1.1768;
1044.6000;0.7530;1.1794;
1044.9000;0.7530;1.1946;
1045.2000;0.7538;1.1971;
1045.5000;0.7530;1.1895;
1045.8000;0.7546;1.2022;
1046.1000;0.7538;1.1946;
1046.4000;0.7554;1.2073;
1046.7000;0.7521;1.1971;
1047.0000;0.7538;1.1997;
1047.3000;0.7521;1.1921;
1047.6000;0.7538;1.1946;
1047.9000;0.7530;1.1971;
1048.2000;0.7505;1.1946;
1048.5000;0.7521;1.1946;
1048.8000;0.7513;1.1895;
1049.1000;0.7521;1.1819;
1049.4000;0.7513;1.1845;
1049.7000;0.7521;1.1845;
1050.0000;0.7562;1.1997;
1050.3000;0.7562;1.1997;
1050.6000;0.7538;1.1946;
1050.9000;0.7521;1.1946;
1051.2000;0.7497;1.1870;
1051.5000;0.7521;1.1921;
1051.8000;0.7530;1.1946;
1052.1000;0.7505;1.1794;
1052.4000;0.7521;1.1819;
1052.7000;0.7546;1.1870;
1053.0000;0.7546;1.1946;
1053.3000;0.7521;1.1946;
1053.6000;0.7521;1.1946;
1053.9000;0.7530;1.1971;
1054.2000;0.7521;1.1870;
1054.5000;0.7530;1.1895;
1054.8000;0.7530;1.1971;
1055.1000;0.7521;1.1971;
1055.4000;0.7521;1.1997;
1055.7000;0.7521;1.2022;
1056.0000;0.7530;1.1971;
1056.3000;0.7554;1.1946;
1056.6000;0.7546;1.1895;
1056.9000;0.7562;1.1895;
1057.2000;0.7546;1.1895;
1057.5000;0.7530;1.1845;
1057.8000;0.7538;1.1819;
1058.1000;0.7538;1.1794;
1058.4000;0.7530;1.1743;
1058.7000;0.7530;1.1819;
1059.0000;0.7530;1.1819;
1059.3000;0.7521;1.1921;
1059.6000;0.7521;1.1946;
1059.9000;0.7538;1.1971;
1060.2000;0.7530;1.1997;
1060.5000;0.7546;1.2073;
1060.8000;0.7546;1.2022;
1061.1000;0.7521;1.2073;
1061.4000;0.7521;1.2022;
1061.7000;0.7521;1.2022;
1062.0000;0.7530;1.1997;
1062.3000;0.7513;1.1895;
1062.6000;0.7530;1.1819;
1062.9000;0.7513;1.1743;
1063.2000;0.7521;1.1743;
1063.5000;0.7505;1.1743;
1063.8000;0.7521;1.1819;
1064.1000;0.7513;1.1870;
1064.4000;0.7530;1.1870;
1064.7000;0.7538;1.1870;
1065.0000;0.7521;1.1895;
1065.3000;0.7530;1.1921;
1065.6000;0.7530;1.2022;
1065.9000;0.7554;1.2022;
1066.2000;0.7513;1.1895;
1066.5000;0.7538;1.1870;
1066.8000;0.7530;1.1870;
1067.1000;0.7424;1.1566;
1067.4000;0.7538;1.1794;
1067.7000;0.7521;1.1768;
1068.0000;0.7473;1.1768;
1068.3000;0.7513;1.1895;
1068.6000;0.7521;1.1819;
1068.9000;0.7521;1.1870;
1069.2000;0.7530;1.1895;
1069.5000;0.7530;1.1794;
1069.8000;0.7521;1.1743;
1070.1000;0.7530;1.1743;
1070.4000;0.7570;1.1794;
1070.7000;0.7554;1.1794;
1071.0000;0.7505;1.1819;
1071.3000;0.7546;1.1971;
1071.6000;0.7521;1.1921;
1071.9000;0.7538;1.1921;
1072.2000;0.7521;1.1895;
1072.5000;0.7521;1.1768;
1072.8000;0.7521;1.1743;
1073.1000;0.7521;1.1692;
1073.4000;0.7513;1.1667;
1073.7000;0.7513;1.1692;
1074.0000;0.7530;1.1718;
1074.3000;0.7521;1.1794;
1074.6000;0.7521;1.1845;
1074.9000;0.7530;1.1921;
1075.2000;0.7521;1.1743;
1075.5000;0.7546;1.1768;
1075.8000;0.7554;1.1768;
1076.1000;0.7505;1.1692;
1076.4000;0.7538;1.1819;
1076.7000;0.7554;1.1794;
1077.0000;0.7530;1.1743;
1077.3000;0.7562;1.1768;
1077.6000;0.7538;1.1794;
1077.9000;0.7530;1.1794;
1078.2000;0.7521;1.1743;
1078.5000;0.7521;1.1692;
1078.8000;0.7521;1.1692;
1079.1000;0.7521;1.1642;
1079.4000;0.7505;1.1718;
1079.7000;0.7538;1.1819;
1080.0000;0.7513;1.1743;
1080.3000;0.7521;1.1768;
1080.6000;0.7521;1.1743;
1080.9000;0.7530;1.1667;
1081.2000;0.7521;1.1667;
1081.5000;0.7538;1.1743;
1081.8000;0.7546;1.1845;
1082.1000;0.7546;1.1845;
1082.4000;0.7538;1.1845;
1082.7000;0.7481;1.1718;
1083.0000;0.7538;1.1768;
1083.3000;0.7521;1.1819;
1083.6000;0.7538;1.1870;
1083.9000;0.7530;1.1768;
1084.2000;0.7538;1.1794;
1084.5000;0.7554;1.1819;
1084.8000;0.7546;1.1870;
1085.1000;0.7554;1.1946;
1085.4000;0.7530;1.1971;
1085.7000;0.7538;1.2047;
1086.0000;0.7546;1.1997;
1086.3000;0.7546;1.1921;
1086.6000;0.7530;1.1794;
1086.9000;0.7546;1.1819;
1087.2000;0.7546;1.1845;
1087.5000;0.7538;1.1921;
1087.8000;0.7538;1.1870;
1088.1000;0.7497;1.1768;
1088.4000;0.7546;1.1794;
1088.7000;0.7530;1.1743;
1089.0000;0.7505;1.1718;
1089.3000;0.7538;1.1692;
1089.6000;0.7530;1.1642;
1089.9000;0.7578;1.1743;
1090.2000;0.7464;1.1464;
1090.5000;0.7530;1.1718;
1090.8000;0.7530;1.1718;
1091.1000;0.7407;1.1464;
1091.4000;0.7554;1.1819;
1091.7000;0.7538;1.1845;
1092.0000;0.7586;1.1971;
1092.3000;0.7530;1.1819;
1092.6000;0.7530;1.1819;
1092.9000;0.7424;1.1540;
1093.2000;0.7513;1.1819;
1093.5000;0.7611;1.2098;
1093.8000;0.7546;1.1870;
1094.1000;0.7530;1.1743;
1094.4000;0.7538;1.1692;
1094.7000;0.7448;1.1464;
1095.0000;0.7513;1.1616;
1095.3000;0.7530;1.1642;
1095.6000;0.7530;1.1591;
1095.9000;0.7530;1.1794;
1096.2000;0.7513;1.1819;
1096.5000;0.7521;1.1845;
1096.8000;0.7538;1.1845;
1097.1000;0.7530;1.1743;
1097.4000;0.7538;1.1718;
1097.7000;0.7513;1.1667;
1098.0000;0.7521;1.1718;
1098.3000;0.7521;1.1819;
1098.6000;0.7538;1.1819;
1098.9000;0.7538;1.1870;
1099.2000;0.7456;1.1667;
1099.5000;0.7554;1.1921;
1099.8000;0.7530;1.1845;
1100.1000;0.7578;1.1997;
1100.4000;0.7481;1.1794;
1100.7000;0.7546;1.1921;
1101.0000;0.7521;1.1870;
1101.3000;0.7530;1.1819;
1101.6000;0.7530;1.1768;
1101.9000;0.7473;1.1616;
1102.2000;0.7521;1.1819;
1102.5000;0.7530;1.1845;
1102.8000;0.7505;1.1819;
1103.1000;0.7530;1.1921;
1103.4000;0.7521;1.1921;
1103.7000;0.7530;1.1845;
1104.0000;0.7562;1.1870;
1104.3000;0.7530;1.1845;
1104.6000;0.7538;1.1895;
1104.9000;0.7538;1.1870;
1105.2000;0.7538;1.1921;
1105.5000;0.7530;1.1921;
1105.8000;0.7538;1.1921;
1106.1000;0.7546;1.1946;
1106.4000;0.7546;1.1946;
1106.7000;0.7521;1.1921;
1107.0000;0.7505;1.1870;
1107.3000;0.7546;1.1971;
1107.6000;0.7530;1.1946;
1107.9000;0.7530;1.1921;
1108.2000;0.7521;1.1946;
1108.5000;0.7530;1.1946;
1108.8000;0.7554;1.2047;
1109.1000;0.7538;1.1971;
1109.4000;0.7521;1.1819;
1109.7000;0.7521;1.1895;
1110.0000;0.7562;1.1921;
1110.3000;0.7521;1.1743;
1110.6000;0.7546;1.1819;
1110.9000;0.7554;1.1870;
1111.2000;0.7530;1.1895;
1111.5000;0.7521;1.1819;
1111.8000;0.7538;1.1895;
1112.1000;0.7546;1.1971;
1112.4000;0.7546;1.1895;
1112.7000;0.7538;1.1819;
1113.0000;0.7546;1.1819;
1113.3000;0.7513;1.1692;
1113.6000;0.7595;1.1971;
1113.9000;0.7530;1.1718;
1114.2000;0.7513;1.1768;
1114.5000;0.7530;1.1819;
1114.8000;0.7546;1.1819;
1115.1000;0.7554;1.1819;
1115.4000;0.7440;1.1489;
1115.7000;0.7562;1.1895;
1116.0000;0.7546;1.1845;
1116.3000;0.7554;1.1819;
1116.6000;0.7530;1.1768;
1116.9000;0.7538;1.1692;
1117.2000;0.7448;1.1464;
1117.5000;0.7554;1.1870;
1117.8000;0.7546;1.1921;
1118.1000;0.7513;1.1794;
1118.4000;0.7643;1.2124;
1118.7000;0.7538;1.1870;
1119.0000;0.7521;1.1819;
1119.3000;0.7530;1.1768;
1119.6000;0.7481;1.1616;
1119.9000;0.7538;1.1819;
1120.2000;0.7709;1.2250;
1120.5000;0.7521;1.1819;
1120.8000;0.7521;1.1845;
1121.1000;0.7513;1.1845;
1121.4000;0.7521;1.1870;
1121.7000;0.7530;1.1819;
1122.0000;0.7521;1.1718;
1122.3000;0.7521;1.1692;
1122.6000;0.7546;1.1768;
1122.9000;0.7546;1.1667;
1123.2000;0.7578;1.1692;
1123.5000;0.7481;1.1489;
1123.8000;0.7505;1.1616;
1124.1000;0.7530;1.1768;
1124.4000;0.7530;1.1768;
1124.7000;0.7530;1.1743;
1125.0000;0.7546;1.1794;
1125.3000;0.7546;1.1743;
1125.6000;0.7643;1.1971;
1125.9000;0.7407;1.1363;
1126.2000;0.7530;1.1692;
1126.5000;0.7530;1.1794;
1126.8000;0.7505;1.1768;
1127.1000;0.7513;1.1794;
1127.4000;0.7530;1.1845;
1127.7000;0.7513;1.1845;
1128.0000;0.7546;1.1794;
1128.3000;0.7521;1.1743;
1128.6000;0.7538;1.1743;
1128.9000;0.7513;1.1616;
1129.2000;0.7554;1.1768;
1129.5000;0.7546;1.1768;
1129.8000;0.7424;1.1489;
1130.1000;0.7546;1.1794;
1130.4000;0.7570;1.1819;
1130.7000;0.7505;1.1768;
1131.0000;0.7562;1.1946;
1131.3000;0.7538;1.1946;
1131.6000;0.7562;1.1971;
1131.9000;0.7554;1.1971;
1132.2000;0.7530;1.1870;
1132.5000;0.7546;1.1819;
1132.8000;0.7554;1.1819;
1133.1000;0.7546;1.1794;
1133.4000;0.7521;1.1718;
1133.7000;0.7546;1.1819;
1134.0000;0.7554;1.1794;
1134.3000;0.7538;1.1743;
1134.6000;0.7546;1.1819;
1134.9000;0.7554;1.1794;
1135.2000;0.7538;1.1819;
1135.5000;0.7595;1.2098;
1135.8000;0.7554;1.1819;
1136.1000;0.7456;1.1591;
1136.4000;0.7538;1.1794;
1136.7000;0.7554;1.1768;
1137.0000;0.7530;1.1718;
1137.3000;0.7554;1.1743;
1137.6000;0.7530;1.1718;
1137.9000;0.7538;1.1768;
1138.2000;0.7586;1.1794;
1138.5000;0.7530;1.1667;
1138.8000;0.7513;1.1718;
1139.1000;0.7684;1.2149;
1139.4000;0.7546;1.1794;
1139.7000;0.7554;1.1794;
1140.0000;0.7538;1.1692;
1140.3000;0.7578;1.1794;
1140.6000;0.7546;1.1743;
1140.9000;0.7546;1.1718;
1141.2000;0.7538;1.1743;
1141.5000;0.7554;1.1743;
1141.8000;0.7554;1.1692;
1142.1000;0.7538;1.1616;
1142.4000;0.7530;1.1718;
1142.7000;0.7513;1.1692;
1143.0000;0.7521;1.1768;
1143.3000;0.7538;1.1819;
1143.6000;0.7521;1.1768;
1143.9000;0.7546;1.1819;
1144.2000;0.7530;1.1845;
1144.5000;0.7554;1.1895;
1144.8000;0.7530;1.1819;
1145.1000;0.7538;1.1895;
1145.4000;0.7546;1.1895;
1145.7000;0.7538;1.1946;
1146.0000;0.7521;1.1946;
1146.3000;0.7530;1.1946;
1146.6000;0.7481;1.1692;
1146.9000;0.7570;1.1921;
1147.2000;0.7546;1.1870;
1147.5000;0.7554;1.1870;
1147.8000;0.7611;1.2124;
1148.1000;0.7538;1.1946;
1148.4000;0.7530;1.1794;
1148.7000;0.7538;1.1768;
1149.0000;0.7538;1.1743;
1149.3000;0.7538;1.1794;
1149.6000;0.7546;1.1819;
1149.9000;0.7562;1.1971;
1150.2000;0.7538;1.1921;
1150.5000;0.7546;1.1845;
1150.8000;0.7530;1.1768;
1151.1000;0.7538;1.1743;
1151.4000;0.7538;1.1718;
1151.7000;0.7513;1.1642;
1152.0000;0.7538;1.1642;
1152.3000;0.7513;1.1566;
1152.6000;0.7513;1.1718;
1152.9000;0.7521;1.1667;
1153.2000;0.7546;1.1794;
1153.5000;0.7521;1.1642;
1153.8000;0.7513;1.1642;
1154.1000;0.7530;1.1718;
1154.4000;0.7554;1.1743;
1154.7000;0.7546;1.1743;
1155.0000;0.7513;1.1642;
1155.3000;0.7513;1.1692;
1155.6000;0.7513;1.1718;
1155.9000;0.7554;1.1768;
1156.2000;0.7554;1.1819;
1156.5000;0.7538;1.1768;
1156.8000;0.7619;1.1971;
1157.1000;0.7538;1.1743;
1157.4000;0.7538;1.1667;
1157.7000;0.7538;1.1692;
1158.0000;0.7554;1.1718;
1158.3000;0.7513;1.1667;
1158.6000;0.7521;1.1692;
1158.9000;0.7530;1.1845;
1159.2000;0.7546;1.1845;
1159.5000;0.7546;1.1819;
1159.8000;0.7554;1.1870;
1160.1000;0.7627;1.1997;
1160.4000;0.7546;1.1718;
1160.7000;0.7530;1.1692;
1161.0000;0.7530;1.1667;
1161.3000;0.7530;1.1667;
1161.6000;0.7546;1.1794;
1161.9000;0.7554;1.1845;
1162.2000;0.7546;1.1870;
1162.5000;0.7530;1.1845;
1162.8000;0.7481;1.1819;
1163.1000;0.7530;1.1997;
1163.4000;0.7554;1.2073;
1163.7000;0.7546;1.2047;
1164.0000;0.7554;1.1997;
1164.3000;0.7530;1.1997;
1164.6000;0.7530;1.1997;
1164.9000;0.7513;1.1997;
1165.2000;0.7513;1.2022;
1165.5000;0.7546;1.2022;
1165.8000;0.7562;1.2047;
1166.1000;0.7538;1.2073;
1166.4000;0.7570;1.2174;
1166.7000;0.7578;1.2124;
1167.0000;0.7538;1.2022;
1167.3000;0.7530;1.1971;
1167.6000;0.7530;1.1895;
1167.9000;0.7530;1.1794;
1168.2000;0.7513;1.1819;
1168.5000;0.7546;1.1921;
1168.8000;0.7464;1.1667;
1169.1000;0.7538;1.1921;
1169.4000;0.7513;1.1794;
1169.7000;0.7505;1.1718;
1170.0000;0.7530;1.1743;
1170.3000;0.7513;1.1667;
1170.6000;0.7538;1.1743;
1170.9000;0.7562;1.1895;
1171.2000;0.7546;1.1870;
1171.5000;0.7530;1.1819;
1171.8000;0.7570;1.1997;
1172.1000;0.7530;1.1921;
1172.4000;0.7586;1.2047;
1172.7000;0.7538;1.1921;
1173.0000;0.7530;1.1895;
1173.3000;0.7554;1.1971;
1173.6000;0.7546;1.1971;
1173.9000;0.7554;1.1997;
1174.2000;0.7538;1.1971;
1174.5000;0.7546;1.2124;
1174.8000;0.7554;1.2124;
1175.1000;0.7546;1.2174;
1175.4000;0.7521;1.2022;
1175.7000;0.7603;1.2098;
1176.0000;0.7473;1.1692;
1176.3000;0.7538;1.1870;
1176.6000;0.7505;1.1819;
1176.9000;0.7554;1.1946;
1177.2000;0.7538;1.1870;
1177.5000;0.7538;1.1819;
1177.8000;0.7530;1.1718;
1178.1000;0.7546;1.1718;
1178.4000;0.7521;1.1743;
1178.7000;0.7530;1.1845;
1179.0000;0.7546;1.1921;
1179.3000;0.7538;1.1921;
1179.6000;0.7538;1.1921;
1179.9000;0.7546;1.1971;
1180.2000;0.7530;1.1946;
1180.5000;0.7538;1.1895;
1180.8000;0.7538;1.1768;
1181.1000;0.7538;1.1794;
1181.4000;0.7562;1.1819;
1181.7000;0.7538;1.1819;
1182.0000;0.7530;1.1794;
1182.3000;0.7554;1.1845;
1182.6000;0.7538;1.1768;
1182.9000;0.7546;1.1718;
1183.2000;0.7521;1.1718;
1183.5000;0.7538;1.1768;
1183.8000;0.7513;1.1718;
1184.1000;0.7546;1.1718;
1184.4000;0.7530;1.1642;
1184.7000;0.7554;1.1768;
1185.0000;0.7554;1.1794;
1185.3000;0.7464;1.1616;
1185.6000;0.7521;1.1718;
1185.9000;0.7521;1.1819;
1186.2000;0.7546;1.1819;
1186.5000;0.7530;1.1819;
1186.8000;0.7538;1.1921;
1187.1000;0.7546;1.1946;
1187.4000;0.7538;1.1921;
1187.7000;0.7530;1.1845;
1188.0000;0.7554;1.1743;
1188.3000;0.7521;1.1743;
1188.6000;0.7538;1.1794;
1188.9000;0.7513;1.1819;
1189.2000;0.7538;1.1845;
1189.5000;0.7521;1.1870;
1189.8000;0.7546;1.1971;
1190.1000;0.7554;1.1997;
1190.4000;0.7562;1.2022;
1190.7000;0.7554;1.1971;
1191.0000;0.7546;1.1895;
1191.3000;0.7505;1.1616;
1191.6000;0.7546;1.1743;
1191.9000;0.7530;1.1642;
1192.2000;0.7546;1.1591;
1192.5000;0.7562;1.1718;
1192.8000;0.7513;1.1616;
1193.1000;0.7546;1.1667;
1193.4000;0.7521;1.1616;
1193.7000;0.7538;1.1718;
1194.0000;0.7489;1.1667;
1194.3000;0.7562;1.1921;
1194.6000;0.7497;1.1743;
1194.9000;0.7530;1.1819;
1195.2000;0.7546;1.1895;
1195.5000;0.7530;1.1845;
1195.8000;0.7530;1.1870;
1196.1000;0.7546;1.1870;
1196.4000;0.7538;1.1768;
1196.7000;0.7538;1.1768;
1197.0000;0.7538;1.1692;
1197.3000;0.7562;1.1743;
1197.6000;0.7562;1.1794;
1197.9000;0.7489;1.1667;
1198.2000;0.7546;1.1819;
1198.5000;0.7481;1.1743;
1198.8000;0.7497;1.1819;
1199.1000;0.7538;1.1870;
1199.4000;0.7538;1.1819;
1199.7000;0.7538;1.1870;
1200.0000;0.7530;1.1794;
1200.3000;0.7570;1.1921;
1200.6000;0.7530;1.1845;
1200.9000;0.7546;1.1921;
1201.2000;0.7530;1.1819;
1201.5000;0.7554;1.1971;
1201.8000;0.7578;1.2022;
1202.1000;0.7538;1.1971;
1202.4000;0.7554;1.2022;
1202.7000;0.7554;1.2073;
1203.0000;0.7538;1.1946;
1203.3000;0.7505;1.1895;
1203.6000;0.7538;1.2073;
1203.9000;0.7554;1.2149;
1204.2000;0.7546;1.2124;
1204.5000;0.7513;1.2073;
1204.8000;0.7521;1.2022;
1205.1000;0.7538;1.1971;
1205.4000;0.7538;1.1921;
1205.7000;0.7546;1.2022;
1206.0000;0.7546;1.2174;
1206.3000;0.7513;1.2047;
1206.6000;0.7513;1.2073;
1206.9000;0.7546;1.2149;
1207.2000;0.7538;1.2200;
1207.5000;0.7530;1.2124;
1207.8000;0.7603;1.2174;
1208.1000;0.7619;1.2149;
1208.4000;0.7554;1.1971;
1208.7000;0.7546;1.2022;
1209.0000;0.7554;1.2022;
1209.3000;0.7530;1.1921;
1209.6000;0.7554;1.1845;
1209.9000;0.7546;1.1768;
1210.2000;0.7554;1.1718;
1210.5000;0.7578;1.1819;
1210.8000;0.7473;1.1566;
1211.1000;0.7554;1.1794;
1211.4000;0.7562;1.1870;
1211.7000;0.7562;1.1870;
1212.0000;0.7554;1.1819;
1212.3000;0.7530;1.1718;
1212.6000;0.7554;1.1692;
1212.9000;0.7554;1.1743;
1213.2000;0.7562;1.1768;
1213.5000;0.7538;1.1845;
1213.8000;0.7554;1.1921;
1214.1000;0.7546;1.1921;
1214.4000;0.7546;1.1971;
1214.7000;0.7546;1.1971;
1215.0000;0.7538;1.1997;
1215.3000;0.7521;1.1971;
1215.6000;0.7530;1.1921;
1215.9000;0.7554;1.1971;
1216.2000;0.7530;1.1870;
1216.5000;0.7554;1.1819;
1216.8000;0.7554;1.1819;
1217.1000;0.7546;1.1794;
1217.4000;0.7652;1.2098;
1217.7000;0.7546;1.1819;
1218.0000;0.7562;1.1819;
1218.3000;0.7530;1.1743;
1218.6000;0.7538;1.1794;
1218.9000;0.7513;1.1718;
1219.2000;0.7546;1.1743;
1219.5000;0.7530;1.1743;
1219.8000;0.7530;1.1819;
1220.1000;0.7538;1.1870;
1220.4000;0.7578;1.2022;
1220.7000;0.7570;1.1971;
1221.0000;0.7562;1.1946;
1221.3000;0.7546;1.1845;
1221.6000;0.7562;1.1895;
1221.9000;0.7513;1.1743;
1222.2000;0.7538;1.1794;
1222.5000;0.7554;1.1819;
1222.8000;0.7440;1.1515;
1223.1000;0.7546;1.1768;
1223.4000;0.7538;1.1718;
1223.7000;0.7546;1.1743;
1224.0000;0.7530;1.1718;
1224.3000;0.7538;1.1768;
1224.6000;0.7538;1.1718;
1224.9000;0.7538;1.1692;
1225.2000;0.7546;1.1718;
1225.5000;0.7562;1.1718;
1225.8000;0.7546;1.1819;
1226.1000;0.7554;1.1794;
1226.4000;0.7562;1.1845;
1226.7000;0.7562;1.1997;
1227.0000;0.7562;1.1870;
1227.3000;0.7554;1.1794;
1227.6000;0.7554;1.1743;
1227.9000;0.7538;1.1743;
1228.2000;0.7554;1.1718;
1228.5000;0.7505;1.1642;
1228.8000;0.7521;1.1718;
1229.1000;0.7538;1.1819;
1229.4000;0.7530;1.1794;
1229.7000;0.7554;1.1895;
1230.0000;0.7530;1.1794;
1230.3000;0.7538;1.1845;
1230.6000;0.7578;1.1921;
1230.9000;0.7554;1.1743;
1231.2000;0.7562;1.1692;
1231.5000;0.7538;1.1718;
1231.8000;0.7586;1.1870;
1232.1000;0.7554;1.1870;
1232.4000;0.7538;1.1768;
1232.7000;0.7562;1.1819;
1233.0000;0.7546;1.1845;
1233.3000;0.7497;1.1642;
1233.6000;0.7546;1.1895;
1233.9000;0.7546;1.1946;
1234.2000;0.7546;1.1997;
1234.5000;0.7505;1.1819;
1234.8000;0.7530;1.1946;
1235.1000;0.7562;1.1997;
1235.4000;0.7578;1.2022;
1235.7000;0.7570;1.1971;
1236.0000;0.7570;1.2022;
1236.3000;0.7562;1.1971;
1236.6000;0.7538;1.1895;
1236.9000;0.7530;1.1819;
1237.2000;0.7562;1.1794;
1237.5000;0.7505;1.1692;
1237.8000;0.7627;1.1895;
1238.1000;0.7505;1.1642;
1238.4000;0.7481;1.1591;
1238.7000;0.7546;1.1692;
1239.0000;0.7432;1.1439;
1239.3000;0.7546;1.1743;
1239.6000;0.7546;1.1794;
1239.9000;0.7521;1.1692;
1240.2000;0.7513;1.1718;
1240.5000;0.7530;1.1743;
1240.8000;0.7538;1.1743;
1241.1000;0.7546;1.1845;
1241.4000;0.7521;1.1845;
1241.7000;0.7521;1.1794;
1242.0000;0.7538;1.1768;
1242.3000;0.7546;1.1870;
1242.6000;0.7554;1.1971;
1242.9000;0.7497;1.1845;
1243.2000;0.7538;1.1895;
1243.5000;0.7538;1.1895;
1243.8000;0.7562;1.1971;
1244.1000;0.7546;1.2022;
1244.4000;0.7521;1.2047;
1244.7000;0.7538;1.2022;
1245.0000;0.7530;1.2022;
1245.3000;0.7521;1.2022;
1245.6000;0.7513;1.2047;
1245.9000;0.7538;1.2098;
1246.2000;0.7562;1.2149;
1246.5000;0.7530;1.2047;
1246.8000;0.7570;1.2098;
1247.1000;0.7562;1.2047;
1247.4000;0.7546;1.2022;
1247.7000;0.7562;1.2022;
1248.0000;0.7554;1.1895;
1248.3000;0.7546;1.1845;
1248.6000;0.7546;1.1819;
1248.9000;0.7570;1.1794;
1249.2000;0.7521;1.1667;
1249.5000;0.7554;1.1718;
1249.8000;0.7538;1.1743;
1250.1000;0.7530;1.1718;
1250.4000;0.7546;1.1692;
1250.7000;0.7530;1.1692;
1251.0000;0.7554;1.1591;
1251.3000;0.7554;1.1616;
1251.6000;0.7546;1.1616;
1251.9000;0.7570;1.1718;
1252.2000;0.7595;1.1794;
1252.5000;0.7546;1.1743;
1252.8000;0.7546;1.1794;
1253.1000;0.7513;1.1819;
1253.4000;0.7570;1.1921;
1253.7000;0.7562;1.1794;
1254.0000;0.7546;1.1642;
1254.3000;0.7562;1.1667;
1254.6000;0.7570;1.1718;
1254.9000;0.7554;1.1692;
1255.2000;0.7570;1.1718;
1255.5000;0.7538;1.1692;
1255.8000;0.7562;1.1845;
1256.1000;0.7546;1.1845;
1256.4000;0.7530;1.1642;
1256.7000;0.7586;1.1642;
1257.0000;0.7570;1.1642;
1257.3000;0.7668;1.1819;
1257.6000;0.7554;1.1489;
1257.9000;0.7570;1.1692;
1258.2000;0.7586;1.1667;
1258.5000;0.7521;1.1540;
1258.8000;0.7546;1.1591;
1259.1000;0.7513;1.1439;
1259.4000;0.7554;1.1566;
1259.7000;0.7538;1.1540;
1260.0000;0.7554;1.1616;
1260.3000;0.7627;1.1819;
1260.6000;0.7562;1.1718;
1260.9000;0.7554;1.1692;
1261.2000;0.7570;1.1692;
1261.5000;0.7603;1.1768;
1261.8000;0.7546;1.1718;
1262.1000;0.7554;1.1921;
1262.4000;0.7570;1.1921;
1262.7000;0.7570;1.1895;
1263.0000;0.7538;1.1870;
1263.3000;0.7546;1.1895;
1263.6000;0.7554;1.1845;
1263.9000;0.7562;1.1870;
1264.2000;0.7554;1.1794;
1264.5000;0.7554;1.1743;
1264.8000;0.7554;1.1768;
1265.1000;0.7530;1.1743;
1265.4000;0.7521;1.1692;
1265.7000;0.7538;1.1768;
1266.0000;0.7554;1.1870;
1266.3000;0.7554;1.1845;
1266.6000;0.7562;1.1768;
1266.9000;0.7530;1.1718;
1267.2000;0.7554;1.1819;
1267.5000;0.7554;1.1819;
1267.8000;0.7546;1.1794;
1268.1000;0.7546;1.1768;
1268.4000;0.7554;1.1768;
1268.7000;0.7538;1.1794;
1269.0000;0.7546;1.1845;
1269.3000;0.7538;1.1794;
1269.6000;0.7530;1.1768;
1269.9000;0.7546;1.1845;
1270.2000;0.7586;1.1768;
1270.5000;0.7546;1.1616;
1270.8000;0.7554;1.1642;
1271.1000;0.7578;1.1718;
1271.4000;0.7570;1.1819;
1271.7000;0.7538;1.1718;
1272.0000;0.7554;1.1870;
1272.3000;0.7538;1.1819;
1272.6000;0.7562;1.1921;
1272.9000;0.7562;1.2047;
1273.2000;0.7538;1.1946;
1273.5000;0.7554;1.1971;
1273.8000;0.7530;1.1921;
1274.1000;0.7538;1.1794;
1274.4000;0.7554;1.1794;
1274.7000;0.7562;1.1895;
1275.0000;0.7586;1.2047;
1275.3000;0.7570;1.1971;
1275.6000;0.7554;1.1895;
1275.9000;0.7562;1.1946;
1276.2000;0.7562;1.1971;
1276.5000;0.7578;1.1971;
1276.8000;0.7570;1.1870;
1277.1000;0.7562;1.1921;
1277.4000;0.7570;1.1921;
1277.7000;0.7562;1.1971;
1278.0000;0.7440;1.1692;
1278.3000;0.7530;1.1997;
1278.6000;0.7538;1.2047;
1278.9000;0.7562;1.2047;
1279.2000;0.7546;1.1895;
1279.5000;0.7538;1.1819;
1279.8000;0.7546;1.1921;
1280.1000;0.7578;1.1946;
1280.4000;0.7562;1.1946;
1280.7000;0.7546;1.1819;
1281.0000;0.7530;1.1870;
1281.3000;0.7546;1.1946;
1281.6000;0.7546;1.1921;
1281.9000;0.7530;1.1946;
1282.2000;0.7546;1.1921;
1282.5000;0.7554;1.1819;
1282.8000;0.7546;1.1768;
1283.1000;0.7538;1.1794;
1283.4000;0.7521;1.1794;
1283.7000;0.7538;1.1819;
1284.0000;0.7546;1.1870;
1284.3000;0.7546;1.1870;
1284.6000;0.7546;1.1921;
1284.9000;0.7530;1.1870;
1285.2000;0.7530;1.1895;
1285.5000;0.7538;1.1895;
1285.8000;0.7538;1.1921;
1286.1000;0.7554;1.1946;
1286.4000;0.7554;1.2098;
1286.7000;0.7554;1.2098;
1287.0000;0.7546;1.2124;
1287.3000;0.7546;1.2098;
1287.6000;0.7554;1.1997;
1287.9000;0.7464;1.1718;
1288.2000;0.7554;1.1895;
1288.5000;0.7562;1.1743;
1288.8000;0.7530;1.1667;
1289.1000;0.7562;1.1768;
1289.4000;0.7448;1.1566;
1289.7000;0.7546;1.1819;
1290.0000;0.7538;1.1870;
1290.3000;0.7554;1.1946;
1290.6000;0.7570;1.1971;
1290.9000;0.7562;1.1971;
1291.2000;0.7538;1.1870;
1291.5000;0.7562;1.1895;
1291.8000;0.7570;1.1997;
1292.1000;0.7546;1.1921;
1292.4000;0.7505;1.1870;
1292.7000;0.7538;1.1971;
1293.0000;0.7554;1.2073;
1293.3000;0.7530;1.1971;
1293.6000;0.7530;1.1997;
1293.9000;0.7578;1.2149;
1294.2000;0.7554;1.2098;
1294.5000;0.7530;1.1997;
1294.8000;0.7586;1.2073;
1295.1000;0.7538;1.1921;
1295.4000;0.7578;1.2124;
1295.7000;0.7562;1.2124;
1296.0000;0.7562;1.2124;
1296.3000;0.7562;1.2073;
1296.6000;0.7562;1.2047;
1296.9000;0.7570;1.2073;
1297.2000;0.7578;1.1997;
1297.5000;0.7554;1.1971;
1297.8000;0.7546;1.2047;
1298.1000;0.7554;1.2098;
1298.4000;0.7554;1.2047;
1298.7000;0.7456;1.1768;
1299.0000;0.7554;1.1971;
1299.3000;0.7546;1.1946;
1299.6000;0.7546;1.1971;
1299.9000;0.7513;1.1895;
1300.2000;0.7554;1.1921;
1300.5000;0.7578;1.1921;
1300.8000;0.7554;1.1895;
1301.1000;0.7570;1.1946;
1301.4000;0.7546;1.1997;
1301.7000;0.7578;1.2098;
1302.0000;0.7554;1.2047;
1302.3000;0.7546;1.1971;
1302.6000;0.7554;1.1997;
1302.9000;0.7554;1.1997;
1303.2000;0.7562;1.1870;
1303.5000;0.7546;1.1845;
1303.8000;0.7554;1.1845;
1304.1000;0.7562;1.1692;
1304.4000;0.7562;1.1642;
1304.7000;0.7562;1.1718;
1305.0000;0.7578;1.1718;
1305.3000;0.7570;1.1768;
1305.6000;0.7570;1.1845;
1305.9000;0.7570;1.1870;
1306.2000;0.7554;1.1794;
1306.5000;0.7570;1.1718;
1306.8000;0.7570;1.1692;
1307.1000;0.7554;1.1642;
1307.4000;0.7619;1.1794;
1307.7000;0.7570;1.1718;
1308.0000;0.7554;1.1768;
1308.3000;0.7562;1.1768;
1308.6000;0.7530;1.1642;
1308.9000;0.7546;1.1743;
1309.2000;0.7570;1.1794;
1309.5000;0.7603;1.1870;
1309.8000;0.7530;1.1743;
1310.1000;0.7546;1.1667;
1310.4000;0.7595;1.1845;
1310.7000;0.7481;1.1540;
1311.0000;0.7570;1.1718;
1311.3000;0.7538;1.1692;
1311.6000;0.7652;1.1971;
1311.9000;0.7546;1.1743;
1312.2000;0.7562;1.1794;
1312.5000;0.7521;1.1743;
1312.8000;0.7538;1.1616;
1313.1000;0.7521;1.1566;
1313.4000;0.7627;1.1794;
1313.7000;0.7538;1.1591;
1314.0000;0.7481;1.1489;
1314.3000;0.7554;1.1718;
1314.6000;0.7562;1.1718;
1314.9000;0.7611;1.1768;
1315.2000;0.7570;1.1642;
1315.5000;0.7554;1.1692;
1315.8000;0.7578;1.1768;
1316.1000;0.7554;1.1642;
1316.4000;0.7554;1.1616;
1316.7000;0.7570;1.1591;
1317.0000;0.7562;1.1515;
1317.3000;0.7570;1.1540;
1317.6000;0.7481;1.1388;
1317.9000;0.7578;1.1616;
1318.2000;0.7562;1.1718;
1318.5000;0.7562;1.1591;
1318.8000;0.7554;1.1667;
1319.1000;0.7554;1.1591;
1319.4000;0.7562;1.1540;
1319.7000;0.7554;1.1566;
1320.0000;0.7562;1.1464;
1320.3000;0.7538;1.1439;
1320.6000;0.7538;1.1464;
1320.9000;0.7448;1.1312;
1321.2000;0.7546;1.1616;
1321.5000;0.7554;1.1642;
1321.8000;0.7530;1.1667;
1322.1000;0.7554;1.1743;
1322.4000;0.7546;1.1718;
1322.7000;0.7521;1.1591;
1323.0000;0.7538;1.1642;
1323.3000;0.7546;1.1743;
1323.6000;0.7562;1.1768;
1323.9000;0.7538;1.1768;
1324.2000;0.7546;1.1895;
1324.5000;0.7570;1.1921;
1324.8000;0.7546;1.1921;
1325.1000;0.7546;1.1946;
1325.4000;0.7578;1.1997;
1325.7000;0.7562;1.2022;
1326.0000;0.7546;1.1971;
1326.3000;0.7546;1.1819;
1326.6000;0.7554;1.1819;
1326.9000;0.7546;1.1819;
1327.2000;0.7570;1.1845;
1327.5000;0.7554;1.1819;
1327.8000;0.7562;1.1743;
1328.1000;0.7538;1.1616;
1328.4000;0.7570;1.1768;
1328.7000;0.7546;1.1743;
1329.0000;0.7562;1.1743;
1329.3000;0.7570;1.1845;
1329.6000;0.7554;1.1819;
1329.9000;0.7570;1.1870;
1330.2000;0.7660;1.2149;
1330.5000;0.7554;1.1845;
1330.8000;0.7562;1.1895;
1331.1000;0.7505;1.1743;
1331.4000;0.7643;1.2098;
1331.7000;0.7521;1.1768;
1332.0000;0.7595;1.2022;
1332.3000;0.7554;1.1921;
1332.6000;0.7562;1.1921;
1332.9000;0.7554;1.1845;
1333.2000;0.7603;1.1921;
1333.5000;0.7530;1.1718;
1333.8000;0.7546;1.1870;
1334.1000;0.7554;1.1946;
1334.4000;0.7538;1.1946;
1334.7000;0.7554;1.1997;
1335.0000;0.7530;1.1971;
1335.3000;0.7578;1.2047;
1335.6000;0.7521;1.1921;
1335.9000;0.7603;1.2073;
1336.2000;0.7546;1.1895;
1336.5000;0.7570;1.1946;
1336.8000;0.7578;1.1971;
1337.1000;0.7570;1.1921;
1337.4000;0.7562;1.1895;
1337.7000;0.7505;1.1692;
1338.0000;0.7530;1.1794;
1338.3000;0.7546;1.1946;
1338.6000;0.7562;1.1971;
1338.9000;0.7546;1.1921;
1339.2000;0.7554;1.1921;
1339.5000;0.7554;1.1895;
1339.8000;0.7627;1.2200;
1340.1000;0.7546;1.2047;
1340.4000;0.7578;1.2149;
1340.7000;0.7554;1.2047;
1341.0000;0.7562;1.2073;
1341.3000;0.7578;1.2022;
1341.6000;0.7570;1.2022;
1341.9000;0.7554;1.1895;
1342.2000;0.7546;1.1845;
1342.5000;0.7554;1.1819;
1342.8000;0.7538;1.1794;
1343.1000;0.7546;1.1794;
1343.4000;0.7578;1.1895;
1343.7000;0.7546;1.1921;
1344.0000;0.7570;1.1997;
1344.3000;0.7530;1.1870;
1344.6000;0.7538;1.1845;
1344.9000;0.7578;1.1870;
1345.2000;0.7570;1.1819;
1345.5000;0.7586;1.1895;
1345.8000;0.7554;1.1845;
1346.1000;0.7578;1.1921;
1346.4000;0.7530;1.1768;
1346.7000;0.7530;1.1819;
1347.0000;0.7562;1.1895;
1347.3000;0.7578;1.1895;
1347.6000;0.7603;1.1946;
1347.9000;0.7595;1.1946;
1348.2000;0.7538;1.1845;
1348.5000;0.7570;1.1895;
1348.8000;0.7562;1.1921;
1349.1000;0.7570;1.1870;
1349.4000;0.7530;1.1794;
1349.7000;0.7578;1.2022;
1350.0000;0.7554;1.2047;
1350.3000;0.7570;1.2073;
1350.6000;0.7562;1.2022;
1350.9000;0.7546;1.1946;
1351.2000;0.7603;1.2073;
1351.5000;0.7554;1.1946;
1351.8000;0.7554;1.1921;
1352.1000;0.7603;1.1997;
1352.4000;0.7570;1.1921;
1352.7000;0.7578;1.1971;
1353.0000;0.7586;1.1997;
1353.3000;0.7562;1.1921;
1353.6000;0.7570;1.1870;
1353.9000;0.7538;1.1895;
1354.2000;0.7570;1.1971;
1354.5000;0.7538;1.1971;
1354.8000;0.7562;1.2047;
1355.1000;0.7554;1.2073;
1355.4000;0.7619;1.2149;
1355.7000;0.7538;1.1946;
1356.0000;0.7530;1.1870;
1356.3000;0.7570;1.1921;
1356.6000;0.7554;1.1819;
1356.9000;0.7570;1.1845;
1357.2000;0.7562;1.1819;
1357.5000;0.7570;1.1819;
1357.8000;0.7562;1.1895;
1358.1000;0.7562;1.1870;
1358.4000;0.7530;1.1768;
1358.7000;0.7554;1.1819;
1359.0000;0.7562;1.1921;
1359.3000;0.7562;1.1845;
1359.6000;0.7546;1.1895;
1359.9000;0.7489;1.1642;
1360.2000;0.7538;1.1743;
1360.5000;0.7554;1.1768;
1360.8000;0.7562;1.1768;
1361.1000;0.7546;1.1819;
1361.4000;0.7570;1.1743;
1361.7000;0.7570;1.1743;
1362.0000;0.7562;1.1819;
1362.3000;0.7546;1.1870;
1362.6000;0.7554;1.1870;
1362.9000;0.7562;1.1971;
1363.2000;0.7570;1.1921;
1363.5000;0.7570;1.1819;
1363.8000;0.7570;1.1845;
1364.1000;0.7595;1.1870;
1364.4000;0.7570;1.1895;
1364.7000;0.7570;1.1794;
1365.0000;0.7570;1.1819;
1365.3000;0.7570;1.1895;
1365.6000;0.7570;1.1845;
1365.9000;0.7562;1.1895;
1366.2000;0.7562;1.1971;
1366.5000;0.7554;1.1971;
1366.8000;0.7570;1.1870;
1367.1000;0.7530;1.1718;
1367.4000;0.7562;1.1743;
1367.7000;0.7570;1.1794;
1368.0000;0.7530;1.1743;
1368.3000;0.7481;1.1616;
1368.6000;0.7538;1.1768;
1368.9000;0.7578;1.1870;
1369.2000;0.7562;1.1718;
1369.5000;0.7570;1.1768;
1369.8000;0.7554;1.1845;
1370.1000;0.7578;1.1921;
1370.4000;0.7530;1.1819;
1370.7000;0.7538;1.1718;
1371.0000;0.7513;1.1616;
1371.3000;0.7497;1.1566;
1371.6000;0.7554;1.1794;
1371.9000;0.7586;1.1946;
1372.2000;0.7538;1.1845;
1372.5000;0.7554;1.1794;
1372.8000;0.7562;1.1895;
1373.1000;0.7562;1.1921;
1373.4000;0.7505;1.1794;
1373.7000;0.7538;1.1870;
1374.0000;0.7570;1.1921;
1374.3000;0.7562;1.1845;
1374.6000;0.7578;1.1895;
1374.9000;0.7570;1.1921;
1375.2000;0.7538;1.1819;
1375.5000;0.7562;1.1845;
1375.8000;0.7578;1.1845;
1376.1000;0.7586;1.1743;
1376.4000;0.7570;1.1616;
1376.7000;0.7570;1.1591;
1377.0000;0.7562;1.1566;
1377.3000;0.7554;1.1515;
1377.6000;0.7562;1.1566;
1377.9000;0.7586;1.1692;
1378.2000;0.7562;1.1692;
1378.5000;0.7554;1.1794;
1378.8000;0.7554;1.1794;
1379.1000;0.7570;1.1895;
1379.4000;0.7627;1.2022;
1379.7000;0.7554;1.1870;
1380.0000;0.7562;1.1921;
1380.3000;0.7562;1.1971;
1380.6000;0.7570;1.1921;
1380.9000;0.7578;1.1794;
1381.2000;0.7489;1.1642;
1381.5000;0.7530;1.1794;
1381.8000;0.7554;1.1845;
1382.1000;0.7546;1.1743;
1382.4000;0.7578;1.1845;
1382.7000;0.7505;1.1616;
1383.0000;0.7538;1.1692;
1383.3000;0.7554;1.1692;
1383.6000;0.7505;1.1591;
1383.9000;0.7521;1.1692;
1384.2000;0.7546;1.1819;
1384.5000;0.7538;1.1845;
1384.8000;0.7554;1.1845;
1385.1000;0.7546;1.1768;
1385.4000;0.7554;1.1819;
1385.7000;0.7562;1.1870;
1386.0000;0.7586;1.1971;
1386.3000;0.7562;1.1845;
1386.6000;0.7554;1.1870;
1386.9000;0.7570;1.1870;
1387.2000;0.7562;1.1845;
1387.5000;0.7554;1.1895;
1387.8000;0.7595;1.1921;
1388.1000;0.7578;1.1895;
1388.4000;0.7546;1.1845;
1388.7000;0.7554;1.1845;
1389.0000;0.7570;1.1997;
1389.3000;0.7570;1.2022;
1389.6000;0.7578;1.2022;
1389.9000;0.7562;1.1971;
1390.2000;0.7554;1.1895;
1390.5000;0.7546;1.1794;
1390.8000;0.7586;1.1845;
1391.1000;0.7578;1.1870;
1391.4000;0.7554;1.1870;
1391.7000;0.7546;1.1870;
1392.0000;0.7570;1.1895;
1392.3000;0.7668;1.2174;
1392.6000;0.7570;1.1997;
1392.9000;0.7554;1.2098;
1393.2000;0.7554;1.2047;
1393.5000;0.7538;1.1971;
1393.8000;0.7562;1.1971;
1394.1000;0.7562;1.1946;
1394.4000;0.7562;1.1895;
1394.7000;0.7505;1.1794;
1395.0000;0.7546;1.1946;
1395.3000;0.7595;1.2022;
1395.6000;0.7570;1.1997;
1395.9000;0.7570;1.1971;
1396.2000;0.7562;1.1921;
1396.5000;0.7546;1.1946;
1396.8000;0.7570;1.1997;
1397.1000;0.7578;1.1946;
1397.4000;0.7570;1.1921;
1397.7000;0.7473;1.1692;
1398.0000;0.7562;1.1895;
1398.3000;0.7562;1.1921;
1398.6000;0.7562;1.1971;
1398.9000;0.7538;1.2047;
1399.2000;0.7538;1.2073;
1399.5000;0.7578;1.2225;
1399.8000;0.7570;1.2149;
