time/ms;Fluo/V;P700 deltaI/I x10³;
-199.8000;0.6553;-5.5690;
-199.5000;0.6545;-5.5768;
-199.2000;0.6536;-5.5768;
-198.9000;0.6553;-5.5768;
-198.6000;0.6545;-5.5819;
-198.3000;0.6561;-5.5871;
-198.0000;0.6569;-5.5794;
-197.7000;0.6553;-5.5871;
-197.4000;0.6553;-5.5819;
-197.1000;0.6553;-5.5819;
-196.8000;0.6545;-5.5794;
-196.5000;0.6561;-5.5742;
-196.2000;0.6553;-5.5768;
-195.9000;0.6561;-5.5794;
-195.6000;0.6569;-5.5690;
-195.3000;0.6577;-5.5638;
-195.0000;0.6569;-5.5586;
-194.7000;0.6561;-5.5664;
-194.4000;0.6553;-5.5716;
-194.1000;0.6561;-5.5742;
-193.8000;0.6561;-5.5690;
-193.5000;0.6553;-5.5638;
-193.2000;0.6569;-5.5509;
-192.9000;0.6593;-5.5405;
-192.6000;0.6561;-5.5483;
-192.3000;0.6561;-5.5457;
-192.0000;0.6528;-5.5560;
-191.7000;0.6634;-5.5301;
-191.4000;0.6577;-5.5405;
-191.1000;0.6561;-5.5379;
-190.8000;0.6602;-5.5327;
-190.5000;0.6561;-5.5431;
-190.2000;0.6577;-5.5431;
-189.9000;0.6569;-5.5509;
-189.6000;0.6553;-5.5638;
-189.3000;0.6569;-5.5638;
-189.0000;0.6561;-5.5638;
-188.7000;0.6585;-5.5560;
-188.4000;0.6553;-5.5638;
-188.1000;0.6561;-5.5638;
-187.8000;0.6561;-5.5560;
-187.5000;0.6553;-5.5509;
-187.2000;0.6561;-5.5431;
-186.9000;0.6545;-5.5483;
-186.6000;0.6553;-5.5535;
-186.3000;0.6545;-5.5612;
-186.0000;0.6561;-5.5535;
-185.7000;0.6553;-5.5586;
-185.4000;0.6561;-5.5690;
-185.1000;0.6569;-5.5638;
-184.8000;0.6553;-5.5612;
-184.5000;0.6553;-5.5664;
-184.2000;0.6569;-5.5612;
-183.9000;0.6577;-5.5560;
-183.6000;0.6577;-5.5535;
-183.3000;0.6569;-5.5612;
-183.0000;0.6569;-5.5638;
-182.7000;0.6561;-5.5716;
-182.4000;0.6545;-5.5768;
-182.1000;0.6553;-5.5768;
-181.8000;0.6545;-5.5768;
-181.5000;0.6553;-5.5768;
-181.2000;0.6561;-5.5742;
-180.9000;0.6561;-5.5871;
-180.6000;0.6569;-5.5742;
-180.3000;0.6561;-5.5742;
-180.0000;0.6569;-5.5742;
-179.7000;0.6496;-5.5897;
-179.4000;0.6561;-5.5638;
-179.1000;0.6561;-5.5586;
-178.8000;0.6561;-5.5483;
-178.5000;0.6553;-5.5483;
-178.2000;0.6569;-5.5483;
-177.9000;0.6577;-5.5483;
-177.6000;0.6545;-5.5535;
-177.3000;0.6545;-5.5509;
-177.0000;0.6553;-5.5483;
-176.7000;0.6561;-5.5509;
-176.4000;0.6553;-5.5560;
-176.1000;0.6577;-5.5457;
-175.8000;0.6569;-5.5457;
-175.5000;0.6577;-5.5535;
-175.2000;0.6577;-5.5612;
-174.9000;0.6577;-5.5612;
-174.6000;0.6569;-5.5638;
-174.3000;0.6528;-5.5742;
-174.0000;0.6545;-5.5638;
-173.7000;0.6553;-5.5638;
-173.4000;0.6561;-5.5586;
-173.1000;0.6545;-5.5612;
-172.8000;0.6553;-5.5586;
-172.5000;0.6561;-5.5586;
-172.2000;0.6553;-5.5638;
-171.9000;0.6545;-5.5483;
-171.6000;0.6545;-5.5509;
-171.3000;0.6553;-5.5560;
-171.0000;0.6553;-5.5586;
-170.7000;0.6553;-5.5586;
-170.4000;0.6553;-5.5560;
-170.1000;0.6585;-5.5457;
-169.8000;0.6569;-5.5509;
-169.5000;0.6561;-5.5509;
-169.2000;0.6569;-5.5483;
-168.9000;0.6561;-5.5509;
-168.6000;0.6569;-5.5483;
-168.3000;0.6569;-5.5509;
-168.0000;0.6553;-5.5509;
-167.7000;0.6553;-5.5483;
-167.4000;0.6553;-5.5483;
-167.1000;0.6585;-5.5353;
-166.8000;0.6553;-5.5405;
-166.5000;0.6553;-5.5483;
-166.2000;0.6553;-5.5560;
-165.9000;0.6569;-5.5560;
-165.6000;0.6577;-5.5638;
-165.3000;0.6561;-5.5664;
-165.0000;0.6553;-5.5638;
-164.7000;0.6561;-5.5483;
-164.4000;0.6577;-5.5483;
-164.1000;0.6569;-5.5483;
-163.8000;0.6569;-5.5353;
-163.5000;0.6569;-5.5379;
-163.2000;0.6569;-5.5405;
-162.9000;0.6569;-5.5379;
-162.6000;0.6561;-5.5379;
-162.3000;0.6569;-5.5353;
-162.0000;0.6545;-5.5483;
-161.7000;0.6569;-5.5509;
-161.4000;0.6553;-5.5638;
-161.1000;0.6561;-5.5664;
-160.8000;0.6569;-5.5638;
-160.5000;0.6561;-5.5586;
-160.2000;0.6577;-5.5638;
-159.9000;0.6561;-5.5690;
-159.6000;0.6561;-5.5664;
-159.3000;0.6545;-5.5716;
-159.0000;0.6561;-5.5664;
-158.7000;0.6569;-5.5716;
-158.4000;0.6561;-5.5716;
-158.1000;0.6569;-5.5716;
-157.8000;0.6545;-5.5742;
-157.5000;0.6561;-5.5845;
-157.2000;0.6553;-5.5871;
-156.9000;0.6577;-5.5871;
-156.6000;0.6569;-5.5923;
-156.3000;0.6569;-5.5949;
-156.0000;0.6561;-5.6027;
-155.7000;0.6577;-5.6001;
-155.4000;0.6569;-5.6001;
-155.1000;0.6569;-5.6104;
-154.8000;0.6561;-5.6078;
-154.5000;0.6577;-5.5975;
-154.2000;0.6577;-5.6001;
-153.9000;0.6553;-5.5975;
-153.6000;0.6512;-5.6078;
-153.3000;0.6553;-5.5897;
-153.0000;0.6569;-5.5871;
-152.7000;0.6561;-5.5845;
-152.4000;0.6561;-5.5819;
-152.1000;0.6553;-5.5794;
-151.8000;0.6553;-5.5794;
-151.5000;0.6545;-5.5819;
-151.2000;0.6545;-5.5819;
-150.9000;0.6504;-5.5871;
-150.6000;0.6561;-5.5716;
-150.3000;0.6553;-5.5690;
-150.0000;0.6561;-5.5690;
-149.7000;0.6553;-5.5690;
-149.4000;0.6561;-5.5690;
-149.1000;0.6577;-5.5586;
-148.8000;0.6561;-5.5638;
-148.5000;0.6569;-5.5638;
-148.2000;0.6577;-5.5638;
-147.9000;0.6569;-5.5612;
-147.6000;0.6569;-5.5638;
-147.3000;0.6561;-5.5664;
-147.0000;0.6561;-5.5690;
-146.7000;0.6545;-5.5768;
-146.4000;0.6553;-5.5794;
-146.1000;0.6577;-5.5768;
-145.8000;0.6545;-5.5897;
-145.5000;0.6569;-5.5871;
-145.2000;0.6569;-5.5923;
-144.9000;0.6520;-5.5949;
-144.6000;0.6569;-5.5897;
-144.3000;0.6561;-5.5845;
-144.0000;0.6577;-5.5871;
-143.7000;0.6577;-5.5794;
-143.4000;0.6561;-5.5819;
-143.1000;0.6553;-5.5871;
-142.8000;0.6626;-5.5742;
-142.5000;0.6569;-5.5897;
-142.2000;0.6569;-5.5845;
-141.9000;0.6545;-5.5845;
-141.6000;0.6577;-5.5845;
-141.3000;0.6561;-5.5845;
-141.0000;0.6569;-5.5871;
-140.7000;0.6577;-5.5845;
-140.4000;0.6569;-5.5845;
-140.1000;0.6553;-5.5923;
-139.8000;0.6553;-5.5923;
-139.5000;0.6561;-5.5768;
-139.2000;0.6553;-5.5716;
-138.9000;0.6569;-5.5638;
-138.6000;0.6585;-5.5560;
-138.3000;0.6553;-5.5535;
-138.0000;0.6561;-5.5535;
-137.7000;0.6561;-5.5638;
-137.4000;0.6569;-5.5612;
-137.1000;0.6553;-5.5612;
-136.8000;0.6553;-5.5690;
-136.5000;0.6561;-5.5638;
-136.2000;0.6553;-5.5535;
-135.9000;0.6569;-5.5509;
-135.6000;0.6536;-5.5586;
-135.3000;0.6569;-5.5586;
-135.0000;0.6569;-5.5586;
-134.7000;0.6569;-5.5586;
-134.4000;0.6561;-5.5638;
-134.1000;0.6569;-5.5612;
-133.8000;0.6561;-5.5638;
-133.5000;0.6561;-5.5716;
-133.2000;0.6553;-5.5768;
-132.9000;0.6561;-5.5794;
-132.6000;0.6577;-5.5690;
-132.3000;0.6561;-5.5612;
-132.0000;0.6569;-5.5638;
-131.7000;0.6626;-5.5457;
-131.4000;0.6569;-5.5638;
-131.1000;0.6561;-5.5638;
-130.8000;0.6561;-5.5664;
-130.5000;0.6602;-5.5586;
-130.2000;0.6553;-5.5664;
-129.9000;0.6577;-5.5664;
-129.6000;0.6545;-5.5768;
-129.3000;0.6553;-5.5768;
-129.0000;0.6593;-5.5638;
-128.7000;0.6585;-5.5742;
-128.4000;0.6561;-5.5768;
-128.1000;0.6528;-5.5871;
-127.8000;0.6577;-5.5742;
-127.5000;0.6577;-5.5768;
-127.2000;0.6561;-5.5794;
-126.9000;0.6545;-5.5794;
-126.6000;0.6545;-5.5716;
-126.3000;0.6561;-5.5690;
-126.0000;0.6545;-5.5742;
-125.7000;0.6545;-5.5638;
-125.4000;0.6569;-5.5586;
-125.1000;0.6553;-5.5638;
-124.8000;0.6561;-5.5664;
-124.5000;0.6520;-5.5690;
-124.2000;0.6553;-5.5638;
-123.9000;0.6504;-5.5716;
-123.6000;0.6610;-5.5560;
-123.3000;0.6569;-5.5716;
-123.0000;0.6569;-5.5690;
-122.7000;0.6585;-5.5716;
-122.4000;0.6569;-5.5742;
-122.1000;0.6569;-5.5768;
-121.8000;0.6512;-5.5768;
-121.5000;0.6553;-5.5690;
-121.2000;0.6553;-5.5664;
-120.9000;0.6545;-5.5612;
-120.6000;0.6561;-5.5664;
-120.3000;0.6528;-5.5690;
-120.0000;0.6553;-5.5638;
-119.7000;0.6553;-5.5690;
-119.4000;0.6553;-5.5716;
-119.1000;0.6553;-5.5638;
-118.8000;0.6545;-5.5586;
-118.5000;0.6553;-5.5509;
-118.2000;0.6561;-5.5483;
-117.9000;0.6545;-5.5509;
-117.6000;0.6577;-5.5457;
-117.3000;0.6553;-5.5353;
-117.0000;0.6553;-5.5457;
-116.7000;0.6577;-5.5405;
-116.4000;0.6545;-5.5483;
-116.1000;0.6536;-5.5560;
-115.8000;0.6536;-5.5612;
-115.5000;0.6553;-5.5535;
-115.2000;0.6553;-5.5483;
-114.9000;0.6569;-5.5431;
-114.6000;0.6553;-5.5457;
-114.3000;0.6561;-5.5509;
-114.0000;0.6545;-5.5509;
-113.7000;0.6528;-5.5560;
-113.4000;0.6553;-5.5457;
-113.1000;0.6545;-5.5483;
-112.8000;0.6545;-5.5535;
-112.5000;0.6536;-5.5431;
-112.2000;0.6553;-5.5353;
-111.9000;0.6553;-5.5327;
-111.6000;0.6569;-5.5301;
-111.3000;0.6553;-5.5301;
-111.0000;0.6569;-5.5250;
-110.7000;0.6553;-5.5379;
-110.4000;0.6561;-5.5431;
-110.1000;0.6569;-5.5457;
-109.8000;0.6545;-5.5560;
-109.5000;0.6593;-5.5483;
-109.2000;0.6561;-5.5560;
-108.9000;0.6545;-5.5509;
-108.6000;0.6545;-5.5586;
-108.3000;0.6553;-5.5586;
-108.0000;0.6553;-5.5586;
-107.7000;0.6602;-5.5535;
-107.4000;0.6512;-5.5742;
-107.1000;0.6569;-5.5612;
-106.8000;0.6569;-5.5586;
-106.5000;0.6577;-5.5509;
-106.2000;0.6561;-5.5612;
-105.9000;0.6553;-5.5586;
-105.6000;0.6545;-5.5716;
-105.3000;0.6545;-5.5664;
-105.0000;0.6577;-5.5664;
-104.7000;0.6553;-5.5664;
-104.4000;0.6545;-5.5664;
-104.1000;0.6626;-5.5405;
-103.8000;0.6545;-5.5690;
-103.5000;0.6553;-5.5716;
-103.2000;0.6545;-5.5716;
-102.9000;0.6553;-5.5690;
-102.6000;0.6569;-5.5664;
-102.3000;0.6553;-5.5560;
-102.0000;0.6528;-5.5586;
-101.7000;0.6626;-5.5431;
-101.4000;0.6593;-5.5483;
-101.1000;0.6553;-5.5612;
-100.8000;0.6545;-5.5586;
-100.5000;0.6553;-5.5509;
-100.2000;0.6553;-5.5560;
-99.9000;0.6561;-5.5535;
-99.6000;0.6545;-5.5560;
-99.3000;0.6561;-5.5483;
-99.0000;0.6536;-5.5535;
-98.7000;0.6553;-5.5483;
-98.4000;0.6561;-5.5431;
-98.1000;0.6561;-5.5405;
-97.8000;0.6553;-5.5483;
-97.5000;0.6561;-5.5535;
-97.2000;0.6553;-5.5457;
-96.9000;0.6577;-5.5483;
-96.6000;0.6553;-5.5483;
-96.3000;0.6561;-5.5535;
-96.0000;0.6520;-5.5560;
-95.7000;0.6545;-5.5560;
-95.4000;0.6545;-5.5535;
-95.1000;0.6569;-5.5612;
-94.8000;0.6577;-5.5716;
-94.5000;0.6561;-5.5819;
-94.2000;0.6561;-5.5768;
-93.9000;0.6553;-5.5742;
-93.6000;0.6545;-5.5742;
-93.3000;0.6528;-5.5742;
-93.0000;0.6545;-5.5742;
-92.7000;0.6569;-5.5794;
-92.4000;0.6561;-5.5819;
-92.1000;0.6488;-5.5975;
-91.8000;0.6593;-5.5586;
-91.5000;0.6569;-5.5742;
-91.2000;0.6528;-5.5845;
-90.9000;0.6545;-5.5742;
-90.6000;0.6553;-5.5690;
-90.3000;0.6569;-5.5768;
-90.0000;0.6553;-5.5845;
-89.7000;0.6553;-5.5897;
-89.4000;0.6553;-5.5871;
-89.1000;0.6561;-5.5845;
-88.8000;0.6536;-5.5897;
-88.5000;0.6577;-5.5794;
-88.2000;0.6545;-5.5819;
-87.9000;0.6553;-5.5949;
-87.6000;0.6553;-5.6053;
-87.3000;0.6569;-5.6104;
-87.0000;0.6553;-5.6078;
-86.7000;0.6569;-5.5923;
-86.4000;0.6569;-5.5871;
-86.1000;0.6553;-5.5871;
-85.8000;0.6553;-5.5975;
-85.5000;0.6561;-5.6027;
-85.2000;0.6536;-5.6078;
-84.9000;0.6553;-5.6001;
-84.6000;0.6561;-5.5949;
-84.3000;0.6585;-5.5871;
-84.0000;0.6569;-5.5897;
-83.7000;0.6569;-5.5845;
-83.4000;0.6520;-5.5975;
-83.1000;0.6553;-5.5871;
-82.8000;0.6561;-5.5845;
-82.5000;0.6569;-5.5794;
-82.2000;0.6593;-5.5612;
-81.9000;0.6561;-5.5768;
-81.6000;0.6528;-5.5845;
-81.3000;0.6585;-5.5742;
-81.0000;0.6569;-5.5871;
-80.7000;0.6561;-5.5794;
-80.4000;0.6553;-5.5690;
-80.1000;0.6504;-5.5845;
-79.8000;0.6561;-5.5638;
-79.5000;0.6545;-5.5690;
-79.2000;0.6553;-5.5586;
-78.9000;0.6553;-5.5560;
-78.6000;0.6553;-5.5612;
-78.3000;0.6536;-5.5664;
-78.0000;0.6593;-5.5586;
-77.7000;0.6545;-5.5716;
-77.4000;0.6569;-5.5535;
-77.1000;0.6569;-5.5638;
-76.8000;0.6553;-5.5716;
-76.5000;0.6561;-5.5716;
-76.2000;0.6561;-5.5742;
-75.9000;0.6561;-5.5690;
-75.6000;0.6553;-5.5768;
-75.3000;0.6553;-5.5742;
-75.0000;0.6569;-5.5716;
-74.7000;0.6569;-5.5768;
-74.4000;0.6553;-5.5742;
-74.1000;0.6553;-5.5716;
-73.8000;0.6593;-5.5638;
-73.5000;0.6553;-5.5794;
-73.2000;0.6545;-5.5871;
-72.9000;0.6561;-5.5794;
-72.6000;0.6569;-5.5768;
-72.3000;0.6569;-5.5768;
-72.0000;0.6561;-5.5845;
-71.7000;0.6553;-5.5794;
-71.4000;0.6553;-5.5768;
-71.1000;0.6561;-5.5768;
-70.8000;0.6545;-5.5742;
-70.5000;0.6561;-5.5742;
-70.2000;0.6569;-5.5690;
-69.9000;0.6585;-5.5612;
-69.6000;0.6561;-5.5664;
-69.3000;0.6561;-5.5716;
-69.0000;0.6561;-5.5638;
-68.7000;0.6553;-5.5664;
-68.4000;0.6553;-5.5638;
-68.1000;0.6512;-5.5638;
-67.8000;0.6512;-5.5664;
-67.5000;0.6553;-5.5509;
-67.2000;0.6569;-5.5483;
-66.9000;0.6553;-5.5535;
-66.6000;0.6561;-5.5509;
-66.3000;0.6585;-5.5612;
-66.0000;0.6553;-5.5690;
-65.7000;0.6561;-5.5638;
-65.4000;0.6569;-5.5638;
-65.1000;0.6569;-5.5612;
-64.8000;0.6545;-5.5586;
-64.5000;0.6545;-5.5586;
-64.2000;0.6569;-5.5560;
-63.9000;0.6577;-5.5509;
-63.6000;0.6569;-5.5509;
-63.3000;0.6561;-5.5586;
-63.0000;0.6569;-5.5638;
-62.7000;0.6553;-5.5638;
-62.4000;0.6553;-5.5664;
-62.1000;0.6561;-5.5612;
-61.8000;0.6561;-5.5690;
-61.5000;0.6569;-5.5664;
-61.2000;0.6561;-5.5664;
-60.9000;0.6561;-5.5716;
-60.6000;0.6479;-5.5871;
-60.3000;0.6561;-5.5690;
-60.0000;0.6577;-5.5664;
-59.7000;0.6569;-5.5586;
-59.4000;0.6561;-5.5560;
-59.1000;0.6561;-5.5586;
-58.8000;0.6545;-5.5742;
-58.5000;0.6553;-5.5638;
-58.2000;0.6585;-5.5560;
-57.9000;0.6561;-5.5690;
-57.6000;0.6569;-5.5690;
-57.3000;0.6545;-5.5612;
-57.0000;0.6553;-5.5638;
-56.7000;0.6561;-5.5638;
-56.4000;0.6545;-5.5716;
-56.1000;0.6553;-5.5664;
-55.8000;0.6561;-5.5612;
-55.5000;0.6545;-5.5690;
-55.2000;0.6545;-5.5716;
-54.9000;0.6569;-5.5716;
-54.6000;0.6496;-5.5768;
-54.3000;0.6553;-5.5638;
-54.0000;0.6536;-5.5586;
-53.7000;0.6545;-5.5612;
-53.4000;0.6504;-5.5768;
-53.1000;0.6536;-5.5664;
-52.8000;0.6545;-5.5638;
-52.5000;0.6553;-5.5612;
-52.2000;0.6536;-5.5638;
-51.9000;0.6561;-5.5612;
-51.6000;0.6561;-5.5535;
-51.3000;0.6536;-5.5560;
-51.0000;0.6569;-5.5483;
-50.7000;0.6561;-5.5483;
-50.4000;0.6561;-5.5353;
-50.1000;0.6561;-5.5379;
-49.8000;0.6545;-5.5431;
-49.5000;0.6561;-5.5457;
-49.2000;0.6561;-5.5457;
-48.9000;0.6545;-5.5431;
-48.6000;0.6561;-5.5457;
-48.3000;0.6553;-5.5457;
-48.0000;0.6545;-5.5612;
-47.7000;0.6455;-5.5871;
-47.4000;0.6545;-5.5716;
-47.1000;0.6536;-5.5768;
-46.8000;0.6561;-5.5794;
-46.5000;0.6553;-5.5819;
-46.2000;0.6545;-5.5819;
-45.9000;0.6561;-5.5768;
-45.6000;0.6545;-5.5794;
-45.3000;0.6553;-5.5690;
-45.0000;0.6585;-5.5612;
-44.7000;0.6553;-5.5664;
-44.4000;0.6561;-5.5586;
-44.1000;0.6545;-5.5509;
-43.8000;0.6528;-5.5535;
-43.5000;0.6561;-5.5535;
-43.2000;0.6561;-5.5535;
-42.9000;0.6569;-5.5431;
-42.6000;0.6545;-5.5586;
-42.3000;0.6561;-5.5612;
-42.0000;0.6561;-5.5638;
-41.7000;0.6553;-5.5716;
-41.4000;0.6569;-5.5664;
-41.1000;0.6545;-5.5638;
-40.8000;0.6569;-5.5664;
-40.5000;0.6585;-5.5535;
-40.2000;0.6561;-5.5612;
-39.9000;0.6561;-5.5586;
-39.6000;0.6553;-5.5560;
-39.3000;0.6553;-5.5483;
-39.0000;0.6545;-5.5638;
-38.7000;0.6602;-5.5586;
-38.4000;0.6553;-5.5664;
-38.1000;0.6553;-5.5664;
-37.8000;0.6569;-5.5612;
-37.5000;0.6569;-5.5612;
-37.2000;0.6569;-5.5690;
-36.9000;0.6553;-5.5664;
-36.6000;0.6545;-5.5638;
-36.3000;0.6561;-5.5586;
-36.0000;0.6528;-5.5690;
-35.7000;0.6536;-5.5664;
-35.4000;0.6561;-5.5586;
-35.1000;0.6545;-5.5664;
-34.8000;0.6561;-5.5586;
-34.5000;0.6569;-5.5560;
-34.2000;0.6577;-5.5664;
-33.9000;0.6561;-5.5612;
-33.6000;0.6561;-5.5612;
-33.3000;0.6536;-5.5638;
-33.0000;0.6553;-5.5716;
-32.7000;0.6569;-5.5586;
-32.4000;0.6553;-5.5560;
-32.1000;0.6553;-5.5612;
-31.8000;0.6553;-5.5612;
-31.5000;0.6528;-5.5690;
-31.2000;0.6553;-5.5612;
-30.9000;0.6545;-5.5638;
-30.6000;0.6634;-5.5327;
-30.3000;0.6561;-5.5535;
-30.0000;0.6553;-5.5586;
-29.7000;0.6577;-5.5509;
-29.4000;0.6545;-5.5664;
-29.1000;0.6569;-5.5638;
-28.8000;0.6561;-5.5690;
-28.5000;0.6561;-5.5638;
-28.2000;0.6561;-5.5664;
-27.9000;0.6610;-5.5535;
-27.6000;0.6561;-5.5742;
-27.3000;0.6561;-5.5768;
-27.0000;0.6561;-5.5742;
-26.7000;0.6561;-5.5716;
-26.4000;0.6561;-5.5690;
-26.1000;0.6545;-5.5742;
-25.8000;0.6561;-5.5690;
-25.5000;0.6545;-5.5690;
-25.2000;0.6545;-5.5742;
-24.9000;0.6569;-5.5638;
-24.6000;0.6553;-5.5638;
-24.3000;0.6585;-5.5535;
-24.0000;0.6553;-5.5586;
-23.7000;0.6561;-5.5638;
-23.4000;0.6561;-5.5664;
-23.1000;0.6561;-5.5612;
-22.8000;0.6545;-5.5664;
-22.5000;0.6545;-5.5638;
-22.2000;0.6585;-5.5509;
-21.9000;0.6553;-5.5535;
-21.6000;0.6553;-5.5483;
-21.3000;0.6561;-5.5483;
-21.0000;0.6561;-5.5483;
-20.7000;0.6545;-5.5509;
-20.4000;0.6569;-5.5509;
-20.1000;0.6553;-5.5586;
-19.8000;0.6553;-5.5638;
-19.5000;0.6569;-5.5612;
-19.2000;0.6553;-5.5638;
-18.9000;0.6561;-5.5612;
-18.6000;0.6569;-5.5560;
-18.3000;0.6561;-5.5612;
-18.0000;0.6561;-5.5586;
-17.7000;0.6553;-5.5560;
-17.4000;0.6553;-5.5586;
-17.1000;0.6561;-5.5509;
-16.8000;0.6569;-5.5509;
-16.5000;0.6569;-5.5483;
-16.2000;0.6569;-5.5560;
-15.9000;0.6569;-5.5535;
-15.6000;0.6512;-5.5690;
-15.3000;0.6561;-5.5535;
-15.0000;0.6569;-5.5483;
-14.7000;0.6561;-5.5638;
-14.4000;0.6561;-5.5664;
-14.1000;0.6561;-5.5716;
-13.8000;0.6553;-5.5690;
-13.5000;0.6593;-5.5638;
-13.2000;0.6536;-5.5819;
-12.9000;0.6553;-5.5768;
-12.6000;0.6569;-5.5716;
-12.3000;0.6545;-5.5664;
-12.0000;0.6545;-5.5638;
-11.7000;0.6545;-5.5664;
-11.4000;0.6561;-5.5690;
-11.1000;0.6545;-5.5690;
-10.8000;0.6569;-5.5586;
-10.5000;0.6545;-5.5586;
-10.2000;0.6536;-5.5638;
-9.9000;0.6561;-5.5535;
-9.6000;0.6561;-5.5560;
-9.3000;0.6569;-5.5535;
-9.0000;0.6561;-5.5612;
-8.7000;0.6569;-5.5664;
-8.4000;0.6561;-5.5716;
-8.1000;0.6553;-5.5768;
-7.8000;0.6520;-5.5819;
-7.5000;0.6545;-5.5794;
-7.2000;0.6561;-5.5716;
-6.9000;0.6536;-5.5742;
-6.6000;0.6569;-5.5664;
-6.3000;0.6553;-5.5716;
-6.0000;0.6561;-5.5664;
-5.7000;0.6553;-5.5742;
-5.4000;0.6561;-5.5742;
-5.1000;0.6553;-5.5845;
-4.8000;0.6553;-5.5768;
-4.5000;0.6569;-5.5819;
-4.2000;0.6553;-5.5794;
-3.9000;0.6569;-5.5768;
-3.6000;0.6536;-5.5794;
-3.3000;0.6536;-5.5819;
-3.0000;0.6569;-5.5716;
-2.7000;0.6585;-5.5586;
-2.4000;0.6561;-5.5638;
-2.1000;0.6561;-5.5716;
-1.8000;0.6561;-5.5638;
-1.5000;0.6561;-5.5664;
-1.2000;0.6561;-5.5690;
-0.9000;0.6561;-5.5638;
-0.6000;0.6561;-5.5716;
-0.3000;0.6569;-5.5794;
0.0000;0.6569;-5.5794;
0.3000;0.6829;-5.5871;
0.6000;0.7277;-5.5146;
0.9000;0.7684;-5.4343;
1.2000;0.7912;-5.3799;
1.5000;0.8148;-5.3203;
1.8000;0.8352;-5.2659;
2.1000;0.8466;-5.2400;
2.4000;0.8506;-5.2167;
2.7000;0.8645;-5.1727;
3.0000;0.8751;-5.1468;
3.3000;0.8799;-5.1364;
3.6000;0.8873;-5.1312;
3.9000;0.8921;-5.1235;
4.2000;0.8962;-5.1183;
4.5000;0.9003;-5.1053;
4.8000;0.9052;-5.0950;
5.1000;0.9092;-5.0950;
5.4000;0.9133;-5.0976;
5.7000;0.9166;-5.0950;
6.0000;0.9198;-5.0924;
6.3000;0.9231;-5.0898;
6.6000;0.9223;-5.0898;
6.9000;0.9280;-5.0820;
7.2000;0.9328;-5.0794;
7.5000;0.9304;-5.0743;
7.8000;0.9377;-5.0639;
8.1000;0.9394;-5.0639;
8.4000;0.9434;-5.0587;
8.7000;0.9451;-5.0535;
9.0000;0.9483;-5.0509;
9.3000;0.9508;-5.0509;
9.6000;0.9516;-5.0561;
9.9000;0.9556;-5.0561;
10.2000;0.9573;-5.0613;
10.5000;0.9613;-5.0587;
10.8000;0.9646;-5.0561;
11.1000;0.9630;-5.0665;
11.4000;0.9670;-5.0535;
11.7000;0.9711;-5.0561;
12.0000;0.9711;-5.0717;
12.3000;0.9735;-5.0639;
12.6000;0.9735;-5.0665;
12.9000;0.9776;-5.0613;
13.2000;0.9809;-5.0587;
13.5000;0.9817;-5.0561;
13.8000;0.9833;-5.0665;
14.1000;0.9825;-5.0743;
14.4000;0.9858;-5.0665;
14.7000;0.9882;-5.0639;
15.0000;0.9915;-5.0691;
15.3000;0.9931;-5.0665;
15.6000;0.9947;-5.0743;
15.9000;0.9988;-5.0717;
16.2000;0.9972;-5.0768;
16.5000;0.9988;-5.0768;
16.8000;0.9996;-5.0820;
17.1000;1.0012;-5.0794;
17.4000;1.0037;-5.0794;
17.7000;1.0037;-5.0768;
18.0000;1.0061;-5.0743;
18.3000;1.0077;-5.0743;
18.6000;1.0094;-5.0794;
18.9000;1.0118;-5.0872;
19.2000;1.0110;-5.0950;
19.5000;1.0126;-5.0950;
19.8000;1.0134;-5.0872;
20.1000;1.0142;-5.0872;
20.4000;1.0175;-5.0924;
20.7000;1.0183;-5.0976;
21.0000;1.0208;-5.0924;
21.3000;1.0199;-5.1002;
21.6000;1.0208;-5.1053;
21.9000;1.0232;-5.1053;
22.2000;1.0216;-5.1157;
22.5000;1.0248;-5.1105;
22.8000;1.0240;-5.1131;
23.1000;1.0265;-5.1131;
23.4000;1.0240;-5.1105;
23.7000;1.0281;-5.1028;
24.0000;1.0273;-5.0950;
24.3000;1.0322;-5.0768;
24.6000;1.0305;-5.0794;
24.9000;1.0322;-5.0743;
25.2000;1.0330;-5.0743;
25.5000;1.0305;-5.0743;
25.8000;1.0330;-5.0743;
26.1000;1.0322;-5.0794;
26.4000;1.0338;-5.0846;
26.7000;1.0362;-5.0794;
27.0000;1.0370;-5.0846;
27.3000;1.0362;-5.0846;
27.6000;1.0370;-5.0768;
27.9000;1.0379;-5.0794;
28.2000;1.0452;-5.0768;
28.5000;1.0427;-5.0898;
28.8000;1.0403;-5.0976;
29.1000;1.0403;-5.0950;
29.4000;1.0435;-5.1002;
29.7000;1.0435;-5.1157;
30.0000;1.0444;-5.1157;
30.3000;1.0435;-5.1131;
30.6000;1.0370;-5.1209;
30.9000;1.0460;-5.1002;
31.2000;1.0452;-5.0976;
31.5000;1.0468;-5.1028;
31.8000;1.0460;-5.1079;
32.1000;1.0468;-5.1053;
32.4000;1.0476;-5.1028;
32.7000;1.0460;-5.1079;
33.0000;1.0468;-5.1183;
33.3000;1.0484;-5.1183;
33.6000;1.0484;-5.1183;
33.9000;1.0460;-5.1209;
34.2000;1.0501;-5.1157;
34.5000;1.0484;-5.1235;
34.8000;1.0492;-5.1209;
35.1000;1.0501;-5.1261;
35.4000;1.0509;-5.1183;
35.7000;1.0509;-5.1157;
36.0000;1.0476;-5.1235;
36.3000;1.0525;-5.1053;
36.6000;1.0533;-5.1028;
36.9000;1.0501;-5.1105;
37.2000;1.0517;-5.1079;
37.5000;1.0541;-5.1002;
37.8000;1.0549;-5.1002;
38.1000;1.0517;-5.1002;
38.4000;1.0525;-5.0976;
38.7000;1.0533;-5.0950;
39.0000;1.0533;-5.1002;
39.3000;1.0525;-5.1131;
39.6000;1.0541;-5.1105;
39.9000;1.0509;-5.1209;
40.2000;1.0558;-5.1105;
40.5000;1.0566;-5.1053;
40.8000;1.0549;-5.1053;
41.1000;1.0566;-5.1079;
41.4000;1.0558;-5.1209;
41.7000;1.0574;-5.1157;
42.0000;1.0574;-5.1183;
42.3000;1.0574;-5.1312;
42.6000;1.0574;-5.1364;
42.9000;1.0598;-5.1338;
43.2000;1.0566;-5.1442;
43.5000;1.0582;-5.1364;
43.8000;1.0590;-5.1364;
44.1000;1.0598;-5.1338;
44.4000;1.0582;-5.1338;
44.7000;1.0582;-5.1287;
45.0000;1.0590;-5.1261;
45.3000;1.0615;-5.1183;
45.6000;1.0598;-5.1338;
45.9000;1.0680;-5.1183;
46.2000;1.0598;-5.1338;
46.5000;1.0590;-5.1338;
46.8000;1.0574;-5.1416;
47.1000;1.0590;-5.1312;
47.4000;1.0655;-5.1131;
47.7000;1.0615;-5.1235;
48.0000;1.0631;-5.1287;
48.3000;1.0615;-5.1312;
48.6000;1.0598;-5.1468;
48.9000;1.0631;-5.1416;
49.2000;1.0623;-5.1468;
49.5000;1.0639;-5.1416;
49.8000;1.0655;-5.1390;
50.1000;1.0623;-5.1442;
50.4000;1.0639;-5.1390;
50.7000;1.0631;-5.1468;
51.0000;1.0623;-5.1390;
51.3000;1.0647;-5.1312;
51.6000;1.0623;-5.1442;
51.9000;1.0680;-5.1390;
52.2000;1.0647;-5.1468;
52.5000;1.0672;-5.1338;
52.8000;1.0655;-5.1416;
53.1000;1.0647;-5.1468;
53.4000;1.0639;-5.1494;
53.7000;1.0606;-5.1546;
54.0000;1.0663;-5.1390;
54.3000;1.0647;-5.1416;
54.6000;1.0663;-5.1364;
54.9000;1.0647;-5.1312;
55.2000;1.0623;-5.1364;
55.5000;1.0672;-5.1235;
55.8000;1.0663;-5.1261;
56.1000;1.0672;-5.1261;
56.4000;1.0663;-5.1183;
56.7000;1.0663;-5.1131;
57.0000;1.0672;-5.1131;
57.3000;1.0680;-5.1183;
57.6000;1.0672;-5.1209;
57.9000;1.0680;-5.1209;
58.2000;1.0688;-5.1235;
58.5000;1.0688;-5.1261;
58.8000;1.0680;-5.1183;
59.1000;1.0672;-5.1209;
59.4000;1.0696;-5.1287;
59.7000;1.0680;-5.1338;
60.0000;1.0737;-5.1209;
60.3000;1.0672;-5.1364;
60.6000;1.0696;-5.1338;
60.9000;1.0688;-5.1312;
61.2000;1.0680;-5.1312;
61.5000;1.0672;-5.1312;
61.8000;1.0704;-5.1235;
62.1000;1.0655;-5.1390;
62.4000;1.0696;-5.1287;
62.7000;1.0680;-5.1312;
63.0000;1.0688;-5.1261;
63.3000;1.0704;-5.1287;
63.6000;1.0688;-5.1364;
63.9000;1.0688;-5.1416;
64.2000;1.0696;-5.1416;
64.5000;1.0704;-5.1494;
64.8000;1.0704;-5.1494;
65.1000;1.0704;-5.1442;
65.4000;1.0712;-5.1442;
65.7000;1.0712;-5.1364;
66.0000;1.0696;-5.1390;
66.3000;1.0680;-5.1390;
66.6000;1.0704;-5.1312;
66.9000;1.0704;-5.1235;
67.2000;1.0696;-5.1338;
67.5000;1.0696;-5.1287;
67.8000;1.0704;-5.1287;
68.1000;1.0720;-5.1312;
68.4000;1.0729;-5.1261;
68.7000;1.0688;-5.1287;
69.0000;1.0712;-5.1312;
69.3000;1.0712;-5.1338;
69.6000;1.0720;-5.1287;
69.9000;1.0688;-5.1364;
70.2000;1.0737;-5.1338;
70.5000;1.0696;-5.1494;
70.8000;1.0696;-5.1494;
71.1000;1.0647;-5.1649;
71.4000;1.0729;-5.1442;
71.7000;1.0712;-5.1390;
72.0000;1.0688;-5.1416;
72.3000;1.0696;-5.1416;
72.6000;1.0712;-5.1338;
72.9000;1.0704;-5.1468;
73.2000;1.0704;-5.1494;
73.5000;1.0720;-5.1520;
73.8000;1.0704;-5.1571;
74.1000;1.0704;-5.1623;
74.4000;1.0696;-5.1675;
74.7000;1.0720;-5.1571;
75.0000;1.0712;-5.1520;
75.3000;1.0720;-5.1468;
75.6000;1.0712;-5.1416;
75.9000;1.0712;-5.1364;
76.2000;1.0712;-5.1338;
76.5000;1.0712;-5.1364;
76.8000;1.0720;-5.1416;
77.1000;1.0712;-5.1364;
77.4000;1.0745;-5.1235;
77.7000;1.0753;-5.1312;
78.0000;1.0720;-5.1416;
78.3000;1.0696;-5.1442;
78.6000;1.0810;-5.1235;
78.9000;1.0712;-5.1546;
79.2000;1.0688;-5.1623;
79.5000;1.0729;-5.1597;
79.8000;1.0737;-5.1571;
80.1000;1.0680;-5.1675;
80.4000;1.0688;-5.1649;
80.7000;1.0712;-5.1571;
81.0000;1.0737;-5.1597;
81.3000;1.0720;-5.1597;
81.6000;1.0729;-5.1546;
81.9000;1.0729;-5.1675;
82.2000;1.0720;-5.1701;
82.5000;1.0737;-5.1675;
82.8000;1.0745;-5.1597;
83.1000;1.0729;-5.1649;
83.4000;1.0720;-5.1623;
83.7000;1.0729;-5.1675;
84.0000;1.0753;-5.1649;
84.3000;1.0720;-5.1727;
84.6000;1.0745;-5.1701;
84.9000;1.0753;-5.1701;
85.2000;1.0753;-5.1701;
85.5000;1.0745;-5.1701;
85.8000;1.0729;-5.1701;
86.1000;1.0745;-5.1649;
86.4000;1.0745;-5.1597;
86.7000;1.0729;-5.1623;
87.0000;1.0737;-5.1546;
87.3000;1.0729;-5.1520;
87.6000;1.0737;-5.1623;
87.9000;1.0745;-5.1546;
88.2000;1.0777;-5.1520;
88.5000;1.0745;-5.1753;
88.8000;1.0761;-5.1753;
89.1000;1.0745;-5.1805;
89.4000;1.0753;-5.1830;
89.7000;1.0753;-5.1753;
90.0000;1.0761;-5.1649;
90.3000;1.0786;-5.1597;
90.6000;1.0753;-5.1649;
90.9000;1.0786;-5.1649;
91.2000;1.0794;-5.1623;
91.5000;1.0769;-5.1727;
91.8000;1.0753;-5.1753;
92.1000;1.0680;-5.1908;
92.4000;1.0761;-5.1753;
92.7000;1.0777;-5.1727;
93.0000;1.0753;-5.1830;
93.3000;1.0745;-5.1753;
93.6000;1.0761;-5.1649;
93.9000;1.0777;-5.1649;
94.2000;1.0769;-5.1649;
94.5000;1.0769;-5.1701;
94.8000;1.0720;-5.1779;
95.1000;1.0761;-5.1675;
95.4000;1.0761;-5.1753;
95.7000;1.0777;-5.1805;
96.0000;1.0753;-5.1882;
96.3000;1.0745;-5.1830;
96.6000;1.0745;-5.1805;
96.9000;1.0720;-5.1934;
97.2000;1.0737;-5.1882;
97.5000;1.0761;-5.1753;
97.8000;1.0737;-5.1830;
98.1000;1.0753;-5.1856;
98.4000;1.0729;-5.1908;
98.7000;1.0761;-5.1779;
99.0000;1.0769;-5.1830;
99.3000;1.0777;-5.1830;
99.6000;1.0753;-5.1908;
99.9000;1.0769;-5.1882;
100.2000;1.0777;-5.1934;
100.5000;1.0737;-5.2038;
100.8000;1.0769;-5.2038;
101.1000;1.0753;-5.2090;
101.4000;1.0761;-5.2064;
101.7000;1.0753;-5.2090;
102.0000;1.0761;-5.2012;
102.3000;1.0761;-5.2012;
102.6000;1.0761;-5.1986;
102.9000;1.0769;-5.1986;
103.2000;1.0769;-5.2012;
103.5000;1.0737;-5.2064;
103.8000;1.0769;-5.1986;
104.1000;1.0769;-5.1960;
104.4000;1.0761;-5.2012;
104.7000;1.0761;-5.1986;
105.0000;1.0769;-5.2064;
105.3000;1.0786;-5.2012;
105.6000;1.0761;-5.2012;
105.9000;1.0753;-5.2012;
106.2000;1.0761;-5.1986;
106.5000;1.0753;-5.1960;
106.8000;1.0786;-5.1960;
107.1000;1.0769;-5.2012;
107.4000;1.0761;-5.2090;
107.7000;1.0753;-5.1986;
108.0000;1.0769;-5.2012;
108.3000;1.0769;-5.2038;
108.6000;1.0777;-5.2038;
108.9000;1.0786;-5.2064;
109.2000;1.0769;-5.2038;
109.5000;1.0777;-5.1986;
109.8000;1.0769;-5.2038;
110.1000;1.0777;-5.2012;
110.4000;1.0769;-5.1960;
110.7000;1.0786;-5.1908;
111.0000;1.0753;-5.1986;
111.3000;1.0777;-5.1960;
111.6000;1.0769;-5.1960;
111.9000;1.0777;-5.1882;
112.2000;1.0745;-5.1986;
112.5000;1.0761;-5.1908;
112.8000;1.0794;-5.1934;
113.1000;1.0769;-5.1934;
113.4000;1.0769;-5.1986;
113.7000;1.0769;-5.1986;
114.0000;1.0769;-5.1908;
114.3000;1.0802;-5.1830;
114.6000;1.0794;-5.1830;
114.9000;1.0761;-5.1882;
115.2000;1.0769;-5.1934;
115.5000;1.0777;-5.1934;
115.8000;1.0810;-5.1805;
116.1000;1.0786;-5.1934;
116.4000;1.0786;-5.1986;
116.7000;1.0818;-5.1882;
117.0000;1.0802;-5.1960;
117.3000;1.0769;-5.2038;
117.6000;1.0786;-5.1986;
117.9000;1.0777;-5.1934;
118.2000;1.0753;-5.2012;
118.5000;1.0786;-5.1986;
118.8000;1.0777;-5.1960;
119.1000;1.0769;-5.2012;
119.4000;1.0786;-5.1960;
119.7000;1.0786;-5.1908;
120.0000;1.0753;-5.1986;
120.3000;1.0753;-5.1986;
120.6000;1.0761;-5.1882;
120.9000;1.0786;-5.1856;
121.2000;1.0794;-5.1960;
121.5000;1.0802;-5.1882;
121.8000;1.0769;-5.1960;
122.1000;1.0777;-5.1986;
122.4000;1.0777;-5.2090;
122.7000;1.0769;-5.2038;
123.0000;1.0777;-5.1986;
123.3000;1.0794;-5.2038;
123.6000;1.0851;-5.1986;
123.9000;1.0786;-5.2141;
124.2000;1.0826;-5.2012;
124.5000;1.0842;-5.1934;
124.8000;1.0786;-5.1986;
125.1000;1.0777;-5.1986;
125.4000;1.0777;-5.2064;
125.7000;1.0802;-5.2012;
126.0000;1.0786;-5.2038;
126.3000;1.0777;-5.2012;
126.6000;1.0786;-5.2038;
126.9000;1.0786;-5.2038;
127.2000;1.0802;-5.1986;
127.5000;1.0777;-5.2012;
127.8000;1.0777;-5.2038;
128.1000;1.0786;-5.1960;
128.4000;1.0786;-5.1986;
128.7000;1.0786;-5.1934;
129.0000;1.0786;-5.1882;
129.3000;1.0794;-5.1882;
129.6000;1.0794;-5.1960;
129.9000;1.0794;-5.1934;
130.2000;1.0786;-5.1960;
130.5000;1.0818;-5.1882;
130.8000;1.0794;-5.1882;
131.1000;1.0777;-5.1934;
131.4000;1.0802;-5.1908;
131.7000;1.0810;-5.1805;
132.0000;1.0786;-5.1830;
132.3000;1.0810;-5.1830;
132.6000;1.0810;-5.1934;
132.9000;1.0810;-5.1934;
133.2000;1.0802;-5.1856;
133.5000;1.0859;-5.1675;
133.8000;1.0802;-5.1908;
134.1000;1.0802;-5.1830;
134.4000;1.0794;-5.1882;
134.7000;1.0826;-5.1908;
135.0000;1.0810;-5.1934;
135.3000;1.0810;-5.2012;
135.6000;1.0786;-5.2064;
135.9000;1.0786;-5.2115;
136.2000;1.0802;-5.2115;
136.5000;1.0794;-5.2219;
136.8000;1.0786;-5.2141;
137.1000;1.0786;-5.2141;
137.4000;1.0802;-5.2115;
137.7000;1.0777;-5.2193;
138.0000;1.0826;-5.2141;
138.3000;1.0786;-5.2271;
138.6000;1.0786;-5.2297;
138.9000;1.0810;-5.2374;
139.2000;1.0794;-5.2374;
139.5000;1.0794;-5.2374;
139.8000;1.0810;-5.2297;
140.1000;1.0802;-5.2323;
140.4000;1.0802;-5.2323;
140.7000;1.0818;-5.2219;
141.0000;1.0810;-5.2167;
141.3000;1.0810;-5.2193;
141.6000;1.0786;-5.2297;
141.9000;1.0810;-5.2245;
142.2000;1.0851;-5.2090;
142.5000;1.0818;-5.2115;
142.8000;1.0802;-5.2141;
143.1000;1.0834;-5.2064;
143.4000;1.0794;-5.2090;
143.7000;1.0802;-5.1986;
144.0000;1.0794;-5.2012;
144.3000;1.0802;-5.2064;
144.6000;1.0786;-5.2090;
144.9000;1.0777;-5.2090;
145.2000;1.0802;-5.1934;
145.5000;1.0777;-5.2038;
145.8000;1.0802;-5.1934;
146.1000;1.0818;-5.1908;
146.4000;1.0794;-5.1960;
146.7000;1.0802;-5.1986;
147.0000;1.0794;-5.2038;
147.3000;1.0786;-5.1960;
147.6000;1.0810;-5.2012;
147.9000;1.0794;-5.2064;
148.2000;1.0794;-5.2064;
148.5000;1.0794;-5.2090;
148.8000;1.0786;-5.2167;
149.1000;1.0810;-5.2167;
149.4000;1.0769;-5.2245;
149.7000;1.0786;-5.2167;
150.0000;1.0802;-5.2271;
150.3000;1.0777;-5.2426;
150.6000;1.0802;-5.2297;
150.9000;1.0794;-5.2271;
151.2000;1.0834;-5.2271;
151.5000;1.0826;-5.2297;
151.8000;1.0802;-5.2245;
152.1000;1.0802;-5.2193;
152.4000;1.0826;-5.2141;
152.7000;1.0810;-5.2271;
153.0000;1.0810;-5.2349;
153.3000;1.0818;-5.2323;
153.6000;1.0786;-5.2349;
153.9000;1.0810;-5.2323;
154.2000;1.0794;-5.2271;
154.5000;1.0786;-5.2297;
154.8000;1.0769;-5.2323;
155.1000;1.0802;-5.2271;
155.4000;1.0769;-5.2349;
155.7000;1.0810;-5.2193;
156.0000;1.0794;-5.2167;
156.3000;1.0794;-5.2141;
156.6000;1.0802;-5.2012;
156.9000;1.0786;-5.2064;
157.2000;1.0786;-5.2090;
157.5000;1.0794;-5.2064;
157.8000;1.0786;-5.2193;
158.1000;1.0802;-5.2167;
158.4000;1.0802;-5.2115;
158.7000;1.0810;-5.2141;
159.0000;1.0818;-5.2141;
159.3000;1.0794;-5.2219;
159.6000;1.0786;-5.2090;
159.9000;1.0794;-5.2115;
160.2000;1.0802;-5.2167;
160.5000;1.0802;-5.2271;
160.8000;1.0810;-5.2323;
161.1000;1.0777;-5.2504;
161.4000;1.0810;-5.2374;
161.7000;1.0802;-5.2245;
162.0000;1.0818;-5.2245;
162.3000;1.0794;-5.2349;
162.6000;1.0818;-5.2323;
162.9000;1.0826;-5.2323;
163.2000;1.0826;-5.2271;
163.5000;1.0794;-5.2245;
163.8000;1.0810;-5.2219;
164.1000;1.0818;-5.2167;
164.4000;1.0818;-5.2064;
164.7000;1.0834;-5.2038;
165.0000;1.0794;-5.2038;
165.3000;1.0810;-5.2064;
165.6000;1.0810;-5.2141;
165.9000;1.0810;-5.2245;
166.2000;1.0818;-5.2297;
166.5000;1.0818;-5.2323;
166.8000;1.0834;-5.2271;
167.1000;1.0899;-5.2038;
167.4000;1.0810;-5.2141;
167.7000;1.0818;-5.2141;
168.0000;1.0826;-5.2141;
168.3000;1.0802;-5.2219;
168.6000;1.0818;-5.2115;
168.9000;1.0802;-5.2064;
169.2000;1.0802;-5.2012;
169.5000;1.0842;-5.1960;
169.8000;1.0786;-5.2167;
170.1000;1.0786;-5.2090;
170.4000;1.0826;-5.2012;
170.7000;1.0842;-5.1960;
171.0000;1.0810;-5.2141;
171.3000;1.0802;-5.2141;
171.6000;1.0826;-5.2141;
171.9000;1.0818;-5.2271;
172.2000;1.0810;-5.2245;
172.5000;1.0810;-5.2193;
172.8000;1.0810;-5.2271;
173.1000;1.0826;-5.2245;
173.4000;1.0818;-5.2297;
173.7000;1.0794;-5.2426;
174.0000;1.0810;-5.2400;
174.3000;1.0826;-5.2400;
174.6000;1.0810;-5.2452;
174.9000;1.0810;-5.2452;
175.2000;1.0802;-5.2504;
175.5000;1.0802;-5.2478;
175.8000;1.0818;-5.2374;
176.1000;1.0802;-5.2504;
176.4000;1.0794;-5.2426;
176.7000;1.0818;-5.2400;
177.0000;1.0810;-5.2426;
177.3000;1.0802;-5.2400;
177.6000;1.0818;-5.2297;
177.9000;1.0826;-5.2193;
178.2000;1.0818;-5.2245;
178.5000;1.0818;-5.2219;
178.8000;1.0802;-5.2245;
179.1000;1.0810;-5.2141;
179.4000;1.0826;-5.2064;
179.7000;1.0810;-5.2193;
180.0000;1.0802;-5.2141;
180.3000;1.0794;-5.2141;
180.6000;1.0851;-5.2012;
180.9000;1.0818;-5.2219;
181.2000;1.0810;-5.2297;
181.5000;1.0802;-5.2323;
181.8000;1.0802;-5.2323;
182.1000;1.0818;-5.2271;
182.4000;1.0810;-5.2167;
182.7000;1.0786;-5.2167;
183.0000;1.0818;-5.2167;
183.3000;1.0826;-5.2115;
183.6000;1.0810;-5.2141;
183.9000;1.0818;-5.2141;
184.2000;1.0875;-5.1986;
184.5000;1.0826;-5.2245;
184.8000;1.0802;-5.2323;
185.1000;1.0777;-5.2374;
185.4000;1.0818;-5.2271;
185.7000;1.0794;-5.2297;
186.0000;1.0834;-5.2219;
186.3000;1.0818;-5.2297;
186.6000;1.0810;-5.2193;
186.9000;1.0810;-5.2167;
187.2000;1.0818;-5.2323;
187.5000;1.0834;-5.2323;
187.8000;1.0818;-5.2374;
188.1000;1.0818;-5.2426;
188.4000;1.0794;-5.2452;
188.7000;1.0883;-5.2219;
189.0000;1.0826;-5.2297;
189.3000;1.0851;-5.2219;
189.6000;1.0810;-5.2219;
189.9000;1.0810;-5.2219;
190.2000;1.0794;-5.2193;
190.5000;1.0826;-5.2193;
190.8000;1.0810;-5.2167;
191.1000;1.0818;-5.2141;
191.4000;1.0834;-5.2141;
191.7000;1.0818;-5.2090;
192.0000;1.0802;-5.2167;
192.3000;1.0834;-5.2219;
192.6000;1.0794;-5.2349;
192.9000;1.0818;-5.2323;
193.2000;1.0794;-5.2426;
193.5000;1.0859;-5.2297;
193.8000;1.0818;-5.2219;
194.1000;1.0834;-5.2400;
194.4000;1.0786;-5.2504;
194.7000;1.0818;-5.2323;
195.0000;1.0834;-5.2323;
195.3000;1.0818;-5.2452;
195.6000;1.0777;-5.2504;
195.9000;1.0810;-5.2400;
196.2000;1.0794;-5.2400;
196.5000;1.0818;-5.2323;
196.8000;1.0842;-5.2271;
197.1000;1.0826;-5.2323;
197.4000;1.0818;-5.2297;
197.7000;1.0818;-5.2374;
198.0000;1.0777;-5.2426;
198.3000;1.0810;-5.2400;
198.6000;1.0834;-5.2297;
198.9000;1.0810;-5.2245;
199.2000;1.0769;-5.2297;
199.5000;1.0818;-5.2193;
199.8000;1.0818;-5.2141;
200.1000;1.0794;-5.2271;
200.4000;1.0826;-5.2271;
200.7000;1.0818;-5.2245;
201.0000;1.0810;-5.2219;
201.3000;1.0818;-5.2219;
201.6000;1.0818;-5.2167;
201.9000;1.0818;-5.2141;
202.2000;1.0794;-5.2193;
202.5000;1.0810;-5.2167;
202.8000;1.0802;-5.2245;
203.1000;1.0786;-5.2245;
203.4000;1.0826;-5.2141;
203.7000;1.0834;-5.2115;
204.0000;1.0826;-5.2038;
204.3000;1.0818;-5.2038;
204.6000;1.0818;-5.2090;
204.9000;1.0818;-5.2141;
205.2000;1.0842;-5.2090;
205.5000;1.0810;-5.2219;
205.8000;1.0810;-5.2141;
206.1000;1.0810;-5.2115;
206.4000;1.0818;-5.2167;
206.7000;1.0810;-5.2245;
207.0000;1.0818;-5.2271;
207.3000;1.0802;-5.2349;
207.6000;1.0818;-5.2297;
207.9000;1.0834;-5.2271;
208.2000;1.0826;-5.2323;
208.5000;1.0826;-5.2245;
208.8000;1.0794;-5.2323;
209.1000;1.0834;-5.2297;
209.4000;1.0810;-5.2219;
209.7000;1.0810;-5.2141;
210.0000;1.0826;-5.2141;
210.3000;1.0867;-5.2090;
210.6000;1.0834;-5.2219;
210.9000;1.0859;-5.2115;
211.2000;1.0786;-5.2349;
211.5000;1.0826;-5.2271;
211.8000;1.0818;-5.2219;
212.1000;1.0818;-5.2271;
212.4000;1.0810;-5.2374;
212.7000;1.0826;-5.2271;
213.0000;1.0818;-5.2297;
213.3000;1.0818;-5.2349;
213.6000;1.0818;-5.2374;
213.9000;1.0818;-5.2374;
214.2000;1.0810;-5.2452;
214.5000;1.0842;-5.2323;
214.8000;1.0826;-5.2400;
215.1000;1.0826;-5.2349;
215.4000;1.0826;-5.2349;
215.7000;1.0810;-5.2374;
216.0000;1.0745;-5.2374;
216.3000;1.0875;-5.1960;
216.6000;1.0802;-5.2245;
216.9000;1.0834;-5.2245;
217.2000;1.0818;-5.2271;
217.5000;1.0818;-5.2271;
217.8000;1.0826;-5.2323;
218.1000;1.0826;-5.2271;
218.4000;1.0834;-5.2219;
218.7000;1.0761;-5.2478;
219.0000;1.0859;-5.2297;
219.3000;1.0802;-5.2452;
219.6000;1.0826;-5.2374;
219.9000;1.0826;-5.2323;
220.2000;1.0875;-5.2219;
220.5000;1.0826;-5.2374;
220.8000;1.0818;-5.2452;
221.1000;1.0810;-5.2426;
221.4000;1.0802;-5.2323;
221.7000;1.0802;-5.2349;
222.0000;1.0810;-5.2349;
222.3000;1.0761;-5.2400;
222.6000;1.0794;-5.2297;
222.9000;1.0818;-5.2400;
223.2000;1.0810;-5.2349;
223.5000;1.0810;-5.2323;
223.8000;1.0810;-5.2349;
224.1000;1.0818;-5.2297;
224.4000;1.0851;-5.2167;
224.7000;1.0826;-5.2297;
225.0000;1.0802;-5.2374;
225.3000;1.0842;-5.2245;
225.6000;1.0842;-5.2297;
225.9000;1.0834;-5.2297;
226.2000;1.0834;-5.2400;
226.5000;1.0794;-5.2608;
226.8000;1.0810;-5.2504;
227.1000;1.0834;-5.2478;
227.4000;1.0810;-5.2504;
227.7000;1.0810;-5.2504;
228.0000;1.0745;-5.2659;
228.3000;1.0810;-5.2426;
228.6000;1.0810;-5.2297;
228.9000;1.0826;-5.2219;
229.2000;1.0818;-5.2219;
229.5000;1.0842;-5.2167;
229.8000;1.0826;-5.2219;
230.1000;1.0826;-5.2219;
230.4000;1.0810;-5.2297;
230.7000;1.0834;-5.2374;
231.0000;1.0826;-5.2374;
231.3000;1.0818;-5.2426;
231.6000;1.0818;-5.2504;
231.9000;1.0786;-5.2582;
232.2000;1.0834;-5.2426;
232.5000;1.0802;-5.2504;
232.8000;1.0826;-5.2504;
233.1000;1.0834;-5.2530;
233.4000;1.0810;-5.2504;
233.7000;1.0834;-5.2452;
234.0000;1.0834;-5.2374;
234.3000;1.0859;-5.2349;
234.6000;1.0834;-5.2452;
234.9000;1.0818;-5.2374;
235.2000;1.0818;-5.2374;
235.5000;1.0818;-5.2452;
235.8000;1.0842;-5.2426;
236.1000;1.0826;-5.2426;
236.4000;1.0818;-5.2452;
236.7000;1.0818;-5.2374;
237.0000;1.0826;-5.2323;
237.3000;1.0818;-5.2349;
237.6000;1.0826;-5.2374;
237.9000;1.0818;-5.2426;
238.2000;1.0818;-5.2530;
238.5000;1.0834;-5.2478;
238.8000;1.0810;-5.2608;
239.1000;1.0794;-5.2659;
239.4000;1.0818;-5.2608;
239.7000;1.0818;-5.2556;
240.0000;1.0810;-5.2608;
240.3000;1.0794;-5.2608;
240.6000;1.0818;-5.2659;
240.9000;1.0826;-5.2711;
241.2000;1.0810;-5.2685;
241.5000;1.0818;-5.2685;
241.8000;1.0826;-5.2582;
242.1000;1.0826;-5.2556;
242.4000;1.0842;-5.2530;
242.7000;1.0794;-5.2659;
243.0000;1.0834;-5.2504;
243.3000;1.0818;-5.2530;
243.6000;1.0834;-5.2452;
243.9000;1.0826;-5.2478;
244.2000;1.0826;-5.2478;
244.5000;1.0810;-5.2478;
244.8000;1.0851;-5.2400;
245.1000;1.0802;-5.2478;
245.4000;1.0826;-5.2504;
245.7000;1.0826;-5.2478;
246.0000;1.0826;-5.2426;
246.3000;1.0818;-5.2478;
246.6000;1.0810;-5.2504;
246.9000;1.0810;-5.2452;
247.2000;1.0818;-5.2349;
247.5000;1.0794;-5.2504;
247.8000;1.0818;-5.2426;
248.1000;1.0802;-5.2374;
248.4000;1.0818;-5.2374;
248.7000;1.0810;-5.2374;
249.0000;1.0818;-5.2323;
249.3000;1.0802;-5.2374;
249.6000;1.0842;-5.2297;
249.9000;1.0818;-5.2400;
250.2000;1.0818;-5.2426;
250.5000;1.0777;-5.2426;
250.8000;1.0810;-5.2323;
251.1000;1.0851;-5.2323;
251.4000;1.0826;-5.2271;
251.7000;1.0818;-5.2400;
252.0000;1.0818;-5.2400;
252.3000;1.0810;-5.2297;
252.6000;1.0826;-5.2323;
252.9000;1.0826;-5.2271;
253.2000;1.0818;-5.2323;
253.5000;1.0810;-5.2374;
253.8000;1.0826;-5.2374;
254.1000;1.0802;-5.2400;
254.4000;1.0802;-5.2400;
254.7000;1.0802;-5.2426;
255.0000;1.0802;-5.2426;
255.3000;1.0818;-5.2426;
255.6000;1.0810;-5.2478;
255.9000;1.0851;-5.2452;
256.2000;1.0777;-5.2711;
256.5000;1.0834;-5.2556;
256.8000;1.0810;-5.2582;
257.1000;1.0826;-5.2530;
257.4000;1.0826;-5.2556;
257.7000;1.0810;-5.2556;
258.0000;1.0851;-5.2504;
258.3000;1.0859;-5.2530;
258.6000;1.0826;-5.2556;
258.9000;1.0859;-5.2426;
259.2000;1.0802;-5.2530;
259.5000;1.0818;-5.2556;
259.8000;1.0875;-5.2504;
260.1000;1.0826;-5.2633;
260.4000;1.0802;-5.2711;
260.7000;1.0810;-5.2685;
261.0000;1.0794;-5.2737;
261.3000;1.0826;-5.2659;
261.6000;1.0859;-5.2659;
261.9000;1.0818;-5.2659;
262.2000;1.0826;-5.2608;
262.5000;1.0810;-5.2659;
262.8000;1.0842;-5.2633;
263.1000;1.0818;-5.2685;
263.4000;1.0810;-5.2737;
263.7000;1.0794;-5.2737;
264.0000;1.0826;-5.2659;
264.3000;1.0851;-5.2608;
264.6000;1.0802;-5.2633;
264.9000;1.0826;-5.2582;
265.2000;1.0834;-5.2608;
265.5000;1.0842;-5.2608;
265.8000;1.0818;-5.2582;
266.1000;1.0826;-5.2504;
266.4000;1.0769;-5.2608;
266.7000;1.0826;-5.2452;
267.0000;1.0826;-5.2478;
267.3000;1.0818;-5.2452;
267.6000;1.0851;-5.2374;
267.9000;1.0859;-5.2374;
268.2000;1.0834;-5.2530;
268.5000;1.0802;-5.2633;
268.8000;1.0826;-5.2504;
269.1000;1.0818;-5.2530;
269.4000;1.0834;-5.2530;
269.7000;1.0826;-5.2504;
270.0000;1.0834;-5.2374;
270.3000;1.0826;-5.2426;
270.6000;1.0818;-5.2452;
270.9000;1.0826;-5.2504;
271.2000;1.0704;-5.2763;
271.5000;1.0834;-5.2323;
271.8000;1.0826;-5.2374;
272.1000;1.0834;-5.2426;
272.4000;1.0794;-5.2478;
272.7000;1.0818;-5.2374;
273.0000;1.0834;-5.2349;
273.3000;1.0818;-5.2400;
273.6000;1.0818;-5.2400;
273.9000;1.0826;-5.2374;
274.2000;1.0810;-5.2452;
274.5000;1.0818;-5.2426;
274.8000;1.0818;-5.2400;
275.1000;1.0818;-5.2297;
275.4000;1.0826;-5.2297;
275.7000;1.0826;-5.2349;
276.0000;1.0826;-5.2349;
276.3000;1.0818;-5.2349;
276.6000;1.0834;-5.2323;
276.9000;1.0834;-5.2374;
277.2000;1.0818;-5.2349;
277.5000;1.0818;-5.2426;
277.8000;1.0818;-5.2452;
278.1000;1.0786;-5.2530;
278.4000;1.0818;-5.2504;
278.7000;1.0818;-5.2556;
279.0000;1.0818;-5.2478;
279.3000;1.0818;-5.2504;
279.6000;1.0810;-5.2582;
279.9000;1.0826;-5.2608;
280.2000;1.0786;-5.2608;
280.5000;1.0834;-5.2426;
280.8000;1.0842;-5.2349;
281.1000;1.0826;-5.2323;
281.4000;1.0908;-5.2115;
281.7000;1.0859;-5.2141;
282.0000;1.0777;-5.2323;
282.3000;1.0826;-5.2193;
282.6000;1.0826;-5.2245;
282.9000;1.0834;-5.2245;
283.2000;1.0842;-5.2297;
283.5000;1.0859;-5.2193;
283.8000;1.0810;-5.2349;
284.1000;1.0818;-5.2400;
284.4000;1.0851;-5.2374;
284.7000;1.0826;-5.2400;
285.0000;1.0818;-5.2478;
285.3000;1.0818;-5.2530;
285.6000;1.0826;-5.2556;
285.9000;1.0826;-5.2608;
286.2000;1.0786;-5.2556;
286.5000;1.0777;-5.2556;
286.8000;1.0834;-5.2349;
287.1000;1.0818;-5.2374;
287.4000;1.0826;-5.2374;
287.7000;1.0786;-5.2478;
288.0000;1.0818;-5.2478;
288.3000;1.0826;-5.2426;
288.6000;1.0826;-5.2400;
288.9000;1.0810;-5.2374;
289.2000;1.0834;-5.2323;
289.5000;1.0810;-5.2323;
289.8000;1.0818;-5.2374;
290.1000;1.0810;-5.2426;
290.4000;1.0818;-5.2374;
290.7000;1.0818;-5.2452;
291.0000;1.0826;-5.2452;
291.3000;1.0818;-5.2349;
291.6000;1.0802;-5.2374;
291.9000;1.0826;-5.2271;
292.2000;1.0777;-5.2478;
292.5000;1.0818;-5.2349;
292.8000;1.0818;-5.2400;
293.1000;1.0810;-5.2426;
293.4000;1.0826;-5.2374;
293.7000;1.0810;-5.2426;
294.0000;1.0802;-5.2452;
294.3000;1.0826;-5.2400;
294.6000;1.0818;-5.2374;
294.9000;1.0818;-5.2400;
295.2000;1.0802;-5.2374;
295.5000;1.0818;-5.2426;
295.8000;1.0826;-5.2452;
296.1000;1.0826;-5.2323;
296.4000;1.0834;-5.2323;
296.7000;1.0818;-5.2349;
297.0000;1.0834;-5.2323;
297.3000;1.0875;-5.2245;
297.6000;1.0818;-5.2349;
297.9000;1.0810;-5.2452;
298.2000;1.0818;-5.2504;
298.5000;1.0818;-5.2608;
298.8000;1.0810;-5.2556;
299.1000;1.0818;-5.2556;
299.4000;1.0810;-5.2556;
299.7000;1.0818;-5.2452;
300.0000;1.0810;-5.2478;
300.3000;1.0834;-5.2478;
300.6000;1.0802;-5.2556;
300.9000;1.0826;-5.2452;
301.2000;1.0899;-5.2349;
301.5000;1.0826;-5.2504;
301.8000;1.0810;-5.2530;
302.1000;1.0826;-5.2556;
302.4000;1.0867;-5.2426;
302.7000;1.0842;-5.2504;
303.0000;1.0810;-5.2556;
303.3000;1.0842;-5.2478;
303.6000;1.0810;-5.2530;
303.9000;1.0786;-5.2556;
304.2000;1.0802;-5.2530;
304.5000;1.0826;-5.2504;
304.8000;1.0729;-5.2659;
305.1000;1.0802;-5.2504;
305.4000;1.0810;-5.2504;
305.7000;1.0818;-5.2608;
306.0000;1.0818;-5.2608;
306.3000;1.0834;-5.2556;
306.6000;1.0810;-5.2530;
306.9000;1.0818;-5.2530;
307.2000;1.0810;-5.2504;
307.5000;1.0794;-5.2633;
307.8000;1.0818;-5.2608;
308.1000;1.0826;-5.2608;
308.4000;1.0769;-5.2659;
308.7000;1.0818;-5.2452;
309.0000;1.0810;-5.2452;
309.3000;1.0802;-5.2530;
309.6000;1.0810;-5.2556;
309.9000;1.0810;-5.2530;
310.2000;1.0818;-5.2504;
310.5000;1.0786;-5.2582;
310.8000;1.0818;-5.2452;
311.1000;1.0834;-5.2452;
311.4000;1.0818;-5.2400;
311.7000;1.0810;-5.2374;
312.0000;1.0810;-5.2374;
312.3000;1.0802;-5.2478;
312.6000;1.0810;-5.2582;
312.9000;1.0818;-5.2556;
313.2000;1.0834;-5.2478;
313.5000;1.0818;-5.2530;
313.8000;1.0818;-5.2400;
314.1000;1.0810;-5.2400;
314.4000;1.0802;-5.2374;
314.7000;1.0802;-5.2452;
315.0000;1.0810;-5.2556;
315.3000;1.0818;-5.2608;
315.6000;1.0810;-5.2608;
315.9000;1.0810;-5.2608;
316.2000;1.0786;-5.2608;
316.5000;1.0818;-5.2582;
316.8000;1.0810;-5.2582;
317.1000;1.0834;-5.2556;
317.4000;1.0834;-5.2478;
317.7000;1.0834;-5.2426;
318.0000;1.0826;-5.2556;
318.3000;1.0826;-5.2711;
318.6000;1.0818;-5.2633;
318.9000;1.0818;-5.2608;
319.2000;1.0826;-5.2582;
319.5000;1.0810;-5.2659;
319.8000;1.0818;-5.2633;
320.1000;1.0818;-5.2633;
320.4000;1.0810;-5.2711;
320.7000;1.0810;-5.2685;
321.0000;1.0826;-5.2608;
321.3000;1.0794;-5.2633;
321.6000;1.0818;-5.2556;
321.9000;1.0818;-5.2582;
322.2000;1.0818;-5.2426;
322.5000;1.0810;-5.2452;
322.8000;1.0826;-5.2426;
323.1000;1.0826;-5.2400;
323.4000;1.0834;-5.2452;
323.7000;1.0786;-5.2685;
324.0000;1.0818;-5.2737;
324.3000;1.0818;-5.2763;
324.6000;1.0810;-5.2789;
324.9000;1.0810;-5.2763;
325.2000;1.0810;-5.2763;
325.5000;1.0818;-5.2711;
325.8000;1.0753;-5.2867;
326.1000;1.0794;-5.2789;
326.4000;1.0810;-5.2789;
326.7000;1.0810;-5.2711;
327.0000;1.0867;-5.2582;
327.3000;1.0818;-5.2737;
327.6000;1.0818;-5.2815;
327.9000;1.0851;-5.2685;
328.2000;1.0842;-5.2815;
328.5000;1.0834;-5.2763;
328.8000;1.0802;-5.2685;
329.1000;1.0826;-5.2711;
329.4000;1.0826;-5.2633;
329.7000;1.0802;-5.2659;
330.0000;1.0826;-5.2608;
330.3000;1.0818;-5.2608;
330.6000;1.0826;-5.2633;
330.9000;1.0842;-5.2582;
331.2000;1.0802;-5.2685;
331.5000;1.0834;-5.2608;
331.8000;1.0818;-5.2608;
332.1000;1.0826;-5.2556;
332.4000;1.0842;-5.2530;
332.7000;1.0842;-5.2504;
333.0000;1.0826;-5.2478;
333.3000;1.0826;-5.2478;
333.6000;1.0826;-5.2478;
333.9000;1.0810;-5.2452;
334.2000;1.0826;-5.2478;
334.5000;1.0834;-5.2452;
334.8000;1.0826;-5.2556;
335.1000;1.0818;-5.2633;
335.4000;1.0810;-5.2582;
335.7000;1.0826;-5.2556;
336.0000;1.0851;-5.2556;
336.3000;1.0802;-5.2685;
336.6000;1.0810;-5.2633;
336.9000;1.0810;-5.2737;
337.2000;1.0810;-5.2659;
337.5000;1.0810;-5.2582;
337.8000;1.0826;-5.2530;
338.1000;1.0826;-5.2582;
338.4000;1.0810;-5.2556;
338.7000;1.0818;-5.2556;
339.0000;1.0818;-5.2556;
339.3000;1.0826;-5.2556;
339.6000;1.0834;-5.2608;
339.9000;1.0818;-5.2685;
340.2000;1.0867;-5.2452;
340.5000;1.0826;-5.2452;
340.8000;1.0826;-5.2400;
341.1000;1.0818;-5.2349;
341.4000;1.0802;-5.2349;
341.7000;1.0810;-5.2400;
342.0000;1.0810;-5.2426;
342.3000;1.0834;-5.2323;
342.6000;1.0802;-5.2400;
342.9000;1.0826;-5.2374;
343.2000;1.0826;-5.2426;
343.5000;1.0842;-5.2374;
343.8000;1.0802;-5.2426;
344.1000;1.0802;-5.2400;
344.4000;1.0818;-5.2400;
344.7000;1.0818;-5.2478;
345.0000;1.0729;-5.2737;
345.3000;1.0826;-5.2582;
345.6000;1.0818;-5.2685;
345.9000;1.0818;-5.2815;
346.2000;1.0810;-5.2789;
346.5000;1.0818;-5.2737;
346.8000;1.0802;-5.2711;
347.1000;1.0818;-5.2582;
347.4000;1.0818;-5.2608;
347.7000;1.0818;-5.2582;
348.0000;1.0818;-5.2556;
348.3000;1.0826;-5.2504;
348.6000;1.0834;-5.2504;
348.9000;1.0818;-5.2582;
349.2000;1.0818;-5.2582;
349.5000;1.0810;-5.2478;
349.8000;1.0753;-5.2582;
350.1000;1.0810;-5.2504;
350.4000;1.0794;-5.2530;
350.7000;1.0802;-5.2504;
351.0000;1.0794;-5.2530;
351.3000;1.0810;-5.2504;
351.6000;1.0802;-5.2478;
351.9000;1.0786;-5.2504;
352.2000;1.0818;-5.2452;
352.5000;1.0810;-5.2582;
352.8000;1.0810;-5.2608;
353.1000;1.0818;-5.2556;
353.4000;1.0818;-5.2582;
353.7000;1.0834;-5.2608;
354.0000;1.0818;-5.2685;
354.3000;1.0810;-5.2685;
354.6000;1.0818;-5.2685;
354.9000;1.0834;-5.2582;
355.2000;1.0826;-5.2608;
355.5000;1.0842;-5.2582;
355.8000;1.0826;-5.2556;
356.1000;1.0834;-5.2582;
356.4000;1.0891;-5.2374;
356.7000;1.0826;-5.2582;
357.0000;1.0818;-5.2608;
357.3000;1.0818;-5.2608;
357.6000;1.0818;-5.2608;
357.9000;1.0802;-5.2685;
358.2000;1.0810;-5.2659;
358.5000;1.0818;-5.2659;
358.8000;1.0810;-5.2711;
359.1000;1.0810;-5.2685;
359.4000;1.0818;-5.2685;
359.7000;1.0810;-5.2659;
360.0000;1.0818;-5.2504;
360.3000;1.0802;-5.2478;
360.6000;1.0802;-5.2530;
360.9000;1.0851;-5.2400;
361.2000;1.0826;-5.2504;
361.5000;1.0802;-5.2608;
361.8000;1.0802;-5.2582;
362.1000;1.0834;-5.2349;
362.4000;1.0818;-5.2478;
362.7000;1.0826;-5.2452;
363.0000;1.0810;-5.2374;
363.3000;1.0851;-5.2400;
363.6000;1.0826;-5.2478;
363.9000;1.0818;-5.2582;
364.2000;1.0826;-5.2556;
364.5000;1.0818;-5.2530;
364.8000;1.0842;-5.2478;
365.1000;1.0826;-5.2374;
365.4000;1.0810;-5.2349;
365.7000;1.0818;-5.2297;
366.0000;1.0818;-5.2374;
366.3000;1.0842;-5.2271;
366.6000;1.0810;-5.2349;
366.9000;1.0794;-5.2374;
367.2000;1.0802;-5.2323;
367.5000;1.0818;-5.2271;
367.8000;1.0810;-5.2349;
368.1000;1.0810;-5.2323;
368.4000;1.0802;-5.2297;
368.7000;1.0810;-5.2374;
369.0000;1.0818;-5.2219;
369.3000;1.0810;-5.2271;
369.6000;1.0769;-5.2478;
369.9000;1.0818;-5.2374;
370.2000;1.0802;-5.2271;
370.5000;1.0794;-5.2297;
370.8000;1.0802;-5.2323;
371.1000;1.0818;-5.2323;
371.4000;1.0810;-5.2271;
371.7000;1.0802;-5.2297;
372.0000;1.0818;-5.2297;
372.3000;1.0810;-5.2323;
372.6000;1.0753;-5.2530;
372.9000;1.0729;-5.2582;
373.2000;1.0818;-5.2426;
373.5000;1.0875;-5.2297;
373.8000;1.0753;-5.2608;
374.1000;1.0802;-5.2478;
374.4000;1.0794;-5.2556;
374.7000;1.0802;-5.2530;
375.0000;1.0810;-5.2400;
375.3000;1.0810;-5.2478;
375.6000;1.0834;-5.2426;
375.9000;1.0818;-5.2374;
376.2000;1.0826;-5.2426;
376.5000;1.0802;-5.2504;
376.8000;1.0818;-5.2556;
377.1000;1.0867;-5.2504;
377.4000;1.0810;-5.2711;
377.7000;1.0786;-5.2841;
378.0000;1.0810;-5.2763;
378.3000;1.0802;-5.2685;
378.6000;1.0818;-5.2659;
378.9000;1.0810;-5.2633;
379.2000;1.0810;-5.2556;
379.5000;1.0761;-5.2582;
379.8000;1.0818;-5.2452;
380.1000;1.0794;-5.2452;
380.4000;1.0834;-5.2323;
380.7000;1.0859;-5.2271;
381.0000;1.0826;-5.2374;
381.3000;1.0867;-5.2349;
381.6000;1.0802;-5.2556;
381.9000;1.0810;-5.2530;
382.2000;1.0802;-5.2556;
382.5000;1.0818;-5.2530;
382.8000;1.0818;-5.2608;
383.1000;1.0802;-5.2633;
383.4000;1.0826;-5.2582;
383.7000;1.0802;-5.2633;
384.0000;1.0810;-5.2633;
384.3000;1.0826;-5.2556;
384.6000;1.0818;-5.2659;
384.9000;1.0802;-5.2711;
385.2000;1.0786;-5.2711;
385.5000;1.0826;-5.2478;
385.8000;1.0826;-5.2504;
386.1000;1.0834;-5.2452;
386.4000;1.0818;-5.2374;
386.7000;1.0818;-5.2478;
387.0000;1.0810;-5.2478;
387.3000;1.0818;-5.2530;
387.6000;1.0810;-5.2582;
387.9000;1.0810;-5.2633;
388.2000;1.0891;-5.2400;
388.5000;1.0842;-5.2504;
388.8000;1.0834;-5.2452;
389.1000;1.0883;-5.2245;
389.4000;1.0818;-5.2323;
389.7000;1.0818;-5.2297;
390.0000;1.0818;-5.2167;
390.3000;1.0826;-5.2167;
390.6000;1.0818;-5.2167;
390.9000;1.0810;-5.2193;
391.2000;1.0794;-5.2193;
391.5000;1.0786;-5.2271;
391.8000;1.0826;-5.2219;
392.1000;1.0818;-5.2323;
392.4000;1.0818;-5.2323;
392.7000;1.0810;-5.2349;
393.0000;1.0818;-5.2245;
393.3000;1.0810;-5.2245;
393.6000;1.0818;-5.2271;
393.9000;1.0834;-5.2193;
394.2000;1.0826;-5.2245;
394.5000;1.0802;-5.2297;
394.8000;1.0818;-5.2271;
395.1000;1.0810;-5.2193;
395.4000;1.0818;-5.2245;
395.7000;1.0818;-5.2297;
396.0000;1.0867;-5.2271;
396.3000;1.0810;-5.2400;
396.6000;1.0818;-5.2478;
396.9000;1.0794;-5.2582;
397.2000;1.0818;-5.2400;
397.5000;1.0786;-5.2426;
397.8000;1.0777;-5.2426;
398.1000;1.0810;-5.2323;
398.4000;1.0818;-5.2323;
398.7000;1.0802;-5.2400;
399.0000;1.0769;-5.2478;
399.3000;1.0834;-5.2271;
399.6000;1.0818;-5.2245;
399.9000;1.0810;-5.2323;
400.2000;1.0826;-5.2374;
400.5000;1.0802;-5.2426;
400.8000;1.0826;-5.2374;
401.1000;1.0794;-5.2349;
401.4000;1.0769;-5.2323;
401.7000;1.0769;-5.2323;
402.0000;1.0818;-5.2271;
402.3000;1.0818;-5.2323;
402.6000;1.0818;-5.2426;
402.9000;1.0883;-5.2219;
403.2000;1.0818;-5.2452;
403.5000;1.0834;-5.2349;
403.8000;1.0802;-5.2530;
404.1000;1.0786;-5.2504;
404.4000;1.0745;-5.2659;
404.7000;1.0810;-5.2530;
405.0000;1.0802;-5.2556;
405.3000;1.0802;-5.2582;
405.6000;1.0834;-5.2556;
405.9000;1.0810;-5.2608;
406.2000;1.0794;-5.2608;
406.5000;1.0810;-5.2608;
406.8000;1.0802;-5.2633;
407.1000;1.0753;-5.2763;
407.4000;1.0818;-5.2633;
407.7000;1.0810;-5.2711;
408.0000;1.0712;-5.2944;
408.3000;1.0826;-5.2685;
408.6000;1.0826;-5.2608;
408.9000;1.0818;-5.2659;
409.2000;1.0802;-5.2685;
409.5000;1.0810;-5.2633;
409.8000;1.0818;-5.2633;
410.1000;1.0818;-5.2530;
410.4000;1.0834;-5.2426;
410.7000;1.0810;-5.2426;
411.0000;1.0818;-5.2323;
411.3000;1.0810;-5.2297;
411.6000;1.0810;-5.2297;
411.9000;1.0818;-5.2349;
412.2000;1.0802;-5.2426;
412.5000;1.0818;-5.2400;
412.8000;1.0818;-5.2349;
413.1000;1.0802;-5.2349;
413.4000;1.0826;-5.2323;
413.7000;1.0810;-5.2349;
414.0000;1.0818;-5.2400;
414.3000;1.0810;-5.2530;
414.6000;1.0794;-5.2582;
414.9000;1.0810;-5.2582;
415.2000;1.0810;-5.2608;
415.5000;1.0794;-5.2633;
415.8000;1.0810;-5.2608;
416.1000;1.0802;-5.2582;
416.4000;1.0786;-5.2504;
416.7000;1.0802;-5.2530;
417.0000;1.0810;-5.2478;
417.3000;1.0802;-5.2504;
417.6000;1.0786;-5.2530;
417.9000;1.0769;-5.2556;
418.2000;1.0794;-5.2426;
418.5000;1.0810;-5.2400;
418.8000;1.0810;-5.2452;
419.1000;1.0818;-5.2374;
419.4000;1.0802;-5.2271;
419.7000;1.0810;-5.2323;
420.0000;1.0745;-5.2504;
420.3000;1.0794;-5.2426;
420.6000;1.0818;-5.2400;
420.9000;1.0794;-5.2374;
421.2000;1.0859;-5.2271;
421.5000;1.0818;-5.2374;
421.8000;1.0786;-5.2374;
422.1000;1.0802;-5.2323;
422.4000;1.0794;-5.2400;
422.7000;1.0810;-5.2374;
423.0000;1.0818;-5.2374;
423.3000;1.0810;-5.2374;
423.6000;1.0786;-5.2374;
423.9000;1.0851;-5.2219;
424.2000;1.0802;-5.2374;
424.5000;1.0794;-5.2426;
424.8000;1.0810;-5.2374;
425.1000;1.0794;-5.2374;
425.4000;1.0802;-5.2349;
425.7000;1.0818;-5.2349;
426.0000;1.0794;-5.2349;
426.3000;1.0810;-5.2297;
426.6000;1.0810;-5.2349;
426.9000;1.0794;-5.2271;
427.2000;1.0794;-5.2193;
427.5000;1.0810;-5.2193;
427.8000;1.0810;-5.2167;
428.1000;1.0810;-5.2349;
428.4000;1.0794;-5.2426;
428.7000;1.0794;-5.2452;
429.0000;1.0810;-5.2452;
429.3000;1.0810;-5.2530;
429.6000;1.0802;-5.2530;
429.9000;1.0794;-5.2530;
430.2000;1.0794;-5.2504;
430.5000;1.0818;-5.2530;
430.8000;1.0810;-5.2530;
431.1000;1.0802;-5.2504;
431.4000;1.0802;-5.2582;
431.7000;1.0810;-5.2530;
432.0000;1.0802;-5.2452;
432.3000;1.0810;-5.2400;
432.6000;1.0818;-5.2374;
432.9000;1.0818;-5.2452;
433.2000;1.0810;-5.2478;
433.5000;1.0802;-5.2452;
433.8000;1.0794;-5.2374;
434.1000;1.0810;-5.2297;
434.4000;1.0810;-5.2271;
434.7000;1.0818;-5.2349;
435.0000;1.0810;-5.2271;
435.3000;1.0810;-5.2193;
435.6000;1.0802;-5.2193;
435.9000;1.0818;-5.2271;
436.2000;1.0875;-5.2219;
436.5000;1.0818;-5.2374;
436.8000;1.0818;-5.2323;
437.1000;1.0802;-5.2323;
437.4000;1.0802;-5.2400;
437.7000;1.0826;-5.2400;
438.0000;1.0810;-5.2349;
438.3000;1.0777;-5.2374;
438.6000;1.0810;-5.2271;
438.9000;1.0818;-5.2245;
439.2000;1.0802;-5.2374;
439.5000;1.0810;-5.2245;
439.8000;1.0786;-5.2297;
440.1000;1.0802;-5.2297;
440.4000;1.0802;-5.2245;
440.7000;1.0802;-5.2245;
441.0000;1.0761;-5.2374;
441.3000;1.0802;-5.2271;
441.6000;1.0851;-5.2219;
441.9000;1.0794;-5.2323;
442.2000;1.0810;-5.2271;
442.5000;1.0810;-5.2271;
442.8000;1.0786;-5.2400;
443.1000;1.0810;-5.2349;
443.4000;1.0794;-5.2349;
443.7000;1.0826;-5.2271;
444.0000;1.0810;-5.2297;
444.3000;1.0794;-5.2245;
444.6000;1.0810;-5.2349;
444.9000;1.0777;-5.2323;
445.2000;1.0794;-5.2245;
445.5000;1.0802;-5.2245;
445.8000;1.0777;-5.2323;
446.1000;1.0794;-5.2219;
446.4000;1.0737;-5.2374;
446.7000;1.0786;-5.2193;
447.0000;1.0802;-5.2271;
447.3000;1.0802;-5.2349;
447.6000;1.0818;-5.2400;
447.9000;1.0786;-5.2452;
448.2000;1.0802;-5.2349;
448.5000;1.0753;-5.2478;
448.8000;1.0834;-5.2297;
449.1000;1.0802;-5.2426;
449.4000;1.0802;-5.2374;
449.7000;1.0802;-5.2400;
450.0000;1.0794;-5.2426;
450.3000;1.0802;-5.2400;
450.6000;1.0786;-5.2478;
450.9000;1.0794;-5.2452;
451.2000;1.0810;-5.2426;
451.5000;1.0802;-5.2297;
451.8000;1.0794;-5.2245;
452.1000;1.0761;-5.2349;
452.4000;1.0794;-5.2349;
452.7000;1.0802;-5.2374;
453.0000;1.0851;-5.2297;
453.3000;1.0818;-5.2349;
453.6000;1.0802;-5.2349;
453.9000;1.0802;-5.2323;
454.2000;1.0818;-5.2297;
454.5000;1.0753;-5.2478;
454.8000;1.0818;-5.2323;
455.1000;1.0802;-5.2452;
455.4000;1.0810;-5.2400;
455.7000;1.0818;-5.2400;
456.0000;1.0810;-5.2452;
456.3000;1.0802;-5.2349;
456.6000;1.0794;-5.2374;
456.9000;1.0786;-5.2323;
457.2000;1.0777;-5.2297;
457.5000;1.0802;-5.2219;
457.8000;1.0786;-5.2271;
458.1000;1.0777;-5.2374;
458.4000;1.0810;-5.2323;
458.7000;1.0818;-5.2374;
459.0000;1.0786;-5.2452;
459.3000;1.0786;-5.2400;
459.6000;1.0794;-5.2374;
459.9000;1.0810;-5.2374;
460.2000;1.0851;-5.2219;
460.5000;1.0802;-5.2374;
460.8000;1.0794;-5.2349;
461.1000;1.0810;-5.2323;
461.4000;1.0794;-5.2323;
461.7000;1.0786;-5.2245;
462.0000;1.0786;-5.2271;
462.3000;1.0802;-5.2245;
462.6000;1.0802;-5.2297;
462.9000;1.0810;-5.2400;
463.2000;1.0802;-5.2400;
463.5000;1.0883;-5.2141;
463.8000;1.0794;-5.2271;
464.1000;1.0794;-5.2245;
464.4000;1.0745;-5.2374;
464.7000;1.0794;-5.2245;
465.0000;1.0810;-5.2245;
465.3000;1.0794;-5.2374;
465.6000;1.0802;-5.2374;
465.9000;1.0802;-5.2374;
466.2000;1.0794;-5.2349;
466.5000;1.0786;-5.2400;
466.8000;1.0786;-5.2323;
467.1000;1.0794;-5.2219;
467.4000;1.0826;-5.2064;
467.7000;1.0802;-5.2141;
468.0000;1.0810;-5.2167;
468.3000;1.0810;-5.2115;
468.6000;1.0794;-5.2219;
468.9000;1.0810;-5.2271;
469.2000;1.0802;-5.2219;
469.5000;1.0794;-5.2271;
469.8000;1.0818;-5.2271;
470.1000;1.0826;-5.2297;
470.4000;1.0802;-5.2271;
470.7000;1.0810;-5.2193;
471.0000;1.0810;-5.2167;
471.3000;1.0810;-5.2193;
471.6000;1.0802;-5.2297;
471.9000;1.0810;-5.2323;
472.2000;1.0786;-5.2400;
472.5000;1.0810;-5.2374;
472.8000;1.0802;-5.2297;
473.1000;1.0810;-5.2271;
473.4000;1.0777;-5.2297;
473.7000;1.0810;-5.2323;
474.0000;1.0810;-5.2271;
474.3000;1.0826;-5.2193;
474.6000;1.0810;-5.2219;
474.9000;1.0802;-5.2193;
475.2000;1.0810;-5.2245;
475.5000;1.0777;-5.2374;
475.8000;1.0777;-5.2297;
476.1000;1.0794;-5.2271;
476.4000;1.0802;-5.2349;
476.7000;1.0777;-5.2374;
477.0000;1.0802;-5.2297;
477.3000;1.0777;-5.2349;
477.6000;1.0802;-5.2323;
477.9000;1.0794;-5.2323;
478.2000;1.0802;-5.2219;
478.5000;1.0745;-5.2271;
478.8000;1.0802;-5.2141;
479.1000;1.0818;-5.2167;
479.4000;1.0810;-5.2219;
479.7000;1.0753;-5.2349;
480.0000;1.0802;-5.2297;
480.3000;1.0802;-5.2349;
480.6000;1.0794;-5.2374;
480.9000;1.0769;-5.2478;
481.2000;1.0810;-5.2297;
481.5000;1.0802;-5.2400;
481.8000;1.0810;-5.2426;
482.1000;1.0826;-5.2374;
482.4000;1.0786;-5.2452;
482.7000;1.0810;-5.2504;
483.0000;1.0810;-5.2452;
483.3000;1.0777;-5.2478;
483.6000;1.0802;-5.2426;
483.9000;1.0810;-5.2374;
484.2000;1.0794;-5.2374;
484.5000;1.0802;-5.2323;
484.8000;1.0802;-5.2349;
485.1000;1.0818;-5.2245;
485.4000;1.0818;-5.2115;
485.7000;1.0802;-5.2167;
486.0000;1.0786;-5.2115;
486.3000;1.0786;-5.2115;
486.6000;1.0786;-5.2193;
486.9000;1.0810;-5.2193;
487.2000;1.0842;-5.2245;
487.5000;1.0786;-5.2426;
487.8000;1.0794;-5.2400;
488.1000;1.0794;-5.2349;
488.4000;1.0786;-5.2219;
488.7000;1.0794;-5.2219;
489.0000;1.0834;-5.2090;
489.3000;1.0786;-5.2167;
489.6000;1.0802;-5.2245;
489.9000;1.0794;-5.2167;
490.2000;1.0786;-5.2115;
490.5000;1.0794;-5.2115;
490.8000;1.0818;-5.2064;
491.1000;1.0794;-5.2115;
491.4000;1.0802;-5.2064;
491.7000;1.0802;-5.2167;
492.0000;1.0802;-5.2167;
492.3000;1.0769;-5.2090;
492.6000;1.0786;-5.2167;
492.9000;1.0794;-5.2115;
493.2000;1.0810;-5.2219;
493.5000;1.0802;-5.2323;
493.8000;1.0794;-5.2374;
494.1000;1.0810;-5.2349;
494.4000;1.0802;-5.2297;
494.7000;1.0794;-5.2400;
495.0000;1.0794;-5.2426;
495.3000;1.0786;-5.2374;
495.6000;1.0786;-5.2271;
495.9000;1.0769;-5.2426;
496.2000;1.0786;-5.2478;
496.5000;1.0818;-5.2426;
496.8000;1.0769;-5.2478;
497.1000;1.0810;-5.2374;
497.4000;1.0761;-5.2400;
497.7000;1.0769;-5.2323;
498.0000;1.0769;-5.2323;
498.3000;1.0802;-5.2219;
498.6000;1.0802;-5.2297;
498.9000;1.0794;-5.2349;
499.2000;1.0802;-5.2297;
499.5000;1.0794;-5.2349;
499.8000;1.0834;-5.2167;
500.1000;1.0826;-5.2193;
500.4000;1.0777;-5.2323;
500.7000;1.0777;-5.2478;
501.0000;1.0786;-5.2426;
501.3000;1.0769;-5.2478;
501.6000;1.0802;-5.2426;
501.9000;1.0810;-5.2530;
502.2000;1.0802;-5.2478;
502.5000;1.0794;-5.2426;
502.8000;1.0769;-5.2582;
503.1000;1.0786;-5.2530;
503.4000;1.0810;-5.2323;
503.7000;1.0794;-5.2452;
504.0000;1.0769;-5.2400;
504.3000;1.0810;-5.2349;
504.6000;1.0802;-5.2400;
504.9000;1.0818;-5.2400;
505.2000;1.0802;-5.2400;
505.5000;1.0810;-5.2426;
505.8000;1.0810;-5.2426;
506.1000;1.0761;-5.2504;
506.4000;1.0810;-5.2400;
506.7000;1.0794;-5.2452;
507.0000;1.0794;-5.2452;
507.3000;1.0826;-5.2271;
507.6000;1.0802;-5.2219;
507.9000;1.0794;-5.2323;
508.2000;1.0802;-5.2374;
508.5000;1.0794;-5.2297;
508.8000;1.0777;-5.2349;
509.1000;1.0802;-5.2349;
509.4000;1.0794;-5.2400;
509.7000;1.0802;-5.2374;
510.0000;1.0761;-5.2400;
510.3000;1.0794;-5.2297;
510.6000;1.0794;-5.2245;
510.9000;1.0810;-5.2219;
511.2000;1.0842;-5.2193;
511.5000;1.0786;-5.2349;
511.8000;1.0769;-5.2374;
512.1000;1.0794;-5.2400;
512.4000;1.0802;-5.2374;
512.7000;1.0802;-5.2374;
513.0000;1.0802;-5.2349;
513.3000;1.0794;-5.2374;
513.6000;1.0802;-5.2374;
513.9000;1.0834;-5.2400;
514.2000;1.0810;-5.2426;
514.5000;1.0826;-5.2374;
514.8000;1.0867;-5.2349;
515.1000;1.0810;-5.2478;
515.4000;1.0802;-5.2530;
515.7000;1.0794;-5.2504;
516.0000;1.0842;-5.2400;
516.3000;1.0826;-5.2530;
516.6000;1.0777;-5.2659;
516.9000;1.0794;-5.2530;
517.2000;1.0777;-5.2530;
517.5000;1.0794;-5.2452;
517.8000;1.0777;-5.2452;
518.1000;1.0777;-5.2374;
518.4000;1.0794;-5.2297;
518.7000;1.0794;-5.2400;
519.0000;1.0753;-5.2530;
519.3000;1.0810;-5.2297;
519.6000;1.0810;-5.2349;
519.9000;1.0810;-5.2374;
520.2000;1.0810;-5.2349;
520.5000;1.0745;-5.2400;
520.8000;1.0729;-5.2452;
521.1000;1.0802;-5.2245;
521.4000;1.0769;-5.2374;
521.7000;1.0802;-5.2297;
522.0000;1.0737;-5.2349;
522.3000;1.0786;-5.2271;
522.6000;1.0786;-5.2271;
522.9000;1.0826;-5.2245;
523.2000;1.0794;-5.2349;
523.5000;1.0859;-5.2219;
523.8000;1.0810;-5.2374;
524.1000;1.0818;-5.2426;
524.4000;1.0802;-5.2400;
524.7000;1.0810;-5.2452;
525.0000;1.0802;-5.2426;
525.3000;1.0777;-5.2374;
525.6000;1.0777;-5.2297;
525.9000;1.0777;-5.2297;
526.2000;1.0802;-5.2219;
526.5000;1.0786;-5.2297;
526.8000;1.0777;-5.2297;
527.1000;1.0777;-5.2400;
527.4000;1.0794;-5.2323;
527.7000;1.0802;-5.2297;
528.0000;1.0794;-5.2193;
528.3000;1.0761;-5.2297;
528.6000;1.0802;-5.2167;
528.9000;1.0802;-5.2219;
529.2000;1.0745;-5.2426;
529.5000;1.0769;-5.2271;
529.8000;1.0786;-5.2323;
530.1000;1.0794;-5.2349;
530.4000;1.0810;-5.2374;
530.7000;1.0818;-5.2349;
531.0000;1.0786;-5.2400;
531.3000;1.0802;-5.2297;
531.6000;1.0810;-5.2349;
531.9000;1.0794;-5.2297;
532.2000;1.0786;-5.2323;
532.5000;1.0794;-5.2297;
532.8000;1.0802;-5.2297;
533.1000;1.0802;-5.2349;
533.4000;1.0761;-5.2400;
533.7000;1.0794;-5.2374;
534.0000;1.0802;-5.2374;
534.3000;1.0810;-5.2219;
534.6000;1.0794;-5.2271;
534.9000;1.0810;-5.2245;
535.2000;1.0794;-5.2219;
535.5000;1.0810;-5.2115;
535.8000;1.0794;-5.2193;
536.1000;1.0794;-5.2297;
536.4000;1.0802;-5.2349;
536.7000;1.0777;-5.2400;
537.0000;1.0802;-5.2323;
537.3000;1.0794;-5.2245;
537.6000;1.0777;-5.2374;
537.9000;1.0786;-5.2374;
538.2000;1.0826;-5.2426;
538.5000;1.0777;-5.2556;
538.8000;1.0802;-5.2452;
539.1000;1.0761;-5.2582;
539.4000;1.0794;-5.2374;
539.7000;1.0786;-5.2426;
540.0000;1.0786;-5.2374;
540.3000;1.0786;-5.2374;
540.6000;1.0794;-5.2374;
540.9000;1.0794;-5.2374;
541.2000;1.0777;-5.2297;
541.5000;1.0794;-5.2271;
541.8000;1.0769;-5.2245;
542.1000;1.0786;-5.2245;
542.4000;1.0777;-5.2349;
542.7000;1.0794;-5.2297;
543.0000;1.0794;-5.2271;
543.3000;1.0794;-5.2245;
543.6000;1.0802;-5.2219;
543.9000;1.0802;-5.2167;
544.2000;1.0786;-5.2271;
544.5000;1.0818;-5.2271;
544.8000;1.0794;-5.2400;
545.1000;1.0794;-5.2297;
545.4000;1.0810;-5.2245;
545.7000;1.0802;-5.2245;
546.0000;1.0802;-5.2323;
546.3000;1.0777;-5.2374;
546.6000;1.0761;-5.2426;
546.9000;1.0794;-5.2297;
547.2000;1.0786;-5.2297;
547.5000;1.0794;-5.2323;
547.8000;1.0802;-5.2349;
548.1000;1.0802;-5.2245;
548.4000;1.0802;-5.2219;
548.7000;1.0786;-5.2271;
549.0000;1.0786;-5.2141;
549.3000;1.0769;-5.2090;
549.6000;1.0777;-5.2219;
549.9000;1.0786;-5.2297;
550.2000;1.0794;-5.2271;
550.5000;1.0802;-5.2271;
550.8000;1.0794;-5.2219;
551.1000;1.0810;-5.2115;
551.4000;1.0777;-5.2193;
551.7000;1.0794;-5.2064;
552.0000;1.0826;-5.1986;
552.3000;1.0777;-5.2115;
552.6000;1.0794;-5.2141;
552.9000;1.0810;-5.2012;
553.2000;1.0777;-5.1934;
553.5000;1.0786;-5.2090;
553.8000;1.0786;-5.2038;
554.1000;1.0818;-5.1908;
554.4000;1.0794;-5.1908;
554.7000;1.0794;-5.1960;
555.0000;1.0745;-5.2141;
555.3000;1.0794;-5.1986;
555.6000;1.0802;-5.1986;
555.9000;1.0794;-5.2038;
556.2000;1.0842;-5.1934;
556.5000;1.0777;-5.2038;
556.8000;1.0810;-5.2090;
557.1000;1.0794;-5.2115;
557.4000;1.0883;-5.1908;
557.7000;1.0810;-5.2090;
558.0000;1.0786;-5.2090;
558.3000;1.0786;-5.2115;
558.6000;1.0777;-5.2167;
558.9000;1.0777;-5.2193;
559.2000;1.0753;-5.2323;
559.5000;1.0786;-5.2245;
559.8000;1.0794;-5.2219;
560.1000;1.0786;-5.2349;
560.4000;1.0802;-5.2349;
560.7000;1.0802;-5.2323;
561.0000;1.0802;-5.2349;
561.3000;1.0810;-5.2323;
561.6000;1.0794;-5.2374;
561.9000;1.0810;-5.2323;
562.2000;1.0810;-5.2323;
562.5000;1.0777;-5.2374;
562.8000;1.0712;-5.2530;
563.1000;1.0753;-5.2478;
563.4000;1.0777;-5.2349;
563.7000;1.0794;-5.2193;
564.0000;1.0786;-5.2115;
564.3000;1.0777;-5.2090;
564.6000;1.0834;-5.1934;
564.9000;1.0769;-5.1960;
565.2000;1.0761;-5.2115;
565.5000;1.0737;-5.2219;
565.8000;1.0761;-5.2245;
566.1000;1.0786;-5.2141;
566.4000;1.0794;-5.2167;
566.7000;1.0786;-5.2141;
567.0000;1.0786;-5.2115;
567.3000;1.0777;-5.2090;
567.6000;1.0777;-5.2141;
567.9000;1.0769;-5.2038;
568.2000;1.0777;-5.2090;
568.5000;1.0810;-5.2064;
568.8000;1.0786;-5.2167;
569.1000;1.0777;-5.2141;
569.4000;1.0769;-5.2167;
569.7000;1.0786;-5.2038;
570.0000;1.0769;-5.2038;
570.3000;1.0761;-5.2141;
570.6000;1.0786;-5.2064;
570.9000;1.0777;-5.2141;
571.2000;1.0786;-5.2115;
571.5000;1.0786;-5.2167;
571.8000;1.0761;-5.2245;
572.1000;1.0753;-5.2323;
572.4000;1.0802;-5.2323;
572.7000;1.0802;-5.2271;
573.0000;1.0777;-5.2245;
573.3000;1.0753;-5.2271;
573.6000;1.0818;-5.2141;
573.9000;1.0802;-5.2271;
574.2000;1.0794;-5.2297;
574.5000;1.0794;-5.2349;
574.8000;1.0794;-5.2349;
575.1000;1.0753;-5.2400;
575.4000;1.0777;-5.2219;
575.7000;1.0786;-5.2245;
576.0000;1.0786;-5.2271;
576.3000;1.0859;-5.1960;
576.6000;1.0794;-5.2090;
576.9000;1.0769;-5.2090;
577.2000;1.0786;-5.1986;
577.5000;1.0802;-5.1908;
577.8000;1.0786;-5.1960;
578.1000;1.0769;-5.1934;
578.4000;1.0761;-5.2038;
578.7000;1.0794;-5.1986;
579.0000;1.0753;-5.2115;
579.3000;1.0777;-5.2064;
579.6000;1.0753;-5.2141;
579.9000;1.0777;-5.2064;
580.2000;1.0769;-5.2090;
580.5000;1.0753;-5.2115;
580.8000;1.0769;-5.2012;
581.1000;1.0769;-5.1908;
581.4000;1.0777;-5.1960;
581.7000;1.0769;-5.2115;
582.0000;1.0786;-5.2064;
582.3000;1.0777;-5.2115;
582.6000;1.0818;-5.1986;
582.9000;1.0786;-5.2064;
583.2000;1.0769;-5.2115;
583.5000;1.0761;-5.2038;
583.8000;1.0777;-5.2012;
584.1000;1.0777;-5.1986;
584.4000;1.0769;-5.2012;
584.7000;1.0777;-5.2038;
585.0000;1.0777;-5.2141;
585.3000;1.0753;-5.2219;
585.6000;1.0769;-5.2141;
585.9000;1.0769;-5.2141;
586.2000;1.0777;-5.2193;
586.5000;1.0769;-5.2245;
586.8000;1.0761;-5.2245;
587.1000;1.0777;-5.2219;
587.4000;1.0777;-5.2245;
587.7000;1.0810;-5.2193;
588.0000;1.0810;-5.2167;
588.3000;1.0794;-5.2064;
588.6000;1.0794;-5.2064;
588.9000;1.0802;-5.2115;
589.2000;1.0777;-5.2064;
589.5000;1.0786;-5.2064;
589.8000;1.0769;-5.2090;
590.1000;1.0777;-5.2193;
590.4000;1.0786;-5.2167;
590.7000;1.0729;-5.2323;
591.0000;1.0810;-5.2271;
591.3000;1.0826;-5.2271;
591.6000;1.0802;-5.2349;
591.9000;1.0794;-5.2297;
592.2000;1.0794;-5.2193;
592.5000;1.0842;-5.2115;
592.8000;1.0810;-5.2141;
593.1000;1.0794;-5.2141;
593.4000;1.0786;-5.2193;
593.7000;1.0786;-5.2297;
594.0000;1.0786;-5.2219;
594.3000;1.0745;-5.2349;
594.6000;1.0777;-5.2245;
594.9000;1.0794;-5.2323;
595.2000;1.0786;-5.2297;
595.5000;1.0786;-5.2349;
595.8000;1.0769;-5.2323;
596.1000;1.0786;-5.2271;
596.4000;1.0794;-5.2323;
596.7000;1.0794;-5.2219;
597.0000;1.0802;-5.2141;
597.3000;1.0802;-5.2090;
597.6000;1.0794;-5.2038;
597.9000;1.0810;-5.2090;
598.2000;1.0769;-5.2141;
598.5000;1.0794;-5.2219;
598.8000;1.0802;-5.2167;
599.1000;1.0777;-5.2219;
599.4000;1.0777;-5.2323;
599.7000;1.0786;-5.2323;
600.0000;1.0745;-5.2349;
600.3000;1.0802;-5.2349;
600.6000;1.0769;-5.2659;
600.9000;1.0720;-5.2970;
601.2000;1.0647;-5.3255;
601.5000;1.0558;-5.3566;
601.8000;1.0492;-5.3799;
602.1000;1.0379;-5.4084;
602.4000;1.0313;-5.4110;
602.7000;1.0240;-5.4291;
603.0000;1.0183;-5.4447;
603.3000;1.0102;-5.4732;
603.6000;1.0028;-5.4861;
603.9000;0.9972;-5.4991;
604.2000;0.9915;-5.5120;
604.5000;0.9841;-5.5224;
604.8000;0.9792;-5.5301;
605.1000;0.9735;-5.5405;
605.4000;0.9613;-5.5742;
605.7000;0.9646;-5.5560;
606.0000;0.9581;-5.5664;
606.3000;0.9548;-5.5638;
606.6000;0.9491;-5.5716;
606.9000;0.9459;-5.5664;
607.2000;0.9410;-5.5638;
607.5000;0.9394;-5.5664;
607.8000;0.9328;-5.5819;
608.1000;0.9304;-5.5768;
608.4000;0.9247;-5.5871;
608.7000;0.9206;-5.5845;
609.0000;0.9174;-5.5897;
609.3000;0.9149;-5.5897;
609.6000;0.9092;-5.6027;
609.9000;0.9084;-5.6078;
610.2000;0.9011;-5.6104;
610.5000;0.9019;-5.6053;
610.8000;0.9003;-5.6078;
611.1000;0.8946;-5.6234;
611.4000;0.8905;-5.6312;
611.7000;0.8921;-5.6312;
612.0000;0.8889;-5.6337;
612.3000;0.8856;-5.6415;
612.6000;0.8848;-5.6389;
612.9000;0.8816;-5.6571;
613.2000;0.8767;-5.6648;
613.5000;0.8718;-5.6778;
613.8000;0.8726;-5.6674;
614.1000;0.8702;-5.6674;
614.4000;0.8685;-5.6700;
614.7000;0.8645;-5.6700;
615.0000;0.8637;-5.6674;
615.3000;0.8604;-5.6648;
615.6000;0.8580;-5.6674;
615.9000;0.8563;-5.6674;
616.2000;0.8580;-5.6622;
616.5000;0.8506;-5.6726;
616.8000;0.8523;-5.6674;
617.1000;0.8498;-5.6648;
617.4000;0.8457;-5.6648;
617.7000;0.8457;-5.6597;
618.0000;0.8441;-5.6674;
618.3000;0.8441;-5.6622;
618.6000;0.8425;-5.6648;
618.9000;0.8392;-5.6726;
619.2000;0.8368;-5.6648;
619.5000;0.8360;-5.6674;
619.8000;0.8327;-5.6622;
620.1000;0.8319;-5.6622;
620.4000;0.8287;-5.6778;
620.7000;0.8295;-5.6674;
621.0000;0.8270;-5.6674;
621.3000;0.8270;-5.6674;
621.6000;0.8238;-5.6856;
621.9000;0.8221;-5.6959;
622.2000;0.8213;-5.6959;
622.5000;0.8221;-5.6856;
622.8000;0.8189;-5.6830;
623.1000;0.8140;-5.6881;
623.4000;0.8173;-5.6830;
623.7000;0.8140;-5.6830;
624.0000;0.8124;-5.6804;
624.3000;0.8107;-5.6830;
624.6000;0.8132;-5.6804;
624.9000;0.8099;-5.6881;
625.2000;0.8083;-5.6959;
625.5000;0.8059;-5.6907;
625.8000;0.8059;-5.6907;
626.1000;0.8107;-5.6804;
626.4000;0.8050;-5.6856;
626.7000;0.8034;-5.6856;
627.0000;0.8034;-5.6830;
627.3000;0.7977;-5.6933;
627.6000;0.8002;-5.6985;
627.9000;0.8026;-5.6804;
628.2000;0.8059;-5.6778;
628.5000;0.7953;-5.6933;
628.8000;0.7969;-5.6856;
629.1000;0.7953;-5.6778;
629.4000;0.7953;-5.6700;
629.7000;0.7945;-5.6700;
630.0000;0.7937;-5.6726;
630.3000;0.7904;-5.6856;
630.6000;0.7888;-5.6856;
630.9000;0.7928;-5.6778;
631.2000;0.7937;-5.6597;
631.5000;0.7888;-5.6674;
631.8000;0.7831;-5.6856;
632.1000;0.7855;-5.6752;
632.4000;0.7888;-5.6700;
632.7000;0.7700;-5.7166;
633.0000;0.7831;-5.6830;
633.3000;0.7798;-5.6830;
633.6000;0.7814;-5.6752;
633.9000;0.7814;-5.6752;
634.2000;0.7806;-5.6856;
634.5000;0.7798;-5.6907;
634.8000;0.7871;-5.6752;
635.1000;0.7774;-5.6907;
635.4000;0.7749;-5.6830;
635.7000;0.7757;-5.6804;
636.0000;0.7757;-5.6752;
636.3000;0.7757;-5.6752;
636.6000;0.7709;-5.6778;
636.9000;0.7733;-5.6700;
637.2000;0.7717;-5.6674;
637.5000;0.7717;-5.6648;
637.8000;0.7692;-5.6700;
638.1000;0.7660;-5.6856;
638.4000;0.7684;-5.6856;
638.7000;0.7676;-5.6907;
639.0000;0.7668;-5.6933;
639.3000;0.7676;-5.6881;
639.6000;0.7652;-5.6907;
639.9000;0.7635;-5.6933;
640.2000;0.7627;-5.6985;
640.5000;0.7635;-5.7037;
640.8000;0.7635;-5.7140;
641.1000;0.7603;-5.7166;
641.4000;0.7635;-5.7037;
641.7000;0.7611;-5.7063;
642.0000;0.7595;-5.7037;
642.3000;0.7570;-5.7011;
642.6000;0.7578;-5.6985;
642.9000;0.7562;-5.6933;
643.2000;0.7538;-5.7063;
643.5000;0.7554;-5.7037;
643.8000;0.7562;-5.6933;
644.1000;0.7578;-5.6959;
644.4000;0.7554;-5.7037;
644.7000;0.7546;-5.6959;
645.0000;0.7521;-5.6933;
645.3000;0.7530;-5.6933;
645.6000;0.7505;-5.6933;
645.9000;0.7513;-5.6881;
646.2000;0.7521;-5.6830;
646.5000;0.7513;-5.6907;
646.8000;0.7505;-5.6881;
647.1000;0.7473;-5.6985;
647.4000;0.7481;-5.7011;
647.7000;0.7481;-5.6959;
648.0000;0.7473;-5.6959;
648.3000;0.7456;-5.7037;
648.6000;0.7456;-5.7063;
648.9000;0.7473;-5.7089;
649.2000;0.7448;-5.7115;
649.5000;0.7448;-5.7140;
649.8000;0.7416;-5.7296;
650.1000;0.7440;-5.7192;
650.4000;0.7448;-5.7166;
650.7000;0.7432;-5.7192;
651.0000;0.7432;-5.7192;
651.3000;0.7424;-5.7089;
651.6000;0.7407;-5.7166;
651.9000;0.7432;-5.7115;
652.2000;0.7399;-5.7270;
652.5000;0.7448;-5.7037;
652.8000;0.7399;-5.7270;
653.1000;0.7464;-5.7089;
653.4000;0.7383;-5.7218;
653.7000;0.7367;-5.7270;
654.0000;0.7383;-5.7244;
654.3000;0.7383;-5.7192;
654.6000;0.7318;-5.7270;
654.9000;0.7367;-5.7089;
655.2000;0.7342;-5.7115;
655.5000;0.7375;-5.7089;
655.8000;0.7399;-5.7037;
656.1000;0.7350;-5.7140;
656.4000;0.7342;-5.7166;
656.7000;0.7359;-5.7063;
657.0000;0.7350;-5.7037;
657.3000;0.7326;-5.7115;
657.6000;0.7334;-5.7037;
657.9000;0.7245;-5.7140;
658.2000;0.7285;-5.7063;
658.5000;0.7318;-5.7089;
658.8000;0.7293;-5.7115;
659.1000;0.7293;-5.7140;
659.4000;0.7302;-5.7011;
659.7000;0.7302;-5.6881;
660.0000;0.7293;-5.6959;
660.3000;0.7310;-5.6985;
660.6000;0.7245;-5.7037;
660.9000;0.7277;-5.6907;
661.2000;0.7253;-5.6907;
661.5000;0.7228;-5.6959;
661.8000;0.7269;-5.6881;
662.1000;0.7407;-5.6597;
662.4000;0.7245;-5.6959;
662.7000;0.7245;-5.6933;
663.0000;0.7236;-5.6959;
663.3000;0.7245;-5.7037;
663.6000;0.7220;-5.7063;
663.9000;0.7236;-5.7063;
664.2000;0.7236;-5.6985;
664.5000;0.7245;-5.6959;
664.8000;0.7220;-5.6985;
665.1000;0.7245;-5.6933;
665.4000;0.7228;-5.6856;
665.7000;0.7220;-5.6907;
666.0000;0.7228;-5.6933;
666.3000;0.7196;-5.6985;
666.6000;0.7196;-5.6907;
666.9000;0.7196;-5.6881;
667.2000;0.7171;-5.6830;
667.5000;0.7171;-5.6752;
667.8000;0.7188;-5.6778;
668.1000;0.7188;-5.6804;
668.4000;0.7179;-5.6881;
668.7000;0.7179;-5.6830;
669.0000;0.7179;-5.6856;
669.3000;0.7155;-5.6856;
669.6000;0.7163;-5.6830;
669.9000;0.7155;-5.6778;
670.2000;0.7139;-5.6907;
670.5000;0.7147;-5.6933;
670.8000;0.7163;-5.6959;
671.1000;0.7139;-5.7037;
671.4000;0.7131;-5.7011;
671.7000;0.7131;-5.6933;
672.0000;0.7123;-5.7037;
672.3000;0.7123;-5.7011;
672.6000;0.7090;-5.7089;
672.9000;0.7106;-5.7063;
673.2000;0.7090;-5.7011;
673.5000;0.7106;-5.6933;
673.8000;0.7066;-5.7063;
674.1000;0.7090;-5.7115;
674.4000;0.7090;-5.7011;
674.7000;0.7123;-5.6830;
675.0000;0.7082;-5.6959;
675.3000;0.7090;-5.6881;
675.6000;0.7106;-5.6856;
675.9000;0.7106;-5.6830;
676.2000;0.7082;-5.6959;
676.5000;0.7082;-5.6985;
676.8000;0.7057;-5.7140;
677.1000;0.7074;-5.7140;
677.4000;0.7057;-5.7166;
677.7000;0.7066;-5.7115;
678.0000;0.7041;-5.7166;
678.3000;0.7057;-5.7037;
678.6000;0.7066;-5.7037;
678.9000;0.7057;-5.7037;
679.2000;0.7041;-5.7037;
679.5000;0.7049;-5.7089;
679.8000;0.7066;-5.7011;
680.1000;0.7033;-5.7089;
680.4000;0.7033;-5.7063;
680.7000;0.7017;-5.7037;
681.0000;0.7057;-5.7037;
681.3000;0.7057;-5.7037;
681.6000;0.7017;-5.7115;
681.9000;0.7033;-5.7063;
682.2000;0.7017;-5.7037;
682.5000;0.7025;-5.7037;
682.8000;0.7017;-5.7011;
683.1000;0.7017;-5.6856;
683.4000;0.7017;-5.6933;
683.7000;0.7017;-5.6959;
684.0000;0.7000;-5.6959;
684.3000;0.6992;-5.6959;
684.6000;0.6984;-5.7011;
684.9000;0.7017;-5.6985;
685.2000;0.7025;-5.6985;
685.5000;0.6968;-5.7063;
685.8000;0.6968;-5.7063;
686.1000;0.7025;-5.6907;
686.4000;0.6984;-5.6881;
686.7000;0.6927;-5.7011;
687.0000;0.6976;-5.6959;
687.3000;0.6976;-5.6959;
687.6000;0.6984;-5.6907;
687.9000;0.6968;-5.6907;
688.2000;0.6960;-5.6804;
688.5000;0.7017;-5.6726;
688.8000;0.6960;-5.6856;
689.1000;0.6943;-5.6881;
689.4000;0.6943;-5.6959;
689.7000;0.6935;-5.6907;
690.0000;0.6943;-5.6856;
690.3000;0.6943;-5.6830;
690.6000;0.6943;-5.6726;
690.9000;0.6952;-5.6752;
691.2000;0.6960;-5.6726;
691.5000;0.6927;-5.6752;
691.8000;0.6960;-5.6700;
692.1000;0.6935;-5.6726;
692.4000;0.6919;-5.6778;
692.7000;0.6943;-5.6778;
693.0000;0.6919;-5.6856;
693.3000;0.6878;-5.7011;
693.6000;0.6903;-5.6985;
693.9000;0.6911;-5.6959;
694.2000;0.6919;-5.6856;
694.5000;0.6903;-5.6985;
694.8000;0.6960;-5.6830;
695.1000;0.6919;-5.6907;
695.4000;0.6919;-5.6985;
695.7000;0.6911;-5.6959;
696.0000;0.6911;-5.6933;
696.3000;0.6903;-5.6959;
696.6000;0.6878;-5.6907;
696.9000;0.6895;-5.6907;
697.2000;0.6911;-5.6881;
697.5000;0.6903;-5.6830;
697.8000;0.6870;-5.6907;
698.1000;0.6878;-5.6933;
698.4000;0.6886;-5.6804;
698.7000;0.6878;-5.6933;
699.0000;0.6886;-5.6907;
699.3000;0.6862;-5.6881;
699.6000;0.6862;-5.6856;
699.9000;0.6870;-5.6907;
700.2000;0.6846;-5.6933;
700.5000;0.6870;-5.6881;
700.8000;0.6862;-5.6907;
701.1000;0.6862;-5.6830;
701.4000;0.6862;-5.6752;
701.7000;0.6854;-5.6700;
702.0000;0.6862;-5.6778;
702.3000;0.6862;-5.6856;
702.6000;0.6870;-5.6856;
702.9000;0.6846;-5.6959;
703.2000;0.6829;-5.7037;
703.5000;0.6838;-5.7037;
703.8000;0.6862;-5.7037;
704.1000;0.6846;-5.6933;
704.4000;0.6846;-5.6907;
704.7000;0.6829;-5.6985;
705.0000;0.6821;-5.7089;
705.3000;0.6838;-5.6985;
705.6000;0.6903;-5.6804;
705.9000;0.6797;-5.7011;
706.2000;0.6797;-5.7063;
706.5000;0.6846;-5.6985;
706.8000;0.6829;-5.6907;
707.1000;0.6862;-5.6830;
707.4000;0.6821;-5.6985;
707.7000;0.6813;-5.6985;
708.0000;0.6797;-5.7063;
708.3000;0.6789;-5.7089;
708.6000;0.6789;-5.7063;
708.9000;0.6829;-5.6985;
709.2000;0.6838;-5.6907;
709.5000;0.6797;-5.7063;
709.8000;0.6797;-5.7011;
710.1000;0.6756;-5.7115;
710.4000;0.6781;-5.6933;
710.7000;0.6805;-5.6933;
711.0000;0.6781;-5.6985;
711.3000;0.6772;-5.7011;
711.6000;0.6789;-5.6959;
711.9000;0.6781;-5.6933;
712.2000;0.6781;-5.6830;
712.5000;0.6813;-5.6726;
712.8000;0.6764;-5.6752;
713.1000;0.6764;-5.6804;
713.4000;0.6716;-5.6856;
713.7000;0.6772;-5.6752;
714.0000;0.6764;-5.6752;
714.3000;0.6756;-5.6674;
714.6000;0.6756;-5.6700;
714.9000;0.6756;-5.6700;
715.2000;0.6756;-5.6752;
715.5000;0.6748;-5.6856;
715.8000;0.6764;-5.6804;
716.1000;0.6699;-5.7011;
716.4000;0.6756;-5.6804;
716.7000;0.6764;-5.6856;
717.0000;0.6691;-5.7011;
717.3000;0.6756;-5.6881;
717.6000;0.6740;-5.6856;
717.9000;0.6756;-5.6830;
718.2000;0.6748;-5.6856;
718.5000;0.6691;-5.6933;
718.8000;0.6740;-5.6778;
719.1000;0.6756;-5.6726;
719.4000;0.6748;-5.6674;
719.7000;0.6740;-5.6752;
720.0000;0.6740;-5.6804;
720.3000;0.6740;-5.6856;
720.6000;0.6724;-5.6830;
720.9000;0.6724;-5.6830;
721.2000;0.6732;-5.6778;
721.5000;0.6716;-5.6856;
721.8000;0.6699;-5.6933;
722.1000;0.6699;-5.6959;
722.4000;0.6748;-5.6830;
722.7000;0.6707;-5.6881;
723.0000;0.6716;-5.6907;
723.3000;0.6764;-5.6830;
723.6000;0.6748;-5.6959;
723.9000;0.6707;-5.7011;
724.2000;0.6683;-5.7011;
724.5000;0.6699;-5.6985;
724.8000;0.6675;-5.7140;
725.1000;0.6699;-5.7166;
725.4000;0.6748;-5.7063;
725.7000;0.6716;-5.7089;
726.0000;0.6707;-5.6959;
726.3000;0.6642;-5.7140;
726.6000;0.6699;-5.7037;
726.9000;0.6699;-5.7037;
727.2000;0.6691;-5.6985;
727.5000;0.6699;-5.6959;
727.8000;0.6691;-5.7063;
728.1000;0.6699;-5.7140;
728.4000;0.6675;-5.7166;
728.7000;0.6691;-5.6985;
729.0000;0.6683;-5.7011;
729.3000;0.6683;-5.6985;
729.6000;0.6650;-5.7037;
729.9000;0.6675;-5.6907;
730.2000;0.6699;-5.6726;
730.5000;0.6683;-5.6674;
730.8000;0.6683;-5.6778;
731.1000;0.6675;-5.6881;
731.4000;0.6659;-5.6830;
731.7000;0.6699;-5.6778;
732.0000;0.6683;-5.6752;
732.3000;0.6659;-5.6778;
732.6000;0.6724;-5.6726;
732.9000;0.6724;-5.6622;
733.2000;0.6691;-5.6752;
733.5000;0.6667;-5.6830;
733.8000;0.6650;-5.6856;
734.1000;0.6691;-5.6778;
734.4000;0.6659;-5.6881;
734.7000;0.6716;-5.6778;
735.0000;0.6659;-5.6959;
735.3000;0.6634;-5.7037;
735.6000;0.6650;-5.7011;
735.9000;0.6642;-5.7011;
736.2000;0.6650;-5.6881;
736.5000;0.6683;-5.6907;
736.8000;0.6716;-5.6804;
737.1000;0.6650;-5.6959;
737.4000;0.6642;-5.6933;
737.7000;0.6650;-5.6881;
738.0000;0.6642;-5.6933;
738.3000;0.6626;-5.6985;
738.6000;0.6626;-5.6985;
738.9000;0.6642;-5.6881;
739.2000;0.6675;-5.6804;
739.5000;0.6634;-5.6907;
739.8000;0.6626;-5.6933;
740.1000;0.6642;-5.6907;
740.4000;0.6659;-5.6830;
740.7000;0.6626;-5.7037;
741.0000;0.6618;-5.7115;
741.3000;0.6626;-5.7037;
741.6000;0.6626;-5.6959;
741.9000;0.6610;-5.6959;
742.2000;0.6626;-5.6830;
742.5000;0.6602;-5.6907;
742.8000;0.6610;-5.6804;
743.1000;0.6569;-5.6881;
743.4000;0.6626;-5.6726;
743.7000;0.6610;-5.6778;
744.0000;0.6634;-5.6700;
744.3000;0.6553;-5.6881;
744.6000;0.6683;-5.6597;
744.9000;0.6667;-5.6622;
745.2000;0.6610;-5.6752;
745.5000;0.6593;-5.6830;
745.8000;0.6593;-5.6907;
746.1000;0.6610;-5.6881;
746.4000;0.6577;-5.6933;
746.7000;0.6602;-5.6830;
747.0000;0.6602;-5.6804;
747.3000;0.6536;-5.6881;
747.6000;0.6602;-5.6752;
747.9000;0.6610;-5.6700;
748.2000;0.6634;-5.6648;
748.5000;0.6585;-5.6752;
748.8000;0.6602;-5.6726;
749.1000;0.6593;-5.6726;
749.4000;0.6593;-5.6752;
749.7000;0.6585;-5.6752;
750.0000;0.6593;-5.6726;
750.3000;0.6610;-5.6726;
750.6000;0.6577;-5.6804;
750.9000;0.6569;-5.6830;
751.2000;0.6577;-5.6778;
751.5000;0.6577;-5.6804;
751.8000;0.6569;-5.6881;
752.1000;0.6577;-5.6933;
752.4000;0.6585;-5.6985;
752.7000;0.6593;-5.6985;
753.0000;0.6577;-5.7037;
753.3000;0.6569;-5.6985;
753.6000;0.6577;-5.6907;
753.9000;0.6569;-5.6881;
754.2000;0.6577;-5.6804;
754.5000;0.6569;-5.6752;
754.8000;0.6569;-5.6674;
755.1000;0.6610;-5.6571;
755.4000;0.6585;-5.6674;
755.7000;0.6553;-5.6778;
756.0000;0.6553;-5.6752;
756.3000;0.6577;-5.6752;
756.6000;0.6561;-5.6804;
756.9000;0.6569;-5.6700;
757.2000;0.6553;-5.6752;
757.5000;0.6561;-5.6752;
757.8000;0.6561;-5.6804;
758.1000;0.6561;-5.6700;
758.4000;0.6569;-5.6700;
758.7000;0.6569;-5.6726;
759.0000;0.6553;-5.6700;
759.3000;0.6520;-5.6830;
759.6000;0.6545;-5.6804;
759.9000;0.6553;-5.6700;
760.2000;0.6593;-5.6622;
760.5000;0.6561;-5.6700;
760.8000;0.6545;-5.6752;
761.1000;0.6528;-5.6700;
761.4000;0.6561;-5.6700;
761.7000;0.6536;-5.6778;
762.0000;0.6545;-5.6804;
762.3000;0.6561;-5.6907;
762.6000;0.6528;-5.6959;
762.9000;0.6545;-5.6907;
763.2000;0.6545;-5.6907;
763.5000;0.6577;-5.6933;
763.8000;0.6536;-5.7063;
764.1000;0.6569;-5.6985;
764.4000;0.6536;-5.7037;
764.7000;0.6512;-5.6959;
765.0000;0.6561;-5.6856;
765.3000;0.6561;-5.6830;
765.6000;0.6528;-5.6856;
765.9000;0.6528;-5.6856;
766.2000;0.6536;-5.6830;
766.5000;0.6528;-5.6778;
766.8000;0.6528;-5.6752;
767.1000;0.6520;-5.6804;
767.4000;0.6528;-5.6778;
767.7000;0.6536;-5.6726;
768.0000;0.6520;-5.6726;
768.3000;0.6520;-5.6778;
768.6000;0.6528;-5.6726;
768.9000;0.6528;-5.6726;
769.2000;0.6512;-5.6700;
769.5000;0.6520;-5.6726;
769.8000;0.6512;-5.6700;
770.1000;0.6504;-5.6726;
770.4000;0.6512;-5.6674;
770.7000;0.6520;-5.6726;
771.0000;0.6520;-5.6804;
771.3000;0.6479;-5.6881;
771.6000;0.6496;-5.6881;
771.9000;0.6520;-5.6804;
772.2000;0.6488;-5.6804;
772.5000;0.6504;-5.6726;
772.8000;0.6504;-5.6648;
773.1000;0.6496;-5.6648;
773.4000;0.6512;-5.6597;
773.7000;0.6488;-5.6674;
774.0000;0.6496;-5.6700;
774.3000;0.6496;-5.6700;
774.6000;0.6479;-5.6726;
774.9000;0.6496;-5.6674;
775.2000;0.6504;-5.6752;
775.5000;0.6504;-5.6726;
775.8000;0.6496;-5.6752;
776.1000;0.6512;-5.6726;
776.4000;0.6488;-5.6778;
776.7000;0.6545;-5.6648;
777.0000;0.6479;-5.6856;
777.3000;0.6496;-5.6778;
777.6000;0.6479;-5.6830;
777.9000;0.6455;-5.6933;
778.2000;0.6520;-5.6881;
778.5000;0.6512;-5.6881;
778.8000;0.6488;-5.6959;
779.1000;0.6504;-5.6881;
779.4000;0.6488;-5.6856;
779.7000;0.6496;-5.6778;
780.0000;0.6496;-5.6674;
780.3000;0.6488;-5.6700;
780.6000;0.6479;-5.6726;
780.9000;0.6496;-5.6674;
781.2000;0.6471;-5.6622;
781.5000;0.6479;-5.6700;
781.8000;0.6488;-5.6674;
782.1000;0.6479;-5.6674;
782.4000;0.6488;-5.6752;
782.7000;0.6471;-5.6778;
783.0000;0.6520;-5.6648;
783.3000;0.6455;-5.6933;
783.6000;0.6488;-5.6804;
783.9000;0.6463;-5.6778;
784.2000;0.6471;-5.6804;
784.5000;0.6479;-5.6778;
784.8000;0.6479;-5.6804;
785.1000;0.6471;-5.6856;
785.4000;0.6471;-5.6881;
785.7000;0.6471;-5.6856;
786.0000;0.6471;-5.6881;
786.3000;0.6447;-5.7037;
786.6000;0.6463;-5.6959;
786.9000;0.6447;-5.6933;
787.2000;0.6455;-5.6907;
787.5000;0.6447;-5.6933;
787.8000;0.6463;-5.6959;
788.1000;0.6463;-5.6959;
788.4000;0.6479;-5.6907;
788.7000;0.6471;-5.6933;
789.0000;0.6471;-5.6856;
789.3000;0.6455;-5.6830;
789.6000;0.6471;-5.6778;
789.9000;0.6463;-5.6856;
790.2000;0.6488;-5.6752;
790.5000;0.6463;-5.6778;
790.8000;0.6471;-5.6752;
791.1000;0.6455;-5.6752;
791.4000;0.6463;-5.6726;
791.7000;0.6455;-5.6648;
792.0000;0.6455;-5.6752;
792.3000;0.6455;-5.6726;
792.6000;0.6463;-5.6752;
792.9000;0.6463;-5.6778;
793.2000;0.6431;-5.6752;
793.5000;0.6455;-5.6622;
793.8000;0.6455;-5.6648;
794.1000;0.6455;-5.6726;
794.4000;0.6496;-5.6648;
794.7000;0.6455;-5.6726;
795.0000;0.6455;-5.6674;
795.3000;0.6439;-5.6622;
795.6000;0.6431;-5.6674;
795.9000;0.6431;-5.6648;
796.2000;0.6439;-5.6571;
796.5000;0.6422;-5.6622;
796.8000;0.6439;-5.6622;
797.1000;0.6382;-5.6700;
797.4000;0.6447;-5.6597;
797.7000;0.6422;-5.6726;
798.0000;0.6439;-5.6674;
798.3000;0.6422;-5.6622;
798.6000;0.6455;-5.6467;
798.9000;0.6439;-5.6519;
799.2000;0.6431;-5.6597;
799.5000;0.6447;-5.6597;
799.8000;0.6447;-5.6493;
800.1000;0.6471;-5.6493;
800.4000;0.6439;-5.6622;
800.7000;0.6431;-5.6674;
801.0000;0.6455;-5.6674;
801.3000;0.6439;-5.6830;
801.6000;0.6390;-5.6959;
801.9000;0.6439;-5.6856;
802.2000;0.6479;-5.6778;
802.5000;0.6422;-5.6933;
802.8000;0.6374;-5.6959;
803.1000;0.6455;-5.6700;
803.4000;0.6406;-5.6830;
803.7000;0.6414;-5.6804;
804.0000;0.6479;-5.6674;
804.3000;0.6422;-5.6804;
804.6000;0.6414;-5.6881;
804.9000;0.6414;-5.6907;
805.2000;0.6431;-5.6752;
805.5000;0.6414;-5.6700;
805.8000;0.6382;-5.6752;
806.1000;0.6414;-5.6778;
806.4000;0.6439;-5.6752;
806.7000;0.6398;-5.6830;
807.0000;0.6414;-5.6830;
807.3000;0.6439;-5.6804;
807.6000;0.6406;-5.6830;
807.9000;0.6406;-5.6830;
808.2000;0.6406;-5.6830;
808.5000;0.6374;-5.6933;
808.8000;0.6414;-5.6830;
809.1000;0.6431;-5.6752;
809.4000;0.6447;-5.6648;
809.7000;0.6422;-5.6804;
810.0000;0.6414;-5.6856;
810.3000;0.6422;-5.6752;
810.6000;0.6414;-5.6804;
810.9000;0.6422;-5.6804;
811.2000;0.6406;-5.6752;
811.5000;0.6414;-5.6726;
811.8000;0.6431;-5.6597;
812.1000;0.6406;-5.6674;
812.4000;0.6431;-5.6597;
812.7000;0.6398;-5.6648;
813.0000;0.6365;-5.6778;
813.3000;0.6382;-5.6726;
813.6000;0.6390;-5.6726;
813.9000;0.6447;-5.6648;
814.2000;0.6390;-5.6752;
814.5000;0.6390;-5.6674;
814.8000;0.6406;-5.6597;
815.1000;0.6406;-5.6648;
815.4000;0.6414;-5.6622;
815.7000;0.6406;-5.6571;
816.0000;0.6365;-5.6700;
816.3000;0.6390;-5.6674;
816.6000;0.6406;-5.6597;
816.9000;0.6398;-5.6674;
817.2000;0.6357;-5.6752;
817.5000;0.6374;-5.6726;
817.8000;0.6455;-5.6545;
818.1000;0.6382;-5.6674;
818.4000;0.6382;-5.6726;
818.7000;0.6390;-5.6804;
819.0000;0.6357;-5.6959;
819.3000;0.6390;-5.6959;
819.6000;0.6374;-5.6985;
819.9000;0.6390;-5.6959;
820.2000;0.6390;-5.6778;
820.5000;0.6374;-5.6804;
820.8000;0.6374;-5.6856;
821.1000;0.6365;-5.6804;
821.4000;0.6382;-5.6700;
821.7000;0.6422;-5.6648;
822.0000;0.6382;-5.6726;
822.3000;0.6374;-5.6778;
822.6000;0.6398;-5.6752;
822.9000;0.6382;-5.6752;
823.2000;0.6382;-5.6830;
823.5000;0.6349;-5.6907;
823.8000;0.6374;-5.6778;
824.1000;0.6382;-5.6778;
824.4000;0.6374;-5.6778;
824.7000;0.6374;-5.6830;
825.0000;0.6382;-5.6804;
825.3000;0.6398;-5.6778;
825.6000;0.6382;-5.6907;
825.9000;0.6390;-5.6881;
826.2000;0.6365;-5.6985;
826.5000;0.6390;-5.6856;
826.8000;0.6382;-5.6830;
827.1000;0.6349;-5.6933;
827.4000;0.6349;-5.6856;
827.7000;0.6374;-5.6804;
828.0000;0.6382;-5.6726;
828.3000;0.6374;-5.6700;
828.6000;0.6382;-5.6597;
828.9000;0.6357;-5.6571;
829.2000;0.6374;-5.6622;
829.5000;0.6382;-5.6674;
829.8000;0.6357;-5.6648;
830.1000;0.6374;-5.6648;
830.4000;0.6357;-5.6700;
830.7000;0.6374;-5.6648;
831.0000;0.6365;-5.6726;
831.3000;0.6357;-5.6804;
831.6000;0.6374;-5.6700;
831.9000;0.6374;-5.6571;
832.2000;0.6341;-5.6597;
832.5000;0.6406;-5.6519;
832.8000;0.6382;-5.6597;
833.1000;0.6374;-5.6648;
833.4000;0.6382;-5.6752;
833.7000;0.6365;-5.6804;
834.0000;0.6357;-5.6804;
834.3000;0.6325;-5.6830;
834.6000;0.6357;-5.6778;
834.9000;0.6341;-5.6778;
835.2000;0.6365;-5.6752;
835.5000;0.6374;-5.6726;
835.8000;0.6341;-5.6726;
836.1000;0.6349;-5.6700;
836.4000;0.6357;-5.6674;
836.7000;0.6309;-5.6856;
837.0000;0.6365;-5.6752;
837.3000;0.6365;-5.6700;
837.6000;0.6357;-5.6700;
837.9000;0.6317;-5.6648;
838.2000;0.6374;-5.6571;
838.5000;0.6341;-5.6648;
838.8000;0.6276;-5.6804;
839.1000;0.6349;-5.6571;
839.4000;0.6341;-5.6493;
839.7000;0.6357;-5.6571;
840.0000;0.6365;-5.6571;
840.3000;0.6414;-5.6467;
840.6000;0.6349;-5.6674;
840.9000;0.6382;-5.6519;
841.2000;0.6341;-5.6571;
841.5000;0.6349;-5.6648;
841.8000;0.6349;-5.6648;
842.1000;0.6357;-5.6674;
842.4000;0.6341;-5.6597;
842.7000;0.6333;-5.6622;
843.0000;0.6349;-5.6545;
843.3000;0.6357;-5.6597;
843.6000;0.6341;-5.6622;
843.9000;0.6325;-5.6622;
844.2000;0.6333;-5.6622;
844.5000;0.6349;-5.6700;
844.8000;0.6365;-5.6804;
845.1000;0.6276;-5.6985;
845.4000;0.6349;-5.6752;
845.7000;0.6349;-5.6804;
846.0000;0.6349;-5.6752;
846.3000;0.6341;-5.6648;
846.6000;0.6309;-5.6700;
846.9000;0.6325;-5.6700;
847.2000;0.6325;-5.6778;
847.5000;0.6325;-5.6674;
847.8000;0.6317;-5.6752;
848.1000;0.6317;-5.6752;
848.4000;0.6341;-5.6648;
848.7000;0.6333;-5.6648;
849.0000;0.6325;-5.6674;
849.3000;0.6309;-5.6700;
849.6000;0.6333;-5.6726;
849.9000;0.6333;-5.6674;
850.2000;0.6341;-5.6700;
850.5000;0.6333;-5.6700;
850.8000;0.6341;-5.6648;
851.1000;0.6349;-5.6700;
851.4000;0.6349;-5.6700;
851.7000;0.6341;-5.6700;
852.0000;0.6333;-5.6674;
852.3000;0.6341;-5.6571;
852.6000;0.6333;-5.6571;
852.9000;0.6300;-5.6545;
853.2000;0.6317;-5.6545;
853.5000;0.6276;-5.6648;
853.8000;0.6341;-5.6493;
854.1000;0.6317;-5.6545;
854.4000;0.6325;-5.6545;
854.7000;0.6333;-5.6571;
855.0000;0.6325;-5.6597;
855.3000;0.6325;-5.6597;
855.6000;0.6309;-5.6648;
855.9000;0.6341;-5.6622;
856.2000;0.6382;-5.6519;
856.5000;0.6341;-5.6571;
856.8000;0.6349;-5.6622;
857.1000;0.6333;-5.6597;
857.4000;0.6309;-5.6674;
857.7000;0.6341;-5.6519;
858.0000;0.6317;-5.6441;
858.3000;0.6309;-5.6415;
858.6000;0.6325;-5.6363;
858.9000;0.6268;-5.6519;
859.2000;0.6349;-5.6337;
859.5000;0.6292;-5.6415;
859.8000;0.6284;-5.6467;
860.1000;0.6325;-5.6467;
860.4000;0.6317;-5.6545;
860.7000;0.6276;-5.6674;
861.0000;0.6309;-5.6648;
861.3000;0.6325;-5.6545;
861.6000;0.6317;-5.6571;
861.9000;0.6292;-5.6648;
862.2000;0.6333;-5.6571;
862.5000;0.6333;-5.6674;
862.8000;0.6325;-5.6700;
863.1000;0.6309;-5.6700;
863.4000;0.6309;-5.6726;
863.7000;0.6325;-5.6726;
864.0000;0.6309;-5.6778;
864.3000;0.6317;-5.6856;
864.6000;0.6317;-5.6778;
864.9000;0.6309;-5.6700;
865.2000;0.6333;-5.6622;
865.5000;0.6317;-5.6674;
865.8000;0.6317;-5.6622;
866.1000;0.6325;-5.6674;
866.4000;0.6317;-5.6648;
866.7000;0.6325;-5.6648;
867.0000;0.6333;-5.6674;
867.3000;0.6309;-5.6700;
867.6000;0.6325;-5.6700;
867.9000;0.6341;-5.6700;
868.2000;0.6292;-5.6726;
868.5000;0.6300;-5.6804;
868.8000;0.6317;-5.6804;
869.1000;0.6317;-5.6752;
869.4000;0.6309;-5.6778;
869.7000;0.6333;-5.6726;
870.0000;0.6300;-5.6752;
870.3000;0.6309;-5.6830;
870.6000;0.6309;-5.6804;
870.9000;0.6309;-5.6830;
871.2000;0.6284;-5.6907;
871.5000;0.6252;-5.7011;
871.8000;0.6309;-5.6856;
872.1000;0.6309;-5.6830;
872.4000;0.6317;-5.6726;
872.7000;0.6309;-5.6700;
873.0000;0.6333;-5.6597;
873.3000;0.6292;-5.6752;
873.6000;0.6309;-5.6752;
873.9000;0.6317;-5.6726;
874.2000;0.6309;-5.6752;
874.5000;0.6325;-5.6674;
874.8000;0.6300;-5.6726;
875.1000;0.6325;-5.6622;
875.4000;0.6309;-5.6571;
875.7000;0.6292;-5.6571;
876.0000;0.6292;-5.6597;
876.3000;0.6333;-5.6597;
876.6000;0.6292;-5.6674;
876.9000;0.6300;-5.6622;
877.2000;0.6317;-5.6674;
877.5000;0.6292;-5.6674;
877.8000;0.6309;-5.6674;
878.1000;0.6268;-5.6674;
878.4000;0.6276;-5.6597;
878.7000;0.6292;-5.6648;
879.0000;0.6300;-5.6622;
879.3000;0.6178;-5.6830;
879.6000;0.6276;-5.6519;
879.9000;0.6300;-5.6467;
880.2000;0.6325;-5.6467;
880.5000;0.6284;-5.6571;
880.8000;0.6284;-5.6415;
881.1000;0.6276;-5.6519;
881.4000;0.6276;-5.6467;
881.7000;0.6276;-5.6493;
882.0000;0.6284;-5.6545;
882.3000;0.6284;-5.6493;
882.6000;0.6276;-5.6519;
882.9000;0.6292;-5.6519;
883.2000;0.6292;-5.6493;
883.5000;0.6309;-5.6467;
883.8000;0.6260;-5.6571;
884.1000;0.6284;-5.6519;
884.4000;0.6300;-5.6493;
884.7000;0.6276;-5.6545;
885.0000;0.6268;-5.6571;
885.3000;0.6276;-5.6597;
885.6000;0.6284;-5.6597;
885.9000;0.6276;-5.6571;
886.2000;0.6284;-5.6571;
886.5000;0.6276;-5.6571;
886.8000;0.6235;-5.6571;
887.1000;0.6268;-5.6415;
887.4000;0.6276;-5.6441;
887.7000;0.6252;-5.6519;
888.0000;0.6235;-5.6622;
888.3000;0.6292;-5.6571;
888.6000;0.6268;-5.6700;
888.9000;0.6276;-5.6752;
889.2000;0.6268;-5.6830;
889.5000;0.6276;-5.6830;
889.8000;0.6252;-5.6881;
890.1000;0.6235;-5.6881;
890.4000;0.6268;-5.6726;
890.7000;0.6276;-5.6778;
891.0000;0.6268;-5.6804;
891.3000;0.6268;-5.6830;
891.6000;0.6243;-5.6907;
891.9000;0.6276;-5.6804;
892.2000;0.6284;-5.6804;
892.5000;0.6276;-5.6778;
892.8000;0.6292;-5.6700;
893.1000;0.6317;-5.6622;
893.4000;0.6268;-5.6597;
893.7000;0.6284;-5.6597;
894.0000;0.6268;-5.6597;
894.3000;0.6276;-5.6519;
894.6000;0.6292;-5.6519;
894.9000;0.6268;-5.6519;
895.2000;0.6276;-5.6467;
895.5000;0.6333;-5.6363;
895.8000;0.6268;-5.6571;
896.1000;0.6268;-5.6622;
896.4000;0.6292;-5.6571;
896.7000;0.6276;-5.6571;
897.0000;0.6252;-5.6467;
897.3000;0.6268;-5.6363;
897.6000;0.6260;-5.6441;
897.9000;0.6276;-5.6441;
898.2000;0.6317;-5.6415;
898.5000;0.6276;-5.6519;
898.8000;0.6276;-5.6545;
899.1000;0.6268;-5.6597;
899.4000;0.6268;-5.6597;
899.7000;0.6292;-5.6622;
900.0000;0.6309;-5.6597;
900.3000;0.6292;-5.6571;
900.6000;0.6268;-5.6648;
900.9000;0.6284;-5.6519;
901.2000;0.6276;-5.6597;
901.5000;0.6243;-5.6674;
901.8000;0.6276;-5.6571;
902.1000;0.6292;-5.6571;
902.4000;0.6276;-5.6597;
902.7000;0.6357;-5.6415;
903.0000;0.6292;-5.6571;
903.3000;0.6268;-5.6648;
903.6000;0.6268;-5.6674;
903.9000;0.6276;-5.6674;
904.2000;0.6268;-5.6726;
904.5000;0.6252;-5.6726;
904.8000;0.6284;-5.6726;
905.1000;0.6260;-5.6830;
905.4000;0.6276;-5.6856;
905.7000;0.6292;-5.6700;
906.0000;0.6268;-5.6804;
906.3000;0.6276;-5.6830;
906.6000;0.6260;-5.6881;
906.9000;0.6260;-5.6778;
907.2000;0.6268;-5.6674;
907.5000;0.6284;-5.6700;
907.8000;0.6260;-5.6700;
908.1000;0.6284;-5.6700;
908.4000;0.6219;-5.6856;
908.7000;0.6252;-5.6726;
909.0000;0.6268;-5.6622;
909.3000;0.6252;-5.6674;
909.6000;0.6186;-5.6830;
909.9000;0.6260;-5.6648;
910.2000;0.6211;-5.6778;
910.5000;0.6252;-5.6726;
910.8000;0.6252;-5.6700;
911.1000;0.6219;-5.6726;
911.4000;0.6260;-5.6648;
911.7000;0.6260;-5.6622;
912.0000;0.6252;-5.6674;
912.3000;0.6252;-5.6726;
912.6000;0.6260;-5.6700;
912.9000;0.6260;-5.6597;
913.2000;0.6252;-5.6700;
913.5000;0.6252;-5.6700;
913.8000;0.6260;-5.6700;
914.1000;0.6276;-5.6726;
914.4000;0.6235;-5.6778;
914.7000;0.6243;-5.6648;
915.0000;0.6219;-5.6674;
915.3000;0.6260;-5.6597;
915.6000;0.6243;-5.6726;
915.9000;0.6260;-5.6778;
916.2000;0.6292;-5.6597;
916.5000;0.6211;-5.6726;
916.8000;0.6252;-5.6597;
917.1000;0.6243;-5.6648;
917.4000;0.6260;-5.6597;
917.7000;0.6186;-5.6700;
918.0000;0.6260;-5.6493;
918.3000;0.6252;-5.6571;
918.6000;0.6284;-5.6467;
918.9000;0.6252;-5.6571;
919.2000;0.6268;-5.6545;
919.5000;0.6243;-5.6700;
919.8000;0.6268;-5.6597;
920.1000;0.6243;-5.6648;
920.4000;0.6243;-5.6648;
920.7000;0.6235;-5.6674;
921.0000;0.6227;-5.6622;
921.3000;0.6219;-5.6622;
921.6000;0.6243;-5.6571;
921.9000;0.6243;-5.6648;
922.2000;0.6219;-5.6674;
922.5000;0.6243;-5.6519;
922.8000;0.6276;-5.6415;
923.1000;0.6243;-5.6467;
923.4000;0.6252;-5.6519;
923.7000;0.6243;-5.6545;
924.0000;0.6235;-5.6519;
924.3000;0.6235;-5.6571;
924.6000;0.6243;-5.6545;
924.9000;0.6243;-5.6571;
925.2000;0.6243;-5.6545;
925.5000;0.6252;-5.6622;
925.8000;0.6276;-5.6467;
926.1000;0.6276;-5.6415;
926.4000;0.6252;-5.6363;
926.7000;0.6243;-5.6312;
927.0000;0.6235;-5.6286;
927.3000;0.6227;-5.6363;
927.6000;0.6227;-5.6389;
927.9000;0.6195;-5.6519;
928.2000;0.6243;-5.6441;
928.5000;0.6252;-5.6493;
928.8000;0.6243;-5.6519;
929.1000;0.6276;-5.6467;
929.4000;0.6260;-5.6545;
929.7000;0.6268;-5.6493;
930.0000;0.6235;-5.6571;
930.3000;0.6235;-5.6571;
930.6000;0.6260;-5.6597;
930.9000;0.6243;-5.6519;
931.2000;0.6211;-5.6674;
931.5000;0.6268;-5.6467;
931.8000;0.6227;-5.6571;
932.1000;0.6235;-5.6597;
932.4000;0.6211;-5.6726;
932.7000;0.6211;-5.6648;
933.0000;0.6260;-5.6467;
933.3000;0.6203;-5.6545;
933.6000;0.6211;-5.6545;
933.9000;0.6317;-5.6312;
934.2000;0.6252;-5.6467;
934.5000;0.6219;-5.6571;
934.8000;0.6219;-5.6622;
935.1000;0.6260;-5.6493;
935.4000;0.6243;-5.6545;
935.7000;0.6235;-5.6493;
936.0000;0.6260;-5.6441;
936.3000;0.6227;-5.6467;
936.6000;0.6227;-5.6415;
936.9000;0.6219;-5.6467;
937.2000;0.6235;-5.6545;
937.5000;0.6219;-5.6545;
937.8000;0.6227;-5.6493;
938.1000;0.6227;-5.6571;
938.4000;0.6219;-5.6597;
938.7000;0.6195;-5.6648;
939.0000;0.6227;-5.6493;
939.3000;0.6227;-5.6467;
939.6000;0.6227;-5.6493;
939.9000;0.6219;-5.6519;
940.2000;0.6227;-5.6493;
940.5000;0.6219;-5.6519;
940.8000;0.6235;-5.6493;
941.1000;0.6170;-5.6571;
941.4000;0.6219;-5.6363;
941.7000;0.6219;-5.6441;
942.0000;0.6243;-5.6493;
942.3000;0.6227;-5.6493;
942.6000;0.6227;-5.6493;
942.9000;0.6211;-5.6545;
943.2000;0.6211;-5.6545;
943.5000;0.6227;-5.6441;
943.8000;0.6211;-5.6441;
944.1000;0.6235;-5.6571;
944.4000;0.6243;-5.6571;
944.7000;0.6235;-5.6571;
945.0000;0.6243;-5.6597;
945.3000;0.6227;-5.6597;
945.6000;0.6219;-5.6597;
945.9000;0.6243;-5.6622;
946.2000;0.6235;-5.6648;
946.5000;0.6219;-5.6726;
946.8000;0.6227;-5.6674;
947.1000;0.6227;-5.6648;
947.4000;0.6235;-5.6622;
947.7000;0.6219;-5.6597;
948.0000;0.6219;-5.6597;
948.3000;0.6178;-5.6726;
948.6000;0.6243;-5.6622;
948.9000;0.6235;-5.6700;
949.2000;0.6227;-5.6726;
949.5000;0.6219;-5.6778;
949.8000;0.6211;-5.6726;
950.1000;0.6227;-5.6726;
950.4000;0.6243;-5.6700;
950.7000;0.6219;-5.6622;
951.0000;0.6235;-5.6597;
951.3000;0.6211;-5.6648;
951.6000;0.6219;-5.6519;
951.9000;0.6219;-5.6467;
952.2000;0.6243;-5.6389;
952.5000;0.6211;-5.6519;
952.8000;0.6203;-5.6519;
953.1000;0.6211;-5.6493;
953.4000;0.6227;-5.6493;
953.7000;0.6219;-5.6545;
954.0000;0.6211;-5.6597;
954.3000;0.6211;-5.6700;
954.6000;0.6138;-5.6856;
954.9000;0.6211;-5.6700;
955.2000;0.6227;-5.6648;
955.5000;0.6227;-5.6571;
955.8000;0.6203;-5.6571;
956.1000;0.6243;-5.6441;
956.4000;0.6219;-5.6519;
956.7000;0.6211;-5.6545;
957.0000;0.6219;-5.6493;
957.3000;0.6235;-5.6389;
957.6000;0.6211;-5.6415;
957.9000;0.6211;-5.6389;
958.2000;0.6235;-5.6441;
958.5000;0.6227;-5.6441;
958.8000;0.6243;-5.6441;
959.1000;0.6219;-5.6441;
959.4000;0.6195;-5.6467;
959.7000;0.6203;-5.6441;
960.0000;0.6170;-5.6545;
960.3000;0.6235;-5.6312;
960.6000;0.6211;-5.6286;
960.9000;0.6178;-5.6363;
961.2000;0.6195;-5.6441;
961.5000;0.6211;-5.6493;
961.8000;0.6203;-5.6493;
962.1000;0.6219;-5.6441;
962.4000;0.6211;-5.6493;
962.7000;0.6227;-5.6363;
963.0000;0.6235;-5.6363;
963.3000;0.6195;-5.6493;
963.6000;0.6219;-5.6571;
963.9000;0.6211;-5.6571;
964.2000;0.6211;-5.6545;
964.5000;0.6138;-5.6726;
964.8000;0.6219;-5.6597;
965.1000;0.6227;-5.6545;
965.4000;0.6211;-5.6519;
965.7000;0.6235;-5.6519;
966.0000;0.6211;-5.6493;
966.3000;0.6203;-5.6545;
966.6000;0.6235;-5.6493;
966.9000;0.6195;-5.6493;
967.2000;0.6203;-5.6467;
967.5000;0.6219;-5.6467;
967.8000;0.6219;-5.6441;
968.1000;0.6211;-5.6519;
968.4000;0.6235;-5.6597;
968.7000;0.6211;-5.6674;
969.0000;0.6227;-5.6648;
969.3000;0.6170;-5.6804;
969.6000;0.6211;-5.6622;
969.9000;0.6211;-5.6571;
970.2000;0.6211;-5.6597;
970.5000;0.6178;-5.6674;
970.8000;0.6203;-5.6622;
971.1000;0.6203;-5.6597;
971.4000;0.6227;-5.6545;
971.7000;0.6211;-5.6648;
972.0000;0.6235;-5.6519;
972.3000;0.6129;-5.6700;
972.6000;0.6219;-5.6571;
972.9000;0.6235;-5.6519;
973.2000;0.6219;-5.6545;
973.5000;0.6211;-5.6571;
973.8000;0.6211;-5.6597;
974.1000;0.6219;-5.6571;
974.4000;0.6211;-5.6467;
974.7000;0.6211;-5.6415;
975.0000;0.6219;-5.6363;
975.3000;0.6211;-5.6467;
975.6000;0.6219;-5.6467;
975.9000;0.6211;-5.6493;
976.2000;0.6211;-5.6545;
976.5000;0.6227;-5.6571;
976.8000;0.6219;-5.6571;
977.1000;0.6186;-5.6674;
977.4000;0.6203;-5.6648;
977.7000;0.6211;-5.6622;
978.0000;0.6203;-5.6648;
978.3000;0.6203;-5.6571;
978.6000;0.6211;-5.6622;
978.9000;0.6203;-5.6648;
979.2000;0.6211;-5.6597;
979.5000;0.6203;-5.6545;
979.8000;0.6203;-5.6519;
980.1000;0.6211;-5.6519;
980.4000;0.6203;-5.6467;
980.7000;0.6219;-5.6415;
981.0000;0.6195;-5.6363;
981.3000;0.6211;-5.6312;
981.6000;0.6211;-5.6312;
981.9000;0.6203;-5.6312;
982.2000;0.6186;-5.6389;
982.5000;0.6195;-5.6337;
982.8000;0.6211;-5.6312;
983.1000;0.6235;-5.6286;
983.4000;0.6203;-5.6337;
983.7000;0.6211;-5.6389;
984.0000;0.6186;-5.6363;
984.3000;0.6219;-5.6389;
984.6000;0.6195;-5.6519;
984.9000;0.6195;-5.6389;
985.2000;0.6219;-5.6389;
985.5000;0.6203;-5.6363;
985.8000;0.6203;-5.6337;
986.1000;0.6195;-5.6363;
986.4000;0.6203;-5.6337;
986.7000;0.6203;-5.6337;
987.0000;0.6195;-5.6337;
987.3000;0.6170;-5.6337;
987.6000;0.6195;-5.6286;
987.9000;0.6195;-5.6337;
988.2000;0.6195;-5.6363;
988.5000;0.6186;-5.6389;
988.8000;0.6178;-5.6441;
989.1000;0.6186;-5.6441;
989.4000;0.6195;-5.6389;
989.7000;0.6178;-5.6312;
990.0000;0.6227;-5.6182;
990.3000;0.6186;-5.6286;
990.6000;0.6195;-5.6337;
990.9000;0.6203;-5.6286;
991.2000;0.6203;-5.6234;
991.5000;0.6203;-5.6208;
991.8000;0.6195;-5.6182;
992.1000;0.6203;-5.6208;
992.4000;0.6170;-5.6286;
992.7000;0.6211;-5.6234;
993.0000;0.6219;-5.6286;
993.3000;0.6219;-5.6337;
993.6000;0.6203;-5.6415;
993.9000;0.6203;-5.6363;
994.2000;0.6178;-5.6415;
994.5000;0.6211;-5.6415;
994.8000;0.6203;-5.6363;
995.1000;0.6219;-5.6519;
995.4000;0.6227;-5.6545;
995.7000;0.6154;-5.6674;
996.0000;0.6203;-5.6493;
996.3000;0.6178;-5.6493;
996.6000;0.6211;-5.6337;
996.9000;0.6268;-5.6234;
997.2000;0.6203;-5.6312;
997.5000;0.6195;-5.6312;
997.8000;0.6178;-5.6286;
998.1000;0.6211;-5.6260;
998.4000;0.6195;-5.6337;
998.7000;0.6178;-5.6389;
999.0000;0.6186;-5.6415;
999.3000;0.6186;-5.6415;
999.6000;0.6186;-5.6467;
999.9000;0.6195;-5.6493;
1000.2000;0.6195;-5.6597;
1000.5000;0.6186;-5.6648;
1000.8000;0.6211;-5.6597;
1001.1000;0.6195;-5.6674;
1001.4000;0.6186;-5.6700;
1001.7000;0.6186;-5.6726;
1002.0000;0.6219;-5.6571;
1002.3000;0.6203;-5.6493;
1002.6000;0.6178;-5.6467;
1002.9000;0.6162;-5.6415;
1003.2000;0.6203;-5.6337;
1003.5000;0.6195;-5.6363;
1003.8000;0.6195;-5.6337;
1004.1000;0.6178;-5.6415;
1004.4000;0.6178;-5.6337;
1004.7000;0.6195;-5.6208;
1005.0000;0.6170;-5.6286;
1005.3000;0.6178;-5.6337;
1005.6000;0.6178;-5.6441;
1005.9000;0.6203;-5.6363;
1006.2000;0.6195;-5.6286;
1006.5000;0.6195;-5.6337;
1006.8000;0.6203;-5.6389;
1007.1000;0.6195;-5.6286;
1007.4000;0.6211;-5.6234;
1007.7000;0.6186;-5.6312;
1008.0000;0.6203;-5.6286;
1008.3000;0.6203;-5.6389;
1008.6000;0.6211;-5.6389;
1008.9000;0.6195;-5.6415;
1009.2000;0.6203;-5.6389;
1009.5000;0.6195;-5.6467;
1009.8000;0.6203;-5.6441;
1010.1000;0.6186;-5.6519;
1010.4000;0.6195;-5.6571;
1010.7000;0.6186;-5.6571;
1011.0000;0.6146;-5.6597;
1011.3000;0.6186;-5.6519;
1011.6000;0.6186;-5.6493;
1011.9000;0.6186;-5.6545;
1012.2000;0.6146;-5.6597;
1012.5000;0.6186;-5.6571;
1012.8000;0.6186;-5.6571;
1013.1000;0.6203;-5.6467;
1013.4000;0.6195;-5.6415;
1013.7000;0.6195;-5.6363;
1014.0000;0.6195;-5.6312;
1014.3000;0.6178;-5.6312;
1014.6000;0.6170;-5.6312;
1014.9000;0.6195;-5.6234;
1015.2000;0.6178;-5.6286;
1015.5000;0.6170;-5.6208;
1015.8000;0.6170;-5.6208;
1016.1000;0.6178;-5.6182;
1016.4000;0.6178;-5.6182;
1016.7000;0.6170;-5.6234;
1017.0000;0.6178;-5.6337;
1017.3000;0.6186;-5.6389;
1017.6000;0.6203;-5.6312;
1017.9000;0.6186;-5.6415;
1018.2000;0.6186;-5.6363;
1018.5000;0.6203;-5.6337;
1018.8000;0.6178;-5.6286;
1019.1000;0.6178;-5.6286;
1019.4000;0.6186;-5.6337;
1019.7000;0.6178;-5.6286;
1020.0000;0.6195;-5.6260;
1020.3000;0.6186;-5.6260;
1020.6000;0.6129;-5.6441;
1020.9000;0.6178;-5.6467;
1021.2000;0.6178;-5.6545;
1021.5000;0.6178;-5.6571;
1021.8000;0.6195;-5.6467;
1022.1000;0.6178;-5.6467;
1022.4000;0.6195;-5.6441;
1022.7000;0.6154;-5.6519;
1023.0000;0.6178;-5.6389;
1023.3000;0.6178;-5.6415;
1023.6000;0.6146;-5.6545;
1023.9000;0.6195;-5.6441;
1024.2000;0.6186;-5.6441;
1024.5000;0.6178;-5.6363;
1024.8000;0.6178;-5.6312;
1025.1000;0.6178;-5.6363;
1025.4000;0.6235;-5.6312;
1025.7000;0.6178;-5.6415;
1026.0000;0.6129;-5.6597;
1026.3000;0.6186;-5.6415;
1026.6000;0.6170;-5.6441;
1026.9000;0.6203;-5.6415;
1027.2000;0.6186;-5.6493;
1027.5000;0.6186;-5.6467;
1027.8000;0.6186;-5.6415;
1028.1000;0.6195;-5.6415;
1028.4000;0.6178;-5.6467;
1028.7000;0.6186;-5.6389;
1029.0000;0.6154;-5.6441;
1029.3000;0.6178;-5.6415;
1029.6000;0.6186;-5.6415;
1029.9000;0.6243;-5.6312;
1030.2000;0.6195;-5.6337;
1030.5000;0.6195;-5.6363;
1030.8000;0.6162;-5.6415;
1031.1000;0.6170;-5.6363;
1031.4000;0.6170;-5.6389;
1031.7000;0.6178;-5.6415;
1032.0000;0.6219;-5.6363;
1032.3000;0.6170;-5.6493;
1032.6000;0.6170;-5.6493;
1032.9000;0.6186;-5.6415;
1033.2000;0.6170;-5.6467;
1033.5000;0.6178;-5.6493;
1033.8000;0.6186;-5.6441;
1034.1000;0.6195;-5.6415;
1034.4000;0.6170;-5.6519;
1034.7000;0.6178;-5.6545;
1035.0000;0.6170;-5.6519;
1035.3000;0.6162;-5.6415;
1035.6000;0.6235;-5.6078;
1035.9000;0.6170;-5.6208;
1036.2000;0.6178;-5.6234;
1036.5000;0.6178;-5.6286;
1036.8000;0.6195;-5.6286;
1037.1000;0.6186;-5.6260;
1037.4000;0.6178;-5.6312;
1037.7000;0.6195;-5.6234;
1038.0000;0.6186;-5.6260;
1038.3000;0.6186;-5.6312;
1038.6000;0.6178;-5.6415;
1038.9000;0.6146;-5.6415;
1039.2000;0.6195;-5.6286;
1039.5000;0.6154;-5.6337;
1039.8000;0.6178;-5.6312;
1040.1000;0.6170;-5.6337;
1040.4000;0.6186;-5.6389;
1040.7000;0.6170;-5.6493;
1041.0000;0.6146;-5.6519;
1041.3000;0.6162;-5.6467;
1041.6000;0.6170;-5.6467;
1041.9000;0.6170;-5.6441;
1042.2000;0.6170;-5.6363;
1042.5000;0.6203;-5.6234;
1042.8000;0.6170;-5.6389;
1043.1000;0.6252;-5.6208;
1043.4000;0.6154;-5.6493;
1043.7000;0.6186;-5.6389;
1044.0000;0.6170;-5.6467;
1044.3000;0.6186;-5.6363;
1044.6000;0.6146;-5.6441;
1044.9000;0.6162;-5.6363;
1045.2000;0.6162;-5.6337;
1045.5000;0.6170;-5.6337;
1045.8000;0.6162;-5.6286;
1046.1000;0.6146;-5.6389;
1046.4000;0.6178;-5.6363;
1046.7000;0.6186;-5.6286;
1047.0000;0.6162;-5.6363;
1047.3000;0.6170;-5.6312;
1047.6000;0.6170;-5.6286;
1047.9000;0.6162;-5.6234;
1048.2000;0.6186;-5.6286;
1048.5000;0.6178;-5.6312;
1048.8000;0.6154;-5.6363;
1049.1000;0.6186;-5.6415;
1049.4000;0.6178;-5.6441;
1049.7000;0.6186;-5.6467;
1050.0000;0.6203;-5.6337;
1050.3000;0.6170;-5.6441;
1050.6000;0.6203;-5.6312;
1050.9000;0.6178;-5.6415;
1051.2000;0.6178;-5.6415;
1051.5000;0.6154;-5.6389;
1051.8000;0.6170;-5.6337;
1052.1000;0.6170;-5.6312;
1052.4000;0.6162;-5.6337;
1052.7000;0.6162;-5.6363;
1053.0000;0.6243;-5.6208;
1053.3000;0.6162;-5.6260;
1053.6000;0.6170;-5.6260;
1053.9000;0.6178;-5.6182;
1054.2000;0.6162;-5.6182;
1054.5000;0.6219;-5.6001;
1054.8000;0.6203;-5.5975;
1055.1000;0.6170;-5.6001;
1055.4000;0.6154;-5.6027;
1055.7000;0.6170;-5.5975;
1056.0000;0.6178;-5.6053;
1056.3000;0.6146;-5.6130;
1056.6000;0.6211;-5.6053;
1056.9000;0.6162;-5.6156;
1057.2000;0.6146;-5.6208;
1057.5000;0.6162;-5.6260;
1057.8000;0.6186;-5.6182;
1058.1000;0.6170;-5.6208;
1058.4000;0.6138;-5.6286;
1058.7000;0.6170;-5.6104;
1059.0000;0.6154;-5.6078;
1059.3000;0.6170;-5.5949;
1059.6000;0.6170;-5.5975;
1059.9000;0.6178;-5.5923;
1060.2000;0.6162;-5.5949;
1060.5000;0.6178;-5.6001;
1060.8000;0.6162;-5.6130;
1061.1000;0.6178;-5.6078;
1061.4000;0.6219;-5.6027;
1061.7000;0.6178;-5.6104;
1062.0000;0.6195;-5.6078;
1062.3000;0.6186;-5.6078;
1062.6000;0.6178;-5.6053;
1062.9000;0.6178;-5.6104;
1063.2000;0.6178;-5.6104;
1063.5000;0.6146;-5.6182;
1063.8000;0.6162;-5.6104;
1064.1000;0.6154;-5.6156;
1064.4000;0.6186;-5.6078;
1064.7000;0.6178;-5.6027;
1065.0000;0.6186;-5.6053;
1065.3000;0.6211;-5.6053;
1065.6000;0.6170;-5.6286;
1065.9000;0.6186;-5.6156;
1066.2000;0.6195;-5.6104;
1066.5000;0.6178;-5.6053;
1066.8000;0.6162;-5.6130;
1067.1000;0.6154;-5.6104;
1067.4000;0.6170;-5.6104;
1067.7000;0.6178;-5.6027;
1068.0000;0.6138;-5.6182;
1068.3000;0.6154;-5.6208;
1068.6000;0.6154;-5.6104;
1068.9000;0.6162;-5.6078;
1069.2000;0.6162;-5.5975;
1069.5000;0.6170;-5.6001;
1069.8000;0.6162;-5.6001;
1070.1000;0.6162;-5.6078;
1070.4000;0.6154;-5.6078;
1070.7000;0.6162;-5.6027;
1071.0000;0.6162;-5.6053;
1071.3000;0.6154;-5.6104;
1071.6000;0.6162;-5.6156;
1071.9000;0.6162;-5.6053;
1072.2000;0.6170;-5.6001;
1072.5000;0.6162;-5.6001;
1072.8000;0.6129;-5.6104;
1073.1000;0.6146;-5.6104;
1073.4000;0.6162;-5.6078;
1073.7000;0.6178;-5.5975;
1074.0000;0.6252;-5.5794;
1074.3000;0.6154;-5.6078;
1074.6000;0.6121;-5.6182;
1074.9000;0.6170;-5.6027;
1075.2000;0.6170;-5.6104;
1075.5000;0.6170;-5.6234;
1075.8000;0.6162;-5.6286;
1076.1000;0.6121;-5.6467;
1076.4000;0.6170;-5.6312;
1076.7000;0.6162;-5.6441;
1077.0000;0.6170;-5.6467;
1077.3000;0.6162;-5.6441;
1077.6000;0.6162;-5.6415;
1077.9000;0.6186;-5.6337;
1078.2000;0.6162;-5.6415;
1078.5000;0.6178;-5.6286;
1078.8000;0.6170;-5.6312;
1079.1000;0.6162;-5.6260;
1079.4000;0.6154;-5.6312;
1079.7000;0.6195;-5.6208;
1080.0000;0.6227;-5.6156;
1080.3000;0.6203;-5.6182;
1080.6000;0.6138;-5.6286;
1080.9000;0.6154;-5.6208;
1081.2000;0.6113;-5.6389;
1081.5000;0.6089;-5.6389;
1081.8000;0.6146;-5.6363;
1082.1000;0.6154;-5.6286;
1082.4000;0.6154;-5.6260;
1082.7000;0.6146;-5.6312;
1083.0000;0.6154;-5.6467;
1083.3000;0.6170;-5.6467;
1083.6000;0.6154;-5.6493;
1083.9000;0.6146;-5.6493;
1084.2000;0.6178;-5.6389;
1084.5000;0.6154;-5.6389;
1084.8000;0.6154;-5.6337;
1085.1000;0.6146;-5.6363;
1085.4000;0.6186;-5.6260;
1085.7000;0.6162;-5.6260;
1086.0000;0.6170;-5.6234;
1086.3000;0.6146;-5.6286;
1086.6000;0.6178;-5.6234;
1086.9000;0.6170;-5.6312;
1087.2000;0.6146;-5.6260;
1087.5000;0.6170;-5.6234;
1087.8000;0.6203;-5.6104;
1088.1000;0.6138;-5.6312;
1088.4000;0.6162;-5.6208;
1088.7000;0.6146;-5.6234;
1089.0000;0.6154;-5.6208;
1089.3000;0.6113;-5.6441;
1089.6000;0.6154;-5.6389;
1089.9000;0.6162;-5.6415;
1090.2000;0.6162;-5.6415;
1090.5000;0.6129;-5.6519;
1090.8000;0.6162;-5.6441;
1091.1000;0.6162;-5.6389;
1091.4000;0.6154;-5.6441;
1091.7000;0.6154;-5.6415;
1092.0000;0.6146;-5.6312;
1092.3000;0.6154;-5.6260;
1092.6000;0.6162;-5.6208;
1092.9000;0.6154;-5.6234;
1093.2000;0.6146;-5.6286;
1093.5000;0.6154;-5.6260;
1093.8000;0.6138;-5.6182;
1094.1000;0.6162;-5.6182;
1094.4000;0.6170;-5.6286;
1094.7000;0.6129;-5.6337;
1095.0000;0.6154;-5.6234;
1095.3000;0.6170;-5.6260;
1095.6000;0.6146;-5.6286;
1095.9000;0.6170;-5.6182;
1096.2000;0.6162;-5.6260;
1096.5000;0.6154;-5.6286;
1096.8000;0.6162;-5.6260;
1097.1000;0.6162;-5.6156;
1097.4000;0.6129;-5.6208;
1097.7000;0.6146;-5.6156;
1098.0000;0.6138;-5.6182;
1098.3000;0.6154;-5.6156;
1098.6000;0.6146;-5.6208;
1098.9000;0.6154;-5.6260;
1099.2000;0.6162;-5.6260;
1099.5000;0.6162;-5.6208;
1099.8000;0.6154;-5.6234;
1100.1000;0.6178;-5.5975;
1100.4000;0.6162;-5.6001;
1100.7000;0.6178;-5.6078;
1101.0000;0.6203;-5.5949;
1101.3000;0.6162;-5.6078;
1101.6000;0.6154;-5.6130;
1101.9000;0.6170;-5.6130;
1102.2000;0.6178;-5.5949;
1102.5000;0.6162;-5.6078;
1102.8000;0.6162;-5.6156;
1103.1000;0.6146;-5.6182;
1103.4000;0.6138;-5.6286;
1103.7000;0.6121;-5.6234;
1104.0000;0.6146;-5.6260;
1104.3000;0.6138;-5.6182;
1104.6000;0.6170;-5.6156;
1104.9000;0.6146;-5.6156;
1105.2000;0.6138;-5.6182;
1105.5000;0.6162;-5.6053;
1105.8000;0.6170;-5.6053;
1106.1000;0.6138;-5.6130;
1106.4000;0.6195;-5.6027;
1106.7000;0.6154;-5.6156;
1107.0000;0.6154;-5.6104;
1107.3000;0.6178;-5.6001;
1107.6000;0.6162;-5.6078;
1107.9000;0.6154;-5.6001;
1108.2000;0.6138;-5.6156;
1108.5000;0.6186;-5.6078;
1108.8000;0.6154;-5.6078;
1109.1000;0.6146;-5.6027;
1109.4000;0.6162;-5.5949;
1109.7000;0.6154;-5.5949;
1110.0000;0.6162;-5.6053;
1110.3000;0.6154;-5.6156;
1110.6000;0.6154;-5.6130;
1110.9000;0.6146;-5.6130;
1111.2000;0.6162;-5.6027;
1111.5000;0.6154;-5.6027;
1111.8000;0.6154;-5.6104;
1112.1000;0.6154;-5.6104;
1112.4000;0.6203;-5.6027;
1112.7000;0.6129;-5.6234;
1113.0000;0.6121;-5.6363;
1113.3000;0.6129;-5.6363;
1113.6000;0.6138;-5.6286;
1113.9000;0.6146;-5.6286;
1114.2000;0.6129;-5.6363;
1114.5000;0.6146;-5.6312;
1114.8000;0.6154;-5.6260;
1115.1000;0.6154;-5.6337;
1115.4000;0.6146;-5.6312;
1115.7000;0.6154;-5.6312;
1116.0000;0.6162;-5.6130;
1116.3000;0.6146;-5.6130;
1116.6000;0.6146;-5.6130;
1116.9000;0.6138;-5.6234;
1117.2000;0.6162;-5.6208;
1117.5000;0.6162;-5.6337;
1117.8000;0.6138;-5.6363;
1118.1000;0.6138;-5.6363;
1118.4000;0.6146;-5.6389;
1118.7000;0.6129;-5.6363;
1119.0000;0.6146;-5.6312;
1119.3000;0.6138;-5.6312;
1119.6000;0.6203;-5.6208;
1119.9000;0.6121;-5.6389;
1120.2000;0.6138;-5.6312;
1120.5000;0.6235;-5.6078;
1120.8000;0.6154;-5.6286;
1121.1000;0.6162;-5.6208;
1121.4000;0.6162;-5.6234;
1121.7000;0.6138;-5.6260;
1122.0000;0.6154;-5.6286;
1122.3000;0.6129;-5.6337;
1122.6000;0.6154;-5.6312;
1122.9000;0.6138;-5.6337;
1123.2000;0.6170;-5.6260;
1123.5000;0.6146;-5.6286;
1123.8000;0.6146;-5.6260;
1124.1000;0.6146;-5.6234;
1124.4000;0.6146;-5.6286;
1124.7000;0.6146;-5.6208;
1125.0000;0.6162;-5.6104;
1125.3000;0.6154;-5.6208;
1125.6000;0.6170;-5.6156;
1125.9000;0.6162;-5.6312;
1126.2000;0.6138;-5.6363;
1126.5000;0.6162;-5.6234;
1126.8000;0.6154;-5.6312;
1127.1000;0.6113;-5.6519;
1127.4000;0.6129;-5.6441;
1127.7000;0.6129;-5.6441;
1128.0000;0.6129;-5.6493;
1128.3000;0.6138;-5.6493;
1128.6000;0.6146;-5.6674;
1128.9000;0.6162;-5.6519;
1129.2000;0.6129;-5.6597;
1129.5000;0.6138;-5.6571;
1129.8000;0.6129;-5.6467;
1130.1000;0.6138;-5.6389;
1130.4000;0.6129;-5.6493;
1130.7000;0.6146;-5.6441;
1131.0000;0.6138;-5.6493;
1131.3000;0.6162;-5.6467;
1131.6000;0.6162;-5.6363;
1131.9000;0.6162;-5.6286;
1132.2000;0.6154;-5.6286;
1132.5000;0.6162;-5.6312;
1132.8000;0.6121;-5.6389;
1133.1000;0.6129;-5.6337;
1133.4000;0.6146;-5.6337;
1133.7000;0.6146;-5.6156;
1134.0000;0.6162;-5.6182;
1134.3000;0.6146;-5.6182;
1134.6000;0.6146;-5.6208;
1134.9000;0.6138;-5.6208;
1135.2000;0.6146;-5.6312;
1135.5000;0.6154;-5.6234;
1135.8000;0.6154;-5.6208;
1136.1000;0.6170;-5.6156;
1136.4000;0.6162;-5.6182;
1136.7000;0.6154;-5.6104;
1137.0000;0.6129;-5.6156;
1137.3000;0.6138;-5.6208;
1137.6000;0.6121;-5.6260;
1137.9000;0.6154;-5.6156;
1138.2000;0.6146;-5.6130;
1138.5000;0.6138;-5.6182;
1138.8000;0.6138;-5.6104;
1139.1000;0.6138;-5.6182;
1139.4000;0.6146;-5.6156;
1139.7000;0.6121;-5.6130;
1140.0000;0.6129;-5.6078;
1140.3000;0.6138;-5.6053;
1140.6000;0.6146;-5.6104;
1140.9000;0.6105;-5.6234;
1141.2000;0.6138;-5.6130;
1141.5000;0.6138;-5.6053;
1141.8000;0.6146;-5.5923;
1142.1000;0.6129;-5.5949;
1142.4000;0.6129;-5.6027;
1142.7000;0.6146;-5.5975;
1143.0000;0.6121;-5.5975;
1143.3000;0.6138;-5.5975;
1143.6000;0.6121;-5.6001;
1143.9000;0.6138;-5.5923;
1144.2000;0.6138;-5.5975;
1144.5000;0.6113;-5.6053;
1144.8000;0.6138;-5.5949;
1145.1000;0.6138;-5.5923;
1145.4000;0.6154;-5.6001;
1145.7000;0.6162;-5.6104;
1146.0000;0.6138;-5.6104;
1146.3000;0.6146;-5.6130;
1146.6000;0.6138;-5.6078;
1146.9000;0.6162;-5.6001;
1147.2000;0.6154;-5.5949;
1147.5000;0.6154;-5.5949;
1147.8000;0.6154;-5.5975;
1148.1000;0.6146;-5.6001;
1148.4000;0.6162;-5.6078;
1148.7000;0.6186;-5.6130;
1149.0000;0.6146;-5.6208;
1149.3000;0.6154;-5.6234;
1149.6000;0.6146;-5.6130;
1149.9000;0.6138;-5.6130;
1150.2000;0.6129;-5.6156;
1150.5000;0.6129;-5.6182;
1150.8000;0.6121;-5.6208;
1151.1000;0.6146;-5.6078;
1151.4000;0.6138;-5.6104;
1151.7000;0.6154;-5.6104;
1152.0000;0.6186;-5.6001;
1152.3000;0.6146;-5.6001;
1152.6000;0.6129;-5.6078;
1152.9000;0.6146;-5.6078;
1153.2000;0.6146;-5.6053;
1153.5000;0.6129;-5.6104;
1153.8000;0.6089;-5.6208;
1154.1000;0.6146;-5.6053;
1154.4000;0.6178;-5.6001;
1154.7000;0.6146;-5.6130;
1155.0000;0.6121;-5.6104;
1155.3000;0.6129;-5.6104;
1155.6000;0.6129;-5.6078;
1155.9000;0.6129;-5.6027;
1156.2000;0.6146;-5.6053;
1156.5000;0.6162;-5.6053;
1156.8000;0.6154;-5.6078;
1157.1000;0.6138;-5.6104;
1157.4000;0.6219;-5.5949;
1157.7000;0.6129;-5.6182;
1158.0000;0.6129;-5.6286;
1158.3000;0.6146;-5.6234;
1158.6000;0.6186;-5.6182;
1158.9000;0.6138;-5.6260;
1159.2000;0.6138;-5.6286;
1159.5000;0.6121;-5.6234;
1159.8000;0.6129;-5.6130;
1160.1000;0.6121;-5.6182;
1160.4000;0.6129;-5.6182;
1160.7000;0.6105;-5.6156;
1161.0000;0.6129;-5.6104;
1161.3000;0.6138;-5.6130;
1161.6000;0.6121;-5.6234;
1161.9000;0.6146;-5.6234;
1162.2000;0.6138;-5.6286;
1162.5000;0.6146;-5.6312;
1162.8000;0.6146;-5.6286;
1163.1000;0.6162;-5.6260;
1163.4000;0.6138;-5.6337;
1163.7000;0.6121;-5.6363;
1164.0000;0.6105;-5.6337;
1164.3000;0.6129;-5.6312;
1164.6000;0.6170;-5.6130;
1164.9000;0.6129;-5.6234;
1165.2000;0.6121;-5.6182;
1165.5000;0.6138;-5.6156;
1165.8000;0.6138;-5.6130;
1166.1000;0.6105;-5.6286;
1166.4000;0.6146;-5.6182;
1166.7000;0.6138;-5.6182;
1167.0000;0.6146;-5.6156;
1167.3000;0.6138;-5.6130;
1167.6000;0.6138;-5.6130;
1167.9000;0.6138;-5.6130;
1168.2000;0.6146;-5.6156;
1168.5000;0.6154;-5.6130;
1168.8000;0.6146;-5.6208;
1169.1000;0.6146;-5.6182;
1169.4000;0.6146;-5.6208;
1169.7000;0.6146;-5.6260;
1170.0000;0.6113;-5.6286;
1170.3000;0.6146;-5.6104;
1170.6000;0.6138;-5.6130;
1170.9000;0.6129;-5.6104;
1171.2000;0.6129;-5.6156;
1171.5000;0.6129;-5.6182;
1171.8000;0.6129;-5.6312;
1172.1000;0.6129;-5.6182;
1172.4000;0.6162;-5.6078;
1172.7000;0.6129;-5.6078;
1173.0000;0.6146;-5.6027;
1173.3000;0.6113;-5.6130;
1173.6000;0.6121;-5.6078;
1173.9000;0.6138;-5.5975;
1174.2000;0.6138;-5.6053;
1174.5000;0.6138;-5.6027;
1174.8000;0.6129;-5.6104;
1175.1000;0.6138;-5.6130;
1175.4000;0.6170;-5.6130;
1175.7000;0.6146;-5.6182;
1176.0000;0.6113;-5.6182;
1176.3000;0.6129;-5.6104;
1176.6000;0.6121;-5.6053;
1176.9000;0.6121;-5.6078;
1177.2000;0.6146;-5.5975;
1177.5000;0.6146;-5.6027;
1177.8000;0.6138;-5.6053;
1178.1000;0.6138;-5.6078;
1178.4000;0.6138;-5.6104;
1178.7000;0.6138;-5.6053;
1179.0000;0.6129;-5.6104;
1179.3000;0.6154;-5.5975;
1179.6000;0.6121;-5.6027;
1179.9000;0.6138;-5.5975;
1180.2000;0.6203;-5.5819;
1180.5000;0.6113;-5.6078;
1180.8000;0.6129;-5.6078;
1181.1000;0.6146;-5.6130;
1181.4000;0.6129;-5.6130;
1181.7000;0.6129;-5.6104;
1182.0000;0.6121;-5.6156;
1182.3000;0.6154;-5.6130;
1182.6000;0.6138;-5.6156;
1182.9000;0.6138;-5.6156;
1183.2000;0.6121;-5.6104;
1183.5000;0.6097;-5.6208;
1183.8000;0.6138;-5.6027;
1184.1000;0.6121;-5.6104;
1184.4000;0.6121;-5.6104;
1184.7000;0.6138;-5.6130;
1185.0000;0.6129;-5.6130;
1185.3000;0.6121;-5.6130;
1185.6000;0.6105;-5.6234;
1185.9000;0.6121;-5.6208;
1186.2000;0.6121;-5.6130;
1186.5000;0.6162;-5.5975;
1186.8000;0.6138;-5.6001;
1187.1000;0.6138;-5.6027;
1187.4000;0.6154;-5.5975;
1187.7000;0.6146;-5.6053;
1188.0000;0.6146;-5.6027;
1188.3000;0.6138;-5.5923;
1188.6000;0.6146;-5.5923;
1188.9000;0.6146;-5.5897;
1189.2000;0.6146;-5.6053;
1189.5000;0.6138;-5.6130;
1189.8000;0.6146;-5.6053;
1190.1000;0.6121;-5.6130;
1190.4000;0.6195;-5.5975;
1190.7000;0.6129;-5.6053;
1191.0000;0.6113;-5.6053;
1191.3000;0.6154;-5.5975;
1191.6000;0.6138;-5.5975;
1191.9000;0.6129;-5.6078;
1192.2000;0.6121;-5.6156;
1192.5000;0.6138;-5.6130;
1192.8000;0.6129;-5.6182;
1193.1000;0.6211;-5.6078;
1193.4000;0.6138;-5.6208;
1193.7000;0.6113;-5.6208;
1194.0000;0.6146;-5.6027;
1194.3000;0.6138;-5.6053;
1194.6000;0.6121;-5.6027;
1194.9000;0.6138;-5.6027;
1195.2000;0.6162;-5.5923;
1195.5000;0.6129;-5.6027;
1195.8000;0.6129;-5.6053;
1196.1000;0.6105;-5.6130;
1196.4000;0.6129;-5.6078;
1196.7000;0.6138;-5.6156;
1197.0000;0.6129;-5.6234;
1197.3000;0.6129;-5.6286;
1197.6000;0.6129;-5.6337;
1197.9000;0.6138;-5.6312;
1198.2000;0.6146;-5.6208;
1198.5000;0.6129;-5.6182;
1198.8000;0.6162;-5.6130;
1199.1000;0.6138;-5.6208;
1199.4000;0.6129;-5.6208;
1199.7000;0.6129;-5.6234;
1200.0000;0.6138;-5.6156;
1200.3000;0.6138;-5.6234;
1200.6000;0.6138;-5.6234;
1200.9000;0.6121;-5.6234;
1201.2000;0.6121;-5.6260;
1201.5000;0.6146;-5.6208;
1201.8000;0.6129;-5.6286;
1202.1000;0.6138;-5.6208;
1202.4000;0.6129;-5.6130;
1202.7000;0.6154;-5.6104;
1203.0000;0.6138;-5.6104;
1203.3000;0.6195;-5.5819;
1203.6000;0.6121;-5.5975;
1203.9000;0.6146;-5.6053;
1204.2000;0.6129;-5.6130;
1204.5000;0.6162;-5.5949;
1204.8000;0.6138;-5.6053;
1205.1000;0.6138;-5.6156;
1205.4000;0.6146;-5.6156;
1205.7000;0.6129;-5.6234;
1206.0000;0.6146;-5.6156;
1206.3000;0.6129;-5.6156;
1206.6000;0.6121;-5.6104;
1206.9000;0.6129;-5.6001;
1207.2000;0.6089;-5.6130;
1207.5000;0.6121;-5.6078;
1207.8000;0.6121;-5.6104;
1208.1000;0.6138;-5.6130;
1208.4000;0.6113;-5.6130;
1208.7000;0.6105;-5.6156;
1209.0000;0.6146;-5.6001;
1209.3000;0.6121;-5.6001;
1209.6000;0.6129;-5.5949;
1209.9000;0.6129;-5.5871;
1210.2000;0.6113;-5.5923;
1210.5000;0.6138;-5.5845;
1210.8000;0.6129;-5.5819;
1211.1000;0.6129;-5.5845;
1211.4000;0.6203;-5.5690;
1211.7000;0.6105;-5.6001;
1212.0000;0.6105;-5.6001;
1212.3000;0.6129;-5.5897;
1212.6000;0.6089;-5.6027;
1212.9000;0.6056;-5.6104;
1213.2000;0.6146;-5.5923;
1213.5000;0.6129;-5.5923;
1213.8000;0.6138;-5.5897;
1214.1000;0.6178;-5.5794;
1214.4000;0.6162;-5.5819;
1214.7000;0.6138;-5.5819;
1215.0000;0.6121;-5.5923;
1215.3000;0.6129;-5.5845;
1215.6000;0.6146;-5.5845;
1215.9000;0.6146;-5.5819;
1216.2000;0.6129;-5.5897;
1216.5000;0.6162;-5.5897;
1216.8000;0.6129;-5.5923;
1217.1000;0.6072;-5.6078;
1217.4000;0.6113;-5.5871;
1217.7000;0.6113;-5.6001;
1218.0000;0.6138;-5.5949;
1218.3000;0.6121;-5.6078;
1218.6000;0.6129;-5.5949;
1218.9000;0.6129;-5.5949;
1219.2000;0.6162;-5.5819;
1219.5000;0.6170;-5.5845;
1219.8000;0.6121;-5.5819;
1220.1000;0.6170;-5.5690;
1220.4000;0.6113;-5.5897;
1220.7000;0.6170;-5.5716;
1221.0000;0.6105;-5.5897;
1221.3000;0.6146;-5.5819;
1221.6000;0.6121;-5.5794;
1221.9000;0.6129;-5.5819;
1222.2000;0.6162;-5.5742;
1222.5000;0.6146;-5.5923;
1222.8000;0.6138;-5.6001;
1223.1000;0.6129;-5.6053;
1223.4000;0.6138;-5.6130;
1223.7000;0.6129;-5.6130;
1224.0000;0.6138;-5.6130;
1224.3000;0.6146;-5.6001;
1224.6000;0.6146;-5.5949;
1224.9000;0.6146;-5.5949;
1225.2000;0.6138;-5.5897;
1225.5000;0.6129;-5.6001;
1225.8000;0.6146;-5.6027;
1226.1000;0.6154;-5.5949;
1226.4000;0.6121;-5.6027;
1226.7000;0.6129;-5.6027;
1227.0000;0.6154;-5.5975;
1227.3000;0.6129;-5.6027;
1227.6000;0.6138;-5.6078;
1227.9000;0.6121;-5.6053;
1228.2000;0.6146;-5.6027;
1228.5000;0.6146;-5.6027;
1228.8000;0.6178;-5.5975;
1229.1000;0.6146;-5.6001;
1229.4000;0.6146;-5.5949;
1229.7000;0.6146;-5.5949;
1230.0000;0.6129;-5.5975;
1230.3000;0.6129;-5.6053;
1230.6000;0.6113;-5.5975;
1230.9000;0.6138;-5.5923;
1231.2000;0.6129;-5.5975;
1231.5000;0.6138;-5.5897;
1231.8000;0.6121;-5.5923;
1232.1000;0.6138;-5.5949;
1232.4000;0.6129;-5.6001;
1232.7000;0.6097;-5.6027;
1233.0000;0.6089;-5.6001;
1233.3000;0.6097;-5.5923;
1233.6000;0.6121;-5.5975;
1233.9000;0.6129;-5.5975;
1234.2000;0.6138;-5.5897;
1234.5000;0.6113;-5.5975;
1234.8000;0.6129;-5.5949;
1235.1000;0.6129;-5.5975;
1235.4000;0.6129;-5.5975;
1235.7000;0.6129;-5.5897;
1236.0000;0.6121;-5.5949;
1236.3000;0.6138;-5.5871;
1236.6000;0.6203;-5.5742;
1236.9000;0.6129;-5.5923;
1237.2000;0.6129;-5.5975;
1237.5000;0.6203;-5.5690;
1237.8000;0.6121;-5.5923;
1238.1000;0.6105;-5.6027;
1238.4000;0.6129;-5.6027;
1238.7000;0.6129;-5.5975;
1239.0000;0.6138;-5.6001;
1239.3000;0.6146;-5.6053;
1239.6000;0.6138;-5.6156;
1239.9000;0.6089;-5.6312;
1240.2000;0.6105;-5.6208;
1240.5000;0.6113;-5.6156;
1240.8000;0.6129;-5.6027;
1241.1000;0.6227;-5.5794;
1241.4000;0.6121;-5.6053;
1241.7000;0.6121;-5.6053;
1242.0000;0.6138;-5.6001;
1242.3000;0.6154;-5.5949;
1242.6000;0.6129;-5.5949;
1242.9000;0.6121;-5.6001;
1243.2000;0.6081;-5.6104;
1243.5000;0.6113;-5.5975;
1243.8000;0.6129;-5.5975;
1244.1000;0.6121;-5.5897;
1244.4000;0.6113;-5.6001;
1244.7000;0.6121;-5.5975;
1245.0000;0.6146;-5.5845;
1245.3000;0.6138;-5.5923;
1245.6000;0.6105;-5.6053;
1245.9000;0.6129;-5.6078;
1246.2000;0.6170;-5.6027;
1246.5000;0.6129;-5.6104;
1246.8000;0.6138;-5.6130;
1247.1000;0.6146;-5.6130;
1247.4000;0.6064;-5.6234;
1247.7000;0.6129;-5.6027;
1248.0000;0.6138;-5.6053;
1248.3000;0.6138;-5.5975;
1248.6000;0.6072;-5.6130;
1248.9000;0.6129;-5.6104;
1249.2000;0.6129;-5.6104;
1249.5000;0.6129;-5.6130;
1249.8000;0.6138;-5.6208;
1250.1000;0.6138;-5.6182;
1250.4000;0.6129;-5.6130;
1250.7000;0.6138;-5.6104;
1251.0000;0.6121;-5.6104;
1251.3000;0.6113;-5.6182;
1251.6000;0.6064;-5.6234;
1251.9000;0.6138;-5.5923;
1252.2000;0.6146;-5.6001;
1252.5000;0.6146;-5.5923;
1252.8000;0.6129;-5.5923;
1253.1000;0.6129;-5.5923;
1253.4000;0.6113;-5.5949;
1253.7000;0.6121;-5.5975;
1254.0000;0.6121;-5.6053;
1254.3000;0.6170;-5.5923;
1254.6000;0.6170;-5.5845;
1254.9000;0.6121;-5.5975;
1255.2000;0.6146;-5.5845;
1255.5000;0.6129;-5.5897;
1255.8000;0.6113;-5.5897;
1256.1000;0.6121;-5.5871;
1256.4000;0.6121;-5.5845;
1256.7000;0.6129;-5.5794;
1257.0000;0.6129;-5.5845;
1257.3000;0.6129;-5.5794;
1257.6000;0.6113;-5.5794;
1257.9000;0.6129;-5.5871;
1258.2000;0.6121;-5.5871;
1258.5000;0.6121;-5.5975;
1258.8000;0.6121;-5.6001;
1259.1000;0.6121;-5.5923;
1259.4000;0.6138;-5.5897;
1259.7000;0.6113;-5.5923;
1260.0000;0.6121;-5.5819;
1260.3000;0.6138;-5.5819;
1260.6000;0.6129;-5.5742;
1260.9000;0.6138;-5.5690;
1261.2000;0.6121;-5.5819;
1261.5000;0.6170;-5.5716;
1261.8000;0.6138;-5.5794;
1262.1000;0.6113;-5.5923;
1262.4000;0.6129;-5.5768;
1262.7000;0.6121;-5.5794;
1263.0000;0.6129;-5.5845;
1263.3000;0.6129;-5.5742;
1263.6000;0.6121;-5.5690;
1263.9000;0.6105;-5.5768;
1264.2000;0.6121;-5.5845;
1264.5000;0.6105;-5.5845;
1264.8000;0.6113;-5.5845;
1265.1000;0.6146;-5.5742;
1265.4000;0.6113;-5.5845;
1265.7000;0.6129;-5.5819;
1266.0000;0.6154;-5.5794;
1266.3000;0.6113;-5.5819;
1266.6000;0.6121;-5.5923;
1266.9000;0.6121;-5.5975;
1267.2000;0.6129;-5.5923;
1267.5000;0.6097;-5.5975;
1267.8000;0.6121;-5.5949;
1268.1000;0.6129;-5.5923;
1268.4000;0.6113;-5.5923;
1268.7000;0.6097;-5.5975;
1269.0000;0.6121;-5.5923;
1269.3000;0.6138;-5.5845;
1269.6000;0.6121;-5.5845;
1269.9000;0.6113;-5.5871;
1270.2000;0.6064;-5.6027;
1270.5000;0.6129;-5.5819;
1270.8000;0.6113;-5.5794;
1271.1000;0.6121;-5.5768;
1271.4000;0.6138;-5.5768;
1271.7000;0.6121;-5.5794;
1272.0000;0.6121;-5.5819;
1272.3000;0.6129;-5.5819;
1272.6000;0.6121;-5.5819;
1272.9000;0.6138;-5.5794;
1273.2000;0.6089;-5.5871;
1273.5000;0.6162;-5.5638;
1273.8000;0.6121;-5.5690;
1274.1000;0.6113;-5.5690;
1274.4000;0.6138;-5.5690;
1274.7000;0.6121;-5.5742;
1275.0000;0.6105;-5.5742;
1275.3000;0.6170;-5.5612;
1275.6000;0.6170;-5.5586;
1275.9000;0.6129;-5.5716;
1276.2000;0.6195;-5.5535;
1276.5000;0.6129;-5.5742;
1276.8000;0.6105;-5.5845;
1277.1000;0.6105;-5.5897;
1277.4000;0.6121;-5.5845;
1277.7000;0.6113;-5.5845;
1278.0000;0.6113;-5.5768;
1278.3000;0.6064;-5.5768;
1278.6000;0.6105;-5.5768;
1278.9000;0.6113;-5.5871;
1279.2000;0.6121;-5.5871;
1279.5000;0.6113;-5.5923;
1279.8000;0.6081;-5.6104;
1280.1000;0.6097;-5.6104;
1280.4000;0.6089;-5.6104;
1280.7000;0.6121;-5.6027;
1281.0000;0.6138;-5.6001;
1281.3000;0.6129;-5.5897;
1281.6000;0.6129;-5.5923;
1281.9000;0.6138;-5.5871;
1282.2000;0.6146;-5.5949;
1282.5000;0.6129;-5.5949;
1282.8000;0.6154;-5.5923;
1283.1000;0.6129;-5.6053;
1283.4000;0.6138;-5.6078;
1283.7000;0.6121;-5.6130;
1284.0000;0.6113;-5.6104;
1284.3000;0.6138;-5.6104;
1284.6000;0.6121;-5.6130;
1284.9000;0.6146;-5.6078;
1285.2000;0.6113;-5.6234;
1285.5000;0.6129;-5.6156;
1285.8000;0.6121;-5.6156;
1286.1000;0.6154;-5.5975;
1286.4000;0.6154;-5.5949;
1286.7000;0.6195;-5.5794;
1287.0000;0.6064;-5.6104;
1287.3000;0.6129;-5.5871;
1287.6000;0.6129;-5.5871;
1287.9000;0.6113;-5.5871;
1288.2000;0.6154;-5.5742;
1288.5000;0.6121;-5.5794;
1288.8000;0.6178;-5.5638;
1289.1000;0.6129;-5.5768;
1289.4000;0.6121;-5.5819;
1289.7000;0.6105;-5.5897;
1290.0000;0.6138;-5.5897;
1290.3000;0.6121;-5.6001;
1290.6000;0.6113;-5.6053;
1290.9000;0.6113;-5.6027;
1291.2000;0.6162;-5.5897;
1291.5000;0.6138;-5.5949;
1291.8000;0.6121;-5.5923;
1292.1000;0.6129;-5.5897;
1292.4000;0.6121;-5.5871;
1292.7000;0.6129;-5.5794;
1293.0000;0.6129;-5.5768;
1293.3000;0.6105;-5.5845;
1293.6000;0.6121;-5.5742;
1293.9000;0.6129;-5.5794;
1294.2000;0.6040;-5.6104;
1294.5000;0.6113;-5.5871;
1294.8000;0.6113;-5.5897;
1295.1000;0.6081;-5.5897;
1295.4000;0.6113;-5.5716;
1295.7000;0.6113;-5.5716;
1296.0000;0.6129;-5.5664;
1296.3000;0.6129;-5.5664;
1296.6000;0.6121;-5.5690;
1296.9000;0.6121;-5.5794;
1297.2000;0.6146;-5.5794;
1297.5000;0.6097;-5.5845;
1297.8000;0.6129;-5.5768;
1298.1000;0.6072;-5.5871;
1298.4000;0.6113;-5.5768;
1298.7000;0.6105;-5.5845;
1299.0000;0.6105;-5.5742;
1299.3000;0.6081;-5.5794;
1299.6000;0.6105;-5.5819;
1299.9000;0.6121;-5.5871;
1300.2000;0.6178;-5.5768;
1300.5000;0.6105;-5.5949;
1300.8000;0.6113;-5.6001;
1301.1000;0.6113;-5.5897;
1301.4000;0.6097;-5.5923;
1301.7000;0.6113;-5.5923;
1302.0000;0.6097;-5.5897;
1302.3000;0.6121;-5.5794;
1302.6000;0.6129;-5.5716;
1302.9000;0.6121;-5.5819;
1303.2000;0.6121;-5.5897;
1303.5000;0.6138;-5.5845;
1303.8000;0.6129;-5.5923;
1304.1000;0.6129;-5.5845;
1304.4000;0.6113;-5.5923;
1304.7000;0.6113;-5.5923;
1305.0000;0.6129;-5.5871;
1305.3000;0.6113;-5.5794;
1305.6000;0.6121;-5.5742;
1305.9000;0.6121;-5.5819;
1306.2000;0.6089;-5.5949;
1306.5000;0.6121;-5.5897;
1306.8000;0.6146;-5.5794;
1307.1000;0.6129;-5.5742;
1307.4000;0.6121;-5.5768;
1307.7000;0.6121;-5.5794;
1308.0000;0.6105;-5.5871;
1308.3000;0.6121;-5.5897;
1308.6000;0.6113;-5.5923;
1308.9000;0.6195;-5.5716;
1309.2000;0.6138;-5.5819;
1309.5000;0.6113;-5.5923;
1309.8000;0.6105;-5.5871;
1310.1000;0.6138;-5.5794;
1310.4000;0.6113;-5.5949;
1310.7000;0.6113;-5.6001;
1311.0000;0.6195;-5.5768;
1311.3000;0.6121;-5.5949;
1311.6000;0.6121;-5.5949;
1311.9000;0.6129;-5.5949;
1312.2000;0.6129;-5.6001;
1312.5000;0.6129;-5.6078;
1312.8000;0.6121;-5.6130;
1313.1000;0.6113;-5.6156;
1313.4000;0.6129;-5.6182;
1313.7000;0.6121;-5.6260;
1314.0000;0.6113;-5.6234;
1314.3000;0.6129;-5.6234;
1314.6000;0.6105;-5.6260;
1314.9000;0.6105;-5.6260;
1315.2000;0.6138;-5.6130;
1315.5000;0.6211;-5.6027;
1315.8000;0.6129;-5.6156;
1316.1000;0.6129;-5.6130;
1316.4000;0.6121;-5.6104;
1316.7000;0.6138;-5.6001;
1317.0000;0.6138;-5.5975;
1317.3000;0.6121;-5.6001;
1317.6000;0.6113;-5.5923;
1317.9000;0.6138;-5.5975;
1318.2000;0.6138;-5.5923;
1318.5000;0.6121;-5.6027;
1318.8000;0.6129;-5.6078;
1319.1000;0.6129;-5.6130;
1319.4000;0.6121;-5.6078;
1319.7000;0.6105;-5.6104;
1320.0000;0.6121;-5.6053;
1320.3000;0.6089;-5.6156;
1320.6000;0.6105;-5.6027;
1320.9000;0.6105;-5.6053;
1321.2000;0.6121;-5.6001;
1321.5000;0.6105;-5.5975;
1321.8000;0.6113;-5.6027;
1322.1000;0.6097;-5.6001;
1322.4000;0.6097;-5.6053;
1322.7000;0.6113;-5.6053;
1323.0000;0.6113;-5.6053;
1323.3000;0.6113;-5.6027;
1323.6000;0.6105;-5.5897;
1323.9000;0.6113;-5.6001;
1324.2000;0.6121;-5.6027;
1324.5000;0.6113;-5.6001;
1324.8000;0.6121;-5.6027;
1325.1000;0.6105;-5.6027;
1325.4000;0.6113;-5.5949;
1325.7000;0.6097;-5.5975;
1326.0000;0.6121;-5.5975;
1326.3000;0.6113;-5.6001;
1326.6000;0.6113;-5.6001;
1326.9000;0.6113;-5.5975;
1327.2000;0.6121;-5.6053;
1327.5000;0.6056;-5.6182;
1327.8000;0.6121;-5.6053;
1328.1000;0.6138;-5.6027;
1328.4000;0.6105;-5.6156;
1328.7000;0.6105;-5.6078;
1329.0000;0.6089;-5.6053;
1329.3000;0.6105;-5.5975;
1329.6000;0.6129;-5.5949;
1329.9000;0.6138;-5.5845;
1330.2000;0.6097;-5.5871;
1330.5000;0.6105;-5.5871;
1330.8000;0.6105;-5.5923;
1331.1000;0.6121;-5.5845;
1331.4000;0.6105;-5.5845;
1331.7000;0.6113;-5.5845;
1332.0000;0.6129;-5.5871;
1332.3000;0.6129;-5.5871;
1332.6000;0.6105;-5.5923;
1332.9000;0.6162;-5.5742;
1333.2000;0.6113;-5.5871;
1333.5000;0.6186;-5.5638;
1333.8000;0.6162;-5.5716;
1334.1000;0.6121;-5.5897;
1334.4000;0.6170;-5.5768;
1334.7000;0.6129;-5.5897;
1335.0000;0.6154;-5.5871;
1335.3000;0.6113;-5.5949;
1335.6000;0.6121;-5.5871;
1335.9000;0.6089;-5.5975;
1336.2000;0.6121;-5.5897;
1336.5000;0.6113;-5.5897;
1336.8000;0.6081;-5.5975;
1337.1000;0.6105;-5.6053;
1337.4000;0.6121;-5.6104;
1337.7000;0.6105;-5.6156;
1338.0000;0.6113;-5.6078;
1338.3000;0.6105;-5.5923;
1338.6000;0.6113;-5.5923;
1338.9000;0.6121;-5.5845;
1339.2000;0.6121;-5.5871;
1339.5000;0.6113;-5.5845;
1339.8000;0.6121;-5.5949;
1340.1000;0.6113;-5.5871;
1340.4000;0.6097;-5.5897;
1340.7000;0.6121;-5.5897;
1341.0000;0.6129;-5.5923;
1341.3000;0.6129;-5.5923;
1341.6000;0.6113;-5.5975;
1341.9000;0.6113;-5.6001;
1342.2000;0.6113;-5.5949;
1342.5000;0.6129;-5.5923;
1342.8000;0.6105;-5.5949;
1343.1000;0.6121;-5.5949;
1343.4000;0.6097;-5.5949;
1343.7000;0.6121;-5.5845;
1344.0000;0.6105;-5.5871;
1344.3000;0.6121;-5.5845;
1344.6000;0.6121;-5.5794;
1344.9000;0.6129;-5.5845;
1345.2000;0.6121;-5.5871;
1345.5000;0.6113;-5.5845;
1345.8000;0.6129;-5.5871;
1346.1000;0.6121;-5.5794;
1346.4000;0.6089;-5.5768;
1346.7000;0.6097;-5.5690;
1347.0000;0.6089;-5.5768;
1347.3000;0.6105;-5.5742;
1347.6000;0.6113;-5.5768;
1347.9000;0.6121;-5.5716;
1348.2000;0.6113;-5.5819;
1348.5000;0.6113;-5.5845;
1348.8000;0.6129;-5.5923;
1349.1000;0.6113;-5.5923;
1349.4000;0.6097;-5.5949;
1349.7000;0.6121;-5.5845;
1350.0000;0.6138;-5.5845;
1350.3000;0.6129;-5.5716;
1350.6000;0.6129;-5.5768;
1350.9000;0.6129;-5.5638;
1351.2000;0.6138;-5.5638;
1351.5000;0.6081;-5.5716;
1351.8000;0.6113;-5.5664;
1352.1000;0.6138;-5.5664;
1352.4000;0.6129;-5.5690;
1352.7000;0.6129;-5.5664;
1353.0000;0.6138;-5.5742;
1353.3000;0.6121;-5.5819;
1353.6000;0.6186;-5.5612;
1353.9000;0.6129;-5.5768;
1354.2000;0.6105;-5.5742;
1354.5000;0.6146;-5.5794;
1354.8000;0.6113;-5.5819;
1355.1000;0.6113;-5.5768;
1355.4000;0.6138;-5.5742;
1355.7000;0.6097;-5.5845;
1356.0000;0.6146;-5.5794;
1356.3000;0.6113;-5.5897;
1356.6000;0.6105;-5.5975;
1356.9000;0.6089;-5.6078;
1357.2000;0.6105;-5.6027;
1357.5000;0.6105;-5.6001;
1357.8000;0.6064;-5.6027;
1358.1000;0.6105;-5.5975;
1358.4000;0.6105;-5.6027;
1358.7000;0.6121;-5.5975;
1359.0000;0.6113;-5.5871;
1359.3000;0.6113;-5.5897;
1359.6000;0.6105;-5.5871;
1359.9000;0.6113;-5.5871;
1360.2000;0.6048;-5.6053;
1360.5000;0.6105;-5.6027;
1360.8000;0.6113;-5.6027;
1361.1000;0.6121;-5.5975;
1361.4000;0.6081;-5.5975;
1361.7000;0.6121;-5.5949;
1362.0000;0.6113;-5.6027;
1362.3000;0.6048;-5.6156;
1362.6000;0.6097;-5.5871;
1362.9000;0.6105;-5.5897;
1363.2000;0.6097;-5.5923;
1363.5000;0.6105;-5.5923;
1363.8000;0.6113;-5.6027;
1364.1000;0.6121;-5.6053;
1364.4000;0.6105;-5.5975;
1364.7000;0.6113;-5.5923;
1365.0000;0.6113;-5.5923;
1365.3000;0.6129;-5.5897;
1365.6000;0.6121;-5.5949;
1365.9000;0.6105;-5.6001;
1366.2000;0.6113;-5.5975;
1366.5000;0.6113;-5.5897;
1366.8000;0.6105;-5.5949;
1367.1000;0.6113;-5.5975;
1367.4000;0.6097;-5.6027;
1367.7000;0.6097;-5.5975;
1368.0000;0.6113;-5.5923;
1368.3000;0.6032;-5.6130;
1368.6000;0.6121;-5.6001;
1368.9000;0.6129;-5.5949;
1369.2000;0.6121;-5.5923;
1369.5000;0.6105;-5.5897;
1369.8000;0.6097;-5.5871;
1370.1000;0.6121;-5.5819;
1370.4000;0.6105;-5.5871;
1370.7000;0.6113;-5.5871;
1371.0000;0.6097;-5.5845;
1371.3000;0.6105;-5.5871;
1371.6000;0.6097;-5.5845;
1371.9000;0.6113;-5.5716;
1372.2000;0.6113;-5.5742;
1372.5000;0.6097;-5.5794;
1372.8000;0.6097;-5.5819;
1373.1000;0.6105;-5.5794;
1373.4000;0.6048;-5.6001;
1373.7000;0.6089;-5.5845;
1374.0000;0.6097;-5.5819;
1374.3000;0.6113;-5.5949;
1374.6000;0.6113;-5.5923;
1374.9000;0.6113;-5.5975;
1375.2000;0.6113;-5.5975;
1375.5000;0.6121;-5.5975;
1375.8000;0.6097;-5.5923;
1376.1000;0.6097;-5.5871;
1376.4000;0.6129;-5.5845;
1376.7000;0.6121;-5.5897;
1377.0000;0.6105;-5.5897;
1377.3000;0.6105;-5.5897;
1377.6000;0.6121;-5.6001;
1377.9000;0.6064;-5.6053;
1378.2000;0.6113;-5.5923;
1378.5000;0.6121;-5.5975;
1378.8000;0.6105;-5.6001;
1379.1000;0.6113;-5.6078;
1379.4000;0.6121;-5.6156;
1379.7000;0.6121;-5.6208;
1380.0000;0.6113;-5.6078;
1380.3000;0.6081;-5.6001;
1380.6000;0.6113;-5.5949;
1380.9000;0.6121;-5.5949;
1381.2000;0.6105;-5.5975;
1381.5000;0.6113;-5.5949;
1381.8000;0.6113;-5.6001;
1382.1000;0.6121;-5.5923;
1382.4000;0.6129;-5.5845;
1382.7000;0.6097;-5.5871;
1383.0000;0.6121;-5.5871;
1383.3000;0.6113;-5.5794;
1383.6000;0.6113;-5.5871;
1383.9000;0.6089;-5.5871;
1384.2000;0.6121;-5.5742;
1384.5000;0.6113;-5.5768;
1384.8000;0.6113;-5.5768;
1385.1000;0.6113;-5.5819;
1385.4000;0.6097;-5.5819;
1385.7000;0.6105;-5.5768;
1386.0000;0.6113;-5.5690;
1386.3000;0.6121;-5.5819;
1386.6000;0.6105;-5.5871;
1386.9000;0.6129;-5.5871;
1387.2000;0.6113;-5.5897;
1387.5000;0.6105;-5.5897;
1387.8000;0.6097;-5.5871;
1388.1000;0.6097;-5.5845;
1388.4000;0.6121;-5.5819;
1388.7000;0.6113;-5.5897;
1389.0000;0.6146;-5.5794;
1389.3000;0.6121;-5.5845;
1389.6000;0.6113;-5.5794;
1389.9000;0.6121;-5.5819;
1390.2000;0.6113;-5.5845;
1390.5000;0.6105;-5.5871;
1390.8000;0.6129;-5.5845;
1391.1000;0.6121;-5.5871;
1391.4000;0.6105;-5.5871;
1391.7000;0.6113;-5.5871;
1392.0000;0.6121;-5.5819;
1392.3000;0.6097;-5.5949;
1392.6000;0.6129;-5.5819;
1392.9000;0.6089;-5.5897;
1393.2000;0.6089;-5.5794;
1393.5000;0.6089;-5.5716;
1393.8000;0.6113;-5.5716;
1394.1000;0.6097;-5.5794;
1394.4000;0.6105;-5.5819;
1394.7000;0.6129;-5.5819;
1395.0000;0.6097;-5.5845;
1395.3000;0.6121;-5.5794;
1395.6000;0.6081;-5.5949;
1395.9000;0.6121;-5.5768;
1396.2000;0.6146;-5.5664;
1396.5000;0.6097;-5.5794;
1396.8000;0.6089;-5.5768;
1397.1000;0.6113;-5.5690;
1397.4000;0.6113;-5.5690;
1397.7000;0.6113;-5.5819;
1398.0000;0.6113;-5.5819;
1398.3000;0.6105;-5.5819;
1398.6000;0.6105;-5.5794;
1398.9000;0.6121;-5.5794;
1399.2000;0.6105;-5.5845;
1399.5000;0.6097;-5.5897;
1399.8000;0.6089;-5.5897;
