time/ms;Fluo/V;P700 deltaI/I x10³;
-199.8000;0.7049;-5.6830;
-199.5000;0.7098;-5.6700;
-199.2000;0.7114;-5.6622;
-198.9000;0.7114;-5.6622;
-198.6000;0.7106;-5.6571;
-198.3000;0.7139;-5.6493;
-198.0000;0.7147;-5.6545;
-197.7000;0.7114;-5.6545;
-197.4000;0.7106;-5.6597;
-197.1000;0.7106;-5.6571;
-196.8000;0.7106;-5.6519;
-196.5000;0.7114;-5.6545;
-196.2000;0.7066;-5.6674;
-195.9000;0.7106;-5.6571;
-195.6000;0.7106;-5.6648;
-195.3000;0.7106;-5.6778;
-195.0000;0.7090;-5.6778;
-194.7000;0.7082;-5.6700;
-194.4000;0.7098;-5.6778;
-194.1000;0.7098;-5.6778;
-193.8000;0.7106;-5.6830;
-193.5000;0.7106;-5.6700;
-193.2000;0.7106;-5.6726;
-192.9000;0.7114;-5.6726;
-192.6000;0.7123;-5.6804;
-192.3000;0.7114;-5.6830;
-192.0000;0.7114;-5.6830;
-191.7000;0.7114;-5.6804;
-191.4000;0.7139;-5.6726;
-191.1000;0.7131;-5.6830;
-190.8000;0.7123;-5.6830;
-190.5000;0.7123;-5.6752;
-190.2000;0.7114;-5.6830;
-189.9000;0.7123;-5.6752;
-189.6000;0.7098;-5.6752;
-189.3000;0.7114;-5.6700;
-189.0000;0.7139;-5.6571;
-188.7000;0.7114;-5.6571;
-188.4000;0.7123;-5.6519;
-188.1000;0.7098;-5.6674;
-187.8000;0.7114;-5.6674;
-187.5000;0.7106;-5.6674;
-187.2000;0.7106;-5.6752;
-186.9000;0.7114;-5.6700;
-186.6000;0.7106;-5.6674;
-186.3000;0.7098;-5.6700;
-186.0000;0.7098;-5.6700;
-185.7000;0.7114;-5.6622;
-185.4000;0.7090;-5.6700;
-185.1000;0.7106;-5.6700;
-184.8000;0.7123;-5.6700;
-184.5000;0.7139;-5.6674;
-184.2000;0.7114;-5.6804;
-183.9000;0.7057;-5.6985;
-183.6000;0.7033;-5.7063;
-183.3000;0.7106;-5.6804;
-183.0000;0.7106;-5.6830;
-182.7000;0.7106;-5.6959;
-182.4000;0.7123;-5.6933;
-182.1000;0.7114;-5.6881;
-181.8000;0.7131;-5.6804;
-181.5000;0.7147;-5.6752;
-181.2000;0.7098;-5.6881;
-180.9000;0.7106;-5.6830;
-180.6000;0.7114;-5.6856;
-180.3000;0.7082;-5.6959;
-180.0000;0.7114;-5.6830;
-179.7000;0.7114;-5.6856;
-179.4000;0.7090;-5.6881;
-179.1000;0.7131;-5.6778;
-178.8000;0.7123;-5.6778;
-178.5000;0.7114;-5.6830;
-178.2000;0.7098;-5.6881;
-177.9000;0.7090;-5.6830;
-177.6000;0.7106;-5.6778;
-177.3000;0.7123;-5.6700;
-177.0000;0.7098;-5.6804;
-176.7000;0.7000;-5.7037;
-176.4000;0.7106;-5.6700;
-176.1000;0.7163;-5.6571;
-175.8000;0.7098;-5.6778;
-175.5000;0.7106;-5.6726;
-175.2000;0.7098;-5.6752;
-174.9000;0.7106;-5.6674;
-174.6000;0.7106;-5.6597;
-174.3000;0.7098;-5.6571;
-174.0000;0.7114;-5.6571;
-173.7000;0.7114;-5.6441;
-173.4000;0.7090;-5.6571;
-173.1000;0.7090;-5.6545;
-172.8000;0.7123;-5.6545;
-172.5000;0.7106;-5.6648;
-172.2000;0.7139;-5.6622;
-171.9000;0.7106;-5.6778;
-171.6000;0.7114;-5.6674;
-171.3000;0.7106;-5.6700;
-171.0000;0.7098;-5.6597;
-170.7000;0.7114;-5.6545;
-170.4000;0.7123;-5.6493;
-170.1000;0.7098;-5.6622;
-169.8000;0.7123;-5.6545;
-169.5000;0.7106;-5.6493;
-169.2000;0.7114;-5.6622;
-168.9000;0.7114;-5.6674;
-168.6000;0.7106;-5.6752;
-168.3000;0.7114;-5.6674;
-168.0000;0.7114;-5.6674;
-167.7000;0.7114;-5.6700;
-167.4000;0.7114;-5.6622;
-167.1000;0.7131;-5.6648;
-166.8000;0.7114;-5.6752;
-166.5000;0.7114;-5.6752;
-166.2000;0.7123;-5.6830;
-165.9000;0.7114;-5.6856;
-165.6000;0.7123;-5.6856;
-165.3000;0.7123;-5.6907;
-165.0000;0.7106;-5.6907;
-164.7000;0.7139;-5.6804;
-164.4000;0.7098;-5.6881;
-164.1000;0.7106;-5.6804;
-163.8000;0.7106;-5.6881;
-163.5000;0.7131;-5.6778;
-163.2000;0.7123;-5.6804;
-162.9000;0.7106;-5.6881;
-162.6000;0.7106;-5.6907;
-162.3000;0.7114;-5.6881;
-162.0000;0.7114;-5.6856;
-161.7000;0.7106;-5.6856;
-161.4000;0.7106;-5.6881;
-161.1000;0.7057;-5.6933;
-160.8000;0.7123;-5.6752;
-160.5000;0.7131;-5.6674;
-160.2000;0.7106;-5.6622;
-159.9000;0.7106;-5.6648;
-159.6000;0.7147;-5.6648;
-159.3000;0.7123;-5.6700;
-159.0000;0.7106;-5.6726;
-158.7000;0.7090;-5.6700;
-158.4000;0.7114;-5.6571;
-158.1000;0.7131;-5.6519;
-157.8000;0.7123;-5.6493;
-157.5000;0.7123;-5.6441;
-157.2000;0.7123;-5.6415;
-156.9000;0.7131;-5.6441;
-156.6000;0.7123;-5.6493;
-156.3000;0.7114;-5.6493;
-156.0000;0.7114;-5.6519;
-155.7000;0.7123;-5.6519;
-155.4000;0.7139;-5.6519;
-155.1000;0.7041;-5.6622;
-154.8000;0.7106;-5.6519;
-154.5000;0.7106;-5.6571;
-154.2000;0.7114;-5.6597;
-153.9000;0.7098;-5.6674;
-153.6000;0.7114;-5.6519;
-153.3000;0.7106;-5.6493;
-153.0000;0.7106;-5.6493;
-152.7000;0.7074;-5.6519;
-152.4000;0.7098;-5.6519;
-152.1000;0.7114;-5.6493;
-151.8000;0.7114;-5.6545;
-151.5000;0.7106;-5.6597;
-151.2000;0.7098;-5.6597;
-150.9000;0.7106;-5.6545;
-150.6000;0.7139;-5.6519;
-150.3000;0.7163;-5.6519;
-150.0000;0.7106;-5.6700;
-149.7000;0.7066;-5.6752;
-149.4000;0.7114;-5.6597;
-149.1000;0.7106;-5.6571;
-148.8000;0.7098;-5.6571;
-148.5000;0.7114;-5.6493;
-148.2000;0.7098;-5.6571;
-147.9000;0.7114;-5.6467;
-147.6000;0.7082;-5.6571;
-147.3000;0.7114;-5.6545;
-147.0000;0.7098;-5.6597;
-146.7000;0.7106;-5.6622;
-146.4000;0.7114;-5.6597;
-146.1000;0.7106;-5.6648;
-145.8000;0.7090;-5.6622;
-145.5000;0.7106;-5.6571;
-145.2000;0.7163;-5.6467;
-144.9000;0.7114;-5.6545;
-144.6000;0.7090;-5.6648;
-144.3000;0.7131;-5.6493;
-144.0000;0.7123;-5.6519;
-143.7000;0.7106;-5.6597;
-143.4000;0.7106;-5.6597;
-143.1000;0.7106;-5.6597;
-142.8000;0.7114;-5.6622;
-142.5000;0.7098;-5.6622;
-142.2000;0.7114;-5.6648;
-141.9000;0.7106;-5.6648;
-141.6000;0.7090;-5.6622;
-141.3000;0.7123;-5.6545;
-141.0000;0.7131;-5.6519;
-140.7000;0.7106;-5.6571;
-140.4000;0.7131;-5.6493;
-140.1000;0.7123;-5.6545;
-139.8000;0.7106;-5.6597;
-139.5000;0.7123;-5.6571;
-139.2000;0.7139;-5.6519;
-138.9000;0.7114;-5.6545;
-138.6000;0.7090;-5.6700;
-138.3000;0.7106;-5.6752;
-138.0000;0.7041;-5.6881;
-137.7000;0.7106;-5.6804;
-137.4000;0.7082;-5.6881;
-137.1000;0.7147;-5.6674;
-136.8000;0.7123;-5.6700;
-136.5000;0.7123;-5.6622;
-136.2000;0.7147;-5.6493;
-135.9000;0.7106;-5.6571;
-135.6000;0.7114;-5.6571;
-135.3000;0.7123;-5.6571;
-135.0000;0.7139;-5.6467;
-134.7000;0.7114;-5.6493;
-134.4000;0.7123;-5.6545;
-134.1000;0.7179;-5.6389;
-133.8000;0.7123;-5.6493;
-133.5000;0.7098;-5.6622;
-133.2000;0.7098;-5.6674;
-132.9000;0.7114;-5.6648;
-132.6000;0.7098;-5.6648;
-132.3000;0.7082;-5.6674;
-132.0000;0.7114;-5.6674;
-131.7000;0.7114;-5.6648;
-131.4000;0.7131;-5.6571;
-131.1000;0.7131;-5.6545;
-130.8000;0.7114;-5.6545;
-130.5000;0.7090;-5.6571;
-130.2000;0.7114;-5.6519;
-129.9000;0.7106;-5.6493;
-129.6000;0.7098;-5.6545;
-129.3000;0.7082;-5.6597;
-129.0000;0.7106;-5.6545;
-128.7000;0.7106;-5.6545;
-128.4000;0.7114;-5.6545;
-128.1000;0.7098;-5.6622;
-127.8000;0.7098;-5.6597;
-127.5000;0.7082;-5.6597;
-127.2000;0.7098;-5.6545;
-126.9000;0.7098;-5.6571;
-126.6000;0.7090;-5.6571;
-126.3000;0.7090;-5.6597;
-126.0000;0.7090;-5.6726;
-125.7000;0.7106;-5.6752;
-125.4000;0.7123;-5.6752;
-125.1000;0.7123;-5.6881;
-124.8000;0.7106;-5.6933;
-124.5000;0.7123;-5.6881;
-124.2000;0.7106;-5.6881;
-123.9000;0.7114;-5.6985;
-123.6000;0.7131;-5.6830;
-123.3000;0.7106;-5.6881;
-123.0000;0.7033;-5.7011;
-122.7000;0.7123;-5.6907;
-122.4000;0.7114;-5.6752;
-122.1000;0.7123;-5.6778;
-121.8000;0.7106;-5.6830;
-121.5000;0.7131;-5.6804;
-121.2000;0.7131;-5.6700;
-120.9000;0.7114;-5.6726;
-120.6000;0.7106;-5.6726;
-120.3000;0.7106;-5.6700;
-120.0000;0.7106;-5.6674;
-119.7000;0.7123;-5.6571;
-119.4000;0.7114;-5.6622;
-119.1000;0.7114;-5.6622;
-118.8000;0.7123;-5.6597;
-118.5000;0.7106;-5.6571;
-118.2000;0.7123;-5.6648;
-117.9000;0.7090;-5.6700;
-117.6000;0.7106;-5.6674;
-117.3000;0.7098;-5.6648;
-117.0000;0.7090;-5.6648;
-116.7000;0.7090;-5.6648;
-116.4000;0.7106;-5.6648;
-116.1000;0.7106;-5.6700;
-115.8000;0.7106;-5.6648;
-115.5000;0.7098;-5.6648;
-115.2000;0.7090;-5.6648;
-114.9000;0.7106;-5.6493;
-114.6000;0.7123;-5.6441;
-114.3000;0.7106;-5.6467;
-114.0000;0.7074;-5.6519;
-113.7000;0.7041;-5.6622;
-113.4000;0.7106;-5.6519;
-113.1000;0.7106;-5.6571;
-112.8000;0.7106;-5.6571;
-112.5000;0.7098;-5.6648;
-112.2000;0.7098;-5.6622;
-111.9000;0.7114;-5.6493;
-111.6000;0.7098;-5.6441;
-111.3000;0.7057;-5.6545;
-111.0000;0.7114;-5.6441;
-110.7000;0.7114;-5.6519;
-110.4000;0.7106;-5.6519;
-110.1000;0.7171;-5.6363;
-109.8000;0.7106;-5.6545;
-109.5000;0.7131;-5.6493;
-109.2000;0.7106;-5.6493;
-108.9000;0.7114;-5.6467;
-108.6000;0.7090;-5.6467;
-108.3000;0.7090;-5.6415;
-108.0000;0.7090;-5.6312;
-107.7000;0.7049;-5.6493;
-107.4000;0.7098;-5.6493;
-107.1000;0.7106;-5.6493;
-106.8000;0.7123;-5.6441;
-106.5000;0.7106;-5.6622;
-106.2000;0.7123;-5.6674;
-105.9000;0.7106;-5.6726;
-105.6000;0.7098;-5.6726;
-105.3000;0.7098;-5.6752;
-105.0000;0.7098;-5.6752;
-104.7000;0.7098;-5.6674;
-104.4000;0.7114;-5.6674;
-104.1000;0.7114;-5.6622;
-103.8000;0.7106;-5.6571;
-103.5000;0.7123;-5.6597;
-103.2000;0.7114;-5.6726;
-102.9000;0.7114;-5.6752;
-102.6000;0.7106;-5.6804;
-102.3000;0.7098;-5.6778;
-102.0000;0.7074;-5.6804;
-101.7000;0.7114;-5.6726;
-101.4000;0.7074;-5.6881;
-101.1000;0.7106;-5.6752;
-100.8000;0.7114;-5.6700;
-100.5000;0.7106;-5.6726;
-100.2000;0.7106;-5.6726;
-99.9000;0.7114;-5.6726;
-99.6000;0.7123;-5.6648;
-99.3000;0.7106;-5.6778;
-99.0000;0.7139;-5.6622;
-98.7000;0.7098;-5.6674;
-98.4000;0.7106;-5.6597;
-98.1000;0.7114;-5.6519;
-97.8000;0.7114;-5.6493;
-97.5000;0.7106;-5.6545;
-97.2000;0.7090;-5.6597;
-96.9000;0.7123;-5.6519;
-96.6000;0.7114;-5.6467;
-96.3000;0.7098;-5.6519;
-96.0000;0.7090;-5.6519;
-95.7000;0.7090;-5.6571;
-95.4000;0.7106;-5.6519;
-95.1000;0.7098;-5.6597;
-94.8000;0.7098;-5.6597;
-94.5000;0.7106;-5.6519;
-94.2000;0.7106;-5.6441;
-93.9000;0.7106;-5.6389;
-93.6000;0.7090;-5.6389;
-93.3000;0.7106;-5.6389;
-93.0000;0.7090;-5.6493;
-92.7000;0.7106;-5.6493;
-92.4000;0.7090;-5.6545;
-92.1000;0.7114;-5.6545;
-91.8000;0.7098;-5.6545;
-91.5000;0.7123;-5.6415;
-91.2000;0.7123;-5.6441;
-90.9000;0.7082;-5.6441;
-90.6000;0.7106;-5.6337;
-90.3000;0.7082;-5.6415;
-90.0000;0.7131;-5.6286;
-89.7000;0.7106;-5.6467;
-89.4000;0.7114;-5.6415;
-89.1000;0.7106;-5.6441;
-88.8000;0.7123;-5.6467;
-88.5000;0.7114;-5.6441;
-88.2000;0.7106;-5.6493;
-87.9000;0.7147;-5.6312;
-87.6000;0.7106;-5.6389;
-87.3000;0.7074;-5.6545;
-87.0000;0.7082;-5.6571;
-86.7000;0.7106;-5.6545;
-86.4000;0.7106;-5.6519;
-86.1000;0.7123;-5.6467;
-85.8000;0.7114;-5.6493;
-85.5000;0.7114;-5.6493;
-85.2000;0.7106;-5.6441;
-84.9000;0.7090;-5.6597;
-84.6000;0.7106;-5.6545;
-84.3000;0.7106;-5.6519;
-84.0000;0.7131;-5.6545;
-83.7000;0.7114;-5.6493;
-83.4000;0.7114;-5.6467;
-83.1000;0.7106;-5.6415;
-82.8000;0.7131;-5.6389;
-82.5000;0.7106;-5.6441;
-82.2000;0.7106;-5.6467;
-81.9000;0.7106;-5.6467;
-81.6000;0.7106;-5.6441;
-81.3000;0.7106;-5.6337;
-81.0000;0.7090;-5.6441;
-80.7000;0.7090;-5.6415;
-80.4000;0.7106;-5.6415;
-80.1000;0.7114;-5.6363;
-79.8000;0.7098;-5.6363;
-79.5000;0.7090;-5.6337;
-79.2000;0.7098;-5.6337;
-78.9000;0.7106;-5.6337;
-78.6000;0.7106;-5.6363;
-78.3000;0.7098;-5.6363;
-78.0000;0.7098;-5.6312;
-77.7000;0.7106;-5.6337;
-77.4000;0.7114;-5.6337;
-77.1000;0.7106;-5.6286;
-76.8000;0.7147;-5.6208;
-76.5000;0.7114;-5.6337;
-76.2000;0.7098;-5.6363;
-75.9000;0.7114;-5.6234;
-75.6000;0.7106;-5.6260;
-75.3000;0.7106;-5.6312;
-75.0000;0.7114;-5.6363;
-74.7000;0.7090;-5.6337;
-74.4000;0.7114;-5.6286;
-74.1000;0.7106;-5.6312;
-73.8000;0.7106;-5.6337;
-73.5000;0.7114;-5.6312;
-73.2000;0.7106;-5.6337;
-72.9000;0.7106;-5.6441;
-72.6000;0.7106;-5.6519;
-72.3000;0.7106;-5.6493;
-72.0000;0.7114;-5.6519;
-71.7000;0.7114;-5.6545;
-71.4000;0.7106;-5.6571;
-71.1000;0.7123;-5.6545;
-70.8000;0.7090;-5.6597;
-70.5000;0.7074;-5.6597;
-70.2000;0.7106;-5.6519;
-69.9000;0.7098;-5.6441;
-69.6000;0.7114;-5.6415;
-69.3000;0.7106;-5.6441;
-69.0000;0.7082;-5.6441;
-68.7000;0.7131;-5.6389;
-68.4000;0.7090;-5.6441;
-68.1000;0.7171;-5.6208;
-67.8000;0.7090;-5.6363;
-67.5000;0.7090;-5.6389;
-67.2000;0.7066;-5.6571;
-66.9000;0.7123;-5.6467;
-66.6000;0.7098;-5.6545;
-66.3000;0.7090;-5.6545;
-66.0000;0.7098;-5.6493;
-65.7000;0.7090;-5.6493;
-65.4000;0.7074;-5.6545;
-65.1000;0.7082;-5.6545;
-64.8000;0.7123;-5.6389;
-64.5000;0.7106;-5.6415;
-64.2000;0.7074;-5.6467;
-63.9000;0.7090;-5.6337;
-63.6000;0.7098;-5.6312;
-63.3000;0.7171;-5.6130;
-63.0000;0.7098;-5.6312;
-62.7000;0.7123;-5.6312;
-62.4000;0.7123;-5.6337;
-62.1000;0.7123;-5.6286;
-61.8000;0.7041;-5.6571;
-61.5000;0.7098;-5.6467;
-61.2000;0.7098;-5.6389;
-60.9000;0.7131;-5.6363;
-60.6000;0.7106;-5.6415;
-60.3000;0.7123;-5.6337;
-60.0000;0.7114;-5.6389;
-59.7000;0.7082;-5.6545;
-59.4000;0.7106;-5.6467;
-59.1000;0.7114;-5.6363;
-58.8000;0.7090;-5.6389;
-58.5000;0.7090;-5.6415;
-58.2000;0.7139;-5.6312;
-57.9000;0.7074;-5.6493;
-57.6000;0.7090;-5.6467;
-57.3000;0.7098;-5.6467;
-57.0000;0.7114;-5.6467;
-56.7000;0.7123;-5.6493;
-56.4000;0.7106;-5.6519;
-56.1000;0.7114;-5.6519;
-55.8000;0.7106;-5.6519;
-55.5000;0.7098;-5.6571;
-55.2000;0.7098;-5.6545;
-54.9000;0.7106;-5.6441;
-54.6000;0.7090;-5.6519;
-54.3000;0.7098;-5.6519;
-54.0000;0.7106;-5.6389;
-53.7000;0.7098;-5.6415;
-53.4000;0.7106;-5.6493;
-53.1000;0.7155;-5.6312;
-52.8000;0.7098;-5.6467;
-52.5000;0.7106;-5.6493;
-52.2000;0.7123;-5.6519;
-51.9000;0.7139;-5.6571;
-51.6000;0.7114;-5.6726;
-51.3000;0.7074;-5.6830;
-51.0000;0.7098;-5.6752;
-50.7000;0.7114;-5.6752;
-50.4000;0.7114;-5.6726;
-50.1000;0.7155;-5.6545;
-49.8000;0.7106;-5.6700;
-49.5000;0.7114;-5.6674;
-49.2000;0.7098;-5.6700;
-48.9000;0.7090;-5.6648;
-48.6000;0.7106;-5.6571;
-48.3000;0.7106;-5.6545;
-48.0000;0.7090;-5.6545;
-47.7000;0.7114;-5.6441;
-47.4000;0.7098;-5.6519;
-47.1000;0.7106;-5.6467;
-46.8000;0.7074;-5.6571;
-46.5000;0.7082;-5.6493;
-46.2000;0.7098;-5.6389;
-45.9000;0.7123;-5.6363;
-45.6000;0.7114;-5.6389;
-45.3000;0.7106;-5.6363;
-45.0000;0.7098;-5.6363;
-44.7000;0.7114;-5.6312;
-44.4000;0.7098;-5.6312;
-44.1000;0.7114;-5.6312;
-43.8000;0.7090;-5.6441;
-43.5000;0.7098;-5.6519;
-43.2000;0.7114;-5.6545;
-42.9000;0.7106;-5.6519;
-42.6000;0.7139;-5.6545;
-42.3000;0.7106;-5.6545;
-42.0000;0.7114;-5.6545;
-41.7000;0.7114;-5.6519;
-41.4000;0.7123;-5.6467;
-41.1000;0.7114;-5.6415;
-40.8000;0.7114;-5.6415;
-40.5000;0.7123;-5.6389;
-40.2000;0.7106;-5.6389;
-39.9000;0.7123;-5.6389;
-39.6000;0.7106;-5.6363;
-39.3000;0.7139;-5.6260;
-39.0000;0.7114;-5.6337;
-38.7000;0.7114;-5.6389;
-38.4000;0.7123;-5.6389;
-38.1000;0.7098;-5.6441;
-37.8000;0.7106;-5.6415;
-37.5000;0.7098;-5.6389;
-37.2000;0.7106;-5.6286;
-36.9000;0.7098;-5.6312;
-36.6000;0.7106;-5.6208;
-36.3000;0.7033;-5.6363;
-36.0000;0.7139;-5.6078;
-35.7000;0.7106;-5.6208;
-35.4000;0.7114;-5.6208;
-35.1000;0.7098;-5.6337;
-34.8000;0.7090;-5.6441;
-34.5000;0.7074;-5.6545;
-34.2000;0.7082;-5.6467;
-33.9000;0.7090;-5.6467;
-33.6000;0.7106;-5.6545;
-33.3000;0.7106;-5.6545;
-33.0000;0.7082;-5.6493;
-32.7000;0.7106;-5.6363;
-32.4000;0.7147;-5.6208;
-32.1000;0.7098;-5.6312;
-31.8000;0.7098;-5.6234;
-31.5000;0.7163;-5.6053;
-31.2000;0.7114;-5.6312;
-30.9000;0.7106;-5.6208;
-30.6000;0.7090;-5.6156;
-30.3000;0.7139;-5.6027;
-30.0000;0.7106;-5.6078;
-29.7000;0.7098;-5.6130;
-29.4000;0.7098;-5.6156;
-29.1000;0.7049;-5.6337;
-28.8000;0.7106;-5.6260;
-28.5000;0.7082;-5.6337;
-28.2000;0.7082;-5.6389;
-27.9000;0.7098;-5.6363;
-27.6000;0.7106;-5.6337;
-27.3000;0.7098;-5.6337;
-27.0000;0.7114;-5.6260;
-26.7000;0.7123;-5.6260;
-26.4000;0.7106;-5.6312;
-26.1000;0.7098;-5.6312;
-25.8000;0.7114;-5.6312;
-25.5000;0.7123;-5.6312;
-25.2000;0.7114;-5.6260;
-24.9000;0.7106;-5.6389;
-24.6000;0.7090;-5.6389;
-24.3000;0.7090;-5.6337;
-24.0000;0.7098;-5.6415;
-23.7000;0.7098;-5.6597;
-23.4000;0.7090;-5.6493;
-23.1000;0.7090;-5.6493;
-22.8000;0.7090;-5.6441;
-22.5000;0.7098;-5.6493;
-22.2000;0.7106;-5.6493;
-21.9000;0.7082;-5.6571;
-21.6000;0.7090;-5.6597;
-21.3000;0.7098;-5.6571;
-21.0000;0.7090;-5.6545;
-20.7000;0.7098;-5.6519;
-20.4000;0.7114;-5.6545;
-20.1000;0.7114;-5.6597;
-19.8000;0.7106;-5.6545;
-19.5000;0.7066;-5.6597;
-19.2000;0.7098;-5.6519;
-18.9000;0.7114;-5.6441;
-18.6000;0.7106;-5.6493;
-18.3000;0.7123;-5.6389;
-18.0000;0.7114;-5.6363;
-17.7000;0.7090;-5.6363;
-17.4000;0.7106;-5.6337;
-17.1000;0.7098;-5.6363;
-16.8000;0.7106;-5.6286;
-16.5000;0.7106;-5.6363;
-16.2000;0.7131;-5.6363;
-15.9000;0.7106;-5.6519;
-15.6000;0.7098;-5.6571;
-15.3000;0.7114;-5.6545;
-15.0000;0.7147;-5.6415;
-14.7000;0.7114;-5.6493;
-14.4000;0.7098;-5.6519;
-14.1000;0.7090;-5.6493;
-13.8000;0.7106;-5.6441;
-13.5000;0.7106;-5.6519;
-13.2000;0.7074;-5.6648;
-12.9000;0.7082;-5.6597;
-12.6000;0.7033;-5.6726;
-12.3000;0.7074;-5.6622;
-12.0000;0.7106;-5.6597;
-11.7000;0.7082;-5.6597;
-11.4000;0.7090;-5.6571;
-11.1000;0.7098;-5.6622;
-10.8000;0.7114;-5.6622;
-10.5000;0.7123;-5.6597;
-10.2000;0.7098;-5.6674;
-9.9000;0.7106;-5.6700;
-9.6000;0.7098;-5.6622;
-9.3000;0.7082;-5.6622;
-9.0000;0.7090;-5.6674;
-8.7000;0.7098;-5.6622;
-8.4000;0.7074;-5.6830;
-8.1000;0.7106;-5.6830;
-7.8000;0.7082;-5.6804;
-7.5000;0.7155;-5.6622;
-7.2000;0.7114;-5.6778;
-6.9000;0.7114;-5.6700;
-6.6000;0.7106;-5.6752;
-6.3000;0.7123;-5.6752;
-6.0000;0.7106;-5.6778;
-5.7000;0.7123;-5.6674;
-5.4000;0.7106;-5.6648;
-5.1000;0.7131;-5.6441;
-4.8000;0.7106;-5.6493;
-4.5000;0.7114;-5.6467;
-4.2000;0.7106;-5.6467;
-3.9000;0.7106;-5.6597;
-3.6000;0.7090;-5.6622;
-3.3000;0.7106;-5.6545;
-3.0000;0.7082;-5.6597;
-2.7000;0.7098;-5.6597;
-2.4000;0.7106;-5.6519;
-2.1000;0.7196;-5.6286;
-1.8000;0.7098;-5.6493;
-1.5000;0.7090;-5.6467;
-1.2000;0.7090;-5.6571;
-0.9000;0.7106;-5.6622;
-0.6000;0.7098;-5.6622;
-0.3000;0.7057;-5.6726;
0.0000;0.7057;-5.6726;
0.3000;0.7391;-5.6415;
0.6000;0.7855;-5.5535;
0.9000;0.8189;-5.4835;
1.2000;0.8441;-5.4213;
1.5000;0.8661;-5.3695;
1.8000;0.8832;-5.3203;
2.1000;0.9019;-5.2685;
2.4000;0.9092;-5.2556;
2.7000;0.9190;-5.2323;
3.0000;0.9255;-5.2245;
3.3000;0.9385;-5.1960;
3.6000;0.9410;-5.1960;
3.9000;0.9459;-5.1882;
4.2000;0.9499;-5.1830;
4.5000;0.9540;-5.1856;
4.8000;0.9605;-5.1701;
5.1000;0.9638;-5.1701;
5.4000;0.9662;-5.1675;
5.7000;0.9744;-5.1571;
6.0000;0.9719;-5.1597;
6.3000;0.9744;-5.1623;
6.6000;0.9768;-5.1675;
6.9000;0.9833;-5.1675;
7.2000;0.9841;-5.1649;
7.5000;0.9866;-5.1623;
7.8000;0.9882;-5.1597;
8.1000;0.9988;-5.1442;
8.4000;0.9923;-5.1623;
8.7000;0.9980;-5.1571;
9.0000;0.9988;-5.1520;
9.3000;1.0028;-5.1494;
9.6000;1.0045;-5.1494;
9.9000;1.0077;-5.1546;
10.2000;1.0102;-5.1597;
10.5000;1.0126;-5.1597;
10.8000;1.0134;-5.1597;
11.1000;1.0142;-5.1649;
11.4000;1.0118;-5.1701;
11.7000;1.0183;-5.1571;
12.0000;1.0191;-5.1597;
12.3000;1.0232;-5.1597;
12.6000;1.0232;-5.1675;
12.9000;1.0256;-5.1675;
13.2000;1.0289;-5.1623;
13.5000;1.0289;-5.1520;
13.8000;1.0305;-5.1571;
14.1000;1.0338;-5.1597;
14.4000;1.0346;-5.1597;
14.7000;1.0370;-5.1597;
15.0000;1.0362;-5.1649;
15.3000;1.0411;-5.1675;
15.6000;1.0427;-5.1675;
15.9000;1.0444;-5.1701;
16.2000;1.0427;-5.1882;
16.5000;1.0444;-5.1830;
16.8000;1.0460;-5.1856;
17.1000;1.0476;-5.1856;
17.4000;1.0484;-5.1779;
17.7000;1.0501;-5.1727;
18.0000;1.0525;-5.1701;
18.3000;1.0533;-5.1649;
18.6000;1.0549;-5.1701;
18.9000;1.0533;-5.1701;
19.2000;1.0574;-5.1623;
19.5000;1.0582;-5.1546;
19.8000;1.0598;-5.1520;
20.1000;1.0615;-5.1546;
20.4000;1.0606;-5.1597;
20.7000;1.0639;-5.1494;
21.0000;1.0663;-5.1571;
21.3000;1.0647;-5.1675;
21.6000;1.0647;-5.1753;
21.9000;1.0655;-5.1753;
22.2000;1.0696;-5.1623;
22.5000;1.0672;-5.1701;
22.8000;1.0663;-5.1727;
23.1000;1.0680;-5.1753;
23.4000;1.0720;-5.1675;
23.7000;1.0712;-5.1701;
24.0000;1.0696;-5.1753;
24.3000;1.0737;-5.1675;
24.6000;1.0704;-5.1779;
24.9000;1.0720;-5.1779;
25.2000;1.0745;-5.1727;
25.5000;1.0712;-5.1830;
25.8000;1.0745;-5.1753;
26.1000;1.0769;-5.1779;
26.4000;1.0761;-5.1779;
26.7000;1.0761;-5.1779;
27.0000;1.0769;-5.1779;
27.3000;1.0769;-5.1753;
27.6000;1.0818;-5.1701;
27.9000;1.0777;-5.1856;
28.2000;1.0777;-5.1986;
28.5000;1.0786;-5.1934;
28.8000;1.0777;-5.1986;
29.1000;1.0810;-5.1856;
29.4000;1.0810;-5.1805;
29.7000;1.0818;-5.1805;
30.0000;1.0842;-5.1805;
30.3000;1.0842;-5.1830;
30.6000;1.0859;-5.1805;
30.9000;1.0859;-5.1779;
31.2000;1.0867;-5.1727;
31.5000;1.0834;-5.1830;
31.8000;1.0842;-5.1779;
32.1000;1.0883;-5.1779;
32.4000;1.0875;-5.1830;
32.7000;1.0916;-5.1727;
33.0000;1.0867;-5.1830;
33.3000;1.0875;-5.1701;
33.6000;1.0883;-5.1701;
33.9000;1.0851;-5.1675;
34.2000;1.0875;-5.1701;
34.5000;1.0883;-5.1623;
34.8000;1.0883;-5.1727;
35.1000;1.0859;-5.1779;
35.4000;1.0891;-5.1675;
35.7000;1.0891;-5.1649;
36.0000;1.0899;-5.1753;
36.3000;1.0908;-5.1779;
36.6000;1.0916;-5.1805;
36.9000;1.0924;-5.1753;
37.2000;1.0908;-5.1830;
37.5000;1.0916;-5.1805;
37.8000;1.0916;-5.1934;
38.1000;1.0899;-5.2012;
38.4000;1.0899;-5.2090;
38.7000;1.0916;-5.2141;
39.0000;1.0932;-5.2141;
39.3000;1.0883;-5.2323;
39.6000;1.0916;-5.2323;
39.9000;1.0924;-5.2426;
40.2000;1.0940;-5.2349;
40.5000;1.0932;-5.2374;
40.8000;1.0965;-5.2219;
41.1000;1.0932;-5.2323;
41.4000;1.0948;-5.2297;
41.7000;1.0940;-5.2271;
42.0000;1.1013;-5.2167;
42.3000;1.0932;-5.2297;
42.6000;1.0956;-5.2271;
42.9000;1.0948;-5.2297;
43.2000;1.0965;-5.2323;
43.5000;1.0948;-5.2426;
43.8000;1.0981;-5.2349;
44.1000;1.0965;-5.2374;
44.4000;1.0981;-5.2374;
44.7000;1.0965;-5.2374;
45.0000;1.0948;-5.2349;
45.3000;1.0965;-5.2426;
45.6000;1.0965;-5.2374;
45.9000;1.0973;-5.2323;
46.2000;1.0981;-5.2271;
46.5000;1.0965;-5.2349;
46.8000;1.0989;-5.2219;
47.1000;1.0965;-5.2167;
47.4000;1.0981;-5.2245;
47.7000;1.0973;-5.2271;
48.0000;1.0973;-5.2219;
48.3000;1.0981;-5.2167;
48.6000;1.0973;-5.2193;
48.9000;1.0973;-5.2141;
49.2000;1.0973;-5.2115;
49.5000;1.0981;-5.2090;
49.8000;1.0981;-5.2141;
50.1000;1.0989;-5.2115;
50.4000;1.0973;-5.2115;
50.7000;1.0997;-5.2038;
51.0000;1.1013;-5.2090;
51.3000;1.1022;-5.1986;
51.6000;1.1022;-5.2090;
51.9000;1.1022;-5.2115;
52.2000;1.0997;-5.2193;
52.5000;1.1013;-5.2090;
52.8000;1.1038;-5.1934;
53.1000;1.1022;-5.1986;
53.4000;1.1079;-5.1856;
53.7000;1.1005;-5.2064;
54.0000;1.1022;-5.2115;
54.3000;1.1022;-5.2090;
54.6000;1.1005;-5.2064;
54.9000;1.1022;-5.2115;
55.2000;1.1038;-5.2038;
55.5000;1.1046;-5.2038;
55.8000;1.1013;-5.2141;
56.1000;1.1030;-5.2245;
56.4000;1.1005;-5.2245;
56.7000;1.1030;-5.2219;
57.0000;1.1038;-5.2193;
57.3000;1.1054;-5.2090;
57.6000;1.1030;-5.2193;
57.9000;1.1038;-5.2245;
58.2000;1.1038;-5.2245;
58.5000;1.1030;-5.2245;
58.8000;1.1054;-5.2193;
59.1000;1.1046;-5.2323;
59.4000;1.1030;-5.2271;
59.7000;1.1038;-5.2141;
60.0000;1.1022;-5.2141;
60.3000;1.1013;-5.2193;
60.6000;1.1054;-5.2193;
60.9000;1.1022;-5.2323;
61.2000;1.1038;-5.2271;
61.5000;1.0956;-5.2400;
61.8000;1.1054;-5.2323;
62.1000;1.1070;-5.2245;
62.4000;1.1046;-5.2271;
62.7000;1.1062;-5.2323;
63.0000;1.1079;-5.2245;
63.3000;1.1013;-5.2452;
63.6000;1.1054;-5.2297;
63.9000;1.1046;-5.2349;
64.2000;1.1054;-5.2426;
64.5000;1.1054;-5.2426;
64.8000;1.1070;-5.2323;
65.1000;1.1046;-5.2400;
65.4000;1.1054;-5.2349;
65.7000;1.1070;-5.2297;
66.0000;1.1046;-5.2349;
66.3000;1.1062;-5.2374;
66.6000;1.1070;-5.2374;
66.9000;1.1054;-5.2400;
67.2000;1.1119;-5.2193;
67.5000;1.1070;-5.2297;
67.8000;1.1046;-5.2400;
68.1000;1.1087;-5.2349;
68.4000;1.1070;-5.2349;
68.7000;1.1054;-5.2400;
69.0000;1.1062;-5.2400;
69.3000;1.1095;-5.2219;
69.6000;1.1087;-5.2349;
69.9000;1.1095;-5.2297;
70.2000;1.1062;-5.2297;
70.5000;1.1087;-5.2271;
70.8000;1.1087;-5.2400;
71.1000;1.1046;-5.2374;
71.4000;1.1046;-5.2349;
71.7000;1.1070;-5.2323;
72.0000;1.1095;-5.2400;
72.3000;1.1070;-5.2426;
72.6000;1.1087;-5.2374;
72.9000;1.1087;-5.2400;
73.2000;1.1095;-5.2349;
73.5000;1.1095;-5.2323;
73.8000;1.1087;-5.2219;
74.1000;1.1079;-5.2271;
74.4000;1.1079;-5.2219;
74.7000;1.1095;-5.2193;
75.0000;1.1103;-5.2193;
75.3000;1.1087;-5.2297;
75.6000;1.1095;-5.2400;
75.9000;1.1087;-5.2504;
76.2000;1.1087;-5.2478;
76.5000;1.1111;-5.2400;
76.8000;1.1070;-5.2452;
77.1000;1.1111;-5.2297;
77.4000;1.1087;-5.2374;
77.7000;1.1095;-5.2400;
78.0000;1.1087;-5.2374;
78.3000;1.1095;-5.2400;
78.6000;1.1087;-5.2478;
78.9000;1.1111;-5.2349;
79.2000;1.1087;-5.2323;
79.5000;1.1079;-5.2271;
79.8000;1.1119;-5.2141;
80.1000;1.1087;-5.2245;
80.4000;1.1087;-5.2245;
80.7000;1.1030;-5.2426;
81.0000;1.1079;-5.2349;
81.3000;1.1070;-5.2426;
81.6000;1.1103;-5.2349;
81.9000;1.1070;-5.2426;
82.2000;1.1095;-5.2374;
82.5000;1.1103;-5.2374;
82.8000;1.1103;-5.2349;
83.1000;1.1103;-5.2374;
83.4000;1.1103;-5.2374;
83.7000;1.1119;-5.2400;
84.0000;1.1087;-5.2400;
84.3000;1.1062;-5.2530;
84.6000;1.1087;-5.2400;
84.9000;1.1103;-5.2323;
85.2000;1.1079;-5.2297;
85.5000;1.1095;-5.2297;
85.8000;1.1095;-5.2297;
86.1000;1.1095;-5.2374;
86.4000;1.1079;-5.2374;
86.7000;1.1095;-5.2374;
87.0000;1.1079;-5.2452;
87.3000;1.1079;-5.2556;
87.6000;1.1111;-5.2478;
87.9000;1.1030;-5.2633;
88.2000;1.1087;-5.2478;
88.5000;1.1095;-5.2374;
88.8000;1.1144;-5.2271;
89.1000;1.1095;-5.2426;
89.4000;1.1087;-5.2452;
89.7000;1.1103;-5.2556;
90.0000;1.1103;-5.2556;
90.3000;1.1095;-5.2530;
90.6000;1.1095;-5.2530;
90.9000;1.1095;-5.2530;
91.2000;1.1111;-5.2452;
91.5000;1.1111;-5.2426;
91.8000;1.1111;-5.2426;
92.1000;1.1095;-5.2426;
92.4000;1.1103;-5.2426;
92.7000;1.1136;-5.2374;
93.0000;1.1111;-5.2504;
93.3000;1.1111;-5.2530;
93.6000;1.1127;-5.2582;
93.9000;1.1111;-5.2582;
94.2000;1.1103;-5.2633;
94.5000;1.1095;-5.2711;
94.8000;1.1087;-5.2763;
95.1000;1.1127;-5.2711;
95.4000;1.1111;-5.2737;
95.7000;1.1103;-5.2789;
96.0000;1.1070;-5.2841;
96.3000;1.1111;-5.2711;
96.6000;1.1127;-5.2633;
96.9000;1.1119;-5.2633;
97.2000;1.1119;-5.2659;
97.5000;1.1111;-5.2763;
97.8000;1.1119;-5.2737;
98.1000;1.1127;-5.2763;
98.4000;1.1136;-5.2633;
98.7000;1.1070;-5.2763;
99.0000;1.1119;-5.2659;
99.3000;1.1127;-5.2659;
99.6000;1.1095;-5.2815;
99.9000;1.1119;-5.2763;
100.2000;1.1119;-5.2685;
100.5000;1.1127;-5.2711;
100.8000;1.1046;-5.2892;
101.1000;1.1127;-5.2685;
101.4000;1.1127;-5.2711;
101.7000;1.1127;-5.2737;
102.0000;1.1127;-5.2737;
102.3000;1.1095;-5.2763;
102.6000;1.1136;-5.2633;
102.9000;1.1127;-5.2633;
103.2000;1.1127;-5.2659;
103.5000;1.1136;-5.2633;
103.8000;1.1119;-5.2582;
104.1000;1.1136;-5.2582;
104.4000;1.1127;-5.2608;
104.7000;1.1127;-5.2633;
105.0000;1.1136;-5.2582;
105.3000;1.1127;-5.2685;
105.6000;1.1136;-5.2582;
105.9000;1.1079;-5.2763;
106.2000;1.1127;-5.2659;
106.5000;1.1136;-5.2763;
106.8000;1.1144;-5.2789;
107.1000;1.1136;-5.2841;
107.4000;1.1136;-5.2892;
107.7000;1.1136;-5.2867;
108.0000;1.1127;-5.2918;
108.3000;1.1119;-5.2918;
108.6000;1.1136;-5.2841;
108.9000;1.1136;-5.2892;
109.2000;1.1127;-5.2944;
109.5000;1.1176;-5.2815;
109.8000;1.1111;-5.2970;
110.1000;1.1152;-5.3048;
110.4000;1.1136;-5.2944;
110.7000;1.1119;-5.2892;
111.0000;1.1119;-5.2892;
111.3000;1.1144;-5.2918;
111.6000;1.1127;-5.2918;
111.9000;1.1152;-5.2789;
112.2000;1.1136;-5.2789;
112.5000;1.1127;-5.2815;
112.8000;1.1144;-5.2789;
113.1000;1.1136;-5.2737;
113.4000;1.1136;-5.2737;
113.7000;1.1136;-5.2711;
114.0000;1.1176;-5.2608;
114.3000;1.1127;-5.2789;
114.6000;1.1127;-5.2841;
114.9000;1.1111;-5.2944;
115.2000;1.1095;-5.2970;
115.5000;1.1136;-5.2918;
115.8000;1.1103;-5.3022;
116.1000;1.1119;-5.2970;
116.4000;1.1119;-5.3100;
116.7000;1.1119;-5.3100;
117.0000;1.1119;-5.3177;
117.3000;1.1144;-5.3126;
117.6000;1.1152;-5.3022;
117.9000;1.1160;-5.3074;
118.2000;1.1144;-5.3048;
118.5000;1.1127;-5.3074;
118.8000;1.1144;-5.3074;
119.1000;1.1136;-5.3177;
119.4000;1.1184;-5.3022;
119.7000;1.1152;-5.3126;
120.0000;1.1136;-5.3151;
120.3000;1.1119;-5.3151;
120.6000;1.1119;-5.3203;
120.9000;1.1136;-5.3048;
121.2000;1.1127;-5.3100;
121.5000;1.1119;-5.3126;
121.8000;1.1144;-5.3022;
122.1000;1.1152;-5.2996;
122.4000;1.1127;-5.3074;
122.7000;1.1168;-5.2996;
123.0000;1.1136;-5.3048;
123.3000;1.1119;-5.3100;
123.6000;1.1136;-5.3074;
123.9000;1.1209;-5.2918;
124.2000;1.1136;-5.3022;
124.5000;1.1152;-5.2970;
124.8000;1.1152;-5.2996;
125.1000;1.1152;-5.3074;
125.4000;1.1193;-5.2944;
125.7000;1.1103;-5.3074;
126.0000;1.1136;-5.3048;
126.3000;1.1119;-5.3100;
126.6000;1.1127;-5.3074;
126.9000;1.1127;-5.3126;
127.2000;1.1136;-5.3074;
127.5000;1.1144;-5.3022;
127.8000;1.1144;-5.3022;
128.1000;1.1144;-5.3022;
128.4000;1.1136;-5.3048;
128.7000;1.1136;-5.3048;
129.0000;1.1152;-5.3022;
129.3000;1.1168;-5.2996;
129.6000;1.1144;-5.3100;
129.9000;1.1233;-5.2944;
130.2000;1.1168;-5.3074;
130.5000;1.1144;-5.3126;
130.8000;1.1152;-5.3100;
131.1000;1.1176;-5.2970;
131.4000;1.1136;-5.3074;
131.7000;1.1136;-5.2996;
132.0000;1.1144;-5.3048;
132.3000;1.1160;-5.3126;
132.6000;1.1176;-5.3074;
132.9000;1.1152;-5.3151;
133.2000;1.1152;-5.3151;
133.5000;1.1168;-5.3177;
133.8000;1.1160;-5.3126;
134.1000;1.1144;-5.3126;
134.4000;1.1136;-5.3126;
134.7000;1.1168;-5.3074;
135.0000;1.1160;-5.3126;
135.3000;1.1152;-5.3074;
135.6000;1.1111;-5.3177;
135.9000;1.1168;-5.3126;
136.2000;1.1160;-5.3203;
136.5000;1.1168;-5.3281;
136.8000;1.1160;-5.3307;
137.1000;1.1160;-5.3177;
137.4000;1.1184;-5.3177;
137.7000;1.1119;-5.3281;
138.0000;1.1168;-5.3177;
138.3000;1.1160;-5.3255;
138.6000;1.1144;-5.3281;
138.9000;1.1144;-5.3255;
139.2000;1.1103;-5.3307;
139.5000;1.1176;-5.3048;
139.8000;1.1152;-5.3126;
140.1000;1.1144;-5.3100;
140.4000;1.1127;-5.3177;
140.7000;1.1144;-5.3074;
141.0000;1.1160;-5.3048;
141.3000;1.1136;-5.3100;
141.6000;1.1136;-5.3151;
141.9000;1.1152;-5.3151;
142.2000;1.1152;-5.3126;
142.5000;1.1241;-5.2918;
142.8000;1.1152;-5.3126;
143.1000;1.1160;-5.3074;
143.4000;1.1119;-5.3203;
143.7000;1.1193;-5.3074;
144.0000;1.1160;-5.3177;
144.3000;1.1168;-5.3177;
144.6000;1.1168;-5.3203;
144.9000;1.1209;-5.3022;
145.2000;1.1168;-5.2996;
145.5000;1.1152;-5.2996;
145.8000;1.1144;-5.2996;
146.1000;1.1168;-5.2970;
146.4000;1.1160;-5.2996;
146.7000;1.1111;-5.3151;
147.0000;1.1152;-5.3048;
147.3000;1.1152;-5.3022;
147.6000;1.1119;-5.3074;
147.9000;1.1136;-5.3022;
148.2000;1.1152;-5.2970;
148.5000;1.1168;-5.2996;
148.8000;1.1160;-5.2970;
149.1000;1.1184;-5.2970;
149.4000;1.1152;-5.2970;
149.7000;1.1160;-5.2841;
150.0000;1.1176;-5.2892;
150.3000;1.1160;-5.2918;
150.6000;1.1160;-5.2918;
150.9000;1.1168;-5.2918;
151.2000;1.1168;-5.2970;
151.5000;1.1152;-5.2944;
151.8000;1.1152;-5.2892;
152.1000;1.1160;-5.2970;
152.4000;1.1152;-5.3022;
152.7000;1.1144;-5.2996;
153.0000;1.1176;-5.2944;
153.3000;1.1160;-5.2970;
153.6000;1.1160;-5.2892;
153.9000;1.1168;-5.2970;
154.2000;1.1152;-5.3151;
154.5000;1.1193;-5.3177;
154.8000;1.1152;-5.3281;
155.1000;1.1176;-5.3177;
155.4000;1.1160;-5.3203;
155.7000;1.1136;-5.3229;
156.0000;1.1168;-5.3229;
156.3000;1.1144;-5.3359;
156.6000;1.1160;-5.3462;
156.9000;1.1152;-5.3488;
157.2000;1.1152;-5.3436;
157.5000;1.1225;-5.3229;
157.8000;1.1136;-5.3333;
158.1000;1.1144;-5.3281;
158.4000;1.1127;-5.3255;
158.7000;1.1160;-5.3177;
159.0000;1.1168;-5.3203;
159.3000;1.1144;-5.3255;
159.6000;1.1144;-5.3281;
159.9000;1.1144;-5.3359;
160.2000;1.1168;-5.3359;
160.5000;1.1160;-5.3333;
160.8000;1.1152;-5.3359;
161.1000;1.1160;-5.3307;
161.4000;1.1176;-5.3203;
161.7000;1.1168;-5.3151;
162.0000;1.1168;-5.3074;
162.3000;1.1152;-5.3126;
162.6000;1.1168;-5.3100;
162.9000;1.1168;-5.3126;
163.2000;1.1160;-5.3126;
163.5000;1.1152;-5.3100;
163.8000;1.1160;-5.2996;
164.1000;1.1168;-5.3074;
164.4000;1.1168;-5.3022;
164.7000;1.1176;-5.3022;
165.0000;1.1168;-5.2944;
165.3000;1.1176;-5.2996;
165.6000;1.1160;-5.3048;
165.9000;1.1176;-5.3126;
166.2000;1.1152;-5.3177;
166.5000;1.1184;-5.3048;
166.8000;1.1160;-5.3022;
167.1000;1.1160;-5.3074;
167.4000;1.1144;-5.3151;
167.7000;1.1136;-5.3177;
168.0000;1.1152;-5.3126;
168.3000;1.1144;-5.3151;
168.6000;1.1152;-5.3100;
168.9000;1.1144;-5.3151;
169.2000;1.1160;-5.3100;
169.5000;1.1144;-5.3151;
169.8000;1.1160;-5.3177;
170.1000;1.1168;-5.3126;
170.4000;1.1160;-5.3151;
170.7000;1.1193;-5.3022;
171.0000;1.1184;-5.3126;
171.3000;1.1168;-5.3203;
171.6000;1.1160;-5.3177;
171.9000;1.1144;-5.3255;
172.2000;1.1168;-5.3126;
172.5000;1.1144;-5.3126;
172.8000;1.1152;-5.3100;
173.1000;1.1160;-5.3048;
173.4000;1.1193;-5.2996;
173.7000;1.1136;-5.3126;
174.0000;1.1176;-5.3074;
174.3000;1.1160;-5.3151;
174.6000;1.1184;-5.3074;
174.9000;1.1152;-5.3151;
175.2000;1.1201;-5.3126;
175.5000;1.1144;-5.3333;
175.8000;1.1136;-5.3333;
176.1000;1.1184;-5.3281;
176.4000;1.1168;-5.3307;
176.7000;1.1184;-5.3229;
177.0000;1.1184;-5.3229;
177.3000;1.1201;-5.3229;
177.6000;1.1152;-5.3385;
177.9000;1.1209;-5.3307;
178.2000;1.1168;-5.3385;
178.5000;1.1201;-5.3281;
178.8000;1.1176;-5.3411;
179.1000;1.1160;-5.3462;
179.4000;1.1152;-5.3514;
179.7000;1.1176;-5.3436;
180.0000;1.1168;-5.3436;
180.3000;1.1176;-5.3333;
180.6000;1.1152;-5.3359;
180.9000;1.1160;-5.3359;
181.2000;1.1168;-5.3255;
181.5000;1.1136;-5.3359;
181.8000;1.1160;-5.3177;
182.1000;1.1168;-5.3255;
182.4000;1.1176;-5.3255;
182.7000;1.1168;-5.3074;
183.0000;1.1193;-5.2970;
183.3000;1.1160;-5.3022;
183.6000;1.1168;-5.3074;
183.9000;1.1160;-5.3151;
184.2000;1.1152;-5.3281;
184.5000;1.1160;-5.3100;
184.8000;1.1160;-5.3100;
185.1000;1.1160;-5.3100;
185.4000;1.1160;-5.3074;
185.7000;1.1160;-5.3074;
186.0000;1.1168;-5.3074;
186.3000;1.1168;-5.3151;
186.6000;1.1176;-5.3074;
186.9000;1.1176;-5.3048;
187.2000;1.1160;-5.3048;
187.5000;1.1176;-5.2970;
187.8000;1.1176;-5.2996;
188.1000;1.1168;-5.2996;
188.4000;1.1152;-5.2996;
188.7000;1.1160;-5.3022;
189.0000;1.1160;-5.3022;
189.3000;1.1136;-5.3074;
189.6000;1.1152;-5.2970;
189.9000;1.1160;-5.2892;
190.2000;1.1127;-5.2944;
190.5000;1.1160;-5.2867;
190.8000;1.1193;-5.2763;
191.1000;1.1193;-5.2763;
191.4000;1.1168;-5.2737;
191.7000;1.1241;-5.2556;
192.0000;1.1176;-5.2841;
192.3000;1.1160;-5.2867;
192.6000;1.1168;-5.2892;
192.9000;1.1168;-5.2815;
193.2000;1.1152;-5.2892;
193.5000;1.1176;-5.2944;
193.8000;1.1144;-5.3022;
194.1000;1.1152;-5.2996;
194.4000;1.1144;-5.3100;
194.7000;1.1160;-5.3074;
195.0000;1.1168;-5.3074;
195.3000;1.1176;-5.3048;
195.6000;1.1176;-5.3100;
195.9000;1.1168;-5.3074;
196.2000;1.1193;-5.3048;
196.5000;1.1152;-5.3074;
196.8000;1.1225;-5.2892;
197.1000;1.1160;-5.3074;
197.4000;1.1160;-5.3126;
197.7000;1.1160;-5.3074;
198.0000;1.1152;-5.3048;
198.3000;1.1160;-5.3048;
198.6000;1.1168;-5.3048;
198.9000;1.1168;-5.3048;
199.2000;1.1152;-5.3151;
199.5000;1.1160;-5.3177;
199.8000;1.1152;-5.3255;
200.1000;1.1160;-5.3229;
200.4000;1.1168;-5.3281;
200.7000;1.1160;-5.3281;
201.0000;1.1176;-5.3281;
201.3000;1.1193;-5.3229;
201.6000;1.1168;-5.3229;
201.9000;1.1168;-5.3359;
202.2000;1.1176;-5.3359;
202.5000;1.1184;-5.3281;
202.8000;1.1184;-5.3255;
203.1000;1.1176;-5.3203;
203.4000;1.1176;-5.3203;
203.7000;1.1136;-5.3151;
204.0000;1.1193;-5.3048;
204.3000;1.1160;-5.3126;
204.6000;1.1168;-5.3177;
204.9000;1.1209;-5.3074;
205.2000;1.1160;-5.3229;
205.5000;1.1168;-5.3229;
205.8000;1.1168;-5.3255;
206.1000;1.1168;-5.3203;
206.4000;1.1184;-5.3203;
206.7000;1.1160;-5.3229;
207.0000;1.1152;-5.3281;
207.3000;1.1176;-5.3203;
207.6000;1.1176;-5.3177;
207.9000;1.1201;-5.3126;
208.2000;1.1168;-5.3177;
208.5000;1.1160;-5.3100;
208.8000;1.1168;-5.3151;
209.1000;1.1184;-5.3100;
209.4000;1.1168;-5.3151;
209.7000;1.1152;-5.3203;
210.0000;1.1152;-5.3126;
210.3000;1.1160;-5.3022;
210.6000;1.1160;-5.3100;
210.9000;1.1136;-5.3177;
211.2000;1.1160;-5.3177;
211.5000;1.1160;-5.3151;
211.8000;1.1160;-5.3203;
212.1000;1.1160;-5.3203;
212.4000;1.1209;-5.3126;
212.7000;1.1168;-5.3255;
213.0000;1.1176;-5.3229;
213.3000;1.1176;-5.3151;
213.6000;1.1144;-5.3177;
213.9000;1.1176;-5.3126;
214.2000;1.1144;-5.3151;
214.5000;1.1152;-5.3151;
214.8000;1.1168;-5.3100;
215.1000;1.1168;-5.3022;
215.4000;1.1160;-5.3022;
215.7000;1.1160;-5.3048;
216.0000;1.1152;-5.3074;
216.3000;1.1184;-5.3100;
216.6000;1.1152;-5.3100;
216.9000;1.1168;-5.3022;
217.2000;1.1217;-5.2996;
217.5000;1.1168;-5.3100;
217.8000;1.1168;-5.3048;
218.1000;1.1168;-5.2996;
218.4000;1.1176;-5.3022;
218.7000;1.1176;-5.3074;
219.0000;1.1136;-5.3255;
219.3000;1.1103;-5.3333;
219.6000;1.1176;-5.3151;
219.9000;1.1152;-5.3281;
220.2000;1.1184;-5.3203;
220.5000;1.1193;-5.3229;
220.8000;1.1193;-5.3126;
221.1000;1.1176;-5.3151;
221.4000;1.1168;-5.3074;
221.7000;1.1152;-5.3048;
222.0000;1.1176;-5.2996;
222.3000;1.1176;-5.2918;
222.6000;1.1176;-5.2918;
222.9000;1.1184;-5.2996;
223.2000;1.1168;-5.3048;
223.5000;1.1160;-5.3126;
223.8000;1.1160;-5.3151;
224.1000;1.1168;-5.3177;
224.4000;1.1168;-5.3100;
224.7000;1.1176;-5.3100;
225.0000;1.1152;-5.3177;
225.3000;1.1136;-5.3203;
225.6000;1.1184;-5.3126;
225.9000;1.1176;-5.3126;
226.2000;1.1160;-5.3151;
226.5000;1.1184;-5.2970;
226.8000;1.1160;-5.2970;
227.1000;1.1184;-5.2892;
227.4000;1.1152;-5.3022;
227.7000;1.1160;-5.2996;
228.0000;1.1160;-5.3100;
228.3000;1.1168;-5.3100;
228.6000;1.1258;-5.2867;
228.9000;1.1144;-5.3151;
229.2000;1.1176;-5.3100;
229.5000;1.1168;-5.3126;
229.8000;1.1168;-5.3151;
230.1000;1.1168;-5.3229;
230.4000;1.1176;-5.3177;
230.7000;1.1160;-5.3126;
231.0000;1.1168;-5.3100;
231.3000;1.1160;-5.3100;
231.6000;1.1160;-5.3126;
231.9000;1.1168;-5.2970;
232.2000;1.1168;-5.2970;
232.5000;1.1160;-5.2996;
232.8000;1.1168;-5.3022;
233.1000;1.1168;-5.3048;
233.4000;1.1160;-5.3022;
233.7000;1.1176;-5.3048;
234.0000;1.1152;-5.3100;
234.3000;1.1176;-5.3126;
234.6000;1.1152;-5.3151;
234.9000;1.1176;-5.3100;
235.2000;1.1193;-5.3048;
235.5000;1.1201;-5.3022;
235.8000;1.1193;-5.3126;
236.1000;1.1168;-5.3074;
236.4000;1.1168;-5.3100;
236.7000;1.1176;-5.3022;
237.0000;1.1176;-5.3022;
237.3000;1.1193;-5.3022;
237.6000;1.1160;-5.3126;
237.9000;1.1168;-5.3177;
238.2000;1.1152;-5.3177;
238.5000;1.1176;-5.3100;
238.8000;1.1176;-5.3203;
239.1000;1.1168;-5.3203;
239.4000;1.1184;-5.3126;
239.7000;1.1168;-5.3177;
240.0000;1.1168;-5.3203;
240.3000;1.1176;-5.3203;
240.6000;1.1152;-5.3281;
240.9000;1.1201;-5.3203;
241.2000;1.1193;-5.3229;
241.5000;1.1168;-5.3255;
241.8000;1.1168;-5.3229;
242.1000;1.1184;-5.3177;
242.4000;1.1127;-5.3255;
242.7000;1.1168;-5.3048;
243.0000;1.1119;-5.3151;
243.3000;1.1193;-5.2996;
243.6000;1.1176;-5.3048;
243.9000;1.1160;-5.3048;
244.2000;1.1168;-5.2996;
244.5000;1.1168;-5.3048;
244.8000;1.1176;-5.2996;
245.1000;1.1152;-5.2996;
245.4000;1.1160;-5.2970;
245.7000;1.1168;-5.2944;
246.0000;1.1127;-5.3100;
246.3000;1.1160;-5.3074;
246.6000;1.1152;-5.3126;
246.9000;1.1160;-5.3100;
247.2000;1.1160;-5.3100;
247.5000;1.1184;-5.3022;
247.8000;1.1144;-5.3022;
248.1000;1.1152;-5.3074;
248.4000;1.1176;-5.3022;
248.7000;1.1176;-5.2996;
249.0000;1.1160;-5.3100;
249.3000;1.1160;-5.3074;
249.6000;1.1168;-5.3074;
249.9000;1.1160;-5.3126;
250.2000;1.1160;-5.3229;
250.5000;1.1160;-5.3151;
250.8000;1.1152;-5.3203;
251.1000;1.1152;-5.3255;
251.4000;1.1168;-5.3177;
251.7000;1.1136;-5.3229;
252.0000;1.1152;-5.3229;
252.3000;1.1168;-5.3177;
252.6000;1.1160;-5.3203;
252.9000;1.1144;-5.3229;
253.2000;1.1152;-5.3203;
253.5000;1.1176;-5.3203;
253.8000;1.1168;-5.3151;
254.1000;1.1184;-5.3151;
254.4000;1.1119;-5.3307;
254.7000;1.1168;-5.3229;
255.0000;1.1184;-5.3229;
255.3000;1.1184;-5.3151;
255.6000;1.1176;-5.3177;
255.9000;1.1168;-5.3177;
256.2000;1.1168;-5.3177;
256.5000;1.1152;-5.3229;
256.8000;1.1160;-5.3203;
257.1000;1.1176;-5.3333;
257.4000;1.1152;-5.3333;
257.7000;1.1184;-5.3281;
258.0000;1.1168;-5.3255;
258.3000;1.1079;-5.3462;
258.6000;1.1152;-5.3333;
258.9000;1.1176;-5.3281;
259.2000;1.1160;-5.3281;
259.5000;1.1306;-5.3022;
259.8000;1.1176;-5.3385;
260.1000;1.1176;-5.3177;
260.4000;1.1201;-5.3048;
260.7000;1.1184;-5.3151;
261.0000;1.1152;-5.3281;
261.3000;1.1160;-5.3281;
261.6000;1.1176;-5.3229;
261.9000;1.1168;-5.3281;
262.2000;1.1217;-5.3151;
262.5000;1.1176;-5.3333;
262.8000;1.1168;-5.3307;
263.1000;1.1184;-5.3333;
263.4000;1.1168;-5.3359;
263.7000;1.1168;-5.3436;
264.0000;1.1168;-5.3411;
264.3000;1.1168;-5.3436;
264.6000;1.1144;-5.3436;
264.9000;1.1168;-5.3385;
265.2000;1.1144;-5.3385;
265.5000;1.1184;-5.3307;
265.8000;1.1160;-5.3333;
266.1000;1.1152;-5.3307;
266.4000;1.1176;-5.3281;
266.7000;1.1201;-5.3177;
267.0000;1.1152;-5.3255;
267.3000;1.1160;-5.3229;
267.6000;1.1152;-5.3307;
267.9000;1.1160;-5.3177;
268.2000;1.1079;-5.3333;
268.5000;1.1152;-5.3177;
268.8000;1.1160;-5.3203;
269.1000;1.1184;-5.3177;
269.4000;1.1152;-5.3436;
269.7000;1.1176;-5.3385;
270.0000;1.1152;-5.3436;
270.3000;1.1160;-5.3514;
270.6000;1.1160;-5.3514;
270.9000;1.1144;-5.3462;
271.2000;1.1160;-5.3359;
271.5000;1.1193;-5.3307;
271.8000;1.1201;-5.3255;
272.1000;1.1168;-5.3307;
272.4000;1.1184;-5.3255;
272.7000;1.1160;-5.3255;
273.0000;1.1152;-5.3203;
273.3000;1.1168;-5.3126;
273.6000;1.1152;-5.3177;
273.9000;1.1176;-5.3126;
274.2000;1.1184;-5.3074;
274.5000;1.1176;-5.3074;
274.8000;1.1176;-5.3151;
275.1000;1.1176;-5.3281;
275.4000;1.1160;-5.3333;
275.7000;1.1184;-5.3307;
276.0000;1.1209;-5.3307;
276.3000;1.1152;-5.3514;
276.6000;1.1160;-5.3488;
276.9000;1.1176;-5.3411;
277.2000;1.1144;-5.3540;
277.5000;1.1176;-5.3436;
277.8000;1.1184;-5.3333;
278.1000;1.1209;-5.3333;
278.4000;1.1160;-5.3411;
278.7000;1.1168;-5.3488;
279.0000;1.1160;-5.3540;
279.3000;1.1168;-5.3462;
279.6000;1.1184;-5.3385;
279.9000;1.1184;-5.3333;
280.2000;1.1160;-5.3307;
280.5000;1.1160;-5.3255;
280.8000;1.1168;-5.3333;
281.1000;1.1136;-5.3462;
281.4000;1.1160;-5.3514;
281.7000;1.1160;-5.3540;
282.0000;1.1160;-5.3488;
282.3000;1.1201;-5.3488;
282.6000;1.1152;-5.3488;
282.9000;1.1168;-5.3514;
283.2000;1.1160;-5.3514;
283.5000;1.1119;-5.3592;
283.8000;1.1160;-5.3514;
284.1000;1.1184;-5.3385;
284.4000;1.1176;-5.3411;
284.7000;1.1209;-5.3359;
285.0000;1.1160;-5.3514;
285.3000;1.1119;-5.3592;
285.6000;1.1160;-5.3462;
285.9000;1.1176;-5.3359;
286.2000;1.1160;-5.3436;
286.5000;1.1152;-5.3411;
286.8000;1.1168;-5.3333;
287.1000;1.1184;-5.3203;
287.4000;1.1160;-5.3229;
287.7000;1.1136;-5.3255;
288.0000;1.1176;-5.3126;
288.3000;1.1184;-5.3151;
288.6000;1.1176;-5.3255;
288.9000;1.1160;-5.3333;
289.2000;1.1217;-5.3177;
289.5000;1.1160;-5.3281;
289.8000;1.1144;-5.3333;
290.1000;1.1168;-5.3151;
290.4000;1.1193;-5.3022;
290.7000;1.1193;-5.3126;
291.0000;1.1168;-5.3203;
291.3000;1.1184;-5.3177;
291.6000;1.1152;-5.3151;
291.9000;1.1168;-5.3151;
292.2000;1.1152;-5.3177;
292.5000;1.1176;-5.3203;
292.8000;1.1152;-5.3255;
293.1000;1.1119;-5.3385;
293.4000;1.1176;-5.3307;
293.7000;1.1160;-5.3333;
294.0000;1.1168;-5.3255;
294.3000;1.1160;-5.3229;
294.6000;1.1176;-5.3203;
294.9000;1.1168;-5.3203;
295.2000;1.1176;-5.3203;
295.5000;1.1168;-5.3177;
295.8000;1.1184;-5.3151;
296.1000;1.1184;-5.3177;
296.4000;1.1168;-5.3307;
296.7000;1.1160;-5.3333;
297.0000;1.1136;-5.3462;
297.3000;1.1160;-5.3385;
297.6000;1.1152;-5.3436;
297.9000;1.1168;-5.3436;
298.2000;1.1160;-5.3436;
298.5000;1.1160;-5.3333;
298.8000;1.1160;-5.3177;
299.1000;1.1152;-5.3255;
299.4000;1.1160;-5.3203;
299.7000;1.1233;-5.2996;
300.0000;1.1168;-5.3126;
300.3000;1.1160;-5.3151;
300.6000;1.1160;-5.3203;
300.9000;1.1184;-5.3151;
301.2000;1.1209;-5.3100;
301.5000;1.1160;-5.3229;
301.8000;1.1184;-5.3255;
302.1000;1.1176;-5.3255;
302.4000;1.1168;-5.3203;
302.7000;1.1160;-5.3255;
303.0000;1.1160;-5.3255;
303.3000;1.1160;-5.3333;
303.6000;1.1152;-5.3255;
303.9000;1.1152;-5.3229;
304.2000;1.1136;-5.3281;
304.5000;1.1160;-5.3151;
304.8000;1.1160;-5.3151;
305.1000;1.1160;-5.3203;
305.4000;1.1119;-5.3333;
305.7000;1.1144;-5.3255;
306.0000;1.1144;-5.3333;
306.3000;1.1160;-5.3333;
306.6000;1.1160;-5.3385;
306.9000;1.1144;-5.3359;
307.2000;1.1144;-5.3359;
307.5000;1.1152;-5.3411;
307.8000;1.1152;-5.3385;
308.1000;1.1127;-5.3333;
308.4000;1.1168;-5.3255;
308.7000;1.1160;-5.3203;
309.0000;1.1087;-5.3333;
309.3000;1.1152;-5.3229;
309.6000;1.1193;-5.3074;
309.9000;1.1152;-5.3126;
310.2000;1.1168;-5.3177;
310.5000;1.1160;-5.3203;
310.8000;1.1233;-5.3048;
311.1000;1.1152;-5.3307;
311.4000;1.1201;-5.3255;
311.7000;1.1217;-5.3229;
312.0000;1.1152;-5.3436;
312.3000;1.1087;-5.3566;
312.6000;1.1176;-5.3307;
312.9000;1.1160;-5.3307;
313.2000;1.1144;-5.3359;
313.5000;1.1176;-5.3385;
313.8000;1.1144;-5.3333;
314.1000;1.1160;-5.3333;
314.4000;1.1160;-5.3359;
314.7000;1.1160;-5.3333;
315.0000;1.1160;-5.3255;
315.3000;1.1152;-5.3229;
315.6000;1.1168;-5.3333;
315.9000;1.1168;-5.3411;
316.2000;1.1168;-5.3333;
316.5000;1.1168;-5.3281;
316.8000;1.1168;-5.3333;
317.1000;1.1152;-5.3411;
317.4000;1.1168;-5.3307;
317.7000;1.1184;-5.3333;
318.0000;1.1152;-5.3436;
318.3000;1.1152;-5.3436;
318.6000;1.1152;-5.3411;
318.9000;1.1193;-5.3281;
319.2000;1.1160;-5.3333;
319.5000;1.1160;-5.3359;
319.8000;1.1176;-5.3436;
320.1000;1.1168;-5.3411;
320.4000;1.1168;-5.3411;
320.7000;1.1217;-5.3255;
321.0000;1.1152;-5.3462;
321.3000;1.1176;-5.3436;
321.6000;1.1144;-5.3488;
321.9000;1.1168;-5.3488;
322.2000;1.1160;-5.3514;
322.5000;1.1168;-5.3514;
322.8000;1.1168;-5.3566;
323.1000;1.1160;-5.3644;
323.4000;1.1160;-5.3566;
323.7000;1.1160;-5.3411;
324.0000;1.1176;-5.3333;
324.3000;1.1152;-5.3359;
324.6000;1.1144;-5.3333;
324.9000;1.1160;-5.3333;
325.2000;1.1160;-5.3359;
325.5000;1.1168;-5.3255;
325.8000;1.1168;-5.3255;
326.1000;1.1152;-5.3255;
326.4000;1.1152;-5.3255;
326.7000;1.1168;-5.3229;
327.0000;1.1160;-5.3229;
327.3000;1.1176;-5.3229;
327.6000;1.1152;-5.3229;
327.9000;1.1152;-5.3255;
328.2000;1.1152;-5.3229;
328.5000;1.1201;-5.3151;
328.8000;1.1152;-5.3229;
329.1000;1.1168;-5.3255;
329.4000;1.1184;-5.3307;
329.7000;1.1176;-5.3307;
330.0000;1.1176;-5.3359;
330.3000;1.1144;-5.3436;
330.6000;1.1233;-5.3203;
330.9000;1.1176;-5.3307;
331.2000;1.1176;-5.3385;
331.5000;1.1136;-5.3385;
331.8000;1.1209;-5.3151;
332.1000;1.1119;-5.3359;
332.4000;1.1209;-5.3255;
332.7000;1.1119;-5.3462;
333.0000;1.1217;-5.3255;
333.3000;1.1152;-5.3411;
333.6000;1.1160;-5.3333;
333.9000;1.1144;-5.3385;
334.2000;1.1160;-5.3307;
334.5000;1.1168;-5.3203;
334.8000;1.1168;-5.3203;
335.1000;1.1168;-5.3307;
335.4000;1.1160;-5.3307;
335.7000;1.1184;-5.3333;
336.0000;1.1119;-5.3462;
336.3000;1.1119;-5.3436;
336.6000;1.1193;-5.3307;
336.9000;1.1168;-5.3281;
337.2000;1.1176;-5.3307;
337.5000;1.1168;-5.3333;
337.8000;1.1168;-5.3359;
338.1000;1.1184;-5.3359;
338.4000;1.1168;-5.3307;
338.7000;1.1152;-5.3255;
339.0000;1.1152;-5.3281;
339.3000;1.1168;-5.3151;
339.6000;1.1176;-5.3126;
339.9000;1.1168;-5.3126;
340.2000;1.1152;-5.3229;
340.5000;1.1184;-5.3074;
340.8000;1.1168;-5.3151;
341.1000;1.1168;-5.3203;
341.4000;1.1176;-5.3203;
341.7000;1.1168;-5.3307;
342.0000;1.1184;-5.3333;
342.3000;1.1168;-5.3385;
342.6000;1.1193;-5.3385;
342.9000;1.1160;-5.3514;
343.2000;1.1152;-5.3540;
343.5000;1.1127;-5.3566;
343.8000;1.1152;-5.3540;
344.1000;1.1160;-5.3436;
344.4000;1.1144;-5.3488;
344.7000;1.1217;-5.3385;
345.0000;1.1152;-5.3488;
345.3000;1.1152;-5.3566;
345.6000;1.1119;-5.3670;
345.9000;1.1168;-5.3540;
346.2000;1.1111;-5.3514;
346.5000;1.1176;-5.3411;
346.8000;1.1168;-5.3436;
347.1000;1.1209;-5.3333;
347.4000;1.1168;-5.3462;
347.7000;1.1168;-5.3411;
348.0000;1.1160;-5.3359;
348.3000;1.1168;-5.3359;
348.6000;1.1160;-5.3385;
348.9000;1.1152;-5.3411;
349.2000;1.1160;-5.3411;
349.5000;1.1176;-5.3436;
349.8000;1.1168;-5.3436;
350.1000;1.1193;-5.3411;
350.4000;1.1160;-5.3333;
350.7000;1.1152;-5.3333;
351.0000;1.1160;-5.3333;
351.3000;1.1201;-5.3333;
351.6000;1.1168;-5.3359;
351.9000;1.1103;-5.3540;
352.2000;1.1168;-5.3411;
352.5000;1.1241;-5.3100;
352.8000;1.1144;-5.3307;
353.1000;1.1160;-5.3385;
353.4000;1.1136;-5.3436;
353.7000;1.1168;-5.3333;
354.0000;1.1160;-5.3411;
354.3000;1.1127;-5.3488;
354.6000;1.1160;-5.3436;
354.9000;1.1160;-5.3385;
355.2000;1.1160;-5.3359;
355.5000;1.1168;-5.3281;
355.8000;1.1168;-5.3359;
356.1000;1.1184;-5.3229;
356.4000;1.1168;-5.3255;
356.7000;1.1152;-5.3281;
357.0000;1.1160;-5.3385;
357.3000;1.1193;-5.3333;
357.6000;1.1160;-5.3436;
357.9000;1.1160;-5.3385;
358.2000;1.1152;-5.3411;
358.5000;1.1160;-5.3333;
358.8000;1.1160;-5.3307;
359.1000;1.1136;-5.3229;
359.4000;1.1152;-5.3151;
359.7000;1.1152;-5.3203;
360.0000;1.1160;-5.3151;
360.3000;1.1160;-5.3203;
360.6000;1.1160;-5.3229;
360.9000;1.1217;-5.3074;
361.2000;1.1160;-5.3255;
361.5000;1.1152;-5.3333;
361.8000;1.1168;-5.3281;
362.1000;1.1160;-5.3359;
362.4000;1.1152;-5.3307;
362.7000;1.1160;-5.3177;
363.0000;1.1168;-5.3255;
363.3000;1.1184;-5.3281;
363.6000;1.1168;-5.3255;
363.9000;1.1176;-5.3177;
364.2000;1.1176;-5.3177;
364.5000;1.1144;-5.3203;
364.8000;1.1168;-5.3126;
365.1000;1.1152;-5.3151;
365.4000;1.1152;-5.3074;
365.7000;1.1160;-5.3022;
366.0000;1.1160;-5.3048;
366.3000;1.1168;-5.3074;
366.6000;1.1193;-5.3048;
366.9000;1.1160;-5.3074;
367.2000;1.1168;-5.3074;
367.5000;1.1168;-5.3126;
367.8000;1.1176;-5.3203;
368.1000;1.1160;-5.3203;
368.4000;1.1176;-5.3151;
368.7000;1.1152;-5.3151;
369.0000;1.1160;-5.3177;
369.3000;1.1152;-5.3255;
369.6000;1.1152;-5.3281;
369.9000;1.1176;-5.3229;
370.2000;1.1160;-5.3177;
370.5000;1.1168;-5.3074;
370.8000;1.1160;-5.3100;
371.1000;1.1193;-5.3022;
371.4000;1.1160;-5.3126;
371.7000;1.1152;-5.3229;
372.0000;1.1152;-5.3177;
372.3000;1.1160;-5.3229;
372.6000;1.1168;-5.3203;
372.9000;1.1152;-5.3203;
373.2000;1.1160;-5.3177;
373.5000;1.1160;-5.3151;
373.8000;1.1168;-5.3151;
374.1000;1.1111;-5.3359;
374.4000;1.1144;-5.3177;
374.7000;1.1144;-5.3100;
375.0000;1.1152;-5.3100;
375.3000;1.1168;-5.3100;
375.6000;1.1152;-5.3151;
375.9000;1.1152;-5.3126;
376.2000;1.1160;-5.3151;
376.5000;1.1168;-5.3177;
376.8000;1.1160;-5.3177;
377.1000;1.1160;-5.3151;
377.4000;1.1160;-5.3203;
377.7000;1.1119;-5.3307;
378.0000;1.1168;-5.3307;
378.3000;1.1111;-5.3462;
378.6000;1.1136;-5.3462;
378.9000;1.1160;-5.3281;
379.2000;1.1217;-5.3151;
379.5000;1.1136;-5.3359;
379.8000;1.1160;-5.3229;
380.1000;1.1160;-5.3177;
380.4000;1.1152;-5.3100;
380.7000;1.1160;-5.3074;
381.0000;1.1152;-5.3151;
381.3000;1.1168;-5.3203;
381.6000;1.1152;-5.3203;
381.9000;1.1168;-5.3255;
382.2000;1.1168;-5.3255;
382.5000;1.1168;-5.3333;
382.8000;1.1144;-5.3462;
383.1000;1.1168;-5.3385;
383.4000;1.1184;-5.3229;
383.7000;1.1152;-5.3255;
384.0000;1.1160;-5.3177;
384.3000;1.1168;-5.3203;
384.6000;1.1144;-5.3151;
384.9000;1.1152;-5.3100;
385.2000;1.1144;-5.3126;
385.5000;1.1160;-5.3151;
385.8000;1.1144;-5.3255;
386.1000;1.1160;-5.3151;
386.4000;1.1176;-5.3100;
386.7000;1.1168;-5.3074;
387.0000;1.1168;-5.3100;
387.3000;1.1152;-5.3229;
387.6000;1.1119;-5.3307;
387.9000;1.1152;-5.3126;
388.2000;1.1160;-5.3151;
388.5000;1.1168;-5.3126;
388.8000;1.1136;-5.3126;
389.1000;1.1160;-5.3100;
389.4000;1.1176;-5.2970;
389.7000;1.1160;-5.3048;
390.0000;1.1160;-5.3048;
390.3000;1.1144;-5.3100;
390.6000;1.1144;-5.3177;
390.9000;1.1160;-5.3151;
391.2000;1.1152;-5.3126;
391.5000;1.1095;-5.3177;
391.8000;1.1144;-5.3126;
392.1000;1.1168;-5.3074;
392.4000;1.1201;-5.3074;
392.7000;1.1144;-5.3281;
393.0000;1.1176;-5.3281;
393.3000;1.1176;-5.3411;
393.6000;1.1127;-5.3540;
393.9000;1.1160;-5.3540;
394.2000;1.1160;-5.3462;
394.5000;1.1168;-5.3359;
394.8000;1.1160;-5.3385;
395.1000;1.1136;-5.3359;
395.4000;1.1144;-5.3307;
395.7000;1.1152;-5.3281;
396.0000;1.1136;-5.3281;
396.3000;1.1103;-5.3411;
396.6000;1.1152;-5.3281;
396.9000;1.1168;-5.3307;
397.2000;1.1168;-5.3411;
397.5000;1.1160;-5.3411;
397.8000;1.1168;-5.3436;
398.1000;1.1160;-5.3514;
398.4000;1.1193;-5.3540;
398.7000;1.1152;-5.3566;
399.0000;1.1127;-5.3618;
399.3000;1.1160;-5.3462;
399.6000;1.1168;-5.3436;
399.9000;1.1144;-5.3436;
400.2000;1.1119;-5.3514;
400.5000;1.1160;-5.3385;
400.8000;1.1168;-5.3385;
401.1000;1.1152;-5.3411;
401.4000;1.1176;-5.3436;
401.7000;1.1160;-5.3566;
402.0000;1.1160;-5.3540;
402.3000;1.1160;-5.3540;
402.6000;1.1152;-5.3566;
402.9000;1.1136;-5.3592;
403.2000;1.1160;-5.3462;
403.5000;1.1144;-5.3566;
403.8000;1.1152;-5.3411;
404.1000;1.1168;-5.3307;
404.4000;1.1168;-5.3255;
404.7000;1.1225;-5.3151;
405.0000;1.1160;-5.3385;
405.3000;1.1144;-5.3359;
405.6000;1.1168;-5.3385;
405.9000;1.1144;-5.3333;
406.2000;1.1095;-5.3462;
406.5000;1.1136;-5.3333;
406.8000;1.1070;-5.3462;
407.1000;1.1144;-5.3333;
407.4000;1.1152;-5.3333;
407.7000;1.1144;-5.3411;
408.0000;1.1152;-5.3359;
408.3000;1.1152;-5.3333;
408.6000;1.1160;-5.3281;
408.9000;1.1144;-5.3281;
409.2000;1.1144;-5.3307;
409.5000;1.1160;-5.3307;
409.8000;1.1168;-5.3255;
410.1000;1.1176;-5.3203;
410.4000;1.1168;-5.3307;
410.7000;1.1144;-5.3359;
411.0000;1.1152;-5.3307;
411.3000;1.1160;-5.3307;
411.6000;1.1144;-5.3333;
411.9000;1.1144;-5.3307;
412.2000;1.1168;-5.3229;
412.5000;1.1176;-5.3255;
412.8000;1.1152;-5.3333;
413.1000;1.1136;-5.3411;
413.4000;1.1160;-5.3359;
413.7000;1.1144;-5.3359;
414.0000;1.1152;-5.3255;
414.3000;1.1193;-5.3203;
414.6000;1.1127;-5.3411;
414.9000;1.1144;-5.3255;
415.2000;1.1160;-5.3255;
415.5000;1.1136;-5.3359;
415.8000;1.1152;-5.3411;
416.1000;1.1152;-5.3488;
416.4000;1.1160;-5.3488;
416.7000;1.1136;-5.3436;
417.0000;1.1160;-5.3333;
417.3000;1.1168;-5.3359;
417.6000;1.1152;-5.3359;
417.9000;1.1168;-5.3177;
418.2000;1.1152;-5.3203;
418.5000;1.1168;-5.3255;
418.8000;1.1168;-5.3255;
419.1000;1.1144;-5.3281;
419.4000;1.1144;-5.3281;
419.7000;1.1144;-5.3255;
420.0000;1.1160;-5.3281;
420.3000;1.1127;-5.3307;
420.6000;1.1144;-5.3255;
420.9000;1.1144;-5.3203;
421.2000;1.1144;-5.3229;
421.5000;1.1144;-5.3281;
421.8000;1.1144;-5.3281;
422.1000;1.1144;-5.3333;
422.4000;1.1144;-5.3281;
422.7000;1.1168;-5.3255;
423.0000;1.1152;-5.3229;
423.3000;1.1160;-5.3333;
423.6000;1.1193;-5.3307;
423.9000;1.1160;-5.3385;
424.2000;1.1160;-5.3385;
424.5000;1.1144;-5.3281;
424.8000;1.1193;-5.3151;
425.1000;1.1144;-5.3255;
425.4000;1.1168;-5.3203;
425.7000;1.1144;-5.3255;
426.0000;1.1144;-5.3359;
426.3000;1.1144;-5.3462;
426.6000;1.1079;-5.3540;
426.9000;1.1184;-5.3307;
427.2000;1.1103;-5.3411;
427.5000;1.1144;-5.3255;
427.8000;1.1144;-5.3229;
428.1000;1.1119;-5.3333;
428.4000;1.1127;-5.3359;
428.7000;1.1152;-5.3333;
429.0000;1.1184;-5.3229;
429.3000;1.1209;-5.3048;
429.6000;1.1152;-5.3126;
429.9000;1.1144;-5.3177;
430.2000;1.1144;-5.3203;
430.5000;1.1160;-5.3074;
430.8000;1.1127;-5.3203;
431.1000;1.1152;-5.3281;
431.4000;1.1160;-5.3255;
431.7000;1.1152;-5.3307;
432.0000;1.1144;-5.3281;
432.3000;1.1152;-5.3281;
432.6000;1.1152;-5.3229;
432.9000;1.1160;-5.3126;
433.2000;1.1144;-5.3048;
433.5000;1.1152;-5.3022;
433.8000;1.1144;-5.3048;
434.1000;1.1152;-5.2996;
434.4000;1.1144;-5.2970;
434.7000;1.1136;-5.2996;
435.0000;1.1144;-5.2996;
435.3000;1.1136;-5.2970;
435.6000;1.1152;-5.2892;
435.9000;1.1136;-5.2970;
436.2000;1.1144;-5.2970;
436.5000;1.1152;-5.2918;
436.8000;1.1144;-5.2892;
437.1000;1.1136;-5.2970;
437.4000;1.1144;-5.2918;
437.7000;1.1095;-5.3048;
438.0000;1.1144;-5.2996;
438.3000;1.1144;-5.3126;
438.6000;1.1144;-5.3074;
438.9000;1.1152;-5.3022;
439.2000;1.1152;-5.2970;
439.5000;1.1160;-5.2970;
439.8000;1.1136;-5.2944;
440.1000;1.1152;-5.2944;
440.4000;1.1176;-5.2841;
440.7000;1.1144;-5.2944;
441.0000;1.1152;-5.2918;
441.3000;1.1152;-5.2944;
441.6000;1.1209;-5.2841;
441.9000;1.1233;-5.2789;
442.2000;1.1152;-5.3022;
442.5000;1.1160;-5.3074;
442.8000;1.1152;-5.3048;
443.1000;1.1160;-5.2944;
443.4000;1.1152;-5.2996;
443.7000;1.1127;-5.3022;
444.0000;1.1152;-5.3022;
444.3000;1.1152;-5.3022;
444.6000;1.1144;-5.3022;
444.9000;1.1152;-5.3048;
445.2000;1.1136;-5.3022;
445.5000;1.1144;-5.2944;
445.8000;1.1176;-5.2841;
446.1000;1.1152;-5.2867;
446.4000;1.1136;-5.2918;
446.7000;1.1168;-5.2892;
447.0000;1.1168;-5.2918;
447.3000;1.1136;-5.3074;
447.6000;1.1176;-5.3022;
447.9000;1.1160;-5.2996;
448.2000;1.1160;-5.2996;
448.5000;1.1127;-5.3074;
448.8000;1.1144;-5.3126;
449.1000;1.1160;-5.3177;
449.4000;1.1176;-5.3126;
449.7000;1.1160;-5.3126;
450.0000;1.1160;-5.3100;
450.3000;1.1160;-5.3048;
450.6000;1.1160;-5.3074;
450.9000;1.1127;-5.3126;
451.2000;1.1152;-5.3100;
451.5000;1.1144;-5.3126;
451.8000;1.1160;-5.3126;
452.1000;1.1144;-5.3177;
452.4000;1.1144;-5.3255;
452.7000;1.1152;-5.3281;
453.0000;1.1144;-5.3385;
453.3000;1.1136;-5.3359;
453.6000;1.1136;-5.3255;
453.9000;1.1111;-5.3385;
454.2000;1.1144;-5.3203;
454.5000;1.1160;-5.3177;
454.8000;1.1136;-5.3126;
455.1000;1.1152;-5.2996;
455.4000;1.1144;-5.3100;
455.7000;1.1152;-5.3048;
456.0000;1.1160;-5.3100;
456.3000;1.1152;-5.3100;
456.6000;1.1152;-5.3151;
456.9000;1.1144;-5.3281;
457.2000;1.1160;-5.3281;
457.5000;1.1160;-5.3281;
457.8000;1.1144;-5.3255;
458.1000;1.1144;-5.3203;
458.4000;1.1152;-5.3177;
458.7000;1.1152;-5.3151;
459.0000;1.1136;-5.3151;
459.3000;1.1152;-5.3126;
459.6000;1.1127;-5.3177;
459.9000;1.1160;-5.3100;
460.2000;1.1152;-5.3100;
460.5000;1.1160;-5.3151;
460.8000;1.1160;-5.3151;
461.1000;1.1201;-5.3048;
461.4000;1.1160;-5.3229;
461.7000;1.1127;-5.3359;
462.0000;1.1144;-5.3307;
462.3000;1.1127;-5.3307;
462.6000;1.1152;-5.3255;
462.9000;1.1168;-5.3203;
463.2000;1.1136;-5.3229;
463.5000;1.1136;-5.3203;
463.8000;1.1144;-5.3229;
464.1000;1.1160;-5.3151;
464.4000;1.1160;-5.3151;
464.7000;1.1168;-5.3126;
465.0000;1.1152;-5.3126;
465.3000;1.1144;-5.3177;
465.6000;1.1176;-5.3022;
465.9000;1.1176;-5.3022;
466.2000;1.1176;-5.2996;
466.5000;1.1152;-5.3022;
466.8000;1.1160;-5.3048;
467.1000;1.1160;-5.3126;
467.4000;1.1144;-5.3203;
467.7000;1.1144;-5.3203;
468.0000;1.1136;-5.3229;
468.3000;1.1119;-5.3255;
468.6000;1.1127;-5.3151;
468.9000;1.1144;-5.3126;
469.2000;1.1144;-5.3100;
469.5000;1.1160;-5.3074;
469.8000;1.1160;-5.3126;
470.1000;1.1168;-5.3048;
470.4000;1.1152;-5.3100;
470.7000;1.1144;-5.3151;
471.0000;1.1168;-5.3126;
471.3000;1.1160;-5.3151;
471.6000;1.1160;-5.3177;
471.9000;1.1136;-5.3229;
472.2000;1.1144;-5.3203;
472.5000;1.1160;-5.3177;
472.8000;1.1127;-5.3281;
473.1000;1.1152;-5.3177;
473.4000;1.1152;-5.3203;
473.7000;1.1144;-5.3255;
474.0000;1.1160;-5.3281;
474.3000;1.1119;-5.3333;
474.6000;1.1152;-5.3177;
474.9000;1.1144;-5.3203;
475.2000;1.1144;-5.3177;
475.5000;1.1136;-5.3151;
475.8000;1.1136;-5.3151;
476.1000;1.1144;-5.3126;
476.4000;1.1144;-5.3048;
476.7000;1.1160;-5.3048;
477.0000;1.1127;-5.3151;
477.3000;1.1144;-5.3100;
477.6000;1.1111;-5.3177;
477.9000;1.1144;-5.3177;
478.2000;1.1144;-5.3203;
478.5000;1.1144;-5.3255;
478.8000;1.1160;-5.3229;
479.1000;1.1152;-5.3229;
479.4000;1.1127;-5.3255;
479.7000;1.1136;-5.3203;
480.0000;1.1136;-5.3100;
480.3000;1.1152;-5.3074;
480.6000;1.1152;-5.2996;
480.9000;1.1160;-5.3074;
481.2000;1.1144;-5.3048;
481.5000;1.1152;-5.3048;
481.8000;1.1152;-5.3048;
482.1000;1.1152;-5.3022;
482.4000;1.1168;-5.2944;
482.7000;1.1144;-5.2918;
483.0000;1.1152;-5.2944;
483.3000;1.1144;-5.3022;
483.6000;1.1152;-5.2996;
483.9000;1.1152;-5.3022;
484.2000;1.1152;-5.3022;
484.5000;1.1152;-5.3048;
484.8000;1.1144;-5.3022;
485.1000;1.1144;-5.2996;
485.4000;1.1144;-5.2996;
485.7000;1.1193;-5.2841;
486.0000;1.1144;-5.2892;
486.3000;1.1144;-5.2867;
486.6000;1.1144;-5.2867;
486.9000;1.1160;-5.2815;
487.2000;1.1062;-5.2996;
487.5000;1.1152;-5.2815;
487.8000;1.1152;-5.2944;
488.1000;1.1160;-5.3022;
488.4000;1.1127;-5.3100;
488.7000;1.1144;-5.3022;
489.0000;1.1160;-5.2944;
489.3000;1.1160;-5.2970;
489.6000;1.1136;-5.3022;
489.9000;1.1144;-5.3022;
490.2000;1.1111;-5.3177;
490.5000;1.1144;-5.3126;
490.8000;1.1152;-5.3074;
491.1000;1.1127;-5.2996;
491.4000;1.1136;-5.2970;
491.7000;1.1144;-5.2970;
492.0000;1.1136;-5.2996;
492.3000;1.1119;-5.3048;
492.6000;1.1152;-5.2970;
492.9000;1.1152;-5.2970;
493.2000;1.1144;-5.2944;
493.5000;1.1152;-5.2996;
493.8000;1.1070;-5.3048;
494.1000;1.1119;-5.3022;
494.4000;1.1136;-5.3074;
494.7000;1.1127;-5.3126;
495.0000;1.1152;-5.3126;
495.3000;1.1176;-5.3022;
495.6000;1.1152;-5.3100;
495.9000;1.1136;-5.3177;
496.2000;1.1160;-5.3177;
496.5000;1.1160;-5.3229;
496.8000;1.1168;-5.3281;
497.1000;1.1168;-5.3281;
497.4000;1.1111;-5.3385;
497.7000;1.1209;-5.3177;
498.0000;1.1160;-5.3229;
498.3000;1.1225;-5.3100;
498.6000;1.1136;-5.3307;
498.9000;1.1144;-5.3307;
499.2000;1.1127;-5.3229;
499.5000;1.1160;-5.3100;
499.8000;1.1144;-5.3048;
500.1000;1.1152;-5.3022;
500.4000;1.1136;-5.3048;
500.7000;1.1144;-5.3048;
501.0000;1.1144;-5.3074;
501.3000;1.1144;-5.3048;
501.6000;1.1136;-5.3074;
501.9000;1.1160;-5.3048;
502.2000;1.1152;-5.2944;
502.5000;1.1144;-5.3022;
502.8000;1.1144;-5.3177;
503.1000;1.1176;-5.3177;
503.4000;1.1160;-5.3177;
503.7000;1.1144;-5.3203;
504.0000;1.1152;-5.3255;
504.3000;1.1136;-5.3203;
504.6000;1.1152;-5.3203;
504.9000;1.1144;-5.3255;
505.2000;1.1144;-5.3255;
505.5000;1.1144;-5.3255;
505.8000;1.1152;-5.3177;
506.1000;1.1144;-5.3126;
506.4000;1.1144;-5.3126;
506.7000;1.1160;-5.3022;
507.0000;1.1127;-5.3048;
507.3000;1.1144;-5.3074;
507.6000;1.1136;-5.3100;
507.9000;1.1127;-5.3229;
508.2000;1.1144;-5.3022;
508.5000;1.1136;-5.2970;
508.8000;1.1127;-5.2918;
509.1000;1.1111;-5.2944;
509.4000;1.1136;-5.2918;
509.7000;1.1168;-5.2892;
510.0000;1.1136;-5.2944;
510.3000;1.1127;-5.2892;
510.6000;1.1144;-5.2892;
510.9000;1.1136;-5.2918;
511.2000;1.1144;-5.2996;
511.5000;1.1152;-5.3022;
511.8000;1.1127;-5.3074;
512.1000;1.1160;-5.3048;
512.4000;1.1152;-5.2996;
512.7000;1.1127;-5.2970;
513.0000;1.1136;-5.2996;
513.3000;1.1152;-5.2918;
513.6000;1.1160;-5.2918;
513.9000;1.1152;-5.2970;
514.2000;1.1144;-5.2970;
514.5000;1.1144;-5.2918;
514.8000;1.1144;-5.2867;
515.1000;1.1127;-5.2867;
515.4000;1.1144;-5.2892;
515.7000;1.1144;-5.2944;
516.0000;1.1152;-5.2841;
516.3000;1.1152;-5.2815;
516.6000;1.1152;-5.2815;
516.9000;1.1127;-5.2867;
517.2000;1.1152;-5.2815;
517.5000;1.1144;-5.2737;
517.8000;1.1119;-5.2918;
518.1000;1.1160;-5.2867;
518.4000;1.1168;-5.2841;
518.7000;1.1127;-5.2970;
519.0000;1.1152;-5.2944;
519.3000;1.1144;-5.2944;
519.6000;1.1127;-5.2970;
519.9000;1.1119;-5.2996;
520.2000;1.1144;-5.2970;
520.5000;1.1119;-5.2944;
520.8000;1.1168;-5.2867;
521.1000;1.1136;-5.3022;
521.4000;1.1127;-5.3074;
521.7000;1.1119;-5.3100;
522.0000;1.1144;-5.3048;
522.3000;1.1136;-5.3022;
522.6000;1.1119;-5.2996;
522.9000;1.1087;-5.3100;
523.2000;1.1127;-5.2944;
523.5000;1.1144;-5.2918;
523.8000;1.1095;-5.3022;
524.1000;1.1144;-5.2996;
524.4000;1.1136;-5.2944;
524.7000;1.1144;-5.2944;
525.0000;1.1111;-5.2996;
525.3000;1.1144;-5.2944;
525.6000;1.1127;-5.2996;
525.9000;1.1144;-5.2944;
526.2000;1.1144;-5.2996;
526.5000;1.1136;-5.3048;
526.8000;1.1127;-5.3022;
527.1000;1.1127;-5.2918;
527.4000;1.1144;-5.2944;
527.7000;1.1136;-5.2918;
528.0000;1.1127;-5.2918;
528.3000;1.1144;-5.2892;
528.6000;1.1152;-5.2841;
528.9000;1.1152;-5.2918;
529.2000;1.1136;-5.2944;
529.5000;1.1136;-5.2944;
529.8000;1.1136;-5.2944;
530.1000;1.1119;-5.3022;
530.4000;1.1136;-5.2944;
530.7000;1.1127;-5.3022;
531.0000;1.1119;-5.3074;
531.3000;1.1144;-5.3048;
531.6000;1.1152;-5.2970;
531.9000;1.1136;-5.3126;
532.2000;1.1136;-5.3100;
532.5000;1.1127;-5.3126;
532.8000;1.1184;-5.3022;
533.1000;1.1152;-5.3126;
533.4000;1.1127;-5.3151;
533.7000;1.1136;-5.3151;
534.0000;1.1144;-5.3203;
534.3000;1.1127;-5.3229;
534.6000;1.1119;-5.3177;
534.9000;1.1136;-5.3100;
535.2000;1.1127;-5.3177;
535.5000;1.1144;-5.3203;
535.8000;1.1144;-5.3177;
536.1000;1.1152;-5.3151;
536.4000;1.1136;-5.3203;
536.7000;1.1152;-5.3126;
537.0000;1.1119;-5.3203;
537.3000;1.1168;-5.3177;
537.6000;1.1152;-5.3229;
537.9000;1.1160;-5.3255;
538.2000;1.1144;-5.3203;
538.5000;1.1144;-5.3177;
538.8000;1.1160;-5.3177;
539.1000;1.1136;-5.3255;
539.4000;1.1103;-5.3229;
539.7000;1.1136;-5.3151;
540.0000;1.1144;-5.3126;
540.3000;1.1144;-5.3177;
540.6000;1.1127;-5.3203;
540.9000;1.1144;-5.3255;
541.2000;1.1127;-5.3281;
541.5000;1.1136;-5.3333;
541.8000;1.1136;-5.3307;
542.1000;1.1127;-5.3255;
542.4000;1.1136;-5.3203;
542.7000;1.1127;-5.3229;
543.0000;1.1152;-5.3151;
543.3000;1.1144;-5.3048;
543.6000;1.1136;-5.3126;
543.9000;1.1111;-5.3100;
544.2000;1.1160;-5.2970;
544.5000;1.1144;-5.2970;
544.8000;1.1087;-5.3048;
545.1000;1.1111;-5.2944;
545.4000;1.1217;-5.2841;
545.7000;1.1136;-5.3126;
546.0000;1.1127;-5.3255;
546.3000;1.1136;-5.3203;
546.6000;1.1144;-5.3177;
546.9000;1.1136;-5.3203;
547.2000;1.1144;-5.3203;
547.5000;1.1119;-5.3177;
547.8000;1.1136;-5.3177;
548.1000;1.1152;-5.3100;
548.4000;1.1136;-5.3100;
548.7000;1.1160;-5.3074;
549.0000;1.1152;-5.3074;
549.3000;1.1168;-5.3074;
549.6000;1.1136;-5.3100;
549.9000;1.1168;-5.3048;
550.2000;1.1144;-5.3100;
550.5000;1.1160;-5.2996;
550.8000;1.1144;-5.2918;
551.1000;1.1136;-5.2970;
551.4000;1.1127;-5.2996;
551.7000;1.1152;-5.3022;
552.0000;1.1127;-5.3151;
552.3000;1.1136;-5.3100;
552.6000;1.1136;-5.3177;
552.9000;1.1184;-5.3126;
553.2000;1.1136;-5.3177;
553.5000;1.1152;-5.3177;
553.8000;1.1127;-5.3229;
554.1000;1.1136;-5.3255;
554.4000;1.1152;-5.3229;
554.7000;1.1095;-5.3359;
555.0000;1.1136;-5.3229;
555.3000;1.1152;-5.3255;
555.6000;1.1119;-5.3333;
555.9000;1.1136;-5.3307;
556.2000;1.1119;-5.3333;
556.5000;1.1136;-5.3281;
556.8000;1.1152;-5.3333;
557.1000;1.1160;-5.3333;
557.4000;1.1144;-5.3281;
557.7000;1.1136;-5.3255;
558.0000;1.1136;-5.3281;
558.3000;1.1152;-5.3255;
558.6000;1.1136;-5.3359;
558.9000;1.1136;-5.3333;
559.2000;1.1152;-5.3229;
559.5000;1.1127;-5.3281;
559.8000;1.1127;-5.3333;
560.1000;1.1160;-5.3281;
560.4000;1.1136;-5.3411;
560.7000;1.1152;-5.3436;
561.0000;1.1144;-5.3488;
561.3000;1.1160;-5.3566;
561.6000;1.1127;-5.3514;
561.9000;1.1136;-5.3462;
562.2000;1.1136;-5.3385;
562.5000;1.1176;-5.3281;
562.8000;1.1136;-5.3307;
563.1000;1.1136;-5.3307;
563.4000;1.1152;-5.3203;
563.7000;1.1136;-5.3203;
564.0000;1.1127;-5.3126;
564.3000;1.1070;-5.3203;
564.6000;1.1144;-5.3100;
564.9000;1.1127;-5.3177;
565.2000;1.1136;-5.3100;
565.5000;1.1127;-5.3100;
565.8000;1.1136;-5.3074;
566.1000;1.1144;-5.3100;
566.4000;1.1184;-5.2918;
566.7000;1.1144;-5.3022;
567.0000;1.1136;-5.2970;
567.3000;1.1152;-5.2970;
567.6000;1.1136;-5.2996;
567.9000;1.1136;-5.2996;
568.2000;1.1144;-5.2970;
568.5000;1.1160;-5.2892;
568.8000;1.1193;-5.2789;
569.1000;1.1136;-5.2970;
569.4000;1.1136;-5.2970;
569.7000;1.1070;-5.3074;
570.0000;1.1127;-5.2970;
570.3000;1.1160;-5.2944;
570.6000;1.1127;-5.2944;
570.9000;1.1144;-5.2996;
571.2000;1.1144;-5.2841;
571.5000;1.1136;-5.2841;
571.8000;1.1119;-5.2763;
572.1000;1.1119;-5.2841;
572.4000;1.1136;-5.2841;
572.7000;1.1119;-5.2867;
573.0000;1.1119;-5.2892;
573.3000;1.1119;-5.2944;
573.6000;1.1127;-5.2918;
573.9000;1.1136;-5.2918;
574.2000;1.1144;-5.2867;
574.5000;1.1144;-5.2815;
574.8000;1.1168;-5.2789;
575.1000;1.1136;-5.2841;
575.4000;1.1152;-5.2892;
575.7000;1.1152;-5.2996;
576.0000;1.1152;-5.2996;
576.3000;1.1152;-5.3048;
576.6000;1.1144;-5.3022;
576.9000;1.1127;-5.3022;
577.2000;1.1136;-5.3022;
577.5000;1.1144;-5.3151;
577.8000;1.1144;-5.3048;
578.1000;1.1144;-5.2970;
578.4000;1.1144;-5.2918;
578.7000;1.1176;-5.2867;
579.0000;1.1136;-5.2970;
579.3000;1.1127;-5.2970;
579.6000;1.1136;-5.2970;
579.9000;1.1136;-5.3074;
580.2000;1.1144;-5.2944;
580.5000;1.1144;-5.3022;
580.8000;1.1127;-5.3022;
581.1000;1.1127;-5.3074;
581.4000;1.1152;-5.3074;
581.7000;1.1144;-5.3126;
582.0000;1.1111;-5.3229;
582.3000;1.1144;-5.3203;
582.6000;1.1152;-5.3126;
582.9000;1.1127;-5.3074;
583.2000;1.1119;-5.3177;
583.5000;1.1136;-5.3100;
583.8000;1.1136;-5.3074;
584.1000;1.1152;-5.3074;
584.4000;1.1127;-5.3022;
584.7000;1.1127;-5.2996;
585.0000;1.1127;-5.3022;
585.3000;1.1144;-5.2970;
585.6000;1.1136;-5.3048;
585.9000;1.1136;-5.3048;
586.2000;1.1127;-5.3074;
586.5000;1.1152;-5.2970;
586.8000;1.1136;-5.3100;
587.1000;1.1184;-5.3022;
587.4000;1.1119;-5.3100;
587.7000;1.1193;-5.2944;
588.0000;1.1152;-5.3022;
588.3000;1.1176;-5.2996;
588.6000;1.1127;-5.3126;
588.9000;1.1144;-5.2996;
589.2000;1.1136;-5.2996;
589.5000;1.1152;-5.3022;
589.8000;1.1160;-5.2996;
590.1000;1.1144;-5.3100;
590.4000;1.1152;-5.3177;
590.7000;1.1013;-5.3540;
591.0000;1.1136;-5.3151;
591.3000;1.1095;-5.3307;
591.6000;1.1144;-5.3255;
591.9000;1.1136;-5.3151;
592.2000;1.1119;-5.3126;
592.5000;1.1127;-5.3022;
592.8000;1.1119;-5.2996;
593.1000;1.1127;-5.2996;
593.4000;1.1111;-5.3022;
593.7000;1.1070;-5.3229;
594.0000;1.1201;-5.2918;
594.3000;1.1103;-5.3100;
594.6000;1.1119;-5.3100;
594.9000;1.1127;-5.3100;
595.2000;1.1136;-5.3100;
595.5000;1.1136;-5.3048;
595.8000;1.1127;-5.2996;
596.1000;1.1127;-5.3048;
596.4000;1.1136;-5.3100;
596.7000;1.1127;-5.3100;
597.0000;1.1111;-5.3177;
597.3000;1.1111;-5.3126;
597.6000;1.1119;-5.3022;
597.9000;1.1127;-5.2892;
598.2000;1.1103;-5.2996;
598.5000;1.1103;-5.2996;
598.8000;1.1127;-5.2996;
599.1000;1.1136;-5.2944;
599.4000;1.1136;-5.3048;
599.7000;1.1127;-5.3022;
600.0000;1.1119;-5.3048;
600.3000;1.1152;-5.3177;
600.6000;1.1136;-5.3359;
600.9000;1.1095;-5.3695;
601.2000;1.1022;-5.3980;
601.5000;1.0965;-5.4213;
601.8000;1.0875;-5.4447;
602.1000;1.0818;-5.4706;
602.4000;1.0737;-5.4861;
602.7000;1.0672;-5.5016;
603.0000;1.0623;-5.5120;
603.3000;1.0541;-5.5301;
603.6000;1.0509;-5.5405;
603.9000;1.0435;-5.5509;
604.2000;1.0395;-5.5664;
604.5000;1.0338;-5.5716;
604.8000;1.0265;-5.5819;
605.1000;1.0248;-5.5845;
605.4000;1.0199;-5.5897;
605.7000;1.0159;-5.5975;
606.0000;1.0102;-5.6001;
606.3000;1.0037;-5.6053;
606.6000;1.0020;-5.6130;
606.9000;0.9988;-5.6234;
607.2000;0.9931;-5.6286;
607.5000;0.9906;-5.6286;
607.8000;0.9874;-5.6363;
608.1000;0.9809;-5.6493;
608.4000;0.9801;-5.6545;
608.7000;0.9776;-5.6545;
609.0000;0.9744;-5.6571;
609.3000;0.9727;-5.6519;
609.6000;0.9695;-5.6571;
609.9000;0.9662;-5.6493;
610.2000;0.9638;-5.6571;
610.5000;0.9630;-5.6597;
610.8000;0.9589;-5.6726;
611.1000;0.9565;-5.6856;
611.4000;0.9556;-5.6856;
611.7000;0.9556;-5.6856;
612.0000;0.9491;-5.6933;
612.3000;0.9475;-5.6959;
612.6000;0.9451;-5.7011;
612.9000;0.9426;-5.6933;
613.2000;0.9426;-5.6881;
613.5000;0.9369;-5.6856;
613.8000;0.9345;-5.6856;
614.1000;0.9328;-5.6752;
614.4000;0.9304;-5.6752;
614.7000;0.9402;-5.6519;
615.0000;0.9271;-5.6674;
615.3000;0.9263;-5.6804;
615.6000;0.9239;-5.6804;
615.9000;0.9223;-5.6856;
616.2000;0.9190;-5.6881;
616.5000;0.9174;-5.6933;
616.8000;0.9149;-5.6907;
617.1000;0.9149;-5.6778;
617.4000;0.9117;-5.6804;
617.7000;0.9084;-5.6907;
618.0000;0.9117;-5.6778;
618.3000;0.9084;-5.6726;
618.6000;0.9068;-5.6752;
618.9000;0.9060;-5.6752;
619.2000;0.9003;-5.6856;
619.5000;0.9035;-5.6830;
619.8000;0.8995;-5.6907;
620.1000;0.8978;-5.6881;
620.4000;0.8978;-5.6830;
620.7000;0.8970;-5.6804;
621.0000;0.8938;-5.6830;
621.3000;0.8946;-5.6856;
621.6000;0.8921;-5.6907;
621.9000;0.8930;-5.6907;
622.2000;0.8921;-5.6881;
622.5000;0.8864;-5.6881;
622.8000;0.8873;-5.6752;
623.1000;0.8881;-5.6726;
623.4000;0.8856;-5.6752;
623.7000;0.8856;-5.6907;
624.0000;0.8832;-5.6959;
624.3000;0.8799;-5.7011;
624.6000;0.8807;-5.6933;
624.9000;0.8783;-5.6959;
625.2000;0.8767;-5.6933;
625.5000;0.8799;-5.6881;
625.8000;0.8734;-5.6959;
626.1000;0.8751;-5.6959;
626.4000;0.8734;-5.6959;
626.7000;0.8726;-5.6933;
627.0000;0.8751;-5.6856;
627.3000;0.8734;-5.6856;
627.6000;0.8710;-5.6881;
627.9000;0.8685;-5.6856;
628.2000;0.8685;-5.6804;
628.5000;0.8694;-5.6778;
628.8000;0.8669;-5.6830;
629.1000;0.8661;-5.6778;
629.4000;0.8637;-5.6881;
629.7000;0.8628;-5.6933;
630.0000;0.8637;-5.6856;
630.3000;0.8612;-5.6907;
630.6000;0.8604;-5.7037;
630.9000;0.8612;-5.7037;
631.2000;0.8620;-5.6933;
631.5000;0.8596;-5.6907;
631.8000;0.8571;-5.6985;
632.1000;0.8604;-5.6881;
632.4000;0.8563;-5.6933;
632.7000;0.8547;-5.6907;
633.0000;0.8506;-5.6933;
633.3000;0.8555;-5.6830;
633.6000;0.8547;-5.6907;
633.9000;0.8531;-5.6985;
634.2000;0.8506;-5.7063;
634.5000;0.8506;-5.7115;
634.8000;0.8523;-5.7037;
635.1000;0.8498;-5.7063;
635.4000;0.8482;-5.6959;
635.7000;0.8482;-5.6933;
636.0000;0.8466;-5.6959;
636.3000;0.8466;-5.6985;
636.6000;0.8449;-5.6985;
636.9000;0.8474;-5.6933;
637.2000;0.8457;-5.7011;
637.5000;0.8466;-5.7063;
637.8000;0.8457;-5.7063;
638.1000;0.8425;-5.7063;
638.4000;0.8425;-5.6985;
638.7000;0.8425;-5.6933;
639.0000;0.8417;-5.6830;
639.3000;0.8409;-5.6933;
639.6000;0.8376;-5.7011;
639.9000;0.8441;-5.6907;
640.2000;0.8319;-5.7244;
640.5000;0.8360;-5.7166;
640.8000;0.8376;-5.7115;
641.1000;0.8352;-5.7140;
641.4000;0.8368;-5.7140;
641.7000;0.8352;-5.7192;
642.0000;0.8327;-5.7244;
642.3000;0.8327;-5.7166;
642.6000;0.8344;-5.7089;
642.9000;0.8319;-5.7063;
643.2000;0.8319;-5.7063;
643.5000;0.8311;-5.7011;
643.8000;0.8311;-5.7037;
644.1000;0.8303;-5.6959;
644.4000;0.8311;-5.6907;
644.7000;0.8311;-5.6985;
645.0000;0.8230;-5.7192;
645.3000;0.8303;-5.7089;
645.6000;0.8319;-5.7037;
645.9000;0.8270;-5.7115;
646.2000;0.8278;-5.6985;
646.5000;0.8287;-5.7011;
646.8000;0.8270;-5.7089;
647.1000;0.8262;-5.7166;
647.4000;0.8254;-5.7192;
647.7000;0.8262;-5.7140;
648.0000;0.8270;-5.7037;
648.3000;0.8230;-5.7037;
648.6000;0.8230;-5.6959;
648.9000;0.8181;-5.7037;
649.2000;0.8221;-5.6907;
649.5000;0.8197;-5.7011;
649.8000;0.8205;-5.6985;
650.1000;0.8197;-5.6907;
650.4000;0.8205;-5.6959;
650.7000;0.8189;-5.6985;
651.0000;0.8124;-5.7115;
651.3000;0.8173;-5.6959;
651.6000;0.8181;-5.6959;
651.9000;0.8164;-5.6907;
652.2000;0.8156;-5.6933;
652.5000;0.8164;-5.6907;
652.8000;0.8156;-5.7011;
653.1000;0.8164;-5.7011;
653.4000;0.8132;-5.7115;
653.7000;0.8140;-5.7089;
654.0000;0.8148;-5.6959;
654.3000;0.8148;-5.6830;
654.6000;0.8132;-5.6881;
654.9000;0.8099;-5.6830;
655.2000;0.8107;-5.6907;
655.5000;0.8148;-5.6856;
655.8000;0.8091;-5.7011;
656.1000;0.8107;-5.7063;
656.4000;0.8067;-5.7166;
656.7000;0.8116;-5.7011;
657.0000;0.8124;-5.6985;
657.3000;0.8107;-5.7037;
657.6000;0.8091;-5.7011;
657.9000;0.8099;-5.6985;
658.2000;0.8099;-5.6985;
658.5000;0.8026;-5.7192;
658.8000;0.8083;-5.7115;
659.1000;0.8083;-5.7089;
659.4000;0.8034;-5.7192;
659.7000;0.8042;-5.7140;
660.0000;0.8059;-5.7063;
660.3000;0.8091;-5.6959;
660.6000;0.8042;-5.7037;
660.9000;0.8050;-5.7063;
661.2000;0.8034;-5.7089;
661.5000;0.8034;-5.6985;
661.8000;0.8034;-5.6933;
662.1000;0.8042;-5.6881;
662.4000;0.8042;-5.6959;
662.7000;0.8018;-5.7037;
663.0000;0.8026;-5.7011;
663.3000;0.8026;-5.6907;
663.6000;0.8002;-5.6959;
663.9000;0.8002;-5.6985;
664.2000;0.8034;-5.6985;
664.5000;0.8010;-5.7011;
664.8000;0.7977;-5.7063;
665.1000;0.7985;-5.7063;
665.4000;0.7977;-5.7089;
665.7000;0.7977;-5.7089;
666.0000;0.7969;-5.7192;
666.3000;0.7969;-5.7192;
666.6000;0.7961;-5.7192;
666.9000;0.7969;-5.7166;
667.2000;0.7945;-5.7192;
667.5000;0.7953;-5.7140;
667.8000;0.7937;-5.7166;
668.1000;0.7961;-5.7089;
668.4000;0.7928;-5.7140;
668.7000;0.7993;-5.6933;
669.0000;0.7920;-5.7089;
669.3000;0.7953;-5.7037;
669.6000;0.7928;-5.7115;
669.9000;0.7945;-5.7063;
670.2000;0.7912;-5.7166;
670.5000;0.7904;-5.7270;
670.8000;0.7912;-5.7166;
671.1000;0.7937;-5.7037;
671.4000;0.7920;-5.7089;
671.7000;0.7855;-5.7192;
672.0000;0.7937;-5.7037;
672.3000;0.7912;-5.7140;
672.6000;0.7912;-5.7115;
672.9000;0.7880;-5.7115;
673.2000;0.7904;-5.7115;
673.5000;0.7912;-5.7115;
673.8000;0.7912;-5.7037;
674.1000;0.7896;-5.7037;
674.4000;0.7904;-5.7063;
674.7000;0.7871;-5.7089;
675.0000;0.7896;-5.7166;
675.3000;0.7863;-5.7348;
675.6000;0.7871;-5.7348;
675.9000;0.7880;-5.7322;
676.2000;0.7863;-5.7296;
676.5000;0.7880;-5.7270;
676.8000;0.7863;-5.7244;
677.1000;0.7871;-5.7218;
677.4000;0.7855;-5.7166;
677.7000;0.7880;-5.7140;
678.0000;0.7847;-5.7270;
678.3000;0.7839;-5.7244;
678.6000;0.7847;-5.7192;
678.9000;0.7831;-5.7244;
679.2000;0.7839;-5.7244;
679.5000;0.7871;-5.7140;
679.8000;0.7831;-5.7244;
680.1000;0.7806;-5.7192;
680.4000;0.7831;-5.7166;
680.7000;0.7806;-5.7192;
681.0000;0.7814;-5.7166;
681.3000;0.7814;-5.7089;
681.6000;0.7798;-5.7140;
681.9000;0.7798;-5.7140;
682.2000;0.7798;-5.7218;
682.5000;0.7814;-5.7270;
682.8000;0.7814;-5.7244;
683.1000;0.7790;-5.7270;
683.4000;0.7806;-5.7218;
683.7000;0.7814;-5.7192;
684.0000;0.7823;-5.7244;
684.3000;0.7806;-5.7322;
684.6000;0.7806;-5.7244;
684.9000;0.7798;-5.7218;
685.2000;0.7790;-5.7140;
685.5000;0.7790;-5.7192;
685.8000;0.7782;-5.7115;
686.1000;0.7798;-5.7063;
686.4000;0.7790;-5.7140;
686.7000;0.7774;-5.7140;
687.0000;0.7749;-5.7140;
687.3000;0.7831;-5.6907;
687.6000;0.7749;-5.7011;
687.9000;0.7749;-5.7037;
688.2000;0.7749;-5.7037;
688.5000;0.7749;-5.7037;
688.8000;0.7757;-5.7011;
689.1000;0.7749;-5.7037;
689.4000;0.7725;-5.7140;
689.7000;0.7757;-5.7089;
690.0000;0.7733;-5.7192;
690.3000;0.7741;-5.7192;
690.6000;0.7733;-5.7374;
690.9000;0.7725;-5.7399;
691.2000;0.7733;-5.7348;
691.5000;0.7757;-5.7322;
691.8000;0.7709;-5.7374;
692.1000;0.7692;-5.7374;
692.4000;0.7709;-5.7374;
692.7000;0.7717;-5.7322;
693.0000;0.7668;-5.7425;
693.3000;0.7717;-5.7270;
693.6000;0.7668;-5.7399;
693.9000;0.7733;-5.7270;
694.2000;0.7717;-5.7348;
694.5000;0.7692;-5.7322;
694.8000;0.7692;-5.7348;
695.1000;0.7684;-5.7374;
695.4000;0.7709;-5.7322;
695.7000;0.7700;-5.7244;
696.0000;0.7709;-5.7374;
696.3000;0.7700;-5.7399;
696.6000;0.7700;-5.7374;
696.9000;0.7668;-5.7348;
697.2000;0.7668;-5.7296;
697.5000;0.7684;-5.7296;
697.8000;0.7700;-5.7270;
698.1000;0.7684;-5.7244;
698.4000;0.7692;-5.7218;
698.7000;0.7684;-5.7270;
699.0000;0.7709;-5.7244;
699.3000;0.7684;-5.7218;
699.6000;0.7676;-5.7192;
699.9000;0.7668;-5.7115;
700.2000;0.7684;-5.6933;
700.5000;0.7676;-5.6985;
700.8000;0.7652;-5.7011;
701.1000;0.7668;-5.7037;
701.4000;0.7660;-5.7037;
701.7000;0.7635;-5.7140;
702.0000;0.7643;-5.7115;
702.3000;0.7635;-5.7089;
702.6000;0.7660;-5.7063;
702.9000;0.7643;-5.7166;
703.2000;0.7652;-5.7140;
703.5000;0.7652;-5.7115;
703.8000;0.7652;-5.7140;
704.1000;0.7660;-5.7140;
704.4000;0.7635;-5.7218;
704.7000;0.7668;-5.7192;
705.0000;0.7643;-5.7296;
705.3000;0.7627;-5.7244;
705.6000;0.7700;-5.7115;
705.9000;0.7611;-5.7348;
706.2000;0.7635;-5.7244;
706.5000;0.7643;-5.7322;
706.8000;0.7603;-5.7348;
707.1000;0.7611;-5.7296;
707.4000;0.7586;-5.7296;
707.7000;0.7627;-5.7140;
708.0000;0.7619;-5.7192;
708.3000;0.7619;-5.7192;
708.6000;0.7586;-5.7296;
708.9000;0.7586;-5.7218;
709.2000;0.7619;-5.7115;
709.5000;0.7611;-5.7140;
709.8000;0.7611;-5.7089;
710.1000;0.7603;-5.7089;
710.4000;0.7595;-5.7115;
710.7000;0.7611;-5.7063;
711.0000;0.7603;-5.7011;
711.3000;0.7603;-5.7037;
711.6000;0.7578;-5.7037;
711.9000;0.7586;-5.7037;
712.2000;0.7578;-5.7089;
712.5000;0.7578;-5.7192;
712.8000;0.7586;-5.7089;
713.1000;0.7586;-5.7037;
713.4000;0.7570;-5.7063;
713.7000;0.7586;-5.6985;
714.0000;0.7562;-5.6907;
714.3000;0.7562;-5.6959;
714.6000;0.7562;-5.7089;
714.9000;0.7554;-5.7166;
715.2000;0.7570;-5.7166;
715.5000;0.7554;-5.7140;
715.8000;0.7546;-5.7063;
716.1000;0.7562;-5.7063;
716.4000;0.7562;-5.7140;
716.7000;0.7562;-5.7140;
717.0000;0.7473;-5.7322;
717.3000;0.7546;-5.7063;
717.6000;0.7586;-5.6907;
717.9000;0.7546;-5.7037;
718.2000;0.7562;-5.6985;
718.5000;0.7546;-5.7037;
718.8000;0.7554;-5.7089;
719.1000;0.7546;-5.7166;
719.4000;0.7554;-5.7140;
719.7000;0.7530;-5.7115;
720.0000;0.7538;-5.7089;
720.3000;0.7538;-5.7011;
720.6000;0.7554;-5.7037;
720.9000;0.7546;-5.7063;
721.2000;0.7554;-5.7037;
721.5000;0.7554;-5.7037;
721.8000;0.7538;-5.7115;
722.1000;0.7521;-5.7192;
722.4000;0.7530;-5.7218;
722.7000;0.7530;-5.7270;
723.0000;0.7603;-5.7089;
723.3000;0.7562;-5.7140;
723.6000;0.7538;-5.7218;
723.9000;0.7538;-5.7166;
724.2000;0.7530;-5.7244;
724.5000;0.7521;-5.7218;
724.8000;0.7521;-5.7270;
725.1000;0.7407;-5.7633;
725.4000;0.7513;-5.7374;
725.7000;0.7538;-5.7296;
726.0000;0.7538;-5.7322;
726.3000;0.7513;-5.7244;
726.6000;0.7554;-5.7140;
726.9000;0.7513;-5.7166;
727.2000;0.7497;-5.7166;
727.5000;0.7505;-5.7115;
727.8000;0.7505;-5.7140;
728.1000;0.7546;-5.7063;
728.4000;0.7505;-5.7115;
728.7000;0.7497;-5.7089;
729.0000;0.7489;-5.7063;
729.3000;0.7513;-5.7115;
729.6000;0.7505;-5.7063;
729.9000;0.7473;-5.7089;
730.2000;0.7505;-5.7115;
730.5000;0.7505;-5.7011;
730.8000;0.7505;-5.7037;
731.1000;0.7505;-5.7037;
731.4000;0.7473;-5.7140;
731.7000;0.7497;-5.7063;
732.0000;0.7464;-5.7089;
732.3000;0.7497;-5.6907;
732.6000;0.7464;-5.6959;
732.9000;0.7464;-5.6959;
733.2000;0.7448;-5.7011;
733.5000;0.7473;-5.6985;
733.8000;0.7464;-5.7037;
734.1000;0.7473;-5.6985;
734.4000;0.7464;-5.7037;
734.7000;0.7473;-5.6881;
735.0000;0.7489;-5.6856;
735.3000;0.7497;-5.6881;
735.6000;0.7464;-5.6985;
735.9000;0.7473;-5.6985;
736.2000;0.7464;-5.7063;
736.5000;0.7473;-5.7115;
736.8000;0.7448;-5.7140;
737.1000;0.7456;-5.7115;
737.4000;0.7464;-5.7166;
737.7000;0.7456;-5.7218;
738.0000;0.7464;-5.7115;
738.3000;0.7464;-5.7063;
738.6000;0.7456;-5.7115;
738.9000;0.7456;-5.7115;
739.2000;0.7456;-5.7115;
739.5000;0.7448;-5.7140;
739.8000;0.7440;-5.7140;
740.1000;0.7440;-5.7140;
740.4000;0.7432;-5.6985;
740.7000;0.7448;-5.7011;
741.0000;0.7448;-5.7011;
741.3000;0.7473;-5.6959;
741.6000;0.7416;-5.7115;
741.9000;0.7424;-5.7063;
742.2000;0.7432;-5.7011;
742.5000;0.7432;-5.7063;
742.8000;0.7432;-5.7192;
743.1000;0.7432;-5.7244;
743.4000;0.7432;-5.7218;
743.7000;0.7440;-5.7166;
744.0000;0.7424;-5.7218;
744.3000;0.7456;-5.7089;
744.6000;0.7416;-5.7166;
744.9000;0.7440;-5.7140;
745.2000;0.7440;-5.7089;
745.5000;0.7424;-5.7115;
745.8000;0.7464;-5.7011;
746.1000;0.7440;-5.7166;
746.4000;0.7432;-5.7192;
746.7000;0.7432;-5.7166;
747.0000;0.7416;-5.7115;
747.3000;0.7424;-5.7166;
747.6000;0.7416;-5.7192;
747.9000;0.7399;-5.7296;
748.2000;0.7342;-5.7348;
748.5000;0.7407;-5.7089;
748.8000;0.7416;-5.7011;
749.1000;0.7375;-5.7115;
749.4000;0.7391;-5.7089;
749.7000;0.7424;-5.7089;
750.0000;0.7407;-5.7140;
750.3000;0.7432;-5.7115;
750.6000;0.7375;-5.7192;
750.9000;0.7391;-5.7218;
751.2000;0.7432;-5.7115;
751.5000;0.7432;-5.7089;
751.8000;0.7416;-5.7089;
752.1000;0.7416;-5.7166;
752.4000;0.7399;-5.7166;
752.7000;0.7367;-5.7218;
753.0000;0.7424;-5.7063;
753.3000;0.7391;-5.7140;
753.6000;0.7399;-5.7140;
753.9000;0.7424;-5.7063;
754.2000;0.7399;-5.7115;
754.5000;0.7383;-5.7166;
754.8000;0.7432;-5.7089;
755.1000;0.7399;-5.7192;
755.4000;0.7375;-5.7322;
755.7000;0.7407;-5.7322;
756.0000;0.7375;-5.7322;
756.3000;0.7383;-5.7270;
756.6000;0.7383;-5.7218;
756.9000;0.7391;-5.7166;
757.2000;0.7399;-5.7115;
757.5000;0.7375;-5.7115;
757.8000;0.7375;-5.7089;
758.1000;0.7367;-5.7115;
758.4000;0.7367;-5.7063;
758.7000;0.7367;-5.7063;
759.0000;0.7367;-5.7166;
759.3000;0.7367;-5.7115;
759.6000;0.7375;-5.7192;
759.9000;0.7367;-5.7115;
760.2000;0.7375;-5.7115;
760.5000;0.7367;-5.7115;
760.8000;0.7375;-5.7115;
761.1000;0.7359;-5.7192;
761.4000;0.7375;-5.7063;
761.7000;0.7383;-5.7011;
762.0000;0.7367;-5.7011;
762.3000;0.7359;-5.7089;
762.6000;0.7399;-5.7115;
762.9000;0.7383;-5.7218;
763.2000;0.7416;-5.7115;
763.5000;0.7375;-5.7244;
763.8000;0.7367;-5.7270;
764.1000;0.7350;-5.7270;
764.4000;0.7367;-5.7140;
764.7000;0.7407;-5.7089;
765.0000;0.7383;-5.7140;
765.3000;0.7383;-5.7089;
765.6000;0.7367;-5.7063;
765.9000;0.7350;-5.7063;
766.2000;0.7367;-5.7037;
766.5000;0.7383;-5.6985;
766.8000;0.7375;-5.7089;
767.1000;0.7383;-5.7063;
767.4000;0.7359;-5.7140;
767.7000;0.7350;-5.7063;
768.0000;0.7367;-5.7089;
768.3000;0.7367;-5.7140;
768.6000;0.7367;-5.7089;
768.9000;0.7367;-5.7115;
769.2000;0.7350;-5.7063;
769.5000;0.7342;-5.7089;
769.8000;0.7350;-5.7166;
770.1000;0.7302;-5.7218;
770.4000;0.7342;-5.7089;
770.7000;0.7342;-5.7037;
771.0000;0.7334;-5.7089;
771.3000;0.7342;-5.7063;
771.6000;0.7342;-5.7037;
771.9000;0.7334;-5.7115;
772.2000;0.7350;-5.7115;
772.5000;0.7334;-5.7140;
772.8000;0.7326;-5.7140;
773.1000;0.7342;-5.7115;
773.4000;0.7342;-5.7140;
773.7000;0.7318;-5.7192;
774.0000;0.7342;-5.7192;
774.3000;0.7375;-5.7089;
774.6000;0.7342;-5.7218;
774.9000;0.7310;-5.7166;
775.2000;0.7318;-5.7192;
775.5000;0.7334;-5.7115;
775.8000;0.7359;-5.7037;
776.1000;0.7334;-5.7270;
776.4000;0.7318;-5.7296;
776.7000;0.7326;-5.7374;
777.0000;0.7326;-5.7270;
777.3000;0.7367;-5.7270;
777.6000;0.7318;-5.7374;
777.9000;0.7334;-5.7399;
778.2000;0.7293;-5.7374;
778.5000;0.7318;-5.7348;
778.8000;0.7318;-5.7348;
779.1000;0.7302;-5.7529;
779.4000;0.7318;-5.7348;
779.7000;0.7318;-5.7296;
780.0000;0.7310;-5.7296;
780.3000;0.7302;-5.7244;
780.6000;0.7310;-5.7192;
780.9000;0.7318;-5.7192;
781.2000;0.7318;-5.7218;
781.5000;0.7326;-5.7192;
781.8000;0.7302;-5.7296;
782.1000;0.7310;-5.7218;
782.4000;0.7318;-5.7270;
782.7000;0.7310;-5.7192;
783.0000;0.7293;-5.7166;
783.3000;0.7310;-5.7115;
783.6000;0.7310;-5.7140;
783.9000;0.7310;-5.7140;
784.2000;0.7302;-5.7140;
784.5000;0.7293;-5.7115;
784.8000;0.7302;-5.7063;
785.1000;0.7285;-5.7063;
785.4000;0.7293;-5.7037;
785.7000;0.7285;-5.6985;
786.0000;0.7293;-5.6959;
786.3000;0.7293;-5.6985;
786.6000;0.7277;-5.6933;
786.9000;0.7310;-5.6881;
787.2000;0.7302;-5.6985;
787.5000;0.7302;-5.7037;
787.8000;0.7310;-5.7063;
788.1000;0.7285;-5.7166;
788.4000;0.7302;-5.7140;
788.7000;0.7261;-5.7322;
789.0000;0.7293;-5.7270;
789.3000;0.7302;-5.7244;
789.6000;0.7310;-5.7166;
789.9000;0.7302;-5.7037;
790.2000;0.7302;-5.7011;
790.5000;0.7310;-5.6933;
790.8000;0.7310;-5.7089;
791.1000;0.7302;-5.7192;
791.4000;0.7277;-5.7166;
791.7000;0.7302;-5.7089;
792.0000;0.7293;-5.7011;
792.3000;0.7302;-5.6959;
792.6000;0.7302;-5.6933;
792.9000;0.7302;-5.6907;
793.2000;0.7342;-5.6856;
793.5000;0.7253;-5.7063;
793.8000;0.7342;-5.6881;
794.1000;0.7285;-5.6985;
794.4000;0.7293;-5.7011;
794.7000;0.7269;-5.7089;
795.0000;0.7285;-5.7089;
795.3000;0.7293;-5.7063;
795.6000;0.7285;-5.7011;
795.9000;0.7245;-5.7192;
796.2000;0.7293;-5.7166;
796.5000;0.7293;-5.7115;
796.8000;0.7285;-5.7089;
797.1000;0.7293;-5.7089;
797.4000;0.7302;-5.7063;
797.7000;0.7285;-5.7089;
798.0000;0.7253;-5.7115;
798.3000;0.7204;-5.7115;
798.6000;0.7261;-5.6959;
798.9000;0.7285;-5.6959;
799.2000;0.7285;-5.6907;
799.5000;0.7285;-5.7089;
799.8000;0.7277;-5.7192;
800.1000;0.7285;-5.7037;
800.4000;0.7277;-5.7140;
800.7000;0.7277;-5.7218;
801.0000;0.7261;-5.7192;
801.3000;0.7285;-5.7166;
801.6000;0.7269;-5.7296;
801.9000;0.7245;-5.7296;
802.2000;0.7269;-5.7166;
802.5000;0.7285;-5.7270;
802.8000;0.7253;-5.7322;
803.1000;0.7277;-5.7244;
803.4000;0.7326;-5.7037;
803.7000;0.7293;-5.7166;
804.0000;0.7245;-5.7296;
804.3000;0.7302;-5.7166;
804.6000;0.7228;-5.7322;
804.9000;0.7269;-5.7270;
805.2000;0.7269;-5.7218;
805.5000;0.7253;-5.7218;
805.8000;0.7253;-5.7296;
806.1000;0.7253;-5.7296;
806.4000;0.7245;-5.7270;
806.7000;0.7245;-5.7192;
807.0000;0.7188;-5.7244;
807.3000;0.7236;-5.7037;
807.6000;0.7261;-5.7011;
807.9000;0.7261;-5.6959;
808.2000;0.7253;-5.6933;
808.5000;0.7261;-5.6830;
808.8000;0.7269;-5.6830;
809.1000;0.7261;-5.6959;
809.4000;0.7253;-5.6959;
809.7000;0.7220;-5.7089;
810.0000;0.7261;-5.6959;
810.3000;0.7253;-5.7037;
810.6000;0.7253;-5.7089;
810.9000;0.7261;-5.7115;
811.2000;0.7261;-5.7063;
811.5000;0.7253;-5.7011;
811.8000;0.7261;-5.7063;
812.1000;0.7245;-5.7063;
812.4000;0.7261;-5.7037;
812.7000;0.7293;-5.6933;
813.0000;0.7269;-5.6985;
813.3000;0.7245;-5.6881;
813.6000;0.7245;-5.6881;
813.9000;0.7350;-5.6597;
814.2000;0.7253;-5.6881;
814.5000;0.7245;-5.6881;
814.8000;0.7261;-5.6985;
815.1000;0.7253;-5.6959;
815.4000;0.7253;-5.6959;
815.7000;0.7245;-5.7037;
816.0000;0.7236;-5.7037;
816.3000;0.7236;-5.7089;
816.6000;0.7236;-5.7011;
816.9000;0.7236;-5.6985;
817.2000;0.7236;-5.7037;
817.5000;0.7212;-5.7089;
817.8000;0.7302;-5.6959;
818.1000;0.7261;-5.7115;
818.4000;0.7212;-5.7115;
818.7000;0.7253;-5.7037;
819.0000;0.7236;-5.7037;
819.3000;0.7171;-5.7192;
819.6000;0.7245;-5.7011;
819.9000;0.7236;-5.7011;
820.2000;0.7220;-5.7063;
820.5000;0.7236;-5.7063;
820.8000;0.7236;-5.7037;
821.1000;0.7228;-5.7063;
821.4000;0.7228;-5.6985;
821.7000;0.7204;-5.7011;
822.0000;0.7220;-5.6933;
822.3000;0.7228;-5.6881;
822.6000;0.7155;-5.7037;
822.9000;0.7253;-5.6881;
823.2000;0.7261;-5.6830;
823.5000;0.7245;-5.6856;
823.8000;0.7236;-5.6907;
824.1000;0.7236;-5.6933;
824.4000;0.7253;-5.6830;
824.7000;0.7228;-5.6856;
825.0000;0.7245;-5.6881;
825.3000;0.7228;-5.6907;
825.6000;0.7228;-5.7011;
825.9000;0.7253;-5.7011;
826.2000;0.7220;-5.7063;
826.5000;0.7236;-5.7063;
826.8000;0.7236;-5.7011;
827.1000;0.7228;-5.6985;
827.4000;0.7228;-5.6959;
827.7000;0.7236;-5.6907;
828.0000;0.7228;-5.7037;
828.3000;0.7220;-5.7011;
828.6000;0.7220;-5.6959;
828.9000;0.7212;-5.6959;
829.2000;0.7220;-5.6933;
829.5000;0.7236;-5.6907;
829.8000;0.7228;-5.6985;
830.1000;0.7220;-5.7140;
830.4000;0.7220;-5.7218;
830.7000;0.7228;-5.7140;
831.0000;0.7212;-5.7192;
831.3000;0.7212;-5.7140;
831.6000;0.7220;-5.7089;
831.9000;0.7204;-5.7089;
832.2000;0.7220;-5.7037;
832.5000;0.7220;-5.7011;
832.8000;0.7212;-5.7063;
833.1000;0.7212;-5.6985;
833.4000;0.7212;-5.7063;
833.7000;0.7220;-5.7011;
834.0000;0.7204;-5.7063;
834.3000;0.7220;-5.7063;
834.6000;0.7212;-5.7063;
834.9000;0.7212;-5.7115;
835.2000;0.7204;-5.7089;
835.5000;0.7220;-5.7037;
835.8000;0.7212;-5.7089;
836.1000;0.7212;-5.7115;
836.4000;0.7196;-5.7270;
836.7000;0.7212;-5.7270;
837.0000;0.7204;-5.7192;
837.3000;0.7212;-5.7218;
837.6000;0.7196;-5.7218;
837.9000;0.7245;-5.7115;
838.2000;0.7212;-5.7115;
838.5000;0.7204;-5.7218;
838.8000;0.7220;-5.7192;
839.1000;0.7220;-5.7270;
839.4000;0.7212;-5.7244;
839.7000;0.7220;-5.7270;
840.0000;0.7212;-5.7270;
840.3000;0.7253;-5.7192;
840.6000;0.7212;-5.7244;
840.9000;0.7220;-5.7166;
841.2000;0.7131;-5.7270;
841.5000;0.7155;-5.7244;
841.8000;0.7171;-5.7218;
842.1000;0.7204;-5.7218;
842.4000;0.7204;-5.7166;
842.7000;0.7188;-5.7218;
843.0000;0.7171;-5.7270;
843.3000;0.7171;-5.7166;
843.6000;0.7204;-5.7115;
843.9000;0.7204;-5.7063;
844.2000;0.7196;-5.7140;
844.5000;0.7204;-5.6959;
844.8000;0.7204;-5.7011;
845.1000;0.7204;-5.7089;
845.4000;0.7204;-5.7011;
845.7000;0.7236;-5.6856;
846.0000;0.7212;-5.6985;
846.3000;0.7196;-5.6985;
846.6000;0.7196;-5.6959;
846.9000;0.7188;-5.6985;
847.2000;0.7188;-5.6933;
847.5000;0.7204;-5.6933;
847.8000;0.7171;-5.7037;
848.1000;0.7196;-5.6933;
848.4000;0.7204;-5.7037;
848.7000;0.7196;-5.7089;
849.0000;0.7253;-5.6959;
849.3000;0.7139;-5.7270;
849.6000;0.7196;-5.7037;
849.9000;0.7220;-5.7063;
850.2000;0.7204;-5.7063;
850.5000;0.7188;-5.7063;
850.8000;0.7204;-5.7063;
851.1000;0.7204;-5.7089;
851.4000;0.7179;-5.7218;
851.7000;0.7188;-5.7192;
852.0000;0.7196;-5.7140;
852.3000;0.7188;-5.7115;
852.6000;0.7188;-5.7115;
852.9000;0.7188;-5.7089;
853.2000;0.7188;-5.7166;
853.5000;0.7204;-5.7115;
853.8000;0.7188;-5.7115;
854.1000;0.7204;-5.7063;
854.4000;0.7196;-5.7140;
854.7000;0.7188;-5.7037;
855.0000;0.7147;-5.7192;
855.3000;0.7188;-5.7089;
855.6000;0.7188;-5.7063;
855.9000;0.7196;-5.7089;
856.2000;0.7139;-5.7218;
856.5000;0.7188;-5.7140;
856.8000;0.7188;-5.7166;
857.1000;0.7188;-5.7166;
857.4000;0.7188;-5.7166;
857.7000;0.7188;-5.7063;
858.0000;0.7171;-5.7037;
858.3000;0.7188;-5.6933;
858.6000;0.7212;-5.6907;
858.9000;0.7204;-5.6907;
859.2000;0.7204;-5.6907;
859.5000;0.7196;-5.6933;
859.8000;0.7204;-5.6907;
860.1000;0.7245;-5.6881;
860.4000;0.7188;-5.7011;
860.7000;0.7188;-5.7037;
861.0000;0.7204;-5.6959;
861.3000;0.7179;-5.6881;
861.6000;0.7196;-5.6856;
861.9000;0.7188;-5.6856;
862.2000;0.7171;-5.6804;
862.5000;0.7179;-5.6804;
862.8000;0.7188;-5.6752;
863.1000;0.7196;-5.6804;
863.4000;0.7204;-5.6830;
863.7000;0.7179;-5.6907;
864.0000;0.7163;-5.6933;
864.3000;0.7212;-5.6856;
864.6000;0.7179;-5.7011;
864.9000;0.7171;-5.7011;
865.2000;0.7196;-5.7011;
865.5000;0.7236;-5.6959;
865.8000;0.7188;-5.7011;
866.1000;0.7196;-5.7037;
866.4000;0.7179;-5.7140;
866.7000;0.7163;-5.7166;
867.0000;0.7179;-5.7166;
867.3000;0.7179;-5.7192;
867.6000;0.7196;-5.7192;
867.9000;0.7179;-5.7270;
868.2000;0.7171;-5.7244;
868.5000;0.7179;-5.7218;
868.8000;0.7171;-5.7322;
869.1000;0.7188;-5.7166;
869.4000;0.7179;-5.7192;
869.7000;0.7179;-5.7218;
870.0000;0.7196;-5.7218;
870.3000;0.7179;-5.7140;
870.6000;0.7236;-5.7011;
870.9000;0.7171;-5.7192;
871.2000;0.7171;-5.7089;
871.5000;0.7179;-5.6985;
871.8000;0.7163;-5.6933;
872.1000;0.7155;-5.6907;
872.4000;0.7171;-5.6830;
872.7000;0.7106;-5.6959;
873.0000;0.7171;-5.6778;
873.3000;0.7147;-5.6933;
873.6000;0.7163;-5.6907;
873.9000;0.7179;-5.6881;
874.2000;0.7196;-5.6856;
874.5000;0.7171;-5.6881;
874.8000;0.7155;-5.6881;
875.1000;0.7163;-5.6726;
875.4000;0.7171;-5.6752;
875.7000;0.7155;-5.6804;
876.0000;0.7163;-5.6856;
876.3000;0.7171;-5.6856;
876.6000;0.7163;-5.6830;
876.9000;0.7171;-5.6752;
877.2000;0.7123;-5.6881;
877.5000;0.7155;-5.6804;
877.8000;0.7212;-5.6648;
878.1000;0.7171;-5.6804;
878.4000;0.7155;-5.6856;
878.7000;0.7163;-5.6881;
879.0000;0.7123;-5.6985;
879.3000;0.7196;-5.6907;
879.6000;0.7171;-5.7037;
879.9000;0.7188;-5.6933;
880.2000;0.7114;-5.7089;
880.5000;0.7171;-5.6933;
880.8000;0.7188;-5.6907;
881.1000;0.7171;-5.6959;
881.4000;0.7163;-5.7037;
881.7000;0.7171;-5.6985;
882.0000;0.7155;-5.7063;
882.3000;0.7155;-5.7037;
882.6000;0.7163;-5.6985;
882.9000;0.7163;-5.6985;
883.2000;0.7147;-5.6985;
883.5000;0.7147;-5.7063;
883.8000;0.7139;-5.7011;
884.1000;0.7163;-5.7063;
884.4000;0.7163;-5.7063;
884.7000;0.7155;-5.7115;
885.0000;0.7179;-5.7037;
885.3000;0.7155;-5.7115;
885.6000;0.7163;-5.7011;
885.9000;0.7171;-5.6985;
886.2000;0.7155;-5.7140;
886.5000;0.7155;-5.7192;
886.8000;0.7171;-5.7063;
887.1000;0.7147;-5.7063;
887.4000;0.7139;-5.7037;
887.7000;0.7179;-5.6985;
888.0000;0.7196;-5.6933;
888.3000;0.7171;-5.7037;
888.6000;0.7147;-5.6985;
888.9000;0.7155;-5.6985;
889.2000;0.7163;-5.6933;
889.5000;0.7163;-5.6933;
889.8000;0.7188;-5.6856;
890.1000;0.7139;-5.6933;
890.4000;0.7204;-5.6752;
890.7000;0.7204;-5.6856;
891.0000;0.7188;-5.6907;
891.3000;0.7155;-5.6985;
891.6000;0.7155;-5.6933;
891.9000;0.7155;-5.6856;
892.2000;0.7147;-5.6959;
892.5000;0.7155;-5.7063;
892.8000;0.7106;-5.7166;
893.1000;0.7155;-5.7244;
893.4000;0.7171;-5.7270;
893.7000;0.7163;-5.7270;
894.0000;0.7090;-5.7348;
894.3000;0.7131;-5.7244;
894.6000;0.7155;-5.7140;
894.9000;0.7147;-5.7166;
895.2000;0.7131;-5.7192;
895.5000;0.7139;-5.7089;
895.8000;0.7163;-5.7063;
896.1000;0.7163;-5.7011;
896.4000;0.7163;-5.6933;
896.7000;0.7155;-5.6985;
897.0000;0.7066;-5.7218;
897.3000;0.7155;-5.6985;
897.6000;0.7147;-5.6985;
897.9000;0.7155;-5.7037;
898.2000;0.7131;-5.7063;
898.5000;0.7155;-5.6985;
898.8000;0.7139;-5.7011;
899.1000;0.7131;-5.7063;
899.4000;0.7139;-5.6959;
899.7000;0.7163;-5.6933;
900.0000;0.7131;-5.6907;
900.3000;0.7139;-5.6752;
900.6000;0.7139;-5.6830;
900.9000;0.7147;-5.6804;
901.2000;0.7147;-5.6726;
901.5000;0.7131;-5.6804;
901.8000;0.7155;-5.6804;
902.1000;0.7155;-5.6830;
902.4000;0.7163;-5.6804;
902.7000;0.7131;-5.6752;
903.0000;0.7188;-5.6648;
903.3000;0.7147;-5.6726;
903.6000;0.7163;-5.6674;
903.9000;0.7131;-5.6752;
904.2000;0.7123;-5.6752;
904.5000;0.7131;-5.6726;
904.8000;0.7139;-5.6778;
905.1000;0.7147;-5.6674;
905.4000;0.7155;-5.6726;
905.7000;0.7171;-5.6752;
906.0000;0.7114;-5.6830;
906.3000;0.7155;-5.6830;
906.6000;0.7155;-5.6881;
906.9000;0.7139;-5.7011;
907.2000;0.7155;-5.6933;
907.5000;0.7139;-5.6907;
907.8000;0.7139;-5.6881;
908.1000;0.7155;-5.6778;
908.4000;0.7139;-5.6856;
908.7000;0.7155;-5.6726;
909.0000;0.7147;-5.6726;
909.3000;0.7131;-5.6726;
909.6000;0.7123;-5.6726;
909.9000;0.7131;-5.6778;
910.2000;0.7131;-5.6674;
910.5000;0.7147;-5.6597;
910.8000;0.7131;-5.6674;
911.1000;0.7123;-5.6648;
911.4000;0.7147;-5.6622;
911.7000;0.7098;-5.6700;
912.0000;0.7139;-5.6622;
912.3000;0.7188;-5.6519;
912.6000;0.7131;-5.6674;
912.9000;0.7098;-5.6778;
913.2000;0.7114;-5.6752;
913.5000;0.7131;-5.6752;
913.8000;0.7131;-5.6830;
914.1000;0.7131;-5.6856;
914.4000;0.7114;-5.6907;
914.7000;0.7123;-5.6907;
915.0000;0.7139;-5.6881;
915.3000;0.7139;-5.6856;
915.6000;0.7123;-5.6830;
915.9000;0.7114;-5.6778;
916.2000;0.7123;-5.6700;
916.5000;0.7147;-5.6726;
916.8000;0.7196;-5.6571;
917.1000;0.7123;-5.6907;
917.4000;0.7155;-5.6804;
917.7000;0.7131;-5.6881;
918.0000;0.7123;-5.6933;
918.3000;0.7139;-5.6907;
918.6000;0.7139;-5.6881;
918.9000;0.7147;-5.6856;
919.2000;0.7074;-5.7037;
919.5000;0.7106;-5.6907;
919.8000;0.7106;-5.6959;
920.1000;0.7123;-5.7011;
920.4000;0.7131;-5.7011;
920.7000;0.7139;-5.7011;
921.0000;0.7123;-5.7037;
921.3000;0.7139;-5.6959;
921.6000;0.7147;-5.6907;
921.9000;0.7123;-5.6933;
922.2000;0.7131;-5.7037;
922.5000;0.7114;-5.7063;
922.8000;0.7131;-5.7037;
923.1000;0.7131;-5.7063;
923.4000;0.7123;-5.7063;
923.7000;0.7114;-5.7140;
924.0000;0.7114;-5.7115;
924.3000;0.7114;-5.7037;
924.6000;0.7106;-5.7037;
924.9000;0.7114;-5.6907;
925.2000;0.7123;-5.6830;
925.5000;0.7123;-5.6726;
925.8000;0.7114;-5.6804;
926.1000;0.7114;-5.6778;
926.4000;0.7131;-5.6881;
926.7000;0.7147;-5.6856;
927.0000;0.7123;-5.6881;
927.3000;0.7123;-5.6907;
927.6000;0.7139;-5.6933;
927.9000;0.7131;-5.6933;
928.2000;0.7114;-5.6933;
928.5000;0.7179;-5.6804;
928.8000;0.7123;-5.6933;
929.1000;0.7155;-5.6752;
929.4000;0.7139;-5.6778;
929.7000;0.7155;-5.6778;
930.0000;0.7090;-5.6856;
930.3000;0.7106;-5.6830;
930.6000;0.7114;-5.6907;
930.9000;0.7131;-5.6856;
931.2000;0.7123;-5.6881;
931.5000;0.7131;-5.6830;
931.8000;0.7131;-5.6804;
932.1000;0.7155;-5.6648;
932.4000;0.7123;-5.6648;
932.7000;0.7123;-5.6571;
933.0000;0.7123;-5.6622;
933.3000;0.7204;-5.6519;
933.6000;0.7131;-5.6726;
933.9000;0.7139;-5.6726;
934.2000;0.7147;-5.6778;
934.5000;0.7057;-5.6933;
934.8000;0.7147;-5.6778;
935.1000;0.7074;-5.6933;
935.4000;0.7155;-5.6622;
935.7000;0.7131;-5.6622;
936.0000;0.7114;-5.6700;
936.3000;0.7123;-5.6674;
936.6000;0.7066;-5.6726;
936.9000;0.7074;-5.6648;
937.2000;0.7114;-5.6493;
937.5000;0.7131;-5.6441;
937.8000;0.7114;-5.6493;
938.1000;0.7139;-5.6389;
938.4000;0.7131;-5.6519;
938.7000;0.7114;-5.6545;
939.0000;0.7114;-5.6493;
939.3000;0.7114;-5.6493;
939.6000;0.7098;-5.6597;
939.9000;0.7106;-5.6545;
940.2000;0.7123;-5.6467;
940.5000;0.7123;-5.6519;
940.8000;0.7155;-5.6467;
941.1000;0.7090;-5.6648;
941.4000;0.7114;-5.6441;
941.7000;0.7114;-5.6493;
942.0000;0.7090;-5.6571;
942.3000;0.7123;-5.6545;
942.6000;0.7106;-5.6622;
942.9000;0.7131;-5.6622;
943.2000;0.7114;-5.6622;
943.5000;0.7123;-5.6700;
943.8000;0.7131;-5.6726;
944.1000;0.7106;-5.6752;
944.4000;0.7139;-5.6752;
944.7000;0.7106;-5.6778;
945.0000;0.7106;-5.6752;
945.3000;0.7106;-5.6700;
945.6000;0.7139;-5.6622;
945.9000;0.7131;-5.6545;
946.2000;0.7131;-5.6648;
946.5000;0.7098;-5.6778;
946.8000;0.7106;-5.6726;
947.1000;0.7131;-5.6726;
947.4000;0.7114;-5.6700;
947.7000;0.7106;-5.6648;
948.0000;0.7131;-5.6545;
948.3000;0.7123;-5.6622;
948.6000;0.7131;-5.6545;
948.9000;0.7123;-5.6571;
949.2000;0.7057;-5.6778;
949.5000;0.7106;-5.6571;
949.8000;0.7106;-5.6597;
950.1000;0.7131;-5.6545;
950.4000;0.7106;-5.6648;
950.7000;0.7147;-5.6545;
951.0000;0.7106;-5.6571;
951.3000;0.7123;-5.6622;
951.6000;0.7098;-5.6571;
951.9000;0.7114;-5.6545;
952.2000;0.7123;-5.6571;
952.5000;0.7106;-5.6648;
952.8000;0.7106;-5.6622;
953.1000;0.7090;-5.6571;
953.4000;0.7114;-5.6441;
953.7000;0.7114;-5.6389;
954.0000;0.7147;-5.6312;
954.3000;0.7114;-5.6467;
954.6000;0.7106;-5.6441;
954.9000;0.7147;-5.6363;
955.2000;0.7090;-5.6622;
955.5000;0.7106;-5.6622;
955.8000;0.7106;-5.6545;
956.1000;0.7179;-5.6415;
956.4000;0.7123;-5.6648;
956.7000;0.7106;-5.6700;
957.0000;0.7106;-5.6752;
957.3000;0.7106;-5.6726;
957.6000;0.7123;-5.6778;
957.9000;0.7139;-5.6700;
958.2000;0.7106;-5.6830;
958.5000;0.7114;-5.6830;
958.8000;0.7106;-5.6830;
959.1000;0.7090;-5.6959;
959.4000;0.7106;-5.6959;
959.7000;0.7098;-5.6933;
960.0000;0.7106;-5.6881;
960.3000;0.7114;-5.6856;
960.6000;0.7114;-5.6830;
960.9000;0.7098;-5.6933;
961.2000;0.7098;-5.6985;
961.5000;0.7123;-5.6804;
961.8000;0.7082;-5.6881;
962.1000;0.7114;-5.6752;
962.4000;0.7106;-5.6830;
962.7000;0.7057;-5.6881;
963.0000;0.7106;-5.6856;
963.3000;0.7114;-5.6778;
963.6000;0.7139;-5.6752;
963.9000;0.7106;-5.6830;
964.2000;0.7114;-5.6856;
964.5000;0.7106;-5.6959;
964.8000;0.7114;-5.6907;
965.1000;0.7106;-5.6856;
965.4000;0.7098;-5.6907;
965.7000;0.7090;-5.6856;
966.0000;0.7131;-5.6778;
966.3000;0.7090;-5.6856;
966.6000;0.7106;-5.6830;
966.9000;0.7090;-5.6778;
967.2000;0.7098;-5.6778;
967.5000;0.7106;-5.6830;
967.8000;0.7106;-5.6804;
968.1000;0.7090;-5.6985;
968.4000;0.7082;-5.6881;
968.7000;0.7106;-5.6933;
969.0000;0.7098;-5.6985;
969.3000;0.7114;-5.6959;
969.6000;0.7106;-5.6881;
969.9000;0.7106;-5.6856;
970.2000;0.7106;-5.6881;
970.5000;0.7074;-5.6881;
970.8000;0.7082;-5.6881;
971.1000;0.7114;-5.6778;
971.4000;0.7098;-5.6752;
971.7000;0.7074;-5.6778;
972.0000;0.7106;-5.6700;
972.3000;0.7090;-5.6778;
972.6000;0.7123;-5.6778;
972.9000;0.7098;-5.6778;
973.2000;0.7098;-5.6752;
973.5000;0.7106;-5.6648;
973.8000;0.7090;-5.6597;
974.1000;0.7123;-5.6519;
974.4000;0.7106;-5.6622;
974.7000;0.7066;-5.6674;
975.0000;0.7049;-5.6804;
975.3000;0.7114;-5.6674;
975.6000;0.7074;-5.6856;
975.9000;0.7082;-5.6856;
976.2000;0.7106;-5.6752;
976.5000;0.7114;-5.6700;
976.8000;0.7098;-5.6752;
977.1000;0.7098;-5.6830;
977.4000;0.7106;-5.6804;
977.7000;0.7098;-5.6778;
978.0000;0.7098;-5.6778;
978.3000;0.7090;-5.6804;
978.6000;0.7106;-5.6830;
978.9000;0.7098;-5.6804;
979.2000;0.7098;-5.6726;
979.5000;0.7090;-5.6778;
979.8000;0.7074;-5.6985;
980.1000;0.7098;-5.7063;
980.4000;0.7098;-5.7011;
980.7000;0.7090;-5.7037;
981.0000;0.7114;-5.6959;
981.3000;0.7049;-5.7218;
981.6000;0.7098;-5.7115;
981.9000;0.7114;-5.7063;
982.2000;0.7041;-5.7166;
982.5000;0.7041;-5.7192;
982.8000;0.7131;-5.7011;
983.1000;0.7074;-5.7089;
983.4000;0.7090;-5.7140;
983.7000;0.7098;-5.7037;
984.0000;0.7041;-5.7089;
984.3000;0.7106;-5.6985;
984.6000;0.7106;-5.6985;
984.9000;0.7098;-5.6907;
985.2000;0.7106;-5.6933;
985.5000;0.7098;-5.6907;
985.8000;0.7090;-5.6881;
986.1000;0.7082;-5.6959;
986.4000;0.7090;-5.6907;
986.7000;0.7066;-5.6804;
987.0000;0.7090;-5.6856;
987.3000;0.7098;-5.6985;
987.6000;0.7082;-5.6959;
987.9000;0.7106;-5.6933;
988.2000;0.7098;-5.7011;
988.5000;0.7082;-5.6959;
988.8000;0.7066;-5.6856;
989.1000;0.7098;-5.6674;
989.4000;0.7090;-5.6648;
989.7000;0.7090;-5.6648;
990.0000;0.7074;-5.6752;
990.3000;0.7131;-5.6648;
990.6000;0.7090;-5.6648;
990.9000;0.7082;-5.6726;
991.2000;0.7074;-5.6752;
991.5000;0.7090;-5.6804;
991.8000;0.7155;-5.6648;
992.1000;0.7090;-5.6830;
992.4000;0.7098;-5.6752;
992.7000;0.7114;-5.6752;
993.0000;0.7090;-5.6881;
993.3000;0.7090;-5.6933;
993.6000;0.7057;-5.6933;
993.9000;0.7106;-5.6804;
994.2000;0.7090;-5.6726;
994.5000;0.7090;-5.6752;
994.8000;0.7074;-5.6752;
995.1000;0.7131;-5.6622;
995.4000;0.7090;-5.6726;
995.7000;0.7098;-5.6726;
996.0000;0.7098;-5.6597;
996.3000;0.7090;-5.6674;
996.6000;0.7106;-5.6648;
996.9000;0.7106;-5.6700;
997.2000;0.7163;-5.6622;
997.5000;0.7098;-5.6804;
997.8000;0.7106;-5.6804;
998.1000;0.7090;-5.6856;
998.4000;0.7066;-5.6881;
998.7000;0.7082;-5.6830;
999.0000;0.7098;-5.6830;
999.3000;0.7074;-5.6881;
999.6000;0.7106;-5.6778;
999.9000;0.7098;-5.6830;
1000.2000;0.7106;-5.6830;
1000.5000;0.7090;-5.6830;
1000.8000;0.7098;-5.6778;
1001.1000;0.7082;-5.6778;
1001.4000;0.7074;-5.6778;
1001.7000;0.7082;-5.6752;
1002.0000;0.7098;-5.6726;
1002.3000;0.7082;-5.6726;
1002.6000;0.7098;-5.6778;
1002.9000;0.7074;-5.6804;
1003.2000;0.7098;-5.6778;
1003.5000;0.7066;-5.6778;
1003.8000;0.7057;-5.6778;
1004.1000;0.7074;-5.6674;
1004.4000;0.7074;-5.6674;
1004.7000;0.7098;-5.6804;
1005.0000;0.7000;-5.6959;
1005.3000;0.7066;-5.6752;
1005.6000;0.7082;-5.6700;
1005.9000;0.7074;-5.6752;
1006.2000;0.7082;-5.6752;
1006.5000;0.6984;-5.7011;
1006.8000;0.7066;-5.6804;
1007.1000;0.7074;-5.6830;
1007.4000;0.7074;-5.6907;
1007.7000;0.7082;-5.6907;
1008.0000;0.7082;-5.6830;
1008.3000;0.7074;-5.6752;
1008.6000;0.7098;-5.6674;
1008.9000;0.7041;-5.6830;
1009.2000;0.7066;-5.6778;
1009.5000;0.7098;-5.6726;
1009.8000;0.7090;-5.6752;
1010.1000;0.7098;-5.6726;
1010.4000;0.7074;-5.6752;
1010.7000;0.7098;-5.6752;
1011.0000;0.7098;-5.6674;
1011.3000;0.7057;-5.6726;
1011.6000;0.7082;-5.6726;
1011.9000;0.7017;-5.6830;
1012.2000;0.7025;-5.6830;
1012.5000;0.7090;-5.6700;
1012.8000;0.7082;-5.6700;
1013.1000;0.7074;-5.6726;
1013.4000;0.7066;-5.6804;
1013.7000;0.7090;-5.6700;
1014.0000;0.7082;-5.6752;
1014.3000;0.7057;-5.6830;
1014.6000;0.7074;-5.6752;
1014.9000;0.7106;-5.6674;
1015.2000;0.7074;-5.6674;
1015.5000;0.7074;-5.6674;
1015.8000;0.7082;-5.6571;
1016.1000;0.7074;-5.6674;
1016.4000;0.7074;-5.6674;
1016.7000;0.7074;-5.6752;
1017.0000;0.7090;-5.6752;
1017.3000;0.7090;-5.6778;
1017.6000;0.7082;-5.6856;
1017.9000;0.7074;-5.6856;
1018.2000;0.7082;-5.6881;
1018.5000;0.7066;-5.6959;
1018.8000;0.7082;-5.6856;
1019.1000;0.7082;-5.6856;
1019.4000;0.7066;-5.6830;
1019.7000;0.7066;-5.6856;
1020.0000;0.7017;-5.6907;
1020.3000;0.7090;-5.6778;
1020.6000;0.7090;-5.6674;
1020.9000;0.7082;-5.6726;
1021.2000;0.7123;-5.6571;
1021.5000;0.7098;-5.6622;
1021.8000;0.7090;-5.6700;
1022.1000;0.7025;-5.6856;
1022.4000;0.7082;-5.6674;
1022.7000;0.7098;-5.6726;
1023.0000;0.7123;-5.6622;
1023.3000;0.7074;-5.6726;
1023.6000;0.7082;-5.6622;
1023.9000;0.7090;-5.6622;
1024.2000;0.7082;-5.6648;
1024.5000;0.7090;-5.6622;
1024.8000;0.7090;-5.6648;
1025.1000;0.7098;-5.6700;
1025.4000;0.7082;-5.6804;
1025.7000;0.7066;-5.6804;
1026.0000;0.7082;-5.6700;
1026.3000;0.7098;-5.6674;
1026.6000;0.7106;-5.6778;
1026.9000;0.7082;-5.6907;
1027.2000;0.7049;-5.6959;
1027.5000;0.7106;-5.6804;
1027.8000;0.7066;-5.6856;
1028.1000;0.7049;-5.6881;
1028.4000;0.7082;-5.6700;
1028.7000;0.7074;-5.6700;
1029.0000;0.7074;-5.6700;
1029.3000;0.7098;-5.6648;
1029.6000;0.7066;-5.6648;
1029.9000;0.7066;-5.6571;
1030.2000;0.7082;-5.6622;
1030.5000;0.7057;-5.6622;
1030.8000;0.7098;-5.6493;
1031.1000;0.7074;-5.6648;
1031.4000;0.7090;-5.6571;
1031.7000;0.7074;-5.6674;
1032.0000;0.7082;-5.6752;
1032.3000;0.7098;-5.6726;
1032.6000;0.7098;-5.6752;
1032.9000;0.7090;-5.6830;
1033.2000;0.7082;-5.6907;
1033.5000;0.7074;-5.6881;
1033.8000;0.7074;-5.6778;
1034.1000;0.7074;-5.6752;
1034.4000;0.7057;-5.6804;
1034.7000;0.7090;-5.6674;
1035.0000;0.7082;-5.6648;
1035.3000;0.7066;-5.6648;
1035.6000;0.7074;-5.6622;
1035.9000;0.7074;-5.6700;
1036.2000;0.7033;-5.6804;
1036.5000;0.7090;-5.6674;
1036.8000;0.7106;-5.6571;
1037.1000;0.7082;-5.6648;
1037.4000;0.7131;-5.6571;
1037.7000;0.7082;-5.6726;
1038.0000;0.7057;-5.6778;
1038.3000;0.7090;-5.6726;
1038.6000;0.7049;-5.6752;
1038.9000;0.7082;-5.6752;
1039.2000;0.7057;-5.6700;
1039.5000;0.7049;-5.6726;
1039.8000;0.7082;-5.6545;
1040.1000;0.7066;-5.6545;
1040.4000;0.7066;-5.6648;
1040.7000;0.7074;-5.6700;
1041.0000;0.7025;-5.6804;
1041.3000;0.7082;-5.6700;
1041.6000;0.7090;-5.6674;
1041.9000;0.7090;-5.6597;
1042.2000;0.7074;-5.6778;
1042.5000;0.7066;-5.6804;
1042.8000;0.7074;-5.6804;
1043.1000;0.7074;-5.6778;
1043.4000;0.7057;-5.6804;
1043.7000;0.7066;-5.6752;
1044.0000;0.7066;-5.6752;
1044.3000;0.7090;-5.6674;
1044.6000;0.7066;-5.6674;
1044.9000;0.7066;-5.6700;
1045.2000;0.7082;-5.6674;
1045.5000;0.7066;-5.6726;
1045.8000;0.7082;-5.6726;
1046.1000;0.7041;-5.6804;
1046.4000;0.7082;-5.6726;
1046.7000;0.7074;-5.6752;
1047.0000;0.7074;-5.6752;
1047.3000;0.7082;-5.6778;
1047.6000;0.7066;-5.6907;
1047.9000;0.7082;-5.6907;
1048.2000;0.7025;-5.6907;
1048.5000;0.7066;-5.6726;
1048.8000;0.7074;-5.6726;
1049.1000;0.7057;-5.6726;
1049.4000;0.7066;-5.6752;
1049.7000;0.7009;-5.6933;
1050.0000;0.7106;-5.6700;
1050.3000;0.7074;-5.6856;
1050.6000;0.7082;-5.6933;
1050.9000;0.7090;-5.6959;
1051.2000;0.7033;-5.7089;
1051.5000;0.7066;-5.6985;
1051.8000;0.7066;-5.6907;
1052.1000;0.7082;-5.6881;
1052.4000;0.7057;-5.6933;
1052.7000;0.7082;-5.6804;
1053.0000;0.7066;-5.6778;
1053.3000;0.7049;-5.6804;
1053.6000;0.7066;-5.6804;
1053.9000;0.7057;-5.6830;
1054.2000;0.7049;-5.6804;
1054.5000;0.7057;-5.6778;
1054.8000;0.7049;-5.6752;
1055.1000;0.7049;-5.6622;
1055.4000;0.7066;-5.6648;
1055.7000;0.7057;-5.6674;
1056.0000;0.7066;-5.6674;
1056.3000;0.7049;-5.6700;
1056.6000;0.7057;-5.6726;
1056.9000;0.7074;-5.6856;
1057.2000;0.7041;-5.6959;
1057.5000;0.7057;-5.6907;
1057.8000;0.7066;-5.6959;
1058.1000;0.7066;-5.6959;
1058.4000;0.7066;-5.6959;
1058.7000;0.7057;-5.6907;
1059.0000;0.7041;-5.7011;
1059.3000;0.7057;-5.6985;
1059.6000;0.7066;-5.6933;
1059.9000;0.7082;-5.6830;
1060.2000;0.7082;-5.6881;
1060.5000;0.7090;-5.6804;
1060.8000;0.7066;-5.6856;
1061.1000;0.7074;-5.6856;
1061.4000;0.7090;-5.6804;
1061.7000;0.7057;-5.6881;
1062.0000;0.7082;-5.6907;
1062.3000;0.7049;-5.6933;
1062.6000;0.7057;-5.6856;
1062.9000;0.7057;-5.6830;
1063.2000;0.7082;-5.6674;
1063.5000;0.7082;-5.6648;
1063.8000;0.7066;-5.6752;
1064.1000;0.7057;-5.6726;
1064.4000;0.7041;-5.6804;
1064.7000;0.7057;-5.6778;
1065.0000;0.7066;-5.6778;
1065.3000;0.7049;-5.6778;
1065.6000;0.7057;-5.6804;
1065.9000;0.7074;-5.6752;
1066.2000;0.7066;-5.6778;
1066.5000;0.7057;-5.6804;
1066.8000;0.7066;-5.6804;
1067.1000;0.7074;-5.6804;
1067.4000;0.7066;-5.6700;
1067.7000;0.7066;-5.6674;
1068.0000;0.7066;-5.6648;
1068.3000;0.7082;-5.6519;
1068.6000;0.7041;-5.6622;
1068.9000;0.7123;-5.6441;
1069.2000;0.7041;-5.6648;
1069.5000;0.7049;-5.6726;
1069.8000;0.7082;-5.6700;
1070.1000;0.7090;-5.6674;
1070.4000;0.7057;-5.6700;
1070.7000;0.7057;-5.6804;
1071.0000;0.7074;-5.6674;
1071.3000;0.7066;-5.6622;
1071.6000;0.7057;-5.6648;
1071.9000;0.7049;-5.6648;
1072.2000;0.7082;-5.6674;
1072.5000;0.7066;-5.6622;
1072.8000;0.7057;-5.6674;
1073.1000;0.7057;-5.6648;
1073.4000;0.7082;-5.6597;
1073.7000;0.7082;-5.6648;
1074.0000;0.7057;-5.6648;
1074.3000;0.7066;-5.6571;
1074.6000;0.7057;-5.6545;
1074.9000;0.7049;-5.6545;
1075.2000;0.7066;-5.6519;
1075.5000;0.7074;-5.6545;
1075.8000;0.7066;-5.6648;
1076.1000;0.7074;-5.6674;
1076.4000;0.7049;-5.6648;
1076.7000;0.7066;-5.6726;
1077.0000;0.7033;-5.6726;
1077.3000;0.7041;-5.6752;
1077.6000;0.7066;-5.6778;
1077.9000;0.7041;-5.6778;
1078.2000;0.7066;-5.6700;
1078.5000;0.7049;-5.6648;
1078.8000;0.7074;-5.6571;
1079.1000;0.7074;-5.6674;
1079.4000;0.7049;-5.6752;
1079.7000;0.7057;-5.6752;
1080.0000;0.7074;-5.6778;
1080.3000;0.7057;-5.6830;
1080.6000;0.7066;-5.6778;
1080.9000;0.7057;-5.6752;
1081.2000;0.7074;-5.6881;
1081.5000;0.7074;-5.6881;
1081.8000;0.7049;-5.6830;
1082.1000;0.7066;-5.6726;
1082.4000;0.7057;-5.6752;
1082.7000;0.7082;-5.6674;
1083.0000;0.7074;-5.6700;
1083.3000;0.7074;-5.6648;
1083.6000;0.7074;-5.6700;
1083.9000;0.7082;-5.6622;
1084.2000;0.7049;-5.6648;
1084.5000;0.7057;-5.6700;
1084.8000;0.7057;-5.6726;
1085.1000;0.7074;-5.6752;
1085.4000;0.7041;-5.6881;
1085.7000;0.7041;-5.6830;
1086.0000;0.7033;-5.6881;
1086.3000;0.7049;-5.6778;
1086.6000;0.7049;-5.6726;
1086.9000;0.7041;-5.6726;
1087.2000;0.7009;-5.6726;
1087.5000;0.7025;-5.6726;
1087.8000;0.7066;-5.6648;
1088.1000;0.7074;-5.6648;
1088.4000;0.7057;-5.6700;
1088.7000;0.7131;-5.6467;
1089.0000;0.7074;-5.6622;
1089.3000;0.7049;-5.6674;
1089.6000;0.7057;-5.6726;
1089.9000;0.7057;-5.6830;
1090.2000;0.7066;-5.6778;
1090.5000;0.7049;-5.6804;
1090.8000;0.7009;-5.6959;
1091.1000;0.7049;-5.6804;
1091.4000;0.7057;-5.6804;
1091.7000;0.7033;-5.6881;
1092.0000;0.7082;-5.6804;
1092.3000;0.7057;-5.6804;
1092.6000;0.7049;-5.6830;
1092.9000;0.7041;-5.6804;
1093.2000;0.7074;-5.6726;
1093.5000;0.7057;-5.6726;
1093.8000;0.7049;-5.6804;
1094.1000;0.7057;-5.6881;
1094.4000;0.7066;-5.6856;
1094.7000;0.7049;-5.6907;
1095.0000;0.7041;-5.6881;
1095.3000;0.7066;-5.6804;
1095.6000;0.7082;-5.6804;
1095.9000;0.7041;-5.6881;
1096.2000;0.7066;-5.6804;
1096.5000;0.7009;-5.7011;
1096.8000;0.7049;-5.6881;
1097.1000;0.7049;-5.6881;
1097.4000;0.7049;-5.6804;
1097.7000;0.7057;-5.6804;
1098.0000;0.7057;-5.6778;
1098.3000;0.7057;-5.6700;
1098.6000;0.7057;-5.6674;
1098.9000;0.7066;-5.6622;
1099.2000;0.7033;-5.6752;
1099.5000;0.7074;-5.6700;
1099.8000;0.7049;-5.6726;
1100.1000;0.7049;-5.6726;
1100.4000;0.7057;-5.6700;
1100.7000;0.7057;-5.6622;
1101.0000;0.7057;-5.6622;
1101.3000;0.7041;-5.6674;
1101.6000;0.7049;-5.6674;
1101.9000;0.7057;-5.6674;
1102.2000;0.7074;-5.6545;
1102.5000;0.7049;-5.6545;
1102.8000;0.7082;-5.6545;
1103.1000;0.7057;-5.6571;
1103.4000;0.7049;-5.6597;
1103.7000;0.7074;-5.6571;
1104.0000;0.7049;-5.6571;
1104.3000;0.7074;-5.6571;
1104.6000;0.7074;-5.6571;
1104.9000;0.7049;-5.6622;
1105.2000;0.7049;-5.6752;
1105.5000;0.7041;-5.6726;
1105.8000;0.7066;-5.6648;
1106.1000;0.7017;-5.6700;
1106.4000;0.7041;-5.6700;
1106.7000;0.7049;-5.6622;
1107.0000;0.7041;-5.6597;
1107.3000;0.7049;-5.6597;
1107.6000;0.7033;-5.6648;
1107.9000;0.7057;-5.6545;
1108.2000;0.7049;-5.6545;
1108.5000;0.7041;-5.6545;
1108.8000;0.7033;-5.6648;
1109.1000;0.7041;-5.6622;
1109.4000;0.7041;-5.6674;
1109.7000;0.7066;-5.6545;
1110.0000;0.7057;-5.6545;
1110.3000;0.7025;-5.6571;
1110.6000;0.7009;-5.6597;
1110.9000;0.7066;-5.6441;
1111.2000;0.7033;-5.6467;
1111.5000;0.7033;-5.6519;
1111.8000;0.7066;-5.6441;
1112.1000;0.7049;-5.6493;
1112.4000;0.7025;-5.6571;
1112.7000;0.7041;-5.6571;
1113.0000;0.7074;-5.6597;
1113.3000;0.7057;-5.6622;
1113.6000;0.7041;-5.6674;
1113.9000;0.7057;-5.6571;
1114.2000;0.7049;-5.6648;
1114.5000;0.7049;-5.6622;
1114.8000;0.7057;-5.6597;
1115.1000;0.7057;-5.6726;
1115.4000;0.7057;-5.6752;
1115.7000;0.7057;-5.6778;
1116.0000;0.7057;-5.6726;
1116.3000;0.7049;-5.6726;
1116.6000;0.7041;-5.6778;
1116.9000;0.7009;-5.6804;
1117.2000;0.7049;-5.6752;
1117.5000;0.7033;-5.6881;
1117.8000;0.7049;-5.6830;
1118.1000;0.7066;-5.6752;
1118.4000;0.7066;-5.6648;
1118.7000;0.7049;-5.6597;
1119.0000;0.7057;-5.6571;
1119.3000;0.7049;-5.6571;
1119.6000;0.7049;-5.6571;
1119.9000;0.7049;-5.6597;
1120.2000;0.7025;-5.6571;
1120.5000;0.7066;-5.6441;
1120.8000;0.7025;-5.6545;
1121.1000;0.7017;-5.6622;
1121.4000;0.7033;-5.6519;
1121.7000;0.7033;-5.6545;
1122.0000;0.7057;-5.6519;
1122.3000;0.7033;-5.6519;
1122.6000;0.7033;-5.6648;
1122.9000;0.7033;-5.6622;
1123.2000;0.7033;-5.6571;
1123.5000;0.7033;-5.6519;
1123.8000;0.7049;-5.6571;
1124.1000;0.7057;-5.6622;
1124.4000;0.7049;-5.6700;
1124.7000;0.7049;-5.6752;
1125.0000;0.7074;-5.6830;
1125.3000;0.7041;-5.6804;
1125.6000;0.7049;-5.6830;
1125.9000;0.7049;-5.6830;
1126.2000;0.7041;-5.6881;
1126.5000;0.7049;-5.6830;
1126.8000;0.7082;-5.6700;
1127.1000;0.7009;-5.6830;
1127.4000;0.7066;-5.6726;
1127.7000;0.7049;-5.6752;
1128.0000;0.7049;-5.6752;
1128.3000;0.7049;-5.6700;
1128.6000;0.7041;-5.6752;
1128.9000;0.7017;-5.6856;
1129.2000;0.7057;-5.6830;
1129.5000;0.7057;-5.6856;
1129.8000;0.7106;-5.6674;
1130.1000;0.7057;-5.6726;
1130.4000;0.7041;-5.6830;
1130.7000;0.7009;-5.6881;
1131.0000;0.7025;-5.6856;
1131.3000;0.7057;-5.6700;
1131.6000;0.7066;-5.6700;
1131.9000;0.7033;-5.6726;
1132.2000;0.7025;-5.6752;
1132.5000;0.7041;-5.6700;
1132.8000;0.7033;-5.6674;
1133.1000;0.7017;-5.6778;
1133.4000;0.7041;-5.6700;
1133.7000;0.7057;-5.6726;
1134.0000;0.7049;-5.6752;
1134.3000;0.7017;-5.6804;
1134.6000;0.7025;-5.6752;
1134.9000;0.7057;-5.6752;
1135.2000;0.7049;-5.6778;
1135.5000;0.7049;-5.6778;
1135.8000;0.7033;-5.6700;
1136.1000;0.7049;-5.6674;
1136.4000;0.7057;-5.6648;
1136.7000;0.7049;-5.6648;
1137.0000;0.7009;-5.6830;
1137.3000;0.7041;-5.6804;
1137.6000;0.7041;-5.6778;
1137.9000;0.7033;-5.6726;
1138.2000;0.7049;-5.6726;
1138.5000;0.6976;-5.6804;
1138.8000;0.7147;-5.6363;
1139.1000;0.7049;-5.6622;
1139.4000;0.7049;-5.6622;
1139.7000;0.7057;-5.6622;
1140.0000;0.7033;-5.6674;
1140.3000;0.7049;-5.6622;
1140.6000;0.7025;-5.6752;
1140.9000;0.7025;-5.6752;
1141.2000;0.7000;-5.6856;
1141.5000;0.7066;-5.6700;
1141.8000;0.7033;-5.6622;
1142.1000;0.7041;-5.6545;
1142.4000;0.7106;-5.6493;
1142.7000;0.7041;-5.6674;
1143.0000;0.7041;-5.6493;
1143.3000;0.7049;-5.6519;
1143.6000;0.7033;-5.6545;
1143.9000;0.7049;-5.6545;
1144.2000;0.7041;-5.6597;
1144.5000;0.7009;-5.6700;
1144.8000;0.7033;-5.6597;
1145.1000;0.7090;-5.6467;
1145.4000;0.7049;-5.6622;
1145.7000;0.7025;-5.6726;
1146.0000;0.7025;-5.6752;
1146.3000;0.7049;-5.6804;
1146.6000;0.7033;-5.6700;
1146.9000;0.7041;-5.6674;
1147.2000;0.7049;-5.6674;
1147.5000;0.7041;-5.6700;
1147.8000;0.7033;-5.6726;
1148.1000;0.7049;-5.6726;
1148.4000;0.7041;-5.6856;
1148.7000;0.7041;-5.7011;
1149.0000;0.7041;-5.6959;
1149.3000;0.7049;-5.6907;
1149.6000;0.7033;-5.6985;
1149.9000;0.7041;-5.6907;
1150.2000;0.7057;-5.6907;
1150.5000;0.7041;-5.6907;
1150.8000;0.7057;-5.6830;
1151.1000;0.7041;-5.6881;
1151.4000;0.7057;-5.6804;
1151.7000;0.7033;-5.6804;
1152.0000;0.7041;-5.6856;
1152.3000;0.7041;-5.6856;
1152.6000;0.7041;-5.6933;
1152.9000;0.7098;-5.6778;
1153.2000;0.7049;-5.6804;
1153.5000;0.7041;-5.6648;
1153.8000;0.7025;-5.6700;
1154.1000;0.7041;-5.6622;
1154.4000;0.7066;-5.6622;
1154.7000;0.7049;-5.6726;
1155.0000;0.7057;-5.6726;
1155.3000;0.7049;-5.6752;
1155.6000;0.7049;-5.6830;
1155.9000;0.7049;-5.6804;
1156.2000;0.7041;-5.6752;
1156.5000;0.7033;-5.6881;
1156.8000;0.7041;-5.6856;
1157.1000;0.7033;-5.6856;
1157.4000;0.7033;-5.6933;
1157.7000;0.7074;-5.6778;
1158.0000;0.7041;-5.6856;
1158.3000;0.7041;-5.6804;
1158.6000;0.7041;-5.6804;
1158.9000;0.7009;-5.6881;
1159.2000;0.7041;-5.6985;
1159.5000;0.7017;-5.7063;
1159.8000;0.7041;-5.6933;
1160.1000;0.7033;-5.6933;
1160.4000;0.7049;-5.6959;
1160.7000;0.7057;-5.6881;
1161.0000;0.7041;-5.6881;
1161.3000;0.7049;-5.6752;
1161.6000;0.7049;-5.6830;
1161.9000;0.7025;-5.6856;
1162.2000;0.7025;-5.6726;
1162.5000;0.7041;-5.6700;
1162.8000;0.7009;-5.6700;
1163.1000;0.7041;-5.6545;
1163.4000;0.7041;-5.6571;
1163.7000;0.7033;-5.6545;
1164.0000;0.7033;-5.6519;
1164.3000;0.7009;-5.6622;
1164.6000;0.7033;-5.6597;
1164.9000;0.7041;-5.6597;
1165.2000;0.7090;-5.6389;
1165.5000;0.7041;-5.6519;
1165.8000;0.7041;-5.6467;
1166.1000;0.7041;-5.6571;
1166.4000;0.7041;-5.6622;
1166.7000;0.7033;-5.6571;
1167.0000;0.7041;-5.6493;
1167.3000;0.7049;-5.6493;
1167.6000;0.7033;-5.6545;
1167.9000;0.7025;-5.6571;
1168.2000;0.6984;-5.6700;
1168.5000;0.7033;-5.6622;
1168.8000;0.7017;-5.6648;
1169.1000;0.7066;-5.6467;
1169.4000;0.7033;-5.6622;
1169.7000;0.7041;-5.6622;
1170.0000;0.7041;-5.6648;
1170.3000;0.7009;-5.6804;
1170.6000;0.7033;-5.6648;
1170.9000;0.7033;-5.6597;
1171.2000;0.7033;-5.6622;
1171.5000;0.7025;-5.6571;
1171.8000;0.7025;-5.6519;
1172.1000;0.7041;-5.6467;
1172.4000;0.7033;-5.6467;
1172.7000;0.7033;-5.6493;
1173.0000;0.7025;-5.6467;
1173.3000;0.7033;-5.6519;
1173.6000;0.7041;-5.6519;
1173.9000;0.7033;-5.6467;
1174.2000;0.7041;-5.6519;
1174.5000;0.7033;-5.6441;
1174.8000;0.7041;-5.6415;
1175.1000;0.7025;-5.6415;
1175.4000;0.7025;-5.6389;
1175.7000;0.7033;-5.6467;
1176.0000;0.7033;-5.6597;
1176.3000;0.7041;-5.6545;
1176.6000;0.7033;-5.6597;
1176.9000;0.7017;-5.6648;
1177.2000;0.7033;-5.6571;
1177.5000;0.7033;-5.6571;
1177.8000;0.7033;-5.6571;
1178.1000;0.7074;-5.6441;
1178.4000;0.7025;-5.6545;
1178.7000;0.7033;-5.6519;
1179.0000;0.7025;-5.6597;
1179.3000;0.7033;-5.6493;
1179.6000;0.7049;-5.6493;
1179.9000;0.7041;-5.6467;
1180.2000;0.7033;-5.6545;
1180.5000;0.7033;-5.6571;
1180.8000;0.7033;-5.6519;
1181.1000;0.7049;-5.6493;
1181.4000;0.7009;-5.6519;
1181.7000;0.7033;-5.6519;
1182.0000;0.7041;-5.6519;
1182.3000;0.7033;-5.6545;
1182.6000;0.7049;-5.6519;
1182.9000;0.7017;-5.6726;
1183.2000;0.7017;-5.6804;
1183.5000;0.7000;-5.6830;
1183.8000;0.7033;-5.6752;
1184.1000;0.7000;-5.6804;
1184.4000;0.7033;-5.6700;
1184.7000;0.7033;-5.6648;
1185.0000;0.7025;-5.6622;
1185.3000;0.7017;-5.6519;
1185.6000;0.7033;-5.6467;
1185.9000;0.7041;-5.6389;
1186.2000;0.7000;-5.6571;
1186.5000;0.7041;-5.6493;
1186.8000;0.7033;-5.6622;
1187.1000;0.7017;-5.6648;
1187.4000;0.7009;-5.6700;
1187.7000;0.7025;-5.6700;
1188.0000;0.7033;-5.6648;
1188.3000;0.7025;-5.6674;
1188.6000;0.7025;-5.6648;
1188.9000;0.7025;-5.6519;
1189.2000;0.7025;-5.6493;
1189.5000;0.7025;-5.6571;
1189.8000;0.7025;-5.6545;
1190.1000;0.7033;-5.6519;
1190.4000;0.7033;-5.6493;
1190.7000;0.7017;-5.6519;
1191.0000;0.7025;-5.6519;
1191.3000;0.7041;-5.6493;
1191.6000;0.7033;-5.6493;
1191.9000;0.6992;-5.6571;
1192.2000;0.7041;-5.6441;
1192.5000;0.7049;-5.6467;
1192.8000;0.7041;-5.6571;
1193.1000;0.7033;-5.6545;
1193.4000;0.7033;-5.6467;
1193.7000;0.7041;-5.6415;
1194.0000;0.7025;-5.6519;
1194.3000;0.7090;-5.6363;
1194.6000;0.7025;-5.6597;
1194.9000;0.7033;-5.6597;
1195.2000;0.7033;-5.6519;
1195.5000;0.7033;-5.6493;
1195.8000;0.7049;-5.6519;
1196.1000;0.7033;-5.6545;
1196.4000;0.7033;-5.6545;
1196.7000;0.7033;-5.6597;
1197.0000;0.7049;-5.6597;
1197.3000;0.7033;-5.6700;
1197.6000;0.7041;-5.6700;
1197.9000;0.7057;-5.6622;
1198.2000;0.7017;-5.6648;
1198.5000;0.7033;-5.6674;
1198.8000;0.7049;-5.6622;
1199.1000;0.7025;-5.6700;
1199.4000;0.7033;-5.6726;
1199.7000;0.7009;-5.6804;
1200.0000;0.7033;-5.6752;
1200.3000;0.7049;-5.6648;
1200.6000;0.7017;-5.6648;
1200.9000;0.7033;-5.6597;
1201.2000;0.7041;-5.6493;
1201.5000;0.7033;-5.6493;
1201.8000;0.7041;-5.6545;
1202.1000;0.7106;-5.6389;
1202.4000;0.7017;-5.6571;
1202.7000;0.7041;-5.6519;
1203.0000;0.6992;-5.6726;
1203.3000;0.7017;-5.6597;
1203.6000;0.7017;-5.6545;
1203.9000;0.7041;-5.6674;
1204.2000;0.7057;-5.6648;
1204.5000;0.7033;-5.6752;
1204.8000;0.7009;-5.6804;
1205.1000;0.7017;-5.6830;
1205.4000;0.7057;-5.6648;
1205.7000;0.7025;-5.6752;
1206.0000;0.7025;-5.6700;
1206.3000;0.7017;-5.6674;
1206.6000;0.7033;-5.6545;
1206.9000;0.7009;-5.6597;
1207.2000;0.7025;-5.6622;
1207.5000;0.7000;-5.6700;
1207.8000;0.7025;-5.6648;
1208.1000;0.7049;-5.6597;
1208.4000;0.7033;-5.6597;
1208.7000;0.7025;-5.6493;
1209.0000;0.7025;-5.6622;
1209.3000;0.7025;-5.6622;
1209.6000;0.7025;-5.6571;
1209.9000;0.7025;-5.6441;
1210.2000;0.7114;-5.6182;
1210.5000;0.7025;-5.6389;
1210.8000;0.7033;-5.6389;
1211.1000;0.7033;-5.6441;
1211.4000;0.7033;-5.6493;
1211.7000;0.7049;-5.6389;
1212.0000;0.7017;-5.6389;
1212.3000;0.7025;-5.6363;
1212.6000;0.7025;-5.6389;
1212.9000;0.7041;-5.6389;
1213.2000;0.7049;-5.6467;
1213.5000;0.7033;-5.6415;
1213.8000;0.7033;-5.6493;
1214.1000;0.7025;-5.6571;
1214.4000;0.7025;-5.6597;
1214.7000;0.7025;-5.6597;
1215.0000;0.7033;-5.6571;
1215.3000;0.7074;-5.6389;
1215.6000;0.7025;-5.6519;
1215.9000;0.7017;-5.6493;
1216.2000;0.7025;-5.6337;
1216.5000;0.7041;-5.6363;
1216.8000;0.7025;-5.6389;
1217.1000;0.7049;-5.6441;
1217.4000;0.7025;-5.6545;
1217.7000;0.7017;-5.6545;
1218.0000;0.7041;-5.6519;
1218.3000;0.6952;-5.6726;
1218.6000;0.7041;-5.6545;
1218.9000;0.7033;-5.6597;
1219.2000;0.7009;-5.6674;
1219.5000;0.7033;-5.6545;
1219.8000;0.7033;-5.6545;
1220.1000;0.7033;-5.6571;
1220.4000;0.7025;-5.6519;
1220.7000;0.7017;-5.6545;
1221.0000;0.7009;-5.6493;
1221.3000;0.6992;-5.6545;
1221.6000;0.7025;-5.6441;
1221.9000;0.6968;-5.6597;
1222.2000;0.7025;-5.6493;
1222.5000;0.7025;-5.6493;
1222.8000;0.7009;-5.6545;
1223.1000;0.7033;-5.6441;
1223.4000;0.7025;-5.6467;
1223.7000;0.6960;-5.6622;
1224.0000;0.7025;-5.6519;
1224.3000;0.7017;-5.6571;
1224.6000;0.7025;-5.6519;
1224.9000;0.7025;-5.6389;
1225.2000;0.7017;-5.6467;
1225.5000;0.7009;-5.6441;
1225.8000;0.7017;-5.6493;
1226.1000;0.7041;-5.6493;
1226.4000;0.7017;-5.6571;
1226.7000;0.7033;-5.6493;
1227.0000;0.7025;-5.6493;
1227.3000;0.7025;-5.6519;
1227.6000;0.7017;-5.6519;
1227.9000;0.7025;-5.6571;
1228.2000;0.7009;-5.6571;
1228.5000;0.7041;-5.6441;
1228.8000;0.7000;-5.6493;
1229.1000;0.7017;-5.6441;
1229.4000;0.7017;-5.6493;
1229.7000;0.7033;-5.6493;
1230.0000;0.7017;-5.6545;
1230.3000;0.7000;-5.6493;
1230.6000;0.7000;-5.6545;
1230.9000;0.6976;-5.6648;
1231.2000;0.7017;-5.6519;
1231.5000;0.7000;-5.6467;
1231.8000;0.7017;-5.6493;
1232.1000;0.7017;-5.6545;
1232.4000;0.7033;-5.6571;
1232.7000;0.7025;-5.6648;
1233.0000;0.7017;-5.6622;
1233.3000;0.7017;-5.6545;
1233.6000;0.7033;-5.6519;
1233.9000;0.6984;-5.6571;
1234.2000;0.7057;-5.6286;
1234.5000;0.7025;-5.6415;
1234.8000;0.7033;-5.6415;
1235.1000;0.7017;-5.6493;
1235.4000;0.7000;-5.6467;
1235.7000;0.7017;-5.6519;
1236.0000;0.7033;-5.6571;
1236.3000;0.7009;-5.6622;
1236.6000;0.7025;-5.6545;
1236.9000;0.7009;-5.6545;
1237.2000;0.7009;-5.6493;
1237.5000;0.7025;-5.6389;
1237.8000;0.7017;-5.6441;
1238.1000;0.7025;-5.6493;
1238.4000;0.7025;-5.6467;
1238.7000;0.7025;-5.6441;
1239.0000;0.7041;-5.6467;
1239.3000;0.7057;-5.6389;
1239.6000;0.7033;-5.6415;
1239.9000;0.7041;-5.6389;
1240.2000;0.7017;-5.6493;
1240.5000;0.7066;-5.6441;
1240.8000;0.7017;-5.6467;
1241.1000;0.7025;-5.6415;
1241.4000;0.7025;-5.6467;
1241.7000;0.7041;-5.6493;
1242.0000;0.7025;-5.6622;
1242.3000;0.7017;-5.6571;
1242.6000;0.7033;-5.6519;
1242.9000;0.7090;-5.6415;
1243.2000;0.7025;-5.6571;
1243.5000;0.7033;-5.6519;
1243.8000;0.7033;-5.6363;
1244.1000;0.7033;-5.6260;
1244.4000;0.7025;-5.6337;
1244.7000;0.7009;-5.6337;
1245.0000;0.7041;-5.6312;
1245.3000;0.7025;-5.6234;
1245.6000;0.7017;-5.6208;
1245.9000;0.7017;-5.6208;
1246.2000;0.7009;-5.6208;
1246.5000;0.7025;-5.6208;
1246.8000;0.7025;-5.6286;
1247.1000;0.7017;-5.6312;
1247.4000;0.7033;-5.6286;
1247.7000;0.7033;-5.6286;
1248.0000;0.7041;-5.6208;
1248.3000;0.7033;-5.6234;
1248.6000;0.7025;-5.6234;
1248.9000;0.7025;-5.6234;
1249.2000;0.7041;-5.6312;
1249.5000;0.7017;-5.6363;
1249.8000;0.7017;-5.6441;
1250.1000;0.7025;-5.6312;
1250.4000;0.7025;-5.6363;
1250.7000;0.7017;-5.6312;
1251.0000;0.7017;-5.6337;
1251.3000;0.6992;-5.6493;
1251.6000;0.7009;-5.6337;
1251.9000;0.7000;-5.6312;
1252.2000;0.7017;-5.6260;
1252.5000;0.7017;-5.6260;
1252.8000;0.7017;-5.6208;
1253.1000;0.7009;-5.6286;
1253.4000;0.6976;-5.6337;
1253.7000;0.7090;-5.6078;
1254.0000;0.7033;-5.6312;
1254.3000;0.7009;-5.6337;
1254.6000;0.7009;-5.6312;
1254.9000;0.7025;-5.6312;
1255.2000;0.7025;-5.6286;
1255.5000;0.7009;-5.6312;
1255.8000;0.7033;-5.6260;
1256.1000;0.7025;-5.6260;
1256.4000;0.7025;-5.6312;
1256.7000;0.7025;-5.6389;
1257.0000;0.7025;-5.6363;
1257.3000;0.7041;-5.6260;
1257.6000;0.7017;-5.6286;
1257.9000;0.7041;-5.6208;
1258.2000;0.7033;-5.6337;
1258.5000;0.7009;-5.6312;
1258.8000;0.7017;-5.6312;
1259.1000;0.7017;-5.6337;
1259.4000;0.7041;-5.6337;
1259.7000;0.7025;-5.6389;
1260.0000;0.6992;-5.6415;
1260.3000;0.7009;-5.6337;
1260.6000;0.7009;-5.6312;
1260.9000;0.7009;-5.6337;
1261.2000;0.6992;-5.6389;
1261.5000;0.6976;-5.6389;
1261.8000;0.7017;-5.6312;
1262.1000;0.7009;-5.6389;
1262.4000;0.7009;-5.6337;
1262.7000;0.7017;-5.6312;
1263.0000;0.7025;-5.6337;
1263.3000;0.7041;-5.6389;
1263.6000;0.7033;-5.6363;
1263.9000;0.7025;-5.6312;
1264.2000;0.7033;-5.6260;
1264.5000;0.7041;-5.6260;
1264.8000;0.7057;-5.6182;
1265.1000;0.7033;-5.6286;
1265.4000;0.7041;-5.6363;
1265.7000;0.7041;-5.6363;
1266.0000;0.7025;-5.6389;
1266.3000;0.6984;-5.6571;
1266.6000;0.7017;-5.6441;
1266.9000;0.7017;-5.6415;
1267.2000;0.7009;-5.6415;
1267.5000;0.7009;-5.6441;
1267.8000;0.7025;-5.6389;
1268.1000;0.7017;-5.6337;
1268.4000;0.7017;-5.6337;
1268.7000;0.7025;-5.6363;
1269.0000;0.7017;-5.6363;
1269.3000;0.7009;-5.6467;
1269.6000;0.7017;-5.6467;
1269.9000;0.7017;-5.6337;
1270.2000;0.7017;-5.6337;
1270.5000;0.7017;-5.6363;
1270.8000;0.7017;-5.6363;
1271.1000;0.7025;-5.6337;
1271.4000;0.7000;-5.6415;
1271.7000;0.7049;-5.6337;
1272.0000;0.7017;-5.6337;
1272.3000;0.6976;-5.6337;
1272.6000;0.7017;-5.6182;
1272.9000;0.7000;-5.6208;
1273.2000;0.6992;-5.6337;
1273.5000;0.7025;-5.6312;
1273.8000;0.7025;-5.6337;
1274.1000;0.7033;-5.6363;
1274.4000;0.7017;-5.6337;
1274.7000;0.7017;-5.6286;
1275.0000;0.7009;-5.6234;
1275.3000;0.7041;-5.6182;
1275.6000;0.7025;-5.6182;
1275.9000;0.7057;-5.6182;
1276.2000;0.7033;-5.6234;
1276.5000;0.7009;-5.6286;
1276.8000;0.6992;-5.6363;
1277.1000;0.6992;-5.6389;
1277.4000;0.7057;-5.6156;
1277.7000;0.7009;-5.6208;
1278.0000;0.7009;-5.6130;
1278.3000;0.7025;-5.6156;
1278.6000;0.7017;-5.6156;
1278.9000;0.7017;-5.6130;
1279.2000;0.7009;-5.6130;
1279.5000;0.7009;-5.6027;
1279.8000;0.7041;-5.5975;
1280.1000;0.7009;-5.6104;
1280.4000;0.7000;-5.6104;
1280.7000;0.7000;-5.6104;
1281.0000;0.7017;-5.6078;
1281.3000;0.6992;-5.6104;
1281.6000;0.6992;-5.6182;
1281.9000;0.7017;-5.6182;
1282.2000;0.7033;-5.6208;
1282.5000;0.7009;-5.6286;
1282.8000;0.7000;-5.6234;
1283.1000;0.7025;-5.6234;
1283.4000;0.6984;-5.6337;
1283.7000;0.7017;-5.6208;
1284.0000;0.7000;-5.6286;
1284.3000;0.7066;-5.6208;
1284.6000;0.7025;-5.6337;
1284.9000;0.7025;-5.6337;
1285.2000;0.6992;-5.6467;
1285.5000;0.7025;-5.6415;
1285.8000;0.7033;-5.6363;
1286.1000;0.7017;-5.6363;
1286.4000;0.7049;-5.6260;
1286.7000;0.7009;-5.6312;
1287.0000;0.7009;-5.6337;
1287.3000;0.7009;-5.6363;
1287.6000;0.7000;-5.6337;
1287.9000;0.7017;-5.6312;
1288.2000;0.7009;-5.6286;
1288.5000;0.7025;-5.6182;
1288.8000;0.7009;-5.6286;
1289.1000;0.7000;-5.6363;
1289.4000;0.7000;-5.6363;
1289.7000;0.7009;-5.6363;
1290.0000;0.7025;-5.6337;
1290.3000;0.6984;-5.6441;
1290.6000;0.7009;-5.6389;
1290.9000;0.6984;-5.6441;
1291.2000;0.7009;-5.6337;
1291.5000;0.7025;-5.6441;
1291.8000;0.7000;-5.6441;
1292.1000;0.6984;-5.6467;
1292.4000;0.7017;-5.6286;
1292.7000;0.7017;-5.6337;
1293.0000;0.7041;-5.6312;
1293.3000;0.7017;-5.6337;
1293.6000;0.7000;-5.6389;
1293.9000;0.6984;-5.6467;
1294.2000;0.7009;-5.6415;
1294.5000;0.7009;-5.6493;
1294.8000;0.7009;-5.6519;
1295.1000;0.7017;-5.6493;
1295.4000;0.7009;-5.6493;
1295.7000;0.7009;-5.6467;
1296.0000;0.7033;-5.6493;
1296.3000;0.7033;-5.6545;
1296.6000;0.7009;-5.6545;
1296.9000;0.6968;-5.6674;
1297.2000;0.7025;-5.6571;
1297.5000;0.7017;-5.6493;
1297.8000;0.7017;-5.6389;
1298.1000;0.7009;-5.6415;
1298.4000;0.7009;-5.6389;
1298.7000;0.7000;-5.6467;
1299.0000;0.7000;-5.6493;
1299.3000;0.6984;-5.6441;
1299.6000;0.7009;-5.6312;
1299.9000;0.7009;-5.6286;
1300.2000;0.7017;-5.6312;
1300.5000;0.7009;-5.6337;
1300.8000;0.6968;-5.6441;
1301.1000;0.7009;-5.6286;
1301.4000;0.7017;-5.6312;
1301.7000;0.7009;-5.6363;
1302.0000;0.6984;-5.6363;
1302.3000;0.7057;-5.6182;
1302.6000;0.7009;-5.6312;
1302.9000;0.7009;-5.6312;
1303.2000;0.7000;-5.6337;
1303.5000;0.6992;-5.6312;
1303.8000;0.6992;-5.6363;
1304.1000;0.7000;-5.6415;
1304.4000;0.7009;-5.6415;
1304.7000;0.7025;-5.6415;
1305.0000;0.6992;-5.6493;
1305.3000;0.7009;-5.6467;
1305.6000;0.7000;-5.6467;
1305.9000;0.7025;-5.6441;
1306.2000;0.7017;-5.6493;
1306.5000;0.7017;-5.6493;
1306.8000;0.7017;-5.6519;
1307.1000;0.7009;-5.6519;
1307.4000;0.7033;-5.6441;
1307.7000;0.7009;-5.6545;
1308.0000;0.7000;-5.6545;
1308.3000;0.7049;-5.6363;
1308.6000;0.7000;-5.6519;
1308.9000;0.7000;-5.6597;
1309.2000;0.7049;-5.6493;
1309.5000;0.7009;-5.6622;
1309.8000;0.6984;-5.6597;
1310.1000;0.6992;-5.6571;
1310.4000;0.7000;-5.6545;
1310.7000;0.7017;-5.6441;
1311.0000;0.7000;-5.6415;
1311.3000;0.7000;-5.6337;
1311.6000;0.7033;-5.6182;
1311.9000;0.7009;-5.6260;
1312.2000;0.6992;-5.6208;
1312.5000;0.6992;-5.6182;
1312.8000;0.6976;-5.6260;
1313.1000;0.7000;-5.6260;
1313.4000;0.7000;-5.6363;
1313.7000;0.6992;-5.6337;
1314.0000;0.7009;-5.6363;
1314.3000;0.7009;-5.6363;
1314.6000;0.7009;-5.6441;
1314.9000;0.6968;-5.6545;
1315.2000;0.7000;-5.6467;
1315.5000;0.7017;-5.6415;
1315.8000;0.6984;-5.6415;
1316.1000;0.6992;-5.6286;
1316.4000;0.6992;-5.6260;
1316.7000;0.6992;-5.6286;
1317.0000;0.6992;-5.6312;
1317.3000;0.7009;-5.6389;
1317.6000;0.7041;-5.6337;
1317.9000;0.7049;-5.6260;
1318.2000;0.7009;-5.6441;
1318.5000;0.7017;-5.6441;
1318.8000;0.7000;-5.6363;
1319.1000;0.7000;-5.6389;
1319.4000;0.6984;-5.6467;
1319.7000;0.7009;-5.6312;
1320.0000;0.7000;-5.6337;
1320.3000;0.7066;-5.6208;
1320.6000;0.7025;-5.6260;
1320.9000;0.7017;-5.6260;
1321.2000;0.7041;-5.6208;
1321.5000;0.7017;-5.6260;
1321.8000;0.7017;-5.6260;
1322.1000;0.7009;-5.6260;
1322.4000;0.7025;-5.6260;
1322.7000;0.6992;-5.6286;
1323.0000;0.7000;-5.6234;
1323.3000;0.7009;-5.6337;
1323.6000;0.6984;-5.6337;
1323.9000;0.7000;-5.6286;
1324.2000;0.7009;-5.6286;
1324.5000;0.7009;-5.6234;
1324.8000;0.6992;-5.6156;
1325.1000;0.7000;-5.6208;
1325.4000;0.6992;-5.6260;
1325.7000;0.7025;-5.6234;
1326.0000;0.7017;-5.6260;
1326.3000;0.6992;-5.6208;
1326.6000;0.7017;-5.6208;
1326.9000;0.6943;-5.6441;
1327.2000;0.7017;-5.6286;
1327.5000;0.7000;-5.6337;
1327.8000;0.7025;-5.6337;
1328.1000;0.7000;-5.6519;
1328.4000;0.7009;-5.6545;
1328.7000;0.7000;-5.6545;
1329.0000;0.7017;-5.6415;
1329.3000;0.7009;-5.6415;
1329.6000;0.7017;-5.6363;
1329.9000;0.7009;-5.6363;
1330.2000;0.6992;-5.6415;
1330.5000;0.7000;-5.6467;
1330.8000;0.7017;-5.6415;
1331.1000;0.7009;-5.6389;
1331.4000;0.7000;-5.6363;
1331.7000;0.7025;-5.6312;
1332.0000;0.7000;-5.6260;
1332.3000;0.7009;-5.6337;
1332.6000;0.7000;-5.6286;
1332.9000;0.7009;-5.6286;
1333.2000;0.7000;-5.6337;
1333.5000;0.7009;-5.6337;
1333.8000;0.7000;-5.6337;
1334.1000;0.6984;-5.6415;
1334.4000;0.6984;-5.6337;
1334.7000;0.7000;-5.6312;
1335.0000;0.7017;-5.6337;
1335.3000;0.7017;-5.6337;
1335.6000;0.7009;-5.6389;
1335.9000;0.7098;-5.6234;
1336.2000;0.7009;-5.6363;
1336.5000;0.7000;-5.6441;
1336.8000;0.7000;-5.6415;
1337.1000;0.7033;-5.6441;
1337.4000;0.6992;-5.6519;
1337.7000;0.7057;-5.6467;
1338.0000;0.7025;-5.6597;
1338.3000;0.6992;-5.6622;
1338.6000;0.6992;-5.6700;
1338.9000;0.7000;-5.6674;
1339.2000;0.6984;-5.6674;
1339.5000;0.7009;-5.6597;
1339.8000;0.7009;-5.6493;
1340.1000;0.7000;-5.6441;
1340.4000;0.7000;-5.6467;
1340.7000;0.7009;-5.6441;
1341.0000;0.7000;-5.6493;
1341.3000;0.7009;-5.6441;
1341.6000;0.7017;-5.6467;
1341.9000;0.7049;-5.6312;
1342.2000;0.6984;-5.6415;
1342.5000;0.7009;-5.6337;
1342.8000;0.6992;-5.6312;
1343.1000;0.7009;-5.6208;
1343.4000;0.7009;-5.6260;
1343.7000;0.6992;-5.6337;
1344.0000;0.6992;-5.6415;
1344.3000;0.6992;-5.6312;
1344.6000;0.7017;-5.6312;
1344.9000;0.7000;-5.6312;
1345.2000;0.7017;-5.6286;
1345.5000;0.7009;-5.6286;
1345.8000;0.7000;-5.6208;
1346.1000;0.7009;-5.6156;
1346.4000;0.7000;-5.6234;
1346.7000;0.7000;-5.6182;
1347.0000;0.7009;-5.6104;
1347.3000;0.7009;-5.6130;
1347.6000;0.6992;-5.6208;
1347.9000;0.7017;-5.6156;
1348.2000;0.7000;-5.6182;
1348.5000;0.7000;-5.6208;
1348.8000;0.7033;-5.6156;
1349.1000;0.6984;-5.6234;
1349.4000;0.7009;-5.6208;
1349.7000;0.6992;-5.6208;
1350.0000;0.7000;-5.6234;
1350.3000;0.7009;-5.6260;
1350.6000;0.6992;-5.6337;
1350.9000;0.7009;-5.6389;
1351.2000;0.7009;-5.6312;
1351.5000;0.7009;-5.6260;
1351.8000;0.6992;-5.6260;
1352.1000;0.6943;-5.6363;
1352.4000;0.7009;-5.6130;
1352.7000;0.7000;-5.6078;
1353.0000;0.7000;-5.5975;
1353.3000;0.6984;-5.6104;
1353.6000;0.7017;-5.6053;
1353.9000;0.6992;-5.6208;
1354.2000;0.7009;-5.6156;
1354.5000;0.7017;-5.6104;
1354.8000;0.7009;-5.6130;
1355.1000;0.7074;-5.5949;
1355.4000;0.7017;-5.6078;
1355.7000;0.7017;-5.6208;
1356.0000;0.6992;-5.6363;
1356.3000;0.7066;-5.6208;
1356.6000;0.6952;-5.6441;
1356.9000;0.6984;-5.6415;
1357.2000;0.6984;-5.6441;
1357.5000;0.7009;-5.6441;
1357.8000;0.6935;-5.6597;
1358.1000;0.6952;-5.6597;
1358.4000;0.7000;-5.6493;
1358.7000;0.7000;-5.6312;
1359.0000;0.6992;-5.6234;
1359.3000;0.6992;-5.6182;
1359.6000;0.6927;-5.6337;
1359.9000;0.6992;-5.6234;
1360.2000;0.6992;-5.6234;
1360.5000;0.7000;-5.6234;
1360.8000;0.7000;-5.6260;
1361.1000;0.7017;-5.6208;
1361.4000;0.7017;-5.6363;
1361.7000;0.7000;-5.6415;
1362.0000;0.6960;-5.6493;
1362.3000;0.6984;-5.6389;
1362.6000;0.7000;-5.6493;
1362.9000;0.7017;-5.6519;
1363.2000;0.6992;-5.6597;
1363.5000;0.7000;-5.6571;
1363.8000;0.7017;-5.6545;
1364.1000;0.6992;-5.6519;
1364.4000;0.7009;-5.6441;
1364.7000;0.6968;-5.6519;
1365.0000;0.6976;-5.6363;
1365.3000;0.6992;-5.6389;
1365.6000;0.7000;-5.6389;
1365.9000;0.6984;-5.6441;
1366.2000;0.7009;-5.6389;
1366.5000;0.6992;-5.6363;
1366.8000;0.7000;-5.6415;
1367.1000;0.7000;-5.6363;
1367.4000;0.6992;-5.6363;
1367.7000;0.7009;-5.6363;
1368.0000;0.7017;-5.6389;
1368.3000;0.6992;-5.6441;
1368.6000;0.7009;-5.6415;
1368.9000;0.6992;-5.6493;
1369.2000;0.6952;-5.6545;
1369.5000;0.7009;-5.6389;
1369.8000;0.7009;-5.6286;
1370.1000;0.7000;-5.6260;
1370.4000;0.7017;-5.6260;
1370.7000;0.6992;-5.6234;
1371.0000;0.7000;-5.6286;
1371.3000;0.6992;-5.6312;
1371.6000;0.7009;-5.6363;
1371.9000;0.6992;-5.6415;
1372.2000;0.7000;-5.6389;
1372.5000;0.7017;-5.6337;
1372.8000;0.7009;-5.6337;
1373.1000;0.7017;-5.6312;
1373.4000;0.7009;-5.6312;
1373.7000;0.7017;-5.6363;
1374.0000;0.7057;-5.6260;
1374.3000;0.7009;-5.6389;
1374.6000;0.7009;-5.6389;
1374.9000;0.6992;-5.6441;
1375.2000;0.7000;-5.6337;
1375.5000;0.7017;-5.6389;
1375.8000;0.7009;-5.6337;
1376.1000;0.7025;-5.6363;
1376.4000;0.7000;-5.6389;
1376.7000;0.7009;-5.6312;
1377.0000;0.7009;-5.6312;
1377.3000;0.7033;-5.6208;
1377.6000;0.6992;-5.6260;
1377.9000;0.6992;-5.6260;
1378.2000;0.6952;-5.6312;
1378.5000;0.6952;-5.6389;
1378.8000;0.7000;-5.6260;
1379.1000;0.7049;-5.6208;
1379.4000;0.7017;-5.6260;
1379.7000;0.6984;-5.6312;
1380.0000;0.6984;-5.6286;
1380.3000;0.7000;-5.6260;
1380.6000;0.6992;-5.6234;
1380.9000;0.7017;-5.6182;
1381.2000;0.6992;-5.6208;
1381.5000;0.6976;-5.6208;
1381.8000;0.7000;-5.6234;
1382.1000;0.7000;-5.6312;
1382.4000;0.6992;-5.6337;
1382.7000;0.6960;-5.6415;
1383.0000;0.6984;-5.6363;
1383.3000;0.7017;-5.6312;
1383.6000;0.6968;-5.6363;
1383.9000;0.7017;-5.6286;
1384.2000;0.7000;-5.6286;
1384.5000;0.6984;-5.6208;
1384.8000;0.7000;-5.6130;
1385.1000;0.7000;-5.6182;
1385.4000;0.6992;-5.6260;
1385.7000;0.6976;-5.6337;
1386.0000;0.7000;-5.6234;
1386.3000;0.6984;-5.6260;
1386.6000;0.6984;-5.6286;
1386.9000;0.7000;-5.6182;
1387.2000;0.6984;-5.6182;
1387.5000;0.6984;-5.6286;
1387.8000;0.6935;-5.6415;
1388.1000;0.7009;-5.6312;
1388.4000;0.7041;-5.6312;
1388.7000;0.7000;-5.6337;
1389.0000;0.6976;-5.6519;
1389.3000;0.7000;-5.6441;
1389.6000;0.7000;-5.6441;
1389.9000;0.6992;-5.6441;
1390.2000;0.6992;-5.6441;
1390.5000;0.6992;-5.6441;
1390.8000;0.7000;-5.6363;
1391.1000;0.7033;-5.6286;
1391.4000;0.7033;-5.6337;
1391.7000;0.6992;-5.6389;
1392.0000;0.6984;-5.6286;
1392.3000;0.7000;-5.6312;
1392.6000;0.7000;-5.6337;
1392.9000;0.6968;-5.6441;
1393.2000;0.7057;-5.6234;
1393.5000;0.6984;-5.6415;
1393.8000;0.7017;-5.6363;
1394.1000;0.6992;-5.6389;
1394.4000;0.7017;-5.6337;
1394.7000;0.6976;-5.6312;
1395.0000;0.7009;-5.6234;
1395.3000;0.7000;-5.6234;
1395.6000;0.6992;-5.6234;
1395.9000;0.7000;-5.6312;
1396.2000;0.7009;-5.6389;
1396.5000;0.6984;-5.6493;
1396.8000;0.6976;-5.6493;
1397.1000;0.7009;-5.6389;
1397.4000;0.7000;-5.6337;
1397.7000;0.7009;-5.6337;
1398.0000;0.7000;-5.6389;
1398.3000;0.7000;-5.6441;
1398.6000;0.7000;-5.6363;
1398.9000;0.6960;-5.6571;
1399.2000;0.7000;-5.6441;
1399.5000;0.6992;-5.6363;
1399.8000;0.6943;-5.6493;
