time/ms;Fluo/V;P700 deltaI/I x10³;
-199.8000;0.6382;-5.6130;
-199.5000;0.6349;-5.6208;
-199.2000;0.6333;-5.6130;
-198.9000;0.6374;-5.6027;
-198.6000;0.6365;-5.6027;
-198.3000;0.6341;-5.6104;
-198.0000;0.6341;-5.6078;
-197.7000;0.6349;-5.6130;
-197.4000;0.6341;-5.6130;
-197.1000;0.6349;-5.6208;
-196.8000;0.6357;-5.6234;
-196.5000;0.6349;-5.6260;
-196.2000;0.6349;-5.6208;
-195.9000;0.6365;-5.6182;
-195.6000;0.6349;-5.6260;
-195.3000;0.6341;-5.6208;
-195.0000;0.6357;-5.6234;
-194.7000;0.6341;-5.6260;
-194.4000;0.6333;-5.6182;
-194.1000;0.6325;-5.6156;
-193.8000;0.6431;-5.5975;
-193.5000;0.6341;-5.6104;
-193.2000;0.6349;-5.6027;
-192.9000;0.6341;-5.6001;
-192.6000;0.6341;-5.6053;
-192.3000;0.6357;-5.6078;
-192.0000;0.6333;-5.6104;
-191.7000;0.6349;-5.6156;
-191.4000;0.6349;-5.6104;
-191.1000;0.6341;-5.6156;
-190.8000;0.6349;-5.6078;
-190.5000;0.6317;-5.6104;
-190.2000;0.6325;-5.6053;
-189.9000;0.6374;-5.5975;
-189.6000;0.6341;-5.6104;
-189.3000;0.6333;-5.6208;
-189.0000;0.6333;-5.6182;
-188.7000;0.6349;-5.6182;
-188.4000;0.6341;-5.6182;
-188.1000;0.6292;-5.6286;
-187.8000;0.6333;-5.6182;
-187.5000;0.6341;-5.6130;
-187.2000;0.6333;-5.6130;
-186.9000;0.6341;-5.6156;
-186.6000;0.6357;-5.6182;
-186.3000;0.6349;-5.6286;
-186.0000;0.6349;-5.6337;
-185.7000;0.6349;-5.6286;
-185.4000;0.6349;-5.6286;
-185.1000;0.6284;-5.6467;
-184.8000;0.6357;-5.6312;
-184.5000;0.6284;-5.6467;
-184.2000;0.6325;-5.6467;
-183.9000;0.6349;-5.6415;
-183.6000;0.6333;-5.6337;
-183.3000;0.6357;-5.6337;
-183.0000;0.6309;-5.6441;
-182.7000;0.6341;-5.6312;
-182.4000;0.6357;-5.6312;
-182.1000;0.6357;-5.6286;
-181.8000;0.6341;-5.6337;
-181.5000;0.6341;-5.6182;
-181.2000;0.6333;-5.6130;
-180.9000;0.6341;-5.6104;
-180.6000;0.6349;-5.6208;
-180.3000;0.6357;-5.6182;
-180.0000;0.6325;-5.6182;
-179.7000;0.6325;-5.6234;
-179.4000;0.6325;-5.6156;
-179.1000;0.6309;-5.6156;
-178.8000;0.6333;-5.6104;
-178.5000;0.6349;-5.6053;
-178.2000;0.6349;-5.6104;
-177.9000;0.6341;-5.6182;
-177.6000;0.6325;-5.6286;
-177.3000;0.6325;-5.6312;
-177.0000;0.6349;-5.6260;
-176.7000;0.6341;-5.6260;
-176.4000;0.6333;-5.6260;
-176.1000;0.6349;-5.6260;
-175.8000;0.6422;-5.6104;
-175.5000;0.6333;-5.6286;
-175.2000;0.6341;-5.6363;
-174.9000;0.6333;-5.6493;
-174.6000;0.6341;-5.6493;
-174.3000;0.6341;-5.6389;
-174.0000;0.6333;-5.6415;
-173.7000;0.6333;-5.6441;
-173.4000;0.6349;-5.6415;
-173.1000;0.6357;-5.6363;
-172.8000;0.6333;-5.6363;
-172.5000;0.6341;-5.6312;
-172.2000;0.6333;-5.6389;
-171.9000;0.6333;-5.6337;
-171.6000;0.6357;-5.6286;
-171.3000;0.6341;-5.6260;
-171.0000;0.6309;-5.6312;
-170.7000;0.6357;-5.6156;
-170.4000;0.6341;-5.6260;
-170.1000;0.6333;-5.6337;
-169.8000;0.6365;-5.6260;
-169.5000;0.6341;-5.6363;
-169.2000;0.6341;-5.6286;
-168.9000;0.6325;-5.6260;
-168.6000;0.6333;-5.6234;
-168.3000;0.6341;-5.6182;
-168.0000;0.6349;-5.6182;
-167.7000;0.6333;-5.6208;
-167.4000;0.6341;-5.6234;
-167.1000;0.6357;-5.6208;
-166.8000;0.6333;-5.6337;
-166.5000;0.6349;-5.6312;
-166.2000;0.6349;-5.6363;
-165.9000;0.6341;-5.6286;
-165.6000;0.6357;-5.6312;
-165.3000;0.6382;-5.6234;
-165.0000;0.6349;-5.6312;
-164.7000;0.6325;-5.6415;
-164.4000;0.6357;-5.6312;
-164.1000;0.6357;-5.6260;
-163.8000;0.6325;-5.6286;
-163.5000;0.6374;-5.6182;
-163.2000;0.6333;-5.6208;
-162.9000;0.6349;-5.6182;
-162.6000;0.6341;-5.6182;
-162.3000;0.6325;-5.6234;
-162.0000;0.6325;-5.6156;
-161.7000;0.6341;-5.6130;
-161.4000;0.6333;-5.6104;
-161.1000;0.6341;-5.6053;
-160.8000;0.6341;-5.6027;
-160.5000;0.6317;-5.6078;
-160.2000;0.6341;-5.6078;
-159.9000;0.6333;-5.5975;
-159.6000;0.6333;-5.5975;
-159.3000;0.6333;-5.6027;
-159.0000;0.6357;-5.6053;
-158.7000;0.6325;-5.6027;
-158.4000;0.6309;-5.6104;
-158.1000;0.6365;-5.6001;
-157.8000;0.6349;-5.6130;
-157.5000;0.6341;-5.6156;
-157.2000;0.6341;-5.6234;
-156.9000;0.6333;-5.6286;
-156.6000;0.6357;-5.6260;
-156.3000;0.6333;-5.6208;
-156.0000;0.6398;-5.6027;
-155.7000;0.6325;-5.6104;
-155.4000;0.6341;-5.6104;
-155.1000;0.6325;-5.6156;
-154.8000;0.6341;-5.6130;
-154.5000;0.6333;-5.6156;
-154.2000;0.6333;-5.6182;
-153.9000;0.6325;-5.6312;
-153.6000;0.6341;-5.6182;
-153.3000;0.6341;-5.6078;
-153.0000;0.6349;-5.6078;
-152.7000;0.6357;-5.6027;
-152.4000;0.6325;-5.6104;
-152.1000;0.6341;-5.6182;
-151.8000;0.6325;-5.6156;
-151.5000;0.6349;-5.6053;
-151.2000;0.6325;-5.6208;
-150.9000;0.6333;-5.6234;
-150.6000;0.6317;-5.6208;
-150.3000;0.6333;-5.6182;
-150.0000;0.6325;-5.6208;
-149.7000;0.6398;-5.6053;
-149.4000;0.6325;-5.6208;
-149.1000;0.6325;-5.6104;
-148.8000;0.6333;-5.6156;
-148.5000;0.6309;-5.6234;
-148.2000;0.6317;-5.6234;
-147.9000;0.6341;-5.6234;
-147.6000;0.6349;-5.6130;
-147.3000;0.6333;-5.6208;
-147.0000;0.6333;-5.6156;
-146.7000;0.6333;-5.6130;
-146.4000;0.6349;-5.6130;
-146.1000;0.6349;-5.6053;
-145.8000;0.6357;-5.6027;
-145.5000;0.6333;-5.5975;
-145.2000;0.6349;-5.5949;
-144.9000;0.6341;-5.5975;
-144.6000;0.6333;-5.5897;
-144.3000;0.6309;-5.5975;
-144.0000;0.6317;-5.5949;
-143.7000;0.6333;-5.5975;
-143.4000;0.6374;-5.6053;
-143.1000;0.6333;-5.6130;
-142.8000;0.6349;-5.6130;
-142.5000;0.6333;-5.6182;
-142.2000;0.6349;-5.6208;
-141.9000;0.6374;-5.6182;
-141.6000;0.6325;-5.6337;
-141.3000;0.6365;-5.6156;
-141.0000;0.6357;-5.6156;
-140.7000;0.6341;-5.6208;
-140.4000;0.6341;-5.6234;
-140.1000;0.6341;-5.6234;
-139.8000;0.6341;-5.6312;
-139.5000;0.6341;-5.6286;
-139.2000;0.6317;-5.6208;
-138.9000;0.6349;-5.6078;
-138.6000;0.6317;-5.6130;
-138.3000;0.6341;-5.6078;
-138.0000;0.6333;-5.6130;
-137.7000;0.6341;-5.6130;
-137.4000;0.6349;-5.6182;
-137.1000;0.6292;-5.6312;
-136.8000;0.6341;-5.6234;
-136.5000;0.6349;-5.6234;
-136.2000;0.6374;-5.6208;
-135.9000;0.6349;-5.6182;
-135.6000;0.6333;-5.6286;
-135.3000;0.6341;-5.6286;
-135.0000;0.6349;-5.6260;
-134.7000;0.6349;-5.6208;
-134.4000;0.6341;-5.6156;
-134.1000;0.6349;-5.6130;
-133.8000;0.6357;-5.6078;
-133.5000;0.6357;-5.6053;
-133.2000;0.6341;-5.6130;
-132.9000;0.6333;-5.6078;
-132.6000;0.6317;-5.6053;
-132.3000;0.6341;-5.6027;
-132.0000;0.6333;-5.6104;
-131.7000;0.6325;-5.6260;
-131.4000;0.6325;-5.6363;
-131.1000;0.6317;-5.6493;
-130.8000;0.6333;-5.6545;
-130.5000;0.6317;-5.6467;
-130.2000;0.6325;-5.6363;
-129.9000;0.6317;-5.6441;
-129.6000;0.6349;-5.6441;
-129.3000;0.6341;-5.6389;
-129.0000;0.6414;-5.6182;
-128.7000;0.6349;-5.6337;
-128.4000;0.6431;-5.6027;
-128.1000;0.6349;-5.6182;
-127.8000;0.6317;-5.6260;
-127.5000;0.6357;-5.6208;
-127.2000;0.6341;-5.6234;
-126.9000;0.6333;-5.6156;
-126.6000;0.6349;-5.6104;
-126.3000;0.6333;-5.6156;
-126.0000;0.6349;-5.6130;
-125.7000;0.6341;-5.6130;
-125.4000;0.6333;-5.6208;
-125.1000;0.6341;-5.6156;
-124.8000;0.6349;-5.6156;
-124.5000;0.6333;-5.6208;
-124.2000;0.6349;-5.6182;
-123.9000;0.6349;-5.6234;
-123.6000;0.6341;-5.6260;
-123.3000;0.6365;-5.6156;
-123.0000;0.6333;-5.6260;
-122.7000;0.6325;-5.6130;
-122.4000;0.6333;-5.6078;
-122.1000;0.6325;-5.6078;
-121.8000;0.6333;-5.6104;
-121.5000;0.6333;-5.6130;
-121.2000;0.6341;-5.6130;
-120.9000;0.6349;-5.6053;
-120.6000;0.6309;-5.6208;
-120.3000;0.6349;-5.6156;
-120.0000;0.6309;-5.6182;
-119.7000;0.6357;-5.6078;
-119.4000;0.6349;-5.6078;
-119.1000;0.6349;-5.6053;
-118.8000;0.6357;-5.6027;
-118.5000;0.6341;-5.6078;
-118.2000;0.6333;-5.6182;
-117.9000;0.6333;-5.6182;
-117.6000;0.6317;-5.6260;
-117.3000;0.6365;-5.6130;
-117.0000;0.6341;-5.6286;
-116.7000;0.6341;-5.6312;
-116.4000;0.6317;-5.6441;
-116.1000;0.6333;-5.6389;
-115.8000;0.6333;-5.6415;
-115.5000;0.6341;-5.6312;
-115.2000;0.6309;-5.6389;
-114.9000;0.6349;-5.6312;
-114.6000;0.6325;-5.6312;
-114.3000;0.6365;-5.6234;
-114.0000;0.6333;-5.6286;
-113.7000;0.6357;-5.6130;
-113.4000;0.6341;-5.6078;
-113.1000;0.6341;-5.6027;
-112.8000;0.6341;-5.5975;
-112.5000;0.6333;-5.6001;
-112.2000;0.6317;-5.6001;
-111.9000;0.6341;-5.5975;
-111.6000;0.6333;-5.5949;
-111.3000;0.6325;-5.6078;
-111.0000;0.6414;-5.5949;
-110.7000;0.6365;-5.6001;
-110.4000;0.6349;-5.6104;
-110.1000;0.6325;-5.6104;
-109.8000;0.6325;-5.6078;
-109.5000;0.6333;-5.6027;
-109.2000;0.6341;-5.5949;
-108.9000;0.6341;-5.5975;
-108.6000;0.6333;-5.5949;
-108.3000;0.6333;-5.6001;
-108.0000;0.6357;-5.5975;
-107.7000;0.6341;-5.5949;
-107.4000;0.6341;-5.5949;
-107.1000;0.6333;-5.5975;
-106.8000;0.6349;-5.5923;
-106.5000;0.6341;-5.5923;
-106.2000;0.6341;-5.5949;
-105.9000;0.6325;-5.6053;
-105.6000;0.6325;-5.5975;
-105.3000;0.6341;-5.6027;
-105.0000;0.6333;-5.6104;
-104.7000;0.6325;-5.6130;
-104.4000;0.6309;-5.6234;
-104.1000;0.6341;-5.6182;
-103.8000;0.6333;-5.6260;
-103.5000;0.6325;-5.6337;
-103.2000;0.6341;-5.6234;
-102.9000;0.6365;-5.6234;
-102.6000;0.6349;-5.6182;
-102.3000;0.6365;-5.6078;
-102.0000;0.6309;-5.6130;
-101.7000;0.6333;-5.6078;
-101.4000;0.6243;-5.6260;
-101.1000;0.6341;-5.6078;
-100.8000;0.6325;-5.6130;
-100.5000;0.6333;-5.6156;
-100.2000;0.6390;-5.6078;
-99.9000;0.6333;-5.6208;
-99.6000;0.6333;-5.6104;
-99.3000;0.6268;-5.6078;
-99.0000;0.6325;-5.6001;
-98.7000;0.6349;-5.6001;
-98.4000;0.6422;-5.5768;
-98.1000;0.6325;-5.5975;
-97.8000;0.6349;-5.6001;
-97.5000;0.6374;-5.6001;
-97.2000;0.6309;-5.6156;
-96.9000;0.6333;-5.6156;
-96.6000;0.6325;-5.6130;
-96.3000;0.6333;-5.6156;
-96.0000;0.6317;-5.6182;
-95.7000;0.6325;-5.6208;
-95.4000;0.6325;-5.6286;
-95.1000;0.6341;-5.6260;
-94.8000;0.6333;-5.6260;
-94.5000;0.6333;-5.6415;
-94.2000;0.6341;-5.6337;
-93.9000;0.6325;-5.6363;
-93.6000;0.6341;-5.6182;
-93.3000;0.6374;-5.6130;
-93.0000;0.6357;-5.6182;
-92.7000;0.6325;-5.6286;
-92.4000;0.6300;-5.6337;
-92.1000;0.6341;-5.6312;
-91.8000;0.6341;-5.6337;
-91.5000;0.6309;-5.6337;
-91.2000;0.6365;-5.6130;
-90.9000;0.6325;-5.6234;
-90.6000;0.6317;-5.6234;
-90.3000;0.6390;-5.5923;
-90.0000;0.6325;-5.6104;
-89.7000;0.6325;-5.6104;
-89.4000;0.6341;-5.6078;
-89.1000;0.6284;-5.6234;
-88.8000;0.6333;-5.6078;
-88.5000;0.6341;-5.6027;
-88.2000;0.6333;-5.6027;
-87.9000;0.6349;-5.6053;
-87.6000;0.6333;-5.6078;
-87.3000;0.6341;-5.6078;
-87.0000;0.6333;-5.6104;
-86.7000;0.6333;-5.6104;
-86.4000;0.6341;-5.6156;
-86.1000;0.6333;-5.6130;
-85.8000;0.6284;-5.6286;
-85.5000;0.6325;-5.6234;
-85.2000;0.6357;-5.6130;
-84.9000;0.6333;-5.6260;
-84.6000;0.6325;-5.6286;
-84.3000;0.6333;-5.6234;
-84.0000;0.6325;-5.6234;
-83.7000;0.6333;-5.6208;
-83.4000;0.6333;-5.6182;
-83.1000;0.6325;-5.6260;
-82.8000;0.6341;-5.6156;
-82.5000;0.6325;-5.6156;
-82.2000;0.6349;-5.6260;
-81.9000;0.6341;-5.6286;
-81.6000;0.6333;-5.6260;
-81.3000;0.6309;-5.6260;
-81.0000;0.6333;-5.6182;
-80.7000;0.6333;-5.6156;
-80.4000;0.6349;-5.6078;
-80.1000;0.6349;-5.6130;
-79.8000;0.6349;-5.6156;
-79.5000;0.6333;-5.6234;
-79.2000;0.6333;-5.6312;
-78.9000;0.6390;-5.6156;
-78.6000;0.6349;-5.6260;
-78.3000;0.6422;-5.6078;
-78.0000;0.6300;-5.6286;
-77.7000;0.6333;-5.6260;
-77.4000;0.6341;-5.6260;
-77.1000;0.6341;-5.6260;
-76.8000;0.6325;-5.6260;
-76.5000;0.6317;-5.6286;
-76.2000;0.6292;-5.6389;
-75.9000;0.6333;-5.6234;
-75.6000;0.6325;-5.6156;
-75.3000;0.6333;-5.6182;
-75.0000;0.6333;-5.6156;
-74.7000;0.6333;-5.6156;
-74.4000;0.6325;-5.6182;
-74.1000;0.6325;-5.6130;
-73.8000;0.6341;-5.6156;
-73.5000;0.6341;-5.6104;
-73.2000;0.6341;-5.6130;
-72.9000;0.6341;-5.6156;
-72.6000;0.6317;-5.6208;
-72.3000;0.6341;-5.6156;
-72.0000;0.6333;-5.6104;
-71.7000;0.6357;-5.6053;
-71.4000;0.6333;-5.6078;
-71.1000;0.6325;-5.6104;
-70.8000;0.6325;-5.6130;
-70.5000;0.6317;-5.6182;
-70.2000;0.6325;-5.6182;
-69.9000;0.6357;-5.6156;
-69.6000;0.6341;-5.6208;
-69.3000;0.6325;-5.6182;
-69.0000;0.6333;-5.6104;
-68.7000;0.6341;-5.6104;
-68.4000;0.6317;-5.6234;
-68.1000;0.6374;-5.6078;
-67.8000;0.6341;-5.6027;
-67.5000;0.6349;-5.6027;
-67.2000;0.6382;-5.6001;
-66.9000;0.6341;-5.6053;
-66.6000;0.6349;-5.6001;
-66.3000;0.6333;-5.6053;
-66.0000;0.6317;-5.6027;
-65.7000;0.6341;-5.5975;
-65.4000;0.6341;-5.5975;
-65.1000;0.6365;-5.5949;
-64.8000;0.6333;-5.6027;
-64.5000;0.6325;-5.6104;
-64.2000;0.6349;-5.6104;
-63.9000;0.6349;-5.5975;
-63.6000;0.6333;-5.6001;
-63.3000;0.6333;-5.5949;
-63.0000;0.6333;-5.6001;
-62.7000;0.6341;-5.5949;
-62.4000;0.6349;-5.5949;
-62.1000;0.6333;-5.6053;
-61.8000;0.6325;-5.6078;
-61.5000;0.6317;-5.6104;
-61.2000;0.6341;-5.6104;
-60.9000;0.6341;-5.6104;
-60.6000;0.6333;-5.6104;
-60.3000;0.6341;-5.6027;
-60.0000;0.6325;-5.5975;
-59.7000;0.6341;-5.5897;
-59.4000;0.6349;-5.5923;
-59.1000;0.6325;-5.5949;
-58.8000;0.6333;-5.5949;
-58.5000;0.6341;-5.5923;
-58.2000;0.6349;-5.5923;
-57.9000;0.6341;-5.6001;
-57.6000;0.6333;-5.6053;
-57.3000;0.6333;-5.6104;
-57.0000;0.6357;-5.6027;
-56.7000;0.6333;-5.6130;
-56.4000;0.6398;-5.5949;
-56.1000;0.6325;-5.6182;
-55.8000;0.6317;-5.6234;
-55.5000;0.6341;-5.6182;
-55.2000;0.6341;-5.6104;
-54.9000;0.6341;-5.6078;
-54.6000;0.6300;-5.6078;
-54.3000;0.6333;-5.5949;
-54.0000;0.6333;-5.5949;
-53.7000;0.6333;-5.5975;
-53.4000;0.6309;-5.6156;
-53.1000;0.6333;-5.6053;
-52.8000;0.6349;-5.6078;
-52.5000;0.6333;-5.6053;
-52.2000;0.6333;-5.5975;
-51.9000;0.6341;-5.5975;
-51.6000;0.6292;-5.6260;
-51.3000;0.6341;-5.6182;
-51.0000;0.6325;-5.6234;
-50.7000;0.6333;-5.6208;
-50.4000;0.6357;-5.6182;
-50.1000;0.6382;-5.6182;
-49.8000;0.6292;-5.6337;
-49.5000;0.6325;-5.6182;
-49.2000;0.6325;-5.6182;
-48.9000;0.6333;-5.6156;
-48.6000;0.6349;-5.6104;
-48.3000;0.6333;-5.6104;
-48.0000;0.6333;-5.6130;
-47.7000;0.6309;-5.6130;
-47.4000;0.6333;-5.6104;
-47.1000;0.6325;-5.6104;
-46.8000;0.6349;-5.6053;
-46.5000;0.6333;-5.6104;
-46.2000;0.6357;-5.6104;
-45.9000;0.6333;-5.6130;
-45.6000;0.6333;-5.6078;
-45.3000;0.6341;-5.6027;
-45.0000;0.6325;-5.6156;
-44.7000;0.6309;-5.6104;
-44.4000;0.6333;-5.5949;
-44.1000;0.6365;-5.5845;
-43.8000;0.6309;-5.6130;
-43.5000;0.6300;-5.6130;
-43.2000;0.6333;-5.6156;
-42.9000;0.6333;-5.6130;
-42.6000;0.6325;-5.6053;
-42.3000;0.6317;-5.6182;
-42.0000;0.6325;-5.6234;
-41.7000;0.6325;-5.6208;
-41.4000;0.6333;-5.6156;
-41.1000;0.6252;-5.6337;
-40.8000;0.6333;-5.6156;
-40.5000;0.6341;-5.6234;
-40.2000;0.6325;-5.6156;
-39.9000;0.6325;-5.6053;
-39.6000;0.6333;-5.6053;
-39.3000;0.6333;-5.5975;
-39.0000;0.6341;-5.5949;
-38.7000;0.6333;-5.6001;
-38.4000;0.6300;-5.6156;
-38.1000;0.6325;-5.6156;
-37.8000;0.6333;-5.6130;
-37.5000;0.6333;-5.6078;
-37.2000;0.6341;-5.6156;
-36.9000;0.6398;-5.6001;
-36.6000;0.6341;-5.6104;
-36.3000;0.6357;-5.6078;
-36.0000;0.6341;-5.6027;
-35.7000;0.6325;-5.6130;
-35.4000;0.6292;-5.6208;
-35.1000;0.6333;-5.6156;
-34.8000;0.6349;-5.6156;
-34.5000;0.6284;-5.6286;
-34.2000;0.6333;-5.6182;
-33.9000;0.6333;-5.6182;
-33.6000;0.6333;-5.6234;
-33.3000;0.6317;-5.6234;
-33.0000;0.6341;-5.6234;
-32.7000;0.6341;-5.6234;
-32.4000;0.6300;-5.6208;
-32.1000;0.6341;-5.6156;
-31.8000;0.6333;-5.6130;
-31.5000;0.6349;-5.6053;
-31.2000;0.6357;-5.6078;
-30.9000;0.6317;-5.6234;
-30.6000;0.6333;-5.6156;
-30.3000;0.6243;-5.6389;
-30.0000;0.6333;-5.6208;
-29.7000;0.6341;-5.6208;
-29.4000;0.6325;-5.6234;
-29.1000;0.6333;-5.6234;
-28.8000;0.6333;-5.6260;
-28.5000;0.6333;-5.6234;
-28.2000;0.6325;-5.6234;
-27.9000;0.6341;-5.6182;
-27.6000;0.6333;-5.6182;
-27.3000;0.6333;-5.6156;
-27.0000;0.6341;-5.6156;
-26.7000;0.6333;-5.6182;
-26.4000;0.6341;-5.6208;
-26.1000;0.6341;-5.6156;
-25.8000;0.6317;-5.6130;
-25.5000;0.6357;-5.6078;
-25.2000;0.6357;-5.6078;
-24.9000;0.6341;-5.6078;
-24.6000;0.6333;-5.6001;
-24.3000;0.6325;-5.6053;
-24.0000;0.6325;-5.6053;
-23.7000;0.6333;-5.6027;
-23.4000;0.6349;-5.6104;
-23.1000;0.6333;-5.6104;
-22.8000;0.6333;-5.6130;
-22.5000;0.6349;-5.6104;
-22.2000;0.6357;-5.5975;
-21.9000;0.6341;-5.6027;
-21.6000;0.6333;-5.6130;
-21.3000;0.6349;-5.6208;
-21.0000;0.6357;-5.6208;
-20.7000;0.6325;-5.6260;
-20.4000;0.6325;-5.6286;
-20.1000;0.6333;-5.6260;
-19.8000;0.6309;-5.6234;
-19.5000;0.6341;-5.6104;
-19.2000;0.6341;-5.6104;
-18.9000;0.6374;-5.5897;
-18.6000;0.6317;-5.6027;
-18.3000;0.6349;-5.5975;
-18.0000;0.6317;-5.5975;
-17.7000;0.6333;-5.5871;
-17.4000;0.6341;-5.5871;
-17.1000;0.6341;-5.5871;
-16.8000;0.6325;-5.5949;
-16.5000;0.6333;-5.5897;
-16.2000;0.6341;-5.5871;
-15.9000;0.6325;-5.5897;
-15.6000;0.6349;-5.5819;
-15.3000;0.6333;-5.5949;
-15.0000;0.6341;-5.6001;
-14.7000;0.6365;-5.5845;
-14.4000;0.6325;-5.5923;
-14.1000;0.6333;-5.5897;
-13.8000;0.6341;-5.5897;
-13.5000;0.6317;-5.5949;
-13.2000;0.6333;-5.5975;
-12.9000;0.6333;-5.6027;
-12.6000;0.6317;-5.6053;
-12.3000;0.6357;-5.6001;
-12.0000;0.6341;-5.6130;
-11.7000;0.6357;-5.6053;
-11.4000;0.6333;-5.6078;
-11.1000;0.6333;-5.5923;
-10.8000;0.6341;-5.5871;
-10.5000;0.6300;-5.5897;
-10.2000;0.6325;-5.5845;
-9.9000;0.6333;-5.5819;
-9.6000;0.6349;-5.5871;
-9.3000;0.6349;-5.5742;
-9.0000;0.6341;-5.5716;
-8.7000;0.6325;-5.5845;
-8.4000;0.6341;-5.5819;
-8.1000;0.6317;-5.5949;
-7.8000;0.6341;-5.5871;
-7.5000;0.6341;-5.5923;
-7.2000;0.6333;-5.5871;
-6.9000;0.6333;-5.5897;
-6.6000;0.6325;-5.5845;
-6.3000;0.6333;-5.5897;
-6.0000;0.6333;-5.5923;
-5.7000;0.6341;-5.5949;
-5.4000;0.6333;-5.5975;
-5.1000;0.6300;-5.5975;
-4.8000;0.6325;-5.5949;
-4.5000;0.6325;-5.6001;
-4.2000;0.6333;-5.6001;
-3.9000;0.6333;-5.5975;
-3.6000;0.6317;-5.6001;
-3.3000;0.6292;-5.6078;
-3.0000;0.6325;-5.6027;
-2.7000;0.6300;-5.6001;
-2.4000;0.6341;-5.5949;
-2.1000;0.6333;-5.5897;
-1.8000;0.6333;-5.5923;
-1.5000;0.6300;-5.6001;
-1.2000;0.6390;-5.5819;
-0.9000;0.6317;-5.6053;
-0.6000;0.6260;-5.6130;
-0.3000;0.6325;-5.5949;
0.0000;0.6325;-5.5949;
0.3000;0.6610;-5.5535;
0.6000;0.7139;-5.4576;
0.9000;0.7481;-5.3980;
1.2000;0.7774;-5.3307;
1.5000;0.7985;-5.2841;
1.8000;0.8181;-5.2478;
2.1000;0.8352;-5.2090;
2.4000;0.8457;-5.1779;
2.7000;0.8547;-5.1520;
3.0000;0.8645;-5.1338;
3.3000;0.8702;-5.1261;
3.6000;0.8767;-5.1131;
3.9000;0.8807;-5.1079;
4.2000;0.8864;-5.0924;
4.5000;0.8921;-5.0820;
4.8000;0.8954;-5.0768;
5.1000;0.8970;-5.0820;
5.4000;0.9035;-5.0768;
5.7000;0.9068;-5.0691;
6.0000;0.9117;-5.0639;
6.3000;0.9117;-5.0743;
6.6000;0.9166;-5.0639;
6.9000;0.9174;-5.0561;
7.2000;0.9239;-5.0432;
7.5000;0.9271;-5.0432;
7.8000;0.9312;-5.0458;
8.1000;0.9320;-5.0535;
8.4000;0.9369;-5.0484;
8.7000;0.9394;-5.0509;
9.0000;0.9410;-5.0561;
9.3000;0.9442;-5.0535;
9.6000;0.9467;-5.0535;
9.9000;0.9451;-5.0613;
10.2000;0.9524;-5.0509;
10.5000;0.9508;-5.0613;
10.8000;0.9548;-5.0639;
11.1000;0.9605;-5.0535;
11.4000;0.9630;-5.0561;
11.7000;0.9638;-5.0535;
12.0000;0.9646;-5.0613;
12.3000;0.9703;-5.0587;
12.6000;0.9735;-5.0613;
12.9000;0.9752;-5.0639;
13.2000;0.9809;-5.0509;
13.5000;0.9801;-5.0535;
13.8000;0.9817;-5.0561;
14.1000;0.9833;-5.0613;
14.4000;0.9833;-5.0717;
14.7000;0.9882;-5.0717;
15.0000;0.9898;-5.0691;
15.3000;0.9906;-5.0717;
15.6000;0.9931;-5.0691;
15.9000;0.9939;-5.0768;
16.2000;0.9939;-5.0820;
16.5000;0.9988;-5.0743;
16.8000;0.9988;-5.0794;
17.1000;1.0012;-5.0743;
17.4000;1.0004;-5.0794;
17.7000;1.0053;-5.0691;
18.0000;1.0053;-5.0717;
18.3000;1.0077;-5.0743;
18.6000;1.0102;-5.0691;
18.9000;1.0102;-5.0691;
19.2000;1.0126;-5.0561;
19.5000;1.0134;-5.0561;
19.8000;1.0151;-5.0639;
20.1000;1.0167;-5.0665;
20.4000;1.0159;-5.0717;
20.7000;1.0208;-5.0743;
21.0000;1.0191;-5.0768;
21.3000;1.0297;-5.0509;
21.6000;1.0199;-5.0794;
21.9000;1.0224;-5.0768;
22.2000;1.0248;-5.0691;
22.5000;1.0281;-5.0561;
22.8000;1.0256;-5.0587;
23.1000;1.0265;-5.0613;
23.4000;1.0265;-5.0691;
23.7000;1.0281;-5.0665;
24.0000;1.0330;-5.0509;
24.3000;1.0305;-5.0717;
24.6000;1.0289;-5.0743;
24.9000;1.0362;-5.0665;
25.2000;1.0346;-5.0743;
25.5000;1.0273;-5.0898;
25.8000;1.0370;-5.0639;
26.1000;1.0379;-5.0535;
26.4000;1.0379;-5.0535;
26.7000;1.0411;-5.0509;
27.0000;1.0411;-5.0484;
27.3000;1.0419;-5.0509;
27.6000;1.0411;-5.0665;
27.9000;1.0354;-5.0794;
28.2000;1.0419;-5.0665;
28.5000;1.0427;-5.0768;
28.8000;1.0419;-5.0820;
29.1000;1.0452;-5.0794;
29.4000;1.0444;-5.0820;
29.7000;1.0435;-5.0794;
30.0000;1.0427;-5.0846;
30.3000;1.0468;-5.0768;
30.6000;1.0468;-5.0691;
30.9000;1.0460;-5.0743;
31.2000;1.0484;-5.0665;
31.5000;1.0484;-5.0613;
31.8000;1.0492;-5.0717;
32.1000;1.0501;-5.0717;
32.4000;1.0492;-5.0794;
32.7000;1.0468;-5.0820;
33.0000;1.0492;-5.0691;
33.3000;1.0492;-5.0665;
33.6000;1.0492;-5.0717;
33.9000;1.0525;-5.0717;
34.2000;1.0509;-5.0717;
34.5000;1.0541;-5.0717;
34.8000;1.0509;-5.0846;
35.1000;1.0533;-5.0846;
35.4000;1.0533;-5.0872;
35.7000;1.0549;-5.0872;
36.0000;1.0558;-5.0846;
36.3000;1.0566;-5.0898;
36.6000;1.0574;-5.0950;
36.9000;1.0566;-5.0872;
37.2000;1.0549;-5.0898;
37.5000;1.0549;-5.0950;
37.8000;1.0574;-5.0872;
38.1000;1.0598;-5.0820;
38.4000;1.0566;-5.0794;
38.7000;1.0606;-5.0691;
39.0000;1.0582;-5.0743;
39.3000;1.0590;-5.0820;
39.6000;1.0566;-5.1002;
39.9000;1.0598;-5.0950;
40.2000;1.0590;-5.0924;
40.5000;1.0631;-5.0846;
40.8000;1.0574;-5.1028;
41.1000;1.0647;-5.0872;
41.4000;1.0647;-5.0924;
41.7000;1.0663;-5.0950;
42.0000;1.0623;-5.1053;
42.3000;1.0655;-5.1053;
42.6000;1.0623;-5.1053;
42.9000;1.0590;-5.1131;
43.2000;1.0639;-5.1053;
43.5000;1.0639;-5.1157;
43.8000;1.0680;-5.1105;
44.1000;1.0655;-5.1209;
44.4000;1.0631;-5.1235;
44.7000;1.0639;-5.1157;
45.0000;1.0631;-5.1209;
45.3000;1.0647;-5.1157;
45.6000;1.0663;-5.1028;
45.9000;1.0647;-5.0976;
46.2000;1.0647;-5.1002;
46.5000;1.0672;-5.0976;
46.8000;1.0672;-5.1028;
47.1000;1.0655;-5.1053;
47.4000;1.0655;-5.1053;
47.7000;1.0663;-5.1079;
48.0000;1.0672;-5.1105;
48.3000;1.0672;-5.1131;
48.6000;1.0631;-5.1287;
48.9000;1.0655;-5.1183;
49.2000;1.0672;-5.1183;
49.5000;1.0647;-5.1209;
49.8000;1.0704;-5.1053;
50.1000;1.0688;-5.1028;
50.4000;1.0680;-5.1053;
50.7000;1.0688;-5.1028;
51.0000;1.0688;-5.1105;
51.3000;1.0696;-5.1105;
51.6000;1.0680;-5.1131;
51.9000;1.0704;-5.1105;
52.2000;1.0688;-5.1105;
52.5000;1.0720;-5.0976;
52.8000;1.0745;-5.0898;
53.1000;1.0704;-5.1002;
53.4000;1.0696;-5.1105;
53.7000;1.0696;-5.1105;
54.0000;1.0704;-5.1105;
54.3000;1.0712;-5.1209;
54.6000;1.0704;-5.1183;
54.9000;1.0720;-5.1131;
55.2000;1.0720;-5.1105;
55.5000;1.0729;-5.1079;
55.8000;1.0745;-5.1157;
56.1000;1.0745;-5.1157;
56.4000;1.0729;-5.1235;
56.7000;1.0745;-5.1105;
57.0000;1.0720;-5.1002;
57.3000;1.0818;-5.0898;
57.6000;1.0720;-5.1105;
57.9000;1.0712;-5.1209;
58.2000;1.0729;-5.1105;
58.5000;1.0729;-5.1209;
58.8000;1.0672;-5.1390;
59.1000;1.0720;-5.1364;
59.4000;1.0769;-5.1338;
59.7000;1.0753;-5.1287;
60.0000;1.0663;-5.1546;
60.3000;1.0729;-5.1364;
60.6000;1.0753;-5.1235;
60.9000;1.0688;-5.1416;
61.2000;1.0737;-5.1183;
61.5000;1.0810;-5.1105;
61.8000;1.0745;-5.1287;
62.1000;1.0753;-5.1364;
62.4000;1.0761;-5.1287;
62.7000;1.0745;-5.1364;
63.0000;1.0753;-5.1442;
63.3000;1.0737;-5.1442;
63.6000;1.0745;-5.1494;
63.9000;1.0720;-5.1571;
64.2000;1.0769;-5.1546;
64.5000;1.0769;-5.1494;
64.8000;1.0761;-5.1494;
65.1000;1.0753;-5.1494;
65.4000;1.0753;-5.1494;
65.7000;1.0704;-5.1649;
66.0000;1.0769;-5.1468;
66.3000;1.0761;-5.1468;
66.6000;1.0761;-5.1442;
66.9000;1.0769;-5.1494;
67.2000;1.0769;-5.1468;
67.5000;1.0777;-5.1468;
67.8000;1.0769;-5.1468;
68.1000;1.0753;-5.1494;
68.4000;1.0769;-5.1468;
68.7000;1.0769;-5.1312;
69.0000;1.0761;-5.1287;
69.3000;1.0761;-5.1338;
69.6000;1.0769;-5.1312;
69.9000;1.0769;-5.1338;
70.2000;1.0761;-5.1390;
70.5000;1.0769;-5.1312;
70.8000;1.0769;-5.1287;
71.1000;1.0761;-5.1364;
71.4000;1.0777;-5.1312;
71.7000;1.0769;-5.1287;
72.0000;1.0794;-5.1287;
72.3000;1.0786;-5.1364;
72.6000;1.0777;-5.1416;
72.9000;1.0777;-5.1390;
73.2000;1.0818;-5.1183;
73.5000;1.0777;-5.1312;
73.8000;1.0786;-5.1287;
74.1000;1.0745;-5.1442;
74.4000;1.0777;-5.1494;
74.7000;1.0769;-5.1520;
75.0000;1.0786;-5.1571;
75.3000;1.0786;-5.1546;
75.6000;1.0802;-5.1442;
75.9000;1.0794;-5.1442;
76.2000;1.0802;-5.1416;
76.5000;1.0794;-5.1468;
76.8000;1.0794;-5.1494;
77.1000;1.0802;-5.1416;
77.4000;1.0810;-5.1442;
77.7000;1.0786;-5.1520;
78.0000;1.0777;-5.1623;
78.3000;1.0786;-5.1727;
78.6000;1.0794;-5.1753;
78.9000;1.0794;-5.1727;
79.2000;1.0786;-5.1701;
79.5000;1.0745;-5.1753;
79.8000;1.0810;-5.1727;
80.1000;1.0794;-5.1727;
80.4000;1.0794;-5.1753;
80.7000;1.0810;-5.1753;
81.0000;1.0802;-5.1753;
81.3000;1.0794;-5.1675;
81.6000;1.0834;-5.1597;
81.9000;1.0802;-5.1727;
82.2000;1.0810;-5.1675;
82.5000;1.0810;-5.1753;
82.8000;1.0794;-5.1856;
83.1000;1.0818;-5.1805;
83.4000;1.0818;-5.1830;
83.7000;1.0834;-5.1805;
84.0000;1.0810;-5.1882;
84.3000;1.0794;-5.1986;
84.6000;1.0810;-5.1882;
84.9000;1.0818;-5.1753;
85.2000;1.0818;-5.1779;
85.5000;1.0818;-5.1830;
85.8000;1.0867;-5.1623;
86.1000;1.0802;-5.1675;
86.4000;1.0810;-5.1623;
86.7000;1.0802;-5.1701;
87.0000;1.0826;-5.1649;
87.3000;1.0802;-5.1649;
87.6000;1.0810;-5.1675;
87.9000;1.0818;-5.1623;
88.2000;1.0818;-5.1727;
88.5000;1.0810;-5.1675;
88.8000;1.0810;-5.1805;
89.1000;1.0818;-5.1805;
89.4000;1.0826;-5.1960;
89.7000;1.0810;-5.2038;
90.0000;1.0834;-5.1908;
90.3000;1.0826;-5.1882;
90.6000;1.0826;-5.1830;
90.9000;1.0818;-5.1908;
91.2000;1.0834;-5.1934;
91.5000;1.0826;-5.1934;
91.8000;1.0834;-5.1830;
92.1000;1.0899;-5.1727;
92.4000;1.0842;-5.1882;
92.7000;1.0842;-5.1805;
93.0000;1.0842;-5.1727;
93.3000;1.0851;-5.1675;
93.6000;1.0818;-5.1649;
93.9000;1.0834;-5.1675;
94.2000;1.0842;-5.1623;
94.5000;1.0834;-5.1675;
94.8000;1.0834;-5.1649;
95.1000;1.0834;-5.1727;
95.4000;1.0834;-5.1727;
95.7000;1.0842;-5.1779;
96.0000;1.0826;-5.1830;
96.3000;1.0826;-5.1856;
96.6000;1.0842;-5.1986;
96.9000;1.0842;-5.2012;
97.2000;1.0842;-5.2038;
97.5000;1.0842;-5.2064;
97.8000;1.0826;-5.2090;
98.1000;1.0842;-5.2141;
98.4000;1.0842;-5.2115;
98.7000;1.0834;-5.1934;
99.0000;1.0842;-5.1934;
99.3000;1.0842;-5.1908;
99.6000;1.0834;-5.1934;
99.9000;1.0834;-5.1934;
100.2000;1.0826;-5.1934;
100.5000;1.0851;-5.1934;
100.8000;1.0818;-5.1986;
101.1000;1.0842;-5.1882;
101.4000;1.0859;-5.1727;
101.7000;1.0842;-5.1830;
102.0000;1.0826;-5.1856;
102.3000;1.0851;-5.1882;
102.6000;1.0842;-5.1856;
102.9000;1.0842;-5.1856;
103.2000;1.0851;-5.1805;
103.5000;1.0818;-5.1882;
103.8000;1.0851;-5.1908;
104.1000;1.0851;-5.1908;
104.4000;1.0867;-5.1830;
104.7000;1.0867;-5.1908;
105.0000;1.0932;-5.1830;
105.3000;1.0859;-5.2038;
105.6000;1.0859;-5.2115;
105.9000;1.0859;-5.2141;
106.2000;1.0875;-5.2167;
106.5000;1.0883;-5.2038;
106.8000;1.0867;-5.2012;
107.1000;1.0867;-5.1934;
107.4000;1.0867;-5.1908;
107.7000;1.0875;-5.1882;
108.0000;1.0859;-5.1934;
108.3000;1.0867;-5.1856;
108.6000;1.0908;-5.1701;
108.9000;1.0842;-5.1830;
109.2000;1.0859;-5.1830;
109.5000;1.0867;-5.1779;
109.8000;1.0810;-5.1830;
110.1000;1.0834;-5.1753;
110.4000;1.0818;-5.1960;
110.7000;1.0842;-5.1882;
111.0000;1.0842;-5.1934;
111.3000;1.0859;-5.1856;
111.6000;1.0842;-5.1908;
111.9000;1.0851;-5.1908;
112.2000;1.0859;-5.1934;
112.5000;1.0867;-5.1908;
112.8000;1.0859;-5.2038;
113.1000;1.0859;-5.2038;
113.4000;1.0867;-5.2115;
113.7000;1.0867;-5.2115;
114.0000;1.0883;-5.2038;
114.3000;1.0908;-5.1986;
114.6000;1.0908;-5.1986;
114.9000;1.0859;-5.2090;
115.2000;1.0810;-5.2167;
115.5000;1.0859;-5.2064;
115.8000;1.0883;-5.1986;
116.1000;1.0859;-5.1986;
116.4000;1.0851;-5.2012;
116.7000;1.0867;-5.2012;
117.0000;1.0883;-5.1960;
117.3000;1.0859;-5.2038;
117.6000;1.0818;-5.2167;
117.9000;1.0859;-5.2141;
118.2000;1.0875;-5.1986;
118.5000;1.0851;-5.1960;
118.8000;1.0867;-5.1856;
119.1000;1.0859;-5.1908;
119.4000;1.0851;-5.2012;
119.7000;1.0908;-5.1934;
120.0000;1.0875;-5.2012;
120.3000;1.0867;-5.2012;
120.6000;1.0875;-5.2012;
120.9000;1.0867;-5.2012;
121.2000;1.0883;-5.1934;
121.5000;1.0867;-5.2115;
121.8000;1.0883;-5.2141;
122.1000;1.0875;-5.2245;
122.4000;1.0891;-5.2219;
122.7000;1.0875;-5.2297;
123.0000;1.0859;-5.2323;
123.3000;1.0891;-5.2193;
123.6000;1.0883;-5.2064;
123.9000;1.0875;-5.2064;
124.2000;1.0859;-5.2115;
124.5000;1.0891;-5.2115;
124.8000;1.0883;-5.2090;
125.1000;1.0834;-5.2193;
125.4000;1.0875;-5.2090;
125.7000;1.0883;-5.2090;
126.0000;1.0851;-5.2193;
126.3000;1.0859;-5.2167;
126.6000;1.0867;-5.2038;
126.9000;1.0883;-5.1934;
127.2000;1.0859;-5.1960;
127.5000;1.0883;-5.1960;
127.8000;1.0859;-5.2090;
128.1000;1.0891;-5.2115;
128.4000;1.0859;-5.2245;
128.7000;1.0859;-5.2245;
129.0000;1.0859;-5.2323;
129.3000;1.0859;-5.2271;
129.6000;1.0859;-5.2297;
129.9000;1.0875;-5.2323;
130.2000;1.0802;-5.2478;
130.5000;1.0875;-5.2245;
130.8000;1.0899;-5.2193;
131.1000;1.0965;-5.1986;
131.4000;1.0842;-5.2245;
131.7000;1.0875;-5.2141;
132.0000;1.0899;-5.2115;
132.3000;1.0891;-5.2167;
132.6000;1.0875;-5.2193;
132.9000;1.0867;-5.2271;
133.2000;1.0891;-5.2219;
133.5000;1.0883;-5.2271;
133.8000;1.0802;-5.2452;
134.1000;1.0891;-5.2297;
134.4000;1.0908;-5.2193;
134.7000;1.0883;-5.2245;
135.0000;1.0875;-5.2141;
135.3000;1.0891;-5.2167;
135.6000;1.0867;-5.2297;
135.9000;1.0867;-5.2323;
136.2000;1.0883;-5.2323;
136.5000;1.0932;-5.2219;
136.8000;1.0867;-5.2349;
137.1000;1.0875;-5.2400;
137.4000;1.0883;-5.2426;
137.7000;1.0916;-5.2271;
138.0000;1.0891;-5.2374;
138.3000;1.0883;-5.2426;
138.6000;1.0891;-5.2297;
138.9000;1.0891;-5.2193;
139.2000;1.0867;-5.2271;
139.5000;1.0916;-5.2167;
139.8000;1.0899;-5.2323;
140.1000;1.0932;-5.2167;
140.4000;1.0891;-5.2245;
140.7000;1.0899;-5.2271;
141.0000;1.0867;-5.2297;
141.3000;1.0891;-5.2271;
141.6000;1.0842;-5.2400;
141.9000;1.0875;-5.2374;
142.2000;1.0883;-5.2271;
142.5000;1.0875;-5.2400;
142.8000;1.0891;-5.2297;
143.1000;1.0867;-5.2323;
143.4000;1.0875;-5.2400;
143.7000;1.0916;-5.2245;
144.0000;1.0851;-5.2400;
144.3000;1.0867;-5.2323;
144.6000;1.0867;-5.2219;
144.9000;1.0883;-5.2090;
145.2000;1.0908;-5.2167;
145.5000;1.0875;-5.2219;
145.8000;1.0851;-5.2374;
146.1000;1.0867;-5.2374;
146.4000;1.0891;-5.2323;
146.7000;1.0891;-5.2297;
147.0000;1.0891;-5.2323;
147.3000;1.0875;-5.2374;
147.6000;1.0875;-5.2271;
147.9000;1.0883;-5.2219;
148.2000;1.0891;-5.2167;
148.5000;1.0883;-5.2245;
148.8000;1.0875;-5.2219;
149.1000;1.0899;-5.2193;
149.4000;1.0891;-5.2219;
149.7000;1.0899;-5.2167;
150.0000;1.0867;-5.2245;
150.3000;1.0891;-5.2193;
150.6000;1.0899;-5.2193;
150.9000;1.0891;-5.2219;
151.2000;1.0891;-5.2323;
151.5000;1.0965;-5.2219;
151.8000;1.0891;-5.2323;
152.1000;1.0875;-5.2297;
152.4000;1.0859;-5.2426;
152.7000;1.0899;-5.2297;
153.0000;1.0891;-5.2297;
153.3000;1.0883;-5.2271;
153.6000;1.0851;-5.2349;
153.9000;1.0899;-5.2219;
154.2000;1.0851;-5.2193;
154.5000;1.0875;-5.2115;
154.8000;1.0834;-5.2297;
155.1000;1.0867;-5.2271;
155.4000;1.0908;-5.2323;
155.7000;1.0908;-5.2323;
156.0000;1.0875;-5.2297;
156.3000;1.0916;-5.2245;
156.6000;1.0891;-5.2400;
156.9000;1.0899;-5.2349;
157.2000;1.0891;-5.2349;
157.5000;1.0891;-5.2349;
157.8000;1.0899;-5.2349;
158.1000;1.0924;-5.2323;
158.4000;1.0924;-5.2323;
158.7000;1.0891;-5.2374;
159.0000;1.0899;-5.2374;
159.3000;1.0948;-5.2193;
159.6000;1.0916;-5.2245;
159.9000;1.0932;-5.2245;
160.2000;1.0891;-5.2349;
160.5000;1.0924;-5.2349;
160.8000;1.0924;-5.2297;
161.1000;1.0899;-5.2400;
161.4000;1.0916;-5.2452;
161.7000;1.0916;-5.2400;
162.0000;1.0908;-5.2400;
162.3000;1.0916;-5.2323;
162.6000;1.0899;-5.2426;
162.9000;1.0891;-5.2452;
163.2000;1.0899;-5.2478;
163.5000;1.0899;-5.2452;
163.8000;1.0891;-5.2426;
164.1000;1.0908;-5.2374;
164.4000;1.0899;-5.2349;
164.7000;1.0899;-5.2349;
165.0000;1.0908;-5.2271;
165.3000;1.0908;-5.2323;
165.6000;1.0916;-5.2349;
165.9000;1.0932;-5.2245;
166.2000;1.0908;-5.2245;
166.5000;1.0891;-5.2297;
166.8000;1.0891;-5.2271;
167.1000;1.0916;-5.2193;
167.4000;1.0916;-5.2219;
167.7000;1.0883;-5.2349;
168.0000;1.0899;-5.2271;
168.3000;1.0899;-5.2271;
168.6000;1.0899;-5.2193;
168.9000;1.0916;-5.2167;
169.2000;1.0891;-5.2193;
169.5000;1.0916;-5.2167;
169.8000;1.0916;-5.2271;
170.1000;1.0908;-5.2219;
170.4000;1.0891;-5.2141;
170.7000;1.0916;-5.2090;
171.0000;1.0908;-5.2219;
171.3000;1.0908;-5.2245;
171.6000;1.0891;-5.2374;
171.9000;1.0908;-5.2374;
172.2000;1.0916;-5.2374;
172.5000;1.0891;-5.2400;
172.8000;1.0891;-5.2504;
173.1000;1.0883;-5.2452;
173.4000;1.0908;-5.2400;
173.7000;1.0899;-5.2426;
174.0000;1.0891;-5.2530;
174.3000;1.0916;-5.2478;
174.6000;1.0924;-5.2504;
174.9000;1.0908;-5.2556;
175.2000;1.0883;-5.2633;
175.5000;1.0899;-5.2530;
175.8000;1.0899;-5.2504;
176.1000;1.0916;-5.2426;
176.4000;1.0867;-5.2685;
176.7000;1.0916;-5.2530;
177.0000;1.0899;-5.2582;
177.3000;1.0867;-5.2659;
177.6000;1.0956;-5.2400;
177.9000;1.0924;-5.2374;
178.2000;1.0908;-5.2400;
178.5000;1.0899;-5.2400;
178.8000;1.0908;-5.2297;
179.1000;1.0891;-5.2297;
179.4000;1.0948;-5.2167;
179.7000;1.0916;-5.2323;
180.0000;1.0916;-5.2400;
180.3000;1.0883;-5.2374;
180.6000;1.0867;-5.2374;
180.9000;1.0916;-5.2297;
181.2000;1.0883;-5.2349;
181.5000;1.0899;-5.2219;
181.8000;1.0908;-5.2245;
182.1000;1.0924;-5.2426;
182.4000;1.0965;-5.2426;
182.7000;1.0899;-5.2608;
183.0000;1.0891;-5.2582;
183.3000;1.0899;-5.2478;
183.6000;1.0916;-5.2452;
183.9000;1.0916;-5.2374;
184.2000;1.0899;-5.2323;
184.5000;1.0899;-5.2245;
184.8000;1.0916;-5.2271;
185.1000;1.0908;-5.2271;
185.4000;1.0899;-5.2271;
185.7000;1.0899;-5.2219;
186.0000;1.0916;-5.2167;
186.3000;1.0908;-5.2167;
186.6000;1.0908;-5.2245;
186.9000;1.0899;-5.2245;
187.2000;1.0940;-5.2115;
187.5000;1.0891;-5.2245;
187.8000;1.0891;-5.2323;
188.1000;1.0891;-5.2297;
188.4000;1.0891;-5.2245;
188.7000;1.0899;-5.2245;
189.0000;1.0908;-5.2271;
189.3000;1.0908;-5.2374;
189.6000;1.0916;-5.2400;
189.9000;1.0899;-5.2478;
190.2000;1.0908;-5.2426;
190.5000;1.0908;-5.2400;
190.8000;1.0908;-5.2426;
191.1000;1.0932;-5.2349;
191.4000;1.0916;-5.2349;
191.7000;1.0908;-5.2426;
192.0000;1.0899;-5.2426;
192.3000;1.0940;-5.2271;
192.6000;1.0899;-5.2349;
192.9000;1.0908;-5.2297;
193.2000;1.0916;-5.2323;
193.5000;1.0908;-5.2271;
193.8000;1.0899;-5.2245;
194.1000;1.0916;-5.2219;
194.4000;1.0908;-5.2193;
194.7000;1.0916;-5.2141;
195.0000;1.0899;-5.2271;
195.3000;1.0916;-5.2245;
195.6000;1.0916;-5.2271;
195.9000;1.0908;-5.2297;
196.2000;1.0899;-5.2374;
196.5000;1.0908;-5.2426;
196.8000;1.0924;-5.2400;
197.1000;1.0908;-5.2478;
197.4000;1.0908;-5.2478;
197.7000;1.0932;-5.2504;
198.0000;1.0899;-5.2504;
198.3000;1.0891;-5.2504;
198.6000;1.0924;-5.2478;
198.9000;1.0916;-5.2504;
199.2000;1.0899;-5.2530;
199.5000;1.0891;-5.2478;
199.8000;1.0891;-5.2452;
200.1000;1.0908;-5.2323;
200.4000;1.0916;-5.2323;
200.7000;1.0891;-5.2426;
201.0000;1.0916;-5.2400;
201.3000;1.0924;-5.2478;
201.6000;1.0916;-5.2504;
201.9000;1.0924;-5.2452;
202.2000;1.0916;-5.2478;
202.5000;1.0908;-5.2530;
202.8000;1.0916;-5.2556;
203.1000;1.0924;-5.2582;
203.4000;1.0908;-5.2633;
203.7000;1.0908;-5.2582;
204.0000;1.0899;-5.2582;
204.3000;1.0924;-5.2556;
204.6000;1.0908;-5.2633;
204.9000;1.0883;-5.2737;
205.2000;1.0908;-5.2659;
205.5000;1.0908;-5.2737;
205.8000;1.0908;-5.2737;
206.1000;1.0826;-5.2918;
206.4000;1.0859;-5.2970;
206.7000;1.0932;-5.2737;
207.0000;1.0916;-5.2789;
207.3000;1.0908;-5.2841;
207.6000;1.0908;-5.2789;
207.9000;1.0916;-5.2685;
208.2000;1.0899;-5.2815;
208.5000;1.0908;-5.2763;
208.8000;1.0891;-5.2711;
209.1000;1.0916;-5.2608;
209.4000;1.0908;-5.2685;
209.7000;1.0908;-5.2685;
210.0000;1.0891;-5.2685;
210.3000;1.0908;-5.2737;
210.6000;1.0924;-5.2659;
210.9000;1.0932;-5.2685;
211.2000;1.0924;-5.2685;
211.5000;1.0908;-5.2685;
211.8000;1.0899;-5.2633;
212.1000;1.0899;-5.2685;
212.4000;1.0899;-5.2659;
212.7000;1.0924;-5.2608;
213.0000;1.0924;-5.2659;
213.3000;1.0916;-5.2582;
213.6000;1.0908;-5.2530;
213.9000;1.0891;-5.2633;
214.2000;1.0908;-5.2633;
214.5000;1.0908;-5.2659;
214.8000;1.0908;-5.2659;
215.1000;1.0899;-5.2711;
215.4000;1.0908;-5.2685;
215.7000;1.0908;-5.2685;
216.0000;1.0924;-5.2582;
216.3000;1.0916;-5.2556;
216.6000;1.0924;-5.2504;
216.9000;1.0932;-5.2478;
217.2000;1.0924;-5.2530;
217.5000;1.0924;-5.2633;
217.8000;1.0932;-5.2556;
218.1000;1.0924;-5.2530;
218.4000;1.0940;-5.2582;
218.7000;1.0899;-5.2608;
219.0000;1.0924;-5.2478;
219.3000;1.0924;-5.2530;
219.6000;1.0932;-5.2530;
219.9000;1.0924;-5.2530;
220.2000;1.0916;-5.2478;
220.5000;1.0916;-5.2504;
220.8000;1.0916;-5.2582;
221.1000;1.0859;-5.2633;
221.4000;1.0908;-5.2582;
221.7000;1.0908;-5.2633;
222.0000;1.0932;-5.2608;
222.3000;1.0867;-5.2737;
222.6000;1.0948;-5.2608;
222.9000;1.0932;-5.2608;
223.2000;1.0948;-5.2556;
223.5000;1.0940;-5.2685;
223.8000;1.0908;-5.2711;
224.1000;1.0899;-5.2737;
224.4000;1.0940;-5.2737;
224.7000;1.0883;-5.2892;
225.0000;1.0908;-5.2841;
225.3000;1.0997;-5.2633;
225.6000;1.0948;-5.2659;
225.9000;1.0916;-5.2867;
226.2000;1.0899;-5.2944;
226.5000;1.0908;-5.2815;
226.8000;1.0899;-5.2763;
227.1000;1.0924;-5.2633;
227.4000;1.0924;-5.2633;
227.7000;1.0940;-5.2556;
228.0000;1.0908;-5.2556;
228.3000;1.0891;-5.2582;
228.6000;1.0932;-5.2452;
228.9000;1.0916;-5.2530;
229.2000;1.0883;-5.2633;
229.5000;1.0916;-5.2426;
229.8000;1.0940;-5.2374;
230.1000;1.0916;-5.2530;
230.4000;1.0867;-5.2608;
230.7000;1.0924;-5.2478;
231.0000;1.0908;-5.2582;
231.3000;1.0883;-5.2633;
231.6000;1.0916;-5.2582;
231.9000;1.0940;-5.2556;
232.2000;1.0908;-5.2633;
232.5000;1.0916;-5.2582;
232.8000;1.0916;-5.2556;
233.1000;1.0916;-5.2582;
233.4000;1.0924;-5.2659;
233.7000;1.0916;-5.2633;
234.0000;1.0899;-5.2711;
234.3000;1.0908;-5.2633;
234.6000;1.0908;-5.2608;
234.9000;1.0883;-5.2659;
235.2000;1.0916;-5.2530;
235.5000;1.0908;-5.2504;
235.8000;1.0940;-5.2426;
236.1000;1.0899;-5.2530;
236.4000;1.0908;-5.2504;
236.7000;1.0899;-5.2504;
237.0000;1.0867;-5.2608;
237.3000;1.0875;-5.2633;
237.6000;1.0916;-5.2556;
237.9000;1.0908;-5.2478;
238.2000;1.0908;-5.2504;
238.5000;1.0908;-5.2582;
238.8000;1.0908;-5.2530;
239.1000;1.0908;-5.2504;
239.4000;1.0899;-5.2556;
239.7000;1.0956;-5.2504;
240.0000;1.0916;-5.2504;
240.3000;1.0908;-5.2530;
240.6000;1.0899;-5.2504;
240.9000;1.0883;-5.2504;
241.2000;1.0916;-5.2400;
241.5000;1.0899;-5.2426;
241.8000;1.0916;-5.2349;
242.1000;1.0908;-5.2426;
242.4000;1.0908;-5.2478;
242.7000;1.0916;-5.2478;
243.0000;1.0899;-5.2478;
243.3000;1.0916;-5.2478;
243.6000;1.0916;-5.2478;
243.9000;1.0940;-5.2400;
244.2000;1.0965;-5.2374;
244.5000;1.0924;-5.2478;
244.8000;1.0899;-5.2556;
245.1000;1.0940;-5.2504;
245.4000;1.0924;-5.2582;
245.7000;1.0916;-5.2608;
246.0000;1.0924;-5.2556;
246.3000;1.1005;-5.2452;
246.6000;1.0932;-5.2608;
246.9000;1.0899;-5.2685;
247.2000;1.0940;-5.2608;
247.5000;1.0891;-5.2685;
247.8000;1.0908;-5.2711;
248.1000;1.0916;-5.2659;
248.4000;1.0916;-5.2608;
248.7000;1.0924;-5.2633;
249.0000;1.0924;-5.2685;
249.3000;1.0989;-5.2530;
249.6000;1.0916;-5.2608;
249.9000;1.0899;-5.2530;
250.2000;1.0932;-5.2452;
250.5000;1.0932;-5.2478;
250.8000;1.0908;-5.2582;
251.1000;1.0916;-5.2556;
251.4000;1.0899;-5.2608;
251.7000;1.0908;-5.2556;
252.0000;1.0916;-5.2452;
252.3000;1.0899;-5.2478;
252.6000;1.0916;-5.2374;
252.9000;1.0908;-5.2452;
253.2000;1.0891;-5.2608;
253.5000;1.0924;-5.2530;
253.8000;1.0956;-5.2426;
254.1000;1.0916;-5.2504;
254.4000;1.0932;-5.2530;
254.7000;1.0932;-5.2504;
255.0000;1.0932;-5.2582;
255.3000;1.0924;-5.2582;
255.6000;1.0916;-5.2633;
255.9000;1.0924;-5.2633;
256.2000;1.0916;-5.2608;
256.5000;1.0916;-5.2582;
256.8000;1.0924;-5.2478;
257.1000;1.0908;-5.2582;
257.4000;1.0916;-5.2582;
257.7000;1.0883;-5.2659;
258.0000;1.0916;-5.2608;
258.3000;1.0916;-5.2608;
258.6000;1.0891;-5.2685;
258.9000;1.0916;-5.2633;
259.2000;1.0916;-5.2608;
259.5000;1.0908;-5.2659;
259.8000;1.0916;-5.2659;
260.1000;1.0940;-5.2556;
260.4000;1.0908;-5.2608;
260.7000;1.0875;-5.2633;
261.0000;1.0908;-5.2608;
261.3000;1.0924;-5.2608;
261.6000;1.0940;-5.2608;
261.9000;1.0924;-5.2659;
262.2000;1.0908;-5.2685;
262.5000;1.0981;-5.2478;
262.8000;1.0908;-5.2659;
263.1000;1.0916;-5.2685;
263.4000;1.0916;-5.2659;
263.7000;1.0908;-5.2659;
264.0000;1.0908;-5.2659;
264.3000;1.0924;-5.2659;
264.6000;1.0916;-5.2737;
264.9000;1.0908;-5.2763;
265.2000;1.0899;-5.2763;
265.5000;1.0908;-5.2841;
265.8000;1.0908;-5.2815;
266.1000;1.0932;-5.2763;
266.4000;1.0908;-5.2918;
266.7000;1.0899;-5.2970;
267.0000;1.0924;-5.2892;
267.3000;1.0908;-5.2970;
267.6000;1.0908;-5.3022;
267.9000;1.0908;-5.2996;
268.2000;1.0924;-5.2996;
268.5000;1.0932;-5.2970;
268.8000;1.0948;-5.2996;
269.1000;1.0924;-5.3022;
269.4000;1.0883;-5.3074;
269.7000;1.0932;-5.2841;
270.0000;1.0932;-5.2867;
270.3000;1.0899;-5.2892;
270.6000;1.0940;-5.2763;
270.9000;1.0916;-5.2815;
271.2000;1.0916;-5.2867;
271.5000;1.0899;-5.2918;
271.8000;1.0932;-5.2815;
272.1000;1.0932;-5.2737;
272.4000;1.0851;-5.2841;
272.7000;1.0924;-5.2608;
273.0000;1.0916;-5.2556;
273.3000;1.0924;-5.2504;
273.6000;1.0916;-5.2478;
273.9000;1.0932;-5.2504;
274.2000;1.0924;-5.2504;
274.5000;1.0973;-5.2374;
274.8000;1.0899;-5.2530;
275.1000;1.0908;-5.2504;
275.4000;1.0899;-5.2504;
275.7000;1.0924;-5.2504;
276.0000;1.0899;-5.2582;
276.3000;1.0908;-5.2582;
276.6000;1.0908;-5.2582;
276.9000;1.0899;-5.2582;
277.2000;1.0924;-5.2504;
277.5000;1.0908;-5.2556;
277.8000;1.0875;-5.2633;
278.1000;1.0899;-5.2556;
278.4000;1.0932;-5.2426;
278.7000;1.0924;-5.2349;
279.0000;1.0908;-5.2374;
279.3000;1.0924;-5.2297;
279.6000;1.0932;-5.2193;
279.9000;1.0924;-5.2323;
280.2000;1.0924;-5.2349;
280.5000;1.0924;-5.2452;
280.8000;1.0916;-5.2556;
281.1000;1.0916;-5.2530;
281.4000;1.0916;-5.2504;
281.7000;1.0891;-5.2530;
282.0000;1.0932;-5.2374;
282.3000;1.0916;-5.2452;
282.6000;1.0908;-5.2452;
282.9000;1.0916;-5.2452;
283.2000;1.0908;-5.2374;
283.5000;1.0932;-5.2349;
283.8000;1.0924;-5.2400;
284.1000;1.0916;-5.2452;
284.4000;1.0924;-5.2400;
284.7000;1.0924;-5.2452;
285.0000;1.0916;-5.2400;
285.3000;1.0899;-5.2400;
285.6000;1.0916;-5.2374;
285.9000;1.0916;-5.2374;
286.2000;1.0932;-5.2271;
286.5000;1.0899;-5.2349;
286.8000;1.0899;-5.2349;
287.1000;1.0908;-5.2349;
287.4000;1.0899;-5.2504;
287.7000;1.0899;-5.2452;
288.0000;1.0924;-5.2400;
288.3000;1.0908;-5.2374;
288.6000;1.0932;-5.2297;
288.9000;1.0899;-5.2426;
289.2000;1.0891;-5.2504;
289.5000;1.0899;-5.2400;
289.8000;1.0908;-5.2374;
290.1000;1.0916;-5.2426;
290.4000;1.0940;-5.2323;
290.7000;1.0908;-5.2374;
291.0000;1.0916;-5.2478;
291.3000;1.0899;-5.2504;
291.6000;1.0916;-5.2426;
291.9000;1.0899;-5.2452;
292.2000;1.0924;-5.2400;
292.5000;1.0891;-5.2374;
292.8000;1.0916;-5.2271;
293.1000;1.0924;-5.2141;
293.4000;1.0883;-5.2245;
293.7000;1.0908;-5.2167;
294.0000;1.0916;-5.2141;
294.3000;1.0859;-5.2400;
294.6000;1.0924;-5.2323;
294.9000;1.0916;-5.2349;
295.2000;1.0916;-5.2374;
295.5000;1.0973;-5.2245;
295.8000;1.0851;-5.2659;
296.1000;1.0948;-5.2452;
296.4000;1.0932;-5.2452;
296.7000;1.0932;-5.2400;
297.0000;1.0916;-5.2426;
297.3000;1.0916;-5.2452;
297.6000;1.0924;-5.2374;
297.9000;1.0908;-5.2374;
298.2000;1.0924;-5.2297;
298.5000;1.0916;-5.2426;
298.8000;1.0916;-5.2478;
299.1000;1.0932;-5.2504;
299.4000;1.0899;-5.2556;
299.7000;1.0916;-5.2478;
300.0000;1.0916;-5.2478;
300.3000;1.0908;-5.2530;
300.6000;1.0924;-5.2478;
300.9000;1.0891;-5.2633;
301.2000;1.0916;-5.2659;
301.5000;1.0932;-5.2659;
301.8000;1.0908;-5.2659;
302.1000;1.0916;-5.2659;
302.4000;1.0916;-5.2633;
302.7000;1.0908;-5.2582;
303.0000;1.0908;-5.2685;
303.3000;1.0908;-5.2608;
303.6000;1.0899;-5.2608;
303.9000;1.0916;-5.2608;
304.2000;1.0908;-5.2608;
304.5000;1.0883;-5.2633;
304.8000;1.0916;-5.2582;
305.1000;1.0908;-5.2608;
305.4000;1.0916;-5.2608;
305.7000;1.0932;-5.2711;
306.0000;1.0916;-5.2685;
306.3000;1.0924;-5.2685;
306.6000;1.0956;-5.2556;
306.9000;1.0916;-5.2659;
307.2000;1.0924;-5.2737;
307.5000;1.0908;-5.2789;
307.8000;1.0908;-5.2737;
308.1000;1.0924;-5.2685;
308.4000;1.0908;-5.2789;
308.7000;1.0875;-5.2815;
309.0000;1.0940;-5.2763;
309.3000;1.0908;-5.2763;
309.6000;1.0924;-5.2685;
309.9000;1.0908;-5.2789;
310.2000;1.0932;-5.2685;
310.5000;1.0932;-5.2556;
310.8000;1.0916;-5.2530;
311.1000;1.0899;-5.2530;
311.4000;1.0899;-5.2608;
311.7000;1.0908;-5.2633;
312.0000;1.0908;-5.2659;
312.3000;1.0908;-5.2659;
312.6000;1.0924;-5.2608;
312.9000;1.0899;-5.2556;
313.2000;1.0924;-5.2530;
313.5000;1.0891;-5.2633;
313.8000;1.0875;-5.2815;
314.1000;1.0916;-5.2763;
314.4000;1.0924;-5.2789;
314.7000;1.0916;-5.2789;
315.0000;1.0908;-5.2789;
315.3000;1.0932;-5.2711;
315.6000;1.0916;-5.2685;
315.9000;1.0899;-5.2633;
316.2000;1.0883;-5.2685;
316.5000;1.0940;-5.2530;
316.8000;1.0908;-5.2556;
317.1000;1.0940;-5.2478;
317.4000;1.0842;-5.2685;
317.7000;1.0973;-5.2400;
318.0000;1.0924;-5.2556;
318.3000;1.0948;-5.2556;
318.6000;1.0948;-5.2504;
318.9000;1.0899;-5.2556;
319.2000;1.0965;-5.2452;
319.5000;1.0924;-5.2582;
319.8000;1.0908;-5.2608;
320.1000;1.0908;-5.2659;
320.4000;1.0924;-5.2582;
320.7000;1.0940;-5.2633;
321.0000;1.0924;-5.2685;
321.3000;1.0924;-5.2763;
321.6000;1.0916;-5.2763;
321.9000;1.0948;-5.2737;
322.2000;1.0883;-5.2789;
322.5000;1.0932;-5.2556;
322.8000;1.0924;-5.2582;
323.1000;1.0916;-5.2504;
323.4000;1.0916;-5.2582;
323.7000;1.0908;-5.2582;
324.0000;1.0916;-5.2582;
324.3000;1.0916;-5.2582;
324.6000;1.0908;-5.2556;
324.9000;1.0899;-5.2556;
325.2000;1.0940;-5.2349;
325.5000;1.0932;-5.2349;
325.8000;1.0924;-5.2349;
326.1000;1.0916;-5.2426;
326.4000;1.0908;-5.2374;
326.7000;1.0916;-5.2374;
327.0000;1.0916;-5.2400;
327.3000;1.0908;-5.2426;
327.6000;1.0908;-5.2452;
327.9000;1.0908;-5.2582;
328.2000;1.0924;-5.2582;
328.5000;1.0899;-5.2685;
328.8000;1.0908;-5.2685;
329.1000;1.0908;-5.2608;
329.4000;1.0916;-5.2504;
329.7000;1.0965;-5.2374;
330.0000;1.0932;-5.2426;
330.3000;1.0908;-5.2504;
330.6000;1.0867;-5.2608;
330.9000;1.0891;-5.2530;
331.2000;1.0908;-5.2478;
331.5000;1.0908;-5.2504;
331.8000;1.0940;-5.2478;
332.1000;1.0948;-5.2504;
332.4000;1.0932;-5.2530;
332.7000;1.0867;-5.2659;
333.0000;1.0908;-5.2633;
333.3000;1.0932;-5.2530;
333.6000;1.0924;-5.2530;
333.9000;1.0916;-5.2582;
334.2000;1.0908;-5.2582;
334.5000;1.0867;-5.2711;
334.8000;1.0924;-5.2608;
335.1000;1.0924;-5.2633;
335.4000;1.0908;-5.2633;
335.7000;1.0940;-5.2608;
336.0000;1.0924;-5.2582;
336.3000;1.0916;-5.2582;
336.6000;1.0916;-5.2556;
336.9000;1.0834;-5.2763;
337.2000;1.0940;-5.2582;
337.5000;1.0916;-5.2685;
337.8000;1.0916;-5.2633;
338.1000;1.0924;-5.2633;
338.4000;1.0899;-5.2685;
338.7000;1.0932;-5.2659;
339.0000;1.0891;-5.2633;
339.3000;1.0924;-5.2582;
339.6000;1.0899;-5.2556;
339.9000;1.0908;-5.2582;
340.2000;1.0908;-5.2633;
340.5000;1.0899;-5.2685;
340.8000;1.0916;-5.2556;
341.1000;1.0924;-5.2582;
341.4000;1.0924;-5.2633;
341.7000;1.0932;-5.2608;
342.0000;1.0940;-5.2608;
342.3000;1.0948;-5.2556;
342.6000;1.0924;-5.2608;
342.9000;1.0883;-5.2685;
343.2000;1.0924;-5.2582;
343.5000;1.0916;-5.2659;
343.8000;1.0899;-5.2763;
344.1000;1.0916;-5.2737;
344.4000;1.0924;-5.2789;
344.7000;1.0924;-5.2815;
345.0000;1.0916;-5.2841;
345.3000;1.0924;-5.2815;
345.6000;1.0924;-5.2815;
345.9000;1.0940;-5.2685;
346.2000;1.0916;-5.2685;
346.5000;1.0924;-5.2608;
346.8000;1.0908;-5.2556;
347.1000;1.0916;-5.2608;
347.4000;1.0932;-5.2556;
347.7000;1.0948;-5.2582;
348.0000;1.0908;-5.2685;
348.3000;1.0924;-5.2608;
348.6000;1.0908;-5.2633;
348.9000;1.0916;-5.2608;
349.2000;1.0891;-5.2556;
349.5000;1.0899;-5.2582;
349.8000;1.0891;-5.2478;
350.1000;1.0899;-5.2452;
350.4000;1.0899;-5.2478;
350.7000;1.0891;-5.2582;
351.0000;1.0908;-5.2659;
351.3000;1.0908;-5.2763;
351.6000;1.0908;-5.2789;
351.9000;1.0908;-5.2789;
352.2000;1.0908;-5.2789;
352.5000;1.0883;-5.2867;
352.8000;1.0940;-5.2711;
353.1000;1.0908;-5.2763;
353.4000;1.0916;-5.2763;
353.7000;1.0924;-5.2685;
354.0000;1.0908;-5.2633;
354.3000;1.0908;-5.2685;
354.6000;1.0908;-5.2685;
354.9000;1.0948;-5.2582;
355.2000;1.0908;-5.2633;
355.5000;1.0867;-5.2815;
355.8000;1.0908;-5.2659;
356.1000;1.0932;-5.2504;
356.4000;1.0916;-5.2556;
356.7000;1.0916;-5.2659;
357.0000;1.0899;-5.2737;
357.3000;1.0916;-5.2608;
357.6000;1.0924;-5.2556;
357.9000;1.0891;-5.2737;
358.2000;1.0908;-5.2789;
358.5000;1.0899;-5.2867;
358.8000;1.0924;-5.2763;
359.1000;1.0916;-5.2789;
359.4000;1.0908;-5.2737;
359.7000;1.0908;-5.2711;
360.0000;1.0924;-5.2737;
360.3000;1.0932;-5.2659;
360.6000;1.0899;-5.2763;
360.9000;1.0891;-5.2763;
361.2000;1.0940;-5.2633;
361.5000;1.0916;-5.2763;
361.8000;1.0908;-5.2763;
362.1000;1.0899;-5.2659;
362.4000;1.0908;-5.2608;
362.7000;1.0916;-5.2659;
363.0000;1.0916;-5.2633;
363.3000;1.0859;-5.2608;
363.6000;1.0899;-5.2504;
363.9000;1.0916;-5.2478;
364.2000;1.0908;-5.2478;
364.5000;1.0916;-5.2426;
364.8000;1.0908;-5.2530;
365.1000;1.0924;-5.2530;
365.4000;1.0908;-5.2426;
365.7000;1.0899;-5.2504;
366.0000;1.0899;-5.2504;
366.3000;1.0916;-5.2400;
366.6000;1.0908;-5.2452;
366.9000;1.0948;-5.2400;
367.2000;1.0916;-5.2478;
367.5000;1.0916;-5.2556;
367.8000;1.0916;-5.2685;
368.1000;1.0940;-5.2608;
368.4000;1.0924;-5.2659;
368.7000;1.0932;-5.2530;
369.0000;1.0932;-5.2504;
369.3000;1.0924;-5.2504;
369.6000;1.0916;-5.2556;
369.9000;1.0916;-5.2504;
370.2000;1.0997;-5.2349;
370.5000;1.0916;-5.2582;
370.8000;1.0924;-5.2608;
371.1000;1.0924;-5.2633;
371.4000;1.0916;-5.2685;
371.7000;1.0916;-5.2633;
372.0000;1.0924;-5.2659;
372.3000;1.0924;-5.2659;
372.6000;1.0916;-5.2659;
372.9000;1.0916;-5.2530;
373.2000;1.0867;-5.2737;
373.5000;1.0908;-5.2608;
373.8000;1.0916;-5.2582;
374.1000;1.0924;-5.2556;
374.4000;1.0916;-5.2608;
374.7000;1.0940;-5.2504;
375.0000;1.0924;-5.2478;
375.3000;1.0924;-5.2478;
375.6000;1.0956;-5.2426;
375.9000;1.0924;-5.2426;
376.2000;1.0916;-5.2452;
376.5000;1.0932;-5.2530;
376.8000;1.0924;-5.2504;
377.1000;1.0916;-5.2478;
377.4000;1.0924;-5.2426;
377.7000;1.0916;-5.2504;
378.0000;1.0924;-5.2556;
378.3000;1.0916;-5.2582;
378.6000;1.0916;-5.2582;
378.9000;1.0924;-5.2582;
379.2000;1.0859;-5.2711;
379.5000;1.0940;-5.2556;
379.8000;1.0916;-5.2582;
380.1000;1.0916;-5.2556;
380.4000;1.0891;-5.2633;
380.7000;1.0908;-5.2530;
381.0000;1.0899;-5.2582;
381.3000;1.0899;-5.2608;
381.6000;1.0932;-5.2504;
381.9000;1.0924;-5.2582;
382.2000;1.0916;-5.2633;
382.5000;1.0924;-5.2633;
382.8000;1.0932;-5.2556;
383.1000;1.0916;-5.2633;
383.4000;1.0899;-5.2608;
383.7000;1.0891;-5.2659;
384.0000;1.0956;-5.2556;
384.3000;1.0899;-5.2685;
384.6000;1.0867;-5.2763;
384.9000;1.0908;-5.2659;
385.2000;1.0899;-5.2659;
385.5000;1.0981;-5.2374;
385.8000;1.0908;-5.2582;
386.1000;1.0908;-5.2582;
386.4000;1.0899;-5.2530;
386.7000;1.0940;-5.2478;
387.0000;1.0932;-5.2530;
387.3000;1.0916;-5.2633;
387.6000;1.0948;-5.2608;
387.9000;1.0891;-5.2711;
388.2000;1.0916;-5.2633;
388.5000;1.0940;-5.2556;
388.8000;1.0908;-5.2659;
389.1000;1.0891;-5.2659;
389.4000;1.0891;-5.2608;
389.7000;1.0916;-5.2556;
390.0000;1.0899;-5.2504;
390.3000;1.0916;-5.2478;
390.6000;1.0916;-5.2426;
390.9000;1.0916;-5.2323;
391.2000;1.0916;-5.2349;
391.5000;1.0916;-5.2323;
391.8000;1.0891;-5.2400;
392.1000;1.0916;-5.2426;
392.4000;1.0859;-5.2478;
392.7000;1.0883;-5.2374;
393.0000;1.0891;-5.2400;
393.3000;1.0875;-5.2426;
393.6000;1.0899;-5.2323;
393.9000;1.0924;-5.2349;
394.2000;1.0891;-5.2400;
394.5000;1.0908;-5.2426;
394.8000;1.0908;-5.2349;
395.1000;1.0899;-5.2349;
395.4000;1.0834;-5.2530;
395.7000;1.0899;-5.2374;
396.0000;1.0924;-5.2452;
396.3000;1.0916;-5.2504;
396.6000;1.0916;-5.2556;
396.9000;1.0924;-5.2556;
397.2000;1.0932;-5.2556;
397.5000;1.0956;-5.2530;
397.8000;1.0932;-5.2504;
398.1000;1.0899;-5.2530;
398.4000;1.0908;-5.2608;
398.7000;1.0924;-5.2504;
399.0000;1.0899;-5.2582;
399.3000;1.0908;-5.2556;
399.6000;1.0899;-5.2556;
399.9000;1.0859;-5.2633;
400.2000;1.0924;-5.2530;
400.5000;1.0965;-5.2297;
400.8000;1.0908;-5.2452;
401.1000;1.0899;-5.2504;
401.4000;1.0916;-5.2556;
401.7000;1.0859;-5.2685;
402.0000;1.0916;-5.2582;
402.3000;1.0916;-5.2633;
402.6000;1.0940;-5.2633;
402.9000;1.0916;-5.2556;
403.2000;1.0924;-5.2530;
403.5000;1.0948;-5.2426;
403.8000;1.0924;-5.2504;
404.1000;1.0924;-5.2374;
404.4000;1.0916;-5.2349;
404.7000;1.0916;-5.2323;
405.0000;1.0908;-5.2297;
405.3000;1.0899;-5.2219;
405.6000;1.0883;-5.2167;
405.9000;1.0899;-5.2090;
406.2000;1.0916;-5.2167;
406.5000;1.0899;-5.2374;
406.8000;1.0908;-5.2426;
407.1000;1.0924;-5.2400;
407.4000;1.0916;-5.2426;
407.7000;1.0924;-5.2452;
408.0000;1.0908;-5.2478;
408.3000;1.0899;-5.2530;
408.6000;1.0883;-5.2582;
408.9000;1.0924;-5.2556;
409.2000;1.0916;-5.2582;
409.5000;1.0908;-5.2504;
409.8000;1.0924;-5.2452;
410.1000;1.0916;-5.2400;
410.4000;1.0924;-5.2452;
410.7000;1.0916;-5.2452;
411.0000;1.0891;-5.2608;
411.3000;1.0932;-5.2556;
411.6000;1.0891;-5.2582;
411.9000;1.0899;-5.2633;
412.2000;1.0908;-5.2582;
412.5000;1.0989;-5.2349;
412.8000;1.0908;-5.2608;
413.1000;1.0908;-5.2556;
413.4000;1.0916;-5.2530;
413.7000;1.0908;-5.2582;
414.0000;1.0908;-5.2530;
414.3000;1.0899;-5.2659;
414.6000;1.0916;-5.2633;
414.9000;1.0916;-5.2608;
415.2000;1.0908;-5.2582;
415.5000;1.0899;-5.2608;
415.8000;1.0916;-5.2478;
416.1000;1.0891;-5.2530;
416.4000;1.0916;-5.2426;
416.7000;1.0916;-5.2400;
417.0000;1.0891;-5.2452;
417.3000;1.0891;-5.2478;
417.6000;1.0899;-5.2478;
417.9000;1.0908;-5.2400;
418.2000;1.0899;-5.2478;
418.5000;1.0908;-5.2478;
418.8000;1.0899;-5.2426;
419.1000;1.0916;-5.2349;
419.4000;1.0916;-5.2323;
419.7000;1.0883;-5.2374;
420.0000;1.0908;-5.2349;
420.3000;1.0916;-5.2297;
420.6000;1.0908;-5.2323;
420.9000;1.0916;-5.2323;
421.2000;1.0916;-5.2297;
421.5000;1.0891;-5.2349;
421.8000;1.0932;-5.2452;
422.1000;1.0916;-5.2374;
422.4000;1.0899;-5.2582;
422.7000;1.0908;-5.2504;
423.0000;1.0916;-5.2426;
423.3000;1.0916;-5.2426;
423.6000;1.0867;-5.2530;
423.9000;1.0908;-5.2400;
424.2000;1.0916;-5.2374;
424.5000;1.0932;-5.2297;
424.8000;1.0899;-5.2349;
425.1000;1.0899;-5.2349;
425.4000;1.0899;-5.2349;
425.7000;1.0875;-5.2478;
426.0000;1.0908;-5.2452;
426.3000;1.0899;-5.2426;
426.6000;1.0810;-5.2685;
426.9000;1.0899;-5.2426;
427.2000;1.0899;-5.2478;
427.5000;1.0908;-5.2323;
427.8000;1.0908;-5.2297;
428.1000;1.0891;-5.2400;
428.4000;1.0899;-5.2400;
428.7000;1.0899;-5.2400;
429.0000;1.0916;-5.2400;
429.3000;1.0932;-5.2426;
429.6000;1.0916;-5.2478;
429.9000;1.0891;-5.2608;
430.2000;1.0924;-5.2530;
430.5000;1.0908;-5.2582;
430.8000;1.0932;-5.2530;
431.1000;1.0916;-5.2633;
431.4000;1.0899;-5.2608;
431.7000;1.0891;-5.2530;
432.0000;1.0916;-5.2478;
432.3000;1.0859;-5.2582;
432.6000;1.0908;-5.2452;
432.9000;1.0842;-5.2659;
433.2000;1.0875;-5.2711;
433.5000;1.0948;-5.2478;
433.8000;1.0908;-5.2452;
434.1000;1.0940;-5.2426;
434.4000;1.0981;-5.2323;
434.7000;1.0916;-5.2374;
435.0000;1.0948;-5.2323;
435.3000;1.0924;-5.2349;
435.6000;1.0940;-5.2297;
435.9000;1.0899;-5.2452;
436.2000;1.0924;-5.2426;
436.5000;1.0965;-5.2374;
436.8000;1.0908;-5.2478;
437.1000;1.0916;-5.2478;
437.4000;1.0899;-5.2452;
437.7000;1.0899;-5.2530;
438.0000;1.0908;-5.2478;
438.3000;1.0948;-5.2374;
438.6000;1.0891;-5.2426;
438.9000;1.0891;-5.2400;
439.2000;1.0932;-5.2323;
439.5000;1.0924;-5.2349;
439.8000;1.0899;-5.2374;
440.1000;1.0899;-5.2297;
440.4000;1.0859;-5.2400;
440.7000;1.0916;-5.2297;
441.0000;1.0867;-5.2504;
441.3000;1.0891;-5.2400;
441.6000;1.0899;-5.2478;
441.9000;1.0883;-5.2452;
442.2000;1.0965;-5.2323;
442.5000;1.0891;-5.2426;
442.8000;1.0916;-5.2452;
443.1000;1.0899;-5.2582;
443.4000;1.0891;-5.2504;
443.7000;1.0899;-5.2478;
444.0000;1.0908;-5.2504;
444.3000;1.0924;-5.2374;
444.6000;1.0908;-5.2374;
444.9000;1.0891;-5.2452;
445.2000;1.0908;-5.2452;
445.5000;1.0891;-5.2530;
445.8000;1.0899;-5.2556;
446.1000;1.0899;-5.2608;
446.4000;1.0908;-5.2608;
446.7000;1.0899;-5.2685;
447.0000;1.0875;-5.2685;
447.3000;1.0916;-5.2452;
447.6000;1.0899;-5.2426;
447.9000;1.0908;-5.2426;
448.2000;1.0899;-5.2400;
448.5000;1.0932;-5.2323;
448.8000;1.0899;-5.2349;
449.1000;1.0899;-5.2400;
449.4000;1.0916;-5.2426;
449.7000;1.0916;-5.2478;
450.0000;1.0899;-5.2504;
450.3000;1.0899;-5.2478;
450.6000;1.0908;-5.2400;
450.9000;1.0891;-5.2400;
451.2000;1.0891;-5.2478;
451.5000;1.0891;-5.2608;
451.8000;1.0883;-5.2608;
452.1000;1.0875;-5.2556;
452.4000;1.0899;-5.2504;
452.7000;1.0891;-5.2504;
453.0000;1.0916;-5.2374;
453.3000;1.0883;-5.2374;
453.6000;1.0899;-5.2426;
453.9000;1.0891;-5.2530;
454.2000;1.0924;-5.2582;
454.5000;1.0891;-5.2608;
454.8000;1.0908;-5.2685;
455.1000;1.0973;-5.2530;
455.4000;1.0891;-5.2659;
455.7000;1.0908;-5.2659;
456.0000;1.0899;-5.2711;
456.3000;1.0916;-5.2763;
456.6000;1.0891;-5.2763;
456.9000;1.0891;-5.2815;
457.2000;1.0899;-5.2763;
457.5000;1.0908;-5.2633;
457.8000;1.0899;-5.2685;
458.1000;1.0899;-5.2659;
458.4000;1.0899;-5.2737;
458.7000;1.0883;-5.2685;
459.0000;1.0932;-5.2659;
459.3000;1.0924;-5.2711;
459.6000;1.0899;-5.2582;
459.9000;1.0916;-5.2582;
460.2000;1.0899;-5.2582;
460.5000;1.0891;-5.2711;
460.8000;1.0891;-5.2763;
461.1000;1.0916;-5.2841;
461.4000;1.0875;-5.2841;
461.7000;1.0883;-5.2659;
462.0000;1.0883;-5.2556;
462.3000;1.0891;-5.2530;
462.6000;1.0899;-5.2452;
462.9000;1.0916;-5.2349;
463.2000;1.0899;-5.2452;
463.5000;1.0891;-5.2400;
463.8000;1.0883;-5.2374;
464.1000;1.0875;-5.2374;
464.4000;1.0875;-5.2452;
464.7000;1.0867;-5.2400;
465.0000;1.0883;-5.2400;
465.3000;1.0891;-5.2400;
465.6000;1.0899;-5.2426;
465.9000;1.0899;-5.2426;
466.2000;1.0916;-5.2400;
466.5000;1.0916;-5.2426;
466.8000;1.0899;-5.2400;
467.1000;1.0891;-5.2374;
467.4000;1.0908;-5.2374;
467.7000;1.0932;-5.2297;
468.0000;1.0948;-5.2219;
468.3000;1.0883;-5.2452;
468.6000;1.0891;-5.2504;
468.9000;1.0940;-5.2478;
469.2000;1.0867;-5.2659;
469.5000;1.0899;-5.2556;
469.8000;1.0916;-5.2452;
470.1000;1.0924;-5.2374;
470.4000;1.0916;-5.2400;
470.7000;1.0899;-5.2400;
471.0000;1.0908;-5.2374;
471.3000;1.0916;-5.2297;
471.6000;1.0956;-5.2167;
471.9000;1.0899;-5.2323;
472.2000;1.0924;-5.2271;
472.5000;1.0956;-5.2193;
472.8000;1.0883;-5.2297;
473.1000;1.0899;-5.2271;
473.4000;1.0883;-5.2374;
473.7000;1.0883;-5.2349;
474.0000;1.0818;-5.2452;
474.3000;1.0899;-5.2297;
474.6000;1.0891;-5.2297;
474.9000;1.0899;-5.2426;
475.2000;1.0916;-5.2374;
475.5000;1.0875;-5.2452;
475.8000;1.0883;-5.2400;
476.1000;1.0916;-5.2297;
476.4000;1.0916;-5.2349;
476.7000;1.0924;-5.2349;
477.0000;1.0891;-5.2400;
477.3000;1.0899;-5.2400;
477.6000;1.0932;-5.2400;
477.9000;1.0924;-5.2400;
478.2000;1.0899;-5.2556;
478.5000;1.0916;-5.2504;
478.8000;1.0883;-5.2504;
479.1000;1.0948;-5.2271;
479.4000;1.0899;-5.2349;
479.7000;1.0916;-5.2271;
480.0000;1.0891;-5.2297;
480.3000;1.0883;-5.2297;
480.6000;1.0948;-5.2193;
480.9000;1.0891;-5.2400;
481.2000;1.0916;-5.2504;
481.5000;1.0940;-5.2452;
481.8000;1.0883;-5.2608;
482.1000;1.0916;-5.2608;
482.4000;1.0924;-5.2582;
482.7000;1.0899;-5.2582;
483.0000;1.0908;-5.2608;
483.3000;1.0899;-5.2608;
483.6000;1.0899;-5.2582;
483.9000;1.0916;-5.2608;
484.2000;1.0940;-5.2504;
484.5000;1.0908;-5.2582;
484.8000;1.0908;-5.2452;
485.1000;1.0875;-5.2426;
485.4000;1.0883;-5.2374;
485.7000;1.0899;-5.2349;
486.0000;1.0899;-5.2452;
486.3000;1.0842;-5.2530;
486.6000;1.0891;-5.2426;
486.9000;1.0932;-5.2374;
487.2000;1.0891;-5.2478;
487.5000;1.0883;-5.2426;
487.8000;1.0891;-5.2323;
488.1000;1.0908;-5.2245;
488.4000;1.0891;-5.2271;
488.7000;1.0883;-5.2193;
489.0000;1.0883;-5.2141;
489.3000;1.0883;-5.2115;
489.6000;1.0883;-5.2064;
489.9000;1.0891;-5.2115;
490.2000;1.0867;-5.2219;
490.5000;1.0883;-5.2219;
490.8000;1.0810;-5.2400;
491.1000;1.0899;-5.2219;
491.4000;1.0891;-5.2141;
491.7000;1.0899;-5.2193;
492.0000;1.0924;-5.2219;
492.3000;1.0916;-5.2193;
492.6000;1.0916;-5.2167;
492.9000;1.0891;-5.2219;
493.2000;1.0908;-5.2193;
493.5000;1.0908;-5.2323;
493.8000;1.0842;-5.2478;
494.1000;1.0924;-5.2219;
494.4000;1.0891;-5.2193;
494.7000;1.0932;-5.2141;
495.0000;1.0908;-5.2167;
495.3000;1.0908;-5.2193;
495.6000;1.0908;-5.2245;
495.9000;1.0883;-5.2297;
496.2000;1.0883;-5.2219;
496.5000;1.0932;-5.2115;
496.8000;1.0899;-5.2193;
497.1000;1.0899;-5.2323;
497.4000;1.0899;-5.2271;
497.7000;1.0932;-5.2141;
498.0000;1.0924;-5.2115;
498.3000;1.0940;-5.2115;
498.6000;1.0916;-5.2219;
498.9000;1.0891;-5.2219;
499.2000;1.0899;-5.2271;
499.5000;1.0908;-5.2374;
499.8000;1.0899;-5.2323;
500.1000;1.0851;-5.2400;
500.4000;1.0883;-5.2400;
500.7000;1.0891;-5.2400;
501.0000;1.0932;-5.2245;
501.3000;1.0842;-5.2478;
501.6000;1.0899;-5.2349;
501.9000;1.0875;-5.2374;
502.2000;1.0916;-5.2193;
502.5000;1.0908;-5.2297;
502.8000;1.0899;-5.2297;
503.1000;1.0899;-5.2297;
503.4000;1.0908;-5.2349;
503.7000;1.0899;-5.2400;
504.0000;1.0891;-5.2452;
504.3000;1.0883;-5.2452;
504.6000;1.0891;-5.2452;
504.9000;1.0908;-5.2452;
505.2000;1.0908;-5.2374;
505.5000;1.0859;-5.2374;
505.8000;1.0908;-5.2245;
506.1000;1.0891;-5.2193;
506.4000;1.0883;-5.2323;
506.7000;1.0899;-5.2297;
507.0000;1.0891;-5.2271;
507.3000;1.0908;-5.2297;
507.6000;1.0916;-5.2271;
507.9000;1.0891;-5.2271;
508.2000;1.0883;-5.2297;
508.5000;1.0867;-5.2297;
508.8000;1.0883;-5.2323;
509.1000;1.0891;-5.2400;
509.4000;1.0899;-5.2374;
509.7000;1.0891;-5.2297;
510.0000;1.0891;-5.2297;
510.3000;1.0899;-5.2297;
510.6000;1.0891;-5.2349;
510.9000;1.0891;-5.2400;
511.2000;1.0899;-5.2400;
511.5000;1.0891;-5.2297;
511.8000;1.0867;-5.2400;
512.1000;1.0891;-5.2349;
512.4000;1.0899;-5.2323;
512.7000;1.0883;-5.2297;
513.0000;1.0891;-5.2400;
513.3000;1.0891;-5.2374;
513.6000;1.0908;-5.2400;
513.9000;1.0908;-5.2478;
514.2000;1.0883;-5.2452;
514.5000;1.0875;-5.2374;
514.8000;1.0891;-5.2374;
515.1000;1.0891;-5.2400;
515.4000;1.0899;-5.2374;
515.7000;1.0924;-5.2400;
516.0000;1.0924;-5.2452;
516.3000;1.0899;-5.2478;
516.6000;1.0899;-5.2400;
516.9000;1.0891;-5.2374;
517.2000;1.0916;-5.2349;
517.5000;1.0899;-5.2374;
517.8000;1.0916;-5.2400;
518.1000;1.0924;-5.2374;
518.4000;1.0899;-5.2504;
518.7000;1.0818;-5.2685;
519.0000;1.0924;-5.2349;
519.3000;1.0899;-5.2297;
519.6000;1.0899;-5.2245;
519.9000;1.0883;-5.2323;
520.2000;1.0948;-5.2245;
520.5000;1.0924;-5.2297;
520.8000;1.0875;-5.2426;
521.1000;1.0883;-5.2374;
521.4000;1.0899;-5.2323;
521.7000;1.0883;-5.2323;
522.0000;1.0883;-5.2167;
522.3000;1.0899;-5.2193;
522.6000;1.0899;-5.2141;
522.9000;1.0891;-5.2167;
523.2000;1.0891;-5.2193;
523.5000;1.0899;-5.2141;
523.8000;1.0891;-5.2167;
524.1000;1.0908;-5.2090;
524.4000;1.0883;-5.2064;
524.7000;1.0867;-5.2167;
525.0000;1.0899;-5.2271;
525.3000;1.0891;-5.2349;
525.6000;1.0908;-5.2349;
525.9000;1.0883;-5.2245;
526.2000;1.0875;-5.2297;
526.5000;1.0908;-5.2245;
526.8000;1.0899;-5.2193;
527.1000;1.0883;-5.2193;
527.4000;1.0867;-5.2245;
527.7000;1.0908;-5.2193;
528.0000;1.0908;-5.2167;
528.3000;1.0899;-5.2297;
528.6000;1.0875;-5.2297;
528.9000;1.0899;-5.2219;
529.2000;1.0899;-5.2245;
529.5000;1.0867;-5.2271;
529.8000;1.0891;-5.2271;
530.1000;1.0899;-5.2245;
530.4000;1.0883;-5.2426;
530.7000;1.0891;-5.2452;
531.0000;1.0875;-5.2400;
531.3000;1.0883;-5.2374;
531.6000;1.0899;-5.2400;
531.9000;1.0891;-5.2452;
532.2000;1.0908;-5.2452;
532.5000;1.0908;-5.2374;
532.8000;1.0956;-5.2193;
533.1000;1.0891;-5.2297;
533.4000;1.0899;-5.2323;
533.7000;1.0891;-5.2245;
534.0000;1.0899;-5.2271;
534.3000;1.0916;-5.2323;
534.6000;1.0908;-5.2349;
534.9000;1.0883;-5.2400;
535.2000;1.0908;-5.2349;
535.5000;1.0891;-5.2426;
535.8000;1.0883;-5.2374;
536.1000;1.0883;-5.2400;
536.4000;1.0908;-5.2349;
536.7000;1.0883;-5.2349;
537.0000;1.0916;-5.2297;
537.3000;1.0883;-5.2297;
537.6000;1.0899;-5.2297;
537.9000;1.0899;-5.2297;
538.2000;1.0899;-5.2374;
538.5000;1.0851;-5.2504;
538.8000;1.0899;-5.2478;
539.1000;1.0891;-5.2504;
539.4000;1.0916;-5.2530;
539.7000;1.0899;-5.2582;
540.0000;1.0842;-5.2685;
540.3000;1.0875;-5.2530;
540.6000;1.0908;-5.2452;
540.9000;1.0842;-5.2556;
541.2000;1.0908;-5.2323;
541.5000;1.0875;-5.2400;
541.8000;1.0883;-5.2323;
542.1000;1.0899;-5.2271;
542.4000;1.0891;-5.2426;
542.7000;1.0842;-5.2426;
543.0000;1.0899;-5.2374;
543.3000;1.0891;-5.2271;
543.6000;1.0891;-5.2349;
543.9000;1.0891;-5.2374;
544.2000;1.0891;-5.2426;
544.5000;1.0899;-5.2426;
544.8000;1.0908;-5.2374;
545.1000;1.0883;-5.2323;
545.4000;1.0899;-5.2349;
545.7000;1.0891;-5.2297;
546.0000;1.0891;-5.2323;
546.3000;1.0842;-5.2426;
546.6000;1.0899;-5.2323;
546.9000;1.0891;-5.2323;
547.2000;1.0867;-5.2323;
547.5000;1.0891;-5.2349;
547.8000;1.0891;-5.2349;
548.1000;1.0891;-5.2297;
548.4000;1.0883;-5.2374;
548.7000;1.0867;-5.2426;
549.0000;1.0883;-5.2452;
549.3000;1.0875;-5.2452;
549.6000;1.0891;-5.2452;
549.9000;1.0891;-5.2478;
550.2000;1.0883;-5.2426;
550.5000;1.0940;-5.2245;
550.8000;1.0891;-5.2400;
551.1000;1.0883;-5.2374;
551.4000;1.0899;-5.2452;
551.7000;1.0899;-5.2556;
552.0000;1.0908;-5.2608;
552.3000;1.0891;-5.2633;
552.6000;1.0908;-5.2582;
552.9000;1.0859;-5.2659;
553.2000;1.0867;-5.2608;
553.5000;1.0875;-5.2556;
553.8000;1.0899;-5.2504;
554.1000;1.0867;-5.2478;
554.4000;1.0867;-5.2478;
554.7000;1.0883;-5.2426;
555.0000;1.0891;-5.2452;
555.3000;1.0891;-5.2426;
555.6000;1.0891;-5.2400;
555.9000;1.0899;-5.2400;
556.2000;1.0851;-5.2478;
556.5000;1.0883;-5.2452;
556.8000;1.0891;-5.2478;
557.1000;1.0883;-5.2374;
557.4000;1.0891;-5.2374;
557.7000;1.0891;-5.2349;
558.0000;1.0891;-5.2400;
558.3000;1.0899;-5.2349;
558.6000;1.0899;-5.2374;
558.9000;1.0899;-5.2374;
559.2000;1.0899;-5.2400;
559.5000;1.0883;-5.2400;
559.8000;1.0891;-5.2400;
560.1000;1.0908;-5.2374;
560.4000;1.0891;-5.2400;
560.7000;1.0883;-5.2374;
561.0000;1.0899;-5.2297;
561.3000;1.0899;-5.2323;
561.6000;1.0875;-5.2323;
561.9000;1.0875;-5.2271;
562.2000;1.0883;-5.2167;
562.5000;1.0875;-5.2141;
562.8000;1.0883;-5.2167;
563.1000;1.0883;-5.2115;
563.4000;1.0899;-5.2090;
563.7000;1.0932;-5.1960;
564.0000;1.0883;-5.2064;
564.3000;1.0891;-5.2064;
564.6000;1.0956;-5.1960;
564.9000;1.0908;-5.2141;
565.2000;1.0899;-5.2141;
565.5000;1.0891;-5.2219;
565.8000;1.0908;-5.2167;
566.1000;1.0916;-5.2167;
566.4000;1.0908;-5.2115;
566.7000;1.0826;-5.2297;
567.0000;1.0875;-5.2090;
567.3000;1.0875;-5.2167;
567.6000;1.0883;-5.2167;
567.9000;1.0875;-5.2167;
568.2000;1.0867;-5.2193;
568.5000;1.0891;-5.2090;
568.8000;1.0891;-5.2012;
569.1000;1.0883;-5.2141;
569.4000;1.0875;-5.2219;
569.7000;1.0908;-5.2090;
570.0000;1.0908;-5.2115;
570.3000;1.0899;-5.2167;
570.6000;1.0834;-5.2297;
570.9000;1.0891;-5.2090;
571.2000;1.0883;-5.2167;
571.5000;1.0891;-5.2167;
571.8000;1.0891;-5.2245;
572.1000;1.0883;-5.2297;
572.4000;1.0883;-5.2271;
572.7000;1.0867;-5.2271;
573.0000;1.0891;-5.2167;
573.3000;1.0859;-5.2323;
573.6000;1.0891;-5.2245;
573.9000;1.0891;-5.2193;
574.2000;1.0891;-5.2193;
574.5000;1.0899;-5.2167;
574.8000;1.0859;-5.2245;
575.1000;1.0908;-5.2167;
575.4000;1.0891;-5.2167;
575.7000;1.0834;-5.2478;
576.0000;1.0908;-5.2219;
576.3000;1.0908;-5.2219;
576.6000;1.0891;-5.2193;
576.9000;1.0899;-5.2245;
577.2000;1.0891;-5.2245;
577.5000;1.0883;-5.2245;
577.8000;1.0891;-5.2193;
578.1000;1.0899;-5.2064;
578.4000;1.0899;-5.2090;
578.7000;1.0899;-5.2141;
579.0000;1.0899;-5.2115;
579.3000;1.0908;-5.2115;
579.6000;1.0899;-5.2245;
579.9000;1.0899;-5.2245;
580.2000;1.0908;-5.2115;
580.5000;1.0916;-5.2141;
580.8000;1.0916;-5.2115;
581.1000;1.0883;-5.2193;
581.4000;1.0883;-5.2193;
581.7000;1.0883;-5.2141;
582.0000;1.0834;-5.2219;
582.3000;1.0875;-5.2115;
582.6000;1.0899;-5.1986;
582.9000;1.0891;-5.1986;
583.2000;1.0891;-5.2038;
583.5000;1.0883;-5.2115;
583.8000;1.0899;-5.2090;
584.1000;1.0891;-5.2115;
584.4000;1.0899;-5.2038;
584.7000;1.0883;-5.2012;
585.0000;1.0891;-5.1986;
585.3000;1.0883;-5.2012;
585.6000;1.0891;-5.1986;
585.9000;1.0891;-5.1960;
586.2000;1.0883;-5.1960;
586.5000;1.0834;-5.2193;
586.8000;1.0899;-5.1960;
587.1000;1.0908;-5.1986;
587.4000;1.0883;-5.2115;
587.7000;1.0883;-5.2115;
588.0000;1.0891;-5.2141;
588.3000;1.0891;-5.2141;
588.6000;1.0883;-5.2297;
588.9000;1.0891;-5.2400;
589.2000;1.0899;-5.2297;
589.5000;1.0859;-5.2297;
589.8000;1.0883;-5.2167;
590.1000;1.0891;-5.2219;
590.4000;1.0883;-5.2115;
590.7000;1.0916;-5.2090;
591.0000;1.0891;-5.2115;
591.3000;1.0867;-5.2271;
591.6000;1.0891;-5.2193;
591.9000;1.0891;-5.2167;
592.2000;1.0867;-5.2193;
592.5000;1.0867;-5.2245;
592.8000;1.0875;-5.2193;
593.1000;1.0883;-5.2245;
593.4000;1.0883;-5.2374;
593.7000;1.0891;-5.2271;
594.0000;1.0875;-5.2297;
594.3000;1.0899;-5.2115;
594.6000;1.0883;-5.2167;
594.9000;1.0875;-5.2141;
595.2000;1.0875;-5.2064;
595.5000;1.0867;-5.2064;
595.8000;1.0875;-5.2090;
596.1000;1.0875;-5.2090;
596.4000;1.0883;-5.2090;
596.7000;1.0899;-5.2141;
597.0000;1.0891;-5.2271;
597.3000;1.0875;-5.2349;
597.6000;1.0899;-5.2245;
597.9000;1.0859;-5.2349;
598.2000;1.0899;-5.2167;
598.5000;1.0875;-5.2297;
598.8000;1.0875;-5.2323;
599.1000;1.0883;-5.2374;
599.4000;1.0891;-5.2323;
599.7000;1.0875;-5.2349;
600.0000;1.0883;-5.2400;
600.3000;1.0891;-5.2633;
600.6000;1.0867;-5.2789;
600.9000;1.0810;-5.2918;
601.2000;1.0753;-5.3151;
601.5000;1.0663;-5.3411;
601.8000;1.0590;-5.3644;
602.1000;1.0549;-5.3747;
602.4000;1.0427;-5.4084;
602.7000;1.0354;-5.4369;
603.0000;1.0289;-5.4576;
603.3000;1.0224;-5.4732;
603.6000;1.0159;-5.4913;
603.9000;1.0069;-5.5042;
604.2000;1.0020;-5.5120;
604.5000;0.9980;-5.5120;
604.8000;0.9906;-5.5275;
605.1000;0.9866;-5.5327;
605.4000;0.9809;-5.5457;
605.7000;0.9768;-5.5560;
606.0000;0.9703;-5.5690;
606.3000;0.9662;-5.5664;
606.6000;0.9638;-5.5690;
606.9000;0.9548;-5.5871;
607.2000;0.9548;-5.5871;
607.5000;0.9491;-5.5949;
607.8000;0.9467;-5.5975;
608.1000;0.9426;-5.6053;
608.4000;0.9377;-5.6130;
608.7000;0.9304;-5.6234;
609.0000;0.9312;-5.6182;
609.3000;0.9288;-5.6156;
609.6000;0.9280;-5.6156;
609.9000;0.9263;-5.6156;
610.2000;0.9255;-5.6053;
610.5000;0.9231;-5.6053;
610.8000;0.9141;-5.6234;
611.1000;0.9117;-5.6286;
611.4000;0.9084;-5.6337;
611.7000;0.9060;-5.6260;
612.0000;0.9035;-5.6286;
612.3000;0.9003;-5.6286;
612.6000;0.8978;-5.6286;
612.9000;0.8930;-5.6312;
613.2000;0.8921;-5.6363;
613.5000;0.8954;-5.6312;
613.8000;0.8913;-5.6363;
614.1000;0.8840;-5.6415;
614.4000;0.8832;-5.6467;
614.7000;0.8807;-5.6545;
615.0000;0.8791;-5.6597;
615.3000;0.8759;-5.6622;
615.6000;0.8734;-5.6597;
615.9000;0.8718;-5.6545;
616.2000;0.8751;-5.6363;
616.5000;0.8685;-5.6493;
616.8000;0.8645;-5.6545;
617.1000;0.8661;-5.6493;
617.4000;0.8620;-5.6467;
617.7000;0.8596;-5.6441;
618.0000;0.8588;-5.6337;
618.3000;0.8523;-5.6415;
618.6000;0.8547;-5.6312;
618.9000;0.8531;-5.6337;
619.2000;0.8506;-5.6363;
619.5000;0.8531;-5.6363;
619.8000;0.8490;-5.6467;
620.1000;0.8474;-5.6545;
620.4000;0.8449;-5.6545;
620.7000;0.8425;-5.6467;
621.0000;0.8457;-5.6519;
621.3000;0.8376;-5.6778;
621.6000;0.8384;-5.6674;
621.9000;0.8392;-5.6648;
622.2000;0.8376;-5.6648;
622.5000;0.8335;-5.6778;
622.8000;0.8344;-5.6726;
623.1000;0.8319;-5.6752;
623.4000;0.8368;-5.6597;
623.7000;0.8303;-5.6674;
624.0000;0.8295;-5.6674;
624.3000;0.8287;-5.6545;
624.6000;0.8254;-5.6571;
624.9000;0.8262;-5.6597;
625.2000;0.8230;-5.6674;
625.5000;0.8246;-5.6597;
625.8000;0.8213;-5.6597;
626.1000;0.8197;-5.6519;
626.4000;0.8221;-5.6441;
626.7000;0.8221;-5.6441;
627.0000;0.8173;-5.6571;
627.3000;0.8140;-5.6648;
627.6000;0.8164;-5.6622;
627.9000;0.8148;-5.6622;
628.2000;0.8140;-5.6545;
628.5000;0.8099;-5.6545;
628.8000;0.8083;-5.6622;
629.1000;0.8091;-5.6622;
629.4000;0.8091;-5.6622;
629.7000;0.8075;-5.6700;
630.0000;0.8067;-5.6700;
630.3000;0.8067;-5.6674;
630.6000;0.8034;-5.6726;
630.9000;0.8018;-5.6752;
631.2000;0.8034;-5.6674;
631.5000;0.8026;-5.6674;
631.8000;0.7985;-5.6830;
632.1000;0.8026;-5.6726;
632.4000;0.7985;-5.6700;
632.7000;0.7977;-5.6726;
633.0000;0.8002;-5.6674;
633.3000;0.7969;-5.6700;
633.6000;0.7969;-5.6700;
633.9000;0.7880;-5.6959;
634.2000;0.7937;-5.6778;
634.5000;0.7896;-5.6804;
634.8000;0.7839;-5.6959;
635.1000;0.7912;-5.6804;
635.4000;0.7904;-5.6804;
635.7000;0.7920;-5.6648;
636.0000;0.7888;-5.6700;
636.3000;0.7888;-5.6726;
636.6000;0.7896;-5.6726;
636.9000;0.7880;-5.6674;
637.2000;0.7855;-5.6700;
637.5000;0.7880;-5.6622;
637.8000;0.7871;-5.6674;
638.1000;0.7855;-5.6674;
638.4000;0.7814;-5.6700;
638.7000;0.7831;-5.6648;
639.0000;0.7823;-5.6622;
639.3000;0.7823;-5.6571;
639.6000;0.7790;-5.6622;
639.9000;0.7790;-5.6597;
640.2000;0.7831;-5.6493;
640.5000;0.7790;-5.6597;
640.8000;0.7782;-5.6674;
641.1000;0.7766;-5.6752;
641.4000;0.7766;-5.6752;
641.7000;0.7757;-5.6804;
642.0000;0.7741;-5.6856;
642.3000;0.7684;-5.6985;
642.6000;0.7749;-5.6881;
642.9000;0.7749;-5.6856;
643.2000;0.7741;-5.6804;
643.5000;0.7757;-5.6752;
643.8000;0.7733;-5.6933;
644.1000;0.7717;-5.6985;
644.4000;0.7709;-5.7011;
644.7000;0.7692;-5.6959;
645.0000;0.7684;-5.6959;
645.3000;0.7684;-5.6985;
645.6000;0.7660;-5.6881;
645.9000;0.7668;-5.6778;
646.2000;0.7668;-5.6752;
646.5000;0.7660;-5.6752;
646.8000;0.7660;-5.6700;
647.1000;0.7635;-5.6700;
647.4000;0.7652;-5.6830;
647.7000;0.7635;-5.6856;
648.0000;0.7635;-5.6856;
648.3000;0.7652;-5.6752;
648.6000;0.7635;-5.6752;
648.9000;0.7611;-5.6856;
649.2000;0.7595;-5.6907;
649.5000;0.7627;-5.6881;
649.8000;0.7611;-5.6856;
650.1000;0.7603;-5.6830;
650.4000;0.7652;-5.6648;
650.7000;0.7611;-5.6856;
651.0000;0.7570;-5.6933;
651.3000;0.7562;-5.6959;
651.6000;0.7578;-5.6856;
651.9000;0.7586;-5.6881;
652.2000;0.7546;-5.6933;
652.5000;0.7546;-5.6856;
652.8000;0.7570;-5.6778;
653.1000;0.7586;-5.6726;
653.4000;0.7546;-5.6907;
653.7000;0.7530;-5.6959;
654.0000;0.7513;-5.6907;
654.3000;0.7554;-5.6752;
654.6000;0.7538;-5.6778;
654.9000;0.7489;-5.6856;
655.2000;0.7505;-5.6752;
655.5000;0.7505;-5.6778;
655.8000;0.7505;-5.6881;
656.1000;0.7489;-5.6830;
656.4000;0.7473;-5.6881;
656.7000;0.7456;-5.6933;
657.0000;0.7473;-5.6881;
657.3000;0.7473;-5.6933;
657.6000;0.7464;-5.6959;
657.9000;0.7481;-5.6856;
658.2000;0.7456;-5.6933;
658.5000;0.7416;-5.6985;
658.8000;0.7513;-5.6804;
659.1000;0.7464;-5.6933;
659.4000;0.7440;-5.6985;
659.7000;0.7407;-5.7037;
660.0000;0.7432;-5.7037;
660.3000;0.7407;-5.6985;
660.6000;0.7416;-5.7011;
660.9000;0.7416;-5.6985;
661.2000;0.7432;-5.6959;
661.5000;0.7407;-5.6881;
661.8000;0.7432;-5.6856;
662.1000;0.7416;-5.6856;
662.4000;0.7407;-5.6933;
662.7000;0.7383;-5.7011;
663.0000;0.7383;-5.7037;
663.3000;0.7391;-5.7037;
663.6000;0.7391;-5.6959;
663.9000;0.7391;-5.7011;
664.2000;0.7383;-5.7063;
664.5000;0.7383;-5.7063;
664.8000;0.7375;-5.7037;
665.1000;0.7318;-5.7140;
665.4000;0.7359;-5.6985;
665.7000;0.7359;-5.6959;
666.0000;0.7359;-5.6804;
666.3000;0.7359;-5.6856;
666.6000;0.7334;-5.6856;
666.9000;0.7334;-5.6933;
667.2000;0.7334;-5.6907;
667.5000;0.7334;-5.7011;
667.8000;0.7342;-5.7089;
668.1000;0.7326;-5.7089;
668.4000;0.7318;-5.7063;
668.7000;0.7334;-5.6985;
669.0000;0.7326;-5.6959;
669.3000;0.7302;-5.7011;
669.6000;0.7318;-5.7011;
669.9000;0.7342;-5.7037;
670.2000;0.7302;-5.7037;
670.5000;0.7293;-5.7011;
670.8000;0.7302;-5.7011;
671.1000;0.7318;-5.6907;
671.4000;0.7302;-5.6907;
671.7000;0.7285;-5.6907;
672.0000;0.7277;-5.6856;
672.3000;0.7285;-5.6907;
672.6000;0.7269;-5.6959;
672.9000;0.7277;-5.6907;
673.2000;0.7269;-5.6959;
673.5000;0.7269;-5.6881;
673.8000;0.7220;-5.6907;
674.1000;0.7253;-5.6881;
674.4000;0.7236;-5.6881;
674.7000;0.7253;-5.6752;
675.0000;0.7261;-5.6830;
675.3000;0.7228;-5.6830;
675.6000;0.7245;-5.6830;
675.9000;0.7236;-5.6830;
676.2000;0.7253;-5.6804;
676.5000;0.7236;-5.6830;
676.8000;0.7220;-5.6856;
677.1000;0.7212;-5.6907;
677.4000;0.7212;-5.6830;
677.7000;0.7188;-5.6830;
678.0000;0.7188;-5.6856;
678.3000;0.7220;-5.6856;
678.6000;0.7220;-5.6804;
678.9000;0.7204;-5.6907;
679.2000;0.7204;-5.6907;
679.5000;0.7228;-5.6881;
679.8000;0.7196;-5.6881;
680.1000;0.7139;-5.7037;
680.4000;0.7196;-5.6881;
680.7000;0.7188;-5.6933;
681.0000;0.7163;-5.7037;
681.3000;0.7163;-5.6933;
681.6000;0.7155;-5.6907;
681.9000;0.7123;-5.6959;
682.2000;0.7163;-5.6856;
682.5000;0.7179;-5.6804;
682.8000;0.7204;-5.6778;
683.1000;0.7171;-5.6881;
683.4000;0.7147;-5.6881;
683.7000;0.7245;-5.6571;
684.0000;0.7155;-5.6804;
684.3000;0.7139;-5.6881;
684.6000;0.7139;-5.6907;
684.9000;0.7155;-5.6856;
685.2000;0.7131;-5.6959;
685.5000;0.7123;-5.6933;
685.8000;0.7139;-5.6856;
686.1000;0.7139;-5.6778;
686.4000;0.7106;-5.6907;
686.7000;0.7106;-5.6881;
687.0000;0.7131;-5.6881;
687.3000;0.7114;-5.6907;
687.6000;0.7114;-5.6907;
687.9000;0.7123;-5.6907;
688.2000;0.7106;-5.7037;
688.5000;0.7090;-5.7037;
688.8000;0.7106;-5.6933;
689.1000;0.7098;-5.6959;
689.4000;0.7098;-5.6985;
689.7000;0.7114;-5.6933;
690.0000;0.7090;-5.6933;
690.3000;0.7082;-5.7063;
690.6000;0.7090;-5.6933;
690.9000;0.7074;-5.6933;
691.2000;0.7066;-5.6830;
691.5000;0.7066;-5.6881;
691.8000;0.7074;-5.6933;
692.1000;0.7057;-5.6959;
692.4000;0.7066;-5.6907;
692.7000;0.7074;-5.6856;
693.0000;0.7057;-5.6830;
693.3000;0.7049;-5.6881;
693.6000;0.7049;-5.6907;
693.9000;0.7098;-5.6881;
694.2000;0.7057;-5.6985;
694.5000;0.7066;-5.6959;
694.8000;0.7066;-5.6959;
695.1000;0.7066;-5.6907;
695.4000;0.7049;-5.6881;
695.7000;0.7041;-5.6881;
696.0000;0.7017;-5.6907;
696.3000;0.7025;-5.6804;
696.6000;0.7049;-5.6726;
696.9000;0.7074;-5.6674;
697.2000;0.7114;-5.6467;
697.5000;0.7017;-5.6700;
697.8000;0.7033;-5.6804;
698.1000;0.7033;-5.6804;
698.4000;0.7033;-5.6856;
698.7000;0.6976;-5.6881;
699.0000;0.7033;-5.6752;
699.3000;0.7009;-5.6830;
699.6000;0.7009;-5.6778;
699.9000;0.7017;-5.6778;
700.2000;0.7017;-5.6856;
700.5000;0.7033;-5.6881;
700.8000;0.7009;-5.6907;
701.1000;0.7009;-5.6985;
701.4000;0.7017;-5.6933;
701.7000;0.7025;-5.6881;
702.0000;0.7009;-5.6933;
702.3000;0.6992;-5.6881;
702.6000;0.6984;-5.6856;
702.9000;0.7000;-5.6804;
703.2000;0.7000;-5.6830;
703.5000;0.6992;-5.6856;
703.8000;0.6968;-5.6907;
704.1000;0.6984;-5.6856;
704.4000;0.6976;-5.6856;
704.7000;0.6992;-5.6778;
705.0000;0.6903;-5.6959;
705.3000;0.6992;-5.6726;
705.6000;0.6976;-5.6726;
705.9000;0.6976;-5.6726;
706.2000;0.6960;-5.6674;
706.5000;0.6960;-5.6622;
706.8000;0.6984;-5.6571;
707.1000;0.6943;-5.6752;
707.4000;0.6952;-5.6778;
707.7000;0.6984;-5.6700;
708.0000;0.6952;-5.6726;
708.3000;0.6943;-5.6700;
708.6000;0.6935;-5.6700;
708.9000;0.6943;-5.6804;
709.2000;0.6976;-5.6752;
709.5000;0.6927;-5.6856;
709.8000;0.6927;-5.6830;
710.1000;0.6886;-5.7037;
710.4000;0.6960;-5.6907;
710.7000;0.6935;-5.6881;
711.0000;0.6935;-5.6752;
711.3000;0.6911;-5.6778;
711.6000;0.6943;-5.6778;
711.9000;0.6911;-5.6778;
712.2000;0.6919;-5.6622;
712.5000;0.6911;-5.6700;
712.8000;0.6878;-5.6752;
713.1000;0.6952;-5.6622;
713.4000;0.6935;-5.6648;
713.7000;0.6927;-5.6648;
714.0000;0.6911;-5.6597;
714.3000;0.6919;-5.6622;
714.6000;0.6919;-5.6674;
714.9000;0.6911;-5.6674;
715.2000;0.6911;-5.6752;
715.5000;0.6878;-5.6856;
715.8000;0.6886;-5.6752;
716.1000;0.6927;-5.6519;
716.4000;0.6943;-5.6571;
716.7000;0.6895;-5.6700;
717.0000;0.6911;-5.6674;
717.3000;0.6886;-5.6778;
717.6000;0.6878;-5.6778;
717.9000;0.6878;-5.6726;
718.2000;0.6878;-5.6752;
718.5000;0.6886;-5.6752;
718.8000;0.6911;-5.6674;
719.1000;0.6886;-5.6752;
719.4000;0.6870;-5.6752;
719.7000;0.6870;-5.6700;
720.0000;0.6935;-5.6571;
720.3000;0.6854;-5.6752;
720.6000;0.6862;-5.6778;
720.9000;0.6854;-5.6830;
721.2000;0.6854;-5.6778;
721.5000;0.6862;-5.6700;
721.8000;0.6862;-5.6752;
722.1000;0.6821;-5.6804;
722.4000;0.6862;-5.6778;
722.7000;0.6870;-5.6752;
723.0000;0.6838;-5.6752;
723.3000;0.6870;-5.6622;
723.6000;0.6854;-5.6726;
723.9000;0.6846;-5.6752;
724.2000;0.6854;-5.6726;
724.5000;0.6821;-5.6752;
724.8000;0.6878;-5.6622;
725.1000;0.6813;-5.6778;
725.4000;0.6829;-5.6700;
725.7000;0.6862;-5.6700;
726.0000;0.6878;-5.6545;
726.3000;0.6838;-5.6622;
726.6000;0.6838;-5.6674;
726.9000;0.6846;-5.6700;
727.2000;0.6854;-5.6674;
727.5000;0.6862;-5.6622;
727.8000;0.6829;-5.6571;
728.1000;0.6838;-5.6545;
728.4000;0.6829;-5.6545;
728.7000;0.6829;-5.6597;
729.0000;0.6813;-5.6648;
729.3000;0.6846;-5.6622;
729.6000;0.6870;-5.6571;
729.9000;0.6789;-5.6752;
730.2000;0.6829;-5.6622;
730.5000;0.6813;-5.6597;
730.8000;0.6821;-5.6571;
731.1000;0.6821;-5.6571;
731.4000;0.6805;-5.6648;
731.7000;0.6813;-5.6700;
732.0000;0.6813;-5.6804;
732.3000;0.6829;-5.6752;
732.6000;0.6821;-5.6804;
732.9000;0.6805;-5.6881;
733.2000;0.6797;-5.6830;
733.5000;0.6813;-5.6726;
733.8000;0.6813;-5.6726;
734.1000;0.6813;-5.6674;
734.4000;0.6789;-5.6726;
734.7000;0.6805;-5.6597;
735.0000;0.6797;-5.6597;
735.3000;0.6772;-5.6700;
735.6000;0.6797;-5.6726;
735.9000;0.6821;-5.6700;
736.2000;0.6805;-5.6700;
736.5000;0.6846;-5.6726;
736.8000;0.6789;-5.6856;
737.1000;0.6781;-5.6856;
737.4000;0.6797;-5.6881;
737.7000;0.6789;-5.6881;
738.0000;0.6789;-5.6830;
738.3000;0.6756;-5.6933;
738.6000;0.6789;-5.6881;
738.9000;0.6789;-5.6804;
739.2000;0.6870;-5.6648;
739.5000;0.6805;-5.6804;
739.8000;0.6781;-5.6804;
740.1000;0.6797;-5.6778;
740.4000;0.6781;-5.6778;
740.7000;0.6781;-5.6778;
741.0000;0.6789;-5.6700;
741.3000;0.6781;-5.6597;
741.6000;0.6756;-5.6778;
741.9000;0.6772;-5.6804;
742.2000;0.6781;-5.6830;
742.5000;0.6764;-5.6778;
742.8000;0.6756;-5.6804;
743.1000;0.6772;-5.6804;
743.4000;0.6813;-5.6700;
743.7000;0.6772;-5.6752;
744.0000;0.6797;-5.6752;
744.3000;0.6724;-5.6856;
744.6000;0.6756;-5.6778;
744.9000;0.6772;-5.6804;
745.2000;0.6789;-5.6881;
745.5000;0.6764;-5.6881;
745.8000;0.6756;-5.6881;
746.1000;0.6829;-5.6674;
746.4000;0.6748;-5.6959;
746.7000;0.6756;-5.6933;
747.0000;0.6740;-5.7037;
747.3000;0.6748;-5.7037;
747.6000;0.6756;-5.6985;
747.9000;0.6756;-5.7037;
748.2000;0.6724;-5.7089;
748.5000;0.6748;-5.7037;
748.8000;0.6740;-5.7011;
749.1000;0.6756;-5.7011;
749.4000;0.6724;-5.7037;
749.7000;0.6699;-5.7115;
750.0000;0.6740;-5.6985;
750.3000;0.6732;-5.6985;
750.6000;0.6732;-5.6933;
750.9000;0.6740;-5.6856;
751.2000;0.6740;-5.6933;
751.5000;0.6732;-5.6881;
751.8000;0.6683;-5.6985;
752.1000;0.6772;-5.6622;
752.4000;0.6740;-5.6778;
752.7000;0.6716;-5.6830;
753.0000;0.6724;-5.6856;
753.3000;0.6716;-5.6856;
753.6000;0.6716;-5.6856;
753.9000;0.6707;-5.6804;
754.2000;0.6724;-5.6700;
754.5000;0.6707;-5.6778;
754.8000;0.6707;-5.6856;
755.1000;0.6707;-5.6830;
755.4000;0.6716;-5.6804;
755.7000;0.6716;-5.6674;
756.0000;0.6716;-5.6674;
756.3000;0.6716;-5.6700;
756.6000;0.6707;-5.6597;
756.9000;0.6716;-5.6597;
757.2000;0.6732;-5.6597;
757.5000;0.6716;-5.6648;
757.8000;0.6724;-5.6648;
758.1000;0.6699;-5.6700;
758.4000;0.6707;-5.6752;
758.7000;0.6691;-5.6752;
759.0000;0.6740;-5.6674;
759.3000;0.6716;-5.6700;
759.6000;0.6699;-5.6726;
759.9000;0.6683;-5.6726;
760.2000;0.6683;-5.6700;
760.5000;0.6691;-5.6648;
760.8000;0.6699;-5.6648;
761.1000;0.6683;-5.6726;
761.4000;0.6683;-5.6804;
761.7000;0.6699;-5.6778;
762.0000;0.6699;-5.6726;
762.3000;0.6699;-5.6700;
762.6000;0.6610;-5.6856;
762.9000;0.6691;-5.6674;
763.2000;0.6699;-5.6597;
763.5000;0.6683;-5.6648;
763.8000;0.6683;-5.6597;
764.1000;0.6667;-5.6597;
764.4000;0.6683;-5.6597;
764.7000;0.6667;-5.6674;
765.0000;0.6667;-5.6622;
765.3000;0.6699;-5.6571;
765.6000;0.6675;-5.6648;
765.9000;0.6659;-5.6674;
766.2000;0.6667;-5.6648;
766.5000;0.6675;-5.6545;
766.8000;0.6675;-5.6597;
767.1000;0.6699;-5.6493;
767.4000;0.6610;-5.6597;
767.7000;0.6659;-5.6519;
768.0000;0.6675;-5.6545;
768.3000;0.6683;-5.6493;
768.6000;0.6667;-5.6622;
768.9000;0.6659;-5.6571;
769.2000;0.6659;-5.6519;
769.5000;0.6667;-5.6571;
769.8000;0.6659;-5.6674;
770.1000;0.6667;-5.6622;
770.4000;0.6642;-5.6648;
770.7000;0.6659;-5.6597;
771.0000;0.6650;-5.6597;
771.3000;0.6642;-5.6597;
771.6000;0.6659;-5.6571;
771.9000;0.6667;-5.6493;
772.2000;0.6667;-5.6467;
772.5000;0.6650;-5.6441;
772.8000;0.6650;-5.6389;
773.1000;0.6659;-5.6415;
773.4000;0.6659;-5.6415;
773.7000;0.6650;-5.6467;
774.0000;0.6659;-5.6519;
774.3000;0.6642;-5.6493;
774.6000;0.6659;-5.6441;
774.9000;0.6650;-5.6519;
775.2000;0.6634;-5.6571;
775.5000;0.6642;-5.6597;
775.8000;0.6634;-5.6597;
776.1000;0.6634;-5.6674;
776.4000;0.6642;-5.6726;
776.7000;0.6642;-5.6778;
777.0000;0.6634;-5.6778;
777.3000;0.6659;-5.6726;
777.6000;0.6650;-5.6700;
777.9000;0.6650;-5.6700;
778.2000;0.6650;-5.6700;
778.5000;0.6634;-5.6674;
778.8000;0.6683;-5.6597;
779.1000;0.6626;-5.6674;
779.4000;0.6626;-5.6700;
779.7000;0.6634;-5.6674;
780.0000;0.6626;-5.6752;
780.3000;0.6593;-5.6752;
780.6000;0.6626;-5.6648;
780.9000;0.6618;-5.6648;
781.2000;0.6610;-5.6700;
781.5000;0.6618;-5.6571;
781.8000;0.6618;-5.6597;
782.1000;0.6585;-5.6648;
782.4000;0.6626;-5.6545;
782.7000;0.6667;-5.6415;
783.0000;0.6602;-5.6519;
783.3000;0.6626;-5.6519;
783.6000;0.6642;-5.6519;
783.9000;0.6634;-5.6493;
784.2000;0.6634;-5.6545;
784.5000;0.6618;-5.6545;
784.8000;0.6642;-5.6519;
785.1000;0.6553;-5.6856;
785.4000;0.6634;-5.6726;
785.7000;0.6634;-5.6830;
786.0000;0.6626;-5.6830;
786.3000;0.6610;-5.6804;
786.6000;0.6610;-5.6752;
786.9000;0.6626;-5.6674;
787.2000;0.6610;-5.6648;
787.5000;0.6642;-5.6622;
787.8000;0.6618;-5.6674;
788.1000;0.6642;-5.6545;
788.4000;0.6610;-5.6674;
788.7000;0.6707;-5.6545;
789.0000;0.6602;-5.6726;
789.3000;0.6610;-5.6804;
789.6000;0.6610;-5.6752;
789.9000;0.6618;-5.6726;
790.2000;0.6602;-5.6804;
790.5000;0.6602;-5.6804;
790.8000;0.6634;-5.6700;
791.1000;0.6610;-5.6778;
791.4000;0.6610;-5.6726;
791.7000;0.6642;-5.6648;
792.0000;0.6610;-5.6700;
792.3000;0.6610;-5.6752;
792.6000;0.6618;-5.6778;
792.9000;0.6602;-5.6752;
793.2000;0.6593;-5.6700;
793.5000;0.6610;-5.6700;
793.8000;0.6593;-5.6778;
794.1000;0.6610;-5.6700;
794.4000;0.6593;-5.6648;
794.7000;0.6593;-5.6622;
795.0000;0.6577;-5.6700;
795.3000;0.6593;-5.6597;
795.6000;0.6585;-5.6597;
795.9000;0.6585;-5.6571;
796.2000;0.6593;-5.6545;
796.5000;0.6577;-5.6571;
796.8000;0.6569;-5.6545;
797.1000;0.6585;-5.6415;
797.4000;0.6602;-5.6493;
797.7000;0.6593;-5.6519;
798.0000;0.6593;-5.6571;
798.3000;0.6593;-5.6622;
798.6000;0.6610;-5.6571;
798.9000;0.6667;-5.6467;
799.2000;0.6585;-5.6622;
799.5000;0.6561;-5.6752;
799.8000;0.6577;-5.6700;
800.1000;0.6585;-5.6726;
800.4000;0.6569;-5.6752;
800.7000;0.6561;-5.6804;
801.0000;0.6569;-5.6856;
801.3000;0.6602;-5.6778;
801.6000;0.6593;-5.6752;
801.9000;0.6569;-5.6804;
802.2000;0.6585;-5.6830;
802.5000;0.6585;-5.6881;
802.8000;0.6577;-5.6830;
803.1000;0.6585;-5.6907;
803.4000;0.6569;-5.6881;
803.7000;0.6577;-5.6830;
804.0000;0.6577;-5.6752;
804.3000;0.6569;-5.6700;
804.6000;0.6569;-5.6700;
804.9000;0.6553;-5.6752;
805.2000;0.6528;-5.6933;
805.5000;0.6569;-5.6856;
805.8000;0.6585;-5.6700;
806.1000;0.6561;-5.6700;
806.4000;0.6569;-5.6700;
806.7000;0.6561;-5.6700;
807.0000;0.6577;-5.6726;
807.3000;0.6561;-5.6752;
807.6000;0.6585;-5.6622;
807.9000;0.6634;-5.6441;
808.2000;0.6585;-5.6571;
808.5000;0.6512;-5.6648;
808.8000;0.6577;-5.6571;
809.1000;0.6569;-5.6648;
809.4000;0.6602;-5.6622;
809.7000;0.6528;-5.6752;
810.0000;0.6561;-5.6700;
810.3000;0.6577;-5.6648;
810.6000;0.6577;-5.6597;
810.9000;0.6545;-5.6674;
811.2000;0.6528;-5.6648;
811.5000;0.6553;-5.6597;
811.8000;0.6577;-5.6597;
812.1000;0.6520;-5.6700;
812.4000;0.6561;-5.6648;
812.7000;0.6561;-5.6545;
813.0000;0.6569;-5.6545;
813.3000;0.6553;-5.6519;
813.6000;0.6553;-5.6545;
813.9000;0.6545;-5.6545;
814.2000;0.6536;-5.6597;
814.5000;0.6528;-5.6597;
814.8000;0.6553;-5.6622;
815.1000;0.6545;-5.6674;
815.4000;0.6545;-5.6648;
815.7000;0.6553;-5.6700;
816.0000;0.6545;-5.6700;
816.3000;0.6536;-5.6778;
816.6000;0.6569;-5.6700;
816.9000;0.6545;-5.6752;
817.2000;0.6545;-5.6700;
817.5000;0.6536;-5.6778;
817.8000;0.6553;-5.6700;
818.1000;0.6561;-5.6622;
818.4000;0.6569;-5.6571;
818.7000;0.6553;-5.6519;
819.0000;0.6553;-5.6545;
819.3000;0.6561;-5.6545;
819.6000;0.6553;-5.6493;
819.9000;0.6536;-5.6545;
820.2000;0.6545;-5.6493;
820.5000;0.6520;-5.6545;
820.8000;0.6528;-5.6545;
821.1000;0.6528;-5.6441;
821.4000;0.6528;-5.6441;
821.7000;0.6512;-5.6622;
822.0000;0.6455;-5.6830;
822.3000;0.6536;-5.6700;
822.6000;0.6545;-5.6674;
822.9000;0.6553;-5.6674;
823.2000;0.6545;-5.6597;
823.5000;0.6512;-5.6726;
823.8000;0.6545;-5.6622;
824.1000;0.6545;-5.6648;
824.4000;0.6561;-5.6648;
824.7000;0.6569;-5.6622;
825.0000;0.6536;-5.6752;
825.3000;0.6528;-5.6804;
825.6000;0.6520;-5.6856;
825.9000;0.6536;-5.6700;
826.2000;0.6520;-5.6752;
826.5000;0.6528;-5.6726;
826.8000;0.6512;-5.6726;
827.1000;0.6536;-5.6622;
827.4000;0.6553;-5.6622;
827.7000;0.6512;-5.6700;
828.0000;0.6536;-5.6622;
828.3000;0.6536;-5.6674;
828.6000;0.6528;-5.6648;
828.9000;0.6520;-5.6622;
829.2000;0.6504;-5.6674;
829.5000;0.6528;-5.6597;
829.8000;0.6504;-5.6674;
830.1000;0.6512;-5.6597;
830.4000;0.6512;-5.6622;
830.7000;0.6585;-5.6389;
831.0000;0.6512;-5.6571;
831.3000;0.6496;-5.6622;
831.6000;0.6520;-5.6493;
831.9000;0.6528;-5.6571;
832.2000;0.6536;-5.6597;
832.5000;0.6520;-5.6648;
832.8000;0.6422;-5.6907;
833.1000;0.6512;-5.6648;
833.4000;0.6512;-5.6622;
833.7000;0.6536;-5.6493;
834.0000;0.6512;-5.6571;
834.3000;0.6528;-5.6545;
834.6000;0.6528;-5.6571;
834.9000;0.6528;-5.6622;
835.2000;0.6553;-5.6545;
835.5000;0.6528;-5.6545;
835.8000;0.6512;-5.6545;
836.1000;0.6512;-5.6545;
836.4000;0.6528;-5.6493;
836.7000;0.6545;-5.6363;
837.0000;0.6520;-5.6363;
837.3000;0.6512;-5.6467;
837.6000;0.6512;-5.6545;
837.9000;0.6512;-5.6674;
838.2000;0.6488;-5.6648;
838.5000;0.6520;-5.6467;
838.8000;0.6512;-5.6493;
839.1000;0.6504;-5.6519;
839.4000;0.6512;-5.6467;
839.7000;0.6512;-5.6441;
840.0000;0.6512;-5.6337;
840.3000;0.6496;-5.6363;
840.6000;0.6455;-5.6545;
840.9000;0.6496;-5.6519;
841.2000;0.6504;-5.6493;
841.5000;0.6504;-5.6545;
841.8000;0.6488;-5.6622;
842.1000;0.6536;-5.6519;
842.4000;0.6504;-5.6622;
842.7000;0.6504;-5.6545;
843.0000;0.6504;-5.6571;
843.3000;0.6520;-5.6545;
843.6000;0.6512;-5.6519;
843.9000;0.6488;-5.6467;
844.2000;0.6528;-5.6389;
844.5000;0.6504;-5.6415;
844.8000;0.6463;-5.6545;
845.1000;0.6536;-5.6363;
845.4000;0.6496;-5.6519;
845.7000;0.6471;-5.6493;
846.0000;0.6545;-5.6260;
846.3000;0.6504;-5.6337;
846.6000;0.6504;-5.6260;
846.9000;0.6504;-5.6260;
847.2000;0.6488;-5.6286;
847.5000;0.6488;-5.6389;
847.8000;0.6520;-5.6260;
848.1000;0.6471;-5.6286;
848.4000;0.6496;-5.6312;
848.7000;0.6504;-5.6337;
849.0000;0.6512;-5.6363;
849.3000;0.6496;-5.6415;
849.6000;0.6488;-5.6441;
849.9000;0.6488;-5.6415;
850.2000;0.6504;-5.6363;
850.5000;0.6488;-5.6389;
850.8000;0.6463;-5.6441;
851.1000;0.6488;-5.6363;
851.4000;0.6488;-5.6363;
851.7000;0.6593;-5.6156;
852.0000;0.6471;-5.6519;
852.3000;0.6520;-5.6363;
852.6000;0.6496;-5.6363;
852.9000;0.6488;-5.6389;
853.2000;0.6479;-5.6415;
853.5000;0.6471;-5.6363;
853.8000;0.6479;-5.6415;
854.1000;0.6504;-5.6389;
854.4000;0.6488;-5.6493;
854.7000;0.6471;-5.6493;
855.0000;0.6504;-5.6389;
855.3000;0.6471;-5.6545;
855.6000;0.6463;-5.6519;
855.9000;0.6463;-5.6597;
856.2000;0.6463;-5.6597;
856.5000;0.6496;-5.6493;
856.8000;0.6471;-5.6597;
857.1000;0.6496;-5.6545;
857.4000;0.6496;-5.6648;
857.7000;0.6488;-5.6700;
858.0000;0.6455;-5.6778;
858.3000;0.6488;-5.6674;
858.6000;0.6496;-5.6674;
858.9000;0.6496;-5.6674;
859.2000;0.6488;-5.6648;
859.5000;0.6479;-5.6622;
859.8000;0.6479;-5.6571;
860.1000;0.6479;-5.6571;
860.4000;0.6479;-5.6545;
860.7000;0.6479;-5.6545;
861.0000;0.6471;-5.6597;
861.3000;0.6463;-5.6622;
861.6000;0.6479;-5.6519;
861.9000;0.6479;-5.6545;
862.2000;0.6447;-5.6622;
862.5000;0.6463;-5.6545;
862.8000;0.6463;-5.6441;
863.1000;0.6463;-5.6441;
863.4000;0.6455;-5.6571;
863.7000;0.6512;-5.6467;
864.0000;0.6479;-5.6467;
864.3000;0.6488;-5.6389;
864.6000;0.6463;-5.6441;
864.9000;0.6471;-5.6389;
865.2000;0.6479;-5.6363;
865.5000;0.6463;-5.6493;
865.8000;0.6520;-5.6389;
866.1000;0.6471;-5.6493;
866.4000;0.6471;-5.6519;
866.7000;0.6479;-5.6648;
867.0000;0.6471;-5.6622;
867.3000;0.6479;-5.6648;
867.6000;0.6463;-5.6674;
867.9000;0.6447;-5.6700;
868.2000;0.6463;-5.6778;
868.5000;0.6414;-5.6881;
868.8000;0.6471;-5.6648;
869.1000;0.6463;-5.6648;
869.4000;0.6471;-5.6545;
869.7000;0.6447;-5.6597;
870.0000;0.6463;-5.6519;
870.3000;0.6463;-5.6545;
870.6000;0.6512;-5.6389;
870.9000;0.6463;-5.6545;
871.2000;0.6463;-5.6674;
871.5000;0.6455;-5.6752;
871.8000;0.6471;-5.6752;
872.1000;0.6479;-5.6674;
872.4000;0.6455;-5.6726;
872.7000;0.6455;-5.6726;
873.0000;0.6447;-5.6804;
873.3000;0.6488;-5.6752;
873.6000;0.6455;-5.6804;
873.9000;0.6463;-5.6700;
874.2000;0.6463;-5.6700;
874.5000;0.6471;-5.6622;
874.8000;0.6471;-5.6571;
875.1000;0.6455;-5.6571;
875.4000;0.6455;-5.6622;
875.7000;0.6479;-5.6545;
876.0000;0.6463;-5.6597;
876.3000;0.6422;-5.6700;
876.6000;0.6479;-5.6571;
876.9000;0.6447;-5.6700;
877.2000;0.6463;-5.6622;
877.5000;0.6447;-5.6648;
877.8000;0.6431;-5.6726;
878.1000;0.6447;-5.6726;
878.4000;0.6463;-5.6674;
878.7000;0.6455;-5.6726;
879.0000;0.6431;-5.6830;
879.3000;0.6455;-5.6856;
879.6000;0.6455;-5.6856;
879.9000;0.6447;-5.6752;
880.2000;0.6447;-5.6830;
880.5000;0.6455;-5.6830;
880.8000;0.6447;-5.6830;
881.1000;0.6455;-5.6648;
881.4000;0.6488;-5.6545;
881.7000;0.6431;-5.6648;
882.0000;0.6463;-5.6519;
882.3000;0.6496;-5.6493;
882.6000;0.6439;-5.6674;
882.9000;0.6455;-5.6648;
883.2000;0.6463;-5.6597;
883.5000;0.6447;-5.6648;
883.8000;0.6414;-5.6752;
884.1000;0.6471;-5.6597;
884.4000;0.6488;-5.6519;
884.7000;0.6455;-5.6545;
885.0000;0.6455;-5.6648;
885.3000;0.6447;-5.6674;
885.6000;0.6463;-5.6700;
885.9000;0.6439;-5.6752;
886.2000;0.6463;-5.6648;
886.5000;0.6455;-5.6726;
886.8000;0.6455;-5.6648;
887.1000;0.6447;-5.6519;
887.4000;0.6447;-5.6467;
887.7000;0.6406;-5.6674;
888.0000;0.6447;-5.6648;
888.3000;0.6431;-5.6648;
888.6000;0.6447;-5.6622;
888.9000;0.6439;-5.6674;
889.2000;0.6431;-5.6726;
889.5000;0.6439;-5.6700;
889.8000;0.6447;-5.6622;
890.1000;0.6382;-5.6856;
890.4000;0.6439;-5.6726;
890.7000;0.6431;-5.6674;
891.0000;0.6447;-5.6597;
891.3000;0.6439;-5.6571;
891.6000;0.6447;-5.6545;
891.9000;0.6431;-5.6493;
892.2000;0.6414;-5.6441;
892.5000;0.6447;-5.6389;
892.8000;0.6439;-5.6389;
893.1000;0.6414;-5.6415;
893.4000;0.6439;-5.6441;
893.7000;0.6431;-5.6467;
894.0000;0.6414;-5.6493;
894.3000;0.6431;-5.6389;
894.6000;0.6463;-5.6286;
894.9000;0.6439;-5.6312;
895.2000;0.6439;-5.6337;
895.5000;0.6431;-5.6415;
895.8000;0.6431;-5.6415;
896.1000;0.6471;-5.6389;
896.4000;0.6439;-5.6389;
896.7000;0.6439;-5.6415;
897.0000;0.6455;-5.6441;
897.3000;0.6455;-5.6467;
897.6000;0.6431;-5.6467;
897.9000;0.6422;-5.6545;
898.2000;0.6414;-5.6519;
898.5000;0.6439;-5.6441;
898.8000;0.6431;-5.6467;
899.1000;0.6431;-5.6467;
899.4000;0.6422;-5.6493;
899.7000;0.6414;-5.6519;
900.0000;0.6447;-5.6441;
900.3000;0.6431;-5.6363;
900.6000;0.6382;-5.6363;
900.9000;0.6439;-5.6286;
901.2000;0.6431;-5.6286;
901.5000;0.6439;-5.6260;
901.8000;0.6439;-5.6286;
902.1000;0.6431;-5.6337;
902.4000;0.6463;-5.6182;
902.7000;0.6479;-5.6130;
903.0000;0.6422;-5.6337;
903.3000;0.6406;-5.6363;
903.6000;0.6447;-5.6363;
903.9000;0.6422;-5.6467;
904.2000;0.6422;-5.6493;
904.5000;0.6422;-5.6415;
904.8000;0.6431;-5.6389;
905.1000;0.6447;-5.6415;
905.4000;0.6439;-5.6493;
905.7000;0.6431;-5.6441;
906.0000;0.6439;-5.6363;
906.3000;0.6431;-5.6441;
906.6000;0.6431;-5.6415;
906.9000;0.6431;-5.6467;
907.2000;0.6422;-5.6493;
907.5000;0.6439;-5.6519;
907.8000;0.6422;-5.6545;
908.1000;0.6406;-5.6519;
908.4000;0.6414;-5.6519;
908.7000;0.6431;-5.6389;
909.0000;0.6398;-5.6493;
909.3000;0.6414;-5.6441;
909.6000;0.6390;-5.6441;
909.9000;0.6414;-5.6415;
910.2000;0.6431;-5.6337;
910.5000;0.6422;-5.6441;
910.8000;0.6422;-5.6389;
911.1000;0.6406;-5.6363;
911.4000;0.6431;-5.6286;
911.7000;0.6431;-5.6389;
912.0000;0.6422;-5.6441;
912.3000;0.6422;-5.6363;
912.6000;0.6422;-5.6312;
912.9000;0.6439;-5.6312;
913.2000;0.6431;-5.6337;
913.5000;0.6414;-5.6415;
913.8000;0.6390;-5.6571;
914.1000;0.6447;-5.6363;
914.4000;0.6406;-5.6493;
914.7000;0.6414;-5.6363;
915.0000;0.6431;-5.6312;
915.3000;0.6414;-5.6337;
915.6000;0.6422;-5.6286;
915.9000;0.6414;-5.6312;
916.2000;0.6422;-5.6441;
916.5000;0.6414;-5.6441;
916.8000;0.6414;-5.6493;
917.1000;0.6422;-5.6519;
917.4000;0.6431;-5.6493;
917.7000;0.6447;-5.6441;
918.0000;0.6512;-5.6208;
918.3000;0.6406;-5.6467;
918.6000;0.6414;-5.6441;
918.9000;0.6406;-5.6389;
919.2000;0.6406;-5.6415;
919.5000;0.6422;-5.6467;
919.8000;0.6414;-5.6467;
920.1000;0.6398;-5.6467;
920.4000;0.6422;-5.6312;
920.7000;0.6431;-5.6286;
921.0000;0.6463;-5.6182;
921.3000;0.6406;-5.6389;
921.6000;0.6414;-5.6389;
921.9000;0.6406;-5.6389;
922.2000;0.6406;-5.6337;
922.5000;0.6422;-5.6312;
922.8000;0.6414;-5.6337;
923.1000;0.6422;-5.6363;
923.4000;0.6382;-5.6441;
923.7000;0.6406;-5.6337;
924.0000;0.6414;-5.6260;
924.3000;0.6431;-5.6208;
924.6000;0.6406;-5.6208;
924.9000;0.6414;-5.6182;
925.2000;0.6398;-5.6260;
925.5000;0.6422;-5.6156;
925.8000;0.6431;-5.6208;
926.1000;0.6406;-5.6312;
926.4000;0.6406;-5.6260;
926.7000;0.6406;-5.6260;
927.0000;0.6422;-5.6156;
927.3000;0.6496;-5.5975;
927.6000;0.6422;-5.6208;
927.9000;0.6398;-5.6234;
928.2000;0.6414;-5.6130;
928.5000;0.6414;-5.6234;
928.8000;0.6414;-5.6312;
929.1000;0.6422;-5.6234;
929.4000;0.6414;-5.6234;
929.7000;0.6422;-5.6234;
930.0000;0.6414;-5.6208;
930.3000;0.6414;-5.6182;
930.6000;0.6422;-5.6156;
930.9000;0.6414;-5.6208;
931.2000;0.6390;-5.6312;
931.5000;0.6414;-5.6286;
931.8000;0.6431;-5.6234;
932.1000;0.6414;-5.6182;
932.4000;0.6422;-5.6208;
932.7000;0.6398;-5.6312;
933.0000;0.6414;-5.6260;
933.3000;0.6390;-5.6389;
933.6000;0.6406;-5.6467;
933.9000;0.6398;-5.6493;
934.2000;0.6414;-5.6363;
934.5000;0.6406;-5.6337;
934.8000;0.6382;-5.6415;
935.1000;0.6398;-5.6415;
935.4000;0.6398;-5.6441;
935.7000;0.6398;-5.6493;
936.0000;0.6398;-5.6493;
936.3000;0.6398;-5.6545;
936.6000;0.6422;-5.6493;
936.9000;0.6398;-5.6545;
937.2000;0.6414;-5.6467;
937.5000;0.6398;-5.6519;
937.8000;0.6398;-5.6467;
938.1000;0.6488;-5.6260;
938.4000;0.6422;-5.6415;
938.7000;0.6398;-5.6545;
939.0000;0.6422;-5.6493;
939.3000;0.6406;-5.6493;
939.6000;0.6431;-5.6363;
939.9000;0.6406;-5.6286;
940.2000;0.6398;-5.6156;
940.5000;0.6357;-5.6415;
940.8000;0.6414;-5.6286;
941.1000;0.6414;-5.6415;
941.4000;0.6406;-5.6441;
941.7000;0.6398;-5.6467;
942.0000;0.6422;-5.6363;
942.3000;0.6431;-5.6286;
942.6000;0.6406;-5.6389;
942.9000;0.6390;-5.6389;
943.2000;0.6406;-5.6415;
943.5000;0.6398;-5.6467;
943.8000;0.6414;-5.6467;
944.1000;0.6390;-5.6441;
944.4000;0.6422;-5.6363;
944.7000;0.6398;-5.6389;
945.0000;0.6398;-5.6389;
945.3000;0.6390;-5.6415;
945.6000;0.6390;-5.6415;
945.9000;0.6382;-5.6389;
946.2000;0.6398;-5.6441;
946.5000;0.6398;-5.6519;
946.8000;0.6406;-5.6441;
947.1000;0.6398;-5.6467;
947.4000;0.6398;-5.6493;
947.7000;0.6390;-5.6467;
948.0000;0.6406;-5.6441;
948.3000;0.6406;-5.6441;
948.6000;0.6406;-5.6467;
948.9000;0.6382;-5.6493;
949.2000;0.6398;-5.6467;
949.5000;0.6382;-5.6519;
949.8000;0.6390;-5.6441;
950.1000;0.6390;-5.6467;
950.4000;0.6398;-5.6519;
950.7000;0.6382;-5.6571;
951.0000;0.6382;-5.6571;
951.3000;0.6357;-5.6571;
951.6000;0.6398;-5.6415;
951.9000;0.6382;-5.6363;
952.2000;0.6398;-5.6312;
952.5000;0.6398;-5.6337;
952.8000;0.6398;-5.6286;
953.1000;0.6390;-5.6337;
953.4000;0.6357;-5.6363;
953.7000;0.6406;-5.6260;
954.0000;0.6349;-5.6493;
954.3000;0.6471;-5.6182;
954.6000;0.6406;-5.6337;
954.9000;0.6414;-5.6312;
955.2000;0.6422;-5.6208;
955.5000;0.6398;-5.6312;
955.8000;0.6390;-5.6337;
956.1000;0.6398;-5.6363;
956.4000;0.6398;-5.6312;
956.7000;0.6390;-5.6389;
957.0000;0.6406;-5.6312;
957.3000;0.6382;-5.6312;
957.6000;0.6374;-5.6312;
957.9000;0.6382;-5.6286;
958.2000;0.6374;-5.6260;
958.5000;0.6398;-5.6234;
958.8000;0.6382;-5.6234;
959.1000;0.6374;-5.6286;
959.4000;0.6382;-5.6234;
959.7000;0.6390;-5.6234;
960.0000;0.6357;-5.6337;
960.3000;0.6390;-5.6337;
960.6000;0.6374;-5.6493;
960.9000;0.6365;-5.6415;
961.2000;0.6382;-5.6389;
961.5000;0.6390;-5.6389;
961.8000;0.6382;-5.6519;
962.1000;0.6398;-5.6493;
962.4000;0.6382;-5.6415;
962.7000;0.6398;-5.6389;
963.0000;0.6406;-5.6441;
963.3000;0.6414;-5.6337;
963.6000;0.6398;-5.6389;
963.9000;0.6406;-5.6389;
964.2000;0.6390;-5.6337;
964.5000;0.6398;-5.6363;
964.8000;0.6390;-5.6337;
965.1000;0.6398;-5.6363;
965.4000;0.6406;-5.6389;
965.7000;0.6390;-5.6389;
966.0000;0.6382;-5.6337;
966.3000;0.6414;-5.6208;
966.6000;0.6341;-5.6337;
966.9000;0.6365;-5.6286;
967.2000;0.6374;-5.6337;
967.5000;0.6390;-5.6286;
967.8000;0.6382;-5.6286;
968.1000;0.6382;-5.6312;
968.4000;0.6374;-5.6493;
968.7000;0.6398;-5.6415;
969.0000;0.6382;-5.6363;
969.3000;0.6382;-5.6337;
969.6000;0.6382;-5.6337;
969.9000;0.6390;-5.6260;
970.2000;0.6382;-5.6234;
970.5000;0.6390;-5.6234;
970.8000;0.6390;-5.6156;
971.1000;0.6406;-5.6078;
971.4000;0.6382;-5.6208;
971.7000;0.6382;-5.6234;
972.0000;0.6414;-5.6312;
972.3000;0.6422;-5.6415;
972.6000;0.6382;-5.6571;
972.9000;0.6382;-5.6493;
973.2000;0.6382;-5.6467;
973.5000;0.6374;-5.6467;
973.8000;0.6374;-5.6441;
974.1000;0.6390;-5.6415;
974.4000;0.6382;-5.6415;
974.7000;0.6398;-5.6286;
975.0000;0.6374;-5.6389;
975.3000;0.6406;-5.6337;
975.6000;0.6382;-5.6337;
975.9000;0.6382;-5.6363;
976.2000;0.6439;-5.6156;
976.5000;0.6382;-5.6286;
976.8000;0.6382;-5.6234;
977.1000;0.6357;-5.6286;
977.4000;0.6398;-5.6208;
977.7000;0.6382;-5.6208;
978.0000;0.6374;-5.6182;
978.3000;0.6349;-5.6156;
978.6000;0.6406;-5.6053;
978.9000;0.6349;-5.6182;
979.2000;0.6447;-5.5975;
979.5000;0.6382;-5.6208;
979.8000;0.6349;-5.6260;
980.1000;0.6349;-5.6182;
980.4000;0.6374;-5.6078;
980.7000;0.6365;-5.6130;
981.0000;0.6365;-5.6182;
981.3000;0.6390;-5.6234;
981.6000;0.6365;-5.6312;
981.9000;0.6365;-5.6130;
982.2000;0.6365;-5.6156;
982.5000;0.6365;-5.6156;
982.8000;0.6374;-5.6182;
983.1000;0.6398;-5.6156;
983.4000;0.6374;-5.6208;
983.7000;0.6374;-5.6234;
984.0000;0.6374;-5.6182;
984.3000;0.6390;-5.6078;
984.6000;0.6398;-5.6104;
984.9000;0.6390;-5.6156;
985.2000;0.6382;-5.6182;
985.5000;0.6398;-5.6104;
985.8000;0.6374;-5.6182;
986.1000;0.6365;-5.6260;
986.4000;0.6374;-5.6234;
986.7000;0.6374;-5.6182;
987.0000;0.6382;-5.6104;
987.3000;0.6382;-5.6104;
987.6000;0.6382;-5.6130;
987.9000;0.6374;-5.6208;
988.2000;0.6365;-5.6208;
988.5000;0.6374;-5.6234;
988.8000;0.6398;-5.6208;
989.1000;0.6349;-5.6286;
989.4000;0.6382;-5.6312;
989.7000;0.6390;-5.6260;
990.0000;0.6374;-5.6260;
990.3000;0.6414;-5.6130;
990.6000;0.6398;-5.6156;
990.9000;0.6374;-5.6156;
991.2000;0.6365;-5.6130;
991.5000;0.6365;-5.6156;
991.8000;0.6365;-5.6130;
992.1000;0.6365;-5.6156;
992.4000;0.6365;-5.6156;
992.7000;0.6365;-5.6208;
993.0000;0.6374;-5.6130;
993.3000;0.6398;-5.6027;
993.6000;0.6398;-5.6001;
993.9000;0.6374;-5.6053;
994.2000;0.6374;-5.6001;
994.5000;0.6382;-5.6001;
994.8000;0.6382;-5.6027;
995.1000;0.6365;-5.6104;
995.4000;0.6374;-5.6104;
995.7000;0.6382;-5.6104;
996.0000;0.6374;-5.6104;
996.3000;0.6357;-5.6130;
996.6000;0.6374;-5.6078;
996.9000;0.6365;-5.6182;
997.2000;0.6374;-5.6156;
997.5000;0.6374;-5.6156;
997.8000;0.6357;-5.6156;
998.1000;0.6365;-5.6104;
998.4000;0.6374;-5.6130;
998.7000;0.6374;-5.6130;
999.0000;0.6374;-5.6053;
999.3000;0.6382;-5.6104;
999.6000;0.6382;-5.6078;
999.9000;0.6374;-5.6053;
1000.2000;0.6357;-5.6208;
1000.5000;0.6365;-5.6208;
1000.8000;0.6398;-5.6182;
1001.1000;0.6374;-5.6156;
1001.4000;0.6374;-5.6156;
1001.7000;0.6357;-5.6234;
1002.0000;0.6349;-5.6208;
1002.3000;0.6349;-5.6156;
1002.6000;0.6349;-5.6156;
1002.9000;0.6341;-5.6156;
1003.2000;0.6357;-5.6130;
1003.5000;0.6374;-5.6234;
1003.8000;0.6365;-5.6182;
1004.1000;0.6365;-5.6286;
1004.4000;0.6349;-5.6312;
1004.7000;0.6365;-5.6234;
1005.0000;0.6374;-5.6156;
1005.3000;0.6349;-5.6260;
1005.6000;0.6365;-5.6182;
1005.9000;0.6374;-5.6208;
1006.2000;0.6422;-5.6156;
1006.5000;0.6341;-5.6415;
1006.8000;0.6365;-5.6415;
1007.1000;0.6357;-5.6312;
1007.4000;0.6374;-5.6363;
1007.7000;0.6341;-5.6415;
1008.0000;0.6317;-5.6337;
1008.3000;0.6365;-5.6234;
1008.6000;0.6365;-5.6104;
1008.9000;0.6357;-5.6078;
1009.2000;0.6349;-5.6027;
1009.5000;0.6341;-5.6156;
1009.8000;0.6365;-5.6130;
1010.1000;0.6357;-5.6130;
1010.4000;0.6357;-5.6156;
1010.7000;0.6374;-5.6078;
1011.0000;0.6382;-5.6078;
1011.3000;0.6390;-5.6053;
1011.6000;0.6390;-5.6130;
1011.9000;0.6365;-5.6286;
1012.2000;0.6357;-5.6312;
1012.5000;0.6365;-5.6337;
1012.8000;0.6292;-5.6519;
1013.1000;0.6390;-5.6260;
1013.4000;0.6357;-5.6260;
1013.7000;0.6374;-5.6260;
1014.0000;0.6365;-5.6182;
1014.3000;0.6390;-5.6104;
1014.6000;0.6349;-5.6130;
1014.9000;0.6365;-5.6053;
1015.2000;0.6349;-5.6027;
1015.5000;0.6382;-5.5949;
1015.8000;0.6365;-5.6027;
1016.1000;0.6382;-5.6027;
1016.4000;0.6333;-5.6130;
1016.7000;0.6357;-5.6104;
1017.0000;0.6349;-5.6104;
1017.3000;0.6341;-5.6027;
1017.6000;0.6268;-5.6130;
1017.9000;0.6374;-5.5923;
1018.2000;0.6341;-5.6053;
1018.5000;0.6349;-5.6001;
1018.8000;0.6341;-5.6053;
1019.1000;0.6357;-5.6078;
1019.4000;0.6357;-5.6078;
1019.7000;0.6357;-5.6078;
1020.0000;0.6357;-5.6130;
1020.3000;0.6349;-5.6104;
1020.6000;0.6333;-5.6208;
1020.9000;0.6374;-5.6078;
1021.2000;0.6341;-5.6208;
1021.5000;0.6374;-5.6053;
1021.8000;0.6357;-5.6078;
1022.1000;0.6357;-5.6104;
1022.4000;0.6382;-5.6078;
1022.7000;0.6382;-5.6078;
1023.0000;0.6341;-5.6156;
1023.3000;0.6365;-5.6156;
1023.6000;0.6357;-5.6182;
1023.9000;0.6365;-5.6208;
1024.2000;0.6365;-5.6286;
1024.5000;0.6382;-5.6182;
1024.8000;0.6374;-5.6208;
1025.1000;0.6374;-5.6156;
1025.4000;0.6374;-5.6130;
1025.7000;0.6382;-5.6130;
1026.0000;0.6357;-5.6208;
1026.3000;0.6365;-5.6234;
1026.6000;0.6349;-5.6182;
1026.9000;0.6349;-5.6156;
1027.2000;0.6349;-5.6130;
1027.5000;0.6365;-5.6104;
1027.8000;0.6317;-5.6286;
1028.1000;0.6365;-5.6078;
1028.4000;0.6341;-5.6156;
1028.7000;0.6357;-5.6130;
1029.0000;0.6422;-5.5897;
1029.3000;0.6349;-5.6104;
1029.6000;0.6349;-5.6182;
1029.9000;0.6349;-5.6234;
1030.2000;0.6349;-5.6234;
1030.5000;0.6374;-5.6130;
1030.8000;0.6284;-5.6260;
1031.1000;0.6357;-5.6053;
1031.4000;0.6349;-5.6104;
1031.7000;0.6349;-5.6104;
1032.0000;0.6349;-5.6104;
1032.3000;0.6365;-5.6130;
1032.6000;0.6357;-5.6208;
1032.9000;0.6365;-5.6234;
1033.2000;0.6349;-5.6234;
1033.5000;0.6357;-5.6260;
1033.8000;0.6349;-5.6260;
1034.1000;0.6341;-5.6130;
1034.4000;0.6357;-5.6104;
1034.7000;0.6341;-5.6078;
1035.0000;0.6349;-5.6104;
1035.3000;0.6341;-5.6130;
1035.6000;0.6374;-5.6130;
1035.9000;0.6365;-5.6234;
1036.2000;0.6365;-5.6156;
1036.5000;0.6349;-5.6234;
1036.8000;0.6374;-5.6130;
1037.1000;0.6357;-5.6130;
1037.4000;0.6357;-5.6104;
1037.7000;0.6357;-5.6130;
1038.0000;0.6365;-5.6182;
1038.3000;0.6333;-5.6286;
1038.6000;0.6349;-5.6312;
1038.9000;0.6349;-5.6260;
1039.2000;0.6333;-5.6286;
1039.5000;0.6276;-5.6415;
1039.8000;0.6349;-5.6182;
1040.1000;0.6357;-5.6182;
1040.4000;0.6341;-5.6156;
1040.7000;0.6341;-5.6078;
1041.0000;0.6357;-5.5949;
1041.3000;0.6349;-5.5975;
1041.6000;0.6349;-5.6001;
1041.9000;0.6341;-5.6104;
1042.2000;0.6333;-5.6078;
1042.5000;0.6317;-5.6156;
1042.8000;0.6349;-5.6027;
1043.1000;0.6349;-5.6027;
1043.4000;0.6341;-5.6078;
1043.7000;0.6341;-5.6104;
1044.0000;0.6341;-5.6104;
1044.3000;0.6374;-5.6078;
1044.6000;0.6341;-5.6130;
1044.9000;0.6325;-5.6208;
1045.2000;0.6284;-5.6260;
1045.5000;0.6349;-5.6104;
1045.8000;0.6341;-5.6078;
1046.1000;0.6341;-5.6104;
1046.4000;0.6292;-5.6078;
1046.7000;0.6349;-5.5923;
1047.0000;0.6365;-5.5923;
1047.3000;0.6333;-5.5923;
1047.6000;0.6357;-5.5897;
1047.9000;0.6357;-5.5923;
1048.2000;0.6349;-5.5897;
1048.5000;0.6349;-5.5975;
1048.8000;0.6357;-5.5949;
1049.1000;0.6341;-5.6053;
1049.4000;0.6349;-5.5949;
1049.7000;0.6349;-5.6027;
1050.0000;0.6341;-5.6027;
1050.3000;0.6341;-5.6130;
1050.6000;0.6349;-5.6078;
1050.9000;0.6374;-5.6053;
1051.2000;0.6357;-5.6078;
1051.5000;0.6349;-5.6104;
1051.8000;0.6349;-5.6078;
1052.1000;0.6341;-5.6130;
1052.4000;0.6349;-5.6104;
1052.7000;0.6349;-5.6156;
1053.0000;0.6341;-5.6156;
1053.3000;0.6349;-5.6053;
1053.6000;0.6349;-5.6027;
1053.9000;0.6349;-5.5975;
1054.2000;0.6333;-5.6001;
1054.5000;0.6349;-5.5949;
1054.8000;0.6284;-5.6104;
1055.1000;0.6341;-5.6053;
1055.4000;0.6349;-5.6053;
1055.7000;0.6349;-5.6053;
1056.0000;0.6333;-5.6053;
1056.3000;0.6365;-5.5975;
1056.6000;0.6349;-5.6104;
1056.9000;0.6341;-5.6104;
1057.2000;0.6374;-5.6027;
1057.5000;0.6349;-5.6130;
1057.8000;0.6365;-5.6053;
1058.1000;0.6365;-5.6078;
1058.4000;0.6349;-5.6078;
1058.7000;0.6365;-5.6027;
1059.0000;0.6333;-5.6053;
1059.3000;0.6333;-5.5949;
1059.6000;0.6349;-5.6027;
1059.9000;0.6349;-5.5975;
1060.2000;0.6374;-5.6027;
1060.5000;0.6325;-5.6130;
1060.8000;0.6349;-5.6130;
1061.1000;0.6349;-5.6208;
1061.4000;0.6357;-5.6156;
1061.7000;0.6374;-5.6078;
1062.0000;0.6357;-5.6078;
1062.3000;0.6357;-5.6104;
1062.6000;0.6357;-5.6156;
1062.9000;0.6357;-5.6027;
1063.2000;0.6382;-5.6001;
1063.5000;0.6341;-5.6027;
1063.8000;0.6333;-5.6027;
1064.1000;0.6341;-5.6053;
1064.4000;0.6333;-5.6078;
1064.7000;0.6390;-5.6001;
1065.0000;0.6357;-5.6027;
1065.3000;0.6341;-5.6027;
1065.6000;0.6333;-5.5975;
1065.9000;0.6341;-5.5923;
1066.2000;0.6365;-5.5897;
1066.5000;0.6341;-5.6001;
1066.8000;0.6333;-5.6001;
1067.1000;0.6349;-5.5897;
1067.4000;0.6382;-5.5794;
1067.7000;0.6349;-5.5897;
1068.0000;0.6341;-5.5897;
1068.3000;0.6365;-5.5819;
1068.6000;0.6357;-5.5897;
1068.9000;0.6317;-5.5871;
1069.2000;0.6292;-5.5949;
1069.5000;0.6333;-5.5897;
1069.8000;0.6317;-5.6053;
1070.1000;0.6325;-5.6001;
1070.4000;0.6317;-5.6078;
1070.7000;0.6325;-5.6078;
1071.0000;0.6406;-5.5794;
1071.3000;0.6300;-5.6027;
1071.6000;0.6341;-5.5923;
1071.9000;0.6341;-5.5923;
1072.2000;0.6333;-5.5897;
1072.5000;0.6341;-5.5897;
1072.8000;0.6382;-5.5742;
1073.1000;0.6357;-5.5845;
1073.4000;0.6341;-5.5897;
1073.7000;0.6341;-5.5871;
1074.0000;0.6349;-5.5923;
1074.3000;0.6341;-5.5975;
1074.6000;0.6341;-5.6027;
1074.9000;0.6341;-5.6027;
1075.2000;0.6341;-5.6001;
1075.5000;0.6341;-5.5949;
1075.8000;0.6365;-5.5897;
1076.1000;0.6325;-5.6053;
1076.4000;0.6317;-5.6027;
1076.7000;0.6349;-5.5949;
1077.0000;0.6309;-5.6130;
1077.3000;0.6341;-5.6078;
1077.6000;0.6357;-5.6053;
1077.9000;0.6341;-5.6130;
1078.2000;0.6357;-5.6104;
1078.5000;0.6333;-5.6053;
1078.8000;0.6333;-5.6001;
1079.1000;0.6357;-5.5975;
1079.4000;0.6333;-5.6027;
1079.7000;0.6317;-5.6001;
1080.0000;0.6300;-5.6053;
1080.3000;0.6341;-5.5949;
1080.6000;0.6325;-5.5975;
1080.9000;0.6341;-5.5975;
1081.2000;0.6341;-5.5949;
1081.5000;0.6325;-5.5897;
1081.8000;0.6325;-5.5871;
1082.1000;0.6333;-5.5923;
1082.4000;0.6341;-5.5949;
1082.7000;0.6309;-5.6027;
1083.0000;0.6357;-5.5923;
1083.3000;0.6333;-5.6053;
1083.6000;0.6333;-5.6104;
1083.9000;0.6349;-5.6001;
1084.2000;0.6284;-5.6208;
1084.5000;0.6333;-5.6104;
1084.8000;0.6333;-5.6078;
1085.1000;0.6325;-5.6130;
1085.4000;0.6349;-5.6104;
1085.7000;0.6341;-5.6078;
1086.0000;0.6349;-5.6027;
1086.3000;0.6422;-5.5949;
1086.6000;0.6341;-5.6130;
1086.9000;0.6357;-5.6104;
1087.2000;0.6333;-5.6130;
1087.5000;0.6349;-5.6053;
1087.8000;0.6341;-5.6130;
1088.1000;0.6317;-5.6286;
1088.4000;0.6325;-5.6312;
1088.7000;0.6325;-5.6363;
1089.0000;0.6341;-5.6337;
1089.3000;0.6333;-5.6389;
1089.6000;0.6325;-5.6337;
1089.9000;0.6300;-5.6337;
1090.2000;0.6333;-5.6312;
1090.5000;0.6333;-5.6312;
1090.8000;0.6317;-5.6337;
1091.1000;0.6341;-5.6208;
1091.4000;0.6317;-5.6208;
1091.7000;0.6317;-5.6182;
1092.0000;0.6292;-5.6234;
1092.3000;0.6341;-5.6182;
1092.6000;0.6333;-5.6078;
1092.9000;0.6349;-5.6078;
1093.2000;0.6300;-5.6156;
1093.5000;0.6349;-5.6104;
1093.8000;0.6341;-5.6130;
1094.1000;0.6349;-5.6104;
1094.4000;0.6341;-5.6104;
1094.7000;0.6341;-5.6078;
1095.0000;0.6284;-5.6260;
1095.3000;0.6317;-5.6130;
1095.6000;0.6300;-5.6156;
1095.9000;0.6349;-5.6104;
1096.2000;0.6333;-5.6182;
1096.5000;0.6341;-5.6234;
1096.8000;0.6309;-5.6337;
1097.1000;0.6333;-5.6208;
1097.4000;0.6325;-5.6208;
1097.7000;0.6341;-5.6156;
1098.0000;0.6357;-5.6027;
1098.3000;0.6341;-5.6078;
1098.6000;0.6333;-5.6130;
1098.9000;0.6309;-5.6286;
1099.2000;0.6333;-5.6260;
1099.5000;0.6365;-5.6156;
1099.8000;0.6317;-5.6208;
1100.1000;0.6333;-5.6078;
1100.4000;0.6317;-5.6001;
1100.7000;0.6284;-5.5975;
1101.0000;0.6333;-5.5949;
1101.3000;0.6333;-5.5975;
1101.6000;0.6333;-5.6001;
1101.9000;0.6333;-5.5949;
1102.2000;0.6341;-5.6001;
1102.5000;0.6309;-5.6104;
1102.8000;0.6325;-5.6053;
1103.1000;0.6341;-5.6027;
1103.4000;0.6341;-5.6053;
1103.7000;0.6357;-5.6078;
1104.0000;0.6325;-5.6182;
1104.3000;0.6341;-5.6130;
1104.6000;0.6341;-5.6078;
1104.9000;0.6333;-5.6130;
1105.2000;0.6325;-5.6130;
1105.5000;0.6333;-5.6182;
1105.8000;0.6333;-5.6156;
1106.1000;0.6341;-5.6182;
1106.4000;0.6309;-5.6312;
1106.7000;0.6325;-5.6260;
1107.0000;0.6341;-5.6337;
1107.3000;0.6325;-5.6389;
1107.6000;0.6325;-5.6312;
1107.9000;0.6317;-5.6260;
1108.2000;0.6349;-5.6156;
1108.5000;0.6333;-5.6104;
1108.8000;0.6333;-5.6104;
1109.1000;0.6309;-5.6104;
1109.4000;0.6276;-5.6104;
1109.7000;0.6333;-5.5949;
1110.0000;0.6333;-5.6027;
1110.3000;0.6349;-5.6001;
1110.6000;0.6333;-5.6053;
1110.9000;0.6325;-5.6078;
1111.2000;0.6333;-5.6027;
1111.5000;0.6333;-5.6104;
1111.8000;0.6317;-5.6130;
1112.1000;0.6325;-5.6104;
1112.4000;0.6325;-5.6130;
1112.7000;0.6333;-5.6104;
1113.0000;0.6333;-5.6182;
1113.3000;0.6341;-5.6156;
1113.6000;0.6333;-5.6104;
1113.9000;0.6333;-5.6156;
1114.2000;0.6325;-5.6156;
1114.5000;0.6317;-5.6208;
1114.8000;0.6309;-5.6208;
1115.1000;0.6333;-5.6130;
1115.4000;0.6317;-5.6156;
1115.7000;0.6300;-5.6234;
1116.0000;0.6309;-5.6234;
1116.3000;0.6317;-5.6234;
1116.6000;0.6325;-5.6234;
1116.9000;0.6317;-5.6312;
1117.2000;0.6325;-5.6260;
1117.5000;0.6325;-5.6182;
1117.8000;0.6333;-5.6182;
1118.1000;0.6325;-5.6208;
1118.4000;0.6333;-5.6104;
1118.7000;0.6325;-5.6104;
1119.0000;0.6341;-5.6053;
1119.3000;0.6325;-5.6156;
1119.6000;0.6325;-5.6182;
1119.9000;0.6341;-5.6234;
1120.2000;0.6325;-5.6234;
1120.5000;0.6317;-5.6312;
1120.8000;0.6325;-5.6260;
1121.1000;0.6325;-5.6234;
1121.4000;0.6333;-5.6104;
1121.7000;0.6341;-5.6104;
1122.0000;0.6406;-5.6001;
1122.3000;0.6325;-5.6234;
1122.6000;0.6341;-5.6234;
1122.9000;0.6333;-5.6286;
1123.2000;0.6309;-5.6260;
1123.5000;0.6357;-5.6182;
1123.8000;0.6333;-5.6208;
1124.1000;0.6325;-5.6182;
1124.4000;0.6333;-5.6104;
1124.7000;0.6317;-5.6208;
1125.0000;0.6317;-5.6286;
1125.3000;0.6317;-5.6286;
1125.6000;0.6325;-5.6286;
1125.9000;0.6333;-5.6182;
1126.2000;0.6333;-5.6156;
1126.5000;0.6325;-5.6130;
1126.8000;0.6341;-5.6053;
1127.1000;0.6357;-5.6027;
1127.4000;0.6357;-5.6104;
1127.7000;0.6390;-5.6027;
1128.0000;0.6341;-5.6182;
1128.3000;0.6309;-5.6286;
1128.6000;0.6309;-5.6234;
1128.9000;0.6365;-5.6078;
1129.2000;0.6341;-5.6156;
1129.5000;0.6341;-5.6130;
1129.8000;0.6300;-5.6182;
1130.1000;0.6333;-5.6104;
1130.4000;0.6325;-5.6078;
1130.7000;0.6325;-5.6053;
1131.0000;0.6333;-5.6078;
1131.3000;0.6341;-5.6027;
1131.6000;0.6333;-5.5975;
1131.9000;0.6325;-5.5975;
1132.2000;0.6300;-5.6104;
1132.5000;0.6284;-5.6078;
1132.8000;0.6365;-5.5897;
1133.1000;0.6341;-5.5897;
1133.4000;0.6317;-5.5975;
1133.7000;0.6325;-5.5923;
1134.0000;0.6333;-5.5949;
1134.3000;0.6309;-5.5975;
1134.6000;0.6325;-5.6027;
1134.9000;0.6309;-5.6053;
1135.2000;0.6341;-5.5949;
1135.5000;0.6341;-5.6001;
1135.8000;0.6325;-5.6053;
1136.1000;0.6317;-5.6053;
1136.4000;0.6317;-5.5949;
1136.7000;0.6341;-5.5949;
1137.0000;0.6300;-5.5949;
1137.3000;0.6317;-5.5897;
1137.6000;0.6309;-5.5897;
1137.9000;0.6325;-5.5845;
1138.2000;0.6317;-5.5949;
1138.5000;0.6333;-5.5949;
1138.8000;0.6325;-5.5923;
1139.1000;0.6341;-5.5975;
1139.4000;0.6276;-5.6130;
1139.7000;0.6341;-5.6001;
1140.0000;0.6382;-5.5845;
1140.3000;0.6341;-5.5897;
1140.6000;0.6390;-5.5819;
1140.9000;0.6317;-5.5975;
1141.2000;0.6333;-5.5897;
1141.5000;0.6309;-5.5949;
1141.8000;0.6309;-5.5949;
1142.1000;0.6292;-5.5949;
1142.4000;0.6325;-5.5975;
1142.7000;0.6317;-5.6053;
1143.0000;0.6309;-5.6001;
1143.3000;0.6309;-5.6053;
1143.6000;0.6317;-5.6027;
1143.9000;0.6325;-5.6053;
1144.2000;0.6341;-5.5975;
1144.5000;0.6333;-5.5975;
1144.8000;0.6325;-5.5975;
1145.1000;0.6325;-5.5975;
1145.4000;0.6333;-5.5949;
1145.7000;0.6292;-5.6078;
1146.0000;0.6317;-5.6027;
1146.3000;0.6317;-5.6053;
1146.6000;0.6317;-5.6130;
1146.9000;0.6284;-5.6182;
1147.2000;0.6309;-5.6156;
1147.5000;0.6309;-5.6104;
1147.8000;0.6317;-5.6130;
1148.1000;0.6333;-5.6078;
1148.4000;0.6325;-5.6027;
1148.7000;0.6317;-5.6053;
1149.0000;0.6341;-5.6053;
1149.3000;0.6325;-5.6104;
1149.6000;0.6292;-5.6208;
1149.9000;0.6333;-5.6104;
1150.2000;0.6317;-5.6208;
1150.5000;0.6333;-5.6130;
1150.8000;0.6333;-5.6104;
1151.1000;0.6317;-5.6104;
1151.4000;0.6317;-5.6130;
1151.7000;0.6325;-5.6078;
1152.0000;0.6325;-5.6053;
1152.3000;0.6317;-5.6130;
1152.6000;0.6325;-5.6182;
1152.9000;0.6325;-5.6234;
1153.2000;0.6333;-5.6156;
1153.5000;0.6325;-5.6130;
1153.8000;0.6300;-5.6260;
1154.1000;0.6284;-5.6389;
1154.4000;0.6333;-5.6337;
1154.7000;0.6325;-5.6312;
1155.0000;0.6309;-5.6415;
1155.3000;0.6268;-5.6441;
1155.6000;0.6349;-5.6260;
1155.9000;0.6365;-5.6182;
1156.2000;0.6317;-5.6286;
1156.5000;0.6309;-5.6260;
1156.8000;0.6341;-5.6208;
1157.1000;0.6300;-5.6260;
1157.4000;0.6309;-5.6260;
1157.7000;0.6235;-5.6415;
1158.0000;0.6309;-5.6286;
1158.3000;0.6317;-5.6208;
1158.6000;0.6325;-5.6182;
1158.9000;0.6341;-5.6130;
1159.2000;0.6325;-5.6078;
1159.5000;0.6317;-5.6078;
1159.8000;0.6341;-5.6053;
1160.1000;0.6317;-5.6027;
1160.4000;0.6309;-5.6078;
1160.7000;0.6325;-5.6001;
1161.0000;0.6284;-5.6208;
1161.3000;0.6333;-5.6156;
1161.6000;0.6357;-5.6104;
1161.9000;0.6317;-5.6286;
1162.2000;0.6284;-5.6337;
1162.5000;0.6317;-5.6208;
1162.8000;0.6292;-5.6260;
1163.1000;0.6309;-5.6312;
1163.4000;0.6309;-5.6260;
1163.7000;0.6317;-5.6286;
1164.0000;0.6276;-5.6363;
1164.3000;0.6374;-5.6130;
1164.6000;0.6341;-5.6182;
1164.9000;0.6300;-5.6208;
1165.2000;0.6317;-5.6234;
1165.5000;0.6309;-5.6260;
1165.8000;0.6341;-5.6130;
1166.1000;0.6325;-5.6182;
1166.4000;0.6317;-5.6182;
1166.7000;0.6317;-5.6286;
1167.0000;0.6317;-5.6312;
1167.3000;0.6309;-5.6337;
1167.6000;0.6309;-5.6337;
1167.9000;0.6292;-5.6260;
1168.2000;0.6309;-5.6182;
1168.5000;0.6325;-5.6156;
1168.8000;0.6341;-5.5897;
1169.1000;0.6309;-5.6001;
1169.4000;0.6325;-5.6001;
1169.7000;0.6317;-5.6078;
1170.0000;0.6398;-5.5768;
1170.3000;0.6325;-5.5949;
1170.6000;0.6325;-5.6027;
1170.9000;0.6317;-5.6027;
1171.2000;0.6309;-5.6078;
1171.5000;0.6317;-5.6078;
1171.8000;0.6349;-5.6053;
1172.1000;0.6317;-5.6208;
1172.4000;0.6333;-5.6182;
1172.7000;0.6317;-5.6260;
1173.0000;0.6317;-5.6260;
1173.3000;0.6309;-5.6208;
1173.6000;0.6317;-5.6260;
1173.9000;0.6325;-5.6337;
1174.2000;0.6325;-5.6234;
1174.5000;0.6276;-5.6286;
1174.8000;0.6414;-5.5845;
1175.1000;0.6325;-5.6104;
1175.4000;0.6333;-5.6104;
1175.7000;0.6325;-5.6078;
1176.0000;0.6341;-5.6078;
1176.3000;0.6341;-5.6130;
1176.6000;0.6333;-5.6208;
1176.9000;0.6309;-5.6363;
1177.2000;0.6317;-5.6260;
1177.5000;0.6333;-5.6260;
1177.8000;0.6309;-5.6312;
1178.1000;0.6317;-5.6312;
1178.4000;0.6292;-5.6286;
1178.7000;0.6284;-5.6260;
1179.0000;0.6325;-5.6104;
1179.3000;0.6292;-5.6156;
1179.6000;0.6309;-5.6156;
1179.9000;0.6292;-5.6208;
1180.2000;0.6325;-5.6156;
1180.5000;0.6325;-5.6182;
1180.8000;0.6260;-5.6312;
1181.1000;0.6309;-5.6234;
1181.4000;0.6349;-5.6130;
1181.7000;0.6357;-5.6078;
1182.0000;0.6309;-5.6312;
1182.3000;0.6333;-5.6208;
1182.6000;0.6325;-5.6234;
1182.9000;0.6325;-5.6130;
1183.2000;0.6260;-5.6312;
1183.5000;0.6325;-5.6208;
1183.8000;0.6317;-5.6182;
1184.1000;0.6349;-5.6001;
1184.4000;0.6292;-5.6156;
1184.7000;0.6325;-5.6156;
1185.0000;0.6333;-5.6156;
1185.3000;0.6341;-5.6104;
1185.6000;0.6300;-5.6130;
1185.9000;0.6317;-5.6104;
1186.2000;0.6292;-5.6130;
1186.5000;0.6317;-5.6053;
1186.8000;0.6382;-5.5949;
1187.1000;0.6300;-5.6104;
1187.4000;0.6309;-5.6078;
1187.7000;0.6292;-5.6104;
1188.0000;0.6333;-5.6001;
1188.3000;0.6325;-5.6053;
1188.6000;0.6243;-5.6234;
1188.9000;0.6317;-5.6078;
1189.2000;0.6309;-5.6078;
1189.5000;0.6300;-5.6104;
1189.8000;0.6333;-5.6078;
1190.1000;0.6325;-5.6078;
1190.4000;0.6325;-5.6156;
1190.7000;0.6317;-5.6130;
1191.0000;0.6317;-5.6130;
1191.3000;0.6333;-5.6078;
1191.6000;0.6309;-5.6130;
1191.9000;0.6300;-5.6104;
1192.2000;0.6317;-5.6078;
1192.5000;0.6300;-5.6104;
1192.8000;0.6284;-5.6156;
1193.1000;0.6300;-5.6182;
1193.4000;0.6300;-5.6182;
1193.7000;0.6292;-5.6182;
1194.0000;0.6317;-5.6104;
1194.3000;0.6300;-5.6130;
1194.6000;0.6292;-5.6182;
1194.9000;0.6292;-5.6078;
1195.2000;0.6300;-5.6027;
1195.5000;0.6317;-5.6027;
1195.8000;0.6341;-5.6027;
1196.1000;0.6341;-5.5975;
1196.4000;0.6325;-5.6001;
1196.7000;0.6309;-5.5975;
1197.0000;0.6309;-5.6078;
1197.3000;0.6325;-5.6027;
1197.6000;0.6292;-5.6001;
1197.9000;0.6300;-5.6053;
1198.2000;0.6309;-5.6104;
1198.5000;0.6292;-5.6104;
1198.8000;0.6300;-5.6104;
1199.1000;0.6317;-5.6104;
1199.4000;0.6341;-5.6104;
1199.7000;0.6300;-5.6182;
1200.0000;0.6333;-5.6156;
1200.3000;0.6357;-5.6053;
1200.6000;0.6325;-5.6130;
1200.9000;0.6325;-5.6182;
1201.2000;0.6243;-5.6312;
1201.5000;0.6325;-5.6104;
1201.8000;0.6317;-5.6130;
1202.1000;0.6317;-5.6053;
1202.4000;0.6309;-5.6104;
1202.7000;0.6317;-5.6027;
1203.0000;0.6333;-5.6078;
1203.3000;0.6292;-5.6053;
1203.6000;0.6300;-5.6001;
1203.9000;0.6284;-5.5923;
1204.2000;0.6309;-5.5949;
1204.5000;0.6292;-5.6053;
1204.8000;0.6252;-5.6156;
1205.1000;0.6276;-5.6104;
1205.4000;0.6284;-5.6053;
1205.7000;0.6317;-5.5949;
1206.0000;0.6333;-5.5949;
1206.3000;0.6309;-5.5949;
1206.6000;0.6309;-5.5897;
1206.9000;0.6333;-5.5871;
1207.2000;0.6317;-5.5923;
1207.5000;0.6309;-5.5845;
1207.8000;0.6309;-5.5794;
1208.1000;0.6284;-5.5871;
1208.4000;0.6317;-5.5871;
1208.7000;0.6268;-5.6001;
1209.0000;0.6292;-5.5975;
1209.3000;0.6292;-5.5975;
1209.6000;0.6292;-5.6027;
1209.9000;0.6292;-5.6104;
1210.2000;0.6292;-5.6130;
1210.5000;0.6317;-5.6130;
1210.8000;0.6349;-5.6053;
1211.1000;0.6300;-5.6156;
1211.4000;0.6300;-5.6182;
1211.7000;0.6309;-5.6182;
1212.0000;0.6333;-5.6104;
1212.3000;0.6309;-5.6130;
1212.6000;0.6309;-5.6156;
1212.9000;0.6325;-5.6130;
1213.2000;0.6317;-5.6104;
1213.5000;0.6309;-5.6130;
1213.8000;0.6309;-5.6053;
1214.1000;0.6300;-5.6078;
1214.4000;0.6317;-5.6078;
1214.7000;0.6325;-5.6078;
1215.0000;0.6309;-5.6053;
1215.3000;0.6309;-5.6027;
1215.6000;0.6300;-5.5975;
1215.9000;0.6317;-5.5897;
1216.2000;0.6333;-5.5794;
1216.5000;0.6300;-5.5845;
1216.8000;0.6292;-5.5871;
1217.1000;0.6300;-5.5845;
1217.4000;0.6317;-5.5949;
1217.7000;0.6317;-5.5975;
1218.0000;0.6300;-5.5975;
1218.3000;0.6292;-5.6053;
1218.6000;0.6317;-5.6078;
1218.9000;0.6300;-5.6104;
1219.2000;0.6300;-5.6027;
1219.5000;0.6284;-5.6001;
1219.8000;0.6268;-5.6078;
1220.1000;0.6325;-5.5923;
1220.4000;0.6276;-5.5975;
1220.7000;0.6309;-5.5897;
1221.0000;0.6317;-5.5897;
1221.3000;0.6300;-5.5949;
1221.6000;0.6325;-5.5975;
1221.9000;0.6317;-5.6027;
1222.2000;0.6325;-5.6027;
1222.5000;0.6325;-5.6027;
1222.8000;0.6325;-5.6053;
1223.1000;0.6300;-5.6078;
1223.4000;0.6309;-5.6078;
1223.7000;0.6374;-5.5923;
1224.0000;0.6325;-5.6053;
1224.3000;0.6276;-5.6130;
1224.6000;0.6325;-5.6027;
1224.9000;0.6300;-5.5975;
1225.2000;0.6284;-5.6001;
1225.5000;0.6292;-5.5923;
1225.8000;0.6284;-5.6001;
1226.1000;0.6317;-5.5923;
1226.4000;0.6325;-5.5897;
1226.7000;0.6284;-5.5845;
1227.0000;0.6309;-5.5768;
1227.3000;0.6309;-5.5794;
1227.6000;0.6309;-5.5794;
1227.9000;0.6300;-5.5819;
1228.2000;0.6284;-5.5897;
1228.5000;0.6317;-5.5794;
1228.8000;0.6317;-5.5845;
1229.1000;0.6268;-5.5949;
1229.4000;0.6300;-5.5897;
1229.7000;0.6309;-5.5871;
1230.0000;0.6309;-5.5897;
1230.3000;0.6292;-5.6027;
1230.6000;0.6292;-5.6027;
1230.9000;0.6309;-5.6053;
1231.2000;0.6309;-5.6078;
1231.5000;0.6309;-5.6053;
1231.8000;0.6292;-5.6130;
1232.1000;0.6300;-5.6130;
1232.4000;0.6317;-5.6104;
1232.7000;0.6317;-5.6104;
1233.0000;0.6349;-5.6104;
1233.3000;0.6292;-5.6234;
1233.6000;0.6325;-5.6130;
1233.9000;0.6309;-5.6130;
1234.2000;0.6309;-5.6130;
1234.5000;0.6300;-5.6130;
1234.8000;0.6300;-5.6182;
1235.1000;0.6333;-5.6104;
1235.4000;0.6268;-5.6182;
1235.7000;0.6284;-5.6130;
1236.0000;0.6300;-5.6156;
1236.3000;0.6284;-5.6182;
1236.6000;0.6300;-5.6234;
1236.9000;0.6292;-5.6130;
1237.2000;0.6300;-5.6078;
1237.5000;0.6325;-5.6078;
1237.8000;0.6317;-5.6078;
1238.1000;0.6309;-5.6078;
1238.4000;0.6309;-5.6104;
1238.7000;0.6292;-5.6156;
1239.0000;0.6317;-5.6130;
1239.3000;0.6292;-5.6130;
1239.6000;0.6309;-5.6053;
1239.9000;0.6309;-5.6104;
1240.2000;0.6252;-5.6130;
1240.5000;0.6292;-5.5975;
1240.8000;0.6268;-5.6234;
1241.1000;0.6235;-5.6208;
1241.4000;0.6300;-5.6027;
1241.7000;0.6268;-5.6130;
1242.0000;0.6300;-5.6078;
1242.3000;0.6309;-5.5949;
1242.6000;0.6309;-5.5923;
1242.9000;0.6300;-5.5923;
1243.2000;0.6300;-5.5897;
1243.5000;0.6300;-5.5897;
1243.8000;0.6317;-5.5871;
1244.1000;0.6309;-5.5923;
1244.4000;0.6300;-5.5949;
1244.7000;0.6317;-5.5975;
1245.0000;0.6309;-5.5975;
1245.3000;0.6300;-5.5897;
1245.6000;0.6252;-5.6078;
1245.9000;0.6292;-5.6130;
1246.2000;0.6300;-5.6156;
1246.5000;0.6317;-5.6156;
1246.8000;0.6292;-5.6234;
1247.1000;0.6284;-5.6156;
1247.4000;0.6317;-5.6078;
1247.7000;0.6300;-5.6001;
1248.0000;0.6325;-5.5871;
1248.3000;0.6260;-5.6001;
1248.6000;0.6317;-5.5897;
1248.9000;0.6317;-5.5845;
1249.2000;0.6309;-5.5897;
1249.5000;0.6300;-5.5923;
1249.8000;0.6300;-5.5975;
1250.1000;0.6309;-5.6027;
1250.4000;0.6317;-5.6078;
1250.7000;0.6341;-5.5975;
1251.0000;0.6292;-5.6104;
1251.3000;0.6292;-5.6078;
1251.6000;0.6309;-5.5975;
1251.9000;0.6292;-5.6001;
1252.2000;0.6292;-5.5897;
1252.5000;0.6309;-5.5794;
1252.8000;0.6300;-5.5716;
1253.1000;0.6276;-5.5742;
1253.4000;0.6292;-5.5768;
1253.7000;0.6292;-5.5897;
1254.0000;0.6309;-5.5897;
1254.3000;0.6317;-5.5897;
1254.6000;0.6300;-5.5975;
1254.9000;0.6292;-5.5975;
1255.2000;0.6284;-5.5975;
1255.5000;0.6341;-5.5819;
1255.8000;0.6292;-5.5897;
1256.1000;0.6292;-5.5923;
1256.4000;0.6309;-5.5949;
1256.7000;0.6317;-5.5949;
1257.0000;0.6309;-5.6027;
1257.3000;0.6317;-5.6001;
1257.6000;0.6309;-5.5949;
1257.9000;0.6309;-5.5845;
1258.2000;0.6325;-5.5923;
1258.5000;0.6309;-5.5975;
1258.8000;0.6317;-5.6001;
1259.1000;0.6309;-5.5949;
1259.4000;0.6317;-5.5923;
1259.7000;0.6292;-5.5897;
1260.0000;0.6300;-5.5897;
1260.3000;0.6300;-5.5975;
1260.6000;0.6309;-5.6001;
1260.9000;0.6309;-5.6130;
1261.2000;0.6284;-5.6312;
1261.5000;0.6284;-5.6312;
1261.8000;0.6284;-5.6286;
1262.1000;0.6292;-5.6389;
1262.4000;0.6292;-5.6363;
1262.7000;0.6309;-5.6337;
1263.0000;0.6276;-5.6286;
1263.3000;0.6309;-5.6104;
1263.6000;0.6292;-5.6104;
1263.9000;0.6276;-5.6156;
1264.2000;0.6341;-5.5975;
1264.5000;0.6300;-5.5949;
1264.8000;0.6292;-5.6001;
1265.1000;0.6284;-5.6053;
1265.4000;0.6284;-5.5923;
1265.7000;0.6284;-5.5949;
1266.0000;0.6292;-5.5975;
1266.3000;0.6276;-5.6078;
1266.6000;0.6284;-5.6156;
1266.9000;0.6300;-5.6078;
1267.2000;0.6276;-5.6053;
1267.5000;0.6292;-5.6053;
1267.8000;0.6325;-5.6001;
1268.1000;0.6292;-5.6156;
1268.4000;0.6309;-5.6078;
1268.7000;0.6317;-5.6078;
1269.0000;0.6300;-5.6156;
1269.3000;0.6317;-5.6078;
1269.6000;0.6317;-5.6001;
1269.9000;0.6300;-5.6053;
1270.2000;0.6317;-5.6001;
1270.5000;0.6276;-5.6104;
1270.8000;0.6268;-5.6104;
1271.1000;0.6309;-5.6053;
1271.4000;0.6300;-5.6104;
1271.7000;0.6300;-5.6104;
1272.0000;0.6317;-5.6078;
1272.3000;0.6219;-5.6234;
1272.6000;0.6292;-5.6104;
1272.9000;0.6382;-5.5871;
1273.2000;0.6284;-5.6078;
1273.5000;0.6300;-5.6053;
1273.8000;0.6284;-5.6027;
1274.1000;0.6357;-5.5871;
1274.4000;0.6309;-5.6001;
1274.7000;0.6300;-5.6053;
1275.0000;0.6300;-5.6130;
1275.3000;0.6300;-5.6078;
1275.6000;0.6284;-5.6001;
1275.9000;0.6309;-5.5923;
1276.2000;0.6300;-5.5975;
1276.5000;0.6276;-5.6027;
1276.8000;0.6284;-5.6001;
1277.1000;0.6276;-5.6053;
1277.4000;0.6292;-5.6078;
1277.7000;0.6333;-5.5949;
1278.0000;0.6276;-5.6104;
1278.3000;0.6292;-5.6078;
1278.6000;0.6276;-5.6001;
1278.9000;0.6300;-5.6001;
1279.2000;0.6284;-5.6001;
1279.5000;0.6300;-5.5949;
1279.8000;0.6284;-5.5975;
1280.1000;0.6309;-5.6001;
1280.4000;0.6300;-5.6053;
1280.7000;0.6292;-5.6053;
1281.0000;0.6309;-5.6053;
1281.3000;0.6300;-5.6027;
1281.6000;0.6284;-5.5949;
1281.9000;0.6292;-5.5923;
1282.2000;0.6309;-5.5845;
1282.5000;0.6309;-5.5845;
1282.8000;0.6300;-5.5897;
1283.1000;0.6292;-5.5845;
1283.4000;0.6325;-5.5819;
1283.7000;0.6292;-5.5897;
1284.0000;0.6276;-5.5871;
1284.3000;0.6325;-5.5742;
1284.6000;0.6333;-5.5690;
1284.9000;0.6317;-5.5768;
1285.2000;0.6325;-5.5871;
1285.5000;0.6300;-5.5975;
1285.8000;0.6317;-5.6001;
1286.1000;0.6309;-5.6001;
1286.4000;0.6309;-5.5949;
1286.7000;0.6292;-5.5897;
1287.0000;0.6309;-5.5819;
1287.3000;0.6309;-5.5871;
1287.6000;0.6325;-5.5819;
1287.9000;0.6309;-5.5871;
1288.2000;0.6357;-5.5690;
1288.5000;0.6276;-5.5975;
1288.8000;0.6300;-5.5871;
1289.1000;0.6284;-5.5897;
1289.4000;0.6276;-5.5975;
1289.7000;0.6276;-5.6001;
1290.0000;0.6309;-5.5897;
1290.3000;0.6300;-5.5975;
1290.6000;0.6292;-5.6001;
1290.9000;0.6276;-5.6001;
1291.2000;0.6292;-5.6001;
1291.5000;0.6284;-5.5975;
1291.8000;0.6252;-5.6053;
1292.1000;0.6300;-5.6001;
1292.4000;0.6341;-5.5768;
1292.7000;0.6292;-5.5845;
1293.0000;0.6284;-5.5742;
1293.3000;0.6382;-5.5535;
1293.6000;0.6309;-5.5716;
1293.9000;0.6309;-5.5664;
1294.2000;0.6268;-5.5690;
1294.5000;0.6300;-5.5768;
1294.8000;0.6325;-5.5742;
1295.1000;0.6317;-5.5768;
1295.4000;0.6333;-5.5794;
1295.7000;0.6317;-5.5871;
1296.0000;0.6292;-5.5897;
1296.3000;0.6268;-5.6001;
1296.6000;0.6309;-5.5975;
1296.9000;0.6292;-5.6027;
1297.2000;0.6284;-5.6027;
1297.5000;0.6325;-5.5871;
1297.8000;0.6300;-5.5845;
1298.1000;0.6317;-5.5819;
1298.4000;0.6300;-5.5794;
1298.7000;0.6300;-5.5768;
1299.0000;0.6317;-5.5716;
1299.3000;0.6309;-5.5819;
1299.6000;0.6203;-5.6078;
1299.9000;0.6292;-5.5897;
1300.2000;0.6309;-5.5897;
1300.5000;0.6300;-5.5819;
1300.8000;0.6284;-5.5923;
1301.1000;0.6284;-5.5923;
1301.4000;0.6292;-5.5871;
1301.7000;0.6276;-5.5923;
1302.0000;0.6268;-5.6001;
1302.3000;0.6284;-5.6001;
1302.6000;0.6309;-5.5923;
1302.9000;0.6300;-5.5923;
1303.2000;0.6284;-5.5975;
1303.5000;0.6309;-5.6027;
1303.8000;0.6276;-5.6078;
1304.1000;0.6317;-5.6053;
1304.4000;0.6300;-5.6104;
1304.7000;0.6325;-5.6027;
1305.0000;0.6292;-5.6078;
1305.3000;0.6268;-5.6104;
1305.6000;0.6317;-5.6053;
1305.9000;0.6276;-5.6156;
1306.2000;0.6317;-5.6104;
1306.5000;0.6309;-5.6078;
1306.8000;0.6309;-5.6182;
1307.1000;0.6309;-5.6286;
1307.4000;0.6292;-5.6363;
1307.7000;0.6292;-5.6286;
1308.0000;0.6300;-5.6208;
1308.3000;0.6292;-5.6156;
1308.6000;0.6284;-5.6182;
1308.9000;0.6276;-5.6208;
1309.2000;0.6325;-5.6130;
1309.5000;0.6309;-5.6130;
1309.8000;0.6317;-5.6053;
1310.1000;0.6260;-5.6182;
1310.4000;0.6309;-5.6053;
1310.7000;0.6284;-5.6001;
1311.0000;0.6284;-5.5975;
1311.3000;0.6268;-5.5923;
1311.6000;0.6276;-5.5897;
1311.9000;0.6276;-5.5897;
1312.2000;0.6300;-5.5819;
1312.5000;0.6309;-5.5819;
1312.8000;0.6292;-5.5742;
1313.1000;0.6300;-5.5794;
1313.4000;0.6276;-5.5845;
1313.7000;0.6268;-5.5923;
1314.0000;0.6317;-5.5819;
1314.3000;0.6243;-5.6078;
1314.6000;0.6292;-5.5949;
1314.9000;0.6292;-5.5923;
1315.2000;0.6390;-5.5742;
1315.5000;0.6276;-5.6001;
1315.8000;0.6317;-5.5897;
1316.1000;0.6309;-5.5923;
1316.4000;0.6341;-5.5819;
1316.7000;0.6292;-5.5949;
1317.0000;0.6349;-5.5845;
1317.3000;0.6292;-5.5975;
1317.6000;0.6284;-5.6053;
1317.9000;0.6300;-5.5949;
1318.2000;0.6357;-5.5897;
1318.5000;0.6300;-5.6027;
1318.8000;0.6325;-5.5923;
1319.1000;0.6284;-5.6130;
1319.4000;0.6357;-5.6053;
1319.7000;0.6325;-5.6027;
1320.0000;0.6292;-5.6078;
1320.3000;0.6309;-5.6027;
1320.6000;0.6325;-5.6053;
1320.9000;0.6325;-5.6027;
1321.2000;0.6309;-5.6104;
1321.5000;0.6309;-5.6078;
1321.8000;0.6292;-5.6078;
1322.1000;0.6292;-5.6027;
1322.4000;0.6284;-5.5975;
1322.7000;0.6284;-5.5975;
1323.0000;0.6268;-5.5975;
1323.3000;0.6317;-5.5742;
1323.6000;0.6292;-5.5742;
1323.9000;0.6276;-5.5742;
1324.2000;0.6276;-5.5664;
1324.5000;0.6300;-5.5664;
1324.8000;0.6292;-5.5612;
1325.1000;0.6276;-5.5742;
1325.4000;0.6309;-5.5768;
1325.7000;0.6309;-5.5845;
1326.0000;0.6300;-5.5871;
1326.3000;0.6284;-5.5923;
1326.6000;0.6292;-5.5871;
1326.9000;0.6317;-5.5845;
1327.2000;0.6317;-5.5871;
1327.5000;0.6292;-5.5871;
1327.8000;0.6268;-5.5923;
1328.1000;0.6317;-5.5819;
1328.4000;0.6300;-5.5871;
1328.7000;0.6317;-5.5794;
1329.0000;0.6325;-5.5768;
1329.3000;0.6300;-5.5871;
1329.6000;0.6300;-5.5897;
1329.9000;0.6309;-5.5923;
1330.2000;0.6292;-5.5871;
1330.5000;0.6284;-5.5949;
1330.8000;0.6300;-5.5845;
1331.1000;0.6284;-5.5871;
1331.4000;0.6309;-5.5716;
1331.7000;0.6276;-5.5794;
1332.0000;0.6300;-5.5768;
1332.3000;0.6317;-5.5794;
1332.6000;0.6284;-5.5871;
1332.9000;0.6260;-5.5975;
1333.2000;0.6243;-5.6104;
1333.5000;0.6292;-5.6027;
1333.8000;0.6276;-5.6027;
1334.1000;0.6284;-5.6078;
1334.4000;0.6243;-5.6078;
1334.7000;0.6292;-5.5975;
1335.0000;0.6325;-5.5949;
1335.3000;0.6300;-5.6027;
1335.6000;0.6276;-5.6053;
1335.9000;0.6276;-5.6001;
1336.2000;0.6292;-5.6001;
1336.5000;0.6300;-5.5975;
1336.8000;0.6268;-5.5975;
1337.1000;0.6309;-5.6001;
1337.4000;0.6300;-5.5975;
1337.7000;0.6292;-5.6027;
1338.0000;0.6284;-5.6053;
1338.3000;0.6292;-5.5975;
1338.6000;0.6292;-5.5975;
1338.9000;0.6284;-5.6001;
1339.2000;0.6300;-5.5923;
1339.5000;0.6284;-5.5949;
1339.8000;0.6292;-5.5975;
1340.1000;0.6317;-5.6001;
1340.4000;0.6284;-5.6104;
1340.7000;0.6309;-5.6001;
1341.0000;0.6309;-5.5923;
1341.3000;0.6309;-5.6001;
1341.6000;0.6317;-5.6053;
1341.9000;0.6300;-5.6053;
1342.2000;0.6284;-5.6001;
1342.5000;0.6292;-5.6001;
1342.8000;0.6227;-5.6156;
1343.1000;0.6300;-5.5975;
1343.4000;0.6284;-5.6053;
1343.7000;0.6292;-5.6078;
1344.0000;0.6309;-5.6027;
1344.3000;0.6292;-5.5949;
1344.6000;0.6300;-5.6104;
1344.9000;0.6284;-5.6208;
1345.2000;0.6317;-5.6156;
1345.5000;0.6292;-5.6130;
1345.8000;0.6284;-5.6053;
1346.1000;0.6292;-5.5923;
1346.4000;0.6276;-5.5871;
1346.7000;0.6284;-5.5897;
1347.0000;0.6276;-5.6053;
1347.3000;0.6268;-5.6104;
1347.6000;0.6284;-5.6130;
1347.9000;0.6292;-5.6156;
1348.2000;0.6292;-5.6130;
1348.5000;0.6276;-5.6130;
1348.8000;0.6309;-5.6001;
1349.1000;0.6276;-5.6027;
1349.4000;0.6276;-5.5975;
1349.7000;0.6276;-5.5949;
1350.0000;0.6300;-5.5949;
1350.3000;0.6300;-5.5923;
1350.6000;0.6300;-5.5845;
1350.9000;0.6309;-5.5794;
1351.2000;0.6325;-5.5716;
1351.5000;0.6292;-5.5742;
1351.8000;0.6284;-5.5768;
1352.1000;0.6317;-5.5742;
1352.4000;0.6309;-5.5742;
1352.7000;0.6317;-5.5768;
1353.0000;0.6292;-5.5819;
1353.3000;0.6292;-5.5871;
1353.6000;0.6292;-5.5923;
1353.9000;0.6292;-5.6053;
1354.2000;0.6325;-5.5949;
1354.5000;0.6268;-5.6053;
1354.8000;0.6284;-5.5923;
1355.1000;0.6292;-5.5871;
1355.4000;0.6333;-5.5794;
1355.7000;0.6292;-5.5845;
1356.0000;0.6276;-5.5845;
1356.3000;0.6284;-5.5794;
1356.6000;0.6276;-5.5716;
1356.9000;0.6284;-5.5794;
1357.2000;0.6276;-5.5897;
1357.5000;0.6276;-5.5923;
1357.8000;0.6325;-5.5897;
1358.1000;0.6317;-5.5923;
1358.4000;0.6284;-5.6078;
1358.7000;0.6260;-5.6078;
1359.0000;0.6284;-5.5975;
1359.3000;0.6284;-5.5949;
1359.6000;0.6284;-5.5897;
1359.9000;0.6276;-5.5871;
1360.2000;0.6292;-5.5845;
1360.5000;0.6300;-5.5923;
1360.8000;0.6309;-5.5975;
1361.1000;0.6309;-5.6027;
1361.4000;0.6292;-5.6130;
1361.7000;0.6292;-5.6053;
1362.0000;0.6268;-5.6027;
1362.3000;0.6317;-5.6130;
1362.6000;0.6284;-5.6312;
1362.9000;0.6309;-5.6312;
1363.2000;0.6309;-5.6260;
1363.5000;0.6300;-5.6234;
1363.8000;0.6252;-5.6312;
1364.1000;0.6300;-5.6156;
1364.4000;0.6309;-5.6130;
1364.7000;0.6292;-5.6130;
1365.0000;0.6292;-5.6156;
1365.3000;0.6284;-5.6182;
1365.6000;0.6284;-5.6130;
1365.9000;0.6357;-5.5949;
1366.2000;0.6276;-5.6104;
1366.5000;0.6292;-5.6027;
1366.8000;0.6227;-5.6208;
1367.1000;0.6268;-5.6001;
1367.4000;0.6284;-5.5819;
1367.7000;0.6276;-5.5794;
1368.0000;0.6284;-5.5845;
1368.3000;0.6292;-5.5897;
1368.6000;0.6276;-5.5923;
1368.9000;0.6284;-5.5845;
1369.2000;0.6284;-5.5871;
1369.5000;0.6276;-5.5897;
1369.8000;0.6284;-5.5871;
1370.1000;0.6292;-5.5871;
1370.4000;0.6284;-5.5923;
1370.7000;0.6292;-5.5975;
1371.0000;0.6276;-5.6053;
1371.3000;0.6276;-5.5897;
1371.6000;0.6268;-5.5871;
1371.9000;0.6317;-5.5845;
1372.2000;0.6292;-5.5871;
1372.5000;0.6268;-5.5923;
1372.8000;0.6268;-5.6001;
1373.1000;0.6325;-5.6001;
1373.4000;0.6284;-5.6156;
1373.7000;0.6284;-5.6208;
1374.0000;0.6325;-5.6104;
1374.3000;0.6292;-5.6208;
1374.6000;0.6300;-5.6260;
1374.9000;0.6276;-5.6208;
1375.2000;0.6276;-5.6234;
1375.5000;0.6276;-5.6130;
1375.8000;0.6309;-5.6027;
1376.1000;0.6284;-5.6078;
1376.4000;0.6292;-5.5975;
1376.7000;0.6300;-5.5923;
1377.0000;0.6300;-5.5897;
1377.3000;0.6300;-5.5975;
1377.6000;0.6284;-5.6001;
1377.9000;0.6309;-5.6027;
1378.2000;0.6284;-5.6130;
1378.5000;0.6284;-5.6053;
1378.8000;0.6284;-5.6053;
1379.1000;0.6268;-5.6104;
1379.4000;0.6284;-5.6078;
1379.7000;0.6284;-5.6027;
1380.0000;0.6284;-5.6027;
1380.3000;0.6235;-5.6156;
1380.6000;0.6309;-5.5975;
1380.9000;0.6276;-5.6001;
1381.2000;0.6252;-5.6027;
1381.5000;0.6284;-5.6027;
1381.8000;0.6292;-5.6027;
1382.1000;0.6268;-5.5975;
1382.4000;0.6284;-5.5897;
1382.7000;0.6268;-5.5871;
1383.0000;0.6260;-5.6001;
1383.3000;0.6325;-5.5794;
1383.6000;0.6341;-5.5794;
1383.9000;0.6268;-5.5975;
1384.2000;0.6276;-5.6001;
1384.5000;0.6300;-5.5949;
1384.8000;0.6276;-5.5949;
1385.1000;0.6276;-5.5949;
1385.4000;0.6276;-5.5949;
1385.7000;0.6284;-5.5897;
1386.0000;0.6317;-5.5871;
1386.3000;0.6300;-5.5897;
1386.6000;0.6292;-5.5923;
1386.9000;0.6292;-5.5871;
1387.2000;0.6300;-5.5871;
1387.5000;0.6284;-5.5923;
1387.8000;0.6309;-5.5897;
1388.1000;0.6276;-5.5975;
1388.4000;0.6235;-5.6156;
1388.7000;0.6284;-5.6078;
1389.0000;0.6276;-5.6130;
1389.3000;0.6268;-5.6130;
1389.6000;0.6292;-5.5975;
1389.9000;0.6309;-5.5923;
1390.2000;0.6300;-5.5923;
1390.5000;0.6276;-5.6001;
1390.8000;0.6292;-5.5949;
1391.1000;0.6317;-5.5897;
1391.4000;0.6300;-5.5923;
1391.7000;0.6284;-5.5923;
1392.0000;0.6292;-5.5923;
1392.3000;0.6276;-5.5897;
1392.6000;0.6292;-5.5871;
1392.9000;0.6284;-5.5897;
1393.2000;0.6284;-5.5897;
1393.5000;0.6268;-5.5845;
1393.8000;0.6325;-5.5768;
1394.1000;0.6284;-5.5897;
1394.4000;0.6284;-5.5923;
1394.7000;0.6300;-5.5871;
1395.0000;0.6317;-5.5923;
1395.3000;0.6284;-5.6053;
1395.6000;0.6276;-5.6078;
1395.9000;0.6284;-5.6104;
1396.2000;0.6300;-5.5975;
1396.5000;0.6243;-5.6078;
1396.8000;0.6292;-5.6001;
1397.1000;0.6284;-5.5923;
1397.4000;0.6300;-5.5923;
1397.7000;0.6292;-5.5897;
1398.0000;0.6300;-5.5845;
1398.3000;0.6235;-5.6027;
1398.6000;0.6309;-5.6001;
1398.9000;0.6300;-5.5949;
1399.2000;0.6292;-5.5949;
1399.5000;0.6292;-5.5949;
1399.8000;0.6284;-5.5949;
