time/ms;Fluo/V;P700 deltaI/I x10³;
-199.8000;0.8637;-5.5224;
-199.5000;0.8637;-5.5250;
-199.2000;0.8628;-5.5198;
-198.9000;0.8620;-5.5275;
-198.6000;0.8612;-5.5275;
-198.3000;0.8628;-5.5172;
-198.0000;0.8620;-5.5146;
-197.7000;0.8620;-5.5172;
-197.4000;0.8620;-5.5172;
-197.1000;0.8637;-5.5120;
-196.8000;0.8628;-5.5172;
-196.5000;0.8612;-5.5120;
-196.2000;0.8588;-5.5146;
-195.9000;0.8620;-5.5068;
-195.6000;0.8588;-5.5146;
-195.3000;0.8612;-5.5172;
-195.0000;0.8637;-5.5042;
-194.7000;0.8628;-5.5042;
-194.4000;0.8604;-5.5094;
-194.1000;0.8596;-5.5094;
-193.8000;0.8620;-5.5042;
-193.5000;0.8604;-5.5068;
-193.2000;0.8612;-5.5042;
-192.9000;0.8612;-5.4965;
-192.6000;0.8612;-5.4913;
-192.3000;0.8637;-5.4861;
-192.0000;0.8620;-5.4913;
-191.7000;0.8637;-5.5016;
-191.4000;0.8612;-5.5146;
-191.1000;0.8620;-5.5094;
-190.8000;0.8620;-5.5146;
-190.5000;0.8612;-5.5120;
-190.2000;0.8612;-5.5172;
-189.9000;0.8580;-5.5275;
-189.6000;0.8620;-5.5198;
-189.3000;0.8596;-5.5224;
-189.0000;0.8612;-5.5301;
-188.7000;0.8612;-5.5301;
-188.4000;0.8620;-5.5327;
-188.1000;0.8620;-5.5275;
-187.8000;0.8620;-5.5301;
-187.5000;0.8620;-5.5250;
-187.2000;0.8620;-5.5198;
-186.9000;0.8628;-5.5120;
-186.6000;0.8620;-5.5172;
-186.3000;0.8620;-5.5172;
-186.0000;0.8628;-5.5146;
-185.7000;0.8620;-5.5120;
-185.4000;0.8555;-5.5275;
-185.1000;0.8612;-5.5172;
-184.8000;0.8596;-5.5224;
-184.5000;0.8612;-5.5172;
-184.2000;0.8596;-5.5250;
-183.9000;0.8612;-5.5146;
-183.6000;0.8620;-5.5172;
-183.3000;0.8620;-5.5224;
-183.0000;0.8612;-5.5301;
-182.7000;0.8620;-5.5224;
-182.4000;0.8620;-5.5327;
-182.1000;0.8612;-5.5327;
-181.8000;0.8628;-5.5275;
-181.5000;0.8612;-5.5301;
-181.2000;0.8612;-5.5353;
-180.9000;0.8628;-5.5301;
-180.6000;0.8628;-5.5275;
-180.3000;0.8563;-5.5379;
-180.0000;0.8612;-5.5250;
-179.7000;0.8645;-5.5094;
-179.4000;0.8620;-5.5172;
-179.1000;0.8596;-5.5146;
-178.8000;0.8596;-5.5146;
-178.5000;0.8612;-5.5094;
-178.2000;0.8612;-5.5042;
-177.9000;0.8612;-5.5042;
-177.6000;0.8612;-5.5094;
-177.3000;0.8612;-5.4965;
-177.0000;0.8620;-5.4913;
-176.7000;0.8612;-5.4887;
-176.4000;0.8620;-5.4913;
-176.1000;0.8596;-5.4939;
-175.8000;0.8620;-5.4835;
-175.5000;0.8612;-5.4913;
-175.2000;0.8604;-5.4939;
-174.9000;0.8612;-5.4939;
-174.6000;0.8612;-5.4991;
-174.3000;0.8620;-5.4939;
-174.0000;0.8596;-5.5042;
-173.7000;0.8612;-5.5094;
-173.4000;0.8628;-5.5016;
-173.1000;0.8628;-5.5016;
-172.8000;0.8620;-5.5068;
-172.5000;0.8620;-5.5068;
-172.2000;0.8612;-5.5120;
-171.9000;0.8620;-5.5172;
-171.6000;0.8588;-5.5198;
-171.3000;0.8571;-5.5198;
-171.0000;0.8612;-5.4965;
-170.7000;0.8645;-5.4913;
-170.4000;0.8628;-5.4991;
-170.1000;0.8612;-5.4991;
-169.8000;0.8612;-5.4991;
-169.5000;0.8612;-5.4991;
-169.2000;0.8620;-5.4861;
-168.9000;0.8645;-5.4861;
-168.6000;0.8612;-5.4887;
-168.3000;0.8612;-5.5016;
-168.0000;0.8612;-5.4991;
-167.7000;0.8620;-5.5068;
-167.4000;0.8620;-5.5016;
-167.1000;0.8604;-5.5120;
-166.8000;0.8612;-5.5094;
-166.5000;0.8612;-5.5016;
-166.2000;0.8612;-5.5094;
-165.9000;0.8539;-5.5224;
-165.6000;0.8612;-5.4991;
-165.3000;0.8637;-5.5016;
-165.0000;0.8620;-5.5120;
-164.7000;0.8628;-5.5068;
-164.4000;0.8596;-5.5120;
-164.1000;0.8612;-5.5068;
-163.8000;0.8612;-5.5016;
-163.5000;0.8620;-5.4913;
-163.2000;0.8645;-5.4913;
-162.9000;0.8620;-5.4991;
-162.6000;0.8620;-5.4965;
-162.3000;0.8645;-5.4939;
-162.0000;0.8612;-5.4991;
-161.7000;0.8628;-5.5042;
-161.4000;0.8620;-5.5120;
-161.1000;0.8612;-5.5068;
-160.8000;0.8612;-5.5068;
-160.5000;0.8612;-5.5042;
-160.2000;0.8620;-5.5016;
-159.9000;0.8620;-5.4965;
-159.6000;0.8612;-5.4991;
-159.3000;0.8637;-5.4965;
-159.0000;0.8620;-5.5016;
-158.7000;0.8620;-5.4991;
-158.4000;0.8604;-5.5068;
-158.1000;0.8620;-5.4991;
-157.8000;0.8596;-5.5068;
-157.5000;0.8628;-5.5016;
-157.2000;0.8612;-5.5094;
-156.9000;0.8604;-5.5068;
-156.6000;0.8628;-5.4991;
-156.3000;0.8588;-5.5146;
-156.0000;0.8604;-5.5146;
-155.7000;0.8620;-5.5094;
-155.4000;0.8628;-5.5016;
-155.1000;0.8612;-5.5016;
-154.8000;0.8628;-5.5016;
-154.5000;0.8604;-5.5068;
-154.2000;0.8620;-5.4991;
-153.9000;0.8620;-5.4939;
-153.6000;0.8588;-5.4965;
-153.3000;0.8604;-5.4887;
-153.0000;0.8620;-5.4835;
-152.7000;0.8612;-5.4913;
-152.4000;0.8612;-5.5042;
-152.1000;0.8628;-5.5068;
-151.8000;0.8620;-5.5068;
-151.5000;0.8628;-5.4991;
-151.2000;0.8620;-5.4991;
-150.9000;0.8620;-5.4965;
-150.6000;0.8604;-5.4939;
-150.3000;0.8620;-5.4835;
-150.0000;0.8637;-5.4783;
-149.7000;0.8620;-5.4835;
-149.4000;0.8628;-5.4835;
-149.1000;0.8612;-5.4887;
-148.8000;0.8637;-5.4835;
-148.5000;0.8685;-5.4628;
-148.2000;0.8612;-5.4783;
-147.9000;0.8620;-5.4783;
-147.6000;0.8628;-5.4861;
-147.3000;0.8612;-5.4991;
-147.0000;0.8637;-5.4861;
-146.7000;0.8620;-5.4913;
-146.4000;0.8653;-5.4835;
-146.1000;0.8645;-5.4887;
-145.8000;0.8637;-5.4965;
-145.5000;0.8628;-5.4939;
-145.2000;0.8620;-5.4991;
-144.9000;0.8580;-5.5016;
-144.6000;0.8628;-5.4991;
-144.3000;0.8637;-5.5068;
-144.0000;0.8620;-5.5120;
-143.7000;0.8620;-5.5094;
-143.4000;0.8620;-5.5042;
-143.1000;0.8637;-5.4991;
-142.8000;0.8702;-5.4809;
-142.5000;0.8612;-5.4965;
-142.2000;0.8620;-5.4913;
-141.9000;0.8612;-5.4939;
-141.6000;0.8612;-5.4939;
-141.3000;0.8563;-5.5016;
-141.0000;0.8612;-5.4913;
-140.7000;0.8620;-5.4835;
-140.4000;0.8637;-5.4732;
-140.1000;0.8628;-5.4706;
-139.8000;0.8637;-5.4706;
-139.5000;0.8620;-5.4809;
-139.2000;0.8620;-5.4706;
-138.9000;0.8612;-5.4654;
-138.6000;0.8620;-5.4654;
-138.3000;0.8620;-5.4628;
-138.0000;0.8620;-5.4680;
-137.7000;0.8620;-5.4706;
-137.4000;0.8612;-5.4706;
-137.1000;0.8604;-5.4809;
-136.8000;0.8628;-5.4861;
-136.5000;0.8620;-5.4835;
-136.2000;0.8620;-5.4809;
-135.9000;0.8628;-5.4835;
-135.6000;0.8612;-5.4913;
-135.3000;0.8620;-5.4835;
-135.0000;0.8620;-5.4861;
-134.7000;0.8620;-5.4913;
-134.4000;0.8620;-5.4939;
-134.1000;0.8612;-5.4965;
-133.8000;0.8620;-5.4887;
-133.5000;0.8612;-5.4835;
-133.2000;0.8612;-5.4861;
-132.9000;0.8612;-5.4861;
-132.6000;0.8612;-5.4861;
-132.3000;0.8539;-5.5016;
-132.0000;0.8620;-5.4887;
-131.7000;0.8620;-5.4809;
-131.4000;0.8612;-5.4783;
-131.1000;0.8612;-5.4809;
-130.8000;0.8612;-5.4861;
-130.5000;0.8612;-5.4861;
-130.2000;0.8612;-5.4887;
-129.9000;0.8612;-5.4861;
-129.6000;0.8620;-5.4913;
-129.3000;0.8612;-5.4965;
-129.0000;0.8588;-5.5094;
-128.7000;0.8604;-5.5042;
-128.4000;0.8604;-5.4991;
-128.1000;0.8571;-5.5068;
-127.8000;0.8612;-5.4965;
-127.5000;0.8612;-5.4965;
-127.2000;0.8620;-5.4965;
-126.9000;0.8620;-5.4939;
-126.6000;0.8612;-5.4887;
-126.3000;0.8612;-5.4861;
-126.0000;0.8637;-5.4861;
-125.7000;0.8628;-5.4861;
-125.4000;0.8620;-5.4783;
-125.1000;0.8620;-5.4783;
-124.8000;0.8628;-5.4783;
-124.5000;0.8620;-5.4783;
-124.2000;0.8620;-5.4783;
-123.9000;0.8620;-5.4835;
-123.6000;0.8612;-5.4887;
-123.3000;0.8620;-5.4809;
-123.0000;0.8596;-5.4887;
-122.7000;0.8612;-5.4757;
-122.4000;0.8612;-5.4757;
-122.1000;0.8628;-5.4757;
-121.8000;0.8637;-5.4861;
-121.5000;0.8620;-5.4887;
-121.2000;0.8628;-5.4861;
-120.9000;0.8637;-5.4809;
-120.6000;0.8637;-5.4809;
-120.3000;0.8628;-5.4757;
-120.0000;0.8580;-5.4913;
-119.7000;0.8620;-5.4835;
-119.4000;0.8604;-5.4861;
-119.1000;0.8596;-5.4913;
-118.8000;0.8628;-5.4861;
-118.5000;0.8620;-5.4861;
-118.2000;0.8612;-5.4939;
-117.9000;0.8596;-5.5016;
-117.6000;0.8604;-5.5042;
-117.3000;0.8637;-5.4939;
-117.0000;0.8604;-5.4939;
-116.7000;0.8604;-5.4861;
-116.4000;0.8612;-5.4835;
-116.1000;0.8555;-5.4861;
-115.8000;0.8596;-5.4757;
-115.5000;0.8620;-5.4809;
-115.2000;0.8637;-5.4809;
-114.9000;0.8604;-5.4913;
-114.6000;0.8620;-5.4809;
-114.3000;0.8677;-5.4654;
-114.0000;0.8620;-5.4887;
-113.7000;0.8628;-5.4939;
-113.4000;0.8620;-5.5042;
-113.1000;0.8580;-5.5042;
-112.8000;0.8620;-5.5016;
-112.5000;0.8604;-5.5094;
-112.2000;0.8637;-5.5042;
-111.9000;0.8588;-5.5172;
-111.6000;0.8612;-5.5146;
-111.3000;0.8612;-5.5146;
-111.0000;0.8677;-5.4965;
-110.7000;0.8620;-5.5198;
-110.4000;0.8637;-5.5042;
-110.1000;0.8628;-5.5016;
-109.8000;0.8661;-5.4939;
-109.5000;0.8620;-5.5042;
-109.2000;0.8628;-5.5068;
-108.9000;0.8612;-5.5120;
-108.6000;0.8612;-5.5042;
-108.3000;0.8653;-5.4965;
-108.0000;0.8604;-5.5068;
-107.7000;0.8612;-5.4965;
-107.4000;0.8612;-5.4913;
-107.1000;0.8685;-5.4809;
-106.8000;0.8620;-5.4913;
-106.5000;0.8604;-5.4965;
-106.2000;0.8604;-5.4939;
-105.9000;0.8612;-5.4887;
-105.6000;0.8612;-5.4887;
-105.3000;0.8612;-5.4861;
-105.0000;0.8620;-5.4861;
-104.7000;0.8612;-5.4835;
-104.4000;0.8612;-5.4783;
-104.1000;0.8612;-5.4809;
-103.8000;0.8645;-5.4783;
-103.5000;0.8604;-5.5016;
-103.2000;0.8596;-5.5016;
-102.9000;0.8612;-5.5068;
-102.6000;0.8620;-5.5042;
-102.3000;0.8628;-5.5016;
-102.0000;0.8620;-5.5094;
-101.7000;0.8620;-5.5094;
-101.4000;0.8620;-5.5094;
-101.1000;0.8612;-5.5042;
-100.8000;0.8637;-5.5016;
-100.5000;0.8628;-5.4991;
-100.2000;0.8628;-5.5042;
-99.9000;0.8571;-5.5250;
-99.6000;0.8620;-5.5224;
-99.3000;0.8628;-5.5224;
-99.0000;0.8628;-5.5224;
-98.7000;0.8620;-5.5224;
-98.4000;0.8604;-5.5275;
-98.1000;0.8637;-5.5224;
-97.8000;0.8628;-5.5172;
-97.5000;0.8620;-5.5146;
-97.2000;0.8620;-5.5094;
-96.9000;0.8620;-5.5042;
-96.6000;0.8628;-5.4991;
-96.3000;0.8612;-5.4965;
-96.0000;0.8612;-5.5068;
-95.7000;0.8620;-5.5016;
-95.4000;0.8620;-5.4939;
-95.1000;0.8588;-5.4965;
-94.8000;0.8628;-5.4861;
-94.5000;0.8571;-5.5016;
-94.2000;0.8628;-5.4757;
-93.9000;0.8628;-5.4861;
-93.6000;0.8628;-5.4991;
-93.3000;0.8620;-5.4965;
-93.0000;0.8628;-5.4861;
-92.7000;0.8612;-5.4887;
-92.4000;0.8620;-5.4887;
-92.1000;0.8612;-5.4913;
-91.8000;0.8612;-5.4939;
-91.5000;0.8685;-5.4783;
-91.2000;0.8620;-5.4939;
-90.9000;0.8612;-5.4861;
-90.6000;0.8604;-5.4835;
-90.3000;0.8637;-5.4835;
-90.0000;0.8596;-5.5042;
-89.7000;0.8612;-5.4991;
-89.4000;0.8547;-5.5198;
-89.1000;0.8620;-5.5094;
-88.8000;0.8620;-5.5094;
-88.5000;0.8620;-5.5042;
-88.2000;0.8628;-5.5068;
-87.9000;0.8612;-5.5068;
-87.6000;0.8661;-5.4939;
-87.3000;0.8620;-5.5042;
-87.0000;0.8612;-5.5042;
-86.7000;0.8612;-5.4991;
-86.4000;0.8628;-5.4887;
-86.1000;0.8637;-5.4783;
-85.8000;0.8604;-5.4965;
-85.5000;0.8620;-5.4887;
-85.2000;0.8604;-5.5042;
-84.9000;0.8620;-5.5016;
-84.6000;0.8645;-5.4887;
-84.3000;0.8645;-5.4861;
-84.0000;0.8628;-5.4965;
-83.7000;0.8628;-5.4965;
-83.4000;0.8645;-5.4913;
-83.1000;0.8628;-5.4861;
-82.8000;0.8628;-5.4835;
-82.5000;0.8637;-5.4861;
-82.2000;0.8628;-5.4861;
-81.9000;0.8604;-5.4887;
-81.6000;0.8620;-5.4861;
-81.3000;0.8620;-5.4861;
-81.0000;0.8596;-5.4913;
-80.7000;0.8612;-5.4809;
-80.4000;0.8604;-5.4913;
-80.1000;0.8653;-5.4861;
-79.8000;0.8612;-5.4939;
-79.5000;0.8628;-5.4991;
-79.2000;0.8620;-5.5042;
-78.9000;0.8596;-5.5120;
-78.6000;0.8612;-5.5016;
-78.3000;0.8628;-5.5042;
-78.0000;0.8628;-5.5016;
-77.7000;0.8612;-5.5016;
-77.4000;0.8620;-5.4965;
-77.1000;0.8612;-5.4887;
-76.8000;0.8620;-5.4887;
-76.5000;0.8637;-5.4913;
-76.2000;0.8620;-5.5042;
-75.9000;0.8637;-5.4991;
-75.6000;0.8620;-5.4939;
-75.3000;0.8620;-5.4913;
-75.0000;0.8661;-5.4835;
-74.7000;0.8620;-5.4965;
-74.4000;0.8620;-5.5016;
-74.1000;0.8604;-5.4913;
-73.8000;0.8620;-5.4887;
-73.5000;0.8612;-5.4861;
-73.2000;0.8531;-5.5094;
-72.9000;0.8612;-5.4939;
-72.6000;0.8604;-5.4991;
-72.3000;0.8563;-5.5068;
-72.0000;0.8612;-5.4861;
-71.7000;0.8580;-5.4887;
-71.4000;0.8637;-5.4783;
-71.1000;0.8596;-5.4809;
-70.8000;0.8604;-5.4706;
-70.5000;0.8596;-5.4757;
-70.2000;0.8596;-5.4835;
-69.9000;0.8612;-5.4835;
-69.6000;0.8637;-5.4939;
-69.3000;0.8612;-5.5094;
-69.0000;0.8612;-5.5042;
-68.7000;0.8628;-5.5068;
-68.4000;0.8612;-5.5068;
-68.1000;0.8620;-5.5042;
-67.8000;0.8604;-5.5042;
-67.5000;0.8612;-5.4991;
-67.2000;0.8628;-5.5016;
-66.9000;0.8620;-5.4991;
-66.6000;0.8604;-5.5068;
-66.3000;0.8620;-5.5094;
-66.0000;0.8596;-5.5120;
-65.7000;0.8604;-5.4965;
-65.4000;0.8571;-5.5068;
-65.1000;0.8661;-5.4887;
-64.8000;0.8604;-5.5146;
-64.5000;0.8620;-5.5120;
-64.2000;0.8661;-5.4965;
-63.9000;0.8628;-5.5016;
-63.6000;0.8620;-5.5094;
-63.3000;0.8620;-5.5146;
-63.0000;0.8620;-5.5094;
-62.7000;0.8628;-5.5016;
-62.4000;0.8612;-5.4991;
-62.1000;0.8612;-5.5016;
-61.8000;0.8612;-5.5016;
-61.5000;0.8628;-5.4991;
-61.2000;0.8628;-5.4965;
-60.9000;0.8612;-5.4939;
-60.6000;0.8604;-5.4913;
-60.3000;0.8604;-5.4913;
-60.0000;0.8604;-5.4939;
-59.7000;0.8612;-5.4965;
-59.4000;0.8637;-5.4861;
-59.1000;0.8571;-5.4965;
-58.8000;0.8604;-5.4913;
-58.5000;0.8596;-5.5042;
-58.2000;0.8620;-5.5068;
-57.9000;0.8628;-5.5068;
-57.6000;0.8645;-5.5068;
-57.3000;0.8620;-5.4939;
-57.0000;0.8637;-5.4965;
-56.7000;0.8628;-5.4939;
-56.4000;0.8604;-5.5016;
-56.1000;0.8620;-5.5016;
-55.8000;0.8612;-5.5042;
-55.5000;0.8547;-5.5120;
-55.2000;0.8596;-5.5068;
-54.9000;0.8604;-5.5068;
-54.6000;0.8694;-5.4861;
-54.3000;0.8612;-5.4965;
-54.0000;0.8628;-5.4965;
-53.7000;0.8628;-5.4861;
-53.4000;0.8612;-5.4861;
-53.1000;0.8620;-5.4835;
-52.8000;0.8637;-5.4835;
-52.5000;0.8612;-5.4913;
-52.2000;0.8620;-5.4991;
-51.9000;0.8637;-5.4939;
-51.6000;0.8604;-5.4965;
-51.3000;0.8604;-5.5016;
-51.0000;0.8580;-5.4965;
-50.7000;0.8677;-5.4732;
-50.4000;0.8620;-5.4887;
-50.1000;0.8596;-5.4991;
-49.8000;0.8563;-5.5120;
-49.5000;0.8604;-5.4965;
-49.2000;0.8604;-5.4939;
-48.9000;0.8628;-5.4757;
-48.6000;0.8604;-5.4783;
-48.3000;0.8612;-5.4757;
-48.0000;0.8612;-5.4732;
-47.7000;0.8628;-5.4835;
-47.4000;0.8628;-5.4939;
-47.1000;0.8620;-5.4965;
-46.8000;0.8604;-5.5016;
-46.5000;0.8620;-5.5042;
-46.2000;0.8628;-5.5016;
-45.9000;0.8596;-5.5016;
-45.6000;0.8620;-5.5016;
-45.3000;0.8637;-5.4939;
-45.0000;0.8620;-5.5016;
-44.7000;0.8596;-5.5042;
-44.4000;0.8588;-5.5042;
-44.1000;0.8596;-5.5120;
-43.8000;0.8637;-5.5042;
-43.5000;0.8604;-5.5016;
-43.2000;0.8620;-5.4887;
-42.9000;0.8612;-5.4861;
-42.6000;0.8620;-5.4861;
-42.3000;0.8612;-5.4835;
-42.0000;0.8628;-5.4835;
-41.7000;0.8612;-5.4913;
-41.4000;0.8628;-5.4861;
-41.1000;0.8604;-5.4965;
-40.8000;0.8604;-5.4939;
-40.5000;0.8620;-5.4913;
-40.2000;0.8620;-5.4887;
-39.9000;0.8637;-5.4913;
-39.6000;0.8620;-5.4887;
-39.3000;0.8620;-5.4861;
-39.0000;0.8628;-5.4809;
-38.7000;0.8645;-5.4861;
-38.4000;0.8612;-5.4887;
-38.1000;0.8612;-5.4861;
-37.8000;0.8620;-5.4939;
-37.5000;0.8628;-5.4965;
-37.2000;0.8612;-5.5042;
-36.9000;0.8596;-5.5068;
-36.6000;0.8612;-5.5042;
-36.3000;0.8620;-5.4965;
-36.0000;0.8604;-5.4991;
-35.7000;0.8612;-5.4965;
-35.4000;0.8620;-5.4913;
-35.1000;0.8612;-5.4939;
-34.8000;0.8612;-5.5016;
-34.5000;0.8612;-5.4991;
-34.2000;0.8612;-5.4991;
-33.9000;0.8620;-5.4939;
-33.6000;0.8645;-5.4861;
-33.3000;0.8628;-5.4965;
-33.0000;0.8620;-5.5016;
-32.7000;0.8628;-5.5068;
-32.4000;0.8628;-5.5016;
-32.1000;0.8612;-5.5146;
-31.8000;0.8620;-5.5094;
-31.5000;0.8604;-5.4991;
-31.2000;0.8604;-5.4991;
-30.9000;0.8571;-5.5094;
-30.6000;0.8604;-5.5042;
-30.3000;0.8612;-5.5016;
-30.0000;0.8612;-5.4965;
-29.7000;0.8612;-5.5016;
-29.4000;0.8604;-5.5068;
-29.1000;0.8596;-5.5042;
-28.8000;0.8628;-5.5068;
-28.5000;0.8620;-5.5094;
-28.2000;0.8645;-5.5120;
-27.9000;0.8718;-5.4965;
-27.6000;0.8628;-5.5146;
-27.3000;0.8563;-5.5275;
-27.0000;0.8628;-5.5120;
-26.7000;0.8620;-5.5172;
-26.4000;0.8620;-5.5198;
-26.1000;0.8612;-5.5172;
-25.8000;0.8620;-5.5172;
-25.5000;0.8588;-5.5224;
-25.2000;0.8620;-5.5120;
-24.9000;0.8596;-5.5016;
-24.6000;0.8612;-5.4991;
-24.3000;0.8612;-5.5042;
-24.0000;0.8604;-5.5120;
-23.7000;0.8612;-5.5094;
-23.4000;0.8653;-5.4991;
-23.1000;0.8620;-5.5016;
-22.8000;0.8588;-5.4965;
-22.5000;0.8612;-5.5016;
-22.2000;0.8604;-5.5016;
-21.9000;0.8596;-5.5042;
-21.6000;0.8628;-5.5042;
-21.3000;0.8604;-5.5120;
-21.0000;0.8645;-5.5042;
-20.7000;0.8637;-5.5068;
-20.4000;0.8612;-5.5094;
-20.1000;0.8637;-5.5042;
-19.8000;0.8620;-5.5016;
-19.5000;0.8628;-5.5042;
-19.2000;0.8596;-5.5120;
-18.9000;0.8628;-5.5042;
-18.6000;0.8612;-5.5146;
-18.3000;0.8645;-5.5094;
-18.0000;0.8604;-5.5172;
-17.7000;0.8612;-5.5094;
-17.4000;0.8628;-5.5042;
-17.1000;0.8637;-5.5042;
-16.8000;0.8620;-5.5068;
-16.5000;0.8620;-5.5146;
-16.2000;0.8604;-5.5172;
-15.9000;0.8628;-5.5068;
-15.6000;0.8620;-5.4991;
-15.3000;0.8604;-5.4965;
-15.0000;0.8620;-5.4939;
-14.7000;0.8612;-5.4991;
-14.4000;0.8620;-5.4913;
-14.1000;0.8628;-5.4861;
-13.8000;0.8580;-5.5016;
-13.5000;0.8580;-5.5094;
-13.2000;0.8628;-5.4887;
-12.9000;0.8612;-5.5016;
-12.6000;0.8604;-5.5016;
-12.3000;0.8612;-5.5042;
-12.0000;0.8612;-5.4991;
-11.7000;0.8628;-5.5042;
-11.4000;0.8620;-5.5094;
-11.1000;0.8628;-5.5042;
-10.8000;0.8620;-5.4939;
-10.5000;0.8612;-5.5016;
-10.2000;0.8620;-5.5016;
-9.9000;0.8604;-5.5016;
-9.6000;0.8645;-5.4939;
-9.3000;0.8628;-5.4939;
-9.0000;0.8620;-5.5042;
-8.7000;0.8620;-5.5068;
-8.4000;0.8620;-5.4991;
-8.1000;0.8620;-5.4991;
-7.8000;0.8604;-5.5042;
-7.5000;0.8596;-5.5094;
-7.2000;0.8612;-5.5016;
-6.9000;0.8604;-5.5094;
-6.6000;0.8604;-5.5094;
-6.3000;0.8604;-5.5120;
-6.0000;0.8628;-5.4991;
-5.7000;0.8612;-5.4939;
-5.4000;0.8612;-5.4913;
-5.1000;0.8612;-5.4835;
-4.8000;0.8620;-5.4783;
-4.5000;0.8604;-5.4835;
-4.2000;0.8604;-5.4913;
-3.9000;0.8620;-5.4861;
-3.6000;0.8571;-5.4991;
-3.3000;0.8596;-5.4939;
-3.0000;0.8628;-5.4835;
-2.7000;0.8628;-5.4887;
-2.4000;0.8604;-5.4887;
-2.1000;0.8604;-5.4965;
-1.8000;0.8604;-5.4939;
-1.5000;0.8596;-5.4887;
-1.2000;0.8596;-5.4887;
-0.9000;0.8604;-5.4991;
-0.6000;0.8612;-5.4913;
-0.3000;0.8620;-5.4861;
0.0000;0.8620;-5.4861;
0.3000;0.8710;-5.4706;
0.6000;0.8938;-5.4188;
0.9000;0.9092;-5.3670;
1.2000;0.9271;-5.3177;
1.5000;0.9328;-5.2996;
1.8000;0.9369;-5.2763;
2.1000;0.9491;-5.2374;
2.4000;0.9548;-5.2219;
2.7000;0.9613;-5.1986;
3.0000;0.9670;-5.1727;
3.3000;0.9662;-5.1779;
3.6000;0.9687;-5.1675;
3.9000;0.9719;-5.1597;
4.2000;0.9719;-5.1520;
4.5000;0.9752;-5.1364;
4.8000;0.9792;-5.1287;
5.1000;0.9776;-5.1312;
5.4000;0.9809;-5.1183;
5.7000;0.9801;-5.1287;
6.0000;0.9841;-5.1157;
6.3000;0.9833;-5.1209;
6.6000;0.9874;-5.1131;
6.9000;0.9882;-5.1157;
7.2000;0.9841;-5.1209;
7.5000;0.9882;-5.1157;
7.8000;0.9906;-5.1079;
8.1000;0.9898;-5.1131;
8.4000;0.9906;-5.1235;
8.7000;0.9939;-5.1183;
9.0000;0.9915;-5.1261;
9.3000;0.9947;-5.1183;
9.6000;0.9955;-5.1131;
9.9000;0.9923;-5.1235;
10.2000;0.9972;-5.1079;
10.5000;0.9980;-5.1002;
10.8000;0.9988;-5.1002;
11.1000;1.0020;-5.1002;
11.4000;1.0004;-5.1053;
11.7000;1.0004;-5.0924;
12.0000;1.0012;-5.0950;
12.3000;0.9996;-5.1028;
12.6000;1.0061;-5.0820;
12.9000;1.0020;-5.0976;
13.2000;1.0028;-5.0976;
13.5000;1.0045;-5.0924;
13.8000;1.0069;-5.0898;
14.1000;1.0053;-5.1002;
14.4000;1.0061;-5.1131;
14.7000;1.0069;-5.1209;
15.0000;1.0069;-5.1131;
15.3000;1.0061;-5.1131;
15.6000;1.0085;-5.1183;
15.9000;1.0085;-5.1157;
16.2000;1.0085;-5.1157;
16.5000;1.0102;-5.1079;
16.8000;1.0077;-5.1028;
17.1000;1.0110;-5.1079;
17.4000;1.0110;-5.1079;
17.7000;1.0102;-5.1053;
18.0000;1.0094;-5.1183;
18.3000;1.0110;-5.1183;
18.6000;1.0118;-5.1157;
18.9000;1.0110;-5.1131;
19.2000;1.0118;-5.1261;
19.5000;1.0134;-5.1261;
19.8000;1.0151;-5.1157;
20.1000;1.0142;-5.1053;
20.4000;1.0142;-5.1105;
20.7000;1.0085;-5.1312;
21.0000;1.0159;-5.1131;
21.3000;1.0208;-5.1002;
21.6000;1.0167;-5.1105;
21.9000;1.0151;-5.1053;
22.2000;1.0151;-5.1079;
22.5000;1.0175;-5.1053;
22.8000;1.0167;-5.1183;
23.1000;1.0159;-5.1183;
23.4000;1.0159;-5.1157;
23.7000;1.0183;-5.1209;
24.0000;1.0167;-5.1183;
24.3000;1.0183;-5.1028;
24.6000;1.0094;-5.1261;
24.9000;1.0183;-5.0950;
25.2000;1.0191;-5.0898;
25.5000;1.0191;-5.0872;
25.8000;1.0142;-5.0976;
26.1000;1.0199;-5.0794;
26.4000;1.0208;-5.0768;
26.7000;1.0199;-5.0846;
27.0000;1.0167;-5.1079;
27.3000;1.0208;-5.0976;
27.6000;1.0208;-5.1053;
27.9000;1.0208;-5.1105;
28.2000;1.0216;-5.1079;
28.5000;1.0216;-5.1131;
28.8000;1.0199;-5.1157;
29.1000;1.0224;-5.1105;
29.4000;1.0216;-5.1183;
29.7000;1.0191;-5.1235;
30.0000;1.0216;-5.1157;
30.3000;1.0208;-5.1131;
30.6000;1.0240;-5.1053;
30.9000;1.0208;-5.1105;
31.2000;1.0232;-5.1079;
31.5000;1.0224;-5.1105;
31.8000;1.0216;-5.1157;
32.1000;1.0216;-5.1131;
32.4000;1.0224;-5.1105;
32.7000;1.0224;-5.1053;
33.0000;1.0273;-5.0924;
33.3000;1.0216;-5.1002;
33.6000;1.0232;-5.1002;
33.9000;1.0224;-5.1079;
34.2000;1.0216;-5.1079;
34.5000;1.0240;-5.1131;
34.8000;1.0224;-5.1183;
35.1000;1.0240;-5.1157;
35.4000;1.0265;-5.1209;
35.7000;1.0240;-5.1287;
36.0000;1.0208;-5.1261;
36.3000;1.0208;-5.1287;
36.6000;1.0256;-5.1131;
36.9000;1.0240;-5.1183;
37.2000;1.0232;-5.1209;
37.5000;1.0232;-5.1261;
37.8000;1.0240;-5.1157;
38.1000;1.0232;-5.1183;
38.4000;1.0232;-5.1261;
38.7000;1.0232;-5.1287;
39.0000;1.0248;-5.1261;
39.3000;1.0248;-5.1312;
39.6000;1.0256;-5.1261;
39.9000;1.0248;-5.1209;
40.2000;1.0248;-5.1157;
40.5000;1.0240;-5.1157;
40.8000;1.0248;-5.1131;
41.1000;1.0224;-5.1183;
41.4000;1.0232;-5.1157;
41.7000;1.0256;-5.1079;
42.0000;1.0232;-5.1131;
42.3000;1.0240;-5.1105;
42.6000;1.0224;-5.1131;
42.9000;1.0240;-5.1131;
43.2000;1.0256;-5.1157;
43.5000;1.0256;-5.1131;
43.8000;1.0224;-5.1261;
44.1000;1.0256;-5.1131;
44.4000;1.0248;-5.1105;
44.7000;1.0265;-5.1105;
45.0000;1.0240;-5.1157;
45.3000;1.0248;-5.1053;
45.6000;1.0208;-5.1131;
45.9000;1.0248;-5.1105;
46.2000;1.0256;-5.1157;
46.5000;1.0281;-5.1079;
46.8000;1.0240;-5.1261;
47.1000;1.0240;-5.1235;
47.4000;1.0240;-5.1235;
47.7000;1.0240;-5.1287;
48.0000;1.0240;-5.1287;
48.3000;1.0240;-5.1235;
48.6000;1.0175;-5.1338;
48.9000;1.0248;-5.1131;
49.2000;1.0240;-5.1209;
49.5000;1.0256;-5.1105;
49.8000;1.0265;-5.1079;
50.1000;1.0240;-5.1105;
50.4000;1.0248;-5.1183;
50.7000;1.0265;-5.1028;
51.0000;1.0167;-5.1287;
51.3000;1.0256;-5.1002;
51.6000;1.0256;-5.0924;
51.9000;1.0232;-5.1079;
52.2000;1.0240;-5.1079;
52.5000;1.0256;-5.1028;
52.8000;1.0224;-5.1105;
53.1000;1.0240;-5.1053;
53.4000;1.0248;-5.1105;
53.7000;1.0248;-5.1131;
54.0000;1.0240;-5.1157;
54.3000;1.0248;-5.1235;
54.6000;1.0273;-5.1183;
54.9000;1.0256;-5.1183;
55.2000;1.0248;-5.1157;
55.5000;1.0281;-5.1079;
55.8000;1.0240;-5.1105;
56.1000;1.0256;-5.1053;
56.4000;1.0265;-5.1079;
56.7000;1.0265;-5.1131;
57.0000;1.0265;-5.1131;
57.3000;1.0273;-5.1131;
57.6000;1.0256;-5.1053;
57.9000;1.0256;-5.1028;
58.2000;1.0175;-5.1312;
58.5000;1.0289;-5.1053;
58.8000;1.0248;-5.1131;
59.1000;1.0265;-5.1235;
59.4000;1.0256;-5.1338;
59.7000;1.0281;-5.1287;
60.0000;1.0256;-5.1338;
60.3000;1.0248;-5.1338;
60.6000;1.0256;-5.1183;
60.9000;1.0281;-5.1157;
61.2000;1.0273;-5.1261;
61.5000;1.0265;-5.1261;
61.8000;1.0248;-5.1261;
62.1000;1.0281;-5.1157;
62.4000;1.0273;-5.1079;
62.7000;1.0224;-5.1157;
63.0000;1.0265;-5.0976;
63.3000;1.0273;-5.0976;
63.6000;1.0281;-5.1053;
63.9000;1.0289;-5.1028;
64.2000;1.0265;-5.1079;
64.5000;1.0265;-5.1053;
64.8000;1.0273;-5.1079;
65.1000;1.0289;-5.0976;
65.4000;1.0248;-5.1079;
65.7000;1.0273;-5.1002;
66.0000;1.0208;-5.1131;
66.3000;1.0281;-5.1028;
66.6000;1.0265;-5.1079;
66.9000;1.0240;-5.1157;
67.2000;1.0248;-5.1105;
67.5000;1.0273;-5.1053;
67.8000;1.0281;-5.0976;
68.1000;1.0248;-5.1028;
68.4000;1.0232;-5.1079;
68.7000;1.0265;-5.1053;
69.0000;1.0240;-5.1079;
69.3000;1.0248;-5.1131;
69.6000;1.0273;-5.1157;
69.9000;1.0273;-5.1209;
70.2000;1.0240;-5.1312;
70.5000;1.0256;-5.1261;
70.8000;1.0265;-5.1287;
71.1000;1.0273;-5.1183;
71.4000;1.0248;-5.1183;
71.7000;1.0248;-5.1209;
72.0000;1.0273;-5.1183;
72.3000;1.0281;-5.1131;
72.6000;1.0265;-5.1183;
72.9000;1.0256;-5.1261;
73.2000;1.0256;-5.1183;
73.5000;1.0265;-5.1183;
73.8000;1.0273;-5.1157;
74.1000;1.0273;-5.1131;
74.4000;1.0265;-5.1183;
74.7000;1.0248;-5.1261;
75.0000;1.0265;-5.1235;
75.3000;1.0256;-5.1261;
75.6000;1.0256;-5.1235;
75.9000;1.0256;-5.1261;
76.2000;1.0248;-5.1183;
76.5000;1.0256;-5.1183;
76.8000;1.0232;-5.1261;
77.1000;1.0273;-5.1183;
77.4000;1.0256;-5.1209;
77.7000;1.0265;-5.1131;
78.0000;1.0273;-5.1131;
78.3000;1.0281;-5.1053;
78.6000;1.0256;-5.1028;
78.9000;1.0273;-5.1002;
79.2000;1.0248;-5.1105;
79.5000;1.0256;-5.1131;
79.8000;1.0256;-5.1183;
80.1000;1.0265;-5.1157;
80.4000;1.0265;-5.1183;
80.7000;1.0265;-5.1079;
81.0000;1.0289;-5.1002;
81.3000;1.0256;-5.1157;
81.6000;1.0265;-5.1157;
81.9000;1.0240;-5.1338;
82.2000;1.0273;-5.1312;
82.5000;1.0265;-5.1364;
82.8000;1.0265;-5.1416;
83.1000;1.0273;-5.1442;
83.4000;1.0265;-5.1442;
83.7000;1.0265;-5.1494;
84.0000;1.0273;-5.1468;
84.3000;1.0265;-5.1546;
84.6000;1.0248;-5.1546;
84.9000;1.0265;-5.1546;
85.2000;1.0289;-5.1468;
85.5000;1.0281;-5.1494;
85.8000;1.0265;-5.1364;
86.1000;1.0248;-5.1364;
86.4000;1.0256;-5.1287;
86.7000;1.0281;-5.1157;
87.0000;1.0256;-5.1287;
87.3000;1.0256;-5.1183;
87.6000;1.0256;-5.1157;
87.9000;1.0248;-5.1209;
88.2000;1.0256;-5.1209;
88.5000;1.0256;-5.1261;
88.8000;1.0256;-5.1261;
89.1000;1.0256;-5.1261;
89.4000;1.0265;-5.1338;
89.7000;1.0248;-5.1287;
90.0000;1.0248;-5.1261;
90.3000;1.0256;-5.1131;
90.6000;1.0256;-5.1157;
90.9000;1.0313;-5.1028;
91.2000;1.0265;-5.1183;
91.5000;1.0265;-5.1183;
91.8000;1.0273;-5.1209;
92.1000;1.0265;-5.1209;
92.4000;1.0256;-5.1235;
92.7000;1.0273;-5.1209;
93.0000;1.0281;-5.1235;
93.3000;1.0281;-5.1261;
93.6000;1.0273;-5.1287;
93.9000;1.0265;-5.1183;
94.2000;1.0289;-5.1183;
94.5000;1.0273;-5.1183;
94.8000;1.0265;-5.1261;
95.1000;1.0265;-5.1235;
95.4000;1.0273;-5.1183;
95.7000;1.0256;-5.1131;
96.0000;1.0273;-5.1183;
96.3000;1.0256;-5.1183;
96.6000;1.0281;-5.1131;
96.9000;1.0265;-5.1261;
97.2000;1.0305;-5.1105;
97.5000;1.0273;-5.1157;
97.8000;1.0289;-5.1209;
98.1000;1.0354;-5.1053;
98.4000;1.0256;-5.1235;
98.7000;1.0281;-5.1235;
99.0000;1.0273;-5.1235;
99.3000;1.0265;-5.1209;
99.6000;1.0265;-5.1157;
99.9000;1.0224;-5.1157;
100.2000;1.0281;-5.1079;
100.5000;1.0273;-5.1105;
100.8000;1.0265;-5.1157;
101.1000;1.0289;-5.1157;
101.4000;1.0265;-5.1287;
101.7000;1.0265;-5.1235;
102.0000;1.0265;-5.1287;
102.3000;1.0281;-5.1261;
102.6000;1.0281;-5.1209;
102.9000;1.0338;-5.1105;
103.2000;1.0281;-5.1209;
103.5000;1.0265;-5.1235;
103.8000;1.0273;-5.1157;
104.1000;1.0273;-5.1131;
104.4000;1.0322;-5.1105;
104.7000;1.0289;-5.1261;
105.0000;1.0256;-5.1209;
105.3000;1.0256;-5.1261;
105.6000;1.0273;-5.1261;
105.9000;1.0265;-5.1338;
106.2000;1.0273;-5.1442;
106.5000;1.0256;-5.1571;
106.8000;1.0273;-5.1468;
107.1000;1.0256;-5.1494;
107.4000;1.0216;-5.1675;
107.7000;1.0265;-5.1520;
108.0000;1.0265;-5.1546;
108.3000;1.0281;-5.1442;
108.6000;1.0265;-5.1416;
108.9000;1.0265;-5.1520;
109.2000;1.0265;-5.1442;
109.5000;1.0273;-5.1494;
109.8000;1.0265;-5.1468;
110.1000;1.0265;-5.1442;
110.4000;1.0265;-5.1468;
110.7000;1.0265;-5.1442;
111.0000;1.0256;-5.1520;
111.3000;1.0256;-5.1571;
111.6000;1.0265;-5.1416;
111.9000;1.0256;-5.1442;
112.2000;1.0273;-5.1338;
112.5000;1.0265;-5.1312;
112.8000;1.0248;-5.1390;
113.1000;1.0265;-5.1338;
113.4000;1.0248;-5.1364;
113.7000;1.0248;-5.1390;
114.0000;1.0248;-5.1390;
114.3000;1.0256;-5.1442;
114.6000;1.0281;-5.1364;
114.9000;1.0265;-5.1338;
115.2000;1.0248;-5.1364;
115.5000;1.0256;-5.1416;
115.8000;1.0248;-5.1390;
116.1000;1.0265;-5.1338;
116.4000;1.0256;-5.1338;
116.7000;1.0240;-5.1364;
117.0000;1.0265;-5.1338;
117.3000;1.0273;-5.1235;
117.6000;1.0256;-5.1364;
117.9000;1.0248;-5.1390;
118.2000;1.0281;-5.1416;
118.5000;1.0265;-5.1364;
118.8000;1.0232;-5.1494;
119.1000;1.0265;-5.1338;
119.4000;1.0265;-5.1312;
119.7000;1.0289;-5.1235;
120.0000;1.0265;-5.1364;
120.3000;1.0281;-5.1312;
120.6000;1.0297;-5.1261;
120.9000;1.0281;-5.1416;
121.2000;1.0273;-5.1468;
121.5000;1.0256;-5.1597;
121.8000;1.0240;-5.1597;
122.1000;1.0256;-5.1571;
122.4000;1.0265;-5.1442;
122.7000;1.0232;-5.1520;
123.0000;1.0248;-5.1468;
123.3000;1.0273;-5.1390;
123.6000;1.0199;-5.1597;
123.9000;1.0256;-5.1390;
124.2000;1.0256;-5.1416;
124.5000;1.0265;-5.1364;
124.8000;1.0265;-5.1338;
125.1000;1.0265;-5.1390;
125.4000;1.0248;-5.1390;
125.7000;1.0256;-5.1338;
126.0000;1.0256;-5.1261;
126.3000;1.0256;-5.1209;
126.6000;1.0265;-5.1183;
126.9000;1.0256;-5.1312;
127.2000;1.0240;-5.1312;
127.5000;1.0256;-5.1183;
127.8000;1.0256;-5.1183;
128.1000;1.0256;-5.1235;
128.4000;1.0273;-5.1183;
128.7000;1.0273;-5.1131;
129.0000;1.0265;-5.1157;
129.3000;1.0256;-5.1131;
129.6000;1.0248;-5.1183;
129.9000;1.0248;-5.1183;
130.2000;1.0256;-5.1053;
130.5000;1.0248;-5.1079;
130.8000;1.0224;-5.1131;
131.1000;1.0273;-5.1053;
131.4000;1.0256;-5.0976;
131.7000;1.0265;-5.1079;
132.0000;1.0273;-5.1002;
132.3000;1.0256;-5.1079;
132.6000;1.0248;-5.1105;
132.9000;1.0248;-5.1028;
133.2000;1.0240;-5.0976;
133.5000;1.0265;-5.0976;
133.8000;1.0281;-5.0976;
134.1000;1.0265;-5.0950;
134.4000;1.0265;-5.0976;
134.7000;1.0256;-5.0950;
135.0000;1.0256;-5.0950;
135.3000;1.0248;-5.0976;
135.6000;1.0248;-5.1053;
135.9000;1.0248;-5.1157;
136.2000;1.0248;-5.1105;
136.5000;1.0248;-5.1105;
136.8000;1.0265;-5.1028;
137.1000;1.0248;-5.1079;
137.4000;1.0248;-5.1079;
137.7000;1.0256;-5.1053;
138.0000;1.0265;-5.1053;
138.3000;1.0224;-5.1131;
138.6000;1.0248;-5.1053;
138.9000;1.0256;-5.1105;
139.2000;1.0265;-5.1131;
139.5000;1.0248;-5.1235;
139.8000;1.0232;-5.1183;
140.1000;1.0289;-5.0976;
140.4000;1.0248;-5.1079;
140.7000;1.0256;-5.1209;
141.0000;1.0232;-5.1183;
141.3000;1.0248;-5.1131;
141.6000;1.0216;-5.1235;
141.9000;1.0240;-5.1209;
142.2000;1.0256;-5.1209;
142.5000;1.0248;-5.1209;
142.8000;1.0289;-5.1079;
143.1000;1.0265;-5.1079;
143.4000;1.0240;-5.1131;
143.7000;1.0273;-5.1053;
144.0000;1.0273;-5.1053;
144.3000;1.0281;-5.1053;
144.6000;1.0248;-5.1131;
144.9000;1.0265;-5.1079;
145.2000;1.0183;-5.1338;
145.5000;1.0256;-5.1261;
145.8000;1.0273;-5.1209;
146.1000;1.0248;-5.1338;
146.4000;1.0248;-5.1338;
146.7000;1.0240;-5.1312;
147.0000;1.0256;-5.1364;
147.3000;1.0256;-5.1338;
147.6000;1.0224;-5.1416;
147.9000;1.0248;-5.1261;
148.2000;1.0248;-5.1209;
148.5000;1.0248;-5.1183;
148.8000;1.0248;-5.1053;
149.1000;1.0256;-5.1002;
149.4000;1.0289;-5.0924;
149.7000;1.0256;-5.1028;
150.0000;1.0240;-5.1028;
150.3000;1.0248;-5.1028;
150.6000;1.0265;-5.1028;
150.9000;1.0240;-5.1079;
151.2000;1.0199;-5.1235;
151.5000;1.0265;-5.1209;
151.8000;1.0265;-5.1261;
152.1000;1.0240;-5.1287;
152.4000;1.0248;-5.1287;
152.7000;1.0248;-5.1235;
153.0000;1.0256;-5.1209;
153.3000;1.0265;-5.1131;
153.6000;1.0216;-5.1235;
153.9000;1.0256;-5.1183;
154.2000;1.0273;-5.1183;
154.5000;1.0265;-5.1235;
154.8000;1.0265;-5.1261;
155.1000;1.0248;-5.1235;
155.4000;1.0273;-5.1312;
155.7000;1.0273;-5.1312;
156.0000;1.0232;-5.1416;
156.3000;1.0256;-5.1416;
156.6000;1.0248;-5.1390;
156.9000;1.0240;-5.1442;
157.2000;1.0232;-5.1468;
157.5000;1.0248;-5.1390;
157.8000;1.0240;-5.1287;
158.1000;1.0273;-5.1235;
158.4000;1.0256;-5.1235;
158.7000;1.0232;-5.1261;
159.0000;1.0265;-5.1235;
159.3000;1.0281;-5.1157;
159.6000;1.0248;-5.1131;
159.9000;1.0256;-5.1131;
160.2000;1.0256;-5.1157;
160.5000;1.0256;-5.1209;
160.8000;1.0273;-5.1157;
161.1000;1.0265;-5.1183;
161.4000;1.0256;-5.1209;
161.7000;1.0305;-5.1079;
162.0000;1.0265;-5.1131;
162.3000;1.0248;-5.1183;
162.6000;1.0216;-5.1235;
162.9000;1.0256;-5.1079;
163.2000;1.0281;-5.1157;
163.5000;1.0248;-5.1235;
163.8000;1.0256;-5.1183;
164.1000;1.0256;-5.1079;
164.4000;1.0256;-5.1105;
164.7000;1.0265;-5.1131;
165.0000;1.0281;-5.1053;
165.3000;1.0248;-5.1131;
165.6000;1.0256;-5.1131;
165.9000;1.0232;-5.1131;
166.2000;1.0281;-5.0976;
166.5000;1.0297;-5.1002;
166.8000;1.0248;-5.1079;
167.1000;1.0240;-5.1157;
167.4000;1.0265;-5.1157;
167.7000;1.0256;-5.1209;
168.0000;1.0224;-5.1312;
168.3000;1.0248;-5.1235;
168.6000;1.0232;-5.1261;
168.9000;1.0240;-5.1287;
169.2000;1.0240;-5.1261;
169.5000;1.0265;-5.1261;
169.8000;1.0265;-5.1287;
170.1000;1.0256;-5.1338;
170.4000;1.0248;-5.1364;
170.7000;1.0248;-5.1364;
171.0000;1.0248;-5.1416;
171.3000;1.0248;-5.1442;
171.6000;1.0248;-5.1468;
171.9000;1.0175;-5.1571;
172.2000;1.0256;-5.1235;
172.5000;1.0248;-5.1131;
172.8000;1.0248;-5.1105;
173.1000;1.0273;-5.1131;
173.4000;1.0224;-5.1235;
173.7000;1.0281;-5.1131;
174.0000;1.0216;-5.1287;
174.3000;1.0248;-5.1157;
174.6000;1.0265;-5.1079;
174.9000;1.0248;-5.1235;
175.2000;1.0248;-5.1235;
175.5000;1.0248;-5.1261;
175.8000;1.0256;-5.1261;
176.1000;1.0256;-5.1131;
176.4000;1.0248;-5.1183;
176.7000;1.0256;-5.1131;
177.0000;1.0256;-5.1079;
177.3000;1.0256;-5.1183;
177.6000;1.0338;-5.1028;
177.9000;1.0248;-5.1261;
178.2000;1.0240;-5.1261;
178.5000;1.0256;-5.1183;
178.8000;1.0232;-5.1261;
179.1000;1.0248;-5.1157;
179.4000;1.0232;-5.1261;
179.7000;1.0265;-5.1209;
180.0000;1.0322;-5.1079;
180.3000;1.0256;-5.1209;
180.6000;1.0240;-5.1183;
180.9000;1.0199;-5.1183;
181.2000;1.0248;-5.1105;
181.5000;1.0248;-5.1028;
181.8000;1.0265;-5.0976;
182.1000;1.0256;-5.1079;
182.4000;1.0256;-5.1105;
182.7000;1.0240;-5.1131;
183.0000;1.0232;-5.1235;
183.3000;1.0240;-5.1157;
183.6000;1.0248;-5.1157;
183.9000;1.0216;-5.1416;
184.2000;1.0265;-5.1468;
184.5000;1.0240;-5.1494;
184.8000;1.0240;-5.1571;
185.1000;1.0256;-5.1571;
185.4000;1.0265;-5.1597;
185.7000;1.0240;-5.1675;
186.0000;1.0232;-5.1701;
186.3000;1.0273;-5.1649;
186.6000;1.0248;-5.1675;
186.9000;1.0248;-5.1701;
187.2000;1.0191;-5.1830;
187.5000;1.0248;-5.1701;
187.8000;1.0240;-5.1727;
188.1000;1.0265;-5.1623;
188.4000;1.0256;-5.1494;
188.7000;1.0248;-5.1546;
189.0000;1.0256;-5.1571;
189.3000;1.0240;-5.1571;
189.6000;1.0232;-5.1546;
189.9000;1.0248;-5.1364;
190.2000;1.0256;-5.1338;
190.5000;1.0256;-5.1338;
190.8000;1.0216;-5.1468;
191.1000;1.0240;-5.1364;
191.4000;1.0248;-5.1364;
191.7000;1.0256;-5.1390;
192.0000;1.0224;-5.1416;
192.3000;1.0240;-5.1442;
192.6000;1.0248;-5.1312;
192.9000;1.0248;-5.1312;
193.2000;1.0256;-5.1261;
193.5000;1.0232;-5.1312;
193.8000;1.0256;-5.1442;
194.1000;1.0240;-5.1520;
194.4000;1.0232;-5.1649;
194.7000;1.0240;-5.1494;
195.0000;1.0240;-5.1494;
195.3000;1.0265;-5.1416;
195.6000;1.0256;-5.1364;
195.9000;1.0240;-5.1390;
196.2000;1.0248;-5.1287;
196.5000;1.0248;-5.1261;
196.8000;1.0265;-5.1183;
197.1000;1.0224;-5.1261;
197.4000;1.0248;-5.1364;
197.7000;1.0265;-5.1364;
198.0000;1.0208;-5.1494;
198.3000;1.0256;-5.1364;
198.6000;1.0183;-5.1597;
198.9000;1.0289;-5.1261;
199.2000;1.0248;-5.1442;
199.5000;1.0240;-5.1416;
199.8000;1.0224;-5.1390;
200.1000;1.0240;-5.1338;
200.4000;1.0199;-5.1364;
200.7000;1.0240;-5.1287;
201.0000;1.0232;-5.1261;
201.3000;1.0240;-5.1261;
201.6000;1.0273;-5.1235;
201.9000;1.0265;-5.1312;
202.2000;1.0248;-5.1364;
202.5000;1.0240;-5.1468;
202.8000;1.0248;-5.1520;
203.1000;1.0256;-5.1520;
203.4000;1.0232;-5.1597;
203.7000;1.0216;-5.1623;
204.0000;1.0248;-5.1442;
204.3000;1.0248;-5.1338;
204.6000;1.0240;-5.1338;
204.9000;1.0232;-5.1364;
205.2000;1.0240;-5.1338;
205.5000;1.0232;-5.1338;
205.8000;1.0240;-5.1261;
206.1000;1.0232;-5.1235;
206.4000;1.0248;-5.1157;
206.7000;1.0248;-5.1157;
207.0000;1.0240;-5.1131;
207.3000;1.0232;-5.1209;
207.6000;1.0240;-5.1131;
207.9000;1.0256;-5.1028;
208.2000;1.0248;-5.0976;
208.5000;1.0240;-5.1028;
208.8000;1.0232;-5.1053;
209.1000;1.0232;-5.0924;
209.4000;1.0248;-5.0924;
209.7000;1.0232;-5.1002;
210.0000;1.0216;-5.1105;
210.3000;1.0232;-5.1028;
210.6000;1.0240;-5.1028;
210.9000;1.0248;-5.0950;
211.2000;1.0199;-5.1028;
211.5000;1.0248;-5.1002;
211.8000;1.0248;-5.1002;
212.1000;1.0232;-5.1131;
212.4000;1.0256;-5.1157;
212.7000;1.0248;-5.1183;
213.0000;1.0256;-5.1131;
213.3000;1.0256;-5.1209;
213.6000;1.0248;-5.1209;
213.9000;1.0232;-5.1235;
214.2000;1.0232;-5.1131;
214.5000;1.0232;-5.1157;
214.8000;1.0159;-5.1338;
215.1000;1.0232;-5.1261;
215.4000;1.0232;-5.1312;
215.7000;1.0224;-5.1312;
216.0000;1.0232;-5.1312;
216.3000;1.0159;-5.1416;
216.6000;1.0240;-5.1235;
216.9000;1.0240;-5.1183;
217.2000;1.0248;-5.1209;
217.5000;1.0248;-5.1209;
217.8000;1.0232;-5.1209;
218.1000;1.0232;-5.1183;
218.4000;1.0265;-5.1079;
218.7000;1.0216;-5.1183;
219.0000;1.0216;-5.1105;
219.3000;1.0232;-5.1053;
219.6000;1.0232;-5.1079;
219.9000;1.0216;-5.1209;
220.2000;1.0240;-5.1209;
220.5000;1.0248;-5.1131;
220.8000;1.0248;-5.1131;
221.1000;1.0265;-5.0950;
221.4000;1.0240;-5.0924;
221.7000;1.0240;-5.1079;
222.0000;1.0232;-5.1002;
222.3000;1.0232;-5.0950;
222.6000;1.0224;-5.1157;
222.9000;1.0232;-5.1053;
223.2000;1.0232;-5.1079;
223.5000;1.0248;-5.1079;
223.8000;1.0224;-5.1183;
224.1000;1.0216;-5.1261;
224.4000;1.0256;-5.1131;
224.7000;1.0232;-5.1261;
225.0000;1.0224;-5.1183;
225.3000;1.0232;-5.1209;
225.6000;1.0232;-5.1105;
225.9000;1.0240;-5.1157;
226.2000;1.0248;-5.1131;
226.5000;1.0248;-5.1157;
226.8000;1.0232;-5.1235;
227.1000;1.0248;-5.1157;
227.4000;1.0273;-5.1183;
227.7000;1.0224;-5.1287;
228.0000;1.0240;-5.1183;
228.3000;1.0240;-5.1157;
228.6000;1.0240;-5.1105;
228.9000;1.0256;-5.1131;
229.2000;1.0240;-5.1261;
229.5000;1.0248;-5.1287;
229.8000;1.0240;-5.1338;
230.1000;1.0232;-5.1312;
230.4000;1.0224;-5.1287;
230.7000;1.0248;-5.1287;
231.0000;1.0240;-5.1209;
231.3000;1.0232;-5.1183;
231.6000;1.0216;-5.1209;
231.9000;1.0159;-5.1364;
232.2000;1.0248;-5.1209;
232.5000;1.0265;-5.1079;
232.8000;1.0248;-5.1131;
233.1000;1.0232;-5.1105;
233.4000;1.0240;-5.1105;
233.7000;1.0256;-5.1053;
234.0000;1.0240;-5.1079;
234.3000;1.0232;-5.1028;
234.6000;1.0224;-5.1028;
234.9000;1.0240;-5.0976;
235.2000;1.0248;-5.0976;
235.5000;1.0240;-5.1079;
235.8000;1.0232;-5.1079;
236.1000;1.0240;-5.1105;
236.4000;1.0240;-5.1079;
236.7000;1.0232;-5.1079;
237.0000;1.0216;-5.1131;
237.3000;1.0248;-5.1053;
237.6000;1.0256;-5.1002;
237.9000;1.0248;-5.1002;
238.2000;1.0199;-5.1028;
238.5000;1.0240;-5.0976;
238.8000;1.0208;-5.1105;
239.1000;1.0232;-5.1028;
239.4000;1.0240;-5.1105;
239.7000;1.0232;-5.1079;
240.0000;1.0248;-5.1028;
240.3000;1.0232;-5.0950;
240.6000;1.0232;-5.1002;
240.9000;1.0216;-5.1002;
241.2000;1.0232;-5.0976;
241.5000;1.0240;-5.1053;
241.8000;1.0240;-5.1002;
242.1000;1.0224;-5.1079;
242.4000;1.0240;-5.1053;
242.7000;1.0248;-5.0950;
243.0000;1.0216;-5.0950;
243.3000;1.0232;-5.0898;
243.6000;1.0256;-5.0924;
243.9000;1.0240;-5.1002;
244.2000;1.0265;-5.0898;
244.5000;1.0232;-5.0976;
244.8000;1.0248;-5.0924;
245.1000;1.0248;-5.0898;
245.4000;1.0216;-5.1002;
245.7000;1.0256;-5.0924;
246.0000;1.0240;-5.0924;
246.3000;1.0224;-5.0898;
246.6000;1.0248;-5.0898;
246.9000;1.0232;-5.1002;
247.2000;1.0232;-5.1028;
247.5000;1.0224;-5.1002;
247.8000;1.0191;-5.1131;
248.1000;1.0256;-5.0976;
248.4000;1.0232;-5.1105;
248.7000;1.0240;-5.1157;
249.0000;1.0265;-5.1131;
249.3000;1.0240;-5.1131;
249.6000;1.0199;-5.1235;
249.9000;1.0240;-5.1209;
250.2000;1.0224;-5.1261;
250.5000;1.0240;-5.1183;
250.8000;1.0232;-5.1183;
251.1000;1.0232;-5.1183;
251.4000;1.0232;-5.1131;
251.7000;1.0216;-5.1131;
252.0000;1.0232;-5.1131;
252.3000;1.0232;-5.1183;
252.6000;1.0224;-5.1209;
252.9000;1.0240;-5.1131;
253.2000;1.0240;-5.1131;
253.5000;1.0232;-5.1183;
253.8000;1.0216;-5.1183;
254.1000;1.0256;-5.1105;
254.4000;1.0224;-5.1105;
254.7000;1.0232;-5.1105;
255.0000;1.0224;-5.1157;
255.3000;1.0256;-5.1079;
255.6000;1.0256;-5.1053;
255.9000;1.0240;-5.1079;
256.2000;1.0224;-5.0976;
256.5000;1.0265;-5.0820;
256.8000;1.0232;-5.0924;
257.1000;1.0232;-5.0976;
257.4000;1.0224;-5.1105;
257.7000;1.0232;-5.1079;
258.0000;1.0240;-5.1028;
258.3000;1.0248;-5.1028;
258.6000;1.0208;-5.1183;
258.9000;1.0273;-5.1002;
259.2000;1.0248;-5.1053;
259.5000;1.0224;-5.1157;
259.8000;1.0240;-5.1053;
260.1000;1.0224;-5.1053;
260.4000;1.0240;-5.1079;
260.7000;1.0240;-5.1028;
261.0000;1.0232;-5.1028;
261.3000;1.0224;-5.1079;
261.6000;1.0232;-5.1028;
261.9000;1.0216;-5.1079;
262.2000;1.0232;-5.1028;
262.5000;1.0199;-5.1157;
262.8000;1.0216;-5.1209;
263.1000;1.0240;-5.1209;
263.4000;1.0232;-5.1157;
263.7000;1.0224;-5.1235;
264.0000;1.0175;-5.1209;
264.3000;1.0232;-5.1105;
264.6000;1.0216;-5.1157;
264.9000;1.0232;-5.1183;
265.2000;1.0240;-5.1105;
265.5000;1.0224;-5.1183;
265.8000;1.0232;-5.1157;
266.1000;1.0240;-5.1131;
266.4000;1.0216;-5.1209;
266.7000;1.0232;-5.1105;
267.0000;1.0256;-5.1053;
267.3000;1.0232;-5.1209;
267.6000;1.0240;-5.1235;
267.9000;1.0232;-5.1261;
268.2000;1.0240;-5.1157;
268.5000;1.0248;-5.1131;
268.8000;1.0256;-5.1105;
269.1000;1.0208;-5.1312;
269.4000;1.0273;-5.1131;
269.7000;1.0240;-5.1235;
270.0000;1.0240;-5.1235;
270.3000;1.0216;-5.1261;
270.6000;1.0216;-5.1261;
270.9000;1.0265;-5.1053;
271.2000;1.0224;-5.1157;
271.5000;1.0216;-5.1183;
271.8000;1.0281;-5.0976;
272.1000;1.0224;-5.1105;
272.4000;1.0224;-5.1079;
272.7000;1.0216;-5.1079;
273.0000;1.0232;-5.1079;
273.3000;1.0232;-5.1105;
273.6000;1.0216;-5.1157;
273.9000;1.0216;-5.1157;
274.2000;1.0224;-5.1105;
274.5000;1.0240;-5.1028;
274.8000;1.0199;-5.1209;
275.1000;1.0232;-5.1079;
275.4000;1.0208;-5.1053;
275.7000;1.0216;-5.0950;
276.0000;1.0216;-5.0950;
276.3000;1.0216;-5.0950;
276.6000;1.0208;-5.0820;
276.9000;1.0224;-5.0872;
277.2000;1.0265;-5.0846;
277.5000;1.0232;-5.0924;
277.8000;1.0224;-5.0924;
278.1000;1.0159;-5.1157;
278.4000;1.0216;-5.1028;
278.7000;1.0224;-5.0872;
279.0000;1.0232;-5.0924;
279.3000;1.0224;-5.0976;
279.6000;1.0232;-5.0976;
279.9000;1.0240;-5.1028;
280.2000;1.0256;-5.1053;
280.5000;1.0224;-5.1105;
280.8000;1.0232;-5.1105;
281.1000;1.0224;-5.1183;
281.4000;1.0224;-5.1235;
281.7000;1.0167;-5.1338;
282.0000;1.0240;-5.1131;
282.3000;1.0281;-5.1028;
282.6000;1.0199;-5.1131;
282.9000;1.0216;-5.1157;
283.2000;1.0216;-5.1131;
283.5000;1.0232;-5.1002;
283.8000;1.0224;-5.0976;
284.1000;1.0208;-5.1105;
284.4000;1.0224;-5.0950;
284.7000;1.0224;-5.0924;
285.0000;1.0232;-5.0976;
285.3000;1.0224;-5.1002;
285.6000;1.0240;-5.1105;
285.9000;1.0224;-5.1157;
286.2000;1.0224;-5.1157;
286.5000;1.0216;-5.1157;
286.8000;1.0216;-5.1157;
287.1000;1.0224;-5.1157;
287.4000;1.0232;-5.1183;
287.7000;1.0208;-5.1261;
288.0000;1.0232;-5.1287;
288.3000;1.0240;-5.1261;
288.6000;1.0232;-5.1209;
288.9000;1.0191;-5.1312;
289.2000;1.0232;-5.1235;
289.5000;1.0199;-5.1209;
289.8000;1.0216;-5.1131;
290.1000;1.0199;-5.1053;
290.4000;1.0208;-5.1105;
290.7000;1.0232;-5.1002;
291.0000;1.0224;-5.0976;
291.3000;1.0224;-5.1002;
291.6000;1.0191;-5.1105;
291.9000;1.0208;-5.1053;
292.2000;1.0159;-5.1209;
292.5000;1.0216;-5.1105;
292.8000;1.0191;-5.1157;
293.1000;1.0191;-5.1105;
293.4000;1.0199;-5.1183;
293.7000;1.0224;-5.1105;
294.0000;1.0208;-5.1105;
294.3000;1.0232;-5.1053;
294.6000;1.0216;-5.1131;
294.9000;1.0216;-5.1131;
295.2000;1.0240;-5.1028;
295.5000;1.0216;-5.1157;
295.8000;1.0289;-5.0898;
296.1000;1.0208;-5.1157;
296.4000;1.0232;-5.1105;
296.7000;1.0256;-5.1028;
297.0000;1.0216;-5.1209;
297.3000;1.0224;-5.1157;
297.6000;1.0232;-5.1157;
297.9000;1.0232;-5.1235;
298.2000;1.0216;-5.1338;
298.5000;1.0216;-5.1312;
298.8000;1.0313;-5.1079;
299.1000;1.0224;-5.1235;
299.4000;1.0224;-5.1261;
299.7000;1.0183;-5.1468;
300.0000;1.0216;-5.1338;
300.3000;1.0199;-5.1390;
300.6000;1.0224;-5.1287;
300.9000;1.0224;-5.1235;
301.2000;1.0232;-5.1183;
301.5000;1.0240;-5.1157;
301.8000;1.0232;-5.1157;
302.1000;1.0216;-5.1131;
302.4000;1.0232;-5.1183;
302.7000;1.0224;-5.1157;
303.0000;1.0232;-5.1183;
303.3000;1.0232;-5.1131;
303.6000;1.0208;-5.1157;
303.9000;1.0265;-5.0976;
304.2000;1.0248;-5.0976;
304.5000;1.0224;-5.1053;
304.8000;1.0265;-5.0950;
305.1000;1.0224;-5.1002;
305.4000;1.0232;-5.1053;
305.7000;1.0224;-5.0976;
306.0000;1.0224;-5.1002;
306.3000;1.0232;-5.1053;
306.6000;1.0248;-5.1028;
306.9000;1.0208;-5.1053;
307.2000;1.0232;-5.1002;
307.5000;1.0224;-5.0950;
307.8000;1.0183;-5.0950;
308.1000;1.0216;-5.0872;
308.4000;1.0216;-5.0846;
308.7000;1.0199;-5.0924;
309.0000;1.0199;-5.0924;
309.3000;1.0216;-5.0950;
309.6000;1.0224;-5.1079;
309.9000;1.0216;-5.1105;
310.2000;1.0216;-5.1105;
310.5000;1.0208;-5.1053;
310.8000;1.0216;-5.1053;
311.1000;1.0248;-5.1002;
311.4000;1.0224;-5.1028;
311.7000;1.0199;-5.1053;
312.0000;1.0216;-5.1002;
312.3000;1.0208;-5.1002;
312.6000;1.0240;-5.0898;
312.9000;1.0216;-5.0846;
313.2000;1.0191;-5.0846;
313.5000;1.0208;-5.0898;
313.8000;1.0199;-5.1028;
314.1000;1.0248;-5.1028;
314.4000;1.0224;-5.1131;
314.7000;1.0208;-5.1131;
315.0000;1.0199;-5.1183;
315.3000;1.0240;-5.1105;
315.6000;1.0175;-5.1235;
315.9000;1.0289;-5.1002;
316.2000;1.0199;-5.1183;
316.5000;1.0175;-5.1261;
316.8000;1.0216;-5.1002;
317.1000;1.0240;-5.0898;
317.4000;1.0216;-5.0950;
317.7000;1.0191;-5.0924;
318.0000;1.0216;-5.0820;
318.3000;1.0175;-5.1002;
318.6000;1.0208;-5.0976;
318.9000;1.0199;-5.1079;
319.2000;1.0216;-5.1105;
319.5000;1.0224;-5.1079;
319.8000;1.0208;-5.1131;
320.1000;1.0216;-5.1079;
320.4000;1.0224;-5.1053;
320.7000;1.0167;-5.1183;
321.0000;1.0208;-5.1157;
321.3000;1.0191;-5.1209;
321.6000;1.0175;-5.1312;
321.9000;1.0175;-5.1390;
322.2000;1.0208;-5.1338;
322.5000;1.0199;-5.1338;
322.8000;1.0208;-5.1235;
323.1000;1.0199;-5.1235;
323.4000;1.0208;-5.1079;
323.7000;1.0167;-5.1157;
324.0000;1.0216;-5.1053;
324.3000;1.0208;-5.1002;
324.6000;1.0224;-5.0898;
324.9000;1.0216;-5.0924;
325.2000;1.0248;-5.0950;
325.5000;1.0248;-5.0976;
325.8000;1.0240;-5.0976;
326.1000;1.0240;-5.1002;
326.4000;1.0232;-5.1002;
326.7000;1.0183;-5.1105;
327.0000;1.0240;-5.1079;
327.3000;1.0216;-5.1105;
327.6000;1.0232;-5.1028;
327.9000;1.0232;-5.1079;
328.2000;1.0216;-5.1131;
328.5000;1.0216;-5.1157;
328.8000;1.0224;-5.1157;
329.1000;1.0199;-5.1079;
329.4000;1.0216;-5.1028;
329.7000;1.0208;-5.1028;
330.0000;1.0216;-5.1079;
330.3000;1.0216;-5.1079;
330.6000;1.0216;-5.1105;
330.9000;1.0216;-5.1053;
331.2000;1.0208;-5.1053;
331.5000;1.0208;-5.0950;
331.8000;1.0199;-5.1028;
332.1000;1.0248;-5.0976;
332.4000;1.0216;-5.1053;
332.7000;1.0216;-5.1105;
333.0000;1.0224;-5.1105;
333.3000;1.0224;-5.1079;
333.6000;1.0216;-5.1028;
333.9000;1.0224;-5.0976;
334.2000;1.0208;-5.1028;
334.5000;1.0216;-5.1002;
334.8000;1.0224;-5.0950;
335.1000;1.0232;-5.0950;
335.4000;1.0216;-5.1028;
335.7000;1.0224;-5.1105;
336.0000;1.0232;-5.1105;
336.3000;1.0232;-5.1105;
336.6000;1.0224;-5.1131;
336.9000;1.0232;-5.1105;
337.2000;1.0240;-5.1028;
337.5000;1.0224;-5.1002;
337.8000;1.0224;-5.1053;
338.1000;1.0183;-5.1209;
338.4000;1.0273;-5.0950;
338.7000;1.0224;-5.1131;
339.0000;1.0208;-5.1183;
339.3000;1.0216;-5.1235;
339.6000;1.0224;-5.1131;
339.9000;1.0216;-5.1131;
340.2000;1.0191;-5.1157;
340.5000;1.0216;-5.1028;
340.8000;1.0224;-5.0976;
341.1000;1.0183;-5.1028;
341.4000;1.0224;-5.1053;
341.7000;1.0248;-5.0924;
342.0000;1.0224;-5.1053;
342.3000;1.0224;-5.0924;
342.6000;1.0216;-5.0898;
342.9000;1.0199;-5.0976;
343.2000;1.0199;-5.1002;
343.5000;1.0208;-5.0950;
343.8000;1.0289;-5.0898;
344.1000;1.0216;-5.1053;
344.4000;1.0216;-5.1131;
344.7000;1.0289;-5.0924;
345.0000;1.0208;-5.1209;
345.3000;1.0208;-5.1209;
345.6000;1.0224;-5.1209;
345.9000;1.0183;-5.1235;
346.2000;1.0224;-5.1131;
346.5000;1.0240;-5.1209;
346.8000;1.0224;-5.1235;
347.1000;1.0191;-5.1261;
347.4000;1.0191;-5.1261;
347.7000;1.0248;-5.1157;
348.0000;1.0208;-5.1183;
348.3000;1.0191;-5.1183;
348.6000;1.0232;-5.1079;
348.9000;1.0216;-5.1131;
349.2000;1.0208;-5.1209;
349.5000;1.0159;-5.1364;
349.8000;1.0208;-5.1209;
350.1000;1.0216;-5.1183;
350.4000;1.0208;-5.1261;
350.7000;1.0232;-5.1209;
351.0000;1.0216;-5.1261;
351.3000;1.0216;-5.1235;
351.6000;1.0208;-5.1261;
351.9000;1.0224;-5.1235;
352.2000;1.0232;-5.1183;
352.5000;1.0208;-5.1235;
352.8000;1.0208;-5.1209;
353.1000;1.0159;-5.1287;
353.4000;1.0224;-5.1183;
353.7000;1.0208;-5.1235;
354.0000;1.0208;-5.1209;
354.3000;1.0208;-5.1105;
354.6000;1.0199;-5.1131;
354.9000;1.0208;-5.1105;
355.2000;1.0232;-5.1105;
355.5000;1.0216;-5.1131;
355.8000;1.0216;-5.1053;
356.1000;1.0191;-5.1105;
356.4000;1.0224;-5.1028;
356.7000;1.0224;-5.1053;
357.0000;1.0216;-5.1131;
357.3000;1.0216;-5.1131;
357.6000;1.0191;-5.1183;
357.9000;1.0216;-5.1287;
358.2000;1.0199;-5.1287;
358.5000;1.0199;-5.1261;
358.8000;1.0199;-5.1235;
359.1000;1.0208;-5.1209;
359.4000;1.0199;-5.1209;
359.7000;1.0191;-5.1183;
360.0000;1.0199;-5.1131;
360.3000;1.0208;-5.1183;
360.6000;1.0216;-5.1131;
360.9000;1.0208;-5.1157;
361.2000;1.0159;-5.1312;
361.5000;1.0216;-5.1183;
361.8000;1.0216;-5.1105;
362.1000;1.0134;-5.1261;
362.4000;1.0167;-5.1105;
362.7000;1.0224;-5.0950;
363.0000;1.0199;-5.0976;
363.3000;1.0216;-5.0872;
363.6000;1.0199;-5.0924;
363.9000;1.0216;-5.0898;
364.2000;1.0208;-5.0820;
364.5000;1.0199;-5.0898;
364.8000;1.0199;-5.0976;
365.1000;1.0208;-5.0924;
365.4000;1.0208;-5.0950;
365.7000;1.0216;-5.1002;
366.0000;1.0159;-5.1131;
366.3000;1.0208;-5.0976;
366.6000;1.0208;-5.1002;
366.9000;1.0167;-5.1157;
367.2000;1.0216;-5.1002;
367.5000;1.0216;-5.1028;
367.8000;1.0224;-5.1053;
368.1000;1.0159;-5.1183;
368.4000;1.0208;-5.1105;
368.7000;1.0191;-5.1053;
369.0000;1.0199;-5.1002;
369.3000;1.0216;-5.1028;
369.6000;1.0199;-5.1105;
369.9000;1.0208;-5.1028;
370.2000;1.0256;-5.0976;
370.5000;1.0208;-5.1053;
370.8000;1.0191;-5.1002;
371.1000;1.0208;-5.0846;
371.4000;1.0224;-5.0872;
371.7000;1.0216;-5.0950;
372.0000;1.0224;-5.0976;
372.3000;1.0232;-5.0924;
372.6000;1.0208;-5.1002;
372.9000;1.0216;-5.1028;
373.2000;1.0224;-5.1131;
373.5000;1.0175;-5.1157;
373.8000;1.0191;-5.1131;
374.1000;1.0199;-5.1105;
374.4000;1.0216;-5.1105;
374.7000;1.0208;-5.1105;
375.0000;1.0191;-5.1131;
375.3000;1.0199;-5.1105;
375.6000;1.0208;-5.1131;
375.9000;1.0216;-5.1131;
376.2000;1.0248;-5.1053;
376.5000;1.0208;-5.1157;
376.8000;1.0208;-5.1079;
377.1000;1.0216;-5.1053;
377.4000;1.0191;-5.1028;
377.7000;1.0191;-5.1053;
378.0000;1.0208;-5.0924;
378.3000;1.0199;-5.1002;
378.6000;1.0191;-5.1002;
378.9000;1.0199;-5.1079;
379.2000;1.0199;-5.1105;
379.5000;1.0216;-5.1209;
379.8000;1.0240;-5.1183;
380.1000;1.0199;-5.1209;
380.4000;1.0175;-5.1209;
380.7000;1.0208;-5.1209;
381.0000;1.0199;-5.1287;
381.3000;1.0208;-5.1312;
381.6000;1.0208;-5.1261;
381.9000;1.0224;-5.1261;
382.2000;1.0183;-5.1183;
382.5000;1.0183;-5.1131;
382.8000;1.0199;-5.1131;
383.1000;1.0224;-5.1053;
383.4000;1.0183;-5.1183;
383.7000;1.0224;-5.1053;
384.0000;1.0208;-5.1028;
384.3000;1.0183;-5.1002;
384.6000;1.0151;-5.1079;
384.9000;1.0191;-5.0976;
385.2000;1.0191;-5.1157;
385.5000;1.0191;-5.1157;
385.8000;1.0224;-5.1079;
386.1000;1.0199;-5.1131;
386.4000;1.0199;-5.1131;
386.7000;1.0208;-5.1053;
387.0000;1.0265;-5.0924;
387.3000;1.0208;-5.1053;
387.6000;1.0256;-5.0950;
387.9000;1.0191;-5.1131;
388.2000;1.0175;-5.1209;
388.5000;1.0224;-5.1053;
388.8000;1.0183;-5.1183;
389.1000;1.0208;-5.1079;
389.4000;1.0175;-5.1105;
389.7000;1.0248;-5.0924;
390.0000;1.0199;-5.0976;
390.3000;1.0208;-5.0950;
390.6000;1.0151;-5.1079;
390.9000;1.0232;-5.1002;
391.2000;1.0175;-5.1157;
391.5000;1.0191;-5.1079;
391.8000;1.0208;-5.1079;
392.1000;1.0208;-5.1157;
392.4000;1.0208;-5.1053;
392.7000;1.0240;-5.1053;
393.0000;1.0199;-5.1209;
393.3000;1.0281;-5.1105;
393.6000;1.0216;-5.1235;
393.9000;1.0248;-5.1079;
394.2000;1.0224;-5.1157;
394.5000;1.0224;-5.1079;
394.8000;1.0216;-5.1079;
395.1000;1.0134;-5.1209;
395.4000;1.0199;-5.1105;
395.7000;1.0191;-5.1131;
396.0000;1.0208;-5.1157;
396.3000;1.0216;-5.1235;
396.6000;1.0191;-5.1209;
396.9000;1.0175;-5.1157;
397.2000;1.0208;-5.1131;
397.5000;1.0208;-5.1079;
397.8000;1.0199;-5.1028;
398.1000;1.0191;-5.1053;
398.4000;1.0199;-5.0950;
398.7000;1.0183;-5.0924;
399.0000;1.0191;-5.0872;
399.3000;1.0183;-5.0872;
399.6000;1.0199;-5.1002;
399.9000;1.0208;-5.0950;
400.2000;1.0216;-5.0924;
400.5000;1.0183;-5.1028;
400.8000;1.0191;-5.0924;
401.1000;1.0265;-5.0794;
401.4000;1.0208;-5.0924;
401.7000;1.0175;-5.1028;
402.0000;1.0216;-5.0950;
402.3000;1.0208;-5.1002;
402.6000;1.0208;-5.1131;
402.9000;1.0199;-5.1157;
403.2000;1.0191;-5.1028;
403.5000;1.0199;-5.1002;
403.8000;1.0183;-5.1079;
404.1000;1.0224;-5.0976;
404.4000;1.0191;-5.1002;
404.7000;1.0199;-5.0924;
405.0000;1.0175;-5.1002;
405.3000;1.0191;-5.0950;
405.6000;1.0199;-5.0898;
405.9000;1.0175;-5.0976;
406.2000;1.0183;-5.0950;
406.5000;1.0159;-5.1079;
406.8000;1.0199;-5.1105;
407.1000;1.0313;-5.0872;
407.4000;1.0224;-5.1079;
407.7000;1.0216;-5.1183;
408.0000;1.0216;-5.1131;
408.3000;1.0199;-5.1131;
408.6000;1.0232;-5.1131;
408.9000;1.0216;-5.1183;
409.2000;1.0216;-5.1261;
409.5000;1.0208;-5.1312;
409.8000;1.0199;-5.1261;
410.1000;1.0199;-5.1235;
410.4000;1.0199;-5.1105;
410.7000;1.0224;-5.1053;
411.0000;1.0208;-5.1183;
411.3000;1.0208;-5.1105;
411.6000;1.0224;-5.1002;
411.9000;1.0191;-5.1183;
412.2000;1.0199;-5.1312;
412.5000;1.0297;-5.1079;
412.8000;1.0175;-5.1261;
413.1000;1.0167;-5.1235;
413.4000;1.0199;-5.1209;
413.7000;1.0208;-5.1209;
414.0000;1.0199;-5.1235;
414.3000;1.0191;-5.1261;
414.6000;1.0216;-5.1287;
414.9000;1.0167;-5.1442;
415.2000;1.0175;-5.1416;
415.5000;1.0208;-5.1364;
415.8000;1.0208;-5.1287;
416.1000;1.0199;-5.1287;
416.4000;1.0199;-5.1338;
416.7000;1.0183;-5.1390;
417.0000;1.0191;-5.1442;
417.3000;1.0216;-5.1338;
417.6000;1.0175;-5.1468;
417.9000;1.0159;-5.1442;
418.2000;1.0208;-5.1364;
418.5000;1.0199;-5.1364;
418.8000;1.0224;-5.1364;
419.1000;1.0191;-5.1390;
419.4000;1.0183;-5.1416;
419.7000;1.0232;-5.1364;
420.0000;1.0256;-5.1261;
420.3000;1.0199;-5.1390;
420.6000;1.0175;-5.1468;
420.9000;1.0199;-5.1364;
421.2000;1.0191;-5.1261;
421.5000;1.0199;-5.1105;
421.8000;1.0199;-5.1105;
422.1000;1.0191;-5.1157;
422.4000;1.0183;-5.1183;
422.7000;1.0216;-5.1105;
423.0000;1.0232;-5.1157;
423.3000;1.0224;-5.1105;
423.6000;1.0224;-5.1079;
423.9000;1.0199;-5.1079;
424.2000;1.0216;-5.1131;
424.5000;1.0191;-5.1131;
424.8000;1.0183;-5.1157;
425.1000;1.0183;-5.1131;
425.4000;1.0216;-5.1053;
425.7000;1.0183;-5.1053;
426.0000;1.0183;-5.1131;
426.3000;1.0183;-5.1235;
426.6000;1.0199;-5.1235;
426.9000;1.0199;-5.1364;
427.2000;1.0175;-5.1338;
427.5000;1.0183;-5.1390;
427.8000;1.0256;-5.1209;
428.1000;1.0191;-5.1261;
428.4000;1.0191;-5.1287;
428.7000;1.0191;-5.1235;
429.0000;1.0183;-5.1312;
429.3000;1.0216;-5.1131;
429.6000;1.0199;-5.1235;
429.9000;1.0183;-5.1209;
430.2000;1.0216;-5.1131;
430.5000;1.0224;-5.1131;
430.8000;1.0208;-5.1209;
431.1000;1.0191;-5.1105;
431.4000;1.0208;-5.1157;
431.7000;1.0199;-5.1183;
432.0000;1.0191;-5.1209;
432.3000;1.0167;-5.1390;
432.6000;1.0191;-5.1390;
432.9000;1.0199;-5.1390;
433.2000;1.0199;-5.1364;
433.5000;1.0167;-5.1390;
433.8000;1.0191;-5.1364;
434.1000;1.0208;-5.1312;
434.4000;1.0208;-5.1390;
434.7000;1.0199;-5.1390;
435.0000;1.0191;-5.1364;
435.3000;1.0191;-5.1364;
435.6000;1.0224;-5.1312;
435.9000;1.0199;-5.1338;
436.2000;1.0199;-5.1416;
436.5000;1.0208;-5.1416;
436.8000;1.0191;-5.1287;
437.1000;1.0208;-5.1287;
437.4000;1.0191;-5.1235;
437.7000;1.0159;-5.1312;
438.0000;1.0224;-5.1183;
438.3000;1.0191;-5.1261;
438.6000;1.0191;-5.1261;
438.9000;1.0265;-5.1105;
439.2000;1.0167;-5.1364;
439.5000;1.0175;-5.1261;
439.8000;1.0183;-5.1287;
440.1000;1.0167;-5.1338;
440.4000;1.0183;-5.1338;
440.7000;1.0199;-5.1261;
441.0000;1.0159;-5.1338;
441.3000;1.0183;-5.1209;
441.6000;1.0216;-5.1105;
441.9000;1.0208;-5.1079;
442.2000;1.0216;-5.1028;
442.5000;1.0183;-5.1105;
442.8000;1.0199;-5.1053;
443.1000;1.0191;-5.1105;
443.4000;1.0199;-5.1053;
443.7000;1.0159;-5.1131;
444.0000;1.0208;-5.1028;
444.3000;1.0191;-5.1157;
444.6000;1.0232;-5.1105;
444.9000;1.0208;-5.1183;
445.2000;1.0199;-5.1183;
445.5000;1.0191;-5.1131;
445.8000;1.0216;-5.1157;
446.1000;1.0183;-5.1209;
446.4000;1.0191;-5.1209;
446.7000;1.0183;-5.1261;
447.0000;1.0224;-5.1053;
447.3000;1.0199;-5.1105;
447.6000;1.0191;-5.1157;
447.9000;1.0199;-5.1157;
448.2000;1.0199;-5.1157;
448.5000;1.0183;-5.1209;
448.8000;1.0183;-5.1312;
449.1000;1.0191;-5.1312;
449.4000;1.0175;-5.1261;
449.7000;1.0183;-5.1235;
450.0000;1.0183;-5.1261;
450.3000;1.0191;-5.1183;
450.6000;1.0175;-5.1261;
450.9000;1.0191;-5.1287;
451.2000;1.0183;-5.1261;
451.5000;1.0183;-5.1261;
451.8000;1.0175;-5.1235;
452.1000;1.0183;-5.1235;
452.4000;1.0208;-5.1157;
452.7000;1.0191;-5.1131;
453.0000;1.0167;-5.1183;
453.3000;1.0175;-5.1157;
453.6000;1.0191;-5.1183;
453.9000;1.0183;-5.1287;
454.2000;1.0167;-5.1287;
454.5000;1.0151;-5.1416;
454.8000;1.0175;-5.1338;
455.1000;1.0175;-5.1364;
455.4000;1.0175;-5.1364;
455.7000;1.0208;-5.1287;
456.0000;1.0199;-5.1312;
456.3000;1.0183;-5.1261;
456.6000;1.0199;-5.1235;
456.9000;1.0191;-5.1183;
457.2000;1.0134;-5.1235;
457.5000;1.0199;-5.1002;
457.8000;1.0208;-5.0976;
458.1000;1.0175;-5.1053;
458.4000;1.0216;-5.1002;
458.7000;1.0199;-5.1157;
459.0000;1.0191;-5.1131;
459.3000;1.0199;-5.1105;
459.6000;1.0224;-5.1053;
459.9000;1.0191;-5.1079;
460.2000;1.0142;-5.1235;
460.5000;1.0167;-5.1183;
460.8000;1.0183;-5.1105;
461.1000;1.0199;-5.1105;
461.4000;1.0175;-5.1105;
461.7000;1.0183;-5.1002;
462.0000;1.0199;-5.1105;
462.3000;1.0191;-5.1183;
462.6000;1.0191;-5.1131;
462.9000;1.0191;-5.1105;
463.2000;1.0199;-5.1131;
463.5000;1.0183;-5.1157;
463.8000;1.0273;-5.0976;
464.1000;1.0240;-5.1028;
464.4000;1.0183;-5.1183;
464.7000;1.0167;-5.1209;
465.0000;1.0175;-5.1209;
465.3000;1.0183;-5.1157;
465.6000;1.0216;-5.1053;
465.9000;1.0208;-5.1053;
466.2000;1.0199;-5.1183;
466.5000;1.0224;-5.1131;
466.8000;1.0216;-5.1157;
467.1000;1.0183;-5.1364;
467.4000;1.0208;-5.1261;
467.7000;1.0208;-5.1235;
468.0000;1.0273;-5.1053;
468.3000;1.0183;-5.1287;
468.6000;1.0151;-5.1494;
468.9000;1.0199;-5.1338;
469.2000;1.0183;-5.1390;
469.5000;1.0248;-5.1287;
469.8000;1.0208;-5.1390;
470.1000;1.0216;-5.1416;
470.4000;1.0224;-5.1442;
470.7000;1.0199;-5.1494;
471.0000;1.0183;-5.1442;
471.3000;1.0208;-5.1364;
471.6000;1.0183;-5.1364;
471.9000;1.0175;-5.1312;
472.2000;1.0191;-5.1209;
472.5000;1.0183;-5.1312;
472.8000;1.0175;-5.1338;
473.1000;1.0183;-5.1261;
473.4000;1.0175;-5.1131;
473.7000;1.0159;-5.1079;
474.0000;1.0175;-5.1028;
474.3000;1.0175;-5.1183;
474.6000;1.0167;-5.1183;
474.9000;1.0183;-5.1209;
475.2000;1.0183;-5.1209;
475.5000;1.0191;-5.1157;
475.8000;1.0167;-5.1261;
476.1000;1.0183;-5.1209;
476.4000;1.0183;-5.1209;
476.7000;1.0208;-5.1105;
477.0000;1.0191;-5.1157;
477.3000;1.0167;-5.1261;
477.6000;1.0183;-5.1287;
477.9000;1.0191;-5.1261;
478.2000;1.0191;-5.1235;
478.5000;1.0183;-5.1209;
478.8000;1.0167;-5.1157;
479.1000;1.0167;-5.1287;
479.4000;1.0167;-5.1312;
479.7000;1.0216;-5.1235;
480.0000;1.0183;-5.1209;
480.3000;1.0183;-5.1105;
480.6000;1.0240;-5.1002;
480.9000;1.0191;-5.1105;
481.2000;1.0175;-5.1209;
481.5000;1.0240;-5.0976;
481.8000;1.0151;-5.1209;
482.1000;1.0159;-5.1183;
482.4000;1.0183;-5.1312;
482.7000;1.0183;-5.1390;
483.0000;1.0208;-5.1390;
483.3000;1.0240;-5.1312;
483.6000;1.0191;-5.1364;
483.9000;1.0183;-5.1364;
484.2000;1.0175;-5.1364;
484.5000;1.0199;-5.1364;
484.8000;1.0191;-5.1390;
485.1000;1.0167;-5.1338;
485.4000;1.0191;-5.1209;
485.7000;1.0167;-5.1261;
486.0000;1.0134;-5.1364;
486.3000;1.0183;-5.1261;
486.6000;1.0175;-5.1183;
486.9000;1.0183;-5.1157;
487.2000;1.0183;-5.1131;
487.5000;1.0175;-5.1131;
487.8000;1.0151;-5.1209;
488.1000;1.0208;-5.1028;
488.4000;1.0191;-5.1105;
488.7000;1.0183;-5.1028;
489.0000;1.0167;-5.1002;
489.3000;1.0191;-5.1002;
489.6000;1.0183;-5.1002;
489.9000;1.0167;-5.1079;
490.2000;1.0175;-5.1053;
490.5000;1.0191;-5.1053;
490.8000;1.0183;-5.1079;
491.1000;1.0175;-5.1053;
491.4000;1.0208;-5.1053;
491.7000;1.0191;-5.1183;
492.0000;1.0191;-5.1183;
492.3000;1.0191;-5.1209;
492.6000;1.0191;-5.1209;
492.9000;1.0183;-5.1157;
493.2000;1.0183;-5.1053;
493.5000;1.0191;-5.0976;
493.8000;1.0183;-5.1028;
494.1000;1.0167;-5.1002;
494.4000;1.0183;-5.1028;
494.7000;1.0183;-5.1028;
495.0000;1.0183;-5.1028;
495.3000;1.0175;-5.1002;
495.6000;1.0183;-5.1028;
495.9000;1.0216;-5.1053;
496.2000;1.0191;-5.1131;
496.5000;1.0167;-5.1157;
496.8000;1.0175;-5.1105;
497.1000;1.0208;-5.0924;
497.4000;1.0167;-5.1028;
497.7000;1.0183;-5.0950;
498.0000;1.0167;-5.1053;
498.3000;1.0167;-5.1053;
498.6000;1.0199;-5.1053;
498.9000;1.0167;-5.1131;
499.2000;1.0175;-5.1002;
499.5000;1.0183;-5.0924;
499.8000;1.0167;-5.0950;
500.1000;1.0183;-5.0976;
500.4000;1.0183;-5.1002;
500.7000;1.0183;-5.1079;
501.0000;1.0191;-5.1105;
501.3000;1.0167;-5.1209;
501.6000;1.0199;-5.1053;
501.9000;1.0175;-5.1131;
502.2000;1.0167;-5.1183;
502.5000;1.0199;-5.1131;
502.8000;1.0183;-5.1157;
503.1000;1.0191;-5.1209;
503.4000;1.0191;-5.1261;
503.7000;1.0208;-5.1131;
504.0000;1.0167;-5.1105;
504.3000;1.0175;-5.1053;
504.6000;1.0183;-5.1028;
504.9000;1.0183;-5.1053;
505.2000;1.0175;-5.1157;
505.5000;1.0191;-5.1131;
505.8000;1.0126;-5.1312;
506.1000;1.0191;-5.1131;
506.4000;1.0191;-5.1131;
506.7000;1.0183;-5.1079;
507.0000;1.0191;-5.0976;
507.3000;1.0191;-5.0924;
507.6000;1.0191;-5.0950;
507.9000;1.0183;-5.1028;
508.2000;1.0167;-5.1079;
508.5000;1.0175;-5.1079;
508.8000;1.0191;-5.1028;
509.1000;1.0159;-5.1053;
509.4000;1.0175;-5.1002;
509.7000;1.0175;-5.1053;
510.0000;1.0183;-5.1079;
510.3000;1.0175;-5.1028;
510.6000;1.0183;-5.0950;
510.9000;1.0167;-5.0976;
511.2000;1.0183;-5.0950;
511.5000;1.0175;-5.1079;
511.8000;1.0175;-5.1079;
512.1000;1.0159;-5.1105;
512.4000;1.0183;-5.1028;
512.7000;1.0191;-5.1002;
513.0000;1.0175;-5.1028;
513.3000;1.0183;-5.0976;
513.6000;1.0191;-5.1002;
513.9000;1.0175;-5.0976;
514.2000;1.0159;-5.1183;
514.5000;1.0159;-5.1261;
514.8000;1.0167;-5.1209;
515.1000;1.0167;-5.1235;
515.4000;1.0183;-5.1235;
515.7000;1.0167;-5.1157;
516.0000;1.0175;-5.1131;
516.3000;1.0183;-5.1105;
516.6000;1.0167;-5.1105;
516.9000;1.0183;-5.1131;
517.2000;1.0191;-5.1105;
517.5000;1.0175;-5.1157;
517.8000;1.0175;-5.1131;
518.1000;1.0175;-5.1079;
518.4000;1.0183;-5.1131;
518.7000;1.0191;-5.1105;
519.0000;1.0142;-5.1209;
519.3000;1.0159;-5.1209;
519.6000;1.0167;-5.1183;
519.9000;1.0191;-5.1002;
520.2000;1.0175;-5.0898;
520.5000;1.0167;-5.0976;
520.8000;1.0167;-5.1053;
521.1000;1.0167;-5.1105;
521.4000;1.0175;-5.1053;
521.7000;1.0175;-5.1079;
522.0000;1.0167;-5.1183;
522.3000;1.0151;-5.1312;
522.6000;1.0175;-5.1312;
522.9000;1.0183;-5.1338;
523.2000;1.0167;-5.1390;
523.5000;1.0167;-5.1390;
523.8000;1.0191;-5.1261;
524.1000;1.0183;-5.1312;
524.4000;1.0183;-5.1338;
524.7000;1.0159;-5.1390;
525.0000;1.0167;-5.1416;
525.3000;1.0191;-5.1312;
525.6000;1.0183;-5.1338;
525.9000;1.0159;-5.1312;
526.2000;1.0191;-5.1235;
526.5000;1.0199;-5.1235;
526.8000;1.0183;-5.1183;
527.1000;1.0175;-5.1261;
527.4000;1.0183;-5.1209;
527.7000;1.0183;-5.1261;
528.0000;1.0191;-5.1287;
528.3000;1.0102;-5.1494;
528.6000;1.0167;-5.1209;
528.9000;1.0183;-5.1131;
529.2000;1.0183;-5.1157;
529.5000;1.0183;-5.1157;
529.8000;1.0159;-5.1209;
530.1000;1.0175;-5.1183;
530.4000;1.0183;-5.1183;
530.7000;1.0175;-5.1157;
531.0000;1.0175;-5.1157;
531.3000;1.0142;-5.1209;
531.6000;1.0183;-5.1131;
531.9000;1.0167;-5.1131;
532.2000;1.0183;-5.1157;
532.5000;1.0175;-5.1131;
532.8000;1.0175;-5.1105;
533.1000;1.0183;-5.1053;
533.4000;1.0167;-5.1131;
533.7000;1.0183;-5.1079;
534.0000;1.0183;-5.1079;
534.3000;1.0183;-5.1028;
534.6000;1.0167;-5.1053;
534.9000;1.0167;-5.1079;
535.2000;1.0175;-5.0976;
535.5000;1.0191;-5.0924;
535.8000;1.0151;-5.1053;
536.1000;1.0167;-5.1105;
536.4000;1.0240;-5.0872;
536.7000;1.0175;-5.1028;
537.0000;1.0175;-5.1053;
537.3000;1.0175;-5.1131;
537.6000;1.0175;-5.1131;
537.9000;1.0183;-5.0976;
538.2000;1.0175;-5.0898;
538.5000;1.0183;-5.0898;
538.8000;1.0159;-5.1002;
539.1000;1.0175;-5.1053;
539.4000;1.0175;-5.1079;
539.7000;1.0167;-5.1105;
540.0000;1.0183;-5.1105;
540.3000;1.0175;-5.1183;
540.6000;1.0183;-5.1209;
540.9000;1.0094;-5.1416;
541.2000;1.0175;-5.1157;
541.5000;1.0175;-5.1079;
541.8000;1.0191;-5.1105;
542.1000;1.0216;-5.1079;
542.4000;1.0191;-5.1079;
542.7000;1.0175;-5.1028;
543.0000;1.0175;-5.0950;
543.3000;1.0183;-5.0846;
543.6000;1.0191;-5.0794;
543.9000;1.0159;-5.0872;
544.2000;1.0175;-5.0950;
544.5000;1.0175;-5.0872;
544.8000;1.0159;-5.0872;
545.1000;1.0151;-5.0950;
545.4000;1.0151;-5.1002;
545.7000;1.0159;-5.1028;
546.0000;1.0175;-5.0950;
546.3000;1.0167;-5.0794;
546.6000;1.0175;-5.0820;
546.9000;1.0118;-5.1002;
547.2000;1.0167;-5.0872;
547.5000;1.0134;-5.0976;
547.8000;1.0167;-5.0872;
548.1000;1.0183;-5.0898;
548.4000;1.0183;-5.0924;
548.7000;1.0159;-5.0924;
549.0000;1.0175;-5.1053;
549.3000;1.0199;-5.0950;
549.6000;1.0191;-5.1105;
549.9000;1.0191;-5.1053;
550.2000;1.0191;-5.1079;
550.5000;1.0183;-5.1079;
550.8000;1.0183;-5.1105;
551.1000;1.0167;-5.1053;
551.4000;1.0126;-5.1028;
551.7000;1.0167;-5.0950;
552.0000;1.0183;-5.0872;
552.3000;1.0167;-5.0872;
552.6000;1.0159;-5.0976;
552.9000;1.0134;-5.0976;
553.2000;1.0175;-5.0898;
553.5000;1.0175;-5.0950;
553.8000;1.0175;-5.1002;
554.1000;1.0232;-5.0794;
554.4000;1.0175;-5.0898;
554.7000;1.0183;-5.0898;
555.0000;1.0134;-5.0976;
555.3000;1.0167;-5.0898;
555.6000;1.0175;-5.0924;
555.9000;1.0175;-5.0950;
556.2000;1.0110;-5.1235;
556.5000;1.0159;-5.1028;
556.8000;1.0142;-5.1002;
557.1000;1.0159;-5.1002;
557.4000;1.0256;-5.0743;
557.7000;1.0142;-5.0976;
558.0000;1.0151;-5.1028;
558.3000;1.0248;-5.0820;
558.6000;1.0159;-5.1028;
558.9000;1.0208;-5.0950;
559.2000;1.0159;-5.1105;
559.5000;1.0167;-5.1028;
559.8000;1.0183;-5.1028;
560.1000;1.0167;-5.1053;
560.4000;1.0183;-5.0976;
560.7000;1.0167;-5.0950;
561.0000;1.0183;-5.0950;
561.3000;1.0134;-5.1053;
561.6000;1.0159;-5.0950;
561.9000;1.0142;-5.1028;
562.2000;1.0175;-5.1028;
562.5000;1.0183;-5.1028;
562.8000;1.0199;-5.1002;
563.1000;1.0183;-5.1131;
563.4000;1.0183;-5.1131;
563.7000;1.0183;-5.1157;
564.0000;1.0167;-5.1209;
564.3000;1.0183;-5.1157;
564.6000;1.0175;-5.1157;
564.9000;1.0142;-5.1235;
565.2000;1.0167;-5.1131;
565.5000;1.0183;-5.1079;
565.8000;1.0191;-5.0950;
566.1000;1.0167;-5.0976;
566.4000;1.0151;-5.1028;
566.7000;1.0159;-5.1053;
567.0000;1.0142;-5.1105;
567.3000;1.0183;-5.1028;
567.6000;1.0159;-5.1079;
567.9000;1.0159;-5.1079;
568.2000;1.0151;-5.1079;
568.5000;1.0167;-5.0976;
568.8000;1.0159;-5.0950;
569.1000;1.0159;-5.1002;
569.4000;1.0167;-5.0898;
569.7000;1.0167;-5.0898;
570.0000;1.0175;-5.0950;
570.3000;1.0183;-5.1002;
570.6000;1.0175;-5.1053;
570.9000;1.0167;-5.1079;
571.2000;1.0159;-5.1157;
571.5000;1.0151;-5.1131;
571.8000;1.0167;-5.1053;
572.1000;1.0167;-5.1053;
572.4000;1.0175;-5.1002;
572.7000;1.0175;-5.1002;
573.0000;1.0159;-5.1002;
573.3000;1.0175;-5.0924;
573.6000;1.0151;-5.1028;
573.9000;1.0183;-5.0898;
574.2000;1.0183;-5.0924;
574.5000;1.0175;-5.0976;
574.8000;1.0175;-5.1053;
575.1000;1.0199;-5.0976;
575.4000;1.0183;-5.1053;
575.7000;1.0175;-5.1053;
576.0000;1.0183;-5.1105;
576.3000;1.0175;-5.1131;
576.6000;1.0175;-5.1131;
576.9000;1.0134;-5.1157;
577.2000;1.0167;-5.0950;
577.5000;1.0175;-5.1002;
577.8000;1.0248;-5.0872;
578.1000;1.0134;-5.1131;
578.4000;1.0208;-5.0976;
578.7000;1.0175;-5.1079;
579.0000;1.0175;-5.1079;
579.3000;1.0183;-5.1053;
579.6000;1.0167;-5.1028;
579.9000;1.0175;-5.1002;
580.2000;1.0175;-5.1028;
580.5000;1.0175;-5.1131;
580.8000;1.0167;-5.1235;
581.1000;1.0167;-5.1235;
581.4000;1.0183;-5.1131;
581.7000;1.0175;-5.1079;
582.0000;1.0175;-5.1131;
582.3000;1.0142;-5.1157;
582.6000;1.0159;-5.1079;
582.9000;1.0142;-5.1131;
583.2000;1.0151;-5.1183;
583.5000;1.0142;-5.1209;
583.8000;1.0167;-5.1235;
584.1000;1.0159;-5.1287;
584.4000;1.0159;-5.1235;
584.7000;1.0159;-5.1157;
585.0000;1.0159;-5.1131;
585.3000;1.0224;-5.1002;
585.6000;1.0159;-5.1157;
585.9000;1.0167;-5.1183;
586.2000;1.0167;-5.1209;
586.5000;1.0167;-5.1287;
586.8000;1.0175;-5.1209;
587.1000;1.0167;-5.1157;
587.4000;1.0175;-5.1105;
587.7000;1.0151;-5.1183;
588.0000;1.0151;-5.1235;
588.3000;1.0175;-5.1131;
588.6000;1.0159;-5.1235;
588.9000;1.0183;-5.1209;
589.2000;1.0167;-5.1235;
589.5000;1.0167;-5.1235;
589.8000;1.0151;-5.1312;
590.1000;1.0167;-5.1312;
590.4000;1.0175;-5.1287;
590.7000;1.0191;-5.1287;
591.0000;1.0175;-5.1287;
591.3000;1.0175;-5.1312;
591.6000;1.0118;-5.1364;
591.9000;1.0159;-5.1235;
592.2000;1.0159;-5.1235;
592.5000;1.0142;-5.1235;
592.8000;1.0142;-5.1287;
593.1000;1.0159;-5.1183;
593.4000;1.0167;-5.1183;
593.7000;1.0151;-5.1235;
594.0000;1.0159;-5.1157;
594.3000;1.0167;-5.1157;
594.6000;1.0134;-5.1287;
594.9000;1.0151;-5.1209;
595.2000;1.0159;-5.1261;
595.5000;1.0167;-5.1312;
595.8000;1.0216;-5.1183;
596.1000;1.0159;-5.1235;
596.4000;1.0094;-5.1364;
596.7000;1.0159;-5.1157;
597.0000;1.0159;-5.1157;
597.3000;1.0151;-5.1183;
597.6000;1.0289;-5.0898;
597.9000;1.0151;-5.1235;
598.2000;1.0167;-5.1209;
598.5000;1.0142;-5.1209;
598.8000;1.0183;-5.1183;
599.1000;1.0175;-5.1131;
599.4000;1.0151;-5.1131;
599.7000;1.0183;-5.1079;
600.0000;1.0159;-5.1209;
600.3000;1.0151;-5.1390;
600.6000;1.0134;-5.1520;
600.9000;1.0094;-5.1701;
601.2000;1.0012;-5.1986;
601.5000;0.9955;-5.2219;
601.8000;0.9906;-5.2400;
602.1000;0.9809;-5.2789;
602.4000;0.9703;-5.3074;
602.7000;0.9630;-5.3307;
603.0000;0.9565;-5.3411;
603.3000;0.9467;-5.3618;
603.6000;0.9426;-5.3695;
603.9000;0.9361;-5.3954;
604.2000;0.9312;-5.4058;
604.5000;0.9263;-5.4162;
604.8000;0.9198;-5.4265;
605.1000;0.9158;-5.4369;
605.4000;0.9084;-5.4524;
605.7000;0.9052;-5.4576;
606.0000;0.9019;-5.4602;
606.3000;0.8962;-5.4680;
606.6000;0.8930;-5.4732;
606.9000;0.8897;-5.4809;
607.2000;0.8856;-5.4913;
607.5000;0.8799;-5.4991;
607.8000;0.8767;-5.5016;
608.1000;0.8734;-5.5042;
608.4000;0.8718;-5.5068;
608.7000;0.8677;-5.5094;
609.0000;0.8628;-5.5094;
609.3000;0.8620;-5.5068;
609.6000;0.8588;-5.5068;
609.9000;0.8506;-5.5146;
610.2000;0.8523;-5.5094;
610.5000;0.8498;-5.5146;
610.8000;0.8490;-5.5094;
611.1000;0.8425;-5.5146;
611.4000;0.8417;-5.5120;
611.7000;0.8392;-5.5250;
612.0000;0.8352;-5.5250;
612.3000;0.8344;-5.5353;
612.6000;0.8303;-5.5457;
612.9000;0.8295;-5.5431;
613.2000;0.8262;-5.5483;
613.5000;0.8238;-5.5483;
613.8000;0.8230;-5.5535;
614.1000;0.8197;-5.5560;
614.4000;0.8181;-5.5586;
614.7000;0.8148;-5.5586;
615.0000;0.8140;-5.5586;
615.3000;0.8132;-5.5560;
615.6000;0.8099;-5.5586;
615.9000;0.8091;-5.5560;
616.2000;0.8083;-5.5560;
616.5000;0.8050;-5.5586;
616.8000;0.8010;-5.5690;
617.1000;0.8010;-5.5612;
617.4000;0.8026;-5.5560;
617.7000;0.7977;-5.5638;
618.0000;0.7961;-5.5664;
618.3000;0.7912;-5.5742;
618.6000;0.7945;-5.5690;
618.9000;0.7896;-5.5742;
619.2000;0.7896;-5.5845;
619.5000;0.7888;-5.5794;
619.8000;0.7871;-5.5819;
620.1000;0.7871;-5.5819;
620.4000;0.7806;-5.5923;
620.7000;0.7831;-5.5819;
621.0000;0.7863;-5.5612;
621.3000;0.7774;-5.5819;
621.6000;0.7855;-5.5586;
621.9000;0.7774;-5.5690;
622.2000;0.7774;-5.5690;
622.5000;0.7652;-5.5949;
622.8000;0.7741;-5.5638;
623.1000;0.7774;-5.5586;
623.4000;0.7782;-5.5535;
623.7000;0.7717;-5.5664;
624.0000;0.7700;-5.5716;
624.3000;0.7684;-5.5664;
624.6000;0.7660;-5.5638;
624.9000;0.7652;-5.5638;
625.2000;0.7668;-5.5586;
625.5000;0.7643;-5.5664;
625.8000;0.7700;-5.5586;
626.1000;0.7595;-5.5768;
626.4000;0.7595;-5.5871;
626.7000;0.7595;-5.5975;
627.0000;0.7570;-5.6053;
627.3000;0.7578;-5.5923;
627.6000;0.7578;-5.6001;
627.9000;0.7595;-5.5871;
628.2000;0.7481;-5.6156;
628.5000;0.7530;-5.6078;
628.8000;0.7513;-5.6053;
629.1000;0.7505;-5.6053;
629.4000;0.7505;-5.6001;
629.7000;0.7497;-5.6053;
630.0000;0.7489;-5.6078;
630.3000;0.7489;-5.6078;
630.6000;0.7481;-5.6104;
630.9000;0.7464;-5.6156;
631.2000;0.7464;-5.6156;
631.5000;0.7464;-5.6130;
631.8000;0.7456;-5.6130;
632.1000;0.7432;-5.6182;
632.4000;0.7432;-5.6156;
632.7000;0.7448;-5.6130;
633.0000;0.7424;-5.6053;
633.3000;0.7407;-5.6078;
633.6000;0.7391;-5.6053;
633.9000;0.7391;-5.6078;
634.2000;0.7375;-5.6027;
634.5000;0.7334;-5.6053;
634.8000;0.7359;-5.5975;
635.1000;0.7375;-5.6001;
635.4000;0.7383;-5.5923;
635.7000;0.7367;-5.5923;
636.0000;0.7350;-5.5975;
636.3000;0.7334;-5.5949;
636.6000;0.7310;-5.6053;
636.9000;0.7302;-5.6130;
637.2000;0.7318;-5.6130;
637.5000;0.7318;-5.6182;
637.8000;0.7293;-5.6182;
638.1000;0.7285;-5.6208;
638.4000;0.7269;-5.6234;
638.7000;0.7285;-5.6130;
639.0000;0.7277;-5.6078;
639.3000;0.7261;-5.6001;
639.6000;0.7236;-5.6027;
639.9000;0.7228;-5.6078;
640.2000;0.7285;-5.6027;
640.5000;0.7245;-5.6104;
640.8000;0.7236;-5.6078;
641.1000;0.7245;-5.6130;
641.4000;0.7228;-5.6078;
641.7000;0.7212;-5.6104;
642.0000;0.7204;-5.6053;
642.3000;0.7188;-5.6078;
642.6000;0.7196;-5.6130;
642.9000;0.7188;-5.6156;
643.2000;0.7188;-5.6104;
643.5000;0.7179;-5.6078;
643.8000;0.7228;-5.6027;
644.1000;0.7228;-5.5975;
644.4000;0.7147;-5.6156;
644.7000;0.7147;-5.6130;
645.0000;0.7171;-5.6156;
645.3000;0.7155;-5.6130;
645.6000;0.7139;-5.6182;
645.9000;0.7171;-5.6078;
646.2000;0.7155;-5.6182;
646.5000;0.7147;-5.6208;
646.8000;0.7114;-5.6182;
647.1000;0.7123;-5.6104;
647.4000;0.7098;-5.6156;
647.7000;0.7114;-5.6130;
648.0000;0.7106;-5.6130;
648.3000;0.7123;-5.5975;
648.6000;0.7098;-5.6053;
648.9000;0.7033;-5.6182;
649.2000;0.7114;-5.5949;
649.5000;0.7074;-5.6001;
649.8000;0.7090;-5.6027;
650.1000;0.7074;-5.6027;
650.4000;0.7074;-5.6078;
650.7000;0.6992;-5.6286;
651.0000;0.7074;-5.6078;
651.3000;0.7057;-5.6156;
651.6000;0.7041;-5.6130;
651.9000;0.7090;-5.5949;
652.2000;0.7025;-5.6078;
652.5000;0.7033;-5.6130;
652.8000;0.7017;-5.6156;
653.1000;0.7041;-5.6104;
653.4000;0.7017;-5.6104;
653.7000;0.6992;-5.6130;
654.0000;0.6976;-5.6208;
654.3000;0.7009;-5.6130;
654.6000;0.7000;-5.6104;
654.9000;0.7000;-5.6053;
655.2000;0.6992;-5.6104;
655.5000;0.6992;-5.6104;
655.8000;0.7000;-5.6182;
656.1000;0.6976;-5.6260;
656.4000;0.6992;-5.6130;
656.7000;0.6968;-5.6156;
657.0000;0.6992;-5.6027;
657.3000;0.6935;-5.6156;
657.6000;0.7009;-5.6001;
657.9000;0.6960;-5.6104;
658.2000;0.6960;-5.6053;
658.5000;0.6952;-5.6208;
658.8000;0.6935;-5.6182;
659.1000;0.6935;-5.6130;
659.4000;0.6943;-5.6053;
659.7000;0.6935;-5.6053;
660.0000;0.6935;-5.6027;
660.3000;0.6911;-5.6130;
660.6000;0.6935;-5.5949;
660.9000;0.6895;-5.6053;
661.2000;0.6919;-5.6001;
661.5000;0.6895;-5.6104;
661.8000;0.6927;-5.6104;
662.1000;0.6968;-5.6053;
662.4000;0.6911;-5.6234;
662.7000;0.6895;-5.6156;
663.0000;0.6886;-5.6130;
663.3000;0.6903;-5.6130;
663.6000;0.6886;-5.6208;
663.9000;0.6838;-5.6286;
664.2000;0.6886;-5.6156;
664.5000;0.6878;-5.6208;
664.8000;0.6886;-5.6260;
665.1000;0.6870;-5.6363;
665.4000;0.6862;-5.6337;
665.7000;0.6846;-5.6337;
666.0000;0.6862;-5.6234;
666.3000;0.6854;-5.6182;
666.6000;0.6854;-5.6130;
666.9000;0.6846;-5.6156;
667.2000;0.6870;-5.6078;
667.5000;0.6862;-5.6078;
667.8000;0.6846;-5.6182;
668.1000;0.6854;-5.6234;
668.4000;0.6805;-5.6208;
668.7000;0.6821;-5.6208;
669.0000;0.6829;-5.6130;
669.3000;0.6838;-5.6156;
669.6000;0.6805;-5.6130;
669.9000;0.6829;-5.6130;
670.2000;0.6797;-5.6182;
670.5000;0.6797;-5.6208;
670.8000;0.6764;-5.6337;
671.1000;0.6797;-5.6260;
671.4000;0.6789;-5.6260;
671.7000;0.6805;-5.6104;
672.0000;0.6805;-5.6182;
672.3000;0.6797;-5.6182;
672.6000;0.6789;-5.6182;
672.9000;0.6764;-5.6260;
673.2000;0.6797;-5.6208;
673.5000;0.6789;-5.6156;
673.8000;0.6789;-5.6156;
674.1000;0.6748;-5.6182;
674.4000;0.6756;-5.6156;
674.7000;0.6772;-5.6104;
675.0000;0.6748;-5.6208;
675.3000;0.6764;-5.6260;
675.6000;0.6748;-5.6312;
675.9000;0.6772;-5.6208;
676.2000;0.6740;-5.6312;
676.5000;0.6748;-5.6312;
676.8000;0.6724;-5.6286;
677.1000;0.6748;-5.6182;
677.4000;0.6740;-5.6156;
677.7000;0.6740;-5.6208;
678.0000;0.6732;-5.6208;
678.3000;0.6716;-5.6104;
678.6000;0.6732;-5.6027;
678.9000;0.6748;-5.5949;
679.2000;0.6716;-5.6001;
679.5000;0.6707;-5.5975;
679.8000;0.6699;-5.6104;
680.1000;0.6699;-5.6130;
680.4000;0.6691;-5.6104;
680.7000;0.6699;-5.6156;
681.0000;0.6683;-5.6260;
681.3000;0.6724;-5.6182;
681.6000;0.6699;-5.6286;
681.9000;0.6699;-5.6234;
682.2000;0.6683;-5.6286;
682.5000;0.6724;-5.6104;
682.8000;0.6683;-5.6130;
683.1000;0.6683;-5.6156;
683.4000;0.6675;-5.6208;
683.7000;0.6667;-5.6234;
684.0000;0.6659;-5.6312;
684.3000;0.6667;-5.6363;
684.6000;0.6659;-5.6467;
684.9000;0.6683;-5.6415;
685.2000;0.6667;-5.6363;
685.5000;0.6659;-5.6312;
685.8000;0.6642;-5.6337;
686.1000;0.6650;-5.6208;
686.4000;0.6642;-5.6234;
686.7000;0.6650;-5.6208;
687.0000;0.6642;-5.6130;
687.3000;0.6634;-5.6053;
687.6000;0.6659;-5.6053;
687.9000;0.6659;-5.6027;
688.2000;0.6626;-5.6078;
688.5000;0.6626;-5.6053;
688.8000;0.6610;-5.6053;
689.1000;0.6626;-5.6053;
689.4000;0.6618;-5.6053;
689.7000;0.6602;-5.6130;
690.0000;0.6634;-5.6078;
690.3000;0.6610;-5.6130;
690.6000;0.6602;-5.6104;
690.9000;0.6602;-5.6234;
691.2000;0.6610;-5.6337;
691.5000;0.6610;-5.6337;
691.8000;0.6553;-5.6389;
692.1000;0.6593;-5.6415;
692.4000;0.6650;-5.6286;
692.7000;0.6593;-5.6337;
693.0000;0.6618;-5.6208;
693.3000;0.6602;-5.6208;
693.6000;0.6593;-5.6182;
693.9000;0.6593;-5.6104;
694.2000;0.6553;-5.6104;
694.5000;0.6577;-5.5949;
694.8000;0.6585;-5.5975;
695.1000;0.6569;-5.6078;
695.4000;0.6593;-5.5923;
695.7000;0.6577;-5.5975;
696.0000;0.6561;-5.6001;
696.3000;0.6569;-5.5975;
696.6000;0.6561;-5.5975;
696.9000;0.6561;-5.5923;
697.2000;0.6520;-5.5975;
697.5000;0.6545;-5.5923;
697.8000;0.6561;-5.5897;
698.1000;0.6512;-5.6001;
698.4000;0.6545;-5.5975;
698.7000;0.6536;-5.5975;
699.0000;0.6536;-5.5897;
699.3000;0.6545;-5.5871;
699.6000;0.6536;-5.5871;
699.9000;0.6545;-5.5897;
700.2000;0.6528;-5.5897;
700.5000;0.6536;-5.5923;
700.8000;0.6528;-5.5975;
701.1000;0.6520;-5.5975;
701.4000;0.6528;-5.5975;
701.7000;0.6512;-5.6104;
702.0000;0.6553;-5.6001;
702.3000;0.6528;-5.6130;
702.6000;0.6512;-5.6260;
702.9000;0.6528;-5.6234;
703.2000;0.6528;-5.6234;
703.5000;0.6545;-5.6234;
703.8000;0.6512;-5.6260;
704.1000;0.6528;-5.6234;
704.4000;0.6512;-5.6234;
704.7000;0.6553;-5.5975;
705.0000;0.6504;-5.6027;
705.3000;0.6520;-5.5949;
705.6000;0.6569;-5.5794;
705.9000;0.6520;-5.5871;
706.2000;0.6504;-5.5923;
706.5000;0.6512;-5.5845;
706.8000;0.6496;-5.5949;
707.1000;0.6496;-5.5975;
707.4000;0.6496;-5.5897;
707.7000;0.6488;-5.6001;
708.0000;0.6479;-5.6001;
708.3000;0.6520;-5.5923;
708.6000;0.6496;-5.6001;
708.9000;0.6471;-5.6104;
709.2000;0.6496;-5.6027;
709.5000;0.6536;-5.5819;
709.8000;0.6455;-5.6001;
710.1000;0.6455;-5.6027;
710.4000;0.6488;-5.5949;
710.7000;0.6463;-5.5923;
711.0000;0.6463;-5.5949;
711.3000;0.6471;-5.5949;
711.6000;0.6479;-5.5923;
711.9000;0.6463;-5.6001;
712.2000;0.6455;-5.6078;
712.5000;0.6414;-5.6104;
712.8000;0.6463;-5.6027;
713.1000;0.6496;-5.5949;
713.4000;0.6455;-5.6027;
713.7000;0.6463;-5.5975;
714.0000;0.6463;-5.6027;
714.3000;0.6447;-5.6053;
714.6000;0.6455;-5.6130;
714.9000;0.6447;-5.6182;
715.2000;0.6455;-5.6156;
715.5000;0.6447;-5.6182;
715.8000;0.6431;-5.6156;
716.1000;0.6431;-5.6156;
716.4000;0.6374;-5.6312;
716.7000;0.6398;-5.6260;
717.0000;0.6447;-5.6053;
717.3000;0.6431;-5.6001;
717.6000;0.6406;-5.6027;
717.9000;0.6414;-5.6001;
718.2000;0.6439;-5.6027;
718.5000;0.6431;-5.6027;
718.8000;0.6414;-5.5975;
719.1000;0.6406;-5.5975;
719.4000;0.6422;-5.5949;
719.7000;0.6406;-5.5897;
720.0000;0.6390;-5.5845;
720.3000;0.6447;-5.5742;
720.6000;0.6414;-5.5742;
720.9000;0.6447;-5.5690;
721.2000;0.6398;-5.5794;
721.5000;0.6390;-5.5897;
721.8000;0.6398;-5.5949;
722.1000;0.6414;-5.6001;
722.4000;0.6431;-5.5949;
722.7000;0.6398;-5.5975;
723.0000;0.6406;-5.5768;
723.3000;0.6390;-5.5794;
723.6000;0.6374;-5.5871;
723.9000;0.6382;-5.5975;
724.2000;0.6382;-5.6001;
724.5000;0.6398;-5.5949;
724.8000;0.6398;-5.5975;
725.1000;0.6398;-5.5949;
725.4000;0.6414;-5.5897;
725.7000;0.6390;-5.5949;
726.0000;0.6398;-5.5845;
726.3000;0.6390;-5.5871;
726.6000;0.6374;-5.5845;
726.9000;0.6398;-5.5871;
727.2000;0.6374;-5.5949;
727.5000;0.6357;-5.5923;
727.8000;0.6357;-5.5923;
728.1000;0.6365;-5.5923;
728.4000;0.6349;-5.5871;
728.7000;0.6374;-5.5871;
729.0000;0.6357;-5.5897;
729.3000;0.6357;-5.5819;
729.6000;0.6365;-5.5794;
729.9000;0.6374;-5.5871;
730.2000;0.6357;-5.5897;
730.5000;0.6349;-5.6027;
730.8000;0.6365;-5.5975;
731.1000;0.6365;-5.5923;
731.4000;0.6382;-5.5923;
731.7000;0.6333;-5.6078;
732.0000;0.6341;-5.6027;
732.3000;0.6341;-5.6001;
732.6000;0.6365;-5.5871;
732.9000;0.6333;-5.5923;
733.2000;0.6357;-5.5871;
733.5000;0.6374;-5.5794;
733.8000;0.6341;-5.5871;
734.1000;0.6357;-5.5819;
734.4000;0.6365;-5.5716;
734.7000;0.6333;-5.5794;
735.0000;0.6349;-5.5742;
735.3000;0.6300;-5.5794;
735.6000;0.6357;-5.5845;
735.9000;0.6309;-5.6027;
736.2000;0.6398;-5.5845;
736.5000;0.6357;-5.5949;
736.8000;0.6325;-5.6104;
737.1000;0.6333;-5.6053;
737.4000;0.6357;-5.5897;
737.7000;0.6333;-5.6001;
738.0000;0.6325;-5.6053;
738.3000;0.6390;-5.5871;
738.6000;0.6341;-5.6078;
738.9000;0.6325;-5.6156;
739.2000;0.6317;-5.6104;
739.5000;0.6349;-5.6001;
739.8000;0.6325;-5.6053;
740.1000;0.6333;-5.6053;
740.4000;0.6309;-5.6001;
740.7000;0.6227;-5.6130;
741.0000;0.6317;-5.5845;
741.3000;0.6365;-5.5664;
741.6000;0.6325;-5.5794;
741.9000;0.6292;-5.5845;
742.2000;0.6349;-5.5794;
742.5000;0.6317;-5.5871;
742.8000;0.6260;-5.6053;
743.1000;0.6292;-5.6001;
743.4000;0.6300;-5.5975;
743.7000;0.6317;-5.5871;
744.0000;0.6211;-5.6104;
744.3000;0.6390;-5.5742;
744.6000;0.6268;-5.6001;
744.9000;0.6292;-5.5975;
745.2000;0.6284;-5.6053;
745.5000;0.6268;-5.6156;
745.8000;0.6284;-5.6156;
746.1000;0.6284;-5.6078;
746.4000;0.6276;-5.6078;
746.7000;0.6276;-5.6104;
747.0000;0.6252;-5.6182;
747.3000;0.6292;-5.6156;
747.6000;0.6276;-5.6234;
747.9000;0.6276;-5.6260;
748.2000;0.6268;-5.6312;
748.5000;0.6235;-5.6363;
748.8000;0.6260;-5.6363;
749.1000;0.6243;-5.6312;
749.4000;0.6260;-5.6182;
749.7000;0.6268;-5.6156;
750.0000;0.6260;-5.6130;
750.3000;0.6292;-5.6027;
750.6000;0.6276;-5.6104;
750.9000;0.6260;-5.6208;
751.2000;0.6252;-5.6234;
751.5000;0.6276;-5.6130;
751.8000;0.6268;-5.6156;
752.1000;0.6268;-5.6130;
752.4000;0.6260;-5.6130;
752.7000;0.6235;-5.6104;
753.0000;0.6235;-5.6053;
753.3000;0.6235;-5.6078;
753.6000;0.6235;-5.6001;
753.9000;0.6227;-5.6027;
754.2000;0.6235;-5.6027;
754.5000;0.6227;-5.6104;
754.8000;0.6227;-5.6104;
755.1000;0.6235;-5.6130;
755.4000;0.6227;-5.6104;
755.7000;0.6235;-5.6078;
756.0000;0.6235;-5.6078;
756.3000;0.6235;-5.5975;
756.6000;0.6219;-5.5975;
756.9000;0.6227;-5.5975;
757.2000;0.6284;-5.5819;
757.5000;0.6219;-5.5923;
757.8000;0.6227;-5.5897;
758.1000;0.6235;-5.5871;
758.4000;0.6219;-5.5949;
758.7000;0.6219;-5.5923;
759.0000;0.6219;-5.5975;
759.3000;0.6235;-5.5871;
759.6000;0.6260;-5.5794;
759.9000;0.6219;-5.5871;
760.2000;0.6252;-5.5794;
760.5000;0.6227;-5.5923;
760.8000;0.6227;-5.5897;
761.1000;0.6227;-5.5897;
761.4000;0.6219;-5.5949;
761.7000;0.6219;-5.5897;
762.0000;0.6219;-5.5975;
762.3000;0.6203;-5.6104;
762.6000;0.6243;-5.5949;
762.9000;0.6219;-5.5897;
763.2000;0.6211;-5.5923;
763.5000;0.6227;-5.5871;
763.8000;0.6203;-5.5949;
764.1000;0.6211;-5.5897;
764.4000;0.6186;-5.5897;
764.7000;0.6211;-5.5845;
765.0000;0.6203;-5.5949;
765.3000;0.6227;-5.5897;
765.6000;0.6227;-5.6027;
765.9000;0.6203;-5.6053;
766.2000;0.6203;-5.6053;
766.5000;0.6203;-5.6104;
766.8000;0.6211;-5.5975;
767.1000;0.6203;-5.5975;
767.4000;0.6195;-5.5949;
767.7000;0.6203;-5.6001;
768.0000;0.6211;-5.6001;
768.3000;0.6203;-5.5975;
768.6000;0.6186;-5.6027;
768.9000;0.6178;-5.6053;
769.2000;0.6203;-5.5975;
769.5000;0.6195;-5.5975;
769.8000;0.6178;-5.5949;
770.1000;0.6195;-5.5949;
770.4000;0.6195;-5.5923;
770.7000;0.6203;-5.5897;
771.0000;0.6195;-5.5871;
771.3000;0.6195;-5.5845;
771.6000;0.6178;-5.5949;
771.9000;0.6195;-5.5897;
772.2000;0.6170;-5.5949;
772.5000;0.6170;-5.5923;
772.8000;0.6178;-5.5923;
773.1000;0.6186;-5.5949;
773.4000;0.6178;-5.5871;
773.7000;0.6186;-5.5949;
774.0000;0.6178;-5.5897;
774.3000;0.6162;-5.5819;
774.6000;0.6227;-5.5586;
774.9000;0.6170;-5.5742;
775.2000;0.6170;-5.5794;
775.5000;0.6186;-5.5845;
775.8000;0.6178;-5.5794;
776.1000;0.6170;-5.5871;
776.4000;0.6186;-5.5845;
776.7000;0.6170;-5.5794;
777.0000;0.6186;-5.5742;
777.3000;0.6170;-5.5716;
777.6000;0.6146;-5.5768;
777.9000;0.6162;-5.5819;
778.2000;0.6170;-5.5871;
778.5000;0.6170;-5.5794;
778.8000;0.6178;-5.5819;
779.1000;0.6105;-5.6001;
779.4000;0.6146;-5.5819;
779.7000;0.6162;-5.5794;
780.0000;0.6154;-5.5794;
780.3000;0.6154;-5.5845;
780.6000;0.6162;-5.5819;
780.9000;0.6154;-5.5794;
781.2000;0.6154;-5.5845;
781.5000;0.6162;-5.5845;
781.8000;0.6162;-5.5742;
782.1000;0.6162;-5.5690;
782.4000;0.6146;-5.5794;
782.7000;0.6138;-5.5845;
783.0000;0.6154;-5.5871;
783.3000;0.6138;-5.5742;
783.6000;0.6162;-5.5690;
783.9000;0.6121;-5.5845;
784.2000;0.6138;-5.5794;
784.5000;0.6121;-5.5819;
784.8000;0.6170;-5.5742;
785.1000;0.6162;-5.5794;
785.4000;0.6121;-5.6001;
785.7000;0.6170;-5.5923;
786.0000;0.6154;-5.5949;
786.3000;0.6138;-5.6001;
786.6000;0.6129;-5.6078;
786.9000;0.6129;-5.6130;
787.2000;0.6154;-5.6078;
787.5000;0.6146;-5.6130;
787.8000;0.6138;-5.6156;
788.1000;0.6129;-5.6104;
788.4000;0.6113;-5.6208;
788.7000;0.6219;-5.5897;
789.0000;0.6146;-5.6001;
789.3000;0.6121;-5.6027;
789.6000;0.6129;-5.5897;
789.9000;0.6138;-5.5923;
790.2000;0.6146;-5.5897;
790.5000;0.6129;-5.5923;
790.8000;0.6162;-5.5845;
791.1000;0.6129;-5.5897;
791.4000;0.6121;-5.5871;
791.7000;0.6178;-5.5819;
792.0000;0.6129;-5.5949;
792.3000;0.6138;-5.6001;
792.6000;0.6138;-5.5975;
792.9000;0.6056;-5.6182;
793.2000;0.6121;-5.6053;
793.5000;0.6105;-5.5975;
793.8000;0.6121;-5.5923;
794.1000;0.6121;-5.5897;
794.4000;0.6105;-5.5949;
794.7000;0.6097;-5.5949;
795.0000;0.6113;-5.5845;
795.3000;0.6121;-5.5897;
795.6000;0.6113;-5.5975;
795.9000;0.6072;-5.6027;
796.2000;0.6113;-5.5897;
796.5000;0.6097;-5.5845;
796.8000;0.6121;-5.5871;
797.1000;0.6056;-5.6027;
797.4000;0.6105;-5.5949;
797.7000;0.6154;-5.5794;
798.0000;0.6105;-5.5923;
798.3000;0.6097;-5.5923;
798.6000;0.6105;-5.5871;
798.9000;0.6121;-5.5794;
799.2000;0.6138;-5.5794;
799.5000;0.6105;-5.5819;
799.8000;0.6121;-5.5794;
800.1000;0.6097;-5.5897;
800.4000;0.6105;-5.5819;
800.7000;0.6089;-5.5871;
801.0000;0.6129;-5.5845;
801.3000;0.6113;-5.5794;
801.6000;0.6113;-5.5742;
801.9000;0.6129;-5.5664;
802.2000;0.6129;-5.5664;
802.5000;0.6089;-5.5768;
802.8000;0.6097;-5.5819;
803.1000;0.6089;-5.5923;
803.4000;0.6121;-5.5923;
803.7000;0.6097;-5.5975;
804.0000;0.6089;-5.6001;
804.3000;0.6032;-5.6234;
804.6000;0.6089;-5.6156;
804.9000;0.6081;-5.6156;
805.2000;0.6097;-5.6156;
805.5000;0.6064;-5.6182;
805.8000;0.6105;-5.6053;
806.1000;0.6072;-5.6053;
806.4000;0.6121;-5.5897;
806.7000;0.6089;-5.6027;
807.0000;0.6081;-5.5949;
807.3000;0.6064;-5.5975;
807.6000;0.6081;-5.6001;
807.9000;0.6113;-5.5949;
808.2000;0.6081;-5.6078;
808.5000;0.6032;-5.6078;
808.8000;0.6040;-5.5975;
809.1000;0.6072;-5.5819;
809.4000;0.6064;-5.5794;
809.7000;0.6089;-5.5690;
810.0000;0.6064;-5.5819;
810.3000;0.6064;-5.5845;
810.6000;0.6056;-5.5897;
810.9000;0.6097;-5.5768;
811.2000;0.6089;-5.5845;
811.5000;0.6072;-5.5794;
811.8000;0.6081;-5.5768;
812.1000;0.6097;-5.5768;
812.4000;0.6024;-5.5897;
812.7000;0.6032;-5.5897;
813.0000;0.6081;-5.5742;
813.3000;0.6081;-5.5716;
813.6000;0.6081;-5.5690;
813.9000;0.6056;-5.5690;
814.2000;0.6121;-5.5535;
814.5000;0.6056;-5.5638;
814.8000;0.6032;-5.5664;
815.1000;0.6064;-5.5560;
815.4000;0.6056;-5.5612;
815.7000;0.6081;-5.5612;
816.0000;0.6072;-5.5664;
816.3000;0.6064;-5.5664;
816.6000;0.6064;-5.5586;
816.9000;0.6081;-5.5586;
817.2000;0.6064;-5.5586;
817.5000;0.6048;-5.5612;
817.8000;0.6064;-5.5716;
818.1000;0.6064;-5.5819;
818.4000;0.6056;-5.5794;
818.7000;0.6056;-5.5871;
819.0000;0.6064;-5.5742;
819.3000;0.6064;-5.5664;
819.6000;0.6056;-5.5638;
819.9000;0.6056;-5.5690;
820.2000;0.6040;-5.5638;
820.5000;0.6040;-5.5586;
820.8000;0.6040;-5.5560;
821.1000;0.6048;-5.5535;
821.4000;0.6032;-5.5664;
821.7000;0.6056;-5.5638;
822.0000;0.6048;-5.5612;
822.3000;0.6040;-5.5612;
822.6000;0.5991;-5.5845;
822.9000;0.6040;-5.5794;
823.2000;0.6072;-5.5664;
823.5000;0.6048;-5.5742;
823.8000;0.6040;-5.5716;
824.1000;0.6064;-5.5716;
824.4000;0.6064;-5.5742;
824.7000;0.6056;-5.5716;
825.0000;0.6040;-5.5742;
825.3000;0.6048;-5.5768;
825.6000;0.6048;-5.5742;
825.9000;0.6048;-5.5664;
826.2000;0.6015;-5.5690;
826.5000;0.5999;-5.5768;
826.8000;0.6048;-5.5716;
827.1000;0.6040;-5.5716;
827.4000;0.6032;-5.5716;
827.7000;0.6040;-5.5690;
828.0000;0.6040;-5.5664;
828.3000;0.6015;-5.5742;
828.6000;0.6032;-5.5664;
828.9000;0.6032;-5.5716;
829.2000;0.6032;-5.5690;
829.5000;0.6015;-5.5845;
829.8000;0.6040;-5.5742;
830.1000;0.6032;-5.5819;
830.4000;0.6048;-5.5742;
830.7000;0.6056;-5.5716;
831.0000;0.6024;-5.5742;
831.3000;0.6097;-5.5612;
831.6000;0.6024;-5.5768;
831.9000;0.6032;-5.5794;
832.2000;0.6024;-5.5716;
832.5000;0.6081;-5.5612;
832.8000;0.6032;-5.5690;
833.1000;0.6015;-5.5690;
833.4000;0.6024;-5.5638;
833.7000;0.5991;-5.5768;
834.0000;0.6015;-5.5742;
834.3000;0.6032;-5.5638;
834.6000;0.5999;-5.5716;
834.9000;0.6024;-5.5638;
835.2000;0.6015;-5.5612;
835.5000;0.6007;-5.5560;
835.8000;0.6032;-5.5612;
836.1000;0.6032;-5.5638;
836.4000;0.6007;-5.5638;
836.7000;0.6007;-5.5716;
837.0000;0.6024;-5.5690;
837.3000;0.6024;-5.5768;
837.6000;0.6032;-5.5742;
837.9000;0.6024;-5.5819;
838.2000;0.6056;-5.5690;
838.5000;0.6024;-5.5716;
838.8000;0.6032;-5.5690;
839.1000;0.6015;-5.5794;
839.4000;0.5991;-5.5949;
839.7000;0.6032;-5.5871;
840.0000;0.5967;-5.6027;
840.3000;0.6007;-5.5949;
840.6000;0.6024;-5.5923;
840.9000;0.6024;-5.5871;
841.2000;0.5999;-5.5923;
841.5000;0.6007;-5.6078;
841.8000;0.6007;-5.5975;
842.1000;0.6015;-5.5949;
842.4000;0.6015;-5.5923;
842.7000;0.5991;-5.5923;
843.0000;0.6007;-5.5897;
843.3000;0.6064;-5.5768;
843.6000;0.6007;-5.5897;
843.9000;0.6015;-5.5845;
844.2000;0.6007;-5.5871;
844.5000;0.5991;-5.5897;
844.8000;0.6024;-5.5871;
845.1000;0.5983;-5.5871;
845.4000;0.6024;-5.5768;
845.7000;0.6007;-5.5690;
846.0000;0.6007;-5.5664;
846.3000;0.5999;-5.5742;
846.6000;0.6007;-5.5742;
846.9000;0.5991;-5.5845;
847.2000;0.5983;-5.5845;
847.5000;0.6024;-5.5742;
847.8000;0.5999;-5.5819;
848.1000;0.5999;-5.5897;
848.4000;0.5999;-5.5845;
848.7000;0.6032;-5.5794;
849.0000;0.6007;-5.5819;
849.3000;0.6007;-5.5794;
849.6000;0.5958;-5.5871;
849.9000;0.5999;-5.5690;
850.2000;0.5999;-5.5664;
850.5000;0.5991;-5.5690;
850.8000;0.5991;-5.5794;
851.1000;0.5983;-5.5690;
851.4000;0.6024;-5.5612;
851.7000;0.5975;-5.5690;
852.0000;0.5983;-5.5664;
852.3000;0.5975;-5.5638;
852.6000;0.5999;-5.5638;
852.9000;0.5983;-5.5638;
853.2000;0.5999;-5.5638;
853.5000;0.5983;-5.5742;
853.8000;0.5999;-5.5768;
854.1000;0.6007;-5.5664;
854.4000;0.5983;-5.5690;
854.7000;0.5991;-5.5742;
855.0000;0.5991;-5.5742;
855.3000;0.5934;-5.5897;
855.6000;0.5991;-5.5871;
855.9000;0.5983;-5.5949;
856.2000;0.5983;-5.5897;
856.5000;0.5983;-5.5845;
856.8000;0.5975;-5.5819;
857.1000;0.5967;-5.5819;
857.4000;0.5983;-5.5845;
857.7000;0.5958;-5.5819;
858.0000;0.5975;-5.5690;
858.3000;0.5983;-5.5845;
858.6000;0.5975;-5.5819;
858.9000;0.5983;-5.5742;
859.2000;0.5991;-5.5664;
859.5000;0.5983;-5.5690;
859.8000;0.5967;-5.5742;
860.1000;0.5975;-5.5845;
860.4000;0.5958;-5.5819;
860.7000;0.5967;-5.5768;
861.0000;0.5967;-5.5768;
861.3000;0.5999;-5.5768;
861.6000;0.5991;-5.5794;
861.9000;0.5975;-5.5845;
862.2000;0.5991;-5.5897;
862.5000;0.5958;-5.5871;
862.8000;0.6024;-5.5690;
863.1000;0.5967;-5.5845;
863.4000;0.5983;-5.5742;
863.7000;0.5983;-5.5794;
864.0000;0.5958;-5.5845;
864.3000;0.5975;-5.5845;
864.6000;0.5950;-5.5897;
864.9000;0.5967;-5.5768;
865.2000;0.5983;-5.5742;
865.5000;0.5991;-5.5664;
865.8000;0.5958;-5.5768;
866.1000;0.5950;-5.5819;
866.4000;0.5983;-5.5742;
866.7000;0.5999;-5.5716;
867.0000;0.5975;-5.5768;
867.3000;0.5975;-5.5819;
867.6000;0.5950;-5.5871;
867.9000;0.5967;-5.5742;
868.2000;0.5983;-5.5742;
868.5000;0.5902;-5.5845;
868.8000;0.5967;-5.5638;
869.1000;0.5975;-5.5535;
869.4000;0.6007;-5.5509;
869.7000;0.5967;-5.5560;
870.0000;0.5958;-5.5638;
870.3000;0.5983;-5.5612;
870.6000;0.5983;-5.5664;
870.9000;0.5967;-5.5638;
871.2000;0.5942;-5.5638;
871.5000;0.5967;-5.5690;
871.8000;0.5958;-5.5742;
872.1000;0.5958;-5.5716;
872.4000;0.5983;-5.5664;
872.7000;0.5950;-5.5664;
873.0000;0.5950;-5.5638;
873.3000;0.5991;-5.5586;
873.6000;0.5950;-5.5742;
873.9000;0.5942;-5.5742;
874.2000;0.5934;-5.5794;
874.5000;0.5958;-5.5768;
874.8000;0.5958;-5.5716;
875.1000;0.5934;-5.5768;
875.4000;0.5950;-5.5716;
875.7000;0.5958;-5.5768;
876.0000;0.5926;-5.5949;
876.3000;0.5942;-5.5871;
876.6000;0.5967;-5.5794;
876.9000;0.5967;-5.5794;
877.2000;0.5967;-5.5794;
877.5000;0.5934;-5.5819;
877.8000;0.5942;-5.5768;
878.1000;0.5967;-5.5690;
878.4000;0.5950;-5.5638;
878.7000;0.5967;-5.5612;
879.0000;0.5950;-5.5690;
879.3000;0.5950;-5.5612;
879.6000;0.5967;-5.5612;
879.9000;0.5942;-5.5664;
880.2000;0.5942;-5.5638;
880.5000;0.5942;-5.5612;
880.8000;0.5958;-5.5638;
881.1000;0.5958;-5.5638;
881.4000;0.5942;-5.5664;
881.7000;0.5950;-5.5664;
882.0000;0.5942;-5.5638;
882.3000;0.5967;-5.5560;
882.6000;0.5950;-5.5612;
882.9000;0.5869;-5.5819;
883.2000;0.5950;-5.5612;
883.5000;0.5958;-5.5535;
883.8000;0.5950;-5.5560;
884.1000;0.5950;-5.5560;
884.4000;0.5958;-5.5535;
884.7000;0.5967;-5.5483;
885.0000;0.5950;-5.5560;
885.3000;0.5958;-5.5586;
885.6000;0.5950;-5.5509;
885.9000;0.6040;-5.5353;
886.2000;0.5975;-5.5586;
886.5000;0.5934;-5.5690;
886.8000;0.5942;-5.5690;
887.1000;0.5950;-5.5716;
887.4000;0.5942;-5.5716;
887.7000;0.5902;-5.5768;
888.0000;0.5950;-5.5716;
888.3000;0.5942;-5.5664;
888.6000;0.5942;-5.5716;
888.9000;0.5853;-5.5794;
889.2000;0.5926;-5.5664;
889.5000;0.5950;-5.5509;
889.8000;0.5942;-5.5535;
890.1000;0.5926;-5.5483;
890.4000;0.5942;-5.5509;
890.7000;0.5934;-5.5586;
891.0000;0.5926;-5.5716;
891.3000;0.5934;-5.5690;
891.6000;0.5853;-5.5845;
891.9000;0.5918;-5.5638;
892.2000;0.5918;-5.5690;
892.5000;0.5934;-5.5612;
892.8000;0.5934;-5.5638;
893.1000;0.5918;-5.5612;
893.4000;0.5926;-5.5638;
893.7000;0.5918;-5.5664;
894.0000;0.5942;-5.5509;
894.3000;0.5934;-5.5560;
894.6000;0.5918;-5.5535;
894.9000;0.5918;-5.5535;
895.2000;0.5942;-5.5405;
895.5000;0.5926;-5.5405;
895.8000;0.5934;-5.5431;
896.1000;0.5910;-5.5560;
896.4000;0.5926;-5.5612;
896.7000;0.5926;-5.5638;
897.0000;0.5918;-5.5638;
897.3000;0.5877;-5.5742;
897.6000;0.5926;-5.5560;
897.9000;0.5902;-5.5664;
898.2000;0.5910;-5.5664;
898.5000;0.5926;-5.5586;
898.8000;0.5918;-5.5535;
899.1000;0.5926;-5.5535;
899.4000;0.5910;-5.5560;
899.7000;0.5902;-5.5560;
900.0000;0.5902;-5.5612;
900.3000;0.5926;-5.5560;
900.6000;0.5942;-5.5483;
900.9000;0.5991;-5.5301;
901.2000;0.5934;-5.5483;
901.5000;0.5991;-5.5301;
901.8000;0.5926;-5.5535;
902.1000;0.5910;-5.5586;
902.4000;0.5934;-5.5638;
902.7000;0.5950;-5.5586;
903.0000;0.5926;-5.5586;
903.3000;0.5902;-5.5509;
903.6000;0.5926;-5.5509;
903.9000;0.5918;-5.5535;
904.2000;0.5934;-5.5483;
904.5000;0.5910;-5.5509;
904.8000;0.5918;-5.5586;
905.1000;0.5934;-5.5535;
905.4000;0.5926;-5.5509;
905.7000;0.5918;-5.5535;
906.0000;0.5910;-5.5586;
906.3000;0.5934;-5.5483;
906.6000;0.5910;-5.5535;
906.9000;0.5885;-5.5664;
907.2000;0.5902;-5.5535;
907.5000;0.5910;-5.5431;
907.8000;0.5877;-5.5535;
908.1000;0.5910;-5.5457;
908.4000;0.5902;-5.5379;
908.7000;0.5926;-5.5353;
909.0000;0.5918;-5.5301;
909.3000;0.5902;-5.5353;
909.6000;0.5910;-5.5353;
909.9000;0.5918;-5.5353;
910.2000;0.5893;-5.5405;
910.5000;0.5926;-5.5457;
910.8000;0.5885;-5.5457;
911.1000;0.5902;-5.5405;
911.4000;0.5918;-5.5353;
911.7000;0.5910;-5.5405;
912.0000;0.5902;-5.5483;
912.3000;0.5885;-5.5457;
912.6000;0.5910;-5.5379;
912.9000;0.5918;-5.5405;
913.2000;0.5950;-5.5379;
913.5000;0.5893;-5.5431;
913.8000;0.5910;-5.5379;
914.1000;0.5910;-5.5327;
914.4000;0.5910;-5.5327;
914.7000;0.5853;-5.5431;
915.0000;0.5918;-5.5353;
915.3000;0.5902;-5.5353;
915.6000;0.5918;-5.5405;
915.9000;0.5877;-5.5457;
916.2000;0.5885;-5.5483;
916.5000;0.5910;-5.5379;
916.8000;0.5902;-5.5405;
917.1000;0.5885;-5.5560;
917.4000;0.5885;-5.5509;
917.7000;0.5910;-5.5327;
918.0000;0.5893;-5.5379;
918.3000;0.5877;-5.5431;
918.6000;0.5885;-5.5483;
918.9000;0.5926;-5.5483;
919.2000;0.5926;-5.5586;
919.5000;0.5902;-5.5560;
919.8000;0.5910;-5.5535;
920.1000;0.5893;-5.5457;
920.4000;0.5910;-5.5379;
920.7000;0.5918;-5.5379;
921.0000;0.5893;-5.5535;
921.3000;0.5926;-5.5560;
921.6000;0.5885;-5.5535;
921.9000;0.5902;-5.5431;
922.2000;0.5861;-5.5560;
922.5000;0.5869;-5.5535;
922.8000;0.5885;-5.5535;
923.1000;0.5893;-5.5483;
923.4000;0.5918;-5.5509;
923.7000;0.5893;-5.5509;
924.0000;0.5926;-5.5327;
924.3000;0.5836;-5.5638;
924.6000;0.5869;-5.5586;
924.9000;0.5902;-5.5535;
925.2000;0.5885;-5.5431;
925.5000;0.5902;-5.5457;
925.8000;0.5885;-5.5560;
926.1000;0.5902;-5.5483;
926.4000;0.5877;-5.5690;
926.7000;0.5902;-5.5638;
927.0000;0.5902;-5.5560;
927.3000;0.5967;-5.5431;
927.6000;0.5877;-5.5690;
927.9000;0.5893;-5.5638;
928.2000;0.5893;-5.5664;
928.5000;0.5893;-5.5690;
928.8000;0.5918;-5.5638;
929.1000;0.5869;-5.5794;
929.4000;0.5893;-5.5768;
929.7000;0.5942;-5.5535;
930.0000;0.5877;-5.5664;
930.3000;0.5885;-5.5586;
930.6000;0.5893;-5.5483;
930.9000;0.5893;-5.5431;
931.2000;0.5902;-5.5509;
931.5000;0.5902;-5.5483;
931.8000;0.5885;-5.5535;
932.1000;0.5877;-5.5535;
932.4000;0.5869;-5.5483;
932.7000;0.5877;-5.5405;
933.0000;0.5885;-5.5379;
933.3000;0.5877;-5.5353;
933.6000;0.5877;-5.5405;
933.9000;0.5877;-5.5483;
934.2000;0.5877;-5.5483;
934.5000;0.5877;-5.5535;
934.8000;0.5861;-5.5586;
935.1000;0.5877;-5.5535;
935.4000;0.5877;-5.5560;
935.7000;0.5885;-5.5560;
936.0000;0.5885;-5.5612;
936.3000;0.5885;-5.5586;
936.6000;0.5885;-5.5560;
936.9000;0.5902;-5.5612;
937.2000;0.5861;-5.5664;
937.5000;0.5877;-5.5664;
937.8000;0.5877;-5.5716;
938.1000;0.5869;-5.5742;
938.4000;0.5861;-5.5664;
938.7000;0.5910;-5.5431;
939.0000;0.5861;-5.5535;
939.3000;0.5885;-5.5483;
939.6000;0.5861;-5.5535;
939.9000;0.5869;-5.5586;
940.2000;0.5853;-5.5612;
940.5000;0.5869;-5.5509;
940.8000;0.5877;-5.5509;
941.1000;0.5869;-5.5586;
941.4000;0.5869;-5.5612;
941.7000;0.5885;-5.5586;
942.0000;0.5877;-5.5509;
942.3000;0.5861;-5.5638;
942.6000;0.5877;-5.5664;
942.9000;0.5869;-5.5690;
943.2000;0.5942;-5.5535;
943.5000;0.5861;-5.5716;
943.8000;0.5869;-5.5690;
944.1000;0.5869;-5.5638;
944.4000;0.5861;-5.5586;
944.7000;0.5877;-5.5560;
945.0000;0.5853;-5.5535;
945.3000;0.5853;-5.5483;
945.6000;0.5877;-5.5483;
945.9000;0.5877;-5.5509;
946.2000;0.5877;-5.5560;
946.5000;0.5861;-5.5612;
946.8000;0.5877;-5.5560;
947.1000;0.5869;-5.5612;
947.4000;0.5828;-5.5819;
947.7000;0.5861;-5.5638;
948.0000;0.5877;-5.5509;
948.3000;0.5877;-5.5457;
948.6000;0.5869;-5.5483;
948.9000;0.5861;-5.5535;
949.2000;0.5861;-5.5535;
949.5000;0.5885;-5.5509;
949.8000;0.5869;-5.5535;
950.1000;0.5877;-5.5535;
950.4000;0.5869;-5.5535;
950.7000;0.5861;-5.5612;
951.0000;0.5869;-5.5560;
951.3000;0.5893;-5.5431;
951.6000;0.5861;-5.5509;
951.9000;0.5893;-5.5405;
952.2000;0.5910;-5.5379;
952.5000;0.5877;-5.5379;
952.8000;0.5877;-5.5353;
953.1000;0.5828;-5.5457;
953.4000;0.5869;-5.5353;
953.7000;0.5877;-5.5379;
954.0000;0.5861;-5.5379;
954.3000;0.5861;-5.5327;
954.6000;0.5869;-5.5379;
954.9000;0.5869;-5.5275;
955.2000;0.5869;-5.5301;
955.5000;0.5861;-5.5327;
955.8000;0.5869;-5.5301;
956.1000;0.5869;-5.5301;
956.4000;0.5869;-5.5379;
956.7000;0.5869;-5.5327;
957.0000;0.5836;-5.5431;
957.3000;0.5853;-5.5301;
957.6000;0.5861;-5.5353;
957.9000;0.5869;-5.5379;
958.2000;0.5861;-5.5379;
958.5000;0.5861;-5.5353;
958.8000;0.5869;-5.5275;
959.1000;0.5869;-5.5250;
959.4000;0.5845;-5.5275;
959.7000;0.5853;-5.5224;
960.0000;0.5804;-5.5483;
960.3000;0.5845;-5.5327;
960.6000;0.5845;-5.5301;
960.9000;0.5845;-5.5379;
961.2000;0.5869;-5.5327;
961.5000;0.5869;-5.5353;
961.8000;0.5861;-5.5405;
962.1000;0.5853;-5.5483;
962.4000;0.5861;-5.5431;
962.7000;0.5845;-5.5457;
963.0000;0.5836;-5.5483;
963.3000;0.5853;-5.5483;
963.6000;0.5853;-5.5509;
963.9000;0.5869;-5.5509;
964.2000;0.5869;-5.5638;
964.5000;0.5853;-5.5638;
964.8000;0.5836;-5.5586;
965.1000;0.5845;-5.5612;
965.4000;0.5853;-5.5483;
965.7000;0.5836;-5.5457;
966.0000;0.5836;-5.5405;
966.3000;0.5836;-5.5483;
966.6000;0.5853;-5.5405;
966.9000;0.5861;-5.5379;
967.2000;0.5861;-5.5457;
967.5000;0.5869;-5.5431;
967.8000;0.5836;-5.5586;
968.1000;0.5877;-5.5457;
968.4000;0.5853;-5.5509;
968.7000;0.5869;-5.5431;
969.0000;0.5877;-5.5431;
969.3000;0.5877;-5.5405;
969.6000;0.5853;-5.5483;
969.9000;0.5845;-5.5483;
970.2000;0.5845;-5.5483;
970.5000;0.5845;-5.5586;
970.8000;0.5845;-5.5457;
971.1000;0.5836;-5.5405;
971.4000;0.5845;-5.5379;
971.7000;0.5804;-5.5586;
972.0000;0.5820;-5.5638;
972.3000;0.5861;-5.5612;
972.6000;0.5861;-5.5638;
972.9000;0.5828;-5.5690;
973.2000;0.5853;-5.5716;
973.5000;0.5836;-5.5716;
973.8000;0.5812;-5.5794;
974.1000;0.5869;-5.5509;
974.4000;0.5853;-5.5638;
974.7000;0.5820;-5.5742;
975.0000;0.5836;-5.5768;
975.3000;0.5861;-5.5586;
975.6000;0.5853;-5.5586;
975.9000;0.5828;-5.5690;
976.2000;0.5836;-5.5612;
976.5000;0.5853;-5.5560;
976.8000;0.5804;-5.5638;
977.1000;0.5828;-5.5509;
977.4000;0.5853;-5.5457;
977.7000;0.5861;-5.5405;
978.0000;0.5853;-5.5431;
978.3000;0.5845;-5.5483;
978.6000;0.5845;-5.5483;
978.9000;0.5845;-5.5535;
979.2000;0.5845;-5.5535;
979.5000;0.5845;-5.5483;
979.8000;0.5836;-5.5535;
980.1000;0.5836;-5.5612;
980.4000;0.5853;-5.5560;
980.7000;0.5853;-5.5535;
981.0000;0.5836;-5.5535;
981.3000;0.5836;-5.5483;
981.6000;0.5845;-5.5457;
981.9000;0.5828;-5.5586;
982.2000;0.5828;-5.5690;
982.5000;0.5836;-5.5586;
982.8000;0.5861;-5.5612;
983.1000;0.5845;-5.5612;
983.4000;0.5845;-5.5612;
983.7000;0.5853;-5.5664;
984.0000;0.5853;-5.5664;
984.3000;0.5828;-5.5664;
984.6000;0.5836;-5.5664;
984.9000;0.5828;-5.5742;
985.2000;0.5853;-5.5742;
985.5000;0.5845;-5.5664;
985.8000;0.5845;-5.5638;
986.1000;0.5828;-5.5690;
986.4000;0.5828;-5.5742;
986.7000;0.5836;-5.5742;
987.0000;0.5861;-5.5638;
987.3000;0.5828;-5.5768;
987.6000;0.5836;-5.5794;
987.9000;0.5845;-5.5742;
988.2000;0.5845;-5.5716;
988.5000;0.5828;-5.5716;
988.8000;0.5845;-5.5716;
989.1000;0.5828;-5.5794;
989.4000;0.5845;-5.5742;
989.7000;0.5828;-5.5716;
990.0000;0.5820;-5.5742;
990.3000;0.5828;-5.5794;
990.6000;0.5804;-5.5897;
990.9000;0.5836;-5.5794;
991.2000;0.5836;-5.5794;
991.5000;0.5828;-5.5768;
991.8000;0.5820;-5.5819;
992.1000;0.5812;-5.5845;
992.4000;0.5828;-5.5716;
992.7000;0.5828;-5.5716;
993.0000;0.5836;-5.5690;
993.3000;0.5853;-5.5664;
993.6000;0.5828;-5.5742;
993.9000;0.5836;-5.5768;
994.2000;0.5836;-5.5742;
994.5000;0.5836;-5.5768;
994.8000;0.5812;-5.5768;
995.1000;0.5845;-5.5690;
995.4000;0.5828;-5.5716;
995.7000;0.5845;-5.5768;
996.0000;0.5820;-5.5716;
996.3000;0.5820;-5.5742;
996.6000;0.5836;-5.5690;
996.9000;0.5877;-5.5664;
997.2000;0.5853;-5.5638;
997.5000;0.5820;-5.5716;
997.8000;0.5853;-5.5690;
998.1000;0.5828;-5.5638;
998.4000;0.5845;-5.5560;
998.7000;0.5861;-5.5509;
999.0000;0.5812;-5.5612;
999.3000;0.5828;-5.5586;
999.6000;0.5828;-5.5612;
999.9000;0.5771;-5.5794;
1000.2000;0.5828;-5.5586;
1000.5000;0.5828;-5.5535;
1000.8000;0.5828;-5.5535;
1001.1000;0.5828;-5.5560;
1001.4000;0.5869;-5.5535;
1001.7000;0.5836;-5.5638;
1002.0000;0.5779;-5.5716;
1002.3000;0.5836;-5.5638;
1002.6000;0.5836;-5.5612;
1002.9000;0.5812;-5.5664;
1003.2000;0.5820;-5.5638;
1003.5000;0.5845;-5.5586;
1003.8000;0.5812;-5.5586;
1004.1000;0.5845;-5.5560;
1004.4000;0.5836;-5.5612;
1004.7000;0.5836;-5.5586;
1005.0000;0.5812;-5.5612;
1005.3000;0.5812;-5.5560;
1005.6000;0.5820;-5.5509;
1005.9000;0.5812;-5.5483;
1006.2000;0.5820;-5.5379;
1006.5000;0.5820;-5.5457;
1006.8000;0.5893;-5.5224;
1007.1000;0.5820;-5.5457;
1007.4000;0.5828;-5.5457;
1007.7000;0.5836;-5.5379;
1008.0000;0.5828;-5.5353;
1008.3000;0.5836;-5.5275;
1008.6000;0.5820;-5.5327;
1008.9000;0.5836;-5.5353;
1009.2000;0.5845;-5.5327;
1009.5000;0.5828;-5.5353;
1009.8000;0.5812;-5.5483;
1010.1000;0.5828;-5.5405;
1010.4000;0.5804;-5.5509;
1010.7000;0.5828;-5.5457;
1011.0000;0.5828;-5.5431;
1011.3000;0.5820;-5.5457;
1011.6000;0.5788;-5.5560;
1011.9000;0.5763;-5.5638;
1012.2000;0.5828;-5.5483;
1012.5000;0.5812;-5.5431;
1012.8000;0.5812;-5.5457;
1013.1000;0.5820;-5.5405;
1013.4000;0.5812;-5.5535;
1013.7000;0.5820;-5.5509;
1014.0000;0.5820;-5.5586;
1014.3000;0.5804;-5.5716;
1014.6000;0.5820;-5.5664;
1014.9000;0.5804;-5.5690;
1015.2000;0.5853;-5.5535;
1015.5000;0.5796;-5.5690;
1015.8000;0.5836;-5.5664;
1016.1000;0.5836;-5.5664;
1016.4000;0.5869;-5.5586;
1016.7000;0.5796;-5.5768;
1017.0000;0.5804;-5.5690;
1017.3000;0.5812;-5.5664;
1017.6000;0.5836;-5.5560;
1017.9000;0.5836;-5.5586;
1018.2000;0.5804;-5.5638;
1018.5000;0.5820;-5.5586;
1018.8000;0.5779;-5.5768;
1019.1000;0.5828;-5.5535;
1019.4000;0.5820;-5.5457;
1019.7000;0.5820;-5.5353;
1020.0000;0.5820;-5.5431;
1020.3000;0.5861;-5.5353;
1020.6000;0.5804;-5.5483;
1020.9000;0.5828;-5.5405;
1021.2000;0.5828;-5.5327;
1021.5000;0.5812;-5.5327;
1021.8000;0.5796;-5.5353;
1022.1000;0.5820;-5.5275;
1022.4000;0.5788;-5.5301;
1022.7000;0.5836;-5.5250;
1023.0000;0.5820;-5.5224;
1023.3000;0.5763;-5.5405;
1023.6000;0.5820;-5.5224;
1023.9000;0.5812;-5.5198;
1024.2000;0.5828;-5.5198;
1024.5000;0.5812;-5.5224;
1024.8000;0.5804;-5.5275;
1025.1000;0.5812;-5.5301;
1025.4000;0.5812;-5.5483;
1025.7000;0.5804;-5.5560;
1026.0000;0.5804;-5.5612;
1026.3000;0.5796;-5.5638;
1026.6000;0.5788;-5.5664;
1026.9000;0.5820;-5.5535;
1027.2000;0.5820;-5.5431;
1027.5000;0.5812;-5.5353;
1027.8000;0.5812;-5.5327;
1028.1000;0.5812;-5.5353;
1028.4000;0.5804;-5.5379;
1028.7000;0.5812;-5.5353;
1029.0000;0.5820;-5.5327;
1029.3000;0.5828;-5.5327;
1029.6000;0.5812;-5.5457;
1029.9000;0.5828;-5.5379;
1030.2000;0.5812;-5.5379;
1030.5000;0.5812;-5.5301;
1030.8000;0.5812;-5.5327;
1031.1000;0.5812;-5.5301;
1031.4000;0.5820;-5.5224;
1031.7000;0.5812;-5.5250;
1032.0000;0.5763;-5.5275;
1032.3000;0.5804;-5.5068;
1032.6000;0.5853;-5.5016;
1032.9000;0.5804;-5.5250;
1033.2000;0.5812;-5.5301;
1033.5000;0.5788;-5.5457;
1033.8000;0.5796;-5.5483;
1034.1000;0.5796;-5.5457;
1034.4000;0.5812;-5.5327;
1034.7000;0.5796;-5.5275;
1035.0000;0.5804;-5.5275;
1035.3000;0.5820;-5.5250;
1035.6000;0.5804;-5.5275;
1035.9000;0.5812;-5.5275;
1036.2000;0.5804;-5.5224;
1036.5000;0.5788;-5.5198;
1036.8000;0.5796;-5.5146;
1037.1000;0.5796;-5.5301;
1037.4000;0.5788;-5.5379;
1037.7000;0.5804;-5.5405;
1038.0000;0.5804;-5.5327;
1038.3000;0.5812;-5.5301;
1038.6000;0.5788;-5.5405;
1038.9000;0.5788;-5.5457;
1039.2000;0.5771;-5.5483;
1039.5000;0.5812;-5.5379;
1039.8000;0.5804;-5.5431;
1040.1000;0.5796;-5.5431;
1040.4000;0.5796;-5.5431;
1040.7000;0.5820;-5.5250;
1041.0000;0.5812;-5.5301;
1041.3000;0.5771;-5.5301;
1041.6000;0.5796;-5.5146;
1041.9000;0.5779;-5.5198;
1042.2000;0.5804;-5.5327;
1042.5000;0.5836;-5.5301;
1042.8000;0.5722;-5.5560;
1043.1000;0.5804;-5.5250;
1043.4000;0.5804;-5.5172;
1043.7000;0.5804;-5.5172;
1044.0000;0.5796;-5.5094;
1044.3000;0.5804;-5.5172;
1044.6000;0.5804;-5.5172;
1044.9000;0.5853;-5.5016;
1045.2000;0.5788;-5.5198;
1045.5000;0.5804;-5.5172;
1045.8000;0.5804;-5.5250;
1046.1000;0.5796;-5.5198;
1046.4000;0.5763;-5.5172;
1046.7000;0.5796;-5.5120;
1047.0000;0.5804;-5.5094;
1047.3000;0.5788;-5.5172;
1047.6000;0.5804;-5.5198;
1047.9000;0.5796;-5.5120;
1048.2000;0.5853;-5.5016;
1048.5000;0.5796;-5.5146;
1048.8000;0.5796;-5.5198;
1049.1000;0.5771;-5.5198;
1049.4000;0.5796;-5.5198;
1049.7000;0.5804;-5.5275;
1050.0000;0.5788;-5.5250;
1050.3000;0.5820;-5.5224;
1050.6000;0.5812;-5.5224;
1050.9000;0.5779;-5.5301;
1051.2000;0.5788;-5.5275;
1051.5000;0.5796;-5.5301;
1051.8000;0.5812;-5.5198;
1052.1000;0.5820;-5.5094;
1052.4000;0.5796;-5.5172;
1052.7000;0.5804;-5.5198;
1053.0000;0.5812;-5.5250;
1053.3000;0.5804;-5.5379;
1053.6000;0.5796;-5.5405;
1053.9000;0.5828;-5.5275;
1054.2000;0.5804;-5.5353;
1054.5000;0.5739;-5.5560;
1054.8000;0.5747;-5.5560;
1055.1000;0.5796;-5.5379;
1055.4000;0.5779;-5.5457;
1055.7000;0.5804;-5.5457;
1056.0000;0.5804;-5.5483;
1056.3000;0.5796;-5.5483;
1056.6000;0.5779;-5.5509;
1056.9000;0.5796;-5.5509;
1057.2000;0.5788;-5.5535;
1057.5000;0.5779;-5.5586;
1057.8000;0.5779;-5.5560;
1058.1000;0.5788;-5.5560;
1058.4000;0.5788;-5.5379;
1058.7000;0.5779;-5.5327;
1059.0000;0.5779;-5.5327;
1059.3000;0.5779;-5.5198;
1059.6000;0.5796;-5.5224;
1059.9000;0.5796;-5.5172;
1060.2000;0.5796;-5.5172;
1060.5000;0.5779;-5.5146;
1060.8000;0.5796;-5.5094;
1061.1000;0.5804;-5.5094;
1061.4000;0.5788;-5.5172;
1061.7000;0.5828;-5.5146;
1062.0000;0.5796;-5.5250;
1062.3000;0.5820;-5.5146;
1062.6000;0.5804;-5.5120;
1062.9000;0.5779;-5.5094;
1063.2000;0.5796;-5.5146;
1063.5000;0.5804;-5.5120;
1063.8000;0.5788;-5.5172;
1064.1000;0.5755;-5.5250;
1064.4000;0.5779;-5.5250;
1064.7000;0.5779;-5.5224;
1065.0000;0.5804;-5.5275;
1065.3000;0.5796;-5.5301;
1065.6000;0.5788;-5.5327;
1065.9000;0.5788;-5.5327;
1066.2000;0.5763;-5.5405;
1066.5000;0.5796;-5.5405;
1066.8000;0.5788;-5.5483;
1067.1000;0.5796;-5.5431;
1067.4000;0.5812;-5.5327;
1067.7000;0.5788;-5.5275;
1068.0000;0.5771;-5.5327;
1068.3000;0.5804;-5.5198;
1068.6000;0.5771;-5.5301;
1068.9000;0.5779;-5.5172;
1069.2000;0.5771;-5.5172;
1069.5000;0.5779;-5.5146;
1069.8000;0.5796;-5.5120;
1070.1000;0.5820;-5.5042;
1070.4000;0.5747;-5.5275;
1070.7000;0.5779;-5.5120;
1071.0000;0.5771;-5.5172;
1071.3000;0.5877;-5.4939;
1071.6000;0.5788;-5.5224;
1071.9000;0.5877;-5.5016;
1072.2000;0.5796;-5.5172;
1072.5000;0.5796;-5.5146;
1072.8000;0.5779;-5.5120;
1073.1000;0.5779;-5.5120;
1073.4000;0.5779;-5.5172;
1073.7000;0.5779;-5.5120;
1074.0000;0.5796;-5.5120;
1074.3000;0.5771;-5.5275;
1074.6000;0.5788;-5.5250;
1074.9000;0.5812;-5.5146;
1075.2000;0.5788;-5.5301;
1075.5000;0.5779;-5.5275;
1075.8000;0.5771;-5.5275;
1076.1000;0.5796;-5.5224;
1076.4000;0.5804;-5.5224;
1076.7000;0.5779;-5.5275;
1077.0000;0.5796;-5.5275;
1077.3000;0.5788;-5.5275;
1077.6000;0.5763;-5.5327;
1077.9000;0.5771;-5.5250;
1078.2000;0.5796;-5.5172;
1078.5000;0.5779;-5.5224;
1078.8000;0.5788;-5.5250;
1079.1000;0.5779;-5.5379;
1079.4000;0.5771;-5.5379;
1079.7000;0.5788;-5.5405;
1080.0000;0.5771;-5.5483;
1080.3000;0.5788;-5.5483;
1080.6000;0.5771;-5.5483;
1080.9000;0.5788;-5.5431;
1081.2000;0.5788;-5.5353;
1081.5000;0.5804;-5.5327;
1081.8000;0.5788;-5.5327;
1082.1000;0.5788;-5.5301;
1082.4000;0.5779;-5.5198;
1082.7000;0.5796;-5.5094;
1083.0000;0.5788;-5.5094;
1083.3000;0.5771;-5.5198;
1083.6000;0.5779;-5.5172;
1083.9000;0.5788;-5.5224;
1084.2000;0.5796;-5.5275;
1084.5000;0.5771;-5.5327;
1084.8000;0.5763;-5.5353;
1085.1000;0.5779;-5.5301;
1085.4000;0.5796;-5.5327;
1085.7000;0.5804;-5.5379;
1086.0000;0.5779;-5.5457;
1086.3000;0.5771;-5.5431;
1086.6000;0.5796;-5.5405;
1086.9000;0.5779;-5.5483;
1087.2000;0.5779;-5.5535;
1087.5000;0.5771;-5.5457;
1087.8000;0.5804;-5.5379;
1088.1000;0.5779;-5.5457;
1088.4000;0.5779;-5.5431;
1088.7000;0.5779;-5.5379;
1089.0000;0.5788;-5.5301;
1089.3000;0.5771;-5.5301;
1089.6000;0.5739;-5.5379;
1089.9000;0.5796;-5.5353;
1090.2000;0.5796;-5.5301;
1090.5000;0.5796;-5.5275;
1090.8000;0.5836;-5.5250;
1091.1000;0.5820;-5.5224;
1091.4000;0.5796;-5.5250;
1091.7000;0.5796;-5.5172;
1092.0000;0.5812;-5.5120;
1092.3000;0.5788;-5.5120;
1092.6000;0.5779;-5.5172;
1092.9000;0.5812;-5.5068;
1093.2000;0.5779;-5.5146;
1093.5000;0.5755;-5.5275;
1093.8000;0.5763;-5.5327;
1094.1000;0.5779;-5.5250;
1094.4000;0.5861;-5.5068;
1094.7000;0.5771;-5.5275;
1095.0000;0.5722;-5.5379;
1095.3000;0.5779;-5.5146;
1095.6000;0.5771;-5.5172;
1095.9000;0.5788;-5.5120;
1096.2000;0.5845;-5.4991;
1096.5000;0.5771;-5.5250;
1096.8000;0.5771;-5.5198;
1097.1000;0.5788;-5.5120;
1097.4000;0.5796;-5.5146;
1097.7000;0.5779;-5.5146;
1098.0000;0.5796;-5.5146;
1098.3000;0.5763;-5.5250;
1098.6000;0.5779;-5.5224;
1098.9000;0.5755;-5.5275;
1099.2000;0.5771;-5.5327;
1099.5000;0.5755;-5.5301;
1099.8000;0.5771;-5.5275;
1100.1000;0.5763;-5.5301;
1100.4000;0.5771;-5.5327;
1100.7000;0.5796;-5.5275;
1101.0000;0.5779;-5.5301;
1101.3000;0.5788;-5.5224;
1101.6000;0.5771;-5.5250;
1101.9000;0.5788;-5.5224;
1102.2000;0.5804;-5.5172;
1102.5000;0.5788;-5.5250;
1102.8000;0.5788;-5.5198;
1103.1000;0.5771;-5.5250;
1103.4000;0.5779;-5.5224;
1103.7000;0.5796;-5.5120;
1104.0000;0.5755;-5.5146;
1104.3000;0.5771;-5.5094;
1104.6000;0.5739;-5.5198;
1104.9000;0.5739;-5.5172;
1105.2000;0.5747;-5.5198;
1105.5000;0.5779;-5.5224;
1105.8000;0.5763;-5.5198;
1106.1000;0.5771;-5.5094;
1106.4000;0.5779;-5.5172;
1106.7000;0.5779;-5.5172;
1107.0000;0.5779;-5.5250;
1107.3000;0.5779;-5.5198;
1107.6000;0.5771;-5.5275;
1107.9000;0.5779;-5.5224;
1108.2000;0.5788;-5.5224;
1108.5000;0.5788;-5.5224;
1108.8000;0.5755;-5.5275;
1109.1000;0.5771;-5.5275;
1109.4000;0.5763;-5.5172;
1109.7000;0.5779;-5.5172;
1110.0000;0.5763;-5.5198;
1110.3000;0.5763;-5.5146;
1110.6000;0.5747;-5.5198;
1110.9000;0.5763;-5.5198;
1111.2000;0.5804;-5.5120;
1111.5000;0.5771;-5.5172;
1111.8000;0.5771;-5.5146;
1112.1000;0.5755;-5.5172;
1112.4000;0.5779;-5.5120;
1112.7000;0.5722;-5.5224;
1113.0000;0.5771;-5.5172;
1113.3000;0.5747;-5.5301;
1113.6000;0.5779;-5.5301;
1113.9000;0.5779;-5.5275;
1114.2000;0.5804;-5.5224;
1114.5000;0.5763;-5.5327;
1114.8000;0.5763;-5.5327;
1115.1000;0.5763;-5.5275;
1115.4000;0.5755;-5.5379;
1115.7000;0.5763;-5.5431;
1116.0000;0.5763;-5.5457;
1116.3000;0.5771;-5.5379;
1116.6000;0.5771;-5.5405;
1116.9000;0.5779;-5.5379;
1117.2000;0.5755;-5.5353;
1117.5000;0.5771;-5.5301;
1117.8000;0.5771;-5.5224;
1118.1000;0.5763;-5.5250;
1118.4000;0.5771;-5.5250;
1118.7000;0.5763;-5.5250;
1119.0000;0.5731;-5.5301;
1119.3000;0.5755;-5.5327;
1119.6000;0.5763;-5.5275;
1119.9000;0.5796;-5.5198;
1120.2000;0.5763;-5.5250;
1120.5000;0.5771;-5.5224;
1120.8000;0.5755;-5.5250;
1121.1000;0.5763;-5.5224;
1121.4000;0.5771;-5.5146;
1121.7000;0.5747;-5.5250;
1122.0000;0.5771;-5.5250;
1122.3000;0.5771;-5.5198;
1122.6000;0.5763;-5.5250;
1122.9000;0.5771;-5.5172;
1123.2000;0.5771;-5.5198;
1123.5000;0.5771;-5.5120;
1123.8000;0.5771;-5.5042;
1124.1000;0.5763;-5.5068;
1124.4000;0.5755;-5.5172;
1124.7000;0.5771;-5.5224;
1125.0000;0.5771;-5.5120;
1125.3000;0.5763;-5.5198;
1125.6000;0.5690;-5.5379;
1125.9000;0.5763;-5.5198;
1126.2000;0.5779;-5.5094;
1126.5000;0.5755;-5.5068;
1126.8000;0.5747;-5.4991;
1127.1000;0.5755;-5.5016;
1127.4000;0.5763;-5.5016;
1127.7000;0.5739;-5.5042;
1128.0000;0.5763;-5.5094;
1128.3000;0.5747;-5.5120;
1128.6000;0.5747;-5.5172;
1128.9000;0.5747;-5.5120;
1129.2000;0.5714;-5.5172;
1129.5000;0.5755;-5.5068;
1129.8000;0.5755;-5.5068;
1130.1000;0.5869;-5.4732;
1130.4000;0.5755;-5.5016;
1130.7000;0.5755;-5.5042;
1131.0000;0.5747;-5.5120;
1131.3000;0.5755;-5.5198;
1131.6000;0.5755;-5.5094;
1131.9000;0.5763;-5.5224;
1132.2000;0.5763;-5.5198;
1132.5000;0.5796;-5.5198;
1132.8000;0.5779;-5.5301;
1133.1000;0.5755;-5.5327;
1133.4000;0.5828;-5.5172;
1133.7000;0.5796;-5.5224;
1134.0000;0.5804;-5.5198;
1134.3000;0.5804;-5.5172;
1134.6000;0.5804;-5.5198;
1134.9000;0.5763;-5.5224;
1135.2000;0.5812;-5.4939;
1135.5000;0.5763;-5.4991;
1135.8000;0.5747;-5.5094;
1136.1000;0.5755;-5.5146;
1136.4000;0.5820;-5.5068;
1136.7000;0.5763;-5.5172;
1137.0000;0.5755;-5.5120;
1137.3000;0.5747;-5.5146;
1137.6000;0.5763;-5.5146;
1137.9000;0.5763;-5.5198;
1138.2000;0.5714;-5.5275;
1138.5000;0.5755;-5.5120;
1138.8000;0.5804;-5.5016;
1139.1000;0.5771;-5.5094;
1139.4000;0.5755;-5.5120;
1139.7000;0.5747;-5.5146;
1140.0000;0.5755;-5.5172;
1140.3000;0.5779;-5.5042;
1140.6000;0.5763;-5.5094;
1140.9000;0.5755;-5.5172;
1141.2000;0.5755;-5.5250;
1141.5000;0.5747;-5.5250;
1141.8000;0.5771;-5.5198;
1142.1000;0.5739;-5.5275;
1142.4000;0.5755;-5.5224;
1142.7000;0.5747;-5.5224;
1143.0000;0.5755;-5.5250;
1143.3000;0.5763;-5.5146;
1143.6000;0.5755;-5.5198;
1143.9000;0.5763;-5.5224;
1144.2000;0.5755;-5.5146;
1144.5000;0.5755;-5.5146;
1144.8000;0.5747;-5.5172;
1145.1000;0.5739;-5.5224;
1145.4000;0.5747;-5.5275;
1145.7000;0.5731;-5.5353;
1146.0000;0.5747;-5.5224;
1146.3000;0.5763;-5.5172;
1146.6000;0.5731;-5.5250;
1146.9000;0.5731;-5.5250;
1147.2000;0.5763;-5.5250;
1147.5000;0.5820;-5.5172;
1147.8000;0.5722;-5.5431;
1148.1000;0.5690;-5.5535;
1148.4000;0.5747;-5.5301;
1148.7000;0.5714;-5.5405;
1149.0000;0.5755;-5.5327;
1149.3000;0.5755;-5.5353;
1149.6000;0.5763;-5.5353;
1149.9000;0.5731;-5.5431;
1150.2000;0.5755;-5.5379;
1150.5000;0.5747;-5.5405;
1150.8000;0.5763;-5.5301;
1151.1000;0.5755;-5.5275;
1151.4000;0.5755;-5.5198;
1151.7000;0.5755;-5.5094;
1152.0000;0.5763;-5.5068;
1152.3000;0.5747;-5.5172;
1152.6000;0.5755;-5.5198;
1152.9000;0.5731;-5.5275;
1153.2000;0.5755;-5.5353;
1153.5000;0.5771;-5.5353;
1153.8000;0.5731;-5.5405;
1154.1000;0.5763;-5.5379;
1154.4000;0.5796;-5.5327;
1154.7000;0.5763;-5.5379;
1155.0000;0.5755;-5.5353;
1155.3000;0.5755;-5.5327;
1155.6000;0.5747;-5.5224;
1155.9000;0.5755;-5.5224;
1156.2000;0.5755;-5.5250;
1156.5000;0.5771;-5.5146;
1156.8000;0.5747;-5.5146;
1157.1000;0.5747;-5.5146;
1157.4000;0.5771;-5.5146;
1157.7000;0.5747;-5.5094;
1158.0000;0.5731;-5.5198;
1158.3000;0.5731;-5.5224;
1158.6000;0.5755;-5.5068;
1158.9000;0.5771;-5.5016;
1159.2000;0.5763;-5.5146;
1159.5000;0.5747;-5.5146;
1159.8000;0.5731;-5.5198;
1160.1000;0.5739;-5.5172;
1160.4000;0.5739;-5.5301;
1160.7000;0.5779;-5.5275;
1161.0000;0.5747;-5.5250;
1161.3000;0.5763;-5.5172;
1161.6000;0.5755;-5.5094;
1161.9000;0.5747;-5.5120;
1162.2000;0.5747;-5.5042;
1162.5000;0.5755;-5.5068;
1162.8000;0.5747;-5.5068;
1163.1000;0.5739;-5.5042;
1163.4000;0.5747;-5.5094;
1163.7000;0.5747;-5.5146;
1164.0000;0.5755;-5.5146;
1164.3000;0.5763;-5.5042;
1164.6000;0.5747;-5.5146;
1164.9000;0.5722;-5.5250;
1165.2000;0.5755;-5.5172;
1165.5000;0.5755;-5.5146;
1165.8000;0.5779;-5.5094;
1166.1000;0.5763;-5.5198;
1166.4000;0.5731;-5.5353;
1166.7000;0.5747;-5.5379;
1167.0000;0.5788;-5.5198;
1167.3000;0.5755;-5.5301;
1167.6000;0.5763;-5.5224;
1167.9000;0.5796;-5.5224;
1168.2000;0.5771;-5.5327;
1168.5000;0.5755;-5.5301;
1168.8000;0.5763;-5.5301;
1169.1000;0.5739;-5.5250;
1169.4000;0.5747;-5.5250;
1169.7000;0.5755;-5.5146;
1170.0000;0.5755;-5.5120;
1170.3000;0.5763;-5.5172;
1170.6000;0.5755;-5.5224;
1170.9000;0.5771;-5.5250;
1171.2000;0.5690;-5.5379;
1171.5000;0.5739;-5.5301;
1171.8000;0.5747;-5.5301;
1172.1000;0.5771;-5.5224;
1172.4000;0.5763;-5.5198;
1172.7000;0.5763;-5.5172;
1173.0000;0.5755;-5.5198;
1173.3000;0.5747;-5.5301;
1173.6000;0.5747;-5.5275;
1173.9000;0.5747;-5.5250;
1174.2000;0.5739;-5.5275;
1174.5000;0.5747;-5.5224;
1174.8000;0.5747;-5.5198;
1175.1000;0.5739;-5.5172;
1175.4000;0.5755;-5.5198;
1175.7000;0.5747;-5.5275;
1176.0000;0.5812;-5.5146;
1176.3000;0.5747;-5.5301;
1176.6000;0.5739;-5.5327;
1176.9000;0.5739;-5.5301;
1177.2000;0.5739;-5.5327;
1177.5000;0.5739;-5.5353;
1177.8000;0.5747;-5.5379;
1178.1000;0.5731;-5.5353;
1178.4000;0.5739;-5.5327;
1178.7000;0.5763;-5.5379;
1179.0000;0.5739;-5.5353;
1179.3000;0.5731;-5.5379;
1179.6000;0.5763;-5.5353;
1179.9000;0.5739;-5.5353;
1180.2000;0.5714;-5.5379;
1180.5000;0.5747;-5.5327;
1180.8000;0.5747;-5.5379;
1181.1000;0.5739;-5.5301;
1181.4000;0.5755;-5.5301;
1181.7000;0.5731;-5.5301;
1182.0000;0.5763;-5.5250;
1182.3000;0.5747;-5.5224;
1182.6000;0.5779;-5.5172;
1182.9000;0.5747;-5.5250;
1183.2000;0.5722;-5.5327;
1183.5000;0.5739;-5.5275;
1183.8000;0.5812;-5.5120;
1184.1000;0.5739;-5.5275;
1184.4000;0.5739;-5.5301;
1184.7000;0.5763;-5.5250;
1185.0000;0.5755;-5.5198;
1185.3000;0.5763;-5.5146;
1185.6000;0.5739;-5.5198;
1185.9000;0.5739;-5.5224;
1186.2000;0.5779;-5.5146;
1186.5000;0.5739;-5.5224;
1186.8000;0.5731;-5.5198;
1187.1000;0.5674;-5.5224;
1187.4000;0.5682;-5.5224;
1187.7000;0.5755;-5.5172;
1188.0000;0.5755;-5.5250;
1188.3000;0.5739;-5.5224;
1188.6000;0.5731;-5.5250;
1188.9000;0.5755;-5.5146;
1189.2000;0.5755;-5.5120;
1189.5000;0.5731;-5.5172;
1189.8000;0.5755;-5.5198;
1190.1000;0.5755;-5.5120;
1190.4000;0.5739;-5.5120;
1190.7000;0.5747;-5.5146;
1191.0000;0.5755;-5.5068;
1191.3000;0.5755;-5.5094;
1191.6000;0.5739;-5.5120;
1191.9000;0.5755;-5.5042;
1192.2000;0.5739;-5.5198;
1192.5000;0.5755;-5.5094;
1192.8000;0.5755;-5.5094;
1193.1000;0.5731;-5.5172;
1193.4000;0.5763;-5.5120;
1193.7000;0.5739;-5.5120;
1194.0000;0.5739;-5.5094;
1194.3000;0.5747;-5.5068;
1194.6000;0.5739;-5.5120;
1194.9000;0.5739;-5.5146;
1195.2000;0.5747;-5.5224;
1195.5000;0.5714;-5.5327;
1195.8000;0.5788;-5.5120;
1196.1000;0.5747;-5.5198;
1196.4000;0.5731;-5.5250;
1196.7000;0.5739;-5.5198;
1197.0000;0.5739;-5.5120;
1197.3000;0.5731;-5.5172;
1197.6000;0.5739;-5.5172;
1197.9000;0.5747;-5.5120;
1198.2000;0.5739;-5.5094;
1198.5000;0.5722;-5.5224;
1198.8000;0.5731;-5.5224;
1199.1000;0.5731;-5.5094;
1199.4000;0.5731;-5.5146;
1199.7000;0.5747;-5.5198;
1200.0000;0.5739;-5.5224;
1200.3000;0.5747;-5.5224;
1200.6000;0.5722;-5.5327;
1200.9000;0.5731;-5.5327;
1201.2000;0.5731;-5.5275;
1201.5000;0.5747;-5.5198;
1201.8000;0.5747;-5.5146;
1202.1000;0.5731;-5.5198;
1202.4000;0.5731;-5.5120;
1202.7000;0.5747;-5.5016;
1203.0000;0.5739;-5.4991;
1203.3000;0.5788;-5.4913;
1203.6000;0.5722;-5.5068;
1203.9000;0.5747;-5.5042;
1204.2000;0.5755;-5.5068;
1204.5000;0.5731;-5.5172;
1204.8000;0.5722;-5.5146;
1205.1000;0.5722;-5.5094;
1205.4000;0.5771;-5.4939;
1205.7000;0.5755;-5.5120;
1206.0000;0.5739;-5.5068;
1206.3000;0.5739;-5.5042;
1206.6000;0.5788;-5.5042;
1206.9000;0.5739;-5.5224;
1207.2000;0.5739;-5.5275;
1207.5000;0.5722;-5.5301;
1207.8000;0.5739;-5.5250;
1208.1000;0.5731;-5.5275;
1208.4000;0.5731;-5.5379;
1208.7000;0.5722;-5.5405;
1209.0000;0.5739;-5.5405;
1209.3000;0.5682;-5.5560;
1209.6000;0.5747;-5.5431;
1209.9000;0.5722;-5.5431;
1210.2000;0.5731;-5.5275;
1210.5000;0.5739;-5.5224;
1210.8000;0.5739;-5.5094;
1211.1000;0.5682;-5.5224;
1211.4000;0.5731;-5.5120;
1211.7000;0.5739;-5.5146;
1212.0000;0.5731;-5.5224;
1212.3000;0.5731;-5.5250;
1212.6000;0.5731;-5.5275;
1212.9000;0.5747;-5.5172;
1213.2000;0.5731;-5.5327;
1213.5000;0.5731;-5.5224;
1213.8000;0.5731;-5.5224;
1214.1000;0.5755;-5.5068;
1214.4000;0.5739;-5.5094;
1214.7000;0.5731;-5.5094;
1215.0000;0.5722;-5.5198;
1215.3000;0.5731;-5.5250;
1215.6000;0.5747;-5.5224;
1215.9000;0.5747;-5.5250;
1216.2000;0.5722;-5.5353;
1216.5000;0.5731;-5.5327;
1216.8000;0.5731;-5.5327;
1217.1000;0.5779;-5.5146;
1217.4000;0.5706;-5.5224;
1217.7000;0.5698;-5.5198;
1218.0000;0.5665;-5.5327;
1218.3000;0.5722;-5.5198;
1218.6000;0.5722;-5.5146;
1218.9000;0.5722;-5.5172;
1219.2000;0.5731;-5.5094;
1219.5000;0.5747;-5.5042;
1219.8000;0.5722;-5.5016;
1220.1000;0.5731;-5.5042;
1220.4000;0.5731;-5.4991;
1220.7000;0.5739;-5.4965;
1221.0000;0.5722;-5.4965;
1221.3000;0.5731;-5.5042;
1221.6000;0.5731;-5.5068;
1221.9000;0.5731;-5.5016;
1222.2000;0.5739;-5.5016;
1222.5000;0.5722;-5.5016;
1222.8000;0.5722;-5.5120;
1223.1000;0.5739;-5.5120;
1223.4000;0.5747;-5.5120;
1223.7000;0.5722;-5.5146;
1224.0000;0.5722;-5.5198;
1224.3000;0.5722;-5.5146;
1224.6000;0.5722;-5.5146;
1224.9000;0.5722;-5.5198;
1225.2000;0.5722;-5.5198;
1225.5000;0.5714;-5.5094;
1225.8000;0.5731;-5.5042;
1226.1000;0.5739;-5.5068;
1226.4000;0.5722;-5.5120;
1226.7000;0.5731;-5.5094;
1227.0000;0.5731;-5.5120;
1227.3000;0.5747;-5.5094;
1227.6000;0.5747;-5.5120;
1227.9000;0.5739;-5.5172;
1228.2000;0.5731;-5.5146;
1228.5000;0.5739;-5.5042;
1228.8000;0.5739;-5.4991;
1229.1000;0.5731;-5.5042;
1229.4000;0.5714;-5.5094;
1229.7000;0.5706;-5.5016;
1230.0000;0.5731;-5.5016;
1230.3000;0.5731;-5.4991;
1230.6000;0.5649;-5.5250;
1230.9000;0.5731;-5.5068;
1231.2000;0.5731;-5.5016;
1231.5000;0.5731;-5.4939;
1231.8000;0.5714;-5.4965;
1232.1000;0.5747;-5.4913;
1232.4000;0.5722;-5.5016;
1232.7000;0.5714;-5.5042;
1233.0000;0.5731;-5.5146;
1233.3000;0.5706;-5.5250;
1233.6000;0.5722;-5.5224;
1233.9000;0.5674;-5.5327;
1234.2000;0.5714;-5.5250;
1234.5000;0.5731;-5.5275;
1234.8000;0.5747;-5.5250;
1235.1000;0.5722;-5.5198;
1235.4000;0.5722;-5.5224;
1235.7000;0.5714;-5.5224;
1236.0000;0.5739;-5.5120;
1236.3000;0.5747;-5.5094;
1236.6000;0.5747;-5.5198;
1236.9000;0.5747;-5.5146;
1237.2000;0.5731;-5.5120;
1237.5000;0.5739;-5.5172;
1237.8000;0.5731;-5.5146;
1238.1000;0.5722;-5.5172;
1238.4000;0.5731;-5.5146;
1238.7000;0.5722;-5.5120;
1239.0000;0.5788;-5.4965;
1239.3000;0.5739;-5.5146;
1239.6000;0.5722;-5.5172;
1239.9000;0.5722;-5.5172;
1240.2000;0.5747;-5.5068;
1240.5000;0.5731;-5.5120;
1240.8000;0.5722;-5.5094;
1241.1000;0.5731;-5.5120;
1241.4000;0.5747;-5.5042;
1241.7000;0.5739;-5.5094;
1242.0000;0.5739;-5.5068;
1242.3000;0.5739;-5.5120;
1242.6000;0.5731;-5.5120;
1242.9000;0.5714;-5.5224;
1243.2000;0.5714;-5.5198;
1243.5000;0.5714;-5.5146;
1243.8000;0.5731;-5.5172;
1244.1000;0.5722;-5.5146;
1244.4000;0.5706;-5.5224;
1244.7000;0.5714;-5.5172;
1245.0000;0.5698;-5.5146;
1245.3000;0.5714;-5.5172;
1245.6000;0.5714;-5.5068;
1245.9000;0.5714;-5.5016;
1246.2000;0.5747;-5.4887;
1246.5000;0.5739;-5.5016;
1246.8000;0.5731;-5.5016;
1247.1000;0.5722;-5.5016;
1247.4000;0.5731;-5.4991;
1247.7000;0.5739;-5.5016;
1248.0000;0.5722;-5.5042;
1248.3000;0.5722;-5.5094;
1248.6000;0.5731;-5.5094;
1248.9000;0.5722;-5.5120;
1249.2000;0.5722;-5.5016;
1249.5000;0.5714;-5.5042;
1249.8000;0.5714;-5.5042;
1250.1000;0.5731;-5.5094;
1250.4000;0.5731;-5.5094;
1250.7000;0.5722;-5.5120;
1251.0000;0.5722;-5.5120;
1251.3000;0.5731;-5.5094;
1251.6000;0.5731;-5.5042;
1251.9000;0.5722;-5.5068;
1252.2000;0.5755;-5.5042;
1252.5000;0.5731;-5.5120;
1252.8000;0.5739;-5.5094;
1253.1000;0.5739;-5.5146;
1253.4000;0.5731;-5.5198;
1253.7000;0.5714;-5.5198;
1254.0000;0.5739;-5.5120;
1254.3000;0.5714;-5.5198;
1254.6000;0.5714;-5.5172;
1254.9000;0.5706;-5.5275;
1255.2000;0.5714;-5.5198;
1255.5000;0.5739;-5.5094;
1255.8000;0.5739;-5.5120;
1256.1000;0.5722;-5.5042;
1256.4000;0.5739;-5.5094;
1256.7000;0.5698;-5.5146;
1257.0000;0.5731;-5.5094;
1257.3000;0.5665;-5.5301;
1257.6000;0.5722;-5.5120;
1257.9000;0.5722;-5.5146;
1258.2000;0.5747;-5.5094;
1258.5000;0.5714;-5.5198;
1258.8000;0.5722;-5.5094;
1259.1000;0.5706;-5.5094;
1259.4000;0.5714;-5.5094;
1259.7000;0.5731;-5.5016;
1260.0000;0.5674;-5.5198;
1260.3000;0.5722;-5.5094;
1260.6000;0.5747;-5.5094;
1260.9000;0.5714;-5.5224;
1261.2000;0.5731;-5.5250;
1261.5000;0.5779;-5.5068;
1261.8000;0.5722;-5.5120;
1262.1000;0.5722;-5.5120;
1262.4000;0.5714;-5.5198;
1262.7000;0.5739;-5.5120;
1263.0000;0.5722;-5.5094;
1263.3000;0.5763;-5.5094;
1263.6000;0.5706;-5.5146;
1263.9000;0.5722;-5.5146;
1264.2000;0.5739;-5.5120;
1264.5000;0.5731;-5.5120;
1264.8000;0.5747;-5.5120;
1265.1000;0.5706;-5.5224;
1265.4000;0.5722;-5.5198;
1265.7000;0.5731;-5.5275;
1266.0000;0.5731;-5.5327;
1266.3000;0.5722;-5.5379;
1266.6000;0.5739;-5.5275;
1266.9000;0.5739;-5.5250;
1267.2000;0.5714;-5.5250;
1267.5000;0.5796;-5.5120;
1267.8000;0.5731;-5.5120;
1268.1000;0.5714;-5.5120;
1268.4000;0.5722;-5.5016;
1268.7000;0.5722;-5.5094;
1269.0000;0.5714;-5.5120;
1269.3000;0.5731;-5.5146;
1269.6000;0.5747;-5.5120;
1269.9000;0.5714;-5.5146;
1270.2000;0.5739;-5.5068;
1270.5000;0.5722;-5.5146;
1270.8000;0.5731;-5.5068;
1271.1000;0.5714;-5.5094;
1271.4000;0.5714;-5.5120;
1271.7000;0.5706;-5.5146;
1272.0000;0.5722;-5.5068;
1272.3000;0.5633;-5.5224;
1272.6000;0.5722;-5.4991;
1272.9000;0.5706;-5.5016;
1273.2000;0.5739;-5.5042;
1273.5000;0.5722;-5.5042;
1273.8000;0.5714;-5.5042;
1274.1000;0.5731;-5.5016;
1274.4000;0.5739;-5.5042;
1274.7000;0.5755;-5.4965;
1275.0000;0.5739;-5.4991;
1275.3000;0.5722;-5.5068;
1275.6000;0.5714;-5.5068;
1275.9000;0.5714;-5.5068;
1276.2000;0.5674;-5.5172;
1276.5000;0.5714;-5.5094;
1276.8000;0.5722;-5.5042;
1277.1000;0.5722;-5.5016;
1277.4000;0.5722;-5.4965;
1277.7000;0.5714;-5.5016;
1278.0000;0.5722;-5.5068;
1278.3000;0.5747;-5.4939;
1278.6000;0.5714;-5.4965;
1278.9000;0.5788;-5.4783;
1279.2000;0.5739;-5.4913;
1279.5000;0.5714;-5.4887;
1279.8000;0.5739;-5.4835;
1280.1000;0.5698;-5.4965;
1280.4000;0.5722;-5.5016;
1280.7000;0.5722;-5.5016;
1281.0000;0.5714;-5.5146;
1281.3000;0.5714;-5.5120;
1281.6000;0.5698;-5.5198;
1281.9000;0.5706;-5.5198;
1282.2000;0.5731;-5.5120;
1282.5000;0.5714;-5.5094;
1282.8000;0.5722;-5.5120;
1283.1000;0.5722;-5.5042;
1283.4000;0.5714;-5.5016;
1283.7000;0.5714;-5.4991;
1284.0000;0.5722;-5.4991;
1284.3000;0.5714;-5.5016;
1284.6000;0.5731;-5.5016;
1284.9000;0.5731;-5.5172;
1285.2000;0.5714;-5.5120;
1285.5000;0.5722;-5.5120;
1285.8000;0.5722;-5.5068;
1286.1000;0.5722;-5.5016;
1286.4000;0.5714;-5.5068;
1286.7000;0.5747;-5.5016;
1287.0000;0.5722;-5.5094;
1287.3000;0.5722;-5.5042;
1287.6000;0.5731;-5.5094;
1287.9000;0.5722;-5.5250;
1288.2000;0.5755;-5.5198;
1288.5000;0.5739;-5.5172;
1288.8000;0.5722;-5.5172;
1289.1000;0.5714;-5.5250;
1289.4000;0.5739;-5.5353;
1289.7000;0.5771;-5.5198;
1290.0000;0.5755;-5.5250;
1290.3000;0.5722;-5.5250;
1290.6000;0.5706;-5.5120;
1290.9000;0.5731;-5.5094;
1291.2000;0.5722;-5.5120;
1291.5000;0.5731;-5.5172;
1291.8000;0.5722;-5.5224;
1292.1000;0.5722;-5.5275;
1292.4000;0.5755;-5.5198;
1292.7000;0.5739;-5.5250;
1293.0000;0.5739;-5.5172;
1293.3000;0.5731;-5.5120;
1293.6000;0.5722;-5.5172;
1293.9000;0.5714;-5.5198;
1294.2000;0.5706;-5.5224;
1294.5000;0.5665;-5.5301;
1294.8000;0.5698;-5.5172;
1295.1000;0.5690;-5.5275;
1295.4000;0.5682;-5.5353;
1295.7000;0.5706;-5.5275;
1296.0000;0.5779;-5.5094;
1296.3000;0.5714;-5.5172;
1296.6000;0.5739;-5.5042;
1296.9000;0.5722;-5.5172;
1297.2000;0.5690;-5.5198;
1297.5000;0.5714;-5.5068;
1297.8000;0.5714;-5.5068;
1298.1000;0.5722;-5.5094;
1298.4000;0.5731;-5.5042;
1298.7000;0.5714;-5.5016;
1299.0000;0.5722;-5.5042;
1299.3000;0.5690;-5.5094;
1299.6000;0.5771;-5.4887;
1299.9000;0.5682;-5.5094;
1300.2000;0.5698;-5.5172;
1300.5000;0.5706;-5.5198;
1300.8000;0.5690;-5.5120;
1301.1000;0.5698;-5.5172;
1301.4000;0.5722;-5.5146;
1301.7000;0.5747;-5.5094;
1302.0000;0.5690;-5.5275;
1302.3000;0.5649;-5.5327;
1302.6000;0.5714;-5.5198;
1302.9000;0.5706;-5.5120;
1303.2000;0.5755;-5.5016;
1303.5000;0.5706;-5.5224;
1303.8000;0.5714;-5.5120;
1304.1000;0.5722;-5.5068;
1304.4000;0.5714;-5.5146;
1304.7000;0.5739;-5.5094;
1305.0000;0.5739;-5.5094;
1305.3000;0.5731;-5.5094;
1305.6000;0.5714;-5.5094;
1305.9000;0.5714;-5.5016;
1306.2000;0.5698;-5.5068;
1306.5000;0.5722;-5.4965;
1306.8000;0.5731;-5.4991;
1307.1000;0.5714;-5.4913;
1307.4000;0.5698;-5.4939;
1307.7000;0.5714;-5.4939;
1308.0000;0.5714;-5.4991;
1308.3000;0.5722;-5.4991;
1308.6000;0.5722;-5.5094;
1308.9000;0.5739;-5.5042;
1309.2000;0.5722;-5.5068;
1309.5000;0.5674;-5.5198;
1309.8000;0.5714;-5.5094;
1310.1000;0.5706;-5.5094;
1310.4000;0.5722;-5.5068;
1310.7000;0.5714;-5.5042;
1311.0000;0.5739;-5.4991;
1311.3000;0.5714;-5.4939;
1311.6000;0.5722;-5.4861;
1311.9000;0.5722;-5.4913;
1312.2000;0.5706;-5.4939;
1312.5000;0.5714;-5.4861;
1312.8000;0.5714;-5.4887;
1313.1000;0.5739;-5.4861;
1313.4000;0.5706;-5.4861;
1313.7000;0.5714;-5.4861;
1314.0000;0.5722;-5.4861;
1314.3000;0.5714;-5.4939;
1314.6000;0.5714;-5.5094;
1314.9000;0.5739;-5.4991;
1315.2000;0.5706;-5.5120;
1315.5000;0.5739;-5.5094;
1315.8000;0.5698;-5.5120;
1316.1000;0.5722;-5.5016;
1316.4000;0.5706;-5.5016;
1316.7000;0.5706;-5.5042;
1317.0000;0.5731;-5.5042;
1317.3000;0.5706;-5.5042;
1317.6000;0.5698;-5.5094;
1317.9000;0.5698;-5.5120;
1318.2000;0.5698;-5.5198;
1318.5000;0.5747;-5.5120;
1318.8000;0.5722;-5.5172;
1319.1000;0.5706;-5.5198;
1319.4000;0.5722;-5.5146;
1319.7000;0.5714;-5.5120;
1320.0000;0.5706;-5.5120;
1320.3000;0.5698;-5.5042;
1320.6000;0.5714;-5.5042;
1320.9000;0.5706;-5.4965;
1321.2000;0.5714;-5.5016;
1321.5000;0.5690;-5.5094;
1321.8000;0.5763;-5.4835;
1322.1000;0.5698;-5.4809;
1322.4000;0.5698;-5.4861;
1322.7000;0.5706;-5.4861;
1323.0000;0.5706;-5.4965;
1323.3000;0.5698;-5.4991;
1323.6000;0.5714;-5.4913;
1323.9000;0.5731;-5.4991;
1324.2000;0.5714;-5.5042;
1324.5000;0.5731;-5.4991;
1324.8000;0.5722;-5.4991;
1325.1000;0.5706;-5.4991;
1325.4000;0.5747;-5.4861;
1325.7000;0.5722;-5.4965;
1326.0000;0.5722;-5.4939;
1326.3000;0.5706;-5.4939;
1326.6000;0.5698;-5.4939;
1326.9000;0.5714;-5.4991;
1327.2000;0.5722;-5.4991;
1327.5000;0.5698;-5.5016;
1327.8000;0.5698;-5.4965;
1328.1000;0.5722;-5.4965;
1328.4000;0.5698;-5.4991;
1328.7000;0.5706;-5.4965;
1329.0000;0.5706;-5.4965;
1329.3000;0.5714;-5.4991;
1329.6000;0.5731;-5.4913;
1329.9000;0.5714;-5.4887;
1330.2000;0.5682;-5.4965;
1330.5000;0.5706;-5.4939;
1330.8000;0.5714;-5.4991;
1331.1000;0.5706;-5.5016;
1331.4000;0.5698;-5.4939;
1331.7000;0.5698;-5.4887;
1332.0000;0.5698;-5.4861;
1332.3000;0.5714;-5.4887;
1332.6000;0.5714;-5.4939;
1332.9000;0.5706;-5.4913;
1333.2000;0.5690;-5.4887;
1333.5000;0.5698;-5.4965;
1333.8000;0.5690;-5.4939;
1334.1000;0.5682;-5.4965;
1334.4000;0.5698;-5.4939;
1334.7000;0.5706;-5.4861;
1335.0000;0.5714;-5.4861;
1335.3000;0.5722;-5.4809;
1335.6000;0.5722;-5.4809;
1335.9000;0.5722;-5.4887;
1336.2000;0.5731;-5.4835;
1336.5000;0.5722;-5.4861;
1336.8000;0.5714;-5.4809;
1337.1000;0.5731;-5.4783;
1337.4000;0.5714;-5.4809;
1337.7000;0.5690;-5.4861;
1338.0000;0.5690;-5.4887;
1338.3000;0.5698;-5.4913;
1338.6000;0.5698;-5.4991;
1338.9000;0.5698;-5.5016;
1339.2000;0.5722;-5.5016;
1339.5000;0.5714;-5.5120;
1339.8000;0.5714;-5.5120;
1340.1000;0.5714;-5.5094;
1340.4000;0.5698;-5.5094;
1340.7000;0.5706;-5.5094;
1341.0000;0.5698;-5.5120;
1341.3000;0.5706;-5.5068;
1341.6000;0.5690;-5.5042;
1341.9000;0.5698;-5.4965;
1342.2000;0.5665;-5.4939;
1342.5000;0.5698;-5.4861;
1342.8000;0.5706;-5.4887;
1343.1000;0.5690;-5.4809;
1343.4000;0.5706;-5.4783;
1343.7000;0.5698;-5.4706;
1344.0000;0.5706;-5.4732;
1344.3000;0.5714;-5.4809;
1344.6000;0.5706;-5.4783;
1344.9000;0.5698;-5.4783;
1345.2000;0.5706;-5.4783;
1345.5000;0.5698;-5.4887;
1345.8000;0.5714;-5.4861;
1346.1000;0.5722;-5.4861;
1346.4000;0.5714;-5.4835;
1346.7000;0.5714;-5.4835;
1347.0000;0.5698;-5.4835;
1347.3000;0.5698;-5.4757;
1347.6000;0.5698;-5.4706;
1347.9000;0.5714;-5.4732;
1348.2000;0.5698;-5.4732;
1348.5000;0.5714;-5.4757;
1348.8000;0.5674;-5.4913;
1349.1000;0.5690;-5.4939;
1349.4000;0.5714;-5.4861;
1349.7000;0.5706;-5.4887;
1350.0000;0.5698;-5.4913;
1350.3000;0.5706;-5.4887;
1350.6000;0.5690;-5.4913;
1350.9000;0.5649;-5.5068;
1351.2000;0.5706;-5.4861;
1351.5000;0.5722;-5.4809;
1351.8000;0.5714;-5.4939;
1352.1000;0.5706;-5.4887;
1352.4000;0.5690;-5.4965;
1352.7000;0.5731;-5.4965;
1353.0000;0.5698;-5.4939;
1353.3000;0.5714;-5.4809;
1353.6000;0.5690;-5.4809;
1353.9000;0.5690;-5.4913;
1354.2000;0.5682;-5.4939;
1354.5000;0.5698;-5.4913;
1354.8000;0.5698;-5.4861;
1355.1000;0.5690;-5.4835;
1355.4000;0.5682;-5.4757;
1355.7000;0.5682;-5.4835;
1356.0000;0.5690;-5.4835;
1356.3000;0.5714;-5.4732;
1356.6000;0.5706;-5.4809;
1356.9000;0.5690;-5.4861;
1357.2000;0.5706;-5.4835;
1357.5000;0.5763;-5.4732;
1357.8000;0.5706;-5.4757;
1358.1000;0.5674;-5.4939;
1358.4000;0.5690;-5.4939;
1358.7000;0.5690;-5.4861;
1359.0000;0.5698;-5.4783;
1359.3000;0.5714;-5.4861;
1359.6000;0.5698;-5.4887;
1359.9000;0.5706;-5.4835;
1360.2000;0.5706;-5.4939;
1360.5000;0.5714;-5.4835;
1360.8000;0.5731;-5.4809;
1361.1000;0.5698;-5.4861;
1361.4000;0.5714;-5.4835;
1361.7000;0.5714;-5.4783;
1362.0000;0.5674;-5.4887;
1362.3000;0.5722;-5.4861;
1362.6000;0.5706;-5.4965;
1362.9000;0.5706;-5.4965;
1363.2000;0.5755;-5.4835;
1363.5000;0.5706;-5.4861;
1363.8000;0.5698;-5.4809;
1364.1000;0.5706;-5.4783;
1364.4000;0.5722;-5.4680;
1364.7000;0.5641;-5.4835;
1365.0000;0.5682;-5.4732;
1365.3000;0.5682;-5.4835;
1365.6000;0.5690;-5.4913;
1365.9000;0.5665;-5.4965;
1366.2000;0.5706;-5.4887;
1366.5000;0.5690;-5.4965;
1366.8000;0.5698;-5.4991;
1367.1000;0.5698;-5.4913;
1367.4000;0.5682;-5.4887;
1367.7000;0.5714;-5.4913;
1368.0000;0.5698;-5.5016;
1368.3000;0.5690;-5.5042;
1368.6000;0.5690;-5.5094;
1368.9000;0.5706;-5.4939;
1369.2000;0.5698;-5.4913;
1369.5000;0.5698;-5.4913;
1369.8000;0.5690;-5.4887;
1370.1000;0.5665;-5.4861;
1370.4000;0.5706;-5.4809;
1370.7000;0.5698;-5.4861;
1371.0000;0.5706;-5.4887;
1371.3000;0.5690;-5.4965;
1371.6000;0.5690;-5.4913;
1371.9000;0.5690;-5.4939;
1372.2000;0.5674;-5.4965;
1372.5000;0.5706;-5.4913;
1372.8000;0.5714;-5.4965;
1373.1000;0.5706;-5.4965;
1373.4000;0.5682;-5.5120;
1373.7000;0.5690;-5.5068;
1374.0000;0.5706;-5.5016;
1374.3000;0.5714;-5.4991;
1374.6000;0.5690;-5.5172;
1374.9000;0.5714;-5.5120;
1375.2000;0.5674;-5.5146;
1375.5000;0.5698;-5.5068;
1375.8000;0.5690;-5.4991;
1376.1000;0.5690;-5.4939;
1376.4000;0.5690;-5.4887;
1376.7000;0.5731;-5.4861;
1377.0000;0.5731;-5.4965;
1377.3000;0.5698;-5.4965;
1377.6000;0.5690;-5.4913;
1377.9000;0.5722;-5.4913;
1378.2000;0.5706;-5.4991;
1378.5000;0.5690;-5.4939;
1378.8000;0.5682;-5.4913;
1379.1000;0.5690;-5.4809;
1379.4000;0.5714;-5.4809;
1379.7000;0.5690;-5.4835;
1380.0000;0.5690;-5.4680;
1380.3000;0.5690;-5.4732;
1380.6000;0.5722;-5.4706;
1380.9000;0.5698;-5.4732;
1381.2000;0.5665;-5.4887;
1381.5000;0.5690;-5.4887;
1381.8000;0.5706;-5.4913;
1382.1000;0.5722;-5.4887;
1382.4000;0.5706;-5.4991;
1382.7000;0.5739;-5.4939;
1383.0000;0.5617;-5.5198;
1383.3000;0.5706;-5.4913;
1383.6000;0.5698;-5.4887;
1383.9000;0.5698;-5.4887;
1384.2000;0.5698;-5.4887;
1384.5000;0.5698;-5.4965;
1384.8000;0.5747;-5.4861;
1385.1000;0.5682;-5.4939;
1385.4000;0.5690;-5.4991;
1385.7000;0.5698;-5.5042;
1386.0000;0.5706;-5.4991;
1386.3000;0.5731;-5.4887;
1386.6000;0.5698;-5.4991;
1386.9000;0.5755;-5.4757;
1387.2000;0.5714;-5.4939;
1387.5000;0.5698;-5.4861;
1387.8000;0.5625;-5.5016;
1388.1000;0.5690;-5.4939;
1388.4000;0.5665;-5.4913;
1388.7000;0.5682;-5.4913;
1389.0000;0.5674;-5.5016;
1389.3000;0.5690;-5.5042;
1389.6000;0.5690;-5.4991;
1389.9000;0.5698;-5.4939;
1390.2000;0.5714;-5.4887;
1390.5000;0.5665;-5.5042;
1390.8000;0.5698;-5.4965;
1391.1000;0.5714;-5.4887;
1391.4000;0.5674;-5.4991;
1391.7000;0.5698;-5.4991;
1392.0000;0.5698;-5.4991;
1392.3000;0.5690;-5.4965;
1392.6000;0.5690;-5.5042;
1392.9000;0.5714;-5.4939;
1393.2000;0.5714;-5.4991;
1393.5000;0.5739;-5.4939;
1393.8000;0.5690;-5.5094;
1394.1000;0.5690;-5.5146;
1394.4000;0.5690;-5.5146;
1394.7000;0.5706;-5.5198;
1395.0000;0.5690;-5.5172;
1395.3000;0.5682;-5.5146;
1395.6000;0.5690;-5.5068;
1395.9000;0.5690;-5.5094;
1396.2000;0.5698;-5.5016;
1396.5000;0.5698;-5.5042;
1396.8000;0.5690;-5.4939;
1397.1000;0.5690;-5.4939;
1397.4000;0.5714;-5.5016;
1397.7000;0.5690;-5.5016;
1398.0000;0.5690;-5.5068;
1398.3000;0.5698;-5.5068;
1398.6000;0.5739;-5.4965;
1398.9000;0.5722;-5.5016;
1399.2000;0.5698;-5.5016;
1399.5000;0.5641;-5.5120;
1399.8000;0.5690;-5.4991;
