time/ms;Fluo/V;P700 deltaI/I x10³;
-199.8000;0.4851;1.0609;
-199.5000;0.4843;1.0559;
-199.2000;0.4876;1.0634;
-198.9000;0.4876;1.0634;
-198.6000;0.4860;1.0634;
-198.3000;0.4827;1.0534;
-198.0000;0.4876;1.0559;
-197.7000;0.4868;1.0658;
-197.4000;0.4884;1.0683;
-197.1000;0.4933;1.0858;
-196.8000;0.4876;1.0733;
-196.5000;0.4908;1.0783;
-196.2000;0.4884;1.0708;
-195.9000;0.4860;1.0658;
-195.6000;0.4860;1.0658;
-195.3000;0.4876;1.0708;
-195.0000;0.4884;1.0733;
-194.7000;0.4868;1.0609;
-194.4000;0.4868;1.0634;
-194.1000;0.4860;1.0708;
-193.8000;0.4876;1.0584;
-193.5000;0.4827;1.0534;
-193.2000;0.4892;1.0708;
-192.9000;0.4868;1.0783;
-192.6000;0.4917;1.0808;
-192.3000;0.4876;1.0733;
-192.0000;0.4884;1.0708;
-191.7000;0.4868;1.0683;
-191.4000;0.4876;1.0683;
-191.1000;0.4908;1.0833;
-190.8000;0.4851;1.0658;
-190.5000;0.4851;1.0534;
-190.2000;0.4917;1.0683;
-189.9000;0.4868;1.0584;
-189.6000;0.4868;1.0634;
-189.3000;0.4876;1.0559;
-189.0000;0.4868;1.0534;
-188.7000;0.4876;1.0509;
-188.4000;0.4876;1.0484;
-188.1000;0.4860;1.0484;
-187.8000;0.4851;1.0584;
-187.5000;0.4884;1.0733;
-187.2000;0.4868;1.0733;
-186.9000;0.4917;1.0858;
-186.6000;0.4794;1.0534;
-186.3000;0.4917;1.0908;
-186.0000;0.4851;1.0708;
-185.7000;0.4868;1.0683;
-185.4000;0.4876;1.0634;
-185.1000;0.4892;1.0683;
-184.8000;0.4884;1.0683;
-184.5000;0.4876;1.0758;
-184.2000;0.4835;1.0634;
-183.9000;0.4876;1.0783;
-183.6000;0.4778;1.0534;
-183.3000;0.4860;1.0708;
-183.0000;0.4868;1.0683;
-182.7000;0.4892;1.0733;
-182.4000;0.4884;1.0658;
-182.1000;0.4933;1.0708;
-181.8000;0.4851;1.0434;
-181.5000;0.4876;1.0484;
-181.2000;0.4851;1.0385;
-180.9000;0.4860;1.0484;
-180.6000;0.4860;1.0534;
-180.3000;0.4892;1.0559;
-180.0000;0.4884;1.0459;
-179.7000;0.4843;1.0285;
-179.4000;0.4860;1.0235;
-179.1000;0.4811;1.0086;
-178.8000;0.4876;1.0260;
-178.5000;0.4876;1.0459;
-178.2000;0.4876;1.0335;
-177.9000;0.4851;1.0285;
-177.6000;0.4851;1.0285;
-177.3000;0.4876;1.0434;
-177.0000;0.4884;1.0509;
-176.7000;0.4851;1.0459;
-176.4000;0.4868;1.0534;
-176.1000;0.4819;1.0409;
-175.8000;0.4892;1.0509;
-175.5000;0.4868;1.0584;
-175.2000;0.4843;1.0509;
-174.9000;0.4892;1.0634;
-174.6000;0.4851;1.0534;
-174.3000;0.4884;1.0708;
-174.0000;0.4876;1.0683;
-173.7000;0.4868;1.0658;
-173.4000;0.4876;1.0683;
-173.1000;0.4925;1.0858;
-172.8000;0.4868;1.0758;
-172.5000;0.4884;1.0783;
-172.2000;0.4876;1.0733;
-171.9000;0.4876;1.0658;
-171.6000;0.4868;1.0534;
-171.3000;0.4876;1.0559;
-171.0000;0.4884;1.0609;
-170.7000;0.4843;1.0559;
-170.4000;0.4892;1.0609;
-170.1000;0.4860;1.0534;
-169.8000;0.4876;1.0559;
-169.5000;0.4876;1.0584;
-169.2000;0.4876;1.0584;
-168.9000;0.4884;1.0534;
-168.6000;0.4884;1.0434;
-168.3000;0.4868;1.0434;
-168.0000;0.4860;1.0459;
-167.7000;0.4876;1.0609;
-167.4000;0.4868;1.0584;
-167.1000;0.4876;1.0658;
-166.8000;0.4908;1.0708;
-166.5000;0.4900;1.0758;
-166.2000;0.4868;1.0708;
-165.9000;0.4868;1.0758;
-165.6000;0.4868;1.0733;
-165.3000;0.4868;1.0758;
-165.0000;0.4811;1.0609;
-164.7000;0.4803;1.0708;
-164.4000;0.4860;1.0758;
-164.1000;0.4860;1.0708;
-163.8000;0.4892;1.0683;
-163.5000;0.4908;1.0708;
-163.2000;0.4868;1.0683;
-162.9000;0.4884;1.0683;
-162.6000;0.4908;1.0758;
-162.3000;0.4884;1.0758;
-162.0000;0.4876;1.0808;
-161.7000;0.4884;1.0883;
-161.4000;0.4851;1.0908;
-161.1000;0.4876;1.0957;
-160.8000;0.4860;1.0908;
-160.5000;0.4868;1.0932;
-160.2000;0.4851;1.1007;
-159.9000;0.4925;1.1132;
-159.6000;0.4933;1.1157;
-159.3000;0.4884;1.0982;
-159.0000;0.4925;1.1057;
-158.7000;0.4884;1.1057;
-158.4000;0.4819;1.0808;
-158.1000;0.4884;1.0982;
-157.8000;0.4868;1.0858;
-157.5000;0.4860;1.0833;
-157.2000;0.4851;1.0708;
-156.9000;0.4876;1.0708;
-156.6000;0.4851;1.0683;
-156.3000;0.4843;1.0609;
-156.0000;0.4851;1.0584;
-155.7000;0.4868;1.0634;
-155.4000;0.4868;1.0733;
-155.1000;0.4876;1.0758;
-154.8000;0.4860;1.0758;
-154.5000;0.4851;1.0808;
-154.2000;0.4851;1.0733;
-153.9000;0.4868;1.0708;
-153.6000;0.4860;1.0758;
-153.3000;0.4884;1.0733;
-153.0000;0.4892;1.0708;
-152.7000;0.4884;1.0708;
-152.4000;0.4876;1.0708;
-152.1000;0.4884;1.0658;
-151.8000;0.4884;1.0634;
-151.5000;0.4900;1.0683;
-151.2000;0.4860;1.0634;
-150.9000;0.4868;1.0658;
-150.6000;0.4876;1.0758;
-150.3000;0.4868;1.0758;
-150.0000;0.4876;1.0758;
-149.7000;0.4868;1.0758;
-149.4000;0.4892;1.0883;
-149.1000;0.4884;1.0808;
-148.8000;0.4884;1.0758;
-148.5000;0.4851;1.0658;
-148.2000;0.4876;1.0783;
-147.9000;0.4892;1.0833;
-147.6000;0.4884;1.0783;
-147.3000;0.4876;1.0808;
-147.0000;0.4868;1.0908;
-146.7000;0.4884;1.1032;
-146.4000;0.4892;1.0982;
-146.1000;0.4868;1.0957;
-145.8000;0.4868;1.0908;
-145.5000;0.4876;1.0883;
-145.2000;0.4868;1.0883;
-144.9000;0.4908;1.0982;
-144.6000;0.4851;1.0883;
-144.3000;0.4892;1.0932;
-144.0000;0.4884;1.0908;
-143.7000;0.4851;1.0758;
-143.4000;0.4868;1.0783;
-143.1000;0.4884;1.0783;
-142.8000;0.4876;1.0733;
-142.5000;0.4892;1.0683;
-142.2000;0.4860;1.0609;
-141.9000;0.4827;1.0609;
-141.6000;0.4933;1.0883;
-141.3000;0.4884;1.0733;
-141.0000;0.4851;1.0634;
-140.7000;0.4876;1.0658;
-140.4000;0.4860;1.0658;
-140.1000;0.4851;1.0733;
-139.8000;0.4868;1.0808;
-139.5000;0.4876;1.0883;
-139.2000;0.4819;1.0733;
-138.9000;0.4860;1.0708;
-138.6000;0.4884;1.0733;
-138.3000;0.4851;1.0584;
-138.0000;0.4835;1.0459;
-137.7000;0.4868;1.0584;
-137.4000;0.4892;1.0634;
-137.1000;0.4868;1.0634;
-136.8000;0.4794;1.0459;
-136.5000;0.4851;1.0509;
-136.2000;0.4868;1.0484;
-135.9000;0.4868;1.0584;
-135.6000;0.4868;1.0609;
-135.3000;0.4884;1.0758;
-135.0000;0.4868;1.0658;
-134.7000;0.4860;1.0584;
-134.4000;0.4851;1.0434;
-134.1000;0.4851;1.0409;
-133.8000;0.4884;1.0409;
-133.5000;0.4868;1.0260;
-133.2000;0.4860;1.0285;
-132.9000;0.4868;1.0409;
-132.6000;0.4868;1.0434;
-132.3000;0.4876;1.0409;
-132.0000;0.4892;1.0484;
-131.7000;0.4876;1.0434;
-131.4000;0.4843;1.0409;
-131.1000;0.4876;1.0534;
-130.8000;0.4876;1.0509;
-130.5000;0.4851;1.0459;
-130.2000;0.4860;1.0509;
-129.9000;0.4868;1.0534;
-129.6000;0.4851;1.0484;
-129.3000;0.4868;1.0609;
-129.0000;0.4974;1.0733;
-128.7000;0.4868;1.0434;
-128.4000;0.4884;1.0459;
-128.1000;0.4876;1.0584;
-127.8000;0.4868;1.0509;
-127.5000;0.4884;1.0484;
-127.2000;0.4884;1.0360;
-126.9000;0.4868;1.0409;
-126.6000;0.4868;1.0559;
-126.3000;0.4876;1.0609;
-126.0000;0.4860;1.0584;
-125.7000;0.4860;1.0559;
-125.4000;0.4868;1.0534;
-125.1000;0.4868;1.0559;
-124.8000;0.4868;1.0559;
-124.5000;0.4868;1.0584;
-124.2000;0.4860;1.0559;
-123.9000;0.4876;1.0584;
-123.6000;0.4933;1.0733;
-123.3000;0.4860;1.0559;
-123.0000;0.4851;1.0534;
-122.7000;0.4876;1.0534;
-122.4000;0.4868;1.0534;
-122.1000;0.4917;1.0634;
-121.8000;0.4884;1.0509;
-121.5000;0.4892;1.0658;
-121.2000;0.4900;1.0708;
-120.9000;0.4868;1.0634;
-120.6000;0.4868;1.0708;
-120.3000;0.4843;1.0708;
-120.0000;0.4900;1.0758;
-119.7000;0.4860;1.0584;
-119.4000;0.4876;1.0634;
-119.1000;0.4876;1.0658;
-118.8000;0.4868;1.0559;
-118.5000;0.4892;1.0634;
-118.2000;0.4860;1.0634;
-117.9000;0.4860;1.0559;
-117.6000;0.4884;1.0559;
-117.3000;0.4868;1.0584;
-117.0000;0.4884;1.0634;
-116.7000;0.4884;1.0534;
-116.4000;0.4811;1.0335;
-116.1000;0.4884;1.0584;
-115.8000;0.4884;1.0708;
-115.5000;0.4860;1.0683;
-115.2000;0.4949;1.0858;
-114.9000;0.4860;1.0683;
-114.6000;0.4860;1.0733;
-114.3000;0.4868;1.0783;
-114.0000;0.4868;1.0758;
-113.7000;0.4868;1.0708;
-113.4000;0.4900;1.0783;
-113.1000;0.4884;1.0758;
-112.8000;0.4876;1.0733;
-112.5000;0.4876;1.0758;
-112.2000;0.4876;1.0758;
-111.9000;0.4892;1.0783;
-111.6000;0.4884;1.0833;
-111.3000;0.4876;1.0908;
-111.0000;0.4892;1.0932;
-110.7000;0.4860;1.0833;
-110.4000;0.4884;1.0808;
-110.1000;0.4860;1.0584;
-109.8000;0.4949;1.0858;
-109.5000;0.4876;1.0634;
-109.2000;0.4876;1.0609;
-108.9000;0.4933;1.0733;
-108.6000;0.4876;1.0584;
-108.3000;0.4868;1.0559;
-108.0000;0.4868;1.0584;
-107.7000;0.4884;1.0534;
-107.4000;0.4860;1.0534;
-107.1000;0.4860;1.0509;
-106.8000;0.4933;1.0634;
-106.5000;0.4860;1.0509;
-106.2000;0.4770;1.0335;
-105.9000;0.4860;1.0559;
-105.6000;0.4860;1.0509;
-105.3000;0.4843;1.0559;
-105.0000;0.4868;1.0534;
-104.7000;0.4876;1.0509;
-104.4000;0.4876;1.0559;
-104.1000;0.4860;1.0534;
-103.8000;0.4851;1.0509;
-103.5000;0.4876;1.0559;
-103.2000;0.4851;1.0459;
-102.9000;0.4851;1.0559;
-102.6000;0.4884;1.0658;
-102.3000;0.4892;1.0733;
-102.0000;0.4868;1.0609;
-101.7000;0.4876;1.0484;
-101.4000;0.4876;1.0484;
-101.1000;0.4876;1.0385;
-100.8000;0.4933;1.0484;
-100.5000;0.4884;1.0385;
-100.2000;0.4876;1.0310;
-99.9000;0.4868;1.0335;
-99.6000;0.4860;1.0310;
-99.3000;0.4892;1.0409;
-99.0000;0.4884;1.0360;
-98.7000;0.4868;1.0360;
-98.4000;0.4884;1.0459;
-98.1000;0.4949;1.0584;
-97.8000;0.4851;1.0260;
-97.5000;0.4876;1.0260;
-97.2000;0.4892;1.0260;
-96.9000;0.4884;1.0210;
-96.6000;0.4892;1.0310;
-96.3000;0.4884;1.0310;
-96.0000;0.4868;1.0409;
-95.7000;0.4860;1.0484;
-95.4000;0.4876;1.0434;
-95.1000;0.4860;1.0385;
-94.8000;0.4868;1.0335;
-94.5000;0.4892;1.0285;
-94.2000;0.4900;1.0285;
-93.9000;0.4860;1.0185;
-93.6000;0.4876;1.0235;
-93.3000;0.4876;1.0160;
-93.0000;0.4843;1.0136;
-92.7000;0.4868;1.0185;
-92.4000;0.4876;1.0185;
-92.1000;0.4900;1.0310;
-91.8000;0.4868;1.0385;
-91.5000;0.4876;1.0360;
-91.2000;0.4876;1.0310;
-90.9000;0.4876;1.0285;
-90.6000;0.4868;1.0285;
-90.3000;0.4884;1.0360;
-90.0000;0.4860;1.0310;
-89.7000;0.4884;1.0534;
-89.4000;0.4851;1.0658;
-89.1000;0.4884;1.0658;
-88.8000;0.4868;1.0534;
-88.5000;0.4868;1.0409;
-88.2000;0.4884;1.0434;
-87.9000;0.4876;1.0484;
-87.6000;0.4860;1.0459;
-87.3000;0.4868;1.0534;
-87.0000;0.4868;1.0559;
-86.7000;0.4868;1.0584;
-86.4000;0.4819;1.0385;
-86.1000;0.4851;1.0484;
-85.8000;0.4835;1.0434;
-85.5000;0.4876;1.0459;
-85.2000;0.4860;1.0310;
-84.9000;0.4941;1.0484;
-84.6000;0.4843;1.0310;
-84.3000;0.4860;1.0385;
-84.0000;0.4843;1.0360;
-83.7000;0.4860;1.0434;
-83.4000;0.4876;1.0434;
-83.1000;0.4884;1.0534;
-82.8000;0.4843;1.0409;
-82.5000;0.4876;1.0509;
-82.2000;0.4868;1.0484;
-81.9000;0.4884;1.0609;
-81.6000;0.4917;1.0733;
-81.3000;0.4835;1.0534;
-81.0000;0.4860;1.0559;
-80.7000;0.4876;1.0683;
-80.4000;0.4876;1.0733;
-80.1000;0.4860;1.0758;
-79.8000;0.4860;1.0708;
-79.5000;0.4868;1.0733;
-79.2000;0.4900;1.0783;
-78.9000;0.4851;1.0733;
-78.6000;0.4876;1.0683;
-78.3000;0.4900;1.0708;
-78.0000;0.4860;1.0559;
-77.7000;0.4892;1.0634;
-77.4000;0.4876;1.0634;
-77.1000;0.4884;1.0609;
-76.8000;0.4860;1.0509;
-76.5000;0.4884;1.0509;
-76.2000;0.4884;1.0459;
-75.9000;0.4876;1.0310;
-75.6000;0.4860;1.0210;
-75.3000;0.4868;1.0310;
-75.0000;0.4876;1.0434;
-74.7000;0.4860;1.0509;
-74.4000;0.4876;1.0459;
-74.1000;0.4876;1.0360;
-73.8000;0.4851;1.0360;
-73.5000;0.4876;1.0360;
-73.2000;0.4860;1.0360;
-72.9000;0.4884;1.0434;
-72.6000;0.4892;1.0484;
-72.3000;0.4868;1.0484;
-72.0000;0.4851;1.0434;
-71.7000;0.4876;1.0534;
-71.4000;0.4860;1.0484;
-71.1000;0.4884;1.0534;
-70.8000;0.4868;1.0484;
-70.5000;0.4868;1.0409;
-70.2000;0.4974;1.0634;
-69.9000;0.4884;1.0409;
-69.6000;0.4876;1.0409;
-69.3000;0.4868;1.0484;
-69.0000;0.4868;1.0409;
-68.7000;0.4884;1.0459;
-68.4000;0.4876;1.0434;
-68.1000;0.4884;1.0459;
-67.8000;0.4868;1.0409;
-67.5000;0.4860;1.0409;
-67.2000;0.4868;1.0409;
-66.9000;0.4884;1.0409;
-66.6000;0.4884;1.0409;
-66.3000;0.4892;1.0509;
-66.0000;0.4876;1.0434;
-65.7000;0.4868;1.0459;
-65.4000;0.4957;1.0708;
-65.1000;0.4876;1.0434;
-64.8000;0.4876;1.0409;
-64.5000;0.4868;1.0335;
-64.2000;0.4868;1.0310;
-63.9000;0.4868;1.0385;
-63.6000;0.4990;1.0634;
-63.3000;0.4843;1.0285;
-63.0000;0.4868;1.0360;
-62.7000;0.4892;1.0385;
-62.4000;0.4770;0.9986;
-62.1000;0.4843;1.0185;
-61.8000;0.4860;1.0235;
-61.5000;0.4851;1.0285;
-61.2000;0.4860;1.0260;
-60.9000;0.4851;1.0335;
-60.6000;0.4851;1.0409;
-60.3000;0.4835;1.0385;
-60.0000;0.4892;1.0509;
-59.7000;0.4876;1.0459;
-59.4000;0.4876;1.0385;
-59.1000;0.4884;1.0360;
-58.8000;0.4884;1.0335;
-58.5000;0.4884;1.0285;
-58.2000;0.4884;1.0210;
-57.9000;0.4868;1.0185;
-57.6000;0.4868;1.0235;
-57.3000;0.4884;1.0285;
-57.0000;0.4860;1.0409;
-56.7000;0.4843;1.0409;
-56.4000;0.4868;1.0360;
-56.1000;0.4884;1.0409;
-55.8000;0.4884;1.0509;
-55.5000;0.4876;1.0534;
-55.2000;0.4827;1.0360;
-54.9000;0.4868;1.0459;
-54.6000;0.4892;1.0559;
-54.3000;0.4884;1.0534;
-54.0000;0.4868;1.0484;
-53.7000;0.4884;1.0534;
-53.4000;0.4860;1.0484;
-53.1000;0.4876;1.0584;
-52.8000;0.4860;1.0609;
-52.5000;0.4843;1.0559;
-52.2000;0.4884;1.0559;
-51.9000;0.4900;1.0584;
-51.6000;0.4868;1.0484;
-51.3000;0.4868;1.0484;
-51.0000;0.4868;1.0409;
-50.7000;0.4860;1.0409;
-50.4000;0.4876;1.0509;
-50.1000;0.4860;1.0484;
-49.8000;0.4868;1.0509;
-49.5000;0.4851;1.0434;
-49.2000;0.4827;1.0385;
-48.9000;0.4860;1.0534;
-48.6000;0.4868;1.0459;
-48.3000;0.4868;1.0385;
-48.0000;0.4965;1.0609;
-47.7000;0.4860;1.0360;
-47.4000;0.4900;1.0459;
-47.1000;0.4892;1.0459;
-46.8000;0.4860;1.0385;
-46.5000;0.4860;1.0484;
-46.2000;0.4868;1.0459;
-45.9000;0.4884;1.0459;
-45.6000;0.4876;1.0409;
-45.3000;0.4868;1.0509;
-45.0000;0.4876;1.0559;
-44.7000;0.4876;1.0634;
-44.4000;0.4884;1.0609;
-44.1000;0.4892;1.0559;
-43.8000;0.4892;1.0484;
-43.5000;0.4851;1.0385;
-43.2000;0.4876;1.0385;
-42.9000;0.4860;1.0285;
-42.6000;0.4941;1.0459;
-42.3000;0.4884;1.0310;
-42.0000;0.4876;1.0385;
-41.7000;0.4851;1.0335;
-41.4000;0.4851;1.0310;
-41.1000;0.4884;1.0385;
-40.8000;0.4876;1.0385;
-40.5000;0.4884;1.0409;
-40.2000;0.4949;1.0658;
-39.9000;0.4876;1.0484;
-39.6000;0.4908;1.0534;
-39.3000;0.4868;1.0459;
-39.0000;0.4900;1.0409;
-38.7000;0.4835;1.0235;
-38.4000;0.4851;1.0360;
-38.1000;0.4851;1.0285;
-37.8000;0.4860;1.0260;
-37.5000;0.4851;1.0235;
-37.2000;0.4892;1.0310;
-36.9000;0.4876;1.0260;
-36.6000;0.4876;1.0385;
-36.3000;0.4925;1.0434;
-36.0000;0.4868;1.0360;
-35.7000;0.4860;1.0360;
-35.4000;0.4876;1.0434;
-35.1000;0.4868;1.0434;
-34.8000;0.4860;1.0409;
-34.5000;0.4876;1.0409;
-34.2000;0.4876;1.0335;
-33.9000;0.4876;1.0210;
-33.6000;0.4876;1.0360;
-33.3000;0.4876;1.0360;
-33.0000;0.4860;1.0385;
-32.7000;0.4868;1.0409;
-32.4000;0.4868;1.0409;
-32.1000;0.4884;1.0484;
-31.8000;0.4884;1.0409;
-31.5000;0.4876;1.0285;
-31.2000;0.4860;1.0260;
-30.9000;0.4860;1.0310;
-30.6000;0.4917;1.0484;
-30.3000;0.4860;1.0260;
-30.0000;0.4876;1.0285;
-29.7000;0.4884;1.0484;
-29.4000;0.4884;1.0534;
-29.1000;0.4876;1.0484;
-28.8000;0.4884;1.0484;
-28.5000;0.4892;1.0459;
-28.2000;0.4900;1.0484;
-27.9000;0.4868;1.0434;
-27.6000;0.4876;1.0459;
-27.3000;0.4876;1.0434;
-27.0000;0.4860;1.0459;
-26.7000;0.4884;1.0584;
-26.4000;0.4884;1.0534;
-26.1000;0.4876;1.0484;
-25.8000;0.4827;1.0409;
-25.5000;0.4876;1.0484;
-25.2000;0.4868;1.0434;
-24.9000;0.4868;1.0434;
-24.6000;0.4860;1.0409;
-24.3000;0.4843;1.0335;
-24.0000;0.4868;1.0509;
-23.7000;0.4876;1.0509;
-23.4000;0.4876;1.0509;
-23.1000;0.4884;1.0534;
-22.8000;0.4868;1.0584;
-22.5000;0.4868;1.0534;
-22.2000;0.4860;1.0534;
-21.9000;0.4884;1.0559;
-21.6000;0.4811;1.0360;
-21.3000;0.4925;1.0634;
-21.0000;0.4884;1.0509;
-20.7000;0.4868;1.0509;
-20.4000;0.4876;1.0484;
-20.1000;0.4884;1.0509;
-19.8000;0.4868;1.0484;
-19.5000;0.4900;1.0609;
-19.2000;0.4884;1.0559;
-18.9000;0.4860;1.0509;
-18.6000;0.4876;1.0534;
-18.3000;0.4884;1.0534;
-18.0000;0.4884;1.0534;
-17.7000;0.4884;1.0634;
-17.4000;0.4868;1.0534;
-17.1000;0.4892;1.0609;
-16.8000;0.4884;1.0609;
-16.5000;0.4884;1.0559;
-16.2000;0.4884;1.0534;
-15.9000;0.4892;1.0634;
-15.6000;0.4876;1.0658;
-15.3000;0.4860;1.0609;
-15.0000;0.4868;1.0559;
-14.7000;0.4860;1.0609;
-14.4000;0.4868;1.0634;
-14.1000;0.4811;1.0534;
-13.8000;0.4860;1.0584;
-13.5000;0.4851;1.0658;
-13.2000;0.4884;1.0708;
-12.9000;0.4860;1.0609;
-12.6000;0.4900;1.0733;
-12.3000;0.4876;1.0708;
-12.0000;0.4884;1.0758;
-11.7000;0.4876;1.0833;
-11.4000;0.4868;1.0833;
-11.1000;0.4876;1.0833;
-10.8000;0.4876;1.0833;
-10.5000;0.4876;1.0858;
-10.2000;0.4876;1.0808;
-9.9000;0.4876;1.0783;
-9.6000;0.4860;1.0783;
-9.3000;0.4876;1.0858;
-9.0000;0.4868;1.0808;
-8.7000;0.4860;1.0758;
-8.4000;0.4868;1.0733;
-8.1000;0.4900;1.0858;
-7.8000;0.4819;1.0658;
-7.5000;0.4884;1.0783;
-7.2000;0.4892;1.0783;
-6.9000;0.4876;1.0708;
-6.6000;0.4892;1.0758;
-6.3000;0.4876;1.0783;
-6.0000;0.4868;1.0808;
-5.7000;0.4876;1.0883;
-5.4000;0.4892;1.0957;
-5.1000;0.4925;1.1107;
-4.8000;0.4884;1.1032;
-4.5000;0.4860;1.0883;
-4.2000;0.4892;1.0908;
-3.9000;0.4892;1.0783;
-3.6000;0.4860;1.0758;
-3.3000;0.4876;1.0733;
-3.0000;0.4884;1.0758;
-2.7000;0.4876;1.0733;
-2.4000;0.4876;1.0584;
-2.1000;0.4860;1.0559;
-1.8000;0.4876;1.0584;
-1.5000;0.4884;1.0534;
-1.2000;0.4860;1.0459;
-0.9000;0.4860;1.0434;
-0.6000;0.4860;1.0459;
-0.3000;0.4860;1.0534;
0.0000;0.4860;1.0534;
0.3000;0.5014;1.0808;
0.6000;0.5283;1.1206;
0.9000;0.5470;1.1580;
1.2000;0.5600;1.1929;
1.5000;0.5698;1.2153;
1.8000;0.5796;1.2501;
2.1000;0.5869;1.2825;
2.4000;0.5967;1.3174;
2.7000;0.5983;1.3373;
3.0000;0.5991;1.3473;
3.3000;0.6007;1.3572;
3.6000;0.6064;1.3697;
3.9000;0.6081;1.3746;
4.2000;0.6121;1.3746;
4.5000;0.6146;1.3746;
4.8000;0.6170;1.3722;
5.1000;0.6186;1.3672;
5.4000;0.6178;1.3622;
5.7000;0.6211;1.3746;
6.0000;0.6243;1.3846;
6.3000;0.6252;1.3821;
6.6000;0.6268;1.3821;
6.9000;0.6292;1.3796;
7.2000;0.6292;1.3846;
7.5000;0.6325;1.3896;
7.8000;0.6317;1.3896;
8.1000;0.6406;1.4120;
8.4000;0.6365;1.3921;
8.7000;0.6365;1.3871;
9.0000;0.6382;1.3896;
9.3000;0.6398;1.3896;
9.6000;0.6406;1.3921;
9.9000;0.6431;1.3946;
10.2000;0.6439;1.3971;
10.5000;0.6439;1.3846;
10.8000;0.6406;1.3697;
11.1000;0.6479;1.3821;
11.4000;0.6496;1.3746;
11.7000;0.6528;1.3771;
12.0000;0.6488;1.3647;
12.3000;0.6528;1.3796;
12.6000;0.6536;1.3821;
12.9000;0.6561;1.3921;
13.2000;0.6569;1.4020;
13.5000;0.6577;1.3871;
13.8000;0.6602;1.3871;
14.1000;0.6610;1.3846;
14.4000;0.6618;1.3896;
14.7000;0.6634;1.3921;
15.0000;0.6683;1.4020;
15.3000;0.6659;1.3896;
15.6000;0.6659;1.3871;
15.9000;0.6667;1.3871;
16.2000;0.6707;1.3896;
16.5000;0.6699;1.3846;
16.8000;0.6699;1.3871;
17.1000;0.6707;1.3846;
17.4000;0.6707;1.3871;
17.7000;0.6707;1.3846;
18.0000;0.6740;1.3896;
18.3000;0.6732;1.3921;
18.6000;0.6732;1.3921;
18.9000;0.6756;1.3921;
19.2000;0.6772;1.3946;
19.5000;0.6764;1.3821;
19.8000;0.6781;1.3871;
20.1000;0.6781;1.3896;
20.4000;0.6789;1.3896;
20.7000;0.6797;1.3921;
21.0000;0.6797;1.3995;
21.3000;0.6829;1.3971;
21.6000;0.6797;1.3846;
21.9000;0.6813;1.3796;
22.2000;0.6821;1.3821;
22.5000;0.6813;1.3846;
22.8000;0.6829;1.3896;
23.1000;0.6838;1.3846;
23.4000;0.6829;1.3796;
23.7000;0.6886;1.3971;
24.0000;0.6862;1.3846;
24.3000;0.6862;1.3871;
24.6000;0.6895;1.4020;
24.9000;0.6862;1.3995;
25.2000;0.6895;1.3995;
25.5000;0.6878;1.3946;
25.8000;0.6886;1.3946;
26.1000;0.6903;1.3995;
26.4000;0.6846;1.3771;
26.7000;0.6911;1.3896;
27.0000;0.6903;1.3796;
27.3000;0.6903;1.3722;
27.6000;0.6903;1.3697;
27.9000;0.6919;1.3672;
28.2000;0.6903;1.3597;
28.5000;0.6911;1.3597;
28.8000;0.7009;1.3746;
29.1000;0.6943;1.3547;
29.4000;0.6943;1.3547;
29.7000;0.6911;1.3423;
30.0000;0.6943;1.3473;
30.3000;0.6960;1.3448;
30.6000;0.6976;1.3597;
30.9000;0.6952;1.3547;
31.2000;0.6911;1.3572;
31.5000;0.6968;1.3746;
31.8000;0.6968;1.3821;
32.1000;0.6968;1.3871;
32.4000;0.6952;1.3846;
32.7000;0.6935;1.3821;
33.0000;0.6943;1.3821;
33.3000;0.6960;1.3871;
33.6000;0.6976;1.3846;
33.9000;0.6976;1.3946;
34.2000;0.6984;1.4070;
34.5000;0.6984;1.4170;
34.8000;0.6943;1.4120;
35.1000;0.6992;1.4220;
35.4000;0.6992;1.4120;
35.7000;0.7000;1.4120;
36.0000;0.7009;1.4120;
36.3000;0.7017;1.4095;
36.6000;0.7025;1.3995;
36.9000;0.7009;1.3846;
37.2000;0.7000;1.3846;
37.5000;0.7000;1.3871;
37.8000;0.7009;1.3796;
38.1000;0.7025;1.3821;
38.4000;0.7033;1.3896;
38.7000;0.7057;1.3971;
39.0000;0.7049;1.3971;
39.3000;0.7000;1.3995;
39.6000;0.7025;1.3946;
39.9000;0.7033;1.3971;
40.2000;0.7041;1.3946;
40.5000;0.7033;1.3896;
40.8000;0.7000;1.3722;
41.1000;0.7041;1.3846;
41.4000;0.7017;1.3796;
41.7000;0.7033;1.3871;
42.0000;0.7057;1.3846;
42.3000;0.7049;1.3771;
42.6000;0.7033;1.3672;
42.9000;0.7025;1.3672;
43.2000;0.7033;1.3722;
43.5000;0.7074;1.3871;
43.8000;0.7049;1.3821;
44.1000;0.7049;1.3821;
44.4000;0.7057;1.3896;
44.7000;0.7057;1.3796;
45.0000;0.7066;1.3746;
45.3000;0.7074;1.3821;
45.6000;0.7082;1.3796;
45.9000;0.7074;1.3746;
46.2000;0.7017;1.3672;
46.5000;0.7057;1.3722;
46.8000;0.7090;1.3821;
47.1000;0.7082;1.3846;
47.4000;0.7074;1.3871;
47.7000;0.7082;1.3821;
48.0000;0.7106;1.3846;
48.3000;0.7090;1.3771;
48.6000;0.7098;1.3771;
48.9000;0.7098;1.3771;
49.2000;0.7098;1.3846;
49.5000;0.7106;1.3896;
49.8000;0.7074;1.3846;
50.1000;0.7098;1.3846;
50.4000;0.7074;1.3672;
50.7000;0.7147;1.3946;
51.0000;0.7106;1.3871;
51.3000;0.7106;1.3871;
51.6000;0.7123;1.3771;
51.9000;0.7123;1.3746;
52.2000;0.7090;1.3697;
52.5000;0.7106;1.3672;
52.8000;0.7082;1.3547;
53.1000;0.7098;1.3547;
53.4000;0.7098;1.3572;
53.7000;0.7123;1.3697;
54.0000;0.7106;1.3672;
54.3000;0.7114;1.3647;
54.6000;0.7123;1.3647;
54.9000;0.7131;1.3622;
55.2000;0.7114;1.3547;
55.5000;0.7106;1.3547;
55.8000;0.7155;1.3647;
56.1000;0.7131;1.3672;
56.4000;0.7114;1.3572;
56.7000;0.7106;1.3522;
57.0000;0.7123;1.3448;
57.3000;0.7123;1.3373;
57.6000;0.7123;1.3373;
57.9000;0.7139;1.3473;
58.2000;0.7114;1.3497;
58.5000;0.7139;1.3497;
58.8000;0.7123;1.3547;
59.1000;0.7114;1.3547;
59.4000;0.7131;1.3547;
59.7000;0.7139;1.3597;
60.0000;0.7163;1.3622;
60.3000;0.7123;1.3497;
60.6000;0.7163;1.3597;
60.9000;0.7147;1.3647;
61.2000;0.7139;1.3647;
61.5000;0.7147;1.3647;
61.8000;0.7139;1.3622;
62.1000;0.7131;1.3722;
62.4000;0.7131;1.3697;
62.7000;0.7114;1.3597;
63.0000;0.7147;1.3647;
63.3000;0.7131;1.3597;
63.6000;0.7123;1.3522;
63.9000;0.7123;1.3473;
64.2000;0.7139;1.3497;
64.5000;0.7131;1.3572;
64.8000;0.7139;1.3622;
65.1000;0.7147;1.3722;
65.4000;0.7106;1.3597;
65.7000;0.7147;1.3722;
66.0000;0.7147;1.3697;
66.3000;0.7123;1.3697;
66.6000;0.7139;1.3697;
66.9000;0.7131;1.3647;
67.2000;0.7163;1.3647;
67.5000;0.7163;1.3647;
67.8000;0.7147;1.3622;
68.1000;0.7139;1.3672;
68.4000;0.7147;1.3672;
68.7000;0.7163;1.3572;
69.0000;0.7139;1.3497;
69.3000;0.7131;1.3473;
69.6000;0.7131;1.3473;
69.9000;0.7147;1.3473;
70.2000;0.7139;1.3448;
70.5000;0.7123;1.3522;
70.8000;0.7155;1.3473;
71.1000;0.7155;1.3497;
71.4000;0.7163;1.3572;
71.7000;0.7163;1.3572;
72.0000;0.7155;1.3522;
72.3000;0.7123;1.3547;
72.6000;0.7179;1.3622;
72.9000;0.7155;1.3547;
73.2000;0.7147;1.3597;
73.5000;0.7212;1.3771;
73.8000;0.7131;1.3622;
74.1000;0.7163;1.3672;
74.4000;0.7212;1.3846;
74.7000;0.7114;1.3597;
75.0000;0.7179;1.3746;
75.3000;0.7179;1.3697;
75.6000;0.7155;1.3597;
75.9000;0.7179;1.3622;
76.2000;0.7155;1.3647;
76.5000;0.7098;1.3622;
76.8000;0.7163;1.3796;
77.1000;0.7131;1.3697;
77.4000;0.7139;1.3647;
77.7000;0.7155;1.3547;
78.0000;0.7163;1.3497;
78.3000;0.7131;1.3448;
78.6000;0.7163;1.3622;
78.9000;0.7155;1.3622;
79.2000;0.7179;1.3647;
79.5000;0.7155;1.3547;
79.8000;0.7163;1.3522;
80.1000;0.7171;1.3622;
80.4000;0.7155;1.3672;
80.7000;0.7179;1.3821;
81.0000;0.7139;1.3746;
81.3000;0.7179;1.3821;
81.6000;0.7171;1.3896;
81.9000;0.7204;1.3995;
82.2000;0.7171;1.3846;
82.5000;0.7171;1.3746;
82.8000;0.7245;1.3846;
83.1000;0.7171;1.3647;
83.4000;0.7179;1.3647;
83.7000;0.7188;1.3771;
84.0000;0.7179;1.3771;
84.3000;0.7163;1.3746;
84.6000;0.7171;1.3647;
84.9000;0.7179;1.3672;
85.2000;0.7196;1.3672;
85.5000;0.7196;1.3622;
85.8000;0.7179;1.3522;
86.1000;0.7171;1.3522;
86.4000;0.7204;1.3572;
86.7000;0.7188;1.3522;
87.0000;0.7171;1.3497;
87.3000;0.7179;1.3522;
87.6000;0.7179;1.3448;
87.9000;0.7179;1.3423;
88.2000;0.7147;1.3298;
88.5000;0.7139;1.3248;
88.8000;0.7171;1.3423;
89.1000;0.7171;1.3423;
89.4000;0.7253;1.3697;
89.7000;0.7155;1.3423;
90.0000;0.7114;1.3223;
90.3000;0.7171;1.3423;
90.6000;0.7236;1.3622;
90.9000;0.7212;1.3572;
91.2000;0.7171;1.3522;
91.5000;0.7163;1.3597;
91.8000;0.7171;1.3647;
92.1000;0.7163;1.3572;
92.4000;0.7204;1.3547;
92.7000;0.7188;1.3522;
93.0000;0.7277;1.3771;
93.3000;0.7171;1.3522;
93.6000;0.7155;1.3497;
93.9000;0.7179;1.3597;
94.2000;0.7220;1.3672;
94.5000;0.7188;1.3597;
94.8000;0.7179;1.3647;
95.1000;0.7188;1.3672;
95.4000;0.7196;1.3697;
95.7000;0.7196;1.3672;
96.0000;0.7131;1.3547;
96.3000;0.7196;1.3647;
96.6000;0.7228;1.3771;
96.9000;0.7196;1.3672;
97.2000;0.7188;1.3572;
97.5000;0.7188;1.3597;
97.8000;0.7204;1.3597;
98.1000;0.7179;1.3647;
98.4000;0.7196;1.3722;
98.7000;0.7188;1.3746;
99.0000;0.7204;1.3821;
99.3000;0.7147;1.3746;
99.6000;0.7188;1.3821;
99.9000;0.7179;1.3796;
100.2000;0.7204;1.3771;
100.5000;0.7188;1.3722;
100.8000;0.7179;1.3597;
101.1000;0.7188;1.3547;
101.4000;0.7163;1.3373;
101.7000;0.7188;1.3448;
102.0000;0.7204;1.3448;
102.3000;0.7179;1.3473;
102.6000;0.7188;1.3497;
102.9000;0.7179;1.3547;
103.2000;0.7196;1.3572;
103.5000;0.7204;1.3597;
103.8000;0.7188;1.3572;
104.1000;0.7196;1.3672;
104.4000;0.7204;1.3746;
104.7000;0.7196;1.3672;
105.0000;0.7147;1.3547;
105.3000;0.7204;1.3746;
105.6000;0.7163;1.3647;
105.9000;0.7204;1.3672;
106.2000;0.7204;1.3672;
106.5000;0.7204;1.3697;
106.8000;0.7220;1.3647;
107.1000;0.7212;1.3672;
107.4000;0.7212;1.3722;
107.7000;0.7163;1.3547;
108.0000;0.7188;1.3597;
108.3000;0.7188;1.3597;
108.6000;0.7204;1.3597;
108.9000;0.7188;1.3572;
109.2000;0.7163;1.3522;
109.5000;0.7163;1.3448;
109.8000;0.7106;1.3273;
110.1000;0.7171;1.3497;
110.4000;0.7179;1.3572;
110.7000;0.7204;1.3572;
111.0000;0.7196;1.3448;
111.3000;0.7147;1.3348;
111.6000;0.7147;1.3398;
111.9000;0.7204;1.3522;
112.2000;0.7171;1.3473;
112.5000;0.7188;1.3522;
112.8000;0.7196;1.3622;
113.1000;0.7163;1.3547;
113.4000;0.7196;1.3672;
113.7000;0.7179;1.3697;
114.0000;0.7196;1.3647;
114.3000;0.7196;1.3647;
114.6000;0.7253;1.3771;
114.9000;0.7204;1.3597;
115.2000;0.7236;1.3597;
115.5000;0.7147;1.3473;
115.8000;0.7204;1.3672;
116.1000;0.7188;1.3647;
116.4000;0.7204;1.3722;
116.7000;0.7204;1.3672;
117.0000;0.7212;1.3672;
117.3000;0.7188;1.3647;
117.6000;0.7204;1.3697;
117.9000;0.7179;1.3647;
118.2000;0.7220;1.3697;
118.5000;0.7212;1.3672;
118.8000;0.7196;1.3547;
119.1000;0.7188;1.3423;
119.4000;0.7220;1.3348;
119.7000;0.7212;1.3298;
120.0000;0.7204;1.3298;
120.3000;0.7212;1.3273;
120.6000;0.7212;1.3273;
120.9000;0.7204;1.3223;
121.2000;0.7204;1.3174;
121.5000;0.7212;1.3124;
121.8000;0.7245;1.3248;
122.1000;0.7228;1.3273;
122.4000;0.7228;1.3223;
122.7000;0.7228;1.3323;
123.0000;0.7228;1.3348;
123.3000;0.7220;1.3323;
123.6000;0.7212;1.3323;
123.9000;0.7188;1.3273;
124.2000;0.7188;1.3273;
124.5000;0.7188;1.3348;
124.8000;0.7212;1.3373;
125.1000;0.7212;1.3373;
125.4000;0.7196;1.3298;
125.7000;0.7163;1.3248;
126.0000;0.7220;1.3473;
126.3000;0.7196;1.3448;
126.6000;0.7220;1.3497;
126.9000;0.7220;1.3448;
127.2000;0.7196;1.3448;
127.5000;0.7212;1.3473;
127.8000;0.7204;1.3547;
128.1000;0.7212;1.3473;
128.4000;0.7212;1.3423;
128.7000;0.7188;1.3348;
129.0000;0.7220;1.3448;
129.3000;0.7196;1.3522;
129.6000;0.7196;1.3597;
129.9000;0.7212;1.3622;
130.2000;0.7196;1.3597;
130.5000;0.7196;1.3497;
130.8000;0.7269;1.3697;
131.1000;0.7212;1.3522;
131.4000;0.7196;1.3473;
131.7000;0.7228;1.3572;
132.0000;0.7212;1.3522;
132.3000;0.7212;1.3547;
132.6000;0.7196;1.3497;
132.9000;0.7147;1.3373;
133.2000;0.7212;1.3497;
133.5000;0.7228;1.3497;
133.8000;0.7171;1.3473;
134.1000;0.7228;1.3722;
134.4000;0.7196;1.3647;
134.7000;0.7228;1.3771;
135.0000;0.7212;1.3821;
135.3000;0.7204;1.3796;
135.6000;0.7171;1.3647;
135.9000;0.7245;1.3746;
136.2000;0.7212;1.3697;
136.5000;0.7212;1.3722;
136.8000;0.7204;1.3647;
137.1000;0.7196;1.3622;
137.4000;0.7196;1.3547;
137.7000;0.7245;1.3572;
138.0000;0.7188;1.3497;
138.3000;0.7179;1.3373;
138.6000;0.7212;1.3423;
138.9000;0.7212;1.3473;
139.2000;0.7212;1.3473;
139.5000;0.7204;1.3448;
139.8000;0.7220;1.3448;
140.1000;0.7261;1.3597;
140.4000;0.7212;1.3547;
140.7000;0.7196;1.3497;
141.0000;0.7228;1.3522;
141.3000;0.7236;1.3497;
141.6000;0.7245;1.3522;
141.9000;0.7220;1.3423;
142.2000;0.7245;1.3473;
142.5000;0.7236;1.3522;
142.8000;0.7236;1.3597;
143.1000;0.7204;1.3597;
143.4000;0.7220;1.3622;
143.7000;0.7236;1.3547;
144.0000;0.7220;1.3522;
144.3000;0.7212;1.3448;
144.6000;0.7236;1.3497;
144.9000;0.7204;1.3448;
145.2000;0.7212;1.3497;
145.5000;0.7188;1.3448;
145.8000;0.7171;1.3373;
146.1000;0.7196;1.3423;
146.4000;0.7179;1.3298;
146.7000;0.7228;1.3398;
147.0000;0.7220;1.3448;
147.3000;0.7228;1.3473;
147.6000;0.7212;1.3497;
147.9000;0.7212;1.3473;
148.2000;0.7196;1.3473;
148.5000;0.7196;1.3497;
148.8000;0.7236;1.3597;
149.1000;0.7212;1.3497;
149.4000;0.7204;1.3448;
149.7000;0.7196;1.3423;
150.0000;0.7188;1.3473;
150.3000;0.7228;1.3547;
150.6000;0.7236;1.3522;
150.9000;0.7196;1.3398;
151.2000;0.7236;1.3522;
151.5000;0.7228;1.3522;
151.8000;0.7269;1.3572;
152.1000;0.7228;1.3398;
152.4000;0.7245;1.3423;
152.7000;0.7245;1.3448;
153.0000;0.7220;1.3423;
153.3000;0.7212;1.3448;
153.6000;0.7236;1.3448;
153.9000;0.7245;1.3572;
154.2000;0.7220;1.3473;
154.5000;0.7228;1.3497;
154.8000;0.7204;1.3448;
155.1000;0.7228;1.3398;
155.4000;0.7253;1.3547;
155.7000;0.7220;1.3448;
156.0000;0.7179;1.3348;
156.3000;0.7204;1.3448;
156.6000;0.7253;1.3423;
156.9000;0.7228;1.3373;
157.2000;0.7196;1.3248;
157.5000;0.7236;1.3373;
157.8000;0.7228;1.3373;
158.1000;0.7228;1.3298;
158.4000;0.7220;1.3273;
158.7000;0.7228;1.3323;
159.0000;0.7179;1.3248;
159.3000;0.7236;1.3448;
159.6000;0.7212;1.3448;
159.9000;0.7204;1.3398;
160.2000;0.7212;1.3473;
160.5000;0.7204;1.3572;
160.8000;0.7204;1.3547;
161.1000;0.7228;1.3597;
161.4000;0.7196;1.3547;
161.7000;0.7253;1.3572;
162.0000;0.7212;1.3423;
162.3000;0.7196;1.3398;
162.6000;0.7245;1.3497;
162.9000;0.7245;1.3572;
163.2000;0.7236;1.3572;
163.5000;0.7245;1.3647;
163.8000;0.7220;1.3722;
164.1000;0.7245;1.3746;
164.4000;0.7236;1.3697;
164.7000;0.7204;1.3672;
165.0000;0.7179;1.3597;
165.3000;0.7236;1.3697;
165.6000;0.7220;1.3547;
165.9000;0.7212;1.3398;
166.2000;0.7236;1.3398;
166.5000;0.7269;1.3522;
166.8000;0.7236;1.3423;
167.1000;0.7253;1.3473;
167.4000;0.7212;1.3348;
167.7000;0.7236;1.3423;
168.0000;0.7236;1.3423;
168.3000;0.7277;1.3497;
168.6000;0.7212;1.3423;
168.9000;0.7236;1.3522;
169.2000;0.7204;1.3522;
169.5000;0.7147;1.3348;
169.8000;0.7212;1.3522;
170.1000;0.7220;1.3497;
170.4000;0.7236;1.3473;
170.7000;0.7228;1.3448;
171.0000;0.7228;1.3448;
171.3000;0.7212;1.3398;
171.6000;0.7204;1.3373;
171.9000;0.7204;1.3398;
172.2000;0.7220;1.3398;
172.5000;0.7220;1.3448;
172.8000;0.7131;1.3199;
173.1000;0.7228;1.3448;
173.4000;0.7220;1.3423;
173.7000;0.7220;1.3398;
174.0000;0.7188;1.3273;
174.3000;0.7220;1.3398;
174.6000;0.7212;1.3423;
174.9000;0.7220;1.3423;
175.2000;0.7228;1.3448;
175.5000;0.7228;1.3448;
175.8000;0.7236;1.3398;
176.1000;0.7196;1.3373;
176.4000;0.7228;1.3323;
176.7000;0.7245;1.3298;
177.0000;0.7245;1.3423;
177.3000;0.7220;1.3423;
177.6000;0.7245;1.3622;
177.9000;0.7228;1.3547;
178.2000;0.7220;1.3647;
178.5000;0.7212;1.3547;
178.8000;0.7204;1.3448;
179.1000;0.7212;1.3497;
179.4000;0.7204;1.3522;
179.7000;0.7204;1.3572;
180.0000;0.7204;1.3522;
180.3000;0.7204;1.3497;
180.6000;0.7212;1.3473;
180.9000;0.7228;1.3473;
181.2000;0.7123;1.3124;
181.5000;0.7212;1.3298;
181.8000;0.7228;1.3423;
182.1000;0.7212;1.3473;
182.4000;0.7179;1.3423;
182.7000;0.7212;1.3547;
183.0000;0.7228;1.3522;
183.3000;0.7179;1.3398;
183.6000;0.7179;1.3423;
183.9000;0.7212;1.3473;
184.2000;0.7212;1.3423;
184.5000;0.7188;1.3373;
184.8000;0.7212;1.3473;
185.1000;0.7147;1.3348;
185.4000;0.7212;1.3572;
185.7000;0.7163;1.3497;
186.0000;0.7212;1.3622;
186.3000;0.7196;1.3572;
186.6000;0.7228;1.3647;
186.9000;0.7236;1.3597;
187.2000;0.7220;1.3572;
187.5000;0.7212;1.3547;
187.8000;0.7204;1.3597;
188.1000;0.7236;1.3597;
188.4000;0.7228;1.3597;
188.7000;0.7236;1.3622;
189.0000;0.7220;1.3547;
189.3000;0.7236;1.3572;
189.6000;0.7277;1.3622;
189.9000;0.7220;1.3497;
190.2000;0.7212;1.3448;
190.5000;0.7220;1.3522;
190.8000;0.7228;1.3522;
191.1000;0.7236;1.3522;
191.4000;0.7245;1.3547;
191.7000;0.7220;1.3522;
192.0000;0.7228;1.3547;
192.3000;0.7204;1.3473;
192.6000;0.7204;1.3448;
192.9000;0.7220;1.3423;
193.2000;0.7212;1.3423;
193.5000;0.7236;1.3398;
193.8000;0.7220;1.3423;
194.1000;0.7212;1.3423;
194.4000;0.7196;1.3398;
194.7000;0.7220;1.3497;
195.0000;0.7204;1.3398;
195.3000;0.7204;1.3373;
195.6000;0.7212;1.3423;
195.9000;0.7220;1.3423;
196.2000;0.7228;1.3448;
196.5000;0.7220;1.3373;
196.8000;0.7163;1.3149;
197.1000;0.7269;1.3448;
197.4000;0.7228;1.3423;
197.7000;0.7236;1.3373;
198.0000;0.7228;1.3373;
198.3000;0.7220;1.3423;
198.6000;0.7212;1.3398;
198.9000;0.7228;1.3398;
199.2000;0.7220;1.3398;
199.5000;0.7212;1.3373;
199.8000;0.7236;1.3448;
200.1000;0.7236;1.3423;
200.4000;0.7245;1.3398;
200.7000;0.7220;1.3398;
201.0000;0.7228;1.3398;
201.3000;0.7236;1.3373;
201.6000;0.7212;1.3522;
201.9000;0.7245;1.3622;
202.2000;0.7245;1.3547;
202.5000;0.7269;1.3547;
202.8000;0.7253;1.3423;
203.1000;0.7236;1.3423;
203.4000;0.7171;1.3273;
203.7000;0.7212;1.3323;
204.0000;0.7204;1.3273;
204.3000;0.7261;1.3398;
204.6000;0.7204;1.3248;
204.9000;0.7196;1.3248;
205.2000;0.7155;1.3174;
205.5000;0.7220;1.3298;
205.8000;0.7196;1.3174;
206.1000;0.7212;1.3199;
206.4000;0.7212;1.3273;
206.7000;0.7204;1.3273;
207.0000;0.7228;1.3373;
207.3000;0.7228;1.3448;
207.6000;0.7228;1.3448;
207.9000;0.7228;1.3348;
208.2000;0.7220;1.3323;
208.5000;0.7318;1.3522;
208.8000;0.7236;1.3223;
209.1000;0.7228;1.3248;
209.4000;0.7212;1.3223;
209.7000;0.7236;1.3273;
210.0000;0.7179;1.3099;
210.3000;0.7212;1.3124;
210.6000;0.7212;1.3149;
210.9000;0.7228;1.3223;
211.2000;0.7228;1.3273;
211.5000;0.7245;1.3273;
211.8000;0.7212;1.3199;
212.1000;0.7236;1.3273;
212.4000;0.7228;1.3248;
212.7000;0.7236;1.3248;
213.0000;0.7245;1.3248;
213.3000;0.7253;1.3248;
213.6000;0.7277;1.3348;
213.9000;0.7228;1.3273;
214.2000;0.7236;1.3248;
214.5000;0.7228;1.3298;
214.8000;0.7236;1.3273;
215.1000;0.7212;1.3298;
215.4000;0.7204;1.3273;
215.7000;0.7212;1.3248;
216.0000;0.7253;1.3348;
216.3000;0.7228;1.3298;
216.6000;0.7228;1.3273;
216.9000;0.7245;1.3373;
217.2000;0.7212;1.3298;
217.5000;0.7245;1.3473;
217.8000;0.7253;1.3497;
218.1000;0.7220;1.3398;
218.4000;0.7228;1.3473;
218.7000;0.7245;1.3547;
219.0000;0.7253;1.3547;
219.3000;0.7228;1.3473;
219.6000;0.7212;1.3497;
219.9000;0.7220;1.3448;
220.2000;0.7220;1.3448;
220.5000;0.7220;1.3448;
220.8000;0.7228;1.3497;
221.1000;0.7204;1.3423;
221.4000;0.7204;1.3473;
221.7000;0.7269;1.3597;
222.0000;0.7179;1.3373;
222.3000;0.7220;1.3373;
222.6000;0.7228;1.3423;
222.9000;0.7204;1.3323;
223.2000;0.7188;1.3248;
223.5000;0.7228;1.3398;
223.8000;0.7228;1.3323;
224.1000;0.7236;1.3323;
224.4000;0.7220;1.3323;
224.7000;0.7220;1.3199;
225.0000;0.7196;1.3149;
225.3000;0.7285;1.3448;
225.6000;0.7220;1.3323;
225.9000;0.7228;1.3248;
226.2000;0.7204;1.3149;
226.5000;0.7236;1.3199;
226.8000;0.7220;1.3298;
227.1000;0.7220;1.3398;
227.4000;0.7236;1.3373;
227.7000;0.7245;1.3323;
228.0000;0.7245;1.3373;
228.3000;0.7212;1.3298;
228.6000;0.7220;1.3348;
228.9000;0.7179;1.3223;
229.2000;0.7220;1.3199;
229.5000;0.7236;1.3223;
229.8000;0.7196;1.3024;
230.1000;0.7228;1.3199;
230.4000;0.7228;1.3223;
230.7000;0.7220;1.3248;
231.0000;0.7228;1.3248;
231.3000;0.7220;1.3248;
231.6000;0.7342;1.3473;
231.9000;0.7228;1.3149;
232.2000;0.7236;1.3149;
232.5000;0.7188;1.3099;
232.8000;0.7220;1.3273;
233.1000;0.7220;1.3273;
233.4000;0.7220;1.3323;
233.7000;0.7204;1.3373;
234.0000;0.7179;1.3323;
234.3000;0.7220;1.3497;
234.6000;0.7188;1.3473;
234.9000;0.7204;1.3497;
235.2000;0.7212;1.3522;
235.5000;0.7228;1.3522;
235.8000;0.7220;1.3497;
236.1000;0.7220;1.3497;
236.4000;0.7220;1.3423;
236.7000;0.7236;1.3497;
237.0000;0.7228;1.3473;
237.3000;0.7228;1.3497;
237.6000;0.7228;1.3522;
237.9000;0.7253;1.3522;
238.2000;0.7220;1.3398;
238.5000;0.7204;1.3298;
238.8000;0.7228;1.3348;
239.1000;0.7220;1.3423;
239.4000;0.7228;1.3398;
239.7000;0.7220;1.3423;
240.0000;0.7253;1.3398;
240.3000;0.7236;1.3323;
240.6000;0.7171;1.3149;
240.9000;0.7228;1.3323;
241.2000;0.7228;1.3323;
241.5000;0.7212;1.3323;
241.8000;0.7212;1.3273;
242.1000;0.7245;1.3298;
242.4000;0.7245;1.3373;
242.7000;0.7277;1.3473;
243.0000;0.7236;1.3248;
243.3000;0.7245;1.3248;
243.6000;0.7245;1.3323;
243.9000;0.7236;1.3298;
244.2000;0.7245;1.3298;
244.5000;0.7228;1.3323;
244.8000;0.7179;1.3298;
245.1000;0.7188;1.3423;
245.4000;0.7204;1.3497;
245.7000;0.7212;1.3497;
246.0000;0.7236;1.3547;
246.3000;0.7212;1.3473;
246.6000;0.7228;1.3448;
246.9000;0.7236;1.3547;
247.2000;0.7236;1.3547;
247.5000;0.7228;1.3522;
247.8000;0.7220;1.3497;
248.1000;0.7269;1.3547;
248.4000;0.7228;1.3423;
248.7000;0.7212;1.3448;
249.0000;0.7228;1.3448;
249.3000;0.7302;1.3622;
249.6000;0.7228;1.3423;
249.9000;0.7245;1.3448;
250.2000;0.7204;1.3348;
250.5000;0.7220;1.3398;
250.8000;0.7212;1.3448;
251.1000;0.7196;1.3423;
251.4000;0.7212;1.3473;
251.7000;0.7220;1.3473;
252.0000;0.7220;1.3423;
252.3000;0.7171;1.3398;
252.6000;0.7212;1.3497;
252.9000;0.7212;1.3448;
253.2000;0.7212;1.3398;
253.5000;0.7228;1.3373;
253.8000;0.7220;1.3323;
254.1000;0.7212;1.3373;
254.4000;0.7285;1.3547;
254.7000;0.7228;1.3398;
255.0000;0.7220;1.3473;
255.3000;0.7220;1.3448;
255.6000;0.7285;1.3672;
255.9000;0.7269;1.3672;
256.2000;0.7228;1.3622;
256.5000;0.7245;1.3597;
256.8000;0.7277;1.3622;
257.1000;0.7228;1.3448;
257.4000;0.7212;1.3398;
257.7000;0.7220;1.3448;
258.0000;0.7228;1.3423;
258.3000;0.7253;1.3497;
258.6000;0.7212;1.3448;
258.9000;0.7245;1.3497;
259.2000;0.7220;1.3348;
259.5000;0.7204;1.3273;
259.8000;0.7228;1.3373;
260.1000;0.7212;1.3348;
260.4000;0.7220;1.3398;
260.7000;0.7204;1.3398;
261.0000;0.7220;1.3373;
261.3000;0.7245;1.3373;
261.6000;0.7220;1.3522;
261.9000;0.7228;1.3497;
262.2000;0.7228;1.3473;
262.5000;0.7261;1.3597;
262.8000;0.7220;1.3522;
263.1000;0.7212;1.3572;
263.4000;0.7171;1.3473;
263.7000;0.7179;1.3448;
264.0000;0.7204;1.3522;
264.3000;0.7236;1.3572;
264.6000;0.7171;1.3323;
264.9000;0.7236;1.3373;
265.2000;0.7236;1.3448;
265.5000;0.7228;1.3423;
265.8000;0.7179;1.3348;
266.1000;0.7228;1.3373;
266.4000;0.7228;1.3473;
266.7000;0.7196;1.3348;
267.0000;0.7220;1.3522;
267.3000;0.7236;1.3522;
267.6000;0.7204;1.3448;
267.9000;0.7220;1.3448;
268.2000;0.7212;1.3473;
268.5000;0.7228;1.3547;
268.8000;0.7236;1.3597;
269.1000;0.7253;1.3647;
269.4000;0.7220;1.3647;
269.7000;0.7236;1.3647;
270.0000;0.7228;1.3522;
270.3000;0.7228;1.3473;
270.6000;0.7245;1.3522;
270.9000;0.7253;1.3597;
271.2000;0.7253;1.3647;
271.5000;0.7228;1.3647;
271.8000;0.7228;1.3647;
272.1000;0.7245;1.3622;
272.4000;0.7228;1.3522;
272.7000;0.7236;1.3497;
273.0000;0.7245;1.3473;
273.3000;0.7228;1.3423;
273.6000;0.7228;1.3497;
273.9000;0.7212;1.3423;
274.2000;0.7196;1.3398;
274.5000;0.7261;1.3597;
274.8000;0.7220;1.3473;
275.1000;0.7245;1.3423;
275.4000;0.7245;1.3348;
275.7000;0.7212;1.3398;
276.0000;0.7236;1.3497;
276.3000;0.7245;1.3497;
276.6000;0.7228;1.3473;
276.9000;0.7220;1.3473;
277.2000;0.7228;1.3522;
277.5000;0.7236;1.3547;
277.8000;0.7220;1.3398;
278.1000;0.7236;1.3373;
278.4000;0.7236;1.3398;
278.7000;0.7293;1.3473;
279.0000;0.7253;1.3373;
279.3000;0.7236;1.3448;
279.6000;0.7220;1.3497;
279.9000;0.7245;1.3672;
280.2000;0.7236;1.3522;
280.5000;0.7212;1.3448;
280.8000;0.7261;1.3473;
281.1000;0.7220;1.3473;
281.4000;0.7236;1.3448;
281.7000;0.7212;1.3423;
282.0000;0.7188;1.3398;
282.3000;0.7204;1.3348;
282.6000;0.7253;1.3522;
282.9000;0.7196;1.3473;
283.2000;0.7204;1.3497;
283.5000;0.7163;1.3373;
283.8000;0.7253;1.3522;
284.1000;0.7212;1.3448;
284.4000;0.7204;1.3522;
284.7000;0.7236;1.3547;
285.0000;0.7220;1.3423;
285.3000;0.7261;1.3547;
285.6000;0.7212;1.3398;
285.9000;0.7212;1.3398;
286.2000;0.7253;1.3522;
286.5000;0.7245;1.3522;
286.8000;0.7212;1.3473;
287.1000;0.7212;1.3522;
287.4000;0.7220;1.3522;
287.7000;0.7220;1.3448;
288.0000;0.7228;1.3448;
288.3000;0.7277;1.3572;
288.6000;0.7220;1.3497;
288.9000;0.7236;1.3572;
289.2000;0.7220;1.3497;
289.5000;0.7236;1.3497;
289.8000;0.7196;1.3398;
290.1000;0.7245;1.3547;
290.4000;0.7253;1.3622;
290.7000;0.7228;1.3572;
291.0000;0.7342;1.3771;
291.3000;0.7220;1.3448;
291.6000;0.7228;1.3497;
291.9000;0.7228;1.3522;
292.2000;0.7228;1.3572;
292.5000;0.7228;1.3572;
292.8000;0.7204;1.3522;
293.1000;0.7196;1.3497;
293.4000;0.7204;1.3448;
293.7000;0.7212;1.3473;
294.0000;0.7236;1.3497;
294.3000;0.7220;1.3423;
294.6000;0.7236;1.3398;
294.9000;0.7204;1.3298;
295.2000;0.7245;1.3348;
295.5000;0.7236;1.3373;
295.8000;0.7236;1.3423;
296.1000;0.7171;1.3223;
296.4000;0.7220;1.3298;
296.7000;0.7245;1.3373;
297.0000;0.7220;1.3298;
297.3000;0.7212;1.3248;
297.6000;0.7236;1.3273;
297.9000;0.7204;1.3124;
298.2000;0.7204;1.3149;
298.5000;0.7228;1.3223;
298.8000;0.7212;1.3273;
299.1000;0.7245;1.3348;
299.4000;0.7245;1.3398;
299.7000;0.7236;1.3473;
300.0000;0.7228;1.3448;
300.3000;0.7228;1.3448;
300.6000;0.7236;1.3423;
300.9000;0.7302;1.3597;
301.2000;0.7212;1.3497;
301.5000;0.7188;1.3572;
301.8000;0.7245;1.3771;
302.1000;0.7253;1.3746;
302.4000;0.7245;1.3647;
302.7000;0.7245;1.3572;
303.0000;0.7188;1.3448;
303.3000;0.7220;1.3448;
303.6000;0.7261;1.3572;
303.9000;0.7228;1.3448;
304.2000;0.7236;1.3348;
304.5000;0.7204;1.3398;
304.8000;0.7220;1.3448;
305.1000;0.7220;1.3423;
305.4000;0.7228;1.3522;
305.7000;0.7212;1.3448;
306.0000;0.7220;1.3448;
306.3000;0.7228;1.3473;
306.6000;0.7220;1.3497;
306.9000;0.7212;1.3522;
307.2000;0.7179;1.3473;
307.5000;0.7179;1.3497;
307.8000;0.7212;1.3547;
308.1000;0.7245;1.3647;
308.4000;0.7204;1.3522;
308.7000;0.7220;1.3473;
309.0000;0.7228;1.3448;
309.3000;0.7228;1.3497;
309.6000;0.7212;1.3473;
309.9000;0.7212;1.3497;
310.2000;0.7212;1.3572;
310.5000;0.7220;1.3647;
310.8000;0.7236;1.3672;
311.1000;0.7245;1.3697;
311.4000;0.7212;1.3572;
311.7000;0.7188;1.3522;
312.0000;0.7228;1.3597;
312.3000;0.7228;1.3597;
312.6000;0.7212;1.3622;
312.9000;0.7220;1.3722;
313.2000;0.7220;1.3672;
313.5000;0.7220;1.3597;
313.8000;0.7228;1.3497;
314.1000;0.7228;1.3522;
314.4000;0.7236;1.3448;
314.7000;0.7179;1.3323;
315.0000;0.7220;1.3448;
315.3000;0.7220;1.3473;
315.6000;0.7212;1.3448;
315.9000;0.7245;1.3522;
316.2000;0.7236;1.3522;
316.5000;0.7236;1.3622;
316.8000;0.7228;1.3547;
317.1000;0.7212;1.3522;
317.4000;0.7261;1.3547;
317.7000;0.7204;1.3323;
318.0000;0.7228;1.3298;
318.3000;0.7212;1.3373;
318.6000;0.7212;1.3423;
318.9000;0.7228;1.3398;
319.2000;0.7277;1.3547;
319.5000;0.7253;1.3522;
319.8000;0.7245;1.3522;
320.1000;0.7220;1.3423;
320.4000;0.7261;1.3448;
320.7000;0.7236;1.3423;
321.0000;0.7228;1.3423;
321.3000;0.7139;1.3223;
321.6000;0.7179;1.3323;
321.9000;0.7212;1.3323;
322.2000;0.7236;1.3323;
322.5000;0.7212;1.3323;
322.8000;0.7204;1.3398;
323.1000;0.7212;1.3473;
323.4000;0.7245;1.3522;
323.7000;0.7220;1.3473;
324.0000;0.7220;1.3547;
324.3000;0.7310;1.3796;
324.6000;0.7228;1.3572;
324.9000;0.7228;1.3572;
325.2000;0.7261;1.3672;
325.5000;0.7220;1.3697;
325.8000;0.7245;1.3746;
326.1000;0.7204;1.3672;
326.4000;0.7220;1.3672;
326.7000;0.7204;1.3622;
327.0000;0.7204;1.3597;
327.3000;0.7212;1.3572;
327.6000;0.7139;1.3423;
327.9000;0.7106;1.3398;
328.2000;0.7212;1.3697;
328.5000;0.7220;1.3746;
328.8000;0.7212;1.3796;
329.1000;0.7236;1.3821;
329.4000;0.7212;1.3672;
329.7000;0.7236;1.3672;
330.0000;0.7220;1.3547;
330.3000;0.7236;1.3622;
330.6000;0.7212;1.3522;
330.9000;0.7236;1.3622;
331.2000;0.7212;1.3572;
331.5000;0.7212;1.3522;
331.8000;0.7179;1.3423;
332.1000;0.7228;1.3622;
332.4000;0.7204;1.3597;
332.7000;0.7220;1.3622;
333.0000;0.7220;1.3622;
333.3000;0.7220;1.3722;
333.6000;0.7228;1.3746;
333.9000;0.7188;1.3647;
334.2000;0.7220;1.3622;
334.5000;0.7220;1.3597;
334.8000;0.7220;1.3572;
335.1000;0.7228;1.3647;
335.4000;0.7196;1.3547;
335.7000;0.7212;1.3522;
336.0000;0.7220;1.3473;
336.3000;0.7220;1.3473;
336.6000;0.7253;1.3473;
336.9000;0.7212;1.3398;
337.2000;0.7188;1.3423;
337.5000;0.7212;1.3572;
337.8000;0.7196;1.3522;
338.1000;0.7196;1.3497;
338.4000;0.7212;1.3547;
338.7000;0.7228;1.3672;
339.0000;0.7220;1.3522;
339.3000;0.7228;1.3522;
339.6000;0.7220;1.3522;
339.9000;0.7236;1.3622;
340.2000;0.7253;1.3672;
340.5000;0.7220;1.3572;
340.8000;0.7212;1.3497;
341.1000;0.7196;1.3323;
341.4000;0.7245;1.3497;
341.7000;0.7220;1.3473;
342.0000;0.7204;1.3522;
342.3000;0.7204;1.3572;
342.6000;0.7163;1.3547;
342.9000;0.7302;1.3846;
343.2000;0.7220;1.3647;
343.5000;0.7212;1.3572;
343.8000;0.7204;1.3522;
344.1000;0.7277;1.3647;
344.4000;0.7196;1.3448;
344.7000;0.7196;1.3448;
345.0000;0.7245;1.3522;
345.3000;0.7220;1.3522;
345.6000;0.7220;1.3547;
345.9000;0.7212;1.3597;
346.2000;0.7098;1.3223;
346.5000;0.7212;1.3473;
346.8000;0.7236;1.3473;
347.1000;0.7212;1.3497;
347.4000;0.7220;1.3497;
347.7000;0.7228;1.3522;
348.0000;0.7196;1.3497;
348.3000;0.7212;1.3572;
348.6000;0.7204;1.3622;
348.9000;0.7220;1.3672;
349.2000;0.7204;1.3647;
349.5000;0.7196;1.3622;
349.8000;0.7196;1.3622;
350.1000;0.7220;1.3697;
350.4000;0.7228;1.3672;
350.7000;0.7261;1.3697;
351.0000;0.7228;1.3572;
351.3000;0.7220;1.3597;
351.6000;0.7228;1.3647;
351.9000;0.7220;1.3572;
352.2000;0.7228;1.3547;
352.5000;0.7236;1.3597;
352.8000;0.7220;1.3572;
353.1000;0.7220;1.3473;
353.4000;0.7204;1.3448;
353.7000;0.7220;1.3423;
354.0000;0.7236;1.3373;
354.3000;0.7212;1.3398;
354.6000;0.7179;1.3348;
354.9000;0.7220;1.3423;
355.2000;0.7220;1.3423;
355.5000;0.7220;1.3473;
355.8000;0.7236;1.3497;
356.1000;0.7155;1.3248;
356.4000;0.7236;1.3448;
356.7000;0.7212;1.3398;
357.0000;0.7123;1.3049;
357.3000;0.7228;1.3423;
357.6000;0.7302;1.3572;
357.9000;0.7220;1.3423;
358.2000;0.7204;1.3473;
358.5000;0.7196;1.3448;
358.8000;0.7163;1.3323;
359.1000;0.7236;1.3473;
359.4000;0.7204;1.3398;
359.7000;0.7212;1.3323;
360.0000;0.7228;1.3273;
360.3000;0.7212;1.3223;
360.6000;0.7179;1.3124;
360.9000;0.7204;1.3149;
361.2000;0.7212;1.3199;
361.5000;0.7228;1.3348;
361.8000;0.7212;1.3373;
362.1000;0.7204;1.3448;
362.4000;0.7196;1.3473;
362.7000;0.7212;1.3448;
363.0000;0.7277;1.3572;
363.3000;0.7204;1.3373;
363.6000;0.7204;1.3373;
363.9000;0.7220;1.3398;
364.2000;0.7220;1.3448;
364.5000;0.7228;1.3497;
364.8000;0.7212;1.3497;
365.1000;0.7212;1.3497;
365.4000;0.7220;1.3572;
365.7000;0.7228;1.3647;
366.0000;0.7114;1.3373;
366.3000;0.7228;1.3597;
366.6000;0.7212;1.3597;
366.9000;0.7228;1.3672;
367.2000;0.7212;1.3572;
367.5000;0.7212;1.3448;
367.8000;0.7236;1.3473;
368.1000;0.7236;1.3423;
368.4000;0.7228;1.3423;
368.7000;0.7220;1.3448;
369.0000;0.7196;1.3398;
369.3000;0.7236;1.3473;
369.6000;0.7179;1.3298;
369.9000;0.7228;1.3398;
370.2000;0.7253;1.3398;
370.5000;0.7212;1.3323;
370.8000;0.7212;1.3298;
371.1000;0.7212;1.3298;
371.4000;0.7220;1.3199;
371.7000;0.7228;1.3298;
372.0000;0.7253;1.3348;
372.3000;0.7220;1.3248;
372.6000;0.7228;1.3298;
372.9000;0.7204;1.3248;
373.2000;0.7196;1.3248;
373.5000;0.7204;1.3398;
373.8000;0.7204;1.3423;
374.1000;0.7245;1.3572;
374.4000;0.7212;1.3473;
374.7000;0.7228;1.3547;
375.0000;0.7228;1.3547;
375.3000;0.7228;1.3547;
375.6000;0.7204;1.3448;
375.9000;0.7212;1.3373;
376.2000;0.7302;1.3597;
376.5000;0.7220;1.3398;
376.8000;0.7220;1.3373;
377.1000;0.7228;1.3423;
377.4000;0.7212;1.3423;
377.7000;0.7212;1.3323;
378.0000;0.7204;1.3298;
378.3000;0.7212;1.3323;
378.6000;0.7212;1.3323;
378.9000;0.7293;1.3547;
379.2000;0.7220;1.3398;
379.5000;0.7212;1.3373;
379.8000;0.7204;1.3298;
380.1000;0.7228;1.3323;
380.4000;0.7228;1.3273;
380.7000;0.7220;1.3149;
381.0000;0.7220;1.3199;
381.3000;0.7204;1.3149;
381.6000;0.7220;1.3199;
381.9000;0.7220;1.3199;
382.2000;0.7204;1.3373;
382.5000;0.7204;1.3522;
382.8000;0.7188;1.3473;
383.1000;0.7212;1.3572;
383.4000;0.7204;1.3597;
383.7000;0.7196;1.3497;
384.0000;0.7212;1.3547;
384.3000;0.7220;1.3522;
384.6000;0.7220;1.3547;
384.9000;0.7171;1.3423;
385.2000;0.7204;1.3473;
385.5000;0.7220;1.3448;
385.8000;0.7196;1.3423;
386.1000;0.7228;1.3448;
386.4000;0.7220;1.3373;
386.7000;0.7261;1.3448;
387.0000;0.7212;1.3398;
387.3000;0.7220;1.3497;
387.6000;0.7220;1.3522;
387.9000;0.7204;1.3497;
388.2000;0.7212;1.3572;
388.5000;0.7220;1.3597;
388.8000;0.7204;1.3572;
389.1000;0.7220;1.3622;
389.4000;0.7196;1.3497;
389.7000;0.7204;1.3497;
390.0000;0.7236;1.3547;
390.3000;0.7220;1.3572;
390.6000;0.7212;1.3522;
390.9000;0.7212;1.3473;
391.2000;0.7220;1.3522;
391.5000;0.7204;1.3448;
391.8000;0.7220;1.3497;
392.1000;0.7204;1.3473;
392.4000;0.7204;1.3373;
392.7000;0.7204;1.3348;
393.0000;0.7188;1.3323;
393.3000;0.7163;1.3273;
393.6000;0.7155;1.3248;
393.9000;0.7188;1.3373;
394.2000;0.7236;1.3547;
394.5000;0.7204;1.3448;
394.8000;0.7212;1.3572;
395.1000;0.7196;1.3547;
395.4000;0.7212;1.3497;
395.7000;0.7236;1.3497;
396.0000;0.7236;1.3473;
396.3000;0.7220;1.3497;
396.6000;0.7236;1.3497;
396.9000;0.7212;1.3522;
397.2000;0.7212;1.3547;
397.5000;0.7228;1.3597;
397.8000;0.7220;1.3597;
398.1000;0.7212;1.3572;
398.4000;0.7220;1.3547;
398.7000;0.7220;1.3597;
399.0000;0.7236;1.3771;
399.3000;0.7196;1.3647;
399.6000;0.7171;1.3497;
399.9000;0.7204;1.3497;
400.2000;0.7212;1.3473;
400.5000;0.7220;1.3522;
400.8000;0.7228;1.3547;
401.1000;0.7245;1.3547;
401.4000;0.7228;1.3497;
401.7000;0.7220;1.3448;
402.0000;0.7228;1.3522;
402.3000;0.7204;1.3497;
402.6000;0.7204;1.3448;
402.9000;0.7220;1.3547;
403.2000;0.7220;1.3547;
403.5000;0.7220;1.3473;
403.8000;0.7212;1.3473;
404.1000;0.7212;1.3423;
404.4000;0.7196;1.3423;
404.7000;0.7212;1.3423;
405.0000;0.7220;1.3398;
405.3000;0.7212;1.3423;
405.6000;0.7204;1.3373;
405.9000;0.7220;1.3373;
406.2000;0.7236;1.3373;
406.5000;0.7245;1.3423;
406.8000;0.7220;1.3373;
407.1000;0.7293;1.3697;
407.4000;0.7163;1.3273;
407.7000;0.7285;1.3497;
408.0000;0.7212;1.3323;
408.3000;0.7204;1.3348;
408.6000;0.7220;1.3398;
408.9000;0.7228;1.3323;
409.2000;0.7212;1.3273;
409.5000;0.7220;1.3423;
409.8000;0.7236;1.3373;
410.1000;0.7228;1.3473;
410.4000;0.7228;1.3497;
410.7000;0.7188;1.3448;
411.0000;0.7204;1.3473;
411.3000;0.7220;1.3647;
411.6000;0.7228;1.3647;
411.9000;0.7212;1.3647;
412.2000;0.7212;1.3672;
412.5000;0.7204;1.3597;
412.8000;0.7220;1.3497;
413.1000;0.7196;1.3448;
413.4000;0.7147;1.3373;
413.7000;0.7212;1.3572;
414.0000;0.7212;1.3647;
414.3000;0.7212;1.3647;
414.6000;0.7253;1.3771;
414.9000;0.7220;1.3746;
415.2000;0.7253;1.3846;
415.5000;0.7204;1.3722;
415.8000;0.7204;1.3572;
416.1000;0.7171;1.3522;
416.4000;0.7269;1.3722;
416.7000;0.7220;1.3497;
417.0000;0.7220;1.3448;
417.3000;0.7204;1.3448;
417.6000;0.7285;1.3672;
417.9000;0.7228;1.3547;
418.2000;0.7220;1.3522;
418.5000;0.7204;1.3423;
418.8000;0.7220;1.3547;
419.1000;0.7228;1.3622;
419.4000;0.7212;1.3622;
419.7000;0.7196;1.3597;
420.0000;0.7196;1.3672;
420.3000;0.7204;1.3647;
420.6000;0.7204;1.3647;
420.9000;0.7204;1.3697;
421.2000;0.7212;1.3572;
421.5000;0.7220;1.3572;
421.8000;0.7212;1.3572;
422.1000;0.7212;1.3622;
422.4000;0.7212;1.3672;
422.7000;0.7245;1.3796;
423.0000;0.7204;1.3771;
423.3000;0.7188;1.3647;
423.6000;0.7188;1.3647;
423.9000;0.7196;1.3672;
424.2000;0.7220;1.3722;
424.5000;0.7204;1.3697;
424.8000;0.7204;1.3647;
425.1000;0.7228;1.3771;
425.4000;0.7212;1.3746;
425.7000;0.7220;1.3746;
426.0000;0.7212;1.3722;
426.3000;0.7236;1.3746;
426.6000;0.7212;1.3722;
426.9000;0.7212;1.3697;
427.2000;0.7212;1.3746;
427.5000;0.7188;1.3697;
427.8000;0.7204;1.3622;
428.1000;0.7204;1.3622;
428.4000;0.7196;1.3572;
428.7000;0.7204;1.3597;
429.0000;0.7212;1.3622;
429.3000;0.7147;1.3522;
429.6000;0.7204;1.3622;
429.9000;0.7188;1.3547;
430.2000;0.7204;1.3622;
430.5000;0.7212;1.3672;
430.8000;0.7196;1.3572;
431.1000;0.7212;1.3572;
431.4000;0.7204;1.3597;
431.7000;0.7196;1.3647;
432.0000;0.7171;1.3522;
432.3000;0.7212;1.3647;
432.6000;0.7228;1.3647;
432.9000;0.7212;1.3722;
433.2000;0.7204;1.3622;
433.5000;0.7204;1.3522;
433.8000;0.7220;1.3547;
434.1000;0.7212;1.3622;
434.4000;0.7228;1.3672;
434.7000;0.7212;1.3622;
435.0000;0.7171;1.3497;
435.3000;0.7204;1.3597;
435.6000;0.7220;1.3597;
435.9000;0.7212;1.3622;
436.2000;0.7302;1.3846;
436.5000;0.7179;1.3597;
436.8000;0.7228;1.3722;
437.1000;0.7220;1.3622;
437.4000;0.7269;1.3746;
437.7000;0.7212;1.3522;
438.0000;0.7228;1.3622;
438.3000;0.7212;1.3597;
438.6000;0.7212;1.3572;
438.9000;0.7204;1.3597;
439.2000;0.7171;1.3572;
439.5000;0.7204;1.3746;
439.8000;0.7196;1.3697;
440.1000;0.7204;1.3697;
440.4000;0.7261;1.3846;
440.7000;0.7220;1.3722;
441.0000;0.7220;1.3746;
441.3000;0.7212;1.3697;
441.6000;0.7204;1.3697;
441.9000;0.7220;1.3672;
442.2000;0.7310;1.3871;
442.5000;0.7204;1.3647;
442.8000;0.7212;1.3622;
443.1000;0.7228;1.3647;
443.4000;0.7269;1.3746;
443.7000;0.7220;1.3597;
444.0000;0.7220;1.3622;
444.3000;0.7196;1.3597;
444.6000;0.7220;1.3672;
444.9000;0.7228;1.3697;
445.2000;0.7204;1.3597;
445.5000;0.7155;1.3497;
445.8000;0.7204;1.3622;
446.1000;0.7220;1.3647;
446.4000;0.7212;1.3672;
446.7000;0.7236;1.3697;
447.0000;0.7220;1.3647;
447.3000;0.7188;1.3672;
447.6000;0.7204;1.3722;
447.9000;0.7196;1.3796;
448.2000;0.7196;1.3821;
448.5000;0.7228;1.3921;
448.8000;0.7228;1.3871;
449.1000;0.7188;1.3746;
449.4000;0.7204;1.3821;
449.7000;0.7220;1.3722;
450.0000;0.7212;1.3622;
450.3000;0.7212;1.3647;
450.6000;0.7196;1.3622;
450.9000;0.7188;1.3672;
451.2000;0.7188;1.3647;
451.5000;0.7196;1.3572;
451.8000;0.7212;1.3622;
452.1000;0.7236;1.3622;
452.4000;0.7204;1.3647;
452.7000;0.7196;1.3697;
453.0000;0.7220;1.3697;
453.3000;0.7228;1.3597;
453.6000;0.7204;1.3473;
453.9000;0.7204;1.3522;
454.2000;0.7212;1.3622;
454.5000;0.7228;1.3722;
454.8000;0.7245;1.3796;
455.1000;0.7212;1.3672;
455.4000;0.7220;1.3697;
455.7000;0.7236;1.3796;
456.0000;0.7220;1.3672;
456.3000;0.7204;1.3647;
456.6000;0.7204;1.3672;
456.9000;0.7196;1.3622;
457.2000;0.7236;1.3622;
457.5000;0.7236;1.3597;
457.8000;0.7196;1.3497;
458.1000;0.7196;1.3572;
458.4000;0.7196;1.3597;
458.7000;0.7204;1.3572;
459.0000;0.7196;1.3547;
459.3000;0.7188;1.3522;
459.6000;0.7212;1.3497;
459.9000;0.7131;1.3273;
460.2000;0.7179;1.3522;
460.5000;0.7179;1.3572;
460.8000;0.7204;1.3572;
461.1000;0.7188;1.3497;
461.4000;0.7196;1.3547;
461.7000;0.7261;1.3746;
462.0000;0.7196;1.3547;
462.3000;0.7212;1.3597;
462.6000;0.7188;1.3597;
462.9000;0.7163;1.3522;
463.2000;0.7204;1.3672;
463.5000;0.7236;1.3647;
463.8000;0.7228;1.3597;
464.1000;0.7302;1.3821;
464.4000;0.7179;1.3547;
464.7000;0.7196;1.3497;
465.0000;0.7171;1.3398;
465.3000;0.7228;1.3597;
465.6000;0.7188;1.3597;
465.9000;0.7228;1.3722;
466.2000;0.7253;1.3746;
466.5000;0.7204;1.3622;
466.8000;0.7163;1.3622;
467.1000;0.7236;1.3821;
467.4000;0.7220;1.3746;
467.7000;0.7302;1.4020;
468.0000;0.7147;1.3647;
468.3000;0.7204;1.3796;
468.6000;0.7212;1.3871;
468.9000;0.7302;1.3995;
469.2000;0.7188;1.3771;
469.5000;0.7196;1.3846;
469.8000;0.7220;1.3871;
470.1000;0.7220;1.3846;
470.4000;0.7212;1.3796;
470.7000;0.7212;1.3846;
471.0000;0.7212;1.3821;
471.3000;0.7220;1.3746;
471.6000;0.7204;1.3672;
471.9000;0.7188;1.3796;
472.2000;0.7204;1.3821;
472.5000;0.7220;1.3896;
472.8000;0.7212;1.3871;
473.1000;0.7245;1.3946;
473.4000;0.7188;1.3746;
473.7000;0.7220;1.3771;
474.0000;0.7228;1.3746;
474.3000;0.7204;1.3597;
474.6000;0.7212;1.3597;
474.9000;0.7220;1.3622;
475.2000;0.7220;1.3597;
475.5000;0.7155;1.3398;
475.8000;0.7220;1.3572;
476.1000;0.7220;1.3522;
476.4000;0.7188;1.3423;
476.7000;0.7212;1.3497;
477.0000;0.7212;1.3473;
477.3000;0.7212;1.3423;
477.6000;0.7220;1.3522;
477.9000;0.7212;1.3497;
478.2000;0.7220;1.3522;
478.5000;0.7196;1.3448;
478.8000;0.7212;1.3473;
479.1000;0.7212;1.3497;
479.4000;0.7212;1.3448;
479.7000;0.7228;1.3547;
480.0000;0.7228;1.3597;
480.3000;0.7212;1.3497;
480.6000;0.7188;1.3448;
480.9000;0.7228;1.3597;
481.2000;0.7204;1.3448;
481.5000;0.7220;1.3572;
481.8000;0.7171;1.3423;
482.1000;0.7212;1.3522;
482.4000;0.7228;1.3622;
482.7000;0.7212;1.3572;
483.0000;0.7204;1.3622;
483.3000;0.7204;1.3697;
483.6000;0.7204;1.3697;
483.9000;0.7212;1.3697;
484.2000;0.7204;1.3572;
484.5000;0.7253;1.3722;
484.8000;0.7310;1.3896;
485.1000;0.7196;1.3672;
485.4000;0.7236;1.3697;
485.7000;0.7204;1.3647;
486.0000;0.7196;1.3672;
486.3000;0.7212;1.3697;
486.6000;0.7155;1.3597;
486.9000;0.7220;1.3771;
487.2000;0.7228;1.3796;
487.5000;0.7293;1.3871;
487.8000;0.7228;1.3647;
488.1000;0.7212;1.3597;
488.4000;0.7220;1.3597;
488.7000;0.7204;1.3547;
489.0000;0.7253;1.3622;
489.3000;0.7212;1.3522;
489.6000;0.7261;1.3597;
489.9000;0.7212;1.3497;
490.2000;0.7228;1.3473;
490.5000;0.7220;1.3398;
490.8000;0.7204;1.3348;
491.1000;0.7204;1.3398;
491.4000;0.7228;1.3473;
491.7000;0.7261;1.3672;
492.0000;0.7228;1.3497;
492.3000;0.7220;1.3348;
492.6000;0.7179;1.3323;
492.9000;0.7228;1.3522;
493.2000;0.7204;1.3547;
493.5000;0.7220;1.3647;
493.8000;0.7212;1.3622;
494.1000;0.7236;1.3647;
494.4000;0.7220;1.3597;
494.7000;0.7269;1.3846;
495.0000;0.7179;1.3572;
495.3000;0.7212;1.3597;
495.6000;0.7196;1.3622;
495.9000;0.7204;1.3647;
496.2000;0.7196;1.3722;
496.5000;0.7212;1.3672;
496.8000;0.7196;1.3622;
497.1000;0.7204;1.3622;
497.4000;0.7204;1.3647;
497.7000;0.7196;1.3572;
498.0000;0.7212;1.3647;
498.3000;0.7204;1.3647;
498.6000;0.7196;1.3722;
498.9000;0.7155;1.3572;
499.2000;0.7212;1.3647;
499.5000;0.7147;1.3448;
499.8000;0.7204;1.3547;
500.1000;0.7188;1.3473;
500.4000;0.7212;1.3547;
500.7000;0.7228;1.3722;
501.0000;0.7212;1.3672;
501.3000;0.7204;1.3597;
501.6000;0.7204;1.3597;
501.9000;0.7212;1.3647;
502.2000;0.7196;1.3697;
502.5000;0.7163;1.3647;
502.8000;0.7188;1.3746;
503.1000;0.7220;1.3846;
503.4000;0.7204;1.3796;
503.7000;0.7204;1.3771;
504.0000;0.7236;1.3796;
504.3000;0.7212;1.3672;
504.6000;0.7245;1.3821;
504.9000;0.7228;1.3746;
505.2000;0.7196;1.3697;
505.5000;0.7236;1.3796;
505.8000;0.7236;1.3871;
506.1000;0.7196;1.3647;
506.4000;0.7196;1.3722;
506.7000;0.7212;1.3722;
507.0000;0.7212;1.3572;
507.3000;0.7171;1.3473;
507.6000;0.7220;1.3547;
507.9000;0.7196;1.3522;
508.2000;0.7204;1.3597;
508.5000;0.7212;1.3672;
508.8000;0.7212;1.3572;
509.1000;0.7212;1.3572;
509.4000;0.7212;1.3622;
509.7000;0.7204;1.3473;
510.0000;0.7204;1.3423;
510.3000;0.7285;1.3647;
510.6000;0.7261;1.3522;
510.9000;0.7220;1.3448;
511.2000;0.7212;1.3497;
511.5000;0.7236;1.3572;
511.8000;0.7220;1.3647;
512.1000;0.7179;1.3497;
512.4000;0.7269;1.3746;
512.7000;0.7261;1.3697;
513.0000;0.7163;1.3547;
513.3000;0.7212;1.3647;
513.6000;0.7245;1.3697;
513.9000;0.7220;1.3497;
514.2000;0.7204;1.3423;
514.5000;0.7196;1.3448;
514.8000;0.7179;1.3448;
515.1000;0.7179;1.3473;
515.4000;0.7196;1.3448;
515.7000;0.7196;1.3522;
516.0000;0.7204;1.3497;
516.3000;0.7196;1.3373;
516.6000;0.7196;1.3398;
516.9000;0.7204;1.3398;
517.2000;0.7204;1.3448;
517.5000;0.7163;1.3348;
517.8000;0.7204;1.3473;
518.1000;0.7212;1.3473;
518.4000;0.7228;1.3497;
518.7000;0.7212;1.3497;
519.0000;0.7204;1.3473;
519.3000;0.7188;1.3473;
519.6000;0.7212;1.3473;
519.9000;0.7196;1.3448;
520.2000;0.7212;1.3448;
520.5000;0.7204;1.3423;
520.8000;0.7212;1.3448;
521.1000;0.7220;1.3423;
521.4000;0.7188;1.3398;
521.7000;0.7188;1.3348;
522.0000;0.7196;1.3323;
522.3000;0.7245;1.3423;
522.6000;0.7220;1.3373;
522.9000;0.7196;1.3423;
523.2000;0.7204;1.3448;
523.5000;0.7220;1.3423;
523.8000;0.7204;1.3398;
524.1000;0.7212;1.3473;
524.4000;0.7228;1.3473;
524.7000;0.7204;1.3248;
525.0000;0.7204;1.3348;
525.3000;0.7204;1.3423;
525.6000;0.7204;1.3473;
525.9000;0.7196;1.3497;
526.2000;0.7204;1.3522;
526.5000;0.7228;1.3622;
526.8000;0.7212;1.3572;
527.1000;0.7196;1.3547;
527.4000;0.7253;1.3647;
527.7000;0.7212;1.3597;
528.0000;0.7188;1.3522;
528.3000;0.7228;1.3647;
528.6000;0.7196;1.3672;
528.9000;0.7204;1.3597;
529.2000;0.7147;1.3448;
529.5000;0.7228;1.3672;
529.8000;0.7196;1.3722;
530.1000;0.7204;1.3672;
530.4000;0.7196;1.3672;
530.7000;0.7179;1.3622;
531.0000;0.7204;1.3722;
531.3000;0.7204;1.3771;
531.6000;0.7212;1.3821;
531.9000;0.7155;1.3697;
532.2000;0.7236;1.3846;
532.5000;0.7212;1.3746;
532.8000;0.7212;1.3697;
533.1000;0.7245;1.3846;
533.4000;0.7204;1.3746;
533.7000;0.7212;1.3771;
534.0000;0.7196;1.3746;
534.3000;0.7204;1.3746;
534.6000;0.7204;1.3796;
534.9000;0.7188;1.3746;
535.2000;0.7171;1.3647;
535.5000;0.7123;1.3597;
535.8000;0.7220;1.3771;
536.1000;0.7253;1.3771;
536.4000;0.7212;1.3672;
536.7000;0.7171;1.3622;
537.0000;0.7188;1.3796;
537.3000;0.7196;1.3821;
537.6000;0.7179;1.3746;
537.9000;0.7204;1.3746;
538.2000;0.7204;1.3771;
538.5000;0.7220;1.3746;
538.8000;0.7212;1.3722;
539.1000;0.7196;1.3647;
539.4000;0.7212;1.3722;
539.7000;0.7196;1.3746;
540.0000;0.7196;1.3722;
540.3000;0.7204;1.3597;
540.6000;0.7196;1.3572;
540.9000;0.7196;1.3547;
541.2000;0.7220;1.3622;
541.5000;0.7212;1.3722;
541.8000;0.7179;1.3672;
542.1000;0.7204;1.3746;
542.4000;0.7196;1.3622;
542.7000;0.7212;1.3672;
543.0000;0.7204;1.3597;
543.3000;0.7228;1.3572;
543.6000;0.7220;1.3522;
543.9000;0.7212;1.3597;
544.2000;0.7212;1.3597;
544.5000;0.7196;1.3622;
544.8000;0.7204;1.3697;
545.1000;0.7220;1.3697;
545.4000;0.7236;1.3846;
545.7000;0.7171;1.3746;
546.0000;0.7188;1.3796;
546.3000;0.7204;1.3846;
546.6000;0.7179;1.3796;
546.9000;0.7188;1.3796;
547.2000;0.7179;1.3821;
547.5000;0.7196;1.3846;
547.8000;0.7196;1.3896;
548.1000;0.7253;1.4020;
548.4000;0.7179;1.3796;
548.7000;0.7220;1.3796;
549.0000;0.7212;1.3821;
549.3000;0.7204;1.3647;
549.6000;0.7179;1.3697;
549.9000;0.7228;1.3771;
550.2000;0.7204;1.3697;
550.5000;0.7196;1.3771;
550.8000;0.7196;1.3821;
551.1000;0.7196;1.3796;
551.4000;0.7163;1.3697;
551.7000;0.7212;1.3746;
552.0000;0.7204;1.3647;
552.3000;0.7236;1.3746;
552.6000;0.7212;1.3597;
552.9000;0.7155;1.3522;
553.2000;0.7163;1.3547;
553.5000;0.7179;1.3522;
553.8000;0.7212;1.3547;
554.1000;0.7204;1.3522;
554.4000;0.7220;1.3572;
554.7000;0.7196;1.3423;
555.0000;0.7196;1.3448;
555.3000;0.7196;1.3572;
555.6000;0.7179;1.3622;
555.9000;0.7269;1.3821;
556.2000;0.7228;1.3722;
556.5000;0.7188;1.3672;
556.8000;0.7196;1.3697;
557.1000;0.7188;1.3597;
557.4000;0.7196;1.3622;
557.7000;0.7204;1.3597;
558.0000;0.7204;1.3622;
558.3000;0.7220;1.3746;
558.6000;0.7204;1.3746;
558.9000;0.7196;1.3746;
559.2000;0.7212;1.3672;
559.5000;0.7220;1.3821;
559.8000;0.7220;1.3796;
560.1000;0.7188;1.3746;
560.4000;0.7204;1.3771;
560.7000;0.7196;1.3771;
561.0000;0.7179;1.3697;
561.3000;0.7179;1.3771;
561.6000;0.7212;1.3821;
561.9000;0.7204;1.3846;
562.2000;0.7188;1.3672;
562.5000;0.7163;1.3597;
562.8000;0.7228;1.3722;
563.1000;0.7196;1.3647;
563.4000;0.7179;1.3597;
563.7000;0.7179;1.3497;
564.0000;0.7163;1.3448;
564.3000;0.7204;1.3522;
564.6000;0.7188;1.3448;
564.9000;0.7196;1.3522;
565.2000;0.7204;1.3497;
565.5000;0.7220;1.3547;
565.8000;0.7188;1.3473;
566.1000;0.7179;1.3423;
566.4000;0.7188;1.3448;
566.7000;0.7212;1.3497;
567.0000;0.7269;1.3647;
567.3000;0.7196;1.3398;
567.6000;0.7196;1.3423;
567.9000;0.7204;1.3423;
568.2000;0.7204;1.3423;
568.5000;0.7196;1.3448;
568.8000;0.7188;1.3497;
569.1000;0.7196;1.3497;
569.4000;0.7212;1.3597;
569.7000;0.7179;1.3448;
570.0000;0.7204;1.3547;
570.3000;0.7155;1.3423;
570.6000;0.7220;1.3622;
570.9000;0.7204;1.3547;
571.2000;0.7220;1.3497;
571.5000;0.7261;1.3672;
571.8000;0.7139;1.3348;
572.1000;0.7204;1.3572;
572.4000;0.7196;1.3373;
572.7000;0.7204;1.3423;
573.0000;0.7212;1.3373;
573.3000;0.7220;1.3373;
573.6000;0.7212;1.3348;
573.9000;0.7188;1.3298;
574.2000;0.7220;1.3373;
574.5000;0.7212;1.3448;
574.8000;0.7196;1.3398;
575.1000;0.7196;1.3497;
575.4000;0.7196;1.3522;
575.7000;0.7220;1.3572;
576.0000;0.7204;1.3572;
576.3000;0.7188;1.3522;
576.6000;0.7204;1.3522;
576.9000;0.7236;1.3572;
577.2000;0.7212;1.3473;
577.5000;0.7188;1.3448;
577.8000;0.7196;1.3497;
578.1000;0.7163;1.3473;
578.4000;0.7212;1.3547;
578.7000;0.7188;1.3547;
579.0000;0.7212;1.3597;
579.3000;0.7228;1.3597;
579.6000;0.7163;1.3497;
579.9000;0.7196;1.3473;
580.2000;0.7188;1.3473;
580.5000;0.7204;1.3572;
580.8000;0.7196;1.3572;
581.1000;0.7196;1.3572;
581.4000;0.7196;1.3647;
581.7000;0.7171;1.3547;
582.0000;0.7179;1.3547;
582.3000;0.7196;1.3697;
582.6000;0.7204;1.3647;
582.9000;0.7212;1.3672;
583.2000;0.7212;1.3672;
583.5000;0.7261;1.3871;
583.8000;0.7188;1.3622;
584.1000;0.7220;1.3672;
584.4000;0.7188;1.3697;
584.7000;0.7179;1.3672;
585.0000;0.7179;1.3522;
585.3000;0.7188;1.3522;
585.6000;0.7196;1.3597;
585.9000;0.7188;1.3497;
586.2000;0.7155;1.3348;
586.5000;0.7114;1.3348;
586.8000;0.7179;1.3572;
587.1000;0.7269;1.3896;
587.4000;0.7188;1.3672;
587.7000;0.7179;1.3672;
588.0000;0.7196;1.3597;
588.3000;0.7204;1.3697;
588.6000;0.7188;1.3697;
588.9000;0.7163;1.3572;
589.2000;0.7179;1.3722;
589.5000;0.7188;1.3672;
589.8000;0.7196;1.3622;
590.1000;0.7212;1.3622;
590.4000;0.7188;1.3622;
590.7000;0.7204;1.3647;
591.0000;0.7212;1.3622;
591.3000;0.7196;1.3572;
591.6000;0.7196;1.3622;
591.9000;0.7188;1.3522;
592.2000;0.7204;1.3497;
592.5000;0.7212;1.3597;
592.8000;0.7188;1.3522;
593.1000;0.7188;1.3547;
593.4000;0.7188;1.3622;
593.7000;0.7188;1.3672;
594.0000;0.7179;1.3547;
594.3000;0.7163;1.3448;
594.6000;0.7171;1.3497;
594.9000;0.7179;1.3572;
595.2000;0.7179;1.3597;
595.5000;0.7245;1.3796;
595.8000;0.7196;1.3722;
596.1000;0.7196;1.3697;
596.4000;0.7196;1.3771;
596.7000;0.7196;1.3871;
597.0000;0.7179;1.3896;
597.3000;0.7188;1.3821;
597.6000;0.7204;1.3746;
597.9000;0.7212;1.3722;
598.2000;0.7188;1.3647;
598.5000;0.7196;1.3597;
598.8000;0.7179;1.3746;
599.1000;0.7179;1.3722;
599.4000;0.7204;1.3746;
599.7000;0.7204;1.3821;
600.0000;0.7106;1.3522;
600.3000;0.7179;1.3597;
600.6000;0.7204;1.3572;
600.9000;0.7179;1.3423;
601.2000;0.7155;1.3248;
601.5000;0.7098;1.2974;
601.8000;0.7049;1.2626;
602.1000;0.7017;1.2476;
602.4000;0.6960;1.2352;
602.7000;0.6911;1.2227;
603.0000;0.6854;1.2103;
603.3000;0.6805;1.1929;
603.6000;0.6748;1.1804;
603.9000;0.6724;1.1729;
604.2000;0.6691;1.1605;
604.5000;0.6626;1.1530;
604.8000;0.6610;1.1505;
605.1000;0.6577;1.1505;
605.4000;0.6545;1.1381;
605.7000;0.6504;1.1256;
606.0000;0.6496;1.1181;
606.3000;0.6463;1.1107;
606.6000;0.6406;1.0982;
606.9000;0.6382;1.0932;
607.2000;0.6414;1.1007;
607.5000;0.6333;1.0808;
607.8000;0.6341;1.0908;
608.1000;0.6268;1.0858;
608.4000;0.6276;1.0783;
608.7000;0.6227;1.0733;
609.0000;0.6203;1.0708;
609.3000;0.6195;1.0783;
609.6000;0.6252;1.0957;
609.9000;0.6178;1.0783;
610.2000;0.6138;1.0808;
610.5000;0.6113;1.0683;
610.8000;0.6097;1.0634;
611.1000;0.6146;1.0783;
611.4000;0.6072;1.0534;
611.7000;0.6040;1.0459;
612.0000;0.6007;1.0484;
612.3000;0.6032;1.0634;
612.6000;0.6024;1.0534;
612.9000;0.5991;1.0509;
613.2000;0.5975;1.0484;
613.5000;0.5967;1.0434;
613.8000;0.5983;1.0484;
614.1000;0.5926;1.0385;
614.4000;0.5893;1.0285;
614.7000;0.5893;1.0310;
615.0000;0.5893;1.0285;
615.3000;0.5885;1.0136;
615.6000;0.5836;1.0011;
615.9000;0.5861;1.0111;
616.2000;0.5828;1.0111;
616.5000;0.5836;1.0235;
616.8000;0.5950;1.0584;
617.1000;0.5796;1.0111;
617.4000;0.5796;1.0086;
617.7000;0.5771;1.0160;
618.0000;0.5755;1.0185;
618.3000;0.5747;1.0160;
618.6000;0.5739;1.0185;
618.9000;0.5731;1.0160;
619.2000;0.5698;1.0036;
619.5000;0.5796;1.0285;
619.8000;0.5714;1.0011;
620.1000;0.5682;0.9936;
620.4000;0.5649;0.9886;
620.7000;0.5674;0.9911;
621.0000;0.5617;0.9787;
621.3000;0.5617;0.9812;
621.6000;0.5633;0.9862;
621.9000;0.5657;0.9986;
622.2000;0.5600;0.9862;
622.5000;0.5617;0.9936;
622.8000;0.5600;0.9936;
623.1000;0.5576;0.9911;
623.4000;0.5568;0.9886;
623.7000;0.5584;0.9886;
624.0000;0.5511;0.9762;
624.3000;0.5592;0.9886;
624.6000;0.5470;0.9637;
624.9000;0.5527;0.9737;
625.2000;0.5519;0.9737;
625.5000;0.5543;0.9712;
625.8000;0.5511;0.9787;
626.1000;0.5486;0.9737;
626.4000;0.5478;0.9637;
626.7000;0.5486;0.9737;
627.0000;0.5495;0.9837;
627.3000;0.5381;0.9588;
627.6000;0.5486;0.9762;
627.9000;0.5454;0.9662;
628.2000;0.5478;0.9662;
628.5000;0.5438;0.9662;
628.8000;0.5438;0.9662;
629.1000;0.5405;0.9538;
629.4000;0.5543;0.9837;
629.7000;0.5446;0.9662;
630.0000;0.5389;0.9588;
630.3000;0.5397;0.9513;
630.6000;0.5405;0.9538;
630.9000;0.5413;0.9637;
631.2000;0.5397;0.9687;
631.5000;0.5454;0.9837;
631.8000;0.5381;0.9712;
632.1000;0.5348;0.9637;
632.4000;0.5356;0.9662;
632.7000;0.5324;0.9637;
633.0000;0.5372;0.9712;
633.3000;0.5364;0.9687;
633.6000;0.5275;0.9613;
633.9000;0.5283;0.9712;
634.2000;0.5348;0.9837;
634.5000;0.5340;0.9787;
634.8000;0.5364;0.9862;
635.1000;0.5389;0.9936;
635.4000;0.5356;0.9812;
635.7000;0.5324;0.9762;
636.0000;0.5315;0.9762;
636.3000;0.5283;0.9712;
636.6000;0.5315;0.9762;
636.9000;0.5315;0.9837;
637.2000;0.5299;0.9762;
637.5000;0.5307;0.9787;
637.8000;0.5291;0.9712;
638.1000;0.5267;0.9637;
638.4000;0.5275;0.9637;
638.7000;0.5258;0.9637;
639.0000;0.5267;0.9563;
639.3000;0.5218;0.9364;
639.6000;0.5275;0.9513;
639.9000;0.5258;0.9463;
640.2000;0.5275;0.9513;
640.5000;0.5258;0.9588;
640.8000;0.5283;0.9737;
641.1000;0.5234;0.9613;
641.4000;0.5299;0.9787;
641.7000;0.5210;0.9513;
642.0000;0.5226;0.9463;
642.3000;0.5234;0.9488;
642.6000;0.5226;0.9463;
642.9000;0.5201;0.9388;
643.2000;0.5193;0.9364;
643.5000;0.5193;0.9413;
643.8000;0.5193;0.9413;
644.1000;0.5177;0.9488;
644.4000;0.5185;0.9538;
644.7000;0.5177;0.9637;
645.0000;0.5177;0.9762;
645.3000;0.5193;0.9837;
645.6000;0.5185;0.9837;
645.9000;0.5210;0.9886;
646.2000;0.5177;0.9687;
646.5000;0.5185;0.9762;
646.8000;0.5169;0.9712;
647.1000;0.5169;0.9762;
647.4000;0.5136;0.9613;
647.7000;0.5161;0.9712;
648.0000;0.5185;0.9762;
648.3000;0.5144;0.9662;
648.6000;0.5136;0.9613;
648.9000;0.5161;0.9712;
649.2000;0.5096;0.9588;
649.5000;0.5144;0.9687;
649.8000;0.5096;0.9613;
650.1000;0.5063;0.9613;
650.4000;0.5120;0.9737;
650.7000;0.5161;0.9812;
651.0000;0.5128;0.9712;
651.3000;0.5218;0.9911;
651.6000;0.5088;0.9538;
651.9000;0.5112;0.9662;
652.2000;0.5144;0.9762;
652.5000;0.5055;0.9613;
652.8000;0.5136;0.9862;
653.1000;0.5104;0.9787;
653.4000;0.5088;0.9787;
653.7000;0.5128;0.9886;
654.0000;0.5120;0.9812;
654.3000;0.5104;0.9737;
654.6000;0.5022;0.9513;
654.9000;0.5088;0.9737;
655.2000;0.5144;0.9911;
655.5000;0.5096;0.9837;
655.8000;0.5079;0.9762;
656.1000;0.5071;0.9737;
656.4000;0.5047;0.9712;
656.7000;0.5071;0.9762;
657.0000;0.5079;0.9862;
657.3000;0.5063;0.9862;
657.6000;0.5063;0.9862;
657.9000;0.5055;0.9762;
658.2000;0.5047;0.9762;
658.5000;0.5104;0.9911;
658.8000;0.5047;0.9737;
659.1000;0.5047;0.9787;
659.4000;0.5071;0.9812;
659.7000;0.5063;0.9812;
660.0000;0.5039;0.9787;
660.3000;0.5022;0.9837;
660.6000;0.5031;0.9862;
660.9000;0.5047;0.9787;
661.2000;0.5039;0.9837;
661.5000;0.5039;0.9787;
661.8000;0.5039;0.9787;
662.1000;0.5022;0.9837;
662.4000;0.5039;0.9812;
662.7000;0.5031;0.9762;
663.0000;0.5022;0.9762;
663.3000;0.5014;0.9837;
663.6000;0.5022;0.9911;
663.9000;0.5039;0.9986;
664.2000;0.5022;0.9986;
664.5000;0.4998;0.9886;
664.8000;0.5014;0.9911;
665.1000;0.4998;0.9787;
665.4000;0.5006;0.9787;
665.7000;0.5006;0.9862;
666.0000;0.4998;0.9837;
666.3000;0.4982;0.9812;
666.6000;0.5047;0.9961;
666.9000;0.4990;0.9862;
667.2000;0.4990;0.9862;
667.5000;0.4982;0.9936;
667.8000;0.4982;0.9911;
668.1000;0.4949;0.9837;
668.4000;0.4998;0.9986;
668.7000;0.4990;1.0011;
669.0000;0.4998;0.9986;
669.3000;0.4965;0.9936;
669.6000;0.4982;1.0036;
669.9000;0.4998;1.0036;
670.2000;0.5006;0.9936;
670.5000;0.4974;0.9911;
670.8000;0.4965;0.9911;
671.1000;0.4949;0.9862;
671.4000;0.4982;0.9986;
671.7000;0.4965;0.9936;
672.0000;0.4974;0.9886;
672.3000;0.5006;1.0036;
672.6000;0.4965;0.9936;
672.9000;0.4974;1.0011;
673.2000;0.4957;0.9986;
673.5000;0.4998;1.0086;
673.8000;0.4957;1.0011;
674.1000;0.4982;1.0086;
674.4000;0.4949;0.9986;
674.7000;0.4949;0.9986;
675.0000;0.4965;0.9986;
675.3000;0.4965;0.9961;
675.6000;0.4900;0.9712;
675.9000;0.4941;0.9837;
676.2000;0.4933;0.9812;
676.5000;0.4998;0.9936;
676.8000;0.4949;0.9837;
677.1000;0.4925;0.9812;
677.4000;0.4974;0.9886;
677.7000;0.4925;0.9787;
678.0000;0.4925;0.9787;
678.3000;0.4900;0.9712;
678.6000;0.4908;0.9712;
678.9000;0.4933;0.9812;
679.2000;0.4884;0.9737;
679.5000;0.4949;0.9911;
679.8000;0.4925;0.9862;
680.1000;0.4917;0.9886;
680.4000;0.4917;0.9837;
680.7000;0.4941;0.9837;
681.0000;0.4917;0.9762;
681.3000;0.4925;0.9862;
681.6000;0.4941;0.9837;
681.9000;0.4908;0.9812;
682.2000;0.4957;0.9936;
682.5000;0.4965;1.0061;
682.8000;0.4876;0.9911;
683.1000;0.4917;0.9986;
683.4000;0.4876;0.9911;
683.7000;0.4908;0.9936;
684.0000;0.4925;0.9911;
684.3000;0.4925;0.9862;
684.6000;0.4900;0.9812;
684.9000;0.4908;0.9762;
685.2000;0.4949;0.9787;
685.5000;0.4917;0.9762;
685.8000;0.4900;0.9787;
686.1000;0.4892;0.9787;
686.4000;0.4925;0.9862;
686.7000;0.4908;0.9862;
687.0000;0.4876;0.9737;
687.3000;0.4835;0.9662;
687.6000;0.4876;0.9862;
687.9000;0.4892;0.9911;
688.2000;0.4957;1.0036;
688.5000;0.4900;0.9911;
688.8000;0.4925;0.9961;
689.1000;0.4900;0.9911;
689.4000;0.4868;0.9787;
689.7000;0.4876;0.9687;
690.0000;0.4884;0.9687;
690.3000;0.4908;0.9712;
690.6000;0.4900;0.9662;
690.9000;0.4876;0.9588;
691.2000;0.4860;0.9488;
691.5000;0.4892;0.9588;
691.8000;0.4876;0.9538;
692.1000;0.4876;0.9613;
692.4000;0.4876;0.9563;
692.7000;0.4884;0.9637;
693.0000;0.4843;0.9712;
693.3000;0.4860;0.9762;
693.6000;0.4860;0.9737;
693.9000;0.4876;0.9637;
694.2000;0.4876;0.9637;
694.5000;0.4868;0.9588;
694.8000;0.4876;0.9687;
695.1000;0.4884;0.9637;
695.4000;0.4876;0.9588;
695.7000;0.4868;0.9538;
696.0000;0.4860;0.9488;
696.3000;0.4860;0.9588;
696.6000;0.4851;0.9563;
696.9000;0.4843;0.9513;
697.2000;0.4794;0.9463;
697.5000;0.4843;0.9662;
697.8000;0.4860;0.9687;
698.1000;0.4843;0.9787;
698.4000;0.4884;0.9886;
698.7000;0.4827;0.9687;
699.0000;0.4843;0.9737;
699.3000;0.4843;0.9737;
699.6000;0.4917;0.9886;
699.9000;0.4786;0.9662;
700.2000;0.4933;1.0086;
700.5000;0.4843;0.9862;
700.8000;0.4827;0.9862;
701.1000;0.4827;0.9812;
701.4000;0.4819;0.9712;
701.7000;0.4843;0.9837;
702.0000;0.4729;0.9563;
702.3000;0.4835;0.9862;
702.6000;0.4811;0.9812;
702.9000;0.4803;0.9762;
703.2000;0.4835;0.9787;
703.5000;0.4827;0.9886;
703.8000;0.4835;0.9911;
704.1000;0.4835;1.0011;
704.4000;0.4843;1.0036;
704.7000;0.4827;0.9911;
705.0000;0.4835;0.9886;
705.3000;0.4835;0.9837;
705.6000;0.4819;0.9737;
705.9000;0.4843;0.9762;
706.2000;0.4835;0.9687;
706.5000;0.4811;0.9637;
706.8000;0.4819;0.9712;
707.1000;0.4819;0.9762;
707.4000;0.4835;0.9762;
707.7000;0.4819;0.9787;
708.0000;0.4811;0.9787;
708.3000;0.4811;0.9837;
708.6000;0.4811;0.9762;
708.9000;0.4803;0.9687;
709.2000;0.4819;0.9712;
709.5000;0.4827;0.9837;
709.8000;0.4794;0.9812;
710.1000;0.4827;0.9886;
710.4000;0.4746;0.9737;
710.7000;0.4819;0.9936;
711.0000;0.4803;0.9911;
711.3000;0.4819;0.9911;
711.6000;0.4794;0.9812;
711.9000;0.4811;0.9862;
712.2000;0.4811;0.9862;
712.5000;0.4803;0.9812;
712.8000;0.4786;0.9687;
713.1000;0.4827;0.9737;
713.4000;0.4811;0.9712;
713.7000;0.4811;0.9662;
714.0000;0.4811;0.9687;
714.3000;0.4794;0.9737;
714.6000;0.4819;0.9837;
714.9000;0.4803;0.9812;
715.2000;0.4803;0.9862;
715.5000;0.4819;0.9936;
715.8000;0.4811;0.9837;
716.1000;0.4794;0.9762;
716.4000;0.4803;0.9812;
716.7000;0.4803;0.9787;
717.0000;0.4786;0.9737;
717.3000;0.4811;0.9837;
717.6000;0.4794;0.9762;
717.9000;0.4803;0.9762;
718.2000;0.4803;0.9787;
718.5000;0.4794;0.9762;
718.8000;0.4819;0.9837;
719.1000;0.4827;0.9886;
719.4000;0.4811;0.9862;
719.7000;0.4794;0.9911;
720.0000;0.4778;0.9911;
720.3000;0.4770;0.9862;
720.6000;0.4786;0.9911;
720.9000;0.4803;1.0036;
721.2000;0.4786;1.0036;
721.5000;0.4778;1.0036;
721.8000;0.4762;1.0036;
722.1000;0.4754;1.0011;
722.4000;0.4843;1.0185;
722.7000;0.4786;1.0061;
723.0000;0.4794;1.0036;
723.3000;0.4794;1.0011;
723.6000;0.4819;1.0036;
723.9000;0.4778;0.9886;
724.2000;0.4778;0.9862;
724.5000;0.4786;0.9837;
724.8000;0.4770;0.9787;
725.1000;0.4770;0.9837;
725.4000;0.4786;0.9837;
725.7000;0.4794;0.9986;
726.0000;0.4721;0.9936;
726.3000;0.4786;1.0111;
726.6000;0.4794;1.0136;
726.9000;0.4754;1.0086;
727.2000;0.4762;1.0086;
727.5000;0.4778;1.0185;
727.8000;0.4770;1.0136;
728.1000;0.4778;1.0111;
728.4000;0.4786;1.0086;
728.7000;0.4778;1.0136;
729.0000;0.4762;1.0185;
729.3000;0.4770;1.0185;
729.6000;0.4746;1.0111;
729.9000;0.4770;1.0160;
730.2000;0.4770;1.0086;
730.5000;0.4786;1.0011;
730.8000;0.4786;1.0011;
731.1000;0.4770;0.9961;
731.4000;0.4778;1.0011;
731.7000;0.4778;1.0011;
732.0000;0.4754;0.9986;
732.3000;0.4770;1.0061;
732.6000;0.4746;0.9961;
732.9000;0.4746;1.0061;
733.2000;0.4729;1.0011;
733.5000;0.4746;1.0061;
733.8000;0.4762;1.0036;
734.1000;0.4746;1.0061;
734.4000;0.4737;1.0061;
734.7000;0.4762;1.0111;
735.0000;0.4762;1.0235;
735.3000;0.4737;1.0185;
735.6000;0.4762;1.0260;
735.9000;0.4754;1.0235;
736.2000;0.4729;1.0210;
736.5000;0.4746;1.0086;
736.8000;0.4754;1.0061;
737.1000;0.4762;1.0036;
737.4000;0.4737;1.0011;
737.7000;0.4729;0.9986;
738.0000;0.4746;0.9986;
738.3000;0.4762;0.9986;
738.6000;0.4762;1.0011;
738.9000;0.4737;0.9886;
739.2000;0.4746;0.9936;
739.5000;0.4746;0.9961;
739.8000;0.4827;1.0160;
740.1000;0.4729;1.0011;
740.4000;0.4746;1.0061;
740.7000;0.4721;0.9986;
741.0000;0.4746;1.0036;
741.3000;0.4746;0.9936;
741.6000;0.4762;0.9911;
741.9000;0.4762;0.9911;
742.2000;0.4746;0.9886;
742.5000;0.4754;0.9886;
742.8000;0.4737;0.9886;
743.1000;0.4786;0.9936;
743.4000;0.4737;0.9787;
743.7000;0.4705;0.9737;
744.0000;0.4746;0.9812;
744.3000;0.4729;0.9787;
744.6000;0.4746;0.9712;
744.9000;0.4737;0.9687;
745.2000;0.4737;0.9613;
745.5000;0.4672;0.9463;
745.8000;0.4721;0.9687;
746.1000;0.4746;0.9812;
746.4000;0.4746;0.9886;
746.7000;0.4770;1.0036;
747.0000;0.4721;0.9911;
747.3000;0.4713;0.9936;
747.6000;0.4737;0.9961;
747.9000;0.4737;0.9886;
748.2000;0.4746;0.9837;
748.5000;0.4729;0.9812;
748.8000;0.4729;0.9862;
749.1000;0.4689;0.9762;
749.4000;0.4721;0.9886;
749.7000;0.4713;0.9837;
750.0000;0.4729;0.9837;
750.3000;0.4737;0.9812;
750.6000;0.4737;0.9762;
750.9000;0.4754;0.9812;
751.2000;0.4729;0.9737;
751.5000;0.4737;0.9712;
751.8000;0.4794;0.9812;
752.1000;0.4729;0.9637;
752.4000;0.4729;0.9687;
752.7000;0.4729;0.9787;
753.0000;0.4737;0.9911;
753.3000;0.4721;0.9911;
753.6000;0.4729;0.9911;
753.9000;0.4721;0.9911;
754.2000;0.4729;0.9961;
754.5000;0.4729;0.9986;
754.8000;0.4737;1.0011;
755.1000;0.4713;0.9961;
755.4000;0.4697;0.9911;
755.7000;0.4721;0.9837;
756.0000;0.4697;0.9762;
756.3000;0.4705;0.9812;
756.6000;0.4729;0.9812;
756.9000;0.4705;0.9737;
757.2000;0.4729;0.9862;
757.5000;0.4640;0.9737;
757.8000;0.4721;0.9961;
758.1000;0.4713;0.9886;
758.4000;0.4681;0.9737;
758.7000;0.4697;0.9787;
759.0000;0.4729;0.9787;
759.3000;0.4697;0.9687;
759.6000;0.4697;0.9837;
759.9000;0.4697;0.9936;
760.2000;0.4721;1.0011;
760.5000;0.4721;1.0086;
760.8000;0.4737;1.0011;
761.1000;0.4713;0.9986;
761.4000;0.4737;1.0011;
761.7000;0.4713;0.9986;
762.0000;0.4705;0.9936;
762.3000;0.4713;0.9961;
762.6000;0.4713;0.9986;
762.9000;0.4713;1.0011;
763.2000;0.4705;0.9986;
763.5000;0.4705;1.0061;
763.8000;0.4689;0.9986;
764.1000;0.4681;0.9961;
764.4000;0.4729;1.0111;
764.7000;0.4713;1.0036;
765.0000;0.4713;1.0061;
765.3000;0.4689;0.9961;
765.6000;0.4713;0.9961;
765.9000;0.4713;0.9886;
766.2000;0.4713;0.9886;
766.5000;0.4721;0.9886;
766.8000;0.4729;0.9812;
767.1000;0.4689;0.9737;
767.4000;0.4737;0.9911;
767.7000;0.4729;0.9886;
768.0000;0.4697;0.9762;
768.3000;0.4664;0.9613;
768.6000;0.4705;0.9712;
768.9000;0.4713;0.9787;
769.2000;0.4697;0.9762;
769.5000;0.4681;0.9712;
769.8000;0.4697;0.9712;
770.1000;0.4697;0.9662;
770.4000;0.4689;0.9687;
770.7000;0.4681;0.9737;
771.0000;0.4640;0.9662;
771.3000;0.4689;0.9762;
771.6000;0.4705;0.9787;
771.9000;0.4656;0.9737;
772.2000;0.4689;0.9812;
772.5000;0.4681;0.9787;
772.8000;0.4697;0.9762;
773.1000;0.4672;0.9712;
773.4000;0.4705;0.9762;
773.7000;0.4689;0.9762;
774.0000;0.4697;0.9812;
774.3000;0.4705;0.9862;
774.6000;0.4713;0.9886;
774.9000;0.4697;0.9762;
775.2000;0.4746;0.9812;
775.5000;0.4729;0.9812;
775.8000;0.4721;0.9812;
776.1000;0.4689;0.9737;
776.4000;0.4721;0.9737;
776.7000;0.4697;0.9712;
777.0000;0.4681;0.9737;
777.3000;0.4697;0.9812;
777.6000;0.4681;0.9787;
777.9000;0.4705;0.9787;
778.2000;0.4689;0.9837;
778.5000;0.4786;1.0061;
778.8000;0.4689;0.9886;
779.1000;0.4689;0.9961;
779.4000;0.4681;0.9961;
779.7000;0.4689;0.9837;
780.0000;0.4689;0.9787;
780.3000;0.4689;0.9737;
780.6000;0.4689;0.9637;
780.9000;0.4697;0.9662;
781.2000;0.4681;0.9588;
781.5000;0.4681;0.9588;
781.8000;0.4681;0.9637;
782.1000;0.4681;0.9687;
782.4000;0.4705;0.9812;
782.7000;0.4689;0.9837;
783.0000;0.4689;0.9911;
783.3000;0.4689;0.9986;
783.6000;0.4681;0.9986;
783.9000;0.4681;0.9961;
784.2000;0.4681;0.9961;
784.5000;0.4681;0.9936;
784.8000;0.4672;1.0011;
785.1000;0.4697;1.0061;
785.4000;0.4689;1.0061;
785.7000;0.4681;1.0036;
786.0000;0.4746;1.0185;
786.3000;0.4664;1.0086;
786.6000;0.4681;1.0160;
786.9000;0.4689;1.0185;
787.2000;0.4672;1.0111;
787.5000;0.4681;1.0210;
787.8000;0.4697;1.0260;
788.1000;0.4705;1.0235;
788.4000;0.4681;1.0210;
788.7000;0.4607;0.9936;
789.0000;0.4689;1.0160;
789.3000;0.4721;1.0210;
789.6000;0.4689;1.0185;
789.9000;0.4648;1.0036;
790.2000;0.4721;1.0235;
790.5000;0.4697;1.0160;
790.8000;0.4672;1.0011;
791.1000;0.4648;0.9961;
791.4000;0.4640;0.9986;
791.7000;0.4672;1.0111;
792.0000;0.4656;1.0111;
792.3000;0.4681;1.0111;
792.6000;0.4656;1.0036;
792.9000;0.4656;0.9886;
793.2000;0.4705;0.9886;
793.5000;0.4624;0.9687;
793.8000;0.4705;1.0011;
794.1000;0.4705;0.9986;
794.4000;0.4656;0.9911;
794.7000;0.4672;0.9961;
795.0000;0.4656;1.0011;
795.3000;0.4656;0.9961;
795.6000;0.4672;1.0061;
795.9000;0.4689;1.0086;
796.2000;0.4681;1.0011;
796.5000;0.4672;1.0011;
796.8000;0.4681;0.9986;
797.1000;0.4689;1.0036;
797.4000;0.4681;1.0011;
797.7000;0.4697;1.0036;
798.0000;0.4681;1.0061;
798.3000;0.4672;1.0036;
798.6000;0.4664;1.0061;
798.9000;0.4664;0.9986;
799.2000;0.4681;1.0036;
799.5000;0.4664;0.9936;
799.8000;0.4672;0.9961;
800.1000;0.4672;0.9986;
800.4000;0.4632;0.9936;
800.7000;0.4656;0.9986;
801.0000;0.4656;1.0036;
801.3000;0.4648;1.0036;
801.6000;0.4672;1.0136;
801.9000;0.4681;1.0111;
802.2000;0.4656;1.0036;
802.5000;0.4737;1.0185;
802.8000;0.4672;1.0036;
803.1000;0.4672;1.0011;
803.4000;0.4640;1.0011;
803.7000;0.4664;1.0036;
804.0000;0.4664;1.0036;
804.3000;0.4656;1.0036;
804.6000;0.4664;1.0136;
804.9000;0.4664;1.0185;
805.2000;0.4656;1.0210;
805.5000;0.4624;1.0111;
805.8000;0.4664;1.0235;
806.1000;0.4672;1.0260;
806.4000;0.4656;1.0210;
806.7000;0.4656;1.0160;
807.0000;0.4697;1.0285;
807.3000;0.4656;1.0160;
807.6000;0.4656;1.0111;
807.9000;0.4672;1.0160;
808.2000;0.4656;1.0111;
808.5000;0.4648;1.0061;
808.8000;0.4664;1.0160;
809.1000;0.4697;1.0285;
809.4000;0.4648;1.0185;
809.7000;0.4656;1.0160;
810.0000;0.4672;1.0111;
810.3000;0.4656;1.0111;
810.6000;0.4656;1.0210;
810.9000;0.4664;1.0136;
811.2000;0.4697;1.0210;
811.5000;0.4754;1.0360;
811.8000;0.4672;1.0160;
812.1000;0.4664;1.0185;
812.4000;0.4656;1.0210;
812.7000;0.4656;1.0136;
813.0000;0.4721;1.0235;
813.3000;0.4664;1.0086;
813.6000;0.4656;1.0111;
813.9000;0.4648;1.0086;
814.2000;0.4648;1.0086;
814.5000;0.4640;1.0036;
814.8000;0.4648;1.0061;
815.1000;0.4640;1.0061;
815.4000;0.4672;1.0061;
815.7000;0.4664;1.0111;
816.0000;0.4648;1.0136;
816.3000;0.4656;1.0235;
816.6000;0.4640;1.0185;
816.9000;0.4648;1.0235;
817.2000;0.4648;1.0136;
817.5000;0.4681;1.0185;
817.8000;0.4648;1.0061;
818.1000;0.4664;1.0136;
818.4000;0.4640;1.0185;
818.7000;0.4664;1.0235;
819.0000;0.4656;1.0235;
819.3000;0.4656;1.0260;
819.6000;0.4656;1.0260;
819.9000;0.4664;1.0260;
820.2000;0.4664;1.0235;
820.5000;0.4656;1.0210;
820.8000;0.4656;1.0136;
821.1000;0.4672;1.0136;
821.4000;0.4672;1.0210;
821.7000;0.4664;1.0235;
822.0000;0.4664;1.0185;
822.3000;0.4681;1.0160;
822.6000;0.4672;1.0185;
822.9000;0.4681;1.0185;
823.2000;0.4656;1.0086;
823.5000;0.4664;1.0160;
823.8000;0.4681;1.0260;
824.1000;0.4640;1.0136;
824.4000;0.4681;1.0235;
824.7000;0.4640;1.0210;
825.0000;0.4664;1.0210;
825.3000;0.4640;1.0160;
825.6000;0.4664;1.0185;
825.9000;0.4656;1.0160;
826.2000;0.4640;1.0210;
826.5000;0.4656;1.0160;
826.8000;0.4640;1.0136;
827.1000;0.4640;1.0160;
827.4000;0.4640;1.0210;
827.7000;0.4648;1.0285;
828.0000;0.4656;1.0385;
828.3000;0.4664;1.0409;
828.6000;0.4599;1.0285;
828.9000;0.4689;1.0584;
829.2000;0.4656;1.0434;
829.5000;0.4648;1.0484;
829.8000;0.4648;1.0459;
830.1000;0.4648;1.0360;
830.4000;0.4656;1.0285;
830.7000;0.4640;1.0160;
831.0000;0.4664;1.0260;
831.3000;0.4664;1.0360;
831.6000;0.4681;1.0434;
831.9000;0.4648;1.0310;
832.2000;0.4640;1.0285;
832.5000;0.4632;1.0285;
832.8000;0.4681;1.0360;
833.1000;0.4697;1.0335;
833.4000;0.4664;1.0235;
833.7000;0.4656;1.0185;
834.0000;0.4681;1.0210;
834.3000;0.4664;1.0235;
834.6000;0.4607;0.9986;
834.9000;0.4640;1.0036;
835.2000;0.4640;1.0086;
835.5000;0.4648;1.0111;
835.8000;0.4656;1.0011;
836.1000;0.4648;0.9986;
836.4000;0.4632;0.9961;
836.7000;0.4648;1.0061;
837.0000;0.4640;1.0061;
837.3000;0.4689;1.0185;
837.6000;0.4689;1.0136;
837.9000;0.4656;1.0136;
838.2000;0.4648;1.0160;
838.5000;0.4640;1.0111;
838.8000;0.4648;1.0160;
839.1000;0.4648;1.0185;
839.4000;0.4648;1.0210;
839.7000;0.4672;1.0210;
840.0000;0.4632;1.0086;
840.3000;0.4648;1.0061;
840.6000;0.4624;1.0061;
840.9000;0.4640;1.0111;
841.2000;0.4648;1.0061;
841.5000;0.4648;1.0086;
841.8000;0.4656;1.0160;
842.1000;0.4656;1.0235;
842.4000;0.4664;1.0185;
842.7000;0.4632;1.0086;
843.0000;0.4632;1.0086;
843.3000;0.4640;1.0061;
843.6000;0.4648;1.0160;
843.9000;0.4672;1.0185;
844.2000;0.4640;1.0061;
844.5000;0.4640;1.0086;
844.8000;0.4640;1.0111;
845.1000;0.4648;1.0111;
845.4000;0.4632;1.0111;
845.7000;0.4640;1.0160;
846.0000;0.4648;1.0111;
846.3000;0.4640;1.0160;
846.6000;0.4656;1.0210;
846.9000;0.4648;1.0210;
847.2000;0.4672;1.0285;
847.5000;0.4640;1.0235;
847.8000;0.4599;0.9986;
848.1000;0.4640;1.0160;
848.4000;0.4648;1.0136;
848.7000;0.4640;1.0210;
849.0000;0.4624;1.0185;
849.3000;0.4640;1.0235;
849.6000;0.4648;1.0210;
849.9000;0.4558;1.0011;
850.2000;0.4624;1.0185;
850.5000;0.4624;1.0210;
850.8000;0.4640;1.0285;
851.1000;0.4648;1.0235;
851.4000;0.4615;1.0260;
851.7000;0.4542;1.0111;
852.0000;0.4640;1.0360;
852.3000;0.4640;1.0285;
852.6000;0.4615;1.0210;
852.9000;0.4632;1.0235;
853.2000;0.4624;1.0210;
853.5000;0.4656;1.0235;
853.8000;0.4648;1.0260;
854.1000;0.4656;1.0285;
854.4000;0.4640;1.0160;
854.7000;0.4632;1.0086;
855.0000;0.4681;1.0285;
855.3000;0.4607;1.0111;
855.6000;0.4672;1.0285;
855.9000;0.4648;1.0235;
856.2000;0.4640;1.0086;
856.5000;0.4632;0.9936;
856.8000;0.4640;0.9862;
857.1000;0.4648;0.9961;
857.4000;0.4648;0.9986;
857.7000;0.4640;0.9936;
858.0000;0.4648;0.9936;
858.3000;0.4656;1.0011;
858.6000;0.4640;1.0036;
858.9000;0.4656;1.0011;
859.2000;0.4648;1.0061;
859.5000;0.4648;1.0136;
859.8000;0.4632;1.0136;
860.1000;0.4656;1.0160;
860.4000;0.4664;1.0260;
860.7000;0.4640;1.0235;
861.0000;0.4640;1.0310;
861.3000;0.4567;1.0210;
861.6000;0.4615;1.0310;
861.9000;0.4624;1.0285;
862.2000;0.4615;1.0285;
862.5000;0.4583;1.0061;
862.8000;0.4640;1.0285;
863.1000;0.4632;1.0235;
863.4000;0.4624;1.0111;
863.7000;0.4624;1.0136;
864.0000;0.4632;1.0136;
864.3000;0.4648;1.0111;
864.6000;0.4632;1.0136;
864.9000;0.4640;1.0160;
865.2000;0.4648;1.0136;
865.5000;0.4624;1.0061;
865.8000;0.4664;1.0210;
866.1000;0.4689;1.0310;
866.4000;0.4640;1.0061;
866.7000;0.4640;1.0086;
867.0000;0.4640;1.0011;
867.3000;0.4640;1.0061;
867.6000;0.4615;1.0136;
867.9000;0.4615;1.0111;
868.2000;0.4632;1.0185;
868.5000;0.4640;1.0160;
868.8000;0.4632;1.0061;
869.1000;0.4648;1.0136;
869.4000;0.4624;1.0160;
869.7000;0.4640;1.0185;
870.0000;0.4648;1.0260;
870.3000;0.4624;1.0160;
870.6000;0.4632;1.0185;
870.9000;0.4640;1.0210;
871.2000;0.4640;1.0185;
871.5000;0.4648;1.0210;
871.8000;0.4640;1.0111;
872.1000;0.4632;1.0111;
872.4000;0.4648;1.0086;
872.7000;0.4615;0.9911;
873.0000;0.4624;0.9986;
873.3000;0.4632;1.0111;
873.6000;0.4624;1.0086;
873.9000;0.4632;1.0061;
874.2000;0.4624;1.0036;
874.5000;0.4672;1.0136;
874.8000;0.4607;0.9911;
875.1000;0.4624;1.0036;
875.4000;0.4624;0.9986;
875.7000;0.4624;1.0036;
876.0000;0.4632;1.0111;
876.3000;0.4632;1.0061;
876.6000;0.4632;1.0061;
876.9000;0.4640;0.9986;
877.2000;0.4615;0.9961;
877.5000;0.4656;1.0036;
877.8000;0.4640;1.0036;
878.1000;0.4656;1.0036;
878.4000;0.4615;0.9911;
878.7000;0.4640;0.9936;
879.0000;0.4648;1.0036;
879.3000;0.4624;0.9936;
879.6000;0.4648;1.0036;
879.9000;0.4615;1.0061;
880.2000;0.4615;1.0036;
880.5000;0.4624;1.0086;
880.8000;0.4640;1.0061;
881.1000;0.4615;0.9986;
881.4000;0.4632;0.9961;
881.7000;0.4632;1.0061;
882.0000;0.4640;1.0111;
882.3000;0.4624;1.0111;
882.6000;0.4648;1.0136;
882.9000;0.4640;1.0111;
883.2000;0.4599;1.0061;
883.5000;0.4640;1.0260;
883.8000;0.4640;1.0335;
884.1000;0.4583;1.0310;
884.4000;0.4632;1.0335;
884.7000;0.4624;1.0310;
885.0000;0.4632;1.0409;
885.3000;0.4640;1.0434;
885.6000;0.4624;1.0285;
885.9000;0.4624;1.0285;
886.2000;0.4640;1.0285;
886.5000;0.4640;1.0235;
886.8000;0.4599;1.0086;
887.1000;0.4648;1.0260;
887.4000;0.4632;1.0285;
887.7000;0.4599;1.0185;
888.0000;0.4607;1.0235;
888.3000;0.4624;1.0260;
888.6000;0.4624;1.0335;
888.9000;0.4624;1.0335;
889.2000;0.4615;1.0185;
889.5000;0.4664;1.0409;
889.8000;0.4624;1.0385;
890.1000;0.4689;1.0434;
890.4000;0.4624;1.0285;
890.7000;0.4615;1.0185;
891.0000;0.4632;1.0235;
891.3000;0.4624;1.0260;
891.6000;0.4640;1.0285;
891.9000;0.4632;1.0335;
892.2000;0.4632;1.0310;
892.5000;0.4664;1.0459;
892.8000;0.4615;1.0260;
893.1000;0.4640;1.0310;
893.4000;0.4624;1.0335;
893.7000;0.4648;1.0434;
894.0000;0.4640;1.0310;
894.3000;0.4615;1.0310;
894.6000;0.4632;1.0285;
894.9000;0.4615;1.0160;
895.2000;0.4632;1.0111;
895.5000;0.4656;1.0136;
895.8000;0.4624;1.0086;
896.1000;0.4632;1.0111;
896.4000;0.4624;1.0011;
896.7000;0.4648;0.9986;
897.0000;0.4632;0.9911;
897.3000;0.4583;0.9787;
897.6000;0.4624;1.0111;
897.9000;0.4599;1.0210;
898.2000;0.4624;1.0285;
898.5000;0.4672;1.0484;
898.8000;0.4624;1.0360;
899.1000;0.4624;1.0310;
899.4000;0.4615;1.0260;
899.7000;0.4607;1.0235;
900.0000;0.4624;1.0260;
900.3000;0.4607;1.0285;
900.6000;0.4624;1.0285;
900.9000;0.4607;1.0210;
901.2000;0.4615;1.0235;
901.5000;0.4624;1.0260;
901.8000;0.4615;1.0235;
902.1000;0.4624;1.0285;
902.4000;0.4624;1.0235;
902.7000;0.4624;1.0185;
903.0000;0.4648;1.0310;
903.3000;0.4640;1.0285;
903.6000;0.4656;1.0310;
903.9000;0.4640;1.0260;
904.2000;0.4632;1.0235;
904.5000;0.4607;1.0210;
904.8000;0.4599;1.0235;
905.1000;0.4615;1.0185;
905.4000;0.4624;1.0235;
905.7000;0.4615;1.0210;
906.0000;0.4615;1.0185;
906.3000;0.4615;1.0210;
906.6000;0.4624;1.0285;
906.9000;0.4607;1.0210;
907.2000;0.4632;1.0235;
907.5000;0.4632;1.0210;
907.8000;0.4640;1.0260;
908.1000;0.4640;1.0285;
908.4000;0.4640;1.0185;
908.7000;0.4624;1.0111;
909.0000;0.4599;1.0061;
909.3000;0.4624;1.0061;
909.6000;0.4624;1.0111;
909.9000;0.4624;1.0136;
910.2000;0.4607;1.0111;
910.5000;0.4615;1.0160;
910.8000;0.4615;1.0260;
911.1000;0.4648;1.0385;
911.4000;0.4615;1.0260;
911.7000;0.4624;1.0285;
912.0000;0.4632;1.0285;
912.3000;0.4624;1.0285;
912.6000;0.4624;1.0310;
912.9000;0.4632;1.0310;
913.2000;0.4632;1.0335;
913.5000;0.4632;1.0409;
913.8000;0.4607;1.0360;
914.1000;0.4615;1.0310;
914.4000;0.4632;1.0360;
914.7000;0.4640;1.0360;
915.0000;0.4624;1.0310;
915.3000;0.4615;1.0235;
915.6000;0.4632;1.0235;
915.9000;0.4632;1.0235;
916.2000;0.4648;1.0210;
916.5000;0.4624;1.0235;
916.8000;0.4632;1.0285;
917.1000;0.4607;1.0210;
917.4000;0.4624;1.0160;
917.7000;0.4624;1.0061;
918.0000;0.4648;1.0086;
918.3000;0.4648;1.0160;
918.6000;0.4624;1.0136;
918.9000;0.4632;1.0210;
919.2000;0.4632;1.0185;
919.5000;0.4640;1.0260;
919.8000;0.4567;1.0086;
920.1000;0.4624;1.0136;
920.4000;0.4583;1.0136;
920.7000;0.4624;1.0160;
921.0000;0.4624;1.0235;
921.3000;0.4615;1.0310;
921.6000;0.4607;1.0310;
921.9000;0.4615;1.0235;
922.2000;0.4624;1.0335;
922.5000;0.4624;1.0335;
922.8000;0.4607;1.0310;
923.1000;0.4615;1.0285;
923.4000;0.4624;1.0285;
923.7000;0.4615;1.0310;
924.0000;0.4615;1.0285;
924.3000;0.4615;1.0360;
924.6000;0.4615;1.0335;
924.9000;0.4477;1.0061;
925.2000;0.4615;1.0459;
925.5000;0.4624;1.0409;
925.8000;0.4624;1.0434;
926.1000;0.4648;1.0559;
926.4000;0.4624;1.0484;
926.7000;0.4624;1.0509;
927.0000;0.4615;1.0584;
927.3000;0.4632;1.0584;
927.6000;0.4615;1.0559;
927.9000;0.4648;1.0658;
928.2000;0.4632;1.0459;
928.5000;0.4632;1.0484;
928.8000;0.4624;1.0534;
929.1000;0.4624;1.0534;
929.4000;0.4624;1.0484;
929.7000;0.4615;1.0509;
930.0000;0.4615;1.0509;
930.3000;0.4607;1.0434;
930.6000;0.4624;1.0434;
930.9000;0.4640;1.0434;
931.2000;0.4624;1.0385;
931.5000;0.4607;1.0260;
931.8000;0.4615;1.0285;
932.1000;0.4607;1.0385;
932.4000;0.4624;1.0335;
932.7000;0.4615;1.0310;
933.0000;0.4615;1.0310;
933.3000;0.4615;1.0360;
933.6000;0.4607;1.0335;
933.9000;0.4583;1.0310;
934.2000;0.4607;1.0285;
934.5000;0.4632;1.0360;
934.8000;0.4607;1.0285;
935.1000;0.4607;1.0285;
935.4000;0.4550;1.0160;
935.7000;0.4607;1.0285;
936.0000;0.4575;1.0136;
936.3000;0.4599;1.0185;
936.6000;0.4599;1.0185;
936.9000;0.4607;1.0260;
937.2000;0.4615;1.0310;
937.5000;0.4615;1.0235;
937.8000;0.4615;1.0310;
938.1000;0.4615;1.0385;
938.4000;0.4632;1.0409;
938.7000;0.4632;1.0459;
939.0000;0.4615;1.0360;
939.3000;0.4615;1.0434;
939.6000;0.4607;1.0409;
939.9000;0.4607;1.0385;
940.2000;0.4624;1.0360;
940.5000;0.4624;1.0409;
940.8000;0.4672;1.0484;
941.1000;0.4624;1.0335;
941.4000;0.4632;1.0385;
941.7000;0.4615;1.0310;
942.0000;0.4624;1.0360;
942.3000;0.4615;1.0360;
942.6000;0.4567;1.0185;
942.9000;0.4599;1.0385;
943.2000;0.4615;1.0409;
943.5000;0.4615;1.0559;
943.8000;0.4518;1.0335;
944.1000;0.4640;1.0634;
944.4000;0.4648;1.0708;
944.7000;0.4607;1.0509;
945.0000;0.4615;1.0459;
945.3000;0.4607;1.0509;
945.6000;0.4599;1.0484;
945.9000;0.4648;1.0509;
946.2000;0.4599;1.0409;
946.5000;0.4615;1.0584;
946.8000;0.4648;1.0683;
947.1000;0.4607;1.0658;
947.4000;0.4591;1.0609;
947.7000;0.4615;1.0658;
948.0000;0.4632;1.0609;
948.3000;0.4599;1.0559;
948.6000;0.4615;1.0658;
948.9000;0.4624;1.0683;
949.2000;0.4624;1.0634;
949.5000;0.4615;1.0559;
949.8000;0.4624;1.0534;
950.1000;0.4615;1.0484;
950.4000;0.4615;1.0509;
950.7000;0.4550;1.0285;
951.0000;0.4607;1.0385;
951.3000;0.4632;1.0409;
951.6000;0.4607;1.0459;
951.9000;0.4624;1.0484;
952.2000;0.4713;1.0708;
952.5000;0.4624;1.0534;
952.8000;0.4607;1.0584;
953.1000;0.4681;1.0708;
953.4000;0.4632;1.0484;
953.7000;0.4697;1.0658;
954.0000;0.4624;1.0434;
954.3000;0.4599;1.0335;
954.6000;0.4615;1.0360;
954.9000;0.4599;1.0310;
955.2000;0.4583;1.0385;
955.5000;0.4607;1.0434;
955.8000;0.4632;1.0459;
956.1000;0.4607;1.0409;
956.4000;0.4607;1.0434;
956.7000;0.4607;1.0434;
957.0000;0.4591;1.0385;
957.3000;0.4607;1.0409;
957.6000;0.4697;1.0584;
957.9000;0.4607;1.0434;
958.2000;0.4607;1.0459;
958.5000;0.4591;1.0434;
958.8000;0.4632;1.0484;
959.1000;0.4640;1.0584;
959.4000;0.4632;1.0584;
959.7000;0.4510;1.0235;
960.0000;0.4624;1.0459;
960.3000;0.4640;1.0434;
960.6000;0.4664;1.0534;
960.9000;0.4624;1.0434;
961.2000;0.4607;1.0459;
961.5000;0.4615;1.0534;
961.8000;0.4615;1.0559;
962.1000;0.4615;1.0534;
962.4000;0.4615;1.0534;
962.7000;0.4615;1.0584;
963.0000;0.4615;1.0609;
963.3000;0.4632;1.0634;
963.6000;0.4591;1.0634;
963.9000;0.4591;1.0584;
964.2000;0.4615;1.0634;
964.5000;0.4591;1.0534;
964.8000;0.4615;1.0559;
965.1000;0.4624;1.0584;
965.4000;0.4607;1.0584;
965.7000;0.4615;1.0708;
966.0000;0.4583;1.0609;
966.3000;0.4607;1.0683;
966.6000;0.4607;1.0733;
966.9000;0.4640;1.0708;
967.2000;0.4591;1.0534;
967.5000;0.4615;1.0609;
967.8000;0.4599;1.0658;
968.1000;0.4615;1.0658;
968.4000;0.4615;1.0634;
968.7000;0.4632;1.0683;
969.0000;0.4615;1.0634;
969.3000;0.4591;1.0559;
969.6000;0.4607;1.0609;
969.9000;0.4615;1.0559;
970.2000;0.4624;1.0509;
970.5000;0.4583;1.0335;
970.8000;0.4599;1.0459;
971.1000;0.4607;1.0434;
971.4000;0.4607;1.0459;
971.7000;0.4599;1.0459;
972.0000;0.4599;1.0360;
972.3000;0.4591;1.0310;
972.6000;0.4615;1.0285;
972.9000;0.4632;1.0285;
973.2000;0.4624;1.0185;
973.5000;0.4599;1.0136;
973.8000;0.4583;1.0136;
974.1000;0.4615;1.0285;
974.4000;0.4599;1.0285;
974.7000;0.4575;1.0210;
975.0000;0.4607;1.0310;
975.3000;0.4632;1.0385;
975.6000;0.4607;1.0285;
975.9000;0.4615;1.0260;
976.2000;0.4615;1.0335;
976.5000;0.4599;1.0310;
976.8000;0.4615;1.0459;
977.1000;0.4607;1.0509;
977.4000;0.4591;1.0534;
977.7000;0.4599;1.0584;
978.0000;0.4615;1.0634;
978.3000;0.4599;1.0584;
978.6000;0.4607;1.0559;
978.9000;0.4672;1.0733;
979.2000;0.4624;1.0534;
979.5000;0.4599;1.0385;
979.8000;0.4664;1.0634;
980.1000;0.4599;1.0484;
980.4000;0.4607;1.0484;
980.7000;0.4615;1.0434;
981.0000;0.4607;1.0385;
981.3000;0.4615;1.0360;
981.6000;0.4624;1.0459;
981.9000;0.4607;1.0484;
982.2000;0.4615;1.0484;
982.5000;0.4599;1.0459;
982.8000;0.4607;1.0459;
983.1000;0.4607;1.0509;
983.4000;0.4672;1.0609;
983.7000;0.4599;1.0434;
984.0000;0.4591;1.0634;
984.3000;0.4615;1.0634;
984.6000;0.4583;1.0509;
984.9000;0.4599;1.0534;
985.2000;0.4615;1.0434;
985.5000;0.4607;1.0409;
985.8000;0.4624;1.0409;
986.1000;0.4624;1.0434;
986.4000;0.4615;1.0434;
986.7000;0.4615;1.0385;
987.0000;0.4615;1.0360;
987.3000;0.4599;1.0360;
987.6000;0.4632;1.0459;
987.9000;0.4624;1.0509;
988.2000;0.4607;1.0534;
988.5000;0.4632;1.0584;
988.8000;0.4624;1.0509;
989.1000;0.4607;1.0484;
989.4000;0.4599;1.0310;
989.7000;0.4599;1.0285;
990.0000;0.4599;1.0310;
990.3000;0.4599;1.0285;
990.6000;0.4607;1.0385;
990.9000;0.4599;1.0360;
991.2000;0.4591;1.0335;
991.5000;0.4615;1.0385;
991.8000;0.4624;1.0385;
992.1000;0.4607;1.0310;
992.4000;0.4615;1.0335;
992.7000;0.4624;1.0409;
993.0000;0.4615;1.0434;
993.3000;0.4615;1.0409;
993.6000;0.4624;1.0484;
993.9000;0.4624;1.0484;
994.2000;0.4607;1.0484;
994.5000;0.4607;1.0584;
994.8000;0.4607;1.0584;
995.1000;0.4615;1.0559;
995.4000;0.4599;1.0559;
995.7000;0.4624;1.0559;
996.0000;0.4615;1.0484;
996.3000;0.4591;1.0409;
996.6000;0.4615;1.0534;
996.9000;0.4607;1.0559;
997.2000;0.4624;1.0559;
997.5000;0.4607;1.0459;
997.8000;0.4632;1.0434;
998.1000;0.4607;1.0310;
998.4000;0.4615;1.0335;
998.7000;0.4624;1.0310;
999.0000;0.4607;1.0335;
999.3000;0.4624;1.0360;
999.6000;0.4624;1.0310;
999.9000;0.4624;1.0310;
1000.2000;0.4615;1.0335;
1000.5000;0.4615;1.0335;
1000.8000;0.4624;1.0434;
1001.1000;0.4615;1.0385;
1001.4000;0.4607;1.0285;
1001.7000;0.4615;1.0310;
1002.0000;0.4607;1.0260;
1002.3000;0.4607;1.0260;
1002.6000;0.4607;1.0260;
1002.9000;0.4575;1.0235;
1003.2000;0.4607;1.0385;
1003.5000;0.4615;1.0385;
1003.8000;0.4607;1.0385;
1004.1000;0.4648;1.0534;
1004.4000;0.4664;1.0584;
1004.7000;0.4607;1.0484;
1005.0000;0.4599;1.0559;
1005.3000;0.4599;1.0584;
1005.6000;0.4615;1.0534;
1005.9000;0.4672;1.0708;
1006.2000;0.4599;1.0584;
1006.5000;0.4615;1.0658;
1006.8000;0.4542;1.0434;
1007.1000;0.4607;1.0559;
1007.4000;0.4591;1.0609;
1007.7000;0.4607;1.0559;
1008.0000;0.4583;1.0434;
1008.3000;0.4599;1.0509;
1008.6000;0.4615;1.0534;
1008.9000;0.4599;1.0609;
1009.2000;0.4615;1.0683;
1009.5000;0.4615;1.0683;
1009.8000;0.4599;1.0758;
1010.1000;0.4615;1.0733;
1010.4000;0.4607;1.0708;
1010.7000;0.4599;1.0658;
1011.0000;0.4615;1.0683;
1011.3000;0.4599;1.0559;
1011.6000;0.4607;1.0559;
1011.9000;0.4599;1.0534;
1012.2000;0.4607;1.0584;
1012.5000;0.4624;1.0559;
1012.8000;0.4591;1.0434;
1013.1000;0.4591;1.0310;
1013.4000;0.4583;1.0260;
1013.7000;0.4599;1.0335;
1014.0000;0.4591;1.0385;
1014.3000;0.4615;1.0459;
1014.6000;0.4599;1.0434;
1014.9000;0.4615;1.0584;
1015.2000;0.4607;1.0609;
1015.5000;0.4567;1.0509;
1015.8000;0.4583;1.0484;
1016.1000;0.4591;1.0534;
1016.4000;0.4615;1.0584;
1016.7000;0.4591;1.0534;
1017.0000;0.4599;1.0509;
1017.3000;0.4615;1.0559;
1017.6000;0.4648;1.0634;
1017.9000;0.4599;1.0534;
1018.2000;0.4624;1.0559;
1018.5000;0.4591;1.0484;
1018.8000;0.4615;1.0634;
1019.1000;0.4607;1.0634;
1019.4000;0.4599;1.0634;
1019.7000;0.4607;1.0758;
1020.0000;0.4607;1.0758;
1020.3000;0.4615;1.0708;
1020.6000;0.4607;1.0658;
1020.9000;0.4591;1.0584;
1021.2000;0.4575;1.0559;
1021.5000;0.4648;1.0708;
1021.8000;0.4583;1.0534;
1022.1000;0.4542;1.0459;
1022.4000;0.4599;1.0584;
1022.7000;0.4607;1.0609;
1023.0000;0.4607;1.0634;
1023.3000;0.4591;1.0484;
1023.6000;0.4591;1.0534;
1023.9000;0.4599;1.0559;
1024.2000;0.4599;1.0559;
1024.5000;0.4615;1.0559;
1024.8000;0.4607;1.0559;
1025.1000;0.4607;1.0559;
1025.4000;0.4599;1.0609;
1025.7000;0.4615;1.0609;
1026.0000;0.4550;1.0310;
1026.3000;0.4607;1.0459;
1026.6000;0.4624;1.0459;
1026.9000;0.4591;1.0409;
1027.2000;0.4599;1.0434;
1027.5000;0.4558;1.0335;
1027.8000;0.4607;1.0434;
1028.1000;0.4648;1.0534;
1028.4000;0.4615;1.0509;
1028.7000;0.4599;1.0559;
1029.0000;0.4599;1.0584;
1029.3000;0.4599;1.0584;
1029.6000;0.4615;1.0559;
1029.9000;0.4591;1.0484;
1030.2000;0.4624;1.0559;
1030.5000;0.4607;1.0509;
1030.8000;0.4607;1.0584;
1031.1000;0.4599;1.0559;
1031.4000;0.4607;1.0634;
1031.7000;0.4599;1.0534;
1032.0000;0.4615;1.0584;
1032.3000;0.4599;1.0559;
1032.6000;0.4615;1.0609;
1032.9000;0.4607;1.0584;
1033.2000;0.4599;1.0584;
1033.5000;0.4615;1.0609;
1033.8000;0.4583;1.0584;
1034.1000;0.4607;1.0634;
1034.4000;0.4607;1.0559;
1034.7000;0.4591;1.0484;
1035.0000;0.4599;1.0434;
1035.3000;0.4591;1.0484;
1035.6000;0.4607;1.0434;
1035.9000;0.4591;1.0385;
1036.2000;0.4599;1.0409;
1036.5000;0.4591;1.0434;
1036.8000;0.4591;1.0434;
1037.1000;0.4583;1.0409;
1037.4000;0.4583;1.0434;
1037.7000;0.4599;1.0509;
1038.0000;0.4591;1.0534;
1038.3000;0.4591;1.0534;
1038.6000;0.4583;1.0484;
1038.9000;0.4615;1.0484;
1039.2000;0.4615;1.0434;
1039.5000;0.4526;1.0235;
1039.8000;0.4607;1.0509;
1040.1000;0.4615;1.0534;
1040.4000;0.4615;1.0609;
1040.7000;0.4607;1.0634;
1041.0000;0.4607;1.0559;
1041.3000;0.4607;1.0609;
1041.6000;0.4615;1.0534;
1041.9000;0.4615;1.0484;
1042.2000;0.4599;1.0559;
1042.5000;0.4607;1.0658;
1042.8000;0.4607;1.0658;
1043.1000;0.4615;1.0658;
1043.4000;0.4607;1.0534;
1043.7000;0.4599;1.0559;
1044.0000;0.4599;1.0534;
1044.3000;0.4607;1.0534;
1044.6000;0.4607;1.0559;
1044.9000;0.4542;1.0360;
1045.2000;0.4607;1.0409;
1045.5000;0.4583;1.0385;
1045.8000;0.4615;1.0484;
1046.1000;0.4583;1.0409;
1046.4000;0.4599;1.0409;
1046.7000;0.4615;1.0459;
1047.0000;0.4648;1.0509;
1047.3000;0.4607;1.0335;
1047.6000;0.4599;1.0285;
1047.9000;0.4599;1.0385;
1048.2000;0.4591;1.0335;
1048.5000;0.4607;1.0459;
1048.8000;0.4599;1.0459;
1049.1000;0.4607;1.0509;
1049.4000;0.4599;1.0459;
1049.7000;0.4599;1.0484;
1050.0000;0.4632;1.0509;
1050.3000;0.4607;1.0584;
1050.6000;0.4591;1.0584;
1050.9000;0.4607;1.0658;
1051.2000;0.4648;1.0733;
1051.5000;0.4599;1.0634;
1051.8000;0.4599;1.0658;
1052.1000;0.4607;1.0609;
1052.4000;0.4599;1.0634;
1052.7000;0.4591;1.0658;
1053.0000;0.4599;1.0708;
1053.3000;0.4624;1.0733;
1053.6000;0.4607;1.0733;
1053.9000;0.4640;1.0833;
1054.2000;0.4607;1.0708;
1054.5000;0.4558;1.0609;
1054.8000;0.4591;1.0683;
1055.1000;0.4615;1.0733;
1055.4000;0.4599;1.0758;
1055.7000;0.4648;1.0883;
1056.0000;0.4599;1.0758;
1056.3000;0.4591;1.0683;
1056.6000;0.4599;1.0733;
1056.9000;0.4575;1.0584;
1057.2000;0.4607;1.0584;
1057.5000;0.4615;1.0559;
1057.8000;0.4591;1.0459;
1058.1000;0.4599;1.0434;
1058.4000;0.4599;1.0484;
1058.7000;0.4599;1.0484;
1059.0000;0.4615;1.0509;
1059.3000;0.4640;1.0584;
1059.6000;0.4599;1.0509;
1059.9000;0.4599;1.0459;
1060.2000;0.4591;1.0409;
1060.5000;0.4632;1.0484;
1060.8000;0.4583;1.0409;
1061.1000;0.4599;1.0434;
1061.4000;0.4607;1.0434;
1061.7000;0.4583;1.0409;
1062.0000;0.4607;1.0434;
1062.3000;0.4632;1.0534;
1062.6000;0.4615;1.0509;
1062.9000;0.4567;1.0559;
1063.2000;0.4583;1.0634;
1063.5000;0.4607;1.0683;
1063.8000;0.4583;1.0609;
1064.1000;0.4583;1.0484;
1064.4000;0.4599;1.0509;
1064.7000;0.4583;1.0534;
1065.0000;0.4599;1.0559;
1065.3000;0.4599;1.0534;
1065.6000;0.4583;1.0534;
1065.9000;0.4615;1.0559;
1066.2000;0.4607;1.0459;
1066.5000;0.4599;1.0534;
1066.8000;0.4591;1.0484;
1067.1000;0.4615;1.0534;
1067.4000;0.4591;1.0609;
1067.7000;0.4534;1.0385;
1068.0000;0.4567;1.0459;
1068.3000;0.4599;1.0509;
1068.6000;0.4607;1.0534;
1068.9000;0.4632;1.0634;
1069.2000;0.4591;1.0559;
1069.5000;0.4591;1.0559;
1069.8000;0.4583;1.0534;
1070.1000;0.4583;1.0658;
1070.4000;0.4599;1.0708;
1070.7000;0.4567;1.0559;
1071.0000;0.4567;1.0509;
1071.3000;0.4583;1.0584;
1071.6000;0.4599;1.0559;
1071.9000;0.4599;1.0584;
1072.2000;0.4599;1.0584;
1072.5000;0.4599;1.0559;
1072.8000;0.4591;1.0509;
1073.1000;0.4607;1.0509;
1073.4000;0.4599;1.0534;
1073.7000;0.4607;1.0559;
1074.0000;0.4664;1.0658;
1074.3000;0.4591;1.0434;
1074.6000;0.4599;1.0409;
1074.9000;0.4591;1.0409;
1075.2000;0.4583;1.0434;
1075.5000;0.4591;1.0484;
1075.8000;0.4615;1.0409;
1076.1000;0.4599;1.0385;
1076.4000;0.4607;1.0434;
1076.7000;0.4599;1.0385;
1077.0000;0.4583;1.0385;
1077.3000;0.4583;1.0385;
1077.6000;0.4615;1.0609;
1077.9000;0.4599;1.0658;
1078.2000;0.4599;1.0658;
1078.5000;0.4599;1.0584;
1078.8000;0.4615;1.0634;
1079.1000;0.4599;1.0584;
1079.4000;0.4607;1.0509;
1079.7000;0.4607;1.0509;
1080.0000;0.4607;1.0559;
1080.3000;0.4624;1.0534;
1080.6000;0.4583;1.0409;
1080.9000;0.4567;1.0335;
1081.2000;0.4599;1.0459;
1081.5000;0.4656;1.0584;
1081.8000;0.4567;1.0335;
1082.1000;0.4607;1.0409;
1082.4000;0.4607;1.0459;
1082.7000;0.4624;1.0534;
1083.0000;0.4599;1.0609;
1083.3000;0.4583;1.0534;
1083.6000;0.4575;1.0459;
1083.9000;0.4575;1.0509;
1084.2000;0.4591;1.0509;
1084.5000;0.4624;1.0708;
1084.8000;0.4599;1.0708;
1085.1000;0.4591;1.0634;
1085.4000;0.4583;1.0634;
1085.7000;0.4575;1.0634;
1086.0000;0.4599;1.0708;
1086.3000;0.4615;1.0634;
1086.6000;0.4542;1.0484;
1086.9000;0.4534;1.0484;
1087.2000;0.4591;1.0609;
1087.5000;0.4640;1.0833;
1087.8000;0.4599;1.0708;
1088.1000;0.4550;1.0609;
1088.4000;0.4591;1.0683;
1088.7000;0.4583;1.0634;
1089.0000;0.4599;1.0634;
1089.3000;0.4624;1.0708;
1089.6000;0.4534;1.0484;
1089.9000;0.4624;1.0708;
1090.2000;0.4607;1.0509;
1090.5000;0.4607;1.0434;
1090.8000;0.4591;1.0484;
1091.1000;0.4583;1.0484;
1091.4000;0.4599;1.0534;
1091.7000;0.4567;1.0434;
1092.0000;0.4599;1.0534;
1092.3000;0.4591;1.0534;
1092.6000;0.4632;1.0609;
1092.9000;0.4599;1.0434;
1093.2000;0.4583;1.0335;
1093.5000;0.4615;1.0484;
1093.8000;0.4599;1.0459;
1094.1000;0.4567;1.0459;
1094.4000;0.4591;1.0534;
1094.7000;0.4583;1.0484;
1095.0000;0.4648;1.0584;
1095.3000;0.4599;1.0484;
1095.6000;0.4599;1.0385;
1095.9000;0.4615;1.0335;
1096.2000;0.4615;1.0335;
1096.5000;0.4615;1.0210;
1096.8000;0.4648;1.0285;
1097.1000;0.4599;1.0086;
1097.4000;0.4624;1.0136;
1097.7000;0.4607;1.0185;
1098.0000;0.4550;1.0111;
1098.3000;0.4599;1.0160;
1098.6000;0.4583;1.0160;
1098.9000;0.4607;1.0310;
1099.2000;0.4607;1.0260;
1099.5000;0.4575;1.0260;
1099.8000;0.4607;1.0360;
1100.1000;0.4656;1.0584;
1100.4000;0.4583;1.0409;
1100.7000;0.4583;1.0459;
1101.0000;0.4575;1.0335;
1101.3000;0.4615;1.0360;
1101.6000;0.4599;1.0310;
1101.9000;0.4607;1.0260;
1102.2000;0.4599;1.0335;
1102.5000;0.4583;1.0235;
1102.8000;0.4583;1.0385;
1103.1000;0.4599;1.0360;
1103.4000;0.4575;1.0335;
1103.7000;0.4615;1.0409;
1104.0000;0.4599;1.0484;
1104.3000;0.4591;1.0584;
1104.6000;0.4591;1.0609;
1104.9000;0.4599;1.0534;
1105.2000;0.4697;1.0733;
1105.5000;0.4575;1.0459;
1105.8000;0.4599;1.0484;
1106.1000;0.4607;1.0534;
1106.4000;0.4567;1.0559;
1106.7000;0.4599;1.0683;
1107.0000;0.4599;1.0634;
1107.3000;0.4591;1.0658;
1107.6000;0.4607;1.0634;
1107.9000;0.4567;1.0509;
1108.2000;0.4583;1.0534;
1108.5000;0.4591;1.0584;
1108.8000;0.4583;1.0559;
1109.1000;0.4607;1.0658;
1109.4000;0.4607;1.0708;
1109.7000;0.4591;1.0584;
1110.0000;0.4583;1.0634;
1110.3000;0.4599;1.0634;
1110.6000;0.4664;1.0858;
1110.9000;0.4599;1.0733;
1111.2000;0.4607;1.0708;
1111.5000;0.4599;1.0609;
1111.8000;0.4607;1.0658;
1112.1000;0.4615;1.0683;
1112.4000;0.4615;1.0609;
1112.7000;0.4599;1.0634;
1113.0000;0.4558;1.0509;
1113.3000;0.4599;1.0534;
1113.6000;0.4591;1.0584;
1113.9000;0.4575;1.0559;
1114.2000;0.4607;1.0559;
1114.5000;0.4599;1.0584;
1114.8000;0.4583;1.0484;
1115.1000;0.4591;1.0509;
1115.4000;0.4599;1.0509;
1115.7000;0.4607;1.0484;
1116.0000;0.4607;1.0559;
1116.3000;0.4575;1.0484;
1116.6000;0.4591;1.0484;
1116.9000;0.4615;1.0559;
1117.2000;0.4599;1.0409;
1117.5000;0.4591;1.0409;
1117.8000;0.4607;1.0434;
1118.1000;0.4583;1.0360;
1118.4000;0.4591;1.0459;
1118.7000;0.4599;1.0484;
1119.0000;0.4607;1.0634;
1119.3000;0.4583;1.0634;
1119.6000;0.4542;1.0484;
1119.9000;0.4575;1.0534;
1120.2000;0.4591;1.0459;
1120.5000;0.4591;1.0459;
1120.8000;0.4607;1.0484;
1121.1000;0.4583;1.0459;
1121.4000;0.4599;1.0434;
1121.7000;0.4615;1.0634;
1122.0000;0.4632;1.0708;
1122.3000;0.4583;1.0534;
1122.6000;0.4591;1.0584;
1122.9000;0.4567;1.0534;
1123.2000;0.4558;1.0509;
1123.5000;0.4599;1.0634;
1123.8000;0.4591;1.0559;
1124.1000;0.4599;1.0559;
1124.4000;0.4607;1.0509;
1124.7000;0.4599;1.0559;
1125.0000;0.4575;1.0509;
1125.3000;0.4583;1.0509;
1125.6000;0.4550;1.0459;
1125.9000;0.4591;1.0584;
1126.2000;0.4583;1.0534;
1126.5000;0.4591;1.0559;
1126.8000;0.4591;1.0534;
1127.1000;0.4599;1.0484;
1127.4000;0.4583;1.0409;
1127.7000;0.4583;1.0360;
1128.0000;0.4599;1.0385;
1128.3000;0.4599;1.0409;
1128.6000;0.4591;1.0385;
1128.9000;0.4591;1.0310;
1129.2000;0.4591;1.0335;
1129.5000;0.4607;1.0335;
1129.8000;0.4632;1.0459;
1130.1000;0.4567;1.0235;
1130.4000;0.4591;1.0310;
1130.7000;0.4599;1.0360;
1131.0000;0.4615;1.0534;
1131.3000;0.4542;1.0385;
1131.6000;0.4615;1.0509;
1131.9000;0.4567;1.0385;
1132.2000;0.4624;1.0609;
1132.5000;0.4599;1.0509;
1132.8000;0.4624;1.0584;
1133.1000;0.4607;1.0584;
1133.4000;0.4607;1.0584;
1133.7000;0.4575;1.0634;
1134.0000;0.4599;1.0658;
1134.3000;0.4591;1.0658;
1134.6000;0.4583;1.0634;
1134.9000;0.4624;1.0708;
1135.2000;0.4607;1.0634;
1135.5000;0.4599;1.0559;
1135.8000;0.4615;1.0609;
1136.1000;0.4721;1.0808;
1136.4000;0.4624;1.0509;
1136.7000;0.4615;1.0584;
1137.0000;0.4624;1.0634;
1137.3000;0.4591;1.0509;
1137.6000;0.4591;1.0409;
1137.9000;0.4558;1.0385;
1138.2000;0.4591;1.0385;
1138.5000;0.4575;1.0335;
1138.8000;0.4599;1.0434;
1139.1000;0.4607;1.0484;
1139.4000;0.4567;1.0409;
1139.7000;0.4591;1.0434;
1140.0000;0.4615;1.0634;
1140.3000;0.4501;1.0285;
1140.6000;0.4583;1.0434;
1140.9000;0.4599;1.0509;
1141.2000;0.4591;1.0534;
1141.5000;0.4664;1.0733;
1141.8000;0.4599;1.0559;
1142.1000;0.4599;1.0484;
1142.4000;0.4599;1.0385;
1142.7000;0.4591;1.0360;
1143.0000;0.4591;1.0310;
1143.3000;0.4607;1.0385;
1143.6000;0.4599;1.0360;
1143.9000;0.4599;1.0434;
1144.2000;0.4599;1.0409;
1144.5000;0.4583;1.0385;
1144.8000;0.4575;1.0534;
1145.1000;0.4583;1.0584;
1145.4000;0.4591;1.0459;
1145.7000;0.4599;1.0434;
1146.0000;0.4575;1.0360;
1146.3000;0.4599;1.0459;
1146.6000;0.4607;1.0459;
1146.9000;0.4575;1.0459;
1147.2000;0.4607;1.0484;
1147.5000;0.4607;1.0434;
1147.8000;0.4599;1.0409;
1148.1000;0.4583;1.0385;
1148.4000;0.4534;1.0260;
1148.7000;0.4591;1.0310;
1149.0000;0.4599;1.0260;
1149.3000;0.4575;1.0136;
1149.6000;0.4583;1.0185;
1149.9000;0.4599;1.0210;
1150.2000;0.4591;1.0136;
1150.5000;0.4583;1.0061;
1150.8000;0.4558;0.9961;
1151.1000;0.4583;1.0061;
1151.4000;0.4599;1.0160;
1151.7000;0.4599;1.0260;
1152.0000;0.4599;1.0260;
1152.3000;0.4591;1.0285;
1152.6000;0.4599;1.0310;
1152.9000;0.4567;1.0185;
1153.2000;0.4583;1.0235;
1153.5000;0.4575;1.0235;
1153.8000;0.4526;1.0086;
1154.1000;0.4591;1.0260;
1154.4000;0.4575;1.0185;
1154.7000;0.4591;1.0160;
1155.0000;0.4583;1.0260;
1155.3000;0.4599;1.0260;
1155.6000;0.4599;1.0335;
1155.9000;0.4607;1.0385;
1156.2000;0.4607;1.0310;
1156.5000;0.4583;1.0260;
1156.8000;0.4599;1.0210;
1157.1000;0.4583;1.0260;
1157.4000;0.4591;1.0409;
1157.7000;0.4607;1.0509;
1158.0000;0.4607;1.0459;
1158.3000;0.4591;1.0459;
1158.6000;0.4575;1.0459;
1158.9000;0.4640;1.0584;
1159.2000;0.4624;1.0584;
1159.5000;0.4583;1.0459;
1159.8000;0.4558;1.0335;
1160.1000;0.4615;1.0459;
1160.4000;0.4583;1.0484;
1160.7000;0.4583;1.0409;
1161.0000;0.4599;1.0484;
1161.3000;0.4518;1.0160;
1161.6000;0.4591;1.0285;
1161.9000;0.4583;1.0285;
1162.2000;0.4599;1.0360;
1162.5000;0.4591;1.0360;
1162.8000;0.4591;1.0409;
1163.1000;0.4607;1.0434;
1163.4000;0.4575;1.0434;
1163.7000;0.4575;1.0434;
1164.0000;0.4599;1.0459;
1164.3000;0.4599;1.0385;
1164.6000;0.4591;1.0434;
1164.9000;0.4591;1.0484;
1165.2000;0.4583;1.0434;
1165.5000;0.4607;1.0434;
1165.8000;0.4583;1.0385;
1166.1000;0.4599;1.0434;
1166.4000;0.4591;1.0484;
1166.7000;0.4591;1.0484;
1167.0000;0.4575;1.0509;
1167.3000;0.4599;1.0534;
1167.6000;0.4615;1.0634;
1167.9000;0.4567;1.0484;
1168.2000;0.4591;1.0409;
1168.5000;0.4591;1.0385;
1168.8000;0.4583;1.0335;
1169.1000;0.4575;1.0310;
1169.4000;0.4591;1.0434;
1169.7000;0.4567;1.0434;
1170.0000;0.4599;1.0434;
1170.3000;0.4583;1.0484;
1170.6000;0.4550;1.0385;
1170.9000;0.4591;1.0484;
1171.2000;0.4583;1.0509;
1171.5000;0.4575;1.0434;
1171.8000;0.4550;1.0385;
1172.1000;0.4583;1.0484;
1172.4000;0.4615;1.0484;
1172.7000;0.4607;1.0409;
1173.0000;0.4607;1.0385;
1173.3000;0.4607;1.0434;
1173.6000;0.4567;1.0310;
1173.9000;0.4583;1.0335;
1174.2000;0.4591;1.0385;
1174.5000;0.4534;1.0061;
1174.8000;0.4599;1.0285;
1175.1000;0.4591;1.0185;
1175.4000;0.4591;1.0235;
1175.7000;0.4607;1.0335;
1176.0000;0.4583;1.0360;
1176.3000;0.4599;1.0335;
1176.6000;0.4607;1.0285;
1176.9000;0.4599;1.0185;
1177.2000;0.4591;1.0210;
1177.5000;0.4591;1.0210;
1177.8000;0.4558;1.0111;
1178.1000;0.4591;1.0210;
1178.4000;0.4591;1.0160;
1178.7000;0.4599;1.0136;
1179.0000;0.4607;1.0086;
1179.3000;0.4583;1.0086;
1179.6000;0.4591;1.0086;
1179.9000;0.4591;1.0086;
1180.2000;0.4591;1.0136;
1180.5000;0.4607;1.0136;
1180.8000;0.4615;1.0260;
1181.1000;0.4575;1.0185;
1181.4000;0.4583;1.0235;
1181.7000;0.4615;1.0385;
1182.0000;0.4583;1.0360;
1182.3000;0.4615;1.0509;
1182.6000;0.4583;1.0559;
1182.9000;0.4567;1.0484;
1183.2000;0.4591;1.0459;
1183.5000;0.4599;1.0484;
1183.8000;0.4583;1.0360;
1184.1000;0.4591;1.0310;
1184.4000;0.4591;1.0310;
1184.7000;0.4632;1.0459;
1185.0000;0.4583;1.0409;
1185.3000;0.4591;1.0434;
1185.6000;0.4534;1.0260;
1185.9000;0.4599;1.0434;
1186.2000;0.4599;1.0484;
1186.5000;0.4607;1.0609;
1186.8000;0.4607;1.0534;
1187.1000;0.4615;1.0609;
1187.4000;0.4599;1.0509;
1187.7000;0.4607;1.0509;
1188.0000;0.4591;1.0409;
1188.3000;0.4607;1.0509;
1188.6000;0.4575;1.0534;
1188.9000;0.4599;1.0484;
1189.2000;0.4599;1.0459;
1189.5000;0.4599;1.0459;
1189.8000;0.4583;1.0459;
1190.1000;0.4591;1.0559;
1190.4000;0.4591;1.0534;
1190.7000;0.4599;1.0584;
1191.0000;0.4567;1.0409;
1191.3000;0.4591;1.0509;
1191.6000;0.4583;1.0484;
1191.9000;0.4607;1.0609;
1192.2000;0.4607;1.0559;
1192.5000;0.4591;1.0634;
1192.8000;0.4583;1.0609;
1193.1000;0.4583;1.0609;
1193.4000;0.4599;1.0559;
1193.7000;0.4599;1.0534;
1194.0000;0.4583;1.0484;
1194.3000;0.4583;1.0484;
1194.6000;0.4591;1.0409;
1194.9000;0.4583;1.0459;
1195.2000;0.4599;1.0509;
1195.5000;0.4599;1.0509;
1195.8000;0.4567;1.0409;
1196.1000;0.4583;1.0484;
1196.4000;0.4591;1.0484;
1196.7000;0.4591;1.0509;
1197.0000;0.4567;1.0459;
1197.3000;0.4640;1.0609;
1197.6000;0.4567;1.0409;
1197.9000;0.4518;1.0260;
1198.2000;0.4591;1.0484;
1198.5000;0.4640;1.0609;
1198.8000;0.4591;1.0484;
1199.1000;0.4575;1.0385;
1199.4000;0.4583;1.0434;
1199.7000;0.4607;1.0534;
1200.0000;0.4583;1.0484;
1200.3000;0.4583;1.0509;
1200.6000;0.4567;1.0409;
1200.9000;0.4575;1.0509;
1201.2000;0.4591;1.0484;
1201.5000;0.4591;1.0434;
1201.8000;0.4607;1.0484;
1202.1000;0.4583;1.0360;
1202.4000;0.4591;1.0385;
1202.7000;0.4575;1.0335;
1203.0000;0.4583;1.0459;
1203.3000;0.4599;1.0559;
1203.6000;0.4558;1.0584;
1203.9000;0.4615;1.0658;
1204.2000;0.4583;1.0609;
1204.5000;0.4615;1.0584;
1204.8000;0.4591;1.0534;
1205.1000;0.4583;1.0658;
1205.4000;0.4567;1.0683;
1205.7000;0.4542;1.0634;
1206.0000;0.4591;1.0733;
1206.3000;0.4591;1.0658;
1206.6000;0.4591;1.0708;
1206.9000;0.4599;1.0683;
1207.2000;0.4599;1.0609;
1207.5000;0.4615;1.0658;
1207.8000;0.4599;1.0584;
1208.1000;0.4624;1.0658;
1208.4000;0.4607;1.0634;
1208.7000;0.4567;1.0683;
1209.0000;0.4583;1.0733;
1209.3000;0.4583;1.0658;
1209.6000;0.4575;1.0683;
1209.9000;0.4599;1.0758;
1210.2000;0.4615;1.0683;
1210.5000;0.4591;1.0609;
1210.8000;0.4591;1.0609;
1211.1000;0.4567;1.0609;
1211.4000;0.4599;1.0683;
1211.7000;0.4607;1.0658;
1212.0000;0.4567;1.0658;
1212.3000;0.4615;1.0783;
1212.6000;0.4591;1.0683;
1212.9000;0.4583;1.0584;
1213.2000;0.4591;1.0584;
1213.5000;0.4591;1.0584;
1213.8000;0.4607;1.0634;
1214.1000;0.4615;1.0733;
1214.4000;0.4575;1.0683;
1214.7000;0.4591;1.0783;
1215.0000;0.4575;1.0683;
1215.3000;0.4583;1.0708;
1215.6000;0.4664;1.0932;
1215.9000;0.4591;1.0758;
1216.2000;0.4534;1.0634;
1216.5000;0.4583;1.0783;
1216.8000;0.4591;1.0733;
1217.1000;0.4575;1.0708;
1217.4000;0.4599;1.0683;
1217.7000;0.4583;1.0658;
1218.0000;0.4640;1.0858;
1218.3000;0.4575;1.0634;
1218.6000;0.4615;1.0634;
1218.9000;0.4599;1.0584;
1219.2000;0.4607;1.0634;
1219.5000;0.4583;1.0634;
1219.8000;0.4599;1.0708;
1220.1000;0.4591;1.0708;
1220.4000;0.4575;1.0683;
1220.7000;0.4575;1.0658;
1221.0000;0.4624;1.0708;
1221.3000;0.4591;1.0559;
1221.6000;0.4599;1.0634;
1221.9000;0.4542;1.0409;
1222.2000;0.4591;1.0559;
1222.5000;0.4599;1.0559;
1222.8000;0.4607;1.0634;
1223.1000;0.4615;1.0733;
1223.4000;0.4632;1.0858;
1223.7000;0.4583;1.0833;
1224.0000;0.4591;1.0858;
1224.3000;0.4583;1.0858;
1224.6000;0.4591;1.0833;
1224.9000;0.4591;1.0833;
1225.2000;0.4591;1.0758;
1225.5000;0.4599;1.0808;
1225.8000;0.4575;1.0634;
1226.1000;0.4567;1.0559;
1226.4000;0.4583;1.0559;
1226.7000;0.4615;1.0634;
1227.0000;0.4583;1.0534;
1227.3000;0.4607;1.0609;
1227.6000;0.4599;1.0634;
1227.9000;0.4575;1.0509;
1228.2000;0.4567;1.0534;
1228.5000;0.4591;1.0584;
1228.8000;0.4583;1.0559;
1229.1000;0.4705;1.0908;
1229.4000;0.4599;1.0509;
1229.7000;0.4583;1.0534;
1230.0000;0.4542;1.0459;
1230.3000;0.4583;1.0584;
1230.6000;0.4583;1.0534;
1230.9000;0.4615;1.0658;
1231.2000;0.4607;1.0683;
1231.5000;0.4599;1.0683;
1231.8000;0.4575;1.0534;
1232.1000;0.4607;1.0658;
1232.4000;0.4583;1.0634;
1232.7000;0.4583;1.0758;
1233.0000;0.4567;1.0783;
1233.3000;0.4591;1.0833;
1233.6000;0.4542;1.0708;
1233.9000;0.4591;1.0833;
1234.2000;0.4607;1.0908;
1234.5000;0.4567;1.0758;
1234.8000;0.4567;1.0634;
1235.1000;0.4550;1.0559;
1235.4000;0.4591;1.0634;
1235.7000;0.4583;1.0609;
1236.0000;0.4591;1.0683;
1236.3000;0.4591;1.0584;
1236.6000;0.4583;1.0559;
1236.9000;0.4599;1.0509;
1237.2000;0.4599;1.0534;
1237.5000;0.4607;1.0509;
1237.8000;0.4607;1.0459;
1238.1000;0.4640;1.0609;
1238.4000;0.4599;1.0559;
1238.7000;0.4599;1.0534;
1239.0000;0.4599;1.0434;
1239.3000;0.4607;1.0434;
1239.6000;0.4510;1.0235;
1239.9000;0.4583;1.0484;
1240.2000;0.4599;1.0534;
1240.5000;0.4575;1.0409;
1240.8000;0.4591;1.0434;
1241.1000;0.4599;1.0459;
1241.4000;0.4591;1.0434;
1241.7000;0.4591;1.0360;
1242.0000;0.4607;1.0385;
1242.3000;0.4591;1.0360;
1242.6000;0.4591;1.0385;
1242.9000;0.4591;1.0459;
1243.2000;0.4583;1.0385;
1243.5000;0.4583;1.0360;
1243.8000;0.4615;1.0409;
1244.1000;0.4583;1.0310;
1244.4000;0.4599;1.0310;
1244.7000;0.4550;1.0210;
1245.0000;0.4583;1.0310;
1245.3000;0.4591;1.0409;
1245.6000;0.4591;1.0459;
1245.9000;0.4526;1.0360;
1246.2000;0.4583;1.0584;
1246.5000;0.4607;1.0708;
1246.8000;0.4607;1.0708;
1247.1000;0.4591;1.0658;
1247.4000;0.4542;1.0509;
1247.7000;0.4672;1.0858;
1248.0000;0.4599;1.0609;
1248.3000;0.4591;1.0484;
1248.6000;0.4591;1.0534;
1248.9000;0.4591;1.0559;
1249.2000;0.4599;1.0634;
1249.5000;0.4599;1.0534;
1249.8000;0.4591;1.0534;
1250.1000;0.4599;1.0584;
1250.4000;0.4624;1.0683;
1250.7000;0.4615;1.0609;
1251.0000;0.4599;1.0559;
1251.3000;0.4599;1.0484;
1251.6000;0.4599;1.0484;
1251.9000;0.4615;1.0509;
1252.2000;0.4599;1.0484;
1252.5000;0.4583;1.0484;
1252.8000;0.4599;1.0434;
1253.1000;0.4583;1.0385;
1253.4000;0.4591;1.0459;
1253.7000;0.4607;1.0459;
1254.0000;0.4575;1.0335;
1254.3000;0.4510;1.0360;
1254.6000;0.4567;1.0609;
1254.9000;0.4558;1.0584;
1255.2000;0.4575;1.0634;
1255.5000;0.4583;1.0733;
1255.8000;0.4615;1.0783;
1256.1000;0.4583;1.0658;
1256.4000;0.4591;1.0609;
1256.7000;0.4591;1.0634;
1257.0000;0.4583;1.0584;
1257.3000;0.4575;1.0559;
1257.6000;0.4591;1.0609;
1257.9000;0.4575;1.0584;
1258.2000;0.4591;1.0658;
1258.5000;0.4591;1.0584;
1258.8000;0.4583;1.0609;
1259.1000;0.4567;1.0509;
1259.4000;0.4591;1.0609;
1259.7000;0.4672;1.0808;
1260.0000;0.4583;1.0559;
1260.3000;0.4501;1.0385;
1260.6000;0.4591;1.0584;
1260.9000;0.4599;1.0534;
1261.2000;0.4591;1.0484;
1261.5000;0.4583;1.0459;
1261.8000;0.4599;1.0559;
1262.1000;0.4591;1.0634;
1262.4000;0.4591;1.0584;
1262.7000;0.4599;1.0609;
1263.0000;0.4591;1.0609;
1263.3000;0.4575;1.0658;
1263.6000;0.4591;1.0683;
1263.9000;0.4575;1.0683;
1264.2000;0.4591;1.0658;
1264.5000;0.4624;1.0858;
1264.8000;0.4591;1.0683;
1265.1000;0.4583;1.0634;
1265.4000;0.4583;1.0609;
1265.7000;0.4534;1.0434;
1266.0000;0.4607;1.0609;
1266.3000;0.4534;1.0385;
1266.6000;0.4599;1.0584;
1266.9000;0.4583;1.0634;
1267.2000;0.4583;1.0634;
1267.5000;0.4550;1.0434;
1267.8000;0.4575;1.0509;
1268.1000;0.4583;1.0434;
1268.4000;0.4583;1.0434;
1268.7000;0.4591;1.0434;
1269.0000;0.4607;1.0509;
1269.3000;0.4591;1.0509;
1269.6000;0.4591;1.0534;
1269.9000;0.4575;1.0409;
1270.2000;0.4591;1.0484;
1270.5000;0.4583;1.0559;
1270.8000;0.4583;1.0609;
1271.1000;0.4575;1.0634;
1271.4000;0.4575;1.0609;
1271.7000;0.4615;1.0534;
1272.0000;0.4583;1.0559;
1272.3000;0.4567;1.0559;
1272.6000;0.4632;1.0833;
1272.9000;0.4575;1.0833;
1273.2000;0.4599;1.0908;
1273.5000;0.4583;1.0808;
1273.8000;0.4583;1.0808;
1274.1000;0.4583;1.0758;
1274.4000;0.4575;1.0634;
1274.7000;0.4591;1.0634;
1275.0000;0.4591;1.0609;
1275.3000;0.4583;1.0459;
1275.6000;0.4583;1.0534;
1275.9000;0.4591;1.0534;
1276.2000;0.4599;1.0484;
1276.5000;0.4583;1.0385;
1276.8000;0.4575;1.0235;
1277.1000;0.4591;1.0260;
1277.4000;0.4591;1.0385;
1277.7000;0.4583;1.0409;
1278.0000;0.4591;1.0484;
1278.3000;0.4583;1.0484;
1278.6000;0.4591;1.0459;
1278.9000;0.4558;1.0360;
1279.2000;0.4583;1.0484;
1279.5000;0.4591;1.0385;
1279.8000;0.4599;1.0459;
1280.1000;0.4599;1.0534;
1280.4000;0.4599;1.0534;
1280.7000;0.4591;1.0534;
1281.0000;0.4599;1.0559;
1281.3000;0.4591;1.0534;
1281.6000;0.4599;1.0484;
1281.9000;0.4583;1.0409;
1282.2000;0.4591;1.0534;
1282.5000;0.4591;1.0509;
1282.8000;0.4607;1.0484;
1283.1000;0.4567;1.0434;
1283.4000;0.4599;1.0609;
1283.7000;0.4607;1.0683;
1284.0000;0.4591;1.0708;
1284.3000;0.4591;1.0708;
1284.6000;0.4599;1.0758;
1284.9000;0.4567;1.0683;
1285.2000;0.4607;1.0733;
1285.5000;0.4583;1.0634;
1285.8000;0.4583;1.0634;
1286.1000;0.4583;1.0534;
1286.4000;0.4567;1.0509;
1286.7000;0.4648;1.0733;
1287.0000;0.4591;1.0484;
1287.3000;0.4583;1.0559;
1287.6000;0.4591;1.0459;
1287.9000;0.4583;1.0385;
1288.2000;0.4599;1.0509;
1288.5000;0.4599;1.0534;
1288.8000;0.4558;1.0434;
1289.1000;0.4583;1.0459;
1289.4000;0.4599;1.0609;
1289.7000;0.4583;1.0584;
1290.0000;0.4624;1.0683;
1290.3000;0.4599;1.0584;
1290.6000;0.4599;1.0584;
1290.9000;0.4591;1.0559;
1291.2000;0.4591;1.0534;
1291.5000;0.4583;1.0484;
1291.8000;0.4656;1.0658;
1292.1000;0.4591;1.0484;
1292.4000;0.4591;1.0409;
1292.7000;0.4583;1.0459;
1293.0000;0.4591;1.0434;
1293.3000;0.4599;1.0360;
1293.6000;0.4607;1.0360;
1293.9000;0.4591;1.0310;
1294.2000;0.4591;1.0360;
1294.5000;0.4501;1.0310;
1294.8000;0.4591;1.0534;
1295.1000;0.4591;1.0459;
1295.4000;0.4591;1.0484;
1295.7000;0.4583;1.0335;
1296.0000;0.4591;1.0310;
1296.3000;0.4607;1.0409;
1296.6000;0.4583;1.0559;
1296.9000;0.4583;1.0534;
1297.2000;0.4599;1.0509;
1297.5000;0.4583;1.0484;
1297.8000;0.4599;1.0509;
1298.1000;0.4591;1.0484;
1298.4000;0.4583;1.0484;
1298.7000;0.4591;1.0559;
1299.0000;0.4575;1.0559;
1299.3000;0.4632;1.0708;
1299.6000;0.4583;1.0534;
1299.9000;0.4591;1.0609;
1300.2000;0.4591;1.0584;
1300.5000;0.4615;1.0683;
1300.8000;0.4575;1.0559;
1301.1000;0.4607;1.0609;
1301.4000;0.4591;1.0559;
1301.7000;0.4583;1.0534;
1302.0000;0.4599;1.0634;
1302.3000;0.4648;1.0733;
1302.6000;0.4567;1.0459;
1302.9000;0.4583;1.0484;
1303.2000;0.4542;1.0385;
1303.5000;0.4640;1.0634;
1303.8000;0.4599;1.0559;
1304.1000;0.4615;1.0658;
1304.4000;0.4599;1.0559;
1304.7000;0.4567;1.0584;
1305.0000;0.4591;1.0609;
1305.3000;0.4599;1.0534;
1305.6000;0.4624;1.0634;
1305.9000;0.4575;1.0509;
1306.2000;0.4599;1.0534;
1306.5000;0.4583;1.0509;
1306.8000;0.4591;1.0584;
1307.1000;0.4583;1.0484;
1307.4000;0.4599;1.0484;
1307.7000;0.4599;1.0484;
1308.0000;0.4534;1.0360;
1308.3000;0.4583;1.0484;
1308.6000;0.4583;1.0335;
1308.9000;0.4607;1.0285;
1309.2000;0.4493;0.9986;
1309.5000;0.4599;1.0210;
1309.8000;0.4518;0.9961;
1310.1000;0.4672;1.0409;
1310.4000;0.4599;1.0210;
1310.7000;0.4607;1.0185;
1311.0000;0.4575;1.0086;
1311.3000;0.4583;1.0136;
1311.6000;0.4575;1.0260;
1311.9000;0.4591;1.0285;
1312.2000;0.4575;1.0310;
1312.5000;0.4575;1.0360;
1312.8000;0.4599;1.0484;
1313.1000;0.4583;1.0409;
1313.4000;0.4591;1.0409;
1313.7000;0.4583;1.0310;
1314.0000;0.4599;1.0360;
1314.3000;0.4607;1.0409;
1314.6000;0.4558;1.0385;
1314.9000;0.4583;1.0434;
1315.2000;0.4575;1.0385;
1315.5000;0.4591;1.0534;
1315.8000;0.4607;1.0559;
1316.1000;0.4599;1.0534;
1316.4000;0.4607;1.0559;
1316.7000;0.4664;1.0708;
1317.0000;0.4607;1.0509;
1317.3000;0.4599;1.0534;
1317.6000;0.4583;1.0459;
1317.9000;0.4664;1.0708;
1318.2000;0.4583;1.0434;
1318.5000;0.4583;1.0409;
1318.8000;0.4567;1.0310;
1319.1000;0.4599;1.0285;
1319.4000;0.4591;1.0235;
1319.7000;0.4591;1.0285;
1320.0000;0.4583;1.0360;
1320.3000;0.4591;1.0360;
1320.6000;0.4705;1.0733;
1320.9000;0.4615;1.0434;
1321.2000;0.4599;1.0385;
1321.5000;0.4607;1.0360;
1321.8000;0.4567;1.0235;
1322.1000;0.4591;1.0335;
1322.4000;0.4583;1.0310;
1322.7000;0.4567;1.0310;
1323.0000;0.4575;1.0409;
1323.3000;0.4599;1.0534;
1323.6000;0.4558;1.0459;
1323.9000;0.4575;1.0459;
1324.2000;0.4575;1.0409;
1324.5000;0.4567;1.0385;
1324.8000;0.4591;1.0385;
1325.1000;0.4599;1.0434;
1325.4000;0.4583;1.0409;
1325.7000;0.4615;1.0534;
1326.0000;0.4591;1.0534;
1326.3000;0.4583;1.0434;
1326.6000;0.4583;1.0509;
1326.9000;0.4575;1.0459;
1327.2000;0.4583;1.0459;
1327.5000;0.4607;1.0534;
1327.8000;0.4591;1.0509;
1328.1000;0.4599;1.0584;
1328.4000;0.4615;1.0658;
1328.7000;0.4575;1.0509;
1329.0000;0.4599;1.0584;
1329.3000;0.4591;1.0534;
1329.6000;0.4607;1.0609;
1329.9000;0.4591;1.0609;
1330.2000;0.4607;1.0683;
1330.5000;0.4575;1.0484;
1330.8000;0.4591;1.0559;
1331.1000;0.4567;1.0409;
1331.4000;0.4591;1.0335;
1331.7000;0.4591;1.0260;
1332.0000;0.4550;1.0185;
1332.3000;0.4583;1.0310;
1332.6000;0.4607;1.0385;
1332.9000;0.4526;1.0310;
1333.2000;0.4624;1.0634;
1333.5000;0.4591;1.0584;
1333.8000;0.4575;1.0459;
1334.1000;0.4607;1.0534;
1334.4000;0.4599;1.0484;
1334.7000;0.4591;1.0534;
1335.0000;0.4599;1.0609;
1335.3000;0.4575;1.0609;
1335.6000;0.4591;1.0584;
1335.9000;0.4591;1.0534;
1336.2000;0.4591;1.0534;
1336.5000;0.4591;1.0509;
1336.8000;0.4664;1.0733;
1337.1000;0.4583;1.0559;
1337.4000;0.4591;1.0534;
1337.7000;0.4583;1.0484;
1338.0000;0.4591;1.0484;
1338.3000;0.4583;1.0360;
1338.6000;0.4591;1.0385;
1338.9000;0.4583;1.0260;
1339.2000;0.4583;1.0260;
1339.5000;0.4599;1.0360;
1339.8000;0.4567;1.0360;
1340.1000;0.4567;1.0360;
1340.4000;0.4607;1.0509;
1340.7000;0.4599;1.0559;
1341.0000;0.4615;1.0584;
1341.3000;0.4607;1.0559;
1341.6000;0.4567;1.0434;
1341.9000;0.4583;1.0559;
1342.2000;0.4607;1.0634;
1342.5000;0.4583;1.0584;
1342.8000;0.4591;1.0584;
1343.1000;0.4583;1.0509;
1343.4000;0.4591;1.0484;
1343.7000;0.4567;1.0385;
1344.0000;0.4583;1.0434;
1344.3000;0.4591;1.0484;
1344.6000;0.4599;1.0609;
1344.9000;0.4583;1.0584;
1345.2000;0.4583;1.0534;
1345.5000;0.4575;1.0509;
1345.8000;0.4583;1.0434;
1346.1000;0.4575;1.0484;
1346.4000;0.4550;1.0409;
1346.7000;0.4583;1.0509;
1347.0000;0.4567;1.0534;
1347.3000;0.4591;1.0658;
1347.6000;0.4591;1.0758;
1347.9000;0.4591;1.0708;
1348.2000;0.4567;1.0609;
1348.5000;0.4575;1.0658;
1348.8000;0.4567;1.0584;
1349.1000;0.4632;1.0733;
1349.4000;0.4591;1.0609;
1349.7000;0.4607;1.0609;
1350.0000;0.4607;1.0534;
1350.3000;0.4591;1.0434;
1350.6000;0.4615;1.0484;
1350.9000;0.4591;1.0459;
1351.2000;0.4583;1.0385;
1351.5000;0.4615;1.0385;
1351.8000;0.4607;1.0310;
1352.1000;0.4575;1.0310;
1352.4000;0.4591;1.0285;
1352.7000;0.4567;1.0310;
1353.0000;0.4583;1.0360;
1353.3000;0.4567;1.0360;
1353.6000;0.4575;1.0409;
1353.9000;0.4591;1.0509;
1354.2000;0.4591;1.0534;
1354.5000;0.4599;1.0658;
1354.8000;0.4599;1.0534;
1355.1000;0.4591;1.0459;
1355.4000;0.4599;1.0385;
1355.7000;0.4567;1.0335;
1356.0000;0.4583;1.0484;
1356.3000;0.4550;1.0459;
1356.6000;0.4526;1.0459;
1356.9000;0.4583;1.0509;
1357.2000;0.4591;1.0559;
1357.5000;0.4607;1.0708;
1357.8000;0.4624;1.0683;
1358.1000;0.4583;1.0609;
1358.4000;0.4567;1.0509;
1358.7000;0.4607;1.0484;
1359.0000;0.4624;1.0509;
1359.3000;0.4567;1.0459;
1359.6000;0.4591;1.0559;
1359.9000;0.4591;1.0584;
1360.2000;0.4591;1.0534;
1360.5000;0.4591;1.0559;
1360.8000;0.4615;1.0634;
1361.1000;0.4575;1.0484;
1361.4000;0.4591;1.0509;
1361.7000;0.4599;1.0559;
1362.0000;0.4607;1.0609;
1362.3000;0.4591;1.0584;
1362.6000;0.4575;1.0559;
1362.9000;0.4607;1.0658;
1363.2000;0.4599;1.0634;
1363.5000;0.4575;1.0584;
1363.8000;0.4591;1.0584;
1364.1000;0.4583;1.0559;
1364.4000;0.4599;1.0534;
1364.7000;0.4615;1.0509;
1365.0000;0.4624;1.0534;
1365.3000;0.4599;1.0534;
1365.6000;0.4624;1.0609;
1365.9000;0.4599;1.0609;
1366.2000;0.4575;1.0609;
1366.5000;0.4583;1.0559;
1366.8000;0.4599;1.0559;
1367.1000;0.4575;1.0409;
1367.4000;0.4575;1.0509;
1367.7000;0.4591;1.0559;
1368.0000;0.4591;1.0658;
1368.3000;0.4575;1.0534;
1368.6000;0.4599;1.0559;
1368.9000;0.4583;1.0459;
1369.2000;0.4599;1.0509;
1369.5000;0.4599;1.0434;
1369.8000;0.4607;1.0434;
1370.1000;0.4615;1.0409;
1370.4000;0.4583;1.0360;
1370.7000;0.4591;1.0484;
1371.0000;0.4591;1.0509;
1371.3000;0.4591;1.0534;
1371.6000;0.4550;1.0434;
1371.9000;0.4591;1.0509;
1372.2000;0.4591;1.0484;
1372.5000;0.4575;1.0409;
1372.8000;0.4575;1.0459;
1373.1000;0.4607;1.0534;
1373.4000;0.4632;1.0609;
1373.7000;0.4591;1.0534;
1374.0000;0.4591;1.0634;
1374.3000;0.4591;1.0683;
1374.6000;0.4583;1.0634;
1374.9000;0.4583;1.0634;
1375.2000;0.4591;1.0559;
1375.5000;0.4591;1.0434;
1375.8000;0.4591;1.0434;
1376.1000;0.4583;1.0434;
1376.4000;0.4575;1.0385;
1376.7000;0.4632;1.0609;
1377.0000;0.4575;1.0434;
1377.3000;0.4591;1.0559;
1377.6000;0.4583;1.0534;
1377.9000;0.4583;1.0459;
1378.2000;0.4583;1.0434;
1378.5000;0.4583;1.0360;
1378.8000;0.4599;1.0459;
1379.1000;0.4583;1.0459;
1379.4000;0.4599;1.0484;
1379.7000;0.4607;1.0509;
1380.0000;0.4599;1.0434;
1380.3000;0.4607;1.0459;
1380.6000;0.4615;1.0534;
1380.9000;0.4591;1.0534;
1381.2000;0.4591;1.0459;
1381.5000;0.4591;1.0509;
1381.8000;0.4615;1.0559;
1382.1000;0.4583;1.0534;
1382.4000;0.4575;1.0484;
1382.7000;0.4534;1.0434;
1383.0000;0.4583;1.0534;
1383.3000;0.4558;1.0509;
1383.6000;0.4567;1.0534;
1383.9000;0.4550;1.0509;
1384.2000;0.4575;1.0509;
1384.5000;0.4575;1.0484;
1384.8000;0.4632;1.0658;
1385.1000;0.4575;1.0484;
1385.4000;0.4591;1.0509;
1385.7000;0.4591;1.0509;
1386.0000;0.4575;1.0484;
1386.3000;0.4591;1.0459;
1386.6000;0.4583;1.0484;
1386.9000;0.4558;1.0385;
1387.2000;0.4599;1.0459;
1387.5000;0.4624;1.0559;
1387.8000;0.4575;1.0310;
1388.1000;0.4599;1.0360;
1388.4000;0.4583;1.0260;
1388.7000;0.4632;1.0409;
1389.0000;0.4567;1.0285;
1389.3000;0.4575;1.0310;
1389.6000;0.4615;1.0459;
1389.9000;0.4648;1.0509;
1390.2000;0.4599;1.0459;
1390.5000;0.4583;1.0484;
1390.8000;0.4656;1.0708;
1391.1000;0.4599;1.0459;
1391.4000;0.4591;1.0534;
1391.7000;0.4591;1.0434;
1392.0000;0.4607;1.0459;
1392.3000;0.4607;1.0459;
1392.6000;0.4599;1.0385;
1392.9000;0.4599;1.0409;
1393.2000;0.4583;1.0335;
1393.5000;0.4583;1.0335;
1393.8000;0.4567;1.0360;
1394.1000;0.4632;1.0584;
1394.4000;0.4558;1.0484;
1394.7000;0.4599;1.0609;
1395.0000;0.4599;1.0584;
1395.3000;0.4591;1.0559;
1395.6000;0.4607;1.0634;
1395.9000;0.4534;1.0409;
1396.2000;0.4591;1.0584;
1396.5000;0.4575;1.0609;
1396.8000;0.4640;1.0833;
1397.1000;0.4591;1.0658;
1397.4000;0.4591;1.0708;
1397.7000;0.4591;1.0634;
1398.0000;0.4599;1.0708;
1398.3000;0.4607;1.0634;
1398.6000;0.4591;1.0584;
1398.9000;0.4599;1.0658;
1399.2000;0.4591;1.0708;
1399.5000;0.4599;1.0683;
1399.8000;0.4575;1.0559;
