time/ms;Fluo/V;P700 deltaI/I x10³;
-199.8000;0.4640;1.0136;
-199.5000;0.4632;1.0061;
-199.2000;0.4640;1.0086;
-198.9000;0.4624;1.0036;
-198.6000;0.4632;0.9961;
-198.3000;0.4607;0.9986;
-198.0000;0.4583;0.9886;
-197.7000;0.4632;1.0086;
-197.4000;0.4615;1.0086;
-197.1000;0.4624;1.0061;
-196.8000;0.4632;1.0136;
-196.5000;0.4599;1.0086;
-196.2000;0.4632;1.0160;
-195.9000;0.4640;1.0136;
-195.6000;0.4624;1.0160;
-195.3000;0.4615;1.0061;
-195.0000;0.4632;1.0136;
-194.7000;0.4607;1.0086;
-194.4000;0.4632;1.0136;
-194.1000;0.4648;1.0185;
-193.8000;0.4721;1.0434;
-193.5000;0.4656;1.0285;
-193.2000;0.4632;1.0160;
-192.9000;0.4648;1.0185;
-192.6000;0.4632;1.0061;
-192.3000;0.4640;1.0061;
-192.0000;0.4632;1.0086;
-191.7000;0.4624;1.0086;
-191.4000;0.4607;1.0111;
-191.1000;0.4615;1.0086;
-190.8000;0.4632;1.0111;
-190.5000;0.4632;1.0185;
-190.2000;0.4624;1.0185;
-189.9000;0.4615;1.0136;
-189.6000;0.4672;1.0385;
-189.3000;0.4632;1.0210;
-189.0000;0.4624;1.0235;
-188.7000;0.4648;1.0335;
-188.4000;0.4599;1.0136;
-188.1000;0.4599;1.0136;
-187.8000;0.4672;1.0285;
-187.5000;0.4624;1.0086;
-187.2000;0.4632;1.0111;
-186.9000;0.4624;1.0210;
-186.6000;0.4632;1.0185;
-186.3000;0.4591;1.0036;
-186.0000;0.4615;1.0061;
-185.7000;0.4583;1.0011;
-185.4000;0.4640;1.0086;
-185.1000;0.4632;1.0036;
-184.8000;0.4558;0.9812;
-184.5000;0.4607;0.9961;
-184.2000;0.4624;1.0011;
-183.9000;0.4607;0.9886;
-183.6000;0.4624;0.9986;
-183.3000;0.4632;1.0011;
-183.0000;0.4656;1.0111;
-182.7000;0.4624;1.0011;
-182.4000;0.4640;1.0086;
-182.1000;0.4640;1.0036;
-181.8000;0.4624;0.9911;
-181.5000;0.4640;1.0011;
-181.2000;0.4624;1.0086;
-180.9000;0.4624;1.0086;
-180.6000;0.4656;1.0210;
-180.3000;0.4648;1.0061;
-180.0000;0.4567;1.0011;
-179.7000;0.4640;1.0260;
-179.4000;0.4624;1.0235;
-179.1000;0.4615;1.0210;
-178.8000;0.4599;1.0136;
-178.5000;0.4615;1.0285;
-178.2000;0.4729;1.0733;
-177.9000;0.4583;1.0260;
-177.6000;0.4632;1.0310;
-177.3000;0.4624;1.0285;
-177.0000;0.4624;1.0235;
-176.7000;0.4624;1.0260;
-176.4000;0.4624;1.0260;
-176.1000;0.4624;1.0210;
-175.8000;0.4599;1.0086;
-175.5000;0.4615;1.0111;
-175.2000;0.4632;1.0136;
-174.9000;0.4615;1.0061;
-174.6000;0.4632;1.0160;
-174.3000;0.4607;1.0111;
-174.0000;0.4632;1.0210;
-173.7000;0.4599;1.0111;
-173.4000;0.4640;1.0260;
-173.1000;0.4632;1.0235;
-172.8000;0.4648;1.0310;
-172.5000;0.4624;1.0235;
-172.2000;0.4656;1.0210;
-171.9000;0.4615;1.0061;
-171.6000;0.4640;1.0061;
-171.3000;0.4550;0.9911;
-171.0000;0.4615;1.0160;
-170.7000;0.4632;1.0111;
-170.4000;0.4607;1.0210;
-170.1000;0.4607;1.0210;
-169.8000;0.4656;1.0335;
-169.5000;0.4640;1.0260;
-169.2000;0.4664;1.0260;
-168.9000;0.4632;1.0235;
-168.6000;0.4615;1.0136;
-168.3000;0.4575;0.9986;
-168.0000;0.4632;1.0160;
-167.7000;0.4607;1.0136;
-167.4000;0.4713;1.0409;
-167.1000;0.4632;1.0136;
-166.8000;0.4640;1.0111;
-166.5000;0.4624;1.0011;
-166.2000;0.4632;1.0011;
-165.9000;0.4632;1.0011;
-165.6000;0.4624;0.9986;
-165.3000;0.4558;0.9787;
-165.0000;0.4624;0.9961;
-164.7000;0.4664;0.9936;
-164.4000;0.4632;0.9911;
-164.1000;0.4615;0.9862;
-163.8000;0.4575;0.9837;
-163.5000;0.4607;0.9911;
-163.2000;0.4624;0.9862;
-162.9000;0.4648;0.9936;
-162.6000;0.4599;0.9862;
-162.3000;0.4632;0.9886;
-162.0000;0.4624;0.9886;
-161.7000;0.4632;1.0011;
-161.4000;0.4607;1.0036;
-161.1000;0.4624;1.0086;
-160.8000;0.4632;1.0036;
-160.5000;0.4624;1.0086;
-160.2000;0.4640;1.0136;
-159.9000;0.4624;1.0061;
-159.6000;0.4615;1.0086;
-159.3000;0.4607;1.0160;
-159.0000;0.4615;1.0185;
-158.7000;0.4632;1.0160;
-158.4000;0.4615;1.0111;
-158.1000;0.4615;1.0160;
-157.8000;0.4656;1.0235;
-157.5000;0.4624;1.0185;
-157.2000;0.4624;1.0260;
-156.9000;0.4632;1.0235;
-156.6000;0.4648;1.0285;
-156.3000;0.4648;1.0360;
-156.0000;0.4583;1.0310;
-155.7000;0.4640;1.0409;
-155.4000;0.4624;1.0285;
-155.1000;0.4615;1.0260;
-154.8000;0.4632;1.0210;
-154.5000;0.4607;1.0061;
-154.2000;0.4640;1.0160;
-153.9000;0.4615;1.0136;
-153.6000;0.4624;1.0086;
-153.3000;0.4615;1.0036;
-153.0000;0.4624;1.0011;
-152.7000;0.4599;1.0036;
-152.4000;0.4632;1.0160;
-152.1000;0.4624;1.0185;
-151.8000;0.4624;1.0185;
-151.5000;0.4632;1.0185;
-151.2000;0.4615;1.0160;
-150.9000;0.4624;1.0185;
-150.6000;0.4599;1.0086;
-150.3000;0.4615;1.0086;
-150.0000;0.4624;1.0111;
-149.7000;0.4607;1.0036;
-149.4000;0.4615;1.0036;
-149.1000;0.4640;1.0210;
-148.8000;0.4640;1.0285;
-148.5000;0.4624;1.0285;
-148.2000;0.4615;1.0235;
-147.9000;0.4615;1.0136;
-147.6000;0.4624;1.0136;
-147.3000;0.4607;1.0011;
-147.0000;0.4607;1.0061;
-146.7000;0.4624;1.0136;
-146.4000;0.4632;1.0136;
-146.1000;0.4632;1.0036;
-145.8000;0.4624;1.0086;
-145.5000;0.4640;1.0111;
-145.2000;0.4624;1.0011;
-144.9000;0.4640;1.0086;
-144.6000;0.4632;1.0111;
-144.3000;0.4624;1.0136;
-144.0000;0.4632;1.0136;
-143.7000;0.4632;1.0136;
-143.4000;0.4640;1.0185;
-143.1000;0.4664;1.0310;
-142.8000;0.4615;1.0260;
-142.5000;0.4640;1.0210;
-142.2000;0.4632;1.0136;
-141.9000;0.4624;1.0111;
-141.6000;0.4615;1.0036;
-141.3000;0.4624;0.9986;
-141.0000;0.4640;1.0086;
-140.7000;0.4632;1.0086;
-140.4000;0.4624;1.0086;
-140.1000;0.4607;1.0011;
-139.8000;0.4624;1.0011;
-139.5000;0.4632;0.9961;
-139.2000;0.4615;0.9911;
-138.9000;0.4632;1.0011;
-138.6000;0.4615;1.0036;
-138.3000;0.4624;0.9961;
-138.0000;0.4632;1.0036;
-137.7000;0.4615;0.9936;
-137.4000;0.4632;1.0061;
-137.1000;0.4607;1.0036;
-136.8000;0.4591;0.9911;
-136.5000;0.4607;0.9986;
-136.2000;0.4615;0.9961;
-135.9000;0.4632;0.9961;
-135.6000;0.4607;0.9911;
-135.3000;0.4624;0.9961;
-135.0000;0.4615;0.9961;
-134.7000;0.4648;0.9986;
-134.4000;0.4624;0.9886;
-134.1000;0.4624;0.9911;
-133.8000;0.4615;0.9886;
-133.5000;0.4681;1.0111;
-133.2000;0.4648;1.0036;
-132.9000;0.4632;0.9961;
-132.6000;0.4624;0.9961;
-132.3000;0.4624;0.9911;
-132.0000;0.4648;0.9961;
-131.7000;0.4672;1.0036;
-131.4000;0.4640;0.9961;
-131.1000;0.4632;1.0011;
-130.8000;0.4640;1.0011;
-130.5000;0.4640;0.9911;
-130.2000;0.4640;0.9911;
-129.9000;0.4624;0.9787;
-129.6000;0.4624;0.9712;
-129.3000;0.4640;0.9712;
-129.0000;0.4656;0.9862;
-128.7000;0.4648;0.9737;
-128.4000;0.4632;0.9712;
-128.1000;0.4632;0.9637;
-127.8000;0.4615;0.9637;
-127.5000;0.4607;0.9712;
-127.2000;0.4640;0.9787;
-126.9000;0.4754;1.0185;
-126.6000;0.4607;0.9687;
-126.3000;0.4607;0.9737;
-126.0000;0.4615;0.9662;
-125.7000;0.4632;0.9687;
-125.4000;0.4640;0.9613;
-125.1000;0.4640;0.9588;
-124.8000;0.4624;0.9662;
-124.5000;0.4632;0.9787;
-124.2000;0.4656;0.9936;
-123.9000;0.4615;0.9837;
-123.6000;0.4640;0.9862;
-123.3000;0.4632;0.9837;
-123.0000;0.4624;0.9812;
-122.7000;0.4632;0.9737;
-122.4000;0.4640;0.9737;
-122.1000;0.4632;0.9837;
-121.8000;0.4640;0.9986;
-121.5000;0.4624;1.0036;
-121.2000;0.4615;1.0086;
-120.9000;0.4640;1.0061;
-120.6000;0.4632;1.0160;
-120.3000;0.4632;1.0011;
-120.0000;0.4632;0.9986;
-119.7000;0.4648;1.0061;
-119.4000;0.4640;1.0210;
-119.1000;0.4648;1.0160;
-118.8000;0.4615;1.0136;
-118.5000;0.4640;1.0235;
-118.2000;0.4632;1.0185;
-117.9000;0.4648;1.0235;
-117.6000;0.4632;1.0136;
-117.3000;0.4632;1.0111;
-117.0000;0.4624;0.9961;
-116.7000;0.4648;1.0036;
-116.4000;0.4624;1.0011;
-116.1000;0.4624;1.0011;
-115.8000;0.4632;0.9986;
-115.5000;0.4624;0.9986;
-115.2000;0.4632;1.0011;
-114.9000;0.4624;0.9961;
-114.6000;0.4624;1.0036;
-114.3000;0.4624;1.0086;
-114.0000;0.4632;1.0036;
-113.7000;0.4632;1.0061;
-113.4000;0.4607;1.0036;
-113.1000;0.4624;1.0160;
-112.8000;0.4624;1.0111;
-112.5000;0.4632;1.0136;
-112.2000;0.4632;1.0136;
-111.9000;0.4624;1.0011;
-111.6000;0.4607;0.9936;
-111.3000;0.4591;0.9862;
-111.0000;0.4640;0.9936;
-110.7000;0.4632;0.9986;
-110.4000;0.4640;1.0061;
-110.1000;0.4632;1.0061;
-109.8000;0.4575;0.9886;
-109.5000;0.4632;0.9986;
-109.2000;0.4558;0.9837;
-108.9000;0.4615;0.9986;
-108.6000;0.4632;0.9986;
-108.3000;0.4599;1.0086;
-108.0000;0.4526;0.9986;
-107.7000;0.4624;1.0210;
-107.4000;0.4624;1.0185;
-107.1000;0.4607;1.0111;
-106.8000;0.4640;1.0160;
-106.5000;0.4640;1.0111;
-106.2000;0.4615;1.0086;
-105.9000;0.4640;1.0160;
-105.6000;0.4648;1.0260;
-105.3000;0.4632;1.0185;
-105.0000;0.4632;1.0210;
-104.7000;0.4640;1.0111;
-104.4000;0.4624;1.0086;
-104.1000;0.4640;1.0210;
-103.8000;0.4624;1.0210;
-103.5000;0.4615;1.0136;
-103.2000;0.4607;1.0111;
-102.9000;0.4624;1.0136;
-102.6000;0.4607;1.0086;
-102.3000;0.4624;1.0136;
-102.0000;0.4632;1.0086;
-101.7000;0.4624;1.0061;
-101.4000;0.4615;1.0061;
-101.1000;0.4624;1.0061;
-100.8000;0.4624;1.0160;
-100.5000;0.4624;1.0111;
-100.2000;0.4632;1.0036;
-99.9000;0.4632;1.0111;
-99.6000;0.4632;1.0086;
-99.3000;0.4632;1.0136;
-99.0000;0.4632;1.0111;
-98.7000;0.4615;0.9961;
-98.4000;0.4599;0.9936;
-98.1000;0.4591;0.9911;
-97.8000;0.4615;1.0011;
-97.5000;0.4632;0.9961;
-97.2000;0.4599;0.9837;
-96.9000;0.4624;0.9862;
-96.6000;0.4632;0.9936;
-96.3000;0.4583;0.9862;
-96.0000;0.4607;1.0036;
-95.7000;0.4624;1.0036;
-95.4000;0.4689;1.0235;
-95.1000;0.4624;1.0061;
-94.8000;0.4607;0.9961;
-94.5000;0.4583;0.9837;
-94.2000;0.4632;0.9961;
-93.9000;0.4672;1.0036;
-93.6000;0.4624;0.9936;
-93.3000;0.4607;0.9911;
-93.0000;0.4599;0.9862;
-92.7000;0.4640;0.9961;
-92.4000;0.4575;0.9812;
-92.1000;0.4624;0.9911;
-91.8000;0.4624;0.9986;
-91.5000;0.4615;1.0036;
-91.2000;0.4624;0.9986;
-90.9000;0.4607;1.0011;
-90.6000;0.4632;1.0111;
-90.3000;0.4624;1.0185;
-90.0000;0.4624;1.0136;
-89.7000;0.4632;1.0185;
-89.4000;0.4624;1.0185;
-89.1000;0.4599;1.0111;
-88.8000;0.4632;1.0260;
-88.5000;0.4624;1.0310;
-88.2000;0.4632;1.0285;
-87.9000;0.4632;1.0310;
-87.6000;0.4640;1.0235;
-87.3000;0.4648;1.0185;
-87.0000;0.4607;1.0011;
-86.7000;0.4632;1.0061;
-86.4000;0.4632;1.0061;
-86.1000;0.4607;0.9961;
-85.8000;0.4632;1.0061;
-85.5000;0.4632;1.0136;
-85.2000;0.4615;1.0210;
-84.9000;0.4648;1.0235;
-84.6000;0.4640;1.0310;
-84.3000;0.4648;1.0360;
-84.0000;0.4632;1.0360;
-83.7000;0.4648;1.0409;
-83.4000;0.4632;1.0409;
-83.1000;0.4607;1.0360;
-82.8000;0.4640;1.0285;
-82.5000;0.4681;1.0360;
-82.2000;0.4607;1.0136;
-81.9000;0.4607;1.0086;
-81.6000;0.4599;1.0160;
-81.3000;0.4624;1.0111;
-81.0000;0.4624;1.0086;
-80.7000;0.4632;0.9961;
-80.4000;0.4624;0.9911;
-80.1000;0.4615;0.9837;
-79.8000;0.4656;0.9986;
-79.5000;0.4632;0.9986;
-79.2000;0.4632;0.9961;
-78.9000;0.4558;0.9762;
-78.6000;0.4615;0.9986;
-78.3000;0.4624;1.0111;
-78.0000;0.4615;1.0136;
-77.7000;0.4607;1.0136;
-77.4000;0.4615;1.0086;
-77.1000;0.4640;1.0136;
-76.8000;0.4607;1.0086;
-76.5000;0.4575;1.0061;
-76.2000;0.4640;1.0185;
-75.9000;0.4632;1.0185;
-75.6000;0.4632;1.0160;
-75.3000;0.4697;1.0285;
-75.0000;0.4624;1.0160;
-74.7000;0.4615;1.0136;
-74.4000;0.4607;1.0061;
-74.1000;0.4624;1.0061;
-73.8000;0.4664;1.0210;
-73.5000;0.4640;1.0086;
-73.2000;0.4648;1.0235;
-72.9000;0.4615;1.0160;
-72.6000;0.4615;1.0160;
-72.3000;0.4624;1.0086;
-72.0000;0.4624;1.0086;
-71.7000;0.4607;1.0086;
-71.4000;0.4624;1.0086;
-71.1000;0.4705;1.0310;
-70.8000;0.4640;1.0136;
-70.5000;0.4615;1.0011;
-70.2000;0.4632;1.0061;
-69.9000;0.4599;0.9911;
-69.6000;0.4624;0.9886;
-69.3000;0.4632;0.9886;
-69.0000;0.4615;0.9886;
-68.7000;0.4615;0.9886;
-68.4000;0.4615;0.9886;
-68.1000;0.4640;0.9911;
-67.8000;0.4624;0.9886;
-67.5000;0.4632;0.9961;
-67.2000;0.4640;1.0036;
-66.9000;0.4624;1.0011;
-66.6000;0.4615;0.9961;
-66.3000;0.4624;1.0011;
-66.0000;0.4656;1.0160;
-65.7000;0.4632;1.0061;
-65.4000;0.4624;1.0086;
-65.1000;0.4632;1.0160;
-64.8000;0.4640;1.0160;
-64.5000;0.4664;1.0210;
-64.2000;0.4632;1.0160;
-63.9000;0.4615;1.0061;
-63.6000;0.4624;1.0086;
-63.3000;0.4624;0.9986;
-63.0000;0.4624;0.9936;
-62.7000;0.4648;1.0036;
-62.4000;0.4632;0.9961;
-62.1000;0.4624;1.0011;
-61.8000;0.4607;0.9961;
-61.5000;0.4615;0.9911;
-61.2000;0.4607;0.9787;
-60.9000;0.4640;0.9837;
-60.6000;0.4632;0.9886;
-60.3000;0.4632;0.9862;
-60.0000;0.4591;0.9712;
-59.7000;0.4648;0.9886;
-59.4000;0.4648;0.9837;
-59.1000;0.4624;0.9687;
-58.8000;0.4534;0.9413;
-58.5000;0.4632;0.9737;
-58.2000;0.4624;0.9712;
-57.9000;0.4599;0.9588;
-57.6000;0.4624;0.9662;
-57.3000;0.4632;0.9662;
-57.0000;0.4640;0.9712;
-56.7000;0.4632;0.9787;
-56.4000;0.4632;0.9936;
-56.1000;0.4632;0.9961;
-55.8000;0.4640;1.0061;
-55.5000;0.4681;1.0160;
-55.2000;0.4615;1.0111;
-54.9000;0.4615;1.0111;
-54.6000;0.4632;1.0086;
-54.3000;0.4640;1.0136;
-54.0000;0.4672;1.0260;
-53.7000;0.4624;1.0036;
-53.4000;0.4624;1.0036;
-53.1000;0.4624;0.9961;
-52.8000;0.4624;0.9961;
-52.5000;0.4615;0.9936;
-52.2000;0.4648;0.9961;
-51.9000;0.4632;1.0061;
-51.6000;0.4607;0.9986;
-51.3000;0.4632;1.0011;
-51.0000;0.4624;1.0036;
-50.7000;0.4640;1.0086;
-50.4000;0.4681;1.0185;
-50.1000;0.4615;1.0061;
-49.8000;0.4656;1.0136;
-49.5000;0.4599;0.9986;
-49.2000;0.4648;1.0111;
-48.9000;0.4632;1.0136;
-48.6000;0.4640;1.0111;
-48.3000;0.4664;1.0136;
-48.0000;0.4640;1.0086;
-47.7000;0.4664;1.0111;
-47.4000;0.4575;0.9837;
-47.1000;0.4624;1.0061;
-46.8000;0.4615;0.9936;
-46.5000;0.4664;1.0086;
-46.2000;0.4624;0.9886;
-45.9000;0.4615;0.9911;
-45.6000;0.4624;0.9961;
-45.3000;0.4615;1.0086;
-45.0000;0.4615;1.0011;
-44.7000;0.4632;1.0061;
-44.4000;0.4615;1.0086;
-44.1000;0.4640;1.0185;
-43.8000;0.4640;1.0210;
-43.5000;0.4624;1.0160;
-43.2000;0.4648;1.0086;
-42.9000;0.4656;1.0136;
-42.6000;0.4624;1.0011;
-42.3000;0.4607;1.0011;
-42.0000;0.4615;1.0011;
-41.7000;0.4615;1.0011;
-41.4000;0.4607;1.0061;
-41.1000;0.4632;1.0136;
-40.8000;0.4640;1.0136;
-40.5000;0.4624;1.0036;
-40.2000;0.4664;1.0185;
-39.9000;0.4632;1.0011;
-39.6000;0.4607;0.9936;
-39.3000;0.4632;0.9986;
-39.0000;0.4615;1.0086;
-38.7000;0.4656;1.0136;
-38.4000;0.4632;1.0061;
-38.1000;0.4632;1.0086;
-37.8000;0.4648;1.0111;
-37.5000;0.4567;0.9936;
-37.2000;0.4632;1.0086;
-36.9000;0.4632;1.0210;
-36.6000;0.4615;1.0086;
-36.3000;0.4632;1.0036;
-36.0000;0.4615;1.0011;
-35.7000;0.4615;0.9986;
-35.4000;0.4632;1.0036;
-35.1000;0.4607;0.9986;
-34.8000;0.4583;0.9936;
-34.5000;0.4607;0.9961;
-34.2000;0.4640;1.0061;
-33.9000;0.4640;1.0061;
-33.6000;0.4624;1.0036;
-33.3000;0.4624;1.0086;
-33.0000;0.4632;1.0136;
-32.7000;0.4640;1.0111;
-32.4000;0.4664;1.0136;
-32.1000;0.4632;1.0011;
-31.8000;0.4632;1.0011;
-31.5000;0.4648;1.0011;
-31.2000;0.4599;0.9911;
-30.9000;0.4632;0.9936;
-30.6000;0.4624;1.0111;
-30.3000;0.4624;1.0136;
-30.0000;0.4624;1.0036;
-29.7000;0.4624;1.0036;
-29.4000;0.4615;1.0061;
-29.1000;0.4681;1.0160;
-28.8000;0.4632;0.9986;
-28.5000;0.4542;0.9787;
-28.2000;0.4615;0.9961;
-27.9000;0.4681;1.0210;
-27.6000;0.4624;1.0086;
-27.3000;0.4632;1.0160;
-27.0000;0.4599;0.9986;
-26.7000;0.4632;0.9961;
-26.4000;0.4697;1.0185;
-26.1000;0.4624;0.9886;
-25.8000;0.4607;0.9862;
-25.5000;0.4624;0.9812;
-25.2000;0.4615;0.9837;
-24.9000;0.4615;0.9812;
-24.6000;0.4705;1.0136;
-24.3000;0.4599;0.9911;
-24.0000;0.4624;1.0011;
-23.7000;0.4656;1.0036;
-23.4000;0.4607;1.0011;
-23.1000;0.4534;0.9762;
-22.8000;0.4607;0.9911;
-22.5000;0.4599;0.9936;
-22.2000;0.4607;1.0011;
-21.9000;0.4624;1.0136;
-21.6000;0.4624;1.0210;
-21.3000;0.4681;1.0335;
-21.0000;0.4632;1.0136;
-20.7000;0.4607;0.9986;
-20.4000;0.4607;0.9911;
-20.1000;0.4624;0.9911;
-19.8000;0.4640;0.9812;
-19.5000;0.4648;0.9936;
-19.2000;0.4672;0.9986;
-18.9000;0.4607;0.9862;
-18.6000;0.4624;0.9911;
-18.3000;0.4632;0.9911;
-18.0000;0.4624;0.9862;
-17.7000;0.4624;0.9886;
-17.4000;0.4624;0.9911;
-17.1000;0.4615;0.9886;
-16.8000;0.4664;1.0036;
-16.5000;0.4615;0.9961;
-16.2000;0.4648;0.9961;
-15.9000;0.4624;1.0011;
-15.6000;0.4599;1.0136;
-15.3000;0.4632;1.0260;
-15.0000;0.4624;1.0310;
-14.7000;0.4648;1.0335;
-14.4000;0.4624;1.0285;
-14.1000;0.4632;1.0310;
-13.8000;0.4624;1.0185;
-13.5000;0.4640;1.0160;
-13.2000;0.4624;1.0111;
-12.9000;0.4615;1.0136;
-12.6000;0.4624;1.0111;
-12.3000;0.4624;1.0061;
-12.0000;0.4615;1.0011;
-11.7000;0.4607;0.9961;
-11.4000;0.4632;1.0111;
-11.1000;0.4632;1.0061;
-10.8000;0.4615;1.0111;
-10.5000;0.4624;1.0036;
-10.2000;0.4599;0.9986;
-9.9000;0.4640;1.0086;
-9.6000;0.4624;1.0011;
-9.3000;0.4624;1.0086;
-9.0000;0.4632;1.0061;
-8.7000;0.4632;0.9961;
-8.4000;0.4624;0.9862;
-8.1000;0.4624;0.9862;
-7.8000;0.4615;0.9862;
-7.5000;0.4607;0.9936;
-7.2000;0.4632;0.9986;
-6.9000;0.4607;0.9986;
-6.6000;0.4583;0.9961;
-6.3000;0.4656;1.0260;
-6.0000;0.4607;1.0260;
-5.7000;0.4624;1.0260;
-5.4000;0.4648;1.0235;
-5.1000;0.4632;1.0036;
-4.8000;0.4632;1.0086;
-4.5000;0.4632;1.0111;
-4.2000;0.4575;1.0011;
-3.9000;0.4640;1.0185;
-3.6000;0.4615;1.0011;
-3.3000;0.4615;0.9961;
-3.0000;0.4624;0.9911;
-2.7000;0.4632;0.9886;
-2.4000;0.4632;0.9862;
-2.1000;0.4689;1.0061;
-1.8000;0.4632;0.9961;
-1.5000;0.4632;1.0086;
-1.2000;0.4624;1.0111;
-0.9000;0.4689;1.0185;
-0.6000;0.4607;1.0011;
-0.3000;0.4615;1.0011;
0.0000;0.4615;1.0011;
0.3000;0.4803;1.0136;
0.6000;0.5055;1.0559;
0.9000;0.5258;1.1082;
1.2000;0.5429;1.1605;
1.5000;0.5625;1.2153;
1.8000;0.5641;1.2227;
2.1000;0.5714;1.2427;
2.4000;0.5788;1.2701;
2.7000;0.5828;1.2875;
3.0000;0.5902;1.3024;
3.3000;0.5918;1.3149;
3.6000;0.5950;1.3323;
3.9000;0.5975;1.3373;
4.2000;0.6007;1.3423;
4.5000;0.6015;1.3373;
4.8000;0.6007;1.3348;
5.1000;0.6081;1.3522;
5.4000;0.6105;1.3547;
5.7000;0.6121;1.3473;
6.0000;0.6121;1.3448;
6.3000;0.6154;1.3473;
6.6000;0.6186;1.3522;
6.9000;0.6186;1.3622;
7.2000;0.6203;1.3672;
7.5000;0.6243;1.3672;
7.8000;0.6252;1.3647;
8.1000;0.6276;1.3796;
8.4000;0.6268;1.3722;
8.7000;0.6300;1.3746;
9.0000;0.6300;1.3697;
9.3000;0.6333;1.3796;
9.6000;0.6357;1.3771;
9.9000;0.6365;1.3796;
10.2000;0.6365;1.3672;
10.5000;0.6398;1.3672;
10.8000;0.6406;1.3622;
11.1000;0.6447;1.3647;
11.4000;0.6447;1.3622;
11.7000;0.6479;1.3622;
12.0000;0.6479;1.3672;
12.3000;0.6496;1.3697;
12.6000;0.6504;1.3647;
12.9000;0.6528;1.3647;
13.2000;0.6536;1.3547;
13.5000;0.6553;1.3522;
13.8000;0.6569;1.3522;
14.1000;0.6561;1.3473;
14.4000;0.6577;1.3522;
14.7000;0.6602;1.3547;
15.0000;0.6593;1.3522;
15.3000;0.6610;1.3497;
15.6000;0.6634;1.3522;
15.9000;0.6634;1.3572;
16.2000;0.6659;1.3547;
16.5000;0.6561;1.3298;
16.8000;0.6691;1.3672;
17.1000;0.6691;1.3722;
17.4000;0.6634;1.3497;
17.7000;0.6707;1.3647;
18.0000;0.6732;1.3672;
18.3000;0.6740;1.3572;
18.6000;0.6756;1.3547;
18.9000;0.6748;1.3473;
19.2000;0.6764;1.3497;
19.5000;0.6756;1.3448;
19.8000;0.6764;1.3522;
20.1000;0.6789;1.3597;
20.4000;0.6838;1.3697;
20.7000;0.6789;1.3622;
21.0000;0.6797;1.3647;
21.3000;0.6813;1.3647;
21.6000;0.6829;1.3647;
21.9000;0.6821;1.3622;
22.2000;0.6862;1.3697;
22.5000;0.6886;1.3697;
22.8000;0.6854;1.3622;
23.1000;0.6886;1.3572;
23.4000;0.6886;1.3522;
23.7000;0.6846;1.3497;
24.0000;0.6878;1.3572;
24.3000;0.6878;1.3547;
24.6000;0.6870;1.3547;
24.9000;0.6903;1.3597;
25.2000;0.6886;1.3522;
25.5000;0.6968;1.3647;
25.8000;0.6943;1.3547;
26.1000;0.6911;1.3423;
26.4000;0.6952;1.3448;
26.7000;0.6960;1.3497;
27.0000;0.6968;1.3398;
27.3000;0.6976;1.3398;
27.6000;0.6952;1.3323;
27.9000;0.6935;1.3223;
28.2000;0.6968;1.3398;
28.5000;0.6968;1.3473;
28.8000;0.6968;1.3572;
29.1000;0.6968;1.3547;
29.4000;0.7033;1.3697;
29.7000;0.6984;1.3497;
30.0000;0.6992;1.3547;
30.3000;0.7000;1.3622;
30.6000;0.6984;1.3522;
30.9000;0.7009;1.3473;
31.2000;0.7017;1.3547;
31.5000;0.7017;1.3547;
31.8000;0.7009;1.3473;
32.1000;0.7033;1.3473;
32.4000;0.7033;1.3547;
32.7000;0.7025;1.3572;
33.0000;0.7033;1.3572;
33.3000;0.7000;1.3497;
33.6000;0.7066;1.3597;
33.9000;0.7074;1.3597;
34.2000;0.7123;1.3697;
34.5000;0.7041;1.3448;
34.8000;0.7066;1.3597;
35.1000;0.7090;1.3647;
35.4000;0.7066;1.3622;
35.7000;0.7074;1.3697;
36.0000;0.7074;1.3622;
36.3000;0.7074;1.3522;
36.6000;0.7066;1.3522;
36.9000;0.7049;1.3398;
37.2000;0.7090;1.3547;
37.5000;0.7090;1.3622;
37.8000;0.7090;1.3647;
38.1000;0.7090;1.3672;
38.4000;0.7090;1.3647;
38.7000;0.7074;1.3597;
39.0000;0.7082;1.3547;
39.3000;0.7106;1.3572;
39.6000;0.7147;1.3622;
39.9000;0.7098;1.3547;
40.2000;0.7106;1.3622;
40.5000;0.7106;1.3522;
40.8000;0.7123;1.3497;
41.1000;0.7139;1.3522;
41.4000;0.7098;1.3323;
41.7000;0.7147;1.3398;
42.0000;0.7131;1.3373;
42.3000;0.7147;1.3497;
42.6000;0.7139;1.3522;
42.9000;0.7114;1.3497;
43.2000;0.7123;1.3448;
43.5000;0.7171;1.3547;
43.8000;0.7131;1.3547;
44.1000;0.7123;1.3572;
44.4000;0.7131;1.3622;
44.7000;0.7123;1.3547;
45.0000;0.7163;1.3597;
45.3000;0.7163;1.3547;
45.6000;0.7147;1.3497;
45.9000;0.7163;1.3522;
46.2000;0.7147;1.3497;
46.5000;0.7147;1.3497;
46.8000;0.7163;1.3522;
47.1000;0.7171;1.3622;
47.4000;0.7179;1.3597;
47.7000;0.7171;1.3547;
48.0000;0.7171;1.3522;
48.3000;0.7212;1.3547;
48.6000;0.7171;1.3497;
48.9000;0.7171;1.3522;
49.2000;0.7212;1.3597;
49.5000;0.7171;1.3522;
49.8000;0.7171;1.3547;
50.1000;0.7179;1.3622;
50.4000;0.7179;1.3622;
50.7000;0.7171;1.3597;
51.0000;0.7171;1.3522;
51.3000;0.7163;1.3448;
51.6000;0.7171;1.3423;
51.9000;0.7155;1.3348;
52.2000;0.7212;1.3473;
52.5000;0.7188;1.3398;
52.8000;0.7204;1.3547;
53.1000;0.7171;1.3497;
53.4000;0.7188;1.3497;
53.7000;0.7196;1.3547;
54.0000;0.7212;1.3547;
54.3000;0.7212;1.3522;
54.6000;0.7188;1.3448;
54.9000;0.7196;1.3423;
55.2000;0.7139;1.3248;
55.5000;0.7228;1.3497;
55.8000;0.7179;1.3423;
56.1000;0.7285;1.3771;
56.4000;0.7302;1.3771;
56.7000;0.7212;1.3622;
57.0000;0.7204;1.3622;
57.3000;0.7171;1.3373;
57.6000;0.7220;1.3423;
57.9000;0.7204;1.3398;
58.2000;0.7204;1.3448;
58.5000;0.7212;1.3522;
58.8000;0.7212;1.3522;
59.1000;0.7212;1.3448;
59.4000;0.7228;1.3473;
59.7000;0.7212;1.3423;
60.0000;0.7212;1.3373;
60.3000;0.7212;1.3423;
60.6000;0.7220;1.3298;
60.9000;0.7212;1.3273;
61.2000;0.7220;1.3348;
61.5000;0.7220;1.3473;
61.8000;0.7204;1.3473;
62.1000;0.7228;1.3497;
62.4000;0.7220;1.3473;
62.7000;0.7228;1.3497;
63.0000;0.7228;1.3522;
63.3000;0.7220;1.3473;
63.6000;0.7302;1.3672;
63.9000;0.7253;1.3473;
64.2000;0.7245;1.3473;
64.5000;0.7212;1.3323;
64.8000;0.7236;1.3348;
65.1000;0.7245;1.3298;
65.4000;0.7236;1.3448;
65.7000;0.7285;1.3572;
66.0000;0.7196;1.3298;
66.3000;0.7245;1.3522;
66.6000;0.7293;1.3547;
66.9000;0.7245;1.3423;
67.2000;0.7236;1.3448;
67.5000;0.7261;1.3497;
67.8000;0.7245;1.3497;
68.1000;0.7236;1.3448;
68.4000;0.7245;1.3448;
68.7000;0.7253;1.3423;
69.0000;0.7228;1.3423;
69.3000;0.7261;1.3497;
69.6000;0.7228;1.3497;
69.9000;0.7236;1.3497;
70.2000;0.7236;1.3497;
70.5000;0.7245;1.3522;
70.8000;0.7236;1.3522;
71.1000;0.7245;1.3547;
71.4000;0.7245;1.3522;
71.7000;0.7253;1.3547;
72.0000;0.7220;1.3423;
72.3000;0.7253;1.3522;
72.6000;0.7285;1.3697;
72.9000;0.7261;1.3572;
73.2000;0.7253;1.3597;
73.5000;0.7253;1.3622;
73.8000;0.7236;1.3497;
74.1000;0.7253;1.3497;
74.4000;0.7269;1.3398;
74.7000;0.7261;1.3323;
75.0000;0.7253;1.3199;
75.3000;0.7277;1.3248;
75.6000;0.7245;1.3174;
75.9000;0.7277;1.3199;
76.2000;0.7277;1.3174;
76.5000;0.7285;1.3223;
76.8000;0.7277;1.3199;
77.1000;0.7253;1.3124;
77.4000;0.7253;1.3099;
77.7000;0.7253;1.3199;
78.0000;0.7261;1.3124;
78.3000;0.7261;1.3124;
78.6000;0.7261;1.3248;
78.9000;0.7261;1.3223;
79.2000;0.7277;1.3298;
79.5000;0.7261;1.3174;
79.8000;0.7261;1.3174;
80.1000;0.7277;1.3248;
80.4000;0.7277;1.3298;
80.7000;0.7253;1.3373;
81.0000;0.7155;1.3149;
81.3000;0.7245;1.3373;
81.6000;0.7261;1.3348;
81.9000;0.7277;1.3398;
82.2000;0.7261;1.3373;
82.5000;0.7277;1.3423;
82.8000;0.7261;1.3398;
83.1000;0.7253;1.3398;
83.4000;0.7253;1.3398;
83.7000;0.7277;1.3423;
84.0000;0.7269;1.3448;
84.3000;0.7277;1.3522;
84.6000;0.7342;1.3722;
84.9000;0.7269;1.3473;
85.2000;0.7285;1.3522;
85.5000;0.7269;1.3373;
85.8000;0.7253;1.3248;
86.1000;0.7277;1.3248;
86.4000;0.7269;1.3099;
86.7000;0.7269;1.3199;
87.0000;0.7293;1.3298;
87.3000;0.7302;1.3273;
87.6000;0.7277;1.3298;
87.9000;0.7285;1.3348;
88.2000;0.7293;1.3323;
88.5000;0.7310;1.3348;
88.8000;0.7253;1.3174;
89.1000;0.7261;1.3199;
89.4000;0.7212;1.3074;
89.7000;0.7310;1.3248;
90.0000;0.7293;1.3248;
90.3000;0.7277;1.3273;
90.6000;0.7285;1.3348;
90.9000;0.7310;1.3448;
91.2000;0.7277;1.3398;
91.5000;0.7253;1.3373;
91.8000;0.7277;1.3423;
92.1000;0.7302;1.3448;
92.4000;0.7293;1.3373;
92.7000;0.7318;1.3373;
93.0000;0.7293;1.3174;
93.3000;0.7293;1.3223;
93.6000;0.7342;1.3323;
93.9000;0.7285;1.3174;
94.2000;0.7285;1.3049;
94.5000;0.7285;1.3099;
94.8000;0.7293;1.3099;
95.1000;0.7285;1.3124;
95.4000;0.7310;1.3273;
95.7000;0.7302;1.3373;
96.0000;0.7302;1.3348;
96.3000;0.7326;1.3298;
96.6000;0.7285;1.3199;
96.9000;0.7310;1.3149;
97.2000;0.7334;1.3174;
97.5000;0.7302;1.3099;
97.8000;0.7293;1.3223;
98.1000;0.7253;1.3174;
98.4000;0.7302;1.3199;
98.7000;0.7285;1.3124;
99.0000;0.7293;1.3074;
99.3000;0.7310;1.3199;
99.6000;0.7285;1.3149;
99.9000;0.7293;1.3199;
100.2000;0.7277;1.3273;
100.5000;0.7245;1.3174;
100.8000;0.7293;1.3323;
101.1000;0.7293;1.3248;
101.4000;0.7253;1.3149;
101.7000;0.7285;1.3248;
102.0000;0.7302;1.3298;
102.3000;0.7261;1.3298;
102.6000;0.7318;1.3448;
102.9000;0.7326;1.3473;
103.2000;0.7318;1.3398;
103.5000;0.7302;1.3348;
103.8000;0.7310;1.3373;
104.1000;0.7302;1.3248;
104.4000;0.7310;1.3348;
104.7000;0.7310;1.3273;
105.0000;0.7310;1.3174;
105.3000;0.7302;1.3149;
105.6000;0.7285;1.3223;
105.9000;0.7302;1.3273;
106.2000;0.7318;1.3248;
106.5000;0.7293;1.3049;
106.8000;0.7318;1.3074;
107.1000;0.7326;1.3149;
107.4000;0.7318;1.3199;
107.7000;0.7310;1.3273;
108.0000;0.7310;1.3398;
108.3000;0.7326;1.3448;
108.6000;0.7326;1.3448;
108.9000;0.7302;1.3423;
109.2000;0.7318;1.3398;
109.5000;0.7293;1.3248;
109.8000;0.7318;1.3323;
110.1000;0.7302;1.3373;
110.4000;0.7204;1.3124;
110.7000;0.7310;1.3398;
111.0000;0.7302;1.3423;
111.3000;0.7302;1.3448;
111.6000;0.7310;1.3497;
111.9000;0.7285;1.3522;
112.2000;0.7285;1.3572;
112.5000;0.7318;1.3647;
112.8000;0.7310;1.3547;
113.1000;0.7326;1.3473;
113.4000;0.7228;1.3199;
113.7000;0.7318;1.3522;
114.0000;0.7342;1.3647;
114.3000;0.7277;1.3398;
114.6000;0.7310;1.3473;
114.9000;0.7318;1.3448;
115.2000;0.7326;1.3398;
115.5000;0.7253;1.3248;
115.8000;0.7302;1.3348;
116.1000;0.7326;1.3448;
116.4000;0.7326;1.3448;
116.7000;0.7318;1.3398;
117.0000;0.7326;1.3273;
117.3000;0.7326;1.3323;
117.6000;0.7334;1.3273;
117.9000;0.7334;1.3248;
118.2000;0.7269;1.3099;
118.5000;0.7318;1.3298;
118.8000;0.7334;1.3323;
119.1000;0.7326;1.3273;
119.4000;0.7310;1.3223;
119.7000;0.7318;1.3174;
120.0000;0.7269;1.2999;
120.3000;0.7318;1.3099;
120.6000;0.7318;1.3074;
120.9000;0.7302;1.3074;
121.2000;0.7326;1.3124;
121.5000;0.7342;1.3248;
121.8000;0.7326;1.3223;
122.1000;0.7326;1.3223;
122.4000;0.7326;1.3223;
122.7000;0.7342;1.3248;
123.0000;0.7342;1.3223;
123.3000;0.7334;1.3223;
123.6000;0.7342;1.3298;
123.9000;0.7334;1.3223;
124.2000;0.7318;1.3199;
124.5000;0.7310;1.3223;
124.8000;0.7334;1.3298;
125.1000;0.7326;1.3273;
125.4000;0.7326;1.3273;
125.7000;0.7318;1.3298;
126.0000;0.7326;1.3298;
126.3000;0.7334;1.3298;
126.6000;0.7326;1.3373;
126.9000;0.7326;1.3398;
127.2000;0.7326;1.3323;
127.5000;0.7310;1.3348;
127.8000;0.7342;1.3423;
128.1000;0.7334;1.3448;
128.4000;0.7334;1.3373;
128.7000;0.7334;1.3273;
129.0000;0.7334;1.3199;
129.3000;0.7334;1.3199;
129.6000;0.7326;1.3099;
129.9000;0.7326;1.3074;
130.2000;0.7334;1.3248;
130.5000;0.7318;1.3298;
130.8000;0.7318;1.3199;
131.1000;0.7334;1.3348;
131.4000;0.7383;1.3473;
131.7000;0.7359;1.3373;
132.0000;0.7334;1.3273;
132.3000;0.7326;1.3273;
132.6000;0.7310;1.3273;
132.9000;0.7342;1.3373;
133.2000;0.7334;1.3348;
133.5000;0.7334;1.3323;
133.8000;0.7326;1.3298;
134.1000;0.7342;1.3323;
134.4000;0.7326;1.3298;
134.7000;0.7293;1.3223;
135.0000;0.7318;1.3298;
135.3000;0.7318;1.3323;
135.6000;0.7334;1.3448;
135.9000;0.7318;1.3423;
136.2000;0.7318;1.3323;
136.5000;0.7310;1.3323;
136.8000;0.7334;1.3298;
137.1000;0.7326;1.3298;
137.4000;0.7334;1.3273;
137.7000;0.7326;1.3199;
138.0000;0.7334;1.3223;
138.3000;0.7342;1.3223;
138.6000;0.7359;1.3373;
138.9000;0.7350;1.3348;
139.2000;0.7359;1.3398;
139.5000;0.7334;1.3373;
139.8000;0.7359;1.3423;
140.1000;0.7318;1.3273;
140.4000;0.7367;1.3348;
140.7000;0.7342;1.3273;
141.0000;0.7310;1.3248;
141.3000;0.7334;1.3398;
141.6000;0.7350;1.3547;
141.9000;0.7359;1.3572;
142.2000;0.7350;1.3497;
142.5000;0.7350;1.3522;
142.8000;0.7350;1.3497;
143.1000;0.7350;1.3373;
143.4000;0.7342;1.3323;
143.7000;0.7342;1.3323;
144.0000;0.7350;1.3298;
144.3000;0.7350;1.3298;
144.6000;0.7342;1.3323;
144.9000;0.7342;1.3298;
145.2000;0.7440;1.3597;
145.5000;0.7334;1.3323;
145.8000;0.7350;1.3398;
146.1000;0.7359;1.3398;
146.4000;0.7334;1.3398;
146.7000;0.7334;1.3373;
147.0000;0.7334;1.3423;
147.3000;0.7383;1.3572;
147.6000;0.7326;1.3373;
147.9000;0.7375;1.3448;
148.2000;0.7350;1.3448;
148.5000;0.7342;1.3423;
148.8000;0.7334;1.3373;
149.1000;0.7391;1.3547;
149.4000;0.7334;1.3423;
149.7000;0.7334;1.3398;
150.0000;0.7334;1.3423;
150.3000;0.7334;1.3473;
150.6000;0.7350;1.3473;
150.9000;0.7342;1.3448;
151.2000;0.7399;1.3597;
151.5000;0.7334;1.3473;
151.8000;0.7350;1.3448;
152.1000;0.7350;1.3398;
152.4000;0.7359;1.3348;
152.7000;0.7342;1.3373;
153.0000;0.7359;1.3522;
153.3000;0.7416;1.3697;
153.6000;0.7375;1.3572;
153.9000;0.7326;1.3473;
154.2000;0.7302;1.3423;
154.5000;0.7350;1.3473;
154.8000;0.7318;1.3423;
155.1000;0.7302;1.3448;
155.4000;0.7342;1.3473;
155.7000;0.7318;1.3398;
156.0000;0.7334;1.3522;
156.3000;0.7334;1.3473;
156.6000;0.7285;1.3298;
156.9000;0.7342;1.3423;
157.2000;0.7334;1.3373;
157.5000;0.7293;1.3348;
157.8000;0.7293;1.3323;
158.1000;0.7334;1.3473;
158.4000;0.7342;1.3473;
158.7000;0.7375;1.3547;
159.0000;0.7334;1.3423;
159.3000;0.7350;1.3398;
159.6000;0.7277;1.3223;
159.9000;0.7350;1.3398;
160.2000;0.7342;1.3423;
160.5000;0.7310;1.3423;
160.8000;0.7342;1.3497;
161.1000;0.7334;1.3522;
161.4000;0.7334;1.3522;
161.7000;0.7334;1.3522;
162.0000;0.7285;1.3298;
162.3000;0.7310;1.3298;
162.6000;0.7350;1.3398;
162.9000;0.7342;1.3398;
163.2000;0.7350;1.3497;
163.5000;0.7391;1.3547;
163.8000;0.7367;1.3423;
164.1000;0.7367;1.3448;
164.4000;0.7367;1.3448;
164.7000;0.7367;1.3423;
165.0000;0.7375;1.3448;
165.3000;0.7367;1.3448;
165.6000;0.7367;1.3298;
165.9000;0.7359;1.3323;
166.2000;0.7350;1.3298;
166.5000;0.7350;1.3174;
166.8000;0.7359;1.3174;
167.1000;0.7350;1.3174;
167.4000;0.7326;1.3074;
167.7000;0.7375;1.3199;
168.0000;0.7342;1.3099;
168.3000;0.7359;1.3124;
168.6000;0.7359;1.3199;
168.9000;0.7407;1.3323;
169.2000;0.7318;1.3099;
169.5000;0.7334;1.3223;
169.8000;0.7334;1.3323;
170.1000;0.7391;1.3473;
170.4000;0.7424;1.3622;
170.7000;0.7334;1.3398;
171.0000;0.7342;1.3423;
171.3000;0.7456;1.3746;
171.6000;0.7326;1.3348;
171.9000;0.7350;1.3423;
172.2000;0.7350;1.3572;
172.5000;0.7277;1.3248;
172.8000;0.7334;1.3398;
173.1000;0.7367;1.3497;
173.4000;0.7269;1.3174;
173.7000;0.7342;1.3348;
174.0000;0.7359;1.3398;
174.3000;0.7350;1.3398;
174.6000;0.7367;1.3497;
174.9000;0.7375;1.3547;
175.2000;0.7383;1.3572;
175.5000;0.7350;1.3522;
175.8000;0.7359;1.3522;
176.1000;0.7367;1.3522;
176.4000;0.7342;1.3448;
176.7000;0.7350;1.3398;
177.0000;0.7342;1.3373;
177.3000;0.7342;1.3423;
177.6000;0.7359;1.3473;
177.9000;0.7342;1.3423;
178.2000;0.7391;1.3572;
178.5000;0.7318;1.3348;
178.8000;0.7342;1.3398;
179.1000;0.7359;1.3398;
179.4000;0.7293;1.3273;
179.7000;0.7326;1.3323;
180.0000;0.7350;1.3423;
180.3000;0.7367;1.3448;
180.6000;0.7359;1.3323;
180.9000;0.7350;1.3298;
181.2000;0.7359;1.3323;
181.5000;0.7350;1.3273;
181.8000;0.7318;1.3248;
182.1000;0.7391;1.3448;
182.4000;0.7326;1.3348;
182.7000;0.7326;1.3273;
183.0000;0.7350;1.3298;
183.3000;0.7350;1.3248;
183.6000;0.7350;1.3273;
183.9000;0.7359;1.3298;
184.2000;0.7318;1.3323;
184.5000;0.7359;1.3373;
184.8000;0.7350;1.3348;
185.1000;0.7350;1.3373;
185.4000;0.7342;1.3423;
185.7000;0.7326;1.3373;
186.0000;0.7342;1.3348;
186.3000;0.7342;1.3497;
186.6000;0.7334;1.3448;
186.9000;0.7310;1.3348;
187.2000;0.7318;1.3448;
187.5000;0.7424;1.3672;
187.8000;0.7342;1.3398;
188.1000;0.7375;1.3448;
188.4000;0.7342;1.3398;
188.7000;0.7359;1.3497;
189.0000;0.7367;1.3522;
189.3000;0.7359;1.3522;
189.6000;0.7440;1.3697;
189.9000;0.7375;1.3547;
190.2000;0.7359;1.3497;
190.5000;0.7350;1.3423;
190.8000;0.7359;1.3448;
191.1000;0.7375;1.3448;
191.4000;0.7383;1.3497;
191.7000;0.7350;1.3473;
192.0000;0.7342;1.3497;
192.3000;0.7334;1.3473;
192.6000;0.7350;1.3448;
192.9000;0.7359;1.3497;
193.2000;0.7334;1.3423;
193.5000;0.7334;1.3473;
193.8000;0.7350;1.3473;
194.1000;0.7367;1.3473;
194.4000;0.7367;1.3448;
194.7000;0.7359;1.3473;
195.0000;0.7285;1.3373;
195.3000;0.7326;1.3522;
195.6000;0.7334;1.3497;
195.9000;0.7391;1.3647;
196.2000;0.7334;1.3572;
196.5000;0.7342;1.3647;
196.8000;0.7350;1.3597;
197.1000;0.7359;1.3522;
197.4000;0.7326;1.3348;
197.7000;0.7342;1.3348;
198.0000;0.7367;1.3348;
198.3000;0.7359;1.3298;
198.6000;0.7350;1.3373;
198.9000;0.7456;1.3572;
199.2000;0.7383;1.3323;
199.5000;0.7375;1.3323;
199.8000;0.7367;1.3223;
200.1000;0.7391;1.3273;
200.4000;0.7391;1.3423;
200.7000;0.7367;1.3373;
201.0000;0.7342;1.3323;
201.3000;0.7367;1.3398;
201.6000;0.7399;1.3423;
201.9000;0.7359;1.3323;
202.2000;0.7342;1.3323;
202.5000;0.7342;1.3423;
202.8000;0.7350;1.3522;
203.1000;0.7342;1.3398;
203.4000;0.7367;1.3348;
203.7000;0.7350;1.3223;
204.0000;0.7359;1.3199;
204.3000;0.7367;1.3273;
204.6000;0.7350;1.3273;
204.9000;0.7334;1.3223;
205.2000;0.7367;1.3273;
205.5000;0.7367;1.3273;
205.8000;0.7359;1.3273;
206.1000;0.7359;1.3373;
206.4000;0.7350;1.3423;
206.7000;0.7391;1.3522;
207.0000;0.7359;1.3423;
207.3000;0.7359;1.3423;
207.6000;0.7375;1.3522;
207.9000;0.7342;1.3473;
208.2000;0.7424;1.3647;
208.5000;0.7302;1.3298;
208.8000;0.7359;1.3448;
209.1000;0.7416;1.3572;
209.4000;0.7375;1.3448;
209.7000;0.7367;1.3348;
210.0000;0.7334;1.3273;
210.3000;0.7359;1.3348;
210.6000;0.7350;1.3373;
210.9000;0.7350;1.3298;
211.2000;0.7383;1.3323;
211.5000;0.7464;1.3522;
211.8000;0.7367;1.3248;
212.1000;0.7359;1.3248;
212.4000;0.7342;1.3149;
212.7000;0.7424;1.3373;
213.0000;0.7375;1.3223;
213.3000;0.7383;1.3323;
213.6000;0.7350;1.3273;
213.9000;0.7334;1.3174;
214.2000;0.7375;1.3348;
214.5000;0.7367;1.3248;
214.8000;0.7359;1.3199;
215.1000;0.7383;1.3273;
215.4000;0.7367;1.3248;
215.7000;0.7367;1.3248;
216.0000;0.7350;1.3323;
216.3000;0.7359;1.3323;
216.6000;0.7350;1.3298;
216.9000;0.7350;1.3248;
217.2000;0.7367;1.3348;
217.5000;0.7350;1.3323;
217.8000;0.7350;1.3273;
218.1000;0.7350;1.3273;
218.4000;0.7334;1.3298;
218.7000;0.7342;1.3323;
219.0000;0.7334;1.3398;
219.3000;0.7383;1.3597;
219.6000;0.7375;1.3597;
219.9000;0.7359;1.3497;
220.2000;0.7334;1.3423;
220.5000;0.7350;1.3298;
220.8000;0.7367;1.3323;
221.1000;0.7359;1.3323;
221.4000;0.7367;1.3273;
221.7000;0.7359;1.3223;
222.0000;0.7359;1.3199;
222.3000;0.7334;1.3074;
222.6000;0.7350;1.3049;
222.9000;0.7350;1.3049;
223.2000;0.7350;1.3074;
223.5000;0.7359;1.3074;
223.8000;0.7367;1.3024;
224.1000;0.7367;1.2974;
224.4000;0.7375;1.2999;
224.7000;0.7359;1.2999;
225.0000;0.7342;1.3024;
225.3000;0.7350;1.3024;
225.6000;0.7359;1.2950;
225.9000;0.7359;1.2999;
226.2000;0.7367;1.3099;
226.5000;0.7424;1.3124;
226.8000;0.7359;1.3149;
227.1000;0.7375;1.3323;
227.4000;0.7367;1.3273;
227.7000;0.7350;1.3323;
228.0000;0.7359;1.3248;
228.3000;0.7367;1.3248;
228.6000;0.7350;1.3273;
228.9000;0.7342;1.3199;
229.2000;0.7367;1.3199;
229.5000;0.7367;1.3273;
229.8000;0.7367;1.3248;
230.1000;0.7367;1.3273;
230.4000;0.7350;1.3174;
230.7000;0.7334;1.3149;
231.0000;0.7367;1.3174;
231.3000;0.7350;1.3099;
231.6000;0.7342;1.3049;
231.9000;0.7350;1.3149;
232.2000;0.7424;1.3248;
232.5000;0.7407;1.3199;
232.8000;0.7342;1.3074;
233.1000;0.7359;1.3049;
233.4000;0.7375;1.3074;
233.7000;0.7350;1.2950;
234.0000;0.7350;1.3049;
234.3000;0.7359;1.3099;
234.6000;0.7350;1.3174;
234.9000;0.7367;1.3149;
235.2000;0.7367;1.3099;
235.5000;0.7367;1.3074;
235.8000;0.7375;1.3149;
236.1000;0.7367;1.3149;
236.4000;0.7367;1.3149;
236.7000;0.7367;1.3174;
237.0000;0.7359;1.3174;
237.3000;0.7285;1.3024;
237.6000;0.7367;1.3223;
237.9000;0.7359;1.3223;
238.2000;0.7359;1.3273;
238.5000;0.7359;1.3248;
238.8000;0.7367;1.3323;
239.1000;0.7359;1.3373;
239.4000;0.7342;1.3423;
239.7000;0.7359;1.3448;
240.0000;0.7375;1.3323;
240.3000;0.7399;1.3373;
240.6000;0.7367;1.3323;
240.9000;0.7375;1.3323;
241.2000;0.7375;1.3323;
241.5000;0.7359;1.3323;
241.8000;0.7359;1.3223;
242.1000;0.7359;1.3199;
242.4000;0.7375;1.3248;
242.7000;0.7367;1.3273;
243.0000;0.7359;1.3248;
243.3000;0.7359;1.3174;
243.6000;0.7359;1.3223;
243.9000;0.7359;1.3199;
244.2000;0.7367;1.3248;
244.5000;0.7350;1.3174;
244.8000;0.7375;1.3074;
245.1000;0.7391;1.3099;
245.4000;0.7375;1.3149;
245.7000;0.7367;1.3223;
246.0000;0.7359;1.3273;
246.3000;0.7359;1.3273;
246.6000;0.7350;1.3248;
246.9000;0.7375;1.3323;
247.2000;0.7375;1.3398;
247.5000;0.7285;1.3174;
247.8000;0.7342;1.3323;
248.1000;0.7334;1.3248;
248.4000;0.7350;1.3273;
248.7000;0.7367;1.3248;
249.0000;0.7350;1.3223;
249.3000;0.7359;1.3174;
249.6000;0.7367;1.3223;
249.9000;0.7375;1.3273;
250.2000;0.7359;1.3323;
250.5000;0.7399;1.3398;
250.8000;0.7359;1.3348;
251.1000;0.7359;1.3273;
251.4000;0.7359;1.3199;
251.7000;0.7350;1.3149;
252.0000;0.7359;1.3124;
252.3000;0.7359;1.3124;
252.6000;0.7359;1.3074;
252.9000;0.7350;1.3124;
253.2000;0.7334;1.3074;
253.5000;0.7350;1.3124;
253.8000;0.7367;1.3199;
254.1000;0.7367;1.3273;
254.4000;0.7326;1.3174;
254.7000;0.7359;1.3248;
255.0000;0.7375;1.3273;
255.3000;0.7375;1.3273;
255.6000;0.7399;1.3323;
255.9000;0.7416;1.3398;
256.2000;0.7399;1.3373;
256.5000;0.7367;1.3273;
256.8000;0.7367;1.3248;
257.1000;0.7334;1.3149;
257.4000;0.7367;1.3323;
257.7000;0.7367;1.3398;
258.0000;0.7367;1.3448;
258.3000;0.7350;1.3448;
258.6000;0.7407;1.3547;
258.9000;0.7375;1.3473;
259.2000;0.7359;1.3423;
259.5000;0.7375;1.3373;
259.8000;0.7367;1.3273;
260.1000;0.7383;1.3323;
260.4000;0.7375;1.3373;
260.7000;0.7359;1.3373;
261.0000;0.7334;1.3323;
261.3000;0.7473;1.3722;
261.6000;0.7350;1.3298;
261.9000;0.7375;1.3298;
262.2000;0.7367;1.3248;
262.5000;0.7359;1.3273;
262.8000;0.7359;1.3273;
263.1000;0.7367;1.3398;
263.4000;0.7359;1.3398;
263.7000;0.7359;1.3398;
264.0000;0.7367;1.3373;
264.3000;0.7359;1.3273;
264.6000;0.7359;1.3248;
264.9000;0.7367;1.3248;
265.2000;0.7375;1.3398;
265.5000;0.7318;1.3373;
265.8000;0.7375;1.3473;
266.1000;0.7318;1.3373;
266.4000;0.7342;1.3373;
266.7000;0.7367;1.3373;
267.0000;0.7367;1.3348;
267.3000;0.7375;1.3373;
267.6000;0.7383;1.3398;
267.9000;0.7375;1.3373;
268.2000;0.7359;1.3223;
268.5000;0.7342;1.3174;
268.8000;0.7367;1.3248;
269.1000;0.7350;1.3298;
269.4000;0.7407;1.3522;
269.7000;0.7359;1.3473;
270.0000;0.7359;1.3497;
270.3000;0.7375;1.3473;
270.6000;0.7367;1.3423;
270.9000;0.7326;1.3323;
271.2000;0.7359;1.3323;
271.5000;0.7350;1.3323;
271.8000;0.7318;1.3174;
272.1000;0.7399;1.3348;
272.4000;0.7359;1.3199;
272.7000;0.7350;1.3199;
273.0000;0.7359;1.3199;
273.3000;0.7367;1.3273;
273.6000;0.7359;1.3174;
273.9000;0.7350;1.3149;
274.2000;0.7367;1.3174;
274.5000;0.7367;1.3149;
274.8000;0.7367;1.3199;
275.1000;0.7261;1.2999;
275.4000;0.7359;1.3348;
275.7000;0.7367;1.3323;
276.0000;0.7359;1.3273;
276.3000;0.7359;1.3223;
276.6000;0.7350;1.3298;
276.9000;0.7367;1.3298;
277.2000;0.7359;1.3298;
277.5000;0.7359;1.3448;
277.8000;0.7359;1.3373;
278.1000;0.7367;1.3273;
278.4000;0.7399;1.3323;
278.7000;0.7407;1.3323;
279.0000;0.7367;1.3199;
279.3000;0.7416;1.3323;
279.6000;0.7383;1.3348;
279.9000;0.7359;1.3248;
280.2000;0.7342;1.3223;
280.5000;0.7383;1.3323;
280.8000;0.7367;1.3298;
281.1000;0.7383;1.3323;
281.4000;0.7367;1.3373;
281.7000;0.7367;1.3398;
282.0000;0.7383;1.3448;
282.3000;0.7375;1.3448;
282.6000;0.7456;1.3597;
282.9000;0.7383;1.3323;
283.2000;0.7383;1.3323;
283.5000;0.7359;1.3348;
283.8000;0.7359;1.3323;
284.1000;0.7367;1.3348;
284.4000;0.7367;1.3323;
284.7000;0.7342;1.3199;
285.0000;0.7310;1.3049;
285.3000;0.7359;1.3099;
285.6000;0.7367;1.3074;
285.9000;0.7359;1.3074;
286.2000;0.7350;1.3124;
286.5000;0.7416;1.3348;
286.8000;0.7375;1.3124;
287.1000;0.7359;1.3124;
287.4000;0.7391;1.3174;
287.7000;0.7342;1.3024;
288.0000;0.7383;1.3049;
288.3000;0.7342;1.2950;
288.6000;0.7359;1.3049;
288.9000;0.7350;1.3149;
289.2000;0.7310;1.3124;
289.5000;0.7350;1.3223;
289.8000;0.7359;1.3149;
290.1000;0.7375;1.3099;
290.4000;0.7334;1.2999;
290.7000;0.7383;1.3149;
291.0000;0.7383;1.3124;
291.3000;0.7440;1.3373;
291.6000;0.7391;1.3248;
291.9000;0.7367;1.3323;
292.2000;0.7367;1.3348;
292.5000;0.7383;1.3473;
292.8000;0.7367;1.3398;
293.1000;0.7367;1.3348;
293.4000;0.7350;1.3273;
293.7000;0.7367;1.3298;
294.0000;0.7424;1.3522;
294.3000;0.7359;1.3298;
294.6000;0.7416;1.3448;
294.9000;0.7359;1.3348;
295.2000;0.7350;1.3448;
295.5000;0.7342;1.3423;
295.8000;0.7350;1.3473;
296.1000;0.7326;1.3348;
296.4000;0.7342;1.3348;
296.7000;0.7359;1.3398;
297.0000;0.7367;1.3423;
297.3000;0.7375;1.3473;
297.6000;0.7342;1.3298;
297.9000;0.7350;1.3273;
298.2000;0.7334;1.3149;
298.5000;0.7367;1.3149;
298.8000;0.7367;1.3149;
299.1000;0.7326;1.3049;
299.4000;0.7342;1.3049;
299.7000;0.7367;1.3049;
300.0000;0.7367;1.3074;
300.3000;0.7318;1.3049;
300.6000;0.7334;1.3174;
300.9000;0.7375;1.3248;
301.2000;0.7334;1.3174;
301.5000;0.7342;1.3223;
301.8000;0.7432;1.3298;
302.1000;0.7350;1.3049;
302.4000;0.7375;1.3149;
302.7000;0.7367;1.3248;
303.0000;0.7334;1.3248;
303.3000;0.7359;1.3323;
303.6000;0.7326;1.3273;
303.9000;0.7334;1.3149;
304.2000;0.7367;1.3273;
304.5000;0.7334;1.3149;
304.8000;0.7350;1.3199;
305.1000;0.7391;1.3323;
305.4000;0.7342;1.3223;
305.7000;0.7350;1.3199;
306.0000;0.7359;1.3199;
306.3000;0.7375;1.3248;
306.6000;0.7342;1.3223;
306.9000;0.7424;1.3348;
307.2000;0.7359;1.3174;
307.5000;0.7359;1.3199;
307.8000;0.7342;1.3248;
308.1000;0.7359;1.3248;
308.4000;0.7359;1.3298;
308.7000;0.7350;1.3223;
309.0000;0.7407;1.3373;
309.3000;0.7342;1.3199;
309.6000;0.7342;1.3124;
309.9000;0.7359;1.3174;
310.2000;0.7342;1.3099;
310.5000;0.7350;1.3124;
310.8000;0.7359;1.3099;
311.1000;0.7359;1.3124;
311.4000;0.7367;1.3124;
311.7000;0.7367;1.3049;
312.0000;0.7383;1.3074;
312.3000;0.7399;1.3124;
312.6000;0.7383;1.3149;
312.9000;0.7375;1.3149;
313.2000;0.7359;1.3074;
313.5000;0.7375;1.3074;
313.8000;0.7350;1.3124;
314.1000;0.7359;1.3149;
314.4000;0.7342;1.3049;
314.7000;0.7359;1.3099;
315.0000;0.7375;1.3149;
315.3000;0.7367;1.3124;
315.6000;0.7383;1.3099;
315.9000;0.7359;1.3049;
316.2000;0.7375;1.3124;
316.5000;0.7367;1.3099;
316.8000;0.7350;1.3074;
317.1000;0.7359;1.3099;
317.4000;0.7342;1.3149;
317.7000;0.7367;1.3273;
318.0000;0.7359;1.3298;
318.3000;0.7367;1.3223;
318.6000;0.7391;1.3348;
318.9000;0.7350;1.3273;
319.2000;0.7334;1.3124;
319.5000;0.7359;1.3099;
319.8000;0.7350;1.3049;
320.1000;0.7350;1.2974;
320.4000;0.7359;1.3074;
320.7000;0.7359;1.3124;
321.0000;0.7350;1.3099;
321.3000;0.7383;1.3174;
321.6000;0.7375;1.3223;
321.9000;0.7367;1.3149;
322.2000;0.7383;1.3248;
322.5000;0.7375;1.3323;
322.8000;0.7367;1.3298;
323.1000;0.7350;1.3298;
323.4000;0.7326;1.3323;
323.7000;0.7326;1.3298;
324.0000;0.7367;1.3373;
324.3000;0.7342;1.3323;
324.6000;0.7367;1.3373;
324.9000;0.7350;1.3273;
325.2000;0.7359;1.3223;
325.5000;0.7359;1.3174;
325.8000;0.7359;1.3199;
326.1000;0.7350;1.3099;
326.4000;0.7383;1.3149;
326.7000;0.7359;1.3149;
327.0000;0.7359;1.3199;
327.3000;0.7359;1.3298;
327.6000;0.7318;1.3223;
327.9000;0.7350;1.3323;
328.2000;0.7318;1.3149;
328.5000;0.7391;1.3298;
328.8000;0.7375;1.3298;
329.1000;0.7375;1.3248;
329.4000;0.7367;1.3174;
329.7000;0.7375;1.3149;
330.0000;0.7375;1.3149;
330.3000;0.7383;1.3298;
330.6000;0.7359;1.3298;
330.9000;0.7367;1.3298;
331.2000;0.7367;1.3273;
331.5000;0.7350;1.3348;
331.8000;0.7359;1.3373;
332.1000;0.7367;1.3423;
332.4000;0.7375;1.3473;
332.7000;0.7359;1.3448;
333.0000;0.7367;1.3473;
333.3000;0.7350;1.3373;
333.6000;0.7326;1.3273;
333.9000;0.7367;1.3348;
334.2000;0.7383;1.3522;
334.5000;0.7375;1.3448;
334.8000;0.7350;1.3497;
335.1000;0.7375;1.3473;
335.4000;0.7326;1.3373;
335.7000;0.7375;1.3497;
336.0000;0.7302;1.3323;
336.3000;0.7342;1.3398;
336.6000;0.7359;1.3448;
336.9000;0.7350;1.3423;
337.2000;0.7350;1.3298;
337.5000;0.7342;1.3373;
337.8000;0.7359;1.3398;
338.1000;0.7342;1.3348;
338.4000;0.7350;1.3348;
338.7000;0.7326;1.3223;
339.0000;0.7359;1.3398;
339.3000;0.7342;1.3373;
339.6000;0.7334;1.3348;
339.9000;0.7334;1.3323;
340.2000;0.7334;1.3298;
340.5000;0.7367;1.3398;
340.8000;0.7350;1.3373;
341.1000;0.7334;1.3273;
341.4000;0.7367;1.3398;
341.7000;0.7367;1.3398;
342.0000;0.7391;1.3448;
342.3000;0.7432;1.3497;
342.6000;0.7367;1.3323;
342.9000;0.7367;1.3298;
343.2000;0.7293;1.3074;
343.5000;0.7359;1.3199;
343.8000;0.7342;1.3174;
344.1000;0.7326;1.3174;
344.4000;0.7375;1.3298;
344.7000;0.7342;1.3223;
345.0000;0.7342;1.3199;
345.3000;0.7359;1.3174;
345.6000;0.7350;1.3024;
345.9000;0.7350;1.2974;
346.2000;0.7383;1.3049;
346.5000;0.7375;1.2999;
346.8000;0.7342;1.3024;
347.1000;0.7342;1.3074;
347.4000;0.7367;1.3223;
347.7000;0.7334;1.3199;
348.0000;0.7367;1.3323;
348.3000;0.7375;1.3223;
348.6000;0.7367;1.3199;
348.9000;0.7350;1.3174;
349.2000;0.7391;1.3298;
349.5000;0.7359;1.3248;
349.8000;0.7350;1.3273;
350.1000;0.7350;1.3273;
350.4000;0.7359;1.3248;
350.7000;0.7334;1.3099;
351.0000;0.7456;1.3373;
351.3000;0.7367;1.3124;
351.6000;0.7359;1.3074;
351.9000;0.7359;1.3248;
352.2000;0.7350;1.3248;
352.5000;0.7359;1.3248;
352.8000;0.7359;1.3323;
353.1000;0.7375;1.3373;
353.4000;0.7350;1.3323;
353.7000;0.7359;1.3323;
354.0000;0.7350;1.3298;
354.3000;0.7350;1.3248;
354.6000;0.7359;1.3248;
354.9000;0.7342;1.3223;
355.2000;0.7342;1.3174;
355.5000;0.7342;1.3223;
355.8000;0.7359;1.3273;
356.1000;0.7359;1.3473;
356.4000;0.7350;1.3497;
356.7000;0.7350;1.3448;
357.0000;0.7350;1.3473;
357.3000;0.7359;1.3448;
357.6000;0.7342;1.3348;
357.9000;0.7367;1.3323;
358.2000;0.7359;1.3323;
358.5000;0.7367;1.3423;
358.8000;0.7350;1.3423;
359.1000;0.7302;1.3273;
359.4000;0.7359;1.3348;
359.7000;0.7375;1.3398;
360.0000;0.7359;1.3398;
360.3000;0.7334;1.3373;
360.6000;0.7342;1.3348;
360.9000;0.7350;1.3373;
361.2000;0.7342;1.3323;
361.5000;0.7359;1.3323;
361.8000;0.7359;1.3323;
362.1000;0.7367;1.3348;
362.4000;0.7391;1.3448;
362.7000;0.7383;1.3348;
363.0000;0.7359;1.3373;
363.3000;0.7375;1.3423;
363.6000;0.7350;1.3398;
363.9000;0.7342;1.3348;
364.2000;0.7350;1.3398;
364.5000;0.7416;1.3497;
364.8000;0.7367;1.3323;
365.1000;0.7350;1.3273;
365.4000;0.7350;1.3248;
365.7000;0.7359;1.3348;
366.0000;0.7350;1.3398;
366.3000;0.7350;1.3373;
366.6000;0.7350;1.3273;
366.9000;0.7350;1.3223;
367.2000;0.7399;1.3448;
367.5000;0.7350;1.3248;
367.8000;0.7359;1.3223;
368.1000;0.7342;1.3223;
368.4000;0.7367;1.3149;
368.7000;0.7367;1.3199;
369.0000;0.7342;1.3149;
369.3000;0.7350;1.3199;
369.6000;0.7350;1.3223;
369.9000;0.7367;1.3273;
370.2000;0.7359;1.3199;
370.5000;0.7359;1.3149;
370.8000;0.7359;1.3124;
371.1000;0.7359;1.3124;
371.4000;0.7350;1.3199;
371.7000;0.7375;1.3174;
372.0000;0.7359;1.3149;
372.3000;0.7383;1.3174;
372.6000;0.7359;1.3223;
372.9000;0.7359;1.3223;
373.2000;0.7359;1.3174;
373.5000;0.7440;1.3298;
373.8000;0.7359;1.3074;
374.1000;0.7342;1.3074;
374.4000;0.7342;1.3024;
374.7000;0.7350;1.3149;
375.0000;0.7359;1.3174;
375.3000;0.7293;1.3049;
375.6000;0.7350;1.3149;
375.9000;0.7359;1.3199;
376.2000;0.7367;1.3248;
376.5000;0.7350;1.3248;
376.8000;0.7359;1.3348;
377.1000;0.7359;1.3448;
377.4000;0.7383;1.3448;
377.7000;0.7391;1.3473;
378.0000;0.7350;1.3348;
378.3000;0.7359;1.3423;
378.6000;0.7375;1.3423;
378.9000;0.7359;1.3323;
379.2000;0.7350;1.3248;
379.5000;0.7342;1.3149;
379.8000;0.7367;1.3149;
380.1000;0.7367;1.3124;
380.4000;0.7399;1.3298;
380.7000;0.7375;1.3298;
381.0000;0.7359;1.3323;
381.3000;0.7367;1.3473;
381.6000;0.7383;1.3522;
381.9000;0.7367;1.3473;
382.2000;0.7359;1.3373;
382.5000;0.7367;1.3423;
382.8000;0.7359;1.3373;
383.1000;0.7334;1.3298;
383.4000;0.7367;1.3348;
383.7000;0.7359;1.3373;
384.0000;0.7350;1.3348;
384.3000;0.7350;1.3348;
384.6000;0.7375;1.3348;
384.9000;0.7342;1.3348;
385.2000;0.7350;1.3273;
385.5000;0.7318;1.3223;
385.8000;0.7318;1.3199;
386.1000;0.7359;1.3248;
386.4000;0.7375;1.3248;
386.7000;0.7456;1.3423;
387.0000;0.7359;1.3298;
387.3000;0.7383;1.3348;
387.6000;0.7375;1.3497;
387.9000;0.7310;1.3223;
388.2000;0.7342;1.3273;
388.5000;0.7350;1.3398;
388.8000;0.7350;1.3423;
389.1000;0.7350;1.3348;
389.4000;0.7359;1.3298;
389.7000;0.7350;1.3199;
390.0000;0.7342;1.3223;
390.3000;0.7350;1.3174;
390.6000;0.7350;1.3199;
390.9000;0.7350;1.3174;
391.2000;0.7375;1.3174;
391.5000;0.7342;1.3099;
391.8000;0.7350;1.3099;
392.1000;0.7359;1.3223;
392.4000;0.7334;1.3248;
392.7000;0.7350;1.3298;
393.0000;0.7359;1.3348;
393.3000;0.7342;1.3298;
393.6000;0.7342;1.3373;
393.9000;0.7359;1.3398;
394.2000;0.7342;1.3373;
394.5000;0.7342;1.3373;
394.8000;0.7334;1.3298;
395.1000;0.7407;1.3547;
395.4000;0.7302;1.3273;
395.7000;0.7383;1.3423;
396.0000;0.7399;1.3473;
396.3000;0.7334;1.3273;
396.6000;0.7318;1.3273;
396.9000;0.7359;1.3373;
397.2000;0.7383;1.3448;
397.5000;0.7391;1.3448;
397.8000;0.7367;1.3473;
398.1000;0.7407;1.3547;
398.4000;0.7334;1.3323;
398.7000;0.7359;1.3348;
399.0000;0.7359;1.3323;
399.3000;0.7350;1.3298;
399.6000;0.7350;1.3248;
399.9000;0.7342;1.3273;
400.2000;0.7350;1.3223;
400.5000;0.7359;1.3298;
400.8000;0.7350;1.3223;
401.1000;0.7326;1.3223;
401.4000;0.7416;1.3547;
401.7000;0.7367;1.3522;
402.0000;0.7350;1.3497;
402.3000;0.7342;1.3398;
402.6000;0.7342;1.3323;
402.9000;0.7359;1.3298;
403.2000;0.7359;1.3273;
403.5000;0.7334;1.3223;
403.8000;0.7359;1.3348;
404.1000;0.7350;1.3348;
404.4000;0.7383;1.3473;
404.7000;0.7334;1.3348;
405.0000;0.7342;1.3373;
405.3000;0.7318;1.3248;
405.6000;0.7350;1.3348;
405.9000;0.7350;1.3373;
406.2000;0.7334;1.3273;
406.5000;0.7342;1.3323;
406.8000;0.7359;1.3323;
407.1000;0.7350;1.3298;
407.4000;0.7350;1.3273;
407.7000;0.7326;1.3248;
408.0000;0.7359;1.3248;
408.3000;0.7350;1.3174;
408.6000;0.7342;1.3099;
408.9000;0.7350;1.3199;
409.2000;0.7342;1.3298;
409.5000;0.7342;1.3199;
409.8000;0.7359;1.3223;
410.1000;0.7350;1.3174;
410.4000;0.7342;1.3099;
410.7000;0.7350;1.3199;
411.0000;0.7334;1.3099;
411.3000;0.7342;1.3074;
411.6000;0.7342;1.3174;
411.9000;0.7375;1.3298;
412.2000;0.7350;1.3149;
412.5000;0.7310;1.3099;
412.8000;0.7302;1.3049;
413.1000;0.7269;1.2950;
413.4000;0.7383;1.3273;
413.7000;0.7350;1.3248;
414.0000;0.7350;1.3323;
414.3000;0.7367;1.3323;
414.6000;0.7367;1.3348;
414.9000;0.7359;1.3273;
415.2000;0.7359;1.3273;
415.5000;0.7375;1.3273;
415.8000;0.7350;1.3149;
416.1000;0.7359;1.3099;
416.4000;0.7342;1.2974;
416.7000;0.7350;1.2999;
417.0000;0.7359;1.3074;
417.3000;0.7350;1.3074;
417.6000;0.7350;1.3124;
417.9000;0.7342;1.3174;
418.2000;0.7375;1.3223;
418.5000;0.7342;1.3074;
418.8000;0.7367;1.3124;
419.1000;0.7456;1.3373;
419.4000;0.7383;1.3248;
419.7000;0.7407;1.3348;
420.0000;0.7407;1.3298;
420.3000;0.7334;1.3149;
420.6000;0.7375;1.3199;
420.9000;0.7383;1.3149;
421.2000;0.7359;1.3024;
421.5000;0.7334;1.3024;
421.8000;0.7342;1.3074;
422.1000;0.7350;1.3174;
422.4000;0.7350;1.3174;
422.7000;0.7342;1.3099;
423.0000;0.7391;1.3199;
423.3000;0.7350;1.3099;
423.6000;0.7350;1.3099;
423.9000;0.7342;1.3124;
424.2000;0.7350;1.3174;
424.5000;0.7359;1.3323;
424.8000;0.7375;1.3273;
425.1000;0.7334;1.3074;
425.4000;0.7334;1.2999;
425.7000;0.7350;1.3049;
426.0000;0.7350;1.2999;
426.3000;0.7342;1.2950;
426.6000;0.7334;1.2950;
426.9000;0.7326;1.2900;
427.2000;0.7326;1.2900;
427.5000;0.7318;1.2850;
427.8000;0.7350;1.2900;
428.1000;0.7342;1.2900;
428.4000;0.7367;1.2875;
428.7000;0.7350;1.2850;
429.0000;0.7350;1.2875;
429.3000;0.7367;1.2974;
429.6000;0.7383;1.3099;
429.9000;0.7367;1.3149;
430.2000;0.7359;1.3174;
430.5000;0.7350;1.3149;
430.8000;0.7334;1.3124;
431.1000;0.7342;1.3074;
431.4000;0.7342;1.3049;
431.7000;0.7342;1.3024;
432.0000;0.7359;1.3049;
432.3000;0.7350;1.3049;
432.6000;0.7391;1.3099;
432.9000;0.7350;1.2950;
433.2000;0.7350;1.3024;
433.5000;0.7359;1.3074;
433.8000;0.7367;1.3124;
434.1000;0.7350;1.3074;
434.4000;0.7334;1.3024;
434.7000;0.7359;1.3024;
435.0000;0.7342;1.3099;
435.3000;0.7399;1.3149;
435.6000;0.7342;1.2974;
435.9000;0.7342;1.2999;
436.2000;0.7334;1.2950;
436.5000;0.7375;1.2974;
436.8000;0.7236;1.2651;
437.1000;0.7342;1.2950;
437.4000;0.7359;1.2925;
437.7000;0.7350;1.2950;
438.0000;0.7326;1.2974;
438.3000;0.7342;1.3049;
438.6000;0.7367;1.3223;
438.9000;0.7350;1.3174;
439.2000;0.7350;1.3099;
439.5000;0.7359;1.3149;
439.8000;0.7326;1.3124;
440.1000;0.7359;1.3199;
440.4000;0.7350;1.3298;
440.7000;0.7367;1.3298;
441.0000;0.7391;1.3323;
441.3000;0.7359;1.3223;
441.6000;0.7359;1.3149;
441.9000;0.7350;1.3149;
442.2000;0.7383;1.3248;
442.5000;0.7416;1.3373;
442.8000;0.7367;1.3174;
443.1000;0.7375;1.3124;
443.4000;0.7236;1.2850;
443.7000;0.7342;1.3174;
444.0000;0.7326;1.3149;
444.3000;0.7326;1.3223;
444.6000;0.7342;1.3223;
444.9000;0.7359;1.3323;
445.2000;0.7334;1.3323;
445.5000;0.7359;1.3248;
445.8000;0.7359;1.3248;
446.1000;0.7334;1.3099;
446.4000;0.7350;1.3149;
446.7000;0.7334;1.3174;
447.0000;0.7342;1.3223;
447.3000;0.7342;1.3099;
447.6000;0.7350;1.3199;
447.9000;0.7326;1.3223;
448.2000;0.7334;1.3223;
448.5000;0.7342;1.3223;
448.8000;0.7359;1.3298;
449.1000;0.7391;1.3373;
449.4000;0.7326;1.3124;
449.7000;0.7326;1.3074;
450.0000;0.7342;1.3149;
450.3000;0.7342;1.3049;
450.6000;0.7359;1.3124;
450.9000;0.7326;1.3074;
451.2000;0.7350;1.3074;
451.5000;0.7310;1.3074;
451.8000;0.7334;1.3174;
452.1000;0.7310;1.3174;
452.4000;0.7326;1.3199;
452.7000;0.7350;1.3248;
453.0000;0.7334;1.3149;
453.3000;0.7342;1.3248;
453.6000;0.7334;1.3124;
453.9000;0.7359;1.3248;
454.2000;0.7326;1.3223;
454.5000;0.7342;1.3273;
454.8000;0.7350;1.3273;
455.1000;0.7334;1.3298;
455.4000;0.7326;1.3298;
455.7000;0.7334;1.3273;
456.0000;0.7342;1.3199;
456.3000;0.7342;1.3248;
456.6000;0.7326;1.3223;
456.9000;0.7342;1.3298;
457.2000;0.7350;1.3398;
457.5000;0.7326;1.3423;
457.8000;0.7350;1.3448;
458.1000;0.7391;1.3522;
458.4000;0.7342;1.3373;
458.7000;0.7350;1.3348;
459.0000;0.7367;1.3323;
459.3000;0.7367;1.3323;
459.6000;0.7261;1.3049;
459.9000;0.7350;1.3223;
460.2000;0.7375;1.3273;
460.5000;0.7367;1.3273;
460.8000;0.7383;1.3373;
461.1000;0.7269;1.3099;
461.4000;0.7359;1.3199;
461.7000;0.7375;1.3273;
462.0000;0.7342;1.3223;
462.3000;0.7326;1.3149;
462.6000;0.7350;1.3149;
462.9000;0.7383;1.3124;
463.2000;0.7342;1.3049;
463.5000;0.7375;1.3273;
463.8000;0.7350;1.3223;
464.1000;0.7350;1.3223;
464.4000;0.7359;1.3248;
464.7000;0.7342;1.3199;
465.0000;0.7359;1.3199;
465.3000;0.7367;1.3248;
465.6000;0.7359;1.3248;
465.9000;0.7399;1.3373;
466.2000;0.7334;1.3174;
466.5000;0.7367;1.3099;
466.8000;0.7350;1.3024;
467.1000;0.7350;1.3024;
467.4000;0.7342;1.3099;
467.7000;0.7342;1.3149;
468.0000;0.7350;1.3149;
468.3000;0.7342;1.3223;
468.6000;0.7334;1.3199;
468.9000;0.7350;1.3323;
469.2000;0.7350;1.3373;
469.5000;0.7359;1.3298;
469.8000;0.7350;1.3273;
470.1000;0.7367;1.3223;
470.4000;0.7342;1.3174;
470.7000;0.7359;1.3199;
471.0000;0.7342;1.3099;
471.3000;0.7342;1.3099;
471.6000;0.7367;1.3149;
471.9000;0.7359;1.3223;
472.2000;0.7342;1.3273;
472.5000;0.7375;1.3273;
472.8000;0.7375;1.3323;
473.1000;0.7350;1.3298;
473.4000;0.7367;1.3298;
473.7000;0.7367;1.3248;
474.0000;0.7350;1.3273;
474.3000;0.7375;1.3298;
474.6000;0.7350;1.3248;
474.9000;0.7334;1.3348;
475.2000;0.7350;1.3423;
475.5000;0.7342;1.3373;
475.8000;0.7359;1.3273;
476.1000;0.7350;1.3223;
476.4000;0.7350;1.3174;
476.7000;0.7342;1.3174;
477.0000;0.7350;1.3248;
477.3000;0.7375;1.3298;
477.6000;0.7334;1.3199;
477.9000;0.7350;1.3273;
478.2000;0.7375;1.3323;
478.5000;0.7342;1.3149;
478.8000;0.7350;1.3149;
479.1000;0.7342;1.3174;
479.4000;0.7334;1.3074;
479.7000;0.7359;1.3099;
480.0000;0.7342;1.3074;
480.3000;0.7350;1.3074;
480.6000;0.7334;1.3099;
480.9000;0.7350;1.3248;
481.2000;0.7342;1.3149;
481.5000;0.7326;1.3074;
481.8000;0.7342;1.3149;
482.1000;0.7302;1.3074;
482.4000;0.7285;1.2950;
482.7000;0.7375;1.3199;
483.0000;0.7367;1.3124;
483.3000;0.7350;1.3099;
483.6000;0.7350;1.3049;
483.9000;0.7342;1.3074;
484.2000;0.7342;1.3099;
484.5000;0.7350;1.3199;
484.8000;0.7334;1.3199;
485.1000;0.7334;1.3124;
485.4000;0.7310;1.2999;
485.7000;0.7342;1.3149;
486.0000;0.7350;1.3298;
486.3000;0.7334;1.3199;
486.6000;0.7318;1.3248;
486.9000;0.7334;1.3273;
487.2000;0.7342;1.3273;
487.5000;0.7342;1.3248;
487.8000;0.7326;1.3174;
488.1000;0.7350;1.3273;
488.4000;0.7359;1.3273;
488.7000;0.7342;1.3149;
489.0000;0.7375;1.3199;
489.3000;0.7350;1.3223;
489.6000;0.7375;1.3298;
489.9000;0.7342;1.3223;
490.2000;0.7350;1.3223;
490.5000;0.7334;1.3174;
490.8000;0.7342;1.3248;
491.1000;0.7359;1.3273;
491.4000;0.7424;1.3522;
491.7000;0.7334;1.3323;
492.0000;0.7334;1.3273;
492.3000;0.7318;1.3149;
492.6000;0.7326;1.3149;
492.9000;0.7326;1.3049;
493.2000;0.7302;1.3024;
493.5000;0.7334;1.3124;
493.8000;0.7391;1.3323;
494.1000;0.7350;1.3248;
494.4000;0.7350;1.3248;
494.7000;0.7383;1.3248;
495.0000;0.7350;1.3124;
495.3000;0.7342;1.3099;
495.6000;0.7359;1.3149;
495.9000;0.7350;1.3124;
496.2000;0.7318;1.3174;
496.5000;0.7334;1.3199;
496.8000;0.7350;1.3223;
497.1000;0.7334;1.3199;
497.4000;0.7359;1.3373;
497.7000;0.7342;1.3298;
498.0000;0.7318;1.3298;
498.3000;0.7342;1.3348;
498.6000;0.7359;1.3373;
498.9000;0.7334;1.3199;
499.2000;0.7342;1.3124;
499.5000;0.7350;1.3124;
499.8000;0.7367;1.3273;
500.1000;0.7342;1.3223;
500.4000;0.7326;1.3149;
500.7000;0.7342;1.3149;
501.0000;0.7318;1.3049;
501.3000;0.7334;1.2974;
501.6000;0.7334;1.2950;
501.9000;0.7334;1.2999;
502.2000;0.7334;1.3099;
502.5000;0.7342;1.3099;
502.8000;0.7326;1.3024;
503.1000;0.7350;1.3049;
503.4000;0.7350;1.3074;
503.7000;0.7391;1.3223;
504.0000;0.7350;1.3074;
504.3000;0.7334;1.3049;
504.6000;0.7342;1.2999;
504.9000;0.7359;1.3149;
505.2000;0.7342;1.3074;
505.5000;0.7334;1.3024;
505.8000;0.7334;1.3049;
506.1000;0.7342;1.2999;
506.4000;0.7334;1.3024;
506.7000;0.7326;1.3223;
507.0000;0.7383;1.3423;
507.3000;0.7326;1.3298;
507.6000;0.7326;1.3248;
507.9000;0.7342;1.3248;
508.2000;0.7334;1.3298;
508.5000;0.7448;1.3597;
508.8000;0.7342;1.3373;
509.1000;0.7310;1.3323;
509.4000;0.7334;1.3323;
509.7000;0.7342;1.3398;
510.0000;0.7359;1.3448;
510.3000;0.7326;1.3298;
510.6000;0.7326;1.3248;
510.9000;0.7359;1.3248;
511.2000;0.7359;1.3348;
511.5000;0.7359;1.3273;
511.8000;0.7359;1.3149;
512.1000;0.7350;1.3174;
512.4000;0.7383;1.3323;
512.7000;0.7407;1.3497;
513.0000;0.7375;1.3373;
513.3000;0.7326;1.3248;
513.6000;0.7399;1.3497;
513.9000;0.7367;1.3448;
514.2000;0.7391;1.3547;
514.5000;0.7407;1.3572;
514.8000;0.7350;1.3522;
515.1000;0.7350;1.3547;
515.4000;0.7350;1.3473;
515.7000;0.7350;1.3473;
516.0000;0.7334;1.3497;
516.3000;0.7342;1.3497;
516.6000;0.7334;1.3522;
516.9000;0.7318;1.3398;
517.2000;0.7277;1.3223;
517.5000;0.7261;1.3174;
517.8000;0.7334;1.3448;
518.1000;0.7342;1.3547;
518.4000;0.7326;1.3572;
518.7000;0.7342;1.3572;
519.0000;0.7350;1.3547;
519.3000;0.7310;1.3398;
519.6000;0.7334;1.3448;
519.9000;0.7359;1.3497;
520.2000;0.7367;1.3448;
520.5000;0.7359;1.3547;
520.8000;0.7350;1.3597;
521.1000;0.7350;1.3473;
521.4000;0.7367;1.3398;
521.7000;0.7359;1.3298;
522.0000;0.7350;1.3323;
522.3000;0.7310;1.3248;
522.6000;0.7350;1.3348;
522.9000;0.7359;1.3398;
523.2000;0.7350;1.3448;
523.5000;0.7375;1.3497;
523.8000;0.7334;1.3298;
524.1000;0.7350;1.3448;
524.4000;0.7342;1.3423;
524.7000;0.7350;1.3423;
525.0000;0.7342;1.3273;
525.3000;0.7359;1.3323;
525.6000;0.7342;1.3298;
525.9000;0.7334;1.3298;
526.2000;0.7302;1.3298;
526.5000;0.7342;1.3373;
526.8000;0.7342;1.3323;
527.1000;0.7334;1.3248;
527.4000;0.7342;1.3298;
527.7000;0.7334;1.3323;
528.0000;0.7350;1.3273;
528.3000;0.7350;1.3223;
528.6000;0.7334;1.3248;
528.9000;0.7302;1.3149;
529.2000;0.7334;1.3273;
529.5000;0.7334;1.3199;
529.8000;0.7367;1.3273;
530.1000;0.7334;1.3223;
530.4000;0.7350;1.3199;
530.7000;0.7375;1.3323;
531.0000;0.7375;1.3298;
531.3000;0.7383;1.3199;
531.6000;0.7342;1.3099;
531.9000;0.7375;1.3248;
532.2000;0.7342;1.3248;
532.5000;0.7334;1.3248;
532.8000;0.7342;1.3323;
533.1000;0.7440;1.3622;
533.4000;0.7334;1.3298;
533.7000;0.7342;1.3248;
534.0000;0.7399;1.3348;
534.3000;0.7310;1.3099;
534.6000;0.7334;1.3124;
534.9000;0.7350;1.3223;
535.2000;0.7375;1.3323;
535.5000;0.7383;1.3273;
535.8000;0.7342;1.3273;
536.1000;0.7407;1.3448;
536.4000;0.7350;1.3348;
536.7000;0.7391;1.3473;
537.0000;0.7375;1.3547;
537.3000;0.7350;1.3448;
537.6000;0.7326;1.3423;
537.9000;0.7334;1.3423;
538.2000;0.7383;1.3497;
538.5000;0.7277;1.3298;
538.8000;0.7318;1.3323;
539.1000;0.7310;1.3273;
539.4000;0.7334;1.3273;
539.7000;0.7399;1.3448;
540.0000;0.7334;1.3248;
540.3000;0.7334;1.3248;
540.6000;0.7334;1.3248;
540.9000;0.7359;1.3298;
541.2000;0.7367;1.3298;
541.5000;0.7334;1.3174;
541.8000;0.7334;1.3174;
542.1000;0.7318;1.3049;
542.4000;0.7310;1.3049;
542.7000;0.7326;1.3149;
543.0000;0.7318;1.3074;
543.3000;0.7342;1.3099;
543.6000;0.7318;1.3049;
543.9000;0.7326;1.3049;
544.2000;0.7334;1.3074;
544.5000;0.7326;1.2950;
544.8000;0.7342;1.2925;
545.1000;0.7318;1.2850;
545.4000;0.7310;1.2800;
545.7000;0.7342;1.2974;
546.0000;0.7334;1.3024;
546.3000;0.7350;1.3049;
546.6000;0.7326;1.3099;
546.9000;0.7334;1.3099;
547.2000;0.7326;1.3149;
547.5000;0.7293;1.3049;
547.8000;0.7302;1.3049;
548.1000;0.7318;1.3149;
548.4000;0.7318;1.3174;
548.7000;0.7310;1.3024;
549.0000;0.7302;1.3049;
549.3000;0.7359;1.3223;
549.6000;0.7342;1.3149;
549.9000;0.7359;1.3149;
550.2000;0.7326;1.3074;
550.5000;0.7310;1.3049;
550.8000;0.7359;1.3174;
551.1000;0.7367;1.3223;
551.4000;0.7318;1.3223;
551.7000;0.7334;1.3298;
552.0000;0.7334;1.3273;
552.3000;0.7334;1.3248;
552.6000;0.7318;1.3174;
552.9000;0.7342;1.3223;
553.2000;0.7350;1.3298;
553.5000;0.7334;1.3248;
553.8000;0.7334;1.3199;
554.1000;0.7318;1.3174;
554.4000;0.7399;1.3423;
554.7000;0.7342;1.3323;
555.0000;0.7318;1.3323;
555.3000;0.7334;1.3348;
555.6000;0.7342;1.3473;
555.9000;0.7359;1.3473;
556.2000;0.7342;1.3448;
556.5000;0.7334;1.3423;
556.8000;0.7334;1.3423;
557.1000;0.7334;1.3522;
557.4000;0.7440;1.3746;
557.7000;0.7334;1.3473;
558.0000;0.7367;1.3522;
558.3000;0.7359;1.3547;
558.6000;0.7342;1.3473;
558.9000;0.7285;1.3248;
559.2000;0.7334;1.3398;
559.5000;0.7334;1.3448;
559.8000;0.7334;1.3473;
560.1000;0.7334;1.3448;
560.4000;0.7334;1.3522;
560.7000;0.7342;1.3497;
561.0000;0.7350;1.3448;
561.3000;0.7342;1.3473;
561.6000;0.7383;1.3448;
561.9000;0.7334;1.3323;
562.2000;0.7334;1.3273;
562.5000;0.7342;1.3348;
562.8000;0.7326;1.3323;
563.1000;0.7391;1.3473;
563.4000;0.7326;1.3348;
563.7000;0.7334;1.3423;
564.0000;0.7334;1.3448;
564.3000;0.7302;1.3373;
564.6000;0.7326;1.3423;
564.9000;0.7318;1.3398;
565.2000;0.7350;1.3448;
565.5000;0.7318;1.3373;
565.8000;0.7326;1.3423;
566.1000;0.7334;1.3448;
566.4000;0.7318;1.3398;
566.7000;0.7326;1.3423;
567.0000;0.7342;1.3373;
567.3000;0.7407;1.3373;
567.6000;0.7334;1.3273;
567.9000;0.7326;1.3323;
568.2000;0.7318;1.3398;
568.5000;0.7318;1.3423;
568.8000;0.7334;1.3572;
569.1000;0.7326;1.3547;
569.4000;0.7334;1.3647;
569.7000;0.7310;1.3622;
570.0000;0.7326;1.3647;
570.3000;0.7310;1.3497;
570.6000;0.7310;1.3398;
570.9000;0.7310;1.3348;
571.2000;0.7342;1.3522;
571.5000;0.7350;1.3522;
571.8000;0.7334;1.3522;
572.1000;0.7342;1.3547;
572.4000;0.7334;1.3522;
572.7000;0.7359;1.3547;
573.0000;0.7350;1.3448;
573.3000;0.7342;1.3273;
573.6000;0.7326;1.3223;
573.9000;0.7350;1.3298;
574.2000;0.7342;1.3323;
574.5000;0.7318;1.3298;
574.8000;0.7350;1.3448;
575.1000;0.7367;1.3522;
575.4000;0.7375;1.3547;
575.7000;0.7334;1.3473;
576.0000;0.7350;1.3622;
576.3000;0.7342;1.3547;
576.6000;0.7359;1.3572;
576.9000;0.7350;1.3622;
577.2000;0.7350;1.3622;
577.5000;0.7350;1.3622;
577.8000;0.7350;1.3572;
578.1000;0.7367;1.3597;
578.4000;0.7350;1.3497;
578.7000;0.7277;1.3423;
579.0000;0.7342;1.3497;
579.3000;0.7326;1.3572;
579.6000;0.7334;1.3497;
579.9000;0.7334;1.3497;
580.2000;0.7359;1.3597;
580.5000;0.7350;1.3597;
580.8000;0.7334;1.3497;
581.1000;0.7318;1.3348;
581.4000;0.7334;1.3398;
581.7000;0.7326;1.3448;
582.0000;0.7326;1.3423;
582.3000;0.7318;1.3448;
582.6000;0.7334;1.3497;
582.9000;0.7318;1.3522;
583.2000;0.7326;1.3522;
583.5000;0.7318;1.3473;
583.8000;0.7334;1.3497;
584.1000;0.7342;1.3448;
584.4000;0.7245;1.3174;
584.7000;0.7334;1.3298;
585.0000;0.7326;1.3323;
585.3000;0.7342;1.3398;
585.6000;0.7334;1.3398;
585.9000;0.7342;1.3423;
586.2000;0.7391;1.3547;
586.5000;0.7334;1.3423;
586.8000;0.7318;1.3298;
587.1000;0.7326;1.3323;
587.4000;0.7334;1.3373;
587.7000;0.7334;1.3398;
588.0000;0.7318;1.3423;
588.3000;0.7334;1.3448;
588.6000;0.7334;1.3348;
588.9000;0.7334;1.3273;
589.2000;0.7318;1.3298;
589.5000;0.7342;1.3373;
589.8000;0.7350;1.3423;
590.1000;0.7350;1.3323;
590.4000;0.7342;1.3398;
590.7000;0.7334;1.3398;
591.0000;0.7334;1.3398;
591.3000;0.7318;1.3398;
591.6000;0.7342;1.3522;
591.9000;0.7342;1.3423;
592.2000;0.7334;1.3373;
592.5000;0.7334;1.3323;
592.8000;0.7334;1.3298;
593.1000;0.7334;1.3348;
593.4000;0.7326;1.3348;
593.7000;0.7326;1.3423;
594.0000;0.7326;1.3497;
594.3000;0.7326;1.3348;
594.6000;0.7326;1.3248;
594.9000;0.7334;1.3273;
595.2000;0.7326;1.3199;
595.5000;0.7367;1.3323;
595.8000;0.7424;1.3473;
596.1000;0.7326;1.3223;
596.4000;0.7318;1.3223;
596.7000;0.7326;1.3199;
597.0000;0.7326;1.3223;
597.3000;0.7334;1.3298;
597.6000;0.7326;1.3373;
597.9000;0.7334;1.3497;
598.2000;0.7334;1.3547;
598.5000;0.7326;1.3547;
598.8000;0.7318;1.3423;
599.1000;0.7326;1.3448;
599.4000;0.7334;1.3473;
599.7000;0.7326;1.3522;
600.0000;0.7326;1.3473;
600.3000;0.7350;1.3448;
600.6000;0.7318;1.3174;
600.9000;0.7375;1.3149;
601.2000;0.7350;1.2974;
601.5000;0.7245;1.2651;
601.8000;0.7204;1.2476;
602.1000;0.7163;1.2302;
602.4000;0.7123;1.2178;
602.7000;0.7033;1.1978;
603.0000;0.7017;1.1804;
603.3000;0.6952;1.1605;
603.6000;0.6903;1.1356;
603.9000;0.6870;1.1181;
604.2000;0.6813;1.1032;
604.5000;0.6805;1.0982;
604.8000;0.6756;1.0957;
605.1000;0.6724;1.0833;
605.4000;0.6707;1.0908;
605.7000;0.6675;1.0883;
606.0000;0.6650;1.0858;
606.3000;0.6561;1.0584;
606.6000;0.6593;1.0634;
606.9000;0.6561;1.0609;
607.2000;0.6561;1.0559;
607.5000;0.6496;1.0409;
607.8000;0.6479;1.0409;
608.1000;0.6447;1.0360;
608.4000;0.6439;1.0335;
608.7000;0.6398;1.0310;
609.0000;0.6349;1.0260;
609.3000;0.6398;1.0484;
609.6000;0.6357;1.0335;
609.9000;0.6300;1.0185;
610.2000;0.6309;1.0185;
610.5000;0.6292;1.0185;
610.8000;0.6268;1.0136;
611.1000;0.6235;1.0111;
611.4000;0.6211;1.0111;
611.7000;0.6211;1.0061;
612.0000;0.6203;1.0011;
612.3000;0.6170;1.0011;
612.6000;0.6162;0.9986;
612.9000;0.6113;0.9911;
613.2000;0.6113;0.9862;
613.5000;0.6097;0.9961;
613.8000;0.6072;0.9886;
614.1000;0.6072;0.9911;
614.4000;0.6056;0.9886;
614.7000;0.6089;0.9986;
615.0000;0.6015;0.9886;
615.3000;0.6007;0.9837;
615.6000;0.6007;0.9911;
615.9000;0.5991;0.9837;
616.2000;0.5967;0.9812;
616.5000;0.5967;0.9862;
616.8000;0.5950;0.9737;
617.1000;0.5950;0.9737;
617.4000;0.5910;0.9588;
617.7000;0.5885;0.9637;
618.0000;0.5877;0.9637;
618.3000;0.5869;0.9687;
618.6000;0.5861;0.9762;
618.9000;0.5869;0.9737;
619.2000;0.5836;0.9687;
619.5000;0.5853;0.9787;
619.8000;0.5836;0.9787;
620.1000;0.5796;0.9662;
620.4000;0.5836;0.9637;
620.7000;0.5812;0.9613;
621.0000;0.5804;0.9588;
621.3000;0.5779;0.9563;
621.6000;0.5747;0.9513;
621.9000;0.5755;0.9513;
622.2000;0.5796;0.9588;
622.5000;0.5771;0.9538;
622.8000;0.5722;0.9538;
623.1000;0.5739;0.9637;
623.4000;0.5731;0.9563;
623.7000;0.5731;0.9563;
624.0000;0.5722;0.9513;
624.3000;0.5674;0.9513;
624.6000;0.5674;0.9563;
624.9000;0.5625;0.9513;
625.2000;0.5649;0.9563;
625.5000;0.5731;0.9961;
625.8000;0.5649;0.9762;
626.1000;0.5625;0.9787;
626.4000;0.5617;0.9837;
626.7000;0.5617;0.9837;
627.0000;0.5543;0.9613;
627.3000;0.5633;0.9862;
627.6000;0.5592;0.9712;
627.9000;0.5584;0.9637;
628.2000;0.5576;0.9613;
628.5000;0.5568;0.9563;
628.8000;0.5576;0.9637;
629.1000;0.5551;0.9563;
629.4000;0.5527;0.9588;
629.7000;0.5535;0.9637;
630.0000;0.5527;0.9662;
630.3000;0.5519;0.9588;
630.6000;0.5519;0.9588;
630.9000;0.5519;0.9513;
631.2000;0.5543;0.9687;
631.5000;0.5478;0.9438;
631.8000;0.5405;0.9239;
632.1000;0.5478;0.9488;
632.4000;0.5543;0.9662;
632.7000;0.5486;0.9463;
633.0000;0.5454;0.9538;
633.3000;0.5478;0.9687;
633.6000;0.5462;0.9712;
633.9000;0.5462;0.9737;
634.2000;0.5446;0.9712;
634.5000;0.5446;0.9712;
634.8000;0.5446;0.9687;
635.1000;0.5446;0.9787;
635.4000;0.5446;0.9737;
635.7000;0.5429;0.9712;
636.0000;0.5421;0.9687;
636.3000;0.5413;0.9637;
636.6000;0.5397;0.9662;
636.9000;0.5397;0.9812;
637.2000;0.5421;0.9862;
637.5000;0.5405;0.9762;
637.8000;0.5389;0.9737;
638.1000;0.5356;0.9662;
638.4000;0.5389;0.9712;
638.7000;0.5356;0.9637;
639.0000;0.5364;0.9737;
639.3000;0.5372;0.9712;
639.6000;0.5299;0.9538;
639.9000;0.5356;0.9637;
640.2000;0.5356;0.9737;
640.5000;0.5372;0.9812;
640.8000;0.5340;0.9737;
641.1000;0.5364;0.9787;
641.4000;0.5324;0.9762;
641.7000;0.5372;0.9862;
642.0000;0.5332;0.9762;
642.3000;0.5332;0.9712;
642.6000;0.5332;0.9812;
642.9000;0.5332;0.9787;
643.2000;0.5267;0.9588;
643.5000;0.5291;0.9613;
643.8000;0.5307;0.9637;
644.1000;0.5299;0.9637;
644.4000;0.5226;0.9463;
644.7000;0.5283;0.9662;
645.0000;0.5275;0.9613;
645.3000;0.5324;0.9737;
645.6000;0.5275;0.9712;
645.9000;0.5234;0.9588;
646.2000;0.5275;0.9737;
646.5000;0.5283;0.9812;
646.8000;0.5267;0.9687;
647.1000;0.5193;0.9538;
647.4000;0.5242;0.9662;
647.7000;0.5275;0.9762;
648.0000;0.5242;0.9662;
648.3000;0.5275;0.9637;
648.6000;0.5267;0.9538;
648.9000;0.5258;0.9538;
649.2000;0.5315;0.9588;
649.5000;0.5242;0.9488;
649.8000;0.5226;0.9588;
650.1000;0.5234;0.9563;
650.4000;0.5226;0.9613;
650.7000;0.5226;0.9637;
651.0000;0.5234;0.9637;
651.3000;0.5234;0.9687;
651.6000;0.5177;0.9588;
651.9000;0.5161;0.9613;
652.2000;0.5242;0.9837;
652.5000;0.5218;0.9837;
652.8000;0.5226;0.9837;
653.1000;0.5201;0.9687;
653.4000;0.5177;0.9787;
653.7000;0.5201;0.9837;
654.0000;0.5169;0.9662;
654.3000;0.5088;0.9438;
654.6000;0.5185;0.9662;
654.9000;0.5153;0.9613;
655.2000;0.5177;0.9637;
655.5000;0.5177;0.9563;
655.8000;0.5169;0.9712;
656.1000;0.5144;0.9787;
656.4000;0.5169;0.9886;
656.7000;0.5169;0.9837;
657.0000;0.5144;0.9712;
657.3000;0.5128;0.9563;
657.6000;0.5144;0.9513;
657.9000;0.5177;0.9513;
658.2000;0.5153;0.9388;
658.5000;0.5161;0.9513;
658.8000;0.5153;0.9438;
659.1000;0.5161;0.9538;
659.4000;0.5128;0.9513;
659.7000;0.5144;0.9588;
660.0000;0.5136;0.9563;
660.3000;0.5136;0.9588;
660.6000;0.5136;0.9637;
660.9000;0.5128;0.9637;
661.2000;0.5120;0.9563;
661.5000;0.5112;0.9538;
661.8000;0.5136;0.9563;
662.1000;0.5120;0.9488;
662.4000;0.5104;0.9513;
662.7000;0.5120;0.9488;
663.0000;0.5112;0.9463;
663.3000;0.5104;0.9488;
663.6000;0.5071;0.9314;
663.9000;0.5079;0.9463;
664.2000;0.5071;0.9538;
664.5000;0.5096;0.9538;
664.8000;0.5014;0.9314;
665.1000;0.4974;0.9114;
665.4000;0.5063;0.9388;
665.7000;0.5039;0.9264;
666.0000;0.4998;0.9189;
666.3000;0.5031;0.9339;
666.6000;0.5055;0.9388;
666.9000;0.5063;0.9438;
667.2000;0.5112;0.9613;
667.5000;0.5063;0.9513;
667.8000;0.5079;0.9563;
668.1000;0.5063;0.9513;
668.4000;0.5112;0.9588;
668.7000;0.5055;0.9588;
669.0000;0.5055;0.9737;
669.3000;0.5071;0.9837;
669.6000;0.5047;0.9687;
669.9000;0.5047;0.9687;
670.2000;0.5063;0.9712;
670.5000;0.4965;0.9339;
670.8000;0.5055;0.9463;
671.1000;0.5022;0.9413;
671.4000;0.5047;0.9463;
671.7000;0.5039;0.9364;
672.0000;0.5063;0.9513;
672.3000;0.5047;0.9513;
672.6000;0.5055;0.9613;
672.9000;0.5047;0.9637;
673.2000;0.5039;0.9662;
673.5000;0.4982;0.9563;
673.8000;0.5006;0.9538;
674.1000;0.5039;0.9613;
674.4000;0.5014;0.9538;
674.7000;0.5039;0.9588;
675.0000;0.5022;0.9588;
675.3000;0.5039;0.9637;
675.6000;0.5022;0.9613;
675.9000;0.5014;0.9563;
676.2000;0.4998;0.9463;
676.5000;0.5006;0.9488;
676.8000;0.5006;0.9513;
677.1000;0.5014;0.9563;
677.4000;0.5014;0.9662;
677.7000;0.4990;0.9637;
678.0000;0.4998;0.9563;
678.3000;0.4933;0.9364;
678.6000;0.4990;0.9637;
678.9000;0.4998;0.9538;
679.2000;0.5014;0.9637;
679.5000;0.5031;0.9687;
679.8000;0.4982;0.9588;
680.1000;0.5014;0.9637;
680.4000;0.4974;0.9637;
680.7000;0.5006;0.9687;
681.0000;0.4998;0.9662;
681.3000;0.4908;0.9413;
681.6000;0.5014;0.9687;
681.9000;0.4990;0.9687;
682.2000;0.5022;0.9737;
682.5000;0.4990;0.9662;
682.8000;0.4982;0.9637;
683.1000;0.5014;0.9662;
683.4000;0.4990;0.9637;
683.7000;0.4982;0.9588;
684.0000;0.4982;0.9563;
684.3000;0.5039;0.9787;
684.6000;0.4974;0.9637;
684.9000;0.4982;0.9737;
685.2000;0.4965;0.9712;
685.5000;0.4965;0.9687;
685.8000;0.4982;0.9712;
686.1000;0.4965;0.9737;
686.4000;0.4965;0.9837;
686.7000;0.4982;0.9837;
687.0000;0.4990;0.9812;
687.3000;0.4974;0.9712;
687.6000;0.4957;0.9637;
687.9000;0.4957;0.9563;
688.2000;0.5014;0.9687;
688.5000;0.4949;0.9538;
688.8000;0.4957;0.9637;
689.1000;0.4965;0.9662;
689.4000;0.4941;0.9613;
689.7000;0.4949;0.9613;
690.0000;0.4957;0.9613;
690.3000;0.4957;0.9588;
690.6000;0.4974;0.9563;
690.9000;0.4957;0.9538;
691.2000;0.4949;0.9613;
691.5000;0.4949;0.9563;
691.8000;0.4941;0.9637;
692.1000;0.4990;0.9762;
692.4000;0.4941;0.9662;
692.7000;0.4933;0.9637;
693.0000;0.4949;0.9563;
693.3000;0.4925;0.9488;
693.6000;0.4949;0.9637;
693.9000;0.4933;0.9637;
694.2000;0.4908;0.9588;
694.5000;0.4941;0.9637;
694.8000;0.4933;0.9613;
695.1000;0.4941;0.9637;
695.4000;0.4933;0.9662;
695.7000;0.4917;0.9687;
696.0000;0.4908;0.9662;
696.3000;0.4925;0.9712;
696.6000;0.4917;0.9662;
696.9000;0.4843;0.9388;
697.2000;0.4917;0.9563;
697.5000;0.4925;0.9662;
697.8000;0.4892;0.9762;
698.1000;0.4908;0.9862;
698.4000;0.4933;0.9936;
698.7000;0.4884;0.9812;
699.0000;0.4917;0.9812;
699.3000;0.4876;0.9712;
699.6000;0.4900;0.9787;
699.9000;0.4892;0.9787;
700.2000;0.4884;0.9812;
700.5000;0.4876;0.9787;
700.8000;0.4868;0.9712;
701.1000;0.4908;0.9837;
701.4000;0.4884;0.9762;
701.7000;0.4892;0.9712;
702.0000;0.4892;0.9687;
702.3000;0.4892;0.9712;
702.6000;0.4908;0.9762;
702.9000;0.4892;0.9712;
703.2000;0.4884;0.9687;
703.5000;0.4892;0.9787;
703.8000;0.4900;0.9812;
704.1000;0.4908;0.9737;
704.4000;0.4892;0.9613;
704.7000;0.4892;0.9637;
705.0000;0.4892;0.9588;
705.3000;0.4843;0.9513;
705.6000;0.4884;0.9637;
705.9000;0.4876;0.9687;
706.2000;0.4892;0.9837;
706.5000;0.4868;0.9787;
706.8000;0.4884;0.9687;
707.1000;0.4876;0.9712;
707.4000;0.4982;0.9986;
707.7000;0.4876;0.9787;
708.0000;0.4876;0.9787;
708.3000;0.4925;0.9961;
708.6000;0.4803;0.9588;
708.9000;0.4868;0.9787;
709.2000;0.4860;0.9862;
709.5000;0.4876;0.9837;
709.8000;0.4876;0.9886;
710.1000;0.4876;0.9886;
710.4000;0.4876;0.9936;
710.7000;0.4851;0.9787;
711.0000;0.4851;0.9712;
711.3000;0.4900;0.9787;
711.6000;0.4868;0.9687;
711.9000;0.4851;0.9563;
712.2000;0.4876;0.9662;
712.5000;0.4868;0.9588;
712.8000;0.4892;0.9588;
713.1000;0.4876;0.9563;
713.4000;0.4876;0.9588;
713.7000;0.4868;0.9662;
714.0000;0.4868;0.9637;
714.3000;0.4860;0.9613;
714.6000;0.4900;0.9687;
714.9000;0.4868;0.9613;
715.2000;0.4860;0.9637;
715.5000;0.4843;0.9637;
715.8000;0.4835;0.9563;
716.1000;0.4843;0.9488;
716.4000;0.4827;0.9438;
716.7000;0.4851;0.9513;
717.0000;0.4851;0.9488;
717.3000;0.4900;0.9637;
717.6000;0.4843;0.9538;
717.9000;0.4851;0.9687;
718.2000;0.4843;0.9662;
718.5000;0.4835;0.9563;
718.8000;0.4843;0.9613;
719.1000;0.4860;0.9563;
719.4000;0.4843;0.9588;
719.7000;0.4835;0.9538;
720.0000;0.4827;0.9463;
720.3000;0.4851;0.9463;
720.6000;0.4843;0.9488;
720.9000;0.4835;0.9563;
721.2000;0.4778;0.9314;
721.5000;0.4860;0.9637;
721.8000;0.4843;0.9588;
722.1000;0.4770;0.9388;
722.4000;0.4843;0.9662;
722.7000;0.4851;0.9737;
723.0000;0.4762;0.9513;
723.3000;0.4884;0.9812;
723.6000;0.4835;0.9712;
723.9000;0.4827;0.9563;
724.2000;0.4843;0.9637;
724.5000;0.4843;0.9712;
724.8000;0.4827;0.9712;
725.1000;0.4835;0.9737;
725.4000;0.4770;0.9637;
725.7000;0.4811;0.9737;
726.0000;0.4819;0.9787;
726.3000;0.4876;0.9911;
726.6000;0.4827;0.9862;
726.9000;0.4827;0.9812;
727.2000;0.4827;0.9762;
727.5000;0.4827;0.9762;
727.8000;0.4835;0.9712;
728.1000;0.4827;0.9588;
728.4000;0.4835;0.9637;
728.7000;0.4819;0.9613;
729.0000;0.4827;0.9662;
729.3000;0.4843;0.9787;
729.6000;0.4819;0.9787;
729.9000;0.4835;0.9862;
730.2000;0.4819;0.9837;
730.5000;0.4860;0.9986;
730.8000;0.4811;0.9837;
731.1000;0.4819;0.9961;
731.4000;0.4819;0.9936;
731.7000;0.4835;0.9961;
732.0000;0.4803;0.9837;
732.3000;0.4778;0.9712;
732.6000;0.4794;0.9762;
732.9000;0.4811;0.9787;
733.2000;0.4794;0.9762;
733.5000;0.4803;0.9687;
733.8000;0.4794;0.9762;
734.1000;0.4794;0.9837;
734.4000;0.4803;0.9837;
734.7000;0.4794;0.9886;
735.0000;0.4803;0.9862;
735.3000;0.4778;0.9812;
735.6000;0.4803;0.9812;
735.9000;0.4811;0.9737;
736.2000;0.4786;0.9687;
736.5000;0.4803;0.9762;
736.8000;0.4819;0.9812;
737.1000;0.4794;0.9737;
737.4000;0.4778;0.9787;
737.7000;0.4827;0.9961;
738.0000;0.4827;0.9936;
738.3000;0.4819;0.9986;
738.6000;0.4860;1.0160;
738.9000;0.4794;1.0036;
739.2000;0.4827;1.0111;
739.5000;0.4803;1.0036;
739.8000;0.4811;0.9986;
740.1000;0.4794;0.9961;
740.4000;0.4827;1.0036;
740.7000;0.4803;0.9961;
741.0000;0.4819;1.0011;
741.3000;0.4794;0.9986;
741.6000;0.4754;0.9812;
741.9000;0.4827;0.9961;
742.2000;0.4778;0.9886;
742.5000;0.4794;0.9961;
742.8000;0.4811;1.0061;
743.1000;0.4851;1.0036;
743.4000;0.4811;0.9886;
743.7000;0.4794;0.9862;
744.0000;0.4827;0.9837;
744.3000;0.4754;0.9637;
744.6000;0.4794;0.9687;
744.9000;0.4770;0.9737;
745.2000;0.4794;0.9812;
745.5000;0.4778;0.9762;
745.8000;0.4754;0.9712;
746.1000;0.4860;1.0011;
746.4000;0.4721;0.9837;
746.7000;0.4786;1.0086;
747.0000;0.4803;0.9936;
747.3000;0.4778;0.9911;
747.6000;0.4811;1.0036;
747.9000;0.4786;0.9886;
748.2000;0.4803;0.9911;
748.5000;0.4794;0.9886;
748.8000;0.4786;0.9862;
749.1000;0.4778;0.9911;
749.4000;0.4746;0.9787;
749.7000;0.4811;0.9986;
750.0000;0.4803;0.9911;
750.3000;0.4778;0.9936;
750.6000;0.4778;1.0011;
750.9000;0.4786;0.9986;
751.2000;0.4794;1.0086;
751.5000;0.4770;1.0061;
751.8000;0.4762;1.0086;
752.1000;0.4786;1.0061;
752.4000;0.4770;1.0011;
752.7000;0.4754;1.0036;
753.0000;0.4770;1.0061;
753.3000;0.4794;1.0061;
753.6000;0.4762;0.9986;
753.9000;0.4778;0.9961;
754.2000;0.4778;1.0061;
754.5000;0.4778;1.0036;
754.8000;0.4770;1.0136;
755.1000;0.4754;1.0061;
755.4000;0.4754;1.0011;
755.7000;0.4770;0.9961;
756.0000;0.4770;0.9961;
756.3000;0.4770;0.9961;
756.6000;0.4770;1.0036;
756.9000;0.4770;1.0086;
757.2000;0.4786;1.0061;
757.5000;0.4729;0.9886;
757.8000;0.4778;0.9986;
758.1000;0.4803;0.9986;
758.4000;0.4762;0.9961;
758.7000;0.4762;0.9961;
759.0000;0.4778;0.9961;
759.3000;0.4754;1.0036;
759.6000;0.4770;1.0160;
759.9000;0.4786;1.0160;
760.2000;0.4778;1.0136;
760.5000;0.4778;1.0086;
760.8000;0.4770;1.0061;
761.1000;0.4778;1.0036;
761.4000;0.4754;1.0061;
761.7000;0.4778;1.0111;
762.0000;0.4762;1.0036;
762.3000;0.4835;1.0111;
762.6000;0.4729;0.9812;
762.9000;0.4754;0.9862;
763.2000;0.4778;0.9936;
763.5000;0.4778;0.9936;
763.8000;0.4754;0.9936;
764.1000;0.4754;0.9961;
764.4000;0.4754;0.9886;
764.7000;0.4770;0.9886;
765.0000;0.4762;0.9837;
765.3000;0.4746;0.9737;
765.6000;0.4746;0.9787;
765.9000;0.4681;0.9613;
766.2000;0.4762;0.9837;
766.5000;0.4754;0.9886;
766.8000;0.4754;0.9886;
767.1000;0.4721;0.9961;
767.4000;0.4737;1.0061;
767.7000;0.4737;1.0036;
768.0000;0.4729;1.0036;
768.3000;0.4762;1.0036;
768.6000;0.4754;1.0061;
768.9000;0.4762;1.0036;
769.2000;0.4770;1.0036;
769.5000;0.4737;0.9862;
769.8000;0.4762;0.9986;
770.1000;0.4770;0.9936;
770.4000;0.4697;0.9762;
770.7000;0.4737;0.9886;
771.0000;0.4737;0.9862;
771.3000;0.4746;0.9911;
771.6000;0.4737;0.9886;
771.9000;0.4737;0.9936;
772.2000;0.4770;0.9986;
772.5000;0.4746;0.9936;
772.8000;0.4746;1.0011;
773.1000;0.4746;1.0036;
773.4000;0.4794;1.0136;
773.7000;0.4762;1.0061;
774.0000;0.4754;0.9936;
774.3000;0.4754;0.9837;
774.6000;0.4762;0.9812;
774.9000;0.4762;0.9762;
775.2000;0.4746;0.9787;
775.5000;0.4737;0.9712;
775.8000;0.4754;0.9862;
776.1000;0.4737;0.9812;
776.4000;0.4729;0.9812;
776.7000;0.4737;0.9837;
777.0000;0.4729;0.9837;
777.3000;0.4737;0.9886;
777.6000;0.4713;0.9986;
777.9000;0.4721;0.9936;
778.2000;0.4721;0.9886;
778.5000;0.4737;0.9936;
778.8000;0.4754;1.0011;
779.1000;0.4746;0.9911;
779.4000;0.4681;0.9687;
779.7000;0.4737;0.9911;
780.0000;0.4737;0.9886;
780.3000;0.4746;0.9961;
780.6000;0.4737;0.9886;
780.9000;0.4737;0.9961;
781.2000;0.4803;1.0136;
781.5000;0.4689;0.9886;
781.8000;0.4721;0.9911;
782.1000;0.4762;1.0061;
782.4000;0.4746;0.9936;
782.7000;0.4746;0.9862;
783.0000;0.4729;0.9837;
783.3000;0.4689;0.9712;
783.6000;0.4729;0.9787;
783.9000;0.4746;0.9837;
784.2000;0.4762;0.9862;
784.5000;0.4721;0.9762;
784.8000;0.4729;0.9737;
785.1000;0.4737;0.9712;
785.4000;0.4713;0.9737;
785.7000;0.4713;0.9812;
786.0000;0.4721;0.9886;
786.3000;0.4705;0.9787;
786.6000;0.4697;0.9762;
786.9000;0.4705;0.9886;
787.2000;0.4713;0.9862;
787.5000;0.4737;0.9886;
787.8000;0.4737;0.9862;
788.1000;0.4721;0.9862;
788.4000;0.4746;0.9911;
788.7000;0.4721;0.9911;
789.0000;0.4737;0.9886;
789.3000;0.4729;0.9961;
789.6000;0.4754;0.9986;
789.9000;0.4713;0.9936;
790.2000;0.4737;0.9936;
790.5000;0.4729;0.9936;
790.8000;0.4713;0.9886;
791.1000;0.4729;0.9837;
791.4000;0.4697;0.9762;
791.7000;0.4721;0.9886;
792.0000;0.4697;0.9862;
792.3000;0.4705;0.9936;
792.6000;0.4713;0.9886;
792.9000;0.4713;0.9911;
793.2000;0.4729;0.9936;
793.5000;0.4705;0.9812;
793.8000;0.4713;0.9837;
794.1000;0.4705;0.9862;
794.4000;0.4705;0.9936;
794.7000;0.4705;0.9911;
795.0000;0.4689;0.9862;
795.3000;0.4713;0.9886;
795.6000;0.4705;0.9911;
795.9000;0.4705;0.9837;
796.2000;0.4705;0.9737;
796.5000;0.4713;0.9886;
796.8000;0.4721;0.9961;
797.1000;0.4713;0.9961;
797.4000;0.4689;0.9961;
797.7000;0.4713;1.0011;
798.0000;0.4705;0.9936;
798.3000;0.4705;0.9961;
798.6000;0.4754;1.0136;
798.9000;0.4721;0.9961;
799.2000;0.4721;0.9862;
799.5000;0.4786;1.0061;
799.8000;0.4713;0.9862;
800.1000;0.4729;0.9862;
800.4000;0.4803;1.0136;
800.7000;0.4713;0.9911;
801.0000;0.4697;0.9961;
801.3000;0.4697;0.9986;
801.6000;0.4697;1.0036;
801.9000;0.4705;1.0011;
802.2000;0.4705;1.0036;
802.5000;0.4778;1.0260;
802.8000;0.4713;1.0036;
803.1000;0.4721;1.0011;
803.4000;0.4697;0.9986;
803.7000;0.4762;1.0111;
804.0000;0.4713;0.9862;
804.3000;0.4705;0.9936;
804.6000;0.4689;0.9886;
804.9000;0.4770;1.0136;
805.2000;0.4705;1.0061;
805.5000;0.4721;1.0111;
805.8000;0.4705;1.0061;
806.1000;0.4681;1.0011;
806.4000;0.4705;1.0086;
806.7000;0.4697;1.0111;
807.0000;0.4689;1.0036;
807.3000;0.4672;1.0061;
807.6000;0.4689;1.0061;
807.9000;0.4681;1.0036;
808.2000;0.4705;1.0086;
808.5000;0.4697;1.0061;
808.8000;0.4697;1.0086;
809.1000;0.4689;1.0061;
809.4000;0.4705;1.0011;
809.7000;0.4713;1.0136;
810.0000;0.4705;1.0185;
810.3000;0.4705;1.0210;
810.6000;0.4713;1.0185;
810.9000;0.4713;1.0086;
811.2000;0.4705;1.0061;
811.5000;0.4705;0.9986;
811.8000;0.4705;1.0086;
812.1000;0.4705;1.0061;
812.4000;0.4689;1.0086;
812.7000;0.4689;1.0136;
813.0000;0.4624;1.0011;
813.3000;0.4697;1.0235;
813.6000;0.4697;1.0235;
813.9000;0.4705;1.0086;
814.2000;0.4705;1.0061;
814.5000;0.4689;0.9986;
814.8000;0.4705;1.0011;
815.1000;0.4705;0.9986;
815.4000;0.4705;0.9936;
815.7000;0.4721;0.9862;
816.0000;0.4721;0.9961;
816.3000;0.4672;0.9936;
816.6000;0.4689;0.9936;
816.9000;0.4689;0.9936;
817.2000;0.4689;0.9862;
817.5000;0.4705;0.9787;
817.8000;0.4689;0.9837;
818.1000;0.4681;0.9712;
818.4000;0.4697;0.9812;
818.7000;0.4681;0.9762;
819.0000;0.4681;0.9737;
819.3000;0.4672;0.9712;
819.6000;0.4705;0.9862;
819.9000;0.4713;0.9862;
820.2000;0.4705;0.9911;
820.5000;0.4721;0.9911;
820.8000;0.4705;0.9936;
821.1000;0.4705;0.9911;
821.4000;0.4689;0.9886;
821.7000;0.4705;0.9961;
822.0000;0.4689;0.9911;
822.3000;0.4672;0.9886;
822.6000;0.4697;0.9862;
822.9000;0.4689;0.9787;
823.2000;0.4697;0.9737;
823.5000;0.4705;0.9687;
823.8000;0.4697;0.9637;
824.1000;0.4721;0.9637;
824.4000;0.4705;0.9613;
824.7000;0.4640;0.9413;
825.0000;0.4713;0.9637;
825.3000;0.4681;0.9563;
825.6000;0.4689;0.9563;
825.9000;0.4689;0.9662;
826.2000;0.4681;0.9613;
826.5000;0.4656;0.9513;
826.8000;0.4705;0.9588;
827.1000;0.4681;0.9637;
827.4000;0.4664;0.9613;
827.7000;0.4697;0.9837;
828.0000;0.4681;0.9911;
828.3000;0.4689;0.9812;
828.6000;0.4697;0.9886;
828.9000;0.4746;1.0061;
829.2000;0.4681;0.9886;
829.5000;0.4681;0.9911;
829.8000;0.4697;1.0011;
830.1000;0.4697;0.9961;
830.4000;0.4697;0.9911;
830.7000;0.4689;0.9862;
831.0000;0.4713;0.9961;
831.3000;0.4681;0.9886;
831.6000;0.4672;0.9862;
831.9000;0.4672;0.9862;
832.2000;0.4681;0.9862;
832.5000;0.4664;0.9886;
832.8000;0.4664;0.9961;
833.1000;0.4664;0.9986;
833.4000;0.4672;0.9961;
833.7000;0.4697;0.9961;
834.0000;0.4689;0.9986;
834.3000;0.4681;1.0036;
834.6000;0.4672;1.0036;
834.9000;0.4664;0.9961;
835.2000;0.4697;0.9936;
835.5000;0.4689;0.9961;
835.8000;0.4721;0.9862;
836.1000;0.4681;0.9762;
836.4000;0.4697;0.9812;
836.7000;0.4689;0.9812;
837.0000;0.4648;0.9762;
837.3000;0.4648;0.9837;
837.6000;0.4681;0.9862;
837.9000;0.4664;0.9812;
838.2000;0.4697;0.9837;
838.5000;0.4672;0.9737;
838.8000;0.4681;0.9862;
839.1000;0.4689;0.9837;
839.4000;0.4664;0.9762;
839.7000;0.4689;0.9862;
840.0000;0.4664;0.9837;
840.3000;0.4705;0.9936;
840.6000;0.4672;0.9812;
840.9000;0.4689;0.9787;
841.2000;0.4689;0.9812;
841.5000;0.4713;1.0011;
841.8000;0.4754;1.0260;
842.1000;0.4697;1.0061;
842.4000;0.4664;0.9961;
842.7000;0.4681;1.0061;
843.0000;0.4672;1.0086;
843.3000;0.4656;1.0036;
843.6000;0.4681;1.0011;
843.9000;0.4681;0.9936;
844.2000;0.4681;0.9961;
844.5000;0.4681;1.0011;
844.8000;0.4681;0.9936;
845.1000;0.4689;1.0011;
845.4000;0.4697;1.0061;
845.7000;0.4681;0.9986;
846.0000;0.4672;0.9936;
846.3000;0.4697;1.0011;
846.6000;0.4689;0.9986;
846.9000;0.4681;0.9986;
847.2000;0.4681;1.0011;
847.5000;0.4656;0.9911;
847.8000;0.4729;1.0136;
848.1000;0.4681;0.9986;
848.4000;0.4681;0.9911;
848.7000;0.4640;0.9862;
849.0000;0.4689;1.0036;
849.3000;0.4656;0.9986;
849.6000;0.4664;0.9961;
849.9000;0.4681;1.0011;
850.2000;0.4681;1.0011;
850.5000;0.4607;0.9812;
850.8000;0.4672;0.9936;
851.1000;0.4656;0.9986;
851.4000;0.4697;0.9936;
851.7000;0.4672;0.9862;
852.0000;0.4681;0.9911;
852.3000;0.4648;0.9837;
852.6000;0.4656;0.9961;
852.9000;0.4672;0.9862;
853.2000;0.4737;0.9911;
853.5000;0.4672;0.9787;
853.8000;0.4697;0.9837;
854.1000;0.4640;0.9737;
854.4000;0.4664;0.9787;
854.7000;0.4672;0.9886;
855.0000;0.4689;0.9936;
855.3000;0.4681;1.0036;
855.6000;0.4656;0.9936;
855.9000;0.4656;1.0011;
856.2000;0.4656;1.0061;
856.5000;0.4713;1.0185;
856.8000;0.4681;1.0185;
857.1000;0.4624;1.0061;
857.4000;0.4664;1.0011;
857.7000;0.4664;1.0011;
858.0000;0.4681;1.0036;
858.3000;0.4664;0.9986;
858.6000;0.4656;0.9862;
858.9000;0.4648;0.9886;
859.2000;0.4672;0.9911;
859.5000;0.4672;0.9936;
859.8000;0.4705;1.0036;
860.1000;0.4689;1.0086;
860.4000;0.4697;1.0061;
860.7000;0.4664;0.9961;
861.0000;0.4672;0.9986;
861.3000;0.4689;1.0061;
861.6000;0.4640;1.0036;
861.9000;0.4624;1.0036;
862.2000;0.4648;1.0111;
862.5000;0.4664;1.0111;
862.8000;0.4648;0.9961;
863.1000;0.4632;0.9787;
863.4000;0.4672;0.9936;
863.7000;0.4664;0.9936;
864.0000;0.4672;0.9961;
864.3000;0.4664;0.9986;
864.6000;0.4664;0.9961;
864.9000;0.4664;0.9936;
865.2000;0.4681;1.0011;
865.5000;0.4656;0.9986;
865.8000;0.4705;1.0136;
866.1000;0.4664;1.0036;
866.4000;0.4656;1.0011;
866.7000;0.4640;0.9936;
867.0000;0.4648;1.0011;
867.3000;0.4681;1.0086;
867.6000;0.4664;1.0036;
867.9000;0.4656;1.0111;
868.2000;0.4672;1.0160;
868.5000;0.4656;1.0136;
868.8000;0.4664;1.0136;
869.1000;0.4681;1.0185;
869.4000;0.4664;1.0111;
869.7000;0.4656;1.0011;
870.0000;0.4681;0.9936;
870.3000;0.4656;0.9911;
870.6000;0.4697;0.9961;
870.9000;0.4632;0.9712;
871.2000;0.4656;0.9712;
871.5000;0.4656;0.9737;
871.8000;0.4656;0.9812;
872.1000;0.4640;0.9762;
872.4000;0.4632;0.9687;
872.7000;0.4632;0.9737;
873.0000;0.4672;0.9862;
873.3000;0.4624;0.9662;
873.6000;0.4656;0.9637;
873.9000;0.4672;0.9762;
874.2000;0.4672;0.9837;
874.5000;0.4640;0.9862;
874.8000;0.4664;0.9936;
875.1000;0.4672;0.9911;
875.4000;0.4664;0.9961;
875.7000;0.4672;1.0036;
876.0000;0.4705;0.9961;
876.3000;0.4681;0.9961;
876.6000;0.4681;1.0011;
876.9000;0.4664;1.0011;
877.2000;0.4664;1.0036;
877.5000;0.4656;1.0011;
877.8000;0.4681;1.0011;
878.1000;0.4656;0.9961;
878.4000;0.4689;1.0011;
878.7000;0.4664;0.9936;
879.0000;0.4672;0.9886;
879.3000;0.4672;0.9862;
879.6000;0.4648;0.9886;
879.9000;0.4672;0.9911;
880.2000;0.4640;0.9812;
880.5000;0.4664;0.9911;
880.8000;0.4672;0.9862;
881.1000;0.4664;0.9862;
881.4000;0.4664;0.9862;
881.7000;0.4754;1.0160;
882.0000;0.4672;0.9911;
882.3000;0.4656;0.9911;
882.6000;0.4648;0.9837;
882.9000;0.4664;0.9911;
883.2000;0.4656;0.9986;
883.5000;0.4664;1.0011;
883.8000;0.4656;0.9961;
884.1000;0.4640;0.9886;
884.4000;0.4656;0.9961;
884.7000;0.4640;0.9911;
885.0000;0.4664;0.9961;
885.3000;0.4648;0.9961;
885.6000;0.4591;0.9837;
885.9000;0.4672;1.0011;
886.2000;0.4656;1.0011;
886.5000;0.4656;1.0036;
886.8000;0.4656;0.9986;
887.1000;0.4672;1.0011;
887.4000;0.4656;1.0036;
887.7000;0.4632;1.0036;
888.0000;0.4624;1.0111;
888.3000;0.4689;1.0285;
888.6000;0.4632;1.0210;
888.9000;0.4640;1.0210;
889.2000;0.4640;1.0210;
889.5000;0.4672;1.0335;
889.8000;0.4648;1.0360;
890.1000;0.4656;1.0260;
890.4000;0.4640;1.0185;
890.7000;0.4664;1.0185;
891.0000;0.4664;1.0160;
891.3000;0.4648;1.0036;
891.6000;0.4640;1.0036;
891.9000;0.4624;1.0011;
892.2000;0.4681;1.0011;
892.5000;0.4672;0.9936;
892.8000;0.4656;0.9936;
893.1000;0.4664;0.9961;
893.4000;0.4681;0.9961;
893.7000;0.4664;0.9862;
894.0000;0.4681;0.9936;
894.3000;0.4648;0.9837;
894.6000;0.4640;0.9737;
894.9000;0.4656;0.9762;
895.2000;0.4648;0.9712;
895.5000;0.4558;0.9413;
895.8000;0.4640;0.9637;
896.1000;0.4656;0.9737;
896.4000;0.4624;0.9662;
896.7000;0.4721;0.9837;
897.0000;0.4681;0.9762;
897.3000;0.4697;0.9911;
897.6000;0.4656;0.9862;
897.9000;0.4648;0.9862;
898.2000;0.4681;0.9911;
898.5000;0.4648;0.9837;
898.8000;0.4648;0.9886;
899.1000;0.4656;0.9986;
899.4000;0.4656;0.9961;
899.7000;0.4648;0.9886;
900.0000;0.4656;1.0011;
900.3000;0.4656;0.9961;
900.6000;0.4640;0.9911;
900.9000;0.4656;0.9911;
901.2000;0.4648;0.9886;
901.5000;0.4648;0.9886;
901.8000;0.4656;0.9837;
902.1000;0.4632;0.9762;
902.4000;0.4664;0.9886;
902.7000;0.4648;0.9862;
903.0000;0.4648;0.9862;
903.3000;0.4583;0.9687;
903.6000;0.4648;0.9862;
903.9000;0.4656;0.9862;
904.2000;0.4648;0.9787;
904.5000;0.4648;0.9812;
904.8000;0.4656;0.9787;
905.1000;0.4648;0.9812;
905.4000;0.4640;0.9936;
905.7000;0.4640;0.9986;
906.0000;0.4656;0.9961;
906.3000;0.4656;0.9911;
906.6000;0.4648;0.9986;
906.9000;0.4591;0.9837;
907.2000;0.4632;1.0011;
907.5000;0.4664;1.0061;
907.8000;0.4575;0.9737;
908.1000;0.4640;0.9936;
908.4000;0.4648;0.9961;
908.7000;0.4640;0.9886;
909.0000;0.4640;0.9837;
909.3000;0.4624;0.9762;
909.6000;0.4632;0.9862;
909.9000;0.4648;0.9862;
910.2000;0.4583;0.9737;
910.5000;0.4648;1.0011;
910.8000;0.4624;1.0061;
911.1000;0.4632;0.9936;
911.4000;0.4656;0.9936;
911.7000;0.4632;0.9787;
912.0000;0.4640;0.9787;
912.3000;0.4640;0.9837;
912.6000;0.4648;0.9862;
912.9000;0.4632;0.9787;
913.2000;0.4615;0.9762;
913.5000;0.4640;0.9837;
913.8000;0.4656;0.9787;
914.1000;0.4648;0.9737;
914.4000;0.4648;0.9712;
914.7000;0.4664;0.9787;
915.0000;0.4656;0.9787;
915.3000;0.4640;0.9787;
915.6000;0.4640;0.9787;
915.9000;0.4632;0.9862;
916.2000;0.4632;0.9862;
916.5000;0.4648;0.9837;
916.8000;0.4664;0.9886;
917.1000;0.4640;0.9911;
917.4000;0.4640;0.9862;
917.7000;0.4640;0.9862;
918.0000;0.4632;0.9637;
918.3000;0.4681;0.9911;
918.6000;0.4640;0.9812;
918.9000;0.4656;0.9787;
919.2000;0.4648;0.9737;
919.5000;0.4599;0.9563;
919.8000;0.4729;0.9911;
920.1000;0.4681;0.9886;
920.4000;0.4648;0.9862;
920.7000;0.4632;0.9812;
921.0000;0.4632;0.9737;
921.3000;0.4632;0.9687;
921.6000;0.4648;0.9886;
921.9000;0.4640;0.9911;
922.2000;0.4640;0.9837;
922.5000;0.4648;0.9862;
922.8000;0.4648;0.9936;
923.1000;0.4640;0.9886;
923.4000;0.4656;0.9961;
923.7000;0.4632;0.9886;
924.0000;0.4656;0.9986;
924.3000;0.4648;0.9936;
924.6000;0.4664;0.9911;
924.9000;0.4632;0.9862;
925.2000;0.4648;0.9911;
925.5000;0.4640;0.9862;
925.8000;0.4615;0.9787;
926.1000;0.4640;0.9886;
926.4000;0.4640;0.9837;
926.7000;0.4632;0.9862;
927.0000;0.4640;0.9787;
927.3000;0.4697;0.9911;
927.6000;0.4664;0.9812;
927.9000;0.4648;0.9837;
928.2000;0.4664;0.9886;
928.5000;0.4656;0.9837;
928.8000;0.4656;0.9762;
929.1000;0.4591;0.9662;
929.4000;0.4632;0.9737;
929.7000;0.4648;0.9837;
930.0000;0.4640;0.9837;
930.3000;0.4664;0.9911;
930.6000;0.4664;0.9961;
930.9000;0.4632;0.9986;
931.2000;0.4607;0.9961;
931.5000;0.4640;1.0036;
931.8000;0.4648;1.0011;
932.1000;0.4656;0.9986;
932.4000;0.4746;1.0235;
932.7000;0.4648;1.0011;
933.0000;0.4640;1.0011;
933.3000;0.4640;0.9936;
933.6000;0.4624;0.9812;
933.9000;0.4640;0.9936;
934.2000;0.4640;1.0011;
934.5000;0.4656;1.0036;
934.8000;0.4640;0.9886;
935.1000;0.4648;0.9862;
935.4000;0.4640;0.9862;
935.7000;0.4640;0.9886;
936.0000;0.4624;0.9837;
936.3000;0.4640;0.9862;
936.6000;0.4648;0.9862;
936.9000;0.4648;0.9837;
937.2000;0.4648;0.9886;
937.5000;0.4632;0.9936;
937.8000;0.4632;0.9862;
938.1000;0.4648;0.9911;
938.4000;0.4648;0.9762;
938.7000;0.4615;0.9712;
939.0000;0.4656;0.9862;
939.3000;0.4648;0.9911;
939.6000;0.4624;0.9886;
939.9000;0.4640;0.9961;
940.2000;0.4640;0.9911;
940.5000;0.4672;1.0061;
940.8000;0.4664;1.0036;
941.1000;0.4656;1.0011;
941.4000;0.4656;0.9986;
941.7000;0.4575;0.9886;
942.0000;0.4648;1.0086;
942.3000;0.4640;1.0036;
942.6000;0.4510;0.9687;
942.9000;0.4648;1.0011;
943.2000;0.4656;0.9911;
943.5000;0.4632;0.9787;
943.8000;0.4632;0.9762;
944.1000;0.4640;0.9762;
944.4000;0.4656;0.9787;
944.7000;0.4681;0.9911;
945.0000;0.4558;0.9613;
945.3000;0.4640;0.9812;
945.6000;0.4640;0.9712;
945.9000;0.4648;0.9762;
946.2000;0.4664;0.9886;
946.5000;0.4640;0.9886;
946.8000;0.4648;0.9936;
947.1000;0.4615;0.9837;
947.4000;0.4648;0.9886;
947.7000;0.4648;0.9787;
948.0000;0.4632;0.9712;
948.3000;0.4656;0.9862;
948.6000;0.4648;0.9936;
948.9000;0.4640;1.0036;
949.2000;0.4656;1.0086;
949.5000;0.4640;1.0061;
949.8000;0.4648;1.0111;
950.1000;0.4615;0.9961;
950.4000;0.4624;0.9911;
950.7000;0.4656;1.0011;
951.0000;0.4648;0.9862;
951.3000;0.4656;0.9837;
951.6000;0.4632;0.9837;
951.9000;0.4648;0.9961;
952.2000;0.4648;0.9961;
952.5000;0.4640;0.9936;
952.8000;0.4648;0.9911;
953.1000;0.4575;0.9662;
953.4000;0.4648;0.9837;
953.7000;0.4640;0.9911;
954.0000;0.4624;0.9886;
954.3000;0.4615;0.9886;
954.6000;0.4624;0.9911;
954.9000;0.4648;0.9886;
955.2000;0.4632;0.9762;
955.5000;0.4632;0.9787;
955.8000;0.4648;0.9762;
956.1000;0.4632;0.9637;
956.4000;0.4640;0.9662;
956.7000;0.4648;0.9662;
957.0000;0.4648;0.9687;
957.3000;0.4607;0.9563;
957.6000;0.4640;0.9662;
957.9000;0.4640;0.9687;
958.2000;0.4648;0.9762;
958.5000;0.4648;0.9812;
958.8000;0.4624;0.9762;
959.1000;0.4640;0.9837;
959.4000;0.4632;0.9787;
959.7000;0.4624;0.9762;
960.0000;0.4640;0.9812;
960.3000;0.4632;0.9886;
960.6000;0.4640;0.9886;
960.9000;0.4632;0.9886;
961.2000;0.4624;0.9812;
961.5000;0.4656;0.9862;
961.8000;0.4632;0.9687;
962.1000;0.4640;0.9787;
962.4000;0.4632;0.9812;
962.7000;0.4615;0.9787;
963.0000;0.4624;0.9712;
963.3000;0.4615;0.9712;
963.6000;0.4624;0.9837;
963.9000;0.4624;0.9862;
964.2000;0.4624;0.9961;
964.5000;0.4607;0.9911;
964.8000;0.4632;0.9936;
965.1000;0.4632;0.9862;
965.4000;0.4640;0.9837;
965.7000;0.4640;0.9762;
966.0000;0.4632;0.9737;
966.3000;0.4640;0.9837;
966.6000;0.4624;0.9961;
966.9000;0.4640;1.0011;
967.2000;0.4648;1.0011;
967.5000;0.4624;0.9961;
967.8000;0.4640;0.9911;
968.1000;0.4640;0.9936;
968.4000;0.4632;0.9886;
968.7000;0.4632;0.9911;
969.0000;0.4624;0.9936;
969.3000;0.4648;0.9886;
969.6000;0.4640;0.9862;
969.9000;0.4640;0.9986;
970.2000;0.4640;1.0011;
970.5000;0.4632;1.0011;
970.8000;0.4632;1.0061;
971.1000;0.4689;1.0235;
971.4000;0.4648;1.0160;
971.7000;0.4648;1.0111;
972.0000;0.4624;1.0036;
972.3000;0.4648;1.0111;
972.6000;0.4656;1.0086;
972.9000;0.4648;1.0011;
973.2000;0.4640;1.0061;
973.5000;0.4632;1.0111;
973.8000;0.4632;1.0061;
974.1000;0.4632;0.9961;
974.4000;0.4632;0.9986;
974.7000;0.4624;0.9911;
975.0000;0.4632;0.9986;
975.3000;0.4648;1.0011;
975.6000;0.4632;0.9961;
975.9000;0.4648;0.9986;
976.2000;0.4632;0.9936;
976.5000;0.4632;0.9936;
976.8000;0.4632;0.9961;
977.1000;0.4632;0.9936;
977.4000;0.4615;0.9936;
977.7000;0.4640;0.9986;
978.0000;0.4648;0.9961;
978.3000;0.4632;0.9936;
978.6000;0.4632;1.0036;
978.9000;0.4575;0.9911;
979.2000;0.4672;1.0136;
979.5000;0.4664;1.0136;
979.8000;0.4640;1.0061;
980.1000;0.4624;1.0086;
980.4000;0.4632;0.9986;
980.7000;0.4624;0.9961;
981.0000;0.4664;1.0011;
981.3000;0.4656;0.9986;
981.6000;0.4640;0.9886;
981.9000;0.4656;0.9837;
982.2000;0.4648;0.9862;
982.5000;0.4656;0.9961;
982.8000;0.4648;0.9961;
983.1000;0.4648;1.0061;
983.4000;0.4615;1.0011;
983.7000;0.4632;1.0036;
984.0000;0.4648;0.9986;
984.3000;0.4624;0.9936;
984.6000;0.4632;0.9911;
984.9000;0.4648;1.0036;
985.2000;0.4632;0.9936;
985.5000;0.4624;0.9961;
985.8000;0.4632;1.0011;
986.1000;0.4632;1.0036;
986.4000;0.4640;1.0036;
986.7000;0.4640;1.0036;
987.0000;0.4648;1.0011;
987.3000;0.4640;0.9961;
987.6000;0.4632;0.9911;
987.9000;0.4632;1.0036;
988.2000;0.4624;1.0111;
988.5000;0.4599;1.0086;
988.8000;0.4632;1.0086;
989.1000;0.4607;0.9961;
989.4000;0.4624;0.9986;
989.7000;0.4624;0.9986;
990.0000;0.4567;0.9886;
990.3000;0.4705;1.0210;
990.6000;0.4632;1.0061;
990.9000;0.4542;0.9911;
991.2000;0.4558;0.9986;
991.5000;0.4632;1.0235;
991.8000;0.4599;1.0061;
992.1000;0.4656;1.0260;
992.4000;0.4624;1.0136;
992.7000;0.4640;1.0235;
993.0000;0.4632;1.0285;
993.3000;0.4615;1.0210;
993.6000;0.4632;1.0260;
993.9000;0.4632;1.0235;
994.2000;0.4640;1.0185;
994.5000;0.4640;1.0210;
994.8000;0.4640;1.0185;
995.1000;0.4640;1.0136;
995.4000;0.4640;1.0185;
995.7000;0.4681;1.0285;
996.0000;0.4640;1.0185;
996.3000;0.4615;1.0086;
996.6000;0.4648;1.0310;
996.9000;0.4656;1.0360;
997.2000;0.4640;1.0235;
997.5000;0.4640;1.0185;
997.8000;0.4648;1.0235;
998.1000;0.4648;1.0285;
998.4000;0.4648;1.0235;
998.7000;0.4640;1.0235;
999.0000;0.4648;1.0285;
999.3000;0.4632;1.0210;
999.6000;0.4640;1.0285;
999.9000;0.4632;1.0235;
1000.2000;0.4615;1.0285;
1000.5000;0.4656;1.0335;
1000.8000;0.4632;1.0285;
1001.1000;0.4632;1.0235;
1001.4000;0.4632;1.0160;
1001.7000;0.4640;1.0111;
1002.0000;0.4624;0.9986;
1002.3000;0.4656;1.0111;
1002.6000;0.4648;1.0235;
1002.9000;0.4648;1.0160;
1003.2000;0.4632;1.0111;
1003.5000;0.4648;1.0185;
1003.8000;0.4648;1.0136;
1004.1000;0.4624;1.0036;
1004.4000;0.4632;1.0086;
1004.7000;0.4632;1.0036;
1005.0000;0.4624;1.0011;
1005.3000;0.4681;1.0185;
1005.6000;0.4624;0.9986;
1005.9000;0.4607;0.9837;
1006.2000;0.4640;0.9986;
1006.5000;0.4632;0.9961;
1006.8000;0.4648;0.9986;
1007.1000;0.4632;0.9936;
1007.4000;0.4599;0.9886;
1007.7000;0.4624;0.9986;
1008.0000;0.4624;1.0061;
1008.3000;0.4632;1.0111;
1008.6000;0.4632;1.0036;
1008.9000;0.4624;0.9986;
1009.2000;0.4632;1.0011;
1009.5000;0.4729;1.0310;
1009.8000;0.4599;1.0011;
1010.1000;0.4615;1.0036;
1010.4000;0.4672;1.0160;
1010.7000;0.4640;1.0136;
1011.0000;0.4648;1.0136;
1011.3000;0.4648;1.0136;
1011.6000;0.4632;1.0061;
1011.9000;0.4681;1.0235;
1012.2000;0.4624;1.0086;
1012.5000;0.4681;1.0235;
1012.8000;0.4640;1.0136;
1013.1000;0.4640;1.0160;
1013.4000;0.4672;1.0260;
1013.7000;0.4624;1.0111;
1014.0000;0.4615;1.0111;
1014.3000;0.4632;1.0210;
1014.6000;0.4624;1.0210;
1014.9000;0.4689;1.0335;
1015.2000;0.4624;1.0185;
1015.5000;0.4632;1.0136;
1015.8000;0.4624;1.0160;
1016.1000;0.4534;0.9911;
1016.4000;0.4632;1.0210;
1016.7000;0.4632;1.0235;
1017.0000;0.4640;1.0235;
1017.3000;0.4624;1.0086;
1017.6000;0.4624;1.0086;
1017.9000;0.4624;1.0210;
1018.2000;0.4640;1.0335;
1018.5000;0.4632;1.0235;
1018.8000;0.4624;1.0210;
1019.1000;0.4615;1.0160;
1019.4000;0.4624;1.0260;
1019.7000;0.4624;1.0210;
1020.0000;0.4624;1.0160;
1020.3000;0.4624;1.0136;
1020.6000;0.4624;1.0235;
1020.9000;0.4615;1.0235;
1021.2000;0.4615;1.0136;
1021.5000;0.4632;1.0111;
1021.8000;0.4607;1.0136;
1022.1000;0.4624;1.0185;
1022.4000;0.4615;1.0086;
1022.7000;0.4615;1.0086;
1023.0000;0.4599;1.0036;
1023.3000;0.4640;1.0160;
1023.6000;0.4607;0.9986;
1023.9000;0.4607;1.0011;
1024.2000;0.4648;1.0086;
1024.5000;0.4599;0.9936;
1024.8000;0.4615;0.9886;
1025.1000;0.4624;0.9886;
1025.4000;0.4607;0.9911;
1025.7000;0.4640;0.9936;
1026.0000;0.4672;1.0086;
1026.3000;0.4615;0.9911;
1026.6000;0.4648;0.9936;
1026.9000;0.4615;0.9936;
1027.2000;0.4689;1.0210;
1027.5000;0.4607;1.0036;
1027.8000;0.4632;1.0086;
1028.1000;0.4640;1.0185;
1028.4000;0.4729;1.0509;
1028.7000;0.4632;1.0210;
1029.0000;0.4672;1.0285;
1029.3000;0.4632;1.0160;
1029.6000;0.4599;1.0136;
1029.9000;0.4689;1.0335;
1030.2000;0.4640;1.0136;
1030.5000;0.4591;1.0111;
1030.8000;0.4640;1.0310;
1031.1000;0.4624;1.0285;
1031.4000;0.4615;1.0185;
1031.7000;0.4640;1.0210;
1032.0000;0.4615;1.0111;
1032.3000;0.4624;1.0160;
1032.6000;0.4640;1.0210;
1032.9000;0.4624;1.0136;
1033.2000;0.4632;1.0185;
1033.5000;0.4640;1.0210;
1033.8000;0.4632;1.0210;
1034.1000;0.4624;1.0160;
1034.4000;0.4632;1.0061;
1034.7000;0.4632;1.0086;
1035.0000;0.4624;1.0036;
1035.3000;0.4624;1.0160;
1035.6000;0.4632;1.0185;
1035.9000;0.4632;1.0185;
1036.2000;0.4615;1.0061;
1036.5000;0.4607;1.0036;
1036.8000;0.4615;1.0061;
1037.1000;0.4575;0.9986;
1037.4000;0.4624;1.0185;
1037.7000;0.4624;1.0160;
1038.0000;0.4640;1.0235;
1038.3000;0.4640;1.0285;
1038.6000;0.4697;1.0484;
1038.9000;0.4624;1.0335;
1039.2000;0.4575;1.0235;
1039.5000;0.4624;1.0434;
1039.8000;0.4640;1.0409;
1040.1000;0.4632;1.0235;
1040.4000;0.4632;1.0210;
1040.7000;0.4615;1.0086;
1041.0000;0.4624;1.0160;
1041.3000;0.4640;1.0136;
1041.6000;0.4632;1.0210;
1041.9000;0.4607;1.0260;
1042.2000;0.4648;1.0285;
1042.5000;0.4615;1.0260;
1042.8000;0.4632;1.0285;
1043.1000;0.4542;1.0136;
1043.4000;0.4624;1.0335;
1043.7000;0.4632;1.0260;
1044.0000;0.4615;1.0260;
1044.3000;0.4615;1.0210;
1044.6000;0.4591;1.0136;
1044.9000;0.4615;1.0210;
1045.2000;0.4615;1.0136;
1045.5000;0.4607;1.0160;
1045.8000;0.4632;1.0260;
1046.1000;0.4624;1.0185;
1046.4000;0.4615;1.0210;
1046.7000;0.4607;1.0185;
1047.0000;0.4624;1.0210;
1047.3000;0.4656;1.0434;
1047.6000;0.4640;1.0434;
1047.9000;0.4615;1.0360;
1048.2000;0.4624;1.0360;
1048.5000;0.4624;1.0310;
1048.8000;0.4615;1.0310;
1049.1000;0.4632;1.0235;
1049.4000;0.4624;1.0160;
1049.7000;0.4697;1.0310;
1050.0000;0.4615;1.0185;
1050.3000;0.4607;1.0185;
1050.6000;0.4615;1.0210;
1050.9000;0.4737;1.0459;
1051.2000;0.4632;1.0086;
1051.5000;0.4624;1.0086;
1051.8000;0.4624;1.0111;
1052.1000;0.4615;1.0111;
1052.4000;0.4615;1.0160;
1052.7000;0.4567;0.9986;
1053.0000;0.4624;1.0160;
1053.3000;0.4640;1.0111;
1053.6000;0.4632;1.0111;
1053.9000;0.4615;1.0185;
1054.2000;0.4640;1.0235;
1054.5000;0.4615;1.0160;
1054.8000;0.4599;1.0086;
1055.1000;0.4640;1.0260;
1055.4000;0.4632;1.0310;
1055.7000;0.4567;1.0160;
1056.0000;0.4607;1.0235;
1056.3000;0.4583;1.0235;
1056.6000;0.4607;1.0185;
1056.9000;0.4664;1.0310;
1057.2000;0.4624;1.0210;
1057.5000;0.4632;1.0235;
1057.8000;0.4615;1.0285;
1058.1000;0.4624;1.0260;
1058.4000;0.4615;1.0160;
1058.7000;0.4632;1.0086;
1059.0000;0.4607;1.0111;
1059.3000;0.4632;1.0185;
1059.6000;0.4599;1.0086;
1059.9000;0.4640;1.0210;
1060.2000;0.4656;1.0185;
1060.5000;0.4648;1.0185;
1060.8000;0.4591;0.9986;
1061.1000;0.4648;1.0136;
1061.4000;0.4624;1.0160;
1061.7000;0.4583;0.9961;
1062.0000;0.4607;1.0011;
1062.3000;0.4648;1.0036;
1062.6000;0.4624;0.9986;
1062.9000;0.4672;1.0260;
1063.2000;0.4632;1.0210;
1063.5000;0.4624;1.0185;
1063.8000;0.4615;1.0185;
1064.1000;0.4624;1.0185;
1064.4000;0.4640;1.0185;
1064.7000;0.4705;1.0360;
1065.0000;0.4624;1.0111;
1065.3000;0.4632;1.0061;
1065.6000;0.4615;1.0086;
1065.9000;0.4599;1.0160;
1066.2000;0.4615;1.0235;
1066.5000;0.4624;1.0235;
1066.8000;0.4705;1.0360;
1067.1000;0.4624;1.0185;
1067.4000;0.4615;1.0285;
1067.7000;0.4607;1.0285;
1068.0000;0.4632;1.0434;
1068.3000;0.4697;1.0584;
1068.6000;0.4632;1.0434;
1068.9000;0.4599;1.0360;
1069.2000;0.4624;1.0459;
1069.5000;0.4615;1.0409;
1069.8000;0.4615;1.0360;
1070.1000;0.4624;1.0335;
1070.4000;0.4632;1.0285;
1070.7000;0.4607;1.0235;
1071.0000;0.4615;1.0185;
1071.3000;0.4599;1.0086;
1071.6000;0.4624;1.0185;
1071.9000;0.4713;1.0534;
1072.2000;0.4664;1.0310;
1072.5000;0.4648;1.0335;
1072.8000;0.4632;1.0310;
1073.1000;0.4632;1.0310;
1073.4000;0.4624;1.0409;
1073.7000;0.4615;1.0434;
1074.0000;0.4607;1.0285;
1074.3000;0.4583;1.0285;
1074.6000;0.4624;1.0285;
1074.9000;0.4656;1.0310;
1075.2000;0.4599;1.0086;
1075.5000;0.4632;1.0335;
1075.8000;0.4640;1.0385;
1076.1000;0.4632;1.0385;
1076.4000;0.4624;1.0310;
1076.7000;0.4624;1.0310;
1077.0000;0.4624;1.0210;
1077.3000;0.4607;1.0210;
1077.6000;0.4632;1.0210;
1077.9000;0.4624;1.0310;
1078.2000;0.4624;1.0235;
1078.5000;0.4640;1.0285;
1078.8000;0.4640;1.0360;
1079.1000;0.4624;1.0385;
1079.4000;0.4624;1.0235;
1079.7000;0.4599;1.0160;
1080.0000;0.4640;1.0185;
1080.3000;0.4615;1.0235;
1080.6000;0.4624;1.0235;
1080.9000;0.4615;1.0160;
1081.2000;0.4632;1.0160;
1081.5000;0.4624;1.0111;
1081.8000;0.4624;1.0086;
1082.1000;0.4632;1.0210;
1082.4000;0.4534;1.0036;
1082.7000;0.4624;1.0185;
1083.0000;0.4632;1.0160;
1083.3000;0.4624;1.0136;
1083.6000;0.4664;1.0185;
1083.9000;0.4624;1.0061;
1084.2000;0.4624;1.0011;
1084.5000;0.4624;1.0136;
1084.8000;0.4632;1.0136;
1085.1000;0.4624;1.0111;
1085.4000;0.4599;0.9986;
1085.7000;0.4632;1.0086;
1086.0000;0.4672;1.0210;
1086.3000;0.4624;1.0086;
1086.6000;0.4599;1.0185;
1086.9000;0.4624;1.0210;
1087.2000;0.4632;1.0285;
1087.5000;0.4624;1.0210;
1087.8000;0.4615;1.0185;
1088.1000;0.4607;1.0136;
1088.4000;0.4632;1.0310;
1088.7000;0.4632;1.0285;
1089.0000;0.4624;1.0335;
1089.3000;0.4624;1.0509;
1089.6000;0.4624;1.0534;
1089.9000;0.4632;1.0534;
1090.2000;0.4632;1.0509;
1090.5000;0.4607;1.0484;
1090.8000;0.4624;1.0509;
1091.1000;0.4632;1.0509;
1091.4000;0.4640;1.0534;
1091.7000;0.4615;1.0534;
1092.0000;0.4624;1.0484;
1092.3000;0.4615;1.0285;
1092.6000;0.4624;1.0210;
1092.9000;0.4640;1.0185;
1093.2000;0.4624;1.0210;
1093.5000;0.4624;1.0210;
1093.8000;0.4624;1.0160;
1094.1000;0.4632;1.0160;
1094.4000;0.4632;1.0235;
1094.7000;0.4632;1.0235;
1095.0000;0.4624;1.0160;
1095.3000;0.4607;1.0136;
1095.6000;0.4607;1.0136;
1095.9000;0.4615;1.0136;
1096.2000;0.4615;1.0185;
1096.5000;0.4615;1.0061;
1096.8000;0.4624;0.9986;
1097.1000;0.4607;0.9961;
1097.4000;0.4607;1.0036;
1097.7000;0.4615;1.0036;
1098.0000;0.4591;0.9862;
1098.3000;0.4624;1.0036;
1098.6000;0.4640;1.0160;
1098.9000;0.4575;0.9986;
1099.2000;0.4624;1.0185;
1099.5000;0.4607;1.0185;
1099.8000;0.4632;1.0260;
1100.1000;0.4624;1.0310;
1100.4000;0.4615;1.0160;
1100.7000;0.4624;1.0235;
1101.0000;0.4640;1.0335;
1101.3000;0.4599;1.0260;
1101.6000;0.4599;1.0185;
1101.9000;0.4624;1.0185;
1102.2000;0.4599;1.0061;
1102.5000;0.4624;1.0086;
1102.8000;0.4583;0.9986;
1103.1000;0.4640;1.0111;
1103.4000;0.4672;1.0160;
1103.7000;0.4624;1.0086;
1104.0000;0.4575;1.0061;
1104.3000;0.4640;1.0260;
1104.6000;0.4632;1.0310;
1104.9000;0.4624;1.0210;
1105.2000;0.4615;1.0160;
1105.5000;0.4624;1.0160;
1105.8000;0.4493;0.9812;
1106.1000;0.4624;1.0185;
1106.4000;0.4575;1.0111;
1106.7000;0.4615;1.0235;
1107.0000;0.4640;1.0260;
1107.3000;0.4624;1.0260;
1107.6000;0.4615;1.0285;
1107.9000;0.4607;1.0235;
1108.2000;0.4624;1.0185;
1108.5000;0.4607;1.0111;
1108.8000;0.4615;1.0160;
1109.1000;0.4624;1.0210;
1109.4000;0.4567;1.0111;
1109.7000;0.4640;1.0385;
1110.0000;0.4681;1.0559;
1110.3000;0.4624;1.0459;
1110.6000;0.4615;1.0434;
1110.9000;0.4615;1.0385;
1111.2000;0.4583;1.0285;
1111.5000;0.4624;1.0360;
1111.8000;0.4607;1.0335;
1112.1000;0.4624;1.0360;
1112.4000;0.4615;1.0434;
1112.7000;0.4624;1.0385;
1113.0000;0.4632;1.0385;
1113.3000;0.4632;1.0360;
1113.6000;0.4607;1.0385;
1113.9000;0.4615;1.0335;
1114.2000;0.4632;1.0310;
1114.5000;0.4624;1.0260;
1114.8000;0.4599;1.0210;
1115.1000;0.4607;1.0210;
1115.4000;0.4599;1.0061;
1115.7000;0.4632;1.0036;
1116.0000;0.4615;1.0061;
1116.3000;0.4607;1.0185;
1116.6000;0.4607;1.0185;
1116.9000;0.4615;1.0185;
1117.2000;0.4526;1.0036;
1117.5000;0.4632;1.0335;
1117.8000;0.4640;1.0385;
1118.1000;0.4607;1.0235;
1118.4000;0.4583;1.0160;
1118.7000;0.4615;1.0260;
1119.0000;0.4689;1.0409;
1119.3000;0.4664;1.0409;
1119.6000;0.4599;1.0136;
1119.9000;0.4615;1.0210;
1120.2000;0.4624;1.0210;
1120.5000;0.4607;1.0160;
1120.8000;0.4607;1.0136;
1121.1000;0.4624;1.0160;
1121.4000;0.4615;1.0185;
1121.7000;0.4591;1.0111;
1122.0000;0.4648;1.0235;
1122.3000;0.4558;0.9986;
1122.6000;0.4607;1.0136;
1122.9000;0.4640;1.0260;
1123.2000;0.4599;1.0210;
1123.5000;0.4599;1.0260;
1123.8000;0.4640;1.0409;
1124.1000;0.4624;1.0434;
1124.4000;0.4615;1.0360;
1124.7000;0.4615;1.0409;
1125.0000;0.4705;1.0559;
1125.3000;0.4624;1.0260;
1125.6000;0.4632;1.0335;
1125.9000;0.4648;1.0409;
1126.2000;0.4624;1.0335;
1126.5000;0.4615;1.0385;
1126.8000;0.4648;1.0509;
1127.1000;0.4607;1.0409;
1127.4000;0.4599;1.0335;
1127.7000;0.4599;1.0360;
1128.0000;0.4591;1.0235;
1128.3000;0.4615;1.0335;
1128.6000;0.4624;1.0260;
1128.9000;0.4632;1.0210;
1129.2000;0.4624;1.0160;
1129.5000;0.4632;1.0210;
1129.8000;0.4648;1.0285;
1130.1000;0.4632;1.0185;
1130.4000;0.4632;1.0210;
1130.7000;0.4607;1.0210;
1131.0000;0.4615;1.0235;
1131.3000;0.4591;1.0160;
1131.6000;0.4615;1.0235;
1131.9000;0.4624;1.0185;
1132.2000;0.4624;1.0136;
1132.5000;0.4615;1.0185;
1132.8000;0.4624;1.0285;
1133.1000;0.4640;1.0185;
1133.4000;0.4632;1.0185;
1133.7000;0.4615;1.0185;
1134.0000;0.4640;1.0285;
1134.3000;0.4648;1.0235;
1134.6000;0.4640;1.0160;
1134.9000;0.4624;1.0111;
1135.2000;0.4615;1.0111;
1135.5000;0.4624;1.0185;
1135.8000;0.4615;1.0136;
1136.1000;0.4615;1.0036;
1136.4000;0.4624;1.0185;
1136.7000;0.4624;1.0111;
1137.0000;0.4624;1.0036;
1137.3000;0.4607;1.0061;
1137.6000;0.4615;1.0160;
1137.9000;0.4624;1.0061;
1138.2000;0.4615;1.0136;
1138.5000;0.4615;1.0111;
1138.8000;0.4640;1.0061;
1139.1000;0.4632;1.0111;
1139.4000;0.4624;1.0185;
1139.7000;0.4615;1.0160;
1140.0000;0.4624;1.0210;
1140.3000;0.4624;1.0260;
1140.6000;0.4624;1.0210;
1140.9000;0.4624;1.0210;
1141.2000;0.4640;1.0210;
1141.5000;0.4632;1.0310;
1141.8000;0.4615;1.0335;
1142.1000;0.4615;1.0310;
1142.4000;0.4615;1.0310;
1142.7000;0.4615;1.0310;
1143.0000;0.4575;1.0185;
1143.3000;0.4583;1.0310;
1143.6000;0.4607;1.0335;
1143.9000;0.4615;1.0385;
1144.2000;0.4550;1.0185;
1144.5000;0.4550;1.0011;
1144.8000;0.4615;1.0285;
1145.1000;0.4615;1.0285;
1145.4000;0.4607;1.0210;
1145.7000;0.4615;1.0235;
1146.0000;0.4607;1.0210;
1146.3000;0.4615;1.0285;
1146.6000;0.4664;1.0409;
1146.9000;0.4632;1.0285;
1147.2000;0.4624;1.0360;
1147.5000;0.4689;1.0459;
1147.8000;0.4607;1.0285;
1148.1000;0.4624;1.0235;
1148.4000;0.4615;1.0335;
1148.7000;0.4615;1.0235;
1149.0000;0.4632;1.0210;
1149.3000;0.4615;1.0210;
1149.6000;0.4632;1.0385;
1149.9000;0.4624;1.0235;
1150.2000;0.4632;1.0260;
1150.5000;0.4648;1.0310;
1150.8000;0.4624;1.0285;
1151.1000;0.4615;1.0260;
1151.4000;0.4624;1.0260;
1151.7000;0.4615;1.0210;
1152.0000;0.4615;1.0235;
1152.3000;0.4624;1.0235;
1152.6000;0.4664;1.0310;
1152.9000;0.4599;1.0210;
1153.2000;0.4607;1.0285;
1153.5000;0.4615;1.0260;
1153.8000;0.4607;1.0285;
1154.1000;0.4632;1.0360;
1154.4000;0.4615;1.0335;
1154.7000;0.4632;1.0335;
1155.0000;0.4648;1.0409;
1155.3000;0.4624;1.0310;
1155.6000;0.4591;1.0185;
1155.9000;0.4632;1.0310;
1156.2000;0.4640;1.0434;
1156.5000;0.4640;1.0360;
1156.8000;0.4615;1.0335;
1157.1000;0.4615;1.0310;
1157.4000;0.4624;1.0335;
1157.7000;0.4624;1.0260;
1158.0000;0.4599;1.0235;
1158.3000;0.4624;1.0210;
1158.6000;0.4615;1.0160;
1158.9000;0.4624;1.0160;
1159.2000;0.4607;1.0160;
1159.5000;0.4632;1.0210;
1159.8000;0.4615;1.0160;
1160.1000;0.4615;1.0210;
1160.4000;0.4640;1.0285;
1160.7000;0.4624;1.0260;
1161.0000;0.4632;1.0310;
1161.3000;0.4615;1.0160;
1161.6000;0.4575;1.0136;
1161.9000;0.4607;1.0210;
1162.2000;0.4664;1.0310;
1162.5000;0.4632;1.0185;
1162.8000;0.4697;1.0385;
1163.1000;0.4607;1.0136;
1163.4000;0.4607;1.0160;
1163.7000;0.4640;1.0310;
1164.0000;0.4624;1.0235;
1164.3000;0.4624;1.0235;
1164.6000;0.4599;1.0185;
1164.9000;0.4615;1.0160;
1165.2000;0.4615;1.0136;
1165.5000;0.4615;1.0210;
1165.8000;0.4624;1.0210;
1166.1000;0.4624;1.0185;
1166.4000;0.4599;1.0061;
1166.7000;0.4632;1.0086;
1167.0000;0.4624;1.0136;
1167.3000;0.4632;1.0111;
1167.6000;0.4640;1.0185;
1167.9000;0.4632;1.0136;
1168.2000;0.4575;1.0011;
1168.5000;0.4607;1.0086;
1168.8000;0.4672;1.0285;
1169.1000;0.4615;1.0185;
1169.4000;0.4615;1.0136;
1169.7000;0.4607;1.0185;
1170.0000;0.4607;1.0185;
1170.3000;0.4607;1.0235;
1170.6000;0.4591;1.0111;
1170.9000;0.4607;1.0160;
1171.2000;0.4624;1.0111;
1171.5000;0.4615;1.0185;
1171.8000;0.4607;1.0185;
1172.1000;0.4624;1.0210;
1172.4000;0.4632;1.0185;
1172.7000;0.4640;1.0210;
1173.0000;0.4624;1.0260;
1173.3000;0.4624;1.0434;
1173.6000;0.4607;1.0484;
1173.9000;0.4624;1.0609;
1174.2000;0.4615;1.0584;
1174.5000;0.4624;1.0534;
1174.8000;0.4615;1.0509;
1175.1000;0.4607;1.0409;
1175.4000;0.4607;1.0434;
1175.7000;0.4632;1.0409;
1176.0000;0.4607;1.0335;
1176.3000;0.4632;1.0285;
1176.6000;0.4583;1.0185;
1176.9000;0.4632;1.0310;
1177.2000;0.4607;1.0210;
1177.5000;0.4567;1.0111;
1177.8000;0.4624;1.0260;
1178.1000;0.4599;1.0210;
1178.4000;0.4591;1.0160;
1178.7000;0.4591;1.0185;
1179.0000;0.4615;1.0235;
1179.3000;0.4632;1.0360;
1179.6000;0.4615;1.0310;
1179.9000;0.4632;1.0385;
1180.2000;0.4640;1.0310;
1180.5000;0.4615;1.0260;
1180.8000;0.4624;1.0310;
1181.1000;0.4632;1.0409;
1181.4000;0.4648;1.0509;
1181.7000;0.4632;1.0434;
1182.0000;0.4583;1.0285;
1182.3000;0.4632;1.0459;
1182.6000;0.4607;1.0434;
1182.9000;0.4607;1.0385;
1183.2000;0.4607;1.0235;
1183.5000;0.4615;1.0185;
1183.8000;0.4615;1.0160;
1184.1000;0.4640;1.0235;
1184.4000;0.4607;1.0185;
1184.7000;0.4599;1.0160;
1185.0000;0.4615;1.0185;
1185.3000;0.4624;1.0185;
1185.6000;0.4607;1.0160;
1185.9000;0.4607;1.0160;
1186.2000;0.4615;1.0185;
1186.5000;0.4615;1.0136;
1186.8000;0.4607;1.0260;
1187.1000;0.4615;1.0285;
1187.4000;0.4607;1.0260;
1187.7000;0.4632;1.0310;
1188.0000;0.4583;1.0185;
1188.3000;0.4599;1.0210;
1188.6000;0.4599;1.0185;
1188.9000;0.4607;1.0111;
1189.2000;0.4624;1.0185;
1189.5000;0.4607;1.0136;
1189.8000;0.4632;1.0136;
1190.1000;0.4607;1.0086;
1190.4000;0.4624;1.0160;
1190.7000;0.4624;1.0111;
1191.0000;0.4656;1.0285;
1191.3000;0.4615;1.0235;
1191.6000;0.4624;1.0310;
1191.9000;0.4632;1.0360;
1192.2000;0.4615;1.0335;
1192.5000;0.4583;1.0260;
1192.8000;0.4624;1.0335;
1193.1000;0.4632;1.0285;
1193.4000;0.4615;1.0285;
1193.7000;0.4624;1.0310;
1194.0000;0.4640;1.0310;
1194.3000;0.4599;1.0136;
1194.6000;0.4591;1.0036;
1194.9000;0.4607;1.0086;
1195.2000;0.4632;1.0185;
1195.5000;0.4599;1.0136;
1195.8000;0.4591;1.0086;
1196.1000;0.4607;1.0185;
1196.4000;0.4607;1.0235;
1196.7000;0.4632;1.0210;
1197.0000;0.4648;1.0260;
1197.3000;0.4624;1.0160;
1197.6000;0.4624;1.0136;
1197.9000;0.4615;1.0111;
1198.2000;0.4607;1.0111;
1198.5000;0.4640;1.0160;
1198.8000;0.4591;1.0136;
1199.1000;0.4591;1.0136;
1199.4000;0.4624;1.0160;
1199.7000;0.4615;1.0086;
1200.0000;0.4656;1.0185;
1200.3000;0.4656;1.0086;
1200.6000;0.4681;1.0111;
1200.9000;0.4624;0.9862;
1201.2000;0.4599;0.9812;
1201.5000;0.4648;1.0011;
1201.8000;0.4640;0.9986;
1202.1000;0.4656;1.0185;
1202.4000;0.4591;1.0061;
1202.7000;0.4615;1.0086;
1203.0000;0.4632;1.0086;
1203.3000;0.4632;1.0061;
1203.6000;0.4615;1.0036;
1203.9000;0.4632;1.0111;
1204.2000;0.4648;1.0235;
1204.5000;0.4632;1.0185;
1204.8000;0.4624;1.0160;
1205.1000;0.4632;1.0111;
1205.4000;0.4624;1.0036;
1205.7000;0.4615;1.0111;
1206.0000;0.4615;1.0086;
1206.3000;0.4648;1.0260;
1206.6000;0.4624;1.0210;
1206.9000;0.4624;1.0235;
1207.2000;0.4607;1.0160;
1207.5000;0.4607;1.0086;
1207.8000;0.4615;1.0086;
1208.1000;0.4624;1.0136;
1208.4000;0.4632;1.0160;
1208.7000;0.4599;1.0086;
1209.0000;0.4607;1.0086;
1209.3000;0.4615;1.0136;
1209.6000;0.4607;1.0111;
1209.9000;0.4632;1.0136;
1210.2000;0.4615;1.0160;
1210.5000;0.4615;1.0111;
1210.8000;0.4624;1.0136;
1211.1000;0.4607;1.0061;
1211.4000;0.4591;0.9961;
1211.7000;0.4599;1.0036;
1212.0000;0.4624;1.0136;
1212.3000;0.4640;1.0260;
1212.6000;0.4607;1.0136;
1212.9000;0.4615;1.0160;
1213.2000;0.4599;1.0136;
1213.5000;0.4607;1.0061;
1213.8000;0.4591;1.0061;
1214.1000;0.4640;1.0210;
1214.4000;0.4591;1.0061;
1214.7000;0.4599;1.0061;
1215.0000;0.4591;0.9986;
1215.3000;0.4607;1.0111;
1215.6000;0.4624;1.0111;
1215.9000;0.4591;1.0011;
1216.2000;0.4607;1.0086;
1216.5000;0.4583;1.0061;
1216.8000;0.4615;1.0235;
1217.1000;0.4615;1.0310;
1217.4000;0.4615;1.0285;
1217.7000;0.4624;1.0210;
1218.0000;0.4607;1.0185;
1218.3000;0.4640;1.0160;
1218.6000;0.4624;1.0185;
1218.9000;0.4624;1.0160;
1219.2000;0.4599;1.0210;
1219.5000;0.4583;1.0111;
1219.8000;0.4607;1.0160;
1220.1000;0.4599;1.0136;
1220.4000;0.4607;1.0210;
1220.7000;0.4624;1.0235;
1221.0000;0.4632;1.0285;
1221.3000;0.4624;1.0409;
1221.6000;0.4624;1.0310;
1221.9000;0.4615;1.0310;
1222.2000;0.4624;1.0310;
1222.5000;0.4599;1.0210;
1222.8000;0.4550;1.0061;
1223.1000;0.4615;1.0285;
1223.4000;0.4624;1.0285;
1223.7000;0.4607;1.0285;
1224.0000;0.4567;1.0185;
1224.3000;0.4672;1.0409;
1224.6000;0.4656;1.0360;
1224.9000;0.4615;1.0310;
1225.2000;0.4583;1.0260;
1225.5000;0.4615;1.0310;
1225.8000;0.4591;1.0185;
1226.1000;0.4624;1.0310;
1226.4000;0.4632;1.0285;
1226.7000;0.4615;1.0310;
1227.0000;0.4615;1.0335;
1227.3000;0.4615;1.0310;
1227.6000;0.4615;1.0409;
1227.9000;0.4607;1.0434;
1228.2000;0.4599;1.0459;
1228.5000;0.4615;1.0559;
1228.8000;0.4607;1.0484;
1229.1000;0.4583;1.0409;
1229.4000;0.4615;1.0409;
1229.7000;0.4615;1.0385;
1230.0000;0.4624;1.0285;
1230.3000;0.4656;1.0310;
1230.6000;0.4615;1.0310;
1230.9000;0.4624;1.0310;
1231.2000;0.4640;1.0360;
1231.5000;0.4632;1.0409;
1231.8000;0.4632;1.0360;
1232.1000;0.4607;1.0310;
1232.4000;0.4607;1.0210;
1232.7000;0.4615;1.0310;
1233.0000;0.4599;1.0210;
1233.3000;0.4575;1.0210;
1233.6000;0.4607;1.0235;
1233.9000;0.4615;1.0235;
1234.2000;0.4591;1.0111;
1234.5000;0.4615;1.0235;
1234.8000;0.4624;1.0185;
1235.1000;0.4575;1.0136;
1235.4000;0.4575;1.0111;
1235.7000;0.4632;1.0285;
1236.0000;0.4632;1.0310;
1236.3000;0.4615;1.0160;
1236.6000;0.4624;1.0086;
1236.9000;0.4615;1.0111;
1237.2000;0.4632;1.0136;
1237.5000;0.4615;1.0111;
1237.8000;0.4624;1.0160;
1238.1000;0.4558;0.9961;
1238.4000;0.4526;0.9837;
1238.7000;0.4632;1.0136;
1239.0000;0.4632;1.0235;
1239.3000;0.4632;1.0185;
1239.6000;0.4624;1.0210;
1239.9000;0.4591;1.0111;
1240.2000;0.4624;1.0285;
1240.5000;0.4624;1.0235;
1240.8000;0.4624;1.0136;
1241.1000;0.4624;1.0111;
1241.4000;0.4607;1.0111;
1241.7000;0.4599;1.0086;
1242.0000;0.4607;1.0086;
1242.3000;0.4607;1.0111;
1242.6000;0.4599;1.0061;
1242.9000;0.4599;0.9936;
1243.2000;0.4615;0.9911;
1243.5000;0.4607;0.9961;
1243.8000;0.4615;0.9936;
1244.1000;0.4607;0.9886;
1244.4000;0.4615;0.9986;
1244.7000;0.4615;1.0061;
1245.0000;0.4607;1.0036;
1245.3000;0.4599;1.0111;
1245.6000;0.4607;1.0160;
1245.9000;0.4607;1.0210;
1246.2000;0.4615;1.0235;
1246.5000;0.4624;1.0260;
1246.8000;0.4615;1.0136;
1247.1000;0.4624;1.0210;
1247.4000;0.4624;1.0086;
1247.7000;0.4615;1.0111;
1248.0000;0.4624;1.0160;
1248.3000;0.4599;1.0185;
1248.6000;0.4624;1.0160;
1248.9000;0.4599;0.9961;
1249.2000;0.4615;1.0111;
1249.5000;0.4607;1.0136;
1249.8000;0.4656;1.0260;
1250.1000;0.4599;1.0111;
1250.4000;0.4615;1.0210;
1250.7000;0.4607;1.0285;
1251.0000;0.4615;1.0285;
1251.3000;0.4615;1.0111;
1251.6000;0.4632;1.0210;
1251.9000;0.4599;1.0210;
1252.2000;0.4632;1.0260;
1252.5000;0.4615;1.0235;
1252.8000;0.4624;1.0136;
1253.1000;0.4615;1.0185;
1253.4000;0.4615;1.0136;
1253.7000;0.4599;1.0086;
1254.0000;0.4615;1.0136;
1254.3000;0.4599;1.0061;
1254.6000;0.4607;1.0136;
1254.9000;0.4607;1.0285;
1255.2000;0.4632;1.0385;
1255.5000;0.4615;1.0235;
1255.8000;0.4607;1.0185;
1256.1000;0.4599;1.0136;
1256.4000;0.4599;1.0185;
1256.7000;0.4567;1.0086;
1257.0000;0.4607;1.0285;
1257.3000;0.4550;1.0136;
1257.6000;0.4583;1.0210;
1257.9000;0.4632;1.0310;
1258.2000;0.4599;1.0285;
1258.5000;0.4599;1.0310;
1258.8000;0.4615;1.0360;
1259.1000;0.4607;1.0385;
1259.4000;0.4615;1.0385;
1259.7000;0.4607;1.0409;
1260.0000;0.4615;1.0434;
1260.3000;0.4615;1.0459;
1260.6000;0.4615;1.0434;
1260.9000;0.4591;1.0235;
1261.2000;0.4624;1.0210;
1261.5000;0.4632;1.0185;
1261.8000;0.4575;0.9961;
1262.1000;0.4624;0.9986;
1262.4000;0.4567;0.9961;
1262.7000;0.4648;1.0210;
1263.0000;0.4648;1.0136;
1263.3000;0.4607;1.0111;
1263.6000;0.4607;1.0111;
1263.9000;0.4599;1.0086;
1264.2000;0.4599;0.9986;
1264.5000;0.4640;1.0061;
1264.8000;0.4599;0.9862;
1265.1000;0.4607;0.9837;
1265.4000;0.4607;0.9936;
1265.7000;0.4607;0.9936;
1266.0000;0.4615;0.9911;
1266.3000;0.4599;0.9886;
1266.6000;0.4640;0.9936;
1266.9000;0.4599;1.0011;
1267.2000;0.4615;0.9986;
1267.5000;0.4607;0.9986;
1267.8000;0.4615;0.9936;
1268.1000;0.4599;0.9862;
1268.4000;0.4607;0.9862;
1268.7000;0.4607;0.9862;
1269.0000;0.4567;0.9837;
1269.3000;0.4607;0.9936;
1269.6000;0.4599;0.9886;
1269.9000;0.4599;0.9961;
1270.2000;0.4615;1.0011;
1270.5000;0.4607;0.9986;
1270.8000;0.4624;0.9986;
1271.1000;0.4615;1.0011;
1271.4000;0.4615;1.0061;
1271.7000;0.4615;1.0160;
1272.0000;0.4624;1.0210;
1272.3000;0.4607;1.0235;
1272.6000;0.4591;1.0136;
1272.9000;0.4599;1.0160;
1273.2000;0.4615;1.0136;
1273.5000;0.4624;1.0136;
1273.8000;0.4640;1.0061;
1274.1000;0.4624;0.9961;
1274.4000;0.4607;0.9936;
1274.7000;0.4624;1.0061;
1275.0000;0.4607;1.0061;
1275.3000;0.4615;1.0111;
1275.6000;0.4632;1.0036;
1275.9000;0.4624;1.0136;
1276.2000;0.4632;1.0285;
1276.5000;0.4615;1.0235;
1276.8000;0.4624;1.0160;
1277.1000;0.4624;1.0086;
1277.4000;0.4615;1.0061;
1277.7000;0.4640;1.0011;
1278.0000;0.4632;1.0011;
1278.3000;0.4615;0.9936;
1278.6000;0.4640;0.9961;
1278.9000;0.4615;0.9911;
1279.2000;0.4624;0.9911;
1279.5000;0.4615;0.9961;
1279.8000;0.4624;1.0061;
1280.1000;0.4624;1.0111;
1280.4000;0.4624;1.0061;
1280.7000;0.4672;1.0160;
1281.0000;0.4591;0.9961;
1281.3000;0.4599;1.0086;
1281.6000;0.4558;0.9936;
1281.9000;0.4624;1.0185;
1282.2000;0.4615;1.0111;
1282.5000;0.4624;1.0011;
1282.8000;0.4624;1.0011;
1283.1000;0.4656;1.0160;
1283.4000;0.4615;1.0061;
1283.7000;0.4599;0.9986;
1284.0000;0.4550;0.9837;
1284.3000;0.4591;0.9936;
1284.6000;0.4583;0.9961;
1284.9000;0.4624;1.0086;
1285.2000;0.4599;0.9986;
1285.5000;0.4615;1.0011;
1285.8000;0.4607;1.0061;
1286.1000;0.4526;0.9762;
1286.4000;0.4615;1.0061;
1286.7000;0.4648;1.0136;
1287.0000;0.4632;1.0086;
1287.3000;0.4615;0.9961;
1287.6000;0.4615;0.9986;
1287.9000;0.4607;0.9986;
1288.2000;0.4615;1.0036;
1288.5000;0.4624;0.9961;
1288.8000;0.4615;1.0061;
1289.1000;0.4615;1.0086;
1289.4000;0.4599;0.9986;
1289.7000;0.4713;1.0260;
1290.0000;0.4607;0.9911;
1290.3000;0.4607;0.9886;
1290.6000;0.4607;0.9862;
1290.9000;0.4632;0.9837;
1291.2000;0.4632;0.9961;
1291.5000;0.4656;1.0036;
1291.8000;0.4615;0.9911;
1292.1000;0.4640;0.9936;
1292.4000;0.4615;0.9886;
1292.7000;0.4607;0.9911;
1293.0000;0.4591;0.9911;
1293.3000;0.4615;0.9986;
1293.6000;0.4615;0.9886;
1293.9000;0.4615;0.9837;
1294.2000;0.4599;0.9787;
1294.5000;0.4624;0.9762;
1294.8000;0.4599;0.9812;
1295.1000;0.4607;0.9936;
1295.4000;0.4607;0.9936;
1295.7000;0.4640;1.0136;
1296.0000;0.4534;0.9787;
1296.3000;0.4624;1.0036;
1296.6000;0.4615;1.0086;
1296.9000;0.4607;1.0086;
1297.2000;0.4624;1.0160;
1297.5000;0.4632;1.0160;
1297.8000;0.4624;1.0185;
1298.1000;0.4534;0.9936;
1298.4000;0.4632;1.0136;
1298.7000;0.4599;1.0061;
1299.0000;0.4607;1.0061;
1299.3000;0.4648;1.0185;
1299.6000;0.4615;1.0086;
1299.9000;0.4607;1.0011;
1300.2000;0.4607;0.9986;
1300.5000;0.4599;1.0011;
1300.8000;0.4615;1.0086;
1301.1000;0.4615;1.0086;
1301.4000;0.4575;0.9936;
1301.7000;0.4599;0.9961;
1302.0000;0.4615;1.0011;
1302.3000;0.4624;1.0061;
1302.6000;0.4632;1.0136;
1302.9000;0.4599;1.0160;
1303.2000;0.4583;1.0086;
1303.5000;0.4615;1.0111;
1303.8000;0.4599;1.0036;
1304.1000;0.4591;0.9986;
1304.4000;0.4599;1.0061;
1304.7000;0.4599;1.0136;
1305.0000;0.4591;1.0136;
1305.3000;0.4591;1.0160;
1305.6000;0.4615;1.0310;
1305.9000;0.4615;1.0285;
1306.2000;0.4656;1.0385;
1306.5000;0.4607;1.0285;
1306.8000;0.4615;1.0285;
1307.1000;0.4615;1.0210;
1307.4000;0.4656;1.0409;
1307.7000;0.4607;1.0235;
1308.0000;0.4591;1.0086;
1308.3000;0.4607;1.0136;
1308.6000;0.4583;1.0061;
1308.9000;0.4591;1.0061;
1309.2000;0.4624;1.0235;
1309.5000;0.4632;1.0260;
1309.8000;0.4615;1.0160;
1310.1000;0.4624;1.0210;
1310.4000;0.4624;1.0260;
1310.7000;0.4615;1.0335;
1311.0000;0.4632;1.0310;
1311.3000;0.4632;1.0360;
1311.6000;0.4640;1.0335;
1311.9000;0.4615;1.0285;
1312.2000;0.4632;1.0310;
1312.5000;0.4624;1.0260;
1312.8000;0.4599;1.0136;
1313.1000;0.4607;1.0185;
1313.4000;0.4615;1.0185;
1313.7000;0.4640;1.0260;
1314.0000;0.4599;1.0136;
1314.3000;0.4607;1.0086;
1314.6000;0.4591;1.0061;
1314.9000;0.4599;1.0136;
1315.2000;0.4591;1.0210;
1315.5000;0.4615;1.0285;
1315.8000;0.4615;1.0360;
1316.1000;0.4615;1.0459;
1316.4000;0.4591;1.0385;
1316.7000;0.4615;1.0285;
1317.0000;0.4624;1.0310;
1317.3000;0.4624;1.0285;
1317.6000;0.4615;1.0235;
1317.9000;0.4607;1.0285;
1318.2000;0.4599;1.0260;
1318.5000;0.4615;1.0260;
1318.8000;0.4697;1.0484;
1319.1000;0.4607;1.0260;
1319.4000;0.4583;1.0160;
1319.7000;0.4681;1.0360;
1320.0000;0.4575;1.0235;
1320.3000;0.4591;1.0235;
1320.6000;0.4615;1.0260;
1320.9000;0.4599;1.0235;
1321.2000;0.4599;1.0285;
1321.5000;0.4607;1.0310;
1321.8000;0.4640;1.0285;
1322.1000;0.4615;1.0160;
1322.4000;0.4681;1.0409;
1322.7000;0.4607;1.0235;
1323.0000;0.4632;1.0285;
1323.3000;0.4624;1.0335;
1323.6000;0.4607;1.0260;
1323.9000;0.4624;1.0210;
1324.2000;0.4632;1.0235;
1324.5000;0.4607;1.0260;
1324.8000;0.4615;1.0185;
1325.1000;0.4632;1.0136;
1325.4000;0.4615;1.0061;
1325.7000;0.4607;1.0036;
1326.0000;0.4599;1.0011;
1326.3000;0.4607;1.0036;
1326.6000;0.4607;0.9961;
1326.9000;0.4591;0.9911;
1327.2000;0.4624;0.9936;
1327.5000;0.4607;0.9986;
1327.8000;0.4624;1.0061;
1328.1000;0.4624;1.0061;
1328.4000;0.4575;1.0011;
1328.7000;0.4558;0.9986;
1329.0000;0.4632;1.0160;
1329.3000;0.4607;1.0160;
1329.6000;0.4648;1.0285;
1329.9000;0.4607;1.0061;
1330.2000;0.4615;1.0061;
1330.5000;0.4615;1.0036;
1330.8000;0.4599;1.0086;
1331.1000;0.4615;1.0210;
1331.4000;0.4624;1.0185;
1331.7000;0.4624;1.0260;
1332.0000;0.4624;1.0210;
1332.3000;0.4632;1.0160;
1332.6000;0.4640;1.0185;
1332.9000;0.4656;1.0235;
1333.2000;0.4640;1.0185;
1333.5000;0.4599;1.0086;
1333.8000;0.4632;1.0136;
1334.1000;0.4624;1.0061;
1334.4000;0.4640;1.0136;
1334.7000;0.4607;1.0061;
1335.0000;0.4607;1.0111;
1335.3000;0.4624;1.0185;
1335.6000;0.4632;1.0285;
1335.9000;0.4632;1.0210;
1336.2000;0.4632;1.0210;
1336.5000;0.4689;1.0335;
1336.8000;0.4615;1.0185;
1337.1000;0.4615;1.0136;
1337.4000;0.4615;1.0160;
1337.7000;0.4607;1.0185;
1338.0000;0.4615;1.0160;
1338.3000;0.4632;1.0136;
1338.6000;0.4607;1.0136;
1338.9000;0.4607;1.0185;
1339.2000;0.4624;1.0136;
1339.5000;0.4632;1.0260;
1339.8000;0.4615;1.0235;
1340.1000;0.4615;1.0136;
1340.4000;0.4615;1.0086;
1340.7000;0.4615;1.0185;
1341.0000;0.4615;1.0136;
1341.3000;0.4615;1.0086;
1341.6000;0.4632;1.0086;
1341.9000;0.4591;1.0136;
1342.2000;0.4632;1.0285;
1342.5000;0.4615;1.0285;
1342.8000;0.4681;1.0459;
1343.1000;0.4599;1.0260;
1343.4000;0.4624;1.0360;
1343.7000;0.4607;1.0285;
1344.0000;0.4615;1.0185;
1344.3000;0.4648;1.0285;
1344.6000;0.4624;1.0260;
1344.9000;0.4632;1.0185;
1345.2000;0.4607;1.0136;
1345.5000;0.4632;1.0136;
1345.8000;0.4607;1.0160;
1346.1000;0.4624;1.0235;
1346.4000;0.4624;1.0235;
1346.7000;0.4615;1.0310;
1347.0000;0.4632;1.0310;
1347.3000;0.4632;1.0285;
1347.6000;0.4632;1.0385;
1347.9000;0.4599;1.0385;
1348.2000;0.4607;1.0335;
1348.5000;0.4607;1.0310;
1348.8000;0.4567;1.0210;
1349.1000;0.4632;1.0335;
1349.4000;0.4615;1.0310;
1349.7000;0.4567;1.0185;
1350.0000;0.4624;1.0235;
1350.3000;0.4615;1.0185;
1350.6000;0.4632;1.0185;
1350.9000;0.4615;1.0136;
1351.2000;0.4615;1.0185;
1351.5000;0.4615;1.0136;
1351.8000;0.4615;1.0111;
1352.1000;0.4599;1.0061;
1352.4000;0.4624;1.0185;
1352.7000;0.4599;1.0086;
1353.0000;0.4624;1.0111;
1353.3000;0.4681;1.0285;
1353.6000;0.4607;1.0160;
1353.9000;0.4607;1.0111;
1354.2000;0.4599;1.0061;
1354.5000;0.4575;1.0136;
1354.8000;0.4599;1.0160;
1355.1000;0.4607;1.0185;
1355.4000;0.4599;1.0310;
1355.7000;0.4624;1.0260;
1356.0000;0.4640;1.0285;
1356.3000;0.4615;1.0260;
1356.6000;0.4624;1.0260;
1356.9000;0.4607;1.0235;
1357.2000;0.4624;1.0235;
1357.5000;0.4591;1.0160;
1357.8000;0.4624;1.0210;
1358.1000;0.4607;1.0160;
1358.4000;0.4607;1.0210;
1358.7000;0.4624;1.0235;
1359.0000;0.4615;1.0136;
1359.3000;0.4615;1.0111;
1359.6000;0.4599;1.0061;
1359.9000;0.4624;1.0160;
1360.2000;0.4615;1.0111;
1360.5000;0.4607;1.0086;
1360.8000;0.4607;1.0086;
1361.1000;0.4575;1.0160;
1361.4000;0.4607;1.0285;
1361.7000;0.4607;1.0235;
1362.0000;0.4607;1.0111;
1362.3000;0.4615;1.0160;
1362.6000;0.4624;1.0185;
1362.9000;0.4624;1.0210;
1363.2000;0.4591;1.0185;
1363.5000;0.4624;1.0260;
1363.8000;0.4648;1.0409;
1364.1000;0.4591;1.0185;
1364.4000;0.4599;1.0235;
1364.7000;0.4599;1.0185;
1365.0000;0.4615;1.0185;
1365.3000;0.4599;1.0136;
1365.6000;0.4599;1.0160;
1365.9000;0.4607;1.0210;
1366.2000;0.4575;1.0086;
1366.5000;0.4632;1.0210;
1366.8000;0.4615;1.0160;
1367.1000;0.4632;1.0260;
1367.4000;0.4607;1.0185;
1367.7000;0.4624;1.0310;
1368.0000;0.4615;1.0335;
1368.3000;0.4526;1.0086;
1368.6000;0.4632;1.0409;
1368.9000;0.4615;1.0385;
1369.2000;0.4615;1.0434;
1369.5000;0.4607;1.0409;
1369.8000;0.4607;1.0409;
1370.1000;0.4607;1.0260;
1370.4000;0.4624;1.0235;
1370.7000;0.4599;1.0136;
1371.0000;0.4599;1.0136;
1371.3000;0.4664;1.0335;
1371.6000;0.4615;1.0136;
1371.9000;0.4615;1.0185;
1372.2000;0.4599;1.0160;
1372.5000;0.4624;1.0185;
1372.8000;0.4632;1.0185;
1373.1000;0.4615;1.0111;
1373.4000;0.4607;1.0185;
1373.7000;0.4624;1.0111;
1374.0000;0.4599;1.0210;
1374.3000;0.4607;1.0136;
1374.6000;0.4607;1.0160;
1374.9000;0.4624;1.0111;
1375.2000;0.4624;1.0086;
1375.5000;0.4672;1.0235;
1375.8000;0.4607;1.0036;
1376.1000;0.4615;0.9986;
1376.4000;0.4672;1.0111;
1376.7000;0.4599;1.0011;
1377.0000;0.4615;1.0111;
1377.3000;0.4607;1.0086;
1377.6000;0.4624;1.0136;
1377.9000;0.4624;1.0136;
1378.2000;0.4607;1.0160;
1378.5000;0.4607;1.0111;
1378.8000;0.4624;1.0136;
1379.1000;0.4567;0.9961;
1379.4000;0.4648;1.0260;
1379.7000;0.4648;1.0185;
1380.0000;0.4607;1.0160;
1380.3000;0.4591;1.0011;
1380.6000;0.4607;1.0011;
1380.9000;0.4599;0.9961;
1381.2000;0.4632;1.0061;
1381.5000;0.4632;1.0036;
1381.8000;0.4599;0.9911;
1382.1000;0.4615;0.9911;
1382.4000;0.4599;0.9862;
1382.7000;0.4558;0.9787;
1383.0000;0.4624;1.0061;
1383.3000;0.4615;1.0086;
1383.6000;0.4632;1.0086;
1383.9000;0.4607;0.9961;
1384.2000;0.4632;1.0011;
1384.5000;0.4640;1.0011;
1384.8000;0.4624;1.0086;
1385.1000;0.4550;0.9911;
1385.4000;0.4591;1.0036;
1385.7000;0.4607;1.0036;
1386.0000;0.4607;1.0011;
1386.3000;0.4599;0.9936;
1386.6000;0.4615;0.9986;
1386.9000;0.4607;0.9961;
1387.2000;0.4599;0.9911;
1387.5000;0.4640;1.0036;
1387.8000;0.4624;0.9986;
1388.1000;0.4575;0.9862;
1388.4000;0.4615;0.9936;
1388.7000;0.4615;0.9986;
1389.0000;0.4615;1.0061;
1389.3000;0.4615;1.0111;
1389.6000;0.4607;1.0086;
1389.9000;0.4624;1.0086;
1390.2000;0.4591;1.0086;
1390.5000;0.4607;1.0036;
1390.8000;0.4599;0.9936;
1391.1000;0.4615;0.9961;
1391.4000;0.4656;1.0036;
1391.7000;0.4583;0.9712;
1392.0000;0.4664;0.9911;
1392.3000;0.4624;0.9787;
1392.6000;0.4615;0.9787;
1392.9000;0.4640;0.9737;
1393.2000;0.4632;0.9737;
1393.5000;0.4615;0.9737;
1393.8000;0.4615;0.9737;
1394.1000;0.4624;0.9737;
1394.4000;0.4599;0.9737;
1394.7000;0.4583;0.9762;
1395.0000;0.4615;0.9886;
1395.3000;0.4632;0.9911;
1395.6000;0.4624;0.9812;
1395.9000;0.4615;0.9936;
1396.2000;0.4575;0.9862;
1396.5000;0.4672;1.0061;
1396.8000;0.4615;0.9986;
1397.1000;0.4599;0.9986;
1397.4000;0.4624;1.0061;
1397.7000;0.4607;1.0036;
1398.0000;0.4583;0.9936;
1398.3000;0.4591;0.9886;
1398.6000;0.4624;0.9986;
1398.9000;0.4599;0.9911;
1399.2000;0.4607;0.9986;
1399.5000;0.4640;1.0011;
1399.8000;0.4615;0.9986;
