time/ms;Fluo/V;P700 deltaI/I x10³;
-199.8000;0.6455;1.5131;
-199.5000;0.6479;1.5276;
-199.2000;0.6504;1.5324;
-198.9000;0.6488;1.5348;
-198.6000;0.6488;1.5203;
-198.3000;0.6496;1.5276;
-198.0000;0.6488;1.5348;
-197.7000;0.6488;1.5421;
-197.4000;0.6496;1.5421;
-197.1000;0.6463;1.5276;
-196.8000;0.6512;1.5276;
-196.5000;0.6496;1.5276;
-196.2000;0.6496;1.5348;
-195.9000;0.6488;1.5324;
-195.6000;0.6488;1.5324;
-195.3000;0.6504;1.5372;
-195.0000;0.6496;1.5396;
-194.7000;0.6479;1.5372;
-194.4000;0.6520;1.5421;
-194.1000;0.6479;1.5396;
-193.8000;0.6496;1.5469;
-193.5000;0.6471;1.5469;
-193.2000;0.6488;1.5493;
-192.9000;0.6479;1.5517;
-192.6000;0.6488;1.5517;
-192.3000;0.6496;1.5445;
-192.0000;0.6496;1.5421;
-191.7000;0.6488;1.5469;
-191.4000;0.6479;1.5517;
-191.1000;0.6463;1.5493;
-190.8000;0.6504;1.5542;
-190.5000;0.6479;1.5542;
-190.2000;0.6561;1.5783;
-189.9000;0.6520;1.5590;
-189.6000;0.6471;1.5469;
-189.3000;0.6447;1.5421;
-189.0000;0.6512;1.5614;
-188.7000;0.6479;1.5517;
-188.4000;0.6479;1.5517;
-188.1000;0.6504;1.5517;
-187.8000;0.6471;1.5396;
-187.5000;0.6455;1.5445;
-187.2000;0.6463;1.5445;
-186.9000;0.6471;1.5493;
-186.6000;0.6479;1.5566;
-186.3000;0.6488;1.5566;
-186.0000;0.6488;1.5566;
-185.7000;0.6471;1.5517;
-185.4000;0.6496;1.5493;
-185.1000;0.6471;1.5517;
-184.8000;0.6504;1.5517;
-184.5000;0.6512;1.5517;
-184.2000;0.6463;1.5493;
-183.9000;0.6479;1.5566;
-183.6000;0.6479;1.5566;
-183.3000;0.6479;1.5566;
-183.0000;0.6463;1.5445;
-182.7000;0.6471;1.5372;
-182.4000;0.6488;1.5396;
-182.1000;0.6479;1.5372;
-181.8000;0.6471;1.5396;
-181.5000;0.6463;1.5372;
-181.2000;0.6479;1.5469;
-180.9000;0.6512;1.5421;
-180.6000;0.6488;1.5372;
-180.3000;0.6479;1.5469;
-180.0000;0.6496;1.5517;
-179.7000;0.6488;1.5493;
-179.4000;0.6496;1.5590;
-179.1000;0.6488;1.5566;
-178.8000;0.6488;1.5638;
-178.5000;0.6488;1.5638;
-178.2000;0.6471;1.5566;
-177.9000;0.6471;1.5566;
-177.6000;0.6479;1.5542;
-177.3000;0.6488;1.5542;
-177.0000;0.6488;1.5517;
-176.7000;0.6463;1.5493;
-176.4000;0.6528;1.5711;
-176.1000;0.6528;1.5735;
-175.8000;0.6479;1.5711;
-175.5000;0.6431;1.5469;
-175.2000;0.6463;1.5517;
-174.9000;0.6463;1.5517;
-174.6000;0.6488;1.5542;
-174.3000;0.6414;1.5324;
-174.0000;0.6447;1.5469;
-173.7000;0.6488;1.5542;
-173.4000;0.6488;1.5542;
-173.1000;0.6512;1.5614;
-172.8000;0.6488;1.5517;
-172.5000;0.6488;1.5493;
-172.2000;0.6593;1.5832;
-171.9000;0.6504;1.5542;
-171.6000;0.6479;1.5493;
-171.3000;0.6520;1.5638;
-171.0000;0.6496;1.5542;
-170.7000;0.6504;1.5469;
-170.4000;0.6512;1.5493;
-170.1000;0.6488;1.5396;
-169.8000;0.6496;1.5493;
-169.5000;0.6488;1.5517;
-169.2000;0.6520;1.5590;
-168.9000;0.6488;1.5445;
-168.6000;0.6488;1.5469;
-168.3000;0.6504;1.5421;
-168.0000;0.6488;1.5372;
-167.7000;0.6479;1.5348;
-167.4000;0.6496;1.5421;
-167.1000;0.6479;1.5445;
-166.8000;0.6471;1.5348;
-166.5000;0.6479;1.5348;
-166.2000;0.6488;1.5396;
-165.9000;0.6496;1.5469;
-165.6000;0.6496;1.5445;
-165.3000;0.6488;1.5517;
-165.0000;0.6471;1.5445;
-164.7000;0.6479;1.5396;
-164.4000;0.6471;1.5324;
-164.1000;0.6504;1.5348;
-163.8000;0.6479;1.5276;
-163.5000;0.6504;1.5300;
-163.2000;0.6479;1.5203;
-162.9000;0.6479;1.5300;
-162.6000;0.6479;1.5276;
-162.3000;0.6471;1.5227;
-162.0000;0.6504;1.5276;
-161.7000;0.6488;1.5251;
-161.4000;0.6479;1.5203;
-161.1000;0.6479;1.5276;
-160.8000;0.6496;1.5300;
-160.5000;0.6504;1.5300;
-160.2000;0.6488;1.5203;
-159.9000;0.6488;1.5155;
-159.6000;0.6512;1.5203;
-159.3000;0.6496;1.5251;
-159.0000;0.6488;1.5251;
-158.7000;0.6479;1.5300;
-158.4000;0.6496;1.5324;
-158.1000;0.6488;1.5324;
-157.8000;0.6471;1.5372;
-157.5000;0.6488;1.5421;
-157.2000;0.6471;1.5324;
-156.9000;0.6488;1.5372;
-156.6000;0.6479;1.5396;
-156.3000;0.6471;1.5445;
-156.0000;0.6471;1.5542;
-155.7000;0.6479;1.5493;
-155.4000;0.6488;1.5396;
-155.1000;0.6455;1.5348;
-154.8000;0.6479;1.5348;
-154.5000;0.6431;1.5276;
-154.2000;0.6512;1.5590;
-153.9000;0.6479;1.5493;
-153.6000;0.6488;1.5517;
-153.3000;0.6479;1.5469;
-153.0000;0.6512;1.5662;
-152.7000;0.6471;1.5566;
-152.4000;0.6463;1.5614;
-152.1000;0.6463;1.5590;
-151.8000;0.6512;1.5638;
-151.5000;0.6536;1.5614;
-151.2000;0.6488;1.5590;
-150.9000;0.6471;1.5638;
-150.6000;0.6488;1.5735;
-150.3000;0.6512;1.5687;
-150.0000;0.6471;1.5590;
-149.7000;0.6479;1.5542;
-149.4000;0.6504;1.5662;
-149.1000;0.6528;1.5638;
-148.8000;0.6496;1.5517;
-148.5000;0.6504;1.5517;
-148.2000;0.6488;1.5493;
-147.9000;0.6496;1.5517;
-147.6000;0.6496;1.5590;
-147.3000;0.6471;1.5566;
-147.0000;0.6471;1.5517;
-146.7000;0.6488;1.5493;
-146.4000;0.6488;1.5469;
-146.1000;0.6463;1.5445;
-145.8000;0.6471;1.5396;
-145.5000;0.6471;1.5300;
-145.2000;0.6471;1.5251;
-144.9000;0.6455;1.5155;
-144.6000;0.6463;1.5058;
-144.3000;0.6471;1.5082;
-144.0000;0.6488;1.5131;
-143.7000;0.6471;1.5106;
-143.4000;0.6471;1.5155;
-143.1000;0.6479;1.5179;
-142.8000;0.6479;1.5155;
-142.5000;0.6463;1.5155;
-142.2000;0.6479;1.5276;
-141.9000;0.6463;1.5276;
-141.6000;0.6479;1.5227;
-141.3000;0.6479;1.5300;
-141.0000;0.6471;1.5324;
-140.7000;0.6479;1.5324;
-140.4000;0.6488;1.5300;
-140.1000;0.6520;1.5276;
-139.8000;0.6471;1.5155;
-139.5000;0.6471;1.5203;
-139.2000;0.6463;1.5251;
-138.9000;0.6463;1.5179;
-138.6000;0.6471;1.5106;
-138.3000;0.6463;1.5203;
-138.0000;0.6471;1.5179;
-137.7000;0.6496;1.5203;
-137.4000;0.6496;1.5227;
-137.1000;0.6512;1.5300;
-136.8000;0.6471;1.5276;
-136.5000;0.6488;1.5324;
-136.2000;0.6488;1.5324;
-135.9000;0.6488;1.5396;
-135.6000;0.6471;1.5300;
-135.3000;0.6488;1.5421;
-135.0000;0.6488;1.5493;
-134.7000;0.6471;1.5421;
-134.4000;0.6463;1.5445;
-134.1000;0.6471;1.5469;
-133.8000;0.6447;1.5372;
-133.5000;0.6496;1.5566;
-133.2000;0.6488;1.5566;
-132.9000;0.6496;1.5517;
-132.6000;0.6504;1.5493;
-132.3000;0.6488;1.5493;
-132.0000;0.6488;1.5445;
-131.7000;0.6463;1.5372;
-131.4000;0.6439;1.5251;
-131.1000;0.6479;1.5421;
-130.8000;0.6431;1.5203;
-130.5000;0.6479;1.5372;
-130.2000;0.6536;1.5566;
-129.9000;0.6455;1.5445;
-129.6000;0.6504;1.5566;
-129.3000;0.6479;1.5493;
-129.0000;0.6488;1.5421;
-128.7000;0.6496;1.5469;
-128.4000;0.6496;1.5517;
-128.1000;0.6479;1.5566;
-127.8000;0.6488;1.5638;
-127.5000;0.6504;1.5687;
-127.2000;0.6504;1.5566;
-126.9000;0.6479;1.5566;
-126.6000;0.6479;1.5590;
-126.3000;0.6496;1.5638;
-126.0000;0.6471;1.5614;
-125.7000;0.6488;1.5590;
-125.4000;0.6471;1.5517;
-125.1000;0.6496;1.5542;
-124.8000;0.6496;1.5445;
-124.5000;0.6504;1.5396;
-124.2000;0.6471;1.5276;
-123.9000;0.6488;1.5372;
-123.6000;0.6488;1.5421;
-123.3000;0.6496;1.5372;
-123.0000;0.6471;1.5251;
-122.7000;0.6463;1.5300;
-122.4000;0.6471;1.5348;
-122.1000;0.6488;1.5469;
-121.8000;0.6471;1.5445;
-121.5000;0.6463;1.5396;
-121.2000;0.6488;1.5469;
-120.9000;0.6577;1.5662;
-120.6000;0.6455;1.5396;
-120.3000;0.6463;1.5348;
-120.0000;0.6488;1.5372;
-119.7000;0.6479;1.5324;
-119.4000;0.6488;1.5372;
-119.1000;0.6447;1.5179;
-118.8000;0.6471;1.5251;
-118.5000;0.6439;1.5058;
-118.2000;0.6488;1.5203;
-117.9000;0.6479;1.5203;
-117.6000;0.6455;1.5131;
-117.3000;0.6479;1.5227;
-117.0000;0.6479;1.5251;
-116.7000;0.6479;1.5227;
-116.4000;0.6479;1.5131;
-116.1000;0.6488;1.5203;
-115.8000;0.6463;1.5179;
-115.5000;0.6471;1.5227;
-115.2000;0.6471;1.5131;
-114.9000;0.6455;1.5082;
-114.6000;0.6479;1.5227;
-114.3000;0.6488;1.5203;
-114.0000;0.6471;1.5131;
-113.7000;0.6496;1.5155;
-113.4000;0.6504;1.5179;
-113.1000;0.6496;1.5227;
-112.8000;0.6479;1.5251;
-112.5000;0.6496;1.5251;
-112.2000;0.6496;1.5227;
-111.9000;0.6488;1.5276;
-111.6000;0.6479;1.5155;
-111.3000;0.6479;1.5227;
-111.0000;0.6488;1.5300;
-110.7000;0.6488;1.5300;
-110.4000;0.6471;1.5348;
-110.1000;0.6479;1.5372;
-109.8000;0.6545;1.5517;
-109.5000;0.6471;1.5276;
-109.2000;0.6471;1.5300;
-108.9000;0.6488;1.5276;
-108.6000;0.6504;1.5203;
-108.3000;0.6471;1.5082;
-108.0000;0.6479;1.5082;
-107.7000;0.6463;1.4986;
-107.4000;0.6512;1.5131;
-107.1000;0.6496;1.5082;
-106.8000;0.6439;1.4961;
-106.5000;0.6471;1.5131;
-106.2000;0.6471;1.5131;
-105.9000;0.6479;1.5155;
-105.6000;0.6471;1.5155;
-105.3000;0.6471;1.5179;
-105.0000;0.6496;1.5227;
-104.7000;0.6488;1.5179;
-104.4000;0.6504;1.5203;
-104.1000;0.6479;1.5179;
-103.8000;0.6504;1.5179;
-103.5000;0.6471;1.5155;
-103.2000;0.6479;1.5131;
-102.9000;0.6471;1.5082;
-102.6000;0.6479;1.5106;
-102.3000;0.6488;1.5203;
-102.0000;0.6504;1.5227;
-101.7000;0.6504;1.5203;
-101.4000;0.6488;1.5155;
-101.1000;0.6496;1.5131;
-100.8000;0.6504;1.5131;
-100.5000;0.6479;1.5106;
-100.2000;0.6471;1.5155;
-99.9000;0.6488;1.5203;
-99.6000;0.6479;1.5203;
-99.3000;0.6488;1.5227;
-99.0000;0.6504;1.5276;
-98.7000;0.6488;1.5203;
-98.4000;0.6471;1.5203;
-98.1000;0.6520;1.5251;
-97.8000;0.6471;1.5082;
-97.5000;0.6488;1.5106;
-97.2000;0.6471;1.5082;
-96.9000;0.6471;1.5131;
-96.6000;0.6414;1.5010;
-96.3000;0.6471;1.5082;
-96.0000;0.6471;1.5082;
-95.7000;0.6471;1.5082;
-95.4000;0.6496;1.5082;
-95.1000;0.6520;1.5179;
-94.8000;0.6463;1.5034;
-94.5000;0.6496;1.5082;
-94.2000;0.6447;1.5034;
-93.9000;0.6496;1.5082;
-93.6000;0.6479;1.5106;
-93.3000;0.6536;1.5276;
-93.0000;0.6479;1.5155;
-92.7000;0.6504;1.5203;
-92.4000;0.6545;1.5421;
-92.1000;0.6496;1.5179;
-91.8000;0.6471;1.5251;
-91.5000;0.6479;1.5155;
-91.2000;0.6479;1.5131;
-90.9000;0.6479;1.5131;
-90.6000;0.6496;1.5203;
-90.3000;0.6496;1.5179;
-90.0000;0.6479;1.5106;
-89.7000;0.6471;1.5179;
-89.4000;0.6455;1.5155;
-89.1000;0.6479;1.5155;
-88.8000;0.6479;1.5155;
-88.5000;0.6471;1.5155;
-88.2000;0.6488;1.5155;
-87.9000;0.6488;1.5155;
-87.6000;0.6479;1.5179;
-87.3000;0.6471;1.5276;
-87.0000;0.6463;1.5276;
-86.7000;0.6504;1.5276;
-86.4000;0.6471;1.5276;
-86.1000;0.6479;1.5348;
-85.8000;0.6471;1.5324;
-85.5000;0.6471;1.5372;
-85.2000;0.6471;1.5469;
-84.9000;0.6471;1.5372;
-84.6000;0.6471;1.5396;
-84.3000;0.6471;1.5445;
-84.0000;0.6479;1.5421;
-83.7000;0.6455;1.5276;
-83.4000;0.6463;1.5300;
-83.1000;0.6455;1.5372;
-82.8000;0.6488;1.5396;
-82.5000;0.6479;1.5396;
-82.2000;0.6471;1.5324;
-81.9000;0.6471;1.5300;
-81.6000;0.6479;1.5300;
-81.3000;0.6488;1.5276;
-81.0000;0.6439;1.5155;
-80.7000;0.6488;1.5276;
-80.4000;0.6496;1.5348;
-80.1000;0.6463;1.5348;
-79.8000;0.6496;1.5396;
-79.5000;0.6488;1.5396;
-79.2000;0.6471;1.5372;
-78.9000;0.6471;1.5372;
-78.6000;0.6488;1.5445;
-78.3000;0.6479;1.5372;
-78.0000;0.6479;1.5396;
-77.7000;0.6504;1.5469;
-77.4000;0.6488;1.5469;
-77.1000;0.6488;1.5493;
-76.8000;0.6488;1.5566;
-76.5000;0.6504;1.5614;
-76.2000;0.6382;1.5300;
-75.9000;0.6512;1.5614;
-75.6000;0.6479;1.5590;
-75.3000;0.6463;1.5517;
-75.0000;0.6479;1.5566;
-74.7000;0.6471;1.5542;
-74.4000;0.6463;1.5493;
-74.1000;0.6479;1.5445;
-73.8000;0.6471;1.5517;
-73.5000;0.6504;1.5614;
-73.2000;0.6479;1.5469;
-72.9000;0.6496;1.5566;
-72.6000;0.6471;1.5517;
-72.3000;0.6479;1.5542;
-72.0000;0.6479;1.5517;
-71.7000;0.6479;1.5566;
-71.4000;0.6471;1.5590;
-71.1000;0.6422;1.5421;
-70.8000;0.6463;1.5590;
-70.5000;0.6463;1.5614;
-70.2000;0.6479;1.5711;
-69.9000;0.6471;1.5735;
-69.6000;0.6479;1.5687;
-69.3000;0.6479;1.5614;
-69.0000;0.6463;1.5566;
-68.7000;0.6488;1.5662;
-68.4000;0.6496;1.5662;
-68.1000;0.6488;1.5638;
-67.8000;0.6455;1.5590;
-67.5000;0.6479;1.5590;
-67.2000;0.6496;1.5614;
-66.9000;0.6488;1.5614;
-66.6000;0.6488;1.5566;
-66.3000;0.6488;1.5590;
-66.0000;0.6504;1.5590;
-65.7000;0.6471;1.5590;
-65.4000;0.6479;1.5638;
-65.1000;0.6488;1.5711;
-64.8000;0.6479;1.5638;
-64.5000;0.6471;1.5469;
-64.2000;0.6488;1.5614;
-63.9000;0.6471;1.5590;
-63.6000;0.6471;1.5566;
-63.3000;0.6471;1.5493;
-63.0000;0.6479;1.5517;
-62.7000;0.6463;1.5445;
-62.4000;0.6471;1.5421;
-62.1000;0.6479;1.5372;
-61.8000;0.6447;1.5348;
-61.5000;0.6479;1.5517;
-61.2000;0.6479;1.5542;
-60.9000;0.6488;1.5517;
-60.6000;0.6479;1.5542;
-60.3000;0.6471;1.5445;
-60.0000;0.6471;1.5493;
-59.7000;0.6479;1.5493;
-59.4000;0.6471;1.5517;
-59.1000;0.6463;1.5590;
-58.8000;0.6471;1.5638;
-58.5000;0.6463;1.5566;
-58.2000;0.6463;1.5517;
-57.9000;0.6463;1.5590;
-57.6000;0.6471;1.5614;
-57.3000;0.6496;1.5590;
-57.0000;0.6496;1.5542;
-56.7000;0.6471;1.5493;
-56.4000;0.6479;1.5469;
-56.1000;0.6439;1.5372;
-55.8000;0.6471;1.5469;
-55.5000;0.6471;1.5469;
-55.2000;0.6496;1.5445;
-54.9000;0.6479;1.5396;
-54.6000;0.6496;1.5517;
-54.3000;0.6479;1.5542;
-54.0000;0.6488;1.5542;
-53.7000;0.6471;1.5590;
-53.4000;0.6479;1.5590;
-53.1000;0.6479;1.5590;
-52.8000;0.6479;1.5590;
-52.5000;0.6488;1.5542;
-52.2000;0.6471;1.5590;
-51.9000;0.6471;1.5662;
-51.6000;0.6479;1.5662;
-51.3000;0.6479;1.5662;
-51.0000;0.6479;1.5735;
-50.7000;0.6471;1.5807;
-50.4000;0.6471;1.5735;
-50.1000;0.6471;1.5614;
-49.8000;0.6471;1.5542;
-49.5000;0.6504;1.5614;
-49.2000;0.6479;1.5517;
-48.9000;0.6471;1.5396;
-48.6000;0.6488;1.5493;
-48.3000;0.6488;1.5469;
-48.0000;0.6479;1.5517;
-47.7000;0.6471;1.5517;
-47.4000;0.6463;1.5542;
-47.1000;0.6471;1.5590;
-46.8000;0.6471;1.5590;
-46.5000;0.6496;1.5542;
-46.2000;0.6488;1.5517;
-45.9000;0.6479;1.5493;
-45.6000;0.6479;1.5566;
-45.3000;0.6496;1.5662;
-45.0000;0.6455;1.5517;
-44.7000;0.6488;1.5517;
-44.4000;0.6520;1.5517;
-44.1000;0.6471;1.5396;
-43.8000;0.6471;1.5445;
-43.5000;0.6479;1.5445;
-43.2000;0.6479;1.5445;
-42.9000;0.6504;1.5566;
-42.6000;0.6488;1.5469;
-42.3000;0.6488;1.5372;
-42.0000;0.6553;1.5542;
-41.7000;0.6504;1.5445;
-41.4000;0.6496;1.5469;
-41.1000;0.6488;1.5421;
-40.8000;0.6463;1.5396;
-40.5000;0.6488;1.5396;
-40.2000;0.6488;1.5348;
-39.9000;0.6479;1.5445;
-39.6000;0.6471;1.5445;
-39.3000;0.6520;1.5542;
-39.0000;0.6471;1.5445;
-38.7000;0.6471;1.5469;
-38.4000;0.6455;1.5421;
-38.1000;0.6471;1.5372;
-37.8000;0.6463;1.5348;
-37.5000;0.6471;1.5421;
-37.2000;0.6471;1.5517;
-36.9000;0.6471;1.5517;
-36.6000;0.6479;1.5542;
-36.3000;0.6479;1.5493;
-36.0000;0.6488;1.5542;
-35.7000;0.6504;1.5614;
-35.4000;0.6455;1.5396;
-35.1000;0.6504;1.5566;
-34.8000;0.6463;1.5421;
-34.5000;0.6479;1.5421;
-34.2000;0.6479;1.5348;
-33.9000;0.6479;1.5372;
-33.6000;0.6471;1.5421;
-33.3000;0.6471;1.5445;
-33.0000;0.6496;1.5517;
-32.7000;0.6479;1.5469;
-32.4000;0.6463;1.5421;
-32.1000;0.6455;1.5372;
-31.8000;0.6479;1.5445;
-31.5000;0.6455;1.5348;
-31.2000;0.6479;1.5421;
-30.9000;0.6488;1.5396;
-30.6000;0.6496;1.5445;
-30.3000;0.6496;1.5493;
-30.0000;0.6471;1.5445;
-29.7000;0.6496;1.5517;
-29.4000;0.6471;1.5469;
-29.1000;0.6479;1.5445;
-28.8000;0.6504;1.5493;
-28.5000;0.6471;1.5372;
-28.2000;0.6496;1.5372;
-27.9000;0.6536;1.5421;
-27.6000;0.6471;1.5251;
-27.3000;0.6471;1.5203;
-27.0000;0.6422;1.5131;
-26.7000;0.6479;1.5300;
-26.4000;0.6471;1.5324;
-26.1000;0.6463;1.5324;
-25.8000;0.6479;1.5324;
-25.5000;0.6512;1.5421;
-25.2000;0.6479;1.5276;
-24.9000;0.6455;1.5179;
-24.6000;0.6471;1.5131;
-24.3000;0.6431;1.5058;
-24.0000;0.6496;1.5227;
-23.7000;0.6479;1.5179;
-23.4000;0.6479;1.5203;
-23.1000;0.6479;1.5179;
-22.8000;0.6414;1.5131;
-22.5000;0.6431;1.5131;
-22.2000;0.6463;1.5203;
-21.9000;0.6471;1.5179;
-21.6000;0.6471;1.5155;
-21.3000;0.6471;1.5276;
-21.0000;0.6463;1.5251;
-20.7000;0.6463;1.5348;
-20.4000;0.6488;1.5445;
-20.1000;0.6488;1.5445;
-19.8000;0.6488;1.5590;
-19.5000;0.6496;1.5662;
-19.2000;0.6471;1.5566;
-18.9000;0.6488;1.5590;
-18.6000;0.6488;1.5517;
-18.3000;0.6479;1.5493;
-18.0000;0.6479;1.5421;
-17.7000;0.6479;1.5493;
-17.4000;0.6488;1.5662;
-17.1000;0.6471;1.5687;
-16.8000;0.6479;1.5662;
-16.5000;0.6488;1.5711;
-16.2000;0.6496;1.5759;
-15.9000;0.6471;1.5590;
-15.6000;0.6488;1.5566;
-15.3000;0.6471;1.5542;
-15.0000;0.6463;1.5421;
-14.7000;0.6471;1.5445;
-14.4000;0.6504;1.5590;
-14.1000;0.6471;1.5517;
-13.8000;0.6447;1.5469;
-13.5000;0.6488;1.5590;
-13.2000;0.6479;1.5638;
-12.9000;0.6463;1.5566;
-12.6000;0.6471;1.5493;
-12.3000;0.6463;1.5469;
-12.0000;0.6488;1.5469;
-11.7000;0.6471;1.5445;
-11.4000;0.6479;1.5517;
-11.1000;0.6463;1.5493;
-10.8000;0.6479;1.5542;
-10.5000;0.6471;1.5469;
-10.2000;0.6463;1.5493;
-9.9000;0.6471;1.5542;
-9.6000;0.6479;1.5566;
-9.3000;0.6488;1.5542;
-9.0000;0.6479;1.5469;
-8.7000;0.6479;1.5421;
-8.4000;0.6512;1.5517;
-8.1000;0.6504;1.5493;
-7.8000;0.6479;1.5421;
-7.5000;0.6479;1.5324;
-7.2000;0.6463;1.5300;
-6.9000;0.6455;1.5276;
-6.6000;0.6471;1.5324;
-6.3000;0.6520;1.5324;
-6.0000;0.6439;1.5179;
-5.7000;0.6479;1.5300;
-5.4000;0.6479;1.5324;
-5.1000;0.6479;1.5276;
-4.8000;0.6463;1.5251;
-4.5000;0.6479;1.5372;
-4.2000;0.6463;1.5324;
-3.9000;0.6488;1.5421;
-3.6000;0.6504;1.5421;
-3.3000;0.6422;1.5179;
-3.0000;0.6463;1.5324;
-2.7000;0.6479;1.5421;
-2.4000;0.6479;1.5396;
-2.1000;0.6479;1.5396;
-1.8000;0.6447;1.5348;
-1.5000;0.6414;1.5251;
-1.2000;0.6504;1.5493;
-0.9000;0.6463;1.5324;
-0.6000;0.6455;1.5300;
-0.3000;0.6422;1.5227;
0.0000;0.6422;1.5227;
0.3000;0.6886;1.5421;
0.6000;0.7554;1.6218;
0.9000;0.8075;1.6847;
1.2000;0.8482;1.7451;
1.5000;0.8775;1.7862;
1.8000;0.9019;1.8249;
2.1000;0.9190;1.8611;
2.4000;0.9353;1.8877;
2.7000;0.9499;1.9240;
3.0000;0.9597;1.9385;
3.3000;0.9662;1.9385;
3.6000;0.9768;1.9554;
3.9000;0.9841;1.9602;
4.2000;0.9955;1.9795;
4.5000;1.0004;1.9892;
4.8000;1.0085;1.9868;
5.1000;1.0142;1.9844;
5.4000;1.0216;1.9965;
5.7000;1.0256;2.0086;
6.0000;1.0313;2.0158;
6.3000;1.0346;2.0182;
6.6000;1.0419;2.0134;
6.9000;1.0476;2.0037;
7.2000;1.0574;2.0086;
7.5000;1.0525;1.9965;
7.8000;1.0631;2.0110;
8.1000;1.0647;2.0037;
8.4000;1.0737;2.0061;
8.7000;1.0769;2.0061;
9.0000;1.0810;1.9941;
9.3000;1.0908;2.0134;
9.6000;1.0916;2.0110;
9.9000;1.0940;2.0086;
10.2000;1.1005;2.0134;
10.5000;1.1013;2.0037;
10.8000;1.1070;2.0086;
11.1000;1.1103;2.0037;
11.4000;1.1152;2.0013;
11.7000;1.1176;1.9989;
12.0000;1.1249;2.0037;
12.3000;1.1258;1.9989;
12.6000;1.1315;1.9989;
12.9000;1.1355;2.0037;
13.2000;1.1396;1.9965;
13.5000;1.1437;1.9965;
13.8000;1.1453;1.9916;
14.1000;1.1477;1.9941;
14.4000;1.1526;1.9941;
14.7000;1.1559;1.9941;
15.0000;1.1600;1.9941;
15.3000;1.1624;1.9965;
15.6000;1.1713;2.0037;
15.9000;1.1640;1.9795;
16.2000;1.1713;1.9892;
16.5000;1.1738;1.9941;
16.8000;1.1787;1.9965;
17.1000;1.1811;2.0061;
17.4000;1.1836;2.0110;
17.7000;1.1827;2.0037;
18.0000;1.1868;2.0013;
18.3000;1.1901;2.0013;
18.6000;1.1893;1.9965;
18.9000;1.1917;1.9965;
19.2000;1.1941;1.9916;
19.5000;1.1974;1.9916;
19.8000;1.2023;1.9965;
20.1000;1.2023;1.9941;
20.4000;1.2031;1.9892;
20.7000;1.2096;1.9916;
21.0000;1.2096;1.9892;
21.3000;1.2112;1.9916;
21.6000;1.2129;1.9844;
21.9000;1.2129;1.9844;
22.2000;1.2169;2.0037;
22.5000;1.2145;1.9941;
22.8000;1.2177;1.9868;
23.1000;1.2210;1.9989;
23.4000;1.2234;1.9989;
23.7000;1.2243;1.9965;
24.0000;1.2259;1.9989;
24.3000;1.2251;2.0013;
24.6000;1.2291;2.0086;
24.9000;1.2308;2.0158;
25.2000;1.2316;2.0061;
25.5000;1.2324;2.0037;
25.8000;1.2373;2.0061;
26.1000;1.2357;2.0037;
26.4000;1.2373;2.0037;
26.7000;1.2381;1.9989;
27.0000;1.2414;2.0013;
27.3000;1.2397;1.9989;
27.6000;1.2414;2.0013;
27.9000;1.2438;2.0037;
28.2000;1.2462;2.0037;
28.5000;1.2454;1.9989;
28.8000;1.2470;1.9892;
29.1000;1.2470;1.9723;
29.4000;1.2470;1.9723;
29.7000;1.2495;1.9771;
30.0000;1.2511;1.9771;
30.3000;1.2503;1.9795;
30.6000;1.2527;1.9892;
30.9000;1.2470;1.9795;
31.2000;1.2544;1.9989;
31.5000;1.2568;1.9941;
31.8000;1.2560;1.9916;
32.1000;1.2552;1.9844;
32.4000;1.2584;1.9844;
32.7000;1.2593;1.9820;
33.0000;1.2617;1.9892;
33.3000;1.2576;1.9795;
33.6000;1.2609;1.9747;
33.9000;1.2609;1.9723;
34.2000;1.2609;1.9723;
34.5000;1.2625;1.9771;
34.8000;1.2601;1.9771;
35.1000;1.2633;1.9844;
35.4000;1.2625;1.9820;
35.7000;1.2641;1.9795;
36.0000;1.2633;1.9747;
36.3000;1.2658;1.9868;
36.6000;1.2658;1.9965;
36.9000;1.2650;1.9941;
37.2000;1.2682;1.9916;
37.5000;1.2674;1.9989;
37.8000;1.2715;2.0037;
38.1000;1.2690;1.9941;
38.4000;1.2698;1.9892;
38.7000;1.2690;1.9941;
39.0000;1.2707;1.9820;
39.3000;1.2715;1.9795;
39.6000;1.2723;1.9844;
39.9000;1.2731;1.9795;
40.2000;1.2739;1.9771;
40.5000;1.2731;1.9723;
40.8000;1.2739;1.9699;
41.1000;1.2755;1.9747;
41.4000;1.2747;1.9795;
41.7000;1.2731;1.9820;
42.0000;1.2764;1.9844;
42.3000;1.2747;1.9795;
42.6000;1.2772;1.9844;
42.9000;1.2747;1.9892;
43.2000;1.2739;1.9892;
43.5000;1.2747;1.9941;
43.8000;1.2772;1.9941;
44.1000;1.2764;1.9916;
44.4000;1.2780;1.9941;
44.7000;1.2772;1.9941;
45.0000;1.2780;2.0013;
45.3000;1.2780;1.9989;
45.6000;1.2788;1.9916;
45.9000;1.2788;1.9916;
46.2000;1.2780;1.9868;
46.5000;1.2796;1.9916;
46.8000;1.2804;1.9916;
47.1000;1.2804;1.9844;
47.4000;1.2821;1.9868;
47.7000;1.2821;1.9820;
48.0000;1.2812;1.9723;
48.3000;1.2804;1.9699;
48.6000;1.2812;1.9820;
48.9000;1.2837;1.9771;
49.2000;1.2829;1.9747;
49.5000;1.2812;1.9795;
49.8000;1.2812;1.9699;
50.1000;1.2845;1.9771;
50.4000;1.2845;1.9771;
50.7000;1.2829;1.9675;
51.0000;1.2845;1.9675;
51.3000;1.2853;1.9650;
51.6000;1.2829;1.9699;
51.9000;1.2853;1.9771;
52.2000;1.2861;1.9795;
52.5000;1.2853;1.9771;
52.8000;1.2869;1.9771;
53.1000;1.2853;1.9699;
53.4000;1.2837;1.9723;
53.7000;1.2853;1.9747;
54.0000;1.2861;1.9771;
54.3000;1.2853;1.9771;
54.6000;1.2837;1.9844;
54.9000;1.2853;1.9795;
55.2000;1.2853;1.9747;
55.5000;1.2853;1.9626;
55.8000;1.2853;1.9578;
56.1000;1.2861;1.9554;
56.4000;1.2877;1.9650;
56.7000;1.2894;1.9699;
57.0000;1.2788;1.9457;
57.3000;1.2869;1.9650;
57.6000;1.2902;1.9675;
57.9000;1.2877;1.9602;
58.2000;1.2886;1.9650;
58.5000;1.2943;1.9795;
58.8000;1.2845;1.9578;
59.1000;1.2902;1.9675;
59.4000;1.2894;1.9650;
59.7000;1.2877;1.9626;
60.0000;1.2886;1.9626;
60.3000;1.2894;1.9650;
60.6000;1.2910;1.9626;
60.9000;1.2910;1.9602;
61.2000;1.2918;1.9626;
61.5000;1.2918;1.9578;
61.8000;1.2918;1.9650;
62.1000;1.2910;1.9626;
62.4000;1.2918;1.9626;
62.7000;1.2934;1.9602;
63.0000;1.2967;1.9626;
63.3000;1.2926;1.9530;
63.6000;1.2894;1.9457;
63.9000;1.2918;1.9457;
64.2000;1.2975;1.9675;
64.5000;1.2918;1.9433;
64.8000;1.2926;1.9433;
65.1000;1.2902;1.9385;
65.4000;1.2934;1.9481;
65.7000;1.2910;1.9457;
66.0000;1.2934;1.9433;
66.3000;1.2934;1.9433;
66.6000;1.2934;1.9433;
66.9000;1.2934;1.9481;
67.2000;1.2943;1.9457;
67.5000;1.2943;1.9505;
67.8000;1.2951;1.9481;
68.1000;1.2951;1.9530;
68.4000;1.2934;1.9530;
68.7000;1.2934;1.9481;
69.0000;1.2934;1.9433;
69.3000;1.2959;1.9481;
69.6000;1.2943;1.9433;
69.9000;1.2943;1.9505;
70.2000;1.2951;1.9554;
70.5000;1.2967;1.9554;
70.8000;1.2967;1.9481;
71.1000;1.2951;1.9409;
71.4000;1.2967;1.9433;
71.7000;1.2967;1.9433;
72.0000;1.2975;1.9409;
72.3000;1.2967;1.9409;
72.6000;1.2959;1.9409;
72.9000;1.2959;1.9554;
73.2000;1.2975;1.9602;
73.5000;1.2959;1.9530;
73.8000;1.2967;1.9481;
74.1000;1.2967;1.9433;
74.4000;1.2967;1.9457;
74.7000;1.2975;1.9578;
75.0000;1.2967;1.9578;
75.3000;1.2967;1.9530;
75.6000;1.2975;1.9530;
75.9000;1.2975;1.9481;
76.2000;1.2967;1.9530;
76.5000;1.2959;1.9602;
76.8000;1.2975;1.9602;
77.1000;1.2975;1.9602;
77.4000;1.2983;1.9578;
77.7000;1.2991;1.9602;
78.0000;1.2918;1.9409;
78.3000;1.2991;1.9554;
78.6000;1.3000;1.9505;
78.9000;1.2975;1.9433;
79.2000;1.2991;1.9481;
79.5000;1.3000;1.9530;
79.8000;1.2983;1.9505;
80.1000;1.2975;1.9505;
80.4000;1.2975;1.9505;
80.7000;1.2975;1.9505;
81.0000;1.2926;1.9312;
81.3000;1.2983;1.9360;
81.6000;1.2991;1.9336;
81.9000;1.2991;1.9215;
82.2000;1.2983;1.9191;
82.5000;1.3008;1.9191;
82.8000;1.3000;1.9215;
83.1000;1.3016;1.9191;
83.4000;1.3024;1.9240;
83.7000;1.3000;1.9167;
84.0000;1.2991;1.9215;
84.3000;1.2983;1.9312;
84.6000;1.2991;1.9409;
84.9000;1.2991;1.9457;
85.2000;1.3000;1.9360;
85.5000;1.3000;1.9312;
85.8000;1.3057;1.9457;
86.1000;1.3008;1.9409;
86.4000;1.3008;1.9433;
86.7000;1.3008;1.9409;
87.0000;1.3081;1.9554;
87.3000;1.3016;1.9385;
87.6000;1.3016;1.9409;
87.9000;1.3000;1.9385;
88.2000;1.3016;1.9433;
88.5000;1.3016;1.9457;
88.8000;1.3008;1.9505;
89.1000;1.3032;1.9481;
89.4000;1.3000;1.9433;
89.7000;1.3032;1.9505;
90.0000;1.3000;1.9530;
90.3000;1.3016;1.9626;
90.6000;1.2991;1.9650;
90.9000;1.3016;1.9699;
91.2000;1.3008;1.9675;
91.5000;1.3016;1.9626;
91.8000;1.3024;1.9650;
92.1000;1.3016;1.9602;
92.4000;1.3024;1.9530;
92.7000;1.3024;1.9481;
93.0000;1.3008;1.9505;
93.3000;1.3024;1.9554;
93.6000;1.2991;1.9481;
93.9000;1.3024;1.9457;
94.2000;1.3024;1.9336;
94.5000;1.3024;1.9288;
94.8000;1.3040;1.9288;
95.1000;1.3057;1.9288;
95.4000;1.3032;1.9240;
95.7000;1.3024;1.9312;
96.0000;1.3008;1.9312;
96.3000;1.3032;1.9457;
96.6000;1.3032;1.9360;
96.9000;1.3048;1.9288;
97.2000;1.3048;1.9240;
97.5000;1.3024;1.9167;
97.8000;1.3048;1.9070;
98.1000;1.3032;1.9046;
98.4000;1.3040;1.9070;
98.7000;1.3040;1.8998;
99.0000;1.3073;1.9070;
99.3000;1.3000;1.8950;
99.6000;1.3032;1.8998;
99.9000;1.3114;1.9312;
100.2000;1.3032;1.9191;
100.5000;1.3032;1.9143;
100.8000;1.3024;1.9119;
101.1000;1.3032;1.9143;
101.4000;1.3032;1.9215;
101.7000;1.3032;1.9167;
102.0000;1.3032;1.9191;
102.3000;1.3040;1.9240;
102.6000;1.3032;1.9288;
102.9000;1.3016;1.9191;
103.2000;1.3032;1.9143;
103.5000;1.3057;1.9191;
103.8000;1.3032;1.9095;
104.1000;1.3057;1.9167;
104.4000;1.3032;1.9143;
104.7000;1.3032;1.9191;
105.0000;1.3065;1.9191;
105.3000;1.3048;1.9022;
105.6000;1.3065;1.9119;
105.9000;1.3000;1.9022;
106.2000;1.3040;1.9143;
106.5000;1.3040;1.9264;
106.8000;1.3040;1.9264;
107.1000;1.3040;1.9312;
107.4000;1.3048;1.9336;
107.7000;1.3048;1.9288;
108.0000;1.3040;1.9240;
108.3000;1.3024;1.9191;
108.6000;1.3073;1.9264;
108.9000;1.3089;1.9312;
109.2000;1.3065;1.9288;
109.5000;1.3032;1.9240;
109.8000;1.3122;1.9360;
110.1000;1.3065;1.9143;
110.4000;1.3065;1.9143;
110.7000;1.3057;1.9143;
111.0000;1.3057;1.9143;
111.3000;1.3065;1.9119;
111.6000;1.3065;1.9046;
111.9000;1.3065;1.9022;
112.2000;1.3081;1.9070;
112.5000;1.3073;1.9046;
112.8000;1.3065;1.9046;
113.1000;1.3048;1.8974;
113.4000;1.3048;1.8998;
113.7000;1.3048;1.8974;
114.0000;1.3057;1.8974;
114.3000;1.3073;1.9119;
114.6000;1.3057;1.9119;
114.9000;1.3081;1.9095;
115.2000;1.3048;1.9070;
115.5000;1.3040;1.9095;
115.8000;1.3040;1.9143;
116.1000;1.3040;1.9143;
116.4000;1.3040;1.9046;
116.7000;1.3057;1.9046;
117.0000;1.3057;1.9070;
117.3000;1.3032;1.8998;
117.6000;1.3040;1.9046;
117.9000;1.3065;1.9095;
118.2000;1.3024;1.8998;
118.5000;1.3057;1.9046;
118.8000;1.3057;1.9022;
119.1000;1.3081;1.8998;
119.4000;1.3089;1.9046;
119.7000;1.3081;1.8998;
120.0000;1.3081;1.8998;
120.3000;1.3089;1.8974;
120.6000;1.3065;1.8901;
120.9000;1.3057;1.8998;
121.2000;1.3065;1.9022;
121.5000;1.3073;1.9022;
121.8000;1.3065;1.8998;
122.1000;1.3073;1.8974;
122.4000;1.3065;1.8925;
122.7000;1.3073;1.9022;
123.0000;1.3081;1.9022;
123.3000;1.3073;1.9022;
123.6000;1.3057;1.9167;
123.9000;1.3057;1.9167;
124.2000;1.3122;1.9336;
124.5000;1.3065;1.9191;
124.8000;1.3048;1.9095;
125.1000;1.3122;1.9288;
125.4000;1.3073;1.9095;
125.7000;1.3089;1.9070;
126.0000;1.3130;1.9240;
126.3000;1.3048;1.9095;
126.6000;1.3073;1.9119;
126.9000;1.3057;1.9095;
127.2000;1.3065;1.9095;
127.5000;1.3065;1.9095;
127.8000;1.3057;1.9070;
128.1000;1.3146;1.9360;
128.4000;1.3065;1.9191;
128.7000;1.3089;1.9215;
129.0000;1.3073;1.9240;
129.3000;1.3097;1.9288;
129.6000;1.3032;1.9095;
129.9000;1.3065;1.9119;
130.2000;1.3081;1.9119;
130.5000;1.3081;1.9119;
130.8000;1.3105;1.9167;
131.1000;1.3073;1.9167;
131.4000;1.3081;1.9191;
131.7000;1.3073;1.9191;
132.0000;1.3081;1.9191;
132.3000;1.3081;1.9095;
132.6000;1.3065;1.9046;
132.9000;1.3065;1.8950;
133.2000;1.3073;1.8950;
133.5000;1.3073;1.8901;
133.8000;1.3065;1.8829;
134.1000;1.3073;1.8901;
134.4000;1.3122;1.8950;
134.7000;1.3081;1.8950;
135.0000;1.3065;1.8925;
135.3000;1.3065;1.8925;
135.6000;1.3081;1.8925;
135.9000;1.3089;1.8925;
136.2000;1.3089;1.8998;
136.5000;1.3114;1.9046;
136.8000;1.3089;1.8974;
137.1000;1.3081;1.8950;
137.4000;1.3114;1.9119;
137.7000;1.3081;1.8925;
138.0000;1.3073;1.8901;
138.3000;1.3089;1.8998;
138.6000;1.3073;1.8925;
138.9000;1.3065;1.8901;
139.2000;1.3081;1.8925;
139.5000;1.3081;1.8925;
139.8000;1.3065;1.8998;
140.1000;1.3089;1.9046;
140.4000;1.3065;1.9095;
140.7000;1.3081;1.9191;
141.0000;1.3081;1.9215;
141.3000;1.3089;1.9143;
141.6000;1.3073;1.9215;
141.9000;1.3073;1.9240;
142.2000;1.3081;1.9191;
142.5000;1.3073;1.9143;
142.8000;1.3089;1.9215;
143.1000;1.3089;1.9215;
143.4000;1.3105;1.9240;
143.7000;1.3081;1.9143;
144.0000;1.3089;1.9070;
144.3000;1.3081;1.9070;
144.6000;1.3073;1.9070;
144.9000;1.3081;1.9070;
145.2000;1.3081;1.9022;
145.5000;1.3065;1.8950;
145.8000;1.3073;1.8950;
146.1000;1.3073;1.8925;
146.4000;1.3024;1.8829;
146.7000;1.3089;1.8901;
147.0000;1.3089;1.8877;
147.3000;1.3081;1.8877;
147.6000;1.3089;1.8974;
147.9000;1.3081;1.8950;
148.2000;1.3081;1.8974;
148.5000;1.3089;1.9022;
148.8000;1.3081;1.8998;
149.1000;1.3057;1.8974;
149.4000;1.3081;1.9046;
149.7000;1.3089;1.9167;
150.0000;1.3081;1.9215;
150.3000;1.3065;1.9191;
150.6000;1.3024;1.9095;
150.9000;1.3097;1.9191;
151.2000;1.3105;1.9191;
151.5000;1.3065;1.9095;
151.8000;1.3081;1.9095;
152.1000;1.3081;1.9022;
152.4000;1.3073;1.9046;
152.7000;1.3073;1.9022;
153.0000;1.3081;1.9119;
153.3000;1.3073;1.9095;
153.6000;1.3105;1.8998;
153.9000;1.3057;1.8829;
154.2000;1.3105;1.8901;
154.5000;1.3081;1.8805;
154.8000;1.3089;1.8756;
155.1000;1.3162;1.8974;
155.4000;1.3114;1.8925;
155.7000;1.3114;1.8925;
156.0000;1.3105;1.8974;
156.3000;1.3089;1.8925;
156.6000;1.3089;1.8925;
156.9000;1.3089;1.8877;
157.2000;1.3081;1.8780;
157.5000;1.3089;1.8829;
157.8000;1.3073;1.8780;
158.1000;1.3081;1.8659;
158.4000;1.3089;1.8732;
158.7000;1.3073;1.8708;
159.0000;1.3089;1.8829;
159.3000;1.3097;1.8877;
159.6000;1.3081;1.8877;
159.9000;1.3097;1.8805;
160.2000;1.3081;1.8756;
160.5000;1.3097;1.8877;
160.8000;1.3073;1.8877;
161.1000;1.3097;1.9022;
161.4000;1.3089;1.8950;
161.7000;1.3073;1.8974;
162.0000;1.3122;1.8950;
162.3000;1.3089;1.8901;
162.6000;1.3073;1.8877;
162.9000;1.3105;1.8877;
163.2000;1.3089;1.8901;
163.5000;1.3057;1.8805;
163.8000;1.3097;1.9022;
164.1000;1.3114;1.9070;
164.4000;1.3048;1.8974;
164.7000;1.3089;1.8998;
165.0000;1.3097;1.9046;
165.3000;1.3105;1.9095;
165.6000;1.3089;1.9022;
165.9000;1.3073;1.8998;
166.2000;1.3097;1.9046;
166.5000;1.3097;1.8974;
166.8000;1.3089;1.8974;
167.1000;1.3081;1.8925;
167.4000;1.3114;1.8901;
167.7000;1.3089;1.8853;
168.0000;1.3105;1.8780;
168.3000;1.3081;1.8708;
168.6000;1.3097;1.8829;
168.9000;1.3097;1.8805;
169.2000;1.3105;1.8925;
169.5000;1.3097;1.8853;
169.8000;1.3065;1.8780;
170.1000;1.3097;1.8877;
170.4000;1.3097;1.8925;
170.7000;1.3089;1.8950;
171.0000;1.3097;1.8950;
171.3000;1.3089;1.8950;
171.6000;1.3097;1.8901;
171.9000;1.3105;1.8829;
172.2000;1.3105;1.8901;
172.5000;1.3097;1.8877;
172.8000;1.3089;1.8877;
173.1000;1.3105;1.8877;
173.4000;1.3081;1.8901;
173.7000;1.3105;1.8974;
174.0000;1.3097;1.8901;
174.3000;1.3089;1.8950;
174.6000;1.3105;1.8950;
174.9000;1.3114;1.8974;
175.2000;1.3097;1.8950;
175.5000;1.3097;1.9022;
175.8000;1.3105;1.9046;
176.1000;1.3089;1.9022;
176.4000;1.3097;1.9070;
176.7000;1.3114;1.9119;
177.0000;1.3081;1.9070;
177.3000;1.3048;1.8974;
177.6000;1.3057;1.8998;
177.9000;1.3105;1.9119;
178.2000;1.3057;1.9022;
178.5000;1.3089;1.9191;
178.8000;1.3097;1.9191;
179.1000;1.3089;1.9119;
179.4000;1.3097;1.9119;
179.7000;1.3097;1.9095;
180.0000;1.3081;1.8974;
180.3000;1.3089;1.8950;
180.6000;1.3105;1.8901;
180.9000;1.3097;1.8901;
181.2000;1.3097;1.8877;
181.5000;1.3105;1.8853;
181.8000;1.3122;1.8853;
182.1000;1.3105;1.8901;
182.4000;1.3097;1.8925;
182.7000;1.3073;1.8877;
183.0000;1.3089;1.8877;
183.3000;1.3105;1.8974;
183.6000;1.3089;1.8950;
183.9000;1.3057;1.8950;
184.2000;1.3154;1.9143;
184.5000;1.3089;1.9022;
184.8000;1.3097;1.9022;
185.1000;1.3114;1.8974;
185.4000;1.3097;1.8901;
185.7000;1.3114;1.8974;
186.0000;1.3081;1.8925;
186.3000;1.3081;1.9046;
186.6000;1.3114;1.8974;
186.9000;1.3097;1.8925;
187.2000;1.3097;1.8950;
187.5000;1.3065;1.8925;
187.8000;1.3105;1.8998;
188.1000;1.3057;1.8925;
188.4000;1.3097;1.9022;
188.7000;1.3097;1.8925;
189.0000;1.3122;1.8974;
189.3000;1.3130;1.8877;
189.6000;1.3105;1.8829;
189.9000;1.3105;1.8805;
190.2000;1.3105;1.8756;
190.5000;1.3097;1.8732;
190.8000;1.3089;1.8732;
191.1000;1.3097;1.8780;
191.4000;1.3089;1.8829;
191.7000;1.3089;1.8877;
192.0000;1.3105;1.8877;
192.3000;1.3097;1.8877;
192.6000;1.3097;1.8853;
192.9000;1.3114;1.8901;
193.2000;1.3097;1.8853;
193.5000;1.3105;1.8853;
193.8000;1.3081;1.8732;
194.1000;1.3048;1.8659;
194.4000;1.3105;1.8853;
194.7000;1.3122;1.8925;
195.0000;1.3105;1.8780;
195.3000;1.3097;1.8756;
195.6000;1.3105;1.8756;
195.9000;1.3105;1.8756;
196.2000;1.3097;1.8732;
196.5000;1.3097;1.8756;
196.8000;1.3105;1.8829;
197.1000;1.3105;1.8925;
197.4000;1.3097;1.8877;
197.7000;1.3097;1.8853;
198.0000;1.3089;1.8780;
198.3000;1.3089;1.8780;
198.6000;1.3089;1.8805;
198.9000;1.3105;1.8805;
199.2000;1.3089;1.8756;
199.5000;1.3097;1.8877;
199.8000;1.3097;1.8877;
200.1000;1.3114;1.8901;
200.4000;1.3089;1.8925;
200.7000;1.3081;1.8805;
201.0000;1.3073;1.8877;
201.3000;1.3105;1.8950;
201.6000;1.3097;1.8901;
201.9000;1.3105;1.8877;
202.2000;1.3114;1.8901;
202.5000;1.3105;1.8901;
202.8000;1.3097;1.8950;
203.1000;1.3105;1.8998;
203.4000;1.3114;1.9022;
203.7000;1.3097;1.8925;
204.0000;1.3089;1.8998;
204.3000;1.3081;1.8998;
204.6000;1.3105;1.8950;
204.9000;1.3154;1.9119;
205.2000;1.3089;1.8925;
205.5000;1.3097;1.8925;
205.8000;1.3089;1.8877;
206.1000;1.3211;1.9215;
206.4000;1.3097;1.8974;
206.7000;1.3097;1.8950;
207.0000;1.3073;1.8805;
207.3000;1.3089;1.8877;
207.6000;1.3097;1.8950;
207.9000;1.3089;1.8950;
208.2000;1.3089;1.8974;
208.5000;1.3105;1.9119;
208.8000;1.3081;1.9167;
209.1000;1.3065;1.8998;
209.4000;1.3089;1.9191;
209.7000;1.3097;1.9167;
210.0000;1.3097;1.9264;
210.3000;1.3097;1.9167;
210.6000;1.3089;1.9143;
210.9000;1.3089;1.9119;
211.2000;1.3105;1.9143;
211.5000;1.3105;1.9070;
211.8000;1.3097;1.8974;
212.1000;1.3105;1.9046;
212.4000;1.3105;1.9070;
212.7000;1.3097;1.8998;
213.0000;1.3097;1.8950;
213.3000;1.3097;1.8805;
213.6000;1.3097;1.8805;
213.9000;1.3105;1.8829;
214.2000;1.3105;1.8901;
214.5000;1.3097;1.8925;
214.8000;1.3114;1.8950;
215.1000;1.3105;1.8950;
215.4000;1.3130;1.8998;
215.7000;1.3105;1.8998;
216.0000;1.3097;1.9070;
216.3000;1.3048;1.8998;
216.6000;1.3089;1.9095;
216.9000;1.3097;1.9070;
217.2000;1.3089;1.9095;
217.5000;1.3097;1.9119;
217.8000;1.3089;1.9143;
218.1000;1.3105;1.9143;
218.4000;1.3089;1.9095;
218.7000;1.3097;1.9095;
219.0000;1.3081;1.9070;
219.3000;1.3089;1.9046;
219.6000;1.3097;1.9046;
219.9000;1.3097;1.9095;
220.2000;1.3105;1.9095;
220.5000;1.3073;1.9119;
220.8000;1.3089;1.9095;
221.1000;1.3138;1.9119;
221.4000;1.3114;1.9119;
221.7000;1.3105;1.9070;
222.0000;1.3154;1.9240;
222.3000;1.3130;1.9240;
222.6000;1.3130;1.9264;
222.9000;1.3097;1.9240;
223.2000;1.3171;1.9385;
223.5000;1.3097;1.9215;
223.8000;1.3097;1.9143;
224.1000;1.3130;1.9167;
224.4000;1.3097;1.9046;
224.7000;1.3081;1.8998;
225.0000;1.3114;1.9143;
225.3000;1.3114;1.9119;
225.6000;1.3105;1.9143;
225.9000;1.3089;1.9095;
226.2000;1.3097;1.9022;
226.5000;1.3105;1.9046;
226.8000;1.3097;1.8950;
227.1000;1.3089;1.8950;
227.4000;1.3105;1.8974;
227.7000;1.3097;1.9046;
228.0000;1.3171;1.9191;
228.3000;1.3105;1.9022;
228.6000;1.3105;1.8998;
228.9000;1.3097;1.8998;
229.2000;1.3081;1.8950;
229.5000;1.3097;1.8901;
229.8000;1.3105;1.8925;
230.1000;1.3130;1.8950;
230.4000;1.3105;1.8877;
230.7000;1.3089;1.8829;
231.0000;1.3097;1.8901;
231.3000;1.3114;1.8950;
231.6000;1.3114;1.8974;
231.9000;1.3073;1.8925;
232.2000;1.3097;1.9022;
232.5000;1.3105;1.9095;
232.8000;1.3114;1.9119;
233.1000;1.3114;1.9167;
233.4000;1.3073;1.9046;
233.7000;1.3105;1.9095;
234.0000;1.3105;1.9022;
234.3000;1.3105;1.9070;
234.6000;1.3146;1.9215;
234.9000;1.3089;1.8998;
235.2000;1.3105;1.9046;
235.5000;1.3154;1.9167;
235.8000;1.3089;1.8974;
236.1000;1.3081;1.8925;
236.4000;1.3097;1.8998;
236.7000;1.3130;1.9119;
237.0000;1.3105;1.9095;
237.3000;1.3097;1.9119;
237.6000;1.3105;1.9143;
237.9000;1.3114;1.9119;
238.2000;1.3114;1.9167;
238.5000;1.3105;1.9119;
238.8000;1.3114;1.9046;
239.1000;1.3114;1.9095;
239.4000;1.3089;1.9095;
239.7000;1.3073;1.9046;
240.0000;1.3097;1.9070;
240.3000;1.3065;1.8925;
240.6000;1.3105;1.9046;
240.9000;1.3097;1.9022;
241.2000;1.3097;1.8998;
241.5000;1.3114;1.8974;
241.8000;1.3187;1.9119;
242.1000;1.3105;1.8998;
242.4000;1.3081;1.8974;
242.7000;1.3073;1.8877;
243.0000;1.3105;1.8974;
243.3000;1.3097;1.9046;
243.6000;1.3089;1.9046;
243.9000;1.3081;1.8950;
244.2000;1.3089;1.9070;
244.5000;1.3089;1.9215;
244.8000;1.3073;1.9143;
245.1000;1.3089;1.9119;
245.4000;1.3097;1.9095;
245.7000;1.3097;1.8974;
246.0000;1.3122;1.9046;
246.3000;1.3138;1.9167;
246.6000;1.3097;1.9143;
246.9000;1.3097;1.9119;
247.2000;1.3130;1.9167;
247.5000;1.3097;1.9119;
247.8000;1.3130;1.9167;
248.1000;1.3138;1.9119;
248.4000;1.3105;1.9119;
248.7000;1.3073;1.9022;
249.0000;1.3114;1.9046;
249.3000;1.3130;1.9143;
249.6000;1.3146;1.9143;
249.9000;1.3089;1.8925;
250.2000;1.3097;1.8925;
250.5000;1.3105;1.8998;
250.8000;1.3097;1.9070;
251.1000;1.3097;1.8998;
251.4000;1.3105;1.8998;
251.7000;1.3097;1.9022;
252.0000;1.3114;1.9022;
252.3000;1.3097;1.8998;
252.6000;1.3105;1.9022;
252.9000;1.3105;1.8925;
253.2000;1.3114;1.8901;
253.5000;1.3122;1.8877;
253.8000;1.3105;1.8974;
254.1000;1.3105;1.9046;
254.4000;1.3114;1.9046;
254.7000;1.3122;1.9070;
255.0000;1.3114;1.9070;
255.3000;1.3089;1.8998;
255.6000;1.3122;1.8998;
255.9000;1.3097;1.9095;
256.2000;1.3105;1.9143;
256.5000;1.3073;1.9022;
256.8000;1.3105;1.9070;
257.1000;1.3114;1.9119;
257.4000;1.3105;1.9191;
257.7000;1.3089;1.9167;
258.0000;1.3105;1.9288;
258.3000;1.3114;1.9288;
258.6000;1.3114;1.9288;
258.9000;1.3097;1.9240;
259.2000;1.3114;1.9240;
259.5000;1.3097;1.9143;
259.8000;1.3105;1.9095;
260.1000;1.3089;1.9046;
260.4000;1.3089;1.9095;
260.7000;1.3105;1.9070;
261.0000;1.3114;1.9046;
261.3000;1.3105;1.9046;
261.6000;1.3097;1.9070;
261.9000;1.3114;1.9143;
262.2000;1.3122;1.9191;
262.5000;1.3114;1.9070;
262.8000;1.3114;1.9119;
263.1000;1.3105;1.9143;
263.4000;1.3105;1.9191;
263.7000;1.3073;1.9167;
264.0000;1.3105;1.9240;
264.3000;1.3179;1.9409;
264.6000;1.3114;1.9288;
264.9000;1.3097;1.9167;
265.2000;1.3105;1.9240;
265.5000;1.3122;1.9264;
265.8000;1.3105;1.9191;
266.1000;1.3105;1.9119;
266.4000;1.3114;1.9070;
266.7000;1.3089;1.9046;
267.0000;1.3105;1.9046;
267.3000;1.3114;1.9022;
267.6000;1.3171;1.8998;
267.9000;1.3032;1.8635;
268.2000;1.3105;1.8853;
268.5000;1.3089;1.8756;
268.8000;1.3081;1.8732;
269.1000;1.3114;1.8901;
269.4000;1.3089;1.8901;
269.7000;1.3089;1.8829;
270.0000;1.3097;1.8877;
270.3000;1.3114;1.8877;
270.6000;1.3097;1.8829;
270.9000;1.3114;1.8901;
271.2000;1.3114;1.9119;
271.5000;1.3105;1.9095;
271.8000;1.3105;1.9167;
272.1000;1.3105;1.9119;
272.4000;1.3105;1.9119;
272.7000;1.3114;1.9046;
273.0000;1.3105;1.9022;
273.3000;1.3114;1.9070;
273.6000;1.3114;1.9022;
273.9000;1.3114;1.9022;
274.2000;1.3114;1.9046;
274.5000;1.3105;1.9119;
274.8000;1.3105;1.9119;
275.1000;1.3114;1.9215;
275.4000;1.3097;1.9070;
275.7000;1.3105;1.9022;
276.0000;1.3114;1.9022;
276.3000;1.3114;1.9095;
276.6000;1.3097;1.9119;
276.9000;1.3122;1.9095;
277.2000;1.3089;1.9095;
277.5000;1.3114;1.9191;
277.8000;1.3105;1.9119;
278.1000;1.3105;1.9070;
278.4000;1.3097;1.9070;
278.7000;1.3114;1.8998;
279.0000;1.3122;1.8974;
279.3000;1.3097;1.8974;
279.6000;1.3097;1.9022;
279.9000;1.3114;1.8998;
280.2000;1.3114;1.9046;
280.5000;1.3089;1.8925;
280.8000;1.3114;1.8950;
281.1000;1.3122;1.8925;
281.4000;1.3114;1.8925;
281.7000;1.3097;1.8829;
282.0000;1.3097;1.8925;
282.3000;1.3130;1.8998;
282.6000;1.3130;1.9095;
282.9000;1.3122;1.9095;
283.2000;1.3130;1.9119;
283.5000;1.3105;1.9167;
283.8000;1.3122;1.9191;
284.1000;1.3114;1.9167;
284.4000;1.3146;1.9191;
284.7000;1.3171;1.9264;
285.0000;1.3097;1.9191;
285.3000;1.3122;1.9240;
285.6000;1.3122;1.9288;
285.9000;1.3081;1.9288;
286.2000;1.3065;1.9215;
286.5000;1.3114;1.9264;
286.8000;1.3154;1.9385;
287.1000;1.3097;1.9167;
287.4000;1.3105;1.9143;
287.7000;1.3114;1.9046;
288.0000;1.3105;1.9070;
288.3000;1.3097;1.8998;
288.6000;1.3114;1.9022;
288.9000;1.3114;1.9022;
289.2000;1.3089;1.8901;
289.5000;1.3114;1.8998;
289.8000;1.3089;1.8974;
290.1000;1.3105;1.9119;
290.4000;1.3105;1.9143;
290.7000;1.3114;1.9095;
291.0000;1.3105;1.9119;
291.3000;1.3105;1.9095;
291.6000;1.3114;1.8998;
291.9000;1.3114;1.8998;
292.2000;1.3097;1.8950;
292.5000;1.3097;1.8901;
292.8000;1.3114;1.8925;
293.1000;1.3122;1.8998;
293.4000;1.3114;1.8925;
293.7000;1.3105;1.8925;
294.0000;1.3179;1.9143;
294.3000;1.3105;1.9022;
294.6000;1.3089;1.8974;
294.9000;1.3114;1.8950;
295.2000;1.3114;1.9022;
295.5000;1.3114;1.8901;
295.8000;1.3114;1.8925;
296.1000;1.3097;1.8925;
296.4000;1.3114;1.8925;
296.7000;1.3097;1.8950;
297.0000;1.3105;1.8974;
297.3000;1.3105;1.8925;
297.6000;1.3097;1.8901;
297.9000;1.3122;1.8950;
298.2000;1.3105;1.8950;
298.5000;1.3097;1.8925;
298.8000;1.3114;1.9022;
299.1000;1.3122;1.8998;
299.4000;1.3122;1.8877;
299.7000;1.3105;1.8829;
300.0000;1.3105;1.8829;
300.3000;1.3122;1.8829;
300.6000;1.3097;1.8780;
300.9000;1.3105;1.8901;
301.2000;1.3105;1.8901;
301.5000;1.3114;1.8950;
301.8000;1.3097;1.8998;
302.1000;1.3089;1.9022;
302.4000;1.3089;1.9046;
302.7000;1.3081;1.9046;
303.0000;1.3130;1.9240;
303.3000;1.3114;1.9191;
303.6000;1.3097;1.9167;
303.9000;1.3122;1.9143;
304.2000;1.3105;1.9095;
304.5000;1.3105;1.9095;
304.8000;1.3114;1.9119;
305.1000;1.3089;1.9095;
305.4000;1.3105;1.9119;
305.7000;1.3097;1.9167;
306.0000;1.3089;1.9167;
306.3000;1.3097;1.9191;
306.6000;1.3089;1.9167;
306.9000;1.3097;1.9215;
307.2000;1.3105;1.9264;
307.5000;1.3105;1.9312;
307.8000;1.3097;1.9215;
308.1000;1.3105;1.9191;
308.4000;1.3105;1.9215;
308.7000;1.3089;1.9191;
309.0000;1.3105;1.9240;
309.3000;1.3146;1.9409;
309.6000;1.3114;1.9288;
309.9000;1.3089;1.9264;
310.2000;1.3105;1.9167;
310.5000;1.3122;1.9167;
310.8000;1.3114;1.9143;
311.1000;1.3105;1.9070;
311.4000;1.3097;1.9095;
311.7000;1.3105;1.9143;
312.0000;1.3171;1.9312;
312.3000;1.3073;1.9143;
312.6000;1.3097;1.9240;
312.9000;1.3105;1.9215;
313.2000;1.3089;1.9215;
313.5000;1.3105;1.9191;
313.8000;1.3097;1.9143;
314.1000;1.3097;1.9167;
314.4000;1.3105;1.9167;
314.7000;1.3114;1.9095;
315.0000;1.3122;1.9191;
315.3000;1.3105;1.9143;
315.6000;1.3122;1.9119;
315.9000;1.3122;1.9167;
316.2000;1.3122;1.9119;
316.5000;1.3089;1.8998;
316.8000;1.3105;1.9046;
317.1000;1.3097;1.9022;
317.4000;1.3097;1.9046;
317.7000;1.3114;1.9070;
318.0000;1.3105;1.9070;
318.3000;1.3122;1.9046;
318.6000;1.3105;1.9070;
318.9000;1.3105;1.9167;
319.2000;1.3105;1.9119;
319.5000;1.3130;1.9119;
319.8000;1.3105;1.8998;
320.1000;1.3195;1.9312;
320.4000;1.3097;1.9143;
320.7000;1.3114;1.9167;
321.0000;1.3097;1.9264;
321.3000;1.3114;1.9240;
321.6000;1.3097;1.9167;
321.9000;1.3097;1.9191;
322.2000;1.3114;1.9191;
322.5000;1.3097;1.9191;
322.8000;1.3097;1.9215;
323.1000;1.3105;1.9215;
323.4000;1.3097;1.9215;
323.7000;1.3105;1.9336;
324.0000;1.3130;1.9288;
324.3000;1.3089;1.9143;
324.6000;1.3105;1.9191;
324.9000;1.3097;1.9240;
325.2000;1.3130;1.9264;
325.5000;1.3114;1.9167;
325.8000;1.3105;1.9143;
326.1000;1.3089;1.9119;
326.4000;1.3114;1.9167;
326.7000;1.3097;1.9143;
327.0000;1.3081;1.9167;
327.3000;1.3097;1.9288;
327.6000;1.3097;1.9264;
327.9000;1.3105;1.9288;
328.2000;1.3089;1.9143;
328.5000;1.3089;1.9119;
328.8000;1.3122;1.9215;
329.1000;1.3114;1.9143;
329.4000;1.3097;1.9143;
329.7000;1.3105;1.9264;
330.0000;1.3105;1.9312;
330.3000;1.3114;1.9360;
330.6000;1.3089;1.9288;
330.9000;1.3097;1.9264;
331.2000;1.3122;1.9312;
331.5000;1.3097;1.9288;
331.8000;1.3065;1.9143;
332.1000;1.3105;1.9167;
332.4000;1.3114;1.9143;
332.7000;1.3097;1.9095;
333.0000;1.3114;1.9312;
333.3000;1.3065;1.9191;
333.6000;1.3105;1.9360;
333.9000;1.3097;1.9385;
334.2000;1.3081;1.9385;
334.5000;1.3105;1.9385;
334.8000;1.3114;1.9360;
335.1000;1.3114;1.9312;
335.4000;1.3122;1.9312;
335.7000;1.3114;1.9288;
336.0000;1.3097;1.9215;
336.3000;1.3114;1.9312;
336.6000;1.3114;1.9360;
336.9000;1.3122;1.9385;
337.2000;1.3097;1.9264;
337.5000;1.3065;1.9046;
337.8000;1.3114;1.9167;
338.1000;1.3089;1.9240;
338.4000;1.3114;1.9360;
338.7000;1.3089;1.9360;
339.0000;1.3114;1.9360;
339.3000;1.3105;1.9433;
339.6000;1.3105;1.9505;
339.9000;1.3114;1.9578;
340.2000;1.3114;1.9602;
340.5000;1.3105;1.9554;
340.8000;1.3114;1.9505;
341.1000;1.3130;1.9481;
341.4000;1.3097;1.9385;
341.7000;1.3097;1.9336;
342.0000;1.3089;1.9336;
342.3000;1.3122;1.9360;
342.6000;1.3105;1.9240;
342.9000;1.3105;1.9288;
343.2000;1.3179;1.9336;
343.5000;1.3089;1.9240;
343.8000;1.3097;1.9215;
344.1000;1.3138;1.9288;
344.4000;1.3105;1.9191;
344.7000;1.3105;1.9215;
345.0000;1.3114;1.9240;
345.3000;1.3114;1.9288;
345.6000;1.3097;1.9312;
345.9000;1.3138;1.9409;
346.2000;1.3097;1.9409;
346.5000;1.3114;1.9360;
346.8000;1.3105;1.9360;
347.1000;1.3114;1.9312;
347.4000;1.3081;1.9264;
347.7000;1.3097;1.9336;
348.0000;1.3105;1.9191;
348.3000;1.3114;1.9215;
348.6000;1.3105;1.9215;
348.9000;1.3097;1.9312;
349.2000;1.3105;1.9360;
349.5000;1.3097;1.9360;
349.8000;1.3114;1.9191;
350.1000;1.3105;1.9095;
350.4000;1.3105;1.9022;
350.7000;1.3114;1.9046;
351.0000;1.3138;1.9167;
351.3000;1.3105;1.9191;
351.6000;1.3114;1.9264;
351.9000;1.3114;1.9264;
352.2000;1.3089;1.9288;
352.5000;1.3089;1.9191;
352.8000;1.3089;1.9095;
353.1000;1.3114;1.9167;
353.4000;1.3089;1.9167;
353.7000;1.3146;1.9240;
354.0000;1.3105;1.9119;
354.3000;1.3130;1.9288;
354.6000;1.3097;1.9312;
354.9000;1.3138;1.9385;
355.2000;1.3122;1.9312;
355.5000;1.3130;1.9360;
355.8000;1.3171;1.9409;
356.1000;1.3171;1.9433;
356.4000;1.3154;1.9385;
356.7000;1.3089;1.9288;
357.0000;1.3105;1.9409;
357.3000;1.3114;1.9385;
357.6000;1.3130;1.9433;
357.9000;1.3097;1.9409;
358.2000;1.3122;1.9433;
358.5000;1.3081;1.9312;
358.8000;1.3105;1.9457;
359.1000;1.3097;1.9385;
359.4000;1.3114;1.9409;
359.7000;1.3089;1.9336;
360.0000;1.3089;1.9240;
360.3000;1.3097;1.9264;
360.6000;1.3138;1.9433;
360.9000;1.3097;1.9360;
361.2000;1.3105;1.9385;
361.5000;1.3097;1.9336;
361.8000;1.3089;1.9264;
362.1000;1.3089;1.9240;
362.4000;1.3105;1.9167;
362.7000;1.3073;1.9070;
363.0000;1.3114;1.9119;
363.3000;1.3105;1.9070;
363.6000;1.3097;1.9119;
363.9000;1.3097;1.9191;
364.2000;1.3105;1.9215;
364.5000;1.3089;1.9095;
364.8000;1.3057;1.9022;
365.1000;1.3089;1.9191;
365.4000;1.3105;1.9191;
365.7000;1.3089;1.9095;
366.0000;1.3105;1.9143;
366.3000;1.3105;1.9167;
366.6000;1.3154;1.9264;
366.9000;1.3114;1.9095;
367.2000;1.3089;1.8950;
367.5000;1.3105;1.8925;
367.8000;1.3089;1.8829;
368.1000;1.3105;1.8901;
368.4000;1.3105;1.8901;
368.7000;1.3097;1.8877;
369.0000;1.3089;1.8877;
369.3000;1.3114;1.8998;
369.6000;1.3105;1.9046;
369.9000;1.3105;1.8998;
370.2000;1.3081;1.9046;
370.5000;1.3097;1.9046;
370.8000;1.3105;1.9022;
371.1000;1.3105;1.9022;
371.4000;1.3097;1.8998;
371.7000;1.3105;1.9046;
372.0000;1.3114;1.9095;
372.3000;1.3114;1.9070;
372.6000;1.3097;1.8974;
372.9000;1.3105;1.8998;
373.2000;1.3105;1.9046;
373.5000;1.3122;1.9095;
373.8000;1.3122;1.9095;
374.1000;1.3089;1.8925;
374.4000;1.3130;1.9022;
374.7000;1.3114;1.9046;
375.0000;1.3114;1.9070;
375.3000;1.3097;1.9070;
375.6000;1.3097;1.9095;
375.9000;1.3122;1.9143;
376.2000;1.3122;1.9191;
376.5000;1.3122;1.9143;
376.8000;1.3130;1.9119;
377.1000;1.3122;1.9022;
377.4000;1.3114;1.9119;
377.7000;1.3073;1.9046;
378.0000;1.3105;1.9167;
378.3000;1.3122;1.9240;
378.6000;1.3114;1.9167;
378.9000;1.3114;1.9167;
379.2000;1.3130;1.9215;
379.5000;1.3130;1.9264;
379.8000;1.3105;1.9191;
380.1000;1.3122;1.9191;
380.4000;1.3105;1.9167;
380.7000;1.3114;1.9070;
381.0000;1.3114;1.9119;
381.3000;1.3032;1.8998;
381.6000;1.3114;1.9191;
381.9000;1.3097;1.9167;
382.2000;1.3122;1.9095;
382.5000;1.3105;1.9119;
382.8000;1.3105;1.9119;
383.1000;1.3089;1.9070;
383.4000;1.3097;1.9070;
383.7000;1.3114;1.9119;
384.0000;1.3114;1.9095;
384.3000;1.3097;1.9070;
384.6000;1.3130;1.9240;
384.9000;1.3105;1.9240;
385.2000;1.3105;1.9336;
385.5000;1.3089;1.9360;
385.8000;1.3097;1.9264;
386.1000;1.3114;1.9264;
386.4000;1.3097;1.9191;
386.7000;1.3105;1.9143;
387.0000;1.3097;1.9191;
387.3000;1.3097;1.9240;
387.6000;1.3114;1.9360;
387.9000;1.3105;1.9240;
388.2000;1.3081;1.9215;
388.5000;1.3105;1.9336;
388.8000;1.3097;1.9312;
389.1000;1.3114;1.9336;
389.4000;1.3105;1.9288;
389.7000;1.3097;1.9288;
390.0000;1.3105;1.9264;
390.3000;1.3097;1.9240;
390.6000;1.3089;1.9336;
390.9000;1.3105;1.9336;
391.2000;1.3114;1.9336;
391.5000;1.3105;1.9288;
391.8000;1.3097;1.9143;
392.1000;1.3097;1.9070;
392.4000;1.3114;1.9143;
392.7000;1.3105;1.9143;
393.0000;1.3089;1.9167;
393.3000;1.3089;1.9143;
393.6000;1.3097;1.9119;
393.9000;1.3114;1.9070;
394.2000;1.3105;1.9095;
394.5000;1.3097;1.9143;
394.8000;1.3105;1.9240;
395.1000;1.3105;1.9240;
395.4000;1.3097;1.9215;
395.7000;1.3081;1.9191;
396.0000;1.3065;1.9143;
396.3000;1.3105;1.9191;
396.6000;1.3089;1.9046;
396.9000;1.3114;1.8998;
397.2000;1.3105;1.8998;
397.5000;1.3122;1.9070;
397.8000;1.3138;1.9070;
398.1000;1.3097;1.9070;
398.4000;1.3089;1.9070;
398.7000;1.3114;1.9119;
399.0000;1.3105;1.9215;
399.3000;1.3097;1.9264;
399.6000;1.3114;1.9336;
399.9000;1.3114;1.9385;
400.2000;1.3105;1.9360;
400.5000;1.3105;1.9336;
400.8000;1.3114;1.9336;
401.1000;1.3105;1.9264;
401.4000;1.3105;1.9240;
401.7000;1.3105;1.9288;
402.0000;1.3097;1.9385;
402.3000;1.3105;1.9433;
402.6000;1.3122;1.9409;
402.9000;1.3081;1.9336;
403.2000;1.3105;1.9240;
403.5000;1.3105;1.9240;
403.8000;1.3122;1.9288;
404.1000;1.3114;1.9167;
404.4000;1.3114;1.9119;
404.7000;1.3097;1.9070;
405.0000;1.3097;1.9022;
405.3000;1.3105;1.9046;
405.6000;1.3105;1.9070;
405.9000;1.3089;1.9095;
406.2000;1.3105;1.9046;
406.5000;1.3105;1.9095;
406.8000;1.3105;1.9070;
407.1000;1.3097;1.9046;
407.4000;1.3089;1.9070;
407.7000;1.3097;1.9167;
408.0000;1.3105;1.9191;
408.3000;1.3097;1.9143;
408.6000;1.3097;1.9167;
408.9000;1.3114;1.9095;
409.2000;1.3114;1.9046;
409.5000;1.3105;1.9070;
409.8000;1.3097;1.9070;
410.1000;1.3105;1.9022;
410.4000;1.3105;1.8974;
410.7000;1.3097;1.8974;
411.0000;1.3089;1.9046;
411.3000;1.3097;1.9143;
411.6000;1.3105;1.9215;
411.9000;1.3097;1.9167;
412.2000;1.3114;1.9095;
412.5000;1.3105;1.9167;
412.8000;1.3122;1.9143;
413.1000;1.3122;1.9215;
413.4000;1.3097;1.9119;
413.7000;1.3097;1.9070;
414.0000;1.3073;1.8998;
414.3000;1.3105;1.9119;
414.6000;1.3097;1.9119;
414.9000;1.3114;1.9119;
415.2000;1.3097;1.9143;
415.5000;1.3114;1.9167;
415.8000;1.3097;1.9143;
416.1000;1.3114;1.9191;
416.4000;1.3073;1.9070;
416.7000;1.3105;1.9095;
417.0000;1.3105;1.9095;
417.3000;1.3105;1.9095;
417.6000;1.3105;1.9095;
417.9000;1.3105;1.9095;
418.2000;1.3114;1.9143;
418.5000;1.3097;1.9119;
418.8000;1.3097;1.9095;
419.1000;1.3089;1.9143;
419.4000;1.3065;1.9022;
419.7000;1.3114;1.9167;
420.0000;1.3089;1.9070;
420.3000;1.3097;1.9070;
420.6000;1.3089;1.9143;
420.9000;1.3114;1.9191;
421.2000;1.3089;1.9215;
421.5000;1.3122;1.9288;
421.8000;1.3105;1.9264;
422.1000;1.3122;1.9288;
422.4000;1.3105;1.9240;
422.7000;1.3114;1.9336;
423.0000;1.3105;1.9360;
423.3000;1.3130;1.9312;
423.6000;1.3114;1.9264;
423.9000;1.3089;1.9240;
424.2000;1.3114;1.9264;
424.5000;1.3097;1.9336;
424.8000;1.3097;1.9288;
425.1000;1.3105;1.9240;
425.4000;1.3097;1.9215;
425.7000;1.3122;1.9191;
426.0000;1.3114;1.9240;
426.3000;1.3097;1.9119;
426.6000;1.3097;1.9143;
426.9000;1.3105;1.9191;
427.2000;1.3081;1.9095;
427.5000;1.3114;1.9167;
427.8000;1.3114;1.9167;
428.1000;1.3114;1.9191;
428.4000;1.3122;1.9312;
428.7000;1.3122;1.9409;
429.0000;1.3114;1.9336;
429.3000;1.3097;1.9360;
429.6000;1.3105;1.9360;
429.9000;1.3097;1.9264;
430.2000;1.3105;1.9264;
430.5000;1.3081;1.9215;
430.8000;1.3089;1.9215;
431.1000;1.3089;1.9312;
431.4000;1.3081;1.9240;
431.7000;1.3081;1.9215;
432.0000;1.3105;1.9215;
432.3000;1.3105;1.9143;
432.6000;1.3089;1.9191;
432.9000;1.3089;1.9095;
433.2000;1.3114;1.9070;
433.5000;1.3105;1.9095;
433.8000;1.3097;1.9070;
434.1000;1.3130;1.9191;
434.4000;1.3105;1.8998;
434.7000;1.3105;1.8901;
435.0000;1.3105;1.8853;
435.3000;1.3089;1.8901;
435.6000;1.3089;1.8950;
435.9000;1.3089;1.8974;
436.2000;1.3089;1.8998;
436.5000;1.3097;1.8950;
436.8000;1.3081;1.8925;
437.1000;1.3097;1.9022;
437.4000;1.3073;1.8974;
437.7000;1.3097;1.9046;
438.0000;1.3114;1.9143;
438.3000;1.3097;1.9119;
438.6000;1.3105;1.9143;
438.9000;1.3122;1.9143;
439.2000;1.3130;1.9095;
439.5000;1.3048;1.8877;
439.8000;1.3097;1.9022;
440.1000;1.3122;1.9143;
440.4000;1.3114;1.9240;
440.7000;1.3089;1.9119;
441.0000;1.3089;1.9095;
441.3000;1.3105;1.9119;
441.6000;1.3105;1.9167;
441.9000;1.3097;1.9167;
442.2000;1.3097;1.9215;
442.5000;1.3089;1.9191;
442.8000;1.3097;1.9191;
443.1000;1.3097;1.9167;
443.4000;1.3130;1.9215;
443.7000;1.3138;1.9240;
444.0000;1.3105;1.9167;
444.3000;1.3089;1.9264;
444.6000;1.3089;1.9288;
444.9000;1.3162;1.9554;
445.2000;1.3089;1.9409;
445.5000;1.3065;1.9360;
445.8000;1.3057;1.9264;
446.1000;1.3097;1.9409;
446.4000;1.3105;1.9433;
446.7000;1.3065;1.9240;
447.0000;1.3097;1.9191;
447.3000;1.3089;1.9167;
447.6000;1.3105;1.9095;
447.9000;1.3089;1.9070;
448.2000;1.3065;1.9070;
448.5000;1.3105;1.9312;
448.8000;1.3097;1.9240;
449.1000;1.3040;1.9095;
449.4000;1.3089;1.9360;
449.7000;1.3097;1.9336;
450.0000;1.3130;1.9530;
450.3000;1.3105;1.9530;
450.6000;1.3105;1.9505;
450.9000;1.3114;1.9481;
451.2000;1.3138;1.9385;
451.5000;1.3122;1.9288;
451.8000;1.3105;1.9215;
452.1000;1.3122;1.9312;
452.4000;1.3105;1.9336;
452.7000;1.3114;1.9385;
453.0000;1.3105;1.9312;
453.3000;1.3097;1.9143;
453.6000;1.3122;1.9264;
453.9000;1.3122;1.9191;
454.2000;1.3105;1.9143;
454.5000;1.3097;1.9143;
454.8000;1.3114;1.9191;
455.1000;1.3089;1.9215;
455.4000;1.3081;1.9264;
455.7000;1.3097;1.9312;
456.0000;1.3073;1.9215;
456.3000;1.3081;1.9312;
456.6000;1.3122;1.9457;
456.9000;1.3073;1.9385;
457.2000;1.3081;1.9336;
457.5000;1.3089;1.9360;
457.8000;1.3114;1.9312;
458.1000;1.3065;1.9143;
458.4000;1.3105;1.9143;
458.7000;1.3097;1.9240;
459.0000;1.3114;1.9288;
459.3000;1.3097;1.9240;
459.6000;1.3114;1.9264;
459.9000;1.3105;1.9215;
460.2000;1.3097;1.9191;
460.5000;1.3105;1.9240;
460.8000;1.3081;1.9240;
461.1000;1.3089;1.9336;
461.4000;1.3097;1.9312;
461.7000;1.3105;1.9336;
462.0000;1.3097;1.9312;
462.3000;1.3097;1.9240;
462.6000;1.3097;1.9288;
462.9000;1.3081;1.9312;
463.2000;1.3065;1.9312;
463.5000;1.3089;1.9385;
463.8000;1.3105;1.9385;
464.1000;1.3114;1.9385;
464.4000;1.3089;1.9240;
464.7000;1.3122;1.9215;
465.0000;1.3089;1.9215;
465.3000;1.3089;1.9215;
465.6000;1.3114;1.9264;
465.9000;1.3073;1.9191;
466.2000;1.3081;1.9167;
466.5000;1.3089;1.9264;
466.8000;1.3097;1.9312;
467.1000;1.3089;1.9312;
467.4000;1.3105;1.9409;
467.7000;1.3105;1.9433;
468.0000;1.3105;1.9457;
468.3000;1.3097;1.9481;
468.6000;1.3105;1.9554;
468.9000;1.3073;1.9578;
469.2000;1.3097;1.9578;
469.5000;1.3097;1.9578;
469.8000;1.3097;1.9554;
470.1000;1.3081;1.9457;
470.4000;1.3097;1.9602;
470.7000;1.3081;1.9602;
471.0000;1.3105;1.9699;
471.3000;1.3097;1.9602;
471.6000;1.3114;1.9554;
471.9000;1.3114;1.9530;
472.2000;1.3105;1.9505;
472.5000;1.3081;1.9336;
472.8000;1.3097;1.9312;
473.1000;1.3114;1.9288;
473.4000;1.3105;1.9240;
473.7000;1.3154;1.9336;
474.0000;1.3040;1.9119;
474.3000;1.3114;1.9191;
474.6000;1.3105;1.9119;
474.9000;1.3081;1.9070;
475.2000;1.3097;1.9046;
475.5000;1.3065;1.8998;
475.8000;1.3097;1.9119;
476.1000;1.3171;1.9288;
476.4000;1.3089;1.9119;
476.7000;1.3097;1.9240;
477.0000;1.3089;1.9191;
477.3000;1.3089;1.9167;
477.6000;1.3032;1.8998;
477.9000;1.3114;1.9070;
478.2000;1.3097;1.9046;
478.5000;1.3073;1.9046;
478.8000;1.3097;1.9191;
479.1000;1.3097;1.9288;
479.4000;1.3105;1.9312;
479.7000;1.3097;1.9312;
480.0000;1.3105;1.9385;
480.3000;1.3073;1.9360;
480.6000;1.3105;1.9433;
480.9000;1.3097;1.9385;
481.2000;1.3097;1.9481;
481.5000;1.3089;1.9385;
481.8000;1.3097;1.9409;
482.1000;1.3122;1.9481;
482.4000;1.3089;1.9457;
482.7000;1.3097;1.9385;
483.0000;1.3081;1.9336;
483.3000;1.3089;1.9336;
483.6000;1.3081;1.9336;
483.9000;1.3089;1.9336;
484.2000;1.3097;1.9336;
484.5000;1.3105;1.9312;
484.8000;1.3114;1.9360;
485.1000;1.3089;1.9336;
485.4000;1.3089;1.9385;
485.7000;1.3097;1.9433;
486.0000;1.3089;1.9409;
486.3000;1.3089;1.9433;
486.6000;1.3089;1.9360;
486.9000;1.3089;1.9360;
487.2000;1.3097;1.9457;
487.5000;1.3089;1.9385;
487.8000;1.3073;1.9336;
488.1000;1.3097;1.9264;
488.4000;1.3146;1.9264;
488.7000;1.3081;1.9215;
489.0000;1.3089;1.9191;
489.3000;1.3097;1.9215;
489.6000;1.3097;1.9215;
489.9000;1.3105;1.9191;
490.2000;1.3097;1.9264;
490.5000;1.3097;1.9215;
490.8000;1.3105;1.9143;
491.1000;1.3105;1.9167;
491.4000;1.3081;1.9119;
491.7000;1.3122;1.9240;
492.0000;1.3081;1.9264;
492.3000;1.3130;1.9312;
492.6000;1.3162;1.9360;
492.9000;1.3081;1.9336;
493.2000;1.3122;1.9312;
493.5000;1.3105;1.9215;
493.8000;1.3048;1.9143;
494.1000;1.3097;1.9215;
494.4000;1.3081;1.9167;
494.7000;1.3138;1.9336;
495.0000;1.3114;1.9167;
495.3000;1.3081;1.9143;
495.6000;1.3081;1.9143;
495.9000;1.3130;1.9215;
496.2000;1.3114;1.9240;
496.5000;1.3105;1.9312;
496.8000;1.3097;1.9385;
497.1000;1.3122;1.9385;
497.4000;1.3089;1.9240;
497.7000;1.3105;1.9360;
498.0000;1.3040;1.9288;
498.3000;1.3073;1.9360;
498.6000;1.3089;1.9360;
498.9000;1.3089;1.9288;
499.2000;1.3097;1.9288;
499.5000;1.3097;1.9385;
499.8000;1.3187;1.9602;
500.1000;1.3105;1.9409;
500.4000;1.3097;1.9409;
500.7000;1.3105;1.9433;
501.0000;1.3114;1.9360;
501.3000;1.3097;1.9264;
501.6000;1.3073;1.9215;
501.9000;1.3089;1.9264;
502.2000;1.3073;1.9288;
502.5000;1.3048;1.9312;
502.8000;1.3073;1.9433;
503.1000;1.3089;1.9481;
503.4000;1.3073;1.9433;
503.7000;1.3114;1.9481;
504.0000;1.3073;1.9409;
504.3000;1.3081;1.9505;
504.6000;1.3105;1.9433;
504.9000;1.3089;1.9457;
505.2000;1.3114;1.9505;
505.5000;1.3097;1.9360;
505.8000;1.3114;1.9360;
506.1000;1.3114;1.9288;
506.4000;1.3105;1.9288;
506.7000;1.3105;1.9240;
507.0000;1.3089;1.9191;
507.3000;1.3089;1.9191;
507.6000;1.3089;1.9215;
507.9000;1.3073;1.9264;
508.2000;1.3089;1.9288;
508.5000;1.3089;1.9312;
508.8000;1.3097;1.9433;
509.1000;1.3081;1.9433;
509.4000;1.3081;1.9457;
509.7000;1.3097;1.9409;
510.0000;1.3097;1.9360;
510.3000;1.3097;1.9409;
510.6000;1.3073;1.9360;
510.9000;1.3114;1.9481;
511.2000;1.3114;1.9505;
511.5000;1.3097;1.9505;
511.8000;1.3105;1.9457;
512.1000;1.3089;1.9433;
512.4000;1.3146;1.9505;
512.7000;1.3097;1.9433;
513.0000;1.3114;1.9481;
513.3000;1.3138;1.9578;
513.6000;1.3146;1.9554;
513.9000;1.3105;1.9385;
514.2000;1.3073;1.9336;
514.5000;1.3065;1.9264;
514.8000;1.3073;1.9264;
515.1000;1.3081;1.9288;
515.4000;1.3097;1.9288;
515.7000;1.3081;1.9240;
516.0000;1.3081;1.9264;
516.3000;1.3089;1.9336;
516.6000;1.3065;1.9360;
516.9000;1.3089;1.9409;
517.2000;1.3073;1.9433;
517.5000;1.3097;1.9433;
517.8000;1.3171;1.9505;
518.1000;1.3105;1.9360;
518.4000;1.3089;1.9385;
518.7000;1.3097;1.9481;
519.0000;1.3138;1.9554;
519.3000;1.3089;1.9409;
519.6000;1.3089;1.9481;
519.9000;1.3081;1.9481;
520.2000;1.3097;1.9505;
520.5000;1.3105;1.9409;
520.8000;1.3057;1.9288;
521.1000;1.3089;1.9385;
521.4000;1.3114;1.9385;
521.7000;1.3097;1.9385;
522.0000;1.3057;1.9336;
522.3000;1.3105;1.9505;
522.6000;1.3089;1.9530;
522.9000;1.3089;1.9505;
523.2000;1.3065;1.9336;
523.5000;1.3081;1.9385;
523.8000;1.3040;1.9288;
524.1000;1.3089;1.9409;
524.4000;1.3097;1.9409;
524.7000;1.3097;1.9433;
525.0000;1.3114;1.9578;
525.3000;1.3097;1.9578;
525.6000;1.3089;1.9530;
525.9000;1.3138;1.9530;
526.2000;1.3089;1.9409;
526.5000;1.3097;1.9481;
526.8000;1.3097;1.9457;
527.1000;1.3089;1.9433;
527.4000;1.3089;1.9409;
527.7000;1.3097;1.9409;
528.0000;1.3097;1.9409;
528.3000;1.3097;1.9385;
528.6000;1.3114;1.9385;
528.9000;1.3097;1.9385;
529.2000;1.3089;1.9385;
529.5000;1.3081;1.9336;
529.8000;1.3105;1.9336;
530.1000;1.3105;1.9360;
530.4000;1.3114;1.9312;
530.7000;1.3105;1.9240;
531.0000;1.3081;1.9167;
531.3000;1.3097;1.9215;
531.6000;1.3105;1.9264;
531.9000;1.3097;1.9119;
532.2000;1.3089;1.9119;
532.5000;1.3073;1.9191;
532.8000;1.3105;1.9336;
533.1000;1.3057;1.9264;
533.4000;1.3081;1.9336;
533.7000;1.3097;1.9312;
534.0000;1.3089;1.9215;
534.3000;1.3154;1.9409;
534.6000;1.3089;1.9240;
534.9000;1.3089;1.9288;
535.2000;1.3130;1.9360;
535.5000;1.3114;1.9288;
535.8000;1.3089;1.9336;
536.1000;1.3114;1.9312;
536.4000;1.3105;1.9167;
536.7000;1.3114;1.9215;
537.0000;1.3105;1.9215;
537.3000;1.3065;1.9119;
537.6000;1.3122;1.9312;
537.9000;1.3081;1.9288;
538.2000;1.3097;1.9336;
538.5000;1.3081;1.9288;
538.8000;1.3097;1.9312;
539.1000;1.3097;1.9385;
539.4000;1.3081;1.9433;
539.7000;1.3105;1.9530;
540.0000;1.3105;1.9578;
540.3000;1.3040;1.9360;
540.6000;1.3000;1.9312;
540.9000;1.3089;1.9554;
541.2000;1.3089;1.9554;
541.5000;1.3081;1.9530;
541.8000;1.3089;1.9505;
542.1000;1.3105;1.9530;
542.4000;1.3122;1.9578;
542.7000;1.3146;1.9675;
543.0000;1.3081;1.9554;
543.3000;1.3089;1.9530;
543.6000;1.3097;1.9530;
543.9000;1.3081;1.9481;
544.2000;1.3097;1.9505;
544.5000;1.3081;1.9457;
544.8000;1.3089;1.9457;
545.1000;1.3081;1.9481;
545.4000;1.3081;1.9457;
545.7000;1.3114;1.9481;
546.0000;1.3130;1.9650;
546.3000;1.3081;1.9578;
546.6000;1.3089;1.9602;
546.9000;1.3081;1.9409;
547.2000;1.3114;1.9409;
547.5000;1.3097;1.9360;
547.8000;1.3081;1.9264;
548.1000;1.3057;1.9264;
548.4000;1.3081;1.9457;
548.7000;1.3073;1.9360;
549.0000;1.3073;1.9360;
549.3000;1.3097;1.9433;
549.6000;1.3089;1.9409;
549.9000;1.3097;1.9336;
550.2000;1.3081;1.9312;
550.5000;1.3081;1.9312;
550.8000;1.3114;1.9433;
551.1000;1.3138;1.9554;
551.4000;1.3097;1.9433;
551.7000;1.3105;1.9433;
552.0000;1.3097;1.9433;
552.3000;1.3105;1.9385;
552.6000;1.3105;1.9457;
552.9000;1.3105;1.9457;
553.2000;1.3105;1.9505;
553.5000;1.3114;1.9481;
553.8000;1.3162;1.9554;
554.1000;1.3105;1.9481;
554.4000;1.3081;1.9457;
554.7000;1.3105;1.9457;
555.0000;1.3097;1.9457;
555.3000;1.3081;1.9457;
555.6000;1.3089;1.9481;
555.9000;1.3089;1.9409;
556.2000;1.3097;1.9433;
556.5000;1.3097;1.9312;
556.8000;1.3089;1.9264;
557.1000;1.3089;1.9167;
557.4000;1.3114;1.9215;
557.7000;1.3105;1.9191;
558.0000;1.3138;1.9288;
558.3000;1.3024;1.9095;
558.6000;1.3081;1.9312;
558.9000;1.3065;1.9409;
559.2000;1.3065;1.9433;
559.5000;1.3081;1.9481;
559.8000;1.3081;1.9530;
560.1000;1.3081;1.9505;
560.4000;1.3057;1.9457;
560.7000;1.3073;1.9530;
561.0000;1.3089;1.9505;
561.3000;1.3146;1.9602;
561.6000;1.3081;1.9530;
561.9000;1.3081;1.9626;
562.2000;1.3081;1.9578;
562.5000;1.3105;1.9578;
562.8000;1.3162;1.9699;
563.1000;1.3081;1.9578;
563.4000;1.3073;1.9530;
563.7000;1.3081;1.9578;
564.0000;1.3122;1.9554;
564.3000;1.3057;1.9360;
564.6000;1.3089;1.9385;
564.9000;1.3089;1.9385;
565.2000;1.3081;1.9481;
565.5000;1.3081;1.9505;
565.8000;1.3065;1.9554;
566.1000;1.3081;1.9650;
566.4000;1.3105;1.9650;
566.7000;1.3089;1.9650;
567.0000;1.3089;1.9675;
567.3000;1.3081;1.9675;
567.6000;1.3089;1.9578;
567.9000;1.3089;1.9505;
568.2000;1.3097;1.9530;
568.5000;1.3089;1.9481;
568.8000;1.3057;1.9385;
569.1000;1.2967;1.9143;
569.4000;1.3089;1.9433;
569.7000;1.3089;1.9457;
570.0000;1.3081;1.9481;
570.3000;1.3081;1.9409;
570.6000;1.3130;1.9530;
570.9000;1.3097;1.9409;
571.2000;1.3081;1.9409;
571.5000;1.3073;1.9433;
571.8000;1.3073;1.9481;
572.1000;1.3073;1.9530;
572.4000;1.3081;1.9554;
572.7000;1.3081;1.9554;
573.0000;1.3089;1.9530;
573.3000;1.3089;1.9457;
573.6000;1.3105;1.9530;
573.9000;1.3097;1.9481;
574.2000;1.3097;1.9481;
574.5000;1.3130;1.9554;
574.8000;1.3089;1.9481;
575.1000;1.3073;1.9481;
575.4000;1.3089;1.9481;
575.7000;1.3089;1.9457;
576.0000;1.3089;1.9457;
576.3000;1.3089;1.9481;
576.6000;1.3081;1.9481;
576.9000;1.3073;1.9505;
577.2000;1.3097;1.9530;
577.5000;1.3097;1.9457;
577.8000;1.3105;1.9457;
578.1000;1.3105;1.9433;
578.4000;1.3105;1.9409;
578.7000;1.3089;1.9360;
579.0000;1.3105;1.9409;
579.3000;1.3105;1.9385;
579.6000;1.3097;1.9360;
579.9000;1.3081;1.9360;
580.2000;1.3089;1.9336;
580.5000;1.3081;1.9336;
580.8000;1.3057;1.9336;
581.1000;1.3048;1.9312;
581.4000;1.3081;1.9360;
581.7000;1.3081;1.9433;
582.0000;1.3097;1.9505;
582.3000;1.3065;1.9481;
582.6000;1.3089;1.9457;
582.9000;1.3081;1.9409;
583.2000;1.3073;1.9433;
583.5000;1.3089;1.9433;
583.8000;1.3081;1.9481;
584.1000;1.3105;1.9578;
584.4000;1.3073;1.9481;
584.7000;1.3081;1.9530;
585.0000;1.3081;1.9602;
585.3000;1.3081;1.9602;
585.6000;1.3081;1.9554;
585.9000;1.3089;1.9578;
586.2000;1.3089;1.9554;
586.5000;1.3097;1.9602;
586.8000;1.3097;1.9578;
587.1000;1.3114;1.9650;
587.4000;1.3081;1.9699;
587.7000;1.3089;1.9699;
588.0000;1.3097;1.9650;
588.3000;1.3081;1.9626;
588.6000;1.3089;1.9626;
588.9000;1.3089;1.9602;
589.2000;1.3032;1.9481;
589.5000;1.3097;1.9650;
589.8000;1.3089;1.9505;
590.1000;1.3097;1.9530;
590.4000;1.3097;1.9530;
590.7000;1.3089;1.9481;
591.0000;1.3048;1.9433;
591.3000;1.3032;1.9554;
591.6000;1.3081;1.9578;
591.9000;1.3081;1.9602;
592.2000;1.3048;1.9457;
592.5000;1.3073;1.9385;
592.8000;1.3089;1.9433;
593.1000;1.3097;1.9433;
593.4000;1.3097;1.9530;
593.7000;1.3073;1.9481;
594.0000;1.3081;1.9433;
594.3000;1.3081;1.9457;
594.6000;1.3122;1.9505;
594.9000;1.3065;1.9433;
595.2000;1.3065;1.9336;
595.5000;1.3089;1.9505;
595.8000;1.3089;1.9433;
596.1000;1.3081;1.9360;
596.4000;1.3081;1.9385;
596.7000;1.3081;1.9481;
597.0000;1.3105;1.9530;
597.3000;1.3089;1.9530;
597.6000;1.3114;1.9530;
597.9000;1.3097;1.9457;
598.2000;1.3105;1.9481;
598.5000;1.3097;1.9481;
598.8000;1.3089;1.9457;
599.1000;1.3081;1.9360;
599.4000;1.3081;1.9385;
599.7000;1.3089;1.9360;
600.0000;1.3073;1.9385;
600.3000;1.3097;1.9312;
600.6000;1.3105;1.9143;
600.9000;1.3057;1.8901;
601.2000;1.2943;1.8587;
601.5000;1.2829;1.8321;
601.8000;1.2715;1.8104;
602.1000;1.2609;1.7934;
602.4000;1.2487;1.7741;
602.7000;1.2365;1.7548;
603.0000;1.2275;1.7330;
603.3000;1.2177;1.7209;
603.6000;1.2120;1.7161;
603.9000;1.1998;1.7040;
604.2000;1.1884;1.6919;
604.5000;1.1819;1.6823;
604.8000;1.1730;1.6678;
605.1000;1.1689;1.6678;
605.4000;1.1591;1.6557;
605.7000;1.1510;1.6484;
606.0000;1.1445;1.6387;
606.3000;1.1396;1.6387;
606.6000;1.1282;1.6194;
606.9000;1.1241;1.6218;
607.2000;1.1225;1.6267;
607.5000;1.1144;1.6218;
607.8000;1.1079;1.6194;
608.1000;1.1038;1.6218;
608.4000;1.0973;1.6194;
608.7000;1.0916;1.6146;
609.0000;1.0859;1.6122;
609.3000;1.0826;1.6146;
609.6000;1.0737;1.5904;
609.9000;1.0737;1.5952;
610.2000;1.0672;1.5952;
610.5000;1.0631;1.5928;
610.8000;1.0549;1.5856;
611.1000;1.0541;1.5904;
611.4000;1.0501;1.5807;
611.7000;1.0427;1.5759;
612.0000;1.0403;1.5759;
612.3000;1.0370;1.5759;
612.6000;1.0322;1.5735;
612.9000;1.0338;1.5832;
613.2000;1.0232;1.5687;
613.5000;1.0216;1.5735;
613.8000;1.0248;1.5904;
614.1000;1.0110;1.5638;
614.4000;1.0085;1.5517;
614.7000;1.0077;1.5396;
615.0000;0.9996;1.5251;
615.3000;0.9980;1.5348;
615.6000;0.9939;1.5372;
615.9000;0.9923;1.5348;
616.2000;0.9898;1.5469;
616.5000;0.9849;1.5372;
616.8000;0.9752;1.5276;
617.1000;0.9784;1.5348;
617.4000;0.9776;1.5300;
617.7000;0.9735;1.5324;
618.0000;0.9695;1.5348;
618.3000;0.9687;1.5348;
618.6000;0.9646;1.5348;
618.9000;0.9630;1.5396;
619.2000;0.9597;1.5372;
619.5000;0.9556;1.5348;
619.8000;0.9540;1.5324;
620.1000;0.9532;1.5300;
620.4000;0.9475;1.5300;
620.7000;0.9459;1.5324;
621.0000;0.9442;1.5276;
621.3000;0.9451;1.5396;
621.6000;0.9385;1.5300;
621.9000;0.9369;1.5300;
622.2000;0.9345;1.5251;
622.5000;0.9337;1.5276;
622.8000;0.9296;1.5372;
623.1000;0.9280;1.5445;
623.4000;0.9247;1.5372;
623.7000;0.9247;1.5372;
624.0000;0.9206;1.5445;
624.3000;0.9190;1.5493;
624.6000;0.9166;1.5396;
624.9000;0.9141;1.5372;
625.2000;0.9133;1.5396;
625.5000;0.9101;1.5203;
625.8000;0.9084;1.5251;
626.1000;0.9068;1.5251;
626.4000;0.9060;1.5251;
626.7000;0.9027;1.5251;
627.0000;0.9011;1.5082;
627.3000;0.8995;1.5203;
627.6000;0.8978;1.5155;
627.9000;0.8970;1.5058;
628.2000;0.8930;1.5106;
628.5000;0.8921;1.5155;
628.8000;0.8913;1.5227;
629.1000;0.8897;1.5179;
629.4000;0.8881;1.5227;
629.7000;0.8873;1.5203;
630.0000;0.8856;1.5227;
630.3000;0.8791;1.5106;
630.6000;0.8848;1.5300;
630.9000;0.8791;1.5155;
631.2000;0.8807;1.5227;
631.5000;0.8767;1.5276;
631.8000;0.8751;1.5251;
632.1000;0.8710;1.5131;
632.4000;0.8734;1.5251;
632.7000;0.8669;1.5106;
633.0000;0.8694;1.5251;
633.3000;0.8653;1.5131;
633.6000;0.8726;1.5203;
633.9000;0.8677;1.5203;
634.2000;0.8620;1.5131;
634.5000;0.8637;1.5082;
634.8000;0.8563;1.4889;
635.1000;0.8588;1.5034;
635.4000;0.8588;1.5082;
635.7000;0.8571;1.5131;
636.0000;0.8555;1.5131;
636.3000;0.8563;1.5179;
636.6000;0.8523;1.5131;
636.9000;0.8539;1.5082;
637.2000;0.8482;1.4961;
637.5000;0.8490;1.4986;
637.8000;0.8482;1.4986;
638.1000;0.8474;1.5010;
638.4000;0.8547;1.5227;
638.7000;0.8441;1.5058;
639.0000;0.8441;1.5131;
639.3000;0.8433;1.5106;
639.6000;0.8360;1.4986;
639.9000;0.8409;1.5131;
640.2000;0.8457;1.5300;
640.5000;0.8400;1.5106;
640.8000;0.8360;1.5058;
641.1000;0.8360;1.5010;
641.4000;0.8344;1.4937;
641.7000;0.8327;1.4913;
642.0000;0.8327;1.4961;
642.3000;0.8327;1.4986;
642.6000;0.8303;1.5010;
642.9000;0.8303;1.5082;
643.2000;0.8295;1.5010;
643.5000;0.8287;1.4937;
643.8000;0.8287;1.4961;
644.1000;0.8278;1.5058;
644.4000;0.8262;1.5082;
644.7000;0.8262;1.5179;
645.0000;0.8254;1.5155;
645.3000;0.8230;1.5034;
645.6000;0.8221;1.5131;
645.9000;0.8221;1.5203;
646.2000;0.8213;1.5227;
646.5000;0.8213;1.5251;
646.8000;0.8205;1.5276;
647.1000;0.8189;1.5324;
647.4000;0.8156;1.5324;
647.7000;0.8164;1.5396;
648.0000;0.8156;1.5445;
648.3000;0.8140;1.5396;
648.6000;0.8132;1.5300;
648.9000;0.8132;1.5227;
649.2000;0.8124;1.5179;
649.5000;0.8107;1.5082;
649.8000;0.8091;1.5179;
650.1000;0.8091;1.5179;
650.4000;0.8083;1.5131;
650.7000;0.8083;1.5155;
651.0000;0.8059;1.5058;
651.3000;0.8075;1.5082;
651.6000;0.8067;1.5082;
651.9000;0.8050;1.5010;
652.2000;0.8034;1.4961;
652.5000;0.8018;1.4961;
652.8000;0.8026;1.4986;
653.1000;0.8018;1.5010;
653.4000;0.8018;1.5082;
653.7000;0.8018;1.5155;
654.0000;0.8010;1.5131;
654.3000;0.8002;1.5082;
654.6000;0.7993;1.5131;
654.9000;0.7953;1.5203;
655.2000;0.7961;1.5251;
655.5000;0.7961;1.5276;
655.8000;0.7961;1.5300;
656.1000;0.7937;1.5300;
656.4000;0.7945;1.5348;
656.7000;0.7904;1.5251;
657.0000;0.7880;1.5106;
657.3000;0.7912;1.5106;
657.6000;0.7896;1.5106;
657.9000;0.7904;1.5131;
658.2000;0.7888;1.5155;
658.5000;0.7896;1.5058;
658.8000;0.7855;1.4889;
659.1000;0.7871;1.4913;
659.4000;0.7871;1.4937;
659.7000;0.7871;1.4961;
660.0000;0.7896;1.5131;
660.3000;0.7863;1.5010;
660.6000;0.7839;1.4986;
660.9000;0.7847;1.5010;
661.2000;0.7733;1.4720;
661.5000;0.7814;1.4986;
661.8000;0.7831;1.5010;
662.1000;0.7831;1.5082;
662.4000;0.7798;1.5106;
662.7000;0.7782;1.5203;
663.0000;0.7806;1.5348;
663.3000;0.7790;1.5251;
663.6000;0.7782;1.5276;
663.9000;0.7774;1.5300;
664.2000;0.7774;1.5348;
664.5000;0.7847;1.5590;
664.8000;0.7749;1.5324;
665.1000;0.7757;1.5227;
665.4000;0.7757;1.5276;
665.7000;0.7774;1.5348;
666.0000;0.7733;1.5155;
666.3000;0.7749;1.5082;
666.6000;0.7806;1.5251;
666.9000;0.7725;1.5106;
667.2000;0.7733;1.5034;
667.5000;0.7717;1.5034;
667.8000;0.7709;1.5082;
668.1000;0.7717;1.5034;
668.4000;0.7733;1.5106;
668.7000;0.7709;1.5155;
669.0000;0.7725;1.5179;
669.3000;0.7684;1.5131;
669.6000;0.7684;1.5155;
669.9000;0.7692;1.5131;
670.2000;0.7676;1.5155;
670.5000;0.7635;1.5131;
670.8000;0.7668;1.5179;
671.1000;0.7660;1.5106;
671.4000;0.7660;1.5034;
671.7000;0.7652;1.5010;
672.0000;0.7635;1.4986;
672.3000;0.7652;1.5010;
672.6000;0.7627;1.5010;
672.9000;0.7627;1.5010;
673.2000;0.7619;1.4961;
673.5000;0.7627;1.4986;
673.8000;0.7603;1.4986;
674.1000;0.7619;1.5034;
674.4000;0.7603;1.4961;
674.7000;0.7619;1.5058;
675.0000;0.7603;1.5106;
675.3000;0.7595;1.5131;
675.6000;0.7603;1.5106;
675.9000;0.7603;1.5155;
676.2000;0.7611;1.5155;
676.5000;0.7603;1.5155;
676.8000;0.7586;1.5082;
677.1000;0.7562;1.5058;
677.4000;0.7586;1.5082;
677.7000;0.7578;1.5106;
678.0000;0.7562;1.5082;
678.3000;0.7554;1.5082;
678.6000;0.7554;1.5131;
678.9000;0.7538;1.5131;
679.2000;0.7538;1.5131;
679.5000;0.7546;1.5155;
679.8000;0.7513;1.5082;
680.1000;0.7440;1.4889;
680.4000;0.7530;1.5131;
680.7000;0.7505;1.5106;
681.0000;0.7505;1.5058;
681.3000;0.7521;1.5082;
681.6000;0.7513;1.5058;
681.9000;0.7513;1.5082;
682.2000;0.7530;1.5155;
682.5000;0.7497;1.5082;
682.8000;0.7489;1.5010;
683.1000;0.7464;1.4986;
683.4000;0.7424;1.4913;
683.7000;0.7464;1.5131;
684.0000;0.7489;1.5155;
684.3000;0.7464;1.5106;
684.6000;0.7464;1.5131;
684.9000;0.7497;1.5155;
685.2000;0.7464;1.5155;
685.5000;0.7456;1.5106;
685.8000;0.7448;1.5058;
686.1000;0.7448;1.4986;
686.4000;0.7464;1.5082;
686.7000;0.7456;1.5082;
687.0000;0.7497;1.5155;
687.3000;0.7432;1.5058;
687.6000;0.7432;1.5010;
687.9000;0.7440;1.4961;
688.2000;0.7416;1.4913;
688.5000;0.7326;1.4744;
688.8000;0.7432;1.4986;
689.1000;0.7416;1.4986;
689.4000;0.7432;1.5010;
689.7000;0.7416;1.4937;
690.0000;0.7407;1.5010;
690.3000;0.7391;1.4986;
690.6000;0.7424;1.5058;
690.9000;0.7407;1.4961;
691.2000;0.7424;1.4986;
691.5000;0.7416;1.4961;
691.8000;0.7416;1.5010;
692.1000;0.7391;1.5010;
692.4000;0.7367;1.4937;
692.7000;0.7383;1.5010;
693.0000;0.7367;1.4986;
693.3000;0.7375;1.4986;
693.6000;0.7375;1.5010;
693.9000;0.7375;1.4986;
694.2000;0.7375;1.4986;
694.5000;0.7359;1.4937;
694.8000;0.7359;1.4961;
695.1000;0.7367;1.4986;
695.4000;0.7359;1.4986;
695.7000;0.7350;1.4937;
696.0000;0.7350;1.4937;
696.3000;0.7367;1.4841;
696.6000;0.7350;1.4792;
696.9000;0.7342;1.4889;
697.2000;0.7367;1.4986;
697.5000;0.7326;1.4889;
697.8000;0.7334;1.4816;
698.1000;0.7277;1.4720;
698.4000;0.7310;1.4816;
698.7000;0.7310;1.4816;
699.0000;0.7253;1.4671;
699.3000;0.7326;1.4913;
699.6000;0.7285;1.4865;
699.9000;0.7318;1.4986;
700.2000;0.7293;1.5010;
700.5000;0.7293;1.5058;
700.8000;0.7293;1.5131;
701.1000;0.7302;1.5131;
701.4000;0.7334;1.5227;
701.7000;0.7302;1.5058;
702.0000;0.7302;1.5082;
702.3000;0.7293;1.5058;
702.6000;0.7326;1.5131;
702.9000;0.7310;1.5106;
703.2000;0.7285;1.5034;
703.5000;0.7285;1.4961;
703.8000;0.7277;1.4889;
704.1000;0.7277;1.4913;
704.4000;0.7277;1.4865;
704.7000;0.7318;1.4961;
705.0000;0.7269;1.4986;
705.3000;0.7261;1.5010;
705.6000;0.7269;1.5010;
705.9000;0.7269;1.4913;
706.2000;0.7245;1.4768;
706.5000;0.7245;1.4768;
706.8000;0.7269;1.4937;
707.1000;0.7285;1.4913;
707.4000;0.7269;1.4913;
707.7000;0.7245;1.4792;
708.0000;0.7245;1.4889;
708.3000;0.7253;1.5010;
708.6000;0.7220;1.4937;
708.9000;0.7220;1.4986;
709.2000;0.7269;1.5179;
709.5000;0.7245;1.5082;
709.8000;0.7220;1.5010;
710.1000;0.7269;1.5106;
710.4000;0.7220;1.5010;
710.7000;0.7204;1.4937;
711.0000;0.7228;1.5034;
711.3000;0.7220;1.4937;
711.6000;0.7220;1.4986;
711.9000;0.7220;1.5058;
712.2000;0.7228;1.5010;
712.5000;0.7228;1.4937;
712.8000;0.7212;1.4865;
713.1000;0.7196;1.4768;
713.4000;0.7196;1.4816;
713.7000;0.7204;1.4889;
714.0000;0.7179;1.4937;
714.3000;0.7204;1.5058;
714.6000;0.7196;1.5010;
714.9000;0.7204;1.5058;
715.2000;0.7196;1.5106;
715.5000;0.7204;1.5131;
715.8000;0.7204;1.5155;
716.1000;0.7196;1.5058;
716.4000;0.7171;1.5106;
716.7000;0.7188;1.5203;
717.0000;0.7196;1.5276;
717.3000;0.7196;1.5227;
717.6000;0.7196;1.5324;
717.9000;0.7171;1.5251;
718.2000;0.7171;1.5300;
718.5000;0.7155;1.5251;
718.8000;0.7171;1.5372;
719.1000;0.7139;1.5276;
719.4000;0.7139;1.5300;
719.7000;0.7155;1.5348;
720.0000;0.7147;1.5300;
720.3000;0.7131;1.5227;
720.6000;0.7139;1.5276;
720.9000;0.7147;1.5324;
721.2000;0.7155;1.5300;
721.5000;0.7147;1.5251;
721.8000;0.7155;1.5300;
722.1000;0.7171;1.5324;
722.4000;0.7212;1.5300;
722.7000;0.7139;1.5179;
723.0000;0.7171;1.5251;
723.3000;0.7131;1.5131;
723.6000;0.7114;1.5082;
723.9000;0.7139;1.5131;
724.2000;0.7114;1.5106;
724.5000;0.7074;1.4986;
724.8000;0.7139;1.5131;
725.1000;0.7098;1.5058;
725.4000;0.7082;1.5058;
725.7000;0.7114;1.5179;
726.0000;0.7155;1.5276;
726.3000;0.7139;1.5179;
726.6000;0.7114;1.5106;
726.9000;0.7114;1.5179;
727.2000;0.7123;1.5155;
727.5000;0.7139;1.5179;
727.8000;0.7114;1.5155;
728.1000;0.7106;1.5131;
728.4000;0.7114;1.5179;
728.7000;0.7114;1.5179;
729.0000;0.7098;1.5131;
729.3000;0.7098;1.5058;
729.6000;0.7098;1.5082;
729.9000;0.7106;1.5082;
730.2000;0.7098;1.5058;
730.5000;0.7106;1.4986;
730.8000;0.7090;1.4986;
731.1000;0.7106;1.5131;
731.4000;0.7106;1.5106;
731.7000;0.7090;1.5106;
732.0000;0.7082;1.5058;
732.3000;0.7057;1.4937;
732.6000;0.7090;1.5082;
732.9000;0.7098;1.5106;
733.2000;0.7147;1.5179;
733.5000;0.7106;1.5131;
733.8000;0.7074;1.5155;
734.1000;0.7066;1.5058;
734.4000;0.7066;1.4986;
734.7000;0.7066;1.5010;
735.0000;0.7057;1.4986;
735.3000;0.7066;1.4986;
735.6000;0.7057;1.5034;
735.9000;0.7066;1.5058;
736.2000;0.7074;1.5034;
736.5000;0.7074;1.5058;
736.8000;0.7049;1.4937;
737.1000;0.7066;1.5010;
737.4000;0.7057;1.5082;
737.7000;0.7074;1.5082;
738.0000;0.7074;1.5058;
738.3000;0.7074;1.5131;
738.6000;0.7057;1.5203;
738.9000;0.7057;1.5106;
739.2000;0.7041;1.4986;
739.5000;0.7066;1.4865;
739.8000;0.7049;1.4792;
740.1000;0.7057;1.4816;
740.4000;0.7057;1.4913;
740.7000;0.7041;1.4889;
741.0000;0.7057;1.4913;
741.3000;0.7049;1.4865;
741.6000;0.7057;1.4889;
741.9000;0.7025;1.4865;
742.2000;0.7033;1.4913;
742.5000;0.7025;1.4937;
742.8000;0.7025;1.4961;
743.1000;0.7017;1.4889;
743.4000;0.7000;1.4937;
743.7000;0.7025;1.5058;
744.0000;0.7025;1.5131;
744.3000;0.7009;1.4986;
744.6000;0.7025;1.5058;
744.9000;0.7000;1.5058;
745.2000;0.7000;1.5082;
745.5000;0.7000;1.5058;
745.8000;0.7009;1.5058;
746.1000;0.6968;1.4937;
746.4000;0.7041;1.5034;
746.7000;0.7009;1.4961;
747.0000;0.7049;1.5106;
747.3000;0.7009;1.5010;
747.6000;0.7033;1.5010;
747.9000;0.7017;1.5034;
748.2000;0.7000;1.4986;
748.5000;0.7000;1.5010;
748.8000;0.7000;1.4986;
749.1000;0.7009;1.4986;
749.4000;0.7057;1.5058;
749.7000;0.7000;1.4937;
750.0000;0.7009;1.4961;
750.3000;0.6976;1.4816;
750.6000;0.7000;1.4937;
750.9000;0.7009;1.4913;
751.2000;0.7000;1.4986;
751.5000;0.7082;1.5179;
751.8000;0.6984;1.4986;
752.1000;0.7049;1.5034;
752.4000;0.6984;1.4913;
752.7000;0.6984;1.4865;
753.0000;0.6992;1.4913;
753.3000;0.6984;1.4889;
753.6000;0.6984;1.4913;
753.9000;0.7017;1.5034;
754.2000;0.7000;1.5010;
754.5000;0.6984;1.4986;
754.8000;0.6984;1.4961;
755.1000;0.6984;1.4986;
755.4000;0.6968;1.4913;
755.7000;0.6984;1.5034;
756.0000;0.6976;1.5179;
756.3000;0.6984;1.5227;
756.6000;0.6992;1.5251;
756.9000;0.7000;1.5348;
757.2000;0.6968;1.5179;
757.5000;0.6984;1.5179;
757.8000;0.6960;1.5155;
758.1000;0.6984;1.5227;
758.4000;0.6968;1.5131;
758.7000;0.6952;1.5106;
759.0000;0.6976;1.5131;
759.3000;0.6952;1.5082;
759.6000;0.6976;1.5034;
759.9000;0.6952;1.5034;
760.2000;0.6935;1.5010;
760.5000;0.6960;1.5058;
760.8000;0.6935;1.5034;
761.1000;0.6960;1.5131;
761.4000;0.6968;1.5324;
761.7000;0.6927;1.5203;
762.0000;0.6960;1.5300;
762.3000;0.6960;1.5251;
762.6000;0.6968;1.5106;
762.9000;0.6960;1.5058;
763.2000;0.6952;1.4986;
763.5000;0.6952;1.5010;
763.8000;0.7000;1.5251;
764.1000;0.6952;1.5179;
764.4000;0.6952;1.5131;
764.7000;0.6960;1.5131;
765.0000;0.6935;1.5179;
765.3000;0.6919;1.5106;
765.6000;0.6927;1.5203;
765.9000;0.6952;1.5179;
766.2000;0.6935;1.5155;
766.5000;0.6952;1.5155;
766.8000;0.6952;1.5155;
767.1000;0.6943;1.5131;
767.4000;0.6935;1.5155;
767.7000;0.6919;1.5106;
768.0000;0.6927;1.5179;
768.3000;0.6943;1.5203;
768.6000;0.6919;1.5227;
768.9000;0.6911;1.5179;
769.2000;0.6935;1.5227;
769.5000;0.6952;1.5227;
769.8000;0.6854;1.4913;
770.1000;0.6919;1.5058;
770.4000;0.6927;1.4986;
770.7000;0.6927;1.5082;
771.0000;0.6919;1.5106;
771.3000;0.6927;1.5034;
771.6000;0.6903;1.5010;
771.9000;0.6927;1.5106;
772.2000;0.6927;1.5155;
772.5000;0.6935;1.5155;
772.8000;0.6911;1.5058;
773.1000;0.6919;1.5106;
773.4000;0.6927;1.5155;
773.7000;0.6943;1.5227;
774.0000;0.6911;1.5203;
774.3000;0.6927;1.5300;
774.6000;0.6919;1.5276;
774.9000;0.6919;1.5203;
775.2000;0.6919;1.5227;
775.5000;0.6903;1.5251;
775.8000;0.6903;1.5155;
776.1000;0.6903;1.5203;
776.4000;0.6886;1.5179;
776.7000;0.6903;1.5203;
777.0000;0.6895;1.5179;
777.3000;0.6895;1.5155;
777.6000;0.6895;1.5348;
777.9000;0.6886;1.5324;
778.2000;0.6895;1.5300;
778.5000;0.6911;1.5276;
778.8000;0.6903;1.5251;
779.1000;0.6895;1.5276;
779.4000;0.6895;1.5227;
779.7000;0.6911;1.5251;
780.0000;0.6895;1.5300;
780.3000;0.6862;1.5131;
780.6000;0.6886;1.5227;
780.9000;0.6895;1.5324;
781.2000;0.6878;1.5396;
781.5000;0.6878;1.5396;
781.8000;0.6878;1.5348;
782.1000;0.6878;1.5300;
782.4000;0.6895;1.5300;
782.7000;0.6878;1.5227;
783.0000;0.6870;1.5276;
783.3000;0.6862;1.5227;
783.6000;0.6895;1.5348;
783.9000;0.6870;1.5227;
784.2000;0.6878;1.5131;
784.5000;0.6886;1.5251;
784.8000;0.6870;1.5251;
785.1000;0.6878;1.5276;
785.4000;0.6870;1.5300;
785.7000;0.6919;1.5372;
786.0000;0.6862;1.5251;
786.3000;0.6886;1.5324;
786.6000;0.6878;1.5203;
786.9000;0.6862;1.5300;
787.2000;0.6878;1.5348;
787.5000;0.6838;1.5179;
787.8000;0.6870;1.5203;
788.1000;0.6862;1.5203;
788.4000;0.6878;1.5203;
788.7000;0.6878;1.5179;
789.0000;0.6854;1.5131;
789.3000;0.6846;1.5155;
789.6000;0.6854;1.5155;
789.9000;0.6878;1.5251;
790.2000;0.6862;1.5131;
790.5000;0.6870;1.5155;
790.8000;0.6854;1.5179;
791.1000;0.6854;1.5227;
791.4000;0.6838;1.5203;
791.7000;0.6854;1.5251;
792.0000;0.6789;1.5155;
792.3000;0.6862;1.5348;
792.6000;0.6862;1.5372;
792.9000;0.6829;1.5372;
793.2000;0.6838;1.5324;
793.5000;0.6797;1.5179;
793.8000;0.6846;1.5348;
794.1000;0.6870;1.5324;
794.4000;0.6846;1.5251;
794.7000;0.6846;1.5324;
795.0000;0.6854;1.5324;
795.3000;0.6878;1.5396;
795.6000;0.6829;1.5276;
795.9000;0.6862;1.5324;
796.2000;0.6846;1.5300;
796.5000;0.6846;1.5276;
796.8000;0.6789;1.5155;
797.1000;0.6846;1.5179;
797.4000;0.6846;1.5179;
797.7000;0.6813;1.5106;
798.0000;0.6829;1.5155;
798.3000;0.6821;1.5179;
798.6000;0.6821;1.5251;
798.9000;0.6854;1.5396;
799.2000;0.6862;1.5348;
799.5000;0.6821;1.5276;
799.8000;0.6838;1.5348;
800.1000;0.6829;1.5396;
800.4000;0.6862;1.5445;
800.7000;0.6838;1.5372;
801.0000;0.6813;1.5348;
801.3000;0.6829;1.5324;
801.6000;0.6838;1.5445;
801.9000;0.6829;1.5445;
802.2000;0.6829;1.5372;
802.5000;0.6838;1.5372;
802.8000;0.6805;1.5227;
803.1000;0.6813;1.5348;
803.4000;0.6821;1.5372;
803.7000;0.6838;1.5348;
804.0000;0.6838;1.5324;
804.3000;0.6846;1.5348;
804.6000;0.6829;1.5227;
804.9000;0.6829;1.5251;
805.2000;0.6838;1.5203;
805.5000;0.6838;1.5179;
805.8000;0.6829;1.5203;
806.1000;0.6829;1.5300;
806.4000;0.6862;1.5324;
806.7000;0.6838;1.5179;
807.0000;0.6813;1.5082;
807.3000;0.6805;1.5131;
807.6000;0.6805;1.5131;
807.9000;0.6813;1.5155;
808.2000;0.6838;1.5203;
808.5000;0.6854;1.5251;
808.8000;0.6821;1.5276;
809.1000;0.6772;1.5227;
809.4000;0.6829;1.5300;
809.7000;0.6772;1.5251;
810.0000;0.6764;1.5155;
810.3000;0.6829;1.5227;
810.6000;0.6821;1.5131;
810.9000;0.6829;1.5058;
811.2000;0.6797;1.5082;
811.5000;0.6797;1.5155;
811.8000;0.6805;1.5082;
812.1000;0.6756;1.4937;
812.4000;0.6797;1.5106;
812.7000;0.6805;1.5106;
813.0000;0.6805;1.5106;
813.3000;0.6805;1.5179;
813.6000;0.6813;1.5155;
813.9000;0.6813;1.5227;
814.2000;0.6813;1.5131;
814.5000;0.6797;1.5106;
814.8000;0.6781;1.5131;
815.1000;0.6797;1.5179;
815.4000;0.6805;1.5251;
815.7000;0.6805;1.5276;
816.0000;0.6781;1.5227;
816.3000;0.6781;1.5179;
816.6000;0.6862;1.5324;
816.9000;0.6813;1.5179;
817.2000;0.6805;1.5155;
817.5000;0.6748;1.4961;
817.8000;0.6789;1.5082;
818.1000;0.6740;1.4986;
818.4000;0.6805;1.5179;
818.7000;0.6797;1.5203;
819.0000;0.6797;1.5131;
819.3000;0.6797;1.5155;
819.6000;0.6797;1.5155;
819.9000;0.6724;1.4986;
820.2000;0.6805;1.5203;
820.5000;0.6789;1.5203;
820.8000;0.6789;1.5131;
821.1000;0.6797;1.5131;
821.4000;0.6764;1.5058;
821.7000;0.6789;1.5131;
822.0000;0.6789;1.5179;
822.3000;0.6764;1.5106;
822.6000;0.6789;1.5251;
822.9000;0.6797;1.5251;
823.2000;0.6781;1.5179;
823.5000;0.6789;1.5106;
823.8000;0.6797;1.5155;
824.1000;0.6789;1.5155;
824.4000;0.6789;1.5155;
824.7000;0.6781;1.5155;
825.0000;0.6772;1.5131;
825.3000;0.6797;1.5179;
825.6000;0.6781;1.5131;
825.9000;0.6772;1.5082;
826.2000;0.6781;1.5131;
826.5000;0.6764;1.5034;
826.8000;0.6756;1.5010;
827.1000;0.6789;1.5106;
827.4000;0.6789;1.5058;
827.7000;0.6789;1.5058;
828.0000;0.6789;1.5131;
828.3000;0.6813;1.5106;
828.6000;0.6772;1.5106;
828.9000;0.6781;1.5058;
829.2000;0.6781;1.5058;
829.5000;0.6797;1.5106;
829.8000;0.6805;1.5155;
830.1000;0.6797;1.5131;
830.4000;0.6781;1.5131;
830.7000;0.6789;1.5227;
831.0000;0.6748;1.5058;
831.3000;0.6781;1.5179;
831.6000;0.6756;1.5106;
831.9000;0.6781;1.5131;
832.2000;0.6789;1.5131;
832.5000;0.6781;1.5106;
832.8000;0.6772;1.5106;
833.1000;0.6797;1.5276;
833.4000;0.6772;1.5179;
833.7000;0.6805;1.5227;
834.0000;0.6756;1.5179;
834.3000;0.6764;1.5203;
834.6000;0.6772;1.5203;
834.9000;0.6781;1.5348;
835.2000;0.6772;1.5324;
835.5000;0.6772;1.5251;
835.8000;0.6764;1.5324;
836.1000;0.6764;1.5324;
836.4000;0.6764;1.5276;
836.7000;0.6748;1.5155;
837.0000;0.6707;1.5082;
837.3000;0.6789;1.5251;
837.6000;0.6691;1.5010;
837.9000;0.6724;1.5082;
838.2000;0.6764;1.5203;
838.5000;0.6748;1.5155;
838.8000;0.6748;1.5179;
839.1000;0.6764;1.5179;
839.4000;0.6764;1.5179;
839.7000;0.6772;1.5300;
840.0000;0.6764;1.5324;
840.3000;0.6756;1.5227;
840.6000;0.6789;1.5276;
840.9000;0.6756;1.5227;
841.2000;0.6772;1.5251;
841.5000;0.6740;1.5251;
841.8000;0.6756;1.5372;
842.1000;0.6748;1.5227;
842.4000;0.6764;1.5203;
842.7000;0.6772;1.5251;
843.0000;0.6772;1.5227;
843.3000;0.6716;1.5106;
843.6000;0.6764;1.5251;
843.9000;0.6781;1.5276;
844.2000;0.6691;1.4961;
844.5000;0.6821;1.5324;
844.8000;0.6756;1.5203;
845.1000;0.6756;1.5251;
845.4000;0.6764;1.5179;
845.7000;0.6748;1.5179;
846.0000;0.6756;1.5179;
846.3000;0.6756;1.5155;
846.6000;0.6764;1.5131;
846.9000;0.6740;1.5058;
847.2000;0.6740;1.5058;
847.5000;0.6748;1.5155;
847.8000;0.6748;1.5155;
848.1000;0.6740;1.5155;
848.4000;0.6772;1.5131;
848.7000;0.6732;1.5082;
849.0000;0.6740;1.5106;
849.3000;0.6740;1.5131;
849.6000;0.6724;1.5082;
849.9000;0.6732;1.5106;
850.2000;0.6732;1.5131;
850.5000;0.6740;1.5155;
850.8000;0.6740;1.5155;
851.1000;0.6748;1.5082;
851.4000;0.6724;1.5155;
851.7000;0.6740;1.5251;
852.0000;0.6740;1.5227;
852.3000;0.6748;1.5276;
852.6000;0.6756;1.5179;
852.9000;0.6740;1.5106;
853.2000;0.6732;1.5155;
853.5000;0.6748;1.5179;
853.8000;0.6732;1.5106;
854.1000;0.6748;1.5131;
854.4000;0.6716;1.5131;
854.7000;0.6805;1.5276;
855.0000;0.6650;1.4889;
855.3000;0.6748;1.5131;
855.6000;0.6732;1.5010;
855.9000;0.6724;1.5058;
856.2000;0.6732;1.5131;
856.5000;0.6740;1.5203;
856.8000;0.6748;1.5082;
857.1000;0.6699;1.5034;
857.4000;0.6732;1.5082;
857.7000;0.6756;1.5010;
858.0000;0.6789;1.5131;
858.3000;0.6732;1.4937;
858.6000;0.6740;1.4937;
858.9000;0.6740;1.4961;
859.2000;0.6716;1.5058;
859.5000;0.6724;1.5155;
859.8000;0.6707;1.5106;
860.1000;0.6732;1.5082;
860.4000;0.6724;1.5058;
860.7000;0.6707;1.5058;
861.0000;0.6716;1.5082;
861.3000;0.6732;1.5106;
861.6000;0.6716;1.5131;
861.9000;0.6716;1.5131;
862.2000;0.6724;1.5179;
862.5000;0.6724;1.5227;
862.8000;0.6732;1.5227;
863.1000;0.6642;1.4986;
863.4000;0.6748;1.5227;
863.7000;0.6724;1.5155;
864.0000;0.6716;1.5227;
864.3000;0.6716;1.5227;
864.6000;0.6707;1.5179;
864.9000;0.6772;1.5396;
865.2000;0.6732;1.5372;
865.5000;0.6732;1.5300;
865.8000;0.6716;1.5203;
866.1000;0.6724;1.5227;
866.4000;0.6724;1.5203;
866.7000;0.6732;1.5227;
867.0000;0.6707;1.5251;
867.3000;0.6716;1.5155;
867.6000;0.6716;1.5203;
867.9000;0.6716;1.5179;
868.2000;0.6667;1.5010;
868.5000;0.6707;1.5131;
868.8000;0.6813;1.5348;
869.1000;0.6748;1.5179;
869.4000;0.6756;1.5179;
869.7000;0.6716;1.5082;
870.0000;0.6724;1.5131;
870.3000;0.6781;1.5396;
870.6000;0.6716;1.5155;
870.9000;0.6724;1.5131;
871.2000;0.6724;1.5106;
871.5000;0.6732;1.5106;
871.8000;0.6716;1.5131;
872.1000;0.6716;1.5082;
872.4000;0.6707;1.5131;
872.7000;0.6732;1.5155;
873.0000;0.6716;1.5034;
873.3000;0.6772;1.5155;
873.6000;0.6707;1.5058;
873.9000;0.6699;1.5082;
874.2000;0.6716;1.5155;
874.5000;0.6699;1.5082;
874.8000;0.6707;1.5179;
875.1000;0.6716;1.5203;
875.4000;0.6675;1.5010;
875.7000;0.6699;1.5034;
876.0000;0.6716;1.5010;
876.3000;0.6716;1.5010;
876.6000;0.6667;1.4913;
876.9000;0.6707;1.5034;
877.2000;0.6716;1.5010;
877.5000;0.6707;1.5010;
877.8000;0.6707;1.4986;
878.1000;0.6716;1.5106;
878.4000;0.6699;1.5155;
878.7000;0.6675;1.5106;
879.0000;0.6650;1.5082;
879.3000;0.6716;1.5251;
879.6000;0.6691;1.5155;
879.9000;0.6699;1.5179;
880.2000;0.6707;1.5106;
880.5000;0.6691;1.5058;
880.8000;0.6724;1.5106;
881.1000;0.6699;1.5155;
881.4000;0.6675;1.5155;
881.7000;0.6716;1.5276;
882.0000;0.6699;1.5300;
882.3000;0.6724;1.5324;
882.6000;0.6683;1.5131;
882.9000;0.6691;1.5106;
883.2000;0.6699;1.5106;
883.5000;0.6699;1.5155;
883.8000;0.6642;1.4961;
884.1000;0.6691;1.5058;
884.4000;0.6699;1.5058;
884.7000;0.6667;1.4961;
885.0000;0.6683;1.5010;
885.3000;0.6667;1.5034;
885.6000;0.6667;1.5155;
885.9000;0.6699;1.5227;
886.2000;0.6691;1.5227;
886.5000;0.6691;1.5203;
886.8000;0.6683;1.5251;
887.1000;0.6683;1.5276;
887.4000;0.6667;1.5324;
887.7000;0.6675;1.5276;
888.0000;0.6675;1.5251;
888.3000;0.6724;1.5372;
888.6000;0.6699;1.5276;
888.9000;0.6667;1.5227;
889.2000;0.6667;1.5179;
889.5000;0.6691;1.5300;
889.8000;0.6675;1.5227;
890.1000;0.6675;1.5276;
890.4000;0.6691;1.5227;
890.7000;0.6691;1.5203;
891.0000;0.6699;1.5227;
891.3000;0.6691;1.5227;
891.6000;0.6699;1.5227;
891.9000;0.6683;1.5227;
892.2000;0.6691;1.5203;
892.5000;0.6667;1.5179;
892.8000;0.6634;1.5058;
893.1000;0.6691;1.5227;
893.4000;0.6683;1.5276;
893.7000;0.6659;1.5203;
894.0000;0.6699;1.5421;
894.3000;0.6642;1.5300;
894.6000;0.6675;1.5396;
894.9000;0.6675;1.5324;
895.2000;0.6683;1.5300;
895.5000;0.6683;1.5251;
895.8000;0.6675;1.5276;
896.1000;0.6691;1.5324;
896.4000;0.6634;1.5082;
896.7000;0.6675;1.5155;
897.0000;0.6634;1.5155;
897.3000;0.6659;1.5227;
897.6000;0.6691;1.5300;
897.9000;0.6667;1.5324;
898.2000;0.6667;1.5348;
898.5000;0.6724;1.5445;
898.8000;0.6667;1.5348;
899.1000;0.6675;1.5396;
899.4000;0.6675;1.5396;
899.7000;0.6634;1.5251;
900.0000;0.6691;1.5372;
900.3000;0.6675;1.5324;
900.6000;0.6610;1.5300;
900.9000;0.6667;1.5469;
901.2000;0.6699;1.5469;
901.5000;0.6667;1.5396;
901.8000;0.6667;1.5348;
902.1000;0.6667;1.5372;
902.4000;0.6691;1.5421;
902.7000;0.6634;1.5300;
903.0000;0.6667;1.5372;
903.3000;0.6650;1.5348;
903.6000;0.6667;1.5276;
903.9000;0.6659;1.5227;
904.2000;0.6667;1.5203;
904.5000;0.6724;1.5324;
904.8000;0.6667;1.5131;
905.1000;0.6659;1.5155;
905.4000;0.6650;1.5276;
905.7000;0.6650;1.5300;
906.0000;0.6667;1.5445;
906.3000;0.6659;1.5421;
906.6000;0.6667;1.5372;
906.9000;0.6650;1.5348;
907.2000;0.6659;1.5300;
907.5000;0.6667;1.5300;
907.8000;0.6667;1.5276;
908.1000;0.6642;1.5227;
908.4000;0.6659;1.5227;
908.7000;0.6667;1.5179;
909.0000;0.6659;1.5155;
909.3000;0.6667;1.5155;
909.6000;0.6650;1.5179;
909.9000;0.6610;1.5155;
910.2000;0.6650;1.5251;
910.5000;0.6650;1.5276;
910.8000;0.6642;1.5251;
911.1000;0.6585;1.5106;
911.4000;0.6659;1.5300;
911.7000;0.6659;1.5372;
912.0000;0.6667;1.5396;
912.3000;0.6650;1.5372;
912.6000;0.6659;1.5396;
912.9000;0.6675;1.5542;
913.2000;0.6667;1.5493;
913.5000;0.6667;1.5421;
913.8000;0.6675;1.5469;
914.1000;0.6667;1.5469;
914.4000;0.6634;1.5396;
914.7000;0.6659;1.5469;
915.0000;0.6659;1.5493;
915.3000;0.6642;1.5493;
915.6000;0.6610;1.5396;
915.9000;0.6650;1.5421;
916.2000;0.6659;1.5421;
916.5000;0.6650;1.5445;
916.8000;0.6642;1.5445;
917.1000;0.6659;1.5469;
917.4000;0.6667;1.5396;
917.7000;0.6683;1.5396;
918.0000;0.6667;1.5324;
918.3000;0.6659;1.5203;
918.6000;0.6659;1.5300;
918.9000;0.6650;1.5348;
919.2000;0.6667;1.5396;
919.5000;0.6642;1.5324;
919.8000;0.6650;1.5324;
920.1000;0.6659;1.5348;
920.4000;0.6659;1.5348;
920.7000;0.6659;1.5372;
921.0000;0.6626;1.5203;
921.3000;0.6675;1.5300;
921.6000;0.6659;1.5300;
921.9000;0.6634;1.5251;
922.2000;0.6650;1.5155;
922.5000;0.6659;1.5131;
922.8000;0.6650;1.5082;
923.1000;0.6634;1.5131;
923.4000;0.6650;1.5179;
923.7000;0.6650;1.5203;
924.0000;0.6642;1.5131;
924.3000;0.6650;1.5131;
924.6000;0.6642;1.5106;
924.9000;0.6650;1.5131;
925.2000;0.6650;1.5155;
925.5000;0.6650;1.5155;
925.8000;0.6667;1.5155;
926.1000;0.6659;1.5203;
926.4000;0.6659;1.5251;
926.7000;0.6748;1.5445;
927.0000;0.6667;1.5276;
927.3000;0.6650;1.5251;
927.6000;0.6650;1.5300;
927.9000;0.6667;1.5324;
928.2000;0.6683;1.5445;
928.5000;0.6650;1.5421;
928.8000;0.6642;1.5348;
929.1000;0.6667;1.5348;
929.4000;0.6659;1.5421;
929.7000;0.6650;1.5396;
930.0000;0.6642;1.5396;
930.3000;0.6642;1.5324;
930.6000;0.6626;1.5421;
930.9000;0.6634;1.5421;
931.2000;0.6634;1.5421;
931.5000;0.6650;1.5396;
931.8000;0.6650;1.5324;
932.1000;0.6642;1.5251;
932.4000;0.6691;1.5421;
932.7000;0.6634;1.5300;
933.0000;0.6683;1.5396;
933.3000;0.6610;1.5227;
933.6000;0.6634;1.5348;
933.9000;0.6577;1.5203;
934.2000;0.6618;1.5300;
934.5000;0.6642;1.5276;
934.8000;0.6634;1.5131;
935.1000;0.6683;1.5251;
935.4000;0.6642;1.5155;
935.7000;0.6659;1.5227;
936.0000;0.6626;1.5131;
936.3000;0.6659;1.5324;
936.6000;0.6610;1.5251;
936.9000;0.6667;1.5421;
937.2000;0.6634;1.5396;
937.5000;0.6642;1.5348;
937.8000;0.6626;1.5372;
938.1000;0.6634;1.5445;
938.4000;0.6634;1.5493;
938.7000;0.6642;1.5517;
939.0000;0.6626;1.5445;
939.3000;0.6650;1.5590;
939.6000;0.6642;1.5517;
939.9000;0.6610;1.5517;
940.2000;0.6618;1.5469;
940.5000;0.6634;1.5517;
940.8000;0.6707;1.5662;
941.1000;0.6618;1.5493;
941.4000;0.6610;1.5517;
941.7000;0.6602;1.5542;
942.0000;0.6618;1.5542;
942.3000;0.6626;1.5566;
942.6000;0.6634;1.5614;
942.9000;0.6650;1.5638;
943.2000;0.6585;1.5542;
943.5000;0.6626;1.5517;
943.8000;0.6650;1.5542;
944.1000;0.6634;1.5445;
944.4000;0.6634;1.5542;
944.7000;0.6650;1.5566;
945.0000;0.6610;1.5493;
945.3000;0.6626;1.5566;
945.6000;0.6626;1.5469;
945.9000;0.6626;1.5421;
946.2000;0.6626;1.5348;
946.5000;0.6634;1.5421;
946.8000;0.6650;1.5445;
947.1000;0.6626;1.5421;
947.4000;0.6634;1.5445;
947.7000;0.6634;1.5469;
948.0000;0.6650;1.5566;
948.3000;0.6626;1.5517;
948.6000;0.6618;1.5445;
948.9000;0.6659;1.5542;
949.2000;0.6634;1.5372;
949.5000;0.6634;1.5324;
949.8000;0.6675;1.5348;
950.1000;0.6553;1.4986;
950.4000;0.6626;1.5227;
950.7000;0.6593;1.5106;
951.0000;0.6626;1.5348;
951.3000;0.6610;1.5348;
951.6000;0.6610;1.5469;
951.9000;0.6610;1.5566;
952.2000;0.6634;1.5614;
952.5000;0.6659;1.5638;
952.8000;0.6626;1.5517;
953.1000;0.6602;1.5445;
953.4000;0.6634;1.5517;
953.7000;0.6626;1.5517;
954.0000;0.6626;1.5517;
954.3000;0.6626;1.5566;
954.6000;0.6626;1.5614;
954.9000;0.6642;1.5662;
955.2000;0.6569;1.5566;
955.5000;0.6610;1.5590;
955.8000;0.6634;1.5566;
956.1000;0.6602;1.5493;
956.4000;0.6577;1.5421;
956.7000;0.6593;1.5493;
957.0000;0.6602;1.5493;
957.3000;0.6634;1.5517;
957.6000;0.6667;1.5590;
957.9000;0.6569;1.5324;
958.2000;0.6593;1.5348;
958.5000;0.6650;1.5469;
958.8000;0.6634;1.5493;
959.1000;0.6602;1.5469;
959.4000;0.6569;1.5396;
959.7000;0.6626;1.5590;
960.0000;0.6618;1.5590;
960.3000;0.6593;1.5517;
960.6000;0.6602;1.5517;
960.9000;0.6634;1.5542;
961.2000;0.6618;1.5469;
961.5000;0.6610;1.5396;
961.8000;0.6610;1.5396;
962.1000;0.6618;1.5372;
962.4000;0.6618;1.5372;
962.7000;0.6618;1.5396;
963.0000;0.6602;1.5324;
963.3000;0.6610;1.5324;
963.6000;0.6626;1.5396;
963.9000;0.6610;1.5421;
964.2000;0.6618;1.5396;
964.5000;0.6618;1.5493;
964.8000;0.6602;1.5638;
965.1000;0.6634;1.5662;
965.4000;0.6618;1.5614;
965.7000;0.6626;1.5687;
966.0000;0.6618;1.5662;
966.3000;0.6577;1.5590;
966.6000;0.6593;1.5590;
966.9000;0.6618;1.5566;
967.2000;0.6610;1.5469;
967.5000;0.6602;1.5469;
967.8000;0.6626;1.5542;
968.1000;0.6602;1.5542;
968.4000;0.6626;1.5590;
968.7000;0.6618;1.5662;
969.0000;0.6585;1.5590;
969.3000;0.6602;1.5687;
969.6000;0.6618;1.5783;
969.9000;0.6602;1.5687;
970.2000;0.6585;1.5590;
970.5000;0.6602;1.5614;
970.8000;0.6585;1.5469;
971.1000;0.6626;1.5542;
971.4000;0.6610;1.5445;
971.7000;0.6602;1.5421;
972.0000;0.6593;1.5421;
972.3000;0.6585;1.5372;
972.6000;0.6602;1.5372;
972.9000;0.6675;1.5542;
973.2000;0.6561;1.5300;
973.5000;0.6593;1.5372;
973.8000;0.6610;1.5421;
974.1000;0.6626;1.5445;
974.4000;0.6593;1.5493;
974.7000;0.6602;1.5542;
975.0000;0.6650;1.5614;
975.3000;0.6610;1.5445;
975.6000;0.6585;1.5372;
975.9000;0.6610;1.5421;
976.2000;0.6602;1.5421;
976.5000;0.6602;1.5445;
976.8000;0.6610;1.5421;
977.1000;0.6593;1.5469;
977.4000;0.6585;1.5421;
977.7000;0.6602;1.5517;
978.0000;0.6602;1.5517;
978.3000;0.6610;1.5469;
978.6000;0.6545;1.5324;
978.9000;0.6634;1.5517;
979.2000;0.6593;1.5445;
979.5000;0.6610;1.5421;
979.8000;0.6610;1.5372;
980.1000;0.6610;1.5372;
980.4000;0.6602;1.5421;
980.7000;0.6602;1.5396;
981.0000;0.6593;1.5372;
981.3000;0.6610;1.5396;
981.6000;0.6602;1.5469;
981.9000;0.6618;1.5542;
982.2000;0.6593;1.5493;
982.5000;0.6642;1.5614;
982.8000;0.6626;1.5542;
983.1000;0.6577;1.5517;
983.4000;0.6593;1.5517;
983.7000;0.6610;1.5566;
984.0000;0.6610;1.5566;
984.3000;0.6602;1.5590;
984.6000;0.6618;1.5566;
984.9000;0.6593;1.5493;
985.2000;0.6602;1.5493;
985.5000;0.6610;1.5517;
985.8000;0.6626;1.5493;
986.1000;0.6602;1.5445;
986.4000;0.6545;1.5324;
986.7000;0.6602;1.5469;
987.0000;0.6610;1.5517;
987.3000;0.6626;1.5590;
987.6000;0.6610;1.5590;
987.9000;0.6593;1.5614;
988.2000;0.6602;1.5566;
988.5000;0.6610;1.5542;
988.8000;0.6667;1.5711;
989.1000;0.6602;1.5542;
989.4000;0.6569;1.5517;
989.7000;0.6577;1.5469;
990.0000;0.6593;1.5542;
990.3000;0.6602;1.5566;
990.6000;0.6602;1.5566;
990.9000;0.6585;1.5493;
991.2000;0.6577;1.5445;
991.5000;0.6593;1.5542;
991.8000;0.6593;1.5614;
992.1000;0.6577;1.5566;
992.4000;0.6593;1.5493;
992.7000;0.6610;1.5493;
993.0000;0.6585;1.5469;
993.3000;0.6577;1.5493;
993.6000;0.6569;1.5396;
993.9000;0.6593;1.5469;
994.2000;0.6634;1.5517;
994.5000;0.6593;1.5396;
994.8000;0.6602;1.5396;
995.1000;0.6618;1.5493;
995.4000;0.6626;1.5421;
995.7000;0.6610;1.5493;
996.0000;0.6593;1.5542;
996.3000;0.6593;1.5614;
996.6000;0.6593;1.5638;
996.9000;0.6602;1.5638;
997.2000;0.6602;1.5614;
997.5000;0.6593;1.5542;
997.8000;0.6593;1.5517;
998.1000;0.6642;1.5638;
998.4000;0.6602;1.5517;
998.7000;0.6602;1.5445;
999.0000;0.6593;1.5469;
999.3000;0.6610;1.5542;
999.6000;0.6593;1.5517;
999.9000;0.6602;1.5517;
1000.2000;0.6593;1.5493;
1000.5000;0.6593;1.5445;
1000.8000;0.6602;1.5517;
1001.1000;0.6593;1.5517;
1001.4000;0.6593;1.5614;
1001.7000;0.6585;1.5662;
1002.0000;0.6585;1.5638;
1002.3000;0.6569;1.5590;
1002.6000;0.6577;1.5542;
1002.9000;0.6585;1.5687;
1003.2000;0.6602;1.5735;
1003.5000;0.6577;1.5711;
1003.8000;0.6577;1.5614;
1004.1000;0.6593;1.5735;
1004.4000;0.6618;1.5832;
1004.7000;0.6602;1.5735;
1005.0000;0.6577;1.5662;
1005.3000;0.6585;1.5687;
1005.6000;0.6577;1.5687;
1005.9000;0.6520;1.5590;
1006.2000;0.6585;1.5783;
1006.5000;0.6536;1.5614;
1006.8000;0.6577;1.5566;
1007.1000;0.6593;1.5687;
1007.4000;0.6593;1.5711;
1007.7000;0.6585;1.5566;
1008.0000;0.6585;1.5566;
1008.3000;0.6602;1.5566;
1008.6000;0.6577;1.5517;
1008.9000;0.6569;1.5542;
1009.2000;0.6585;1.5566;
1009.5000;0.6585;1.5517;
1009.8000;0.6585;1.5590;
1010.1000;0.6585;1.5638;
1010.4000;0.6585;1.5662;
1010.7000;0.6585;1.5759;
1011.0000;0.6593;1.5904;
1011.3000;0.6585;1.5977;
1011.6000;0.6593;1.5928;
1011.9000;0.6585;1.5807;
1012.2000;0.6577;1.5759;
1012.5000;0.6593;1.5735;
1012.8000;0.6593;1.5735;
1013.1000;0.6585;1.5662;
1013.4000;0.6642;1.5783;
1013.7000;0.6585;1.5566;
1014.0000;0.6577;1.5542;
1014.3000;0.6585;1.5590;
1014.6000;0.6561;1.5517;
1014.9000;0.6577;1.5566;
1015.2000;0.6610;1.5566;
1015.5000;0.6577;1.5421;
1015.8000;0.6577;1.5445;
1016.1000;0.6577;1.5469;
1016.4000;0.6577;1.5493;
1016.7000;0.6569;1.5493;
1017.0000;0.6577;1.5493;
1017.3000;0.6585;1.5469;
1017.6000;0.6585;1.5493;
1017.9000;0.6569;1.5493;
1018.2000;0.6577;1.5445;
1018.5000;0.6585;1.5517;
1018.8000;0.6593;1.5566;
1019.1000;0.6553;1.5517;
1019.4000;0.6585;1.5614;
1019.7000;0.6577;1.5566;
1020.0000;0.6561;1.5469;
1020.3000;0.6569;1.5421;
1020.6000;0.6569;1.5469;
1020.9000;0.6577;1.5421;
1021.2000;0.6593;1.5396;
1021.5000;0.6577;1.5396;
1021.8000;0.6593;1.5542;
1022.1000;0.6602;1.5517;
1022.4000;0.6593;1.5566;
1022.7000;0.6593;1.5590;
1023.0000;0.6569;1.5517;
1023.3000;0.6577;1.5493;
1023.6000;0.6585;1.5517;
1023.9000;0.6593;1.5542;
1024.2000;0.6610;1.5493;
1024.5000;0.6577;1.5542;
1024.8000;0.6593;1.5783;
1025.1000;0.6528;1.5614;
1025.4000;0.6561;1.5590;
1025.7000;0.6602;1.5614;
1026.0000;0.6593;1.5542;
1026.3000;0.6585;1.5542;
1026.6000;0.6569;1.5469;
1026.9000;0.6610;1.5566;
1027.2000;0.6569;1.5469;
1027.5000;0.6593;1.5493;
1027.8000;0.6593;1.5517;
1028.1000;0.6610;1.5469;
1028.4000;0.6610;1.5542;
1028.7000;0.6577;1.5372;
1029.0000;0.6577;1.5469;
1029.3000;0.6569;1.5348;
1029.6000;0.6553;1.5227;
1029.9000;0.6593;1.5348;
1030.2000;0.6577;1.5372;
1030.5000;0.6553;1.5276;
1030.8000;0.6569;1.5396;
1031.1000;0.6569;1.5469;
1031.4000;0.6577;1.5542;
1031.7000;0.6602;1.5590;
1032.0000;0.6626;1.5662;
1032.3000;0.6561;1.5493;
1032.6000;0.6577;1.5566;
1032.9000;0.6577;1.5493;
1033.2000;0.6577;1.5445;
1033.5000;0.6569;1.5396;
1033.8000;0.6569;1.5445;
1034.1000;0.6577;1.5517;
1034.4000;0.6569;1.5469;
1034.7000;0.6561;1.5517;
1035.0000;0.6585;1.5566;
1035.3000;0.6577;1.5469;
1035.6000;0.6569;1.5469;
1035.9000;0.6585;1.5517;
1036.2000;0.6585;1.5493;
1036.5000;0.6585;1.5445;
1036.8000;0.6585;1.5517;
1037.1000;0.6585;1.5421;
1037.4000;0.6569;1.5469;
1037.7000;0.6561;1.5469;
1038.0000;0.6569;1.5469;
1038.3000;0.6561;1.5396;
1038.6000;0.6577;1.5421;
1038.9000;0.6577;1.5469;
1039.2000;0.6569;1.5469;
1039.5000;0.6553;1.5396;
1039.8000;0.6569;1.5493;
1040.1000;0.6585;1.5566;
1040.4000;0.6561;1.5590;
1040.7000;0.6569;1.5614;
1041.0000;0.6545;1.5542;
1041.3000;0.6561;1.5566;
1041.6000;0.6577;1.5614;
1041.9000;0.6569;1.5590;
1042.2000;0.6561;1.5566;
1042.5000;0.6561;1.5517;
1042.8000;0.6553;1.5445;
1043.1000;0.6561;1.5421;
1043.4000;0.6577;1.5421;
1043.7000;0.6602;1.5445;
1044.0000;0.6569;1.5372;
1044.3000;0.6577;1.5396;
1044.6000;0.6561;1.5300;
1044.9000;0.6545;1.5276;
1045.2000;0.6545;1.5300;
1045.5000;0.6577;1.5324;
1045.8000;0.6585;1.5348;
1046.1000;0.6577;1.5445;
1046.4000;0.6577;1.5372;
1046.7000;0.6569;1.5348;
1047.0000;0.6585;1.5324;
1047.3000;0.6545;1.5179;
1047.6000;0.6569;1.5251;
1047.9000;0.6577;1.5372;
1048.2000;0.6561;1.5396;
1048.5000;0.6545;1.5445;
1048.8000;0.6553;1.5469;
1049.1000;0.6610;1.5542;
1049.4000;0.6569;1.5396;
1049.7000;0.6561;1.5372;
1050.0000;0.6585;1.5324;
1050.3000;0.6553;1.5276;
1050.6000;0.6569;1.5372;
1050.9000;0.6561;1.5348;
1051.2000;0.6577;1.5396;
1051.5000;0.6561;1.5469;
1051.8000;0.6561;1.5493;
1052.1000;0.6496;1.5348;
1052.4000;0.6593;1.5662;
1052.7000;0.6496;1.5348;
1053.0000;0.6577;1.5566;
1053.3000;0.6577;1.5517;
1053.6000;0.6545;1.5493;
1053.9000;0.6561;1.5469;
1054.2000;0.6561;1.5396;
1054.5000;0.6528;1.5324;
1054.8000;0.6553;1.5396;
1055.1000;0.6569;1.5445;
1055.4000;0.6577;1.5445;
1055.7000;0.6561;1.5396;
1056.0000;0.6585;1.5517;
1056.3000;0.6561;1.5517;
1056.6000;0.6569;1.5566;
1056.9000;0.6561;1.5445;
1057.2000;0.6553;1.5348;
1057.5000;0.6569;1.5396;
1057.8000;0.6545;1.5251;
1058.1000;0.6561;1.5251;
1058.4000;0.6553;1.5179;
1058.7000;0.6528;1.5131;
1059.0000;0.6561;1.5203;
1059.3000;0.6561;1.5251;
1059.6000;0.6553;1.5276;
1059.9000;0.6553;1.5276;
1060.2000;0.6528;1.5203;
1060.5000;0.6545;1.5251;
1060.8000;0.6545;1.5203;
1061.1000;0.6561;1.5251;
1061.4000;0.6545;1.5227;
1061.7000;0.6561;1.5251;
1062.0000;0.6569;1.5276;
1062.3000;0.6561;1.5251;
1062.6000;0.6561;1.5251;
1062.9000;0.6553;1.5227;
1063.2000;0.6528;1.5203;
1063.5000;0.6569;1.5324;
1063.8000;0.6553;1.5348;
1064.1000;0.6561;1.5396;
1064.4000;0.6536;1.5372;
1064.7000;0.6545;1.5445;
1065.0000;0.6593;1.5542;
1065.3000;0.6545;1.5421;
1065.6000;0.6561;1.5469;
1065.9000;0.6545;1.5493;
1066.2000;0.6585;1.5445;
1066.5000;0.6553;1.5396;
1066.8000;0.6488;1.5227;
1067.1000;0.6626;1.5493;
1067.4000;0.6561;1.5396;
1067.7000;0.6561;1.5445;
1068.0000;0.6561;1.5372;
1068.3000;0.6553;1.5324;
1068.6000;0.6553;1.5348;
1068.9000;0.6545;1.5372;
1069.2000;0.6610;1.5469;
1069.5000;0.6569;1.5421;
1069.8000;0.6561;1.5517;
1070.1000;0.6553;1.5348;
1070.4000;0.6553;1.5348;
1070.7000;0.6520;1.5396;
1071.0000;0.6561;1.5493;
1071.3000;0.6545;1.5469;
1071.6000;0.6545;1.5469;
1071.9000;0.6561;1.5445;
1072.2000;0.6553;1.5493;
1072.5000;0.6545;1.5445;
1072.8000;0.6536;1.5421;
1073.1000;0.6545;1.5469;
1073.4000;0.6553;1.5469;
1073.7000;0.6545;1.5396;
1074.0000;0.6536;1.5421;
1074.3000;0.6536;1.5348;
1074.6000;0.6545;1.5372;
1074.9000;0.6528;1.5324;
1075.2000;0.6569;1.5445;
1075.5000;0.6504;1.5300;
1075.8000;0.6536;1.5324;
1076.1000;0.6553;1.5324;
1076.4000;0.6471;1.5179;
1076.7000;0.6528;1.5324;
1077.0000;0.6561;1.5469;
1077.3000;0.6520;1.5445;
1077.6000;0.6545;1.5469;
1077.9000;0.6561;1.5469;
1078.2000;0.6553;1.5445;
1078.5000;0.6569;1.5493;
1078.8000;0.6545;1.5421;
1079.1000;0.6553;1.5445;
1079.4000;0.6536;1.5348;
1079.7000;0.6553;1.5348;
1080.0000;0.6553;1.5372;
1080.3000;0.6545;1.5324;
1080.6000;0.6545;1.5324;
1080.9000;0.6561;1.5348;
1081.2000;0.6585;1.5469;
1081.5000;0.6593;1.5445;
1081.8000;0.6553;1.5348;
1082.1000;0.6569;1.5348;
1082.4000;0.6569;1.5421;
1082.7000;0.6545;1.5445;
1083.0000;0.6553;1.5517;
1083.3000;0.6536;1.5445;
1083.6000;0.6536;1.5517;
1083.9000;0.6536;1.5542;
1084.2000;0.6545;1.5542;
1084.5000;0.6536;1.5469;
1084.8000;0.6520;1.5421;
1085.1000;0.6520;1.5421;
1085.4000;0.6536;1.5421;
1085.7000;0.6536;1.5469;
1086.0000;0.6536;1.5493;
1086.3000;0.6553;1.5469;
1086.6000;0.6520;1.5421;
1086.9000;0.6488;1.5421;
1087.2000;0.6545;1.5517;
1087.5000;0.6569;1.5542;
1087.8000;0.6553;1.5445;
1088.1000;0.6553;1.5469;
1088.4000;0.6561;1.5493;
1088.7000;0.6585;1.5566;
1089.0000;0.6545;1.5542;
1089.3000;0.6536;1.5517;
1089.6000;0.6520;1.5396;
1089.9000;0.6528;1.5421;
1090.2000;0.6545;1.5396;
1090.5000;0.6488;1.5300;
1090.8000;0.6528;1.5421;
1091.1000;0.6545;1.5517;
1091.4000;0.6585;1.5590;
1091.7000;0.6545;1.5469;
1092.0000;0.6553;1.5517;
1092.3000;0.6536;1.5517;
1092.6000;0.6545;1.5517;
1092.9000;0.6545;1.5396;
1093.2000;0.6545;1.5300;
1093.5000;0.6536;1.5300;
1093.8000;0.6536;1.5324;
1094.1000;0.6536;1.5276;
1094.4000;0.6545;1.5276;
1094.7000;0.6536;1.5300;
1095.0000;0.6528;1.5251;
1095.3000;0.6528;1.5227;
1095.6000;0.6561;1.5372;
1095.9000;0.6528;1.5300;
1096.2000;0.6528;1.5396;
1096.5000;0.6610;1.5662;
1096.8000;0.6520;1.5493;
1097.1000;0.6545;1.5493;
1097.4000;0.6528;1.5469;
1097.7000;0.6528;1.5469;
1098.0000;0.6545;1.5445;
1098.3000;0.6528;1.5493;
1098.6000;0.6536;1.5493;
1098.9000;0.6536;1.5542;
1099.2000;0.6553;1.5662;
1099.5000;0.6536;1.5662;
1099.8000;0.6520;1.5566;
1100.1000;0.6536;1.5566;
1100.4000;0.6553;1.5542;
1100.7000;0.6545;1.5445;
1101.0000;0.6536;1.5396;
1101.3000;0.6545;1.5396;
1101.6000;0.6545;1.5396;
1101.9000;0.6569;1.5493;
1102.2000;0.6520;1.5372;
1102.5000;0.6536;1.5372;
1102.8000;0.6536;1.5396;
1103.1000;0.6545;1.5493;
1103.4000;0.6561;1.5638;
1103.7000;0.6520;1.5493;
1104.0000;0.6553;1.5517;
1104.3000;0.6545;1.5517;
1104.6000;0.6545;1.5396;
1104.9000;0.6545;1.5324;
1105.2000;0.6536;1.5396;
1105.5000;0.6545;1.5421;
1105.8000;0.6536;1.5469;
1106.1000;0.6536;1.5445;
1106.4000;0.6536;1.5445;
1106.7000;0.6545;1.5469;
1107.0000;0.6536;1.5493;
1107.3000;0.6536;1.5493;
1107.6000;0.6536;1.5445;
1107.9000;0.6545;1.5445;
1108.2000;0.6520;1.5469;
1108.5000;0.6528;1.5542;
1108.8000;0.6545;1.5566;
1109.1000;0.6536;1.5493;
1109.4000;0.6536;1.5493;
1109.7000;0.6520;1.5590;
1110.0000;0.6512;1.5566;
1110.3000;0.6528;1.5590;
1110.6000;0.6520;1.5517;
1110.9000;0.6512;1.5445;
1111.2000;0.6496;1.5445;
1111.5000;0.6520;1.5469;
1111.8000;0.6536;1.5566;
1112.1000;0.6504;1.5469;
1112.4000;0.6512;1.5421;
1112.7000;0.6520;1.5445;
1113.0000;0.6536;1.5469;
1113.3000;0.6528;1.5517;
1113.6000;0.6512;1.5469;
1113.9000;0.6528;1.5493;
1114.2000;0.6520;1.5493;
1114.5000;0.6528;1.5517;
1114.8000;0.6504;1.5469;
1115.1000;0.6520;1.5396;
1115.4000;0.6520;1.5396;
1115.7000;0.6536;1.5300;
1116.0000;0.6496;1.5251;
1116.3000;0.6528;1.5324;
1116.6000;0.6536;1.5324;
1116.9000;0.6528;1.5348;
1117.2000;0.6520;1.5396;
1117.5000;0.6528;1.5372;
1117.8000;0.6520;1.5421;
1118.1000;0.6512;1.5348;
1118.4000;0.6528;1.5348;
1118.7000;0.6528;1.5348;
1119.0000;0.6528;1.5324;
1119.3000;0.6496;1.5300;
1119.6000;0.6528;1.5372;
1119.9000;0.6528;1.5421;
1120.2000;0.6512;1.5396;
1120.5000;0.6528;1.5493;
1120.8000;0.6520;1.5421;
1121.1000;0.6528;1.5421;
1121.4000;0.6504;1.5276;
1121.7000;0.6520;1.5324;
1122.0000;0.6536;1.5469;
1122.3000;0.6536;1.5469;
1122.6000;0.6545;1.5396;
1122.9000;0.6528;1.5348;
1123.2000;0.6528;1.5324;
1123.5000;0.6536;1.5276;
1123.8000;0.6528;1.5276;
1124.1000;0.6536;1.5300;
1124.4000;0.6545;1.5372;
1124.7000;0.6536;1.5348;
1125.0000;0.6520;1.5324;
1125.3000;0.6496;1.5227;
1125.6000;0.6528;1.5276;
1125.9000;0.6536;1.5324;
1126.2000;0.6520;1.5348;
1126.5000;0.6520;1.5421;
1126.8000;0.6520;1.5469;
1127.1000;0.6520;1.5469;
1127.4000;0.6504;1.5372;
1127.7000;0.6536;1.5445;
1128.0000;0.6536;1.5421;
1128.3000;0.6536;1.5421;
1128.6000;0.6536;1.5421;
1128.9000;0.6528;1.5396;
1129.2000;0.6577;1.5517;
1129.5000;0.6528;1.5445;
1129.8000;0.6561;1.5469;
1130.1000;0.6528;1.5445;
1130.4000;0.6512;1.5324;
1130.7000;0.6520;1.5324;
1131.0000;0.6528;1.5396;
1131.3000;0.6553;1.5469;
1131.6000;0.6520;1.5372;
1131.9000;0.6528;1.5396;
1132.2000;0.6520;1.5300;
1132.5000;0.6512;1.5179;
1132.8000;0.6496;1.5251;
1133.1000;0.6520;1.5324;
1133.4000;0.6512;1.5300;
1133.7000;0.6512;1.5372;
1134.0000;0.6512;1.5348;
1134.3000;0.6512;1.5421;
1134.6000;0.6520;1.5493;
1134.9000;0.6488;1.5493;
1135.2000;0.6512;1.5445;
1135.5000;0.6528;1.5445;
1135.8000;0.6528;1.5469;
1136.1000;0.6536;1.5348;
1136.4000;0.6512;1.5300;
1136.7000;0.6520;1.5276;
1137.0000;0.6520;1.5300;
1137.3000;0.6528;1.5300;
1137.6000;0.6528;1.5324;
1137.9000;0.6520;1.5251;
1138.2000;0.6520;1.5203;
1138.5000;0.6528;1.5276;
1138.8000;0.6512;1.5251;
1139.1000;0.6528;1.5324;
1139.4000;0.6545;1.5469;
1139.7000;0.6520;1.5421;
1140.0000;0.6512;1.5396;
1140.3000;0.6536;1.5469;
1140.6000;0.6520;1.5445;
1140.9000;0.6545;1.5493;
1141.2000;0.6545;1.5421;
1141.5000;0.6520;1.5396;
1141.8000;0.6520;1.5324;
1142.1000;0.6528;1.5276;
1142.4000;0.6536;1.5348;
1142.7000;0.6528;1.5421;
1143.0000;0.6520;1.5421;
1143.3000;0.6496;1.5396;
1143.6000;0.6528;1.5517;
1143.9000;0.6528;1.5517;
1144.2000;0.6520;1.5445;
1144.5000;0.6504;1.5445;
1144.8000;0.6545;1.5493;
1145.1000;0.6577;1.5517;
1145.4000;0.6520;1.5372;
1145.7000;0.6471;1.5179;
1146.0000;0.6528;1.5372;
1146.3000;0.6520;1.5421;
1146.6000;0.6528;1.5396;
1146.9000;0.6512;1.5421;
1147.2000;0.6528;1.5445;
1147.5000;0.6545;1.5517;
1147.8000;0.6528;1.5469;
1148.1000;0.6496;1.5469;
1148.4000;0.6528;1.5517;
1148.7000;0.6528;1.5469;
1149.0000;0.6536;1.5445;
1149.3000;0.6545;1.5542;
1149.6000;0.6520;1.5517;
1149.9000;0.6520;1.5469;
1150.2000;0.6536;1.5469;
1150.5000;0.6479;1.5372;
1150.8000;0.6520;1.5469;
1151.1000;0.6520;1.5517;
1151.4000;0.6512;1.5517;
1151.7000;0.6512;1.5517;
1152.0000;0.6528;1.5517;
1152.3000;0.6520;1.5493;
1152.6000;0.6520;1.5469;
1152.9000;0.6496;1.5421;
1153.2000;0.6512;1.5566;
1153.5000;0.6528;1.5662;
1153.8000;0.6536;1.5662;
1154.1000;0.6536;1.5566;
1154.4000;0.6528;1.5445;
1154.7000;0.6512;1.5421;
1155.0000;0.6520;1.5396;
1155.3000;0.6520;1.5421;
1155.6000;0.6512;1.5372;
1155.9000;0.6504;1.5300;
1156.2000;0.6528;1.5396;
1156.5000;0.6512;1.5493;
1156.8000;0.6512;1.5517;
1157.1000;0.6528;1.5517;
1157.4000;0.6512;1.5469;
1157.7000;0.6520;1.5372;
1158.0000;0.6496;1.5421;
1158.3000;0.6512;1.5396;
1158.6000;0.6512;1.5348;
1158.9000;0.6528;1.5421;
1159.2000;0.6528;1.5372;
1159.5000;0.6520;1.5396;
1159.8000;0.6536;1.5469;
1160.1000;0.6512;1.5517;
1160.4000;0.6512;1.5469;
1160.7000;0.6512;1.5445;
1161.0000;0.6479;1.5421;
1161.3000;0.6504;1.5445;
1161.6000;0.6512;1.5421;
1161.9000;0.6520;1.5445;
1162.2000;0.6520;1.5445;
1162.5000;0.6520;1.5493;
1162.8000;0.6520;1.5469;
1163.1000;0.6528;1.5517;
1163.4000;0.6520;1.5542;
1163.7000;0.6536;1.5542;
1164.0000;0.6520;1.5493;
1164.3000;0.6536;1.5517;
1164.6000;0.6520;1.5517;
1164.9000;0.6528;1.5445;
1165.2000;0.6528;1.5469;
1165.5000;0.6528;1.5421;
1165.8000;0.6512;1.5300;
1166.1000;0.6545;1.5276;
1166.4000;0.6536;1.5300;
1166.7000;0.6512;1.5276;
1167.0000;0.6520;1.5324;
1167.3000;0.6504;1.5348;
1167.6000;0.6512;1.5372;
1167.9000;0.6504;1.5348;
1168.2000;0.6504;1.5348;
1168.5000;0.6528;1.5421;
1168.8000;0.6512;1.5348;
1169.1000;0.6520;1.5469;
1169.4000;0.6536;1.5542;
1169.7000;0.6512;1.5421;
1170.0000;0.6520;1.5300;
1170.3000;0.6488;1.5227;
1170.6000;0.6520;1.5372;
1170.9000;0.6512;1.5372;
1171.2000;0.6528;1.5348;
1171.5000;0.6512;1.5348;
1171.8000;0.6528;1.5348;
1172.1000;0.6512;1.5348;
1172.4000;0.6504;1.5372;
1172.7000;0.6520;1.5469;
1173.0000;0.6512;1.5372;
1173.3000;0.6520;1.5372;
1173.6000;0.6512;1.5300;
1173.9000;0.6528;1.5300;
1174.2000;0.6520;1.5372;
1174.5000;0.6520;1.5396;
1174.8000;0.6512;1.5372;
1175.1000;0.6504;1.5324;
1175.4000;0.6512;1.5396;
1175.7000;0.6528;1.5445;
1176.0000;0.6512;1.5445;
1176.3000;0.6471;1.5421;
1176.6000;0.6520;1.5590;
1176.9000;0.6528;1.5590;
1177.2000;0.6504;1.5542;
1177.5000;0.6545;1.5590;
1177.8000;0.6512;1.5469;
1178.1000;0.6512;1.5493;
1178.4000;0.6512;1.5469;
1178.7000;0.6496;1.5445;
1179.0000;0.6512;1.5517;
1179.3000;0.6520;1.5566;
1179.6000;0.6528;1.5542;
1179.9000;0.6496;1.5542;
1180.2000;0.6520;1.5590;
1180.5000;0.6520;1.5566;
1180.8000;0.6528;1.5542;
1181.1000;0.6512;1.5517;
1181.4000;0.6520;1.5542;
1181.7000;0.6512;1.5445;
1182.0000;0.6561;1.5566;
1182.3000;0.6520;1.5493;
1182.6000;0.6504;1.5445;
1182.9000;0.6520;1.5493;
1183.2000;0.6520;1.5566;
1183.5000;0.6512;1.5517;
1183.8000;0.6488;1.5324;
1184.1000;0.6512;1.5276;
1184.4000;0.6520;1.5227;
1184.7000;0.6520;1.5300;
1185.0000;0.6520;1.5300;
1185.3000;0.6512;1.5445;
1185.6000;0.6520;1.5517;
1185.9000;0.6512;1.5493;
1186.2000;0.6520;1.5469;
1186.5000;0.6512;1.5493;
1186.8000;0.6512;1.5517;
1187.1000;0.6512;1.5517;
1187.4000;0.6520;1.5493;
1187.7000;0.6479;1.5372;
1188.0000;0.6520;1.5517;
1188.3000;0.6520;1.5469;
1188.6000;0.6512;1.5372;
1188.9000;0.6504;1.5372;
1189.2000;0.6496;1.5348;
1189.5000;0.6528;1.5348;
1189.8000;0.6512;1.5276;
1190.1000;0.6520;1.5324;
1190.4000;0.6479;1.5276;
1190.7000;0.6496;1.5372;
1191.0000;0.6504;1.5445;
1191.3000;0.6414;1.5227;
1191.6000;0.6496;1.5396;
1191.9000;0.6496;1.5396;
1192.2000;0.6504;1.5469;
1192.5000;0.6496;1.5493;
1192.8000;0.6504;1.5493;
1193.1000;0.6512;1.5493;
1193.4000;0.6488;1.5445;
1193.7000;0.6528;1.5517;
1194.0000;0.6512;1.5445;
1194.3000;0.6520;1.5324;
1194.6000;0.6504;1.5276;
1194.9000;0.6528;1.5300;
1195.2000;0.6528;1.5348;
1195.5000;0.6512;1.5324;
1195.8000;0.6528;1.5300;
1196.1000;0.6512;1.5324;
1196.4000;0.6496;1.5276;
1196.7000;0.6577;1.5396;
1197.0000;0.6512;1.5179;
1197.3000;0.6520;1.5300;
1197.6000;0.6504;1.5324;
1197.9000;0.6504;1.5324;
1198.2000;0.6520;1.5348;
1198.5000;0.6536;1.5396;
1198.8000;0.6520;1.5348;
1199.1000;0.6488;1.5348;
1199.4000;0.6471;1.5179;
1199.7000;0.6463;1.5203;
1200.0000;0.6479;1.5251;
1200.3000;0.6536;1.5324;
1200.6000;0.6512;1.5251;
1200.9000;0.6520;1.5300;
1201.2000;0.6528;1.5372;
1201.5000;0.6512;1.5324;
1201.8000;0.6520;1.5324;
1202.1000;0.6488;1.5276;
1202.4000;0.6520;1.5396;
1202.7000;0.6512;1.5421;
1203.0000;0.6528;1.5445;
1203.3000;0.6488;1.5421;
1203.6000;0.6545;1.5590;
1203.9000;0.6512;1.5469;
1204.2000;0.6496;1.5396;
1204.5000;0.6512;1.5469;
1204.8000;0.6504;1.5517;
1205.1000;0.6536;1.5493;
1205.4000;0.6520;1.5469;
1205.7000;0.6520;1.5445;
1206.0000;0.6512;1.5517;
1206.3000;0.6512;1.5542;
1206.6000;0.6528;1.5517;
1206.9000;0.6512;1.5493;
1207.2000;0.6496;1.5469;
1207.5000;0.6512;1.5517;
1207.8000;0.6504;1.5469;
1208.1000;0.6504;1.5396;
1208.4000;0.6496;1.5372;
1208.7000;0.6520;1.5445;
1209.0000;0.6512;1.5396;
1209.3000;0.6504;1.5348;
1209.6000;0.6504;1.5372;
1209.9000;0.6512;1.5421;
1210.2000;0.6520;1.5421;
1210.5000;0.6512;1.5421;
1210.8000;0.6488;1.5396;
1211.1000;0.6520;1.5517;
1211.4000;0.6512;1.5517;
1211.7000;0.6520;1.5421;
1212.0000;0.6520;1.5251;
1212.3000;0.6496;1.5203;
1212.6000;0.6512;1.5276;
1212.9000;0.6520;1.5227;
1213.2000;0.6512;1.5276;
1213.5000;0.6496;1.5203;
1213.8000;0.6496;1.5276;
1214.1000;0.6504;1.5348;
1214.4000;0.6504;1.5300;
1214.7000;0.6504;1.5276;
1215.0000;0.6496;1.5276;
1215.3000;0.6520;1.5469;
1215.6000;0.6496;1.5421;
1215.9000;0.6512;1.5421;
1216.2000;0.6545;1.5469;
1216.5000;0.6488;1.5372;
1216.8000;0.6488;1.5372;
1217.1000;0.6553;1.5517;
1217.4000;0.6496;1.5421;
1217.7000;0.6553;1.5590;
1218.0000;0.6488;1.5469;
1218.3000;0.6496;1.5445;
1218.6000;0.6512;1.5614;
1218.9000;0.6528;1.5614;
1219.2000;0.6471;1.5566;
1219.5000;0.6496;1.5687;
1219.8000;0.6504;1.5711;
1220.1000;0.6504;1.5711;
1220.4000;0.6512;1.5662;
1220.7000;0.6504;1.5662;
1221.0000;0.6455;1.5566;
1221.3000;0.6520;1.5638;
1221.6000;0.6528;1.5687;
1221.9000;0.6512;1.5687;
1222.2000;0.6561;1.5807;
1222.5000;0.6512;1.5711;
1222.8000;0.6496;1.5687;
1223.1000;0.6504;1.5687;
1223.4000;0.6488;1.5662;
1223.7000;0.6512;1.5711;
1224.0000;0.6496;1.5711;
1224.3000;0.6504;1.5687;
1224.6000;0.6455;1.5566;
1224.9000;0.6488;1.5590;
1225.2000;0.6479;1.5614;
1225.5000;0.6431;1.5493;
1225.8000;0.6504;1.5590;
1226.1000;0.6496;1.5517;
1226.4000;0.6520;1.5638;
1226.7000;0.6512;1.5687;
1227.0000;0.6496;1.5566;
1227.3000;0.6496;1.5469;
1227.6000;0.6561;1.5590;
1227.9000;0.6488;1.5324;
1228.2000;0.6504;1.5372;
1228.5000;0.6496;1.5445;
1228.8000;0.6488;1.5396;
1229.1000;0.6512;1.5421;
1229.4000;0.6520;1.5493;
1229.7000;0.6504;1.5493;
1230.0000;0.6520;1.5566;
1230.3000;0.6496;1.5566;
1230.6000;0.6512;1.5517;
1230.9000;0.6504;1.5590;
1231.2000;0.6528;1.5590;
1231.5000;0.6488;1.5517;
1231.8000;0.6479;1.5493;
1232.1000;0.6488;1.5542;
1232.4000;0.6496;1.5590;
1232.7000;0.6504;1.5542;
1233.0000;0.6488;1.5469;
1233.3000;0.6512;1.5396;
1233.6000;0.6512;1.5445;
1233.9000;0.6512;1.5493;
1234.2000;0.6520;1.5493;
1234.5000;0.6488;1.5469;
1234.8000;0.6496;1.5566;
1235.1000;0.6488;1.5542;
1235.4000;0.6488;1.5542;
1235.7000;0.6520;1.5542;
1236.0000;0.6512;1.5590;
1236.3000;0.6496;1.5542;
1236.6000;0.6479;1.5493;
1236.9000;0.6479;1.5493;
1237.2000;0.6479;1.5590;
1237.5000;0.6496;1.5735;
1237.8000;0.6479;1.5711;
1238.1000;0.6471;1.5783;
1238.4000;0.6488;1.5856;
1238.7000;0.6471;1.5807;
1239.0000;0.6488;1.5807;
1239.3000;0.6504;1.5880;
1239.6000;0.6479;1.5711;
1239.9000;0.6496;1.5759;
1240.2000;0.6431;1.5590;
1240.5000;0.6488;1.5687;
1240.8000;0.6496;1.5687;
1241.1000;0.6512;1.5735;
1241.4000;0.6406;1.5542;
1241.7000;0.6504;1.5735;
1242.0000;0.6520;1.5783;
1242.3000;0.6496;1.5711;
1242.6000;0.6504;1.5687;
1242.9000;0.6488;1.5735;
1243.2000;0.6479;1.5711;
1243.5000;0.6488;1.5807;
1243.8000;0.6504;1.5807;
1244.1000;0.6496;1.5735;
1244.4000;0.6488;1.5711;
1244.7000;0.6536;1.5783;
1245.0000;0.6488;1.5662;
1245.3000;0.6488;1.5711;
1245.6000;0.6520;1.5783;
1245.9000;0.6520;1.5856;
1246.2000;0.6504;1.5759;
1246.5000;0.6496;1.5807;
1246.8000;0.6496;1.5832;
1247.1000;0.6496;1.5783;
1247.4000;0.6496;1.5832;
1247.7000;0.6504;1.5856;
1248.0000;0.6488;1.5711;
1248.3000;0.6520;1.5687;
1248.6000;0.6504;1.5638;
1248.9000;0.6479;1.5687;
1249.2000;0.6471;1.5735;
1249.5000;0.6504;1.5759;
1249.8000;0.6471;1.5759;
1250.1000;0.6488;1.5638;
1250.4000;0.6479;1.5614;
1250.7000;0.6488;1.5687;
1251.0000;0.6488;1.5687;
1251.3000;0.6496;1.5614;
1251.6000;0.6496;1.5590;
1251.9000;0.6479;1.5638;
1252.2000;0.6504;1.5735;
1252.5000;0.6520;1.5687;
1252.8000;0.6488;1.5614;
1253.1000;0.6463;1.5566;
1253.4000;0.6488;1.5662;
1253.7000;0.6504;1.5735;
1254.0000;0.6496;1.5590;
1254.3000;0.6488;1.5542;
1254.6000;0.6528;1.5614;
1254.9000;0.6488;1.5566;
1255.2000;0.6471;1.5493;
1255.5000;0.6488;1.5542;
1255.8000;0.6504;1.5614;
1256.1000;0.6504;1.5638;
1256.4000;0.6496;1.5566;
1256.7000;0.6504;1.5542;
1257.0000;0.6512;1.5590;
1257.3000;0.6520;1.5687;
1257.6000;0.6520;1.5638;
1257.9000;0.6504;1.5542;
1258.2000;0.6496;1.5493;
1258.5000;0.6496;1.5542;
1258.8000;0.6496;1.5542;
1259.1000;0.6512;1.5542;
1259.4000;0.6536;1.5614;
1259.7000;0.6488;1.5517;
1260.0000;0.6496;1.5566;
1260.3000;0.6488;1.5590;
1260.6000;0.6479;1.5542;
1260.9000;0.6504;1.5566;
1261.2000;0.6488;1.5542;
1261.5000;0.6463;1.5493;
1261.8000;0.6488;1.5517;
1262.1000;0.6455;1.5445;
1262.4000;0.6512;1.5662;
1262.7000;0.6512;1.5590;
1263.0000;0.6504;1.5590;
1263.3000;0.6471;1.5517;
1263.6000;0.6496;1.5566;
1263.9000;0.6496;1.5517;
1264.2000;0.6496;1.5566;
1264.5000;0.6414;1.5421;
1264.8000;0.6488;1.5542;
1265.1000;0.6496;1.5493;
1265.4000;0.6479;1.5469;
1265.7000;0.6488;1.5493;
1266.0000;0.6512;1.5469;
1266.3000;0.6496;1.5445;
1266.6000;0.6455;1.5227;
1266.9000;0.6512;1.5396;
1267.2000;0.6512;1.5421;
1267.5000;0.6512;1.5493;
1267.8000;0.6520;1.5566;
1268.1000;0.6512;1.5542;
1268.4000;0.6512;1.5517;
1268.7000;0.6496;1.5469;
1269.0000;0.6496;1.5396;
1269.3000;0.6479;1.5348;
1269.6000;0.6488;1.5324;
1269.9000;0.6496;1.5421;
1270.2000;0.6504;1.5542;
1270.5000;0.6496;1.5517;
1270.8000;0.6504;1.5493;
1271.1000;0.6504;1.5421;
1271.4000;0.6504;1.5493;
1271.7000;0.6496;1.5493;
1272.0000;0.6504;1.5542;
1272.3000;0.6520;1.5566;
1272.6000;0.6496;1.5590;
1272.9000;0.6545;1.5614;
1273.2000;0.6512;1.5590;
1273.5000;0.6496;1.5590;
1273.8000;0.6528;1.5638;
1274.1000;0.6504;1.5590;
1274.4000;0.6463;1.5542;
1274.7000;0.6463;1.5590;
1275.0000;0.6488;1.5662;
1275.3000;0.6488;1.5662;
1275.6000;0.6455;1.5493;
1275.9000;0.6479;1.5614;
1276.2000;0.6504;1.5638;
1276.5000;0.6496;1.5638;
1276.8000;0.6447;1.5421;
1277.1000;0.6463;1.5421;
1277.4000;0.6488;1.5445;
1277.7000;0.6488;1.5566;
1278.0000;0.6520;1.5662;
1278.3000;0.6504;1.5687;
1278.6000;0.6488;1.5614;
1278.9000;0.6479;1.5638;
1279.2000;0.6496;1.5638;
1279.5000;0.6488;1.5638;
1279.8000;0.6471;1.5711;
1280.1000;0.6496;1.5735;
1280.4000;0.6512;1.5735;
1280.7000;0.6431;1.5517;
1281.0000;0.6488;1.5638;
1281.3000;0.6463;1.5493;
1281.6000;0.6479;1.5590;
1281.9000;0.6479;1.5687;
1282.2000;0.6479;1.5711;
1282.5000;0.6471;1.5783;
1282.8000;0.6479;1.5687;
1283.1000;0.6479;1.5687;
1283.4000;0.6488;1.5687;
1283.7000;0.6471;1.5662;
1284.0000;0.6496;1.5638;
1284.3000;0.6512;1.5638;
1284.6000;0.6463;1.5687;
1284.9000;0.6471;1.5711;
1285.2000;0.6471;1.5711;
1285.5000;0.6504;1.5711;
1285.8000;0.6479;1.5662;
1286.1000;0.6479;1.5662;
1286.4000;0.6463;1.5517;
1286.7000;0.6488;1.5517;
1287.0000;0.6479;1.5445;
1287.3000;0.6479;1.5469;
1287.6000;0.6488;1.5372;
1287.9000;0.6488;1.5421;
1288.2000;0.6471;1.5445;
1288.5000;0.6488;1.5517;
1288.8000;0.6488;1.5469;
1289.1000;0.6471;1.5396;
1289.4000;0.6488;1.5445;
1289.7000;0.6504;1.5542;
1290.0000;0.6479;1.5469;
1290.3000;0.6488;1.5542;
1290.6000;0.6496;1.5542;
1290.9000;0.6488;1.5517;
1291.2000;0.6488;1.5493;
1291.5000;0.6479;1.5445;
1291.8000;0.6504;1.5493;
1292.1000;0.6512;1.5517;
1292.4000;0.6479;1.5469;
1292.7000;0.6479;1.5445;
1293.0000;0.6593;1.5711;
1293.3000;0.6488;1.5542;
1293.6000;0.6496;1.5687;
1293.9000;0.6496;1.5638;
1294.2000;0.6488;1.5662;
1294.5000;0.6504;1.5662;
1294.8000;0.6488;1.5662;
1295.1000;0.6471;1.5638;
1295.4000;0.6471;1.5638;
1295.7000;0.6496;1.5662;
1296.0000;0.6488;1.5590;
1296.3000;0.6479;1.5638;
1296.6000;0.6488;1.5638;
1296.9000;0.6488;1.5687;
1297.2000;0.6504;1.5711;
1297.5000;0.6496;1.5590;
1297.8000;0.6447;1.5566;
1298.1000;0.6496;1.5687;
1298.4000;0.6504;1.5735;
1298.7000;0.6496;1.5687;
1299.0000;0.6463;1.5614;
1299.3000;0.6471;1.5590;
1299.6000;0.6496;1.5687;
1299.9000;0.6471;1.5662;
1300.2000;0.6496;1.5735;
1300.5000;0.6488;1.5735;
1300.8000;0.6455;1.5638;
1301.1000;0.6488;1.5711;
1301.4000;0.6479;1.5687;
1301.7000;0.6488;1.5711;
1302.0000;0.6545;1.5856;
1302.3000;0.6488;1.5711;
1302.6000;0.6496;1.5759;
1302.9000;0.6479;1.5711;
1303.2000;0.6512;1.5711;
1303.5000;0.6504;1.5687;
1303.8000;0.6479;1.5687;
1304.1000;0.6504;1.5735;
1304.4000;0.6496;1.5759;
1304.7000;0.6504;1.5856;
1305.0000;0.6504;1.5856;
1305.3000;0.6479;1.5759;
1305.6000;0.6488;1.5832;
1305.9000;0.6496;1.5880;
1306.2000;0.6488;1.5904;
1306.5000;0.6488;1.5928;
1306.8000;0.6488;1.5832;
1307.1000;0.6512;1.5856;
1307.4000;0.6488;1.5759;
1307.7000;0.6479;1.5735;
1308.0000;0.6479;1.5735;
1308.3000;0.6479;1.5711;
1308.6000;0.6488;1.5832;
1308.9000;0.6496;1.5783;
1309.2000;0.6479;1.5856;
1309.5000;0.6479;1.5856;
1309.8000;0.6496;1.5832;
1310.1000;0.6447;1.5711;
1310.4000;0.6479;1.5807;
1310.7000;0.6471;1.5759;
1311.0000;0.6479;1.5783;
1311.3000;0.6488;1.5807;
1311.6000;0.6479;1.5711;
1311.9000;0.6471;1.5662;
1312.2000;0.6463;1.5662;
1312.5000;0.6479;1.5638;
1312.8000;0.6488;1.5662;
1313.1000;0.6496;1.5662;
1313.4000;0.6431;1.5493;
1313.7000;0.6471;1.5662;
1314.0000;0.6488;1.5662;
1314.3000;0.6496;1.5759;
1314.6000;0.6471;1.5711;
1314.9000;0.6488;1.5759;
1315.2000;0.6479;1.5735;
1315.5000;0.6496;1.5759;
1315.8000;0.6463;1.5783;
1316.1000;0.6488;1.5783;
1316.4000;0.6471;1.5687;
1316.7000;0.6488;1.5711;
1317.0000;0.6504;1.5687;
1317.3000;0.6496;1.5735;
1317.6000;0.6488;1.5711;
1317.9000;0.6471;1.5711;
1318.2000;0.6488;1.5614;
1318.5000;0.6479;1.5590;
1318.8000;0.6488;1.5687;
1319.1000;0.6488;1.5711;
1319.4000;0.6471;1.5638;
1319.7000;0.6488;1.5662;
1320.0000;0.6479;1.5735;
1320.3000;0.6479;1.5687;
1320.6000;0.6488;1.5711;
1320.9000;0.6471;1.5711;
1321.2000;0.6488;1.5759;
1321.5000;0.6471;1.5735;
1321.8000;0.6488;1.5735;
1322.1000;0.6455;1.5711;
1322.4000;0.6471;1.5735;
1322.7000;0.6479;1.5662;
1323.0000;0.6479;1.5590;
1323.3000;0.6479;1.5493;
1323.6000;0.6488;1.5614;
1323.9000;0.6496;1.5662;
1324.2000;0.6479;1.5687;
1324.5000;0.6496;1.5711;
1324.8000;0.6488;1.5687;
1325.1000;0.6504;1.5711;
1325.4000;0.6496;1.5662;
1325.7000;0.6488;1.5662;
1326.0000;0.6479;1.5590;
1326.3000;0.6479;1.5614;
1326.6000;0.6479;1.5590;
1326.9000;0.6488;1.5662;
1327.2000;0.6488;1.5662;
1327.5000;0.6488;1.5662;
1327.8000;0.6479;1.5711;
1328.1000;0.6479;1.5662;
1328.4000;0.6488;1.5687;
1328.7000;0.6471;1.5711;
1329.0000;0.6496;1.5832;
1329.3000;0.6496;1.5807;
1329.6000;0.6479;1.5711;
1329.9000;0.6471;1.5711;
1330.2000;0.6504;1.5759;
1330.5000;0.6479;1.5735;
1330.8000;0.6479;1.5687;
1331.1000;0.6471;1.5687;
1331.4000;0.6479;1.5735;
1331.7000;0.6479;1.5735;
1332.0000;0.6479;1.5807;
1332.3000;0.6488;1.5807;
1332.6000;0.6471;1.5783;
1332.9000;0.6496;1.5759;
1333.2000;0.6536;1.5856;
1333.5000;0.6479;1.5662;
1333.8000;0.6488;1.5711;
1334.1000;0.6488;1.5662;
1334.4000;0.6488;1.5590;
1334.7000;0.6504;1.5614;
1335.0000;0.6471;1.5566;
1335.3000;0.6496;1.5614;
1335.6000;0.6471;1.5590;
1335.9000;0.6479;1.5566;
1336.2000;0.6479;1.5590;
1336.5000;0.6471;1.5590;
1336.8000;0.6471;1.5590;
1337.1000;0.6512;1.5614;
1337.4000;0.6479;1.5542;
1337.7000;0.6471;1.5590;
1338.0000;0.6488;1.5590;
1338.3000;0.6496;1.5614;
1338.6000;0.6479;1.5542;
1338.9000;0.6431;1.5469;
1339.2000;0.6496;1.5542;
1339.5000;0.6471;1.5493;
1339.8000;0.6463;1.5517;
1340.1000;0.6431;1.5396;
1340.4000;0.6479;1.5542;
1340.7000;0.6463;1.5614;
1341.0000;0.6471;1.5662;
1341.3000;0.6463;1.5638;
1341.6000;0.6488;1.5687;
1341.9000;0.6479;1.5614;
1342.2000;0.6471;1.5590;
1342.5000;0.6479;1.5662;
1342.8000;0.6471;1.5735;
1343.1000;0.6504;1.5783;
1343.4000;0.6479;1.5711;
1343.7000;0.6471;1.5711;
1344.0000;0.6488;1.5711;
1344.3000;0.6479;1.5735;
1344.6000;0.6471;1.5711;
1344.9000;0.6488;1.5735;
1345.2000;0.6488;1.5807;
1345.5000;0.6479;1.5711;
1345.8000;0.6471;1.5687;
1346.1000;0.6479;1.5662;
1346.4000;0.6488;1.5711;
1346.7000;0.6488;1.5687;
1347.0000;0.6479;1.5687;
1347.3000;0.6463;1.5517;
1347.6000;0.6471;1.5445;
1347.9000;0.6488;1.5566;
1348.2000;0.6479;1.5614;
1348.5000;0.6479;1.5614;
1348.8000;0.6471;1.5662;
1349.1000;0.6463;1.5662;
1349.4000;0.6488;1.5783;
1349.7000;0.6471;1.5759;
1350.0000;0.6471;1.5735;
1350.3000;0.6471;1.5759;
1350.6000;0.6479;1.5759;
1350.9000;0.6488;1.5735;
1351.2000;0.6488;1.5614;
1351.5000;0.6479;1.5614;
1351.8000;0.6479;1.5687;
1352.1000;0.6455;1.5638;
1352.4000;0.6471;1.5662;
1352.7000;0.6496;1.5711;
1353.0000;0.6479;1.5662;
1353.3000;0.6488;1.5711;
1353.6000;0.6479;1.5711;
1353.9000;0.6455;1.5662;
1354.2000;0.6488;1.5711;
1354.5000;0.6496;1.5735;
1354.8000;0.6504;1.5783;
1355.1000;0.6479;1.5783;
1355.4000;0.6471;1.5735;
1355.7000;0.6479;1.5759;
1356.0000;0.6488;1.5735;
1356.3000;0.6439;1.5759;
1356.6000;0.6496;1.5856;
1356.9000;0.6488;1.5856;
1357.2000;0.6496;1.5928;
1357.5000;0.6422;1.5662;
1357.8000;0.6471;1.5783;
1358.1000;0.6463;1.5783;
1358.4000;0.6471;1.5759;
1358.7000;0.6479;1.5807;
1359.0000;0.6463;1.5783;
1359.3000;0.6479;1.5832;
1359.6000;0.6471;1.5832;
1359.9000;0.6471;1.5735;
1360.2000;0.6471;1.5783;
1360.5000;0.6479;1.5783;
1360.8000;0.6479;1.5783;
1361.1000;0.6488;1.5783;
1361.4000;0.6463;1.5662;
1361.7000;0.6455;1.5687;
1362.0000;0.6471;1.5711;
1362.3000;0.6471;1.5638;
1362.6000;0.6471;1.5542;
1362.9000;0.6471;1.5566;
1363.2000;0.6496;1.5638;
1363.5000;0.6479;1.5662;
1363.8000;0.6463;1.5662;
1364.1000;0.6463;1.5662;
1364.4000;0.6471;1.5759;
1364.7000;0.6479;1.5807;
1365.0000;0.6504;1.5856;
1365.3000;0.6471;1.5856;
1365.6000;0.6479;1.5904;
1365.9000;0.6488;1.5807;
1366.2000;0.6479;1.5807;
1366.5000;0.6463;1.5735;
1366.8000;0.6455;1.5687;
1367.1000;0.6455;1.5662;
1367.4000;0.6463;1.5614;
1367.7000;0.6463;1.5638;
1368.0000;0.6463;1.5638;
1368.3000;0.6479;1.5687;
1368.6000;0.6488;1.5735;
1368.9000;0.6488;1.5783;
1369.2000;0.6471;1.5832;
1369.5000;0.6496;1.5807;
1369.8000;0.6520;1.5783;
1370.1000;0.6479;1.5638;
1370.4000;0.6455;1.5469;
1370.7000;0.6488;1.5421;
1371.0000;0.6455;1.5396;
1371.3000;0.6479;1.5493;
1371.6000;0.6479;1.5493;
1371.9000;0.6422;1.5421;
1372.2000;0.6488;1.5662;
1372.5000;0.6504;1.5735;
1372.8000;0.6479;1.5614;
1373.1000;0.6463;1.5687;
1373.4000;0.6471;1.5614;
1373.7000;0.6463;1.5542;
1374.0000;0.6479;1.5662;
1374.3000;0.6479;1.5662;
1374.6000;0.6463;1.5638;
1374.9000;0.6496;1.5711;
1375.2000;0.6439;1.5566;
1375.5000;0.6488;1.5807;
1375.8000;0.6512;1.5856;
1376.1000;0.6488;1.5735;
1376.4000;0.6479;1.5759;
1376.7000;0.6431;1.5662;
1377.0000;0.6496;1.5832;
1377.3000;0.6488;1.5759;
1377.6000;0.6447;1.5687;
1377.9000;0.6479;1.5735;
1378.2000;0.6479;1.5880;
1378.5000;0.6414;1.5711;
1378.8000;0.6431;1.5735;
1379.1000;0.6488;1.5807;
1379.4000;0.6471;1.5662;
1379.7000;0.6471;1.5590;
1380.0000;0.6455;1.5614;
1380.3000;0.6496;1.5735;
1380.6000;0.6471;1.5711;
1380.9000;0.6479;1.5687;
1381.2000;0.6479;1.5735;
1381.5000;0.6471;1.5662;
1381.8000;0.6479;1.5566;
1382.1000;0.6463;1.5542;
1382.4000;0.6520;1.5662;
1382.7000;0.6479;1.5590;
1383.0000;0.6479;1.5638;
1383.3000;0.6463;1.5687;
1383.6000;0.6545;1.5807;
1383.9000;0.6471;1.5662;
1384.2000;0.6471;1.5687;
1384.5000;0.6471;1.5638;
1384.8000;0.6439;1.5566;
1385.1000;0.6479;1.5711;
1385.4000;0.6463;1.5662;
1385.7000;0.6520;1.5735;
1386.0000;0.6455;1.5638;
1386.3000;0.6455;1.5614;
1386.6000;0.6463;1.5638;
1386.9000;0.6496;1.5687;
1387.2000;0.6488;1.5735;
1387.5000;0.6479;1.5735;
1387.8000;0.6471;1.5711;
1388.1000;0.6479;1.5735;
1388.4000;0.6471;1.5711;
1388.7000;0.6455;1.5687;
1389.0000;0.6479;1.5783;
1389.3000;0.6463;1.5735;
1389.6000;0.6455;1.5614;
1389.9000;0.6455;1.5590;
1390.2000;0.6479;1.5614;
1390.5000;0.6463;1.5590;
1390.8000;0.6471;1.5638;
1391.1000;0.6471;1.5662;
1391.4000;0.6471;1.5590;
1391.7000;0.6471;1.5517;
1392.0000;0.6471;1.5566;
1392.3000;0.6479;1.5493;
1392.6000;0.6479;1.5493;
1392.9000;0.6479;1.5542;
1393.2000;0.6455;1.5517;
1393.5000;0.6463;1.5542;
1393.8000;0.6479;1.5614;
1394.1000;0.6479;1.5614;
1394.4000;0.6488;1.5638;
1394.7000;0.6479;1.5614;
1395.0000;0.6439;1.5517;
1395.3000;0.6520;1.5662;
1395.6000;0.6471;1.5542;
1395.9000;0.6471;1.5590;
1396.2000;0.6471;1.5566;
1396.5000;0.6471;1.5566;
1396.8000;0.6479;1.5711;
1397.1000;0.6471;1.5735;
1397.4000;0.6479;1.5735;
1397.7000;0.6479;1.5735;
1398.0000;0.6479;1.5735;
1398.3000;0.6488;1.5735;
1398.6000;0.6471;1.5759;
1398.9000;0.6471;1.5783;
1399.2000;0.6471;1.5711;
1399.5000;0.6471;1.5735;
1399.8000;0.6479;1.5759;
