time/ms;Fluo/V;P700 deltaI/I x10³;
-199.8000;0.8783;1.7064;
-199.5000;0.8856;1.7233;
-199.2000;0.8783;1.7064;
-198.9000;0.8799;1.7016;
-198.6000;0.8799;1.6968;
-198.3000;0.8807;1.7040;
-198.0000;0.8807;1.7064;
-197.7000;0.8824;1.7088;
-197.4000;0.8807;1.7064;
-197.1000;0.8799;1.7088;
-196.8000;0.8799;1.7137;
-196.5000;0.8791;1.7137;
-196.2000;0.8799;1.7233;
-195.9000;0.8807;1.7233;
-195.6000;0.8791;1.7258;
-195.3000;0.8783;1.7258;
-195.0000;0.8799;1.7209;
-194.7000;0.8889;1.7427;
-194.4000;0.8783;1.7209;
-194.1000;0.8783;1.7137;
-193.8000;0.8840;1.7209;
-193.5000;0.8921;1.7403;
-193.2000;0.8799;1.7161;
-192.9000;0.8799;1.7161;
-192.6000;0.8824;1.7258;
-192.3000;0.8816;1.7233;
-192.0000;0.8807;1.7185;
-191.7000;0.8807;1.7113;
-191.4000;0.8799;1.7161;
-191.1000;0.8807;1.7088;
-190.8000;0.8824;1.7161;
-190.5000;0.8791;1.7161;
-190.2000;0.8799;1.7185;
-189.9000;0.8816;1.7161;
-189.6000;0.8767;1.7064;
-189.3000;0.8791;1.7161;
-189.0000;0.8791;1.7040;
-188.7000;0.8718;1.6774;
-188.4000;0.8824;1.7064;
-188.1000;0.8767;1.6968;
-187.8000;0.8799;1.7040;
-187.5000;0.8799;1.7113;
-187.2000;0.8791;1.7161;
-186.9000;0.8775;1.7161;
-186.6000;0.8783;1.7161;
-186.3000;0.8799;1.7282;
-186.0000;0.8799;1.7282;
-185.7000;0.8783;1.7306;
-185.4000;0.8775;1.7258;
-185.1000;0.8799;1.7354;
-184.8000;0.8759;1.7233;
-184.5000;0.8807;1.7354;
-184.2000;0.8799;1.7354;
-183.9000;0.8799;1.7354;
-183.6000;0.8775;1.7185;
-183.3000;0.8816;1.7233;
-183.0000;0.8816;1.7233;
-182.7000;0.8791;1.7185;
-182.4000;0.8832;1.7330;
-182.1000;0.8807;1.7378;
-181.8000;0.8799;1.7378;
-181.5000;0.8742;1.7161;
-181.2000;0.8791;1.7209;
-180.9000;0.8791;1.7258;
-180.6000;0.8807;1.7258;
-180.3000;0.8807;1.7258;
-180.0000;0.8799;1.7161;
-179.7000;0.8791;1.7161;
-179.4000;0.8791;1.7064;
-179.1000;0.8824;1.7088;
-178.8000;0.8783;1.6992;
-178.5000;0.8775;1.6943;
-178.2000;0.8783;1.7161;
-177.9000;0.8807;1.7233;
-177.6000;0.8799;1.7233;
-177.3000;0.8807;1.7209;
-177.0000;0.8775;1.7113;
-176.7000;0.8759;1.7040;
-176.4000;0.8783;1.7161;
-176.1000;0.8807;1.7185;
-175.8000;0.8791;1.7040;
-175.5000;0.8791;1.7088;
-175.2000;0.8783;1.7064;
-174.9000;0.8824;1.7209;
-174.6000;0.8775;1.7209;
-174.3000;0.8726;1.7161;
-174.0000;0.8832;1.7330;
-173.7000;0.8807;1.7330;
-173.4000;0.8807;1.7354;
-173.1000;0.8824;1.7282;
-172.8000;0.8832;1.7330;
-172.5000;0.8799;1.7209;
-172.2000;0.8791;1.7258;
-171.9000;0.8791;1.7306;
-171.6000;0.8791;1.7282;
-171.3000;0.8791;1.7233;
-171.0000;0.8791;1.7258;
-170.7000;0.8807;1.7209;
-170.4000;0.8864;1.7378;
-170.1000;0.8799;1.7185;
-169.8000;0.8799;1.7354;
-169.5000;0.8775;1.7403;
-169.2000;0.8807;1.7451;
-168.9000;0.8783;1.7427;
-168.6000;0.8824;1.7523;
-168.3000;0.8767;1.7306;
-168.0000;0.8807;1.7354;
-167.7000;0.8791;1.7354;
-167.4000;0.8807;1.7403;
-167.1000;0.8791;1.7354;
-166.8000;0.8799;1.7403;
-166.5000;0.8816;1.7475;
-166.2000;0.8807;1.7451;
-165.9000;0.8791;1.7330;
-165.6000;0.8816;1.7378;
-165.3000;0.8799;1.7354;
-165.0000;0.8807;1.7354;
-164.7000;0.8783;1.7258;
-164.4000;0.8807;1.7354;
-164.1000;0.8856;1.7451;
-163.8000;0.8799;1.7209;
-163.5000;0.8807;1.7209;
-163.2000;0.8783;1.7088;
-162.9000;0.8799;1.7161;
-162.6000;0.8799;1.7258;
-162.3000;0.8783;1.7258;
-162.0000;0.8791;1.7354;
-161.7000;0.8799;1.7427;
-161.4000;0.8791;1.7475;
-161.1000;0.8791;1.7475;
-160.8000;0.8783;1.7403;
-160.5000;0.8783;1.7427;
-160.2000;0.8799;1.7451;
-159.9000;0.8799;1.7354;
-159.6000;0.8783;1.7354;
-159.3000;0.8751;1.7330;
-159.0000;0.8807;1.7451;
-158.7000;0.8759;1.7306;
-158.4000;0.8791;1.7378;
-158.1000;0.8791;1.7403;
-157.8000;0.8799;1.7403;
-157.5000;0.8791;1.7427;
-157.2000;0.8783;1.7475;
-156.9000;0.8783;1.7499;
-156.6000;0.8783;1.7427;
-156.3000;0.8783;1.7378;
-156.0000;0.8807;1.7378;
-155.7000;0.8897;1.7572;
-155.4000;0.8824;1.7403;
-155.1000;0.8799;1.7330;
-154.8000;0.8791;1.7330;
-154.5000;0.8783;1.7354;
-154.2000;0.8824;1.7354;
-153.9000;0.8799;1.7330;
-153.6000;0.8775;1.7330;
-153.3000;0.8799;1.7330;
-153.0000;0.8824;1.7282;
-152.7000;0.8791;1.7258;
-152.4000;0.8775;1.7161;
-152.1000;0.8783;1.7113;
-151.8000;0.8791;1.7088;
-151.5000;0.8775;1.7088;
-151.2000;0.8783;1.7161;
-150.9000;0.8767;1.7185;
-150.6000;0.8799;1.7161;
-150.3000;0.8791;1.7185;
-150.0000;0.8791;1.7161;
-149.7000;0.8775;1.7161;
-149.4000;0.8759;1.7137;
-149.1000;0.8783;1.7161;
-148.8000;0.8775;1.7113;
-148.5000;0.8791;1.7137;
-148.2000;0.8791;1.7113;
-147.9000;0.8783;1.7137;
-147.6000;0.8807;1.7233;
-147.3000;0.8799;1.7209;
-147.0000;0.8799;1.7161;
-146.7000;0.8799;1.7233;
-146.4000;0.8799;1.7233;
-146.1000;0.8799;1.7282;
-145.8000;0.8775;1.7233;
-145.5000;0.8783;1.7306;
-145.2000;0.8807;1.7354;
-144.9000;0.8799;1.7354;
-144.6000;0.8791;1.7330;
-144.3000;0.8791;1.7306;
-144.0000;0.8799;1.7258;
-143.7000;0.8791;1.7330;
-143.4000;0.8807;1.7354;
-143.1000;0.8824;1.7403;
-142.8000;0.8807;1.7451;
-142.5000;0.8799;1.7330;
-142.2000;0.8791;1.7306;
-141.9000;0.8791;1.7209;
-141.6000;0.8783;1.7282;
-141.3000;0.8767;1.7258;
-141.0000;0.8799;1.7306;
-140.7000;0.8816;1.7258;
-140.4000;0.8799;1.7306;
-140.1000;0.8807;1.7354;
-139.8000;0.8783;1.7282;
-139.5000;0.8791;1.7330;
-139.2000;0.8799;1.7209;
-138.9000;0.8807;1.7233;
-138.6000;0.8799;1.7258;
-138.3000;0.8807;1.7161;
-138.0000;0.8799;1.7161;
-137.7000;0.8799;1.7064;
-137.4000;0.8799;1.7113;
-137.1000;0.8759;1.6968;
-136.8000;0.8775;1.7064;
-136.5000;0.8791;1.7040;
-136.2000;0.8807;1.6992;
-135.9000;0.8791;1.6919;
-135.6000;0.8783;1.6943;
-135.3000;0.8791;1.7016;
-135.0000;0.8783;1.6919;
-134.7000;0.8791;1.6992;
-134.4000;0.8791;1.6968;
-134.1000;0.8791;1.7016;
-133.8000;0.8791;1.7064;
-133.5000;0.8799;1.7161;
-133.2000;0.8799;1.7088;
-132.9000;0.8791;1.7088;
-132.6000;0.8791;1.7064;
-132.3000;0.8807;1.7137;
-132.0000;0.8799;1.7113;
-131.7000;0.8791;1.7137;
-131.4000;0.8799;1.7233;
-131.1000;0.8832;1.7306;
-130.8000;0.8799;1.7282;
-130.5000;0.8791;1.7233;
-130.2000;0.8799;1.7209;
-129.9000;0.8791;1.7185;
-129.6000;0.8799;1.7185;
-129.3000;0.8783;1.7064;
-129.0000;0.8783;1.7064;
-128.7000;0.8791;1.7161;
-128.4000;0.8775;1.7088;
-128.1000;0.8775;1.7088;
-127.8000;0.8799;1.7161;
-127.5000;0.8791;1.7209;
-127.2000;0.8824;1.7282;
-126.9000;0.8799;1.7209;
-126.6000;0.8783;1.7185;
-126.3000;0.8742;1.7064;
-126.0000;0.8791;1.7185;
-125.7000;0.8783;1.7137;
-125.4000;0.8783;1.7113;
-125.1000;0.8775;1.7137;
-124.8000;0.8799;1.7209;
-124.5000;0.8873;1.7403;
-124.2000;0.8799;1.7233;
-123.9000;0.8775;1.7161;
-123.6000;0.8832;1.7258;
-123.3000;0.8799;1.7161;
-123.0000;0.8791;1.7209;
-122.7000;0.8791;1.7185;
-122.4000;0.8816;1.7282;
-122.1000;0.8807;1.7258;
-121.8000;0.8807;1.7185;
-121.5000;0.8783;1.7137;
-121.2000;0.8775;1.7137;
-120.9000;0.8799;1.7233;
-120.6000;0.8791;1.7209;
-120.3000;0.8791;1.7209;
-120.0000;0.8783;1.7161;
-119.7000;0.8791;1.7088;
-119.4000;0.8783;1.7040;
-119.1000;0.8783;1.7064;
-118.8000;0.8799;1.7064;
-118.5000;0.8767;1.6943;
-118.2000;0.8807;1.7064;
-117.9000;0.8791;1.7040;
-117.6000;0.8783;1.7064;
-117.3000;0.8783;1.7088;
-117.0000;0.8807;1.7233;
-116.7000;0.8816;1.7258;
-116.4000;0.8775;1.7161;
-116.1000;0.8791;1.7233;
-115.8000;0.8759;1.7064;
-115.5000;0.8799;1.7137;
-115.2000;0.8775;1.7113;
-114.9000;0.8783;1.7185;
-114.6000;0.8799;1.7113;
-114.3000;0.8791;1.7113;
-114.0000;0.8799;1.7161;
-113.7000;0.8799;1.7088;
-113.4000;0.8791;1.7161;
-113.1000;0.8799;1.7209;
-112.8000;0.8791;1.7185;
-112.5000;0.8799;1.7233;
-112.2000;0.8807;1.7209;
-111.9000;0.8791;1.7233;
-111.6000;0.8783;1.7161;
-111.3000;0.8791;1.7185;
-111.0000;0.8799;1.7161;
-110.7000;0.8783;1.7137;
-110.4000;0.8783;1.7088;
-110.1000;0.8775;1.7040;
-109.8000;0.8767;1.7016;
-109.5000;0.8783;1.7016;
-109.2000;0.8791;1.7016;
-108.9000;0.8799;1.6968;
-108.6000;0.8783;1.6895;
-108.3000;0.8799;1.6847;
-108.0000;0.8864;1.7113;
-107.7000;0.8751;1.6943;
-107.4000;0.8775;1.6968;
-107.1000;0.8759;1.6968;
-106.8000;0.8791;1.7088;
-106.5000;0.8807;1.7016;
-106.2000;0.8759;1.6943;
-105.9000;0.8816;1.7040;
-105.6000;0.8816;1.7016;
-105.3000;0.8816;1.6943;
-105.0000;0.8799;1.6919;
-104.7000;0.8799;1.6919;
-104.4000;0.8807;1.6968;
-104.1000;0.8799;1.6943;
-103.8000;0.8791;1.6847;
-103.5000;0.8791;1.6823;
-103.2000;0.8791;1.6919;
-102.9000;0.8759;1.6968;
-102.6000;0.8840;1.7258;
-102.3000;0.8783;1.7137;
-102.0000;0.8799;1.7040;
-101.7000;0.8807;1.6943;
-101.4000;0.8905;1.7161;
-101.1000;0.8783;1.7040;
-100.8000;0.8791;1.7064;
-100.5000;0.8799;1.7113;
-100.2000;0.8783;1.7088;
-99.9000;0.8807;1.7064;
-99.6000;0.8775;1.6968;
-99.3000;0.8791;1.7040;
-99.0000;0.8783;1.7040;
-98.7000;0.8799;1.7040;
-98.4000;0.8791;1.7040;
-98.1000;0.8791;1.7161;
-97.8000;0.8832;1.7233;
-97.5000;0.8816;1.7161;
-97.2000;0.8791;1.7113;
-96.9000;0.8807;1.7185;
-96.6000;0.8791;1.7258;
-96.3000;0.8799;1.7378;
-96.0000;0.8799;1.7403;
-95.7000;0.8791;1.7330;
-95.4000;0.8816;1.7378;
-95.1000;0.8816;1.7378;
-94.8000;0.8856;1.7427;
-94.5000;0.8783;1.7282;
-94.2000;0.8799;1.7282;
-93.9000;0.8791;1.7258;
-93.6000;0.8791;1.7282;
-93.3000;0.8783;1.7209;
-93.0000;0.8791;1.7113;
-92.7000;0.8807;1.7137;
-92.4000;0.8807;1.7113;
-92.1000;0.8799;1.7161;
-91.8000;0.8791;1.7137;
-91.5000;0.8799;1.7137;
-91.2000;0.8791;1.7113;
-90.9000;0.8799;1.7113;
-90.6000;0.8791;1.7161;
-90.3000;0.8791;1.7113;
-90.0000;0.8783;1.7137;
-89.7000;0.8783;1.7137;
-89.4000;0.8799;1.7209;
-89.1000;0.8791;1.7161;
-88.8000;0.8816;1.7258;
-88.5000;0.8791;1.7185;
-88.2000;0.8775;1.7161;
-87.9000;0.8791;1.7209;
-87.6000;0.8807;1.7137;
-87.3000;0.8783;1.7064;
-87.0000;0.8775;1.7113;
-86.7000;0.8799;1.7161;
-86.4000;0.8791;1.7185;
-86.1000;0.8791;1.7209;
-85.8000;0.8816;1.7185;
-85.5000;0.8807;1.7088;
-85.2000;0.8759;1.7040;
-84.9000;0.8799;1.7088;
-84.6000;0.8799;1.7137;
-84.3000;0.8791;1.7088;
-84.0000;0.8799;1.7113;
-83.7000;0.8791;1.7137;
-83.4000;0.8791;1.7113;
-83.1000;0.8807;1.7161;
-82.8000;0.8791;1.7137;
-82.5000;0.8791;1.7161;
-82.2000;0.8791;1.7088;
-81.9000;0.8799;1.7137;
-81.6000;0.8791;1.7040;
-81.3000;0.8799;1.7016;
-81.0000;0.8807;1.6968;
-80.7000;0.8791;1.6943;
-80.4000;0.8775;1.6895;
-80.1000;0.8791;1.7064;
-79.8000;0.8799;1.7113;
-79.5000;0.8791;1.7113;
-79.2000;0.8775;1.7064;
-78.9000;0.8807;1.7016;
-78.6000;0.8807;1.7064;
-78.3000;0.8848;1.7161;
-78.0000;0.8791;1.7016;
-77.7000;0.8783;1.7040;
-77.4000;0.8799;1.7064;
-77.1000;0.8807;1.7064;
-76.8000;0.8783;1.7113;
-76.5000;0.8791;1.7137;
-76.2000;0.8799;1.7161;
-75.9000;0.8807;1.7185;
-75.6000;0.8799;1.7209;
-75.3000;0.8799;1.7306;
-75.0000;0.8791;1.7378;
-74.7000;0.8807;1.7378;
-74.4000;0.8816;1.7330;
-74.1000;0.8799;1.7209;
-73.8000;0.8799;1.7209;
-73.5000;0.8783;1.7209;
-73.2000;0.8807;1.7113;
-72.9000;0.8751;1.6968;
-72.6000;0.8767;1.6992;
-72.3000;0.8783;1.6992;
-72.0000;0.8775;1.6943;
-71.7000;0.8775;1.6968;
-71.4000;0.8783;1.6919;
-71.1000;0.8799;1.7088;
-70.8000;0.8799;1.7064;
-70.5000;0.8783;1.6992;
-70.2000;0.8799;1.7040;
-69.9000;0.8791;1.7040;
-69.6000;0.8791;1.7064;
-69.3000;0.8791;1.7185;
-69.0000;0.8799;1.7209;
-68.7000;0.8791;1.7137;
-68.4000;0.8799;1.7161;
-68.1000;0.8807;1.7233;
-67.8000;0.8783;1.7088;
-67.5000;0.8807;1.7185;
-67.2000;0.8799;1.7258;
-66.9000;0.8791;1.7185;
-66.6000;0.8799;1.7161;
-66.3000;0.8791;1.7016;
-66.0000;0.8799;1.7064;
-65.7000;0.8807;1.7064;
-65.4000;0.8807;1.7016;
-65.1000;0.8799;1.7016;
-64.8000;0.8791;1.7040;
-64.5000;0.8807;1.7016;
-64.2000;0.8799;1.6895;
-63.9000;0.8807;1.6968;
-63.6000;0.8799;1.6968;
-63.3000;0.8799;1.7040;
-63.0000;0.8799;1.7064;
-62.7000;0.8816;1.7016;
-62.4000;0.8799;1.7016;
-62.1000;0.8791;1.6943;
-61.8000;0.8767;1.6871;
-61.5000;0.8791;1.6943;
-61.2000;0.8816;1.6943;
-60.9000;0.8807;1.6943;
-60.6000;0.8791;1.6847;
-60.3000;0.8799;1.6871;
-60.0000;0.8799;1.6774;
-59.7000;0.8832;1.6943;
-59.4000;0.8816;1.6943;
-59.1000;0.8791;1.7040;
-58.8000;0.8791;1.7040;
-58.5000;0.8799;1.7040;
-58.2000;0.8799;1.7137;
-57.9000;0.8791;1.7064;
-57.6000;0.8791;1.7016;
-57.3000;0.8791;1.6943;
-57.0000;0.8807;1.6968;
-56.7000;0.8775;1.7040;
-56.4000;0.8799;1.7016;
-56.1000;0.8799;1.7064;
-55.8000;0.8816;1.7088;
-55.5000;0.8807;1.7088;
-55.2000;0.8816;1.7137;
-54.9000;0.8807;1.7137;
-54.6000;0.8799;1.7161;
-54.3000;0.8807;1.7088;
-54.0000;0.8799;1.6992;
-53.7000;0.8799;1.7016;
-53.4000;0.8791;1.6919;
-53.1000;0.8799;1.6992;
-52.8000;0.8799;1.7016;
-52.5000;0.8791;1.7064;
-52.2000;0.8807;1.7113;
-51.9000;0.8824;1.7233;
-51.6000;0.8799;1.7185;
-51.3000;0.8799;1.7113;
-51.0000;0.8816;1.7088;
-50.7000;0.8840;1.7209;
-50.4000;0.8840;1.7233;
-50.1000;0.8824;1.7185;
-49.8000;0.8864;1.7330;
-49.5000;0.8864;1.7403;
-49.2000;0.8807;1.7209;
-48.9000;0.8799;1.7209;
-48.6000;0.8799;1.7258;
-48.3000;0.8824;1.7330;
-48.0000;0.8791;1.7282;
-47.7000;0.8881;1.7596;
-47.4000;0.8775;1.7330;
-47.1000;0.8791;1.7378;
-46.8000;0.8791;1.7451;
-46.5000;0.8791;1.7451;
-46.2000;0.8791;1.7330;
-45.9000;0.8775;1.7306;
-45.6000;0.8832;1.7354;
-45.3000;0.8791;1.7354;
-45.0000;0.8807;1.7330;
-44.7000;0.8775;1.7161;
-44.4000;0.8799;1.7161;
-44.1000;0.8807;1.7185;
-43.8000;0.8791;1.7185;
-43.5000;0.8791;1.7137;
-43.2000;0.8799;1.7233;
-42.9000;0.8767;1.7161;
-42.6000;0.8807;1.7233;
-42.3000;0.8799;1.7282;
-42.0000;0.8791;1.7185;
-41.7000;0.8799;1.7161;
-41.4000;0.8799;1.7161;
-41.1000;0.8791;1.7137;
-40.8000;0.8791;1.7137;
-40.5000;0.8751;1.7040;
-40.2000;0.8751;1.7113;
-39.9000;0.8767;1.7185;
-39.6000;0.8791;1.7282;
-39.3000;0.8799;1.7330;
-39.0000;0.8775;1.7258;
-38.7000;0.8799;1.7258;
-38.4000;0.8799;1.7282;
-38.1000;0.8799;1.7209;
-37.8000;0.8816;1.7233;
-37.5000;0.8799;1.7185;
-37.2000;0.8783;1.7258;
-36.9000;0.8807;1.7209;
-36.6000;0.8807;1.7161;
-36.3000;0.8799;1.7113;
-36.0000;0.8783;1.7137;
-35.7000;0.8783;1.7137;
-35.4000;0.8775;1.7137;
-35.1000;0.8783;1.7161;
-34.8000;0.8791;1.7185;
-34.5000;0.8783;1.7088;
-34.2000;0.8783;1.7137;
-33.9000;0.8759;1.7113;
-33.6000;0.8791;1.7185;
-33.3000;0.8824;1.7185;
-33.0000;0.8799;1.7185;
-32.7000;0.8783;1.7137;
-32.4000;0.8864;1.7403;
-32.1000;0.8775;1.7209;
-31.8000;0.8783;1.7258;
-31.5000;0.8791;1.7282;
-31.2000;0.8775;1.7233;
-30.9000;0.8759;1.7233;
-30.6000;0.8775;1.7258;
-30.3000;0.8783;1.7185;
-30.0000;0.8775;1.7209;
-29.7000;0.8791;1.7233;
-29.4000;0.8791;1.7282;
-29.1000;0.8791;1.7233;
-28.8000;0.8807;1.7258;
-28.5000;0.8816;1.7282;
-28.2000;0.8791;1.7185;
-27.9000;0.8791;1.7233;
-27.6000;0.8783;1.7161;
-27.3000;0.8791;1.7161;
-27.0000;0.8783;1.7113;
-26.7000;0.8799;1.7209;
-26.4000;0.8807;1.7258;
-26.1000;0.8791;1.7209;
-25.8000;0.8799;1.7282;
-25.5000;0.8783;1.7282;
-25.2000;0.8783;1.7185;
-24.9000;0.8791;1.7185;
-24.6000;0.8791;1.7185;
-24.3000;0.8742;1.7016;
-24.0000;0.8791;1.7137;
-23.7000;0.8799;1.7209;
-23.4000;0.8799;1.7233;
-23.1000;0.8783;1.7161;
-22.8000;0.8799;1.7185;
-22.5000;0.8783;1.7161;
-22.2000;0.8791;1.7185;
-21.9000;0.8816;1.7258;
-21.6000;0.8799;1.7233;
-21.3000;0.8799;1.7113;
-21.0000;0.8799;1.7064;
-20.7000;0.8791;1.7064;
-20.4000;0.8799;1.7161;
-20.1000;0.8824;1.7258;
-19.8000;0.8767;1.7088;
-19.5000;0.8807;1.7185;
-19.2000;0.8799;1.7161;
-18.9000;0.8799;1.7161;
-18.6000;0.8816;1.7137;
-18.3000;0.8816;1.7113;
-18.0000;0.8816;1.7016;
-17.7000;0.8807;1.7064;
-17.4000;0.8799;1.7016;
-17.1000;0.8799;1.6968;
-16.8000;0.8791;1.6895;
-16.5000;0.8783;1.6798;
-16.2000;0.8791;1.6750;
-15.9000;0.8913;1.7040;
-15.6000;0.8799;1.6823;
-15.3000;0.8791;1.6823;
-15.0000;0.8791;1.6847;
-14.7000;0.8791;1.6871;
-14.4000;0.8783;1.6823;
-14.1000;0.8791;1.6847;
-13.8000;0.8799;1.6919;
-13.5000;0.8783;1.6895;
-13.2000;0.8783;1.6823;
-12.9000;0.8783;1.6823;
-12.6000;0.8767;1.6847;
-12.3000;0.8799;1.6968;
-12.0000;0.8816;1.6992;
-11.7000;0.8791;1.7016;
-11.4000;0.8775;1.6968;
-11.1000;0.8783;1.7064;
-10.8000;0.8783;1.7113;
-10.5000;0.8783;1.7040;
-10.2000;0.8799;1.7064;
-9.9000;0.8791;1.7040;
-9.6000;0.8799;1.7088;
-9.3000;0.8783;1.7064;
-9.0000;0.8783;1.7016;
-8.7000;0.8783;1.6968;
-8.4000;0.8759;1.6992;
-8.1000;0.8791;1.7088;
-7.8000;0.8791;1.7113;
-7.5000;0.8767;1.7016;
-7.2000;0.8799;1.7161;
-6.9000;0.8751;1.7064;
-6.6000;0.8783;1.7113;
-6.3000;0.8791;1.7088;
-6.0000;0.8799;1.7137;
-5.7000;0.8799;1.7113;
-5.4000;0.8799;1.7113;
-5.1000;0.8767;1.6968;
-4.8000;0.8791;1.7040;
-4.5000;0.8799;1.7137;
-4.2000;0.8799;1.7064;
-3.9000;0.8791;1.6992;
-3.6000;0.8807;1.7040;
-3.3000;0.8807;1.6992;
-3.0000;0.8816;1.7016;
-2.7000;0.8767;1.6992;
-2.4000;0.8783;1.7137;
-2.1000;0.8791;1.7209;
-1.8000;0.8783;1.7113;
-1.5000;0.8791;1.7113;
-1.2000;0.8775;1.7113;
-0.9000;0.8783;1.7064;
-0.6000;0.8816;1.7064;
-0.3000;0.8816;1.7040;
0.0000;0.8816;1.7040;
0.3000;0.9027;1.6919;
0.6000;0.9483;1.7669;
0.9000;0.9817;1.8152;
1.2000;1.0069;1.8587;
1.5000;1.0281;1.9022;
1.8000;1.0444;1.9360;
2.1000;1.0582;1.9650;
2.4000;1.0696;1.9892;
2.7000;1.0777;2.0086;
3.0000;1.0859;2.0255;
3.3000;1.0940;2.0424;
3.6000;1.0981;2.0472;
3.9000;1.1054;2.0545;
4.2000;1.1095;2.0617;
4.5000;1.1136;2.0593;
4.8000;1.1176;2.0569;
5.1000;1.1209;2.0593;
5.4000;1.1249;2.0714;
5.7000;1.1290;2.0811;
6.0000;1.1372;2.0980;
6.3000;1.1298;2.0690;
6.6000;1.1396;2.0811;
6.9000;1.1445;2.0859;
7.2000;1.1469;2.0859;
7.5000;1.1486;2.0811;
7.8000;1.1534;2.0883;
8.1000;1.1567;2.0956;
8.4000;1.1600;2.0859;
8.7000;1.1600;2.0786;
9.0000;1.1624;2.0907;
9.3000;1.1665;2.1004;
9.6000;1.1673;2.1004;
9.9000;1.1673;2.0859;
10.2000;1.1705;2.0835;
10.5000;1.1738;2.0907;
10.8000;1.1787;2.0980;
11.1000;1.1787;2.0883;
11.4000;1.1803;2.0811;
11.7000;1.1844;2.0786;
12.0000;1.1852;2.0738;
12.3000;1.1893;2.0762;
12.6000;1.1893;2.0883;
12.9000;1.1901;2.0883;
13.2000;1.1925;2.0859;
13.5000;1.1982;2.0835;
13.8000;1.1950;2.0762;
14.1000;1.1974;2.0762;
14.4000;1.1998;2.0762;
14.7000;1.2007;2.0786;
15.0000;1.2015;2.0786;
15.3000;1.2031;2.0786;
15.6000;1.2055;2.0811;
15.9000;1.2080;2.0859;
16.2000;1.2088;2.0786;
16.5000;1.2088;2.0714;
16.8000;1.2096;2.0690;
17.1000;1.2112;2.0714;
17.4000;1.2112;2.0714;
17.7000;1.2145;2.0690;
18.0000;1.2145;2.0641;
18.3000;1.2169;2.0666;
18.6000;1.2177;2.0738;
18.9000;1.2194;2.0714;
19.2000;1.2177;2.0738;
19.5000;1.2194;2.0738;
19.8000;1.2210;2.0762;
20.1000;1.2210;2.0762;
20.4000;1.2234;2.0835;
20.7000;1.2226;2.0835;
21.0000;1.2218;2.0883;
21.3000;1.2291;2.0956;
21.6000;1.2259;2.0835;
21.9000;1.2267;2.0835;
22.2000;1.2300;2.0883;
22.5000;1.2275;2.0786;
22.8000;1.2308;2.0835;
23.1000;1.2308;2.0907;
23.4000;1.2308;2.0907;
23.7000;1.2324;2.0931;
24.0000;1.2316;2.0859;
24.3000;1.2340;2.0907;
24.6000;1.2332;2.0859;
24.9000;1.2357;2.0859;
25.2000;1.2357;2.0859;
25.5000;1.2357;2.0859;
25.8000;1.2348;2.0811;
26.1000;1.2381;2.0811;
26.4000;1.2365;2.0835;
26.7000;1.2365;2.0859;
27.0000;1.2373;2.0859;
27.3000;1.2373;2.0907;
27.6000;1.2381;2.0907;
27.9000;1.2389;2.0883;
28.2000;1.2389;2.0907;
28.5000;1.2397;2.0931;
28.8000;1.2405;2.0931;
29.1000;1.2405;2.0907;
29.4000;1.2389;2.0835;
29.7000;1.2405;2.0883;
30.0000;1.2405;2.0811;
30.3000;1.2389;2.0690;
30.6000;1.2438;2.0786;
30.9000;1.2430;2.0786;
31.2000;1.2438;2.0859;
31.5000;1.2446;2.0786;
31.8000;1.2462;2.0738;
32.1000;1.2454;2.0714;
32.4000;1.2479;2.0762;
32.7000;1.2470;2.0762;
33.0000;1.2462;2.0762;
33.3000;1.2454;2.0714;
33.6000;1.2479;2.0762;
33.9000;1.2470;2.0811;
34.2000;1.2462;2.0762;
34.5000;1.2462;2.0762;
34.8000;1.2470;2.0714;
35.1000;1.2454;2.0714;
35.4000;1.2479;2.0762;
35.7000;1.2487;2.0762;
36.0000;1.2462;2.0641;
36.3000;1.2503;2.0641;
36.6000;1.2503;2.0666;
36.9000;1.2503;2.0714;
37.2000;1.2495;2.0666;
37.5000;1.2519;2.0786;
37.8000;1.2519;2.0786;
38.1000;1.2552;2.0859;
38.4000;1.2495;2.0641;
38.7000;1.2536;2.0690;
39.0000;1.2519;2.0666;
39.3000;1.2560;2.0738;
39.6000;1.2511;2.0521;
39.9000;1.2503;2.0496;
40.2000;1.2519;2.0545;
40.5000;1.2470;2.0400;
40.8000;1.2511;2.0496;
41.1000;1.2511;2.0472;
41.4000;1.2519;2.0472;
41.7000;1.2511;2.0472;
42.0000;1.2527;2.0496;
42.3000;1.2536;2.0593;
42.6000;1.2511;2.0545;
42.9000;1.2536;2.0617;
43.2000;1.2519;2.0641;
43.5000;1.2519;2.0641;
43.8000;1.2536;2.0617;
44.1000;1.2576;2.0714;
44.4000;1.2552;2.0593;
44.7000;1.2552;2.0545;
45.0000;1.2560;2.0521;
45.3000;1.2625;2.0666;
45.6000;1.2552;2.0472;
45.9000;1.2560;2.0496;
46.2000;1.2560;2.0376;
46.5000;1.2568;2.0400;
46.8000;1.2568;2.0521;
47.1000;1.2560;2.0400;
47.4000;1.2560;2.0400;
47.7000;1.2576;2.0400;
48.0000;1.2560;2.0327;
48.3000;1.2519;2.0279;
48.6000;1.2560;2.0351;
48.9000;1.2601;2.0448;
49.2000;1.2560;2.0376;
49.5000;1.2560;2.0424;
49.8000;1.2536;2.0521;
50.1000;1.2544;2.0545;
50.4000;1.2568;2.0545;
50.7000;1.2576;2.0593;
51.0000;1.2560;2.0496;
51.3000;1.2584;2.0472;
51.6000;1.2576;2.0448;
51.9000;1.2576;2.0424;
52.2000;1.2560;2.0376;
52.5000;1.2552;2.0472;
52.8000;1.2576;2.0521;
53.1000;1.2503;2.0327;
53.4000;1.2576;2.0521;
53.7000;1.2576;2.0521;
54.0000;1.2593;2.0545;
54.3000;1.2609;2.0641;
54.6000;1.2576;2.0448;
54.9000;1.2584;2.0448;
55.2000;1.2552;2.0472;
55.5000;1.2576;2.0617;
55.8000;1.2584;2.0593;
56.1000;1.2576;2.0496;
56.4000;1.2568;2.0569;
56.7000;1.2625;2.0690;
57.0000;1.2593;2.0593;
57.3000;1.2593;2.0545;
57.6000;1.2576;2.0545;
57.9000;1.2593;2.0521;
58.2000;1.2609;2.0400;
58.5000;1.2617;2.0327;
58.8000;1.2601;2.0327;
59.1000;1.2593;2.0376;
59.4000;1.2601;2.0521;
59.7000;1.2552;2.0496;
60.0000;1.2601;2.0617;
60.3000;1.2576;2.0569;
60.6000;1.2601;2.0641;
60.9000;1.2584;2.0617;
61.2000;1.2584;2.0738;
61.5000;1.2593;2.0714;
61.8000;1.2609;2.0714;
62.1000;1.2617;2.0738;
62.4000;1.2576;2.0738;
62.7000;1.2584;2.0762;
63.0000;1.2584;2.0786;
63.3000;1.2584;2.0714;
63.6000;1.2576;2.0545;
63.9000;1.2593;2.0521;
64.2000;1.2593;2.0545;
64.5000;1.2601;2.0545;
64.8000;1.2593;2.0545;
65.1000;1.2576;2.0545;
65.4000;1.2593;2.0593;
65.7000;1.2601;2.0569;
66.0000;1.2609;2.0617;
66.3000;1.2609;2.0593;
66.6000;1.2601;2.0521;
66.9000;1.2609;2.0496;
67.2000;1.2633;2.0521;
67.5000;1.2601;2.0376;
67.8000;1.2593;2.0351;
68.1000;1.2617;2.0448;
68.4000;1.2617;2.0496;
68.7000;1.2601;2.0472;
69.0000;1.2609;2.0400;
69.3000;1.2666;2.0521;
69.6000;1.2609;2.0521;
69.9000;1.2601;2.0521;
70.2000;1.2609;2.0593;
70.5000;1.2609;2.0593;
70.8000;1.2593;2.0472;
71.1000;1.2609;2.0472;
71.4000;1.2584;2.0279;
71.7000;1.2593;2.0303;
72.0000;1.2609;2.0400;
72.3000;1.2601;2.0545;
72.6000;1.2593;2.0521;
72.9000;1.2576;2.0496;
73.2000;1.2633;2.0641;
73.5000;1.2698;2.0738;
73.8000;1.2593;2.0521;
74.1000;1.2609;2.0569;
74.4000;1.2601;2.0593;
74.7000;1.2617;2.0593;
75.0000;1.2658;2.0738;
75.3000;1.2617;2.0593;
75.6000;1.2617;2.0617;
75.9000;1.2625;2.0666;
76.2000;1.2601;2.0690;
76.5000;1.2609;2.0666;
76.8000;1.2584;2.0641;
77.1000;1.2601;2.0617;
77.4000;1.2609;2.0593;
77.7000;1.2601;2.0593;
78.0000;1.2576;2.0521;
78.3000;1.2601;2.0641;
78.6000;1.2617;2.0641;
78.9000;1.2609;2.0690;
79.2000;1.2601;2.0714;
79.5000;1.2609;2.0714;
79.8000;1.2617;2.0714;
80.1000;1.2609;2.0690;
80.4000;1.2601;2.0690;
80.7000;1.2609;2.0690;
81.0000;1.2617;2.0738;
81.3000;1.2617;2.0714;
81.6000;1.2617;2.0641;
81.9000;1.2601;2.0641;
82.2000;1.2650;2.0786;
82.5000;1.2625;2.0762;
82.8000;1.2674;2.0931;
83.1000;1.2650;2.0811;
83.4000;1.2633;2.0786;
83.7000;1.2625;2.0762;
84.0000;1.2625;2.0811;
84.3000;1.2625;2.0859;
84.6000;1.2617;2.0835;
84.9000;1.2625;2.0859;
85.2000;1.2633;2.0907;
85.5000;1.2576;2.0714;
85.8000;1.2568;2.0714;
86.1000;1.2609;2.0738;
86.4000;1.2633;2.0738;
86.7000;1.2609;2.0666;
87.0000;1.2617;2.0714;
87.3000;1.2625;2.0714;
87.6000;1.2601;2.0738;
87.9000;1.2584;2.0714;
88.2000;1.2617;2.0786;
88.5000;1.2593;2.0641;
88.8000;1.2625;2.0762;
89.1000;1.2609;2.0762;
89.4000;1.2625;2.0738;
89.7000;1.2609;2.0714;
90.0000;1.2641;2.0835;
90.3000;1.2617;2.0835;
90.6000;1.2609;2.0762;
90.9000;1.2617;2.0714;
91.2000;1.2633;2.0738;
91.5000;1.2633;2.0666;
91.8000;1.2625;2.0593;
92.1000;1.2625;2.0593;
92.4000;1.2625;2.0617;
92.7000;1.2617;2.0593;
93.0000;1.2650;2.0690;
93.3000;1.2617;2.0690;
93.6000;1.2633;2.0714;
93.9000;1.2625;2.0666;
94.2000;1.2625;2.0666;
94.5000;1.2617;2.0593;
94.8000;1.2633;2.0641;
95.1000;1.2625;2.0545;
95.4000;1.2633;2.0617;
95.7000;1.2633;2.0569;
96.0000;1.2617;2.0521;
96.3000;1.2633;2.0617;
96.6000;1.2609;2.0617;
96.9000;1.2625;2.0617;
97.2000;1.2601;2.0593;
97.5000;1.2568;2.0617;
97.8000;1.2617;2.0690;
98.1000;1.2625;2.0762;
98.4000;1.2650;2.0786;
98.7000;1.2641;2.0762;
99.0000;1.2633;2.0762;
99.3000;1.2617;2.0690;
99.6000;1.2617;2.0641;
99.9000;1.2609;2.0617;
100.2000;1.2633;2.0641;
100.5000;1.2617;2.0545;
100.8000;1.2617;2.0472;
101.1000;1.2609;2.0472;
101.4000;1.2633;2.0593;
101.7000;1.2609;2.0472;
102.0000;1.2633;2.0521;
102.3000;1.2617;2.0496;
102.6000;1.2617;2.0448;
102.9000;1.2641;2.0400;
103.2000;1.2625;2.0327;
103.5000;1.2625;2.0376;
103.8000;1.2641;2.0448;
104.1000;1.2658;2.0472;
104.4000;1.2650;2.0400;
104.7000;1.2633;2.0424;
105.0000;1.2633;2.0521;
105.3000;1.2633;2.0521;
105.6000;1.2625;2.0545;
105.9000;1.2625;2.0521;
106.2000;1.2617;2.0593;
106.5000;1.2633;2.0593;
106.8000;1.2568;2.0496;
107.1000;1.2617;2.0666;
107.4000;1.2617;2.0714;
107.7000;1.2609;2.0641;
108.0000;1.2650;2.0569;
108.3000;1.2633;2.0545;
108.6000;1.2698;2.0714;
108.9000;1.2641;2.0593;
109.2000;1.2625;2.0545;
109.5000;1.2641;2.0617;
109.8000;1.2625;2.0521;
110.1000;1.2625;2.0521;
110.4000;1.2641;2.0545;
110.7000;1.2625;2.0521;
111.0000;1.2625;2.0424;
111.3000;1.2625;2.0472;
111.6000;1.2617;2.0376;
111.9000;1.2690;2.0545;
112.2000;1.2625;2.0424;
112.5000;1.2625;2.0376;
112.8000;1.2609;2.0279;
113.1000;1.2617;2.0279;
113.4000;1.2609;2.0303;
113.7000;1.2609;2.0303;
114.0000;1.2633;2.0448;
114.3000;1.2625;2.0351;
114.6000;1.2617;2.0424;
114.9000;1.2625;2.0448;
115.2000;1.2617;2.0472;
115.5000;1.2625;2.0424;
115.8000;1.2641;2.0521;
116.1000;1.2633;2.0545;
116.4000;1.2650;2.0545;
116.7000;1.2650;2.0521;
117.0000;1.2641;2.0472;
117.3000;1.2593;2.0376;
117.6000;1.2633;2.0351;
117.9000;1.2625;2.0327;
118.2000;1.2641;2.0424;
118.5000;1.2625;2.0400;
118.8000;1.2633;2.0400;
119.1000;1.2633;2.0448;
119.4000;1.2666;2.0593;
119.7000;1.2601;2.0424;
120.0000;1.2633;2.0545;
120.3000;1.2650;2.0569;
120.6000;1.2601;2.0400;
120.9000;1.2641;2.0496;
121.2000;1.2625;2.0376;
121.5000;1.2658;2.0472;
121.8000;1.2625;2.0376;
122.1000;1.2617;2.0327;
122.4000;1.2658;2.0376;
122.7000;1.2593;2.0279;
123.0000;1.2625;2.0303;
123.3000;1.2650;2.0303;
123.6000;1.2617;2.0231;
123.9000;1.2625;2.0182;
124.2000;1.2609;2.0158;
124.5000;1.2658;2.0206;
124.8000;1.2625;2.0158;
125.1000;1.2650;2.0255;
125.4000;1.2625;2.0231;
125.7000;1.2633;2.0231;
126.0000;1.2633;2.0255;
126.3000;1.2633;2.0231;
126.6000;1.2633;2.0279;
126.9000;1.2617;2.0303;
127.2000;1.2609;2.0327;
127.5000;1.2601;2.0231;
127.8000;1.2617;2.0206;
128.1000;1.2641;2.0351;
128.4000;1.2625;2.0303;
128.7000;1.2617;2.0327;
129.0000;1.2625;2.0376;
129.3000;1.2625;2.0400;
129.6000;1.2674;2.0545;
129.9000;1.2641;2.0424;
130.2000;1.2625;2.0351;
130.5000;1.2617;2.0279;
130.8000;1.2633;2.0400;
131.1000;1.2625;2.0376;
131.4000;1.2617;2.0424;
131.7000;1.2625;2.0496;
132.0000;1.2633;2.0400;
132.3000;1.2625;2.0448;
132.6000;1.2593;2.0448;
132.9000;1.2617;2.0496;
133.2000;1.2593;2.0448;
133.5000;1.2641;2.0593;
133.8000;1.2609;2.0545;
134.1000;1.2609;2.0472;
134.4000;1.2625;2.0448;
134.7000;1.2633;2.0472;
135.0000;1.2633;2.0472;
135.3000;1.2625;2.0496;
135.6000;1.2625;2.0424;
135.9000;1.2633;2.0376;
136.2000;1.2625;2.0376;
136.5000;1.2617;2.0351;
136.8000;1.2633;2.0351;
137.1000;1.2633;2.0400;
137.4000;1.2625;2.0351;
137.7000;1.2625;2.0472;
138.0000;1.2625;2.0521;
138.3000;1.2609;2.0400;
138.6000;1.2625;2.0424;
138.9000;1.2625;2.0400;
139.2000;1.2625;2.0351;
139.5000;1.2625;2.0472;
139.8000;1.2633;2.0472;
140.1000;1.2576;2.0400;
140.4000;1.2625;2.0545;
140.7000;1.2617;2.0593;
141.0000;1.2641;2.0593;
141.3000;1.2617;2.0521;
141.6000;1.2625;2.0521;
141.9000;1.2625;2.0569;
142.2000;1.2617;2.0569;
142.5000;1.2625;2.0496;
142.8000;1.2641;2.0496;
143.1000;1.2625;2.0424;
143.4000;1.2633;2.0351;
143.7000;1.2633;2.0376;
144.0000;1.2633;2.0400;
144.3000;1.2633;2.0424;
144.6000;1.2625;2.0351;
144.9000;1.2633;2.0351;
145.2000;1.2633;2.0376;
145.5000;1.2633;2.0472;
145.8000;1.2633;2.0400;
146.1000;1.2633;2.0448;
146.4000;1.2568;2.0255;
146.7000;1.2609;2.0376;
147.0000;1.2617;2.0424;
147.3000;1.2617;2.0448;
147.6000;1.2625;2.0448;
147.9000;1.2625;2.0400;
148.2000;1.2617;2.0279;
148.5000;1.2576;2.0158;
148.8000;1.2625;2.0376;
149.1000;1.2633;2.0303;
149.4000;1.2641;2.0303;
149.7000;1.2650;2.0327;
150.0000;1.2650;2.0351;
150.3000;1.2641;2.0400;
150.6000;1.2650;2.0472;
150.9000;1.2650;2.0496;
151.2000;1.2641;2.0496;
151.5000;1.2650;2.0472;
151.8000;1.2633;2.0448;
152.1000;1.2625;2.0400;
152.4000;1.2633;2.0376;
152.7000;1.2641;2.0351;
153.0000;1.2625;2.0279;
153.3000;1.2593;2.0158;
153.6000;1.2617;2.0206;
153.9000;1.2617;2.0206;
154.2000;1.2641;2.0303;
154.5000;1.2625;2.0303;
154.8000;1.2625;2.0255;
155.1000;1.2633;2.0327;
155.4000;1.2633;2.0448;
155.7000;1.2617;2.0376;
156.0000;1.2609;2.0400;
156.3000;1.2650;2.0424;
156.6000;1.2682;2.0545;
156.9000;1.2617;2.0400;
157.2000;1.2609;2.0400;
157.5000;1.2617;2.0351;
157.8000;1.2625;2.0351;
158.1000;1.2625;2.0351;
158.4000;1.2617;2.0376;
158.7000;1.2625;2.0376;
159.0000;1.2633;2.0448;
159.3000;1.2609;2.0496;
159.6000;1.2617;2.0545;
159.9000;1.2617;2.0545;
160.2000;1.2617;2.0545;
160.5000;1.2625;2.0569;
160.8000;1.2625;2.0521;
161.1000;1.2617;2.0521;
161.4000;1.2633;2.0593;
161.7000;1.2633;2.0641;
162.0000;1.2625;2.0641;
162.3000;1.2633;2.0593;
162.6000;1.2650;2.0593;
162.9000;1.2625;2.0569;
163.2000;1.2633;2.0521;
163.5000;1.2633;2.0496;
163.8000;1.2617;2.0521;
164.1000;1.2625;2.0521;
164.4000;1.2625;2.0472;
164.7000;1.2625;2.0472;
165.0000;1.2625;2.0400;
165.3000;1.2633;2.0424;
165.6000;1.2641;2.0569;
165.9000;1.2633;2.0593;
166.2000;1.2617;2.0593;
166.5000;1.2625;2.0545;
166.8000;1.2641;2.0521;
167.1000;1.2666;2.0569;
167.4000;1.2641;2.0521;
167.7000;1.2625;2.0545;
168.0000;1.2633;2.0545;
168.3000;1.2609;2.0545;
168.6000;1.2625;2.0593;
168.9000;1.2633;2.0569;
169.2000;1.2641;2.0569;
169.5000;1.2625;2.0593;
169.8000;1.2617;2.0593;
170.1000;1.2617;2.0593;
170.4000;1.2625;2.0593;
170.7000;1.2625;2.0641;
171.0000;1.2609;2.0641;
171.3000;1.2609;2.0617;
171.6000;1.2609;2.0690;
171.9000;1.2617;2.0666;
172.2000;1.2625;2.0593;
172.5000;1.2625;2.0545;
172.8000;1.2609;2.0593;
173.1000;1.2617;2.0569;
173.4000;1.2601;2.0545;
173.7000;1.2625;2.0714;
174.0000;1.2609;2.0762;
174.3000;1.2609;2.0714;
174.6000;1.2650;2.0762;
174.9000;1.2625;2.0641;
175.2000;1.2617;2.0569;
175.5000;1.2641;2.0545;
175.8000;1.2609;2.0472;
176.1000;1.2625;2.0545;
176.4000;1.2625;2.0521;
176.7000;1.2658;2.0569;
177.0000;1.2617;2.0569;
177.3000;1.2633;2.0545;
177.6000;1.2650;2.0593;
177.9000;1.2633;2.0569;
178.2000;1.2625;2.0569;
178.5000;1.2576;2.0400;
178.8000;1.2633;2.0521;
179.1000;1.2617;2.0448;
179.4000;1.2707;2.0738;
179.7000;1.2625;2.0545;
180.0000;1.2601;2.0448;
180.3000;1.2609;2.0448;
180.6000;1.2625;2.0521;
180.9000;1.2593;2.0424;
181.2000;1.2601;2.0448;
181.5000;1.2617;2.0376;
181.8000;1.2625;2.0400;
182.1000;1.2641;2.0376;
182.4000;1.2617;2.0303;
182.7000;1.2609;2.0376;
183.0000;1.2633;2.0472;
183.3000;1.2633;2.0472;
183.6000;1.2633;2.0545;
183.9000;1.2617;2.0448;
184.2000;1.2625;2.0376;
184.5000;1.2625;2.0472;
184.8000;1.2617;2.0496;
185.1000;1.2601;2.0496;
185.4000;1.2601;2.0521;
185.7000;1.2617;2.0545;
186.0000;1.2641;2.0545;
186.3000;1.2625;2.0472;
186.6000;1.2617;2.0472;
186.9000;1.2633;2.0424;
187.2000;1.2617;2.0400;
187.5000;1.2617;2.0351;
187.8000;1.2609;2.0376;
188.1000;1.2682;2.0569;
188.4000;1.2633;2.0327;
188.7000;1.2650;2.0279;
189.0000;1.2617;2.0376;
189.3000;1.2633;2.0376;
189.6000;1.2625;2.0424;
189.9000;1.2617;2.0448;
190.2000;1.2617;2.0424;
190.5000;1.2674;2.0545;
190.8000;1.2625;2.0448;
191.1000;1.2641;2.0472;
191.4000;1.2609;2.0424;
191.7000;1.2601;2.0376;
192.0000;1.2601;2.0327;
192.3000;1.2609;2.0351;
192.6000;1.2609;2.0351;
192.9000;1.2625;2.0400;
193.2000;1.2609;2.0472;
193.5000;1.2650;2.0569;
193.8000;1.2625;2.0472;
194.1000;1.2584;2.0376;
194.4000;1.2625;2.0472;
194.7000;1.2625;2.0521;
195.0000;1.2625;2.0424;
195.3000;1.2617;2.0424;
195.6000;1.2633;2.0424;
195.9000;1.2609;2.0424;
196.2000;1.2625;2.0472;
196.5000;1.2527;2.0158;
196.8000;1.2609;2.0376;
197.1000;1.2617;2.0400;
197.4000;1.2609;2.0400;
197.7000;1.2625;2.0424;
198.0000;1.2593;2.0327;
198.3000;1.2617;2.0400;
198.6000;1.2601;2.0231;
198.9000;1.2617;2.0255;
199.2000;1.2625;2.0351;
199.5000;1.2633;2.0351;
199.8000;1.2617;2.0279;
200.1000;1.2568;2.0231;
200.4000;1.2617;2.0351;
200.7000;1.2609;2.0351;
201.0000;1.2641;2.0424;
201.3000;1.2617;2.0400;
201.6000;1.2593;2.0351;
201.9000;1.2625;2.0351;
202.2000;1.2625;2.0400;
202.5000;1.2617;2.0327;
202.8000;1.2609;2.0351;
203.1000;1.2633;2.0376;
203.4000;1.2593;2.0351;
203.7000;1.2625;2.0593;
204.0000;1.2625;2.0714;
204.3000;1.2609;2.0690;
204.6000;1.2609;2.0641;
204.9000;1.2584;2.0666;
205.2000;1.2625;2.0714;
205.5000;1.2609;2.0617;
205.8000;1.2617;2.0617;
206.1000;1.2601;2.0690;
206.4000;1.2609;2.0666;
206.7000;1.2609;2.0666;
207.0000;1.2609;2.0690;
207.3000;1.2609;2.0641;
207.6000;1.2609;2.0545;
207.9000;1.2617;2.0521;
208.2000;1.2593;2.0496;
208.5000;1.2625;2.0617;
208.8000;1.2601;2.0569;
209.1000;1.2617;2.0641;
209.4000;1.2625;2.0569;
209.7000;1.2625;2.0569;
210.0000;1.2641;2.0569;
210.3000;1.2584;2.0400;
210.6000;1.2601;2.0400;
210.9000;1.2625;2.0472;
211.2000;1.2666;2.0617;
211.5000;1.2633;2.0617;
211.8000;1.2609;2.0617;
212.1000;1.2617;2.0617;
212.4000;1.2609;2.0666;
212.7000;1.2609;2.0714;
213.0000;1.2601;2.0666;
213.3000;1.2609;2.0738;
213.6000;1.2625;2.0738;
213.9000;1.2625;2.0690;
214.2000;1.2617;2.0762;
214.5000;1.2609;2.0738;
214.8000;1.2601;2.0617;
215.1000;1.2617;2.0545;
215.4000;1.2625;2.0521;
215.7000;1.2601;2.0400;
216.0000;1.2601;2.0376;
216.3000;1.2617;2.0400;
216.6000;1.2617;2.0376;
216.9000;1.2601;2.0351;
217.2000;1.2609;2.0400;
217.5000;1.2560;2.0279;
217.8000;1.2625;2.0448;
218.1000;1.2609;2.0400;
218.4000;1.2633;2.0424;
218.7000;1.2609;2.0376;
219.0000;1.2633;2.0472;
219.3000;1.2601;2.0424;
219.6000;1.2601;2.0424;
219.9000;1.2593;2.0424;
220.2000;1.2609;2.0448;
220.5000;1.2536;2.0400;
220.8000;1.2601;2.0617;
221.1000;1.2560;2.0521;
221.4000;1.2617;2.0666;
221.7000;1.2625;2.0666;
222.0000;1.2601;2.0545;
222.3000;1.2625;2.0593;
222.6000;1.2609;2.0521;
222.9000;1.2633;2.0545;
223.2000;1.2633;2.0593;
223.5000;1.2641;2.0545;
223.8000;1.2633;2.0424;
224.1000;1.2617;2.0424;
224.4000;1.2625;2.0496;
224.7000;1.2633;2.0521;
225.0000;1.2601;2.0496;
225.3000;1.2617;2.0641;
225.6000;1.2617;2.0786;
225.9000;1.2593;2.0738;
226.2000;1.2609;2.0835;
226.5000;1.2601;2.0762;
226.8000;1.2609;2.0690;
227.1000;1.2609;2.0593;
227.4000;1.2601;2.0593;
227.7000;1.2617;2.0593;
228.0000;1.2625;2.0593;
228.3000;1.2625;2.0545;
228.6000;1.2617;2.0521;
228.9000;1.2617;2.0593;
229.2000;1.2617;2.0641;
229.5000;1.2633;2.0593;
229.8000;1.2625;2.0617;
230.1000;1.2609;2.0593;
230.4000;1.2617;2.0641;
230.7000;1.2601;2.0569;
231.0000;1.2609;2.0545;
231.3000;1.2609;2.0496;
231.6000;1.2601;2.0496;
231.9000;1.2617;2.0472;
232.2000;1.2641;2.0448;
232.5000;1.2617;2.0327;
232.8000;1.2617;2.0327;
233.1000;1.2650;2.0376;
233.4000;1.2690;2.0617;
233.7000;1.2625;2.0424;
234.0000;1.2625;2.0424;
234.3000;1.2617;2.0472;
234.6000;1.2625;2.0545;
234.9000;1.2617;2.0569;
235.2000;1.2609;2.0593;
235.5000;1.2617;2.0521;
235.8000;1.2625;2.0424;
236.1000;1.2609;2.0448;
236.4000;1.2666;2.0545;
236.7000;1.2617;2.0521;
237.0000;1.2625;2.0569;
237.3000;1.2576;2.0448;
237.6000;1.2609;2.0545;
237.9000;1.2617;2.0545;
238.2000;1.2633;2.0617;
238.5000;1.2650;2.0641;
238.8000;1.2617;2.0521;
239.1000;1.2625;2.0545;
239.4000;1.2650;2.0545;
239.7000;1.2584;2.0400;
240.0000;1.2609;2.0376;
240.3000;1.2584;2.0351;
240.6000;1.2609;2.0472;
240.9000;1.2609;2.0472;
241.2000;1.2601;2.0472;
241.5000;1.2658;2.0641;
241.8000;1.2609;2.0521;
242.1000;1.2617;2.0593;
242.4000;1.2617;2.0569;
242.7000;1.2617;2.0545;
243.0000;1.2617;2.0496;
243.3000;1.2617;2.0472;
243.6000;1.2617;2.0424;
243.9000;1.2609;2.0448;
244.2000;1.2609;2.0400;
244.5000;1.2625;2.0569;
244.8000;1.2625;2.0545;
245.1000;1.2674;2.0762;
245.4000;1.2609;2.0521;
245.7000;1.2552;2.0448;
246.0000;1.2617;2.0569;
246.3000;1.2584;2.0521;
246.6000;1.2601;2.0545;
246.9000;1.2593;2.0521;
247.2000;1.2584;2.0496;
247.5000;1.2584;2.0521;
247.8000;1.2625;2.0569;
248.1000;1.2625;2.0569;
248.4000;1.2609;2.0617;
248.7000;1.2609;2.0545;
249.0000;1.2609;2.0400;
249.3000;1.2617;2.0424;
249.6000;1.2609;2.0424;
249.9000;1.2617;2.0424;
250.2000;1.2617;2.0400;
250.5000;1.2601;2.0351;
250.8000;1.2601;2.0327;
251.1000;1.2609;2.0327;
251.4000;1.2593;2.0351;
251.7000;1.2601;2.0448;
252.0000;1.2593;2.0472;
252.3000;1.2617;2.0569;
252.6000;1.2601;2.0521;
252.9000;1.2601;2.0496;
253.2000;1.2617;2.0617;
253.5000;1.2601;2.0569;
253.8000;1.2601;2.0569;
254.1000;1.2601;2.0521;
254.4000;1.2560;2.0424;
254.7000;1.2609;2.0521;
255.0000;1.2609;2.0496;
255.3000;1.2625;2.0448;
255.6000;1.2617;2.0424;
255.9000;1.2625;2.0496;
256.2000;1.2609;2.0569;
256.5000;1.2625;2.0617;
256.8000;1.2601;2.0521;
257.1000;1.2617;2.0617;
257.4000;1.2617;2.0569;
257.7000;1.2617;2.0521;
258.0000;1.2617;2.0472;
258.3000;1.2609;2.0545;
258.6000;1.2617;2.0593;
258.9000;1.2617;2.0666;
259.2000;1.2609;2.0593;
259.5000;1.2617;2.0521;
259.8000;1.2617;2.0496;
260.1000;1.2698;2.0690;
260.4000;1.2617;2.0496;
260.7000;1.2609;2.0424;
261.0000;1.2609;2.0327;
261.3000;1.2609;2.0303;
261.6000;1.2609;2.0303;
261.9000;1.2593;2.0303;
262.2000;1.2609;2.0303;
262.5000;1.2576;2.0206;
262.8000;1.2609;2.0327;
263.1000;1.2593;2.0351;
263.4000;1.2609;2.0351;
263.7000;1.2601;2.0327;
264.0000;1.2625;2.0400;
264.3000;1.2609;2.0351;
264.6000;1.2609;2.0376;
264.9000;1.2609;2.0400;
265.2000;1.2617;2.0448;
265.5000;1.2625;2.0496;
265.8000;1.2609;2.0448;
266.1000;1.2601;2.0376;
266.4000;1.2633;2.0521;
266.7000;1.2625;2.0496;
267.0000;1.2593;2.0448;
267.3000;1.2609;2.0472;
267.6000;1.2601;2.0400;
267.9000;1.2593;2.0327;
268.2000;1.2609;2.0376;
268.5000;1.2601;2.0351;
268.8000;1.2609;2.0448;
269.1000;1.2666;2.0569;
269.4000;1.2609;2.0424;
269.7000;1.2609;2.0400;
270.0000;1.2617;2.0376;
270.3000;1.2641;2.0496;
270.6000;1.2552;2.0255;
270.9000;1.2633;2.0472;
271.2000;1.2552;2.0255;
271.5000;1.2609;2.0472;
271.8000;1.2593;2.0448;
272.1000;1.2609;2.0472;
272.4000;1.2584;2.0400;
272.7000;1.2568;2.0279;
273.0000;1.2576;2.0351;
273.3000;1.2609;2.0400;
273.6000;1.2601;2.0448;
273.9000;1.2601;2.0569;
274.2000;1.2666;2.0666;
274.5000;1.2609;2.0496;
274.8000;1.2601;2.0424;
275.1000;1.2633;2.0448;
275.4000;1.2617;2.0376;
275.7000;1.2609;2.0327;
276.0000;1.2658;2.0472;
276.3000;1.2666;2.0448;
276.6000;1.2617;2.0424;
276.9000;1.2609;2.0376;
277.2000;1.2601;2.0303;
277.5000;1.2593;2.0303;
277.8000;1.2617;2.0472;
278.1000;1.2617;2.0496;
278.4000;1.2601;2.0472;
278.7000;1.2601;2.0424;
279.0000;1.2609;2.0400;
279.3000;1.2601;2.0376;
279.6000;1.2617;2.0351;
279.9000;1.2617;2.0400;
280.2000;1.2560;2.0303;
280.5000;1.2625;2.0424;
280.8000;1.2601;2.0496;
281.1000;1.2601;2.0521;
281.4000;1.2601;2.0496;
281.7000;1.2601;2.0496;
282.0000;1.2601;2.0448;
282.3000;1.2584;2.0424;
282.6000;1.2584;2.0376;
282.9000;1.2601;2.0448;
283.2000;1.2593;2.0424;
283.5000;1.2593;2.0448;
283.8000;1.2593;2.0448;
284.1000;1.2625;2.0472;
284.4000;1.2617;2.0351;
284.7000;1.2617;2.0424;
285.0000;1.2601;2.0472;
285.3000;1.2609;2.0521;
285.6000;1.2617;2.0545;
285.9000;1.2617;2.0569;
286.2000;1.2609;2.0545;
286.5000;1.2568;2.0545;
286.8000;1.2617;2.0666;
287.1000;1.2560;2.0521;
287.4000;1.2593;2.0593;
287.7000;1.2601;2.0593;
288.0000;1.2617;2.0617;
288.3000;1.2617;2.0545;
288.6000;1.2601;2.0496;
288.9000;1.2601;2.0472;
289.2000;1.2593;2.0545;
289.5000;1.2617;2.0593;
289.8000;1.2601;2.0569;
290.1000;1.2568;2.0593;
290.4000;1.2609;2.0714;
290.7000;1.2568;2.0714;
291.0000;1.2641;2.0859;
291.3000;1.2617;2.0666;
291.6000;1.2593;2.0617;
291.9000;1.2617;2.0617;
292.2000;1.2617;2.0593;
292.5000;1.2593;2.0593;
292.8000;1.2601;2.0593;
293.1000;1.2601;2.0521;
293.4000;1.2617;2.0641;
293.7000;1.2617;2.0666;
294.0000;1.2584;2.0593;
294.3000;1.2593;2.0545;
294.6000;1.2609;2.0545;
294.9000;1.2601;2.0448;
295.2000;1.2601;2.0448;
295.5000;1.2650;2.0569;
295.8000;1.2609;2.0448;
296.1000;1.2625;2.0545;
296.4000;1.2625;2.0545;
296.7000;1.2625;2.0424;
297.0000;1.2584;2.0255;
297.3000;1.2609;2.0303;
297.6000;1.2584;2.0376;
297.9000;1.2601;2.0472;
298.2000;1.2601;2.0496;
298.5000;1.2593;2.0327;
298.8000;1.2617;2.0400;
299.1000;1.2617;2.0400;
299.4000;1.2617;2.0424;
299.7000;1.2625;2.0545;
300.0000;1.2609;2.0545;
300.3000;1.2609;2.0593;
300.6000;1.2633;2.0593;
300.9000;1.2690;2.0666;
301.2000;1.2609;2.0472;
301.5000;1.2617;2.0448;
301.8000;1.2609;2.0521;
302.1000;1.2625;2.0400;
302.4000;1.2576;2.0231;
302.7000;1.2593;2.0279;
303.0000;1.2609;2.0376;
303.3000;1.2617;2.0472;
303.6000;1.2601;2.0472;
303.9000;1.2609;2.0424;
304.2000;1.2609;2.0424;
304.5000;1.2617;2.0424;
304.8000;1.2617;2.0424;
305.1000;1.2617;2.0472;
305.4000;1.2609;2.0521;
305.7000;1.2609;2.0496;
306.0000;1.2601;2.0448;
306.3000;1.2593;2.0472;
306.6000;1.2601;2.0424;
306.9000;1.2633;2.0448;
307.2000;1.2617;2.0400;
307.5000;1.2593;2.0400;
307.8000;1.2601;2.0351;
308.1000;1.2584;2.0351;
308.4000;1.2584;2.0400;
308.7000;1.2601;2.0376;
309.0000;1.2593;2.0400;
309.3000;1.2666;2.0714;
309.6000;1.2584;2.0472;
309.9000;1.2593;2.0424;
310.2000;1.2601;2.0448;
310.5000;1.2609;2.0448;
310.8000;1.2560;2.0424;
311.1000;1.2609;2.0521;
311.4000;1.2593;2.0521;
311.7000;1.2560;2.0448;
312.0000;1.2593;2.0545;
312.3000;1.2609;2.0545;
312.6000;1.2617;2.0569;
312.9000;1.2593;2.0472;
313.2000;1.2609;2.0496;
313.5000;1.2617;2.0472;
313.8000;1.2568;2.0327;
314.1000;1.2601;2.0448;
314.4000;1.2601;2.0472;
314.7000;1.2601;2.0424;
315.0000;1.2617;2.0472;
315.3000;1.2593;2.0448;
315.6000;1.2601;2.0472;
315.9000;1.2601;2.0545;
316.2000;1.2641;2.0641;
316.5000;1.2609;2.0545;
316.8000;1.2601;2.0521;
317.1000;1.2593;2.0569;
317.4000;1.2625;2.0593;
317.7000;1.2568;2.0400;
318.0000;1.2601;2.0521;
318.3000;1.2609;2.0496;
318.6000;1.2641;2.0617;
318.9000;1.2593;2.0496;
319.2000;1.2609;2.0545;
319.5000;1.2560;2.0496;
319.8000;1.2658;2.0641;
320.1000;1.2625;2.0521;
320.4000;1.2601;2.0569;
320.7000;1.2601;2.0545;
321.0000;1.2601;2.0545;
321.3000;1.2617;2.0521;
321.6000;1.2609;2.0400;
321.9000;1.2609;2.0472;
322.2000;1.2609;2.0521;
322.5000;1.2601;2.0617;
322.8000;1.2601;2.0569;
323.1000;1.2593;2.0521;
323.4000;1.2593;2.0521;
323.7000;1.2601;2.0448;
324.0000;1.2593;2.0376;
324.3000;1.2584;2.0327;
324.6000;1.2584;2.0327;
324.9000;1.2601;2.0376;
325.2000;1.2536;2.0327;
325.5000;1.2609;2.0545;
325.8000;1.2593;2.0593;
326.1000;1.2593;2.0617;
326.4000;1.2576;2.0569;
326.7000;1.2601;2.0569;
327.0000;1.2601;2.0593;
327.3000;1.2593;2.0593;
327.6000;1.2593;2.0666;
327.9000;1.2601;2.0738;
328.2000;1.2584;2.0666;
328.5000;1.2601;2.0666;
328.8000;1.2609;2.0690;
329.1000;1.2601;2.0690;
329.4000;1.2593;2.0690;
329.7000;1.2593;2.0641;
330.0000;1.2601;2.0617;
330.3000;1.2650;2.0786;
330.6000;1.2617;2.0690;
330.9000;1.2593;2.0641;
331.2000;1.2593;2.0641;
331.5000;1.2625;2.0690;
331.8000;1.2601;2.0593;
332.1000;1.2601;2.0545;
332.4000;1.2601;2.0448;
332.7000;1.2617;2.0521;
333.0000;1.2601;2.0521;
333.3000;1.2601;2.0545;
333.6000;1.2633;2.0738;
333.9000;1.2593;2.0666;
334.2000;1.2617;2.0666;
334.5000;1.2609;2.0569;
334.8000;1.2584;2.0521;
335.1000;1.2601;2.0569;
335.4000;1.2609;2.0593;
335.7000;1.2609;2.0545;
336.0000;1.2609;2.0593;
336.3000;1.2609;2.0593;
336.6000;1.2625;2.0569;
336.9000;1.2601;2.0496;
337.2000;1.2609;2.0545;
337.5000;1.2593;2.0400;
337.8000;1.2633;2.0545;
338.1000;1.2601;2.0545;
338.4000;1.2593;2.0617;
338.7000;1.2584;2.0617;
339.0000;1.2601;2.0666;
339.3000;1.2536;2.0472;
339.6000;1.2601;2.0593;
339.9000;1.2584;2.0545;
340.2000;1.2601;2.0593;
340.5000;1.2593;2.0666;
340.8000;1.2593;2.0641;
341.1000;1.2584;2.0666;
341.4000;1.2609;2.0641;
341.7000;1.2601;2.0593;
342.0000;1.2601;2.0593;
342.3000;1.2601;2.0617;
342.6000;1.2593;2.0569;
342.9000;1.2609;2.0569;
343.2000;1.2609;2.0521;
343.5000;1.2601;2.0424;
343.8000;1.2576;2.0424;
344.1000;1.2617;2.0496;
344.4000;1.2609;2.0472;
344.7000;1.2584;2.0400;
345.0000;1.2601;2.0472;
345.3000;1.2584;2.0424;
345.6000;1.2593;2.0521;
345.9000;1.2584;2.0593;
346.2000;1.2576;2.0472;
346.5000;1.2601;2.0472;
346.8000;1.2609;2.0496;
347.1000;1.2601;2.0593;
347.4000;1.2584;2.0448;
347.7000;1.2593;2.0496;
348.0000;1.2609;2.0593;
348.3000;1.2625;2.0641;
348.6000;1.2609;2.0521;
348.9000;1.2593;2.0521;
349.2000;1.2601;2.0545;
349.5000;1.2601;2.0593;
349.8000;1.2601;2.0593;
350.1000;1.2609;2.0593;
350.4000;1.2617;2.0738;
350.7000;1.2609;2.0714;
351.0000;1.2617;2.0666;
351.3000;1.2593;2.0666;
351.6000;1.2593;2.0641;
351.9000;1.2601;2.0617;
352.2000;1.2658;2.0738;
352.5000;1.2601;2.0545;
352.8000;1.2593;2.0472;
353.1000;1.2601;2.0448;
353.4000;1.2601;2.0496;
353.7000;1.2584;2.0496;
354.0000;1.2576;2.0424;
354.3000;1.2584;2.0472;
354.6000;1.2609;2.0569;
354.9000;1.2593;2.0521;
355.2000;1.2576;2.0521;
355.5000;1.2495;2.0279;
355.8000;1.2601;2.0521;
356.1000;1.2593;2.0424;
356.4000;1.2601;2.0472;
356.7000;1.2593;2.0472;
357.0000;1.2633;2.0569;
357.3000;1.2609;2.0569;
357.6000;1.2601;2.0569;
357.9000;1.2601;2.0569;
358.2000;1.2601;2.0472;
358.5000;1.2593;2.0521;
358.8000;1.2584;2.0593;
359.1000;1.2601;2.0666;
359.4000;1.2593;2.0593;
359.7000;1.2601;2.0617;
360.0000;1.2584;2.0617;
360.3000;1.2576;2.0545;
360.6000;1.2593;2.0617;
360.9000;1.2593;2.0666;
361.2000;1.2593;2.0617;
361.5000;1.2593;2.0448;
361.8000;1.2601;2.0400;
362.1000;1.2601;2.0448;
362.4000;1.2593;2.0327;
362.7000;1.2584;2.0303;
363.0000;1.2568;2.0351;
363.3000;1.2593;2.0448;
363.6000;1.2593;2.0496;
363.9000;1.2576;2.0448;
364.2000;1.2576;2.0351;
364.5000;1.2584;2.0327;
364.8000;1.2560;2.0231;
365.1000;1.2593;2.0279;
365.4000;1.2609;2.0351;
365.7000;1.2593;2.0351;
366.0000;1.2584;2.0376;
366.3000;1.2593;2.0400;
366.6000;1.2560;2.0206;
366.9000;1.2617;2.0424;
367.2000;1.2601;2.0376;
367.5000;1.2609;2.0448;
367.8000;1.2593;2.0351;
368.1000;1.2511;2.0158;
368.4000;1.2601;2.0400;
368.7000;1.2584;2.0400;
369.0000;1.2601;2.0424;
369.3000;1.2593;2.0424;
369.6000;1.2601;2.0472;
369.9000;1.2609;2.0351;
370.2000;1.2593;2.0376;
370.5000;1.2584;2.0303;
370.8000;1.2593;2.0279;
371.1000;1.2609;2.0327;
371.4000;1.2609;2.0327;
371.7000;1.2584;2.0303;
372.0000;1.2593;2.0303;
372.3000;1.2617;2.0400;
372.6000;1.2609;2.0351;
372.9000;1.2609;2.0255;
373.2000;1.2519;2.0013;
373.5000;1.2609;2.0231;
373.8000;1.2601;2.0255;
374.1000;1.2609;2.0327;
374.4000;1.2609;2.0303;
374.7000;1.2609;2.0231;
375.0000;1.2625;2.0279;
375.3000;1.2593;2.0231;
375.6000;1.2584;2.0182;
375.9000;1.2601;2.0231;
376.2000;1.2609;2.0303;
376.5000;1.2601;2.0303;
376.8000;1.2609;2.0351;
377.1000;1.2593;2.0327;
377.4000;1.2609;2.0376;
377.7000;1.2593;2.0351;
378.0000;1.2593;2.0303;
378.3000;1.2601;2.0303;
378.6000;1.2609;2.0400;
378.9000;1.2593;2.0400;
379.2000;1.2593;2.0424;
379.5000;1.2544;2.0327;
379.8000;1.2584;2.0376;
380.1000;1.2593;2.0279;
380.4000;1.2568;2.0255;
380.7000;1.2593;2.0351;
381.0000;1.2593;2.0376;
381.3000;1.2601;2.0424;
381.6000;1.2544;2.0351;
381.9000;1.2593;2.0376;
382.2000;1.2568;2.0400;
382.5000;1.2593;2.0424;
382.8000;1.2576;2.0351;
383.1000;1.2593;2.0472;
383.4000;1.2584;2.0472;
383.7000;1.2576;2.0448;
384.0000;1.2584;2.0400;
384.3000;1.2593;2.0472;
384.6000;1.2576;2.0424;
384.9000;1.2584;2.0424;
385.2000;1.2584;2.0400;
385.5000;1.2576;2.0255;
385.8000;1.2519;2.0086;
386.1000;1.2609;2.0327;
386.4000;1.2584;2.0279;
386.7000;1.2633;2.0376;
387.0000;1.2576;2.0134;
387.3000;1.2601;2.0279;
387.6000;1.2552;2.0182;
387.9000;1.2593;2.0327;
388.2000;1.2601;2.0279;
388.5000;1.2601;2.0255;
388.8000;1.2625;2.0327;
389.1000;1.2584;2.0327;
389.4000;1.2584;2.0351;
389.7000;1.2584;2.0351;
390.0000;1.2633;2.0400;
390.3000;1.2601;2.0351;
390.6000;1.2601;2.0351;
390.9000;1.2601;2.0376;
391.2000;1.2584;2.0327;
391.5000;1.2601;2.0472;
391.8000;1.2601;2.0496;
392.1000;1.2593;2.0400;
392.4000;1.2584;2.0351;
392.7000;1.2617;2.0424;
393.0000;1.2601;2.0400;
393.3000;1.2601;2.0351;
393.6000;1.2593;2.0279;
393.9000;1.2609;2.0376;
394.2000;1.2593;2.0376;
394.5000;1.2625;2.0400;
394.8000;1.2609;2.0279;
395.1000;1.2593;2.0255;
395.4000;1.2601;2.0303;
395.7000;1.2593;2.0279;
396.0000;1.2609;2.0351;
396.3000;1.2601;2.0448;
396.6000;1.2584;2.0424;
396.9000;1.2576;2.0424;
397.2000;1.2593;2.0472;
397.5000;1.2576;2.0351;
397.8000;1.2584;2.0351;
398.1000;1.2584;2.0424;
398.4000;1.2584;2.0496;
398.7000;1.2568;2.0448;
399.0000;1.2584;2.0496;
399.3000;1.2593;2.0521;
399.6000;1.2609;2.0545;
399.9000;1.2593;2.0400;
400.2000;1.2601;2.0400;
400.5000;1.2666;2.0593;
400.8000;1.2568;2.0327;
401.1000;1.2576;2.0327;
401.4000;1.2584;2.0303;
401.7000;1.2584;2.0424;
402.0000;1.2601;2.0376;
402.3000;1.2527;2.0182;
402.6000;1.2544;2.0255;
402.9000;1.2584;2.0424;
403.2000;1.2584;2.0472;
403.5000;1.2593;2.0472;
403.8000;1.2609;2.0521;
404.1000;1.2641;2.0545;
404.4000;1.2633;2.0617;
404.7000;1.2601;2.0545;
405.0000;1.2601;2.0545;
405.3000;1.2601;2.0593;
405.6000;1.2601;2.0521;
405.9000;1.2593;2.0496;
406.2000;1.2568;2.0424;
406.5000;1.2584;2.0496;
406.8000;1.2584;2.0545;
407.1000;1.2617;2.0496;
407.4000;1.2593;2.0472;
407.7000;1.2617;2.0448;
408.0000;1.2617;2.0496;
408.3000;1.2576;2.0472;
408.6000;1.2601;2.0496;
408.9000;1.2584;2.0400;
409.2000;1.2617;2.0569;
409.5000;1.2584;2.0569;
409.8000;1.2576;2.0521;
410.1000;1.2527;2.0400;
410.4000;1.2593;2.0569;
410.7000;1.2601;2.0521;
411.0000;1.2593;2.0496;
411.3000;1.2593;2.0496;
411.6000;1.2519;2.0255;
411.9000;1.2560;2.0376;
412.2000;1.2593;2.0400;
412.5000;1.2584;2.0400;
412.8000;1.2584;2.0400;
413.1000;1.2593;2.0400;
413.4000;1.2584;2.0424;
413.7000;1.2641;2.0593;
414.0000;1.2593;2.0376;
414.3000;1.2593;2.0351;
414.6000;1.2584;2.0376;
414.9000;1.2568;2.0400;
415.2000;1.2544;2.0327;
415.5000;1.2593;2.0303;
415.8000;1.2601;2.0303;
416.1000;1.2584;2.0303;
416.4000;1.2584;2.0327;
416.7000;1.2584;2.0400;
417.0000;1.2593;2.0448;
417.3000;1.2609;2.0400;
417.6000;1.2584;2.0376;
417.9000;1.2593;2.0327;
418.2000;1.2552;2.0255;
418.5000;1.2584;2.0351;
418.8000;1.2584;2.0400;
419.1000;1.2576;2.0448;
419.4000;1.2568;2.0424;
419.7000;1.2601;2.0521;
420.0000;1.2601;2.0521;
420.3000;1.2584;2.0521;
420.6000;1.2584;2.0496;
420.9000;1.2617;2.0569;
421.2000;1.2552;2.0521;
421.5000;1.2560;2.0593;
421.8000;1.2560;2.0617;
422.1000;1.2593;2.0641;
422.4000;1.2576;2.0617;
422.7000;1.2576;2.0690;
423.0000;1.2625;2.0859;
423.3000;1.2568;2.0714;
423.6000;1.2601;2.0690;
423.9000;1.2593;2.0666;
424.2000;1.2568;2.0641;
424.5000;1.2584;2.0690;
424.8000;1.2593;2.0738;
425.1000;1.2601;2.0762;
425.4000;1.2584;2.0762;
425.7000;1.2552;2.0690;
426.0000;1.2584;2.0835;
426.3000;1.2544;2.0738;
426.6000;1.2617;2.0907;
426.9000;1.2584;2.0811;
427.2000;1.2593;2.0859;
427.5000;1.2633;2.0956;
427.8000;1.2576;2.0738;
428.1000;1.2552;2.0545;
428.4000;1.2601;2.0666;
428.7000;1.2584;2.0762;
429.0000;1.2593;2.0690;
429.3000;1.2641;2.0786;
429.6000;1.2584;2.0738;
429.9000;1.2593;2.0690;
430.2000;1.2601;2.0666;
430.5000;1.2576;2.0569;
430.8000;1.2544;2.0472;
431.1000;1.2601;2.0617;
431.4000;1.2584;2.0545;
431.7000;1.2593;2.0496;
432.0000;1.2584;2.0472;
432.3000;1.2617;2.0521;
432.6000;1.2601;2.0569;
432.9000;1.2576;2.0521;
433.2000;1.2601;2.0521;
433.5000;1.2593;2.0545;
433.8000;1.2617;2.0521;
434.1000;1.2601;2.0545;
434.4000;1.2593;2.0545;
434.7000;1.2593;2.0545;
435.0000;1.2560;2.0448;
435.3000;1.2584;2.0496;
435.6000;1.2536;2.0424;
435.9000;1.2576;2.0472;
436.2000;1.2593;2.0448;
436.5000;1.2584;2.0424;
436.8000;1.2584;2.0472;
437.1000;1.2568;2.0496;
437.4000;1.2560;2.0496;
437.7000;1.2584;2.0496;
438.0000;1.2576;2.0424;
438.3000;1.2568;2.0496;
438.6000;1.2584;2.0472;
438.9000;1.2593;2.0521;
439.2000;1.2576;2.0569;
439.5000;1.2601;2.0666;
439.8000;1.2584;2.0593;
440.1000;1.2593;2.0666;
440.4000;1.2593;2.0690;
440.7000;1.2576;2.0593;
441.0000;1.2560;2.0641;
441.3000;1.2576;2.0641;
441.6000;1.2584;2.0593;
441.9000;1.2601;2.0545;
442.2000;1.2576;2.0521;
442.5000;1.2584;2.0521;
442.8000;1.2584;2.0617;
443.1000;1.2568;2.0496;
443.4000;1.2593;2.0521;
443.7000;1.2593;2.0545;
444.0000;1.2601;2.0641;
444.3000;1.2584;2.0545;
444.6000;1.2584;2.0521;
444.9000;1.2552;2.0424;
445.2000;1.2593;2.0448;
445.5000;1.2601;2.0496;
445.8000;1.2584;2.0472;
446.1000;1.2576;2.0424;
446.4000;1.2601;2.0569;
446.7000;1.2601;2.0545;
447.0000;1.2584;2.0521;
447.3000;1.2576;2.0545;
447.6000;1.2601;2.0569;
447.9000;1.2593;2.0521;
448.2000;1.2576;2.0569;
448.5000;1.2576;2.0666;
448.8000;1.2625;2.0786;
449.1000;1.2593;2.0690;
449.4000;1.2641;2.0786;
449.7000;1.2593;2.0690;
450.0000;1.2650;2.0811;
450.3000;1.2601;2.0714;
450.6000;1.2593;2.0641;
450.9000;1.2593;2.0641;
451.2000;1.2584;2.0690;
451.5000;1.2641;2.0811;
451.8000;1.2584;2.0666;
452.1000;1.2601;2.0690;
452.4000;1.2593;2.0641;
452.7000;1.2544;2.0545;
453.0000;1.2674;2.0738;
453.3000;1.2593;2.0521;
453.6000;1.2584;2.0545;
453.9000;1.2593;2.0496;
454.2000;1.2593;2.0448;
454.5000;1.2584;2.0327;
454.8000;1.2601;2.0351;
455.1000;1.2576;2.0255;
455.4000;1.2609;2.0376;
455.7000;1.2576;2.0351;
456.0000;1.2568;2.0351;
456.3000;1.2560;2.0424;
456.6000;1.2584;2.0521;
456.9000;1.2576;2.0521;
457.2000;1.2560;2.0521;
457.5000;1.2568;2.0521;
457.8000;1.2560;2.0545;
458.1000;1.2601;2.0641;
458.4000;1.2568;2.0496;
458.7000;1.2584;2.0521;
459.0000;1.2568;2.0545;
459.3000;1.2601;2.0521;
459.6000;1.2576;2.0472;
459.9000;1.2584;2.0496;
460.2000;1.2658;2.0569;
460.5000;1.2593;2.0400;
460.8000;1.2584;2.0400;
461.1000;1.2576;2.0376;
461.4000;1.2584;2.0351;
461.7000;1.2609;2.0472;
462.0000;1.2601;2.0448;
462.3000;1.2584;2.0424;
462.6000;1.2568;2.0376;
462.9000;1.2584;2.0448;
463.2000;1.2593;2.0424;
463.5000;1.2568;2.0424;
463.8000;1.2568;2.0400;
464.1000;1.2593;2.0496;
464.4000;1.2601;2.0569;
464.7000;1.2584;2.0545;
465.0000;1.2568;2.0569;
465.3000;1.2625;2.0738;
465.6000;1.2617;2.0714;
465.9000;1.2576;2.0641;
466.2000;1.2601;2.0690;
466.5000;1.2593;2.0714;
466.8000;1.2609;2.0666;
467.1000;1.2584;2.0617;
467.4000;1.2584;2.0569;
467.7000;1.2593;2.0690;
468.0000;1.2584;2.0690;
468.3000;1.2584;2.0666;
468.6000;1.2593;2.0690;
468.9000;1.2584;2.0641;
469.2000;1.2576;2.0545;
469.5000;1.2584;2.0496;
469.8000;1.2552;2.0448;
470.1000;1.2593;2.0545;
470.4000;1.2576;2.0545;
470.7000;1.2609;2.0593;
471.0000;1.2593;2.0617;
471.3000;1.2593;2.0690;
471.6000;1.2584;2.0641;
471.9000;1.2593;2.0666;
472.2000;1.2593;2.0617;
472.5000;1.2576;2.0641;
472.8000;1.2584;2.0690;
473.1000;1.2584;2.0641;
473.4000;1.2560;2.0569;
473.7000;1.2641;2.0762;
474.0000;1.2576;2.0593;
474.3000;1.2552;2.0448;
474.6000;1.2584;2.0545;
474.9000;1.2617;2.0714;
475.2000;1.2584;2.0569;
475.5000;1.2584;2.0545;
475.8000;1.2584;2.0569;
476.1000;1.2617;2.0593;
476.4000;1.2576;2.0593;
476.7000;1.2617;2.0666;
477.0000;1.2593;2.0569;
477.3000;1.2593;2.0617;
477.6000;1.2576;2.0641;
477.9000;1.2568;2.0569;
478.2000;1.2576;2.0593;
478.5000;1.2593;2.0593;
478.8000;1.2584;2.0569;
479.1000;1.2560;2.0496;
479.4000;1.2584;2.0617;
479.7000;1.2552;2.0593;
480.0000;1.2576;2.0666;
480.3000;1.2568;2.0569;
480.6000;1.2576;2.0545;
480.9000;1.2601;2.0569;
481.2000;1.2568;2.0472;
481.5000;1.2576;2.0448;
481.8000;1.2576;2.0496;
482.1000;1.2584;2.0593;
482.4000;1.2576;2.0641;
482.7000;1.2576;2.0569;
483.0000;1.2560;2.0521;
483.3000;1.2601;2.0666;
483.6000;1.2633;2.0714;
483.9000;1.2609;2.0690;
484.2000;1.2568;2.0569;
484.5000;1.2593;2.0617;
484.8000;1.2576;2.0496;
485.1000;1.2584;2.0496;
485.4000;1.2576;2.0545;
485.7000;1.2560;2.0545;
486.0000;1.2584;2.0593;
486.3000;1.2568;2.0641;
486.6000;1.2536;2.0521;
486.9000;1.2593;2.0690;
487.2000;1.2584;2.0593;
487.5000;1.2633;2.0641;
487.8000;1.2593;2.0593;
488.1000;1.2568;2.0593;
488.4000;1.2568;2.0690;
488.7000;1.2576;2.0666;
489.0000;1.2568;2.0617;
489.3000;1.2544;2.0617;
489.6000;1.2568;2.0714;
489.9000;1.2560;2.0762;
490.2000;1.2544;2.0714;
490.5000;1.2609;2.0811;
490.8000;1.2536;2.0738;
491.1000;1.2568;2.0738;
491.4000;1.2617;2.0811;
491.7000;1.2576;2.0593;
492.0000;1.2576;2.0593;
492.3000;1.2584;2.0617;
492.6000;1.2568;2.0593;
492.9000;1.2576;2.0617;
493.2000;1.2568;2.0545;
493.5000;1.2576;2.0641;
493.8000;1.2568;2.0714;
494.1000;1.2576;2.0762;
494.4000;1.2584;2.0690;
494.7000;1.2568;2.0690;
495.0000;1.2576;2.0666;
495.3000;1.2576;2.0593;
495.6000;1.2625;2.0617;
495.9000;1.2609;2.0569;
496.2000;1.2576;2.0521;
496.5000;1.2609;2.0593;
496.8000;1.2576;2.0593;
497.1000;1.2568;2.0641;
497.4000;1.2584;2.0762;
497.7000;1.2593;2.0738;
498.0000;1.2544;2.0666;
498.3000;1.2576;2.0690;
498.6000;1.2576;2.0617;
498.9000;1.2584;2.0666;
499.2000;1.2552;2.0617;
499.5000;1.2576;2.0714;
499.8000;1.2584;2.0714;
500.1000;1.2527;2.0641;
500.4000;1.2568;2.0666;
500.7000;1.2584;2.0666;
501.0000;1.2576;2.0593;
501.3000;1.2593;2.0617;
501.6000;1.2593;2.0666;
501.9000;1.2536;2.0521;
502.2000;1.2584;2.0762;
502.5000;1.2576;2.0641;
502.8000;1.2576;2.0593;
503.1000;1.2576;2.0593;
503.4000;1.2584;2.0666;
503.7000;1.2536;2.0593;
504.0000;1.2584;2.0690;
504.3000;1.2560;2.0593;
504.6000;1.2568;2.0666;
504.9000;1.2568;2.0666;
505.2000;1.2584;2.0545;
505.5000;1.2584;2.0569;
505.8000;1.2560;2.0496;
506.1000;1.2593;2.0593;
506.4000;1.2593;2.0617;
506.7000;1.2593;2.0569;
507.0000;1.2584;2.0521;
507.3000;1.2593;2.0593;
507.6000;1.2593;2.0641;
507.9000;1.2584;2.0617;
508.2000;1.2527;2.0545;
508.5000;1.2584;2.0617;
508.8000;1.2576;2.0593;
509.1000;1.2576;2.0690;
509.4000;1.2552;2.0666;
509.7000;1.2568;2.0811;
510.0000;1.2568;2.0859;
510.3000;1.2576;2.0786;
510.6000;1.2560;2.0666;
510.9000;1.2576;2.0593;
511.2000;1.2584;2.0521;
511.5000;1.2609;2.0569;
511.8000;1.2584;2.0472;
512.1000;1.2576;2.0496;
512.4000;1.2560;2.0545;
512.7000;1.2584;2.0762;
513.0000;1.2601;2.0714;
513.3000;1.2576;2.0617;
513.6000;1.2601;2.0762;
513.9000;1.2560;2.0641;
514.2000;1.2576;2.0617;
514.5000;1.2552;2.0569;
514.8000;1.2560;2.0641;
515.1000;1.2568;2.0593;
515.4000;1.2568;2.0593;
515.7000;1.2584;2.0690;
516.0000;1.2584;2.0690;
516.3000;1.2560;2.0617;
516.6000;1.2576;2.0593;
516.9000;1.2568;2.0521;
517.2000;1.2576;2.0496;
517.5000;1.2560;2.0521;
517.8000;1.2568;2.0545;
518.1000;1.2576;2.0593;
518.4000;1.2593;2.0593;
518.7000;1.2593;2.0593;
519.0000;1.2576;2.0593;
519.3000;1.2625;2.0617;
519.6000;1.2584;2.0521;
519.9000;1.2633;2.0714;
520.2000;1.2576;2.0593;
520.5000;1.2601;2.0521;
520.8000;1.2593;2.0496;
521.1000;1.2593;2.0569;
521.4000;1.2568;2.0521;
521.7000;1.2584;2.0521;
522.0000;1.2593;2.0569;
522.3000;1.2576;2.0569;
522.6000;1.2552;2.0496;
522.9000;1.2568;2.0545;
523.2000;1.2584;2.0593;
523.5000;1.2568;2.0593;
523.8000;1.2568;2.0545;
524.1000;1.2593;2.0545;
524.4000;1.2609;2.0593;
524.7000;1.2560;2.0545;
525.0000;1.2536;2.0472;
525.3000;1.2568;2.0569;
525.6000;1.2568;2.0569;
525.9000;1.2576;2.0569;
526.2000;1.2536;2.0496;
526.5000;1.2576;2.0472;
526.8000;1.2584;2.0496;
527.1000;1.2584;2.0400;
527.4000;1.2576;2.0400;
527.7000;1.2552;2.0351;
528.0000;1.2576;2.0472;
528.3000;1.2584;2.0472;
528.6000;1.2568;2.0521;
528.9000;1.2568;2.0545;
529.2000;1.2617;2.0666;
529.5000;1.2552;2.0593;
529.8000;1.2560;2.0617;
530.1000;1.2527;2.0593;
530.4000;1.2576;2.0714;
530.7000;1.2576;2.0690;
531.0000;1.2576;2.0714;
531.3000;1.2576;2.0690;
531.6000;1.2568;2.0690;
531.9000;1.2584;2.0762;
532.2000;1.2576;2.0714;
532.5000;1.2576;2.0738;
532.8000;1.2560;2.0666;
533.1000;1.2568;2.0690;
533.4000;1.2576;2.0714;
533.7000;1.2576;2.0641;
534.0000;1.2576;2.0617;
534.3000;1.2576;2.0617;
534.6000;1.2576;2.0593;
534.9000;1.2609;2.0641;
535.2000;1.2576;2.0521;
535.5000;1.2633;2.0617;
535.8000;1.2560;2.0496;
536.1000;1.2560;2.0472;
536.4000;1.2560;2.0472;
536.7000;1.2552;2.0496;
537.0000;1.2568;2.0545;
537.3000;1.2576;2.0641;
537.6000;1.2568;2.0666;
537.9000;1.2536;2.0617;
538.2000;1.2584;2.0617;
538.5000;1.2584;2.0593;
538.8000;1.2576;2.0569;
539.1000;1.2576;2.0593;
539.4000;1.2576;2.0569;
539.7000;1.2560;2.0496;
540.0000;1.2576;2.0472;
540.3000;1.2576;2.0424;
540.6000;1.2560;2.0376;
540.9000;1.2609;2.0521;
541.2000;1.2576;2.0472;
541.5000;1.2568;2.0448;
541.8000;1.2568;2.0424;
542.1000;1.2584;2.0496;
542.4000;1.2650;2.0641;
542.7000;1.2503;2.0351;
543.0000;1.2601;2.0617;
543.3000;1.2593;2.0593;
543.6000;1.2576;2.0545;
543.9000;1.2568;2.0496;
544.2000;1.2568;2.0521;
544.5000;1.2568;2.0496;
544.8000;1.2576;2.0521;
545.1000;1.2593;2.0569;
545.4000;1.2495;2.0351;
545.7000;1.2519;2.0424;
546.0000;1.2584;2.0617;
546.3000;1.2552;2.0545;
546.6000;1.2568;2.0496;
546.9000;1.2576;2.0521;
547.2000;1.2568;2.0472;
547.5000;1.2560;2.0424;
547.8000;1.2568;2.0496;
548.1000;1.2560;2.0496;
548.4000;1.2593;2.0641;
548.7000;1.2641;2.0738;
549.0000;1.2593;2.0593;
549.3000;1.2568;2.0521;
549.6000;1.2552;2.0496;
549.9000;1.2568;2.0617;
550.2000;1.2576;2.0641;
550.5000;1.2560;2.0617;
550.8000;1.2560;2.0569;
551.1000;1.2568;2.0521;
551.4000;1.2576;2.0593;
551.7000;1.2576;2.0666;
552.0000;1.2544;2.0593;
552.3000;1.2568;2.0690;
552.6000;1.2568;2.0690;
552.9000;1.2576;2.0690;
553.2000;1.2544;2.0617;
553.5000;1.2568;2.0545;
553.8000;1.2593;2.0593;
554.1000;1.2560;2.0472;
554.4000;1.2576;2.0496;
554.7000;1.2576;2.0448;
555.0000;1.2617;2.0496;
555.3000;1.2584;2.0376;
555.6000;1.2576;2.0327;
555.9000;1.2576;2.0351;
556.2000;1.2593;2.0327;
556.5000;1.2593;2.0279;
556.8000;1.2560;2.0279;
557.1000;1.2560;2.0279;
557.4000;1.2576;2.0303;
557.7000;1.2568;2.0279;
558.0000;1.2560;2.0376;
558.3000;1.2633;2.0569;
558.6000;1.2511;2.0206;
558.9000;1.2584;2.0376;
559.2000;1.2568;2.0400;
559.5000;1.2519;2.0376;
559.8000;1.2560;2.0521;
560.1000;1.2576;2.0545;
560.4000;1.2576;2.0472;
560.7000;1.2552;2.0424;
561.0000;1.2544;2.0496;
561.3000;1.2544;2.0400;
561.6000;1.2568;2.0424;
561.9000;1.2576;2.0496;
562.2000;1.2560;2.0472;
562.5000;1.2544;2.0448;
562.8000;1.2593;2.0545;
563.1000;1.2576;2.0424;
563.4000;1.2560;2.0448;
563.7000;1.2576;2.0472;
564.0000;1.2593;2.0593;
564.3000;1.2625;2.0641;
564.6000;1.2568;2.0496;
564.9000;1.2560;2.0521;
565.2000;1.2568;2.0569;
565.5000;1.2576;2.0521;
565.8000;1.2536;2.0424;
566.1000;1.2568;2.0521;
566.4000;1.2609;2.0593;
566.7000;1.2568;2.0521;
567.0000;1.2617;2.0714;
567.3000;1.2552;2.0569;
567.6000;1.2593;2.0714;
567.9000;1.2584;2.0714;
568.2000;1.2576;2.0714;
568.5000;1.2552;2.0593;
568.8000;1.2527;2.0521;
569.1000;1.2576;2.0641;
569.4000;1.2568;2.0593;
569.7000;1.2560;2.0521;
570.0000;1.2560;2.0472;
570.3000;1.2552;2.0424;
570.6000;1.2560;2.0496;
570.9000;1.2576;2.0496;
571.2000;1.2568;2.0496;
571.5000;1.2568;2.0521;
571.8000;1.2576;2.0593;
572.1000;1.2576;2.0521;
572.4000;1.2576;2.0521;
572.7000;1.2552;2.0448;
573.0000;1.2584;2.0545;
573.3000;1.2568;2.0545;
573.6000;1.2576;2.0569;
573.9000;1.2568;2.0617;
574.2000;1.2650;2.0786;
574.5000;1.2568;2.0521;
574.8000;1.2560;2.0472;
575.1000;1.2544;2.0424;
575.4000;1.2560;2.0569;
575.7000;1.2584;2.0545;
576.0000;1.2576;2.0472;
576.3000;1.2568;2.0448;
576.6000;1.2584;2.0376;
576.9000;1.2568;2.0376;
577.2000;1.2568;2.0424;
577.5000;1.2544;2.0424;
577.8000;1.2568;2.0472;
578.1000;1.2576;2.0472;
578.4000;1.2576;2.0496;
578.7000;1.2568;2.0545;
579.0000;1.2536;2.0400;
579.3000;1.2568;2.0376;
579.6000;1.2584;2.0448;
579.9000;1.2568;2.0496;
580.2000;1.2584;2.0617;
580.5000;1.2576;2.0666;
580.8000;1.2576;2.0690;
581.1000;1.2568;2.0617;
581.4000;1.2560;2.0666;
581.7000;1.2560;2.0569;
582.0000;1.2576;2.0641;
582.3000;1.2576;2.0641;
582.6000;1.2560;2.0593;
582.9000;1.2560;2.0593;
583.2000;1.2568;2.0569;
583.5000;1.2617;2.0593;
583.8000;1.2576;2.0521;
584.1000;1.2560;2.0400;
584.4000;1.2503;2.0231;
584.7000;1.2576;2.0351;
585.0000;1.2568;2.0376;
585.3000;1.2544;2.0448;
585.6000;1.2560;2.0545;
585.9000;1.2503;2.0448;
586.2000;1.2536;2.0569;
586.5000;1.2544;2.0545;
586.8000;1.2544;2.0569;
587.1000;1.2536;2.0545;
587.4000;1.2568;2.0545;
587.7000;1.2560;2.0545;
588.0000;1.2560;2.0496;
588.3000;1.2560;2.0400;
588.6000;1.2584;2.0376;
588.9000;1.2544;2.0327;
589.2000;1.2568;2.0376;
589.5000;1.2519;2.0255;
589.8000;1.2576;2.0424;
590.1000;1.2560;2.0424;
590.4000;1.2560;2.0472;
590.7000;1.2560;2.0448;
591.0000;1.2576;2.0472;
591.3000;1.2560;2.0569;
591.6000;1.2568;2.0496;
591.9000;1.2576;2.0424;
592.2000;1.2568;2.0448;
592.5000;1.2552;2.0448;
592.8000;1.2552;2.0424;
593.1000;1.2568;2.0448;
593.4000;1.2560;2.0448;
593.7000;1.2568;2.0521;
594.0000;1.2544;2.0376;
594.3000;1.2560;2.0351;
594.6000;1.2552;2.0303;
594.9000;1.2576;2.0303;
595.2000;1.2560;2.0303;
595.5000;1.2568;2.0303;
595.8000;1.2552;2.0327;
596.1000;1.2576;2.0424;
596.4000;1.2544;2.0376;
596.7000;1.2536;2.0327;
597.0000;1.2544;2.0255;
597.3000;1.2568;2.0351;
597.6000;1.2576;2.0400;
597.9000;1.2552;2.0351;
598.2000;1.2584;2.0448;
598.5000;1.2552;2.0448;
598.8000;1.2552;2.0496;
599.1000;1.2560;2.0472;
599.4000;1.2536;2.0400;
599.7000;1.2576;2.0376;
600.0000;1.2544;2.0255;
600.3000;1.2609;2.0303;
600.6000;1.2552;2.0061;
600.9000;1.2495;1.9989;
601.2000;1.2357;1.9723;
601.5000;1.2267;1.9505;
601.8000;1.2161;1.9288;
602.1000;1.2015;1.9119;
602.4000;1.1941;1.9022;
602.7000;1.1827;1.8780;
603.0000;1.1722;1.8587;
603.3000;1.1632;1.8418;
603.6000;1.1534;1.8249;
603.9000;1.1445;1.8055;
604.2000;1.1355;1.7983;
604.5000;1.1298;1.7934;
604.8000;1.1217;1.7862;
605.1000;1.1136;1.7693;
605.4000;1.1087;1.7572;
605.7000;1.0989;1.7523;
606.0000;1.0916;1.7378;
606.3000;1.0851;1.7403;
606.6000;1.0769;1.7330;
606.9000;1.0704;1.7233;
607.2000;1.0647;1.7185;
607.5000;1.0623;1.7209;
607.8000;1.0492;1.6968;
608.1000;1.0484;1.7016;
608.4000;1.0444;1.6919;
608.7000;1.0387;1.6992;
609.0000;1.0354;1.6943;
609.3000;1.0289;1.6895;
609.6000;1.0240;1.6774;
609.9000;1.0208;1.6774;
610.2000;1.0167;1.6871;
610.5000;1.0102;1.6823;
610.8000;1.0061;1.6871;
611.1000;1.0012;1.6919;
611.4000;0.9972;1.6943;
611.7000;0.9931;1.6798;
612.0000;0.9882;1.6678;
612.3000;0.9833;1.6702;
612.6000;0.9801;1.6653;
612.9000;0.9752;1.6678;
613.2000;0.9727;1.6702;
613.5000;0.9678;1.6605;
613.8000;0.9638;1.6557;
614.1000;0.9597;1.6460;
614.4000;0.9573;1.6387;
614.7000;0.9532;1.6436;
615.0000;0.9508;1.6339;
615.3000;0.9475;1.6315;
615.6000;0.9451;1.6339;
615.9000;0.9426;1.6315;
616.2000;0.9345;1.6122;
616.5000;0.9385;1.6267;
616.8000;0.9312;1.6146;
617.1000;0.9255;1.6097;
617.4000;0.9247;1.6194;
617.7000;0.9223;1.6146;
618.0000;0.9190;1.6049;
618.3000;0.9198;1.6097;
618.6000;0.9133;1.6025;
618.9000;0.9092;1.5977;
619.2000;0.9092;1.6073;
619.5000;0.9044;1.6025;
619.8000;0.9003;1.5952;
620.1000;0.9011;1.5928;
620.4000;0.8987;1.5928;
620.7000;0.8954;1.5928;
621.0000;0.8970;1.6049;
621.3000;0.8905;1.5928;
621.6000;0.8881;1.5928;
621.9000;0.8864;1.5952;
622.2000;0.8791;1.5904;
622.5000;0.8816;1.6073;
622.8000;0.8751;1.5977;
623.1000;0.8759;1.6073;
623.4000;0.8734;1.6001;
623.7000;0.8775;1.6073;
624.0000;0.8702;1.5904;
624.3000;0.8628;1.5759;
624.6000;0.8669;1.5856;
624.9000;0.8661;1.5952;
625.2000;0.8637;1.5928;
625.5000;0.8612;1.6001;
625.8000;0.8596;1.6025;
626.1000;0.8571;1.5977;
626.4000;0.8563;1.5952;
626.7000;0.8563;1.6025;
627.0000;0.8523;1.5928;
627.3000;0.8506;1.5832;
627.6000;0.8498;1.5928;
627.9000;0.8506;1.6049;
628.2000;0.8449;1.5977;
628.5000;0.8417;1.5856;
628.8000;0.8409;1.5783;
629.1000;0.8400;1.5783;
629.4000;0.8376;1.5783;
629.7000;0.8352;1.5711;
630.0000;0.8368;1.5832;
630.3000;0.8327;1.5783;
630.6000;0.8376;1.5856;
630.9000;0.8238;1.5590;
631.2000;0.8270;1.5687;
631.5000;0.8278;1.5856;
631.8000;0.8270;1.5807;
632.1000;0.8254;1.5832;
632.4000;0.8164;1.5614;
632.7000;0.8213;1.5783;
633.0000;0.8205;1.5928;
633.3000;0.8197;1.5977;
633.6000;0.8173;1.5880;
633.9000;0.8156;1.5904;
634.2000;0.8156;1.5880;
634.5000;0.8140;1.5783;
634.8000;0.8107;1.5687;
635.1000;0.8107;1.5735;
635.4000;0.8091;1.5759;
635.7000;0.8091;1.5662;
636.0000;0.8083;1.5662;
636.3000;0.8075;1.5614;
636.6000;0.8050;1.5590;
636.9000;0.8083;1.5687;
637.2000;0.8034;1.5711;
637.5000;0.8018;1.5711;
637.8000;0.7985;1.5614;
638.1000;0.8002;1.5711;
638.4000;0.7985;1.5590;
638.7000;0.7977;1.5566;
639.0000;0.7985;1.5687;
639.3000;0.7993;1.5735;
639.6000;0.7961;1.5638;
639.9000;0.7937;1.5662;
640.2000;0.7928;1.5687;
640.5000;0.7880;1.5638;
640.8000;0.7896;1.5807;
641.1000;0.7880;1.5856;
641.4000;0.7880;1.5880;
641.7000;0.7871;1.5735;
642.0000;0.7871;1.5759;
642.3000;0.7863;1.5783;
642.6000;0.7847;1.5735;
642.9000;0.7831;1.5759;
643.2000;0.7823;1.5807;
643.5000;0.7823;1.5807;
643.8000;0.7823;1.5759;
644.1000;0.7806;1.5735;
644.4000;0.7798;1.5735;
644.7000;0.7790;1.5735;
645.0000;0.7774;1.5662;
645.3000;0.7757;1.5590;
645.6000;0.7774;1.5566;
645.9000;0.7757;1.5469;
646.2000;0.7814;1.5687;
646.5000;0.7725;1.5542;
646.8000;0.7725;1.5542;
647.1000;0.7709;1.5493;
647.4000;0.7700;1.5469;
647.7000;0.7684;1.5517;
648.0000;0.7684;1.5542;
648.3000;0.7660;1.5445;
648.6000;0.7668;1.5493;
648.9000;0.7668;1.5493;
649.2000;0.7652;1.5421;
649.5000;0.7660;1.5445;
649.8000;0.7652;1.5517;
650.1000;0.7643;1.5493;
650.4000;0.7627;1.5469;
650.7000;0.7627;1.5396;
651.0000;0.7578;1.5372;
651.3000;0.7603;1.5396;
651.6000;0.7554;1.5324;
651.9000;0.7578;1.5493;
652.2000;0.7595;1.5638;
652.5000;0.7586;1.5662;
652.8000;0.7562;1.5638;
653.1000;0.7530;1.5662;
653.4000;0.7546;1.5759;
653.7000;0.7538;1.5662;
654.0000;0.7546;1.5711;
654.3000;0.7546;1.5759;
654.6000;0.7530;1.5711;
654.9000;0.7530;1.5662;
655.2000;0.7497;1.5662;
655.5000;0.7448;1.5469;
655.8000;0.7505;1.5614;
656.1000;0.7521;1.5662;
656.4000;0.7505;1.5711;
656.7000;0.7497;1.5711;
657.0000;0.7513;1.5783;
657.3000;0.7505;1.5880;
657.6000;0.7473;1.5832;
657.9000;0.7456;1.5687;
658.2000;0.7448;1.5711;
658.5000;0.7464;1.5614;
658.8000;0.7456;1.5445;
659.1000;0.7448;1.5493;
659.4000;0.7464;1.5469;
659.7000;0.7481;1.5566;
660.0000;0.7424;1.5396;
660.3000;0.7416;1.5372;
660.6000;0.7416;1.5348;
660.9000;0.7416;1.5348;
661.2000;0.7407;1.5348;
661.5000;0.7334;1.5179;
661.8000;0.7391;1.5372;
662.1000;0.7383;1.5372;
662.4000;0.7383;1.5469;
662.7000;0.7359;1.5445;
663.0000;0.7359;1.5421;
663.3000;0.7326;1.5348;
663.6000;0.7342;1.5493;
663.9000;0.7359;1.5517;
664.2000;0.7334;1.5517;
664.5000;0.7285;1.5469;
664.8000;0.7318;1.5638;
665.1000;0.7350;1.5687;
665.4000;0.7326;1.5735;
665.7000;0.7326;1.5711;
666.0000;0.7326;1.5614;
666.3000;0.7326;1.5614;
666.6000;0.7310;1.5614;
666.9000;0.7302;1.5638;
667.2000;0.7302;1.5759;
667.5000;0.7310;1.5759;
667.8000;0.7277;1.5711;
668.1000;0.7269;1.5735;
668.4000;0.7285;1.5880;
668.7000;0.7285;1.5807;
669.0000;0.7293;1.5807;
669.3000;0.7277;1.5711;
669.6000;0.7277;1.5687;
669.9000;0.7277;1.5711;
670.2000;0.7245;1.5687;
670.5000;0.7245;1.5662;
670.8000;0.7245;1.5614;
671.1000;0.7253;1.5638;
671.4000;0.7245;1.5638;
671.7000;0.7253;1.5735;
672.0000;0.7228;1.5759;
672.3000;0.7196;1.5662;
672.6000;0.7220;1.5662;
672.9000;0.7220;1.5735;
673.2000;0.7212;1.5662;
673.5000;0.7220;1.5590;
673.8000;0.7212;1.5566;
674.1000;0.7179;1.5445;
674.4000;0.7171;1.5396;
674.7000;0.7179;1.5493;
675.0000;0.7163;1.5542;
675.3000;0.7220;1.5759;
675.6000;0.7163;1.5662;
675.9000;0.7163;1.5735;
676.2000;0.7155;1.5759;
676.5000;0.7179;1.5783;
676.8000;0.7123;1.5687;
677.1000;0.7155;1.5783;
677.4000;0.7114;1.5590;
677.7000;0.7139;1.5711;
678.0000;0.7155;1.5759;
678.3000;0.7163;1.5638;
678.6000;0.7114;1.5469;
678.9000;0.7123;1.5396;
679.2000;0.7131;1.5421;
679.5000;0.7123;1.5372;
679.8000;0.7114;1.5445;
680.1000;0.7123;1.5517;
680.4000;0.7106;1.5590;
680.7000;0.7114;1.5566;
681.0000;0.7114;1.5638;
681.3000;0.7147;1.5735;
681.6000;0.7098;1.5638;
681.9000;0.7106;1.5711;
682.2000;0.7106;1.5783;
682.5000;0.7098;1.5807;
682.8000;0.7106;1.5735;
683.1000;0.7098;1.5687;
683.4000;0.7090;1.5687;
683.7000;0.7082;1.5687;
684.0000;0.7074;1.5614;
684.3000;0.7074;1.5638;
684.6000;0.7074;1.5517;
684.9000;0.7057;1.5421;
685.2000;0.7041;1.5493;
685.5000;0.7074;1.5517;
685.8000;0.7066;1.5493;
686.1000;0.7033;1.5445;
686.4000;0.7049;1.5566;
686.7000;0.7041;1.5614;
687.0000;0.7033;1.5517;
687.3000;0.7000;1.5396;
687.6000;0.6968;1.5372;
687.9000;0.7033;1.5469;
688.2000;0.7025;1.5517;
688.5000;0.7009;1.5469;
688.8000;0.7009;1.5493;
689.1000;0.7041;1.5638;
689.4000;0.7009;1.5590;
689.7000;0.7009;1.5517;
690.0000;0.6992;1.5517;
690.3000;0.6992;1.5590;
690.6000;0.6992;1.5590;
690.9000;0.7000;1.5662;
691.2000;0.6968;1.5566;
691.5000;0.6984;1.5638;
691.8000;0.6984;1.5566;
692.1000;0.6992;1.5517;
692.4000;0.6968;1.5445;
692.7000;0.6968;1.5566;
693.0000;0.6976;1.5590;
693.3000;0.6960;1.5566;
693.6000;0.6960;1.5590;
693.9000;0.6976;1.5638;
694.2000;0.6984;1.5687;
694.5000;0.6960;1.5687;
694.8000;0.6968;1.5662;
695.1000;0.6960;1.5638;
695.4000;0.6976;1.5687;
695.7000;0.6968;1.5638;
696.0000;0.6960;1.5662;
696.3000;0.6935;1.5638;
696.6000;0.6952;1.5662;
696.9000;0.6960;1.5662;
697.2000;0.6968;1.5614;
697.5000;0.6943;1.5542;
697.8000;0.6903;1.5469;
698.1000;0.6943;1.5517;
698.4000;0.6943;1.5469;
698.7000;0.7000;1.5614;
699.0000;0.6960;1.5517;
699.3000;0.6935;1.5493;
699.6000;0.6911;1.5469;
699.9000;0.6911;1.5566;
700.2000;0.6919;1.5662;
700.5000;0.6911;1.5687;
700.8000;0.6927;1.5783;
701.1000;0.6903;1.5735;
701.4000;0.6903;1.5735;
701.7000;0.6903;1.5759;
702.0000;0.6878;1.5687;
702.3000;0.6895;1.5662;
702.6000;0.6903;1.5687;
702.9000;0.6903;1.5735;
703.2000;0.6895;1.5735;
703.5000;0.6895;1.5711;
703.8000;0.6895;1.5687;
704.1000;0.6886;1.5662;
704.4000;0.6903;1.5638;
704.7000;0.6895;1.5687;
705.0000;0.6862;1.5735;
705.3000;0.6854;1.5759;
705.6000;0.6846;1.5662;
705.9000;0.6878;1.5759;
706.2000;0.6862;1.5687;
706.5000;0.6862;1.5662;
706.8000;0.6797;1.5517;
707.1000;0.6870;1.5638;
707.4000;0.6846;1.5614;
707.7000;0.6886;1.5759;
708.0000;0.6846;1.5687;
708.3000;0.6854;1.5783;
708.6000;0.6862;1.5711;
708.9000;0.6846;1.5662;
709.2000;0.6838;1.5711;
709.5000;0.6854;1.5783;
709.8000;0.6838;1.5783;
710.1000;0.6838;1.5759;
710.4000;0.6829;1.5662;
710.7000;0.6781;1.5566;
711.0000;0.6829;1.5783;
711.3000;0.6813;1.5832;
711.6000;0.6821;1.5856;
711.9000;0.6838;1.5952;
712.2000;0.6838;1.6001;
712.5000;0.6805;1.5856;
712.8000;0.6821;1.5880;
713.1000;0.6797;1.5856;
713.4000;0.6821;1.6073;
713.7000;0.6813;1.6049;
714.0000;0.6805;1.5928;
714.3000;0.6805;1.5832;
714.6000;0.6821;1.5928;
714.9000;0.6805;1.5807;
715.2000;0.6797;1.5735;
715.5000;0.6854;1.6001;
715.8000;0.6805;1.5856;
716.1000;0.6797;1.5904;
716.4000;0.6781;1.5904;
716.7000;0.6813;1.5880;
717.0000;0.6789;1.5856;
717.3000;0.6789;1.5904;
717.6000;0.6805;1.6025;
717.9000;0.6789;1.6025;
718.2000;0.6781;1.5904;
718.5000;0.6764;1.5807;
718.8000;0.6846;1.6001;
719.1000;0.6732;1.5759;
719.4000;0.6764;1.5880;
719.7000;0.6764;1.5977;
720.0000;0.6764;1.5952;
720.3000;0.6764;1.5952;
720.6000;0.6764;1.5904;
720.9000;0.6772;1.5832;
721.2000;0.6748;1.5711;
721.5000;0.6772;1.5807;
721.8000;0.6764;1.5807;
722.1000;0.6756;1.5807;
722.4000;0.6748;1.5880;
722.7000;0.6756;1.5856;
723.0000;0.6764;1.5928;
723.3000;0.6748;1.5928;
723.6000;0.6756;1.5904;
723.9000;0.6756;1.5856;
724.2000;0.6756;1.5856;
724.5000;0.6748;1.5880;
724.8000;0.6740;1.5856;
725.1000;0.6748;1.5904;
725.4000;0.6732;1.5880;
725.7000;0.6683;1.5759;
726.0000;0.6748;1.5856;
726.3000;0.6748;1.5904;
726.6000;0.6748;1.5880;
726.9000;0.6707;1.5735;
727.2000;0.6675;1.5711;
727.5000;0.6764;1.5928;
727.8000;0.6724;1.5904;
728.1000;0.6732;1.5880;
728.4000;0.6740;1.5880;
728.7000;0.6699;1.5807;
729.0000;0.6707;1.5783;
729.3000;0.6732;1.5759;
729.6000;0.6772;1.5928;
729.9000;0.6716;1.5807;
730.2000;0.6732;1.5904;
730.5000;0.6724;1.5952;
730.8000;0.6732;1.5977;
731.1000;0.6724;1.5977;
731.4000;0.6691;1.6025;
731.7000;0.6732;1.6122;
732.0000;0.6699;1.6025;
732.3000;0.6707;1.6001;
732.6000;0.6716;1.6001;
732.9000;0.6707;1.5904;
733.2000;0.6691;1.5952;
733.5000;0.6683;1.5928;
733.8000;0.6732;1.5952;
734.1000;0.6699;1.5880;
734.4000;0.6732;1.5952;
734.7000;0.6691;1.5832;
735.0000;0.6634;1.5735;
735.3000;0.6691;1.5783;
735.6000;0.6667;1.5638;
735.9000;0.6683;1.5711;
736.2000;0.6691;1.5759;
736.5000;0.6691;1.5687;
736.8000;0.6691;1.5807;
737.1000;0.6675;1.5783;
737.4000;0.6667;1.5759;
737.7000;0.6667;1.5711;
738.0000;0.6691;1.5807;
738.3000;0.6667;1.5711;
738.6000;0.6699;1.5735;
738.9000;0.6659;1.5687;
739.2000;0.6724;1.5880;
739.5000;0.6691;1.5856;
739.8000;0.6667;1.5759;
740.1000;0.6675;1.5807;
740.4000;0.6683;1.5856;
740.7000;0.6675;1.5807;
741.0000;0.6675;1.5832;
741.3000;0.6634;1.5759;
741.6000;0.6618;1.5687;
741.9000;0.6650;1.5759;
742.2000;0.6642;1.5735;
742.5000;0.6634;1.5832;
742.8000;0.6650;1.5880;
743.1000;0.6650;1.5904;
743.4000;0.6650;1.5977;
743.7000;0.6667;1.6025;
744.0000;0.6650;1.5952;
744.3000;0.6659;1.5952;
744.6000;0.6650;1.5856;
744.9000;0.6626;1.5832;
745.2000;0.6650;1.5783;
745.5000;0.6650;1.5783;
745.8000;0.6634;1.5687;
746.1000;0.6593;1.5614;
746.4000;0.6634;1.5759;
746.7000;0.6642;1.5759;
747.0000;0.6642;1.5711;
747.3000;0.6626;1.5687;
747.6000;0.6593;1.5566;
747.9000;0.6626;1.5711;
748.2000;0.6634;1.5735;
748.5000;0.6667;1.5832;
748.8000;0.6642;1.5783;
749.1000;0.6569;1.5662;
749.4000;0.6642;1.5856;
749.7000;0.6634;1.5856;
750.0000;0.6626;1.5904;
750.3000;0.6602;1.5928;
750.6000;0.6618;1.6025;
750.9000;0.6634;1.6097;
751.2000;0.6610;1.5904;
751.5000;0.6593;1.5856;
751.8000;0.6602;1.5807;
752.1000;0.6602;1.5662;
752.4000;0.6610;1.5687;
752.7000;0.6593;1.5687;
753.0000;0.6610;1.5735;
753.3000;0.6618;1.5711;
753.6000;0.6610;1.5759;
753.9000;0.6610;1.5807;
754.2000;0.6610;1.5783;
754.5000;0.6618;1.5759;
754.8000;0.6618;1.5735;
755.1000;0.6610;1.5783;
755.4000;0.6618;1.5880;
755.7000;0.6610;1.5880;
756.0000;0.6585;1.5904;
756.3000;0.6602;1.5952;
756.6000;0.6610;1.5952;
756.9000;0.6593;1.5928;
757.2000;0.6602;1.5928;
757.5000;0.6585;1.5783;
757.8000;0.6585;1.5832;
758.1000;0.6618;1.5928;
758.4000;0.6610;1.5952;
758.7000;0.6585;1.5807;
759.0000;0.6593;1.5807;
759.3000;0.6610;1.5880;
759.6000;0.6593;1.5904;
759.9000;0.6593;1.5856;
760.2000;0.6585;1.5807;
760.5000;0.6585;1.5880;
760.8000;0.6577;1.5856;
761.1000;0.6593;1.5904;
761.4000;0.6585;1.5856;
761.7000;0.6561;1.5759;
762.0000;0.6585;1.5856;
762.3000;0.6569;1.5856;
762.6000;0.6569;1.5880;
762.9000;0.6569;1.5904;
763.2000;0.6585;1.6001;
763.5000;0.6577;1.5952;
763.8000;0.6569;1.5880;
764.1000;0.6577;1.5832;
764.4000;0.6577;1.5928;
764.7000;0.6569;1.6001;
765.0000;0.6569;1.5904;
765.3000;0.6569;1.5952;
765.6000;0.6561;1.5952;
765.9000;0.6577;1.5952;
766.2000;0.6569;1.5977;
766.5000;0.6569;1.6025;
766.8000;0.6569;1.6025;
767.1000;0.6561;1.6025;
767.4000;0.6569;1.6025;
767.7000;0.6577;1.6097;
768.0000;0.6561;1.6049;
768.3000;0.6553;1.6001;
768.6000;0.6553;1.5977;
768.9000;0.6577;1.6097;
769.2000;0.6561;1.6001;
769.5000;0.6553;1.6025;
769.8000;0.6569;1.6025;
770.1000;0.6536;1.5952;
770.4000;0.6561;1.5952;
770.7000;0.6569;1.6049;
771.0000;0.6561;1.5928;
771.3000;0.6553;1.5880;
771.6000;0.6536;1.5856;
771.9000;0.6536;1.5856;
772.2000;0.6545;1.5904;
772.5000;0.6545;1.5928;
772.8000;0.6520;1.5928;
773.1000;0.6520;1.5952;
773.4000;0.6536;1.5977;
773.7000;0.6536;1.5952;
774.0000;0.6545;1.6001;
774.3000;0.6520;1.5977;
774.6000;0.6536;1.6073;
774.9000;0.6536;1.6122;
775.2000;0.6545;1.6097;
775.5000;0.6528;1.6146;
775.8000;0.6536;1.6194;
776.1000;0.6528;1.6267;
776.4000;0.6528;1.6242;
776.7000;0.6512;1.6122;
777.0000;0.6528;1.6170;
777.3000;0.6545;1.6170;
777.6000;0.6520;1.6097;
777.9000;0.6545;1.6194;
778.2000;0.6528;1.6146;
778.5000;0.6528;1.6194;
778.8000;0.6561;1.6218;
779.1000;0.6520;1.6146;
779.4000;0.6528;1.6170;
779.7000;0.6561;1.6122;
780.0000;0.6553;1.6001;
780.3000;0.6553;1.5952;
780.6000;0.6528;1.5904;
780.9000;0.6536;1.5904;
781.2000;0.6520;1.5880;
781.5000;0.6536;1.5856;
781.8000;0.6545;1.5904;
782.1000;0.6528;1.5832;
782.4000;0.6512;1.5759;
782.7000;0.6512;1.5759;
783.0000;0.6504;1.5735;
783.3000;0.6520;1.5783;
783.6000;0.6512;1.5687;
783.9000;0.6512;1.5687;
784.2000;0.6504;1.5735;
784.5000;0.6496;1.5759;
784.8000;0.6520;1.5759;
785.1000;0.6520;1.5880;
785.4000;0.6512;1.5904;
785.7000;0.6512;1.5832;
786.0000;0.6520;1.5880;
786.3000;0.6455;1.5807;
786.6000;0.6504;1.5807;
786.9000;0.6488;1.5832;
787.2000;0.6488;1.5904;
787.5000;0.6496;1.5856;
787.8000;0.6496;1.5880;
788.1000;0.6455;1.5783;
788.4000;0.6479;1.5832;
788.7000;0.6455;1.5687;
789.0000;0.6496;1.5735;
789.3000;0.6512;1.5759;
789.6000;0.6504;1.5783;
789.9000;0.6553;1.6049;
790.2000;0.6520;1.5952;
790.5000;0.6528;1.6001;
790.8000;0.6504;1.5928;
791.1000;0.6496;1.5952;
791.4000;0.6520;1.5977;
791.7000;0.6512;1.6025;
792.0000;0.6479;1.6001;
792.3000;0.6496;1.6073;
792.6000;0.6496;1.6097;
792.9000;0.6463;1.6073;
793.2000;0.6504;1.6194;
793.5000;0.6471;1.6194;
793.8000;0.6479;1.6194;
794.1000;0.6488;1.6073;
794.4000;0.6398;1.5832;
794.7000;0.6463;1.5928;
795.0000;0.6471;1.5904;
795.3000;0.6488;1.5952;
795.6000;0.6471;1.5856;
795.9000;0.6463;1.5880;
796.2000;0.6471;1.5880;
796.5000;0.6479;1.6001;
796.8000;0.6471;1.6049;
797.1000;0.6471;1.6049;
797.4000;0.6471;1.6049;
797.7000;0.6479;1.6122;
798.0000;0.6471;1.6049;
798.3000;0.6463;1.6025;
798.6000;0.6447;1.5977;
798.9000;0.6463;1.6025;
799.2000;0.6463;1.6001;
799.5000;0.6463;1.6001;
799.8000;0.6455;1.5904;
800.1000;0.6463;1.5952;
800.4000;0.6455;1.6025;
800.7000;0.6471;1.6073;
801.0000;0.6471;1.6025;
801.3000;0.6488;1.6146;
801.6000;0.6479;1.6146;
801.9000;0.6455;1.6242;
802.2000;0.6479;1.6363;
802.5000;0.6471;1.6387;
802.8000;0.6471;1.6291;
803.1000;0.6463;1.6218;
803.4000;0.6463;1.6146;
803.7000;0.6447;1.6122;
804.0000;0.6471;1.6122;
804.3000;0.6471;1.5977;
804.6000;0.6463;1.6073;
804.9000;0.6471;1.5977;
805.2000;0.6471;1.5977;
805.5000;0.6463;1.5928;
805.8000;0.6455;1.5952;
806.1000;0.6536;1.6097;
806.4000;0.6463;1.5928;
806.7000;0.6471;1.5952;
807.0000;0.6447;1.5856;
807.3000;0.6455;1.5904;
807.6000;0.6447;1.5977;
807.9000;0.6471;1.5952;
808.2000;0.6463;1.5952;
808.5000;0.6455;1.5856;
808.8000;0.6447;1.5856;
809.1000;0.6496;1.6073;
809.4000;0.6431;1.6001;
809.7000;0.6447;1.6025;
810.0000;0.6447;1.6073;
810.3000;0.6479;1.6194;
810.6000;0.6431;1.6097;
810.9000;0.6447;1.6170;
811.2000;0.6439;1.6194;
811.5000;0.6431;1.6097;
811.8000;0.6439;1.6049;
812.1000;0.6455;1.6001;
812.4000;0.6431;1.6001;
812.7000;0.6463;1.6122;
813.0000;0.6439;1.6001;
813.3000;0.6439;1.6001;
813.6000;0.6439;1.6001;
813.9000;0.6422;1.6001;
814.2000;0.6422;1.5904;
814.5000;0.6447;1.5952;
814.8000;0.6439;1.5928;
815.1000;0.6431;1.5880;
815.4000;0.6439;1.5977;
815.7000;0.6447;1.6097;
816.0000;0.6439;1.6146;
816.3000;0.6431;1.6194;
816.6000;0.6439;1.6097;
816.9000;0.6431;1.6097;
817.2000;0.6431;1.6146;
817.5000;0.6431;1.6097;
817.8000;0.6414;1.6073;
818.1000;0.6422;1.6049;
818.4000;0.6431;1.6049;
818.7000;0.6431;1.5977;
819.0000;0.6398;1.5977;
819.3000;0.6439;1.6049;
819.6000;0.6414;1.6049;
819.9000;0.6414;1.6073;
820.2000;0.6414;1.5977;
820.5000;0.6431;1.5928;
820.8000;0.6431;1.5928;
821.1000;0.6422;1.6001;
821.4000;0.6414;1.6073;
821.7000;0.6406;1.6073;
822.0000;0.6414;1.6146;
822.3000;0.6422;1.6122;
822.6000;0.6406;1.6146;
822.9000;0.6422;1.6146;
823.2000;0.6422;1.6170;
823.5000;0.6390;1.6049;
823.8000;0.6406;1.5977;
824.1000;0.6398;1.5977;
824.4000;0.6390;1.5952;
824.7000;0.6406;1.5928;
825.0000;0.6406;1.5928;
825.3000;0.6390;1.5880;
825.6000;0.6406;1.5977;
825.9000;0.6422;1.6073;
826.2000;0.6414;1.6097;
826.5000;0.6422;1.6122;
826.8000;0.6414;1.6073;
827.1000;0.6431;1.6146;
827.4000;0.6431;1.6146;
827.7000;0.6398;1.6122;
828.0000;0.6390;1.6122;
828.3000;0.6406;1.6170;
828.6000;0.6431;1.6218;
828.9000;0.6414;1.6122;
829.2000;0.6406;1.6218;
829.5000;0.6398;1.6122;
829.8000;0.6398;1.6001;
830.1000;0.6431;1.6001;
830.4000;0.6398;1.5952;
830.7000;0.6406;1.6025;
831.0000;0.6365;1.5928;
831.3000;0.6349;1.5759;
831.6000;0.6414;1.5880;
831.9000;0.6414;1.5783;
832.2000;0.6398;1.5832;
832.5000;0.6398;1.5807;
832.8000;0.6398;1.5832;
833.1000;0.6382;1.5856;
833.4000;0.6374;1.5783;
833.7000;0.6390;1.5928;
834.0000;0.6390;1.5880;
834.3000;0.6357;1.5904;
834.6000;0.6398;1.5952;
834.9000;0.6398;1.5880;
835.2000;0.6390;1.5928;
835.5000;0.6390;1.5928;
835.8000;0.6390;1.5952;
836.1000;0.6365;1.5928;
836.4000;0.6406;1.6073;
836.7000;0.6390;1.6001;
837.0000;0.6398;1.6001;
837.3000;0.6406;1.5977;
837.6000;0.6406;1.5977;
837.9000;0.6390;1.5977;
838.2000;0.6382;1.5952;
838.5000;0.6414;1.6049;
838.8000;0.6406;1.6025;
839.1000;0.6398;1.5952;
839.4000;0.6390;1.5904;
839.7000;0.6414;1.5952;
840.0000;0.6406;1.5904;
840.3000;0.6382;1.5977;
840.6000;0.6398;1.6025;
840.9000;0.6382;1.6049;
841.2000;0.6406;1.6001;
841.5000;0.6382;1.5928;
841.8000;0.6382;1.5928;
842.1000;0.6382;1.5856;
842.4000;0.6390;1.5977;
842.7000;0.6374;1.6025;
843.0000;0.6382;1.6097;
843.3000;0.6365;1.6025;
843.6000;0.6374;1.6025;
843.9000;0.6374;1.6122;
844.2000;0.6398;1.6170;
844.5000;0.6357;1.6122;
844.8000;0.6365;1.6146;
845.1000;0.6374;1.6170;
845.4000;0.6349;1.6218;
845.7000;0.6398;1.6242;
846.0000;0.6349;1.6049;
846.3000;0.6382;1.6122;
846.6000;0.6365;1.6073;
846.9000;0.6374;1.6049;
847.2000;0.6390;1.6122;
847.5000;0.6374;1.6097;
847.8000;0.6374;1.6049;
848.1000;0.6365;1.5977;
848.4000;0.6374;1.5904;
848.7000;0.6382;1.5977;
849.0000;0.6365;1.5952;
849.3000;0.6365;1.5977;
849.6000;0.6365;1.5928;
849.9000;0.6382;1.5904;
850.2000;0.6349;1.5880;
850.5000;0.6365;1.5952;
850.8000;0.6374;1.6049;
851.1000;0.6365;1.6025;
851.4000;0.6365;1.6025;
851.7000;0.6374;1.6073;
852.0000;0.6357;1.6049;
852.3000;0.6365;1.6170;
852.6000;0.6374;1.6194;
852.9000;0.6374;1.6146;
853.2000;0.6357;1.6049;
853.5000;0.6357;1.6122;
853.8000;0.6357;1.6073;
854.1000;0.6374;1.6001;
854.4000;0.6365;1.6025;
854.7000;0.6349;1.6025;
855.0000;0.6374;1.6049;
855.3000;0.6382;1.6073;
855.6000;0.6447;1.6267;
855.9000;0.6374;1.6073;
856.2000;0.6374;1.6097;
856.5000;0.6357;1.6001;
856.8000;0.6365;1.5977;
857.1000;0.6357;1.5928;
857.4000;0.6357;1.5928;
857.7000;0.6357;1.5977;
858.0000;0.6374;1.6001;
858.3000;0.6357;1.6049;
858.6000;0.6357;1.6025;
858.9000;0.6365;1.6025;
859.2000;0.6374;1.6146;
859.5000;0.6341;1.5977;
859.8000;0.6349;1.5977;
860.1000;0.6357;1.6001;
860.4000;0.6357;1.6025;
860.7000;0.6349;1.6025;
861.0000;0.6349;1.5977;
861.3000;0.6276;1.5807;
861.6000;0.6357;1.6001;
861.9000;0.6357;1.6097;
862.2000;0.6382;1.6170;
862.5000;0.6357;1.6194;
862.8000;0.6382;1.6291;
863.1000;0.6349;1.6146;
863.4000;0.6349;1.6049;
863.7000;0.6300;1.5904;
864.0000;0.6349;1.6049;
864.3000;0.6341;1.6122;
864.6000;0.6325;1.6097;
864.9000;0.6341;1.6218;
865.2000;0.6333;1.6146;
865.5000;0.6357;1.6242;
865.8000;0.6398;1.6291;
866.1000;0.6325;1.6097;
866.4000;0.6341;1.6122;
866.7000;0.6382;1.6242;
867.0000;0.6349;1.6170;
867.3000;0.6300;1.6073;
867.6000;0.6349;1.6267;
867.9000;0.6341;1.6218;
868.2000;0.6349;1.6267;
868.5000;0.6333;1.6122;
868.8000;0.6300;1.5977;
869.1000;0.6341;1.6097;
869.4000;0.6341;1.6122;
869.7000;0.6390;1.6218;
870.0000;0.6341;1.6049;
870.3000;0.6365;1.6073;
870.6000;0.6357;1.6049;
870.9000;0.6333;1.6025;
871.2000;0.6300;1.5928;
871.5000;0.6333;1.6001;
871.8000;0.6325;1.5952;
872.1000;0.6333;1.5977;
872.4000;0.6349;1.5977;
872.7000;0.6333;1.5904;
873.0000;0.6333;1.5880;
873.3000;0.6341;1.5952;
873.6000;0.6341;1.6073;
873.9000;0.6357;1.6073;
874.2000;0.6317;1.6025;
874.5000;0.6333;1.6146;
874.8000;0.6333;1.6001;
875.1000;0.6349;1.6001;
875.4000;0.6341;1.6025;
875.7000;0.6357;1.6025;
876.0000;0.6292;1.5880;
876.3000;0.6325;1.5977;
876.6000;0.6325;1.5977;
876.9000;0.6398;1.6218;
877.2000;0.6349;1.6122;
877.5000;0.6357;1.6267;
877.8000;0.6333;1.6194;
878.1000;0.6333;1.6122;
878.4000;0.6333;1.6146;
878.7000;0.6325;1.6194;
879.0000;0.6309;1.6097;
879.3000;0.6333;1.6073;
879.6000;0.6333;1.6049;
879.9000;0.6325;1.6073;
880.2000;0.6325;1.6170;
880.5000;0.6309;1.6122;
880.8000;0.6325;1.6218;
881.1000;0.6325;1.6218;
881.4000;0.6333;1.6267;
881.7000;0.6333;1.6242;
882.0000;0.6333;1.6146;
882.3000;0.6333;1.6146;
882.6000;0.6325;1.6170;
882.9000;0.6309;1.6073;
883.2000;0.6325;1.6194;
883.5000;0.6341;1.6170;
883.8000;0.6365;1.6218;
884.1000;0.6341;1.6218;
884.4000;0.6309;1.6194;
884.7000;0.6325;1.6194;
885.0000;0.6333;1.6242;
885.3000;0.6341;1.6267;
885.6000;0.6325;1.6218;
885.9000;0.6300;1.6146;
886.2000;0.6341;1.6170;
886.5000;0.6309;1.5977;
886.8000;0.6309;1.5952;
887.1000;0.6325;1.5977;
887.4000;0.6300;1.5952;
887.7000;0.6309;1.6025;
888.0000;0.6309;1.6001;
888.3000;0.6325;1.6122;
888.6000;0.6341;1.6073;
888.9000;0.6333;1.6073;
889.2000;0.6292;1.5977;
889.5000;0.6309;1.6001;
889.8000;0.6300;1.5977;
890.1000;0.6349;1.6146;
890.4000;0.6309;1.5977;
890.7000;0.6292;1.5952;
891.0000;0.6317;1.5977;
891.3000;0.6333;1.6049;
891.6000;0.6317;1.6073;
891.9000;0.6300;1.6025;
892.2000;0.6325;1.6097;
892.5000;0.6317;1.6218;
892.8000;0.6309;1.6242;
893.1000;0.6309;1.6146;
893.4000;0.6309;1.6146;
893.7000;0.6309;1.6170;
894.0000;0.6309;1.6170;
894.3000;0.6309;1.6194;
894.6000;0.6317;1.6194;
894.9000;0.6317;1.6146;
895.2000;0.6325;1.6146;
895.5000;0.6300;1.6122;
895.8000;0.6317;1.6170;
896.1000;0.6309;1.6146;
896.4000;0.6292;1.6073;
896.7000;0.6317;1.6146;
897.0000;0.6252;1.6025;
897.3000;0.6317;1.6097;
897.6000;0.6300;1.6170;
897.9000;0.6309;1.6242;
898.2000;0.6292;1.6267;
898.5000;0.6317;1.6291;
898.8000;0.6309;1.6267;
899.1000;0.6292;1.6194;
899.4000;0.6309;1.6194;
899.7000;0.6243;1.6001;
900.0000;0.6284;1.6146;
900.3000;0.6309;1.6097;
900.6000;0.6317;1.6146;
900.9000;0.6284;1.6097;
901.2000;0.6292;1.6073;
901.5000;0.6300;1.6049;
901.8000;0.6300;1.6049;
902.1000;0.6243;1.5952;
902.4000;0.6284;1.6001;
902.7000;0.6309;1.6097;
903.0000;0.6292;1.6025;
903.3000;0.6252;1.5952;
903.6000;0.6300;1.6242;
903.9000;0.6300;1.6267;
904.2000;0.6284;1.6218;
904.5000;0.6309;1.6315;
904.8000;0.6284;1.6218;
905.1000;0.6284;1.6122;
905.4000;0.6292;1.6170;
905.7000;0.6284;1.6242;
906.0000;0.6284;1.6194;
906.3000;0.6292;1.6097;
906.6000;0.6300;1.6122;
906.9000;0.6292;1.6049;
907.2000;0.6268;1.5977;
907.5000;0.6292;1.6122;
907.8000;0.6317;1.6194;
908.1000;0.6292;1.6122;
908.4000;0.6292;1.6097;
908.7000;0.6300;1.6170;
909.0000;0.6300;1.6242;
909.3000;0.6309;1.6242;
909.6000;0.6284;1.6194;
909.9000;0.6300;1.6218;
910.2000;0.6300;1.6242;
910.5000;0.6292;1.6218;
910.8000;0.6284;1.6122;
911.1000;0.6276;1.6194;
911.4000;0.6235;1.6097;
911.7000;0.6292;1.6242;
912.0000;0.6292;1.6218;
912.3000;0.6309;1.6242;
912.6000;0.6276;1.6146;
912.9000;0.6292;1.6194;
913.2000;0.6276;1.6122;
913.5000;0.6276;1.6049;
913.8000;0.6276;1.6073;
914.1000;0.6284;1.6097;
914.4000;0.6284;1.6170;
914.7000;0.6276;1.6194;
915.0000;0.6284;1.6194;
915.3000;0.6276;1.6291;
915.6000;0.6268;1.6267;
915.9000;0.6268;1.6267;
916.2000;0.6268;1.6267;
916.5000;0.6276;1.6315;
916.8000;0.6284;1.6363;
917.1000;0.6292;1.6436;
917.4000;0.6292;1.6436;
917.7000;0.6284;1.6412;
918.0000;0.6276;1.6315;
918.3000;0.6268;1.6315;
918.6000;0.6284;1.6315;
918.9000;0.6276;1.6387;
919.2000;0.6309;1.6436;
919.5000;0.6292;1.6460;
919.8000;0.6292;1.6387;
920.1000;0.6309;1.6412;
920.4000;0.6276;1.6315;
920.7000;0.6276;1.6291;
921.0000;0.6284;1.6267;
921.3000;0.6268;1.6242;
921.6000;0.6276;1.6267;
921.9000;0.6252;1.6242;
922.2000;0.6268;1.6194;
922.5000;0.6300;1.6242;
922.8000;0.6260;1.6267;
923.1000;0.6276;1.6315;
923.4000;0.6268;1.6267;
923.7000;0.6276;1.6242;
924.0000;0.6276;1.6291;
924.3000;0.6260;1.6315;
924.6000;0.6284;1.6267;
924.9000;0.6268;1.6267;
925.2000;0.6292;1.6339;
925.5000;0.6284;1.6363;
925.8000;0.6252;1.6339;
926.1000;0.6268;1.6412;
926.4000;0.6178;1.6170;
926.7000;0.6276;1.6363;
927.0000;0.6268;1.6291;
927.3000;0.6219;1.6122;
927.6000;0.6260;1.6194;
927.9000;0.6260;1.6194;
928.2000;0.6292;1.6194;
928.5000;0.6300;1.6242;
928.8000;0.6276;1.6267;
929.1000;0.6268;1.6339;
929.4000;0.6276;1.6339;
929.7000;0.6276;1.6339;
930.0000;0.6276;1.6339;
930.3000;0.6268;1.6436;
930.6000;0.6284;1.6363;
930.9000;0.6284;1.6291;
931.2000;0.6260;1.6267;
931.5000;0.6219;1.6073;
931.8000;0.6268;1.6267;
932.1000;0.6252;1.6315;
932.4000;0.6252;1.6315;
932.7000;0.6252;1.6363;
933.0000;0.6252;1.6363;
933.3000;0.6276;1.6508;
933.6000;0.6300;1.6436;
933.9000;0.6252;1.6387;
934.2000;0.6260;1.6387;
934.5000;0.6284;1.6436;
934.8000;0.6268;1.6484;
935.1000;0.6203;1.6339;
935.4000;0.6309;1.6653;
935.7000;0.6252;1.6460;
936.0000;0.6260;1.6412;
936.3000;0.6243;1.6315;
936.6000;0.6252;1.6170;
936.9000;0.6268;1.6218;
937.2000;0.6260;1.6315;
937.5000;0.6252;1.6218;
937.8000;0.6243;1.6291;
938.1000;0.6243;1.6339;
938.4000;0.6252;1.6363;
938.7000;0.6268;1.6460;
939.0000;0.6243;1.6436;
939.3000;0.6260;1.6363;
939.6000;0.6195;1.6218;
939.9000;0.6243;1.6387;
940.2000;0.6260;1.6339;
940.5000;0.6243;1.6242;
940.8000;0.6260;1.6267;
941.1000;0.6268;1.6363;
941.4000;0.6252;1.6315;
941.7000;0.6252;1.6291;
942.0000;0.6260;1.6291;
942.3000;0.6260;1.6267;
942.6000;0.6243;1.6194;
942.9000;0.6252;1.6242;
943.2000;0.6252;1.6267;
943.5000;0.6260;1.6267;
943.8000;0.6243;1.6291;
944.1000;0.6252;1.6194;
944.4000;0.6203;1.6073;
944.7000;0.6300;1.6387;
945.0000;0.6252;1.6218;
945.3000;0.6211;1.6122;
945.6000;0.6276;1.6339;
945.9000;0.6252;1.6291;
946.2000;0.6252;1.6315;
946.5000;0.6195;1.6194;
946.8000;0.6235;1.6315;
947.1000;0.6235;1.6339;
947.4000;0.6211;1.6242;
947.7000;0.6243;1.6291;
948.0000;0.6243;1.6218;
948.3000;0.6252;1.6146;
948.6000;0.6276;1.6242;
948.9000;0.6227;1.6122;
949.2000;0.6227;1.6267;
949.5000;0.6260;1.6315;
949.8000;0.6243;1.6218;
950.1000;0.6252;1.6315;
950.4000;0.6235;1.6242;
950.7000;0.6235;1.6194;
951.0000;0.6243;1.6170;
951.3000;0.6235;1.6097;
951.6000;0.6300;1.6242;
951.9000;0.6243;1.6073;
952.2000;0.6178;1.5928;
952.5000;0.6235;1.6049;
952.8000;0.6227;1.6073;
953.1000;0.6235;1.6122;
953.4000;0.6235;1.6097;
953.7000;0.6235;1.6170;
954.0000;0.6243;1.6267;
954.3000;0.6243;1.6242;
954.6000;0.6243;1.6242;
954.9000;0.6252;1.6315;
955.2000;0.6252;1.6315;
955.5000;0.6276;1.6363;
955.8000;0.6252;1.6267;
956.1000;0.6235;1.6242;
956.4000;0.6252;1.6291;
956.7000;0.6211;1.6194;
957.0000;0.6235;1.6218;
957.3000;0.6219;1.6122;
957.6000;0.6243;1.6242;
957.9000;0.6243;1.6267;
958.2000;0.6252;1.6291;
958.5000;0.6227;1.6291;
958.8000;0.6203;1.6291;
959.1000;0.6227;1.6267;
959.4000;0.6243;1.6267;
959.7000;0.6219;1.6242;
960.0000;0.6260;1.6387;
960.3000;0.6260;1.6267;
960.6000;0.6227;1.6218;
960.9000;0.6186;1.6073;
961.2000;0.6252;1.6267;
961.5000;0.6260;1.6291;
961.8000;0.6243;1.6291;
962.1000;0.6243;1.6363;
962.4000;0.6243;1.6315;
962.7000;0.6252;1.6387;
963.0000;0.6243;1.6315;
963.3000;0.6227;1.6363;
963.6000;0.6235;1.6363;
963.9000;0.6252;1.6339;
964.2000;0.6219;1.6363;
964.5000;0.6227;1.6436;
964.8000;0.6219;1.6339;
965.1000;0.6235;1.6387;
965.4000;0.6243;1.6436;
965.7000;0.6260;1.6436;
966.0000;0.6219;1.6291;
966.3000;0.6235;1.6267;
966.6000;0.6243;1.6170;
966.9000;0.6186;1.6073;
967.2000;0.6268;1.6170;
967.5000;0.6252;1.6170;
967.8000;0.6227;1.6097;
968.1000;0.6227;1.6122;
968.4000;0.6227;1.6194;
968.7000;0.6235;1.6194;
969.0000;0.6235;1.6097;
969.3000;0.6235;1.6122;
969.6000;0.6219;1.6001;
969.9000;0.6235;1.6097;
970.2000;0.6227;1.6146;
970.5000;0.6227;1.6194;
970.8000;0.6235;1.6218;
971.1000;0.6219;1.6267;
971.4000;0.6211;1.6267;
971.7000;0.6235;1.6291;
972.0000;0.6219;1.6387;
972.3000;0.6211;1.6339;
972.6000;0.6235;1.6339;
972.9000;0.6235;1.6339;
973.2000;0.6227;1.6267;
973.5000;0.6227;1.6242;
973.8000;0.6219;1.6194;
974.1000;0.6235;1.6242;
974.4000;0.6219;1.6218;
974.7000;0.6219;1.6218;
975.0000;0.6219;1.6218;
975.3000;0.6219;1.6291;
975.6000;0.6227;1.6339;
975.9000;0.6227;1.6315;
976.2000;0.6227;1.6339;
976.5000;0.6203;1.6122;
976.8000;0.6211;1.6122;
977.1000;0.6243;1.6146;
977.4000;0.6219;1.5977;
977.7000;0.6219;1.5977;
978.0000;0.6235;1.6049;
978.3000;0.6235;1.6049;
978.6000;0.6243;1.6073;
978.9000;0.6195;1.5977;
979.2000;0.6203;1.6001;
979.5000;0.6219;1.6049;
979.8000;0.6219;1.6073;
980.1000;0.6219;1.6097;
980.4000;0.6195;1.6073;
980.7000;0.6211;1.6097;
981.0000;0.6260;1.6267;
981.3000;0.6219;1.6218;
981.6000;0.6243;1.6122;
981.9000;0.6235;1.6218;
982.2000;0.6235;1.6242;
982.5000;0.6243;1.6315;
982.8000;0.6227;1.6291;
983.1000;0.6219;1.6315;
983.4000;0.6227;1.6315;
983.7000;0.6203;1.6194;
984.0000;0.6219;1.6170;
984.3000;0.6195;1.6146;
984.6000;0.6309;1.6460;
984.9000;0.6235;1.6267;
985.2000;0.6219;1.6170;
985.5000;0.6211;1.6025;
985.8000;0.6227;1.6097;
986.1000;0.6227;1.6170;
986.4000;0.6211;1.6218;
986.7000;0.6252;1.6339;
987.0000;0.6219;1.6339;
987.3000;0.6227;1.6291;
987.6000;0.6211;1.6291;
987.9000;0.6227;1.6267;
988.2000;0.6227;1.6315;
988.5000;0.6211;1.6242;
988.8000;0.6170;1.6194;
989.1000;0.6219;1.6267;
989.4000;0.6211;1.6291;
989.7000;0.6219;1.6267;
990.0000;0.6211;1.6291;
990.3000;0.6219;1.6460;
990.6000;0.6243;1.6484;
990.9000;0.6260;1.6460;
991.2000;0.6219;1.6460;
991.5000;0.6219;1.6436;
991.8000;0.6219;1.6460;
992.1000;0.6211;1.6508;
992.4000;0.6211;1.6460;
992.7000;0.6203;1.6412;
993.0000;0.6219;1.6508;
993.3000;0.6219;1.6581;
993.6000;0.6203;1.6436;
993.9000;0.6203;1.6339;
994.2000;0.6195;1.6339;
994.5000;0.6235;1.6460;
994.8000;0.6195;1.6532;
995.1000;0.6186;1.6484;
995.4000;0.6227;1.6581;
995.7000;0.6219;1.6484;
996.0000;0.6203;1.6460;
996.3000;0.6235;1.6460;
996.6000;0.6186;1.6242;
996.9000;0.6195;1.6339;
997.2000;0.6154;1.6146;
997.5000;0.6195;1.6436;
997.8000;0.6211;1.6436;
998.1000;0.6203;1.6508;
998.4000;0.6219;1.6508;
998.7000;0.6211;1.6436;
999.0000;0.6195;1.6460;
999.3000;0.6203;1.6508;
999.6000;0.6195;1.6484;
999.9000;0.6203;1.6581;
1000.2000;0.6195;1.6557;
1000.5000;0.6317;1.6750;
1000.8000;0.6211;1.6581;
1001.1000;0.6211;1.6484;
1001.4000;0.6186;1.6460;
1001.7000;0.6203;1.6460;
1002.0000;0.6195;1.6412;
1002.3000;0.6186;1.6242;
1002.6000;0.6219;1.6242;
1002.9000;0.6195;1.6146;
1003.2000;0.6219;1.6267;
1003.5000;0.6203;1.6218;
1003.8000;0.6203;1.6170;
1004.1000;0.6195;1.6194;
1004.4000;0.6170;1.6073;
1004.7000;0.6227;1.6242;
1005.0000;0.6211;1.6242;
1005.3000;0.6203;1.6291;
1005.6000;0.6203;1.6267;
1005.9000;0.6219;1.6218;
1006.2000;0.6203;1.6146;
1006.5000;0.6211;1.6242;
1006.8000;0.6203;1.6291;
1007.1000;0.6195;1.6291;
1007.4000;0.6178;1.6315;
1007.7000;0.6195;1.6484;
1008.0000;0.6211;1.6557;
1008.3000;0.6203;1.6557;
1008.6000;0.6195;1.6508;
1008.9000;0.6211;1.6387;
1009.2000;0.6203;1.6315;
1009.5000;0.6219;1.6315;
1009.8000;0.6211;1.6194;
1010.1000;0.6203;1.6073;
1010.4000;0.6203;1.6073;
1010.7000;0.6203;1.6025;
1011.0000;0.6203;1.6097;
1011.3000;0.6227;1.6049;
1011.6000;0.6203;1.6097;
1011.9000;0.6211;1.6194;
1012.2000;0.6195;1.6242;
1012.5000;0.6219;1.6339;
1012.8000;0.6186;1.6267;
1013.1000;0.6195;1.6267;
1013.4000;0.6227;1.6291;
1013.7000;0.6227;1.6291;
1014.0000;0.6203;1.6242;
1014.3000;0.6178;1.6170;
1014.6000;0.6195;1.6291;
1014.9000;0.6203;1.6387;
1015.2000;0.6203;1.6387;
1015.5000;0.6195;1.6267;
1015.8000;0.6186;1.6218;
1016.1000;0.6211;1.6194;
1016.4000;0.6211;1.6291;
1016.7000;0.6203;1.6387;
1017.0000;0.6235;1.6436;
1017.3000;0.6211;1.6363;
1017.6000;0.6195;1.6267;
1017.9000;0.6195;1.6315;
1018.2000;0.6235;1.6412;
1018.5000;0.6170;1.6242;
1018.8000;0.6195;1.6412;
1019.1000;0.6186;1.6412;
1019.4000;0.6186;1.6412;
1019.7000;0.6268;1.6532;
1020.0000;0.6186;1.6387;
1020.3000;0.6211;1.6387;
1020.6000;0.6178;1.6315;
1020.9000;0.6195;1.6363;
1021.2000;0.6211;1.6339;
1021.5000;0.6195;1.6412;
1021.8000;0.6203;1.6436;
1022.1000;0.6203;1.6436;
1022.4000;0.6203;1.6363;
1022.7000;0.6276;1.6460;
1023.0000;0.6203;1.6291;
1023.3000;0.6186;1.6218;
1023.6000;0.6203;1.6218;
1023.9000;0.6186;1.6170;
1024.2000;0.6260;1.6315;
1024.5000;0.6203;1.6170;
1024.8000;0.6186;1.6049;
1025.1000;0.6203;1.6073;
1025.4000;0.6203;1.6073;
1025.7000;0.6195;1.6049;
1026.0000;0.6195;1.6049;
1026.3000;0.6203;1.6049;
1026.6000;0.6203;1.5977;
1026.9000;0.6211;1.6025;
1027.2000;0.6195;1.6073;
1027.5000;0.6195;1.6073;
1027.8000;0.6211;1.6073;
1028.1000;0.6219;1.6146;
1028.4000;0.6186;1.6218;
1028.7000;0.6203;1.6242;
1029.0000;0.6219;1.6242;
1029.3000;0.6211;1.6291;
1029.6000;0.6178;1.6122;
1029.9000;0.6178;1.6194;
1030.2000;0.6195;1.6267;
1030.5000;0.6203;1.6436;
1030.8000;0.6203;1.6460;
1031.1000;0.6195;1.6460;
1031.4000;0.6195;1.6363;
1031.7000;0.6203;1.6436;
1032.0000;0.6186;1.6363;
1032.3000;0.6203;1.6315;
1032.6000;0.6203;1.6291;
1032.9000;0.6195;1.6267;
1033.2000;0.6195;1.6242;
1033.5000;0.6162;1.6146;
1033.8000;0.6195;1.6339;
1034.1000;0.6211;1.6315;
1034.4000;0.6186;1.6339;
1034.7000;0.6195;1.6339;
1035.0000;0.6170;1.6315;
1035.3000;0.6178;1.6218;
1035.6000;0.6178;1.6242;
1035.9000;0.6186;1.6218;
1036.2000;0.6178;1.6242;
1036.5000;0.6203;1.6267;
1036.8000;0.6186;1.6267;
1037.1000;0.6203;1.6291;
1037.4000;0.6203;1.6242;
1037.7000;0.6146;1.6146;
1038.0000;0.6162;1.6242;
1038.3000;0.6186;1.6218;
1038.6000;0.6203;1.6267;
1038.9000;0.6195;1.6339;
1039.2000;0.6186;1.6339;
1039.5000;0.6178;1.6339;
1039.8000;0.6186;1.6339;
1040.1000;0.6203;1.6315;
1040.4000;0.6186;1.6267;
1040.7000;0.6186;1.6218;
1041.0000;0.6219;1.6267;
1041.3000;0.6211;1.6291;
1041.6000;0.6211;1.6291;
1041.9000;0.6186;1.6291;
1042.2000;0.6195;1.6339;
1042.5000;0.6162;1.6267;
1042.8000;0.6186;1.6242;
1043.1000;0.6186;1.6218;
1043.4000;0.6170;1.6218;
1043.7000;0.6170;1.6242;
1044.0000;0.6186;1.6291;
1044.3000;0.6170;1.6315;
1044.6000;0.6178;1.6267;
1044.9000;0.6170;1.6218;
1045.2000;0.6186;1.6218;
1045.5000;0.6186;1.6218;
1045.8000;0.6186;1.6146;
1046.1000;0.6170;1.6122;
1046.4000;0.6186;1.6170;
1046.7000;0.6178;1.6194;
1047.0000;0.6203;1.6218;
1047.3000;0.6203;1.6242;
1047.6000;0.6186;1.6242;
1047.9000;0.6195;1.6218;
1048.2000;0.6178;1.6146;
1048.5000;0.6186;1.6194;
1048.8000;0.6178;1.6122;
1049.1000;0.6203;1.6194;
1049.4000;0.6203;1.6170;
1049.7000;0.6170;1.6049;
1050.0000;0.6178;1.6025;
1050.3000;0.6186;1.6001;
1050.6000;0.6186;1.5952;
1050.9000;0.6186;1.6001;
1051.2000;0.6195;1.5977;
1051.5000;0.6195;1.6001;
1051.8000;0.6203;1.6170;
1052.1000;0.6268;1.6387;
1052.4000;0.6186;1.6339;
1052.7000;0.6186;1.6315;
1053.0000;0.6186;1.6387;
1053.3000;0.6195;1.6339;
1053.6000;0.6162;1.6315;
1053.9000;0.6170;1.6218;
1054.2000;0.6170;1.6218;
1054.5000;0.6235;1.6387;
1054.8000;0.6170;1.6291;
1055.1000;0.6178;1.6194;
1055.4000;0.6154;1.6146;
1055.7000;0.6203;1.6218;
1056.0000;0.6186;1.6122;
1056.3000;0.6178;1.6146;
1056.6000;0.6195;1.6194;
1056.9000;0.6186;1.6194;
1057.2000;0.6195;1.6194;
1057.5000;0.6138;1.5952;
1057.8000;0.6178;1.6097;
1058.1000;0.6203;1.6146;
1058.4000;0.6186;1.6194;
1058.7000;0.6178;1.6146;
1059.0000;0.6186;1.6170;
1059.3000;0.6186;1.6194;
1059.6000;0.6211;1.6267;
1059.9000;0.6186;1.6267;
1060.2000;0.6170;1.6146;
1060.5000;0.6170;1.6146;
1060.8000;0.6170;1.6170;
1061.1000;0.6178;1.6146;
1061.4000;0.6170;1.6122;
1061.7000;0.6162;1.6097;
1062.0000;0.6227;1.6242;
1062.3000;0.6178;1.6146;
1062.6000;0.6195;1.6267;
1062.9000;0.6186;1.6315;
1063.2000;0.6178;1.6315;
1063.5000;0.6186;1.6315;
1063.8000;0.6195;1.6387;
1064.1000;0.6178;1.6460;
1064.4000;0.6162;1.6484;
1064.7000;0.6186;1.6484;
1065.0000;0.6162;1.6412;
1065.3000;0.6211;1.6532;
1065.6000;0.6178;1.6363;
1065.9000;0.6186;1.6242;
1066.2000;0.6178;1.6242;
1066.5000;0.6170;1.6242;
1066.8000;0.6178;1.6242;
1067.1000;0.6186;1.6267;
1067.4000;0.6154;1.6242;
1067.7000;0.6186;1.6339;
1068.0000;0.6178;1.6387;
1068.3000;0.6170;1.6412;
1068.6000;0.6178;1.6436;
1068.9000;0.6170;1.6363;
1069.2000;0.6186;1.6387;
1069.5000;0.6154;1.6267;
1069.8000;0.6170;1.6291;
1070.1000;0.6162;1.6315;
1070.4000;0.6186;1.6436;
1070.7000;0.6235;1.6653;
1071.0000;0.6170;1.6387;
1071.3000;0.6170;1.6339;
1071.6000;0.6186;1.6363;
1071.9000;0.6170;1.6436;
1072.2000;0.6178;1.6436;
1072.5000;0.6211;1.6460;
1072.8000;0.6186;1.6363;
1073.1000;0.6260;1.6629;
1073.4000;0.6178;1.6436;
1073.7000;0.6186;1.6484;
1074.0000;0.6129;1.6315;
1074.3000;0.6211;1.6460;
1074.6000;0.6154;1.6315;
1074.9000;0.6162;1.6387;
1075.2000;0.6170;1.6412;
1075.5000;0.6203;1.6460;
1075.8000;0.6170;1.6339;
1076.1000;0.6178;1.6363;
1076.4000;0.6178;1.6218;
1076.7000;0.6178;1.6218;
1077.0000;0.6195;1.6242;
1077.3000;0.6178;1.6218;
1077.6000;0.6186;1.6267;
1077.9000;0.6162;1.6267;
1078.2000;0.6170;1.6315;
1078.5000;0.6178;1.6315;
1078.8000;0.6186;1.6363;
1079.1000;0.6186;1.6387;
1079.4000;0.6162;1.6339;
1079.7000;0.6227;1.6412;
1080.0000;0.6178;1.6291;
1080.3000;0.6170;1.6267;
1080.6000;0.6195;1.6291;
1080.9000;0.6146;1.6122;
1081.2000;0.6162;1.6170;
1081.5000;0.6162;1.6267;
1081.8000;0.6178;1.6315;
1082.1000;0.6178;1.6436;
1082.4000;0.6186;1.6387;
1082.7000;0.6227;1.6460;
1083.0000;0.6146;1.6267;
1083.3000;0.6170;1.6387;
1083.6000;0.6162;1.6363;
1083.9000;0.6170;1.6412;
1084.2000;0.6146;1.6363;
1084.5000;0.6154;1.6267;
1084.8000;0.6154;1.6339;
1085.1000;0.6170;1.6315;
1085.4000;0.6170;1.6242;
1085.7000;0.6162;1.6194;
1086.0000;0.6203;1.6218;
1086.3000;0.6162;1.6146;
1086.6000;0.6170;1.6194;
1086.9000;0.6162;1.6242;
1087.2000;0.6121;1.6242;
1087.5000;0.6178;1.6363;
1087.8000;0.6178;1.6387;
1088.1000;0.6170;1.6412;
1088.4000;0.6170;1.6412;
1088.7000;0.6162;1.6436;
1089.0000;0.6186;1.6508;
1089.3000;0.6211;1.6629;
1089.6000;0.6154;1.6508;
1089.9000;0.6146;1.6508;
1090.2000;0.6154;1.6532;
1090.5000;0.6129;1.6436;
1090.8000;0.6146;1.6436;
1091.1000;0.6154;1.6484;
1091.4000;0.6146;1.6484;
1091.7000;0.6154;1.6484;
1092.0000;0.6146;1.6363;
1092.3000;0.6170;1.6460;
1092.6000;0.6178;1.6484;
1092.9000;0.6113;1.6291;
1093.2000;0.6146;1.6363;
1093.5000;0.6178;1.6315;
1093.8000;0.6154;1.6315;
1094.1000;0.6154;1.6315;
1094.4000;0.6146;1.6242;
1094.7000;0.6162;1.6291;
1095.0000;0.6138;1.6339;
1095.3000;0.6146;1.6436;
1095.6000;0.6146;1.6460;
1095.9000;0.6154;1.6508;
1096.2000;0.6154;1.6508;
1096.5000;0.6146;1.6557;
1096.8000;0.6146;1.6653;
1097.1000;0.6121;1.6629;
1097.4000;0.6154;1.6581;
1097.7000;0.6162;1.6508;
1098.0000;0.6211;1.6605;
1098.3000;0.6154;1.6460;
1098.6000;0.6170;1.6460;
1098.9000;0.6113;1.6484;
1099.2000;0.6162;1.6557;
1099.5000;0.6162;1.6508;
1099.8000;0.6154;1.6460;
1100.1000;0.6154;1.6412;
1100.4000;0.6162;1.6484;
1100.7000;0.6162;1.6460;
1101.0000;0.6154;1.6387;
1101.3000;0.6162;1.6484;
1101.6000;0.6170;1.6436;
1101.9000;0.6162;1.6484;
1102.2000;0.6146;1.6508;
1102.5000;0.6146;1.6532;
1102.8000;0.6162;1.6581;
1103.1000;0.6146;1.6557;
1103.4000;0.6186;1.6605;
1103.7000;0.6154;1.6581;
1104.0000;0.6154;1.6678;
1104.3000;0.6170;1.6678;
1104.6000;0.6146;1.6653;
1104.9000;0.6154;1.6629;
1105.2000;0.6138;1.6532;
1105.5000;0.6162;1.6484;
1105.8000;0.6154;1.6363;
1106.1000;0.6138;1.6363;
1106.4000;0.6129;1.6460;
1106.7000;0.6146;1.6532;
1107.0000;0.6162;1.6557;
1107.3000;0.6154;1.6532;
1107.6000;0.6129;1.6557;
1107.9000;0.6162;1.6532;
1108.2000;0.6154;1.6508;
1108.5000;0.6170;1.6581;
1108.8000;0.6170;1.6557;
1109.1000;0.6219;1.6726;
1109.4000;0.6154;1.6581;
1109.7000;0.6178;1.6653;
1110.0000;0.6162;1.6581;
1110.3000;0.6178;1.6557;
1110.6000;0.6178;1.6557;
1110.9000;0.6162;1.6557;
1111.2000;0.6154;1.6532;
1111.5000;0.6170;1.6581;
1111.8000;0.6154;1.6436;
1112.1000;0.6154;1.6484;
1112.4000;0.6154;1.6436;
1112.7000;0.6170;1.6436;
1113.0000;0.6162;1.6363;
1113.3000;0.6162;1.6387;
1113.6000;0.6203;1.6484;
1113.9000;0.6154;1.6315;
1114.2000;0.6129;1.6267;
1114.5000;0.6162;1.6363;
1114.8000;0.6252;1.6460;
1115.1000;0.6146;1.6242;
1115.4000;0.6178;1.6291;
1115.7000;0.6203;1.6387;
1116.0000;0.6138;1.6242;
1116.3000;0.6170;1.6315;
1116.6000;0.6154;1.6242;
1116.9000;0.6162;1.6339;
1117.2000;0.6162;1.6363;
1117.5000;0.6154;1.6339;
1117.8000;0.6146;1.6242;
1118.1000;0.6146;1.6242;
1118.4000;0.6146;1.6363;
1118.7000;0.6154;1.6412;
1119.0000;0.6146;1.6460;
1119.3000;0.6154;1.6508;
1119.6000;0.6154;1.6605;
1119.9000;0.6154;1.6508;
1120.2000;0.6154;1.6484;
1120.5000;0.6154;1.6460;
1120.8000;0.6162;1.6484;
1121.1000;0.6129;1.6412;
1121.4000;0.6154;1.6436;
1121.7000;0.6146;1.6460;
1122.0000;0.6121;1.6339;
1122.3000;0.6178;1.6412;
1122.6000;0.6129;1.6242;
1122.9000;0.6154;1.6363;
1123.2000;0.6146;1.6291;
1123.5000;0.6154;1.6218;
1123.8000;0.6154;1.6218;
1124.1000;0.6138;1.6242;
1124.4000;0.6146;1.6363;
1124.7000;0.6121;1.6339;
1125.0000;0.6162;1.6460;
1125.3000;0.6146;1.6460;
1125.6000;0.6154;1.6460;
1125.9000;0.6146;1.6460;
1126.2000;0.6138;1.6339;
1126.5000;0.6138;1.6267;
1126.8000;0.6170;1.6363;
1127.1000;0.6138;1.6267;
1127.4000;0.6129;1.6218;
1127.7000;0.6186;1.6363;
1128.0000;0.6138;1.6291;
1128.3000;0.6146;1.6339;
1128.6000;0.6146;1.6363;
1128.9000;0.6146;1.6387;
1129.2000;0.6146;1.6267;
1129.5000;0.6146;1.6291;
1129.8000;0.6146;1.6363;
1130.1000;0.6162;1.6315;
1130.4000;0.6154;1.6291;
1130.7000;0.6129;1.6412;
1131.0000;0.6162;1.6460;
1131.3000;0.6121;1.6315;
1131.6000;0.6146;1.6267;
1131.9000;0.6154;1.6242;
1132.2000;0.6154;1.6218;
1132.5000;0.6170;1.6194;
1132.8000;0.6146;1.6170;
1133.1000;0.6154;1.6146;
1133.4000;0.6105;1.5977;
1133.7000;0.6195;1.6097;
1134.0000;0.6154;1.6049;
1134.3000;0.6178;1.6122;
1134.6000;0.6154;1.5952;
1134.9000;0.6162;1.5977;
1135.2000;0.6154;1.5928;
1135.5000;0.6162;1.6025;
1135.8000;0.6113;1.5952;
1136.1000;0.6154;1.6097;
1136.4000;0.6146;1.6122;
1136.7000;0.6146;1.6146;
1137.0000;0.6154;1.6242;
1137.3000;0.6154;1.6267;
1137.6000;0.6154;1.6339;
1137.9000;0.6129;1.6363;
1138.2000;0.6129;1.6339;
1138.5000;0.6146;1.6339;
1138.8000;0.6170;1.6436;
1139.1000;0.6162;1.6436;
1139.4000;0.6162;1.6387;
1139.7000;0.6162;1.6339;
1140.0000;0.6170;1.6412;
1140.3000;0.6162;1.6436;
1140.6000;0.6162;1.6412;
1140.9000;0.6146;1.6436;
1141.2000;0.6154;1.6363;
1141.5000;0.6162;1.6460;
1141.8000;0.6154;1.6460;
1142.1000;0.6146;1.6387;
1142.4000;0.6146;1.6315;
1142.7000;0.6178;1.6412;
1143.0000;0.6146;1.6363;
1143.3000;0.6146;1.6339;
1143.6000;0.6129;1.6339;
1143.9000;0.6146;1.6339;
1144.2000;0.6154;1.6339;
1144.5000;0.6138;1.6242;
1144.8000;0.6146;1.6146;
1145.1000;0.6162;1.6218;
1145.4000;0.6146;1.6242;
1145.7000;0.6146;1.6218;
1146.0000;0.6105;1.6049;
1146.3000;0.6170;1.6146;
1146.6000;0.6162;1.6146;
1146.9000;0.6211;1.6339;
1147.2000;0.6138;1.6194;
1147.5000;0.6138;1.6242;
1147.8000;0.6170;1.6387;
1148.1000;0.6097;1.6194;
1148.4000;0.6138;1.6194;
1148.7000;0.6138;1.6122;
1149.0000;0.6146;1.6194;
1149.3000;0.6154;1.6170;
1149.6000;0.6146;1.6122;
1149.9000;0.6170;1.6339;
1150.2000;0.6146;1.6315;
1150.5000;0.6146;1.6315;
1150.8000;0.6138;1.6291;
1151.1000;0.6154;1.6315;
1151.4000;0.6154;1.6339;
1151.7000;0.6162;1.6436;
1152.0000;0.6138;1.6460;
1152.3000;0.6097;1.6315;
1152.6000;0.6129;1.6436;
1152.9000;0.6154;1.6532;
1153.2000;0.6170;1.6484;
1153.5000;0.6121;1.6412;
1153.8000;0.6146;1.6460;
1154.1000;0.6129;1.6339;
1154.4000;0.6138;1.6291;
1154.7000;0.6113;1.6242;
1155.0000;0.6129;1.6218;
1155.3000;0.6146;1.6073;
1155.6000;0.6162;1.6146;
1155.9000;0.6129;1.6097;
1156.2000;0.6138;1.6170;
1156.5000;0.6138;1.6242;
1156.8000;0.6146;1.6315;
1157.1000;0.6162;1.6363;
1157.4000;0.6129;1.6291;
1157.7000;0.6162;1.6436;
1158.0000;0.6211;1.6557;
1158.3000;0.6138;1.6412;
1158.6000;0.6138;1.6315;
1158.9000;0.6146;1.6291;
1159.2000;0.6146;1.6291;
1159.5000;0.6138;1.6315;
1159.8000;0.6146;1.6339;
1160.1000;0.6146;1.6387;
1160.4000;0.6146;1.6291;
1160.7000;0.6162;1.6387;
1161.0000;0.6146;1.6484;
1161.3000;0.6121;1.6460;
1161.6000;0.6146;1.6484;
1161.9000;0.6138;1.6508;
1162.2000;0.6138;1.6532;
1162.5000;0.6162;1.6557;
1162.8000;0.6121;1.6436;
1163.1000;0.6146;1.6460;
1163.4000;0.6129;1.6460;
1163.7000;0.6129;1.6436;
1164.0000;0.6146;1.6557;
1164.3000;0.6129;1.6460;
1164.6000;0.6129;1.6436;
1164.9000;0.6138;1.6436;
1165.2000;0.6138;1.6436;
1165.5000;0.6138;1.6339;
1165.8000;0.6154;1.6363;
1166.1000;0.6121;1.6315;
1166.4000;0.6138;1.6267;
1166.7000;0.6146;1.6267;
1167.0000;0.6146;1.6315;
1167.3000;0.6146;1.6267;
1167.6000;0.6154;1.6218;
1167.9000;0.6154;1.6242;
1168.2000;0.6129;1.6194;
1168.5000;0.6146;1.6170;
1168.8000;0.6129;1.6073;
1169.1000;0.6154;1.6194;
1169.4000;0.6154;1.6170;
1169.7000;0.6154;1.6170;
1170.0000;0.6146;1.6146;
1170.3000;0.6138;1.6170;
1170.6000;0.6154;1.6242;
1170.9000;0.6154;1.6291;
1171.2000;0.6154;1.6315;
1171.5000;0.6138;1.6387;
1171.8000;0.6162;1.6436;
1172.1000;0.6129;1.6339;
1172.4000;0.6129;1.6315;
1172.7000;0.6154;1.6436;
1173.0000;0.6138;1.6460;
1173.3000;0.6129;1.6363;
1173.6000;0.6121;1.6363;
1173.9000;0.6162;1.6412;
1174.2000;0.6113;1.6339;
1174.5000;0.6154;1.6363;
1174.8000;0.6162;1.6412;
1175.1000;0.6138;1.6315;
1175.4000;0.6154;1.6460;
1175.7000;0.6138;1.6412;
1176.0000;0.6146;1.6412;
1176.3000;0.6146;1.6460;
1176.6000;0.6154;1.6484;
1176.9000;0.6138;1.6387;
1177.2000;0.6154;1.6412;
1177.5000;0.6146;1.6363;
1177.8000;0.6146;1.6412;
1178.1000;0.6146;1.6436;
1178.4000;0.6129;1.6387;
1178.7000;0.6138;1.6436;
1179.0000;0.6154;1.6436;
1179.3000;0.6146;1.6436;
1179.6000;0.6146;1.6363;
1179.9000;0.6129;1.6291;
1180.2000;0.6129;1.6267;
1180.5000;0.6138;1.6242;
1180.8000;0.6154;1.6242;
1181.1000;0.6121;1.6218;
1181.4000;0.6129;1.6218;
1181.7000;0.6129;1.6170;
1182.0000;0.6138;1.6122;
1182.3000;0.6138;1.6122;
1182.6000;0.6129;1.6170;
1182.9000;0.6138;1.6242;
1183.2000;0.6129;1.6267;
1183.5000;0.6154;1.6242;
1183.8000;0.6146;1.6291;
1184.1000;0.6129;1.6363;
1184.4000;0.6138;1.6387;
1184.7000;0.6154;1.6363;
1185.0000;0.6146;1.6291;
1185.3000;0.6113;1.6194;
1185.6000;0.6121;1.6291;
1185.9000;0.6138;1.6387;
1186.2000;0.6121;1.6363;
1186.5000;0.6138;1.6363;
1186.8000;0.6121;1.6387;
1187.1000;0.6129;1.6436;
1187.4000;0.6138;1.6339;
1187.7000;0.6113;1.6194;
1188.0000;0.6129;1.6315;
1188.3000;0.6138;1.6339;
1188.6000;0.6154;1.6267;
1188.9000;0.6129;1.6242;
1189.2000;0.6138;1.6339;
1189.5000;0.6129;1.6267;
1189.8000;0.6129;1.6315;
1190.1000;0.6121;1.6291;
1190.4000;0.6121;1.6291;
1190.7000;0.6138;1.6339;
1191.0000;0.6129;1.6363;
1191.3000;0.6146;1.6436;
1191.6000;0.6138;1.6484;
1191.9000;0.6113;1.6387;
1192.2000;0.6129;1.6412;
1192.5000;0.6138;1.6460;
1192.8000;0.6146;1.6387;
1193.1000;0.6129;1.6291;
1193.4000;0.6121;1.6267;
1193.7000;0.6138;1.6267;
1194.0000;0.6146;1.6315;
1194.3000;0.6146;1.6339;
1194.6000;0.6162;1.6339;
1194.9000;0.6129;1.6291;
1195.2000;0.6146;1.6436;
1195.5000;0.6138;1.6412;
1195.8000;0.6105;1.6291;
1196.1000;0.6138;1.6339;
1196.4000;0.6146;1.6339;
1196.7000;0.6146;1.6363;
1197.0000;0.6121;1.6387;
1197.3000;0.6138;1.6484;
1197.6000;0.6129;1.6484;
1197.9000;0.6138;1.6484;
1198.2000;0.6129;1.6484;
1198.5000;0.6138;1.6460;
1198.8000;0.6138;1.6387;
1199.1000;0.6146;1.6339;
1199.4000;0.6129;1.6339;
1199.7000;0.6178;1.6484;
1200.0000;0.6138;1.6412;
1200.3000;0.6146;1.6460;
1200.6000;0.6146;1.6436;
1200.9000;0.6121;1.6387;
1201.2000;0.6154;1.6460;
1201.5000;0.6178;1.6605;
1201.8000;0.6138;1.6532;
1202.1000;0.6138;1.6508;
1202.4000;0.6097;1.6436;
1202.7000;0.6146;1.6581;
1203.0000;0.6113;1.6484;
1203.3000;0.6129;1.6532;
1203.6000;0.6129;1.6460;
1203.9000;0.6129;1.6436;
1204.2000;0.6129;1.6460;
1204.5000;0.6097;1.6363;
1204.8000;0.6146;1.6460;
1205.1000;0.6121;1.6363;
1205.4000;0.6129;1.6363;
1205.7000;0.6121;1.6363;
1206.0000;0.6121;1.6460;
1206.3000;0.6089;1.6387;
1206.6000;0.6162;1.6387;
1206.9000;0.6121;1.6339;
1207.2000;0.6129;1.6291;
1207.5000;0.6138;1.6315;
1207.8000;0.6138;1.6291;
1208.1000;0.6129;1.6291;
1208.4000;0.6146;1.6339;
1208.7000;0.6105;1.6218;
1209.0000;0.6138;1.6267;
1209.3000;0.6154;1.6267;
1209.6000;0.6121;1.6049;
1209.9000;0.6113;1.6001;
1210.2000;0.6138;1.6001;
1210.5000;0.6121;1.5952;
1210.8000;0.6129;1.6025;
1211.1000;0.6113;1.5952;
1211.4000;0.6129;1.6001;
1211.7000;0.6154;1.6049;
1212.0000;0.6121;1.6025;
1212.3000;0.6121;1.5977;
1212.6000;0.6089;1.6001;
1212.9000;0.6195;1.6242;
1213.2000;0.6105;1.6001;
1213.5000;0.6113;1.5977;
1213.8000;0.6129;1.6073;
1214.1000;0.6129;1.6001;
1214.4000;0.6129;1.5977;
1214.7000;0.6121;1.5977;
1215.0000;0.6178;1.6097;
1215.3000;0.6138;1.5928;
1215.6000;0.6146;1.6025;
1215.9000;0.6113;1.6025;
1216.2000;0.6113;1.6049;
1216.5000;0.6129;1.6122;
1216.8000;0.6154;1.6146;
1217.1000;0.6138;1.6194;
1217.4000;0.6113;1.6146;
1217.7000;0.6129;1.6194;
1218.0000;0.6129;1.6194;
1218.3000;0.6121;1.6049;
1218.6000;0.6121;1.6073;
1218.9000;0.6129;1.6194;
1219.2000;0.6113;1.6267;
1219.5000;0.6129;1.6291;
1219.8000;0.6121;1.6242;
1220.1000;0.6121;1.6242;
1220.4000;0.6121;1.6291;
1220.7000;0.6129;1.6267;
1221.0000;0.6081;1.6146;
1221.3000;0.6138;1.6194;
1221.6000;0.6146;1.6242;
1221.9000;0.6138;1.6242;
1222.2000;0.6113;1.6218;
1222.5000;0.6121;1.6194;
1222.8000;0.6146;1.6315;
1223.1000;0.6121;1.6242;
1223.4000;0.6129;1.6218;
1223.7000;0.6146;1.6170;
1224.0000;0.6121;1.6194;
1224.3000;0.6121;1.6170;
1224.6000;0.6138;1.6242;
1224.9000;0.6146;1.6242;
1225.2000;0.6138;1.6218;
1225.5000;0.6146;1.6218;
1225.8000;0.6146;1.6170;
1226.1000;0.6154;1.6170;
1226.4000;0.6138;1.6146;
1226.7000;0.6138;1.6122;
1227.0000;0.6154;1.6170;
1227.3000;0.6129;1.6049;
1227.6000;0.6113;1.5952;
1227.9000;0.6138;1.6001;
1228.2000;0.6146;1.6122;
1228.5000;0.6129;1.6097;
1228.8000;0.6146;1.6122;
1229.1000;0.6121;1.6146;
1229.4000;0.6129;1.6097;
1229.7000;0.6154;1.6122;
1230.0000;0.6113;1.6001;
1230.3000;0.6081;1.5928;
1230.6000;0.6129;1.6001;
1230.9000;0.6105;1.5977;
1231.2000;0.6113;1.6025;
1231.5000;0.6129;1.6122;
1231.8000;0.6129;1.6122;
1232.1000;0.6121;1.6170;
1232.4000;0.6121;1.6194;
1232.7000;0.6113;1.6049;
1233.0000;0.6121;1.6073;
1233.3000;0.6138;1.6122;
1233.6000;0.6129;1.6170;
1233.9000;0.6129;1.6267;
1234.2000;0.6121;1.6315;
1234.5000;0.6121;1.6315;
1234.8000;0.6113;1.6218;
1235.1000;0.6121;1.6194;
1235.4000;0.6097;1.6049;
1235.7000;0.6113;1.6073;
1236.0000;0.6121;1.6170;
1236.3000;0.6129;1.6146;
1236.6000;0.6121;1.6073;
1236.9000;0.6138;1.6073;
1237.2000;0.6146;1.6073;
1237.5000;0.6138;1.6097;
1237.8000;0.6138;1.6025;
1238.1000;0.6138;1.6170;
1238.4000;0.6146;1.6194;
1238.7000;0.6138;1.6146;
1239.0000;0.6129;1.6218;
1239.3000;0.6138;1.6267;
1239.6000;0.6146;1.6315;
1239.9000;0.6146;1.6339;
1240.2000;0.6138;1.6339;
1240.5000;0.6129;1.6363;
1240.8000;0.6129;1.6339;
1241.1000;0.6129;1.6315;
1241.4000;0.6113;1.6267;
1241.7000;0.6121;1.6291;
1242.0000;0.6121;1.6218;
1242.3000;0.6138;1.6267;
1242.6000;0.6129;1.6218;
1242.9000;0.6121;1.6218;
1243.2000;0.6113;1.6315;
1243.5000;0.6138;1.6339;
1243.8000;0.6121;1.6315;
1244.1000;0.6113;1.6267;
1244.4000;0.6129;1.6291;
1244.7000;0.6146;1.6387;
1245.0000;0.6121;1.6291;
1245.3000;0.6121;1.6242;
1245.6000;0.6105;1.6122;
1245.9000;0.6081;1.6146;
1246.2000;0.6113;1.6291;
1246.5000;0.6105;1.6291;
1246.8000;0.6186;1.6532;
1247.1000;0.6129;1.6363;
1247.4000;0.6154;1.6363;
1247.7000;0.6113;1.6267;
1248.0000;0.6121;1.6315;
1248.3000;0.6121;1.6267;
1248.6000;0.6154;1.6436;
1248.9000;0.6113;1.6412;
1249.2000;0.6129;1.6412;
1249.5000;0.6121;1.6363;
1249.8000;0.6113;1.6339;
1250.1000;0.6129;1.6387;
1250.4000;0.6129;1.6412;
1250.7000;0.6105;1.6387;
1251.0000;0.6113;1.6412;
1251.3000;0.6121;1.6436;
1251.6000;0.6121;1.6508;
1251.9000;0.6129;1.6532;
1252.2000;0.6121;1.6436;
1252.5000;0.6121;1.6484;
1252.8000;0.6129;1.6484;
1253.1000;0.6097;1.6363;
1253.4000;0.6121;1.6363;
1253.7000;0.6105;1.6194;
1254.0000;0.6129;1.6146;
1254.3000;0.6097;1.6097;
1254.6000;0.6097;1.6170;
1254.9000;0.6105;1.6267;
1255.2000;0.6105;1.6291;
1255.5000;0.6121;1.6387;
1255.8000;0.6105;1.6291;
1256.1000;0.6129;1.6242;
1256.4000;0.6105;1.6146;
1256.7000;0.6113;1.6218;
1257.0000;0.6121;1.6218;
1257.3000;0.6121;1.6242;
1257.6000;0.6138;1.6170;
1257.9000;0.6138;1.6194;
1258.2000;0.6121;1.6218;
1258.5000;0.6121;1.6194;
1258.8000;0.6129;1.6218;
1259.1000;0.6121;1.6242;
1259.4000;0.6121;1.6315;
1259.7000;0.6121;1.6363;
1260.0000;0.6129;1.6387;
1260.3000;0.6121;1.6315;
1260.6000;0.6129;1.6218;
1260.9000;0.6113;1.6073;
1261.2000;0.6113;1.6122;
1261.5000;0.6129;1.6049;
1261.8000;0.6138;1.6097;
1262.1000;0.6113;1.6049;
1262.4000;0.6105;1.6170;
1262.7000;0.6138;1.6291;
1263.0000;0.6129;1.6387;
1263.3000;0.6121;1.6363;
1263.6000;0.6129;1.6315;
1263.9000;0.6129;1.6291;
1264.2000;0.6129;1.6387;
1264.5000;0.6105;1.6339;
1264.8000;0.6121;1.6339;
1265.1000;0.6121;1.6363;
1265.4000;0.6121;1.6267;
1265.7000;0.6105;1.6339;
1266.0000;0.6105;1.6387;
1266.3000;0.6121;1.6532;
1266.6000;0.6129;1.6460;
1266.9000;0.6097;1.6363;
1267.2000;0.6113;1.6412;
1267.5000;0.6121;1.6460;
1267.8000;0.6121;1.6387;
1268.1000;0.6129;1.6315;
1268.4000;0.6081;1.6242;
1268.7000;0.6113;1.6291;
1269.0000;0.6129;1.6363;
1269.3000;0.6121;1.6267;
1269.6000;0.6121;1.6291;
1269.9000;0.6105;1.6267;
1270.2000;0.6170;1.6484;
1270.5000;0.6129;1.6267;
1270.8000;0.6097;1.6267;
1271.1000;0.6089;1.6315;
1271.4000;0.6121;1.6363;
1271.7000;0.6121;1.6363;
1272.0000;0.6105;1.6412;
1272.3000;0.6146;1.6557;
1272.6000;0.6072;1.6291;
1272.9000;0.6121;1.6387;
1273.2000;0.6162;1.6412;
1273.5000;0.6129;1.6242;
1273.8000;0.6113;1.6194;
1274.1000;0.6129;1.6194;
1274.4000;0.6154;1.6267;
1274.7000;0.6113;1.6291;
1275.0000;0.6105;1.6339;
1275.3000;0.6129;1.6436;
1275.6000;0.6129;1.6460;
1275.9000;0.6113;1.6387;
1276.2000;0.6105;1.6315;
1276.5000;0.6121;1.6339;
1276.8000;0.6113;1.6291;
1277.1000;0.6121;1.6242;
1277.4000;0.6129;1.6315;
1277.7000;0.6129;1.6387;
1278.0000;0.6121;1.6339;
1278.3000;0.6113;1.6387;
1278.6000;0.6129;1.6363;
1278.9000;0.6105;1.6339;
1279.2000;0.6105;1.6460;
1279.5000;0.6113;1.6460;
1279.8000;0.6097;1.6436;
1280.1000;0.6113;1.6387;
1280.4000;0.6154;1.6460;
1280.7000;0.6105;1.6339;
1281.0000;0.6113;1.6436;
1281.3000;0.6121;1.6484;
1281.6000;0.6129;1.6508;
1281.9000;0.6129;1.6460;
1282.2000;0.6121;1.6460;
1282.5000;0.6129;1.6484;
1282.8000;0.6138;1.6508;
1283.1000;0.6121;1.6484;
1283.4000;0.6113;1.6460;
1283.7000;0.6121;1.6508;
1284.0000;0.6113;1.6557;
1284.3000;0.6105;1.6605;
1284.6000;0.6129;1.6605;
1284.9000;0.6146;1.6581;
1285.2000;0.6105;1.6557;
1285.5000;0.6121;1.6629;
1285.8000;0.6121;1.6581;
1286.1000;0.6129;1.6532;
1286.4000;0.6129;1.6508;
1286.7000;0.6121;1.6532;
1287.0000;0.6129;1.6581;
1287.3000;0.6121;1.6581;
1287.6000;0.6105;1.6653;
1287.9000;0.6105;1.6629;
1288.2000;0.6113;1.6532;
1288.5000;0.6113;1.6557;
1288.8000;0.6129;1.6557;
1289.1000;0.6113;1.6581;
1289.4000;0.6121;1.6653;
1289.7000;0.6129;1.6581;
1290.0000;0.6121;1.6557;
1290.3000;0.6097;1.6532;
1290.6000;0.6105;1.6629;
1290.9000;0.6113;1.6726;
1291.2000;0.6121;1.6678;
1291.5000;0.6113;1.6605;
1291.8000;0.6113;1.6557;
1292.1000;0.6129;1.6557;
1292.4000;0.6121;1.6508;
1292.7000;0.6113;1.6460;
1293.0000;0.6097;1.6363;
1293.3000;0.6064;1.6387;
1293.6000;0.6121;1.6508;
1293.9000;0.6097;1.6436;
1294.2000;0.6121;1.6460;
1294.5000;0.6113;1.6436;
1294.8000;0.6121;1.6460;
1295.1000;0.6121;1.6460;
1295.4000;0.6113;1.6436;
1295.7000;0.6121;1.6460;
1296.0000;0.6129;1.6484;
1296.3000;0.6129;1.6436;
1296.6000;0.6113;1.6315;
1296.9000;0.6105;1.6387;
1297.2000;0.6121;1.6460;
1297.5000;0.6121;1.6557;
1297.8000;0.6113;1.6581;
1298.1000;0.6121;1.6581;
1298.4000;0.6162;1.6702;
1298.7000;0.6105;1.6532;
1299.0000;0.6113;1.6629;
1299.3000;0.6105;1.6629;
1299.6000;0.6113;1.6532;
1299.9000;0.6121;1.6581;
1300.2000;0.6113;1.6508;
1300.5000;0.6105;1.6412;
1300.8000;0.6105;1.6363;
1301.1000;0.6113;1.6315;
1301.4000;0.6113;1.6339;
1301.7000;0.6097;1.6363;
1302.0000;0.6097;1.6412;
1302.3000;0.6113;1.6412;
1302.6000;0.6113;1.6387;
1302.9000;0.6105;1.6339;
1303.2000;0.6105;1.6315;
1303.5000;0.6113;1.6291;
1303.8000;0.6129;1.6315;
1304.1000;0.6178;1.6532;
1304.4000;0.6089;1.6387;
1304.7000;0.6121;1.6460;
1305.0000;0.6121;1.6484;
1305.3000;0.6121;1.6460;
1305.6000;0.6113;1.6508;
1305.9000;0.6105;1.6363;
1306.2000;0.6121;1.6339;
1306.5000;0.6121;1.6412;
1306.8000;0.6105;1.6436;
1307.1000;0.6121;1.6460;
1307.4000;0.6146;1.6508;
1307.7000;0.6113;1.6412;
1308.0000;0.6097;1.6315;
1308.3000;0.6113;1.6363;
1308.6000;0.6121;1.6363;
1308.9000;0.6097;1.6339;
1309.2000;0.6113;1.6412;
1309.5000;0.6105;1.6363;
1309.8000;0.6105;1.6339;
1310.1000;0.6121;1.6363;
1310.4000;0.6105;1.6315;
1310.7000;0.6113;1.6339;
1311.0000;0.6113;1.6387;
1311.3000;0.6113;1.6460;
1311.6000;0.6121;1.6460;
1311.9000;0.6105;1.6387;
1312.2000;0.6121;1.6460;
1312.5000;0.6105;1.6412;
1312.8000;0.6081;1.6412;
1313.1000;0.6105;1.6412;
1313.4000;0.6105;1.6460;
1313.7000;0.6113;1.6629;
1314.0000;0.6113;1.6629;
1314.3000;0.6113;1.6653;
1314.6000;0.6097;1.6581;
1314.9000;0.6105;1.6605;
1315.2000;0.6113;1.6532;
1315.5000;0.6113;1.6508;
1315.8000;0.6113;1.6484;
1316.1000;0.6105;1.6508;
1316.4000;0.6064;1.6387;
1316.7000;0.6105;1.6532;
1317.0000;0.6089;1.6508;
1317.3000;0.6097;1.6363;
1317.6000;0.6097;1.6460;
1317.9000;0.6097;1.6557;
1318.2000;0.6097;1.6557;
1318.5000;0.6105;1.6581;
1318.8000;0.6121;1.6653;
1319.1000;0.6113;1.6653;
1319.4000;0.6121;1.6750;
1319.7000;0.6105;1.6629;
1320.0000;0.6105;1.6678;
1320.3000;0.6121;1.6774;
1320.6000;0.6121;1.6774;
1320.9000;0.6129;1.6750;
1321.2000;0.6113;1.6653;
1321.5000;0.6113;1.6653;
1321.8000;0.6146;1.6774;
1322.1000;0.6048;1.6557;
1322.4000;0.6097;1.6678;
1322.7000;0.6056;1.6508;
1323.0000;0.6146;1.6653;
1323.3000;0.6121;1.6581;
1323.6000;0.6056;1.6412;
1323.9000;0.6105;1.6508;
1324.2000;0.6048;1.6339;
1324.5000;0.6113;1.6436;
1324.8000;0.6089;1.6387;
1325.1000;0.6064;1.6363;
1325.4000;0.6129;1.6581;
1325.7000;0.6121;1.6557;
1326.0000;0.6113;1.6605;
1326.3000;0.6121;1.6653;
1326.6000;0.6097;1.6653;
1326.9000;0.6121;1.6581;
1327.2000;0.6105;1.6508;
1327.5000;0.6097;1.6557;
1327.8000;0.6105;1.6508;
1328.1000;0.6138;1.6557;
1328.4000;0.6097;1.6508;
1328.7000;0.6105;1.6484;
1329.0000;0.6105;1.6508;
1329.3000;0.6121;1.6508;
1329.6000;0.6097;1.6581;
1329.9000;0.6097;1.6532;
1330.2000;0.6105;1.6557;
1330.5000;0.6121;1.6508;
1330.8000;0.6097;1.6412;
1331.1000;0.6129;1.6508;
1331.4000;0.6064;1.6387;
1331.7000;0.6113;1.6508;
1332.0000;0.6121;1.6532;
1332.3000;0.6097;1.6557;
1332.6000;0.6105;1.6581;
1332.9000;0.6113;1.6581;
1333.2000;0.6097;1.6508;
1333.5000;0.6105;1.6532;
1333.8000;0.6089;1.6436;
1334.1000;0.6113;1.6460;
1334.4000;0.6105;1.6460;
1334.7000;0.6097;1.6436;
1335.0000;0.6097;1.6436;
1335.3000;0.6121;1.6436;
1335.6000;0.6129;1.6460;
1335.9000;0.6097;1.6412;
1336.2000;0.6089;1.6387;
1336.5000;0.6113;1.6363;
1336.8000;0.6105;1.6412;
1337.1000;0.6097;1.6436;
1337.4000;0.6097;1.6460;
1337.7000;0.6032;1.6267;
1338.0000;0.6121;1.6532;
1338.3000;0.6113;1.6436;
1338.6000;0.6146;1.6557;
1338.9000;0.6121;1.6557;
1339.2000;0.6089;1.6436;
1339.5000;0.6113;1.6412;
1339.8000;0.6113;1.6460;
1340.1000;0.6113;1.6581;
1340.4000;0.6138;1.6581;
1340.7000;0.6154;1.6557;
1341.0000;0.6097;1.6436;
1341.3000;0.6113;1.6363;
1341.6000;0.6072;1.6339;
1341.9000;0.6113;1.6508;
1342.2000;0.6138;1.6581;
1342.5000;0.6105;1.6508;
1342.8000;0.6113;1.6678;
1343.1000;0.6105;1.6774;
1343.4000;0.6097;1.6678;
1343.7000;0.6113;1.6605;
1344.0000;0.6113;1.6581;
1344.3000;0.6105;1.6508;
1344.6000;0.6146;1.6653;
1344.9000;0.6113;1.6678;
1345.2000;0.6056;1.6605;
1345.5000;0.6121;1.6678;
1345.8000;0.6154;1.6750;
1346.1000;0.6154;1.6726;
1346.4000;0.6129;1.6508;
1346.7000;0.6121;1.6484;
1347.0000;0.6089;1.6484;
1347.3000;0.6097;1.6532;
1347.6000;0.6081;1.6581;
1347.9000;0.6113;1.6532;
1348.2000;0.6097;1.6532;
1348.5000;0.6064;1.6387;
1348.8000;0.6097;1.6436;
1349.1000;0.6146;1.6508;
1349.4000;0.6113;1.6387;
1349.7000;0.6113;1.6267;
1350.0000;0.6097;1.6339;
1350.3000;0.6097;1.6363;
1350.6000;0.6105;1.6412;
1350.9000;0.6105;1.6484;
1351.2000;0.6121;1.6605;
1351.5000;0.6138;1.6678;
1351.8000;0.6105;1.6605;
1352.1000;0.6138;1.6678;
1352.4000;0.6064;1.6460;
1352.7000;0.6121;1.6460;
1353.0000;0.6129;1.6436;
1353.3000;0.6113;1.6460;
1353.6000;0.6113;1.6460;
1353.9000;0.6113;1.6484;
1354.2000;0.6113;1.6460;
1354.5000;0.6089;1.6508;
1354.8000;0.6089;1.6557;
1355.1000;0.6097;1.6629;
1355.4000;0.6097;1.6581;
1355.7000;0.6113;1.6629;
1356.0000;0.6105;1.6508;
1356.3000;0.6081;1.6436;
1356.6000;0.6121;1.6532;
1356.9000;0.6113;1.6605;
1357.2000;0.6105;1.6629;
1357.5000;0.6121;1.6653;
1357.8000;0.6105;1.6653;
1358.1000;0.6097;1.6605;
1358.4000;0.6121;1.6605;
1358.7000;0.6121;1.6508;
1359.0000;0.6105;1.6436;
1359.3000;0.6105;1.6363;
1359.6000;0.6097;1.6363;
1359.9000;0.6121;1.6460;
1360.2000;0.6105;1.6460;
1360.5000;0.6097;1.6387;
1360.8000;0.6105;1.6339;
1361.1000;0.6113;1.6436;
1361.4000;0.6129;1.6460;
1361.7000;0.6170;1.6532;
1362.0000;0.6105;1.6436;
1362.3000;0.6105;1.6460;
1362.6000;0.6089;1.6484;
1362.9000;0.6113;1.6678;
1363.2000;0.6097;1.6678;
1363.5000;0.6048;1.6532;
1363.8000;0.6121;1.6774;
1364.1000;0.6097;1.6653;
1364.4000;0.6105;1.6702;
1364.7000;0.6121;1.6726;
1365.0000;0.6113;1.6750;
1365.3000;0.6121;1.6798;
1365.6000;0.6105;1.6750;
1365.9000;0.6105;1.6726;
1366.2000;0.6105;1.6726;
1366.5000;0.6121;1.6678;
1366.8000;0.6113;1.6702;
1367.1000;0.6129;1.6702;
1367.4000;0.6105;1.6726;
1367.7000;0.6097;1.6726;
1368.0000;0.6113;1.6678;
1368.3000;0.6113;1.6702;
1368.6000;0.6113;1.6702;
1368.9000;0.6121;1.6678;
1369.2000;0.6138;1.6678;
1369.5000;0.6097;1.6653;
1369.8000;0.6081;1.6678;
1370.1000;0.6121;1.6750;
1370.4000;0.6113;1.6750;
1370.7000;0.6113;1.6750;
1371.0000;0.6105;1.6702;
1371.3000;0.6113;1.6823;
1371.6000;0.6097;1.6750;
1371.9000;0.6113;1.6678;
1372.2000;0.6105;1.6678;
1372.5000;0.6129;1.6774;
1372.8000;0.6113;1.6726;
1373.1000;0.6105;1.6750;
1373.4000;0.6089;1.6678;
1373.7000;0.6097;1.6702;
1374.0000;0.6097;1.6798;
1374.3000;0.6089;1.6702;
1374.6000;0.6105;1.6678;
1374.9000;0.6089;1.6629;
1375.2000;0.6113;1.6605;
1375.5000;0.6097;1.6581;
1375.8000;0.6105;1.6484;
1376.1000;0.6146;1.6581;
1376.4000;0.6113;1.6532;
1376.7000;0.6105;1.6508;
1377.0000;0.6097;1.6532;
1377.3000;0.6121;1.6557;
1377.6000;0.6121;1.6508;
1377.9000;0.6097;1.6508;
1378.2000;0.6105;1.6460;
1378.5000;0.6113;1.6460;
1378.8000;0.6081;1.6387;
1379.1000;0.6105;1.6460;
1379.4000;0.6089;1.6460;
1379.7000;0.6113;1.6484;
1380.0000;0.6089;1.6484;
1380.3000;0.6113;1.6581;
1380.6000;0.6105;1.6532;
1380.9000;0.6113;1.6508;
1381.2000;0.6105;1.6460;
1381.5000;0.6121;1.6484;
1381.8000;0.6105;1.6363;
1382.1000;0.6105;1.6363;
1382.4000;0.6105;1.6291;
1382.7000;0.6105;1.6267;
1383.0000;0.6129;1.6291;
1383.3000;0.6113;1.6242;
1383.6000;0.6113;1.6387;
1383.9000;0.6129;1.6436;
1384.2000;0.6121;1.6412;
1384.5000;0.6113;1.6339;
1384.8000;0.6089;1.6363;
1385.1000;0.6105;1.6387;
1385.4000;0.6105;1.6436;
1385.7000;0.6121;1.6436;
1386.0000;0.6089;1.6339;
1386.3000;0.6081;1.6242;
1386.6000;0.6097;1.6387;
1386.9000;0.6105;1.6387;
1387.2000;0.6105;1.6387;
1387.5000;0.6089;1.6460;
1387.8000;0.6113;1.6436;
1388.1000;0.6113;1.6387;
1388.4000;0.6089;1.6267;
1388.7000;0.6040;1.6122;
1389.0000;0.6105;1.6315;
1389.3000;0.6105;1.6291;
1389.6000;0.6089;1.6363;
1389.9000;0.6081;1.6267;
1390.2000;0.6089;1.6460;
1390.5000;0.6105;1.6460;
1390.8000;0.6113;1.6460;
1391.1000;0.6097;1.6436;
1391.4000;0.6105;1.6460;
1391.7000;0.6097;1.6484;
1392.0000;0.6097;1.6436;
1392.3000;0.6113;1.6436;
1392.6000;0.6113;1.6363;
1392.9000;0.6121;1.6387;
1393.2000;0.6113;1.6363;
1393.5000;0.6089;1.6363;
1393.8000;0.6089;1.6315;
1394.1000;0.6105;1.6315;
1394.4000;0.6105;1.6242;
1394.7000;0.6097;1.6218;
1395.0000;0.6089;1.6170;
1395.3000;0.6089;1.6170;
1395.6000;0.6097;1.6291;
1395.9000;0.6178;1.6581;
1396.2000;0.6105;1.6412;
1396.5000;0.6097;1.6460;
1396.8000;0.6081;1.6508;
1397.1000;0.6097;1.6460;
1397.4000;0.6105;1.6460;
1397.7000;0.6089;1.6412;
1398.0000;0.6121;1.6460;
1398.3000;0.6048;1.6291;
1398.6000;0.6097;1.6508;
1398.9000;0.6089;1.6484;
1399.2000;0.6089;1.6508;
1399.5000;0.6113;1.6484;
1399.8000;0.6081;1.6436;
