time/ms;Fluo/V;P700 deltaI/I x10³;
-199.8000;0.1384;-1.5579;
-199.5000;0.1498;-1.5278;
-199.2000;0.1490;-1.5278;
-198.9000;0.1473;-1.5403;
-198.6000;0.1416;-1.5579;
-198.3000;0.1473;-1.5478;
-198.0000;0.1547;-1.5303;
-197.7000;0.1481;-1.5478;
-197.4000;0.1481;-1.5453;
-197.1000;0.1498;-1.5453;
-196.8000;0.1498;-1.5403;
-196.5000;0.1530;-1.5328;
-196.2000;0.1490;-1.5353;
-195.9000;0.1473;-1.5453;
-195.6000;0.1498;-1.5453;
-195.3000;0.1506;-1.5428;
-195.0000;0.1490;-1.5478;
-194.7000;0.1506;-1.5503;
-194.4000;0.1506;-1.5453;
-194.1000;0.1457;-1.5579;
-193.8000;0.1490;-1.5553;
-193.5000;0.1506;-1.5579;
-193.2000;0.1547;-1.5528;
-192.9000;0.1514;-1.5579;
-192.6000;0.1457;-1.5729;
-192.3000;0.1506;-1.5629;
-192.0000;0.1514;-1.5604;
-191.7000;0.1449;-1.5779;
-191.4000;0.1473;-1.5679;
-191.1000;0.1473;-1.5679;
-190.8000;0.1498;-1.5704;
-190.5000;0.1498;-1.5704;
-190.2000;0.1514;-1.5528;
-189.9000;0.1490;-1.5553;
-189.6000;0.1441;-1.5704;
-189.3000;0.1473;-1.5579;
-189.0000;0.1506;-1.5579;
-188.7000;0.1498;-1.5604;
-188.4000;0.1481;-1.5604;
-188.1000;0.1522;-1.5528;
-187.8000;0.1514;-1.5604;
-187.5000;0.1498;-1.5629;
-187.2000;0.1490;-1.5679;
-186.9000;0.1490;-1.5604;
-186.6000;0.1473;-1.5629;
-186.3000;0.1473;-1.5629;
-186.0000;0.1481;-1.5654;
-185.7000;0.1473;-1.5604;
-185.4000;0.1498;-1.5528;
-185.1000;0.1425;-1.5704;
-184.8000;0.1506;-1.5528;
-184.5000;0.1498;-1.5528;
-184.2000;0.1490;-1.5453;
-183.9000;0.1506;-1.5478;
-183.6000;0.1490;-1.5654;
-183.3000;0.1498;-1.5704;
-183.0000;0.1481;-1.5779;
-182.7000;0.1514;-1.5679;
-182.4000;0.1514;-1.5654;
-182.1000;0.1555;-1.5604;
-181.8000;0.1506;-1.5654;
-181.5000;0.1481;-1.5729;
-181.2000;0.1514;-1.5629;
-180.9000;0.1498;-1.5629;
-180.6000;0.1506;-1.5528;
-180.3000;0.1506;-1.5503;
-180.0000;0.1490;-1.5503;
-179.7000;0.1490;-1.5503;
-179.4000;0.1481;-1.5553;
-179.1000;0.1481;-1.5503;
-178.8000;0.1498;-1.5503;
-178.5000;0.1498;-1.5403;
-178.2000;0.1506;-1.5453;
-177.9000;0.1490;-1.5478;
-177.6000;0.1465;-1.5428;
-177.3000;0.1441;-1.5453;
-177.0000;0.1473;-1.5453;
-176.7000;0.1498;-1.5428;
-176.4000;0.1522;-1.5403;
-176.1000;0.1490;-1.5528;
-175.8000;0.1481;-1.5528;
-175.5000;0.1490;-1.5604;
-175.2000;0.1490;-1.5528;
-174.9000;0.1514;-1.5503;
-174.6000;0.1571;-1.5328;
-174.3000;0.1514;-1.5579;
-174.0000;0.1490;-1.5654;
-173.7000;0.1498;-1.5629;
-173.4000;0.1555;-1.5553;
-173.1000;0.1498;-1.5704;
-172.8000;0.1522;-1.5604;
-172.5000;0.1490;-1.5528;
-172.2000;0.1473;-1.5579;
-171.9000;0.1465;-1.5528;
-171.6000;0.1522;-1.5503;
-171.3000;0.1490;-1.5579;
-171.0000;0.1506;-1.5453;
-170.7000;0.1481;-1.5478;
-170.4000;0.1498;-1.5528;
-170.1000;0.1481;-1.5503;
-169.8000;0.1530;-1.5378;
-169.5000;0.1481;-1.5579;
-169.2000;0.1506;-1.5579;
-168.9000;0.1498;-1.5528;
-168.6000;0.1490;-1.5604;
-168.3000;0.1555;-1.5428;
-168.0000;0.1490;-1.5679;
-167.7000;0.1433;-1.5804;
-167.4000;0.1506;-1.5604;
-167.1000;0.1490;-1.5654;
-166.8000;0.1490;-1.5553;
-166.5000;0.1490;-1.5528;
-166.2000;0.1522;-1.5453;
-165.9000;0.1498;-1.5553;
-165.6000;0.1538;-1.5453;
-165.3000;0.1498;-1.5604;
-165.0000;0.1449;-1.5779;
-164.7000;0.1547;-1.5604;
-164.4000;0.1506;-1.5729;
-164.1000;0.1481;-1.5629;
-163.8000;0.1490;-1.5679;
-163.5000;0.1506;-1.5679;
-163.2000;0.1498;-1.5629;
-162.9000;0.1481;-1.5629;
-162.6000;0.1473;-1.5604;
-162.3000;0.1498;-1.5528;
-162.0000;0.1498;-1.5503;
-161.7000;0.1481;-1.5528;
-161.4000;0.1465;-1.5478;
-161.1000;0.1514;-1.5403;
-160.8000;0.1498;-1.5478;
-160.5000;0.1481;-1.5579;
-160.2000;0.1538;-1.5428;
-159.9000;0.1506;-1.5453;
-159.6000;0.1498;-1.5528;
-159.3000;0.1498;-1.5553;
-159.0000;0.1498;-1.5528;
-158.7000;0.1506;-1.5579;
-158.4000;0.1481;-1.5704;
-158.1000;0.1490;-1.5553;
-157.8000;0.1490;-1.5679;
-157.5000;0.1481;-1.5829;
-157.2000;0.1530;-1.5779;
-156.9000;0.1481;-1.5955;
-156.6000;0.1473;-1.5930;
-156.3000;0.1481;-1.5905;
-156.0000;0.1490;-1.5930;
-155.7000;0.1498;-1.5930;
-155.4000;0.1481;-1.5955;
-155.1000;0.1490;-1.5930;
-154.8000;0.1498;-1.5855;
-154.5000;0.1490;-1.5804;
-154.2000;0.1481;-1.5855;
-153.9000;0.1490;-1.5880;
-153.6000;0.1490;-1.5880;
-153.3000;0.1481;-1.5955;
-153.0000;0.1498;-1.6030;
-152.7000;0.1514;-1.6005;
-152.4000;0.1441;-1.6105;
-152.1000;0.1490;-1.5955;
-151.8000;0.1481;-1.5955;
-151.5000;0.1481;-1.5955;
-151.2000;0.1481;-1.5855;
-150.9000;0.1490;-1.5779;
-150.6000;0.1498;-1.5880;
-150.3000;0.1506;-1.5880;
-150.0000;0.1473;-1.5930;
-149.7000;0.1506;-1.5804;
-149.4000;0.1498;-1.5804;
-149.1000;0.1473;-1.5880;
-148.8000;0.1473;-1.5804;
-148.5000;0.1506;-1.5829;
-148.2000;0.1490;-1.5804;
-147.9000;0.1498;-1.5779;
-147.6000;0.1498;-1.5754;
-147.3000;0.1490;-1.5829;
-147.0000;0.1473;-1.5855;
-146.7000;0.1473;-1.5804;
-146.4000;0.1465;-1.5804;
-146.1000;0.1506;-1.5654;
-145.8000;0.1506;-1.5679;
-145.5000;0.1490;-1.5754;
-145.2000;0.1457;-1.5880;
-144.9000;0.1473;-1.5804;
-144.6000;0.1498;-1.5729;
-144.3000;0.1506;-1.5779;
-144.0000;0.1498;-1.5679;
-143.7000;0.1514;-1.5804;
-143.4000;0.1498;-1.5829;
-143.1000;0.1481;-1.5829;
-142.8000;0.1490;-1.5905;
-142.5000;0.1490;-1.6005;
-142.2000;0.1473;-1.6080;
-141.9000;0.1465;-1.6055;
-141.6000;0.1473;-1.5955;
-141.3000;0.1481;-1.5930;
-141.0000;0.1481;-1.5855;
-140.7000;0.1473;-1.5905;
-140.4000;0.1473;-1.5829;
-140.1000;0.1547;-1.5754;
-139.8000;0.1473;-1.5930;
-139.5000;0.1498;-1.5829;
-139.2000;0.1490;-1.5754;
-138.9000;0.1473;-1.5704;
-138.6000;0.1481;-1.5704;
-138.3000;0.1490;-1.5528;
-138.0000;0.1481;-1.5528;
-137.7000;0.1465;-1.5679;
-137.4000;0.1490;-1.5679;
-137.1000;0.1449;-1.5704;
-136.8000;0.1481;-1.5604;
-136.5000;0.1449;-1.5629;
-136.2000;0.1473;-1.5679;
-135.9000;0.1490;-1.5604;
-135.6000;0.1473;-1.5604;
-135.3000;0.1473;-1.5629;
-135.0000;0.1481;-1.5754;
-134.7000;0.1506;-1.5779;
-134.4000;0.1490;-1.5754;
-134.1000;0.1498;-1.5729;
-133.8000;0.1498;-1.5679;
-133.5000;0.1490;-1.5754;
-133.2000;0.1498;-1.5779;
-132.9000;0.1490;-1.5829;
-132.6000;0.1481;-1.5855;
-132.3000;0.1506;-1.5880;
-132.0000;0.1465;-1.5930;
-131.7000;0.1506;-1.5829;
-131.4000;0.1481;-1.5829;
-131.1000;0.1481;-1.5779;
-130.8000;0.1473;-1.5905;
-130.5000;0.1498;-1.5779;
-130.2000;0.1473;-1.5729;
-129.9000;0.1498;-1.5629;
-129.6000;0.1514;-1.5629;
-129.3000;0.1522;-1.5654;
-129.0000;0.1408;-1.5980;
-128.7000;0.1490;-1.5704;
-128.4000;0.1506;-1.5679;
-128.1000;0.1498;-1.5679;
-127.8000;0.1498;-1.5754;
-127.5000;0.1490;-1.5804;
-127.2000;0.1498;-1.5754;
-126.9000;0.1490;-1.5829;
-126.6000;0.1498;-1.5829;
-126.3000;0.1465;-1.5905;
-126.0000;0.1473;-1.5779;
-125.7000;0.1490;-1.5729;
-125.4000;0.1490;-1.5704;
-125.1000;0.1490;-1.5704;
-124.8000;0.1481;-1.5754;
-124.5000;0.1473;-1.5729;
-124.2000;0.1530;-1.5528;
-123.9000;0.1498;-1.5579;
-123.6000;0.1457;-1.5579;
-123.3000;0.1490;-1.5579;
-123.0000;0.1457;-1.5604;
-122.7000;0.1498;-1.5503;
-122.4000;0.1481;-1.5579;
-122.1000;0.1490;-1.5604;
-121.8000;0.1481;-1.5729;
-121.5000;0.1506;-1.5604;
-121.2000;0.1498;-1.5604;
-120.9000;0.1490;-1.5503;
-120.6000;0.1481;-1.5428;
-120.3000;0.1490;-1.5403;
-120.0000;0.1457;-1.5478;
-119.7000;0.1490;-1.5478;
-119.4000;0.1506;-1.5428;
-119.1000;0.1498;-1.5553;
-118.8000;0.1490;-1.5528;
-118.5000;0.1384;-1.5804;
-118.2000;0.1449;-1.5654;
-117.9000;0.1473;-1.5654;
-117.6000;0.1490;-1.5754;
-117.3000;0.1587;-1.5528;
-117.0000;0.1457;-1.5930;
-116.7000;0.1490;-1.5880;
-116.4000;0.1490;-1.5880;
-116.1000;0.1441;-1.5955;
-115.8000;0.1473;-1.5880;
-115.5000;0.1538;-1.5629;
-115.2000;0.1498;-1.5704;
-114.9000;0.1481;-1.5654;
-114.6000;0.1481;-1.5704;
-114.3000;0.1498;-1.5654;
-114.0000;0.1490;-1.5829;
-113.7000;0.1473;-1.5905;
-113.4000;0.1530;-1.5704;
-113.1000;0.1498;-1.5804;
-112.8000;0.1433;-1.5955;
-112.5000;0.1490;-1.5779;
-112.2000;0.1490;-1.5779;
-111.9000;0.1481;-1.5804;
-111.6000;0.1473;-1.5829;
-111.3000;0.1522;-1.5629;
-111.0000;0.1465;-1.5704;
-110.7000;0.1449;-1.5604;
-110.4000;0.1481;-1.5579;
-110.1000;0.1473;-1.5553;
-109.8000;0.1473;-1.5553;
-109.5000;0.1473;-1.5579;
-109.2000;0.1490;-1.5604;
-108.9000;0.1473;-1.5804;
-108.6000;0.1481;-1.5880;
-108.3000;0.1490;-1.5779;
-108.0000;0.1506;-1.5779;
-107.7000;0.1498;-1.5829;
-107.4000;0.1490;-1.5880;
-107.1000;0.1481;-1.5880;
-106.8000;0.1498;-1.5729;
-106.5000;0.1490;-1.5754;
-106.2000;0.1498;-1.5779;
-105.9000;0.1530;-1.5679;
-105.6000;0.1555;-1.5629;
-105.3000;0.1506;-1.5704;
-105.0000;0.1506;-1.5754;
-104.7000;0.1498;-1.5729;
-104.4000;0.1481;-1.5729;
-104.1000;0.1498;-1.5804;
-103.8000;0.1506;-1.5704;
-103.5000;0.1490;-1.5754;
-103.2000;0.1490;-1.5754;
-102.9000;0.1481;-1.5779;
-102.6000;0.1514;-1.5754;
-102.3000;0.1490;-1.5804;
-102.0000;0.1498;-1.5880;
-101.7000;0.1547;-1.5704;
-101.4000;0.1514;-1.5829;
-101.1000;0.1498;-1.5855;
-100.8000;0.1465;-1.5955;
-100.5000;0.1457;-1.6005;
-100.2000;0.1490;-1.5829;
-99.9000;0.1538;-1.5679;
-99.6000;0.1490;-1.5729;
-99.3000;0.1465;-1.5804;
-99.0000;0.1425;-1.5930;
-98.7000;0.1490;-1.5779;
-98.4000;0.1457;-1.5829;
-98.1000;0.1490;-1.5754;
-97.8000;0.1481;-1.5704;
-97.5000;0.1555;-1.5428;
-97.2000;0.1490;-1.5478;
-96.9000;0.1384;-1.5855;
-96.6000;0.1481;-1.5654;
-96.3000;0.1547;-1.5503;
-96.0000;0.1481;-1.5754;
-95.7000;0.1522;-1.5704;
-95.4000;0.1579;-1.5604;
-95.1000;0.1481;-1.5855;
-94.8000;0.1481;-1.5754;
-94.5000;0.1449;-1.5829;
-94.2000;0.1498;-1.5679;
-93.9000;0.1481;-1.5779;
-93.6000;0.1473;-1.5905;
-93.3000;0.1481;-1.5804;
-93.0000;0.1481;-1.5804;
-92.7000;0.1490;-1.5804;
-92.4000;0.1547;-1.5654;
-92.1000;0.1457;-1.5804;
-91.8000;0.1473;-1.5804;
-91.5000;0.1473;-1.5855;
-91.2000;0.1506;-1.5804;
-90.9000;0.1473;-1.5804;
-90.6000;0.1408;-1.6030;
-90.3000;0.1498;-1.5654;
-90.0000;0.1400;-1.5955;
-89.7000;0.1473;-1.5679;
-89.4000;0.1441;-1.5779;
-89.1000;0.1408;-1.5880;
-88.8000;0.1498;-1.5654;
-88.5000;0.1498;-1.5679;
-88.2000;0.1481;-1.5729;
-87.9000;0.1522;-1.5704;
-87.6000;0.1465;-1.5804;
-87.3000;0.1506;-1.5679;
-87.0000;0.1465;-1.5829;
-86.7000;0.1473;-1.5829;
-86.4000;0.1514;-1.5779;
-86.1000;0.1465;-1.6005;
-85.8000;0.1490;-1.6030;
-85.5000;0.1490;-1.5930;
-85.2000;0.1490;-1.5980;
-84.9000;0.1481;-1.5980;
-84.6000;0.1490;-1.6030;
-84.3000;0.1490;-1.5980;
-84.0000;0.1473;-1.6030;
-83.7000;0.1490;-1.5930;
-83.4000;0.1498;-1.5880;
-83.1000;0.1490;-1.5804;
-82.8000;0.1457;-1.5855;
-82.5000;0.1498;-1.5754;
-82.2000;0.1498;-1.5804;
-81.9000;0.1481;-1.5880;
-81.6000;0.1457;-1.5905;
-81.3000;0.1490;-1.5880;
-81.0000;0.1490;-1.5855;
-80.7000;0.1522;-1.5779;
-80.4000;0.1473;-1.5905;
-80.1000;0.1490;-1.5905;
-79.8000;0.1522;-1.5729;
-79.5000;0.1490;-1.5754;
-79.2000;0.1506;-1.5729;
-78.9000;0.1506;-1.5804;
-78.6000;0.1384;-1.6080;
-78.3000;0.1490;-1.5855;
-78.0000;0.1498;-1.5930;
-77.7000;0.1514;-1.5955;
-77.4000;0.1473;-1.6105;
-77.1000;0.1490;-1.6080;
-76.8000;0.1514;-1.5955;
-76.5000;0.1473;-1.6005;
-76.2000;0.1490;-1.5980;
-75.9000;0.1481;-1.6005;
-75.6000;0.1473;-1.6080;
-75.3000;0.1522;-1.5930;
-75.0000;0.1498;-1.5930;
-74.7000;0.1604;-1.5729;
-74.4000;0.1498;-1.6030;
-74.1000;0.1514;-1.6030;
-73.8000;0.1359;-1.6406;
-73.5000;0.1498;-1.6105;
-73.2000;0.1514;-1.6080;
-72.9000;0.1490;-1.6206;
-72.6000;0.1368;-1.6356;
-72.3000;0.1473;-1.6080;
-72.0000;0.1481;-1.6055;
-71.7000;0.1416;-1.6181;
-71.4000;0.1481;-1.6055;
-71.1000;0.1473;-1.6030;
-70.8000;0.1481;-1.6005;
-70.5000;0.1490;-1.5905;
-70.2000;0.1384;-1.6156;
-69.9000;0.1490;-1.5905;
-69.6000;0.1506;-1.5779;
-69.3000;0.1498;-1.5855;
-69.0000;0.1457;-1.5955;
-68.7000;0.1465;-1.5930;
-68.4000;0.1498;-1.5779;
-68.1000;0.1433;-1.5930;
-67.8000;0.1490;-1.5754;
-67.5000;0.1473;-1.5779;
-67.2000;0.1473;-1.5804;
-66.9000;0.1465;-1.5779;
-66.6000;0.1530;-1.5654;
-66.3000;0.1506;-1.5829;
-66.0000;0.1457;-1.5980;
-65.7000;0.1481;-1.6005;
-65.4000;0.1473;-1.6055;
-65.1000;0.1433;-1.6181;
-64.8000;0.1490;-1.6030;
-64.5000;0.1490;-1.6005;
-64.2000;0.1457;-1.6156;
-63.9000;0.1481;-1.6055;
-63.6000;0.1498;-1.6080;
-63.3000;0.1506;-1.5980;
-63.0000;0.1506;-1.5905;
-62.7000;0.1490;-1.5930;
-62.4000;0.1490;-1.6005;
-62.1000;0.1530;-1.5955;
-61.8000;0.1506;-1.6030;
-61.5000;0.1498;-1.6005;
-61.2000;0.1425;-1.6080;
-60.9000;0.1473;-1.5930;
-60.6000;0.1490;-1.5855;
-60.3000;0.1457;-1.5955;
-60.0000;0.1473;-1.5905;
-59.7000;0.1481;-1.5880;
-59.4000;0.1498;-1.5729;
-59.1000;0.1481;-1.5704;
-58.8000;0.1490;-1.5654;
-58.5000;0.1481;-1.5729;
-58.2000;0.1498;-1.5704;
-57.9000;0.1555;-1.5579;
-57.6000;0.1481;-1.5654;
-57.3000;0.1490;-1.5729;
-57.0000;0.1481;-1.5729;
-56.7000;0.1473;-1.5779;
-56.4000;0.1498;-1.5779;
-56.1000;0.1465;-1.5829;
-55.8000;0.1457;-1.5829;
-55.5000;0.1481;-1.5754;
-55.2000;0.1465;-1.5779;
-54.9000;0.1490;-1.5829;
-54.6000;0.1490;-1.5855;
-54.3000;0.1498;-1.5829;
-54.0000;0.1490;-1.5855;
-53.7000;0.1481;-1.5804;
-53.4000;0.1563;-1.5629;
-53.1000;0.1481;-1.5754;
-52.8000;0.1522;-1.5754;
-52.5000;0.1490;-1.5829;
-52.2000;0.1490;-1.5880;
-51.9000;0.1490;-1.5980;
-51.6000;0.1457;-1.6005;
-51.3000;0.1473;-1.5855;
-51.0000;0.1522;-1.5754;
-50.7000;0.1465;-1.5855;
-50.4000;0.1449;-1.5880;
-50.1000;0.1457;-1.5955;
-49.8000;0.1514;-1.5804;
-49.5000;0.1514;-1.5855;
-49.2000;0.1538;-1.5829;
-48.9000;0.1473;-1.5955;
-48.6000;0.1457;-1.6055;
-48.3000;0.1457;-1.6105;
-48.0000;0.1530;-1.5880;
-47.7000;0.1498;-1.5905;
-47.4000;0.1465;-1.5980;
-47.1000;0.1481;-1.5955;
-46.8000;0.1473;-1.5980;
-46.5000;0.1490;-1.6005;
-46.2000;0.1481;-1.6055;
-45.9000;0.1449;-1.6030;
-45.6000;0.1490;-1.5905;
-45.3000;0.1481;-1.5905;
-45.0000;0.1530;-1.5754;
-44.7000;0.1555;-1.5579;
-44.4000;0.1538;-1.5704;
-44.1000;0.1392;-1.6005;
-43.8000;0.1498;-1.5804;
-43.5000;0.1457;-1.5905;
-43.2000;0.1490;-1.5804;
-42.9000;0.1490;-1.5880;
-42.6000;0.1498;-1.5930;
-42.3000;0.1498;-1.6005;
-42.0000;0.1538;-1.5779;
-41.7000;0.1473;-1.6005;
-41.4000;0.1473;-1.5980;
-41.1000;0.1473;-1.6030;
-40.8000;0.1457;-1.6030;
-40.5000;0.1481;-1.5930;
-40.2000;0.1481;-1.5855;
-39.9000;0.1481;-1.5930;
-39.6000;0.1490;-1.5930;
-39.3000;0.1473;-1.5905;
-39.0000;0.1481;-1.5829;
-38.7000;0.1490;-1.5804;
-38.4000;0.1490;-1.5779;
-38.1000;0.1465;-1.5829;
-37.8000;0.1490;-1.5804;
-37.5000;0.1481;-1.5829;
-37.2000;0.1473;-1.5804;
-36.9000;0.1481;-1.5754;
-36.6000;0.1481;-1.5754;
-36.3000;0.1547;-1.5679;
-36.0000;0.1465;-1.5955;
-35.7000;0.1457;-1.5930;
-35.4000;0.1481;-1.5880;
-35.1000;0.1490;-1.5855;
-34.8000;0.1473;-1.5880;
-34.5000;0.1473;-1.5905;
-34.2000;0.1473;-1.5955;
-33.9000;0.1498;-1.5880;
-33.6000;0.1490;-1.5804;
-33.3000;0.1465;-1.5880;
-33.0000;0.1457;-1.5855;
-32.7000;0.1465;-1.5855;
-32.4000;0.1473;-1.5829;
-32.1000;0.1481;-1.5729;
-31.8000;0.1465;-1.5679;
-31.5000;0.1481;-1.5604;
-31.2000;0.1481;-1.5629;
-30.9000;0.1498;-1.5579;
-30.6000;0.1473;-1.5579;
-30.3000;0.1498;-1.5378;
-30.0000;0.1522;-1.5503;
-29.7000;0.1490;-1.5629;
-29.4000;0.1490;-1.5604;
-29.1000;0.1473;-1.5604;
-28.8000;0.1498;-1.5629;
-28.5000;0.1490;-1.5604;
-28.2000;0.1514;-1.5629;
-27.9000;0.1481;-1.5729;
-27.6000;0.1465;-1.5729;
-27.3000;0.1449;-1.5754;
-27.0000;0.1498;-1.5553;
-26.7000;0.1473;-1.5604;
-26.4000;0.1392;-1.5779;
-26.1000;0.1490;-1.5553;
-25.8000;0.1473;-1.5629;
-25.5000;0.1481;-1.5629;
-25.2000;0.1433;-1.5855;
-24.9000;0.1522;-1.5629;
-24.6000;0.1481;-1.5804;
-24.3000;0.1506;-1.5729;
-24.0000;0.1498;-1.5729;
-23.7000;0.1498;-1.5729;
-23.4000;0.1498;-1.5754;
-23.1000;0.1465;-1.5880;
-22.8000;0.1514;-1.5804;
-22.5000;0.1490;-1.5855;
-22.2000;0.1473;-1.5855;
-21.9000;0.1457;-1.5880;
-21.6000;0.1481;-1.5804;
-21.3000;0.1481;-1.5804;
-21.0000;0.1416;-1.5930;
-20.7000;0.1457;-1.5829;
-20.4000;0.1473;-1.5855;
-20.1000;0.1490;-1.5804;
-19.8000;0.1457;-1.5804;
-19.5000;0.1473;-1.5855;
-19.2000;0.1473;-1.5829;
-18.9000;0.1490;-1.5804;
-18.6000;0.1392;-1.6030;
-18.3000;0.1473;-1.5754;
-18.0000;0.1465;-1.5905;
-17.7000;0.1473;-1.5930;
-17.4000;0.1498;-1.5880;
-17.1000;0.1506;-1.5855;
-16.8000;0.1457;-1.5905;
-16.5000;0.1481;-1.5829;
-16.2000;0.1465;-1.5804;
-15.9000;0.1498;-1.5779;
-15.6000;0.1449;-1.5930;
-15.3000;0.1481;-1.5905;
-15.0000;0.1538;-1.5679;
-14.7000;0.1490;-1.5754;
-14.4000;0.1490;-1.5804;
-14.1000;0.1481;-1.5829;
-13.8000;0.1506;-1.5754;
-13.5000;0.1498;-1.5829;
-13.2000;0.1514;-1.5829;
-12.9000;0.1490;-1.5754;
-12.6000;0.1473;-1.5804;
-12.3000;0.1514;-1.5579;
-12.0000;0.1490;-1.5629;
-11.7000;0.1473;-1.5679;
-11.4000;0.1481;-1.5679;
-11.1000;0.1522;-1.5604;
-10.8000;0.1490;-1.5779;
-10.5000;0.1490;-1.5880;
-10.2000;0.1514;-1.5855;
-9.9000;0.1490;-1.5930;
-9.6000;0.1506;-1.5829;
-9.3000;0.1490;-1.5804;
-9.0000;0.1490;-1.5729;
-8.7000;0.1465;-1.5754;
-8.4000;0.1498;-1.5604;
-8.1000;0.1490;-1.5579;
-7.8000;0.1481;-1.5503;
-7.5000;0.1506;-1.5428;
-7.2000;0.1457;-1.5528;
-6.9000;0.1481;-1.5528;
-6.6000;0.1473;-1.5503;
-6.3000;0.1433;-1.5553;
-6.0000;0.1481;-1.5528;
-5.7000;0.1473;-1.5654;
-5.4000;0.1530;-1.5453;
-5.1000;0.1481;-1.5579;
-4.8000;0.1498;-1.5654;
-4.5000;0.1457;-1.5754;
-4.2000;0.1547;-1.5553;
-3.9000;0.1490;-1.5679;
-3.6000;0.1481;-1.5729;
-3.3000;0.1449;-1.5704;
-3.0000;0.1481;-1.5604;
-2.7000;0.1449;-1.5604;
-2.4000;0.1555;-1.5428;
-2.1000;0.1514;-1.5579;
-1.8000;0.1490;-1.5629;
-1.5000;0.1481;-1.5579;
-1.2000;0.1530;-1.5403;
-0.9000;0.1481;-1.5629;
-0.6000;0.1490;-1.5528;
-0.3000;0.1490;-1.5579;
0.0000;0.1490;-1.5579;
0.3000;0.1490;-1.5453;
0.6000;0.1490;-1.5278;
0.9000;0.1514;-1.5002;
1.2000;0.1547;-1.4801;
1.5000;0.1563;-1.4525;
1.8000;0.1636;-1.4174;
2.1000;0.1587;-1.4149;
2.4000;0.1587;-1.3998;
2.7000;0.1587;-1.3772;
3.0000;0.1620;-1.3622;
3.3000;0.1604;-1.3622;
3.6000;0.1595;-1.3572;
3.9000;0.1628;-1.3396;
4.2000;0.1701;-1.3095;
4.5000;0.1595;-1.3346;
4.8000;0.1604;-1.3271;
5.1000;0.1620;-1.3321;
5.4000;0.1628;-1.3271;
5.7000;0.1636;-1.3195;
6.0000;0.1628;-1.3246;
6.3000;0.1579;-1.3296;
6.6000;0.1612;-1.3145;
6.9000;0.1636;-1.3120;
7.2000;0.1685;-1.3045;
7.5000;0.1628;-1.3220;
7.8000;0.1661;-1.3220;
8.1000;0.1652;-1.3271;
8.4000;0.1620;-1.3346;
8.7000;0.1628;-1.3321;
9.0000;0.1604;-1.3346;
9.3000;0.1628;-1.3271;
9.6000;0.1620;-1.3220;
9.9000;0.1628;-1.3120;
10.2000;0.1636;-1.3045;
10.5000;0.1644;-1.3070;
10.8000;0.1644;-1.3145;
11.1000;0.1587;-1.3296;
11.4000;0.1644;-1.3145;
11.7000;0.1644;-1.3145;
12.0000;0.1644;-1.3045;
12.3000;0.1644;-1.3020;
12.6000;0.1620;-1.3045;
12.9000;0.1636;-1.3095;
13.2000;0.1644;-1.3145;
13.5000;0.1644;-1.3120;
13.8000;0.1620;-1.3145;
14.1000;0.1644;-1.3045;
14.4000;0.1628;-1.3095;
14.7000;0.1628;-1.3120;
15.0000;0.1595;-1.3220;
15.3000;0.1652;-1.3045;
15.6000;0.1628;-1.3070;
15.9000;0.1636;-1.3170;
16.2000;0.1636;-1.3095;
16.5000;0.1644;-1.3145;
16.8000;0.1644;-1.3145;
17.1000;0.1636;-1.3170;
17.4000;0.1620;-1.3145;
17.7000;0.1661;-1.2995;
18.0000;0.1636;-1.3095;
18.3000;0.1636;-1.3170;
18.6000;0.1612;-1.3296;
18.9000;0.1620;-1.3321;
19.2000;0.1620;-1.3271;
19.5000;0.1579;-1.3296;
19.8000;0.1628;-1.3246;
20.1000;0.1628;-1.3321;
20.4000;0.1669;-1.3271;
20.7000;0.1579;-1.3421;
21.0000;0.1693;-1.2970;
21.3000;0.1628;-1.3145;
21.6000;0.1555;-1.3346;
21.9000;0.1644;-1.3246;
22.2000;0.1644;-1.3220;
22.5000;0.1644;-1.3220;
22.8000;0.1620;-1.3246;
23.1000;0.1612;-1.3145;
23.4000;0.1571;-1.3145;
23.7000;0.1620;-1.2970;
24.0000;0.1595;-1.3070;
24.3000;0.1628;-1.2995;
24.6000;0.1628;-1.3045;
24.9000;0.1652;-1.3045;
25.2000;0.1636;-1.3070;
25.5000;0.1612;-1.3070;
25.8000;0.1644;-1.3045;
26.1000;0.1677;-1.2970;
26.4000;0.1644;-1.3095;
26.7000;0.1612;-1.3145;
27.0000;0.1636;-1.3170;
27.3000;0.1652;-1.3070;
27.6000;0.1620;-1.3120;
27.9000;0.1612;-1.3170;
28.2000;0.1628;-1.3271;
28.5000;0.1628;-1.3296;
28.8000;0.1628;-1.3321;
29.1000;0.1628;-1.3321;
29.4000;0.1652;-1.3246;
29.7000;0.1636;-1.3296;
30.0000;0.1644;-1.3271;
30.3000;0.1636;-1.3271;
30.6000;0.1628;-1.3246;
30.9000;0.1620;-1.3246;
31.2000;0.1620;-1.3220;
31.5000;0.1644;-1.3145;
31.8000;0.1644;-1.3170;
32.1000;0.1620;-1.3145;
32.4000;0.1652;-1.3120;
32.7000;0.1644;-1.3195;
33.0000;0.1628;-1.3195;
33.3000;0.1636;-1.3120;
33.6000;0.1644;-1.3070;
33.9000;0.1620;-1.3070;
34.2000;0.1628;-1.3095;
34.5000;0.1636;-1.3070;
34.8000;0.1620;-1.3045;
35.1000;0.1636;-1.3070;
35.4000;0.1620;-1.3246;
35.7000;0.1636;-1.3396;
36.0000;0.1644;-1.3246;
36.3000;0.1644;-1.3296;
36.6000;0.1636;-1.3271;
36.9000;0.1636;-1.3220;
37.2000;0.1644;-1.3170;
37.5000;0.1652;-1.3020;
37.8000;0.1652;-1.2970;
38.1000;0.1644;-1.2970;
38.4000;0.1636;-1.2995;
38.7000;0.1652;-1.3070;
39.0000;0.1636;-1.3145;
39.3000;0.1555;-1.3296;
39.6000;0.1644;-1.2970;
39.9000;0.1644;-1.2919;
40.2000;0.1636;-1.3045;
40.5000;0.1628;-1.2970;
40.8000;0.1644;-1.2995;
41.1000;0.1620;-1.3020;
41.4000;0.1628;-1.3045;
41.7000;0.1628;-1.3045;
42.0000;0.1636;-1.3145;
42.3000;0.1644;-1.3170;
42.6000;0.1652;-1.3120;
42.9000;0.1636;-1.3095;
43.2000;0.1612;-1.3170;
43.5000;0.1669;-1.3020;
43.8000;0.1636;-1.3145;
44.1000;0.1595;-1.3246;
44.4000;0.1620;-1.3170;
44.7000;0.1612;-1.3145;
45.0000;0.1644;-1.3145;
45.3000;0.1628;-1.3220;
45.6000;0.1595;-1.3246;
45.9000;0.1636;-1.3120;
46.2000;0.1652;-1.3095;
46.5000;0.1604;-1.3246;
46.8000;0.1636;-1.3246;
47.1000;0.1669;-1.3271;
47.4000;0.1628;-1.3271;
47.7000;0.1628;-1.3421;
48.0000;0.1685;-1.3246;
48.3000;0.1595;-1.3471;
48.6000;0.1628;-1.3371;
48.9000;0.1636;-1.3396;
49.2000;0.1701;-1.3246;
49.5000;0.1652;-1.3371;
49.8000;0.1644;-1.3321;
50.1000;0.1604;-1.3421;
50.4000;0.1783;-1.2869;
50.7000;0.1628;-1.3296;
51.0000;0.1604;-1.3346;
51.3000;0.1628;-1.3220;
51.6000;0.1612;-1.3271;
51.9000;0.1604;-1.3346;
52.2000;0.1652;-1.3296;
52.5000;0.1628;-1.3296;
52.8000;0.1644;-1.3321;
53.1000;0.1693;-1.3170;
53.4000;0.1587;-1.3296;
53.7000;0.1628;-1.3271;
54.0000;0.1636;-1.3220;
54.3000;0.1612;-1.3271;
54.6000;0.1644;-1.3120;
54.9000;0.1620;-1.3195;
55.2000;0.1604;-1.3321;
55.5000;0.1620;-1.3321;
55.8000;0.1636;-1.3321;
56.1000;0.1628;-1.3396;
56.4000;0.1628;-1.3421;
56.7000;0.1628;-1.3496;
57.0000;0.1612;-1.3471;
57.3000;0.1604;-1.3446;
57.6000;0.1620;-1.3346;
57.9000;0.1636;-1.3371;
58.2000;0.1628;-1.3346;
58.5000;0.1644;-1.3271;
58.8000;0.1652;-1.3296;
59.1000;0.1677;-1.3145;
59.4000;0.1636;-1.3246;
59.7000;0.1628;-1.3195;
60.0000;0.1620;-1.3170;
60.3000;0.1620;-1.3145;
60.6000;0.1661;-1.3095;
60.9000;0.1644;-1.3195;
61.2000;0.1620;-1.3271;
61.5000;0.1636;-1.3195;
61.8000;0.1620;-1.3145;
62.1000;0.1604;-1.3095;
62.4000;0.1612;-1.3095;
62.7000;0.1644;-1.3045;
63.0000;0.1612;-1.3045;
63.3000;0.1620;-1.3095;
63.6000;0.1652;-1.3120;
63.9000;0.1636;-1.3070;
64.2000;0.1612;-1.3095;
64.5000;0.1644;-1.2945;
64.8000;0.1612;-1.3070;
65.1000;0.1620;-1.3120;
65.4000;0.1612;-1.3271;
65.7000;0.1669;-1.3170;
66.0000;0.1612;-1.3296;
66.3000;0.1636;-1.3271;
66.6000;0.1628;-1.3296;
66.9000;0.1620;-1.3296;
67.2000;0.1636;-1.3246;
67.5000;0.1685;-1.3045;
67.8000;0.1595;-1.3246;
68.1000;0.1604;-1.3271;
68.4000;0.1652;-1.3120;
68.7000;0.1628;-1.3145;
69.0000;0.1693;-1.3020;
69.3000;0.1595;-1.3195;
69.6000;0.1595;-1.3170;
69.9000;0.1644;-1.3020;
70.2000;0.1628;-1.2995;
70.5000;0.1620;-1.2945;
70.8000;0.1604;-1.2945;
71.1000;0.1693;-1.2719;
71.4000;0.1685;-1.2794;
71.7000;0.1652;-1.2970;
72.0000;0.1628;-1.3070;
72.3000;0.1620;-1.3120;
72.6000;0.1636;-1.3195;
72.9000;0.1644;-1.3145;
73.2000;0.1685;-1.2945;
73.5000;0.1628;-1.3020;
73.8000;0.1661;-1.3020;
74.1000;0.1636;-1.3095;
74.4000;0.1620;-1.3095;
74.7000;0.1612;-1.3120;
75.0000;0.1587;-1.3120;
75.3000;0.1620;-1.3020;
75.6000;0.1620;-1.3020;
75.9000;0.1612;-1.3120;
76.2000;0.1612;-1.3195;
76.5000;0.1612;-1.3195;
76.8000;0.1644;-1.3070;
77.1000;0.1677;-1.2919;
77.4000;0.1620;-1.2970;
77.7000;0.1604;-1.3070;
78.0000;0.1620;-1.3020;
78.3000;0.1628;-1.3020;
78.6000;0.1628;-1.3070;
78.9000;0.1628;-1.3020;
79.2000;0.1636;-1.2970;
79.5000;0.1612;-1.3020;
79.8000;0.1628;-1.2970;
80.1000;0.1628;-1.2970;
80.4000;0.1628;-1.2995;
80.7000;0.1669;-1.2894;
81.0000;0.1620;-1.3095;
81.3000;0.1620;-1.3120;
81.6000;0.1628;-1.3095;
81.9000;0.1628;-1.2995;
82.2000;0.1620;-1.3120;
82.5000;0.1636;-1.3095;
82.8000;0.1604;-1.3145;
83.1000;0.1620;-1.3045;
83.4000;0.1636;-1.3170;
83.7000;0.1538;-1.3446;
84.0000;0.1636;-1.3195;
84.3000;0.1636;-1.3220;
84.6000;0.1636;-1.3195;
84.9000;0.1595;-1.3220;
85.2000;0.1604;-1.3070;
85.5000;0.1636;-1.3070;
85.8000;0.1669;-1.2995;
86.1000;0.1620;-1.3145;
86.4000;0.1636;-1.3195;
86.7000;0.1612;-1.3296;
87.0000;0.1644;-1.3145;
87.3000;0.1636;-1.3145;
87.6000;0.1604;-1.3246;
87.9000;0.1636;-1.3246;
88.2000;0.1620;-1.3296;
88.5000;0.1644;-1.3220;
88.8000;0.1604;-1.3095;
89.1000;0.1644;-1.2995;
89.4000;0.1652;-1.2894;
89.7000;0.1661;-1.2894;
90.0000;0.1604;-1.3045;
90.3000;0.1604;-1.2945;
90.6000;0.1571;-1.3070;
90.9000;0.1612;-1.2970;
91.2000;0.1628;-1.3020;
91.5000;0.1652;-1.2995;
91.8000;0.1628;-1.3145;
92.1000;0.1628;-1.3120;
92.4000;0.1604;-1.3095;
92.7000;0.1652;-1.3070;
93.0000;0.1612;-1.3145;
93.3000;0.1628;-1.3145;
93.6000;0.1644;-1.2995;
93.9000;0.1620;-1.3170;
94.2000;0.1612;-1.3195;
94.5000;0.1612;-1.3170;
94.8000;0.1612;-1.3170;
95.1000;0.1620;-1.3195;
95.4000;0.1587;-1.3246;
95.7000;0.1628;-1.3145;
96.0000;0.1571;-1.3371;
96.3000;0.1612;-1.3170;
96.6000;0.1628;-1.3246;
96.9000;0.1652;-1.3120;
97.2000;0.1636;-1.3170;
97.5000;0.1636;-1.3145;
97.8000;0.1604;-1.3271;
98.1000;0.1587;-1.3346;
98.4000;0.1636;-1.3170;
98.7000;0.1636;-1.3170;
99.0000;0.1587;-1.3246;
99.3000;0.1620;-1.3170;
99.6000;0.1709;-1.2919;
99.9000;0.1620;-1.3070;
100.2000;0.1620;-1.3070;
100.5000;0.1587;-1.3195;
100.8000;0.1636;-1.3045;
101.1000;0.1644;-1.3095;
101.4000;0.1628;-1.3220;
101.7000;0.1612;-1.3220;
102.0000;0.1628;-1.3145;
102.3000;0.1652;-1.3070;
102.6000;0.1620;-1.3195;
102.9000;0.1636;-1.3195;
103.2000;0.1636;-1.3145;
103.5000;0.1644;-1.3120;
103.8000;0.1685;-1.3045;
104.1000;0.1612;-1.3220;
104.4000;0.1644;-1.3120;
104.7000;0.1669;-1.3020;
105.0000;0.1636;-1.3070;
105.3000;0.1628;-1.3095;
105.6000;0.1628;-1.3070;
105.9000;0.1669;-1.2995;
106.2000;0.1620;-1.3145;
106.5000;0.1636;-1.3170;
106.8000;0.1620;-1.3321;
107.1000;0.1644;-1.3346;
107.4000;0.1636;-1.3371;
107.7000;0.1620;-1.3396;
108.0000;0.1652;-1.3346;
108.3000;0.1628;-1.3246;
108.6000;0.1636;-1.3296;
108.9000;0.1636;-1.3170;
109.2000;0.1636;-1.2995;
109.5000;0.1612;-1.3020;
109.8000;0.1628;-1.3070;
110.1000;0.1636;-1.3070;
110.4000;0.1620;-1.3195;
110.7000;0.1620;-1.3145;
111.0000;0.1636;-1.3045;
111.3000;0.1669;-1.2945;
111.6000;0.1612;-1.3070;
111.9000;0.1636;-1.3045;
112.2000;0.1644;-1.3070;
112.5000;0.1669;-1.2919;
112.8000;0.1612;-1.3045;
113.1000;0.1612;-1.3120;
113.4000;0.1620;-1.3095;
113.7000;0.1612;-1.3145;
114.0000;0.1628;-1.3246;
114.3000;0.1620;-1.3195;
114.6000;0.1652;-1.3145;
114.9000;0.1636;-1.3220;
115.2000;0.1628;-1.3271;
115.5000;0.1644;-1.3321;
115.8000;0.1571;-1.3547;
116.1000;0.1620;-1.3296;
116.4000;0.1628;-1.3296;
116.7000;0.1579;-1.3321;
117.0000;0.1628;-1.3246;
117.3000;0.1595;-1.3396;
117.6000;0.1595;-1.3446;
117.9000;0.1620;-1.3446;
118.2000;0.1612;-1.3446;
118.5000;0.1644;-1.3321;
118.8000;0.1628;-1.3220;
119.1000;0.1571;-1.3296;
119.4000;0.1571;-1.3170;
119.7000;0.1620;-1.3120;
120.0000;0.1620;-1.3095;
120.3000;0.1628;-1.3045;
120.6000;0.1595;-1.3095;
120.9000;0.1644;-1.3045;
121.2000;0.1612;-1.3095;
121.5000;0.1612;-1.3045;
121.8000;0.1628;-1.3120;
122.1000;0.1620;-1.3120;
122.4000;0.1612;-1.3170;
122.7000;0.1636;-1.3271;
123.0000;0.1628;-1.3296;
123.3000;0.1628;-1.3271;
123.6000;0.1644;-1.3195;
123.9000;0.1620;-1.3220;
124.2000;0.1620;-1.3246;
124.5000;0.1628;-1.3246;
124.8000;0.1636;-1.3246;
125.1000;0.1628;-1.3220;
125.4000;0.1644;-1.3170;
125.7000;0.1620;-1.3195;
126.0000;0.1628;-1.3271;
126.3000;0.1636;-1.3246;
126.6000;0.1636;-1.3321;
126.9000;0.1636;-1.3321;
127.2000;0.1604;-1.3346;
127.5000;0.1620;-1.3170;
127.8000;0.1636;-1.3070;
128.1000;0.1628;-1.3195;
128.4000;0.1628;-1.3170;
128.7000;0.1661;-1.3120;
129.0000;0.1612;-1.3271;
129.3000;0.1636;-1.3296;
129.6000;0.1628;-1.3220;
129.9000;0.1620;-1.3195;
130.2000;0.1636;-1.3220;
130.5000;0.1628;-1.3296;
130.8000;0.1677;-1.3145;
131.1000;0.1636;-1.3220;
131.4000;0.1620;-1.3246;
131.7000;0.1669;-1.3170;
132.0000;0.1644;-1.3371;
132.3000;0.1644;-1.3346;
132.6000;0.1620;-1.3396;
132.9000;0.1644;-1.3271;
133.2000;0.1628;-1.3296;
133.5000;0.1604;-1.3271;
133.8000;0.1628;-1.3170;
134.1000;0.1628;-1.3195;
134.4000;0.1628;-1.3145;
134.7000;0.1628;-1.3195;
135.0000;0.1620;-1.3246;
135.3000;0.1620;-1.3346;
135.6000;0.1636;-1.3346;
135.9000;0.1620;-1.3371;
136.2000;0.1628;-1.3246;
136.5000;0.1636;-1.3220;
136.8000;0.1571;-1.3496;
137.1000;0.1644;-1.3220;
137.4000;0.1612;-1.3271;
137.7000;0.1628;-1.3271;
138.0000;0.1636;-1.3271;
138.3000;0.1604;-1.3346;
138.6000;0.1652;-1.3220;
138.9000;0.1685;-1.3145;
139.2000;0.1604;-1.3246;
139.5000;0.1612;-1.3145;
139.8000;0.1612;-1.3095;
140.1000;0.1604;-1.3070;
140.4000;0.1636;-1.3070;
140.7000;0.1620;-1.3145;
141.0000;0.1628;-1.3070;
141.3000;0.1628;-1.2970;
141.6000;0.1612;-1.3020;
141.9000;0.1571;-1.3195;
142.2000;0.1652;-1.2995;
142.5000;0.1669;-1.2894;
142.8000;0.1636;-1.2995;
143.1000;0.1677;-1.2844;
143.4000;0.1506;-1.3246;
143.7000;0.1612;-1.2945;
144.0000;0.1628;-1.3020;
144.3000;0.1620;-1.3095;
144.6000;0.1644;-1.3095;
144.9000;0.1620;-1.3170;
145.2000;0.1628;-1.3195;
145.5000;0.1612;-1.3296;
145.8000;0.1612;-1.3246;
146.1000;0.1620;-1.3246;
146.4000;0.1661;-1.3095;
146.7000;0.1636;-1.3170;
147.0000;0.1620;-1.3145;
147.3000;0.1644;-1.3045;
147.6000;0.1620;-1.3195;
147.9000;0.1628;-1.3170;
148.2000;0.1604;-1.3145;
148.5000;0.1620;-1.3045;
148.8000;0.1595;-1.3120;
149.1000;0.1636;-1.3070;
149.4000;0.1620;-1.3120;
149.7000;0.1579;-1.3346;
150.0000;0.1693;-1.3120;
150.3000;0.1579;-1.3421;
150.6000;0.1628;-1.3246;
150.9000;0.1620;-1.3220;
151.2000;0.1628;-1.3195;
151.5000;0.1628;-1.3220;
151.8000;0.1628;-1.3220;
152.1000;0.1538;-1.3346;
152.4000;0.1612;-1.3095;
152.7000;0.1571;-1.3296;
153.0000;0.1628;-1.3120;
153.3000;0.1612;-1.3095;
153.6000;0.1628;-1.3145;
153.9000;0.1701;-1.2970;
154.2000;0.1652;-1.3095;
154.5000;0.1636;-1.3020;
154.8000;0.1620;-1.2995;
155.1000;0.1604;-1.2995;
155.4000;0.1628;-1.2970;
155.7000;0.1628;-1.3020;
156.0000;0.1644;-1.3095;
156.3000;0.1628;-1.3170;
156.6000;0.1620;-1.3170;
156.9000;0.1644;-1.3070;
157.2000;0.1628;-1.3095;
157.5000;0.1612;-1.3095;
157.8000;0.1612;-1.3170;
158.1000;0.1620;-1.3095;
158.4000;0.1620;-1.3020;
158.7000;0.1612;-1.3070;
159.0000;0.1685;-1.2894;
159.3000;0.1620;-1.3145;
159.6000;0.1612;-1.3095;
159.9000;0.1604;-1.3170;
160.2000;0.1628;-1.3145;
160.5000;0.1547;-1.3421;
160.8000;0.1604;-1.3220;
161.1000;0.1620;-1.3095;
161.4000;0.1604;-1.3145;
161.7000;0.1612;-1.3045;
162.0000;0.1628;-1.3020;
162.3000;0.1636;-1.2970;
162.6000;0.1644;-1.2919;
162.9000;0.1587;-1.3095;
163.2000;0.1587;-1.3145;
163.5000;0.1652;-1.3020;
163.8000;0.1620;-1.3195;
164.1000;0.1612;-1.3145;
164.4000;0.1604;-1.3145;
164.7000;0.1644;-1.2995;
165.0000;0.1612;-1.3070;
165.3000;0.1661;-1.3045;
165.6000;0.1620;-1.3145;
165.9000;0.1620;-1.3120;
166.2000;0.1636;-1.3145;
166.5000;0.1644;-1.3020;
166.8000;0.1620;-1.3045;
167.1000;0.1612;-1.3095;
167.4000;0.1628;-1.3095;
167.7000;0.1612;-1.3195;
168.0000;0.1595;-1.3220;
168.3000;0.1652;-1.3045;
168.6000;0.1636;-1.3170;
168.9000;0.1604;-1.3296;
169.2000;0.1661;-1.3195;
169.5000;0.1620;-1.3246;
169.8000;0.1628;-1.3220;
170.1000;0.1595;-1.3396;
170.4000;0.1628;-1.3371;
170.7000;0.1628;-1.3246;
171.0000;0.1628;-1.3321;
171.3000;0.1652;-1.3246;
171.6000;0.1628;-1.3346;
171.9000;0.1612;-1.3296;
172.2000;0.1604;-1.3321;
172.5000;0.1636;-1.3220;
172.8000;0.1628;-1.3246;
173.1000;0.1595;-1.3321;
173.4000;0.1628;-1.3271;
173.7000;0.1563;-1.3371;
174.0000;0.1612;-1.3296;
174.3000;0.1579;-1.3471;
174.6000;0.1620;-1.3321;
174.9000;0.1620;-1.3346;
175.2000;0.1595;-1.3446;
175.5000;0.1612;-1.3396;
175.8000;0.1644;-1.3346;
176.1000;0.1620;-1.3321;
176.4000;0.1612;-1.3296;
176.7000;0.1636;-1.3246;
177.0000;0.1620;-1.3346;
177.3000;0.1628;-1.3246;
177.6000;0.1652;-1.3246;
177.9000;0.1604;-1.3396;
178.2000;0.1628;-1.3346;
178.5000;0.1628;-1.3321;
178.8000;0.1734;-1.2919;
179.1000;0.1620;-1.3220;
179.4000;0.1636;-1.3246;
179.7000;0.1604;-1.3220;
180.0000;0.1677;-1.2919;
180.3000;0.1644;-1.2970;
180.6000;0.1620;-1.2995;
180.9000;0.1636;-1.2919;
181.2000;0.1628;-1.2869;
181.5000;0.1636;-1.2894;
181.8000;0.1604;-1.2894;
182.1000;0.1604;-1.2844;
182.4000;0.1636;-1.2844;
182.7000;0.1636;-1.2844;
183.0000;0.1587;-1.2869;
183.3000;0.1620;-1.2819;
183.6000;0.1620;-1.2794;
183.9000;0.1595;-1.2945;
184.2000;0.1612;-1.2945;
184.5000;0.1579;-1.3070;
184.8000;0.1636;-1.2945;
185.1000;0.1587;-1.3170;
185.4000;0.1636;-1.3120;
185.7000;0.1636;-1.3070;
186.0000;0.1612;-1.3045;
186.3000;0.1620;-1.2995;
186.6000;0.1628;-1.2970;
186.9000;0.1620;-1.2945;
187.2000;0.1636;-1.2970;
187.5000;0.1587;-1.3145;
187.8000;0.1636;-1.2995;
188.1000;0.1612;-1.2995;
188.4000;0.1636;-1.2945;
188.7000;0.1636;-1.2819;
189.0000;0.1628;-1.2894;
189.3000;0.1620;-1.2894;
189.6000;0.1628;-1.2970;
189.9000;0.1628;-1.2945;
190.2000;0.1652;-1.2919;
190.5000;0.1628;-1.2945;
190.8000;0.1587;-1.3020;
191.1000;0.1620;-1.2894;
191.4000;0.1620;-1.2945;
191.7000;0.1620;-1.2970;
192.0000;0.1612;-1.2894;
192.3000;0.1644;-1.2869;
192.6000;0.1620;-1.2919;
192.9000;0.1595;-1.3020;
193.2000;0.1620;-1.2919;
193.5000;0.1579;-1.3020;
193.8000;0.1620;-1.2894;
194.1000;0.1620;-1.2869;
194.4000;0.1620;-1.2869;
194.7000;0.1636;-1.2919;
195.0000;0.1620;-1.2945;
195.3000;0.1628;-1.2945;
195.6000;0.1644;-1.2945;
195.9000;0.1612;-1.3045;
196.2000;0.1628;-1.3120;
196.5000;0.1636;-1.3120;
196.8000;0.1628;-1.3145;
197.1000;0.1636;-1.3095;
197.4000;0.1636;-1.3095;
197.7000;0.1644;-1.3070;
198.0000;0.1620;-1.3120;
198.3000;0.1620;-1.3095;
198.6000;0.1595;-1.3145;
198.9000;0.1587;-1.3145;
199.2000;0.1612;-1.3170;
199.5000;0.1628;-1.3195;
199.8000;0.1571;-1.3421;
200.1000;0.1636;-1.3271;
200.4000;0.1612;-1.3346;
200.7000;0.1628;-1.3271;
201.0000;0.1661;-1.3120;
201.3000;0.1620;-1.3220;
201.6000;0.1652;-1.3220;
201.9000;0.1620;-1.3195;
202.2000;0.1636;-1.3145;
202.5000;0.1661;-1.3045;
202.8000;0.1595;-1.3195;
203.1000;0.1669;-1.2945;
203.4000;0.1620;-1.3095;
203.7000;0.1636;-1.2970;
204.0000;0.1628;-1.2945;
204.3000;0.1636;-1.2945;
204.6000;0.1628;-1.3045;
204.9000;0.1628;-1.3095;
205.2000;0.1620;-1.3145;
205.5000;0.1604;-1.3246;
205.8000;0.1661;-1.3095;
206.1000;0.1604;-1.3195;
206.4000;0.1620;-1.3045;
206.7000;0.1685;-1.2794;
207.0000;0.1595;-1.3095;
207.3000;0.1612;-1.2995;
207.6000;0.1604;-1.3145;
207.9000;0.1595;-1.3120;
208.2000;0.1628;-1.3045;
208.5000;0.1587;-1.3296;
208.8000;0.1612;-1.3220;
209.1000;0.1604;-1.3220;
209.4000;0.1579;-1.3321;
209.7000;0.1604;-1.3371;
210.0000;0.1620;-1.3321;
210.3000;0.1620;-1.3296;
210.6000;0.1604;-1.3271;
210.9000;0.1563;-1.3321;
211.2000;0.1604;-1.3170;
211.5000;0.1604;-1.3145;
211.8000;0.1620;-1.3145;
212.1000;0.1620;-1.3170;
212.4000;0.1628;-1.3145;
212.7000;0.1644;-1.3145;
213.0000;0.1628;-1.3120;
213.3000;0.1661;-1.3045;
213.6000;0.1644;-1.3120;
213.9000;0.1636;-1.3145;
214.2000;0.1734;-1.2894;
214.5000;0.1612;-1.3120;
214.8000;0.1644;-1.3020;
215.1000;0.1620;-1.3095;
215.4000;0.1628;-1.3120;
215.7000;0.1612;-1.3195;
216.0000;0.1579;-1.3220;
216.3000;0.1636;-1.3195;
216.6000;0.1612;-1.3271;
216.9000;0.1677;-1.3070;
217.2000;0.1636;-1.3195;
217.5000;0.1636;-1.3246;
217.8000;0.1628;-1.3195;
218.1000;0.1628;-1.3120;
218.4000;0.1620;-1.3020;
218.7000;0.1587;-1.3120;
219.0000;0.1620;-1.3145;
219.3000;0.1620;-1.3195;
219.6000;0.1628;-1.3195;
219.9000;0.1620;-1.3170;
220.2000;0.1636;-1.3170;
220.5000;0.1620;-1.3120;
220.8000;0.1661;-1.3045;
221.1000;0.1620;-1.3070;
221.4000;0.1612;-1.3095;
221.7000;0.1620;-1.3246;
222.0000;0.1612;-1.3346;
222.3000;0.1620;-1.3346;
222.6000;0.1636;-1.3346;
222.9000;0.1595;-1.3396;
223.2000;0.1620;-1.3296;
223.5000;0.1628;-1.3371;
223.8000;0.1628;-1.3321;
224.1000;0.1620;-1.3220;
224.4000;0.1620;-1.3170;
224.7000;0.1636;-1.3120;
225.0000;0.1628;-1.3095;
225.3000;0.1563;-1.3195;
225.6000;0.1636;-1.3070;
225.9000;0.1612;-1.3145;
226.2000;0.1620;-1.3296;
226.5000;0.1620;-1.3321;
226.8000;0.1652;-1.3170;
227.1000;0.1587;-1.3271;
227.4000;0.1636;-1.3246;
227.7000;0.1620;-1.3296;
228.0000;0.1628;-1.3195;
228.3000;0.1612;-1.3220;
228.6000;0.1620;-1.3195;
228.9000;0.1636;-1.3120;
229.2000;0.1563;-1.3321;
229.5000;0.1620;-1.3246;
229.8000;0.1620;-1.3321;
230.1000;0.1620;-1.3296;
230.4000;0.1628;-1.3246;
230.7000;0.1636;-1.3271;
231.0000;0.1595;-1.3396;
231.3000;0.1612;-1.3396;
231.6000;0.1661;-1.3271;
231.9000;0.1595;-1.3421;
232.2000;0.1604;-1.3371;
232.5000;0.1612;-1.3396;
232.8000;0.1620;-1.3296;
233.1000;0.1612;-1.3296;
233.4000;0.1555;-1.3547;
233.7000;0.1612;-1.3371;
234.0000;0.1612;-1.3371;
234.3000;0.1636;-1.3371;
234.6000;0.1644;-1.3346;
234.9000;0.1595;-1.3471;
235.2000;0.1604;-1.3446;
235.5000;0.1612;-1.3371;
235.8000;0.1612;-1.3396;
236.1000;0.1620;-1.3371;
236.4000;0.1620;-1.3396;
236.7000;0.1620;-1.3421;
237.0000;0.1604;-1.3371;
237.3000;0.1604;-1.3346;
237.6000;0.1604;-1.3421;
237.9000;0.1620;-1.3396;
238.2000;0.1628;-1.3346;
238.5000;0.1628;-1.3396;
238.8000;0.1612;-1.3371;
239.1000;0.1620;-1.3321;
239.4000;0.1669;-1.3195;
239.7000;0.1620;-1.3296;
240.0000;0.1579;-1.3421;
240.3000;0.1620;-1.3271;
240.6000;0.1612;-1.3246;
240.9000;0.1587;-1.3321;
241.2000;0.1636;-1.3170;
241.5000;0.1628;-1.3220;
241.8000;0.1628;-1.3271;
242.1000;0.1612;-1.3271;
242.4000;0.1628;-1.3271;
242.7000;0.1604;-1.3246;
243.0000;0.1612;-1.3246;
243.3000;0.1612;-1.3145;
243.6000;0.1628;-1.3120;
243.9000;0.1636;-1.3170;
244.2000;0.1620;-1.3246;
244.5000;0.1620;-1.3145;
244.8000;0.1628;-1.3095;
245.1000;0.1620;-1.3296;
245.4000;0.1595;-1.3346;
245.7000;0.1595;-1.3371;
246.0000;0.1604;-1.3346;
246.3000;0.1636;-1.3220;
246.6000;0.1628;-1.3296;
246.9000;0.1612;-1.3296;
247.2000;0.1669;-1.3120;
247.5000;0.1612;-1.3271;
247.8000;0.1661;-1.3120;
248.1000;0.1612;-1.3170;
248.4000;0.1612;-1.3170;
248.7000;0.1620;-1.3120;
249.0000;0.1612;-1.3070;
249.3000;0.1628;-1.2995;
249.6000;0.1612;-1.3020;
249.9000;0.1604;-1.3246;
250.2000;0.1612;-1.3220;
250.5000;0.1620;-1.3220;
250.8000;0.1612;-1.3246;
251.1000;0.1612;-1.3220;
251.4000;0.1604;-1.3145;
251.7000;0.1579;-1.3145;
252.0000;0.1612;-1.3045;
252.3000;0.1620;-1.3020;
252.6000;0.1595;-1.2970;
252.9000;0.1595;-1.2894;
253.2000;0.1620;-1.2945;
253.5000;0.1628;-1.2970;
253.8000;0.1587;-1.3070;
254.1000;0.1620;-1.3020;
254.4000;0.1498;-1.3421;
254.7000;0.1628;-1.3120;
255.0000;0.1579;-1.3271;
255.3000;0.1604;-1.3271;
255.6000;0.1620;-1.3195;
255.9000;0.1620;-1.3145;
256.2000;0.1595;-1.3145;
256.5000;0.1628;-1.3095;
256.8000;0.1604;-1.3170;
257.1000;0.1571;-1.3271;
257.4000;0.1563;-1.3396;
257.7000;0.1620;-1.3246;
258.0000;0.1587;-1.3346;
258.3000;0.1620;-1.3321;
258.6000;0.1604;-1.3346;
258.9000;0.1620;-1.3195;
259.2000;0.1612;-1.3220;
259.5000;0.1595;-1.3296;
259.8000;0.1620;-1.3246;
260.1000;0.1620;-1.3246;
260.4000;0.1579;-1.3321;
260.7000;0.1571;-1.3321;
261.0000;0.1595;-1.3271;
261.3000;0.1612;-1.3296;
261.6000;0.1538;-1.3597;
261.9000;0.1587;-1.3446;
262.2000;0.1587;-1.3496;
262.5000;0.1612;-1.3371;
262.8000;0.1595;-1.3396;
263.1000;0.1644;-1.3421;
263.4000;0.1612;-1.3471;
263.7000;0.1612;-1.3371;
264.0000;0.1595;-1.3396;
264.3000;0.1644;-1.3246;
264.6000;0.1612;-1.3271;
264.9000;0.1612;-1.3296;
265.2000;0.1604;-1.3321;
265.5000;0.1620;-1.3271;
265.8000;0.1612;-1.3195;
266.1000;0.1628;-1.3070;
266.4000;0.1612;-1.3220;
266.7000;0.1604;-1.3271;
267.0000;0.1612;-1.3246;
267.3000;0.1595;-1.3271;
267.6000;0.1628;-1.3195;
267.9000;0.1709;-1.2970;
268.2000;0.1563;-1.3271;
268.5000;0.1612;-1.3220;
268.8000;0.1636;-1.3120;
269.1000;0.1652;-1.3045;
269.4000;0.1620;-1.3095;
269.7000;0.1628;-1.3145;
270.0000;0.1595;-1.3095;
270.3000;0.1563;-1.3346;
270.6000;0.1604;-1.3070;
270.9000;0.1538;-1.3195;
271.2000;0.1522;-1.3195;
271.5000;0.1628;-1.3020;
271.8000;0.1620;-1.3045;
272.1000;0.1661;-1.3020;
272.4000;0.1620;-1.3120;
272.7000;0.1620;-1.3120;
273.0000;0.1628;-1.3145;
273.3000;0.1644;-1.3045;
273.6000;0.1595;-1.3070;
273.9000;0.1612;-1.3020;
274.2000;0.1620;-1.2995;
274.5000;0.1612;-1.3020;
274.8000;0.1628;-1.2970;
275.1000;0.1604;-1.2970;
275.4000;0.1644;-1.2970;
275.7000;0.1612;-1.3020;
276.0000;0.1628;-1.3095;
276.3000;0.1620;-1.3170;
276.6000;0.1604;-1.3195;
276.9000;0.1604;-1.3070;
277.2000;0.1612;-1.2995;
277.5000;0.1595;-1.2995;
277.8000;0.1669;-1.2919;
278.1000;0.1579;-1.3145;
278.4000;0.1620;-1.2995;
278.7000;0.1612;-1.3045;
279.0000;0.1612;-1.3045;
279.3000;0.1701;-1.2794;
279.6000;0.1530;-1.3271;
279.9000;0.1571;-1.3220;
280.2000;0.1612;-1.3170;
280.5000;0.1506;-1.3396;
280.8000;0.1563;-1.3246;
281.1000;0.1612;-1.3195;
281.4000;0.1604;-1.3220;
281.7000;0.1604;-1.3220;
282.0000;0.1612;-1.3220;
282.3000;0.1612;-1.3145;
282.6000;0.1595;-1.3120;
282.9000;0.1628;-1.3120;
283.2000;0.1595;-1.3246;
283.5000;0.1604;-1.3195;
283.8000;0.1685;-1.2995;
284.1000;0.1579;-1.3271;
284.4000;0.1620;-1.3195;
284.7000;0.1604;-1.3170;
285.0000;0.1595;-1.3045;
285.3000;0.1628;-1.2919;
285.6000;0.1571;-1.2970;
285.9000;0.1612;-1.2844;
286.2000;0.1604;-1.2919;
286.5000;0.1636;-1.2894;
286.8000;0.1628;-1.2970;
287.1000;0.1636;-1.2945;
287.4000;0.1628;-1.3020;
287.7000;0.1620;-1.3145;
288.0000;0.1620;-1.3170;
288.3000;0.1628;-1.3120;
288.6000;0.1620;-1.3070;
288.9000;0.1628;-1.3070;
289.2000;0.1595;-1.3195;
289.5000;0.1620;-1.3145;
289.8000;0.1620;-1.3170;
290.1000;0.1620;-1.3120;
290.4000;0.1628;-1.3045;
290.7000;0.1595;-1.3120;
291.0000;0.1628;-1.2995;
291.3000;0.1587;-1.3095;
291.6000;0.1628;-1.3045;
291.9000;0.1620;-1.3070;
292.2000;0.1620;-1.3120;
292.5000;0.1620;-1.3145;
292.8000;0.1620;-1.3145;
293.1000;0.1685;-1.2970;
293.4000;0.1620;-1.3170;
293.7000;0.1612;-1.3195;
294.0000;0.1628;-1.3145;
294.3000;0.1595;-1.3220;
294.6000;0.1620;-1.3170;
294.9000;0.1604;-1.3120;
295.2000;0.1612;-1.3045;
295.5000;0.1628;-1.2995;
295.8000;0.1620;-1.3020;
296.1000;0.1604;-1.3020;
296.4000;0.1620;-1.2995;
296.7000;0.1612;-1.3120;
297.0000;0.1604;-1.3070;
297.3000;0.1636;-1.2919;
297.6000;0.1628;-1.2995;
297.9000;0.1628;-1.3020;
298.2000;0.1604;-1.3195;
298.5000;0.1587;-1.3195;
298.8000;0.1612;-1.3145;
299.1000;0.1628;-1.3120;
299.4000;0.1636;-1.3120;
299.7000;0.1595;-1.3246;
300.0000;0.1620;-1.3145;
300.3000;0.1604;-1.3170;
300.6000;0.1587;-1.3220;
300.9000;0.1620;-1.3195;
301.2000;0.1595;-1.3296;
301.5000;0.1636;-1.3195;
301.8000;0.1555;-1.3421;
302.1000;0.1595;-1.3371;
302.4000;0.1604;-1.3271;
302.7000;0.1620;-1.3195;
303.0000;0.1636;-1.3170;
303.3000;0.1620;-1.3195;
303.6000;0.1636;-1.3120;
303.9000;0.1571;-1.3296;
304.2000;0.1620;-1.3246;
304.5000;0.1685;-1.3170;
304.8000;0.1620;-1.3396;
305.1000;0.1612;-1.3371;
305.4000;0.1604;-1.3371;
305.7000;0.1612;-1.3396;
306.0000;0.1604;-1.3421;
306.3000;0.1612;-1.3346;
306.6000;0.1604;-1.3321;
306.9000;0.1612;-1.3296;
307.2000;0.1612;-1.3246;
307.5000;0.1571;-1.3346;
307.8000;0.1579;-1.3296;
308.1000;0.1612;-1.3246;
308.4000;0.1563;-1.3346;
308.7000;0.1595;-1.3220;
309.0000;0.1612;-1.3220;
309.3000;0.1669;-1.3120;
309.6000;0.1620;-1.3220;
309.9000;0.1604;-1.3170;
310.2000;0.1604;-1.3120;
310.5000;0.1604;-1.3070;
310.8000;0.1620;-1.2995;
311.1000;0.1579;-1.3195;
311.4000;0.1604;-1.3095;
311.7000;0.1636;-1.2995;
312.0000;0.1620;-1.3095;
312.3000;0.1620;-1.3020;
312.6000;0.1612;-1.3020;
312.9000;0.1604;-1.2995;
313.2000;0.1628;-1.2945;
313.5000;0.1604;-1.2945;
313.8000;0.1620;-1.2945;
314.1000;0.1595;-1.2945;
314.4000;0.1620;-1.2919;
314.7000;0.1636;-1.2919;
315.0000;0.1620;-1.2945;
315.3000;0.1604;-1.2995;
315.6000;0.1604;-1.3095;
315.9000;0.1620;-1.3020;
316.2000;0.1579;-1.3145;
316.5000;0.1612;-1.3170;
316.8000;0.1628;-1.3045;
317.1000;0.1620;-1.3020;
317.4000;0.1604;-1.2970;
317.7000;0.1612;-1.3045;
318.0000;0.1612;-1.3120;
318.3000;0.1644;-1.3020;
318.6000;0.1620;-1.3045;
318.9000;0.1595;-1.3246;
319.2000;0.1620;-1.3195;
319.5000;0.1661;-1.3070;
319.8000;0.1628;-1.3120;
320.1000;0.1628;-1.3170;
320.4000;0.1652;-1.3070;
320.7000;0.1620;-1.3145;
321.0000;0.1628;-1.3170;
321.3000;0.1636;-1.3170;
321.6000;0.1652;-1.3070;
321.9000;0.1636;-1.3020;
322.2000;0.1620;-1.2995;
322.5000;0.1636;-1.2970;
322.8000;0.1604;-1.3045;
323.1000;0.1612;-1.3020;
323.4000;0.1563;-1.3195;
323.7000;0.1628;-1.3020;
324.0000;0.1612;-1.2970;
324.3000;0.1620;-1.2970;
324.6000;0.1587;-1.3045;
324.9000;0.1587;-1.3095;
325.2000;0.1620;-1.3095;
325.5000;0.1693;-1.3020;
325.8000;0.1620;-1.3220;
326.1000;0.1628;-1.3246;
326.4000;0.1709;-1.3145;
326.7000;0.1612;-1.3471;
327.0000;0.1636;-1.3371;
327.3000;0.1628;-1.3321;
327.6000;0.1644;-1.3170;
327.9000;0.1563;-1.3296;
328.2000;0.1652;-1.3020;
328.5000;0.1612;-1.3070;
328.8000;0.1636;-1.3120;
329.1000;0.1620;-1.3170;
329.4000;0.1555;-1.3371;
329.7000;0.1620;-1.3220;
330.0000;0.1563;-1.3346;
330.3000;0.1595;-1.3321;
330.6000;0.1612;-1.3321;
330.9000;0.1644;-1.3296;
331.2000;0.1620;-1.3346;
331.5000;0.1677;-1.3120;
331.8000;0.1628;-1.3246;
332.1000;0.1620;-1.3220;
332.4000;0.1636;-1.3220;
332.7000;0.1612;-1.3271;
333.0000;0.1628;-1.3271;
333.3000;0.1612;-1.3296;
333.6000;0.1555;-1.3446;
333.9000;0.1644;-1.3195;
334.2000;0.1612;-1.3145;
334.5000;0.1620;-1.3170;
334.8000;0.1636;-1.3070;
335.1000;0.1612;-1.3095;
335.4000;0.1628;-1.3070;
335.7000;0.1595;-1.3120;
336.0000;0.1628;-1.3020;
336.3000;0.1604;-1.3145;
336.6000;0.1652;-1.3070;
336.9000;0.1604;-1.3220;
337.2000;0.1620;-1.3120;
337.5000;0.1620;-1.3220;
337.8000;0.1677;-1.3145;
338.1000;0.1595;-1.3396;
338.4000;0.1604;-1.3346;
338.7000;0.1579;-1.3296;
339.0000;0.1595;-1.3246;
339.3000;0.1604;-1.3220;
339.6000;0.1587;-1.3271;
339.9000;0.1595;-1.3346;
340.2000;0.1604;-1.3371;
340.5000;0.1604;-1.3296;
340.8000;0.1587;-1.3446;
341.1000;0.1628;-1.3321;
341.4000;0.1620;-1.3296;
341.7000;0.1628;-1.3220;
342.0000;0.1612;-1.3321;
342.3000;0.1612;-1.3246;
342.6000;0.1612;-1.3195;
342.9000;0.1620;-1.3145;
343.2000;0.1620;-1.3070;
343.5000;0.1628;-1.3170;
343.8000;0.1620;-1.3195;
344.1000;0.1612;-1.3120;
344.4000;0.1620;-1.3220;
344.7000;0.1604;-1.3346;
345.0000;0.1636;-1.3271;
345.3000;0.1661;-1.3170;
345.6000;0.1612;-1.3220;
345.9000;0.1612;-1.3220;
346.2000;0.1620;-1.3271;
346.5000;0.1693;-1.3145;
346.8000;0.1677;-1.3220;
347.1000;0.1604;-1.3346;
347.4000;0.1620;-1.3246;
347.7000;0.1604;-1.3321;
348.0000;0.1595;-1.3346;
348.3000;0.1661;-1.3195;
348.6000;0.1612;-1.3371;
348.9000;0.1644;-1.3220;
349.2000;0.1620;-1.3321;
349.5000;0.1571;-1.3396;
349.8000;0.1620;-1.3195;
350.1000;0.1612;-1.3095;
350.4000;0.1620;-1.3020;
350.7000;0.1595;-1.3120;
351.0000;0.1595;-1.3145;
351.3000;0.1620;-1.3095;
351.6000;0.1587;-1.3195;
351.9000;0.1612;-1.3170;
352.2000;0.1587;-1.3246;
352.5000;0.1636;-1.3145;
352.8000;0.1636;-1.3145;
353.1000;0.1620;-1.3095;
353.4000;0.1579;-1.3170;
353.7000;0.1628;-1.3145;
354.0000;0.1571;-1.3321;
354.3000;0.1628;-1.3070;
354.6000;0.1579;-1.3070;
354.9000;0.1612;-1.2995;
355.2000;0.1612;-1.2995;
355.5000;0.1595;-1.3070;
355.8000;0.1612;-1.3020;
356.1000;0.1620;-1.3020;
356.4000;0.1636;-1.2945;
356.7000;0.1620;-1.2970;
357.0000;0.1604;-1.3120;
357.3000;0.1612;-1.3120;
357.6000;0.1595;-1.3220;
357.9000;0.1636;-1.3220;
358.2000;0.1587;-1.3296;
358.5000;0.1620;-1.3195;
358.8000;0.1661;-1.3095;
359.1000;0.1628;-1.3145;
359.4000;0.1595;-1.3220;
359.7000;0.1620;-1.3246;
360.0000;0.1612;-1.3220;
360.3000;0.1661;-1.3120;
360.6000;0.1620;-1.3246;
360.9000;0.1628;-1.3170;
361.2000;0.1620;-1.3195;
361.5000;0.1628;-1.3296;
361.8000;0.1620;-1.3396;
362.1000;0.1604;-1.3371;
362.4000;0.1595;-1.3396;
362.7000;0.1604;-1.3271;
363.0000;0.1604;-1.3271;
363.3000;0.1620;-1.3296;
363.6000;0.1595;-1.3421;
363.9000;0.1579;-1.3346;
364.2000;0.1628;-1.3246;
364.5000;0.1587;-1.3371;
364.8000;0.1669;-1.3120;
365.1000;0.1620;-1.3195;
365.4000;0.1587;-1.3296;
365.7000;0.1595;-1.3271;
366.0000;0.1636;-1.3170;
366.3000;0.1612;-1.3271;
366.6000;0.1620;-1.3296;
366.9000;0.1612;-1.3271;
367.2000;0.1620;-1.3271;
367.5000;0.1628;-1.3321;
367.8000;0.1604;-1.3346;
368.1000;0.1595;-1.3346;
368.4000;0.1555;-1.3471;
368.7000;0.1620;-1.3271;
369.0000;0.1652;-1.3170;
369.3000;0.1595;-1.3296;
369.6000;0.1644;-1.3170;
369.9000;0.1620;-1.3220;
370.2000;0.1636;-1.3145;
370.5000;0.1563;-1.3346;
370.8000;0.1620;-1.3045;
371.1000;0.1604;-1.3070;
371.4000;0.1587;-1.3120;
371.7000;0.1604;-1.3095;
372.0000;0.1620;-1.3045;
372.3000;0.1595;-1.3170;
372.6000;0.1612;-1.3220;
372.9000;0.1587;-1.3271;
373.2000;0.1612;-1.3220;
373.5000;0.1563;-1.3271;
373.8000;0.1612;-1.3220;
374.1000;0.1571;-1.3346;
374.4000;0.1652;-1.3195;
374.7000;0.1620;-1.3346;
375.0000;0.1571;-1.3446;
375.3000;0.1604;-1.3446;
375.6000;0.1612;-1.3421;
375.9000;0.1620;-1.3271;
376.2000;0.1612;-1.3170;
376.5000;0.1604;-1.3271;
376.8000;0.1612;-1.3321;
377.1000;0.1604;-1.3371;
377.4000;0.1612;-1.3421;
377.7000;0.1612;-1.3421;
378.0000;0.1620;-1.3396;
378.3000;0.1652;-1.3321;
378.6000;0.1587;-1.3421;
378.9000;0.1612;-1.3396;
379.2000;0.1693;-1.3220;
379.5000;0.1636;-1.3346;
379.8000;0.1636;-1.3421;
380.1000;0.1628;-1.3371;
380.4000;0.1628;-1.3321;
380.7000;0.1644;-1.3346;
381.0000;0.1612;-1.3396;
381.3000;0.1620;-1.3296;
381.6000;0.1628;-1.3421;
381.9000;0.1628;-1.3446;
382.2000;0.1595;-1.3471;
382.5000;0.1636;-1.3421;
382.8000;0.1620;-1.3296;
383.1000;0.1636;-1.3220;
383.4000;0.1620;-1.3220;
383.7000;0.1644;-1.3220;
384.0000;0.1636;-1.3321;
384.3000;0.1620;-1.3346;
384.6000;0.1620;-1.3296;
384.9000;0.1628;-1.3321;
385.2000;0.1604;-1.3396;
385.5000;0.1620;-1.3321;
385.8000;0.1612;-1.3321;
386.1000;0.1604;-1.3346;
386.4000;0.1587;-1.3346;
386.7000;0.1595;-1.3396;
387.0000;0.1620;-1.3421;
387.3000;0.1693;-1.3246;
387.6000;0.1612;-1.3421;
387.9000;0.1538;-1.3622;
388.2000;0.1612;-1.3396;
388.5000;0.1604;-1.3396;
388.8000;0.1604;-1.3296;
389.1000;0.1644;-1.3145;
389.4000;0.1563;-1.3271;
389.7000;0.1636;-1.3070;
390.0000;0.1604;-1.3195;
390.3000;0.1604;-1.3271;
390.6000;0.1620;-1.3271;
390.9000;0.1604;-1.3371;
391.2000;0.1612;-1.3421;
391.5000;0.1669;-1.3220;
391.8000;0.1595;-1.3346;
392.1000;0.1620;-1.3220;
392.4000;0.1661;-1.3170;
392.7000;0.1628;-1.3271;
393.0000;0.1612;-1.3371;
393.3000;0.1628;-1.3446;
393.6000;0.1628;-1.3446;
393.9000;0.1604;-1.3547;
394.2000;0.1595;-1.3572;
394.5000;0.1620;-1.3471;
394.8000;0.1579;-1.3471;
395.1000;0.1612;-1.3421;
395.4000;0.1628;-1.3396;
395.7000;0.1579;-1.3522;
396.0000;0.1628;-1.3471;
396.3000;0.1587;-1.3522;
396.6000;0.1628;-1.3396;
396.9000;0.1604;-1.3421;
397.2000;0.1612;-1.3346;
397.5000;0.1685;-1.3045;
397.8000;0.1604;-1.3296;
398.1000;0.1595;-1.3421;
398.4000;0.1595;-1.3321;
398.7000;0.1604;-1.3170;
399.0000;0.1563;-1.3321;
399.3000;0.1595;-1.3271;
399.6000;0.1612;-1.3321;
399.9000;0.1587;-1.3271;
400.2000;0.1644;-1.3070;
400.5000;0.1620;-1.3195;
400.8000;0.1612;-1.3246;
401.1000;0.1620;-1.3220;
401.4000;0.1604;-1.3296;
401.7000;0.1612;-1.3220;
402.0000;0.1587;-1.3220;
402.3000;0.1604;-1.3220;
402.6000;0.1612;-1.3296;
402.9000;0.1612;-1.3346;
403.2000;0.1563;-1.3471;
403.5000;0.1644;-1.3271;
403.8000;0.1620;-1.3271;
404.1000;0.1587;-1.3246;
404.4000;0.1628;-1.3145;
404.7000;0.1620;-1.3220;
405.0000;0.1628;-1.3195;
405.3000;0.1579;-1.3296;
405.6000;0.1612;-1.3195;
405.9000;0.1604;-1.3145;
406.2000;0.1595;-1.3246;
406.5000;0.1652;-1.3195;
406.8000;0.1595;-1.3296;
407.1000;0.1612;-1.3321;
407.4000;0.1636;-1.3271;
407.7000;0.1628;-1.3346;
408.0000;0.1612;-1.3296;
408.3000;0.1661;-1.3120;
408.6000;0.1612;-1.3220;
408.9000;0.1620;-1.3170;
409.2000;0.1604;-1.3095;
409.5000;0.1595;-1.3095;
409.8000;0.1563;-1.3220;
410.1000;0.1612;-1.3070;
410.4000;0.1612;-1.3095;
410.7000;0.1628;-1.3095;
411.0000;0.1628;-1.3220;
411.3000;0.1612;-1.3145;
411.6000;0.1612;-1.3170;
411.9000;0.1620;-1.3120;
412.2000;0.1636;-1.3120;
412.5000;0.1620;-1.3120;
412.8000;0.1628;-1.3120;
413.1000;0.1644;-1.3145;
413.4000;0.1604;-1.3271;
413.7000;0.1620;-1.3271;
414.0000;0.1628;-1.3145;
414.3000;0.1758;-1.2844;
414.6000;0.1620;-1.3170;
414.9000;0.1628;-1.3170;
415.2000;0.1644;-1.3095;
415.5000;0.1669;-1.3220;
415.8000;0.1604;-1.3371;
416.1000;0.1685;-1.3095;
416.4000;0.1620;-1.3321;
416.7000;0.1620;-1.3321;
417.0000;0.1595;-1.3371;
417.3000;0.1612;-1.3371;
417.6000;0.1595;-1.3346;
417.9000;0.1661;-1.3421;
418.2000;0.1587;-1.3647;
418.5000;0.1620;-1.3647;
418.8000;0.1612;-1.3572;
419.1000;0.1661;-1.3371;
419.4000;0.1620;-1.3396;
419.7000;0.1661;-1.3271;
420.0000;0.1693;-1.3070;
420.3000;0.1628;-1.3195;
420.6000;0.1587;-1.3220;
420.9000;0.1587;-1.3170;
421.2000;0.1636;-1.2970;
421.5000;0.1612;-1.3020;
421.8000;0.1628;-1.3120;
422.1000;0.1620;-1.3145;
422.4000;0.1628;-1.3145;
422.7000;0.1628;-1.3045;
423.0000;0.1612;-1.3045;
423.3000;0.1620;-1.2995;
423.6000;0.1604;-1.3120;
423.9000;0.1628;-1.3120;
424.2000;0.1628;-1.3195;
424.5000;0.1563;-1.3371;
424.8000;0.1604;-1.3271;
425.1000;0.1604;-1.3346;
425.4000;0.1579;-1.3421;
425.7000;0.1595;-1.3421;
426.0000;0.1620;-1.3446;
426.3000;0.1595;-1.3421;
426.6000;0.1604;-1.3271;
426.9000;0.1612;-1.3246;
427.2000;0.1612;-1.3195;
427.5000;0.1612;-1.3120;
427.8000;0.1620;-1.3095;
428.1000;0.1612;-1.3170;
428.4000;0.1612;-1.3220;
428.7000;0.1620;-1.3170;
429.0000;0.1620;-1.3195;
429.3000;0.1620;-1.3246;
429.6000;0.1620;-1.3145;
429.9000;0.1661;-1.3120;
430.2000;0.1612;-1.3220;
430.5000;0.1636;-1.3170;
430.8000;0.1604;-1.3195;
431.1000;0.1620;-1.3195;
431.4000;0.1652;-1.3120;
431.7000;0.1612;-1.3271;
432.0000;0.1604;-1.3346;
432.3000;0.1490;-1.3622;
432.6000;0.1612;-1.3421;
432.9000;0.1579;-1.3496;
433.2000;0.1604;-1.3572;
433.5000;0.1595;-1.3572;
433.8000;0.1604;-1.3496;
434.1000;0.1604;-1.3446;
434.4000;0.1701;-1.3120;
434.7000;0.1612;-1.3396;
435.0000;0.1604;-1.3396;
435.3000;0.1636;-1.3246;
435.6000;0.1595;-1.3371;
435.9000;0.1587;-1.3346;
436.2000;0.1612;-1.3220;
436.5000;0.1595;-1.3195;
436.8000;0.1620;-1.3195;
437.1000;0.1612;-1.3145;
437.4000;0.1612;-1.3070;
437.7000;0.1620;-1.2995;
438.0000;0.1612;-1.3020;
438.3000;0.1555;-1.3220;
438.6000;0.1628;-1.3095;
438.9000;0.1612;-1.3246;
439.2000;0.1636;-1.3220;
439.5000;0.1652;-1.3070;
439.8000;0.1620;-1.3145;
440.1000;0.1628;-1.3095;
440.4000;0.1628;-1.3045;
440.7000;0.1636;-1.3045;
441.0000;0.1571;-1.3220;
441.3000;0.1644;-1.2995;
441.6000;0.1628;-1.2970;
441.9000;0.1620;-1.3020;
442.2000;0.1604;-1.3120;
442.5000;0.1636;-1.3045;
442.8000;0.1604;-1.3220;
443.1000;0.1604;-1.3220;
443.4000;0.1563;-1.3346;
443.7000;0.1595;-1.3220;
444.0000;0.1612;-1.3095;
444.3000;0.1620;-1.3095;
444.6000;0.1612;-1.3195;
444.9000;0.1604;-1.3271;
445.2000;0.1612;-1.3195;
445.5000;0.1628;-1.3170;
445.8000;0.1595;-1.3170;
446.1000;0.1595;-1.2995;
446.4000;0.1636;-1.2919;
446.7000;0.1604;-1.2869;
447.0000;0.1604;-1.2894;
447.3000;0.1604;-1.2869;
447.6000;0.1547;-1.3120;
447.9000;0.1604;-1.2970;
448.2000;0.1612;-1.2869;
448.5000;0.1644;-1.2894;
448.8000;0.1587;-1.3070;
449.1000;0.1612;-1.3145;
449.4000;0.1587;-1.3170;
449.7000;0.1620;-1.3095;
450.0000;0.1612;-1.3045;
450.3000;0.1604;-1.3120;
450.6000;0.1620;-1.3145;
450.9000;0.1595;-1.3170;
451.2000;0.1628;-1.2995;
451.5000;0.1620;-1.2945;
451.8000;0.1595;-1.2995;
452.1000;0.1620;-1.2945;
452.4000;0.1579;-1.3095;
452.7000;0.1587;-1.3220;
453.0000;0.1595;-1.3321;
453.3000;0.1612;-1.3271;
453.6000;0.1604;-1.3321;
453.9000;0.1604;-1.3296;
454.2000;0.1685;-1.3020;
454.5000;0.1604;-1.3346;
454.8000;0.1612;-1.3321;
455.1000;0.1595;-1.3321;
455.4000;0.1644;-1.3220;
455.7000;0.1612;-1.3346;
456.0000;0.1620;-1.3371;
456.3000;0.1661;-1.3195;
456.6000;0.1620;-1.3321;
456.9000;0.1514;-1.3572;
457.2000;0.1718;-1.2970;
457.5000;0.1595;-1.3371;
457.8000;0.1612;-1.3246;
458.1000;0.1677;-1.3195;
458.4000;0.1612;-1.3396;
458.7000;0.1587;-1.3522;
459.0000;0.1595;-1.3471;
459.3000;0.1628;-1.3296;
459.6000;0.1636;-1.3170;
459.9000;0.1644;-1.3095;
460.2000;0.1620;-1.3120;
460.5000;0.1587;-1.3246;
460.8000;0.1620;-1.3220;
461.1000;0.1620;-1.3220;
461.4000;0.1530;-1.3471;
461.7000;0.1604;-1.3271;
462.0000;0.1604;-1.3346;
462.3000;0.1652;-1.3195;
462.6000;0.1620;-1.3271;
462.9000;0.1604;-1.3396;
463.2000;0.1595;-1.3446;
463.5000;0.1604;-1.3446;
463.8000;0.1604;-1.3396;
464.1000;0.1604;-1.3471;
464.4000;0.1620;-1.3396;
464.7000;0.1620;-1.3396;
465.0000;0.1604;-1.3296;
465.3000;0.1612;-1.3321;
465.6000;0.1604;-1.3346;
465.9000;0.1636;-1.3296;
466.2000;0.1612;-1.3321;
466.5000;0.1595;-1.3195;
466.8000;0.1595;-1.3170;
467.1000;0.1636;-1.3145;
467.4000;0.1604;-1.3195;
467.7000;0.1587;-1.3195;
468.0000;0.1595;-1.3220;
468.3000;0.1612;-1.3220;
468.6000;0.1604;-1.3271;
468.9000;0.1628;-1.3195;
469.2000;0.1595;-1.3271;
469.5000;0.1677;-1.3045;
469.8000;0.1612;-1.3170;
470.1000;0.1620;-1.3120;
470.4000;0.1538;-1.3321;
470.7000;0.1604;-1.3120;
471.0000;0.1620;-1.2995;
471.3000;0.1604;-1.3120;
471.6000;0.1612;-1.3120;
471.9000;0.1620;-1.3120;
472.2000;0.1604;-1.3095;
472.5000;0.1604;-1.3145;
472.8000;0.1644;-1.2995;
473.1000;0.1612;-1.3145;
473.4000;0.1604;-1.3120;
473.7000;0.1644;-1.3020;
474.0000;0.1612;-1.3145;
474.3000;0.1604;-1.3246;
474.6000;0.1612;-1.3246;
474.9000;0.1628;-1.3195;
475.2000;0.1636;-1.3321;
475.5000;0.1612;-1.3296;
475.8000;0.1628;-1.3170;
476.1000;0.1636;-1.3120;
476.4000;0.1620;-1.3120;
476.7000;0.1628;-1.3170;
477.0000;0.1628;-1.3020;
477.3000;0.1612;-1.2945;
477.6000;0.1604;-1.3020;
477.9000;0.1595;-1.3070;
478.2000;0.1685;-1.2970;
478.5000;0.1628;-1.3246;
478.8000;0.1595;-1.3321;
479.1000;0.1604;-1.3321;
479.4000;0.1612;-1.3321;
479.7000;0.1620;-1.3346;
480.0000;0.1628;-1.3321;
480.3000;0.1604;-1.3296;
480.6000;0.1628;-1.3321;
480.9000;0.1628;-1.3246;
481.2000;0.1555;-1.3446;
481.5000;0.1595;-1.3471;
481.8000;0.1612;-1.3471;
482.1000;0.1612;-1.3421;
482.4000;0.1612;-1.3446;
482.7000;0.1595;-1.3496;
483.0000;0.1620;-1.3421;
483.3000;0.1620;-1.3396;
483.6000;0.1612;-1.3471;
483.9000;0.1669;-1.3346;
484.2000;0.1595;-1.3446;
484.5000;0.1628;-1.3446;
484.8000;0.1620;-1.3446;
485.1000;0.1636;-1.3346;
485.4000;0.1636;-1.3321;
485.7000;0.1628;-1.3371;
486.0000;0.1620;-1.3321;
486.3000;0.1636;-1.3246;
486.6000;0.1612;-1.3346;
486.9000;0.1595;-1.3321;
487.2000;0.1636;-1.3220;
487.5000;0.1604;-1.3246;
487.8000;0.1595;-1.3246;
488.1000;0.1555;-1.3321;
488.4000;0.1620;-1.3271;
488.7000;0.1604;-1.3170;
489.0000;0.1620;-1.3195;
489.3000;0.1661;-1.3145;
489.6000;0.1587;-1.3296;
489.9000;0.1644;-1.3246;
490.2000;0.1628;-1.3271;
490.5000;0.1538;-1.3496;
490.8000;0.1571;-1.3346;
491.1000;0.1628;-1.3145;
491.4000;0.1620;-1.3120;
491.7000;0.1620;-1.3170;
492.0000;0.1652;-1.3120;
492.3000;0.1612;-1.3195;
492.6000;0.1571;-1.3271;
492.9000;0.1571;-1.3170;
493.2000;0.1628;-1.3070;
493.5000;0.1612;-1.3271;
493.8000;0.1604;-1.3296;
494.1000;0.1604;-1.3321;
494.4000;0.1604;-1.3396;
494.7000;0.1612;-1.3321;
495.0000;0.1620;-1.3246;
495.3000;0.1628;-1.3296;
495.6000;0.1571;-1.3496;
495.9000;0.1620;-1.3446;
496.2000;0.1506;-1.3622;
496.5000;0.1604;-1.3246;
496.8000;0.1604;-1.3246;
497.1000;0.1612;-1.3220;
497.4000;0.1628;-1.3220;
497.7000;0.1612;-1.3145;
498.0000;0.1701;-1.2919;
498.3000;0.1579;-1.3346;
498.6000;0.1612;-1.3271;
498.9000;0.1612;-1.3346;
499.2000;0.1620;-1.3321;
499.5000;0.1628;-1.3346;
499.8000;0.1620;-1.3271;
500.1000;0.1612;-1.3271;
500.4000;0.1595;-1.3371;
500.7000;0.1604;-1.3246;
501.0000;0.1579;-1.3346;
501.3000;0.1612;-1.3220;
501.6000;0.1612;-1.3246;
501.9000;0.1612;-1.3271;
502.2000;0.1579;-1.3396;
502.5000;0.1595;-1.3371;
502.8000;0.1612;-1.3271;
503.1000;0.1612;-1.3346;
503.4000;0.1595;-1.3396;
503.7000;0.1595;-1.3346;
504.0000;0.1604;-1.3271;
504.3000;0.1620;-1.3346;
504.6000;0.1612;-1.3471;
504.9000;0.1620;-1.3371;
505.2000;0.1628;-1.3396;
505.5000;0.1620;-1.3421;
505.8000;0.1595;-1.3446;
506.1000;0.1604;-1.3446;
506.4000;0.1612;-1.3371;
506.7000;0.1628;-1.3371;
507.0000;0.1620;-1.3371;
507.3000;0.1612;-1.3346;
507.6000;0.1612;-1.3446;
507.9000;0.1669;-1.3346;
508.2000;0.1661;-1.3296;
508.5000;0.1644;-1.3321;
508.8000;0.1595;-1.3371;
509.1000;0.1628;-1.3246;
509.4000;0.1612;-1.3246;
509.7000;0.1636;-1.3195;
510.0000;0.1644;-1.3120;
510.3000;0.1628;-1.3095;
510.6000;0.1579;-1.3195;
510.9000;0.1604;-1.3145;
511.2000;0.1604;-1.3095;
511.5000;0.1620;-1.3095;
511.8000;0.1612;-1.3145;
512.1000;0.1628;-1.3020;
512.4000;0.1612;-1.3145;
512.7000;0.1571;-1.3195;
513.0000;0.1604;-1.3045;
513.3000;0.1604;-1.3045;
513.6000;0.1652;-1.2945;
513.9000;0.1595;-1.3145;
514.2000;0.1571;-1.3220;
514.5000;0.1538;-1.3346;
514.8000;0.1620;-1.3170;
515.1000;0.1612;-1.3170;
515.4000;0.1612;-1.3170;
515.7000;0.1620;-1.3170;
516.0000;0.1620;-1.3145;
516.3000;0.1595;-1.3195;
516.6000;0.1604;-1.3220;
516.9000;0.1628;-1.3145;
517.2000;0.1612;-1.3170;
517.5000;0.1644;-1.3145;
517.8000;0.1595;-1.3145;
518.1000;0.1628;-1.3045;
518.4000;0.1595;-1.3145;
518.7000;0.1604;-1.3170;
519.0000;0.1628;-1.3271;
519.3000;0.1620;-1.3246;
519.6000;0.1620;-1.3396;
519.9000;0.1620;-1.3396;
520.2000;0.1571;-1.3421;
520.5000;0.1620;-1.3246;
520.8000;0.1636;-1.3195;
521.1000;0.1652;-1.3120;
521.4000;0.1620;-1.3145;
521.7000;0.1604;-1.3220;
522.0000;0.1604;-1.3246;
522.3000;0.1628;-1.3095;
522.6000;0.1595;-1.3195;
522.9000;0.1628;-1.3170;
523.2000;0.1734;-1.2945;
523.5000;0.1587;-1.3396;
523.8000;0.1604;-1.3346;
524.1000;0.1612;-1.3346;
524.4000;0.1563;-1.3346;
524.7000;0.1587;-1.3220;
525.0000;0.1636;-1.3070;
525.3000;0.1604;-1.3170;
525.6000;0.1612;-1.3170;
525.9000;0.1636;-1.3170;
526.2000;0.1604;-1.3145;
526.5000;0.1620;-1.2995;
526.8000;0.1595;-1.3095;
527.1000;0.1628;-1.3020;
527.4000;0.1620;-1.3045;
527.7000;0.1595;-1.3095;
528.0000;0.1620;-1.3070;
528.3000;0.1661;-1.3045;
528.6000;0.1628;-1.3045;
528.9000;0.1612;-1.3095;
529.2000;0.1604;-1.3045;
529.5000;0.1612;-1.2945;
529.8000;0.1620;-1.2869;
530.1000;0.1571;-1.2995;
530.4000;0.1620;-1.2869;
530.7000;0.1604;-1.2894;
531.0000;0.1612;-1.2919;
531.3000;0.1620;-1.2970;
531.6000;0.1620;-1.3045;
531.9000;0.1612;-1.2995;
532.2000;0.1612;-1.2869;
532.5000;0.1628;-1.2919;
532.8000;0.1612;-1.2945;
533.1000;0.1612;-1.2945;
533.4000;0.1604;-1.3095;
533.7000;0.1644;-1.3045;
534.0000;0.1604;-1.3095;
534.3000;0.1481;-1.3371;
534.6000;0.1628;-1.2995;
534.9000;0.1604;-1.3045;
535.2000;0.1587;-1.3120;
535.5000;0.1661;-1.2844;
535.8000;0.1612;-1.2869;
536.1000;0.1612;-1.2919;
536.4000;0.1612;-1.2970;
536.7000;0.1644;-1.2894;
537.0000;0.1628;-1.2995;
537.3000;0.1652;-1.3020;
537.6000;0.1628;-1.3045;
537.9000;0.1604;-1.2970;
538.2000;0.1612;-1.2869;
538.5000;0.1636;-1.2919;
538.8000;0.1612;-1.3045;
539.1000;0.1612;-1.3070;
539.4000;0.1595;-1.3170;
539.7000;0.1612;-1.3045;
540.0000;0.1612;-1.2995;
540.3000;0.1612;-1.3120;
540.6000;0.1563;-1.3296;
540.9000;0.1644;-1.3070;
541.2000;0.1620;-1.3095;
541.5000;0.1604;-1.3045;
541.8000;0.1620;-1.3070;
542.1000;0.1620;-1.3045;
542.4000;0.1595;-1.3070;
542.7000;0.1587;-1.3095;
543.0000;0.1612;-1.3020;
543.3000;0.1587;-1.3070;
543.6000;0.1677;-1.2869;
543.9000;0.1628;-1.3095;
544.2000;0.1595;-1.3145;
544.5000;0.1604;-1.3145;
544.8000;0.1612;-1.3145;
545.1000;0.1644;-1.3020;
545.4000;0.1628;-1.3020;
545.7000;0.1636;-1.2945;
546.0000;0.1620;-1.2945;
546.3000;0.1595;-1.2995;
546.6000;0.1652;-1.2945;
546.9000;0.1604;-1.3095;
547.2000;0.1612;-1.3120;
547.5000;0.1628;-1.3045;
547.8000;0.1612;-1.3095;
548.1000;0.1587;-1.3145;
548.4000;0.1612;-1.3045;
548.7000;0.1579;-1.3095;
549.0000;0.1612;-1.3045;
549.3000;0.1644;-1.3020;
549.6000;0.1620;-1.3020;
549.9000;0.1644;-1.2995;
550.2000;0.1612;-1.3070;
550.5000;0.1620;-1.3045;
550.8000;0.1612;-1.3070;
551.1000;0.1620;-1.3020;
551.4000;0.1620;-1.2995;
551.7000;0.1636;-1.2945;
552.0000;0.1595;-1.3020;
552.3000;0.1620;-1.3095;
552.6000;0.1636;-1.3020;
552.9000;0.1677;-1.2869;
553.2000;0.1555;-1.3170;
553.5000;0.1604;-1.3170;
553.8000;0.1604;-1.3070;
554.1000;0.1620;-1.3020;
554.4000;0.1620;-1.3045;
554.7000;0.1612;-1.3145;
555.0000;0.1620;-1.3070;
555.3000;0.1604;-1.2995;
555.6000;0.1604;-1.3045;
555.9000;0.1595;-1.3070;
556.2000;0.1677;-1.2894;
556.5000;0.1628;-1.2945;
556.8000;0.1604;-1.3020;
557.1000;0.1620;-1.2995;
557.4000;0.1595;-1.2995;
557.7000;0.1636;-1.2919;
558.0000;0.1620;-1.2970;
558.3000;0.1620;-1.3120;
558.6000;0.1628;-1.3020;
558.9000;0.1604;-1.3170;
559.2000;0.1595;-1.3145;
559.5000;0.1612;-1.3070;
559.8000;0.1620;-1.2995;
560.1000;0.1604;-1.2945;
560.4000;0.1604;-1.2894;
560.7000;0.1661;-1.2794;
561.0000;0.1620;-1.2869;
561.3000;0.1595;-1.2945;
561.6000;0.1620;-1.2869;
561.9000;0.1661;-1.2894;
562.2000;0.1604;-1.3070;
562.5000;0.1571;-1.3246;
562.8000;0.1604;-1.3170;
563.1000;0.1595;-1.3195;
563.4000;0.1612;-1.3120;
563.7000;0.1612;-1.3170;
564.0000;0.1604;-1.3170;
564.3000;0.1620;-1.3145;
564.6000;0.1579;-1.3271;
564.9000;0.1563;-1.3321;
565.2000;0.1612;-1.3220;
565.5000;0.1628;-1.3246;
565.8000;0.1604;-1.3271;
566.1000;0.1620;-1.3120;
566.4000;0.1571;-1.3095;
566.7000;0.1612;-1.3045;
567.0000;0.1604;-1.3145;
567.3000;0.1620;-1.3220;
567.6000;0.1628;-1.3246;
567.9000;0.1628;-1.3220;
568.2000;0.1604;-1.3220;
568.5000;0.1612;-1.3220;
568.8000;0.1604;-1.3145;
569.1000;0.1595;-1.3170;
569.4000;0.1587;-1.3195;
569.7000;0.1595;-1.3145;
570.0000;0.1604;-1.3045;
570.3000;0.1620;-1.2919;
570.6000;0.1604;-1.2995;
570.9000;0.1612;-1.3045;
571.2000;0.1612;-1.2919;
571.5000;0.1612;-1.3045;
571.8000;0.1612;-1.3095;
572.1000;0.1620;-1.3045;
572.4000;0.1595;-1.3045;
572.7000;0.1620;-1.2995;
573.0000;0.1620;-1.3020;
573.3000;0.1620;-1.2995;
573.6000;0.1628;-1.3070;
573.9000;0.1620;-1.3220;
574.2000;0.1612;-1.3170;
574.5000;0.1620;-1.3120;
574.8000;0.1595;-1.3195;
575.1000;0.1604;-1.3145;
575.4000;0.1620;-1.3070;
575.7000;0.1620;-1.3120;
576.0000;0.1612;-1.3045;
576.3000;0.1620;-1.3095;
576.6000;0.1620;-1.3045;
576.9000;0.1628;-1.3045;
577.2000;0.1620;-1.3070;
577.5000;0.1595;-1.3095;
577.8000;0.1612;-1.3070;
578.1000;0.1628;-1.3045;
578.4000;0.1612;-1.3145;
578.7000;0.1612;-1.3120;
579.0000;0.1620;-1.3145;
579.3000;0.1677;-1.2945;
579.6000;0.1612;-1.3095;
579.9000;0.1620;-1.3045;
580.2000;0.1620;-1.3020;
580.5000;0.1563;-1.3296;
580.8000;0.1620;-1.3220;
581.1000;0.1620;-1.3271;
581.4000;0.1628;-1.3296;
581.7000;0.1620;-1.3346;
582.0000;0.1604;-1.3246;
582.3000;0.1628;-1.3120;
582.6000;0.1612;-1.3095;
582.9000;0.1620;-1.3020;
583.2000;0.1587;-1.3095;
583.5000;0.1628;-1.3045;
583.8000;0.1612;-1.3020;
584.1000;0.1612;-1.3070;
584.4000;0.1604;-1.2995;
584.7000;0.1579;-1.3120;
585.0000;0.1587;-1.3095;
585.3000;0.1693;-1.2643;
585.6000;0.1595;-1.2995;
585.9000;0.1604;-1.3045;
586.2000;0.1604;-1.3020;
586.5000;0.1612;-1.2995;
586.8000;0.1604;-1.3095;
587.1000;0.1604;-1.3195;
587.4000;0.1644;-1.3145;
587.7000;0.1612;-1.3246;
588.0000;0.1604;-1.3246;
588.3000;0.1620;-1.3271;
588.6000;0.1612;-1.3271;
588.9000;0.1628;-1.3246;
589.2000;0.1612;-1.3246;
589.5000;0.1620;-1.3195;
589.8000;0.1636;-1.3170;
590.1000;0.1620;-1.3220;
590.4000;0.1693;-1.2970;
590.7000;0.1620;-1.3120;
591.0000;0.1612;-1.3170;
591.3000;0.1612;-1.3095;
591.6000;0.1612;-1.3070;
591.9000;0.1604;-1.3070;
592.2000;0.1644;-1.2919;
592.5000;0.1620;-1.3020;
592.8000;0.1644;-1.2894;
593.1000;0.1628;-1.2894;
593.4000;0.1636;-1.2894;
593.7000;0.1604;-1.2970;
594.0000;0.1604;-1.3020;
594.3000;0.1612;-1.3020;
594.6000;0.1620;-1.3020;
594.9000;0.1612;-1.3145;
595.2000;0.1595;-1.3195;
595.5000;0.1628;-1.3170;
595.8000;0.1612;-1.3120;
596.1000;0.1612;-1.3170;
596.4000;0.1595;-1.3145;
596.7000;0.1620;-1.3070;
597.0000;0.1604;-1.3220;
597.3000;0.1661;-1.2995;
597.6000;0.1604;-1.3170;
597.9000;0.1538;-1.3321;
598.2000;0.1595;-1.3070;
598.5000;0.1628;-1.2919;
598.8000;0.1612;-1.2970;
599.1000;0.1595;-1.2945;
599.4000;0.1612;-1.2945;
599.7000;0.1620;-1.2995;
600.0000;0.1538;-1.3220;
600.3000;0.1571;-1.3170;
600.6000;0.1604;-1.3195;
600.9000;0.1595;-1.3271;
601.2000;0.1595;-1.3371;
601.5000;0.1555;-1.3572;
601.8000;0.1571;-1.3747;
602.1000;0.1538;-1.4023;
602.4000;0.1538;-1.4274;
602.7000;0.1506;-1.4425;
603.0000;0.1514;-1.4575;
603.3000;0.1547;-1.4625;
603.6000;0.1473;-1.4901;
603.9000;0.1473;-1.4977;
604.2000;0.1465;-1.5102;
604.5000;0.1506;-1.5002;
604.8000;0.1473;-1.5052;
605.1000;0.1514;-1.5077;
605.4000;0.1408;-1.5528;
605.7000;0.1392;-1.5704;
606.0000;0.1465;-1.5503;
606.3000;0.1449;-1.5629;
606.6000;0.1392;-1.5880;
606.9000;0.1400;-1.5829;
607.2000;0.1457;-1.5779;
607.5000;0.1441;-1.5905;
607.8000;0.1433;-1.5804;
608.1000;0.1425;-1.5855;
608.4000;0.1425;-1.5905;
608.7000;0.1433;-1.6005;
609.0000;0.1425;-1.6080;
609.3000;0.1400;-1.6181;
609.6000;0.1392;-1.6130;
609.9000;0.1481;-1.5905;
610.2000;0.1416;-1.6055;
610.5000;0.1400;-1.6055;
610.8000;0.1449;-1.6005;
611.1000;0.1392;-1.6130;
611.4000;0.1408;-1.6130;
611.7000;0.1400;-1.6130;
612.0000;0.1481;-1.5905;
612.3000;0.1408;-1.6130;
612.6000;0.1473;-1.5980;
612.9000;0.1400;-1.6156;
613.2000;0.1433;-1.6005;
613.5000;0.1384;-1.6130;
613.8000;0.1408;-1.6105;
614.1000;0.1384;-1.6130;
614.4000;0.1400;-1.6055;
614.7000;0.1425;-1.6030;
615.0000;0.1449;-1.5930;
615.3000;0.1433;-1.6105;
615.6000;0.1425;-1.6130;
615.9000;0.1408;-1.6130;
616.2000;0.1416;-1.6080;
616.5000;0.1400;-1.6130;
616.8000;0.1416;-1.6055;
617.1000;0.1416;-1.6080;
617.4000;0.1392;-1.6156;
617.7000;0.1416;-1.6130;
618.0000;0.1376;-1.6181;
618.3000;0.1392;-1.6055;
618.6000;0.1400;-1.6055;
618.9000;0.1400;-1.6156;
619.2000;0.1481;-1.5930;
619.5000;0.1408;-1.6206;
619.8000;0.1408;-1.6181;
620.1000;0.1441;-1.6080;
620.4000;0.1351;-1.6331;
620.7000;0.1335;-1.6306;
621.0000;0.1400;-1.6080;
621.3000;0.1384;-1.6080;
621.6000;0.1400;-1.6005;
621.9000;0.1376;-1.6206;
622.2000;0.1376;-1.6181;
622.5000;0.1376;-1.6080;
622.8000;0.1441;-1.6055;
623.1000;0.1392;-1.6181;
623.4000;0.1400;-1.6130;
623.7000;0.1408;-1.6231;
624.0000;0.1408;-1.6256;
624.3000;0.1368;-1.6331;
624.6000;0.1408;-1.6281;
624.9000;0.1400;-1.6381;
625.2000;0.1400;-1.6406;
625.5000;0.1359;-1.6406;
625.8000;0.1408;-1.6256;
626.1000;0.1425;-1.6105;
626.4000;0.1465;-1.6130;
626.7000;0.1416;-1.6206;
627.0000;0.1433;-1.6206;
627.3000;0.1408;-1.6256;
627.6000;0.1408;-1.6306;
627.9000;0.1400;-1.6381;
628.2000;0.1384;-1.6406;
628.5000;0.1359;-1.6432;
628.8000;0.1408;-1.6306;
629.1000;0.1400;-1.6306;
629.4000;0.1400;-1.6356;
629.7000;0.1433;-1.6281;
630.0000;0.1392;-1.6356;
630.3000;0.1490;-1.6206;
630.6000;0.1384;-1.6457;
630.9000;0.1400;-1.6457;
631.2000;0.1368;-1.6582;
631.5000;0.1359;-1.6607;
631.8000;0.1384;-1.6457;
632.1000;0.1384;-1.6457;
632.4000;0.1384;-1.6582;
632.7000;0.1416;-1.6482;
633.0000;0.1400;-1.6406;
633.3000;0.1392;-1.6482;
633.6000;0.1384;-1.6532;
633.9000;0.1449;-1.6306;
634.2000;0.1384;-1.6356;
634.5000;0.1392;-1.6306;
634.8000;0.1416;-1.6256;
635.1000;0.1392;-1.6281;
635.4000;0.1433;-1.6206;
635.7000;0.1400;-1.6306;
636.0000;0.1400;-1.6256;
636.3000;0.1392;-1.6306;
636.6000;0.1392;-1.6281;
636.9000;0.1376;-1.6356;
637.2000;0.1384;-1.6256;
637.5000;0.1416;-1.6156;
637.8000;0.1400;-1.6206;
638.1000;0.1319;-1.6432;
638.4000;0.1368;-1.6356;
638.7000;0.1400;-1.6206;
639.0000;0.1408;-1.6130;
639.3000;0.1408;-1.6256;
639.6000;0.1400;-1.6256;
639.9000;0.1400;-1.6281;
640.2000;0.1465;-1.6206;
640.5000;0.1408;-1.6381;
640.8000;0.1376;-1.6457;
641.1000;0.1351;-1.6507;
641.4000;0.1408;-1.6356;
641.7000;0.1351;-1.6532;
642.0000;0.1400;-1.6381;
642.3000;0.1433;-1.6281;
642.6000;0.1408;-1.6331;
642.9000;0.1425;-1.6432;
643.2000;0.1433;-1.6432;
643.5000;0.1376;-1.6432;
643.8000;0.1400;-1.6432;
644.1000;0.1392;-1.6532;
644.4000;0.1392;-1.6457;
644.7000;0.1400;-1.6406;
645.0000;0.1384;-1.6457;
645.3000;0.1408;-1.6381;
645.6000;0.1384;-1.6406;
645.9000;0.1384;-1.6381;
646.2000;0.1416;-1.6381;
646.5000;0.1433;-1.6356;
646.8000;0.1416;-1.6406;
647.1000;0.1384;-1.6381;
647.4000;0.1408;-1.6432;
647.7000;0.1400;-1.6482;
648.0000;0.1416;-1.6381;
648.3000;0.1408;-1.6381;
648.6000;0.1408;-1.6356;
648.9000;0.1400;-1.6381;
649.2000;0.1408;-1.6281;
649.5000;0.1392;-1.6306;
649.8000;0.1392;-1.6256;
650.1000;0.1416;-1.6206;
650.4000;0.1416;-1.6130;
650.7000;0.1392;-1.6130;
651.0000;0.1416;-1.6156;
651.3000;0.1384;-1.6256;
651.6000;0.1408;-1.6181;
651.9000;0.1384;-1.6256;
652.2000;0.1376;-1.6256;
652.5000;0.1408;-1.6231;
652.8000;0.1400;-1.6256;
653.1000;0.1376;-1.6331;
653.4000;0.1473;-1.6105;
653.7000;0.1384;-1.6306;
654.0000;0.1384;-1.6381;
654.3000;0.1384;-1.6406;
654.6000;0.1384;-1.6432;
654.9000;0.1384;-1.6406;
655.2000;0.1384;-1.6507;
655.5000;0.1359;-1.6557;
655.8000;0.1392;-1.6507;
656.1000;0.1376;-1.6482;
656.4000;0.1408;-1.6381;
656.7000;0.1400;-1.6381;
657.0000;0.1400;-1.6406;
657.3000;0.1392;-1.6457;
657.6000;0.1376;-1.6482;
657.9000;0.1400;-1.6406;
658.2000;0.1311;-1.6733;
658.5000;0.1449;-1.6331;
658.8000;0.1425;-1.6482;
659.1000;0.1498;-1.6156;
659.4000;0.1376;-1.6457;
659.7000;0.1368;-1.6457;
660.0000;0.1392;-1.6457;
660.3000;0.1449;-1.6331;
660.6000;0.1408;-1.6432;
660.9000;0.1384;-1.6582;
661.2000;0.1441;-1.6406;
661.5000;0.1359;-1.6607;
661.8000;0.1400;-1.6507;
662.1000;0.1392;-1.6482;
662.4000;0.1392;-1.6432;
662.7000;0.1392;-1.6381;
663.0000;0.1441;-1.6306;
663.3000;0.1416;-1.6406;
663.6000;0.1392;-1.6432;
663.9000;0.1400;-1.6432;
664.2000;0.1351;-1.6632;
664.5000;0.1400;-1.6507;
664.8000;0.1368;-1.6582;
665.1000;0.1392;-1.6557;
665.4000;0.1392;-1.6632;
665.7000;0.1449;-1.6507;
666.0000;0.1449;-1.6482;
666.3000;0.1416;-1.6557;
666.6000;0.1400;-1.6582;
666.9000;0.1368;-1.6632;
667.2000;0.1400;-1.6482;
667.5000;0.1400;-1.6406;
667.8000;0.1400;-1.6432;
668.1000;0.1408;-1.6356;
668.4000;0.1514;-1.6005;
668.7000;0.1400;-1.6231;
669.0000;0.1384;-1.6331;
669.3000;0.1384;-1.6306;
669.6000;0.1368;-1.6406;
669.9000;0.1368;-1.6406;
670.2000;0.1368;-1.6381;
670.5000;0.1384;-1.6432;
670.8000;0.1392;-1.6406;
671.1000;0.1359;-1.6356;
671.4000;0.1392;-1.6331;
671.7000;0.1376;-1.6331;
672.0000;0.1408;-1.6231;
672.3000;0.1392;-1.6306;
672.6000;0.1384;-1.6356;
672.9000;0.1392;-1.6306;
673.2000;0.1408;-1.6256;
673.5000;0.1392;-1.6306;
673.8000;0.1392;-1.6356;
674.1000;0.1400;-1.6432;
674.4000;0.1384;-1.6482;
674.7000;0.1408;-1.6406;
675.0000;0.1384;-1.6457;
675.3000;0.1425;-1.6356;
675.6000;0.1392;-1.6432;
675.9000;0.1359;-1.6507;
676.2000;0.1384;-1.6432;
676.5000;0.1384;-1.6406;
676.8000;0.1376;-1.6406;
677.1000;0.1359;-1.6406;
677.4000;0.1408;-1.6406;
677.7000;0.1400;-1.6406;
678.0000;0.1400;-1.6356;
678.3000;0.1392;-1.6331;
678.6000;0.1376;-1.6356;
678.9000;0.1376;-1.6331;
679.2000;0.1384;-1.6356;
679.5000;0.1384;-1.6356;
679.8000;0.1392;-1.6331;
680.1000;0.1343;-1.6482;
680.4000;0.1351;-1.6532;
680.7000;0.1376;-1.6457;
681.0000;0.1392;-1.6381;
681.3000;0.1376;-1.6331;
681.6000;0.1384;-1.6356;
681.9000;0.1351;-1.6406;
682.2000;0.1400;-1.6231;
682.5000;0.1359;-1.6206;
682.8000;0.1408;-1.6105;
683.1000;0.1327;-1.6306;
683.4000;0.1335;-1.6331;
683.7000;0.1392;-1.6406;
684.0000;0.1400;-1.6406;
684.3000;0.1400;-1.6306;
684.6000;0.1392;-1.6331;
684.9000;0.1384;-1.6381;
685.2000;0.1400;-1.6356;
685.5000;0.1384;-1.6507;
685.8000;0.1392;-1.6457;
686.1000;0.1368;-1.6482;
686.4000;0.1408;-1.6432;
686.7000;0.1400;-1.6532;
687.0000;0.1433;-1.6381;
687.3000;0.1400;-1.6406;
687.6000;0.1392;-1.6281;
687.9000;0.1376;-1.6256;
688.2000;0.1392;-1.6206;
688.5000;0.1400;-1.6156;
688.8000;0.1376;-1.6206;
689.1000;0.1384;-1.6105;
689.4000;0.1368;-1.6130;
689.7000;0.1368;-1.6156;
690.0000;0.1408;-1.6055;
690.3000;0.1384;-1.6156;
690.6000;0.1392;-1.6156;
690.9000;0.1368;-1.6156;
691.2000;0.1302;-1.6356;
691.5000;0.1392;-1.6055;
691.8000;0.1335;-1.6206;
692.1000;0.1392;-1.6055;
692.4000;0.1400;-1.6156;
692.7000;0.1384;-1.6256;
693.0000;0.1368;-1.6256;
693.3000;0.1359;-1.6256;
693.6000;0.1392;-1.6281;
693.9000;0.1368;-1.6406;
694.2000;0.1384;-1.6507;
694.5000;0.1408;-1.6432;
694.8000;0.1384;-1.6457;
695.1000;0.1376;-1.6381;
695.4000;0.1392;-1.6256;
695.7000;0.1392;-1.6381;
696.0000;0.1384;-1.6406;
696.3000;0.1457;-1.6256;
696.6000;0.1384;-1.6406;
696.9000;0.1473;-1.6206;
697.2000;0.1400;-1.6256;
697.5000;0.1400;-1.6181;
697.8000;0.1408;-1.6231;
698.1000;0.1400;-1.6281;
698.4000;0.1286;-1.6582;
698.7000;0.1400;-1.6381;
699.0000;0.1392;-1.6356;
699.3000;0.1327;-1.6507;
699.6000;0.1384;-1.6406;
699.9000;0.1400;-1.6356;
700.2000;0.1392;-1.6281;
700.5000;0.1384;-1.6406;
700.8000;0.1384;-1.6381;
701.1000;0.1384;-1.6356;
701.4000;0.1400;-1.6306;
701.7000;0.1400;-1.6381;
702.0000;0.1359;-1.6457;
702.3000;0.1392;-1.6331;
702.6000;0.1408;-1.6281;
702.9000;0.1400;-1.6231;
703.2000;0.1425;-1.6281;
703.5000;0.1400;-1.6381;
703.8000;0.1384;-1.6432;
704.1000;0.1392;-1.6432;
704.4000;0.1449;-1.6281;
704.7000;0.1384;-1.6457;
705.0000;0.1416;-1.6356;
705.3000;0.1416;-1.6381;
705.6000;0.1392;-1.6381;
705.9000;0.1400;-1.6406;
706.2000;0.1449;-1.6206;
706.5000;0.1392;-1.6281;
706.8000;0.1384;-1.6281;
707.1000;0.1376;-1.6381;
707.4000;0.1416;-1.6356;
707.7000;0.1416;-1.6281;
708.0000;0.1384;-1.6381;
708.3000;0.1384;-1.6381;
708.6000;0.1392;-1.6256;
708.9000;0.1392;-1.6406;
709.2000;0.1441;-1.6331;
709.5000;0.1392;-1.6406;
709.8000;0.1408;-1.6356;
710.1000;0.1400;-1.6381;
710.4000;0.1400;-1.6356;
710.7000;0.1408;-1.6331;
711.0000;0.1400;-1.6331;
711.3000;0.1359;-1.6381;
711.6000;0.1392;-1.6457;
711.9000;0.1392;-1.6507;
712.2000;0.1392;-1.6507;
712.5000;0.1400;-1.6406;
712.8000;0.1384;-1.6482;
713.1000;0.1400;-1.6406;
713.4000;0.1408;-1.6432;
713.7000;0.1392;-1.6507;
714.0000;0.1400;-1.6457;
714.3000;0.1416;-1.6381;
714.6000;0.1384;-1.6507;
714.9000;0.1343;-1.6632;
715.2000;0.1384;-1.6532;
715.5000;0.1425;-1.6457;
715.8000;0.1392;-1.6582;
716.1000;0.1384;-1.6582;
716.4000;0.1359;-1.6657;
716.7000;0.1408;-1.6607;
717.0000;0.1408;-1.6532;
717.3000;0.1368;-1.6532;
717.6000;0.1408;-1.6331;
717.9000;0.1400;-1.6432;
718.2000;0.1376;-1.6381;
718.5000;0.1376;-1.6432;
718.8000;0.1408;-1.6256;
719.1000;0.1392;-1.6306;
719.4000;0.1384;-1.6256;
719.7000;0.1384;-1.6331;
720.0000;0.1376;-1.6231;
720.3000;0.1449;-1.6030;
720.6000;0.1400;-1.6206;
720.9000;0.1408;-1.6231;
721.2000;0.1392;-1.6256;
721.5000;0.1408;-1.6306;
721.8000;0.1425;-1.6432;
722.1000;0.1392;-1.6457;
722.4000;0.1400;-1.6406;
722.7000;0.1392;-1.6306;
723.0000;0.1400;-1.6281;
723.3000;0.1425;-1.6331;
723.6000;0.1384;-1.6532;
723.9000;0.1376;-1.6557;
724.2000;0.1400;-1.6457;
724.5000;0.1384;-1.6607;
724.8000;0.1368;-1.6607;
725.1000;0.1392;-1.6582;
725.4000;0.1376;-1.6632;
725.7000;0.1376;-1.6557;
726.0000;0.1376;-1.6557;
726.3000;0.1359;-1.6582;
726.6000;0.1400;-1.6507;
726.9000;0.1384;-1.6557;
727.2000;0.1376;-1.6532;
727.5000;0.1449;-1.6356;
727.8000;0.1400;-1.6532;
728.1000;0.1392;-1.6457;
728.4000;0.1384;-1.6432;
728.7000;0.1384;-1.6381;
729.0000;0.1384;-1.6331;
729.3000;0.1368;-1.6406;
729.6000;0.1481;-1.6030;
729.9000;0.1392;-1.6256;
730.2000;0.1400;-1.6281;
730.5000;0.1392;-1.6331;
730.8000;0.1392;-1.6381;
731.1000;0.1425;-1.6306;
731.4000;0.1368;-1.6381;
731.7000;0.1392;-1.6331;
732.0000;0.1400;-1.6356;
732.3000;0.1368;-1.6381;
732.6000;0.1392;-1.6306;
732.9000;0.1400;-1.6256;
733.2000;0.1351;-1.6406;
733.5000;0.1416;-1.6306;
733.8000;0.1400;-1.6281;
734.1000;0.1400;-1.6206;
734.4000;0.1343;-1.6256;
734.7000;0.1392;-1.6105;
735.0000;0.1368;-1.6181;
735.3000;0.1327;-1.6356;
735.6000;0.1392;-1.6105;
735.9000;0.1376;-1.6206;
736.2000;0.1384;-1.6256;
736.5000;0.1400;-1.6281;
736.8000;0.1400;-1.6331;
737.1000;0.1425;-1.6256;
737.4000;0.1400;-1.6381;
737.7000;0.1392;-1.6381;
738.0000;0.1392;-1.6281;
738.3000;0.1400;-1.6181;
738.6000;0.1384;-1.6181;
738.9000;0.1416;-1.6130;
739.2000;0.1392;-1.6206;
739.5000;0.1384;-1.6231;
739.8000;0.1384;-1.6281;
740.1000;0.1392;-1.6231;
740.4000;0.1400;-1.6156;
740.7000;0.1416;-1.6030;
741.0000;0.1416;-1.6105;
741.3000;0.1384;-1.6181;
741.6000;0.1368;-1.6181;
741.9000;0.1400;-1.6206;
742.2000;0.1400;-1.6231;
742.5000;0.1392;-1.6206;
742.8000;0.1400;-1.6105;
743.1000;0.1368;-1.6181;
743.4000;0.1368;-1.6231;
743.7000;0.1392;-1.6206;
744.0000;0.1384;-1.6306;
744.3000;0.1384;-1.6306;
744.6000;0.1384;-1.6331;
744.9000;0.1376;-1.6281;
745.2000;0.1392;-1.6331;
745.5000;0.1384;-1.6281;
745.8000;0.1376;-1.6281;
746.1000;0.1384;-1.6331;
746.4000;0.1359;-1.6381;
746.7000;0.1400;-1.6331;
747.0000;0.1408;-1.6331;
747.3000;0.1384;-1.6356;
747.6000;0.1400;-1.6406;
747.9000;0.1408;-1.6356;
748.2000;0.1392;-1.6432;
748.5000;0.1408;-1.6406;
748.8000;0.1400;-1.6356;
749.1000;0.1384;-1.6356;
749.4000;0.1400;-1.6331;
749.7000;0.1392;-1.6406;
750.0000;0.1392;-1.6457;
750.3000;0.1400;-1.6432;
750.6000;0.1392;-1.6432;
750.9000;0.1425;-1.6306;
751.2000;0.1376;-1.6457;
751.5000;0.1392;-1.6381;
751.8000;0.1400;-1.6406;
752.1000;0.1408;-1.6331;
752.4000;0.1400;-1.6381;
752.7000;0.1392;-1.6356;
753.0000;0.1425;-1.6256;
753.3000;0.1384;-1.6356;
753.6000;0.1441;-1.6256;
753.9000;0.1392;-1.6406;
754.2000;0.1335;-1.6507;
754.5000;0.1506;-1.6005;
754.8000;0.1400;-1.6331;
755.1000;0.1400;-1.6356;
755.4000;0.1392;-1.6381;
755.7000;0.1400;-1.6356;
756.0000;0.1416;-1.6381;
756.3000;0.1392;-1.6532;
756.6000;0.1392;-1.6632;
756.9000;0.1408;-1.6582;
757.2000;0.1425;-1.6432;
757.5000;0.1400;-1.6432;
757.8000;0.1408;-1.6406;
758.1000;0.1408;-1.6406;
758.4000;0.1392;-1.6432;
758.7000;0.1408;-1.6331;
759.0000;0.1392;-1.6406;
759.3000;0.1392;-1.6356;
759.6000;0.1392;-1.6381;
759.9000;0.1408;-1.6306;
760.2000;0.1392;-1.6356;
760.5000;0.1392;-1.6457;
760.8000;0.1384;-1.6457;
761.1000;0.1400;-1.6356;
761.4000;0.1392;-1.6457;
761.7000;0.1400;-1.6482;
762.0000;0.1408;-1.6482;
762.3000;0.1400;-1.6432;
762.6000;0.1416;-1.6381;
762.9000;0.1416;-1.6331;
763.2000;0.1392;-1.6331;
763.5000;0.1433;-1.6181;
763.8000;0.1408;-1.6281;
764.1000;0.1400;-1.6256;
764.4000;0.1408;-1.6206;
764.7000;0.1400;-1.6206;
765.0000;0.1433;-1.6156;
765.3000;0.1416;-1.6281;
765.6000;0.1408;-1.6381;
765.9000;0.1384;-1.6532;
766.2000;0.1400;-1.6507;
766.5000;0.1392;-1.6356;
766.8000;0.1400;-1.6406;
767.1000;0.1408;-1.6331;
767.4000;0.1465;-1.6231;
767.7000;0.1384;-1.6432;
768.0000;0.1400;-1.6381;
768.3000;0.1400;-1.6306;
768.6000;0.1457;-1.6130;
768.9000;0.1400;-1.6331;
769.2000;0.1416;-1.6306;
769.5000;0.1408;-1.6356;
769.8000;0.1400;-1.6306;
770.1000;0.1408;-1.6356;
770.4000;0.1392;-1.6406;
770.7000;0.1408;-1.6482;
771.0000;0.1400;-1.6482;
771.3000;0.1425;-1.6457;
771.6000;0.1392;-1.6507;
771.9000;0.1392;-1.6532;
772.2000;0.1408;-1.6482;
772.5000;0.1408;-1.6482;
772.8000;0.1376;-1.6582;
773.1000;0.1384;-1.6582;
773.4000;0.1384;-1.6607;
773.7000;0.1400;-1.6657;
774.0000;0.1400;-1.6632;
774.3000;0.1384;-1.6532;
774.6000;0.1416;-1.6432;
774.9000;0.1392;-1.6532;
775.2000;0.1433;-1.6356;
775.5000;0.1376;-1.6457;
775.8000;0.1400;-1.6306;
776.1000;0.1449;-1.6080;
776.4000;0.1384;-1.6256;
776.7000;0.1392;-1.6256;
777.0000;0.1408;-1.6306;
777.3000;0.1384;-1.6281;
777.6000;0.1408;-1.6231;
777.9000;0.1392;-1.6356;
778.2000;0.1408;-1.6381;
778.5000;0.1408;-1.6507;
778.8000;0.1392;-1.6482;
779.1000;0.1392;-1.6507;
779.4000;0.1368;-1.6582;
779.7000;0.1408;-1.6532;
780.0000;0.1400;-1.6557;
780.3000;0.1425;-1.6457;
780.6000;0.1392;-1.6532;
780.9000;0.1368;-1.6632;
781.2000;0.1408;-1.6582;
781.5000;0.1408;-1.6532;
781.8000;0.1400;-1.6607;
782.1000;0.1416;-1.6482;
782.4000;0.1408;-1.6406;
782.7000;0.1400;-1.6507;
783.0000;0.1400;-1.6507;
783.3000;0.1319;-1.6707;
783.6000;0.1384;-1.6532;
783.9000;0.1368;-1.6557;
784.2000;0.1343;-1.6657;
784.5000;0.1384;-1.6482;
784.8000;0.1392;-1.6482;
785.1000;0.1384;-1.6582;
785.4000;0.1400;-1.6507;
785.7000;0.1368;-1.6582;
786.0000;0.1376;-1.6607;
786.3000;0.1392;-1.6532;
786.6000;0.1392;-1.6682;
786.9000;0.1392;-1.6657;
787.2000;0.1416;-1.6532;
787.5000;0.1376;-1.6557;
787.8000;0.1408;-1.6507;
788.1000;0.1392;-1.6607;
788.4000;0.1408;-1.6632;
788.7000;0.1465;-1.6507;
789.0000;0.1384;-1.6682;
789.3000;0.1384;-1.6707;
789.6000;0.1392;-1.6682;
789.9000;0.1392;-1.6682;
790.2000;0.1392;-1.6657;
790.5000;0.1319;-1.6808;
790.8000;0.1465;-1.6457;
791.1000;0.1376;-1.6607;
791.4000;0.1359;-1.6557;
791.7000;0.1400;-1.6406;
792.0000;0.1376;-1.6532;
792.3000;0.1343;-1.6733;
792.6000;0.1400;-1.6607;
792.9000;0.1392;-1.6682;
793.2000;0.1416;-1.6632;
793.5000;0.1319;-1.6808;
793.8000;0.1384;-1.6582;
794.1000;0.1368;-1.6557;
794.4000;0.1384;-1.6507;
794.7000;0.1376;-1.6582;
795.0000;0.1400;-1.6482;
795.3000;0.1384;-1.6381;
795.6000;0.1400;-1.6331;
795.9000;0.1384;-1.6406;
796.2000;0.1376;-1.6457;
796.5000;0.1408;-1.6406;
796.8000;0.1368;-1.6482;
797.1000;0.1416;-1.6457;
797.4000;0.1400;-1.6457;
797.7000;0.1400;-1.6457;
798.0000;0.1384;-1.6507;
798.3000;0.1425;-1.6507;
798.6000;0.1408;-1.6632;
798.9000;0.1425;-1.6557;
799.2000;0.1425;-1.6532;
799.5000;0.1400;-1.6482;
799.8000;0.1408;-1.6482;
800.1000;0.1416;-1.6482;
800.4000;0.1408;-1.6457;
800.7000;0.1392;-1.6457;
801.0000;0.1425;-1.6406;
801.3000;0.1408;-1.6532;
801.6000;0.1408;-1.6607;
801.9000;0.1416;-1.6607;
802.2000;0.1400;-1.6582;
802.5000;0.1392;-1.6557;
802.8000;0.1392;-1.6482;
803.1000;0.1408;-1.6432;
803.4000;0.1392;-1.6406;
803.7000;0.1392;-1.6457;
804.0000;0.1392;-1.6406;
804.3000;0.1392;-1.6381;
804.6000;0.1384;-1.6432;
804.9000;0.1376;-1.6432;
805.2000;0.1359;-1.6507;
805.5000;0.1392;-1.6381;
805.8000;0.1400;-1.6406;
806.1000;0.1400;-1.6457;
806.4000;0.1376;-1.6457;
806.7000;0.1392;-1.6356;
807.0000;0.1416;-1.6206;
807.3000;0.1359;-1.6256;
807.6000;0.1400;-1.6206;
807.9000;0.1400;-1.6156;
808.2000;0.1473;-1.5829;
808.5000;0.1351;-1.6181;
808.8000;0.1392;-1.6055;
809.1000;0.1392;-1.6130;
809.4000;0.1506;-1.5905;
809.7000;0.1400;-1.6206;
810.0000;0.1400;-1.6130;
810.3000;0.1392;-1.6181;
810.6000;0.1384;-1.6306;
810.9000;0.1376;-1.6381;
811.2000;0.1425;-1.6331;
811.5000;0.1351;-1.6557;
811.8000;0.1392;-1.6457;
812.1000;0.1400;-1.6331;
812.4000;0.1408;-1.6381;
812.7000;0.1416;-1.6406;
813.0000;0.1400;-1.6406;
813.3000;0.1400;-1.6507;
813.6000;0.1400;-1.6457;
813.9000;0.1408;-1.6406;
814.2000;0.1425;-1.6281;
814.5000;0.1441;-1.6231;
814.8000;0.1425;-1.6381;
815.1000;0.1392;-1.6482;
815.4000;0.1368;-1.6432;
815.7000;0.1392;-1.6256;
816.0000;0.1392;-1.6256;
816.3000;0.1311;-1.6457;
816.6000;0.1384;-1.6256;
816.9000;0.1408;-1.6331;
817.2000;0.1408;-1.6356;
817.5000;0.1400;-1.6356;
817.8000;0.1392;-1.6331;
818.1000;0.1343;-1.6432;
818.4000;0.1392;-1.6306;
818.7000;0.1392;-1.6331;
819.0000;0.1368;-1.6406;
819.3000;0.1392;-1.6331;
819.6000;0.1400;-1.6281;
819.9000;0.1384;-1.6306;
820.2000;0.1400;-1.6356;
820.5000;0.1384;-1.6457;
820.8000;0.1408;-1.6381;
821.1000;0.1392;-1.6432;
821.4000;0.1384;-1.6406;
821.7000;0.1408;-1.6306;
822.0000;0.1400;-1.6381;
822.3000;0.1408;-1.6381;
822.6000;0.1392;-1.6482;
822.9000;0.1384;-1.6482;
823.2000;0.1327;-1.6607;
823.5000;0.1408;-1.6381;
823.8000;0.1408;-1.6406;
824.1000;0.1457;-1.6256;
824.4000;0.1416;-1.6507;
824.7000;0.1433;-1.6457;
825.0000;0.1392;-1.6532;
825.3000;0.1441;-1.6482;
825.6000;0.1294;-1.6808;
825.9000;0.1359;-1.6657;
826.2000;0.1384;-1.6557;
826.5000;0.1416;-1.6532;
826.8000;0.1368;-1.6582;
827.1000;0.1392;-1.6507;
827.4000;0.1400;-1.6482;
827.7000;0.1384;-1.6406;
828.0000;0.1408;-1.6306;
828.3000;0.1408;-1.6231;
828.6000;0.1408;-1.6256;
828.9000;0.1408;-1.6281;
829.2000;0.1408;-1.6331;
829.5000;0.1416;-1.6231;
829.8000;0.1416;-1.6231;
830.1000;0.1384;-1.6206;
830.4000;0.1392;-1.6231;
830.7000;0.1400;-1.6206;
831.0000;0.1359;-1.6306;
831.3000;0.1392;-1.6231;
831.6000;0.1400;-1.6181;
831.9000;0.1408;-1.6181;
832.2000;0.1425;-1.6130;
832.5000;0.1433;-1.6156;
832.8000;0.1400;-1.6231;
833.1000;0.1416;-1.6181;
833.4000;0.1294;-1.6532;
833.7000;0.1392;-1.6256;
834.0000;0.1400;-1.6306;
834.3000;0.1376;-1.6356;
834.6000;0.1392;-1.6231;
834.9000;0.1392;-1.6206;
835.2000;0.1384;-1.6231;
835.5000;0.1368;-1.6381;
835.8000;0.1408;-1.6331;
836.1000;0.1384;-1.6381;
836.4000;0.1400;-1.6231;
836.7000;0.1384;-1.6356;
837.0000;0.1392;-1.6356;
837.3000;0.1400;-1.6406;
837.6000;0.1392;-1.6482;
837.9000;0.1343;-1.6482;
838.2000;0.1400;-1.6457;
838.5000;0.1408;-1.6482;
838.8000;0.1384;-1.6507;
839.1000;0.1392;-1.6507;
839.4000;0.1392;-1.6557;
839.7000;0.1392;-1.6632;
840.0000;0.1376;-1.6682;
840.3000;0.1384;-1.6607;
840.6000;0.1384;-1.6607;
840.9000;0.1400;-1.6482;
841.2000;0.1408;-1.6356;
841.5000;0.1408;-1.6381;
841.8000;0.1359;-1.6331;
842.1000;0.1392;-1.6156;
842.4000;0.1416;-1.6156;
842.7000;0.1376;-1.6256;
843.0000;0.1376;-1.6281;
843.3000;0.1384;-1.6206;
843.6000;0.1392;-1.6231;
843.9000;0.1392;-1.6256;
844.2000;0.1384;-1.6256;
844.5000;0.1449;-1.6181;
844.8000;0.1384;-1.6281;
845.1000;0.1392;-1.6256;
845.4000;0.1359;-1.6406;
845.7000;0.1408;-1.6356;
846.0000;0.1416;-1.6381;
846.3000;0.1368;-1.6482;
846.6000;0.1408;-1.6406;
846.9000;0.1384;-1.6482;
847.2000;0.1457;-1.6256;
847.5000;0.1416;-1.6356;
847.8000;0.1425;-1.6356;
848.1000;0.1368;-1.6507;
848.4000;0.1368;-1.6457;
848.7000;0.1392;-1.6432;
849.0000;0.1400;-1.6532;
849.3000;0.1392;-1.6482;
849.6000;0.1368;-1.6482;
849.9000;0.1392;-1.6406;
850.2000;0.1416;-1.6356;
850.5000;0.1392;-1.6482;
850.8000;0.1384;-1.6482;
851.1000;0.1384;-1.6607;
851.4000;0.1400;-1.6557;
851.7000;0.1351;-1.6657;
852.0000;0.1392;-1.6582;
852.3000;0.1441;-1.6457;
852.6000;0.1433;-1.6607;
852.9000;0.1400;-1.6657;
853.2000;0.1376;-1.6682;
853.5000;0.1416;-1.6532;
853.8000;0.1416;-1.6432;
854.1000;0.1400;-1.6406;
854.4000;0.1343;-1.6557;
854.7000;0.1384;-1.6406;
855.0000;0.1408;-1.6381;
855.3000;0.1408;-1.6331;
855.6000;0.1392;-1.6432;
855.9000;0.1400;-1.6381;
856.2000;0.1416;-1.6356;
856.5000;0.1416;-1.6507;
856.8000;0.1408;-1.6482;
857.1000;0.1368;-1.6582;
857.4000;0.1376;-1.6557;
857.7000;0.1408;-1.6507;
858.0000;0.1425;-1.6482;
858.3000;0.1433;-1.6406;
858.6000;0.1416;-1.6406;
858.9000;0.1400;-1.6482;
859.2000;0.1400;-1.6432;
859.5000;0.1392;-1.6381;
859.8000;0.1400;-1.6432;
860.1000;0.1408;-1.6432;
860.4000;0.1425;-1.6406;
860.7000;0.1408;-1.6457;
861.0000;0.1400;-1.6482;
861.3000;0.1433;-1.6356;
861.6000;0.1359;-1.6532;
861.9000;0.1351;-1.6482;
862.2000;0.1368;-1.6582;
862.5000;0.1384;-1.6482;
862.8000;0.1408;-1.6381;
863.1000;0.1400;-1.6381;
863.4000;0.1408;-1.6331;
863.7000;0.1408;-1.6331;
864.0000;0.1416;-1.6356;
864.3000;0.1514;-1.6080;
864.6000;0.1425;-1.6256;
864.9000;0.1392;-1.6432;
865.2000;0.1425;-1.6432;
865.5000;0.1400;-1.6507;
865.8000;0.1359;-1.6557;
866.1000;0.1376;-1.6507;
866.4000;0.1441;-1.6156;
866.7000;0.1392;-1.6281;
867.0000;0.1384;-1.6356;
867.3000;0.1441;-1.6331;
867.6000;0.1359;-1.6607;
867.9000;0.1400;-1.6406;
868.2000;0.1351;-1.6507;
868.5000;0.1473;-1.6181;
868.8000;0.1400;-1.6356;
869.1000;0.1376;-1.6406;
869.4000;0.1408;-1.6381;
869.7000;0.1408;-1.6381;
870.0000;0.1359;-1.6482;
870.3000;0.1449;-1.6231;
870.6000;0.1351;-1.6457;
870.9000;0.1384;-1.6356;
871.2000;0.1359;-1.6306;
871.5000;0.1392;-1.6206;
871.8000;0.1400;-1.6306;
872.1000;0.1384;-1.6281;
872.4000;0.1408;-1.6306;
872.7000;0.1408;-1.6231;
873.0000;0.1408;-1.6206;
873.3000;0.1400;-1.6256;
873.6000;0.1408;-1.6231;
873.9000;0.1400;-1.6356;
874.2000;0.1359;-1.6381;
874.5000;0.1408;-1.6306;
874.8000;0.1457;-1.6030;
875.1000;0.1392;-1.6231;
875.4000;0.1384;-1.6306;
875.7000;0.1392;-1.6331;
876.0000;0.1400;-1.6356;
876.3000;0.1416;-1.6331;
876.6000;0.1416;-1.6356;
876.9000;0.1376;-1.6432;
877.2000;0.1359;-1.6432;
877.5000;0.1408;-1.6256;
877.8000;0.1408;-1.6281;
878.1000;0.1408;-1.6256;
878.4000;0.1416;-1.6256;
878.7000;0.1408;-1.6281;
879.0000;0.1384;-1.6256;
879.3000;0.1400;-1.6231;
879.6000;0.1408;-1.6156;
879.9000;0.1392;-1.6256;
880.2000;0.1400;-1.6256;
880.5000;0.1384;-1.6206;
880.8000;0.1376;-1.6156;
881.1000;0.1384;-1.5980;
881.4000;0.1368;-1.5980;
881.7000;0.1400;-1.5980;
882.0000;0.1408;-1.6030;
882.3000;0.1392;-1.6206;
882.6000;0.1400;-1.6206;
882.9000;0.1392;-1.6231;
883.2000;0.1400;-1.6181;
883.5000;0.1384;-1.6156;
883.8000;0.1400;-1.6206;
884.1000;0.1400;-1.6256;
884.4000;0.1392;-1.6231;
884.7000;0.1384;-1.6256;
885.0000;0.1416;-1.6231;
885.3000;0.1408;-1.6206;
885.6000;0.1384;-1.6281;
885.9000;0.1376;-1.6331;
886.2000;0.1400;-1.6231;
886.5000;0.1343;-1.6432;
886.8000;0.1408;-1.6306;
887.1000;0.1408;-1.6331;
887.4000;0.1335;-1.6432;
887.7000;0.1490;-1.5955;
888.0000;0.1294;-1.6507;
888.3000;0.1408;-1.6256;
888.6000;0.1400;-1.6331;
888.9000;0.1384;-1.6457;
889.2000;0.1425;-1.6331;
889.5000;0.1441;-1.6281;
889.8000;0.1392;-1.6331;
890.1000;0.1400;-1.6457;
890.4000;0.1392;-1.6406;
890.7000;0.1392;-1.6381;
891.0000;0.1465;-1.6181;
891.3000;0.1392;-1.6406;
891.6000;0.1425;-1.6306;
891.9000;0.1400;-1.6432;
892.2000;0.1433;-1.6381;
892.5000;0.1441;-1.6381;
892.8000;0.1376;-1.6381;
893.1000;0.1400;-1.6381;
893.4000;0.1392;-1.6406;
893.7000;0.1392;-1.6381;
894.0000;0.1359;-1.6482;
894.3000;0.1400;-1.6381;
894.6000;0.1416;-1.6306;
894.9000;0.1400;-1.6356;
895.2000;0.1359;-1.6457;
895.5000;0.1408;-1.6356;
895.8000;0.1392;-1.6432;
896.1000;0.1408;-1.6457;
896.4000;0.1400;-1.6507;
896.7000;0.1392;-1.6432;
897.0000;0.1408;-1.6306;
897.3000;0.1384;-1.6457;
897.6000;0.1392;-1.6406;
897.9000;0.1384;-1.6432;
898.2000;0.1408;-1.6406;
898.5000;0.1408;-1.6432;
898.8000;0.1416;-1.6507;
899.1000;0.1425;-1.6507;
899.4000;0.1425;-1.6406;
899.7000;0.1400;-1.6457;
900.0000;0.1400;-1.6482;
900.3000;0.1441;-1.6381;
900.6000;0.1392;-1.6507;
900.9000;0.1416;-1.6482;
901.2000;0.1408;-1.6507;
901.5000;0.1392;-1.6607;
901.8000;0.1392;-1.6557;
902.1000;0.1408;-1.6457;
902.4000;0.1425;-1.6532;
902.7000;0.1408;-1.6557;
903.0000;0.1392;-1.6682;
903.3000;0.1425;-1.6557;
903.6000;0.1408;-1.6532;
903.9000;0.1400;-1.6532;
904.2000;0.1392;-1.6507;
904.5000;0.1425;-1.6432;
904.8000;0.1408;-1.6406;
905.1000;0.1376;-1.6432;
905.4000;0.1351;-1.6457;
905.7000;0.1384;-1.6331;
906.0000;0.1408;-1.6231;
906.3000;0.1384;-1.6306;
906.6000;0.1359;-1.6331;
906.9000;0.1384;-1.6306;
907.2000;0.1400;-1.6406;
907.5000;0.1327;-1.6507;
907.8000;0.1359;-1.6406;
908.1000;0.1400;-1.6306;
908.4000;0.1392;-1.6331;
908.7000;0.1400;-1.6306;
909.0000;0.1400;-1.6457;
909.3000;0.1384;-1.6457;
909.6000;0.1359;-1.6432;
909.9000;0.1392;-1.6306;
910.2000;0.1359;-1.6432;
910.5000;0.1473;-1.6181;
910.8000;0.1416;-1.6406;
911.1000;0.1400;-1.6457;
911.4000;0.1368;-1.6582;
911.7000;0.1384;-1.6607;
912.0000;0.1400;-1.6632;
912.3000;0.1376;-1.6707;
912.6000;0.1384;-1.6758;
912.9000;0.1408;-1.6733;
913.2000;0.1433;-1.6707;
913.5000;0.1335;-1.6983;
913.8000;0.1506;-1.6381;
914.1000;0.1376;-1.6707;
914.4000;0.1392;-1.6657;
914.7000;0.1400;-1.6682;
915.0000;0.1425;-1.6582;
915.3000;0.1449;-1.6582;
915.6000;0.1400;-1.6607;
915.9000;0.1441;-1.6356;
916.2000;0.1392;-1.6457;
916.5000;0.1416;-1.6482;
916.8000;0.1376;-1.6682;
917.1000;0.1433;-1.6632;
917.4000;0.1384;-1.6783;
917.7000;0.1400;-1.6707;
918.0000;0.1384;-1.6707;
918.3000;0.1368;-1.6682;
918.6000;0.1416;-1.6532;
918.9000;0.1416;-1.6406;
919.2000;0.1392;-1.6482;
919.5000;0.1408;-1.6482;
919.8000;0.1416;-1.6406;
920.1000;0.1400;-1.6457;
920.4000;0.1416;-1.6381;
920.7000;0.1376;-1.6356;
921.0000;0.1392;-1.6281;
921.3000;0.1408;-1.6231;
921.6000;0.1400;-1.6306;
921.9000;0.1384;-1.6356;
922.2000;0.1408;-1.6406;
922.5000;0.1425;-1.6331;
922.8000;0.1408;-1.6306;
923.1000;0.1400;-1.6406;
923.4000;0.1449;-1.6306;
923.7000;0.1392;-1.6432;
924.0000;0.1441;-1.6256;
924.3000;0.1286;-1.6707;
924.6000;0.1384;-1.6532;
924.9000;0.1384;-1.6532;
925.2000;0.1376;-1.6532;
925.5000;0.1384;-1.6557;
925.8000;0.1286;-1.6883;
926.1000;0.1368;-1.6682;
926.4000;0.1400;-1.6507;
926.7000;0.1392;-1.6507;
927.0000;0.1400;-1.6406;
927.3000;0.1465;-1.6281;
927.6000;0.1376;-1.6507;
927.9000;0.1408;-1.6406;
928.2000;0.1376;-1.6507;
928.5000;0.1376;-1.6557;
928.8000;0.1384;-1.6557;
929.1000;0.1400;-1.6507;
929.4000;0.1392;-1.6557;
929.7000;0.1384;-1.6733;
930.0000;0.1376;-1.6758;
930.3000;0.1392;-1.6632;
930.6000;0.1384;-1.6733;
930.9000;0.1392;-1.6733;
931.2000;0.1392;-1.6808;
931.5000;0.1368;-1.6883;
931.8000;0.1441;-1.6582;
932.1000;0.1416;-1.6657;
932.4000;0.1392;-1.6682;
932.7000;0.1384;-1.6657;
933.0000;0.1392;-1.6707;
933.3000;0.1400;-1.6632;
933.6000;0.1392;-1.6657;
933.9000;0.1433;-1.6532;
934.2000;0.1408;-1.6632;
934.5000;0.1416;-1.6607;
934.8000;0.1384;-1.6733;
935.1000;0.1392;-1.6607;
935.4000;0.1400;-1.6557;
935.7000;0.1408;-1.6532;
936.0000;0.1384;-1.6682;
936.3000;0.1392;-1.6632;
936.6000;0.1416;-1.6532;
936.9000;0.1400;-1.6582;
937.2000;0.1400;-1.6582;
937.5000;0.1400;-1.6532;
937.8000;0.1392;-1.6532;
938.1000;0.1416;-1.6381;
938.4000;0.1400;-1.6406;
938.7000;0.1400;-1.6582;
939.0000;0.1400;-1.6507;
939.3000;0.1335;-1.6758;
939.6000;0.1400;-1.6507;
939.9000;0.1384;-1.6532;
940.2000;0.1416;-1.6532;
940.5000;0.1392;-1.6607;
940.8000;0.1400;-1.6707;
941.1000;0.1416;-1.6682;
941.4000;0.1416;-1.6557;
941.7000;0.1416;-1.6532;
942.0000;0.1408;-1.6557;
942.3000;0.1384;-1.6507;
942.6000;0.1384;-1.6457;
942.9000;0.1441;-1.6306;
943.2000;0.1400;-1.6381;
943.5000;0.1416;-1.6432;
943.8000;0.1400;-1.6381;
944.1000;0.1384;-1.6432;
944.4000;0.1400;-1.6381;
944.7000;0.1384;-1.6432;
945.0000;0.1376;-1.6457;
945.3000;0.1506;-1.6156;
945.6000;0.1384;-1.6482;
945.9000;0.1376;-1.6432;
946.2000;0.1376;-1.6482;
946.5000;0.1400;-1.6507;
946.8000;0.1351;-1.6632;
947.1000;0.1400;-1.6457;
947.4000;0.1327;-1.6557;
947.7000;0.1392;-1.6406;
948.0000;0.1384;-1.6457;
948.3000;0.1392;-1.6381;
948.6000;0.1400;-1.6381;
948.9000;0.1457;-1.6356;
949.2000;0.1392;-1.6557;
949.5000;0.1400;-1.6632;
949.8000;0.1384;-1.6632;
950.1000;0.1400;-1.6657;
950.4000;0.1384;-1.6758;
950.7000;0.1425;-1.6733;
951.0000;0.1433;-1.6682;
951.3000;0.1392;-1.6707;
951.6000;0.1392;-1.6682;
951.9000;0.1368;-1.6682;
952.2000;0.1376;-1.6607;
952.5000;0.1392;-1.6582;
952.8000;0.1384;-1.6582;
953.1000;0.1384;-1.6657;
953.4000;0.1408;-1.6507;
953.7000;0.1384;-1.6682;
954.0000;0.1400;-1.6682;
954.3000;0.1408;-1.6632;
954.6000;0.1351;-1.6808;
954.9000;0.1368;-1.6808;
955.2000;0.1376;-1.6758;
955.5000;0.1335;-1.6883;
955.8000;0.1400;-1.6632;
956.1000;0.1311;-1.6858;
956.4000;0.1384;-1.6682;
956.7000;0.1384;-1.6707;
957.0000;0.1400;-1.6657;
957.3000;0.1408;-1.6482;
957.6000;0.1392;-1.6532;
957.9000;0.1286;-1.6758;
958.2000;0.1368;-1.6607;
958.5000;0.1408;-1.6532;
958.8000;0.1408;-1.6532;
959.1000;0.1408;-1.6557;
959.4000;0.1400;-1.6607;
959.7000;0.1408;-1.6532;
960.0000;0.1400;-1.6582;
960.3000;0.1416;-1.6507;
960.6000;0.1384;-1.6532;
960.9000;0.1392;-1.6582;
961.2000;0.1392;-1.6632;
961.5000;0.1384;-1.6682;
961.8000;0.1408;-1.6657;
962.1000;0.1449;-1.6457;
962.4000;0.1343;-1.6707;
962.7000;0.1392;-1.6507;
963.0000;0.1449;-1.6356;
963.3000;0.1376;-1.6532;
963.6000;0.1449;-1.6381;
963.9000;0.1368;-1.6607;
964.2000;0.1400;-1.6507;
964.5000;0.1294;-1.6733;
964.8000;0.1441;-1.6381;
965.1000;0.1392;-1.6582;
965.4000;0.1376;-1.6557;
965.7000;0.1400;-1.6457;
966.0000;0.1392;-1.6457;
966.3000;0.1392;-1.6532;
966.6000;0.1376;-1.6532;
966.9000;0.1408;-1.6507;
967.2000;0.1408;-1.6532;
967.5000;0.1384;-1.6482;
967.8000;0.1384;-1.6482;
968.1000;0.1384;-1.6507;
968.4000;0.1408;-1.6381;
968.7000;0.1416;-1.6356;
969.0000;0.1425;-1.6306;
969.3000;0.1400;-1.6331;
969.6000;0.1400;-1.6381;
969.9000;0.1400;-1.6406;
970.2000;0.1433;-1.6306;
970.5000;0.1384;-1.6457;
970.8000;0.1425;-1.6306;
971.1000;0.1400;-1.6331;
971.4000;0.1359;-1.6381;
971.7000;0.1376;-1.6406;
972.0000;0.1408;-1.6356;
972.3000;0.1400;-1.6532;
972.6000;0.1408;-1.6507;
972.9000;0.1368;-1.6532;
973.2000;0.1416;-1.6482;
973.5000;0.1408;-1.6532;
973.8000;0.1400;-1.6482;
974.1000;0.1433;-1.6381;
974.4000;0.1376;-1.6457;
974.7000;0.1408;-1.6482;
975.0000;0.1400;-1.6482;
975.3000;0.1384;-1.6607;
975.6000;0.1408;-1.6582;
975.9000;0.1400;-1.6532;
976.2000;0.1449;-1.6457;
976.5000;0.1392;-1.6507;
976.8000;0.1384;-1.6607;
977.1000;0.1368;-1.6582;
977.4000;0.1400;-1.6507;
977.7000;0.1327;-1.6733;
978.0000;0.1481;-1.6381;
978.3000;0.1359;-1.6733;
978.6000;0.1400;-1.6632;
978.9000;0.1384;-1.6733;
979.2000;0.1359;-1.6783;
979.5000;0.1327;-1.6833;
979.8000;0.1425;-1.6607;
980.1000;0.1400;-1.6707;
980.4000;0.1408;-1.6733;
980.7000;0.1400;-1.6783;
981.0000;0.1408;-1.6682;
981.3000;0.1449;-1.6607;
981.6000;0.1376;-1.6783;
981.9000;0.1319;-1.6933;
982.2000;0.1408;-1.6707;
982.5000;0.1425;-1.6632;
982.8000;0.1392;-1.6582;
983.1000;0.1449;-1.6432;
983.4000;0.1368;-1.6507;
983.7000;0.1400;-1.6406;
984.0000;0.1400;-1.6356;
984.3000;0.1400;-1.6457;
984.6000;0.1327;-1.6557;
984.9000;0.1384;-1.6482;
985.2000;0.1400;-1.6457;
985.5000;0.1376;-1.6457;
985.8000;0.1368;-1.6432;
986.1000;0.1384;-1.6356;
986.4000;0.1400;-1.6356;
986.7000;0.1384;-1.6457;
987.0000;0.1392;-1.6306;
987.3000;0.1400;-1.6206;
987.6000;0.1384;-1.6256;
987.9000;0.1400;-1.6206;
988.2000;0.1392;-1.6306;
988.5000;0.1408;-1.6181;
988.8000;0.1368;-1.6256;
989.1000;0.1368;-1.6306;
989.4000;0.1400;-1.6331;
989.7000;0.1416;-1.6281;
990.0000;0.1425;-1.6306;
990.3000;0.1416;-1.6381;
990.6000;0.1400;-1.6331;
990.9000;0.1392;-1.6281;
991.2000;0.1400;-1.6281;
991.5000;0.1416;-1.6231;
991.8000;0.1327;-1.6507;
992.1000;0.1400;-1.6306;
992.4000;0.1408;-1.6281;
992.7000;0.1392;-1.6331;
993.0000;0.1408;-1.6356;
993.3000;0.1400;-1.6381;
993.6000;0.1392;-1.6432;
993.9000;0.1392;-1.6482;
994.2000;0.1400;-1.6432;
994.5000;0.1400;-1.6356;
994.8000;0.1400;-1.6432;
995.1000;0.1416;-1.6406;
995.4000;0.1400;-1.6482;
995.7000;0.1392;-1.6532;
996.0000;0.1408;-1.6507;
996.3000;0.1416;-1.6532;
996.6000;0.1408;-1.6507;
996.9000;0.1392;-1.6507;
997.2000;0.1392;-1.6457;
997.5000;0.1400;-1.6406;
997.8000;0.1384;-1.6432;
998.1000;0.1384;-1.6432;
998.4000;0.1392;-1.6582;
998.7000;0.1408;-1.6582;
999.0000;0.1408;-1.6607;
999.3000;0.1392;-1.6632;
999.6000;0.1416;-1.6682;
999.9000;0.1384;-1.6733;
1000.2000;0.1376;-1.6582;
1000.5000;0.1392;-1.6507;
1000.8000;0.1376;-1.6482;
1001.1000;0.1392;-1.6331;
1001.4000;0.1384;-1.6331;
1001.7000;0.1376;-1.6281;
1002.0000;0.1392;-1.6306;
1002.3000;0.1368;-1.6356;
1002.6000;0.1392;-1.6406;
1002.9000;0.1400;-1.6482;
1003.2000;0.1384;-1.6457;
1003.5000;0.1416;-1.6381;
1003.8000;0.1384;-1.6432;
1004.1000;0.1392;-1.6381;
1004.4000;0.1400;-1.6432;
1004.7000;0.1400;-1.6457;
1005.0000;0.1392;-1.6432;
1005.3000;0.1425;-1.6206;
1005.6000;0.1400;-1.6306;
1005.9000;0.1400;-1.6306;
1006.2000;0.1465;-1.6055;
1006.5000;0.1376;-1.6306;
1006.8000;0.1392;-1.6331;
1007.1000;0.1400;-1.6306;
1007.4000;0.1400;-1.6381;
1007.7000;0.1400;-1.6306;
1008.0000;0.1384;-1.6406;
1008.3000;0.1343;-1.6532;
1008.6000;0.1400;-1.6356;
1008.9000;0.1408;-1.6381;
1009.2000;0.1408;-1.6256;
1009.5000;0.1400;-1.6256;
1009.8000;0.1400;-1.6306;
1010.1000;0.1416;-1.6306;
1010.4000;0.1408;-1.6306;
1010.7000;0.1392;-1.6281;
1011.0000;0.1400;-1.6356;
1011.3000;0.1400;-1.6406;
1011.6000;0.1408;-1.6507;
1011.9000;0.1400;-1.6482;
1012.2000;0.1384;-1.6607;
1012.5000;0.1392;-1.6507;
1012.8000;0.1384;-1.6457;
1013.1000;0.1376;-1.6406;
1013.4000;0.1376;-1.6331;
1013.7000;0.1392;-1.6356;
1014.0000;0.1457;-1.6231;
1014.3000;0.1416;-1.6331;
1014.6000;0.1416;-1.6306;
1014.9000;0.1425;-1.6206;
1015.2000;0.1416;-1.6281;
1015.5000;0.1425;-1.6206;
1015.8000;0.1416;-1.6231;
1016.1000;0.1416;-1.6080;
1016.4000;0.1416;-1.6080;
1016.7000;0.1400;-1.6080;
1017.0000;0.1400;-1.6206;
1017.3000;0.1359;-1.6381;
1017.6000;0.1384;-1.6381;
1017.9000;0.1384;-1.6281;
1018.2000;0.1408;-1.6256;
1018.5000;0.1400;-1.6281;
1018.8000;0.1408;-1.6256;
1019.1000;0.1400;-1.6281;
1019.4000;0.1384;-1.6281;
1019.7000;0.1408;-1.6181;
1020.0000;0.1408;-1.6281;
1020.3000;0.1392;-1.6482;
1020.6000;0.1433;-1.6381;
1020.9000;0.1400;-1.6432;
1021.2000;0.1359;-1.6482;
1021.5000;0.1400;-1.6381;
1021.8000;0.1368;-1.6432;
1022.1000;0.1376;-1.6281;
1022.4000;0.1351;-1.6331;
1022.7000;0.1449;-1.6080;
1023.0000;0.1376;-1.6231;
1023.3000;0.1359;-1.6281;
1023.6000;0.1384;-1.6181;
1023.9000;0.1384;-1.6206;
1024.2000;0.1408;-1.6231;
1024.5000;0.1449;-1.6231;
1024.8000;0.1408;-1.6381;
1025.1000;0.1416;-1.6306;
1025.4000;0.1416;-1.6231;
1025.7000;0.1351;-1.6482;
1026.0000;0.1392;-1.6381;
1026.3000;0.1359;-1.6432;
1026.6000;0.1408;-1.6281;
1026.9000;0.1392;-1.6356;
1027.2000;0.1384;-1.6432;
1027.5000;0.1392;-1.6406;
1027.8000;0.1400;-1.6432;
1028.1000;0.1359;-1.6582;
1028.4000;0.1392;-1.6482;
1028.7000;0.1392;-1.6356;
1029.0000;0.1392;-1.6306;
1029.3000;0.1392;-1.6406;
1029.6000;0.1392;-1.6457;
1029.9000;0.1400;-1.6457;
1030.2000;0.1408;-1.6532;
1030.5000;0.1416;-1.6356;
1030.8000;0.1408;-1.6406;
1031.1000;0.1384;-1.6482;
1031.4000;0.1400;-1.6381;
1031.7000;0.1400;-1.6356;
1032.0000;0.1400;-1.6432;
1032.3000;0.1392;-1.6406;
1032.6000;0.1392;-1.6331;
1032.9000;0.1400;-1.6381;
1033.2000;0.1392;-1.6331;
1033.5000;0.1392;-1.6281;
1033.8000;0.1392;-1.6331;
1034.1000;0.1416;-1.6281;
1034.4000;0.1408;-1.6331;
1034.7000;0.1408;-1.6331;
1035.0000;0.1408;-1.6281;
1035.3000;0.1400;-1.6306;
1035.6000;0.1408;-1.6306;
1035.9000;0.1408;-1.6356;
1036.2000;0.1392;-1.6356;
1036.5000;0.1392;-1.6356;
1036.8000;0.1416;-1.6331;
1037.1000;0.1416;-1.6231;
1037.4000;0.1416;-1.6281;
1037.7000;0.1392;-1.6306;
1038.0000;0.1376;-1.6356;
1038.3000;0.1425;-1.6281;
1038.6000;0.1392;-1.6381;
1038.9000;0.1392;-1.6507;
1039.2000;0.1408;-1.6432;
1039.5000;0.1384;-1.6457;
1039.8000;0.1400;-1.6482;
1040.1000;0.1400;-1.6482;
1040.4000;0.1416;-1.6331;
1040.7000;0.1392;-1.6406;
1041.0000;0.1400;-1.6281;
1041.3000;0.1384;-1.6356;
1041.6000;0.1384;-1.6356;
1041.9000;0.1392;-1.6331;
1042.2000;0.1392;-1.6356;
1042.5000;0.1392;-1.6381;
1042.8000;0.1384;-1.6381;
1043.1000;0.1392;-1.6381;
1043.4000;0.1400;-1.6331;
1043.7000;0.1416;-1.6406;
1044.0000;0.1384;-1.6331;
1044.3000;0.1425;-1.6206;
1044.6000;0.1408;-1.6281;
1044.9000;0.1392;-1.6356;
1045.2000;0.1416;-1.6356;
1045.5000;0.1376;-1.6281;
1045.8000;0.1416;-1.6206;
1046.1000;0.1400;-1.6206;
1046.4000;0.1392;-1.6306;
1046.7000;0.1433;-1.6356;
1047.0000;0.1408;-1.6381;
1047.3000;0.1408;-1.6432;
1047.6000;0.1408;-1.6356;
1047.9000;0.1384;-1.6406;
1048.2000;0.1416;-1.6306;
1048.5000;0.1400;-1.6432;
1048.8000;0.1400;-1.6507;
1049.1000;0.1425;-1.6507;
1049.4000;0.1408;-1.6507;
1049.7000;0.1327;-1.6808;
1050.0000;0.1416;-1.6607;
1050.3000;0.1392;-1.6632;
1050.6000;0.1384;-1.6707;
1050.9000;0.1376;-1.6758;
1051.2000;0.1408;-1.6682;
1051.5000;0.1400;-1.6632;
1051.8000;0.1351;-1.6657;
1052.1000;0.1400;-1.6482;
1052.4000;0.1392;-1.6532;
1052.7000;0.1400;-1.6557;
1053.0000;0.1384;-1.6557;
1053.3000;0.1384;-1.6482;
1053.6000;0.1384;-1.6406;
1053.9000;0.1384;-1.6406;
1054.2000;0.1384;-1.6381;
1054.5000;0.1400;-1.6306;
1054.8000;0.1384;-1.6356;
1055.1000;0.1400;-1.6331;
1055.4000;0.1392;-1.6281;
1055.7000;0.1400;-1.6331;
1056.0000;0.1473;-1.6206;
1056.3000;0.1425;-1.6331;
1056.6000;0.1392;-1.6406;
1056.9000;0.1416;-1.6406;
1057.2000;0.1416;-1.6356;
1057.5000;0.1392;-1.6406;
1057.8000;0.1392;-1.6482;
1058.1000;0.1392;-1.6507;
1058.4000;0.1392;-1.6457;
1058.7000;0.1408;-1.6432;
1059.0000;0.1368;-1.6582;
1059.3000;0.1376;-1.6582;
1059.6000;0.1392;-1.6582;
1059.9000;0.1400;-1.6632;
1060.2000;0.1392;-1.6557;
1060.5000;0.1408;-1.6532;
1060.8000;0.1392;-1.6557;
1061.1000;0.1433;-1.6482;
1061.4000;0.1400;-1.6482;
1061.7000;0.1368;-1.6507;
1062.0000;0.1441;-1.6281;
1062.3000;0.1400;-1.6356;
1062.6000;0.1392;-1.6356;
1062.9000;0.1335;-1.6507;
1063.2000;0.1384;-1.6331;
1063.5000;0.1400;-1.6331;
1063.8000;0.1416;-1.6306;
1064.1000;0.1384;-1.6507;
1064.4000;0.1392;-1.6381;
1064.7000;0.1416;-1.6281;
1065.0000;0.1408;-1.6356;
1065.3000;0.1400;-1.6457;
1065.6000;0.1392;-1.6457;
1065.9000;0.1408;-1.6406;
1066.2000;0.1416;-1.6432;
1066.5000;0.1408;-1.6356;
1066.8000;0.1392;-1.6482;
1067.1000;0.1384;-1.6457;
1067.4000;0.1384;-1.6381;
1067.7000;0.1384;-1.6381;
1068.0000;0.1425;-1.6331;
1068.3000;0.1384;-1.6507;
1068.6000;0.1376;-1.6507;
1068.9000;0.1416;-1.6331;
1069.2000;0.1400;-1.6381;
1069.5000;0.1302;-1.6682;
1069.8000;0.1408;-1.6482;
1070.1000;0.1392;-1.6582;
1070.4000;0.1392;-1.6557;
1070.7000;0.1384;-1.6582;
1071.0000;0.1433;-1.6457;
1071.3000;0.1400;-1.6557;
1071.6000;0.1392;-1.6457;
1071.9000;0.1384;-1.6482;
1072.2000;0.1327;-1.6682;
1072.5000;0.1343;-1.6607;
1072.8000;0.1384;-1.6457;
1073.1000;0.1368;-1.6507;
1073.4000;0.1376;-1.6532;
1073.7000;0.1351;-1.6682;
1074.0000;0.1327;-1.6758;
1074.3000;0.1376;-1.6482;
1074.6000;0.1400;-1.6432;
1074.9000;0.1384;-1.6457;
1075.2000;0.1400;-1.6457;
1075.5000;0.1408;-1.6482;
1075.8000;0.1384;-1.6557;
1076.1000;0.1416;-1.6432;
1076.4000;0.1384;-1.6482;
1076.7000;0.1400;-1.6482;
1077.0000;0.1400;-1.6482;
1077.3000;0.1384;-1.6482;
1077.6000;0.1400;-1.6406;
1077.9000;0.1425;-1.6306;
1078.2000;0.1400;-1.6406;
1078.5000;0.1416;-1.6457;
1078.8000;0.1416;-1.6457;
1079.1000;0.1408;-1.6532;
1079.4000;0.1400;-1.6557;
1079.7000;0.1392;-1.6532;
1080.0000;0.1408;-1.6406;
1080.3000;0.1425;-1.6331;
1080.6000;0.1392;-1.6432;
1080.9000;0.1408;-1.6432;
1081.2000;0.1368;-1.6582;
1081.5000;0.1400;-1.6507;
1081.8000;0.1441;-1.6356;
1082.1000;0.1376;-1.6582;
1082.4000;0.1376;-1.6632;
1082.7000;0.1392;-1.6657;
1083.0000;0.1392;-1.6707;
1083.3000;0.1392;-1.6707;
1083.6000;0.1384;-1.6657;
1083.9000;0.1400;-1.6582;
1084.2000;0.1408;-1.6557;
1084.5000;0.1408;-1.6507;
1084.8000;0.1392;-1.6482;
1085.1000;0.1384;-1.6406;
1085.4000;0.1416;-1.6356;
1085.7000;0.1400;-1.6457;
1086.0000;0.1416;-1.6432;
1086.3000;0.1384;-1.6406;
1086.6000;0.1351;-1.6457;
1086.9000;0.1392;-1.6457;
1087.2000;0.1392;-1.6457;
1087.5000;0.1416;-1.6381;
1087.8000;0.1425;-1.6381;
1088.1000;0.1327;-1.6582;
1088.4000;0.1408;-1.6406;
1088.7000;0.1400;-1.6457;
1089.0000;0.1416;-1.6482;
1089.3000;0.1400;-1.6507;
1089.6000;0.1376;-1.6607;
1089.9000;0.1416;-1.6482;
1090.2000;0.1416;-1.6482;
1090.5000;0.1376;-1.6507;
1090.8000;0.1400;-1.6482;
1091.1000;0.1433;-1.6432;
1091.4000;0.1384;-1.6582;
1091.7000;0.1376;-1.6507;
1092.0000;0.1416;-1.6482;
1092.3000;0.1400;-1.6507;
1092.6000;0.1392;-1.6457;
1092.9000;0.1408;-1.6406;
1093.2000;0.1335;-1.6607;
1093.5000;0.1408;-1.6406;
1093.8000;0.1400;-1.6457;
1094.1000;0.1392;-1.6482;
1094.4000;0.1368;-1.6582;
1094.7000;0.1473;-1.6256;
1095.0000;0.1433;-1.6331;
1095.3000;0.1384;-1.6457;
1095.6000;0.1376;-1.6457;
1095.9000;0.1416;-1.6381;
1096.2000;0.1457;-1.6306;
1096.5000;0.1384;-1.6432;
1096.8000;0.1425;-1.6331;
1097.1000;0.1433;-1.6356;
1097.4000;0.1408;-1.6457;
1097.7000;0.1384;-1.6532;
1098.0000;0.1392;-1.6582;
1098.3000;0.1400;-1.6482;
1098.6000;0.1384;-1.6582;
1098.9000;0.1392;-1.6557;
1099.2000;0.1400;-1.6557;
1099.5000;0.1392;-1.6532;
1099.8000;0.1392;-1.6582;
1100.1000;0.1392;-1.6557;
1100.4000;0.1400;-1.6507;
1100.7000;0.1400;-1.6507;
1101.0000;0.1408;-1.6432;
1101.3000;0.1400;-1.6457;
1101.6000;0.1384;-1.6432;
1101.9000;0.1408;-1.6356;
1102.2000;0.1465;-1.6306;
1102.5000;0.1392;-1.6406;
1102.8000;0.1408;-1.6457;
1103.1000;0.1408;-1.6482;
1103.4000;0.1392;-1.6482;
1103.7000;0.1384;-1.6507;
1104.0000;0.1359;-1.6532;
1104.3000;0.1392;-1.6532;
1104.6000;0.1392;-1.6582;
1104.9000;0.1441;-1.6507;
1105.2000;0.1392;-1.6657;
1105.5000;0.1408;-1.6607;
1105.8000;0.1416;-1.6507;
1106.1000;0.1416;-1.6507;
1106.4000;0.1400;-1.6532;
1106.7000;0.1408;-1.6607;
1107.0000;0.1481;-1.6482;
1107.3000;0.1384;-1.6707;
1107.6000;0.1416;-1.6632;
1107.9000;0.1384;-1.6607;
1108.2000;0.1392;-1.6582;
1108.5000;0.1425;-1.6532;
1108.8000;0.1457;-1.6482;
1109.1000;0.1408;-1.6682;
1109.4000;0.1425;-1.6657;
1109.7000;0.1400;-1.6657;
1110.0000;0.1433;-1.6632;
1110.3000;0.1433;-1.6682;
1110.6000;0.1311;-1.6833;
1110.9000;0.1302;-1.6783;
1111.2000;0.1392;-1.6532;
1111.5000;0.1408;-1.6482;
1111.8000;0.1392;-1.6457;
1112.1000;0.1392;-1.6457;
1112.4000;0.1408;-1.6482;
1112.7000;0.1392;-1.6532;
1113.0000;0.1311;-1.6783;
1113.3000;0.1368;-1.6632;
1113.6000;0.1368;-1.6532;
1113.9000;0.1392;-1.6406;
1114.2000;0.1473;-1.6181;
1114.5000;0.1425;-1.6381;
1114.8000;0.1416;-1.6406;
1115.1000;0.1408;-1.6582;
1115.4000;0.1392;-1.6632;
1115.7000;0.1408;-1.6657;
1116.0000;0.1425;-1.6557;
1116.3000;0.1408;-1.6457;
1116.6000;0.1384;-1.6482;
1116.9000;0.1384;-1.6532;
1117.2000;0.1368;-1.6632;
1117.5000;0.1368;-1.6657;
1117.8000;0.1457;-1.6457;
1118.1000;0.1359;-1.6657;
1118.4000;0.1441;-1.6381;
1118.7000;0.1384;-1.6607;
1119.0000;0.1400;-1.6507;
1119.3000;0.1441;-1.6406;
1119.6000;0.1400;-1.6582;
1119.9000;0.1384;-1.6507;
1120.2000;0.1351;-1.6657;
1120.5000;0.1368;-1.6657;
1120.8000;0.1384;-1.6607;
1121.1000;0.1400;-1.6507;
1121.4000;0.1408;-1.6406;
1121.7000;0.1400;-1.6507;
1122.0000;0.1433;-1.6432;
1122.3000;0.1408;-1.6507;
1122.6000;0.1384;-1.6582;
1122.9000;0.1384;-1.6482;
1123.2000;0.1392;-1.6507;
1123.5000;0.1416;-1.6457;
1123.8000;0.1473;-1.6381;
1124.1000;0.1392;-1.6557;
1124.4000;0.1400;-1.6557;
1124.7000;0.1400;-1.6457;
1125.0000;0.1392;-1.6381;
1125.3000;0.1392;-1.6281;
1125.6000;0.1400;-1.6281;
1125.9000;0.1425;-1.6281;
1126.2000;0.1400;-1.6356;
1126.5000;0.1400;-1.6406;
1126.8000;0.1408;-1.6381;
1127.1000;0.1408;-1.6482;
1127.4000;0.1416;-1.6432;
1127.7000;0.1425;-1.6457;
1128.0000;0.1400;-1.6532;
1128.3000;0.1416;-1.6482;
1128.6000;0.1408;-1.6482;
1128.9000;0.1425;-1.6457;
1129.2000;0.1384;-1.6507;
1129.5000;0.1384;-1.6482;
1129.8000;0.1416;-1.6432;
1130.1000;0.1384;-1.6482;
1130.4000;0.1400;-1.6406;
1130.7000;0.1408;-1.6381;
1131.0000;0.1441;-1.6381;
1131.3000;0.1400;-1.6632;
1131.6000;0.1384;-1.6607;
1131.9000;0.1408;-1.6557;
1132.2000;0.1384;-1.6557;
1132.5000;0.1416;-1.6582;
1132.8000;0.1400;-1.6532;
1133.1000;0.1457;-1.6256;
1133.4000;0.1400;-1.6406;
1133.7000;0.1400;-1.6356;
1134.0000;0.1465;-1.6105;
1134.3000;0.1400;-1.6306;
1134.6000;0.1449;-1.6105;
1134.9000;0.1400;-1.6156;
1135.2000;0.1408;-1.6181;
1135.5000;0.1400;-1.6256;
1135.8000;0.1392;-1.6356;
1136.1000;0.1400;-1.6457;
1136.4000;0.1465;-1.6256;
1136.7000;0.1408;-1.6381;
1137.0000;0.1392;-1.6532;
1137.3000;0.1449;-1.6381;
1137.6000;0.1408;-1.6482;
1137.9000;0.1392;-1.6432;
1138.2000;0.1392;-1.6457;
1138.5000;0.1408;-1.6457;
1138.8000;0.1400;-1.6432;
1139.1000;0.1400;-1.6432;
1139.4000;0.1400;-1.6432;
1139.7000;0.1400;-1.6381;
1140.0000;0.1376;-1.6406;
1140.3000;0.1368;-1.6432;
1140.6000;0.1416;-1.6306;
1140.9000;0.1408;-1.6356;
1141.2000;0.1408;-1.6457;
1141.5000;0.1425;-1.6356;
1141.8000;0.1384;-1.6356;
1142.1000;0.1384;-1.6381;
1142.4000;0.1376;-1.6406;
1142.7000;0.1392;-1.6406;
1143.0000;0.1416;-1.6482;
1143.3000;0.1376;-1.6507;
1143.6000;0.1384;-1.6381;
1143.9000;0.1416;-1.6256;
1144.2000;0.1392;-1.6231;
1144.5000;0.1425;-1.6231;
1144.8000;0.1384;-1.6356;
1145.1000;0.1400;-1.6356;
1145.4000;0.1408;-1.6482;
1145.7000;0.1384;-1.6507;
1146.0000;0.1400;-1.6457;
1146.3000;0.1400;-1.6457;
1146.6000;0.1384;-1.6482;
1146.9000;0.1400;-1.6557;
1147.2000;0.1384;-1.6657;
1147.5000;0.1384;-1.6657;
1147.8000;0.1376;-1.6707;
1148.1000;0.1359;-1.6758;
1148.4000;0.1392;-1.6657;
1148.7000;0.1384;-1.6532;
1149.0000;0.1392;-1.6457;
1149.3000;0.1400;-1.6432;
1149.6000;0.1400;-1.6432;
1149.9000;0.1392;-1.6457;
1150.2000;0.1392;-1.6406;
1150.5000;0.1400;-1.6432;
1150.8000;0.1392;-1.6406;
1151.1000;0.1457;-1.6231;
1151.4000;0.1425;-1.6256;
1151.7000;0.1416;-1.6206;
1152.0000;0.1384;-1.6306;
1152.3000;0.1376;-1.6406;
1152.6000;0.1408;-1.6381;
1152.9000;0.1490;-1.6281;
1153.2000;0.1433;-1.6406;
1153.5000;0.1416;-1.6457;
1153.8000;0.1400;-1.6432;
1154.1000;0.1408;-1.6381;
1154.4000;0.1376;-1.6381;
1154.7000;0.1425;-1.6331;
1155.0000;0.1384;-1.6457;
1155.3000;0.1400;-1.6507;
1155.6000;0.1392;-1.6607;
1155.9000;0.1384;-1.6657;
1156.2000;0.1408;-1.6507;
1156.5000;0.1425;-1.6457;
1156.8000;0.1400;-1.6507;
1157.1000;0.1400;-1.6532;
1157.4000;0.1392;-1.6507;
1157.7000;0.1408;-1.6381;
1158.0000;0.1408;-1.6356;
1158.3000;0.1376;-1.6507;
1158.6000;0.1384;-1.6482;
1158.9000;0.1400;-1.6356;
1159.2000;0.1335;-1.6482;
1159.5000;0.1400;-1.6356;
1159.8000;0.1384;-1.6381;
1160.1000;0.1400;-1.6381;
1160.4000;0.1400;-1.6507;
1160.7000;0.1441;-1.6432;
1161.0000;0.1400;-1.6507;
1161.3000;0.1376;-1.6507;
1161.6000;0.1392;-1.6457;
1161.9000;0.1408;-1.6406;
1162.2000;0.1400;-1.6457;
1162.5000;0.1408;-1.6356;
1162.8000;0.1343;-1.6532;
1163.1000;0.1457;-1.6281;
1163.4000;0.1400;-1.6381;
1163.7000;0.1408;-1.6432;
1164.0000;0.1384;-1.6457;
1164.3000;0.1408;-1.6381;
1164.6000;0.1408;-1.6331;
1164.9000;0.1449;-1.6281;
1165.2000;0.1425;-1.6331;
1165.5000;0.1408;-1.6406;
1165.8000;0.1416;-1.6457;
1166.1000;0.1408;-1.6482;
1166.4000;0.1408;-1.6457;
1166.7000;0.1335;-1.6657;
1167.0000;0.1425;-1.6532;
1167.3000;0.1408;-1.6582;
1167.6000;0.1400;-1.6682;
1167.9000;0.1408;-1.6657;
1168.2000;0.1359;-1.6833;
1168.5000;0.1384;-1.6733;
1168.8000;0.1351;-1.6808;
1169.1000;0.1408;-1.6783;
1169.4000;0.1408;-1.6783;
1169.7000;0.1376;-1.6858;
1170.0000;0.1392;-1.6783;
1170.3000;0.1400;-1.6707;
1170.6000;0.1408;-1.6607;
1170.9000;0.1400;-1.6682;
1171.2000;0.1351;-1.6808;
1171.5000;0.1408;-1.6758;
1171.8000;0.1416;-1.6758;
1172.1000;0.1408;-1.6783;
1172.4000;0.1425;-1.6632;
1172.7000;0.1392;-1.6682;
1173.0000;0.1408;-1.6657;
1173.3000;0.1400;-1.6682;
1173.6000;0.1408;-1.6607;
1173.9000;0.1400;-1.6582;
1174.2000;0.1408;-1.6507;
1174.5000;0.1392;-1.6582;
1174.8000;0.1400;-1.6557;
1175.1000;0.1449;-1.6457;
1175.4000;0.1416;-1.6482;
1175.7000;0.1416;-1.6432;
1176.0000;0.1416;-1.6406;
1176.3000;0.1408;-1.6457;
1176.6000;0.1400;-1.6406;
1176.9000;0.1457;-1.6331;
1177.2000;0.1400;-1.6507;
1177.5000;0.1400;-1.6507;
1177.8000;0.1408;-1.6507;
1178.1000;0.1457;-1.6356;
1178.4000;0.1416;-1.6457;
1178.7000;0.1392;-1.6507;
1179.0000;0.1400;-1.6507;
1179.3000;0.1416;-1.6582;
1179.6000;0.1449;-1.6632;
1179.9000;0.1465;-1.6532;
1180.2000;0.1368;-1.6908;
1180.5000;0.1392;-1.6833;
1180.8000;0.1416;-1.6758;
1181.1000;0.1392;-1.6783;
1181.4000;0.1359;-1.6783;
1181.7000;0.1400;-1.6657;
1182.0000;0.1392;-1.6632;
1182.3000;0.1400;-1.6432;
1182.6000;0.1392;-1.6381;
1182.9000;0.1392;-1.6432;
1183.2000;0.1400;-1.6482;
1183.5000;0.1392;-1.6532;
1183.8000;0.1368;-1.6632;
1184.1000;0.1376;-1.6632;
1184.4000;0.1400;-1.6607;
1184.7000;0.1425;-1.6507;
1185.0000;0.1384;-1.6632;
1185.3000;0.1400;-1.6607;
1185.6000;0.1392;-1.6607;
1185.9000;0.1408;-1.6507;
1186.2000;0.1408;-1.6582;
1186.5000;0.1408;-1.6532;
1186.8000;0.1392;-1.6557;
1187.1000;0.1376;-1.6582;
1187.4000;0.1384;-1.6632;
1187.7000;0.1343;-1.6733;
1188.0000;0.1425;-1.6406;
1188.3000;0.1400;-1.6482;
1188.6000;0.1384;-1.6632;
1188.9000;0.1392;-1.6758;
1189.2000;0.1416;-1.6607;
1189.5000;0.1416;-1.6582;
1189.8000;0.1416;-1.6582;
1190.1000;0.1408;-1.6607;
1190.4000;0.1392;-1.6582;
1190.7000;0.1400;-1.6507;
1191.0000;0.1400;-1.6482;
1191.3000;0.1416;-1.6482;
1191.6000;0.1400;-1.6507;
1191.9000;0.1416;-1.6482;
1192.2000;0.1408;-1.6582;
1192.5000;0.1400;-1.6557;
1192.8000;0.1384;-1.6582;
1193.1000;0.1449;-1.6331;
1193.4000;0.1368;-1.6682;
1193.7000;0.1400;-1.6532;
1194.0000;0.1400;-1.6582;
1194.3000;0.1392;-1.6682;
1194.6000;0.1400;-1.6632;
1194.9000;0.1408;-1.6607;
1195.2000;0.1392;-1.6657;
1195.5000;0.1384;-1.6707;
1195.8000;0.1400;-1.6707;
1196.1000;0.1416;-1.6632;
1196.4000;0.1408;-1.6582;
1196.7000;0.1408;-1.6607;
1197.0000;0.1392;-1.6557;
1197.3000;0.1400;-1.6457;
1197.6000;0.1392;-1.6406;
1197.9000;0.1408;-1.6432;
1198.2000;0.1408;-1.6381;
1198.5000;0.1400;-1.6381;
1198.8000;0.1384;-1.6482;
1199.1000;0.1408;-1.6532;
1199.4000;0.1392;-1.6557;
1199.7000;0.1416;-1.6582;
1200.0000;0.1408;-1.6557;
1200.3000;0.1392;-1.6657;
1200.6000;0.1400;-1.6682;
1200.9000;0.1514;-1.6406;
1201.2000;0.1441;-1.6682;
1201.5000;0.1400;-1.6783;
1201.8000;0.1416;-1.6733;
1202.1000;0.1425;-1.6733;
1202.4000;0.1400;-1.6758;
1202.7000;0.1392;-1.6783;
1203.0000;0.1384;-1.6783;
1203.3000;0.1392;-1.6758;
1203.6000;0.1400;-1.6682;
1203.9000;0.1384;-1.6632;
1204.2000;0.1481;-1.6356;
1204.5000;0.1384;-1.6607;
1204.8000;0.1416;-1.6532;
1205.1000;0.1376;-1.6582;
1205.4000;0.1368;-1.6557;
1205.7000;0.1465;-1.6306;
1206.0000;0.1433;-1.6406;
1206.3000;0.1408;-1.6432;
1206.6000;0.1400;-1.6457;
1206.9000;0.1400;-1.6457;
1207.2000;0.1392;-1.6406;
1207.5000;0.1376;-1.6406;
1207.8000;0.1392;-1.6356;
1208.1000;0.1384;-1.6306;
1208.4000;0.1392;-1.6406;
1208.7000;0.1400;-1.6406;
1209.0000;0.1368;-1.6532;
1209.3000;0.1335;-1.6682;
1209.6000;0.1449;-1.6306;
1209.9000;0.1392;-1.6306;
1210.2000;0.1408;-1.6281;
1210.5000;0.1376;-1.6331;
1210.8000;0.1384;-1.6331;
1211.1000;0.1392;-1.6256;
1211.4000;0.1465;-1.6030;
1211.7000;0.1384;-1.6331;
1212.0000;0.1392;-1.6356;
1212.3000;0.1425;-1.6256;
1212.6000;0.1376;-1.6406;
1212.9000;0.1400;-1.6406;
1213.2000;0.1392;-1.6532;
1213.5000;0.1376;-1.6582;
1213.8000;0.1400;-1.6532;
1214.1000;0.1473;-1.6356;
1214.4000;0.1384;-1.6532;
1214.7000;0.1408;-1.6557;
1215.0000;0.1416;-1.6432;
1215.3000;0.1400;-1.6582;
1215.6000;0.1400;-1.6557;
1215.9000;0.1400;-1.6632;
1216.2000;0.1441;-1.6532;
1216.5000;0.1408;-1.6582;
1216.8000;0.1408;-1.6632;
1217.1000;0.1359;-1.6833;
1217.4000;0.1319;-1.6933;
1217.7000;0.1400;-1.6808;
1218.0000;0.1416;-1.6707;
1218.3000;0.1384;-1.6758;
1218.6000;0.1400;-1.6682;
1218.9000;0.1384;-1.6707;
1219.2000;0.1425;-1.6607;
1219.5000;0.1400;-1.6632;
1219.8000;0.1376;-1.6582;
1220.1000;0.1400;-1.6406;
1220.4000;0.1425;-1.6406;
1220.7000;0.1416;-1.6432;
1221.0000;0.1416;-1.6482;
1221.3000;0.1400;-1.6507;
1221.6000;0.1400;-1.6582;
1221.9000;0.1408;-1.6632;
1222.2000;0.1416;-1.6582;
1222.5000;0.1416;-1.6607;
1222.8000;0.1408;-1.6582;
1223.1000;0.1392;-1.6582;
1223.4000;0.1376;-1.6657;
1223.7000;0.1392;-1.6657;
1224.0000;0.1392;-1.6657;
1224.3000;0.1416;-1.6557;
1224.6000;0.1384;-1.6582;
1224.9000;0.1400;-1.6582;
1225.2000;0.1408;-1.6582;
1225.5000;0.1384;-1.6733;
1225.8000;0.1400;-1.6682;
1226.1000;0.1392;-1.6632;
1226.4000;0.1408;-1.6657;
1226.7000;0.1384;-1.6657;
1227.0000;0.1343;-1.6808;
1227.3000;0.1359;-1.6707;
1227.6000;0.1376;-1.6758;
1227.9000;0.1368;-1.6933;
1228.2000;0.1441;-1.6707;
1228.5000;0.1384;-1.6883;
1228.8000;0.1384;-1.6833;
1229.1000;0.1408;-1.6808;
1229.4000;0.1392;-1.6783;
1229.7000;0.1400;-1.6707;
1230.0000;0.1416;-1.6682;
1230.3000;0.1416;-1.6733;
1230.6000;0.1425;-1.6657;
1230.9000;0.1441;-1.6632;
1231.2000;0.1400;-1.6657;
1231.5000;0.1408;-1.6582;
1231.8000;0.1408;-1.6582;
1232.1000;0.1351;-1.6707;
1232.4000;0.1416;-1.6457;
1232.7000;0.1400;-1.6482;
1233.0000;0.1392;-1.6582;
1233.3000;0.1400;-1.6682;
1233.6000;0.1449;-1.6482;
1233.9000;0.1392;-1.6632;
1234.2000;0.1400;-1.6607;
1234.5000;0.1376;-1.6682;
1234.8000;0.1384;-1.6632;
1235.1000;0.1368;-1.6632;
1235.4000;0.1408;-1.6582;
1235.7000;0.1441;-1.6457;
1236.0000;0.1433;-1.6381;
1236.3000;0.1400;-1.6457;
1236.6000;0.1416;-1.6406;
1236.9000;0.1408;-1.6406;
1237.2000;0.1400;-1.6507;
1237.5000;0.1408;-1.6406;
1237.8000;0.1416;-1.6331;
1238.1000;0.1392;-1.6406;
1238.4000;0.1392;-1.6482;
1238.7000;0.1392;-1.6532;
1239.0000;0.1376;-1.6607;
1239.3000;0.1408;-1.6482;
1239.6000;0.1400;-1.6532;
1239.9000;0.1400;-1.6482;
1240.2000;0.1408;-1.6482;
1240.5000;0.1408;-1.6582;
1240.8000;0.1384;-1.6657;
1241.1000;0.1457;-1.6432;
1241.4000;0.1416;-1.6557;
1241.7000;0.1416;-1.6632;
1242.0000;0.1408;-1.6632;
1242.3000;0.1433;-1.6632;
1242.6000;0.1416;-1.6632;
1242.9000;0.1433;-1.6607;
1243.2000;0.1425;-1.6607;
1243.5000;0.1408;-1.6532;
1243.8000;0.1400;-1.6507;
1244.1000;0.1400;-1.6457;
1244.4000;0.1392;-1.6432;
1244.7000;0.1400;-1.6457;
1245.0000;0.1408;-1.6457;
1245.3000;0.1384;-1.6482;
1245.6000;0.1408;-1.6457;
1245.9000;0.1408;-1.6432;
1246.2000;0.1416;-1.6356;
1246.5000;0.1376;-1.6432;
1246.8000;0.1416;-1.6306;
1247.1000;0.1392;-1.6281;
1247.4000;0.1408;-1.6256;
1247.7000;0.1384;-1.6406;
1248.0000;0.1351;-1.6557;
1248.3000;0.1408;-1.6457;
1248.6000;0.1368;-1.6482;
1248.9000;0.1392;-1.6406;
1249.2000;0.1416;-1.6432;
1249.5000;0.1506;-1.6306;
1249.8000;0.1416;-1.6482;
1250.1000;0.1384;-1.6607;
1250.4000;0.1392;-1.6632;
1250.7000;0.1408;-1.6507;
1251.0000;0.1498;-1.6156;
1251.3000;0.1433;-1.6306;
1251.6000;0.1408;-1.6432;
1251.9000;0.1400;-1.6381;
1252.2000;0.1400;-1.6381;
1252.5000;0.1433;-1.6281;
1252.8000;0.1392;-1.6406;
1253.1000;0.1408;-1.6457;
1253.4000;0.1408;-1.6457;
1253.7000;0.1490;-1.6281;
1254.0000;0.1384;-1.6557;
1254.3000;0.1408;-1.6532;
1254.6000;0.1416;-1.6557;
1254.9000;0.1392;-1.6657;
1255.2000;0.1400;-1.6582;
1255.5000;0.1416;-1.6557;
1255.8000;0.1400;-1.6582;
1256.1000;0.1400;-1.6557;
1256.4000;0.1400;-1.6557;
1256.7000;0.1400;-1.6607;
1257.0000;0.1400;-1.6632;
1257.3000;0.1400;-1.6657;
1257.6000;0.1368;-1.6733;
1257.9000;0.1457;-1.6507;
1258.2000;0.1392;-1.6657;
1258.5000;0.1376;-1.6733;
1258.8000;0.1408;-1.6607;
1259.1000;0.1400;-1.6682;
1259.4000;0.1425;-1.6632;
1259.7000;0.1408;-1.6582;
1260.0000;0.1457;-1.6331;
1260.3000;0.1392;-1.6457;
1260.6000;0.1408;-1.6381;
1260.9000;0.1416;-1.6331;
1261.2000;0.1400;-1.6331;
1261.5000;0.1384;-1.6381;
1261.8000;0.1392;-1.6406;
1262.1000;0.1416;-1.6406;
1262.4000;0.1376;-1.6507;
1262.7000;0.1384;-1.6457;
1263.0000;0.1376;-1.6632;
1263.3000;0.1400;-1.6457;
1263.6000;0.1416;-1.6507;
1263.9000;0.1457;-1.6432;
1264.2000;0.1384;-1.6632;
1264.5000;0.1416;-1.6507;
1264.8000;0.1400;-1.6507;
1265.1000;0.1408;-1.6557;
1265.4000;0.1416;-1.6532;
1265.7000;0.1400;-1.6632;
1266.0000;0.1425;-1.6582;
1266.3000;0.1416;-1.6507;
1266.6000;0.1433;-1.6507;
1266.9000;0.1408;-1.6532;
1267.2000;0.1408;-1.6482;
1267.5000;0.1416;-1.6432;
1267.8000;0.1400;-1.6482;
1268.1000;0.1449;-1.6281;
1268.4000;0.1416;-1.6432;
1268.7000;0.1408;-1.6532;
1269.0000;0.1425;-1.6507;
1269.3000;0.1343;-1.6682;
1269.6000;0.1408;-1.6482;
1269.9000;0.1392;-1.6582;
1270.2000;0.1392;-1.6582;
1270.5000;0.1392;-1.6532;
1270.8000;0.1392;-1.6557;
1271.1000;0.1416;-1.6532;
1271.4000;0.1408;-1.6607;
1271.7000;0.1392;-1.6607;
1272.0000;0.1384;-1.6632;
1272.3000;0.1392;-1.6532;
1272.6000;0.1392;-1.6532;
1272.9000;0.1368;-1.6532;
1273.2000;0.1384;-1.6482;
1273.5000;0.1400;-1.6432;
1273.8000;0.1384;-1.6482;
1274.1000;0.1392;-1.6507;
1274.4000;0.1368;-1.6532;
1274.7000;0.1400;-1.6482;
1275.0000;0.1408;-1.6457;
1275.3000;0.1400;-1.6532;
1275.6000;0.1400;-1.6733;
1275.9000;0.1425;-1.6632;
1276.2000;0.1416;-1.6532;
1276.5000;0.1465;-1.6381;
1276.8000;0.1416;-1.6457;
1277.1000;0.1400;-1.6457;
1277.4000;0.1408;-1.6532;
1277.7000;0.1408;-1.6507;
1278.0000;0.1384;-1.6532;
1278.3000;0.1400;-1.6482;
1278.6000;0.1392;-1.6507;
1278.9000;0.1457;-1.6306;
1279.2000;0.1441;-1.6406;
1279.5000;0.1408;-1.6557;
1279.8000;0.1408;-1.6532;
1280.1000;0.1384;-1.6507;
1280.4000;0.1400;-1.6457;
1280.7000;0.1376;-1.6532;
1281.0000;0.1400;-1.6432;
1281.3000;0.1400;-1.6432;
1281.6000;0.1416;-1.6406;
1281.9000;0.1384;-1.6532;
1282.2000;0.1465;-1.6231;
1282.5000;0.1408;-1.6432;
1282.8000;0.1359;-1.6482;
1283.1000;0.1327;-1.6557;
1283.4000;0.1376;-1.6532;
1283.7000;0.1351;-1.6557;
1284.0000;0.1319;-1.6707;
1284.3000;0.1400;-1.6432;
1284.6000;0.1376;-1.6432;
1284.9000;0.1400;-1.6306;
1285.2000;0.1441;-1.6281;
1285.5000;0.1490;-1.6156;
1285.8000;0.1392;-1.6381;
1286.1000;0.1408;-1.6331;
1286.4000;0.1416;-1.6331;
1286.7000;0.1384;-1.6381;
1287.0000;0.1368;-1.6557;
1287.3000;0.1368;-1.6557;
1287.6000;0.1408;-1.6532;
1287.9000;0.1384;-1.6682;
1288.2000;0.1343;-1.6783;
1288.5000;0.1408;-1.6607;
1288.8000;0.1408;-1.6457;
1289.1000;0.1433;-1.6356;
1289.4000;0.1416;-1.6432;
1289.7000;0.1400;-1.6457;
1290.0000;0.1425;-1.6432;
1290.3000;0.1408;-1.6482;
1290.6000;0.1408;-1.6457;
1290.9000;0.1416;-1.6482;
1291.2000;0.1376;-1.6682;
1291.5000;0.1408;-1.6632;
1291.8000;0.1384;-1.6682;
1292.1000;0.1400;-1.6557;
1292.4000;0.1400;-1.6457;
1292.7000;0.1392;-1.6432;
1293.0000;0.1408;-1.6432;
1293.3000;0.1359;-1.6557;
1293.6000;0.1416;-1.6482;
1293.9000;0.1392;-1.6532;
1294.2000;0.1384;-1.6607;
1294.5000;0.1392;-1.6582;
1294.8000;0.1392;-1.6607;
1295.1000;0.1392;-1.6507;
1295.4000;0.1400;-1.6557;
1295.7000;0.1416;-1.6482;
1296.0000;0.1392;-1.6432;
1296.3000;0.1368;-1.6356;
1296.6000;0.1384;-1.6381;
1296.9000;0.1376;-1.6457;
1297.2000;0.1408;-1.6331;
1297.5000;0.1400;-1.6381;
1297.8000;0.1392;-1.6482;
1298.1000;0.1400;-1.6457;
1298.4000;0.1384;-1.6507;
1298.7000;0.1400;-1.6457;
1299.0000;0.1433;-1.6457;
1299.3000;0.1400;-1.6557;
1299.6000;0.1408;-1.6532;
1299.9000;0.1408;-1.6532;
1300.2000;0.1408;-1.6457;
1300.5000;0.1384;-1.6532;
1300.8000;0.1400;-1.6432;
1301.1000;0.1400;-1.6381;
1301.4000;0.1416;-1.6356;
1301.7000;0.1408;-1.6432;
1302.0000;0.1392;-1.6432;
1302.3000;0.1416;-1.6331;
1302.6000;0.1416;-1.6331;
1302.9000;0.1449;-1.6306;
1303.2000;0.1392;-1.6457;
1303.5000;0.1335;-1.6557;
1303.8000;0.1416;-1.6256;
1304.1000;0.1408;-1.6306;
1304.4000;0.1400;-1.6331;
1304.7000;0.1384;-1.6482;
1305.0000;0.1392;-1.6406;
1305.3000;0.1392;-1.6432;
1305.6000;0.1498;-1.6156;
1305.9000;0.1294;-1.6657;
1306.2000;0.1384;-1.6406;
1306.5000;0.1425;-1.6331;
1306.8000;0.1392;-1.6457;
1307.1000;0.1392;-1.6381;
1307.4000;0.1335;-1.6507;
1307.7000;0.1416;-1.6331;
1308.0000;0.1408;-1.6256;
1308.3000;0.1392;-1.6281;
1308.6000;0.1376;-1.6281;
1308.9000;0.1368;-1.6381;
1309.2000;0.1408;-1.6331;
1309.5000;0.1400;-1.6356;
1309.8000;0.1384;-1.6457;
1310.1000;0.1400;-1.6457;
1310.4000;0.1400;-1.6507;
1310.7000;0.1449;-1.6406;
1311.0000;0.1408;-1.6432;
1311.3000;0.1408;-1.6532;
1311.6000;0.1416;-1.6457;
1311.9000;0.1400;-1.6507;
1312.2000;0.1400;-1.6507;
1312.5000;0.1392;-1.6557;
1312.8000;0.1392;-1.6582;
1313.1000;0.1408;-1.6607;
1313.4000;0.1400;-1.6733;
1313.7000;0.1392;-1.6707;
1314.0000;0.1384;-1.6758;
1314.3000;0.1400;-1.6707;
1314.6000;0.1376;-1.6733;
1314.9000;0.1408;-1.6632;
1315.2000;0.1400;-1.6557;
1315.5000;0.1408;-1.6482;
1315.8000;0.1384;-1.6557;
1316.1000;0.1392;-1.6457;
1316.4000;0.1425;-1.6432;
1316.7000;0.1400;-1.6632;
1317.0000;0.1400;-1.6632;
1317.3000;0.1400;-1.6632;
1317.6000;0.1302;-1.6783;
1317.9000;0.1400;-1.6432;
1318.2000;0.1416;-1.6356;
1318.5000;0.1408;-1.6457;
1318.8000;0.1425;-1.6457;
1319.1000;0.1408;-1.6507;
1319.4000;0.1425;-1.6532;
1319.7000;0.1384;-1.6607;
1320.0000;0.1400;-1.6582;
1320.3000;0.1400;-1.6582;
1320.6000;0.1408;-1.6507;
1320.9000;0.1400;-1.6532;
1321.2000;0.1392;-1.6582;
1321.5000;0.1416;-1.6406;
1321.8000;0.1416;-1.6457;
1322.1000;0.1384;-1.6532;
1322.4000;0.1376;-1.6582;
1322.7000;0.1400;-1.6557;
1323.0000;0.1416;-1.6432;
1323.3000;0.1441;-1.6331;
1323.6000;0.1400;-1.6482;
1323.9000;0.1408;-1.6406;
1324.2000;0.1522;-1.6105;
1324.5000;0.1376;-1.6532;
1324.8000;0.1408;-1.6482;
1325.1000;0.1400;-1.6457;
1325.4000;0.1441;-1.6256;
1325.7000;0.1376;-1.6406;
1326.0000;0.1457;-1.6281;
1326.3000;0.1433;-1.6281;
1326.6000;0.1392;-1.6406;
1326.9000;0.1368;-1.6457;
1327.2000;0.1368;-1.6507;
1327.5000;0.1376;-1.6507;
1327.8000;0.1416;-1.6432;
1328.1000;0.1416;-1.6432;
1328.4000;0.1425;-1.6356;
1328.7000;0.1400;-1.6532;
1329.0000;0.1425;-1.6557;
1329.3000;0.1400;-1.6532;
1329.6000;0.1425;-1.6557;
1329.9000;0.1408;-1.6507;
1330.2000;0.1376;-1.6657;
1330.5000;0.1392;-1.6557;
1330.8000;0.1392;-1.6607;
1331.1000;0.1392;-1.6582;
1331.4000;0.1376;-1.6682;
1331.7000;0.1433;-1.6532;
1332.0000;0.1376;-1.6682;
1332.3000;0.1384;-1.6632;
1332.6000;0.1392;-1.6657;
1332.9000;0.1392;-1.6607;
1333.2000;0.1376;-1.6682;
1333.5000;0.1408;-1.6657;
1333.8000;0.1433;-1.6607;
1334.1000;0.1400;-1.6657;
1334.4000;0.1425;-1.6582;
1334.7000;0.1449;-1.6532;
1335.0000;0.1384;-1.6657;
1335.3000;0.1400;-1.6582;
1335.6000;0.1408;-1.6607;
1335.9000;0.1425;-1.6532;
1336.2000;0.1465;-1.6406;
1336.5000;0.1400;-1.6632;
1336.8000;0.1400;-1.6682;
1337.1000;0.1425;-1.6532;
1337.4000;0.1400;-1.6582;
1337.7000;0.1416;-1.6607;
1338.0000;0.1400;-1.6682;
1338.3000;0.1392;-1.6607;
1338.6000;0.1416;-1.6632;
1338.9000;0.1408;-1.6657;
1339.2000;0.1408;-1.6707;
1339.5000;0.1416;-1.6682;
1339.8000;0.1416;-1.6607;
1340.1000;0.1433;-1.6532;
1340.4000;0.1376;-1.6682;
1340.7000;0.1392;-1.6557;
1341.0000;0.1392;-1.6557;
1341.3000;0.1425;-1.6406;
1341.6000;0.1400;-1.6356;
1341.9000;0.1408;-1.6356;
1342.2000;0.1441;-1.6256;
1342.5000;0.1416;-1.6256;
1342.8000;0.1425;-1.6181;
1343.1000;0.1400;-1.6306;
1343.4000;0.1441;-1.6281;
1343.7000;0.1416;-1.6406;
1344.0000;0.1400;-1.6457;
1344.3000;0.1351;-1.6607;
1344.6000;0.1343;-1.6607;
1344.9000;0.1392;-1.6532;
1345.2000;0.1392;-1.6507;
1345.5000;0.1384;-1.6582;
1345.8000;0.1392;-1.6557;
1346.1000;0.1400;-1.6457;
1346.4000;0.1416;-1.6281;
1346.7000;0.1400;-1.6381;
1347.0000;0.1392;-1.6457;
1347.3000;0.1392;-1.6532;
1347.6000;0.1416;-1.6482;
1347.9000;0.1416;-1.6457;
1348.2000;0.1465;-1.6406;
1348.5000;0.1416;-1.6582;
1348.8000;0.1392;-1.6607;
1349.1000;0.1408;-1.6507;
1349.4000;0.1408;-1.6482;
1349.7000;0.1400;-1.6457;
1350.0000;0.1425;-1.6356;
1350.3000;0.1408;-1.6381;
1350.6000;0.1400;-1.6356;
1350.9000;0.1416;-1.6306;
1351.2000;0.1392;-1.6406;
1351.5000;0.1392;-1.6331;
1351.8000;0.1449;-1.6206;
1352.1000;0.1376;-1.6381;
1352.4000;0.1400;-1.6281;
1352.7000;0.1359;-1.6457;
1353.0000;0.1384;-1.6432;
1353.3000;0.1408;-1.6482;
1353.6000;0.1408;-1.6406;
1353.9000;0.1400;-1.6406;
1354.2000;0.1400;-1.6532;
1354.5000;0.1392;-1.6532;
1354.8000;0.1384;-1.6532;
1355.1000;0.1416;-1.6482;
1355.4000;0.1425;-1.6507;
1355.7000;0.1408;-1.6432;
1356.0000;0.1392;-1.6432;
1356.3000;0.1425;-1.6406;
1356.6000;0.1384;-1.6557;
1356.9000;0.1416;-1.6381;
1357.2000;0.1425;-1.6331;
1357.5000;0.1425;-1.6306;
1357.8000;0.1408;-1.6306;
1358.1000;0.1408;-1.6231;
1358.4000;0.1408;-1.6331;
1358.7000;0.1400;-1.6331;
1359.0000;0.1408;-1.6356;
1359.3000;0.1376;-1.6432;
1359.6000;0.1392;-1.6482;
1359.9000;0.1400;-1.6507;
1360.2000;0.1425;-1.6331;
1360.5000;0.1376;-1.6582;
1360.8000;0.1384;-1.6557;
1361.1000;0.1392;-1.6507;
1361.4000;0.1416;-1.6432;
1361.7000;0.1433;-1.6331;
1362.0000;0.1408;-1.6432;
1362.3000;0.1425;-1.6381;
1362.6000;0.1416;-1.6381;
1362.9000;0.1425;-1.6406;
1363.2000;0.1408;-1.6507;
1363.5000;0.1384;-1.6457;
1363.8000;0.1400;-1.6406;
1364.1000;0.1425;-1.6381;
1364.4000;0.1368;-1.6406;
1364.7000;0.1392;-1.6256;
1365.0000;0.1400;-1.6331;
1365.3000;0.1359;-1.6432;
1365.6000;0.1384;-1.6356;
1365.9000;0.1392;-1.6381;
1366.2000;0.1416;-1.6256;
1366.5000;0.1416;-1.6356;
1366.8000;0.1400;-1.6381;
1367.1000;0.1384;-1.6381;
1367.4000;0.1425;-1.6306;
1367.7000;0.1351;-1.6532;
1368.0000;0.1400;-1.6432;
1368.3000;0.1433;-1.6356;
1368.6000;0.1368;-1.6406;
1368.9000;0.1473;-1.6206;
1369.2000;0.1400;-1.6306;
1369.5000;0.1392;-1.6306;
1369.8000;0.1400;-1.6356;
1370.1000;0.1400;-1.6331;
1370.4000;0.1400;-1.6331;
1370.7000;0.1400;-1.6406;
1371.0000;0.1400;-1.6406;
1371.3000;0.1384;-1.6406;
1371.6000;0.1400;-1.6281;
1371.9000;0.1408;-1.6331;
1372.2000;0.1400;-1.6306;
1372.5000;0.1400;-1.6432;
1372.8000;0.1400;-1.6432;
1373.1000;0.1408;-1.6406;
1373.4000;0.1392;-1.6457;
1373.7000;0.1408;-1.6381;
1374.0000;0.1384;-1.6356;
1374.3000;0.1408;-1.6331;
1374.6000;0.1392;-1.6406;
1374.9000;0.1408;-1.6381;
1375.2000;0.1449;-1.6331;
1375.5000;0.1400;-1.6457;
1375.8000;0.1408;-1.6331;
1376.1000;0.1408;-1.6356;
1376.4000;0.1392;-1.6306;
1376.7000;0.1408;-1.6206;
1377.0000;0.1416;-1.6181;
1377.3000;0.1400;-1.6381;
1377.6000;0.1392;-1.6507;
1377.9000;0.1408;-1.6507;
1378.2000;0.1441;-1.6331;
1378.5000;0.1416;-1.6381;
1378.8000;0.1441;-1.6231;
1379.1000;0.1416;-1.6281;
1379.4000;0.1392;-1.6331;
1379.7000;0.1408;-1.6281;
1380.0000;0.1408;-1.6256;
1380.3000;0.1408;-1.6331;
1380.6000;0.1425;-1.6306;
1380.9000;0.1416;-1.6306;
1381.2000;0.1384;-1.6381;
1381.5000;0.1408;-1.6331;
1381.8000;0.1408;-1.6356;
1382.1000;0.1400;-1.6406;
1382.4000;0.1400;-1.6406;
1382.7000;0.1416;-1.6432;
1383.0000;0.1416;-1.6482;
1383.3000;0.1408;-1.6532;
1383.6000;0.1400;-1.6507;
1383.9000;0.1400;-1.6457;
1384.2000;0.1392;-1.6507;
1384.5000;0.1433;-1.6406;
1384.8000;0.1425;-1.6381;
1385.1000;0.1457;-1.6156;
1385.4000;0.1400;-1.6381;
1385.7000;0.1392;-1.6406;
1386.0000;0.1408;-1.6356;
1386.3000;0.1351;-1.6482;
1386.6000;0.1384;-1.6432;
1386.9000;0.1392;-1.6432;
1387.2000;0.1400;-1.6356;
1387.5000;0.1416;-1.6281;
1387.8000;0.1408;-1.6331;
1388.1000;0.1490;-1.6105;
1388.4000;0.1359;-1.6356;
1388.7000;0.1384;-1.6356;
1389.0000;0.1425;-1.6231;
1389.3000;0.1400;-1.6256;
1389.6000;0.1400;-1.6181;
1389.9000;0.1425;-1.6130;
1390.2000;0.1335;-1.6457;
1390.5000;0.1408;-1.6256;
1390.8000;0.1400;-1.6356;
1391.1000;0.1376;-1.6406;
1391.4000;0.1351;-1.6432;
1391.7000;0.1400;-1.6256;
1392.0000;0.1408;-1.6206;
1392.3000;0.1400;-1.6306;
1392.6000;0.1449;-1.6130;
1392.9000;0.1400;-1.6231;
1393.2000;0.1392;-1.6256;
1393.5000;0.1408;-1.6130;
1393.8000;0.1425;-1.6005;
1394.1000;0.1433;-1.5980;
1394.4000;0.1368;-1.6206;
1394.7000;0.1400;-1.6181;
1395.0000;0.1384;-1.6231;
1395.3000;0.1400;-1.6281;
1395.6000;0.1376;-1.6381;
1395.9000;0.1392;-1.6356;
1396.2000;0.1392;-1.6306;
1396.5000;0.1376;-1.6457;
1396.8000;0.1392;-1.6457;
1397.1000;0.1400;-1.6482;
1397.4000;0.1408;-1.6507;
1397.7000;0.1376;-1.6482;
1398.0000;0.1400;-1.6406;
1398.3000;0.1400;-1.6482;
1398.6000;0.1376;-1.6507;
1398.9000;0.1465;-1.6256;
1399.2000;0.1425;-1.6381;
1399.5000;0.1416;-1.6432;
1399.8000;0.1392;-1.6532;
