time/ms;Fluo/V;P700 deltaI/I x10³;
-199.8000;0.1522;-1.7410;
-199.5000;0.1481;-1.7460;
-199.2000;0.1498;-1.7460;
-198.9000;0.1522;-1.7385;
-198.6000;0.1514;-1.7259;
-198.3000;0.1490;-1.7284;
-198.0000;0.1522;-1.7209;
-197.7000;0.1498;-1.7159;
-197.4000;0.1547;-1.7008;
-197.1000;0.1514;-1.7159;
-196.8000;0.1490;-1.7234;
-196.5000;0.1530;-1.7159;
-196.2000;0.1522;-1.7084;
-195.9000;0.1563;-1.6983;
-195.6000;0.1514;-1.7184;
-195.3000;0.1530;-1.7134;
-195.0000;0.1522;-1.7134;
-194.7000;0.1498;-1.7134;
-194.4000;0.1506;-1.7059;
-194.1000;0.1498;-1.7159;
-193.8000;0.1563;-1.7008;
-193.5000;0.1514;-1.7159;
-193.2000;0.1563;-1.7034;
-192.9000;0.1498;-1.7360;
-192.6000;0.1514;-1.7284;
-192.3000;0.1498;-1.7284;
-192.0000;0.1498;-1.7385;
-191.7000;0.1506;-1.7410;
-191.4000;0.1522;-1.7234;
-191.1000;0.1514;-1.7134;
-190.8000;0.1465;-1.7335;
-190.5000;0.1514;-1.7234;
-190.2000;0.1498;-1.7284;
-189.9000;0.1506;-1.7259;
-189.6000;0.1571;-1.7134;
-189.3000;0.1514;-1.7360;
-189.0000;0.1498;-1.7310;
-188.7000;0.1571;-1.7109;
-188.4000;0.1506;-1.7234;
-188.1000;0.1506;-1.7234;
-187.8000;0.1498;-1.7159;
-187.5000;0.1522;-1.7109;
-187.2000;0.1555;-1.6933;
-186.9000;0.1498;-1.6983;
-186.6000;0.1498;-1.7008;
-186.3000;0.1595;-1.6758;
-186.0000;0.1498;-1.7059;
-185.7000;0.1514;-1.7059;
-185.4000;0.1506;-1.7008;
-185.1000;0.1571;-1.6983;
-184.8000;0.1620;-1.6858;
-184.5000;0.1538;-1.7184;
-184.2000;0.1465;-1.7310;
-183.9000;0.1522;-1.7184;
-183.6000;0.1587;-1.7034;
-183.3000;0.1522;-1.7310;
-183.0000;0.1506;-1.7335;
-182.7000;0.1571;-1.7109;
-182.4000;0.1473;-1.7310;
-182.1000;0.1530;-1.7184;
-181.8000;0.1498;-1.7259;
-181.5000;0.1595;-1.7008;
-181.2000;0.1530;-1.7209;
-180.9000;0.1514;-1.7159;
-180.6000;0.1514;-1.7134;
-180.3000;0.1530;-1.7109;
-180.0000;0.1530;-1.7134;
-179.7000;0.1400;-1.7460;
-179.4000;0.1449;-1.7385;
-179.1000;0.1522;-1.7159;
-178.8000;0.1498;-1.7284;
-178.5000;0.1522;-1.7284;
-178.2000;0.1506;-1.7259;
-177.9000;0.1490;-1.7284;
-177.6000;0.1514;-1.7360;
-177.3000;0.1449;-1.7560;
-177.0000;0.1514;-1.7460;
-176.7000;0.1506;-1.7385;
-176.4000;0.1465;-1.7485;
-176.1000;0.1457;-1.7611;
-175.8000;0.1433;-1.7661;
-175.5000;0.1538;-1.7360;
-175.2000;0.1498;-1.7510;
-174.9000;0.1457;-1.7560;
-174.6000;0.1514;-1.7310;
-174.3000;0.1514;-1.7360;
-174.0000;0.1506;-1.7385;
-173.7000;0.1481;-1.7385;
-173.4000;0.1506;-1.7284;
-173.1000;0.1498;-1.7259;
-172.8000;0.1490;-1.7284;
-172.5000;0.1481;-1.7360;
-172.2000;0.1506;-1.7284;
-171.9000;0.1498;-1.7360;
-171.6000;0.1490;-1.7360;
-171.3000;0.1563;-1.7184;
-171.0000;0.1522;-1.7259;
-170.7000;0.1538;-1.7209;
-170.4000;0.1522;-1.7234;
-170.1000;0.1449;-1.7410;
-169.8000;0.1547;-1.7209;
-169.5000;0.1498;-1.7410;
-169.2000;0.1473;-1.7410;
-168.9000;0.1506;-1.7284;
-168.6000;0.1498;-1.7259;
-168.3000;0.1538;-1.7184;
-168.0000;0.1514;-1.7234;
-167.7000;0.1522;-1.7259;
-167.4000;0.1514;-1.7284;
-167.1000;0.1506;-1.7284;
-166.8000;0.1457;-1.7410;
-166.5000;0.1514;-1.7385;
-166.2000;0.1514;-1.7385;
-165.9000;0.1465;-1.7460;
-165.6000;0.1473;-1.7510;
-165.3000;0.1530;-1.7310;
-165.0000;0.1506;-1.7259;
-164.7000;0.1425;-1.7510;
-164.4000;0.1530;-1.7209;
-164.1000;0.1506;-1.7209;
-163.8000;0.1522;-1.7084;
-163.5000;0.1400;-1.7410;
-163.2000;0.1498;-1.7159;
-162.9000;0.1498;-1.7209;
-162.6000;0.1481;-1.7209;
-162.3000;0.1498;-1.7134;
-162.0000;0.1449;-1.7234;
-161.7000;0.1506;-1.7084;
-161.4000;0.1514;-1.7159;
-161.1000;0.1514;-1.7209;
-160.8000;0.1522;-1.7259;
-160.5000;0.1538;-1.7335;
-160.2000;0.1441;-1.7535;
-159.9000;0.1506;-1.7360;
-159.6000;0.1465;-1.7360;
-159.3000;0.1498;-1.7310;
-159.0000;0.1498;-1.7385;
-158.7000;0.1416;-1.7585;
-158.4000;0.1522;-1.7385;
-158.1000;0.1571;-1.7360;
-157.8000;0.1506;-1.7535;
-157.5000;0.1506;-1.7485;
-157.2000;0.1490;-1.7535;
-156.9000;0.1514;-1.7485;
-156.6000;0.1514;-1.7485;
-156.3000;0.1481;-1.7510;
-156.0000;0.1522;-1.7460;
-155.7000;0.1514;-1.7560;
-155.4000;0.1547;-1.7460;
-155.1000;0.1514;-1.7460;
-154.8000;0.1506;-1.7535;
-154.5000;0.1408;-1.7836;
-154.2000;0.1522;-1.7485;
-153.9000;0.1433;-1.7736;
-153.6000;0.1481;-1.7585;
-153.3000;0.1530;-1.7385;
-153.0000;0.1449;-1.7485;
-152.7000;0.1498;-1.7385;
-152.4000;0.1514;-1.7435;
-152.1000;0.1555;-1.7335;
-151.8000;0.1490;-1.7485;
-151.5000;0.1547;-1.7310;
-151.2000;0.1538;-1.7284;
-150.9000;0.1490;-1.7410;
-150.6000;0.1506;-1.7310;
-150.3000;0.1538;-1.7159;
-150.0000;0.1514;-1.7134;
-149.7000;0.1506;-1.7159;
-149.4000;0.1490;-1.7184;
-149.1000;0.1530;-1.7159;
-148.8000;0.1563;-1.7084;
-148.5000;0.1530;-1.7134;
-148.2000;0.1457;-1.7259;
-147.9000;0.1481;-1.7184;
-147.6000;0.1465;-1.7259;
-147.3000;0.1514;-1.7159;
-147.0000;0.1498;-1.7234;
-146.7000;0.1514;-1.7159;
-146.4000;0.1498;-1.7234;
-146.1000;0.1481;-1.7284;
-145.8000;0.1538;-1.7159;
-145.5000;0.1530;-1.7109;
-145.2000;0.1514;-1.7109;
-144.9000;0.1506;-1.7059;
-144.6000;0.1498;-1.7034;
-144.3000;0.1506;-1.6983;
-144.0000;0.1547;-1.6933;
-143.7000;0.1441;-1.7209;
-143.4000;0.1481;-1.7059;
-143.1000;0.1490;-1.6983;
-142.8000;0.1498;-1.7034;
-142.5000;0.1514;-1.7059;
-142.2000;0.1490;-1.7159;
-141.9000;0.1498;-1.7159;
-141.6000;0.1498;-1.7109;
-141.3000;0.1522;-1.7059;
-141.0000;0.1490;-1.7134;
-140.7000;0.1506;-1.7008;
-140.4000;0.1514;-1.7008;
-140.1000;0.1522;-1.7084;
-139.8000;0.1522;-1.7084;
-139.5000;0.1498;-1.7159;
-139.2000;0.1506;-1.7184;
-138.9000;0.1481;-1.7209;
-138.6000;0.1473;-1.7234;
-138.3000;0.1522;-1.7109;
-138.0000;0.1506;-1.7184;
-137.7000;0.1514;-1.7234;
-137.4000;0.1522;-1.7134;
-137.1000;0.1498;-1.7335;
-136.8000;0.1490;-1.7410;
-136.5000;0.1506;-1.7310;
-136.2000;0.1514;-1.7284;
-135.9000;0.1506;-1.7310;
-135.6000;0.1612;-1.7034;
-135.3000;0.1498;-1.7385;
-135.0000;0.1473;-1.7485;
-134.7000;0.1514;-1.7460;
-134.4000;0.1522;-1.7460;
-134.1000;0.1498;-1.7435;
-133.8000;0.1514;-1.7460;
-133.5000;0.1481;-1.7485;
-133.2000;0.1506;-1.7410;
-132.9000;0.1514;-1.7410;
-132.6000;0.1636;-1.7008;
-132.3000;0.1530;-1.7284;
-132.0000;0.1514;-1.7259;
-131.7000;0.1522;-1.7360;
-131.4000;0.1498;-1.7435;
-131.1000;0.1571;-1.7259;
-130.8000;0.1522;-1.7410;
-130.5000;0.1522;-1.7360;
-130.2000;0.1514;-1.7360;
-129.9000;0.1522;-1.7234;
-129.6000;0.1441;-1.7485;
-129.3000;0.1514;-1.7234;
-129.0000;0.1506;-1.7234;
-128.7000;0.1473;-1.7310;
-128.4000;0.1449;-1.7360;
-128.1000;0.1490;-1.7209;
-127.8000;0.1498;-1.7209;
-127.5000;0.1547;-1.7134;
-127.2000;0.1514;-1.7109;
-126.9000;0.1522;-1.7084;
-126.6000;0.1547;-1.6983;
-126.3000;0.1514;-1.6933;
-126.0000;0.1506;-1.7008;
-125.7000;0.1506;-1.7059;
-125.4000;0.1498;-1.7059;
-125.1000;0.1490;-1.7059;
-124.8000;0.1457;-1.7109;
-124.5000;0.1514;-1.7059;
-124.2000;0.1514;-1.6983;
-123.9000;0.1506;-1.7059;
-123.6000;0.1490;-1.7310;
-123.3000;0.1514;-1.7335;
-123.0000;0.1506;-1.7410;
-122.7000;0.1481;-1.7435;
-122.4000;0.1506;-1.7310;
-122.1000;0.1506;-1.7335;
-121.8000;0.1490;-1.7360;
-121.5000;0.1514;-1.7284;
-121.2000;0.1522;-1.7310;
-120.9000;0.1490;-1.7360;
-120.6000;0.1506;-1.7410;
-120.3000;0.1522;-1.7435;
-120.0000;0.1506;-1.7460;
-119.7000;0.1506;-1.7435;
-119.4000;0.1514;-1.7410;
-119.1000;0.1490;-1.7510;
-118.8000;0.1522;-1.7360;
-118.5000;0.1498;-1.7385;
-118.2000;0.1506;-1.7410;
-117.9000;0.1481;-1.7385;
-117.6000;0.1506;-1.7259;
-117.3000;0.1498;-1.7284;
-117.0000;0.1490;-1.7335;
-116.7000;0.1506;-1.7385;
-116.4000;0.1498;-1.7335;
-116.1000;0.1506;-1.7335;
-115.8000;0.1506;-1.7284;
-115.5000;0.1490;-1.7184;
-115.2000;0.1481;-1.7184;
-114.9000;0.1506;-1.7034;
-114.6000;0.1506;-1.7008;
-114.3000;0.1506;-1.6933;
-114.0000;0.1506;-1.6908;
-113.7000;0.1481;-1.7008;
-113.4000;0.1538;-1.6883;
-113.1000;0.1514;-1.6883;
-112.8000;0.1498;-1.6983;
-112.5000;0.1481;-1.7109;
-112.2000;0.1481;-1.7084;
-111.9000;0.1498;-1.7134;
-111.6000;0.1547;-1.7134;
-111.3000;0.1498;-1.7159;
-111.0000;0.1563;-1.7034;
-110.7000;0.1481;-1.7234;
-110.4000;0.1465;-1.7310;
-110.1000;0.1514;-1.7184;
-109.8000;0.1498;-1.7234;
-109.5000;0.1473;-1.7284;
-109.2000;0.1400;-1.7460;
-108.9000;0.1473;-1.7360;
-108.6000;0.1490;-1.7360;
-108.3000;0.1465;-1.7385;
-108.0000;0.1522;-1.7360;
-107.7000;0.1514;-1.7485;
-107.4000;0.1506;-1.7510;
-107.1000;0.1506;-1.7535;
-106.8000;0.1498;-1.7485;
-106.5000;0.1514;-1.7410;
-106.2000;0.1522;-1.7284;
-105.9000;0.1506;-1.7360;
-105.6000;0.1506;-1.7335;
-105.3000;0.1530;-1.7234;
-105.0000;0.1506;-1.7209;
-104.7000;0.1506;-1.7209;
-104.4000;0.1506;-1.7259;
-104.1000;0.1490;-1.7234;
-103.8000;0.1514;-1.7184;
-103.5000;0.1506;-1.7209;
-103.2000;0.1498;-1.7234;
-102.9000;0.1506;-1.7234;
-102.6000;0.1481;-1.7259;
-102.3000;0.1522;-1.7134;
-102.0000;0.1506;-1.7259;
-101.7000;0.1522;-1.7259;
-101.4000;0.1555;-1.7184;
-101.1000;0.1522;-1.7159;
-100.8000;0.1522;-1.7159;
-100.5000;0.1514;-1.7184;
-100.2000;0.1530;-1.7184;
-99.9000;0.1506;-1.7234;
-99.6000;0.1481;-1.7310;
-99.3000;0.1522;-1.7234;
-99.0000;0.1506;-1.7259;
-98.7000;0.1498;-1.7335;
-98.4000;0.1522;-1.7335;
-98.1000;0.1506;-1.7385;
-97.8000;0.1514;-1.7335;
-97.5000;0.1481;-1.7310;
-97.2000;0.1514;-1.7209;
-96.9000;0.1490;-1.7234;
-96.6000;0.1506;-1.7184;
-96.3000;0.1514;-1.7184;
-96.0000;0.1514;-1.7284;
-95.7000;0.1481;-1.7360;
-95.4000;0.1522;-1.7159;
-95.1000;0.1514;-1.7134;
-94.8000;0.1514;-1.7209;
-94.5000;0.1498;-1.7184;
-94.2000;0.1514;-1.7184;
-93.9000;0.1498;-1.7234;
-93.6000;0.1498;-1.7284;
-93.3000;0.1530;-1.7234;
-93.0000;0.1514;-1.7234;
-92.7000;0.1490;-1.7310;
-92.4000;0.1498;-1.7360;
-92.1000;0.1473;-1.7360;
-91.8000;0.1514;-1.7209;
-91.5000;0.1530;-1.7184;
-91.2000;0.1530;-1.7059;
-90.9000;0.1530;-1.7059;
-90.6000;0.1506;-1.7209;
-90.3000;0.1506;-1.7209;
-90.0000;0.1490;-1.7360;
-89.7000;0.1522;-1.7234;
-89.4000;0.1498;-1.7209;
-89.1000;0.1465;-1.7234;
-88.8000;0.1514;-1.7084;
-88.5000;0.1530;-1.7034;
-88.2000;0.1481;-1.7184;
-87.9000;0.1473;-1.7109;
-87.6000;0.1506;-1.7059;
-87.3000;0.1465;-1.7134;
-87.0000;0.1498;-1.7134;
-86.7000;0.1481;-1.7134;
-86.4000;0.1514;-1.7084;
-86.1000;0.1449;-1.7385;
-85.8000;0.1522;-1.7184;
-85.5000;0.1506;-1.7259;
-85.2000;0.1514;-1.7234;
-84.9000;0.1498;-1.7310;
-84.6000;0.1498;-1.7284;
-84.3000;0.1522;-1.7159;
-84.0000;0.1514;-1.7259;
-83.7000;0.1490;-1.7310;
-83.4000;0.1514;-1.7310;
-83.1000;0.1473;-1.7360;
-82.8000;0.1530;-1.7259;
-82.5000;0.1498;-1.7310;
-82.2000;0.1571;-1.7184;
-81.9000;0.1514;-1.7335;
-81.6000;0.1506;-1.7335;
-81.3000;0.1481;-1.7385;
-81.0000;0.1506;-1.7385;
-80.7000;0.1522;-1.7335;
-80.4000;0.1490;-1.7360;
-80.1000;0.1506;-1.7335;
-79.8000;0.1514;-1.7310;
-79.5000;0.1522;-1.7385;
-79.2000;0.1506;-1.7460;
-78.9000;0.1498;-1.7485;
-78.6000;0.1498;-1.7360;
-78.3000;0.1465;-1.7410;
-78.0000;0.1522;-1.7234;
-77.7000;0.1514;-1.7209;
-77.4000;0.1449;-1.7335;
-77.1000;0.1514;-1.7134;
-76.8000;0.1514;-1.7034;
-76.5000;0.1498;-1.7109;
-76.2000;0.1506;-1.7059;
-75.9000;0.1457;-1.7209;
-75.6000;0.1498;-1.7134;
-75.3000;0.1522;-1.7109;
-75.0000;0.1514;-1.7209;
-74.7000;0.1514;-1.7259;
-74.4000;0.1514;-1.7159;
-74.1000;0.1449;-1.7360;
-73.8000;0.1514;-1.7159;
-73.5000;0.1498;-1.7109;
-73.2000;0.1498;-1.7084;
-72.9000;0.1522;-1.7109;
-72.6000;0.1498;-1.7284;
-72.3000;0.1506;-1.7335;
-72.0000;0.1498;-1.7310;
-71.7000;0.1514;-1.7259;
-71.4000;0.1506;-1.7109;
-71.1000;0.1514;-1.7059;
-70.8000;0.1441;-1.7134;
-70.5000;0.1506;-1.6908;
-70.2000;0.1506;-1.6958;
-69.9000;0.1490;-1.7034;
-69.6000;0.1506;-1.7059;
-69.3000;0.1522;-1.7008;
-69.0000;0.1481;-1.7134;
-68.7000;0.1490;-1.7184;
-68.4000;0.1481;-1.7310;
-68.1000;0.1514;-1.7234;
-67.8000;0.1514;-1.7209;
-67.5000;0.1514;-1.7234;
-67.2000;0.1498;-1.7159;
-66.9000;0.1490;-1.7134;
-66.6000;0.1522;-1.7084;
-66.3000;0.1490;-1.7109;
-66.0000;0.1506;-1.7034;
-65.7000;0.1498;-1.7008;
-65.4000;0.1498;-1.7059;
-65.1000;0.1514;-1.7034;
-64.8000;0.1514;-1.7059;
-64.5000;0.1498;-1.7059;
-64.2000;0.1514;-1.7034;
-63.9000;0.1506;-1.7109;
-63.6000;0.1465;-1.7209;
-63.3000;0.1457;-1.7234;
-63.0000;0.1506;-1.7209;
-62.7000;0.1481;-1.7284;
-62.4000;0.1514;-1.7284;
-62.1000;0.1498;-1.7410;
-61.8000;0.1547;-1.7360;
-61.5000;0.1538;-1.7360;
-61.2000;0.1514;-1.7385;
-60.9000;0.1498;-1.7360;
-60.6000;0.1498;-1.7335;
-60.3000;0.1457;-1.7435;
-60.0000;0.1506;-1.7335;
-59.7000;0.1498;-1.7435;
-59.4000;0.1514;-1.7360;
-59.1000;0.1530;-1.7284;
-58.8000;0.1506;-1.7335;
-58.5000;0.1490;-1.7335;
-58.2000;0.1473;-1.7410;
-57.9000;0.1506;-1.7485;
-57.6000;0.1498;-1.7460;
-57.3000;0.1449;-1.7510;
-57.0000;0.1498;-1.7410;
-56.7000;0.1506;-1.7335;
-56.4000;0.1506;-1.7209;
-56.1000;0.1490;-1.7159;
-55.8000;0.1514;-1.7059;
-55.5000;0.1473;-1.7159;
-55.2000;0.1538;-1.7084;
-54.9000;0.1481;-1.7209;
-54.6000;0.1506;-1.7234;
-54.3000;0.1522;-1.7209;
-54.0000;0.1522;-1.7209;
-53.7000;0.1506;-1.7259;
-53.4000;0.1506;-1.7209;
-53.1000;0.1506;-1.7234;
-52.8000;0.1498;-1.7284;
-52.5000;0.1522;-1.7284;
-52.2000;0.1498;-1.7259;
-51.9000;0.1579;-1.7084;
-51.6000;0.1522;-1.7234;
-51.3000;0.1522;-1.7209;
-51.0000;0.1522;-1.7209;
-50.7000;0.1498;-1.7234;
-50.4000;0.1490;-1.7259;
-50.1000;0.1522;-1.7159;
-49.8000;0.1530;-1.7109;
-49.5000;0.1514;-1.7184;
-49.2000;0.1506;-1.7134;
-48.9000;0.1522;-1.7109;
-48.6000;0.1514;-1.7034;
-48.3000;0.1498;-1.7109;
-48.0000;0.1490;-1.7159;
-47.7000;0.1506;-1.7059;
-47.4000;0.1506;-1.6983;
-47.1000;0.1481;-1.6958;
-46.8000;0.1555;-1.6833;
-46.5000;0.1612;-1.6607;
-46.2000;0.1506;-1.6933;
-45.9000;0.1514;-1.6908;
-45.6000;0.1506;-1.6908;
-45.3000;0.1498;-1.6983;
-45.0000;0.1522;-1.6983;
-44.7000;0.1538;-1.6983;
-44.4000;0.1530;-1.6958;
-44.1000;0.1514;-1.7034;
-43.8000;0.1530;-1.6958;
-43.5000;0.1522;-1.7034;
-43.2000;0.1514;-1.7084;
-42.9000;0.1522;-1.7059;
-42.6000;0.1514;-1.7008;
-42.3000;0.1514;-1.7059;
-42.0000;0.1449;-1.7209;
-41.7000;0.1506;-1.7059;
-41.4000;0.1490;-1.7084;
-41.1000;0.1481;-1.7034;
-40.8000;0.1498;-1.6983;
-40.5000;0.1498;-1.7084;
-40.2000;0.1490;-1.7109;
-39.9000;0.1506;-1.7059;
-39.6000;0.1514;-1.6983;
-39.3000;0.1514;-1.7109;
-39.0000;0.1514;-1.7209;
-38.7000;0.1506;-1.7209;
-38.4000;0.1522;-1.7084;
-38.1000;0.1506;-1.7109;
-37.8000;0.1547;-1.7059;
-37.5000;0.1481;-1.7134;
-37.2000;0.1514;-1.7084;
-36.9000;0.1636;-1.6833;
-36.6000;0.1498;-1.7159;
-36.3000;0.1514;-1.7084;
-36.0000;0.1506;-1.7084;
-35.7000;0.1530;-1.7034;
-35.4000;0.1522;-1.7059;
-35.1000;0.1506;-1.7059;
-34.8000;0.1522;-1.7034;
-34.5000;0.1538;-1.7084;
-34.2000;0.1498;-1.7134;
-33.9000;0.1522;-1.7084;
-33.6000;0.1514;-1.7084;
-33.3000;0.1498;-1.7184;
-33.0000;0.1498;-1.7184;
-32.7000;0.1522;-1.7084;
-32.4000;0.1522;-1.7084;
-32.1000;0.1506;-1.7184;
-31.8000;0.1506;-1.7159;
-31.5000;0.1490;-1.7234;
-31.2000;0.1506;-1.7234;
-30.9000;0.1530;-1.7184;
-30.6000;0.1530;-1.7209;
-30.3000;0.1449;-1.7435;
-30.0000;0.1498;-1.7360;
-29.7000;0.1506;-1.7284;
-29.4000;0.1506;-1.7284;
-29.1000;0.1490;-1.7335;
-28.8000;0.1481;-1.7335;
-28.5000;0.1522;-1.7234;
-28.2000;0.1498;-1.7360;
-27.9000;0.1498;-1.7360;
-27.6000;0.1498;-1.7435;
-27.3000;0.1506;-1.7460;
-27.0000;0.1506;-1.7435;
-26.7000;0.1547;-1.7385;
-26.4000;0.1522;-1.7335;
-26.1000;0.1514;-1.7335;
-25.8000;0.1506;-1.7360;
-25.5000;0.1514;-1.7410;
-25.2000;0.1498;-1.7310;
-24.9000;0.1514;-1.7259;
-24.6000;0.1506;-1.7184;
-24.3000;0.1490;-1.7234;
-24.0000;0.1490;-1.7234;
-23.7000;0.1506;-1.7134;
-23.4000;0.1522;-1.7109;
-23.1000;0.1498;-1.7209;
-22.8000;0.1490;-1.7284;
-22.5000;0.1490;-1.7209;
-22.2000;0.1498;-1.7184;
-21.9000;0.1498;-1.7109;
-21.6000;0.1498;-1.7084;
-21.3000;0.1522;-1.7059;
-21.0000;0.1498;-1.7084;
-20.7000;0.1522;-1.7159;
-20.4000;0.1506;-1.7184;
-20.1000;0.1522;-1.7134;
-19.8000;0.1457;-1.7209;
-19.5000;0.1530;-1.7034;
-19.2000;0.1514;-1.7059;
-18.9000;0.1522;-1.7059;
-18.6000;0.1522;-1.6983;
-18.3000;0.1563;-1.6958;
-18.0000;0.1530;-1.7059;
-17.7000;0.1498;-1.7084;
-17.4000;0.1514;-1.7134;
-17.1000;0.1441;-1.7310;
-16.8000;0.1538;-1.7109;
-16.5000;0.1416;-1.7510;
-16.2000;0.1433;-1.7360;
-15.9000;0.1514;-1.7134;
-15.6000;0.1506;-1.7159;
-15.3000;0.1555;-1.7059;
-15.0000;0.1579;-1.7034;
-14.7000;0.1514;-1.7184;
-14.4000;0.1498;-1.7134;
-14.1000;0.1506;-1.7134;
-13.8000;0.1514;-1.7034;
-13.5000;0.1384;-1.7209;
-13.2000;0.1506;-1.6958;
-12.9000;0.1522;-1.6983;
-12.6000;0.1522;-1.7008;
-12.3000;0.1530;-1.6983;
-12.0000;0.1514;-1.7008;
-11.7000;0.1522;-1.7034;
-11.4000;0.1498;-1.7134;
-11.1000;0.1490;-1.7059;
-10.8000;0.1571;-1.6958;
-10.5000;0.1522;-1.7034;
-10.2000;0.1514;-1.7134;
-9.9000;0.1506;-1.7159;
-9.6000;0.1490;-1.7084;
-9.3000;0.1514;-1.7134;
-9.0000;0.1506;-1.7259;
-8.7000;0.1498;-1.7284;
-8.4000;0.1465;-1.7360;
-8.1000;0.1481;-1.7360;
-7.8000;0.1514;-1.7284;
-7.5000;0.1522;-1.7209;
-7.2000;0.1522;-1.7084;
-6.9000;0.1514;-1.7084;
-6.6000;0.1514;-1.7059;
-6.3000;0.1498;-1.7134;
-6.0000;0.1490;-1.7184;
-5.7000;0.1473;-1.7159;
-5.4000;0.1506;-1.7084;
-5.1000;0.1506;-1.7159;
-4.8000;0.1498;-1.7134;
-4.5000;0.1547;-1.7034;
-4.2000;0.1498;-1.7234;
-3.9000;0.1481;-1.7234;
-3.6000;0.1481;-1.7234;
-3.3000;0.1506;-1.7259;
-3.0000;0.1498;-1.7310;
-2.7000;0.1522;-1.7385;
-2.4000;0.1449;-1.7711;
-2.1000;0.1506;-1.7435;
-1.8000;0.1530;-1.7385;
-1.5000;0.1514;-1.7335;
-1.2000;0.1498;-1.7360;
-0.9000;0.1514;-1.7259;
-0.6000;0.1522;-1.7335;
-0.3000;0.1538;-1.7310;
0.0000;0.1538;-1.7310;
0.3000;0.1612;-1.7034;
0.6000;0.1514;-1.7134;
0.9000;0.1555;-1.6707;
1.2000;0.1563;-1.6432;
1.5000;0.1547;-1.6206;
1.8000;0.1612;-1.5779;
2.1000;0.1620;-1.5503;
2.4000;0.1685;-1.5152;
2.7000;0.1636;-1.5077;
3.0000;0.1669;-1.4901;
3.3000;0.1669;-1.4751;
3.6000;0.1644;-1.4675;
3.9000;0.1693;-1.4525;
4.2000;0.1652;-1.4525;
4.5000;0.1701;-1.4349;
4.8000;0.1677;-1.4324;
5.1000;0.1709;-1.4124;
5.4000;0.1734;-1.3973;
5.7000;0.1718;-1.4023;
6.0000;0.1709;-1.4124;
6.3000;0.1685;-1.4174;
6.6000;0.1734;-1.4048;
6.9000;0.1709;-1.4124;
7.2000;0.1709;-1.4174;
7.5000;0.1709;-1.4048;
7.8000;0.1775;-1.3898;
8.1000;0.1709;-1.4098;
8.4000;0.1718;-1.4124;
8.7000;0.1701;-1.4249;
9.0000;0.1734;-1.4149;
9.3000;0.1718;-1.4149;
9.6000;0.1709;-1.4174;
9.9000;0.1709;-1.4149;
10.2000;0.1709;-1.4149;
10.5000;0.1612;-1.4374;
10.8000;0.1718;-1.4098;
11.1000;0.1693;-1.4124;
11.4000;0.1693;-1.4098;
11.7000;0.1669;-1.4098;
12.0000;0.1693;-1.4098;
12.3000;0.1709;-1.4073;
12.6000;0.1709;-1.4073;
12.9000;0.1693;-1.4174;
13.2000;0.1701;-1.4149;
13.5000;0.1718;-1.4149;
13.8000;0.1693;-1.4199;
14.1000;0.1709;-1.4199;
14.4000;0.1726;-1.4249;
14.7000;0.1693;-1.4224;
15.0000;0.1718;-1.4098;
15.3000;0.1718;-1.4124;
15.6000;0.1669;-1.4249;
15.9000;0.1709;-1.4174;
16.2000;0.1669;-1.4174;
16.5000;0.1701;-1.4199;
16.8000;0.1709;-1.4174;
17.1000;0.1709;-1.4149;
17.4000;0.1726;-1.4073;
17.7000;0.1718;-1.4124;
18.0000;0.1701;-1.4124;
18.3000;0.1693;-1.4048;
18.6000;0.1693;-1.4048;
18.9000;0.1701;-1.4098;
19.2000;0.1718;-1.3998;
19.5000;0.1718;-1.4073;
19.8000;0.1734;-1.4048;
20.1000;0.1685;-1.4199;
20.4000;0.1750;-1.4098;
20.7000;0.1718;-1.4174;
21.0000;0.1709;-1.4274;
21.3000;0.1742;-1.4224;
21.6000;0.1701;-1.4274;
21.9000;0.1685;-1.4349;
22.2000;0.1701;-1.4274;
22.5000;0.1726;-1.4174;
22.8000;0.1726;-1.4149;
23.1000;0.1701;-1.4149;
23.4000;0.1701;-1.4174;
23.7000;0.1709;-1.4199;
24.0000;0.1669;-1.4274;
24.3000;0.1718;-1.4098;
24.6000;0.1734;-1.4149;
24.9000;0.1701;-1.4174;
25.2000;0.1734;-1.3998;
25.5000;0.1726;-1.3973;
25.8000;0.1693;-1.4023;
26.1000;0.1709;-1.4048;
26.4000;0.1832;-1.3772;
26.7000;0.1718;-1.4048;
27.0000;0.1701;-1.4098;
27.3000;0.1734;-1.4048;
27.6000;0.1726;-1.4098;
27.9000;0.1734;-1.4199;
28.2000;0.1693;-1.4249;
28.5000;0.1823;-1.3973;
28.8000;0.1742;-1.4224;
29.1000;0.1718;-1.4199;
29.4000;0.1718;-1.4098;
29.7000;0.1669;-1.4224;
30.0000;0.1718;-1.4048;
30.3000;0.1726;-1.4048;
30.6000;0.1718;-1.3998;
30.9000;0.1726;-1.4048;
31.2000;0.1709;-1.4149;
31.5000;0.1718;-1.4174;
31.8000;0.1685;-1.4249;
32.1000;0.1734;-1.4048;
32.4000;0.1726;-1.4073;
32.7000;0.1612;-1.4425;
33.0000;0.1701;-1.4149;
33.3000;0.1693;-1.4149;
33.6000;0.1677;-1.4174;
33.9000;0.1701;-1.4023;
34.2000;0.1734;-1.3948;
34.5000;0.1734;-1.3998;
34.8000;0.1742;-1.3973;
35.1000;0.1701;-1.4048;
35.4000;0.1718;-1.4048;
35.7000;0.1709;-1.4023;
36.0000;0.1718;-1.4048;
36.3000;0.1742;-1.3998;
36.6000;0.1726;-1.3873;
36.9000;0.1644;-1.4098;
37.2000;0.1701;-1.3948;
37.5000;0.1726;-1.3873;
37.8000;0.1718;-1.3898;
38.1000;0.1726;-1.3873;
38.4000;0.1709;-1.3898;
38.7000;0.1750;-1.3797;
39.0000;0.1726;-1.3948;
39.3000;0.1693;-1.3998;
39.6000;0.1709;-1.3973;
39.9000;0.1726;-1.3998;
40.2000;0.1823;-1.3797;
40.5000;0.1726;-1.4023;
40.8000;0.1718;-1.3973;
41.1000;0.1709;-1.3998;
41.4000;0.1750;-1.3923;
41.7000;0.1701;-1.3973;
42.0000;0.1718;-1.3973;
42.3000;0.1709;-1.3973;
42.6000;0.1718;-1.3973;
42.9000;0.1742;-1.3948;
43.2000;0.1726;-1.3973;
43.5000;0.1709;-1.4023;
43.8000;0.1718;-1.4023;
44.1000;0.1726;-1.3973;
44.4000;0.1701;-1.4023;
44.7000;0.1709;-1.4023;
45.0000;0.1693;-1.4098;
45.3000;0.1758;-1.3973;
45.6000;0.1718;-1.4098;
45.9000;0.1734;-1.4073;
46.2000;0.1652;-1.4149;
46.5000;0.1701;-1.4023;
46.8000;0.1726;-1.3998;
47.1000;0.1718;-1.4023;
47.4000;0.1750;-1.3998;
47.7000;0.1677;-1.4073;
48.0000;0.1709;-1.3973;
48.3000;0.1685;-1.3998;
48.6000;0.1701;-1.4098;
48.9000;0.1726;-1.4023;
49.2000;0.1709;-1.4098;
49.5000;0.1709;-1.4073;
49.8000;0.1701;-1.4023;
50.1000;0.1709;-1.4023;
50.4000;0.1734;-1.3973;
50.7000;0.1718;-1.3973;
51.0000;0.1669;-1.4149;
51.3000;0.1677;-1.4098;
51.6000;0.1718;-1.4048;
51.9000;0.1701;-1.4023;
52.2000;0.1644;-1.4149;
52.5000;0.1709;-1.4048;
52.8000;0.1685;-1.4199;
53.1000;0.1709;-1.4174;
53.4000;0.1693;-1.4224;
53.7000;0.1652;-1.4400;
54.0000;0.1709;-1.4174;
54.3000;0.1661;-1.4274;
54.6000;0.1669;-1.4274;
54.9000;0.1677;-1.4224;
55.2000;0.1726;-1.4023;
55.5000;0.1718;-1.4048;
55.8000;0.1726;-1.4124;
56.1000;0.1766;-1.4048;
56.4000;0.1701;-1.4174;
56.7000;0.1742;-1.4048;
57.0000;0.1718;-1.4048;
57.3000;0.1709;-1.4073;
57.6000;0.1718;-1.4098;
57.9000;0.1701;-1.4174;
58.2000;0.1718;-1.4124;
58.5000;0.1701;-1.4199;
58.8000;0.1677;-1.4199;
59.1000;0.1726;-1.4199;
59.4000;0.1726;-1.4149;
59.7000;0.1677;-1.4274;
60.0000;0.1726;-1.4098;
60.3000;0.1709;-1.4023;
60.6000;0.1718;-1.3998;
60.9000;0.1718;-1.3973;
61.2000;0.1701;-1.4048;
61.5000;0.1709;-1.3998;
61.8000;0.1726;-1.3998;
62.1000;0.1726;-1.4073;
62.4000;0.1701;-1.4149;
62.7000;0.1701;-1.4124;
63.0000;0.1693;-1.4149;
63.3000;0.1685;-1.4073;
63.6000;0.1718;-1.3998;
63.9000;0.1718;-1.4048;
64.2000;0.1726;-1.3973;
64.5000;0.1726;-1.3923;
64.8000;0.1734;-1.3873;
65.1000;0.1693;-1.4073;
65.4000;0.1718;-1.3973;
65.7000;0.1709;-1.3998;
66.0000;0.1718;-1.3973;
66.3000;0.1709;-1.3998;
66.6000;0.1701;-1.4023;
66.9000;0.1701;-1.3948;
67.2000;0.1750;-1.3823;
67.5000;0.1742;-1.3898;
67.8000;0.1701;-1.4048;
68.1000;0.1709;-1.4023;
68.4000;0.1693;-1.4048;
68.7000;0.1685;-1.4023;
69.0000;0.1709;-1.3973;
69.3000;0.1709;-1.4048;
69.6000;0.1718;-1.4073;
69.9000;0.1718;-1.4048;
70.2000;0.1709;-1.4124;
70.5000;0.1677;-1.4048;
70.8000;0.1718;-1.3898;
71.1000;0.1726;-1.3873;
71.4000;0.1709;-1.4098;
71.7000;0.1709;-1.4149;
72.0000;0.1734;-1.4149;
72.3000;0.1685;-1.4299;
72.6000;0.1701;-1.4199;
72.9000;0.1677;-1.4274;
73.2000;0.1701;-1.4174;
73.5000;0.1701;-1.4199;
73.8000;0.1726;-1.4224;
74.1000;0.1693;-1.4274;
74.4000;0.1693;-1.4274;
74.7000;0.1709;-1.4224;
75.0000;0.1701;-1.4249;
75.3000;0.1718;-1.4249;
75.6000;0.1718;-1.4124;
75.9000;0.1718;-1.4073;
76.2000;0.1701;-1.4224;
76.5000;0.1669;-1.4249;
76.8000;0.1701;-1.4124;
77.1000;0.1709;-1.4098;
77.4000;0.1750;-1.3998;
77.7000;0.1734;-1.3998;
78.0000;0.1701;-1.4048;
78.3000;0.1726;-1.3948;
78.6000;0.1701;-1.4098;
78.9000;0.1709;-1.4048;
79.2000;0.1726;-1.4098;
79.5000;0.1726;-1.4048;
79.8000;0.1726;-1.4023;
80.1000;0.1709;-1.4124;
80.4000;0.1693;-1.4224;
80.7000;0.1742;-1.4073;
81.0000;0.1652;-1.4199;
81.3000;0.1718;-1.4174;
81.6000;0.1685;-1.4199;
81.9000;0.1709;-1.4124;
82.2000;0.1701;-1.4124;
82.5000;0.1693;-1.4199;
82.8000;0.1709;-1.4224;
83.1000;0.1815;-1.3873;
83.4000;0.1726;-1.4048;
83.7000;0.1758;-1.3873;
84.0000;0.1701;-1.4048;
84.3000;0.1701;-1.4098;
84.6000;0.1709;-1.4023;
84.9000;0.1709;-1.4073;
85.2000;0.1726;-1.4073;
85.5000;0.1693;-1.4199;
85.8000;0.1734;-1.4098;
86.1000;0.1726;-1.4124;
86.4000;0.1726;-1.4098;
86.7000;0.1775;-1.3973;
87.0000;0.1783;-1.3873;
87.3000;0.1718;-1.4124;
87.6000;0.1701;-1.4274;
87.9000;0.1693;-1.4324;
88.2000;0.1726;-1.4249;
88.5000;0.1718;-1.4349;
88.8000;0.1701;-1.4299;
89.1000;0.1718;-1.4274;
89.4000;0.1734;-1.4174;
89.7000;0.1709;-1.4174;
90.0000;0.1701;-1.4224;
90.3000;0.1701;-1.4249;
90.6000;0.1701;-1.4249;
90.9000;0.1701;-1.4274;
91.2000;0.1718;-1.4299;
91.5000;0.1734;-1.4324;
91.8000;0.1701;-1.4349;
92.1000;0.1677;-1.4374;
92.4000;0.1677;-1.4349;
92.7000;0.1693;-1.4400;
93.0000;0.1718;-1.4324;
93.3000;0.1701;-1.4400;
93.6000;0.1718;-1.4249;
93.9000;0.1701;-1.4349;
94.2000;0.1840;-1.3998;
94.5000;0.1709;-1.4324;
94.8000;0.1701;-1.4400;
95.1000;0.1709;-1.4374;
95.4000;0.1709;-1.4400;
95.7000;0.1709;-1.4324;
96.0000;0.1734;-1.4274;
96.3000;0.1693;-1.4324;
96.6000;0.1693;-1.4299;
96.9000;0.1693;-1.4374;
97.2000;0.1701;-1.4400;
97.5000;0.1709;-1.4324;
97.8000;0.1701;-1.4425;
98.1000;0.1734;-1.4274;
98.4000;0.1709;-1.4249;
98.7000;0.1685;-1.4400;
99.0000;0.1750;-1.4224;
99.3000;0.1701;-1.4374;
99.6000;0.1693;-1.4349;
99.9000;0.1652;-1.4400;
100.2000;0.1734;-1.3998;
100.5000;0.1669;-1.4174;
100.8000;0.1758;-1.3973;
101.1000;0.1709;-1.4199;
101.4000;0.1693;-1.4199;
101.7000;0.1701;-1.4124;
102.0000;0.1701;-1.4174;
102.3000;0.1726;-1.4098;
102.6000;0.1709;-1.4098;
102.9000;0.1644;-1.4299;
103.2000;0.1701;-1.4073;
103.5000;0.1701;-1.4048;
103.8000;0.1734;-1.3998;
104.1000;0.1726;-1.4023;
104.4000;0.1693;-1.4023;
104.7000;0.1677;-1.4048;
105.0000;0.1709;-1.4048;
105.3000;0.1783;-1.3797;
105.6000;0.1661;-1.4149;
105.9000;0.1693;-1.4023;
106.2000;0.1709;-1.4023;
106.5000;0.1701;-1.4098;
106.8000;0.1701;-1.4098;
107.1000;0.1726;-1.4023;
107.4000;0.1718;-1.4098;
107.7000;0.1718;-1.4048;
108.0000;0.1701;-1.4073;
108.3000;0.1693;-1.4149;
108.6000;0.1709;-1.4048;
108.9000;0.1701;-1.4098;
109.2000;0.1726;-1.4073;
109.5000;0.1709;-1.4124;
109.8000;0.1701;-1.4149;
110.1000;0.1709;-1.4098;
110.4000;0.1726;-1.3973;
110.7000;0.1693;-1.4048;
111.0000;0.1701;-1.4048;
111.3000;0.1701;-1.4023;
111.6000;0.1726;-1.4048;
111.9000;0.1709;-1.4048;
112.2000;0.1726;-1.4023;
112.5000;0.1685;-1.4098;
112.8000;0.1709;-1.4023;
113.1000;0.1701;-1.3998;
113.4000;0.1669;-1.4149;
113.7000;0.1709;-1.4073;
114.0000;0.1734;-1.3998;
114.3000;0.1693;-1.4098;
114.6000;0.1734;-1.4073;
114.9000;0.1718;-1.4174;
115.2000;0.1652;-1.4349;
115.5000;0.1718;-1.4174;
115.8000;0.1701;-1.4299;
116.1000;0.1701;-1.4400;
116.4000;0.1742;-1.4400;
116.7000;0.1718;-1.4374;
117.0000;0.1718;-1.4274;
117.3000;0.1701;-1.4274;
117.6000;0.1726;-1.4324;
117.9000;0.1718;-1.4274;
118.2000;0.1620;-1.4450;
118.5000;0.1693;-1.4274;
118.8000;0.1669;-1.4374;
119.1000;0.1701;-1.4249;
119.4000;0.1726;-1.4224;
119.7000;0.1709;-1.4224;
120.0000;0.1685;-1.4349;
120.3000;0.1701;-1.4349;
120.6000;0.1669;-1.4450;
120.9000;0.1734;-1.4274;
121.2000;0.1701;-1.4299;
121.5000;0.1750;-1.4224;
121.8000;0.1677;-1.4374;
122.1000;0.1718;-1.4174;
122.4000;0.1693;-1.4149;
122.7000;0.1677;-1.4124;
123.0000;0.1644;-1.4174;
123.3000;0.1742;-1.3898;
123.6000;0.1718;-1.4023;
123.9000;0.1677;-1.4249;
124.2000;0.1718;-1.4124;
124.5000;0.1669;-1.4249;
124.8000;0.1832;-1.3747;
125.1000;0.1709;-1.4048;
125.4000;0.1758;-1.3948;
125.7000;0.1718;-1.4098;
126.0000;0.1693;-1.4174;
126.3000;0.1766;-1.3998;
126.6000;0.1701;-1.4174;
126.9000;0.1669;-1.4224;
127.2000;0.1701;-1.4199;
127.5000;0.1677;-1.4199;
127.8000;0.1701;-1.4048;
128.1000;0.1709;-1.4023;
128.4000;0.1693;-1.4124;
128.7000;0.1693;-1.4073;
129.0000;0.1701;-1.4124;
129.3000;0.1701;-1.4124;
129.6000;0.1742;-1.3923;
129.9000;0.1693;-1.4098;
130.2000;0.1701;-1.4023;
130.5000;0.1701;-1.4023;
130.8000;0.1709;-1.3898;
131.1000;0.1709;-1.4023;
131.4000;0.1693;-1.4124;
131.7000;0.1758;-1.4023;
132.0000;0.1701;-1.4174;
132.3000;0.1734;-1.4098;
132.6000;0.1709;-1.4174;
132.9000;0.1693;-1.4098;
133.2000;0.1701;-1.4149;
133.5000;0.1693;-1.4149;
133.8000;0.1661;-1.4274;
134.1000;0.1726;-1.4174;
134.4000;0.1685;-1.4224;
134.7000;0.1661;-1.4374;
135.0000;0.1701;-1.4299;
135.3000;0.1701;-1.4224;
135.6000;0.1709;-1.4199;
135.9000;0.1709;-1.4174;
136.2000;0.1677;-1.4274;
136.5000;0.1701;-1.4199;
136.8000;0.1693;-1.4149;
137.1000;0.1677;-1.4174;
137.4000;0.1644;-1.4349;
137.7000;0.1693;-1.4249;
138.0000;0.1693;-1.4274;
138.3000;0.1734;-1.4224;
138.6000;0.1709;-1.4224;
138.9000;0.1709;-1.4149;
139.2000;0.1677;-1.4124;
139.5000;0.1701;-1.4073;
139.8000;0.1693;-1.4149;
140.1000;0.1709;-1.4098;
140.4000;0.1742;-1.3998;
140.7000;0.1734;-1.4224;
141.0000;0.1726;-1.4249;
141.3000;0.1726;-1.4224;
141.6000;0.1742;-1.4199;
141.9000;0.1726;-1.4299;
142.2000;0.1718;-1.4199;
142.5000;0.1709;-1.4199;
142.8000;0.1734;-1.4174;
143.1000;0.1718;-1.4124;
143.4000;0.1718;-1.4048;
143.7000;0.1661;-1.4199;
144.0000;0.1709;-1.4023;
144.3000;0.1693;-1.4023;
144.6000;0.1701;-1.3973;
144.9000;0.1709;-1.3898;
145.2000;0.1709;-1.3848;
145.5000;0.1693;-1.3948;
145.8000;0.1726;-1.3973;
146.1000;0.1709;-1.4023;
146.4000;0.1701;-1.3998;
146.7000;0.1734;-1.3848;
147.0000;0.1734;-1.3747;
147.3000;0.1685;-1.3898;
147.6000;0.1718;-1.3848;
147.9000;0.1701;-1.3898;
148.2000;0.1685;-1.3998;
148.5000;0.1579;-1.4324;
148.8000;0.1726;-1.3998;
149.1000;0.1677;-1.4098;
149.4000;0.1709;-1.4073;
149.7000;0.1718;-1.4098;
150.0000;0.1685;-1.4073;
150.3000;0.1726;-1.3973;
150.6000;0.1661;-1.4174;
150.9000;0.1701;-1.4048;
151.2000;0.1709;-1.4048;
151.5000;0.1709;-1.4048;
151.8000;0.1718;-1.4023;
152.1000;0.1726;-1.4023;
152.4000;0.1701;-1.4073;
152.7000;0.1701;-1.4199;
153.0000;0.1701;-1.4199;
153.3000;0.1701;-1.4174;
153.6000;0.1661;-1.4400;
153.9000;0.1709;-1.4299;
154.2000;0.1709;-1.4249;
154.5000;0.1709;-1.4174;
154.8000;0.1677;-1.4274;
155.1000;0.1718;-1.4174;
155.4000;0.1701;-1.4224;
155.7000;0.1661;-1.4500;
156.0000;0.1726;-1.4349;
156.3000;0.1718;-1.4425;
156.6000;0.1693;-1.4400;
156.9000;0.1726;-1.4249;
157.2000;0.1718;-1.4224;
157.5000;0.1685;-1.4349;
157.8000;0.1718;-1.4249;
158.1000;0.1709;-1.4224;
158.4000;0.1677;-1.4199;
158.7000;0.1701;-1.4224;
159.0000;0.1701;-1.4224;
159.3000;0.1701;-1.4299;
159.6000;0.1677;-1.4299;
159.9000;0.1701;-1.4299;
160.2000;0.1734;-1.4199;
160.5000;0.1693;-1.4174;
160.8000;0.1709;-1.4098;
161.1000;0.1709;-1.4149;
161.4000;0.1709;-1.4174;
161.7000;0.1709;-1.4249;
162.0000;0.1709;-1.4199;
162.3000;0.1791;-1.3973;
162.6000;0.1669;-1.4425;
162.9000;0.1709;-1.4274;
163.2000;0.1709;-1.4349;
163.5000;0.1718;-1.4324;
163.8000;0.1685;-1.4274;
164.1000;0.1685;-1.4249;
164.4000;0.1693;-1.4274;
164.7000;0.1718;-1.4124;
165.0000;0.1685;-1.4098;
165.3000;0.1693;-1.4149;
165.6000;0.1693;-1.4048;
165.9000;0.1693;-1.4098;
166.2000;0.1718;-1.4124;
166.5000;0.1726;-1.4149;
166.8000;0.1701;-1.4174;
167.1000;0.1652;-1.4224;
167.4000;0.1718;-1.4073;
167.7000;0.1701;-1.4023;
168.0000;0.1709;-1.4048;
168.3000;0.1709;-1.4023;
168.6000;0.1750;-1.3948;
168.9000;0.1701;-1.3998;
169.2000;0.1701;-1.3998;
169.5000;0.1644;-1.4199;
169.8000;0.1709;-1.4073;
170.1000;0.1709;-1.4174;
170.4000;0.1669;-1.4224;
170.7000;0.1742;-1.3973;
171.0000;0.1701;-1.3998;
171.3000;0.1701;-1.4023;
171.6000;0.1734;-1.3948;
171.9000;0.1701;-1.4098;
172.2000;0.1693;-1.4199;
172.5000;0.1701;-1.4199;
172.8000;0.1701;-1.4224;
173.1000;0.1693;-1.4249;
173.4000;0.1677;-1.4224;
173.7000;0.1685;-1.4274;
174.0000;0.1701;-1.4274;
174.3000;0.1742;-1.4149;
174.6000;0.1693;-1.4224;
174.9000;0.1701;-1.4199;
175.2000;0.1685;-1.4174;
175.5000;0.1677;-1.4199;
175.8000;0.1709;-1.4199;
176.1000;0.1701;-1.4199;
176.4000;0.1693;-1.4098;
176.7000;0.1685;-1.4124;
177.0000;0.1693;-1.4073;
177.3000;0.1693;-1.4048;
177.6000;0.1685;-1.4048;
177.9000;0.1701;-1.4048;
178.2000;0.1709;-1.4098;
178.5000;0.1693;-1.4224;
178.8000;0.1701;-1.4174;
179.1000;0.1669;-1.4224;
179.4000;0.1685;-1.4149;
179.7000;0.1677;-1.4149;
180.0000;0.1685;-1.4174;
180.3000;0.1709;-1.4199;
180.6000;0.1693;-1.4149;
180.9000;0.1685;-1.4199;
181.2000;0.1709;-1.4098;
181.5000;0.1709;-1.4199;
181.8000;0.1685;-1.4224;
182.1000;0.1677;-1.4149;
182.4000;0.1701;-1.4174;
182.7000;0.1709;-1.4073;
183.0000;0.1709;-1.4073;
183.3000;0.1693;-1.4023;
183.6000;0.1726;-1.3923;
183.9000;0.1693;-1.3998;
184.2000;0.1693;-1.4073;
184.5000;0.1677;-1.4249;
184.8000;0.1669;-1.4249;
185.1000;0.1693;-1.4199;
185.4000;0.1701;-1.4274;
185.7000;0.1701;-1.4224;
186.0000;0.1693;-1.4249;
186.3000;0.1701;-1.4224;
186.6000;0.1709;-1.4249;
186.9000;0.1693;-1.4249;
187.2000;0.1701;-1.4149;
187.5000;0.1718;-1.4073;
187.8000;0.1709;-1.4073;
188.1000;0.1701;-1.4098;
188.4000;0.1685;-1.4199;
188.7000;0.1701;-1.4073;
189.0000;0.1734;-1.3898;
189.3000;0.1726;-1.3923;
189.6000;0.1718;-1.4048;
189.9000;0.1709;-1.4149;
190.2000;0.1693;-1.4199;
190.5000;0.1709;-1.4124;
190.8000;0.1693;-1.4224;
191.1000;0.1758;-1.4048;
191.4000;0.1685;-1.4174;
191.7000;0.1701;-1.4048;
192.0000;0.1718;-1.4149;
192.3000;0.1718;-1.4149;
192.6000;0.1652;-1.4349;
192.9000;0.1685;-1.4374;
193.2000;0.1718;-1.4274;
193.5000;0.1669;-1.4324;
193.8000;0.1661;-1.4299;
194.1000;0.1677;-1.4098;
194.4000;0.1644;-1.4199;
194.7000;0.1685;-1.4124;
195.0000;0.1726;-1.4048;
195.3000;0.1766;-1.4048;
195.6000;0.1677;-1.4374;
195.9000;0.1579;-1.4600;
196.2000;0.1669;-1.4374;
196.5000;0.1701;-1.4224;
196.8000;0.1718;-1.4249;
197.1000;0.1669;-1.4224;
197.4000;0.1693;-1.4174;
197.7000;0.1709;-1.4249;
198.0000;0.1693;-1.4299;
198.3000;0.1628;-1.4475;
198.6000;0.1685;-1.4274;
198.9000;0.1669;-1.4249;
199.2000;0.1701;-1.4149;
199.5000;0.1701;-1.4224;
199.8000;0.1685;-1.4249;
200.1000;0.1701;-1.4174;
200.4000;0.1734;-1.4098;
200.7000;0.1709;-1.4174;
201.0000;0.1718;-1.4249;
201.3000;0.1701;-1.4324;
201.6000;0.1701;-1.4249;
201.9000;0.1701;-1.4199;
202.2000;0.1661;-1.4374;
202.5000;0.1693;-1.4149;
202.8000;0.1701;-1.4073;
203.1000;0.1661;-1.4199;
203.4000;0.1693;-1.4023;
203.7000;0.1693;-1.3998;
204.0000;0.1693;-1.4023;
204.3000;0.1693;-1.4073;
204.6000;0.1685;-1.4174;
204.9000;0.1701;-1.4124;
205.2000;0.1701;-1.4073;
205.5000;0.1685;-1.4149;
205.8000;0.1693;-1.4224;
206.1000;0.1701;-1.4299;
206.4000;0.1693;-1.4249;
206.7000;0.1709;-1.4224;
207.0000;0.1685;-1.4274;
207.3000;0.1685;-1.4324;
207.6000;0.1628;-1.4374;
207.9000;0.1669;-1.4274;
208.2000;0.1685;-1.4224;
208.5000;0.1701;-1.4098;
208.8000;0.1685;-1.4149;
209.1000;0.1783;-1.3948;
209.4000;0.1726;-1.4073;
209.7000;0.1718;-1.4199;
210.0000;0.1685;-1.4249;
210.3000;0.1718;-1.4249;
210.6000;0.1750;-1.4124;
210.9000;0.1693;-1.4149;
211.2000;0.1612;-1.4299;
211.5000;0.1685;-1.4073;
211.8000;0.1726;-1.4048;
212.1000;0.1709;-1.4098;
212.4000;0.1677;-1.4124;
212.7000;0.1669;-1.4249;
213.0000;0.1693;-1.4174;
213.3000;0.1701;-1.4224;
213.6000;0.1685;-1.4224;
213.9000;0.1693;-1.4199;
214.2000;0.1701;-1.4199;
214.5000;0.1677;-1.4249;
214.8000;0.1693;-1.4149;
215.1000;0.1677;-1.4224;
215.4000;0.1685;-1.4224;
215.7000;0.1701;-1.4199;
216.0000;0.1718;-1.4224;
216.3000;0.1734;-1.4224;
216.6000;0.1685;-1.4324;
216.9000;0.1701;-1.4299;
217.2000;0.1693;-1.4249;
217.5000;0.1669;-1.4324;
217.8000;0.1677;-1.4274;
218.1000;0.1685;-1.4149;
218.4000;0.1685;-1.4199;
218.7000;0.1587;-1.4525;
219.0000;0.1677;-1.4224;
219.3000;0.1661;-1.4324;
219.6000;0.1693;-1.4174;
219.9000;0.1652;-1.4349;
220.2000;0.1677;-1.4098;
220.5000;0.1701;-1.4048;
220.8000;0.1718;-1.3998;
221.1000;0.1709;-1.3973;
221.4000;0.1693;-1.3898;
221.7000;0.1709;-1.3898;
222.0000;0.1709;-1.3923;
222.3000;0.1734;-1.3823;
222.6000;0.1718;-1.3873;
222.9000;0.1709;-1.3998;
223.2000;0.1709;-1.3948;
223.5000;0.1693;-1.4048;
223.8000;0.1693;-1.4023;
224.1000;0.1693;-1.3923;
224.4000;0.1701;-1.3898;
224.7000;0.1652;-1.3923;
225.0000;0.1677;-1.3873;
225.3000;0.1677;-1.3998;
225.6000;0.1612;-1.4174;
225.9000;0.1685;-1.3973;
226.2000;0.1685;-1.3923;
226.5000;0.1677;-1.3898;
226.8000;0.1750;-1.3772;
227.1000;0.1677;-1.3998;
227.4000;0.1693;-1.4023;
227.7000;0.1693;-1.4048;
228.0000;0.1685;-1.4174;
228.3000;0.1701;-1.4098;
228.6000;0.1677;-1.4098;
228.9000;0.1701;-1.4048;
229.2000;0.1677;-1.4098;
229.5000;0.1709;-1.4048;
229.8000;0.1709;-1.4124;
230.1000;0.1685;-1.4249;
230.4000;0.1677;-1.4224;
230.7000;0.1685;-1.4324;
231.0000;0.1701;-1.4299;
231.3000;0.1742;-1.4199;
231.6000;0.1669;-1.4425;
231.9000;0.1701;-1.4400;
232.2000;0.1750;-1.4299;
232.5000;0.1726;-1.4274;
232.8000;0.1685;-1.4324;
233.1000;0.1693;-1.4224;
233.4000;0.1693;-1.4274;
233.7000;0.1661;-1.4324;
234.0000;0.1701;-1.4199;
234.3000;0.1758;-1.3948;
234.6000;0.1726;-1.4023;
234.9000;0.1693;-1.4124;
235.2000;0.1693;-1.4224;
235.5000;0.1693;-1.4299;
235.8000;0.1718;-1.4199;
236.1000;0.1693;-1.4299;
236.4000;0.1709;-1.4299;
236.7000;0.1693;-1.4349;
237.0000;0.1693;-1.4249;
237.3000;0.1718;-1.4174;
237.6000;0.1718;-1.4023;
237.9000;0.1685;-1.4023;
238.2000;0.1726;-1.3973;
238.5000;0.1709;-1.3998;
238.8000;0.1726;-1.3948;
239.1000;0.1677;-1.4048;
239.4000;0.1693;-1.3998;
239.7000;0.1669;-1.4023;
240.0000;0.1685;-1.3998;
240.3000;0.1685;-1.3948;
240.6000;0.1693;-1.4073;
240.9000;0.1669;-1.4149;
241.2000;0.1693;-1.4124;
241.5000;0.1734;-1.4023;
241.8000;0.1693;-1.4073;
242.1000;0.1677;-1.3998;
242.4000;0.1701;-1.4048;
242.7000;0.1709;-1.4048;
243.0000;0.1693;-1.4098;
243.3000;0.1709;-1.4098;
243.6000;0.1734;-1.4023;
243.9000;0.1701;-1.4149;
244.2000;0.1693;-1.4174;
244.5000;0.1693;-1.4098;
244.8000;0.1709;-1.4073;
245.1000;0.1718;-1.3973;
245.4000;0.1701;-1.4073;
245.7000;0.1701;-1.4048;
246.0000;0.1718;-1.4048;
246.3000;0.1701;-1.4098;
246.6000;0.1693;-1.4073;
246.9000;0.1693;-1.4098;
247.2000;0.1701;-1.4073;
247.5000;0.1709;-1.4098;
247.8000;0.1677;-1.4124;
248.1000;0.1693;-1.4124;
248.4000;0.1685;-1.4174;
248.7000;0.1685;-1.4249;
249.0000;0.1726;-1.4048;
249.3000;0.1693;-1.4098;
249.6000;0.1709;-1.4073;
249.9000;0.1693;-1.4023;
250.2000;0.1677;-1.3948;
250.5000;0.1685;-1.4048;
250.8000;0.1734;-1.3948;
251.1000;0.1709;-1.3948;
251.4000;0.1726;-1.3848;
251.7000;0.1701;-1.3948;
252.0000;0.1709;-1.4048;
252.3000;0.1718;-1.4098;
252.6000;0.1661;-1.4324;
252.9000;0.1685;-1.4224;
253.2000;0.1701;-1.4073;
253.5000;0.1677;-1.4048;
253.8000;0.1677;-1.4098;
254.1000;0.1685;-1.4048;
254.4000;0.1734;-1.3973;
254.7000;0.1685;-1.3998;
255.0000;0.1726;-1.3973;
255.3000;0.1726;-1.3998;
255.6000;0.1661;-1.4124;
255.9000;0.1652;-1.4224;
256.2000;0.1669;-1.4249;
256.5000;0.1701;-1.4124;
256.8000;0.1669;-1.4224;
257.1000;0.1693;-1.4098;
257.4000;0.1701;-1.4048;
257.7000;0.1709;-1.3923;
258.0000;0.1685;-1.4048;
258.3000;0.1669;-1.4098;
258.6000;0.1677;-1.4073;
258.9000;0.1709;-1.4048;
259.2000;0.1701;-1.4073;
259.5000;0.1685;-1.4249;
259.8000;0.1685;-1.4274;
260.1000;0.1718;-1.4324;
260.4000;0.1677;-1.4349;
260.7000;0.1669;-1.4324;
261.0000;0.1693;-1.4249;
261.3000;0.1701;-1.4224;
261.6000;0.1734;-1.4073;
261.9000;0.1661;-1.4224;
262.2000;0.1709;-1.4149;
262.5000;0.1685;-1.4149;
262.8000;0.1685;-1.4124;
263.1000;0.1685;-1.4098;
263.4000;0.1685;-1.4124;
263.7000;0.1685;-1.4048;
264.0000;0.1709;-1.4124;
264.3000;0.1701;-1.4098;
264.6000;0.1701;-1.4098;
264.9000;0.1685;-1.4174;
265.2000;0.1701;-1.4098;
265.5000;0.1685;-1.4073;
265.8000;0.1677;-1.4023;
266.1000;0.1685;-1.3998;
266.4000;0.1685;-1.4048;
266.7000;0.1718;-1.4023;
267.0000;0.1677;-1.4098;
267.3000;0.1685;-1.4073;
267.6000;0.1685;-1.4149;
267.9000;0.1701;-1.4023;
268.2000;0.1693;-1.3998;
268.5000;0.1685;-1.3998;
268.8000;0.1677;-1.3973;
269.1000;0.1734;-1.3848;
269.4000;0.1685;-1.4073;
269.7000;0.1701;-1.4023;
270.0000;0.1685;-1.4098;
270.3000;0.1709;-1.4048;
270.6000;0.1693;-1.4023;
270.9000;0.1685;-1.4048;
271.2000;0.1709;-1.4048;
271.5000;0.1685;-1.4048;
271.8000;0.1709;-1.4124;
272.1000;0.1677;-1.4224;
272.4000;0.1693;-1.4199;
272.7000;0.1701;-1.4149;
273.0000;0.1701;-1.4124;
273.3000;0.1661;-1.4224;
273.6000;0.1661;-1.4199;
273.9000;0.1644;-1.4224;
274.2000;0.1685;-1.4073;
274.5000;0.1693;-1.3998;
274.8000;0.1685;-1.4023;
275.1000;0.1685;-1.4023;
275.4000;0.1685;-1.4023;
275.7000;0.1693;-1.4023;
276.0000;0.1685;-1.4174;
276.3000;0.1669;-1.4224;
276.6000;0.1685;-1.4199;
276.9000;0.1701;-1.4124;
277.2000;0.1644;-1.4324;
277.5000;0.1685;-1.4249;
277.8000;0.1677;-1.4324;
278.1000;0.1644;-1.4400;
278.4000;0.1693;-1.4374;
278.7000;0.1669;-1.4500;
279.0000;0.1701;-1.4374;
279.3000;0.1701;-1.4299;
279.6000;0.1693;-1.4324;
279.9000;0.1669;-1.4324;
280.2000;0.1677;-1.4425;
280.5000;0.1693;-1.4374;
280.8000;0.1718;-1.4224;
281.1000;0.1685;-1.4299;
281.4000;0.1709;-1.4199;
281.7000;0.1726;-1.4149;
282.0000;0.1734;-1.4048;
282.3000;0.1709;-1.4023;
282.6000;0.1701;-1.4048;
282.9000;0.1693;-1.4048;
283.2000;0.1701;-1.4048;
283.5000;0.1726;-1.4023;
283.8000;0.1709;-1.4124;
284.1000;0.1709;-1.4023;
284.4000;0.1693;-1.4048;
284.7000;0.1685;-1.4048;
285.0000;0.1693;-1.3948;
285.3000;0.1685;-1.4023;
285.6000;0.1693;-1.3948;
285.9000;0.1685;-1.3873;
286.2000;0.1677;-1.3948;
286.5000;0.1693;-1.3873;
286.8000;0.1685;-1.3898;
287.1000;0.1701;-1.3848;
287.4000;0.1693;-1.3873;
287.7000;0.1701;-1.3848;
288.0000;0.1685;-1.3898;
288.3000;0.1669;-1.3973;
288.6000;0.1628;-1.4023;
288.9000;0.1685;-1.3898;
289.2000;0.1709;-1.3823;
289.5000;0.1709;-1.3797;
289.8000;0.1677;-1.3898;
290.1000;0.1701;-1.3923;
290.4000;0.1685;-1.4023;
290.7000;0.1701;-1.3948;
291.0000;0.1709;-1.3873;
291.3000;0.1701;-1.3873;
291.6000;0.1669;-1.3923;
291.9000;0.1677;-1.3948;
292.2000;0.1669;-1.3898;
292.5000;0.1669;-1.3848;
292.8000;0.1644;-1.3898;
293.1000;0.1685;-1.3848;
293.4000;0.1701;-1.3797;
293.7000;0.1766;-1.3747;
294.0000;0.1701;-1.3873;
294.3000;0.1718;-1.3797;
294.6000;0.1709;-1.3848;
294.9000;0.1693;-1.3898;
295.2000;0.1693;-1.3898;
295.5000;0.1685;-1.3923;
295.8000;0.1701;-1.3873;
296.1000;0.1726;-1.3923;
296.4000;0.1693;-1.3973;
296.7000;0.1669;-1.4048;
297.0000;0.1701;-1.4023;
297.3000;0.1685;-1.4023;
297.6000;0.1685;-1.3973;
297.9000;0.1685;-1.4023;
298.2000;0.1693;-1.3948;
298.5000;0.1766;-1.3747;
298.8000;0.1685;-1.4048;
299.1000;0.1677;-1.4098;
299.4000;0.1709;-1.4023;
299.7000;0.1701;-1.3923;
300.0000;0.1677;-1.3923;
300.3000;0.1693;-1.3948;
300.6000;0.1669;-1.3998;
300.9000;0.1693;-1.3973;
301.2000;0.1693;-1.3998;
301.5000;0.1709;-1.3948;
301.8000;0.1685;-1.4048;
302.1000;0.1685;-1.4073;
302.4000;0.1709;-1.4098;
302.7000;0.1677;-1.4073;
303.0000;0.1693;-1.4023;
303.3000;0.1685;-1.3998;
303.6000;0.1669;-1.4048;
303.9000;0.1709;-1.3923;
304.2000;0.1677;-1.3973;
304.5000;0.1701;-1.3873;
304.8000;0.1677;-1.3898;
305.1000;0.1791;-1.3572;
305.4000;0.1652;-1.3898;
305.7000;0.1693;-1.3823;
306.0000;0.1685;-1.3772;
306.3000;0.1669;-1.3848;
306.6000;0.1693;-1.3797;
306.9000;0.1669;-1.3973;
307.2000;0.1750;-1.3797;
307.5000;0.1693;-1.3923;
307.8000;0.1693;-1.3973;
308.1000;0.1685;-1.4023;
308.4000;0.1693;-1.3998;
308.7000;0.1644;-1.4174;
309.0000;0.1709;-1.4023;
309.3000;0.1685;-1.4073;
309.6000;0.1685;-1.4023;
309.9000;0.1709;-1.3948;
310.2000;0.1693;-1.4023;
310.5000;0.1677;-1.4098;
310.8000;0.1693;-1.4149;
311.1000;0.1701;-1.4124;
311.4000;0.1701;-1.4048;
311.7000;0.1742;-1.3923;
312.0000;0.1709;-1.3998;
312.3000;0.1693;-1.4048;
312.6000;0.1709;-1.4048;
312.9000;0.1701;-1.4073;
313.2000;0.1709;-1.4124;
313.5000;0.1701;-1.4174;
313.8000;0.1701;-1.4149;
314.1000;0.1791;-1.3998;
314.4000;0.1693;-1.4324;
314.7000;0.1636;-1.4425;
315.0000;0.1701;-1.4299;
315.3000;0.1669;-1.4274;
315.6000;0.1628;-1.4324;
315.9000;0.1685;-1.4098;
316.2000;0.1677;-1.4124;
316.5000;0.1701;-1.4073;
316.8000;0.1685;-1.4124;
317.1000;0.1685;-1.4224;
317.4000;0.1677;-1.4124;
317.7000;0.1693;-1.4098;
318.0000;0.1677;-1.4149;
318.3000;0.1636;-1.4374;
318.6000;0.1693;-1.4324;
318.9000;0.1677;-1.4374;
319.2000;0.1652;-1.4500;
319.5000;0.1685;-1.4400;
319.8000;0.1693;-1.4299;
320.1000;0.1685;-1.4299;
320.4000;0.1652;-1.4299;
320.7000;0.1685;-1.4249;
321.0000;0.1677;-1.4299;
321.3000;0.1693;-1.4174;
321.6000;0.1701;-1.4149;
321.9000;0.1677;-1.4124;
322.2000;0.1693;-1.4048;
322.5000;0.1685;-1.4098;
322.8000;0.1693;-1.4048;
323.1000;0.1652;-1.4174;
323.4000;0.1734;-1.4048;
323.7000;0.1701;-1.4149;
324.0000;0.1685;-1.4224;
324.3000;0.1734;-1.4048;
324.6000;0.1677;-1.4149;
324.9000;0.1701;-1.4048;
325.2000;0.1758;-1.3797;
325.5000;0.1644;-1.4149;
325.8000;0.1677;-1.4098;
326.1000;0.1701;-1.4048;
326.4000;0.1701;-1.3948;
326.7000;0.1701;-1.3898;
327.0000;0.1677;-1.3873;
327.3000;0.1718;-1.3823;
327.6000;0.1652;-1.4073;
327.9000;0.1701;-1.3948;
328.2000;0.1750;-1.3772;
328.5000;0.1709;-1.3823;
328.8000;0.1701;-1.3898;
329.1000;0.1701;-1.3948;
329.4000;0.1693;-1.3948;
329.7000;0.1677;-1.4149;
330.0000;0.1709;-1.4073;
330.3000;0.1628;-1.4199;
330.6000;0.1766;-1.3873;
330.9000;0.1701;-1.4023;
331.2000;0.1693;-1.4023;
331.5000;0.1661;-1.4023;
331.8000;0.1685;-1.4073;
332.1000;0.1693;-1.4073;
332.4000;0.1701;-1.4124;
332.7000;0.1709;-1.4124;
333.0000;0.1685;-1.4274;
333.3000;0.1685;-1.4199;
333.6000;0.1693;-1.4199;
333.9000;0.1718;-1.4149;
334.2000;0.1709;-1.4149;
334.5000;0.1652;-1.4149;
334.8000;0.1669;-1.4098;
335.1000;0.1685;-1.4048;
335.4000;0.1701;-1.3998;
335.7000;0.1742;-1.3948;
336.0000;0.1750;-1.3948;
336.3000;0.1701;-1.4149;
336.6000;0.1709;-1.4124;
336.9000;0.1734;-1.3998;
337.2000;0.1693;-1.4098;
337.5000;0.1701;-1.4174;
337.8000;0.1636;-1.4349;
338.1000;0.1661;-1.4274;
338.4000;0.1677;-1.4174;
338.7000;0.1709;-1.4174;
339.0000;0.1701;-1.4224;
339.3000;0.1693;-1.4274;
339.6000;0.1685;-1.4299;
339.9000;0.1693;-1.4274;
340.2000;0.1718;-1.4199;
340.5000;0.1693;-1.4199;
340.8000;0.1807;-1.3797;
341.1000;0.1685;-1.4098;
341.4000;0.1644;-1.4124;
341.7000;0.1693;-1.3973;
342.0000;0.1701;-1.3898;
342.3000;0.1685;-1.4048;
342.6000;0.1685;-1.3973;
342.9000;0.1693;-1.4048;
343.2000;0.1750;-1.3898;
343.5000;0.1661;-1.4048;
343.8000;0.1677;-1.3998;
344.1000;0.1693;-1.3998;
344.4000;0.1693;-1.3998;
344.7000;0.1685;-1.4048;
345.0000;0.1677;-1.4073;
345.3000;0.1693;-1.4124;
345.6000;0.1677;-1.4274;
345.9000;0.1701;-1.4224;
346.2000;0.1685;-1.4149;
346.5000;0.1685;-1.4124;
346.8000;0.1709;-1.4048;
347.1000;0.1693;-1.4048;
347.4000;0.1685;-1.4124;
347.7000;0.1677;-1.4149;
348.0000;0.1677;-1.4048;
348.3000;0.1783;-1.3797;
348.6000;0.1677;-1.4048;
348.9000;0.1693;-1.4023;
349.2000;0.1709;-1.3948;
349.5000;0.1701;-1.3998;
349.8000;0.1693;-1.4124;
350.1000;0.1693;-1.4149;
350.4000;0.1669;-1.4199;
350.7000;0.1701;-1.4174;
351.0000;0.1693;-1.4299;
351.3000;0.1652;-1.4450;
351.6000;0.1701;-1.4299;
351.9000;0.1701;-1.4249;
352.2000;0.1685;-1.4249;
352.5000;0.1685;-1.4224;
352.8000;0.1677;-1.4274;
353.1000;0.1734;-1.3998;
353.4000;0.1718;-1.4073;
353.7000;0.1693;-1.4174;
354.0000;0.1644;-1.4249;
354.3000;0.1604;-1.4324;
354.6000;0.1693;-1.4098;
354.9000;0.1677;-1.4199;
355.2000;0.1693;-1.4174;
355.5000;0.1685;-1.4174;
355.8000;0.1742;-1.4048;
356.1000;0.1685;-1.4124;
356.4000;0.1709;-1.4073;
356.7000;0.1669;-1.4149;
357.0000;0.1677;-1.4324;
357.3000;0.1677;-1.4374;
357.6000;0.1620;-1.4475;
357.9000;0.1661;-1.4299;
358.2000;0.1677;-1.4224;
358.5000;0.1709;-1.4224;
358.8000;0.1693;-1.4299;
359.1000;0.1628;-1.4400;
359.4000;0.1685;-1.4199;
359.7000;0.1652;-1.4299;
360.0000;0.1669;-1.4274;
360.3000;0.1669;-1.4374;
360.6000;0.1677;-1.4349;
360.9000;0.1685;-1.4274;
361.2000;0.1685;-1.4249;
361.5000;0.1685;-1.4224;
361.8000;0.1685;-1.4199;
362.1000;0.1701;-1.4098;
362.4000;0.1701;-1.4048;
362.7000;0.1685;-1.4098;
363.0000;0.1701;-1.4149;
363.3000;0.1628;-1.4349;
363.6000;0.1701;-1.4174;
363.9000;0.1701;-1.4149;
364.2000;0.1734;-1.4073;
364.5000;0.1693;-1.4073;
364.8000;0.1693;-1.4199;
365.1000;0.1685;-1.4274;
365.4000;0.1709;-1.4324;
365.7000;0.1693;-1.4224;
366.0000;0.1677;-1.4199;
366.3000;0.1685;-1.4199;
366.6000;0.1701;-1.4199;
366.9000;0.1701;-1.4149;
367.2000;0.1701;-1.4098;
367.5000;0.1669;-1.4149;
367.8000;0.1693;-1.4098;
368.1000;0.1726;-1.4048;
368.4000;0.1726;-1.4023;
368.7000;0.1718;-1.4048;
369.0000;0.1693;-1.4048;
369.3000;0.1693;-1.4124;
369.6000;0.1677;-1.4199;
369.9000;0.1701;-1.4149;
370.2000;0.1693;-1.4073;
370.5000;0.1693;-1.4023;
370.8000;0.1701;-1.3973;
371.1000;0.1709;-1.3948;
371.4000;0.1628;-1.4149;
371.7000;0.1693;-1.3923;
372.0000;0.1685;-1.3848;
372.3000;0.1709;-1.3873;
372.6000;0.1734;-1.3772;
372.9000;0.1677;-1.3948;
373.2000;0.1750;-1.3873;
373.5000;0.1644;-1.4073;
373.8000;0.1701;-1.3873;
374.1000;0.1709;-1.3973;
374.4000;0.1693;-1.4073;
374.7000;0.1701;-1.4048;
375.0000;0.1685;-1.4073;
375.3000;0.1677;-1.4199;
375.6000;0.1685;-1.4149;
375.9000;0.1685;-1.4073;
376.2000;0.1693;-1.4073;
376.5000;0.1661;-1.4199;
376.8000;0.1693;-1.4124;
377.1000;0.1669;-1.4098;
377.4000;0.1709;-1.4073;
377.7000;0.1685;-1.4073;
378.0000;0.1669;-1.4124;
378.3000;0.1701;-1.3948;
378.6000;0.1636;-1.4124;
378.9000;0.1677;-1.3998;
379.2000;0.1685;-1.3998;
379.5000;0.1677;-1.4073;
379.8000;0.1677;-1.4073;
380.1000;0.1685;-1.4124;
380.4000;0.1742;-1.3948;
380.7000;0.1669;-1.4124;
381.0000;0.1677;-1.4124;
381.3000;0.1661;-1.4149;
381.6000;0.1685;-1.4098;
381.9000;0.1693;-1.4098;
382.2000;0.1750;-1.3923;
382.5000;0.1701;-1.4048;
382.8000;0.1693;-1.4149;
383.1000;0.1709;-1.4124;
383.4000;0.1693;-1.4124;
383.7000;0.1685;-1.4048;
384.0000;0.1685;-1.4073;
384.3000;0.1693;-1.3973;
384.6000;0.1709;-1.3923;
384.9000;0.1628;-1.4073;
385.2000;0.1685;-1.3923;
385.5000;0.1669;-1.3998;
385.8000;0.1677;-1.4048;
386.1000;0.1701;-1.4098;
386.4000;0.1693;-1.4098;
386.7000;0.1693;-1.4174;
387.0000;0.1709;-1.4174;
387.3000;0.1685;-1.4224;
387.6000;0.1693;-1.4174;
387.9000;0.1693;-1.4224;
388.2000;0.1709;-1.4149;
388.5000;0.1742;-1.4124;
388.8000;0.1701;-1.4199;
389.1000;0.1742;-1.4124;
389.4000;0.1693;-1.4199;
389.7000;0.1685;-1.4224;
390.0000;0.1701;-1.4174;
390.3000;0.1669;-1.4124;
390.6000;0.1726;-1.3973;
390.9000;0.1693;-1.4048;
391.2000;0.1693;-1.4098;
391.5000;0.1783;-1.3923;
391.8000;0.1677;-1.4224;
392.1000;0.1661;-1.4274;
392.4000;0.1669;-1.4224;
392.7000;0.1750;-1.4073;
393.0000;0.1693;-1.4249;
393.3000;0.1701;-1.4249;
393.6000;0.1718;-1.4274;
393.9000;0.1685;-1.4274;
394.2000;0.1571;-1.4525;
394.5000;0.1644;-1.4349;
394.8000;0.1709;-1.4349;
395.1000;0.1620;-1.4500;
395.4000;0.1685;-1.4349;
395.7000;0.1718;-1.4274;
396.0000;0.1693;-1.4349;
396.3000;0.1701;-1.4174;
396.6000;0.1661;-1.4224;
396.9000;0.1677;-1.4098;
397.2000;0.1693;-1.4073;
397.5000;0.1734;-1.3998;
397.8000;0.1726;-1.4149;
398.1000;0.1709;-1.4199;
398.4000;0.1677;-1.4249;
398.7000;0.1758;-1.4073;
399.0000;0.1693;-1.4299;
399.3000;0.1758;-1.4023;
399.6000;0.1718;-1.4098;
399.9000;0.1669;-1.4124;
400.2000;0.1742;-1.3998;
400.5000;0.1701;-1.4098;
400.8000;0.1709;-1.4098;
401.1000;0.1661;-1.4174;
401.4000;0.1693;-1.4023;
401.7000;0.1726;-1.4098;
402.0000;0.1685;-1.4124;
402.3000;0.1734;-1.4048;
402.6000;0.1652;-1.4299;
402.9000;0.1709;-1.4199;
403.2000;0.1644;-1.4299;
403.5000;0.1661;-1.4274;
403.8000;0.1701;-1.4249;
404.1000;0.1669;-1.4299;
404.4000;0.1709;-1.4124;
404.7000;0.1685;-1.4224;
405.0000;0.1709;-1.4224;
405.3000;0.1709;-1.4174;
405.6000;0.1685;-1.4124;
405.9000;0.1685;-1.4073;
406.2000;0.1709;-1.3973;
406.5000;0.1742;-1.3848;
406.8000;0.1677;-1.4023;
407.1000;0.1701;-1.4023;
407.4000;0.1693;-1.4073;
407.7000;0.1726;-1.3923;
408.0000;0.1799;-1.3697;
408.3000;0.1701;-1.3998;
408.6000;0.1734;-1.3973;
408.9000;0.1693;-1.4098;
409.2000;0.1709;-1.4124;
409.5000;0.1685;-1.4199;
409.8000;0.1701;-1.4149;
410.1000;0.1661;-1.4249;
410.4000;0.1701;-1.4149;
410.7000;0.1685;-1.4174;
411.0000;0.1612;-1.4525;
411.3000;0.1742;-1.4299;
411.6000;0.1693;-1.4349;
411.9000;0.1685;-1.4349;
412.2000;0.1766;-1.4149;
412.5000;0.1652;-1.4374;
412.8000;0.1709;-1.4199;
413.1000;0.1685;-1.4249;
413.4000;0.1693;-1.4224;
413.7000;0.1701;-1.4224;
414.0000;0.1693;-1.4249;
414.3000;0.1718;-1.4199;
414.6000;0.1718;-1.4199;
414.9000;0.1685;-1.4149;
415.2000;0.1709;-1.4149;
415.5000;0.1677;-1.4224;
415.8000;0.1677;-1.4274;
416.1000;0.1677;-1.4274;
416.4000;0.1701;-1.4199;
416.7000;0.1693;-1.4299;
417.0000;0.1718;-1.4299;
417.3000;0.1718;-1.4274;
417.6000;0.1693;-1.4324;
417.9000;0.1701;-1.4199;
418.2000;0.1815;-1.3948;
418.5000;0.1677;-1.4274;
418.8000;0.1628;-1.4299;
419.1000;0.1652;-1.4349;
419.4000;0.1677;-1.4299;
419.7000;0.1709;-1.4324;
420.0000;0.1709;-1.4299;
420.3000;0.1709;-1.4224;
420.6000;0.1709;-1.4299;
420.9000;0.1652;-1.4425;
421.2000;0.1669;-1.4374;
421.5000;0.1701;-1.4400;
421.8000;0.1718;-1.4450;
422.1000;0.1685;-1.4625;
422.4000;0.1661;-1.4675;
422.7000;0.1685;-1.4575;
423.0000;0.1734;-1.4500;
423.3000;0.1693;-1.4625;
423.6000;0.1677;-1.4675;
423.9000;0.1669;-1.4650;
424.2000;0.1701;-1.4425;
424.5000;0.1726;-1.4374;
424.8000;0.1677;-1.4450;
425.1000;0.1652;-1.4550;
425.4000;0.1685;-1.4500;
425.7000;0.1701;-1.4400;
426.0000;0.1693;-1.4425;
426.3000;0.1693;-1.4500;
426.6000;0.1709;-1.4425;
426.9000;0.1693;-1.4400;
427.2000;0.1701;-1.4349;
427.5000;0.1701;-1.4450;
427.8000;0.1677;-1.4575;
428.1000;0.1693;-1.4475;
428.4000;0.1701;-1.4400;
428.7000;0.1734;-1.4299;
429.0000;0.1685;-1.4400;
429.3000;0.1734;-1.4374;
429.6000;0.1677;-1.4475;
429.9000;0.1677;-1.4450;
430.2000;0.1661;-1.4450;
430.5000;0.1677;-1.4400;
430.8000;0.1677;-1.4374;
431.1000;0.1701;-1.4324;
431.4000;0.1669;-1.4425;
431.7000;0.1677;-1.4400;
432.0000;0.1685;-1.4425;
432.3000;0.1677;-1.4450;
432.6000;0.1685;-1.4550;
432.9000;0.1677;-1.4525;
433.2000;0.1701;-1.4500;
433.5000;0.1701;-1.4550;
433.8000;0.1644;-1.4675;
434.1000;0.1709;-1.4500;
434.4000;0.1701;-1.4500;
434.7000;0.1669;-1.4575;
435.0000;0.1685;-1.4550;
435.3000;0.1669;-1.4525;
435.6000;0.1661;-1.4575;
435.9000;0.1693;-1.4450;
436.2000;0.1734;-1.4299;
436.5000;0.1685;-1.4274;
436.8000;0.1693;-1.4299;
437.1000;0.1709;-1.4299;
437.4000;0.1693;-1.4324;
437.7000;0.1709;-1.4274;
438.0000;0.1587;-1.4625;
438.3000;0.1701;-1.4374;
438.6000;0.1701;-1.4324;
438.9000;0.1726;-1.4249;
439.2000;0.1693;-1.4324;
439.5000;0.1693;-1.4199;
439.8000;0.1685;-1.4224;
440.1000;0.1693;-1.4324;
440.4000;0.1693;-1.4400;
440.7000;0.1677;-1.4450;
441.0000;0.1661;-1.4475;
441.3000;0.1685;-1.4475;
441.6000;0.1652;-1.4500;
441.9000;0.1693;-1.4425;
442.2000;0.1669;-1.4425;
442.5000;0.1661;-1.4525;
442.8000;0.1644;-1.4625;
443.1000;0.1677;-1.4450;
443.4000;0.1709;-1.4425;
443.7000;0.1709;-1.4400;
444.0000;0.1644;-1.4600;
444.3000;0.1693;-1.4374;
444.6000;0.1677;-1.4349;
444.9000;0.1726;-1.4249;
445.2000;0.1669;-1.4274;
445.5000;0.1661;-1.4450;
445.8000;0.1685;-1.4400;
446.1000;0.1685;-1.4349;
446.4000;0.1685;-1.4425;
446.7000;0.1701;-1.4374;
447.0000;0.1685;-1.4324;
447.3000;0.1701;-1.4299;
447.6000;0.1669;-1.4299;
447.9000;0.1693;-1.4249;
448.2000;0.1685;-1.4224;
448.5000;0.1677;-1.4299;
448.8000;0.1685;-1.4349;
449.1000;0.1677;-1.4400;
449.4000;0.1685;-1.4450;
449.7000;0.1701;-1.4349;
450.0000;0.1709;-1.4299;
450.3000;0.1669;-1.4425;
450.6000;0.1677;-1.4500;
450.9000;0.1669;-1.4475;
451.2000;0.1685;-1.4425;
451.5000;0.1669;-1.4425;
451.8000;0.1685;-1.4349;
452.1000;0.1677;-1.4400;
452.4000;0.1693;-1.4425;
452.7000;0.1669;-1.4600;
453.0000;0.1677;-1.4475;
453.3000;0.1677;-1.4500;
453.6000;0.1693;-1.4525;
453.9000;0.1669;-1.4575;
454.2000;0.1685;-1.4550;
454.5000;0.1693;-1.4550;
454.8000;0.1685;-1.4475;
455.1000;0.1693;-1.4374;
455.4000;0.1677;-1.4374;
455.7000;0.1677;-1.4324;
456.0000;0.1677;-1.4274;
456.3000;0.1669;-1.4349;
456.6000;0.1661;-1.4374;
456.9000;0.1669;-1.4324;
457.2000;0.1669;-1.4400;
457.5000;0.1661;-1.4425;
457.8000;0.1734;-1.4224;
458.1000;0.1701;-1.4400;
458.4000;0.1685;-1.4324;
458.7000;0.1693;-1.4324;
459.0000;0.1685;-1.4249;
459.3000;0.1669;-1.4400;
459.6000;0.1685;-1.4349;
459.9000;0.1685;-1.4324;
460.2000;0.1693;-1.4274;
460.5000;0.1685;-1.4324;
460.8000;0.1669;-1.4274;
461.1000;0.1669;-1.4249;
461.4000;0.1669;-1.4299;
461.7000;0.1644;-1.4475;
462.0000;0.1685;-1.4349;
462.3000;0.1677;-1.4349;
462.6000;0.1685;-1.4299;
462.9000;0.1685;-1.4274;
463.2000;0.1677;-1.4349;
463.5000;0.1685;-1.4349;
463.8000;0.1693;-1.4299;
464.1000;0.1701;-1.4374;
464.4000;0.1685;-1.4450;
464.7000;0.1685;-1.4450;
465.0000;0.1669;-1.4450;
465.3000;0.1677;-1.4324;
465.6000;0.1685;-1.4324;
465.9000;0.1636;-1.4450;
466.2000;0.1677;-1.4224;
466.5000;0.1685;-1.4174;
466.8000;0.1685;-1.4174;
467.1000;0.1693;-1.4199;
467.4000;0.1709;-1.4199;
467.7000;0.1693;-1.4124;
468.0000;0.1677;-1.4149;
468.3000;0.1685;-1.4249;
468.6000;0.1685;-1.4324;
468.9000;0.1701;-1.4299;
469.2000;0.1677;-1.4400;
469.5000;0.1693;-1.4324;
469.8000;0.1677;-1.4349;
470.1000;0.1693;-1.4324;
470.4000;0.1677;-1.4400;
470.7000;0.1661;-1.4425;
471.0000;0.1677;-1.4425;
471.3000;0.1709;-1.4274;
471.6000;0.1701;-1.4224;
471.9000;0.1661;-1.4249;
472.2000;0.1677;-1.4249;
472.5000;0.1685;-1.4174;
472.8000;0.1693;-1.4048;
473.1000;0.1709;-1.3948;
473.4000;0.1701;-1.4048;
473.7000;0.1693;-1.4073;
474.0000;0.1709;-1.4048;
474.3000;0.1604;-1.4400;
474.6000;0.1677;-1.4249;
474.9000;0.1693;-1.4174;
475.2000;0.1693;-1.4224;
475.5000;0.1685;-1.4174;
475.8000;0.1677;-1.4098;
476.1000;0.1685;-1.4174;
476.4000;0.1685;-1.4149;
476.7000;0.1685;-1.4174;
477.0000;0.1669;-1.4174;
477.3000;0.1661;-1.4149;
477.6000;0.1677;-1.4149;
477.9000;0.1669;-1.4149;
478.2000;0.1677;-1.4124;
478.5000;0.1669;-1.4124;
478.8000;0.1685;-1.4098;
479.1000;0.1693;-1.4073;
479.4000;0.1693;-1.4073;
479.7000;0.1677;-1.4098;
480.0000;0.1677;-1.4149;
480.3000;0.1693;-1.4124;
480.6000;0.1685;-1.4098;
480.9000;0.1701;-1.4048;
481.2000;0.1669;-1.4098;
481.5000;0.1669;-1.4048;
481.8000;0.1685;-1.4048;
482.1000;0.1693;-1.4023;
482.4000;0.1661;-1.4048;
482.7000;0.1693;-1.3998;
483.0000;0.1685;-1.3998;
483.3000;0.1693;-1.4098;
483.6000;0.1685;-1.4149;
483.9000;0.1709;-1.4124;
484.2000;0.1693;-1.4098;
484.5000;0.1685;-1.4023;
484.8000;0.1685;-1.4048;
485.1000;0.1685;-1.4073;
485.4000;0.1685;-1.4098;
485.7000;0.1677;-1.4124;
486.0000;0.1693;-1.4098;
486.3000;0.1693;-1.4098;
486.6000;0.1685;-1.4149;
486.9000;0.1685;-1.4174;
487.2000;0.1604;-1.4425;
487.5000;0.1677;-1.4174;
487.8000;0.1685;-1.4098;
488.1000;0.1693;-1.4023;
488.4000;0.1693;-1.4023;
488.7000;0.1677;-1.4048;
489.0000;0.1685;-1.4098;
489.3000;0.1685;-1.4124;
489.6000;0.1661;-1.4124;
489.9000;0.1652;-1.4124;
490.2000;0.1669;-1.4048;
490.5000;0.1620;-1.4199;
490.8000;0.1677;-1.4048;
491.1000;0.1693;-1.3948;
491.4000;0.1661;-1.4073;
491.7000;0.1661;-1.4023;
492.0000;0.1677;-1.3998;
492.3000;0.1644;-1.4048;
492.6000;0.1669;-1.4124;
492.9000;0.1677;-1.4098;
493.2000;0.1612;-1.4299;
493.5000;0.1685;-1.4174;
493.8000;0.1685;-1.4149;
494.1000;0.1661;-1.4249;
494.4000;0.1669;-1.4249;
494.7000;0.1669;-1.4224;
495.0000;0.1685;-1.4174;
495.3000;0.1677;-1.4124;
495.6000;0.1693;-1.4098;
495.9000;0.1677;-1.4174;
496.2000;0.1677;-1.4224;
496.5000;0.1644;-1.4274;
496.8000;0.1677;-1.4149;
497.1000;0.1685;-1.4224;
497.4000;0.1766;-1.3948;
497.7000;0.1701;-1.4124;
498.0000;0.1669;-1.4098;
498.3000;0.1669;-1.4073;
498.6000;0.1766;-1.3873;
498.9000;0.1669;-1.4124;
499.2000;0.1701;-1.4098;
499.5000;0.1709;-1.4073;
499.8000;0.1677;-1.4048;
500.1000;0.1669;-1.4073;
500.4000;0.1693;-1.4023;
500.7000;0.1669;-1.4048;
501.0000;0.1685;-1.4073;
501.3000;0.1677;-1.4073;
501.6000;0.1693;-1.4023;
501.9000;0.1677;-1.3998;
502.2000;0.1693;-1.3998;
502.5000;0.1669;-1.4023;
502.8000;0.1685;-1.3923;
503.1000;0.1677;-1.3898;
503.4000;0.1677;-1.3923;
503.7000;0.1685;-1.3948;
504.0000;0.1693;-1.3973;
504.3000;0.1677;-1.4023;
504.6000;0.1807;-1.3572;
504.9000;0.1685;-1.3873;
505.2000;0.1685;-1.3948;
505.5000;0.1709;-1.3797;
505.8000;0.1677;-1.3898;
506.1000;0.1685;-1.3772;
506.4000;0.1636;-1.3923;
506.7000;0.1685;-1.3823;
507.0000;0.1693;-1.3848;
507.3000;0.1709;-1.3848;
507.6000;0.1709;-1.3898;
507.9000;0.1685;-1.3923;
508.2000;0.1677;-1.4048;
508.5000;0.1661;-1.4149;
508.8000;0.1685;-1.4124;
509.1000;0.1718;-1.4073;
509.4000;0.1693;-1.4124;
509.7000;0.1685;-1.4124;
510.0000;0.1669;-1.4124;
510.3000;0.1652;-1.4149;
510.6000;0.1701;-1.3948;
510.9000;0.1685;-1.4023;
511.2000;0.1644;-1.4073;
511.5000;0.1709;-1.3898;
511.8000;0.1750;-1.3823;
512.1000;0.1677;-1.4149;
512.4000;0.1652;-1.4224;
512.7000;0.1636;-1.4274;
513.0000;0.1644;-1.4249;
513.3000;0.1685;-1.4224;
513.6000;0.1701;-1.4249;
513.9000;0.1669;-1.4274;
514.2000;0.1685;-1.4274;
514.5000;0.1709;-1.4124;
514.8000;0.1693;-1.4199;
515.1000;0.1693;-1.4199;
515.4000;0.1685;-1.4249;
515.7000;0.1677;-1.4224;
516.0000;0.1644;-1.4249;
516.3000;0.1685;-1.4124;
516.6000;0.1669;-1.4098;
516.9000;0.1620;-1.4224;
517.2000;0.1742;-1.3923;
517.5000;0.1718;-1.3948;
517.8000;0.1685;-1.4073;
518.1000;0.1693;-1.4073;
518.4000;0.1693;-1.4048;
518.7000;0.1628;-1.4249;
519.0000;0.1726;-1.4098;
519.3000;0.1661;-1.4274;
519.6000;0.1742;-1.4073;
519.9000;0.1766;-1.3948;
520.2000;0.1620;-1.4349;
520.5000;0.1685;-1.4149;
520.8000;0.1693;-1.4098;
521.1000;0.1709;-1.4023;
521.4000;0.1701;-1.4048;
521.7000;0.1669;-1.4174;
522.0000;0.1677;-1.4124;
522.3000;0.1685;-1.4073;
522.6000;0.1652;-1.4199;
522.9000;0.1685;-1.4274;
523.2000;0.1685;-1.4199;
523.5000;0.1701;-1.4124;
523.8000;0.1685;-1.4149;
524.1000;0.1677;-1.4149;
524.4000;0.1685;-1.4149;
524.7000;0.1661;-1.4249;
525.0000;0.1685;-1.4199;
525.3000;0.1832;-1.3823;
525.6000;0.1677;-1.4073;
525.9000;0.1677;-1.4023;
526.2000;0.1685;-1.3998;
526.5000;0.1636;-1.4149;
526.8000;0.1669;-1.3948;
527.1000;0.1652;-1.3948;
527.4000;0.1677;-1.3923;
527.7000;0.1742;-1.3722;
528.0000;0.1677;-1.4023;
528.3000;0.1685;-1.4048;
528.6000;0.1677;-1.4098;
528.9000;0.1685;-1.4098;
529.2000;0.1750;-1.3898;
529.5000;0.1636;-1.4199;
529.8000;0.1677;-1.4073;
530.1000;0.1750;-1.3923;
530.4000;0.1693;-1.4098;
530.7000;0.1652;-1.4098;
531.0000;0.1701;-1.3948;
531.3000;0.1709;-1.3923;
531.6000;0.1709;-1.3948;
531.9000;0.1685;-1.4073;
532.2000;0.1685;-1.4023;
532.5000;0.1685;-1.4023;
532.8000;0.1701;-1.4048;
533.1000;0.1693;-1.4023;
533.4000;0.1677;-1.4098;
533.7000;0.1661;-1.4174;
534.0000;0.1677;-1.4098;
534.3000;0.1734;-1.3873;
534.6000;0.1750;-1.3873;
534.9000;0.1701;-1.3973;
535.2000;0.1685;-1.3973;
535.5000;0.1685;-1.3998;
535.8000;0.1652;-1.4149;
536.1000;0.1693;-1.4023;
536.4000;0.1685;-1.4048;
536.7000;0.1709;-1.3973;
537.0000;0.1669;-1.4098;
537.3000;0.1677;-1.4023;
537.6000;0.1628;-1.4199;
537.9000;0.1669;-1.4073;
538.2000;0.1661;-1.4073;
538.5000;0.1693;-1.3973;
538.8000;0.1652;-1.4023;
539.1000;0.1628;-1.4149;
539.4000;0.1669;-1.4149;
539.7000;0.1677;-1.4149;
540.0000;0.1693;-1.4023;
540.3000;0.1661;-1.4023;
540.6000;0.1677;-1.4073;
540.9000;0.1693;-1.4048;
541.2000;0.1636;-1.4199;
541.5000;0.1693;-1.4048;
541.8000;0.1677;-1.4149;
542.1000;0.1677;-1.4249;
542.4000;0.1661;-1.4299;
542.7000;0.1628;-1.4400;
543.0000;0.1652;-1.4249;
543.3000;0.1685;-1.4124;
543.6000;0.1718;-1.4098;
543.9000;0.1669;-1.4149;
544.2000;0.1807;-1.3722;
544.5000;0.1685;-1.4149;
544.8000;0.1652;-1.4324;
545.1000;0.1750;-1.4073;
545.4000;0.1693;-1.4199;
545.7000;0.1758;-1.3973;
546.0000;0.1685;-1.4023;
546.3000;0.1669;-1.4048;
546.6000;0.1661;-1.4124;
546.9000;0.1685;-1.4048;
547.2000;0.1644;-1.4199;
547.5000;0.1693;-1.4073;
547.8000;0.1701;-1.4098;
548.1000;0.1701;-1.4124;
548.4000;0.1685;-1.4149;
548.7000;0.1701;-1.4048;
549.0000;0.1661;-1.4174;
549.3000;0.1718;-1.4149;
549.6000;0.1685;-1.4174;
549.9000;0.1701;-1.4124;
550.2000;0.1701;-1.4048;
550.5000;0.1701;-1.4048;
550.8000;0.1709;-1.3998;
551.1000;0.1718;-1.4048;
551.4000;0.1669;-1.4124;
551.7000;0.1677;-1.4124;
552.0000;0.1677;-1.4124;
552.3000;0.1644;-1.4224;
552.6000;0.1685;-1.4149;
552.9000;0.1677;-1.4249;
553.2000;0.1685;-1.4149;
553.5000;0.1669;-1.4174;
553.8000;0.1693;-1.4199;
554.1000;0.1685;-1.4174;
554.4000;0.1685;-1.4098;
554.7000;0.1677;-1.4124;
555.0000;0.1652;-1.4149;
555.3000;0.1661;-1.4149;
555.6000;0.1669;-1.4149;
555.9000;0.1693;-1.4098;
556.2000;0.1701;-1.4149;
556.5000;0.1677;-1.4199;
556.8000;0.1701;-1.4124;
557.1000;0.1685;-1.4124;
557.4000;0.1701;-1.4098;
557.7000;0.1677;-1.4174;
558.0000;0.1620;-1.4324;
558.3000;0.1701;-1.4048;
558.6000;0.1685;-1.4149;
558.9000;0.1693;-1.4149;
559.2000;0.1685;-1.4249;
559.5000;0.1677;-1.4224;
559.8000;0.1669;-1.4224;
560.1000;0.1628;-1.4299;
560.4000;0.1685;-1.4224;
560.7000;0.1685;-1.4124;
561.0000;0.1661;-1.4174;
561.3000;0.1677;-1.4098;
561.6000;0.1669;-1.4149;
561.9000;0.1677;-1.4149;
562.2000;0.1652;-1.4224;
562.5000;0.1661;-1.4224;
562.8000;0.1661;-1.4174;
563.1000;0.1685;-1.4149;
563.4000;0.1669;-1.4224;
563.7000;0.1669;-1.4249;
564.0000;0.1685;-1.4249;
564.3000;0.1685;-1.4224;
564.6000;0.1669;-1.4249;
564.9000;0.1669;-1.4224;
565.2000;0.1652;-1.4199;
565.5000;0.1685;-1.4098;
565.8000;0.1677;-1.4124;
566.1000;0.1669;-1.4174;
566.4000;0.1693;-1.4174;
566.7000;0.1595;-1.4425;
567.0000;0.1685;-1.4249;
567.3000;0.1661;-1.4374;
567.6000;0.1685;-1.4374;
567.9000;0.1669;-1.4374;
568.2000;0.1685;-1.4274;
568.5000;0.1685;-1.4249;
568.8000;0.1685;-1.4349;
569.1000;0.1693;-1.4249;
569.4000;0.1693;-1.4299;
569.7000;0.1693;-1.4274;
570.0000;0.1685;-1.4299;
570.3000;0.1669;-1.4349;
570.6000;0.1693;-1.4199;
570.9000;0.1669;-1.4274;
571.2000;0.1661;-1.4324;
571.5000;0.1677;-1.4349;
571.8000;0.1685;-1.4324;
572.1000;0.1677;-1.4249;
572.4000;0.1685;-1.4174;
572.7000;0.1677;-1.4199;
573.0000;0.1685;-1.4174;
573.3000;0.1701;-1.4124;
573.6000;0.1685;-1.4224;
573.9000;0.1661;-1.4274;
574.2000;0.1677;-1.4349;
574.5000;0.1799;-1.4023;
574.8000;0.1701;-1.4274;
575.1000;0.1677;-1.4374;
575.4000;0.1701;-1.4374;
575.7000;0.1701;-1.4374;
576.0000;0.1693;-1.4400;
576.3000;0.1669;-1.4475;
576.6000;0.1726;-1.4299;
576.9000;0.1677;-1.4400;
577.2000;0.1669;-1.4349;
577.5000;0.1685;-1.4349;
577.8000;0.1693;-1.4324;
578.1000;0.1612;-1.4575;
578.4000;0.1685;-1.4324;
578.7000;0.1677;-1.4299;
579.0000;0.1693;-1.4274;
579.3000;0.1685;-1.4299;
579.6000;0.1701;-1.4199;
579.9000;0.1677;-1.4149;
580.2000;0.1669;-1.4224;
580.5000;0.1693;-1.4199;
580.8000;0.1709;-1.4149;
581.1000;0.1677;-1.4199;
581.4000;0.1677;-1.4224;
581.7000;0.1669;-1.4324;
582.0000;0.1685;-1.4299;
582.3000;0.1661;-1.4324;
582.6000;0.1677;-1.4249;
582.9000;0.1677;-1.4249;
583.2000;0.1693;-1.4249;
583.5000;0.1685;-1.4274;
583.8000;0.1669;-1.4224;
584.1000;0.1685;-1.4124;
584.4000;0.1693;-1.4224;
584.7000;0.1693;-1.4199;
585.0000;0.1693;-1.4349;
585.3000;0.1685;-1.4349;
585.6000;0.1685;-1.4274;
585.9000;0.1677;-1.4324;
586.2000;0.1669;-1.4374;
586.5000;0.1677;-1.4324;
586.8000;0.1677;-1.4324;
587.1000;0.1693;-1.4224;
587.4000;0.1685;-1.4249;
587.7000;0.1685;-1.4224;
588.0000;0.1669;-1.4224;
588.3000;0.1685;-1.4299;
588.6000;0.1685;-1.4349;
588.9000;0.1652;-1.4500;
589.2000;0.1685;-1.4274;
589.5000;0.1677;-1.4249;
589.8000;0.1685;-1.4249;
590.1000;0.1750;-1.4023;
590.4000;0.1685;-1.4299;
590.7000;0.1677;-1.4299;
591.0000;0.1685;-1.4249;
591.3000;0.1669;-1.4224;
591.6000;0.1652;-1.4224;
591.9000;0.1685;-1.4174;
592.2000;0.1661;-1.4124;
592.5000;0.1661;-1.4224;
592.8000;0.1677;-1.4174;
593.1000;0.1669;-1.4199;
593.4000;0.1693;-1.4199;
593.7000;0.1693;-1.4224;
594.0000;0.1685;-1.4274;
594.3000;0.1677;-1.4299;
594.6000;0.1685;-1.4224;
594.9000;0.1669;-1.4249;
595.2000;0.1677;-1.4199;
595.5000;0.1685;-1.4149;
595.8000;0.1685;-1.4098;
596.1000;0.1677;-1.4098;
596.4000;0.1644;-1.4199;
596.7000;0.1661;-1.4149;
597.0000;0.1677;-1.4199;
597.3000;0.1677;-1.4224;
597.6000;0.1791;-1.3898;
597.9000;0.1685;-1.4199;
598.2000;0.1669;-1.4274;
598.5000;0.1685;-1.4199;
598.8000;0.1677;-1.4224;
599.1000;0.1677;-1.4274;
599.4000;0.1677;-1.4249;
599.7000;0.1669;-1.4174;
600.0000;0.1685;-1.4199;
600.3000;0.1677;-1.4199;
600.6000;0.1652;-1.4299;
600.9000;0.1644;-1.4500;
601.2000;0.1636;-1.4575;
601.5000;0.1612;-1.4851;
601.8000;0.1612;-1.4926;
602.1000;0.1612;-1.5077;
602.4000;0.1612;-1.5303;
602.7000;0.1579;-1.5604;
603.0000;0.1571;-1.5829;
603.3000;0.1636;-1.5729;
603.6000;0.1571;-1.5905;
603.9000;0.1571;-1.5880;
604.2000;0.1547;-1.6030;
604.5000;0.1547;-1.6156;
604.8000;0.1538;-1.6281;
605.1000;0.1547;-1.6381;
605.4000;0.1579;-1.6406;
605.7000;0.1514;-1.6607;
606.0000;0.1530;-1.6657;
606.3000;0.1530;-1.6582;
606.6000;0.1522;-1.6657;
606.9000;0.1506;-1.6707;
607.2000;0.1498;-1.6833;
607.5000;0.1514;-1.6783;
607.8000;0.1506;-1.6808;
608.1000;0.1506;-1.6908;
608.4000;0.1481;-1.6958;
608.7000;0.1514;-1.6833;
609.0000;0.1522;-1.6733;
609.3000;0.1522;-1.6733;
609.6000;0.1506;-1.6783;
609.9000;0.1498;-1.6858;
610.2000;0.1530;-1.6883;
610.5000;0.1433;-1.7134;
610.8000;0.1498;-1.6958;
611.1000;0.1547;-1.6808;
611.4000;0.1538;-1.6883;
611.7000;0.1481;-1.7034;
612.0000;0.1481;-1.7034;
612.3000;0.1473;-1.7109;
612.6000;0.1481;-1.7059;
612.9000;0.1498;-1.7084;
613.2000;0.1490;-1.7059;
613.5000;0.1465;-1.7134;
613.8000;0.1498;-1.6983;
614.1000;0.1522;-1.6858;
614.4000;0.1506;-1.6908;
614.7000;0.1481;-1.6883;
615.0000;0.1490;-1.6908;
615.3000;0.1514;-1.6908;
615.6000;0.1498;-1.7034;
615.9000;0.1490;-1.7184;
616.2000;0.1490;-1.7184;
616.5000;0.1368;-1.7460;
616.8000;0.1481;-1.7159;
617.1000;0.1490;-1.7109;
617.4000;0.1449;-1.7159;
617.7000;0.1490;-1.7059;
618.0000;0.1465;-1.7084;
618.3000;0.1490;-1.6958;
618.6000;0.1473;-1.7084;
618.9000;0.1506;-1.7008;
619.2000;0.1498;-1.6983;
619.5000;0.1481;-1.7008;
619.8000;0.1498;-1.7034;
620.1000;0.1481;-1.7008;
620.4000;0.1481;-1.7109;
620.7000;0.1473;-1.7059;
621.0000;0.1490;-1.6983;
621.3000;0.1465;-1.7008;
621.6000;0.1490;-1.7008;
621.9000;0.1481;-1.7134;
622.2000;0.1465;-1.7209;
622.5000;0.1506;-1.7134;
622.8000;0.1481;-1.7310;
623.1000;0.1465;-1.7310;
623.4000;0.1473;-1.7209;
623.7000;0.1449;-1.7209;
624.0000;0.1530;-1.7159;
624.3000;0.1465;-1.7234;
624.6000;0.1490;-1.7259;
624.9000;0.1481;-1.7234;
625.2000;0.1473;-1.7184;
625.5000;0.1506;-1.7109;
625.8000;0.1506;-1.7059;
626.1000;0.1433;-1.7234;
626.4000;0.1457;-1.7159;
626.7000;0.1457;-1.7134;
627.0000;0.1490;-1.7134;
627.3000;0.1465;-1.7159;
627.6000;0.1473;-1.7109;
627.9000;0.1498;-1.7008;
628.2000;0.1465;-1.7159;
628.5000;0.1473;-1.7209;
628.8000;0.1481;-1.7234;
629.1000;0.1490;-1.7159;
629.4000;0.1498;-1.7184;
629.7000;0.1490;-1.7184;
630.0000;0.1490;-1.7209;
630.3000;0.1538;-1.7034;
630.6000;0.1498;-1.7084;
630.9000;0.1473;-1.7084;
631.2000;0.1506;-1.7134;
631.5000;0.1384;-1.7560;
631.8000;0.1465;-1.7234;
632.1000;0.1514;-1.7059;
632.4000;0.1490;-1.7209;
632.7000;0.1498;-1.7209;
633.0000;0.1449;-1.7184;
633.3000;0.1522;-1.7008;
633.6000;0.1563;-1.6883;
633.9000;0.1490;-1.7059;
634.2000;0.1490;-1.7134;
634.5000;0.1481;-1.7134;
634.8000;0.1473;-1.7159;
635.1000;0.1481;-1.7184;
635.4000;0.1481;-1.7184;
635.7000;0.1490;-1.7109;
636.0000;0.1498;-1.7109;
636.3000;0.1433;-1.7335;
636.6000;0.1506;-1.7209;
636.9000;0.1473;-1.7335;
637.2000;0.1481;-1.7259;
637.5000;0.1465;-1.7234;
637.8000;0.1579;-1.6958;
638.1000;0.1473;-1.7259;
638.4000;0.1473;-1.7259;
638.7000;0.1498;-1.7259;
639.0000;0.1498;-1.7310;
639.3000;0.1506;-1.7184;
639.6000;0.1498;-1.7159;
639.9000;0.1481;-1.7134;
640.2000;0.1547;-1.6958;
640.5000;0.1506;-1.6983;
640.8000;0.1457;-1.7109;
641.1000;0.1473;-1.7034;
641.4000;0.1481;-1.7008;
641.7000;0.1547;-1.6833;
642.0000;0.1490;-1.6958;
642.3000;0.1473;-1.7034;
642.6000;0.1473;-1.7059;
642.9000;0.1449;-1.7109;
643.2000;0.1481;-1.6958;
643.5000;0.1465;-1.7034;
643.8000;0.1449;-1.7084;
644.1000;0.1481;-1.7084;
644.4000;0.1473;-1.7084;
644.7000;0.1441;-1.7184;
645.0000;0.1481;-1.7159;
645.3000;0.1481;-1.7159;
645.6000;0.1473;-1.7134;
645.9000;0.1481;-1.7109;
646.2000;0.1433;-1.7184;
646.5000;0.1465;-1.7209;
646.8000;0.1473;-1.7234;
647.1000;0.1498;-1.7134;
647.4000;0.1457;-1.7109;
647.7000;0.1433;-1.7134;
648.0000;0.1465;-1.7159;
648.3000;0.1481;-1.7109;
648.6000;0.1498;-1.7109;
648.9000;0.1465;-1.7234;
649.2000;0.1457;-1.7259;
649.5000;0.1457;-1.7159;
649.8000;0.1490;-1.7034;
650.1000;0.1457;-1.7109;
650.4000;0.1473;-1.7109;
650.7000;0.1481;-1.7209;
651.0000;0.1457;-1.7259;
651.3000;0.1465;-1.7259;
651.6000;0.1457;-1.7310;
651.9000;0.1473;-1.7360;
652.2000;0.1490;-1.7360;
652.5000;0.1473;-1.7435;
652.8000;0.1465;-1.7410;
653.1000;0.1587;-1.7059;
653.4000;0.1457;-1.7385;
653.7000;0.1457;-1.7385;
654.0000;0.1481;-1.7460;
654.3000;0.1473;-1.7485;
654.6000;0.1481;-1.7485;
654.9000;0.1473;-1.7510;
655.2000;0.1490;-1.7510;
655.5000;0.1481;-1.7535;
655.8000;0.1465;-1.7510;
656.1000;0.1481;-1.7485;
656.4000;0.1481;-1.7460;
656.7000;0.1465;-1.7410;
657.0000;0.1465;-1.7310;
657.3000;0.1441;-1.7410;
657.6000;0.1498;-1.7259;
657.9000;0.1457;-1.7385;
658.2000;0.1481;-1.7385;
658.5000;0.1490;-1.7410;
658.8000;0.1473;-1.7360;
659.1000;0.1490;-1.7259;
659.4000;0.1457;-1.7284;
659.7000;0.1481;-1.7234;
660.0000;0.1522;-1.7184;
660.3000;0.1514;-1.7259;
660.6000;0.1441;-1.7410;
660.9000;0.1473;-1.7335;
661.2000;0.1457;-1.7385;
661.5000;0.1473;-1.7360;
661.8000;0.1449;-1.7360;
662.1000;0.1457;-1.7335;
662.4000;0.1473;-1.7259;
662.7000;0.1457;-1.7310;
663.0000;0.1457;-1.7284;
663.3000;0.1481;-1.7159;
663.6000;0.1441;-1.7259;
663.9000;0.1473;-1.7209;
664.2000;0.1498;-1.7184;
664.5000;0.1498;-1.7284;
664.8000;0.1490;-1.7310;
665.1000;0.1481;-1.7385;
665.4000;0.1490;-1.7385;
665.7000;0.1490;-1.7360;
666.0000;0.1481;-1.7360;
666.3000;0.1465;-1.7410;
666.6000;0.1457;-1.7435;
666.9000;0.1481;-1.7360;
667.2000;0.1481;-1.7310;
667.5000;0.1481;-1.7284;
667.8000;0.1481;-1.7310;
668.1000;0.1433;-1.7385;
668.4000;0.1490;-1.7284;
668.7000;0.1465;-1.7310;
669.0000;0.1481;-1.7310;
669.3000;0.1449;-1.7335;
669.6000;0.1481;-1.7184;
669.9000;0.1465;-1.7234;
670.2000;0.1473;-1.7184;
670.5000;0.1457;-1.7184;
670.8000;0.1481;-1.7234;
671.1000;0.1449;-1.7385;
671.4000;0.1473;-1.7360;
671.7000;0.1481;-1.7259;
672.0000;0.1481;-1.7335;
672.3000;0.1473;-1.7360;
672.6000;0.1457;-1.7410;
672.9000;0.1433;-1.7435;
673.2000;0.1457;-1.7310;
673.5000;0.1490;-1.7159;
673.8000;0.1473;-1.7234;
674.1000;0.1490;-1.7284;
674.4000;0.1473;-1.7360;
674.7000;0.1465;-1.7385;
675.0000;0.1481;-1.7259;
675.3000;0.1481;-1.7234;
675.6000;0.1449;-1.7335;
675.9000;0.1481;-1.7310;
676.2000;0.1498;-1.7284;
676.5000;0.1465;-1.7335;
676.8000;0.1473;-1.7310;
677.1000;0.1465;-1.7335;
677.4000;0.1481;-1.7284;
677.7000;0.1473;-1.7234;
678.0000;0.1473;-1.7209;
678.3000;0.1473;-1.7209;
678.6000;0.1465;-1.7159;
678.9000;0.1457;-1.7234;
679.2000;0.1473;-1.7159;
679.5000;0.1465;-1.7159;
679.8000;0.1481;-1.7184;
680.1000;0.1481;-1.7360;
680.4000;0.1481;-1.7385;
680.7000;0.1481;-1.7435;
681.0000;0.1473;-1.7560;
681.3000;0.1473;-1.7510;
681.6000;0.1481;-1.7585;
681.9000;0.1481;-1.7535;
682.2000;0.1481;-1.7560;
682.5000;0.1473;-1.7585;
682.8000;0.1449;-1.7535;
683.1000;0.1473;-1.7435;
683.4000;0.1441;-1.7560;
683.7000;0.1465;-1.7485;
684.0000;0.1481;-1.7435;
684.3000;0.1473;-1.7385;
684.6000;0.1473;-1.7485;
684.9000;0.1465;-1.7485;
685.2000;0.1490;-1.7460;
685.5000;0.1449;-1.7510;
685.8000;0.1579;-1.7134;
686.1000;0.1498;-1.7360;
686.4000;0.1506;-1.7335;
686.7000;0.1473;-1.7410;
687.0000;0.1490;-1.7360;
687.3000;0.1490;-1.7385;
687.6000;0.1473;-1.7410;
687.9000;0.1465;-1.7310;
688.2000;0.1465;-1.7410;
688.5000;0.1465;-1.7435;
688.8000;0.1449;-1.7460;
689.1000;0.1457;-1.7485;
689.4000;0.1473;-1.7435;
689.7000;0.1465;-1.7510;
690.0000;0.1481;-1.7510;
690.3000;0.1498;-1.7460;
690.6000;0.1481;-1.7460;
690.9000;0.1465;-1.7585;
691.2000;0.1490;-1.7560;
691.5000;0.1465;-1.7560;
691.8000;0.1473;-1.7661;
692.1000;0.1481;-1.7585;
692.4000;0.1465;-1.7686;
692.7000;0.1473;-1.7611;
693.0000;0.1481;-1.7611;
693.3000;0.1473;-1.7661;
693.6000;0.1465;-1.7661;
693.9000;0.1449;-1.7636;
694.2000;0.1384;-1.7786;
694.5000;0.1457;-1.7485;
694.8000;0.1473;-1.7310;
695.1000;0.1473;-1.7435;
695.4000;0.1490;-1.7460;
695.7000;0.1481;-1.7485;
696.0000;0.1473;-1.7560;
696.3000;0.1465;-1.7535;
696.6000;0.1481;-1.7611;
696.9000;0.1490;-1.7611;
697.2000;0.1457;-1.7611;
697.5000;0.1481;-1.7535;
697.8000;0.1481;-1.7510;
698.1000;0.1465;-1.7535;
698.4000;0.1465;-1.7560;
698.7000;0.1473;-1.7560;
699.0000;0.1473;-1.7535;
699.3000;0.1490;-1.7460;
699.6000;0.1490;-1.7535;
699.9000;0.1481;-1.7585;
700.2000;0.1498;-1.7585;
700.5000;0.1490;-1.7611;
700.8000;0.1473;-1.7661;
701.1000;0.1481;-1.7611;
701.4000;0.1481;-1.7585;
701.7000;0.1473;-1.7535;
702.0000;0.1481;-1.7535;
702.3000;0.1481;-1.7611;
702.6000;0.1457;-1.7686;
702.9000;0.1481;-1.7686;
703.2000;0.1465;-1.7686;
703.5000;0.1457;-1.7636;
703.8000;0.1465;-1.7636;
704.1000;0.1481;-1.7661;
704.4000;0.1481;-1.7611;
704.7000;0.1473;-1.7585;
705.0000;0.1465;-1.7585;
705.3000;0.1481;-1.7535;
705.6000;0.1490;-1.7510;
705.9000;0.1490;-1.7535;
706.2000;0.1449;-1.7585;
706.5000;0.1473;-1.7636;
706.8000;0.1473;-1.7560;
707.1000;0.1481;-1.7510;
707.4000;0.1465;-1.7585;
707.7000;0.1481;-1.7611;
708.0000;0.1473;-1.7611;
708.3000;0.1473;-1.7560;
708.6000;0.1481;-1.7560;
708.9000;0.1481;-1.7560;
709.2000;0.1538;-1.7435;
709.5000;0.1473;-1.7611;
709.8000;0.1481;-1.7661;
710.1000;0.1465;-1.7736;
710.4000;0.1449;-1.7736;
710.7000;0.1473;-1.7761;
711.0000;0.1465;-1.7786;
711.3000;0.1473;-1.7811;
711.6000;0.1481;-1.7786;
711.9000;0.1465;-1.7912;
712.2000;0.1465;-1.7861;
712.5000;0.1465;-1.7811;
712.8000;0.1481;-1.7836;
713.1000;0.1465;-1.7937;
713.4000;0.1457;-1.7937;
713.7000;0.1457;-1.7937;
714.0000;0.1465;-1.7811;
714.3000;0.1473;-1.7811;
714.6000;0.1473;-1.7761;
714.9000;0.1457;-1.7761;
715.2000;0.1449;-1.7786;
715.5000;0.1481;-1.7636;
715.8000;0.1425;-1.7811;
716.1000;0.1449;-1.7736;
716.4000;0.1449;-1.7661;
716.7000;0.1465;-1.7711;
717.0000;0.1473;-1.7711;
717.3000;0.1473;-1.7836;
717.6000;0.1457;-1.7836;
717.9000;0.1481;-1.7736;
718.2000;0.1441;-1.7786;
718.5000;0.1465;-1.7761;
718.8000;0.1490;-1.7611;
719.1000;0.1473;-1.7611;
719.4000;0.1465;-1.7711;
719.7000;0.1473;-1.7736;
720.0000;0.1498;-1.7711;
720.3000;0.1441;-1.7686;
720.6000;0.1490;-1.7585;
720.9000;0.1433;-1.7761;
721.2000;0.1490;-1.7611;
721.5000;0.1457;-1.7636;
721.8000;0.1498;-1.7560;
722.1000;0.1538;-1.7510;
722.4000;0.1481;-1.7535;
722.7000;0.1481;-1.7636;
723.0000;0.1473;-1.7711;
723.3000;0.1465;-1.7711;
723.6000;0.1481;-1.7786;
723.9000;0.1441;-1.7887;
724.2000;0.1473;-1.7887;
724.5000;0.1457;-1.7761;
724.8000;0.1481;-1.7711;
725.1000;0.1473;-1.7736;
725.4000;0.1506;-1.7611;
725.7000;0.1473;-1.7661;
726.0000;0.1433;-1.7611;
726.3000;0.1441;-1.7661;
726.6000;0.1473;-1.7510;
726.9000;0.1481;-1.7535;
727.2000;0.1465;-1.7611;
727.5000;0.1473;-1.7611;
727.8000;0.1481;-1.7560;
728.1000;0.1465;-1.7535;
728.4000;0.1457;-1.7510;
728.7000;0.1441;-1.7611;
729.0000;0.1514;-1.7435;
729.3000;0.1490;-1.7560;
729.6000;0.1481;-1.7661;
729.9000;0.1481;-1.7686;
730.2000;0.1522;-1.7585;
730.5000;0.1433;-1.7736;
730.8000;0.1473;-1.7611;
731.1000;0.1441;-1.7686;
731.4000;0.1384;-1.7836;
731.7000;0.1481;-1.7661;
732.0000;0.1490;-1.7661;
732.3000;0.1506;-1.7711;
732.6000;0.1481;-1.7786;
732.9000;0.1465;-1.7761;
733.2000;0.1514;-1.7661;
733.5000;0.1481;-1.7786;
733.8000;0.1473;-1.7736;
734.1000;0.1555;-1.7560;
734.4000;0.1441;-1.7786;
734.7000;0.1490;-1.7636;
735.0000;0.1473;-1.7585;
735.3000;0.1498;-1.7560;
735.6000;0.1465;-1.7611;
735.9000;0.1481;-1.7510;
736.2000;0.1473;-1.7560;
736.5000;0.1465;-1.7661;
736.8000;0.1441;-1.7686;
737.1000;0.1473;-1.7636;
737.4000;0.1481;-1.7611;
737.7000;0.1481;-1.7636;
738.0000;0.1449;-1.7711;
738.3000;0.1449;-1.7711;
738.6000;0.1457;-1.7736;
738.9000;0.1457;-1.7711;
739.2000;0.1441;-1.7736;
739.5000;0.1384;-1.7861;
739.8000;0.1506;-1.7585;
740.1000;0.1465;-1.7661;
740.4000;0.1465;-1.7711;
740.7000;0.1449;-1.7611;
741.0000;0.1490;-1.7410;
741.3000;0.1481;-1.7435;
741.6000;0.1457;-1.7535;
741.9000;0.1457;-1.7535;
742.2000;0.1465;-1.7585;
742.5000;0.1457;-1.7636;
742.8000;0.1465;-1.7711;
743.1000;0.1465;-1.7786;
743.4000;0.1522;-1.7661;
743.7000;0.1481;-1.7786;
744.0000;0.1449;-1.7861;
744.3000;0.1481;-1.7761;
744.6000;0.1490;-1.7611;
744.9000;0.1465;-1.7585;
745.2000;0.1384;-1.7761;
745.5000;0.1465;-1.7510;
745.8000;0.1449;-1.7510;
746.1000;0.1498;-1.7259;
746.4000;0.1473;-1.7360;
746.7000;0.1465;-1.7485;
747.0000;0.1473;-1.7535;
747.3000;0.1465;-1.7611;
747.6000;0.1555;-1.7385;
747.9000;0.1457;-1.7636;
748.2000;0.1473;-1.7611;
748.5000;0.1457;-1.7636;
748.8000;0.1514;-1.7460;
749.1000;0.1465;-1.7661;
749.4000;0.1481;-1.7535;
749.7000;0.1481;-1.7535;
750.0000;0.1465;-1.7585;
750.3000;0.1490;-1.7585;
750.6000;0.1490;-1.7585;
750.9000;0.1473;-1.7636;
751.2000;0.1498;-1.7510;
751.5000;0.1465;-1.7485;
751.8000;0.1473;-1.7460;
752.1000;0.1481;-1.7435;
752.4000;0.1449;-1.7510;
752.7000;0.1498;-1.7335;
753.0000;0.1425;-1.7460;
753.3000;0.1522;-1.7084;
753.6000;0.1465;-1.7209;
753.9000;0.1473;-1.7259;
754.2000;0.1457;-1.7335;
754.5000;0.1481;-1.7184;
754.8000;0.1490;-1.7134;
755.1000;0.1571;-1.6908;
755.4000;0.1465;-1.7209;
755.7000;0.1490;-1.7184;
756.0000;0.1457;-1.7209;
756.3000;0.1408;-1.7335;
756.6000;0.1425;-1.7310;
756.9000;0.1563;-1.6958;
757.2000;0.1465;-1.7310;
757.5000;0.1481;-1.7259;
757.8000;0.1563;-1.7059;
758.1000;0.1490;-1.7234;
758.4000;0.1481;-1.7335;
758.7000;0.1433;-1.7460;
759.0000;0.1465;-1.7435;
759.3000;0.1481;-1.7385;
759.6000;0.1473;-1.7360;
759.9000;0.1449;-1.7360;
760.2000;0.1473;-1.7410;
760.5000;0.1441;-1.7560;
760.8000;0.1457;-1.7510;
761.1000;0.1465;-1.7460;
761.4000;0.1408;-1.7535;
761.7000;0.1530;-1.7184;
762.0000;0.1465;-1.7360;
762.3000;0.1481;-1.7435;
762.6000;0.1547;-1.7310;
762.9000;0.1449;-1.7560;
763.2000;0.1457;-1.7485;
763.5000;0.1433;-1.7510;
763.8000;0.1473;-1.7234;
764.1000;0.1465;-1.7134;
764.4000;0.1473;-1.7059;
764.7000;0.1465;-1.7034;
765.0000;0.1473;-1.7109;
765.3000;0.1498;-1.7159;
765.6000;0.1514;-1.7134;
765.9000;0.1465;-1.7310;
766.2000;0.1481;-1.7234;
766.5000;0.1490;-1.7209;
766.8000;0.1506;-1.7209;
767.1000;0.1441;-1.7360;
767.4000;0.1473;-1.7435;
767.7000;0.1465;-1.7435;
768.0000;0.1490;-1.7410;
768.3000;0.1473;-1.7385;
768.6000;0.1498;-1.7284;
768.9000;0.1514;-1.7259;
769.2000;0.1481;-1.7410;
769.5000;0.1490;-1.7435;
769.8000;0.1465;-1.7460;
770.1000;0.1498;-1.7335;
770.4000;0.1473;-1.7335;
770.7000;0.1522;-1.7134;
771.0000;0.1465;-1.7159;
771.3000;0.1465;-1.7234;
771.6000;0.1547;-1.7059;
771.9000;0.1522;-1.7159;
772.2000;0.1465;-1.7385;
772.5000;0.1465;-1.7435;
772.8000;0.1481;-1.7259;
773.1000;0.1498;-1.7109;
773.4000;0.1490;-1.7234;
773.7000;0.1490;-1.7284;
774.0000;0.1473;-1.7385;
774.3000;0.1473;-1.7335;
774.6000;0.1490;-1.7310;
774.9000;0.1490;-1.7209;
775.2000;0.1522;-1.7109;
775.5000;0.1481;-1.7234;
775.8000;0.1514;-1.7184;
776.1000;0.1457;-1.7284;
776.4000;0.1481;-1.7109;
776.7000;0.1490;-1.7008;
777.0000;0.1481;-1.6983;
777.3000;0.1457;-1.7008;
777.6000;0.1457;-1.7134;
777.9000;0.1473;-1.7109;
778.2000;0.1473;-1.7084;
778.5000;0.1481;-1.7159;
778.8000;0.1457;-1.7284;
779.1000;0.1481;-1.7209;
779.4000;0.1490;-1.7310;
779.7000;0.1433;-1.7310;
780.0000;0.1481;-1.7259;
780.3000;0.1433;-1.7385;
780.6000;0.1473;-1.7335;
780.9000;0.1490;-1.7259;
781.2000;0.1392;-1.7560;
781.5000;0.1473;-1.7410;
781.8000;0.1481;-1.7310;
782.1000;0.1490;-1.7360;
782.4000;0.1490;-1.7410;
782.7000;0.1465;-1.7510;
783.0000;0.1481;-1.7460;
783.3000;0.1473;-1.7460;
783.6000;0.1465;-1.7435;
783.9000;0.1465;-1.7435;
784.2000;0.1481;-1.7410;
784.5000;0.1481;-1.7460;
784.8000;0.1465;-1.7535;
785.1000;0.1490;-1.7510;
785.4000;0.1481;-1.7485;
785.7000;0.1481;-1.7510;
786.0000;0.1465;-1.7510;
786.3000;0.1457;-1.7535;
786.6000;0.1481;-1.7360;
786.9000;0.1490;-1.7385;
787.2000;0.1481;-1.7410;
787.5000;0.1449;-1.7510;
787.8000;0.1481;-1.7485;
788.1000;0.1425;-1.7636;
788.4000;0.1457;-1.7535;
788.7000;0.1473;-1.7560;
789.0000;0.1498;-1.7535;
789.3000;0.1465;-1.7585;
789.6000;0.1490;-1.7435;
789.9000;0.1481;-1.7435;
790.2000;0.1481;-1.7385;
790.5000;0.1481;-1.7335;
790.8000;0.1457;-1.7435;
791.1000;0.1473;-1.7335;
791.4000;0.1457;-1.7360;
791.7000;0.1481;-1.7284;
792.0000;0.1506;-1.7109;
792.3000;0.1457;-1.7234;
792.6000;0.1441;-1.7284;
792.9000;0.1481;-1.7209;
793.2000;0.1473;-1.7259;
793.5000;0.1457;-1.7284;
793.8000;0.1457;-1.7209;
794.1000;0.1473;-1.7209;
794.4000;0.1481;-1.7159;
794.7000;0.1481;-1.7134;
795.0000;0.1473;-1.7184;
795.3000;0.1457;-1.7259;
795.6000;0.1490;-1.7184;
795.9000;0.1473;-1.7159;
796.2000;0.1473;-1.7209;
796.5000;0.1457;-1.7259;
796.8000;0.1473;-1.7184;
797.1000;0.1490;-1.7209;
797.4000;0.1473;-1.7259;
797.7000;0.1473;-1.7259;
798.0000;0.1473;-1.7259;
798.3000;0.1481;-1.7259;
798.6000;0.1481;-1.7385;
798.9000;0.1473;-1.7385;
799.2000;0.1538;-1.7234;
799.5000;0.1481;-1.7410;
799.8000;0.1490;-1.7310;
800.1000;0.1457;-1.7310;
800.4000;0.1490;-1.7209;
800.7000;0.1490;-1.7209;
801.0000;0.1473;-1.7184;
801.3000;0.1457;-1.7184;
801.6000;0.1473;-1.7209;
801.9000;0.1457;-1.7259;
802.2000;0.1449;-1.7259;
802.5000;0.1465;-1.7209;
802.8000;0.1449;-1.7259;
803.1000;0.1473;-1.7159;
803.4000;0.1457;-1.7234;
803.7000;0.1449;-1.7234;
804.0000;0.1473;-1.7284;
804.3000;0.1441;-1.7385;
804.6000;0.1465;-1.7234;
804.9000;0.1481;-1.7209;
805.2000;0.1481;-1.7184;
805.5000;0.1457;-1.7259;
805.8000;0.1441;-1.7259;
806.1000;0.1473;-1.7184;
806.4000;0.1506;-1.7134;
806.7000;0.1457;-1.7184;
807.0000;0.1481;-1.7134;
807.3000;0.1498;-1.7059;
807.6000;0.1457;-1.7259;
807.9000;0.1538;-1.7109;
808.2000;0.1481;-1.7234;
808.5000;0.1481;-1.7259;
808.8000;0.1465;-1.7234;
809.1000;0.1465;-1.7209;
809.4000;0.1490;-1.7159;
809.7000;0.1506;-1.7184;
810.0000;0.1473;-1.7259;
810.3000;0.1481;-1.7259;
810.6000;0.1465;-1.7360;
810.9000;0.1473;-1.7360;
811.2000;0.1465;-1.7435;
811.5000;0.1481;-1.7360;
811.8000;0.1481;-1.7385;
812.1000;0.1498;-1.7310;
812.4000;0.1473;-1.7310;
812.7000;0.1481;-1.7410;
813.0000;0.1465;-1.7410;
813.3000;0.1481;-1.7435;
813.6000;0.1457;-1.7435;
813.9000;0.1400;-1.7535;
814.2000;0.1465;-1.7460;
814.5000;0.1473;-1.7410;
814.8000;0.1473;-1.7435;
815.1000;0.1457;-1.7460;
815.4000;0.1481;-1.7385;
815.7000;0.1481;-1.7460;
816.0000;0.1481;-1.7435;
816.3000;0.1465;-1.7435;
816.6000;0.1481;-1.7385;
816.9000;0.1473;-1.7435;
817.2000;0.1498;-1.7435;
817.5000;0.1490;-1.7435;
817.8000;0.1473;-1.7560;
818.1000;0.1457;-1.7510;
818.4000;0.1481;-1.7460;
818.7000;0.1481;-1.7435;
819.0000;0.1473;-1.7460;
819.3000;0.1457;-1.7560;
819.6000;0.1473;-1.7585;
819.9000;0.1465;-1.7510;
820.2000;0.1457;-1.7485;
820.5000;0.1473;-1.7485;
820.8000;0.1514;-1.7360;
821.1000;0.1481;-1.7410;
821.4000;0.1465;-1.7510;
821.7000;0.1457;-1.7560;
822.0000;0.1449;-1.7611;
822.3000;0.1481;-1.7560;
822.6000;0.1465;-1.7560;
822.9000;0.1457;-1.7535;
823.2000;0.1465;-1.7460;
823.5000;0.1465;-1.7435;
823.8000;0.1481;-1.7385;
824.1000;0.1465;-1.7435;
824.4000;0.1449;-1.7410;
824.7000;0.1465;-1.7410;
825.0000;0.1490;-1.7435;
825.3000;0.1465;-1.7560;
825.6000;0.1473;-1.7510;
825.9000;0.1498;-1.7510;
826.2000;0.1441;-1.7585;
826.5000;0.1481;-1.7460;
826.8000;0.1473;-1.7535;
827.1000;0.1465;-1.7485;
827.4000;0.1465;-1.7535;
827.7000;0.1473;-1.7535;
828.0000;0.1457;-1.7585;
828.3000;0.1473;-1.7560;
828.6000;0.1473;-1.7585;
828.9000;0.1449;-1.7661;
829.2000;0.1465;-1.7686;
829.5000;0.1481;-1.7736;
829.8000;0.1481;-1.7661;
830.1000;0.1481;-1.7585;
830.4000;0.1441;-1.7686;
830.7000;0.1457;-1.7711;
831.0000;0.1481;-1.7661;
831.3000;0.1473;-1.7686;
831.6000;0.1465;-1.7560;
831.9000;0.1465;-1.7485;
832.2000;0.1490;-1.7535;
832.5000;0.1457;-1.7535;
832.8000;0.1465;-1.7560;
833.1000;0.1457;-1.7560;
833.4000;0.1481;-1.7585;
833.7000;0.1457;-1.7661;
834.0000;0.1473;-1.7636;
834.3000;0.1457;-1.7585;
834.6000;0.1481;-1.7435;
834.9000;0.1481;-1.7310;
835.2000;0.1498;-1.7209;
835.5000;0.1457;-1.7259;
835.8000;0.1473;-1.7234;
836.1000;0.1481;-1.7109;
836.4000;0.1481;-1.7134;
836.7000;0.1490;-1.7134;
837.0000;0.1490;-1.7059;
837.3000;0.1457;-1.7234;
837.6000;0.1473;-1.7209;
837.9000;0.1481;-1.7234;
838.2000;0.1441;-1.7385;
838.5000;0.1473;-1.7435;
838.8000;0.1465;-1.7510;
839.1000;0.1481;-1.7510;
839.4000;0.1457;-1.7585;
839.7000;0.1490;-1.7535;
840.0000;0.1457;-1.7535;
840.3000;0.1465;-1.7460;
840.6000;0.1473;-1.7510;
840.9000;0.1465;-1.7560;
841.2000;0.1481;-1.7535;
841.5000;0.1481;-1.7460;
841.8000;0.1490;-1.7585;
842.1000;0.1490;-1.7560;
842.4000;0.1473;-1.7560;
842.7000;0.1506;-1.7460;
843.0000;0.1465;-1.7535;
843.3000;0.1457;-1.7636;
843.6000;0.1457;-1.7611;
843.9000;0.1457;-1.7636;
844.2000;0.1490;-1.7560;
844.5000;0.1457;-1.7611;
844.8000;0.1481;-1.7611;
845.1000;0.1392;-1.7912;
845.4000;0.1530;-1.7535;
845.7000;0.1514;-1.7410;
846.0000;0.1457;-1.7460;
846.3000;0.1490;-1.7310;
846.6000;0.1449;-1.7335;
846.9000;0.1490;-1.7335;
847.2000;0.1465;-1.7410;
847.5000;0.1506;-1.7310;
847.8000;0.1473;-1.7385;
848.1000;0.1481;-1.7310;
848.4000;0.1490;-1.7360;
848.7000;0.1465;-1.7460;
849.0000;0.1473;-1.7385;
849.3000;0.1465;-1.7485;
849.6000;0.1473;-1.7535;
849.9000;0.1457;-1.7485;
850.2000;0.1514;-1.7410;
850.5000;0.1457;-1.7460;
850.8000;0.1425;-1.7460;
851.1000;0.1465;-1.7360;
851.4000;0.1506;-1.7234;
851.7000;0.1465;-1.7360;
852.0000;0.1490;-1.7360;
852.3000;0.1481;-1.7335;
852.6000;0.1465;-1.7335;
852.9000;0.1465;-1.7284;
853.2000;0.1465;-1.7360;
853.5000;0.1473;-1.7410;
853.8000;0.1481;-1.7460;
854.1000;0.1473;-1.7510;
854.4000;0.1514;-1.7460;
854.7000;0.1457;-1.7510;
855.0000;0.1465;-1.7435;
855.3000;0.1506;-1.7310;
855.6000;0.1457;-1.7385;
855.9000;0.1449;-1.7435;
856.2000;0.1449;-1.7435;
856.5000;0.1481;-1.7385;
856.8000;0.1490;-1.7360;
857.1000;0.1490;-1.7385;
857.4000;0.1449;-1.7485;
857.7000;0.1457;-1.7460;
858.0000;0.1481;-1.7360;
858.3000;0.1481;-1.7360;
858.6000;0.1473;-1.7410;
858.9000;0.1400;-1.7585;
859.2000;0.1514;-1.7259;
859.5000;0.1473;-1.7284;
859.8000;0.1457;-1.7385;
860.1000;0.1473;-1.7460;
860.4000;0.1522;-1.7410;
860.7000;0.1571;-1.7284;
861.0000;0.1433;-1.7736;
861.3000;0.1416;-1.7786;
861.6000;0.1481;-1.7611;
861.9000;0.1457;-1.7585;
862.2000;0.1490;-1.7485;
862.5000;0.1498;-1.7410;
862.8000;0.1465;-1.7535;
863.1000;0.1506;-1.7510;
863.4000;0.1457;-1.7661;
863.7000;0.1473;-1.7585;
864.0000;0.1465;-1.7585;
864.3000;0.1481;-1.7560;
864.6000;0.1473;-1.7560;
864.9000;0.1481;-1.7510;
865.2000;0.1449;-1.7435;
865.5000;0.1465;-1.7435;
865.8000;0.1457;-1.7435;
866.1000;0.1514;-1.7159;
866.4000;0.1473;-1.7410;
866.7000;0.1498;-1.7410;
867.0000;0.1473;-1.7385;
867.3000;0.1465;-1.7385;
867.6000;0.1473;-1.7234;
867.9000;0.1473;-1.7335;
868.2000;0.1465;-1.7310;
868.5000;0.1481;-1.7335;
868.8000;0.1441;-1.7435;
869.1000;0.1449;-1.7485;
869.4000;0.1498;-1.7435;
869.7000;0.1473;-1.7485;
870.0000;0.1490;-1.7460;
870.3000;0.1473;-1.7435;
870.6000;0.1473;-1.7435;
870.9000;0.1490;-1.7435;
871.2000;0.1465;-1.7435;
871.5000;0.1506;-1.7284;
871.8000;0.1498;-1.7234;
872.1000;0.1481;-1.7234;
872.4000;0.1506;-1.7134;
872.7000;0.1416;-1.7335;
873.0000;0.1465;-1.7284;
873.3000;0.1579;-1.7008;
873.6000;0.1506;-1.7234;
873.9000;0.1457;-1.7335;
874.2000;0.1498;-1.7234;
874.5000;0.1473;-1.7335;
874.8000;0.1473;-1.7259;
875.1000;0.1408;-1.7410;
875.4000;0.1490;-1.7284;
875.7000;0.1538;-1.7234;
876.0000;0.1481;-1.7360;
876.3000;0.1490;-1.7410;
876.6000;0.1449;-1.7485;
876.9000;0.1547;-1.7234;
877.2000;0.1490;-1.7410;
877.5000;0.1514;-1.7234;
877.8000;0.1473;-1.7259;
878.1000;0.1498;-1.7310;
878.4000;0.1481;-1.7234;
878.7000;0.1481;-1.7259;
879.0000;0.1547;-1.7134;
879.3000;0.1498;-1.7159;
879.6000;0.1457;-1.7184;
879.9000;0.1473;-1.7184;
880.2000;0.1457;-1.7184;
880.5000;0.1473;-1.7184;
880.8000;0.1473;-1.7259;
881.1000;0.1538;-1.7159;
881.4000;0.1457;-1.7310;
881.7000;0.1465;-1.7310;
882.0000;0.1473;-1.7360;
882.3000;0.1465;-1.7360;
882.6000;0.1465;-1.7410;
882.9000;0.1465;-1.7310;
883.2000;0.1465;-1.7259;
883.5000;0.1530;-1.7209;
883.8000;0.1481;-1.7310;
884.1000;0.1473;-1.7259;
884.4000;0.1473;-1.7310;
884.7000;0.1498;-1.7159;
885.0000;0.1473;-1.7284;
885.3000;0.1481;-1.7310;
885.6000;0.1473;-1.7385;
885.9000;0.1465;-1.7460;
886.2000;0.1473;-1.7410;
886.5000;0.1481;-1.7435;
886.8000;0.1481;-1.7485;
887.1000;0.1457;-1.7435;
887.4000;0.1490;-1.7360;
887.7000;0.1408;-1.7585;
888.0000;0.1465;-1.7460;
888.3000;0.1481;-1.7510;
888.6000;0.1481;-1.7485;
888.9000;0.1490;-1.7385;
889.2000;0.1473;-1.7385;
889.5000;0.1465;-1.7460;
889.8000;0.1465;-1.7435;
890.1000;0.1473;-1.7284;
890.4000;0.1457;-1.7360;
890.7000;0.1465;-1.7360;
891.0000;0.1498;-1.7209;
891.3000;0.1506;-1.7234;
891.6000;0.1425;-1.7510;
891.9000;0.1481;-1.7410;
892.2000;0.1473;-1.7410;
892.5000;0.1498;-1.7360;
892.8000;0.1465;-1.7310;
893.1000;0.1465;-1.7234;
893.4000;0.1465;-1.7209;
893.7000;0.1473;-1.7335;
894.0000;0.1579;-1.7059;
894.3000;0.1481;-1.7410;
894.6000;0.1465;-1.7410;
894.9000;0.1465;-1.7410;
895.2000;0.1465;-1.7485;
895.5000;0.1465;-1.7435;
895.8000;0.1457;-1.7460;
896.1000;0.1481;-1.7460;
896.4000;0.1481;-1.7585;
896.7000;0.1481;-1.7661;
897.0000;0.1449;-1.7761;
897.3000;0.1465;-1.7711;
897.6000;0.1490;-1.7636;
897.9000;0.1465;-1.7711;
898.2000;0.1457;-1.7661;
898.5000;0.1457;-1.7661;
898.8000;0.1481;-1.7611;
899.1000;0.1465;-1.7585;
899.4000;0.1449;-1.7560;
899.7000;0.1522;-1.7360;
900.0000;0.1498;-1.7310;
900.3000;0.1449;-1.7410;
900.6000;0.1465;-1.7335;
900.9000;0.1457;-1.7259;
901.2000;0.1498;-1.7184;
901.5000;0.1473;-1.7259;
901.8000;0.1457;-1.7385;
902.1000;0.1457;-1.7485;
902.4000;0.1490;-1.7485;
902.7000;0.1498;-1.7385;
903.0000;0.1473;-1.7385;
903.3000;0.1465;-1.7485;
903.6000;0.1506;-1.7435;
903.9000;0.1490;-1.7485;
904.2000;0.1449;-1.7560;
904.5000;0.1457;-1.7485;
904.8000;0.1473;-1.7535;
905.1000;0.1481;-1.7560;
905.4000;0.1441;-1.7661;
905.7000;0.1465;-1.7585;
906.0000;0.1465;-1.7535;
906.3000;0.1490;-1.7485;
906.6000;0.1490;-1.7535;
906.9000;0.1457;-1.7560;
907.2000;0.1457;-1.7510;
907.5000;0.1473;-1.7385;
907.8000;0.1473;-1.7335;
908.1000;0.1481;-1.7335;
908.4000;0.1481;-1.7335;
908.7000;0.1457;-1.7284;
909.0000;0.1465;-1.7284;
909.3000;0.1490;-1.7310;
909.6000;0.1465;-1.7385;
909.9000;0.1473;-1.7360;
910.2000;0.1473;-1.7435;
910.5000;0.1473;-1.7410;
910.8000;0.1473;-1.7435;
911.1000;0.1457;-1.7485;
911.4000;0.1498;-1.7385;
911.7000;0.1481;-1.7410;
912.0000;0.1481;-1.7410;
912.3000;0.1490;-1.7460;
912.6000;0.1481;-1.7460;
912.9000;0.1498;-1.7435;
913.2000;0.1465;-1.7435;
913.5000;0.1457;-1.7510;
913.8000;0.1473;-1.7460;
914.1000;0.1457;-1.7435;
914.4000;0.1441;-1.7385;
914.7000;0.1457;-1.7360;
915.0000;0.1473;-1.7335;
915.3000;0.1473;-1.7310;
915.6000;0.1481;-1.7360;
915.9000;0.1481;-1.7460;
916.2000;0.1481;-1.7485;
916.5000;0.1498;-1.7485;
916.8000;0.1473;-1.7535;
917.1000;0.1457;-1.7510;
917.4000;0.1481;-1.7460;
917.7000;0.1481;-1.7385;
918.0000;0.1449;-1.7435;
918.3000;0.1465;-1.7485;
918.6000;0.1465;-1.7510;
918.9000;0.1490;-1.7535;
919.2000;0.1473;-1.7711;
919.5000;0.1465;-1.7786;
919.8000;0.1465;-1.7786;
920.1000;0.1473;-1.7711;
920.4000;0.1490;-1.7636;
920.7000;0.1473;-1.7661;
921.0000;0.1465;-1.7661;
921.3000;0.1473;-1.7560;
921.6000;0.1481;-1.7535;
921.9000;0.1473;-1.7560;
922.2000;0.1465;-1.7560;
922.5000;0.1481;-1.7611;
922.8000;0.1457;-1.7585;
923.1000;0.1481;-1.7460;
923.4000;0.1481;-1.7611;
923.7000;0.1481;-1.7611;
924.0000;0.1481;-1.7661;
924.3000;0.1481;-1.7661;
924.6000;0.1457;-1.7661;
924.9000;0.1465;-1.7661;
925.2000;0.1481;-1.7736;
925.5000;0.1481;-1.7661;
925.8000;0.1490;-1.7611;
926.1000;0.1481;-1.7585;
926.4000;0.1490;-1.7560;
926.7000;0.1498;-1.7435;
927.0000;0.1490;-1.7385;
927.3000;0.1481;-1.7435;
927.6000;0.1457;-1.7535;
927.9000;0.1490;-1.7435;
928.2000;0.1490;-1.7410;
928.5000;0.1473;-1.7435;
928.8000;0.1490;-1.7310;
929.1000;0.1490;-1.7259;
929.4000;0.1490;-1.7335;
929.7000;0.1465;-1.7385;
930.0000;0.1465;-1.7360;
930.3000;0.1473;-1.7360;
930.6000;0.1490;-1.7310;
930.9000;0.1481;-1.7234;
931.2000;0.1465;-1.7234;
931.5000;0.1473;-1.7259;
931.8000;0.1473;-1.7284;
932.1000;0.1473;-1.7310;
932.4000;0.1457;-1.7310;
932.7000;0.1465;-1.7284;
933.0000;0.1473;-1.7209;
933.3000;0.1481;-1.7259;
933.6000;0.1441;-1.7310;
933.9000;0.1368;-1.7611;
934.2000;0.1473;-1.7385;
934.5000;0.1457;-1.7410;
934.8000;0.1481;-1.7435;
935.1000;0.1457;-1.7535;
935.4000;0.1473;-1.7460;
935.7000;0.1490;-1.7510;
936.0000;0.1490;-1.7510;
936.3000;0.1473;-1.7535;
936.6000;0.1481;-1.7510;
936.9000;0.1490;-1.7585;
937.2000;0.1481;-1.7661;
937.5000;0.1490;-1.7636;
937.8000;0.1473;-1.7535;
938.1000;0.1457;-1.7485;
938.4000;0.1481;-1.7410;
938.7000;0.1465;-1.7435;
939.0000;0.1457;-1.7560;
939.3000;0.1490;-1.7460;
939.6000;0.1498;-1.7435;
939.9000;0.1465;-1.7585;
940.2000;0.1481;-1.7510;
940.5000;0.1481;-1.7585;
940.8000;0.1481;-1.7460;
941.1000;0.1481;-1.7460;
941.4000;0.1473;-1.7560;
941.7000;0.1473;-1.7560;
942.0000;0.1473;-1.7485;
942.3000;0.1465;-1.7460;
942.6000;0.1465;-1.7410;
942.9000;0.1481;-1.7360;
943.2000;0.1457;-1.7485;
943.5000;0.1457;-1.7510;
943.8000;0.1465;-1.7585;
944.1000;0.1457;-1.7585;
944.4000;0.1481;-1.7460;
944.7000;0.1473;-1.7410;
945.0000;0.1465;-1.7410;
945.3000;0.1449;-1.7560;
945.6000;0.1481;-1.7510;
945.9000;0.1481;-1.7510;
946.2000;0.1490;-1.7435;
946.5000;0.1481;-1.7360;
946.8000;0.1506;-1.7259;
947.1000;0.1498;-1.7335;
947.4000;0.1473;-1.7385;
947.7000;0.1514;-1.7259;
948.0000;0.1490;-1.7259;
948.3000;0.1490;-1.7360;
948.6000;0.1473;-1.7410;
948.9000;0.1457;-1.7460;
949.2000;0.1473;-1.7360;
949.5000;0.1473;-1.7360;
949.8000;0.1465;-1.7410;
950.1000;0.1465;-1.7259;
950.4000;0.1481;-1.7259;
950.7000;0.1473;-1.7259;
951.0000;0.1490;-1.7234;
951.3000;0.1457;-1.7310;
951.6000;0.1481;-1.7284;
951.9000;0.1481;-1.7410;
952.2000;0.1481;-1.7360;
952.5000;0.1465;-1.7360;
952.8000;0.1473;-1.7310;
953.1000;0.1473;-1.7360;
953.4000;0.1449;-1.7410;
953.7000;0.1481;-1.7385;
954.0000;0.1465;-1.7385;
954.3000;0.1425;-1.7535;
954.6000;0.1555;-1.7109;
954.9000;0.1498;-1.7284;
955.2000;0.1506;-1.7310;
955.5000;0.1498;-1.7335;
955.8000;0.1408;-1.7535;
956.1000;0.1481;-1.7360;
956.4000;0.1416;-1.7560;
956.7000;0.1490;-1.7335;
957.0000;0.1490;-1.7335;
957.3000;0.1481;-1.7335;
957.6000;0.1481;-1.7360;
957.9000;0.1490;-1.7410;
958.2000;0.1473;-1.7410;
958.5000;0.1481;-1.7410;
958.8000;0.1473;-1.7410;
959.1000;0.1498;-1.7360;
959.4000;0.1498;-1.7360;
959.7000;0.1498;-1.7234;
960.0000;0.1425;-1.7510;
960.3000;0.1416;-1.7435;
960.6000;0.1457;-1.7310;
960.9000;0.1481;-1.7259;
961.2000;0.1530;-1.7259;
961.5000;0.1530;-1.7284;
961.8000;0.1481;-1.7360;
962.1000;0.1490;-1.7284;
962.4000;0.1530;-1.7209;
962.7000;0.1473;-1.7435;
963.0000;0.1481;-1.7385;
963.3000;0.1457;-1.7385;
963.6000;0.1457;-1.7310;
963.9000;0.1506;-1.7159;
964.2000;0.1473;-1.7284;
964.5000;0.1473;-1.7184;
964.8000;0.1465;-1.7159;
965.1000;0.1465;-1.7234;
965.4000;0.1481;-1.7159;
965.7000;0.1457;-1.7234;
966.0000;0.1514;-1.7109;
966.3000;0.1449;-1.7259;
966.6000;0.1433;-1.7310;
966.9000;0.1457;-1.7259;
967.2000;0.1457;-1.7259;
967.5000;0.1425;-1.7335;
967.8000;0.1481;-1.7310;
968.1000;0.1481;-1.7310;
968.4000;0.1473;-1.7284;
968.7000;0.1490;-1.7234;
969.0000;0.1449;-1.7335;
969.3000;0.1441;-1.7310;
969.6000;0.1465;-1.7134;
969.9000;0.1481;-1.7084;
970.2000;0.1449;-1.7184;
970.5000;0.1425;-1.7184;
970.8000;0.1473;-1.7084;
971.1000;0.1481;-1.7109;
971.4000;0.1441;-1.7234;
971.7000;0.1522;-1.7034;
972.0000;0.1490;-1.7234;
972.3000;0.1465;-1.7310;
972.6000;0.1490;-1.7234;
972.9000;0.1433;-1.7284;
973.2000;0.1481;-1.7209;
973.5000;0.1481;-1.7184;
973.8000;0.1465;-1.7159;
974.1000;0.1522;-1.7034;
974.4000;0.1481;-1.7159;
974.7000;0.1473;-1.7159;
975.0000;0.1555;-1.7034;
975.3000;0.1490;-1.7284;
975.6000;0.1490;-1.7184;
975.9000;0.1490;-1.7109;
976.2000;0.1441;-1.7209;
976.5000;0.1465;-1.7234;
976.8000;0.1490;-1.7184;
977.1000;0.1465;-1.7259;
977.4000;0.1481;-1.7159;
977.7000;0.1457;-1.7134;
978.0000;0.1457;-1.7159;
978.3000;0.1457;-1.7184;
978.6000;0.1498;-1.7234;
978.9000;0.1449;-1.7335;
979.2000;0.1506;-1.7234;
979.5000;0.1449;-1.7310;
979.8000;0.1481;-1.7259;
980.1000;0.1465;-1.7284;
980.4000;0.1465;-1.7335;
980.7000;0.1473;-1.7385;
981.0000;0.1473;-1.7360;
981.3000;0.1473;-1.7385;
981.6000;0.1441;-1.7611;
981.9000;0.1490;-1.7435;
982.2000;0.1490;-1.7360;
982.5000;0.1433;-1.7460;
982.8000;0.1490;-1.7259;
983.1000;0.1473;-1.7209;
983.4000;0.1530;-1.7084;
983.7000;0.1481;-1.7234;
984.0000;0.1473;-1.7259;
984.3000;0.1449;-1.7335;
984.6000;0.1441;-1.7410;
984.9000;0.1465;-1.7310;
985.2000;0.1473;-1.7360;
985.5000;0.1416;-1.7510;
985.8000;0.1465;-1.7360;
986.1000;0.1473;-1.7310;
986.4000;0.1490;-1.7284;
986.7000;0.1465;-1.7284;
987.0000;0.1465;-1.7360;
987.3000;0.1473;-1.7310;
987.6000;0.1498;-1.7184;
987.9000;0.1481;-1.7184;
988.2000;0.1473;-1.7259;
988.5000;0.1465;-1.7310;
988.8000;0.1481;-1.7209;
989.1000;0.1457;-1.7184;
989.4000;0.1441;-1.7284;
989.7000;0.1473;-1.7310;
990.0000;0.1490;-1.7209;
990.3000;0.1473;-1.7310;
990.6000;0.1555;-1.7209;
990.9000;0.1473;-1.7385;
991.2000;0.1425;-1.7485;
991.5000;0.1490;-1.7310;
991.8000;0.1473;-1.7410;
992.1000;0.1530;-1.7259;
992.4000;0.1473;-1.7510;
992.7000;0.1498;-1.7310;
993.0000;0.1465;-1.7360;
993.3000;0.1481;-1.7385;
993.6000;0.1465;-1.7460;
993.9000;0.1481;-1.7460;
994.2000;0.1465;-1.7510;
994.5000;0.1465;-1.7585;
994.8000;0.1457;-1.7661;
995.1000;0.1465;-1.7585;
995.4000;0.1481;-1.7510;
995.7000;0.1457;-1.7611;
996.0000;0.1498;-1.7435;
996.3000;0.1481;-1.7510;
996.6000;0.1481;-1.7535;
996.9000;0.1490;-1.7485;
997.2000;0.1481;-1.7385;
997.5000;0.1506;-1.7284;
997.8000;0.1481;-1.7435;
998.1000;0.1473;-1.7335;
998.4000;0.1481;-1.7310;
998.7000;0.1498;-1.7234;
999.0000;0.1563;-1.7059;
999.3000;0.1465;-1.7234;
999.6000;0.1457;-1.7259;
999.9000;0.1449;-1.7310;
1000.2000;0.1473;-1.7209;
1000.5000;0.1465;-1.7335;
1000.8000;0.1465;-1.7360;
1001.1000;0.1449;-1.7460;
1001.4000;0.1481;-1.7460;
1001.7000;0.1514;-1.7335;
1002.0000;0.1473;-1.7410;
1002.3000;0.1473;-1.7435;
1002.6000;0.1465;-1.7435;
1002.9000;0.1425;-1.7510;
1003.2000;0.1506;-1.7184;
1003.5000;0.1473;-1.7209;
1003.8000;0.1481;-1.7184;
1004.1000;0.1481;-1.7310;
1004.4000;0.1506;-1.7259;
1004.7000;0.1490;-1.7259;
1005.0000;0.1457;-1.7310;
1005.3000;0.1481;-1.7234;
1005.6000;0.1506;-1.7109;
1005.9000;0.1481;-1.7134;
1006.2000;0.1490;-1.7159;
1006.5000;0.1498;-1.7209;
1006.8000;0.1490;-1.7234;
1007.1000;0.1498;-1.7284;
1007.4000;0.1490;-1.7310;
1007.7000;0.1481;-1.7360;
1008.0000;0.1490;-1.7410;
1008.3000;0.1481;-1.7410;
1008.6000;0.1481;-1.7310;
1008.9000;0.1465;-1.7335;
1009.2000;0.1481;-1.7310;
1009.5000;0.1457;-1.7310;
1009.8000;0.1481;-1.7259;
1010.1000;0.1473;-1.7335;
1010.4000;0.1481;-1.7234;
1010.7000;0.1465;-1.7310;
1011.0000;0.1465;-1.7435;
1011.3000;0.1465;-1.7360;
1011.6000;0.1457;-1.7284;
1011.9000;0.1498;-1.7184;
1012.2000;0.1473;-1.7284;
1012.5000;0.1481;-1.7259;
1012.8000;0.1481;-1.7184;
1013.1000;0.1481;-1.7134;
1013.4000;0.1481;-1.7109;
1013.7000;0.1449;-1.7109;
1014.0000;0.1465;-1.7134;
1014.3000;0.1579;-1.6808;
1014.6000;0.1465;-1.7059;
1014.9000;0.1441;-1.7109;
1015.2000;0.1457;-1.7084;
1015.5000;0.1481;-1.7008;
1015.8000;0.1490;-1.6933;
1016.1000;0.1490;-1.7008;
1016.4000;0.1465;-1.7059;
1016.7000;0.1473;-1.7159;
1017.0000;0.1473;-1.7159;
1017.3000;0.1498;-1.7184;
1017.6000;0.1490;-1.7234;
1017.9000;0.1481;-1.7134;
1018.2000;0.1473;-1.7159;
1018.5000;0.1449;-1.7259;
1018.8000;0.1457;-1.7234;
1019.1000;0.1449;-1.7284;
1019.4000;0.1473;-1.7209;
1019.7000;0.1457;-1.7184;
1020.0000;0.1481;-1.7184;
1020.3000;0.1465;-1.7234;
1020.6000;0.1465;-1.7310;
1020.9000;0.1465;-1.7335;
1021.2000;0.1481;-1.7284;
1021.5000;0.1457;-1.7335;
1021.8000;0.1490;-1.7259;
1022.1000;0.1490;-1.7184;
1022.4000;0.1457;-1.7259;
1022.7000;0.1473;-1.7259;
1023.0000;0.1506;-1.7259;
1023.3000;0.1498;-1.7335;
1023.6000;0.1457;-1.7385;
1023.9000;0.1547;-1.7184;
1024.2000;0.1481;-1.7234;
1024.5000;0.1465;-1.7209;
1024.8000;0.1473;-1.7234;
1025.1000;0.1514;-1.7134;
1025.4000;0.1465;-1.7159;
1025.7000;0.1481;-1.7159;
1026.0000;0.1465;-1.7209;
1026.3000;0.1465;-1.7184;
1026.6000;0.1457;-1.7159;
1026.9000;0.1473;-1.7209;
1027.2000;0.1490;-1.7234;
1027.5000;0.1473;-1.7234;
1027.8000;0.1473;-1.7234;
1028.1000;0.1473;-1.7209;
1028.4000;0.1490;-1.7234;
1028.7000;0.1473;-1.7284;
1029.0000;0.1457;-1.7460;
1029.3000;0.1481;-1.7485;
1029.6000;0.1490;-1.7410;
1029.9000;0.1473;-1.7435;
1030.2000;0.1498;-1.7360;
1030.5000;0.1490;-1.7385;
1030.8000;0.1490;-1.7410;
1031.1000;0.1416;-1.7585;
1031.4000;0.1490;-1.7360;
1031.7000;0.1473;-1.7385;
1032.0000;0.1490;-1.7335;
1032.3000;0.1473;-1.7385;
1032.6000;0.1473;-1.7435;
1032.9000;0.1481;-1.7435;
1033.2000;0.1465;-1.7435;
1033.5000;0.1481;-1.7410;
1033.8000;0.1481;-1.7410;
1034.1000;0.1481;-1.7410;
1034.4000;0.1490;-1.7410;
1034.7000;0.1481;-1.7410;
1035.0000;0.1473;-1.7385;
1035.3000;0.1481;-1.7335;
1035.6000;0.1457;-1.7385;
1035.9000;0.1473;-1.7360;
1036.2000;0.1481;-1.7259;
1036.5000;0.1457;-1.7385;
1036.8000;0.1465;-1.7310;
1037.1000;0.1514;-1.7109;
1037.4000;0.1481;-1.7234;
1037.7000;0.1473;-1.7234;
1038.0000;0.1473;-1.7310;
1038.3000;0.1481;-1.7259;
1038.6000;0.1490;-1.7259;
1038.9000;0.1481;-1.7310;
1039.2000;0.1481;-1.7385;
1039.5000;0.1465;-1.7385;
1039.8000;0.1473;-1.7360;
1040.1000;0.1547;-1.7234;
1040.4000;0.1473;-1.7284;
1040.7000;0.1465;-1.7259;
1041.0000;0.1490;-1.7259;
1041.3000;0.1473;-1.7335;
1041.6000;0.1473;-1.7335;
1041.9000;0.1481;-1.7435;
1042.2000;0.1457;-1.7410;
1042.5000;0.1490;-1.7335;
1042.8000;0.1490;-1.7410;
1043.1000;0.1465;-1.7510;
1043.4000;0.1490;-1.7435;
1043.7000;0.1481;-1.7460;
1044.0000;0.1465;-1.7510;
1044.3000;0.1481;-1.7435;
1044.6000;0.1481;-1.7410;
1044.9000;0.1481;-1.7485;
1045.2000;0.1473;-1.7460;
1045.5000;0.1490;-1.7460;
1045.8000;0.1481;-1.7510;
1046.1000;0.1498;-1.7435;
1046.4000;0.1465;-1.7410;
1046.7000;0.1473;-1.7535;
1047.0000;0.1481;-1.7510;
1047.3000;0.1457;-1.7510;
1047.6000;0.1473;-1.7460;
1047.9000;0.1481;-1.7410;
1048.2000;0.1481;-1.7410;
1048.5000;0.1465;-1.7485;
1048.8000;0.1481;-1.7485;
1049.1000;0.1473;-1.7460;
1049.4000;0.1457;-1.7410;
1049.7000;0.1481;-1.7460;
1050.0000;0.1506;-1.7485;
1050.3000;0.1457;-1.7560;
1050.6000;0.1465;-1.7560;
1050.9000;0.1457;-1.7485;
1051.2000;0.1465;-1.7460;
1051.5000;0.1473;-1.7335;
1051.8000;0.1473;-1.7410;
1052.1000;0.1473;-1.7460;
1052.4000;0.1481;-1.7435;
1052.7000;0.1481;-1.7360;
1053.0000;0.1465;-1.7360;
1053.3000;0.1481;-1.7360;
1053.6000;0.1490;-1.7360;
1053.9000;0.1481;-1.7385;
1054.2000;0.1490;-1.7360;
1054.5000;0.1465;-1.7460;
1054.8000;0.1465;-1.7460;
1055.1000;0.1490;-1.7410;
1055.4000;0.1465;-1.7485;
1055.7000;0.1465;-1.7410;
1056.0000;0.1473;-1.7435;
1056.3000;0.1473;-1.7410;
1056.6000;0.1481;-1.7460;
1056.9000;0.1449;-1.7460;
1057.2000;0.1481;-1.7435;
1057.5000;0.1481;-1.7435;
1057.8000;0.1425;-1.7560;
1058.1000;0.1465;-1.7410;
1058.4000;0.1473;-1.7385;
1058.7000;0.1490;-1.7435;
1059.0000;0.1481;-1.7385;
1059.3000;0.1465;-1.7485;
1059.6000;0.1449;-1.7460;
1059.9000;0.1465;-1.7460;
1060.2000;0.1498;-1.7335;
1060.5000;0.1457;-1.7385;
1060.8000;0.1457;-1.7360;
1061.1000;0.1481;-1.7259;
1061.4000;0.1473;-1.7284;
1061.7000;0.1481;-1.7259;
1062.0000;0.1522;-1.7134;
1062.3000;0.1522;-1.7209;
1062.6000;0.1490;-1.7310;
1062.9000;0.1587;-1.7059;
1063.2000;0.1473;-1.7385;
1063.5000;0.1465;-1.7435;
1063.8000;0.1473;-1.7360;
1064.1000;0.1441;-1.7510;
1064.4000;0.1457;-1.7435;
1064.7000;0.1514;-1.7234;
1065.0000;0.1465;-1.7385;
1065.3000;0.1416;-1.7560;
1065.6000;0.1465;-1.7460;
1065.9000;0.1449;-1.7611;
1066.2000;0.1449;-1.7611;
1066.5000;0.1506;-1.7510;
1066.8000;0.1465;-1.7535;
1067.1000;0.1473;-1.7485;
1067.4000;0.1449;-1.7460;
1067.7000;0.1449;-1.7410;
1068.0000;0.1481;-1.7385;
1068.3000;0.1506;-1.7209;
1068.6000;0.1473;-1.7310;
1068.9000;0.1481;-1.7234;
1069.2000;0.1351;-1.7535;
1069.5000;0.1457;-1.7259;
1069.8000;0.1473;-1.7335;
1070.1000;0.1465;-1.7385;
1070.4000;0.1384;-1.7560;
1070.7000;0.1425;-1.7460;
1071.0000;0.1473;-1.7335;
1071.3000;0.1547;-1.7159;
1071.6000;0.1490;-1.7385;
1071.9000;0.1449;-1.7435;
1072.2000;0.1465;-1.7460;
1072.5000;0.1490;-1.7410;
1072.8000;0.1506;-1.7385;
1073.1000;0.1457;-1.7485;
1073.4000;0.1514;-1.7335;
1073.7000;0.1498;-1.7435;
1074.0000;0.1473;-1.7535;
1074.3000;0.1490;-1.7435;
1074.6000;0.1465;-1.7485;
1074.9000;0.1481;-1.7385;
1075.2000;0.1538;-1.7159;
1075.5000;0.1465;-1.7435;
1075.8000;0.1457;-1.7485;
1076.1000;0.1457;-1.7460;
1076.4000;0.1498;-1.7335;
1076.7000;0.1473;-1.7435;
1077.0000;0.1473;-1.7435;
1077.3000;0.1498;-1.7335;
1077.6000;0.1530;-1.7335;
1077.9000;0.1490;-1.7460;
1078.2000;0.1506;-1.7435;
1078.5000;0.1473;-1.7585;
1078.8000;0.1457;-1.7560;
1079.1000;0.1473;-1.7535;
1079.4000;0.1481;-1.7410;
1079.7000;0.1457;-1.7410;
1080.0000;0.1433;-1.7585;
1080.3000;0.1490;-1.7460;
1080.6000;0.1498;-1.7385;
1080.9000;0.1506;-1.7435;
1081.2000;0.1408;-1.7636;
1081.5000;0.1530;-1.7259;
1081.8000;0.1506;-1.7335;
1082.1000;0.1449;-1.7385;
1082.4000;0.1449;-1.7435;
1082.7000;0.1555;-1.7234;
1083.0000;0.1449;-1.7385;
1083.3000;0.1490;-1.7310;
1083.6000;0.1490;-1.7310;
1083.9000;0.1481;-1.7435;
1084.2000;0.1530;-1.7410;
1084.5000;0.1595;-1.7284;
1084.8000;0.1506;-1.7636;
1085.1000;0.1514;-1.7535;
1085.4000;0.1457;-1.7611;
1085.7000;0.1465;-1.7636;
1086.0000;0.1481;-1.7585;
1086.3000;0.1465;-1.7535;
1086.6000;0.1522;-1.7259;
1086.9000;0.1490;-1.7310;
1087.2000;0.1481;-1.7259;
1087.5000;0.1465;-1.7259;
1087.8000;0.1514;-1.7159;
1088.1000;0.1498;-1.7310;
1088.4000;0.1473;-1.7284;
1088.7000;0.1481;-1.7284;
1089.0000;0.1465;-1.7485;
1089.3000;0.1498;-1.7460;
1089.6000;0.1514;-1.7435;
1089.9000;0.1465;-1.7510;
1090.2000;0.1465;-1.7535;
1090.5000;0.1530;-1.7435;
1090.8000;0.1465;-1.7560;
1091.1000;0.1498;-1.7535;
1091.4000;0.1490;-1.7636;
1091.7000;0.1481;-1.7611;
1092.0000;0.1498;-1.7485;
1092.3000;0.1465;-1.7410;
1092.6000;0.1498;-1.7360;
1092.9000;0.1457;-1.7435;
1093.2000;0.1473;-1.7385;
1093.5000;0.1465;-1.7485;
1093.8000;0.1490;-1.7560;
1094.1000;0.1457;-1.7611;
1094.4000;0.1506;-1.7410;
1094.7000;0.1481;-1.7560;
1095.0000;0.1473;-1.7560;
1095.3000;0.1449;-1.7611;
1095.6000;0.1473;-1.7510;
1095.9000;0.1473;-1.7611;
1096.2000;0.1481;-1.7560;
1096.5000;0.1522;-1.7510;
1096.8000;0.1473;-1.7585;
1097.1000;0.1481;-1.7510;
1097.4000;0.1449;-1.7560;
1097.7000;0.1522;-1.7435;
1098.0000;0.1449;-1.7636;
1098.3000;0.1473;-1.7611;
1098.6000;0.1547;-1.7435;
1098.9000;0.1408;-1.7736;
1099.2000;0.1481;-1.7335;
1099.5000;0.1425;-1.7460;
1099.8000;0.1481;-1.7335;
1100.1000;0.1506;-1.7284;
1100.4000;0.1473;-1.7310;
1100.7000;0.1481;-1.7259;
1101.0000;0.1481;-1.7209;
1101.3000;0.1457;-1.7284;
1101.6000;0.1490;-1.7284;
1101.9000;0.1473;-1.7209;
1102.2000;0.1498;-1.7159;
1102.5000;0.1514;-1.7134;
1102.8000;0.1473;-1.7234;
1103.1000;0.1506;-1.7184;
1103.4000;0.1481;-1.7284;
1103.7000;0.1449;-1.7310;
1104.0000;0.1563;-1.7034;
1104.3000;0.1490;-1.7234;
1104.6000;0.1465;-1.7234;
1104.9000;0.1538;-1.7084;
1105.2000;0.1481;-1.7385;
1105.5000;0.1481;-1.7410;
1105.8000;0.1498;-1.7410;
1106.1000;0.1473;-1.7385;
1106.4000;0.1465;-1.7385;
1106.7000;0.1481;-1.7284;
1107.0000;0.1473;-1.7284;
1107.3000;0.1465;-1.7284;
1107.6000;0.1465;-1.7410;
1107.9000;0.1481;-1.7435;
1108.2000;0.1481;-1.7510;
1108.5000;0.1416;-1.7661;
1108.8000;0.1465;-1.7510;
1109.1000;0.1457;-1.7485;
1109.4000;0.1481;-1.7410;
1109.7000;0.1490;-1.7360;
1110.0000;0.1465;-1.7385;
1110.3000;0.1465;-1.7510;
1110.6000;0.1473;-1.7460;
1110.9000;0.1490;-1.7460;
1111.2000;0.1481;-1.7435;
1111.5000;0.1433;-1.7560;
1111.8000;0.1490;-1.7485;
1112.1000;0.1506;-1.7485;
1112.4000;0.1547;-1.7360;
1112.7000;0.1400;-1.7585;
1113.0000;0.1481;-1.7460;
1113.3000;0.1473;-1.7460;
1113.6000;0.1457;-1.7485;
1113.9000;0.1498;-1.7310;
1114.2000;0.1465;-1.7460;
1114.5000;0.1441;-1.7460;
1114.8000;0.1490;-1.7335;
1115.1000;0.1473;-1.7485;
1115.4000;0.1465;-1.7560;
1115.7000;0.1498;-1.7410;
1116.0000;0.1490;-1.7460;
1116.3000;0.1522;-1.7435;
1116.6000;0.1555;-1.7284;
1116.9000;0.1481;-1.7535;
1117.2000;0.1481;-1.7560;
1117.5000;0.1457;-1.7560;
1117.8000;0.1481;-1.7410;
1118.1000;0.1490;-1.7335;
1118.4000;0.1481;-1.7385;
1118.7000;0.1481;-1.7385;
1119.0000;0.1457;-1.7485;
1119.3000;0.1473;-1.7435;
1119.6000;0.1457;-1.7460;
1119.9000;0.1481;-1.7460;
1120.2000;0.1465;-1.7435;
1120.5000;0.1530;-1.7310;
1120.8000;0.1465;-1.7410;
1121.1000;0.1490;-1.7385;
1121.4000;0.1457;-1.7410;
1121.7000;0.1498;-1.7310;
1122.0000;0.1473;-1.7385;
1122.3000;0.1498;-1.7410;
1122.6000;0.1490;-1.7410;
1122.9000;0.1481;-1.7460;
1123.2000;0.1490;-1.7284;
1123.5000;0.1473;-1.7335;
1123.8000;0.1490;-1.7335;
1124.1000;0.1490;-1.7385;
1124.4000;0.1449;-1.7485;
1124.7000;0.1498;-1.7360;
1125.0000;0.1506;-1.7310;
1125.3000;0.1490;-1.7259;
1125.6000;0.1481;-1.7159;
1125.9000;0.1481;-1.7134;
1126.2000;0.1481;-1.7109;
1126.5000;0.1506;-1.7059;
1126.8000;0.1490;-1.7159;
1127.1000;0.1473;-1.7109;
1127.4000;0.1490;-1.7109;
1127.7000;0.1473;-1.7109;
1128.0000;0.1490;-1.7209;
1128.3000;0.1490;-1.7234;
1128.6000;0.1481;-1.7159;
1128.9000;0.1473;-1.7184;
1129.2000;0.1433;-1.7159;
1129.5000;0.1441;-1.7059;
1129.8000;0.1457;-1.6983;
1130.1000;0.1465;-1.7034;
1130.4000;0.1457;-1.7134;
1130.7000;0.1449;-1.7109;
1131.0000;0.1481;-1.7034;
1131.3000;0.1481;-1.7034;
1131.6000;0.1473;-1.7159;
1131.9000;0.1473;-1.7360;
1132.2000;0.1473;-1.7360;
1132.5000;0.1498;-1.7184;
1132.8000;0.1490;-1.7159;
1133.1000;0.1481;-1.7159;
1133.4000;0.1490;-1.7209;
1133.7000;0.1473;-1.7360;
1134.0000;0.1490;-1.7410;
1134.3000;0.1473;-1.7485;
1134.6000;0.1473;-1.7485;
1134.9000;0.1481;-1.7435;
1135.2000;0.1490;-1.7385;
1135.5000;0.1473;-1.7435;
1135.8000;0.1490;-1.7460;
1136.1000;0.1506;-1.7410;
1136.4000;0.1490;-1.7385;
1136.7000;0.1490;-1.7335;
1137.0000;0.1481;-1.7284;
1137.3000;0.1473;-1.7284;
1137.6000;0.1490;-1.7234;
1137.9000;0.1465;-1.7234;
1138.2000;0.1473;-1.7259;
1138.5000;0.1473;-1.7310;
1138.8000;0.1490;-1.7209;
1139.1000;0.1481;-1.7209;
1139.4000;0.1481;-1.7284;
1139.7000;0.1481;-1.7385;
1140.0000;0.1481;-1.7535;
1140.3000;0.1481;-1.7485;
1140.6000;0.1473;-1.7535;
1140.9000;0.1481;-1.7510;
1141.2000;0.1481;-1.7560;
1141.5000;0.1490;-1.7560;
1141.8000;0.1481;-1.7510;
1142.1000;0.1473;-1.7460;
1142.4000;0.1481;-1.7360;
1142.7000;0.1481;-1.7310;
1143.0000;0.1473;-1.7310;
1143.3000;0.1498;-1.7335;
1143.6000;0.1465;-1.7385;
1143.9000;0.1465;-1.7234;
1144.2000;0.1473;-1.7159;
1144.5000;0.1449;-1.7209;
1144.8000;0.1481;-1.7259;
1145.1000;0.1473;-1.7234;
1145.4000;0.1481;-1.7184;
1145.7000;0.1465;-1.7385;
1146.0000;0.1530;-1.7259;
1146.3000;0.1490;-1.7259;
1146.6000;0.1490;-1.7360;
1146.9000;0.1473;-1.7360;
1147.2000;0.1481;-1.7360;
1147.5000;0.1490;-1.7360;
1147.8000;0.1490;-1.7435;
1148.1000;0.1490;-1.7335;
1148.4000;0.1481;-1.7259;
1148.7000;0.1481;-1.7234;
1149.0000;0.1490;-1.7209;
1149.3000;0.1490;-1.7184;
1149.6000;0.1490;-1.7159;
1149.9000;0.1481;-1.7159;
1150.2000;0.1465;-1.7259;
1150.5000;0.1473;-1.7335;
1150.8000;0.1441;-1.7385;
1151.1000;0.1473;-1.7435;
1151.4000;0.1473;-1.7335;
1151.7000;0.1481;-1.7259;
1152.0000;0.1473;-1.7310;
1152.3000;0.1473;-1.7284;
1152.6000;0.1449;-1.7234;
1152.9000;0.1490;-1.7209;
1153.2000;0.1473;-1.7335;
1153.5000;0.1465;-1.7460;
1153.8000;0.1481;-1.7485;
1154.1000;0.1498;-1.7460;
1154.4000;0.1465;-1.7585;
1154.7000;0.1465;-1.7611;
1155.0000;0.1457;-1.7611;
1155.3000;0.1473;-1.7510;
1155.6000;0.1473;-1.7460;
1155.9000;0.1490;-1.7360;
1156.2000;0.1473;-1.7385;
1156.5000;0.1473;-1.7435;
1156.8000;0.1506;-1.7385;
1157.1000;0.1481;-1.7310;
1157.4000;0.1490;-1.7284;
1157.7000;0.1481;-1.7259;
1158.0000;0.1481;-1.7259;
1158.3000;0.1481;-1.7234;
1158.6000;0.1481;-1.7234;
1158.9000;0.1506;-1.7209;
1159.2000;0.1506;-1.7209;
1159.5000;0.1481;-1.7259;
1159.8000;0.1465;-1.7410;
1160.1000;0.1522;-1.7335;
1160.4000;0.1481;-1.7435;
1160.7000;0.1465;-1.7485;
1161.0000;0.1481;-1.7460;
1161.3000;0.1473;-1.7535;
1161.6000;0.1473;-1.7611;
1161.9000;0.1473;-1.7585;
1162.2000;0.1465;-1.7560;
1162.5000;0.1473;-1.7611;
1162.8000;0.1481;-1.7485;
1163.1000;0.1498;-1.7435;
1163.4000;0.1490;-1.7435;
1163.7000;0.1473;-1.7485;
1164.0000;0.1473;-1.7410;
1164.3000;0.1481;-1.7385;
1164.6000;0.1481;-1.7460;
1164.9000;0.1473;-1.7460;
1165.2000;0.1416;-1.7560;
1165.5000;0.1465;-1.7410;
1165.8000;0.1490;-1.7435;
1166.1000;0.1481;-1.7485;
1166.4000;0.1473;-1.7510;
1166.7000;0.1481;-1.7460;
1167.0000;0.1490;-1.7385;
1167.3000;0.1490;-1.7360;
1167.6000;0.1481;-1.7310;
1167.9000;0.1498;-1.7310;
1168.2000;0.1498;-1.7209;
1168.5000;0.1481;-1.7284;
1168.8000;0.1473;-1.7259;
1169.1000;0.1465;-1.7259;
1169.4000;0.1481;-1.7385;
1169.7000;0.1547;-1.7159;
1170.0000;0.1465;-1.7310;
1170.3000;0.1490;-1.7360;
1170.6000;0.1498;-1.7410;
1170.9000;0.1473;-1.7435;
1171.2000;0.1465;-1.7385;
1171.5000;0.1465;-1.7360;
1171.8000;0.1490;-1.7310;
1172.1000;0.1481;-1.7335;
1172.4000;0.1490;-1.7335;
1172.7000;0.1473;-1.7310;
1173.0000;0.1481;-1.7310;
1173.3000;0.1473;-1.7360;
1173.6000;0.1473;-1.7360;
1173.9000;0.1481;-1.7335;
1174.2000;0.1384;-1.7535;
1174.5000;0.1481;-1.7310;
1174.8000;0.1498;-1.7284;
1175.1000;0.1481;-1.7360;
1175.4000;0.1465;-1.7385;
1175.7000;0.1400;-1.7535;
1176.0000;0.1473;-1.7310;
1176.3000;0.1449;-1.7435;
1176.6000;0.1465;-1.7460;
1176.9000;0.1555;-1.7209;
1177.2000;0.1473;-1.7460;
1177.5000;0.1473;-1.7485;
1177.8000;0.1441;-1.7435;
1178.1000;0.1473;-1.7335;
1178.4000;0.1498;-1.7360;
1178.7000;0.1498;-1.7385;
1179.0000;0.1481;-1.7360;
1179.3000;0.1490;-1.7234;
1179.6000;0.1465;-1.7310;
1179.9000;0.1481;-1.7234;
1180.2000;0.1433;-1.7410;
1180.5000;0.1473;-1.7360;
1180.8000;0.1465;-1.7435;
1181.1000;0.1465;-1.7460;
1181.4000;0.1506;-1.7209;
1181.7000;0.1376;-1.7636;
1182.0000;0.1473;-1.7485;
1182.3000;0.1490;-1.7510;
1182.6000;0.1498;-1.7485;
1182.9000;0.1416;-1.7661;
1183.2000;0.1498;-1.7560;
1183.5000;0.1473;-1.7510;
1183.8000;0.1441;-1.7560;
1184.1000;0.1465;-1.7460;
1184.4000;0.1490;-1.7310;
1184.7000;0.1433;-1.7410;
1185.0000;0.1473;-1.7385;
1185.3000;0.1490;-1.7385;
1185.6000;0.1481;-1.7335;
1185.9000;0.1506;-1.7134;
1186.2000;0.1498;-1.7184;
1186.5000;0.1490;-1.7209;
1186.8000;0.1473;-1.7234;
1187.1000;0.1490;-1.7109;
1187.4000;0.1465;-1.7109;
1187.7000;0.1441;-1.7284;
1188.0000;0.1481;-1.7209;
1188.3000;0.1425;-1.7360;
1188.6000;0.1465;-1.7234;
1188.9000;0.1465;-1.7259;
1189.2000;0.1392;-1.7485;
1189.5000;0.1441;-1.7460;
1189.8000;0.1465;-1.7310;
1190.1000;0.1481;-1.7184;
1190.4000;0.1490;-1.7159;
1190.7000;0.1473;-1.7234;
1191.0000;0.1473;-1.7209;
1191.3000;0.1441;-1.7335;
1191.6000;0.1465;-1.7360;
1191.9000;0.1481;-1.7234;
1192.2000;0.1457;-1.7259;
1192.5000;0.1473;-1.7209;
1192.8000;0.1481;-1.7134;
1193.1000;0.1490;-1.7134;
1193.4000;0.1490;-1.7184;
1193.7000;0.1359;-1.7560;
1194.0000;0.1514;-1.7184;
1194.3000;0.1473;-1.7310;
1194.6000;0.1498;-1.7259;
1194.9000;0.1490;-1.7310;
1195.2000;0.1449;-1.7335;
1195.5000;0.1490;-1.7184;
1195.8000;0.1498;-1.7159;
1196.1000;0.1587;-1.6883;
1196.4000;0.1408;-1.7360;
1196.7000;0.1457;-1.7310;
1197.0000;0.1506;-1.7134;
1197.3000;0.1473;-1.7310;
1197.6000;0.1441;-1.7385;
1197.9000;0.1481;-1.7385;
1198.2000;0.1465;-1.7410;
1198.5000;0.1416;-1.7611;
1198.8000;0.1433;-1.7535;
1199.1000;0.1433;-1.7535;
1199.4000;0.1465;-1.7435;
1199.7000;0.1514;-1.7360;
1200.0000;0.1465;-1.7460;
1200.3000;0.1457;-1.7485;
1200.6000;0.1449;-1.7460;
1200.9000;0.1465;-1.7410;
1201.2000;0.1498;-1.7360;
1201.5000;0.1481;-1.7360;
1201.8000;0.1563;-1.7184;
1202.1000;0.1465;-1.7360;
1202.4000;0.1481;-1.7310;
1202.7000;0.1481;-1.7284;
1203.0000;0.1457;-1.7284;
1203.3000;0.1465;-1.7360;
1203.6000;0.1481;-1.7310;
1203.9000;0.1465;-1.7259;
1204.2000;0.1457;-1.7209;
1204.5000;0.1465;-1.7259;
1204.8000;0.1465;-1.7209;
1205.1000;0.1457;-1.7360;
1205.4000;0.1481;-1.7360;
1205.7000;0.1514;-1.7310;
1206.0000;0.1425;-1.7535;
1206.3000;0.1522;-1.7134;
1206.6000;0.1498;-1.7184;
1206.9000;0.1473;-1.7234;
1207.2000;0.1465;-1.7335;
1207.5000;0.1498;-1.7310;
1207.8000;0.1465;-1.7360;
1208.1000;0.1473;-1.7310;
1208.4000;0.1473;-1.7259;
1208.7000;0.1498;-1.7284;
1209.0000;0.1498;-1.7310;
1209.3000;0.1441;-1.7485;
1209.6000;0.1408;-1.7510;
1209.9000;0.1506;-1.7184;
1210.2000;0.1465;-1.7259;
1210.5000;0.1490;-1.7234;
1210.8000;0.1465;-1.7385;
1211.1000;0.1481;-1.7335;
1211.4000;0.1506;-1.7209;
1211.7000;0.1457;-1.7410;
1212.0000;0.1498;-1.7410;
1212.3000;0.1449;-1.7460;
1212.6000;0.1490;-1.7360;
1212.9000;0.1449;-1.7510;
1213.2000;0.1433;-1.7560;
1213.5000;0.1416;-1.7535;
1213.8000;0.1498;-1.7385;
1214.1000;0.1481;-1.7310;
1214.4000;0.1441;-1.7410;
1214.7000;0.1473;-1.7360;
1215.0000;0.1457;-1.7435;
1215.3000;0.1555;-1.7059;
1215.6000;0.1473;-1.7234;
1215.9000;0.1457;-1.7259;
1216.2000;0.1465;-1.7209;
1216.5000;0.1481;-1.7234;
1216.8000;0.1473;-1.7209;
1217.1000;0.1498;-1.7134;
1217.4000;0.1416;-1.7335;
1217.7000;0.1481;-1.7134;
1218.0000;0.1473;-1.7134;
1218.3000;0.1473;-1.7109;
1218.6000;0.1481;-1.7034;
1218.9000;0.1481;-1.6958;
1219.2000;0.1514;-1.6958;
1219.5000;0.1416;-1.7184;
1219.8000;0.1457;-1.7059;
1220.1000;0.1522;-1.6933;
1220.4000;0.1457;-1.7059;
1220.7000;0.1465;-1.6958;
1221.0000;0.1433;-1.7034;
1221.3000;0.1506;-1.6808;
1221.6000;0.1481;-1.6908;
1221.9000;0.1457;-1.7109;
1222.2000;0.1473;-1.7159;
1222.5000;0.1481;-1.7109;
1222.8000;0.1490;-1.7059;
1223.1000;0.1514;-1.7008;
1223.4000;0.1473;-1.7109;
1223.7000;0.1481;-1.7184;
1224.0000;0.1465;-1.7259;
1224.3000;0.1498;-1.7159;
1224.6000;0.1481;-1.7184;
1224.9000;0.1473;-1.7310;
1225.2000;0.1457;-1.7310;
1225.5000;0.1473;-1.7259;
1225.8000;0.1490;-1.7209;
1226.1000;0.1490;-1.7209;
1226.4000;0.1490;-1.7234;
1226.7000;0.1441;-1.7259;
1227.0000;0.1473;-1.7109;
1227.3000;0.1465;-1.7209;
1227.6000;0.1498;-1.7134;
1227.9000;0.1498;-1.7259;
1228.2000;0.1481;-1.7234;
1228.5000;0.1465;-1.7234;
1228.8000;0.1457;-1.7284;
1229.1000;0.1473;-1.7184;
1229.4000;0.1457;-1.7234;
1229.7000;0.1465;-1.7209;
1230.0000;0.1481;-1.7284;
1230.3000;0.1457;-1.7259;
1230.6000;0.1522;-1.7059;
1230.9000;0.1473;-1.7184;
1231.2000;0.1457;-1.7209;
1231.5000;0.1506;-1.7034;
1231.8000;0.1481;-1.7234;
1232.1000;0.1473;-1.7234;
1232.4000;0.1449;-1.7335;
1232.7000;0.1441;-1.7335;
1233.0000;0.1408;-1.7435;
1233.3000;0.1457;-1.7335;
1233.6000;0.1481;-1.7310;
1233.9000;0.1490;-1.7284;
1234.2000;0.1522;-1.7184;
1234.5000;0.1481;-1.7310;
1234.8000;0.1481;-1.7310;
1235.1000;0.1530;-1.7184;
1235.4000;0.1473;-1.7410;
1235.7000;0.1465;-1.7435;
1236.0000;0.1538;-1.7159;
1236.3000;0.1465;-1.7335;
1236.6000;0.1522;-1.7209;
1236.9000;0.1465;-1.7259;
1237.2000;0.1473;-1.7335;
1237.5000;0.1465;-1.7385;
1237.8000;0.1555;-1.7159;
1238.1000;0.1490;-1.7310;
1238.4000;0.1481;-1.7284;
1238.7000;0.1498;-1.7284;
1239.0000;0.1481;-1.7335;
1239.3000;0.1473;-1.7385;
1239.6000;0.1481;-1.7259;
1239.9000;0.1481;-1.7385;
1240.2000;0.1490;-1.7385;
1240.5000;0.1490;-1.7335;
1240.8000;0.1473;-1.7360;
1241.1000;0.1481;-1.7284;
1241.4000;0.1473;-1.7209;
1241.7000;0.1433;-1.7234;
1242.0000;0.1498;-1.7134;
1242.3000;0.1481;-1.7159;
1242.6000;0.1465;-1.7209;
1242.9000;0.1473;-1.7209;
1243.2000;0.1490;-1.7184;
1243.5000;0.1490;-1.7184;
1243.8000;0.1490;-1.7259;
1244.1000;0.1490;-1.7310;
1244.4000;0.1481;-1.7234;
1244.7000;0.1490;-1.7209;
1245.0000;0.1522;-1.7109;
1245.3000;0.1490;-1.7059;
1245.6000;0.1465;-1.7109;
1245.9000;0.1530;-1.7008;
1246.2000;0.1392;-1.7460;
1246.5000;0.1441;-1.7284;
1246.8000;0.1490;-1.7184;
1247.1000;0.1506;-1.7084;
1247.4000;0.1465;-1.7209;
1247.7000;0.1481;-1.7109;
1248.0000;0.1481;-1.7109;
1248.3000;0.1490;-1.7134;
1248.6000;0.1473;-1.7159;
1248.9000;0.1473;-1.7134;
1249.2000;0.1481;-1.7159;
1249.5000;0.1498;-1.7134;
1249.8000;0.1473;-1.7134;
1250.1000;0.1522;-1.7134;
1250.4000;0.1473;-1.7284;
1250.7000;0.1465;-1.7284;
1251.0000;0.1498;-1.7209;
1251.3000;0.1473;-1.7159;
1251.6000;0.1498;-1.7059;
1251.9000;0.1530;-1.7084;
1252.2000;0.1490;-1.7184;
1252.5000;0.1498;-1.7184;
1252.8000;0.1481;-1.7184;
1253.1000;0.1490;-1.7134;
1253.4000;0.1498;-1.7084;
1253.7000;0.1481;-1.7234;
1254.0000;0.1481;-1.7284;
1254.3000;0.1490;-1.7209;
1254.6000;0.1473;-1.7234;
1254.9000;0.1473;-1.7209;
1255.2000;0.1465;-1.7234;
1255.5000;0.1473;-1.7209;
1255.8000;0.1490;-1.7234;
1256.1000;0.1481;-1.7284;
1256.4000;0.1490;-1.7310;
1256.7000;0.1465;-1.7259;
1257.0000;0.1514;-1.7059;
1257.3000;0.1481;-1.7184;
1257.6000;0.1490;-1.7084;
1257.9000;0.1490;-1.7184;
1258.2000;0.1481;-1.7134;
1258.5000;0.1473;-1.7234;
1258.8000;0.1433;-1.7385;
1259.1000;0.1522;-1.7209;
1259.4000;0.1498;-1.7284;
1259.7000;0.1465;-1.7360;
1260.0000;0.1490;-1.7410;
1260.3000;0.1490;-1.7410;
1260.6000;0.1457;-1.7435;
1260.9000;0.1498;-1.7360;
1261.2000;0.1490;-1.7360;
1261.5000;0.1465;-1.7360;
1261.8000;0.1481;-1.7284;
1262.1000;0.1473;-1.7184;
1262.4000;0.1481;-1.7109;
1262.7000;0.1481;-1.7159;
1263.0000;0.1465;-1.7209;
1263.3000;0.1481;-1.7159;
1263.6000;0.1465;-1.7209;
1263.9000;0.1530;-1.7109;
1264.2000;0.1473;-1.7184;
1264.5000;0.1465;-1.7209;
1264.8000;0.1457;-1.7209;
1265.1000;0.1555;-1.6983;
1265.4000;0.1473;-1.7159;
1265.7000;0.1473;-1.7134;
1266.0000;0.1481;-1.7109;
1266.3000;0.1473;-1.7109;
1266.6000;0.1498;-1.7084;
1266.9000;0.1481;-1.7059;
1267.2000;0.1473;-1.6958;
1267.5000;0.1433;-1.7059;
1267.8000;0.1514;-1.6933;
1268.1000;0.1473;-1.7008;
1268.4000;0.1481;-1.7008;
1268.7000;0.1514;-1.6958;
1269.0000;0.1490;-1.7084;
1269.3000;0.1481;-1.7109;
1269.6000;0.1473;-1.7109;
1269.9000;0.1498;-1.7084;
1270.2000;0.1481;-1.7209;
1270.5000;0.1481;-1.7184;
1270.8000;0.1506;-1.7159;
1271.1000;0.1481;-1.7259;
1271.4000;0.1490;-1.7184;
1271.7000;0.1481;-1.7209;
1272.0000;0.1465;-1.7234;
1272.3000;0.1498;-1.7234;
1272.6000;0.1514;-1.7259;
1272.9000;0.1441;-1.7335;
1273.2000;0.1506;-1.7209;
1273.5000;0.1481;-1.7234;
1273.8000;0.1490;-1.7159;
1274.1000;0.1473;-1.7234;
1274.4000;0.1481;-1.7259;
1274.7000;0.1449;-1.7335;
1275.0000;0.1498;-1.7234;
1275.3000;0.1522;-1.7109;
1275.6000;0.1490;-1.7159;
1275.9000;0.1498;-1.7159;
1276.2000;0.1473;-1.7209;
1276.5000;0.1481;-1.7159;
1276.8000;0.1473;-1.7134;
1277.1000;0.1490;-1.7134;
1277.4000;0.1481;-1.7134;
1277.7000;0.1457;-1.7159;
1278.0000;0.1465;-1.7134;
1278.3000;0.1473;-1.7159;
1278.6000;0.1481;-1.7159;
1278.9000;0.1473;-1.7159;
1279.2000;0.1506;-1.7059;
1279.5000;0.1490;-1.7159;
1279.8000;0.1490;-1.7084;
1280.1000;0.1400;-1.7259;
1280.4000;0.1481;-1.7008;
1280.7000;0.1514;-1.6933;
1281.0000;0.1481;-1.7084;
1281.3000;0.1457;-1.7059;
1281.6000;0.1481;-1.7059;
1281.9000;0.1498;-1.7034;
1282.2000;0.1465;-1.7084;
1282.5000;0.1490;-1.7008;
1282.8000;0.1473;-1.7084;
1283.1000;0.1457;-1.7184;
1283.4000;0.1473;-1.7184;
1283.7000;0.1457;-1.7284;
1284.0000;0.1498;-1.7184;
1284.3000;0.1498;-1.7184;
1284.6000;0.1457;-1.7209;
1284.9000;0.1538;-1.7059;
1285.2000;0.1465;-1.7209;
1285.5000;0.1473;-1.7234;
1285.8000;0.1441;-1.7159;
1286.1000;0.1457;-1.7109;
1286.4000;0.1481;-1.7209;
1286.7000;0.1481;-1.7259;
1287.0000;0.1465;-1.7360;
1287.3000;0.1481;-1.7259;
1287.6000;0.1473;-1.7209;
1287.9000;0.1490;-1.7259;
1288.2000;0.1481;-1.7259;
1288.5000;0.1481;-1.7259;
1288.8000;0.1481;-1.7234;
1289.1000;0.1441;-1.7335;
1289.4000;0.1481;-1.7259;
1289.7000;0.1465;-1.7259;
1290.0000;0.1465;-1.7310;
1290.3000;0.1473;-1.7360;
1290.6000;0.1368;-1.7661;
1290.9000;0.1457;-1.7385;
1291.2000;0.1481;-1.7385;
1291.5000;0.1490;-1.7310;
1291.8000;0.1530;-1.7134;
1292.1000;0.1490;-1.7310;
1292.4000;0.1490;-1.7335;
1292.7000;0.1490;-1.7335;
1293.0000;0.1481;-1.7284;
1293.3000;0.1465;-1.7335;
1293.6000;0.1481;-1.7360;
1293.9000;0.1490;-1.7284;
1294.2000;0.1473;-1.7259;
1294.5000;0.1425;-1.7410;
1294.8000;0.1481;-1.7284;
1295.1000;0.1473;-1.7360;
1295.4000;0.1465;-1.7435;
1295.7000;0.1465;-1.7435;
1296.0000;0.1473;-1.7360;
1296.3000;0.1465;-1.7460;
1296.6000;0.1449;-1.7435;
1296.9000;0.1555;-1.7134;
1297.2000;0.1498;-1.7310;
1297.5000;0.1473;-1.7410;
1297.8000;0.1449;-1.7435;
1298.1000;0.1449;-1.7510;
1298.4000;0.1481;-1.7360;
1298.7000;0.1473;-1.7310;
1299.0000;0.1522;-1.7134;
1299.3000;0.1465;-1.7385;
1299.6000;0.1579;-1.7059;
1299.9000;0.1481;-1.7385;
1300.2000;0.1473;-1.7284;
1300.5000;0.1490;-1.7259;
1300.8000;0.1465;-1.7310;
1301.1000;0.1457;-1.7284;
1301.4000;0.1481;-1.7284;
1301.7000;0.1465;-1.7284;
1302.0000;0.1465;-1.7234;
1302.3000;0.1465;-1.7159;
1302.6000;0.1473;-1.7234;
1302.9000;0.1490;-1.7259;
1303.2000;0.1506;-1.7209;
1303.5000;0.1538;-1.7059;
1303.8000;0.1481;-1.7310;
1304.1000;0.1490;-1.7360;
1304.4000;0.1449;-1.7485;
1304.7000;0.1481;-1.7310;
1305.0000;0.1481;-1.7284;
1305.3000;0.1481;-1.7234;
1305.6000;0.1473;-1.7259;
1305.9000;0.1481;-1.7284;
1306.2000;0.1473;-1.7335;
1306.5000;0.1498;-1.7259;
1306.8000;0.1433;-1.7435;
1307.1000;0.1457;-1.7410;
1307.4000;0.1481;-1.7310;
1307.7000;0.1481;-1.7259;
1308.0000;0.1481;-1.7284;
1308.3000;0.1473;-1.7209;
1308.6000;0.1465;-1.7234;
1308.9000;0.1465;-1.7335;
1309.2000;0.1481;-1.7234;
1309.5000;0.1481;-1.7335;
1309.8000;0.1473;-1.7284;
1310.1000;0.1473;-1.7234;
1310.4000;0.1522;-1.7184;
1310.7000;0.1481;-1.7184;
1311.0000;0.1465;-1.7209;
1311.3000;0.1408;-1.7360;
1311.6000;0.1473;-1.7234;
1311.9000;0.1481;-1.7209;
1312.2000;0.1490;-1.7134;
1312.5000;0.1530;-1.7008;
1312.8000;0.1473;-1.7184;
1313.1000;0.1481;-1.7159;
1313.4000;0.1465;-1.7284;
1313.7000;0.1473;-1.7209;
1314.0000;0.1473;-1.7159;
1314.3000;0.1481;-1.7159;
1314.6000;0.1490;-1.7159;
1314.9000;0.1465;-1.7310;
1315.2000;0.1481;-1.7284;
1315.5000;0.1555;-1.7109;
1315.8000;0.1547;-1.7284;
1316.1000;0.1522;-1.7485;
1316.4000;0.1473;-1.7585;
1316.7000;0.1457;-1.7661;
1317.0000;0.1490;-1.7686;
1317.3000;0.1457;-1.7711;
1317.6000;0.1490;-1.7560;
1317.9000;0.1473;-1.7560;
1318.2000;0.1400;-1.7711;
1318.5000;0.1481;-1.7535;
1318.8000;0.1522;-1.7360;
1319.1000;0.1490;-1.7485;
1319.4000;0.1465;-1.7585;
1319.7000;0.1465;-1.7661;
1320.0000;0.1465;-1.7636;
1320.3000;0.1457;-1.7636;
1320.6000;0.1441;-1.7661;
1320.9000;0.1457;-1.7585;
1321.2000;0.1457;-1.7510;
1321.5000;0.1473;-1.7510;
1321.8000;0.1530;-1.7360;
1322.1000;0.1481;-1.7485;
1322.4000;0.1473;-1.7485;
1322.7000;0.1465;-1.7460;
1323.0000;0.1457;-1.7535;
1323.3000;0.1473;-1.7611;
1323.6000;0.1359;-1.7887;
1323.9000;0.1473;-1.7560;
1324.2000;0.1490;-1.7485;
1324.5000;0.1522;-1.7360;
1324.8000;0.1457;-1.7435;
1325.1000;0.1441;-1.7510;
1325.4000;0.1498;-1.7360;
1325.7000;0.1473;-1.7435;
1326.0000;0.1473;-1.7410;
1326.3000;0.1498;-1.7410;
1326.6000;0.1473;-1.7510;
1326.9000;0.1481;-1.7485;
1327.2000;0.1457;-1.7611;
1327.5000;0.1514;-1.7435;
1327.8000;0.1490;-1.7460;
1328.1000;0.1481;-1.7485;
1328.4000;0.1506;-1.7435;
1328.7000;0.1481;-1.7460;
1329.0000;0.1490;-1.7410;
1329.3000;0.1498;-1.7310;
1329.6000;0.1490;-1.7284;
1329.9000;0.1498;-1.7184;
1330.2000;0.1473;-1.7234;
1330.5000;0.1490;-1.7234;
1330.8000;0.1481;-1.7385;
1331.1000;0.1465;-1.7259;
1331.4000;0.1441;-1.7310;
1331.7000;0.1481;-1.7385;
1332.0000;0.1490;-1.7435;
1332.3000;0.1498;-1.7460;
1332.6000;0.1473;-1.7485;
1332.9000;0.1481;-1.7535;
1333.2000;0.1514;-1.7460;
1333.5000;0.1465;-1.7636;
1333.8000;0.1530;-1.7385;
1334.1000;0.1490;-1.7435;
1334.4000;0.1457;-1.7410;
1334.7000;0.1498;-1.7284;
1335.0000;0.1481;-1.7310;
1335.3000;0.1530;-1.7159;
1335.6000;0.1481;-1.7310;
1335.9000;0.1481;-1.7385;
1336.2000;0.1457;-1.7284;
1336.5000;0.1465;-1.7410;
1336.8000;0.1490;-1.7335;
1337.1000;0.1490;-1.7335;
1337.4000;0.1449;-1.7485;
1337.7000;0.1473;-1.7435;
1338.0000;0.1522;-1.7360;
1338.3000;0.1490;-1.7485;
1338.6000;0.1506;-1.7410;
1338.9000;0.1481;-1.7485;
1339.2000;0.1449;-1.7661;
1339.5000;0.1514;-1.7560;
1339.8000;0.1490;-1.7460;
1340.1000;0.1481;-1.7385;
1340.4000;0.1490;-1.7335;
1340.7000;0.1490;-1.7385;
1341.0000;0.1490;-1.7284;
1341.3000;0.1506;-1.7310;
1341.6000;0.1498;-1.7410;
1341.9000;0.1481;-1.7535;
1342.2000;0.1490;-1.7410;
1342.5000;0.1473;-1.7510;
1342.8000;0.1465;-1.7460;
1343.1000;0.1457;-1.7485;
1343.4000;0.1473;-1.7435;
1343.7000;0.1490;-1.7435;
1344.0000;0.1490;-1.7460;
1344.3000;0.1506;-1.7435;
1344.6000;0.1465;-1.7460;
1344.9000;0.1481;-1.7460;
1345.2000;0.1490;-1.7460;
1345.5000;0.1490;-1.7535;
1345.8000;0.1498;-1.7460;
1346.1000;0.1473;-1.7460;
1346.4000;0.1473;-1.7410;
1346.7000;0.1473;-1.7460;
1347.0000;0.1473;-1.7360;
1347.3000;0.1506;-1.7335;
1347.6000;0.1490;-1.7435;
1347.9000;0.1433;-1.7661;
1348.2000;0.1490;-1.7485;
1348.5000;0.1465;-1.7560;
1348.8000;0.1547;-1.7385;
1349.1000;0.1481;-1.7485;
1349.4000;0.1457;-1.7560;
1349.7000;0.1514;-1.7460;
1350.0000;0.1498;-1.7485;
1350.3000;0.1490;-1.7460;
1350.6000;0.1457;-1.7535;
1350.9000;0.1473;-1.7560;
1351.2000;0.1481;-1.7560;
1351.5000;0.1481;-1.7585;
1351.8000;0.1441;-1.7711;
1352.1000;0.1473;-1.7560;
1352.4000;0.1457;-1.7560;
1352.7000;0.1514;-1.7360;
1353.0000;0.1457;-1.7485;
1353.3000;0.1465;-1.7335;
1353.6000;0.1473;-1.7259;
1353.9000;0.1449;-1.7310;
1354.2000;0.1457;-1.7259;
1354.5000;0.1498;-1.7234;
1354.8000;0.1465;-1.7234;
1355.1000;0.1481;-1.7159;
1355.4000;0.1465;-1.7184;
1355.7000;0.1457;-1.7184;
1356.0000;0.1465;-1.7109;
1356.3000;0.1473;-1.7084;
1356.6000;0.1481;-1.7084;
1356.9000;0.1473;-1.7234;
1357.2000;0.1473;-1.7209;
1357.5000;0.1465;-1.7234;
1357.8000;0.1506;-1.7259;
1358.1000;0.1465;-1.7410;
1358.4000;0.1490;-1.7435;
1358.7000;0.1490;-1.7435;
1359.0000;0.1465;-1.7435;
1359.3000;0.1473;-1.7460;
1359.6000;0.1490;-1.7485;
1359.9000;0.1498;-1.7535;
1360.2000;0.1473;-1.7410;
1360.5000;0.1416;-1.7560;
1360.8000;0.1481;-1.7335;
1361.1000;0.1473;-1.7410;
1361.4000;0.1481;-1.7435;
1361.7000;0.1473;-1.7510;
1362.0000;0.1473;-1.7510;
1362.3000;0.1498;-1.7485;
1362.6000;0.1457;-1.7560;
1362.9000;0.1490;-1.7385;
1363.2000;0.1481;-1.7435;
1363.5000;0.1481;-1.7410;
1363.8000;0.1473;-1.7460;
1364.1000;0.1498;-1.7385;
1364.4000;0.1506;-1.7335;
1364.7000;0.1498;-1.7335;
1365.0000;0.1433;-1.7460;
1365.3000;0.1457;-1.7360;
1365.6000;0.1473;-1.7234;
1365.9000;0.1465;-1.7084;
1366.2000;0.1449;-1.7084;
1366.5000;0.1481;-1.7059;
1366.8000;0.1465;-1.7084;
1367.1000;0.1441;-1.7234;
1367.4000;0.1506;-1.7184;
1367.7000;0.1498;-1.7159;
1368.0000;0.1481;-1.7284;
1368.3000;0.1481;-1.7410;
1368.6000;0.1473;-1.7485;
1368.9000;0.1473;-1.7510;
1369.2000;0.1498;-1.7385;
1369.5000;0.1490;-1.7385;
1369.8000;0.1481;-1.7310;
1370.1000;0.1465;-1.7259;
1370.4000;0.1490;-1.7209;
1370.7000;0.1473;-1.7284;
1371.0000;0.1473;-1.7335;
1371.3000;0.1457;-1.7335;
1371.6000;0.1490;-1.7234;
1371.9000;0.1457;-1.7385;
1372.2000;0.1465;-1.7335;
1372.5000;0.1473;-1.7385;
1372.8000;0.1481;-1.7335;
1373.1000;0.1441;-1.7460;
1373.4000;0.1473;-1.7410;
1373.7000;0.1563;-1.7109;
1374.0000;0.1506;-1.7360;
1374.3000;0.1425;-1.7460;
1374.6000;0.1530;-1.7234;
1374.9000;0.1522;-1.7234;
1375.2000;0.1498;-1.7234;
1375.5000;0.1465;-1.7259;
1375.8000;0.1473;-1.7209;
1376.1000;0.1457;-1.7335;
1376.4000;0.1481;-1.7335;
1376.7000;0.1481;-1.7310;
1377.0000;0.1514;-1.7234;
1377.3000;0.1473;-1.7310;
1377.6000;0.1490;-1.7184;
1377.9000;0.1481;-1.7159;
1378.2000;0.1498;-1.7184;
1378.5000;0.1481;-1.7209;
1378.8000;0.1481;-1.7234;
1379.1000;0.1490;-1.7134;
1379.4000;0.1490;-1.7008;
1379.7000;0.1449;-1.7134;
1380.0000;0.1481;-1.7109;
1380.3000;0.1481;-1.7159;
1380.6000;0.1490;-1.7059;
1380.9000;0.1473;-1.7059;
1381.2000;0.1449;-1.7109;
1381.5000;0.1465;-1.7109;
1381.8000;0.1465;-1.7109;
1382.1000;0.1473;-1.7084;
1382.4000;0.1473;-1.7159;
1382.7000;0.1547;-1.6908;
1383.0000;0.1490;-1.7109;
1383.3000;0.1481;-1.7159;
1383.6000;0.1514;-1.7059;
1383.9000;0.1481;-1.7184;
1384.2000;0.1465;-1.7310;
1384.5000;0.1490;-1.7234;
1384.8000;0.1481;-1.7310;
1385.1000;0.1473;-1.7385;
1385.4000;0.1490;-1.7360;
1385.7000;0.1481;-1.7460;
1386.0000;0.1465;-1.7460;
1386.3000;0.1465;-1.7410;
1386.6000;0.1481;-1.7335;
1386.9000;0.1481;-1.7209;
1387.2000;0.1490;-1.7234;
1387.5000;0.1481;-1.7234;
1387.8000;0.1473;-1.7335;
1388.1000;0.1490;-1.7159;
1388.4000;0.1481;-1.7184;
1388.7000;0.1449;-1.7209;
1389.0000;0.1473;-1.7184;
1389.3000;0.1490;-1.7134;
1389.6000;0.1433;-1.7385;
1389.9000;0.1490;-1.7259;
1390.2000;0.1522;-1.7159;
1390.5000;0.1473;-1.7159;
1390.8000;0.1473;-1.7109;
1391.1000;0.1490;-1.7084;
1391.4000;0.1473;-1.7109;
1391.7000;0.1490;-1.7084;
1392.0000;0.1498;-1.7034;
1392.3000;0.1473;-1.7209;
1392.6000;0.1473;-1.7284;
1392.9000;0.1481;-1.7159;
1393.2000;0.1473;-1.7209;
1393.5000;0.1481;-1.7134;
1393.8000;0.1473;-1.7209;
1394.1000;0.1425;-1.7259;
1394.4000;0.1490;-1.7109;
1394.7000;0.1481;-1.7184;
1395.0000;0.1490;-1.7134;
1395.3000;0.1465;-1.7259;
1395.6000;0.1481;-1.7234;
1395.9000;0.1465;-1.7310;
1396.2000;0.1368;-1.7636;
1396.5000;0.1457;-1.7335;
1396.8000;0.1473;-1.7234;
1397.1000;0.1457;-1.7284;
1397.4000;0.1465;-1.7234;
1397.7000;0.1457;-1.7310;
1398.0000;0.1490;-1.7234;
1398.3000;0.1473;-1.7310;
1398.6000;0.1498;-1.7259;
1398.9000;0.1433;-1.7435;
1399.2000;0.1481;-1.7234;
1399.5000;0.1473;-1.7234;
1399.8000;0.1473;-1.7234;
