time/ms;Fluo/V;P700 deltaI/I x10³;
-199.8000;0.5527;3.3980;
-199.5000;0.5519;3.4033;
-199.2000;0.5503;3.3980;
-198.9000;0.5511;3.4033;
-198.6000;0.5519;3.4033;
-198.3000;0.5397;3.3743;
-198.0000;0.5511;3.4007;
-197.7000;0.5535;3.4033;
-197.4000;0.5543;3.4033;
-197.1000;0.5535;3.4033;
-196.8000;0.5438;3.3822;
-196.5000;0.5535;3.4139;
-196.2000;0.5543;3.4086;
-195.9000;0.5543;3.4033;
-195.6000;0.5535;3.3875;
-195.3000;0.5535;3.3901;
-195.0000;0.5551;3.3901;
-194.7000;0.5543;3.3954;
-194.4000;0.5535;3.3927;
-194.1000;0.5527;3.3848;
-193.8000;0.5568;3.3927;
-193.5000;0.5527;3.3796;
-193.2000;0.5527;3.3875;
-192.9000;0.5551;3.3901;
-192.6000;0.5535;3.3875;
-192.3000;0.5560;3.4059;
-192.0000;0.5543;3.3980;
-191.7000;0.5543;3.4033;
-191.4000;0.5543;3.4007;
-191.1000;0.5551;3.3875;
-190.8000;0.5543;3.3848;
-190.5000;0.5511;3.3690;
-190.2000;0.5543;3.3822;
-189.9000;0.5543;3.3848;
-189.6000;0.5543;3.3690;
-189.3000;0.5527;3.3664;
-189.0000;0.5535;3.3743;
-188.7000;0.5551;3.3848;
-188.4000;0.5568;3.3954;
-188.1000;0.5543;3.3822;
-187.8000;0.5486;3.3690;
-187.5000;0.5535;3.3848;
-187.2000;0.5535;3.3822;
-186.9000;0.5543;3.3796;
-186.6000;0.5543;3.3822;
-186.3000;0.5543;3.3848;
-186.0000;0.5543;3.3954;
-185.7000;0.5535;3.3901;
-185.4000;0.5551;3.3901;
-185.1000;0.5551;3.3927;
-184.8000;0.5551;3.3954;
-184.5000;0.5600;3.4139;
-184.2000;0.5519;3.3927;
-183.9000;0.5543;3.4033;
-183.6000;0.5535;3.4059;
-183.3000;0.5543;3.4191;
-183.0000;0.5397;3.3901;
-182.7000;0.5625;3.4482;
-182.4000;0.5527;3.4323;
-182.1000;0.5535;3.4244;
-181.8000;0.5486;3.4165;
-181.5000;0.5527;3.4323;
-181.2000;0.5543;3.4350;
-180.9000;0.5576;3.4534;
-180.6000;0.5527;3.4429;
-180.3000;0.5519;3.4376;
-180.0000;0.5511;3.4297;
-179.7000;0.5527;3.4297;
-179.4000;0.5527;3.4270;
-179.1000;0.5535;3.4218;
-178.8000;0.5511;3.4191;
-178.5000;0.5535;3.4323;
-178.2000;0.5535;3.4270;
-177.9000;0.5568;3.4402;
-177.6000;0.5519;3.4323;
-177.3000;0.5608;3.4587;
-177.0000;0.5503;3.4191;
-176.7000;0.5535;3.4218;
-176.4000;0.5592;3.4323;
-176.1000;0.5535;3.4139;
-175.8000;0.5527;3.4086;
-175.5000;0.5511;3.4033;
-175.2000;0.5543;3.4112;
-174.9000;0.5503;3.4059;
-174.6000;0.5551;3.4059;
-174.3000;0.5535;3.4059;
-174.0000;0.5560;3.4059;
-173.7000;0.5543;3.3954;
-173.4000;0.5551;3.3954;
-173.1000;0.5543;3.3875;
-172.8000;0.5519;3.3875;
-172.5000;0.5519;3.3848;
-172.2000;0.5519;3.3822;
-171.9000;0.5568;3.3927;
-171.6000;0.5543;3.3848;
-171.3000;0.5519;3.3743;
-171.0000;0.5551;3.3769;
-170.7000;0.5535;3.3848;
-170.4000;0.5551;3.3901;
-170.1000;0.5535;3.3875;
-169.8000;0.5527;3.3848;
-169.5000;0.5568;3.3980;
-169.2000;0.5551;3.4007;
-168.9000;0.5551;3.3980;
-168.6000;0.5470;3.3769;
-168.3000;0.5608;3.4165;
-168.0000;0.5551;3.4007;
-167.7000;0.5543;3.3980;
-167.4000;0.5551;3.4112;
-167.1000;0.5543;3.4086;
-166.8000;0.5527;3.3980;
-166.5000;0.5527;3.3954;
-166.2000;0.5535;3.3927;
-165.9000;0.5543;3.3875;
-165.6000;0.5543;3.3954;
-165.3000;0.5543;3.3875;
-165.0000;0.5543;3.3875;
-164.7000;0.5527;3.3927;
-164.4000;0.5527;3.3927;
-164.1000;0.5527;3.3927;
-163.8000;0.5535;3.4007;
-163.5000;0.5535;3.4007;
-163.2000;0.5543;3.3980;
-162.9000;0.5511;3.3901;
-162.6000;0.5519;3.3980;
-162.3000;0.5519;3.4059;
-162.0000;0.5543;3.4086;
-161.7000;0.5519;3.4033;
-161.4000;0.5503;3.4059;
-161.1000;0.5535;3.4191;
-160.8000;0.5503;3.4033;
-160.5000;0.5576;3.4297;
-160.2000;0.5495;3.4059;
-159.9000;0.5535;3.4218;
-159.6000;0.5503;3.4244;
-159.3000;0.5511;3.4244;
-159.0000;0.5535;3.4191;
-158.7000;0.5527;3.4139;
-158.4000;0.5495;3.4086;
-158.1000;0.5535;3.4191;
-157.8000;0.5535;3.4165;
-157.5000;0.5535;3.4218;
-157.2000;0.5543;3.4218;
-156.9000;0.5527;3.4112;
-156.6000;0.5535;3.4191;
-156.3000;0.5527;3.4059;
-156.0000;0.5527;3.4007;
-155.7000;0.5486;3.3875;
-155.4000;0.5551;3.3954;
-155.1000;0.5535;3.4033;
-154.8000;0.5495;3.3875;
-154.5000;0.5576;3.4112;
-154.2000;0.5551;3.4007;
-153.9000;0.5543;3.3954;
-153.6000;0.5543;3.3980;
-153.3000;0.5584;3.4059;
-153.0000;0.5543;3.3954;
-152.7000;0.5535;3.3954;
-152.4000;0.5470;3.3822;
-152.1000;0.5551;3.4033;
-151.8000;0.5543;3.3954;
-151.5000;0.5535;3.4007;
-151.2000;0.5519;3.4007;
-150.9000;0.5527;3.4007;
-150.6000;0.5543;3.4033;
-150.3000;0.5560;3.4059;
-150.0000;0.5551;3.4033;
-149.7000;0.5535;3.4007;
-149.4000;0.5535;3.3980;
-149.1000;0.5543;3.4033;
-148.8000;0.5560;3.4007;
-148.5000;0.5592;3.4086;
-148.2000;0.5560;3.3980;
-147.9000;0.5543;3.3954;
-147.6000;0.5535;3.4007;
-147.3000;0.5551;3.3954;
-147.0000;0.5543;3.3822;
-146.7000;0.5535;3.3875;
-146.4000;0.5527;3.3927;
-146.1000;0.5527;3.4033;
-145.8000;0.5543;3.4033;
-145.5000;0.5560;3.4059;
-145.2000;0.5535;3.3980;
-144.9000;0.5527;3.4007;
-144.6000;0.5527;3.4165;
-144.3000;0.5527;3.4191;
-144.0000;0.5486;3.4112;
-143.7000;0.5543;3.4244;
-143.4000;0.5527;3.4139;
-143.1000;0.5584;3.4323;
-142.8000;0.5527;3.4139;
-142.5000;0.5543;3.4139;
-142.2000;0.5527;3.4191;
-141.9000;0.5551;3.4297;
-141.6000;0.5486;3.4139;
-141.3000;0.5527;3.4270;
-141.0000;0.5527;3.4218;
-140.7000;0.5535;3.4270;
-140.4000;0.5535;3.4323;
-140.1000;0.5551;3.4429;
-139.8000;0.5527;3.4270;
-139.5000;0.5543;3.4323;
-139.2000;0.5527;3.4429;
-138.9000;0.5519;3.4455;
-138.6000;0.5503;3.4429;
-138.3000;0.5560;3.4508;
-138.0000;0.5519;3.4429;
-137.7000;0.5470;3.4350;
-137.4000;0.5543;3.4429;
-137.1000;0.5527;3.4297;
-136.8000;0.5527;3.4270;
-136.5000;0.5584;3.4376;
-136.2000;0.5568;3.4376;
-135.9000;0.5543;3.4244;
-135.6000;0.5560;3.4191;
-135.3000;0.5649;3.4350;
-135.0000;0.5543;3.4139;
-134.7000;0.5551;3.4191;
-134.4000;0.5478;3.4033;
-134.1000;0.5535;3.4112;
-133.8000;0.5543;3.4165;
-133.5000;0.5560;3.4112;
-133.2000;0.5584;3.4139;
-132.9000;0.5535;3.3980;
-132.6000;0.5519;3.3954;
-132.3000;0.5568;3.4112;
-132.0000;0.5543;3.4007;
-131.7000;0.5543;3.4033;
-131.4000;0.5543;3.4033;
-131.1000;0.5535;3.4086;
-130.8000;0.5560;3.4139;
-130.5000;0.5543;3.4007;
-130.2000;0.5551;3.3980;
-129.9000;0.5543;3.3875;
-129.6000;0.5568;3.3927;
-129.3000;0.5535;3.3980;
-129.0000;0.5551;3.3980;
-128.7000;0.5519;3.4007;
-128.4000;0.5535;3.4033;
-128.1000;0.5527;3.3901;
-127.8000;0.5657;3.4270;
-127.5000;0.5535;3.3769;
-127.2000;0.5543;3.3716;
-126.9000;0.5568;3.3848;
-126.6000;0.5592;3.3954;
-126.3000;0.5527;3.3875;
-126.0000;0.5543;3.4007;
-125.7000;0.5527;3.3954;
-125.4000;0.5535;3.3954;
-125.1000;0.5543;3.3954;
-124.8000;0.5535;3.3848;
-124.5000;0.5535;3.3848;
-124.2000;0.5543;3.3954;
-123.9000;0.5527;3.4007;
-123.6000;0.5551;3.4086;
-123.3000;0.5600;3.4376;
-123.0000;0.5535;3.4244;
-122.7000;0.5535;3.4218;
-122.4000;0.5503;3.4165;
-122.1000;0.5576;3.4402;
-121.8000;0.5511;3.4218;
-121.5000;0.5519;3.4350;
-121.2000;0.5543;3.4429;
-120.9000;0.5511;3.4376;
-120.6000;0.5527;3.4534;
-120.3000;0.5503;3.4455;
-120.0000;0.5511;3.4402;
-119.7000;0.5519;3.4402;
-119.4000;0.5511;3.4429;
-119.1000;0.5519;3.4455;
-118.8000;0.5511;3.4534;
-118.5000;0.5511;3.4534;
-118.2000;0.5543;3.4587;
-117.9000;0.5527;3.4508;
-117.6000;0.5543;3.4508;
-117.3000;0.5462;3.4244;
-117.0000;0.5584;3.4587;
-116.7000;0.5535;3.4429;
-116.4000;0.5519;3.4429;
-116.1000;0.5535;3.4402;
-115.8000;0.5535;3.4323;
-115.5000;0.5551;3.4297;
-115.2000;0.5438;3.4033;
-114.9000;0.5495;3.4165;
-114.6000;0.5543;3.4218;
-114.3000;0.5568;3.4270;
-114.0000;0.5535;3.4139;
-113.7000;0.5511;3.4007;
-113.4000;0.5551;3.4059;
-113.1000;0.5511;3.4033;
-112.8000;0.5535;3.4059;
-112.5000;0.5560;3.4086;
-112.2000;0.5511;3.4007;
-111.9000;0.5535;3.3980;
-111.6000;0.5551;3.4033;
-111.3000;0.5535;3.3901;
-111.0000;0.5535;3.3980;
-110.7000;0.5543;3.3954;
-110.4000;0.5543;3.3980;
-110.1000;0.5543;3.3901;
-109.8000;0.5527;3.3901;
-109.5000;0.5535;3.3954;
-109.2000;0.5478;3.3796;
-108.9000;0.5527;3.3954;
-108.6000;0.5543;3.3980;
-108.3000;0.5511;3.3901;
-108.0000;0.5543;3.4007;
-107.7000;0.5551;3.4007;
-107.4000;0.5543;3.4033;
-107.1000;0.5519;3.4033;
-106.8000;0.5535;3.4033;
-106.5000;0.5543;3.3980;
-106.2000;0.5535;3.3927;
-105.9000;0.5535;3.3980;
-105.6000;0.5519;3.3954;
-105.3000;0.5478;3.3796;
-105.0000;0.5511;3.3848;
-104.7000;0.5519;3.3743;
-104.4000;0.5543;3.3901;
-104.1000;0.5543;3.3927;
-103.8000;0.5551;3.4086;
-103.5000;0.5511;3.4033;
-103.2000;0.5535;3.4165;
-102.9000;0.5551;3.4218;
-102.6000;0.5551;3.4270;
-102.3000;0.5535;3.4139;
-102.0000;0.5560;3.4244;
-101.7000;0.5495;3.4139;
-101.4000;0.5551;3.4297;
-101.1000;0.5519;3.4270;
-100.8000;0.5527;3.4350;
-100.5000;0.5535;3.4350;
-100.2000;0.5511;3.4297;
-99.9000;0.5584;3.4508;
-99.6000;0.5519;3.4350;
-99.3000;0.5495;3.4244;
-99.0000;0.5535;3.4244;
-98.7000;0.5527;3.4191;
-98.4000;0.5511;3.4139;
-98.1000;0.5543;3.4218;
-97.8000;0.5413;3.3875;
-97.5000;0.5527;3.4244;
-97.2000;0.5446;3.4007;
-96.9000;0.5535;3.4297;
-96.6000;0.5535;3.4244;
-96.3000;0.5495;3.4112;
-96.0000;0.5527;3.4165;
-95.7000;0.5519;3.4270;
-95.4000;0.5527;3.4191;
-95.1000;0.5535;3.4191;
-94.8000;0.5535;3.4112;
-94.5000;0.5543;3.4086;
-94.2000;0.5527;3.3980;
-93.9000;0.5535;3.3927;
-93.6000;0.5535;3.3927;
-93.3000;0.5551;3.3875;
-93.0000;0.5511;3.3848;
-92.7000;0.5560;3.4086;
-92.4000;0.5543;3.4007;
-92.1000;0.5527;3.3822;
-91.8000;0.5560;3.3954;
-91.5000;0.5600;3.4033;
-91.2000;0.5560;3.3901;
-90.9000;0.5568;3.3848;
-90.6000;0.5560;3.3848;
-90.3000;0.5560;3.3848;
-90.0000;0.5576;3.3980;
-89.7000;0.5535;3.3875;
-89.4000;0.5535;3.3901;
-89.1000;0.5543;3.3927;
-88.8000;0.5584;3.4059;
-88.5000;0.5543;3.3980;
-88.2000;0.5535;3.3927;
-87.9000;0.5551;3.3927;
-87.6000;0.5551;3.3927;
-87.3000;0.5568;3.3875;
-87.0000;0.5551;3.3743;
-86.7000;0.5527;3.3716;
-86.4000;0.5551;3.3743;
-86.1000;0.5535;3.3690;
-85.8000;0.5543;3.3743;
-85.5000;0.5503;3.3743;
-85.2000;0.5535;3.3875;
-84.9000;0.5543;3.3954;
-84.6000;0.5543;3.4007;
-84.3000;0.5527;3.4086;
-84.0000;0.5535;3.4059;
-83.7000;0.5543;3.4191;
-83.4000;0.5527;3.4112;
-83.1000;0.5519;3.4112;
-82.8000;0.5519;3.4218;
-82.5000;0.5551;3.4270;
-82.2000;0.5535;3.4244;
-81.9000;0.5543;3.4244;
-81.6000;0.5519;3.4323;
-81.3000;0.5527;3.4376;
-81.0000;0.5413;3.4139;
-80.7000;0.5527;3.4429;
-80.4000;0.5519;3.4402;
-80.1000;0.5535;3.4402;
-79.8000;0.5535;3.4323;
-79.5000;0.5527;3.4429;
-79.2000;0.5535;3.4455;
-78.9000;0.5519;3.4376;
-78.6000;0.5527;3.4429;
-78.3000;0.5511;3.4350;
-78.0000;0.5527;3.4323;
-77.7000;0.5543;3.4297;
-77.4000;0.5543;3.4297;
-77.1000;0.5527;3.4139;
-76.8000;0.5551;3.4270;
-76.5000;0.5486;3.4139;
-76.2000;0.5519;3.4112;
-75.9000;0.5503;3.4007;
-75.6000;0.5527;3.4139;
-75.3000;0.5560;3.4270;
-75.0000;0.5527;3.4112;
-74.7000;0.5576;3.4165;
-74.4000;0.5462;3.3769;
-74.1000;0.5543;3.3980;
-73.8000;0.5568;3.3954;
-73.5000;0.5535;3.3980;
-73.2000;0.5543;3.3954;
-72.9000;0.5543;3.3954;
-72.6000;0.5535;3.3927;
-72.3000;0.5543;3.4059;
-72.0000;0.5551;3.3927;
-71.7000;0.5519;3.3954;
-71.4000;0.5543;3.3954;
-71.1000;0.5527;3.3901;
-70.8000;0.5543;3.3901;
-70.5000;0.5519;3.3875;
-70.2000;0.5519;3.3954;
-69.9000;0.5535;3.3901;
-69.6000;0.5535;3.3875;
-69.3000;0.5560;3.3875;
-69.0000;0.5503;3.3769;
-68.7000;0.5511;3.3716;
-68.4000;0.5527;3.3716;
-68.1000;0.5511;3.3637;
-67.8000;0.5551;3.3716;
-67.5000;0.5568;3.3769;
-67.2000;0.5551;3.3769;
-66.9000;0.5527;3.3769;
-66.6000;0.5576;3.3901;
-66.3000;0.5543;3.3796;
-66.0000;0.5551;3.3848;
-65.7000;0.5543;3.3875;
-65.4000;0.5470;3.3585;
-65.1000;0.5519;3.3690;
-64.8000;0.5535;3.3796;
-64.5000;0.5535;3.3796;
-64.2000;0.5543;3.3875;
-63.9000;0.5519;3.3901;
-63.6000;0.5551;3.4007;
-63.3000;0.5519;3.4007;
-63.0000;0.5421;3.3664;
-62.7000;0.5551;3.4033;
-62.4000;0.5543;3.4033;
-62.1000;0.5535;3.3901;
-61.8000;0.5527;3.3901;
-61.5000;0.5503;3.3901;
-61.2000;0.5535;3.4033;
-60.9000;0.5551;3.4165;
-60.6000;0.5543;3.4270;
-60.3000;0.5535;3.4350;
-60.0000;0.5527;3.4323;
-59.7000;0.5519;3.4350;
-59.4000;0.5503;3.4429;
-59.1000;0.5486;3.4323;
-58.8000;0.5519;3.4429;
-58.5000;0.5527;3.4508;
-58.2000;0.5519;3.4455;
-57.9000;0.5527;3.4429;
-57.6000;0.5527;3.4297;
-57.3000;0.5543;3.4191;
-57.0000;0.5527;3.4139;
-56.7000;0.5527;3.4007;
-56.4000;0.5535;3.4033;
-56.1000;0.5527;3.4059;
-55.8000;0.5551;3.4033;
-55.5000;0.5543;3.4007;
-55.2000;0.5519;3.4007;
-54.9000;0.5535;3.4086;
-54.6000;0.5543;3.4059;
-54.3000;0.5584;3.4112;
-54.0000;0.5576;3.4086;
-53.7000;0.5535;3.3901;
-53.4000;0.5527;3.3901;
-53.1000;0.5560;3.3954;
-52.8000;0.5527;3.3901;
-52.5000;0.5519;3.3848;
-52.2000;0.5543;3.3901;
-51.9000;0.5535;3.3901;
-51.6000;0.5568;3.3822;
-51.3000;0.5551;3.3769;
-51.0000;0.5543;3.3716;
-50.7000;0.5576;3.3796;
-50.4000;0.5641;3.4007;
-50.1000;0.5527;3.3637;
-49.8000;0.5592;3.3796;
-49.5000;0.5535;3.3664;
-49.2000;0.5535;3.3743;
-48.9000;0.5551;3.3716;
-48.6000;0.5535;3.3743;
-48.3000;0.5551;3.3848;
-48.0000;0.5543;3.3822;
-47.7000;0.5543;3.3796;
-47.4000;0.5543;3.3848;
-47.1000;0.5519;3.3716;
-46.8000;0.5543;3.3796;
-46.5000;0.5551;3.3822;
-46.2000;0.5527;3.3716;
-45.9000;0.5543;3.3769;
-45.6000;0.5551;3.3769;
-45.3000;0.5527;3.3769;
-45.0000;0.5527;3.3716;
-44.7000;0.5527;3.3796;
-44.4000;0.5535;3.3822;
-44.1000;0.5551;3.3875;
-43.8000;0.5543;3.3875;
-43.5000;0.5543;3.3927;
-43.2000;0.5519;3.3954;
-42.9000;0.5511;3.4007;
-42.6000;0.5519;3.4007;
-42.3000;0.5462;3.3769;
-42.0000;0.5503;3.4033;
-41.7000;0.5535;3.4086;
-41.4000;0.5535;3.4191;
-41.1000;0.5519;3.4270;
-40.8000;0.5519;3.4244;
-40.5000;0.5511;3.4244;
-40.2000;0.5527;3.4429;
-39.9000;0.5535;3.4429;
-39.6000;0.5446;3.4139;
-39.3000;0.5527;3.4376;
-39.0000;0.5519;3.4508;
-38.7000;0.5511;3.4323;
-38.4000;0.5519;3.4270;
-38.1000;0.5519;3.4270;
-37.8000;0.5543;3.4350;
-37.5000;0.5543;3.4350;
-37.2000;0.5511;3.4244;
-36.9000;0.5535;3.4402;
-36.6000;0.5560;3.4350;
-36.3000;0.5527;3.4244;
-36.0000;0.5600;3.4482;
-35.7000;0.5551;3.4376;
-35.4000;0.5543;3.4218;
-35.1000;0.5551;3.4218;
-34.8000;0.5568;3.4323;
-34.5000;0.5527;3.4244;
-34.2000;0.5503;3.4059;
-33.9000;0.5527;3.4112;
-33.6000;0.5535;3.4086;
-33.3000;0.5535;3.4139;
-33.0000;0.5519;3.3954;
-32.7000;0.5438;3.3637;
-32.4000;0.5543;3.3796;
-32.1000;0.5519;3.3901;
-31.8000;0.5446;3.3637;
-31.5000;0.5535;3.3980;
-31.2000;0.5551;3.4086;
-30.9000;0.5584;3.4139;
-30.6000;0.5560;3.4007;
-30.3000;0.5551;3.3980;
-30.0000;0.5543;3.4033;
-29.7000;0.5535;3.3980;
-29.4000;0.5535;3.3875;
-29.1000;0.5560;3.3927;
-28.8000;0.5527;3.3822;
-28.5000;0.5551;3.3796;
-28.2000;0.5535;3.3743;
-27.9000;0.5551;3.3848;
-27.6000;0.5543;3.3901;
-27.3000;0.5568;3.4059;
-27.0000;0.5527;3.3954;
-26.7000;0.5543;3.3980;
-26.4000;0.5535;3.3927;
-26.1000;0.5535;3.3848;
-25.8000;0.5527;3.3822;
-25.5000;0.5535;3.3822;
-25.2000;0.5543;3.3848;
-24.9000;0.5511;3.3716;
-24.6000;0.5535;3.3796;
-24.3000;0.5527;3.3822;
-24.0000;0.5519;3.3901;
-23.7000;0.5535;3.3980;
-23.4000;0.5511;3.3954;
-23.1000;0.5527;3.3980;
-22.8000;0.5535;3.3980;
-22.5000;0.5535;3.4007;
-22.2000;0.5519;3.4033;
-21.9000;0.5511;3.3927;
-21.6000;0.5527;3.4007;
-21.3000;0.5527;3.4059;
-21.0000;0.5527;3.4139;
-20.7000;0.5535;3.4244;
-20.4000;0.5551;3.4297;
-20.1000;0.5486;3.4297;
-19.8000;0.5519;3.4376;
-19.5000;0.5527;3.4323;
-19.2000;0.5486;3.4191;
-18.9000;0.5535;3.4297;
-18.6000;0.5527;3.4244;
-18.3000;0.5446;3.3927;
-18.0000;0.5519;3.4139;
-17.7000;0.5527;3.4218;
-17.4000;0.5519;3.4165;
-17.1000;0.5519;3.4112;
-16.8000;0.5551;3.4165;
-16.5000;0.5535;3.4086;
-16.2000;0.5551;3.4086;
-15.9000;0.5551;3.4007;
-15.6000;0.5527;3.3901;
-15.3000;0.5527;3.3901;
-15.0000;0.5535;3.3927;
-14.7000;0.5535;3.3875;
-14.4000;0.5535;3.3769;
-14.1000;0.5535;3.3743;
-13.8000;0.5527;3.3875;
-13.5000;0.5535;3.3901;
-13.2000;0.5421;3.3690;
-12.9000;0.5519;3.3980;
-12.6000;0.5527;3.4033;
-12.3000;0.5535;3.4059;
-12.0000;0.5535;3.3927;
-11.7000;0.5535;3.3927;
-11.4000;0.5519;3.3822;
-11.1000;0.5543;3.3901;
-10.8000;0.5543;3.3822;
-10.5000;0.5519;3.3822;
-10.2000;0.5527;3.3796;
-9.9000;0.5527;3.3822;
-9.6000;0.5535;3.3822;
-9.3000;0.5535;3.3875;
-9.0000;0.5470;3.3637;
-8.7000;0.5551;3.3822;
-8.4000;0.5592;3.3875;
-8.1000;0.5527;3.3690;
-7.8000;0.5527;3.3769;
-7.5000;0.5503;3.3690;
-7.2000;0.5551;3.3769;
-6.9000;0.5535;3.3611;
-6.6000;0.5535;3.3769;
-6.3000;0.5511;3.3716;
-6.0000;0.5551;3.3796;
-5.7000;0.5698;3.4191;
-5.4000;0.5543;3.3822;
-5.1000;0.5527;3.3822;
-4.8000;0.5543;3.3769;
-4.5000;0.5535;3.3796;
-4.2000;0.5503;3.3690;
-3.9000;0.5446;3.3532;
-3.6000;0.5535;3.3822;
-3.3000;0.5446;3.3637;
-3.0000;0.5535;3.3927;
-2.7000;0.5535;3.4007;
-2.4000;0.5527;3.4059;
-2.1000;0.5543;3.4191;
-1.8000;0.5600;3.4402;
-1.5000;0.5519;3.4139;
-1.2000;0.5519;3.4112;
-0.9000;0.5511;3.4191;
-0.6000;0.5527;3.4244;
-0.3000;0.5519;3.4270;
0.0000;0.5519;3.4270;
0.3000;0.5527;3.4191;
0.6000;0.5543;3.4508;
0.9000;0.5560;3.4745;
1.2000;0.5551;3.4956;
1.5000;0.5576;3.5299;
1.8000;0.5584;3.5537;
2.1000;0.5592;3.5748;
2.4000;0.5584;3.5801;
2.7000;0.5592;3.5880;
3.0000;0.5649;3.6038;
3.3000;0.5608;3.5985;
3.6000;0.5674;3.6223;
3.9000;0.5592;3.5985;
4.2000;0.5600;3.5959;
4.5000;0.5625;3.5985;
4.8000;0.5633;3.6012;
5.1000;0.5625;3.6064;
5.4000;0.5592;3.5985;
5.7000;0.5625;3.6091;
6.0000;0.5625;3.6091;
6.3000;0.5657;3.6144;
6.6000;0.5633;3.6170;
6.9000;0.5649;3.6064;
7.2000;0.5641;3.6064;
7.5000;0.5706;3.6223;
7.8000;0.5649;3.6038;
8.1000;0.5665;3.6117;
8.4000;0.5657;3.6275;
8.7000;0.5649;3.6170;
9.0000;0.5657;3.6170;
9.3000;0.5674;3.6223;
9.6000;0.5665;3.6302;
9.9000;0.5682;3.6328;
10.2000;0.5657;3.6196;
10.5000;0.5690;3.6196;
10.8000;0.5674;3.6170;
11.1000;0.5665;3.6196;
11.4000;0.5665;3.6223;
11.7000;0.5674;3.6223;
12.0000;0.5682;3.6275;
12.3000;0.5665;3.6170;
12.6000;0.5657;3.6196;
12.9000;0.5674;3.6275;
13.2000;0.5682;3.6381;
13.5000;0.5665;3.6275;
13.8000;0.5665;3.6275;
14.1000;0.5714;3.6355;
14.4000;0.5665;3.6196;
14.7000;0.5682;3.6275;
15.0000;0.5674;3.6302;
15.3000;0.5657;3.6170;
15.6000;0.5706;3.6381;
15.9000;0.5674;3.6328;
16.2000;0.5674;3.6381;
16.5000;0.5665;3.6302;
16.8000;0.5714;3.6434;
17.1000;0.5755;3.6645;
17.4000;0.5690;3.6513;
17.7000;0.5641;3.6381;
18.0000;0.5674;3.6645;
18.3000;0.5739;3.7041;
18.6000;0.5649;3.6830;
18.9000;0.5657;3.6882;
19.2000;0.5665;3.6935;
19.5000;0.5690;3.6909;
19.8000;0.5649;3.6830;
20.1000;0.5641;3.6777;
20.4000;0.5649;3.6909;
20.7000;0.5617;3.6724;
21.0000;0.5682;3.6856;
21.3000;0.5641;3.6671;
21.6000;0.5674;3.6671;
21.9000;0.5682;3.6671;
22.2000;0.5690;3.6724;
22.5000;0.5690;3.6724;
22.8000;0.5682;3.6566;
23.1000;0.5625;3.6513;
23.4000;0.5682;3.6618;
23.7000;0.5690;3.6618;
24.0000;0.5633;3.6487;
24.3000;0.5674;3.6618;
24.6000;0.5698;3.6566;
24.9000;0.5674;3.6487;
25.2000;0.5674;3.6407;
25.5000;0.5690;3.6407;
25.8000;0.5674;3.6328;
26.1000;0.5665;3.6275;
26.4000;0.5682;3.6249;
26.7000;0.5674;3.6302;
27.0000;0.5690;3.6381;
27.3000;0.5698;3.6434;
27.6000;0.5674;3.6460;
27.9000;0.5698;3.6487;
28.2000;0.5641;3.6328;
28.5000;0.5657;3.6328;
28.8000;0.5698;3.6381;
29.1000;0.5657;3.6275;
29.4000;0.5641;3.6170;
29.7000;0.5690;3.6328;
30.0000;0.5682;3.6328;
30.3000;0.5690;3.6434;
30.6000;0.5706;3.6434;
30.9000;0.5690;3.6355;
31.2000;0.5698;3.6275;
31.5000;0.5690;3.6355;
31.8000;0.5682;3.6302;
32.1000;0.5836;3.6592;
32.4000;0.5722;3.6249;
32.7000;0.5706;3.6249;
33.0000;0.5698;3.6223;
33.3000;0.5698;3.6275;
33.6000;0.5674;3.6275;
33.9000;0.5698;3.6302;
34.2000;0.5690;3.6223;
34.5000;0.5674;3.6249;
34.8000;0.5682;3.6249;
35.1000;0.5674;3.6249;
35.4000;0.5682;3.6328;
35.7000;0.5674;3.6460;
36.0000;0.5682;3.6513;
36.3000;0.5690;3.6513;
36.6000;0.5674;3.6539;
36.9000;0.5674;3.6566;
37.2000;0.5674;3.6645;
37.5000;0.5747;3.6961;
37.8000;0.5674;3.6777;
38.1000;0.5690;3.6856;
38.4000;0.5665;3.6882;
38.7000;0.5804;3.7331;
39.0000;0.5674;3.6988;
39.3000;0.5657;3.6935;
39.6000;0.5568;3.6724;
39.9000;0.5665;3.6935;
40.2000;0.5665;3.6961;
40.5000;0.5576;3.6618;
40.8000;0.5592;3.6724;
41.1000;0.5714;3.7120;
41.4000;0.5674;3.7014;
41.7000;0.5747;3.7225;
42.0000;0.5649;3.7014;
42.3000;0.5788;3.7384;
42.6000;0.5665;3.6988;
42.9000;0.5690;3.6935;
43.2000;0.5617;3.6803;
43.5000;0.5665;3.6750;
43.8000;0.5690;3.6777;
44.1000;0.5682;3.6724;
44.4000;0.5665;3.6671;
44.7000;0.5690;3.6724;
45.0000;0.5641;3.6487;
45.3000;0.5690;3.6566;
45.6000;0.5698;3.6618;
45.9000;0.5706;3.6566;
46.2000;0.5690;3.6487;
46.5000;0.5698;3.6539;
46.8000;0.5690;3.6539;
47.1000;0.5682;3.6513;
47.4000;0.5690;3.6566;
47.7000;0.5706;3.6539;
48.0000;0.5682;3.6513;
48.3000;0.5674;3.6460;
48.6000;0.5698;3.6513;
48.9000;0.5706;3.6566;
49.2000;0.5690;3.6671;
49.5000;0.5690;3.6618;
49.8000;0.5682;3.6566;
50.1000;0.5674;3.6539;
50.4000;0.5690;3.6592;
50.7000;0.5592;3.6196;
51.0000;0.5665;3.6434;
51.3000;0.5690;3.6513;
51.6000;0.5698;3.6592;
51.9000;0.5706;3.6618;
52.2000;0.5690;3.6618;
52.5000;0.5568;3.6328;
52.8000;0.5706;3.6698;
53.1000;0.5649;3.6513;
53.4000;0.5779;3.6750;
53.7000;0.5714;3.6592;
54.0000;0.5698;3.6592;
54.3000;0.5698;3.6698;
54.6000;0.5682;3.6671;
54.9000;0.5682;3.6671;
55.2000;0.5706;3.6803;
55.5000;0.5690;3.6724;
55.8000;0.5698;3.6698;
56.1000;0.5682;3.6645;
56.4000;0.5690;3.6724;
56.7000;0.5698;3.6830;
57.0000;0.5714;3.6830;
57.3000;0.5706;3.6856;
57.6000;0.5690;3.6882;
57.9000;0.5690;3.6830;
58.2000;0.5690;3.6777;
58.5000;0.5674;3.6777;
58.8000;0.5674;3.6777;
59.1000;0.5682;3.6909;
59.4000;0.5747;3.7172;
59.7000;0.5649;3.6935;
60.0000;0.5690;3.7067;
60.3000;0.5625;3.6803;
60.6000;0.5674;3.6935;
60.9000;0.5690;3.7041;
61.2000;0.5731;3.7093;
61.5000;0.5682;3.6909;
61.8000;0.5682;3.6935;
62.1000;0.5706;3.7014;
62.4000;0.5682;3.6803;
62.7000;0.5698;3.6882;
63.0000;0.5682;3.6830;
63.3000;0.5690;3.6856;
63.6000;0.5714;3.6856;
63.9000;0.5657;3.6698;
64.2000;0.5682;3.6671;
64.5000;0.5674;3.6618;
64.8000;0.5682;3.6592;
65.1000;0.5682;3.6618;
65.4000;0.5682;3.6566;
65.7000;0.5706;3.6539;
66.0000;0.5698;3.6513;
66.3000;0.5690;3.6487;
66.6000;0.5674;3.6513;
66.9000;0.5698;3.6592;
67.2000;0.5698;3.6592;
67.5000;0.5706;3.6698;
67.8000;0.5665;3.6487;
68.1000;0.5706;3.6566;
68.4000;0.5690;3.6592;
68.7000;0.5682;3.6566;
69.0000;0.5682;3.6460;
69.3000;0.5682;3.6487;
69.6000;0.5690;3.6539;
69.9000;0.5690;3.6539;
70.2000;0.5682;3.6618;
70.5000;0.5690;3.6566;
70.8000;0.5690;3.6671;
71.1000;0.5690;3.6645;
71.4000;0.5674;3.6566;
71.7000;0.5657;3.6487;
72.0000;0.5698;3.6566;
72.3000;0.5714;3.6539;
72.6000;0.5698;3.6407;
72.9000;0.5771;3.6566;
73.2000;0.5690;3.6434;
73.5000;0.5698;3.6487;
73.8000;0.5649;3.6407;
74.1000;0.5706;3.6618;
74.4000;0.5690;3.6592;
74.7000;0.5649;3.6539;
75.0000;0.5690;3.6671;
75.3000;0.5690;3.6750;
75.6000;0.5690;3.6750;
75.9000;0.5731;3.6803;
76.2000;0.5608;3.6434;
76.5000;0.5649;3.6566;
76.8000;0.5682;3.6618;
77.1000;0.5665;3.6566;
77.4000;0.5698;3.6698;
77.7000;0.5674;3.6724;
78.0000;0.5665;3.6803;
78.3000;0.5690;3.6803;
78.6000;0.5714;3.6909;
78.9000;0.5706;3.6935;
79.2000;0.5657;3.6777;
79.5000;0.5674;3.6882;
79.8000;0.5682;3.6777;
80.1000;0.5682;3.6777;
80.4000;0.5698;3.6803;
80.7000;0.5690;3.6830;
81.0000;0.5682;3.6856;
81.3000;0.5682;3.6830;
81.6000;0.5690;3.6803;
81.9000;0.5665;3.6777;
82.2000;0.5682;3.6856;
82.5000;0.5698;3.6830;
82.8000;0.5682;3.6830;
83.1000;0.5682;3.6803;
83.4000;0.5763;3.6961;
83.7000;0.5682;3.6750;
84.0000;0.5674;3.6777;
84.3000;0.5665;3.6698;
84.6000;0.5682;3.6724;
84.9000;0.5706;3.6750;
85.2000;0.5657;3.6592;
85.5000;0.5690;3.6750;
85.8000;0.5690;3.6645;
86.1000;0.5714;3.6592;
86.4000;0.5682;3.6487;
86.7000;0.5682;3.6460;
87.0000;0.5690;3.6487;
87.3000;0.5690;3.6671;
87.6000;0.5682;3.6592;
87.9000;0.5657;3.6487;
88.2000;0.5674;3.6513;
88.5000;0.5690;3.6645;
88.8000;0.5690;3.6645;
89.1000;0.5690;3.6618;
89.4000;0.5706;3.6698;
89.7000;0.5722;3.6830;
90.0000;0.5633;3.6513;
90.3000;0.5682;3.6698;
90.6000;0.5649;3.6618;
90.9000;0.5698;3.6777;
91.2000;0.5674;3.6671;
91.5000;0.5698;3.6592;
91.8000;0.5584;3.6249;
92.1000;0.5682;3.6539;
92.4000;0.5674;3.6513;
92.7000;0.5706;3.6592;
93.0000;0.5682;3.6698;
93.3000;0.5698;3.6671;
93.6000;0.5722;3.6671;
93.9000;0.5706;3.6645;
94.2000;0.5706;3.6618;
94.5000;0.5698;3.6592;
94.8000;0.5706;3.6592;
95.1000;0.5796;3.6830;
95.4000;0.5771;3.6698;
95.7000;0.5690;3.6566;
96.0000;0.5674;3.6539;
96.3000;0.5690;3.6724;
96.6000;0.5674;3.6750;
96.9000;0.5779;3.7093;
97.2000;0.5690;3.6830;
97.5000;0.5682;3.6988;
97.8000;0.5649;3.6961;
98.1000;0.5665;3.7041;
98.4000;0.5665;3.7014;
98.7000;0.5665;3.7041;
99.0000;0.5674;3.7146;
99.3000;0.5674;3.7146;
99.6000;0.5674;3.7146;
99.9000;0.5657;3.7041;
100.2000;0.5665;3.7120;
100.5000;0.5682;3.7146;
100.8000;0.5649;3.7067;
101.1000;0.5674;3.6961;
101.4000;0.5682;3.6961;
101.7000;0.5674;3.6988;
102.0000;0.5674;3.6988;
102.3000;0.5674;3.7014;
102.6000;0.5706;3.7093;
102.9000;0.5706;3.7093;
103.2000;0.5682;3.6988;
103.5000;0.5690;3.6961;
103.8000;0.5682;3.6961;
104.1000;0.5649;3.6882;
104.4000;0.5682;3.6909;
104.7000;0.5682;3.6803;
105.0000;0.5698;3.6724;
105.3000;0.5690;3.6724;
105.6000;0.5665;3.6724;
105.9000;0.5674;3.6750;
106.2000;0.5731;3.6750;
106.5000;0.5682;3.6566;
106.8000;0.5690;3.6539;
107.1000;0.5665;3.6407;
107.4000;0.5674;3.6513;
107.7000;0.5690;3.6645;
108.0000;0.5657;3.6487;
108.3000;0.5690;3.6592;
108.6000;0.5682;3.6566;
108.9000;0.5698;3.6592;
109.2000;0.5690;3.6698;
109.5000;0.5633;3.6487;
109.8000;0.5682;3.6645;
110.1000;0.5706;3.6750;
110.4000;0.5682;3.6698;
110.7000;0.5690;3.6671;
111.0000;0.5674;3.6513;
111.3000;0.5698;3.6592;
111.6000;0.5665;3.6460;
111.9000;0.5690;3.6592;
112.2000;0.5690;3.6513;
112.5000;0.5690;3.6487;
112.8000;0.5747;3.6592;
113.1000;0.5731;3.6566;
113.4000;0.5706;3.6592;
113.7000;0.5657;3.6434;
114.0000;0.5690;3.6513;
114.3000;0.5568;3.6249;
114.6000;0.5665;3.6487;
114.9000;0.5690;3.6566;
115.2000;0.5682;3.6539;
115.5000;0.5690;3.6566;
115.8000;0.5682;3.6618;
116.1000;0.5657;3.6618;
116.4000;0.5665;3.6618;
116.7000;0.5682;3.6698;
117.0000;0.5665;3.6671;
117.3000;0.5665;3.6724;
117.6000;0.5665;3.6882;
117.9000;0.5665;3.6961;
118.2000;0.5674;3.6961;
118.5000;0.5690;3.6909;
118.8000;0.5657;3.6856;
119.1000;0.5665;3.6882;
119.4000;0.5674;3.6961;
119.7000;0.5665;3.6961;
120.0000;0.5657;3.6935;
120.3000;0.5682;3.6935;
120.6000;0.5690;3.6988;
120.9000;0.5665;3.7041;
121.2000;0.5690;3.7041;
121.5000;0.5665;3.6988;
121.8000;0.5674;3.6935;
122.1000;0.5674;3.6988;
122.4000;0.5625;3.6777;
122.7000;0.5674;3.6961;
123.0000;0.5674;3.6856;
123.3000;0.5665;3.6935;
123.6000;0.5674;3.6909;
123.9000;0.5682;3.6830;
124.2000;0.5682;3.6882;
124.5000;0.5690;3.6856;
124.8000;0.5690;3.6750;
125.1000;0.5674;3.6645;
125.4000;0.5674;3.6645;
125.7000;0.5698;3.6671;
126.0000;0.5706;3.6777;
126.3000;0.5674;3.6724;
126.6000;0.5682;3.6724;
126.9000;0.5690;3.6724;
127.2000;0.5682;3.6671;
127.5000;0.5674;3.6671;
127.8000;0.5657;3.6645;
128.1000;0.5690;3.6645;
128.4000;0.5674;3.6592;
128.7000;0.5674;3.6566;
129.0000;0.5755;3.6724;
129.3000;0.5698;3.6513;
129.6000;0.5665;3.6487;
129.9000;0.5682;3.6566;
130.2000;0.5665;3.6513;
130.5000;0.5674;3.6487;
130.8000;0.5665;3.6513;
131.1000;0.5617;3.6275;
131.4000;0.5682;3.6355;
131.7000;0.5682;3.6249;
132.0000;0.5682;3.6170;
132.3000;0.5690;3.6170;
132.6000;0.5698;3.6144;
132.9000;0.5690;3.6091;
133.2000;0.5682;3.6038;
133.5000;0.5747;3.6223;
133.8000;0.5690;3.6170;
134.1000;0.5804;3.6487;
134.4000;0.5682;3.6328;
134.7000;0.5690;3.6302;
135.0000;0.5698;3.6275;
135.3000;0.5690;3.6302;
135.6000;0.5722;3.6381;
135.9000;0.5706;3.6355;
136.2000;0.5698;3.6328;
136.5000;0.5690;3.6407;
136.8000;0.5641;3.6302;
137.1000;0.5698;3.6460;
137.4000;0.5674;3.6381;
137.7000;0.5690;3.6407;
138.0000;0.5665;3.6381;
138.3000;0.5641;3.6355;
138.6000;0.5690;3.6407;
138.9000;0.5674;3.6487;
139.2000;0.5665;3.6645;
139.5000;0.5674;3.6777;
139.8000;0.5665;3.6724;
140.1000;0.5674;3.6777;
140.4000;0.5682;3.6777;
140.7000;0.5657;3.6724;
141.0000;0.5706;3.6856;
141.3000;0.5665;3.6777;
141.6000;0.5649;3.6830;
141.9000;0.5674;3.6803;
142.2000;0.5682;3.6724;
142.5000;0.5690;3.6750;
142.8000;0.5641;3.6539;
143.1000;0.5657;3.6539;
143.4000;0.5657;3.6566;
143.7000;0.5682;3.6539;
144.0000;0.5657;3.6460;
144.3000;0.5665;3.6460;
144.6000;0.5665;3.6407;
144.9000;0.5731;3.6618;
145.2000;0.5674;3.6513;
145.5000;0.5633;3.6355;
145.8000;0.5665;3.6460;
146.1000;0.5690;3.6513;
146.4000;0.5665;3.6460;
146.7000;0.5682;3.6460;
147.0000;0.5682;3.6487;
147.3000;0.5665;3.6434;
147.6000;0.5690;3.6355;
147.9000;0.5682;3.6407;
148.2000;0.5665;3.6381;
148.5000;0.5674;3.6381;
148.8000;0.5739;3.6407;
149.1000;0.5682;3.6275;
149.4000;0.5690;3.6355;
149.7000;0.5682;3.6355;
150.0000;0.5633;3.6196;
150.3000;0.5698;3.6460;
150.6000;0.5690;3.6434;
150.9000;0.5690;3.6355;
151.2000;0.5682;3.6355;
151.5000;0.5682;3.6381;
151.8000;0.5674;3.6381;
152.1000;0.5568;3.6170;
152.4000;0.5690;3.6434;
152.7000;0.5690;3.6513;
153.0000;0.5657;3.6487;
153.3000;0.5706;3.6566;
153.6000;0.5682;3.6592;
153.9000;0.5682;3.6566;
154.2000;0.5674;3.6592;
154.5000;0.5682;3.6539;
154.8000;0.5674;3.6592;
155.1000;0.5722;3.6750;
155.4000;0.5690;3.6645;
155.7000;0.5690;3.6645;
156.0000;0.5674;3.6539;
156.3000;0.5682;3.6592;
156.6000;0.5674;3.6566;
156.9000;0.5690;3.6645;
157.2000;0.5674;3.6645;
157.5000;0.5665;3.6592;
157.8000;0.5731;3.6698;
158.1000;0.5674;3.6618;
158.4000;0.5674;3.6803;
158.7000;0.5682;3.6830;
159.0000;0.5674;3.6777;
159.3000;0.5674;3.6724;
159.6000;0.5665;3.6750;
159.9000;0.5665;3.6750;
160.2000;0.5682;3.6803;
160.5000;0.5665;3.6830;
160.8000;0.5657;3.6830;
161.1000;0.5649;3.6882;
161.4000;0.5674;3.6909;
161.7000;0.5674;3.6882;
162.0000;0.5657;3.6777;
162.3000;0.5657;3.6724;
162.6000;0.5674;3.6750;
162.9000;0.5600;3.6566;
163.2000;0.5674;3.6750;
163.5000;0.5674;3.6724;
163.8000;0.5674;3.6698;
164.1000;0.5682;3.6750;
164.4000;0.5674;3.6698;
164.7000;0.5665;3.6592;
165.0000;0.5657;3.6513;
165.3000;0.5674;3.6566;
165.6000;0.5690;3.6592;
165.9000;0.5674;3.6460;
166.2000;0.5649;3.6434;
166.5000;0.5674;3.6460;
166.8000;0.5674;3.6407;
167.1000;0.5674;3.6381;
167.4000;0.5674;3.6381;
167.7000;0.5690;3.6381;
168.0000;0.5690;3.6566;
168.3000;0.5674;3.6487;
168.6000;0.5649;3.6275;
168.9000;0.5633;3.6249;
169.2000;0.5682;3.6355;
169.5000;0.5682;3.6381;
169.8000;0.5682;3.6487;
170.1000;0.5665;3.6566;
170.4000;0.5698;3.6618;
170.7000;0.5674;3.6513;
171.0000;0.5682;3.6487;
171.3000;0.5674;3.6381;
171.6000;0.5690;3.6407;
171.9000;0.5690;3.6381;
172.2000;0.5649;3.6407;
172.5000;0.5665;3.6434;
172.8000;0.5682;3.6513;
173.1000;0.5665;3.6460;
173.4000;0.5682;3.6539;
173.7000;0.5674;3.6539;
174.0000;0.5592;3.6223;
174.3000;0.5739;3.6645;
174.6000;0.5698;3.6592;
174.9000;0.5674;3.6513;
175.2000;0.5690;3.6487;
175.5000;0.5674;3.6592;
175.8000;0.5690;3.6645;
176.1000;0.5682;3.6618;
176.4000;0.5682;3.6566;
176.7000;0.5674;3.6487;
177.0000;0.5641;3.6381;
177.3000;0.5674;3.6460;
177.6000;0.5665;3.6513;
177.9000;0.5665;3.6566;
178.2000;0.5665;3.6592;
178.5000;0.5649;3.6645;
178.8000;0.5657;3.6671;
179.1000;0.5625;3.6592;
179.4000;0.5665;3.6777;
179.7000;0.5665;3.6856;
180.0000;0.5608;3.6698;
180.3000;0.5657;3.6909;
180.6000;0.5633;3.6935;
180.9000;0.5682;3.6988;
181.2000;0.5665;3.6961;
181.5000;0.5641;3.6830;
181.8000;0.5731;3.7014;
182.1000;0.5665;3.6935;
182.4000;0.5657;3.6856;
182.7000;0.5739;3.7093;
183.0000;0.5674;3.6935;
183.3000;0.5682;3.6961;
183.6000;0.5665;3.6961;
183.9000;0.5649;3.6935;
184.2000;0.5674;3.6935;
184.5000;0.5665;3.6935;
184.8000;0.5682;3.6882;
185.1000;0.5665;3.6777;
185.4000;0.5674;3.6698;
185.7000;0.5657;3.6592;
186.0000;0.5674;3.6592;
186.3000;0.5665;3.6618;
186.6000;0.5665;3.6566;
186.9000;0.5657;3.6513;
187.2000;0.5739;3.6671;
187.5000;0.5682;3.6539;
187.8000;0.5657;3.6460;
188.1000;0.5682;3.6539;
188.4000;0.5657;3.6434;
188.7000;0.5674;3.6487;
189.0000;0.5682;3.6513;
189.3000;0.5657;3.6539;
189.6000;0.5682;3.6592;
189.9000;0.5674;3.6513;
190.2000;0.5665;3.6513;
190.5000;0.5690;3.6513;
190.8000;0.5690;3.6434;
191.1000;0.5682;3.6434;
191.4000;0.5665;3.6275;
191.7000;0.5657;3.6170;
192.0000;0.5682;3.6196;
192.3000;0.5690;3.6249;
192.6000;0.5714;3.6434;
192.9000;0.5657;3.6302;
193.2000;0.5682;3.6355;
193.5000;0.5682;3.6355;
193.8000;0.5674;3.6328;
194.1000;0.5682;3.6407;
194.4000;0.5690;3.6434;
194.7000;0.5674;3.6513;
195.0000;0.5649;3.6487;
195.3000;0.5665;3.6566;
195.6000;0.5674;3.6566;
195.9000;0.5674;3.6513;
196.2000;0.5657;3.6618;
196.5000;0.5682;3.6592;
196.8000;0.5674;3.6592;
197.1000;0.5682;3.6671;
197.4000;0.5625;3.6566;
197.7000;0.5665;3.6671;
198.0000;0.5657;3.6539;
198.3000;0.5657;3.6513;
198.6000;0.5649;3.6566;
198.9000;0.5665;3.6671;
199.2000;0.5690;3.6724;
199.5000;0.5665;3.6750;
199.8000;0.5657;3.6750;
200.1000;0.5682;3.6777;
200.4000;0.5657;3.6671;
200.7000;0.5649;3.6671;
201.0000;0.5657;3.6803;
201.3000;0.5649;3.6724;
201.6000;0.5657;3.6724;
201.9000;0.5641;3.6882;
202.2000;0.5665;3.6909;
202.5000;0.5665;3.6750;
202.8000;0.5682;3.6856;
203.1000;0.5665;3.6671;
203.4000;0.5649;3.6671;
203.7000;0.5682;3.6698;
204.0000;0.5649;3.6566;
204.3000;0.5625;3.6487;
204.6000;0.5576;3.6460;
204.9000;0.5665;3.6592;
205.2000;0.5657;3.6645;
205.5000;0.5739;3.6777;
205.8000;0.5690;3.6592;
206.1000;0.5649;3.6487;
206.4000;0.5665;3.6434;
206.7000;0.5584;3.6170;
207.0000;0.5747;3.6592;
207.3000;0.5665;3.6328;
207.6000;0.5674;3.6355;
207.9000;0.5641;3.6275;
208.2000;0.5657;3.6302;
208.5000;0.5649;3.6275;
208.8000;0.5665;3.6381;
209.1000;0.5771;3.6803;
209.4000;0.5657;3.6460;
209.7000;0.5657;3.6407;
210.0000;0.5649;3.6407;
210.3000;0.5682;3.6407;
210.6000;0.5665;3.6355;
210.9000;0.5584;3.6144;
211.2000;0.5665;3.6407;
211.5000;0.5682;3.6513;
211.8000;0.5665;3.6513;
212.1000;0.5657;3.6487;
212.4000;0.5665;3.6513;
212.7000;0.5584;3.6328;
213.0000;0.5657;3.6434;
213.3000;0.5657;3.6460;
213.6000;0.5657;3.6434;
213.9000;0.5674;3.6434;
214.2000;0.5641;3.6249;
214.5000;0.5625;3.6223;
214.8000;0.5682;3.6302;
215.1000;0.5649;3.6328;
215.4000;0.5665;3.6249;
215.7000;0.5649;3.6196;
216.0000;0.5674;3.6355;
216.3000;0.5665;3.6302;
216.6000;0.5649;3.6275;
216.9000;0.5641;3.6302;
217.2000;0.5641;3.6355;
217.5000;0.5657;3.6407;
217.8000;0.5657;3.6434;
218.1000;0.5657;3.6460;
218.4000;0.5649;3.6513;
218.7000;0.5665;3.6592;
219.0000;0.5714;3.6777;
219.3000;0.5649;3.6539;
219.6000;0.5674;3.6592;
219.9000;0.5641;3.6566;
220.2000;0.5665;3.6671;
220.5000;0.5674;3.6724;
220.8000;0.5633;3.6645;
221.1000;0.5665;3.6698;
221.4000;0.5649;3.6618;
221.7000;0.5657;3.6671;
222.0000;0.5665;3.6592;
222.3000;0.5649;3.6566;
222.6000;0.5665;3.6566;
222.9000;0.5731;3.6777;
223.2000;0.5657;3.6618;
223.5000;0.5641;3.6513;
223.8000;0.5649;3.6566;
224.1000;0.5714;3.6777;
224.4000;0.5674;3.6566;
224.7000;0.5649;3.6381;
225.0000;0.5674;3.6249;
225.3000;0.5674;3.6275;
225.6000;0.5649;3.6223;
225.9000;0.5649;3.6302;
226.2000;0.5665;3.6460;
226.5000;0.5657;3.6460;
226.8000;0.5665;3.6460;
227.1000;0.5665;3.6328;
227.4000;0.5674;3.6328;
227.7000;0.5690;3.6302;
228.0000;0.5690;3.6328;
228.3000;0.5657;3.6223;
228.6000;0.5592;3.5985;
228.9000;0.5682;3.6249;
229.2000;0.5633;3.6144;
229.5000;0.5665;3.6328;
229.8000;0.5698;3.6434;
230.1000;0.5674;3.6355;
230.4000;0.5674;3.6460;
230.7000;0.5690;3.6513;
231.0000;0.5665;3.6460;
231.3000;0.5674;3.6434;
231.6000;0.5657;3.6355;
231.9000;0.5674;3.6355;
232.2000;0.5625;3.6170;
232.5000;0.5674;3.6223;
232.8000;0.5682;3.6223;
233.1000;0.5641;3.6117;
233.4000;0.5674;3.6196;
233.7000;0.5682;3.6196;
234.0000;0.5682;3.6144;
234.3000;0.5657;3.6196;
234.6000;0.5674;3.6302;
234.9000;0.5665;3.6302;
235.2000;0.5625;3.6275;
235.5000;0.5665;3.6460;
235.8000;0.5641;3.6487;
236.1000;0.5641;3.6513;
236.4000;0.5649;3.6487;
236.7000;0.5649;3.6460;
237.0000;0.5633;3.6434;
237.3000;0.5665;3.6513;
237.6000;0.5674;3.6566;
237.9000;0.5657;3.6566;
238.2000;0.5657;3.6671;
238.5000;0.5608;3.6592;
238.8000;0.5649;3.6750;
239.1000;0.5641;3.6671;
239.4000;0.5649;3.6724;
239.7000;0.5657;3.6724;
240.0000;0.5641;3.6671;
240.3000;0.5641;3.6671;
240.6000;0.5665;3.6777;
240.9000;0.5665;3.6777;
241.2000;0.5657;3.6750;
241.5000;0.5657;3.6698;
241.8000;0.5665;3.6724;
242.1000;0.5690;3.6750;
242.4000;0.5600;3.6618;
242.7000;0.5657;3.6724;
243.0000;0.5747;3.6935;
243.3000;0.5665;3.6671;
243.6000;0.5649;3.6592;
243.9000;0.5657;3.6618;
244.2000;0.5690;3.6645;
244.5000;0.5665;3.6513;
244.8000;0.5657;3.6407;
245.1000;0.5665;3.6434;
245.4000;0.5641;3.6355;
245.7000;0.5657;3.6487;
246.0000;0.5649;3.6302;
246.3000;0.5682;3.6460;
246.6000;0.5665;3.6434;
246.9000;0.5674;3.6407;
247.2000;0.5657;3.6407;
247.5000;0.5649;3.6223;
247.8000;0.5657;3.6223;
248.1000;0.5649;3.6144;
248.4000;0.5665;3.6196;
248.7000;0.5665;3.6223;
249.0000;0.5625;3.6170;
249.3000;0.5674;3.6328;
249.6000;0.5657;3.6223;
249.9000;0.5649;3.6091;
250.2000;0.5665;3.6223;
250.5000;0.5690;3.6381;
250.8000;0.5657;3.6328;
251.1000;0.5657;3.6302;
251.4000;0.5649;3.6381;
251.7000;0.5674;3.6487;
252.0000;0.5543;3.6117;
252.3000;0.5674;3.6539;
252.6000;0.5665;3.6539;
252.9000;0.5665;3.6460;
253.2000;0.5665;3.6434;
253.5000;0.5682;3.6460;
253.8000;0.5682;3.6407;
254.1000;0.5682;3.6407;
254.4000;0.5674;3.6513;
254.7000;0.5641;3.6407;
255.0000;0.5682;3.6566;
255.3000;0.5633;3.6460;
255.6000;0.5674;3.6645;
255.9000;0.5665;3.6645;
256.2000;0.5649;3.6566;
256.5000;0.5641;3.6618;
256.8000;0.5592;3.6434;
257.1000;0.5657;3.6592;
257.4000;0.5641;3.6566;
257.7000;0.5641;3.6618;
258.0000;0.5625;3.6487;
258.3000;0.5649;3.6618;
258.6000;0.5649;3.6671;
258.9000;0.5657;3.6750;
259.2000;0.5641;3.6724;
259.5000;0.5608;3.6671;
259.8000;0.5608;3.6671;
260.1000;0.5641;3.6856;
260.4000;0.5633;3.6856;
260.7000;0.5641;3.6830;
261.0000;0.5665;3.6935;
261.3000;0.5674;3.7014;
261.6000;0.5600;3.6803;
261.9000;0.5625;3.6856;
262.2000;0.5649;3.6856;
262.5000;0.5674;3.6909;
262.8000;0.5657;3.6856;
263.1000;0.5649;3.6882;
263.4000;0.5551;3.6618;
263.7000;0.5674;3.6988;
264.0000;0.5665;3.6882;
264.3000;0.5665;3.6803;
264.6000;0.5657;3.6724;
264.9000;0.5682;3.6645;
265.2000;0.5682;3.6513;
265.5000;0.5657;3.6487;
265.8000;0.5674;3.6434;
266.1000;0.5641;3.6328;
266.4000;0.5657;3.6328;
266.7000;0.5665;3.6355;
267.0000;0.5649;3.6275;
267.3000;0.5665;3.6249;
267.6000;0.5649;3.6249;
267.9000;0.5657;3.6328;
268.2000;0.5576;3.5959;
268.5000;0.5665;3.6223;
268.8000;0.5665;3.6249;
269.1000;0.5674;3.6302;
269.4000;0.5641;3.6302;
269.7000;0.5665;3.6328;
270.0000;0.5633;3.6275;
270.3000;0.5674;3.6460;
270.6000;0.5665;3.6407;
270.9000;0.5608;3.6328;
271.2000;0.5625;3.6487;
271.5000;0.5665;3.6539;
271.8000;0.5649;3.6407;
272.1000;0.5657;3.6434;
272.4000;0.5674;3.6513;
272.7000;0.5690;3.6566;
273.0000;0.5657;3.6434;
273.3000;0.5665;3.6460;
273.6000;0.5665;3.6513;
273.9000;0.5665;3.6487;
274.2000;0.5657;3.6513;
274.5000;0.5657;3.6460;
274.8000;0.5665;3.6460;
275.1000;0.5633;3.6487;
275.4000;0.5657;3.6460;
275.7000;0.5706;3.6645;
276.0000;0.5649;3.6513;
276.3000;0.5649;3.6618;
276.6000;0.5665;3.6698;
276.9000;0.5649;3.6698;
277.2000;0.5649;3.6671;
277.5000;0.5657;3.6724;
277.8000;0.5625;3.6645;
278.1000;0.5657;3.6592;
278.4000;0.5674;3.6698;
278.7000;0.5649;3.6566;
279.0000;0.5674;3.6592;
279.3000;0.5641;3.6566;
279.6000;0.5641;3.6618;
279.9000;0.5633;3.6671;
280.2000;0.5649;3.6830;
280.5000;0.5641;3.6856;
280.8000;0.5641;3.6830;
281.1000;0.5657;3.6777;
281.4000;0.5649;3.6698;
281.7000;0.5690;3.6856;
282.0000;0.5698;3.6856;
282.3000;0.5649;3.6698;
282.6000;0.5649;3.6671;
282.9000;0.5641;3.6698;
283.2000;0.5665;3.6724;
283.5000;0.5592;3.6460;
283.8000;0.5641;3.6487;
284.1000;0.5682;3.6381;
284.4000;0.5584;3.6144;
284.7000;0.5633;3.6302;
285.0000;0.5665;3.6434;
285.3000;0.5674;3.6407;
285.6000;0.5755;3.6724;
285.9000;0.5649;3.6513;
286.2000;0.5641;3.6513;
286.5000;0.5649;3.6566;
286.8000;0.5665;3.6592;
287.1000;0.5674;3.6539;
287.4000;0.5698;3.6566;
287.7000;0.5649;3.6381;
288.0000;0.5674;3.6381;
288.3000;0.5665;3.6381;
288.6000;0.5665;3.6355;
288.9000;0.5674;3.6355;
289.2000;0.5665;3.6275;
289.5000;0.5674;3.6249;
289.8000;0.5682;3.6275;
290.1000;0.5633;3.6170;
290.4000;0.5690;3.6328;
290.7000;0.5682;3.6381;
291.0000;0.5665;3.6355;
291.3000;0.5657;3.6328;
291.6000;0.5665;3.6328;
291.9000;0.5665;3.6328;
292.2000;0.5608;3.6170;
292.5000;0.5657;3.6302;
292.8000;0.5674;3.6407;
293.1000;0.5665;3.6513;
293.4000;0.5665;3.6539;
293.7000;0.5674;3.6592;
294.0000;0.5674;3.6618;
294.3000;0.5739;3.6750;
294.6000;0.5682;3.6671;
294.9000;0.5657;3.6592;
295.2000;0.5706;3.6750;
295.5000;0.5657;3.6750;
295.8000;0.5649;3.6750;
296.1000;0.5657;3.6750;
296.4000;0.5649;3.6671;
296.7000;0.5649;3.6698;
297.0000;0.5657;3.6671;
297.3000;0.5665;3.6671;
297.6000;0.5625;3.6539;
297.9000;0.5633;3.6618;
298.2000;0.5674;3.6803;
298.5000;0.5657;3.6750;
298.8000;0.5641;3.6803;
299.1000;0.5657;3.6830;
299.4000;0.5665;3.6856;
299.7000;0.5657;3.6830;
300.0000;0.5747;3.7067;
300.3000;0.5641;3.6935;
300.6000;0.5714;3.7041;
300.9000;0.5674;3.6882;
301.2000;0.5657;3.6803;
301.5000;0.5641;3.6777;
301.8000;0.5600;3.6645;
302.1000;0.5649;3.6777;
302.4000;0.5649;3.6750;
302.7000;0.5617;3.6750;
303.0000;0.5665;3.6935;
303.3000;0.5706;3.6988;
303.6000;0.5657;3.6856;
303.9000;0.5641;3.6777;
304.2000;0.5657;3.6724;
304.5000;0.5665;3.6777;
304.8000;0.5649;3.6803;
305.1000;0.5641;3.6724;
305.4000;0.5649;3.6803;
305.7000;0.5649;3.6777;
306.0000;0.5657;3.6777;
306.3000;0.5657;3.6592;
306.6000;0.5649;3.6566;
306.9000;0.5657;3.6539;
307.2000;0.5649;3.6539;
307.5000;0.5682;3.6592;
307.8000;0.5633;3.6460;
308.1000;0.5649;3.6539;
308.4000;0.5641;3.6460;
308.7000;0.5665;3.6460;
309.0000;0.5657;3.6487;
309.3000;0.5657;3.6487;
309.6000;0.5657;3.6487;
309.9000;0.5674;3.6460;
310.2000;0.5657;3.6407;
310.5000;0.5682;3.6487;
310.8000;0.5682;3.6407;
311.1000;0.5682;3.6355;
311.4000;0.5674;3.6328;
311.7000;0.5674;3.6223;
312.0000;0.5674;3.6275;
312.3000;0.5682;3.6302;
312.6000;0.5657;3.6170;
312.9000;0.5682;3.6249;
313.2000;0.5649;3.6170;
313.5000;0.5657;3.6196;
313.8000;0.5665;3.6144;
314.1000;0.5649;3.6144;
314.4000;0.5641;3.6223;
314.7000;0.5633;3.6249;
315.0000;0.5698;3.6407;
315.3000;0.5649;3.6328;
315.6000;0.5641;3.6381;
315.9000;0.5665;3.6355;
316.2000;0.5568;3.6038;
316.5000;0.5665;3.6302;
316.8000;0.5641;3.6355;
317.1000;0.5625;3.6328;
317.4000;0.5682;3.6539;
317.7000;0.5665;3.6566;
318.0000;0.5641;3.6592;
318.3000;0.5649;3.6618;
318.6000;0.5625;3.6513;
318.9000;0.5592;3.6381;
319.2000;0.5633;3.6381;
319.5000;0.5617;3.6434;
319.8000;0.5633;3.6513;
320.1000;0.5625;3.6592;
320.4000;0.5633;3.6618;
320.7000;0.5568;3.6434;
321.0000;0.5649;3.6645;
321.3000;0.5625;3.6618;
321.6000;0.5641;3.6592;
321.9000;0.5641;3.6539;
322.2000;0.5633;3.6645;
322.5000;0.5665;3.6671;
322.8000;0.5600;3.6513;
323.1000;0.5649;3.6645;
323.4000;0.5633;3.6566;
323.7000;0.5641;3.6592;
324.0000;0.5649;3.6539;
324.3000;0.5600;3.6328;
324.6000;0.5657;3.6434;
324.9000;0.5649;3.6539;
325.2000;0.5779;3.6882;
325.5000;0.5649;3.6513;
325.8000;0.5560;3.6196;
326.1000;0.5641;3.6381;
326.4000;0.5657;3.6381;
326.7000;0.5665;3.6381;
327.0000;0.5665;3.6407;
327.3000;0.5641;3.6434;
327.6000;0.5649;3.6513;
327.9000;0.5682;3.6566;
328.2000;0.5649;3.6434;
328.5000;0.5665;3.6513;
328.8000;0.5649;3.6460;
329.1000;0.5739;3.6645;
329.4000;0.5682;3.6539;
329.7000;0.5657;3.6513;
330.0000;0.5665;3.6539;
330.3000;0.5665;3.6566;
330.6000;0.5674;3.6618;
330.9000;0.5568;3.6275;
331.2000;0.5665;3.6460;
331.5000;0.5657;3.6487;
331.8000;0.5665;3.6487;
332.1000;0.5649;3.6328;
332.4000;0.5674;3.6381;
332.7000;0.5657;3.6328;
333.0000;0.5641;3.6302;
333.3000;0.5633;3.6328;
333.6000;0.5633;3.6381;
333.9000;0.5649;3.6381;
334.2000;0.5657;3.6381;
334.5000;0.5625;3.6275;
334.8000;0.5649;3.6302;
335.1000;0.5665;3.6460;
335.4000;0.5657;3.6487;
335.7000;0.5674;3.6487;
336.0000;0.5682;3.6460;
336.3000;0.5674;3.6460;
336.6000;0.5665;3.6566;
336.9000;0.5657;3.6566;
337.2000;0.5698;3.6592;
337.5000;0.5665;3.6539;
337.8000;0.5649;3.6487;
338.1000;0.5649;3.6487;
338.4000;0.5625;3.6539;
338.7000;0.5657;3.6592;
339.0000;0.5592;3.6487;
339.3000;0.5641;3.6724;
339.6000;0.5641;3.6698;
339.9000;0.5608;3.6724;
340.2000;0.5633;3.6777;
340.5000;0.5641;3.6830;
340.8000;0.5641;3.6777;
341.1000;0.5625;3.6750;
341.4000;0.5649;3.6777;
341.7000;0.5657;3.6750;
342.0000;0.5633;3.6698;
342.3000;0.5625;3.6618;
342.6000;0.5617;3.6671;
342.9000;0.5649;3.6750;
343.2000;0.5584;3.6566;
343.5000;0.5625;3.6645;
343.8000;0.5600;3.6539;
344.1000;0.5690;3.6724;
344.4000;0.5657;3.6539;
344.7000;0.5551;3.6144;
345.0000;0.5649;3.6328;
345.3000;0.5649;3.6355;
345.6000;0.5714;3.6434;
345.9000;0.5674;3.6302;
346.2000;0.5641;3.6302;
346.5000;0.5682;3.6328;
346.8000;0.5665;3.6328;
347.1000;0.5657;3.6381;
347.4000;0.5665;3.6328;
347.7000;0.5682;3.6355;
348.0000;0.5665;3.6328;
348.3000;0.5649;3.6249;
348.6000;0.5714;3.6460;
348.9000;0.5657;3.6249;
349.2000;0.5674;3.6328;
349.5000;0.5649;3.6302;
349.8000;0.5731;3.6513;
350.1000;0.5649;3.6196;
350.4000;0.5657;3.6275;
350.7000;0.5674;3.6355;
351.0000;0.5633;3.6328;
351.3000;0.5649;3.6407;
351.6000;0.5641;3.6275;
351.9000;0.5657;3.6144;
352.2000;0.5649;3.6091;
352.5000;0.5657;3.6249;
352.8000;0.5657;3.6249;
353.1000;0.5682;3.6355;
353.4000;0.5657;3.6223;
353.7000;0.5657;3.6302;
354.0000;0.5665;3.6328;
354.3000;0.5665;3.6275;
354.6000;0.5633;3.6223;
354.9000;0.5633;3.6249;
355.2000;0.5649;3.6249;
355.5000;0.5665;3.6328;
355.8000;0.5665;3.6381;
356.1000;0.5674;3.6460;
356.4000;0.5690;3.6618;
356.7000;0.5649;3.6618;
357.0000;0.5665;3.6645;
357.3000;0.5649;3.6592;
357.6000;0.5625;3.6460;
357.9000;0.5641;3.6566;
358.2000;0.5641;3.6539;
358.5000;0.5649;3.6566;
358.8000;0.5641;3.6539;
359.1000;0.5576;3.6539;
359.4000;0.5641;3.6698;
359.7000;0.5641;3.6671;
360.0000;0.5584;3.6539;
360.3000;0.5649;3.6671;
360.6000;0.5657;3.6698;
360.9000;0.5649;3.6566;
361.2000;0.5633;3.6539;
361.5000;0.5649;3.6539;
361.8000;0.5649;3.6592;
362.1000;0.5649;3.6592;
362.4000;0.5649;3.6645;
362.7000;0.5633;3.6645;
363.0000;0.5641;3.6698;
363.3000;0.5625;3.6645;
363.6000;0.5633;3.6618;
363.9000;0.5617;3.6381;
364.2000;0.5584;3.6275;
364.5000;0.5633;3.6381;
364.8000;0.5657;3.6328;
365.1000;0.5649;3.6249;
365.4000;0.5649;3.6196;
365.7000;0.5641;3.6249;
366.0000;0.5649;3.6275;
366.3000;0.5649;3.6223;
366.6000;0.5649;3.6196;
366.9000;0.5649;3.6170;
367.2000;0.5657;3.6144;
367.5000;0.5657;3.6117;
367.8000;0.5641;3.6196;
368.1000;0.5625;3.6223;
368.4000;0.5649;3.6355;
368.7000;0.5649;3.6249;
369.0000;0.5657;3.6249;
369.3000;0.5649;3.6223;
369.6000;0.5657;3.6302;
369.9000;0.5665;3.6328;
370.2000;0.5657;3.6302;
370.5000;0.5657;3.6249;
370.8000;0.5657;3.6196;
371.1000;0.5682;3.6249;
371.4000;0.5682;3.6275;
371.7000;0.5665;3.6275;
372.0000;0.5690;3.6328;
372.3000;0.5657;3.6275;
372.6000;0.5657;3.6302;
372.9000;0.5682;3.6355;
373.2000;0.5649;3.6302;
373.5000;0.5649;3.6407;
373.8000;0.5649;3.6434;
374.1000;0.5674;3.6381;
374.4000;0.5633;3.6328;
374.7000;0.5649;3.6355;
375.0000;0.5649;3.6328;
375.3000;0.5641;3.6328;
375.6000;0.5657;3.6328;
375.9000;0.5649;3.6381;
376.2000;0.5649;3.6460;
376.5000;0.5625;3.6381;
376.8000;0.5665;3.6513;
377.1000;0.5649;3.6487;
377.4000;0.5649;3.6487;
377.7000;0.5641;3.6539;
378.0000;0.5625;3.6539;
378.3000;0.5641;3.6539;
378.6000;0.5641;3.6566;
378.9000;0.5641;3.6618;
379.2000;0.5617;3.6592;
379.5000;0.5625;3.6566;
379.8000;0.5649;3.6592;
380.1000;0.5674;3.6803;
380.4000;0.5592;3.6618;
380.7000;0.5633;3.6698;
381.0000;0.5649;3.6698;
381.3000;0.5641;3.6671;
381.6000;0.5641;3.6698;
381.9000;0.5633;3.6750;
382.2000;0.5641;3.6777;
382.5000;0.5657;3.6698;
382.8000;0.5633;3.6539;
383.1000;0.5657;3.6618;
383.4000;0.5633;3.6487;
383.7000;0.5592;3.6381;
384.0000;0.5633;3.6487;
384.3000;0.5641;3.6460;
384.6000;0.5649;3.6381;
384.9000;0.5641;3.6328;
385.2000;0.5551;3.6064;
385.5000;0.5641;3.6302;
385.8000;0.5649;3.6381;
386.1000;0.5584;3.6091;
386.4000;0.5641;3.6275;
386.7000;0.5649;3.6223;
387.0000;0.5665;3.6275;
387.3000;0.5641;3.6117;
387.6000;0.5649;3.6170;
387.9000;0.5665;3.6355;
388.2000;0.5649;3.6249;
388.5000;0.5633;3.6170;
388.8000;0.5641;3.6196;
389.1000;0.5649;3.6144;
389.4000;0.5633;3.5985;
389.7000;0.5649;3.6038;
390.0000;0.5641;3.6064;
390.3000;0.5657;3.6117;
390.6000;0.5674;3.6144;
390.9000;0.5657;3.6038;
391.2000;0.5649;3.6038;
391.5000;0.5674;3.6223;
391.8000;0.5706;3.6328;
392.1000;0.5641;3.6223;
392.4000;0.5665;3.6302;
392.7000;0.5657;3.6249;
393.0000;0.5665;3.6275;
393.3000;0.5665;3.6144;
393.6000;0.5665;3.6117;
393.9000;0.5649;3.6170;
394.2000;0.5682;3.6275;
394.5000;0.5649;3.6170;
394.8000;0.5633;3.6144;
395.1000;0.5608;3.6144;
395.4000;0.5657;3.6302;
395.7000;0.5641;3.6355;
396.0000;0.5641;3.6460;
396.3000;0.5641;3.6513;
396.6000;0.5568;3.6328;
396.9000;0.5657;3.6539;
397.2000;0.5665;3.6566;
397.5000;0.5641;3.6513;
397.8000;0.5641;3.6434;
398.1000;0.5649;3.6434;
398.4000;0.5641;3.6460;
398.7000;0.5641;3.6487;
399.0000;0.5649;3.6513;
399.3000;0.5641;3.6566;
399.6000;0.5641;3.6671;
399.9000;0.5633;3.6698;
400.2000;0.5649;3.6750;
400.5000;0.5649;3.6618;
400.8000;0.5625;3.6539;
401.1000;0.5625;3.6618;
401.4000;0.5625;3.6724;
401.7000;0.5641;3.6750;
402.0000;0.5625;3.6724;
402.3000;0.5617;3.6671;
402.6000;0.5600;3.6539;
402.9000;0.5665;3.6645;
403.2000;0.5641;3.6645;
403.5000;0.5657;3.6724;
403.8000;0.5641;3.6566;
404.1000;0.5657;3.6566;
404.4000;0.5649;3.6539;
404.7000;0.5633;3.6566;
405.0000;0.5657;3.6487;
405.3000;0.5649;3.6460;
405.6000;0.5625;3.6460;
405.9000;0.5641;3.6513;
406.2000;0.5625;3.6460;
406.5000;0.5625;3.6381;
406.8000;0.5657;3.6407;
407.1000;0.5665;3.6407;
407.4000;0.5657;3.6434;
407.7000;0.5665;3.6460;
408.0000;0.5706;3.6513;
408.3000;0.5649;3.6407;
408.6000;0.5657;3.6381;
408.9000;0.5633;3.6328;
409.2000;0.5625;3.6355;
409.5000;0.5649;3.6249;
409.8000;0.5608;3.6144;
410.1000;0.5665;3.6302;
410.4000;0.5641;3.6275;
410.7000;0.5649;3.6355;
411.0000;0.5633;3.6302;
411.3000;0.5617;3.6170;
411.6000;0.5641;3.6302;
411.9000;0.5633;3.6302;
412.2000;0.5641;3.6381;
412.5000;0.5641;3.6196;
412.8000;0.5657;3.6249;
413.1000;0.5657;3.6223;
413.4000;0.5641;3.6196;
413.7000;0.5657;3.6223;
414.0000;0.5641;3.6275;
414.3000;0.5682;3.6355;
414.6000;0.5657;3.6328;
414.9000;0.5641;3.6381;
415.2000;0.5649;3.6460;
415.5000;0.5649;3.6513;
415.8000;0.5641;3.6539;
416.1000;0.5568;3.6302;
416.4000;0.5633;3.6460;
416.7000;0.5584;3.6434;
417.0000;0.5665;3.6513;
417.3000;0.5649;3.6539;
417.6000;0.5657;3.6513;
417.9000;0.5722;3.6882;
418.2000;0.5690;3.6777;
418.5000;0.5641;3.6645;
418.8000;0.5625;3.6618;
419.1000;0.5698;3.6856;
419.4000;0.5625;3.6698;
419.7000;0.5592;3.6645;
420.0000;0.5649;3.6830;
420.3000;0.5608;3.6803;
420.6000;0.5568;3.6777;
420.9000;0.5600;3.6961;
421.2000;0.5649;3.7014;
421.5000;0.5625;3.6856;
421.8000;0.5641;3.6882;
422.1000;0.5633;3.6830;
422.4000;0.5641;3.6750;
422.7000;0.5568;3.6460;
423.0000;0.5625;3.6539;
423.3000;0.5674;3.6698;
423.6000;0.5665;3.6618;
423.9000;0.5641;3.6539;
424.2000;0.5657;3.6618;
424.5000;0.5649;3.6566;
424.8000;0.5649;3.6566;
425.1000;0.5649;3.6460;
425.4000;0.5641;3.6381;
425.7000;0.5649;3.6407;
426.0000;0.5641;3.6328;
426.3000;0.5633;3.6302;
426.6000;0.5641;3.6302;
426.9000;0.5560;3.6064;
427.2000;0.5641;3.6249;
427.5000;0.5665;3.6381;
427.8000;0.5608;3.6170;
428.1000;0.5641;3.6275;
428.4000;0.5641;3.6302;
428.7000;0.5649;3.6249;
429.0000;0.5608;3.6249;
429.3000;0.5633;3.6355;
429.6000;0.5649;3.6434;
429.9000;0.5625;3.6275;
430.2000;0.5657;3.6328;
430.5000;0.5625;3.6275;
430.8000;0.5706;3.6539;
431.1000;0.5698;3.6539;
431.4000;0.5649;3.6460;
431.7000;0.5665;3.6434;
432.0000;0.5641;3.6460;
432.3000;0.5633;3.6407;
432.6000;0.5641;3.6460;
432.9000;0.5633;3.6275;
433.2000;0.5543;3.6038;
433.5000;0.5649;3.6328;
433.8000;0.5625;3.6196;
434.1000;0.5657;3.6355;
434.4000;0.5633;3.6381;
434.7000;0.5592;3.6302;
435.0000;0.5706;3.6645;
435.3000;0.5649;3.6460;
435.6000;0.5633;3.6381;
435.9000;0.5633;3.6381;
436.2000;0.5625;3.6275;
436.5000;0.5592;3.6249;
436.8000;0.5625;3.6381;
437.1000;0.5617;3.6355;
437.4000;0.5608;3.6328;
437.7000;0.5633;3.6355;
438.0000;0.5617;3.6223;
438.3000;0.5625;3.6355;
438.6000;0.5641;3.6460;
438.9000;0.5568;3.6328;
439.2000;0.5608;3.6407;
439.5000;0.5617;3.6513;
439.8000;0.5617;3.6513;
440.1000;0.5633;3.6618;
440.4000;0.5657;3.6671;
440.7000;0.5657;3.6698;
441.0000;0.5633;3.6645;
441.3000;0.5625;3.6539;
441.6000;0.5633;3.6592;
441.9000;0.5608;3.6513;
442.2000;0.5592;3.6513;
442.5000;0.5641;3.6539;
442.8000;0.5641;3.6487;
443.1000;0.5641;3.6407;
443.4000;0.5633;3.6355;
443.7000;0.5625;3.6249;
444.0000;0.5641;3.6302;
444.3000;0.5633;3.6328;
444.6000;0.5649;3.6381;
444.9000;0.5649;3.6407;
445.2000;0.5649;3.6434;
445.5000;0.5641;3.6302;
445.8000;0.5641;3.6302;
446.1000;0.5633;3.6223;
446.4000;0.5641;3.6328;
446.7000;0.5633;3.6355;
447.0000;0.5633;3.6328;
447.3000;0.5617;3.6223;
447.6000;0.5625;3.6196;
447.9000;0.5641;3.6328;
448.2000;0.5625;3.6302;
448.5000;0.5625;3.6223;
448.8000;0.5714;3.6381;
449.1000;0.5641;3.6170;
449.4000;0.5682;3.6381;
449.7000;0.5633;3.6144;
450.0000;0.5633;3.6091;
450.3000;0.5657;3.6275;
450.6000;0.5657;3.6249;
450.9000;0.5641;3.6275;
451.2000;0.5649;3.6302;
451.5000;0.5641;3.6249;
451.8000;0.5649;3.6302;
452.1000;0.5649;3.6328;
452.4000;0.5617;3.6275;
452.7000;0.5633;3.6328;
453.0000;0.5674;3.6355;
453.3000;0.5641;3.6196;
453.6000;0.5633;3.6223;
453.9000;0.5641;3.6302;
454.2000;0.5641;3.6249;
454.5000;0.5641;3.6275;
454.8000;0.5657;3.6381;
455.1000;0.5633;3.6381;
455.4000;0.5641;3.6434;
455.7000;0.5633;3.6355;
456.0000;0.5625;3.6275;
456.3000;0.5592;3.6196;
456.6000;0.5641;3.6328;
456.9000;0.5633;3.6381;
457.2000;0.5535;3.6117;
457.5000;0.5617;3.6381;
457.8000;0.5617;3.6407;
458.1000;0.5543;3.6170;
458.4000;0.5633;3.6513;
458.7000;0.5625;3.6434;
459.0000;0.5674;3.6592;
459.3000;0.5633;3.6381;
459.6000;0.5633;3.6355;
459.9000;0.5706;3.6618;
460.2000;0.5641;3.6487;
460.5000;0.5690;3.6566;
460.8000;0.5641;3.6460;
461.1000;0.5633;3.6407;
461.4000;0.5625;3.6355;
461.7000;0.5535;3.6117;
462.0000;0.5625;3.6460;
462.3000;0.5625;3.6407;
462.6000;0.5600;3.6381;
462.9000;0.5617;3.6407;
463.2000;0.5649;3.6539;
463.5000;0.5633;3.6434;
463.8000;0.5641;3.6487;
464.1000;0.5641;3.6566;
464.4000;0.5649;3.6539;
464.7000;0.5641;3.6487;
465.0000;0.5641;3.6487;
465.3000;0.5625;3.6381;
465.6000;0.5592;3.6223;
465.9000;0.5633;3.6460;
466.2000;0.5641;3.6513;
466.5000;0.5641;3.6460;
466.8000;0.5649;3.6407;
467.1000;0.5633;3.6328;
467.4000;0.5641;3.6407;
467.7000;0.5633;3.6275;
468.0000;0.5633;3.6144;
468.3000;0.5649;3.6170;
468.6000;0.5649;3.6144;
468.9000;0.5641;3.6064;
469.2000;0.5641;3.6249;
469.5000;0.5682;3.6328;
469.8000;0.5649;3.6302;
470.1000;0.5649;3.6381;
470.4000;0.5633;3.6328;
470.7000;0.5617;3.6302;
471.0000;0.5617;3.6302;
471.3000;0.5617;3.6328;
471.6000;0.5625;3.6328;
471.9000;0.5657;3.6381;
472.2000;0.5633;3.6407;
472.5000;0.5665;3.6460;
472.8000;0.5633;3.6328;
473.1000;0.5649;3.6328;
473.4000;0.5649;3.6117;
473.7000;0.5633;3.6144;
474.0000;0.5625;3.6223;
474.3000;0.5633;3.6196;
474.6000;0.5633;3.6275;
474.9000;0.5657;3.6328;
475.2000;0.5649;3.6328;
475.5000;0.5617;3.6275;
475.8000;0.5625;3.6355;
476.1000;0.5665;3.6407;
476.4000;0.5625;3.6381;
476.7000;0.5625;3.6407;
477.0000;0.5608;3.6302;
477.3000;0.5665;3.6566;
477.6000;0.5625;3.6434;
477.9000;0.5633;3.6460;
478.2000;0.5657;3.6698;
478.5000;0.5633;3.6618;
478.8000;0.5617;3.6724;
479.1000;0.5633;3.6830;
479.4000;0.5633;3.6882;
479.7000;0.5698;3.6988;
480.0000;0.5608;3.6803;
480.3000;0.5665;3.7014;
480.6000;0.5625;3.6803;
480.9000;0.5625;3.6645;
481.2000;0.5641;3.6698;
481.5000;0.5641;3.6750;
481.8000;0.5690;3.6830;
482.1000;0.5600;3.6592;
482.4000;0.5625;3.6750;
482.7000;0.5633;3.6777;
483.0000;0.5608;3.6671;
483.3000;0.5617;3.6803;
483.6000;0.5625;3.6777;
483.9000;0.5543;3.6381;
484.2000;0.5625;3.6407;
484.5000;0.5633;3.6434;
484.8000;0.5657;3.6487;
485.1000;0.5617;3.6355;
485.4000;0.5633;3.6302;
485.7000;0.5617;3.6302;
486.0000;0.5641;3.6355;
486.3000;0.5641;3.6275;
486.6000;0.5641;3.6144;
486.9000;0.5625;3.6117;
487.2000;0.5649;3.6117;
487.5000;0.5649;3.6117;
487.8000;0.5641;3.6091;
488.1000;0.5633;3.6170;
488.4000;0.5633;3.6117;
488.7000;0.5633;3.6038;
489.0000;0.5657;3.6091;
489.3000;0.5641;3.6144;
489.6000;0.5641;3.6196;
489.9000;0.5633;3.6196;
490.2000;0.5641;3.6249;
490.5000;0.5617;3.6249;
490.8000;0.5641;3.6196;
491.1000;0.5641;3.6196;
491.4000;0.5649;3.6328;
491.7000;0.5633;3.6223;
492.0000;0.5649;3.6170;
492.3000;0.5641;3.6170;
492.6000;0.5649;3.6170;
492.9000;0.5633;3.6091;
493.2000;0.5625;3.6117;
493.5000;0.5633;3.6117;
493.8000;0.5641;3.6117;
494.1000;0.5731;3.6513;
494.4000;0.5649;3.6275;
494.7000;0.5633;3.6170;
495.0000;0.5665;3.6196;
495.3000;0.5649;3.6249;
495.6000;0.5625;3.6196;
495.9000;0.5600;3.6091;
496.2000;0.5617;3.6117;
496.5000;0.5682;3.6355;
496.8000;0.5641;3.6275;
497.1000;0.5674;3.6460;
497.4000;0.5527;3.6064;
497.7000;0.5649;3.6513;
498.0000;0.5625;3.6566;
498.3000;0.5633;3.6618;
498.6000;0.5625;3.6671;
498.9000;0.5543;3.6434;
499.2000;0.5617;3.6671;
499.5000;0.5617;3.6618;
499.8000;0.5617;3.6671;
500.1000;0.5633;3.6671;
500.4000;0.5625;3.6566;
500.7000;0.5633;3.6460;
501.0000;0.5625;3.6513;
501.3000;0.5625;3.6566;
501.6000;0.5649;3.6645;
501.9000;0.5600;3.6539;
502.2000;0.5584;3.6487;
502.5000;0.5633;3.6618;
502.8000;0.5625;3.6539;
503.1000;0.5617;3.6539;
503.4000;0.5633;3.6513;
503.7000;0.5617;3.6513;
504.0000;0.5633;3.6539;
504.3000;0.5633;3.6513;
504.6000;0.5633;3.6460;
504.9000;0.5633;3.6513;
505.2000;0.5674;3.6618;
505.5000;0.5649;3.6566;
505.8000;0.5649;3.6513;
506.1000;0.5617;3.6460;
506.4000;0.5633;3.6460;
506.7000;0.5625;3.6513;
507.0000;0.5617;3.6539;
507.3000;0.5641;3.6539;
507.6000;0.5617;3.6487;
507.9000;0.5633;3.6539;
508.2000;0.5617;3.6434;
508.5000;0.5617;3.6328;
508.8000;0.5649;3.6355;
509.1000;0.5641;3.6275;
509.4000;0.5633;3.6302;
509.7000;0.5625;3.6355;
510.0000;0.5625;3.6434;
510.3000;0.5641;3.6407;
510.6000;0.5649;3.6328;
510.9000;0.5641;3.6302;
511.2000;0.5641;3.6328;
511.5000;0.5641;3.6275;
511.8000;0.5641;3.6302;
512.1000;0.5633;3.6223;
512.4000;0.5633;3.6275;
512.7000;0.5641;3.6249;
513.0000;0.5633;3.6223;
513.3000;0.5657;3.6302;
513.6000;0.5633;3.6196;
513.9000;0.5617;3.6223;
514.2000;0.5641;3.6407;
514.5000;0.5625;3.6355;
514.8000;0.5755;3.6750;
515.1000;0.5641;3.6381;
515.4000;0.5633;3.6328;
515.7000;0.5535;3.5959;
516.0000;0.5625;3.6196;
516.3000;0.5633;3.6196;
516.6000;0.5608;3.6275;
516.9000;0.5698;3.6618;
517.2000;0.5633;3.6618;
517.5000;0.5617;3.6618;
517.8000;0.5617;3.6592;
518.1000;0.5625;3.6671;
518.4000;0.5551;3.6434;
518.7000;0.5625;3.6671;
519.0000;0.5617;3.6698;
519.3000;0.5633;3.6698;
519.6000;0.5617;3.6724;
519.9000;0.5511;3.6381;
520.2000;0.5600;3.6750;
520.5000;0.5625;3.6830;
520.8000;0.5617;3.6724;
521.1000;0.5584;3.6645;
521.4000;0.5617;3.6645;
521.7000;0.5625;3.6645;
522.0000;0.5584;3.6513;
522.3000;0.5617;3.6592;
522.6000;0.5633;3.6618;
522.9000;0.5617;3.6539;
523.2000;0.5633;3.6618;
523.5000;0.5641;3.6566;
523.8000;0.5641;3.6592;
524.1000;0.5617;3.6487;
524.4000;0.5674;3.6645;
524.7000;0.5633;3.6434;
525.0000;0.5625;3.6407;
525.3000;0.5625;3.6407;
525.6000;0.5625;3.6355;
525.9000;0.5625;3.6302;
526.2000;0.5641;3.6328;
526.5000;0.5633;3.6407;
526.8000;0.5641;3.6328;
527.1000;0.5649;3.6302;
527.4000;0.5649;3.6275;
527.7000;0.5617;3.6275;
528.0000;0.5625;3.6249;
528.3000;0.5641;3.6275;
528.6000;0.5649;3.6355;
528.9000;0.5617;3.6355;
529.2000;0.5682;3.6487;
529.5000;0.5625;3.6381;
529.8000;0.5641;3.6460;
530.1000;0.5633;3.6434;
530.4000;0.5617;3.6328;
530.7000;0.5657;3.6407;
531.0000;0.5649;3.6381;
531.3000;0.5625;3.6407;
531.6000;0.5633;3.6434;
531.9000;0.5641;3.6513;
532.2000;0.5641;3.6487;
532.5000;0.5657;3.6513;
532.8000;0.5633;3.6328;
533.1000;0.5625;3.6328;
533.4000;0.5665;3.6328;
533.7000;0.5633;3.6381;
534.0000;0.5641;3.6355;
534.3000;0.5633;3.6355;
534.6000;0.5641;3.6460;
534.9000;0.5649;3.6566;
535.2000;0.5625;3.6513;
535.5000;0.5633;3.6513;
535.8000;0.5617;3.6460;
536.1000;0.5641;3.6487;
536.4000;0.5617;3.6566;
536.7000;0.5625;3.6618;
537.0000;0.5592;3.6539;
537.3000;0.5608;3.6592;
537.6000;0.5625;3.6566;
537.9000;0.5600;3.6539;
538.2000;0.5625;3.6618;
538.5000;0.5625;3.6671;
538.8000;0.5576;3.6618;
539.1000;0.5608;3.6750;
539.4000;0.5617;3.6777;
539.7000;0.5617;3.6830;
540.0000;0.5649;3.6909;
540.3000;0.5625;3.6777;
540.6000;0.5608;3.6645;
540.9000;0.5625;3.6618;
541.2000;0.5568;3.6460;
541.5000;0.5617;3.6645;
541.8000;0.5625;3.6671;
542.1000;0.5641;3.6724;
542.4000;0.5625;3.6566;
542.7000;0.5625;3.6539;
543.0000;0.5617;3.6460;
543.3000;0.5584;3.6460;
543.6000;0.5592;3.6513;
543.9000;0.5608;3.6618;
544.2000;0.5503;3.6275;
544.5000;0.5633;3.6566;
544.8000;0.5641;3.6566;
545.1000;0.5625;3.6434;
545.4000;0.5625;3.6328;
545.7000;0.5600;3.6223;
546.0000;0.5617;3.6091;
546.3000;0.5641;3.6144;
546.6000;0.5633;3.6170;
546.9000;0.5641;3.6249;
547.2000;0.5543;3.5933;
547.5000;0.5641;3.6196;
547.8000;0.5641;3.6196;
548.1000;0.5649;3.6249;
548.4000;0.5665;3.6328;
548.7000;0.5649;3.6302;
549.0000;0.5747;3.6671;
549.3000;0.5633;3.6355;
549.6000;0.5625;3.6434;
549.9000;0.5625;3.6407;
550.2000;0.5755;3.6724;
550.5000;0.5608;3.6223;
550.8000;0.5617;3.6064;
551.1000;0.5633;3.6038;
551.4000;0.5657;3.6064;
551.7000;0.5625;3.6091;
552.0000;0.5568;3.6064;
552.3000;0.5641;3.6381;
552.6000;0.5641;3.6434;
552.9000;0.5633;3.6434;
553.2000;0.5633;3.6487;
553.5000;0.5633;3.6460;
553.8000;0.5649;3.6566;
554.1000;0.5625;3.6407;
554.4000;0.5617;3.6407;
554.7000;0.5633;3.6381;
555.0000;0.5633;3.6328;
555.3000;0.5633;3.6328;
555.6000;0.5625;3.6223;
555.9000;0.5617;3.6302;
556.2000;0.5617;3.6355;
556.5000;0.5625;3.6407;
556.8000;0.5625;3.6302;
557.1000;0.5625;3.6381;
557.4000;0.5617;3.6381;
557.7000;0.5625;3.6407;
558.0000;0.5617;3.6355;
558.3000;0.5625;3.6328;
558.6000;0.5625;3.6407;
558.9000;0.5625;3.6460;
559.2000;0.5649;3.6566;
559.5000;0.5625;3.6487;
559.8000;0.5617;3.6460;
560.1000;0.5682;3.6671;
560.4000;0.5617;3.6566;
560.7000;0.5608;3.6566;
561.0000;0.5608;3.6592;
561.3000;0.5617;3.6645;
561.6000;0.5617;3.6645;
561.9000;0.5608;3.6592;
562.2000;0.5584;3.6592;
562.5000;0.5617;3.6698;
562.8000;0.5698;3.6882;
563.1000;0.5633;3.6724;
563.4000;0.5617;3.6645;
563.7000;0.5633;3.6645;
564.0000;0.5641;3.6671;
564.3000;0.5633;3.6566;
564.6000;0.5633;3.6618;
564.9000;0.5739;3.6961;
565.2000;0.5543;3.6355;
565.5000;0.5747;3.6856;
565.8000;0.5625;3.6592;
566.1000;0.5625;3.6566;
566.4000;0.5633;3.6566;
566.7000;0.5665;3.6645;
567.0000;0.5641;3.6539;
567.3000;0.5633;3.6566;
567.6000;0.5633;3.6566;
567.9000;0.5625;3.6539;
568.2000;0.5698;3.6592;
568.5000;0.5674;3.6513;
568.8000;0.5633;3.6407;
569.1000;0.5625;3.6407;
569.4000;0.5641;3.6407;
569.7000;0.5633;3.6381;
570.0000;0.5625;3.6407;
570.3000;0.5608;3.6328;
570.6000;0.5633;3.6328;
570.9000;0.5633;3.6355;
571.2000;0.5633;3.6355;
571.5000;0.5633;3.6275;
571.8000;0.5649;3.6223;
572.1000;0.5600;3.6170;
572.4000;0.5649;3.6223;
572.7000;0.5641;3.6196;
573.0000;0.5633;3.6144;
573.3000;0.5698;3.6302;
573.6000;0.5633;3.6275;
573.9000;0.5560;3.6091;
574.2000;0.5641;3.6249;
574.5000;0.5633;3.6144;
574.8000;0.5633;3.6117;
575.1000;0.5625;3.6117;
575.4000;0.5576;3.6038;
575.7000;0.5617;3.6196;
576.0000;0.5617;3.6144;
576.3000;0.5690;3.6355;
576.6000;0.5617;3.6223;
576.9000;0.5641;3.6302;
577.2000;0.5617;3.6328;
577.5000;0.5600;3.6302;
577.8000;0.5625;3.6460;
578.1000;0.5617;3.6487;
578.4000;0.5617;3.6513;
578.7000;0.5617;3.6460;
579.0000;0.5608;3.6513;
579.3000;0.5617;3.6487;
579.6000;0.5608;3.6513;
579.9000;0.5625;3.6592;
580.2000;0.5608;3.6539;
580.5000;0.5592;3.6592;
580.8000;0.5625;3.6592;
581.1000;0.5608;3.6513;
581.4000;0.5600;3.6539;
581.7000;0.5592;3.6539;
582.0000;0.5617;3.6487;
582.3000;0.5592;3.6407;
582.6000;0.5592;3.6434;
582.9000;0.5584;3.6434;
583.2000;0.5617;3.6381;
583.5000;0.5608;3.6407;
583.8000;0.5617;3.6460;
584.1000;0.5608;3.6460;
584.4000;0.5608;3.6487;
584.7000;0.5633;3.6381;
585.0000;0.5617;3.6302;
585.3000;0.5600;3.6170;
585.6000;0.5625;3.6223;
585.9000;0.5625;3.6302;
586.2000;0.5600;3.6249;
586.5000;0.5608;3.6170;
586.8000;0.5682;3.6302;
587.1000;0.5625;3.6223;
587.4000;0.5641;3.6249;
587.7000;0.5617;3.6302;
588.0000;0.5617;3.6249;
588.3000;0.5674;3.6407;
588.6000;0.5527;3.6064;
588.9000;0.5576;3.6144;
589.2000;0.5649;3.6302;
589.5000;0.5551;3.5853;
589.8000;0.5633;3.6275;
590.1000;0.5633;3.6223;
590.4000;0.5608;3.6223;
590.7000;0.5641;3.6355;
591.0000;0.5543;3.6038;
591.3000;0.5617;3.6328;
591.6000;0.5633;3.6460;
591.9000;0.5690;3.6671;
592.2000;0.5641;3.6566;
592.5000;0.5706;3.6698;
592.8000;0.5617;3.6434;
593.1000;0.5625;3.6381;
593.4000;0.5633;3.6407;
593.7000;0.5633;3.6434;
594.0000;0.5625;3.6381;
594.3000;0.5633;3.6407;
594.6000;0.5617;3.6407;
594.9000;0.5641;3.6434;
595.2000;0.5633;3.6328;
595.5000;0.5625;3.6302;
595.8000;0.5625;3.6355;
596.1000;0.5617;3.6355;
596.4000;0.5576;3.6302;
596.7000;0.5625;3.6460;
597.0000;0.5600;3.6566;
597.3000;0.5608;3.6698;
597.6000;0.5617;3.6698;
597.9000;0.5608;3.6645;
598.2000;0.5682;3.6830;
598.5000;0.5617;3.6592;
598.8000;0.5617;3.6592;
599.1000;0.5617;3.6539;
599.4000;0.5625;3.6592;
599.7000;0.5617;3.6592;
600.0000;0.5600;3.6592;
600.3000;0.5617;3.6566;
600.6000;0.5592;3.6487;
600.9000;0.5617;3.6434;
601.2000;0.5568;3.6196;
601.5000;0.5543;3.5985;
601.8000;0.5511;3.5748;
602.1000;0.5454;3.5405;
602.4000;0.5429;3.5141;
602.7000;0.5389;3.4930;
603.0000;0.5348;3.4613;
603.3000;0.5307;3.4350;
603.6000;0.5340;3.4402;
603.9000;0.5275;3.4033;
604.2000;0.5258;3.3848;
604.5000;0.5210;3.3664;
604.8000;0.5210;3.3664;
605.1000;0.5177;3.3611;
605.4000;0.5161;3.3532;
605.7000;0.5136;3.3426;
606.0000;0.5136;3.3373;
606.3000;0.5104;3.3242;
606.6000;0.5079;3.3136;
606.9000;0.5039;3.2899;
607.2000;0.5055;3.2978;
607.5000;0.5047;3.2925;
607.8000;0.5022;3.2793;
608.1000;0.4998;3.2688;
608.4000;0.5014;3.2714;
608.7000;0.4990;3.2767;
609.0000;0.5006;3.2767;
609.3000;0.4957;3.2635;
609.6000;0.4957;3.2529;
609.9000;0.4974;3.2582;
610.2000;0.4925;3.2503;
610.5000;0.4925;3.2556;
610.8000;0.4917;3.2635;
611.1000;0.4900;3.2529;
611.4000;0.4819;3.2371;
611.7000;0.4876;3.2556;
612.0000;0.4860;3.2476;
612.3000;0.4819;3.2397;
612.6000;0.4851;3.2529;
612.9000;0.4835;3.2503;
613.2000;0.4827;3.2450;
613.5000;0.4835;3.2476;
613.8000;0.4794;3.2292;
614.1000;0.4811;3.2424;
614.4000;0.4721;3.2265;
614.7000;0.4803;3.2503;
615.0000;0.4794;3.2424;
615.3000;0.4778;3.2424;
615.6000;0.4770;3.2450;
615.9000;0.4762;3.2476;
616.2000;0.4729;3.2476;
616.5000;0.4762;3.2556;
616.8000;0.4737;3.2476;
617.1000;0.4737;3.2476;
617.4000;0.4705;3.2503;
617.7000;0.4689;3.2582;
618.0000;0.4721;3.2608;
618.3000;0.4689;3.2635;
618.6000;0.4689;3.2714;
618.9000;0.4681;3.2714;
619.2000;0.4689;3.2714;
619.5000;0.4681;3.2635;
619.8000;0.4640;3.2529;
620.1000;0.4672;3.2635;
620.4000;0.4672;3.2582;
620.7000;0.4664;3.2635;
621.0000;0.4632;3.2556;
621.3000;0.4632;3.2635;
621.6000;0.4640;3.2556;
621.9000;0.4640;3.2582;
622.2000;0.4615;3.2397;
622.5000;0.4624;3.2503;
622.8000;0.4640;3.2476;
623.1000;0.4624;3.2345;
623.4000;0.4607;3.2239;
623.7000;0.4632;3.2318;
624.0000;0.4624;3.2371;
624.3000;0.4615;3.2345;
624.6000;0.4615;3.2265;
624.9000;0.4591;3.2213;
625.2000;0.4615;3.2318;
625.5000;0.4607;3.2371;
625.8000;0.4591;3.2345;
626.1000;0.4558;3.2318;
626.4000;0.4575;3.2265;
626.7000;0.4583;3.2265;
627.0000;0.4583;3.2265;
627.3000;0.4567;3.2133;
627.6000;0.4550;3.2160;
627.9000;0.4648;3.2371;
628.2000;0.4550;3.2133;
628.5000;0.4550;3.2107;
628.8000;0.4558;3.2213;
629.1000;0.4550;3.2133;
629.4000;0.4550;3.1975;
629.7000;0.4567;3.1949;
630.0000;0.4632;3.2160;
630.3000;0.4550;3.2002;
630.6000;0.4534;3.2002;
630.9000;0.4493;3.1843;
631.2000;0.4534;3.1975;
631.5000;0.4510;3.1949;
631.8000;0.4510;3.1949;
632.1000;0.4518;3.1949;
632.4000;0.4501;3.1817;
632.7000;0.4501;3.1817;
633.0000;0.4510;3.1791;
633.3000;0.4510;3.1738;
633.6000;0.4518;3.1738;
633.9000;0.4501;3.1711;
634.2000;0.4501;3.1791;
634.5000;0.4493;3.1870;
634.8000;0.4461;3.1922;
635.1000;0.4469;3.1975;
635.4000;0.4469;3.2028;
635.7000;0.4461;3.2107;
636.0000;0.4428;3.2081;
636.3000;0.4567;3.2476;
636.6000;0.4453;3.2186;
636.9000;0.4396;3.2081;
637.2000;0.4444;3.2265;
637.5000;0.4436;3.2213;
637.8000;0.4444;3.2213;
638.1000;0.4420;3.2160;
638.4000;0.4314;3.1870;
638.7000;0.4436;3.2213;
639.0000;0.4436;3.2239;
639.3000;0.4461;3.2397;
639.6000;0.4436;3.2450;
639.9000;0.4469;3.2582;
640.2000;0.4420;3.2450;
640.5000;0.4420;3.2503;
640.8000;0.4469;3.2582;
641.1000;0.4420;3.2503;
641.4000;0.4412;3.2450;
641.7000;0.4420;3.2318;
642.0000;0.4420;3.2318;
642.3000;0.4404;3.2160;
642.6000;0.4396;3.2160;
642.9000;0.4404;3.2160;
643.2000;0.4461;3.2318;
643.5000;0.4404;3.2186;
643.8000;0.4387;3.2054;
644.1000;0.4404;3.2054;
644.4000;0.4396;3.2107;
644.7000;0.4396;3.2160;
645.0000;0.4396;3.2054;
645.3000;0.4322;3.2002;
645.6000;0.4387;3.2081;
645.9000;0.4404;3.2054;
646.2000;0.4355;3.1896;
646.5000;0.4387;3.2002;
646.8000;0.4363;3.2028;
647.1000;0.4404;3.2133;
647.4000;0.4363;3.1975;
647.7000;0.4330;3.2028;
648.0000;0.4363;3.2002;
648.3000;0.4396;3.1949;
648.6000;0.4363;3.1949;
648.9000;0.4355;3.1896;
649.2000;0.4339;3.1896;
649.5000;0.4379;3.1870;
649.8000;0.4339;3.1817;
650.1000;0.4461;3.2107;
650.4000;0.4363;3.1870;
650.7000;0.4371;3.1975;
651.0000;0.4371;3.2028;
651.3000;0.4371;3.2054;
651.6000;0.4363;3.2054;
651.9000;0.4420;3.2160;
652.2000;0.4363;3.1975;
652.5000;0.4355;3.2002;
652.8000;0.4347;3.2028;
653.1000;0.4347;3.2028;
653.4000;0.4355;3.2133;
653.7000;0.4347;3.2186;
654.0000;0.4347;3.2213;
654.3000;0.4355;3.2265;
654.6000;0.4330;3.2239;
654.9000;0.4355;3.2318;
655.2000;0.4339;3.2265;
655.5000;0.4322;3.2292;
655.8000;0.4347;3.2397;
656.1000;0.4339;3.2397;
656.4000;0.4322;3.2450;
656.7000;0.4322;3.2476;
657.0000;0.4330;3.2424;
657.3000;0.4306;3.2424;
657.6000;0.4314;3.2503;
657.9000;0.4387;3.2688;
658.2000;0.4322;3.2556;
658.5000;0.4298;3.2582;
658.8000;0.4282;3.2503;
659.1000;0.4314;3.2529;
659.4000;0.4306;3.2529;
659.7000;0.4290;3.2529;
660.0000;0.4314;3.2608;
660.3000;0.4298;3.2529;
660.6000;0.4379;3.2714;
660.9000;0.4282;3.2476;
661.2000;0.4322;3.2529;
661.5000;0.4306;3.2661;
661.8000;0.4282;3.2503;
662.1000;0.4298;3.2503;
662.4000;0.4314;3.2424;
662.7000;0.4298;3.2424;
663.0000;0.4290;3.2476;
663.3000;0.4306;3.2688;
663.6000;0.4265;3.2503;
663.9000;0.4306;3.2608;
664.2000;0.4290;3.2450;
664.5000;0.4274;3.2397;
664.8000;0.4290;3.2345;
665.1000;0.4298;3.2318;
665.4000;0.4282;3.2265;
665.7000;0.4274;3.2292;
666.0000;0.4290;3.2318;
666.3000;0.4290;3.2292;
666.6000;0.4298;3.2397;
666.9000;0.4306;3.2371;
667.2000;0.4265;3.2292;
667.5000;0.4290;3.2345;
667.8000;0.4290;3.2318;
668.1000;0.4265;3.2292;
668.4000;0.4379;3.2608;
668.7000;0.4290;3.2213;
669.0000;0.4200;3.2081;
669.3000;0.4282;3.2292;
669.6000;0.4265;3.2239;
669.9000;0.4241;3.2133;
670.2000;0.4257;3.2028;
670.5000;0.4282;3.2028;
670.8000;0.4322;3.2133;
671.1000;0.4298;3.2107;
671.4000;0.4257;3.2054;
671.7000;0.4274;3.2081;
672.0000;0.4298;3.2107;
672.3000;0.4265;3.2081;
672.6000;0.4265;3.2054;
672.9000;0.4257;3.2002;
673.2000;0.4265;3.2054;
673.5000;0.4282;3.2081;
673.8000;0.4257;3.1922;
674.1000;0.4265;3.1949;
674.4000;0.4257;3.1896;
674.7000;0.4257;3.1949;
675.0000;0.4265;3.2028;
675.3000;0.4249;3.2028;
675.6000;0.4249;3.2028;
675.9000;0.4298;3.2107;
676.2000;0.4233;3.1975;
676.5000;0.4249;3.2133;
676.8000;0.4265;3.2081;
677.1000;0.4257;3.2081;
677.4000;0.4249;3.2081;
677.7000;0.4257;3.2133;
678.0000;0.4249;3.2081;
678.3000;0.4233;3.2002;
678.6000;0.4217;3.2054;
678.9000;0.4225;3.2186;
679.2000;0.4241;3.2371;
679.5000;0.4241;3.2345;
679.8000;0.4241;3.2397;
680.1000;0.4241;3.2397;
680.4000;0.4257;3.2450;
680.7000;0.4233;3.2450;
681.0000;0.4265;3.2476;
681.3000;0.4241;3.2292;
681.6000;0.4233;3.2265;
681.9000;0.4274;3.2239;
682.2000;0.4208;3.2107;
682.5000;0.4225;3.2081;
682.8000;0.4225;3.2054;
683.1000;0.4241;3.2133;
683.4000;0.4249;3.2186;
683.7000;0.4208;3.2054;
684.0000;0.4241;3.2133;
684.3000;0.4103;3.1791;
684.6000;0.4176;3.2002;
684.9000;0.4217;3.2133;
685.2000;0.4265;3.2239;
685.5000;0.4217;3.2186;
685.8000;0.4225;3.2213;
686.1000;0.4208;3.2186;
686.4000;0.4225;3.2213;
686.7000;0.4225;3.2265;
687.0000;0.4168;3.2081;
687.3000;0.4151;3.2002;
687.6000;0.4217;3.2133;
687.9000;0.4217;3.2213;
688.2000;0.4225;3.2213;
688.5000;0.4200;3.2160;
688.8000;0.4200;3.2054;
689.1000;0.4192;3.2028;
689.4000;0.4192;3.1949;
689.7000;0.4217;3.2081;
690.0000;0.4208;3.2081;
690.3000;0.4200;3.2002;
690.6000;0.4225;3.1922;
690.9000;0.4217;3.1949;
691.2000;0.4217;3.2002;
691.5000;0.4217;3.1975;
691.8000;0.4217;3.2054;
692.1000;0.4184;3.1949;
692.4000;0.4225;3.2081;
692.7000;0.4208;3.2054;
693.0000;0.4225;3.2081;
693.3000;0.4208;3.2133;
693.6000;0.4225;3.2081;
693.9000;0.4192;3.2054;
694.2000;0.4217;3.2054;
694.5000;0.4217;3.2081;
694.8000;0.4192;3.2081;
695.1000;0.4200;3.2002;
695.4000;0.4200;3.2107;
695.7000;0.4208;3.2160;
696.0000;0.4200;3.2160;
696.3000;0.4184;3.2160;
696.6000;0.4257;3.2424;
696.9000;0.4225;3.2292;
697.2000;0.4184;3.2265;
697.5000;0.4192;3.2318;
697.8000;0.4225;3.2424;
698.1000;0.4200;3.2371;
698.4000;0.4200;3.2476;
698.7000;0.4208;3.2503;
699.0000;0.4160;3.2424;
699.3000;0.4176;3.2529;
699.6000;0.4192;3.2476;
699.9000;0.4143;3.2371;
700.2000;0.4176;3.2450;
700.5000;0.4184;3.2397;
700.8000;0.4217;3.2476;
701.1000;0.4192;3.2397;
701.4000;0.4184;3.2345;
701.7000;0.4208;3.2503;
702.0000;0.4184;3.2476;
702.3000;0.4192;3.2529;
702.6000;0.4184;3.2450;
702.9000;0.4078;3.2265;
703.2000;0.4192;3.2529;
703.5000;0.4208;3.2556;
703.8000;0.4192;3.2424;
704.1000;0.4225;3.2476;
704.4000;0.4200;3.2424;
704.7000;0.4200;3.2371;
705.0000;0.4298;3.2556;
705.3000;0.4184;3.2239;
705.6000;0.4160;3.2239;
705.9000;0.4184;3.2239;
706.2000;0.4184;3.2213;
706.5000;0.4184;3.2160;
706.8000;0.4200;3.2133;
707.1000;0.4168;3.2054;
707.4000;0.4176;3.2133;
707.7000;0.4241;3.2186;
708.0000;0.4151;3.2028;
708.3000;0.4249;3.2318;
708.6000;0.4062;3.1843;
708.9000;0.4176;3.2160;
709.2000;0.4168;3.2133;
709.5000;0.4225;3.2318;
709.8000;0.4192;3.2371;
710.1000;0.4184;3.2318;
710.4000;0.4208;3.2371;
710.7000;0.4184;3.2345;
711.0000;0.4217;3.2424;
711.3000;0.4314;3.2740;
711.6000;0.4151;3.2371;
711.9000;0.4200;3.2450;
712.2000;0.4192;3.2397;
712.5000;0.4184;3.2345;
712.8000;0.4249;3.2424;
713.1000;0.4184;3.2160;
713.4000;0.4160;3.2081;
713.7000;0.4192;3.2133;
714.0000;0.4168;3.2081;
714.3000;0.4200;3.2160;
714.6000;0.4184;3.2186;
714.9000;0.4176;3.2107;
715.2000;0.4176;3.2107;
715.5000;0.4151;3.2081;
715.8000;0.4143;3.2133;
716.1000;0.4143;3.2292;
716.4000;0.4160;3.2345;
716.7000;0.4151;3.2292;
717.0000;0.4143;3.2186;
717.3000;0.4160;3.2318;
717.6000;0.4176;3.2371;
717.9000;0.4070;3.2160;
718.2000;0.4143;3.2450;
718.5000;0.4160;3.2476;
718.8000;0.4168;3.2556;
719.1000;0.4135;3.2556;
719.4000;0.4225;3.2793;
719.7000;0.4160;3.2608;
720.0000;0.4135;3.2608;
720.3000;0.4143;3.2582;
720.6000;0.4135;3.2582;
720.9000;0.4184;3.2635;
721.2000;0.4200;3.2714;
721.5000;0.4160;3.2582;
721.8000;0.4143;3.2608;
722.1000;0.4143;3.2529;
722.4000;0.4176;3.2556;
722.7000;0.4143;3.2476;
723.0000;0.4151;3.2397;
723.3000;0.4078;3.2186;
723.6000;0.4151;3.2371;
723.9000;0.4111;3.2239;
724.2000;0.4184;3.2450;
724.5000;0.4160;3.2292;
724.8000;0.4143;3.2265;
725.1000;0.4143;3.2239;
725.4000;0.4160;3.2186;
725.7000;0.4151;3.2054;
726.0000;0.4176;3.2081;
726.3000;0.4176;3.2133;
726.6000;0.4176;3.2107;
726.9000;0.4151;3.2186;
727.2000;0.4168;3.2265;
727.5000;0.4168;3.2292;
727.8000;0.4127;3.2160;
728.1000;0.4160;3.2160;
728.4000;0.4143;3.2054;
728.7000;0.4168;3.2081;
729.0000;0.4233;3.2239;
729.3000;0.4160;3.2081;
729.6000;0.4143;3.2107;
729.9000;0.4151;3.2160;
730.2000;0.4151;3.2239;
730.5000;0.4241;3.2450;
730.8000;0.4160;3.2213;
731.1000;0.4200;3.2345;
731.4000;0.4135;3.2213;
731.7000;0.4160;3.2213;
732.0000;0.4208;3.2318;
732.3000;0.4103;3.2081;
732.6000;0.4241;3.2503;
732.9000;0.4151;3.2318;
733.2000;0.4143;3.2318;
733.5000;0.4151;3.2265;
733.8000;0.4143;3.2160;
734.1000;0.4151;3.2133;
734.4000;0.4151;3.2133;
734.7000;0.4143;3.2107;
735.0000;0.4160;3.2107;
735.3000;0.4151;3.2081;
735.6000;0.4127;3.2186;
735.9000;0.4143;3.2265;
736.2000;0.4127;3.2133;
736.5000;0.4135;3.2133;
736.8000;0.4135;3.2186;
737.1000;0.4143;3.2213;
737.4000;0.4143;3.2292;
737.7000;0.4119;3.2292;
738.0000;0.4111;3.2397;
738.3000;0.4135;3.2450;
738.6000;0.4143;3.2476;
738.9000;0.4127;3.2529;
739.2000;0.4151;3.2582;
739.5000;0.4135;3.2582;
739.8000;0.4135;3.2635;
740.1000;0.4119;3.2556;
740.4000;0.4127;3.2635;
740.7000;0.4119;3.2529;
741.0000;0.4127;3.2476;
741.3000;0.4143;3.2503;
741.6000;0.4127;3.2424;
741.9000;0.4127;3.2476;
742.2000;0.4111;3.2397;
742.5000;0.4119;3.2450;
742.8000;0.4127;3.2503;
743.1000;0.4103;3.2371;
743.4000;0.4143;3.2476;
743.7000;0.4127;3.2476;
744.0000;0.4119;3.2424;
744.3000;0.4127;3.2397;
744.6000;0.4111;3.2239;
744.9000;0.4103;3.2107;
745.2000;0.4127;3.2292;
745.5000;0.4151;3.2292;
745.8000;0.4127;3.2265;
746.1000;0.4143;3.2292;
746.4000;0.4127;3.2239;
746.7000;0.4103;3.2160;
747.0000;0.4135;3.2213;
747.3000;0.4168;3.2318;
747.6000;0.4135;3.2292;
747.9000;0.4135;3.2318;
748.2000;0.4160;3.2345;
748.5000;0.4160;3.2239;
748.8000;0.4151;3.2213;
749.1000;0.4143;3.2186;
749.4000;0.4143;3.2186;
749.7000;0.4143;3.2292;
750.0000;0.4135;3.2239;
750.3000;0.4151;3.2292;
750.6000;0.4127;3.2213;
750.9000;0.4135;3.2186;
751.2000;0.4143;3.2186;
751.5000;0.4143;3.2292;
751.8000;0.4135;3.2186;
752.1000;0.4143;3.2265;
752.4000;0.4135;3.2292;
752.7000;0.4078;3.2186;
753.0000;0.4143;3.2292;
753.3000;0.4135;3.2292;
753.6000;0.4127;3.2318;
753.9000;0.4127;3.2345;
754.2000;0.4151;3.2397;
754.5000;0.4135;3.2371;
754.8000;0.4151;3.2371;
755.1000;0.4094;3.2265;
755.4000;0.4176;3.2503;
755.7000;0.4127;3.2318;
756.0000;0.4111;3.2265;
756.3000;0.4119;3.2345;
756.6000;0.4143;3.2503;
756.9000;0.4127;3.2424;
757.2000;0.4119;3.2529;
757.5000;0.4135;3.2529;
757.8000;0.4094;3.2476;
758.1000;0.4094;3.2503;
758.4000;0.4119;3.2582;
758.7000;0.4086;3.2582;
759.0000;0.4127;3.2767;
759.3000;0.4135;3.2767;
759.6000;0.4119;3.2767;
759.9000;0.4111;3.2740;
760.2000;0.4233;3.3057;
760.5000;0.4119;3.2688;
760.8000;0.4111;3.2635;
761.1000;0.4192;3.2793;
761.4000;0.4103;3.2582;
761.7000;0.4119;3.2582;
762.0000;0.4184;3.2819;
762.3000;0.4119;3.2635;
762.6000;0.4111;3.2740;
762.9000;0.4094;3.2661;
763.2000;0.4135;3.2740;
763.5000;0.4094;3.2661;
763.8000;0.4103;3.2556;
764.1000;0.4135;3.2556;
764.4000;0.4094;3.2503;
764.7000;0.4078;3.2397;
765.0000;0.4119;3.2529;
765.3000;0.4119;3.2529;
765.6000;0.4111;3.2450;
765.9000;0.4143;3.2476;
766.2000;0.4111;3.2476;
766.5000;0.4119;3.2635;
766.8000;0.4135;3.2661;
767.1000;0.4160;3.2608;
767.4000;0.4111;3.2424;
767.7000;0.4094;3.2503;
768.0000;0.4135;3.2556;
768.3000;0.4127;3.2556;
768.6000;0.4111;3.2476;
768.9000;0.4151;3.2556;
769.2000;0.4103;3.2476;
769.5000;0.4119;3.2503;
769.8000;0.4127;3.2529;
770.1000;0.4119;3.2476;
770.4000;0.4119;3.2397;
770.7000;0.4127;3.2345;
771.0000;0.4168;3.2397;
771.3000;0.4127;3.2265;
771.6000;0.4111;3.2133;
771.9000;0.4103;3.2133;
772.2000;0.4111;3.2133;
772.5000;0.4111;3.2160;
772.8000;0.4135;3.2160;
773.1000;0.4127;3.2133;
773.4000;0.4143;3.2239;
773.7000;0.4143;3.2318;
774.0000;0.4135;3.2265;
774.3000;0.4086;3.2186;
774.6000;0.4111;3.2213;
774.9000;0.4135;3.2318;
775.2000;0.4111;3.2265;
775.5000;0.4111;3.2239;
775.8000;0.4119;3.2265;
776.1000;0.4151;3.2424;
776.4000;0.4103;3.2371;
776.7000;0.4111;3.2318;
777.0000;0.4062;3.2213;
777.3000;0.4103;3.2424;
777.6000;0.4094;3.2397;
777.9000;0.4135;3.2529;
778.2000;0.4062;3.2318;
778.5000;0.4119;3.2556;
778.8000;0.4111;3.2582;
779.1000;0.4241;3.3004;
779.4000;0.4119;3.2661;
779.7000;0.4143;3.2714;
780.0000;0.4103;3.2529;
780.3000;0.4103;3.2635;
780.6000;0.4111;3.2661;
780.9000;0.4103;3.2688;
781.2000;0.4103;3.2661;
781.5000;0.4103;3.2608;
781.8000;0.4029;3.2503;
782.1000;0.4127;3.2661;
782.4000;0.4094;3.2661;
782.7000;0.4111;3.2688;
783.0000;0.4103;3.2661;
783.3000;0.4094;3.2661;
783.6000;0.4111;3.2688;
783.9000;0.4103;3.2556;
784.2000;0.4135;3.2608;
784.5000;0.4103;3.2582;
784.8000;0.4111;3.2450;
785.1000;0.4127;3.2476;
785.4000;0.4062;3.2239;
785.7000;0.4103;3.2345;
786.0000;0.4135;3.2450;
786.3000;0.4111;3.2345;
786.6000;0.4078;3.2265;
786.9000;0.4094;3.2292;
787.2000;0.4176;3.2397;
787.5000;0.4103;3.2213;
787.8000;0.4078;3.2160;
788.1000;0.4103;3.2160;
788.4000;0.4094;3.2107;
788.7000;0.4119;3.2213;
789.0000;0.4119;3.2265;
789.3000;0.4111;3.2318;
789.6000;0.4086;3.2213;
789.9000;0.4086;3.2160;
790.2000;0.4094;3.2213;
790.5000;0.4127;3.2318;
790.8000;0.4111;3.2318;
791.1000;0.4094;3.2265;
791.4000;0.4119;3.2345;
791.7000;0.4103;3.2265;
792.0000;0.4094;3.2292;
792.3000;0.4062;3.2265;
792.6000;0.4103;3.2371;
792.9000;0.4119;3.2345;
793.2000;0.4111;3.2292;
793.5000;0.4094;3.2239;
793.8000;0.4086;3.2133;
794.1000;0.4119;3.2292;
794.4000;0.4119;3.2318;
794.7000;0.4094;3.2265;
795.0000;0.4192;3.2661;
795.3000;0.4111;3.2450;
795.6000;0.4078;3.2424;
795.9000;0.4094;3.2529;
796.2000;0.4111;3.2582;
796.5000;0.4111;3.2635;
796.8000;0.4046;3.2476;
797.1000;0.4094;3.2635;
797.4000;0.4078;3.2714;
797.7000;0.4062;3.2582;
798.0000;0.4176;3.2899;
798.3000;0.4046;3.2608;
798.6000;0.4094;3.2714;
798.9000;0.4070;3.2661;
799.2000;0.4111;3.2661;
799.5000;0.4103;3.2661;
799.8000;0.4094;3.2635;
800.1000;0.4086;3.2635;
800.4000;0.4111;3.2714;
800.7000;0.4094;3.2688;
801.0000;0.3948;3.2318;
801.3000;0.4111;3.2688;
801.6000;0.4160;3.2899;
801.9000;0.4127;3.2767;
802.2000;0.4094;3.2661;
802.5000;0.4062;3.2529;
802.8000;0.4094;3.2608;
803.1000;0.4062;3.2476;
803.4000;0.3980;3.2318;
803.7000;0.4094;3.2582;
804.0000;0.4127;3.2582;
804.3000;0.4225;3.2767;
804.6000;0.4111;3.2503;
804.9000;0.4078;3.2424;
805.2000;0.4119;3.2476;
805.5000;0.4086;3.2397;
805.8000;0.4094;3.2397;
806.1000;0.4103;3.2371;
806.4000;0.4103;3.2318;
806.7000;0.4111;3.2397;
807.0000;0.4103;3.2371;
807.3000;0.4094;3.2371;
807.6000;0.4070;3.2318;
807.9000;0.4094;3.2371;
808.2000;0.4094;3.2318;
808.5000;0.4086;3.2292;
808.8000;0.4086;3.2213;
809.1000;0.4078;3.2186;
809.4000;0.4103;3.2213;
809.7000;0.4111;3.2397;
810.0000;0.4094;3.2292;
810.3000;0.4143;3.2371;
810.6000;0.4103;3.2292;
810.9000;0.4135;3.2424;
811.2000;0.4111;3.2371;
811.5000;0.4103;3.2345;
811.8000;0.4111;3.2397;
812.1000;0.4094;3.2450;
812.4000;0.4127;3.2424;
812.7000;0.4094;3.2318;
813.0000;0.4086;3.2292;
813.3000;0.4094;3.2318;
813.6000;0.4070;3.2292;
813.9000;0.4086;3.2345;
814.2000;0.4078;3.2318;
814.5000;0.4119;3.2397;
814.8000;0.4111;3.2397;
815.1000;0.4086;3.2345;
815.4000;0.4111;3.2450;
815.7000;0.4111;3.2503;
816.0000;0.4103;3.2529;
816.3000;0.4103;3.2503;
816.6000;0.4070;3.2397;
816.9000;0.4103;3.2476;
817.2000;0.4111;3.2556;
817.5000;0.4094;3.2582;
817.8000;0.4094;3.2556;
818.1000;0.4086;3.2582;
818.4000;0.4094;3.2635;
818.7000;0.4086;3.2661;
819.0000;0.4078;3.2635;
819.3000;0.4094;3.2661;
819.6000;0.4078;3.2608;
819.9000;0.4086;3.2582;
820.2000;0.4062;3.2476;
820.5000;0.4103;3.2582;
820.8000;0.4094;3.2582;
821.1000;0.4086;3.2450;
821.4000;0.4078;3.2450;
821.7000;0.4078;3.2371;
822.0000;0.4094;3.2424;
822.3000;0.4078;3.2345;
822.6000;0.4086;3.2345;
822.9000;0.4070;3.2318;
823.2000;0.4078;3.2345;
823.5000;0.4086;3.2371;
823.8000;0.4094;3.2450;
824.1000;0.4086;3.2318;
824.4000;0.4062;3.2265;
824.7000;0.4103;3.2265;
825.0000;0.4070;3.2133;
825.3000;0.4078;3.2265;
825.6000;0.4070;3.2239;
825.9000;0.4094;3.2371;
826.2000;0.4094;3.2292;
826.5000;0.4078;3.2265;
826.8000;0.4086;3.2265;
827.1000;0.4168;3.2556;
827.4000;0.4225;3.2582;
827.7000;0.4094;3.2213;
828.0000;0.4103;3.2133;
828.3000;0.4127;3.2213;
828.6000;0.4111;3.2081;
828.9000;0.4078;3.2028;
829.2000;0.4070;3.2054;
829.5000;0.4119;3.2239;
829.8000;0.4103;3.2213;
830.1000;0.4103;3.2133;
830.4000;0.4103;3.2239;
830.7000;0.4086;3.2213;
831.0000;0.4119;3.2292;
831.3000;0.4119;3.2265;
831.6000;0.4111;3.2160;
831.9000;0.4086;3.2160;
832.2000;0.4070;3.2213;
832.5000;0.4103;3.2292;
832.8000;0.4103;3.2318;
833.1000;0.4103;3.2239;
833.4000;0.4127;3.2345;
833.7000;0.4103;3.2397;
834.0000;0.4086;3.2397;
834.3000;0.4094;3.2345;
834.6000;0.4086;3.2371;
834.9000;0.4086;3.2371;
835.2000;0.4086;3.2345;
835.5000;0.4103;3.2345;
835.8000;0.4062;3.2318;
836.1000;0.4086;3.2424;
836.4000;0.4078;3.2529;
836.7000;0.4070;3.2503;
837.0000;0.4054;3.2529;
837.3000;0.4086;3.2635;
837.6000;0.4078;3.2608;
837.9000;0.4086;3.2608;
838.2000;0.4062;3.2503;
838.5000;0.4054;3.2556;
838.8000;0.4062;3.2635;
839.1000;0.4078;3.2608;
839.4000;0.4054;3.2582;
839.7000;0.4046;3.2556;
840.0000;0.4094;3.2661;
840.3000;0.4078;3.2529;
840.6000;0.4094;3.2476;
840.9000;0.4062;3.2397;
841.2000;0.4086;3.2397;
841.5000;0.4062;3.2345;
841.8000;0.4054;3.2239;
842.1000;0.4070;3.2239;
842.4000;0.4086;3.2239;
842.7000;0.4086;3.2186;
843.0000;0.4086;3.2186;
843.3000;0.4070;3.2265;
843.6000;0.4054;3.2265;
843.9000;0.4086;3.2265;
844.2000;0.4086;3.2318;
844.5000;0.4086;3.2292;
844.8000;0.4054;3.2213;
845.1000;0.4054;3.2186;
845.4000;0.4094;3.2292;
845.7000;0.4086;3.2186;
846.0000;0.4103;3.2318;
846.3000;0.4094;3.2292;
846.6000;0.4103;3.2265;
846.9000;0.4103;3.2213;
847.2000;0.4094;3.2160;
847.5000;0.4078;3.2054;
847.8000;0.4103;3.2133;
848.1000;0.4094;3.2054;
848.4000;0.4070;3.2107;
848.7000;0.4078;3.2239;
849.0000;0.4103;3.2265;
849.3000;0.4078;3.2186;
849.6000;0.4070;3.2107;
849.9000;0.4054;3.2133;
850.2000;0.4103;3.2186;
850.5000;0.4103;3.2186;
850.8000;0.4078;3.2160;
851.1000;0.4111;3.2239;
851.4000;0.4078;3.2239;
851.7000;0.4160;3.2397;
852.0000;0.4078;3.2107;
852.3000;0.4078;3.2107;
852.6000;0.4094;3.2107;
852.9000;0.4094;3.2054;
853.2000;0.4078;3.2002;
853.5000;0.4078;3.2054;
853.8000;0.4078;3.2081;
854.1000;0.4094;3.2133;
854.4000;0.4070;3.2028;
854.7000;0.4094;3.2081;
855.0000;0.4078;3.2081;
855.3000;0.4070;3.2133;
855.6000;0.4103;3.2213;
855.9000;0.4103;3.2213;
856.2000;0.4086;3.2292;
856.5000;0.4086;3.2371;
856.8000;0.4070;3.2318;
857.1000;0.4086;3.2450;
857.4000;0.4078;3.2476;
857.7000;0.4078;3.2556;
858.0000;0.4078;3.2556;
858.3000;0.4078;3.2503;
858.6000;0.4070;3.2556;
858.9000;0.4070;3.2556;
859.2000;0.4070;3.2582;
859.5000;0.4046;3.2556;
859.8000;0.4054;3.2608;
860.1000;0.4070;3.2608;
860.4000;0.4046;3.2476;
860.7000;0.4070;3.2556;
861.0000;0.4127;3.2661;
861.3000;0.4078;3.2556;
861.6000;0.4086;3.2556;
861.9000;0.4086;3.2608;
862.2000;0.4062;3.2503;
862.5000;0.4086;3.2582;
862.8000;0.4078;3.2503;
863.1000;0.4103;3.2424;
863.4000;0.4111;3.2476;
863.7000;0.4078;3.2450;
864.0000;0.4135;3.2608;
864.3000;0.4078;3.2424;
864.6000;0.4103;3.2476;
864.9000;0.4094;3.2556;
865.2000;0.4062;3.2371;
865.5000;0.4005;3.2186;
865.8000;0.4103;3.2476;
866.1000;0.4086;3.2450;
866.4000;0.4094;3.2450;
866.7000;0.4103;3.2450;
867.0000;0.4094;3.2476;
867.3000;0.4094;3.2397;
867.6000;0.4078;3.2345;
867.9000;0.4086;3.2424;
868.2000;0.4103;3.2450;
868.5000;0.4094;3.2424;
868.8000;0.4094;3.2371;
869.1000;0.4078;3.2186;
869.4000;0.4078;3.2186;
869.7000;0.4078;3.2265;
870.0000;0.4005;3.2028;
870.3000;0.4013;3.2160;
870.6000;0.4062;3.2239;
870.9000;0.4103;3.2239;
871.2000;0.4062;3.2160;
871.5000;0.4062;3.2133;
871.8000;0.4103;3.2213;
872.1000;0.4111;3.2133;
872.4000;0.4086;3.2002;
872.7000;0.4070;3.1870;
873.0000;0.4086;3.1949;
873.3000;0.4078;3.1870;
873.6000;0.4054;3.1870;
873.9000;0.4086;3.2081;
874.2000;0.4086;3.2081;
874.5000;0.4086;3.2054;
874.8000;0.4078;3.2028;
875.1000;0.4005;3.1817;
875.4000;0.4070;3.2081;
875.7000;0.4086;3.2107;
876.0000;0.4094;3.2160;
876.3000;0.4094;3.2133;
876.6000;0.4103;3.2186;
876.9000;0.4078;3.2186;
877.2000;0.4062;3.2213;
877.5000;0.4086;3.2450;
877.8000;0.4078;3.2450;
878.1000;0.4094;3.2556;
878.4000;0.4070;3.2529;
878.7000;0.4111;3.2661;
879.0000;0.4062;3.2529;
879.3000;0.4078;3.2608;
879.6000;0.4070;3.2635;
879.9000;0.4078;3.2635;
880.2000;0.4078;3.2661;
880.5000;0.4021;3.2582;
880.8000;0.4070;3.2767;
881.1000;0.4086;3.2767;
881.4000;0.4078;3.2793;
881.7000;0.4070;3.2740;
882.0000;0.4086;3.2767;
882.3000;0.4062;3.2529;
882.6000;0.4078;3.2556;
882.9000;0.4070;3.2503;
883.2000;0.4078;3.2503;
883.5000;0.4078;3.2529;
883.8000;0.4119;3.2635;
884.1000;0.4184;3.2740;
884.4000;0.4070;3.2503;
884.7000;0.4062;3.2397;
885.0000;0.4086;3.2450;
885.3000;0.4070;3.2371;
885.6000;0.4078;3.2345;
885.9000;0.4062;3.2292;
886.2000;0.4078;3.2318;
886.5000;0.4070;3.2318;
886.8000;0.4046;3.2213;
887.1000;0.4037;3.2292;
887.4000;0.4078;3.2397;
887.7000;0.4119;3.2476;
888.0000;0.4021;3.2186;
888.3000;0.4086;3.2318;
888.6000;0.4094;3.2371;
888.9000;0.4078;3.2450;
889.2000;0.4070;3.2397;
889.5000;0.4078;3.2265;
889.8000;0.4054;3.2160;
890.1000;0.4094;3.2160;
890.4000;0.4086;3.2160;
890.7000;0.4094;3.2160;
891.0000;0.4070;3.2081;
891.3000;0.4078;3.2133;
891.6000;0.4078;3.2054;
891.9000;0.4062;3.1975;
892.2000;0.4070;3.2002;
892.5000;0.4103;3.2081;
892.8000;0.4094;3.2054;
893.1000;0.4086;3.2002;
893.4000;0.4094;3.2054;
893.7000;0.4078;3.2081;
894.0000;0.4005;3.1896;
894.3000;0.4070;3.2028;
894.6000;0.4200;3.2450;
894.9000;0.4078;3.2213;
895.2000;0.4062;3.2186;
895.5000;0.4062;3.2239;
895.8000;0.4078;3.2345;
896.1000;0.4094;3.2397;
896.4000;0.4078;3.2345;
896.7000;0.4094;3.2345;
897.0000;0.4037;3.2186;
897.3000;0.4021;3.2133;
897.6000;0.4094;3.2397;
897.9000;0.4070;3.2397;
898.2000;0.4078;3.2424;
898.5000;0.4086;3.2476;
898.8000;0.4054;3.2476;
899.1000;0.4070;3.2556;
899.4000;0.4070;3.2582;
899.7000;0.4078;3.2608;
900.0000;0.4070;3.2608;
900.3000;0.4046;3.2635;
900.6000;0.4062;3.2714;
900.9000;0.4086;3.2793;
901.2000;0.4070;3.2740;
901.5000;0.4062;3.2714;
901.8000;0.4062;3.2714;
902.1000;0.4054;3.2529;
902.4000;0.4078;3.2608;
902.7000;0.4103;3.2635;
903.0000;0.4094;3.2582;
903.3000;0.4070;3.2476;
903.6000;0.4086;3.2503;
903.9000;0.4078;3.2503;
904.2000;0.4086;3.2397;
904.5000;0.4086;3.2318;
904.8000;0.4078;3.2345;
905.1000;0.4070;3.2186;
905.4000;0.4078;3.2107;
905.7000;0.4062;3.2160;
906.0000;0.4070;3.2239;
906.3000;0.4070;3.2265;
906.6000;0.4078;3.2292;
906.9000;0.4078;3.2239;
907.2000;0.4062;3.2081;
907.5000;0.4062;3.2028;
907.8000;0.4078;3.2054;
908.1000;0.4062;3.1975;
908.4000;0.4070;3.2160;
908.7000;0.4054;3.2213;
909.0000;0.4086;3.2186;
909.3000;0.4070;3.2107;
909.6000;0.4078;3.2028;
909.9000;0.4046;3.1896;
910.2000;0.4070;3.1896;
910.5000;0.4029;3.1685;
910.8000;0.4160;3.2133;
911.1000;0.4062;3.1922;
911.4000;0.4062;3.1922;
911.7000;0.4062;3.1896;
912.0000;0.4046;3.1817;
912.3000;0.4054;3.1896;
912.6000;0.4062;3.1896;
912.9000;0.4103;3.1975;
913.2000;0.4094;3.1949;
913.5000;0.4094;3.2002;
913.8000;0.4062;3.2081;
914.1000;0.4086;3.2133;
914.4000;0.4094;3.2133;
914.7000;0.4094;3.2213;
915.0000;0.4021;3.1975;
915.3000;0.4070;3.2239;
915.6000;0.4062;3.2318;
915.9000;0.3997;3.2107;
916.2000;0.4127;3.2529;
916.5000;0.4094;3.2371;
916.8000;0.4070;3.2345;
917.1000;0.3883;3.1896;
917.4000;0.4021;3.2292;
917.7000;0.4070;3.2397;
918.0000;0.4127;3.2556;
918.3000;0.4094;3.2476;
918.6000;0.4078;3.2529;
918.9000;0.4078;3.2529;
919.2000;0.4078;3.2608;
919.5000;0.4086;3.2635;
919.8000;0.4046;3.2661;
920.1000;0.4062;3.2608;
920.4000;0.4119;3.2793;
920.7000;0.4070;3.2661;
921.0000;0.4070;3.2582;
921.3000;0.4070;3.2529;
921.6000;0.4078;3.2503;
921.9000;0.4078;3.2450;
922.2000;0.4070;3.2424;
922.5000;0.4062;3.2424;
922.8000;0.4062;3.2397;
923.1000;0.4054;3.2397;
923.4000;0.4070;3.2450;
923.7000;0.4078;3.2503;
924.0000;0.4078;3.2503;
924.3000;0.4062;3.2397;
924.6000;0.4086;3.2397;
924.9000;0.4070;3.2424;
925.2000;0.4029;3.2371;
925.5000;0.4094;3.2476;
925.8000;0.4054;3.2397;
926.1000;0.4070;3.2397;
926.4000;0.4054;3.2265;
926.7000;0.3997;3.2081;
927.0000;0.4078;3.2213;
927.3000;0.4070;3.2107;
927.6000;0.4103;3.2133;
927.9000;0.4054;3.2081;
928.2000;0.4070;3.2054;
928.5000;0.4070;3.2028;
928.8000;0.4086;3.2107;
929.1000;0.4094;3.2133;
929.4000;0.4086;3.2107;
929.7000;0.4078;3.2081;
930.0000;0.4078;3.2133;
930.3000;0.4070;3.2160;
930.6000;0.4070;3.2239;
930.9000;0.4062;3.2160;
931.2000;0.4094;3.2186;
931.5000;0.4078;3.2107;
931.8000;0.4103;3.2081;
932.1000;0.4086;3.2054;
932.4000;0.4046;3.1949;
932.7000;0.4078;3.2160;
933.0000;0.4119;3.2265;
933.3000;0.4062;3.2081;
933.6000;0.4078;3.2133;
933.9000;0.4078;3.2107;
934.2000;0.4086;3.2133;
934.5000;0.4070;3.2213;
934.8000;0.3989;3.1870;
935.1000;0.4037;3.2107;
935.4000;0.4054;3.2133;
935.7000;0.4078;3.2292;
936.0000;0.4054;3.2213;
936.3000;0.4070;3.2213;
936.6000;0.4046;3.2239;
936.9000;0.4054;3.2318;
937.2000;0.4086;3.2397;
937.5000;0.4070;3.2371;
937.8000;0.4062;3.2318;
938.1000;0.4062;3.2239;
938.4000;0.4086;3.2265;
938.7000;0.4070;3.2345;
939.0000;0.4046;3.2292;
939.3000;0.4078;3.2345;
939.6000;0.4086;3.2397;
939.9000;0.4078;3.2529;
940.2000;0.4062;3.2529;
940.5000;0.4046;3.2371;
940.8000;0.4054;3.2476;
941.1000;0.4184;3.2846;
941.4000;0.4086;3.2529;
941.7000;0.4062;3.2397;
942.0000;0.4062;3.2529;
942.3000;0.4078;3.2529;
942.6000;0.4062;3.2424;
942.9000;0.4054;3.2397;
943.2000;0.4021;3.2292;
943.5000;0.4054;3.2397;
943.8000;0.4054;3.2371;
944.1000;0.4046;3.2371;
944.4000;0.4094;3.2635;
944.7000;0.4086;3.2476;
945.0000;0.4086;3.2450;
945.3000;0.4103;3.2371;
945.6000;0.4078;3.2292;
945.9000;0.4070;3.2239;
946.2000;0.4054;3.2160;
946.5000;0.4135;3.2371;
946.8000;0.4054;3.2054;
947.1000;0.4054;3.2028;
947.4000;0.4086;3.2160;
947.7000;0.4062;3.2213;
948.0000;0.4086;3.2186;
948.3000;0.4103;3.2345;
948.6000;0.4086;3.2186;
948.9000;0.4070;3.2133;
949.2000;0.4005;3.1975;
949.5000;0.4070;3.2160;
949.8000;0.4094;3.2213;
950.1000;0.4070;3.2160;
950.4000;0.4070;3.2239;
950.7000;0.4119;3.2397;
951.0000;0.4094;3.2160;
951.3000;0.4086;3.2054;
951.6000;0.4070;3.2054;
951.9000;0.4103;3.2160;
952.2000;0.4078;3.2028;
952.5000;0.4103;3.2239;
952.8000;0.4103;3.2265;
953.1000;0.4094;3.2239;
953.4000;0.4037;3.2160;
953.7000;0.4062;3.2292;
954.0000;0.4111;3.2424;
954.3000;0.4070;3.2345;
954.6000;0.4062;3.2292;
954.9000;0.4094;3.2450;
955.2000;0.4078;3.2371;
955.5000;0.4062;3.2265;
955.8000;0.4103;3.2476;
956.1000;0.4078;3.2450;
956.4000;0.4078;3.2476;
956.7000;0.4070;3.2503;
957.0000;0.4046;3.2503;
957.3000;0.4070;3.2450;
957.6000;0.4054;3.2371;
957.9000;0.4029;3.2318;
958.2000;0.3989;3.2318;
958.5000;0.4078;3.2661;
958.8000;0.4062;3.2635;
959.1000;0.4119;3.2767;
959.4000;0.4070;3.2608;
959.7000;0.4070;3.2661;
960.0000;0.4046;3.2661;
960.3000;0.4054;3.2661;
960.6000;0.4070;3.2661;
960.9000;0.4070;3.2635;
961.2000;0.3964;3.2318;
961.5000;0.4054;3.2582;
961.8000;0.4054;3.2582;
962.1000;0.4054;3.2529;
962.4000;0.4070;3.2582;
962.7000;0.4062;3.2661;
963.0000;0.4062;3.2556;
963.3000;0.4062;3.2608;
963.6000;0.4054;3.2556;
963.9000;0.4086;3.2582;
964.2000;0.4103;3.2688;
964.5000;0.4037;3.2529;
964.8000;0.4070;3.2529;
965.1000;0.4054;3.2450;
965.4000;0.4070;3.2292;
965.7000;0.4054;3.2265;
966.0000;0.4054;3.2160;
966.3000;0.4070;3.2213;
966.6000;0.4078;3.2292;
966.9000;0.4078;3.2265;
967.2000;0.4070;3.2265;
967.5000;0.4168;3.2582;
967.8000;0.4078;3.2292;
968.1000;0.4070;3.2345;
968.4000;0.4078;3.2318;
968.7000;0.4046;3.2292;
969.0000;0.4086;3.2318;
969.3000;0.4070;3.2292;
969.6000;0.4054;3.2160;
969.9000;0.4070;3.2213;
970.2000;0.4062;3.2239;
970.5000;0.4070;3.2133;
970.8000;0.4070;3.2107;
971.1000;0.4070;3.2002;
971.4000;0.4070;3.2107;
971.7000;0.4062;3.2133;
972.0000;0.4070;3.2133;
972.3000;0.4119;3.2397;
972.6000;0.4062;3.2186;
972.9000;0.4078;3.2213;
973.2000;0.4062;3.2133;
973.5000;0.4070;3.2107;
973.8000;0.4070;3.2133;
974.1000;0.4078;3.2160;
974.4000;0.4078;3.2160;
974.7000;0.4094;3.2186;
975.0000;0.4070;3.2265;
975.3000;0.4086;3.2318;
975.6000;0.4086;3.2292;
975.9000;0.4070;3.2318;
976.2000;0.4070;3.2292;
976.5000;0.4054;3.2265;
976.8000;0.4062;3.2318;
977.1000;0.4094;3.2529;
977.4000;0.4054;3.2556;
977.7000;0.4054;3.2608;
978.0000;0.4070;3.2556;
978.3000;0.4054;3.2529;
978.6000;0.4046;3.2582;
978.9000;0.4046;3.2608;
979.2000;0.4062;3.2635;
979.5000;0.4103;3.2661;
979.8000;0.4037;3.2503;
980.1000;0.4054;3.2529;
980.4000;0.4086;3.2661;
980.7000;0.4135;3.2793;
981.0000;0.4021;3.2476;
981.3000;0.4062;3.2608;
981.6000;0.4062;3.2608;
981.9000;0.4062;3.2661;
982.2000;0.4062;3.2556;
982.5000;0.4062;3.2503;
982.8000;0.4070;3.2556;
983.1000;0.4062;3.2635;
983.4000;0.4070;3.2529;
983.7000;0.4054;3.2503;
984.0000;0.4046;3.2424;
984.3000;0.4078;3.2503;
984.6000;0.4127;3.2661;
984.9000;0.4103;3.2556;
985.2000;0.4086;3.2635;
985.5000;0.4070;3.2476;
985.8000;0.4062;3.2450;
986.1000;0.4078;3.2371;
986.4000;0.4070;3.2292;
986.7000;0.4062;3.2081;
987.0000;0.4054;3.2002;
987.3000;0.4078;3.2054;
987.6000;0.4054;3.2002;
987.9000;0.3980;3.1949;
988.2000;0.4103;3.2345;
988.5000;0.4070;3.2292;
988.8000;0.4062;3.2239;
989.1000;0.4062;3.2213;
989.4000;0.4086;3.2265;
989.7000;0.4070;3.2239;
990.0000;0.4046;3.2107;
990.3000;0.4054;3.2186;
990.6000;0.4094;3.2318;
990.9000;0.3964;3.1975;
991.2000;0.4054;3.2160;
991.5000;0.4094;3.2160;
991.8000;0.4070;3.2028;
992.1000;0.4078;3.2028;
992.4000;0.4062;3.2002;
992.7000;0.4037;3.1949;
993.0000;0.4054;3.2002;
993.3000;0.4070;3.2081;
993.6000;0.4046;3.2028;
993.9000;0.4037;3.2081;
994.2000;0.4103;3.2292;
994.5000;0.4062;3.2107;
994.8000;0.4086;3.2186;
995.1000;0.4078;3.2160;
995.4000;0.4062;3.2081;
995.7000;0.4062;3.2186;
996.0000;0.4078;3.2292;
996.3000;0.4094;3.2371;
996.6000;0.4062;3.2371;
996.9000;0.4046;3.2318;
997.2000;0.4070;3.2371;
997.5000;0.4054;3.2265;
997.8000;0.4054;3.2318;
998.1000;0.4046;3.2345;
998.4000;0.4062;3.2345;
998.7000;0.4046;3.2397;
999.0000;0.4037;3.2371;
999.3000;0.4046;3.2371;
999.6000;0.4046;3.2503;
999.9000;0.4054;3.2529;
1000.2000;0.4070;3.2529;
1000.5000;0.4046;3.2424;
1000.8000;0.4054;3.2424;
1001.1000;0.4062;3.2450;
1001.4000;0.4054;3.2424;
1001.7000;0.4078;3.2476;
1002.0000;0.4054;3.2371;
1002.3000;0.4070;3.2397;
1002.6000;0.4070;3.2318;
1002.9000;0.4054;3.2186;
1003.2000;0.4070;3.2318;
1003.5000;0.4070;3.2345;
1003.8000;0.4046;3.2239;
1004.1000;0.4013;3.2160;
1004.4000;0.4086;3.2371;
1004.7000;0.4054;3.2371;
1005.0000;0.4062;3.2318;
1005.3000;0.4078;3.2424;
1005.6000;0.4037;3.2265;
1005.9000;0.4086;3.2397;
1006.2000;0.4094;3.2450;
1006.5000;0.4046;3.2371;
1006.8000;0.4151;3.2635;
1007.1000;0.4062;3.2397;
1007.4000;0.3964;3.2186;
1007.7000;0.4119;3.2635;
1008.0000;0.4062;3.2529;
1008.3000;0.4070;3.2450;
1008.6000;0.4086;3.2476;
1008.9000;0.4086;3.2397;
1009.2000;0.4046;3.2239;
1009.5000;0.4005;3.2107;
1009.8000;0.4086;3.2318;
1010.1000;0.4029;3.2186;
1010.4000;0.4086;3.2371;
1010.7000;0.4078;3.2318;
1011.0000;0.4070;3.2318;
1011.3000;0.4094;3.2318;
1011.6000;0.4070;3.2239;
1011.9000;0.4070;3.2133;
1012.2000;0.4062;3.2107;
1012.5000;0.4062;3.2107;
1012.8000;0.4054;3.2133;
1013.1000;0.4070;3.1975;
1013.4000;0.4086;3.1975;
1013.7000;0.4070;3.2107;
1014.0000;0.4062;3.2107;
1014.3000;0.4037;3.2133;
1014.6000;0.4070;3.2239;
1014.9000;0.3997;3.2028;
1015.2000;0.4046;3.2160;
1015.5000;0.4062;3.2239;
1015.8000;0.4078;3.2186;
1016.1000;0.4070;3.2239;
1016.4000;0.4070;3.2292;
1016.7000;0.4046;3.2265;
1017.0000;0.4070;3.2345;
1017.3000;0.4021;3.2239;
1017.6000;0.4062;3.2371;
1017.9000;0.4135;3.2582;
1018.2000;0.4111;3.2608;
1018.5000;0.4062;3.2424;
1018.8000;0.4062;3.2529;
1019.1000;0.4029;3.2424;
1019.4000;0.4021;3.2371;
1019.7000;0.4078;3.2503;
1020.0000;0.4062;3.2503;
1020.3000;0.4070;3.2529;
1020.6000;0.4054;3.2529;
1020.9000;0.4054;3.2529;
1021.2000;0.4070;3.2529;
1021.5000;0.4062;3.2529;
1021.8000;0.4119;3.2688;
1022.1000;0.4070;3.2476;
1022.4000;0.4054;3.2450;
1022.7000;0.4111;3.2608;
1023.0000;0.4070;3.2503;
1023.3000;0.4046;3.2345;
1023.6000;0.4086;3.2529;
1023.9000;0.4037;3.2345;
1024.2000;0.4062;3.2450;
1024.5000;0.4046;3.2424;
1024.8000;0.4119;3.2503;
1025.1000;0.4070;3.2292;
1025.4000;0.4054;3.2186;
1025.7000;0.4070;3.2213;
1026.0000;0.4037;3.2213;
1026.3000;0.4070;3.2292;
1026.6000;0.4046;3.2133;
1026.9000;0.4094;3.2133;
1027.2000;0.4054;3.2081;
1027.5000;0.4054;3.2081;
1027.8000;0.4070;3.2133;
1028.1000;0.4070;3.2107;
1028.4000;0.4054;3.2054;
1028.7000;0.4078;3.2186;
1029.0000;0.4119;3.2345;
1029.3000;0.4062;3.2160;
1029.6000;0.4111;3.2318;
1029.9000;0.4054;3.2239;
1030.2000;0.4070;3.2318;
1030.5000;0.4086;3.2371;
1030.8000;0.4037;3.2265;
1031.1000;0.4086;3.2318;
1031.4000;0.4062;3.2239;
1031.7000;0.4078;3.2292;
1032.0000;0.4086;3.2345;
1032.3000;0.4151;3.2476;
1032.6000;0.4094;3.2371;
1032.9000;0.4119;3.2424;
1033.2000;0.4086;3.2318;
1033.5000;0.4013;3.2133;
1033.8000;0.4021;3.2186;
1034.1000;0.3989;3.2133;
1034.4000;0.4070;3.2371;
1034.7000;0.4062;3.2424;
1035.0000;0.4062;3.2424;
1035.3000;0.4054;3.2345;
1035.6000;0.4070;3.2424;
1035.9000;0.4037;3.2318;
1036.2000;0.4062;3.2371;
1036.5000;0.4054;3.2397;
1036.8000;0.4078;3.2503;
1037.1000;0.4070;3.2529;
1037.4000;0.4054;3.2503;
1037.7000;0.4037;3.2476;
1038.0000;0.4037;3.2582;
1038.3000;0.4046;3.2582;
1038.6000;0.4062;3.2635;
1038.9000;0.4054;3.2529;
1039.2000;0.4046;3.2582;
1039.5000;0.4054;3.2608;
1039.8000;0.4046;3.2582;
1040.1000;0.4054;3.2635;
1040.4000;0.4046;3.2661;
1040.7000;0.4046;3.2661;
1041.0000;0.4054;3.2635;
1041.3000;0.4054;3.2635;
1041.6000;0.4037;3.2582;
1041.9000;0.4062;3.2556;
1042.2000;0.4062;3.2582;
1042.5000;0.4062;3.2529;
1042.8000;0.4070;3.2556;
1043.1000;0.4062;3.2450;
1043.4000;0.4062;3.2424;
1043.7000;0.3932;3.2054;
1044.0000;0.4046;3.2424;
1044.3000;0.4062;3.2424;
1044.6000;0.4062;3.2345;
1044.9000;0.4135;3.2529;
1045.2000;0.4062;3.2265;
1045.5000;0.4054;3.2213;
1045.8000;0.4054;3.2239;
1046.1000;0.4054;3.2213;
1046.4000;0.4070;3.2239;
1046.7000;0.4086;3.2292;
1047.0000;0.4062;3.2292;
1047.3000;0.4078;3.2318;
1047.6000;0.4021;3.2186;
1047.9000;0.4005;3.2213;
1048.2000;0.4062;3.2292;
1048.5000;0.4062;3.2213;
1048.8000;0.4103;3.2371;
1049.1000;0.4037;3.2133;
1049.4000;0.4062;3.2239;
1049.7000;0.4046;3.2213;
1050.0000;0.4054;3.2160;
1050.3000;0.4054;3.2107;
1050.6000;0.4046;3.2107;
1050.9000;0.4070;3.2186;
1051.2000;0.4054;3.2107;
1051.5000;0.4046;3.2107;
1051.8000;0.4054;3.2160;
1052.1000;0.4062;3.2239;
1052.4000;0.4070;3.2318;
1052.7000;0.4070;3.2265;
1053.0000;0.4054;3.2213;
1053.3000;0.4046;3.2107;
1053.6000;0.4046;3.2028;
1053.9000;0.4046;3.2028;
1054.2000;0.4046;3.2213;
1054.5000;0.4062;3.2239;
1054.8000;0.4054;3.2239;
1055.1000;0.4062;3.2345;
1055.4000;0.4046;3.2186;
1055.7000;0.4046;3.2186;
1056.0000;0.4062;3.2133;
1056.3000;0.4070;3.2239;
1056.6000;0.4070;3.2133;
1056.9000;0.4037;3.2081;
1057.2000;0.4070;3.2213;
1057.5000;0.4046;3.2265;
1057.8000;0.4111;3.2424;
1058.1000;0.4054;3.2186;
1058.4000;0.4070;3.2292;
1058.7000;0.4062;3.2265;
1059.0000;0.4062;3.2292;
1059.3000;0.4054;3.2292;
1059.6000;0.4070;3.2397;
1059.9000;0.4054;3.2371;
1060.2000;0.4062;3.2397;
1060.5000;0.4103;3.2424;
1060.8000;0.4062;3.2476;
1061.1000;0.4054;3.2450;
1061.4000;0.4062;3.2503;
1061.7000;0.4054;3.2476;
1062.0000;0.4062;3.2529;
1062.3000;0.4021;3.2397;
1062.6000;0.4070;3.2503;
1062.9000;0.4037;3.2476;
1063.2000;0.4168;3.2819;
1063.5000;0.4062;3.2371;
1063.8000;0.4037;3.2239;
1064.1000;0.4054;3.2292;
1064.4000;0.4013;3.2081;
1064.7000;0.4046;3.2160;
1065.0000;0.4086;3.2318;
1065.3000;0.4111;3.2450;
1065.6000;0.4046;3.2265;
1065.9000;0.4037;3.2292;
1066.2000;0.4054;3.2239;
1066.5000;0.4054;3.2213;
1066.8000;0.4021;3.2133;
1067.1000;0.4062;3.2265;
1067.4000;0.4062;3.2318;
1067.7000;0.4070;3.2345;
1068.0000;0.4037;3.2345;
1068.3000;0.4054;3.2371;
1068.6000;0.4062;3.2265;
1068.9000;0.4086;3.2239;
1069.2000;0.4062;3.2213;
1069.5000;0.4054;3.2186;
1069.8000;0.4070;3.2239;
1070.1000;0.4062;3.2239;
1070.4000;0.4070;3.2160;
1070.7000;0.4062;3.2160;
1071.0000;0.4062;3.2186;
1071.3000;0.4054;3.2160;
1071.6000;0.4054;3.2133;
1071.9000;0.4078;3.2160;
1072.2000;0.4046;3.2107;
1072.5000;0.4070;3.2239;
1072.8000;0.4070;3.2186;
1073.1000;0.4111;3.2292;
1073.4000;0.4070;3.2133;
1073.7000;0.4062;3.2107;
1074.0000;0.4094;3.2265;
1074.3000;0.4070;3.2160;
1074.6000;0.4046;3.2239;
1074.9000;0.4094;3.2371;
1075.2000;0.4062;3.2345;
1075.5000;0.4054;3.2450;
1075.8000;0.4029;3.2371;
1076.1000;0.4054;3.2424;
1076.4000;0.4062;3.2450;
1076.7000;0.4070;3.2476;
1077.0000;0.4046;3.2476;
1077.3000;0.4062;3.2529;
1077.6000;0.4078;3.2529;
1077.9000;0.4054;3.2424;
1078.2000;0.4054;3.2371;
1078.5000;0.4054;3.2397;
1078.8000;0.4070;3.2529;
1079.1000;0.3980;3.2239;
1079.4000;0.4046;3.2476;
1079.7000;0.4054;3.2556;
1080.0000;0.4054;3.2688;
1080.3000;0.4078;3.2819;
1080.6000;0.4119;3.2925;
1080.9000;0.4070;3.2793;
1081.2000;0.4037;3.2740;
1081.5000;0.4070;3.2740;
1081.8000;0.4054;3.2740;
1082.1000;0.4029;3.2556;
1082.4000;0.4070;3.2556;
1082.7000;0.4021;3.2476;
1083.0000;0.4127;3.2688;
1083.3000;0.4094;3.2582;
1083.6000;0.4119;3.2556;
1083.9000;0.4070;3.2503;
1084.2000;0.4078;3.2503;
1084.5000;0.4054;3.2450;
1084.8000;0.4021;3.2371;
1085.1000;0.4062;3.2371;
1085.4000;0.4062;3.2213;
1085.7000;0.3980;3.1975;
1086.0000;0.4062;3.2239;
1086.3000;0.4070;3.2292;
1086.6000;0.4078;3.2265;
1086.9000;0.4070;3.2292;
1087.2000;0.4070;3.2318;
1087.5000;0.4054;3.2265;
1087.8000;0.4070;3.2345;
1088.1000;0.4070;3.2265;
1088.4000;0.4103;3.2371;
1088.7000;0.4086;3.2292;
1089.0000;0.4070;3.2239;
1089.3000;0.4046;3.2133;
1089.6000;0.4111;3.2292;
1089.9000;0.4062;3.2133;
1090.2000;0.4062;3.2160;
1090.5000;0.4070;3.2213;
1090.8000;0.4070;3.2160;
1091.1000;0.4062;3.2133;
1091.4000;0.4062;3.2186;
1091.7000;0.4062;3.2186;
1092.0000;0.4062;3.2213;
1092.3000;0.4062;3.2133;
1092.6000;0.4062;3.2186;
1092.9000;0.4086;3.2292;
1093.2000;0.4094;3.2397;
1093.5000;0.4086;3.2292;
1093.8000;0.4070;3.2292;
1094.1000;0.4062;3.2239;
1094.4000;0.4054;3.2292;
1094.7000;0.4070;3.2292;
1095.0000;0.3980;3.2002;
1095.3000;0.4054;3.2213;
1095.6000;0.4054;3.2239;
1095.9000;0.4062;3.2318;
1096.2000;0.4111;3.2450;
1096.5000;0.4013;3.2186;
1096.8000;0.4054;3.2424;
1097.1000;0.4046;3.2450;
1097.4000;0.4054;3.2424;
1097.7000;0.4054;3.2424;
1098.0000;0.4054;3.2424;
1098.3000;0.4046;3.2345;
1098.6000;0.4054;3.2397;
1098.9000;0.4094;3.2503;
1099.2000;0.4029;3.2424;
1099.5000;0.4086;3.2608;
1099.8000;0.4046;3.2635;
1100.1000;0.4054;3.2661;
1100.4000;0.4054;3.2767;
1100.7000;0.4062;3.2767;
1101.0000;0.4054;3.2767;
1101.3000;0.4029;3.2714;
1101.6000;0.4054;3.2661;
1101.9000;0.4054;3.2714;
1102.2000;0.4021;3.2635;
1102.5000;0.4037;3.2635;
1102.8000;0.4062;3.2635;
1103.1000;0.4062;3.2635;
1103.4000;0.4062;3.2582;
1103.7000;0.4021;3.2503;
1104.0000;0.4037;3.2529;
1104.3000;0.4062;3.2476;
1104.6000;0.4086;3.2424;
1104.9000;0.3972;3.2054;
1105.2000;0.4054;3.2371;
1105.5000;0.4111;3.2476;
1105.8000;0.4062;3.2397;
1106.1000;0.4184;3.2635;
1106.4000;0.4070;3.2424;
1106.7000;0.4062;3.2371;
1107.0000;0.4037;3.2133;
1107.3000;0.4062;3.2160;
1107.6000;0.4046;3.2081;
1107.9000;0.4021;3.2028;
1108.2000;0.4037;3.2054;
1108.5000;0.4046;3.2186;
1108.8000;0.4127;3.2397;
1109.1000;0.4070;3.2318;
1109.4000;0.4062;3.2371;
1109.7000;0.4103;3.2450;
1110.0000;0.4111;3.2450;
1110.3000;0.4054;3.2265;
1110.6000;0.4054;3.2265;
1110.9000;0.4062;3.2186;
1111.2000;0.4062;3.2239;
1111.5000;0.4062;3.2213;
1111.8000;0.4062;3.2239;
1112.1000;0.4046;3.2318;
1112.4000;0.4078;3.2397;
1112.7000;0.4037;3.2292;
1113.0000;0.4062;3.2292;
1113.3000;0.4054;3.2239;
1113.6000;0.4078;3.2239;
1113.9000;0.4111;3.2265;
1114.2000;0.4062;3.2160;
1114.5000;0.4070;3.2213;
1114.8000;0.4062;3.2239;
1115.1000;0.4062;3.2239;
1115.4000;0.4054;3.2186;
1115.7000;0.4021;3.2107;
1116.0000;0.4062;3.2186;
1116.3000;0.4078;3.2107;
1116.6000;0.4046;3.2002;
1116.9000;0.4054;3.2133;
1117.2000;0.4046;3.2213;
1117.5000;0.4070;3.2292;
1117.8000;0.4054;3.2239;
1118.1000;0.4046;3.2292;
1118.4000;0.4054;3.2318;
1118.7000;0.4046;3.2397;
1119.0000;0.4062;3.2371;
1119.3000;0.4046;3.2397;
1119.6000;0.4029;3.2318;
1119.9000;0.4005;3.2318;
1120.2000;0.4046;3.2371;
1120.5000;0.4054;3.2397;
1120.8000;0.4054;3.2503;
1121.1000;0.4054;3.2556;
1121.4000;0.4037;3.2476;
1121.7000;0.4054;3.2529;
1122.0000;0.4029;3.2503;
1122.3000;0.4046;3.2503;
1122.6000;0.4046;3.2371;
1122.9000;0.4086;3.2503;
1123.2000;0.4070;3.2424;
1123.5000;0.4054;3.2371;
1123.8000;0.4054;3.2265;
1124.1000;0.4054;3.2213;
1124.4000;0.4054;3.2186;
1124.7000;0.4062;3.2186;
1125.0000;0.4062;3.2133;
1125.3000;0.4062;3.2213;
1125.6000;0.4046;3.2133;
1125.9000;0.4062;3.2133;
1126.2000;0.3997;3.1896;
1126.5000;0.4070;3.2133;
1126.8000;0.4062;3.2002;
1127.1000;0.4046;3.1896;
1127.4000;0.4037;3.1975;
1127.7000;0.4062;3.2028;
1128.0000;0.4046;3.2054;
1128.3000;0.4029;3.1975;
1128.6000;0.4029;3.2002;
1128.9000;0.4054;3.2081;
1129.2000;0.4070;3.2054;
1129.5000;0.4062;3.2054;
1129.8000;0.4086;3.2186;
1130.1000;0.4127;3.2476;
1130.4000;0.4062;3.2318;
1130.7000;0.4070;3.2292;
1131.0000;0.4078;3.2213;
1131.3000;0.4062;3.2160;
1131.6000;0.4217;3.2635;
1131.9000;0.4062;3.2160;
1132.2000;0.4062;3.2186;
1132.5000;0.3923;3.1843;
1132.8000;0.4078;3.2133;
1133.1000;0.4054;3.2028;
1133.4000;0.4078;3.2213;
1133.7000;0.4046;3.2133;
1134.0000;0.4046;3.2186;
1134.3000;0.4062;3.2107;
1134.6000;0.4046;3.2081;
1134.9000;0.4062;3.2186;
1135.2000;0.4046;3.2133;
1135.5000;0.4037;3.2107;
1135.8000;0.4046;3.2160;
1136.1000;0.4054;3.2239;
1136.4000;0.4054;3.2186;
1136.7000;0.4054;3.2133;
1137.0000;0.4070;3.2265;
1137.3000;0.4046;3.2213;
1137.6000;0.4070;3.2345;
1137.9000;0.4054;3.2265;
1138.2000;0.4029;3.2265;
1138.5000;0.4029;3.2265;
1138.8000;0.4037;3.2397;
1139.1000;0.4046;3.2450;
1139.4000;0.4046;3.2503;
1139.7000;0.4094;3.2714;
1140.0000;0.4037;3.2661;
1140.3000;0.4054;3.2714;
1140.6000;0.4046;3.2714;
1140.9000;0.4021;3.2714;
1141.2000;0.4054;3.2767;
1141.5000;0.3972;3.2476;
1141.8000;0.4046;3.2608;
1142.1000;0.4037;3.2608;
1142.4000;0.4054;3.2608;
1142.7000;0.4054;3.2582;
1143.0000;0.4070;3.2635;
1143.3000;0.4070;3.2582;
1143.6000;0.4013;3.2476;
1143.9000;0.4046;3.2529;
1144.2000;0.4062;3.2503;
1144.5000;0.4078;3.2582;
1144.8000;0.4062;3.2476;
1145.1000;0.4054;3.2476;
1145.4000;0.4062;3.2450;
1145.7000;0.4062;3.2529;
1146.0000;0.4029;3.2424;
1146.3000;0.4046;3.2529;
1146.6000;0.4054;3.2529;
1146.9000;0.4054;3.2424;
1147.2000;0.4062;3.2397;
1147.5000;0.4070;3.2345;
1147.8000;0.4046;3.2318;
1148.1000;0.4062;3.2265;
1148.4000;0.4054;3.2160;
1148.7000;0.4062;3.2160;
1149.0000;0.4062;3.2133;
1149.3000;0.4086;3.2265;
1149.6000;0.4054;3.2186;
1149.9000;0.4046;3.2107;
1150.2000;0.4054;3.2107;
1150.5000;0.4037;3.2081;
1150.8000;0.4078;3.2213;
1151.1000;0.4070;3.2160;
1151.4000;0.4046;3.2107;
1151.7000;0.4062;3.2107;
1152.0000;0.4094;3.2107;
1152.3000;0.4054;3.1949;
1152.6000;0.4037;3.1975;
1152.9000;0.4062;3.2081;
1153.2000;0.4046;3.2054;
1153.5000;0.4070;3.2133;
1153.8000;0.4046;3.2133;
1154.1000;0.4070;3.2265;
1154.4000;0.4070;3.2292;
1154.7000;0.4070;3.2318;
1155.0000;0.4062;3.2265;
1155.3000;0.4013;3.2133;
1155.6000;0.4070;3.2345;
1155.9000;0.4078;3.2450;
1156.2000;0.4070;3.2476;
1156.5000;0.4046;3.2371;
1156.8000;0.4054;3.2397;
1157.1000;0.4054;3.2556;
1157.4000;0.4013;3.2450;
1157.7000;0.3923;3.2081;
1158.0000;0.4029;3.2450;
1158.3000;0.4062;3.2476;
1158.6000;0.4029;3.2397;
1158.9000;0.4054;3.2556;
1159.2000;0.4005;3.2503;
1159.5000;0.4046;3.2608;
1159.8000;0.4021;3.2503;
1160.1000;0.4046;3.2476;
1160.4000;0.4046;3.2476;
1160.7000;0.4054;3.2608;
1161.0000;0.4054;3.2556;
1161.3000;0.4054;3.2582;
1161.6000;0.4054;3.2635;
1161.9000;0.4054;3.2582;
1162.2000;0.4046;3.2503;
1162.5000;0.4062;3.2529;
1162.8000;0.4046;3.2424;
1163.1000;0.4046;3.2318;
1163.4000;0.4037;3.2345;
1163.7000;0.4070;3.2476;
1164.0000;0.4037;3.2397;
1164.3000;0.4054;3.2424;
1164.6000;0.4070;3.2318;
1164.9000;0.4029;3.2265;
1165.2000;0.4070;3.2397;
1165.5000;0.4111;3.2476;
1165.8000;0.4062;3.2371;
1166.1000;0.4111;3.2476;
1166.4000;0.4013;3.2213;
1166.7000;0.4054;3.2239;
1167.0000;0.4070;3.2213;
1167.3000;0.4054;3.2186;
1167.6000;0.4054;3.2054;
1167.9000;0.4054;3.2002;
1168.2000;0.3997;3.1870;
1168.5000;0.4021;3.1949;
1168.8000;0.4046;3.2054;
1169.1000;0.4062;3.2107;
1169.4000;0.4062;3.2081;
1169.7000;0.4054;3.2133;
1170.0000;0.4054;3.2160;
1170.3000;0.4054;3.2292;
1170.6000;0.4062;3.2345;
1170.9000;0.4054;3.2292;
1171.2000;0.4054;3.2265;
1171.5000;0.4054;3.2160;
1171.8000;0.4046;3.2133;
1172.1000;0.4070;3.2239;
1172.4000;0.4070;3.2081;
1172.7000;0.4046;3.2002;
1173.0000;0.4054;3.2028;
1173.3000;0.3997;3.1764;
1173.6000;0.4054;3.2028;
1173.9000;0.4062;3.2107;
1174.2000;0.4062;3.2107;
1174.5000;0.4046;3.2002;
1174.8000;0.4037;3.1949;
1175.1000;0.4037;3.1896;
1175.4000;0.4054;3.2081;
1175.7000;0.4054;3.2054;
1176.0000;0.4054;3.2054;
1176.3000;0.4046;3.2133;
1176.6000;0.4054;3.2213;
1176.9000;0.4046;3.2265;
1177.2000;0.4070;3.2397;
1177.5000;0.4062;3.2476;
1177.8000;0.4070;3.2503;
1178.1000;0.4054;3.2529;
1178.4000;0.4054;3.2529;
1178.7000;0.4135;3.2688;
1179.0000;0.4070;3.2608;
1179.3000;0.4029;3.2608;
1179.6000;0.4046;3.2608;
1179.9000;0.4054;3.2688;
1180.2000;0.4062;3.2740;
1180.5000;0.4078;3.2740;
1180.8000;0.4111;3.2846;
1181.1000;0.4070;3.2688;
1181.4000;0.4135;3.2872;
1181.7000;0.3997;3.2529;
1182.0000;0.4046;3.2635;
1182.3000;0.4094;3.2635;
1182.6000;0.4046;3.2503;
1182.9000;0.4054;3.2529;
1183.2000;0.4021;3.2397;
1183.5000;0.4062;3.2529;
1183.8000;0.4062;3.2503;
1184.1000;0.4054;3.2397;
1184.4000;0.4037;3.2318;
1184.7000;0.4046;3.2318;
1185.0000;0.4037;3.2265;
1185.3000;0.4070;3.2213;
1185.6000;0.4070;3.2133;
1185.9000;0.4062;3.2186;
1186.2000;0.4054;3.2186;
1186.5000;0.4070;3.2292;
1186.8000;0.4029;3.2160;
1187.1000;0.4078;3.2371;
1187.4000;0.4135;3.2556;
1187.7000;0.4070;3.2292;
1188.0000;0.4086;3.2345;
1188.3000;0.4062;3.2239;
1188.6000;0.3989;3.2107;
1188.9000;0.4086;3.2318;
1189.2000;0.4062;3.2265;
1189.5000;0.4046;3.2239;
1189.8000;0.4054;3.2239;
1190.1000;0.4062;3.2213;
1190.4000;0.4078;3.2186;
1190.7000;0.4070;3.2239;
1191.0000;0.4046;3.2239;
1191.3000;0.4078;3.2318;
1191.6000;0.4037;3.2133;
1191.9000;0.4070;3.2160;
1192.2000;0.4062;3.2213;
1192.5000;0.4062;3.2265;
1192.8000;0.4054;3.2265;
1193.1000;0.4062;3.2213;
1193.4000;0.4054;3.2133;
1193.7000;0.4054;3.2160;
1194.0000;0.4062;3.2213;
1194.3000;0.4070;3.2213;
1194.6000;0.4070;3.2318;
1194.9000;0.4046;3.2292;
1195.2000;0.4054;3.2318;
1195.5000;0.4078;3.2476;
1195.8000;0.4062;3.2424;
1196.1000;0.4046;3.2450;
1196.4000;0.4054;3.2556;
1196.7000;0.4062;3.2661;
1197.0000;0.4046;3.2476;
1197.3000;0.4046;3.2503;
1197.6000;0.4070;3.2582;
1197.9000;0.4070;3.2661;
1198.2000;0.4054;3.2503;
1198.5000;0.4046;3.2556;
1198.8000;0.4062;3.2556;
1199.1000;0.4029;3.2608;
1199.4000;0.4046;3.2582;
1199.7000;0.4037;3.2608;
1200.0000;0.4054;3.2635;
1200.3000;0.4037;3.2635;
1200.6000;0.4037;3.2608;
1200.9000;0.4054;3.2635;
1201.2000;0.4037;3.2556;
1201.5000;0.4070;3.2503;
1201.8000;0.4103;3.2556;
1202.1000;0.4021;3.2345;
1202.4000;0.4078;3.2503;
1202.7000;0.4029;3.2450;
1203.0000;0.4070;3.2529;
1203.3000;0.4200;3.2846;
1203.6000;0.3972;3.2265;
1203.9000;0.4037;3.2503;
1204.2000;0.4046;3.2529;
1204.5000;0.4078;3.2635;
1204.8000;0.4037;3.2476;
1205.1000;0.4062;3.2582;
1205.4000;0.4046;3.2582;
1205.7000;0.4046;3.2503;
1206.0000;0.4054;3.2476;
1206.3000;0.4054;3.2345;
1206.6000;0.4070;3.2345;
1206.9000;0.4029;3.2186;
1207.2000;0.4127;3.2503;
1207.5000;0.4013;3.2239;
1207.8000;0.4062;3.2186;
1208.1000;0.4062;3.2292;
1208.4000;0.3980;3.2081;
1208.7000;0.4062;3.2292;
1209.0000;0.4062;3.2318;
1209.3000;0.4054;3.2397;
1209.6000;0.4070;3.2450;
1209.9000;0.4054;3.2318;
1210.2000;0.4062;3.2371;
1210.5000;0.3980;3.2160;
1210.8000;0.4054;3.2345;
1211.1000;0.4062;3.2292;
1211.4000;0.4021;3.2239;
1211.7000;0.4070;3.2424;
1212.0000;0.4103;3.2529;
1212.3000;0.4046;3.2318;
1212.6000;0.4054;3.2213;
1212.9000;0.4062;3.2186;
1213.2000;0.4005;3.2107;
1213.5000;0.4054;3.2186;
1213.8000;0.4062;3.2133;
1214.1000;0.4037;3.2133;
1214.4000;0.4046;3.2186;
1214.7000;0.4037;3.2239;
1215.0000;0.4037;3.2318;
1215.3000;0.4062;3.2371;
1215.6000;0.4062;3.2371;
1215.9000;0.4054;3.2424;
1216.2000;0.4054;3.2345;
1216.5000;0.4054;3.2318;
1216.8000;0.4054;3.2371;
1217.1000;0.4086;3.2397;
1217.4000;0.4054;3.2239;
1217.7000;0.4054;3.2265;
1218.0000;0.4062;3.2345;
1218.3000;0.4054;3.2476;
1218.6000;0.4062;3.2529;
1218.9000;0.4054;3.2397;
1219.2000;0.4029;3.2345;
1219.5000;0.4054;3.2503;
1219.8000;0.4046;3.2503;
1220.1000;0.4046;3.2556;
1220.4000;0.4046;3.2582;
1220.7000;0.4046;3.2582;
1221.0000;0.4062;3.2582;
1221.3000;0.3964;3.2371;
1221.6000;0.4070;3.2688;
1221.9000;0.4037;3.2556;
1222.2000;0.4029;3.2529;
1222.5000;0.4054;3.2608;
1222.8000;0.4054;3.2529;
1223.1000;0.4062;3.2556;
1223.4000;0.4062;3.2556;
1223.7000;0.4070;3.2556;
1224.0000;0.4062;3.2476;
1224.3000;0.4037;3.2371;
1224.6000;0.4037;3.2397;
1224.9000;0.4062;3.2371;
1225.2000;0.4054;3.2186;
1225.5000;0.4054;3.2213;
1225.8000;0.3989;3.2133;
1226.1000;0.4029;3.2239;
1226.4000;0.4054;3.2239;
1226.7000;0.4046;3.2133;
1227.0000;0.4046;3.2160;
1227.3000;0.4046;3.2292;
1227.6000;0.4086;3.2345;
1227.9000;0.4054;3.2345;
1228.2000;0.4078;3.2424;
1228.5000;0.4078;3.2424;
1228.8000;0.4070;3.2397;
1229.1000;0.4054;3.2424;
1229.4000;0.4062;3.2476;
1229.7000;0.4062;3.2529;
1230.0000;0.4062;3.2397;
1230.3000;0.4046;3.2424;
1230.6000;0.4054;3.2450;
1230.9000;0.4086;3.2529;
1231.2000;0.4037;3.2424;
1231.5000;0.4046;3.2345;
1231.8000;0.4046;3.2239;
1232.1000;0.4054;3.2213;
1232.4000;0.4062;3.2186;
1232.7000;0.4078;3.2318;
1233.0000;0.4086;3.2292;
1233.3000;0.4070;3.2265;
1233.6000;0.4054;3.2292;
1233.9000;0.4054;3.2292;
1234.2000;0.4070;3.2345;
1234.5000;0.4062;3.2318;
1234.8000;0.4046;3.2318;
1235.1000;0.4054;3.2292;
1235.4000;0.4046;3.2265;
1235.7000;0.4062;3.2345;
1236.0000;0.4062;3.2397;
1236.3000;0.4054;3.2397;
1236.6000;0.4062;3.2450;
1236.9000;0.4046;3.2450;
1237.2000;0.4086;3.2529;
1237.5000;0.4078;3.2556;
1237.8000;0.4013;3.2424;
1238.1000;0.4037;3.2661;
1238.4000;0.4037;3.2608;
1238.7000;0.4070;3.2688;
1239.0000;0.4005;3.2582;
1239.3000;0.4062;3.2635;
1239.6000;0.4029;3.2688;
1239.9000;0.4013;3.2714;
1240.2000;0.4005;3.2714;
1240.5000;0.4029;3.2740;
1240.8000;0.4029;3.2740;
1241.1000;0.4054;3.2819;
1241.4000;0.4062;3.2819;
1241.7000;0.4046;3.2635;
1242.0000;0.4046;3.2661;
1242.3000;0.4062;3.2714;
1242.6000;0.4094;3.2688;
1242.9000;0.4046;3.2556;
1243.2000;0.4037;3.2608;
1243.5000;0.4070;3.2635;
1243.8000;0.4054;3.2582;
1244.1000;0.4062;3.2556;
1244.4000;0.4062;3.2503;
1244.7000;0.4062;3.2476;
1245.0000;0.4062;3.2556;
1245.3000;0.4054;3.2556;
1245.6000;0.4054;3.2476;
1245.9000;0.4054;3.2397;
1246.2000;0.4029;3.2265;
1246.5000;0.4054;3.2318;
1246.8000;0.4062;3.2292;
1247.1000;0.4062;3.2239;
1247.4000;0.4054;3.2292;
1247.7000;0.4119;3.2371;
1248.0000;0.4046;3.2213;
1248.3000;0.4054;3.2160;
1248.6000;0.4054;3.2239;
1248.9000;0.4062;3.2292;
1249.2000;0.4086;3.2345;
1249.5000;0.4070;3.2265;
1249.8000;0.4054;3.2292;
1250.1000;0.4046;3.2345;
1250.4000;0.4054;3.2345;
1250.7000;0.4037;3.2450;
1251.0000;0.4037;3.2476;
1251.3000;0.4070;3.2529;
1251.6000;0.4184;3.2740;
1251.9000;0.4029;3.2265;
1252.2000;0.4037;3.2265;
1252.5000;0.4054;3.2292;
1252.8000;0.4078;3.2265;
1253.1000;0.4054;3.2318;
1253.4000;0.4054;3.2318;
1253.7000;0.4046;3.2292;
1254.0000;0.4054;3.2345;
1254.3000;0.4094;3.2476;
1254.6000;0.4054;3.2345;
1254.9000;0.4013;3.2239;
1255.2000;0.4070;3.2371;
1255.5000;0.4046;3.2318;
1255.8000;0.4046;3.2424;
1256.1000;0.4054;3.2424;
1256.4000;0.3964;3.2186;
1256.7000;0.4070;3.2503;
1257.0000;0.4046;3.2397;
1257.3000;0.4054;3.2556;
1257.6000;0.4046;3.2608;
1257.9000;0.4037;3.2688;
1258.2000;0.4135;3.2872;
1258.5000;0.4046;3.2661;
1258.8000;0.4046;3.2635;
1259.1000;0.4070;3.2740;
1259.4000;0.4037;3.2582;
1259.7000;0.4062;3.2661;
1260.0000;0.4046;3.2635;
1260.3000;0.4021;3.2582;
1260.6000;0.4054;3.2688;
1260.9000;0.4029;3.2688;
1261.2000;0.4029;3.2661;
1261.5000;0.4037;3.2608;
1261.8000;0.3989;3.2424;
1262.1000;0.4062;3.2529;
1262.4000;0.4070;3.2529;
1262.7000;0.4029;3.2450;
1263.0000;0.4037;3.2476;
1263.3000;0.4070;3.2529;
1263.6000;0.4062;3.2503;
1263.9000;0.4046;3.2476;
1264.2000;0.4037;3.2450;
1264.5000;0.4070;3.2424;
1264.8000;0.4046;3.2397;
1265.1000;0.4046;3.2371;
1265.4000;0.4062;3.2371;
1265.7000;0.4062;3.2450;
1266.0000;0.4070;3.2424;
1266.3000;0.4029;3.2239;
1266.6000;0.4046;3.2239;
1266.9000;0.4070;3.2292;
1267.2000;0.4062;3.2265;
1267.5000;0.4062;3.2239;
1267.8000;0.4054;3.2239;
1268.1000;0.4062;3.2345;
1268.4000;0.4062;3.2265;
1268.7000;0.4070;3.2213;
1269.0000;0.4054;3.2133;
1269.3000;0.4070;3.2213;
1269.6000;0.4054;3.2186;
1269.9000;0.4062;3.2186;
1270.2000;0.4070;3.2239;
1270.5000;0.4062;3.2265;
1270.8000;0.4127;3.2318;
1271.1000;0.4037;3.2081;
1271.4000;0.4054;3.2081;
1271.7000;0.4054;3.2002;
1272.0000;0.4062;3.2081;
1272.3000;0.4078;3.2239;
1272.6000;0.4054;3.2239;
1272.9000;0.4070;3.2318;
1273.2000;0.4046;3.2186;
1273.5000;0.4078;3.2239;
1273.8000;0.4062;3.2133;
1274.1000;0.4054;3.2213;
1274.4000;0.3956;3.2107;
1274.7000;0.4070;3.2424;
1275.0000;0.4046;3.2265;
1275.3000;0.4054;3.2265;
1275.6000;0.4054;3.2292;
1275.9000;0.4070;3.2318;
1276.2000;0.4054;3.2265;
1276.5000;0.4054;3.2265;
1276.8000;0.4062;3.2265;
1277.1000;0.4046;3.2239;
1277.4000;0.3907;3.1817;
1277.7000;0.3997;3.2081;
1278.0000;0.4029;3.2239;
1278.3000;0.4062;3.2424;
1278.6000;0.4054;3.2450;
1278.9000;0.4037;3.2424;
1279.2000;0.3940;3.2160;
1279.5000;0.4054;3.2397;
1279.8000;0.4062;3.2503;
1280.1000;0.4062;3.2529;
1280.4000;0.4062;3.2529;
1280.7000;0.4070;3.2582;
1281.0000;0.4062;3.2608;
1281.3000;0.4046;3.2582;
1281.6000;0.4062;3.2529;
1281.9000;0.4046;3.2556;
1282.2000;0.4103;3.2714;
1282.5000;0.4054;3.2608;
1282.8000;0.4054;3.2608;
1283.1000;0.4054;3.2582;
1283.4000;0.4086;3.2635;
1283.7000;0.4070;3.2608;
1284.0000;0.4005;3.2503;
1284.3000;0.4062;3.2582;
1284.6000;0.4062;3.2556;
1284.9000;0.4062;3.2424;
1285.2000;0.4054;3.2371;
1285.5000;0.4054;3.2476;
1285.8000;0.4062;3.2397;
1286.1000;0.4078;3.2345;
1286.4000;0.4054;3.2318;
1286.7000;0.4029;3.2213;
1287.0000;0.4054;3.2239;
1287.3000;0.4054;3.2292;
1287.6000;0.4054;3.2265;
1287.9000;0.4062;3.2186;
1288.2000;0.4054;3.2239;
1288.5000;0.4070;3.2345;
1288.8000;0.4070;3.2318;
1289.1000;0.4070;3.2213;
1289.4000;0.4046;3.2186;
1289.7000;0.4078;3.2213;
1290.0000;0.4078;3.2160;
1290.3000;0.4184;3.2582;
1290.6000;0.4070;3.2318;
1290.9000;0.4054;3.2265;
1291.2000;0.4062;3.2133;
1291.5000;0.4054;3.2133;
1291.8000;0.4046;3.2133;
1292.1000;0.4046;3.2107;
1292.4000;0.4078;3.2107;
1292.7000;0.4062;3.2054;
1293.0000;0.4054;3.2160;
1293.3000;0.4103;3.2397;
1293.6000;0.4078;3.2265;
1293.9000;0.4062;3.2318;
1294.2000;0.4046;3.2345;
1294.5000;0.4054;3.2292;
1294.8000;0.4078;3.2424;
1295.1000;0.4070;3.2556;
1295.4000;0.4070;3.2556;
1295.7000;0.4070;3.2608;
1296.0000;0.4054;3.2635;
1296.3000;0.4046;3.2582;
1296.6000;0.4021;3.2503;
1296.9000;0.4062;3.2556;
1297.2000;0.4062;3.2582;
1297.5000;0.4054;3.2503;
1297.8000;0.4021;3.2397;
1298.1000;0.4054;3.2529;
1298.4000;0.4046;3.2556;
1298.7000;0.4135;3.2740;
1299.0000;0.4054;3.2529;
1299.3000;0.4037;3.2529;
1299.6000;0.4037;3.2503;
1299.9000;0.4062;3.2608;
1300.2000;0.4062;3.2661;
1300.5000;0.4054;3.2688;
1300.8000;0.4046;3.2635;
1301.1000;0.4135;3.2872;
1301.4000;0.4070;3.2714;
1301.7000;0.4070;3.2714;
1302.0000;0.4037;3.2608;
1302.3000;0.4046;3.2608;
1302.6000;0.4062;3.2608;
1302.9000;0.3948;3.2239;
1303.2000;0.4005;3.2450;
1303.5000;0.4054;3.2476;
1303.8000;0.4054;3.2476;
1304.1000;0.4078;3.2503;
1304.4000;0.4054;3.2450;
1304.7000;0.4054;3.2450;
1305.0000;0.4078;3.2450;
1305.3000;0.4046;3.2292;
1305.6000;0.4070;3.2318;
1305.9000;0.4078;3.2160;
1306.2000;0.4070;3.2239;
1306.5000;0.4070;3.2292;
1306.8000;0.4054;3.2186;
1307.1000;0.4046;3.2186;
1307.4000;0.3980;3.2002;
1307.7000;0.4054;3.2160;
1308.0000;0.4127;3.2503;
1308.3000;0.4054;3.2345;
1308.6000;0.4070;3.2371;
1308.9000;0.4046;3.2265;
1309.2000;0.4046;3.2186;
1309.5000;0.4029;3.2186;
1309.8000;0.4062;3.2345;
1310.1000;0.4062;3.2318;
1310.4000;0.4070;3.2371;
1310.7000;0.4054;3.2318;
1311.0000;0.4054;3.2345;
1311.3000;0.4062;3.2345;
1311.6000;0.4054;3.2345;
1311.9000;0.4062;3.2345;
1312.2000;0.4029;3.2160;
1312.5000;0.4037;3.2133;
1312.8000;0.4037;3.2186;
1313.1000;0.4062;3.2186;
1313.4000;0.4070;3.2213;
1313.7000;0.4037;3.2133;
1314.0000;0.4054;3.2265;
1314.3000;0.4111;3.2371;
1314.6000;0.4062;3.2265;
1314.9000;0.4070;3.2345;
1315.2000;0.4086;3.2450;
1315.5000;0.4070;3.2476;
1315.8000;0.4070;3.2529;
1316.1000;0.4070;3.2556;
1316.4000;0.4078;3.2503;
1316.7000;0.4062;3.2582;
1317.0000;0.4046;3.2529;
1317.3000;0.4094;3.2582;
1317.6000;0.4103;3.2608;
1317.9000;0.4054;3.2556;
1318.2000;0.4062;3.2529;
1318.5000;0.4046;3.2556;
1318.8000;0.4054;3.2529;
1319.1000;0.4078;3.2608;
1319.4000;0.4062;3.2529;
1319.7000;0.4054;3.2556;
1320.0000;0.4054;3.2608;
1320.3000;0.4029;3.2635;
1320.6000;0.4062;3.2688;
1320.9000;0.4054;3.2635;
1321.2000;0.4054;3.2635;
1321.5000;0.4086;3.2714;
1321.8000;0.4062;3.2688;
1322.1000;0.4062;3.2661;
1322.4000;0.4021;3.2476;
1322.7000;0.4054;3.2503;
1323.0000;0.4062;3.2503;
1323.3000;0.4029;3.2476;
1323.6000;0.4054;3.2529;
1323.9000;0.4054;3.2450;
1324.2000;0.4037;3.2371;
1324.5000;0.4070;3.2503;
1324.8000;0.4046;3.2450;
1325.1000;0.4078;3.2503;
1325.4000;0.4062;3.2476;
1325.7000;0.4086;3.2450;
1326.0000;0.4062;3.2450;
1326.3000;0.4070;3.2476;
1326.6000;0.4070;3.2424;
1326.9000;0.4070;3.2450;
1327.2000;0.4062;3.2397;
1327.5000;0.4037;3.2318;
1327.8000;0.4070;3.2476;
1328.1000;0.4054;3.2397;
1328.4000;0.4054;3.2371;
1328.7000;0.4062;3.2397;
1329.0000;0.4086;3.2450;
1329.3000;0.4054;3.2371;
1329.6000;0.4062;3.2318;
1329.9000;0.4054;3.2318;
1330.2000;0.4046;3.2397;
1330.5000;0.4070;3.2476;
1330.8000;0.4078;3.2397;
1331.1000;0.4070;3.2397;
1331.4000;0.4062;3.2424;
1331.7000;0.4062;3.2371;
1332.0000;0.4094;3.2397;
1332.3000;0.4062;3.2424;
1332.6000;0.4062;3.2318;
1332.9000;0.4062;3.2292;
1333.2000;0.4054;3.2265;
1333.5000;0.4054;3.2213;
1333.8000;0.4070;3.2213;
1334.1000;0.4062;3.2292;
1334.4000;0.4054;3.2345;
1334.7000;0.4037;3.2318;
1335.0000;0.4111;3.2582;
1335.3000;0.4054;3.2476;
1335.6000;0.4078;3.2556;
1335.9000;0.4070;3.2582;
1336.2000;0.4054;3.2476;
1336.5000;0.4062;3.2476;
1336.8000;0.4062;3.2608;
1337.1000;0.4062;3.2608;
1337.4000;0.4037;3.2608;
1337.7000;0.4029;3.2529;
1338.0000;0.4054;3.2608;
1338.3000;0.4078;3.2688;
1338.6000;0.4037;3.2582;
1338.9000;0.4046;3.2556;
1339.2000;0.4029;3.2556;
1339.5000;0.4037;3.2556;
1339.8000;0.4046;3.2556;
1340.1000;0.4037;3.2582;
1340.4000;0.4046;3.2476;
1340.7000;0.4103;3.2635;
1341.0000;0.4046;3.2582;
1341.3000;0.4046;3.2635;
1341.6000;0.4054;3.2608;
1341.9000;0.4046;3.2582;
1342.2000;0.4054;3.2635;
1342.5000;0.3899;3.2265;
1342.8000;0.4078;3.2740;
1343.1000;0.4062;3.2688;
1343.4000;0.4062;3.2635;
1343.7000;0.4054;3.2608;
1344.0000;0.4054;3.2503;
1344.3000;0.4062;3.2450;
1344.6000;0.4062;3.2450;
1344.9000;0.3997;3.2265;
1345.2000;0.4054;3.2476;
1345.5000;0.4029;3.2503;
1345.8000;0.4054;3.2556;
1346.1000;0.4062;3.2608;
1346.4000;0.4070;3.2635;
1346.7000;0.4062;3.2556;
1347.0000;0.4037;3.2424;
1347.3000;0.4029;3.2292;
1347.6000;0.4062;3.2371;
1347.9000;0.4046;3.2292;
1348.2000;0.4078;3.2371;
1348.5000;0.4046;3.2292;
1348.8000;0.4054;3.2292;
1349.1000;0.4046;3.2239;
1349.4000;0.4054;3.2318;
1349.7000;0.4054;3.2345;
1350.0000;0.4127;3.2397;
1350.3000;0.4046;3.2265;
1350.6000;0.4054;3.2265;
1350.9000;0.4176;3.2529;
1351.2000;0.4078;3.2213;
1351.5000;0.4086;3.2239;
1351.8000;0.4021;3.2107;
1352.1000;0.4054;3.2239;
1352.4000;0.4070;3.2318;
1352.7000;0.4062;3.2397;
1353.0000;0.4070;3.2450;
1353.3000;0.4037;3.2318;
1353.6000;0.4046;3.2265;
1353.9000;0.4094;3.2503;
1354.2000;0.4070;3.2476;
1354.5000;0.4046;3.2318;
1354.8000;0.4062;3.2318;
1355.1000;0.4070;3.2318;
1355.4000;0.4070;3.2318;
1355.7000;0.4062;3.2397;
1356.0000;0.4078;3.2371;
1356.3000;0.4054;3.2371;
1356.6000;0.4054;3.2371;
1356.9000;0.4070;3.2476;
1357.2000;0.4046;3.2450;
1357.5000;0.4054;3.2608;
1357.8000;0.4046;3.2608;
1358.1000;0.4062;3.2635;
1358.4000;0.4054;3.2661;
1358.7000;0.4078;3.2714;
1359.0000;0.4054;3.2740;
1359.3000;0.4062;3.2688;
1359.6000;0.4029;3.2661;
1359.9000;0.4029;3.2635;
1360.2000;0.4046;3.2556;
1360.5000;0.4037;3.2582;
1360.8000;0.4046;3.2635;
1361.1000;0.4070;3.2635;
1361.4000;0.4070;3.2503;
1361.7000;0.4062;3.2556;
1362.0000;0.4054;3.2635;
1362.3000;0.4078;3.2635;
1362.6000;0.4029;3.2476;
1362.9000;0.4078;3.2582;
1363.2000;0.4046;3.2424;
1363.5000;0.4037;3.2371;
1363.8000;0.4046;3.2292;
1364.1000;0.4062;3.2292;
1364.4000;0.4078;3.2213;
1364.7000;0.4054;3.2213;
1365.0000;0.4046;3.2265;
1365.3000;0.4037;3.2292;
1365.6000;0.4078;3.2397;
1365.9000;0.4021;3.2239;
1366.2000;0.4054;3.2397;
1366.5000;0.4046;3.2424;
1366.8000;0.4062;3.2424;
1367.1000;0.4062;3.2371;
1367.4000;0.4054;3.2265;
1367.7000;0.4086;3.2397;
1368.0000;0.4062;3.2318;
1368.3000;0.4070;3.2397;
1368.6000;0.4046;3.2292;
1368.9000;0.4062;3.2345;
1369.2000;0.4062;3.2345;
1369.5000;0.4111;3.2556;
1369.8000;0.4054;3.2345;
1370.1000;0.4046;3.2476;
1370.4000;0.4013;3.2371;
1370.7000;0.4054;3.2503;
1371.0000;0.4078;3.2476;
1371.3000;0.4070;3.2503;
1371.6000;0.4062;3.2476;
1371.9000;0.4062;3.2450;
1372.2000;0.4062;3.2450;
1372.5000;0.3826;3.1817;
1372.8000;0.4062;3.2503;
1373.1000;0.4062;3.2529;
1373.4000;0.4062;3.2529;
1373.7000;0.4054;3.2450;
1374.0000;0.4037;3.2265;
1374.3000;0.4054;3.2292;
1374.6000;0.4062;3.2318;
1374.9000;0.4054;3.2292;
1375.2000;0.4062;3.2345;
1375.5000;0.4078;3.2371;
1375.8000;0.4119;3.2582;
1376.1000;0.4094;3.2556;
1376.4000;0.4037;3.2371;
1376.7000;0.4046;3.2476;
1377.0000;0.4070;3.2556;
1377.3000;0.4046;3.2503;
1377.6000;0.4062;3.2608;
1377.9000;0.4046;3.2529;
1378.2000;0.4062;3.2503;
1378.5000;0.4111;3.2503;
1378.8000;0.4046;3.2424;
1379.1000;0.4029;3.2371;
1379.4000;0.4046;3.2450;
1379.7000;0.4037;3.2450;
1380.0000;0.4037;3.2529;
1380.3000;0.4046;3.2503;
1380.6000;0.4054;3.2661;
1380.9000;0.4078;3.2714;
1381.2000;0.4037;3.2608;
1381.5000;0.4054;3.2635;
1381.8000;0.4046;3.2608;
1382.1000;0.4054;3.2635;
1382.4000;0.4054;3.2661;
1382.7000;0.3997;3.2424;
1383.0000;0.4037;3.2582;
1383.3000;0.4037;3.2582;
1383.6000;0.4037;3.2529;
1383.9000;0.4037;3.2424;
1384.2000;0.4037;3.2450;
1384.5000;0.4046;3.2186;
1384.8000;0.4037;3.2081;
1385.1000;0.4046;3.2081;
1385.4000;0.4046;3.2081;
1385.7000;0.4054;3.2107;
1386.0000;0.4054;3.2107;
1386.3000;0.4103;3.2186;
1386.6000;0.4054;3.2186;
1386.9000;0.4070;3.2186;
1387.2000;0.4054;3.2186;
1387.5000;0.4054;3.2160;
1387.8000;0.4054;3.2133;
1388.1000;0.4054;3.2186;
1388.4000;0.4070;3.2265;
1388.7000;0.4062;3.2213;
1389.0000;0.4135;3.2450;
1389.3000;0.4054;3.2186;
1389.6000;0.4062;3.2213;
1389.9000;0.4054;3.2265;
1390.2000;0.4070;3.2239;
1390.5000;0.4037;3.2160;
1390.8000;0.4070;3.2292;
1391.1000;0.4135;3.2424;
1391.4000;0.4054;3.2265;
1391.7000;0.4062;3.2265;
1392.0000;0.4070;3.2292;
1392.3000;0.4062;3.2160;
1392.6000;0.4078;3.2239;
1392.9000;0.4070;3.2265;
1393.2000;0.4070;3.2318;
1393.5000;0.4078;3.2265;
1393.8000;0.4086;3.2186;
1394.1000;0.4078;3.2186;
1394.4000;0.4054;3.2186;
1394.7000;0.4070;3.2213;
1395.0000;0.4119;3.2424;
1395.3000;0.4054;3.2265;
1395.6000;0.4046;3.2318;
1395.9000;0.4078;3.2371;
1396.2000;0.4054;3.2292;
1396.5000;0.4046;3.2318;
1396.8000;0.4037;3.2397;
1397.1000;0.4054;3.2397;
1397.4000;0.4054;3.2397;
1397.7000;0.4054;3.2450;
1398.0000;0.4046;3.2450;
1398.3000;0.4037;3.2503;
1398.6000;0.4046;3.2582;
1398.9000;0.4062;3.2608;
1399.2000;0.4054;3.2529;
1399.5000;0.4054;3.2582;
1399.8000;0.4054;3.2608;
