time/ms;Fluo/V;P700 deltaI/I x10³;
-199.8000;0.4046;0.9601;
-199.5000;0.4070;0.9527;
-199.2000;0.4062;0.9453;
-198.9000;0.4054;0.9428;
-198.6000;0.4103;0.9527;
-198.3000;0.4070;0.9477;
-198.0000;0.4086;0.9477;
-197.7000;0.4119;0.9552;
-197.4000;0.4127;0.9650;
-197.1000;0.4029;0.9305;
-196.8000;0.4078;0.9428;
-196.5000;0.4070;0.9428;
-196.2000;0.4021;0.9206;
-195.9000;0.4070;0.9280;
-195.6000;0.4062;0.9379;
-195.3000;0.4054;0.9428;
-195.0000;0.4046;0.9552;
-194.7000;0.4054;0.9601;
-194.4000;0.4070;0.9724;
-194.1000;0.4086;0.9774;
-193.8000;0.4070;0.9675;
-193.5000;0.4086;0.9774;
-193.2000;0.4054;0.9700;
-192.9000;0.4070;0.9774;
-192.6000;0.4054;0.9798;
-192.3000;0.4054;0.9823;
-192.0000;0.4070;0.9774;
-191.7000;0.4078;0.9848;
-191.4000;0.4037;0.9675;
-191.1000;0.4070;0.9650;
-190.8000;0.4070;0.9576;
-190.5000;0.4062;0.9527;
-190.2000;0.3989;0.9379;
-189.9000;0.4062;0.9626;
-189.6000;0.4070;0.9626;
-189.3000;0.4078;0.9626;
-189.0000;0.4111;0.9749;
-188.7000;0.4094;0.9700;
-188.4000;0.4070;0.9576;
-188.1000;0.4070;0.9552;
-187.8000;0.4086;0.9527;
-187.5000;0.4070;0.9403;
-187.2000;0.4029;0.9255;
-186.9000;0.4070;0.9354;
-186.6000;0.4021;0.9329;
-186.3000;0.4078;0.9527;
-186.0000;0.4070;0.9576;
-185.7000;0.4143;0.9700;
-185.4000;0.4054;0.9576;
-185.1000;0.4062;0.9552;
-184.8000;0.4070;0.9576;
-184.5000;0.4070;0.9502;
-184.2000;0.4037;0.9477;
-183.9000;0.4078;0.9626;
-183.6000;0.4094;0.9626;
-183.3000;0.4135;0.9848;
-183.0000;0.4070;0.9749;
-182.7000;0.4062;0.9650;
-182.4000;0.4046;0.9601;
-182.1000;0.4037;0.9601;
-181.8000;0.4046;0.9576;
-181.5000;0.4062;0.9576;
-181.2000;0.4021;0.9453;
-180.9000;0.4062;0.9601;
-180.6000;0.4062;0.9477;
-180.3000;0.4062;0.9453;
-180.0000;0.4143;0.9650;
-179.7000;0.4054;0.9453;
-179.4000;0.4054;0.9502;
-179.1000;0.4054;0.9453;
-178.8000;0.4046;0.9379;
-178.5000;0.4070;0.9477;
-178.2000;0.4062;0.9552;
-177.9000;0.4184;0.9971;
-177.6000;0.4078;0.9724;
-177.3000;0.4135;0.9798;
-177.0000;0.4078;0.9626;
-176.7000;0.4037;0.9576;
-176.4000;0.4046;0.9601;
-176.1000;0.4062;0.9675;
-175.8000;0.4046;0.9601;
-175.5000;0.4046;0.9527;
-175.2000;0.4054;0.9477;
-174.9000;0.4054;0.9428;
-174.6000;0.4070;0.9502;
-174.3000;0.4046;0.9403;
-174.0000;0.4070;0.9403;
-173.7000;0.4062;0.9403;
-173.4000;0.4078;0.9379;
-173.1000;0.4070;0.9453;
-172.8000;0.4013;0.9305;
-172.5000;0.4070;0.9527;
-172.2000;0.4070;0.9552;
-171.9000;0.4103;0.9576;
-171.6000;0.4078;0.9527;
-171.3000;0.4062;0.9527;
-171.0000;0.4054;0.9527;
-170.7000;0.4078;0.9552;
-170.4000;0.4062;0.9477;
-170.1000;0.4046;0.9552;
-169.8000;0.4086;0.9576;
-169.5000;0.4070;0.9601;
-169.2000;0.4037;0.9576;
-168.9000;0.4054;0.9601;
-168.6000;0.4070;0.9601;
-168.3000;0.4062;0.9650;
-168.0000;0.4062;0.9626;
-167.7000;0.4070;0.9650;
-167.4000;0.4070;0.9650;
-167.1000;0.4103;0.9749;
-166.8000;0.4086;0.9749;
-166.5000;0.4062;0.9700;
-166.2000;0.4046;0.9626;
-165.9000;0.4062;0.9650;
-165.6000;0.4062;0.9576;
-165.3000;0.4054;0.9626;
-165.0000;0.4054;0.9626;
-164.7000;0.4054;0.9626;
-164.4000;0.4054;0.9576;
-164.1000;0.4046;0.9477;
-163.8000;0.4070;0.9601;
-163.5000;0.4046;0.9502;
-163.2000;0.4046;0.9527;
-162.9000;0.4070;0.9527;
-162.6000;0.4054;0.9502;
-162.3000;0.4062;0.9428;
-162.0000;0.4046;0.9502;
-161.7000;0.4070;0.9626;
-161.4000;0.4062;0.9502;
-161.1000;0.4086;0.9576;
-160.8000;0.4062;0.9601;
-160.5000;0.4037;0.9675;
-160.2000;0.4062;0.9823;
-159.9000;0.4094;0.9798;
-159.6000;0.4029;0.9576;
-159.3000;0.4070;0.9601;
-159.0000;0.4054;0.9552;
-158.7000;0.4054;0.9601;
-158.4000;0.4062;0.9552;
-158.1000;0.4062;0.9527;
-157.8000;0.4070;0.9576;
-157.5000;0.4062;0.9626;
-157.2000;0.4062;0.9576;
-156.9000;0.4070;0.9552;
-156.6000;0.4070;0.9502;
-156.3000;0.4070;0.9453;
-156.0000;0.4062;0.9502;
-155.7000;0.4070;0.9552;
-155.4000;0.4078;0.9601;
-155.1000;0.4078;0.9527;
-154.8000;0.4078;0.9601;
-154.5000;0.4086;0.9626;
-154.2000;0.4062;0.9700;
-153.9000;0.4086;0.9823;
-153.6000;0.4086;0.9922;
-153.3000;0.4021;0.9798;
-153.0000;0.4046;0.9922;
-152.7000;0.4062;0.9922;
-152.4000;0.4054;0.9823;
-152.1000;0.4054;0.9798;
-151.8000;0.4127;0.9922;
-151.5000;0.4078;0.9798;
-151.2000;0.4086;0.9774;
-150.9000;0.4005;0.9601;
-150.6000;0.4054;0.9650;
-150.3000;0.4062;0.9527;
-150.0000;0.4070;0.9650;
-149.7000;0.4062;0.9700;
-149.4000;0.4086;0.9823;
-149.1000;0.4054;0.9774;
-148.8000;0.4054;0.9749;
-148.5000;0.4046;0.9650;
-148.2000;0.4070;0.9724;
-147.9000;0.4037;0.9650;
-147.6000;0.4070;0.9700;
-147.3000;0.4062;0.9477;
-147.0000;0.4070;0.9576;
-146.7000;0.4078;0.9650;
-146.4000;0.4103;0.9675;
-146.1000;0.4062;0.9601;
-145.8000;0.4078;0.9626;
-145.5000;0.4078;0.9650;
-145.2000;0.4086;0.9749;
-144.9000;0.4046;0.9552;
-144.6000;0.4070;0.9626;
-144.3000;0.4062;0.9601;
-144.0000;0.4078;0.9650;
-143.7000;0.4070;0.9675;
-143.4000;0.4062;0.9724;
-143.1000;0.4054;0.9749;
-142.8000;0.4054;0.9700;
-142.5000;0.4046;0.9724;
-142.2000;0.4054;0.9675;
-141.9000;0.3989;0.9502;
-141.6000;0.4046;0.9626;
-141.3000;0.4054;0.9626;
-141.0000;0.4127;0.9700;
-140.7000;0.4062;0.9502;
-140.4000;0.4062;0.9626;
-140.1000;0.4054;0.9626;
-139.8000;0.4054;0.9626;
-139.5000;0.4078;0.9675;
-139.2000;0.4054;0.9601;
-138.9000;0.4021;0.9477;
-138.6000;0.4078;0.9675;
-138.3000;0.4062;0.9700;
-138.0000;0.4070;0.9650;
-137.7000;0.4054;0.9576;
-137.4000;0.4062;0.9576;
-137.1000;0.4054;0.9527;
-136.8000;0.4070;0.9626;
-136.5000;0.4054;0.9527;
-136.2000;0.4021;0.9453;
-135.9000;0.3989;0.9403;
-135.6000;0.4086;0.9749;
-135.3000;0.4078;0.9724;
-135.0000;0.4070;0.9749;
-134.7000;0.4062;0.9675;
-134.4000;0.4062;0.9724;
-134.1000;0.4078;0.9823;
-133.8000;0.4046;0.9749;
-133.5000;0.4070;0.9774;
-133.2000;0.4062;0.9774;
-132.9000;0.4062;0.9724;
-132.6000;0.4062;0.9650;
-132.3000;0.4037;0.9700;
-132.0000;0.4062;0.9749;
-131.7000;0.4054;0.9774;
-131.4000;0.4086;0.9724;
-131.1000;0.4078;0.9601;
-130.8000;0.4078;0.9650;
-130.5000;0.4070;0.9650;
-130.2000;0.4054;0.9700;
-129.9000;0.4013;0.9650;
-129.6000;0.4062;0.9798;
-129.3000;0.4062;0.9798;
-129.0000;0.4062;0.9749;
-128.7000;0.4062;0.9749;
-128.4000;0.4070;0.9798;
-128.1000;0.4070;0.9749;
-127.8000;0.4062;0.9700;
-127.5000;0.4062;0.9700;
-127.2000;0.4062;0.9700;
-126.9000;0.4054;0.9675;
-126.6000;0.4086;0.9675;
-126.3000;0.4070;0.9601;
-126.0000;0.4054;0.9576;
-125.7000;0.4054;0.9626;
-125.4000;0.4176;0.9922;
-125.1000;0.4029;0.9552;
-124.8000;0.4054;0.9650;
-124.5000;0.4070;0.9774;
-124.2000;0.4054;0.9724;
-123.9000;0.4070;0.9749;
-123.6000;0.4062;0.9798;
-123.3000;0.4062;0.9774;
-123.0000;0.4070;0.9823;
-122.7000;0.4070;0.9823;
-122.4000;0.4029;0.9700;
-122.1000;0.4062;0.9749;
-121.8000;0.4054;0.9724;
-121.5000;0.4070;0.9700;
-121.2000;0.4046;0.9527;
-120.9000;0.4046;0.9477;
-120.6000;0.4054;0.9650;
-120.3000;0.4062;0.9798;
-120.0000;0.4078;0.9848;
-119.7000;0.4046;0.9798;
-119.4000;0.4070;0.9848;
-119.1000;0.4046;0.9749;
-118.8000;0.4086;0.9798;
-118.5000;0.4054;0.9675;
-118.2000;0.4062;0.9700;
-117.9000;0.4119;0.9724;
-117.6000;0.4046;0.9453;
-117.3000;0.4062;0.9527;
-117.0000;0.4046;0.9626;
-116.7000;0.4062;0.9798;
-116.4000;0.4103;0.9922;
-116.1000;0.4078;0.9897;
-115.8000;0.4070;0.9897;
-115.5000;0.4054;0.9922;
-115.2000;0.4078;0.9946;
-114.9000;0.4062;0.9946;
-114.6000;0.4054;0.9823;
-114.3000;0.4054;0.9848;
-114.0000;0.4037;0.9774;
-113.7000;0.4062;0.9872;
-113.4000;0.4070;0.9996;
-113.1000;0.4046;0.9823;
-112.8000;0.3980;0.9552;
-112.5000;0.4070;0.9749;
-112.2000;0.4062;0.9650;
-111.9000;0.4094;0.9700;
-111.6000;0.4054;0.9626;
-111.3000;0.4054;0.9601;
-111.0000;0.4054;0.9675;
-110.7000;0.4062;0.9675;
-110.4000;0.4062;0.9650;
-110.1000;0.4046;0.9576;
-109.8000;0.4151;0.9946;
-109.5000;0.4046;0.9626;
-109.2000;0.4046;0.9626;
-108.9000;0.4046;0.9650;
-108.6000;0.4029;0.9601;
-108.3000;0.4037;0.9650;
-108.0000;0.4029;0.9724;
-107.7000;0.4005;0.9749;
-107.4000;0.4054;0.9798;
-107.1000;0.4062;0.9823;
-106.8000;0.4151;0.9996;
-106.5000;0.4062;0.9749;
-106.2000;0.4062;0.9798;
-105.9000;0.4078;0.9922;
-105.6000;0.4062;0.9897;
-105.3000;0.4062;0.9946;
-105.0000;0.4111;1.0020;
-104.7000;0.4062;0.9872;
-104.4000;0.4046;0.9823;
-104.1000;0.4037;0.9749;
-103.8000;0.4054;0.9798;
-103.5000;0.4062;0.9823;
-103.2000;0.4029;0.9749;
-102.9000;0.4062;0.9823;
-102.6000;0.4046;0.9823;
-102.3000;0.4054;0.9897;
-102.0000;0.4078;0.9897;
-101.7000;0.4054;0.9823;
-101.4000;0.4054;0.9774;
-101.1000;0.4078;0.9774;
-100.8000;0.4070;0.9848;
-100.5000;0.4062;0.9872;
-100.2000;0.4078;0.9872;
-99.9000;0.4037;0.9823;
-99.6000;0.4070;0.9848;
-99.3000;0.4054;0.9848;
-99.0000;0.4062;0.9774;
-98.7000;0.4062;0.9823;
-98.4000;0.4046;0.9774;
-98.1000;0.4062;0.9848;
-97.8000;0.4046;0.9823;
-97.5000;0.4062;0.9872;
-97.2000;0.4054;0.9749;
-96.9000;0.3997;0.9527;
-96.6000;0.4070;0.9700;
-96.3000;0.4062;0.9650;
-96.0000;0.4070;0.9724;
-95.7000;0.4070;0.9626;
-95.4000;0.4062;0.9675;
-95.1000;0.4062;0.9675;
-94.8000;0.4078;0.9724;
-94.5000;0.4086;0.9798;
-94.2000;0.4078;0.9774;
-93.9000;0.4037;0.9675;
-93.6000;0.4054;0.9774;
-93.3000;0.4054;0.9774;
-93.0000;0.4054;0.9749;
-92.7000;0.4062;0.9749;
-92.4000;0.3948;0.9477;
-92.1000;0.4062;0.9798;
-91.8000;0.4062;0.9774;
-91.5000;0.4086;0.9724;
-91.2000;0.4046;0.9576;
-90.9000;0.4070;0.9724;
-90.6000;0.4046;0.9626;
-90.3000;0.4054;0.9626;
-90.0000;0.4094;0.9774;
-89.7000;0.4029;0.9576;
-89.4000;0.4062;0.9724;
-89.1000;0.4078;0.9675;
-88.8000;0.4127;0.9724;
-88.5000;0.4054;0.9477;
-88.2000;0.4046;0.9428;
-87.9000;0.4070;0.9453;
-87.6000;0.4013;0.9379;
-87.3000;0.4062;0.9477;
-87.0000;0.4143;0.9749;
-86.7000;0.3980;0.9403;
-86.4000;0.4062;0.9601;
-86.1000;0.4054;0.9527;
-85.8000;0.4094;0.9675;
-85.5000;0.4062;0.9650;
-85.2000;0.4070;0.9650;
-84.9000;0.4062;0.9724;
-84.6000;0.4086;0.9749;
-84.3000;0.4054;0.9626;
-84.0000;0.4119;0.9749;
-83.7000;0.3989;0.9453;
-83.4000;0.4070;0.9650;
-83.1000;0.4070;0.9724;
-82.8000;0.4037;0.9675;
-82.5000;0.4046;0.9700;
-82.2000;0.4078;0.9675;
-81.9000;0.4070;0.9626;
-81.6000;0.4078;0.9650;
-81.3000;0.4062;0.9626;
-81.0000;0.4062;0.9675;
-80.7000;0.4046;0.9675;
-80.4000;0.4046;0.9749;
-80.1000;0.4046;0.9749;
-79.8000;0.4013;0.9798;
-79.5000;0.4029;0.9774;
-79.2000;0.4119;0.9922;
-78.9000;0.4086;0.9872;
-78.6000;0.4054;0.9774;
-78.3000;0.4037;0.9798;
-78.0000;0.4054;0.9848;
-77.7000;0.4062;0.9823;
-77.4000;0.4054;0.9749;
-77.1000;0.4046;0.9724;
-76.8000;0.4062;0.9798;
-76.5000;0.4054;0.9798;
-76.2000;0.4127;0.9996;
-75.9000;0.4062;0.9798;
-75.6000;0.4037;0.9798;
-75.3000;0.4062;0.9823;
-75.0000;0.4062;0.9848;
-74.7000;0.4062;0.9774;
-74.4000;0.4054;0.9823;
-74.1000;0.4054;0.9724;
-73.8000;0.4078;0.9700;
-73.5000;0.4070;0.9675;
-73.2000;0.4054;0.9700;
-72.9000;0.4037;0.9675;
-72.6000;0.4005;0.9527;
-72.3000;0.4062;0.9724;
-72.0000;0.4046;0.9749;
-71.7000;0.4054;0.9872;
-71.4000;0.4062;0.9897;
-71.1000;0.4013;0.9749;
-70.8000;0.4046;0.9897;
-70.5000;0.4037;0.9922;
-70.2000;0.4037;0.9922;
-69.9000;0.4086;0.9946;
-69.6000;0.4070;0.9872;
-69.3000;0.4046;0.9848;
-69.0000;0.4037;0.9897;
-68.7000;0.4046;0.9848;
-68.4000;0.4070;0.9774;
-68.1000;0.3980;0.9428;
-67.8000;0.4062;0.9601;
-67.5000;0.4078;0.9724;
-67.2000;0.4029;0.9675;
-66.9000;0.4094;0.9848;
-66.6000;0.4094;0.9922;
-66.3000;0.4070;0.9922;
-66.0000;0.4070;0.9996;
-65.7000;0.4037;0.9897;
-65.4000;0.4046;0.9823;
-65.1000;0.4013;0.9749;
-64.8000;0.4062;0.9872;
-64.5000;0.4054;0.9823;
-64.2000;0.4037;0.9626;
-63.9000;0.4054;0.9601;
-63.6000;0.4062;0.9552;
-63.3000;0.4062;0.9626;
-63.0000;0.4119;0.9823;
-62.7000;0.4021;0.9650;
-62.4000;0.4070;0.9700;
-62.1000;0.4062;0.9675;
-61.8000;0.4078;0.9675;
-61.5000;0.3997;0.9552;
-61.2000;0.4078;0.9724;
-60.9000;0.4070;0.9601;
-60.6000;0.4103;0.9700;
-60.3000;0.4062;0.9601;
-60.0000;0.4046;0.9601;
-59.7000;0.4070;0.9650;
-59.4000;0.4086;0.9675;
-59.1000;0.4054;0.9552;
-58.8000;0.4054;0.9477;
-58.5000;0.4062;0.9502;
-58.2000;0.4070;0.9552;
-57.9000;0.4086;0.9675;
-57.6000;0.4062;0.9576;
-57.3000;0.4054;0.9576;
-57.0000;0.4046;0.9626;
-56.7000;0.4062;0.9650;
-56.4000;0.4070;0.9749;
-56.1000;0.4062;0.9749;
-55.8000;0.4046;0.9626;
-55.5000;0.4168;0.9946;
-55.2000;0.4062;0.9650;
-54.9000;0.4070;0.9724;
-54.6000;0.4062;0.9675;
-54.3000;0.4062;0.9675;
-54.0000;0.4046;0.9650;
-53.7000;0.4070;0.9626;
-53.4000;0.4062;0.9700;
-53.1000;0.4111;0.9823;
-52.8000;0.4086;0.9700;
-52.5000;0.4086;0.9700;
-52.2000;0.4054;0.9576;
-51.9000;0.4037;0.9527;
-51.6000;0.4070;0.9626;
-51.3000;0.4062;0.9626;
-51.0000;0.4062;0.9626;
-50.7000;0.4062;0.9502;
-50.4000;0.4062;0.9502;
-50.1000;0.4037;0.9477;
-49.8000;0.4070;0.9527;
-49.5000;0.4005;0.9527;
-49.2000;0.4086;0.9675;
-48.9000;0.4070;0.9675;
-48.6000;0.4062;0.9675;
-48.3000;0.4119;0.9724;
-48.0000;0.4029;0.9502;
-47.7000;0.4054;0.9527;
-47.4000;0.4078;0.9502;
-47.1000;0.4046;0.9428;
-46.8000;0.4062;0.9502;
-46.5000;0.4062;0.9477;
-46.2000;0.4054;0.9477;
-45.9000;0.4005;0.9453;
-45.6000;0.4029;0.9502;
-45.3000;0.4070;0.9700;
-45.0000;0.4078;0.9724;
-44.7000;0.4078;0.9700;
-44.4000;0.4062;0.9576;
-44.1000;0.4078;0.9626;
-43.8000;0.4070;0.9700;
-43.5000;0.4054;0.9675;
-43.2000;0.4094;0.9749;
-42.9000;0.4062;0.9626;
-42.6000;0.4062;0.9650;
-42.3000;0.4062;0.9650;
-42.0000;0.4046;0.9675;
-41.7000;0.4070;0.9700;
-41.4000;0.4054;0.9724;
-41.1000;0.4029;0.9700;
-40.8000;0.4054;0.9774;
-40.5000;0.4054;0.9823;
-40.2000;0.4103;0.9848;
-39.9000;0.4054;0.9700;
-39.6000;0.4062;0.9626;
-39.3000;0.4062;0.9626;
-39.0000;0.4070;0.9601;
-38.7000;0.4078;0.9576;
-38.4000;0.4070;0.9626;
-38.1000;0.4029;0.9552;
-37.8000;0.4070;0.9626;
-37.5000;0.4054;0.9601;
-37.2000;0.4078;0.9675;
-36.9000;0.4046;0.9700;
-36.6000;0.4021;0.9626;
-36.3000;0.4037;0.9576;
-36.0000;0.4037;0.9601;
-35.7000;0.4037;0.9626;
-35.4000;0.4046;0.9626;
-35.1000;0.4046;0.9724;
-34.8000;0.4062;0.9774;
-34.5000;0.4054;0.9749;
-34.2000;0.4046;0.9700;
-33.9000;0.4103;0.9823;
-33.6000;0.4070;0.9774;
-33.3000;0.4054;0.9749;
-33.0000;0.4127;0.9996;
-32.7000;0.4046;0.9848;
-32.4000;0.4070;0.9922;
-32.1000;0.4046;0.9946;
-31.8000;0.4054;0.9897;
-31.5000;0.4046;0.9798;
-31.2000;0.4062;0.9700;
-30.9000;0.4029;0.9601;
-30.6000;0.4086;0.9626;
-30.3000;0.3964;0.9255;
-30.0000;0.4021;0.9428;
-29.7000;0.4062;0.9527;
-29.4000;0.4086;0.9502;
-29.1000;0.4078;0.9552;
-28.8000;0.4078;0.9601;
-28.5000;0.4078;0.9675;
-28.2000;0.4070;0.9675;
-27.9000;0.4070;0.9724;
-27.6000;0.4070;0.9626;
-27.3000;0.4062;0.9576;
-27.0000;0.4062;0.9552;
-26.7000;0.4070;0.9552;
-26.4000;0.4086;0.9601;
-26.1000;0.4054;0.9477;
-25.8000;0.4005;0.9305;
-25.5000;0.4037;0.9354;
-25.2000;0.4054;0.9403;
-24.9000;0.4062;0.9477;
-24.6000;0.4062;0.9576;
-24.3000;0.4037;0.9552;
-24.0000;0.4062;0.9675;
-23.7000;0.4054;0.9774;
-23.4000;0.4054;0.9798;
-23.1000;0.4062;0.9798;
-22.8000;0.4143;1.0020;
-22.5000;0.4078;0.9823;
-22.2000;0.4029;0.9724;
-21.9000;0.4086;0.9823;
-21.6000;0.4070;0.9774;
-21.3000;0.4054;0.9724;
-21.0000;0.4143;0.9922;
-20.7000;0.4029;0.9576;
-20.4000;0.4062;0.9576;
-20.1000;0.4070;0.9552;
-19.8000;0.4070;0.9552;
-19.5000;0.4054;0.9453;
-19.2000;0.4086;0.9552;
-18.9000;0.4070;0.9527;
-18.6000;0.4070;0.9527;
-18.3000;0.4062;0.9477;
-18.0000;0.4062;0.9453;
-17.7000;0.4054;0.9601;
-17.4000;0.4070;0.9675;
-17.1000;0.4086;0.9774;
-16.8000;0.4054;0.9774;
-16.5000;0.4070;0.9749;
-16.2000;0.4062;0.9650;
-15.9000;0.4070;0.9774;
-15.6000;0.4062;0.9848;
-15.3000;0.4054;0.9848;
-15.0000;0.4054;0.9774;
-14.7000;0.4054;0.9872;
-14.4000;0.4086;0.9897;
-14.1000;0.4062;0.9872;
-13.8000;0.4078;0.9823;
-13.5000;0.4062;0.9798;
-13.2000;0.4062;0.9798;
-12.9000;0.4046;0.9774;
-12.6000;0.4062;0.9922;
-12.3000;0.4078;0.9946;
-12.0000;0.4062;0.9848;
-11.7000;0.4070;0.9823;
-11.4000;0.4070;0.9774;
-11.1000;0.4086;0.9848;
-10.8000;0.4021;0.9626;
-10.5000;0.4054;0.9650;
-10.2000;0.4054;0.9601;
-9.9000;0.4054;0.9576;
-9.6000;0.4070;0.9675;
-9.3000;0.4070;0.9774;
-9.0000;0.4078;0.9848;
-8.7000;0.4078;0.9897;
-8.4000;0.4070;0.9823;
-8.1000;0.4070;0.9798;
-7.8000;0.4062;0.9897;
-7.5000;0.4070;0.9872;
-7.2000;0.4086;0.9996;
-6.9000;0.4078;0.9848;
-6.6000;0.4070;0.9798;
-6.3000;0.4086;0.9897;
-6.0000;0.4062;0.9774;
-5.7000;0.4070;0.9823;
-5.4000;0.4021;0.9700;
-5.1000;0.4062;0.9798;
-4.8000;0.4062;0.9724;
-4.5000;0.4054;0.9650;
-4.2000;0.4103;0.9774;
-3.9000;0.4070;0.9650;
-3.6000;0.4054;0.9675;
-3.3000;0.4062;0.9675;
-3.0000;0.4054;0.9700;
-2.7000;0.4062;0.9749;
-2.4000;0.4005;0.9601;
-2.1000;0.4046;0.9576;
-1.8000;0.4046;0.9576;
-1.5000;0.4037;0.9502;
-1.2000;0.4062;0.9626;
-0.9000;0.4062;0.9626;
-0.6000;0.4021;0.9552;
-0.3000;0.3980;0.9403;
0.0000;0.3980;0.9403;
0.3000;0.4176;0.9700;
0.6000;0.4379;0.9996;
0.9000;0.4534;1.0341;
1.2000;0.4624;1.0613;
1.5000;0.4705;1.0909;
1.8000;0.4778;1.1106;
2.1000;0.4835;1.1279;
2.4000;0.4941;1.1600;
2.7000;0.4908;1.1649;
3.0000;0.4965;1.1822;
3.3000;0.4982;1.1921;
3.6000;0.4974;1.1946;
3.9000;0.4990;1.1970;
4.2000;0.5039;1.2118;
4.5000;0.5079;1.2168;
4.8000;0.5079;1.2291;
5.1000;0.5079;1.2291;
5.4000;0.5071;1.2242;
5.7000;0.5096;1.2266;
6.0000;0.5136;1.2340;
6.3000;0.5144;1.2217;
6.6000;0.5153;1.2192;
6.9000;0.5177;1.2365;
7.2000;0.5161;1.2390;
7.5000;0.5153;1.2464;
7.8000;0.5177;1.2538;
8.1000;0.5177;1.2538;
8.4000;0.5193;1.2538;
8.7000;0.5193;1.2538;
9.0000;0.5201;1.2439;
9.3000;0.5218;1.2340;
9.6000;0.5234;1.2365;
9.9000;0.5242;1.2365;
10.2000;0.5226;1.2340;
10.5000;0.5258;1.2439;
10.8000;0.5234;1.2439;
11.1000;0.5258;1.2489;
11.4000;0.5275;1.2563;
11.7000;0.5267;1.2489;
12.0000;0.5283;1.2563;
12.3000;0.5267;1.2489;
12.6000;0.5299;1.2612;
12.9000;0.5299;1.2612;
13.2000;0.5291;1.2587;
13.5000;0.5315;1.2686;
13.8000;0.5307;1.2637;
14.1000;0.5315;1.2587;
14.4000;0.5315;1.2587;
14.7000;0.5364;1.2785;
15.0000;0.5340;1.2637;
15.3000;0.5372;1.2686;
15.6000;0.5332;1.2563;
15.9000;0.5324;1.2513;
16.2000;0.5332;1.2513;
16.5000;0.5356;1.2563;
16.8000;0.5389;1.2711;
17.1000;0.5332;1.2513;
17.4000;0.5364;1.2563;
17.7000;0.5364;1.2489;
18.0000;0.5356;1.2464;
18.3000;0.5381;1.2489;
18.6000;0.5372;1.2587;
18.9000;0.5364;1.2538;
19.2000;0.5421;1.2686;
19.5000;0.5372;1.2612;
19.8000;0.5364;1.2637;
20.1000;0.5397;1.2661;
20.4000;0.5397;1.2661;
20.7000;0.5397;1.2785;
21.0000;0.5413;1.2834;
21.3000;0.5405;1.2834;
21.6000;0.5389;1.2785;
21.9000;0.5405;1.2809;
22.2000;0.5405;1.2735;
22.5000;0.5397;1.2686;
22.8000;0.5397;1.2637;
23.1000;0.5405;1.2661;
23.4000;0.5421;1.2538;
23.7000;0.5397;1.2464;
24.0000;0.5389;1.2464;
24.3000;0.5413;1.2538;
24.6000;0.5413;1.2513;
24.9000;0.5413;1.2513;
25.2000;0.5429;1.2513;
25.5000;0.5405;1.2513;
25.8000;0.5421;1.2612;
26.1000;0.5438;1.2637;
26.4000;0.5413;1.2661;
26.7000;0.5421;1.2637;
27.0000;0.5446;1.2612;
27.3000;0.5429;1.2513;
27.6000;0.5446;1.2563;
27.9000;0.5413;1.2513;
28.2000;0.5372;1.2316;
28.5000;0.5454;1.2513;
28.8000;0.5421;1.2439;
29.1000;0.5429;1.2513;
29.4000;0.5446;1.2612;
29.7000;0.5438;1.2711;
30.0000;0.5438;1.2686;
30.3000;0.5454;1.2760;
30.6000;0.5429;1.2637;
30.9000;0.5446;1.2637;
31.2000;0.5438;1.2637;
31.5000;0.5454;1.2735;
31.8000;0.5454;1.2735;
32.1000;0.5462;1.2637;
32.4000;0.5470;1.2661;
32.7000;0.5478;1.2563;
33.0000;0.5462;1.2637;
33.3000;0.5446;1.2637;
33.6000;0.5478;1.2612;
33.9000;0.5470;1.2661;
34.2000;0.5462;1.2637;
34.5000;0.5462;1.2637;
34.8000;0.5454;1.2513;
35.1000;0.5462;1.2538;
35.4000;0.5462;1.2563;
35.7000;0.5454;1.2587;
36.0000;0.5470;1.2735;
36.3000;0.5470;1.2686;
36.6000;0.5462;1.2612;
36.9000;0.5495;1.2711;
37.2000;0.5462;1.2587;
37.5000;0.5462;1.2686;
37.8000;0.5454;1.2637;
38.1000;0.5438;1.2661;
38.4000;0.5511;1.2809;
38.7000;0.5462;1.2661;
39.0000;0.5495;1.2735;
39.3000;0.5470;1.2785;
39.6000;0.5462;1.2785;
39.9000;0.5486;1.2809;
40.2000;0.5486;1.2760;
40.5000;0.5495;1.2612;
40.8000;0.5486;1.2563;
41.1000;0.5446;1.2563;
41.4000;0.5576;1.2809;
41.7000;0.5486;1.2538;
42.0000;0.5413;1.2390;
42.3000;0.5454;1.2513;
42.6000;0.5486;1.2538;
42.9000;0.5478;1.2489;
43.2000;0.5454;1.2563;
43.5000;0.5462;1.2612;
43.8000;0.5478;1.2637;
44.1000;0.5486;1.2612;
44.4000;0.5470;1.2563;
44.7000;0.5486;1.2711;
45.0000;0.5543;1.2809;
45.3000;0.5446;1.2513;
45.6000;0.5478;1.2538;
45.9000;0.5462;1.2489;
46.2000;0.5470;1.2538;
46.5000;0.5470;1.2612;
46.8000;0.5511;1.2735;
47.1000;0.5478;1.2637;
47.4000;0.5429;1.2464;
47.7000;0.5486;1.2686;
48.0000;0.5470;1.2637;
48.3000;0.5495;1.2809;
48.6000;0.5495;1.2760;
48.9000;0.5470;1.2711;
49.2000;0.5503;1.2760;
49.5000;0.5495;1.2735;
49.8000;0.5486;1.2735;
50.1000;0.5503;1.2785;
50.4000;0.5495;1.2637;
50.7000;0.5486;1.2612;
51.0000;0.5495;1.2637;
51.3000;0.5495;1.2735;
51.6000;0.5519;1.2760;
51.9000;0.5495;1.2661;
52.2000;0.5438;1.2464;
52.5000;0.5478;1.2513;
52.8000;0.5421;1.2439;
53.1000;0.5470;1.2563;
53.4000;0.5486;1.2538;
53.7000;0.5478;1.2489;
54.0000;0.5486;1.2513;
54.3000;0.5503;1.2538;
54.6000;0.5511;1.2612;
54.9000;0.5560;1.2711;
55.2000;0.5486;1.2587;
55.5000;0.5511;1.2735;
55.8000;0.5503;1.2760;
56.1000;0.5503;1.2834;
56.4000;0.5478;1.2735;
56.7000;0.5478;1.2711;
57.0000;0.5495;1.2711;
57.3000;0.5495;1.2760;
57.6000;0.5503;1.2735;
57.9000;0.5511;1.2711;
58.2000;0.5519;1.2711;
58.5000;0.5511;1.2612;
58.8000;0.5527;1.2637;
59.1000;0.5503;1.2587;
59.4000;0.5503;1.2661;
59.7000;0.5511;1.2587;
60.0000;0.5503;1.2587;
60.3000;0.5519;1.2637;
60.6000;0.5478;1.2538;
60.9000;0.5495;1.2563;
61.2000;0.5527;1.2637;
61.5000;0.5503;1.2637;
61.8000;0.5543;1.2785;
62.1000;0.5495;1.2711;
62.4000;0.5503;1.2661;
62.7000;0.5503;1.2686;
63.0000;0.5519;1.2661;
63.3000;0.5535;1.2661;
63.6000;0.5495;1.2587;
63.9000;0.5503;1.2637;
64.2000;0.5519;1.2637;
64.5000;0.5503;1.2587;
64.8000;0.5560;1.2735;
65.1000;0.5503;1.2513;
65.4000;0.5511;1.2563;
65.7000;0.5495;1.2587;
66.0000;0.5527;1.2735;
66.3000;0.5503;1.2735;
66.6000;0.5511;1.2686;
66.9000;0.5503;1.2711;
67.2000;0.5478;1.2686;
67.5000;0.5511;1.2711;
67.8000;0.5511;1.2637;
68.1000;0.5503;1.2735;
68.4000;0.5446;1.2587;
68.7000;0.5519;1.2785;
69.0000;0.5519;1.2760;
69.3000;0.5527;1.2859;
69.6000;0.5592;1.3032;
69.9000;0.5511;1.2735;
70.2000;0.5543;1.2809;
70.5000;0.5503;1.2637;
70.8000;0.5495;1.2661;
71.1000;0.5511;1.2637;
71.4000;0.5438;1.2464;
71.7000;0.5519;1.2760;
72.0000;0.5519;1.2637;
72.3000;0.5495;1.2538;
72.6000;0.5495;1.2464;
72.9000;0.5527;1.2587;
73.2000;0.5495;1.2464;
73.5000;0.5511;1.2464;
73.8000;0.5495;1.2390;
74.1000;0.5495;1.2340;
74.4000;0.5511;1.2390;
74.7000;0.5511;1.2415;
75.0000;0.5503;1.2538;
75.3000;0.5511;1.2538;
75.6000;0.5503;1.2612;
75.9000;0.5551;1.2612;
76.2000;0.5503;1.2489;
76.5000;0.5486;1.2464;
76.8000;0.5503;1.2513;
77.1000;0.5511;1.2538;
77.4000;0.5503;1.2439;
77.7000;0.5486;1.2340;
78.0000;0.5519;1.2464;
78.3000;0.5503;1.2489;
78.6000;0.5511;1.2439;
78.9000;0.5495;1.2439;
79.2000;0.5503;1.2489;
79.5000;0.5511;1.2464;
79.8000;0.5495;1.2365;
80.1000;0.5592;1.2587;
80.4000;0.5495;1.2365;
80.7000;0.5519;1.2390;
81.0000;0.5511;1.2365;
81.3000;0.5503;1.2365;
81.6000;0.5495;1.2316;
81.9000;0.5511;1.2340;
82.2000;0.5511;1.2266;
82.5000;0.5527;1.2266;
82.8000;0.5519;1.2266;
83.1000;0.5551;1.2390;
83.4000;0.5519;1.2365;
83.7000;0.5519;1.2513;
84.0000;0.5519;1.2513;
84.3000;0.5503;1.2489;
84.6000;0.5519;1.2538;
84.9000;0.5543;1.2637;
85.2000;0.5511;1.2563;
85.5000;0.5503;1.2563;
85.8000;0.5625;1.2883;
86.1000;0.5511;1.2612;
86.4000;0.5438;1.2415;
86.7000;0.5543;1.2587;
87.0000;0.5503;1.2587;
87.3000;0.5511;1.2686;
87.6000;0.5543;1.2809;
87.9000;0.5454;1.2587;
88.2000;0.5519;1.2735;
88.5000;0.5568;1.2859;
88.8000;0.5478;1.2563;
89.1000;0.5519;1.2686;
89.4000;0.5519;1.2735;
89.7000;0.5527;1.2760;
90.0000;0.5568;1.2883;
90.3000;0.5527;1.2760;
90.6000;0.5511;1.2661;
90.9000;0.5495;1.2661;
91.2000;0.5535;1.2711;
91.5000;0.5519;1.2711;
91.8000;0.5519;1.2735;
92.1000;0.5486;1.2661;
92.4000;0.5535;1.2760;
92.7000;0.5511;1.2735;
93.0000;0.5478;1.2587;
93.3000;0.5454;1.2538;
93.6000;0.5495;1.2637;
93.9000;0.5527;1.2612;
94.2000;0.5527;1.2735;
94.5000;0.5511;1.2661;
94.8000;0.5527;1.2612;
95.1000;0.5535;1.2661;
95.4000;0.5478;1.2563;
95.7000;0.5511;1.2711;
96.0000;0.5527;1.2686;
96.3000;0.5511;1.2661;
96.6000;0.5527;1.2686;
96.9000;0.5511;1.2612;
97.2000;0.5503;1.2513;
97.5000;0.5527;1.2439;
97.8000;0.5535;1.2563;
98.1000;0.5543;1.2612;
98.4000;0.5527;1.2538;
98.7000;0.5519;1.2563;
99.0000;0.5454;1.2415;
99.3000;0.5503;1.2538;
99.6000;0.5519;1.2637;
99.9000;0.5503;1.2612;
100.2000;0.5503;1.2735;
100.5000;0.5503;1.2735;
100.8000;0.5511;1.2711;
101.1000;0.5495;1.2661;
101.4000;0.5527;1.2735;
101.7000;0.5519;1.2637;
102.0000;0.5503;1.2612;
102.3000;0.5511;1.2711;
102.6000;0.5511;1.2785;
102.9000;0.5503;1.2760;
103.2000;0.5503;1.2711;
103.5000;0.5495;1.2711;
103.8000;0.5495;1.2711;
104.1000;0.5495;1.2785;
104.4000;0.5519;1.2859;
104.7000;0.5535;1.2859;
105.0000;0.5503;1.2809;
105.3000;0.5511;1.2760;
105.6000;0.5503;1.2760;
105.9000;0.5503;1.2661;
106.2000;0.5527;1.2711;
106.5000;0.5535;1.2735;
106.8000;0.5527;1.2760;
107.1000;0.5560;1.2809;
107.4000;0.5503;1.2686;
107.7000;0.5486;1.2711;
108.0000;0.5527;1.2760;
108.3000;0.5535;1.2809;
108.6000;0.5543;1.2809;
108.9000;0.5495;1.2637;
109.2000;0.5551;1.2711;
109.5000;0.5527;1.2637;
109.8000;0.5495;1.2538;
110.1000;0.5503;1.2637;
110.4000;0.5503;1.2735;
110.7000;0.5486;1.2686;
111.0000;0.5527;1.2711;
111.3000;0.5535;1.2735;
111.6000;0.5519;1.2686;
111.9000;0.5576;1.2883;
112.2000;0.5535;1.2686;
112.5000;0.5503;1.2711;
112.8000;0.5511;1.2686;
113.1000;0.5478;1.2563;
113.4000;0.5503;1.2563;
113.7000;0.5519;1.2563;
114.0000;0.5462;1.2415;
114.3000;0.5527;1.2612;
114.6000;0.5503;1.2612;
114.9000;0.5543;1.2760;
115.2000;0.5503;1.2612;
115.5000;0.5511;1.2637;
115.8000;0.5519;1.2563;
116.1000;0.5470;1.2439;
116.4000;0.5470;1.2464;
116.7000;0.5503;1.2538;
117.0000;0.5511;1.2464;
117.3000;0.5519;1.2464;
117.6000;0.5535;1.2439;
117.9000;0.5511;1.2390;
118.2000;0.5527;1.2365;
118.5000;0.5535;1.2365;
118.8000;0.5519;1.2266;
119.1000;0.5519;1.2242;
119.4000;0.5495;1.2118;
119.7000;0.5519;1.2192;
120.0000;0.5478;1.2143;
120.3000;0.5527;1.2266;
120.6000;0.5511;1.2242;
120.9000;0.5503;1.2168;
121.2000;0.5535;1.2291;
121.5000;0.5511;1.2291;
121.8000;0.5503;1.2340;
122.1000;0.5519;1.2513;
122.4000;0.5519;1.2464;
122.7000;0.5511;1.2439;
123.0000;0.5527;1.2513;
123.3000;0.5527;1.2489;
123.6000;0.5535;1.2489;
123.9000;0.5527;1.2489;
124.2000;0.5543;1.2489;
124.5000;0.5519;1.2415;
124.8000;0.5519;1.2390;
125.1000;0.5495;1.2390;
125.4000;0.5503;1.2415;
125.7000;0.5503;1.2439;
126.0000;0.5519;1.2513;
126.3000;0.5511;1.2563;
126.6000;0.5527;1.2587;
126.9000;0.5527;1.2612;
127.2000;0.5519;1.2587;
127.5000;0.5527;1.2661;
127.8000;0.5519;1.2612;
128.1000;0.5543;1.2637;
128.4000;0.5511;1.2513;
128.7000;0.5527;1.2513;
129.0000;0.5535;1.2464;
129.3000;0.5519;1.2538;
129.6000;0.5535;1.2661;
129.9000;0.5543;1.2637;
130.2000;0.5519;1.2563;
130.5000;0.5543;1.2661;
130.8000;0.5519;1.2612;
131.1000;0.5519;1.2587;
131.4000;0.5519;1.2686;
131.7000;0.5478;1.2513;
132.0000;0.5470;1.2439;
132.3000;0.5511;1.2587;
132.6000;0.5503;1.2563;
132.9000;0.5495;1.2415;
133.2000;0.5511;1.2390;
133.5000;0.5511;1.2464;
133.8000;0.5527;1.2563;
134.1000;0.5543;1.2661;
134.4000;0.5535;1.2661;
134.7000;0.5527;1.2612;
135.0000;0.5495;1.2587;
135.3000;0.5511;1.2637;
135.6000;0.5519;1.2760;
135.9000;0.5519;1.2809;
136.2000;0.5519;1.2686;
136.5000;0.5568;1.2735;
136.8000;0.5486;1.2637;
137.1000;0.5519;1.2686;
137.4000;0.5519;1.2661;
137.7000;0.5503;1.2661;
138.0000;0.5511;1.2661;
138.3000;0.5527;1.2686;
138.6000;0.5519;1.2587;
138.9000;0.5519;1.2563;
139.2000;0.5478;1.2464;
139.5000;0.5519;1.2489;
139.8000;0.5519;1.2538;
140.1000;0.5511;1.2513;
140.4000;0.5543;1.2563;
140.7000;0.5519;1.2489;
141.0000;0.5495;1.2538;
141.3000;0.5486;1.2538;
141.6000;0.5486;1.2538;
141.9000;0.5511;1.2612;
142.2000;0.5519;1.2489;
142.5000;0.5495;1.2489;
142.8000;0.5519;1.2563;
143.1000;0.5503;1.2489;
143.4000;0.5527;1.2563;
143.7000;0.5527;1.2563;
144.0000;0.5519;1.2612;
144.3000;0.5592;1.2809;
144.6000;0.5535;1.2612;
144.9000;0.5527;1.2563;
145.2000;0.5527;1.2390;
145.5000;0.5535;1.2415;
145.8000;0.5543;1.2489;
146.1000;0.5527;1.2587;
146.4000;0.5519;1.2513;
146.7000;0.5486;1.2464;
147.0000;0.5527;1.2587;
147.3000;0.5495;1.2513;
147.6000;0.5519;1.2563;
147.9000;0.5511;1.2513;
148.2000;0.5454;1.2464;
148.5000;0.5503;1.2538;
148.8000;0.5470;1.2415;
149.1000;0.5503;1.2538;
149.4000;0.5527;1.2637;
149.7000;0.5511;1.2587;
150.0000;0.5519;1.2587;
150.3000;0.5511;1.2612;
150.6000;0.5511;1.2711;
150.9000;0.5519;1.2711;
151.2000;0.5527;1.2612;
151.5000;0.5503;1.2538;
151.8000;0.5511;1.2587;
152.1000;0.5535;1.2563;
152.4000;0.5527;1.2587;
152.7000;0.5527;1.2587;
153.0000;0.5503;1.2637;
153.3000;0.5503;1.2711;
153.6000;0.5511;1.2711;
153.9000;0.5511;1.2735;
154.2000;0.5519;1.2661;
154.5000;0.5495;1.2711;
154.8000;0.5527;1.2785;
155.1000;0.5519;1.2809;
155.4000;0.5511;1.2760;
155.7000;0.5511;1.2834;
156.0000;0.5543;1.2834;
156.3000;0.5519;1.2711;
156.6000;0.5511;1.2661;
156.9000;0.5535;1.2711;
157.2000;0.5527;1.2612;
157.5000;0.5470;1.2513;
157.8000;0.5511;1.2513;
158.1000;0.5519;1.2538;
158.4000;0.5527;1.2538;
158.7000;0.5511;1.2637;
159.0000;0.5535;1.2563;
159.3000;0.5478;1.2538;
159.6000;0.5511;1.2587;
159.9000;0.5527;1.2538;
160.2000;0.5568;1.2686;
160.5000;0.5519;1.2587;
160.8000;0.5511;1.2538;
161.1000;0.5511;1.2563;
161.4000;0.5568;1.2686;
161.7000;0.5535;1.2711;
162.0000;0.5527;1.2711;
162.3000;0.5503;1.2661;
162.6000;0.5543;1.2785;
162.9000;0.5584;1.2883;
163.2000;0.5535;1.2686;
163.5000;0.5527;1.2661;
163.8000;0.5543;1.2760;
164.1000;0.5543;1.2785;
164.4000;0.5535;1.2834;
164.7000;0.5535;1.2834;
165.0000;0.5527;1.2859;
165.3000;0.5519;1.2933;
165.6000;0.5527;1.2933;
165.9000;0.5543;1.3056;
166.2000;0.5462;1.2834;
166.5000;0.5592;1.3032;
166.8000;0.5568;1.2859;
167.1000;0.5535;1.2686;
167.4000;0.5519;1.2735;
167.7000;0.5527;1.2735;
168.0000;0.5543;1.2735;
168.3000;0.5535;1.2735;
168.6000;0.5511;1.2686;
168.9000;0.5527;1.2637;
169.2000;0.5535;1.2686;
169.5000;0.5527;1.2735;
169.8000;0.5527;1.2859;
170.1000;0.5527;1.2859;
170.4000;0.5503;1.2883;
170.7000;0.5446;1.2735;
171.0000;0.5527;1.2785;
171.3000;0.5511;1.2711;
171.6000;0.5535;1.2637;
171.9000;0.5527;1.2587;
172.2000;0.5519;1.2538;
172.5000;0.5519;1.2538;
172.8000;0.5527;1.2538;
173.1000;0.5519;1.2538;
173.4000;0.5511;1.2489;
173.7000;0.5519;1.2415;
174.0000;0.5511;1.2489;
174.3000;0.5519;1.2563;
174.6000;0.5527;1.2538;
174.9000;0.5511;1.2538;
175.2000;0.5503;1.2513;
175.5000;0.5527;1.2661;
175.8000;0.5527;1.2711;
176.1000;0.5503;1.2587;
176.4000;0.5503;1.2612;
176.7000;0.5495;1.2538;
177.0000;0.5495;1.2538;
177.3000;0.5495;1.2513;
177.6000;0.5551;1.2637;
177.9000;0.5527;1.2637;
178.2000;0.5527;1.2637;
178.5000;0.5478;1.2538;
178.8000;0.5535;1.2612;
179.1000;0.5519;1.2637;
179.4000;0.5543;1.2735;
179.7000;0.5511;1.2735;
180.0000;0.5511;1.2760;
180.3000;0.5511;1.2735;
180.6000;0.5519;1.2760;
180.9000;0.5511;1.2711;
181.2000;0.5543;1.2785;
181.5000;0.5535;1.2809;
181.8000;0.5454;1.2637;
182.1000;0.5519;1.2711;
182.4000;0.5511;1.2612;
182.7000;0.5486;1.2587;
183.0000;0.5478;1.2587;
183.3000;0.5511;1.2612;
183.6000;0.5527;1.2538;
183.9000;0.5519;1.2390;
184.2000;0.5519;1.2439;
184.5000;0.5527;1.2439;
184.8000;0.5543;1.2464;
185.1000;0.5486;1.2316;
185.4000;0.5519;1.2340;
185.7000;0.5519;1.2266;
186.0000;0.5486;1.2242;
186.3000;0.5535;1.2439;
186.6000;0.5503;1.2439;
186.9000;0.5519;1.2390;
187.2000;0.5519;1.2439;
187.5000;0.5511;1.2489;
187.8000;0.5527;1.2513;
188.1000;0.5519;1.2563;
188.4000;0.5543;1.2686;
188.7000;0.5535;1.2686;
189.0000;0.5543;1.2686;
189.3000;0.5511;1.2637;
189.6000;0.5503;1.2637;
189.9000;0.5527;1.2711;
190.2000;0.5535;1.2587;
190.5000;0.5527;1.2637;
190.8000;0.5519;1.2538;
191.1000;0.5527;1.2464;
191.4000;0.5495;1.2464;
191.7000;0.5519;1.2538;
192.0000;0.5511;1.2612;
192.3000;0.5543;1.2686;
192.6000;0.5527;1.2637;
192.9000;0.5527;1.2587;
193.2000;0.5519;1.2538;
193.5000;0.5511;1.2513;
193.8000;0.5560;1.2637;
194.1000;0.5527;1.2587;
194.4000;0.5535;1.2661;
194.7000;0.5535;1.2612;
195.0000;0.5519;1.2489;
195.3000;0.5535;1.2365;
195.6000;0.5543;1.2415;
195.9000;0.5527;1.2415;
196.2000;0.5527;1.2464;
196.5000;0.5535;1.2513;
196.8000;0.5527;1.2489;
197.1000;0.5527;1.2513;
197.4000;0.5527;1.2513;
197.7000;0.5527;1.2513;
198.0000;0.5535;1.2538;
198.3000;0.5535;1.2538;
198.6000;0.5527;1.2612;
198.9000;0.5527;1.2661;
199.2000;0.5519;1.2735;
199.5000;0.5551;1.2809;
199.8000;0.5503;1.2612;
200.1000;0.5519;1.2637;
200.4000;0.5519;1.2563;
200.7000;0.5568;1.2711;
201.0000;0.5503;1.2587;
201.3000;0.5527;1.2587;
201.6000;0.5535;1.2563;
201.9000;0.5535;1.2538;
202.2000;0.5486;1.2415;
202.5000;0.5535;1.2439;
202.8000;0.5527;1.2439;
203.1000;0.5511;1.2513;
203.4000;0.5535;1.2661;
203.7000;0.5519;1.2661;
204.0000;0.5495;1.2612;
204.3000;0.5470;1.2538;
204.6000;0.5592;1.2834;
204.9000;0.5486;1.2587;
205.2000;0.5519;1.2661;
205.5000;0.5576;1.2834;
205.8000;0.5486;1.2637;
206.1000;0.5511;1.2735;
206.4000;0.5527;1.2711;
206.7000;0.5625;1.2883;
207.0000;0.5527;1.2464;
207.3000;0.5535;1.2415;
207.6000;0.5535;1.2415;
207.9000;0.5527;1.2415;
208.2000;0.5535;1.2489;
208.5000;0.5543;1.2439;
208.8000;0.5543;1.2390;
209.1000;0.5527;1.2415;
209.4000;0.5519;1.2587;
209.7000;0.5429;1.2316;
210.0000;0.5486;1.2439;
210.3000;0.5519;1.2538;
210.6000;0.5511;1.2563;
210.9000;0.5535;1.2513;
211.2000;0.5527;1.2464;
211.5000;0.5568;1.2538;
211.8000;0.5486;1.2365;
212.1000;0.5543;1.2415;
212.4000;0.5527;1.2538;
212.7000;0.5519;1.2563;
213.0000;0.5535;1.2637;
213.3000;0.5535;1.2711;
213.6000;0.5519;1.2661;
213.9000;0.5527;1.2637;
214.2000;0.5519;1.2637;
214.5000;0.5527;1.2612;
214.8000;0.5543;1.2661;
215.1000;0.5519;1.2612;
215.4000;0.5519;1.2612;
215.7000;0.5511;1.2711;
216.0000;0.5527;1.2760;
216.3000;0.5519;1.2735;
216.6000;0.5503;1.2661;
216.9000;0.5584;1.2785;
217.2000;0.5543;1.2637;
217.5000;0.5519;1.2587;
217.8000;0.5527;1.2587;
218.1000;0.5503;1.2563;
218.4000;0.5535;1.2563;
218.7000;0.5446;1.2316;
219.0000;0.5511;1.2390;
219.3000;0.5527;1.2390;
219.6000;0.5503;1.2316;
219.9000;0.5535;1.2489;
220.2000;0.5511;1.2464;
220.5000;0.5503;1.2489;
220.8000;0.5495;1.2464;
221.1000;0.5535;1.2563;
221.4000;0.5495;1.2513;
221.7000;0.5503;1.2513;
222.0000;0.5511;1.2563;
222.3000;0.5527;1.2637;
222.6000;0.5543;1.2661;
222.9000;0.5560;1.2637;
223.2000;0.5535;1.2563;
223.5000;0.5527;1.2637;
223.8000;0.5527;1.2538;
224.1000;0.5543;1.2587;
224.4000;0.5519;1.2538;
224.7000;0.5535;1.2563;
225.0000;0.5584;1.2711;
225.3000;0.5527;1.2489;
225.6000;0.5543;1.2612;
225.9000;0.5527;1.2637;
226.2000;0.5535;1.2637;
226.5000;0.5527;1.2686;
226.8000;0.5519;1.2612;
227.1000;0.5511;1.2513;
227.4000;0.5535;1.2513;
227.7000;0.5617;1.2711;
228.0000;0.5527;1.2538;
228.3000;0.5503;1.2489;
228.6000;0.5576;1.2612;
228.9000;0.5527;1.2538;
229.2000;0.5503;1.2489;
229.5000;0.5519;1.2612;
229.8000;0.5527;1.2563;
230.1000;0.5535;1.2587;
230.4000;0.5519;1.2538;
230.7000;0.5568;1.2612;
231.0000;0.5535;1.2538;
231.3000;0.5543;1.2513;
231.6000;0.5519;1.2464;
231.9000;0.5543;1.2489;
232.2000;0.5584;1.2686;
232.5000;0.5503;1.2489;
232.8000;0.5527;1.2513;
233.1000;0.5511;1.2538;
233.4000;0.5486;1.2464;
233.7000;0.5535;1.2489;
234.0000;0.5535;1.2439;
234.3000;0.5519;1.2365;
234.6000;0.5527;1.2340;
234.9000;0.5503;1.2340;
235.2000;0.5527;1.2390;
235.5000;0.5527;1.2365;
235.8000;0.5511;1.2291;
236.1000;0.5519;1.2316;
236.4000;0.5519;1.2266;
236.7000;0.5543;1.2316;
237.0000;0.5535;1.2266;
237.3000;0.5543;1.2415;
237.6000;0.5527;1.2365;
237.9000;0.5535;1.2439;
238.2000;0.5543;1.2439;
238.5000;0.5527;1.2489;
238.8000;0.5486;1.2340;
239.1000;0.5527;1.2439;
239.4000;0.5519;1.2513;
239.7000;0.5503;1.2464;
240.0000;0.5527;1.2464;
240.3000;0.5543;1.2415;
240.6000;0.5519;1.2340;
240.9000;0.5486;1.2291;
241.2000;0.5535;1.2489;
241.5000;0.5527;1.2489;
241.8000;0.5551;1.2513;
242.1000;0.5527;1.2365;
242.4000;0.5519;1.2439;
242.7000;0.5519;1.2365;
243.0000;0.5519;1.2439;
243.3000;0.5527;1.2340;
243.6000;0.5519;1.2242;
243.9000;0.5503;1.2217;
244.2000;0.5503;1.2143;
244.5000;0.5584;1.2390;
244.8000;0.5511;1.2242;
245.1000;0.5503;1.2217;
245.4000;0.5519;1.2291;
245.7000;0.5527;1.2365;
246.0000;0.5527;1.2415;
246.3000;0.5535;1.2415;
246.6000;0.5519;1.2415;
246.9000;0.5535;1.2439;
247.2000;0.5535;1.2489;
247.5000;0.5519;1.2439;
247.8000;0.5519;1.2439;
248.1000;0.5503;1.2316;
248.4000;0.5495;1.2316;
248.7000;0.5527;1.2291;
249.0000;0.5511;1.2217;
249.3000;0.5527;1.2316;
249.6000;0.5576;1.2439;
249.9000;0.5535;1.2439;
250.2000;0.5519;1.2439;
250.5000;0.5527;1.2489;
250.8000;0.5511;1.2464;
251.1000;0.5519;1.2415;
251.4000;0.5446;1.2168;
251.7000;0.5511;1.2365;
252.0000;0.5421;1.2143;
252.3000;0.5519;1.2415;
252.6000;0.5511;1.2340;
252.9000;0.5503;1.2266;
253.2000;0.5495;1.2291;
253.5000;0.5462;1.2266;
253.8000;0.5519;1.2439;
254.1000;0.5527;1.2489;
254.4000;0.5519;1.2489;
254.7000;0.5478;1.2340;
255.0000;0.5535;1.2439;
255.3000;0.5495;1.2316;
255.6000;0.5527;1.2365;
255.9000;0.5503;1.2340;
256.2000;0.5608;1.2587;
256.5000;0.5495;1.2365;
256.8000;0.5568;1.2513;
257.1000;0.5511;1.2365;
257.4000;0.5527;1.2415;
257.7000;0.5527;1.2415;
258.0000;0.5470;1.2291;
258.3000;0.5438;1.2118;
258.6000;0.5519;1.2340;
258.9000;0.5486;1.2340;
259.2000;0.5446;1.2217;
259.5000;0.5608;1.2464;
259.8000;0.5535;1.2266;
260.1000;0.5519;1.2192;
260.4000;0.5503;1.2192;
260.7000;0.5551;1.2365;
261.0000;0.5527;1.2390;
261.3000;0.5527;1.2538;
261.6000;0.5527;1.2489;
261.9000;0.5495;1.2365;
262.2000;0.5527;1.2390;
262.5000;0.5527;1.2390;
262.8000;0.5584;1.2563;
263.1000;0.5503;1.2439;
263.4000;0.5511;1.2538;
263.7000;0.5535;1.2563;
264.0000;0.5519;1.2439;
264.3000;0.5462;1.2266;
264.6000;0.5503;1.2365;
264.9000;0.5470;1.2365;
265.2000;0.5511;1.2365;
265.5000;0.5527;1.2415;
265.8000;0.5519;1.2439;
266.1000;0.5511;1.2415;
266.4000;0.5527;1.2439;
266.7000;0.5535;1.2415;
267.0000;0.5511;1.2365;
267.3000;0.5519;1.2464;
267.6000;0.5527;1.2513;
267.9000;0.5535;1.2661;
268.2000;0.5519;1.2686;
268.5000;0.5535;1.2661;
268.8000;0.5511;1.2612;
269.1000;0.5584;1.2760;
269.4000;0.5527;1.2563;
269.7000;0.5511;1.2439;
270.0000;0.5519;1.2390;
270.3000;0.5527;1.2439;
270.6000;0.5527;1.2439;
270.9000;0.5503;1.2390;
271.2000;0.5535;1.2464;
271.5000;0.5486;1.2365;
271.8000;0.5535;1.2513;
272.1000;0.5527;1.2415;
272.4000;0.5535;1.2390;
272.7000;0.5543;1.2415;
273.0000;0.5543;1.2390;
273.3000;0.5527;1.2316;
273.6000;0.5495;1.2291;
273.9000;0.5543;1.2390;
274.2000;0.5527;1.2316;
274.5000;0.5535;1.2365;
274.8000;0.5535;1.2340;
275.1000;0.5527;1.2242;
275.4000;0.5519;1.2192;
275.7000;0.5535;1.2168;
276.0000;0.5527;1.2168;
276.3000;0.5527;1.2266;
276.6000;0.5470;1.2020;
276.9000;0.5543;1.2291;
277.2000;0.5543;1.2365;
277.5000;0.5519;1.2291;
277.8000;0.5519;1.2316;
278.1000;0.5535;1.2340;
278.4000;0.5535;1.2415;
278.7000;0.5560;1.2464;
279.0000;0.5503;1.2266;
279.3000;0.5560;1.2340;
279.6000;0.5527;1.2291;
279.9000;0.5535;1.2266;
280.2000;0.5503;1.2192;
280.5000;0.5560;1.2340;
280.8000;0.5503;1.2168;
281.1000;0.5527;1.2192;
281.4000;0.5551;1.2217;
281.7000;0.5511;1.2266;
282.0000;0.5519;1.2316;
282.3000;0.5568;1.2513;
282.6000;0.5543;1.2390;
282.9000;0.5503;1.2217;
283.2000;0.5543;1.2316;
283.5000;0.5527;1.2365;
283.8000;0.5527;1.2365;
284.1000;0.5495;1.2291;
284.4000;0.5519;1.2340;
284.7000;0.5527;1.2415;
285.0000;0.5527;1.2365;
285.3000;0.5600;1.2563;
285.6000;0.5543;1.2513;
285.9000;0.5503;1.2489;
286.2000;0.5462;1.2439;
286.5000;0.5503;1.2563;
286.8000;0.5495;1.2538;
287.1000;0.5511;1.2415;
287.4000;0.5503;1.2340;
287.7000;0.5527;1.2340;
288.0000;0.5511;1.2340;
288.3000;0.5486;1.2291;
288.6000;0.5527;1.2340;
288.9000;0.5519;1.2168;
289.2000;0.5503;1.2118;
289.5000;0.5527;1.2217;
289.8000;0.5519;1.2168;
290.1000;0.5405;1.1970;
290.4000;0.5519;1.2242;
290.7000;0.5519;1.2242;
291.0000;0.5519;1.2192;
291.3000;0.5543;1.2242;
291.6000;0.5535;1.2266;
291.9000;0.5551;1.2291;
292.2000;0.5519;1.2217;
292.5000;0.5527;1.2217;
292.8000;0.5519;1.2192;
293.1000;0.5503;1.2118;
293.4000;0.5543;1.2217;
293.7000;0.5527;1.2192;
294.0000;0.5519;1.2242;
294.3000;0.5503;1.2266;
294.6000;0.5478;1.2242;
294.9000;0.5511;1.2291;
295.2000;0.5535;1.2390;
295.5000;0.5527;1.2316;
295.8000;0.5486;1.2291;
296.1000;0.5568;1.2439;
296.4000;0.5560;1.2390;
296.7000;0.5486;1.2266;
297.0000;0.5527;1.2390;
297.3000;0.5519;1.2415;
297.6000;0.5519;1.2464;
297.9000;0.5535;1.2464;
298.2000;0.5478;1.2365;
298.5000;0.5503;1.2464;
298.8000;0.5535;1.2464;
299.1000;0.5527;1.2587;
299.4000;0.5454;1.2439;
299.7000;0.5511;1.2439;
300.0000;0.5519;1.2365;
300.3000;0.5519;1.2266;
300.6000;0.5486;1.2168;
300.9000;0.5454;1.2168;
301.2000;0.5519;1.2266;
301.5000;0.5535;1.2266;
301.8000;0.5576;1.2316;
302.1000;0.5519;1.2340;
302.4000;0.5519;1.2365;
302.7000;0.5527;1.2439;
303.0000;0.5511;1.2365;
303.3000;0.5519;1.2489;
303.6000;0.5462;1.2415;
303.9000;0.5519;1.2489;
304.2000;0.5535;1.2489;
304.5000;0.5503;1.2390;
304.8000;0.5503;1.2439;
305.1000;0.5527;1.2513;
305.4000;0.5527;1.2538;
305.7000;0.5511;1.2587;
306.0000;0.5511;1.2563;
306.3000;0.5511;1.2538;
306.6000;0.5543;1.2563;
306.9000;0.5511;1.2390;
307.2000;0.5543;1.2464;
307.5000;0.5535;1.2365;
307.8000;0.5527;1.2390;
308.1000;0.5535;1.2489;
308.4000;0.5535;1.2489;
308.7000;0.5519;1.2439;
309.0000;0.5527;1.2365;
309.3000;0.5527;1.2365;
309.6000;0.5584;1.2439;
309.9000;0.5470;1.1946;
310.2000;0.5511;1.2020;
310.5000;0.5527;1.2118;
310.8000;0.5495;1.2069;
311.1000;0.5511;1.2143;
311.4000;0.5495;1.2094;
311.7000;0.5503;1.2192;
312.0000;0.5495;1.2217;
312.3000;0.5519;1.2291;
312.6000;0.5511;1.2217;
312.9000;0.5519;1.2316;
313.2000;0.5503;1.2365;
313.5000;0.5495;1.2464;
313.8000;0.5486;1.2439;
314.1000;0.5511;1.2439;
314.4000;0.5503;1.2390;
314.7000;0.5495;1.2390;
315.0000;0.5495;1.2464;
315.3000;0.5495;1.2489;
315.6000;0.5503;1.2489;
315.9000;0.5511;1.2489;
316.2000;0.5486;1.2415;
316.5000;0.5503;1.2415;
316.8000;0.5495;1.2415;
317.1000;0.5625;1.2711;
317.4000;0.5511;1.2390;
317.7000;0.5511;1.2415;
318.0000;0.5495;1.2316;
318.3000;0.5519;1.2340;
318.6000;0.5527;1.2390;
318.9000;0.5535;1.2464;
319.2000;0.5511;1.2439;
319.5000;0.5519;1.2489;
319.8000;0.5495;1.2439;
320.1000;0.5503;1.2538;
320.4000;0.5511;1.2612;
320.7000;0.5511;1.2587;
321.0000;0.5527;1.2637;
321.3000;0.5600;1.2809;
321.6000;0.5527;1.2686;
321.9000;0.5470;1.2661;
322.2000;0.5478;1.2637;
322.5000;0.5535;1.2760;
322.8000;0.5511;1.2612;
323.1000;0.5527;1.2612;
323.4000;0.5519;1.2538;
323.7000;0.5551;1.2563;
324.0000;0.5535;1.2538;
324.3000;0.5617;1.2686;
324.6000;0.5543;1.2563;
324.9000;0.5519;1.2513;
325.2000;0.5454;1.2340;
325.5000;0.5486;1.2489;
325.8000;0.5527;1.2637;
326.1000;0.5462;1.2365;
326.4000;0.5527;1.2489;
326.7000;0.5503;1.2513;
327.0000;0.5511;1.2563;
327.3000;0.5519;1.2587;
327.6000;0.5519;1.2587;
327.9000;0.5495;1.2563;
328.2000;0.5519;1.2538;
328.5000;0.5503;1.2538;
328.8000;0.5519;1.2513;
329.1000;0.5486;1.2415;
329.4000;0.5527;1.2489;
329.7000;0.5527;1.2464;
330.0000;0.5527;1.2489;
330.3000;0.5527;1.2464;
330.6000;0.5478;1.2365;
330.9000;0.5519;1.2365;
331.2000;0.5543;1.2365;
331.5000;0.5535;1.2415;
331.8000;0.5535;1.2365;
332.1000;0.5519;1.2291;
332.4000;0.5527;1.2316;
332.7000;0.5519;1.2390;
333.0000;0.5503;1.2365;
333.3000;0.5511;1.2340;
333.6000;0.5511;1.2365;
333.9000;0.5511;1.2489;
334.2000;0.5543;1.2538;
334.5000;0.5519;1.2340;
334.8000;0.5503;1.2242;
335.1000;0.5511;1.2340;
335.4000;0.5519;1.2291;
335.7000;0.5454;1.2192;
336.0000;0.5519;1.2390;
336.3000;0.5519;1.2439;
336.6000;0.5511;1.2340;
336.9000;0.5511;1.2340;
337.2000;0.5511;1.2464;
337.5000;0.5519;1.2587;
337.8000;0.5625;1.2859;
338.1000;0.5527;1.2686;
338.4000;0.5511;1.2661;
338.7000;0.5511;1.2661;
339.0000;0.5511;1.2587;
339.3000;0.5519;1.2439;
339.6000;0.5527;1.2340;
339.9000;0.5519;1.2365;
340.2000;0.5503;1.2316;
340.5000;0.5519;1.2266;
340.8000;0.5511;1.2242;
341.1000;0.5535;1.2242;
341.4000;0.5503;1.2168;
341.7000;0.5519;1.2217;
342.0000;0.5535;1.2217;
342.3000;0.5503;1.2143;
342.6000;0.5486;1.2143;
342.9000;0.5519;1.2266;
343.2000;0.5535;1.2316;
343.5000;0.5486;1.2291;
343.8000;0.5503;1.2365;
344.1000;0.5503;1.2415;
344.4000;0.5503;1.2513;
344.7000;0.5535;1.2612;
345.0000;0.5486;1.2563;
345.3000;0.5511;1.2612;
345.6000;0.5486;1.2439;
345.9000;0.5535;1.2563;
346.2000;0.5519;1.2612;
346.5000;0.5470;1.2513;
346.8000;0.5519;1.2612;
347.1000;0.5470;1.2390;
347.4000;0.5495;1.2390;
347.7000;0.5495;1.2340;
348.0000;0.5503;1.2415;
348.3000;0.5519;1.2390;
348.6000;0.5527;1.2365;
348.9000;0.5503;1.2291;
349.2000;0.5486;1.2168;
349.5000;0.5511;1.2192;
349.8000;0.5511;1.2316;
350.1000;0.5462;1.2217;
350.4000;0.5511;1.2316;
350.7000;0.5568;1.2439;
351.0000;0.5511;1.2242;
351.3000;0.5527;1.2192;
351.6000;0.5503;1.2094;
351.9000;0.5511;1.2168;
352.2000;0.5527;1.2168;
352.5000;0.5503;1.2168;
352.8000;0.5503;1.2266;
353.1000;0.5503;1.2168;
353.4000;0.5486;1.2069;
353.7000;0.5527;1.2168;
354.0000;0.5519;1.2143;
354.3000;0.5511;1.2143;
354.6000;0.5519;1.2266;
354.9000;0.5519;1.2439;
355.2000;0.5633;1.2760;
355.5000;0.5478;1.2291;
355.8000;0.5511;1.2291;
356.1000;0.5511;1.2217;
356.4000;0.5495;1.2094;
356.7000;0.5519;1.2143;
357.0000;0.5527;1.2143;
357.3000;0.5527;1.2192;
357.6000;0.5535;1.2192;
357.9000;0.5576;1.2340;
358.2000;0.5503;1.2217;
358.5000;0.5519;1.2242;
358.8000;0.5527;1.2365;
359.1000;0.5519;1.2439;
359.4000;0.5503;1.2439;
359.7000;0.5503;1.2489;
360.0000;0.5527;1.2513;
360.3000;0.5511;1.2365;
360.6000;0.5495;1.2266;
360.9000;0.5503;1.2291;
361.2000;0.5511;1.2266;
361.5000;0.5503;1.2316;
361.8000;0.5503;1.2439;
362.1000;0.5503;1.2464;
362.4000;0.5503;1.2538;
362.7000;0.5543;1.2587;
363.0000;0.5511;1.2489;
363.3000;0.5527;1.2464;
363.6000;0.5511;1.2439;
363.9000;0.5503;1.2439;
364.2000;0.5519;1.2489;
364.5000;0.5535;1.2538;
364.8000;0.5527;1.2439;
365.1000;0.5527;1.2365;
365.4000;0.5527;1.2316;
365.7000;0.5527;1.2291;
366.0000;0.5535;1.2266;
366.3000;0.5527;1.2266;
366.6000;0.5503;1.2242;
366.9000;0.5511;1.2266;
367.2000;0.5519;1.2340;
367.5000;0.5511;1.2365;
367.8000;0.5503;1.2439;
368.1000;0.5511;1.2439;
368.4000;0.5543;1.2464;
368.7000;0.5519;1.2439;
369.0000;0.5527;1.2489;
369.3000;0.5568;1.2563;
369.6000;0.5503;1.2439;
369.9000;0.5511;1.2513;
370.2000;0.5503;1.2538;
370.5000;0.5608;1.2809;
370.8000;0.5511;1.2563;
371.1000;0.5527;1.2513;
371.4000;0.5527;1.2587;
371.7000;0.5535;1.2563;
372.0000;0.5511;1.2563;
372.3000;0.5576;1.2735;
372.6000;0.5535;1.2538;
372.9000;0.5519;1.2439;
373.2000;0.5519;1.2464;
373.5000;0.5511;1.2415;
373.8000;0.5527;1.2390;
374.1000;0.5551;1.2439;
374.4000;0.5527;1.2464;
374.7000;0.5527;1.2513;
375.0000;0.5568;1.2637;
375.3000;0.5519;1.2489;
375.6000;0.5519;1.2513;
375.9000;0.5527;1.2513;
376.2000;0.5511;1.2464;
376.5000;0.5519;1.2390;
376.8000;0.5527;1.2390;
377.1000;0.5551;1.2538;
377.4000;0.5511;1.2513;
377.7000;0.5511;1.2489;
378.0000;0.5495;1.2415;
378.3000;0.5535;1.2464;
378.6000;0.5535;1.2563;
378.9000;0.5527;1.2513;
379.2000;0.5543;1.2563;
379.5000;0.5511;1.2390;
379.8000;0.5519;1.2365;
380.1000;0.5503;1.2291;
380.4000;0.5535;1.2365;
380.7000;0.5527;1.2415;
381.0000;0.5543;1.2365;
381.3000;0.5527;1.2291;
381.6000;0.5503;1.2340;
381.9000;0.5511;1.2365;
382.2000;0.5511;1.2390;
382.5000;0.5397;1.2069;
382.8000;0.5503;1.2365;
383.1000;0.5511;1.2365;
383.4000;0.5519;1.2316;
383.7000;0.5511;1.2266;
384.0000;0.5503;1.2266;
384.3000;0.5527;1.2365;
384.6000;0.5495;1.2365;
384.9000;0.5511;1.2390;
385.2000;0.5519;1.2316;
385.5000;0.5511;1.2242;
385.8000;0.5543;1.2242;
386.1000;0.5543;1.2365;
386.4000;0.5527;1.2340;
386.7000;0.5617;1.2587;
387.0000;0.5519;1.2390;
387.3000;0.5511;1.2415;
387.6000;0.5511;1.2464;
387.9000;0.5503;1.2439;
388.2000;0.5470;1.2340;
388.5000;0.5495;1.2291;
388.8000;0.5519;1.2340;
389.1000;0.5503;1.2266;
389.4000;0.5511;1.2340;
389.7000;0.5486;1.2316;
390.0000;0.5519;1.2489;
390.3000;0.5592;1.2661;
390.6000;0.5535;1.2464;
390.9000;0.5519;1.2439;
391.2000;0.5470;1.2192;
391.5000;0.5503;1.2266;
391.8000;0.5511;1.2390;
392.1000;0.5511;1.2365;
392.4000;0.5503;1.2415;
392.7000;0.5511;1.2415;
393.0000;0.5511;1.2489;
393.3000;0.5503;1.2439;
393.6000;0.5438;1.2168;
393.9000;0.5527;1.2390;
394.2000;0.5568;1.2587;
394.5000;0.5519;1.2489;
394.8000;0.5429;1.2266;
395.1000;0.5519;1.2587;
395.4000;0.5511;1.2538;
395.7000;0.5519;1.2587;
396.0000;0.5470;1.2489;
396.3000;0.5413;1.2291;
396.6000;0.5560;1.2563;
396.9000;0.5511;1.2464;
397.2000;0.5511;1.2390;
397.5000;0.5527;1.2415;
397.8000;0.5527;1.2464;
398.1000;0.5527;1.2464;
398.4000;0.5446;1.2316;
398.7000;0.5519;1.2513;
399.0000;0.5527;1.2439;
399.3000;0.5511;1.2415;
399.6000;0.5462;1.2266;
399.9000;0.5511;1.2316;
400.2000;0.5511;1.2365;
400.5000;0.5511;1.2266;
400.8000;0.5511;1.2242;
401.1000;0.5519;1.2143;
401.4000;0.5519;1.2094;
401.7000;0.5495;1.2020;
402.0000;0.5519;1.2118;
402.3000;0.5511;1.2094;
402.6000;0.5535;1.2242;
402.9000;0.5535;1.2217;
403.2000;0.5527;1.2316;
403.5000;0.5519;1.2291;
403.8000;0.5527;1.2291;
404.1000;0.5527;1.2242;
404.4000;0.5560;1.2365;
404.7000;0.5527;1.2316;
405.0000;0.5503;1.2365;
405.3000;0.5527;1.2390;
405.6000;0.5511;1.2340;
405.9000;0.5527;1.2340;
406.2000;0.5495;1.2365;
406.5000;0.5511;1.2340;
406.8000;0.5519;1.2390;
407.1000;0.5486;1.2291;
407.4000;0.5503;1.2365;
407.7000;0.5478;1.2316;
408.0000;0.5503;1.2365;
408.3000;0.5503;1.2340;
408.6000;0.5503;1.2316;
408.9000;0.5503;1.2316;
409.2000;0.5511;1.2316;
409.5000;0.5503;1.2340;
409.8000;0.5478;1.2291;
410.1000;0.5503;1.2340;
410.4000;0.5503;1.2365;
410.7000;0.5511;1.2415;
411.0000;0.5503;1.2415;
411.3000;0.5551;1.2538;
411.6000;0.5495;1.2513;
411.9000;0.5495;1.2439;
412.2000;0.5511;1.2464;
412.5000;0.5519;1.2439;
412.8000;0.5503;1.2415;
413.1000;0.5486;1.2439;
413.4000;0.5478;1.2365;
413.7000;0.5543;1.2513;
414.0000;0.5527;1.2415;
414.3000;0.5446;1.2266;
414.6000;0.5511;1.2340;
414.9000;0.5511;1.2390;
415.2000;0.5478;1.2242;
415.5000;0.5438;1.2118;
415.8000;0.5486;1.2266;
416.1000;0.5519;1.2316;
416.4000;0.5511;1.2340;
416.7000;0.5527;1.2464;
417.0000;0.5511;1.2415;
417.3000;0.5478;1.2415;
417.6000;0.5486;1.2340;
417.9000;0.5486;1.2365;
418.2000;0.5519;1.2464;
418.5000;0.5495;1.2415;
418.8000;0.5495;1.2365;
419.1000;0.5511;1.2316;
419.4000;0.5495;1.2390;
419.7000;0.5495;1.2365;
420.0000;0.5486;1.2217;
420.3000;0.5486;1.2118;
420.6000;0.5511;1.2192;
420.9000;0.5519;1.2168;
421.2000;0.5535;1.2242;
421.5000;0.5527;1.2291;
421.8000;0.5519;1.2340;
422.1000;0.5511;1.2340;
422.4000;0.5527;1.2365;
422.7000;0.5486;1.2316;
423.0000;0.5511;1.2365;
423.3000;0.5527;1.2415;
423.6000;0.5454;1.2168;
423.9000;0.5519;1.2266;
424.2000;0.5519;1.2266;
424.5000;0.5511;1.2316;
424.8000;0.5527;1.2266;
425.1000;0.5527;1.2316;
425.4000;0.5511;1.2266;
425.7000;0.5519;1.2168;
426.0000;0.5519;1.2094;
426.3000;0.5519;1.1995;
426.6000;0.5519;1.2020;
426.9000;0.5503;1.2044;
427.2000;0.5503;1.2069;
427.5000;0.5511;1.2069;
427.8000;0.5511;1.2044;
428.1000;0.5503;1.1921;
428.4000;0.5535;1.2044;
428.7000;0.5511;1.1970;
429.0000;0.5519;1.2069;
429.3000;0.5503;1.2069;
429.6000;0.5519;1.2143;
429.9000;0.5527;1.2118;
430.2000;0.5503;1.2168;
430.5000;0.5511;1.2242;
430.8000;0.5454;1.2069;
431.1000;0.5503;1.2217;
431.4000;0.5511;1.2242;
431.7000;0.5535;1.2266;
432.0000;0.5511;1.2217;
432.3000;0.5503;1.2168;
432.6000;0.5495;1.2168;
432.9000;0.5478;1.2168;
433.2000;0.5478;1.2291;
433.5000;0.5486;1.2316;
433.8000;0.5495;1.2340;
434.1000;0.5543;1.2365;
434.4000;0.5527;1.2340;
434.7000;0.5438;1.2118;
435.0000;0.5511;1.2340;
435.3000;0.5527;1.2513;
435.6000;0.5527;1.2439;
435.9000;0.5511;1.2316;
436.2000;0.5503;1.2242;
436.5000;0.5495;1.2192;
436.8000;0.5527;1.2291;
437.1000;0.5503;1.2192;
437.4000;0.5478;1.2118;
437.7000;0.5535;1.2266;
438.0000;0.5527;1.2266;
438.3000;0.5511;1.2217;
438.6000;0.5503;1.2242;
438.9000;0.5503;1.2266;
439.2000;0.5519;1.2415;
439.5000;0.5519;1.2489;
439.8000;0.5503;1.2365;
440.1000;0.5511;1.2390;
440.4000;0.5511;1.2340;
440.7000;0.5519;1.2365;
441.0000;0.5527;1.2365;
441.3000;0.5486;1.2390;
441.6000;0.5511;1.2415;
441.9000;0.5519;1.2390;
442.2000;0.5584;1.2489;
442.5000;0.5421;1.2094;
442.8000;0.5519;1.2365;
443.1000;0.5584;1.2538;
443.4000;0.5535;1.2489;
443.7000;0.5511;1.2415;
444.0000;0.5511;1.2291;
444.3000;0.5584;1.2390;
444.6000;0.5584;1.2439;
444.9000;0.5511;1.2242;
445.2000;0.5511;1.2192;
445.5000;0.5519;1.2192;
445.8000;0.5503;1.2266;
446.1000;0.5503;1.2316;
446.4000;0.5446;1.2118;
446.7000;0.5478;1.2266;
447.0000;0.5535;1.2439;
447.3000;0.5511;1.2365;
447.6000;0.5527;1.2291;
447.9000;0.5511;1.2242;
448.2000;0.5519;1.2266;
448.5000;0.5511;1.2217;
448.8000;0.5519;1.2242;
449.1000;0.5519;1.2168;
449.4000;0.5519;1.2217;
449.7000;0.5495;1.2192;
450.0000;0.5511;1.2340;
450.3000;0.5495;1.2316;
450.6000;0.5527;1.2340;
450.9000;0.5519;1.2291;
451.2000;0.5495;1.2340;
451.5000;0.5519;1.2439;
451.8000;0.5462;1.2316;
452.1000;0.5454;1.2365;
452.4000;0.5503;1.2439;
452.7000;0.5495;1.2365;
453.0000;0.5527;1.2340;
453.3000;0.5511;1.2365;
453.6000;0.5503;1.2390;
453.9000;0.5446;1.2242;
454.2000;0.5486;1.2291;
454.5000;0.5527;1.2266;
454.8000;0.5511;1.2316;
455.1000;0.5527;1.2242;
455.4000;0.5511;1.2266;
455.7000;0.5511;1.2340;
456.0000;0.5503;1.2340;
456.3000;0.5478;1.2217;
456.6000;0.5503;1.2242;
456.9000;0.5560;1.2538;
457.2000;0.5503;1.2439;
457.5000;0.5519;1.2489;
457.8000;0.5511;1.2489;
458.1000;0.5486;1.2390;
458.4000;0.5519;1.2390;
458.7000;0.5503;1.2365;
459.0000;0.5495;1.2340;
459.3000;0.5495;1.2340;
459.6000;0.5495;1.2316;
459.9000;0.5511;1.2316;
460.2000;0.5495;1.2291;
460.5000;0.5470;1.2192;
460.8000;0.5503;1.2291;
461.1000;0.5503;1.2291;
461.4000;0.5511;1.2266;
461.7000;0.5495;1.2291;
462.0000;0.5527;1.2291;
462.3000;0.5535;1.2291;
462.6000;0.5511;1.2242;
462.9000;0.5519;1.2192;
463.2000;0.5503;1.2168;
463.5000;0.5543;1.2291;
463.8000;0.5511;1.2168;
464.1000;0.5470;1.1970;
464.4000;0.5495;1.2118;
464.7000;0.5560;1.2266;
465.0000;0.5486;1.2168;
465.3000;0.5503;1.2192;
465.6000;0.5519;1.2316;
465.9000;0.5511;1.2340;
466.2000;0.5503;1.2316;
466.5000;0.5486;1.2340;
466.8000;0.5495;1.2365;
467.1000;0.5503;1.2291;
467.4000;0.5495;1.2217;
467.7000;0.5519;1.2118;
468.0000;0.5462;1.2069;
468.3000;0.5600;1.2513;
468.6000;0.5503;1.2316;
468.9000;0.5511;1.2365;
469.2000;0.5511;1.2316;
469.5000;0.5543;1.2439;
469.8000;0.5511;1.2316;
470.1000;0.5576;1.2464;
470.4000;0.5527;1.2316;
470.7000;0.5511;1.2316;
471.0000;0.5560;1.2415;
471.3000;0.5527;1.2365;
471.6000;0.5511;1.2390;
471.9000;0.5519;1.2439;
472.2000;0.5511;1.2439;
472.5000;0.5429;1.2291;
472.8000;0.5519;1.2489;
473.1000;0.5503;1.2340;
473.4000;0.5511;1.2340;
473.7000;0.5527;1.2365;
474.0000;0.5551;1.2340;
474.3000;0.5527;1.2291;
474.6000;0.5527;1.2242;
474.9000;0.5527;1.2266;
475.2000;0.5511;1.2291;
475.5000;0.5511;1.2316;
475.8000;0.5535;1.2439;
476.1000;0.5535;1.2464;
476.4000;0.5519;1.2439;
476.7000;0.5527;1.2340;
477.0000;0.5519;1.2266;
477.3000;0.5495;1.2242;
477.6000;0.5519;1.2340;
477.9000;0.5519;1.2439;
478.2000;0.5486;1.2316;
478.5000;0.5503;1.2365;
478.8000;0.5560;1.2464;
479.1000;0.5495;1.2365;
479.4000;0.5486;1.2365;
479.7000;0.5519;1.2390;
480.0000;0.5486;1.2316;
480.3000;0.5511;1.2291;
480.6000;0.5511;1.2217;
480.9000;0.5511;1.2242;
481.2000;0.5372;1.1970;
481.5000;0.5527;1.2242;
481.8000;0.5511;1.2143;
482.1000;0.5519;1.2118;
482.4000;0.5519;1.2069;
482.7000;0.5511;1.2044;
483.0000;0.5470;1.1946;
483.3000;0.5519;1.2143;
483.6000;0.5511;1.2044;
483.9000;0.5511;1.2168;
484.2000;0.5503;1.2168;
484.5000;0.5495;1.2192;
484.8000;0.5519;1.2266;
485.1000;0.5478;1.2217;
485.4000;0.5576;1.2489;
485.7000;0.5511;1.2266;
486.0000;0.5527;1.2415;
486.3000;0.5421;1.2192;
486.6000;0.5511;1.2390;
486.9000;0.5560;1.2489;
487.2000;0.5560;1.2538;
487.5000;0.5470;1.2365;
487.8000;0.5503;1.2365;
488.1000;0.5454;1.2242;
488.4000;0.5495;1.2365;
488.7000;0.5470;1.2217;
489.0000;0.5511;1.2340;
489.3000;0.5535;1.2365;
489.6000;0.5519;1.2365;
489.9000;0.5527;1.2464;
490.2000;0.5495;1.2464;
490.5000;0.5511;1.2464;
490.8000;0.5511;1.2587;
491.1000;0.5519;1.2612;
491.4000;0.5511;1.2612;
491.7000;0.5495;1.2563;
492.0000;0.5503;1.2439;
492.3000;0.5511;1.2489;
492.6000;0.5527;1.2513;
492.9000;0.5551;1.2563;
493.2000;0.5527;1.2489;
493.5000;0.5535;1.2513;
493.8000;0.5519;1.2415;
494.1000;0.5519;1.2439;
494.4000;0.5438;1.2291;
494.7000;0.5511;1.2464;
495.0000;0.5527;1.2489;
495.3000;0.5511;1.2415;
495.6000;0.5519;1.2439;
495.9000;0.5657;1.2760;
496.2000;0.5535;1.2587;
496.5000;0.5519;1.2587;
496.8000;0.5511;1.2612;
497.1000;0.5503;1.2661;
497.4000;0.5511;1.2637;
497.7000;0.5519;1.2711;
498.0000;0.5527;1.2711;
498.3000;0.5519;1.2711;
498.6000;0.5519;1.2661;
498.9000;0.5543;1.2711;
499.2000;0.5527;1.2637;
499.5000;0.5519;1.2637;
499.8000;0.5503;1.2612;
500.1000;0.5503;1.2587;
500.4000;0.5527;1.2612;
500.7000;0.5486;1.2464;
501.0000;0.5495;1.2415;
501.3000;0.5503;1.2538;
501.6000;0.5519;1.2513;
501.9000;0.5511;1.2587;
502.2000;0.5454;1.2316;
502.5000;0.5511;1.2489;
502.8000;0.5527;1.2587;
503.1000;0.5511;1.2489;
503.4000;0.5519;1.2439;
503.7000;0.5527;1.2415;
504.0000;0.5470;1.2340;
504.3000;0.5495;1.2390;
504.6000;0.5486;1.2415;
504.9000;0.5495;1.2390;
505.2000;0.5478;1.2415;
505.5000;0.5495;1.2513;
505.8000;0.5495;1.2439;
506.1000;0.5495;1.2489;
506.4000;0.5511;1.2464;
506.7000;0.5519;1.2513;
507.0000;0.5503;1.2439;
507.3000;0.5486;1.2489;
507.6000;0.5511;1.2538;
507.9000;0.5519;1.2612;
508.2000;0.5486;1.2563;
508.5000;0.5503;1.2686;
508.8000;0.5511;1.2637;
509.1000;0.5462;1.2563;
509.4000;0.5527;1.2711;
509.7000;0.5576;1.2809;
510.0000;0.5486;1.2587;
510.3000;0.5486;1.2563;
510.6000;0.5438;1.2365;
510.9000;0.5511;1.2464;
511.2000;0.5527;1.2513;
511.5000;0.5486;1.2415;
511.8000;0.5511;1.2538;
512.1000;0.5511;1.2538;
512.4000;0.5576;1.2711;
512.7000;0.5470;1.2563;
513.0000;0.5511;1.2735;
513.3000;0.5527;1.2760;
513.6000;0.5503;1.2711;
513.9000;0.5511;1.2735;
514.2000;0.5495;1.2661;
514.5000;0.5519;1.2686;
514.8000;0.5503;1.2587;
515.1000;0.5511;1.2612;
515.4000;0.5511;1.2637;
515.7000;0.5511;1.2686;
516.0000;0.5503;1.2612;
516.3000;0.5503;1.2513;
516.6000;0.5478;1.2489;
516.9000;0.5527;1.2538;
517.2000;0.5495;1.2513;
517.5000;0.5486;1.2513;
517.8000;0.5486;1.2587;
518.1000;0.5495;1.2587;
518.4000;0.5454;1.2439;
518.7000;0.5519;1.2563;
519.0000;0.5503;1.2538;
519.3000;0.5511;1.2489;
519.6000;0.5527;1.2538;
519.9000;0.5511;1.2489;
520.2000;0.5511;1.2464;
520.5000;0.5527;1.2489;
520.8000;0.5519;1.2513;
521.1000;0.5495;1.2563;
521.4000;0.5527;1.2587;
521.7000;0.5486;1.2464;
522.0000;0.5503;1.2415;
522.3000;0.5503;1.2464;
522.6000;0.5495;1.2415;
522.9000;0.5495;1.2513;
523.2000;0.5535;1.2661;
523.5000;0.5527;1.2538;
523.8000;0.5503;1.2365;
524.1000;0.5519;1.2415;
524.4000;0.5551;1.2538;
524.7000;0.5486;1.2390;
525.0000;0.5495;1.2365;
525.3000;0.5527;1.2489;
525.6000;0.5486;1.2489;
525.9000;0.5511;1.2464;
526.2000;0.5527;1.2415;
526.5000;0.5511;1.2316;
526.8000;0.5535;1.2365;
527.1000;0.5527;1.2415;
527.4000;0.5470;1.2365;
527.7000;0.5470;1.2340;
528.0000;0.5503;1.2390;
528.3000;0.5438;1.2266;
528.6000;0.5511;1.2464;
528.9000;0.5503;1.2439;
529.2000;0.5503;1.2439;
529.5000;0.5495;1.2415;
529.8000;0.5478;1.2390;
530.1000;0.5486;1.2415;
530.4000;0.5486;1.2365;
530.7000;0.5519;1.2489;
531.0000;0.5527;1.2538;
531.3000;0.5495;1.2513;
531.6000;0.5527;1.2538;
531.9000;0.5511;1.2415;
532.2000;0.5551;1.2612;
532.5000;0.5519;1.2661;
532.8000;0.5519;1.2735;
533.1000;0.5543;1.2760;
533.4000;0.5519;1.2661;
533.7000;0.5429;1.2439;
534.0000;0.5503;1.2686;
534.3000;0.5470;1.2489;
534.6000;0.5470;1.2489;
534.9000;0.5503;1.2563;
535.2000;0.5478;1.2563;
535.5000;0.5511;1.2711;
535.8000;0.5486;1.2809;
536.1000;0.5495;1.2760;
536.4000;0.5576;1.2908;
536.7000;0.5478;1.2513;
537.0000;0.5503;1.2612;
537.3000;0.5511;1.2513;
537.6000;0.5454;1.2439;
537.9000;0.5527;1.2686;
538.2000;0.5519;1.2661;
538.5000;0.5519;1.2587;
538.8000;0.5511;1.2587;
539.1000;0.5470;1.2513;
539.4000;0.5478;1.2464;
539.7000;0.5503;1.2489;
540.0000;0.5511;1.2563;
540.3000;0.5495;1.2587;
540.6000;0.5503;1.2538;
540.9000;0.5486;1.2513;
541.2000;0.5503;1.2637;
541.5000;0.5503;1.2686;
541.8000;0.5511;1.2661;
542.1000;0.5527;1.2637;
542.4000;0.5527;1.2612;
542.7000;0.5511;1.2563;
543.0000;0.5511;1.2489;
543.3000;0.5551;1.2513;
543.6000;0.5503;1.2513;
543.9000;0.5519;1.2513;
544.2000;0.5535;1.2563;
544.5000;0.5527;1.2637;
544.8000;0.5446;1.2340;
545.1000;0.5511;1.2513;
545.4000;0.5486;1.2464;
545.7000;0.5495;1.2439;
546.0000;0.5503;1.2489;
546.3000;0.5486;1.2439;
546.6000;0.5495;1.2365;
546.9000;0.5495;1.2365;
547.2000;0.5478;1.2242;
547.5000;0.5486;1.2266;
547.8000;0.5478;1.2242;
548.1000;0.5519;1.2242;
548.4000;0.5519;1.2291;
548.7000;0.5503;1.2291;
549.0000;0.5560;1.2489;
549.3000;0.5478;1.2390;
549.6000;0.5503;1.2587;
549.9000;0.5527;1.2563;
550.2000;0.5503;1.2513;
550.5000;0.5527;1.2489;
550.8000;0.5519;1.2489;
551.1000;0.5478;1.2365;
551.4000;0.5519;1.2415;
551.7000;0.5503;1.2316;
552.0000;0.5527;1.2439;
552.3000;0.5519;1.2439;
552.6000;0.5495;1.2415;
552.9000;0.5511;1.2415;
553.2000;0.5519;1.2489;
553.5000;0.5511;1.2415;
553.8000;0.5503;1.2415;
554.1000;0.5495;1.2340;
554.4000;0.5511;1.2365;
554.7000;0.5511;1.2365;
555.0000;0.5503;1.2390;
555.3000;0.5503;1.2316;
555.6000;0.5503;1.2266;
555.9000;0.5495;1.2291;
556.2000;0.5535;1.2489;
556.5000;0.5503;1.2415;
556.8000;0.5503;1.2439;
557.1000;0.5511;1.2513;
557.4000;0.5519;1.2563;
557.7000;0.5478;1.2538;
558.0000;0.5495;1.2587;
558.3000;0.5495;1.2513;
558.6000;0.5478;1.2415;
558.9000;0.5511;1.2365;
559.2000;0.5503;1.2390;
559.5000;0.5486;1.2340;
559.8000;0.5543;1.2538;
560.1000;0.5527;1.2563;
560.4000;0.5519;1.2661;
560.7000;0.5503;1.2637;
561.0000;0.5486;1.2637;
561.3000;0.5486;1.2587;
561.6000;0.5519;1.2686;
561.9000;0.5503;1.2612;
562.2000;0.5495;1.2612;
562.5000;0.5495;1.2563;
562.8000;0.5519;1.2612;
563.1000;0.5503;1.2711;
563.4000;0.5486;1.2686;
563.7000;0.5486;1.2637;
564.0000;0.5511;1.2735;
564.3000;0.5478;1.2686;
564.6000;0.5495;1.2612;
564.9000;0.5511;1.2711;
565.2000;0.5519;1.2686;
565.5000;0.5527;1.2735;
565.8000;0.5470;1.2538;
566.1000;0.5486;1.2513;
566.4000;0.5568;1.2711;
566.7000;0.5503;1.2538;
567.0000;0.5519;1.2538;
567.3000;0.5495;1.2587;
567.6000;0.5503;1.2538;
567.9000;0.5519;1.2587;
568.2000;0.5486;1.2489;
568.5000;0.5503;1.2513;
568.8000;0.5519;1.2563;
569.1000;0.5511;1.2513;
569.4000;0.5503;1.2563;
569.7000;0.5495;1.2563;
570.0000;0.5462;1.2415;
570.3000;0.5495;1.2563;
570.6000;0.5470;1.2464;
570.9000;0.5543;1.2612;
571.2000;0.5551;1.2612;
571.5000;0.5503;1.2464;
571.8000;0.5511;1.2439;
572.1000;0.5527;1.2489;
572.4000;0.5495;1.2538;
572.7000;0.5511;1.2661;
573.0000;0.5527;1.2735;
573.3000;0.5503;1.2661;
573.6000;0.5503;1.2612;
573.9000;0.5495;1.2587;
574.2000;0.5495;1.2538;
574.5000;0.5486;1.2587;
574.8000;0.5495;1.2686;
575.1000;0.5495;1.2661;
575.4000;0.5454;1.2538;
575.7000;0.5592;1.2883;
576.0000;0.5495;1.2612;
576.3000;0.5495;1.2612;
576.6000;0.5486;1.2538;
576.9000;0.5511;1.2538;
577.2000;0.5495;1.2587;
577.5000;0.5503;1.2563;
577.8000;0.5495;1.2489;
578.1000;0.5511;1.2587;
578.4000;0.5503;1.2538;
578.7000;0.5503;1.2464;
579.0000;0.5495;1.2563;
579.3000;0.5470;1.2489;
579.6000;0.5511;1.2612;
579.9000;0.5511;1.2587;
580.2000;0.5511;1.2563;
580.5000;0.5495;1.2563;
580.8000;0.5527;1.2587;
581.1000;0.5511;1.2563;
581.4000;0.5486;1.2538;
581.7000;0.5511;1.2661;
582.0000;0.5503;1.2637;
582.3000;0.5495;1.2612;
582.6000;0.5486;1.2661;
582.9000;0.5503;1.2563;
583.2000;0.5495;1.2538;
583.5000;0.5527;1.2661;
583.8000;0.5495;1.2612;
584.1000;0.5486;1.2637;
584.4000;0.5470;1.2538;
584.7000;0.5511;1.2538;
585.0000;0.5511;1.2489;
585.3000;0.5511;1.2464;
585.6000;0.5495;1.2513;
585.9000;0.5511;1.2513;
586.2000;0.5511;1.2489;
586.5000;0.5462;1.2464;
586.8000;0.5486;1.2464;
587.1000;0.5511;1.2439;
587.4000;0.5503;1.2513;
587.7000;0.5486;1.2464;
588.0000;0.5503;1.2464;
588.3000;0.5511;1.2340;
588.6000;0.5511;1.2415;
588.9000;0.5511;1.2439;
589.2000;0.5495;1.2390;
589.5000;0.5551;1.2563;
589.8000;0.5511;1.2439;
590.1000;0.5519;1.2291;
590.4000;0.5511;1.2291;
590.7000;0.5503;1.2266;
591.0000;0.5527;1.2365;
591.3000;0.5503;1.2291;
591.6000;0.5551;1.2340;
591.9000;0.5486;1.2242;
592.2000;0.5511;1.2242;
592.5000;0.5511;1.2291;
592.8000;0.5543;1.2439;
593.1000;0.5511;1.2513;
593.4000;0.5503;1.2489;
593.7000;0.5511;1.2563;
594.0000;0.5495;1.2563;
594.3000;0.5462;1.2563;
594.6000;0.5486;1.2563;
594.9000;0.5486;1.2563;
595.2000;0.5503;1.2538;
595.5000;0.5495;1.2513;
595.8000;0.5478;1.2513;
596.1000;0.5519;1.2661;
596.4000;0.5503;1.2538;
596.7000;0.5486;1.2513;
597.0000;0.5446;1.2340;
597.3000;0.5519;1.2563;
597.6000;0.5511;1.2489;
597.9000;0.5519;1.2489;
598.2000;0.5584;1.2735;
598.5000;0.5503;1.2563;
598.8000;0.5478;1.2563;
599.1000;0.5454;1.2513;
599.4000;0.5495;1.2612;
599.7000;0.5503;1.2612;
600.0000;0.5486;1.2686;
600.3000;0.5470;1.2661;
600.6000;0.5503;1.2587;
600.9000;0.5462;1.2415;
601.2000;0.5446;1.2168;
601.5000;0.5397;1.1970;
601.8000;0.5364;1.1748;
602.1000;0.5405;1.1699;
602.4000;0.5389;1.1600;
602.7000;0.5307;1.1329;
603.0000;0.5307;1.1230;
603.3000;0.5324;1.1205;
603.6000;0.5242;1.1106;
603.9000;0.5112;1.0761;
604.2000;0.5185;1.0860;
604.5000;0.5153;1.0835;
604.8000;0.5153;1.0761;
605.1000;0.4974;1.0317;
605.4000;0.5063;1.0563;
605.7000;0.5022;1.0341;
606.0000;0.4998;1.0218;
606.3000;0.5079;1.0440;
606.6000;0.4974;1.0292;
606.9000;0.4949;1.0193;
607.2000;0.4917;1.0144;
607.5000;0.4900;1.0144;
607.8000;0.4892;1.0144;
608.1000;0.4884;1.0094;
608.4000;0.4876;1.0119;
608.7000;0.4892;1.0144;
609.0000;0.4884;1.0119;
609.3000;0.4811;0.9922;
609.6000;0.4762;0.9872;
609.9000;0.4770;0.9996;
610.2000;0.4770;0.9922;
610.5000;0.4770;0.9922;
610.8000;0.4737;0.9872;
611.1000;0.4721;0.9872;
611.4000;0.4770;0.9996;
611.7000;0.4729;0.9848;
612.0000;0.4689;0.9823;
612.3000;0.4681;0.9848;
612.6000;0.4672;0.9749;
612.9000;0.4656;0.9774;
613.2000;0.4648;0.9848;
613.5000;0.4640;0.9798;
613.8000;0.4607;0.9774;
614.1000;0.4583;0.9724;
614.4000;0.4672;0.9971;
614.7000;0.4624;0.9946;
615.0000;0.4624;0.9946;
615.3000;0.4575;0.9823;
615.6000;0.4583;0.9872;
615.9000;0.4632;0.9922;
616.2000;0.4583;0.9823;
616.5000;0.4558;0.9798;
616.8000;0.4510;0.9749;
617.1000;0.4583;0.9946;
617.4000;0.4542;0.9922;
617.7000;0.4526;0.9798;
618.0000;0.4518;0.9798;
618.3000;0.4436;0.9650;
618.6000;0.4485;0.9724;
618.9000;0.4501;0.9650;
619.2000;0.4453;0.9576;
619.5000;0.4469;0.9650;
619.8000;0.4485;0.9724;
620.1000;0.4485;0.9700;
620.4000;0.4444;0.9700;
620.7000;0.4436;0.9798;
621.0000;0.4444;0.9872;
621.3000;0.4355;0.9650;
621.6000;0.4428;0.9798;
621.9000;0.4396;0.9823;
622.2000;0.4412;0.9872;
622.5000;0.4404;0.9823;
622.8000;0.4420;0.9823;
623.1000;0.4371;0.9700;
623.4000;0.4379;0.9675;
623.7000;0.4387;0.9749;
624.0000;0.4371;0.9650;
624.3000;0.4355;0.9626;
624.6000;0.4347;0.9675;
624.9000;0.4347;0.9626;
625.2000;0.4330;0.9650;
625.5000;0.4314;0.9626;
625.8000;0.4339;0.9675;
626.1000;0.4314;0.9601;
626.4000;0.4339;0.9650;
626.7000;0.4330;0.9774;
627.0000;0.4306;0.9700;
627.3000;0.4330;0.9700;
627.6000;0.4306;0.9675;
627.9000;0.4298;0.9502;
628.2000;0.4290;0.9453;
628.5000;0.4322;0.9527;
628.8000;0.4274;0.9403;
629.1000;0.4265;0.9329;
629.4000;0.4274;0.9379;
629.7000;0.4265;0.9403;
630.0000;0.4249;0.9428;
630.3000;0.4339;0.9749;
630.6000;0.4290;0.9626;
630.9000;0.4265;0.9601;
631.2000;0.4257;0.9650;
631.5000;0.4249;0.9700;
631.8000;0.4241;0.9650;
632.1000;0.4249;0.9675;
632.4000;0.4233;0.9626;
632.7000;0.4249;0.9626;
633.0000;0.4241;0.9552;
633.3000;0.4208;0.9477;
633.6000;0.4208;0.9502;
633.9000;0.4225;0.9502;
634.2000;0.4200;0.9477;
634.5000;0.4208;0.9502;
634.8000;0.4208;0.9477;
635.1000;0.4208;0.9502;
635.4000;0.4225;0.9552;
635.7000;0.4249;0.9601;
636.0000;0.4103;0.9206;
636.3000;0.4192;0.9453;
636.6000;0.4168;0.9502;
636.9000;0.4151;0.9428;
637.2000;0.4184;0.9527;
637.5000;0.4062;0.9231;
637.8000;0.4176;0.9601;
638.1000;0.4176;0.9700;
638.4000;0.4200;0.9724;
638.7000;0.4160;0.9700;
639.0000;0.4176;0.9675;
639.3000;0.4151;0.9576;
639.6000;0.4168;0.9601;
639.9000;0.4103;0.9354;
640.2000;0.4151;0.9453;
640.5000;0.4160;0.9477;
640.8000;0.4135;0.9453;
641.1000;0.4127;0.9527;
641.4000;0.4094;0.9428;
641.7000;0.4119;0.9552;
642.0000;0.4127;0.9576;
642.3000;0.4151;0.9675;
642.6000;0.4143;0.9724;
642.9000;0.4135;0.9626;
643.2000;0.4143;0.9700;
643.5000;0.4094;0.9527;
643.8000;0.4062;0.9477;
644.1000;0.4111;0.9552;
644.4000;0.4135;0.9626;
644.7000;0.4086;0.9527;
645.0000;0.4078;0.9502;
645.3000;0.4078;0.9576;
645.6000;0.4103;0.9552;
645.9000;0.4094;0.9527;
646.2000;0.4103;0.9601;
646.5000;0.4111;0.9576;
646.8000;0.4103;0.9601;
647.1000;0.4111;0.9626;
647.4000;0.4094;0.9576;
647.7000;0.3972;0.9181;
648.0000;0.4078;0.9354;
648.3000;0.4070;0.9453;
648.6000;0.4078;0.9453;
648.9000;0.4127;0.9601;
649.2000;0.4094;0.9552;
649.5000;0.4078;0.9428;
649.8000;0.4054;0.9231;
650.1000;0.4078;0.9329;
650.4000;0.4119;0.9428;
650.7000;0.4078;0.9403;
651.0000;0.4054;0.9354;
651.3000;0.4070;0.9305;
651.6000;0.4046;0.9305;
651.9000;0.4029;0.9255;
652.2000;0.4062;0.9354;
652.5000;0.4029;0.9255;
652.8000;0.4054;0.9379;
653.1000;0.4046;0.9428;
653.4000;0.4094;0.9601;
653.7000;0.4054;0.9403;
654.0000;0.4029;0.9379;
654.3000;0.4029;0.9329;
654.6000;0.4086;0.9477;
654.9000;0.4021;0.9403;
655.2000;0.4021;0.9477;
655.5000;0.4021;0.9502;
655.8000;0.4021;0.9527;
656.1000;0.4062;0.9527;
656.4000;0.4029;0.9502;
656.7000;0.3997;0.9428;
657.0000;0.4021;0.9502;
657.3000;0.4013;0.9502;
657.6000;0.3972;0.9329;
657.9000;0.4005;0.9403;
658.2000;0.4021;0.9453;
658.5000;0.4029;0.9428;
658.8000;0.4005;0.9379;
659.1000;0.4005;0.9379;
659.4000;0.3997;0.9329;
659.7000;0.4029;0.9354;
660.0000;0.4013;0.9379;
660.3000;0.3989;0.9280;
660.6000;0.3915;0.9181;
660.9000;0.4021;0.9477;
661.2000;0.4005;0.9502;
661.5000;0.4037;0.9626;
661.8000;0.3997;0.9576;
662.1000;0.4005;0.9650;
662.4000;0.4005;0.9601;
662.7000;0.3997;0.9576;
663.0000;0.4021;0.9502;
663.3000;0.4021;0.9502;
663.6000;0.4013;0.9576;
663.9000;0.4005;0.9552;
664.2000;0.3964;0.9502;
664.5000;0.3989;0.9527;
664.8000;0.3989;0.9576;
665.1000;0.3989;0.9552;
665.4000;0.3980;0.9626;
665.7000;0.3972;0.9576;
666.0000;0.4029;0.9601;
666.3000;0.3964;0.9428;
666.6000;0.4021;0.9502;
666.9000;0.4013;0.9428;
667.2000;0.3989;0.9403;
667.5000;0.4013;0.9453;
667.8000;0.3980;0.9428;
668.1000;0.3964;0.9379;
668.4000;0.3972;0.9527;
668.7000;0.3923;0.9305;
669.0000;0.3972;0.9403;
669.3000;0.3964;0.9453;
669.6000;0.4046;0.9650;
669.9000;0.3956;0.9453;
670.2000;0.3980;0.9477;
670.5000;0.3940;0.9329;
670.8000;0.3940;0.9379;
671.1000;0.3940;0.9453;
671.4000;0.3980;0.9477;
671.7000;0.3972;0.9428;
672.0000;0.3899;0.9329;
672.3000;0.3923;0.9354;
672.6000;0.3948;0.9527;
672.9000;0.3940;0.9552;
673.2000;0.3980;0.9576;
673.5000;0.3956;0.9527;
673.8000;0.3948;0.9502;
674.1000;0.3964;0.9601;
674.4000;0.3956;0.9576;
674.7000;0.3932;0.9527;
675.0000;0.3948;0.9502;
675.3000;0.3956;0.9552;
675.6000;0.3956;0.9527;
675.9000;0.3964;0.9477;
676.2000;0.3956;0.9477;
676.5000;0.3948;0.9477;
676.8000;0.3989;0.9527;
677.1000;0.3964;0.9502;
677.4000;0.4005;0.9601;
677.7000;0.3940;0.9502;
678.0000;0.3948;0.9601;
678.3000;0.3956;0.9675;
678.6000;0.3932;0.9650;
678.9000;0.3948;0.9601;
679.2000;0.3932;0.9576;
679.5000;0.3948;0.9601;
679.8000;0.3915;0.9527;
680.1000;0.3932;0.9502;
680.4000;0.3850;0.9354;
680.7000;0.3940;0.9477;
681.0000;0.3964;0.9552;
681.3000;0.3948;0.9527;
681.6000;0.3964;0.9626;
681.9000;0.3932;0.9576;
682.2000;0.3940;0.9552;
682.5000;0.3932;0.9527;
682.8000;0.3932;0.9477;
683.1000;0.3948;0.9502;
683.4000;0.3932;0.9453;
683.7000;0.3940;0.9527;
684.0000;0.3932;0.9403;
684.3000;0.3932;0.9403;
684.6000;0.3940;0.9477;
684.9000;0.3932;0.9477;
685.2000;0.3923;0.9403;
685.5000;0.3932;0.9428;
685.8000;0.3923;0.9354;
686.1000;0.3915;0.9403;
686.4000;0.3940;0.9428;
686.7000;0.3915;0.9403;
687.0000;0.3940;0.9527;
687.3000;0.3907;0.9502;
687.6000;0.3972;0.9700;
687.9000;0.3932;0.9576;
688.2000;0.3915;0.9527;
688.5000;0.3923;0.9576;
688.8000;0.3875;0.9379;
689.1000;0.3932;0.9477;
689.4000;0.3915;0.9453;
689.7000;0.3915;0.9379;
690.0000;0.3899;0.9428;
690.3000;0.3915;0.9453;
690.6000;0.3923;0.9453;
690.9000;0.3891;0.9379;
691.2000;0.3883;0.9379;
691.5000;0.3915;0.9354;
691.8000;0.3899;0.9403;
692.1000;0.3891;0.9552;
692.4000;0.3899;0.9576;
692.7000;0.3907;0.9576;
693.0000;0.3899;0.9601;
693.3000;0.3875;0.9477;
693.6000;0.3915;0.9576;
693.9000;0.3891;0.9502;
694.2000;0.3907;0.9650;
694.5000;0.3907;0.9675;
694.8000;0.3891;0.9552;
695.1000;0.3907;0.9527;
695.4000;0.3915;0.9477;
695.7000;0.3907;0.9477;
696.0000;0.3923;0.9552;
696.3000;0.3818;0.9255;
696.6000;0.3915;0.9552;
696.9000;0.3891;0.9601;
697.2000;0.3899;0.9576;
697.5000;0.3923;0.9601;
697.8000;0.3907;0.9576;
698.1000;0.3948;0.9650;
698.4000;0.3834;0.9403;
698.7000;0.3891;0.9477;
699.0000;0.3915;0.9576;
699.3000;0.3883;0.9576;
699.6000;0.3875;0.9576;
699.9000;0.3907;0.9626;
700.2000;0.3899;0.9650;
700.5000;0.3793;0.9329;
700.8000;0.3907;0.9601;
701.1000;0.3907;0.9626;
701.4000;0.3899;0.9601;
701.7000;0.3891;0.9626;
702.0000;0.3883;0.9601;
702.3000;0.3891;0.9453;
702.6000;0.3891;0.9428;
702.9000;0.3867;0.9403;
703.2000;0.3883;0.9453;
703.5000;0.3891;0.9502;
703.8000;0.3915;0.9502;
704.1000;0.3923;0.9601;
704.4000;0.3842;0.9403;
704.7000;0.3899;0.9601;
705.0000;0.3891;0.9502;
705.3000;0.3891;0.9477;
705.6000;0.3907;0.9626;
705.9000;0.3891;0.9601;
706.2000;0.3867;0.9650;
706.5000;0.3883;0.9650;
706.8000;0.3867;0.9626;
707.1000;0.3891;0.9576;
707.4000;0.3858;0.9502;
707.7000;0.3867;0.9502;
708.0000;0.3875;0.9453;
708.3000;0.3867;0.9477;
708.6000;0.3826;0.9477;
708.9000;0.3899;0.9626;
709.2000;0.3883;0.9700;
709.5000;0.3899;0.9724;
709.8000;0.3875;0.9700;
710.1000;0.3891;0.9576;
710.4000;0.3948;0.9626;
710.7000;0.3858;0.9502;
711.0000;0.3883;0.9552;
711.3000;0.3891;0.9552;
711.6000;0.3899;0.9552;
711.9000;0.3867;0.9527;
712.2000;0.3875;0.9576;
712.5000;0.3891;0.9626;
712.8000;0.3875;0.9626;
713.1000;0.3875;0.9626;
713.4000;0.3883;0.9626;
713.7000;0.3850;0.9552;
714.0000;0.3777;0.9354;
714.3000;0.3867;0.9552;
714.6000;0.3883;0.9601;
714.9000;0.3858;0.9453;
715.2000;0.3826;0.9354;
715.5000;0.3842;0.9527;
715.8000;0.3875;0.9601;
716.1000;0.3850;0.9601;
716.4000;0.3810;0.9403;
716.7000;0.3883;0.9453;
717.0000;0.3891;0.9453;
717.3000;0.3891;0.9428;
717.6000;0.3850;0.9329;
717.9000;0.3875;0.9453;
718.2000;0.3875;0.9552;
718.5000;0.3858;0.9601;
718.8000;0.3867;0.9601;
719.1000;0.3858;0.9552;
719.4000;0.3875;0.9552;
719.7000;0.3875;0.9502;
720.0000;0.3883;0.9477;
720.3000;0.3891;0.9502;
720.6000;0.3867;0.9428;
720.9000;0.3858;0.9354;
721.2000;0.3899;0.9502;
721.5000;0.3818;0.9354;
721.8000;0.3850;0.9453;
722.1000;0.3850;0.9403;
722.4000;0.3867;0.9453;
722.7000;0.3842;0.9403;
723.0000;0.3842;0.9403;
723.3000;0.3875;0.9477;
723.6000;0.3858;0.9552;
723.9000;0.3842;0.9428;
724.2000;0.3867;0.9453;
724.5000;0.3858;0.9379;
724.8000;0.3858;0.9379;
725.1000;0.3801;0.9231;
725.4000;0.3875;0.9477;
725.7000;0.3858;0.9428;
726.0000;0.3850;0.9403;
726.3000;0.3883;0.9527;
726.6000;0.3834;0.9379;
726.9000;0.3858;0.9527;
727.2000;0.3801;0.9354;
727.5000;0.3875;0.9527;
727.8000;0.3867;0.9601;
728.1000;0.3753;0.9403;
728.4000;0.3875;0.9798;
728.7000;0.3858;0.9749;
729.0000;0.3875;0.9675;
729.3000;0.3842;0.9601;
729.6000;0.3850;0.9502;
729.9000;0.3842;0.9428;
730.2000;0.3850;0.9428;
730.5000;0.3891;0.9552;
730.8000;0.3850;0.9477;
731.1000;0.3850;0.9502;
731.4000;0.3858;0.9527;
731.7000;0.3875;0.9552;
732.0000;0.3858;0.9626;
732.3000;0.3899;0.9675;
732.6000;0.3875;0.9552;
732.9000;0.3883;0.9502;
733.2000;0.3842;0.9379;
733.5000;0.3858;0.9305;
733.8000;0.3867;0.9329;
734.1000;0.3883;0.9428;
734.4000;0.3850;0.9477;
734.7000;0.3858;0.9527;
735.0000;0.3875;0.9576;
735.3000;0.3858;0.9626;
735.6000;0.3899;0.9601;
735.9000;0.3858;0.9502;
736.2000;0.3858;0.9477;
736.5000;0.3850;0.9403;
736.8000;0.3867;0.9453;
737.1000;0.3948;0.9749;
737.4000;0.3915;0.9552;
737.7000;0.3867;0.9305;
738.0000;0.3793;0.9132;
738.3000;0.3842;0.9206;
738.6000;0.3810;0.9206;
738.9000;0.3867;0.9379;
739.2000;0.3761;0.9181;
739.5000;0.3867;0.9403;
739.8000;0.3850;0.9403;
740.1000;0.3948;0.9675;
740.4000;0.3858;0.9354;
740.7000;0.3850;0.9305;
741.0000;0.3850;0.9329;
741.3000;0.3867;0.9453;
741.6000;0.3858;0.9453;
741.9000;0.3858;0.9453;
742.2000;0.3858;0.9502;
742.5000;0.3867;0.9453;
742.8000;0.3834;0.9403;
743.1000;0.3858;0.9527;
743.4000;0.3801;0.9379;
743.7000;0.3842;0.9453;
744.0000;0.3867;0.9502;
744.3000;0.3875;0.9502;
744.6000;0.3850;0.9502;
744.9000;0.3850;0.9502;
745.2000;0.3850;0.9453;
745.5000;0.3842;0.9453;
745.8000;0.3850;0.9428;
746.1000;0.3818;0.9329;
746.4000;0.3834;0.9280;
746.7000;0.3858;0.9329;
747.0000;0.3915;0.9453;
747.3000;0.3891;0.9379;
747.6000;0.3842;0.9329;
747.9000;0.3850;0.9329;
748.2000;0.3875;0.9403;
748.5000;0.3875;0.9527;
748.8000;0.3867;0.9527;
749.1000;0.3842;0.9453;
749.4000;0.3826;0.9552;
749.7000;0.3883;0.9798;
750.0000;0.3826;0.9552;
750.3000;0.3850;0.9626;
750.6000;0.3842;0.9700;
750.9000;0.3842;0.9700;
751.2000;0.3826;0.9626;
751.5000;0.3826;0.9576;
751.8000;0.3834;0.9527;
752.1000;0.3842;0.9552;
752.4000;0.3867;0.9552;
752.7000;0.3899;0.9650;
753.0000;0.3842;0.9502;
753.3000;0.3907;0.9675;
753.6000;0.3850;0.9502;
753.9000;0.3777;0.9354;
754.2000;0.3842;0.9502;
754.5000;0.3842;0.9502;
754.8000;0.3850;0.9527;
755.1000;0.3858;0.9576;
755.4000;0.3834;0.9576;
755.7000;0.3842;0.9576;
756.0000;0.3867;0.9453;
756.3000;0.3818;0.9354;
756.6000;0.3834;0.9453;
756.9000;0.3818;0.9329;
757.2000;0.3818;0.9428;
757.5000;0.3818;0.9428;
757.8000;0.3826;0.9453;
758.1000;0.3858;0.9527;
758.4000;0.3842;0.9502;
758.7000;0.3842;0.9601;
759.0000;0.3810;0.9502;
759.3000;0.3818;0.9502;
759.6000;0.3834;0.9453;
759.9000;0.3826;0.9428;
760.2000;0.3834;0.9502;
760.5000;0.3842;0.9552;
760.8000;0.3826;0.9477;
761.1000;0.3834;0.9453;
761.4000;0.3858;0.9552;
761.7000;0.3834;0.9428;
762.0000;0.3777;0.9329;
762.3000;0.3777;0.9403;
762.6000;0.3834;0.9601;
762.9000;0.3818;0.9527;
763.2000;0.3907;0.9749;
763.5000;0.3850;0.9601;
763.8000;0.3850;0.9527;
764.1000;0.3891;0.9601;
764.4000;0.3834;0.9428;
764.7000;0.3842;0.9379;
765.0000;0.3850;0.9329;
765.3000;0.3834;0.9354;
765.6000;0.3850;0.9329;
765.9000;0.3850;0.9305;
766.2000;0.3834;0.9280;
766.5000;0.3867;0.9354;
766.8000;0.3858;0.9354;
767.1000;0.3850;0.9231;
767.4000;0.3842;0.9255;
767.7000;0.3850;0.9280;
768.0000;0.3842;0.9305;
768.3000;0.3834;0.9305;
768.6000;0.3818;0.9329;
768.9000;0.3834;0.9379;
769.2000;0.3826;0.9477;
769.5000;0.3818;0.9403;
769.8000;0.3834;0.9453;
770.1000;0.3818;0.9354;
770.4000;0.3842;0.9403;
770.7000;0.3842;0.9403;
771.0000;0.3858;0.9403;
771.3000;0.3858;0.9379;
771.6000;0.3850;0.9354;
771.9000;0.3842;0.9428;
772.2000;0.3850;0.9552;
772.5000;0.3810;0.9477;
772.8000;0.3818;0.9453;
773.1000;0.3842;0.9453;
773.4000;0.3826;0.9403;
773.7000;0.3834;0.9428;
774.0000;0.3842;0.9477;
774.3000;0.3842;0.9477;
774.6000;0.3801;0.9329;
774.9000;0.3826;0.9379;
775.2000;0.3736;0.9157;
775.5000;0.3834;0.9453;
775.8000;0.3793;0.9403;
776.1000;0.3826;0.9477;
776.4000;0.3818;0.9403;
776.7000;0.3826;0.9379;
777.0000;0.3850;0.9379;
777.3000;0.3728;0.9083;
777.6000;0.3842;0.9354;
777.9000;0.3810;0.9354;
778.2000;0.3834;0.9403;
778.5000;0.3801;0.9305;
778.8000;0.3842;0.9428;
779.1000;0.3834;0.9379;
779.4000;0.3826;0.9354;
779.7000;0.3850;0.9329;
780.0000;0.3842;0.9305;
780.3000;0.3818;0.9231;
780.6000;0.3842;0.9280;
780.9000;0.3834;0.9255;
781.2000;0.3875;0.9428;
781.5000;0.3810;0.9329;
781.8000;0.3842;0.9305;
782.1000;0.3818;0.9255;
782.4000;0.3826;0.9354;
782.7000;0.3850;0.9428;
783.0000;0.3899;0.9502;
783.3000;0.3842;0.9305;
783.6000;0.3842;0.9379;
783.9000;0.3842;0.9305;
784.2000;0.3826;0.9305;
784.5000;0.3842;0.9379;
784.8000;0.3842;0.9329;
785.1000;0.3842;0.9231;
785.4000;0.3769;0.9181;
785.7000;0.3818;0.9280;
786.0000;0.3834;0.9305;
786.3000;0.3801;0.9305;
786.6000;0.3818;0.9354;
786.9000;0.3801;0.9280;
787.2000;0.3826;0.9280;
787.5000;0.3793;0.9206;
787.8000;0.3810;0.9231;
788.1000;0.3826;0.9231;
788.4000;0.3826;0.9231;
788.7000;0.3826;0.9206;
789.0000;0.3834;0.9329;
789.3000;0.3810;0.9379;
789.6000;0.3826;0.9379;
789.9000;0.3842;0.9354;
790.2000;0.3818;0.9255;
790.5000;0.3818;0.9329;
790.8000;0.3834;0.9354;
791.1000;0.3810;0.9428;
791.4000;0.3810;0.9379;
791.7000;0.3818;0.9379;
792.0000;0.3826;0.9453;
792.3000;0.3850;0.9477;
792.6000;0.3826;0.9453;
792.9000;0.3834;0.9477;
793.2000;0.3826;0.9428;
793.5000;0.3826;0.9329;
793.8000;0.3850;0.9255;
794.1000;0.3850;0.9305;
794.4000;0.3753;0.9255;
794.7000;0.3842;0.9552;
795.0000;0.3850;0.9527;
795.3000;0.3785;0.9379;
795.6000;0.3826;0.9552;
795.9000;0.3818;0.9576;
796.2000;0.3850;0.9700;
796.5000;0.3907;0.9848;
796.8000;0.3834;0.9601;
797.1000;0.3818;0.9601;
797.4000;0.3801;0.9626;
797.7000;0.3834;0.9601;
798.0000;0.3818;0.9552;
798.3000;0.3810;0.9552;
798.6000;0.3826;0.9527;
798.9000;0.3793;0.9477;
799.2000;0.3818;0.9502;
799.5000;0.3875;0.9626;
799.8000;0.3818;0.9453;
800.1000;0.3810;0.9280;
800.4000;0.3867;0.9453;
800.7000;0.3883;0.9650;
801.0000;0.3818;0.9576;
801.3000;0.3801;0.9552;
801.6000;0.3801;0.9601;
801.9000;0.3826;0.9576;
802.2000;0.3810;0.9428;
802.5000;0.3744;0.9305;
802.8000;0.3842;0.9502;
803.1000;0.3785;0.9354;
803.4000;0.3891;0.9576;
803.7000;0.3818;0.9403;
804.0000;0.3834;0.9453;
804.3000;0.3777;0.9379;
804.6000;0.3801;0.9403;
804.9000;0.3826;0.9502;
805.2000;0.3842;0.9601;
805.5000;0.3826;0.9576;
805.8000;0.3826;0.9502;
806.1000;0.3826;0.9502;
806.4000;0.3818;0.9403;
806.7000;0.3801;0.9255;
807.0000;0.3801;0.9329;
807.3000;0.3818;0.9354;
807.6000;0.3818;0.9329;
807.9000;0.3810;0.9280;
808.2000;0.3810;0.9305;
808.5000;0.3818;0.9231;
808.8000;0.3826;0.9305;
809.1000;0.3826;0.9428;
809.4000;0.3826;0.9403;
809.7000;0.3818;0.9329;
810.0000;0.3810;0.9403;
810.3000;0.3818;0.9477;
810.6000;0.3834;0.9527;
810.9000;0.3818;0.9428;
811.2000;0.3810;0.9428;
811.5000;0.3818;0.9502;
811.8000;0.3826;0.9552;
812.1000;0.3875;0.9675;
812.4000;0.3826;0.9502;
812.7000;0.3801;0.9502;
813.0000;0.3834;0.9552;
813.3000;0.3850;0.9626;
813.6000;0.3826;0.9601;
813.9000;0.3793;0.9428;
814.2000;0.3801;0.9379;
814.5000;0.3793;0.9354;
814.8000;0.3801;0.9403;
815.1000;0.3801;0.9477;
815.4000;0.3736;0.9132;
815.7000;0.3793;0.9231;
816.0000;0.3842;0.9379;
816.3000;0.3842;0.9305;
816.6000;0.3818;0.9231;
816.9000;0.3834;0.9280;
817.2000;0.3826;0.9354;
817.5000;0.3810;0.9329;
817.8000;0.3810;0.9329;
818.1000;0.3826;0.9305;
818.4000;0.3923;0.9527;
818.7000;0.3923;0.9502;
819.0000;0.3899;0.9502;
819.3000;0.3842;0.9329;
819.6000;0.3826;0.9403;
819.9000;0.3801;0.9453;
820.2000;0.3810;0.9453;
820.5000;0.3826;0.9477;
820.8000;0.3826;0.9477;
821.1000;0.3834;0.9453;
821.4000;0.3826;0.9403;
821.7000;0.3818;0.9329;
822.0000;0.3834;0.9379;
822.3000;0.3818;0.9477;
822.6000;0.3818;0.9477;
822.9000;0.3818;0.9453;
823.2000;0.3793;0.9403;
823.5000;0.3810;0.9428;
823.8000;0.3793;0.9379;
824.1000;0.3834;0.9477;
824.4000;0.3907;0.9700;
824.7000;0.3834;0.9502;
825.0000;0.3736;0.9231;
825.3000;0.3899;0.9675;
825.6000;0.3818;0.9403;
825.9000;0.3826;0.9453;
826.2000;0.3826;0.9428;
826.5000;0.3810;0.9428;
826.8000;0.3826;0.9527;
827.1000;0.3810;0.9601;
827.4000;0.3834;0.9700;
827.7000;0.3826;0.9650;
828.0000;0.3818;0.9626;
828.3000;0.3826;0.9576;
828.6000;0.3834;0.9650;
828.9000;0.3801;0.9626;
829.2000;0.3801;0.9576;
829.5000;0.3818;0.9576;
829.8000;0.3834;0.9552;
830.1000;0.3826;0.9552;
830.4000;0.3826;0.9601;
830.7000;0.3801;0.9527;
831.0000;0.3850;0.9700;
831.3000;0.3915;0.9848;
831.6000;0.3834;0.9724;
831.9000;0.3818;0.9700;
832.2000;0.3801;0.9700;
832.5000;0.3818;0.9650;
832.8000;0.3810;0.9626;
833.1000;0.3810;0.9650;
833.4000;0.3736;0.9379;
833.7000;0.3826;0.9527;
834.0000;0.3728;0.9329;
834.3000;0.3785;0.9477;
834.6000;0.3818;0.9502;
834.9000;0.3801;0.9527;
835.2000;0.3818;0.9477;
835.5000;0.3785;0.9403;
835.8000;0.3801;0.9477;
836.1000;0.3736;0.9329;
836.4000;0.3761;0.9354;
836.7000;0.3834;0.9601;
837.0000;0.3818;0.9626;
837.3000;0.3810;0.9601;
837.6000;0.3785;0.9527;
837.9000;0.3810;0.9626;
838.2000;0.3793;0.9675;
838.5000;0.3842;0.9749;
838.8000;0.3818;0.9749;
839.1000;0.3826;0.9700;
839.4000;0.3842;0.9700;
839.7000;0.3858;0.9798;
840.0000;0.3826;0.9749;
840.3000;0.3834;0.9798;
840.6000;0.3826;0.9601;
840.9000;0.3810;0.9428;
841.2000;0.3818;0.9477;
841.5000;0.3850;0.9576;
841.8000;0.3810;0.9453;
842.1000;0.3826;0.9527;
842.4000;0.3834;0.9502;
842.7000;0.3785;0.9403;
843.0000;0.3834;0.9502;
843.3000;0.3810;0.9502;
843.6000;0.3785;0.9403;
843.9000;0.3810;0.9502;
844.2000;0.3826;0.9453;
844.5000;0.3826;0.9502;
844.8000;0.3826;0.9453;
845.1000;0.3818;0.9527;
845.4000;0.3801;0.9527;
845.7000;0.3826;0.9576;
846.0000;0.3810;0.9477;
846.3000;0.3810;0.9502;
846.6000;0.3793;0.9477;
846.9000;0.3801;0.9428;
847.2000;0.3785;0.9453;
847.5000;0.3801;0.9527;
847.8000;0.3801;0.9552;
848.1000;0.3801;0.9601;
848.4000;0.3777;0.9601;
848.7000;0.3801;0.9675;
849.0000;0.3810;0.9626;
849.3000;0.3793;0.9502;
849.6000;0.3818;0.9477;
849.9000;0.3810;0.9428;
850.2000;0.3744;0.9231;
850.5000;0.3801;0.9453;
850.8000;0.3793;0.9403;
851.1000;0.3793;0.9403;
851.4000;0.3810;0.9552;
851.7000;0.3818;0.9601;
852.0000;0.3801;0.9552;
852.3000;0.3875;0.9823;
852.6000;0.3818;0.9552;
852.9000;0.3801;0.9453;
853.2000;0.3761;0.9329;
853.5000;0.3785;0.9379;
853.8000;0.3801;0.9329;
854.1000;0.3744;0.9231;
854.4000;0.3785;0.9305;
854.7000;0.3826;0.9477;
855.0000;0.3826;0.9601;
855.3000;0.3867;0.9774;
855.6000;0.3826;0.9675;
855.9000;0.3818;0.9650;
856.2000;0.3818;0.9724;
856.5000;0.3793;0.9749;
856.8000;0.3810;0.9675;
857.1000;0.3736;0.9502;
857.4000;0.3810;0.9601;
857.7000;0.3793;0.9576;
858.0000;0.3875;0.9675;
858.3000;0.3793;0.9453;
858.6000;0.3801;0.9428;
858.9000;0.3801;0.9379;
859.2000;0.3818;0.9403;
859.5000;0.3818;0.9477;
859.8000;0.3801;0.9379;
860.1000;0.3785;0.9453;
860.4000;0.3801;0.9502;
860.7000;0.3818;0.9527;
861.0000;0.3818;0.9576;
861.3000;0.3801;0.9650;
861.6000;0.3801;0.9626;
861.9000;0.3785;0.9576;
862.2000;0.3818;0.9650;
862.5000;0.3810;0.9650;
862.8000;0.3744;0.9477;
863.1000;0.3810;0.9650;
863.4000;0.3818;0.9675;
863.7000;0.3793;0.9650;
864.0000;0.3826;0.9601;
864.3000;0.3769;0.9477;
864.6000;0.3793;0.9453;
864.9000;0.3810;0.9527;
865.2000;0.3826;0.9576;
865.5000;0.3810;0.9502;
865.8000;0.3793;0.9329;
866.1000;0.3818;0.9502;
866.4000;0.3810;0.9428;
866.7000;0.3793;0.9403;
867.0000;0.3793;0.9453;
867.3000;0.3818;0.9601;
867.6000;0.3818;0.9601;
867.9000;0.3810;0.9601;
868.2000;0.3801;0.9626;
868.5000;0.3818;0.9650;
868.8000;0.3810;0.9700;
869.1000;0.3769;0.9650;
869.4000;0.3777;0.9724;
869.7000;0.3810;0.9774;
870.0000;0.3826;0.9774;
870.3000;0.3801;0.9749;
870.6000;0.3834;0.9848;
870.9000;0.3858;0.9749;
871.2000;0.3744;0.9379;
871.5000;0.3761;0.9453;
871.8000;0.3818;0.9601;
872.1000;0.3801;0.9502;
872.4000;0.3810;0.9601;
872.7000;0.3801;0.9552;
873.0000;0.3826;0.9576;
873.3000;0.3810;0.9601;
873.6000;0.3867;0.9774;
873.9000;0.3801;0.9576;
874.2000;0.3801;0.9502;
874.5000;0.3801;0.9403;
874.8000;0.3777;0.9354;
875.1000;0.3818;0.9453;
875.4000;0.3818;0.9428;
875.7000;0.3801;0.9403;
876.0000;0.3810;0.9428;
876.3000;0.3810;0.9453;
876.6000;0.3801;0.9453;
876.9000;0.3810;0.9502;
877.2000;0.3777;0.9354;
877.5000;0.3777;0.9329;
877.8000;0.3810;0.9453;
878.1000;0.3826;0.9527;
878.4000;0.3801;0.9403;
878.7000;0.3801;0.9354;
879.0000;0.3810;0.9280;
879.3000;0.3867;0.9502;
879.6000;0.3875;0.9552;
879.9000;0.3801;0.9428;
880.2000;0.3810;0.9428;
880.5000;0.3801;0.9305;
880.8000;0.3810;0.9354;
881.1000;0.3793;0.9477;
881.4000;0.3801;0.9502;
881.7000;0.3801;0.9354;
882.0000;0.3867;0.9502;
882.3000;0.3793;0.9329;
882.6000;0.3793;0.9329;
882.9000;0.3801;0.9379;
883.2000;0.3818;0.9502;
883.5000;0.3801;0.9453;
883.8000;0.3793;0.9379;
884.1000;0.3810;0.9354;
884.4000;0.3810;0.9379;
884.7000;0.3826;0.9379;
885.0000;0.3793;0.9379;
885.3000;0.3777;0.9354;
885.6000;0.3810;0.9502;
885.9000;0.3810;0.9477;
886.2000;0.3810;0.9527;
886.5000;0.3793;0.9428;
886.8000;0.3801;0.9477;
887.1000;0.3801;0.9576;
887.4000;0.3801;0.9453;
887.7000;0.3810;0.9354;
888.0000;0.3810;0.9354;
888.3000;0.3810;0.9379;
888.6000;0.3801;0.9403;
888.9000;0.3785;0.9453;
889.2000;0.3826;0.9576;
889.5000;0.3801;0.9354;
889.8000;0.3810;0.9379;
890.1000;0.3810;0.9354;
890.4000;0.3801;0.9379;
890.7000;0.3818;0.9453;
891.0000;0.3818;0.9576;
891.3000;0.3842;0.9700;
891.6000;0.3785;0.9552;
891.9000;0.3818;0.9650;
892.2000;0.3810;0.9576;
892.5000;0.3818;0.9502;
892.8000;0.3801;0.9552;
893.1000;0.3785;0.9379;
893.4000;0.3867;0.9502;
893.7000;0.3818;0.9354;
894.0000;0.3826;0.9428;
894.3000;0.3801;0.9403;
894.6000;0.3777;0.9329;
894.9000;0.3818;0.9477;
895.2000;0.3777;0.9453;
895.5000;0.3801;0.9576;
895.8000;0.3826;0.9626;
896.1000;0.3850;0.9650;
896.4000;0.3801;0.9527;
896.7000;0.3818;0.9601;
897.0000;0.3810;0.9601;
897.3000;0.3826;0.9626;
897.6000;0.3818;0.9576;
897.9000;0.3801;0.9379;
898.2000;0.3801;0.9354;
898.5000;0.3801;0.9354;
898.8000;0.3818;0.9428;
899.1000;0.3793;0.9453;
899.4000;0.3801;0.9477;
899.7000;0.3801;0.9428;
900.0000;0.3826;0.9502;
900.3000;0.3818;0.9552;
900.6000;0.3801;0.9477;
900.9000;0.3777;0.9502;
901.2000;0.3810;0.9626;
901.5000;0.3785;0.9626;
901.8000;0.3810;0.9749;
902.1000;0.3810;0.9749;
902.4000;0.3818;0.9700;
902.7000;0.3801;0.9626;
903.0000;0.3801;0.9527;
903.3000;0.3858;0.9700;
903.6000;0.3793;0.9650;
903.9000;0.3785;0.9626;
904.2000;0.3810;0.9650;
904.5000;0.3810;0.9774;
904.8000;0.3769;0.9700;
905.1000;0.3826;0.9823;
905.4000;0.3801;0.9798;
905.7000;0.3793;0.9724;
906.0000;0.3801;0.9700;
906.3000;0.3801;0.9675;
906.6000;0.3785;0.9576;
906.9000;0.3801;0.9626;
907.2000;0.3785;0.9601;
907.5000;0.3785;0.9576;
907.8000;0.3793;0.9576;
908.1000;0.3793;0.9477;
908.4000;0.3899;0.9749;
908.7000;0.3801;0.9576;
909.0000;0.3801;0.9650;
909.3000;0.3785;0.9650;
909.6000;0.3769;0.9576;
909.9000;0.3793;0.9502;
910.2000;0.3785;0.9453;
910.5000;0.3769;0.9453;
910.8000;0.3810;0.9626;
911.1000;0.3801;0.9601;
911.4000;0.3842;0.9675;
911.7000;0.3801;0.9601;
912.0000;0.3818;0.9576;
912.3000;0.3753;0.9502;
912.6000;0.3818;0.9724;
912.9000;0.3801;0.9724;
913.2000;0.3810;0.9700;
913.5000;0.3793;0.9601;
913.8000;0.3793;0.9650;
914.1000;0.3834;0.9724;
914.4000;0.3826;0.9700;
914.7000;0.3801;0.9552;
915.0000;0.3801;0.9477;
915.3000;0.3801;0.9576;
915.6000;0.3810;0.9626;
915.9000;0.3785;0.9626;
916.2000;0.3826;0.9749;
916.5000;0.3810;0.9650;
916.8000;0.3793;0.9626;
917.1000;0.3753;0.9527;
917.4000;0.3818;0.9700;
917.7000;0.3810;0.9749;
918.0000;0.3793;0.9798;
918.3000;0.3826;1.0020;
918.6000;0.3801;0.9946;
918.9000;0.3736;0.9724;
919.2000;0.3753;0.9749;
919.5000;0.3769;0.9798;
919.8000;0.3810;0.9872;
920.1000;0.3801;0.9798;
920.4000;0.3801;0.9749;
920.7000;0.3801;0.9626;
921.0000;0.3777;0.9527;
921.3000;0.3793;0.9527;
921.6000;0.3793;0.9576;
921.9000;0.3777;0.9626;
922.2000;0.3785;0.9527;
922.5000;0.3810;0.9502;
922.8000;0.3810;0.9527;
923.1000;0.3810;0.9552;
923.4000;0.3818;0.9650;
923.7000;0.3801;0.9626;
924.0000;0.3801;0.9576;
924.3000;0.3777;0.9428;
924.6000;0.3801;0.9453;
924.9000;0.3818;0.9552;
925.2000;0.3761;0.9428;
925.5000;0.3801;0.9601;
925.8000;0.3777;0.9601;
926.1000;0.3826;0.9626;
926.4000;0.3834;0.9774;
926.7000;0.3785;0.9675;
927.0000;0.3793;0.9749;
927.3000;0.3801;0.9675;
927.6000;0.3810;0.9626;
927.9000;0.3793;0.9650;
928.2000;0.3728;0.9502;
928.5000;0.3818;0.9626;
928.8000;0.3769;0.9477;
929.1000;0.3777;0.9477;
929.4000;0.3818;0.9527;
929.7000;0.3801;0.9428;
930.0000;0.3826;0.9477;
930.3000;0.3826;0.9552;
930.6000;0.3785;0.9552;
930.9000;0.3801;0.9626;
931.2000;0.3818;0.9601;
931.5000;0.3769;0.9576;
931.8000;0.3769;0.9527;
932.1000;0.3801;0.9626;
932.4000;0.3834;0.9724;
932.7000;0.3793;0.9527;
933.0000;0.3785;0.9601;
933.3000;0.3801;0.9576;
933.6000;0.3793;0.9477;
933.9000;0.3793;0.9527;
934.2000;0.3801;0.9626;
934.5000;0.3687;0.9354;
934.8000;0.3793;0.9552;
935.1000;0.3810;0.9552;
935.4000;0.3777;0.9428;
935.7000;0.3801;0.9453;
936.0000;0.3793;0.9453;
936.3000;0.3793;0.9502;
936.6000;0.3736;0.9280;
936.9000;0.3793;0.9527;
937.2000;0.3793;0.9453;
937.5000;0.3826;0.9650;
937.8000;0.3801;0.9626;
938.1000;0.3793;0.9601;
938.4000;0.3785;0.9576;
938.7000;0.3712;0.9329;
939.0000;0.3810;0.9527;
939.3000;0.3801;0.9527;
939.6000;0.3801;0.9502;
939.9000;0.3810;0.9477;
940.2000;0.3793;0.9502;
940.5000;0.3826;0.9477;
940.8000;0.3793;0.9403;
941.1000;0.3793;0.9403;
941.4000;0.3793;0.9379;
941.7000;0.3785;0.9477;
942.0000;0.3793;0.9502;
942.3000;0.3761;0.9477;
942.6000;0.3801;0.9552;
942.9000;0.3867;0.9626;
943.2000;0.3801;0.9552;
943.5000;0.3801;0.9428;
943.8000;0.3801;0.9453;
944.1000;0.3826;0.9453;
944.4000;0.3712;0.9231;
944.7000;0.3810;0.9453;
945.0000;0.3818;0.9527;
945.3000;0.3826;0.9552;
945.6000;0.3810;0.9502;
945.9000;0.3810;0.9552;
946.2000;0.3834;0.9527;
946.5000;0.3818;0.9428;
946.8000;0.3801;0.9428;
947.1000;0.3793;0.9428;
947.4000;0.3793;0.9403;
947.7000;0.3785;0.9403;
948.0000;0.3785;0.9477;
948.3000;0.3858;0.9601;
948.6000;0.3793;0.9428;
948.9000;0.3777;0.9354;
949.2000;0.3801;0.9403;
949.5000;0.3810;0.9453;
949.8000;0.3801;0.9354;
950.1000;0.3834;0.9453;
950.4000;0.3736;0.9231;
950.7000;0.3793;0.9428;
951.0000;0.3720;0.9329;
951.3000;0.3810;0.9477;
951.6000;0.3801;0.9527;
951.9000;0.3826;0.9700;
952.2000;0.3948;0.9996;
952.5000;0.3761;0.9527;
952.8000;0.3801;0.9552;
953.1000;0.3801;0.9527;
953.4000;0.3785;0.9502;
953.7000;0.3785;0.9527;
954.0000;0.3826;0.9552;
954.3000;0.3777;0.9527;
954.6000;0.3826;0.9675;
954.9000;0.3793;0.9576;
955.2000;0.3801;0.9601;
955.5000;0.3891;0.9872;
955.8000;0.3785;0.9601;
956.1000;0.3818;0.9626;
956.4000;0.3810;0.9576;
956.7000;0.3785;0.9527;
957.0000;0.3826;0.9576;
957.3000;0.3777;0.9403;
957.6000;0.3793;0.9453;
957.9000;0.3883;0.9675;
958.2000;0.3801;0.9305;
958.5000;0.3744;0.9181;
958.8000;0.3810;0.9354;
959.1000;0.3801;0.9354;
959.4000;0.3875;0.9601;
959.7000;0.3801;0.9329;
960.0000;0.3810;0.9231;
960.3000;0.3793;0.9231;
960.6000;0.3785;0.9280;
960.9000;0.3753;0.9181;
961.2000;0.3801;0.9403;
961.5000;0.3785;0.9329;
961.8000;0.3810;0.9428;
962.1000;0.3818;0.9428;
962.4000;0.3818;0.9477;
962.7000;0.3842;0.9502;
963.0000;0.3785;0.9280;
963.3000;0.3793;0.9255;
963.6000;0.3793;0.9280;
963.9000;0.3785;0.9280;
964.2000;0.3769;0.9231;
964.5000;0.3753;0.9280;
964.8000;0.3875;0.9552;
965.1000;0.3826;0.9527;
965.4000;0.3793;0.9552;
965.7000;0.3793;0.9576;
966.0000;0.3785;0.9502;
966.3000;0.3793;0.9502;
966.6000;0.3801;0.9502;
966.9000;0.3777;0.9453;
967.2000;0.3810;0.9453;
967.5000;0.3801;0.9428;
967.8000;0.3801;0.9502;
968.1000;0.3818;0.9552;
968.4000;0.3785;0.9527;
968.7000;0.3785;0.9502;
969.0000;0.3801;0.9626;
969.3000;0.3785;0.9626;
969.6000;0.3793;0.9626;
969.9000;0.3810;0.9626;
970.2000;0.3858;0.9700;
970.5000;0.3810;0.9552;
970.8000;0.3801;0.9477;
971.1000;0.3769;0.9329;
971.4000;0.3785;0.9354;
971.7000;0.3801;0.9354;
972.0000;0.3793;0.9305;
972.3000;0.3777;0.9231;
972.6000;0.3801;0.9255;
972.9000;0.3858;0.9403;
973.2000;0.3850;0.9379;
973.5000;0.3810;0.9379;
973.8000;0.3785;0.9403;
974.1000;0.3761;0.9428;
974.4000;0.3793;0.9477;
974.7000;0.3777;0.9403;
975.0000;0.3810;0.9428;
975.3000;0.3801;0.9502;
975.6000;0.3777;0.9428;
975.9000;0.3761;0.9379;
976.2000;0.3793;0.9255;
976.5000;0.3785;0.9231;
976.8000;0.3785;0.9255;
977.1000;0.3810;0.9329;
977.4000;0.3785;0.9280;
977.7000;0.3777;0.9403;
978.0000;0.3810;0.9428;
978.3000;0.3810;0.9428;
978.6000;0.3810;0.9329;
978.9000;0.3801;0.9403;
979.2000;0.3785;0.9428;
979.5000;0.3801;0.9453;
979.8000;0.3810;0.9354;
980.1000;0.3769;0.9280;
980.4000;0.3785;0.9280;
980.7000;0.3793;0.9329;
981.0000;0.3801;0.9453;
981.3000;0.3785;0.9453;
981.6000;0.3801;0.9453;
981.9000;0.3801;0.9477;
982.2000;0.3801;0.9527;
982.5000;0.3826;0.9527;
982.8000;0.3818;0.9502;
983.1000;0.3818;0.9527;
983.4000;0.3801;0.9428;
983.7000;0.3801;0.9453;
984.0000;0.3818;0.9650;
984.3000;0.3769;0.9601;
984.6000;0.3826;0.9700;
984.9000;0.3801;0.9675;
985.2000;0.3785;0.9576;
985.5000;0.3777;0.9675;
985.8000;0.3801;0.9675;
986.1000;0.3785;0.9650;
986.4000;0.3810;0.9675;
986.7000;0.3785;0.9650;
987.0000;0.3793;0.9700;
987.3000;0.3834;0.9749;
987.6000;0.3834;0.9774;
987.9000;0.3810;0.9798;
988.2000;0.3777;0.9798;
988.5000;0.3801;0.9774;
988.8000;0.3785;0.9823;
989.1000;0.3785;0.9848;
989.4000;0.3793;0.9774;
989.7000;0.3801;0.9798;
990.0000;0.3687;0.9428;
990.3000;0.3801;0.9749;
990.6000;0.3793;0.9749;
990.9000;0.3810;0.9700;
991.2000;0.3801;0.9626;
991.5000;0.3785;0.9552;
991.8000;0.3793;0.9626;
992.1000;0.3793;0.9650;
992.4000;0.3785;0.9700;
992.7000;0.3810;0.9650;
993.0000;0.3777;0.9601;
993.3000;0.3801;0.9700;
993.6000;0.3801;0.9798;
993.9000;0.3810;0.9798;
994.2000;0.3810;0.9774;
994.5000;0.3785;0.9675;
994.8000;0.3777;0.9552;
995.1000;0.3801;0.9626;
995.4000;0.3777;0.9675;
995.7000;0.3810;0.9749;
996.0000;0.3801;0.9675;
996.3000;0.3810;0.9650;
996.6000;0.3810;0.9626;
996.9000;0.3793;0.9626;
997.2000;0.3818;0.9724;
997.5000;0.3801;0.9724;
997.8000;0.3810;0.9724;
998.1000;0.3785;0.9626;
998.4000;0.3793;0.9700;
998.7000;0.3793;0.9774;
999.0000;0.3785;0.9749;
999.3000;0.3777;0.9700;
999.6000;0.3785;0.9774;
999.9000;0.3769;0.9626;
1000.2000;0.3810;0.9798;
1000.5000;0.3793;0.9774;
1000.8000;0.3793;0.9700;
1001.1000;0.3793;0.9749;
1001.4000;0.3818;0.9774;
1001.7000;0.3810;0.9798;
1002.0000;0.3785;0.9848;
1002.3000;0.3769;0.9774;
1002.6000;0.3777;0.9774;
1002.9000;0.3777;0.9848;
1003.2000;0.3785;0.9897;
1003.5000;0.3720;0.9675;
1003.8000;0.3785;0.9848;
1004.1000;0.3801;0.9774;
1004.4000;0.3801;0.9798;
1004.7000;0.3785;0.9774;
1005.0000;0.3826;0.9872;
1005.3000;0.3712;0.9502;
1005.6000;0.3801;0.9774;
1005.9000;0.3826;0.9848;
1006.2000;0.3801;0.9823;
1006.5000;0.3793;0.9798;
1006.8000;0.3801;0.9848;
1007.1000;0.3793;0.9700;
1007.4000;0.3785;0.9576;
1007.7000;0.3793;0.9650;
1008.0000;0.3801;0.9675;
1008.3000;0.3793;0.9798;
1008.6000;0.3793;0.9774;
1008.9000;0.3834;0.9848;
1009.2000;0.3801;0.9848;
1009.5000;0.3761;0.9798;
1009.8000;0.3777;0.9872;
1010.1000;0.3769;0.9848;
1010.4000;0.3769;0.9798;
1010.7000;0.3793;0.9749;
1011.0000;0.3875;0.9922;
1011.3000;0.3818;0.9650;
1011.6000;0.3826;0.9650;
1011.9000;0.3867;0.9724;
1012.2000;0.3785;0.9576;
1012.5000;0.3810;0.9601;
1012.8000;0.3801;0.9576;
1013.1000;0.3761;0.9502;
1013.4000;0.3793;0.9552;
1013.7000;0.3826;0.9626;
1014.0000;0.3867;0.9749;
1014.3000;0.3793;0.9601;
1014.6000;0.3801;0.9675;
1014.9000;0.3785;0.9626;
1015.2000;0.3801;0.9700;
1015.5000;0.3801;0.9798;
1015.8000;0.3785;0.9798;
1016.1000;0.3769;0.9774;
1016.4000;0.3785;0.9749;
1016.7000;0.3793;0.9700;
1017.0000;0.3801;0.9700;
1017.3000;0.3801;0.9724;
1017.6000;0.3810;0.9724;
1017.9000;0.3801;0.9749;
1018.2000;0.3777;0.9848;
1018.5000;0.3818;0.9872;
1018.8000;0.3818;0.9848;
1019.1000;0.3793;0.9848;
1019.4000;0.3744;0.9626;
1019.7000;0.3801;0.9749;
1020.0000;0.3793;0.9650;
1020.3000;0.3801;0.9527;
1020.6000;0.3777;0.9552;
1020.9000;0.3761;0.9626;
1021.2000;0.3793;0.9700;
1021.5000;0.3810;0.9700;
1021.8000;0.3785;0.9601;
1022.1000;0.3793;0.9502;
1022.4000;0.3810;0.9552;
1022.7000;0.3793;0.9675;
1023.0000;0.3785;0.9774;
1023.3000;0.3785;0.9650;
1023.6000;0.3777;0.9650;
1023.9000;0.3785;0.9601;
1024.2000;0.3793;0.9626;
1024.5000;0.3769;0.9576;
1024.8000;0.3793;0.9650;
1025.1000;0.3810;0.9626;
1025.4000;0.3777;0.9576;
1025.7000;0.3793;0.9552;
1026.0000;0.3777;0.9601;
1026.3000;0.3753;0.9477;
1026.6000;0.3793;0.9576;
1026.9000;0.3801;0.9576;
1027.2000;0.3785;0.9675;
1027.5000;0.3826;0.9823;
1027.8000;0.3793;0.9749;
1028.1000;0.3801;0.9823;
1028.4000;0.3810;0.9823;
1028.7000;0.3793;0.9798;
1029.0000;0.3810;0.9872;
1029.3000;0.3801;0.9823;
1029.6000;0.3818;0.9774;
1029.9000;0.3818;0.9774;
1030.2000;0.3818;0.9749;
1030.5000;0.3769;0.9675;
1030.8000;0.3793;0.9798;
1031.1000;0.3818;0.9798;
1031.4000;0.3777;0.9798;
1031.7000;0.3793;0.9774;
1032.0000;0.3785;0.9798;
1032.3000;0.3744;0.9700;
1032.6000;0.3810;0.9798;
1032.9000;0.3801;0.9774;
1033.2000;0.3785;0.9601;
1033.5000;0.3793;0.9724;
1033.8000;0.3810;0.9848;
1034.1000;0.3793;0.9872;
1034.4000;0.3801;0.9848;
1034.7000;0.3777;0.9724;
1035.0000;0.3793;0.9823;
1035.3000;0.3785;0.9798;
1035.6000;0.3777;0.9848;
1035.9000;0.3801;0.9897;
1036.2000;0.3818;0.9922;
1036.5000;0.3801;0.9922;
1036.8000;0.3834;0.9946;
1037.1000;0.3785;0.9897;
1037.4000;0.3785;0.9946;
1037.7000;0.3810;1.0020;
1038.0000;0.3801;0.9971;
1038.3000;0.3777;0.9823;
1038.6000;0.3785;0.9872;
1038.9000;0.3785;0.9897;
1039.2000;0.3858;0.9946;
1039.5000;0.3777;0.9749;
1039.8000;0.3793;0.9700;
1040.1000;0.3753;0.9552;
1040.4000;0.3785;0.9626;
1040.7000;0.3801;0.9576;
1041.0000;0.3810;0.9626;
1041.3000;0.3777;0.9601;
1041.6000;0.3810;0.9675;
1041.9000;0.3777;0.9675;
1042.2000;0.3793;0.9823;
1042.5000;0.3801;0.9774;
1042.8000;0.3801;0.9823;
1043.1000;0.3777;0.9848;
1043.4000;0.3801;0.9798;
1043.7000;0.3793;0.9749;
1044.0000;0.3777;0.9749;
1044.3000;0.3850;0.9872;
1044.6000;0.3793;0.9626;
1044.9000;0.3834;0.9601;
1045.2000;0.3801;0.9552;
1045.5000;0.3801;0.9477;
1045.8000;0.3785;0.9403;
1046.1000;0.3793;0.9428;
1046.4000;0.3793;0.9428;
1046.7000;0.3810;0.9403;
1047.0000;0.3769;0.9305;
1047.3000;0.3793;0.9428;
1047.6000;0.3810;0.9601;
1047.9000;0.3801;0.9650;
1048.2000;0.3818;0.9749;
1048.5000;0.3793;0.9749;
1048.8000;0.3793;0.9774;
1049.1000;0.3801;0.9872;
1049.4000;0.3769;0.9798;
1049.7000;0.3687;0.9576;
1050.0000;0.3793;0.9749;
1050.3000;0.3801;0.9724;
1050.6000;0.3810;0.9724;
1050.9000;0.3883;0.9848;
1051.2000;0.3810;0.9626;
1051.5000;0.3793;0.9650;
1051.8000;0.3801;0.9626;
1052.1000;0.3785;0.9576;
1052.4000;0.3801;0.9650;
1052.7000;0.3785;0.9700;
1053.0000;0.3793;0.9724;
1053.3000;0.3793;0.9774;
1053.6000;0.3810;0.9798;
1053.9000;0.3810;0.9724;
1054.2000;0.3793;0.9798;
1054.5000;0.3801;0.9798;
1054.8000;0.3801;0.9798;
1055.1000;0.3818;0.9848;
1055.4000;0.3785;0.9700;
1055.7000;0.3810;0.9774;
1056.0000;0.3793;0.9700;
1056.3000;0.3777;0.9552;
1056.6000;0.3801;0.9626;
1056.9000;0.3801;0.9700;
1057.2000;0.3785;0.9675;
1057.5000;0.3785;0.9848;
1057.8000;0.3785;0.9872;
1058.1000;0.3785;0.9872;
1058.4000;0.3793;0.9848;
1058.7000;0.3826;0.9946;
1059.0000;0.3785;0.9872;
1059.3000;0.3793;0.9798;
1059.6000;0.3801;0.9872;
1059.9000;0.3793;0.9897;
1060.2000;0.3785;0.9798;
1060.5000;0.3785;0.9774;
1060.8000;0.3801;0.9749;
1061.1000;0.3769;0.9675;
1061.4000;0.3818;0.9848;
1061.7000;0.3793;0.9823;
1062.0000;0.3801;0.9823;
1062.3000;0.3810;0.9823;
1062.6000;0.3801;0.9798;
1062.9000;0.3761;0.9675;
1063.2000;0.3810;0.9749;
1063.5000;0.3793;0.9774;
1063.8000;0.3801;0.9749;
1064.1000;0.3834;0.9774;
1064.4000;0.3801;0.9576;
1064.7000;0.3850;0.9626;
1065.0000;0.3818;0.9502;
1065.3000;0.3810;0.9329;
1065.6000;0.3777;0.9354;
1065.9000;0.3801;0.9379;
1066.2000;0.3769;0.9329;
1066.5000;0.3769;0.9329;
1066.8000;0.3875;0.9650;
1067.1000;0.3801;0.9428;
1067.4000;0.3858;0.9552;
1067.7000;0.3793;0.9428;
1068.0000;0.3867;0.9626;
1068.3000;0.3826;0.9502;
1068.6000;0.3801;0.9527;
1068.9000;0.3810;0.9626;
1069.2000;0.3801;0.9700;
1069.5000;0.3785;0.9749;
1069.8000;0.3801;0.9823;
1070.1000;0.3793;0.9848;
1070.4000;0.3801;0.9922;
1070.7000;0.3785;0.9848;
1071.0000;0.3777;0.9798;
1071.3000;0.3753;0.9601;
1071.6000;0.3777;0.9700;
1071.9000;0.3793;0.9724;
1072.2000;0.3761;0.9724;
1072.5000;0.3761;0.9749;
1072.8000;0.3801;0.9675;
1073.1000;0.3777;0.9601;
1073.4000;0.3777;0.9601;
1073.7000;0.3753;0.9527;
1074.0000;0.3753;0.9576;
1074.3000;0.3785;0.9675;
1074.6000;0.3793;0.9749;
1074.9000;0.3785;0.9749;
1075.2000;0.3801;0.9848;
1075.5000;0.3801;0.9946;
1075.8000;0.3793;0.9946;
1076.1000;0.3777;0.9872;
1076.4000;0.3810;0.9922;
1076.7000;0.3801;0.9823;
1077.0000;0.3810;0.9798;
1077.3000;0.3793;0.9724;
1077.6000;0.3777;0.9774;
1077.9000;0.3793;0.9749;
1078.2000;0.3875;0.9922;
1078.5000;0.3785;0.9675;
1078.8000;0.3810;0.9626;
1079.1000;0.3793;0.9502;
1079.4000;0.3793;0.9477;
1079.7000;0.3785;0.9428;
1080.0000;0.3810;0.9453;
1080.3000;0.3801;0.9453;
1080.6000;0.3785;0.9477;
1080.9000;0.3818;0.9576;
1081.2000;0.3793;0.9601;
1081.5000;0.3842;0.9724;
1081.8000;0.3801;0.9675;
1082.1000;0.3826;0.9724;
1082.4000;0.3761;0.9477;
1082.7000;0.3842;0.9848;
1083.0000;0.3810;0.9675;
1083.3000;0.3801;0.9700;
1083.6000;0.3785;0.9601;
1083.9000;0.3736;0.9502;
1084.2000;0.3785;0.9527;
1084.5000;0.3769;0.9601;
1084.8000;0.3801;0.9774;
1085.1000;0.3793;0.9798;
1085.4000;0.3769;0.9626;
1085.7000;0.3793;0.9576;
1086.0000;0.3785;0.9576;
1086.3000;0.3785;0.9552;
1086.6000;0.3793;0.9576;
1086.9000;0.3785;0.9576;
1087.2000;0.3785;0.9552;
1087.5000;0.3801;0.9552;
1087.8000;0.3704;0.9329;
1088.1000;0.3793;0.9601;
1088.4000;0.3793;0.9626;
1088.7000;0.3769;0.9502;
1089.0000;0.3793;0.9477;
1089.3000;0.3777;0.9527;
1089.6000;0.3793;0.9650;
1089.9000;0.3810;0.9700;
1090.2000;0.3801;0.9527;
1090.5000;0.3793;0.9428;
1090.8000;0.3769;0.9403;
1091.1000;0.3801;0.9527;
1091.4000;0.3736;0.9502;
1091.7000;0.3793;0.9601;
1092.0000;0.3785;0.9601;
1092.3000;0.3793;0.9650;
1092.6000;0.3801;0.9700;
1092.9000;0.3793;0.9700;
1093.2000;0.3785;0.9724;
1093.5000;0.3793;0.9724;
1093.8000;0.3769;0.9650;
1094.1000;0.3769;0.9675;
1094.4000;0.3753;0.9626;
1094.7000;0.3777;0.9724;
1095.0000;0.3810;0.9823;
1095.3000;0.3801;0.9675;
1095.6000;0.3785;0.9626;
1095.9000;0.3810;0.9675;
1096.2000;0.3826;0.9774;
1096.5000;0.3810;0.9724;
1096.8000;0.3801;0.9700;
1097.1000;0.3777;0.9626;
1097.4000;0.3801;0.9675;
1097.7000;0.3793;0.9626;
1098.0000;0.3793;0.9527;
1098.3000;0.3777;0.9527;
1098.6000;0.3777;0.9552;
1098.9000;0.3777;0.9527;
1099.2000;0.3753;0.9527;
1099.5000;0.3810;0.9650;
1099.8000;0.3785;0.9552;
1100.1000;0.3826;0.9626;
1100.4000;0.3785;0.9552;
1100.7000;0.3793;0.9552;
1101.0000;0.3777;0.9477;
1101.3000;0.3777;0.9477;
1101.6000;0.3810;0.9453;
1101.9000;0.3793;0.9477;
1102.2000;0.3777;0.9527;
1102.5000;0.3810;0.9601;
1102.8000;0.3736;0.9379;
1103.1000;0.3810;0.9626;
1103.4000;0.3769;0.9576;
1103.7000;0.3826;0.9675;
1104.0000;0.3769;0.9527;
1104.3000;0.3899;0.9774;
1104.6000;0.3761;0.9428;
1104.9000;0.3858;0.9774;
1105.2000;0.3818;0.9700;
1105.5000;0.3801;0.9552;
1105.8000;0.3761;0.9428;
1106.1000;0.3891;0.9749;
1106.4000;0.3793;0.9502;
1106.7000;0.3793;0.9601;
1107.0000;0.3801;0.9675;
1107.3000;0.3736;0.9502;
1107.6000;0.3826;0.9626;
1107.9000;0.3801;0.9453;
1108.2000;0.3801;0.9502;
1108.5000;0.3793;0.9477;
1108.8000;0.3769;0.9576;
1109.1000;0.3793;0.9601;
1109.4000;0.3761;0.9601;
1109.7000;0.3793;0.9700;
1110.0000;0.3777;0.9552;
1110.3000;0.3793;0.9502;
1110.6000;0.3793;0.9354;
1110.9000;0.3810;0.9280;
1111.2000;0.3777;0.9305;
1111.5000;0.3810;0.9527;
1111.8000;0.3785;0.9552;
1112.1000;0.3858;0.9675;
1112.4000;0.3777;0.9477;
1112.7000;0.3793;0.9477;
1113.0000;0.3785;0.9576;
1113.3000;0.3801;0.9576;
1113.6000;0.3793;0.9576;
1113.9000;0.3793;0.9502;
1114.2000;0.3801;0.9502;
1114.5000;0.3801;0.9527;
1114.8000;0.3785;0.9477;
1115.1000;0.3801;0.9527;
1115.4000;0.3736;0.9379;
1115.7000;0.3818;0.9403;
1116.0000;0.3801;0.9255;
1116.3000;0.3769;0.9132;
1116.6000;0.3826;0.9181;
1116.9000;0.3801;0.9083;
1117.2000;0.3793;0.9181;
1117.5000;0.3785;0.9157;
1117.8000;0.3801;0.9058;
1118.1000;0.3810;0.9058;
1118.4000;0.3801;0.9083;
1118.7000;0.3785;0.9107;
1119.0000;0.3793;0.9132;
1119.3000;0.3777;0.9058;
1119.6000;0.3810;0.9009;
1119.9000;0.3801;0.9033;
1120.2000;0.3777;0.9083;
1120.5000;0.3761;0.9083;
1120.8000;0.3785;0.9033;
1121.1000;0.3769;0.9033;
1121.4000;0.3761;0.9132;
1121.7000;0.3785;0.9255;
1122.0000;0.3761;0.9255;
1122.3000;0.3753;0.9280;
1122.6000;0.3769;0.9453;
1122.9000;0.3785;0.9502;
1123.2000;0.3696;0.9329;
1123.5000;0.3777;0.9675;
1123.8000;0.3818;0.9848;
1124.1000;0.3818;0.9774;
1124.4000;0.3842;0.9749;
1124.7000;0.3801;0.9552;
1125.0000;0.3785;0.9477;
1125.3000;0.3793;0.9502;
1125.6000;0.3785;0.9502;
1125.9000;0.3769;0.9502;
1126.2000;0.3793;0.9527;
1126.5000;0.3793;0.9527;
1126.8000;0.3826;0.9749;
1127.1000;0.3793;0.9650;
1127.4000;0.3785;0.9601;
1127.7000;0.3785;0.9576;
1128.0000;0.3785;0.9502;
1128.3000;0.3769;0.9502;
1128.6000;0.3801;0.9576;
1128.9000;0.3915;0.9897;
1129.2000;0.3777;0.9453;
1129.5000;0.3826;0.9477;
1129.8000;0.3793;0.9379;
1130.1000;0.3842;0.9626;
1130.4000;0.3810;0.9576;
1130.7000;0.3793;0.9552;
1131.0000;0.3720;0.9477;
1131.3000;0.3769;0.9601;
1131.6000;0.3810;0.9724;
1131.9000;0.3785;0.9724;
1132.2000;0.3785;0.9576;
1132.5000;0.3801;0.9552;
1132.8000;0.3801;0.9527;
1133.1000;0.3826;0.9576;
1133.4000;0.3777;0.9477;
1133.7000;0.3801;0.9453;
1134.0000;0.3793;0.9477;
1134.3000;0.3793;0.9453;
1134.6000;0.3777;0.9403;
1134.9000;0.3810;0.9477;
1135.2000;0.3793;0.9502;
1135.5000;0.3818;0.9601;
1135.8000;0.3785;0.9502;
1136.1000;0.3793;0.9552;
1136.4000;0.3793;0.9502;
1136.7000;0.3785;0.9626;
1137.0000;0.3785;0.9527;
1137.3000;0.3801;0.9576;
1137.6000;0.3777;0.9527;
1137.9000;0.3785;0.9552;
1138.2000;0.3720;0.9379;
1138.5000;0.3777;0.9502;
1138.8000;0.3801;0.9601;
1139.1000;0.3801;0.9650;
1139.4000;0.3793;0.9601;
1139.7000;0.3785;0.9527;
1140.0000;0.3785;0.9502;
1140.3000;0.3810;0.9552;
1140.6000;0.3818;0.9552;
1140.9000;0.3801;0.9552;
1141.2000;0.3785;0.9477;
1141.5000;0.3785;0.9502;
1141.8000;0.3810;0.9601;
1142.1000;0.3826;0.9675;
1142.4000;0.3801;0.9650;
1142.7000;0.3801;0.9626;
1143.0000;0.3777;0.9626;
1143.3000;0.3785;0.9675;
1143.6000;0.3785;0.9650;
1143.9000;0.3785;0.9626;
1144.2000;0.3777;0.9626;
1144.5000;0.3810;0.9527;
1144.8000;0.3769;0.9428;
1145.1000;0.3777;0.9477;
1145.4000;0.3834;0.9601;
1145.7000;0.3777;0.9428;
1146.0000;0.3736;0.9354;
1146.3000;0.3777;0.9527;
1146.6000;0.3793;0.9477;
1146.9000;0.3801;0.9502;
1147.2000;0.3777;0.9502;
1147.5000;0.3801;0.9502;
1147.8000;0.3891;0.9749;
1148.1000;0.3858;0.9700;
1148.4000;0.3793;0.9502;
1148.7000;0.3736;0.9329;
1149.0000;0.3850;0.9700;
1149.3000;0.3842;0.9675;
1149.6000;0.3801;0.9527;
1149.9000;0.3785;0.9502;
1150.2000;0.3810;0.9552;
1150.5000;0.3810;0.9453;
1150.8000;0.3753;0.9354;
1151.1000;0.3810;0.9502;
1151.4000;0.3801;0.9552;
1151.7000;0.3810;0.9601;
1152.0000;0.3810;0.9700;
1152.3000;0.3826;0.9774;
1152.6000;0.3785;0.9774;
1152.9000;0.3793;0.9823;
1153.2000;0.3785;0.9774;
1153.5000;0.3801;0.9774;
1153.8000;0.3785;0.9749;
1154.1000;0.3777;0.9749;
1154.4000;0.3785;0.9724;
1154.7000;0.3793;0.9823;
1155.0000;0.3793;0.9798;
1155.3000;0.3834;0.9971;
1155.6000;0.3793;0.9897;
1155.9000;0.3777;0.9872;
1156.2000;0.3818;0.9946;
1156.5000;0.3810;0.9922;
1156.8000;0.3785;0.9774;
1157.1000;0.3769;0.9650;
1157.4000;0.3753;0.9626;
1157.7000;0.3785;0.9700;
1158.0000;0.3793;0.9700;
1158.3000;0.3769;0.9626;
1158.6000;0.3793;0.9700;
1158.9000;0.3777;0.9626;
1159.2000;0.3785;0.9650;
1159.5000;0.3793;0.9675;
1159.8000;0.3801;0.9650;
1160.1000;0.3801;0.9700;
1160.4000;0.3818;0.9700;
1160.7000;0.3793;0.9527;
1161.0000;0.3793;0.9527;
1161.3000;0.3679;0.9280;
1161.6000;0.3801;0.9576;
1161.9000;0.3761;0.9403;
1162.2000;0.3818;0.9477;
1162.5000;0.3810;0.9552;
1162.8000;0.3818;0.9576;
1163.1000;0.3793;0.9576;
1163.4000;0.3793;0.9626;
1163.7000;0.3801;0.9700;
1164.0000;0.3801;0.9650;
1164.3000;0.3777;0.9626;
1164.6000;0.3793;0.9601;
1164.9000;0.3785;0.9552;
1165.2000;0.3801;0.9576;
1165.5000;0.3834;0.9700;
1165.8000;0.3769;0.9552;
1166.1000;0.3801;0.9675;
1166.4000;0.3793;0.9749;
1166.7000;0.3793;0.9848;
1167.0000;0.3761;0.9848;
1167.3000;0.3761;0.9848;
1167.6000;0.3761;0.9774;
1167.9000;0.3769;0.9724;
1168.2000;0.3744;0.9626;
1168.5000;0.3769;0.9601;
1168.8000;0.3785;0.9576;
1169.1000;0.3777;0.9626;
1169.4000;0.3793;0.9650;
1169.7000;0.3777;0.9552;
1170.0000;0.3753;0.9502;
1170.3000;0.3761;0.9428;
1170.6000;0.3704;0.9255;
1170.9000;0.3777;0.9527;
1171.2000;0.3810;0.9527;
1171.5000;0.3687;0.9255;
1171.8000;0.3818;0.9650;
1172.1000;0.3801;0.9576;
1172.4000;0.3801;0.9576;
1172.7000;0.3769;0.9576;
1173.0000;0.3777;0.9675;
1173.3000;0.3793;0.9798;
1173.6000;0.3793;0.9848;
1173.9000;0.3810;0.9872;
1174.2000;0.3810;0.9798;
1174.5000;0.3810;0.9774;
1174.8000;0.3793;0.9774;
1175.1000;0.3785;0.9823;
1175.4000;0.3801;0.9774;
1175.7000;0.3777;0.9700;
1176.0000;0.3801;0.9749;
1176.3000;0.3801;0.9798;
1176.6000;0.3744;0.9700;
1176.9000;0.3728;0.9650;
1177.2000;0.3793;0.9749;
1177.5000;0.3777;0.9675;
1177.8000;0.3777;0.9626;
1178.1000;0.3777;0.9626;
1178.4000;0.3810;0.9675;
1178.7000;0.3785;0.9601;
1179.0000;0.3801;0.9675;
1179.3000;0.3810;0.9724;
1179.6000;0.3818;0.9601;
1179.9000;0.3818;0.9552;
1180.2000;0.3850;0.9700;
1180.5000;0.3777;0.9502;
1180.8000;0.3801;0.9626;
1181.1000;0.3793;0.9576;
1181.4000;0.3801;0.9576;
1181.7000;0.3753;0.9428;
1182.0000;0.3793;0.9403;
1182.3000;0.3769;0.9453;
1182.6000;0.3793;0.9527;
1182.9000;0.3801;0.9527;
1183.2000;0.3793;0.9477;
1183.5000;0.3785;0.9403;
1183.8000;0.3801;0.9379;
1184.1000;0.3785;0.9305;
1184.4000;0.3810;0.9329;
1184.7000;0.3793;0.9305;
1185.0000;0.3801;0.9354;
1185.3000;0.3777;0.9305;
1185.6000;0.3801;0.9354;
1185.9000;0.3810;0.9477;
1186.2000;0.3777;0.9403;
1186.5000;0.3801;0.9428;
1186.8000;0.3793;0.9453;
1187.1000;0.3801;0.9502;
1187.4000;0.3777;0.9403;
1187.7000;0.3801;0.9403;
1188.0000;0.3793;0.9428;
1188.3000;0.3769;0.9428;
1188.6000;0.3785;0.9403;
1188.9000;0.3793;0.9428;
1189.2000;0.3769;0.9354;
1189.5000;0.3801;0.9403;
1189.8000;0.3785;0.9329;
1190.1000;0.3810;0.9453;
1190.4000;0.3810;0.9552;
1190.7000;0.3777;0.9453;
1191.0000;0.3793;0.9428;
1191.3000;0.3793;0.9527;
1191.6000;0.3769;0.9576;
1191.9000;0.3761;0.9626;
1192.2000;0.3785;0.9626;
1192.5000;0.3785;0.9601;
1192.8000;0.3793;0.9650;
1193.1000;0.3736;0.9552;
1193.4000;0.3785;0.9724;
1193.7000;0.3785;0.9626;
1194.0000;0.3826;0.9749;
1194.3000;0.3858;0.9749;
1194.6000;0.3818;0.9650;
1194.9000;0.3785;0.9576;
1195.2000;0.3793;0.9552;
1195.5000;0.3753;0.9527;
1195.8000;0.3769;0.9675;
1196.1000;0.3834;0.9848;
1196.4000;0.3761;0.9576;
1196.7000;0.3761;0.9527;
1197.0000;0.3793;0.9576;
1197.3000;0.3785;0.9601;
1197.6000;0.3826;0.9700;
1197.9000;0.3818;0.9724;
1198.2000;0.3810;0.9700;
1198.5000;0.3769;0.9601;
1198.8000;0.3728;0.9379;
1199.1000;0.3801;0.9502;
1199.4000;0.3858;0.9675;
1199.7000;0.3801;0.9601;
1200.0000;0.3826;0.9724;
1200.3000;0.3753;0.9552;
1200.6000;0.3867;0.9749;
1200.9000;0.3818;0.9700;
1201.2000;0.3761;0.9552;
1201.5000;0.3801;0.9552;
1201.8000;0.3793;0.9601;
1202.1000;0.3728;0.9552;
1202.4000;0.3899;0.9996;
1202.7000;0.3801;0.9774;
1203.0000;0.3810;0.9922;
1203.3000;0.3810;0.9848;
1203.6000;0.3826;0.9872;
1203.9000;0.3793;0.9823;
1204.2000;0.3801;0.9872;
1204.5000;0.3818;0.9798;
1204.8000;0.3785;0.9897;
1205.1000;0.3801;0.9996;
1205.4000;0.3818;1.0020;
1205.7000;0.3793;0.9946;
1206.0000;0.3785;0.9971;
1206.3000;0.3785;1.0020;
1206.6000;0.3793;0.9946;
1206.9000;0.3801;0.9848;
1207.2000;0.3769;0.9724;
1207.5000;0.3785;0.9798;
1207.8000;0.3793;0.9823;
1208.1000;0.3777;0.9798;
1208.4000;0.3769;0.9798;
1208.7000;0.3801;0.9823;
1209.0000;0.3785;0.9823;
1209.3000;0.3793;0.9798;
1209.6000;0.3761;0.9774;
1209.9000;0.3777;0.9774;
1210.2000;0.3785;0.9724;
1210.5000;0.3793;0.9700;
1210.8000;0.3785;0.9823;
1211.1000;0.3777;0.9724;
1211.4000;0.3785;0.9749;
1211.7000;0.3785;0.9774;
1212.0000;0.3793;0.9749;
1212.3000;0.3769;0.9626;
1212.6000;0.3785;0.9749;
1212.9000;0.3744;0.9700;
1213.2000;0.3785;0.9872;
1213.5000;0.3785;0.9872;
1213.8000;0.3793;0.9848;
1214.1000;0.3801;0.9823;
1214.4000;0.3810;0.9848;
1214.7000;0.3801;0.9872;
1215.0000;0.3793;0.9897;
1215.3000;0.3850;1.0144;
1215.6000;0.3810;0.9996;
1215.9000;0.3826;0.9872;
1216.2000;0.3785;0.9650;
1216.5000;0.3850;0.9848;
1216.8000;0.3785;0.9724;
1217.1000;0.3777;0.9601;
1217.4000;0.3736;0.9502;
1217.7000;0.3777;0.9502;
1218.0000;0.3785;0.9502;
1218.3000;0.3769;0.9552;
1218.6000;0.3785;0.9675;
1218.9000;0.3801;0.9675;
1219.2000;0.3769;0.9675;
1219.5000;0.3793;0.9650;
1219.8000;0.3785;0.9601;
1220.1000;0.3736;0.9576;
1220.4000;0.3769;0.9601;
1220.7000;0.3785;0.9626;
1221.0000;0.3818;0.9749;
1221.3000;0.3801;0.9749;
1221.6000;0.3785;0.9724;
1221.9000;0.3842;0.9996;
1222.2000;0.3793;0.9823;
1222.5000;0.3785;0.9823;
1222.8000;0.3769;0.9675;
1223.1000;0.3793;0.9749;
1223.4000;0.3793;0.9724;
1223.7000;0.3785;0.9749;
1224.0000;0.3761;0.9650;
1224.3000;0.3801;0.9823;
1224.6000;0.3842;0.9946;
1224.9000;0.3801;0.9749;
1225.2000;0.3793;0.9774;
1225.5000;0.3785;0.9774;
1225.8000;0.3777;0.9749;
1226.1000;0.3818;0.9823;
1226.4000;0.3834;0.9872;
1226.7000;0.3801;0.9872;
1227.0000;0.3769;0.9774;
1227.3000;0.3777;0.9872;
1227.6000;0.3793;0.9798;
1227.9000;0.3769;0.9724;
1228.2000;0.3769;0.9774;
1228.5000;0.3810;0.9872;
1228.8000;0.3753;0.9749;
1229.1000;0.3810;0.9848;
1229.4000;0.3785;0.9798;
1229.7000;0.3793;0.9823;
1230.0000;0.3785;0.9897;
1230.3000;0.3785;0.9848;
1230.6000;0.3785;0.9724;
1230.9000;0.3793;0.9749;
1231.2000;0.3777;0.9749;
1231.5000;0.3810;0.9774;
1231.8000;0.3801;0.9724;
1232.1000;0.3785;0.9675;
1232.4000;0.3834;0.9848;
1232.7000;0.3777;0.9724;
1233.0000;0.3785;0.9774;
1233.3000;0.3793;0.9823;
1233.6000;0.3801;0.9897;
1233.9000;0.3810;0.9996;
1234.2000;0.3728;0.9848;
1234.5000;0.3785;0.9922;
1234.8000;0.3785;0.9946;
1235.1000;0.3810;0.9971;
1235.4000;0.3810;0.9897;
1235.7000;0.3810;0.9897;
1236.0000;0.3810;0.9922;
1236.3000;0.3810;0.9798;
1236.6000;0.3785;0.9724;
1236.9000;0.3810;0.9774;
1237.2000;0.3801;0.9675;
1237.5000;0.3801;0.9675;
1237.8000;0.3818;0.9724;
1238.1000;0.3834;0.9798;
1238.4000;0.3712;0.9552;
1238.7000;0.3785;0.9749;
1239.0000;0.3810;0.9823;
1239.3000;0.3826;0.9922;
1239.6000;0.3777;0.9798;
1239.9000;0.3785;0.9823;
1240.2000;0.3842;1.0045;
1240.5000;0.3801;0.9872;
1240.8000;0.3769;0.9823;
1241.1000;0.3785;0.9996;
1241.4000;0.3736;0.9872;
1241.7000;0.3793;0.9848;
1242.0000;0.3777;0.9749;
1242.3000;0.3858;0.9897;
1242.6000;0.3810;0.9650;
1242.9000;0.3777;0.9626;
1243.2000;0.3785;0.9724;
1243.5000;0.3793;0.9700;
1243.8000;0.3785;0.9700;
1244.1000;0.3793;0.9650;
1244.4000;0.3793;0.9724;
1244.7000;0.3777;0.9724;
1245.0000;0.3744;0.9626;
1245.3000;0.3793;0.9749;
1245.6000;0.3810;0.9675;
1245.9000;0.3736;0.9527;
1246.2000;0.3810;0.9650;
1246.5000;0.3785;0.9576;
1246.8000;0.3785;0.9626;
1247.1000;0.3801;0.9774;
1247.4000;0.3793;0.9774;
1247.7000;0.3793;0.9798;
1248.0000;0.3801;0.9897;
1248.3000;0.3810;0.9823;
1248.6000;0.3810;0.9774;
1248.9000;0.3785;0.9823;
1249.2000;0.3826;0.9872;
1249.5000;0.3720;0.9700;
1249.8000;0.3777;0.9823;
1250.1000;0.3891;1.0119;
1250.4000;0.3769;0.9774;
1250.7000;0.3744;0.9724;
1251.0000;0.3769;0.9774;
1251.3000;0.3769;0.9798;
1251.6000;0.3769;0.9749;
1251.9000;0.3793;0.9823;
1252.2000;0.3769;0.9823;
1252.5000;0.3761;0.9700;
1252.8000;0.3793;0.9971;
1253.1000;0.3793;0.9946;
1253.4000;0.3777;0.9897;
1253.7000;0.3801;0.9823;
1254.0000;0.3818;0.9798;
1254.3000;0.3801;0.9798;
1254.6000;0.3801;0.9823;
1254.9000;0.3801;0.9774;
1255.2000;0.3777;0.9749;
1255.5000;0.3769;0.9724;
1255.8000;0.3810;0.9848;
1256.1000;0.3785;0.9798;
1256.4000;0.3801;0.9675;
1256.7000;0.3777;0.9626;
1257.0000;0.3810;0.9552;
1257.3000;0.3793;0.9552;
1257.6000;0.3769;0.9403;
1257.9000;0.3801;0.9477;
1258.2000;0.3858;0.9700;
1258.5000;0.3810;0.9601;
1258.8000;0.3801;0.9601;
1259.1000;0.3793;0.9650;
1259.4000;0.3777;0.9650;
1259.7000;0.3777;0.9626;
1260.0000;0.3793;0.9675;
1260.3000;0.3891;0.9897;
1260.6000;0.3801;0.9626;
1260.9000;0.3777;0.9675;
1261.2000;0.3793;0.9576;
1261.5000;0.3769;0.9601;
1261.8000;0.3761;0.9552;
1262.1000;0.3769;0.9601;
1262.4000;0.3793;0.9650;
1262.7000;0.3769;0.9626;
1263.0000;0.3777;0.9626;
1263.3000;0.3834;0.9724;
1263.6000;0.3801;0.9650;
1263.9000;0.3793;0.9502;
1264.2000;0.3810;0.9527;
1264.5000;0.3810;0.9527;
1264.8000;0.3793;0.9601;
1265.1000;0.3810;0.9601;
1265.4000;0.3810;0.9576;
1265.7000;0.3785;0.9502;
1266.0000;0.3769;0.9453;
1266.3000;0.3793;0.9552;
1266.6000;0.3785;0.9650;
1266.9000;0.3785;0.9650;
1267.2000;0.3810;0.9774;
1267.5000;0.3793;0.9650;
1267.8000;0.3687;0.9403;
1268.1000;0.3777;0.9700;
1268.4000;0.3801;0.9798;
1268.7000;0.3793;0.9749;
1269.0000;0.3736;0.9601;
1269.3000;0.3777;0.9675;
1269.6000;0.3785;0.9675;
1269.9000;0.3826;0.9823;
1270.2000;0.3801;0.9675;
1270.5000;0.3842;0.9798;
1270.8000;0.3810;0.9749;
1271.1000;0.3801;0.9626;
1271.4000;0.3777;0.9601;
1271.7000;0.3785;0.9650;
1272.0000;0.3801;0.9749;
1272.3000;0.3810;0.9700;
1272.6000;0.3818;0.9700;
1272.9000;0.3793;0.9675;
1273.2000;0.3753;0.9601;
1273.5000;0.3785;0.9650;
1273.8000;0.3785;0.9774;
1274.1000;0.3696;0.9601;
1274.4000;0.3777;0.9774;
1274.7000;0.3785;0.9700;
1275.0000;0.3777;0.9650;
1275.3000;0.3769;0.9650;
1275.6000;0.3769;0.9700;
1275.9000;0.3696;0.9552;
1276.2000;0.3696;0.9527;
1276.5000;0.3777;0.9724;
1276.8000;0.3801;0.9774;
1277.1000;0.3777;0.9724;
1277.4000;0.3744;0.9601;
1277.7000;0.3785;0.9774;
1278.0000;0.3793;0.9774;
1278.3000;0.3867;0.9946;
1278.6000;0.3793;0.9749;
1278.9000;0.3793;0.9823;
1279.2000;0.3818;0.9848;
1279.5000;0.3810;0.9872;
1279.8000;0.3777;0.9774;
1280.1000;0.3801;0.9798;
1280.4000;0.3801;0.9675;
1280.7000;0.3785;0.9626;
1281.0000;0.3801;0.9601;
1281.3000;0.3761;0.9552;
1281.6000;0.3801;0.9724;
1281.9000;0.3818;0.9774;
1282.2000;0.3818;0.9798;
1282.5000;0.3793;0.9601;
1282.8000;0.3793;0.9650;
1283.1000;0.3818;0.9675;
1283.4000;0.3793;0.9626;
1283.7000;0.3793;0.9650;
1284.0000;0.3793;0.9675;
1284.3000;0.3785;0.9675;
1284.6000;0.3728;0.9576;
1284.9000;0.3793;0.9774;
1285.2000;0.3777;0.9650;
1285.5000;0.3777;0.9724;
1285.8000;0.3810;0.9848;
1286.1000;0.3801;0.9749;
1286.4000;0.3785;0.9774;
1286.7000;0.3785;0.9774;
1287.0000;0.3793;0.9749;
1287.3000;0.3769;0.9650;
1287.6000;0.3793;0.9576;
1287.9000;0.3793;0.9502;
1288.2000;0.3769;0.9552;
1288.5000;0.3769;0.9527;
1288.8000;0.3793;0.9576;
1289.1000;0.3793;0.9552;
1289.4000;0.3793;0.9453;
1289.7000;0.3810;0.9453;
1290.0000;0.3793;0.9428;
1290.3000;0.3777;0.9428;
1290.6000;0.3793;0.9601;
1290.9000;0.3793;0.9601;
1291.2000;0.3818;0.9601;
1291.5000;0.3777;0.9403;
1291.8000;0.3867;0.9675;
1292.1000;0.3818;0.9626;
1292.4000;0.3850;0.9650;
1292.7000;0.3785;0.9403;
1293.0000;0.3801;0.9379;
1293.3000;0.3736;0.9255;
1293.6000;0.3793;0.9552;
1293.9000;0.3801;0.9626;
1294.2000;0.3810;0.9650;
1294.5000;0.3769;0.9552;
1294.8000;0.3793;0.9601;
1295.1000;0.3753;0.9477;
1295.4000;0.3793;0.9576;
1295.7000;0.3785;0.9576;
1296.0000;0.3744;0.9502;
1296.3000;0.3785;0.9576;
1296.6000;0.3744;0.9403;
1296.9000;0.3801;0.9552;
1297.2000;0.3769;0.9477;
1297.5000;0.3793;0.9527;
1297.8000;0.3875;0.9774;
1298.1000;0.3793;0.9576;
1298.4000;0.3801;0.9576;
1298.7000;0.3736;0.9305;
1299.0000;0.3801;0.9453;
1299.3000;0.3801;0.9403;
1299.6000;0.3785;0.9329;
1299.9000;0.3793;0.9305;
1300.2000;0.3842;0.9527;
1300.5000;0.3793;0.9379;
1300.8000;0.3785;0.9428;
1301.1000;0.3810;0.9477;
1301.4000;0.3769;0.9477;
1301.7000;0.3769;0.9502;
1302.0000;0.3810;0.9601;
1302.3000;0.3769;0.9477;
1302.6000;0.3810;0.9576;
1302.9000;0.3818;0.9527;
1303.2000;0.3793;0.9428;
1303.5000;0.3793;0.9354;
1303.8000;0.3777;0.9305;
1304.1000;0.3793;0.9379;
1304.4000;0.3907;0.9601;
1304.7000;0.3801;0.9305;
1305.0000;0.3826;0.9379;
1305.3000;0.3867;0.9453;
1305.6000;0.3793;0.9280;
1305.9000;0.3810;0.9329;
1306.2000;0.3818;0.9428;
1306.5000;0.3801;0.9453;
1306.8000;0.3801;0.9379;
1307.1000;0.3801;0.9477;
1307.4000;0.3777;0.9477;
1307.7000;0.3777;0.9527;
1308.0000;0.3801;0.9626;
1308.3000;0.3801;0.9552;
1308.6000;0.3810;0.9576;
1308.9000;0.3801;0.9576;
1309.2000;0.3793;0.9650;
1309.5000;0.3810;0.9724;
1309.8000;0.3785;0.9675;
1310.1000;0.3785;0.9724;
1310.4000;0.3761;0.9626;
1310.7000;0.3785;0.9700;
1311.0000;0.3761;0.9650;
1311.3000;0.3777;0.9650;
1311.6000;0.3801;0.9724;
1311.9000;0.3720;0.9601;
1312.2000;0.3785;0.9749;
1312.5000;0.3777;0.9601;
1312.8000;0.3769;0.9527;
1313.1000;0.3785;0.9527;
1313.4000;0.3761;0.9502;
1313.7000;0.3785;0.9552;
1314.0000;0.3777;0.9453;
1314.3000;0.3793;0.9477;
1314.6000;0.3818;0.9502;
1314.9000;0.3769;0.9403;
1315.2000;0.3785;0.9527;
1315.5000;0.3785;0.9502;
1315.8000;0.3801;0.9527;
1316.1000;0.3761;0.9403;
1316.4000;0.3801;0.9453;
1316.7000;0.3785;0.9502;
1317.0000;0.3777;0.9477;
1317.3000;0.3793;0.9428;
1317.6000;0.3834;0.9576;
1317.9000;0.3834;0.9502;
1318.2000;0.3769;0.9403;
1318.5000;0.3785;0.9552;
1318.8000;0.3777;0.9527;
1319.1000;0.3810;0.9626;
1319.4000;0.3753;0.9601;
1319.7000;0.3850;0.9798;
1320.0000;0.3793;0.9724;
1320.3000;0.3793;0.9724;
1320.6000;0.3761;0.9749;
1320.9000;0.3810;0.9724;
1321.2000;0.3777;0.9724;
1321.5000;0.3785;0.9675;
1321.8000;0.3785;0.9675;
1322.1000;0.3793;0.9700;
1322.4000;0.3793;0.9700;
1322.7000;0.3777;0.9675;
1323.0000;0.3801;0.9700;
1323.3000;0.3777;0.9626;
1323.6000;0.3793;0.9749;
1323.9000;0.3785;0.9798;
1324.2000;0.3761;0.9774;
1324.5000;0.3793;0.9872;
1324.8000;0.3793;0.9897;
1325.1000;0.3785;0.9823;
1325.4000;0.3810;0.9848;
1325.7000;0.3793;0.9848;
1326.0000;0.3793;0.9897;
1326.3000;0.3761;0.9823;
1326.6000;0.3785;0.9798;
1326.9000;0.3785;0.9700;
1327.2000;0.3793;0.9675;
1327.5000;0.3793;0.9601;
1327.8000;0.3818;0.9576;
1328.1000;0.3793;0.9552;
1328.4000;0.3818;0.9724;
1328.7000;0.3818;0.9724;
1329.0000;0.3793;0.9626;
1329.3000;0.3793;0.9552;
1329.6000;0.3785;0.9552;
1329.9000;0.3793;0.9576;
1330.2000;0.3785;0.9552;
1330.5000;0.3777;0.9601;
1330.8000;0.3785;0.9601;
1331.1000;0.3793;0.9601;
1331.4000;0.3801;0.9700;
1331.7000;0.3801;0.9626;
1332.0000;0.3793;0.9601;
1332.3000;0.3793;0.9650;
1332.6000;0.3818;0.9724;
1332.9000;0.3810;0.9675;
1333.2000;0.3761;0.9576;
1333.5000;0.3785;0.9626;
1333.8000;0.3753;0.9453;
1334.1000;0.3834;0.9650;
1334.4000;0.3826;0.9601;
1334.7000;0.3785;0.9428;
1335.0000;0.3687;0.9280;
1335.3000;0.3834;0.9724;
1335.6000;0.3785;0.9502;
1335.9000;0.3769;0.9477;
1336.2000;0.3777;0.9453;
1336.5000;0.3801;0.9552;
1336.8000;0.3842;0.9675;
1337.1000;0.3834;0.9700;
1337.4000;0.3810;0.9749;
1337.7000;0.3769;0.9675;
1338.0000;0.3834;0.9848;
1338.3000;0.3801;0.9749;
1338.6000;0.3785;0.9601;
1338.9000;0.3793;0.9700;
1339.2000;0.3728;0.9601;
1339.5000;0.3801;0.9749;
1339.8000;0.3785;0.9774;
1340.1000;0.3801;0.9749;
1340.4000;0.3793;0.9724;
1340.7000;0.3777;0.9749;
1341.0000;0.3834;0.9872;
1341.3000;0.3777;0.9774;
1341.6000;0.3793;0.9749;
1341.9000;0.3826;0.9848;
1342.2000;0.3753;0.9650;
1342.5000;0.3801;0.9724;
1342.8000;0.3785;0.9650;
1343.1000;0.3785;0.9477;
1343.4000;0.3793;0.9502;
1343.7000;0.3785;0.9477;
1344.0000;0.3777;0.9477;
1344.3000;0.3834;0.9576;
1344.6000;0.3785;0.9601;
1344.9000;0.3785;0.9552;
1345.2000;0.3769;0.9477;
1345.5000;0.3785;0.9502;
1345.8000;0.3793;0.9626;
1346.1000;0.3793;0.9675;
1346.4000;0.3777;0.9700;
1346.7000;0.3793;0.9700;
1347.0000;0.3793;0.9749;
1347.3000;0.3785;0.9872;
1347.6000;0.3793;0.9823;
1347.9000;0.3793;0.9749;
1348.2000;0.3777;0.9650;
1348.5000;0.3801;0.9675;
1348.8000;0.3801;0.9700;
1349.1000;0.3801;0.9650;
1349.4000;0.3769;0.9552;
1349.7000;0.3785;0.9626;
1350.0000;0.3793;0.9626;
1350.3000;0.3850;0.9774;
1350.6000;0.3785;0.9576;
1350.9000;0.3785;0.9601;
1351.2000;0.3793;0.9502;
1351.5000;0.3777;0.9502;
1351.8000;0.3793;0.9576;
1352.1000;0.3801;0.9601;
1352.4000;0.3777;0.9552;
1352.7000;0.3801;0.9576;
1353.0000;0.3793;0.9552;
1353.3000;0.3818;0.9626;
1353.6000;0.3777;0.9576;
1353.9000;0.3793;0.9576;
1354.2000;0.3801;0.9626;
1354.5000;0.3810;0.9700;
1354.8000;0.3777;0.9675;
1355.1000;0.3793;0.9626;
1355.4000;0.3769;0.9527;
1355.7000;0.3810;0.9576;
1356.0000;0.3810;0.9601;
1356.3000;0.3801;0.9502;
1356.6000;0.3793;0.9527;
1356.9000;0.3801;0.9601;
1357.2000;0.3801;0.9626;
1357.5000;0.3842;0.9823;
1357.8000;0.3785;0.9724;
1358.1000;0.3687;0.9502;
1358.4000;0.3736;0.9552;
1358.7000;0.3777;0.9601;
1359.0000;0.3753;0.9527;
1359.3000;0.3777;0.9477;
1359.6000;0.3793;0.9552;
1359.9000;0.3810;0.9552;
1360.2000;0.3793;0.9601;
1360.5000;0.3842;0.9749;
1360.8000;0.3785;0.9700;
1361.1000;0.3777;0.9650;
1361.4000;0.3785;0.9626;
1361.7000;0.3801;0.9601;
1362.0000;0.3777;0.9527;
1362.3000;0.3793;0.9601;
1362.6000;0.3793;0.9700;
1362.9000;0.3777;0.9700;
1363.2000;0.3785;0.9675;
1363.5000;0.3785;0.9700;
1363.8000;0.3777;0.9601;
1364.1000;0.3810;0.9650;
1364.4000;0.3842;0.9798;
1364.7000;0.3793;0.9626;
1365.0000;0.3793;0.9700;
1365.3000;0.3801;0.9774;
1365.6000;0.3818;0.9675;
1365.9000;0.3793;0.9576;
1366.2000;0.3793;0.9626;
1366.5000;0.3793;0.9576;
1366.8000;0.3785;0.9675;
1367.1000;0.3810;0.9675;
1367.4000;0.3801;0.9700;
1367.7000;0.3793;0.9626;
1368.0000;0.3793;0.9626;
1368.3000;0.3785;0.9601;
1368.6000;0.3769;0.9576;
1368.9000;0.3793;0.9576;
1369.2000;0.3810;0.9601;
1369.5000;0.3769;0.9502;
1369.8000;0.3785;0.9576;
1370.1000;0.3785;0.9601;
1370.4000;0.3769;0.9527;
1370.7000;0.3793;0.9403;
1371.0000;0.3810;0.9552;
1371.3000;0.3777;0.9527;
1371.6000;0.3801;0.9626;
1371.9000;0.3785;0.9601;
1372.2000;0.3777;0.9552;
1372.5000;0.3785;0.9601;
1372.8000;0.3801;0.9552;
1373.1000;0.3769;0.9477;
1373.4000;0.3801;0.9576;
1373.7000;0.3793;0.9601;
1374.0000;0.3785;0.9601;
1374.3000;0.3761;0.9527;
1374.6000;0.3769;0.9552;
1374.9000;0.3761;0.9626;
1375.2000;0.3793;0.9700;
1375.5000;0.3801;0.9650;
1375.8000;0.3785;0.9502;
1376.1000;0.3785;0.9527;
1376.4000;0.3842;0.9700;
1376.7000;0.3785;0.9601;
1377.0000;0.3777;0.9552;
1377.3000;0.3785;0.9453;
1377.6000;0.3785;0.9502;
1377.9000;0.3777;0.9552;
1378.2000;0.3744;0.9428;
1378.5000;0.3761;0.9502;
1378.8000;0.3777;0.9576;
1379.1000;0.3769;0.9552;
1379.4000;0.3785;0.9502;
1379.7000;0.3761;0.9428;
1380.0000;0.3769;0.9403;
1380.3000;0.3785;0.9477;
1380.6000;0.3801;0.9552;
1380.9000;0.3761;0.9477;
1381.2000;0.3785;0.9527;
1381.5000;0.3793;0.9576;
1381.8000;0.3785;0.9576;
1382.1000;0.3785;0.9576;
1382.4000;0.3744;0.9379;
1382.7000;0.3801;0.9453;
1383.0000;0.3801;0.9576;
1383.3000;0.3777;0.9675;
1383.6000;0.3769;0.9601;
1383.9000;0.3810;0.9724;
1384.2000;0.3883;0.9872;
1384.5000;0.3753;0.9477;
1384.8000;0.3801;0.9700;
1385.1000;0.3777;0.9650;
1385.4000;0.3769;0.9675;
1385.7000;0.3801;0.9749;
1386.0000;0.3793;0.9798;
1386.3000;0.3753;0.9675;
1386.6000;0.3777;0.9749;
1386.9000;0.3777;0.9724;
1387.2000;0.3761;0.9626;
1387.5000;0.3785;0.9798;
1387.8000;0.3769;0.9724;
1388.1000;0.3793;0.9798;
1388.4000;0.3712;0.9601;
1388.7000;0.3785;0.9749;
1389.0000;0.3777;0.9675;
1389.3000;0.3785;0.9650;
1389.6000;0.3777;0.9601;
1389.9000;0.3793;0.9477;
1390.2000;0.3793;0.9428;
1390.5000;0.3801;0.9403;
1390.8000;0.3785;0.9502;
1391.1000;0.3818;0.9626;
1391.4000;0.3761;0.9576;
1391.7000;0.3785;0.9650;
1392.0000;0.3785;0.9700;
1392.3000;0.3810;0.9700;
1392.6000;0.3793;0.9749;
1392.9000;0.3793;0.9700;
1393.2000;0.3801;0.9675;
1393.5000;0.3801;0.9626;
1393.8000;0.3785;0.9700;
1394.1000;0.3785;0.9601;
1394.4000;0.3793;0.9527;
1394.7000;0.3793;0.9576;
1395.0000;0.3793;0.9552;
1395.3000;0.3761;0.9453;
1395.6000;0.3785;0.9601;
1395.9000;0.3777;0.9626;
1396.2000;0.3850;0.9749;
1396.5000;0.3785;0.9675;
1396.8000;0.3777;0.9552;
1397.1000;0.3858;0.9724;
1397.4000;0.3671;0.9231;
1397.7000;0.3785;0.9477;
1398.0000;0.3769;0.9354;
1398.3000;0.3704;0.9255;
1398.6000;0.3801;0.9502;
1398.9000;0.3793;0.9502;
1399.2000;0.3810;0.9502;
1399.5000;0.3785;0.9453;
1399.8000;0.3801;0.9576;
