time/ms;Fluo/V;P700 deltaI/I x10³;
-199.8000;0.3696;0.9453;
-199.5000;0.3801;0.9749;
-199.2000;0.3777;0.9823;
-198.9000;0.3801;0.9848;
-198.6000;0.3810;0.9798;
-198.3000;0.3793;0.9724;
-198.0000;0.3793;0.9749;
-197.7000;0.3801;0.9724;
-197.4000;0.3801;0.9724;
-197.1000;0.3785;0.9724;
-196.8000;0.3915;1.0045;
-196.5000;0.3810;0.9700;
-196.2000;0.3850;0.9798;
-195.9000;0.3801;0.9626;
-195.6000;0.3801;0.9626;
-195.3000;0.3818;0.9650;
-195.0000;0.3810;0.9675;
-194.7000;0.3810;0.9724;
-194.4000;0.3801;0.9700;
-194.1000;0.3777;0.9601;
-193.8000;0.3785;0.9576;
-193.5000;0.3801;0.9675;
-193.2000;0.3744;0.9650;
-192.9000;0.3810;0.9798;
-192.6000;0.3712;0.9453;
-192.3000;0.3793;0.9626;
-192.0000;0.3793;0.9700;
-191.7000;0.3801;0.9724;
-191.4000;0.3785;0.9675;
-191.1000;0.3818;0.9675;
-190.8000;0.3793;0.9650;
-190.5000;0.3801;0.9675;
-190.2000;0.3818;0.9675;
-189.9000;0.3826;0.9774;
-189.6000;0.3785;0.9749;
-189.3000;0.3801;0.9774;
-189.0000;0.3793;0.9700;
-188.7000;0.3801;0.9700;
-188.4000;0.3801;0.9724;
-188.1000;0.3818;0.9798;
-187.8000;0.3793;0.9848;
-187.5000;0.3801;0.9872;
-187.2000;0.3793;0.9897;
-186.9000;0.3801;0.9724;
-186.6000;0.3777;0.9700;
-186.3000;0.3801;0.9650;
-186.0000;0.3826;0.9650;
-185.7000;0.3810;0.9601;
-185.4000;0.3801;0.9601;
-185.1000;0.3785;0.9552;
-184.8000;0.3810;0.9626;
-184.5000;0.3810;0.9601;
-184.2000;0.3777;0.9576;
-183.9000;0.3793;0.9552;
-183.6000;0.3801;0.9626;
-183.3000;0.3801;0.9749;
-183.0000;0.3793;0.9626;
-182.7000;0.3793;0.9675;
-182.4000;0.3785;0.9626;
-182.1000;0.3769;0.9626;
-181.8000;0.3801;0.9650;
-181.5000;0.3801;0.9675;
-181.2000;0.3777;0.9552;
-180.9000;0.3826;0.9601;
-180.6000;0.3801;0.9576;
-180.3000;0.3810;0.9626;
-180.0000;0.3793;0.9453;
-179.7000;0.3810;0.9477;
-179.4000;0.3801;0.9453;
-179.1000;0.3785;0.9453;
-178.8000;0.3801;0.9453;
-178.5000;0.3818;0.9502;
-178.2000;0.3810;0.9502;
-177.9000;0.3810;0.9453;
-177.6000;0.3793;0.9453;
-177.3000;0.3810;0.9502;
-177.0000;0.3842;0.9675;
-176.7000;0.3793;0.9601;
-176.4000;0.3793;0.9675;
-176.1000;0.3810;0.9601;
-175.8000;0.3793;0.9601;
-175.5000;0.3793;0.9576;
-175.2000;0.3810;0.9576;
-174.9000;0.3753;0.9601;
-174.6000;0.3785;0.9774;
-174.3000;0.3801;0.9774;
-174.0000;0.3793;0.9700;
-173.7000;0.3810;0.9774;
-173.4000;0.3801;0.9774;
-173.1000;0.3793;0.9675;
-172.8000;0.3801;0.9675;
-172.5000;0.3793;0.9774;
-172.2000;0.3810;0.9872;
-171.9000;0.3736;0.9650;
-171.6000;0.3810;0.9872;
-171.3000;0.3810;0.9922;
-171.0000;0.3785;0.9798;
-170.7000;0.3793;0.9749;
-170.4000;0.3801;0.9798;
-170.1000;0.3720;0.9650;
-169.8000;0.3777;0.9724;
-169.5000;0.3777;0.9724;
-169.2000;0.3801;0.9675;
-168.9000;0.3785;0.9700;
-168.6000;0.3810;0.9774;
-168.3000;0.3810;0.9675;
-168.0000;0.3793;0.9576;
-167.7000;0.3793;0.9527;
-167.4000;0.3777;0.9403;
-167.1000;0.3818;0.9527;
-166.8000;0.3793;0.9552;
-166.5000;0.3810;0.9576;
-166.2000;0.3810;0.9477;
-165.9000;0.3704;0.9231;
-165.6000;0.3785;0.9453;
-165.3000;0.3801;0.9601;
-165.0000;0.3793;0.9576;
-164.7000;0.3867;0.9700;
-164.4000;0.3769;0.9428;
-164.1000;0.3801;0.9477;
-163.8000;0.3785;0.9552;
-163.5000;0.3810;0.9650;
-163.2000;0.3761;0.9477;
-162.9000;0.3818;0.9527;
-162.6000;0.3818;0.9576;
-162.3000;0.3834;0.9601;
-162.0000;0.3793;0.9601;
-161.7000;0.3801;0.9650;
-161.4000;0.3818;0.9700;
-161.1000;0.3818;0.9774;
-160.8000;0.3826;0.9749;
-160.5000;0.3801;0.9675;
-160.2000;0.3777;0.9601;
-159.9000;0.3826;0.9675;
-159.6000;0.3801;0.9675;
-159.3000;0.3793;0.9650;
-159.0000;0.3810;0.9626;
-158.7000;0.3793;0.9601;
-158.4000;0.3793;0.9626;
-158.1000;0.3769;0.9527;
-157.8000;0.3801;0.9650;
-157.5000;0.3777;0.9626;
-157.2000;0.3801;0.9675;
-156.9000;0.3810;0.9724;
-156.6000;0.3785;0.9700;
-156.3000;0.3793;0.9774;
-156.0000;0.3801;0.9774;
-155.7000;0.3777;0.9774;
-155.4000;0.3785;0.9823;
-155.1000;0.3777;0.9823;
-154.8000;0.3769;0.9897;
-154.5000;0.3810;0.9946;
-154.2000;0.3785;0.9922;
-153.9000;0.3777;0.9872;
-153.6000;0.3826;0.9996;
-153.3000;0.3793;0.9798;
-153.0000;0.3801;0.9897;
-152.7000;0.3801;0.9848;
-152.4000;0.3858;1.0070;
-152.1000;0.3826;0.9996;
-151.8000;0.3810;0.9922;
-151.5000;0.3818;1.0020;
-151.2000;0.3785;0.9971;
-150.9000;0.3793;0.9996;
-150.6000;0.3785;0.9946;
-150.3000;0.3744;0.9848;
-150.0000;0.3793;0.9922;
-149.7000;0.3793;0.9946;
-149.4000;0.3818;0.9922;
-149.1000;0.3785;0.9823;
-148.8000;0.3810;0.9823;
-148.5000;0.3793;0.9798;
-148.2000;0.3818;0.9848;
-147.9000;0.3753;0.9700;
-147.6000;0.3785;0.9798;
-147.3000;0.3810;0.9774;
-147.0000;0.3801;0.9700;
-146.7000;0.3801;0.9774;
-146.4000;0.3793;0.9798;
-146.1000;0.3801;0.9823;
-145.8000;0.3785;0.9749;
-145.5000;0.3810;0.9848;
-145.2000;0.3793;0.9848;
-144.9000;0.3793;0.9823;
-144.6000;0.3793;0.9848;
-144.3000;0.3801;0.9922;
-144.0000;0.3793;0.9946;
-143.7000;0.3810;0.9872;
-143.4000;0.3769;0.9749;
-143.1000;0.3801;0.9848;
-142.8000;0.3801;0.9848;
-142.5000;0.3793;0.9798;
-142.2000;0.3785;0.9700;
-141.9000;0.3801;0.9774;
-141.6000;0.3785;0.9798;
-141.3000;0.3801;0.9872;
-141.0000;0.3785;0.9774;
-140.7000;0.3793;0.9774;
-140.4000;0.3801;0.9774;
-140.1000;0.3801;0.9700;
-139.8000;0.3810;0.9675;
-139.5000;0.3801;0.9626;
-139.2000;0.3826;0.9675;
-138.9000;0.3826;0.9626;
-138.6000;0.3818;0.9650;
-138.3000;0.3753;0.9527;
-138.0000;0.3818;0.9774;
-137.7000;0.3810;0.9749;
-137.4000;0.3826;0.9823;
-137.1000;0.3793;0.9848;
-136.8000;0.3810;0.9848;
-136.5000;0.3810;0.9724;
-136.2000;0.3801;0.9601;
-135.9000;0.3818;0.9527;
-135.6000;0.3785;0.9527;
-135.3000;0.3801;0.9601;
-135.0000;0.3769;0.9576;
-134.7000;0.3793;0.9774;
-134.4000;0.3810;0.9724;
-134.1000;0.3777;0.9650;
-133.8000;0.3810;0.9675;
-133.5000;0.3801;0.9626;
-133.2000;0.3810;0.9650;
-132.9000;0.3810;0.9626;
-132.6000;0.3777;0.9576;
-132.3000;0.3818;0.9601;
-132.0000;0.3801;0.9601;
-131.7000;0.3793;0.9626;
-131.4000;0.3801;0.9626;
-131.1000;0.3801;0.9675;
-130.8000;0.3818;0.9749;
-130.5000;0.3793;0.9724;
-130.2000;0.3793;0.9749;
-129.9000;0.3793;0.9823;
-129.6000;0.3801;0.9848;
-129.3000;0.3801;0.9922;
-129.0000;0.3785;0.9922;
-128.7000;0.3810;0.9922;
-128.4000;0.3801;0.9897;
-128.1000;0.3826;0.9872;
-127.8000;0.3793;0.9774;
-127.5000;0.3826;0.9848;
-127.2000;0.3793;0.9724;
-126.9000;0.3793;0.9724;
-126.6000;0.3761;0.9552;
-126.3000;0.3810;0.9700;
-126.0000;0.3793;0.9650;
-125.7000;0.3785;0.9626;
-125.4000;0.3777;0.9601;
-125.1000;0.3793;0.9675;
-124.8000;0.3801;0.9700;
-124.5000;0.3785;0.9601;
-124.2000;0.3801;0.9601;
-123.9000;0.3810;0.9650;
-123.6000;0.3785;0.9650;
-123.3000;0.3801;0.9823;
-123.0000;0.3793;0.9798;
-122.7000;0.3801;0.9774;
-122.4000;0.3761;0.9650;
-122.1000;0.3801;0.9724;
-121.8000;0.3785;0.9724;
-121.5000;0.3785;0.9724;
-121.2000;0.3785;0.9724;
-120.9000;0.3850;0.9848;
-120.6000;0.3744;0.9453;
-120.3000;0.3810;0.9552;
-120.0000;0.3810;0.9576;
-119.7000;0.3777;0.9502;
-119.4000;0.3736;0.9379;
-119.1000;0.3793;0.9502;
-118.8000;0.3801;0.9453;
-118.5000;0.3810;0.9527;
-118.2000;0.3810;0.9724;
-117.9000;0.3826;0.9749;
-117.6000;0.3826;0.9576;
-117.3000;0.3826;0.9650;
-117.0000;0.3818;0.9626;
-116.7000;0.3793;0.9576;
-116.4000;0.3818;0.9601;
-116.1000;0.3801;0.9626;
-115.8000;0.3761;0.9477;
-115.5000;0.3801;0.9527;
-115.2000;0.3793;0.9502;
-114.9000;0.3785;0.9403;
-114.6000;0.3818;0.9477;
-114.3000;0.3777;0.9428;
-114.0000;0.3793;0.9502;
-113.7000;0.3785;0.9453;
-113.4000;0.3793;0.9527;
-113.1000;0.3801;0.9453;
-112.8000;0.3810;0.9477;
-112.5000;0.3826;0.9502;
-112.2000;0.3810;0.9552;
-111.9000;0.3793;0.9552;
-111.6000;0.3818;0.9626;
-111.3000;0.3793;0.9527;
-111.0000;0.3785;0.9403;
-110.7000;0.3834;0.9527;
-110.4000;0.3818;0.9527;
-110.1000;0.3785;0.9477;
-109.8000;0.3810;0.9502;
-109.5000;0.3842;0.9576;
-109.2000;0.3785;0.9601;
-108.9000;0.3810;0.9724;
-108.6000;0.3801;0.9823;
-108.3000;0.3801;0.9848;
-108.0000;0.3801;0.9897;
-107.7000;0.3769;0.9872;
-107.4000;0.3810;0.9922;
-107.1000;0.3875;1.0169;
-106.8000;0.3810;1.0020;
-106.5000;0.3793;0.9897;
-106.2000;0.3793;0.9848;
-105.9000;0.3818;0.9798;
-105.6000;0.3826;0.9897;
-105.3000;0.3875;1.0045;
-105.0000;0.3785;0.9774;
-104.7000;0.3810;0.9650;
-104.4000;0.3793;0.9601;
-104.1000;0.3777;0.9626;
-103.8000;0.3810;0.9749;
-103.5000;0.3818;0.9774;
-103.2000;0.3834;0.9823;
-102.9000;0.3801;0.9749;
-102.6000;0.3818;0.9724;
-102.3000;0.3720;0.9354;
-102.0000;0.3842;0.9650;
-101.7000;0.3810;0.9601;
-101.4000;0.3793;0.9601;
-101.1000;0.3842;0.9626;
-100.8000;0.3810;0.9601;
-100.5000;0.3826;0.9650;
-100.2000;0.3858;0.9601;
-99.9000;0.3842;0.9502;
-99.6000;0.3793;0.9428;
-99.3000;0.3769;0.9428;
-99.0000;0.3850;0.9724;
-98.7000;0.3801;0.9650;
-98.4000;0.3842;0.9798;
-98.1000;0.3801;0.9626;
-97.8000;0.3826;0.9601;
-97.5000;0.3826;0.9576;
-97.2000;0.3753;0.9354;
-96.9000;0.3810;0.9453;
-96.6000;0.3818;0.9527;
-96.3000;0.3801;0.9453;
-96.0000;0.3793;0.9527;
-95.7000;0.3810;0.9552;
-95.4000;0.3761;0.9552;
-95.1000;0.3801;0.9749;
-94.8000;0.3801;0.9749;
-94.5000;0.3793;0.9724;
-94.2000;0.3793;0.9650;
-93.9000;0.3818;0.9675;
-93.6000;0.3793;0.9650;
-93.3000;0.3801;0.9724;
-93.0000;0.3810;0.9798;
-92.7000;0.3761;0.9626;
-92.4000;0.3801;0.9700;
-92.1000;0.3785;0.9626;
-91.8000;0.3810;0.9626;
-91.5000;0.3801;0.9601;
-91.2000;0.3801;0.9601;
-90.9000;0.3801;0.9601;
-90.6000;0.3769;0.9502;
-90.3000;0.3793;0.9576;
-90.0000;0.3810;0.9675;
-89.7000;0.3801;0.9675;
-89.4000;0.3915;1.0045;
-89.1000;0.3834;0.9798;
-88.8000;0.3753;0.9576;
-88.5000;0.3810;0.9675;
-88.2000;0.3810;0.9675;
-87.9000;0.3793;0.9626;
-87.6000;0.3810;0.9626;
-87.3000;0.3785;0.9675;
-87.0000;0.3810;0.9724;
-86.7000;0.3818;0.9650;
-86.4000;0.3801;0.9650;
-86.1000;0.3867;0.9848;
-85.8000;0.3810;0.9774;
-85.5000;0.3801;0.9724;
-85.2000;0.3834;0.9774;
-84.9000;0.3801;0.9724;
-84.6000;0.3826;0.9749;
-84.3000;0.3810;0.9749;
-84.0000;0.3810;0.9724;
-83.7000;0.3899;0.9946;
-83.4000;0.3801;0.9798;
-83.1000;0.3785;0.9749;
-82.8000;0.3826;0.9848;
-82.5000;0.3777;0.9749;
-82.2000;0.3842;0.9971;
-81.9000;0.3826;0.9922;
-81.6000;0.3818;0.9897;
-81.3000;0.3810;0.9774;
-81.0000;0.3801;0.9675;
-80.7000;0.3867;0.9749;
-80.4000;0.3793;0.9552;
-80.1000;0.3777;0.9601;
-79.8000;0.3818;0.9700;
-79.5000;0.3818;0.9749;
-79.2000;0.3801;0.9724;
-78.9000;0.3793;0.9724;
-78.6000;0.3810;0.9601;
-78.3000;0.3793;0.9626;
-78.0000;0.3818;0.9700;
-77.7000;0.3785;0.9675;
-77.4000;0.3777;0.9700;
-77.1000;0.3785;0.9675;
-76.8000;0.3793;0.9650;
-76.5000;0.3801;0.9576;
-76.2000;0.3704;0.9231;
-75.9000;0.3793;0.9576;
-75.6000;0.3818;0.9626;
-75.3000;0.3818;0.9650;
-75.0000;0.3810;0.9576;
-74.7000;0.3810;0.9527;
-74.4000;0.3810;0.9502;
-74.1000;0.3818;0.9403;
-73.8000;0.3818;0.9354;
-73.5000;0.3793;0.9329;
-73.2000;0.3801;0.9354;
-72.9000;0.3850;0.9576;
-72.6000;0.3801;0.9527;
-72.3000;0.3785;0.9552;
-72.0000;0.3793;0.9527;
-71.7000;0.3810;0.9552;
-71.4000;0.3801;0.9428;
-71.1000;0.3801;0.9453;
-70.8000;0.3818;0.9403;
-70.5000;0.3810;0.9329;
-70.2000;0.3810;0.9329;
-69.9000;0.3793;0.9354;
-69.6000;0.3793;0.9354;
-69.3000;0.3793;0.9305;
-69.0000;0.3801;0.9280;
-68.7000;0.3826;0.9329;
-68.4000;0.3801;0.9280;
-68.1000;0.3793;0.9255;
-67.8000;0.3818;0.9280;
-67.5000;0.3810;0.9305;
-67.2000;0.3801;0.9329;
-66.9000;0.3785;0.9280;
-66.6000;0.3793;0.9403;
-66.3000;0.3801;0.9552;
-66.0000;0.3785;0.9477;
-65.7000;0.3769;0.9379;
-65.4000;0.3810;0.9403;
-65.1000;0.3785;0.9428;
-64.8000;0.3826;0.9477;
-64.5000;0.3785;0.9329;
-64.2000;0.3801;0.9379;
-63.9000;0.3744;0.9379;
-63.6000;0.3818;0.9576;
-63.3000;0.3818;0.9403;
-63.0000;0.3793;0.9354;
-62.7000;0.3826;0.9552;
-62.4000;0.3801;0.9502;
-62.1000;0.3818;0.9576;
-61.8000;0.3777;0.9453;
-61.5000;0.3777;0.9502;
-61.2000;0.3818;0.9552;
-60.9000;0.3810;0.9502;
-60.6000;0.3801;0.9477;
-60.3000;0.3793;0.9576;
-60.0000;0.3810;0.9700;
-59.7000;0.3810;0.9700;
-59.4000;0.3793;0.9576;
-59.1000;0.3810;0.9527;
-58.8000;0.3777;0.9477;
-58.5000;0.3793;0.9576;
-58.2000;0.3793;0.9552;
-57.9000;0.3818;0.9601;
-57.6000;0.3810;0.9675;
-57.3000;0.3842;0.9774;
-57.0000;0.3801;0.9675;
-56.7000;0.3801;0.9774;
-56.4000;0.3785;0.9675;
-56.1000;0.3728;0.9552;
-55.8000;0.3858;0.9798;
-55.5000;0.3793;0.9626;
-55.2000;0.3793;0.9650;
-54.9000;0.3801;0.9724;
-54.6000;0.3818;0.9675;
-54.3000;0.3793;0.9749;
-54.0000;0.3801;0.9823;
-53.7000;0.3801;0.9848;
-53.4000;0.3810;0.9872;
-53.1000;0.3785;0.9823;
-52.8000;0.3785;0.9675;
-52.5000;0.3850;0.9823;
-52.2000;0.3826;0.9848;
-51.9000;0.3801;0.9823;
-51.6000;0.3801;0.9749;
-51.3000;0.3793;0.9650;
-51.0000;0.3826;0.9675;
-50.7000;0.3826;0.9700;
-50.4000;0.3810;0.9724;
-50.1000;0.3834;0.9774;
-49.8000;0.3801;0.9700;
-49.5000;0.3818;0.9798;
-49.2000;0.3826;0.9774;
-48.9000;0.3810;0.9724;
-48.6000;0.3785;0.9650;
-48.3000;0.3769;0.9700;
-48.0000;0.3810;0.9798;
-47.7000;0.3810;0.9848;
-47.4000;0.3785;0.9774;
-47.1000;0.3818;0.9848;
-46.8000;0.3801;0.9798;
-46.5000;0.3785;0.9774;
-46.2000;0.3793;0.9848;
-45.9000;0.3810;0.9823;
-45.6000;0.3777;0.9774;
-45.3000;0.3818;0.9798;
-45.0000;0.3777;0.9650;
-44.7000;0.3801;0.9626;
-44.4000;0.3875;0.9872;
-44.1000;0.3793;0.9700;
-43.8000;0.3810;0.9650;
-43.5000;0.3793;0.9626;
-43.2000;0.3793;0.9576;
-42.9000;0.3801;0.9601;
-42.6000;0.3801;0.9576;
-42.3000;0.3801;0.9601;
-42.0000;0.3810;0.9724;
-41.7000;0.3793;0.9724;
-41.4000;0.3793;0.9724;
-41.1000;0.3793;0.9626;
-40.8000;0.3810;0.9650;
-40.5000;0.3761;0.9552;
-40.2000;0.3801;0.9724;
-39.9000;0.3728;0.9527;
-39.6000;0.3810;0.9626;
-39.3000;0.3777;0.9428;
-39.0000;0.3801;0.9403;
-38.7000;0.3801;0.9428;
-38.4000;0.3801;0.9477;
-38.1000;0.3834;0.9527;
-37.8000;0.3793;0.9428;
-37.5000;0.3696;0.9305;
-37.2000;0.3777;0.9502;
-36.9000;0.3785;0.9527;
-36.6000;0.3785;0.9527;
-36.3000;0.3810;0.9576;
-36.0000;0.3810;0.9552;
-35.7000;0.3785;0.9477;
-35.4000;0.3801;0.9576;
-35.1000;0.3810;0.9749;
-34.8000;0.3793;0.9749;
-34.5000;0.3793;0.9724;
-34.2000;0.3793;0.9749;
-33.9000;0.3810;0.9774;
-33.6000;0.3834;0.9749;
-33.3000;0.3818;0.9749;
-33.0000;0.3834;0.9823;
-32.7000;0.3810;0.9774;
-32.4000;0.3810;0.9675;
-32.1000;0.3785;0.9700;
-31.8000;0.3793;0.9675;
-31.5000;0.3785;0.9601;
-31.2000;0.3785;0.9650;
-30.9000;0.3712;0.9527;
-30.6000;0.3777;0.9700;
-30.3000;0.3810;0.9700;
-30.0000;0.3801;0.9650;
-29.7000;0.3818;0.9650;
-29.4000;0.3818;0.9650;
-29.1000;0.3826;0.9700;
-28.8000;0.3753;0.9626;
-28.5000;0.3818;0.9848;
-28.2000;0.3818;0.9823;
-27.9000;0.3826;0.9724;
-27.6000;0.3810;0.9700;
-27.3000;0.3818;0.9626;
-27.0000;0.3810;0.9552;
-26.7000;0.3785;0.9502;
-26.4000;0.3810;0.9675;
-26.1000;0.3810;0.9749;
-25.8000;0.3826;0.9897;
-25.5000;0.3793;0.9798;
-25.2000;0.3785;0.9897;
-24.9000;0.3761;0.9774;
-24.6000;0.3793;0.9798;
-24.3000;0.3810;0.9749;
-24.0000;0.3801;0.9700;
-23.7000;0.3801;0.9749;
-23.4000;0.3801;0.9749;
-23.1000;0.3801;0.9823;
-22.8000;0.3785;0.9848;
-22.5000;0.3793;0.9996;
-22.2000;0.3801;0.9946;
-21.9000;0.3826;0.9946;
-21.6000;0.3810;0.9848;
-21.3000;0.3761;0.9700;
-21.0000;0.3785;0.9774;
-20.7000;0.3810;0.9848;
-20.4000;0.3793;0.9922;
-20.1000;0.3769;1.0020;
-19.8000;0.3793;1.0020;
-19.5000;0.3818;1.0070;
-19.2000;0.3810;1.0119;
-18.9000;0.3785;0.9922;
-18.6000;0.3785;0.9897;
-18.3000;0.3801;0.9922;
-18.0000;0.3793;0.9922;
-17.7000;0.3777;0.9823;
-17.4000;0.3810;0.9872;
-17.1000;0.3810;0.9946;
-16.8000;0.3793;0.9872;
-16.5000;0.3793;0.9848;
-16.2000;0.3810;0.9823;
-15.9000;0.3728;0.9650;
-15.6000;0.3801;0.9848;
-15.3000;0.3801;0.9774;
-15.0000;0.3753;0.9700;
-14.7000;0.3777;0.9823;
-14.4000;0.3810;0.9798;
-14.1000;0.3801;0.9724;
-13.8000;0.3801;0.9700;
-13.5000;0.3793;0.9700;
-13.2000;0.3801;0.9675;
-12.9000;0.3769;0.9626;
-12.6000;0.3801;0.9700;
-12.3000;0.3785;0.9675;
-12.0000;0.3801;0.9749;
-11.7000;0.3810;0.9798;
-11.4000;0.3810;0.9798;
-11.1000;0.3744;0.9552;
-10.8000;0.3801;0.9724;
-10.5000;0.3810;0.9724;
-10.2000;0.3777;0.9650;
-9.9000;0.3785;0.9552;
-9.6000;0.3818;0.9576;
-9.3000;0.3850;0.9650;
-9.0000;0.3777;0.9379;
-8.7000;0.3810;0.9354;
-8.4000;0.3793;0.9379;
-8.1000;0.3810;0.9379;
-7.8000;0.3834;0.9477;
-7.5000;0.3785;0.9403;
-7.2000;0.3793;0.9453;
-6.9000;0.3810;0.9552;
-6.6000;0.3793;0.9552;
-6.3000;0.3810;0.9502;
-6.0000;0.3793;0.9428;
-5.7000;0.3801;0.9477;
-5.4000;0.3810;0.9552;
-5.1000;0.3810;0.9576;
-4.8000;0.3793;0.9403;
-4.5000;0.3785;0.9502;
-4.2000;0.3801;0.9477;
-3.9000;0.3712;0.9280;
-3.6000;0.3801;0.9502;
-3.3000;0.3793;0.9477;
-3.0000;0.3801;0.9576;
-2.7000;0.3810;0.9650;
-2.4000;0.3834;0.9749;
-2.1000;0.3810;0.9774;
-1.8000;0.3785;0.9675;
-1.5000;0.3777;0.9576;
-1.2000;0.3801;0.9601;
-0.9000;0.3785;0.9576;
-0.6000;0.3801;0.9700;
-0.3000;0.3810;0.9700;
0.0000;0.3810;0.9700;
0.3000;0.3915;0.9477;
0.6000;0.4200;1.0094;
0.9000;0.4322;1.0415;
1.2000;0.4526;1.1032;
1.5000;0.4542;1.1180;
1.8000;0.4591;1.1304;
2.1000;0.4697;1.1551;
2.4000;0.4737;1.1723;
2.7000;0.4794;1.1921;
3.0000;0.4827;1.2020;
3.3000;0.4843;1.2242;
3.6000;0.4876;1.2439;
3.9000;0.4917;1.2563;
4.2000;0.4900;1.2513;
4.5000;0.4900;1.2464;
4.8000;0.4982;1.2760;
5.1000;0.4965;1.2661;
5.4000;0.5022;1.2637;
5.7000;0.5022;1.2661;
6.0000;0.5063;1.2760;
6.3000;0.5063;1.2735;
6.6000;0.5079;1.2834;
6.9000;0.5055;1.2785;
7.2000;0.5055;1.2785;
7.5000;0.5096;1.2859;
7.8000;0.5112;1.2957;
8.1000;0.5144;1.2957;
8.4000;0.5185;1.3106;
8.7000;0.5177;1.3056;
9.0000;0.5177;1.2933;
9.3000;0.5185;1.2859;
9.6000;0.5185;1.2809;
9.9000;0.5218;1.2859;
10.2000;0.5324;1.3106;
10.5000;0.5210;1.2933;
10.8000;0.5275;1.3081;
11.1000;0.5201;1.2760;
11.4000;0.5291;1.3032;
11.7000;0.5258;1.2982;
12.0000;0.5258;1.2908;
12.3000;0.5267;1.2957;
12.6000;0.5275;1.2957;
12.9000;0.5291;1.2883;
13.2000;0.5275;1.2785;
13.5000;0.5275;1.2785;
13.8000;0.5291;1.2809;
14.1000;0.5283;1.2711;
14.4000;0.5299;1.2661;
14.7000;0.5315;1.2735;
15.0000;0.5299;1.2637;
15.3000;0.5348;1.2809;
15.6000;0.5315;1.2760;
15.9000;0.5381;1.2933;
16.2000;0.5332;1.2809;
16.5000;0.5348;1.2809;
16.8000;0.5348;1.2859;
17.1000;0.5348;1.2933;
17.4000;0.5332;1.2834;
17.7000;0.5348;1.2859;
18.0000;0.5348;1.2859;
18.3000;0.5372;1.2982;
18.6000;0.5348;1.2908;
18.9000;0.5356;1.2908;
19.2000;0.5364;1.2883;
19.5000;0.5364;1.2883;
19.8000;0.5364;1.2785;
20.1000;0.5372;1.2834;
20.4000;0.5381;1.2809;
20.7000;0.5389;1.2859;
21.0000;0.5372;1.2859;
21.3000;0.5372;1.2834;
21.6000;0.5389;1.2883;
21.9000;0.5413;1.2908;
22.2000;0.5405;1.2908;
22.5000;0.5405;1.2908;
22.8000;0.5405;1.2834;
23.1000;0.5413;1.2785;
23.4000;0.5381;1.2809;
23.7000;0.5413;1.2785;
24.0000;0.5438;1.2711;
24.3000;0.5405;1.2563;
24.6000;0.5421;1.2587;
24.9000;0.5478;1.2760;
25.2000;0.5364;1.2489;
25.5000;0.5438;1.2735;
25.8000;0.5429;1.2661;
26.1000;0.5478;1.2809;
26.4000;0.5413;1.2686;
26.7000;0.5429;1.2785;
27.0000;0.5446;1.2809;
27.3000;0.5421;1.2711;
27.6000;0.5421;1.2711;
27.9000;0.5405;1.2735;
28.2000;0.5446;1.2908;
28.5000;0.5462;1.2908;
28.8000;0.5462;1.2859;
29.1000;0.5454;1.2908;
29.4000;0.5454;1.2933;
29.7000;0.5462;1.2883;
30.0000;0.5495;1.2908;
30.3000;0.5486;1.2859;
30.6000;0.5454;1.2785;
30.9000;0.5503;1.2933;
31.2000;0.5470;1.2883;
31.5000;0.5470;1.2834;
31.8000;0.5454;1.2785;
32.1000;0.5446;1.2612;
32.4000;0.5478;1.2612;
32.7000;0.5486;1.2637;
33.0000;0.5495;1.2612;
33.3000;0.5462;1.2587;
33.6000;0.5470;1.2637;
33.9000;0.5576;1.2908;
34.2000;0.5503;1.2686;
34.5000;0.5486;1.2661;
34.8000;0.5429;1.2538;
35.1000;0.5495;1.2735;
35.4000;0.5527;1.2760;
35.7000;0.5486;1.2661;
36.0000;0.5495;1.2686;
36.3000;0.5495;1.2760;
36.6000;0.5486;1.2711;
36.9000;0.5495;1.2735;
37.2000;0.5503;1.2859;
37.5000;0.5527;1.2982;
37.8000;0.5462;1.2785;
38.1000;0.5486;1.2859;
38.4000;0.5495;1.2933;
38.7000;0.5511;1.2957;
39.0000;0.5503;1.2859;
39.3000;0.5511;1.2883;
39.6000;0.5511;1.2834;
39.9000;0.5486;1.2809;
40.2000;0.5462;1.2686;
40.5000;0.5503;1.2735;
40.8000;0.5503;1.2859;
41.1000;0.5495;1.2785;
41.4000;0.5543;1.2859;
41.7000;0.5527;1.2859;
42.0000;0.5486;1.2637;
42.3000;0.5495;1.2686;
42.6000;0.5519;1.2859;
42.9000;0.5503;1.2883;
43.2000;0.5495;1.2957;
43.5000;0.5511;1.3032;
43.8000;0.5511;1.2957;
44.1000;0.5519;1.2982;
44.4000;0.5519;1.2982;
44.7000;0.5511;1.3056;
45.0000;0.5527;1.3130;
45.3000;0.5527;1.3106;
45.6000;0.5511;1.3081;
45.9000;0.5495;1.3056;
46.2000;0.5503;1.3007;
46.5000;0.5519;1.2982;
46.8000;0.5511;1.2908;
47.1000;0.5503;1.2785;
47.4000;0.5543;1.2883;
47.7000;0.5551;1.2908;
48.0000;0.5535;1.2785;
48.3000;0.5503;1.2711;
48.6000;0.5429;1.2439;
48.9000;0.5519;1.2711;
49.2000;0.5527;1.2711;
49.5000;0.5511;1.2735;
49.8000;0.5543;1.2760;
50.1000;0.5519;1.2760;
50.4000;0.5543;1.2859;
50.7000;0.5527;1.2785;
51.0000;0.5535;1.2834;
51.3000;0.5527;1.2735;
51.6000;0.5535;1.2834;
51.9000;0.5527;1.2760;
52.2000;0.5527;1.2785;
52.5000;0.5511;1.2785;
52.8000;0.5519;1.2859;
53.1000;0.5519;1.2785;
53.4000;0.5470;1.2735;
53.7000;0.5543;1.2933;
54.0000;0.5519;1.2883;
54.3000;0.5576;1.2859;
54.6000;0.5527;1.2686;
54.9000;0.5576;1.2834;
55.2000;0.5551;1.2711;
55.5000;0.5527;1.2612;
55.8000;0.5527;1.2637;
56.1000;0.5527;1.2612;
56.4000;0.5527;1.2661;
56.7000;0.5551;1.2735;
57.0000;0.5543;1.2711;
57.3000;0.5551;1.2686;
57.6000;0.5486;1.2538;
57.9000;0.5560;1.2760;
58.2000;0.5560;1.2809;
58.5000;0.5470;1.2637;
58.8000;0.5519;1.2859;
59.1000;0.5543;1.2859;
59.4000;0.5535;1.2883;
59.7000;0.5551;1.2908;
60.0000;0.5551;1.2957;
60.3000;0.5527;1.2908;
60.6000;0.5543;1.2933;
60.9000;0.5608;1.3007;
61.2000;0.5543;1.2908;
61.5000;0.5560;1.2785;
61.8000;0.5527;1.2711;
62.1000;0.5551;1.2735;
62.4000;0.5560;1.2760;
62.7000;0.5527;1.2809;
63.0000;0.5543;1.2809;
63.3000;0.5535;1.2760;
63.6000;0.5543;1.2859;
63.9000;0.5543;1.2859;
64.2000;0.5543;1.2760;
64.5000;0.5535;1.2711;
64.8000;0.5527;1.2735;
65.1000;0.5608;1.2908;
65.4000;0.5543;1.2735;
65.7000;0.5551;1.2711;
66.0000;0.5527;1.2587;
66.3000;0.5551;1.2637;
66.6000;0.5551;1.2587;
66.9000;0.5543;1.2563;
67.2000;0.5560;1.2612;
67.5000;0.5551;1.2612;
67.8000;0.5560;1.2785;
68.1000;0.5543;1.2686;
68.4000;0.5543;1.2711;
68.7000;0.5576;1.2760;
69.0000;0.5543;1.2637;
69.3000;0.5543;1.2587;
69.6000;0.5551;1.2661;
69.9000;0.5568;1.2612;
70.2000;0.5551;1.2612;
70.5000;0.5551;1.2612;
70.8000;0.5543;1.2587;
71.1000;0.5560;1.2661;
71.4000;0.5568;1.2612;
71.7000;0.5503;1.2415;
72.0000;0.5584;1.2637;
72.3000;0.5551;1.2612;
72.6000;0.5584;1.2735;
72.9000;0.5568;1.2711;
73.2000;0.5446;1.2415;
73.5000;0.5560;1.2637;
73.8000;0.5584;1.2661;
74.1000;0.5649;1.2809;
74.4000;0.5519;1.2513;
74.7000;0.5657;1.2859;
75.0000;0.5519;1.2489;
75.3000;0.5560;1.2489;
75.6000;0.5568;1.2637;
75.9000;0.5551;1.2612;
76.2000;0.5576;1.2735;
76.5000;0.5551;1.2686;
76.8000;0.5560;1.2711;
77.1000;0.5560;1.2637;
77.4000;0.5551;1.2612;
77.7000;0.5576;1.2760;
78.0000;0.5608;1.2908;
78.3000;0.5560;1.2735;
78.6000;0.5551;1.2686;
78.9000;0.5543;1.2711;
79.2000;0.5560;1.2809;
79.5000;0.5551;1.2883;
79.8000;0.5543;1.2908;
80.1000;0.5568;1.2982;
80.4000;0.5543;1.2933;
80.7000;0.5551;1.2785;
81.0000;0.5551;1.2859;
81.3000;0.5551;1.2859;
81.6000;0.5535;1.2834;
81.9000;0.5551;1.2834;
82.2000;0.5551;1.2760;
82.5000;0.5560;1.2760;
82.8000;0.5560;1.2834;
83.1000;0.5568;1.2785;
83.4000;0.5560;1.2711;
83.7000;0.5560;1.2735;
84.0000;0.5568;1.2711;
84.3000;0.5560;1.2686;
84.6000;0.5551;1.2637;
84.9000;0.5535;1.2587;
85.2000;0.5543;1.2686;
85.5000;0.5568;1.2711;
85.8000;0.5568;1.2735;
86.1000;0.5568;1.2686;
86.4000;0.5568;1.2686;
86.7000;0.5560;1.2711;
87.0000;0.5543;1.2661;
87.3000;0.5551;1.2538;
87.6000;0.5568;1.2637;
87.9000;0.5568;1.2661;
88.2000;0.5568;1.2735;
88.5000;0.5576;1.2735;
88.8000;0.5560;1.2760;
89.1000;0.5543;1.2686;
89.4000;0.5576;1.2834;
89.7000;0.5584;1.2760;
90.0000;0.5560;1.2735;
90.3000;0.5560;1.2834;
90.6000;0.5576;1.2859;
90.9000;0.5543;1.2785;
91.2000;0.5584;1.2859;
91.5000;0.5551;1.2785;
91.8000;0.5592;1.2859;
92.1000;0.5560;1.2809;
92.4000;0.5543;1.2760;
92.7000;0.5576;1.2809;
93.0000;0.5560;1.2908;
93.3000;0.5584;1.2957;
93.6000;0.5592;1.2957;
93.9000;0.5576;1.2834;
94.2000;0.5576;1.2760;
94.5000;0.5568;1.2686;
94.8000;0.5674;1.2933;
95.1000;0.5535;1.2612;
95.4000;0.5568;1.2612;
95.7000;0.5535;1.2587;
96.0000;0.5568;1.2735;
96.3000;0.5560;1.2661;
96.6000;0.5560;1.2637;
96.9000;0.5568;1.2711;
97.2000;0.5584;1.2735;
97.5000;0.5584;1.2661;
97.8000;0.5657;1.2883;
98.1000;0.5568;1.2538;
98.4000;0.5560;1.2439;
98.7000;0.5576;1.2587;
99.0000;0.5560;1.2612;
99.3000;0.5600;1.2711;
99.6000;0.5576;1.2711;
99.9000;0.5543;1.2760;
100.2000;0.5560;1.2785;
100.5000;0.5560;1.2711;
100.8000;0.5560;1.2661;
101.1000;0.5568;1.2711;
101.4000;0.5592;1.2735;
101.7000;0.5568;1.2735;
102.0000;0.5551;1.2785;
102.3000;0.5568;1.2883;
102.6000;0.5576;1.2883;
102.9000;0.5617;1.2957;
103.2000;0.5511;1.2711;
103.5000;0.5608;1.2933;
103.8000;0.5551;1.2834;
104.1000;0.5576;1.2735;
104.4000;0.5576;1.2760;
104.7000;0.5560;1.2785;
105.0000;0.5592;1.2883;
105.3000;0.5568;1.2785;
105.6000;0.5576;1.2711;
105.9000;0.5576;1.2760;
106.2000;0.5600;1.2883;
106.5000;0.5584;1.2834;
106.8000;0.5551;1.2711;
107.1000;0.5560;1.2760;
107.4000;0.5576;1.2686;
107.7000;0.5560;1.2612;
108.0000;0.5584;1.2760;
108.3000;0.5551;1.2661;
108.6000;0.5543;1.2785;
108.9000;0.5568;1.2834;
109.2000;0.5568;1.2785;
109.5000;0.5560;1.2809;
109.8000;0.5551;1.2809;
110.1000;0.5608;1.2933;
110.4000;0.5527;1.2760;
110.7000;0.5560;1.2859;
111.0000;0.5551;1.2809;
111.3000;0.5551;1.2686;
111.6000;0.5568;1.2735;
111.9000;0.5543;1.2735;
112.2000;0.5560;1.2809;
112.5000;0.5592;1.2908;
112.8000;0.5576;1.2785;
113.1000;0.5568;1.2735;
113.4000;0.5568;1.2711;
113.7000;0.5568;1.2809;
114.0000;0.5527;1.2686;
114.3000;0.5560;1.2711;
114.6000;0.5543;1.2612;
114.9000;0.5576;1.2637;
115.2000;0.5560;1.2563;
115.5000;0.5584;1.2587;
115.8000;0.5568;1.2538;
116.1000;0.5576;1.2587;
116.4000;0.5592;1.2760;
116.7000;0.5592;1.2809;
117.0000;0.5568;1.2661;
117.3000;0.5568;1.2612;
117.6000;0.5551;1.2563;
117.9000;0.5576;1.2587;
118.2000;0.5560;1.2538;
118.5000;0.5560;1.2464;
118.8000;0.5600;1.2587;
119.1000;0.5543;1.2563;
119.4000;0.5560;1.2563;
119.7000;0.5576;1.2661;
120.0000;0.5551;1.2612;
120.3000;0.5454;1.2390;
120.6000;0.5560;1.2637;
120.9000;0.5543;1.2661;
121.2000;0.5551;1.2661;
121.5000;0.5560;1.2686;
121.8000;0.5576;1.2785;
122.1000;0.5584;1.2686;
122.4000;0.5560;1.2637;
122.7000;0.5576;1.2735;
123.0000;0.5551;1.2711;
123.3000;0.5535;1.2661;
123.6000;0.5584;1.2834;
123.9000;0.5568;1.2809;
124.2000;0.5600;1.2933;
124.5000;0.5560;1.2834;
124.8000;0.5584;1.2933;
125.1000;0.5551;1.2859;
125.4000;0.5617;1.2933;
125.7000;0.5584;1.2834;
126.0000;0.5576;1.2908;
126.3000;0.5649;1.3081;
126.6000;0.5568;1.2933;
126.9000;0.5592;1.2933;
127.2000;0.5576;1.2834;
127.5000;0.5568;1.2785;
127.8000;0.5600;1.2834;
128.1000;0.5576;1.2711;
128.4000;0.5576;1.2735;
128.7000;0.5584;1.2834;
129.0000;0.5608;1.2933;
129.3000;0.5576;1.2809;
129.6000;0.5568;1.2859;
129.9000;0.5511;1.2637;
130.2000;0.5608;1.2933;
130.5000;0.5568;1.2809;
130.8000;0.5633;1.2933;
131.1000;0.5592;1.2785;
131.4000;0.5551;1.2711;
131.7000;0.5608;1.2908;
132.0000;0.5543;1.2809;
132.3000;0.5551;1.2834;
132.6000;0.5551;1.2883;
132.9000;0.5543;1.2859;
133.2000;0.5576;1.2883;
133.5000;0.5584;1.2908;
133.8000;0.5568;1.2834;
134.1000;0.5568;1.2883;
134.4000;0.5560;1.2809;
134.7000;0.5560;1.2834;
135.0000;0.5568;1.2686;
135.3000;0.5560;1.2661;
135.6000;0.5576;1.2686;
135.9000;0.5560;1.2637;
136.2000;0.5600;1.2760;
136.5000;0.5576;1.2686;
136.8000;0.5560;1.2711;
137.1000;0.5568;1.2686;
137.4000;0.5560;1.2686;
137.7000;0.5576;1.2735;
138.0000;0.5576;1.2760;
138.3000;0.5600;1.2711;
138.6000;0.5576;1.2760;
138.9000;0.5584;1.2809;
139.2000;0.5543;1.2711;
139.5000;0.5560;1.2735;
139.8000;0.5576;1.2735;
140.1000;0.5600;1.2735;
140.4000;0.5543;1.2686;
140.7000;0.5568;1.2661;
141.0000;0.5560;1.2686;
141.3000;0.5584;1.2711;
141.6000;0.5576;1.2711;
141.9000;0.5551;1.2612;
142.2000;0.5625;1.2711;
142.5000;0.5568;1.2637;
142.8000;0.5576;1.2809;
143.1000;0.5543;1.2735;
143.4000;0.5446;1.2464;
143.7000;0.5649;1.2933;
144.0000;0.5543;1.2735;
144.3000;0.5535;1.2735;
144.6000;0.5560;1.2760;
144.9000;0.5568;1.2785;
145.2000;0.5633;1.2908;
145.5000;0.5600;1.2908;
145.8000;0.5551;1.2785;
146.1000;0.5551;1.2809;
146.4000;0.5576;1.2859;
146.7000;0.5600;1.2933;
147.0000;0.5608;1.2908;
147.3000;0.5551;1.2612;
147.6000;0.5584;1.2612;
147.9000;0.5568;1.2563;
148.2000;0.5576;1.2637;
148.5000;0.5568;1.2686;
148.8000;0.5560;1.2735;
149.1000;0.5584;1.2711;
149.4000;0.5551;1.2711;
149.7000;0.5576;1.2760;
150.0000;0.5617;1.2859;
150.3000;0.5584;1.2735;
150.6000;0.5551;1.2686;
150.9000;0.5584;1.2809;
151.2000;0.5560;1.2785;
151.5000;0.5674;1.3081;
151.8000;0.5584;1.2933;
152.1000;0.5584;1.2982;
152.4000;0.5568;1.2957;
152.7000;0.5543;1.2933;
153.0000;0.5584;1.2957;
153.3000;0.5568;1.2957;
153.6000;0.5568;1.2908;
153.9000;0.5617;1.2908;
154.2000;0.5576;1.2612;
154.5000;0.5560;1.2538;
154.8000;0.5576;1.2439;
155.1000;0.5560;1.2365;
155.4000;0.5551;1.2291;
155.7000;0.5568;1.2266;
156.0000;0.5584;1.2316;
156.3000;0.5576;1.2192;
156.6000;0.5592;1.2266;
156.9000;0.5568;1.2266;
157.2000;0.5568;1.2340;
157.5000;0.5568;1.2291;
157.8000;0.5560;1.2291;
158.1000;0.5568;1.2390;
158.4000;0.5568;1.2439;
158.7000;0.5568;1.2415;
159.0000;0.5576;1.2464;
159.3000;0.5584;1.2439;
159.6000;0.5576;1.2340;
159.9000;0.5576;1.2365;
160.2000;0.5560;1.2340;
160.5000;0.5576;1.2340;
160.8000;0.5584;1.2415;
161.1000;0.5576;1.2365;
161.4000;0.5592;1.2390;
161.7000;0.5576;1.2439;
162.0000;0.5592;1.2563;
162.3000;0.5584;1.2612;
162.6000;0.5568;1.2513;
162.9000;0.5617;1.2612;
163.2000;0.5584;1.2661;
163.5000;0.5592;1.2686;
163.8000;0.5576;1.2612;
164.1000;0.5576;1.2686;
164.4000;0.5584;1.2587;
164.7000;0.5649;1.2711;
165.0000;0.5617;1.2735;
165.3000;0.5584;1.2711;
165.6000;0.5535;1.2637;
165.9000;0.5551;1.2686;
166.2000;0.5576;1.2785;
166.5000;0.5592;1.2883;
166.8000;0.5584;1.2908;
167.1000;0.5592;1.3007;
167.4000;0.5584;1.2957;
167.7000;0.5584;1.2957;
168.0000;0.5527;1.2834;
168.3000;0.5576;1.2982;
168.6000;0.5576;1.2883;
168.9000;0.5584;1.2834;
169.2000;0.5600;1.2859;
169.5000;0.5568;1.2809;
169.8000;0.5592;1.2908;
170.1000;0.5608;1.2859;
170.4000;0.5511;1.2612;
170.7000;0.5568;1.2661;
171.0000;0.5576;1.2686;
171.3000;0.5584;1.2661;
171.6000;0.5592;1.2785;
171.9000;0.5633;1.2933;
172.2000;0.5568;1.2735;
172.5000;0.5576;1.2809;
172.8000;0.5584;1.2809;
173.1000;0.5568;1.2809;
173.4000;0.5568;1.2785;
173.7000;0.5576;1.2711;
174.0000;0.5600;1.2661;
174.3000;0.5584;1.2563;
174.6000;0.5576;1.2563;
174.9000;0.5576;1.2587;
175.2000;0.5584;1.2637;
175.5000;0.5551;1.2464;
175.8000;0.5576;1.2513;
176.1000;0.5592;1.2563;
176.4000;0.5600;1.2612;
176.7000;0.5568;1.2612;
177.0000;0.5568;1.2637;
177.3000;0.5584;1.2612;
177.6000;0.5584;1.2686;
177.9000;0.5576;1.2612;
178.2000;0.5584;1.2612;
178.5000;0.5560;1.2637;
178.8000;0.5584;1.2711;
179.1000;0.5584;1.2686;
179.4000;0.5584;1.2686;
179.7000;0.5576;1.2612;
180.0000;0.5543;1.2637;
180.3000;0.5576;1.2735;
180.6000;0.5543;1.2686;
180.9000;0.5551;1.2859;
181.2000;0.5535;1.2859;
181.5000;0.5568;1.2859;
181.8000;0.5551;1.2883;
182.1000;0.5674;1.3081;
182.4000;0.5551;1.2785;
182.7000;0.5568;1.2785;
183.0000;0.5584;1.2785;
183.3000;0.5568;1.2711;
183.6000;0.5576;1.2711;
183.9000;0.5568;1.2686;
184.2000;0.5584;1.2686;
184.5000;0.5568;1.2661;
184.8000;0.5551;1.2686;
185.1000;0.5576;1.2760;
185.4000;0.5576;1.2612;
185.7000;0.5592;1.2637;
186.0000;0.5576;1.2661;
186.3000;0.5560;1.2563;
186.6000;0.5600;1.2587;
186.9000;0.5584;1.2563;
187.2000;0.5551;1.2489;
187.5000;0.5568;1.2563;
187.8000;0.5560;1.2563;
188.1000;0.5617;1.2637;
188.4000;0.5576;1.2612;
188.7000;0.5576;1.2661;
189.0000;0.5568;1.2612;
189.3000;0.5592;1.2711;
189.6000;0.5625;1.2711;
189.9000;0.5584;1.2661;
190.2000;0.5584;1.2809;
190.5000;0.5600;1.2933;
190.8000;0.5592;1.3007;
191.1000;0.5568;1.2785;
191.4000;0.5576;1.2760;
191.7000;0.5576;1.2760;
192.0000;0.5657;1.2859;
192.3000;0.5576;1.2587;
192.6000;0.5641;1.2785;
192.9000;0.5600;1.2735;
193.2000;0.5592;1.2686;
193.5000;0.5568;1.2661;
193.8000;0.5560;1.2661;
194.1000;0.5568;1.2760;
194.4000;0.5584;1.2735;
194.7000;0.5584;1.2711;
195.0000;0.5568;1.2760;
195.3000;0.5560;1.2785;
195.6000;0.5568;1.2883;
195.9000;0.5576;1.2859;
196.2000;0.5568;1.2834;
196.5000;0.5568;1.2735;
196.8000;0.5576;1.2661;
197.1000;0.5576;1.2612;
197.4000;0.5568;1.2513;
197.7000;0.5568;1.2538;
198.0000;0.5560;1.2464;
198.3000;0.5568;1.2464;
198.6000;0.5576;1.2464;
198.9000;0.5682;1.2785;
199.2000;0.5584;1.2464;
199.5000;0.5600;1.2538;
199.8000;0.5592;1.2439;
200.1000;0.5576;1.2439;
200.4000;0.5551;1.2390;
200.7000;0.5576;1.2390;
201.0000;0.5519;1.2340;
201.3000;0.5584;1.2464;
201.6000;0.5584;1.2464;
201.9000;0.5576;1.2489;
202.2000;0.5600;1.2637;
202.5000;0.5576;1.2637;
202.8000;0.5584;1.2785;
203.1000;0.5584;1.2809;
203.4000;0.5576;1.2859;
203.7000;0.5568;1.2760;
204.0000;0.5584;1.2711;
204.3000;0.5576;1.2686;
204.6000;0.5584;1.2637;
204.9000;0.5551;1.2612;
205.2000;0.5568;1.2612;
205.5000;0.5576;1.2587;
205.8000;0.5560;1.2538;
206.1000;0.5584;1.2637;
206.4000;0.5576;1.2661;
206.7000;0.5568;1.2637;
207.0000;0.5592;1.2661;
207.3000;0.5600;1.2587;
207.6000;0.5584;1.2587;
207.9000;0.5568;1.2587;
208.2000;0.5576;1.2563;
208.5000;0.5560;1.2513;
208.8000;0.5584;1.2563;
209.1000;0.5576;1.2587;
209.4000;0.5560;1.2563;
209.7000;0.5584;1.2538;
210.0000;0.5592;1.2587;
210.3000;0.5568;1.2587;
210.6000;0.5560;1.2661;
210.9000;0.5535;1.2587;
211.2000;0.5535;1.2563;
211.5000;0.5592;1.2587;
211.8000;0.5592;1.2612;
212.1000;0.5568;1.2538;
212.4000;0.5568;1.2538;
212.7000;0.5584;1.2563;
213.0000;0.5584;1.2612;
213.3000;0.5519;1.2439;
213.6000;0.5641;1.2735;
213.9000;0.5600;1.2735;
214.2000;0.5576;1.2686;
214.5000;0.5576;1.2735;
214.8000;0.5568;1.2785;
215.1000;0.5568;1.2785;
215.4000;0.5568;1.2735;
215.7000;0.5543;1.2637;
216.0000;0.5560;1.2686;
216.3000;0.5551;1.2587;
216.6000;0.5592;1.2637;
216.9000;0.5568;1.2563;
217.2000;0.5584;1.2563;
217.5000;0.5576;1.2661;
217.8000;0.5543;1.2661;
218.1000;0.5576;1.2711;
218.4000;0.5592;1.2809;
218.7000;0.5584;1.2735;
219.0000;0.5608;1.2711;
219.3000;0.5592;1.2563;
219.6000;0.5584;1.2587;
219.9000;0.5568;1.2587;
220.2000;0.5592;1.2637;
220.5000;0.5592;1.2711;
220.8000;0.5592;1.2661;
221.1000;0.5584;1.2735;
221.4000;0.5527;1.2513;
221.7000;0.5584;1.2587;
222.0000;0.5706;1.2834;
222.3000;0.5576;1.2587;
222.6000;0.5584;1.2612;
222.9000;0.5600;1.2686;
223.2000;0.5576;1.2711;
223.5000;0.5625;1.2785;
223.8000;0.5625;1.2859;
224.1000;0.5576;1.2711;
224.4000;0.5608;1.2686;
224.7000;0.5560;1.2538;
225.0000;0.5592;1.2711;
225.3000;0.5568;1.2637;
225.6000;0.5576;1.2612;
225.9000;0.5519;1.2439;
226.2000;0.5568;1.2612;
226.5000;0.5543;1.2587;
226.8000;0.5560;1.2661;
227.1000;0.5617;1.2859;
227.4000;0.5560;1.2735;
227.7000;0.5576;1.2661;
228.0000;0.5584;1.2760;
228.3000;0.5584;1.2711;
228.6000;0.5576;1.2735;
228.9000;0.5600;1.2785;
229.2000;0.5535;1.2637;
229.5000;0.5568;1.2785;
229.8000;0.5608;1.2859;
230.1000;0.5600;1.2809;
230.4000;0.5560;1.2760;
230.7000;0.5592;1.2933;
231.0000;0.5608;1.2933;
231.3000;0.5600;1.2883;
231.6000;0.5600;1.2908;
231.9000;0.5568;1.2859;
232.2000;0.5576;1.2908;
232.5000;0.5608;1.2933;
232.8000;0.5584;1.2834;
233.1000;0.5560;1.2760;
233.4000;0.5584;1.2785;
233.7000;0.5584;1.2834;
234.0000;0.5584;1.2859;
234.3000;0.5592;1.2834;
234.6000;0.5543;1.2661;
234.9000;0.5584;1.2735;
235.2000;0.5584;1.2760;
235.5000;0.5576;1.2686;
235.8000;0.5568;1.2711;
236.1000;0.5568;1.2809;
236.4000;0.5584;1.2883;
236.7000;0.5592;1.2834;
237.0000;0.5600;1.2834;
237.3000;0.5657;1.2982;
237.6000;0.5584;1.2834;
237.9000;0.5584;1.2883;
238.2000;0.5592;1.2908;
238.5000;0.5600;1.2883;
238.8000;0.5576;1.2760;
239.1000;0.5568;1.2760;
239.4000;0.5625;1.2957;
239.7000;0.5568;1.2883;
240.0000;0.5608;1.3007;
240.3000;0.5568;1.2859;
240.6000;0.5576;1.2834;
240.9000;0.5551;1.2809;
241.2000;0.5543;1.2834;
241.5000;0.5584;1.2933;
241.8000;0.5600;1.2908;
242.1000;0.5560;1.2785;
242.4000;0.5625;1.2883;
242.7000;0.5600;1.2908;
243.0000;0.5535;1.2760;
243.3000;0.5568;1.2785;
243.6000;0.5592;1.2859;
243.9000;0.5543;1.2760;
244.2000;0.5608;1.2859;
244.5000;0.5600;1.2760;
244.8000;0.5568;1.2735;
245.1000;0.5543;1.2735;
245.4000;0.5649;1.3007;
245.7000;0.5617;1.2883;
246.0000;0.5551;1.2785;
246.3000;0.5657;1.2883;
246.6000;0.5576;1.2538;
246.9000;0.5568;1.2587;
247.2000;0.5600;1.2513;
247.5000;0.5560;1.2513;
247.8000;0.5600;1.2735;
248.1000;0.5560;1.2785;
248.4000;0.5576;1.2760;
248.7000;0.5625;1.2859;
249.0000;0.5576;1.2760;
249.3000;0.5576;1.2760;
249.6000;0.5568;1.2809;
249.9000;0.5535;1.2711;
250.2000;0.5592;1.2883;
250.5000;0.5584;1.2834;
250.8000;0.5568;1.2809;
251.1000;0.5568;1.2859;
251.4000;0.5568;1.2760;
251.7000;0.5576;1.2883;
252.0000;0.5568;1.2883;
252.3000;0.5511;1.2809;
252.6000;0.5576;1.2859;
252.9000;0.5568;1.2834;
253.2000;0.5527;1.2785;
253.5000;0.5568;1.2933;
253.8000;0.5568;1.2933;
254.1000;0.5568;1.2859;
254.4000;0.5568;1.2785;
254.7000;0.5576;1.2785;
255.0000;0.5584;1.2834;
255.3000;0.5576;1.2834;
255.6000;0.5568;1.2809;
255.9000;0.5592;1.2809;
256.2000;0.5584;1.2735;
256.5000;0.5576;1.2686;
256.8000;0.5584;1.2661;
257.1000;0.5576;1.2711;
257.4000;0.5592;1.2785;
257.7000;0.5576;1.2735;
258.0000;0.5592;1.2711;
258.3000;0.5576;1.2735;
258.6000;0.5576;1.2735;
258.9000;0.5608;1.2883;
259.2000;0.5625;1.2957;
259.5000;0.5560;1.2785;
259.8000;0.5633;1.2957;
260.1000;0.5543;1.2809;
260.4000;0.5551;1.2735;
260.7000;0.5576;1.2711;
261.0000;0.5568;1.2563;
261.3000;0.5584;1.2612;
261.6000;0.5633;1.2859;
261.9000;0.5584;1.2809;
262.2000;0.5584;1.2760;
262.5000;0.5592;1.2735;
262.8000;0.5560;1.2538;
263.1000;0.5600;1.2661;
263.4000;0.5560;1.2563;
263.7000;0.5495;1.2390;
264.0000;0.5551;1.2439;
264.3000;0.5608;1.2513;
264.6000;0.5576;1.2464;
264.9000;0.5600;1.2538;
265.2000;0.5560;1.2439;
265.5000;0.5584;1.2563;
265.8000;0.5568;1.2587;
266.1000;0.5608;1.2612;
266.4000;0.5625;1.2686;
266.7000;0.5576;1.2563;
267.0000;0.5560;1.2587;
267.3000;0.5560;1.2661;
267.6000;0.5568;1.2637;
267.9000;0.5608;1.2711;
268.2000;0.5568;1.2637;
268.5000;0.5617;1.2785;
268.8000;0.5592;1.2711;
269.1000;0.5551;1.2563;
269.4000;0.5527;1.2587;
269.7000;0.5584;1.2809;
270.0000;0.5576;1.2834;
270.3000;0.5608;1.3032;
270.6000;0.5584;1.2785;
270.9000;0.5576;1.2735;
271.2000;0.5584;1.2661;
271.5000;0.5576;1.2612;
271.8000;0.5551;1.2612;
272.1000;0.5568;1.2637;
272.4000;0.5584;1.2563;
272.7000;0.5592;1.2513;
273.0000;0.5576;1.2439;
273.3000;0.5576;1.2489;
273.6000;0.5568;1.2661;
273.9000;0.5551;1.2612;
274.2000;0.5576;1.2637;
274.5000;0.5584;1.2587;
274.8000;0.5568;1.2489;
275.1000;0.5543;1.2415;
275.4000;0.5576;1.2439;
275.7000;0.5584;1.2464;
276.0000;0.5584;1.2415;
276.3000;0.5568;1.2464;
276.6000;0.5576;1.2489;
276.9000;0.5568;1.2538;
277.2000;0.5568;1.2538;
277.5000;0.5576;1.2563;
277.8000;0.5576;1.2563;
278.1000;0.5584;1.2587;
278.4000;0.5576;1.2612;
278.7000;0.5576;1.2686;
279.0000;0.5560;1.2686;
279.3000;0.5576;1.2587;
279.6000;0.5560;1.2415;
279.9000;0.5568;1.2489;
280.2000;0.5584;1.2563;
280.5000;0.5551;1.2415;
280.8000;0.5576;1.2538;
281.1000;0.5576;1.2563;
281.4000;0.5568;1.2538;
281.7000;0.5568;1.2464;
282.0000;0.5568;1.2513;
282.3000;0.5617;1.2612;
282.6000;0.5584;1.2612;
282.9000;0.5568;1.2587;
283.2000;0.5568;1.2563;
283.5000;0.5576;1.2587;
283.8000;0.5592;1.2637;
284.1000;0.5584;1.2563;
284.4000;0.5600;1.2587;
284.7000;0.5519;1.2340;
285.0000;0.5592;1.2489;
285.3000;0.5657;1.2612;
285.6000;0.5779;1.3056;
285.9000;0.5584;1.2587;
286.2000;0.5584;1.2439;
286.5000;0.5560;1.2365;
286.8000;0.5592;1.2390;
287.1000;0.5592;1.2365;
287.4000;0.5568;1.2464;
287.7000;0.5617;1.2735;
288.0000;0.5560;1.2587;
288.3000;0.5535;1.2489;
288.6000;0.5592;1.2735;
288.9000;0.5543;1.2661;
289.2000;0.5576;1.2760;
289.5000;0.5576;1.2834;
289.8000;0.5592;1.2933;
290.1000;0.5625;1.3007;
290.4000;0.5560;1.2760;
290.7000;0.5584;1.2809;
291.0000;0.5568;1.2661;
291.3000;0.5592;1.2760;
291.6000;0.5584;1.2661;
291.9000;0.5576;1.2612;
292.2000;0.5584;1.2711;
292.5000;0.5584;1.2686;
292.8000;0.5592;1.2735;
293.1000;0.5584;1.2711;
293.4000;0.5568;1.2661;
293.7000;0.5560;1.2637;
294.0000;0.5560;1.2711;
294.3000;0.5584;1.2809;
294.6000;0.5560;1.2735;
294.9000;0.5519;1.2587;
295.2000;0.5560;1.2760;
295.5000;0.5560;1.2785;
295.8000;0.5576;1.2785;
296.1000;0.5584;1.2760;
296.4000;0.5576;1.2637;
296.7000;0.5560;1.2587;
297.0000;0.5584;1.2587;
297.3000;0.5576;1.2587;
297.6000;0.5584;1.2538;
297.9000;0.5568;1.2489;
298.2000;0.5584;1.2513;
298.5000;0.5511;1.2390;
298.8000;0.5584;1.2563;
299.1000;0.5576;1.2563;
299.4000;0.5560;1.2513;
299.7000;0.5576;1.2612;
300.0000;0.5568;1.2637;
300.3000;0.5568;1.2637;
300.6000;0.5551;1.2661;
300.9000;0.5584;1.2785;
301.2000;0.5560;1.2760;
301.5000;0.5592;1.2834;
301.8000;0.5592;1.2809;
302.1000;0.5576;1.2760;
302.4000;0.5592;1.2760;
302.7000;0.5608;1.2735;
303.0000;0.5568;1.2612;
303.3000;0.5576;1.2637;
303.6000;0.5568;1.2661;
303.9000;0.5560;1.2760;
304.2000;0.5568;1.2711;
304.5000;0.5600;1.2711;
304.8000;0.5592;1.2760;
305.1000;0.5576;1.2637;
305.4000;0.5592;1.2809;
305.7000;0.5576;1.2859;
306.0000;0.5551;1.2859;
306.3000;0.5568;1.2933;
306.6000;0.5657;1.3106;
306.9000;0.5568;1.2809;
307.2000;0.5568;1.2809;
307.5000;0.5551;1.2785;
307.8000;0.5641;1.2957;
308.1000;0.5568;1.2735;
308.4000;0.5568;1.2735;
308.7000;0.5560;1.2661;
309.0000;0.5568;1.2785;
309.3000;0.5576;1.2834;
309.6000;0.5633;1.3032;
309.9000;0.5568;1.2834;
310.2000;0.5568;1.2785;
310.5000;0.5584;1.2760;
310.8000;0.5560;1.2686;
311.1000;0.5592;1.2809;
311.4000;0.5584;1.2834;
311.7000;0.5690;1.3106;
312.0000;0.5568;1.2834;
312.3000;0.5560;1.2908;
312.6000;0.5641;1.3155;
312.9000;0.5592;1.2908;
313.2000;0.5576;1.2760;
313.5000;0.5560;1.2612;
313.8000;0.5584;1.2661;
314.1000;0.5576;1.2637;
314.4000;0.5568;1.2612;
314.7000;0.5568;1.2563;
315.0000;0.5592;1.2563;
315.3000;0.5584;1.2612;
315.6000;0.5600;1.2711;
315.9000;0.5576;1.2760;
316.2000;0.5576;1.2711;
316.5000;0.5584;1.2661;
316.8000;0.5584;1.2735;
317.1000;0.5600;1.2834;
317.4000;0.5649;1.2933;
317.7000;0.5568;1.2785;
318.0000;0.5576;1.2785;
318.3000;0.5568;1.2785;
318.6000;0.5584;1.2785;
318.9000;0.5584;1.2834;
319.2000;0.5584;1.2760;
319.5000;0.5592;1.2760;
319.8000;0.5584;1.2711;
320.1000;0.5584;1.2612;
320.4000;0.5600;1.2686;
320.7000;0.5584;1.2612;
321.0000;0.5592;1.2612;
321.3000;0.5584;1.2587;
321.6000;0.5568;1.2661;
321.9000;0.5560;1.2587;
322.2000;0.5568;1.2637;
322.5000;0.5576;1.2785;
322.8000;0.5568;1.2760;
323.1000;0.5568;1.2735;
323.4000;0.5576;1.2809;
323.7000;0.5560;1.2686;
324.0000;0.5576;1.2661;
324.3000;0.5560;1.2612;
324.6000;0.5576;1.2637;
324.9000;0.5576;1.2686;
325.2000;0.5576;1.2735;
325.5000;0.5568;1.2711;
325.8000;0.5576;1.2760;
326.1000;0.5576;1.2785;
326.4000;0.5560;1.2809;
326.7000;0.5568;1.2834;
327.0000;0.5568;1.2760;
327.3000;0.5576;1.2785;
327.6000;0.5568;1.2711;
327.9000;0.5576;1.2785;
328.2000;0.5568;1.2809;
328.5000;0.5568;1.2809;
328.8000;0.5584;1.2809;
329.1000;0.5568;1.2785;
329.4000;0.5608;1.2834;
329.7000;0.5568;1.2686;
330.0000;0.5592;1.2785;
330.3000;0.5568;1.2735;
330.6000;0.5560;1.2711;
330.9000;0.5592;1.2859;
331.2000;0.5568;1.2859;
331.5000;0.5600;1.3056;
331.8000;0.5560;1.2859;
332.1000;0.5608;1.3007;
332.4000;0.5535;1.2809;
332.7000;0.5568;1.2809;
333.0000;0.5495;1.2637;
333.3000;0.5551;1.2809;
333.6000;0.5576;1.2859;
333.9000;0.5568;1.2760;
334.2000;0.5560;1.2760;
334.5000;0.5560;1.2809;
334.8000;0.5576;1.2908;
335.1000;0.5576;1.2883;
335.4000;0.5576;1.2809;
335.7000;0.5600;1.2957;
336.0000;0.5568;1.2859;
336.3000;0.5576;1.2883;
336.6000;0.5527;1.2711;
336.9000;0.5568;1.2711;
337.2000;0.5511;1.2612;
337.5000;0.5576;1.2711;
337.8000;0.5576;1.2686;
338.1000;0.5568;1.2760;
338.4000;0.5543;1.2760;
338.7000;0.5560;1.2785;
339.0000;0.5568;1.2735;
339.3000;0.5560;1.2612;
339.6000;0.5568;1.2686;
339.9000;0.5568;1.2612;
340.2000;0.5495;1.2340;
340.5000;0.5576;1.2587;
340.8000;0.5576;1.2538;
341.1000;0.5592;1.2711;
341.4000;0.5576;1.2587;
341.7000;0.5600;1.2686;
342.0000;0.5608;1.2760;
342.3000;0.5592;1.2686;
342.6000;0.5568;1.2587;
342.9000;0.5584;1.2637;
343.2000;0.5633;1.2711;
343.5000;0.5568;1.2587;
343.8000;0.5568;1.2686;
344.1000;0.5576;1.2661;
344.4000;0.5576;1.2637;
344.7000;0.5576;1.2513;
345.0000;0.5535;1.2464;
345.3000;0.5568;1.2538;
345.6000;0.5551;1.2563;
345.9000;0.5584;1.2637;
346.2000;0.5568;1.2538;
346.5000;0.5592;1.2513;
346.8000;0.5592;1.2513;
347.1000;0.5462;1.2143;
347.4000;0.5584;1.2563;
347.7000;0.5576;1.2513;
348.0000;0.5560;1.2489;
348.3000;0.5592;1.2513;
348.6000;0.5576;1.2538;
348.9000;0.5576;1.2563;
349.2000;0.5576;1.2464;
349.5000;0.5584;1.2390;
349.8000;0.5560;1.2390;
350.1000;0.5584;1.2489;
350.4000;0.5592;1.2513;
350.7000;0.5649;1.2785;
351.0000;0.5568;1.2563;
351.3000;0.5551;1.2513;
351.6000;0.5568;1.2563;
351.9000;0.5576;1.2612;
352.2000;0.5592;1.2587;
352.5000;0.5600;1.2637;
352.8000;0.5576;1.2538;
353.1000;0.5584;1.2538;
353.4000;0.5592;1.2587;
353.7000;0.5584;1.2563;
354.0000;0.5560;1.2415;
354.3000;0.5568;1.2489;
354.6000;0.5584;1.2637;
354.9000;0.5568;1.2513;
355.2000;0.5576;1.2415;
355.5000;0.5576;1.2340;
355.8000;0.5584;1.2390;
356.1000;0.5543;1.2291;
356.4000;0.5584;1.2390;
356.7000;0.5560;1.2415;
357.0000;0.5576;1.2415;
357.3000;0.5568;1.2464;
357.6000;0.5576;1.2489;
357.9000;0.5584;1.2563;
358.2000;0.5592;1.2563;
358.5000;0.5584;1.2538;
358.8000;0.5576;1.2538;
359.1000;0.5576;1.2587;
359.4000;0.5560;1.2563;
359.7000;0.5568;1.2612;
360.0000;0.5519;1.2538;
360.3000;0.5551;1.2637;
360.6000;0.5543;1.2612;
360.9000;0.5568;1.2661;
361.2000;0.5560;1.2637;
361.5000;0.5592;1.2686;
361.8000;0.5584;1.2686;
362.1000;0.5551;1.2612;
362.4000;0.5576;1.2563;
362.7000;0.5568;1.2563;
363.0000;0.5568;1.2686;
363.3000;0.5560;1.2711;
363.6000;0.5560;1.2711;
363.9000;0.5568;1.2661;
364.2000;0.5576;1.2686;
364.5000;0.5568;1.2661;
364.8000;0.5584;1.2637;
365.1000;0.5592;1.2661;
365.4000;0.5576;1.2563;
365.7000;0.5568;1.2489;
366.0000;0.5568;1.2513;
366.3000;0.5584;1.2637;
366.6000;0.5584;1.2587;
366.9000;0.5551;1.2587;
367.2000;0.5584;1.2711;
367.5000;0.5592;1.2760;
367.8000;0.5584;1.2686;
368.1000;0.5551;1.2711;
368.4000;0.5584;1.2809;
368.7000;0.5592;1.2686;
369.0000;0.5592;1.2587;
369.3000;0.5617;1.2686;
369.6000;0.5576;1.2587;
369.9000;0.5584;1.2661;
370.2000;0.5568;1.2661;
370.5000;0.5568;1.2686;
370.8000;0.5576;1.2760;
371.1000;0.5486;1.2513;
371.4000;0.5560;1.2735;
371.7000;0.5576;1.2809;
372.0000;0.5584;1.2760;
372.3000;0.5633;1.2908;
372.6000;0.5560;1.2735;
372.9000;0.5584;1.2735;
373.2000;0.5543;1.2686;
373.5000;0.5551;1.2809;
373.8000;0.5568;1.2735;
374.1000;0.5633;1.2908;
374.4000;0.5584;1.2735;
374.7000;0.5584;1.2809;
375.0000;0.5560;1.2785;
375.3000;0.5543;1.2785;
375.6000;0.5576;1.2834;
375.9000;0.5560;1.2785;
376.2000;0.5576;1.2785;
376.5000;0.5649;1.2982;
376.8000;0.5625;1.2908;
377.1000;0.5503;1.2538;
377.4000;0.5551;1.2711;
377.7000;0.5584;1.2760;
378.0000;0.5592;1.2711;
378.3000;0.5560;1.2637;
378.6000;0.5568;1.2908;
378.9000;0.5584;1.2957;
379.2000;0.5568;1.2809;
379.5000;0.5584;1.2809;
379.8000;0.5560;1.2735;
380.1000;0.5568;1.2809;
380.4000;0.5560;1.2735;
380.7000;0.5551;1.2785;
381.0000;0.5576;1.2834;
381.3000;0.5560;1.2760;
381.6000;0.5543;1.2760;
381.9000;0.5568;1.2834;
382.2000;0.5600;1.2933;
382.5000;0.5576;1.2834;
382.8000;0.5551;1.2686;
383.1000;0.5568;1.2711;
383.4000;0.5584;1.2686;
383.7000;0.5560;1.2587;
384.0000;0.5560;1.2563;
384.3000;0.5551;1.2637;
384.6000;0.5535;1.2686;
384.9000;0.5543;1.2686;
385.2000;0.5584;1.2735;
385.5000;0.5560;1.2612;
385.8000;0.5576;1.2637;
386.1000;0.5584;1.2612;
386.4000;0.5535;1.2538;
386.7000;0.5584;1.2637;
387.0000;0.5584;1.2538;
387.3000;0.5568;1.2538;
387.6000;0.5576;1.2513;
387.9000;0.5584;1.2513;
388.2000;0.5592;1.2513;
388.5000;0.5600;1.2513;
388.8000;0.5584;1.2538;
389.1000;0.5584;1.2612;
389.4000;0.5576;1.2563;
389.7000;0.5551;1.2489;
390.0000;0.5576;1.2489;
390.3000;0.5576;1.2415;
390.6000;0.5592;1.2538;
390.9000;0.5584;1.2563;
391.2000;0.5568;1.2538;
391.5000;0.5560;1.2563;
391.8000;0.5568;1.2587;
392.1000;0.5576;1.2587;
392.4000;0.5560;1.2563;
392.7000;0.5576;1.2735;
393.0000;0.5560;1.2785;
393.3000;0.5560;1.2711;
393.6000;0.5584;1.2834;
393.9000;0.5568;1.2834;
394.2000;0.5560;1.2760;
394.5000;0.5576;1.2735;
394.8000;0.5560;1.2760;
395.1000;0.5617;1.3056;
395.4000;0.5543;1.2859;
395.7000;0.5503;1.2711;
396.0000;0.5543;1.2834;
396.3000;0.5527;1.2711;
396.6000;0.5560;1.2686;
396.9000;0.5551;1.2661;
397.2000;0.5584;1.2834;
397.5000;0.5551;1.2809;
397.8000;0.5568;1.2908;
398.1000;0.5560;1.2834;
398.4000;0.5584;1.2908;
398.7000;0.5600;1.2834;
399.0000;0.5592;1.2785;
399.3000;0.5617;1.2834;
399.6000;0.5568;1.2661;
399.9000;0.5576;1.2661;
400.2000;0.5560;1.2686;
400.5000;0.5551;1.2612;
400.8000;0.5535;1.2563;
401.1000;0.5576;1.2686;
401.4000;0.5568;1.2735;
401.7000;0.5600;1.2735;
402.0000;0.5560;1.2661;
402.3000;0.5527;1.2587;
402.6000;0.5592;1.2785;
402.9000;0.5568;1.2686;
403.2000;0.5682;1.3032;
403.5000;0.5519;1.2513;
403.8000;0.5535;1.2637;
404.1000;0.5625;1.2933;
404.4000;0.5568;1.2760;
404.7000;0.5649;1.2883;
405.0000;0.5568;1.2637;
405.3000;0.5584;1.2661;
405.6000;0.5519;1.2513;
405.9000;0.5551;1.2612;
406.2000;0.5568;1.2587;
406.5000;0.5617;1.2686;
406.8000;0.5584;1.2637;
407.1000;0.5551;1.2587;
407.4000;0.5617;1.2735;
407.7000;0.5600;1.2637;
408.0000;0.5478;1.2415;
408.3000;0.5657;1.3007;
408.6000;0.5551;1.2711;
408.9000;0.5600;1.2859;
409.2000;0.5568;1.2883;
409.5000;0.5576;1.2834;
409.8000;0.5576;1.2785;
410.1000;0.5576;1.2859;
410.4000;0.5576;1.2933;
410.7000;0.5576;1.2933;
411.0000;0.5551;1.2834;
411.3000;0.5592;1.2957;
411.6000;0.5576;1.2883;
411.9000;0.5576;1.2785;
412.2000;0.5568;1.2735;
412.5000;0.5584;1.2735;
412.8000;0.5568;1.2686;
413.1000;0.5568;1.2735;
413.4000;0.5584;1.2686;
413.7000;0.5584;1.2661;
414.0000;0.5576;1.2686;
414.3000;0.5576;1.2735;
414.6000;0.5560;1.2711;
414.9000;0.5551;1.2637;
415.2000;0.5617;1.2735;
415.5000;0.5576;1.2612;
415.8000;0.5568;1.2661;
416.1000;0.5535;1.2637;
416.4000;0.5576;1.2760;
416.7000;0.5568;1.2735;
417.0000;0.5462;1.2415;
417.3000;0.5568;1.2735;
417.6000;0.5584;1.2859;
417.9000;0.5511;1.2637;
418.2000;0.5568;1.2834;
418.5000;0.5576;1.2809;
418.8000;0.5560;1.2785;
419.1000;0.5568;1.2711;
419.4000;0.5592;1.2809;
419.7000;0.5551;1.2711;
420.0000;0.5592;1.2834;
420.3000;0.5576;1.2834;
420.6000;0.5576;1.2809;
420.9000;0.5584;1.2859;
421.2000;0.5592;1.2908;
421.5000;0.5584;1.2883;
421.8000;0.5584;1.2933;
422.1000;0.5576;1.2933;
422.4000;0.5576;1.2883;
422.7000;0.5568;1.2908;
423.0000;0.5470;1.2686;
423.3000;0.5584;1.2933;
423.6000;0.5600;1.2982;
423.9000;0.5568;1.2859;
424.2000;0.5576;1.2809;
424.5000;0.5584;1.2883;
424.8000;0.5584;1.2859;
425.1000;0.5584;1.2809;
425.4000;0.5495;1.2637;
425.7000;0.5527;1.2735;
426.0000;0.5600;1.2883;
426.3000;0.5592;1.2785;
426.6000;0.5527;1.2612;
426.9000;0.5568;1.2711;
427.2000;0.5592;1.2760;
427.5000;0.5551;1.2735;
427.8000;0.5576;1.2785;
428.1000;0.5584;1.2883;
428.4000;0.5698;1.3204;
428.7000;0.5551;1.2859;
429.0000;0.5592;1.2933;
429.3000;0.5568;1.2809;
429.6000;0.5568;1.2834;
429.9000;0.5584;1.2785;
430.2000;0.5568;1.2809;
430.5000;0.5551;1.2834;
430.8000;0.5576;1.2957;
431.1000;0.5568;1.3056;
431.4000;0.5568;1.3007;
431.7000;0.5576;1.2982;
432.0000;0.5576;1.2957;
432.3000;0.5576;1.2982;
432.6000;0.5568;1.3155;
432.9000;0.5625;1.3229;
433.2000;0.5560;1.3032;
433.5000;0.5519;1.2859;
433.8000;0.5568;1.2982;
434.1000;0.5576;1.2982;
434.4000;0.5543;1.2883;
434.7000;0.5568;1.2859;
435.0000;0.5584;1.2859;
435.3000;0.5576;1.2834;
435.6000;0.5576;1.2760;
435.9000;0.5576;1.2785;
436.2000;0.5584;1.2859;
436.5000;0.5600;1.2859;
436.8000;0.5600;1.2809;
437.1000;0.5576;1.2735;
437.4000;0.5584;1.2711;
437.7000;0.5584;1.2637;
438.0000;0.5576;1.2612;
438.3000;0.5584;1.2735;
438.6000;0.5568;1.2637;
438.9000;0.5560;1.2686;
439.2000;0.5608;1.2883;
439.5000;0.5560;1.2859;
439.8000;0.5551;1.2809;
440.1000;0.5568;1.2809;
440.4000;0.5560;1.2711;
440.7000;0.5576;1.2735;
441.0000;0.5560;1.2735;
441.3000;0.5584;1.2686;
441.6000;0.5576;1.2612;
441.9000;0.5560;1.2637;
442.2000;0.5568;1.2760;
442.5000;0.5576;1.2785;
442.8000;0.5543;1.2686;
443.1000;0.5551;1.2735;
443.4000;0.5576;1.2785;
443.7000;0.5568;1.2711;
444.0000;0.5519;1.2612;
444.3000;0.5560;1.2686;
444.6000;0.5568;1.2612;
444.9000;0.5543;1.2538;
445.2000;0.5568;1.2587;
445.5000;0.5560;1.2513;
445.8000;0.5568;1.2464;
446.1000;0.5584;1.2513;
446.4000;0.5568;1.2612;
446.7000;0.5576;1.2637;
447.0000;0.5568;1.2563;
447.3000;0.5576;1.2464;
447.6000;0.5576;1.2464;
447.9000;0.5592;1.2563;
448.2000;0.5568;1.2563;
448.5000;0.5584;1.2612;
448.8000;0.5584;1.2612;
449.1000;0.5551;1.2538;
449.4000;0.5568;1.2439;
449.7000;0.5576;1.2439;
450.0000;0.5568;1.2365;
450.3000;0.5584;1.2390;
450.6000;0.5584;1.2489;
450.9000;0.5568;1.2464;
451.2000;0.5576;1.2513;
451.5000;0.5576;1.2612;
451.8000;0.5560;1.2563;
452.1000;0.5560;1.2563;
452.4000;0.5576;1.2563;
452.7000;0.5560;1.2464;
453.0000;0.5560;1.2464;
453.3000;0.5592;1.2612;
453.6000;0.5584;1.2513;
453.9000;0.5535;1.2415;
454.2000;0.5584;1.2513;
454.5000;0.5592;1.2489;
454.8000;0.5576;1.2415;
455.1000;0.5560;1.2415;
455.4000;0.5568;1.2489;
455.7000;0.5560;1.2612;
456.0000;0.5560;1.2637;
456.3000;0.5551;1.2538;
456.6000;0.5543;1.2538;
456.9000;0.5576;1.2686;
457.2000;0.5511;1.2587;
457.5000;0.5560;1.2661;
457.8000;0.5576;1.2587;
458.1000;0.5584;1.2587;
458.4000;0.5600;1.2587;
458.7000;0.5568;1.2464;
459.0000;0.5576;1.2464;
459.3000;0.5592;1.2587;
459.6000;0.5576;1.2637;
459.9000;0.5592;1.2686;
460.2000;0.5560;1.2612;
460.5000;0.5568;1.2587;
460.8000;0.5576;1.2637;
461.1000;0.5519;1.2489;
461.4000;0.5551;1.2661;
461.7000;0.5560;1.2711;
462.0000;0.5551;1.2612;
462.3000;0.5584;1.2637;
462.6000;0.5584;1.2637;
462.9000;0.5511;1.2415;
463.2000;0.5584;1.2637;
463.5000;0.5584;1.2612;
463.8000;0.5682;1.2859;
464.1000;0.5576;1.2587;
464.4000;0.5576;1.2612;
464.7000;0.5576;1.2563;
465.0000;0.5560;1.2513;
465.3000;0.5576;1.2464;
465.6000;0.5568;1.2464;
465.9000;0.5568;1.2513;
466.2000;0.5584;1.2563;
466.5000;0.5576;1.2538;
466.8000;0.5511;1.2415;
467.1000;0.5576;1.2538;
467.4000;0.5617;1.2612;
467.7000;0.5576;1.2563;
468.0000;0.5576;1.2612;
468.3000;0.5584;1.2637;
468.6000;0.5576;1.2686;
468.9000;0.5576;1.2686;
469.2000;0.5617;1.2785;
469.5000;0.5551;1.2686;
469.8000;0.5584;1.2785;
470.1000;0.5576;1.2686;
470.4000;0.5576;1.2637;
470.7000;0.5584;1.2686;
471.0000;0.5584;1.2711;
471.3000;0.5560;1.2711;
471.6000;0.5584;1.2711;
471.9000;0.5584;1.2661;
472.2000;0.5576;1.2637;
472.5000;0.5592;1.2661;
472.8000;0.5543;1.2563;
473.1000;0.5551;1.2513;
473.4000;0.5698;1.2883;
473.7000;0.5527;1.2587;
474.0000;0.5592;1.2809;
474.3000;0.5576;1.2735;
474.6000;0.5560;1.2612;
474.9000;0.5576;1.2661;
475.2000;0.5470;1.2365;
475.5000;0.5584;1.2637;
475.8000;0.5560;1.2637;
476.1000;0.5543;1.2637;
476.4000;0.5560;1.2785;
476.7000;0.5519;1.2563;
477.0000;0.5551;1.2563;
477.3000;0.5503;1.2563;
477.6000;0.5665;1.2982;
477.9000;0.5527;1.2686;
478.2000;0.5560;1.2760;
478.5000;0.5543;1.2661;
478.8000;0.5568;1.2785;
479.1000;0.5560;1.2760;
479.4000;0.5543;1.2809;
479.7000;0.5584;1.2859;
480.0000;0.5576;1.2834;
480.3000;0.5576;1.2859;
480.6000;0.5543;1.2809;
480.9000;0.5584;1.2908;
481.2000;0.5560;1.2908;
481.5000;0.5584;1.3007;
481.8000;0.5600;1.3007;
482.1000;0.5584;1.3032;
482.4000;0.5560;1.2883;
482.7000;0.5543;1.2809;
483.0000;0.5568;1.2834;
483.3000;0.5576;1.2883;
483.6000;0.5551;1.2834;
483.9000;0.5576;1.2908;
484.2000;0.5625;1.3056;
484.5000;0.5551;1.2859;
484.8000;0.5576;1.2859;
485.1000;0.5519;1.2711;
485.4000;0.5560;1.2785;
485.7000;0.5560;1.2735;
486.0000;0.5576;1.2859;
486.3000;0.5503;1.2587;
486.6000;0.5576;1.2637;
486.9000;0.5568;1.2612;
487.2000;0.5560;1.2538;
487.5000;0.5551;1.2489;
487.8000;0.5617;1.2637;
488.1000;0.5543;1.2513;
488.4000;0.5568;1.2563;
488.7000;0.5608;1.2735;
489.0000;0.5560;1.2587;
489.3000;0.5519;1.2637;
489.6000;0.5560;1.2661;
489.9000;0.5535;1.2661;
490.2000;0.5568;1.2834;
490.5000;0.5568;1.2859;
490.8000;0.5576;1.2859;
491.1000;0.5576;1.2785;
491.4000;0.5535;1.2711;
491.7000;0.5568;1.2760;
492.0000;0.5551;1.2834;
492.3000;0.5551;1.2859;
492.6000;0.5551;1.2834;
492.9000;0.5568;1.2908;
493.2000;0.5560;1.2883;
493.5000;0.5592;1.2908;
493.8000;0.5527;1.2785;
494.1000;0.5617;1.3007;
494.4000;0.5568;1.2883;
494.7000;0.5576;1.2859;
495.0000;0.5568;1.2785;
495.3000;0.5551;1.2809;
495.6000;0.5543;1.2785;
495.9000;0.5584;1.2834;
496.2000;0.5560;1.2735;
496.5000;0.5600;1.2711;
496.8000;0.5576;1.2637;
497.1000;0.5568;1.2612;
497.4000;0.5649;1.2809;
497.7000;0.5560;1.2661;
498.0000;0.5568;1.2711;
498.3000;0.5560;1.2760;
498.6000;0.5576;1.2785;
498.9000;0.5551;1.2785;
499.2000;0.5576;1.2809;
499.5000;0.5543;1.2711;
499.8000;0.5592;1.2711;
500.1000;0.5600;1.2711;
500.4000;0.5576;1.2735;
500.7000;0.5560;1.2711;
501.0000;0.5560;1.2785;
501.3000;0.5568;1.2785;
501.6000;0.5543;1.2661;
501.9000;0.5495;1.2686;
502.2000;0.5560;1.2809;
502.5000;0.5584;1.2785;
502.8000;0.5560;1.2735;
503.1000;0.5560;1.2661;
503.4000;0.5527;1.2538;
503.7000;0.5592;1.2686;
504.0000;0.5568;1.2637;
504.3000;0.5551;1.2785;
504.6000;0.5584;1.2834;
504.9000;0.5560;1.2760;
505.2000;0.5568;1.2735;
505.5000;0.5584;1.2760;
505.8000;0.5551;1.2760;
506.1000;0.5592;1.2883;
506.4000;0.5560;1.2859;
506.7000;0.5551;1.2760;
507.0000;0.5543;1.2735;
507.3000;0.5551;1.2661;
507.6000;0.5584;1.2612;
507.9000;0.5576;1.2513;
508.2000;0.5576;1.2612;
508.5000;0.5568;1.2711;
508.8000;0.5576;1.2735;
509.1000;0.5584;1.2785;
509.4000;0.5568;1.2834;
509.7000;0.5560;1.2785;
510.0000;0.5560;1.2686;
510.3000;0.5560;1.2612;
510.6000;0.5568;1.2661;
510.9000;0.5576;1.2686;
511.2000;0.5560;1.2612;
511.5000;0.5568;1.2686;
511.8000;0.5543;1.2612;
512.1000;0.5568;1.2587;
512.4000;0.5576;1.2587;
512.7000;0.5600;1.2760;
513.0000;0.5568;1.2785;
513.3000;0.5551;1.2661;
513.6000;0.5576;1.2637;
513.9000;0.5576;1.2661;
514.2000;0.5584;1.2661;
514.5000;0.5568;1.2563;
514.8000;0.5527;1.2513;
515.1000;0.5576;1.2637;
515.4000;0.5576;1.2686;
515.7000;0.5592;1.2735;
516.0000;0.5543;1.2587;
516.3000;0.5568;1.2538;
516.6000;0.5568;1.2637;
516.9000;0.5592;1.2637;
517.2000;0.5576;1.2489;
517.5000;0.5551;1.2489;
517.8000;0.5633;1.2760;
518.1000;0.5576;1.2661;
518.4000;0.5568;1.2661;
518.7000;0.5560;1.2612;
519.0000;0.5576;1.2661;
519.3000;0.5608;1.2686;
519.6000;0.5641;1.2859;
519.9000;0.5576;1.2661;
520.2000;0.5576;1.2686;
520.5000;0.5560;1.2686;
520.8000;0.5584;1.2834;
521.1000;0.5617;1.2908;
521.4000;0.5592;1.2785;
521.7000;0.5600;1.2711;
522.0000;0.5576;1.2513;
522.3000;0.5560;1.2464;
522.6000;0.5576;1.2464;
522.9000;0.5551;1.2365;
523.2000;0.5576;1.2291;
523.5000;0.5511;1.2143;
523.8000;0.5535;1.2291;
524.1000;0.5551;1.2365;
524.4000;0.5584;1.2489;
524.7000;0.5560;1.2538;
525.0000;0.5503;1.2390;
525.3000;0.5519;1.2538;
525.6000;0.5568;1.2637;
525.9000;0.5535;1.2612;
526.2000;0.5576;1.2760;
526.5000;0.5633;1.2957;
526.8000;0.5568;1.2735;
527.1000;0.5560;1.2711;
527.4000;0.5560;1.2760;
527.7000;0.5600;1.2908;
528.0000;0.5560;1.2785;
528.3000;0.5560;1.2809;
528.6000;0.5560;1.2859;
528.9000;0.5576;1.2809;
529.2000;0.5584;1.2834;
529.5000;0.5576;1.2809;
529.8000;0.5576;1.2859;
530.1000;0.5568;1.2785;
530.4000;0.5560;1.2661;
530.7000;0.5568;1.2711;
531.0000;0.5584;1.2735;
531.3000;0.5568;1.2735;
531.6000;0.5576;1.2883;
531.9000;0.5592;1.2957;
532.2000;0.5584;1.2908;
532.5000;0.5576;1.2859;
532.8000;0.5551;1.2883;
533.1000;0.5551;1.2908;
533.4000;0.5625;1.3130;
533.7000;0.5511;1.2883;
534.0000;0.5560;1.3007;
534.3000;0.5560;1.2908;
534.6000;0.5551;1.2859;
534.9000;0.5560;1.2933;
535.2000;0.5543;1.2883;
535.5000;0.5560;1.2883;
535.8000;0.5503;1.2785;
536.1000;0.5551;1.2883;
536.4000;0.5543;1.2834;
536.7000;0.5551;1.2686;
537.0000;0.5543;1.2686;
537.3000;0.5584;1.2809;
537.6000;0.5543;1.2711;
537.9000;0.5568;1.2735;
538.2000;0.5568;1.2760;
538.5000;0.5568;1.2785;
538.8000;0.5584;1.2711;
539.1000;0.5568;1.2735;
539.4000;0.5560;1.2686;
539.7000;0.5560;1.2661;
540.0000;0.5560;1.2587;
540.3000;0.5560;1.2612;
540.6000;0.5551;1.2661;
540.9000;0.5543;1.2661;
541.2000;0.5560;1.2809;
541.5000;0.5600;1.2883;
541.8000;0.5560;1.2883;
542.1000;0.5617;1.3007;
542.4000;0.5576;1.2785;
542.7000;0.5560;1.2785;
543.0000;0.5576;1.2785;
543.3000;0.5576;1.2859;
543.6000;0.5617;1.2908;
543.9000;0.5576;1.2760;
544.2000;0.5584;1.2785;
544.5000;0.5551;1.2711;
544.8000;0.5584;1.2883;
545.1000;0.5568;1.2809;
545.4000;0.5568;1.2809;
545.7000;0.5576;1.2883;
546.0000;0.5519;1.2711;
546.3000;0.5576;1.2760;
546.6000;0.5576;1.2785;
546.9000;0.5617;1.2933;
547.2000;0.5551;1.2735;
547.5000;0.5568;1.2785;
547.8000;0.5568;1.2809;
548.1000;0.5560;1.2883;
548.4000;0.5535;1.2760;
548.7000;0.5551;1.2760;
549.0000;0.5495;1.2513;
549.3000;0.5576;1.2735;
549.6000;0.5584;1.2760;
549.9000;0.5560;1.2785;
550.2000;0.5568;1.2908;
550.5000;0.5511;1.2735;
550.8000;0.5568;1.2834;
551.1000;0.5551;1.2809;
551.4000;0.5535;1.2859;
551.7000;0.5551;1.2834;
552.0000;0.5568;1.2809;
552.3000;0.5560;1.2809;
552.6000;0.5641;1.3056;
552.9000;0.5560;1.2859;
553.2000;0.5584;1.2982;
553.5000;0.5568;1.2908;
553.8000;0.5560;1.2859;
554.1000;0.5576;1.2859;
554.4000;0.5576;1.2834;
554.7000;0.5584;1.2908;
555.0000;0.5568;1.2834;
555.3000;0.5560;1.2760;
555.6000;0.5568;1.2760;
555.9000;0.5535;1.2686;
556.2000;0.5576;1.2785;
556.5000;0.5543;1.2834;
556.8000;0.5551;1.2859;
557.1000;0.5584;1.2908;
557.4000;0.5568;1.2834;
557.7000;0.5568;1.2809;
558.0000;0.5568;1.2859;
558.3000;0.5568;1.2809;
558.6000;0.5560;1.2834;
558.9000;0.5551;1.2809;
559.2000;0.5576;1.2859;
559.5000;0.5551;1.2883;
559.8000;0.5576;1.2957;
560.1000;0.5551;1.2883;
560.4000;0.5560;1.2834;
560.7000;0.5568;1.2834;
561.0000;0.5495;1.2711;
561.3000;0.5560;1.2908;
561.6000;0.5568;1.2883;
561.9000;0.5633;1.3081;
562.2000;0.5551;1.2809;
562.5000;0.5568;1.2711;
562.8000;0.5584;1.2760;
563.1000;0.5568;1.2637;
563.4000;0.5576;1.2637;
563.7000;0.5560;1.2538;
564.0000;0.5584;1.2612;
564.3000;0.5527;1.2489;
564.6000;0.5560;1.2563;
564.9000;0.5584;1.2637;
565.2000;0.5551;1.2587;
565.5000;0.5519;1.2637;
565.8000;0.5568;1.2661;
566.1000;0.5584;1.2711;
566.4000;0.5568;1.2661;
566.7000;0.5592;1.2735;
567.0000;0.5592;1.2760;
567.3000;0.5592;1.2760;
567.6000;0.5608;1.2834;
567.9000;0.5576;1.2809;
568.2000;0.5551;1.2735;
568.5000;0.5560;1.2760;
568.8000;0.5551;1.2760;
569.1000;0.5568;1.2834;
569.4000;0.5560;1.2859;
569.7000;0.5560;1.2859;
570.0000;0.5576;1.2982;
570.3000;0.5576;1.2982;
570.6000;0.5560;1.2957;
570.9000;0.5560;1.2908;
571.2000;0.5568;1.2933;
571.5000;0.5584;1.2957;
571.8000;0.5560;1.2908;
572.1000;0.5592;1.2933;
572.4000;0.5568;1.2809;
572.7000;0.5560;1.2785;
573.0000;0.5682;1.3081;
573.3000;0.5551;1.2859;
573.6000;0.5576;1.2908;
573.9000;0.5543;1.2785;
574.2000;0.5568;1.2834;
574.5000;0.5454;1.2513;
574.8000;0.5560;1.2735;
575.1000;0.5568;1.2661;
575.4000;0.5560;1.2735;
575.7000;0.5543;1.2735;
576.0000;0.5551;1.2735;
576.3000;0.5568;1.2735;
576.6000;0.5568;1.2834;
576.9000;0.5551;1.2735;
577.2000;0.5576;1.2883;
577.5000;0.5576;1.2957;
577.8000;0.5584;1.3032;
578.1000;0.5568;1.3056;
578.4000;0.5560;1.2982;
578.7000;0.5576;1.3081;
579.0000;0.5576;1.3032;
579.3000;0.5568;1.2957;
579.6000;0.5568;1.2933;
579.9000;0.5551;1.2859;
580.2000;0.5584;1.2883;
580.5000;0.5576;1.2834;
580.8000;0.5543;1.2735;
581.1000;0.5543;1.2760;
581.4000;0.5527;1.2637;
581.7000;0.5560;1.2711;
582.0000;0.5576;1.2686;
582.3000;0.5568;1.2760;
582.6000;0.5560;1.2760;
582.9000;0.5568;1.2760;
583.2000;0.5584;1.2809;
583.5000;0.5551;1.2760;
583.8000;0.5592;1.2735;
584.1000;0.5543;1.2563;
584.4000;0.5551;1.2711;
584.7000;0.5568;1.2735;
585.0000;0.5543;1.2735;
585.3000;0.5576;1.2760;
585.6000;0.5568;1.2661;
585.9000;0.5527;1.2513;
586.2000;0.5551;1.2637;
586.5000;0.5568;1.2637;
586.8000;0.5551;1.2538;
587.1000;0.5543;1.2563;
587.4000;0.5576;1.2711;
587.7000;0.5568;1.2686;
588.0000;0.5600;1.2809;
588.3000;0.5560;1.2834;
588.6000;0.5592;1.2933;
588.9000;0.5551;1.2809;
589.2000;0.5519;1.2661;
589.5000;0.5511;1.2587;
589.8000;0.5560;1.2661;
590.1000;0.5608;1.2809;
590.4000;0.5560;1.2711;
590.7000;0.5551;1.2711;
591.0000;0.5592;1.2883;
591.3000;0.5657;1.3155;
591.6000;0.5608;1.2957;
591.9000;0.5568;1.2908;
592.2000;0.5576;1.2957;
592.5000;0.5560;1.2859;
592.8000;0.5551;1.2859;
593.1000;0.5584;1.2982;
593.4000;0.5608;1.3007;
593.7000;0.5560;1.2859;
594.0000;0.5543;1.2785;
594.3000;0.5560;1.2785;
594.6000;0.5617;1.2933;
594.9000;0.5568;1.2834;
595.2000;0.5560;1.2785;
595.5000;0.5560;1.2785;
595.8000;0.5665;1.3056;
596.1000;0.5568;1.2760;
596.4000;0.5560;1.2735;
596.7000;0.5543;1.2735;
597.0000;0.5608;1.2809;
597.3000;0.5576;1.2711;
597.6000;0.5568;1.2760;
597.9000;0.5543;1.2686;
598.2000;0.5568;1.2661;
598.5000;0.5560;1.2735;
598.8000;0.5568;1.2760;
599.1000;0.5576;1.2785;
599.4000;0.5690;1.3081;
599.7000;0.5560;1.2760;
600.0000;0.5568;1.2612;
600.3000;0.5568;1.2612;
600.6000;0.5576;1.2587;
600.9000;0.5560;1.2513;
601.2000;0.5543;1.2439;
601.5000;0.5495;1.2217;
601.8000;0.5478;1.2118;
602.1000;0.5429;1.1946;
602.4000;0.5405;1.1822;
602.7000;0.5381;1.1625;
603.0000;0.5348;1.1600;
603.3000;0.5315;1.1477;
603.6000;0.5291;1.1378;
603.9000;0.5234;1.1304;
604.2000;0.5226;1.1205;
604.5000;0.5201;1.1082;
604.8000;0.5161;1.0934;
605.1000;0.5169;1.0884;
605.4000;0.5031;1.0440;
605.7000;0.5104;1.0588;
606.0000;0.5055;1.0514;
606.3000;0.5031;1.0465;
606.6000;0.5031;1.0465;
606.9000;0.5014;1.0440;
607.2000;0.5039;1.0588;
607.5000;0.4998;1.0662;
607.8000;0.4974;1.0662;
608.1000;0.4917;1.0415;
608.4000;0.4941;1.0489;
608.7000;0.4933;1.0465;
609.0000;0.4933;1.0440;
609.3000;0.4868;1.0292;
609.6000;0.4860;1.0292;
609.9000;0.4851;1.0292;
610.2000;0.4876;1.0243;
610.5000;0.4811;1.0144;
610.8000;0.4835;1.0169;
611.1000;0.4762;1.0070;
611.4000;0.4819;1.0144;
611.7000;0.4762;0.9996;
612.0000;0.4770;1.0020;
612.3000;0.4843;1.0094;
612.6000;0.4770;1.0020;
612.9000;0.4713;0.9996;
613.2000;0.4713;0.9946;
613.5000;0.4746;0.9971;
613.8000;0.4689;0.9872;
614.1000;0.4664;0.9872;
614.4000;0.4656;0.9897;
614.7000;0.4681;0.9996;
615.0000;0.4648;1.0070;
615.3000;0.4640;1.0070;
615.6000;0.4632;1.0045;
615.9000;0.4632;1.0020;
616.2000;0.4624;1.0020;
616.5000;0.4672;1.0045;
616.8000;0.4591;0.9848;
617.1000;0.4599;0.9798;
617.4000;0.4591;0.9749;
617.7000;0.4518;0.9650;
618.0000;0.4575;0.9823;
618.3000;0.4575;0.9749;
618.6000;0.4534;0.9724;
618.9000;0.4558;0.9798;
619.2000;0.4534;0.9650;
619.5000;0.4485;0.9527;
619.8000;0.4501;0.9477;
620.1000;0.4501;0.9428;
620.4000;0.4493;0.9403;
620.7000;0.4485;0.9453;
621.0000;0.4510;0.9527;
621.3000;0.4485;0.9576;
621.6000;0.4469;0.9552;
621.9000;0.4485;0.9601;
622.2000;0.4477;0.9626;
622.5000;0.4469;0.9650;
622.8000;0.4461;0.9650;
623.1000;0.4453;0.9774;
623.4000;0.4355;0.9576;
623.7000;0.4453;0.9798;
624.0000;0.4428;0.9823;
624.3000;0.4420;0.9971;
624.6000;0.4404;0.9946;
624.9000;0.4404;0.9996;
625.2000;0.4412;1.0070;
625.5000;0.4396;1.0020;
625.8000;0.4396;0.9946;
626.1000;0.4428;0.9996;
626.4000;0.4379;0.9971;
626.7000;0.4355;0.9971;
627.0000;0.4355;0.9922;
627.3000;0.4371;0.9946;
627.6000;0.4347;0.9823;
627.9000;0.4363;0.9897;
628.2000;0.4371;0.9971;
628.5000;0.4371;0.9971;
628.8000;0.4387;1.0045;
629.1000;0.4363;0.9872;
629.4000;0.4363;0.9922;
629.7000;0.4322;0.9774;
630.0000;0.4330;0.9774;
630.3000;0.4282;0.9576;
630.6000;0.4306;0.9675;
630.9000;0.4314;0.9798;
631.2000;0.4314;0.9749;
631.5000;0.4274;0.9626;
631.8000;0.4208;0.9576;
632.1000;0.4274;0.9675;
632.4000;0.4274;0.9724;
632.7000;0.4274;0.9749;
633.0000;0.4290;0.9823;
633.3000;0.4265;0.9749;
633.6000;0.4265;0.9798;
633.9000;0.4257;0.9774;
634.2000;0.4257;0.9798;
634.5000;0.4249;0.9798;
634.8000;0.4241;0.9749;
635.1000;0.4233;0.9724;
635.4000;0.4225;0.9626;
635.7000;0.4241;0.9650;
636.0000;0.4241;0.9650;
636.3000;0.4282;0.9675;
636.6000;0.4208;0.9576;
636.9000;0.4233;0.9774;
637.2000;0.4217;0.9823;
637.5000;0.4225;0.9848;
637.8000;0.4217;0.9798;
638.1000;0.4208;0.9749;
638.4000;0.4208;0.9823;
638.7000;0.4217;0.9823;
639.0000;0.4217;0.9798;
639.3000;0.4200;0.9774;
639.6000;0.4225;0.9798;
639.9000;0.4192;0.9749;
640.2000;0.4200;0.9774;
640.5000;0.4176;0.9798;
640.8000;0.4176;0.9675;
641.1000;0.4176;0.9700;
641.4000;0.4184;0.9774;
641.7000;0.4127;0.9601;
642.0000;0.4160;0.9749;
642.3000;0.4160;0.9700;
642.6000;0.4160;0.9700;
642.9000;0.4135;0.9700;
643.2000;0.4143;0.9724;
643.5000;0.4143;0.9724;
643.8000;0.4135;0.9675;
644.1000;0.4160;0.9749;
644.4000;0.4119;0.9675;
644.7000;0.4135;0.9675;
645.0000;0.4127;0.9724;
645.3000;0.4127;0.9724;
645.6000;0.4119;0.9675;
645.9000;0.4111;0.9700;
646.2000;0.4127;0.9922;
646.5000;0.4119;0.9922;
646.8000;0.4119;0.9872;
647.1000;0.4119;0.9823;
647.4000;0.4119;0.9749;
647.7000;0.4103;0.9823;
648.0000;0.4135;0.9996;
648.3000;0.4094;0.9798;
648.6000;0.4119;0.9774;
648.9000;0.4127;0.9774;
649.2000;0.4103;0.9675;
649.5000;0.4111;0.9700;
649.8000;0.4078;0.9650;
650.1000;0.4094;0.9774;
650.4000;0.4151;0.9872;
650.7000;0.4160;0.9848;
651.0000;0.4094;0.9675;
651.3000;0.4070;0.9626;
651.6000;0.4127;0.9749;
651.9000;0.4135;0.9749;
652.2000;0.4103;0.9650;
652.5000;0.4094;0.9774;
652.8000;0.4029;0.9724;
653.1000;0.4070;0.9848;
653.4000;0.4078;0.9774;
653.7000;0.4143;0.9897;
654.0000;0.4070;0.9749;
654.3000;0.4078;0.9724;
654.6000;0.4103;0.9798;
654.9000;0.4062;0.9798;
655.2000;0.4070;0.9798;
655.5000;0.4062;0.9848;
655.8000;0.4078;0.9823;
656.1000;0.4062;0.9774;
656.4000;0.4054;0.9675;
656.7000;0.4078;0.9650;
657.0000;0.4070;0.9650;
657.3000;0.4054;0.9552;
657.6000;0.4070;0.9552;
657.9000;0.4046;0.9502;
658.2000;0.4111;0.9724;
658.5000;0.4078;0.9774;
658.8000;0.4062;0.9823;
659.1000;0.4046;0.9700;
659.4000;0.4054;0.9650;
659.7000;0.4037;0.9552;
660.0000;0.4054;0.9576;
660.3000;0.4046;0.9601;
660.6000;0.4037;0.9650;
660.9000;0.4054;0.9872;
661.2000;0.4046;0.9823;
661.5000;0.4021;0.9774;
661.8000;0.4054;0.9798;
662.1000;0.4029;0.9823;
662.4000;0.4127;1.0070;
662.7000;0.4046;0.9724;
663.0000;0.4029;0.9700;
663.3000;0.4021;0.9576;
663.6000;0.4021;0.9650;
663.9000;0.4013;0.9650;
664.2000;0.3997;0.9527;
664.5000;0.4046;0.9576;
664.8000;0.4013;0.9477;
665.1000;0.4013;0.9502;
665.4000;0.3989;0.9527;
665.7000;0.4005;0.9576;
666.0000;0.3997;0.9576;
666.3000;0.3997;0.9601;
666.6000;0.3997;0.9675;
666.9000;0.3997;0.9823;
667.2000;0.4005;0.9897;
667.5000;0.4013;0.9922;
667.8000;0.3989;0.9946;
668.1000;0.4005;0.9823;
668.4000;0.3915;0.9601;
668.7000;0.4005;0.9798;
669.0000;0.3997;0.9798;
669.3000;0.4005;0.9774;
669.6000;0.3956;0.9650;
669.9000;0.4005;0.9798;
670.2000;0.3997;0.9823;
670.5000;0.4021;0.9872;
670.8000;0.3980;0.9724;
671.1000;0.3989;0.9724;
671.4000;0.4005;0.9848;
671.7000;0.3989;0.9823;
672.0000;0.3972;0.9700;
672.3000;0.3997;0.9749;
672.6000;0.3980;0.9724;
672.9000;0.3997;0.9700;
673.2000;0.3964;0.9626;
673.5000;0.3980;0.9749;
673.8000;0.3972;0.9774;
674.1000;0.3980;0.9749;
674.4000;0.4005;0.9872;
674.7000;0.3956;0.9823;
675.0000;0.3964;0.9798;
675.3000;0.3964;0.9774;
675.6000;0.3964;0.9749;
675.9000;0.3964;0.9749;
676.2000;0.3948;0.9774;
676.5000;0.3964;0.9922;
676.8000;0.3932;0.9872;
677.1000;0.3989;0.9872;
677.4000;0.4021;0.9946;
677.7000;0.3972;0.9749;
678.0000;0.3972;0.9848;
678.3000;0.3964;0.9724;
678.6000;0.3972;0.9823;
678.9000;0.3932;0.9774;
679.2000;0.3964;0.9823;
679.5000;0.3964;0.9823;
679.8000;0.3940;0.9749;
680.1000;0.3948;0.9700;
680.4000;0.3972;0.9724;
680.7000;0.3964;0.9798;
681.0000;0.3972;0.9823;
681.3000;0.3940;0.9774;
681.6000;0.3915;0.9675;
681.9000;0.3980;0.9798;
682.2000;0.3875;0.9626;
682.5000;0.3907;0.9601;
682.8000;0.3948;0.9650;
683.1000;0.3948;0.9700;
683.4000;0.3972;0.9724;
683.7000;0.3964;0.9675;
684.0000;0.3948;0.9724;
684.3000;0.3940;0.9626;
684.6000;0.3932;0.9576;
684.9000;0.3948;0.9626;
685.2000;0.3956;0.9823;
685.5000;0.3948;0.9848;
685.8000;0.3956;0.9848;
686.1000;0.3932;0.9749;
686.4000;0.3989;0.9922;
686.7000;0.3923;0.9848;
687.0000;0.3948;0.9996;
687.3000;0.3948;0.9971;
687.6000;0.3948;0.9946;
687.9000;0.3899;0.9798;
688.2000;0.3948;0.9823;
688.5000;0.3948;0.9798;
688.8000;0.3932;0.9798;
689.1000;0.3923;0.9798;
689.4000;0.3972;0.9823;
689.7000;0.3932;0.9848;
690.0000;0.3875;0.9700;
690.3000;0.3932;0.9897;
690.6000;0.3932;0.9872;
690.9000;0.3932;0.9971;
691.2000;0.3891;0.9848;
691.5000;0.3907;0.9872;
691.8000;0.3907;0.9774;
692.1000;0.3858;0.9675;
692.4000;0.3842;0.9675;
692.7000;0.3923;0.9897;
693.0000;0.3932;0.9897;
693.3000;0.3915;0.9798;
693.6000;0.3923;0.9774;
693.9000;0.3940;0.9749;
694.2000;0.3989;0.9946;
694.5000;0.3932;0.9774;
694.8000;0.3932;0.9872;
695.1000;0.3915;0.9798;
695.4000;0.3915;0.9774;
695.7000;0.3932;0.9700;
696.0000;0.3932;0.9700;
696.3000;0.3915;0.9749;
696.6000;0.3932;0.9872;
696.9000;0.3940;0.9848;
697.2000;0.3899;0.9823;
697.5000;0.3940;0.9897;
697.8000;0.3907;0.9749;
698.1000;0.3907;0.9798;
698.4000;0.3915;0.9848;
698.7000;0.3899;0.9823;
699.0000;0.3907;0.9872;
699.3000;0.3899;0.9774;
699.6000;0.3899;0.9774;
699.9000;0.3907;0.9650;
700.2000;0.3915;0.9626;
700.5000;0.3915;0.9650;
700.8000;0.4005;0.9971;
701.1000;0.3915;0.9749;
701.4000;0.3907;0.9749;
701.7000;0.3907;0.9700;
702.0000;0.3891;0.9798;
702.3000;0.3891;0.9872;
702.6000;0.3891;0.9971;
702.9000;0.3883;0.9897;
703.2000;0.3948;1.0070;
703.5000;0.3907;0.9946;
703.8000;0.3899;0.9774;
704.1000;0.3915;0.9700;
704.4000;0.3867;0.9675;
704.7000;0.3899;0.9823;
705.0000;0.3915;0.9946;
705.3000;0.3907;0.9872;
705.6000;0.3899;0.9798;
705.9000;0.3923;0.9922;
706.2000;0.3915;0.9848;
706.5000;0.3915;0.9848;
706.8000;0.3915;0.9897;
707.1000;0.3899;0.9971;
707.4000;0.3875;0.9946;
707.7000;0.3875;0.9774;
708.0000;0.3907;0.9798;
708.3000;0.3883;0.9724;
708.6000;0.3899;0.9749;
708.9000;0.3899;0.9724;
709.2000;0.3883;0.9675;
709.5000;0.3875;0.9576;
709.8000;0.3899;0.9700;
710.1000;0.3875;0.9724;
710.4000;0.3915;0.9872;
710.7000;0.3875;0.9724;
711.0000;0.3891;0.9724;
711.3000;0.3915;0.9774;
711.6000;0.3907;0.9823;
711.9000;0.3907;0.9848;
712.2000;0.3891;0.9897;
712.5000;0.3891;0.9848;
712.8000;0.3875;0.9848;
713.1000;0.3858;0.9946;
713.4000;0.3867;0.9922;
713.7000;0.3883;1.0070;
714.0000;0.3793;0.9798;
714.3000;0.3875;0.9946;
714.6000;0.3867;0.9872;
714.9000;0.3867;0.9848;
715.2000;0.3875;0.9897;
715.5000;0.3891;0.9848;
715.8000;0.3891;0.9897;
716.1000;0.3907;0.9922;
716.4000;0.3891;0.9996;
716.7000;0.3875;0.9971;
717.0000;0.3899;0.9996;
717.3000;0.3883;0.9996;
717.6000;0.3891;0.9897;
717.9000;0.3899;0.9897;
718.2000;0.3932;1.0045;
718.5000;0.3850;0.9823;
718.8000;0.3867;0.9774;
719.1000;0.3875;0.9774;
719.4000;0.3891;0.9724;
719.7000;0.3875;0.9675;
720.0000;0.3875;0.9626;
720.3000;0.3875;0.9700;
720.6000;0.3899;0.9724;
720.9000;0.3883;0.9675;
721.2000;0.3850;0.9650;
721.5000;0.3858;0.9724;
721.8000;0.3899;0.9872;
722.1000;0.3883;0.9848;
722.4000;0.3818;0.9576;
722.7000;0.3875;0.9601;
723.0000;0.3875;0.9576;
723.3000;0.3907;0.9700;
723.6000;0.3883;0.9749;
723.9000;0.3972;1.0020;
724.2000;0.3858;0.9626;
724.5000;0.3850;0.9650;
724.8000;0.3867;0.9650;
725.1000;0.3875;0.9700;
725.4000;0.3875;0.9724;
725.7000;0.3867;0.9749;
726.0000;0.3858;0.9749;
726.3000;0.3875;0.9848;
726.6000;0.3858;0.9798;
726.9000;0.3923;0.9946;
727.2000;0.3883;0.9872;
727.5000;0.3867;0.9823;
727.8000;0.3891;0.9872;
728.1000;0.3891;0.9774;
728.4000;0.3875;0.9724;
728.7000;0.3867;0.9675;
729.0000;0.3883;0.9700;
729.3000;0.3891;0.9774;
729.6000;0.3867;0.9848;
729.9000;0.3826;0.9675;
730.2000;0.3810;0.9700;
730.5000;0.3883;0.9848;
730.8000;0.3867;0.9774;
731.1000;0.3891;0.9774;
731.4000;0.3867;0.9675;
731.7000;0.3875;0.9700;
732.0000;0.3883;0.9700;
732.3000;0.3842;0.9700;
732.6000;0.3826;0.9724;
732.9000;0.3899;0.9922;
733.2000;0.3858;0.9774;
733.5000;0.4013;1.0169;
733.8000;0.3940;0.9996;
734.1000;0.3867;0.9798;
734.4000;0.3867;0.9749;
734.7000;0.3810;0.9601;
735.0000;0.3875;0.9823;
735.3000;0.3867;0.9700;
735.6000;0.3842;0.9626;
735.9000;0.3842;0.9626;
736.2000;0.3858;0.9626;
736.5000;0.3932;0.9823;
736.8000;0.3883;0.9675;
737.1000;0.3858;0.9502;
737.4000;0.3989;0.9823;
737.7000;0.3842;0.9527;
738.0000;0.3858;0.9626;
738.3000;0.3842;0.9626;
738.6000;0.3858;0.9774;
738.9000;0.3867;0.9700;
739.2000;0.3858;0.9798;
739.5000;0.3826;0.9749;
739.8000;0.3793;0.9626;
740.1000;0.3842;0.9700;
740.4000;0.3834;0.9675;
740.7000;0.3850;0.9626;
741.0000;0.3932;0.9971;
741.3000;0.3883;0.9798;
741.6000;0.3858;0.9774;
741.9000;0.3850;0.9848;
742.2000;0.3867;0.9749;
742.5000;0.3818;0.9552;
742.8000;0.3858;0.9650;
743.1000;0.3850;0.9626;
743.4000;0.3858;0.9502;
743.7000;0.3858;0.9502;
744.0000;0.3875;0.9502;
744.3000;0.3858;0.9502;
744.6000;0.3867;0.9502;
744.9000;0.3850;0.9527;
745.2000;0.3891;0.9749;
745.5000;0.3867;0.9675;
745.8000;0.3891;0.9749;
746.1000;0.3842;0.9626;
746.4000;0.3891;0.9700;
746.7000;0.3932;0.9774;
747.0000;0.3867;0.9601;
747.3000;0.3785;0.9354;
747.6000;0.3842;0.9552;
747.9000;0.3728;0.9354;
748.2000;0.3850;0.9724;
748.5000;0.3867;0.9774;
748.8000;0.3842;0.9650;
749.1000;0.3850;0.9749;
749.4000;0.3940;1.0020;
749.7000;0.3842;0.9749;
750.0000;0.3834;0.9749;
750.3000;0.3834;0.9848;
750.6000;0.3858;0.9897;
750.9000;0.3875;0.9848;
751.2000;0.3850;0.9848;
751.5000;0.3842;0.9823;
751.8000;0.3858;0.9749;
752.1000;0.3842;0.9724;
752.4000;0.3858;0.9700;
752.7000;0.3850;0.9774;
753.0000;0.3850;0.9798;
753.3000;0.3826;0.9872;
753.6000;0.3834;0.9946;
753.9000;0.3842;1.0020;
754.2000;0.3850;0.9946;
754.5000;0.3850;0.9848;
754.8000;0.3850;0.9823;
755.1000;0.3850;0.9848;
755.4000;0.3875;0.9971;
755.7000;0.3867;0.9872;
756.0000;0.3858;0.9823;
756.3000;0.3858;0.9798;
756.6000;0.3875;0.9798;
756.9000;0.3858;0.9848;
757.2000;0.3858;0.9946;
757.5000;0.3850;0.9996;
757.8000;0.3834;0.9872;
758.1000;0.3842;0.9823;
758.4000;0.3875;0.9848;
758.7000;0.3858;0.9774;
759.0000;0.3858;0.9675;
759.3000;0.3769;0.9453;
759.6000;0.3867;0.9724;
759.9000;0.3858;0.9749;
760.2000;0.3826;0.9675;
760.5000;0.3842;0.9650;
760.8000;0.3850;0.9749;
761.1000;0.3867;0.9724;
761.4000;0.3940;0.9996;
761.7000;0.3810;0.9601;
762.0000;0.3842;0.9626;
762.3000;0.3850;0.9675;
762.6000;0.3834;0.9700;
762.9000;0.3850;0.9724;
763.2000;0.3842;0.9650;
763.5000;0.3834;0.9650;
763.8000;0.3867;0.9675;
764.1000;0.3810;0.9552;
764.4000;0.3801;0.9502;
764.7000;0.3842;0.9601;
765.0000;0.3850;0.9675;
765.3000;0.3826;0.9626;
765.6000;0.3850;0.9724;
765.9000;0.3858;0.9774;
766.2000;0.3842;0.9724;
766.5000;0.3834;0.9749;
766.8000;0.3858;0.9749;
767.1000;0.3826;0.9774;
767.4000;0.3850;0.9848;
767.7000;0.3858;0.9872;
768.0000;0.3826;0.9848;
768.3000;0.3867;0.9897;
768.6000;0.3850;0.9848;
768.9000;0.3899;0.9946;
769.2000;0.3850;0.9823;
769.5000;0.3810;0.9650;
769.8000;0.3842;0.9848;
770.1000;0.3834;0.9774;
770.4000;0.3834;0.9675;
770.7000;0.3753;0.9552;
771.0000;0.3834;0.9848;
771.3000;0.3834;0.9823;
771.6000;0.3818;0.9626;
771.9000;0.3818;0.9502;
772.2000;0.3818;0.9403;
772.5000;0.3834;0.9428;
772.8000;0.3850;0.9477;
773.1000;0.3834;0.9453;
773.4000;0.3850;0.9477;
773.7000;0.3826;0.9453;
774.0000;0.3834;0.9527;
774.3000;0.3899;0.9700;
774.6000;0.3867;0.9601;
774.9000;0.3834;0.9453;
775.2000;0.3858;0.9601;
775.5000;0.3818;0.9626;
775.8000;0.3834;0.9626;
776.1000;0.3834;0.9552;
776.4000;0.3818;0.9552;
776.7000;0.3842;0.9724;
777.0000;0.3842;0.9749;
777.3000;0.3842;0.9749;
777.6000;0.3850;0.9749;
777.9000;0.3858;0.9774;
778.2000;0.3842;0.9650;
778.5000;0.3818;0.9527;
778.8000;0.3850;0.9675;
779.1000;0.3858;0.9650;
779.4000;0.3842;0.9502;
779.7000;0.3826;0.9428;
780.0000;0.3842;0.9477;
780.3000;0.3834;0.9477;
780.6000;0.3842;0.9576;
780.9000;0.3801;0.9428;
781.2000;0.3842;0.9601;
781.5000;0.3834;0.9576;
781.8000;0.3826;0.9453;
782.1000;0.3842;0.9403;
782.4000;0.3858;0.9477;
782.7000;0.3826;0.9453;
783.0000;0.3834;0.9502;
783.3000;0.3842;0.9576;
783.6000;0.3850;0.9650;
783.9000;0.3736;0.9379;
784.2000;0.3850;0.9724;
784.5000;0.3842;0.9724;
784.8000;0.3826;0.9724;
785.1000;0.3826;0.9749;
785.4000;0.3850;0.9897;
785.7000;0.3842;0.9872;
786.0000;0.3810;0.9823;
786.3000;0.3826;0.9724;
786.6000;0.3858;0.9798;
786.9000;0.3826;0.9675;
787.2000;0.3826;0.9675;
787.5000;0.3842;0.9724;
787.8000;0.3834;0.9724;
788.1000;0.3810;0.9774;
788.4000;0.3842;0.9922;
788.7000;0.3842;0.9872;
789.0000;0.3850;1.0020;
789.3000;0.3850;1.0045;
789.6000;0.3834;0.9872;
789.9000;0.3858;0.9872;
790.2000;0.3834;0.9798;
790.5000;0.3810;0.9823;
790.8000;0.3842;0.9749;
791.1000;0.3842;0.9724;
791.4000;0.3850;0.9749;
791.7000;0.3826;0.9675;
792.0000;0.3834;0.9724;
792.3000;0.3875;0.9848;
792.6000;0.3834;0.9749;
792.9000;0.3712;0.9527;
793.2000;0.3858;0.9872;
793.5000;0.3826;0.9724;
793.8000;0.3834;0.9749;
794.1000;0.3801;0.9724;
794.4000;0.3826;0.9798;
794.7000;0.3834;0.9823;
795.0000;0.3834;0.9798;
795.3000;0.3834;0.9798;
795.6000;0.3810;0.9774;
795.9000;0.3826;0.9798;
796.2000;0.3834;0.9774;
796.5000;0.3818;0.9798;
796.8000;0.3826;0.9872;
797.1000;0.3810;0.9848;
797.4000;0.3818;0.9823;
797.7000;0.3826;0.9798;
798.0000;0.3810;0.9798;
798.3000;0.3826;0.9872;
798.6000;0.3842;0.9897;
798.9000;0.3850;0.9872;
799.2000;0.3818;0.9774;
799.5000;0.3842;0.9700;
799.8000;0.3834;0.9675;
800.1000;0.3834;0.9675;
800.4000;0.3818;0.9675;
800.7000;0.3834;0.9700;
801.0000;0.3818;0.9601;
801.3000;0.3899;0.9823;
801.6000;0.3810;0.9626;
801.9000;0.3891;0.9749;
802.2000;0.3850;0.9576;
802.5000;0.3842;0.9601;
802.8000;0.3826;0.9552;
803.1000;0.3891;0.9700;
803.4000;0.3818;0.9527;
803.7000;0.3842;0.9601;
804.0000;0.3932;0.9971;
804.3000;0.3858;0.9626;
804.6000;0.3850;0.9576;
804.9000;0.3826;0.9502;
805.2000;0.3826;0.9601;
805.5000;0.3810;0.9626;
805.8000;0.3810;0.9601;
806.1000;0.3777;0.9552;
806.4000;0.3826;0.9700;
806.7000;0.3834;0.9749;
807.0000;0.3834;0.9774;
807.3000;0.3826;0.9823;
807.6000;0.3818;0.9749;
807.9000;0.3826;0.9626;
808.2000;0.3850;0.9601;
808.5000;0.3834;0.9527;
808.8000;0.3826;0.9552;
809.1000;0.3801;0.9453;
809.4000;0.3826;0.9576;
809.7000;0.3826;0.9576;
810.0000;0.3834;0.9675;
810.3000;0.3834;0.9700;
810.6000;0.3826;0.9576;
810.9000;0.3818;0.9552;
811.2000;0.3810;0.9601;
811.5000;0.3834;0.9626;
811.8000;0.3826;0.9650;
812.1000;0.3810;0.9700;
812.4000;0.3810;0.9823;
812.7000;0.3858;0.9872;
813.0000;0.3826;0.9823;
813.3000;0.3826;0.9749;
813.6000;0.3826;0.9626;
813.9000;0.3850;0.9724;
814.2000;0.3842;0.9700;
814.5000;0.3834;0.9626;
814.8000;0.3826;0.9601;
815.1000;0.3826;0.9552;
815.4000;0.3826;0.9502;
815.7000;0.3810;0.9354;
816.0000;0.3785;0.9280;
816.3000;0.3842;0.9477;
816.6000;0.3834;0.9527;
816.9000;0.3826;0.9650;
817.2000;0.3818;0.9626;
817.5000;0.3842;0.9675;
817.8000;0.3826;0.9700;
818.1000;0.3826;0.9724;
818.4000;0.3826;0.9700;
818.7000;0.3818;0.9601;
819.0000;0.3753;0.9477;
819.3000;0.3834;0.9700;
819.6000;0.3858;0.9749;
819.9000;0.3801;0.9576;
820.2000;0.3818;0.9724;
820.5000;0.3818;0.9700;
820.8000;0.3899;0.9798;
821.1000;0.3842;0.9626;
821.4000;0.3826;0.9502;
821.7000;0.3834;0.9477;
822.0000;0.3826;0.9527;
822.3000;0.3818;0.9502;
822.6000;0.3785;0.9477;
822.9000;0.3842;0.9576;
823.2000;0.3940;0.9798;
823.5000;0.3834;0.9477;
823.8000;0.3818;0.9428;
824.1000;0.3842;0.9502;
824.4000;0.3728;0.9255;
824.7000;0.3818;0.9527;
825.0000;0.3785;0.9453;
825.3000;0.3826;0.9552;
825.6000;0.3826;0.9477;
825.9000;0.3842;0.9354;
826.2000;0.3826;0.9403;
826.5000;0.3826;0.9403;
826.8000;0.3834;0.9403;
827.1000;0.3834;0.9403;
827.4000;0.3858;0.9403;
827.7000;0.3753;0.9058;
828.0000;0.3834;0.9231;
828.3000;0.3842;0.9231;
828.6000;0.3858;0.9231;
828.9000;0.3834;0.9181;
829.2000;0.3834;0.9231;
829.5000;0.3826;0.9255;
829.8000;0.3826;0.9280;
830.1000;0.3801;0.9231;
830.4000;0.3818;0.9255;
830.7000;0.3810;0.9280;
831.0000;0.3810;0.9329;
831.3000;0.3834;0.9379;
831.6000;0.3810;0.9305;
831.9000;0.3818;0.9280;
832.2000;0.3915;0.9502;
832.5000;0.3810;0.9280;
832.8000;0.3810;0.9329;
833.1000;0.3793;0.9305;
833.4000;0.3793;0.9354;
833.7000;0.3834;0.9576;
834.0000;0.3834;0.9601;
834.3000;0.3875;0.9749;
834.6000;0.3810;0.9601;
834.9000;0.3818;0.9700;
835.2000;0.3858;0.9749;
835.5000;0.3826;0.9724;
835.8000;0.3818;0.9626;
836.1000;0.3850;0.9675;
836.4000;0.3818;0.9527;
836.7000;0.3810;0.9428;
837.0000;0.3818;0.9527;
837.3000;0.3785;0.9477;
837.6000;0.3834;0.9477;
837.9000;0.3818;0.9379;
838.2000;0.3801;0.9329;
838.5000;0.3818;0.9305;
838.8000;0.3858;0.9354;
839.1000;0.3834;0.9255;
839.4000;0.3818;0.9280;
839.7000;0.3834;0.9206;
840.0000;0.3850;0.9305;
840.3000;0.3801;0.9206;
840.6000;0.3826;0.9329;
840.9000;0.3810;0.9453;
841.2000;0.3858;0.9675;
841.5000;0.3818;0.9477;
841.8000;0.3818;0.9477;
842.1000;0.3736;0.9231;
842.4000;0.3883;0.9601;
842.7000;0.3875;0.9576;
843.0000;0.3826;0.9428;
843.3000;0.3818;0.9453;
843.6000;0.3818;0.9403;
843.9000;0.3818;0.9403;
844.2000;0.3834;0.9477;
844.5000;0.3842;0.9601;
844.8000;0.3826;0.9601;
845.1000;0.3810;0.9576;
845.4000;0.3850;0.9601;
845.7000;0.3801;0.9527;
846.0000;0.3818;0.9675;
846.3000;0.3801;0.9552;
846.6000;0.3810;0.9601;
846.9000;0.3834;0.9675;
847.2000;0.3826;0.9576;
847.5000;0.3801;0.9527;
847.8000;0.3810;0.9502;
848.1000;0.3842;0.9576;
848.4000;0.3826;0.9552;
848.7000;0.3801;0.9552;
849.0000;0.3826;0.9650;
849.3000;0.3834;0.9626;
849.6000;0.3818;0.9626;
849.9000;0.3810;0.9700;
850.2000;0.3826;0.9823;
850.5000;0.3826;0.9700;
850.8000;0.3826;0.9700;
851.1000;0.3810;0.9700;
851.4000;0.3818;0.9749;
851.7000;0.3834;0.9774;
852.0000;0.3826;0.9749;
852.3000;0.3818;0.9774;
852.6000;0.3826;0.9798;
852.9000;0.3826;0.9823;
853.2000;0.3826;0.9823;
853.5000;0.3842;0.9798;
853.8000;0.3818;0.9749;
854.1000;0.3801;0.9626;
854.4000;0.3810;0.9626;
854.7000;0.3810;0.9626;
855.0000;0.3818;0.9626;
855.3000;0.3826;0.9626;
855.6000;0.3842;0.9650;
855.9000;0.3826;0.9527;
856.2000;0.3810;0.9453;
856.5000;0.3850;0.9576;
856.8000;0.3810;0.9477;
857.1000;0.3834;0.9552;
857.4000;0.3867;0.9724;
857.7000;0.3826;0.9700;
858.0000;0.3826;0.9749;
858.3000;0.3826;0.9798;
858.6000;0.3818;0.9749;
858.9000;0.3801;0.9848;
859.2000;0.3810;0.9946;
859.5000;0.3810;0.9897;
859.8000;0.3818;0.9872;
860.1000;0.3818;0.9823;
860.4000;0.3801;0.9724;
860.7000;0.3818;0.9798;
861.0000;0.3810;0.9724;
861.3000;0.3785;0.9700;
861.6000;0.3826;0.9848;
861.9000;0.3834;0.9848;
862.2000;0.3753;0.9601;
862.5000;0.3834;0.9749;
862.8000;0.3818;0.9724;
863.1000;0.3826;0.9798;
863.4000;0.3818;0.9798;
863.7000;0.3858;0.9971;
864.0000;0.3842;0.9872;
864.3000;0.3801;0.9798;
864.6000;0.3826;0.9848;
864.9000;0.3834;0.9897;
865.2000;0.3810;0.9724;
865.5000;0.3818;0.9650;
865.8000;0.3834;0.9700;
866.1000;0.3793;0.9650;
866.4000;0.3793;0.9576;
866.7000;0.3801;0.9552;
867.0000;0.3793;0.9552;
867.3000;0.3810;0.9675;
867.6000;0.3818;0.9700;
867.9000;0.3810;0.9675;
868.2000;0.3801;0.9700;
868.5000;0.3777;0.9675;
868.8000;0.3818;0.9774;
869.1000;0.3810;0.9724;
869.4000;0.3850;0.9823;
869.7000;0.3810;0.9823;
870.0000;0.3818;0.9823;
870.3000;0.3810;0.9848;
870.6000;0.3810;0.9798;
870.9000;0.3801;0.9774;
871.2000;0.3810;0.9798;
871.5000;0.3810;0.9749;
871.8000;0.3793;0.9650;
872.1000;0.3801;0.9601;
872.4000;0.3834;0.9675;
872.7000;0.3810;0.9650;
873.0000;0.3801;0.9749;
873.3000;0.3826;0.9823;
873.6000;0.3785;0.9650;
873.9000;0.3842;0.9848;
874.2000;0.3826;0.9724;
874.5000;0.3818;0.9650;
874.8000;0.3810;0.9675;
875.1000;0.3818;0.9700;
875.4000;0.3753;0.9428;
875.7000;0.3818;0.9601;
876.0000;0.3810;0.9601;
876.3000;0.3801;0.9552;
876.6000;0.3801;0.9601;
876.9000;0.3810;0.9650;
877.2000;0.3834;0.9724;
877.5000;0.3810;0.9700;
877.8000;0.3801;0.9724;
878.1000;0.3883;0.9971;
878.4000;0.3810;0.9774;
878.7000;0.3826;0.9897;
879.0000;0.3810;0.9872;
879.3000;0.3785;0.9749;
879.6000;0.3801;0.9749;
879.9000;0.3810;0.9798;
880.2000;0.3858;0.9897;
880.5000;0.3793;0.9724;
880.8000;0.3826;0.9675;
881.1000;0.3818;0.9675;
881.4000;0.3923;1.0045;
881.7000;0.3818;0.9749;
882.0000;0.3818;0.9724;
882.3000;0.3810;0.9650;
882.6000;0.3834;0.9724;
882.9000;0.3826;0.9774;
883.2000;0.3867;0.9971;
883.5000;0.3818;0.9749;
883.8000;0.3818;0.9675;
884.1000;0.3793;0.9601;
884.4000;0.3826;0.9650;
884.7000;0.3826;0.9650;
885.0000;0.3842;0.9774;
885.3000;0.3785;0.9552;
885.6000;0.3826;0.9675;
885.9000;0.3834;0.9823;
886.2000;0.3818;0.9823;
886.5000;0.3834;0.9897;
886.8000;0.3826;0.9798;
887.1000;0.3810;0.9823;
887.4000;0.3818;0.9823;
887.7000;0.3793;0.9650;
888.0000;0.3810;0.9626;
888.3000;0.3793;0.9675;
888.6000;0.3810;0.9724;
888.9000;0.3818;0.9774;
889.2000;0.3810;0.9798;
889.5000;0.3818;0.9823;
889.8000;0.3810;0.9724;
890.1000;0.3826;0.9749;
890.4000;0.3810;0.9774;
890.7000;0.3818;0.9774;
891.0000;0.3801;0.9749;
891.3000;0.3810;0.9823;
891.6000;0.3810;0.9823;
891.9000;0.3818;0.9897;
892.2000;0.3826;0.9897;
892.5000;0.3793;0.9848;
892.8000;0.3785;0.9774;
893.1000;0.3826;0.9872;
893.4000;0.3801;0.9872;
893.7000;0.3801;0.9872;
894.0000;0.3801;0.9848;
894.3000;0.3826;0.9897;
894.6000;0.3834;0.9996;
894.9000;0.3801;0.9946;
895.2000;0.3810;0.9897;
895.5000;0.3801;0.9848;
895.8000;0.3753;0.9774;
896.1000;0.3818;0.9922;
896.4000;0.3810;0.9897;
896.7000;0.3834;0.9971;
897.0000;0.3810;0.9971;
897.3000;0.3818;0.9971;
897.6000;0.3826;0.9996;
897.9000;0.3818;0.9996;
898.2000;0.3834;0.9971;
898.5000;0.3818;0.9823;
898.8000;0.3810;0.9872;
899.1000;0.3818;0.9848;
899.4000;0.3850;0.9946;
899.7000;0.3818;0.9922;
900.0000;0.3810;0.9823;
900.3000;0.3801;0.9774;
900.6000;0.3793;0.9724;
900.9000;0.3826;0.9823;
901.2000;0.3753;0.9626;
901.5000;0.3785;0.9675;
901.8000;0.3826;0.9798;
902.1000;0.3810;0.9872;
902.4000;0.3834;0.9848;
902.7000;0.3818;0.9774;
903.0000;0.3883;0.9848;
903.3000;0.3818;0.9650;
903.6000;0.3810;0.9626;
903.9000;0.3801;0.9601;
904.2000;0.3785;0.9650;
904.5000;0.3801;0.9601;
904.8000;0.3818;0.9626;
905.1000;0.3810;0.9601;
905.4000;0.3826;0.9650;
905.7000;0.3801;0.9576;
906.0000;0.3818;0.9675;
906.3000;0.3826;0.9823;
906.6000;0.3818;0.9848;
906.9000;0.3818;0.9798;
907.2000;0.3801;0.9601;
907.5000;0.3818;0.9626;
907.8000;0.3826;0.9675;
908.1000;0.3736;0.9453;
908.4000;0.3810;0.9650;
908.7000;0.3842;0.9601;
909.0000;0.3801;0.9576;
909.3000;0.3810;0.9527;
909.6000;0.3801;0.9552;
909.9000;0.3801;0.9552;
910.2000;0.3899;0.9774;
910.5000;0.3810;0.9626;
910.8000;0.3801;0.9626;
911.1000;0.3736;0.9552;
911.4000;0.3818;0.9823;
911.7000;0.3818;0.9749;
912.0000;0.3801;0.9700;
912.3000;0.3801;0.9527;
912.6000;0.3818;0.9576;
912.9000;0.3818;0.9626;
913.2000;0.3826;0.9626;
913.5000;0.3818;0.9650;
913.8000;0.3810;0.9650;
914.1000;0.3818;0.9601;
914.4000;0.3818;0.9576;
914.7000;0.3810;0.9650;
915.0000;0.3761;0.9626;
915.3000;0.3842;0.9774;
915.6000;0.3818;0.9823;
915.9000;0.3785;0.9774;
916.2000;0.3818;0.9798;
916.5000;0.3818;0.9700;
916.8000;0.3826;0.9675;
917.1000;0.3867;0.9823;
917.4000;0.3761;0.9502;
917.7000;0.3826;0.9749;
918.0000;0.3826;0.9724;
918.3000;0.3834;0.9823;
918.6000;0.3826;0.9823;
918.9000;0.3810;0.9724;
919.2000;0.3801;0.9724;
919.5000;0.3834;0.9774;
919.8000;0.3826;0.9749;
920.1000;0.3720;0.9453;
920.4000;0.3793;0.9576;
920.7000;0.3834;0.9700;
921.0000;0.3907;0.9897;
921.3000;0.3858;0.9872;
921.6000;0.3785;0.9848;
921.9000;0.3858;1.0070;
922.2000;0.3785;0.9872;
922.5000;0.3818;0.9946;
922.8000;0.3801;0.9897;
923.1000;0.3793;0.9798;
923.4000;0.3801;0.9774;
923.7000;0.3801;0.9872;
924.0000;0.3818;0.9872;
924.3000;0.3842;0.9996;
924.6000;0.3810;0.9996;
924.9000;0.3801;0.9971;
925.2000;0.3785;0.9946;
925.5000;0.3818;0.9996;
925.8000;0.3818;1.0045;
926.1000;0.3810;0.9971;
926.4000;0.3793;0.9922;
926.7000;0.3793;0.9897;
927.0000;0.3801;0.9996;
927.3000;0.3801;0.9971;
927.6000;0.3793;0.9996;
927.9000;0.3785;1.0094;
928.2000;0.3818;1.0169;
928.5000;0.3810;1.0045;
928.8000;0.3818;0.9996;
929.1000;0.3785;0.9946;
929.4000;0.3801;0.9971;
929.7000;0.3785;0.9897;
930.0000;0.3785;0.9996;
930.3000;0.3801;1.0119;
930.6000;0.3801;1.0094;
930.9000;0.3777;0.9946;
931.2000;0.3728;0.9823;
931.5000;0.3793;1.0045;
931.8000;0.3818;1.0169;
932.1000;0.3810;1.0144;
932.4000;0.3793;1.0045;
932.7000;0.3801;1.0070;
933.0000;0.3842;1.0243;
933.3000;0.3818;1.0119;
933.6000;0.3793;1.0045;
933.9000;0.3850;1.0144;
934.2000;0.3850;1.0144;
934.5000;0.3810;1.0045;
934.8000;0.3810;1.0020;
935.1000;0.3834;1.0094;
935.4000;0.3793;0.9996;
935.7000;0.3793;0.9971;
936.0000;0.3826;0.9996;
936.3000;0.3793;0.9897;
936.6000;0.3818;0.9922;
936.9000;0.3810;0.9946;
937.2000;0.3777;0.9848;
937.5000;0.3793;0.9798;
937.8000;0.3801;0.9724;
938.1000;0.3810;0.9650;
938.4000;0.3810;0.9724;
938.7000;0.3801;0.9724;
939.0000;0.3793;0.9675;
939.3000;0.3704;0.9552;
939.6000;0.3810;0.9700;
939.9000;0.3810;0.9675;
940.2000;0.3801;0.9774;
940.5000;0.3810;0.9798;
940.8000;0.3818;0.9823;
941.1000;0.3867;0.9971;
941.4000;0.3818;0.9971;
941.7000;0.3834;0.9946;
942.0000;0.3826;0.9774;
942.3000;0.3810;0.9700;
942.6000;0.3818;0.9749;
942.9000;0.3818;0.9774;
943.2000;0.3826;0.9897;
943.5000;0.3785;0.9749;
943.8000;0.3810;0.9848;
944.1000;0.3826;0.9897;
944.4000;0.3793;0.9848;
944.7000;0.3850;0.9971;
945.0000;0.3826;0.9922;
945.3000;0.3801;0.9848;
945.6000;0.3785;0.9823;
945.9000;0.3810;0.9971;
946.2000;0.3785;0.9996;
946.5000;0.3810;1.0020;
946.8000;0.3785;0.9872;
947.1000;0.3785;0.9897;
947.4000;0.3818;0.9872;
947.7000;0.3826;0.9872;
948.0000;0.3801;0.9823;
948.3000;0.3793;0.9774;
948.6000;0.3818;0.9848;
948.9000;0.3801;0.9823;
949.2000;0.3834;0.9922;
949.5000;0.3801;0.9897;
949.8000;0.3793;0.9946;
950.1000;0.3785;0.9996;
950.4000;0.3777;0.9971;
950.7000;0.3810;1.0094;
951.0000;0.3826;1.0119;
951.3000;0.3785;1.0020;
951.6000;0.3761;0.9848;
951.9000;0.3810;1.0020;
952.2000;0.3883;1.0119;
952.5000;0.3728;0.9675;
952.8000;0.3793;0.9823;
953.1000;0.3834;0.9848;
953.4000;0.3801;0.9798;
953.7000;0.3858;0.9848;
954.0000;0.3801;0.9798;
954.3000;0.3793;0.9848;
954.6000;0.3826;0.9922;
954.9000;0.3891;1.0070;
955.2000;0.3801;0.9774;
955.5000;0.3826;0.9872;
955.8000;0.3801;0.9823;
956.1000;0.3801;0.9774;
956.4000;0.3761;0.9675;
956.7000;0.3834;0.9798;
957.0000;0.3858;0.9971;
957.3000;0.3777;0.9749;
957.6000;0.3818;0.9872;
957.9000;0.3801;0.9848;
958.2000;0.3850;0.9897;
958.5000;0.3826;0.9848;
958.8000;0.3810;0.9872;
959.1000;0.3785;0.9823;
959.4000;0.3915;1.0218;
959.7000;0.3810;0.9922;
960.0000;0.3810;0.9922;
960.3000;0.3818;0.9971;
960.6000;0.3793;0.9872;
960.9000;0.3826;0.9872;
961.2000;0.3891;1.0020;
961.5000;0.3785;0.9675;
961.8000;0.3785;0.9650;
962.1000;0.3801;0.9700;
962.4000;0.3810;0.9650;
962.7000;0.3810;0.9724;
963.0000;0.3793;0.9675;
963.3000;0.3834;0.9774;
963.6000;0.3810;0.9675;
963.9000;0.3801;0.9700;
964.2000;0.3785;0.9724;
964.5000;0.3842;0.9798;
964.8000;0.3907;0.9946;
965.1000;0.3810;0.9626;
965.4000;0.3818;0.9552;
965.7000;0.3785;0.9552;
966.0000;0.3826;0.9601;
966.3000;0.3810;0.9626;
966.6000;0.3793;0.9626;
966.9000;0.3818;0.9700;
967.2000;0.3810;0.9724;
967.5000;0.3810;0.9774;
967.8000;0.3818;0.9774;
968.1000;0.3818;0.9798;
968.4000;0.3801;0.9774;
968.7000;0.3818;0.9823;
969.0000;0.3818;0.9823;
969.3000;0.3801;0.9774;
969.6000;0.3826;0.9872;
969.9000;0.3834;0.9897;
970.2000;0.3826;0.9798;
970.5000;0.3818;0.9774;
970.8000;0.3793;0.9700;
971.1000;0.3810;0.9823;
971.4000;0.3801;0.9749;
971.7000;0.3818;0.9749;
972.0000;0.3810;0.9823;
972.3000;0.3810;0.9872;
972.6000;0.3818;0.9897;
972.9000;0.3801;0.9848;
973.2000;0.3793;0.9823;
973.5000;0.3834;0.9872;
973.8000;0.3793;0.9823;
974.1000;0.3761;0.9749;
974.4000;0.3858;0.9922;
974.7000;0.3801;0.9848;
975.0000;0.3810;0.9922;
975.3000;0.3818;1.0045;
975.6000;0.3769;0.9946;
975.9000;0.3801;0.9996;
976.2000;0.3842;1.0045;
976.5000;0.3810;0.9922;
976.8000;0.3793;0.9946;
977.1000;0.3850;1.0070;
977.4000;0.3785;0.9922;
977.7000;0.3810;0.9823;
978.0000;0.3801;0.9774;
978.3000;0.3801;0.9774;
978.6000;0.3810;0.9774;
978.9000;0.3801;0.9774;
979.2000;0.3810;0.9823;
979.5000;0.3801;0.9774;
979.8000;0.3785;0.9700;
980.1000;0.3818;0.9872;
980.4000;0.3818;0.9872;
980.7000;0.3785;0.9798;
981.0000;0.3785;0.9749;
981.3000;0.3810;0.9823;
981.6000;0.3818;0.9798;
981.9000;0.3810;0.9897;
982.2000;0.3818;1.0045;
982.5000;0.3801;1.0070;
982.8000;0.3810;1.0144;
983.1000;0.3801;0.9996;
983.4000;0.3793;0.9872;
983.7000;0.3785;0.9848;
984.0000;0.3785;0.9848;
984.3000;0.3801;0.9946;
984.6000;0.3793;0.9922;
984.9000;0.3761;0.9774;
985.2000;0.3769;0.9872;
985.5000;0.3818;1.0045;
985.8000;0.3801;0.9946;
986.1000;0.3785;0.9971;
986.4000;0.3818;1.0094;
986.7000;0.3810;1.0045;
987.0000;0.3826;1.0045;
987.3000;0.3923;1.0243;
987.6000;0.3826;0.9971;
987.9000;0.3810;0.9823;
988.2000;0.3842;0.9872;
988.5000;0.3826;0.9897;
988.8000;0.3810;0.9897;
989.1000;0.3810;0.9922;
989.4000;0.3826;0.9996;
989.7000;0.3793;0.9971;
990.0000;0.3883;1.0218;
990.3000;0.3810;0.9996;
990.6000;0.3777;0.9897;
990.9000;0.3810;0.9848;
991.2000;0.3801;0.9823;
991.5000;0.3810;0.9897;
991.8000;0.3810;1.0144;
992.1000;0.3834;1.0193;
992.4000;0.3818;1.0070;
992.7000;0.3810;1.0020;
993.0000;0.3810;1.0020;
993.3000;0.3785;0.9922;
993.6000;0.3826;0.9971;
993.9000;0.3793;0.9922;
994.2000;0.3793;0.9971;
994.5000;0.3793;1.0020;
994.8000;0.3818;0.9971;
995.1000;0.3801;0.9848;
995.4000;0.3769;0.9798;
995.7000;0.3810;0.9848;
996.0000;0.3810;0.9823;
996.3000;0.3801;0.9798;
996.6000;0.3769;0.9700;
996.9000;0.3793;0.9823;
997.2000;0.3801;0.9823;
997.5000;0.3810;0.9872;
997.8000;0.3801;0.9798;
998.1000;0.3785;0.9724;
998.4000;0.3810;0.9823;
998.7000;0.3810;0.9798;
999.0000;0.3777;0.9774;
999.3000;0.3818;0.9823;
999.6000;0.3858;0.9922;
999.9000;0.3810;0.9798;
1000.2000;0.3810;0.9749;
1000.5000;0.3818;0.9700;
1000.8000;0.3801;0.9650;
1001.1000;0.3810;0.9650;
1001.4000;0.3834;0.9724;
1001.7000;0.3793;0.9675;
1002.0000;0.3810;0.9700;
1002.3000;0.3826;0.9897;
1002.6000;0.3810;0.9946;
1002.9000;0.3818;0.9946;
1003.2000;0.3793;0.9922;
1003.5000;0.3818;0.9996;
1003.8000;0.3793;0.9897;
1004.1000;0.3801;0.9798;
1004.4000;0.3810;0.9774;
1004.7000;0.3793;0.9774;
1005.0000;0.3810;0.9823;
1005.3000;0.3834;0.9872;
1005.6000;0.3793;0.9724;
1005.9000;0.3785;0.9700;
1006.2000;0.3801;0.9774;
1006.5000;0.3801;0.9675;
1006.8000;0.3826;0.9774;
1007.1000;0.3810;0.9798;
1007.4000;0.3826;0.9872;
1007.7000;0.3793;0.9749;
1008.0000;0.3793;0.9848;
1008.3000;0.3801;0.9971;
1008.6000;0.3810;1.0070;
1008.9000;0.3826;0.9996;
1009.2000;0.3801;0.9897;
1009.5000;0.3810;0.9848;
1009.8000;0.3801;0.9848;
1010.1000;0.3810;0.9823;
1010.4000;0.3785;0.9774;
1010.7000;0.3801;0.9798;
1011.0000;0.3801;0.9848;
1011.3000;0.3793;0.9848;
1011.6000;0.3810;0.9872;
1011.9000;0.3793;0.9823;
1012.2000;0.3810;0.9798;
1012.5000;0.3826;0.9798;
1012.8000;0.3793;0.9774;
1013.1000;0.3818;0.9897;
1013.4000;0.3785;0.9798;
1013.7000;0.3826;0.9897;
1014.0000;0.3818;0.9922;
1014.3000;0.3761;0.9823;
1014.6000;0.3793;0.9971;
1014.9000;0.3785;0.9897;
1015.2000;0.3826;1.0020;
1015.5000;0.3858;1.0045;
1015.8000;0.3810;0.9946;
1016.1000;0.3810;0.9922;
1016.4000;0.3801;0.9971;
1016.7000;0.3793;0.9922;
1017.0000;0.3793;0.9848;
1017.3000;0.3785;0.9798;
1017.6000;0.3850;0.9823;
1017.9000;0.3810;0.9724;
1018.2000;0.3793;0.9700;
1018.5000;0.3810;0.9749;
1018.8000;0.3810;0.9798;
1019.1000;0.3761;0.9552;
1019.4000;0.3834;0.9798;
1019.7000;0.3801;0.9774;
1020.0000;0.3793;0.9774;
1020.3000;0.3769;0.9552;
1020.6000;0.3810;0.9650;
1020.9000;0.3785;0.9724;
1021.2000;0.3818;0.9749;
1021.5000;0.3810;0.9749;
1021.8000;0.3810;0.9823;
1022.1000;0.3875;1.0119;
1022.4000;0.3785;0.9823;
1022.7000;0.3793;0.9848;
1023.0000;0.3818;0.9897;
1023.3000;0.3810;0.9946;
1023.6000;0.3793;0.9823;
1023.9000;0.3834;0.9922;
1024.2000;0.3753;0.9798;
1024.5000;0.3801;0.9922;
1024.8000;0.3793;0.9922;
1025.1000;0.3801;0.9823;
1025.4000;0.3785;0.9749;
1025.7000;0.3818;0.9848;
1026.0000;0.3810;0.9848;
1026.3000;0.3810;0.9996;
1026.6000;0.3826;0.9897;
1026.9000;0.3810;0.9823;
1027.2000;0.3907;1.0020;
1027.5000;0.3810;0.9675;
1027.8000;0.3793;0.9552;
1028.1000;0.3801;0.9601;
1028.4000;0.3834;0.9675;
1028.7000;0.3810;0.9724;
1029.0000;0.3810;0.9749;
1029.3000;0.3842;0.9897;
1029.6000;0.3810;0.9774;
1029.9000;0.3696;0.9477;
1030.2000;0.3785;0.9700;
1030.5000;0.3810;0.9749;
1030.8000;0.3801;0.9749;
1031.1000;0.3810;0.9774;
1031.4000;0.3826;0.9848;
1031.7000;0.3810;0.9724;
1032.0000;0.3810;0.9749;
1032.3000;0.3818;0.9848;
1032.6000;0.3810;0.9798;
1032.9000;0.3801;0.9798;
1033.2000;0.3801;0.9774;
1033.5000;0.3793;0.9675;
1033.8000;0.3810;0.9749;
1034.1000;0.3785;0.9724;
1034.4000;0.3810;0.9823;
1034.7000;0.3842;0.9996;
1035.0000;0.3810;0.9897;
1035.3000;0.3793;0.9848;
1035.6000;0.3793;0.9774;
1035.9000;0.3753;0.9650;
1036.2000;0.3818;0.9798;
1036.5000;0.3810;0.9798;
1036.8000;0.3907;1.0144;
1037.1000;0.3818;0.9922;
1037.4000;0.3826;0.9872;
1037.7000;0.3810;0.9798;
1038.0000;0.3842;0.9823;
1038.3000;0.3801;0.9675;
1038.6000;0.3793;0.9626;
1038.9000;0.3801;0.9552;
1039.2000;0.3801;0.9527;
1039.5000;0.3826;0.9502;
1039.8000;0.3801;0.9403;
1040.1000;0.3810;0.9403;
1040.4000;0.3810;0.9403;
1040.7000;0.3793;0.9403;
1041.0000;0.3801;0.9428;
1041.3000;0.3826;0.9502;
1041.6000;0.3818;0.9527;
1041.9000;0.3810;0.9527;
1042.2000;0.3785;0.9527;
1042.5000;0.3810;0.9601;
1042.8000;0.3810;0.9700;
1043.1000;0.3785;0.9724;
1043.4000;0.3810;0.9798;
1043.7000;0.3818;0.9749;
1044.0000;0.3875;0.9897;
1044.3000;0.3793;0.9724;
1044.6000;0.3801;0.9724;
1044.9000;0.3801;0.9675;
1045.2000;0.3842;0.9823;
1045.5000;0.3842;0.9798;
1045.8000;0.3785;0.9675;
1046.1000;0.3801;0.9601;
1046.4000;0.3810;0.9626;
1046.7000;0.3801;0.9601;
1047.0000;0.3826;0.9675;
1047.3000;0.3777;0.9552;
1047.6000;0.3818;0.9626;
1047.9000;0.3801;0.9576;
1048.2000;0.3875;0.9774;
1048.5000;0.3818;0.9601;
1048.8000;0.3818;0.9576;
1049.1000;0.3801;0.9626;
1049.4000;0.3801;0.9749;
1049.7000;0.3793;0.9774;
1050.0000;0.3810;0.9724;
1050.3000;0.3810;0.9774;
1050.6000;0.3810;0.9774;
1050.9000;0.3785;0.9601;
1051.2000;0.3801;0.9626;
1051.5000;0.3810;0.9527;
1051.8000;0.3810;0.9650;
1052.1000;0.3810;0.9675;
1052.4000;0.3850;0.9798;
1052.7000;0.3801;0.9749;
1053.0000;0.3810;0.9823;
1053.3000;0.3858;0.9922;
1053.6000;0.3801;0.9872;
1053.9000;0.3810;0.9872;
1054.2000;0.3818;0.9996;
1054.5000;0.3810;0.9946;
1054.8000;0.3801;0.9848;
1055.1000;0.3793;0.9848;
1055.4000;0.3810;1.0020;
1055.7000;0.3793;0.9996;
1056.0000;0.3761;0.9922;
1056.3000;0.3826;1.0045;
1056.6000;0.3818;0.9996;
1056.9000;0.3818;0.9922;
1057.2000;0.3769;0.9798;
1057.5000;0.3818;0.9872;
1057.8000;0.3793;0.9724;
1058.1000;0.3801;0.9675;
1058.4000;0.3810;0.9675;
1058.7000;0.3793;0.9675;
1059.0000;0.3801;0.9601;
1059.3000;0.3810;0.9601;
1059.6000;0.3785;0.9552;
1059.9000;0.3826;0.9700;
1060.2000;0.3801;0.9576;
1060.5000;0.3810;0.9650;
1060.8000;0.3801;0.9601;
1061.1000;0.3801;0.9502;
1061.4000;0.3785;0.9428;
1061.7000;0.3793;0.9477;
1062.0000;0.3810;0.9527;
1062.3000;0.3801;0.9626;
1062.6000;0.3801;0.9650;
1062.9000;0.3785;0.9675;
1063.2000;0.3785;0.9675;
1063.5000;0.3801;0.9774;
1063.8000;0.3793;0.9823;
1064.1000;0.3818;0.9749;
1064.4000;0.3801;0.9724;
1064.7000;0.3834;0.9798;
1065.0000;0.3801;0.9724;
1065.3000;0.3793;0.9749;
1065.6000;0.3777;0.9774;
1065.9000;0.3826;0.9897;
1066.2000;0.3753;0.9700;
1066.5000;0.3769;0.9626;
1066.8000;0.3801;0.9650;
1067.1000;0.3793;0.9724;
1067.4000;0.3777;0.9650;
1067.7000;0.3810;0.9700;
1068.0000;0.3801;0.9700;
1068.3000;0.3793;0.9700;
1068.6000;0.3850;0.9848;
1068.9000;0.3801;0.9823;
1069.2000;0.3801;0.9774;
1069.5000;0.3810;0.9700;
1069.8000;0.3793;0.9650;
1070.1000;0.3728;0.9502;
1070.4000;0.3810;0.9749;
1070.7000;0.3785;0.9626;
1071.0000;0.3801;0.9700;
1071.3000;0.3793;0.9700;
1071.6000;0.3777;0.9675;
1071.9000;0.3801;0.9749;
1072.2000;0.3810;0.9872;
1072.5000;0.3810;0.9798;
1072.8000;0.3793;0.9798;
1073.1000;0.3810;0.9848;
1073.4000;0.3818;0.9848;
1073.7000;0.3777;0.9650;
1074.0000;0.3793;0.9626;
1074.3000;0.3801;0.9774;
1074.6000;0.3810;0.9749;
1074.9000;0.3818;0.9774;
1075.2000;0.3834;0.9872;
1075.5000;0.3826;0.9922;
1075.8000;0.3793;0.9872;
1076.1000;0.3810;0.9996;
1076.4000;0.3826;0.9996;
1076.7000;0.3810;0.9897;
1077.0000;0.3810;0.9823;
1077.3000;0.3801;0.9823;
1077.6000;0.3810;0.9897;
1077.9000;0.3801;0.9823;
1078.2000;0.3785;0.9823;
1078.5000;0.3810;0.9971;
1078.8000;0.3793;0.9897;
1079.1000;0.3818;0.9922;
1079.4000;0.3744;0.9749;
1079.7000;0.3785;0.9946;
1080.0000;0.3850;1.0144;
1080.3000;0.3801;1.0020;
1080.6000;0.3801;0.9996;
1080.9000;0.3818;0.9996;
1081.2000;0.3793;0.9946;
1081.5000;0.3753;0.9897;
1081.8000;0.3818;1.0119;
1082.1000;0.3793;1.0045;
1082.4000;0.3777;0.9971;
1082.7000;0.3801;1.0045;
1083.0000;0.3753;0.9996;
1083.3000;0.3769;1.0094;
1083.6000;0.3769;0.9996;
1083.9000;0.3826;1.0144;
1084.2000;0.3818;1.0169;
1084.5000;0.3769;0.9946;
1084.8000;0.3858;1.0094;
1085.1000;0.3793;1.0020;
1085.4000;0.3826;0.9996;
1085.7000;0.3810;0.9872;
1086.0000;0.3793;0.9872;
1086.3000;0.3801;0.9848;
1086.6000;0.3810;0.9798;
1086.9000;0.3801;0.9823;
1087.2000;0.3818;0.9848;
1087.5000;0.3785;0.9749;
1087.8000;0.3818;0.9823;
1088.1000;0.3793;0.9774;
1088.4000;0.3801;0.9675;
1088.7000;0.3801;0.9774;
1089.0000;0.3818;0.9823;
1089.3000;0.3875;1.0020;
1089.6000;0.3834;0.9897;
1089.9000;0.3769;0.9749;
1090.2000;0.3793;0.9872;
1090.5000;0.3842;0.9946;
1090.8000;0.3801;0.9848;
1091.1000;0.3801;0.9798;
1091.4000;0.3850;0.9823;
1091.7000;0.3801;0.9675;
1092.0000;0.3834;0.9848;
1092.3000;0.3850;0.9823;
1092.6000;0.3777;0.9675;
1092.9000;0.3810;0.9700;
1093.2000;0.3810;0.9749;
1093.5000;0.3810;0.9848;
1093.8000;0.3810;0.9749;
1094.1000;0.3826;0.9848;
1094.4000;0.3810;0.9749;
1094.7000;0.3810;0.9848;
1095.0000;0.3793;0.9749;
1095.3000;0.3753;0.9675;
1095.6000;0.3801;0.9774;
1095.9000;0.3785;0.9700;
1096.2000;0.3801;0.9774;
1096.5000;0.3826;0.9798;
1096.8000;0.3810;0.9749;
1097.1000;0.3810;0.9774;
1097.4000;0.3810;0.9798;
1097.7000;0.3801;0.9749;
1098.0000;0.3810;0.9774;
1098.3000;0.3801;0.9774;
1098.6000;0.3818;0.9724;
1098.9000;0.3801;0.9798;
1099.2000;0.3777;0.9823;
1099.5000;0.3793;0.9798;
1099.8000;0.3818;0.9798;
1100.1000;0.3801;0.9774;
1100.4000;0.3785;0.9798;
1100.7000;0.3810;0.9922;
1101.0000;0.3793;0.9922;
1101.3000;0.3793;0.9897;
1101.6000;0.3810;0.9872;
1101.9000;0.3793;0.9872;
1102.2000;0.3769;0.9749;
1102.5000;0.3818;0.9823;
1102.8000;0.3761;0.9675;
1103.1000;0.3818;0.9774;
1103.4000;0.3769;0.9774;
1103.7000;0.3834;0.9946;
1104.0000;0.3842;1.0020;
1104.3000;0.3801;0.9872;
1104.6000;0.3777;0.9798;
1104.9000;0.3785;0.9823;
1105.2000;0.3793;0.9798;
1105.5000;0.3744;0.9675;
1105.8000;0.3785;0.9724;
1106.1000;0.3793;0.9724;
1106.4000;0.3744;0.9576;
1106.7000;0.3801;0.9774;
1107.0000;0.3818;0.9724;
1107.3000;0.3818;0.9700;
1107.6000;0.3785;0.9749;
1107.9000;0.3801;0.9798;
1108.2000;0.3801;0.9700;
1108.5000;0.3810;0.9675;
1108.8000;0.3801;0.9700;
1109.1000;0.3810;0.9650;
1109.4000;0.3744;0.9552;
1109.7000;0.3777;0.9626;
1110.0000;0.3818;0.9774;
1110.3000;0.3801;0.9774;
1110.6000;0.3818;0.9798;
1110.9000;0.3801;0.9774;
1111.2000;0.3793;0.9650;
1111.5000;0.3801;0.9650;
1111.8000;0.3810;0.9601;
1112.1000;0.3777;0.9552;
1112.4000;0.3785;0.9576;
1112.7000;0.3777;0.9552;
1113.0000;0.3810;0.9650;
1113.3000;0.3810;0.9724;
1113.6000;0.3801;0.9749;
1113.9000;0.3744;0.9576;
1114.2000;0.3842;0.9872;
1114.5000;0.3834;0.9724;
1114.8000;0.3793;0.9650;
1115.1000;0.3744;0.9650;
1115.4000;0.3818;0.9774;
1115.7000;0.3801;0.9823;
1116.0000;0.3793;0.9823;
1116.3000;0.3736;0.9749;
1116.6000;0.3818;0.9946;
1116.9000;0.3793;0.9897;
1117.2000;0.3793;0.9872;
1117.5000;0.3818;0.9848;
1117.8000;0.3793;0.9774;
1118.1000;0.3810;0.9774;
1118.4000;0.3785;0.9749;
1118.7000;0.3769;0.9724;
1119.0000;0.3810;0.9774;
1119.3000;0.3801;0.9749;
1119.6000;0.3801;0.9700;
1119.9000;0.3801;0.9724;
1120.2000;0.3801;0.9650;
1120.5000;0.3818;0.9700;
1120.8000;0.3793;0.9675;
1121.1000;0.3810;0.9601;
1121.4000;0.3801;0.9502;
1121.7000;0.3834;0.9576;
1122.0000;0.3818;0.9601;
1122.3000;0.3810;0.9626;
1122.6000;0.3810;0.9650;
1122.9000;0.3818;0.9749;
1123.2000;0.3801;0.9700;
1123.5000;0.3793;0.9749;
1123.8000;0.3785;0.9724;
1124.1000;0.3801;0.9749;
1124.4000;0.3850;0.9798;
1124.7000;0.3801;0.9626;
1125.0000;0.3801;0.9675;
1125.3000;0.3761;0.9576;
1125.6000;0.3834;0.9700;
1125.9000;0.3818;0.9675;
1126.2000;0.3793;0.9774;
1126.5000;0.3801;0.9749;
1126.8000;0.3818;0.9774;
1127.1000;0.3801;0.9724;
1127.4000;0.3810;0.9724;
1127.7000;0.3834;0.9749;
1128.0000;0.3810;0.9749;
1128.3000;0.3810;0.9749;
1128.6000;0.3777;0.9700;
1128.9000;0.3818;0.9774;
1129.2000;0.3785;0.9749;
1129.5000;0.3810;0.9823;
1129.8000;0.3810;0.9749;
1130.1000;0.3801;0.9749;
1130.4000;0.3801;0.9749;
1130.7000;0.3785;0.9872;
1131.0000;0.3818;0.9922;
1131.3000;0.3858;1.0045;
1131.6000;0.3818;0.9848;
1131.9000;0.3810;0.9798;
1132.2000;0.3810;0.9848;
1132.5000;0.3818;0.9774;
1132.8000;0.3793;0.9700;
1133.1000;0.3826;0.9724;
1133.4000;0.3842;0.9823;
1133.7000;0.3810;0.9774;
1134.0000;0.3810;0.9724;
1134.3000;0.3801;0.9700;
1134.6000;0.3810;0.9675;
1134.9000;0.3801;0.9700;
1135.2000;0.3834;0.9749;
1135.5000;0.3785;0.9626;
1135.8000;0.3793;0.9749;
1136.1000;0.3810;0.9848;
1136.4000;0.3810;0.9848;
1136.7000;0.3810;0.9774;
1137.0000;0.3826;0.9675;
1137.3000;0.3793;0.9626;
1137.6000;0.3818;0.9650;
1137.9000;0.3801;0.9675;
1138.2000;0.3793;0.9774;
1138.5000;0.3801;0.9724;
1138.8000;0.3818;0.9749;
1139.1000;0.3801;0.9626;
1139.4000;0.3793;0.9601;
1139.7000;0.3785;0.9576;
1140.0000;0.3818;0.9700;
1140.3000;0.3801;0.9626;
1140.6000;0.3793;0.9650;
1140.9000;0.3793;0.9724;
1141.2000;0.3793;0.9675;
1141.5000;0.3785;0.9675;
1141.8000;0.3850;0.9848;
1142.1000;0.3793;0.9700;
1142.4000;0.3801;0.9650;
1142.7000;0.3826;0.9601;
1143.0000;0.3810;0.9601;
1143.3000;0.3696;0.9329;
1143.6000;0.3810;0.9626;
1143.9000;0.3793;0.9650;
1144.2000;0.3785;0.9749;
1144.5000;0.3793;0.9700;
1144.8000;0.3899;0.9996;
1145.1000;0.3801;0.9798;
1145.4000;0.3753;0.9601;
1145.7000;0.3777;0.9749;
1146.0000;0.3793;0.9724;
1146.3000;0.3801;0.9774;
1146.6000;0.3810;0.9823;
1146.9000;0.3867;0.9946;
1147.2000;0.3793;0.9749;
1147.5000;0.3810;0.9872;
1147.8000;0.3810;0.9848;
1148.1000;0.3801;0.9774;
1148.4000;0.3834;0.9823;
1148.7000;0.3801;0.9774;
1149.0000;0.3801;0.9848;
1149.3000;0.3801;0.9823;
1149.6000;0.3801;0.9774;
1149.9000;0.3801;0.9700;
1150.2000;0.3810;0.9724;
1150.5000;0.3793;0.9724;
1150.8000;0.3801;0.9724;
1151.1000;0.3810;0.9774;
1151.4000;0.3712;0.9527;
1151.7000;0.3801;0.9749;
1152.0000;0.3850;0.9897;
1152.3000;0.3793;0.9774;
1152.6000;0.3777;0.9848;
1152.9000;0.3785;0.9823;
1153.2000;0.3801;0.9798;
1153.5000;0.3850;0.9872;
1153.8000;0.3801;0.9848;
1154.1000;0.3907;1.0094;
1154.4000;0.3818;0.9823;
1154.7000;0.3801;0.9823;
1155.0000;0.3801;0.9823;
1155.3000;0.3810;0.9848;
1155.6000;0.3801;0.9823;
1155.9000;0.3744;0.9626;
1156.2000;0.3801;0.9798;
1156.5000;0.3785;0.9749;
1156.8000;0.3793;0.9774;
1157.1000;0.3801;0.9675;
1157.4000;0.3793;0.9601;
1157.7000;0.3793;0.9576;
1158.0000;0.3801;0.9675;
1158.3000;0.3810;0.9724;
1158.6000;0.3826;0.9774;
1158.9000;0.3818;0.9774;
1159.2000;0.3850;0.9823;
1159.5000;0.3818;0.9650;
1159.8000;0.3810;0.9650;
1160.1000;0.3785;0.9675;
1160.4000;0.3818;0.9749;
1160.7000;0.3801;0.9626;
1161.0000;0.3826;0.9650;
1161.3000;0.3801;0.9650;
1161.6000;0.3899;0.9946;
1161.9000;0.3793;0.9650;
1162.2000;0.3777;0.9552;
1162.5000;0.3826;0.9724;
1162.8000;0.3785;0.9527;
1163.1000;0.3850;0.9749;
1163.4000;0.3842;0.9724;
1163.7000;0.3793;0.9576;
1164.0000;0.3777;0.9552;
1164.3000;0.3793;0.9576;
1164.6000;0.3793;0.9552;
1164.9000;0.3826;0.9601;
1165.2000;0.3793;0.9453;
1165.5000;0.3785;0.9453;
1165.8000;0.3818;0.9552;
1166.1000;0.3769;0.9453;
1166.4000;0.3818;0.9552;
1166.7000;0.3801;0.9527;
1167.0000;0.3785;0.9552;
1167.3000;0.3826;0.9675;
1167.6000;0.3801;0.9576;
1167.9000;0.3810;0.9650;
1168.2000;0.3801;0.9675;
1168.5000;0.3810;0.9724;
1168.8000;0.3810;0.9823;
1169.1000;0.3793;0.9700;
1169.4000;0.3850;0.9848;
1169.7000;0.3810;0.9650;
1170.0000;0.3826;0.9601;
1170.3000;0.3753;0.9354;
1170.6000;0.3818;0.9502;
1170.9000;0.3769;0.9453;
1171.2000;0.3826;0.9700;
1171.5000;0.3801;0.9626;
1171.8000;0.3801;0.9675;
1172.1000;0.3818;0.9774;
1172.4000;0.3818;0.9798;
1172.7000;0.3785;0.9774;
1173.0000;0.3777;0.9675;
1173.3000;0.3769;0.9700;
1173.6000;0.3793;0.9749;
1173.9000;0.3769;0.9749;
1174.2000;0.3785;0.9675;
1174.5000;0.3801;0.9700;
1174.8000;0.3801;0.9626;
1175.1000;0.3842;0.9798;
1175.4000;0.3810;0.9774;
1175.7000;0.3785;0.9650;
1176.0000;0.3818;0.9650;
1176.3000;0.3826;0.9675;
1176.6000;0.3858;0.9774;
1176.9000;0.3826;0.9749;
1177.2000;0.3801;0.9774;
1177.5000;0.3801;0.9798;
1177.8000;0.3810;0.9848;
1178.1000;0.3818;0.9823;
1178.4000;0.3810;0.9823;
1178.7000;0.3801;0.9749;
1179.0000;0.3801;0.9774;
1179.3000;0.3842;0.9749;
1179.6000;0.3810;0.9650;
1179.9000;0.3818;0.9724;
1180.2000;0.3834;0.9848;
1180.5000;0.3810;0.9848;
1180.8000;0.3818;0.9848;
1181.1000;0.3810;0.9897;
1181.4000;0.3777;0.9798;
1181.7000;0.3810;0.9798;
1182.0000;0.3818;0.9798;
1182.3000;0.3810;0.9798;
1182.6000;0.3801;0.9774;
1182.9000;0.3818;0.9798;
1183.2000;0.3915;1.0020;
1183.5000;0.3842;0.9798;
1183.8000;0.3810;0.9774;
1184.1000;0.3801;0.9749;
1184.4000;0.3810;0.9700;
1184.7000;0.3801;0.9675;
1185.0000;0.3801;0.9675;
1185.3000;0.3867;0.9897;
1185.6000;0.3785;0.9749;
1185.9000;0.3810;0.9848;
1186.2000;0.3736;0.9650;
1186.5000;0.3769;0.9774;
1186.8000;0.3818;0.9872;
1187.1000;0.3810;0.9872;
1187.4000;0.3793;0.9872;
1187.7000;0.3744;0.9724;
1188.0000;0.3801;0.9848;
1188.3000;0.3810;0.9848;
1188.6000;0.3875;0.9946;
1188.9000;0.3793;0.9749;
1189.2000;0.3777;0.9774;
1189.5000;0.3818;0.9823;
1189.8000;0.3801;0.9823;
1190.1000;0.3785;0.9724;
1190.4000;0.3785;0.9774;
1190.7000;0.3793;0.9872;
1191.0000;0.3793;0.9872;
1191.3000;0.3801;0.9897;
1191.6000;0.3777;0.9798;
1191.9000;0.3793;0.9724;
1192.2000;0.3834;0.9848;
1192.5000;0.3810;0.9774;
1192.8000;0.3875;0.9971;
1193.1000;0.3801;0.9650;
1193.4000;0.3826;0.9626;
1193.7000;0.3801;0.9700;
1194.0000;0.3801;0.9675;
1194.3000;0.3810;0.9724;
1194.6000;0.3810;0.9749;
1194.9000;0.3785;0.9675;
1195.2000;0.3818;0.9749;
1195.5000;0.3785;0.9650;
1195.8000;0.3858;0.9798;
1196.1000;0.3801;0.9626;
1196.4000;0.3818;0.9749;
1196.7000;0.3818;0.9749;
1197.0000;0.3826;0.9774;
1197.3000;0.3826;0.9823;
1197.6000;0.3793;0.9897;
1197.9000;0.3696;0.9749;
1198.2000;0.3810;0.9996;
1198.5000;0.3818;0.9971;
1198.8000;0.3818;0.9922;
1199.1000;0.3793;0.9897;
1199.4000;0.3810;0.9897;
1199.7000;0.3810;0.9823;
1200.0000;0.3801;0.9798;
1200.3000;0.3785;0.9724;
1200.6000;0.3810;0.9650;
1200.9000;0.3801;0.9601;
1201.2000;0.3818;0.9601;
1201.5000;0.3785;0.9576;
1201.8000;0.3785;0.9626;
1202.1000;0.3777;0.9626;
1202.4000;0.3883;0.9848;
1202.7000;0.3810;0.9675;
1203.0000;0.3818;0.9650;
1203.3000;0.3793;0.9626;
1203.6000;0.3826;0.9724;
1203.9000;0.3810;0.9848;
1204.2000;0.3777;0.9724;
1204.5000;0.3810;0.9848;
1204.8000;0.3801;0.9798;
1205.1000;0.3818;0.9798;
1205.4000;0.3826;0.9823;
1205.7000;0.3818;0.9798;
1206.0000;0.3801;0.9749;
1206.3000;0.3793;0.9724;
1206.6000;0.3810;0.9798;
1206.9000;0.3769;0.9774;
1207.2000;0.3810;0.9798;
1207.5000;0.3818;0.9848;
1207.8000;0.3810;0.9724;
1208.1000;0.3769;0.9626;
1208.4000;0.3753;0.9428;
1208.7000;0.3801;0.9601;
1209.0000;0.3842;0.9724;
1209.3000;0.3810;0.9552;
1209.6000;0.3753;0.9379;
1209.9000;0.3777;0.9280;
1210.2000;0.3810;0.9477;
1210.5000;0.3785;0.9527;
1210.8000;0.3834;0.9724;
1211.1000;0.3801;0.9650;
1211.4000;0.3801;0.9601;
1211.7000;0.3801;0.9700;
1212.0000;0.3785;0.9601;
1212.3000;0.3785;0.9552;
1212.6000;0.3801;0.9527;
1212.9000;0.3801;0.9403;
1213.2000;0.3785;0.9403;
1213.5000;0.3818;0.9527;
1213.8000;0.3818;0.9502;
1214.1000;0.3801;0.9552;
1214.4000;0.3810;0.9601;
1214.7000;0.3793;0.9650;
1215.0000;0.3801;0.9675;
1215.3000;0.3810;0.9724;
1215.6000;0.3793;0.9724;
1215.9000;0.3810;0.9700;
1216.2000;0.3801;0.9724;
1216.5000;0.3818;0.9749;
1216.8000;0.3810;0.9724;
1217.1000;0.3818;0.9700;
1217.4000;0.3810;0.9675;
1217.7000;0.3818;0.9700;
1218.0000;0.3801;0.9724;
1218.3000;0.3810;0.9700;
1218.6000;0.3785;0.9601;
1218.9000;0.3785;0.9576;
1219.2000;0.3867;0.9675;
1219.5000;0.3810;0.9576;
1219.8000;0.3793;0.9626;
1220.1000;0.3793;0.9650;
1220.4000;0.3801;0.9700;
1220.7000;0.3818;0.9823;
1221.0000;0.3810;0.9798;
1221.3000;0.3793;0.9798;
1221.6000;0.3793;0.9774;
1221.9000;0.3818;0.9774;
1222.2000;0.3810;0.9700;
1222.5000;0.3801;0.9700;
1222.8000;0.3826;0.9700;
1223.1000;0.3850;0.9774;
1223.4000;0.3810;0.9650;
1223.7000;0.3801;0.9675;
1224.0000;0.3850;0.9897;
1224.3000;0.3834;0.9897;
1224.6000;0.3785;0.9774;
1224.9000;0.3801;0.9946;
1225.2000;0.3793;0.9848;
1225.5000;0.3801;0.9774;
1225.8000;0.3801;0.9724;
1226.1000;0.3793;0.9675;
1226.4000;0.3704;0.9305;
1226.7000;0.3761;0.9453;
1227.0000;0.3810;0.9650;
1227.3000;0.3818;0.9650;
1227.6000;0.3777;0.9477;
1227.9000;0.3801;0.9576;
1228.2000;0.3801;0.9502;
1228.5000;0.3826;0.9601;
1228.8000;0.3810;0.9527;
1229.1000;0.3785;0.9601;
1229.4000;0.3793;0.9700;
1229.7000;0.3826;0.9798;
1230.0000;0.3793;0.9749;
1230.3000;0.3793;0.9798;
1230.6000;0.3801;0.9724;
1230.9000;0.3801;0.9700;
1231.2000;0.3818;0.9724;
1231.5000;0.3761;0.9576;
1231.8000;0.3801;0.9823;
1232.1000;0.3801;0.9872;
1232.4000;0.3810;0.9922;
1232.7000;0.3801;0.9848;
1233.0000;0.3769;0.9774;
1233.3000;0.3810;0.9749;
1233.6000;0.3810;0.9724;
1233.9000;0.3785;0.9675;
1234.2000;0.3687;0.9354;
1234.5000;0.3810;0.9700;
1234.8000;0.3801;0.9601;
1235.1000;0.3810;0.9576;
1235.4000;0.3777;0.9601;
1235.7000;0.3810;0.9700;
1236.0000;0.3801;0.9749;
1236.3000;0.3801;0.9774;
1236.6000;0.3785;0.9774;
1236.9000;0.3777;0.9798;
1237.2000;0.3801;0.9848;
1237.5000;0.3810;0.9848;
1237.8000;0.3793;0.9675;
1238.1000;0.3793;0.9626;
1238.4000;0.3810;0.9675;
1238.7000;0.3801;0.9700;
1239.0000;0.3801;0.9700;
1239.3000;0.3801;0.9724;
1239.6000;0.3777;0.9749;
1239.9000;0.3801;0.9774;
1240.2000;0.3842;0.9872;
1240.5000;0.3793;0.9724;
1240.8000;0.3793;0.9724;
1241.1000;0.3801;0.9724;
1241.4000;0.3793;0.9700;
1241.7000;0.3801;0.9774;
1242.0000;0.3793;0.9724;
1242.3000;0.3793;0.9823;
1242.6000;0.3818;0.9971;
1242.9000;0.3818;0.9872;
1243.2000;0.3769;0.9848;
1243.5000;0.3801;0.9971;
1243.8000;0.3810;0.9946;
1244.1000;0.3801;0.9897;
1244.4000;0.3801;0.9971;
1244.7000;0.3810;1.0020;
1245.0000;0.3858;1.0094;
1245.3000;0.3818;0.9922;
1245.6000;0.3810;0.9922;
1245.9000;0.3801;0.9798;
1246.2000;0.3769;0.9774;
1246.5000;0.3899;1.0119;
1246.8000;0.3777;0.9774;
1247.1000;0.3810;0.9798;
1247.4000;0.3810;0.9774;
1247.7000;0.3785;0.9675;
1248.0000;0.3810;0.9675;
1248.3000;0.3793;0.9502;
1248.6000;0.3850;0.9724;
1248.9000;0.3801;0.9552;
1249.2000;0.3801;0.9675;
1249.5000;0.3793;0.9675;
1249.8000;0.3810;0.9626;
1250.1000;0.3818;0.9650;
1250.4000;0.3810;0.9601;
1250.7000;0.3810;0.9601;
1251.0000;0.3785;0.9527;
1251.3000;0.3801;0.9527;
1251.6000;0.3785;0.9527;
1251.9000;0.3793;0.9626;
1252.2000;0.3801;0.9626;
1252.5000;0.3785;0.9626;
1252.8000;0.3810;0.9724;
1253.1000;0.3793;0.9675;
1253.4000;0.3810;0.9650;
1253.7000;0.3801;0.9724;
1254.0000;0.3826;0.9626;
1254.3000;0.3826;0.9650;
1254.6000;0.3810;0.9650;
1254.9000;0.3810;0.9675;
1255.2000;0.3801;0.9798;
1255.5000;0.3834;0.9798;
1255.8000;0.3818;0.9749;
1256.1000;0.3761;0.9724;
1256.4000;0.3793;0.9872;
1256.7000;0.3810;0.9872;
1257.0000;0.3818;0.9823;
1257.3000;0.3810;0.9848;
1257.6000;0.3793;0.9798;
1257.9000;0.3818;0.9823;
1258.2000;0.3801;0.9823;
1258.5000;0.3801;0.9749;
1258.8000;0.3785;0.9650;
1259.1000;0.3834;0.9774;
1259.4000;0.3858;0.9872;
1259.7000;0.3785;0.9650;
1260.0000;0.3793;0.9576;
1260.3000;0.3826;0.9576;
1260.6000;0.3801;0.9650;
1260.9000;0.3793;0.9576;
1261.2000;0.3793;0.9552;
1261.5000;0.3801;0.9576;
1261.8000;0.3785;0.9576;
1262.1000;0.3785;0.9626;
1262.4000;0.3744;0.9453;
1262.7000;0.3818;0.9724;
1263.0000;0.3801;0.9798;
1263.3000;0.3818;0.9922;
1263.6000;0.3818;0.9897;
1263.9000;0.3793;0.9872;
1264.2000;0.3801;0.9922;
1264.5000;0.3818;0.9872;
1264.8000;0.3753;0.9650;
1265.1000;0.3793;0.9798;
1265.4000;0.3704;0.9477;
1265.7000;0.3801;0.9798;
1266.0000;0.3785;0.9774;
1266.3000;0.3818;0.9823;
1266.6000;0.3801;0.9774;
1266.9000;0.3810;0.9774;
1267.2000;0.3810;0.9823;
1267.5000;0.3810;0.9798;
1267.8000;0.3801;0.9823;
1268.1000;0.3785;0.9823;
1268.4000;0.3801;0.9774;
1268.7000;0.3826;0.9848;
1269.0000;0.3769;0.9650;
1269.3000;0.3793;0.9650;
1269.6000;0.3769;0.9527;
1269.9000;0.3785;0.9502;
1270.2000;0.3793;0.9527;
1270.5000;0.3801;0.9552;
1270.8000;0.3793;0.9527;
1271.1000;0.3785;0.9502;
1271.4000;0.3801;0.9576;
1271.7000;0.3818;0.9650;
1272.0000;0.3777;0.9552;
1272.3000;0.3810;0.9724;
1272.6000;0.3801;0.9700;
1272.9000;0.3818;0.9749;
1273.2000;0.3696;0.9453;
1273.5000;0.3810;0.9774;
1273.8000;0.3801;0.9749;
1274.1000;0.3793;0.9724;
1274.4000;0.3801;0.9700;
1274.7000;0.3801;0.9823;
1275.0000;0.3810;0.9848;
1275.3000;0.3801;0.9922;
1275.6000;0.3793;0.9922;
1275.9000;0.3810;0.9872;
1276.2000;0.3826;0.9922;
1276.5000;0.3810;0.9848;
1276.8000;0.3818;0.9798;
1277.1000;0.3801;0.9724;
1277.4000;0.3818;0.9724;
1277.7000;0.3818;0.9749;
1278.0000;0.3801;0.9724;
1278.3000;0.3753;0.9675;
1278.6000;0.3826;0.9823;
1278.9000;0.3777;0.9724;
1279.2000;0.3826;0.9823;
1279.5000;0.3801;0.9798;
1279.8000;0.3793;0.9675;
1280.1000;0.3891;0.9897;
1280.4000;0.3850;0.9872;
1280.7000;0.3801;0.9675;
1281.0000;0.3736;0.9453;
1281.3000;0.3810;0.9724;
1281.6000;0.3720;0.9502;
1281.9000;0.3891;0.9971;
1282.2000;0.3801;0.9848;
1282.5000;0.3785;0.9774;
1282.8000;0.3818;0.9749;
1283.1000;0.3801;0.9675;
1283.4000;0.3793;0.9700;
1283.7000;0.3793;0.9675;
1284.0000;0.3826;0.9774;
1284.3000;0.3769;0.9774;
1284.6000;0.3793;0.9774;
1284.9000;0.3785;0.9724;
1285.2000;0.3801;0.9675;
1285.5000;0.3785;0.9650;
1285.8000;0.3801;0.9675;
1286.1000;0.3810;0.9724;
1286.4000;0.3793;0.9749;
1286.7000;0.3818;0.9724;
1287.0000;0.3801;0.9774;
1287.3000;0.3842;0.9872;
1287.6000;0.3785;0.9749;
1287.9000;0.3810;0.9872;
1288.2000;0.3793;0.9872;
1288.5000;0.3801;0.9922;
1288.8000;0.3801;0.9872;
1289.1000;0.3785;0.9922;
1289.4000;0.3826;0.9922;
1289.7000;0.3801;0.9922;
1290.0000;0.3801;0.9971;
1290.3000;0.3810;0.9996;
1290.6000;0.3834;1.0045;
1290.9000;0.3818;0.9922;
1291.2000;0.3761;0.9798;
1291.5000;0.3785;0.9823;
1291.8000;0.3793;0.9724;
1292.1000;0.3818;0.9798;
1292.4000;0.3810;0.9798;
1292.7000;0.3785;0.9700;
1293.0000;0.3842;0.9823;
1293.3000;0.3826;0.9823;
1293.6000;0.3801;0.9774;
1293.9000;0.3793;0.9823;
1294.2000;0.3712;0.9675;
1294.5000;0.3801;0.9946;
1294.8000;0.3818;0.9922;
1295.1000;0.3761;0.9650;
1295.4000;0.3834;0.9848;
1295.7000;0.3801;0.9823;
1296.0000;0.3826;0.9897;
1296.3000;0.3793;0.9798;
1296.6000;0.3769;0.9724;
1296.9000;0.3818;0.9872;
1297.2000;0.3818;0.9823;
1297.5000;0.3801;0.9675;
1297.8000;0.3785;0.9774;
1298.1000;0.3793;0.9823;
1298.4000;0.3801;0.9823;
1298.7000;0.3810;0.9872;
1299.0000;0.3777;0.9798;
1299.3000;0.3834;0.9946;
1299.6000;0.3818;0.9872;
1299.9000;0.3850;0.9872;
1300.2000;0.3769;0.9552;
1300.5000;0.3777;0.9601;
1300.8000;0.3810;0.9601;
1301.1000;0.3793;0.9626;
1301.4000;0.3810;0.9650;
1301.7000;0.3793;0.9626;
1302.0000;0.3785;0.9724;
1302.3000;0.3744;0.9724;
1302.6000;0.3867;1.0094;
1302.9000;0.3810;0.9872;
1303.2000;0.3818;0.9872;
1303.5000;0.3818;0.9872;
1303.8000;0.3850;0.9946;
1304.1000;0.3818;0.9848;
1304.4000;0.3761;0.9749;
1304.7000;0.3793;0.9848;
1305.0000;0.3785;0.9774;
1305.3000;0.3793;0.9823;
1305.6000;0.3793;0.9798;
1305.9000;0.3875;0.9946;
1306.2000;0.3810;0.9872;
1306.5000;0.3785;0.9774;
1306.8000;0.3793;0.9798;
1307.1000;0.3785;0.9798;
1307.4000;0.3793;0.9946;
1307.7000;0.3810;0.9946;
1308.0000;0.3801;0.9897;
1308.3000;0.3826;0.9848;
1308.6000;0.3826;0.9774;
1308.9000;0.3810;0.9774;
1309.2000;0.3842;0.9848;
1309.5000;0.3801;0.9601;
1309.8000;0.3818;0.9675;
1310.1000;0.3810;0.9749;
1310.4000;0.3801;0.9848;
1310.7000;0.3801;0.9872;
1311.0000;0.3793;0.9897;
1311.3000;0.3793;0.9971;
1311.6000;0.3801;0.9971;
1311.9000;0.3769;0.9946;
1312.2000;0.3818;1.0045;
1312.5000;0.3801;0.9946;
1312.8000;0.3793;0.9946;
1313.1000;0.3801;0.9922;
1313.4000;0.3810;0.9922;
1313.7000;0.3793;0.9872;
1314.0000;0.3818;0.9996;
1314.3000;0.3826;0.9946;
1314.6000;0.3810;0.9971;
1314.9000;0.3793;0.9971;
1315.2000;0.3793;0.9971;
1315.5000;0.3810;1.0020;
1315.8000;0.3801;0.9971;
1316.1000;0.3769;0.9872;
1316.4000;0.3818;0.9922;
1316.7000;0.3810;0.9996;
1317.0000;0.3753;0.9774;
1317.3000;0.3785;0.9848;
1317.6000;0.3810;0.9872;
1317.9000;0.3818;0.9823;
1318.2000;0.3883;0.9971;
1318.5000;0.3801;0.9749;
1318.8000;0.3801;0.9798;
1319.1000;0.3818;0.9798;
1319.4000;0.3793;0.9675;
1319.7000;0.3793;0.9601;
1320.0000;0.3801;0.9576;
1320.3000;0.3736;0.9453;
1320.6000;0.3810;0.9675;
1320.9000;0.3826;0.9798;
1321.2000;0.3810;0.9823;
1321.5000;0.3753;0.9650;
1321.8000;0.3810;0.9774;
1322.1000;0.3818;0.9848;
1322.4000;0.3810;0.9897;
1322.7000;0.3810;0.9848;
1323.0000;0.3818;0.9872;
1323.3000;0.3793;0.9823;
1323.6000;0.3801;0.9823;
1323.9000;0.3818;0.9823;
1324.2000;0.3801;0.9774;
1324.5000;0.3818;0.9774;
1324.8000;0.3810;0.9774;
1325.1000;0.3793;0.9749;
1325.4000;0.3801;0.9774;
1325.7000;0.3801;0.9823;
1326.0000;0.3801;0.9823;
1326.3000;0.3850;0.9922;
1326.6000;0.3810;0.9922;
1326.9000;0.3818;0.9872;
1327.2000;0.3826;0.9946;
1327.5000;0.3818;1.0020;
1327.8000;0.3801;0.9946;
1328.1000;0.3810;0.9946;
1328.4000;0.3818;0.9922;
1328.7000;0.3801;0.9897;
1329.0000;0.3793;0.9774;
1329.3000;0.3801;0.9749;
1329.6000;0.3777;0.9749;
1329.9000;0.3793;0.9774;
1330.2000;0.3793;0.9749;
1330.5000;0.3777;0.9650;
1330.8000;0.3818;0.9823;
1331.1000;0.3801;0.9749;
1331.4000;0.3793;0.9675;
1331.7000;0.3801;0.9675;
1332.0000;0.3793;0.9774;
1332.3000;0.3818;0.9774;
1332.6000;0.3818;0.9749;
1332.9000;0.3785;0.9724;
1333.2000;0.3801;0.9774;
1333.5000;0.3785;0.9650;
1333.8000;0.3801;0.9700;
1334.1000;0.3801;0.9749;
1334.4000;0.3801;0.9774;
1334.7000;0.3785;0.9774;
1335.0000;0.3801;0.9774;
1335.3000;0.3818;0.9823;
1335.6000;0.3801;0.9823;
1335.9000;0.3801;0.9749;
1336.2000;0.3744;0.9601;
1336.5000;0.3826;0.9798;
1336.8000;0.3785;0.9798;
1337.1000;0.3818;0.9971;
1337.4000;0.3785;0.9848;
1337.7000;0.3793;0.9823;
1338.0000;0.3818;0.9922;
1338.3000;0.3785;0.9724;
1338.6000;0.3793;0.9823;
1338.9000;0.3834;0.9897;
1339.2000;0.3810;0.9872;
1339.5000;0.3785;0.9848;
1339.8000;0.3801;0.9897;
1340.1000;0.3769;0.9848;
1340.4000;0.3744;0.9700;
1340.7000;0.3793;0.9774;
1341.0000;0.3793;0.9749;
1341.3000;0.3891;0.9946;
1341.6000;0.3801;0.9798;
1341.9000;0.3801;0.9823;
1342.2000;0.3810;0.9872;
1342.5000;0.3810;0.9897;
1342.8000;0.3777;0.9848;
1343.1000;0.3801;0.9823;
1343.4000;0.3793;0.9872;
1343.7000;0.3810;0.9946;
1344.0000;0.3793;0.9848;
1344.3000;0.3801;0.9823;
1344.6000;0.3810;0.9848;
1344.9000;0.3810;0.9872;
1345.2000;0.3818;0.9798;
1345.5000;0.3801;0.9724;
1345.8000;0.3801;0.9700;
1346.1000;0.3801;0.9724;
1346.4000;0.3801;0.9749;
1346.7000;0.3818;0.9823;
1347.0000;0.3801;0.9798;
1347.3000;0.3810;0.9774;
1347.6000;0.3793;0.9774;
1347.9000;0.3785;0.9798;
1348.2000;0.3785;0.9848;
1348.5000;0.3793;0.9823;
1348.8000;0.3801;0.9774;
1349.1000;0.3801;0.9823;
1349.4000;0.3810;0.9872;
1349.7000;0.3777;0.9823;
1350.0000;0.3801;0.9798;
1350.3000;0.3858;0.9946;
1350.6000;0.3810;0.9848;
1350.9000;0.3801;0.9823;
1351.2000;0.3785;0.9749;
1351.5000;0.3793;0.9798;
1351.8000;0.3793;0.9749;
1352.1000;0.3728;0.9601;
1352.4000;0.3818;0.9749;
1352.7000;0.3810;0.9774;
1353.0000;0.3801;0.9749;
1353.3000;0.3801;0.9774;
1353.6000;0.3801;0.9749;
1353.9000;0.3793;0.9774;
1354.2000;0.3818;0.9872;
1354.5000;0.3818;0.9897;
1354.8000;0.3769;0.9872;
1355.1000;0.3907;1.0317;
1355.4000;0.3793;0.9996;
1355.7000;0.3818;1.0020;
1356.0000;0.3801;0.9971;
1356.3000;0.3769;0.9922;
1356.6000;0.3810;0.9946;
1356.9000;0.3810;0.9946;
1357.2000;0.3818;1.0094;
1357.5000;0.3810;1.0045;
1357.8000;0.3801;0.9996;
1358.1000;0.3810;0.9996;
1358.4000;0.3850;1.0070;
1358.7000;0.3793;1.0045;
1359.0000;0.3777;0.9996;
1359.3000;0.3777;0.9922;
1359.6000;0.3810;0.9971;
1359.9000;0.3801;0.9946;
1360.2000;0.3736;0.9946;
1360.5000;0.3810;1.0169;
1360.8000;0.3801;1.0169;
1361.1000;0.3834;1.0144;
1361.4000;0.3818;0.9946;
1361.7000;0.3810;0.9971;
1362.0000;0.3834;1.0045;
1362.3000;0.3801;0.9971;
1362.6000;0.3810;0.9848;
1362.9000;0.3801;0.9823;
1363.2000;0.3834;0.9823;
1363.5000;0.3810;0.9872;
1363.8000;0.3810;0.9946;
1364.1000;0.3785;0.9946;
1364.4000;0.3801;0.9946;
1364.7000;0.3793;0.9971;
1365.0000;0.3793;0.9848;
1365.3000;0.3793;0.9848;
1365.6000;0.3810;0.9946;
1365.9000;0.3810;0.9872;
1366.2000;0.3826;0.9848;
1366.5000;0.3704;0.9601;
1366.8000;0.3858;0.9971;
1367.1000;0.3842;0.9971;
1367.4000;0.3801;0.9946;
1367.7000;0.3801;0.9946;
1368.0000;0.3785;0.9872;
1368.3000;0.3810;0.9971;
1368.6000;0.3785;0.9971;
1368.9000;0.3793;0.9971;
1369.2000;0.3810;0.9996;
1369.5000;0.3777;0.9897;
1369.8000;0.3801;1.0070;
1370.1000;0.3810;1.0070;
1370.4000;0.3777;0.9996;
1370.7000;0.3785;0.9946;
1371.0000;0.3793;0.9922;
1371.3000;0.3818;0.9946;
1371.6000;0.3793;0.9872;
1371.9000;0.3850;1.0020;
1372.2000;0.3785;0.9774;
1372.5000;0.3810;0.9848;
1372.8000;0.3842;0.9872;
1373.1000;0.3793;0.9897;
1373.4000;0.3810;0.9897;
1373.7000;0.3810;0.9946;
1374.0000;0.3810;0.9897;
1374.3000;0.3793;0.9897;
1374.6000;0.3793;0.9897;
1374.9000;0.3801;0.9798;
1375.2000;0.3810;0.9774;
1375.5000;0.3801;0.9724;
1375.8000;0.3810;0.9601;
1376.1000;0.3810;0.9650;
1376.4000;0.3826;0.9798;
1376.7000;0.3801;0.9650;
1377.0000;0.3810;0.9675;
1377.3000;0.3801;0.9749;
1377.6000;0.3793;0.9774;
1377.9000;0.3818;0.9848;
1378.2000;0.3834;0.9848;
1378.5000;0.3826;0.9823;
1378.8000;0.3818;0.9700;
1379.1000;0.3810;0.9700;
1379.4000;0.3810;0.9675;
1379.7000;0.3818;0.9749;
1380.0000;0.3736;0.9626;
1380.3000;0.3810;0.9774;
1380.6000;0.3810;0.9700;
1380.9000;0.3899;0.9946;
1381.2000;0.3785;0.9675;
1381.5000;0.3842;0.9749;
1381.8000;0.3810;0.9601;
1382.1000;0.3818;0.9626;
1382.4000;0.3818;0.9700;
1382.7000;0.3801;0.9675;
1383.0000;0.3818;0.9749;
1383.3000;0.3810;0.9798;
1383.6000;0.3793;0.9700;
1383.9000;0.3801;0.9798;
1384.2000;0.3818;0.9897;
1384.5000;0.3793;0.9922;
1384.8000;0.3826;0.9946;
1385.1000;0.3777;0.9774;
1385.4000;0.3810;0.9700;
1385.7000;0.3834;0.9675;
1386.0000;0.3777;0.9576;
1386.3000;0.3785;0.9552;
1386.6000;0.3810;0.9749;
1386.9000;0.3801;0.9675;
1387.2000;0.3801;0.9724;
1387.5000;0.3777;0.9626;
1387.8000;0.3801;0.9700;
1388.1000;0.3818;0.9774;
1388.4000;0.3761;0.9626;
1388.7000;0.3801;0.9724;
1389.0000;0.3777;0.9576;
1389.3000;0.3891;0.9872;
1389.6000;0.3810;0.9626;
1389.9000;0.3793;0.9700;
1390.2000;0.3777;0.9576;
1390.5000;0.3810;0.9626;
1390.8000;0.3801;0.9576;
1391.1000;0.3793;0.9700;
1391.4000;0.3842;0.9872;
1391.7000;0.3736;0.9576;
1392.0000;0.3818;0.9798;
1392.3000;0.3793;0.9798;
1392.6000;0.3793;0.9798;
1392.9000;0.3875;1.0020;
1393.2000;0.3801;0.9774;
1393.5000;0.3801;0.9848;
1393.8000;0.3793;0.9774;
1394.1000;0.3810;0.9848;
1394.4000;0.3826;0.9872;
1394.7000;0.3785;0.9798;
1395.0000;0.3810;0.9848;
1395.3000;0.3834;0.9971;
1395.6000;0.3793;0.9848;
1395.9000;0.3818;0.9798;
1396.2000;0.3810;0.9823;
1396.5000;0.3793;0.9823;
1396.8000;0.3826;0.9971;
1397.1000;0.3793;0.9996;
1397.4000;0.3834;1.0094;
1397.7000;0.3810;1.0020;
1398.0000;0.3769;0.9922;
1398.3000;0.3785;0.9922;
1398.6000;0.3875;1.0045;
1398.9000;0.3810;0.9823;
1399.2000;0.3801;0.9848;
1399.5000;0.3883;1.0045;
1399.8000;0.3826;0.9897;
