time/ms;Fluo/V;P700 deltaI/I x10³;
-199.8000;0.4794;1.0514;
-199.5000;0.4786;1.0440;
-199.2000;0.4811;1.0489;
-198.9000;0.4786;1.0465;
-198.6000;0.4778;1.0440;
-198.3000;0.4778;1.0489;
-198.0000;0.4778;1.0539;
-197.7000;0.4794;1.0514;
-197.4000;0.4770;1.0391;
-197.1000;0.4794;1.0415;
-196.8000;0.4794;1.0415;
-196.5000;0.4713;1.0218;
-196.2000;0.4786;1.0366;
-195.9000;0.4770;1.0317;
-195.6000;0.4778;1.0415;
-195.3000;0.4794;1.0465;
-195.0000;0.4778;1.0440;
-194.7000;0.4770;1.0267;
-194.4000;0.4786;1.0267;
-194.1000;0.4803;1.0366;
-193.8000;0.4803;1.0366;
-193.5000;0.4778;1.0292;
-193.2000;0.4754;1.0218;
-192.9000;0.4803;1.0415;
-192.6000;0.4778;1.0218;
-192.3000;0.4794;1.0391;
-192.0000;0.4794;1.0415;
-191.7000;0.4737;1.0218;
-191.4000;0.4794;1.0366;
-191.1000;0.4811;1.0366;
-190.8000;0.4762;1.0267;
-190.5000;0.4786;1.0267;
-190.2000;0.4860;1.0440;
-189.9000;0.4811;1.0243;
-189.6000;0.4746;1.0169;
-189.3000;0.4786;1.0243;
-189.0000;0.4786;1.0341;
-188.7000;0.4778;1.0317;
-188.4000;0.4794;1.0391;
-188.1000;0.4786;1.0317;
-187.8000;0.4778;1.0317;
-187.5000;0.4786;1.0317;
-187.2000;0.4803;1.0218;
-186.9000;0.4851;1.0317;
-186.6000;0.4786;1.0218;
-186.3000;0.4786;1.0292;
-186.0000;0.4778;1.0267;
-185.7000;0.4794;1.0317;
-185.4000;0.4778;1.0243;
-185.1000;0.4786;1.0193;
-184.8000;0.4778;1.0267;
-184.5000;0.4900;1.0613;
-184.2000;0.4754;1.0267;
-183.9000;0.4819;1.0415;
-183.6000;0.4803;1.0366;
-183.3000;0.4754;1.0218;
-183.0000;0.4786;1.0341;
-182.7000;0.4803;1.0243;
-182.4000;0.4770;1.0267;
-182.1000;0.4778;1.0317;
-181.8000;0.4794;1.0415;
-181.5000;0.4786;1.0391;
-181.2000;0.4803;1.0440;
-180.9000;0.4762;1.0341;
-180.6000;0.4811;1.0415;
-180.3000;0.4786;1.0465;
-180.0000;0.4794;1.0440;
-179.7000;0.4794;1.0489;
-179.4000;0.4754;1.0415;
-179.1000;0.4811;1.0563;
-178.8000;0.4803;1.0514;
-178.5000;0.4811;1.0465;
-178.2000;0.4794;1.0465;
-177.9000;0.4762;1.0415;
-177.6000;0.4811;1.0489;
-177.3000;0.4713;1.0267;
-177.0000;0.4803;1.0415;
-176.7000;0.4778;1.0366;
-176.4000;0.4737;1.0169;
-176.1000;0.4713;1.0094;
-175.8000;0.4803;1.0366;
-175.5000;0.4754;1.0292;
-175.2000;0.4778;1.0391;
-174.9000;0.4672;1.0070;
-174.6000;0.4794;1.0341;
-174.3000;0.4819;1.0489;
-174.0000;0.4803;1.0514;
-173.7000;0.4770;1.0514;
-173.4000;0.4778;1.0588;
-173.1000;0.4786;1.0613;
-172.8000;0.4786;1.0687;
-172.5000;0.4811;1.0810;
-172.2000;0.4851;1.0810;
-171.9000;0.4811;1.0687;
-171.6000;0.4762;1.0563;
-171.3000;0.4721;1.0391;
-171.0000;0.4803;1.0588;
-170.7000;0.4778;1.0514;
-170.4000;0.4794;1.0539;
-170.1000;0.4794;1.0613;
-169.8000;0.4794;1.0637;
-169.5000;0.4786;1.0588;
-169.2000;0.4778;1.0588;
-168.9000;0.4770;1.0563;
-168.6000;0.4786;1.0613;
-168.3000;0.4762;1.0489;
-168.0000;0.4803;1.0489;
-167.7000;0.4786;1.0539;
-167.4000;0.4803;1.0613;
-167.1000;0.4811;1.0563;
-166.8000;0.4786;1.0637;
-166.5000;0.4778;1.0588;
-166.2000;0.4754;1.0563;
-165.9000;0.4770;1.0514;
-165.6000;0.4803;1.0588;
-165.3000;0.4746;1.0539;
-165.0000;0.4786;1.0563;
-164.7000;0.4811;1.0613;
-164.4000;0.4778;1.0514;
-164.1000;0.4803;1.0588;
-163.8000;0.4778;1.0465;
-163.5000;0.4778;1.0440;
-163.2000;0.4803;1.0465;
-162.9000;0.4786;1.0489;
-162.6000;0.4811;1.0539;
-162.3000;0.4803;1.0465;
-162.0000;0.4803;1.0489;
-161.7000;0.4770;1.0465;
-161.4000;0.4794;1.0440;
-161.1000;0.4786;1.0366;
-160.8000;0.4803;1.0465;
-160.5000;0.4794;1.0489;
-160.2000;0.4794;1.0539;
-159.9000;0.4778;1.0514;
-159.6000;0.4843;1.0712;
-159.3000;0.4770;1.0539;
-159.0000;0.4908;1.0810;
-158.7000;0.4786;1.0563;
-158.4000;0.4794;1.0563;
-158.1000;0.4754;1.0489;
-157.8000;0.4851;1.0736;
-157.5000;0.4794;1.0563;
-157.2000;0.4803;1.0539;
-156.9000;0.4786;1.0440;
-156.6000;0.4811;1.0514;
-156.3000;0.4827;1.0637;
-156.0000;0.4770;1.0514;
-155.7000;0.4778;1.0489;
-155.4000;0.4811;1.0440;
-155.1000;0.4737;1.0243;
-154.8000;0.4770;1.0366;
-154.5000;0.4762;1.0391;
-154.2000;0.4794;1.0465;
-153.9000;0.4941;1.0835;
-153.6000;0.4811;1.0465;
-153.3000;0.4754;1.0440;
-153.0000;0.4778;1.0489;
-152.7000;0.4786;1.0489;
-152.4000;0.4803;1.0514;
-152.1000;0.4746;1.0341;
-151.8000;0.4656;1.0169;
-151.5000;0.4884;1.0884;
-151.2000;0.4794;1.0662;
-150.9000;0.4794;1.0637;
-150.6000;0.4786;1.0588;
-150.3000;0.4835;1.0662;
-150.0000;0.4778;1.0465;
-149.7000;0.4786;1.0465;
-149.4000;0.4778;1.0489;
-149.1000;0.4786;1.0539;
-148.8000;0.4770;1.0366;
-148.5000;0.4892;1.0687;
-148.2000;0.4794;1.0415;
-147.9000;0.4794;1.0440;
-147.6000;0.4860;1.0637;
-147.3000;0.4811;1.0465;
-147.0000;0.4786;1.0415;
-146.7000;0.4689;1.0193;
-146.4000;0.4778;1.0440;
-146.1000;0.4811;1.0563;
-145.8000;0.4794;1.0440;
-145.5000;0.4811;1.0539;
-145.2000;0.4778;1.0440;
-144.9000;0.4835;1.0613;
-144.6000;0.4803;1.0415;
-144.3000;0.4786;1.0292;
-144.0000;0.4770;1.0292;
-143.7000;0.4786;1.0391;
-143.4000;0.4811;1.0489;
-143.1000;0.4786;1.0391;
-142.8000;0.4794;1.0391;
-142.5000;0.4786;1.0366;
-142.2000;0.4762;1.0415;
-141.9000;0.4786;1.0465;
-141.6000;0.4754;1.0366;
-141.3000;0.4786;1.0440;
-141.0000;0.4794;1.0489;
-140.7000;0.4770;1.0267;
-140.4000;0.4770;1.0292;
-140.1000;0.4803;1.0341;
-139.8000;0.4803;1.0391;
-139.5000;0.4770;1.0243;
-139.2000;0.4746;1.0193;
-138.9000;0.4770;1.0267;
-138.6000;0.4786;1.0415;
-138.3000;0.4786;1.0415;
-138.0000;0.4819;1.0341;
-137.7000;0.4786;1.0243;
-137.4000;0.4803;1.0317;
-137.1000;0.4778;1.0292;
-136.8000;0.4770;1.0292;
-136.5000;0.4746;1.0144;
-136.2000;0.4681;0.9971;
-135.9000;0.4786;1.0243;
-135.6000;0.4803;1.0292;
-135.3000;0.4835;1.0489;
-135.0000;0.4786;1.0415;
-134.7000;0.4778;1.0440;
-134.4000;0.4811;1.0366;
-134.1000;0.4803;1.0366;
-133.8000;0.4803;1.0317;
-133.5000;0.4794;1.0243;
-133.2000;0.4762;1.0045;
-132.9000;0.4811;1.0193;
-132.6000;0.4778;1.0119;
-132.3000;0.4786;1.0169;
-132.0000;0.4794;1.0193;
-131.7000;0.4762;1.0119;
-131.4000;0.4786;1.0169;
-131.1000;0.4778;1.0144;
-130.8000;0.4778;1.0243;
-130.5000;0.4786;1.0193;
-130.2000;0.4803;1.0243;
-129.9000;0.4786;1.0267;
-129.6000;0.4794;1.0292;
-129.3000;0.4892;1.0687;
-129.0000;0.4835;1.0539;
-128.7000;0.4746;1.0341;
-128.4000;0.4794;1.0440;
-128.1000;0.4819;1.0465;
-127.8000;0.4803;1.0391;
-127.5000;0.4786;1.0366;
-127.2000;0.4786;1.0366;
-126.9000;0.4786;1.0366;
-126.6000;0.4843;1.0514;
-126.3000;0.4778;1.0415;
-126.0000;0.4786;1.0440;
-125.7000;0.4827;1.0489;
-125.4000;0.4811;1.0366;
-125.1000;0.4794;1.0366;
-124.8000;0.4770;1.0317;
-124.5000;0.4770;1.0218;
-124.2000;0.4811;1.0243;
-123.9000;0.4803;1.0366;
-123.6000;0.4803;1.0465;
-123.3000;0.4811;1.0514;
-123.0000;0.4786;1.0489;
-122.7000;0.4835;1.0687;
-122.4000;0.4786;1.0563;
-122.1000;0.4729;1.0366;
-121.8000;0.4762;1.0514;
-121.5000;0.4770;1.0440;
-121.2000;0.4786;1.0440;
-120.9000;0.4786;1.0440;
-120.6000;0.4819;1.0613;
-120.3000;0.4786;1.0539;
-120.0000;0.4827;1.0588;
-119.7000;0.4786;1.0514;
-119.4000;0.4778;1.0489;
-119.1000;0.4835;1.0637;
-118.8000;0.4794;1.0465;
-118.5000;0.4778;1.0465;
-118.2000;0.4794;1.0563;
-117.9000;0.4778;1.0489;
-117.6000;0.4803;1.0637;
-117.3000;0.4803;1.0613;
-117.0000;0.4778;1.0415;
-116.7000;0.4786;1.0415;
-116.4000;0.4803;1.0465;
-116.1000;0.4770;1.0292;
-115.8000;0.4884;1.0563;
-115.5000;0.4778;1.0267;
-115.2000;0.4868;1.0465;
-114.9000;0.4819;1.0391;
-114.6000;0.4803;1.0415;
-114.3000;0.4737;1.0267;
-114.0000;0.4778;1.0465;
-113.7000;0.4786;1.0415;
-113.4000;0.4794;1.0391;
-113.1000;0.4754;1.0218;
-112.8000;0.4778;1.0218;
-112.5000;0.4729;1.0169;
-112.2000;0.4786;1.0341;
-111.9000;0.4803;1.0292;
-111.6000;0.4851;1.0440;
-111.3000;0.4786;1.0193;
-111.0000;0.4786;1.0267;
-110.7000;0.4762;1.0243;
-110.4000;0.4770;1.0317;
-110.1000;0.4778;1.0391;
-109.8000;0.4803;1.0489;
-109.5000;0.4778;1.0391;
-109.2000;0.4794;1.0391;
-108.9000;0.4794;1.0440;
-108.6000;0.4786;1.0514;
-108.3000;0.4786;1.0514;
-108.0000;0.4794;1.0489;
-107.7000;0.4786;1.0415;
-107.4000;0.4794;1.0514;
-107.1000;0.4794;1.0440;
-106.8000;0.4803;1.0440;
-106.5000;0.4786;1.0391;
-106.2000;0.4827;1.0539;
-105.9000;0.4827;1.0563;
-105.6000;0.4794;1.0489;
-105.3000;0.4786;1.0415;
-105.0000;0.4778;1.0366;
-104.7000;0.4786;1.0415;
-104.4000;0.4786;1.0415;
-104.1000;0.4803;1.0539;
-103.8000;0.4778;1.0440;
-103.5000;0.4794;1.0489;
-103.2000;0.4803;1.0415;
-102.9000;0.4819;1.0366;
-102.6000;0.4786;1.0366;
-102.3000;0.4794;1.0465;
-102.0000;0.4811;1.0514;
-101.7000;0.4811;1.0613;
-101.4000;0.4770;1.0514;
-101.1000;0.4794;1.0539;
-100.8000;0.4811;1.0613;
-100.5000;0.4794;1.0613;
-100.2000;0.4786;1.0613;
-99.9000;0.4778;1.0563;
-99.6000;0.4754;1.0465;
-99.3000;0.4819;1.0662;
-99.0000;0.4778;1.0563;
-98.7000;0.4770;1.0489;
-98.4000;0.4770;1.0514;
-98.1000;0.4794;1.0613;
-97.8000;0.4737;1.0514;
-97.5000;0.4803;1.0712;
-97.2000;0.4770;1.0637;
-96.9000;0.4860;1.0860;
-96.6000;0.4868;1.0761;
-96.3000;0.4803;1.0563;
-96.0000;0.4770;1.0539;
-95.7000;0.4803;1.0563;
-95.4000;0.4811;1.0489;
-95.1000;0.4794;1.0465;
-94.8000;0.4778;1.0366;
-94.5000;0.4786;1.0341;
-94.2000;0.4811;1.0366;
-93.9000;0.4786;1.0292;
-93.6000;0.4778;1.0415;
-93.3000;0.4786;1.0465;
-93.0000;0.4794;1.0489;
-92.7000;0.4770;1.0465;
-92.4000;0.4803;1.0489;
-92.1000;0.4786;1.0539;
-91.8000;0.4778;1.0539;
-91.5000;0.4794;1.0613;
-91.2000;0.4803;1.0514;
-90.9000;0.4803;1.0489;
-90.6000;0.4803;1.0514;
-90.3000;0.4794;1.0440;
-90.0000;0.4794;1.0563;
-89.7000;0.4786;1.0563;
-89.4000;0.4786;1.0563;
-89.1000;0.4794;1.0539;
-88.8000;0.4794;1.0514;
-88.5000;0.4746;1.0489;
-88.2000;0.4778;1.0465;
-87.9000;0.4811;1.0514;
-87.6000;0.4803;1.0539;
-87.3000;0.4803;1.0563;
-87.0000;0.4786;1.0514;
-86.7000;0.4778;1.0588;
-86.4000;0.4811;1.0712;
-86.1000;0.4762;1.0563;
-85.8000;0.4794;1.0588;
-85.5000;0.4778;1.0588;
-85.2000;0.4786;1.0662;
-84.9000;0.4778;1.0613;
-84.6000;0.4786;1.0563;
-84.3000;0.4803;1.0563;
-84.0000;0.4786;1.0440;
-83.7000;0.4786;1.0489;
-83.4000;0.4803;1.0563;
-83.1000;0.4794;1.0514;
-82.8000;0.4803;1.0514;
-82.5000;0.4803;1.0489;
-82.2000;0.4811;1.0415;
-81.9000;0.4786;1.0415;
-81.6000;0.4770;1.0415;
-81.3000;0.4835;1.0588;
-81.0000;0.4794;1.0440;
-80.7000;0.4794;1.0465;
-80.4000;0.4803;1.0514;
-80.1000;0.4786;1.0539;
-79.8000;0.4803;1.0563;
-79.5000;0.4754;1.0440;
-79.2000;0.4754;1.0366;
-78.9000;0.4811;1.0539;
-78.6000;0.4729;1.0218;
-78.3000;0.4770;1.0341;
-78.0000;0.4794;1.0341;
-77.7000;0.4778;1.0267;
-77.4000;0.4754;1.0144;
-77.1000;0.4778;1.0169;
-76.8000;0.4762;1.0094;
-76.5000;0.4770;1.0070;
-76.2000;0.4762;1.0193;
-75.9000;0.4786;1.0169;
-75.6000;0.4778;1.0193;
-75.3000;0.4746;1.0169;
-75.0000;0.4794;1.0218;
-74.7000;0.4827;1.0341;
-74.4000;0.4811;1.0317;
-74.1000;0.4803;1.0366;
-73.8000;0.4819;1.0391;
-73.5000;0.4803;1.0366;
-73.2000;0.4786;1.0292;
-72.9000;0.4786;1.0218;
-72.6000;0.4786;1.0292;
-72.3000;0.4868;1.0588;
-72.0000;0.4803;1.0440;
-71.7000;0.4794;1.0440;
-71.4000;0.4794;1.0317;
-71.1000;0.4794;1.0366;
-70.8000;0.4794;1.0415;
-70.5000;0.4786;1.0366;
-70.2000;0.4786;1.0465;
-69.9000;0.4794;1.0539;
-69.6000;0.4803;1.0539;
-69.3000;0.4778;1.0489;
-69.0000;0.4786;1.0489;
-68.7000;0.4786;1.0440;
-68.4000;0.4794;1.0440;
-68.1000;0.4851;1.0539;
-67.8000;0.4786;1.0341;
-67.5000;0.4835;1.0341;
-67.2000;0.4803;1.0292;
-66.9000;0.4794;1.0341;
-66.6000;0.4786;1.0267;
-66.3000;0.4762;1.0243;
-66.0000;0.4786;1.0317;
-65.7000;0.4786;1.0292;
-65.4000;0.4786;1.0267;
-65.1000;0.4827;1.0440;
-64.8000;0.4786;1.0391;
-64.5000;0.4786;1.0341;
-64.2000;0.4786;1.0415;
-63.9000;0.4770;1.0366;
-63.6000;0.4770;1.0341;
-63.3000;0.4786;1.0317;
-63.0000;0.4803;1.0415;
-62.7000;0.4786;1.0440;
-62.4000;0.4803;1.0588;
-62.1000;0.4794;1.0613;
-61.8000;0.4794;1.0588;
-61.5000;0.4778;1.0588;
-61.2000;0.4794;1.0539;
-60.9000;0.4770;1.0366;
-60.6000;0.4786;1.0465;
-60.3000;0.4803;1.0539;
-60.0000;0.4770;1.0588;
-59.7000;0.4811;1.0637;
-59.4000;0.4803;1.0563;
-59.1000;0.4803;1.0465;
-58.8000;0.4778;1.0341;
-58.5000;0.4811;1.0292;
-58.2000;0.4819;1.0243;
-57.9000;0.4803;1.0267;
-57.6000;0.4794;1.0243;
-57.3000;0.4819;1.0415;
-57.0000;0.4778;1.0243;
-56.7000;0.4827;1.0415;
-56.4000;0.4770;1.0193;
-56.1000;0.4786;1.0317;
-55.8000;0.4786;1.0243;
-55.5000;0.4770;1.0243;
-55.2000;0.4827;1.0440;
-54.9000;0.4786;1.0292;
-54.6000;0.4721;1.0169;
-54.3000;0.4762;1.0292;
-54.0000;0.4754;1.0292;
-53.7000;0.4770;1.0317;
-53.4000;0.4762;1.0415;
-53.1000;0.4786;1.0514;
-52.8000;0.4770;1.0489;
-52.5000;0.4786;1.0539;
-52.2000;0.4770;1.0366;
-51.9000;0.4786;1.0440;
-51.6000;0.4778;1.0415;
-51.3000;0.4803;1.0465;
-51.0000;0.4803;1.0366;
-50.7000;0.4729;1.0169;
-50.4000;0.4770;1.0292;
-50.1000;0.4803;1.0317;
-49.8000;0.4786;1.0218;
-49.5000;0.4770;1.0267;
-49.2000;0.4778;1.0317;
-48.9000;0.4803;1.0366;
-48.6000;0.4794;1.0317;
-48.3000;0.4778;1.0292;
-48.0000;0.4786;1.0391;
-47.7000;0.4778;1.0465;
-47.4000;0.4803;1.0514;
-47.1000;0.4778;1.0514;
-46.8000;0.4778;1.0563;
-46.5000;0.4803;1.0563;
-46.2000;0.4778;1.0539;
-45.9000;0.4786;1.0514;
-45.6000;0.4778;1.0366;
-45.3000;0.4770;1.0465;
-45.0000;0.4786;1.0465;
-44.7000;0.4713;1.0193;
-44.4000;0.4786;1.0317;
-44.1000;0.4843;1.0415;
-43.8000;0.4786;1.0193;
-43.5000;0.4786;1.0218;
-43.2000;0.4778;1.0243;
-42.9000;0.4778;1.0218;
-42.6000;0.4794;1.0243;
-42.3000;0.4794;1.0366;
-42.0000;0.4786;1.0341;
-41.7000;0.4778;1.0317;
-41.4000;0.4786;1.0218;
-41.1000;0.4811;1.0243;
-40.8000;0.4794;1.0193;
-40.5000;0.4786;1.0243;
-40.2000;0.4835;1.0366;
-39.9000;0.4794;1.0267;
-39.6000;0.4794;1.0317;
-39.3000;0.4754;1.0169;
-39.0000;0.4778;1.0218;
-38.7000;0.4770;1.0218;
-38.4000;0.4794;1.0267;
-38.1000;0.4794;1.0243;
-37.8000;0.4786;1.0267;
-37.5000;0.4770;1.0267;
-37.2000;0.4778;1.0218;
-36.9000;0.4794;1.0193;
-36.6000;0.4778;1.0243;
-36.3000;0.4778;1.0169;
-36.0000;0.4794;1.0169;
-35.7000;0.4835;1.0341;
-35.4000;0.4794;1.0243;
-35.1000;0.4811;1.0317;
-34.8000;0.4803;1.0243;
-34.5000;0.4811;1.0267;
-34.2000;0.4786;1.0119;
-33.9000;0.4770;0.9922;
-33.6000;0.4737;0.9922;
-33.3000;0.4778;0.9971;
-33.0000;0.4794;1.0020;
-32.7000;0.4729;0.9946;
-32.4000;0.4778;1.0119;
-32.1000;0.4811;1.0292;
-31.8000;0.4786;1.0243;
-31.5000;0.4681;0.9971;
-31.2000;0.4770;1.0218;
-30.9000;0.4778;1.0169;
-30.6000;0.4786;1.0267;
-30.3000;0.4778;1.0341;
-30.0000;0.4803;1.0317;
-29.7000;0.4770;1.0169;
-29.4000;0.4803;1.0218;
-29.1000;0.4770;1.0169;
-28.8000;0.4786;1.0243;
-28.5000;0.4811;1.0292;
-28.2000;0.4803;1.0292;
-27.9000;0.4803;1.0243;
-27.6000;0.4803;1.0193;
-27.3000;0.4794;1.0218;
-27.0000;0.4803;1.0292;
-26.7000;0.4794;1.0292;
-26.4000;0.4811;1.0366;
-26.1000;0.4819;1.0366;
-25.8000;0.4794;1.0317;
-25.5000;0.4794;1.0267;
-25.2000;0.4786;1.0243;
-24.9000;0.4786;1.0218;
-24.6000;0.4786;1.0218;
-24.3000;0.4803;1.0267;
-24.0000;0.4786;1.0317;
-23.7000;0.4778;1.0169;
-23.4000;0.4786;1.0169;
-23.1000;0.4803;1.0218;
-22.8000;0.4811;1.0292;
-22.5000;0.4762;1.0193;
-22.2000;0.4770;1.0169;
-21.9000;0.4794;1.0243;
-21.6000;0.4770;1.0292;
-21.3000;0.4786;1.0391;
-21.0000;0.4770;1.0391;
-20.7000;0.4762;1.0341;
-20.4000;0.4770;1.0440;
-20.1000;0.4786;1.0465;
-19.8000;0.4794;1.0465;
-19.5000;0.4778;1.0292;
-19.2000;0.4778;1.0243;
-18.9000;0.4794;1.0267;
-18.6000;0.4778;1.0218;
-18.3000;0.4754;1.0193;
-18.0000;0.4737;1.0094;
-17.7000;0.4762;1.0243;
-17.4000;0.4786;1.0415;
-17.1000;0.4794;1.0440;
-16.8000;0.4803;1.0366;
-16.5000;0.4778;1.0415;
-16.2000;0.4786;1.0317;
-15.9000;0.4754;1.0218;
-15.6000;0.4786;1.0243;
-15.3000;0.4803;1.0243;
-15.0000;0.4770;1.0094;
-14.7000;0.4786;1.0193;
-14.4000;0.4770;1.0094;
-14.1000;0.4803;1.0169;
-13.8000;0.4811;1.0193;
-13.5000;0.4827;1.0243;
-13.2000;0.4794;1.0045;
-12.9000;0.4737;0.9946;
-12.6000;0.4794;1.0144;
-12.3000;0.4794;1.0119;
-12.0000;0.4794;1.0094;
-11.7000;0.4794;1.0094;
-11.4000;0.4754;1.0020;
-11.1000;0.4729;0.9946;
-10.8000;0.4778;1.0020;
-10.5000;0.4811;1.0218;
-10.2000;0.4762;1.0119;
-9.9000;0.4778;1.0119;
-9.6000;0.4770;1.0094;
-9.3000;0.4729;0.9946;
-9.0000;0.4770;1.0119;
-8.7000;0.4778;1.0144;
-8.4000;0.4778;1.0169;
-8.1000;0.4746;1.0144;
-7.8000;0.4786;1.0119;
-7.5000;0.4770;1.0119;
-7.2000;0.4811;1.0267;
-6.9000;0.4803;1.0292;
-6.6000;0.4762;1.0193;
-6.3000;0.4819;1.0317;
-6.0000;0.4770;1.0144;
-5.7000;0.4876;1.0440;
-5.4000;0.4778;1.0169;
-5.1000;0.4794;1.0267;
-4.8000;0.4746;1.0094;
-4.5000;0.4778;1.0218;
-4.2000;0.4794;1.0292;
-3.9000;0.4794;1.0218;
-3.6000;0.4762;1.0144;
-3.3000;0.4794;1.0317;
-3.0000;0.4705;1.0070;
-2.7000;0.4770;1.0218;
-2.4000;0.4794;1.0267;
-2.1000;0.4778;1.0144;
-1.8000;0.4803;1.0267;
-1.5000;0.4786;1.0243;
-1.2000;0.4778;1.0218;
-0.9000;0.4794;1.0267;
-0.6000;0.4778;1.0169;
-0.3000;0.4786;1.0218;
0.0000;0.4786;1.0218;
0.3000;0.4827;0.9971;
0.6000;0.4908;1.0317;
0.9000;0.4941;1.0588;
1.2000;0.5031;1.0958;
1.5000;0.5063;1.1156;
1.8000;0.5071;1.1427;
2.1000;0.5063;1.1427;
2.4000;0.5104;1.1723;
2.7000;0.5136;1.1896;
3.0000;0.5161;1.1946;
3.3000;0.5185;1.2094;
3.6000;0.5177;1.2168;
3.9000;0.5169;1.2242;
4.2000;0.5193;1.2390;
4.5000;0.5201;1.2390;
4.8000;0.5153;1.2340;
5.1000;0.5315;1.2735;
5.4000;0.5218;1.2513;
5.7000;0.5218;1.2637;
6.0000;0.5218;1.2612;
6.3000;0.5226;1.2587;
6.6000;0.5201;1.2489;
6.9000;0.5234;1.2464;
7.2000;0.5193;1.2316;
7.5000;0.5258;1.2489;
7.8000;0.5234;1.2415;
8.1000;0.5226;1.2415;
8.4000;0.5275;1.2464;
8.7000;0.5258;1.2489;
9.0000;0.5267;1.2563;
9.3000;0.5258;1.2587;
9.6000;0.5275;1.2686;
9.9000;0.5275;1.2612;
10.2000;0.5275;1.2587;
10.5000;0.5275;1.2563;
10.8000;0.5275;1.2464;
11.1000;0.5291;1.2538;
11.4000;0.5299;1.2538;
11.7000;0.5291;1.2464;
12.0000;0.5267;1.2415;
12.3000;0.5283;1.2489;
12.6000;0.5275;1.2439;
12.9000;0.5299;1.2538;
13.2000;0.5291;1.2538;
13.5000;0.5299;1.2538;
13.8000;0.5299;1.2587;
14.1000;0.5283;1.2661;
14.4000;0.5299;1.2711;
14.7000;0.5332;1.2859;
15.0000;0.5307;1.2735;
15.3000;0.5315;1.2711;
15.6000;0.5315;1.2711;
15.9000;0.5299;1.2661;
16.2000;0.5315;1.2686;
16.5000;0.5315;1.2735;
16.8000;0.5324;1.2760;
17.1000;0.5315;1.2686;
17.4000;0.5307;1.2711;
17.7000;0.5315;1.2711;
18.0000;0.5332;1.2735;
18.3000;0.5332;1.2711;
18.6000;0.5324;1.2661;
18.9000;0.5315;1.2686;
19.2000;0.5332;1.2735;
19.5000;0.5307;1.2661;
19.8000;0.5405;1.2834;
20.1000;0.5340;1.2587;
20.4000;0.5291;1.2464;
20.7000;0.5299;1.2513;
21.0000;0.5332;1.2686;
21.3000;0.5332;1.2587;
21.6000;0.5340;1.2612;
21.9000;0.5324;1.2563;
22.2000;0.5332;1.2686;
22.5000;0.5340;1.2735;
22.8000;0.5364;1.2809;
23.1000;0.5356;1.2859;
23.4000;0.5340;1.2760;
23.7000;0.5340;1.2735;
24.0000;0.5324;1.2637;
24.3000;0.5340;1.2637;
24.6000;0.5356;1.2637;
24.9000;0.5356;1.2686;
25.2000;0.5324;1.2612;
25.5000;0.5348;1.2637;
25.8000;0.5348;1.2637;
26.1000;0.5332;1.2637;
26.4000;0.5340;1.2686;
26.7000;0.5299;1.2563;
27.0000;0.5454;1.2982;
27.3000;0.5340;1.2711;
27.6000;0.5356;1.2834;
27.9000;0.5348;1.2711;
28.2000;0.5356;1.2711;
28.5000;0.5332;1.2587;
28.8000;0.5372;1.2735;
29.1000;0.5340;1.2686;
29.4000;0.5356;1.2686;
29.7000;0.5348;1.2661;
30.0000;0.5348;1.2612;
30.3000;0.5332;1.2612;
30.6000;0.5340;1.2563;
30.9000;0.5348;1.2513;
31.2000;0.5348;1.2513;
31.5000;0.5356;1.2563;
31.8000;0.5356;1.2661;
32.1000;0.5364;1.2661;
32.4000;0.5364;1.2587;
32.7000;0.5364;1.2637;
33.0000;0.5356;1.2513;
33.3000;0.5348;1.2489;
33.6000;0.5372;1.2538;
33.9000;0.5389;1.2587;
34.2000;0.5381;1.2612;
34.5000;0.5364;1.2637;
34.8000;0.5372;1.2661;
35.1000;0.5364;1.2686;
35.4000;0.5340;1.2637;
35.7000;0.5381;1.2735;
36.0000;0.5381;1.2637;
36.3000;0.5381;1.2735;
36.6000;0.5364;1.2735;
36.9000;0.5348;1.2661;
37.2000;0.5348;1.2686;
37.5000;0.5299;1.2390;
37.8000;0.5332;1.2538;
38.1000;0.5372;1.2735;
38.4000;0.5356;1.2760;
38.7000;0.5356;1.2809;
39.0000;0.5356;1.2809;
39.3000;0.5356;1.2711;
39.6000;0.5372;1.2686;
39.9000;0.5348;1.2637;
40.2000;0.5348;1.2661;
40.5000;0.5413;1.2883;
40.8000;0.5372;1.2785;
41.1000;0.5348;1.2735;
41.4000;0.5340;1.2785;
41.7000;0.5372;1.2883;
42.0000;0.5372;1.2908;
42.3000;0.5381;1.2908;
42.6000;0.5364;1.2834;
42.9000;0.5413;1.3007;
43.2000;0.5364;1.2834;
43.5000;0.5364;1.2785;
43.8000;0.5364;1.2809;
44.1000;0.5372;1.2859;
44.4000;0.5381;1.2859;
44.7000;0.5405;1.2908;
45.0000;0.5372;1.2883;
45.3000;0.5324;1.2735;
45.6000;0.5372;1.2809;
45.9000;0.5364;1.2834;
46.2000;0.5372;1.2883;
46.5000;0.5356;1.2809;
46.8000;0.5348;1.2735;
47.1000;0.5372;1.2859;
47.4000;0.5372;1.2809;
47.7000;0.5364;1.2809;
48.0000;0.5381;1.2760;
48.3000;0.5356;1.2760;
48.6000;0.5364;1.2735;
48.9000;0.5348;1.2785;
49.2000;0.5364;1.2834;
49.5000;0.5372;1.3007;
49.8000;0.5364;1.3007;
50.1000;0.5397;1.3155;
50.4000;0.5348;1.3032;
50.7000;0.5372;1.3081;
51.0000;0.5356;1.2982;
51.3000;0.5356;1.2834;
51.6000;0.5364;1.2933;
51.9000;0.5275;1.2760;
52.2000;0.5364;1.2957;
52.5000;0.5372;1.3007;
52.8000;0.5364;1.2933;
53.1000;0.5234;1.2489;
53.4000;0.5340;1.2661;
53.7000;0.5364;1.2735;
54.0000;0.5389;1.2785;
54.3000;0.5356;1.2809;
54.6000;0.5372;1.2785;
54.9000;0.5397;1.2957;
55.2000;0.5381;1.3007;
55.5000;0.5389;1.2957;
55.8000;0.5381;1.2957;
56.1000;0.5372;1.2957;
56.4000;0.5340;1.2859;
56.7000;0.5364;1.2933;
57.0000;0.5381;1.2957;
57.3000;0.5364;1.2933;
57.6000;0.5389;1.2982;
57.9000;0.5364;1.2933;
58.2000;0.5372;1.2957;
58.5000;0.5356;1.3007;
58.8000;0.5356;1.3056;
59.1000;0.5364;1.3032;
59.4000;0.5364;1.3032;
59.7000;0.5389;1.2883;
60.0000;0.5356;1.2785;
60.3000;0.5438;1.2957;
60.6000;0.5381;1.2859;
60.9000;0.5364;1.2933;
61.2000;0.5356;1.2809;
61.5000;0.5348;1.2834;
61.8000;0.5381;1.2883;
62.1000;0.5364;1.2809;
62.4000;0.5324;1.2760;
62.7000;0.5340;1.2834;
63.0000;0.5364;1.2908;
63.3000;0.5364;1.2933;
63.6000;0.5356;1.2933;
63.9000;0.5356;1.2957;
64.2000;0.5389;1.3081;
64.5000;0.5348;1.3032;
64.8000;0.5413;1.3254;
65.1000;0.5389;1.3204;
65.4000;0.5372;1.3081;
65.7000;0.5364;1.3081;
66.0000;0.5389;1.3130;
66.3000;0.5372;1.3081;
66.6000;0.5381;1.3081;
66.9000;0.5389;1.3056;
67.2000;0.5429;1.3180;
67.5000;0.5364;1.3130;
67.8000;0.5364;1.3007;
68.1000;0.5372;1.3106;
68.4000;0.5372;1.3130;
68.7000;0.5372;1.3130;
69.0000;0.5348;1.3130;
69.3000;0.5389;1.3229;
69.6000;0.5372;1.3155;
69.9000;0.5381;1.3081;
70.2000;0.5372;1.3056;
70.5000;0.5372;1.3032;
70.8000;0.5405;1.3007;
71.1000;0.5340;1.2859;
71.4000;0.5389;1.2859;
71.7000;0.5364;1.2859;
72.0000;0.5340;1.2785;
72.3000;0.5372;1.2809;
72.6000;0.5340;1.2735;
72.9000;0.5340;1.2735;
73.2000;0.5364;1.2834;
73.5000;0.5372;1.2957;
73.8000;0.5372;1.2908;
74.1000;0.5356;1.2933;
74.4000;0.5356;1.2908;
74.7000;0.5348;1.3007;
75.0000;0.5381;1.3032;
75.3000;0.5364;1.2982;
75.6000;0.5372;1.2957;
75.9000;0.5348;1.2908;
76.2000;0.5381;1.2957;
76.5000;0.5291;1.2711;
76.8000;0.5364;1.2883;
77.1000;0.5405;1.2982;
77.4000;0.5356;1.2933;
77.7000;0.5348;1.2933;
78.0000;0.5372;1.2957;
78.3000;0.5364;1.2933;
78.6000;0.5364;1.2982;
78.9000;0.5356;1.2957;
79.2000;0.5356;1.2883;
79.5000;0.5356;1.2883;
79.8000;0.5381;1.2957;
80.1000;0.5348;1.2933;
80.4000;0.5348;1.2809;
80.7000;0.5372;1.2834;
81.0000;0.5364;1.2933;
81.3000;0.5348;1.2859;
81.6000;0.5364;1.2883;
81.9000;0.5372;1.2883;
82.2000;0.5372;1.2908;
82.5000;0.5397;1.2982;
82.8000;0.5405;1.2933;
83.1000;0.5356;1.2809;
83.4000;0.5372;1.2834;
83.7000;0.5356;1.2859;
84.0000;0.5389;1.2933;
84.3000;0.5405;1.2982;
84.6000;0.5364;1.2809;
84.9000;0.5389;1.2760;
85.2000;0.5372;1.2760;
85.5000;0.5381;1.2809;
85.8000;0.5356;1.2711;
86.1000;0.5356;1.2809;
86.4000;0.5372;1.2859;
86.7000;0.5372;1.2809;
87.0000;0.5356;1.2785;
87.3000;0.5381;1.2859;
87.6000;0.5364;1.2785;
87.9000;0.5372;1.2785;
88.2000;0.5364;1.2809;
88.5000;0.5397;1.2957;
88.8000;0.5315;1.2735;
89.1000;0.5381;1.3007;
89.4000;0.5372;1.2908;
89.7000;0.5324;1.2785;
90.0000;0.5413;1.2957;
90.3000;0.5381;1.2933;
90.6000;0.5356;1.2908;
90.9000;0.5299;1.2661;
91.2000;0.5299;1.2587;
91.5000;0.5381;1.2711;
91.8000;0.5495;1.3007;
92.1000;0.5372;1.2735;
92.4000;0.5389;1.2760;
92.7000;0.5332;1.2661;
93.0000;0.5372;1.2809;
93.3000;0.5372;1.2834;
93.6000;0.5389;1.2883;
93.9000;0.5381;1.2933;
94.2000;0.5372;1.2908;
94.5000;0.5356;1.2957;
94.8000;0.5381;1.2908;
95.1000;0.5332;1.2859;
95.4000;0.5381;1.2908;
95.7000;0.5356;1.3007;
96.0000;0.5332;1.2908;
96.3000;0.5356;1.3032;
96.6000;0.5372;1.3056;
96.9000;0.5429;1.3130;
97.2000;0.5381;1.2908;
97.5000;0.5389;1.2933;
97.8000;0.5397;1.2957;
98.1000;0.5381;1.2883;
98.4000;0.5372;1.2883;
98.7000;0.5389;1.2859;
99.0000;0.5356;1.2809;
99.3000;0.5372;1.2883;
99.6000;0.5364;1.2908;
99.9000;0.5356;1.2933;
100.2000;0.5389;1.2883;
100.5000;0.5381;1.2908;
100.8000;0.5356;1.2883;
101.1000;0.5364;1.2933;
101.4000;0.5364;1.2933;
101.7000;0.5372;1.2908;
102.0000;0.5364;1.2809;
102.3000;0.5381;1.2834;
102.6000;0.5299;1.2563;
102.9000;0.5372;1.2711;
103.2000;0.5364;1.2711;
103.5000;0.5372;1.2735;
103.8000;0.5364;1.2735;
104.1000;0.5381;1.2760;
104.4000;0.5389;1.2834;
104.7000;0.5381;1.2809;
105.0000;0.5364;1.2809;
105.3000;0.5340;1.2661;
105.6000;0.5381;1.2809;
105.9000;0.5381;1.2809;
106.2000;0.5381;1.2933;
106.5000;0.5381;1.2883;
106.8000;0.5372;1.2760;
107.1000;0.5364;1.2785;
107.4000;0.5381;1.2834;
107.7000;0.5332;1.2735;
108.0000;0.5364;1.2785;
108.3000;0.5340;1.2711;
108.6000;0.5348;1.2686;
108.9000;0.5348;1.2612;
109.2000;0.5364;1.2637;
109.5000;0.5356;1.2637;
109.8000;0.5348;1.2686;
110.1000;0.5372;1.2760;
110.4000;0.5389;1.2785;
110.7000;0.5438;1.2982;
111.0000;0.5364;1.2760;
111.3000;0.5315;1.2661;
111.6000;0.5307;1.2612;
111.9000;0.5324;1.2711;
112.2000;0.5315;1.2735;
112.5000;0.5348;1.2785;
112.8000;0.5332;1.2612;
113.1000;0.5348;1.2563;
113.4000;0.5364;1.2760;
113.7000;0.5348;1.2686;
114.0000;0.5356;1.2785;
114.3000;0.5372;1.2809;
114.6000;0.5381;1.2859;
114.9000;0.5446;1.2933;
115.2000;0.5356;1.2686;
115.5000;0.5348;1.2637;
115.8000;0.5332;1.2538;
116.1000;0.5389;1.2686;
116.4000;0.5364;1.2711;
116.7000;0.5372;1.2735;
117.0000;0.5389;1.2760;
117.3000;0.5364;1.2735;
117.6000;0.5381;1.2785;
117.9000;0.5372;1.2711;
118.2000;0.5372;1.2834;
118.5000;0.5389;1.2908;
118.8000;0.5381;1.2933;
119.1000;0.5364;1.2933;
119.4000;0.5364;1.2883;
119.7000;0.5381;1.2859;
120.0000;0.5372;1.2711;
120.3000;0.5381;1.2661;
120.6000;0.5381;1.2587;
120.9000;0.5389;1.2686;
121.2000;0.5381;1.2686;
121.5000;0.5381;1.2711;
121.8000;0.5356;1.2661;
122.1000;0.5372;1.2785;
122.4000;0.5372;1.2686;
122.7000;0.5381;1.2785;
123.0000;0.5356;1.2735;
123.3000;0.5356;1.2735;
123.6000;0.5348;1.2785;
123.9000;0.5364;1.2834;
124.2000;0.5356;1.2760;
124.5000;0.5348;1.2686;
124.8000;0.5348;1.2661;
125.1000;0.5372;1.2661;
125.4000;0.5372;1.2637;
125.7000;0.5364;1.2637;
126.0000;0.5372;1.2711;
126.3000;0.5389;1.2809;
126.6000;0.5389;1.2809;
126.9000;0.5372;1.2735;
127.2000;0.5438;1.2982;
127.5000;0.5356;1.2809;
127.8000;0.5364;1.2735;
128.1000;0.5381;1.2760;
128.4000;0.5372;1.2711;
128.7000;0.5364;1.2637;
129.0000;0.5381;1.2711;
129.3000;0.5364;1.2637;
129.6000;0.5364;1.2686;
129.9000;0.5470;1.2908;
130.2000;0.5364;1.2711;
130.5000;0.5381;1.2785;
130.8000;0.5364;1.2834;
131.1000;0.5381;1.2834;
131.4000;0.5381;1.2809;
131.7000;0.5372;1.2834;
132.0000;0.5340;1.2686;
132.3000;0.5372;1.2809;
132.6000;0.5405;1.2859;
132.9000;0.5413;1.2859;
133.2000;0.5356;1.2809;
133.5000;0.5348;1.2785;
133.8000;0.5332;1.2735;
134.1000;0.5356;1.2760;
134.4000;0.5372;1.2735;
134.7000;0.5372;1.2686;
135.0000;0.5356;1.2711;
135.3000;0.5332;1.2711;
135.6000;0.5356;1.2760;
135.9000;0.5389;1.2883;
136.2000;0.5372;1.2883;
136.5000;0.5364;1.2834;
136.8000;0.5364;1.2834;
137.1000;0.5356;1.2809;
137.4000;0.5364;1.2760;
137.7000;0.5364;1.2809;
138.0000;0.5381;1.2883;
138.3000;0.5242;1.2464;
138.6000;0.5356;1.2735;
138.9000;0.5307;1.2661;
139.2000;0.5397;1.2933;
139.5000;0.5389;1.2933;
139.8000;0.5421;1.3056;
140.1000;0.5421;1.3007;
140.4000;0.5372;1.2859;
140.7000;0.5381;1.2933;
141.0000;0.5356;1.2859;
141.3000;0.5332;1.2859;
141.6000;0.5364;1.2883;
141.9000;0.5372;1.2859;
142.2000;0.5421;1.3081;
142.5000;0.5372;1.3032;
142.8000;0.5372;1.3032;
143.1000;0.5381;1.3032;
143.4000;0.5364;1.2957;
143.7000;0.5356;1.2933;
144.0000;0.5364;1.3007;
144.3000;0.5364;1.2933;
144.6000;0.5356;1.2908;
144.9000;0.5364;1.2859;
145.2000;0.5356;1.2883;
145.5000;0.5372;1.2957;
145.8000;0.5372;1.3056;
146.1000;0.5381;1.2982;
146.4000;0.5356;1.2883;
146.7000;0.5413;1.2957;
147.0000;0.5372;1.2859;
147.3000;0.5364;1.2809;
147.6000;0.5462;1.3007;
147.9000;0.5356;1.2785;
148.2000;0.5348;1.2809;
148.5000;0.5381;1.2957;
148.8000;0.5348;1.2834;
149.1000;0.5381;1.2859;
149.4000;0.5372;1.2760;
149.7000;0.5364;1.2760;
150.0000;0.5356;1.2711;
150.3000;0.5340;1.2686;
150.6000;0.5348;1.2711;
150.9000;0.5332;1.2735;
151.2000;0.5381;1.2809;
151.5000;0.5381;1.2760;
151.8000;0.5364;1.2785;
152.1000;0.5372;1.2785;
152.4000;0.5397;1.2834;
152.7000;0.5372;1.2686;
153.0000;0.5372;1.2686;
153.3000;0.5340;1.2587;
153.6000;0.5372;1.2686;
153.9000;0.5356;1.2563;
154.2000;0.5364;1.2538;
154.5000;0.5364;1.2587;
154.8000;0.5364;1.2563;
155.1000;0.5356;1.2563;
155.4000;0.5364;1.2711;
155.7000;0.5356;1.2785;
156.0000;0.5372;1.2735;
156.3000;0.5283;1.2538;
156.6000;0.5405;1.2809;
156.9000;0.5364;1.2612;
157.2000;0.5364;1.2637;
157.5000;0.5307;1.2612;
157.8000;0.5364;1.2785;
158.1000;0.5340;1.2686;
158.4000;0.5364;1.2711;
158.7000;0.5372;1.2661;
159.0000;0.5356;1.2711;
159.3000;0.5364;1.2711;
159.6000;0.5364;1.2661;
159.9000;0.5372;1.2612;
160.2000;0.5372;1.2661;
160.5000;0.5381;1.2711;
160.8000;0.5332;1.2637;
161.1000;0.5348;1.2711;
161.4000;0.5372;1.2760;
161.7000;0.5348;1.2686;
162.0000;0.5340;1.2785;
162.3000;0.5348;1.2834;
162.6000;0.5356;1.2661;
162.9000;0.5356;1.2686;
163.2000;0.5348;1.2760;
163.5000;0.5364;1.2809;
163.8000;0.5364;1.2785;
164.1000;0.5356;1.2809;
164.4000;0.5372;1.2859;
164.7000;0.5364;1.2908;
165.0000;0.5364;1.2933;
165.3000;0.5397;1.2957;
165.6000;0.5340;1.2760;
165.9000;0.5372;1.2760;
166.2000;0.5372;1.2809;
166.5000;0.5356;1.2735;
166.8000;0.5340;1.2711;
167.1000;0.5381;1.2785;
167.4000;0.5364;1.2735;
167.7000;0.5381;1.2686;
168.0000;0.5372;1.2760;
168.3000;0.5372;1.2760;
168.6000;0.5364;1.2735;
168.9000;0.5372;1.2711;
169.2000;0.5356;1.2637;
169.5000;0.5364;1.2760;
169.8000;0.5356;1.2785;
170.1000;0.5372;1.2859;
170.4000;0.5364;1.2785;
170.7000;0.5356;1.2785;
171.0000;0.5429;1.2982;
171.3000;0.5340;1.2711;
171.6000;0.5364;1.2785;
171.9000;0.5356;1.2587;
172.2000;0.5381;1.2661;
172.5000;0.5397;1.2661;
172.8000;0.5372;1.2563;
173.1000;0.5381;1.2587;
173.4000;0.5381;1.2686;
173.7000;0.5372;1.2637;
174.0000;0.5364;1.2686;
174.3000;0.5356;1.2711;
174.6000;0.5372;1.2735;
174.9000;0.5364;1.2563;
175.2000;0.5381;1.2637;
175.5000;0.5381;1.2686;
175.8000;0.5389;1.2637;
176.1000;0.5381;1.2661;
176.4000;0.5405;1.2809;
176.7000;0.5372;1.2711;
177.0000;0.5372;1.2612;
177.3000;0.5332;1.2637;
177.6000;0.5372;1.2809;
177.9000;0.5372;1.2809;
178.2000;0.5372;1.2785;
178.5000;0.5389;1.2735;
178.8000;0.5389;1.2760;
179.1000;0.5372;1.2785;
179.4000;0.5348;1.2686;
179.7000;0.5405;1.2859;
180.0000;0.5372;1.2809;
180.3000;0.5332;1.2661;
180.6000;0.5356;1.2735;
180.9000;0.5364;1.2711;
181.2000;0.5364;1.2711;
181.5000;0.5372;1.2785;
181.8000;0.5348;1.2711;
182.1000;0.5372;1.2637;
182.4000;0.5381;1.2686;
182.7000;0.5356;1.2637;
183.0000;0.5315;1.2612;
183.3000;0.5356;1.2686;
183.6000;0.5381;1.2735;
183.9000;0.5372;1.2686;
184.2000;0.5372;1.2809;
184.5000;0.5372;1.2834;
184.8000;0.5372;1.2735;
185.1000;0.5348;1.2686;
185.4000;0.5356;1.2809;
185.7000;0.5372;1.2883;
186.0000;0.5381;1.2859;
186.3000;0.5381;1.2809;
186.6000;0.5348;1.2834;
186.9000;0.5381;1.2859;
187.2000;0.5454;1.3081;
187.5000;0.5348;1.2785;
187.8000;0.5348;1.2686;
188.1000;0.5356;1.2735;
188.4000;0.5356;1.2735;
188.7000;0.5307;1.2587;
189.0000;0.5356;1.2735;
189.3000;0.5356;1.2661;
189.6000;0.5372;1.2587;
189.9000;0.5364;1.2563;
190.2000;0.5356;1.2612;
190.5000;0.5356;1.2637;
190.8000;0.5356;1.2637;
191.1000;0.5372;1.2612;
191.4000;0.5364;1.2661;
191.7000;0.5372;1.2661;
192.0000;0.5324;1.2464;
192.3000;0.5364;1.2587;
192.6000;0.5356;1.2637;
192.9000;0.5356;1.2661;
193.2000;0.5356;1.2637;
193.5000;0.5324;1.2538;
193.8000;0.5364;1.2760;
194.1000;0.5356;1.2785;
194.4000;0.5364;1.2785;
194.7000;0.5405;1.2957;
195.0000;0.5332;1.2809;
195.3000;0.5364;1.2883;
195.6000;0.5364;1.2809;
195.9000;0.5356;1.2760;
196.2000;0.5340;1.2637;
196.5000;0.5340;1.2637;
196.8000;0.5364;1.2661;
197.1000;0.5356;1.2735;
197.4000;0.5356;1.2711;
197.7000;0.5381;1.2711;
198.0000;0.5372;1.2711;
198.3000;0.5364;1.2735;
198.6000;0.5364;1.2661;
198.9000;0.5389;1.2711;
199.2000;0.5372;1.2587;
199.5000;0.5372;1.2587;
199.8000;0.5364;1.2489;
200.1000;0.5372;1.2538;
200.4000;0.5372;1.2464;
200.7000;0.5389;1.2489;
201.0000;0.5356;1.2415;
201.3000;0.5348;1.2513;
201.6000;0.5381;1.2612;
201.9000;0.5389;1.2612;
202.2000;0.5340;1.2489;
202.5000;0.5356;1.2538;
202.8000;0.5372;1.2661;
203.1000;0.5372;1.2612;
203.4000;0.5364;1.2513;
203.7000;0.5307;1.2365;
204.0000;0.5413;1.2735;
204.3000;0.5372;1.2637;
204.6000;0.5356;1.2661;
204.9000;0.5348;1.2661;
205.2000;0.5348;1.2637;
205.5000;0.5364;1.2735;
205.8000;0.5348;1.2612;
206.1000;0.5364;1.2637;
206.4000;0.5307;1.2489;
206.7000;0.5364;1.2587;
207.0000;0.5372;1.2637;
207.3000;0.5291;1.2415;
207.6000;0.5381;1.2661;
207.9000;0.5405;1.2760;
208.2000;0.5389;1.2735;
208.5000;0.5364;1.2612;
208.8000;0.5332;1.2513;
209.1000;0.5324;1.2513;
209.4000;0.5340;1.2563;
209.7000;0.5299;1.2365;
210.0000;0.5364;1.2464;
210.3000;0.5364;1.2316;
210.6000;0.5389;1.2340;
210.9000;0.5389;1.2340;
211.2000;0.5356;1.2266;
211.5000;0.5348;1.2365;
211.8000;0.5372;1.2464;
212.1000;0.5340;1.2415;
212.4000;0.5381;1.2464;
212.7000;0.5356;1.2464;
213.0000;0.5389;1.2587;
213.3000;0.5364;1.2563;
213.6000;0.5364;1.2489;
213.9000;0.5332;1.2340;
214.2000;0.5364;1.2464;
214.5000;0.5381;1.2637;
214.8000;0.5364;1.2637;
215.1000;0.5324;1.2563;
215.4000;0.5364;1.2711;
215.7000;0.5372;1.2809;
216.0000;0.5381;1.2859;
216.3000;0.5356;1.2883;
216.6000;0.5356;1.2883;
216.9000;0.5356;1.2859;
217.2000;0.5364;1.2834;
217.5000;0.5364;1.2834;
217.8000;0.5356;1.2834;
218.1000;0.5356;1.2834;
218.4000;0.5356;1.2785;
218.7000;0.5364;1.2809;
219.0000;0.5324;1.2834;
219.3000;0.5356;1.2908;
219.6000;0.5340;1.2859;
219.9000;0.5364;1.2834;
220.2000;0.5381;1.2859;
220.5000;0.5356;1.2760;
220.8000;0.5364;1.2735;
221.1000;0.5348;1.2637;
221.4000;0.5372;1.2637;
221.7000;0.5372;1.2587;
222.0000;0.5438;1.2735;
222.3000;0.5356;1.2538;
222.6000;0.5438;1.2760;
222.9000;0.5348;1.2563;
223.2000;0.5340;1.2587;
223.5000;0.5356;1.2563;
223.8000;0.5348;1.2513;
224.1000;0.5364;1.2587;
224.4000;0.5348;1.2637;
224.7000;0.5340;1.2563;
225.0000;0.5389;1.2661;
225.3000;0.5356;1.2637;
225.6000;0.5356;1.2637;
225.9000;0.5356;1.2661;
226.2000;0.5315;1.2464;
226.5000;0.5364;1.2538;
226.8000;0.5381;1.2661;
227.1000;0.5413;1.2711;
227.4000;0.5372;1.2587;
227.7000;0.5348;1.2464;
228.0000;0.5364;1.2513;
228.3000;0.5389;1.2735;
228.6000;0.5372;1.2711;
228.9000;0.5405;1.2735;
229.2000;0.5372;1.2612;
229.5000;0.5372;1.2711;
229.8000;0.5291;1.2489;
230.1000;0.5340;1.2563;
230.4000;0.5381;1.2711;
230.7000;0.5356;1.2587;
231.0000;0.5356;1.2587;
231.3000;0.5364;1.2587;
231.6000;0.5364;1.2711;
231.9000;0.5356;1.2637;
232.2000;0.5429;1.2883;
232.5000;0.5356;1.2711;
232.8000;0.5381;1.2711;
233.1000;0.5364;1.2711;
233.4000;0.5364;1.2735;
233.7000;0.5364;1.2834;
234.0000;0.5364;1.2859;
234.3000;0.5372;1.2760;
234.6000;0.5372;1.2785;
234.9000;0.5348;1.2760;
235.2000;0.5364;1.2686;
235.5000;0.5356;1.2538;
235.8000;0.5356;1.2489;
236.1000;0.5364;1.2439;
236.4000;0.5364;1.2439;
236.7000;0.5348;1.2439;
237.0000;0.5364;1.2489;
237.3000;0.5372;1.2464;
237.6000;0.5340;1.2464;
237.9000;0.5356;1.2612;
238.2000;0.5299;1.2538;
238.5000;0.5364;1.2637;
238.8000;0.5389;1.2612;
239.1000;0.5372;1.2563;
239.4000;0.5372;1.2513;
239.7000;0.5364;1.2365;
240.0000;0.5381;1.2415;
240.3000;0.5348;1.2415;
240.6000;0.5364;1.2464;
240.9000;0.5372;1.2538;
241.2000;0.5364;1.2538;
241.5000;0.5348;1.2513;
241.8000;0.5372;1.2637;
242.1000;0.5348;1.2637;
242.4000;0.5348;1.2711;
242.7000;0.5413;1.2883;
243.0000;0.5356;1.2908;
243.3000;0.5364;1.2933;
243.6000;0.5356;1.2834;
243.9000;0.5372;1.2982;
244.2000;0.5397;1.3056;
244.5000;0.5372;1.2957;
244.8000;0.5364;1.2908;
245.1000;0.5356;1.2859;
245.4000;0.5372;1.2933;
245.7000;0.5397;1.2908;
246.0000;0.5372;1.2809;
246.3000;0.5356;1.2785;
246.6000;0.5381;1.2908;
246.9000;0.5356;1.2859;
247.2000;0.5372;1.2809;
247.5000;0.5381;1.2735;
247.8000;0.5364;1.2637;
248.1000;0.5299;1.2464;
248.4000;0.5364;1.2637;
248.7000;0.5356;1.2612;
249.0000;0.5356;1.2661;
249.3000;0.5348;1.2711;
249.6000;0.5324;1.2661;
249.9000;0.5332;1.2612;
250.2000;0.5372;1.2637;
250.5000;0.5364;1.2637;
250.8000;0.5364;1.2563;
251.1000;0.5372;1.2686;
251.4000;0.5372;1.2711;
251.7000;0.5348;1.2563;
252.0000;0.5348;1.2538;
252.3000;0.5381;1.2612;
252.6000;0.5332;1.2439;
252.9000;0.5324;1.2390;
253.2000;0.5356;1.2513;
253.5000;0.5364;1.2439;
253.8000;0.5348;1.2291;
254.1000;0.5381;1.2340;
254.4000;0.5348;1.2291;
254.7000;0.5372;1.2489;
255.0000;0.5381;1.2513;
255.3000;0.5381;1.2489;
255.6000;0.5348;1.2390;
255.9000;0.5364;1.2415;
256.2000;0.5381;1.2464;
256.5000;0.5364;1.2489;
256.8000;0.5356;1.2489;
257.1000;0.5389;1.2563;
257.4000;0.5381;1.2563;
257.7000;0.5372;1.2538;
258.0000;0.5364;1.2439;
258.3000;0.5364;1.2340;
258.6000;0.5372;1.2266;
258.9000;0.5364;1.2069;
259.2000;0.5356;1.2020;
259.5000;0.5364;1.2069;
259.8000;0.5356;1.2143;
260.1000;0.5332;1.2143;
260.4000;0.5356;1.2291;
260.7000;0.5332;1.2192;
261.0000;0.5364;1.2266;
261.3000;0.5348;1.2340;
261.6000;0.5356;1.2340;
261.9000;0.5356;1.2365;
262.2000;0.5340;1.2365;
262.5000;0.5340;1.2390;
262.8000;0.5356;1.2390;
263.1000;0.5348;1.2489;
263.4000;0.5356;1.2538;
263.7000;0.5348;1.2587;
264.0000;0.5397;1.2711;
264.3000;0.5356;1.2587;
264.6000;0.5364;1.2563;
264.9000;0.5348;1.2538;
265.2000;0.5324;1.2439;
265.5000;0.5299;1.2340;
265.8000;0.5242;1.2094;
266.1000;0.5356;1.2390;
266.4000;0.5348;1.2340;
266.7000;0.5429;1.2563;
267.0000;0.5356;1.2365;
267.3000;0.5372;1.2365;
267.6000;0.5364;1.2365;
267.9000;0.5372;1.2415;
268.2000;0.5364;1.2464;
268.5000;0.5356;1.2489;
268.8000;0.5356;1.2513;
269.1000;0.5372;1.2513;
269.4000;0.5372;1.2489;
269.7000;0.5340;1.2390;
270.0000;0.5364;1.2563;
270.3000;0.5364;1.2587;
270.6000;0.5356;1.2513;
270.9000;0.5364;1.2538;
271.2000;0.5348;1.2464;
271.5000;0.5364;1.2464;
271.8000;0.5364;1.2464;
272.1000;0.5324;1.2291;
272.4000;0.5356;1.2415;
272.7000;0.5381;1.2464;
273.0000;0.5356;1.2415;
273.3000;0.5364;1.2415;
273.6000;0.5356;1.2316;
273.9000;0.5348;1.2365;
274.2000;0.5348;1.2390;
274.5000;0.5356;1.2390;
274.8000;0.5356;1.2390;
275.1000;0.5340;1.2365;
275.4000;0.5356;1.2415;
275.7000;0.5348;1.2340;
276.0000;0.5348;1.2365;
276.3000;0.5348;1.2365;
276.6000;0.5348;1.2415;
276.9000;0.5381;1.2489;
277.2000;0.5315;1.2316;
277.5000;0.5356;1.2340;
277.8000;0.5348;1.2340;
278.1000;0.5364;1.2489;
278.4000;0.5381;1.2587;
278.7000;0.5372;1.2587;
279.0000;0.5283;1.2340;
279.3000;0.5421;1.2686;
279.6000;0.5348;1.2464;
279.9000;0.5364;1.2489;
280.2000;0.5356;1.2439;
280.5000;0.5356;1.2365;
280.8000;0.5356;1.2365;
281.1000;0.5364;1.2439;
281.4000;0.5364;1.2340;
281.7000;0.5332;1.2291;
282.0000;0.5356;1.2291;
282.3000;0.5381;1.2266;
282.6000;0.5348;1.2192;
282.9000;0.5348;1.2266;
283.2000;0.5356;1.2340;
283.5000;0.5364;1.2340;
283.8000;0.5356;1.2340;
284.1000;0.5356;1.2316;
284.4000;0.5348;1.2242;
284.7000;0.5340;1.2340;
285.0000;0.5364;1.2489;
285.3000;0.5356;1.2538;
285.6000;0.5332;1.2464;
285.9000;0.5356;1.2563;
286.2000;0.5356;1.2513;
286.5000;0.5348;1.2538;
286.8000;0.5397;1.2686;
287.1000;0.5356;1.2612;
287.4000;0.5348;1.2513;
287.7000;0.5381;1.2612;
288.0000;0.5348;1.2538;
288.3000;0.5356;1.2612;
288.6000;0.5356;1.2686;
288.9000;0.5299;1.2538;
289.2000;0.5356;1.2711;
289.5000;0.5356;1.2661;
289.8000;0.5364;1.2612;
290.1000;0.5315;1.2587;
290.4000;0.5348;1.2637;
290.7000;0.5348;1.2637;
291.0000;0.5340;1.2661;
291.3000;0.5356;1.2661;
291.6000;0.5364;1.2711;
291.9000;0.5356;1.2612;
292.2000;0.5348;1.2587;
292.5000;0.5405;1.2686;
292.8000;0.5356;1.2563;
293.1000;0.5397;1.2538;
293.4000;0.5364;1.2612;
293.7000;0.5356;1.2538;
294.0000;0.5364;1.2587;
294.3000;0.5389;1.2612;
294.6000;0.5364;1.2637;
294.9000;0.5381;1.2711;
295.2000;0.5356;1.2661;
295.5000;0.5372;1.2735;
295.8000;0.5372;1.2735;
296.1000;0.5364;1.2735;
296.4000;0.5364;1.2760;
296.7000;0.5348;1.2785;
297.0000;0.5356;1.2735;
297.3000;0.5356;1.2711;
297.6000;0.5348;1.2661;
297.9000;0.5364;1.2661;
298.2000;0.5364;1.2538;
298.5000;0.5356;1.2513;
298.8000;0.5332;1.2464;
299.1000;0.5291;1.2365;
299.4000;0.5340;1.2464;
299.7000;0.5364;1.2489;
300.0000;0.5364;1.2489;
300.3000;0.5307;1.2415;
300.6000;0.5250;1.2316;
300.9000;0.5381;1.2735;
301.2000;0.5340;1.2612;
301.5000;0.5348;1.2661;
301.8000;0.5372;1.2785;
302.1000;0.5364;1.2760;
302.4000;0.5348;1.2637;
302.7000;0.5421;1.2686;
303.0000;0.5348;1.2538;
303.3000;0.5315;1.2489;
303.6000;0.5348;1.2538;
303.9000;0.5470;1.2859;
304.2000;0.5315;1.2513;
304.5000;0.5372;1.2735;
304.8000;0.5356;1.2686;
305.1000;0.5356;1.2760;
305.4000;0.5364;1.2809;
305.7000;0.5372;1.2735;
306.0000;0.5364;1.2661;
306.3000;0.5340;1.2612;
306.6000;0.5364;1.2686;
306.9000;0.5340;1.2563;
307.2000;0.5356;1.2538;
307.5000;0.5389;1.2587;
307.8000;0.5340;1.2489;
308.1000;0.5356;1.2390;
308.4000;0.5372;1.2415;
308.7000;0.5413;1.2489;
309.0000;0.5348;1.2464;
309.3000;0.5348;1.2587;
309.6000;0.5356;1.2686;
309.9000;0.5340;1.2587;
310.2000;0.5340;1.2587;
310.5000;0.5372;1.2686;
310.8000;0.5364;1.2612;
311.1000;0.5340;1.2612;
311.4000;0.5356;1.2637;
311.7000;0.5324;1.2661;
312.0000;0.5340;1.2735;
312.3000;0.5364;1.2809;
312.6000;0.5348;1.2760;
312.9000;0.5340;1.2834;
313.2000;0.5356;1.2859;
313.5000;0.5332;1.2834;
313.8000;0.5340;1.2809;
314.1000;0.5348;1.2785;
314.4000;0.5356;1.2735;
314.7000;0.5332;1.2686;
315.0000;0.5389;1.2711;
315.3000;0.5348;1.2587;
315.6000;0.5348;1.2563;
315.9000;0.5364;1.2637;
316.2000;0.5364;1.2587;
316.5000;0.5364;1.2785;
316.8000;0.5356;1.2785;
317.1000;0.5372;1.2834;
317.4000;0.5364;1.2834;
317.7000;0.5332;1.2785;
318.0000;0.5364;1.2735;
318.3000;0.5340;1.2661;
318.6000;0.5381;1.2686;
318.9000;0.5372;1.2735;
319.2000;0.5364;1.2785;
319.5000;0.5275;1.2661;
319.8000;0.5340;1.2809;
320.1000;0.5340;1.2809;
320.4000;0.5340;1.2834;
320.7000;0.5291;1.2612;
321.0000;0.5356;1.2785;
321.3000;0.5372;1.2735;
321.6000;0.5356;1.2686;
321.9000;0.5315;1.2612;
322.2000;0.5372;1.2735;
322.5000;0.5381;1.2760;
322.8000;0.5381;1.2711;
323.1000;0.5307;1.2538;
323.4000;0.5381;1.2686;
323.7000;0.5389;1.2760;
324.0000;0.5340;1.2637;
324.3000;0.5324;1.2637;
324.6000;0.5364;1.2711;
324.9000;0.5413;1.2785;
325.2000;0.5332;1.2612;
325.5000;0.5340;1.2538;
325.8000;0.5324;1.2439;
326.1000;0.5356;1.2587;
326.4000;0.5340;1.2563;
326.7000;0.5332;1.2513;
327.0000;0.5348;1.2464;
327.3000;0.5324;1.2464;
327.6000;0.5381;1.2686;
327.9000;0.5356;1.2661;
328.2000;0.5364;1.2661;
328.5000;0.5340;1.2563;
328.8000;0.5372;1.2661;
329.1000;0.5372;1.2711;
329.4000;0.5356;1.2563;
329.7000;0.5364;1.2612;
330.0000;0.5356;1.2513;
330.3000;0.5356;1.2464;
330.6000;0.5356;1.2513;
330.9000;0.5356;1.2489;
331.2000;0.5332;1.2612;
331.5000;0.5356;1.2735;
331.8000;0.5348;1.2637;
332.1000;0.5348;1.2637;
332.4000;0.5348;1.2711;
332.7000;0.5364;1.2834;
333.0000;0.5324;1.2760;
333.3000;0.5356;1.2859;
333.6000;0.5348;1.2908;
333.9000;0.5348;1.3007;
334.2000;0.5356;1.2957;
334.5000;0.5372;1.2933;
334.8000;0.5340;1.2760;
335.1000;0.5348;1.2760;
335.4000;0.5364;1.2686;
335.7000;0.5372;1.2686;
336.0000;0.5429;1.2834;
336.3000;0.5299;1.2587;
336.6000;0.5364;1.2711;
336.9000;0.5364;1.2661;
337.2000;0.5348;1.2612;
337.5000;0.5348;1.2637;
337.8000;0.5348;1.2686;
338.1000;0.5372;1.2859;
338.4000;0.5364;1.2785;
338.7000;0.5381;1.2809;
339.0000;0.5364;1.2760;
339.3000;0.5413;1.2908;
339.6000;0.5372;1.2735;
339.9000;0.5372;1.2711;
340.2000;0.5332;1.2637;
340.5000;0.5372;1.2711;
340.8000;0.5372;1.2686;
341.1000;0.5356;1.2661;
341.4000;0.5397;1.2883;
341.7000;0.5364;1.2785;
342.0000;0.5348;1.2785;
342.3000;0.5364;1.2735;
342.6000;0.5340;1.2637;
342.9000;0.5364;1.2735;
343.2000;0.5315;1.2612;
343.5000;0.5340;1.2612;
343.8000;0.5340;1.2637;
344.1000;0.5340;1.2637;
344.4000;0.5324;1.2612;
344.7000;0.5372;1.2686;
345.0000;0.5340;1.2587;
345.3000;0.5356;1.2735;
345.6000;0.5356;1.2760;
345.9000;0.5348;1.2686;
346.2000;0.5340;1.2587;
346.5000;0.5364;1.2538;
346.8000;0.5356;1.2612;
347.1000;0.5356;1.2637;
347.4000;0.5340;1.2489;
347.7000;0.5340;1.2612;
348.0000;0.5381;1.2711;
348.3000;0.5356;1.2612;
348.6000;0.5454;1.2859;
348.9000;0.5340;1.2563;
349.2000;0.5356;1.2587;
349.5000;0.5340;1.2563;
349.8000;0.5389;1.2686;
350.1000;0.5372;1.2637;
350.4000;0.5332;1.2489;
350.7000;0.5340;1.2587;
351.0000;0.5372;1.2735;
351.3000;0.5364;1.2735;
351.6000;0.5381;1.2711;
351.9000;0.5364;1.2637;
352.2000;0.5372;1.2735;
352.5000;0.5356;1.2587;
352.8000;0.5364;1.2587;
353.1000;0.5348;1.2563;
353.4000;0.5348;1.2513;
353.7000;0.5348;1.2464;
354.0000;0.5356;1.2538;
354.3000;0.5348;1.2513;
354.6000;0.5348;1.2563;
354.9000;0.5348;1.2563;
355.2000;0.5348;1.2612;
355.5000;0.5364;1.2612;
355.8000;0.5348;1.2612;
356.1000;0.5372;1.2686;
356.4000;0.5356;1.2637;
356.7000;0.5348;1.2760;
357.0000;0.5438;1.2957;
357.3000;0.5348;1.2661;
357.6000;0.5364;1.2612;
357.9000;0.5348;1.2587;
358.2000;0.5372;1.2661;
358.5000;0.5356;1.2612;
358.8000;0.5348;1.2587;
359.1000;0.5356;1.2612;
359.4000;0.5364;1.2563;
359.7000;0.5356;1.2538;
360.0000;0.5405;1.2661;
360.3000;0.5364;1.2513;
360.6000;0.5356;1.2513;
360.9000;0.5356;1.2612;
361.2000;0.5356;1.2637;
361.5000;0.5372;1.2587;
361.8000;0.5364;1.2587;
362.1000;0.5405;1.2661;
362.4000;0.5405;1.2711;
362.7000;0.5364;1.2587;
363.0000;0.5356;1.2661;
363.3000;0.5356;1.2587;
363.6000;0.5372;1.2563;
363.9000;0.5364;1.2612;
364.2000;0.5389;1.2711;
364.5000;0.5364;1.2711;
364.8000;0.5356;1.2686;
365.1000;0.5275;1.2439;
365.4000;0.5413;1.2760;
365.7000;0.5348;1.2513;
366.0000;0.5315;1.2439;
366.3000;0.5356;1.2612;
366.6000;0.5356;1.2563;
366.9000;0.5356;1.2587;
367.2000;0.5364;1.2735;
367.5000;0.5372;1.2686;
367.8000;0.5348;1.2686;
368.1000;0.5332;1.2612;
368.4000;0.5340;1.2637;
368.7000;0.5364;1.2637;
369.0000;0.5364;1.2711;
369.3000;0.5364;1.2563;
369.6000;0.5332;1.2513;
369.9000;0.5340;1.2538;
370.2000;0.5332;1.2538;
370.5000;0.5356;1.2538;
370.8000;0.5356;1.2538;
371.1000;0.5348;1.2513;
371.4000;0.5332;1.2415;
371.7000;0.5372;1.2538;
372.0000;0.5356;1.2513;
372.3000;0.5356;1.2538;
372.6000;0.5364;1.2489;
372.9000;0.5372;1.2489;
373.2000;0.5356;1.2464;
373.5000;0.5340;1.2489;
373.8000;0.5332;1.2390;
374.1000;0.5364;1.2464;
374.4000;0.5348;1.2415;
374.7000;0.5356;1.2489;
375.0000;0.5340;1.2513;
375.3000;0.5340;1.2538;
375.6000;0.5356;1.2587;
375.9000;0.5381;1.2489;
376.2000;0.5348;1.2464;
376.5000;0.5356;1.2587;
376.8000;0.5356;1.2538;
377.1000;0.5356;1.2464;
377.4000;0.5356;1.2489;
377.7000;0.5348;1.2661;
378.0000;0.5340;1.2637;
378.3000;0.5364;1.2735;
378.6000;0.5348;1.2735;
378.9000;0.5348;1.2785;
379.2000;0.5356;1.2785;
379.5000;0.5340;1.2612;
379.8000;0.5340;1.2489;
380.1000;0.5364;1.2538;
380.4000;0.5348;1.2563;
380.7000;0.5332;1.2587;
381.0000;0.5348;1.2612;
381.3000;0.5340;1.2563;
381.6000;0.5364;1.2489;
381.9000;0.5299;1.2316;
382.2000;0.5356;1.2464;
382.5000;0.5340;1.2513;
382.8000;0.5283;1.2415;
383.1000;0.5348;1.2661;
383.4000;0.5381;1.2809;
383.7000;0.5332;1.2686;
384.0000;0.5340;1.2785;
384.3000;0.5364;1.2834;
384.6000;0.5364;1.2735;
384.9000;0.5372;1.2735;
385.2000;0.5372;1.2686;
385.5000;0.5340;1.2637;
385.8000;0.5348;1.2735;
386.1000;0.5324;1.2637;
386.4000;0.5356;1.2735;
386.7000;0.5348;1.2711;
387.0000;0.5356;1.2834;
387.3000;0.5364;1.2711;
387.6000;0.5356;1.2686;
387.9000;0.5332;1.2587;
388.2000;0.5340;1.2538;
388.5000;0.5340;1.2563;
388.8000;0.5356;1.2612;
389.1000;0.5332;1.2587;
389.4000;0.5340;1.2538;
389.7000;0.5364;1.2612;
390.0000;0.5356;1.2587;
390.3000;0.5340;1.2612;
390.6000;0.5356;1.2686;
390.9000;0.5348;1.2760;
391.2000;0.5364;1.2834;
391.5000;0.5348;1.2809;
391.8000;0.5348;1.2834;
392.1000;0.5332;1.2834;
392.4000;0.5364;1.2809;
392.7000;0.5364;1.2982;
393.0000;0.5299;1.2785;
393.3000;0.5356;1.2933;
393.6000;0.5356;1.2883;
393.9000;0.5356;1.2834;
394.2000;0.5348;1.2735;
394.5000;0.5348;1.2735;
394.8000;0.5372;1.2785;
395.1000;0.5348;1.2711;
395.4000;0.5381;1.2785;
395.7000;0.5348;1.2785;
396.0000;0.5364;1.2785;
396.3000;0.5372;1.2735;
396.6000;0.5315;1.2612;
396.9000;0.5356;1.2735;
397.2000;0.5275;1.2587;
397.5000;0.5348;1.2760;
397.8000;0.5372;1.2809;
398.1000;0.5364;1.2711;
398.4000;0.5234;1.2365;
398.7000;0.5356;1.2661;
399.0000;0.5364;1.2760;
399.3000;0.5242;1.2464;
399.6000;0.5348;1.2661;
399.9000;0.5372;1.2735;
400.2000;0.5356;1.2711;
400.5000;0.5356;1.2760;
400.8000;0.5364;1.2785;
401.1000;0.5364;1.2785;
401.4000;0.5356;1.2735;
401.7000;0.5348;1.2785;
402.0000;0.5356;1.2711;
402.3000;0.5340;1.2661;
402.6000;0.5364;1.2661;
402.9000;0.5364;1.2587;
403.2000;0.5348;1.2587;
403.5000;0.5356;1.2513;
403.8000;0.5381;1.2587;
404.1000;0.5340;1.2587;
404.4000;0.5356;1.2612;
404.7000;0.5372;1.2686;
405.0000;0.5348;1.2711;
405.3000;0.5372;1.2809;
405.6000;0.5364;1.2834;
405.9000;0.5348;1.2785;
406.2000;0.5356;1.2760;
406.5000;0.5372;1.2735;
406.8000;0.5364;1.2686;
407.1000;0.5275;1.2390;
407.4000;0.5340;1.2563;
407.7000;0.5348;1.2563;
408.0000;0.5340;1.2513;
408.3000;0.5348;1.2415;
408.6000;0.5389;1.2587;
408.9000;0.5332;1.2439;
409.2000;0.5291;1.2316;
409.5000;0.5364;1.2489;
409.8000;0.5356;1.2439;
410.1000;0.5356;1.2513;
410.4000;0.5356;1.2587;
410.7000;0.5372;1.2612;
411.0000;0.5299;1.2439;
411.3000;0.5356;1.2612;
411.6000;0.5364;1.2661;
411.9000;0.5275;1.2415;
412.2000;0.5275;1.2538;
412.5000;0.5283;1.2661;
412.8000;0.5340;1.2809;
413.1000;0.5348;1.2809;
413.4000;0.5348;1.2834;
413.7000;0.5324;1.2785;
414.0000;0.5356;1.2785;
414.3000;0.5348;1.2809;
414.6000;0.5307;1.2711;
414.9000;0.5372;1.2859;
415.2000;0.5234;1.2587;
415.5000;0.5315;1.2834;
415.8000;0.5324;1.2859;
416.1000;0.5340;1.2834;
416.4000;0.5340;1.2760;
416.7000;0.5381;1.2785;
417.0000;0.5348;1.2612;
417.3000;0.5315;1.2587;
417.6000;0.5356;1.2637;
417.9000;0.5364;1.2711;
418.2000;0.5389;1.2785;
418.5000;0.5372;1.2686;
418.8000;0.5372;1.2686;
419.1000;0.5348;1.2785;
419.4000;0.5332;1.2809;
419.7000;0.5356;1.2908;
420.0000;0.5348;1.2933;
420.3000;0.5389;1.2982;
420.6000;0.5356;1.2908;
420.9000;0.5348;1.2883;
421.2000;0.5348;1.2883;
421.5000;0.5348;1.2933;
421.8000;0.5340;1.2957;
422.1000;0.5348;1.2982;
422.4000;0.5364;1.2957;
422.7000;0.5315;1.2760;
423.0000;0.5348;1.2785;
423.3000;0.5356;1.2711;
423.6000;0.5332;1.2637;
423.9000;0.5356;1.2785;
424.2000;0.5348;1.2834;
424.5000;0.5348;1.2859;
424.8000;0.5372;1.2859;
425.1000;0.5348;1.2760;
425.4000;0.5356;1.2686;
425.7000;0.5324;1.2489;
426.0000;0.5299;1.2464;
426.3000;0.5348;1.2686;
426.6000;0.5324;1.2686;
426.9000;0.5348;1.2711;
427.2000;0.5348;1.2612;
427.5000;0.5356;1.2587;
427.8000;0.5356;1.2538;
428.1000;0.5340;1.2587;
428.4000;0.5340;1.2587;
428.7000;0.5332;1.2637;
429.0000;0.5307;1.2464;
429.3000;0.5348;1.2612;
429.6000;0.5348;1.2563;
429.9000;0.5364;1.2711;
430.2000;0.5348;1.2760;
430.5000;0.5299;1.2563;
430.8000;0.5356;1.2735;
431.1000;0.5348;1.2760;
431.4000;0.5348;1.2735;
431.7000;0.5356;1.2785;
432.0000;0.5364;1.2859;
432.3000;0.5348;1.2785;
432.6000;0.5364;1.2809;
432.9000;0.5364;1.2785;
433.2000;0.5381;1.2735;
433.5000;0.5356;1.2711;
433.8000;0.5381;1.2785;
434.1000;0.5389;1.2809;
434.4000;0.5340;1.2785;
434.7000;0.5324;1.2711;
435.0000;0.5364;1.2785;
435.3000;0.5364;1.2834;
435.6000;0.5389;1.2908;
435.9000;0.5348;1.2785;
436.2000;0.5372;1.2834;
436.5000;0.5307;1.2735;
436.8000;0.5364;1.2834;
437.1000;0.5364;1.2809;
437.4000;0.5340;1.2834;
437.7000;0.5340;1.2785;
438.0000;0.5356;1.2785;
438.3000;0.5332;1.2785;
438.6000;0.5421;1.2982;
438.9000;0.5348;1.2785;
439.2000;0.5356;1.2760;
439.5000;0.5348;1.2809;
439.8000;0.5397;1.2834;
440.1000;0.5340;1.2785;
440.4000;0.5356;1.2785;
440.7000;0.5307;1.2735;
441.0000;0.5348;1.2661;
441.3000;0.5348;1.2612;
441.6000;0.5364;1.2785;
441.9000;0.5356;1.2760;
442.2000;0.5356;1.2735;
442.5000;0.5348;1.2735;
442.8000;0.5315;1.2637;
443.1000;0.5348;1.2735;
443.4000;0.5348;1.2711;
443.7000;0.5356;1.2686;
444.0000;0.5332;1.2587;
444.3000;0.5356;1.2587;
444.6000;0.5372;1.2612;
444.9000;0.5372;1.2637;
445.2000;0.5356;1.2686;
445.5000;0.5364;1.2785;
445.8000;0.5364;1.2760;
446.1000;0.5356;1.2711;
446.4000;0.5348;1.2661;
446.7000;0.5356;1.2785;
447.0000;0.5340;1.2686;
447.3000;0.5364;1.2661;
447.6000;0.5348;1.2711;
447.9000;0.5405;1.2834;
448.2000;0.5340;1.2637;
448.5000;0.5348;1.2711;
448.8000;0.5356;1.2612;
449.1000;0.5356;1.2513;
449.4000;0.5364;1.2538;
449.7000;0.5348;1.2538;
450.0000;0.5348;1.2538;
450.3000;0.5356;1.2464;
450.6000;0.5389;1.2563;
450.9000;0.5372;1.2513;
451.2000;0.5364;1.2464;
451.5000;0.5332;1.2439;
451.8000;0.5283;1.2316;
452.1000;0.5381;1.2513;
452.4000;0.5356;1.2489;
452.7000;0.5348;1.2464;
453.0000;0.5324;1.2365;
453.3000;0.5340;1.2365;
453.6000;0.5356;1.2316;
453.9000;0.5324;1.2217;
454.2000;0.5324;1.2242;
454.5000;0.5348;1.2390;
454.8000;0.5332;1.2390;
455.1000;0.5348;1.2513;
455.4000;0.5348;1.2464;
455.7000;0.5340;1.2489;
456.0000;0.5364;1.2538;
456.3000;0.5372;1.2612;
456.6000;0.5364;1.2612;
456.9000;0.5356;1.2563;
457.2000;0.5364;1.2563;
457.5000;0.5315;1.2464;
457.8000;0.5356;1.2538;
458.1000;0.5364;1.2415;
458.4000;0.5340;1.2340;
458.7000;0.5364;1.2439;
459.0000;0.5356;1.2464;
459.3000;0.5389;1.2538;
459.6000;0.5356;1.2464;
459.9000;0.5348;1.2415;
460.2000;0.5397;1.2538;
460.5000;0.5332;1.2365;
460.8000;0.5315;1.2365;
461.1000;0.5324;1.2439;
461.4000;0.5381;1.2661;
461.7000;0.5372;1.2612;
462.0000;0.5340;1.2637;
462.3000;0.5413;1.2711;
462.6000;0.5356;1.2563;
462.9000;0.5332;1.2513;
463.2000;0.5283;1.2464;
463.5000;0.5356;1.2711;
463.8000;0.5332;1.2661;
464.1000;0.5332;1.2563;
464.4000;0.5348;1.2587;
464.7000;0.5340;1.2563;
465.0000;0.5372;1.2661;
465.3000;0.5340;1.2563;
465.6000;0.5332;1.2563;
465.9000;0.5324;1.2513;
466.2000;0.5340;1.2538;
466.5000;0.5340;1.2587;
466.8000;0.5315;1.2464;
467.1000;0.5332;1.2365;
467.4000;0.5348;1.2365;
467.7000;0.5340;1.2316;
468.0000;0.5332;1.2365;
468.3000;0.5348;1.2415;
468.6000;0.5340;1.2439;
468.9000;0.5332;1.2489;
469.2000;0.5364;1.2513;
469.5000;0.5348;1.2464;
469.8000;0.5332;1.2513;
470.1000;0.5332;1.2563;
470.4000;0.5348;1.2563;
470.7000;0.5340;1.2513;
471.0000;0.5340;1.2587;
471.3000;0.5340;1.2587;
471.6000;0.5364;1.2637;
471.9000;0.5381;1.2661;
472.2000;0.5340;1.2538;
472.5000;0.5381;1.2538;
472.8000;0.5340;1.2390;
473.1000;0.5372;1.2439;
473.4000;0.5340;1.2415;
473.7000;0.5348;1.2365;
474.0000;0.5299;1.2291;
474.3000;0.5356;1.2513;
474.6000;0.5348;1.2489;
474.9000;0.5242;1.2266;
475.2000;0.5356;1.2563;
475.5000;0.5413;1.2711;
475.8000;0.5324;1.2415;
476.1000;0.5315;1.2365;
476.4000;0.5332;1.2390;
476.7000;0.5332;1.2316;
477.0000;0.5340;1.2365;
477.3000;0.5348;1.2439;
477.6000;0.5348;1.2538;
477.9000;0.5421;1.2661;
478.2000;0.5364;1.2587;
478.5000;0.5356;1.2563;
478.8000;0.5324;1.2390;
479.1000;0.5389;1.2439;
479.4000;0.5364;1.2390;
479.7000;0.5364;1.2390;
480.0000;0.5348;1.2513;
480.3000;0.5315;1.2464;
480.6000;0.5364;1.2538;
480.9000;0.5340;1.2464;
481.2000;0.5332;1.2464;
481.5000;0.5413;1.2711;
481.8000;0.5340;1.2612;
482.1000;0.5381;1.2735;
482.4000;0.5397;1.2883;
482.7000;0.5275;1.2538;
483.0000;0.5348;1.2661;
483.3000;0.5372;1.2735;
483.6000;0.5340;1.2661;
483.9000;0.5332;1.2686;
484.2000;0.5348;1.2587;
484.5000;0.5348;1.2538;
484.8000;0.5364;1.2513;
485.1000;0.5332;1.2340;
485.4000;0.5340;1.2291;
485.7000;0.5307;1.2291;
486.0000;0.5348;1.2365;
486.3000;0.5356;1.2489;
486.6000;0.5348;1.2464;
486.9000;0.5340;1.2439;
487.2000;0.5356;1.2464;
487.5000;0.5348;1.2365;
487.8000;0.5324;1.2415;
488.1000;0.5348;1.2538;
488.4000;0.5340;1.2563;
488.7000;0.5364;1.2587;
489.0000;0.5340;1.2464;
489.3000;0.5348;1.2439;
489.6000;0.5348;1.2563;
489.9000;0.5332;1.2612;
490.2000;0.5348;1.2711;
490.5000;0.5348;1.2637;
490.8000;0.5356;1.2587;
491.1000;0.5340;1.2538;
491.4000;0.5372;1.2637;
491.7000;0.5462;1.2933;
492.0000;0.5356;1.2711;
492.3000;0.5348;1.2661;
492.6000;0.5356;1.2661;
492.9000;0.5389;1.2760;
493.2000;0.5332;1.2538;
493.5000;0.5356;1.2612;
493.8000;0.5324;1.2637;
494.1000;0.5348;1.2686;
494.4000;0.5340;1.2587;
494.7000;0.5324;1.2538;
495.0000;0.5348;1.2637;
495.3000;0.5372;1.2785;
495.6000;0.5356;1.2760;
495.9000;0.5356;1.2686;
496.2000;0.5364;1.2686;
496.5000;0.5348;1.2637;
496.8000;0.5348;1.2661;
497.1000;0.5299;1.2439;
497.4000;0.5356;1.2686;
497.7000;0.5348;1.2711;
498.0000;0.5348;1.2785;
498.3000;0.5340;1.2785;
498.6000;0.5397;1.2933;
498.9000;0.5340;1.2785;
499.2000;0.5364;1.2760;
499.5000;0.5340;1.2735;
499.8000;0.5348;1.2785;
500.1000;0.5315;1.2711;
500.4000;0.5364;1.2735;
500.7000;0.5324;1.2661;
501.0000;0.5348;1.2711;
501.3000;0.5348;1.2735;
501.6000;0.5307;1.2637;
501.9000;0.5356;1.2760;
502.2000;0.5348;1.2735;
502.5000;0.5332;1.2735;
502.8000;0.5372;1.2908;
503.1000;0.5356;1.2883;
503.4000;0.5340;1.2809;
503.7000;0.5340;1.2637;
504.0000;0.5315;1.2637;
504.3000;0.5356;1.2735;
504.6000;0.5340;1.2711;
504.9000;0.5348;1.2834;
505.2000;0.5372;1.2933;
505.5000;0.5348;1.2785;
505.8000;0.5364;1.2686;
506.1000;0.5324;1.2587;
506.4000;0.5340;1.2686;
506.7000;0.5324;1.2686;
507.0000;0.5348;1.2686;
507.3000;0.5340;1.2587;
507.6000;0.5348;1.2711;
507.9000;0.5348;1.2785;
508.2000;0.5462;1.3081;
508.5000;0.5364;1.2809;
508.8000;0.5356;1.2760;
509.1000;0.5356;1.2735;
509.4000;0.5348;1.2735;
509.7000;0.5356;1.2834;
510.0000;0.5332;1.2760;
510.3000;0.5340;1.2735;
510.6000;0.5324;1.2661;
510.9000;0.5324;1.2661;
511.2000;0.5421;1.2859;
511.5000;0.5332;1.2563;
511.8000;0.5332;1.2587;
512.1000;0.5340;1.2612;
512.4000;0.5340;1.2563;
512.7000;0.5332;1.2538;
513.0000;0.5356;1.2587;
513.3000;0.5299;1.2390;
513.6000;0.5348;1.2513;
513.9000;0.5332;1.2513;
514.2000;0.5307;1.2538;
514.5000;0.5348;1.2587;
514.8000;0.5364;1.2661;
515.1000;0.5340;1.2513;
515.4000;0.5332;1.2365;
515.7000;0.5397;1.2415;
516.0000;0.5356;1.2316;
516.3000;0.5462;1.2661;
516.6000;0.5356;1.2489;
516.9000;0.5364;1.2587;
517.2000;0.5332;1.2415;
517.5000;0.5332;1.2439;
517.8000;0.5291;1.2415;
518.1000;0.5340;1.2513;
518.4000;0.5340;1.2415;
518.7000;0.5348;1.2489;
519.0000;0.5340;1.2513;
519.3000;0.5364;1.2538;
519.6000;0.5356;1.2513;
519.9000;0.5348;1.2513;
520.2000;0.5332;1.2513;
520.5000;0.5356;1.2563;
520.8000;0.5332;1.2464;
521.1000;0.5324;1.2489;
521.4000;0.5340;1.2637;
521.7000;0.5332;1.2760;
522.0000;0.5307;1.2612;
522.3000;0.5332;1.2612;
522.6000;0.5340;1.2637;
522.9000;0.5291;1.2612;
523.2000;0.5348;1.2711;
523.5000;0.5356;1.2612;
523.8000;0.5356;1.2587;
524.1000;0.5348;1.2587;
524.4000;0.5348;1.2513;
524.7000;0.5348;1.2513;
525.0000;0.5348;1.2563;
525.3000;0.5348;1.2563;
525.6000;0.5348;1.2513;
525.9000;0.5340;1.2390;
526.2000;0.5340;1.2513;
526.5000;0.5348;1.2513;
526.8000;0.5332;1.2464;
527.1000;0.5364;1.2612;
527.4000;0.5372;1.2563;
527.7000;0.5340;1.2489;
528.0000;0.5348;1.2390;
528.3000;0.5389;1.2489;
528.6000;0.5397;1.2439;
528.9000;0.5340;1.2365;
529.2000;0.5348;1.2464;
529.5000;0.5348;1.2390;
529.8000;0.5356;1.2439;
530.1000;0.5307;1.2291;
530.4000;0.5332;1.2390;
530.7000;0.5397;1.2637;
531.0000;0.5348;1.2563;
531.3000;0.5348;1.2686;
531.6000;0.5340;1.2711;
531.9000;0.5397;1.2859;
532.2000;0.5446;1.2883;
532.5000;0.5348;1.2637;
532.8000;0.5340;1.2587;
533.1000;0.5348;1.2587;
533.4000;0.5332;1.2612;
533.7000;0.5348;1.2661;
534.0000;0.5348;1.2513;
534.3000;0.5356;1.2661;
534.6000;0.5348;1.2637;
534.9000;0.5348;1.2538;
535.2000;0.5250;1.2316;
535.5000;0.5340;1.2587;
535.8000;0.5307;1.2538;
536.1000;0.5340;1.2637;
536.4000;0.5372;1.2587;
536.7000;0.5291;1.2365;
537.0000;0.5348;1.2513;
537.3000;0.5397;1.2563;
537.6000;0.5356;1.2439;
537.9000;0.5356;1.2464;
538.2000;0.5307;1.2316;
538.5000;0.5356;1.2390;
538.8000;0.5332;1.2464;
539.1000;0.5348;1.2587;
539.4000;0.5356;1.2637;
539.7000;0.5421;1.2809;
540.0000;0.5348;1.2563;
540.3000;0.5364;1.2612;
540.6000;0.5332;1.2587;
540.9000;0.5340;1.2637;
541.2000;0.5356;1.2686;
541.5000;0.5348;1.2686;
541.8000;0.5364;1.2735;
542.1000;0.5340;1.2661;
542.4000;0.5324;1.2735;
542.7000;0.5348;1.2809;
543.0000;0.5324;1.2859;
543.3000;0.5324;1.2883;
543.6000;0.5324;1.2859;
543.9000;0.5324;1.2760;
544.2000;0.5340;1.2760;
544.5000;0.5340;1.2785;
544.8000;0.5348;1.2785;
545.1000;0.5438;1.2982;
545.4000;0.5364;1.2735;
545.7000;0.5356;1.2661;
546.0000;0.5356;1.2735;
546.3000;0.5324;1.2637;
546.6000;0.5315;1.2464;
546.9000;0.5372;1.2661;
547.2000;0.5348;1.2686;
547.5000;0.5356;1.2637;
547.8000;0.5348;1.2612;
548.1000;0.5372;1.2661;
548.4000;0.5356;1.2563;
548.7000;0.5348;1.2464;
549.0000;0.5332;1.2464;
549.3000;0.5332;1.2513;
549.6000;0.5348;1.2563;
549.9000;0.5356;1.2538;
550.2000;0.5356;1.2587;
550.5000;0.5291;1.2390;
550.8000;0.5348;1.2513;
551.1000;0.5348;1.2538;
551.4000;0.5348;1.2439;
551.7000;0.5348;1.2415;
552.0000;0.5340;1.2340;
552.3000;0.5421;1.2587;
552.6000;0.5348;1.2489;
552.9000;0.5356;1.2513;
553.2000;0.5397;1.2637;
553.5000;0.5267;1.2242;
553.8000;0.5348;1.2464;
554.1000;0.5372;1.2464;
554.4000;0.5315;1.2340;
554.7000;0.5332;1.2390;
555.0000;0.5348;1.2563;
555.3000;0.5307;1.2538;
555.6000;0.5340;1.2686;
555.9000;0.5356;1.2809;
556.2000;0.5348;1.2760;
556.5000;0.5332;1.2735;
556.8000;0.5332;1.2686;
557.1000;0.5348;1.2735;
557.4000;0.5340;1.2834;
557.7000;0.5381;1.2859;
558.0000;0.5348;1.2711;
558.3000;0.5356;1.2785;
558.6000;0.5348;1.2711;
558.9000;0.5348;1.2711;
559.2000;0.5340;1.2637;
559.5000;0.5332;1.2489;
559.8000;0.5397;1.2661;
560.1000;0.5348;1.2464;
560.4000;0.5348;1.2390;
560.7000;0.5315;1.2439;
561.0000;0.5348;1.2587;
561.3000;0.5332;1.2538;
561.6000;0.5324;1.2612;
561.9000;0.5332;1.2637;
562.2000;0.5348;1.2735;
562.5000;0.5315;1.2785;
562.8000;0.5356;1.2957;
563.1000;0.5307;1.2834;
563.4000;0.5348;1.2883;
563.7000;0.5340;1.2809;
564.0000;0.5340;1.2859;
564.3000;0.5307;1.2735;
564.6000;0.5324;1.2661;
564.9000;0.5348;1.2785;
565.2000;0.5348;1.2809;
565.5000;0.5348;1.2834;
565.8000;0.5332;1.2760;
566.1000;0.5348;1.2809;
566.4000;0.5348;1.2785;
566.7000;0.5348;1.2785;
567.0000;0.5340;1.2809;
567.3000;0.5340;1.2785;
567.6000;0.5332;1.2711;
567.9000;0.5332;1.2711;
568.2000;0.5324;1.2711;
568.5000;0.5340;1.2686;
568.8000;0.5348;1.2735;
569.1000;0.5348;1.2760;
569.4000;0.5356;1.2735;
569.7000;0.5348;1.2711;
570.0000;0.5275;1.2538;
570.3000;0.5332;1.2711;
570.6000;0.5356;1.2785;
570.9000;0.5315;1.2735;
571.2000;0.5324;1.2760;
571.5000;0.5250;1.2612;
571.8000;0.5332;1.2809;
572.1000;0.5397;1.2859;
572.4000;0.5348;1.2735;
572.7000;0.5332;1.2785;
573.0000;0.5348;1.2785;
573.3000;0.5397;1.2957;
573.6000;0.5332;1.2859;
573.9000;0.5299;1.2735;
574.2000;0.5324;1.2809;
574.5000;0.5340;1.2785;
574.8000;0.5356;1.2785;
575.1000;0.5340;1.2711;
575.4000;0.5324;1.2686;
575.7000;0.5340;1.2735;
576.0000;0.5348;1.2711;
576.3000;0.5364;1.2785;
576.6000;0.5324;1.2735;
576.9000;0.5348;1.2760;
577.2000;0.5340;1.2785;
577.5000;0.5348;1.2735;
577.8000;0.5340;1.2785;
578.1000;0.5324;1.2809;
578.4000;0.5356;1.2834;
578.7000;0.5340;1.2735;
579.0000;0.5332;1.2637;
579.3000;0.5340;1.2538;
579.6000;0.5356;1.2538;
579.9000;0.5364;1.2563;
580.2000;0.5364;1.2563;
580.5000;0.5332;1.2587;
580.8000;0.5348;1.2637;
581.1000;0.5421;1.2785;
581.4000;0.5340;1.2760;
581.7000;0.5315;1.2859;
582.0000;0.5364;1.3032;
582.3000;0.5324;1.2908;
582.6000;0.5332;1.2908;
582.9000;0.5332;1.2859;
583.2000;0.5364;1.2859;
583.5000;0.5340;1.2809;
583.8000;0.5340;1.2760;
584.1000;0.5332;1.2809;
584.4000;0.5332;1.2883;
584.7000;0.5324;1.2760;
585.0000;0.5332;1.2735;
585.3000;0.5348;1.2735;
585.6000;0.5348;1.2711;
585.9000;0.5348;1.2711;
586.2000;0.5348;1.2711;
586.5000;0.5340;1.2661;
586.8000;0.5348;1.2686;
587.1000;0.5324;1.2686;
587.4000;0.5356;1.2785;
587.7000;0.5356;1.2785;
588.0000;0.5356;1.2760;
588.3000;0.5356;1.2686;
588.6000;0.5340;1.2809;
588.9000;0.5356;1.2785;
589.2000;0.5356;1.2735;
589.5000;0.5372;1.2735;
589.8000;0.5356;1.2760;
590.1000;0.5348;1.2735;
590.4000;0.5348;1.2711;
590.7000;0.5348;1.2883;
591.0000;0.5348;1.2933;
591.3000;0.5364;1.2957;
591.6000;0.5340;1.2859;
591.9000;0.5340;1.2859;
592.2000;0.5364;1.2859;
592.5000;0.5307;1.2760;
592.8000;0.5372;1.2908;
593.1000;0.5348;1.2908;
593.4000;0.5348;1.2933;
593.7000;0.5356;1.2957;
594.0000;0.5332;1.2760;
594.3000;0.5324;1.2711;
594.6000;0.5340;1.2785;
594.9000;0.5315;1.2785;
595.2000;0.5315;1.2785;
595.5000;0.5324;1.2760;
595.8000;0.5315;1.2661;
596.1000;0.5372;1.2809;
596.4000;0.5389;1.2809;
596.7000;0.5348;1.2760;
597.0000;0.5250;1.2513;
597.3000;0.5332;1.2686;
597.6000;0.5348;1.2760;
597.9000;0.5324;1.2711;
598.2000;0.5324;1.2686;
598.5000;0.5332;1.2834;
598.8000;0.5348;1.2859;
599.1000;0.5291;1.2637;
599.4000;0.5332;1.2735;
599.7000;0.5340;1.2834;
600.0000;0.5348;1.2760;
600.3000;0.5340;1.2661;
600.6000;0.5348;1.2637;
600.9000;0.5324;1.2513;
601.2000;0.5299;1.2390;
601.5000;0.5250;1.2291;
601.8000;0.5242;1.2192;
602.1000;0.5169;1.1847;
602.4000;0.5161;1.1723;
602.7000;0.5144;1.1526;
603.0000;0.5104;1.1427;
603.3000;0.5079;1.1279;
603.6000;0.5031;1.1057;
603.9000;0.4990;1.0909;
604.2000;0.4949;1.0810;
604.5000;0.4949;1.0736;
604.8000;0.4900;1.0613;
605.1000;0.4908;1.0563;
605.4000;0.4868;1.0440;
605.7000;0.4843;1.0341;
606.0000;0.4843;1.0317;
606.3000;0.4803;1.0218;
606.6000;0.4803;1.0341;
606.9000;0.4786;1.0243;
607.2000;0.4754;1.0045;
607.5000;0.4746;1.0045;
607.8000;0.4746;1.0070;
608.1000;0.4705;0.9922;
608.4000;0.4713;0.9946;
608.7000;0.4681;0.9922;
609.0000;0.4681;0.9922;
609.3000;0.4656;0.9946;
609.6000;0.4640;0.9897;
609.9000;0.4624;0.9848;
610.2000;0.4624;0.9823;
610.5000;0.4607;0.9872;
610.8000;0.4599;0.9897;
611.1000;0.4558;0.9823;
611.4000;0.4575;0.9798;
611.7000;0.4534;0.9724;
612.0000;0.4591;0.9897;
612.3000;0.4567;0.9848;
612.6000;0.4518;0.9749;
612.9000;0.4534;0.9823;
613.2000;0.4493;0.9724;
613.5000;0.4526;0.9749;
613.8000;0.4501;0.9626;
614.1000;0.4485;0.9626;
614.4000;0.4493;0.9700;
614.7000;0.4461;0.9626;
615.0000;0.4453;0.9601;
615.3000;0.4453;0.9626;
615.6000;0.4444;0.9650;
615.9000;0.4428;0.9650;
616.2000;0.4363;0.9527;
616.5000;0.4461;0.9848;
616.8000;0.4420;0.9749;
617.1000;0.4306;0.9477;
617.4000;0.4322;0.9576;
617.7000;0.4404;0.9724;
618.0000;0.4461;0.9798;
618.3000;0.4387;0.9700;
618.6000;0.4355;0.9700;
618.9000;0.4371;0.9749;
619.2000;0.4347;0.9749;
619.5000;0.4363;0.9749;
619.8000;0.4363;0.9749;
620.1000;0.4330;0.9749;
620.4000;0.4322;0.9724;
620.7000;0.4314;0.9650;
621.0000;0.4330;0.9724;
621.3000;0.4298;0.9576;
621.6000;0.4306;0.9527;
621.9000;0.4298;0.9552;
622.2000;0.4290;0.9552;
622.5000;0.4306;0.9576;
622.8000;0.4274;0.9502;
623.1000;0.4282;0.9552;
623.4000;0.4241;0.9403;
623.7000;0.4274;0.9502;
624.0000;0.4274;0.9527;
624.3000;0.4249;0.9428;
624.6000;0.4249;0.9453;
624.9000;0.4257;0.9552;
625.2000;0.4192;0.9354;
625.5000;0.4225;0.9453;
625.8000;0.4241;0.9552;
626.1000;0.4274;0.9675;
626.4000;0.4241;0.9552;
626.7000;0.4249;0.9552;
627.0000;0.4217;0.9477;
627.3000;0.4274;0.9626;
627.6000;0.4217;0.9453;
627.9000;0.4192;0.9379;
628.2000;0.4217;0.9527;
628.5000;0.4192;0.9527;
628.8000;0.4151;0.9428;
629.1000;0.4184;0.9576;
629.4000;0.4168;0.9626;
629.7000;0.4168;0.9576;
630.0000;0.4184;0.9576;
630.3000;0.4184;0.9527;
630.6000;0.4151;0.9403;
630.9000;0.4160;0.9428;
631.2000;0.4184;0.9527;
631.5000;0.4135;0.9527;
631.8000;0.4168;0.9601;
632.1000;0.4143;0.9626;
632.4000;0.4119;0.9576;
632.7000;0.4151;0.9552;
633.0000;0.4111;0.9453;
633.3000;0.4119;0.9527;
633.6000;0.4111;0.9576;
633.9000;0.4127;0.9675;
634.2000;0.4086;0.9601;
634.5000;0.4094;0.9601;
634.8000;0.4135;0.9650;
635.1000;0.4103;0.9527;
635.4000;0.4103;0.9552;
635.7000;0.4111;0.9601;
636.0000;0.4111;0.9502;
636.3000;0.4103;0.9552;
636.6000;0.4111;0.9650;
636.9000;0.4078;0.9675;
637.2000;0.4111;0.9798;
637.5000;0.4086;0.9823;
637.8000;0.4078;0.9798;
638.1000;0.4062;0.9675;
638.4000;0.4119;0.9798;
638.7000;0.4086;0.9700;
639.0000;0.4062;0.9601;
639.3000;0.4070;0.9527;
639.6000;0.4070;0.9552;
639.9000;0.4168;0.9848;
640.2000;0.4021;0.9453;
640.5000;0.4062;0.9552;
640.8000;0.4054;0.9552;
641.1000;0.4054;0.9552;
641.4000;0.4094;0.9650;
641.7000;0.4054;0.9527;
642.0000;0.4037;0.9527;
642.3000;0.4054;0.9552;
642.6000;0.3964;0.9305;
642.9000;0.4037;0.9428;
643.2000;0.4005;0.9453;
643.5000;0.4037;0.9552;
643.8000;0.4037;0.9502;
644.1000;0.4029;0.9477;
644.4000;0.4037;0.9477;
644.7000;0.4037;0.9477;
645.0000;0.4078;0.9576;
645.3000;0.4021;0.9453;
645.6000;0.4013;0.9601;
645.9000;0.4021;0.9626;
646.2000;0.4013;0.9601;
646.5000;0.4013;0.9477;
646.8000;0.4021;0.9453;
647.1000;0.4021;0.9428;
647.4000;0.4070;0.9601;
647.7000;0.4013;0.9428;
648.0000;0.4037;0.9502;
648.3000;0.4021;0.9453;
648.6000;0.4021;0.9601;
648.9000;0.4013;0.9601;
649.2000;0.4021;0.9576;
649.5000;0.4013;0.9576;
649.8000;0.3989;0.9527;
650.1000;0.3989;0.9576;
650.4000;0.3997;0.9527;
650.7000;0.4005;0.9527;
651.0000;0.3972;0.9477;
651.3000;0.3997;0.9453;
651.6000;0.3989;0.9502;
651.9000;0.3980;0.9329;
652.2000;0.3956;0.9280;
652.5000;0.3972;0.9255;
652.8000;0.3980;0.9206;
653.1000;0.3980;0.9206;
653.4000;0.3980;0.9157;
653.7000;0.3989;0.9231;
654.0000;0.3980;0.9305;
654.3000;0.3972;0.9329;
654.6000;0.3989;0.9379;
654.9000;0.3980;0.9403;
655.2000;0.3956;0.9305;
655.5000;0.3972;0.9305;
655.8000;0.3956;0.9231;
656.1000;0.3980;0.9231;
656.4000;0.3972;0.9206;
656.7000;0.3964;0.9206;
657.0000;0.3948;0.9181;
657.3000;0.3972;0.9280;
657.6000;0.3980;0.9255;
657.9000;0.3915;0.9231;
658.2000;0.3964;0.9305;
658.5000;0.3964;0.9305;
658.8000;0.3940;0.9280;
659.1000;0.3956;0.9354;
659.4000;0.3948;0.9379;
659.7000;0.4013;0.9502;
660.0000;0.3948;0.9329;
660.3000;0.3972;0.9379;
660.6000;0.3964;0.9305;
660.9000;0.3948;0.9231;
661.2000;0.3948;0.9255;
661.5000;0.3964;0.9305;
661.8000;0.3940;0.9280;
662.1000;0.3899;0.9206;
662.4000;0.3932;0.9403;
662.7000;0.3940;0.9403;
663.0000;0.3948;0.9403;
663.3000;0.3891;0.9354;
663.6000;0.3932;0.9502;
663.9000;0.3972;0.9576;
664.2000;0.3972;0.9576;
664.5000;0.3940;0.9576;
664.8000;0.3883;0.9453;
665.1000;0.3989;0.9774;
665.4000;0.3940;0.9527;
665.7000;0.4013;0.9552;
666.0000;0.3923;0.9305;
666.3000;0.3923;0.9280;
666.6000;0.3923;0.9305;
666.9000;0.3907;0.9329;
667.2000;0.3883;0.9280;
667.5000;0.3940;0.9329;
667.8000;0.3923;0.9280;
668.1000;0.3964;0.9379;
668.4000;0.3932;0.9231;
668.7000;0.3891;0.9181;
669.0000;0.3923;0.9305;
669.3000;0.3899;0.9231;
669.6000;0.3915;0.9305;
669.9000;0.3932;0.9280;
670.2000;0.3899;0.9255;
670.5000;0.3923;0.9206;
670.8000;0.3915;0.9132;
671.1000;0.3940;0.9305;
671.4000;0.3923;0.9305;
671.7000;0.3915;0.9354;
672.0000;0.3875;0.9206;
672.3000;0.3850;0.9280;
672.6000;0.3907;0.9403;
672.9000;0.3907;0.9354;
673.2000;0.3883;0.9379;
673.5000;0.3899;0.9354;
673.8000;0.3875;0.9354;
674.1000;0.3915;0.9428;
674.4000;0.3883;0.9453;
674.7000;0.3891;0.9576;
675.0000;0.3891;0.9626;
675.3000;0.3883;0.9749;
675.6000;0.3907;0.9675;
675.9000;0.3883;0.9527;
676.2000;0.3891;0.9552;
676.5000;0.3883;0.9403;
676.8000;0.3915;0.9379;
677.1000;0.3907;0.9354;
677.4000;0.3867;0.9280;
677.7000;0.3875;0.9280;
678.0000;0.3875;0.9181;
678.3000;0.3891;0.9280;
678.6000;0.3899;0.9255;
678.9000;0.3883;0.9231;
679.2000;0.3891;0.9231;
679.5000;0.3891;0.9255;
679.8000;0.3883;0.9255;
680.1000;0.3867;0.9305;
680.4000;0.3907;0.9379;
680.7000;0.3867;0.9206;
681.0000;0.3875;0.9280;
681.3000;0.3891;0.9354;
681.6000;0.3891;0.9280;
681.9000;0.3989;0.9552;
682.2000;0.3883;0.9354;
682.5000;0.3899;0.9354;
682.8000;0.3891;0.9403;
683.1000;0.3915;0.9453;
683.4000;0.3891;0.9379;
683.7000;0.3891;0.9329;
684.0000;0.3875;0.9354;
684.3000;0.3915;0.9477;
684.6000;0.3907;0.9354;
684.9000;0.3875;0.9354;
685.2000;0.3883;0.9354;
685.5000;0.3867;0.9206;
685.8000;0.3875;0.9206;
686.1000;0.3858;0.9255;
686.4000;0.3850;0.9305;
686.7000;0.3883;0.9428;
687.0000;0.3883;0.9453;
687.3000;0.3867;0.9502;
687.6000;0.3883;0.9552;
687.9000;0.3810;0.9354;
688.2000;0.3810;0.9502;
688.5000;0.3842;0.9650;
688.8000;0.3867;0.9601;
689.1000;0.3858;0.9527;
689.4000;0.3867;0.9502;
689.7000;0.3875;0.9502;
690.0000;0.3883;0.9453;
690.3000;0.3842;0.9305;
690.6000;0.3850;0.9329;
690.9000;0.3867;0.9329;
691.2000;0.3793;0.9206;
691.5000;0.3842;0.9255;
691.8000;0.3875;0.9280;
692.1000;0.3875;0.9255;
692.4000;0.3956;0.9552;
692.7000;0.3858;0.9280;
693.0000;0.3769;0.9058;
693.3000;0.3850;0.9181;
693.6000;0.3867;0.9206;
693.9000;0.3850;0.9255;
694.2000;0.3867;0.9379;
694.5000;0.3867;0.9379;
694.8000;0.3858;0.9329;
695.1000;0.3850;0.9305;
695.4000;0.3777;0.9255;
695.7000;0.3867;0.9477;
696.0000;0.3850;0.9354;
696.3000;0.3850;0.9403;
696.6000;0.3850;0.9502;
696.9000;0.3875;0.9576;
697.2000;0.3850;0.9552;
697.5000;0.3875;0.9650;
697.8000;0.3826;0.9601;
698.1000;0.3850;0.9601;
698.4000;0.3858;0.9576;
698.7000;0.3826;0.9477;
699.0000;0.3867;0.9527;
699.3000;0.3826;0.9329;
699.6000;0.3850;0.9354;
699.9000;0.3850;0.9354;
700.2000;0.3850;0.9305;
700.5000;0.3850;0.9231;
700.8000;0.3850;0.9231;
701.1000;0.3850;0.9305;
701.4000;0.3842;0.9305;
701.7000;0.3858;0.9403;
702.0000;0.3818;0.9206;
702.3000;0.3850;0.9379;
702.6000;0.3850;0.9329;
702.9000;0.3842;0.9255;
703.2000;0.3858;0.9354;
703.5000;0.3858;0.9354;
703.8000;0.3867;0.9354;
704.1000;0.3883;0.9477;
704.4000;0.3858;0.9477;
704.7000;0.3850;0.9552;
705.0000;0.3810;0.9477;
705.3000;0.3834;0.9527;
705.6000;0.3834;0.9650;
705.9000;0.3842;0.9650;
706.2000;0.3842;0.9626;
706.5000;0.3850;0.9675;
706.8000;0.3850;0.9700;
707.1000;0.3907;0.9922;
707.4000;0.3834;0.9576;
707.7000;0.3834;0.9502;
708.0000;0.3842;0.9477;
708.3000;0.3850;0.9428;
708.6000;0.3867;0.9329;
708.9000;0.3842;0.9231;
709.2000;0.3810;0.9231;
709.5000;0.3867;0.9329;
709.8000;0.3850;0.9453;
710.1000;0.3891;0.9576;
710.4000;0.3842;0.9601;
710.7000;0.3834;0.9601;
711.0000;0.3826;0.9626;
711.3000;0.3850;0.9626;
711.6000;0.3875;0.9675;
711.9000;0.3810;0.9502;
712.2000;0.3883;0.9724;
712.5000;0.3761;0.9354;
712.8000;0.3867;0.9527;
713.1000;0.3834;0.9477;
713.4000;0.3842;0.9527;
713.7000;0.3801;0.9379;
714.0000;0.3834;0.9502;
714.3000;0.3818;0.9453;
714.6000;0.3826;0.9502;
714.9000;0.3826;0.9576;
715.2000;0.3826;0.9502;
715.5000;0.3842;0.9477;
715.8000;0.3858;0.9428;
716.1000;0.3834;0.9428;
716.4000;0.3875;0.9527;
716.7000;0.3826;0.9354;
717.0000;0.3818;0.9354;
717.3000;0.3867;0.9576;
717.6000;0.3801;0.9453;
717.9000;0.3720;0.9255;
718.2000;0.3834;0.9527;
718.5000;0.3834;0.9601;
718.8000;0.3810;0.9527;
719.1000;0.3810;0.9576;
719.4000;0.3891;0.9724;
719.7000;0.3834;0.9576;
720.0000;0.3834;0.9601;
720.3000;0.3826;0.9601;
720.6000;0.3826;0.9502;
720.9000;0.3834;0.9502;
721.2000;0.3826;0.9379;
721.5000;0.3826;0.9428;
721.8000;0.3834;0.9453;
722.1000;0.3826;0.9403;
722.4000;0.3826;0.9305;
722.7000;0.3826;0.9255;
723.0000;0.3818;0.9231;
723.3000;0.3761;0.9058;
723.6000;0.3850;0.9329;
723.9000;0.3834;0.9329;
724.2000;0.3793;0.9206;
724.5000;0.3826;0.9354;
724.8000;0.3850;0.9428;
725.1000;0.3826;0.9305;
725.4000;0.3818;0.9280;
725.7000;0.3842;0.9379;
726.0000;0.3850;0.9379;
726.3000;0.3834;0.9379;
726.6000;0.3793;0.9354;
726.9000;0.3907;0.9700;
727.2000;0.3801;0.9354;
727.5000;0.3826;0.9354;
727.8000;0.3785;0.9379;
728.1000;0.3826;0.9601;
728.4000;0.3785;0.9477;
728.7000;0.3826;0.9552;
729.0000;0.3810;0.9477;
729.3000;0.3834;0.9552;
729.6000;0.3842;0.9601;
729.9000;0.3834;0.9576;
730.2000;0.3834;0.9552;
730.5000;0.3801;0.9428;
730.8000;0.3834;0.9477;
731.1000;0.3883;0.9601;
731.4000;0.3818;0.9428;
731.7000;0.3842;0.9477;
732.0000;0.3793;0.9527;
732.3000;0.3826;0.9626;
732.6000;0.3826;0.9626;
732.9000;0.3826;0.9700;
733.2000;0.3842;0.9749;
733.5000;0.3810;0.9552;
733.8000;0.3793;0.9552;
734.1000;0.3818;0.9650;
734.4000;0.3744;0.9527;
734.7000;0.3801;0.9749;
735.0000;0.3818;0.9749;
735.3000;0.3793;0.9675;
735.6000;0.3810;0.9650;
735.9000;0.3810;0.9626;
736.2000;0.3785;0.9601;
736.5000;0.3818;0.9626;
736.8000;0.3826;0.9601;
737.1000;0.3818;0.9601;
737.4000;0.3801;0.9477;
737.7000;0.3810;0.9552;
738.0000;0.3801;0.9552;
738.3000;0.3793;0.9527;
738.6000;0.3810;0.9601;
738.9000;0.3785;0.9601;
739.2000;0.3818;0.9700;
739.5000;0.3801;0.9675;
739.8000;0.3801;0.9798;
740.1000;0.3801;0.9848;
740.4000;0.3834;0.9848;
740.7000;0.3875;0.9971;
741.0000;0.3785;0.9724;
741.3000;0.3810;0.9626;
741.6000;0.3810;0.9626;
741.9000;0.3818;0.9675;
742.2000;0.3810;0.9601;
742.5000;0.3810;0.9675;
742.8000;0.3818;0.9650;
743.1000;0.3785;0.9576;
743.4000;0.3818;0.9700;
743.7000;0.3801;0.9626;
744.0000;0.3801;0.9700;
744.3000;0.3940;1.0045;
744.6000;0.3810;0.9626;
744.9000;0.3793;0.9552;
745.2000;0.3793;0.9576;
745.5000;0.3810;0.9601;
745.8000;0.3810;0.9477;
746.1000;0.3818;0.9379;
746.4000;0.3818;0.9305;
746.7000;0.3826;0.9354;
747.0000;0.3842;0.9428;
747.3000;0.3801;0.9305;
747.6000;0.3818;0.9255;
747.9000;0.3818;0.9231;
748.2000;0.3818;0.9181;
748.5000;0.3810;0.9181;
748.8000;0.3801;0.9206;
749.1000;0.3826;0.9329;
749.4000;0.3801;0.9354;
749.7000;0.3801;0.9379;
750.0000;0.3793;0.9305;
750.3000;0.3810;0.9379;
750.6000;0.3793;0.9354;
750.9000;0.3736;0.9206;
751.2000;0.3793;0.9477;
751.5000;0.3793;0.9502;
751.8000;0.3801;0.9601;
752.1000;0.3818;0.9675;
752.4000;0.3801;0.9626;
752.7000;0.3801;0.9675;
753.0000;0.3736;0.9477;
753.3000;0.3810;0.9601;
753.6000;0.3793;0.9650;
753.9000;0.3793;0.9650;
754.2000;0.3793;0.9601;
754.5000;0.3793;0.9601;
754.8000;0.3785;0.9502;
755.1000;0.3777;0.9552;
755.4000;0.3801;0.9576;
755.7000;0.3793;0.9502;
756.0000;0.3810;0.9477;
756.3000;0.3793;0.9428;
756.6000;0.3793;0.9403;
756.9000;0.3818;0.9477;
757.2000;0.3810;0.9552;
757.5000;0.3826;0.9626;
757.8000;0.3769;0.9502;
758.1000;0.3793;0.9675;
758.4000;0.3810;0.9724;
758.7000;0.3801;0.9552;
759.0000;0.3867;0.9576;
759.3000;0.3801;0.9428;
759.6000;0.3810;0.9403;
759.9000;0.3801;0.9502;
760.2000;0.3810;0.9527;
760.5000;0.3793;0.9477;
760.8000;0.3810;0.9626;
761.1000;0.3785;0.9626;
761.4000;0.3810;0.9700;
761.7000;0.3785;0.9650;
762.0000;0.3793;0.9650;
762.3000;0.3769;0.9576;
762.6000;0.3793;0.9601;
762.9000;0.3810;0.9601;
763.2000;0.3826;0.9576;
763.5000;0.3801;0.9601;
763.8000;0.3818;0.9626;
764.1000;0.3850;0.9774;
764.4000;0.3785;0.9576;
764.7000;0.3801;0.9650;
765.0000;0.3801;0.9675;
765.3000;0.3818;0.9700;
765.6000;0.3785;0.9650;
765.9000;0.3818;0.9675;
766.2000;0.3769;0.9477;
766.5000;0.3769;0.9453;
766.8000;0.3785;0.9527;
767.1000;0.3785;0.9552;
767.4000;0.3777;0.9527;
767.7000;0.3810;0.9749;
768.0000;0.3769;0.9675;
768.3000;0.3801;0.9798;
768.6000;0.3810;0.9848;
768.9000;0.3818;0.9848;
769.2000;0.3818;0.9823;
769.5000;0.3801;0.9774;
769.8000;0.3793;0.9700;
770.1000;0.3777;0.9675;
770.4000;0.3810;0.9774;
770.7000;0.3785;0.9749;
771.0000;0.3785;0.9724;
771.3000;0.3728;0.9626;
771.6000;0.3810;0.9774;
771.9000;0.3858;0.9897;
772.2000;0.3793;0.9823;
772.5000;0.3777;0.9724;
772.8000;0.3834;0.9971;
773.1000;0.3818;0.9823;
773.4000;0.3793;0.9650;
773.7000;0.3761;0.9576;
774.0000;0.3785;0.9724;
774.3000;0.3785;0.9700;
774.6000;0.3793;0.9675;
774.9000;0.3785;0.9601;
775.2000;0.3777;0.9576;
775.5000;0.3785;0.9601;
775.8000;0.3777;0.9601;
776.1000;0.3793;0.9700;
776.4000;0.3793;0.9724;
776.7000;0.3801;0.9798;
777.0000;0.3769;0.9848;
777.3000;0.3801;0.9996;
777.6000;0.3801;0.9922;
777.9000;0.3736;0.9848;
778.2000;0.3801;0.9996;
778.5000;0.3761;0.9848;
778.8000;0.3793;0.9946;
779.1000;0.3793;0.9996;
779.4000;0.3801;0.9946;
779.7000;0.3769;0.9749;
780.0000;0.3785;0.9823;
780.3000;0.3769;0.9749;
780.6000;0.3769;0.9724;
780.9000;0.3793;0.9774;
781.2000;0.3785;0.9798;
781.5000;0.3793;0.9749;
781.8000;0.3769;0.9724;
782.1000;0.3793;0.9724;
782.4000;0.3728;0.9576;
782.7000;0.3793;0.9675;
783.0000;0.3769;0.9601;
783.3000;0.3801;0.9749;
783.6000;0.3753;0.9774;
783.9000;0.3793;0.9724;
784.2000;0.3777;0.9749;
784.5000;0.3728;0.9626;
784.8000;0.3785;0.9724;
785.1000;0.3777;0.9700;
785.4000;0.3793;0.9749;
785.7000;0.3810;0.9897;
786.0000;0.3785;0.9971;
786.3000;0.3785;0.9872;
786.6000;0.3801;0.9946;
786.9000;0.3801;0.9946;
787.2000;0.3810;0.9946;
787.5000;0.3810;0.9823;
787.8000;0.3793;0.9848;
788.1000;0.3777;0.9848;
788.4000;0.3834;0.9922;
788.7000;0.3793;0.9897;
789.0000;0.3744;0.9724;
789.3000;0.3785;0.9823;
789.6000;0.3785;0.9774;
789.9000;0.3810;0.9774;
790.2000;0.3736;0.9576;
790.5000;0.3761;0.9576;
790.8000;0.3761;0.9502;
791.1000;0.3801;0.9700;
791.4000;0.3777;0.9650;
791.7000;0.3769;0.9552;
792.0000;0.3801;0.9576;
792.3000;0.3777;0.9527;
792.6000;0.3777;0.9650;
792.9000;0.3801;0.9798;
793.2000;0.3785;0.9749;
793.5000;0.3785;0.9774;
793.8000;0.3761;0.9700;
794.1000;0.3785;0.9774;
794.4000;0.3793;0.9823;
794.7000;0.3801;0.9823;
795.0000;0.3818;0.9922;
795.3000;0.3793;0.9848;
795.6000;0.3785;0.9872;
795.9000;0.3793;0.9774;
796.2000;0.3785;0.9848;
796.5000;0.3785;0.9872;
796.8000;0.3793;0.9848;
797.1000;0.3777;0.9774;
797.4000;0.3777;0.9749;
797.7000;0.3793;0.9650;
798.0000;0.3801;0.9650;
798.3000;0.3818;0.9675;
798.6000;0.3793;0.9601;
798.9000;0.3850;0.9724;
799.2000;0.3785;0.9650;
799.5000;0.3801;0.9700;
799.8000;0.3785;0.9700;
800.1000;0.3842;0.9922;
800.4000;0.3769;0.9675;
800.7000;0.3801;0.9774;
801.0000;0.3785;0.9774;
801.3000;0.3818;0.9922;
801.6000;0.3769;0.9823;
801.9000;0.3769;0.9848;
802.2000;0.3777;0.9922;
802.5000;0.3777;0.9823;
802.8000;0.3793;0.9798;
803.1000;0.3801;0.9724;
803.4000;0.3777;0.9576;
803.7000;0.3753;0.9502;
804.0000;0.3867;0.9823;
804.3000;0.3777;0.9675;
804.6000;0.3793;0.9675;
804.9000;0.3785;0.9749;
805.2000;0.3826;0.9872;
805.5000;0.3753;0.9675;
805.8000;0.3769;0.9650;
806.1000;0.3696;0.9527;
806.4000;0.3777;0.9749;
806.7000;0.3785;0.9848;
807.0000;0.3793;0.9848;
807.3000;0.3777;0.9872;
807.6000;0.3720;0.9675;
807.9000;0.3785;0.9774;
808.2000;0.3777;0.9848;
808.5000;0.3761;0.9798;
808.8000;0.3777;0.9872;
809.1000;0.3793;0.9946;
809.4000;0.3810;0.9897;
809.7000;0.3793;0.9922;
810.0000;0.3801;0.9996;
810.3000;0.3777;0.9872;
810.6000;0.3810;0.9798;
810.9000;0.3761;0.9823;
811.2000;0.3793;0.9848;
811.5000;0.3761;0.9823;
811.8000;0.3777;0.9897;
812.1000;0.3769;0.9823;
812.4000;0.3793;0.9897;
812.7000;0.3777;0.9774;
813.0000;0.3858;0.9971;
813.3000;0.3801;0.9872;
813.6000;0.3793;0.9798;
813.9000;0.3785;0.9749;
814.2000;0.3793;0.9724;
814.5000;0.3793;0.9749;
814.8000;0.3818;0.9774;
815.1000;0.3777;0.9700;
815.4000;0.3793;0.9724;
815.7000;0.3777;0.9650;
816.0000;0.3793;0.9675;
816.3000;0.3793;0.9774;
816.6000;0.3785;0.9798;
816.9000;0.3818;0.9848;
817.2000;0.3801;0.9724;
817.5000;0.3785;0.9650;
817.8000;0.3720;0.9453;
818.1000;0.3769;0.9576;
818.4000;0.3793;0.9552;
818.7000;0.3810;0.9675;
819.0000;0.3769;0.9774;
819.3000;0.3777;0.9823;
819.6000;0.3801;0.9897;
819.9000;0.3777;0.9774;
820.2000;0.3785;0.9774;
820.5000;0.3793;0.9798;
820.8000;0.3793;0.9774;
821.1000;0.3818;0.9774;
821.4000;0.3810;0.9774;
821.7000;0.3769;0.9700;
822.0000;0.3704;0.9477;
822.3000;0.3769;0.9650;
822.6000;0.3777;0.9576;
822.9000;0.3744;0.9527;
823.2000;0.3769;0.9601;
823.5000;0.3785;0.9626;
823.8000;0.3818;0.9700;
824.1000;0.3777;0.9601;
824.4000;0.3769;0.9650;
824.7000;0.3793;0.9700;
825.0000;0.3793;0.9626;
825.3000;0.3769;0.9552;
825.6000;0.3777;0.9576;
825.9000;0.3785;0.9601;
826.2000;0.3785;0.9700;
826.5000;0.3753;0.9626;
826.8000;0.3801;0.9700;
827.1000;0.3761;0.9675;
827.4000;0.3785;0.9774;
827.7000;0.3769;0.9700;
828.0000;0.3818;0.9774;
828.3000;0.3744;0.9576;
828.6000;0.3761;0.9601;
828.9000;0.3777;0.9700;
829.2000;0.3761;0.9798;
829.5000;0.3736;0.9675;
829.8000;0.3769;0.9823;
830.1000;0.3785;0.9946;
830.4000;0.3769;0.9922;
830.7000;0.3736;0.9872;
831.0000;0.3728;0.9848;
831.3000;0.3793;0.9971;
831.6000;0.3785;0.9946;
831.9000;0.3769;0.9872;
832.2000;0.3761;0.9823;
832.5000;0.3834;0.9971;
832.8000;0.3785;0.9848;
833.1000;0.3769;0.9724;
833.4000;0.3785;0.9675;
833.7000;0.3769;0.9527;
834.0000;0.3777;0.9626;
834.3000;0.3753;0.9601;
834.6000;0.3769;0.9576;
834.9000;0.3777;0.9601;
835.2000;0.3785;0.9650;
835.5000;0.3761;0.9675;
835.8000;0.3769;0.9675;
836.1000;0.3777;0.9749;
836.4000;0.3793;0.9897;
836.7000;0.3810;0.9971;
837.0000;0.3777;0.9823;
837.3000;0.3761;0.9724;
837.6000;0.3777;0.9798;
837.9000;0.3777;0.9774;
838.2000;0.3761;0.9650;
838.5000;0.3785;0.9774;
838.8000;0.3777;0.9749;
839.1000;0.3867;0.9872;
839.4000;0.3777;0.9576;
839.7000;0.3785;0.9650;
840.0000;0.3753;0.9650;
840.3000;0.3785;0.9700;
840.6000;0.3785;0.9724;
840.9000;0.3785;0.9650;
841.2000;0.3777;0.9552;
841.5000;0.3793;0.9626;
841.8000;0.3769;0.9601;
842.1000;0.3785;0.9675;
842.4000;0.3753;0.9576;
842.7000;0.3793;0.9724;
843.0000;0.3728;0.9626;
843.3000;0.3769;0.9724;
843.6000;0.3769;0.9626;
843.9000;0.3785;0.9675;
844.2000;0.3761;0.9601;
844.5000;0.3761;0.9626;
844.8000;0.3761;0.9626;
845.1000;0.3712;0.9576;
845.4000;0.3769;0.9724;
845.7000;0.3793;0.9724;
846.0000;0.3753;0.9601;
846.3000;0.3761;0.9601;
846.6000;0.3777;0.9675;
846.9000;0.3826;0.9848;
847.2000;0.3777;0.9798;
847.5000;0.3785;0.9848;
847.8000;0.3761;0.9798;
848.1000;0.3785;0.9872;
848.4000;0.3761;0.9774;
848.7000;0.3769;0.9675;
849.0000;0.3793;0.9749;
849.3000;0.3769;0.9749;
849.6000;0.3761;0.9798;
849.9000;0.3761;0.9774;
850.2000;0.3761;0.9626;
850.5000;0.3777;0.9700;
850.8000;0.3777;0.9774;
851.1000;0.3744;0.9749;
851.4000;0.3761;0.9675;
851.7000;0.3777;0.9798;
852.0000;0.3696;0.9576;
852.3000;0.3777;0.9774;
852.6000;0.3785;0.9823;
852.9000;0.3761;0.9749;
853.2000;0.3720;0.9700;
853.5000;0.3793;0.9823;
853.8000;0.3761;0.9675;
854.1000;0.3769;0.9675;
854.4000;0.3769;0.9675;
854.7000;0.3785;0.9774;
855.0000;0.3761;0.9700;
855.3000;0.3769;0.9749;
855.6000;0.3696;0.9477;
855.9000;0.3777;0.9700;
856.2000;0.3769;0.9724;
856.5000;0.3826;0.9823;
856.8000;0.3785;0.9724;
857.1000;0.3793;0.9700;
857.4000;0.3777;0.9650;
857.7000;0.3826;0.9774;
858.0000;0.3761;0.9527;
858.3000;0.3907;0.9848;
858.6000;0.3761;0.9453;
858.9000;0.3744;0.9329;
859.2000;0.3753;0.9403;
859.5000;0.3736;0.9403;
859.8000;0.3769;0.9576;
860.1000;0.3679;0.9403;
860.4000;0.3761;0.9724;
860.7000;0.3761;0.9749;
861.0000;0.3777;0.9749;
861.3000;0.3720;0.9601;
861.6000;0.3761;0.9700;
861.9000;0.3671;0.9552;
862.2000;0.3744;0.9774;
862.5000;0.3761;0.9848;
862.8000;0.3736;0.9749;
863.1000;0.3793;0.9897;
863.4000;0.3753;0.9749;
863.7000;0.3777;0.9872;
864.0000;0.3777;0.9823;
864.3000;0.3769;0.9848;
864.6000;0.3777;0.9897;
864.9000;0.3753;0.9872;
865.2000;0.3785;0.9922;
865.5000;0.3753;0.9848;
865.8000;0.3769;0.9823;
866.1000;0.3753;0.9749;
866.4000;0.3793;0.9848;
866.7000;0.3818;0.9946;
867.0000;0.3769;0.9996;
867.3000;0.3761;0.9946;
867.6000;0.3753;0.9897;
867.9000;0.3769;0.9946;
868.2000;0.3728;0.9922;
868.5000;0.3769;0.9823;
868.8000;0.3785;0.9724;
869.1000;0.3753;0.9601;
869.4000;0.3777;0.9675;
869.7000;0.3769;0.9700;
870.0000;0.3761;0.9823;
870.3000;0.3761;0.9848;
870.6000;0.3769;0.9922;
870.9000;0.3753;0.9749;
871.2000;0.3785;0.9749;
871.5000;0.3777;0.9774;
871.8000;0.3769;0.9749;
872.1000;0.3769;0.9626;
872.4000;0.3736;0.9527;
872.7000;0.3761;0.9576;
873.0000;0.3769;0.9626;
873.3000;0.3769;0.9724;
873.6000;0.3761;0.9675;
873.9000;0.3769;0.9675;
874.2000;0.3834;0.9848;
874.5000;0.3761;0.9650;
874.8000;0.3777;0.9749;
875.1000;0.3818;0.9848;
875.4000;0.3785;0.9774;
875.7000;0.3744;0.9774;
876.0000;0.3785;0.9848;
876.3000;0.3777;0.9848;
876.6000;0.3834;0.9971;
876.9000;0.3761;0.9798;
877.2000;0.3736;0.9700;
877.5000;0.3810;0.9922;
877.8000;0.3761;0.9922;
878.1000;0.3744;0.9848;
878.4000;0.3761;0.9848;
878.7000;0.3753;0.9798;
879.0000;0.3744;0.9749;
879.3000;0.3753;0.9700;
879.6000;0.3630;0.9428;
879.9000;0.3769;0.9823;
880.2000;0.3793;0.9798;
880.5000;0.3818;0.9774;
880.8000;0.3769;0.9700;
881.1000;0.3736;0.9675;
881.4000;0.3850;1.0020;
881.7000;0.3753;0.9798;
882.0000;0.3761;0.9724;
882.3000;0.3753;0.9626;
882.6000;0.3761;0.9749;
882.9000;0.3753;0.9724;
883.2000;0.3753;0.9724;
883.5000;0.3720;0.9626;
883.8000;0.3777;0.9798;
884.1000;0.3720;0.9601;
884.4000;0.3761;0.9798;
884.7000;0.3728;0.9700;
885.0000;0.3761;0.9798;
885.3000;0.3728;0.9823;
885.6000;0.3769;0.9872;
885.9000;0.3696;0.9724;
886.2000;0.3785;0.9922;
886.5000;0.3753;0.9848;
886.8000;0.3761;0.9823;
887.1000;0.3777;0.9922;
887.4000;0.3753;0.9897;
887.7000;0.3769;0.9897;
888.0000;0.3744;0.9798;
888.3000;0.3777;0.9946;
888.6000;0.3761;0.9872;
888.9000;0.3801;0.9971;
889.2000;0.3753;0.9848;
889.5000;0.3769;0.9872;
889.8000;0.3777;0.9872;
890.1000;0.3769;0.9798;
890.4000;0.3753;0.9848;
890.7000;0.3793;0.9996;
891.0000;0.3785;0.9971;
891.3000;0.3744;0.9798;
891.6000;0.3761;0.9823;
891.9000;0.3810;1.0045;
892.2000;0.3761;0.9971;
892.5000;0.3769;0.9946;
892.8000;0.3769;0.9872;
893.1000;0.3753;0.9823;
893.4000;0.3744;0.9823;
893.7000;0.3769;0.9872;
894.0000;0.3777;0.9872;
894.3000;0.3736;0.9872;
894.6000;0.3720;0.9823;
894.9000;0.3720;0.9872;
895.2000;0.3753;0.9946;
895.5000;0.3753;0.9946;
895.8000;0.3753;0.9897;
896.1000;0.3785;0.9897;
896.4000;0.3736;0.9798;
896.7000;0.3753;0.9848;
897.0000;0.3761;0.9922;
897.3000;0.3687;0.9700;
897.6000;0.3834;1.0094;
897.9000;0.3777;0.9749;
898.2000;0.3858;0.9897;
898.5000;0.3793;0.9724;
898.8000;0.3777;0.9749;
899.1000;0.3736;0.9749;
899.4000;0.3736;0.9675;
899.7000;0.3753;0.9650;
900.0000;0.3712;0.9576;
900.3000;0.3818;0.9946;
900.6000;0.3720;0.9774;
900.9000;0.3761;0.9848;
901.2000;0.3810;0.9996;
901.5000;0.3769;0.9823;
901.8000;0.3761;0.9774;
902.1000;0.3769;0.9823;
902.4000;0.3801;0.9897;
902.7000;0.3793;0.9946;
903.0000;0.3704;0.9848;
903.3000;0.3761;0.9996;
903.6000;0.3769;1.0094;
903.9000;0.3761;0.9946;
904.2000;0.3785;1.0020;
904.5000;0.3818;0.9996;
904.8000;0.3761;0.9798;
905.1000;0.3769;0.9798;
905.4000;0.3777;0.9823;
905.7000;0.3769;0.9700;
906.0000;0.3793;0.9774;
906.3000;0.3777;0.9724;
906.6000;0.3761;0.9527;
906.9000;0.3769;0.9552;
907.2000;0.3777;0.9576;
907.5000;0.3826;0.9675;
907.8000;0.3785;0.9552;
908.1000;0.3761;0.9502;
908.4000;0.3761;0.9552;
908.7000;0.3769;0.9552;
909.0000;0.3785;0.9650;
909.3000;0.3769;0.9650;
909.6000;0.3785;0.9626;
909.9000;0.3785;0.9650;
910.2000;0.3736;0.9626;
910.5000;0.3793;0.9798;
910.8000;0.3769;0.9700;
911.1000;0.3744;0.9724;
911.4000;0.3769;0.9700;
911.7000;0.3769;0.9675;
912.0000;0.3777;0.9700;
912.3000;0.3769;0.9749;
912.6000;0.3777;0.9749;
912.9000;0.3761;0.9749;
913.2000;0.3753;0.9774;
913.5000;0.3744;0.9650;
913.8000;0.3769;0.9650;
914.1000;0.3801;0.9823;
914.4000;0.3777;0.9774;
914.7000;0.3785;0.9823;
915.0000;0.3777;0.9848;
915.3000;0.3736;0.9700;
915.6000;0.3785;0.9897;
915.9000;0.3769;0.9823;
916.2000;0.3777;0.9823;
916.5000;0.3793;0.9872;
916.8000;0.3818;1.0094;
917.1000;0.3736;0.9823;
917.4000;0.3753;0.9774;
917.7000;0.3761;0.9823;
918.0000;0.3818;1.0045;
918.3000;0.3728;0.9922;
918.6000;0.3769;0.9971;
918.9000;0.3671;0.9700;
919.2000;0.3761;0.9823;
919.5000;0.3753;0.9749;
919.8000;0.3785;0.9749;
920.1000;0.3753;0.9774;
920.4000;0.3744;0.9774;
920.7000;0.3744;0.9823;
921.0000;0.3875;1.0094;
921.3000;0.3753;0.9749;
921.6000;0.3769;0.9798;
921.9000;0.3769;0.9798;
922.2000;0.3777;0.9872;
922.5000;0.3761;0.9823;
922.8000;0.3728;0.9700;
923.1000;0.3736;0.9749;
923.4000;0.3704;0.9527;
923.7000;0.3769;0.9724;
924.0000;0.3736;0.9749;
924.3000;0.3761;0.9798;
924.6000;0.3818;0.9971;
924.9000;0.3777;0.9823;
925.2000;0.3744;0.9650;
925.5000;0.3769;0.9749;
925.8000;0.3777;0.9848;
926.1000;0.3769;0.9798;
926.4000;0.3777;0.9749;
926.7000;0.3761;0.9675;
927.0000;0.3777;0.9774;
927.3000;0.3769;0.9798;
927.6000;0.3777;0.9848;
927.9000;0.3769;0.9897;
928.2000;0.3785;1.0020;
928.5000;0.3761;0.9922;
928.8000;0.3793;1.0070;
929.1000;0.3744;0.9971;
929.4000;0.3744;0.9922;
929.7000;0.3826;1.0045;
930.0000;0.3744;0.9897;
930.3000;0.3720;0.9774;
930.6000;0.3736;0.9749;
930.9000;0.3712;0.9650;
931.2000;0.3777;0.9823;
931.5000;0.3712;0.9601;
931.8000;0.3753;0.9700;
932.1000;0.3761;0.9798;
932.4000;0.3744;0.9724;
932.7000;0.3728;0.9724;
933.0000;0.3769;0.9823;
933.3000;0.3753;0.9774;
933.6000;0.3769;0.9749;
933.9000;0.3753;0.9724;
934.2000;0.3753;0.9724;
934.5000;0.3753;0.9675;
934.8000;0.3769;0.9675;
935.1000;0.3769;0.9650;
935.4000;0.3753;0.9601;
935.7000;0.3744;0.9576;
936.0000;0.3744;0.9576;
936.3000;0.3777;0.9626;
936.6000;0.3761;0.9576;
936.9000;0.3728;0.9552;
937.2000;0.3769;0.9675;
937.5000;0.3761;0.9749;
937.8000;0.3777;0.9749;
938.1000;0.3769;0.9700;
938.4000;0.3777;0.9700;
938.7000;0.3842;0.9872;
939.0000;0.3818;0.9946;
939.3000;0.3753;0.9823;
939.6000;0.3769;0.9897;
939.9000;0.3761;0.9922;
940.2000;0.3753;0.9971;
940.5000;0.3753;0.9996;
940.8000;0.3744;0.9971;
941.1000;0.3810;1.0070;
941.4000;0.3769;0.9897;
941.7000;0.3753;0.9872;
942.0000;0.3769;0.9848;
942.3000;0.3761;0.9848;
942.6000;0.3777;0.9872;
942.9000;0.3761;0.9774;
943.2000;0.3753;0.9650;
943.5000;0.3769;0.9601;
943.8000;0.3753;0.9527;
944.1000;0.3769;0.9576;
944.4000;0.3761;0.9601;
944.7000;0.3744;0.9601;
945.0000;0.3761;0.9675;
945.3000;0.3769;0.9724;
945.6000;0.3769;0.9798;
945.9000;0.3834;1.0070;
946.2000;0.3744;0.9848;
946.5000;0.3753;0.9848;
946.8000;0.3753;0.9872;
947.1000;0.3753;0.9872;
947.4000;0.3793;0.9971;
947.7000;0.3761;0.9724;
948.0000;0.3834;0.9946;
948.3000;0.3720;0.9700;
948.6000;0.3761;0.9724;
948.9000;0.3777;0.9749;
949.2000;0.3785;0.9749;
949.5000;0.3736;0.9700;
949.8000;0.3753;0.9798;
950.1000;0.3761;0.9798;
950.4000;0.3744;0.9749;
950.7000;0.3744;0.9724;
951.0000;0.3753;0.9749;
951.3000;0.3744;0.9823;
951.6000;0.3753;0.9922;
951.9000;0.3769;0.9996;
952.2000;0.3769;0.9946;
952.5000;0.3785;0.9996;
952.8000;0.3793;0.9872;
953.1000;0.3769;0.9848;
953.4000;0.3777;0.9798;
953.7000;0.3769;0.9798;
954.0000;0.3785;0.9823;
954.3000;0.3818;0.9872;
954.6000;0.3744;0.9626;
954.9000;0.3761;0.9552;
955.2000;0.3753;0.9601;
955.5000;0.3769;0.9700;
955.8000;0.3761;0.9700;
956.1000;0.3753;0.9576;
956.4000;0.3744;0.9576;
956.7000;0.3818;0.9626;
957.0000;0.3761;0.9453;
957.3000;0.3753;0.9527;
957.6000;0.3736;0.9502;
957.9000;0.3720;0.9527;
958.2000;0.3761;0.9700;
958.5000;0.3761;0.9700;
958.8000;0.3777;0.9724;
959.1000;0.3777;0.9724;
959.4000;0.3753;0.9724;
959.7000;0.3785;0.9798;
960.0000;0.3810;0.9848;
960.3000;0.3777;0.9798;
960.6000;0.3753;0.9823;
960.9000;0.3753;0.9823;
961.2000;0.3761;0.9872;
961.5000;0.3761;0.9922;
961.8000;0.3761;0.9848;
962.1000;0.3826;1.0070;
962.4000;0.3777;0.9798;
962.7000;0.3744;0.9724;
963.0000;0.3761;0.9848;
963.3000;0.3777;0.9848;
963.6000;0.3777;0.9848;
963.9000;0.3728;0.9774;
964.2000;0.3769;0.9897;
964.5000;0.3761;0.9922;
964.8000;0.3712;0.9848;
965.1000;0.3761;0.9897;
965.4000;0.3769;0.9946;
965.7000;0.3777;0.9922;
966.0000;0.3842;1.0020;
966.3000;0.3793;0.9872;
966.6000;0.3810;0.9872;
966.9000;0.3696;0.9576;
967.2000;0.3850;0.9922;
967.5000;0.3785;0.9848;
967.8000;0.3826;0.9848;
968.1000;0.3744;0.9675;
968.4000;0.3753;0.9650;
968.7000;0.3769;0.9675;
969.0000;0.3761;0.9626;
969.3000;0.3712;0.9552;
969.6000;0.3728;0.9552;
969.9000;0.3753;0.9552;
970.2000;0.3761;0.9552;
970.5000;0.3753;0.9428;
970.8000;0.3744;0.9453;
971.1000;0.3753;0.9650;
971.4000;0.3744;0.9724;
971.7000;0.3720;0.9626;
972.0000;0.3769;0.9675;
972.3000;0.3761;0.9724;
972.6000;0.3753;0.9724;
972.9000;0.3769;0.9774;
973.2000;0.3744;0.9774;
973.5000;0.3793;0.9897;
973.8000;0.3785;0.9823;
974.1000;0.3777;0.9823;
974.4000;0.3736;0.9749;
974.7000;0.3769;0.9823;
975.0000;0.3753;0.9749;
975.3000;0.3777;0.9774;
975.6000;0.3753;0.9749;
975.9000;0.3736;0.9675;
976.2000;0.3769;0.9650;
976.5000;0.3801;0.9724;
976.8000;0.3753;0.9650;
977.1000;0.3777;0.9650;
977.4000;0.3777;0.9724;
977.7000;0.3769;0.9798;
978.0000;0.3744;0.9774;
978.3000;0.3753;0.9774;
978.6000;0.3744;0.9774;
978.9000;0.3761;0.9823;
979.2000;0.3769;0.9798;
979.5000;0.3761;0.9798;
979.8000;0.3801;0.9971;
980.1000;0.3736;0.9823;
980.4000;0.3753;0.9798;
980.7000;0.3736;0.9798;
981.0000;0.3769;0.9848;
981.3000;0.3769;0.9823;
981.6000;0.3753;0.9798;
981.9000;0.3769;0.9872;
982.2000;0.3777;0.9872;
982.5000;0.3777;0.9798;
982.8000;0.3850;0.9897;
983.1000;0.3785;0.9872;
983.4000;0.3761;0.9848;
983.7000;0.3744;0.9872;
984.0000;0.3753;0.9971;
984.3000;0.3744;1.0045;
984.6000;0.3769;0.9897;
984.9000;0.3769;0.9897;
985.2000;0.3736;0.9774;
985.5000;0.3761;0.9848;
985.8000;0.3810;0.9971;
986.1000;0.3671;0.9650;
986.4000;0.3753;0.9774;
986.7000;0.3753;0.9700;
987.0000;0.3769;0.9675;
987.3000;0.3744;0.9724;
987.6000;0.3744;0.9749;
987.9000;0.3744;0.9749;
988.2000;0.3858;0.9996;
988.5000;0.3761;0.9749;
988.8000;0.3744;0.9724;
989.1000;0.3744;0.9724;
989.4000;0.3769;0.9798;
989.7000;0.3736;0.9749;
990.0000;0.3761;0.9897;
990.3000;0.3761;0.9897;
990.6000;0.3769;0.9946;
990.9000;0.3769;0.9946;
991.2000;0.3769;0.9848;
991.5000;0.3744;0.9724;
991.8000;0.3761;0.9798;
992.1000;0.3810;0.9872;
992.4000;0.3744;0.9675;
992.7000;0.3761;0.9626;
993.0000;0.3720;0.9552;
993.3000;0.3753;0.9724;
993.6000;0.3704;0.9552;
993.9000;0.3753;0.9700;
994.2000;0.3720;0.9650;
994.5000;0.3704;0.9576;
994.8000;0.3753;0.9774;
995.1000;0.3777;0.9872;
995.4000;0.3744;0.9798;
995.7000;0.3744;0.9922;
996.0000;0.3753;0.9971;
996.3000;0.3761;1.0094;
996.6000;0.3777;1.0094;
996.9000;0.3769;1.0020;
997.2000;0.3744;1.0020;
997.5000;0.3663;0.9724;
997.8000;0.3842;1.0243;
998.1000;0.3744;0.9897;
998.4000;0.3744;0.9872;
998.7000;0.3736;0.9724;
999.0000;0.3761;0.9650;
999.3000;0.3720;0.9453;
999.6000;0.3753;0.9552;
999.9000;0.3761;0.9650;
1000.2000;0.3736;0.9601;
1000.5000;0.3761;0.9700;
1000.8000;0.3728;0.9576;
1001.1000;0.3753;0.9626;
1001.4000;0.3704;0.9552;
1001.7000;0.3777;0.9749;
1002.0000;0.3769;0.9774;
1002.3000;0.3769;0.9774;
1002.6000;0.3777;0.9823;
1002.9000;0.3736;0.9700;
1003.2000;0.3777;0.9724;
1003.5000;0.3761;0.9724;
1003.8000;0.3753;0.9700;
1004.1000;0.3769;0.9700;
1004.4000;0.3777;0.9774;
1004.7000;0.3744;0.9650;
1005.0000;0.3761;0.9675;
1005.3000;0.3769;0.9601;
1005.6000;0.3736;0.9527;
1005.9000;0.3744;0.9527;
1006.2000;0.3761;0.9428;
1006.5000;0.3761;0.9552;
1006.8000;0.3728;0.9477;
1007.1000;0.3736;0.9453;
1007.4000;0.3753;0.9477;
1007.7000;0.3744;0.9477;
1008.0000;0.3753;0.9477;
1008.3000;0.3753;0.9477;
1008.6000;0.3753;0.9601;
1008.9000;0.3744;0.9527;
1009.2000;0.3728;0.9453;
1009.5000;0.3761;0.9354;
1009.8000;0.3728;0.9305;
1010.1000;0.3761;0.9403;
1010.4000;0.3753;0.9403;
1010.7000;0.3753;0.9403;
1011.0000;0.3761;0.9403;
1011.3000;0.3785;0.9502;
1011.6000;0.3761;0.9552;
1011.9000;0.3712;0.9354;
1012.2000;0.3744;0.9477;
1012.5000;0.3744;0.9626;
1012.8000;0.3744;0.9650;
1013.1000;0.3744;0.9626;
1013.4000;0.3777;0.9675;
1013.7000;0.3761;0.9626;
1014.0000;0.3744;0.9552;
1014.3000;0.3761;0.9552;
1014.6000;0.3761;0.9576;
1014.9000;0.3753;0.9576;
1015.2000;0.3761;0.9576;
1015.5000;0.3777;0.9527;
1015.8000;0.3744;0.9428;
1016.1000;0.3793;0.9552;
1016.4000;0.3818;0.9576;
1016.7000;0.3753;0.9453;
1017.0000;0.3720;0.9428;
1017.3000;0.3744;0.9502;
1017.6000;0.3761;0.9527;
1017.9000;0.3753;0.9576;
1018.2000;0.3793;0.9675;
1018.5000;0.3769;0.9552;
1018.8000;0.3753;0.9527;
1019.1000;0.3753;0.9502;
1019.4000;0.3736;0.9453;
1019.7000;0.3761;0.9477;
1020.0000;0.3728;0.9403;
1020.3000;0.3777;0.9527;
1020.6000;0.3687;0.9428;
1020.9000;0.3744;0.9601;
1021.2000;0.3769;0.9626;
1021.5000;0.3712;0.9502;
1021.8000;0.3753;0.9502;
1022.1000;0.3777;0.9477;
1022.4000;0.3753;0.9403;
1022.7000;0.3753;0.9527;
1023.0000;0.3744;0.9502;
1023.3000;0.3753;0.9601;
1023.6000;0.3744;0.9527;
1023.9000;0.3753;0.9601;
1024.2000;0.3753;0.9650;
1024.5000;0.3810;0.9798;
1024.8000;0.3761;0.9724;
1025.1000;0.3744;0.9724;
1025.4000;0.3753;0.9675;
1025.7000;0.3744;0.9724;
1026.0000;0.3769;0.9724;
1026.3000;0.3850;0.9971;
1026.6000;0.3777;0.9724;
1026.9000;0.3744;0.9650;
1027.2000;0.3728;0.9650;
1027.5000;0.3736;0.9650;
1027.8000;0.3736;0.9601;
1028.1000;0.3736;0.9626;
1028.4000;0.3753;0.9749;
1028.7000;0.3736;0.9650;
1029.0000;0.3769;0.9749;
1029.3000;0.3744;0.9650;
1029.6000;0.3744;0.9749;
1029.9000;0.3753;0.9749;
1030.2000;0.3720;0.9650;
1030.5000;0.3761;0.9675;
1030.8000;0.3744;0.9700;
1031.1000;0.3761;0.9774;
1031.4000;0.3761;0.9823;
1031.7000;0.3761;0.9848;
1032.0000;0.3818;0.9922;
1032.3000;0.3810;0.9872;
1032.6000;0.3769;0.9798;
1032.9000;0.3801;0.9971;
1033.2000;0.3744;0.9798;
1033.5000;0.3777;0.9848;
1033.8000;0.3736;0.9749;
1034.1000;0.3753;0.9848;
1034.4000;0.3744;0.9774;
1034.7000;0.3753;0.9872;
1035.0000;0.3810;1.0045;
1035.3000;0.3679;0.9700;
1035.6000;0.3728;0.9798;
1035.9000;0.3753;0.9749;
1036.2000;0.3777;0.9848;
1036.5000;0.3753;0.9798;
1036.8000;0.3761;0.9897;
1037.1000;0.3744;0.9872;
1037.4000;0.3761;0.9922;
1037.7000;0.3769;0.9872;
1038.0000;0.3769;0.9823;
1038.3000;0.3744;0.9675;
1038.6000;0.3744;0.9626;
1038.9000;0.3777;0.9650;
1039.2000;0.3744;0.9626;
1039.5000;0.3712;0.9601;
1039.8000;0.3753;0.9724;
1040.1000;0.3753;0.9749;
1040.4000;0.3720;0.9724;
1040.7000;0.3793;0.9872;
1041.0000;0.3736;0.9848;
1041.3000;0.3777;1.0045;
1041.6000;0.3785;0.9996;
1041.9000;0.3769;0.9946;
1042.2000;0.3761;0.9922;
1042.5000;0.3769;0.9922;
1042.8000;0.3769;0.9996;
1043.1000;0.3761;1.0020;
1043.4000;0.3655;0.9626;
1043.7000;0.3761;0.9823;
1044.0000;0.3761;0.9798;
1044.3000;0.3753;0.9872;
1044.6000;0.3769;0.9922;
1044.9000;0.3753;0.9897;
1045.2000;0.3753;0.9922;
1045.5000;0.3818;1.0045;
1045.8000;0.3744;0.9922;
1046.1000;0.3769;0.9996;
1046.4000;0.3736;0.9922;
1046.7000;0.3761;0.9946;
1047.0000;0.3761;0.9872;
1047.3000;0.3761;0.9823;
1047.6000;0.3753;0.9774;
1047.9000;0.3744;0.9700;
1048.2000;0.3785;0.9798;
1048.5000;0.3744;0.9823;
1048.8000;0.3769;0.9897;
1049.1000;0.3736;0.9897;
1049.4000;0.3769;0.9922;
1049.7000;0.3761;0.9872;
1050.0000;0.3712;0.9650;
1050.3000;0.3761;0.9798;
1050.6000;0.3769;0.9798;
1050.9000;0.3753;0.9798;
1051.2000;0.3761;0.9798;
1051.5000;0.3744;0.9749;
1051.8000;0.3744;0.9774;
1052.1000;0.3744;0.9749;
1052.4000;0.3736;0.9675;
1052.7000;0.3753;0.9724;
1053.0000;0.3777;0.9700;
1053.3000;0.3769;0.9675;
1053.6000;0.3744;0.9626;
1053.9000;0.3736;0.9601;
1054.2000;0.3801;0.9724;
1054.5000;0.3777;0.9675;
1054.8000;0.3753;0.9675;
1055.1000;0.3744;0.9552;
1055.4000;0.3761;0.9576;
1055.7000;0.3785;0.9576;
1056.0000;0.3728;0.9453;
1056.3000;0.3753;0.9428;
1056.6000;0.3736;0.9403;
1056.9000;0.3761;0.9502;
1057.2000;0.3728;0.9527;
1057.5000;0.3753;0.9724;
1057.8000;0.3728;0.9650;
1058.1000;0.3744;0.9576;
1058.4000;0.3753;0.9576;
1058.7000;0.3696;0.9379;
1059.0000;0.3761;0.9453;
1059.3000;0.3777;0.9477;
1059.6000;0.3753;0.9379;
1059.9000;0.3769;0.9428;
1060.2000;0.3769;0.9527;
1060.5000;0.3785;0.9626;
1060.8000;0.3769;0.9724;
1061.1000;0.3777;0.9774;
1061.4000;0.3769;0.9798;
1061.7000;0.3744;0.9724;
1062.0000;0.3744;0.9724;
1062.3000;0.3753;0.9675;
1062.6000;0.3736;0.9749;
1062.9000;0.3753;0.9749;
1063.2000;0.3744;0.9774;
1063.5000;0.3777;0.9922;
1063.8000;0.3728;0.9848;
1064.1000;0.3744;0.9897;
1064.4000;0.3744;0.9872;
1064.7000;0.3753;0.9823;
1065.0000;0.3753;0.9724;
1065.3000;0.3744;0.9675;
1065.6000;0.3744;0.9675;
1065.9000;0.3655;0.9576;
1066.2000;0.3744;0.9798;
1066.5000;0.3842;1.0070;
1066.8000;0.3736;0.9848;
1067.1000;0.3753;0.9774;
1067.4000;0.3761;0.9700;
1067.7000;0.3712;0.9650;
1068.0000;0.3753;0.9626;
1068.3000;0.3744;0.9626;
1068.6000;0.3728;0.9552;
1068.9000;0.3761;0.9724;
1069.2000;0.3753;0.9774;
1069.5000;0.3679;0.9601;
1069.8000;0.3744;0.9823;
1070.1000;0.3753;0.9823;
1070.4000;0.3761;0.9749;
1070.7000;0.3761;0.9749;
1071.0000;0.3744;0.9700;
1071.3000;0.3818;0.9848;
1071.6000;0.3818;0.9774;
1071.9000;0.3744;0.9626;
1072.2000;0.3744;0.9576;
1072.5000;0.3565;0.9157;
1072.8000;0.3769;0.9798;
1073.1000;0.3744;0.9897;
1073.4000;0.3761;0.9996;
1073.7000;0.3753;0.9922;
1074.0000;0.3744;0.9897;
1074.3000;0.3810;1.0045;
1074.6000;0.3753;0.9897;
1074.9000;0.3744;0.9798;
1075.2000;0.3753;0.9724;
1075.5000;0.3744;0.9724;
1075.8000;0.3736;0.9774;
1076.1000;0.3720;0.9872;
1076.4000;0.3736;0.9996;
1076.7000;0.3753;1.0045;
1077.0000;0.3761;1.0070;
1077.3000;0.3736;0.9971;
1077.6000;0.3744;0.9922;
1077.9000;0.3810;1.0070;
1078.2000;0.3744;0.9971;
1078.5000;0.3744;1.0020;
1078.8000;0.3736;0.9946;
1079.1000;0.3753;0.9946;
1079.4000;0.3753;0.9872;
1079.7000;0.3720;0.9848;
1080.0000;0.3696;0.9774;
1080.3000;0.3736;0.9823;
1080.6000;0.3736;0.9774;
1080.9000;0.3736;0.9675;
1081.2000;0.3744;0.9749;
1081.5000;0.3769;0.9749;
1081.8000;0.3696;0.9601;
1082.1000;0.3761;0.9798;
1082.4000;0.3744;0.9798;
1082.7000;0.3712;0.9724;
1083.0000;0.3736;0.9798;
1083.3000;0.3753;0.9922;
1083.6000;0.3736;0.9848;
1083.9000;0.3728;0.9897;
1084.2000;0.3736;0.9922;
1084.5000;0.3744;0.9897;
1084.8000;0.3736;0.9823;
1085.1000;0.3753;0.9823;
1085.4000;0.3753;0.9798;
1085.7000;0.3761;0.9798;
1086.0000;0.3793;0.9798;
1086.3000;0.3761;0.9724;
1086.6000;0.3736;0.9650;
1086.9000;0.3761;0.9626;
1087.2000;0.3744;0.9724;
1087.5000;0.3761;0.9774;
1087.8000;0.3744;0.9626;
1088.1000;0.3761;0.9626;
1088.4000;0.3728;0.9626;
1088.7000;0.3744;0.9724;
1089.0000;0.3753;0.9798;
1089.3000;0.3744;0.9749;
1089.6000;0.3753;0.9749;
1089.9000;0.3744;0.9774;
1090.2000;0.3744;0.9774;
1090.5000;0.3736;0.9724;
1090.8000;0.3720;0.9626;
1091.1000;0.3744;0.9675;
1091.4000;0.3712;0.9601;
1091.7000;0.3753;0.9848;
1092.0000;0.3728;0.9798;
1092.3000;0.3736;0.9872;
1092.6000;0.3704;0.9724;
1092.9000;0.3736;0.9774;
1093.2000;0.3704;0.9552;
1093.5000;0.3736;0.9601;
1093.8000;0.3728;0.9477;
1094.1000;0.3736;0.9502;
1094.4000;0.3769;0.9552;
1094.7000;0.3769;0.9576;
1095.0000;0.3769;0.9650;
1095.3000;0.3753;0.9626;
1095.6000;0.3753;0.9576;
1095.9000;0.3769;0.9576;
1096.2000;0.3744;0.9502;
1096.5000;0.3761;0.9576;
1096.8000;0.3744;0.9502;
1097.1000;0.3761;0.9552;
1097.4000;0.3744;0.9601;
1097.7000;0.3744;0.9626;
1098.0000;0.3736;0.9700;
1098.3000;0.3736;0.9774;
1098.6000;0.3867;1.0070;
1098.9000;0.3761;0.9798;
1099.2000;0.3744;0.9922;
1099.5000;0.3744;0.9848;
1099.8000;0.3736;0.9798;
1100.1000;0.3777;0.9897;
1100.4000;0.3736;0.9823;
1100.7000;0.3761;0.9798;
1101.0000;0.3744;0.9749;
1101.3000;0.3744;0.9700;
1101.6000;0.3744;0.9700;
1101.9000;0.3712;0.9576;
1102.2000;0.3728;0.9601;
1102.5000;0.3761;0.9675;
1102.8000;0.3793;0.9700;
1103.1000;0.3736;0.9601;
1103.4000;0.3753;0.9700;
1103.7000;0.3769;0.9724;
1104.0000;0.3753;0.9675;
1104.3000;0.3769;0.9675;
1104.6000;0.3761;0.9749;
1104.9000;0.3769;0.9872;
1105.2000;0.3753;0.9897;
1105.5000;0.3744;0.9848;
1105.8000;0.3777;0.9897;
1106.1000;0.3769;0.9996;
1106.4000;0.3753;0.9922;
1106.7000;0.3769;0.9946;
1107.0000;0.3753;0.9922;
1107.3000;0.3736;0.9872;
1107.6000;0.3769;0.9946;
1107.9000;0.3793;0.9971;
1108.2000;0.3736;0.9897;
1108.5000;0.3761;0.9872;
1108.8000;0.3753;0.9848;
1109.1000;0.3687;0.9774;
1109.4000;0.3736;0.9872;
1109.7000;0.3753;0.9872;
1110.0000;0.3769;0.9872;
1110.3000;0.3801;0.9897;
1110.6000;0.3720;0.9626;
1110.9000;0.3728;0.9601;
1111.2000;0.3728;0.9650;
1111.5000;0.3736;0.9724;
1111.8000;0.3769;0.9724;
1112.1000;0.3639;0.9477;
1112.4000;0.3728;0.9650;
1112.7000;0.3769;0.9675;
1113.0000;0.3761;0.9749;
1113.3000;0.3736;0.9675;
1113.6000;0.3810;0.9798;
1113.9000;0.3761;0.9700;
1114.2000;0.3753;0.9650;
1114.5000;0.3777;0.9650;
1114.8000;0.3761;0.9527;
1115.1000;0.3753;0.9552;
1115.4000;0.3736;0.9453;
1115.7000;0.3753;0.9477;
1116.0000;0.3769;0.9576;
1116.3000;0.3744;0.9403;
1116.6000;0.3785;0.9552;
1116.9000;0.3769;0.9527;
1117.2000;0.3736;0.9601;
1117.5000;0.3704;0.9502;
1117.8000;0.3744;0.9576;
1118.1000;0.3769;0.9527;
1118.4000;0.3785;0.9576;
1118.7000;0.3744;0.9477;
1119.0000;0.3753;0.9527;
1119.3000;0.3761;0.9477;
1119.6000;0.3777;0.9502;
1119.9000;0.3744;0.9477;
1120.2000;0.3744;0.9453;
1120.5000;0.3736;0.9453;
1120.8000;0.3761;0.9477;
1121.1000;0.3736;0.9453;
1121.4000;0.3704;0.9379;
1121.7000;0.3744;0.9453;
1122.0000;0.3704;0.9329;
1122.3000;0.3720;0.9354;
1122.6000;0.3728;0.9280;
1122.9000;0.3753;0.9329;
1123.2000;0.3744;0.9477;
1123.5000;0.3736;0.9502;
1123.8000;0.3704;0.9428;
1124.1000;0.3720;0.9453;
1124.4000;0.3744;0.9502;
1124.7000;0.3712;0.9379;
1125.0000;0.3810;0.9650;
1125.3000;0.3720;0.9477;
1125.6000;0.3736;0.9527;
1125.9000;0.3777;0.9601;
1126.2000;0.3663;0.9428;
1126.5000;0.3753;0.9650;
1126.8000;0.3769;0.9700;
1127.1000;0.3769;0.9601;
1127.4000;0.3769;0.9502;
1127.7000;0.3842;0.9675;
1128.0000;0.3541;0.8836;
1128.3000;0.3753;0.9453;
1128.6000;0.3785;0.9576;
1128.9000;0.3736;0.9576;
1129.2000;0.3744;0.9650;
1129.5000;0.3744;0.9650;
1129.8000;0.3753;0.9724;
1130.1000;0.3753;0.9650;
1130.4000;0.3744;0.9527;
1130.7000;0.3818;0.9675;
1131.0000;0.3744;0.9552;
1131.3000;0.3744;0.9626;
1131.6000;0.3777;0.9724;
1131.9000;0.3753;0.9626;
1132.2000;0.3728;0.9403;
1132.5000;0.3801;0.9527;
1132.8000;0.3736;0.9403;
1133.1000;0.3744;0.9428;
1133.4000;0.3744;0.9428;
1133.7000;0.3736;0.9527;
1134.0000;0.3753;0.9626;
1134.3000;0.3728;0.9502;
1134.6000;0.3753;0.9502;
1134.9000;0.3736;0.9601;
1135.2000;0.3753;0.9626;
1135.5000;0.3712;0.9527;
1135.8000;0.3753;0.9601;
1136.1000;0.3753;0.9675;
1136.4000;0.3720;0.9552;
1136.7000;0.3720;0.9453;
1137.0000;0.3728;0.9428;
1137.3000;0.3744;0.9379;
1137.6000;0.3744;0.9403;
1137.9000;0.3769;0.9428;
1138.2000;0.3744;0.9379;
1138.5000;0.3744;0.9403;
1138.8000;0.3761;0.9527;
1139.1000;0.3761;0.9576;
1139.4000;0.3769;0.9552;
1139.7000;0.3696;0.9354;
1140.0000;0.3769;0.9552;
1140.3000;0.3753;0.9502;
1140.6000;0.3744;0.9428;
1140.9000;0.3696;0.9206;
1141.2000;0.3761;0.9354;
1141.5000;0.3769;0.9403;
1141.8000;0.3753;0.9354;
1142.1000;0.3736;0.9280;
1142.4000;0.3761;0.9305;
1142.7000;0.3753;0.9305;
1143.0000;0.3720;0.9157;
1143.3000;0.3769;0.9305;
1143.6000;0.3761;0.9329;
1143.9000;0.3753;0.9428;
1144.2000;0.3761;0.9477;
1144.5000;0.3761;0.9576;
1144.8000;0.3761;0.9527;
1145.1000;0.3744;0.9428;
1145.4000;0.3736;0.9379;
1145.7000;0.3744;0.9379;
1146.0000;0.3744;0.9477;
1146.3000;0.3720;0.9428;
1146.6000;0.3712;0.9403;
1146.9000;0.3753;0.9502;
1147.2000;0.3761;0.9527;
1147.5000;0.3736;0.9403;
1147.8000;0.3744;0.9403;
1148.1000;0.3785;0.9576;
1148.4000;0.3761;0.9477;
1148.7000;0.3753;0.9453;
1149.0000;0.3785;0.9601;
1149.3000;0.3744;0.9650;
1149.6000;0.3753;0.9675;
1149.9000;0.3761;0.9675;
1150.2000;0.3744;0.9626;
1150.5000;0.3761;0.9626;
1150.8000;0.3753;0.9650;
1151.1000;0.3753;0.9749;
1151.4000;0.3744;0.9675;
1151.7000;0.3687;0.9527;
1152.0000;0.3720;0.9700;
1152.3000;0.3777;0.9774;
1152.6000;0.3728;0.9527;
1152.9000;0.3769;0.9626;
1153.2000;0.3736;0.9527;
1153.5000;0.3753;0.9576;
1153.8000;0.3761;0.9552;
1154.1000;0.3753;0.9403;
1154.4000;0.3736;0.9527;
1154.7000;0.3744;0.9576;
1155.0000;0.3720;0.9552;
1155.3000;0.3818;0.9749;
1155.6000;0.3736;0.9552;
1155.9000;0.3753;0.9552;
1156.2000;0.3744;0.9626;
1156.5000;0.3761;0.9601;
1156.8000;0.3761;0.9626;
1157.1000;0.3769;0.9626;
1157.4000;0.3753;0.9650;
1157.7000;0.3744;0.9626;
1158.0000;0.3753;0.9650;
1158.3000;0.3744;0.9650;
1158.6000;0.3736;0.9700;
1158.9000;0.3728;0.9724;
1159.2000;0.3785;0.9823;
1159.5000;0.3753;0.9700;
1159.8000;0.3753;0.9650;
1160.1000;0.3736;0.9626;
1160.4000;0.3753;0.9675;
1160.7000;0.3736;0.9749;
1161.0000;0.3753;0.9724;
1161.3000;0.3736;0.9700;
1161.6000;0.3736;0.9700;
1161.9000;0.3753;0.9798;
1162.2000;0.3753;0.9848;
1162.5000;0.3736;0.9848;
1162.8000;0.3736;0.9848;
1163.1000;0.3753;0.9848;
1163.4000;0.3785;0.9848;
1163.7000;0.3761;0.9675;
1164.0000;0.3744;0.9552;
1164.3000;0.3736;0.9502;
1164.6000;0.3769;0.9502;
1164.9000;0.3810;0.9527;
1165.2000;0.3769;0.9428;
1165.5000;0.3736;0.9379;
1165.8000;0.3736;0.9453;
1166.1000;0.3744;0.9403;
1166.4000;0.3744;0.9403;
1166.7000;0.3753;0.9403;
1167.0000;0.3728;0.9379;
1167.3000;0.3679;0.9206;
1167.6000;0.3753;0.9354;
1167.9000;0.3687;0.9255;
1168.2000;0.3769;0.9403;
1168.5000;0.3753;0.9280;
1168.8000;0.3761;0.9305;
1169.1000;0.3753;0.9453;
1169.4000;0.3744;0.9379;
1169.7000;0.3761;0.9428;
1170.0000;0.3761;0.9477;
1170.3000;0.3744;0.9403;
1170.6000;0.3736;0.9477;
1170.9000;0.3801;0.9700;
1171.2000;0.3744;0.9477;
1171.5000;0.3785;0.9527;
1171.8000;0.3769;0.9552;
1172.1000;0.3687;0.9403;
1172.4000;0.3736;0.9552;
1172.7000;0.3744;0.9650;
1173.0000;0.3736;0.9527;
1173.3000;0.3744;0.9552;
1173.6000;0.3744;0.9576;
1173.9000;0.3777;0.9626;
1174.2000;0.3728;0.9477;
1174.5000;0.3728;0.9527;
1174.8000;0.3736;0.9626;
1175.1000;0.3769;0.9700;
1175.4000;0.3785;0.9650;
1175.7000;0.3744;0.9576;
1176.0000;0.3744;0.9552;
1176.3000;0.3801;0.9626;
1176.6000;0.3679;0.9379;
1176.9000;0.3736;0.9576;
1177.2000;0.3753;0.9576;
1177.5000;0.3736;0.9675;
1177.8000;0.3728;0.9700;
1178.1000;0.3744;0.9872;
1178.4000;0.3736;0.9798;
1178.7000;0.3720;0.9774;
1179.0000;0.3761;0.9848;
1179.3000;0.3761;0.9774;
1179.6000;0.3769;0.9774;
1179.9000;0.3744;0.9823;
1180.2000;0.3761;0.9848;
1180.5000;0.3736;0.9823;
1180.8000;0.3712;0.9798;
1181.1000;0.3736;0.9897;
1181.4000;0.3736;0.9897;
1181.7000;0.3744;0.9823;
1182.0000;0.3744;0.9848;
1182.3000;0.3647;0.9626;
1182.6000;0.3744;0.9749;
1182.9000;0.3753;0.9848;
1183.2000;0.3761;0.9749;
1183.5000;0.3753;0.9823;
1183.8000;0.3720;0.9774;
1184.1000;0.3753;0.9774;
1184.4000;0.3744;0.9798;
1184.7000;0.3785;0.9848;
1185.0000;0.3728;0.9724;
1185.3000;0.3761;0.9823;
1185.6000;0.3744;0.9922;
1185.9000;0.3785;1.0020;
1186.2000;0.3736;0.9848;
1186.5000;0.3769;0.9946;
1186.8000;0.3736;0.9897;
1187.1000;0.3728;0.9848;
1187.4000;0.3736;0.9922;
1187.7000;0.3753;0.9922;
1188.0000;0.3736;0.9996;
1188.3000;0.3696;0.9774;
1188.6000;0.3744;0.9823;
1188.9000;0.3663;0.9626;
1189.2000;0.3761;0.9848;
1189.5000;0.3744;0.9823;
1189.8000;0.3728;0.9749;
1190.1000;0.3753;0.9848;
1190.4000;0.3818;0.9996;
1190.7000;0.3744;0.9872;
1191.0000;0.3744;0.9823;
1191.3000;0.3744;0.9798;
1191.6000;0.3720;0.9700;
1191.9000;0.3744;0.9774;
1192.2000;0.3753;0.9774;
1192.5000;0.3753;0.9774;
1192.8000;0.3744;0.9823;
1193.1000;0.3777;0.9922;
1193.4000;0.3728;0.9823;
1193.7000;0.3753;0.9872;
1194.0000;0.3753;0.9848;
1194.3000;0.3753;0.9798;
1194.6000;0.3753;0.9749;
1194.9000;0.3736;0.9724;
1195.2000;0.3753;0.9749;
1195.5000;0.3720;0.9650;
1195.8000;0.3704;0.9502;
1196.1000;0.3744;0.9675;
1196.4000;0.3736;0.9626;
1196.7000;0.3720;0.9626;
1197.0000;0.3744;0.9576;
1197.3000;0.3753;0.9552;
1197.6000;0.3728;0.9527;
1197.9000;0.3744;0.9576;
1198.2000;0.3753;0.9527;
1198.5000;0.3769;0.9601;
1198.8000;0.3761;0.9650;
1199.1000;0.3785;0.9700;
1199.4000;0.3753;0.9601;
1199.7000;0.3744;0.9675;
1200.0000;0.3606;0.9305;
1200.3000;0.3753;0.9650;
1200.6000;0.3720;0.9675;
1200.9000;0.3761;0.9774;
1201.2000;0.3761;0.9774;
1201.5000;0.3793;0.9848;
1201.8000;0.3671;0.9576;
1202.1000;0.3753;0.9774;
1202.4000;0.3818;0.9946;
1202.7000;0.3728;0.9848;
1203.0000;0.3736;0.9848;
1203.3000;0.3744;0.9872;
1203.6000;0.3753;0.9823;
1203.9000;0.3744;0.9774;
1204.2000;0.3810;0.9897;
1204.5000;0.3728;0.9675;
1204.8000;0.3753;0.9774;
1205.1000;0.3777;0.9848;
1205.4000;0.3818;0.9971;
1205.7000;0.3744;0.9774;
1206.0000;0.3810;0.9848;
1206.3000;0.3720;0.9601;
1206.6000;0.3769;0.9724;
1206.9000;0.3753;0.9700;
1207.2000;0.3728;0.9650;
1207.5000;0.3728;0.9700;
1207.8000;0.3793;0.9823;
1208.1000;0.3761;0.9724;
1208.4000;0.3761;0.9774;
1208.7000;0.3647;0.9527;
1209.0000;0.3761;0.9798;
1209.3000;0.3744;0.9971;
1209.6000;0.3793;1.0094;
1209.9000;0.3753;0.9922;
1210.2000;0.3744;0.9872;
1210.5000;0.3744;0.9897;
1210.8000;0.3761;0.9774;
1211.1000;0.3744;0.9724;
1211.4000;0.3744;0.9650;
1211.7000;0.3753;0.9626;
1212.0000;0.3744;0.9601;
1212.3000;0.3736;0.9626;
1212.6000;0.3728;0.9675;
1212.9000;0.3728;0.9675;
1213.2000;0.3728;0.9848;
1213.5000;0.3647;0.9601;
1213.8000;0.3687;0.9774;
1214.1000;0.3744;0.9897;
1214.4000;0.3696;0.9848;
1214.7000;0.3753;1.0119;
1215.0000;0.3720;1.0020;
1215.3000;0.3769;1.0119;
1215.6000;0.3736;0.9946;
1215.9000;0.3736;0.9922;
1216.2000;0.3753;0.9971;
1216.5000;0.3753;0.9946;
1216.8000;0.3712;0.9872;
1217.1000;0.3744;0.9971;
1217.4000;0.3744;0.9996;
1217.7000;0.3761;0.9971;
1218.0000;0.3728;0.9897;
1218.3000;0.3753;0.9922;
1218.6000;0.3696;0.9749;
1218.9000;0.3712;0.9774;
1219.2000;0.3720;0.9872;
1219.5000;0.3753;0.9946;
1219.8000;0.3761;0.9897;
1220.1000;0.3793;0.9971;
1220.4000;0.3744;0.9897;
1220.7000;0.3728;0.9848;
1221.0000;0.3696;0.9700;
1221.3000;0.3744;0.9774;
1221.6000;0.3736;0.9675;
1221.9000;0.3801;0.9848;
1222.2000;0.3769;0.9798;
1222.5000;0.3753;0.9724;
1222.8000;0.3744;0.9650;
1223.1000;0.3720;0.9601;
1223.4000;0.3744;0.9798;
1223.7000;0.3753;0.9774;
1224.0000;0.3736;0.9675;
1224.3000;0.3761;0.9700;
1224.6000;0.3736;0.9626;
1224.9000;0.3761;0.9798;
1225.2000;0.3753;0.9848;
1225.5000;0.3744;0.9823;
1225.8000;0.3720;0.9774;
1226.1000;0.3736;0.9749;
1226.4000;0.3704;0.9749;
1226.7000;0.3777;0.9922;
1227.0000;0.3744;0.9872;
1227.3000;0.3769;0.9971;
1227.6000;0.3753;0.9922;
1227.9000;0.3671;0.9675;
1228.2000;0.3793;1.0020;
1228.5000;0.3753;0.9971;
1228.8000;0.3696;0.9823;
1229.1000;0.3712;0.9872;
1229.4000;0.3801;0.9996;
1229.7000;0.3744;0.9872;
1230.0000;0.3696;0.9650;
1230.3000;0.3810;0.9897;
1230.6000;0.3769;0.9798;
1230.9000;0.3744;0.9675;
1231.2000;0.3687;0.9477;
1231.5000;0.3744;0.9650;
1231.8000;0.3744;0.9700;
1232.1000;0.3736;0.9626;
1232.4000;0.3753;0.9650;
1232.7000;0.3753;0.9626;
1233.0000;0.3753;0.9626;
1233.3000;0.3753;0.9650;
1233.6000;0.3736;0.9527;
1233.9000;0.3753;0.9700;
1234.2000;0.3736;0.9749;
1234.5000;0.3769;0.9872;
1234.8000;0.3753;0.9872;
1235.1000;0.3728;0.9749;
1235.4000;0.3736;0.9798;
1235.7000;0.3769;0.9798;
1236.0000;0.3761;0.9798;
1236.3000;0.3858;1.0070;
1236.6000;0.3753;0.9774;
1236.9000;0.3712;0.9724;
1237.2000;0.3753;0.9798;
1237.5000;0.3736;0.9749;
1237.8000;0.3761;0.9848;
1238.1000;0.3769;0.9897;
1238.4000;0.3639;0.9576;
1238.7000;0.3769;0.9872;
1239.0000;0.3761;0.9872;
1239.3000;0.3728;0.9848;
1239.6000;0.3744;0.9897;
1239.9000;0.3769;1.0094;
1240.2000;0.3753;1.0070;
1240.5000;0.3769;1.0045;
1240.8000;0.3712;0.9848;
1241.1000;0.3744;0.9946;
1241.4000;0.3736;0.9946;
1241.7000;0.3753;0.9946;
1242.0000;0.3744;0.9823;
1242.3000;0.3728;0.9774;
1242.6000;0.3777;0.9823;
1242.9000;0.3761;0.9823;
1243.2000;0.3728;0.9724;
1243.5000;0.3753;0.9749;
1243.8000;0.3753;0.9749;
1244.1000;0.3728;0.9675;
1244.4000;0.3761;0.9749;
1244.7000;0.3785;0.9823;
1245.0000;0.3761;0.9650;
1245.3000;0.3663;0.9329;
1245.6000;0.3761;0.9601;
1245.9000;0.3736;0.9700;
1246.2000;0.3744;0.9700;
1246.5000;0.3744;0.9700;
1246.8000;0.3744;0.9576;
1247.1000;0.3696;0.9527;
1247.4000;0.3777;0.9700;
1247.7000;0.3761;0.9700;
1248.0000;0.3744;0.9700;
1248.3000;0.3769;0.9823;
1248.6000;0.3736;0.9823;
1248.9000;0.3696;0.9724;
1249.2000;0.3720;0.9823;
1249.5000;0.3744;0.9872;
1249.8000;0.3671;0.9626;
1250.1000;0.3769;0.9774;
1250.4000;0.3753;0.9798;
1250.7000;0.3761;0.9749;
1251.0000;0.3744;0.9650;
1251.3000;0.3761;0.9675;
1251.6000;0.3753;0.9650;
1251.9000;0.3761;0.9724;
1252.2000;0.3744;0.9675;
1252.5000;0.3728;0.9576;
1252.8000;0.3761;0.9576;
1253.1000;0.3761;0.9626;
1253.4000;0.3753;0.9601;
1253.7000;0.3761;0.9601;
1254.0000;0.3761;0.9626;
1254.3000;0.3753;0.9675;
1254.6000;0.3736;0.9749;
1254.9000;0.3696;0.9626;
1255.2000;0.3696;0.9700;
1255.5000;0.3753;0.9798;
1255.8000;0.3753;0.9724;
1256.1000;0.3736;0.9601;
1256.4000;0.3777;0.9576;
1256.7000;0.3850;0.9798;
1257.0000;0.3744;0.9626;
1257.3000;0.3753;0.9626;
1257.6000;0.3753;0.9650;
1257.9000;0.3785;0.9823;
1258.2000;0.3761;0.9749;
1258.5000;0.3696;0.9576;
1258.8000;0.3753;0.9724;
1259.1000;0.3720;0.9700;
1259.4000;0.3769;0.9774;
1259.7000;0.3744;0.9749;
1260.0000;0.3736;0.9626;
1260.3000;0.3712;0.9527;
1260.6000;0.3736;0.9576;
1260.9000;0.3753;0.9626;
1261.2000;0.3761;0.9700;
1261.5000;0.3753;0.9601;
1261.8000;0.3753;0.9626;
1262.1000;0.3744;0.9601;
1262.4000;0.3769;0.9626;
1262.7000;0.3736;0.9650;
1263.0000;0.3785;0.9675;
1263.3000;0.3753;0.9576;
1263.6000;0.3777;0.9650;
1263.9000;0.3736;0.9601;
1264.2000;0.3728;0.9626;
1264.5000;0.3736;0.9626;
1264.8000;0.3753;0.9700;
1265.1000;0.3753;0.9798;
1265.4000;0.3736;0.9724;
1265.7000;0.3769;0.9848;
1266.0000;0.3777;0.9798;
1266.3000;0.3753;0.9823;
1266.6000;0.3793;0.9798;
1266.9000;0.3744;0.9601;
1267.2000;0.3785;0.9774;
1267.5000;0.3663;0.9527;
1267.8000;0.3736;0.9774;
1268.1000;0.3614;0.9477;
1268.4000;0.3744;0.9700;
1268.7000;0.3736;0.9601;
1269.0000;0.3736;0.9601;
1269.3000;0.3720;0.9601;
1269.6000;0.3720;0.9626;
1269.9000;0.3753;0.9749;
1270.2000;0.3761;0.9774;
1270.5000;0.3793;0.9823;
1270.8000;0.3753;0.9724;
1271.1000;0.3744;0.9576;
1271.4000;0.3712;0.9502;
1271.7000;0.3753;0.9601;
1272.0000;0.3753;0.9626;
1272.3000;0.3761;0.9774;
1272.6000;0.3753;0.9823;
1272.9000;0.3736;0.9848;
1273.2000;0.3736;0.9848;
1273.5000;0.3744;0.9823;
1273.8000;0.3744;0.9798;
1274.1000;0.3744;0.9848;
1274.4000;0.3736;0.9848;
1274.7000;0.3736;0.9774;
1275.0000;0.3744;0.9823;
1275.3000;0.3777;0.9897;
1275.6000;0.3736;0.9798;
1275.9000;0.3744;0.9922;
1276.2000;0.3744;0.9848;
1276.5000;0.3761;0.9798;
1276.8000;0.3720;0.9650;
1277.1000;0.3761;0.9749;
1277.4000;0.3753;0.9700;
1277.7000;0.3744;0.9650;
1278.0000;0.3753;0.9675;
1278.3000;0.3728;0.9700;
1278.6000;0.3744;0.9626;
1278.9000;0.3753;0.9675;
1279.2000;0.3720;0.9576;
1279.5000;0.3720;0.9576;
1279.8000;0.3728;0.9626;
1280.1000;0.3761;0.9650;
1280.4000;0.3761;0.9749;
1280.7000;0.3736;0.9724;
1281.0000;0.3753;0.9626;
1281.3000;0.3777;0.9724;
1281.6000;0.3753;0.9650;
1281.9000;0.3753;0.9724;
1282.2000;0.3728;0.9749;
1282.5000;0.3736;0.9774;
1282.8000;0.3736;0.9749;
1283.1000;0.3744;0.9774;
1283.4000;0.3753;0.9823;
1283.7000;0.3753;0.9749;
1284.0000;0.3769;0.9848;
1284.3000;0.3647;0.9650;
1284.6000;0.3736;0.9922;
1284.9000;0.3753;1.0020;
1285.2000;0.3744;1.0020;
1285.5000;0.3744;0.9946;
1285.8000;0.3761;0.9946;
1286.1000;0.3753;0.9823;
1286.4000;0.3753;0.9798;
1286.7000;0.3744;0.9749;
1287.0000;0.3704;0.9650;
1287.3000;0.3736;0.9650;
1287.6000;0.3712;0.9552;
1287.9000;0.3736;0.9576;
1288.2000;0.3720;0.9453;
1288.5000;0.3728;0.9576;
1288.8000;0.3744;0.9601;
1289.1000;0.3704;0.9552;
1289.4000;0.3744;0.9650;
1289.7000;0.3761;0.9650;
1290.0000;0.3728;0.9576;
1290.3000;0.3753;0.9601;
1290.6000;0.3753;0.9601;
1290.9000;0.3736;0.9601;
1291.2000;0.3720;0.9552;
1291.5000;0.3736;0.9552;
1291.8000;0.3744;0.9650;
1292.1000;0.3712;0.9552;
1292.4000;0.3744;0.9675;
1292.7000;0.3736;0.9700;
1293.0000;0.3736;0.9749;
1293.3000;0.3761;0.9774;
1293.6000;0.3761;0.9848;
1293.9000;0.3736;0.9724;
1294.2000;0.3736;0.9749;
1294.5000;0.3744;0.9749;
1294.8000;0.3753;0.9749;
1295.1000;0.3712;0.9626;
1295.4000;0.3753;0.9700;
1295.7000;0.3753;0.9700;
1296.0000;0.3753;0.9749;
1296.3000;0.3736;0.9774;
1296.6000;0.3753;0.9872;
1296.9000;0.3728;0.9823;
1297.2000;0.3736;0.9823;
1297.5000;0.3744;0.9872;
1297.8000;0.3728;0.9798;
1298.1000;0.3736;0.9798;
1298.4000;0.3720;0.9724;
1298.7000;0.3744;0.9749;
1299.0000;0.3753;0.9749;
1299.3000;0.3720;0.9650;
1299.6000;0.3744;0.9823;
1299.9000;0.3744;0.9848;
1300.2000;0.3736;0.9798;
1300.5000;0.3769;0.9848;
1300.8000;0.3761;0.9749;
1301.1000;0.3753;0.9675;
1301.4000;0.3761;0.9527;
1301.7000;0.3736;0.9428;
1302.0000;0.3728;0.9329;
1302.3000;0.3744;0.9428;
1302.6000;0.3744;0.9403;
1302.9000;0.3736;0.9403;
1303.2000;0.3801;0.9527;
1303.5000;0.3744;0.9527;
1303.8000;0.3728;0.9477;
1304.1000;0.3736;0.9477;
1304.4000;0.3720;0.9527;
1304.7000;0.3728;0.9675;
1305.0000;0.3736;0.9700;
1305.3000;0.3801;0.9798;
1305.6000;0.3744;0.9724;
1305.9000;0.3785;0.9798;
1306.2000;0.3761;0.9700;
1306.5000;0.3728;0.9675;
1306.8000;0.3712;0.9749;
1307.1000;0.3744;0.9872;
1307.4000;0.3744;0.9897;
1307.7000;0.3696;0.9872;
1308.0000;0.3712;1.0020;
1308.3000;0.3728;1.0119;
1308.6000;0.3720;1.0144;
1308.9000;0.3728;1.0070;
1309.2000;0.3728;1.0045;
1309.5000;0.3761;1.0144;
1309.8000;0.3818;1.0341;
1310.1000;0.3736;1.0045;
1310.4000;0.3818;1.0094;
1310.7000;0.3753;0.9946;
1311.0000;0.3687;0.9897;
1311.3000;0.3793;1.0193;
1311.6000;0.3704;0.9922;
1311.9000;0.3736;1.0070;
1312.2000;0.3712;1.0070;
1312.5000;0.3736;1.0070;
1312.8000;0.3769;1.0045;
1313.1000;0.3728;0.9872;
1313.4000;0.3744;0.9872;
1313.7000;0.3744;0.9848;
1314.0000;0.3850;1.0119;
1314.3000;0.3785;0.9971;
1314.6000;0.3736;0.9872;
1314.9000;0.3728;0.9798;
1315.2000;0.3777;0.9872;
1315.5000;0.3744;0.9872;
1315.8000;0.3753;0.9848;
1316.1000;0.3736;0.9749;
1316.4000;0.3769;0.9897;
1316.7000;0.3777;0.9946;
1317.0000;0.3826;1.0218;
1317.3000;0.3753;0.9946;
1317.6000;0.3769;0.9946;
1317.9000;0.3769;0.9872;
1318.2000;0.3736;0.9798;
1318.5000;0.3753;0.9749;
1318.8000;0.3785;0.9724;
1319.1000;0.3753;0.9700;
1319.4000;0.3761;0.9650;
1319.7000;0.3753;0.9601;
1320.0000;0.3728;0.9601;
1320.3000;0.3744;0.9626;
1320.6000;0.3744;0.9675;
1320.9000;0.3744;0.9749;
1321.2000;0.3761;0.9749;
1321.5000;0.3753;0.9774;
1321.8000;0.3769;0.9848;
1322.1000;0.3761;0.9848;
1322.4000;0.3793;0.9971;
1322.7000;0.3753;0.9897;
1323.0000;0.3769;0.9848;
1323.3000;0.3753;0.9798;
1323.6000;0.3720;0.9675;
1323.9000;0.3753;0.9798;
1324.2000;0.3753;0.9798;
1324.5000;0.3736;0.9798;
1324.8000;0.3736;0.9749;
1325.1000;0.3744;0.9700;
1325.4000;0.3793;0.9922;
1325.7000;0.3736;0.9823;
1326.0000;0.3761;0.9848;
1326.3000;0.3728;0.9798;
1326.6000;0.3753;0.9872;
1326.9000;0.3769;0.9922;
1327.2000;0.3753;0.9848;
1327.5000;0.3736;0.9823;
1327.8000;0.3728;0.9897;
1328.1000;0.3744;0.9922;
1328.4000;0.3736;0.9922;
1328.7000;0.3753;1.0020;
1329.0000;0.3671;0.9872;
1329.3000;0.3753;1.0070;
1329.6000;0.3736;1.0020;
1329.9000;0.3753;0.9996;
1330.2000;0.3720;0.9749;
1330.5000;0.3801;0.9996;
1330.8000;0.3728;0.9798;
1331.1000;0.3736;0.9848;
1331.4000;0.3720;0.9774;
1331.7000;0.3712;0.9798;
1332.0000;0.3728;0.9798;
1332.3000;0.3801;1.0070;
1332.6000;0.3728;0.9946;
1332.9000;0.3736;0.9922;
1333.2000;0.3736;1.0020;
1333.5000;0.3761;1.0119;
1333.8000;0.3744;1.0045;
1334.1000;0.3744;0.9922;
1334.4000;0.3728;0.9848;
1334.7000;0.3736;0.9823;
1335.0000;0.3736;0.9848;
1335.3000;0.3777;0.9946;
1335.6000;0.3744;0.9798;
1335.9000;0.3736;0.9774;
1336.2000;0.3736;0.9798;
1336.5000;0.3744;0.9798;
1336.8000;0.3744;0.9823;
1337.1000;0.3785;0.9749;
1337.4000;0.3761;0.9650;
1337.7000;0.3744;0.9576;
1338.0000;0.3753;0.9700;
1338.3000;0.3728;0.9675;
1338.6000;0.3687;0.9552;
1338.9000;0.3761;0.9774;
1339.2000;0.3744;0.9724;
1339.5000;0.3761;0.9749;
1339.8000;0.3785;0.9823;
1340.1000;0.3687;0.9650;
1340.4000;0.3744;0.9749;
1340.7000;0.3736;0.9872;
1341.0000;0.3753;0.9897;
1341.3000;0.3753;0.9872;
1341.6000;0.3736;0.9897;
1341.9000;0.3753;0.9922;
1342.2000;0.3753;0.9823;
1342.5000;0.3744;0.9774;
1342.8000;0.3769;0.9650;
1343.1000;0.3842;0.9897;
1343.4000;0.3728;0.9626;
1343.7000;0.3728;0.9601;
1344.0000;0.3753;0.9675;
1344.3000;0.3736;0.9700;
1344.6000;0.3744;0.9798;
1344.9000;0.3769;0.9848;
1345.2000;0.3769;0.9774;
1345.5000;0.3753;0.9724;
1345.8000;0.3744;0.9700;
1346.1000;0.3753;0.9650;
1346.4000;0.3753;0.9675;
1346.7000;0.3744;0.9601;
1347.0000;0.3736;0.9675;
1347.3000;0.3736;0.9724;
1347.6000;0.3761;0.9774;
1347.9000;0.3736;0.9823;
1348.2000;0.3744;0.9946;
1348.5000;0.3769;1.0045;
1348.8000;0.3712;0.9946;
1349.1000;0.3744;1.0020;
1349.4000;0.3785;1.0144;
1349.7000;0.3785;1.0218;
1350.0000;0.3761;1.0070;
1350.3000;0.3777;1.0045;
1350.6000;0.3744;0.9872;
1350.9000;0.3769;0.9946;
1351.2000;0.3753;0.9872;
1351.5000;0.3753;0.9872;
1351.8000;0.3761;0.9946;
1352.1000;0.3753;0.9848;
1352.4000;0.3736;0.9922;
1352.7000;0.3671;0.9774;
1353.0000;0.3810;1.0094;
1353.3000;0.3753;1.0020;
1353.6000;0.3736;1.0020;
1353.9000;0.3736;1.0045;
1354.2000;0.3744;1.0094;
1354.5000;0.3761;1.0144;
1354.8000;0.3728;1.0070;
1355.1000;0.3769;1.0169;
1355.4000;0.3728;1.0045;
1355.7000;0.3744;1.0144;
1356.0000;0.3728;1.0094;
1356.3000;0.3736;1.0119;
1356.6000;0.3818;1.0243;
1356.9000;0.3720;1.0045;
1357.2000;0.3753;1.0169;
1357.5000;0.3728;1.0144;
1357.8000;0.3777;1.0267;
1358.1000;0.3728;1.0218;
1358.4000;0.3736;1.0317;
1358.7000;0.3712;1.0169;
1359.0000;0.3728;1.0169;
1359.3000;0.3744;1.0267;
1359.6000;0.3761;1.0267;
1359.9000;0.3696;1.0045;
1360.2000;0.3785;1.0193;
1360.5000;0.3753;1.0070;
1360.8000;0.3728;1.0020;
1361.1000;0.3720;1.0045;
1361.4000;0.3744;1.0094;
1361.7000;0.3744;1.0169;
1362.0000;0.3744;1.0144;
1362.3000;0.3736;1.0144;
1362.6000;0.3744;1.0070;
1362.9000;0.3736;1.0020;
1363.2000;0.3753;1.0020;
1363.5000;0.3728;0.9996;
1363.8000;0.3736;1.0070;
1364.1000;0.3761;1.0070;
1364.4000;0.3753;0.9971;
1364.7000;0.3777;1.0119;
1365.0000;0.3769;1.0144;
1365.3000;0.3728;1.0070;
1365.6000;0.3736;1.0070;
1365.9000;0.3761;1.0144;
1366.2000;0.3744;1.0144;
1366.5000;0.3761;1.0144;
1366.8000;0.3744;1.0094;
1367.1000;0.3761;1.0070;
1367.4000;0.3769;1.0094;
1367.7000;0.3728;0.9996;
1368.0000;0.3736;1.0045;
1368.3000;0.3720;0.9971;
1368.6000;0.3761;0.9996;
1368.9000;0.3761;0.9996;
1369.2000;0.3728;0.9922;
1369.5000;0.3728;0.9848;
1369.8000;0.3744;0.9749;
1370.1000;0.3744;0.9749;
1370.4000;0.3712;0.9749;
1370.7000;0.3753;0.9798;
1371.0000;0.3720;0.9848;
1371.3000;0.3728;0.9897;
1371.6000;0.3728;0.9848;
1371.9000;0.3728;0.9848;
1372.2000;0.3736;0.9872;
1372.5000;0.3761;0.9922;
1372.8000;0.3744;0.9922;
1373.1000;0.3736;0.9872;
1373.4000;0.3753;0.9996;
1373.7000;0.3736;1.0094;
1374.0000;0.3744;1.0045;
1374.3000;0.3777;1.0020;
1374.6000;0.3744;1.0020;
1374.9000;0.3753;0.9996;
1375.2000;0.3728;0.9996;
1375.5000;0.3736;1.0070;
1375.8000;0.3744;1.0094;
1376.1000;0.3761;1.0119;
1376.4000;0.3687;0.9946;
1376.7000;0.3744;1.0045;
1377.0000;0.3744;1.0045;
1377.3000;0.3728;0.9971;
1377.6000;0.3744;1.0020;
1377.9000;0.3720;0.9996;
1378.2000;0.3728;1.0070;
1378.5000;0.3712;0.9971;
1378.8000;0.3761;1.0020;
1379.1000;0.3744;0.9971;
1379.4000;0.3736;0.9922;
1379.7000;0.3736;0.9897;
1380.0000;0.3761;0.9971;
1380.3000;0.3744;0.9971;
1380.6000;0.3753;1.0020;
1380.9000;0.3761;1.0094;
1381.2000;0.3753;1.0045;
1381.5000;0.3744;1.0070;
1381.8000;0.3736;1.0045;
1382.1000;0.3761;1.0119;
1382.4000;0.3728;1.0094;
1382.7000;0.3761;1.0218;
1383.0000;0.3769;1.0070;
1383.3000;0.3753;0.9946;
1383.6000;0.3744;0.9922;
1383.9000;0.3744;0.9946;
1384.2000;0.3712;0.9848;
1384.5000;0.3736;1.0070;
1384.8000;0.3728;1.0094;
1385.1000;0.3712;1.0020;
1385.4000;0.3728;1.0144;
1385.7000;0.3736;1.0193;
1386.0000;0.3744;1.0193;
1386.3000;0.3728;1.0144;
1386.6000;0.3736;1.0119;
1386.9000;0.3744;1.0119;
1387.2000;0.3728;1.0070;
1387.5000;0.3728;1.0070;
1387.8000;0.3728;1.0045;
1388.1000;0.3744;1.0119;
1388.4000;0.3736;1.0020;
1388.7000;0.3744;1.0070;
1389.0000;0.3736;1.0070;
1389.3000;0.3761;1.0144;
1389.6000;0.3761;1.0119;
1389.9000;0.3744;1.0045;
1390.2000;0.3655;0.9848;
1390.5000;0.3744;1.0094;
1390.8000;0.3769;1.0094;
1391.1000;0.3769;1.0070;
1391.4000;0.3744;1.0070;
1391.7000;0.3744;0.9996;
1392.0000;0.3720;0.9971;
1392.3000;0.3753;0.9922;
1392.6000;0.3744;0.9872;
1392.9000;0.3753;0.9848;
1393.2000;0.3777;0.9798;
1393.5000;0.3736;0.9749;
1393.8000;0.3736;0.9700;
1394.1000;0.3736;0.9774;
1394.4000;0.3753;0.9872;
1394.7000;0.3753;0.9872;
1395.0000;0.3736;0.9848;
1395.3000;0.3753;0.9872;
1395.6000;0.3744;0.9823;
1395.9000;0.3753;0.9872;
1396.2000;0.3785;0.9971;
1396.5000;0.3736;0.9848;
1396.8000;0.3736;0.9996;
1397.1000;0.3728;0.9946;
1397.4000;0.3761;0.9922;
1397.7000;0.3736;0.9872;
1398.0000;0.3736;0.9823;
1398.3000;0.3704;0.9749;
1398.6000;0.3736;0.9749;
1398.9000;0.3736;0.9700;
1399.2000;0.3720;0.9749;
1399.5000;0.3687;0.9552;
1399.8000;0.3736;0.9749;
