time/ms;Fluo/V;P700 deltaI/I x10³;
-199.8000;0.5250;0.7964;
-199.5000;0.5144;0.7732;
-199.2000;0.5136;0.7778;
-198.9000;0.5153;0.7825;
-198.6000;0.5153;0.7825;
-198.3000;0.5128;0.7755;
-198.0000;0.5169;0.7848;
-197.7000;0.5161;0.7825;
-197.4000;0.5136;0.7662;
-197.1000;0.5144;0.7686;
-196.8000;0.5153;0.7732;
-196.5000;0.5144;0.7778;
-196.2000;0.5128;0.7755;
-195.9000;0.5144;0.7802;
-195.6000;0.5144;0.7732;
-195.3000;0.5153;0.7871;
-195.0000;0.5153;0.7918;
-194.7000;0.5136;0.7825;
-194.4000;0.5144;0.7871;
-194.1000;0.5153;0.7778;
-193.8000;0.5144;0.7755;
-193.5000;0.5218;0.7964;
-193.2000;0.5144;0.7755;
-192.9000;0.5161;0.7755;
-192.6000;0.5144;0.7778;
-192.3000;0.5144;0.7755;
-192.0000;0.5120;0.7686;
-191.7000;0.5153;0.7778;
-191.4000;0.5144;0.7755;
-191.1000;0.5153;0.7732;
-190.8000;0.5144;0.7802;
-190.5000;0.5144;0.7802;
-190.2000;0.5144;0.7778;
-189.9000;0.5136;0.7755;
-189.6000;0.5144;0.7732;
-189.3000;0.5136;0.7732;
-189.0000;0.5153;0.7662;
-188.7000;0.5128;0.7593;
-188.4000;0.5144;0.7686;
-188.1000;0.5104;0.7593;
-187.8000;0.5120;0.7546;
-187.5000;0.5161;0.7593;
-187.2000;0.5153;0.7616;
-186.9000;0.5153;0.7639;
-186.6000;0.5161;0.7778;
-186.3000;0.5144;0.7709;
-186.0000;0.5096;0.7593;
-185.7000;0.5161;0.7709;
-185.4000;0.5161;0.7778;
-185.1000;0.5153;0.7802;
-184.8000;0.5169;0.7871;
-184.5000;0.5144;0.7871;
-184.2000;0.5071;0.7778;
-183.9000;0.5136;0.7755;
-183.6000;0.5136;0.7778;
-183.3000;0.5161;0.7871;
-183.0000;0.5096;0.7686;
-182.7000;0.5120;0.7778;
-182.4000;0.5144;0.7778;
-182.1000;0.5153;0.7802;
-181.8000;0.5136;0.7802;
-181.5000;0.5144;0.7778;
-181.2000;0.5144;0.7895;
-180.9000;0.5144;0.7918;
-180.6000;0.5128;0.7825;
-180.3000;0.5169;0.7895;
-180.0000;0.5161;0.7802;
-179.7000;0.5144;0.7802;
-179.4000;0.5153;0.7848;
-179.1000;0.5136;0.7755;
-178.8000;0.5250;0.8080;
-178.5000;0.5144;0.7871;
-178.2000;0.5136;0.7802;
-177.9000;0.5136;0.7709;
-177.6000;0.5144;0.7686;
-177.3000;0.5169;0.7732;
-177.0000;0.5161;0.7802;
-176.7000;0.5153;0.7732;
-176.4000;0.5161;0.7802;
-176.1000;0.5153;0.7755;
-175.8000;0.5161;0.7709;
-175.5000;0.5144;0.7709;
-175.2000;0.5120;0.7570;
-174.9000;0.5136;0.7477;
-174.6000;0.5136;0.7546;
-174.3000;0.5136;0.7523;
-174.0000;0.5128;0.7523;
-173.7000;0.5136;0.7662;
-173.4000;0.5144;0.7616;
-173.1000;0.5193;0.7686;
-172.8000;0.5144;0.7616;
-172.5000;0.5144;0.7639;
-172.2000;0.5120;0.7523;
-171.9000;0.5136;0.7500;
-171.6000;0.5153;0.7546;
-171.3000;0.5161;0.7616;
-171.0000;0.5128;0.7686;
-170.7000;0.5153;0.7802;
-170.4000;0.5120;0.7732;
-170.1000;0.5161;0.7941;
-169.8000;0.5169;0.7964;
-169.5000;0.5112;0.7871;
-169.2000;0.5128;0.7918;
-168.9000;0.5136;0.7895;
-168.6000;0.5169;0.7987;
-168.3000;0.5136;0.7918;
-168.0000;0.5144;0.7871;
-167.7000;0.5169;0.7825;
-167.4000;0.5104;0.7686;
-167.1000;0.5144;0.7802;
-166.8000;0.5169;0.7941;
-166.5000;0.5071;0.7686;
-166.2000;0.5120;0.7918;
-165.9000;0.5153;0.8057;
-165.6000;0.5153;0.7987;
-165.3000;0.5136;0.7848;
-165.0000;0.5169;0.7941;
-164.7000;0.5153;0.7941;
-164.4000;0.5128;0.7871;
-164.1000;0.5144;0.7825;
-163.8000;0.5169;0.7871;
-163.5000;0.5144;0.7778;
-163.2000;0.5144;0.7709;
-162.9000;0.5144;0.7732;
-162.6000;0.5136;0.7732;
-162.3000;0.5153;0.7732;
-162.0000;0.5153;0.7825;
-161.7000;0.5136;0.7825;
-161.4000;0.5144;0.7778;
-161.1000;0.5226;0.7941;
-160.8000;0.5144;0.7825;
-160.5000;0.5144;0.7825;
-160.2000;0.5136;0.7778;
-159.9000;0.5153;0.7778;
-159.6000;0.5136;0.7709;
-159.3000;0.5161;0.7732;
-159.0000;0.5096;0.7616;
-158.7000;0.5144;0.7755;
-158.4000;0.5153;0.7778;
-158.1000;0.5128;0.7755;
-157.8000;0.5128;0.7709;
-157.5000;0.5136;0.7709;
-157.2000;0.5128;0.7709;
-156.9000;0.5144;0.7662;
-156.6000;0.5128;0.7523;
-156.3000;0.5161;0.7639;
-156.0000;0.5144;0.7546;
-155.7000;0.5161;0.7500;
-155.4000;0.5136;0.7337;
-155.1000;0.5161;0.7453;
-154.8000;0.5128;0.7430;
-154.5000;0.5161;0.7546;
-154.2000;0.5161;0.7593;
-153.9000;0.5177;0.7686;
-153.6000;0.5218;0.7848;
-153.3000;0.5136;0.7709;
-153.0000;0.5169;0.7778;
-152.7000;0.5153;0.7709;
-152.4000;0.5153;0.7709;
-152.1000;0.5136;0.7662;
-151.8000;0.5161;0.7732;
-151.5000;0.5128;0.7662;
-151.2000;0.5136;0.7732;
-150.9000;0.5177;0.7755;
-150.6000;0.5153;0.7662;
-150.3000;0.5153;0.7686;
-150.0000;0.5153;0.7709;
-149.7000;0.5153;0.7662;
-149.4000;0.5136;0.7662;
-149.1000;0.5169;0.7825;
-148.8000;0.5112;0.7616;
-148.5000;0.5128;0.7709;
-148.2000;0.5136;0.7755;
-147.9000;0.5153;0.7778;
-147.6000;0.5136;0.7686;
-147.3000;0.5136;0.7732;
-147.0000;0.5234;0.8011;
-146.7000;0.5153;0.7778;
-146.4000;0.5169;0.7755;
-146.1000;0.5128;0.7639;
-145.8000;0.5136;0.7546;
-145.5000;0.5153;0.7570;
-145.2000;0.5185;0.7616;
-144.9000;0.5144;0.7477;
-144.6000;0.5169;0.7500;
-144.3000;0.5153;0.7453;
-144.0000;0.5144;0.7477;
-143.7000;0.5153;0.7477;
-143.4000;0.5161;0.7523;
-143.1000;0.5144;0.7523;
-142.8000;0.5193;0.7639;
-142.5000;0.5144;0.7639;
-142.2000;0.5144;0.7593;
-141.9000;0.5120;0.7570;
-141.6000;0.5153;0.7686;
-141.3000;0.5144;0.7570;
-141.0000;0.5136;0.7616;
-140.7000;0.5144;0.7616;
-140.4000;0.5144;0.7570;
-140.1000;0.5144;0.7523;
-139.8000;0.5144;0.7570;
-139.5000;0.5136;0.7500;
-139.2000;0.5120;0.7337;
-138.9000;0.5153;0.7384;
-138.6000;0.5153;0.7477;
-138.3000;0.5144;0.7546;
-138.0000;0.5144;0.7546;
-137.7000;0.5063;0.7384;
-137.4000;0.5128;0.7639;
-137.1000;0.5128;0.7616;
-136.8000;0.5153;0.7732;
-136.5000;0.5128;0.7732;
-136.2000;0.5144;0.7732;
-135.9000;0.5128;0.7825;
-135.6000;0.5153;0.7825;
-135.3000;0.5144;0.7732;
-135.0000;0.5144;0.7732;
-134.7000;0.4998;0.7361;
-134.4000;0.5153;0.7686;
-134.1000;0.5169;0.7755;
-133.8000;0.5177;0.7848;
-133.5000;0.5161;0.7871;
-133.2000;0.5136;0.7778;
-132.9000;0.5128;0.7778;
-132.6000;0.5136;0.7918;
-132.3000;0.5071;0.7709;
-132.0000;0.5136;0.7848;
-131.7000;0.5153;0.7802;
-131.4000;0.5136;0.7755;
-131.1000;0.5275;0.8104;
-130.8000;0.5258;0.7964;
-130.5000;0.5144;0.7778;
-130.2000;0.5193;0.7825;
-129.9000;0.5136;0.7546;
-129.6000;0.5039;0.7337;
-129.3000;0.5128;0.7523;
-129.0000;0.5144;0.7639;
-128.7000;0.5136;0.7686;
-128.4000;0.5136;0.7593;
-128.1000;0.5144;0.7546;
-127.8000;0.5169;0.7662;
-127.5000;0.5153;0.7500;
-127.2000;0.5153;0.7546;
-126.9000;0.5128;0.7593;
-126.6000;0.5153;0.7732;
-126.3000;0.5128;0.7686;
-126.0000;0.5161;0.7755;
-125.7000;0.5169;0.7709;
-125.4000;0.5136;0.7616;
-125.1000;0.5193;0.7778;
-124.8000;0.5153;0.7686;
-124.5000;0.5161;0.7709;
-124.2000;0.5153;0.7755;
-123.9000;0.5128;0.7778;
-123.6000;0.5144;0.7871;
-123.3000;0.5144;0.7871;
-123.0000;0.5144;0.7825;
-122.7000;0.5153;0.7802;
-122.4000;0.5120;0.7825;
-122.1000;0.5153;0.7895;
-121.8000;0.5144;0.7848;
-121.5000;0.5144;0.7895;
-121.2000;0.5153;0.7918;
-120.9000;0.5144;0.7871;
-120.6000;0.5144;0.7871;
-120.3000;0.5136;0.7802;
-120.0000;0.5144;0.7825;
-119.7000;0.5104;0.7755;
-119.4000;0.5136;0.7825;
-119.1000;0.5112;0.7825;
-118.8000;0.5112;0.7871;
-118.5000;0.5161;0.7987;
-118.2000;0.5169;0.8057;
-117.9000;0.5128;0.7871;
-117.6000;0.5144;0.8034;
-117.3000;0.5096;0.7918;
-117.0000;0.5120;0.7964;
-116.7000;0.5136;0.7918;
-116.4000;0.5144;0.7964;
-116.1000;0.5161;0.7987;
-115.8000;0.5144;0.7987;
-115.5000;0.5120;0.7871;
-115.2000;0.5177;0.7987;
-114.9000;0.5128;0.7802;
-114.6000;0.5153;0.7848;
-114.3000;0.5096;0.7686;
-114.0000;0.5136;0.7755;
-113.7000;0.5136;0.7778;
-113.4000;0.5144;0.7755;
-113.1000;0.5144;0.7825;
-112.8000;0.5128;0.7825;
-112.5000;0.5169;0.7802;
-112.2000;0.5112;0.7639;
-111.9000;0.5128;0.7639;
-111.6000;0.5120;0.7616;
-111.3000;0.5177;0.7686;
-111.0000;0.5128;0.7546;
-110.7000;0.5153;0.7616;
-110.4000;0.5120;0.7500;
-110.1000;0.5185;0.7755;
-109.8000;0.5136;0.7709;
-109.5000;0.5136;0.7686;
-109.2000;0.5153;0.7709;
-108.9000;0.5136;0.7732;
-108.6000;0.5136;0.7755;
-108.3000;0.5144;0.7709;
-108.0000;0.5161;0.7709;
-107.7000;0.5079;0.7500;
-107.4000;0.5161;0.7848;
-107.1000;0.5299;0.8150;
-106.8000;0.5177;0.7871;
-106.5000;0.5128;0.7778;
-106.2000;0.5177;0.7895;
-105.9000;0.5039;0.7546;
-105.6000;0.5144;0.7778;
-105.3000;0.5144;0.7778;
-105.0000;0.5144;0.7778;
-104.7000;0.5136;0.7755;
-104.4000;0.5136;0.7802;
-104.1000;0.5201;0.7802;
-103.8000;0.5136;0.7639;
-103.5000;0.5153;0.7616;
-103.2000;0.5144;0.7709;
-102.9000;0.5128;0.7639;
-102.6000;0.5153;0.7778;
-102.3000;0.5144;0.7732;
-102.0000;0.5120;0.7778;
-101.7000;0.5177;0.7918;
-101.4000;0.5193;0.7918;
-101.1000;0.5120;0.7802;
-100.8000;0.5136;0.7848;
-100.5000;0.5144;0.7802;
-100.2000;0.5153;0.7848;
-99.9000;0.5153;0.7825;
-99.6000;0.5169;0.7895;
-99.3000;0.5177;0.7987;
-99.0000;0.5153;0.7895;
-98.7000;0.5144;0.7895;
-98.4000;0.5136;0.7871;
-98.1000;0.5144;0.7802;
-97.8000;0.5128;0.7686;
-97.5000;0.5128;0.7755;
-97.2000;0.5128;0.7802;
-96.9000;0.5161;0.8011;
-96.6000;0.5144;0.7941;
-96.3000;0.5128;0.7964;
-96.0000;0.5128;0.7941;
-95.7000;0.5136;0.7941;
-95.4000;0.5112;0.7941;
-95.1000;0.5161;0.8034;
-94.8000;0.5136;0.7941;
-94.5000;0.5136;0.7895;
-94.2000;0.5136;0.7941;
-93.9000;0.5144;0.7941;
-93.6000;0.5128;0.7848;
-93.3000;0.5120;0.7732;
-93.0000;0.5153;0.7825;
-92.7000;0.5128;0.7732;
-92.4000;0.5153;0.7918;
-92.1000;0.5144;0.7941;
-91.8000;0.5161;0.7964;
-91.5000;0.5136;0.7964;
-91.2000;0.5120;0.7895;
-90.9000;0.5136;0.7871;
-90.6000;0.5079;0.7732;
-90.3000;0.5153;0.7964;
-90.0000;0.5096;0.7825;
-89.7000;0.5120;0.7964;
-89.4000;0.5153;0.8034;
-89.1000;0.5128;0.7918;
-88.8000;0.5144;0.7941;
-88.5000;0.5161;0.8034;
-88.2000;0.5144;0.7987;
-87.9000;0.5153;0.7987;
-87.6000;0.5144;0.8011;
-87.3000;0.5112;0.7918;
-87.0000;0.5153;0.7964;
-86.7000;0.5185;0.8173;
-86.4000;0.5144;0.8127;
-86.1000;0.5144;0.8127;
-85.8000;0.5120;0.8034;
-85.5000;0.5153;0.8034;
-85.2000;0.5136;0.7918;
-84.9000;0.5136;0.7895;
-84.6000;0.5144;0.7964;
-84.3000;0.5136;0.7987;
-84.0000;0.5161;0.8034;
-83.7000;0.5177;0.8057;
-83.4000;0.5136;0.8011;
-83.1000;0.5104;0.7987;
-82.8000;0.5153;0.8127;
-82.5000;0.5136;0.8011;
-82.2000;0.5120;0.8011;
-81.9000;0.5161;0.8104;
-81.6000;0.5161;0.8034;
-81.3000;0.5153;0.7987;
-81.0000;0.5153;0.8011;
-80.7000;0.5144;0.7918;
-80.4000;0.5136;0.8104;
-80.1000;0.5144;0.8104;
-79.8000;0.5136;0.8057;
-79.5000;0.5144;0.7987;
-79.2000;0.5112;0.7895;
-78.9000;0.5169;0.8104;
-78.6000;0.5136;0.8104;
-78.3000;0.5153;0.8173;
-78.0000;0.5128;0.7987;
-77.7000;0.5153;0.8034;
-77.4000;0.5128;0.7941;
-77.1000;0.5144;0.7918;
-76.8000;0.5144;0.7964;
-76.5000;0.5161;0.7895;
-76.2000;0.5153;0.7964;
-75.9000;0.5144;0.8080;
-75.6000;0.5136;0.8034;
-75.3000;0.5088;0.7848;
-75.0000;0.5136;0.7871;
-74.7000;0.5169;0.7895;
-74.4000;0.5153;0.7848;
-74.1000;0.5120;0.7755;
-73.8000;0.5144;0.7871;
-73.5000;0.5169;0.7964;
-73.2000;0.5136;0.7918;
-72.9000;0.5144;0.8011;
-72.6000;0.5161;0.8034;
-72.3000;0.5136;0.8011;
-72.0000;0.5153;0.8057;
-71.7000;0.5128;0.8080;
-71.4000;0.5144;0.7987;
-71.1000;0.5120;0.7918;
-70.8000;0.5144;0.7918;
-70.5000;0.5063;0.7778;
-70.2000;0.5128;0.7918;
-69.9000;0.5169;0.8057;
-69.6000;0.5071;0.7825;
-69.3000;0.5144;0.8034;
-69.0000;0.5144;0.7987;
-68.7000;0.5153;0.8011;
-68.4000;0.5144;0.7964;
-68.1000;0.5136;0.7941;
-67.8000;0.5136;0.7918;
-67.5000;0.5161;0.7941;
-67.2000;0.5144;0.7964;
-66.9000;0.5153;0.7871;
-66.6000;0.5136;0.7895;
-66.3000;0.5136;0.7964;
-66.0000;0.5153;0.7987;
-65.7000;0.5161;0.8011;
-65.4000;0.5128;0.8011;
-65.1000;0.5112;0.7918;
-64.8000;0.5144;0.7895;
-64.5000;0.5136;0.7848;
-64.2000;0.5144;0.7941;
-63.9000;0.5128;0.7895;
-63.6000;0.5153;0.8034;
-63.3000;0.5193;0.8104;
-63.0000;0.5128;0.7918;
-62.7000;0.5144;0.7964;
-62.4000;0.5161;0.8011;
-62.1000;0.5144;0.7941;
-61.8000;0.5153;0.8011;
-61.5000;0.5144;0.8034;
-61.2000;0.5144;0.8104;
-60.9000;0.5144;0.8011;
-60.6000;0.5128;0.7987;
-60.3000;0.5153;0.8011;
-60.0000;0.5153;0.8080;
-59.7000;0.5128;0.8057;
-59.4000;0.5136;0.8127;
-59.1000;0.5120;0.8011;
-58.8000;0.5153;0.8011;
-58.5000;0.5153;0.7871;
-58.2000;0.5169;0.7871;
-57.9000;0.5144;0.7848;
-57.6000;0.5153;0.7848;
-57.3000;0.5161;0.7802;
-57.0000;0.5161;0.7662;
-56.7000;0.5153;0.7616;
-56.4000;0.5136;0.7616;
-56.1000;0.5144;0.7686;
-55.8000;0.5177;0.7848;
-55.5000;0.5144;0.7778;
-55.2000;0.5128;0.7802;
-54.9000;0.5136;0.7732;
-54.6000;0.5144;0.7825;
-54.3000;0.5112;0.7802;
-54.0000;0.5144;0.7871;
-53.7000;0.5153;0.7871;
-53.4000;0.5120;0.7778;
-53.1000;0.5153;0.7825;
-52.8000;0.5136;0.7778;
-52.5000;0.5079;0.7570;
-52.2000;0.5161;0.7755;
-51.9000;0.5161;0.7778;
-51.6000;0.5136;0.7686;
-51.3000;0.5161;0.7755;
-51.0000;0.5153;0.7686;
-50.7000;0.5153;0.7686;
-50.4000;0.5201;0.7825;
-50.1000;0.5153;0.7732;
-49.8000;0.5144;0.7755;
-49.5000;0.5071;0.7639;
-49.2000;0.5153;0.7755;
-48.9000;0.5136;0.7848;
-48.6000;0.5128;0.7732;
-48.3000;0.5144;0.7778;
-48.0000;0.5153;0.7825;
-47.7000;0.5136;0.7778;
-47.4000;0.5144;0.7755;
-47.1000;0.5169;0.7848;
-46.8000;0.5153;0.7848;
-46.5000;0.5128;0.7848;
-46.2000;0.5128;0.7848;
-45.9000;0.5136;0.7778;
-45.6000;0.5169;0.7825;
-45.3000;0.5153;0.7802;
-45.0000;0.5153;0.7802;
-44.7000;0.5144;0.7778;
-44.4000;0.5144;0.7871;
-44.1000;0.5128;0.7895;
-43.8000;0.5153;0.7895;
-43.5000;0.5153;0.7941;
-43.2000;0.5258;0.8150;
-42.9000;0.5153;0.7802;
-42.6000;0.5039;0.7500;
-42.3000;0.5136;0.7802;
-42.0000;0.5120;0.7778;
-41.7000;0.5144;0.7709;
-41.4000;0.5185;0.7732;
-41.1000;0.5153;0.7570;
-40.8000;0.5153;0.7662;
-40.5000;0.5153;0.7709;
-40.2000;0.5153;0.7778;
-39.9000;0.5112;0.7639;
-39.6000;0.5136;0.7825;
-39.3000;0.5096;0.7732;
-39.0000;0.5153;0.7941;
-38.7000;0.5128;0.7895;
-38.4000;0.5120;0.7871;
-38.1000;0.5136;0.7918;
-37.8000;0.5177;0.8011;
-37.5000;0.5144;0.8057;
-37.2000;0.5153;0.8057;
-36.9000;0.5088;0.7895;
-36.6000;0.5153;0.8057;
-36.3000;0.5153;0.8057;
-36.0000;0.5193;0.8080;
-35.7000;0.5201;0.8011;
-35.4000;0.5161;0.7848;
-35.1000;0.5144;0.7802;
-34.8000;0.5153;0.7802;
-34.5000;0.5144;0.7732;
-34.2000;0.5136;0.7755;
-33.9000;0.5136;0.7686;
-33.6000;0.5136;0.7732;
-33.3000;0.5169;0.7802;
-33.0000;0.5128;0.7732;
-32.7000;0.5128;0.7778;
-32.4000;0.5153;0.7802;
-32.1000;0.5136;0.7732;
-31.8000;0.5161;0.7871;
-31.5000;0.5153;0.7802;
-31.2000;0.5153;0.7778;
-30.9000;0.5128;0.7802;
-30.6000;0.5144;0.7848;
-30.3000;0.5153;0.7871;
-30.0000;0.5136;0.7825;
-29.7000;0.5088;0.7686;
-29.4000;0.5136;0.7732;
-29.1000;0.5112;0.7546;
-28.8000;0.5185;0.7778;
-28.5000;0.5136;0.7709;
-28.2000;0.5144;0.7755;
-27.9000;0.5193;0.7848;
-27.6000;0.5161;0.7778;
-27.3000;0.5161;0.7825;
-27.0000;0.5153;0.7895;
-26.7000;0.5169;0.8034;
-26.4000;0.5144;0.8034;
-26.1000;0.5144;0.7964;
-25.8000;0.5177;0.8127;
-25.5000;0.5136;0.8034;
-25.2000;0.5144;0.8011;
-24.9000;0.5128;0.7964;
-24.6000;0.5153;0.7941;
-24.3000;0.5193;0.8034;
-24.0000;0.5161;0.7941;
-23.7000;0.5153;0.7918;
-23.4000;0.5242;0.8266;
-23.1000;0.5144;0.8011;
-22.8000;0.5096;0.7918;
-22.5000;0.5144;0.8057;
-22.2000;0.5153;0.8080;
-21.9000;0.5120;0.8057;
-21.6000;0.5234;0.8313;
-21.3000;0.5120;0.7941;
-21.0000;0.5153;0.7848;
-20.7000;0.5177;0.7848;
-20.4000;0.5169;0.7848;
-20.1000;0.5161;0.7825;
-19.8000;0.5128;0.7802;
-19.5000;0.5161;0.7848;
-19.2000;0.5185;0.7941;
-18.9000;0.5153;0.7918;
-18.6000;0.5218;0.8080;
-18.3000;0.5153;0.7987;
-18.0000;0.5153;0.7941;
-17.7000;0.5144;0.7941;
-17.4000;0.5144;0.7964;
-17.1000;0.5136;0.7964;
-16.8000;0.5112;0.7871;
-16.5000;0.5161;0.8034;
-16.2000;0.5120;0.8080;
-15.9000;0.5144;0.8104;
-15.6000;0.5128;0.8080;
-15.3000;0.5161;0.8127;
-15.0000;0.5136;0.7941;
-14.7000;0.5153;0.7964;
-14.4000;0.5153;0.7918;
-14.1000;0.5136;0.7871;
-13.8000;0.5153;0.7895;
-13.5000;0.5136;0.7848;
-13.2000;0.5144;0.7848;
-12.9000;0.5136;0.7802;
-12.6000;0.5136;0.7778;
-12.3000;0.5153;0.7802;
-12.0000;0.5128;0.7941;
-11.7000;0.5161;0.8034;
-11.4000;0.5153;0.7964;
-11.1000;0.5144;0.7964;
-10.8000;0.5120;0.7941;
-10.5000;0.5153;0.7987;
-10.2000;0.5144;0.8011;
-9.9000;0.5128;0.7964;
-9.6000;0.5144;0.7895;
-9.3000;0.5153;0.7895;
-9.0000;0.5144;0.7964;
-8.7000;0.5144;0.7918;
-8.4000;0.5153;0.7987;
-8.1000;0.5136;0.7987;
-7.8000;0.5250;0.8313;
-7.5000;0.5144;0.7987;
-7.2000;0.5153;0.8034;
-6.9000;0.5128;0.8127;
-6.6000;0.5136;0.8173;
-6.3000;0.5153;0.8196;
-6.0000;0.5161;0.8196;
-5.7000;0.5193;0.8173;
-5.4000;0.5161;0.8104;
-5.1000;0.5169;0.8220;
-4.8000;0.5161;0.8104;
-4.5000;0.5112;0.8034;
-4.2000;0.5153;0.8104;
-3.9000;0.5136;0.7964;
-3.6000;0.5144;0.7918;
-3.3000;0.5128;0.7848;
-3.0000;0.5136;0.7895;
-2.7000;0.5120;0.7848;
-2.4000;0.5144;0.7918;
-2.1000;0.5153;0.7964;
-1.8000;0.5144;0.7964;
-1.5000;0.5218;0.8127;
-1.2000;0.5096;0.8011;
-0.9000;0.5161;0.8196;
-0.6000;0.5193;0.8196;
-0.3000;0.5153;0.8080;
0.0000;0.5153;0.8080;
0.3000;0.5242;0.7987;
0.6000;0.5446;0.8196;
0.9000;0.5560;0.8382;
1.2000;0.5682;0.8638;
1.5000;0.5698;0.8661;
1.8000;0.5828;0.8963;
2.1000;0.5828;0.9032;
2.4000;0.5918;0.9288;
2.7000;0.5934;0.9334;
3.0000;0.6024;0.9613;
3.3000;0.6048;0.9799;
3.6000;0.6024;0.9775;
3.9000;0.6007;0.9799;
4.2000;0.6072;0.9961;
4.5000;0.6089;1.0031;
4.8000;0.6146;1.0170;
5.1000;0.6138;1.0124;
5.4000;0.6146;1.0217;
5.7000;0.6170;1.0333;
6.0000;0.6154;1.0170;
6.3000;0.6154;1.0147;
6.6000;0.6227;1.0240;
6.9000;0.6195;1.0170;
7.2000;0.6195;1.0193;
7.5000;0.6211;1.0217;
7.8000;0.6170;1.0008;
8.1000;0.6235;1.0240;
8.4000;0.6260;1.0309;
8.7000;0.6252;1.0263;
9.0000;0.6292;1.0286;
9.3000;0.6300;1.0263;
9.6000;0.6317;1.0286;
9.9000;0.6325;1.0286;
10.2000;0.6341;1.0263;
10.5000;0.6341;1.0263;
10.8000;0.6333;1.0217;
11.1000;0.6349;1.0240;
11.4000;0.6357;1.0356;
11.7000;0.6398;1.0472;
12.0000;0.6374;1.0379;
12.3000;0.6447;1.0425;
12.6000;0.6414;1.0333;
12.9000;0.6422;1.0240;
13.2000;0.6422;1.0309;
13.5000;0.6422;1.0356;
13.8000;0.6414;1.0333;
14.1000;0.6431;1.0356;
14.4000;0.6471;1.0309;
14.7000;0.6447;1.0286;
15.0000;0.6496;1.0379;
15.3000;0.6536;1.0495;
15.6000;0.6504;1.0425;
15.9000;0.6471;1.0333;
16.2000;0.6504;1.0309;
16.5000;0.6463;1.0170;
16.8000;0.6520;1.0170;
17.1000;0.6528;1.0100;
17.4000;0.6528;1.0147;
17.7000;0.6569;1.0286;
18.0000;0.6536;1.0193;
18.3000;0.6561;1.0240;
18.6000;0.6553;1.0193;
18.9000;0.6504;0.9961;
19.2000;0.6569;1.0170;
19.5000;0.6593;1.0286;
19.8000;0.6593;1.0286;
20.1000;0.6602;1.0263;
20.4000;0.6585;1.0170;
20.7000;0.6659;1.0333;
21.0000;0.6610;1.0286;
21.3000;0.6626;1.0286;
21.6000;0.6634;1.0309;
21.9000;0.6683;1.0472;
22.2000;0.6642;1.0402;
22.5000;0.6675;1.0425;
22.8000;0.6667;1.0379;
23.1000;0.6659;1.0240;
23.4000;0.6675;1.0263;
23.7000;0.6667;1.0240;
24.0000;0.6610;0.9961;
24.3000;0.6650;1.0008;
24.6000;0.6683;1.0054;
24.9000;0.6764;1.0286;
25.2000;0.6691;1.0077;
25.5000;0.6732;1.0193;
25.8000;0.6699;1.0031;
26.1000;0.6691;1.0100;
26.4000;0.6683;1.0100;
26.7000;0.6691;1.0054;
27.0000;0.6748;1.0170;
27.3000;0.6675;0.9984;
27.6000;0.6732;1.0147;
27.9000;0.6699;1.0031;
28.2000;0.6707;1.0077;
28.5000;0.6748;1.0124;
28.8000;0.6675;0.9891;
29.1000;0.6732;1.0054;
29.4000;0.6724;1.0054;
29.7000;0.6740;1.0077;
30.0000;0.6740;1.0100;
30.3000;0.6732;1.0031;
30.6000;0.6740;1.0008;
30.9000;0.6772;1.0031;
31.2000;0.6756;1.0031;
31.5000;0.6740;1.0054;
31.8000;0.6756;1.0031;
32.1000;0.6716;1.0031;
32.4000;0.6748;1.0031;
32.7000;0.6854;1.0240;
33.0000;0.6772;1.0031;
33.3000;0.6764;1.0054;
33.6000;0.6789;1.0170;
33.9000;0.6781;1.0124;
34.2000;0.6772;1.0170;
34.5000;0.6781;1.0193;
34.8000;0.6797;1.0124;
35.1000;0.6789;1.0147;
35.4000;0.6781;1.0170;
35.7000;0.6789;1.0170;
36.0000;0.6789;1.0263;
36.3000;0.6797;1.0124;
36.6000;0.6821;1.0031;
36.9000;0.6789;0.9984;
37.2000;0.6813;1.0054;
37.5000;0.6813;1.0100;
37.8000;0.6813;1.0100;
38.1000;0.6797;1.0031;
38.4000;0.6805;1.0100;
38.7000;0.6846;1.0170;
39.0000;0.6813;1.0100;
39.3000;0.6846;1.0100;
39.6000;0.6878;1.0240;
39.9000;0.6829;0.9984;
40.2000;0.6846;1.0031;
40.5000;0.6805;1.0054;
40.8000;0.6829;1.0147;
41.1000;0.6829;1.0193;
41.4000;0.6854;1.0217;
41.7000;0.6895;1.0240;
42.0000;0.6813;1.0077;
42.3000;0.6854;1.0147;
42.6000;0.6846;1.0263;
42.9000;0.6821;1.0240;
43.2000;0.6838;1.0147;
43.5000;0.6838;1.0124;
43.8000;0.6821;1.0124;
44.1000;0.6838;1.0217;
44.4000;0.6846;1.0263;
44.7000;0.6927;1.0356;
45.0000;0.6886;1.0217;
45.3000;0.6829;1.0147;
45.6000;0.6854;1.0170;
45.9000;0.6797;0.9961;
46.2000;0.6854;1.0147;
46.5000;0.6854;1.0170;
46.8000;0.6862;1.0147;
47.1000;0.6862;1.0100;
47.4000;0.6862;1.0031;
47.7000;0.6862;0.9984;
48.0000;0.6854;0.9915;
48.3000;0.6838;0.9915;
48.6000;0.6846;1.0054;
48.9000;0.6854;1.0008;
49.2000;0.6919;1.0147;
49.5000;0.6862;0.9984;
49.8000;0.6870;1.0008;
50.1000;0.6846;0.9915;
50.4000;0.6756;0.9752;
50.7000;0.6886;1.0054;
51.0000;0.6870;1.0170;
51.3000;0.6862;1.0263;
51.6000;0.6886;1.0240;
51.9000;0.6952;1.0309;
52.2000;0.6854;1.0100;
52.5000;0.6878;1.0124;
52.8000;0.6886;1.0077;
53.1000;0.6895;1.0077;
53.4000;0.6870;1.0031;
53.7000;0.6886;1.0031;
54.0000;0.6895;1.0008;
54.3000;0.6870;0.9961;
54.6000;0.6886;1.0147;
54.9000;0.6952;1.0379;
55.2000;0.6886;1.0240;
55.5000;0.6903;1.0077;
55.8000;0.6895;1.0077;
56.1000;0.6911;1.0217;
56.4000;0.6927;1.0263;
56.7000;0.6911;1.0170;
57.0000;0.6911;1.0263;
57.3000;0.6911;1.0286;
57.6000;0.6911;1.0217;
57.9000;0.6911;1.0147;
58.2000;0.6895;1.0031;
58.5000;0.6895;1.0124;
58.8000;0.6927;1.0124;
59.1000;0.6895;1.0100;
59.4000;0.6903;1.0031;
59.7000;0.6911;0.9961;
60.0000;0.6919;0.9938;
60.3000;0.6927;0.9961;
60.6000;0.6919;1.0008;
60.9000;0.6919;0.9961;
61.2000;0.6911;0.9938;
61.5000;0.6911;0.9938;
61.8000;0.6935;1.0077;
62.1000;0.6911;1.0077;
62.4000;0.6903;1.0170;
62.7000;0.6919;1.0240;
63.0000;0.6976;1.0402;
63.3000;0.6895;1.0193;
63.6000;0.6886;1.0217;
63.9000;0.6911;1.0286;
64.2000;0.6903;1.0217;
64.5000;0.6878;1.0100;
64.8000;0.6919;1.0100;
65.1000;0.6895;1.0008;
65.4000;0.6919;1.0031;
65.7000;0.6919;1.0008;
66.0000;0.6927;0.9961;
66.3000;0.6927;0.9984;
66.6000;0.6943;1.0077;
66.9000;0.6935;1.0054;
67.2000;0.6927;1.0077;
67.5000;0.6927;1.0008;
67.8000;0.6927;1.0054;
68.1000;0.6919;0.9984;
68.4000;0.6927;0.9961;
68.7000;0.6919;1.0054;
69.0000;0.6911;1.0147;
69.3000;0.6919;1.0193;
69.6000;0.6919;1.0170;
69.9000;0.6935;1.0193;
70.2000;0.6911;1.0077;
70.5000;0.6919;1.0100;
70.8000;0.6919;1.0054;
71.1000;0.6919;1.0100;
71.4000;0.6919;1.0147;
71.7000;0.6927;1.0124;
72.0000;0.6870;0.9984;
72.3000;0.6943;1.0147;
72.6000;0.6927;1.0170;
72.9000;0.6927;1.0170;
73.2000;0.6935;1.0193;
73.5000;0.6976;1.0309;
73.8000;0.6903;1.0124;
74.1000;0.6919;1.0170;
74.4000;0.6943;1.0286;
74.7000;0.6935;1.0193;
75.0000;0.6935;1.0170;
75.3000;0.6911;1.0100;
75.6000;0.6919;1.0100;
75.9000;0.6935;1.0077;
76.2000;0.6943;1.0170;
76.5000;0.6919;1.0170;
76.8000;0.6976;1.0217;
77.1000;0.6927;1.0124;
77.4000;0.6935;1.0100;
77.7000;0.6927;1.0124;
78.0000;0.6927;1.0100;
78.3000;0.6952;1.0147;
78.6000;0.6968;1.0124;
78.9000;0.6935;1.0124;
79.2000;0.6935;1.0124;
79.5000;0.6935;1.0170;
79.8000;0.6854;0.9938;
80.1000;0.6943;1.0054;
80.4000;0.6903;0.9891;
80.7000;0.6943;0.9961;
81.0000;0.6943;0.9961;
81.3000;0.6935;0.9984;
81.6000;0.6935;1.0077;
81.9000;0.6943;1.0008;
82.2000;0.6943;1.0054;
82.5000;0.6976;1.0147;
82.8000;0.6943;1.0008;
83.1000;0.6943;0.9961;
83.4000;0.6952;0.9938;
83.7000;0.6952;0.9984;
84.0000;0.6927;0.9961;
84.3000;0.6968;1.0124;
84.6000;0.6943;1.0054;
84.9000;0.6952;1.0054;
85.2000;0.6935;1.0031;
85.5000;0.6935;1.0008;
85.8000;0.6960;1.0054;
86.1000;0.7009;1.0170;
86.4000;0.6952;1.0100;
86.7000;0.6960;1.0124;
87.0000;0.6968;1.0100;
87.3000;0.6943;1.0031;
87.6000;0.6960;1.0031;
87.9000;0.7025;1.0217;
88.2000;0.6984;1.0077;
88.5000;0.6984;1.0031;
88.8000;0.6960;1.0008;
89.1000;0.7049;1.0217;
89.4000;0.6968;1.0008;
89.7000;0.6960;0.9938;
90.0000;0.6943;0.9915;
90.3000;0.6960;0.9845;
90.6000;0.6960;0.9845;
90.9000;0.6952;0.9961;
91.2000;0.6943;0.9961;
91.5000;0.6960;1.0077;
91.8000;0.6952;1.0077;
92.1000;0.6992;1.0100;
92.4000;0.6968;1.0008;
92.7000;0.6952;0.9915;
93.0000;0.6952;0.9891;
93.3000;0.6952;0.9915;
93.6000;0.6968;1.0031;
93.9000;0.6952;1.0031;
94.2000;0.6960;0.9984;
94.5000;0.6976;0.9961;
94.8000;0.6952;1.0008;
95.1000;0.7025;1.0286;
95.4000;0.6935;1.0008;
95.7000;0.6968;0.9984;
96.0000;0.6952;0.9961;
96.3000;0.6903;0.9961;
96.6000;0.6943;1.0124;
96.9000;0.6952;1.0170;
97.2000;0.6976;1.0193;
97.5000;0.6960;1.0170;
97.8000;0.7025;1.0240;
98.1000;0.6968;1.0077;
98.4000;0.6943;0.9891;
98.7000;0.7025;1.0054;
99.0000;0.7025;0.9961;
99.3000;0.6984;0.9868;
99.6000;0.6919;0.9775;
99.9000;0.6976;0.9915;
100.2000;0.6984;0.9938;
100.5000;0.6960;0.9938;
100.8000;0.6968;1.0077;
101.1000;0.6968;1.0124;
101.4000;0.6943;1.0124;
101.7000;0.6984;1.0240;
102.0000;0.6976;1.0240;
102.3000;0.6968;1.0124;
102.6000;0.6984;1.0077;
102.9000;0.6968;0.9984;
103.2000;0.6952;0.9984;
103.5000;0.6968;0.9984;
103.8000;0.6968;1.0031;
104.1000;0.6976;1.0100;
104.4000;0.6960;1.0077;
104.7000;0.6960;1.0008;
105.0000;0.6960;1.0031;
105.3000;0.6984;1.0054;
105.6000;0.6960;1.0100;
105.9000;0.6968;1.0124;
106.2000;0.6976;1.0054;
106.5000;0.6968;0.9984;
106.8000;0.6968;1.0031;
107.1000;0.6952;0.9984;
107.4000;0.6976;1.0077;
107.7000;0.6976;1.0054;
108.0000;0.6968;1.0054;
108.3000;0.6976;1.0124;
108.6000;0.7000;1.0124;
108.9000;0.6992;1.0147;
109.2000;0.6992;1.0147;
109.5000;0.6960;1.0240;
109.8000;0.6976;1.0217;
110.1000;0.6935;1.0031;
110.4000;0.6992;1.0170;
110.7000;0.6976;1.0054;
111.0000;0.6960;0.9984;
111.3000;0.6903;0.9729;
111.6000;0.6984;0.9915;
111.9000;0.6952;0.9775;
112.2000;0.7000;0.9984;
112.5000;0.6984;0.9961;
112.8000;0.6984;0.9961;
113.1000;0.6968;0.9938;
113.4000;0.6976;0.9868;
113.7000;0.6968;0.9868;
114.0000;0.6976;0.9915;
114.3000;0.6960;0.9868;
114.6000;0.7000;0.9915;
114.9000;0.6976;0.9891;
115.2000;0.7033;0.9961;
115.5000;0.6968;0.9799;
115.8000;0.6984;0.9706;
116.1000;0.6943;0.9682;
116.4000;0.6976;0.9729;
116.7000;0.7000;0.9845;
117.0000;0.6992;0.9868;
117.3000;0.6976;0.9752;
117.6000;0.6984;0.9752;
117.9000;0.7025;0.9799;
118.2000;0.6919;0.9590;
118.5000;0.6976;0.9659;
118.8000;0.6960;0.9613;
119.1000;0.7000;0.9682;
119.4000;0.6984;0.9590;
119.7000;0.6976;0.9566;
120.0000;0.6984;0.9613;
120.3000;0.6976;0.9682;
120.6000;0.7009;0.9868;
120.9000;0.6952;0.9799;
121.2000;0.6935;0.9659;
121.5000;0.6968;0.9729;
121.8000;0.6992;0.9822;
122.1000;0.6968;0.9822;
122.4000;0.7066;1.0054;
122.7000;0.6960;0.9915;
123.0000;0.6976;0.9961;
123.3000;0.7025;1.0054;
123.6000;0.6976;0.9984;
123.9000;0.6952;0.9845;
124.2000;0.6960;0.9938;
124.5000;0.6984;0.9984;
124.8000;0.7017;0.9984;
125.1000;0.7000;0.9961;
125.4000;0.6968;0.9961;
125.7000;0.6943;0.9938;
126.0000;0.6943;0.9961;
126.3000;0.6976;1.0008;
126.6000;0.6976;1.0031;
126.9000;0.6976;0.9961;
127.2000;0.6976;0.9915;
127.5000;0.6984;0.9891;
127.8000;0.6968;0.9822;
128.1000;0.6976;0.9938;
128.4000;0.6992;0.9938;
128.7000;0.6984;0.9938;
129.0000;0.6984;0.9984;
129.3000;0.7017;1.0008;
129.6000;0.6984;0.9868;
129.9000;0.6968;0.9938;
130.2000;0.6984;1.0008;
130.5000;0.6976;1.0008;
130.8000;0.6976;1.0077;
131.1000;0.7000;1.0100;
131.4000;0.6976;1.0124;
131.7000;0.6976;1.0054;
132.0000;0.6976;0.9984;
132.3000;0.6943;0.9868;
132.6000;0.6968;0.9961;
132.9000;0.6968;0.9938;
133.2000;0.7009;0.9938;
133.5000;0.6976;0.9868;
133.8000;0.6976;0.9938;
134.1000;0.6992;1.0031;
134.4000;0.6976;1.0008;
134.7000;0.6968;0.9961;
135.0000;0.6984;1.0008;
135.3000;0.6984;1.0008;
135.6000;0.7041;1.0193;
135.9000;0.6984;1.0077;
136.2000;0.6984;1.0077;
136.5000;0.7041;1.0193;
136.8000;0.6984;1.0054;
137.1000;0.6976;0.9961;
137.4000;0.6976;1.0054;
137.7000;0.6976;1.0100;
138.0000;0.6984;1.0077;
138.3000;0.6984;1.0077;
138.6000;0.7000;1.0170;
138.9000;0.6984;1.0170;
139.2000;0.7017;1.0217;
139.5000;0.7041;1.0147;
139.8000;0.6984;0.9961;
140.1000;0.6992;0.9915;
140.4000;0.6968;0.9891;
140.7000;0.6960;0.9845;
141.0000;0.6992;0.9891;
141.3000;0.6943;0.9799;
141.6000;0.6960;0.9799;
141.9000;0.7025;0.9822;
142.2000;0.6976;0.9706;
142.5000;0.6984;0.9729;
142.8000;0.7049;0.9868;
143.1000;0.6984;0.9729;
143.4000;0.6984;0.9752;
143.7000;0.6984;0.9799;
144.0000;0.7025;0.9891;
144.3000;0.6935;0.9706;
144.6000;0.7009;0.9799;
144.9000;0.6992;0.9682;
145.2000;0.6976;0.9590;
145.5000;0.6952;0.9682;
145.8000;0.6976;0.9706;
146.1000;0.7057;0.9961;
146.4000;0.7000;0.9845;
146.7000;0.6952;0.9868;
147.0000;0.6976;0.9915;
147.3000;0.6984;0.9961;
147.6000;0.6976;0.9938;
147.9000;0.6992;0.9845;
148.2000;0.7000;0.9915;
148.5000;0.6976;0.9868;
148.8000;0.7000;0.9961;
149.1000;0.6992;0.9938;
149.4000;0.6976;0.9915;
149.7000;0.7000;0.9891;
150.0000;0.7017;0.9938;
150.3000;0.6976;0.9891;
150.6000;0.6984;0.9915;
150.9000;0.7000;0.9938;
151.2000;0.6992;0.9915;
151.5000;0.6968;0.9915;
151.8000;0.6976;0.9822;
152.1000;0.6968;0.9752;
152.4000;0.7000;0.9706;
152.7000;0.7000;0.9636;
153.0000;0.6976;0.9682;
153.3000;0.6968;0.9752;
153.6000;0.7000;0.9868;
153.9000;0.6984;0.9868;
154.2000;0.7000;0.9891;
154.5000;0.6968;0.9752;
154.8000;0.7009;0.9822;
155.1000;0.7009;0.9845;
155.4000;0.6976;0.9775;
155.7000;0.6968;0.9706;
156.0000;0.6984;0.9729;
156.3000;0.6968;0.9729;
156.6000;0.6992;0.9706;
156.9000;0.6984;0.9775;
157.2000;0.6992;0.9799;
157.5000;0.7041;0.9938;
157.8000;0.6968;0.9775;
158.1000;0.7000;0.9845;
158.4000;0.7009;0.9822;
158.7000;0.7000;0.9752;
159.0000;0.7017;0.9775;
159.3000;0.6984;0.9775;
159.6000;0.6911;0.9473;
159.9000;0.7009;0.9752;
160.2000;0.6992;0.9752;
160.5000;0.6919;0.9520;
160.8000;0.6984;0.9729;
161.1000;0.6992;0.9775;
161.4000;0.7009;0.9845;
161.7000;0.6919;0.9682;
162.0000;0.6976;0.9845;
162.3000;0.6976;0.9775;
162.6000;0.6968;0.9729;
162.9000;0.7017;0.9938;
163.2000;0.7057;1.0054;
163.5000;0.6992;0.9891;
163.8000;0.6984;0.9868;
164.1000;0.6968;0.9868;
164.4000;0.6984;0.9845;
164.7000;0.6943;0.9706;
165.0000;0.6943;0.9636;
165.3000;0.7000;0.9891;
165.6000;0.6984;0.9845;
165.9000;0.6984;0.9729;
166.2000;0.6992;0.9729;
166.5000;0.6984;0.9752;
166.8000;0.7066;0.9938;
167.1000;0.7000;0.9775;
167.4000;0.6976;0.9799;
167.7000;0.6992;0.9915;
168.0000;0.6984;0.9938;
168.3000;0.7000;0.9938;
168.6000;0.6976;0.9868;
168.9000;0.6968;0.9799;
169.2000;0.6992;0.9775;
169.5000;0.6984;0.9822;
169.8000;0.6976;0.9729;
170.1000;0.6976;0.9752;
170.4000;0.6984;0.9706;
170.7000;0.7033;0.9729;
171.0000;0.6976;0.9729;
171.3000;0.6984;0.9752;
171.6000;0.7000;0.9775;
171.9000;0.6968;0.9729;
172.2000;0.6984;0.9752;
172.5000;0.6984;0.9706;
172.8000;0.6976;0.9590;
173.1000;0.6968;0.9636;
173.4000;0.6960;0.9659;
173.7000;0.6976;0.9752;
174.0000;0.6984;0.9752;
174.3000;0.6976;0.9799;
174.6000;0.6976;0.9822;
174.9000;0.6976;0.9845;
175.2000;0.7000;0.9845;
175.5000;0.6992;0.9729;
175.8000;0.6976;0.9682;
176.1000;0.6984;0.9706;
176.4000;0.6952;0.9659;
176.7000;0.6992;0.9706;
177.0000;0.7000;0.9613;
177.3000;0.7009;0.9566;
177.6000;0.6992;0.9427;
177.9000;0.6992;0.9497;
178.2000;0.7000;0.9520;
178.5000;0.6992;0.9473;
178.8000;0.6960;0.9427;
179.1000;0.6992;0.9497;
179.4000;0.6984;0.9566;
179.7000;0.6992;0.9613;
180.0000;0.7009;0.9729;
180.3000;0.6992;0.9729;
180.6000;0.7000;0.9822;
180.9000;0.6911;0.9636;
181.2000;0.6992;0.9822;
181.5000;0.7009;0.9868;
181.8000;0.6976;0.9891;
182.1000;0.6984;0.9868;
182.4000;0.6968;0.9845;
182.7000;0.6968;0.9799;
183.0000;0.6992;0.9752;
183.3000;0.6976;0.9729;
183.6000;0.6943;0.9636;
183.9000;0.7000;0.9752;
184.2000;0.6976;0.9775;
184.5000;0.7000;0.9822;
184.8000;0.6984;0.9752;
185.1000;0.7017;0.9845;
185.4000;0.6927;0.9590;
185.7000;0.7074;1.0008;
186.0000;0.6960;0.9799;
186.3000;0.6992;1.0008;
186.6000;0.6984;0.9984;
186.9000;0.7049;1.0170;
187.2000;0.6992;1.0031;
187.5000;0.6992;0.9984;
187.8000;0.6968;0.9915;
188.1000;0.6976;0.9915;
188.4000;0.6952;0.9868;
188.7000;0.6935;0.9706;
189.0000;0.6968;0.9845;
189.3000;0.6984;0.9938;
189.6000;0.6992;0.9961;
189.9000;0.7000;0.9961;
190.2000;0.6976;0.9915;
190.5000;0.6919;0.9845;
190.8000;0.6976;0.9938;
191.1000;0.7041;1.0124;
191.4000;0.6984;1.0054;
191.7000;0.6992;1.0100;
192.0000;0.7033;1.0147;
192.3000;0.6960;0.9868;
192.6000;0.6992;0.9822;
192.9000;0.6992;0.9706;
193.2000;0.6984;0.9752;
193.5000;0.6992;0.9915;
193.8000;0.7025;1.0031;
194.1000;0.7000;0.9938;
194.4000;0.6976;0.9961;
194.7000;0.6935;0.9775;
195.0000;0.6952;0.9752;
195.3000;0.7000;0.9915;
195.6000;0.6992;0.9775;
195.9000;0.7025;0.9891;
196.2000;0.6976;0.9915;
196.5000;0.6968;0.9938;
196.8000;0.7041;1.0147;
197.1000;0.6903;0.9822;
197.4000;0.7000;1.0031;
197.7000;0.6992;1.0008;
198.0000;0.6960;0.9845;
198.3000;0.6984;0.9915;
198.6000;0.6992;0.9915;
198.9000;0.6984;0.9915;
199.2000;0.6862;0.9636;
199.5000;0.6992;0.9961;
199.8000;0.6992;0.9868;
200.1000;0.6992;0.9868;
200.4000;0.6984;0.9799;
200.7000;0.6984;0.9822;
201.0000;0.6992;0.9775;
201.3000;0.7017;0.9891;
201.6000;0.6984;0.9775;
201.9000;0.7074;0.9961;
202.2000;0.6984;0.9729;
202.5000;0.6976;0.9706;
202.8000;0.6968;0.9636;
203.1000;0.6968;0.9636;
203.4000;0.7000;0.9613;
203.7000;0.6976;0.9613;
204.0000;0.6992;0.9706;
204.3000;0.6984;0.9729;
204.6000;0.6976;0.9682;
204.9000;0.6976;0.9636;
205.2000;0.6976;0.9682;
205.5000;0.6984;0.9636;
205.8000;0.6976;0.9636;
206.1000;0.7000;0.9775;
206.4000;0.6976;0.9729;
206.7000;0.6976;0.9729;
207.0000;0.6992;0.9706;
207.3000;0.7025;0.9729;
207.6000;0.7017;0.9775;
207.9000;0.7041;0.9775;
208.2000;0.6984;0.9590;
208.5000;0.6992;0.9636;
208.8000;0.7009;0.9659;
209.1000;0.6976;0.9659;
209.4000;0.6976;0.9799;
209.7000;0.6968;0.9868;
210.0000;0.6927;0.9775;
210.3000;0.7025;0.9984;
210.6000;0.7009;0.9915;
210.9000;0.6976;0.9845;
211.2000;0.7033;1.0031;
211.5000;0.7009;0.9938;
211.8000;0.6976;0.9752;
212.1000;0.6976;0.9682;
212.4000;0.7000;0.9799;
212.7000;0.7017;0.9822;
213.0000;0.7025;0.9915;
213.3000;0.7131;1.0170;
213.6000;0.6984;0.9915;
213.9000;0.6943;0.9845;
214.2000;0.6968;0.9845;
214.5000;0.6976;0.9775;
214.8000;0.6976;0.9729;
215.1000;0.6984;0.9775;
215.4000;0.6984;0.9845;
215.7000;0.6984;0.9845;
216.0000;0.6984;0.9891;
216.3000;0.6976;0.9752;
216.6000;0.6984;0.9752;
216.9000;0.6976;0.9799;
217.2000;0.6976;0.9775;
217.5000;0.6992;0.9752;
217.8000;0.6976;0.9729;
218.1000;0.7033;0.9799;
218.4000;0.7009;0.9682;
218.7000;0.6976;0.9682;
219.0000;0.7041;0.9822;
219.3000;0.6976;0.9636;
219.6000;0.6952;0.9613;
219.9000;0.7009;0.9682;
220.2000;0.7000;0.9613;
220.5000;0.6976;0.9682;
220.8000;0.6911;0.9752;
221.1000;0.6927;0.9845;
221.4000;0.6976;0.9868;
221.7000;0.7009;0.9868;
222.0000;0.6984;0.9868;
222.3000;0.6976;0.9822;
222.6000;0.7009;0.9938;
222.9000;0.7000;1.0008;
223.2000;0.7000;1.0054;
223.5000;0.6984;1.0008;
223.8000;0.6992;0.9961;
224.1000;0.7000;0.9915;
224.4000;0.6952;0.9775;
224.7000;0.6984;0.9775;
225.0000;0.6968;0.9729;
225.3000;0.6992;0.9752;
225.6000;0.6976;0.9752;
225.9000;0.6968;0.9729;
226.2000;0.6992;0.9752;
226.5000;0.7000;0.9775;
226.8000;0.6992;0.9752;
227.1000;0.7009;0.9752;
227.4000;0.6992;0.9799;
227.7000;0.6984;0.9706;
228.0000;0.6992;0.9706;
228.3000;0.6976;0.9682;
228.6000;0.6968;0.9659;
228.9000;0.6976;0.9659;
229.2000;0.7000;0.9613;
229.5000;0.6984;0.9613;
229.8000;0.6968;0.9682;
230.1000;0.6976;0.9729;
230.4000;0.6984;0.9590;
230.7000;0.6992;0.9636;
231.0000;0.6960;0.9590;
231.3000;0.6976;0.9613;
231.6000;0.6943;0.9566;
231.9000;0.6992;0.9729;
232.2000;0.6976;0.9590;
232.5000;0.6952;0.9520;
232.8000;0.7000;0.9729;
233.1000;0.6976;0.9752;
233.4000;0.7009;0.9845;
233.7000;0.6976;0.9706;
234.0000;0.6968;0.9659;
234.3000;0.6992;0.9752;
234.6000;0.6903;0.9590;
234.9000;0.6976;0.9845;
235.2000;0.6976;0.9868;
235.5000;0.6984;0.9915;
235.8000;0.6968;0.9775;
236.1000;0.6984;0.9799;
236.4000;0.6952;0.9682;
236.7000;0.7000;0.9822;
237.0000;0.6992;0.9775;
237.3000;0.7017;0.9868;
237.6000;0.6976;0.9845;
237.9000;0.7000;0.9961;
238.2000;0.6976;0.9891;
238.5000;0.7049;1.0100;
238.8000;0.6960;0.9938;
239.1000;0.6968;0.9868;
239.4000;0.7000;0.9822;
239.7000;0.7000;0.9915;
240.0000;0.7000;0.9868;
240.3000;0.6952;0.9775;
240.6000;0.6992;0.9799;
240.9000;0.6960;0.9752;
241.2000;0.6984;0.9822;
241.5000;0.6984;0.9752;
241.8000;0.6984;0.9799;
242.1000;0.6984;0.9682;
242.4000;0.6984;0.9682;
242.7000;0.7000;0.9799;
243.0000;0.7082;0.9984;
243.3000;0.6984;0.9799;
243.6000;0.7000;0.9752;
243.9000;0.6976;0.9636;
244.2000;0.6976;0.9613;
244.5000;0.7000;0.9752;
244.8000;0.6992;0.9729;
245.1000;0.6976;0.9752;
245.4000;0.6976;0.9822;
245.7000;0.6984;0.9775;
246.0000;0.6976;0.9775;
246.3000;0.6992;0.9775;
246.6000;0.6984;0.9729;
246.9000;0.6992;0.9659;
247.2000;0.7000;0.9566;
247.5000;0.7009;0.9520;
247.8000;0.6992;0.9543;
248.1000;0.7009;0.9590;
248.4000;0.6976;0.9520;
248.7000;0.7009;0.9636;
249.0000;0.6976;0.9682;
249.3000;0.6960;0.9682;
249.6000;0.7025;0.9891;
249.9000;0.6992;0.9845;
250.2000;0.6976;0.9845;
250.5000;0.6968;0.9729;
250.8000;0.6992;0.9775;
251.1000;0.6984;0.9822;
251.4000;0.6984;0.9868;
251.7000;0.6960;0.9845;
252.0000;0.7000;0.9822;
252.3000;0.7009;0.9799;
252.6000;0.7025;0.9915;
252.9000;0.7000;0.9938;
253.2000;0.6976;0.9938;
253.5000;0.7009;0.9984;
253.8000;0.6968;0.9891;
254.1000;0.6992;0.9938;
254.4000;0.6984;0.9938;
254.7000;0.6992;1.0031;
255.0000;0.6976;1.0054;
255.3000;0.6984;1.0100;
255.6000;0.6927;0.9891;
255.9000;0.7033;1.0170;
256.2000;0.6984;1.0031;
256.5000;0.6992;0.9961;
256.8000;0.6984;0.9938;
257.1000;0.6992;0.9961;
257.4000;0.6895;0.9706;
257.7000;0.6976;0.9822;
258.0000;0.6984;0.9775;
258.3000;0.6984;0.9845;
258.6000;0.7000;0.9891;
258.9000;0.7009;0.9891;
259.2000;0.6984;0.9868;
259.5000;0.6952;0.9799;
259.8000;0.7049;0.9845;
260.1000;0.6960;0.9682;
260.4000;0.6984;0.9706;
260.7000;0.6984;0.9659;
261.0000;0.6984;0.9636;
261.3000;0.6992;0.9659;
261.6000;0.6992;0.9706;
261.9000;0.6992;0.9706;
262.2000;0.7000;0.9729;
262.5000;0.7000;0.9752;
262.8000;0.6992;0.9729;
263.1000;0.6992;0.9706;
263.4000;0.6968;0.9706;
263.7000;0.7000;0.9845;
264.0000;0.6992;0.9868;
264.3000;0.6992;0.9845;
264.6000;0.6992;0.9868;
264.9000;0.6968;0.9868;
265.2000;0.7009;0.9915;
265.5000;0.6984;0.9729;
265.8000;0.6992;0.9706;
266.1000;0.6992;0.9659;
266.4000;0.6976;0.9566;
266.7000;0.7017;0.9682;
267.0000;0.7000;0.9706;
267.3000;0.6984;0.9752;
267.6000;0.7000;0.9891;
267.9000;0.6976;0.9868;
268.2000;0.6992;0.9845;
268.5000;0.7000;0.9799;
268.8000;0.7009;0.9752;
269.1000;0.6984;0.9659;
269.4000;0.7033;0.9822;
269.7000;0.6984;0.9706;
270.0000;0.6984;0.9613;
270.3000;0.7009;0.9659;
270.6000;0.6992;0.9636;
270.9000;0.6992;0.9590;
271.2000;0.6984;0.9706;
271.5000;0.6984;0.9706;
271.8000;0.6968;0.9613;
272.1000;0.6976;0.9706;
272.4000;0.7017;0.9938;
272.7000;0.7000;0.9961;
273.0000;0.6984;0.9961;
273.3000;0.6968;0.9891;
273.6000;0.7033;1.0031;
273.9000;0.6992;0.9868;
274.2000;0.7000;0.9868;
274.5000;0.7009;0.9822;
274.8000;0.7000;0.9752;
275.1000;0.7017;0.9775;
275.4000;0.6984;0.9775;
275.7000;0.6984;0.9822;
276.0000;0.6984;0.9822;
276.3000;0.6984;0.9891;
276.6000;0.6968;0.9822;
276.9000;0.7009;0.9891;
277.2000;0.6911;0.9613;
277.5000;0.6919;0.9590;
277.8000;0.7000;0.9868;
278.1000;0.6992;0.9938;
278.4000;0.6976;0.9891;
278.7000;0.7041;1.0008;
279.0000;0.6992;0.9938;
279.3000;0.6992;0.9891;
279.6000;0.6943;0.9729;
279.9000;0.7009;0.9891;
280.2000;0.6984;0.9868;
280.5000;0.6984;0.9891;
280.8000;0.6952;0.9729;
281.1000;0.6984;0.9775;
281.4000;0.6968;0.9752;
281.7000;0.6984;0.9845;
282.0000;0.6976;0.9915;
282.3000;0.6960;0.9915;
282.6000;0.6976;0.9891;
282.9000;0.7000;0.9868;
283.2000;0.7090;1.0170;
283.5000;0.6992;0.9868;
283.8000;0.7000;0.9868;
284.1000;0.6976;0.9822;
284.4000;0.6976;0.9799;
284.7000;0.7000;0.9799;
285.0000;0.6976;0.9752;
285.3000;0.6984;0.9868;
285.6000;0.6984;0.9938;
285.9000;0.6968;0.9891;
286.2000;0.6984;0.9891;
286.5000;0.6984;0.9938;
286.8000;0.6984;0.9891;
287.1000;0.6984;0.9915;
287.4000;0.6976;1.0008;
287.7000;0.6984;1.0008;
288.0000;0.7106;1.0379;
288.3000;0.6992;1.0077;
288.6000;0.6984;1.0031;
288.9000;0.6984;1.0031;
289.2000;0.6992;1.0100;
289.5000;0.6992;1.0100;
289.8000;0.6984;1.0077;
290.1000;0.6968;0.9984;
290.4000;0.6992;0.9984;
290.7000;0.6992;1.0031;
291.0000;0.6984;1.0054;
291.3000;0.6968;1.0031;
291.6000;0.6976;1.0031;
291.9000;0.6960;0.9961;
292.2000;0.6984;1.0054;
292.5000;0.7000;1.0193;
292.8000;0.6992;1.0193;
293.1000;0.6992;1.0147;
293.4000;0.7009;1.0193;
293.7000;0.7000;1.0147;
294.0000;0.7009;1.0147;
294.3000;0.7000;1.0124;
294.6000;0.6976;1.0054;
294.9000;0.7000;1.0170;
295.2000;0.6976;1.0077;
295.5000;0.6984;1.0077;
295.8000;0.7009;1.0147;
296.1000;0.6976;1.0077;
296.4000;0.6968;1.0008;
296.7000;0.6992;1.0100;
297.0000;0.6992;1.0077;
297.3000;0.6984;1.0100;
297.6000;0.6976;1.0193;
297.9000;0.6976;1.0054;
298.2000;0.7041;1.0170;
298.5000;0.6984;1.0031;
298.8000;0.7000;1.0054;
299.1000;0.6984;1.0054;
299.4000;0.7009;1.0170;
299.7000;0.6992;1.0147;
300.0000;0.7033;1.0240;
300.3000;0.6992;1.0193;
300.6000;0.7009;1.0286;
300.9000;0.7041;1.0402;
301.2000;0.6976;1.0193;
301.5000;0.7057;1.0333;
301.8000;0.6984;1.0193;
302.1000;0.6984;1.0193;
302.4000;0.6992;1.0147;
302.7000;0.6903;0.9915;
303.0000;0.6984;1.0217;
303.3000;0.7000;1.0240;
303.6000;0.7000;1.0286;
303.9000;0.6984;1.0240;
304.2000;0.6992;1.0309;
304.5000;0.7000;1.0286;
304.8000;0.7066;1.0472;
305.1000;0.7000;1.0449;
305.4000;0.6976;1.0356;
305.7000;0.6984;1.0356;
306.0000;0.6984;1.0356;
306.3000;0.6992;1.0263;
306.6000;0.6976;1.0193;
306.9000;0.6976;1.0147;
307.2000;0.6976;1.0217;
307.5000;0.6935;1.0031;
307.8000;0.6984;1.0217;
308.1000;0.6968;1.0147;
308.4000;0.6976;1.0170;
308.7000;0.7000;1.0170;
309.0000;0.6968;1.0124;
309.3000;0.6992;1.0170;
309.6000;0.6984;1.0240;
309.9000;0.6984;1.0333;
310.2000;0.6968;1.0309;
310.5000;0.7000;1.0286;
310.8000;0.6984;1.0217;
311.1000;0.6984;1.0240;
311.4000;0.6984;1.0193;
311.7000;0.6976;1.0193;
312.0000;0.7000;1.0356;
312.3000;0.6976;1.0263;
312.6000;0.6976;1.0170;
312.9000;0.6976;1.0147;
313.2000;0.6984;1.0170;
313.5000;0.6992;1.0100;
313.8000;0.6976;1.0008;
314.1000;0.6960;0.9961;
314.4000;0.6992;1.0077;
314.7000;0.7000;1.0008;
315.0000;0.7025;1.0008;
315.3000;0.6992;1.0008;
315.6000;0.6984;1.0031;
315.9000;0.6984;1.0077;
316.2000;0.6960;0.9938;
316.5000;0.6976;1.0031;
316.8000;0.7041;1.0170;
317.1000;0.6895;0.9891;
317.4000;0.7009;1.0240;
317.7000;0.7000;1.0286;
318.0000;0.6976;1.0240;
318.3000;0.6952;1.0124;
318.6000;0.6984;1.0193;
318.9000;0.6984;1.0193;
319.2000;0.7000;1.0193;
319.5000;0.7009;1.0170;
319.8000;0.7066;1.0263;
320.1000;0.6968;1.0170;
320.4000;0.6992;1.0402;
320.7000;0.6935;1.0263;
321.0000;0.7049;1.0542;
321.3000;0.6960;1.0263;
321.6000;0.6976;1.0286;
321.9000;0.6886;1.0077;
322.2000;0.6976;1.0309;
322.5000;0.6976;1.0286;
322.8000;0.6992;1.0333;
323.1000;0.7000;1.0217;
323.4000;0.6927;1.0077;
323.7000;0.6984;1.0217;
324.0000;0.6992;1.0263;
324.3000;0.6984;1.0309;
324.6000;0.6992;1.0333;
324.9000;0.6976;1.0356;
325.2000;0.6976;1.0286;
325.5000;0.7000;1.0309;
325.8000;0.7033;1.0286;
326.1000;0.7057;1.0425;
326.4000;0.6992;1.0263;
326.7000;0.6984;1.0217;
327.0000;0.6992;1.0193;
327.3000;0.6960;1.0054;
327.6000;0.6968;1.0147;
327.9000;0.6976;1.0193;
328.2000;0.7009;1.0217;
328.5000;0.6976;1.0193;
328.8000;0.7025;1.0240;
329.1000;0.7000;1.0170;
329.4000;0.7000;1.0240;
329.7000;0.6992;1.0309;
330.0000;0.6960;1.0217;
330.3000;0.6976;1.0240;
330.6000;0.6992;1.0193;
330.9000;0.6992;1.0217;
331.2000;0.6984;1.0193;
331.5000;0.6992;1.0240;
331.8000;0.6984;1.0193;
332.1000;0.6976;1.0124;
332.4000;0.6960;1.0193;
332.7000;0.6976;1.0193;
333.0000;0.6960;1.0100;
333.3000;0.7009;1.0170;
333.6000;0.6976;1.0100;
333.9000;0.6984;1.0170;
334.2000;0.7057;1.0309;
334.5000;0.6943;1.0054;
334.8000;0.6968;1.0124;
335.1000;0.6992;1.0193;
335.4000;0.6984;1.0077;
335.7000;0.6984;1.0031;
336.0000;0.7033;1.0217;
336.3000;0.6992;1.0077;
336.6000;0.6976;1.0077;
336.9000;0.6976;1.0100;
337.2000;0.6976;1.0008;
337.5000;0.6976;1.0031;
337.8000;0.6992;1.0054;
338.1000;0.6952;1.0008;
338.4000;0.6976;1.0100;
338.7000;0.7009;1.0193;
339.0000;0.7066;1.0286;
339.3000;0.6976;1.0100;
339.6000;0.6903;0.9915;
339.9000;0.6943;1.0031;
340.2000;0.6968;1.0147;
340.5000;0.6968;1.0147;
340.8000;0.6968;1.0193;
341.1000;0.7041;1.0333;
341.4000;0.6952;1.0193;
341.7000;0.6952;1.0193;
342.0000;0.6968;1.0170;
342.3000;0.6976;1.0170;
342.6000;0.6984;1.0147;
342.9000;0.6984;1.0217;
343.2000;0.6968;1.0124;
343.5000;0.6984;1.0193;
343.8000;0.7009;1.0193;
344.1000;0.6992;1.0031;
344.4000;0.6935;0.9891;
344.7000;0.6992;1.0031;
345.0000;0.6992;1.0008;
345.3000;0.6976;0.9984;
345.6000;0.6968;0.9961;
345.9000;0.6992;0.9938;
346.2000;0.6976;1.0031;
346.5000;0.6976;1.0054;
346.8000;0.7025;1.0077;
347.1000;0.6984;1.0008;
347.4000;0.6960;0.9938;
347.7000;0.6911;0.9845;
348.0000;0.6984;1.0054;
348.3000;0.6984;1.0077;
348.6000;0.6886;0.9845;
348.9000;0.6968;1.0100;
349.2000;0.7009;1.0147;
349.5000;0.6943;0.9938;
349.8000;0.6952;0.9915;
350.1000;0.6992;0.9961;
350.4000;0.6968;0.9822;
350.7000;0.6992;0.9799;
351.0000;0.6976;0.9729;
351.3000;0.7017;0.9845;
351.6000;0.6984;0.9845;
351.9000;0.7017;0.9891;
352.2000;0.6992;0.9915;
352.5000;0.6935;0.9799;
352.8000;0.6919;0.9775;
353.1000;0.6976;0.9822;
353.4000;0.7000;0.9799;
353.7000;0.6992;0.9799;
354.0000;0.6992;0.9752;
354.3000;0.6976;0.9729;
354.6000;0.7000;0.9799;
354.9000;0.6960;0.9729;
355.2000;0.6984;0.9775;
355.5000;0.7000;0.9845;
355.8000;0.6992;0.9845;
356.1000;0.6984;0.9845;
356.4000;0.6968;0.9799;
356.7000;0.6992;0.9868;
357.0000;0.7000;0.9984;
357.3000;0.6992;0.9984;
357.6000;0.7017;1.0031;
357.9000;0.7009;1.0031;
358.2000;0.6992;0.9845;
358.5000;0.6984;0.9799;
358.8000;0.6984;0.9799;
359.1000;0.6976;0.9822;
359.4000;0.6984;0.9938;
359.7000;0.6976;1.0008;
360.0000;0.6992;0.9961;
360.3000;0.6992;0.9961;
360.6000;0.6992;1.0008;
360.9000;0.6976;0.9868;
361.2000;0.6984;0.9845;
361.5000;0.6984;0.9868;
361.8000;0.6992;0.9868;
362.1000;0.7009;0.9984;
362.4000;0.6992;1.0031;
362.7000;0.6992;1.0077;
363.0000;0.6984;1.0077;
363.3000;0.7025;1.0147;
363.6000;0.6992;1.0170;
363.9000;0.6984;1.0217;
364.2000;0.6895;0.9961;
364.5000;0.7009;1.0193;
364.8000;0.6943;1.0031;
365.1000;0.7033;1.0147;
365.4000;0.6952;0.9938;
365.7000;0.7017;1.0054;
366.0000;0.6992;0.9984;
366.3000;0.6984;1.0008;
366.6000;0.6992;1.0008;
366.9000;0.6960;1.0031;
367.2000;0.7009;1.0077;
367.5000;0.7000;1.0100;
367.8000;0.6984;1.0147;
368.1000;0.7000;1.0240;
368.4000;0.6960;1.0193;
368.7000;0.7000;1.0170;
369.0000;0.6976;1.0124;
369.3000;0.6968;1.0031;
369.6000;0.6952;0.9961;
369.9000;0.6976;1.0031;
370.2000;0.7017;1.0217;
370.5000;0.6976;1.0031;
370.8000;0.6976;1.0031;
371.1000;0.6968;0.9984;
371.4000;0.6960;0.9891;
371.7000;0.7074;1.0054;
372.0000;0.6984;0.9868;
372.3000;0.6870;0.9659;
372.6000;0.6943;0.9891;
372.9000;0.6984;0.9938;
373.2000;0.6992;0.9891;
373.5000;0.6943;0.9775;
373.8000;0.6960;0.9775;
374.1000;0.6992;0.9799;
374.4000;0.6992;0.9752;
374.7000;0.6992;0.9752;
375.0000;0.6984;0.9752;
375.3000;0.6968;0.9752;
375.6000;0.6935;0.9659;
375.9000;0.6984;0.9799;
376.2000;0.6984;0.9775;
376.5000;0.6984;0.9775;
376.8000;0.6976;0.9845;
377.1000;0.6976;0.9915;
377.4000;0.6960;0.9799;
377.7000;0.6984;0.9868;
378.0000;0.6976;0.9891;
378.3000;0.6943;0.9799;
378.6000;0.6976;0.9845;
378.9000;0.6976;0.9822;
379.2000;0.6960;0.9845;
379.5000;0.7074;1.0217;
379.8000;0.6968;1.0008;
380.1000;0.6976;1.0077;
380.4000;0.6976;1.0008;
380.7000;0.6960;0.9961;
381.0000;0.6976;0.9915;
381.3000;0.7000;0.9938;
381.6000;0.6976;0.9961;
381.9000;0.6976;0.9961;
382.2000;0.6952;0.9775;
382.5000;0.6976;0.9822;
382.8000;0.6984;0.9868;
383.1000;0.6952;0.9868;
383.4000;0.6943;0.9915;
383.7000;0.6984;1.0008;
384.0000;0.6992;1.0077;
384.3000;0.7009;1.0077;
384.6000;0.6968;0.9961;
384.9000;0.6968;0.9938;
385.2000;0.6992;1.0077;
385.5000;0.6960;1.0124;
385.8000;0.7025;1.0147;
386.1000;0.6984;1.0054;
386.4000;0.6984;1.0054;
386.7000;0.6984;1.0008;
387.0000;0.6919;0.9868;
387.3000;0.6976;1.0100;
387.6000;0.6927;1.0100;
387.9000;0.6992;1.0124;
388.2000;0.6911;0.9961;
388.5000;0.6968;1.0008;
388.8000;0.6976;0.9961;
389.1000;0.7009;0.9938;
389.4000;0.6968;0.9822;
389.7000;0.6984;0.9799;
390.0000;0.6984;0.9706;
390.3000;0.7017;0.9706;
390.6000;0.6976;0.9566;
390.9000;0.6992;0.9613;
391.2000;0.6976;0.9566;
391.5000;0.6992;0.9590;
391.8000;0.6976;0.9566;
392.1000;0.7009;0.9775;
392.4000;0.7000;0.9752;
392.7000;0.7000;0.9775;
393.0000;0.6992;0.9799;
393.3000;0.7000;0.9822;
393.6000;0.7009;0.9891;
393.9000;0.6984;0.9891;
394.2000;0.6992;0.9938;
394.5000;0.6968;0.9938;
394.8000;0.6943;0.9891;
395.1000;0.7009;1.0124;
395.4000;0.6984;1.0100;
395.7000;0.6984;1.0054;
396.0000;0.6984;1.0008;
396.3000;0.7000;1.0054;
396.6000;0.6968;1.0031;
396.9000;0.6935;0.9961;
397.2000;0.6984;1.0124;
397.5000;0.6992;1.0124;
397.8000;0.6984;0.9961;
398.1000;0.6984;0.9938;
398.4000;0.6976;0.9891;
398.7000;0.7000;0.9915;
399.0000;0.6960;0.9915;
399.3000;0.7000;0.9915;
399.6000;0.7000;0.9891;
399.9000;0.7057;1.0008;
400.2000;0.6968;0.9845;
400.5000;0.6960;0.9961;
400.8000;0.6976;1.0008;
401.1000;0.6968;1.0031;
401.4000;0.6968;1.0124;
401.7000;0.6968;1.0031;
402.0000;0.6968;1.0031;
402.3000;0.6927;1.0031;
402.6000;0.6968;1.0147;
402.9000;0.6935;1.0031;
403.2000;0.7009;1.0217;
403.5000;0.6992;1.0147;
403.8000;0.6984;1.0170;
404.1000;0.6960;1.0170;
404.4000;0.6984;1.0240;
404.7000;0.6976;1.0147;
405.0000;0.7009;1.0147;
405.3000;0.6976;1.0100;
405.6000;0.6976;1.0100;
405.9000;0.7017;1.0170;
406.2000;0.6968;1.0077;
406.5000;0.6984;1.0286;
406.8000;0.6992;1.0309;
407.1000;0.6943;1.0100;
407.4000;0.6976;1.0147;
407.7000;0.6976;1.0147;
408.0000;0.6968;1.0100;
408.3000;0.7009;1.0077;
408.6000;0.6927;0.9845;
408.9000;0.6976;0.9915;
409.2000;0.6992;0.9938;
409.5000;0.6984;0.9868;
409.8000;0.7090;1.0054;
410.1000;0.7057;1.0031;
410.4000;0.6976;0.9961;
410.7000;0.6976;0.9868;
411.0000;0.6984;0.9891;
411.3000;0.7033;1.0054;
411.6000;0.6968;0.9845;
411.9000;0.6992;0.9961;
412.2000;0.6992;0.9984;
412.5000;0.6984;0.9891;
412.8000;0.6976;0.9915;
413.1000;0.6984;0.9868;
413.4000;0.7000;0.9891;
413.7000;0.6976;0.9868;
414.0000;0.6984;0.9868;
414.3000;0.6976;0.9961;
414.6000;0.6976;1.0054;
414.9000;0.6968;0.9961;
415.2000;0.6960;0.9845;
415.5000;0.6968;0.9868;
415.8000;0.6927;0.9799;
416.1000;0.6960;0.9891;
416.4000;0.6984;1.0077;
416.7000;0.6968;1.0077;
417.0000;0.6960;1.0054;
417.3000;0.6976;1.0054;
417.6000;0.6976;1.0124;
417.9000;0.6952;1.0054;
418.2000;0.6984;1.0008;
418.5000;0.6992;1.0031;
418.8000;0.6984;1.0100;
419.1000;0.7017;1.0147;
419.4000;0.6968;0.9891;
419.7000;0.6984;0.9868;
420.0000;0.6927;0.9706;
420.3000;0.7000;0.9915;
420.6000;0.6968;0.9891;
420.9000;0.6976;1.0008;
421.2000;0.6968;1.0031;
421.5000;0.6984;1.0124;
421.8000;0.6976;1.0100;
422.1000;0.6976;1.0147;
422.4000;0.6968;1.0054;
422.7000;0.7009;1.0100;
423.0000;0.6976;0.9961;
423.3000;0.6968;0.9961;
423.6000;0.6992;1.0054;
423.9000;0.6911;0.9938;
424.2000;0.6976;1.0031;
424.5000;0.6992;1.0054;
424.8000;0.6984;1.0054;
425.1000;0.6992;0.9961;
425.4000;0.6976;0.9891;
425.7000;0.6984;0.9891;
426.0000;0.6984;0.9868;
426.3000;0.6878;0.9636;
426.6000;0.6976;0.9822;
426.9000;0.7000;0.9961;
427.2000;0.6968;0.9915;
427.5000;0.6976;0.9891;
427.8000;0.6960;0.9868;
428.1000;0.6952;0.9915;
428.4000;0.6960;0.9938;
428.7000;0.6984;0.9938;
429.0000;0.6968;1.0008;
429.3000;0.6952;0.9961;
429.6000;0.6984;1.0054;
429.9000;0.6960;1.0008;
430.2000;0.6984;1.0008;
430.5000;0.6984;0.9984;
430.8000;0.6952;0.9938;
431.1000;0.6960;0.9915;
431.4000;0.6968;0.9868;
431.7000;0.6960;0.9775;
432.0000;0.6992;0.9845;
432.3000;0.6976;0.9891;
432.6000;0.6976;0.9915;
432.9000;0.6968;0.9868;
433.2000;0.6976;0.9891;
433.5000;0.6984;0.9915;
433.8000;0.6984;0.9938;
434.1000;0.6992;0.9938;
434.4000;0.6976;0.9915;
434.7000;0.6935;0.9822;
435.0000;0.6952;0.9868;
435.3000;0.6976;0.9891;
435.6000;0.6968;0.9799;
435.9000;0.6952;0.9706;
436.2000;0.6976;0.9729;
436.5000;0.6968;0.9752;
436.8000;0.6960;0.9822;
437.1000;0.6968;0.9891;
437.4000;0.6976;0.9868;
437.7000;0.6976;0.9915;
438.0000;0.6968;0.9938;
438.3000;0.6976;1.0008;
438.6000;0.6952;1.0008;
438.9000;0.6960;0.9961;
439.2000;0.6952;0.9891;
439.5000;0.6968;0.9984;
439.8000;0.6976;1.0008;
440.1000;0.7033;1.0193;
440.4000;0.7025;1.0240;
440.7000;0.6976;1.0217;
441.0000;0.6952;1.0193;
441.3000;0.6952;1.0193;
441.6000;0.6976;1.0124;
441.9000;0.6968;1.0077;
442.2000;0.6886;0.9984;
442.5000;0.6976;1.0147;
442.8000;0.6960;1.0217;
443.1000;0.6919;1.0054;
443.4000;0.6976;1.0170;
443.7000;0.7049;1.0309;
444.0000;0.7017;1.0263;
444.3000;0.6984;1.0217;
444.6000;0.6886;1.0077;
444.9000;0.6992;1.0263;
445.2000;0.6992;1.0217;
445.5000;0.6968;1.0193;
445.8000;0.7017;1.0379;
446.1000;0.6984;1.0240;
446.4000;0.6984;1.0054;
446.7000;0.6976;1.0031;
447.0000;0.7041;1.0124;
447.3000;0.6992;1.0031;
447.6000;0.6984;1.0147;
447.9000;0.6984;1.0240;
448.2000;0.6976;1.0263;
448.5000;0.6976;1.0309;
448.8000;0.6895;1.0031;
449.1000;0.6984;1.0240;
449.4000;0.6943;1.0170;
449.7000;0.6968;1.0217;
450.0000;0.6935;1.0031;
450.3000;0.7009;1.0193;
450.6000;0.6943;0.9961;
450.9000;0.6976;0.9984;
451.2000;0.6935;0.9938;
451.5000;0.6960;0.9938;
451.8000;0.6952;0.9868;
452.1000;0.6960;0.9775;
452.4000;0.6960;0.9729;
452.7000;0.6960;0.9706;
453.0000;0.6976;0.9799;
453.3000;0.6984;0.9891;
453.6000;0.6984;0.9822;
453.9000;0.6976;0.9891;
454.2000;0.6984;0.9961;
454.5000;0.6976;0.9961;
454.8000;0.6976;0.9868;
455.1000;0.6968;0.9961;
455.4000;0.6984;1.0031;
455.7000;0.6992;1.0008;
456.0000;0.6992;1.0008;
456.3000;0.6943;0.9868;
456.6000;0.6968;0.9915;
456.9000;0.6976;0.9868;
457.2000;0.6919;0.9682;
457.5000;0.6976;0.9822;
457.8000;0.6976;0.9845;
458.1000;0.6976;0.9729;
458.4000;0.6976;0.9915;
458.7000;0.6968;0.9938;
459.0000;0.7009;1.0147;
459.3000;0.7049;1.0286;
459.6000;0.7000;1.0124;
459.9000;0.6960;1.0031;
460.2000;0.7009;1.0147;
460.5000;0.6976;1.0100;
460.8000;0.6984;1.0077;
461.1000;0.6976;1.0054;
461.4000;0.6952;1.0008;
461.7000;0.7009;1.0100;
462.0000;0.7000;1.0054;
462.3000;0.7025;1.0147;
462.6000;0.6976;0.9938;
462.9000;0.6968;0.9938;
463.2000;0.6992;1.0054;
463.5000;0.6968;1.0100;
463.8000;0.6943;1.0054;
464.1000;0.7033;1.0193;
464.4000;0.6968;1.0077;
464.7000;0.7033;1.0217;
465.0000;0.6952;0.9984;
465.3000;0.6952;0.9984;
465.6000;0.7017;1.0217;
465.9000;0.7000;1.0286;
466.2000;0.6960;1.0286;
466.5000;0.6968;1.0309;
466.8000;0.6968;1.0193;
467.1000;0.6968;1.0170;
467.4000;0.6943;0.9984;
467.7000;0.6976;0.9961;
468.0000;0.6952;0.9891;
468.3000;0.6952;0.9984;
468.6000;0.6952;0.9984;
468.9000;0.6960;1.0008;
469.2000;0.6943;1.0008;
469.5000;0.6821;0.9775;
469.8000;0.6960;1.0124;
470.1000;0.6960;1.0147;
470.4000;0.6968;1.0170;
470.7000;0.6992;1.0240;
471.0000;0.6960;1.0147;
471.3000;0.6976;1.0193;
471.6000;0.6968;1.0077;
471.9000;0.6984;1.0054;
472.2000;0.6984;1.0100;
472.5000;0.6968;0.9961;
472.8000;0.6984;1.0008;
473.1000;0.6968;0.9984;
473.4000;0.6976;1.0054;
473.7000;0.6968;0.9984;
474.0000;0.6935;0.9868;
474.3000;0.6960;1.0008;
474.6000;0.6968;1.0031;
474.9000;0.6968;1.0077;
475.2000;0.6952;1.0054;
475.5000;0.6943;1.0031;
475.8000;0.6960;1.0124;
476.1000;0.6943;1.0193;
476.4000;0.6943;1.0170;
476.7000;0.6952;1.0170;
477.0000;0.6968;1.0286;
477.3000;0.6960;1.0333;
477.6000;0.6984;1.0309;
477.9000;0.6960;1.0193;
478.2000;0.6984;1.0263;
478.5000;0.6992;1.0193;
478.8000;0.6976;1.0147;
479.1000;0.6976;1.0031;
479.4000;0.6943;1.0008;
479.7000;0.6927;1.0008;
480.0000;0.6992;1.0193;
480.3000;0.6952;1.0031;
480.6000;0.6984;1.0170;
480.9000;0.6976;1.0263;
481.2000;0.6960;1.0217;
481.5000;0.6968;1.0170;
481.8000;0.6968;1.0147;
482.1000;0.7106;1.0542;
482.4000;0.6968;1.0100;
482.7000;0.6968;1.0124;
483.0000;0.6992;1.0170;
483.3000;0.6968;1.0217;
483.6000;0.6960;1.0263;
483.9000;0.6976;1.0309;
484.2000;0.6952;1.0286;
484.5000;0.6968;1.0333;
484.8000;0.6976;1.0333;
485.1000;0.6976;1.0472;
485.4000;0.6976;1.0356;
485.7000;0.6984;1.0425;
486.0000;0.6943;1.0379;
486.3000;0.6952;1.0402;
486.6000;0.6903;1.0217;
486.9000;0.7025;1.0402;
487.2000;0.6984;1.0193;
487.5000;0.6960;1.0077;
487.8000;0.6976;1.0008;
488.1000;0.6952;0.9984;
488.4000;0.6952;1.0031;
488.7000;0.6935;1.0054;
489.0000;0.6976;1.0240;
489.3000;0.6952;1.0147;
489.6000;0.6943;1.0147;
489.9000;0.6960;1.0193;
490.2000;0.6960;1.0217;
490.5000;0.6976;1.0124;
490.8000;0.6968;1.0100;
491.1000;0.6992;1.0100;
491.4000;0.6968;1.0008;
491.7000;0.6992;0.9984;
492.0000;0.6984;0.9984;
492.3000;0.6984;0.9915;
492.6000;0.6927;0.9845;
492.9000;0.6976;0.9915;
493.2000;0.6976;0.9868;
493.5000;0.6960;0.9775;
493.8000;0.6943;0.9752;
494.1000;0.6960;0.9845;
494.4000;0.6919;0.9868;
494.7000;0.6984;0.9938;
495.0000;0.6960;0.9822;
495.3000;0.7017;0.9868;
495.6000;0.6935;0.9706;
495.9000;0.6992;0.9799;
496.2000;0.6984;0.9775;
496.5000;0.6992;0.9822;
496.8000;0.6968;0.9752;
497.1000;0.6960;0.9752;
497.4000;0.6976;0.9775;
497.7000;0.6992;0.9868;
498.0000;0.6960;0.9822;
498.3000;0.6935;0.9799;
498.6000;0.6968;0.9961;
498.9000;0.6952;0.9915;
499.2000;0.6952;0.9891;
499.5000;0.6952;0.9915;
499.8000;0.6976;0.9984;
500.1000;0.6952;0.9984;
500.4000;0.7000;1.0077;
500.7000;0.6976;1.0100;
501.0000;0.6968;1.0100;
501.3000;0.6976;1.0077;
501.6000;0.6960;1.0031;
501.9000;0.6976;1.0100;
502.2000;0.6960;1.0077;
502.5000;0.6976;1.0077;
502.8000;0.6960;1.0031;
503.1000;0.6943;1.0054;
503.4000;0.6960;1.0100;
503.7000;0.6943;0.9961;
504.0000;0.6960;0.9984;
504.3000;0.6927;0.9822;
504.6000;0.6935;0.9868;
504.9000;0.6968;0.9984;
505.2000;0.6952;0.9938;
505.5000;0.6968;0.9915;
505.8000;0.6960;0.9938;
506.1000;0.6960;0.9938;
506.4000;0.6968;0.9868;
506.7000;0.6968;0.9822;
507.0000;0.6984;0.9915;
507.3000;0.6976;0.9891;
507.6000;0.6968;0.9845;
507.9000;0.6952;0.9891;
508.2000;0.6968;0.9868;
508.5000;0.6952;0.9915;
508.8000;0.6943;0.9868;
509.1000;0.6952;0.9984;
509.4000;0.6952;0.9961;
509.7000;0.6960;0.9845;
510.0000;0.6943;0.9799;
510.3000;0.6952;0.9822;
510.6000;0.6919;0.9799;
510.9000;0.6952;0.9868;
511.2000;0.6992;0.9984;
511.5000;0.6952;0.9984;
511.8000;0.6968;1.0031;
512.1000;0.6943;1.0077;
512.4000;0.6952;1.0054;
512.7000;0.6968;1.0100;
513.0000;0.6968;1.0100;
513.3000;0.6886;0.9891;
513.6000;0.7017;1.0124;
513.9000;0.6992;1.0124;
514.2000;0.6960;1.0008;
514.5000;0.7009;1.0054;
514.8000;0.7017;1.0100;
515.1000;0.6976;1.0008;
515.4000;0.6895;0.9938;
515.7000;0.6960;1.0124;
516.0000;0.6976;1.0147;
516.3000;0.6960;1.0124;
516.6000;0.6960;1.0031;
516.9000;0.6984;1.0100;
517.2000;0.6984;1.0031;
517.5000;0.6976;0.9868;
517.8000;0.6968;0.9868;
518.1000;0.6968;0.9915;
518.4000;0.7009;1.0031;
518.7000;0.6952;0.9938;
519.0000;0.6952;0.9938;
519.3000;0.7000;1.0077;
519.6000;0.6968;0.9891;
519.9000;0.6968;0.9891;
520.2000;0.6968;0.9845;
520.5000;0.6984;0.9984;
520.8000;0.6968;0.9938;
521.1000;0.6976;0.9984;
521.4000;0.6960;0.9961;
521.7000;0.6943;0.9868;
522.0000;0.6960;0.9915;
522.3000;0.6984;0.9961;
522.6000;0.6968;1.0124;
522.9000;0.6960;1.0124;
523.2000;0.7017;1.0263;
523.5000;0.6952;1.0124;
523.8000;0.6960;1.0147;
524.1000;0.6919;1.0031;
524.4000;0.6968;1.0217;
524.7000;0.6968;1.0263;
525.0000;0.6968;1.0147;
525.3000;0.6968;1.0124;
525.6000;0.6984;1.0124;
525.9000;0.6976;1.0077;
526.2000;0.6960;1.0054;
526.5000;0.6984;1.0054;
526.8000;0.6903;0.9915;
527.1000;0.6992;1.0147;
527.4000;0.6992;1.0193;
527.7000;0.6976;1.0147;
528.0000;0.6968;0.9984;
528.3000;0.6984;1.0054;
528.6000;0.6984;1.0193;
528.9000;0.6952;1.0124;
529.2000;0.6960;1.0147;
529.5000;0.6960;1.0124;
529.8000;0.6943;1.0031;
530.1000;0.6960;1.0054;
530.4000;0.6952;1.0008;
530.7000;0.6960;1.0077;
531.0000;0.6984;1.0147;
531.3000;0.6984;1.0147;
531.6000;0.6976;1.0124;
531.9000;0.6943;1.0124;
532.2000;0.6992;1.0147;
532.5000;0.6984;1.0147;
532.8000;0.6968;1.0124;
533.1000;0.6968;1.0147;
533.4000;0.6968;1.0100;
533.7000;0.6952;1.0077;
534.0000;0.6927;0.9915;
534.3000;0.6935;1.0077;
534.6000;0.6968;1.0077;
534.9000;0.6960;1.0124;
535.2000;0.6984;1.0147;
535.5000;0.6919;0.9984;
535.8000;0.7000;1.0170;
536.1000;0.6992;1.0170;
536.4000;0.6952;1.0008;
536.7000;0.6935;0.9961;
537.0000;0.6960;1.0100;
537.3000;0.6952;1.0054;
537.6000;0.6960;1.0077;
537.9000;0.6935;1.0031;
538.2000;0.6976;1.0170;
538.5000;0.7000;1.0240;
538.8000;0.6968;1.0147;
539.1000;0.6984;1.0193;
539.4000;0.6992;1.0240;
539.7000;0.6960;1.0193;
540.0000;0.6919;1.0124;
540.3000;0.6968;1.0193;
540.6000;0.6976;1.0077;
540.9000;0.7033;1.0193;
541.2000;0.6968;1.0100;
541.5000;0.6968;1.0147;
541.8000;0.6992;1.0240;
542.1000;0.6984;1.0217;
542.4000;0.6960;1.0100;
542.7000;0.6952;1.0147;
543.0000;0.6927;1.0147;
543.3000;0.7009;1.0217;
543.6000;0.6968;1.0008;
543.9000;0.6919;0.9868;
544.2000;0.6952;0.9915;
544.5000;0.6952;0.9961;
544.8000;0.7009;1.0100;
545.1000;0.6960;0.9915;
545.4000;0.6968;1.0008;
545.7000;0.6960;1.0170;
546.0000;0.6927;1.0077;
546.3000;0.6960;1.0170;
546.6000;0.6960;1.0240;
546.9000;0.6919;1.0147;
547.2000;0.6952;1.0240;
547.5000;0.6952;1.0240;
547.8000;0.6968;1.0263;
548.1000;0.6943;1.0240;
548.4000;0.6943;1.0100;
548.7000;0.6968;1.0031;
549.0000;0.6943;1.0031;
549.3000;0.6943;0.9961;
549.6000;0.6903;0.9868;
549.9000;0.6960;1.0008;
550.2000;0.6968;1.0077;
550.5000;0.6960;0.9938;
550.8000;0.6984;1.0031;
551.1000;0.6943;0.9984;
551.4000;0.6960;0.9984;
551.7000;0.6968;0.9984;
552.0000;0.6960;0.9868;
552.3000;0.6968;0.9775;
552.6000;0.6846;0.9497;
552.9000;0.6976;0.9868;
553.2000;0.6952;0.9915;
553.5000;0.6943;0.9961;
553.8000;0.6943;0.9868;
554.1000;0.6968;0.9822;
554.4000;0.6976;0.9938;
554.7000;0.6952;0.9868;
555.0000;0.6952;0.9915;
555.3000;0.6952;0.9868;
555.6000;0.6943;0.9915;
555.9000;0.6952;1.0008;
556.2000;0.6935;0.9891;
556.5000;0.6952;0.9845;
556.8000;0.6960;0.9868;
557.1000;0.6943;0.9752;
557.4000;0.6911;0.9752;
557.7000;0.7000;1.0008;
558.0000;0.7025;1.0100;
558.3000;0.6952;0.9961;
558.6000;0.6935;0.9984;
558.9000;0.6952;1.0077;
559.2000;0.6903;0.9868;
559.5000;0.6935;1.0031;
559.8000;0.6960;1.0100;
560.1000;0.6903;0.9984;
560.4000;0.6927;1.0170;
560.7000;0.6984;1.0217;
561.0000;0.6903;1.0054;
561.3000;0.6960;1.0147;
561.6000;0.7000;1.0170;
561.9000;0.6952;1.0100;
562.2000;0.6952;1.0077;
562.5000;0.6976;1.0031;
562.8000;0.6976;1.0008;
563.1000;0.6943;0.9961;
563.4000;0.6943;0.9915;
563.7000;0.7025;1.0077;
564.0000;0.7009;1.0008;
564.3000;0.7025;1.0054;
564.6000;0.6984;1.0031;
564.9000;0.6952;1.0147;
565.2000;0.6960;1.0240;
565.5000;0.6935;1.0263;
565.8000;0.6952;1.0240;
566.1000;0.6976;1.0286;
566.4000;0.6943;1.0193;
566.7000;0.6952;1.0193;
567.0000;0.6943;1.0193;
567.3000;0.6943;1.0077;
567.6000;0.6943;1.0008;
567.9000;0.7000;1.0170;
568.2000;0.6984;1.0124;
568.5000;0.6960;1.0124;
568.8000;0.6984;1.0147;
569.1000;0.6984;1.0170;
569.4000;0.6976;1.0170;
569.7000;0.6968;1.0217;
570.0000;0.6952;1.0286;
570.3000;0.6960;1.0309;
570.6000;0.6976;1.0263;
570.9000;0.6952;1.0286;
571.2000;0.6927;1.0240;
571.5000;0.6960;1.0263;
571.8000;0.6943;1.0309;
572.1000;0.6952;1.0309;
572.4000;0.6960;1.0217;
572.7000;0.7017;1.0263;
573.0000;0.6984;1.0193;
573.3000;0.6960;1.0286;
573.6000;0.6943;1.0309;
573.9000;0.7074;1.0588;
574.2000;0.6976;1.0379;
574.5000;0.6960;1.0309;
574.8000;0.6992;1.0425;
575.1000;0.6960;1.0379;
575.4000;0.6976;1.0402;
575.7000;0.7009;1.0518;
576.0000;0.6968;1.0495;
576.3000;0.6943;1.0518;
576.6000;0.6976;1.0542;
576.9000;0.6935;1.0425;
577.2000;0.6960;1.0333;
577.5000;0.6943;1.0286;
577.8000;0.6952;1.0240;
578.1000;0.6984;1.0147;
578.4000;0.6935;0.9984;
578.7000;0.6952;1.0054;
579.0000;0.6968;1.0193;
579.3000;0.6935;1.0077;
579.6000;0.6968;1.0100;
579.9000;0.6952;1.0054;
580.2000;0.6952;1.0124;
580.5000;0.6968;1.0054;
580.8000;0.6952;1.0147;
581.1000;0.6976;1.0217;
581.4000;0.6984;1.0309;
581.7000;0.6952;1.0240;
582.0000;0.6960;1.0193;
582.3000;0.6911;1.0054;
582.6000;0.6952;1.0170;
582.9000;0.6960;1.0286;
583.2000;0.6935;1.0286;
583.5000;0.6886;1.0077;
583.8000;0.6984;1.0263;
584.1000;0.6952;1.0286;
584.4000;0.6992;1.0356;
584.7000;0.6952;1.0309;
585.0000;0.6952;1.0286;
585.3000;0.6927;1.0170;
585.6000;0.6952;1.0170;
585.9000;0.6960;1.0124;
586.2000;0.6960;1.0217;
586.5000;0.6976;1.0263;
586.8000;0.7033;1.0356;
587.1000;0.6943;1.0124;
587.4000;0.7017;1.0124;
587.7000;0.6952;0.9961;
588.0000;0.6935;1.0031;
588.3000;0.6935;1.0054;
588.6000;0.6927;1.0054;
588.9000;0.6952;1.0124;
589.2000;0.6943;1.0100;
589.5000;0.6952;1.0147;
589.8000;0.6935;1.0217;
590.1000;0.6952;1.0263;
590.4000;0.6952;1.0124;
590.7000;0.6935;1.0170;
591.0000;0.6952;1.0217;
591.3000;0.6943;1.0124;
591.6000;0.6952;1.0170;
591.9000;0.6943;1.0147;
592.2000;0.6943;1.0147;
592.5000;0.6960;1.0193;
592.8000;0.6960;1.0147;
593.1000;0.6935;1.0077;
593.4000;0.6960;1.0077;
593.7000;0.6952;1.0124;
594.0000;0.6943;1.0170;
594.3000;0.6943;1.0147;
594.6000;0.6952;1.0170;
594.9000;0.6976;1.0240;
595.2000;0.6968;1.0217;
595.5000;0.6911;1.0031;
595.8000;0.6927;1.0100;
596.1000;0.6935;1.0124;
596.4000;0.6968;1.0193;
596.7000;0.6952;1.0100;
597.0000;0.6952;1.0170;
597.3000;0.6952;1.0286;
597.6000;0.6960;1.0240;
597.9000;0.6960;1.0100;
598.2000;0.6960;1.0100;
598.5000;0.6976;1.0100;
598.8000;0.6984;1.0124;
599.1000;0.6927;0.9868;
599.4000;0.6935;0.9915;
599.7000;0.6952;0.9891;
600.0000;0.6992;1.0054;
600.3000;0.7033;1.0240;
600.6000;0.6976;0.9961;
600.9000;0.6984;0.9961;
601.2000;0.6935;0.9822;
601.5000;0.6927;0.9659;
601.8000;0.6878;0.9590;
602.1000;0.6829;0.9450;
602.4000;0.6805;0.9473;
602.7000;0.6772;0.9427;
603.0000;0.6716;0.9265;
603.3000;0.6683;0.9125;
603.6000;0.6634;0.9009;
603.9000;0.6626;0.8939;
604.2000;0.6569;0.8823;
604.5000;0.6561;0.8684;
604.8000;0.6528;0.8614;
605.1000;0.6512;0.8498;
605.4000;0.6496;0.8498;
605.7000;0.6447;0.8452;
606.0000;0.6431;0.8336;
606.3000;0.6414;0.8266;
606.6000;0.6341;0.8173;
606.9000;0.6382;0.8220;
607.2000;0.6341;0.8104;
607.5000;0.6309;0.8104;
607.8000;0.6309;0.8127;
608.1000;0.6276;0.8173;
608.4000;0.6276;0.8150;
608.7000;0.6203;0.8057;
609.0000;0.6235;0.8220;
609.3000;0.6235;0.8220;
609.6000;0.6219;0.8150;
609.9000;0.6195;0.8173;
610.2000;0.6162;0.8196;
610.5000;0.6146;0.8196;
610.8000;0.6121;0.8080;
611.1000;0.6121;0.8196;
611.4000;0.6056;0.8080;
611.7000;0.5967;0.7918;
612.0000;0.6056;0.8127;
612.3000;0.6056;0.8057;
612.6000;0.6040;0.7987;
612.9000;0.6032;0.7871;
613.2000;0.6007;0.7918;
613.5000;0.6105;0.8313;
613.8000;0.6007;0.8080;
614.1000;0.5983;0.8127;
614.4000;0.5918;0.7941;
614.7000;0.5950;0.8011;
615.0000;0.5950;0.8034;
615.3000;0.5885;0.7848;
615.6000;0.5918;0.7825;
615.9000;0.5902;0.7802;
616.2000;0.5918;0.7895;
616.5000;0.5869;0.7802;
616.8000;0.5869;0.7778;
617.1000;0.5828;0.7709;
617.4000;0.5836;0.7755;
617.7000;0.5861;0.7802;
618.0000;0.5853;0.7848;
618.3000;0.5804;0.7709;
618.6000;0.5804;0.7755;
618.9000;0.5812;0.7709;
619.2000;0.5812;0.7662;
619.5000;0.5804;0.7662;
619.8000;0.5804;0.7662;
620.1000;0.5820;0.7755;
620.4000;0.5804;0.7616;
620.7000;0.5796;0.7616;
621.0000;0.5763;0.7546;
621.3000;0.5804;0.7546;
621.6000;0.5771;0.7500;
621.9000;0.5755;0.7662;
622.2000;0.5714;0.7639;
622.5000;0.5633;0.7407;
622.8000;0.5698;0.7616;
623.1000;0.5714;0.7662;
623.4000;0.5698;0.7639;
623.7000;0.5706;0.7686;
624.0000;0.5682;0.7686;
624.3000;0.5682;0.7686;
624.6000;0.5682;0.7639;
624.9000;0.5665;0.7500;
625.2000;0.5657;0.7453;
625.5000;0.5674;0.7570;
625.8000;0.5649;0.7477;
626.1000;0.5608;0.7407;
626.4000;0.5617;0.7523;
626.7000;0.5625;0.7662;
627.0000;0.5617;0.7662;
627.3000;0.5617;0.7639;
627.6000;0.5600;0.7593;
627.9000;0.5608;0.7639;
628.2000;0.5560;0.7616;
628.5000;0.5600;0.7709;
628.8000;0.5576;0.7732;
629.1000;0.5560;0.7709;
629.4000;0.5438;0.7407;
629.7000;0.5551;0.7709;
630.0000;0.5551;0.7709;
630.3000;0.5527;0.7686;
630.6000;0.5535;0.7616;
630.9000;0.5543;0.7709;
631.2000;0.5486;0.7500;
631.5000;0.5527;0.7616;
631.8000;0.5535;0.7662;
632.1000;0.5495;0.7616;
632.4000;0.5519;0.7616;
632.7000;0.5495;0.7639;
633.0000;0.5535;0.7732;
633.3000;0.5495;0.7616;
633.6000;0.5478;0.7593;
633.9000;0.5462;0.7639;
634.2000;0.5478;0.7546;
634.5000;0.5438;0.7384;
634.8000;0.5478;0.7430;
635.1000;0.5462;0.7546;
635.4000;0.5486;0.7593;
635.7000;0.5438;0.7546;
636.0000;0.5462;0.7662;
636.3000;0.5470;0.7639;
636.6000;0.5413;0.7593;
636.9000;0.5438;0.7570;
637.2000;0.5429;0.7546;
637.5000;0.5486;0.7593;
637.8000;0.5454;0.7477;
638.1000;0.5421;0.7407;
638.4000;0.5340;0.7221;
638.7000;0.5389;0.7384;
639.0000;0.5397;0.7384;
639.3000;0.5397;0.7453;
639.6000;0.5340;0.7453;
639.9000;0.5372;0.7570;
640.2000;0.5397;0.7616;
640.5000;0.5356;0.7546;
640.8000;0.5332;0.7453;
641.1000;0.5389;0.7732;
641.4000;0.5364;0.7709;
641.7000;0.5372;0.7755;
642.0000;0.5381;0.7802;
642.3000;0.5364;0.7802;
642.6000;0.5356;0.7732;
642.9000;0.5340;0.7802;
643.2000;0.5348;0.7871;
643.5000;0.5356;0.7871;
643.8000;0.5356;0.7825;
644.1000;0.5348;0.7825;
644.4000;0.5340;0.7825;
644.7000;0.5332;0.7732;
645.0000;0.5340;0.7639;
645.3000;0.5324;0.7570;
645.6000;0.5307;0.7593;
645.9000;0.5340;0.7686;
646.2000;0.5332;0.7709;
646.5000;0.5348;0.7732;
646.8000;0.5340;0.7755;
647.1000;0.5315;0.7709;
647.4000;0.5307;0.7709;
647.7000;0.5226;0.7500;
648.0000;0.5299;0.7639;
648.3000;0.5283;0.7407;
648.6000;0.5299;0.7500;
648.9000;0.5267;0.7384;
649.2000;0.5283;0.7500;
649.5000;0.5275;0.7546;
649.8000;0.5275;0.7500;
650.1000;0.5275;0.7546;
650.4000;0.5250;0.7593;
650.7000;0.5258;0.7616;
651.0000;0.5324;0.7686;
651.3000;0.5234;0.7570;
651.6000;0.5250;0.7546;
651.9000;0.5185;0.7361;
652.2000;0.5315;0.7732;
652.5000;0.5267;0.7570;
652.8000;0.5250;0.7477;
653.1000;0.5234;0.7453;
653.4000;0.5267;0.7570;
653.7000;0.5234;0.7477;
654.0000;0.5299;0.7639;
654.3000;0.5242;0.7546;
654.6000;0.5258;0.7570;
654.9000;0.5234;0.7639;
655.2000;0.5226;0.7662;
655.5000;0.5234;0.7616;
655.8000;0.5291;0.7709;
656.1000;0.5250;0.7639;
656.4000;0.5210;0.7593;
656.7000;0.5226;0.7686;
657.0000;0.5136;0.7500;
657.3000;0.5234;0.7616;
657.6000;0.5226;0.7570;
657.9000;0.5299;0.7802;
658.2000;0.5201;0.7593;
658.5000;0.5218;0.7616;
658.8000;0.5218;0.7546;
659.1000;0.5185;0.7523;
659.4000;0.5201;0.7546;
659.7000;0.5258;0.7662;
660.0000;0.5193;0.7570;
660.3000;0.5120;0.7570;
660.6000;0.5193;0.7546;
660.9000;0.5185;0.7453;
661.2000;0.5177;0.7361;
661.5000;0.5193;0.7453;
661.8000;0.5169;0.7337;
662.1000;0.5144;0.7407;
662.4000;0.5185;0.7570;
662.7000;0.5161;0.7500;
663.0000;0.5153;0.7453;
663.3000;0.5169;0.7500;
663.6000;0.5177;0.7453;
663.9000;0.5161;0.7500;
664.2000;0.5185;0.7430;
664.5000;0.5144;0.7314;
664.8000;0.5128;0.7337;
665.1000;0.5218;0.7453;
665.4000;0.5161;0.7361;
665.7000;0.5153;0.7337;
666.0000;0.5177;0.7384;
666.3000;0.5161;0.7500;
666.6000;0.5153;0.7570;
666.9000;0.5169;0.7639;
667.2000;0.5112;0.7593;
667.5000;0.5144;0.7732;
667.8000;0.5088;0.7523;
668.1000;0.5161;0.7686;
668.4000;0.5144;0.7662;
668.7000;0.5096;0.7616;
669.0000;0.5153;0.7778;
669.3000;0.5136;0.7778;
669.6000;0.5144;0.7686;
669.9000;0.5136;0.7732;
670.2000;0.5031;0.7593;
670.5000;0.5136;0.7778;
670.8000;0.5210;0.7987;
671.1000;0.5079;0.7639;
671.4000;0.5153;0.7802;
671.7000;0.5104;0.7732;
672.0000;0.5153;0.7755;
672.3000;0.5112;0.7639;
672.6000;0.5136;0.7755;
672.9000;0.5136;0.7848;
673.2000;0.5136;0.7871;
673.5000;0.5120;0.7871;
673.8000;0.5104;0.7802;
674.1000;0.5088;0.7778;
674.4000;0.5120;0.7778;
674.7000;0.5096;0.7686;
675.0000;0.5047;0.7570;
675.3000;0.5104;0.7686;
675.6000;0.5136;0.7778;
675.9000;0.5120;0.7732;
676.2000;0.5104;0.7778;
676.5000;0.5096;0.7686;
676.8000;0.5112;0.7593;
677.1000;0.5047;0.7523;
677.4000;0.5161;0.7639;
677.7000;0.5096;0.7570;
678.0000;0.5096;0.7593;
678.3000;0.5079;0.7523;
678.6000;0.5047;0.7384;
678.9000;0.5071;0.7407;
679.2000;0.5088;0.7407;
679.5000;0.5144;0.7570;
679.8000;0.5079;0.7453;
680.1000;0.5112;0.7477;
680.4000;0.5047;0.7337;
680.7000;0.5088;0.7500;
681.0000;0.5096;0.7570;
681.3000;0.5079;0.7570;
681.6000;0.5079;0.7570;
681.9000;0.5039;0.7477;
682.2000;0.5088;0.7593;
682.5000;0.5112;0.7686;
682.8000;0.5079;0.7662;
683.1000;0.5088;0.7709;
683.4000;0.5055;0.7662;
683.7000;0.5063;0.7709;
684.0000;0.5088;0.7895;
684.3000;0.5071;0.7848;
684.6000;0.5055;0.7825;
684.9000;0.5047;0.7871;
685.2000;0.5071;0.8127;
685.5000;0.5055;0.8034;
685.8000;0.5071;0.7964;
686.1000;0.5112;0.8150;
686.4000;0.5014;0.7848;
686.7000;0.5063;0.7987;
687.0000;0.5047;0.7964;
687.3000;0.5055;0.7918;
687.6000;0.5031;0.7825;
687.9000;0.5047;0.7778;
688.2000;0.5047;0.7778;
688.5000;0.5047;0.7825;
688.8000;0.5031;0.7755;
689.1000;0.5014;0.7755;
689.4000;0.5047;0.7802;
689.7000;0.5047;0.7848;
690.0000;0.5031;0.7848;
690.3000;0.5022;0.7802;
690.6000;0.5022;0.7848;
690.9000;0.5039;0.7941;
691.2000;0.5022;0.7987;
691.5000;0.5031;0.8011;
691.8000;0.4974;0.7778;
692.1000;0.5022;0.7848;
692.4000;0.5039;0.7802;
692.7000;0.5022;0.7755;
693.0000;0.5031;0.7918;
693.3000;0.5006;0.7871;
693.6000;0.5144;0.8127;
693.9000;0.5039;0.7802;
694.2000;0.5006;0.7709;
694.5000;0.5047;0.7709;
694.8000;0.5006;0.7662;
695.1000;0.4998;0.7662;
695.4000;0.5022;0.7755;
695.7000;0.5039;0.7732;
696.0000;0.5014;0.7662;
696.3000;0.5014;0.7686;
696.6000;0.4990;0.7639;
696.9000;0.4998;0.7686;
697.2000;0.5031;0.7709;
697.5000;0.4974;0.7662;
697.8000;0.5014;0.7825;
698.1000;0.5055;0.7871;
698.4000;0.5031;0.7732;
698.7000;0.5014;0.7662;
699.0000;0.4998;0.7662;
699.3000;0.5006;0.7662;
699.6000;0.4965;0.7593;
699.9000;0.5014;0.7686;
700.2000;0.5014;0.7755;
700.5000;0.5014;0.7802;
700.8000;0.5006;0.7802;
701.1000;0.5022;0.7871;
701.4000;0.4957;0.7755;
701.7000;0.5006;0.7848;
702.0000;0.5022;0.7941;
702.3000;0.4990;0.7871;
702.6000;0.5047;0.8034;
702.9000;0.4990;0.7825;
703.2000;0.5039;0.7941;
703.5000;0.4965;0.7732;
703.8000;0.4998;0.7825;
704.1000;0.4974;0.7778;
704.4000;0.4965;0.7778;
704.7000;0.4998;0.7802;
705.0000;0.5006;0.7825;
705.3000;0.4974;0.7755;
705.6000;0.4990;0.7825;
705.9000;0.4982;0.7709;
706.2000;0.4965;0.7732;
706.5000;0.4990;0.7732;
706.8000;0.4990;0.7732;
707.1000;0.4990;0.7732;
707.4000;0.4990;0.7732;
707.7000;0.4998;0.7755;
708.0000;0.4965;0.7732;
708.3000;0.4990;0.7941;
708.6000;0.4982;0.7918;
708.9000;0.4974;0.7941;
709.2000;0.4974;0.7848;
709.5000;0.4982;0.7895;
709.8000;0.4957;0.7778;
710.1000;0.4949;0.7686;
710.4000;0.4974;0.7755;
710.7000;0.4957;0.7778;
711.0000;0.4982;0.7871;
711.3000;0.4965;0.7732;
711.6000;0.4957;0.7755;
711.9000;0.5006;0.7825;
712.2000;0.4982;0.7755;
712.5000;0.4990;0.7755;
712.8000;0.4941;0.7709;
713.1000;0.4925;0.7616;
713.4000;0.4965;0.7709;
713.7000;0.4933;0.7732;
714.0000;0.4990;0.7825;
714.3000;0.5014;0.7895;
714.6000;0.4974;0.7825;
714.9000;0.4974;0.7848;
715.2000;0.4982;0.7848;
715.5000;0.4965;0.7709;
715.8000;0.4982;0.7778;
716.1000;0.4908;0.7570;
716.4000;0.4982;0.7686;
716.7000;0.4965;0.7686;
717.0000;0.4900;0.7500;
717.3000;0.5022;0.7802;
717.6000;0.4941;0.7523;
717.9000;0.5055;0.7802;
718.2000;0.4965;0.7639;
718.5000;0.4965;0.7709;
718.8000;0.4974;0.7732;
719.1000;0.4925;0.7639;
719.4000;0.4982;0.7755;
719.7000;0.4957;0.7802;
720.0000;0.4957;0.7895;
720.3000;0.5022;0.8034;
720.6000;0.4941;0.7871;
720.9000;0.4941;0.7871;
721.2000;0.4949;0.7709;
721.5000;0.4982;0.7755;
721.8000;0.4925;0.7616;
722.1000;0.4941;0.7755;
722.4000;0.4917;0.7755;
722.7000;0.4933;0.7871;
723.0000;0.4965;0.7964;
723.3000;0.4965;0.7941;
723.6000;0.4949;0.7918;
723.9000;0.4941;0.7871;
724.2000;0.4974;0.7918;
724.5000;0.4949;0.7825;
724.8000;0.4957;0.7871;
725.1000;0.4949;0.7802;
725.4000;0.4941;0.7732;
725.7000;0.4925;0.7593;
726.0000;0.4925;0.7477;
726.3000;0.4941;0.7570;
726.6000;0.4933;0.7477;
726.9000;0.4908;0.7384;
727.2000;0.4941;0.7453;
727.5000;0.4925;0.7523;
727.8000;0.4949;0.7616;
728.1000;0.4998;0.7686;
728.4000;0.4908;0.7500;
728.7000;0.4933;0.7616;
729.0000;0.4990;0.7686;
729.3000;0.4949;0.7662;
729.6000;0.4949;0.7686;
729.9000;0.4949;0.7639;
730.2000;0.4990;0.7709;
730.5000;0.4933;0.7593;
730.8000;0.4908;0.7593;
731.1000;0.4892;0.7593;
731.4000;0.4949;0.7778;
731.7000;0.4949;0.7778;
732.0000;0.4925;0.7755;
732.3000;0.4876;0.7755;
732.6000;0.4925;0.7918;
732.9000;0.4949;0.7895;
733.2000;0.4819;0.7639;
733.5000;0.4917;0.7941;
733.8000;0.4925;0.7802;
734.1000;0.4933;0.7778;
734.4000;0.4900;0.7709;
734.7000;0.4933;0.7848;
735.0000;0.4835;0.7732;
735.3000;0.4908;0.7848;
735.6000;0.4925;0.7941;
735.9000;0.4949;0.8104;
736.2000;0.4884;0.7964;
736.5000;0.4908;0.8057;
736.8000;0.4908;0.7941;
737.1000;0.4884;0.7871;
737.4000;0.4925;0.7871;
737.7000;0.4917;0.7848;
738.0000;0.4917;0.7918;
738.3000;0.4819;0.7616;
738.6000;0.4892;0.7802;
738.9000;0.4925;0.7825;
739.2000;0.4900;0.7895;
739.5000;0.4900;0.7825;
739.8000;0.4876;0.7709;
740.1000;0.4925;0.7941;
740.4000;0.4917;0.7918;
740.7000;0.4819;0.7686;
741.0000;0.4900;0.7825;
741.3000;0.4917;0.7848;
741.6000;0.4900;0.7802;
741.9000;0.4908;0.7964;
742.2000;0.4900;0.7987;
742.5000;0.4917;0.8080;
742.8000;0.4900;0.8127;
743.1000;0.4900;0.8080;
743.4000;0.4892;0.7964;
743.7000;0.4900;0.7987;
744.0000;0.4925;0.8034;
744.3000;0.4900;0.7987;
744.6000;0.4900;0.8011;
744.9000;0.4917;0.7941;
745.2000;0.4892;0.7825;
745.5000;0.4917;0.7895;
745.8000;0.4917;0.7895;
746.1000;0.4917;0.7871;
746.4000;0.4884;0.7825;
746.7000;0.4908;0.7871;
747.0000;0.4900;0.7895;
747.3000;0.4908;0.7895;
747.6000;0.4908;0.7918;
747.9000;0.4917;0.7987;
748.2000;0.4884;0.7825;
748.5000;0.4900;0.7871;
748.8000;0.4917;0.7964;
749.1000;0.4892;0.7895;
749.4000;0.4900;0.7918;
749.7000;0.4884;0.7825;
750.0000;0.4900;0.7825;
750.3000;0.4917;0.7825;
750.6000;0.4892;0.7825;
750.9000;0.4908;0.7895;
751.2000;0.4868;0.7848;
751.5000;0.4900;0.7895;
751.8000;0.4900;0.7871;
752.1000;0.4917;0.7802;
752.4000;0.4900;0.7848;
752.7000;0.4892;0.7918;
753.0000;0.4900;0.7802;
753.3000;0.4860;0.7755;
753.6000;0.4900;0.7825;
753.9000;0.4884;0.7778;
754.2000;0.4908;0.7825;
754.5000;0.4884;0.7755;
754.8000;0.4917;0.7778;
755.1000;0.4892;0.7616;
755.4000;0.4868;0.7546;
755.7000;0.4900;0.7616;
756.0000;0.4892;0.7616;
756.3000;0.4892;0.7662;
756.6000;0.4884;0.7523;
756.9000;0.4917;0.7523;
757.2000;0.4884;0.7477;
757.5000;0.4892;0.7453;
757.8000;0.4949;0.7639;
758.1000;0.4868;0.7500;
758.4000;0.4876;0.7523;
758.7000;0.4900;0.7546;
759.0000;0.4892;0.7500;
759.3000;0.4876;0.7570;
759.6000;0.4917;0.7616;
759.9000;0.4876;0.7593;
760.2000;0.4884;0.7593;
760.5000;0.4884;0.7616;
760.8000;0.4876;0.7639;
761.1000;0.4876;0.7662;
761.4000;0.4876;0.7639;
761.7000;0.4876;0.7570;
762.0000;0.4835;0.7500;
762.3000;0.4868;0.7384;
762.6000;0.4868;0.7453;
762.9000;0.4860;0.7546;
763.2000;0.4860;0.7546;
763.5000;0.4876;0.7523;
763.8000;0.4876;0.7407;
764.1000;0.4868;0.7477;
764.4000;0.4851;0.7477;
764.7000;0.4868;0.7523;
765.0000;0.4811;0.7361;
765.3000;0.4876;0.7523;
765.6000;0.4892;0.7453;
765.9000;0.4868;0.7384;
766.2000;0.4868;0.7407;
766.5000;0.4900;0.7453;
766.8000;0.4876;0.7291;
767.1000;0.4794;0.6943;
767.4000;0.4908;0.7291;
767.7000;0.4876;0.7314;
768.0000;0.4876;0.7407;
768.3000;0.4876;0.7337;
768.6000;0.4851;0.7291;
768.9000;0.4884;0.7361;
769.2000;0.4876;0.7291;
769.5000;0.4860;0.7314;
769.8000;0.4851;0.7314;
770.1000;0.4892;0.7407;
770.4000;0.4860;0.7430;
770.7000;0.4851;0.7523;
771.0000;0.4892;0.7662;
771.3000;0.4876;0.7616;
771.6000;0.4851;0.7570;
771.9000;0.4868;0.7686;
772.2000;0.4876;0.7709;
772.5000;0.4843;0.7662;
772.8000;0.4917;0.7802;
773.1000;0.4868;0.7662;
773.4000;0.4868;0.7639;
773.7000;0.4892;0.7686;
774.0000;0.4876;0.7732;
774.3000;0.4851;0.7662;
774.6000;0.4843;0.7639;
774.9000;0.4827;0.7639;
775.2000;0.4933;0.7964;
775.5000;0.4868;0.7825;
775.8000;0.4876;0.7895;
776.1000;0.4835;0.7802;
776.4000;0.4876;0.7941;
776.7000;0.4860;0.7895;
777.0000;0.4860;0.7848;
777.3000;0.4860;0.7848;
777.6000;0.4843;0.7848;
777.9000;0.4851;0.7941;
778.2000;0.4811;0.7732;
778.5000;0.4868;0.7871;
778.8000;0.4884;0.7871;
779.1000;0.4811;0.7709;
779.4000;0.4819;0.7778;
779.7000;0.4860;0.7871;
780.0000;0.4868;0.7825;
780.3000;0.4868;0.7918;
780.6000;0.4860;0.7941;
780.9000;0.4868;0.7895;
781.2000;0.4843;0.7778;
781.5000;0.4860;0.7802;
781.8000;0.4860;0.7848;
782.1000;0.4835;0.7802;
782.4000;0.4860;0.7848;
782.7000;0.4835;0.7802;
783.0000;0.4835;0.7825;
783.3000;0.4827;0.7825;
783.6000;0.4860;0.7848;
783.9000;0.4835;0.7732;
784.2000;0.4860;0.7755;
784.5000;0.4851;0.7709;
784.8000;0.4860;0.7848;
785.1000;0.4982;0.8220;
785.4000;0.4868;0.8011;
785.7000;0.4860;0.8011;
786.0000;0.4876;0.7987;
786.3000;0.4851;0.7825;
786.6000;0.4860;0.7848;
786.9000;0.4876;0.7825;
787.2000;0.4860;0.7802;
787.5000;0.4876;0.7825;
787.8000;0.4811;0.7709;
788.1000;0.4851;0.7732;
788.4000;0.4835;0.7686;
788.7000;0.4851;0.7825;
789.0000;0.4851;0.7825;
789.3000;0.4868;0.7895;
789.6000;0.4851;0.7802;
789.9000;0.4843;0.7802;
790.2000;0.4843;0.7871;
790.5000;0.4876;0.8080;
790.8000;0.4835;0.7941;
791.1000;0.4835;0.7895;
791.4000;0.4835;0.7848;
791.7000;0.4860;0.7871;
792.0000;0.4843;0.7895;
792.3000;0.4819;0.7778;
792.6000;0.4868;0.7848;
792.9000;0.4835;0.7755;
793.2000;0.4794;0.7639;
793.5000;0.4843;0.7709;
793.8000;0.4827;0.7709;
794.1000;0.4851;0.7802;
794.4000;0.4868;0.7987;
794.7000;0.4843;0.8080;
795.0000;0.4819;0.7987;
795.3000;0.4843;0.8057;
795.6000;0.4811;0.7987;
795.9000;0.4860;0.8150;
796.2000;0.4868;0.8104;
796.5000;0.4803;0.7918;
796.8000;0.4851;0.8011;
797.1000;0.4803;0.7848;
797.4000;0.4737;0.7639;
797.7000;0.4851;0.7871;
798.0000;0.4851;0.7918;
798.3000;0.4827;0.7941;
798.6000;0.4835;0.8034;
798.9000;0.4819;0.7941;
799.2000;0.4819;0.7964;
799.5000;0.4860;0.8034;
799.8000;0.4843;0.7941;
800.1000;0.4860;0.7987;
800.4000;0.4843;0.7964;
800.7000;0.4843;0.7964;
801.0000;0.4835;0.7964;
801.3000;0.4819;0.7918;
801.6000;0.4835;0.7941;
801.9000;0.4908;0.8080;
802.2000;0.4892;0.8127;
802.5000;0.4843;0.7987;
802.8000;0.4843;0.7964;
803.1000;0.4835;0.8080;
803.4000;0.4843;0.8104;
803.7000;0.4819;0.8057;
804.0000;0.4843;0.8127;
804.3000;0.4843;0.8034;
804.6000;0.4843;0.8080;
804.9000;0.4851;0.7987;
805.2000;0.4851;0.7941;
805.5000;0.4811;0.7871;
805.8000;0.4860;0.7895;
806.1000;0.4819;0.7848;
806.4000;0.4827;0.7848;
806.7000;0.4843;0.7871;
807.0000;0.4860;0.8034;
807.3000;0.4827;0.7987;
807.6000;0.4843;0.7895;
807.9000;0.4957;0.8220;
808.2000;0.4851;0.7964;
808.5000;0.4843;0.8011;
808.8000;0.4819;0.7964;
809.1000;0.4786;0.7941;
809.4000;0.4819;0.7964;
809.7000;0.4835;0.8057;
810.0000;0.4770;0.7895;
810.3000;0.4900;0.8243;
810.6000;0.4843;0.8080;
810.9000;0.4843;0.7987;
811.2000;0.4827;0.7825;
811.5000;0.4835;0.7848;
811.8000;0.4860;0.7941;
812.1000;0.4851;0.7918;
812.4000;0.4843;0.7871;
812.7000;0.4827;0.7802;
813.0000;0.4835;0.7778;
813.3000;0.4835;0.7802;
813.6000;0.4811;0.7778;
813.9000;0.4843;0.7778;
814.2000;0.4819;0.7639;
814.5000;0.4819;0.7755;
814.8000;0.4811;0.7686;
815.1000;0.4819;0.7778;
815.4000;0.4835;0.7802;
815.7000;0.4843;0.7871;
816.0000;0.4835;0.7895;
816.3000;0.4892;0.7987;
816.6000;0.4843;0.7825;
816.9000;0.4827;0.7871;
817.2000;0.4835;0.7848;
817.5000;0.4811;0.7732;
817.8000;0.4827;0.7802;
818.1000;0.4819;0.7825;
818.4000;0.4917;0.7987;
818.7000;0.4811;0.7755;
819.0000;0.4803;0.7732;
819.3000;0.4762;0.7639;
819.6000;0.4819;0.7778;
819.9000;0.4843;0.7895;
820.2000;0.4819;0.7802;
820.5000;0.4843;0.7871;
820.8000;0.4827;0.7871;
821.1000;0.4868;0.7987;
821.4000;0.4835;0.7871;
821.7000;0.4835;0.7964;
822.0000;0.4843;0.7964;
822.3000;0.4884;0.8011;
822.6000;0.4835;0.7941;
822.9000;0.4827;0.7895;
823.2000;0.4851;0.7987;
823.5000;0.4819;0.7918;
823.8000;0.4827;0.7918;
824.1000;0.4827;0.7964;
824.4000;0.4794;0.7987;
824.7000;0.4827;0.7987;
825.0000;0.4778;0.7825;
825.3000;0.4786;0.7871;
825.6000;0.4860;0.8080;
825.9000;0.4835;0.7964;
826.2000;0.4835;0.7941;
826.5000;0.4811;0.7918;
826.8000;0.4851;0.8011;
827.1000;0.4843;0.8011;
827.4000;0.4860;0.8080;
827.7000;0.4843;0.7987;
828.0000;0.4835;0.7964;
828.3000;0.4811;0.7895;
828.6000;0.4819;0.7964;
828.9000;0.4827;0.7941;
829.2000;0.4819;0.7802;
829.5000;0.4843;0.7778;
829.8000;0.4843;0.7848;
830.1000;0.4835;0.7964;
830.4000;0.4835;0.7895;
830.7000;0.4835;0.7871;
831.0000;0.4843;0.7802;
831.3000;0.4811;0.7778;
831.6000;0.4843;0.7848;
831.9000;0.4892;0.7987;
832.2000;0.4908;0.8057;
832.5000;0.4851;0.8080;
832.8000;0.4843;0.8057;
833.1000;0.4827;0.8104;
833.4000;0.4843;0.8057;
833.7000;0.4876;0.8196;
834.0000;0.4811;0.7987;
834.3000;0.4819;0.7941;
834.6000;0.4827;0.8034;
834.9000;0.4811;0.7987;
835.2000;0.4868;0.8220;
835.5000;0.4827;0.8150;
835.8000;0.4835;0.8104;
836.1000;0.4835;0.8127;
836.4000;0.4851;0.8104;
836.7000;0.4819;0.8011;
837.0000;0.4819;0.8057;
837.3000;0.4827;0.8104;
837.6000;0.4835;0.8150;
837.9000;0.4803;0.8034;
838.2000;0.4803;0.7987;
838.5000;0.4819;0.8011;
838.8000;0.4770;0.7918;
839.1000;0.4819;0.7918;
839.4000;0.4827;0.7848;
839.7000;0.4811;0.7895;
840.0000;0.4835;0.7987;
840.3000;0.4794;0.7895;
840.6000;0.4835;0.8034;
840.9000;0.4819;0.7987;
841.2000;0.4811;0.7895;
841.5000;0.4811;0.7918;
841.8000;0.4819;0.8011;
842.1000;0.4835;0.8080;
842.4000;0.4851;0.8080;
842.7000;0.4803;0.8150;
843.0000;0.4827;0.8266;
843.3000;0.4746;0.8104;
843.6000;0.4803;0.8196;
843.9000;0.4827;0.8173;
844.2000;0.4819;0.8127;
844.5000;0.4794;0.8034;
844.8000;0.4803;0.7964;
845.1000;0.4803;0.7871;
845.4000;0.4803;0.7825;
845.7000;0.4827;0.7895;
846.0000;0.4819;0.7895;
846.3000;0.4811;0.7848;
846.6000;0.4827;0.7871;
846.9000;0.4819;0.7755;
847.2000;0.4811;0.7755;
847.5000;0.4851;0.7825;
847.8000;0.4819;0.7825;
848.1000;0.4827;0.7825;
848.4000;0.4851;0.7871;
848.7000;0.4827;0.7918;
849.0000;0.4851;0.7987;
849.3000;0.4794;0.7871;
849.6000;0.4819;0.8104;
849.9000;0.4794;0.8057;
850.2000;0.4827;0.8196;
850.5000;0.4835;0.8173;
850.8000;0.4819;0.8150;
851.1000;0.4770;0.7987;
851.4000;0.4803;0.8034;
851.7000;0.4827;0.8057;
852.0000;0.4819;0.8080;
852.3000;0.4811;0.7964;
852.6000;0.4811;0.7964;
852.9000;0.4803;0.8011;
853.2000;0.4835;0.8127;
853.5000;0.4835;0.7964;
853.8000;0.4851;0.7964;
854.1000;0.4811;0.7987;
854.4000;0.4811;0.8011;
854.7000;0.4811;0.8034;
855.0000;0.4811;0.7895;
855.3000;0.4811;0.7941;
855.6000;0.4827;0.7918;
855.9000;0.4851;0.8011;
856.2000;0.4827;0.7964;
856.5000;0.4819;0.7895;
856.8000;0.4827;0.7987;
857.1000;0.4827;0.7918;
857.4000;0.4819;0.7941;
857.7000;0.4819;0.7941;
858.0000;0.4803;0.7895;
858.3000;0.4843;0.8034;
858.6000;0.4794;0.7918;
858.9000;0.4811;0.7895;
859.2000;0.4819;0.7918;
859.5000;0.4819;0.7825;
859.8000;0.4811;0.7778;
860.1000;0.4803;0.7755;
860.4000;0.4835;0.7802;
860.7000;0.4827;0.7871;
861.0000;0.4803;0.7825;
861.3000;0.4770;0.7802;
861.6000;0.4819;0.7941;
861.9000;0.4803;0.8034;
862.2000;0.4925;0.8289;
862.5000;0.4835;0.8011;
862.8000;0.4835;0.7987;
863.1000;0.4803;0.7964;
863.4000;0.4843;0.7964;
863.7000;0.4827;0.7941;
864.0000;0.4811;0.7848;
864.3000;0.4835;0.7848;
864.6000;0.4803;0.7778;
864.9000;0.4803;0.7802;
865.2000;0.4778;0.7825;
865.5000;0.4819;0.7941;
865.8000;0.4819;0.7848;
866.1000;0.4811;0.7802;
866.4000;0.4786;0.7639;
866.7000;0.4811;0.7616;
867.0000;0.4851;0.7709;
867.3000;0.4860;0.7802;
867.6000;0.4803;0.7709;
867.9000;0.4819;0.7825;
868.2000;0.4778;0.7802;
868.5000;0.4819;0.7871;
868.8000;0.4811;0.7778;
869.1000;0.4835;0.7895;
869.4000;0.4811;0.7895;
869.7000;0.4811;0.7918;
870.0000;0.4811;0.7871;
870.3000;0.4827;0.7755;
870.6000;0.4811;0.7732;
870.9000;0.4819;0.7778;
871.2000;0.4803;0.7825;
871.5000;0.4811;0.7802;
871.8000;0.4803;0.7732;
872.1000;0.4713;0.7523;
872.4000;0.4737;0.7570;
872.7000;0.4811;0.7755;
873.0000;0.4835;0.7918;
873.3000;0.4811;0.7871;
873.6000;0.4835;0.7941;
873.9000;0.4819;0.7895;
874.2000;0.4827;0.7987;
874.5000;0.4819;0.8011;
874.8000;0.4860;0.8173;
875.1000;0.4811;0.8057;
875.4000;0.4794;0.8011;
875.7000;0.4835;0.8011;
876.0000;0.4811;0.8034;
876.3000;0.4835;0.8220;
876.6000;0.4803;0.8104;
876.9000;0.4811;0.8034;
877.2000;0.4811;0.8011;
877.5000;0.4811;0.7941;
877.8000;0.4819;0.8080;
878.1000;0.4827;0.8173;
878.4000;0.4811;0.8127;
878.7000;0.4835;0.8220;
879.0000;0.4819;0.8127;
879.3000;0.4811;0.8127;
879.6000;0.4811;0.8127;
879.9000;0.4778;0.8173;
880.2000;0.4827;0.8150;
880.5000;0.4786;0.8057;
880.8000;0.4819;0.8104;
881.1000;0.4689;0.7732;
881.4000;0.4827;0.8080;
881.7000;0.4794;0.7987;
882.0000;0.4778;0.7964;
882.3000;0.4786;0.7987;
882.6000;0.4794;0.8034;
882.9000;0.4851;0.8173;
883.2000;0.4754;0.8011;
883.5000;0.4811;0.8080;
883.8000;0.4843;0.8057;
884.1000;0.4786;0.7941;
884.4000;0.4786;0.7987;
884.7000;0.4786;0.8011;
885.0000;0.4794;0.7987;
885.3000;0.4794;0.7941;
885.6000;0.4827;0.7987;
885.9000;0.4819;0.8011;
886.2000;0.4827;0.8104;
886.5000;0.4819;0.8104;
886.8000;0.4794;0.8080;
887.1000;0.4786;0.8057;
887.4000;0.4794;0.8011;
887.7000;0.4819;0.8150;
888.0000;0.4811;0.8150;
888.3000;0.4803;0.8104;
888.6000;0.4786;0.7964;
888.9000;0.4819;0.8080;
889.2000;0.4794;0.7918;
889.5000;0.4794;0.7802;
889.8000;0.4819;0.7848;
890.1000;0.4803;0.7848;
890.4000;0.4835;0.7941;
890.7000;0.4803;0.7918;
891.0000;0.4803;0.7987;
891.3000;0.4786;0.8034;
891.6000;0.4794;0.8080;
891.9000;0.4794;0.7964;
892.2000;0.4786;0.8057;
892.5000;0.4794;0.8080;
892.8000;0.4819;0.8127;
893.1000;0.4851;0.8266;
893.4000;0.4794;0.8220;
893.7000;0.4803;0.8243;
894.0000;0.4811;0.8196;
894.3000;0.4827;0.8220;
894.6000;0.4827;0.8220;
894.9000;0.4819;0.8220;
895.2000;0.4778;0.8196;
895.5000;0.4868;0.8382;
895.8000;0.4803;0.8150;
896.1000;0.4786;0.8057;
896.4000;0.4794;0.7964;
896.7000;0.4786;0.7895;
897.0000;0.4794;0.8011;
897.3000;0.4794;0.8104;
897.6000;0.4803;0.8196;
897.9000;0.4786;0.8104;
898.2000;0.4786;0.8220;
898.5000;0.4794;0.8243;
898.8000;0.4754;0.8173;
899.1000;0.4794;0.8220;
899.4000;0.4811;0.8196;
899.7000;0.4811;0.8243;
900.0000;0.4794;0.8266;
900.3000;0.4811;0.8313;
900.6000;0.4827;0.8289;
900.9000;0.4762;0.8150;
901.2000;0.4827;0.8266;
901.5000;0.4794;0.8196;
901.8000;0.4803;0.8196;
902.1000;0.4892;0.8382;
902.4000;0.4803;0.8127;
902.7000;0.4786;0.8080;
903.0000;0.4827;0.8127;
903.3000;0.4794;0.8150;
903.6000;0.4786;0.8080;
903.9000;0.4917;0.8336;
904.2000;0.4811;0.8150;
904.5000;0.4827;0.8196;
904.8000;0.4811;0.8080;
905.1000;0.4908;0.8289;
905.4000;0.4770;0.7964;
905.7000;0.4819;0.7964;
906.0000;0.4811;0.7871;
906.3000;0.4827;0.7987;
906.6000;0.4803;0.7871;
906.9000;0.4762;0.7802;
907.2000;0.4794;0.7918;
907.5000;0.4835;0.7987;
907.8000;0.4843;0.8011;
908.1000;0.4794;0.7871;
908.4000;0.4786;0.7871;
908.7000;0.4811;0.7941;
909.0000;0.4811;0.7941;
909.3000;0.4843;0.8104;
909.6000;0.4819;0.8104;
909.9000;0.4819;0.8173;
910.2000;0.4884;0.8313;
910.5000;0.4835;0.8104;
910.8000;0.4819;0.8104;
911.1000;0.4819;0.8127;
911.4000;0.4729;0.7871;
911.7000;0.4794;0.8034;
912.0000;0.4705;0.7848;
912.3000;0.4803;0.8104;
912.6000;0.4827;0.8127;
912.9000;0.4803;0.8127;
913.2000;0.4794;0.8080;
913.5000;0.4778;0.7987;
913.8000;0.4746;0.7825;
914.1000;0.4794;0.7918;
914.4000;0.4794;0.7848;
914.7000;0.4794;0.7825;
915.0000;0.4778;0.7778;
915.3000;0.4794;0.7895;
915.6000;0.4794;0.7871;
915.9000;0.4770;0.7848;
916.2000;0.4778;0.7848;
916.5000;0.4786;0.7871;
916.8000;0.4794;0.7918;
917.1000;0.4860;0.8080;
917.4000;0.4778;0.7825;
917.7000;0.4803;0.7871;
918.0000;0.4851;0.8034;
918.3000;0.4794;0.7964;
918.6000;0.4794;0.7918;
918.9000;0.4794;0.7941;
919.2000;0.4803;0.8034;
919.5000;0.4737;0.7848;
919.8000;0.4835;0.8173;
920.1000;0.4819;0.8127;
920.4000;0.4794;0.8150;
920.7000;0.4794;0.8034;
921.0000;0.4778;0.8034;
921.3000;0.4762;0.7964;
921.6000;0.4794;0.7941;
921.9000;0.4762;0.7825;
922.2000;0.4819;0.7941;
922.5000;0.4794;0.7871;
922.8000;0.4819;0.7941;
923.1000;0.4770;0.7941;
923.4000;0.4803;0.8057;
923.7000;0.4794;0.7941;
924.0000;0.4770;0.7825;
924.3000;0.4770;0.7755;
924.6000;0.4819;0.7918;
924.9000;0.4794;0.7825;
925.2000;0.4746;0.7825;
925.5000;0.4803;0.7848;
925.8000;0.4794;0.7918;
926.1000;0.4811;0.7987;
926.4000;0.4778;0.7871;
926.7000;0.4843;0.8034;
927.0000;0.4794;0.7848;
927.3000;0.4794;0.7802;
927.6000;0.4762;0.7778;
927.9000;0.4721;0.7732;
928.2000;0.4762;0.7825;
928.5000;0.4778;0.7825;
928.8000;0.4786;0.7802;
929.1000;0.4778;0.7825;
929.4000;0.4794;0.7755;
929.7000;0.4803;0.7732;
930.0000;0.4803;0.7732;
930.3000;0.4794;0.7709;
930.6000;0.4835;0.7848;
930.9000;0.4754;0.7755;
931.2000;0.4794;0.7895;
931.5000;0.4811;0.7871;
931.8000;0.4705;0.7639;
932.1000;0.4794;0.7848;
932.4000;0.4794;0.7848;
932.7000;0.4778;0.7848;
933.0000;0.4794;0.7871;
933.3000;0.4778;0.7848;
933.6000;0.4778;0.7871;
933.9000;0.4803;0.7918;
934.2000;0.4803;0.7941;
934.5000;0.4778;0.7871;
934.8000;0.4843;0.7964;
935.1000;0.4811;0.7709;
935.4000;0.4819;0.7709;
935.7000;0.4803;0.7662;
936.0000;0.4794;0.7709;
936.3000;0.4811;0.7848;
936.6000;0.4786;0.7802;
936.9000;0.4794;0.7778;
937.2000;0.4811;0.7825;
937.5000;0.4803;0.7825;
937.8000;0.4762;0.7732;
938.1000;0.4803;0.7825;
938.4000;0.4819;0.7987;
938.7000;0.4786;0.7918;
939.0000;0.4794;0.7848;
939.3000;0.4778;0.7778;
939.6000;0.4778;0.7709;
939.9000;0.4803;0.7755;
940.2000;0.4819;0.7709;
940.5000;0.4811;0.7732;
940.8000;0.4770;0.7570;
941.1000;0.4786;0.7709;
941.4000;0.4851;0.7848;
941.7000;0.4803;0.7825;
942.0000;0.4860;0.7918;
942.3000;0.4811;0.7848;
942.6000;0.4770;0.7709;
942.9000;0.4778;0.7732;
943.2000;0.4770;0.7732;
943.5000;0.4762;0.7732;
943.8000;0.4786;0.7825;
944.1000;0.4876;0.8057;
944.4000;0.4819;0.7964;
944.7000;0.4794;0.7941;
945.0000;0.4819;0.7964;
945.3000;0.4794;0.7918;
945.6000;0.4778;0.7987;
945.9000;0.4811;0.8127;
946.2000;0.4794;0.8150;
946.5000;0.4794;0.8196;
946.8000;0.4794;0.8127;
947.1000;0.4786;0.8057;
947.4000;0.4786;0.8127;
947.7000;0.4778;0.8127;
948.0000;0.4786;0.7987;
948.3000;0.4827;0.8034;
948.6000;0.4794;0.7848;
948.9000;0.4794;0.7802;
949.2000;0.4721;0.7709;
949.5000;0.4819;0.8011;
949.8000;0.4778;0.7964;
950.1000;0.4803;0.8034;
950.4000;0.4786;0.7941;
950.7000;0.4794;0.7895;
951.0000;0.4794;0.7964;
951.3000;0.4851;0.8080;
951.6000;0.4811;0.7964;
951.9000;0.4721;0.7639;
952.2000;0.4762;0.7755;
952.5000;0.4770;0.7802;
952.8000;0.4786;0.7802;
953.1000;0.4819;0.7848;
953.4000;0.4754;0.7639;
953.7000;0.4762;0.7662;
954.0000;0.4803;0.7686;
954.3000;0.4794;0.7570;
954.6000;0.4803;0.7709;
954.9000;0.4770;0.7616;
955.2000;0.4794;0.7686;
955.5000;0.4803;0.7802;
955.8000;0.4803;0.7709;
956.1000;0.4778;0.7639;
956.4000;0.4811;0.7709;
956.7000;0.4811;0.7709;
957.0000;0.4803;0.7732;
957.3000;0.4794;0.7686;
957.6000;0.4786;0.7686;
957.9000;0.4803;0.7662;
958.2000;0.4811;0.7755;
958.5000;0.4786;0.7593;
958.8000;0.4770;0.7570;
959.1000;0.4803;0.7639;
959.4000;0.4762;0.7453;
959.7000;0.4803;0.7523;
960.0000;0.4803;0.7639;
960.3000;0.4770;0.7709;
960.6000;0.4794;0.7802;
960.9000;0.4778;0.7778;
961.2000;0.4778;0.7802;
961.5000;0.4811;0.7848;
961.8000;0.4794;0.7848;
962.1000;0.4786;0.7778;
962.4000;0.4786;0.7802;
962.7000;0.4794;0.7709;
963.0000;0.4786;0.7686;
963.3000;0.4778;0.7709;
963.6000;0.4778;0.7709;
963.9000;0.4770;0.7709;
964.2000;0.4884;0.8034;
964.5000;0.4778;0.7778;
964.8000;0.4778;0.7871;
965.1000;0.4770;0.7755;
965.4000;0.4754;0.7662;
965.7000;0.4778;0.7755;
966.0000;0.4794;0.7686;
966.3000;0.4754;0.7686;
966.6000;0.4794;0.7802;
966.9000;0.4778;0.7755;
967.2000;0.4778;0.7802;
967.5000;0.4754;0.7686;
967.8000;0.4778;0.7732;
968.1000;0.4794;0.7802;
968.4000;0.4770;0.7755;
968.7000;0.4770;0.7662;
969.0000;0.4778;0.7686;
969.3000;0.4770;0.7616;
969.6000;0.4786;0.7662;
969.9000;0.4729;0.7616;
970.2000;0.4803;0.7755;
970.5000;0.4786;0.7732;
970.8000;0.4811;0.7732;
971.1000;0.4794;0.7662;
971.4000;0.4794;0.7686;
971.7000;0.4811;0.7662;
972.0000;0.4794;0.7616;
972.3000;0.4803;0.7616;
972.6000;0.4786;0.7732;
972.9000;0.4786;0.7802;
973.2000;0.4794;0.7941;
973.5000;0.4778;0.8034;
973.8000;0.4746;0.7895;
974.1000;0.4786;0.7918;
974.4000;0.4794;0.8034;
974.7000;0.4794;0.8057;
975.0000;0.4770;0.7987;
975.3000;0.4681;0.7662;
975.6000;0.4794;0.7895;
975.9000;0.4794;0.8034;
976.2000;0.4786;0.7964;
976.5000;0.4786;0.7964;
976.8000;0.4860;0.8057;
977.1000;0.4811;0.7918;
977.4000;0.4803;0.7964;
977.7000;0.4794;0.7895;
978.0000;0.4786;0.7755;
978.3000;0.4811;0.7964;
978.6000;0.4794;0.7941;
978.9000;0.4770;0.7895;
979.2000;0.4762;0.7871;
979.5000;0.4786;0.7848;
979.8000;0.4803;0.7732;
980.1000;0.4794;0.7848;
980.4000;0.4803;0.7941;
980.7000;0.4713;0.7871;
981.0000;0.4794;0.8127;
981.3000;0.4778;0.8080;
981.6000;0.4786;0.7987;
981.9000;0.4778;0.7918;
982.2000;0.4713;0.7732;
982.5000;0.4786;0.7825;
982.8000;0.4786;0.7848;
983.1000;0.4786;0.7871;
983.4000;0.4786;0.7895;
983.7000;0.4786;0.7871;
984.0000;0.4786;0.7895;
984.3000;0.4770;0.7802;
984.6000;0.4770;0.7848;
984.9000;0.4786;0.7871;
985.2000;0.4794;0.7802;
985.5000;0.4778;0.7848;
985.8000;0.4786;0.8011;
986.1000;0.4770;0.8034;
986.4000;0.4794;0.7987;
986.7000;0.4786;0.7964;
987.0000;0.4794;0.7918;
987.3000;0.4827;0.7964;
987.6000;0.4794;0.7871;
987.9000;0.4786;0.7848;
988.2000;0.4786;0.7871;
988.5000;0.4794;0.7778;
988.8000;0.4803;0.7895;
989.1000;0.4786;0.7918;
989.4000;0.4778;0.7871;
989.7000;0.4786;0.7825;
990.0000;0.4778;0.7778;
990.3000;0.4770;0.7686;
990.6000;0.4786;0.7732;
990.9000;0.4860;0.7941;
991.2000;0.4786;0.7848;
991.5000;0.4794;0.7802;
991.8000;0.4778;0.7778;
992.1000;0.4860;0.7918;
992.4000;0.4778;0.7662;
992.7000;0.4786;0.7662;
993.0000;0.4786;0.7732;
993.3000;0.4811;0.7941;
993.6000;0.4794;0.7848;
993.9000;0.4794;0.7802;
994.2000;0.4786;0.7848;
994.5000;0.4786;0.7802;
994.8000;0.4868;0.8034;
995.1000;0.4827;0.7871;
995.4000;0.4778;0.7825;
995.7000;0.4778;0.7825;
996.0000;0.4786;0.7848;
996.3000;0.4786;0.7848;
996.6000;0.4794;0.7895;
996.9000;0.4770;0.7848;
997.2000;0.4770;0.7918;
997.5000;0.4778;0.7941;
997.8000;0.4778;0.7895;
998.1000;0.4762;0.7732;
998.4000;0.4794;0.7825;
998.7000;0.4786;0.7732;
999.0000;0.4794;0.7732;
999.3000;0.4770;0.7686;
999.6000;0.4778;0.7755;
999.9000;0.4786;0.7848;
1000.2000;0.4778;0.7802;
1000.5000;0.4786;0.7755;
1000.8000;0.4737;0.7639;
1001.1000;0.4770;0.7825;
1001.4000;0.4827;0.7964;
1001.7000;0.4794;0.7964;
1002.0000;0.4713;0.7825;
1002.3000;0.4778;0.7941;
1002.6000;0.4803;0.7941;
1002.9000;0.4786;0.7941;
1003.2000;0.4786;0.7895;
1003.5000;0.4737;0.7616;
1003.8000;0.4778;0.7709;
1004.1000;0.4778;0.7709;
1004.4000;0.4803;0.7755;
1004.7000;0.4770;0.7755;
1005.0000;0.4786;0.7825;
1005.3000;0.4803;0.7895;
1005.6000;0.4778;0.7732;
1005.9000;0.4794;0.7825;
1006.2000;0.4770;0.7848;
1006.5000;0.4794;0.7964;
1006.8000;0.4794;0.7918;
1007.1000;0.4786;0.7871;
1007.4000;0.4819;0.8011;
1007.7000;0.4803;0.7987;
1008.0000;0.4786;0.7895;
1008.3000;0.4786;0.7871;
1008.6000;0.4770;0.7825;
1008.9000;0.4778;0.7825;
1009.2000;0.4786;0.7825;
1009.5000;0.4770;0.7778;
1009.8000;0.4803;0.7778;
1010.1000;0.4786;0.7709;
1010.4000;0.4778;0.7709;
1010.7000;0.4786;0.7755;
1011.0000;0.4811;0.7871;
1011.3000;0.4778;0.7778;
1011.6000;0.4786;0.7755;
1011.9000;0.4786;0.7686;
1012.2000;0.4778;0.7662;
1012.5000;0.4770;0.7546;
1012.8000;0.4811;0.7616;
1013.1000;0.4827;0.7639;
1013.4000;0.4746;0.7500;
1013.7000;0.4778;0.7546;
1014.0000;0.4811;0.7639;
1014.3000;0.4908;0.7871;
1014.6000;0.4778;0.7546;
1014.9000;0.4778;0.7593;
1015.2000;0.4729;0.7546;
1015.5000;0.4762;0.7755;
1015.8000;0.4770;0.7755;
1016.1000;0.4778;0.7848;
1016.4000;0.4770;0.7895;
1016.7000;0.4754;0.7778;
1017.0000;0.4794;0.7848;
1017.3000;0.4770;0.7802;
1017.6000;0.4803;0.7941;
1017.9000;0.4803;0.8080;
1018.2000;0.4770;0.8011;
1018.5000;0.4778;0.7895;
1018.8000;0.4827;0.7941;
1019.1000;0.4778;0.7778;
1019.4000;0.4778;0.7732;
1019.7000;0.4737;0.7732;
1020.0000;0.4762;0.7802;
1020.3000;0.4778;0.7802;
1020.6000;0.4778;0.7848;
1020.9000;0.4778;0.7871;
1021.2000;0.4794;0.7987;
1021.5000;0.4786;0.7871;
1021.8000;0.4721;0.7778;
1022.1000;0.4729;0.7755;
1022.4000;0.4794;0.7895;
1022.7000;0.4811;0.7848;
1023.0000;0.4770;0.7778;
1023.3000;0.4860;0.7941;
1023.6000;0.4794;0.7755;
1023.9000;0.4754;0.7709;
1024.2000;0.4794;0.7778;
1024.5000;0.4811;0.7895;
1024.8000;0.4827;0.7964;
1025.1000;0.4794;0.7848;
1025.4000;0.4778;0.7802;
1025.7000;0.4803;0.7941;
1026.0000;0.4786;0.7895;
1026.3000;0.4770;0.7825;
1026.6000;0.4762;0.7778;
1026.9000;0.4794;0.7871;
1027.2000;0.4778;0.7918;
1027.5000;0.4721;0.7755;
1027.8000;0.4689;0.7686;
1028.1000;0.4762;0.7871;
1028.4000;0.4778;0.7918;
1028.7000;0.4778;0.7895;
1029.0000;0.4827;0.7941;
1029.3000;0.4811;0.7825;
1029.6000;0.4794;0.7778;
1029.9000;0.4786;0.7895;
1030.2000;0.4778;0.7825;
1030.5000;0.4762;0.7802;
1030.8000;0.4778;0.7895;
1031.1000;0.4778;0.7778;
1031.4000;0.4843;0.8011;
1031.7000;0.4778;0.7871;
1032.0000;0.4770;0.7895;
1032.3000;0.4803;0.7918;
1032.6000;0.4770;0.8011;
1032.9000;0.4770;0.8011;
1033.2000;0.4778;0.8034;
1033.5000;0.4754;0.7941;
1033.8000;0.4697;0.7732;
1034.1000;0.4689;0.7778;
1034.4000;0.4754;0.8011;
1034.7000;0.4786;0.8104;
1035.0000;0.4770;0.8034;
1035.3000;0.4843;0.8173;
1035.6000;0.4786;0.7987;
1035.9000;0.4786;0.8011;
1036.2000;0.4746;0.7941;
1036.5000;0.4786;0.7918;
1036.8000;0.4762;0.7755;
1037.1000;0.4656;0.7361;
1037.4000;0.4778;0.7593;
1037.7000;0.4778;0.7593;
1038.0000;0.4786;0.7616;
1038.3000;0.4770;0.7593;
1038.6000;0.4778;0.7639;
1038.9000;0.4746;0.7523;
1039.2000;0.4770;0.7639;
1039.5000;0.4786;0.7732;
1039.8000;0.4762;0.7639;
1040.1000;0.4803;0.7732;
1040.4000;0.4786;0.7732;
1040.7000;0.4770;0.7639;
1041.0000;0.4770;0.7662;
1041.3000;0.4860;0.7987;
1041.6000;0.4754;0.7802;
1041.9000;0.4770;0.7848;
1042.2000;0.4778;0.7964;
1042.5000;0.4770;0.7941;
1042.8000;0.4754;0.7895;
1043.1000;0.4803;0.7987;
1043.4000;0.4762;0.7941;
1043.7000;0.4770;0.8080;
1044.0000;0.4851;0.8336;
1044.3000;0.4762;0.8034;
1044.6000;0.4786;0.7964;
1044.9000;0.4835;0.8104;
1045.2000;0.4762;0.7895;
1045.5000;0.4786;0.7895;
1045.8000;0.4754;0.7848;
1046.1000;0.4786;0.7871;
1046.4000;0.4754;0.7709;
1046.7000;0.4746;0.7686;
1047.0000;0.4754;0.7686;
1047.3000;0.4786;0.7848;
1047.6000;0.4770;0.7732;
1047.9000;0.4786;0.7709;
1048.2000;0.4778;0.7778;
1048.5000;0.4786;0.7871;
1048.8000;0.4762;0.7918;
1049.1000;0.4786;0.7964;
1049.4000;0.4762;0.7941;
1049.7000;0.4737;0.7825;
1050.0000;0.4794;0.7895;
1050.3000;0.4778;0.7778;
1050.6000;0.4835;0.7918;
1050.9000;0.4778;0.7778;
1051.2000;0.4803;0.7802;
1051.5000;0.4908;0.8057;
1051.8000;0.4778;0.7802;
1052.1000;0.4770;0.7639;
1052.4000;0.4803;0.7848;
1052.7000;0.4803;0.7778;
1053.0000;0.4803;0.7755;
1053.3000;0.4827;0.7895;
1053.6000;0.4770;0.7802;
1053.9000;0.4786;0.7778;
1054.2000;0.4786;0.7802;
1054.5000;0.4746;0.7778;
1054.8000;0.4770;0.7848;
1055.1000;0.4803;0.7941;
1055.4000;0.4786;0.7918;
1055.7000;0.4778;0.7848;
1056.0000;0.4754;0.7895;
1056.3000;0.4746;0.7987;
1056.6000;0.4762;0.8080;
1056.9000;0.4770;0.8127;
1057.2000;0.4778;0.8104;
1057.5000;0.4746;0.8057;
1057.8000;0.4786;0.8104;
1058.1000;0.4770;0.7941;
1058.4000;0.4770;0.7918;
1058.7000;0.4819;0.8034;
1059.0000;0.4778;0.7987;
1059.3000;0.4786;0.8057;
1059.6000;0.4746;0.7918;
1059.9000;0.4721;0.7941;
1060.2000;0.4778;0.8080;
1060.5000;0.4729;0.7895;
1060.8000;0.4794;0.7918;
1061.1000;0.4754;0.7778;
1061.4000;0.4794;0.7871;
1061.7000;0.4754;0.7778;
1062.0000;0.4803;0.7755;
1062.3000;0.4754;0.7570;
1062.6000;0.4778;0.7686;
1062.9000;0.4876;0.7964;
1063.2000;0.4729;0.7616;
1063.5000;0.4754;0.7755;
1063.8000;0.4786;0.7848;
1064.1000;0.4762;0.7778;
1064.4000;0.4794;0.7895;
1064.7000;0.4786;0.8011;
1065.0000;0.4754;0.7964;
1065.3000;0.4754;0.7895;
1065.6000;0.4770;0.7871;
1065.9000;0.4786;0.7895;
1066.2000;0.4868;0.8173;
1066.5000;0.4819;0.7987;
1066.8000;0.4819;0.8057;
1067.1000;0.4746;0.7895;
1067.4000;0.4786;0.7941;
1067.7000;0.4851;0.8150;
1068.0000;0.4786;0.8057;
1068.3000;0.4827;0.8104;
1068.6000;0.4770;0.7848;
1068.9000;0.4770;0.7918;
1069.2000;0.4770;0.7941;
1069.5000;0.4786;0.7895;
1069.8000;0.4770;0.7778;
1070.1000;0.4754;0.7686;
1070.4000;0.4737;0.7662;
1070.7000;0.4754;0.7686;
1071.0000;0.4729;0.7709;
1071.3000;0.4672;0.7593;
1071.6000;0.4786;0.7871;
1071.9000;0.4778;0.7895;
1072.2000;0.4754;0.7825;
1072.5000;0.4721;0.7755;
1072.8000;0.4786;0.7778;
1073.1000;0.4803;0.7825;
1073.4000;0.4786;0.7802;
1073.7000;0.4778;0.7709;
1074.0000;0.4892;0.8011;
1074.3000;0.4786;0.7848;
1074.6000;0.4860;0.8173;
1074.9000;0.4778;0.8011;
1075.2000;0.4827;0.8173;
1075.5000;0.4786;0.8057;
1075.8000;0.4794;0.8127;
1076.1000;0.4770;0.8011;
1076.4000;0.4770;0.8104;
1076.7000;0.4786;0.8150;
1077.0000;0.4770;0.8057;
1077.3000;0.4803;0.8080;
1077.6000;0.4770;0.7918;
1077.9000;0.4778;0.7964;
1078.2000;0.4770;0.8104;
1078.5000;0.4762;0.7964;
1078.8000;0.4770;0.7964;
1079.1000;0.4803;0.8104;
1079.4000;0.4770;0.8034;
1079.7000;0.4803;0.8080;
1080.0000;0.4794;0.8104;
1080.3000;0.4794;0.8150;
1080.6000;0.4770;0.8127;
1080.9000;0.4778;0.8104;
1081.2000;0.4794;0.8243;
1081.5000;0.4770;0.8220;
1081.8000;0.4770;0.8313;
1082.1000;0.4860;0.8429;
1082.4000;0.4778;0.8150;
1082.7000;0.4770;0.8057;
1083.0000;0.4770;0.8011;
1083.3000;0.4827;0.8127;
1083.6000;0.4778;0.7964;
1083.9000;0.4892;0.8289;
1084.2000;0.4786;0.8080;
1084.5000;0.4770;0.8104;
1084.8000;0.4770;0.8104;
1085.1000;0.4819;0.8220;
1085.4000;0.4762;0.8080;
1085.7000;0.4762;0.8057;
1086.0000;0.4770;0.8057;
1086.3000;0.4770;0.8127;
1086.6000;0.4762;0.8011;
1086.9000;0.4770;0.8034;
1087.2000;0.4664;0.7732;
1087.5000;0.4770;0.7941;
1087.8000;0.4778;0.7941;
1088.1000;0.4754;0.8034;
1088.4000;0.4770;0.8080;
1088.7000;0.4786;0.8150;
1089.0000;0.4786;0.8127;
1089.3000;0.4803;0.8196;
1089.6000;0.4778;0.8080;
1089.9000;0.4860;0.8289;
1090.2000;0.4778;0.8150;
1090.5000;0.4770;0.8150;
1090.8000;0.4770;0.8127;
1091.1000;0.4786;0.8080;
1091.4000;0.4778;0.8057;
1091.7000;0.4786;0.8127;
1092.0000;0.4754;0.8104;
1092.3000;0.4681;0.7964;
1092.6000;0.4778;0.8196;
1092.9000;0.4746;0.8243;
1093.2000;0.4762;0.8243;
1093.5000;0.4803;0.8220;
1093.8000;0.4754;0.8057;
1094.1000;0.4762;0.8011;
1094.4000;0.4778;0.8011;
1094.7000;0.4778;0.8034;
1095.0000;0.4746;0.8011;
1095.3000;0.4746;0.8034;
1095.6000;0.4778;0.8127;
1095.9000;0.4794;0.8127;
1096.2000;0.4770;0.8080;
1096.5000;0.4770;0.8057;
1096.8000;0.4811;0.8173;
1097.1000;0.4778;0.8057;
1097.4000;0.4721;0.7941;
1097.7000;0.4770;0.8104;
1098.0000;0.4819;0.8173;
1098.3000;0.4770;0.8127;
1098.6000;0.4786;0.8173;
1098.9000;0.4786;0.8220;
1099.2000;0.4746;0.8220;
1099.5000;0.4770;0.8289;
1099.8000;0.4754;0.8196;
1100.1000;0.4762;0.8150;
1100.4000;0.4705;0.7964;
1100.7000;0.4762;0.8057;
1101.0000;0.4786;0.8011;
1101.3000;0.4794;0.8034;
1101.6000;0.4794;0.8011;
1101.9000;0.4778;0.8104;
1102.2000;0.4770;0.8104;
1102.5000;0.4786;0.8127;
1102.8000;0.4786;0.8150;
1103.1000;0.4811;0.8220;
1103.4000;0.4754;0.8057;
1103.7000;0.4786;0.8173;
1104.0000;0.4762;0.8011;
1104.3000;0.4746;0.7918;
1104.6000;0.4778;0.8011;
1104.9000;0.4770;0.8057;
1105.2000;0.4778;0.8127;
1105.5000;0.4786;0.8057;
1105.8000;0.4754;0.7941;
1106.1000;0.4819;0.8034;
1106.4000;0.4794;0.7941;
1106.7000;0.4786;0.7941;
1107.0000;0.4770;0.7871;
1107.3000;0.4770;0.7778;
1107.6000;0.4770;0.7709;
1107.9000;0.4770;0.7848;
1108.2000;0.4778;0.7895;
1108.5000;0.4786;0.7987;
1108.8000;0.4794;0.8011;
1109.1000;0.4762;0.7964;
1109.4000;0.4778;0.8034;
1109.7000;0.4762;0.7964;
1110.0000;0.4778;0.7987;
1110.3000;0.4786;0.8034;
1110.6000;0.4794;0.7987;
1110.9000;0.4754;0.7987;
1111.2000;0.4786;0.8011;
1111.5000;0.4737;0.7895;
1111.8000;0.4762;0.7918;
1112.1000;0.4754;0.7802;
1112.4000;0.4786;0.7848;
1112.7000;0.4778;0.7941;
1113.0000;0.4786;0.7895;
1113.3000;0.4900;0.8220;
1113.6000;0.4762;0.7802;
1113.9000;0.4794;0.7848;
1114.2000;0.4770;0.7755;
1114.5000;0.4778;0.7616;
1114.8000;0.4770;0.7639;
1115.1000;0.4746;0.7616;
1115.4000;0.4754;0.7570;
1115.7000;0.4762;0.7639;
1116.0000;0.4778;0.7639;
1116.3000;0.4868;0.7871;
1116.6000;0.4778;0.7732;
1116.9000;0.4778;0.7871;
1117.2000;0.4786;0.8011;
1117.5000;0.4778;0.8080;
1117.8000;0.4868;0.8289;
1118.1000;0.4778;0.8127;
1118.4000;0.4778;0.8196;
1118.7000;0.4746;0.8150;
1119.0000;0.4786;0.8220;
1119.3000;0.4746;0.8150;
1119.6000;0.4746;0.8243;
1119.9000;0.4843;0.8429;
1120.2000;0.4762;0.8150;
1120.5000;0.4827;0.8220;
1120.8000;0.4770;0.8127;
1121.1000;0.4786;0.8150;
1121.4000;0.4786;0.8150;
1121.7000;0.4762;0.7987;
1122.0000;0.4713;0.7871;
1122.3000;0.4770;0.8057;
1122.6000;0.4770;0.8057;
1122.9000;0.4762;0.8011;
1123.2000;0.4778;0.8034;
1123.5000;0.4770;0.7941;
1123.8000;0.4786;0.8057;
1124.1000;0.4778;0.8104;
1124.4000;0.4762;0.8196;
1124.7000;0.4754;0.8243;
1125.0000;0.4729;0.8127;
1125.3000;0.4762;0.8196;
1125.6000;0.4762;0.8196;
1125.9000;0.4754;0.8150;
1126.2000;0.4770;0.8173;
1126.5000;0.4770;0.8173;
1126.8000;0.4786;0.8150;
1127.1000;0.4778;0.8173;
1127.4000;0.4762;0.8196;
1127.7000;0.4762;0.8220;
1128.0000;0.4746;0.8173;
1128.3000;0.4770;0.8196;
1128.6000;0.4778;0.8243;
1128.9000;0.4778;0.8313;
1129.2000;0.4762;0.8336;
1129.5000;0.4770;0.8289;
1129.8000;0.4827;0.8359;
1130.1000;0.4770;0.8196;
1130.4000;0.4746;0.8150;
1130.7000;0.4778;0.8150;
1131.0000;0.4689;0.8034;
1131.3000;0.4778;0.8104;
1131.6000;0.4786;0.8127;
1131.9000;0.4778;0.8057;
1132.2000;0.4762;0.8011;
1132.5000;0.4754;0.8080;
1132.8000;0.4778;0.8104;
1133.1000;0.4754;0.8104;
1133.4000;0.4794;0.8243;
1133.7000;0.4762;0.8196;
1134.0000;0.4762;0.8150;
1134.3000;0.4754;0.8104;
1134.6000;0.4786;0.8266;
1134.9000;0.4729;0.8080;
1135.2000;0.4786;0.8220;
1135.5000;0.4778;0.8173;
1135.8000;0.4778;0.8220;
1136.1000;0.4762;0.8150;
1136.4000;0.4746;0.8057;
1136.7000;0.4778;0.8080;
1137.0000;0.4778;0.8080;
1137.3000;0.4778;0.8104;
1137.6000;0.4778;0.8196;
1137.9000;0.4778;0.8173;
1138.2000;0.4705;0.7987;
1138.5000;0.4778;0.8150;
1138.8000;0.4786;0.8220;
1139.1000;0.4746;0.8243;
1139.4000;0.4754;0.8289;
1139.7000;0.4770;0.8313;
1140.0000;0.4786;0.8429;
1140.3000;0.4754;0.8266;
1140.6000;0.4754;0.8243;
1140.9000;0.4778;0.8313;
1141.2000;0.4811;0.8313;
1141.5000;0.4786;0.8289;
1141.8000;0.4786;0.8243;
1142.1000;0.4794;0.8220;
1142.4000;0.4794;0.8313;
1142.7000;0.4778;0.8266;
1143.0000;0.4803;0.8289;
1143.3000;0.4762;0.8266;
1143.6000;0.4762;0.8150;
1143.9000;0.4770;0.8150;
1144.2000;0.4778;0.8127;
1144.5000;0.4746;0.8104;
1144.8000;0.4746;0.8150;
1145.1000;0.4770;0.8405;
1145.4000;0.4729;0.8313;
1145.7000;0.4762;0.8359;
1146.0000;0.4770;0.8359;
1146.3000;0.4770;0.8313;
1146.6000;0.4778;0.8429;
1146.9000;0.4803;0.8545;
1147.2000;0.4786;0.8545;
1147.5000;0.4803;0.8614;
1147.8000;0.4770;0.8614;
1148.1000;0.4770;0.8521;
1148.4000;0.4819;0.8661;
1148.7000;0.4746;0.8429;
1149.0000;0.4794;0.8405;
1149.3000;0.4786;0.8359;
1149.6000;0.4786;0.8289;
1149.9000;0.4803;0.8336;
1150.2000;0.4762;0.8243;
1150.5000;0.4746;0.8127;
1150.8000;0.4778;0.8127;
1151.1000;0.4762;0.8173;
1151.4000;0.4778;0.8243;
1151.7000;0.4770;0.8196;
1152.0000;0.4689;0.7964;
1152.3000;0.4827;0.8289;
1152.6000;0.4786;0.8080;
1152.9000;0.4729;0.8011;
1153.2000;0.4754;0.8104;
1153.5000;0.4754;0.8104;
1153.8000;0.4737;0.8104;
1154.1000;0.4672;0.7871;
1154.4000;0.4794;0.8127;
1154.7000;0.4819;0.8173;
1155.0000;0.4729;0.7964;
1155.3000;0.4770;0.8104;
1155.6000;0.4737;0.8034;
1155.9000;0.4794;0.8289;
1156.2000;0.4778;0.8243;
1156.5000;0.4746;0.8173;
1156.8000;0.4746;0.8243;
1157.1000;0.4746;0.8243;
1157.4000;0.4778;0.8266;
1157.7000;0.4778;0.8243;
1158.0000;0.4778;0.8220;
1158.3000;0.4803;0.8313;
1158.6000;0.4778;0.8313;
1158.9000;0.4835;0.8452;
1159.2000;0.4786;0.8336;
1159.5000;0.4778;0.8336;
1159.8000;0.4778;0.8382;
1160.1000;0.4762;0.8220;
1160.4000;0.4770;0.8127;
1160.7000;0.4762;0.8057;
1161.0000;0.4778;0.8080;
1161.3000;0.4754;0.8011;
1161.6000;0.4794;0.8034;
1161.9000;0.4762;0.7987;
1162.2000;0.4754;0.7987;
1162.5000;0.4794;0.8034;
1162.8000;0.4794;0.7918;
1163.1000;0.4778;0.7871;
1163.4000;0.4835;0.8011;
1163.7000;0.4794;0.8057;
1164.0000;0.4746;0.8011;
1164.3000;0.4786;0.8011;
1164.6000;0.4860;0.8196;
1164.9000;0.4778;0.7918;
1165.2000;0.4794;0.7895;
1165.5000;0.4778;0.7941;
1165.8000;0.4770;0.7918;
1166.1000;0.4811;0.8057;
1166.4000;0.4762;0.7941;
1166.7000;0.4762;0.7941;
1167.0000;0.4778;0.7871;
1167.3000;0.4778;0.7918;
1167.6000;0.4811;0.8057;
1167.9000;0.4778;0.8034;
1168.2000;0.4737;0.7895;
1168.5000;0.4778;0.8057;
1168.8000;0.4770;0.7987;
1169.1000;0.4737;0.7871;
1169.4000;0.4827;0.7964;
1169.7000;0.4746;0.7825;
1170.0000;0.4786;0.7871;
1170.3000;0.4803;0.7964;
1170.6000;0.4803;0.7987;
1170.9000;0.4746;0.7964;
1171.2000;0.4860;0.8104;
1171.5000;0.4778;0.7964;
1171.8000;0.4770;0.7964;
1172.1000;0.4770;0.7987;
1172.4000;0.4762;0.7987;
1172.7000;0.4778;0.7941;
1173.0000;0.4770;0.7895;
1173.3000;0.4770;0.7778;
1173.6000;0.4746;0.7709;
1173.9000;0.4754;0.7732;
1174.2000;0.4762;0.7732;
1174.5000;0.4762;0.7709;
1174.8000;0.4770;0.7709;
1175.1000;0.4754;0.7709;
1175.4000;0.4770;0.7732;
1175.7000;0.4770;0.7802;
1176.0000;0.4721;0.7616;
1176.3000;0.4762;0.7662;
1176.6000;0.4778;0.7639;
1176.9000;0.4786;0.7709;
1177.2000;0.4754;0.7802;
1177.5000;0.4811;0.7918;
1177.8000;0.4778;0.7802;
1178.1000;0.4786;0.7825;
1178.4000;0.4778;0.7825;
1178.7000;0.4827;0.7964;
1179.0000;0.4803;0.8057;
1179.3000;0.4770;0.8080;
1179.6000;0.4794;0.8196;
1179.9000;0.4746;0.8034;
1180.2000;0.4778;0.7964;
1180.5000;0.4770;0.7848;
1180.8000;0.4778;0.7895;
1181.1000;0.4770;0.7825;
1181.4000;0.4778;0.7918;
1181.7000;0.4762;0.7732;
1182.0000;0.4770;0.7709;
1182.3000;0.4754;0.7778;
1182.6000;0.4737;0.7709;
1182.9000;0.4786;0.7871;
1183.2000;0.4746;0.7871;
1183.5000;0.4754;0.7871;
1183.8000;0.4778;0.7895;
1184.1000;0.4754;0.7755;
1184.4000;0.4729;0.7778;
1184.7000;0.4737;0.7662;
1185.0000;0.4762;0.7686;
1185.3000;0.4778;0.7709;
1185.6000;0.4778;0.7755;
1185.9000;0.4778;0.7895;
1186.2000;0.4794;0.7964;
1186.5000;0.4754;0.7918;
1186.8000;0.4778;0.7918;
1187.1000;0.4770;0.7895;
1187.4000;0.4762;0.7895;
1187.7000;0.4762;0.7918;
1188.0000;0.4754;0.7895;
1188.3000;0.4770;0.8011;
1188.6000;0.4770;0.8034;
1188.9000;0.4762;0.7964;
1189.2000;0.4754;0.7941;
1189.5000;0.4786;0.7941;
1189.8000;0.4770;0.7918;
1190.1000;0.4778;0.7918;
1190.4000;0.4754;0.7871;
1190.7000;0.4786;0.7871;
1191.0000;0.4762;0.7848;
1191.3000;0.4754;0.7825;
1191.6000;0.4770;0.7848;
1191.9000;0.4778;0.7895;
1192.2000;0.4762;0.7941;
1192.5000;0.4681;0.7732;
1192.8000;0.4770;0.7941;
1193.1000;0.4794;0.8011;
1193.4000;0.4803;0.8080;
1193.7000;0.4762;0.7987;
1194.0000;0.4835;0.8196;
1194.3000;0.4770;0.8034;
1194.6000;0.4778;0.7987;
1194.9000;0.4778;0.7987;
1195.2000;0.4794;0.8034;
1195.5000;0.4778;0.8034;
1195.8000;0.4770;0.8104;
1196.1000;0.4762;0.8057;
1196.4000;0.4778;0.8080;
1196.7000;0.4778;0.8104;
1197.0000;0.4811;0.8173;
1197.3000;0.4778;0.8150;
1197.6000;0.4754;0.8080;
1197.9000;0.4770;0.8057;
1198.2000;0.4770;0.8104;
1198.5000;0.4770;0.8057;
1198.8000;0.4786;0.8034;
1199.1000;0.4770;0.7987;
1199.4000;0.4803;0.8104;
1199.7000;0.4770;0.8104;
1200.0000;0.4778;0.8104;
1200.3000;0.4778;0.7987;
1200.6000;0.4762;0.7964;
1200.9000;0.4778;0.8057;
1201.2000;0.4778;0.8127;
1201.5000;0.4762;0.8104;
1201.8000;0.4778;0.8173;
1202.1000;0.4803;0.8266;
1202.4000;0.4762;0.8127;
1202.7000;0.4762;0.8057;
1203.0000;0.4762;0.8034;
1203.3000;0.4770;0.8011;
1203.6000;0.4786;0.7964;
1203.9000;0.4786;0.7848;
1204.2000;0.4786;0.7825;
1204.5000;0.4794;0.7941;
1204.8000;0.4794;0.7964;
1205.1000;0.4754;0.7802;
1205.4000;0.4803;0.7871;
1205.7000;0.4786;0.7941;
1206.0000;0.4778;0.7918;
1206.3000;0.4819;0.8034;
1206.6000;0.4762;0.7848;
1206.9000;0.4778;0.7918;
1207.2000;0.4754;0.7987;
1207.5000;0.4778;0.8080;
1207.8000;0.4770;0.8057;
1208.1000;0.4762;0.8034;
1208.4000;0.4778;0.7964;
1208.7000;0.4786;0.7918;
1209.0000;0.4754;0.7895;
1209.3000;0.4681;0.7755;
1209.6000;0.4786;0.8196;
1209.9000;0.4794;0.8196;
1210.2000;0.4778;0.8196;
1210.5000;0.4762;0.8127;
1210.8000;0.4778;0.8127;
1211.1000;0.4819;0.8150;
1211.4000;0.4851;0.8104;
1211.7000;0.4803;0.7987;
1212.0000;0.4811;0.8127;
1212.3000;0.4754;0.8080;
1212.6000;0.4762;0.8011;
1212.9000;0.4778;0.7918;
1213.2000;0.4754;0.7802;
1213.5000;0.4803;0.7895;
1213.8000;0.4786;0.7825;
1214.1000;0.4778;0.7895;
1214.4000;0.4819;0.7918;
1214.7000;0.4778;0.7778;
1215.0000;0.4786;0.7941;
1215.3000;0.4794;0.7918;
1215.6000;0.4786;0.7964;
1215.9000;0.4770;0.7848;
1216.2000;0.4786;0.8011;
1216.5000;0.4778;0.7871;
1216.8000;0.4778;0.7871;
1217.1000;0.4721;0.7778;
1217.4000;0.4770;0.7802;
1217.7000;0.4778;0.7848;
1218.0000;0.4851;0.8011;
1218.3000;0.4762;0.7825;
1218.6000;0.4778;0.7848;
1218.9000;0.4689;0.7639;
1219.2000;0.4762;0.7871;
1219.5000;0.4762;0.7941;
1219.8000;0.4786;0.8080;
1220.1000;0.4778;0.8057;
1220.4000;0.4786;0.7964;
1220.7000;0.4746;0.7895;
1221.0000;0.4721;0.7871;
1221.3000;0.4794;0.8057;
1221.6000;0.4794;0.8150;
1221.9000;0.4754;0.7987;
1222.2000;0.4803;0.8127;
1222.5000;0.4770;0.7987;
1222.8000;0.4754;0.7964;
1223.1000;0.4770;0.7987;
1223.4000;0.4811;0.8011;
1223.7000;0.4770;0.7895;
1224.0000;0.4827;0.8080;
1224.3000;0.4737;0.7918;
1224.6000;0.4770;0.7964;
1224.9000;0.4786;0.8011;
1225.2000;0.4803;0.7941;
1225.5000;0.4778;0.7918;
1225.8000;0.4786;0.7895;
1226.1000;0.4835;0.8080;
1226.4000;0.4778;0.7964;
1226.7000;0.4778;0.7964;
1227.0000;0.4827;0.8034;
1227.3000;0.4827;0.8080;
1227.6000;0.4754;0.7964;
1227.9000;0.4786;0.7964;
1228.2000;0.4762;0.7941;
1228.5000;0.4746;0.7871;
1228.8000;0.4762;0.7895;
1229.1000;0.4737;0.7848;
1229.4000;0.4754;0.7848;
1229.7000;0.4770;0.7825;
1230.0000;0.4786;0.7825;
1230.3000;0.4794;0.7895;
1230.6000;0.4770;0.7848;
1230.9000;0.4786;0.7848;
1231.2000;0.4762;0.7871;
1231.5000;0.4762;0.7918;
1231.8000;0.4770;0.7918;
1232.1000;0.4770;0.7871;
1232.4000;0.4770;0.7848;
1232.7000;0.4762;0.7918;
1233.0000;0.4770;0.7871;
1233.3000;0.4762;0.7825;
1233.6000;0.4762;0.7848;
1233.9000;0.4786;0.7871;
1234.2000;0.4746;0.7871;
1234.5000;0.4770;0.7918;
1234.8000;0.4778;0.7941;
1235.1000;0.4729;0.7802;
1235.4000;0.4778;0.7918;
1235.7000;0.4786;0.7848;
1236.0000;0.4770;0.7964;
1236.3000;0.4786;0.8080;
1236.6000;0.4754;0.7964;
1236.9000;0.4770;0.8011;
1237.2000;0.4762;0.7941;
1237.5000;0.4762;0.7987;
1237.8000;0.4770;0.8011;
1238.1000;0.4770;0.8034;
1238.4000;0.4721;0.7825;
1238.7000;0.4754;0.7895;
1239.0000;0.4770;0.7848;
1239.3000;0.4786;0.7802;
1239.6000;0.4770;0.7848;
1239.9000;0.4770;0.7964;
1240.2000;0.4754;0.7964;
1240.5000;0.4819;0.8080;
1240.8000;0.4778;0.8011;
1241.1000;0.4762;0.7941;
1241.4000;0.4778;0.8057;
1241.7000;0.4746;0.7964;
1242.0000;0.4778;0.8057;
1242.3000;0.4754;0.7918;
1242.6000;0.4770;0.7918;
1242.9000;0.4754;0.7918;
1243.2000;0.4770;0.7895;
1243.5000;0.4770;0.7871;
1243.8000;0.4746;0.7825;
1244.1000;0.4770;0.7895;
1244.4000;0.4770;0.8057;
1244.7000;0.4762;0.8127;
1245.0000;0.4770;0.7964;
1245.3000;0.4762;0.8011;
1245.6000;0.4770;0.8034;
1245.9000;0.4892;0.8289;
1246.2000;0.4697;0.7825;
1246.5000;0.4827;0.8034;
1246.8000;0.4794;0.7755;
1247.1000;0.4778;0.7709;
1247.4000;0.4762;0.7755;
1247.7000;0.4786;0.7918;
1248.0000;0.4721;0.7871;
1248.3000;0.4664;0.7755;
1248.6000;0.4770;0.7941;
1248.9000;0.4876;0.8173;
1249.2000;0.4762;0.7871;
1249.5000;0.4819;0.7941;
1249.8000;0.4762;0.7825;
1250.1000;0.4778;0.7871;
1250.4000;0.4770;0.7895;
1250.7000;0.4778;0.7964;
1251.0000;0.4811;0.8011;
1251.3000;0.4794;0.7987;
1251.6000;0.4770;0.7895;
1251.9000;0.4762;0.7802;
1252.2000;0.4778;0.7895;
1252.5000;0.4778;0.7918;
1252.8000;0.4754;0.7778;
1253.1000;0.4754;0.7755;
1253.4000;0.4762;0.7825;
1253.7000;0.4770;0.7778;
1254.0000;0.4754;0.7755;
1254.3000;0.4778;0.7686;
1254.6000;0.4778;0.7709;
1254.9000;0.4786;0.7778;
1255.2000;0.4762;0.7662;
1255.5000;0.4778;0.7686;
1255.8000;0.4786;0.7732;
1256.1000;0.4786;0.7732;
1256.4000;0.4770;0.7755;
1256.7000;0.4705;0.7662;
1257.0000;0.4778;0.7941;
1257.3000;0.4786;0.8034;
1257.6000;0.4737;0.7895;
1257.9000;0.4681;0.7616;
1258.2000;0.4778;0.7941;
1258.5000;0.4770;0.7871;
1258.8000;0.4770;0.7941;
1259.1000;0.4762;0.7895;
1259.4000;0.4721;0.7732;
1259.7000;0.4770;0.7848;
1260.0000;0.4778;0.7825;
1260.3000;0.4762;0.7802;
1260.6000;0.4754;0.7848;
1260.9000;0.4762;0.7778;
1261.2000;0.4762;0.7778;
1261.5000;0.4770;0.7778;
1261.8000;0.4892;0.7987;
1262.1000;0.4778;0.7755;
1262.4000;0.4770;0.7732;
1262.7000;0.4762;0.7732;
1263.0000;0.4770;0.7755;
1263.3000;0.4754;0.7802;
1263.6000;0.4762;0.7709;
1263.9000;0.4729;0.7616;
1264.2000;0.4713;0.7523;
1264.5000;0.4827;0.7825;
1264.8000;0.4746;0.7709;
1265.1000;0.4770;0.7755;
1265.4000;0.4754;0.7732;
1265.7000;0.4778;0.7895;
1266.0000;0.4721;0.7871;
1266.3000;0.4770;0.8034;
1266.6000;0.4656;0.7709;
1266.9000;0.4811;0.8057;
1267.2000;0.4762;0.8011;
1267.5000;0.4762;0.7964;
1267.8000;0.4786;0.8057;
1268.1000;0.4754;0.7848;
1268.4000;0.4762;0.7825;
1268.7000;0.4762;0.7755;
1269.0000;0.4705;0.7686;
1269.3000;0.4729;0.7778;
1269.6000;0.4762;0.7825;
1269.9000;0.4827;0.8057;
1270.2000;0.4770;0.7918;
1270.5000;0.4794;0.7964;
1270.8000;0.4762;0.7895;
1271.1000;0.4794;0.8034;
1271.4000;0.4770;0.8011;
1271.7000;0.4843;0.8080;
1272.0000;0.4705;0.7732;
1272.3000;0.4737;0.7732;
1272.6000;0.4827;0.7918;
1272.9000;0.4770;0.7732;
1273.2000;0.4762;0.7755;
1273.5000;0.4811;0.7964;
1273.8000;0.4786;0.7987;
1274.1000;0.4778;0.7964;
1274.4000;0.4770;0.7941;
1274.7000;0.4778;0.7848;
1275.0000;0.4762;0.7778;
1275.3000;0.4746;0.7825;
1275.6000;0.4762;0.7964;
1275.9000;0.4778;0.8011;
1276.2000;0.4770;0.7918;
1276.5000;0.4778;0.7802;
1276.8000;0.4786;0.7871;
1277.1000;0.4746;0.7848;
1277.4000;0.4754;0.7918;
1277.7000;0.4778;0.8057;
1278.0000;0.4770;0.8034;
1278.3000;0.4746;0.7964;
1278.6000;0.4762;0.7987;
1278.9000;0.4770;0.8034;
1279.2000;0.4762;0.7964;
1279.5000;0.4770;0.7918;
1279.8000;0.4754;0.7871;
1280.1000;0.4770;0.7918;
1280.4000;0.4778;0.7941;
1280.7000;0.4811;0.7941;
1281.0000;0.4754;0.7802;
1281.3000;0.4778;0.7871;
1281.6000;0.4762;0.8011;
1281.9000;0.4762;0.8080;
1282.2000;0.4770;0.8034;
1282.5000;0.4770;0.8011;
1282.8000;0.4737;0.7918;
1283.1000;0.4762;0.7987;
1283.4000;0.4770;0.8011;
1283.7000;0.4770;0.8034;
1284.0000;0.4778;0.8104;
1284.3000;0.4843;0.8243;
1284.6000;0.4786;0.8173;
1284.9000;0.4786;0.8057;
1285.2000;0.4884;0.8173;
1285.5000;0.4729;0.7709;
1285.8000;0.4770;0.7802;
1286.1000;0.4786;0.7941;
1286.4000;0.4754;0.7848;
1286.7000;0.4786;0.7848;
1287.0000;0.4811;0.7987;
1287.3000;0.4762;0.7941;
1287.6000;0.4770;0.7895;
1287.9000;0.4786;0.7941;
1288.2000;0.4762;0.7848;
1288.5000;0.4770;0.7918;
1288.8000;0.4778;0.7941;
1289.1000;0.4778;0.7848;
1289.4000;0.4794;0.7848;
1289.7000;0.4778;0.7802;
1290.0000;0.4754;0.7755;
1290.3000;0.4754;0.7709;
1290.6000;0.4754;0.7709;
1290.9000;0.4819;0.7848;
1291.2000;0.4811;0.7825;
1291.5000;0.4778;0.7848;
1291.8000;0.4754;0.7778;
1292.1000;0.4770;0.7732;
1292.4000;0.4762;0.7709;
1292.7000;0.4770;0.7686;
1293.0000;0.4819;0.7778;
1293.3000;0.4762;0.7616;
1293.6000;0.4770;0.7616;
1293.9000;0.4762;0.7570;
1294.2000;0.4786;0.7523;
1294.5000;0.4762;0.7477;
1294.8000;0.4770;0.7523;
1295.1000;0.4762;0.7384;
1295.4000;0.4778;0.7361;
1295.7000;0.4778;0.7407;
1296.0000;0.4746;0.7361;
1296.3000;0.4746;0.7430;
1296.6000;0.4754;0.7593;
1296.9000;0.4794;0.7709;
1297.2000;0.4754;0.7686;
1297.5000;0.4778;0.7755;
1297.8000;0.4794;0.7709;
1298.1000;0.4786;0.7755;
1298.4000;0.4778;0.7778;
1298.7000;0.4762;0.7639;
1299.0000;0.4786;0.7755;
1299.3000;0.4778;0.7848;
1299.6000;0.4754;0.7825;
1299.9000;0.4754;0.7802;
1300.2000;0.4754;0.7802;
1300.5000;0.4762;0.7755;
1300.8000;0.4754;0.7778;
1301.1000;0.4737;0.7825;
1301.4000;0.4762;0.7964;
1301.7000;0.4770;0.7941;
1302.0000;0.4762;0.7964;
1302.3000;0.4811;0.8011;
1302.6000;0.4778;0.7871;
1302.9000;0.4778;0.7709;
1303.2000;0.4811;0.7686;
1303.5000;0.4770;0.7523;
1303.8000;0.4794;0.7662;
1304.1000;0.4778;0.7686;
1304.4000;0.4762;0.7709;
1304.7000;0.4762;0.7732;
1305.0000;0.4778;0.7686;
1305.3000;0.4770;0.7732;
1305.6000;0.4762;0.7732;
1305.9000;0.4770;0.7778;
1306.2000;0.4770;0.7778;
1306.5000;0.4762;0.7709;
1306.8000;0.4770;0.7732;
1307.1000;0.4778;0.7709;
1307.4000;0.4754;0.7662;
1307.7000;0.4770;0.7686;
1308.0000;0.4721;0.7570;
1308.3000;0.4770;0.7639;
1308.6000;0.4786;0.7709;
1308.9000;0.4786;0.7639;
1309.2000;0.4794;0.7662;
1309.5000;0.4786;0.7662;
1309.8000;0.4762;0.7639;
1310.1000;0.4762;0.7709;
1310.4000;0.4705;0.7500;
1310.7000;0.4770;0.7500;
1311.0000;0.4762;0.7546;
1311.3000;0.4770;0.7570;
1311.6000;0.4851;0.7802;
1311.9000;0.4794;0.7755;
1312.2000;0.4770;0.7825;
1312.5000;0.4778;0.7778;
1312.8000;0.4778;0.7778;
1313.1000;0.4786;0.7778;
1313.4000;0.4778;0.7732;
1313.7000;0.4770;0.7755;
1314.0000;0.4713;0.7686;
1314.3000;0.4770;0.8011;
1314.6000;0.4770;0.7895;
1314.9000;0.4762;0.7848;
1315.2000;0.4770;0.7848;
1315.5000;0.4770;0.7802;
1315.8000;0.4786;0.7848;
1316.1000;0.4786;0.7895;
1316.4000;0.4770;0.7732;
1316.7000;0.4746;0.7662;
1317.0000;0.4754;0.7616;
1317.3000;0.4778;0.7616;
1317.6000;0.4778;0.7639;
1317.9000;0.4770;0.7570;
1318.2000;0.4778;0.7546;
1318.5000;0.4786;0.7500;
1318.8000;0.4770;0.7430;
1319.1000;0.4754;0.7268;
1319.4000;0.4770;0.7430;
1319.7000;0.4778;0.7500;
1320.0000;0.4843;0.7686;
1320.3000;0.4754;0.7546;
1320.6000;0.4770;0.7616;
1320.9000;0.4762;0.7546;
1321.2000;0.4803;0.7570;
1321.5000;0.4786;0.7662;
1321.8000;0.4794;0.7686;
1322.1000;0.4754;0.7616;
1322.4000;0.4794;0.7662;
1322.7000;0.4778;0.7570;
1323.0000;0.4778;0.7523;
1323.3000;0.4786;0.7639;
1323.6000;0.4803;0.7686;
1323.9000;0.4778;0.7570;
1324.2000;0.4794;0.7593;
1324.5000;0.4762;0.7639;
1324.8000;0.4770;0.7616;
1325.1000;0.4811;0.7825;
1325.4000;0.4786;0.7778;
1325.7000;0.4770;0.7755;
1326.0000;0.4770;0.7778;
1326.3000;0.4778;0.7825;
1326.6000;0.4746;0.7755;
1326.9000;0.4762;0.7871;
1327.2000;0.4811;0.7941;
1327.5000;0.4770;0.7825;
1327.8000;0.4770;0.7871;
1328.1000;0.4737;0.7755;
1328.4000;0.4737;0.7778;
1328.7000;0.4786;0.7964;
1329.0000;0.4762;0.7964;
1329.3000;0.4770;0.8034;
1329.6000;0.4770;0.7941;
1329.9000;0.4778;0.7987;
1330.2000;0.4770;0.7895;
1330.5000;0.4778;0.7895;
1330.8000;0.4762;0.7848;
1331.1000;0.4794;0.7848;
1331.4000;0.4754;0.7709;
1331.7000;0.4770;0.7755;
1332.0000;0.4819;0.7778;
1332.3000;0.4786;0.7616;
1332.6000;0.4770;0.7500;
1332.9000;0.4778;0.7546;
1333.2000;0.4786;0.7593;
1333.5000;0.4835;0.7732;
1333.8000;0.4770;0.7546;
1334.1000;0.4729;0.7523;
1334.4000;0.4770;0.7709;
1334.7000;0.4762;0.7686;
1335.0000;0.4770;0.7778;
1335.3000;0.4754;0.7778;
1335.6000;0.4778;0.7778;
1335.9000;0.4770;0.7825;
1336.2000;0.4770;0.7871;
1336.5000;0.4786;0.7895;
1336.8000;0.4770;0.7825;
1337.1000;0.4762;0.7755;
1337.4000;0.4786;0.7755;
1337.7000;0.4729;0.7639;
1338.0000;0.4770;0.7709;
1338.3000;0.4778;0.7755;
1338.6000;0.4778;0.7709;
1338.9000;0.4770;0.7709;
1339.2000;0.4786;0.7755;
1339.5000;0.4778;0.7778;
1339.8000;0.4778;0.7778;
1340.1000;0.4770;0.7755;
1340.4000;0.4770;0.7778;
1340.7000;0.4762;0.7755;
1341.0000;0.4746;0.7802;
1341.3000;0.4762;0.7825;
1341.6000;0.4762;0.7895;
1341.9000;0.4762;0.7848;
1342.2000;0.4778;0.7871;
1342.5000;0.4770;0.7941;
1342.8000;0.4762;0.7964;
1343.1000;0.4754;0.7918;
1343.4000;0.4754;0.7848;
1343.7000;0.4770;0.7825;
1344.0000;0.4721;0.7686;
1344.3000;0.4746;0.7686;
1344.6000;0.4819;0.7895;
1344.9000;0.4778;0.7802;
1345.2000;0.4794;0.7802;
1345.5000;0.4786;0.7871;
1345.8000;0.4786;0.7848;
1346.1000;0.4786;0.7848;
1346.4000;0.4786;0.7825;
1346.7000;0.4770;0.7825;
1347.0000;0.4762;0.7848;
1347.3000;0.4754;0.7778;
1347.6000;0.4762;0.7755;
1347.9000;0.4770;0.7686;
1348.2000;0.4762;0.7709;
1348.5000;0.4770;0.7802;
1348.8000;0.4778;0.7825;
1349.1000;0.4746;0.7732;
1349.4000;0.4794;0.7802;
1349.7000;0.4762;0.7778;
1350.0000;0.4754;0.7755;
1350.3000;0.4721;0.7639;
1350.6000;0.4770;0.7802;
1350.9000;0.4746;0.7778;
1351.2000;0.4754;0.7871;
1351.5000;0.4778;0.7871;
1351.8000;0.4762;0.7871;
1352.1000;0.4762;0.7848;
1352.4000;0.4746;0.7848;
1352.7000;0.4754;0.7895;
1353.0000;0.4754;0.7848;
1353.3000;0.4778;0.7848;
1353.6000;0.4770;0.7871;
1353.9000;0.4786;0.8011;
1354.2000;0.4770;0.7871;
1354.5000;0.4786;0.7941;
1354.8000;0.4786;0.7871;
1355.1000;0.4762;0.7778;
1355.4000;0.4770;0.7709;
1355.7000;0.4778;0.7848;
1356.0000;0.4762;0.7802;
1356.3000;0.4770;0.7709;
1356.6000;0.4754;0.7686;
1356.9000;0.4754;0.7709;
1357.2000;0.4786;0.7755;
1357.5000;0.4713;0.7686;
1357.8000;0.4754;0.7871;
1358.1000;0.4770;0.7895;
1358.4000;0.4778;0.7918;
1358.7000;0.4794;0.7895;
1359.0000;0.4819;0.7848;
1359.3000;0.4721;0.7616;
1359.6000;0.4794;0.7848;
1359.9000;0.4827;0.7802;
1360.2000;0.4770;0.7709;
1360.5000;0.4762;0.7732;
1360.8000;0.4786;0.7732;
1361.1000;0.4762;0.7802;
1361.4000;0.4770;0.7732;
1361.7000;0.4794;0.7709;
1362.0000;0.4819;0.7802;
1362.3000;0.4754;0.7709;
1362.6000;0.4843;0.7987;
1362.9000;0.4770;0.7802;
1363.2000;0.4778;0.7825;
1363.5000;0.4770;0.7802;
1363.8000;0.4851;0.8034;
1364.1000;0.4762;0.7825;
1364.4000;0.4770;0.7871;
1364.7000;0.4827;0.7941;
1365.0000;0.4786;0.7848;
1365.3000;0.4754;0.7709;
1365.6000;0.4770;0.7755;
1365.9000;0.4770;0.7778;
1366.2000;0.4778;0.7639;
1366.5000;0.4778;0.7709;
1366.8000;0.4762;0.7732;
1367.1000;0.4770;0.7732;
1367.4000;0.4737;0.7709;
1367.7000;0.4770;0.7848;
1368.0000;0.4737;0.7755;
1368.3000;0.4770;0.7755;
1368.6000;0.4786;0.7686;
1368.9000;0.4778;0.7662;
1369.2000;0.4770;0.7662;
1369.5000;0.4754;0.7709;
1369.8000;0.4762;0.7778;
1370.1000;0.4754;0.7755;
1370.4000;0.4770;0.7848;
1370.7000;0.4754;0.7778;
1371.0000;0.4778;0.7848;
1371.3000;0.4705;0.7686;
1371.6000;0.4770;0.7848;
1371.9000;0.4778;0.7755;
1372.2000;0.4746;0.7593;
1372.5000;0.4803;0.7918;
1372.8000;0.4794;0.7895;
1373.1000;0.4770;0.7848;
1373.4000;0.4770;0.7825;
1373.7000;0.4778;0.7802;
1374.0000;0.4754;0.7802;
1374.3000;0.4762;0.7825;
1374.6000;0.4770;0.7848;
1374.9000;0.4770;0.7755;
1375.2000;0.4746;0.7709;
1375.5000;0.4770;0.7662;
1375.8000;0.4794;0.7778;
1376.1000;0.4819;0.7755;
1376.4000;0.4843;0.7825;
1376.7000;0.4746;0.7570;
1377.0000;0.4762;0.7639;
1377.3000;0.4770;0.7778;
1377.6000;0.4786;0.7848;
1377.9000;0.4721;0.7662;
1378.2000;0.4729;0.7639;
1378.5000;0.4778;0.7732;
1378.8000;0.4786;0.7848;
1379.1000;0.4794;0.7964;
1379.4000;0.4737;0.7755;
1379.7000;0.4762;0.7825;
1380.0000;0.4778;0.7802;
1380.3000;0.4762;0.7732;
1380.6000;0.4746;0.7662;
1380.9000;0.4705;0.7546;
1381.2000;0.4794;0.7755;
1381.5000;0.4778;0.7616;
1381.8000;0.4746;0.7616;
1382.1000;0.4770;0.7662;
1382.4000;0.4803;0.7732;
1382.7000;0.4754;0.7523;
1383.0000;0.4819;0.7755;
1383.3000;0.4794;0.7732;
1383.6000;0.4778;0.7709;
1383.9000;0.4778;0.7755;
1384.2000;0.4778;0.7825;
1384.5000;0.4778;0.7848;
1384.8000;0.4713;0.7686;
1385.1000;0.4770;0.7918;
1385.4000;0.4778;0.7987;
1385.7000;0.4770;0.7848;
1386.0000;0.4762;0.7825;
1386.3000;0.4770;0.7895;
1386.6000;0.4746;0.7895;
1386.9000;0.4762;0.7895;
1387.2000;0.4754;0.7895;
1387.5000;0.4762;0.7848;
1387.8000;0.4770;0.7825;
1388.1000;0.4770;0.7709;
1388.4000;0.4762;0.7709;
1388.7000;0.4754;0.7616;
1389.0000;0.4786;0.7639;
1389.3000;0.4762;0.7593;
1389.6000;0.4754;0.7593;
1389.9000;0.4770;0.7662;
1390.2000;0.4786;0.7732;
1390.5000;0.4778;0.7732;
1390.8000;0.4754;0.7755;
1391.1000;0.4746;0.7778;
1391.4000;0.4737;0.7732;
1391.7000;0.4778;0.7778;
1392.0000;0.4786;0.7778;
1392.3000;0.4786;0.7802;
1392.6000;0.4786;0.7802;
1392.9000;0.4762;0.7616;
1393.2000;0.4762;0.7546;
1393.5000;0.4770;0.7523;
1393.8000;0.4794;0.7477;
1394.1000;0.4770;0.7500;
1394.4000;0.4786;0.7593;
1394.7000;0.4770;0.7523;
1395.0000;0.4794;0.7662;
1395.3000;0.4778;0.7593;
1395.6000;0.4762;0.7593;
1395.9000;0.4754;0.7662;
1396.2000;0.4770;0.7732;
1396.5000;0.4786;0.7778;
1396.8000;0.4786;0.7778;
1397.1000;0.4778;0.7778;
1397.4000;0.4786;0.7732;
1397.7000;0.4786;0.7686;
1398.0000;0.4778;0.7686;
1398.3000;0.4762;0.7686;
1398.6000;0.4778;0.7755;
1398.9000;0.4754;0.7639;
1399.2000;0.4754;0.7639;
1399.5000;0.4721;0.7546;
1399.8000;0.4762;0.7662;
