time/ms;Fluo/V;P700 deltaI/I x10³;
-199.8000;0.4925;0.6664;
-199.5000;0.4941;0.6664;
-199.2000;0.4933;0.6548;
-198.9000;0.4949;0.6594;
-198.6000;0.4949;0.6664;
-198.3000;0.4941;0.6710;
-198.0000;0.4941;0.6710;
-197.7000;0.4965;0.6873;
-197.4000;0.4941;0.6850;
-197.1000;0.4941;0.6966;
-196.8000;0.4965;0.7059;
-196.5000;0.4941;0.6919;
-196.2000;0.4965;0.6896;
-195.9000;0.4933;0.6826;
-195.6000;0.4900;0.6687;
-195.3000;0.4949;0.6641;
-195.0000;0.4933;0.6571;
-194.7000;0.4925;0.6548;
-194.4000;0.4933;0.6571;
-194.1000;0.4933;0.6571;
-193.8000;0.4925;0.6548;
-193.5000;0.4925;0.6594;
-193.2000;0.4949;0.6618;
-192.9000;0.4925;0.6548;
-192.6000;0.4941;0.6571;
-192.3000;0.4925;0.6664;
-192.0000;0.4925;0.6664;
-191.7000;0.4933;0.6687;
-191.4000;0.4925;0.6710;
-191.1000;0.4941;0.6850;
-190.8000;0.4917;0.6780;
-190.5000;0.4925;0.6803;
-190.2000;0.4941;0.6780;
-189.9000;0.4933;0.6734;
-189.6000;0.4827;0.6501;
-189.3000;0.4925;0.6710;
-189.0000;0.4941;0.6687;
-188.7000;0.4990;0.6850;
-188.4000;0.4892;0.6571;
-188.1000;0.4933;0.6525;
-187.8000;0.4941;0.6571;
-187.5000;0.4917;0.6571;
-187.2000;0.4917;0.6571;
-186.9000;0.4941;0.6594;
-186.6000;0.4933;0.6525;
-186.3000;0.4925;0.6548;
-186.0000;0.4925;0.6594;
-185.7000;0.4908;0.6594;
-185.4000;0.4941;0.6664;
-185.1000;0.4925;0.6594;
-184.8000;0.4949;0.6734;
-184.5000;0.4941;0.6734;
-184.2000;0.4982;0.6873;
-183.9000;0.4917;0.6687;
-183.6000;0.5031;0.7059;
-183.3000;0.4933;0.6734;
-183.0000;0.4917;0.6734;
-182.7000;0.4925;0.6710;
-182.4000;0.4925;0.6618;
-182.1000;0.4933;0.6641;
-181.8000;0.4941;0.6687;
-181.5000;0.4933;0.6664;
-181.2000;0.4941;0.6641;
-180.9000;0.4868;0.6362;
-180.6000;0.4860;0.6455;
-180.3000;0.4990;0.6803;
-180.0000;0.4957;0.6734;
-179.7000;0.4925;0.6618;
-179.4000;0.4949;0.6618;
-179.1000;0.4949;0.6641;
-178.8000;0.4933;0.6664;
-178.5000;0.4917;0.6571;
-178.2000;0.4933;0.6664;
-177.9000;0.4949;0.6664;
-177.6000;0.4949;0.6618;
-177.3000;0.4941;0.6594;
-177.0000;0.4933;0.6548;
-176.7000;0.4941;0.6594;
-176.4000;0.4949;0.6571;
-176.1000;0.4900;0.6478;
-175.8000;0.4941;0.6548;
-175.5000;0.4933;0.6525;
-175.2000;0.4949;0.6687;
-174.9000;0.4949;0.6687;
-174.6000;0.4917;0.6501;
-174.3000;0.4860;0.6316;
-174.0000;0.4925;0.6501;
-173.7000;0.4917;0.6548;
-173.4000;0.4917;0.6618;
-173.1000;0.4965;0.6734;
-172.8000;0.4917;0.6594;
-172.5000;0.4851;0.6339;
-172.2000;0.4933;0.6548;
-171.9000;0.4949;0.6594;
-171.6000;0.4917;0.6525;
-171.3000;0.4851;0.6409;
-171.0000;0.4835;0.6478;
-170.7000;0.4925;0.6687;
-170.4000;0.4925;0.6687;
-170.1000;0.4908;0.6618;
-169.8000;0.4941;0.6641;
-169.5000;0.4917;0.6501;
-169.2000;0.4917;0.6478;
-168.9000;0.4908;0.6385;
-168.6000;0.4941;0.6409;
-168.3000;0.4925;0.6385;
-168.0000;0.4925;0.6432;
-167.7000;0.4917;0.6409;
-167.4000;0.4941;0.6525;
-167.1000;0.4965;0.6478;
-166.8000;0.4925;0.6385;
-166.5000;0.4925;0.6432;
-166.2000;0.4949;0.6432;
-165.9000;0.4941;0.6478;
-165.6000;0.4949;0.6641;
-165.3000;0.4957;0.6641;
-165.0000;0.4868;0.6478;
-164.7000;0.4933;0.6548;
-164.4000;0.4941;0.6501;
-164.1000;0.4941;0.6478;
-163.8000;0.4949;0.6525;
-163.5000;0.4957;0.6594;
-163.2000;0.4941;0.6548;
-162.9000;0.4933;0.6501;
-162.6000;0.4941;0.6525;
-162.3000;0.4941;0.6594;
-162.0000;0.4957;0.6594;
-161.7000;0.4925;0.6501;
-161.4000;0.4917;0.6571;
-161.1000;0.4974;0.6687;
-160.8000;0.4884;0.6501;
-160.5000;0.4933;0.6618;
-160.2000;0.4925;0.6594;
-159.9000;0.4941;0.6664;
-159.6000;0.4933;0.6571;
-159.3000;0.4917;0.6455;
-159.0000;0.4982;0.6571;
-158.7000;0.4933;0.6548;
-158.4000;0.4949;0.6548;
-158.1000;0.4933;0.6525;
-157.8000;0.4917;0.6525;
-157.5000;0.4917;0.6501;
-157.2000;0.4917;0.6432;
-156.9000;0.4925;0.6501;
-156.6000;0.4925;0.6501;
-156.3000;0.4949;0.6618;
-156.0000;0.4957;0.6757;
-155.7000;0.4949;0.6687;
-155.4000;0.4949;0.6641;
-155.1000;0.4957;0.6641;
-154.8000;0.4949;0.6734;
-154.5000;0.4917;0.6571;
-154.2000;0.4941;0.6594;
-153.9000;0.4925;0.6501;
-153.6000;0.4949;0.6501;
-153.3000;0.4941;0.6478;
-153.0000;0.4851;0.6339;
-152.7000;0.4941;0.6618;
-152.4000;0.4957;0.6687;
-152.1000;0.4917;0.6525;
-151.8000;0.4917;0.6455;
-151.5000;0.4892;0.6432;
-151.2000;0.4925;0.6571;
-150.9000;0.4917;0.6548;
-150.6000;0.4974;0.6618;
-150.3000;0.4990;0.6594;
-150.0000;0.4941;0.6571;
-149.7000;0.4908;0.6501;
-149.4000;0.4917;0.6432;
-149.1000;0.4957;0.6594;
-148.8000;0.4933;0.6594;
-148.5000;0.4908;0.6525;
-148.2000;0.4917;0.6432;
-147.9000;0.4917;0.6478;
-147.6000;0.4900;0.6455;
-147.3000;0.4917;0.6618;
-147.0000;0.4925;0.6710;
-146.7000;0.4908;0.6780;
-146.4000;0.4925;0.6803;
-146.1000;0.4990;0.6943;
-145.8000;0.4941;0.6826;
-145.5000;0.4892;0.6687;
-145.2000;0.4933;0.6826;
-144.9000;0.4933;0.6850;
-144.6000;0.5031;0.7035;
-144.3000;0.4933;0.6757;
-144.0000;0.4908;0.6687;
-143.7000;0.4933;0.6757;
-143.4000;0.4917;0.6757;
-143.1000;0.4917;0.6803;
-142.8000;0.4933;0.6896;
-142.5000;0.4941;0.6850;
-142.2000;0.4949;0.6919;
-141.9000;0.4949;0.6896;
-141.6000;0.4933;0.6850;
-141.3000;0.4917;0.6780;
-141.0000;0.4917;0.6734;
-140.7000;0.4925;0.6710;
-140.4000;0.4933;0.6664;
-140.1000;0.4917;0.6618;
-139.8000;0.4957;0.6757;
-139.5000;0.4925;0.6734;
-139.2000;0.4917;0.6850;
-138.9000;0.4908;0.6919;
-138.6000;0.4925;0.6826;
-138.3000;0.4908;0.6757;
-138.0000;0.4925;0.6826;
-137.7000;0.4892;0.6687;
-137.4000;0.4933;0.6780;
-137.1000;0.4990;0.6919;
-136.8000;0.4925;0.6710;
-136.5000;0.4949;0.6687;
-136.2000;0.4933;0.6571;
-135.9000;0.4917;0.6618;
-135.6000;0.4933;0.6780;
-135.3000;0.4908;0.6710;
-135.0000;0.4933;0.6757;
-134.7000;0.4957;0.6710;
-134.4000;0.4925;0.6641;
-134.1000;0.4957;0.6641;
-133.8000;0.4925;0.6548;
-133.5000;0.4925;0.6501;
-133.2000;0.4933;0.6455;
-132.9000;0.4941;0.6409;
-132.6000;0.4965;0.6478;
-132.3000;0.4925;0.6455;
-132.0000;0.4933;0.6409;
-131.7000;0.4933;0.6455;
-131.4000;0.4941;0.6641;
-131.1000;0.4925;0.6687;
-130.8000;0.4990;0.6803;
-130.5000;0.4925;0.6641;
-130.2000;0.4917;0.6594;
-129.9000;0.4933;0.6664;
-129.6000;0.4917;0.6687;
-129.3000;0.4933;0.6710;
-129.0000;0.4933;0.6664;
-128.7000;0.4892;0.6501;
-128.4000;0.4925;0.6641;
-128.1000;0.4917;0.6618;
-127.8000;0.4917;0.6618;
-127.5000;0.4917;0.6525;
-127.2000;0.4925;0.6548;
-126.9000;0.4933;0.6664;
-126.6000;0.4949;0.6710;
-126.3000;0.4933;0.6664;
-126.0000;0.4851;0.6409;
-125.7000;0.4908;0.6571;
-125.4000;0.4908;0.6525;
-125.1000;0.4908;0.6618;
-124.8000;0.4933;0.6710;
-124.5000;0.4892;0.6594;
-124.2000;0.4933;0.6664;
-123.9000;0.4925;0.6734;
-123.6000;0.4917;0.6850;
-123.3000;0.4925;0.6896;
-123.0000;0.4941;0.6803;
-122.7000;0.4933;0.6734;
-122.4000;0.4933;0.6757;
-122.1000;0.4982;0.6943;
-121.8000;0.4925;0.6803;
-121.5000;0.4917;0.6734;
-121.2000;0.4933;0.6803;
-120.9000;0.4933;0.6734;
-120.6000;0.4900;0.6641;
-120.3000;0.4933;0.6641;
-120.0000;0.4949;0.6641;
-119.7000;0.4925;0.6687;
-119.4000;0.4811;0.6316;
-119.1000;0.5039;0.6919;
-118.8000;0.4917;0.6757;
-118.5000;0.4933;0.6826;
-118.2000;0.4917;0.6780;
-117.9000;0.4949;0.6873;
-117.6000;0.4917;0.6803;
-117.3000;0.4925;0.6850;
-117.0000;0.4917;0.6850;
-116.7000;0.4925;0.6757;
-116.4000;0.4908;0.6780;
-116.1000;0.4917;0.6896;
-115.8000;0.4917;0.6780;
-115.5000;0.4925;0.6734;
-115.2000;0.4908;0.6710;
-114.9000;0.4941;0.6896;
-114.6000;0.4917;0.6896;
-114.3000;0.4925;0.6943;
-114.0000;0.4917;0.6943;
-113.7000;0.4965;0.6966;
-113.4000;0.4925;0.6826;
-113.1000;0.4925;0.6757;
-112.8000;0.4941;0.6734;
-112.5000;0.4925;0.6618;
-112.2000;0.4925;0.6525;
-111.9000;0.4908;0.6409;
-111.6000;0.4892;0.6432;
-111.3000;0.4933;0.6501;
-111.0000;0.4917;0.6455;
-110.7000;0.4917;0.6409;
-110.4000;0.4917;0.6409;
-110.1000;0.4900;0.6478;
-109.8000;0.4925;0.6548;
-109.5000;0.4917;0.6571;
-109.2000;0.4908;0.6687;
-108.9000;0.4925;0.6664;
-108.6000;0.4917;0.6710;
-108.3000;0.4925;0.6734;
-108.0000;0.4941;0.6780;
-107.7000;0.4917;0.6803;
-107.4000;0.4933;0.6780;
-107.1000;0.4933;0.6780;
-106.8000;0.4933;0.6757;
-106.5000;0.4917;0.6664;
-106.2000;0.4908;0.6687;
-105.9000;0.4941;0.6734;
-105.6000;0.4925;0.6734;
-105.3000;0.4908;0.6734;
-105.0000;0.4933;0.6803;
-104.7000;0.4941;0.6873;
-104.4000;0.4917;0.6850;
-104.1000;0.4892;0.6826;
-103.8000;0.4900;0.6826;
-103.5000;0.4941;0.6826;
-103.2000;0.4933;0.6803;
-102.9000;0.4941;0.6757;
-102.6000;0.4925;0.6734;
-102.3000;0.4925;0.6710;
-102.0000;0.4925;0.6664;
-101.7000;0.4917;0.6757;
-101.4000;0.4900;0.6757;
-101.1000;0.4917;0.6780;
-100.8000;0.4892;0.6873;
-100.5000;0.4908;0.6803;
-100.2000;0.4892;0.6757;
-99.9000;0.4868;0.6594;
-99.6000;0.4892;0.6641;
-99.3000;0.4908;0.6803;
-99.0000;0.4949;0.6850;
-98.7000;0.4908;0.6734;
-98.4000;0.4933;0.6803;
-98.1000;0.4900;0.6780;
-97.8000;0.4925;0.6803;
-97.5000;0.4941;0.6803;
-97.2000;0.4925;0.6757;
-96.9000;0.4933;0.6710;
-96.6000;0.4925;0.6734;
-96.3000;0.4908;0.6757;
-96.0000;0.4925;0.6734;
-95.7000;0.4900;0.6757;
-95.4000;0.4917;0.6850;
-95.1000;0.4917;0.6803;
-94.8000;0.4917;0.6803;
-94.5000;0.4949;0.6826;
-94.2000;0.4917;0.6780;
-93.9000;0.4933;0.6710;
-93.6000;0.4925;0.6641;
-93.3000;0.4925;0.6664;
-93.0000;0.4933;0.6641;
-92.7000;0.4900;0.6548;
-92.4000;0.4941;0.6687;
-92.1000;0.4908;0.6687;
-91.8000;0.4933;0.6710;
-91.5000;0.4925;0.6641;
-91.2000;0.4900;0.6548;
-90.9000;0.4892;0.6641;
-90.6000;0.4957;0.6803;
-90.3000;0.4990;0.6896;
-90.0000;0.4908;0.6664;
-89.7000;0.4965;0.6803;
-89.4000;0.4908;0.6710;
-89.1000;0.4908;0.6757;
-88.8000;0.4933;0.6803;
-88.5000;0.4908;0.6803;
-88.2000;0.4925;0.6687;
-87.9000;0.4941;0.6571;
-87.6000;0.4908;0.6409;
-87.3000;0.4917;0.6385;
-87.0000;0.4941;0.6409;
-86.7000;0.4908;0.6409;
-86.4000;0.4900;0.6385;
-86.1000;0.4933;0.6455;
-85.8000;0.5022;0.6734;
-85.5000;0.4908;0.6618;
-85.2000;0.4908;0.6525;
-84.9000;0.4908;0.6525;
-84.6000;0.4868;0.6362;
-84.3000;0.4933;0.6501;
-84.0000;0.4949;0.6548;
-83.7000;0.4941;0.6548;
-83.4000;0.4917;0.6501;
-83.1000;0.4925;0.6594;
-82.8000;0.4933;0.6641;
-82.5000;0.4892;0.6641;
-82.2000;0.4941;0.6710;
-81.9000;0.4941;0.6618;
-81.6000;0.5031;0.6780;
-81.3000;0.4933;0.6548;
-81.0000;0.4917;0.6525;
-80.7000;0.4925;0.6501;
-80.4000;0.4933;0.6525;
-80.1000;0.4908;0.6478;
-79.8000;0.4908;0.6455;
-79.5000;0.4917;0.6478;
-79.2000;0.4908;0.6571;
-78.9000;0.5014;0.6919;
-78.6000;0.4876;0.6571;
-78.3000;0.4900;0.6594;
-78.0000;0.4908;0.6618;
-77.7000;0.4900;0.6618;
-77.4000;0.4917;0.6571;
-77.1000;0.4860;0.6409;
-76.8000;0.4933;0.6571;
-76.5000;0.4925;0.6525;
-76.2000;0.4908;0.6525;
-75.9000;0.4917;0.6618;
-75.6000;0.4941;0.6687;
-75.3000;0.4933;0.6780;
-75.0000;0.4990;0.6943;
-74.7000;0.4949;0.6826;
-74.4000;0.4925;0.6757;
-74.1000;0.4917;0.6687;
-73.8000;0.4933;0.6618;
-73.5000;0.4933;0.6594;
-73.2000;0.4917;0.6571;
-72.9000;0.4933;0.6501;
-72.6000;0.4917;0.6478;
-72.3000;0.4892;0.6501;
-72.0000;0.4949;0.6687;
-71.7000;0.4876;0.6501;
-71.4000;0.4917;0.6525;
-71.1000;0.4908;0.6525;
-70.8000;0.4908;0.6618;
-70.5000;0.4908;0.6571;
-70.2000;0.4917;0.6618;
-69.9000;0.4917;0.6571;
-69.6000;0.4900;0.6571;
-69.3000;0.4917;0.6687;
-69.0000;0.4933;0.6525;
-68.7000;0.4917;0.6455;
-68.4000;0.4908;0.6525;
-68.1000;0.4917;0.6478;
-67.8000;0.4900;0.6501;
-67.5000;0.4941;0.6664;
-67.2000;0.4884;0.6455;
-66.9000;0.4933;0.6571;
-66.6000;0.4917;0.6641;
-66.3000;0.4900;0.6501;
-66.0000;0.4941;0.6525;
-65.7000;0.4900;0.6409;
-65.4000;0.4908;0.6362;
-65.1000;0.4900;0.6362;
-64.8000;0.4900;0.6316;
-64.5000;0.4884;0.6362;
-64.2000;0.4925;0.6455;
-63.9000;0.4917;0.6385;
-63.6000;0.4835;0.6223;
-63.3000;0.4884;0.6409;
-63.0000;0.4917;0.6455;
-62.7000;0.4949;0.6571;
-62.4000;0.4917;0.6501;
-62.1000;0.4933;0.6525;
-61.8000;0.4933;0.6571;
-61.5000;0.4917;0.6501;
-61.2000;0.4933;0.6478;
-60.9000;0.4933;0.6525;
-60.6000;0.4917;0.6571;
-60.3000;0.4892;0.6478;
-60.0000;0.4925;0.6478;
-59.7000;0.4965;0.6618;
-59.4000;0.4908;0.6501;
-59.1000;0.4917;0.6455;
-58.8000;0.4917;0.6501;
-58.5000;0.4892;0.6501;
-58.2000;0.4892;0.6594;
-57.9000;0.4917;0.6664;
-57.6000;0.4933;0.6687;
-57.3000;0.4892;0.6618;
-57.0000;0.4925;0.6664;
-56.7000;0.4925;0.6687;
-56.4000;0.4908;0.6710;
-56.1000;0.4925;0.6687;
-55.8000;0.4892;0.6618;
-55.5000;0.4884;0.6501;
-55.2000;0.4908;0.6548;
-54.9000;0.4949;0.6734;
-54.6000;0.4900;0.6571;
-54.3000;0.4892;0.6501;
-54.0000;0.4900;0.6571;
-53.7000;0.4925;0.6757;
-53.4000;0.4917;0.6687;
-53.1000;0.4917;0.6687;
-52.8000;0.4925;0.6757;
-52.5000;0.4925;0.6780;
-52.2000;0.4925;0.6873;
-51.9000;0.4957;0.6966;
-51.6000;0.4933;0.6850;
-51.3000;0.4917;0.6826;
-51.0000;0.4917;0.6919;
-50.7000;0.4908;0.6873;
-50.4000;0.4917;0.6803;
-50.1000;0.4917;0.6734;
-49.8000;0.4917;0.6757;
-49.5000;0.4982;0.6826;
-49.2000;0.4941;0.6641;
-48.9000;0.4917;0.6548;
-48.6000;0.4982;0.6710;
-48.3000;0.4917;0.6525;
-48.0000;0.4941;0.6548;
-47.7000;0.4851;0.6292;
-47.4000;0.4925;0.6525;
-47.1000;0.4941;0.6501;
-46.8000;0.4917;0.6455;
-46.5000;0.4925;0.6548;
-46.2000;0.4933;0.6618;
-45.9000;0.4941;0.6664;
-45.6000;0.4925;0.6594;
-45.3000;0.4908;0.6478;
-45.0000;0.4925;0.6548;
-44.7000;0.4941;0.6548;
-44.4000;0.4925;0.6478;
-44.1000;0.4917;0.6525;
-43.8000;0.4908;0.6478;
-43.5000;0.4917;0.6501;
-43.2000;0.4917;0.6525;
-42.9000;0.4917;0.6618;
-42.6000;0.4892;0.6548;
-42.3000;0.4892;0.6455;
-42.0000;0.4941;0.6501;
-41.7000;0.4917;0.6409;
-41.4000;0.4917;0.6385;
-41.1000;0.4925;0.6455;
-40.8000;0.4892;0.6385;
-40.5000;0.4900;0.6548;
-40.2000;0.4908;0.6594;
-39.9000;0.4917;0.6571;
-39.6000;0.4933;0.6618;
-39.3000;0.4908;0.6478;
-39.0000;0.4925;0.6478;
-38.7000;0.4908;0.6432;
-38.4000;0.4957;0.6594;
-38.1000;0.4941;0.6525;
-37.8000;0.4925;0.6548;
-37.5000;0.4974;0.6710;
-37.2000;0.4933;0.6641;
-36.9000;0.4925;0.6710;
-36.6000;0.4917;0.6594;
-36.3000;0.4917;0.6478;
-36.0000;0.4941;0.6525;
-35.7000;0.4957;0.6548;
-35.4000;0.4933;0.6594;
-35.1000;0.4917;0.6478;
-34.8000;0.4908;0.6455;
-34.5000;0.4933;0.6548;
-34.2000;0.4917;0.6455;
-33.9000;0.4900;0.6339;
-33.6000;0.4908;0.6385;
-33.3000;0.4925;0.6571;
-33.0000;0.4908;0.6594;
-32.7000;0.4917;0.6571;
-32.4000;0.4925;0.6664;
-32.1000;0.4835;0.6432;
-31.8000;0.4933;0.6618;
-31.5000;0.4941;0.6710;
-31.2000;0.4925;0.6687;
-30.9000;0.4908;0.6618;
-30.6000;0.4892;0.6618;
-30.3000;0.4900;0.6618;
-30.0000;0.4949;0.6664;
-29.7000;0.4925;0.6548;
-29.4000;0.4925;0.6548;
-29.1000;0.4908;0.6548;
-28.8000;0.4908;0.6571;
-28.5000;0.4990;0.6850;
-28.2000;0.4933;0.6687;
-27.9000;0.4990;0.6896;
-27.6000;0.4860;0.6641;
-27.3000;0.4900;0.6710;
-27.0000;0.4876;0.6501;
-26.7000;0.4925;0.6687;
-26.4000;0.4876;0.6641;
-26.1000;0.4949;0.6664;
-25.8000;0.4908;0.6548;
-25.5000;0.4892;0.6571;
-25.2000;0.4917;0.6664;
-24.9000;0.4876;0.6525;
-24.6000;0.4925;0.6618;
-24.3000;0.4900;0.6548;
-24.0000;0.4925;0.6594;
-23.7000;0.4892;0.6525;
-23.4000;0.4908;0.6594;
-23.1000;0.4860;0.6548;
-22.8000;0.4908;0.6757;
-22.5000;0.4917;0.6780;
-22.2000;0.4908;0.6780;
-21.9000;0.4917;0.6664;
-21.6000;0.4900;0.6571;
-21.3000;0.4925;0.6664;
-21.0000;0.4892;0.6710;
-20.7000;0.4917;0.6734;
-20.4000;0.4908;0.6734;
-20.1000;0.4925;0.6734;
-19.8000;0.4908;0.6757;
-19.5000;0.4917;0.6757;
-19.2000;0.4933;0.6734;
-18.9000;0.4908;0.6664;
-18.6000;0.4941;0.6757;
-18.3000;0.4884;0.6664;
-18.0000;0.4908;0.6710;
-17.7000;0.4908;0.6687;
-17.4000;0.4908;0.6664;
-17.1000;0.4908;0.6664;
-16.8000;0.4925;0.6734;
-16.5000;0.4941;0.6780;
-16.2000;0.4917;0.6734;
-15.9000;0.4949;0.6873;
-15.6000;0.4876;0.6803;
-15.3000;0.4892;0.6826;
-15.0000;0.4933;0.6943;
-14.7000;0.4892;0.6780;
-14.4000;0.4908;0.6896;
-14.1000;0.4892;0.6850;
-13.8000;0.4941;0.6943;
-13.5000;0.4843;0.6687;
-13.2000;0.4908;0.6873;
-12.9000;0.4900;0.6896;
-12.6000;0.4892;0.6826;
-12.3000;0.4900;0.6780;
-12.0000;0.4908;0.6780;
-11.7000;0.4941;0.6850;
-11.4000;0.4908;0.6780;
-11.1000;0.4925;0.6641;
-10.8000;0.4908;0.6687;
-10.5000;0.4908;0.6641;
-10.2000;0.4941;0.6757;
-9.9000;0.4917;0.6664;
-9.6000;0.4900;0.6664;
-9.3000;0.4917;0.6687;
-9.0000;0.4900;0.6757;
-8.7000;0.4925;0.6873;
-8.4000;0.4925;0.6850;
-8.1000;0.4892;0.6734;
-7.8000;0.4900;0.6803;
-7.5000;0.4925;0.6896;
-7.2000;0.4827;0.6687;
-6.9000;0.4892;0.6873;
-6.6000;0.4917;0.6966;
-6.3000;0.4933;0.6943;
-6.0000;0.4917;0.6919;
-5.7000;0.4908;0.6919;
-5.4000;0.4933;0.6919;
-5.1000;0.4835;0.6710;
-4.8000;0.4917;0.6943;
-4.5000;0.4917;0.7012;
-4.2000;0.4892;0.6966;
-3.9000;0.4957;0.7082;
-3.6000;0.4917;0.6966;
-3.3000;0.4925;0.6896;
-3.0000;0.4917;0.6757;
-2.7000;0.4917;0.6710;
-2.4000;0.4827;0.6548;
-2.1000;0.5006;0.6989;
-1.8000;0.4917;0.6780;
-1.5000;0.4933;0.6873;
-1.2000;0.4925;0.6896;
-0.9000;0.4908;0.6757;
-0.6000;0.4892;0.6757;
-0.3000;0.4884;0.6757;
0.0000;0.4884;0.6757;
0.3000;0.5031;0.6525;
0.6000;0.5283;0.6919;
0.9000;0.5462;0.7128;
1.2000;0.5625;0.7546;
1.5000;0.5722;0.7848;
1.8000;0.5820;0.7987;
2.1000;0.5934;0.8289;
2.4000;0.5950;0.8313;
2.7000;0.5983;0.8452;
3.0000;0.6032;0.8521;
3.3000;0.6040;0.8614;
3.6000;0.6113;0.8800;
3.9000;0.6121;0.8870;
4.2000;0.6154;0.8939;
4.5000;0.6178;0.8963;
4.8000;0.6170;0.8870;
5.1000;0.6243;0.9079;
5.4000;0.6219;0.8963;
5.7000;0.6268;0.8963;
6.0000;0.6309;0.8986;
6.3000;0.6317;0.8939;
6.6000;0.6317;0.8986;
6.9000;0.6414;0.9102;
7.2000;0.6365;0.8986;
7.5000;0.6374;0.9009;
7.8000;0.6406;0.9056;
8.1000;0.6414;0.9009;
8.4000;0.6422;0.8986;
8.7000;0.6455;0.8986;
9.0000;0.6447;0.8847;
9.3000;0.6479;0.8963;
9.6000;0.6488;0.8963;
9.9000;0.6520;0.9125;
10.2000;0.6561;0.9079;
10.5000;0.6536;0.9009;
10.8000;0.6512;0.8893;
11.1000;0.6610;0.9032;
11.4000;0.6593;0.9032;
11.7000;0.6577;0.8870;
12.0000;0.6593;0.8847;
12.3000;0.6626;0.8870;
12.6000;0.6626;0.8823;
12.9000;0.6618;0.8823;
13.2000;0.6659;0.8939;
13.5000;0.6667;0.8870;
13.8000;0.6675;0.8893;
14.1000;0.6667;0.8870;
14.4000;0.6683;0.8893;
14.7000;0.6707;0.8777;
15.0000;0.6732;0.8777;
15.3000;0.6740;0.8847;
15.6000;0.6748;0.8800;
15.9000;0.6675;0.8568;
16.2000;0.6756;0.8800;
16.5000;0.6772;0.8661;
16.8000;0.6805;0.8777;
17.1000;0.6813;0.8800;
17.4000;0.6813;0.8800;
17.7000;0.6813;0.8754;
18.0000;0.6821;0.8754;
18.3000;0.6911;0.9056;
18.6000;0.6886;0.9032;
18.9000;0.6846;0.8986;
19.2000;0.6960;0.9288;
19.5000;0.6862;0.9056;
19.8000;0.6878;0.9032;
20.1000;0.6870;0.8916;
20.4000;0.6927;0.8986;
20.7000;0.6903;0.8893;
21.0000;0.6919;0.8893;
21.3000;0.6927;0.8870;
21.6000;0.6943;0.8893;
21.9000;0.6943;0.8893;
22.2000;0.6943;0.8800;
22.5000;0.6927;0.8847;
22.8000;0.6927;0.8823;
23.1000;0.6960;0.8800;
23.4000;0.6943;0.8777;
23.7000;0.6968;0.8754;
24.0000;0.6952;0.8754;
24.3000;0.6968;0.8777;
24.6000;0.7000;0.8847;
24.9000;0.6984;0.8823;
25.2000;0.6943;0.8754;
25.5000;0.7000;0.8893;
25.8000;0.7041;0.8986;
26.1000;0.7017;0.8939;
26.4000;0.7009;0.8893;
26.7000;0.7025;0.9032;
27.0000;0.7049;0.9056;
27.3000;0.7009;0.8963;
27.6000;0.7041;0.8939;
27.9000;0.7017;0.9079;
28.2000;0.7041;0.9009;
28.5000;0.7033;0.8870;
28.8000;0.7057;0.8823;
29.1000;0.7033;0.8800;
29.4000;0.7049;0.8730;
29.7000;0.7090;0.8800;
30.0000;0.7082;0.8684;
30.3000;0.7066;0.8591;
30.6000;0.7082;0.8545;
30.9000;0.7090;0.8638;
31.2000;0.7114;0.8730;
31.5000;0.7123;0.8707;
31.8000;0.7106;0.8638;
32.1000;0.7114;0.8614;
32.4000;0.7098;0.8568;
32.7000;0.7074;0.8591;
33.0000;0.7098;0.8684;
33.3000;0.7090;0.8568;
33.6000;0.7074;0.8545;
33.9000;0.7123;0.8730;
34.2000;0.7123;0.8684;
34.5000;0.7131;0.8800;
34.8000;0.7114;0.8754;
35.1000;0.7147;0.8870;
35.4000;0.7139;0.8870;
35.7000;0.7155;0.8939;
36.0000;0.7131;0.8986;
36.3000;0.7163;0.9102;
36.6000;0.7123;0.8986;
36.9000;0.7131;0.9009;
37.2000;0.7155;0.8963;
37.5000;0.7155;0.8916;
37.8000;0.7147;0.8916;
38.1000;0.7147;0.8893;
38.4000;0.7155;0.8939;
38.7000;0.7155;0.8939;
39.0000;0.7163;0.8986;
39.3000;0.7147;0.8916;
39.6000;0.7171;0.9056;
39.9000;0.7179;0.9056;
40.2000;0.7171;0.8963;
40.5000;0.7163;0.8916;
40.8000;0.7131;0.8777;
41.1000;0.7179;0.8870;
41.4000;0.7171;0.8893;
41.7000;0.7163;0.8963;
42.0000;0.7171;0.8963;
42.3000;0.7196;0.8986;
42.6000;0.7188;0.8916;
42.9000;0.7179;0.8870;
43.2000;0.7139;0.8847;
43.5000;0.7196;0.8893;
43.8000;0.7188;0.8870;
44.1000;0.7179;0.8893;
44.4000;0.7204;0.8916;
44.7000;0.7212;0.8939;
45.0000;0.7220;0.8986;
45.3000;0.7204;0.9056;
45.6000;0.7196;0.9079;
45.9000;0.7212;0.8986;
46.2000;0.7261;0.9079;
46.5000;0.7220;0.9056;
46.8000;0.7196;0.8986;
47.1000;0.7245;0.8963;
47.4000;0.7228;0.8939;
47.7000;0.7204;0.8847;
48.0000;0.7212;0.8777;
48.3000;0.7236;0.8823;
48.6000;0.7212;0.8823;
48.9000;0.7228;0.8823;
49.2000;0.7204;0.8800;
49.5000;0.7228;0.8870;
49.8000;0.7236;0.8963;
50.1000;0.7228;0.8916;
50.4000;0.7245;0.8870;
50.7000;0.7228;0.8963;
51.0000;0.7253;0.8986;
51.3000;0.7261;0.9032;
51.6000;0.7245;0.8893;
51.9000;0.7277;0.8963;
52.2000;0.7245;0.8800;
52.5000;0.7245;0.8707;
52.8000;0.7236;0.8684;
53.1000;0.7236;0.8591;
53.4000;0.7261;0.8684;
53.7000;0.7277;0.8777;
54.0000;0.7245;0.8684;
54.3000;0.7236;0.8730;
54.6000;0.7245;0.8800;
54.9000;0.7253;0.8916;
55.2000;0.7245;0.8870;
55.5000;0.7245;0.8800;
55.8000;0.7261;0.8870;
56.1000;0.7277;0.8870;
56.4000;0.7245;0.8777;
56.7000;0.7261;0.8823;
57.0000;0.7285;0.8823;
57.3000;0.7253;0.8777;
57.6000;0.7245;0.8730;
57.9000;0.7253;0.8707;
58.2000;0.7269;0.8777;
58.5000;0.7261;0.8777;
58.8000;0.7253;0.8777;
59.1000;0.7269;0.8800;
59.4000;0.7277;0.8823;
59.7000;0.7261;0.8800;
60.0000;0.7269;0.8730;
60.3000;0.7269;0.8730;
60.6000;0.7212;0.8591;
60.9000;0.7261;0.8684;
61.2000;0.7236;0.8661;
61.5000;0.7285;0.8847;
61.8000;0.7302;0.8870;
62.1000;0.7318;0.8916;
62.4000;0.7302;0.8823;
62.7000;0.7277;0.8823;
63.0000;0.7285;0.8870;
63.3000;0.7269;0.8916;
63.6000;0.7245;0.8823;
63.9000;0.7228;0.8800;
64.2000;0.7245;0.8777;
64.5000;0.7261;0.8800;
64.8000;0.7261;0.8730;
65.1000;0.7269;0.8684;
65.4000;0.7253;0.8707;
65.7000;0.7285;0.8823;
66.0000;0.7269;0.8847;
66.3000;0.7253;0.8847;
66.6000;0.7277;0.8916;
66.9000;0.7310;0.8963;
67.2000;0.7285;0.8847;
67.5000;0.7253;0.8847;
67.8000;0.7277;0.8893;
68.1000;0.7310;0.8986;
68.4000;0.7302;0.9032;
68.7000;0.7293;0.8963;
69.0000;0.7302;0.8986;
69.3000;0.7302;0.8870;
69.6000;0.7293;0.8823;
69.9000;0.7302;0.8754;
70.2000;0.7318;0.8847;
70.5000;0.7285;0.8800;
70.8000;0.7302;0.8730;
71.1000;0.7334;0.8777;
71.4000;0.7302;0.8684;
71.7000;0.7310;0.8777;
72.0000;0.7302;0.8730;
72.3000;0.7285;0.8730;
72.6000;0.7302;0.8614;
72.9000;0.7318;0.8661;
73.2000;0.7326;0.8684;
73.5000;0.7285;0.8568;
73.8000;0.7302;0.8591;
74.1000;0.7302;0.8661;
74.4000;0.7293;0.8684;
74.7000;0.7302;0.8823;
75.0000;0.7302;0.8823;
75.3000;0.7318;0.8800;
75.6000;0.7293;0.8777;
75.9000;0.7277;0.8707;
76.2000;0.7277;0.8638;
76.5000;0.7342;0.8684;
76.8000;0.7310;0.8591;
77.1000;0.7293;0.8661;
77.4000;0.7310;0.8614;
77.7000;0.7310;0.8661;
78.0000;0.7310;0.8730;
78.3000;0.7310;0.8800;
78.6000;0.7285;0.8730;
78.9000;0.7285;0.8730;
79.2000;0.7318;0.8661;
79.5000;0.7302;0.8684;
79.8000;0.7318;0.8684;
80.1000;0.7310;0.8568;
80.4000;0.7318;0.8638;
80.7000;0.7277;0.8475;
81.0000;0.7318;0.8591;
81.3000;0.7302;0.8568;
81.6000;0.7318;0.8568;
81.9000;0.7310;0.8475;
82.2000;0.7334;0.8475;
82.5000;0.7269;0.8359;
82.8000;0.7326;0.8475;
83.1000;0.7342;0.8545;
83.4000;0.7318;0.8568;
83.7000;0.7302;0.8614;
84.0000;0.7326;0.8684;
84.3000;0.7318;0.8730;
84.6000;0.7310;0.8730;
84.9000;0.7326;0.8800;
85.2000;0.7310;0.8800;
85.5000;0.7318;0.8823;
85.8000;0.7326;0.8777;
86.1000;0.7277;0.8730;
86.4000;0.7326;0.8823;
86.7000;0.7318;0.8823;
87.0000;0.7326;0.8800;
87.3000;0.7334;0.8614;
87.6000;0.7318;0.8521;
87.9000;0.7326;0.8429;
88.2000;0.7342;0.8498;
88.5000;0.7293;0.8452;
88.8000;0.7334;0.8568;
89.1000;0.7277;0.8498;
89.4000;0.7269;0.8614;
89.7000;0.7310;0.8823;
90.0000;0.7334;0.8963;
90.3000;0.7318;0.8939;
90.6000;0.7310;0.8963;
90.9000;0.7416;0.9125;
91.2000;0.7350;0.8847;
91.5000;0.7383;0.8847;
91.8000;0.7334;0.8870;
92.1000;0.7302;0.8800;
92.4000;0.7318;0.8916;
92.7000;0.7350;0.9079;
93.0000;0.7318;0.8963;
93.3000;0.7424;0.9172;
93.6000;0.7359;0.9032;
93.9000;0.7334;0.8986;
94.2000;0.7326;0.8916;
94.5000;0.7310;0.8777;
94.8000;0.7375;0.8777;
95.1000;0.7399;0.8800;
95.4000;0.7350;0.8661;
95.7000;0.7334;0.8707;
96.0000;0.7342;0.8823;
96.3000;0.7334;0.8916;
96.6000;0.7310;0.8939;
96.9000;0.7334;0.8893;
97.2000;0.7326;0.8847;
97.5000;0.7326;0.8847;
97.8000;0.7399;0.9079;
98.1000;0.7334;0.8870;
98.4000;0.7326;0.8777;
98.7000;0.7310;0.8614;
99.0000;0.7318;0.8591;
99.3000;0.7350;0.8684;
99.6000;0.7359;0.8684;
99.9000;0.7293;0.8568;
100.2000;0.7334;0.8591;
100.5000;0.7350;0.8661;
100.8000;0.7350;0.8730;
101.1000;0.7367;0.8823;
101.4000;0.7318;0.8754;
101.7000;0.7342;0.8800;
102.0000;0.7367;0.8800;
102.3000;0.7326;0.8777;
102.6000;0.7367;0.8777;
102.9000;0.7359;0.8823;
103.2000;0.7334;0.8754;
103.5000;0.7342;0.8754;
103.8000;0.7342;0.8870;
104.1000;0.7334;0.8916;
104.4000;0.7407;0.8986;
104.7000;0.7359;0.8893;
105.0000;0.7342;0.9009;
105.3000;0.7342;0.9032;
105.6000;0.7334;0.8870;
105.9000;0.7326;0.8777;
106.2000;0.7359;0.8893;
106.5000;0.7302;0.8730;
106.8000;0.7350;0.8823;
107.1000;0.7350;0.8777;
107.4000;0.7359;0.8893;
107.7000;0.7359;0.8893;
108.0000;0.7302;0.8754;
108.3000;0.7350;0.8823;
108.6000;0.7342;0.8777;
108.9000;0.7277;0.8545;
109.2000;0.7375;0.8591;
109.5000;0.7350;0.8568;
109.8000;0.7367;0.8638;
110.1000;0.7342;0.8638;
110.4000;0.7326;0.8568;
110.7000;0.7334;0.8661;
111.0000;0.7318;0.8591;
111.3000;0.7350;0.8730;
111.6000;0.7334;0.8684;
111.9000;0.7407;0.8870;
112.2000;0.7350;0.8730;
112.5000;0.7334;0.8777;
112.8000;0.7391;0.8870;
113.1000;0.7375;0.8870;
113.4000;0.7342;0.8754;
113.7000;0.7350;0.8684;
114.0000;0.7407;0.8777;
114.3000;0.7350;0.8661;
114.6000;0.7334;0.8707;
114.9000;0.7359;0.8684;
115.2000;0.7334;0.8684;
115.5000;0.7359;0.8684;
115.8000;0.7334;0.8684;
116.1000;0.7350;0.8661;
116.4000;0.7342;0.8591;
116.7000;0.7359;0.8684;
117.0000;0.7359;0.8707;
117.3000;0.7359;0.8661;
117.6000;0.7367;0.8591;
117.9000;0.7367;0.8638;
118.2000;0.7367;0.8614;
118.5000;0.7342;0.8638;
118.8000;0.7359;0.8707;
119.1000;0.7367;0.8730;
119.4000;0.7367;0.8638;
119.7000;0.7359;0.8614;
120.0000;0.7375;0.8638;
120.3000;0.7350;0.8591;
120.6000;0.7367;0.8614;
120.9000;0.7416;0.8730;
121.2000;0.7399;0.8684;
121.5000;0.7359;0.8568;
121.8000;0.7334;0.8452;
122.1000;0.7342;0.8521;
122.4000;0.7350;0.8545;
122.7000;0.7375;0.8614;
123.0000;0.7359;0.8638;
123.3000;0.7359;0.8614;
123.6000;0.7350;0.8568;
123.9000;0.7359;0.8521;
124.2000;0.7375;0.8614;
124.5000;0.7350;0.8568;
124.8000;0.7359;0.8521;
125.1000;0.7359;0.8521;
125.4000;0.7350;0.8498;
125.7000;0.7350;0.8614;
126.0000;0.7359;0.8591;
126.3000;0.7399;0.8707;
126.6000;0.7383;0.8730;
126.9000;0.7342;0.8707;
127.2000;0.7359;0.8707;
127.5000;0.7350;0.8684;
127.8000;0.7359;0.8638;
128.1000;0.7359;0.8684;
128.4000;0.7391;0.8754;
128.7000;0.7383;0.8684;
129.0000;0.7359;0.8521;
129.3000;0.7367;0.8498;
129.6000;0.7350;0.8568;
129.9000;0.7359;0.8568;
130.2000;0.7342;0.8545;
130.5000;0.7481;0.8939;
130.8000;0.7350;0.8545;
131.1000;0.7367;0.8591;
131.4000;0.7416;0.8638;
131.7000;0.7350;0.8521;
132.0000;0.7375;0.8521;
132.3000;0.7342;0.8382;
132.6000;0.7350;0.8475;
132.9000;0.7375;0.8638;
133.2000;0.7342;0.8568;
133.5000;0.7342;0.8545;
133.8000;0.7350;0.8638;
134.1000;0.7416;0.8754;
134.4000;0.7383;0.8684;
134.7000;0.7367;0.8684;
135.0000;0.7350;0.8638;
135.3000;0.7367;0.8614;
135.6000;0.7359;0.8521;
135.9000;0.7350;0.8475;
136.2000;0.7359;0.8498;
136.5000;0.7375;0.8521;
136.8000;0.7367;0.8568;
137.1000;0.7367;0.8591;
137.4000;0.7342;0.8614;
137.7000;0.7367;0.8777;
138.0000;0.7359;0.8777;
138.3000;0.7375;0.8754;
138.6000;0.7367;0.8800;
138.9000;0.7350;0.8730;
139.2000;0.7359;0.8730;
139.5000;0.7359;0.8777;
139.8000;0.7350;0.8777;
140.1000;0.7342;0.8638;
140.4000;0.7367;0.8638;
140.7000;0.7367;0.8614;
141.0000;0.7375;0.8614;
141.3000;0.7375;0.8591;
141.6000;0.7359;0.8568;
141.9000;0.7359;0.8568;
142.2000;0.7481;0.8777;
142.5000;0.7359;0.8521;
142.8000;0.7350;0.8429;
143.1000;0.7359;0.8452;
143.4000;0.7367;0.8521;
143.7000;0.7350;0.8568;
144.0000;0.7375;0.8730;
144.3000;0.7334;0.8661;
144.6000;0.7375;0.8707;
144.9000;0.7383;0.8638;
145.2000;0.7359;0.8707;
145.5000;0.7359;0.8730;
145.8000;0.7334;0.8568;
146.1000;0.7367;0.8661;
146.4000;0.7391;0.8707;
146.7000;0.7342;0.8591;
147.0000;0.7424;0.8847;
147.3000;0.7367;0.8730;
147.6000;0.7334;0.8591;
147.9000;0.7375;0.8591;
148.2000;0.7383;0.8730;
148.5000;0.7375;0.8730;
148.8000;0.7334;0.8591;
149.1000;0.7375;0.8638;
149.4000;0.7424;0.8823;
149.7000;0.7350;0.8661;
150.0000;0.7367;0.8684;
150.3000;0.7350;0.8684;
150.6000;0.7359;0.8614;
150.9000;0.7350;0.8568;
151.2000;0.7383;0.8661;
151.5000;0.7318;0.8521;
151.8000;0.7350;0.8638;
152.1000;0.7350;0.8638;
152.4000;0.7407;0.8777;
152.7000;0.7383;0.8730;
153.0000;0.7359;0.8591;
153.3000;0.7367;0.8614;
153.6000;0.7367;0.8684;
153.9000;0.7375;0.8730;
154.2000;0.7367;0.8707;
154.5000;0.7310;0.8568;
154.8000;0.7416;0.8893;
155.1000;0.7367;0.8847;
155.4000;0.7359;0.8777;
155.7000;0.7448;0.8939;
156.0000;0.7359;0.8777;
156.3000;0.7456;0.9009;
156.6000;0.7375;0.8777;
156.9000;0.7367;0.8754;
157.2000;0.7416;0.8870;
157.5000;0.7350;0.8754;
157.8000;0.7375;0.8916;
158.1000;0.7375;0.8893;
158.4000;0.7407;0.9032;
158.7000;0.7375;0.8939;
159.0000;0.7350;0.8939;
159.3000;0.7383;0.8963;
159.6000;0.7383;0.8870;
159.9000;0.7383;0.8893;
160.2000;0.7383;0.8893;
160.5000;0.7375;0.8847;
160.8000;0.7391;0.8916;
161.1000;0.7367;0.8823;
161.4000;0.7375;0.8823;
161.7000;0.7383;0.8916;
162.0000;0.7383;0.8847;
162.3000;0.7367;0.8870;
162.6000;0.7367;0.8823;
162.9000;0.7367;0.8823;
163.2000;0.7367;0.8800;
163.5000;0.7489;0.9079;
163.8000;0.7375;0.8823;
164.1000;0.7375;0.8800;
164.4000;0.7367;0.8777;
164.7000;0.7391;0.8870;
165.0000;0.7334;0.8684;
165.3000;0.7383;0.8707;
165.6000;0.7350;0.8707;
165.9000;0.7367;0.8754;
166.2000;0.7383;0.8777;
166.5000;0.7375;0.8870;
166.8000;0.7350;0.8823;
167.1000;0.7375;0.8730;
167.4000;0.7399;0.8661;
167.7000;0.7383;0.8661;
168.0000;0.7367;0.8614;
168.3000;0.7375;0.8661;
168.6000;0.7383;0.8707;
168.9000;0.7391;0.8707;
169.2000;0.7375;0.8614;
169.5000;0.7375;0.8568;
169.8000;0.7367;0.8614;
170.1000;0.7367;0.8591;
170.4000;0.7391;0.8638;
170.7000;0.7367;0.8614;
171.0000;0.7367;0.8521;
171.3000;0.7367;0.8591;
171.6000;0.7375;0.8638;
171.9000;0.7367;0.8545;
172.2000;0.7407;0.8614;
172.5000;0.7375;0.8638;
172.8000;0.7383;0.8684;
173.1000;0.7375;0.8638;
173.4000;0.7350;0.8475;
173.7000;0.7399;0.8568;
174.0000;0.7391;0.8591;
174.3000;0.7375;0.8545;
174.6000;0.7367;0.8475;
174.9000;0.7367;0.8498;
175.2000;0.7424;0.8638;
175.5000;0.7383;0.8638;
175.8000;0.7375;0.8638;
176.1000;0.7375;0.8730;
176.4000;0.7424;0.8893;
176.7000;0.7359;0.8707;
177.0000;0.7375;0.8847;
177.3000;0.7350;0.8777;
177.6000;0.7350;0.8730;
177.9000;0.7375;0.8730;
178.2000;0.7375;0.8730;
178.5000;0.7448;0.8870;
178.8000;0.7375;0.8707;
179.1000;0.7391;0.8800;
179.4000;0.7359;0.8730;
179.7000;0.7383;0.8730;
180.0000;0.7375;0.8661;
180.3000;0.7367;0.8684;
180.6000;0.7375;0.8707;
180.9000;0.7367;0.8638;
181.2000;0.7383;0.8591;
181.5000;0.7359;0.8521;
181.8000;0.7318;0.8382;
182.1000;0.7367;0.8452;
182.4000;0.7334;0.8429;
182.7000;0.7367;0.8638;
183.0000;0.7367;0.8591;
183.3000;0.7367;0.8638;
183.6000;0.7367;0.8661;
183.9000;0.7383;0.8684;
184.2000;0.7367;0.8638;
184.5000;0.7432;0.8847;
184.8000;0.7383;0.8754;
185.1000;0.7285;0.8568;
185.4000;0.7448;0.8870;
185.7000;0.7399;0.8777;
186.0000;0.7383;0.8661;
186.3000;0.7399;0.8707;
186.6000;0.7350;0.8661;
186.9000;0.7350;0.8684;
187.2000;0.7391;0.8754;
187.5000;0.7334;0.8661;
187.8000;0.7375;0.8754;
188.1000;0.7383;0.8754;
188.4000;0.7375;0.8777;
188.7000;0.7375;0.8707;
189.0000;0.7367;0.8707;
189.3000;0.7367;0.8800;
189.6000;0.7383;0.8823;
189.9000;0.7375;0.8847;
190.2000;0.7424;0.9032;
190.5000;0.7375;0.8893;
190.8000;0.7391;0.8893;
191.1000;0.7367;0.8847;
191.4000;0.7359;0.8870;
191.7000;0.7359;0.8800;
192.0000;0.7342;0.8730;
192.3000;0.7342;0.8684;
192.6000;0.7375;0.8707;
192.9000;0.7359;0.8730;
193.2000;0.7399;0.8800;
193.5000;0.7375;0.8661;
193.8000;0.7359;0.8568;
194.1000;0.7367;0.8614;
194.4000;0.7383;0.8638;
194.7000;0.7375;0.8568;
195.0000;0.7367;0.8521;
195.3000;0.7375;0.8568;
195.6000;0.7383;0.8661;
195.9000;0.7350;0.8591;
196.2000;0.7383;0.8684;
196.5000;0.7399;0.8823;
196.8000;0.7375;0.8730;
197.1000;0.7391;0.8707;
197.4000;0.7391;0.8777;
197.7000;0.7342;0.8707;
198.0000;0.7375;0.8684;
198.3000;0.7407;0.8707;
198.6000;0.7399;0.8661;
198.9000;0.7375;0.8498;
199.2000;0.7375;0.8568;
199.5000;0.7391;0.8591;
199.8000;0.7383;0.8545;
200.1000;0.7375;0.8475;
200.4000;0.7407;0.8568;
200.7000;0.7375;0.8452;
201.0000;0.7383;0.8568;
201.3000;0.7342;0.8568;
201.6000;0.7359;0.8521;
201.9000;0.7359;0.8568;
202.2000;0.7399;0.8638;
202.5000;0.7342;0.8498;
202.8000;0.7375;0.8568;
203.1000;0.7448;0.8754;
203.4000;0.7375;0.8498;
203.7000;0.7391;0.8429;
204.0000;0.7440;0.8591;
204.3000;0.7367;0.8591;
204.6000;0.7432;0.8777;
204.9000;0.7285;0.8521;
205.2000;0.7375;0.8684;
205.5000;0.7334;0.8591;
205.8000;0.7432;0.8823;
206.1000;0.7424;0.8754;
206.4000;0.7391;0.8638;
206.7000;0.7359;0.8638;
207.0000;0.7399;0.8661;
207.3000;0.7391;0.8754;
207.6000;0.7375;0.8777;
207.9000;0.7407;0.8823;
208.2000;0.7367;0.8754;
208.5000;0.7375;0.8800;
208.8000;0.7375;0.8800;
209.1000;0.7326;0.8684;
209.4000;0.7334;0.8730;
209.7000;0.7359;0.8777;
210.0000;0.7375;0.8800;
210.3000;0.7367;0.8707;
210.6000;0.7367;0.8661;
210.9000;0.7391;0.8707;
211.2000;0.7367;0.8684;
211.5000;0.7375;0.8684;
211.8000;0.7367;0.8684;
212.1000;0.7375;0.8730;
212.4000;0.7383;0.8754;
212.7000;0.7383;0.8707;
213.0000;0.7391;0.8661;
213.3000;0.7383;0.8614;
213.6000;0.7375;0.8638;
213.9000;0.7383;0.8568;
214.2000;0.7375;0.8568;
214.5000;0.7367;0.8591;
214.8000;0.7383;0.8684;
215.1000;0.7399;0.8707;
215.4000;0.7375;0.8730;
215.7000;0.7391;0.8684;
216.0000;0.7383;0.8707;
216.3000;0.7399;0.8893;
216.6000;0.7375;0.8754;
216.9000;0.7375;0.8730;
217.2000;0.7375;0.8707;
217.5000;0.7391;0.8870;
217.8000;0.7473;0.9172;
218.1000;0.7375;0.8986;
218.4000;0.7359;0.8916;
218.7000;0.7350;0.8963;
219.0000;0.7367;0.8939;
219.3000;0.7375;0.8986;
219.6000;0.7375;0.8939;
219.9000;0.7367;0.8893;
220.2000;0.7375;0.8893;
220.5000;0.7367;0.8893;
220.8000;0.7375;0.8939;
221.1000;0.7367;0.9032;
221.4000;0.7391;0.9056;
221.7000;0.7383;0.9032;
222.0000;0.7375;0.8939;
222.3000;0.7399;0.8963;
222.6000;0.7399;0.9009;
222.9000;0.7375;0.8986;
223.2000;0.7367;0.8916;
223.5000;0.7359;0.8870;
223.8000;0.7391;0.8916;
224.1000;0.7383;0.8777;
224.4000;0.7310;0.8707;
224.7000;0.7326;0.8638;
225.0000;0.7367;0.8754;
225.3000;0.7399;0.8847;
225.6000;0.7448;0.8963;
225.9000;0.7375;0.8777;
226.2000;0.7367;0.8800;
226.5000;0.7375;0.8800;
226.8000;0.7375;0.8847;
227.1000;0.7350;0.8870;
227.4000;0.7383;0.9056;
227.7000;0.7399;0.9125;
228.0000;0.7448;0.9218;
228.3000;0.7416;0.9079;
228.6000;0.7391;0.9032;
228.9000;0.7383;0.9056;
229.2000;0.7383;0.8963;
229.5000;0.7367;0.8893;
229.8000;0.7359;0.8893;
230.1000;0.7367;0.8916;
230.4000;0.7375;0.8847;
230.7000;0.7375;0.8684;
231.0000;0.7383;0.8754;
231.3000;0.7375;0.8800;
231.6000;0.7399;0.8847;
231.9000;0.7367;0.8777;
232.2000;0.7391;0.8847;
232.5000;0.7375;0.8823;
232.8000;0.7391;0.8916;
233.1000;0.7375;0.8823;
233.4000;0.7375;0.8777;
233.7000;0.7391;0.8800;
234.0000;0.7391;0.8661;
234.3000;0.7383;0.8638;
234.6000;0.7375;0.8638;
234.9000;0.7359;0.8545;
235.2000;0.7359;0.8521;
235.5000;0.7367;0.8568;
235.8000;0.7407;0.8707;
236.1000;0.7375;0.8661;
236.4000;0.7350;0.8591;
236.7000;0.7399;0.8707;
237.0000;0.7375;0.8754;
237.3000;0.7440;0.8916;
237.6000;0.7383;0.8661;
237.9000;0.7367;0.8638;
238.2000;0.7310;0.8545;
238.5000;0.7375;0.8707;
238.8000;0.7383;0.8684;
239.1000;0.7383;0.8638;
239.4000;0.7424;0.8800;
239.7000;0.7432;0.8847;
240.0000;0.7375;0.8684;
240.3000;0.7375;0.8661;
240.6000;0.7391;0.8638;
240.9000;0.7350;0.8591;
241.2000;0.7367;0.8614;
241.5000;0.7359;0.8591;
241.8000;0.7293;0.8452;
242.1000;0.7342;0.8545;
242.4000;0.7383;0.8661;
242.7000;0.7383;0.8684;
243.0000;0.7375;0.8684;
243.3000;0.7261;0.8452;
243.6000;0.7367;0.8730;
243.9000;0.7367;0.8638;
244.2000;0.7375;0.8638;
244.5000;0.7407;0.8730;
244.8000;0.7375;0.8707;
245.1000;0.7391;0.8777;
245.4000;0.7375;0.8777;
245.7000;0.7359;0.8730;
246.0000;0.7391;0.8730;
246.3000;0.7350;0.8591;
246.6000;0.7399;0.8754;
246.9000;0.7383;0.8730;
247.2000;0.7350;0.8684;
247.5000;0.7375;0.8661;
247.8000;0.7416;0.8870;
248.1000;0.7367;0.8777;
248.4000;0.7375;0.8800;
248.7000;0.7383;0.8730;
249.0000;0.7350;0.8591;
249.3000;0.7424;0.8823;
249.6000;0.7383;0.8614;
249.9000;0.7367;0.8638;
250.2000;0.7367;0.8707;
250.5000;0.7391;0.8823;
250.8000;0.7383;0.8893;
251.1000;0.7367;0.8823;
251.4000;0.7375;0.8847;
251.7000;0.7375;0.8777;
252.0000;0.7383;0.8777;
252.3000;0.7391;0.8777;
252.6000;0.7391;0.8823;
252.9000;0.7375;0.8800;
253.2000;0.7383;0.8823;
253.5000;0.7391;0.8777;
253.8000;0.7456;0.8916;
254.1000;0.7391;0.8870;
254.4000;0.7391;0.8823;
254.7000;0.7383;0.8707;
255.0000;0.7367;0.8661;
255.3000;0.7367;0.8661;
255.6000;0.7375;0.8545;
255.9000;0.7383;0.8498;
256.2000;0.7375;0.8498;
256.5000;0.7383;0.8545;
256.8000;0.7391;0.8638;
257.1000;0.7375;0.8638;
257.4000;0.7383;0.8545;
257.7000;0.7367;0.8568;
258.0000;0.7407;0.8754;
258.3000;0.7391;0.8684;
258.6000;0.7391;0.8707;
258.9000;0.7399;0.8684;
259.2000;0.7383;0.8614;
259.5000;0.7383;0.8638;
259.8000;0.7399;0.8614;
260.1000;0.7383;0.8498;
260.4000;0.7334;0.8475;
260.7000;0.7407;0.8591;
261.0000;0.7383;0.8568;
261.3000;0.7367;0.8661;
261.6000;0.7367;0.8661;
261.9000;0.7383;0.8684;
262.2000;0.7399;0.8777;
262.5000;0.7359;0.8730;
262.8000;0.7334;0.8591;
263.1000;0.7367;0.8707;
263.4000;0.7359;0.8684;
263.7000;0.7359;0.8777;
264.0000;0.7440;0.9056;
264.3000;0.7391;0.8893;
264.6000;0.7383;0.8916;
264.9000;0.7350;0.8754;
265.2000;0.7367;0.8823;
265.5000;0.7383;0.8847;
265.8000;0.7407;0.8847;
266.1000;0.7375;0.8777;
266.4000;0.7375;0.8777;
266.7000;0.7367;0.8707;
267.0000;0.7375;0.8777;
267.3000;0.7383;0.8823;
267.6000;0.7399;0.8847;
267.9000;0.7375;0.8823;
268.2000;0.7391;0.8893;
268.5000;0.7432;0.8939;
268.8000;0.7383;0.8777;
269.1000;0.7367;0.8800;
269.4000;0.7375;0.8777;
269.7000;0.7416;0.8893;
270.0000;0.7383;0.8777;
270.3000;0.7375;0.8730;
270.6000;0.7334;0.8684;
270.9000;0.7399;0.8823;
271.2000;0.7399;0.8777;
271.5000;0.7383;0.8661;
271.8000;0.7383;0.8614;
272.1000;0.7367;0.8545;
272.4000;0.7399;0.8638;
272.7000;0.7375;0.8638;
273.0000;0.7350;0.8591;
273.3000;0.7375;0.8707;
273.6000;0.7383;0.8684;
273.9000;0.7383;0.8870;
274.2000;0.7440;0.9032;
274.5000;0.7375;0.8893;
274.8000;0.7375;0.8870;
275.1000;0.7456;0.8963;
275.4000;0.7375;0.8823;
275.7000;0.7367;0.8777;
276.0000;0.7383;0.8823;
276.3000;0.7359;0.8730;
276.6000;0.7375;0.8661;
276.9000;0.7383;0.8684;
277.2000;0.7334;0.8661;
277.5000;0.7391;0.8707;
277.8000;0.7359;0.8707;
278.1000;0.7424;0.8777;
278.4000;0.7367;0.8730;
278.7000;0.7375;0.8847;
279.0000;0.7375;0.8684;
279.3000;0.7399;0.8800;
279.6000;0.7391;0.8870;
279.9000;0.7391;0.8939;
280.2000;0.7383;0.8939;
280.5000;0.7383;0.8870;
280.8000;0.7383;0.8847;
281.1000;0.7407;0.8800;
281.4000;0.7391;0.8754;
281.7000;0.7399;0.8754;
282.0000;0.7326;0.8521;
282.3000;0.7391;0.8730;
282.6000;0.7391;0.8800;
282.9000;0.7391;0.8754;
283.2000;0.7375;0.8707;
283.5000;0.7383;0.8707;
283.8000;0.7391;0.8707;
284.1000;0.7367;0.8661;
284.4000;0.7367;0.8591;
284.7000;0.7375;0.8661;
285.0000;0.7448;0.8800;
285.3000;0.7391;0.8684;
285.6000;0.7375;0.8684;
285.9000;0.7375;0.8661;
286.2000;0.7383;0.8661;
286.5000;0.7489;0.9009;
286.8000;0.7383;0.8730;
287.1000;0.7375;0.8707;
287.4000;0.7350;0.8638;
287.7000;0.7416;0.8777;
288.0000;0.7391;0.8754;
288.3000;0.7399;0.8800;
288.6000;0.7383;0.8638;
288.9000;0.7391;0.8568;
289.2000;0.7383;0.8545;
289.5000;0.7383;0.8521;
289.8000;0.7359;0.8591;
290.1000;0.7383;0.8684;
290.4000;0.7375;0.8614;
290.7000;0.7391;0.8661;
291.0000;0.7359;0.8707;
291.3000;0.7383;0.8800;
291.6000;0.7383;0.8823;
291.9000;0.7391;0.8707;
292.2000;0.7391;0.8707;
292.5000;0.7399;0.8707;
292.8000;0.7407;0.8730;
293.1000;0.7416;0.8707;
293.4000;0.7383;0.8638;
293.7000;0.7383;0.8684;
294.0000;0.7383;0.8661;
294.3000;0.7318;0.8452;
294.6000;0.7391;0.8638;
294.9000;0.7383;0.8707;
295.2000;0.7375;0.8638;
295.5000;0.7456;0.8730;
295.8000;0.7383;0.8498;
296.1000;0.7375;0.8521;
296.4000;0.7375;0.8498;
296.7000;0.7367;0.8405;
297.0000;0.7399;0.8568;
297.3000;0.7399;0.8498;
297.6000;0.7391;0.8475;
297.9000;0.7383;0.8498;
298.2000;0.7407;0.8707;
298.5000;0.7383;0.8707;
298.8000;0.7391;0.8684;
299.1000;0.7383;0.8591;
299.4000;0.7391;0.8614;
299.7000;0.7383;0.8661;
300.0000;0.7350;0.8638;
300.3000;0.7375;0.8730;
300.6000;0.7383;0.8823;
300.9000;0.7359;0.8730;
301.2000;0.7375;0.8754;
301.5000;0.7367;0.8707;
301.8000;0.7383;0.8823;
302.1000;0.7383;0.8893;
302.4000;0.7383;0.8939;
302.7000;0.7375;0.8939;
303.0000;0.7375;0.8916;
303.3000;0.7375;0.8847;
303.6000;0.7375;0.8777;
303.9000;0.7367;0.8847;
304.2000;0.7375;0.8800;
304.5000;0.7375;0.8870;
304.8000;0.7383;0.8893;
305.1000;0.7253;0.8568;
305.4000;0.7359;0.8730;
305.7000;0.7391;0.8800;
306.0000;0.7375;0.8800;
306.3000;0.7334;0.8777;
306.6000;0.7375;0.8870;
306.9000;0.7375;0.8847;
307.2000;0.7375;0.8893;
307.5000;0.7407;0.8939;
307.8000;0.7367;0.8847;
308.1000;0.7367;0.8870;
308.4000;0.7367;0.8893;
308.7000;0.7367;0.8777;
309.0000;0.7318;0.8638;
309.3000;0.7367;0.8777;
309.6000;0.7375;0.8870;
309.9000;0.7359;0.8939;
310.2000;0.7367;0.8963;
310.5000;0.7448;0.9265;
310.8000;0.7375;0.9079;
311.1000;0.7302;0.8916;
311.4000;0.7342;0.8939;
311.7000;0.7375;0.8963;
312.0000;0.7375;0.9032;
312.3000;0.7375;0.8986;
312.6000;0.7350;0.8800;
312.9000;0.7318;0.8568;
313.2000;0.7456;0.8893;
313.5000;0.7367;0.8707;
313.8000;0.7367;0.8707;
314.1000;0.7318;0.8614;
314.4000;0.7407;0.8754;
314.7000;0.7399;0.8730;
315.0000;0.7367;0.8614;
315.3000;0.7481;0.8916;
315.6000;0.7350;0.8614;
315.9000;0.7407;0.8684;
316.2000;0.7383;0.8614;
316.5000;0.7359;0.8475;
316.8000;0.7375;0.8521;
317.1000;0.7407;0.8591;
317.4000;0.7375;0.8614;
317.7000;0.7383;0.8591;
318.0000;0.7383;0.8638;
318.3000;0.7375;0.8614;
318.6000;0.7383;0.8684;
318.9000;0.7375;0.8591;
319.2000;0.7375;0.8521;
319.5000;0.7367;0.8429;
319.8000;0.7375;0.8452;
320.1000;0.7375;0.8568;
320.4000;0.7456;0.8823;
320.7000;0.7391;0.8684;
321.0000;0.7359;0.8614;
321.3000;0.7359;0.8661;
321.6000;0.7367;0.8661;
321.9000;0.7359;0.8521;
322.2000;0.7383;0.8614;
322.5000;0.7375;0.8568;
322.8000;0.7359;0.8452;
323.1000;0.7375;0.8498;
323.4000;0.7334;0.8568;
323.7000;0.7367;0.8638;
324.0000;0.7350;0.8707;
324.3000;0.7407;0.8870;
324.6000;0.7375;0.8823;
324.9000;0.7359;0.8823;
325.2000;0.7375;0.8939;
325.5000;0.7375;0.8847;
325.8000;0.7375;0.8754;
326.1000;0.7407;0.8823;
326.4000;0.7391;0.8823;
326.7000;0.7383;0.8800;
327.0000;0.7375;0.8800;
327.3000;0.7375;0.8754;
327.6000;0.7383;0.8823;
327.9000;0.7350;0.8614;
328.2000;0.7375;0.8684;
328.5000;0.7367;0.8707;
328.8000;0.7383;0.8847;
329.1000;0.7416;0.8939;
329.4000;0.7367;0.8800;
329.7000;0.7367;0.8847;
330.0000;0.7399;0.8939;
330.3000;0.7383;0.8939;
330.6000;0.7383;0.8893;
330.9000;0.7391;0.8916;
331.2000;0.7375;0.8800;
331.5000;0.7375;0.8730;
331.8000;0.7359;0.8521;
332.1000;0.7359;0.8475;
332.4000;0.7391;0.8521;
332.7000;0.7391;0.8521;
333.0000;0.7367;0.8591;
333.3000;0.7416;0.8730;
333.6000;0.7359;0.8591;
333.9000;0.7342;0.8591;
334.2000;0.7334;0.8521;
334.5000;0.7367;0.8638;
334.8000;0.7383;0.8707;
335.1000;0.7399;0.8754;
335.4000;0.7383;0.8870;
335.7000;0.7383;0.8800;
336.0000;0.7407;0.8847;
336.3000;0.7399;0.8777;
336.6000;0.7391;0.8800;
336.9000;0.7505;0.9079;
337.2000;0.7399;0.8847;
337.5000;0.7383;0.8800;
337.8000;0.7375;0.8823;
338.1000;0.7359;0.8823;
338.4000;0.7383;0.8800;
338.7000;0.7367;0.8823;
339.0000;0.7359;0.8777;
339.3000;0.7367;0.8823;
339.6000;0.7391;0.8823;
339.9000;0.7383;0.8800;
340.2000;0.7375;0.8730;
340.5000;0.7440;0.8893;
340.8000;0.7375;0.8870;
341.1000;0.7375;0.8847;
341.4000;0.7391;0.8823;
341.7000;0.7334;0.8684;
342.0000;0.7375;0.8777;
342.3000;0.7342;0.8661;
342.6000;0.7375;0.8707;
342.9000;0.7383;0.8614;
343.2000;0.7375;0.8614;
343.5000;0.7432;0.8754;
343.8000;0.7367;0.8638;
344.1000;0.7383;0.8591;
344.4000;0.7375;0.8545;
344.7000;0.7383;0.8614;
345.0000;0.7424;0.8800;
345.3000;0.7375;0.8777;
345.6000;0.7383;0.8754;
345.9000;0.7399;0.8730;
346.2000;0.7383;0.8661;
346.5000;0.7399;0.8684;
346.8000;0.7383;0.8754;
347.1000;0.7367;0.8684;
347.4000;0.7359;0.8568;
347.7000;0.7383;0.8638;
348.0000;0.7391;0.8638;
348.3000;0.7383;0.8661;
348.6000;0.7367;0.8661;
348.9000;0.7416;0.8754;
349.2000;0.7350;0.8591;
349.5000;0.7375;0.8614;
349.8000;0.7383;0.8498;
350.1000;0.7399;0.8614;
350.4000;0.7391;0.8661;
350.7000;0.7391;0.8591;
351.0000;0.7383;0.8638;
351.3000;0.7375;0.8684;
351.6000;0.7416;0.8754;
351.9000;0.7375;0.8684;
352.2000;0.7367;0.8707;
352.5000;0.7407;0.8777;
352.8000;0.7383;0.8730;
353.1000;0.7399;0.8661;
353.4000;0.7359;0.8661;
353.7000;0.7407;0.8777;
354.0000;0.7383;0.8730;
354.3000;0.7383;0.8730;
354.6000;0.7399;0.8730;
354.9000;0.7375;0.8800;
355.2000;0.7375;0.8870;
355.5000;0.7367;0.8870;
355.8000;0.7367;0.8777;
356.1000;0.7375;0.8707;
356.4000;0.7359;0.8614;
356.7000;0.7326;0.8614;
357.0000;0.7350;0.8638;
357.3000;0.7440;0.8754;
357.6000;0.7497;0.8893;
357.9000;0.7383;0.8638;
358.2000;0.7375;0.8591;
358.5000;0.7375;0.8614;
358.8000;0.7391;0.8545;
359.1000;0.7367;0.8545;
359.4000;0.7448;0.8730;
359.7000;0.7367;0.8521;
360.0000;0.7367;0.8521;
360.3000;0.7407;0.8638;
360.6000;0.7399;0.8568;
360.9000;0.7407;0.8638;
361.2000;0.7375;0.8614;
361.5000;0.7302;0.8475;
361.8000;0.7399;0.8614;
362.1000;0.7391;0.8638;
362.4000;0.7375;0.8568;
362.7000;0.7407;0.8638;
363.0000;0.7391;0.8684;
363.3000;0.7416;0.8707;
363.6000;0.7383;0.8591;
363.9000;0.7326;0.8614;
364.2000;0.7359;0.8800;
364.5000;0.7375;0.8800;
364.8000;0.7375;0.8707;
365.1000;0.7375;0.8638;
365.4000;0.7334;0.8521;
365.7000;0.7391;0.8614;
366.0000;0.7416;0.8638;
366.3000;0.7383;0.8452;
366.6000;0.7375;0.8382;
366.9000;0.7383;0.8545;
367.2000;0.7383;0.8614;
367.5000;0.7383;0.8591;
367.8000;0.7375;0.8591;
368.1000;0.7375;0.8707;
368.4000;0.7375;0.8661;
368.7000;0.7375;0.8707;
369.0000;0.7375;0.8591;
369.3000;0.7383;0.8568;
369.6000;0.7383;0.8614;
369.9000;0.7375;0.8614;
370.2000;0.7367;0.8684;
370.5000;0.7367;0.8800;
370.8000;0.7375;0.8847;
371.1000;0.7399;0.8893;
371.4000;0.7383;0.8916;
371.7000;0.7383;0.8916;
372.0000;0.7464;0.9148;
372.3000;0.7375;0.8847;
372.6000;0.7399;0.8893;
372.9000;0.7399;0.8823;
373.2000;0.7383;0.8823;
373.5000;0.7350;0.8730;
373.8000;0.7399;0.8800;
374.1000;0.7383;0.8777;
374.4000;0.7350;0.8730;
374.7000;0.7375;0.8730;
375.0000;0.7375;0.8684;
375.3000;0.7375;0.8591;
375.6000;0.7391;0.8661;
375.9000;0.7399;0.8707;
376.2000;0.7399;0.8638;
376.5000;0.7383;0.8498;
376.8000;0.7383;0.8429;
377.1000;0.7391;0.8382;
377.4000;0.7326;0.8289;
377.7000;0.7375;0.8498;
378.0000;0.7383;0.8521;
378.3000;0.7367;0.8521;
378.6000;0.7350;0.8475;
378.9000;0.7383;0.8475;
379.2000;0.7326;0.8382;
379.5000;0.7391;0.8545;
379.8000;0.7497;0.8870;
380.1000;0.7367;0.8545;
380.4000;0.7318;0.8498;
380.7000;0.7326;0.8568;
381.0000;0.7342;0.8521;
381.3000;0.7481;0.8870;
381.6000;0.7383;0.8638;
381.9000;0.7350;0.8568;
382.2000;0.7383;0.8707;
382.5000;0.7391;0.8777;
382.8000;0.7359;0.8661;
383.1000;0.7367;0.8754;
383.4000;0.7407;0.8754;
383.7000;0.7383;0.8684;
384.0000;0.7375;0.8614;
384.3000;0.7367;0.8521;
384.6000;0.7383;0.8614;
384.9000;0.7383;0.8638;
385.2000;0.7342;0.8545;
385.5000;0.7367;0.8614;
385.8000;0.7350;0.8614;
386.1000;0.7375;0.8661;
386.4000;0.7375;0.8777;
386.7000;0.7375;0.8777;
387.0000;0.7367;0.8707;
387.3000;0.7383;0.8707;
387.6000;0.7383;0.8707;
387.9000;0.7383;0.8661;
388.2000;0.7367;0.8638;
388.5000;0.7359;0.8568;
388.8000;0.7399;0.8545;
389.1000;0.7375;0.8498;
389.4000;0.7383;0.8521;
389.7000;0.7456;0.8730;
390.0000;0.7383;0.8545;
390.3000;0.7375;0.8568;
390.6000;0.7359;0.8452;
390.9000;0.7383;0.8452;
391.2000;0.7375;0.8545;
391.5000;0.7416;0.8777;
391.8000;0.7375;0.8661;
392.1000;0.7375;0.8638;
392.4000;0.7383;0.8777;
392.7000;0.7391;0.8754;
393.0000;0.7424;0.8777;
393.3000;0.7375;0.8661;
393.6000;0.7399;0.8545;
393.9000;0.7456;0.8777;
394.2000;0.7391;0.8591;
394.5000;0.7383;0.8591;
394.8000;0.7383;0.8614;
395.1000;0.7383;0.8614;
395.4000;0.7359;0.8545;
395.7000;0.7375;0.8591;
396.0000;0.7375;0.8638;
396.3000;0.7367;0.8614;
396.6000;0.7367;0.8661;
396.9000;0.7383;0.8661;
397.2000;0.7367;0.8614;
397.5000;0.7375;0.8638;
397.8000;0.7391;0.8730;
398.1000;0.7359;0.8707;
398.4000;0.7383;0.8591;
398.7000;0.7383;0.8545;
399.0000;0.7407;0.8591;
399.3000;0.7383;0.8521;
399.6000;0.7367;0.8521;
399.9000;0.7383;0.8661;
400.2000;0.7391;0.8661;
400.5000;0.7367;0.8614;
400.8000;0.7350;0.8545;
401.1000;0.7367;0.8475;
401.4000;0.7375;0.8475;
401.7000;0.7383;0.8498;
402.0000;0.7350;0.8452;
402.3000;0.7367;0.8591;
402.6000;0.7375;0.8591;
402.9000;0.7391;0.8638;
403.2000;0.7399;0.8684;
403.5000;0.7326;0.8452;
403.8000;0.7375;0.8591;
404.1000;0.7424;0.8823;
404.4000;0.7367;0.8730;
404.7000;0.7367;0.8823;
405.0000;0.7367;0.8800;
405.3000;0.7367;0.8754;
405.6000;0.7367;0.8823;
405.9000;0.7350;0.8730;
406.2000;0.7375;0.8800;
406.5000;0.7375;0.8754;
406.8000;0.7383;0.8777;
407.1000;0.7367;0.8847;
407.4000;0.7399;0.8893;
407.7000;0.7367;0.8754;
408.0000;0.7416;0.8916;
408.3000;0.7359;0.8800;
408.6000;0.7367;0.8754;
408.9000;0.7367;0.8730;
409.2000;0.7277;0.8498;
409.5000;0.7481;0.9079;
409.8000;0.7399;0.8893;
410.1000;0.7367;0.8777;
410.4000;0.7481;0.9009;
410.7000;0.7318;0.8452;
411.0000;0.7367;0.8545;
411.3000;0.7399;0.8684;
411.6000;0.7367;0.8568;
411.9000;0.7383;0.8568;
412.2000;0.7375;0.8521;
412.5000;0.7367;0.8498;
412.8000;0.7350;0.8452;
413.1000;0.7383;0.8545;
413.4000;0.7456;0.8777;
413.7000;0.7367;0.8614;
414.0000;0.7383;0.8591;
414.3000;0.7375;0.8591;
414.6000;0.7367;0.8545;
414.9000;0.7334;0.8475;
415.2000;0.7326;0.8498;
415.5000;0.7375;0.8591;
415.8000;0.7318;0.8475;
416.1000;0.7383;0.8638;
416.4000;0.7375;0.8730;
416.7000;0.7375;0.8754;
417.0000;0.7334;0.8638;
417.3000;0.7359;0.8638;
417.6000;0.7375;0.8707;
417.9000;0.7342;0.8614;
418.2000;0.7399;0.8800;
418.5000;0.7399;0.8707;
418.8000;0.7383;0.8684;
419.1000;0.7383;0.8730;
419.4000;0.7375;0.8730;
419.7000;0.7391;0.8707;
420.0000;0.7359;0.8591;
420.3000;0.7375;0.8591;
420.6000;0.7383;0.8614;
420.9000;0.7367;0.8638;
421.2000;0.7375;0.8754;
421.5000;0.7375;0.8777;
421.8000;0.7367;0.8754;
422.1000;0.7367;0.8800;
422.4000;0.7359;0.8777;
422.7000;0.7367;0.8800;
423.0000;0.7350;0.8754;
423.3000;0.7383;0.8800;
423.6000;0.7375;0.8777;
423.9000;0.7359;0.8754;
424.2000;0.7375;0.8754;
424.5000;0.7391;0.8684;
424.8000;0.7383;0.8498;
425.1000;0.7367;0.8452;
425.4000;0.7359;0.8382;
425.7000;0.7367;0.8475;
426.0000;0.7375;0.8568;
426.3000;0.7424;0.8800;
426.6000;0.7424;0.8823;
426.9000;0.7383;0.8800;
427.2000;0.7391;0.8847;
427.5000;0.7359;0.8823;
427.8000;0.7367;0.8823;
428.1000;0.7407;0.8963;
428.4000;0.7350;0.8870;
428.7000;0.7383;0.8963;
429.0000;0.7391;0.9032;
429.3000;0.7359;0.8916;
429.6000;0.7375;0.9032;
429.9000;0.7367;0.8963;
430.2000;0.7391;0.8916;
430.5000;0.7350;0.8777;
430.8000;0.7375;0.8730;
431.1000;0.7375;0.8707;
431.4000;0.7269;0.8475;
431.7000;0.7367;0.8684;
432.0000;0.7326;0.8545;
432.3000;0.7350;0.8638;
432.6000;0.7391;0.8730;
432.9000;0.7399;0.8800;
433.2000;0.7407;0.8800;
433.5000;0.7375;0.8777;
433.8000;0.7375;0.8754;
434.1000;0.7375;0.8730;
434.4000;0.7318;0.8498;
434.7000;0.7383;0.8684;
435.0000;0.7375;0.8614;
435.3000;0.7383;0.8684;
435.6000;0.7342;0.8707;
435.9000;0.7424;0.8754;
436.2000;0.7391;0.8661;
436.5000;0.7326;0.8521;
436.8000;0.7383;0.8614;
437.1000;0.7383;0.8638;
437.4000;0.7359;0.8638;
437.7000;0.7375;0.8707;
438.0000;0.7367;0.8800;
438.3000;0.7383;0.8870;
438.6000;0.7383;0.8870;
438.9000;0.7310;0.8730;
439.2000;0.7334;0.8707;
439.5000;0.7359;0.8800;
439.8000;0.7350;0.8847;
440.1000;0.7375;0.8800;
440.4000;0.7375;0.8777;
440.7000;0.7350;0.8707;
441.0000;0.7350;0.8730;
441.3000;0.7399;0.8777;
441.6000;0.7383;0.8870;
441.9000;0.7375;0.8916;
442.2000;0.7367;0.8823;
442.5000;0.7367;0.8777;
442.8000;0.7367;0.8777;
443.1000;0.7407;0.8847;
443.4000;0.7391;0.8847;
443.7000;0.7383;0.8754;
444.0000;0.7375;0.8661;
444.3000;0.7383;0.8707;
444.6000;0.7375;0.8614;
444.9000;0.7440;0.8730;
445.2000;0.7399;0.8684;
445.5000;0.7383;0.8730;
445.8000;0.7367;0.8707;
446.1000;0.7342;0.8638;
446.4000;0.7383;0.8777;
446.7000;0.7375;0.8730;
447.0000;0.7399;0.8754;
447.3000;0.7359;0.8707;
447.6000;0.7407;0.8754;
447.9000;0.7383;0.8707;
448.2000;0.7375;0.8707;
448.5000;0.7367;0.8638;
448.8000;0.7359;0.8591;
449.1000;0.7383;0.8661;
449.4000;0.7375;0.8730;
449.7000;0.7359;0.8777;
450.0000;0.7359;0.8754;
450.3000;0.7391;0.8847;
450.6000;0.7367;0.8823;
450.9000;0.7375;0.8777;
451.2000;0.7350;0.8707;
451.5000;0.7367;0.8777;
451.8000;0.7359;0.8707;
452.1000;0.7359;0.8777;
452.4000;0.7367;0.8823;
452.7000;0.7359;0.8847;
453.0000;0.7359;0.8893;
453.3000;0.7342;0.8893;
453.6000;0.7367;0.8893;
453.9000;0.7440;0.9079;
454.2000;0.7383;0.8916;
454.5000;0.7375;0.8916;
454.8000;0.7375;0.8963;
455.1000;0.7375;0.8963;
455.4000;0.7391;0.8939;
455.7000;0.7383;0.8800;
456.0000;0.7367;0.8730;
456.3000;0.7375;0.8754;
456.6000;0.7375;0.8754;
456.9000;0.7367;0.8730;
457.2000;0.7375;0.8730;
457.5000;0.7407;0.8800;
457.8000;0.7391;0.8847;
458.1000;0.7375;0.8847;
458.4000;0.7359;0.8800;
458.7000;0.7293;0.8730;
459.0000;0.7383;0.8916;
459.3000;0.7383;0.8939;
459.6000;0.7375;0.8986;
459.9000;0.7383;0.8963;
460.2000;0.7383;0.9009;
460.5000;0.7440;0.9102;
460.8000;0.7383;0.8916;
461.1000;0.7383;0.8893;
461.4000;0.7424;0.9009;
461.7000;0.7383;0.8939;
462.0000;0.7383;0.9009;
462.3000;0.7375;0.9032;
462.6000;0.7375;0.9032;
462.9000;0.7367;0.9032;
463.2000;0.7350;0.8986;
463.5000;0.7359;0.8986;
463.8000;0.7375;0.9079;
464.1000;0.7342;0.9032;
464.4000;0.7375;0.9056;
464.7000;0.7375;0.9032;
465.0000;0.7375;0.9125;
465.3000;0.7375;0.9079;
465.6000;0.7375;0.9032;
465.9000;0.7375;0.9125;
466.2000;0.7399;0.9056;
466.5000;0.7391;0.8986;
466.8000;0.7391;0.9056;
467.1000;0.7375;0.8963;
467.4000;0.7359;0.8870;
467.7000;0.7407;0.8986;
468.0000;0.7367;0.8916;
468.3000;0.7399;0.8939;
468.6000;0.7367;0.8823;
468.9000;0.7367;0.8800;
469.2000;0.7399;0.8870;
469.5000;0.7367;0.8870;
469.8000;0.7367;0.8870;
470.1000;0.7367;0.8893;
470.4000;0.7399;0.8893;
470.7000;0.7391;0.8893;
471.0000;0.7367;0.8916;
471.3000;0.7367;0.8893;
471.6000;0.7391;0.8893;
471.9000;0.7375;0.8916;
472.2000;0.7375;0.8939;
472.5000;0.7342;0.8847;
472.8000;0.7350;0.8870;
473.1000;0.7383;0.8916;
473.4000;0.7367;0.8870;
473.7000;0.7424;0.8823;
474.0000;0.7383;0.8777;
474.3000;0.7432;0.8939;
474.6000;0.7375;0.8870;
474.9000;0.7407;0.9009;
475.2000;0.7432;0.9056;
475.5000;0.7391;0.8916;
475.8000;0.7359;0.8893;
476.1000;0.7269;0.8777;
476.4000;0.7497;0.9357;
476.7000;0.7342;0.9009;
477.0000;0.7505;0.9427;
477.3000;0.7383;0.9032;
477.6000;0.7383;0.9056;
477.9000;0.7391;0.8986;
478.2000;0.7375;0.8916;
478.5000;0.7383;0.8939;
478.8000;0.7383;0.8870;
479.1000;0.7367;0.8939;
479.4000;0.7383;0.9032;
479.7000;0.7407;0.9148;
480.0000;0.7383;0.9148;
480.3000;0.7359;0.9148;
480.6000;0.7367;0.9102;
480.9000;0.7359;0.9056;
481.2000;0.7383;0.9032;
481.5000;0.7367;0.8986;
481.8000;0.7375;0.9009;
482.1000;0.7342;0.8870;
482.4000;0.7391;0.8939;
482.7000;0.7367;0.8893;
483.0000;0.7367;0.8939;
483.3000;0.7383;0.8986;
483.6000;0.7367;0.9056;
483.9000;0.7359;0.9079;
484.2000;0.7350;0.9102;
484.5000;0.7375;0.9032;
484.8000;0.7367;0.9148;
485.1000;0.7383;0.9195;
485.4000;0.7375;0.9218;
485.7000;0.7359;0.9195;
486.0000;0.7407;0.9125;
486.3000;0.7367;0.9079;
486.6000;0.7359;0.9009;
486.9000;0.7367;0.9056;
487.2000;0.7318;0.8963;
487.5000;0.7383;0.9148;
487.8000;0.7367;0.9218;
488.1000;0.7375;0.9172;
488.4000;0.7367;0.9079;
488.7000;0.7375;0.8986;
489.0000;0.7326;0.8823;
489.3000;0.7367;0.8684;
489.6000;0.7375;0.8754;
489.9000;0.7359;0.8800;
490.2000;0.7383;0.8777;
490.5000;0.7383;0.8730;
490.8000;0.7399;0.8847;
491.1000;0.7391;0.8800;
491.4000;0.7375;0.8730;
491.7000;0.7367;0.8823;
492.0000;0.7375;0.8754;
492.3000;0.7375;0.8730;
492.6000;0.7375;0.8870;
492.9000;0.7440;0.9056;
493.2000;0.7375;0.8939;
493.5000;0.7391;0.8939;
493.8000;0.7399;0.8939;
494.1000;0.7416;0.9032;
494.4000;0.7359;0.8893;
494.7000;0.7391;0.9056;
495.0000;0.7367;0.9009;
495.3000;0.7375;0.8986;
495.6000;0.7350;0.8893;
495.9000;0.7350;0.8800;
496.2000;0.7432;0.9009;
496.5000;0.7432;0.9032;
496.8000;0.7440;0.9032;
497.1000;0.7367;0.8823;
497.4000;0.7367;0.8870;
497.7000;0.7375;0.8939;
498.0000;0.7334;0.8800;
498.3000;0.7367;0.8916;
498.6000;0.7375;0.8939;
498.9000;0.7359;0.8823;
499.2000;0.7383;0.8847;
499.5000;0.7407;0.8893;
499.8000;0.7432;0.8916;
500.1000;0.7399;0.8963;
500.4000;0.7383;0.9009;
500.7000;0.7407;0.9056;
501.0000;0.7350;0.8916;
501.3000;0.7383;0.8986;
501.6000;0.7350;0.8893;
501.9000;0.7383;0.9032;
502.2000;0.7359;0.9032;
502.5000;0.7367;0.9032;
502.8000;0.7350;0.9032;
503.1000;0.7367;0.9079;
503.4000;0.7375;0.9172;
503.7000;0.7367;0.9125;
504.0000;0.7375;0.9148;
504.3000;0.7375;0.9218;
504.6000;0.7383;0.9148;
504.9000;0.7367;0.8986;
505.2000;0.7530;0.9288;
505.5000;0.7375;0.8963;
505.8000;0.7359;0.8916;
506.1000;0.7359;0.8939;
506.4000;0.7383;0.8963;
506.7000;0.7375;0.8916;
507.0000;0.7383;0.8893;
507.3000;0.7424;0.8986;
507.6000;0.7375;0.8916;
507.9000;0.7383;0.8847;
508.2000;0.7375;0.8730;
508.5000;0.7350;0.8707;
508.8000;0.7359;0.8730;
509.1000;0.7375;0.8684;
509.4000;0.7342;0.8638;
509.7000;0.7367;0.8754;
510.0000;0.7359;0.8777;
510.3000;0.7391;0.8754;
510.6000;0.7359;0.8754;
510.9000;0.7375;0.8870;
511.2000;0.7367;0.8893;
511.5000;0.7375;0.8916;
511.8000;0.7383;0.8847;
512.1000;0.7326;0.8707;
512.4000;0.7350;0.8777;
512.7000;0.7367;0.8777;
513.0000;0.7367;0.8823;
513.3000;0.7375;0.8800;
513.6000;0.7359;0.8730;
513.9000;0.7367;0.8823;
514.2000;0.7383;0.8939;
514.5000;0.7359;0.8800;
514.8000;0.7350;0.8730;
515.1000;0.7350;0.8661;
515.4000;0.7391;0.8730;
515.7000;0.7359;0.8730;
516.0000;0.7342;0.8638;
516.3000;0.7359;0.8777;
516.6000;0.7359;0.8754;
516.9000;0.7342;0.8754;
517.2000;0.7375;0.8893;
517.5000;0.7350;0.8800;
517.8000;0.7367;0.8823;
518.1000;0.7302;0.8730;
518.4000;0.7375;0.8916;
518.7000;0.7350;0.8916;
519.0000;0.7342;0.8893;
519.3000;0.7375;0.9009;
519.6000;0.7367;0.9032;
519.9000;0.7350;0.8963;
520.2000;0.7367;0.8939;
520.5000;0.7359;0.9032;
520.8000;0.7342;0.9009;
521.1000;0.7359;0.8963;
521.4000;0.7391;0.8963;
521.7000;0.7375;0.8963;
522.0000;0.7383;0.8870;
522.3000;0.7367;0.8939;
522.6000;0.7383;0.8939;
522.9000;0.7375;0.8939;
523.2000;0.7334;0.8916;
523.5000;0.7326;0.8986;
523.8000;0.7350;0.9079;
524.1000;0.7367;0.9195;
524.4000;0.7399;0.9311;
524.7000;0.7302;0.9195;
525.0000;0.7359;0.9218;
525.3000;0.7375;0.9148;
525.6000;0.7375;0.9148;
525.9000;0.7359;0.9195;
526.2000;0.7350;0.9218;
526.5000;0.7350;0.9172;
526.8000;0.7367;0.9172;
527.1000;0.7383;0.9218;
527.4000;0.7383;0.9288;
527.7000;0.7375;0.9218;
528.0000;0.7383;0.9218;
528.3000;0.7310;0.9032;
528.6000;0.7375;0.9079;
528.9000;0.7367;0.9056;
529.2000;0.7383;0.9056;
529.5000;0.7236;0.8754;
529.8000;0.7342;0.8963;
530.1000;0.7391;0.9032;
530.4000;0.7253;0.8707;
530.7000;0.7375;0.9032;
531.0000;0.7367;0.9009;
531.3000;0.7285;0.8847;
531.6000;0.7350;0.8963;
531.9000;0.7432;0.9102;
532.2000;0.7383;0.8893;
532.5000;0.7375;0.8847;
532.8000;0.7342;0.8707;
533.1000;0.7407;0.8847;
533.4000;0.7383;0.8823;
533.7000;0.7367;0.8823;
534.0000;0.7302;0.8754;
534.3000;0.7375;0.8893;
534.6000;0.7375;0.8916;
534.9000;0.7383;0.8916;
535.2000;0.7383;0.8893;
535.5000;0.7334;0.8800;
535.8000;0.7367;0.8893;
536.1000;0.7424;0.8916;
536.4000;0.7359;0.8684;
536.7000;0.7383;0.8730;
537.0000;0.7464;0.8823;
537.3000;0.7367;0.8730;
537.6000;0.7375;0.8707;
537.9000;0.7367;0.8684;
538.2000;0.7383;0.8754;
538.5000;0.7359;0.8847;
538.8000;0.7342;0.8847;
539.1000;0.7302;0.8707;
539.4000;0.7375;0.8916;
539.7000;0.7367;0.8916;
540.0000;0.7359;0.8893;
540.3000;0.7367;0.8893;
540.6000;0.7383;0.8893;
540.9000;0.7367;0.8963;
541.2000;0.7375;0.9032;
541.5000;0.7359;0.8939;
541.8000;0.7375;0.8963;
542.1000;0.7416;0.9032;
542.4000;0.7416;0.8986;
542.7000;0.7342;0.8754;
543.0000;0.7350;0.8800;
543.3000;0.7383;0.8847;
543.6000;0.7367;0.8754;
543.9000;0.7383;0.8707;
544.2000;0.7375;0.8684;
544.5000;0.7326;0.8591;
544.8000;0.7326;0.8661;
545.1000;0.7375;0.8847;
545.4000;0.7367;0.8916;
545.7000;0.7391;0.8847;
546.0000;0.7391;0.8870;
546.3000;0.7513;0.9125;
546.6000;0.7359;0.8847;
546.9000;0.7367;0.8916;
547.2000;0.7342;0.8800;
547.5000;0.7383;0.8893;
547.8000;0.7367;0.8870;
548.1000;0.7367;0.8916;
548.4000;0.7391;0.9032;
548.7000;0.7375;0.8986;
549.0000;0.7375;0.8963;
549.3000;0.7350;0.8986;
549.6000;0.7310;0.8916;
549.9000;0.7350;0.9009;
550.2000;0.7350;0.9056;
550.5000;0.7334;0.8916;
550.8000;0.7350;0.8800;
551.1000;0.7407;0.8870;
551.4000;0.7359;0.8823;
551.7000;0.7375;0.8777;
552.0000;0.7359;0.8847;
552.3000;0.7440;0.8963;
552.6000;0.7432;0.8893;
552.9000;0.7375;0.8638;
553.2000;0.7375;0.8661;
553.5000;0.7326;0.8568;
553.8000;0.7375;0.8823;
554.1000;0.7367;0.8800;
554.4000;0.7367;0.8800;
554.7000;0.7375;0.8870;
555.0000;0.7391;0.8916;
555.3000;0.7391;0.8847;
555.6000;0.7375;0.8800;
555.9000;0.7359;0.8893;
556.2000;0.7375;0.8893;
556.5000;0.7367;0.8823;
556.8000;0.7391;0.8870;
557.1000;0.7367;0.8893;
557.4000;0.7375;0.8870;
557.7000;0.7367;0.8754;
558.0000;0.7367;0.8754;
558.3000;0.7367;0.8823;
558.6000;0.7367;0.8800;
558.9000;0.7375;0.8800;
559.2000;0.7383;0.8684;
559.5000;0.7375;0.8661;
559.8000;0.7383;0.8777;
560.1000;0.7375;0.8754;
560.4000;0.7342;0.8707;
560.7000;0.7367;0.8754;
561.0000;0.7383;0.8730;
561.3000;0.7359;0.8661;
561.6000;0.7367;0.8638;
561.9000;0.7367;0.8707;
562.2000;0.7407;0.8707;
562.5000;0.7407;0.8777;
562.8000;0.7367;0.8754;
563.1000;0.7318;0.8568;
563.4000;0.7399;0.8823;
563.7000;0.7375;0.8847;
564.0000;0.7505;0.9148;
564.3000;0.7432;0.8893;
564.6000;0.7391;0.8800;
564.9000;0.7407;0.8916;
565.2000;0.7383;0.8870;
565.5000;0.7350;0.8730;
565.8000;0.7424;0.8986;
566.1000;0.7326;0.8707;
566.4000;0.7350;0.8847;
566.7000;0.7359;0.8847;
567.0000;0.7334;0.8777;
567.3000;0.7375;0.8893;
567.6000;0.7367;0.8777;
567.9000;0.7473;0.8986;
568.2000;0.7350;0.8614;
568.5000;0.7383;0.8521;
568.8000;0.7464;0.8661;
569.1000;0.7375;0.8545;
569.4000;0.7391;0.8661;
569.7000;0.7416;0.8823;
570.0000;0.7416;0.8754;
570.3000;0.7375;0.8545;
570.6000;0.7334;0.8452;
570.9000;0.7367;0.8498;
571.2000;0.7359;0.8545;
571.5000;0.7391;0.8545;
571.8000;0.7236;0.8196;
572.1000;0.7375;0.8568;
572.4000;0.7375;0.8684;
572.7000;0.7350;0.8754;
573.0000;0.7383;0.8916;
573.3000;0.7391;0.8777;
573.6000;0.7293;0.8568;
573.9000;0.7367;0.8777;
574.2000;0.7350;0.8777;
574.5000;0.7375;0.8754;
574.8000;0.7432;0.8893;
575.1000;0.7367;0.8800;
575.4000;0.7367;0.8823;
575.7000;0.7383;0.8823;
576.0000;0.7375;0.8707;
576.3000;0.7359;0.8614;
576.6000;0.7342;0.8614;
576.9000;0.7367;0.8661;
577.2000;0.7342;0.8545;
577.5000;0.7359;0.8684;
577.8000;0.7383;0.8847;
578.1000;0.7391;0.8823;
578.4000;0.7359;0.8823;
578.7000;0.7383;0.8870;
579.0000;0.7375;0.8893;
579.3000;0.7391;0.8986;
579.6000;0.7375;0.8939;
579.9000;0.7334;0.8777;
580.2000;0.7359;0.8870;
580.5000;0.7383;0.8800;
580.8000;0.7383;0.8823;
581.1000;0.7359;0.8754;
581.4000;0.7359;0.8614;
581.7000;0.7375;0.8638;
582.0000;0.7367;0.8684;
582.3000;0.7375;0.8638;
582.6000;0.7489;0.8916;
582.9000;0.7367;0.8638;
583.2000;0.7342;0.8568;
583.5000;0.7367;0.8521;
583.8000;0.7391;0.8661;
584.1000;0.7367;0.8568;
584.4000;0.7407;0.8591;
584.7000;0.7342;0.8498;
585.0000;0.7375;0.8545;
585.3000;0.7302;0.8452;
585.6000;0.7367;0.8638;
585.9000;0.7383;0.8661;
586.2000;0.7391;0.8638;
586.5000;0.7367;0.8591;
586.8000;0.7399;0.8638;
587.1000;0.7383;0.8661;
587.4000;0.7359;0.8684;
587.7000;0.7359;0.8684;
588.0000;0.7359;0.8661;
588.3000;0.7367;0.8730;
588.6000;0.7310;0.8707;
588.9000;0.7416;0.8823;
589.2000;0.7375;0.8730;
589.5000;0.7391;0.8847;
589.8000;0.7359;0.8800;
590.1000;0.7375;0.8823;
590.4000;0.7407;0.8893;
590.7000;0.7367;0.8730;
591.0000;0.7375;0.8730;
591.3000;0.7375;0.8754;
591.6000;0.7359;0.8730;
591.9000;0.7367;0.8661;
592.2000;0.7342;0.8614;
592.5000;0.7359;0.8661;
592.8000;0.7310;0.8498;
593.1000;0.7350;0.8684;
593.4000;0.7383;0.8800;
593.7000;0.7277;0.8568;
594.0000;0.7359;0.8800;
594.3000;0.7359;0.8847;
594.6000;0.7367;0.8847;
594.9000;0.7383;0.8800;
595.2000;0.7383;0.8730;
595.5000;0.7383;0.8730;
595.8000;0.7342;0.8684;
596.1000;0.7359;0.8707;
596.4000;0.7383;0.8847;
596.7000;0.7375;0.8684;
597.0000;0.7416;0.8754;
597.3000;0.7375;0.8684;
597.6000;0.7399;0.8777;
597.9000;0.7350;0.8638;
598.2000;0.7359;0.8614;
598.5000;0.7424;0.8707;
598.8000;0.7359;0.8545;
599.1000;0.7359;0.8405;
599.4000;0.7350;0.8336;
599.7000;0.7375;0.8336;
600.0000;0.7285;0.8196;
600.3000;0.7367;0.8289;
600.6000;0.7293;0.8011;
600.9000;0.7367;0.8196;
601.2000;0.7342;0.8127;
601.5000;0.7302;0.8034;
601.8000;0.7236;0.7941;
602.1000;0.7204;0.7802;
602.4000;0.7171;0.7709;
602.7000;0.7139;0.7546;
603.0000;0.7066;0.7361;
603.3000;0.7025;0.7268;
603.6000;0.7009;0.7314;
603.9000;0.6862;0.7059;
604.2000;0.6919;0.7035;
604.5000;0.6895;0.6989;
604.8000;0.6878;0.7012;
605.1000;0.6846;0.6943;
605.4000;0.6772;0.6826;
605.7000;0.6781;0.6826;
606.0000;0.6748;0.6664;
606.3000;0.6716;0.6548;
606.6000;0.6707;0.6525;
606.9000;0.6691;0.6478;
607.2000;0.6659;0.6455;
607.5000;0.6618;0.6362;
607.8000;0.6610;0.6385;
608.1000;0.6504;0.6223;
608.4000;0.6569;0.6362;
608.7000;0.6569;0.6478;
609.0000;0.6528;0.6501;
609.3000;0.6512;0.6478;
609.6000;0.6488;0.6455;
609.9000;0.6488;0.6478;
610.2000;0.6471;0.6362;
610.5000;0.6422;0.6292;
610.8000;0.6422;0.6316;
611.1000;0.6406;0.6316;
611.4000;0.6398;0.6409;
611.7000;0.6390;0.6501;
612.0000;0.6357;0.6455;
612.3000;0.6349;0.6525;
612.6000;0.6349;0.6548;
612.9000;0.6317;0.6478;
613.2000;0.6292;0.6432;
613.5000;0.6284;0.6501;
613.8000;0.6309;0.6594;
614.1000;0.6260;0.6548;
614.4000;0.6227;0.6501;
614.7000;0.6268;0.6641;
615.0000;0.6235;0.6571;
615.3000;0.6227;0.6594;
615.6000;0.6203;0.6478;
615.9000;0.6195;0.6455;
616.2000;0.6178;0.6548;
616.5000;0.6195;0.6548;
616.8000;0.6138;0.6478;
617.1000;0.6146;0.6594;
617.4000;0.6138;0.6664;
617.7000;0.6146;0.6641;
618.0000;0.6129;0.6641;
618.3000;0.6097;0.6501;
618.6000;0.6097;0.6525;
618.9000;0.6089;0.6478;
619.2000;0.6081;0.6525;
619.5000;0.6056;0.6548;
619.8000;0.6081;0.6594;
620.1000;0.6064;0.6455;
620.4000;0.6056;0.6455;
620.7000;0.6048;0.6455;
621.0000;0.6015;0.6455;
621.3000;0.6024;0.6362;
621.6000;0.6015;0.6292;
621.9000;0.5983;0.6200;
622.2000;0.5967;0.6246;
622.5000;0.5983;0.6339;
622.8000;0.5991;0.6409;
623.1000;0.5975;0.6432;
623.4000;0.5950;0.6362;
623.7000;0.5983;0.6618;
624.0000;0.5950;0.6501;
624.3000;0.5926;0.6525;
624.6000;0.5942;0.6594;
624.9000;0.5902;0.6478;
625.2000;0.5893;0.6409;
625.5000;0.5885;0.6385;
625.8000;0.5918;0.6478;
626.1000;0.5893;0.6548;
626.4000;0.5877;0.6571;
626.7000;0.5885;0.6548;
627.0000;0.5869;0.6501;
627.3000;0.5845;0.6385;
627.6000;0.5861;0.6478;
627.9000;0.5853;0.6478;
628.2000;0.5804;0.6409;
628.5000;0.5812;0.6571;
628.8000;0.5804;0.6548;
629.1000;0.5820;0.6525;
629.4000;0.5796;0.6594;
629.7000;0.5812;0.6618;
630.0000;0.5788;0.6501;
630.3000;0.5804;0.6501;
630.6000;0.5804;0.6455;
630.9000;0.5788;0.6362;
631.2000;0.5804;0.6316;
631.5000;0.5788;0.6316;
631.8000;0.5763;0.6292;
632.1000;0.5739;0.6269;
632.4000;0.5747;0.6200;
632.7000;0.5771;0.6316;
633.0000;0.5755;0.6362;
633.3000;0.5755;0.6455;
633.6000;0.5755;0.6455;
633.9000;0.5739;0.6432;
634.2000;0.5747;0.6548;
634.5000;0.5731;0.6548;
634.8000;0.5706;0.6478;
635.1000;0.5698;0.6455;
635.4000;0.5690;0.6339;
635.7000;0.5706;0.6455;
636.0000;0.5698;0.6478;
636.3000;0.5682;0.6385;
636.6000;0.5690;0.6501;
636.9000;0.5690;0.6525;
637.2000;0.5665;0.6455;
637.5000;0.5641;0.6316;
637.8000;0.5674;0.6292;
638.1000;0.5657;0.6316;
638.4000;0.5649;0.6362;
638.7000;0.5633;0.6269;
639.0000;0.5633;0.6316;
639.3000;0.5617;0.6246;
639.6000;0.5641;0.6292;
639.9000;0.5617;0.6223;
640.2000;0.5625;0.6246;
640.5000;0.5617;0.6316;
640.8000;0.5625;0.6455;
641.1000;0.5600;0.6339;
641.4000;0.5617;0.6409;
641.7000;0.5625;0.6478;
642.0000;0.5592;0.6385;
642.3000;0.5608;0.6362;
642.6000;0.5625;0.6339;
642.9000;0.5625;0.6362;
643.2000;0.5511;0.6176;
643.5000;0.5592;0.6339;
643.8000;0.5568;0.6292;
644.1000;0.5568;0.6292;
644.4000;0.5584;0.6385;
644.7000;0.5551;0.6316;
645.0000;0.5600;0.6455;
645.3000;0.5560;0.6432;
645.6000;0.5495;0.6339;
645.9000;0.5584;0.6501;
646.2000;0.5568;0.6548;
646.5000;0.5551;0.6455;
646.8000;0.5535;0.6455;
647.1000;0.5560;0.6478;
647.4000;0.5535;0.6362;
647.7000;0.5535;0.6292;
648.0000;0.5551;0.6339;
648.3000;0.5560;0.6385;
648.6000;0.5551;0.6385;
648.9000;0.5519;0.6316;
649.2000;0.5486;0.6246;
649.5000;0.5495;0.6362;
649.8000;0.5519;0.6478;
650.1000;0.5511;0.6478;
650.4000;0.5503;0.6525;
650.7000;0.5511;0.6478;
651.0000;0.5527;0.6478;
651.3000;0.5470;0.6409;
651.6000;0.5486;0.6478;
651.9000;0.5421;0.6362;
652.2000;0.5486;0.6432;
652.5000;0.5470;0.6432;
652.8000;0.5486;0.6432;
653.1000;0.5478;0.6455;
653.4000;0.5462;0.6362;
653.7000;0.5486;0.6362;
654.0000;0.5470;0.6292;
654.3000;0.5478;0.6269;
654.6000;0.5486;0.6339;
654.9000;0.5478;0.6269;
655.2000;0.5470;0.6246;
655.5000;0.5470;0.6269;
655.8000;0.5486;0.6292;
656.1000;0.5478;0.6269;
656.4000;0.5470;0.6246;
656.7000;0.5470;0.6246;
657.0000;0.5519;0.6409;
657.3000;0.5470;0.6339;
657.6000;0.5421;0.6292;
657.9000;0.5495;0.6432;
658.2000;0.5446;0.6385;
658.5000;0.5478;0.6432;
658.8000;0.5438;0.6316;
659.1000;0.5397;0.6223;
659.4000;0.5446;0.6385;
659.7000;0.5397;0.6316;
660.0000;0.5421;0.6385;
660.3000;0.5389;0.6269;
660.6000;0.5462;0.6455;
660.9000;0.5413;0.6339;
661.2000;0.5486;0.6594;
661.5000;0.5372;0.6339;
661.8000;0.5527;0.6734;
662.1000;0.5397;0.6432;
662.4000;0.5291;0.6153;
662.7000;0.5421;0.6501;
663.0000;0.5421;0.6594;
663.3000;0.5389;0.6571;
663.6000;0.5381;0.6571;
663.9000;0.5315;0.6385;
664.2000;0.5364;0.6548;
664.5000;0.5364;0.6571;
664.8000;0.5291;0.6409;
665.1000;0.5381;0.6571;
665.4000;0.5356;0.6594;
665.7000;0.5413;0.6594;
666.0000;0.5397;0.6432;
666.3000;0.5372;0.6339;
666.6000;0.5372;0.6269;
666.9000;0.5340;0.6130;
667.2000;0.5389;0.6200;
667.5000;0.5364;0.6200;
667.8000;0.5372;0.6153;
668.1000;0.5381;0.6083;
668.4000;0.5340;0.6107;
668.7000;0.5348;0.6200;
669.0000;0.5356;0.6176;
669.3000;0.5340;0.6130;
669.6000;0.5332;0.6176;
669.9000;0.5348;0.6246;
670.2000;0.5364;0.6269;
670.5000;0.5364;0.6200;
670.8000;0.5348;0.6107;
671.1000;0.5340;0.6153;
671.4000;0.5356;0.6246;
671.7000;0.5348;0.6176;
672.0000;0.5340;0.6060;
672.3000;0.5332;0.6153;
672.6000;0.5340;0.6200;
672.9000;0.5348;0.6200;
673.2000;0.5340;0.6107;
673.5000;0.5340;0.6107;
673.8000;0.5324;0.6153;
674.1000;0.5324;0.6153;
674.4000;0.5291;0.6037;
674.7000;0.5315;0.6176;
675.0000;0.5283;0.6107;
675.3000;0.5307;0.6176;
675.6000;0.5315;0.6246;
675.9000;0.5332;0.6316;
676.2000;0.5315;0.6292;
676.5000;0.5307;0.6432;
676.8000;0.5275;0.6339;
677.1000;0.5315;0.6339;
677.4000;0.5364;0.6525;
677.7000;0.5332;0.6362;
678.0000;0.5324;0.6362;
678.3000;0.5291;0.6339;
678.6000;0.5405;0.6641;
678.9000;0.5315;0.6432;
679.2000;0.5315;0.6478;
679.5000;0.5283;0.6525;
679.8000;0.5315;0.6548;
680.1000;0.5291;0.6432;
680.4000;0.5299;0.6385;
680.7000;0.5299;0.6339;
681.0000;0.5275;0.6362;
681.3000;0.5291;0.6455;
681.6000;0.5275;0.6432;
681.9000;0.5267;0.6362;
682.2000;0.5283;0.6432;
682.5000;0.5299;0.6641;
682.8000;0.5250;0.6432;
683.1000;0.5340;0.6571;
683.4000;0.5267;0.6432;
683.7000;0.5201;0.6223;
684.0000;0.5275;0.6362;
684.3000;0.5258;0.6362;
684.6000;0.5315;0.6525;
684.9000;0.5258;0.6362;
685.2000;0.5218;0.6246;
685.5000;0.5267;0.6432;
685.8000;0.5267;0.6525;
686.1000;0.5234;0.6455;
686.4000;0.5267;0.6618;
686.7000;0.5258;0.6501;
687.0000;0.5283;0.6548;
687.3000;0.5283;0.6687;
687.6000;0.5275;0.6618;
687.9000;0.5250;0.6618;
688.2000;0.5258;0.6548;
688.5000;0.5258;0.6571;
688.8000;0.5315;0.6687;
689.1000;0.5234;0.6618;
689.4000;0.5258;0.6687;
689.7000;0.5226;0.6525;
690.0000;0.5177;0.6548;
690.3000;0.5234;0.6687;
690.6000;0.5234;0.6780;
690.9000;0.5218;0.6734;
691.2000;0.5226;0.6710;
691.5000;0.5210;0.6641;
691.8000;0.5242;0.6710;
692.1000;0.5250;0.6618;
692.4000;0.5242;0.6548;
692.7000;0.5242;0.6594;
693.0000;0.5242;0.6641;
693.3000;0.5234;0.6641;
693.6000;0.5242;0.6571;
693.9000;0.5234;0.6548;
694.2000;0.5218;0.6525;
694.5000;0.5258;0.6594;
694.8000;0.5210;0.6432;
695.1000;0.5201;0.6409;
695.4000;0.5226;0.6525;
695.7000;0.5242;0.6478;
696.0000;0.5210;0.6501;
696.3000;0.5210;0.6548;
696.6000;0.5201;0.6409;
696.9000;0.5218;0.6478;
697.2000;0.5226;0.6455;
697.5000;0.5218;0.6385;
697.8000;0.5226;0.6432;
698.1000;0.5226;0.6571;
698.4000;0.5210;0.6571;
698.7000;0.5218;0.6641;
699.0000;0.5210;0.6594;
699.3000;0.5177;0.6594;
699.6000;0.5193;0.6664;
699.9000;0.5177;0.6594;
700.2000;0.5177;0.6641;
700.5000;0.5193;0.6687;
700.8000;0.5218;0.6734;
701.1000;0.5201;0.6734;
701.4000;0.5177;0.6594;
701.7000;0.5185;0.6710;
702.0000;0.5218;0.6757;
702.3000;0.5193;0.6571;
702.6000;0.5177;0.6641;
702.9000;0.5226;0.6873;
703.2000;0.5144;0.6594;
703.5000;0.5185;0.6780;
703.8000;0.5185;0.6757;
704.1000;0.5161;0.6664;
704.4000;0.5177;0.6687;
704.7000;0.5177;0.6594;
705.0000;0.5177;0.6594;
705.3000;0.5185;0.6687;
705.6000;0.5161;0.6618;
705.9000;0.5185;0.6641;
706.2000;0.5185;0.6641;
706.5000;0.5177;0.6664;
706.8000;0.5177;0.6687;
707.1000;0.5177;0.6664;
707.4000;0.5185;0.6548;
707.7000;0.5185;0.6432;
708.0000;0.5185;0.6478;
708.3000;0.5161;0.6455;
708.6000;0.5169;0.6432;
708.9000;0.5185;0.6432;
709.2000;0.5161;0.6385;
709.5000;0.5161;0.6409;
709.8000;0.5177;0.6478;
710.1000;0.5079;0.6246;
710.4000;0.5144;0.6525;
710.7000;0.5161;0.6548;
711.0000;0.5153;0.6525;
711.3000;0.5153;0.6571;
711.6000;0.5136;0.6571;
711.9000;0.5136;0.6501;
712.2000;0.5153;0.6525;
712.5000;0.5161;0.6501;
712.8000;0.5136;0.6455;
713.1000;0.5161;0.6501;
713.4000;0.5153;0.6385;
713.7000;0.5177;0.6432;
714.0000;0.5079;0.6200;
714.3000;0.5161;0.6432;
714.6000;0.5161;0.6501;
714.9000;0.5153;0.6618;
715.2000;0.5128;0.6641;
715.5000;0.5161;0.6618;
715.8000;0.5136;0.6501;
716.1000;0.5136;0.6548;
716.4000;0.5153;0.6548;
716.7000;0.5136;0.6618;
717.0000;0.5128;0.6525;
717.3000;0.5128;0.6571;
717.6000;0.5047;0.6362;
717.9000;0.5136;0.6548;
718.2000;0.5153;0.6525;
718.5000;0.5071;0.6339;
718.8000;0.5169;0.6548;
719.1000;0.5177;0.6664;
719.4000;0.5128;0.6525;
719.7000;0.5144;0.6478;
720.0000;0.5153;0.6548;
720.3000;0.5136;0.6525;
720.6000;0.5120;0.6409;
720.9000;0.5136;0.6409;
721.2000;0.5112;0.6455;
721.5000;0.5128;0.6548;
721.8000;0.5144;0.6618;
722.1000;0.5088;0.6548;
722.4000;0.5144;0.6757;
722.7000;0.5144;0.6734;
723.0000;0.5120;0.6687;
723.3000;0.5136;0.6780;
723.6000;0.5144;0.6710;
723.9000;0.5136;0.6641;
724.2000;0.5079;0.6525;
724.5000;0.5128;0.6641;
724.8000;0.5136;0.6710;
725.1000;0.5120;0.6641;
725.4000;0.5185;0.6757;
725.7000;0.5120;0.6618;
726.0000;0.5144;0.6710;
726.3000;0.5079;0.6594;
726.6000;0.5120;0.6618;
726.9000;0.5104;0.6641;
727.2000;0.5144;0.6803;
727.5000;0.5177;0.6850;
727.8000;0.5104;0.6757;
728.1000;0.5088;0.6780;
728.4000;0.5096;0.6803;
728.7000;0.5112;0.6850;
729.0000;0.5104;0.6919;
729.3000;0.5128;0.7012;
729.6000;0.5136;0.7082;
729.9000;0.5153;0.7152;
730.2000;0.5112;0.6989;
730.5000;0.5112;0.6943;
730.8000;0.5096;0.6919;
731.1000;0.5104;0.6873;
731.4000;0.5136;0.6826;
731.7000;0.5096;0.6594;
732.0000;0.5071;0.6594;
732.3000;0.5096;0.6618;
732.6000;0.5104;0.6641;
732.9000;0.5120;0.6710;
733.2000;0.5088;0.6641;
733.5000;0.5096;0.6618;
733.8000;0.5104;0.6710;
734.1000;0.5128;0.6710;
734.4000;0.5104;0.6594;
734.7000;0.5096;0.6618;
735.0000;0.5063;0.6641;
735.3000;0.5112;0.6664;
735.6000;0.5193;0.6896;
735.9000;0.5104;0.6571;
736.2000;0.5112;0.6618;
736.5000;0.5112;0.6664;
736.8000;0.5104;0.6664;
737.1000;0.5096;0.6548;
737.4000;0.5096;0.6525;
737.7000;0.5096;0.6478;
738.0000;0.5088;0.6525;
738.3000;0.5088;0.6548;
738.6000;0.5112;0.6664;
738.9000;0.5112;0.6734;
739.2000;0.5104;0.6734;
739.5000;0.5136;0.6780;
739.8000;0.5047;0.6571;
740.1000;0.5088;0.6618;
740.4000;0.5136;0.6687;
740.7000;0.5120;0.6664;
741.0000;0.5096;0.6687;
741.3000;0.5079;0.6664;
741.6000;0.5104;0.6710;
741.9000;0.5022;0.6455;
742.2000;0.5144;0.6780;
742.5000;0.5128;0.6687;
742.8000;0.5153;0.6710;
743.1000;0.5096;0.6571;
743.4000;0.5088;0.6618;
743.7000;0.5063;0.6501;
744.0000;0.5104;0.6571;
744.3000;0.5112;0.6571;
744.6000;0.5104;0.6571;
744.9000;0.5096;0.6571;
745.2000;0.5096;0.6641;
745.5000;0.5096;0.6710;
745.8000;0.5088;0.6710;
746.1000;0.5088;0.6664;
746.4000;0.5104;0.6757;
746.7000;0.5063;0.6618;
747.0000;0.5079;0.6687;
747.3000;0.5104;0.6850;
747.6000;0.5071;0.6757;
747.9000;0.5088;0.6780;
748.2000;0.5047;0.6687;
748.5000;0.5014;0.6664;
748.8000;0.5079;0.6734;
749.1000;0.5104;0.6803;
749.4000;0.5120;0.6850;
749.7000;0.5088;0.6826;
750.0000;0.5071;0.6757;
750.3000;0.5079;0.6780;
750.6000;0.5088;0.6780;
750.9000;0.5079;0.6850;
751.2000;0.5071;0.6780;
751.5000;0.5014;0.6525;
751.8000;0.5063;0.6618;
752.1000;0.5039;0.6594;
752.4000;0.5088;0.6734;
752.7000;0.5071;0.6780;
753.0000;0.4982;0.6455;
753.3000;0.5063;0.6618;
753.6000;0.5063;0.6548;
753.9000;0.5079;0.6525;
754.2000;0.5071;0.6687;
754.5000;0.5079;0.6618;
754.8000;0.5079;0.6525;
755.1000;0.5071;0.6501;
755.4000;0.5096;0.6525;
755.7000;0.5104;0.6618;
756.0000;0.5079;0.6641;
756.3000;0.5079;0.6757;
756.6000;0.5063;0.6734;
756.9000;0.5071;0.6780;
757.2000;0.5039;0.6803;
757.5000;0.5055;0.6803;
757.8000;0.5039;0.6826;
758.1000;0.5071;0.6873;
758.4000;0.5039;0.6734;
758.7000;0.5039;0.6757;
759.0000;0.5055;0.6780;
759.3000;0.5055;0.6664;
759.6000;0.5055;0.6664;
759.9000;0.5136;0.6873;
760.2000;0.5063;0.6757;
760.5000;0.5047;0.6850;
760.8000;0.5047;0.6896;
761.1000;0.5031;0.6641;
761.4000;0.5063;0.6525;
761.7000;0.5055;0.6548;
762.0000;0.5055;0.6618;
762.3000;0.5031;0.6594;
762.6000;0.5096;0.6757;
762.9000;0.5120;0.6850;
763.2000;0.5088;0.6664;
763.5000;0.5128;0.6896;
763.8000;0.5096;0.6896;
764.1000;0.5063;0.6873;
764.4000;0.5079;0.6873;
764.7000;0.4957;0.6571;
765.0000;0.5055;0.6757;
765.3000;0.5079;0.6850;
765.6000;0.5055;0.6803;
765.9000;0.5079;0.6826;
766.2000;0.5039;0.6780;
766.5000;0.5079;0.6826;
766.8000;0.5055;0.6780;
767.1000;0.5096;0.6919;
767.4000;0.5039;0.6757;
767.7000;0.5063;0.6780;
768.0000;0.5055;0.6757;
768.3000;0.5055;0.6873;
768.6000;0.5039;0.6919;
768.9000;0.5039;0.6896;
769.2000;0.5031;0.6919;
769.5000;0.5031;0.6873;
769.8000;0.5055;0.6966;
770.1000;0.5031;0.6873;
770.4000;0.5104;0.6966;
770.7000;0.5047;0.6826;
771.0000;0.5071;0.6850;
771.3000;0.5088;0.6803;
771.6000;0.5047;0.6710;
771.9000;0.5055;0.6803;
772.2000;0.5079;0.6919;
772.5000;0.5063;0.6826;
772.8000;0.5063;0.6780;
773.1000;0.5071;0.6757;
773.4000;0.5079;0.6780;
773.7000;0.5047;0.6734;
774.0000;0.5161;0.6919;
774.3000;0.5063;0.6664;
774.6000;0.5055;0.6710;
774.9000;0.5079;0.6826;
775.2000;0.5071;0.6803;
775.5000;0.4998;0.6734;
775.8000;0.5039;0.6873;
776.1000;0.5022;0.6873;
776.4000;0.5022;0.6873;
776.7000;0.5039;0.6850;
777.0000;0.5047;0.6803;
777.3000;0.5039;0.6734;
777.6000;0.5031;0.6641;
777.9000;0.5039;0.6571;
778.2000;0.5022;0.6478;
778.5000;0.5120;0.6757;
778.8000;0.5063;0.6641;
779.1000;0.5031;0.6525;
779.4000;0.5022;0.6525;
779.7000;0.5006;0.6432;
780.0000;0.5039;0.6571;
780.3000;0.5047;0.6618;
780.6000;0.5039;0.6641;
780.9000;0.5031;0.6710;
781.2000;0.5031;0.6618;
781.5000;0.5063;0.6780;
781.8000;0.5088;0.6896;
782.1000;0.5031;0.6803;
782.4000;0.5022;0.6780;
782.7000;0.5014;0.6687;
783.0000;0.5014;0.6734;
783.3000;0.4998;0.6757;
783.6000;0.5014;0.6757;
783.9000;0.5055;0.6803;
784.2000;0.5047;0.6826;
784.5000;0.4982;0.6710;
784.8000;0.5031;0.6734;
785.1000;0.5047;0.6664;
785.4000;0.5047;0.6571;
785.7000;0.5006;0.6548;
786.0000;0.5055;0.6687;
786.3000;0.5039;0.6734;
786.6000;0.5014;0.6757;
786.9000;0.5022;0.6780;
787.2000;0.5006;0.6780;
787.5000;0.5031;0.6803;
787.8000;0.5039;0.6850;
788.1000;0.5022;0.6780;
788.4000;0.5014;0.6641;
788.7000;0.5014;0.6664;
789.0000;0.5014;0.6548;
789.3000;0.5014;0.6664;
789.6000;0.5014;0.6664;
789.9000;0.5031;0.6734;
790.2000;0.5055;0.6710;
790.5000;0.5031;0.6478;
790.8000;0.5014;0.6432;
791.1000;0.5031;0.6385;
791.4000;0.5014;0.6339;
791.7000;0.5022;0.6362;
792.0000;0.5014;0.6525;
792.3000;0.5047;0.6548;
792.6000;0.5039;0.6525;
792.9000;0.5071;0.6757;
793.2000;0.4974;0.6548;
793.5000;0.4990;0.6455;
793.8000;0.5014;0.6478;
794.1000;0.5031;0.6664;
794.4000;0.4982;0.6571;
794.7000;0.4998;0.6710;
795.0000;0.5047;0.6803;
795.3000;0.5022;0.6734;
795.6000;0.5022;0.6664;
795.9000;0.5031;0.6618;
796.2000;0.5014;0.6548;
796.5000;0.5022;0.6571;
796.8000;0.4998;0.6594;
797.1000;0.5014;0.6710;
797.4000;0.4990;0.6618;
797.7000;0.5031;0.6618;
798.0000;0.5022;0.6664;
798.3000;0.5022;0.6618;
798.6000;0.5031;0.6710;
798.9000;0.5039;0.6780;
799.2000;0.4917;0.6409;
799.5000;0.5014;0.6664;
799.8000;0.4982;0.6594;
800.1000;0.5006;0.6664;
800.4000;0.5031;0.6710;
800.7000;0.5014;0.6641;
801.0000;0.4998;0.6501;
801.3000;0.4990;0.6409;
801.6000;0.5014;0.6478;
801.9000;0.5022;0.6501;
802.2000;0.5006;0.6432;
802.5000;0.5014;0.6362;
802.8000;0.5022;0.6501;
803.1000;0.5022;0.6501;
803.4000;0.4990;0.6478;
803.7000;0.5047;0.6641;
804.0000;0.5079;0.6826;
804.3000;0.5006;0.6757;
804.6000;0.4998;0.6687;
804.9000;0.5039;0.6826;
805.2000;0.5039;0.6803;
805.5000;0.5022;0.6780;
805.8000;0.4982;0.6594;
806.1000;0.4998;0.6571;
806.4000;0.5006;0.6594;
806.7000;0.5006;0.6571;
807.0000;0.5022;0.6571;
807.3000;0.5022;0.6664;
807.6000;0.5096;0.6896;
807.9000;0.5039;0.6826;
808.2000;0.4998;0.6780;
808.5000;0.5014;0.6850;
808.8000;0.4990;0.6803;
809.1000;0.4982;0.6803;
809.4000;0.5014;0.6873;
809.7000;0.5022;0.6850;
810.0000;0.4990;0.6850;
810.3000;0.5006;0.6896;
810.6000;0.4998;0.6826;
810.9000;0.4998;0.6826;
811.2000;0.5006;0.6919;
811.5000;0.4998;0.6757;
811.8000;0.5014;0.6803;
812.1000;0.5014;0.6826;
812.4000;0.4982;0.6641;
812.7000;0.5006;0.6594;
813.0000;0.5006;0.6571;
813.3000;0.4974;0.6501;
813.6000;0.4998;0.6548;
813.9000;0.5031;0.6687;
814.2000;0.5055;0.6780;
814.5000;0.5006;0.6641;
814.8000;0.4933;0.6548;
815.1000;0.4990;0.6641;
815.4000;0.5022;0.6757;
815.7000;0.5006;0.6803;
816.0000;0.5022;0.6919;
816.3000;0.5047;0.6989;
816.6000;0.4990;0.6896;
816.9000;0.4998;0.6919;
817.2000;0.4998;0.6873;
817.5000;0.5120;0.7175;
817.8000;0.4990;0.6919;
818.1000;0.4965;0.6896;
818.4000;0.5006;0.6966;
818.7000;0.4990;0.6919;
819.0000;0.5022;0.6943;
819.3000;0.4998;0.6826;
819.6000;0.4949;0.6710;
819.9000;0.4982;0.6826;
820.2000;0.4998;0.6896;
820.5000;0.4982;0.6896;
820.8000;0.4965;0.6734;
821.1000;0.4965;0.6734;
821.4000;0.5014;0.6873;
821.7000;0.5006;0.6780;
822.0000;0.4990;0.6896;
822.3000;0.5014;0.6989;
822.6000;0.5006;0.6896;
822.9000;0.4998;0.6780;
823.2000;0.5022;0.6757;
823.5000;0.4998;0.6687;
823.8000;0.4998;0.6618;
824.1000;0.4965;0.6548;
824.4000;0.4990;0.6664;
824.7000;0.4998;0.6594;
825.0000;0.5039;0.6710;
825.3000;0.4998;0.6594;
825.6000;0.4998;0.6594;
825.9000;0.4982;0.6571;
826.2000;0.5006;0.6710;
826.5000;0.4998;0.6594;
826.8000;0.4998;0.6618;
827.1000;0.4990;0.6664;
827.4000;0.4982;0.6664;
827.7000;0.5014;0.6803;
828.0000;0.4982;0.6826;
828.3000;0.4998;0.6850;
828.6000;0.4982;0.6826;
828.9000;0.4965;0.6803;
829.2000;0.4998;0.6873;
829.5000;0.4990;0.6896;
829.8000;0.5006;0.6919;
830.1000;0.4998;0.6873;
830.4000;0.4982;0.6896;
830.7000;0.4998;0.7035;
831.0000;0.5014;0.7035;
831.3000;0.4982;0.7012;
831.6000;0.5031;0.7105;
831.9000;0.4990;0.6989;
832.2000;0.4974;0.6873;
832.5000;0.5031;0.6966;
832.8000;0.5014;0.6896;
833.1000;0.4998;0.6780;
833.4000;0.4990;0.6757;
833.7000;0.4998;0.6826;
834.0000;0.5071;0.6989;
834.3000;0.5014;0.6850;
834.6000;0.5031;0.6919;
834.9000;0.4990;0.6850;
835.2000;0.4974;0.6757;
835.5000;0.4982;0.6734;
835.8000;0.4957;0.6687;
836.1000;0.5006;0.6803;
836.4000;0.4965;0.6757;
836.7000;0.4990;0.6757;
837.0000;0.5006;0.6826;
837.3000;0.4990;0.6826;
837.6000;0.4957;0.6803;
837.9000;0.4982;0.6850;
838.2000;0.4974;0.6850;
838.5000;0.4998;0.6896;
838.8000;0.4998;0.6873;
839.1000;0.4974;0.6803;
839.4000;0.4990;0.6780;
839.7000;0.4965;0.6757;
840.0000;0.4965;0.6734;
840.3000;0.4982;0.6757;
840.6000;0.4974;0.6687;
840.9000;0.4982;0.6734;
841.2000;0.4982;0.6757;
841.5000;0.4949;0.6734;
841.8000;0.4990;0.6780;
842.1000;0.4998;0.6664;
842.4000;0.4949;0.6571;
842.7000;0.5006;0.6594;
843.0000;0.4982;0.6525;
843.3000;0.4982;0.6594;
843.6000;0.4998;0.6687;
843.9000;0.4974;0.6641;
844.2000;0.4982;0.6641;
844.5000;0.4998;0.6687;
844.8000;0.4990;0.6757;
845.1000;0.4998;0.6803;
845.4000;0.4990;0.6850;
845.7000;0.4949;0.6826;
846.0000;0.4965;0.6803;
846.3000;0.4982;0.6850;
846.6000;0.4990;0.6919;
846.9000;0.4957;0.6850;
847.2000;0.4982;0.6873;
847.5000;0.4982;0.6896;
847.8000;0.4982;0.6966;
848.1000;0.4990;0.6966;
848.4000;0.5031;0.7035;
848.7000;0.4974;0.7012;
849.0000;0.4982;0.7082;
849.3000;0.4990;0.7082;
849.6000;0.4941;0.6896;
849.9000;0.4974;0.6919;
850.2000;0.4965;0.6919;
850.5000;0.4957;0.6826;
850.8000;0.4982;0.6896;
851.1000;0.4957;0.6803;
851.4000;0.5022;0.6919;
851.7000;0.4998;0.6826;
852.0000;0.4974;0.6826;
852.3000;0.4965;0.6780;
852.6000;0.4990;0.6757;
852.9000;0.4990;0.6734;
853.2000;0.4974;0.6780;
853.5000;0.4990;0.6826;
853.8000;0.4982;0.6803;
854.1000;0.4965;0.6757;
854.4000;0.4990;0.6710;
854.7000;0.4957;0.6664;
855.0000;0.4917;0.6618;
855.3000;0.4974;0.6641;
855.6000;0.4982;0.6571;
855.9000;0.4965;0.6548;
856.2000;0.4941;0.6478;
856.5000;0.4982;0.6501;
856.8000;0.4998;0.6478;
857.1000;0.4990;0.6594;
857.4000;0.4974;0.6710;
857.7000;0.4974;0.6780;
858.0000;0.4974;0.6826;
858.3000;0.4974;0.6873;
858.6000;0.5022;0.6919;
858.9000;0.4974;0.6826;
859.2000;0.4982;0.6896;
859.5000;0.4974;0.6943;
859.8000;0.4982;0.6966;
860.1000;0.5014;0.6966;
860.4000;0.4974;0.6826;
860.7000;0.5031;0.6989;
861.0000;0.4974;0.6803;
861.3000;0.4974;0.6803;
861.6000;0.4957;0.6826;
861.9000;0.4974;0.6803;
862.2000;0.4965;0.6803;
862.5000;0.4949;0.6734;
862.8000;0.4974;0.6734;
863.1000;0.4990;0.6757;
863.4000;0.4982;0.6826;
863.7000;0.4957;0.6803;
864.0000;0.4965;0.6873;
864.3000;0.4982;0.6826;
864.6000;0.4982;0.6826;
864.9000;0.4990;0.6919;
865.2000;0.4949;0.6850;
865.5000;0.4949;0.6850;
865.8000;0.4965;0.6873;
866.1000;0.5014;0.6966;
866.4000;0.4957;0.6757;
866.7000;0.4990;0.6803;
867.0000;0.4974;0.6757;
867.3000;0.4982;0.6850;
867.6000;0.4957;0.6919;
867.9000;0.4957;0.6943;
868.2000;0.4965;0.7035;
868.5000;0.4965;0.7012;
868.8000;0.4965;0.6989;
869.1000;0.4876;0.6664;
869.4000;0.4965;0.6943;
869.7000;0.4965;0.6966;
870.0000;0.4949;0.6873;
870.3000;0.4941;0.6780;
870.6000;0.4957;0.6757;
870.9000;0.4949;0.6710;
871.2000;0.4949;0.6710;
871.5000;0.4974;0.6780;
871.8000;0.4965;0.6687;
872.1000;0.5022;0.6826;
872.4000;0.4957;0.6710;
872.7000;0.4949;0.6664;
873.0000;0.4982;0.6780;
873.3000;0.4965;0.6780;
873.6000;0.4990;0.6687;
873.9000;0.4982;0.6710;
874.2000;0.4965;0.6594;
874.5000;0.4974;0.6618;
874.8000;0.4974;0.6687;
875.1000;0.4957;0.6641;
875.4000;0.4965;0.6618;
875.7000;0.4957;0.6641;
876.0000;0.4982;0.6734;
876.3000;0.4965;0.6618;
876.6000;0.4965;0.6664;
876.9000;0.4851;0.6432;
877.2000;0.4974;0.6664;
877.5000;0.4974;0.6757;
877.8000;0.5031;0.6826;
878.1000;0.4998;0.6826;
878.4000;0.4990;0.6826;
878.7000;0.4941;0.6780;
879.0000;0.4965;0.6780;
879.3000;0.4949;0.6687;
879.6000;0.4957;0.6664;
879.9000;0.4957;0.6687;
880.2000;0.4965;0.6687;
880.5000;0.4998;0.6757;
880.8000;0.4974;0.6664;
881.1000;0.4974;0.6641;
881.4000;0.4974;0.6664;
881.7000;0.4957;0.6641;
882.0000;0.4982;0.6687;
882.3000;0.4965;0.6687;
882.6000;0.4998;0.6780;
882.9000;0.4965;0.6803;
883.2000;0.4974;0.6780;
883.5000;0.4957;0.6757;
883.8000;0.4965;0.6710;
884.1000;0.4949;0.6803;
884.4000;0.4974;0.6966;
884.7000;0.4965;0.7082;
885.0000;0.4974;0.7059;
885.3000;0.4965;0.7082;
885.6000;0.4957;0.7059;
885.9000;0.4933;0.7035;
886.2000;0.4949;0.7059;
886.5000;0.4949;0.6919;
886.8000;0.4941;0.6989;
887.1000;0.4965;0.6966;
887.4000;0.4933;0.6919;
887.7000;0.4965;0.6873;
888.0000;0.4957;0.6780;
888.3000;0.4941;0.6780;
888.6000;0.4949;0.6780;
888.9000;0.4965;0.6850;
889.2000;0.4933;0.6780;
889.5000;0.4965;0.6803;
889.8000;0.4965;0.6687;
890.1000;0.4876;0.6432;
890.4000;0.4982;0.6734;
890.7000;0.4974;0.6734;
891.0000;0.4965;0.6664;
891.3000;0.5014;0.6780;
891.6000;0.4965;0.6734;
891.9000;0.4965;0.6710;
892.2000;0.4965;0.6710;
892.5000;0.4949;0.6664;
892.8000;0.4933;0.6618;
893.1000;0.4949;0.6664;
893.4000;0.4941;0.6757;
893.7000;0.4990;0.6919;
894.0000;0.5022;0.7082;
894.3000;0.4860;0.6710;
894.6000;0.4933;0.6803;
894.9000;0.4974;0.6873;
895.2000;0.4957;0.6780;
895.5000;0.4957;0.6826;
895.8000;0.4957;0.6873;
896.1000;0.4949;0.6803;
896.4000;0.5006;0.6850;
896.7000;0.4982;0.6664;
897.0000;0.4998;0.6734;
897.3000;0.4974;0.6641;
897.6000;0.4860;0.6339;
897.9000;0.4933;0.6594;
898.2000;0.4900;0.6548;
898.5000;0.4949;0.6641;
898.8000;0.4949;0.6687;
899.1000;0.4949;0.6734;
899.4000;0.4949;0.6734;
899.7000;0.4957;0.6641;
900.0000;0.4941;0.6618;
900.3000;0.4957;0.6687;
900.6000;0.5006;0.6850;
900.9000;0.4965;0.6780;
901.2000;0.4933;0.6687;
901.5000;0.4965;0.6664;
901.8000;0.4868;0.6362;
902.1000;0.4974;0.6571;
902.4000;0.4957;0.6618;
902.7000;0.4957;0.6618;
903.0000;0.4965;0.6618;
903.3000;0.4957;0.6710;
903.6000;0.4974;0.6664;
903.9000;0.4957;0.6687;
904.2000;0.4965;0.6757;
904.5000;0.4974;0.6826;
904.8000;0.4965;0.6710;
905.1000;0.4982;0.6710;
905.4000;0.4982;0.6710;
905.7000;0.5022;0.6873;
906.0000;0.4851;0.6455;
906.3000;0.4965;0.6687;
906.6000;0.4957;0.6803;
906.9000;0.4974;0.6873;
907.2000;0.4957;0.6734;
907.5000;0.4974;0.6780;
907.8000;0.4933;0.6687;
908.1000;0.4957;0.6826;
908.4000;0.4982;0.6850;
908.7000;0.4965;0.6943;
909.0000;0.4941;0.6919;
909.3000;0.4941;0.6943;
909.6000;0.4965;0.6826;
909.9000;0.4933;0.6826;
910.2000;0.4925;0.6873;
910.5000;0.4965;0.7012;
910.8000;0.4965;0.6966;
911.1000;0.4957;0.6943;
911.4000;0.4941;0.6850;
911.7000;0.4941;0.6826;
912.0000;0.4941;0.6757;
912.3000;0.4917;0.6734;
912.6000;0.4941;0.6734;
912.9000;0.4957;0.6757;
913.2000;0.4933;0.6687;
913.5000;0.4933;0.6734;
913.8000;0.4982;0.6826;
914.1000;0.4925;0.6618;
914.4000;0.4974;0.6687;
914.7000;0.4941;0.6687;
915.0000;0.4941;0.6525;
915.3000;0.5014;0.6664;
915.6000;0.4990;0.6641;
915.9000;0.4949;0.6478;
916.2000;0.4949;0.6455;
916.5000;0.4933;0.6478;
916.8000;0.4949;0.6501;
917.1000;0.4925;0.6478;
917.4000;0.4892;0.6316;
917.7000;0.4917;0.6455;
918.0000;0.4949;0.6571;
918.3000;0.4941;0.6594;
918.6000;0.5014;0.6757;
918.9000;0.4941;0.6594;
919.2000;0.4933;0.6641;
919.5000;0.4925;0.6594;
919.8000;0.4933;0.6618;
920.1000;0.4965;0.6641;
920.4000;0.4957;0.6687;
920.7000;0.4965;0.6803;
921.0000;0.4957;0.6664;
921.3000;0.4933;0.6571;
921.6000;0.4957;0.6571;
921.9000;0.4990;0.6618;
922.2000;0.4933;0.6455;
922.5000;0.4933;0.6478;
922.8000;0.4982;0.6548;
923.1000;0.4957;0.6432;
923.4000;0.4949;0.6339;
923.7000;0.4917;0.6362;
924.0000;0.4949;0.6409;
924.3000;0.4974;0.6455;
924.6000;0.5014;0.6594;
924.9000;0.5039;0.6757;
925.2000;0.4957;0.6571;
925.5000;0.4965;0.6525;
925.8000;0.4957;0.6571;
926.1000;0.4957;0.6501;
926.4000;0.4982;0.6664;
926.7000;0.5022;0.6734;
927.0000;0.4892;0.6409;
927.3000;0.4974;0.6571;
927.6000;0.4925;0.6478;
927.9000;0.4949;0.6525;
928.2000;0.4949;0.6455;
928.5000;0.4949;0.6455;
928.8000;0.4949;0.6432;
929.1000;0.4957;0.6409;
929.4000;0.4957;0.6455;
929.7000;0.4851;0.6200;
930.0000;0.4957;0.6525;
930.3000;0.4933;0.6594;
930.6000;0.4957;0.6594;
930.9000;0.4941;0.6571;
931.2000;0.4965;0.6687;
931.5000;0.4982;0.6734;
931.8000;0.4957;0.6618;
932.1000;0.4965;0.6734;
932.4000;0.4974;0.6734;
932.7000;0.4925;0.6757;
933.0000;0.4811;0.6548;
933.3000;0.4933;0.6873;
933.6000;0.4925;0.6664;
933.9000;0.4957;0.6710;
934.2000;0.4925;0.6618;
934.5000;0.5006;0.6919;
934.8000;0.4974;0.6943;
935.1000;0.4965;0.6896;
935.4000;0.4957;0.6803;
935.7000;0.4925;0.6710;
936.0000;0.4957;0.6757;
936.3000;0.4917;0.6571;
936.6000;0.4949;0.6548;
936.9000;0.4900;0.6362;
937.2000;0.4925;0.6501;
937.5000;0.4965;0.6687;
937.8000;0.4957;0.6850;
938.1000;0.4965;0.6873;
938.4000;0.4941;0.6803;
938.7000;0.4941;0.6734;
939.0000;0.4941;0.6710;
939.3000;0.4941;0.6757;
939.6000;0.4941;0.6780;
939.9000;0.4949;0.6850;
940.2000;0.4941;0.6803;
940.5000;0.4933;0.6850;
940.8000;0.4941;0.6850;
941.1000;0.4933;0.6803;
941.4000;0.4908;0.6734;
941.7000;0.4949;0.6710;
942.0000;0.4933;0.6687;
942.3000;0.4925;0.6618;
942.6000;0.4949;0.6734;
942.9000;0.4933;0.6803;
943.2000;0.4941;0.6896;
943.5000;0.4974;0.6989;
943.8000;0.4965;0.7012;
944.1000;0.4998;0.7059;
944.4000;0.4965;0.6780;
944.7000;0.4949;0.6594;
945.0000;0.4949;0.6594;
945.3000;0.4933;0.6618;
945.6000;0.4925;0.6641;
945.9000;0.4957;0.6757;
946.2000;0.4949;0.6803;
946.5000;0.4949;0.6734;
946.8000;0.4957;0.6734;
947.1000;0.4949;0.6641;
947.4000;0.4933;0.6618;
947.7000;0.4941;0.6664;
948.0000;0.4941;0.6664;
948.3000;0.4941;0.6710;
948.6000;0.4941;0.6780;
948.9000;0.4941;0.6780;
949.2000;0.4941;0.6757;
949.5000;0.4949;0.6757;
949.8000;0.4925;0.6664;
950.1000;0.4925;0.6710;
950.4000;0.4941;0.6757;
950.7000;0.4925;0.6757;
951.0000;0.4949;0.6780;
951.3000;0.4949;0.6803;
951.6000;0.4998;0.6873;
951.9000;0.4949;0.6757;
952.2000;0.4908;0.6734;
952.5000;0.4933;0.6803;
952.8000;0.4949;0.6734;
953.1000;0.4917;0.6571;
953.4000;0.4908;0.6594;
953.7000;0.4957;0.6734;
954.0000;0.4933;0.6780;
954.3000;0.4965;0.6873;
954.6000;0.4965;0.6873;
954.9000;0.4933;0.6734;
955.2000;0.4908;0.6710;
955.5000;0.4949;0.6803;
955.8000;0.4949;0.6850;
956.1000;0.4925;0.6873;
956.4000;0.4933;0.6966;
956.7000;0.4941;0.7012;
957.0000;0.4933;0.6850;
957.3000;0.4933;0.6757;
957.6000;0.4925;0.6641;
957.9000;0.4941;0.6641;
958.2000;0.4925;0.6710;
958.5000;0.4933;0.6803;
958.8000;0.4941;0.6850;
959.1000;0.4933;0.6919;
959.4000;0.4941;0.6826;
959.7000;0.4933;0.6780;
960.0000;0.4933;0.6803;
960.3000;0.4900;0.6687;
960.6000;0.4949;0.6850;
960.9000;0.4933;0.6896;
961.2000;0.4949;0.6873;
961.5000;0.4933;0.6780;
961.8000;0.4925;0.6873;
962.1000;0.4933;0.6943;
962.4000;0.4933;0.6919;
962.7000;0.4925;0.6943;
963.0000;0.4933;0.6989;
963.3000;0.4794;0.6594;
963.6000;0.4933;0.6850;
963.9000;0.4933;0.6919;
964.2000;0.4941;0.7059;
964.5000;0.4933;0.7059;
964.8000;0.4925;0.7035;
965.1000;0.4925;0.6919;
965.4000;0.4941;0.6966;
965.7000;0.4933;0.6873;
966.0000;0.4933;0.6850;
966.3000;0.4933;0.6873;
966.6000;0.4908;0.6780;
966.9000;0.4949;0.6850;
967.2000;0.4941;0.6734;
967.5000;0.4957;0.6734;
967.8000;0.4933;0.6757;
968.1000;0.4965;0.6803;
968.4000;0.5039;0.7035;
968.7000;0.4941;0.6850;
969.0000;0.4949;0.6896;
969.3000;0.4949;0.6919;
969.6000;0.4925;0.6896;
969.9000;0.4933;0.6896;
970.2000;0.4925;0.6919;
970.5000;0.4957;0.6966;
970.8000;0.4957;0.6919;
971.1000;0.4933;0.6989;
971.4000;0.4884;0.6919;
971.7000;0.4851;0.6873;
972.0000;0.4982;0.7152;
972.3000;0.4917;0.7059;
972.6000;0.4933;0.7082;
972.9000;0.4949;0.7082;
973.2000;0.5031;0.7268;
973.5000;0.4868;0.6757;
973.8000;0.4957;0.6826;
974.1000;0.4982;0.6943;
974.4000;0.4941;0.6943;
974.7000;0.4949;0.7059;
975.0000;0.5006;0.7221;
975.3000;0.4949;0.7128;
975.6000;0.4933;0.7059;
975.9000;0.4941;0.6989;
976.2000;0.4941;0.7035;
976.5000;0.4957;0.6943;
976.8000;0.4917;0.6919;
977.1000;0.4949;0.6943;
977.4000;0.4957;0.6966;
977.7000;0.5031;0.7012;
978.0000;0.4908;0.6780;
978.3000;0.4941;0.6803;
978.6000;0.4933;0.6780;
978.9000;0.4933;0.6757;
979.2000;0.4917;0.6780;
979.5000;0.4957;0.6803;
979.8000;0.4941;0.6803;
980.1000;0.4933;0.6919;
980.4000;0.4917;0.6826;
980.7000;0.4933;0.6850;
981.0000;0.4925;0.6943;
981.3000;0.4941;0.7035;
981.6000;0.4925;0.7012;
981.9000;0.4949;0.6943;
982.2000;0.4917;0.6803;
982.5000;0.4892;0.6734;
982.8000;0.4949;0.6757;
983.1000;0.4933;0.6710;
983.4000;0.4933;0.6664;
983.7000;0.4933;0.6710;
984.0000;0.4925;0.6734;
984.3000;0.4933;0.6780;
984.6000;0.4925;0.6757;
984.9000;0.4933;0.6850;
985.2000;0.4925;0.6896;
985.5000;0.4917;0.6873;
985.8000;0.4933;0.7035;
986.1000;0.4941;0.7059;
986.4000;0.4925;0.7012;
986.7000;0.4925;0.7012;
987.0000;0.4949;0.6896;
987.3000;0.4876;0.6757;
987.6000;0.4949;0.6850;
987.9000;0.4917;0.6710;
988.2000;0.4917;0.6618;
988.5000;0.4917;0.6594;
988.8000;0.4917;0.6548;
989.1000;0.4868;0.6385;
989.4000;0.4941;0.6780;
989.7000;0.4925;0.6780;
990.0000;0.4925;0.6780;
990.3000;0.4941;0.6803;
990.6000;0.4917;0.6664;
990.9000;0.5006;0.6826;
991.2000;0.4957;0.6780;
991.5000;0.4933;0.6687;
991.8000;0.4876;0.6548;
992.1000;0.4957;0.6757;
992.4000;0.4933;0.6780;
992.7000;0.5022;0.6919;
993.0000;0.4974;0.6850;
993.3000;0.4941;0.6664;
993.6000;0.4941;0.6664;
993.9000;0.4949;0.6757;
994.2000;0.4917;0.6641;
994.5000;0.4917;0.6757;
994.8000;0.4827;0.6548;
995.1000;0.4900;0.6734;
995.4000;0.4884;0.6734;
995.7000;0.4900;0.6687;
996.0000;0.4900;0.6664;
996.3000;0.4933;0.6757;
996.6000;0.4892;0.6734;
996.9000;0.4925;0.6757;
997.2000;0.4933;0.6826;
997.5000;0.4941;0.6919;
997.8000;0.4900;0.6803;
998.1000;0.4892;0.6873;
998.4000;0.4851;0.6826;
998.7000;0.4908;0.6989;
999.0000;0.4949;0.7105;
999.3000;0.4908;0.6989;
999.6000;0.4933;0.6896;
999.9000;0.4925;0.6919;
1000.2000;0.4925;0.6896;
1000.5000;0.4974;0.7059;
1000.8000;0.4933;0.6966;
1001.1000;0.4925;0.7012;
1001.4000;0.4925;0.7082;
1001.7000;0.4925;0.7128;
1002.0000;0.4949;0.7198;
1002.3000;0.4925;0.7105;
1002.6000;0.4949;0.6989;
1002.9000;0.4917;0.6989;
1003.2000;0.4998;0.7175;
1003.5000;0.4933;0.7059;
1003.8000;0.4941;0.6943;
1004.1000;0.4949;0.7012;
1004.4000;0.4933;0.7012;
1004.7000;0.4941;0.7082;
1005.0000;0.4949;0.7175;
1005.3000;0.4933;0.7082;
1005.6000;0.4917;0.7035;
1005.9000;0.4941;0.7012;
1006.2000;0.4851;0.6710;
1006.5000;0.4925;0.6850;
1006.8000;0.4925;0.6873;
1007.1000;0.4917;0.6780;
1007.4000;0.4925;0.6850;
1007.7000;0.4925;0.6896;
1008.0000;0.4925;0.6989;
1008.3000;0.4998;0.7175;
1008.6000;0.4941;0.7059;
1008.9000;0.4933;0.7035;
1009.2000;0.4925;0.7035;
1009.5000;0.4933;0.6966;
1009.8000;0.4925;0.6919;
1010.1000;0.4917;0.6943;
1010.4000;0.4949;0.7128;
1010.7000;0.4917;0.7082;
1011.0000;0.4884;0.7035;
1011.3000;0.4892;0.7059;
1011.6000;0.4908;0.7012;
1011.9000;0.4925;0.6989;
1012.2000;0.4917;0.6873;
1012.5000;0.4868;0.6780;
1012.8000;0.4957;0.7012;
1013.1000;0.4933;0.6943;
1013.4000;0.4941;0.6943;
1013.7000;0.4933;0.6896;
1014.0000;0.4933;0.6850;
1014.3000;0.4933;0.6803;
1014.6000;0.4908;0.6710;
1014.9000;0.4933;0.6734;
1015.2000;0.4949;0.6757;
1015.5000;0.4949;0.6780;
1015.8000;0.4957;0.6780;
1016.1000;0.4917;0.6664;
1016.4000;0.4974;0.6826;
1016.7000;0.4957;0.6780;
1017.0000;0.5031;0.6919;
1017.3000;0.4949;0.6826;
1017.6000;0.4925;0.6826;
1017.9000;0.4917;0.6850;
1018.2000;0.4941;0.6850;
1018.5000;0.4933;0.6803;
1018.8000;0.4949;0.6850;
1019.1000;0.4965;0.6896;
1019.4000;0.4957;0.6873;
1019.7000;0.4917;0.6826;
1020.0000;0.4933;0.6826;
1020.3000;0.4908;0.6850;
1020.6000;0.4917;0.6873;
1020.9000;0.4949;0.6989;
1021.2000;0.4933;0.6919;
1021.5000;0.4917;0.6919;
1021.8000;0.4941;0.6966;
1022.1000;0.4925;0.6850;
1022.4000;0.4900;0.6826;
1022.7000;0.4949;0.6826;
1023.0000;0.4941;0.6780;
1023.3000;0.4957;0.6710;
1023.6000;0.4925;0.6803;
1023.9000;0.4925;0.6873;
1024.2000;0.5014;0.7198;
1024.5000;0.4908;0.6966;
1024.8000;0.4908;0.6943;
1025.1000;0.4949;0.7012;
1025.4000;0.4917;0.6989;
1025.7000;0.4933;0.7082;
1026.0000;0.4933;0.7059;
1026.3000;0.4900;0.6989;
1026.6000;0.4933;0.7035;
1026.9000;0.4941;0.7082;
1027.2000;0.4949;0.7012;
1027.5000;0.4917;0.6873;
1027.8000;0.4917;0.6826;
1028.1000;0.4941;0.6873;
1028.4000;0.4884;0.6780;
1028.7000;0.4933;0.6919;
1029.0000;0.4908;0.6850;
1029.3000;0.4949;0.6966;
1029.6000;0.4957;0.6826;
1029.9000;0.4925;0.6757;
1030.2000;0.4884;0.6734;
1030.5000;0.4925;0.6826;
1030.8000;0.4933;0.6826;
1031.1000;0.4884;0.6757;
1031.4000;0.4974;0.6873;
1031.7000;0.4917;0.6734;
1032.0000;0.4917;0.6873;
1032.3000;0.4925;0.6896;
1032.6000;0.4917;0.6734;
1032.9000;0.4933;0.6734;
1033.2000;0.4933;0.6780;
1033.5000;0.4925;0.6734;
1033.8000;0.4917;0.6734;
1034.1000;0.4965;0.6850;
1034.4000;0.4917;0.6710;
1034.7000;0.4925;0.6710;
1035.0000;0.4917;0.6803;
1035.3000;0.4941;0.6850;
1035.6000;0.4925;0.6803;
1035.9000;0.4925;0.6803;
1036.2000;0.4933;0.6710;
1036.5000;0.4908;0.6618;
1036.8000;0.4900;0.6571;
1037.1000;0.4941;0.6687;
1037.4000;0.4860;0.6478;
1037.7000;0.4884;0.6664;
1038.0000;0.4933;0.6803;
1038.3000;0.4900;0.6780;
1038.6000;0.4917;0.6803;
1038.9000;0.4974;0.6873;
1039.2000;0.4900;0.6687;
1039.5000;0.4933;0.6757;
1039.8000;0.4941;0.6803;
1040.1000;0.4925;0.6803;
1040.4000;0.4941;0.6757;
1040.7000;0.4933;0.6710;
1041.0000;0.4917;0.6664;
1041.3000;0.4908;0.6641;
1041.6000;0.4925;0.6571;
1041.9000;0.4941;0.6525;
1042.2000;0.4851;0.6246;
1042.5000;0.4941;0.6385;
1042.8000;0.4884;0.6246;
1043.1000;0.4933;0.6385;
1043.4000;0.4917;0.6409;
1043.7000;0.4900;0.6385;
1044.0000;0.4933;0.6455;
1044.3000;0.4925;0.6571;
1044.6000;0.4925;0.6525;
1044.9000;0.4933;0.6478;
1045.2000;0.4990;0.6594;
1045.5000;0.4925;0.6455;
1045.8000;0.4933;0.6478;
1046.1000;0.4933;0.6455;
1046.4000;0.4990;0.6641;
1046.7000;0.4990;0.6664;
1047.0000;0.4957;0.6548;
1047.3000;0.4925;0.6571;
1047.6000;0.4925;0.6525;
1047.9000;0.4925;0.6548;
1048.2000;0.4941;0.6478;
1048.5000;0.4949;0.6455;
1048.8000;0.4957;0.6548;
1049.1000;0.4925;0.6525;
1049.4000;0.4925;0.6571;
1049.7000;0.4892;0.6432;
1050.0000;0.4965;0.6687;
1050.3000;0.4876;0.6525;
1050.6000;0.4917;0.6710;
1050.9000;0.4917;0.6664;
1051.2000;0.4933;0.6664;
1051.5000;0.4917;0.6687;
1051.8000;0.4900;0.6664;
1052.1000;0.4892;0.6594;
1052.4000;0.4917;0.6525;
1052.7000;0.4925;0.6571;
1053.0000;0.4917;0.6594;
1053.3000;0.4908;0.6664;
1053.6000;0.4917;0.6618;
1053.9000;0.4933;0.6687;
1054.2000;0.4925;0.6664;
1054.5000;0.4908;0.6548;
1054.8000;0.4925;0.6548;
1055.1000;0.4925;0.6501;
1055.4000;0.4925;0.6455;
1055.7000;0.4941;0.6478;
1056.0000;0.4941;0.6548;
1056.3000;0.4925;0.6571;
1056.6000;0.4965;0.6734;
1056.9000;0.4917;0.6664;
1057.2000;0.4933;0.6618;
1057.5000;0.4933;0.6664;
1057.8000;0.4925;0.6664;
1058.1000;0.4908;0.6710;
1058.4000;0.4908;0.6780;
1058.7000;0.4917;0.6710;
1059.0000;0.4925;0.6687;
1059.3000;0.4925;0.6687;
1059.6000;0.4917;0.6664;
1059.9000;0.4917;0.6664;
1060.2000;0.4933;0.6757;
1060.5000;0.4908;0.6850;
1060.8000;0.4917;0.6850;
1061.1000;0.4925;0.6850;
1061.4000;0.4933;0.6919;
1061.7000;0.4933;0.6966;
1062.0000;0.4957;0.6919;
1062.3000;0.4917;0.6803;
1062.6000;0.4908;0.6943;
1062.9000;0.4925;0.6943;
1063.2000;0.4917;0.6919;
1063.5000;0.4965;0.7035;
1063.8000;0.4917;0.6943;
1064.1000;0.4949;0.6943;
1064.4000;0.4974;0.6896;
1064.7000;0.4941;0.6757;
1065.0000;0.4941;0.6757;
1065.3000;0.4900;0.6710;
1065.6000;0.4900;0.6641;
1065.9000;0.4917;0.6548;
1066.2000;0.4908;0.6525;
1066.5000;0.4974;0.6664;
1066.8000;0.4908;0.6548;
1067.1000;0.4925;0.6618;
1067.4000;0.4925;0.6710;
1067.7000;0.4917;0.6594;
1068.0000;0.4900;0.6548;
1068.3000;0.4892;0.6478;
1068.6000;0.4908;0.6594;
1068.9000;0.4925;0.6664;
1069.2000;0.4811;0.6409;
1069.5000;0.4900;0.6734;
1069.8000;0.4925;0.6826;
1070.1000;0.4933;0.6919;
1070.4000;0.4949;0.7035;
1070.7000;0.4925;0.6943;
1071.0000;0.4925;0.6873;
1071.3000;0.4925;0.6896;
1071.6000;0.4843;0.6641;
1071.9000;0.4917;0.6757;
1072.2000;0.4917;0.6664;
1072.5000;0.4925;0.6664;
1072.8000;0.4925;0.6734;
1073.1000;0.4917;0.6757;
1073.4000;0.4908;0.6803;
1073.7000;0.4917;0.6803;
1074.0000;0.4908;0.6803;
1074.3000;0.4925;0.6687;
1074.6000;0.4794;0.6316;
1074.9000;0.4925;0.6525;
1075.2000;0.4941;0.6641;
1075.5000;0.4941;0.6710;
1075.8000;0.4917;0.6687;
1076.1000;0.4908;0.6780;
1076.4000;0.4949;0.6850;
1076.7000;0.4917;0.6641;
1077.0000;0.4917;0.6687;
1077.3000;0.5006;0.6780;
1077.6000;0.4933;0.6618;
1077.9000;0.4908;0.6525;
1078.2000;0.4941;0.6664;
1078.5000;0.4908;0.6571;
1078.8000;0.4941;0.6641;
1079.1000;0.4884;0.6501;
1079.4000;0.4941;0.6664;
1079.7000;0.4917;0.6618;
1080.0000;0.4957;0.6687;
1080.3000;0.4917;0.6594;
1080.6000;0.4949;0.6641;
1080.9000;0.4957;0.6710;
1081.2000;0.4917;0.6710;
1081.5000;0.4941;0.6780;
1081.8000;0.4949;0.6757;
1082.1000;0.4941;0.6710;
1082.4000;0.4949;0.6757;
1082.7000;0.4957;0.6757;
1083.0000;0.4925;0.6641;
1083.3000;0.4925;0.6548;
1083.6000;0.4908;0.6432;
1083.9000;0.4933;0.6525;
1084.2000;0.4900;0.6525;
1084.5000;0.4974;0.6757;
1084.8000;0.4917;0.6664;
1085.1000;0.4908;0.6687;
1085.4000;0.5022;0.6989;
1085.7000;0.4949;0.6757;
1086.0000;0.4908;0.6687;
1086.3000;0.4933;0.6687;
1086.6000;0.4908;0.6710;
1086.9000;0.4908;0.6618;
1087.2000;0.4917;0.6641;
1087.5000;0.4925;0.6571;
1087.8000;0.4900;0.6571;
1088.1000;0.4917;0.6594;
1088.4000;0.4933;0.6618;
1088.7000;0.4957;0.6710;
1089.0000;0.4941;0.6734;
1089.3000;0.4925;0.6780;
1089.6000;0.4917;0.6780;
1089.9000;0.4908;0.6757;
1090.2000;0.4892;0.6850;
1090.5000;0.4974;0.6943;
1090.8000;0.4908;0.6757;
1091.1000;0.4900;0.6664;
1091.4000;0.4941;0.6873;
1091.7000;0.4933;0.6896;
1092.0000;0.4900;0.6803;
1092.3000;0.4917;0.6803;
1092.6000;0.4917;0.6687;
1092.9000;0.4917;0.6687;
1093.2000;0.4908;0.6687;
1093.5000;0.4917;0.6687;
1093.8000;0.4908;0.6757;
1094.1000;0.4819;0.6548;
1094.4000;0.4941;0.6850;
1094.7000;0.4933;0.6826;
1095.0000;0.4925;0.6803;
1095.3000;0.4917;0.6710;
1095.6000;0.4925;0.6734;
1095.9000;0.4925;0.6803;
1096.2000;0.4925;0.6734;
1096.5000;0.4949;0.6710;
1096.8000;0.4949;0.6687;
1097.1000;0.5031;0.6943;
1097.4000;0.4925;0.6734;
1097.7000;0.4941;0.6826;
1098.0000;0.4925;0.6826;
1098.3000;0.4868;0.6664;
1098.6000;0.4925;0.6757;
1098.9000;0.4908;0.6618;
1099.2000;0.4925;0.6664;
1099.5000;0.4949;0.6734;
1099.8000;0.4933;0.6826;
1100.1000;0.4925;0.6826;
1100.4000;0.4900;0.6826;
1100.7000;0.4925;0.6803;
1101.0000;0.4941;0.6757;
1101.3000;0.4941;0.6710;
1101.6000;0.4917;0.6571;
1101.9000;0.4957;0.6687;
1102.2000;0.4941;0.6571;
1102.5000;0.4998;0.6687;
1102.8000;0.4908;0.6478;
1103.1000;0.4868;0.6362;
1103.4000;0.4933;0.6455;
1103.7000;0.4925;0.6455;
1104.0000;0.4925;0.6618;
1104.3000;0.4868;0.6618;
1104.6000;0.4917;0.6734;
1104.9000;0.4941;0.6826;
1105.2000;0.4925;0.6710;
1105.5000;0.4900;0.6687;
1105.8000;0.4933;0.6687;
1106.1000;0.4908;0.6548;
1106.4000;0.4925;0.6525;
1106.7000;0.4925;0.6664;
1107.0000;0.4917;0.6734;
1107.3000;0.4933;0.6780;
1107.6000;0.4900;0.6734;
1107.9000;0.4908;0.6734;
1108.2000;0.4908;0.6780;
1108.5000;0.4917;0.6803;
1108.8000;0.4925;0.6780;
1109.1000;0.4925;0.6664;
1109.4000;0.4917;0.6641;
1109.7000;0.4925;0.6757;
1110.0000;0.4941;0.6780;
1110.3000;0.4949;0.6919;
1110.6000;0.4917;0.6757;
1110.9000;0.4917;0.6734;
1111.2000;0.4933;0.6687;
1111.5000;0.5039;0.6943;
1111.8000;0.4957;0.6803;
1112.1000;0.4965;0.6850;
1112.4000;0.4933;0.6734;
1112.7000;0.4925;0.6734;
1113.0000;0.4917;0.6780;
1113.3000;0.4917;0.6850;
1113.6000;0.4908;0.6896;
1113.9000;0.4908;0.6919;
1114.2000;0.4917;0.6966;
1114.5000;0.4925;0.6943;
1114.8000;0.4917;0.6850;
1115.1000;0.4908;0.6873;
1115.4000;0.4884;0.6757;
1115.7000;0.4925;0.6826;
1116.0000;0.4917;0.6803;
1116.3000;0.4965;0.6850;
1116.6000;0.4925;0.6664;
1116.9000;0.4884;0.6594;
1117.2000;0.4941;0.6734;
1117.5000;0.4933;0.6734;
1117.8000;0.4908;0.6710;
1118.1000;0.4884;0.6710;
1118.4000;0.4949;0.6850;
1118.7000;0.4900;0.6803;
1119.0000;0.4892;0.6687;
1119.3000;0.4900;0.6734;
1119.6000;0.4925;0.6803;
1119.9000;0.4982;0.6919;
1120.2000;0.4941;0.6803;
1120.5000;0.4917;0.6757;
1120.8000;0.4990;0.6943;
1121.1000;0.4925;0.6757;
1121.4000;0.4917;0.6641;
1121.7000;0.4933;0.6710;
1122.0000;0.4925;0.6850;
1122.3000;0.4868;0.6710;
1122.6000;0.4917;0.6826;
1122.9000;0.4941;0.6850;
1123.2000;0.4957;0.6873;
1123.5000;0.4933;0.6803;
1123.8000;0.4933;0.6826;
1124.1000;0.4941;0.6826;
1124.4000;0.4868;0.6710;
1124.7000;0.4925;0.6943;
1125.0000;0.4917;0.6989;
1125.3000;0.4908;0.6896;
1125.6000;0.4917;0.6710;
1125.9000;0.4908;0.6710;
1126.2000;0.4908;0.6664;
1126.5000;0.4917;0.6664;
1126.8000;0.4917;0.6710;
1127.1000;0.4908;0.6687;
1127.4000;0.4965;0.6803;
1127.7000;0.4925;0.6757;
1128.0000;0.4900;0.6780;
1128.3000;0.4917;0.6826;
1128.6000;0.4917;0.6826;
1128.9000;0.4925;0.6826;
1129.2000;0.4884;0.6734;
1129.5000;0.4908;0.6757;
1129.8000;0.4908;0.6803;
1130.1000;0.4941;0.6780;
1130.4000;0.4917;0.6710;
1130.7000;0.4917;0.6710;
1131.0000;0.4908;0.6641;
1131.3000;0.4925;0.6641;
1131.6000;0.4933;0.6710;
1131.9000;0.4908;0.6710;
1132.2000;0.4908;0.6687;
1132.5000;0.4884;0.6501;
1132.8000;0.4949;0.6757;
1133.1000;0.4925;0.6803;
1133.4000;0.4941;0.6803;
1133.7000;0.4925;0.6826;
1134.0000;0.4908;0.6826;
1134.3000;0.4917;0.6850;
1134.6000;0.4925;0.6919;
1134.9000;0.4925;0.6873;
1135.2000;0.4917;0.6803;
1135.5000;0.4892;0.6618;
1135.8000;0.4900;0.6594;
1136.1000;0.4892;0.6478;
1136.4000;0.4925;0.6571;
1136.7000;0.4933;0.6664;
1137.0000;0.4974;0.6803;
1137.3000;0.4884;0.6501;
1137.6000;0.4917;0.6571;
1137.9000;0.4843;0.6432;
1138.2000;0.4933;0.6734;
1138.5000;0.4917;0.6687;
1138.8000;0.4957;0.6687;
1139.1000;0.4965;0.6803;
1139.4000;0.4925;0.6710;
1139.7000;0.4933;0.6734;
1140.0000;0.4933;0.6618;
1140.3000;0.4941;0.6432;
1140.6000;0.4965;0.6478;
1140.9000;0.4965;0.6478;
1141.2000;0.4917;0.6432;
1141.5000;0.4941;0.6501;
1141.8000;0.4917;0.6525;
1142.1000;0.4917;0.6571;
1142.4000;0.4908;0.6501;
1142.7000;0.4941;0.6641;
1143.0000;0.4908;0.6687;
1143.3000;0.4925;0.6687;
1143.6000;0.4917;0.6594;
1143.9000;0.4933;0.6594;
1144.2000;0.4908;0.6710;
1144.5000;0.4925;0.6826;
1144.8000;0.4933;0.6919;
1145.1000;0.4925;0.6803;
1145.4000;0.4900;0.6850;
1145.7000;0.4941;0.6757;
1146.0000;0.4908;0.6664;
1146.3000;0.4998;0.6826;
1146.6000;0.4941;0.6664;
1146.9000;0.4917;0.6455;
1147.2000;0.4933;0.6501;
1147.5000;0.4900;0.6385;
1147.8000;0.4982;0.6594;
1148.1000;0.4941;0.6455;
1148.4000;0.4917;0.6455;
1148.7000;0.4933;0.6525;
1149.0000;0.4900;0.6571;
1149.3000;0.4925;0.6780;
1149.6000;0.4949;0.6780;
1149.9000;0.4933;0.6710;
1150.2000;0.4900;0.6525;
1150.5000;0.4900;0.6571;
1150.8000;0.4925;0.6525;
1151.1000;0.4892;0.6432;
1151.4000;0.4917;0.6478;
1151.7000;0.4908;0.6432;
1152.0000;0.4908;0.6455;
1152.3000;0.4933;0.6548;
1152.6000;0.4908;0.6571;
1152.9000;0.4917;0.6757;
1153.2000;0.4900;0.6780;
1153.5000;0.4917;0.6873;
1153.8000;0.4925;0.6780;
1154.1000;0.4941;0.6780;
1154.4000;0.4908;0.6687;
1154.7000;0.4908;0.6687;
1155.0000;0.4965;0.6757;
1155.3000;0.4917;0.6618;
1155.6000;0.4900;0.6501;
1155.9000;0.4925;0.6478;
1156.2000;0.4925;0.6478;
1156.5000;0.4900;0.6432;
1156.8000;0.4900;0.6432;
1157.1000;0.4941;0.6571;
1157.4000;0.4933;0.6687;
1157.7000;0.4917;0.6664;
1158.0000;0.4868;0.6594;
1158.3000;0.4941;0.6826;
1158.6000;0.4908;0.6826;
1158.9000;0.4851;0.6710;
1159.2000;0.4908;0.6896;
1159.5000;0.4908;0.6850;
1159.8000;0.4917;0.6803;
1160.1000;0.4941;0.6780;
1160.4000;0.4933;0.6850;
1160.7000;0.4884;0.6687;
1161.0000;0.4884;0.6594;
1161.3000;0.4965;0.6757;
1161.6000;0.4917;0.6664;
1161.9000;0.4941;0.6664;
1162.2000;0.4933;0.6757;
1162.5000;0.4965;0.6873;
1162.8000;0.4876;0.6710;
1163.1000;0.4917;0.6803;
1163.4000;0.4925;0.6803;
1163.7000;0.4949;0.6780;
1164.0000;0.4860;0.6571;
1164.3000;0.4908;0.6641;
1164.6000;0.4917;0.6594;
1164.9000;0.4933;0.6641;
1165.2000;0.4925;0.6594;
1165.5000;0.4884;0.6525;
1165.8000;0.4965;0.6710;
1166.1000;0.4908;0.6548;
1166.4000;0.4941;0.6710;
1166.7000;0.4917;0.6664;
1167.0000;0.4900;0.6757;
1167.3000;0.4949;0.6896;
1167.6000;0.4917;0.6710;
1167.9000;0.4925;0.6641;
1168.2000;0.4917;0.6618;
1168.5000;0.4908;0.6664;
1168.8000;0.4925;0.6710;
1169.1000;0.4900;0.6618;
1169.4000;0.4908;0.6641;
1169.7000;0.4884;0.6618;
1170.0000;0.4933;0.6757;
1170.3000;0.4876;0.6548;
1170.6000;0.4892;0.6710;
1170.9000;0.4917;0.6803;
1171.2000;0.4908;0.6896;
1171.5000;0.4917;0.6896;
1171.8000;0.4908;0.6826;
1172.1000;0.4917;0.6850;
1172.4000;0.4925;0.6803;
1172.7000;0.4925;0.6780;
1173.0000;0.4925;0.6734;
1173.3000;0.4900;0.6594;
1173.6000;0.4917;0.6641;
1173.9000;0.4925;0.6594;
1174.2000;0.4917;0.6618;
1174.5000;0.4941;0.6687;
1174.8000;0.4925;0.6641;
1175.1000;0.4933;0.6664;
1175.4000;0.4925;0.6734;
1175.7000;0.4941;0.6850;
1176.0000;0.4949;0.6873;
1176.3000;0.4917;0.6780;
1176.6000;0.4949;0.6826;
1176.9000;0.4908;0.6734;
1177.2000;0.4933;0.6803;
1177.5000;0.4925;0.6919;
1177.8000;0.4917;0.6803;
1178.1000;0.4917;0.6803;
1178.4000;0.4933;0.6850;
1178.7000;0.4925;0.6757;
1179.0000;0.4917;0.6757;
1179.3000;0.4925;0.6710;
1179.6000;0.4908;0.6525;
1179.9000;0.4892;0.6525;
1180.2000;0.4917;0.6710;
1180.5000;0.4917;0.6757;
1180.8000;0.4917;0.6757;
1181.1000;0.4900;0.6757;
1181.4000;0.5031;0.6919;
1181.7000;0.4908;0.6641;
1182.0000;0.4982;0.6803;
1182.3000;0.4900;0.6664;
1182.6000;0.4925;0.6803;
1182.9000;0.4908;0.6734;
1183.2000;0.4941;0.6803;
1183.5000;0.4917;0.6687;
1183.8000;0.4843;0.6478;
1184.1000;0.4860;0.6618;
1184.4000;0.4925;0.6710;
1184.7000;0.5006;0.6919;
1185.0000;0.4933;0.6618;
1185.3000;0.4917;0.6664;
1185.6000;0.4925;0.6757;
1185.9000;0.4908;0.6687;
1186.2000;0.4892;0.6664;
1186.5000;0.4925;0.6850;
1186.8000;0.4908;0.6803;
1187.1000;0.4900;0.6734;
1187.4000;0.4917;0.6710;
1187.7000;0.4925;0.6803;
1188.0000;0.4917;0.6919;
1188.3000;0.4900;0.6919;
1188.6000;0.4933;0.6873;
1188.9000;0.4917;0.6826;
1189.2000;0.4941;0.6850;
1189.5000;0.4965;0.6943;
1189.8000;0.4908;0.6873;
1190.1000;0.4925;0.6850;
1190.4000;0.4900;0.6850;
1190.7000;0.4908;0.6943;
1191.0000;0.4925;0.6966;
1191.3000;0.4908;0.6919;
1191.6000;0.4925;0.6850;
1191.9000;0.4908;0.6850;
1192.2000;0.4925;0.6850;
1192.5000;0.4933;0.6873;
1192.8000;0.4941;0.6943;
1193.1000;0.4925;0.7012;
1193.4000;0.4917;0.7035;
1193.7000;0.4917;0.7012;
1194.0000;0.4933;0.7082;
1194.3000;0.4925;0.6989;
1194.6000;0.4908;0.6989;
1194.9000;0.4917;0.6850;
1195.2000;0.4892;0.6734;
1195.5000;0.4925;0.6780;
1195.8000;0.4933;0.6873;
1196.1000;0.4917;0.6803;
1196.4000;0.4917;0.6873;
1196.7000;0.4892;0.6896;
1197.0000;0.4925;0.6826;
1197.3000;0.4917;0.6734;
1197.6000;0.4949;0.6780;
1197.9000;0.4925;0.6803;
1198.2000;0.4933;0.6780;
1198.5000;0.4957;0.6687;
1198.8000;0.4933;0.6641;
1199.1000;0.4925;0.6664;
1199.4000;0.4925;0.6757;
1199.7000;0.4957;0.6734;
1200.0000;0.4908;0.6618;
1200.3000;0.4925;0.6710;
1200.6000;0.4933;0.6757;
1200.9000;0.4908;0.6664;
1201.2000;0.4941;0.6757;
1201.5000;0.4925;0.6826;
1201.8000;0.4925;0.6873;
1202.1000;0.4925;0.6873;
1202.4000;0.4933;0.6873;
1202.7000;0.4917;0.6850;
1203.0000;0.4917;0.6873;
1203.3000;0.4933;0.6966;
1203.6000;0.4917;0.6919;
1203.9000;0.4908;0.6896;
1204.2000;0.4917;0.6943;
1204.5000;0.4925;0.6989;
1204.8000;0.4925;0.6919;
1205.1000;0.4965;0.6989;
1205.4000;0.4908;0.6780;
1205.7000;0.4917;0.6757;
1206.0000;0.4892;0.6641;
1206.3000;0.4925;0.6664;
1206.6000;0.4908;0.6687;
1206.9000;0.4908;0.6780;
1207.2000;0.4933;0.6873;
1207.5000;0.4900;0.6896;
1207.8000;0.4868;0.6873;
1208.1000;0.4884;0.6943;
1208.4000;0.4892;0.6943;
1208.7000;0.4860;0.6803;
1209.0000;0.4884;0.6850;
1209.3000;0.4892;0.6873;
1209.6000;0.4900;0.6826;
1209.9000;0.4925;0.6919;
1210.2000;0.4917;0.6873;
1210.5000;0.4925;0.6803;
1210.8000;0.4917;0.6850;
1211.1000;0.4908;0.6826;
1211.4000;0.4933;0.6826;
1211.7000;0.4925;0.6826;
1212.0000;0.4933;0.6826;
1212.3000;0.4917;0.6850;
1212.6000;0.4925;0.6803;
1212.9000;0.4900;0.6803;
1213.2000;0.4925;0.6780;
1213.5000;0.4917;0.6734;
1213.8000;0.4925;0.6710;
1214.1000;0.4908;0.6780;
1214.4000;0.4892;0.6803;
1214.7000;0.4941;0.6966;
1215.0000;0.4908;0.6803;
1215.3000;0.4933;0.6710;
1215.6000;0.4957;0.6594;
1215.9000;0.4941;0.6618;
1216.2000;0.4876;0.6525;
1216.5000;0.4925;0.6757;
1216.8000;0.4933;0.6826;
1217.1000;0.4892;0.6710;
1217.4000;0.4933;0.6757;
1217.7000;0.4933;0.6757;
1218.0000;0.4900;0.6687;
1218.3000;0.4957;0.6780;
1218.6000;0.4925;0.6710;
1218.9000;0.4925;0.6780;
1219.2000;0.4917;0.6826;
1219.5000;0.4998;0.6989;
1219.8000;0.4917;0.6896;
1220.1000;0.4933;0.6873;
1220.4000;0.4900;0.6803;
1220.7000;0.4917;0.6826;
1221.0000;0.4925;0.6943;
1221.3000;0.4925;0.6989;
1221.6000;0.4965;0.7082;
1221.9000;0.4917;0.6966;
1222.2000;0.4941;0.6919;
1222.5000;0.4908;0.6943;
1222.8000;0.4917;0.6826;
1223.1000;0.4933;0.6826;
1223.4000;0.4843;0.6618;
1223.7000;0.4933;0.6826;
1224.0000;0.4941;0.6919;
1224.3000;0.4933;0.6896;
1224.6000;0.4876;0.6757;
1224.9000;0.4957;0.6919;
1225.2000;0.4949;0.6850;
1225.5000;0.4925;0.6896;
1225.8000;0.4933;0.6896;
1226.1000;0.4917;0.6896;
1226.4000;0.4925;0.6896;
1226.7000;0.4933;0.6919;
1227.0000;0.4892;0.6896;
1227.3000;0.4925;0.6943;
1227.6000;0.4917;0.6826;
1227.9000;0.4974;0.6919;
1228.2000;0.4900;0.6734;
1228.5000;0.4884;0.6780;
1228.8000;0.4917;0.6803;
1229.1000;0.4884;0.6664;
1229.4000;0.4908;0.6687;
1229.7000;0.4933;0.6710;
1230.0000;0.4900;0.6664;
1230.3000;0.4941;0.6757;
1230.6000;0.4892;0.6664;
1230.9000;0.4925;0.6734;
1231.2000;0.4900;0.6687;
1231.5000;0.4925;0.6757;
1231.8000;0.4925;0.6757;
1232.1000;0.4933;0.6780;
1232.4000;0.4900;0.6826;
1232.7000;0.4900;0.6803;
1233.0000;0.4925;0.6826;
1233.3000;0.4900;0.6710;
1233.6000;0.4925;0.6710;
1233.9000;0.4917;0.6710;
1234.2000;0.4868;0.6548;
1234.5000;0.4908;0.6687;
1234.8000;0.4908;0.6664;
1235.1000;0.4868;0.6618;
1235.4000;0.4917;0.6757;
1235.7000;0.4925;0.6757;
1236.0000;0.4892;0.6641;
1236.3000;0.4851;0.6501;
1236.6000;0.4908;0.6687;
1236.9000;0.4941;0.6664;
1237.2000;0.4941;0.6710;
1237.5000;0.4917;0.6664;
1237.8000;0.4917;0.6641;
1238.1000;0.4925;0.6571;
1238.4000;0.4949;0.6664;
1238.7000;0.4917;0.6594;
1239.0000;0.4925;0.6641;
1239.3000;0.4941;0.6687;
1239.6000;0.4933;0.6687;
1239.9000;0.4949;0.6757;
1240.2000;0.4957;0.6850;
1240.5000;0.4965;0.6826;
1240.8000;0.4917;0.6803;
1241.1000;0.4957;0.6826;
1241.4000;0.4827;0.6548;
1241.7000;0.4917;0.6757;
1242.0000;0.4933;0.6803;
1242.3000;0.4917;0.6826;
1242.6000;0.4933;0.6826;
1242.9000;0.4933;0.6873;
1243.2000;0.4925;0.6850;
1243.5000;0.4908;0.6780;
1243.8000;0.4908;0.6803;
1244.1000;0.4933;0.6943;
1244.4000;0.4949;0.6943;
1244.7000;0.4917;0.6850;
1245.0000;0.4908;0.6943;
1245.3000;0.4925;0.6919;
1245.6000;0.4941;0.6966;
1245.9000;0.4933;0.6896;
1246.2000;0.4925;0.6896;
1246.5000;0.4949;0.6966;
1246.8000;0.4933;0.6873;
1247.1000;0.4941;0.6873;
1247.4000;0.4917;0.6826;
1247.7000;0.4908;0.6803;
1248.0000;0.4884;0.6826;
1248.3000;0.4908;0.6850;
1248.6000;0.4900;0.6710;
1248.9000;0.4917;0.6710;
1249.2000;0.4925;0.6710;
1249.5000;0.4908;0.6710;
1249.8000;0.4941;0.6734;
1250.1000;0.4941;0.6710;
1250.4000;0.4949;0.6803;
1250.7000;0.4933;0.6850;
1251.0000;0.4982;0.6966;
1251.3000;0.4933;0.6896;
1251.6000;0.4925;0.6826;
1251.9000;0.4990;0.7035;
1252.2000;0.4876;0.6850;
1252.5000;0.4925;0.6966;
1252.8000;0.4843;0.6803;
1253.1000;0.4908;0.6919;
1253.4000;0.4900;0.6873;
1253.7000;0.4908;0.6826;
1254.0000;0.4917;0.6826;
1254.3000;0.4908;0.6780;
1254.6000;0.4917;0.6780;
1254.9000;0.4892;0.6687;
1255.2000;0.4917;0.6664;
1255.5000;0.4908;0.6664;
1255.8000;0.4917;0.6664;
1256.1000;0.5006;0.6780;
1256.4000;0.4900;0.6548;
1256.7000;0.4965;0.6710;
1257.0000;0.4933;0.6687;
1257.3000;0.4941;0.6757;
1257.6000;0.4900;0.6664;
1257.9000;0.4925;0.6757;
1258.2000;0.5014;0.6989;
1258.5000;0.4941;0.6710;
1258.8000;0.4900;0.6641;
1259.1000;0.4982;0.6873;
1259.4000;0.4908;0.6803;
1259.7000;0.4965;0.6873;
1260.0000;0.4925;0.6873;
1260.3000;0.4917;0.6850;
1260.6000;0.4917;0.6826;
1260.9000;0.4900;0.6826;
1261.2000;0.4917;0.6757;
1261.5000;0.4917;0.6571;
1261.8000;0.4900;0.6594;
1262.1000;0.4941;0.6687;
1262.4000;0.4949;0.6803;
1262.7000;0.4925;0.6734;
1263.0000;0.4917;0.6710;
1263.3000;0.4917;0.6710;
1263.6000;0.4908;0.6664;
1263.9000;0.4941;0.6710;
1264.2000;0.4908;0.6757;
1264.5000;0.4827;0.6525;
1264.8000;0.4949;0.6803;
1265.1000;0.4900;0.6618;
1265.4000;0.4908;0.6501;
1265.7000;0.4917;0.6548;
1266.0000;0.4925;0.6687;
1266.3000;0.4933;0.6710;
1266.6000;0.4908;0.6687;
1266.9000;0.4917;0.6710;
1267.2000;0.4917;0.6687;
1267.5000;0.4925;0.6780;
1267.8000;0.4908;0.6803;
1268.1000;0.4884;0.6780;
1268.4000;0.4925;0.6873;
1268.7000;0.4933;0.6919;
1269.0000;0.4941;0.6966;
1269.3000;0.4925;0.6919;
1269.6000;0.4917;0.6873;
1269.9000;0.4925;0.6919;
1270.2000;0.4892;0.6757;
1270.5000;0.4908;0.6826;
1270.8000;0.4917;0.6873;
1271.1000;0.4925;0.6896;
1271.4000;0.4933;0.6919;
1271.7000;0.4925;0.6850;
1272.0000;0.4884;0.6803;
1272.3000;0.4957;0.6850;
1272.6000;0.4917;0.6780;
1272.9000;0.4908;0.6757;
1273.2000;0.4908;0.6687;
1273.5000;0.4868;0.6501;
1273.8000;0.4925;0.6687;
1274.1000;0.4892;0.6664;
1274.4000;0.4892;0.6618;
1274.7000;0.4900;0.6734;
1275.0000;0.4876;0.6710;
1275.3000;0.4908;0.6850;
1275.6000;0.4900;0.6803;
1275.9000;0.4974;0.6989;
1276.2000;0.4990;0.7035;
1276.5000;0.4941;0.6919;
1276.8000;0.4908;0.6919;
1277.1000;0.4917;0.6919;
1277.4000;0.4933;0.6989;
1277.7000;0.4974;0.7035;
1278.0000;0.4851;0.6780;
1278.3000;0.4917;0.6989;
1278.6000;0.4965;0.7152;
1278.9000;0.4925;0.7105;
1279.2000;0.4925;0.6989;
1279.5000;0.4917;0.6943;
1279.8000;0.4900;0.6943;
1280.1000;0.4933;0.7012;
1280.4000;0.4900;0.6943;
1280.7000;0.4876;0.6896;
1281.0000;0.4851;0.6873;
1281.3000;0.4925;0.6966;
1281.6000;0.4925;0.6943;
1281.9000;0.4933;0.6989;
1282.2000;0.4908;0.6896;
1282.5000;0.4941;0.6943;
1282.8000;0.4925;0.6826;
1283.1000;0.4925;0.6780;
1283.4000;0.4811;0.6571;
1283.7000;0.4933;0.6943;
1284.0000;0.4941;0.6943;
1284.3000;0.4908;0.6826;
1284.6000;0.4900;0.6826;
1284.9000;0.4925;0.6803;
1285.2000;0.4933;0.6803;
1285.5000;0.4900;0.6641;
1285.8000;0.4917;0.6826;
1286.1000;0.4933;0.6873;
1286.4000;0.4917;0.6873;
1286.7000;0.4933;0.6943;
1287.0000;0.4917;0.6966;
1287.3000;0.4917;0.7082;
1287.6000;0.4925;0.7105;
1287.9000;0.4908;0.7082;
1288.2000;0.4892;0.6989;
1288.5000;0.4925;0.7035;
1288.8000;0.4925;0.6966;
1289.1000;0.4925;0.6919;
1289.4000;0.4917;0.6873;
1289.7000;0.4900;0.6850;
1290.0000;0.4941;0.6966;
1290.3000;0.4925;0.7012;
1290.6000;0.4900;0.7012;
1290.9000;0.4908;0.7059;
1291.2000;0.4925;0.7128;
1291.5000;0.4827;0.6896;
1291.8000;0.4925;0.7198;
1292.1000;0.4941;0.7152;
1292.4000;0.4933;0.7105;
1292.7000;0.4933;0.7059;
1293.0000;0.4917;0.7082;
1293.3000;0.4949;0.7128;
1293.6000;0.4868;0.6919;
1293.9000;0.4949;0.7035;
1294.2000;0.4925;0.6989;
1294.5000;0.4974;0.7035;
1294.8000;0.4949;0.6989;
1295.1000;0.4884;0.6943;
1295.4000;0.4925;0.7082;
1295.7000;0.4917;0.7082;
1296.0000;0.4925;0.7035;
1296.3000;0.4917;0.6989;
1296.6000;0.5031;0.7268;
1296.9000;0.4957;0.7035;
1297.2000;0.4957;0.6989;
1297.5000;0.4908;0.6919;
1297.8000;0.4941;0.6989;
1298.1000;0.4860;0.6780;
1298.4000;0.4884;0.6826;
1298.7000;0.4917;0.6896;
1299.0000;0.4917;0.6896;
1299.3000;0.4941;0.6943;
1299.6000;0.4925;0.6966;
1299.9000;0.4965;0.6989;
1300.2000;0.4917;0.6850;
1300.5000;0.4900;0.6850;
1300.8000;0.4957;0.7012;
1301.1000;0.4835;0.6780;
1301.4000;0.4908;0.6989;
1301.7000;0.4908;0.6989;
1302.0000;0.4917;0.7059;
1302.3000;0.4990;0.7152;
1302.6000;0.4949;0.6966;
1302.9000;0.4933;0.6873;
1303.2000;0.4941;0.6943;
1303.5000;0.4974;0.6966;
1303.8000;0.4941;0.6919;
1304.1000;0.4925;0.6826;
1304.4000;0.4933;0.6850;
1304.7000;0.4925;0.6780;
1305.0000;0.4941;0.6850;
1305.3000;0.4925;0.6850;
1305.6000;0.4917;0.6850;
1305.9000;0.4925;0.6850;
1306.2000;0.4917;0.6919;
1306.5000;0.4941;0.7059;
1306.8000;0.4941;0.7082;
1307.1000;0.4925;0.6966;
1307.4000;0.4925;0.6989;
1307.7000;0.4917;0.6919;
1308.0000;0.4949;0.7059;
1308.3000;0.4933;0.7012;
1308.6000;0.4917;0.6966;
1308.9000;0.4900;0.6943;
1309.2000;0.4925;0.6966;
1309.5000;0.4860;0.6803;
1309.8000;0.4925;0.6919;
1310.1000;0.4925;0.6896;
1310.4000;0.4876;0.6826;
1310.7000;0.4917;0.6919;
1311.0000;0.4900;0.6873;
1311.3000;0.4892;0.6873;
1311.6000;0.4917;0.6873;
1311.9000;0.4941;0.6989;
1312.2000;0.4908;0.6919;
1312.5000;0.4925;0.6826;
1312.8000;0.4925;0.6850;
1313.1000;0.4949;0.6826;
1313.4000;0.4900;0.6664;
1313.7000;0.4917;0.6594;
1314.0000;0.4908;0.6548;
1314.3000;0.4949;0.6664;
1314.6000;0.4925;0.6571;
1314.9000;0.4917;0.6571;
1315.2000;0.4917;0.6455;
1315.5000;0.4917;0.6548;
1315.8000;0.4851;0.6455;
1316.1000;0.4933;0.6710;
1316.4000;0.4965;0.6896;
1316.7000;0.4908;0.6803;
1317.0000;0.4917;0.6919;
1317.3000;0.4925;0.6943;
1317.6000;0.4933;0.6919;
1317.9000;0.4925;0.6919;
1318.2000;0.4917;0.6873;
1318.5000;0.4957;0.6943;
1318.8000;0.4925;0.6826;
1319.1000;0.4933;0.6873;
1319.4000;0.4933;0.6896;
1319.7000;0.4941;0.6873;
1320.0000;0.4957;0.6896;
1320.3000;0.4933;0.6850;
1320.6000;0.4892;0.6687;
1320.9000;0.4965;0.6850;
1321.2000;0.4917;0.6757;
1321.5000;0.4900;0.6687;
1321.8000;0.4908;0.6664;
1322.1000;0.4933;0.6734;
1322.4000;0.4974;0.6850;
1322.7000;0.4925;0.6687;
1323.0000;0.4900;0.6687;
1323.3000;0.4892;0.6687;
1323.6000;0.4925;0.6803;
1323.9000;0.4917;0.6850;
1324.2000;0.4908;0.6757;
1324.5000;0.4908;0.6710;
1324.8000;0.4917;0.6664;
1325.1000;0.4908;0.6687;
1325.4000;0.4908;0.6780;
1325.7000;0.4917;0.6850;
1326.0000;0.4933;0.6896;
1326.3000;0.4900;0.6850;
1326.6000;0.4860;0.6710;
1326.9000;0.4925;0.6803;
1327.2000;0.4908;0.6757;
1327.5000;0.4876;0.6710;
1327.8000;0.4908;0.6896;
1328.1000;0.4892;0.6850;
1328.4000;0.4892;0.6966;
1328.7000;0.4949;0.7082;
1329.0000;0.4917;0.7105;
1329.3000;0.4949;0.7082;
1329.6000;0.4941;0.7012;
1329.9000;0.4908;0.6850;
1330.2000;0.4917;0.6826;
1330.5000;0.4933;0.6850;
1330.8000;0.4925;0.6896;
1331.1000;0.4892;0.6803;
1331.4000;0.4892;0.6734;
1331.7000;0.4908;0.6873;
1332.0000;0.4917;0.6826;
1332.3000;0.4925;0.6780;
1332.6000;0.4925;0.6826;
1332.9000;0.4925;0.6873;
1333.2000;0.4925;0.6896;
1333.5000;0.4974;0.6989;
1333.8000;0.4965;0.7059;
1334.1000;0.4925;0.7059;
1334.4000;0.4908;0.6943;
1334.7000;0.4917;0.6873;
1335.0000;0.4949;0.6943;
1335.3000;0.4876;0.6734;
1335.6000;0.4908;0.6826;
1335.9000;0.4917;0.6803;
1336.2000;0.4925;0.6873;
1336.5000;0.4998;0.7035;
1336.8000;0.4917;0.6780;
1337.1000;0.4925;0.6826;
1337.4000;0.4917;0.6873;
1337.7000;0.4917;0.6873;
1338.0000;0.4917;0.6896;
1338.3000;0.4917;0.6896;
1338.6000;0.4917;0.6803;
1338.9000;0.4949;0.6919;
1339.2000;0.4933;0.6873;
1339.5000;0.4933;0.6896;
1339.8000;0.4941;0.6919;
1340.1000;0.4900;0.6826;
1340.4000;0.4925;0.6757;
1340.7000;0.4908;0.6826;
1341.0000;0.4917;0.6943;
1341.3000;0.4990;0.7082;
1341.6000;0.4965;0.6989;
1341.9000;0.4933;0.6873;
1342.2000;0.4868;0.6734;
1342.5000;0.4933;0.6803;
1342.8000;0.4933;0.6757;
1343.1000;0.4917;0.6780;
1343.4000;0.4908;0.6803;
1343.7000;0.4925;0.6757;
1344.0000;0.4908;0.6734;
1344.3000;0.4908;0.6780;
1344.6000;0.4925;0.6780;
1344.9000;0.4933;0.6734;
1345.2000;0.4933;0.6710;
1345.5000;0.4908;0.6710;
1345.8000;0.4908;0.6664;
1346.1000;0.4917;0.6710;
1346.4000;0.4925;0.6710;
1346.7000;0.4917;0.6757;
1347.0000;0.4900;0.6687;
1347.3000;0.4941;0.6826;
1347.6000;0.4900;0.6734;
1347.9000;0.4974;0.6850;
1348.2000;0.4933;0.6873;
1348.5000;0.4892;0.6757;
1348.8000;0.4917;0.6780;
1349.1000;0.4917;0.6734;
1349.4000;0.4925;0.6850;
1349.7000;0.5022;0.7198;
1350.0000;0.4949;0.6989;
1350.3000;0.4917;0.6826;
1350.6000;0.4974;0.6850;
1350.9000;0.4933;0.6664;
1351.2000;0.4835;0.6246;
1351.5000;0.4868;0.6385;
1351.8000;0.4982;0.6687;
1352.1000;0.5047;0.6780;
1352.4000;0.4925;0.6525;
1352.7000;0.4917;0.6455;
1353.0000;0.4949;0.6501;
1353.3000;0.4933;0.6478;
1353.6000;0.4917;0.6432;
1353.9000;0.4933;0.6478;
1354.2000;0.4957;0.6548;
1354.5000;0.4925;0.6501;
1354.8000;0.4925;0.6618;
1355.1000;0.4876;0.6664;
1355.4000;0.5039;0.7105;
1355.7000;0.4933;0.6873;
1356.0000;0.4868;0.6757;
1356.3000;0.4892;0.6826;
1356.6000;0.4917;0.6803;
1356.9000;0.4933;0.6826;
1357.2000;0.4900;0.6734;
1357.5000;0.4884;0.6687;
1357.8000;0.4908;0.6780;
1358.1000;0.4908;0.6803;
1358.4000;0.4925;0.6757;
1358.7000;0.4925;0.6780;
1359.0000;0.4941;0.6873;
1359.3000;0.4917;0.6803;
1359.6000;0.4933;0.6780;
1359.9000;0.4925;0.6780;
1360.2000;0.4933;0.6850;
1360.5000;0.4933;0.6710;
1360.8000;0.4892;0.6618;
1361.1000;0.4860;0.6548;
1361.4000;0.4908;0.6571;
1361.7000;0.4908;0.6455;
1362.0000;0.4917;0.6525;
1362.3000;0.4908;0.6478;
1362.6000;0.4908;0.6432;
1362.9000;0.4908;0.6339;
1363.2000;0.4925;0.6362;
1363.5000;0.4925;0.6409;
1363.8000;0.4917;0.6455;
1364.1000;0.4908;0.6409;
1364.4000;0.4933;0.6385;
1364.7000;0.4941;0.6478;
1365.0000;0.4925;0.6385;
1365.3000;0.4974;0.6641;
1365.6000;0.4949;0.6734;
1365.9000;0.4974;0.6850;
1366.2000;0.4925;0.6734;
1366.5000;0.4900;0.6641;
1366.8000;0.4925;0.6594;
1367.1000;0.4908;0.6501;
1367.4000;0.4900;0.6548;
1367.7000;0.4925;0.6525;
1368.0000;0.4949;0.6571;
1368.3000;0.4925;0.6594;
1368.6000;0.4892;0.6571;
1368.9000;0.4957;0.6710;
1369.2000;0.4884;0.6478;
1369.5000;0.4917;0.6501;
1369.8000;0.4917;0.6525;
1370.1000;0.4917;0.6525;
1370.4000;0.4900;0.6571;
1370.7000;0.4933;0.6618;
1371.0000;0.4851;0.6385;
1371.3000;0.4925;0.6478;
1371.6000;0.4892;0.6455;
1371.9000;0.4925;0.6618;
1372.2000;0.4835;0.6339;
1372.5000;0.4957;0.6687;
1372.8000;0.4917;0.6618;
1373.1000;0.4860;0.6594;
1373.4000;0.4917;0.6757;
1373.7000;0.4884;0.6687;
1374.0000;0.4892;0.6803;
1374.3000;0.4941;0.6943;
1374.6000;0.4860;0.6734;
1374.9000;0.4917;0.6919;
1375.2000;0.4933;0.6919;
1375.5000;0.4811;0.6594;
1375.8000;0.4949;0.6873;
1376.1000;0.4949;0.6943;
1376.4000;0.4933;0.6803;
1376.7000;0.4908;0.6803;
1377.0000;0.4925;0.6826;
1377.3000;0.4925;0.6803;
1377.6000;0.4925;0.6826;
1377.9000;0.4917;0.6826;
1378.2000;0.4941;0.6873;
1378.5000;0.4925;0.6850;
1378.8000;0.4925;0.6873;
1379.1000;0.4949;0.6943;
1379.4000;0.4925;0.6850;
1379.7000;0.4933;0.6966;
1380.0000;0.4925;0.6919;
1380.3000;0.4851;0.6618;
1380.6000;0.4941;0.6896;
1380.9000;0.4974;0.6989;
1381.2000;0.4925;0.6919;
1381.5000;0.4925;0.6896;
1381.8000;0.4917;0.6757;
1382.1000;0.4925;0.6757;
1382.4000;0.4900;0.6780;
1382.7000;0.4900;0.6687;
1383.0000;0.4900;0.6734;
1383.3000;0.4917;0.6734;
1383.6000;0.4908;0.6826;
1383.9000;0.4908;0.6919;
1384.2000;0.4908;0.6873;
1384.5000;0.4908;0.6919;
1384.8000;0.4925;0.6966;
1385.1000;0.4941;0.6943;
1385.4000;0.4908;0.6919;
1385.7000;0.4908;0.6826;
1386.0000;0.4925;0.6826;
1386.3000;0.4917;0.6780;
1386.6000;0.4941;0.6826;
1386.9000;0.4900;0.6826;
1387.2000;0.4892;0.6803;
1387.5000;0.4933;0.6896;
1387.8000;0.4900;0.6850;
1388.1000;0.4900;0.6710;
1388.4000;0.4925;0.6710;
1388.7000;0.4925;0.6734;
1389.0000;0.4908;0.6687;
1389.3000;0.4933;0.6734;
1389.6000;0.4908;0.6757;
1389.9000;0.4941;0.6826;
1390.2000;0.4941;0.6780;
1390.5000;0.4933;0.6757;
1390.8000;0.4908;0.6734;
1391.1000;0.5031;0.6989;
1391.4000;0.4925;0.6687;
1391.7000;0.4908;0.6641;
1392.0000;0.4925;0.6757;
1392.3000;0.4933;0.6850;
1392.6000;0.4941;0.6826;
1392.9000;0.4925;0.6757;
1393.2000;0.4933;0.6734;
1393.5000;0.4933;0.6687;
1393.8000;0.4933;0.6780;
1394.1000;0.4892;0.6618;
1394.4000;0.4892;0.6571;
1394.7000;0.4908;0.6641;
1395.0000;0.4908;0.6641;
1395.3000;0.4925;0.6826;
1395.6000;0.4925;0.6850;
1395.9000;0.4925;0.6757;
1396.2000;0.4933;0.6734;
1396.5000;0.4925;0.6618;
1396.8000;0.4925;0.6710;
1397.1000;0.4917;0.6734;
1397.4000;0.4933;0.6780;
1397.7000;0.4933;0.6757;
1398.0000;0.4917;0.6757;
1398.3000;0.4965;0.6803;
1398.6000;0.4925;0.6594;
1398.9000;0.4949;0.6641;
1399.2000;0.4925;0.6525;
1399.5000;0.4949;0.6571;
1399.8000;0.4917;0.6501;
