time/ms;Fluo/V;P700 deltaI/I x10³;
-199.8000;0.4843;0.7500;
-199.5000;0.4860;0.7523;
-199.2000;0.4851;0.7523;
-198.9000;0.4868;0.7523;
-198.6000;0.4884;0.7570;
-198.3000;0.4851;0.7500;
-198.0000;0.4868;0.7477;
-197.7000;0.4900;0.7500;
-197.4000;0.4851;0.7384;
-197.1000;0.4851;0.7407;
-196.8000;0.4843;0.7430;
-196.5000;0.4851;0.7477;
-196.2000;0.4868;0.7570;
-195.9000;0.4843;0.7523;
-195.6000;0.4827;0.7546;
-195.3000;0.4868;0.7639;
-195.0000;0.4851;0.7500;
-194.7000;0.4851;0.7500;
-194.4000;0.4868;0.7570;
-194.1000;0.4860;0.7593;
-193.8000;0.4851;0.7523;
-193.5000;0.4860;0.7546;
-193.2000;0.4843;0.7593;
-192.9000;0.4851;0.7593;
-192.6000;0.4868;0.7593;
-192.3000;0.4860;0.7662;
-192.0000;0.4843;0.7593;
-191.7000;0.4851;0.7570;
-191.4000;0.4860;0.7593;
-191.1000;0.4843;0.7593;
-190.8000;0.4851;0.7546;
-190.5000;0.4851;0.7546;
-190.2000;0.4851;0.7570;
-189.9000;0.4860;0.7616;
-189.6000;0.4860;0.7662;
-189.3000;0.4843;0.7662;
-189.0000;0.4868;0.7662;
-188.7000;0.4860;0.7639;
-188.4000;0.4860;0.7593;
-188.1000;0.4900;0.7662;
-187.8000;0.4868;0.7546;
-187.5000;0.4860;0.7570;
-187.2000;0.4884;0.7546;
-186.9000;0.4819;0.7384;
-186.6000;0.4835;0.7453;
-186.3000;0.4835;0.7546;
-186.0000;0.4843;0.7593;
-185.7000;0.4860;0.7570;
-185.4000;0.4843;0.7546;
-185.1000;0.4851;0.7500;
-184.8000;0.4860;0.7477;
-184.5000;0.4835;0.7500;
-184.2000;0.4868;0.7686;
-183.9000;0.4860;0.7709;
-183.6000;0.4843;0.7686;
-183.3000;0.4835;0.7686;
-183.0000;0.4868;0.7755;
-182.7000;0.4851;0.7686;
-182.4000;0.4851;0.7709;
-182.1000;0.4827;0.7639;
-181.8000;0.4843;0.7616;
-181.5000;0.4843;0.7686;
-181.2000;0.4843;0.7662;
-180.9000;0.4843;0.7616;
-180.6000;0.4851;0.7616;
-180.3000;0.4843;0.7570;
-180.0000;0.4835;0.7546;
-179.7000;0.4868;0.7593;
-179.4000;0.4860;0.7570;
-179.1000;0.4868;0.7593;
-178.8000;0.4851;0.7662;
-178.5000;0.4860;0.7639;
-178.2000;0.4843;0.7593;
-177.9000;0.4851;0.7570;
-177.6000;0.4843;0.7616;
-177.3000;0.4860;0.7616;
-177.0000;0.4843;0.7593;
-176.7000;0.4843;0.7523;
-176.4000;0.4860;0.7523;
-176.1000;0.4835;0.7523;
-175.8000;0.4843;0.7477;
-175.5000;0.4868;0.7523;
-175.2000;0.4860;0.7570;
-174.9000;0.4868;0.7546;
-174.6000;0.4860;0.7616;
-174.3000;0.4843;0.7616;
-174.0000;0.4843;0.7546;
-173.7000;0.4851;0.7477;
-173.4000;0.4876;0.7500;
-173.1000;0.4860;0.7407;
-172.8000;0.4860;0.7407;
-172.5000;0.4851;0.7384;
-172.2000;0.4860;0.7384;
-171.9000;0.4843;0.7523;
-171.6000;0.4876;0.7546;
-171.3000;0.4860;0.7523;
-171.0000;0.4851;0.7546;
-170.7000;0.4827;0.7570;
-170.4000;0.4860;0.7709;
-170.1000;0.4835;0.7593;
-169.8000;0.4835;0.7616;
-169.5000;0.4835;0.7546;
-169.2000;0.4851;0.7639;
-168.9000;0.4851;0.7686;
-168.6000;0.4860;0.7709;
-168.3000;0.4851;0.7662;
-168.0000;0.4851;0.7639;
-167.7000;0.4860;0.7570;
-167.4000;0.4860;0.7523;
-167.1000;0.4860;0.7523;
-166.8000;0.4851;0.7546;
-166.5000;0.4843;0.7593;
-166.2000;0.4851;0.7593;
-165.9000;0.4860;0.7570;
-165.6000;0.4860;0.7639;
-165.3000;0.4843;0.7662;
-165.0000;0.4851;0.7755;
-164.7000;0.4851;0.7825;
-164.4000;0.4868;0.7848;
-164.1000;0.4851;0.7732;
-163.8000;0.4933;0.7825;
-163.5000;0.4851;0.7616;
-163.2000;0.4876;0.7639;
-162.9000;0.4851;0.7593;
-162.6000;0.4843;0.7570;
-162.3000;0.4851;0.7709;
-162.0000;0.4860;0.7662;
-161.7000;0.4925;0.7871;
-161.4000;0.4843;0.7639;
-161.1000;0.4835;0.7570;
-160.8000;0.4851;0.7616;
-160.5000;0.4860;0.7755;
-160.2000;0.4835;0.7616;
-159.9000;0.4803;0.7593;
-159.6000;0.4827;0.7639;
-159.3000;0.4851;0.7686;
-159.0000;0.4843;0.7709;
-158.7000;0.4843;0.7709;
-158.4000;0.4884;0.7825;
-158.1000;0.4860;0.7778;
-157.8000;0.4868;0.7732;
-157.5000;0.4860;0.7686;
-157.2000;0.4851;0.7662;
-156.9000;0.4827;0.7570;
-156.6000;0.4843;0.7616;
-156.3000;0.4843;0.7593;
-156.0000;0.4868;0.7639;
-155.7000;0.4851;0.7662;
-155.4000;0.4860;0.7709;
-155.1000;0.4876;0.7732;
-154.8000;0.4803;0.7593;
-154.5000;0.4868;0.7639;
-154.2000;0.4876;0.7616;
-153.9000;0.4843;0.7500;
-153.6000;0.4843;0.7500;
-153.3000;0.4851;0.7523;
-153.0000;0.4835;0.7430;
-152.7000;0.4851;0.7384;
-152.4000;0.4827;0.7337;
-152.1000;0.4868;0.7384;
-151.8000;0.4803;0.7244;
-151.5000;0.4811;0.7337;
-151.2000;0.4770;0.7384;
-150.9000;0.4827;0.7523;
-150.6000;0.4851;0.7546;
-150.3000;0.4843;0.7477;
-150.0000;0.4843;0.7384;
-149.7000;0.4860;0.7477;
-149.4000;0.4876;0.7546;
-149.1000;0.4917;0.7639;
-148.8000;0.4868;0.7546;
-148.5000;0.4843;0.7500;
-148.2000;0.4851;0.7523;
-147.9000;0.4868;0.7546;
-147.6000;0.4868;0.7477;
-147.3000;0.4868;0.7593;
-147.0000;0.4860;0.7523;
-146.7000;0.4835;0.7500;
-146.4000;0.4941;0.7871;
-146.1000;0.4868;0.7732;
-145.8000;0.4884;0.7709;
-145.5000;0.4868;0.7500;
-145.2000;0.4860;0.7546;
-144.9000;0.4868;0.7500;
-144.6000;0.4876;0.7523;
-144.3000;0.4851;0.7477;
-144.0000;0.4843;0.7477;
-143.7000;0.4843;0.7453;
-143.4000;0.4794;0.7361;
-143.1000;0.4851;0.7570;
-142.8000;0.4860;0.7570;
-142.5000;0.4843;0.7546;
-142.2000;0.4941;0.7778;
-141.9000;0.4868;0.7477;
-141.6000;0.4868;0.7407;
-141.3000;0.4851;0.7314;
-141.0000;0.4851;0.7244;
-140.7000;0.4884;0.7407;
-140.4000;0.4851;0.7337;
-140.1000;0.4851;0.7314;
-139.8000;0.4868;0.7244;
-139.5000;0.4851;0.7314;
-139.2000;0.4860;0.7384;
-138.9000;0.4860;0.7477;
-138.6000;0.4860;0.7500;
-138.3000;0.4835;0.7407;
-138.0000;0.4876;0.7523;
-137.7000;0.4851;0.7570;
-137.4000;0.4860;0.7546;
-137.1000;0.4851;0.7430;
-136.8000;0.4827;0.7314;
-136.5000;0.4868;0.7361;
-136.2000;0.4876;0.7361;
-135.9000;0.4835;0.7314;
-135.6000;0.4851;0.7477;
-135.3000;0.4746;0.7221;
-135.0000;0.4851;0.7477;
-134.7000;0.4868;0.7477;
-134.4000;0.4876;0.7523;
-134.1000;0.4868;0.7570;
-133.8000;0.4884;0.7593;
-133.5000;0.4868;0.7546;
-133.2000;0.4860;0.7593;
-132.9000;0.4860;0.7570;
-132.6000;0.4900;0.7639;
-132.3000;0.4705;0.7221;
-132.0000;0.4860;0.7662;
-131.7000;0.4803;0.7593;
-131.4000;0.4843;0.7639;
-131.1000;0.4843;0.7639;
-130.8000;0.4851;0.7639;
-130.5000;0.4835;0.7616;
-130.2000;0.4819;0.7616;
-129.9000;0.4786;0.7500;
-129.6000;0.4819;0.7593;
-129.3000;0.4851;0.7709;
-129.0000;0.4860;0.7732;
-128.7000;0.4851;0.7686;
-128.4000;0.4819;0.7686;
-128.1000;0.4794;0.7546;
-127.8000;0.4860;0.7662;
-127.5000;0.4876;0.7686;
-127.2000;0.4876;0.7662;
-126.9000;0.4819;0.7500;
-126.6000;0.4860;0.7662;
-126.3000;0.4860;0.7662;
-126.0000;0.4860;0.7709;
-125.7000;0.4811;0.7593;
-125.4000;0.4778;0.7593;
-125.1000;0.4860;0.7802;
-124.8000;0.4868;0.7755;
-124.5000;0.4827;0.7686;
-124.2000;0.4819;0.7593;
-123.9000;0.4851;0.7639;
-123.6000;0.4835;0.7570;
-123.3000;0.4917;0.7686;
-123.0000;0.4860;0.7593;
-122.7000;0.4860;0.7639;
-122.4000;0.4884;0.7686;
-122.1000;0.4860;0.7686;
-121.8000;0.4843;0.7639;
-121.5000;0.4843;0.7593;
-121.2000;0.4851;0.7593;
-120.9000;0.4843;0.7593;
-120.6000;0.4884;0.7639;
-120.3000;0.4868;0.7523;
-120.0000;0.4843;0.7407;
-119.7000;0.4868;0.7430;
-119.4000;0.4851;0.7384;
-119.1000;0.4843;0.7453;
-118.8000;0.4851;0.7523;
-118.5000;0.4811;0.7361;
-118.2000;0.4835;0.7500;
-117.9000;0.4851;0.7662;
-117.6000;0.4843;0.7709;
-117.3000;0.4925;0.7895;
-117.0000;0.4851;0.7732;
-116.7000;0.4843;0.7732;
-116.4000;0.4851;0.7732;
-116.1000;0.4860;0.7686;
-115.8000;0.4860;0.7662;
-115.5000;0.4835;0.7523;
-115.2000;0.4843;0.7523;
-114.9000;0.4860;0.7523;
-114.6000;0.4827;0.7523;
-114.3000;0.4876;0.7593;
-114.0000;0.4860;0.7546;
-113.7000;0.4851;0.7546;
-113.4000;0.4843;0.7523;
-113.1000;0.4827;0.7453;
-112.8000;0.4843;0.7453;
-112.5000;0.4851;0.7570;
-112.2000;0.4860;0.7523;
-111.9000;0.4851;0.7546;
-111.6000;0.4851;0.7523;
-111.3000;0.4876;0.7523;
-111.0000;0.4860;0.7407;
-110.7000;0.4819;0.7337;
-110.4000;0.4868;0.7546;
-110.1000;0.4851;0.7500;
-109.8000;0.4860;0.7523;
-109.5000;0.4860;0.7477;
-109.2000;0.4827;0.7430;
-108.9000;0.4941;0.7570;
-108.6000;0.4835;0.7198;
-108.3000;0.4860;0.7314;
-108.0000;0.4851;0.7221;
-107.7000;0.4860;0.7175;
-107.4000;0.4803;0.7105;
-107.1000;0.4843;0.7337;
-106.8000;0.4843;0.7407;
-106.5000;0.4876;0.7477;
-106.2000;0.4900;0.7453;
-105.9000;0.4843;0.7314;
-105.6000;0.4860;0.7361;
-105.3000;0.4843;0.7337;
-105.0000;0.4851;0.7407;
-104.7000;0.4868;0.7430;
-104.4000;0.4876;0.7570;
-104.1000;0.4843;0.7453;
-103.8000;0.4835;0.7361;
-103.5000;0.4876;0.7430;
-103.2000;0.4868;0.7361;
-102.9000;0.4868;0.7384;
-102.6000;0.4843;0.7430;
-102.3000;0.4811;0.7337;
-102.0000;0.4851;0.7407;
-101.7000;0.4892;0.7453;
-101.4000;0.4900;0.7523;
-101.1000;0.4884;0.7570;
-100.8000;0.4860;0.7593;
-100.5000;0.4876;0.7616;
-100.2000;0.4827;0.7384;
-99.9000;0.4868;0.7453;
-99.6000;0.4941;0.7616;
-99.3000;0.4851;0.7477;
-99.0000;0.4868;0.7477;
-98.7000;0.4876;0.7430;
-98.4000;0.4925;0.7686;
-98.1000;0.4835;0.7500;
-97.8000;0.4851;0.7593;
-97.5000;0.4892;0.7709;
-97.2000;0.4851;0.7639;
-96.9000;0.4851;0.7802;
-96.6000;0.4835;0.7686;
-96.3000;0.4982;0.7987;
-96.0000;0.4876;0.7755;
-95.7000;0.4868;0.7778;
-95.4000;0.4868;0.7755;
-95.1000;0.4843;0.7616;
-94.8000;0.4860;0.7639;
-94.5000;0.4868;0.7639;
-94.2000;0.4892;0.7639;
-93.9000;0.4892;0.7616;
-93.6000;0.4786;0.7453;
-93.3000;0.4851;0.7593;
-93.0000;0.4868;0.7639;
-92.7000;0.4827;0.7477;
-92.4000;0.4900;0.7686;
-92.1000;0.4770;0.7337;
-91.8000;0.4868;0.7570;
-91.5000;0.4868;0.7546;
-91.2000;0.4851;0.7523;
-90.9000;0.4868;0.7593;
-90.6000;0.4860;0.7616;
-90.3000;0.4908;0.7662;
-90.0000;0.4851;0.7523;
-89.7000;0.4851;0.7477;
-89.4000;0.4876;0.7523;
-89.1000;0.4786;0.7314;
-88.8000;0.4851;0.7593;
-88.5000;0.4843;0.7616;
-88.2000;0.4843;0.7639;
-87.9000;0.4917;0.7709;
-87.6000;0.4835;0.7546;
-87.3000;0.4843;0.7546;
-87.0000;0.4835;0.7523;
-86.7000;0.4860;0.7686;
-86.4000;0.4843;0.7732;
-86.1000;0.4876;0.7732;
-85.8000;0.4860;0.7662;
-85.5000;0.4851;0.7686;
-85.2000;0.4803;0.7546;
-84.9000;0.4860;0.7593;
-84.6000;0.4835;0.7500;
-84.3000;0.4860;0.7546;
-84.0000;0.4851;0.7570;
-83.7000;0.4851;0.7500;
-83.4000;0.4860;0.7430;
-83.1000;0.4819;0.7361;
-82.8000;0.4860;0.7384;
-82.5000;0.4843;0.7477;
-82.2000;0.4819;0.7291;
-81.9000;0.4835;0.7314;
-81.6000;0.4868;0.7337;
-81.3000;0.4884;0.7407;
-81.0000;0.4851;0.7453;
-80.7000;0.4860;0.7384;
-80.4000;0.4811;0.7221;
-80.1000;0.4868;0.7430;
-79.8000;0.4851;0.7314;
-79.5000;0.4868;0.7291;
-79.2000;0.4843;0.7221;
-78.9000;0.4843;0.7337;
-78.6000;0.4868;0.7384;
-78.3000;0.4851;0.7314;
-78.0000;0.4835;0.7198;
-77.7000;0.4917;0.7337;
-77.4000;0.4868;0.7175;
-77.1000;0.4851;0.7152;
-76.8000;0.4835;0.7128;
-76.5000;0.4843;0.7221;
-76.2000;0.4860;0.7244;
-75.9000;0.4860;0.7291;
-75.6000;0.4908;0.7407;
-75.3000;0.4876;0.7337;
-75.0000;0.4876;0.7361;
-74.7000;0.4843;0.7314;
-74.4000;0.4868;0.7407;
-74.1000;0.4876;0.7523;
-73.8000;0.4908;0.7662;
-73.5000;0.4827;0.7477;
-73.2000;0.4851;0.7430;
-72.9000;0.4860;0.7361;
-72.6000;0.4917;0.7616;
-72.3000;0.4811;0.7430;
-72.0000;0.4868;0.7523;
-71.7000;0.4843;0.7384;
-71.4000;0.4860;0.7407;
-71.1000;0.4819;0.7407;
-70.8000;0.4860;0.7453;
-70.5000;0.4851;0.7407;
-70.2000;0.4860;0.7407;
-69.9000;0.4860;0.7477;
-69.6000;0.4843;0.7477;
-69.3000;0.4835;0.7314;
-69.0000;0.4851;0.7430;
-68.7000;0.4851;0.7337;
-68.4000;0.4868;0.7268;
-68.1000;0.4851;0.7198;
-67.8000;0.4843;0.7268;
-67.5000;0.4860;0.7384;
-67.2000;0.4851;0.7337;
-66.9000;0.4892;0.7430;
-66.6000;0.4843;0.7361;
-66.3000;0.4925;0.7500;
-66.0000;0.4860;0.7291;
-65.7000;0.4843;0.7221;
-65.4000;0.4860;0.7314;
-65.1000;0.4860;0.7384;
-64.8000;0.4860;0.7384;
-64.5000;0.4860;0.7570;
-64.2000;0.4835;0.7477;
-63.9000;0.4860;0.7639;
-63.6000;0.4851;0.7570;
-63.3000;0.4843;0.7523;
-63.0000;0.4843;0.7523;
-62.7000;0.4819;0.7430;
-62.4000;0.4819;0.7291;
-62.1000;0.4770;0.7082;
-61.8000;0.4843;0.7221;
-61.5000;0.4835;0.7175;
-61.2000;0.4868;0.7244;
-60.9000;0.4778;0.7105;
-60.6000;0.4827;0.7291;
-60.3000;0.4835;0.7244;
-60.0000;0.4835;0.7268;
-59.7000;0.4851;0.7268;
-59.4000;0.4843;0.7361;
-59.1000;0.4835;0.7430;
-58.8000;0.4851;0.7477;
-58.5000;0.4827;0.7361;
-58.2000;0.4803;0.7291;
-57.9000;0.4843;0.7337;
-57.6000;0.4851;0.7314;
-57.3000;0.4835;0.7291;
-57.0000;0.4892;0.7361;
-56.7000;0.4811;0.7175;
-56.4000;0.4827;0.7198;
-56.1000;0.4851;0.7314;
-55.8000;0.4884;0.7291;
-55.5000;0.4851;0.7105;
-55.2000;0.4851;0.7059;
-54.9000;0.4851;0.7035;
-54.6000;0.4843;0.6943;
-54.3000;0.4851;0.7059;
-54.0000;0.4884;0.7128;
-53.7000;0.4835;0.6919;
-53.4000;0.4835;0.6850;
-53.1000;0.4860;0.7035;
-52.8000;0.4860;0.7082;
-52.5000;0.4819;0.6943;
-52.2000;0.4860;0.6943;
-51.9000;0.4860;0.7012;
-51.6000;0.4957;0.7268;
-51.3000;0.4851;0.7012;
-51.0000;0.4860;0.7012;
-50.7000;0.4860;0.6989;
-50.4000;0.4965;0.7291;
-50.1000;0.4843;0.7012;
-49.8000;0.4860;0.7059;
-49.5000;0.4876;0.6989;
-49.2000;0.4917;0.7059;
-48.9000;0.4876;0.7035;
-48.6000;0.4860;0.6989;
-48.3000;0.4843;0.7035;
-48.0000;0.4843;0.7175;
-47.7000;0.4860;0.7198;
-47.4000;0.4851;0.7268;
-47.1000;0.4803;0.7291;
-46.8000;0.4876;0.7477;
-46.5000;0.4860;0.7430;
-46.2000;0.4860;0.7500;
-45.9000;0.4860;0.7500;
-45.6000;0.4860;0.7546;
-45.3000;0.4868;0.7546;
-45.0000;0.4860;0.7523;
-44.7000;0.4900;0.7593;
-44.4000;0.4851;0.7593;
-44.1000;0.4860;0.7500;
-43.8000;0.4843;0.7384;
-43.5000;0.4843;0.7337;
-43.2000;0.4860;0.7384;
-42.9000;0.4851;0.7407;
-42.6000;0.4851;0.7407;
-42.3000;0.4917;0.7546;
-42.0000;0.4860;0.7314;
-41.7000;0.4851;0.7291;
-41.4000;0.4851;0.7244;
-41.1000;0.4892;0.7314;
-40.8000;0.4860;0.7268;
-40.5000;0.4851;0.7291;
-40.2000;0.4843;0.7361;
-39.9000;0.4868;0.7430;
-39.6000;0.4835;0.7453;
-39.3000;0.4851;0.7430;
-39.0000;0.4868;0.7337;
-38.7000;0.4835;0.7244;
-38.4000;0.4868;0.7291;
-38.1000;0.4851;0.7221;
-37.8000;0.4860;0.7244;
-37.5000;0.4851;0.7198;
-37.2000;0.4827;0.7152;
-36.9000;0.4860;0.7337;
-36.6000;0.4851;0.7337;
-36.3000;0.4843;0.7407;
-36.0000;0.4900;0.7593;
-35.7000;0.4876;0.7477;
-35.4000;0.4827;0.7453;
-35.1000;0.4900;0.7616;
-34.8000;0.4819;0.7361;
-34.5000;0.4762;0.7175;
-34.2000;0.4860;0.7453;
-33.9000;0.4843;0.7407;
-33.6000;0.4843;0.7361;
-33.3000;0.4786;0.7221;
-33.0000;0.4868;0.7314;
-32.7000;0.4860;0.7430;
-32.4000;0.4860;0.7430;
-32.1000;0.4843;0.7337;
-31.8000;0.4819;0.7268;
-31.5000;0.4860;0.7314;
-31.2000;0.4843;0.7198;
-30.9000;0.4835;0.7175;
-30.6000;0.4835;0.7244;
-30.3000;0.4868;0.7337;
-30.0000;0.4851;0.7430;
-29.7000;0.4876;0.7407;
-29.4000;0.4851;0.7314;
-29.1000;0.4884;0.7361;
-28.8000;0.4860;0.7268;
-28.5000;0.4843;0.7175;
-28.2000;0.4868;0.7268;
-27.9000;0.4860;0.7314;
-27.6000;0.4843;0.7337;
-27.3000;0.4770;0.7152;
-27.0000;0.4860;0.7407;
-26.7000;0.4851;0.7384;
-26.4000;0.4762;0.7175;
-26.1000;0.4884;0.7337;
-25.8000;0.4851;0.7268;
-25.5000;0.4843;0.7337;
-25.2000;0.4827;0.7407;
-24.9000;0.4868;0.7523;
-24.6000;0.4868;0.7523;
-24.3000;0.4860;0.7477;
-24.0000;0.4851;0.7523;
-23.7000;0.4851;0.7477;
-23.4000;0.4860;0.7546;
-23.1000;0.4860;0.7593;
-22.8000;0.4868;0.7662;
-22.5000;0.4843;0.7616;
-22.2000;0.4835;0.7523;
-21.9000;0.4835;0.7570;
-21.6000;0.4843;0.7593;
-21.3000;0.4876;0.7616;
-21.0000;0.4851;0.7616;
-20.7000;0.4835;0.7593;
-20.4000;0.4884;0.7639;
-20.1000;0.4843;0.7570;
-19.8000;0.4851;0.7593;
-19.5000;0.4827;0.7500;
-19.2000;0.4892;0.7593;
-18.9000;0.4851;0.7384;
-18.6000;0.4851;0.7314;
-18.3000;0.4827;0.7198;
-18.0000;0.4843;0.7244;
-17.7000;0.4860;0.7384;
-17.4000;0.4843;0.7244;
-17.1000;0.4851;0.7268;
-16.8000;0.4851;0.7314;
-16.5000;0.4851;0.7361;
-16.2000;0.4860;0.7361;
-15.9000;0.4851;0.7361;
-15.6000;0.4868;0.7337;
-15.3000;0.4884;0.7407;
-15.0000;0.4851;0.7361;
-14.7000;0.4860;0.7361;
-14.4000;0.4843;0.7337;
-14.1000;0.4860;0.7337;
-13.8000;0.4868;0.7268;
-13.5000;0.4876;0.7268;
-13.2000;0.4868;0.7337;
-12.9000;0.4860;0.7314;
-12.6000;0.4868;0.7384;
-12.3000;0.4868;0.7407;
-12.0000;0.4835;0.7384;
-11.7000;0.4827;0.7407;
-11.4000;0.4851;0.7430;
-11.1000;0.4827;0.7430;
-10.8000;0.4851;0.7500;
-10.5000;0.4835;0.7430;
-10.2000;0.4851;0.7500;
-9.9000;0.4851;0.7500;
-9.6000;0.4819;0.7407;
-9.3000;0.4860;0.7453;
-9.0000;0.4868;0.7453;
-8.7000;0.4851;0.7453;
-8.4000;0.4876;0.7500;
-8.1000;0.4835;0.7384;
-7.8000;0.4843;0.7361;
-7.5000;0.4851;0.7361;
-7.2000;0.4868;0.7384;
-6.9000;0.4860;0.7337;
-6.6000;0.4835;0.7314;
-6.3000;0.4868;0.7337;
-6.0000;0.4851;0.7314;
-5.7000;0.4868;0.7337;
-5.4000;0.4843;0.7361;
-5.1000;0.4778;0.7128;
-4.8000;0.4762;0.7059;
-4.5000;0.4860;0.7314;
-4.2000;0.4851;0.7361;
-3.9000;0.4860;0.7384;
-3.6000;0.4851;0.7337;
-3.3000;0.4811;0.7198;
-3.0000;0.4835;0.7221;
-2.7000;0.4835;0.7221;
-2.4000;0.4860;0.7361;
-2.1000;0.4843;0.7430;
-1.8000;0.4860;0.7453;
-1.5000;0.4860;0.7407;
-1.2000;0.4835;0.7291;
-0.9000;0.4860;0.7337;
-0.6000;0.4851;0.7384;
-0.3000;0.4835;0.7384;
0.0000;0.4835;0.7384;
0.3000;0.4965;0.7314;
0.6000;0.5193;0.7686;
0.9000;0.5340;0.7964;
1.2000;0.5478;0.8196;
1.5000;0.5617;0.8498;
1.8000;0.5714;0.8777;
2.1000;0.5755;0.8916;
2.4000;0.5828;0.9148;
2.7000;0.5845;0.9241;
3.0000;0.5893;0.9427;
3.3000;0.5934;0.9520;
3.6000;0.5934;0.9613;
3.9000;0.5893;0.9590;
4.2000;0.5975;0.9752;
4.5000;0.5999;0.9822;
4.8000;0.5967;0.9752;
5.1000;0.6097;0.9984;
5.4000;0.6072;0.9915;
5.7000;0.6089;0.9891;
6.0000;0.6113;0.9938;
6.3000;0.6113;0.9938;
6.6000;0.6138;0.9961;
6.9000;0.6276;1.0217;
7.2000;0.6170;0.9961;
7.5000;0.6178;0.9961;
7.8000;0.6203;1.0008;
8.1000;0.6292;1.0147;
8.4000;0.6235;0.9915;
8.7000;0.6235;0.9799;
9.0000;0.6243;0.9891;
9.3000;0.6268;0.9868;
9.6000;0.6276;0.9938;
9.9000;0.6276;0.9938;
10.2000;0.6300;0.9915;
10.5000;0.6333;0.9984;
10.8000;0.6325;0.9961;
11.1000;0.6349;0.9868;
11.4000;0.6357;0.9891;
11.7000;0.6406;0.9915;
12.0000;0.6349;0.9775;
12.3000;0.6406;0.9868;
12.6000;0.6414;0.9891;
12.9000;0.6431;0.9961;
13.2000;0.6414;1.0008;
13.5000;0.6406;0.9868;
13.8000;0.6512;1.0124;
14.1000;0.6471;1.0008;
14.4000;0.6602;1.0286;
14.7000;0.6479;0.9915;
15.0000;0.6488;1.0031;
15.3000;0.6504;1.0008;
15.6000;0.6504;0.9984;
15.9000;0.6553;0.9938;
16.2000;0.6610;0.9915;
16.5000;0.6520;0.9729;
16.8000;0.6545;0.9822;
17.1000;0.6585;0.9799;
17.4000;0.6577;0.9706;
17.7000;0.6593;0.9729;
18.0000;0.6610;0.9752;
18.3000;0.6593;0.9729;
18.6000;0.6610;0.9822;
18.9000;0.6634;0.9845;
19.2000;0.6659;0.9845;
19.5000;0.6602;0.9636;
19.8000;0.6626;0.9659;
20.1000;0.6618;0.9590;
20.4000;0.6716;0.9822;
20.7000;0.6781;1.0008;
21.0000;0.6683;0.9682;
21.3000;0.6659;0.9543;
21.6000;0.6707;0.9636;
21.9000;0.6683;0.9450;
22.2000;0.6691;0.9427;
22.5000;0.6740;0.9566;
22.8000;0.6740;0.9520;
23.1000;0.6683;0.9404;
23.4000;0.6699;0.9497;
23.7000;0.6748;0.9613;
24.0000;0.6764;0.9613;
24.3000;0.6772;0.9636;
24.6000;0.6748;0.9566;
24.9000;0.6732;0.9543;
25.2000;0.6756;0.9520;
25.5000;0.6772;0.9613;
25.8000;0.6756;0.9520;
26.1000;0.6781;0.9590;
26.4000;0.6772;0.9636;
26.7000;0.6756;0.9706;
27.0000;0.6813;0.9775;
27.3000;0.6805;0.9822;
27.6000;0.6789;0.9868;
27.9000;0.6781;0.9775;
28.2000;0.6805;0.9822;
28.5000;0.6805;0.9822;
28.8000;0.6813;0.9868;
29.1000;0.6862;1.0031;
29.4000;0.6789;0.9845;
29.7000;0.6829;0.9891;
30.0000;0.6821;0.9891;
30.3000;0.6813;0.9915;
30.6000;0.6829;1.0008;
30.9000;0.6935;1.0170;
31.2000;0.6846;0.9915;
31.5000;0.6821;0.9868;
31.8000;0.6854;0.9915;
32.1000;0.6878;0.9891;
32.4000;0.6870;0.9752;
32.7000;0.6878;0.9706;
33.0000;0.6935;0.9891;
33.3000;0.6838;0.9590;
33.6000;0.6895;0.9775;
33.9000;0.6878;0.9682;
34.2000;0.6903;0.9775;
34.5000;0.6903;0.9915;
34.8000;0.6862;0.9729;
35.1000;0.6911;0.9752;
35.4000;0.6870;0.9752;
35.7000;0.6895;0.9868;
36.0000;0.6903;0.9822;
36.3000;0.6952;0.9891;
36.6000;0.6935;0.9775;
36.9000;0.6976;0.9961;
37.2000;0.6927;0.9775;
37.5000;0.6927;0.9938;
37.8000;0.6927;0.9915;
38.1000;0.6935;0.9891;
38.4000;0.6968;0.9938;
38.7000;0.6952;0.9915;
39.0000;0.6935;0.9891;
39.3000;0.6895;0.9659;
39.6000;0.6935;0.9915;
39.9000;0.6960;0.9938;
40.2000;0.6919;0.9775;
40.5000;0.6919;0.9706;
40.8000;0.6943;0.9682;
41.1000;0.6976;0.9775;
41.4000;0.6943;0.9682;
41.7000;0.7009;0.9822;
42.0000;0.6952;0.9659;
42.3000;0.6960;0.9706;
42.6000;0.6960;0.9799;
42.9000;0.6968;0.9822;
43.2000;0.6968;0.9775;
43.5000;0.6919;0.9659;
43.8000;0.6943;0.9775;
44.1000;0.6984;0.9845;
44.4000;0.6943;0.9799;
44.7000;0.6952;0.9706;
45.0000;0.6976;0.9822;
45.3000;0.6960;0.9799;
45.6000;0.6992;0.9938;
45.9000;0.6976;0.9915;
46.2000;0.6968;0.9915;
46.5000;0.6968;0.9822;
46.8000;0.6984;0.9822;
47.1000;0.6968;0.9729;
47.4000;0.6992;0.9752;
47.7000;0.7000;0.9659;
48.0000;0.7017;0.9613;
48.3000;0.7017;0.9566;
48.6000;0.7009;0.9706;
48.9000;0.7000;0.9636;
49.2000;0.7025;0.9659;
49.5000;0.7025;0.9636;
49.8000;0.7000;0.9613;
50.1000;0.7025;0.9636;
50.4000;0.7033;0.9729;
50.7000;0.7017;0.9752;
51.0000;0.7017;0.9775;
51.3000;0.7025;0.9799;
51.6000;0.7017;0.9822;
51.9000;0.7009;0.9752;
52.2000;0.7017;0.9729;
52.5000;0.7033;0.9752;
52.8000;0.7017;0.9752;
53.1000;0.7033;0.9706;
53.4000;0.6984;0.9613;
53.7000;0.7017;0.9659;
54.0000;0.7041;0.9682;
54.3000;0.7017;0.9706;
54.6000;0.7033;0.9845;
54.9000;0.7049;0.9938;
55.2000;0.7025;0.9915;
55.5000;0.7025;0.9891;
55.8000;0.7000;0.9845;
56.1000;0.7025;0.9891;
56.4000;0.7025;0.9822;
56.7000;0.7025;0.9775;
57.0000;0.7090;0.9984;
57.3000;0.7041;0.9845;
57.6000;0.7009;0.9799;
57.9000;0.7057;0.9775;
58.2000;0.6919;0.9404;
58.5000;0.7074;0.9752;
58.8000;0.7041;0.9752;
59.1000;0.7049;0.9799;
59.4000;0.6992;0.9543;
59.7000;0.6984;0.9543;
60.0000;0.7033;0.9752;
60.3000;0.7033;0.9682;
60.6000;0.7017;0.9543;
60.9000;0.7049;0.9636;
61.2000;0.7057;0.9613;
61.5000;0.7098;0.9752;
61.8000;0.7057;0.9706;
62.1000;0.7057;0.9682;
62.4000;0.7066;0.9799;
62.7000;0.7049;0.9799;
63.0000;0.7057;0.9706;
63.3000;0.7057;0.9822;
63.6000;0.7049;0.9845;
63.9000;0.7066;0.9799;
64.2000;0.7066;0.9706;
64.5000;0.7025;0.9636;
64.8000;0.7049;0.9682;
65.1000;0.7066;0.9706;
65.4000;0.7090;0.9590;
65.7000;0.7066;0.9636;
66.0000;0.7082;0.9613;
66.3000;0.7057;0.9566;
66.6000;0.7074;0.9613;
66.9000;0.7082;0.9659;
67.2000;0.7082;0.9659;
67.5000;0.7041;0.9613;
67.8000;0.7025;0.9613;
68.1000;0.7057;0.9752;
68.4000;0.7082;0.9775;
68.7000;0.7074;0.9706;
69.0000;0.7057;0.9729;
69.3000;0.7066;0.9752;
69.6000;0.7049;0.9729;
69.9000;0.7090;0.9822;
70.2000;0.7074;0.9706;
70.5000;0.7049;0.9706;
70.8000;0.7057;0.9682;
71.1000;0.7066;0.9775;
71.4000;0.7106;0.9845;
71.7000;0.7098;0.9799;
72.0000;0.7098;0.9752;
72.3000;0.7090;0.9822;
72.6000;0.7082;0.9799;
72.9000;0.7074;0.9799;
73.2000;0.7082;0.9845;
73.5000;0.7106;0.9891;
73.8000;0.7082;0.9868;
74.1000;0.7090;0.9775;
74.4000;0.7082;0.9775;
74.7000;0.7074;0.9682;
75.0000;0.7090;0.9636;
75.3000;0.7090;0.9636;
75.6000;0.7082;0.9543;
75.9000;0.6984;0.9218;
76.2000;0.7106;0.9427;
76.5000;0.7082;0.9520;
76.8000;0.7090;0.9520;
77.1000;0.7082;0.9520;
77.4000;0.7090;0.9497;
77.7000;0.7082;0.9427;
78.0000;0.7090;0.9543;
78.3000;0.7114;0.9659;
78.6000;0.7106;0.9566;
78.9000;0.7017;0.9450;
79.2000;0.7090;0.9659;
79.5000;0.7082;0.9613;
79.8000;0.7090;0.9729;
80.1000;0.7098;0.9729;
80.4000;0.7057;0.9682;
80.7000;0.7082;0.9775;
81.0000;0.7090;0.9799;
81.3000;0.7131;0.9799;
81.6000;0.7123;0.9822;
81.9000;0.7090;0.9729;
82.2000;0.7114;0.9682;
82.5000;0.7114;0.9682;
82.8000;0.7082;0.9613;
83.1000;0.7106;0.9636;
83.4000;0.7114;0.9682;
83.7000;0.7017;0.9520;
84.0000;0.7098;0.9729;
84.3000;0.7098;0.9729;
84.6000;0.7114;0.9752;
84.9000;0.7106;0.9659;
85.2000;0.7098;0.9682;
85.5000;0.7098;0.9706;
85.8000;0.7131;0.9729;
86.1000;0.7123;0.9706;
86.4000;0.7106;0.9752;
86.7000;0.7098;0.9822;
87.0000;0.7106;0.9868;
87.3000;0.7114;0.9845;
87.6000;0.7098;0.9799;
87.9000;0.7123;0.9799;
88.2000;0.7098;0.9706;
88.5000;0.7114;0.9682;
88.8000;0.7114;0.9729;
89.1000;0.7106;0.9729;
89.4000;0.7114;0.9729;
89.7000;0.7114;0.9659;
90.0000;0.7123;0.9659;
90.3000;0.7114;0.9682;
90.6000;0.7123;0.9613;
90.9000;0.7131;0.9566;
91.2000;0.7066;0.9404;
91.5000;0.7131;0.9497;
91.8000;0.7155;0.9566;
92.1000;0.7123;0.9497;
92.4000;0.7123;0.9520;
92.7000;0.7188;0.9659;
93.0000;0.7123;0.9520;
93.3000;0.7114;0.9404;
93.6000;0.7147;0.9427;
93.9000;0.7123;0.9381;
94.2000;0.7106;0.9404;
94.5000;0.7131;0.9450;
94.8000;0.7171;0.9613;
95.1000;0.7131;0.9543;
95.4000;0.7123;0.9566;
95.7000;0.7114;0.9497;
96.0000;0.7114;0.9497;
96.3000;0.7131;0.9497;
96.6000;0.7139;0.9497;
96.9000;0.7163;0.9659;
97.2000;0.7131;0.9543;
97.5000;0.7123;0.9566;
97.8000;0.7090;0.9473;
98.1000;0.7114;0.9473;
98.4000;0.7139;0.9497;
98.7000;0.7131;0.9590;
99.0000;0.7139;0.9613;
99.3000;0.7106;0.9566;
99.6000;0.7106;0.9543;
99.9000;0.7131;0.9636;
100.2000;0.7123;0.9706;
100.5000;0.7090;0.9613;
100.8000;0.7114;0.9636;
101.1000;0.7131;0.9590;
101.4000;0.7163;0.9659;
101.7000;0.7139;0.9590;
102.0000;0.7131;0.9520;
102.3000;0.7123;0.9473;
102.6000;0.7139;0.9427;
102.9000;0.7131;0.9381;
103.2000;0.7123;0.9450;
103.5000;0.7131;0.9566;
103.8000;0.7139;0.9590;
104.1000;0.7123;0.9682;
104.4000;0.7114;0.9636;
104.7000;0.7114;0.9590;
105.0000;0.7131;0.9590;
105.3000;0.7131;0.9636;
105.6000;0.7131;0.9543;
105.9000;0.7139;0.9497;
106.2000;0.7131;0.9473;
106.5000;0.7139;0.9450;
106.8000;0.7131;0.9404;
107.1000;0.7123;0.9381;
107.4000;0.7123;0.9427;
107.7000;0.7123;0.9590;
108.0000;0.7131;0.9636;
108.3000;0.7114;0.9659;
108.6000;0.7131;0.9566;
108.9000;0.7131;0.9543;
109.2000;0.7131;0.9520;
109.5000;0.7139;0.9543;
109.8000;0.7123;0.9520;
110.1000;0.7123;0.9590;
110.4000;0.7131;0.9659;
110.7000;0.7220;0.9891;
111.0000;0.7033;0.9450;
111.3000;0.7139;0.9752;
111.6000;0.7163;0.9752;
111.9000;0.7139;0.9706;
112.2000;0.7139;0.9636;
112.5000;0.7147;0.9659;
112.8000;0.7163;0.9729;
113.1000;0.7139;0.9729;
113.4000;0.7139;0.9799;
113.7000;0.7123;0.9799;
114.0000;0.7131;0.9845;
114.3000;0.7114;0.9775;
114.6000;0.7147;0.9845;
114.9000;0.7123;0.9706;
115.2000;0.7147;0.9752;
115.5000;0.7147;0.9682;
115.8000;0.7147;0.9775;
116.1000;0.7147;0.9845;
116.4000;0.7155;0.9868;
116.7000;0.7147;0.9868;
117.0000;0.7139;0.9752;
117.3000;0.7236;0.9868;
117.6000;0.7114;0.9613;
117.9000;0.7139;0.9590;
118.2000;0.7123;0.9566;
118.5000;0.7114;0.9566;
118.8000;0.7212;0.9822;
119.1000;0.7131;0.9729;
119.4000;0.7139;0.9799;
119.7000;0.7131;0.9752;
120.0000;0.7066;0.9520;
120.3000;0.7123;0.9659;
120.6000;0.7098;0.9520;
120.9000;0.7171;0.9659;
121.2000;0.7139;0.9659;
121.5000;0.7123;0.9682;
121.8000;0.7155;0.9752;
122.1000;0.7139;0.9682;
122.4000;0.7147;0.9566;
122.7000;0.7131;0.9566;
123.0000;0.7131;0.9543;
123.3000;0.7155;0.9566;
123.6000;0.7147;0.9473;
123.9000;0.7106;0.9334;
124.2000;0.7139;0.9288;
124.5000;0.7163;0.9404;
124.8000;0.7147;0.9404;
125.1000;0.7139;0.9357;
125.4000;0.7131;0.9241;
125.7000;0.7155;0.9241;
126.0000;0.7155;0.9288;
126.3000;0.7131;0.9265;
126.6000;0.7188;0.9497;
126.9000;0.7155;0.9473;
127.2000;0.7188;0.9520;
127.5000;0.7147;0.9404;
127.8000;0.7147;0.9311;
128.1000;0.7147;0.9288;
128.4000;0.7155;0.9334;
128.7000;0.7139;0.9265;
129.0000;0.7147;0.9404;
129.3000;0.7131;0.9427;
129.6000;0.7131;0.9334;
129.9000;0.7090;0.9125;
130.2000;0.7147;0.9357;
130.5000;0.7049;0.9241;
130.8000;0.7155;0.9381;
131.1000;0.7106;0.9265;
131.4000;0.7147;0.9450;
131.7000;0.7139;0.9450;
132.0000;0.7155;0.9543;
132.3000;0.7163;0.9566;
132.6000;0.7155;0.9613;
132.9000;0.7131;0.9613;
133.2000;0.7139;0.9636;
133.5000;0.7131;0.9706;
133.8000;0.7147;0.9752;
134.1000;0.7131;0.9729;
134.4000;0.7123;0.9682;
134.7000;0.7139;0.9729;
135.0000;0.7123;0.9659;
135.3000;0.7139;0.9706;
135.6000;0.7147;0.9636;
135.9000;0.7082;0.9543;
136.2000;0.7155;0.9682;
136.5000;0.7155;0.9636;
136.8000;0.7123;0.9590;
137.1000;0.7123;0.9590;
137.4000;0.7171;0.9682;
137.7000;0.7139;0.9590;
138.0000;0.7123;0.9682;
138.3000;0.7147;0.9682;
138.6000;0.7139;0.9566;
138.9000;0.7147;0.9543;
139.2000;0.7163;0.9590;
139.5000;0.7131;0.9543;
139.8000;0.7155;0.9520;
140.1000;0.7147;0.9427;
140.4000;0.7163;0.9566;
140.7000;0.7163;0.9636;
141.0000;0.7163;0.9659;
141.3000;0.7163;0.9659;
141.6000;0.7163;0.9566;
141.9000;0.7123;0.9543;
142.2000;0.7139;0.9566;
142.5000;0.7147;0.9729;
142.8000;0.7139;0.9659;
143.1000;0.7090;0.9404;
143.4000;0.7147;0.9543;
143.7000;0.7139;0.9520;
144.0000;0.7163;0.9566;
144.3000;0.7090;0.9357;
144.6000;0.7179;0.9590;
144.9000;0.7179;0.9497;
145.2000;0.7155;0.9497;
145.5000;0.7147;0.9590;
145.8000;0.7139;0.9613;
146.1000;0.7147;0.9543;
146.4000;0.7171;0.9590;
146.7000;0.7179;0.9497;
147.0000;0.7163;0.9590;
147.3000;0.7155;0.9566;
147.6000;0.7155;0.9520;
147.9000;0.7147;0.9473;
148.2000;0.7147;0.9497;
148.5000;0.7155;0.9497;
148.8000;0.7139;0.9404;
149.1000;0.7204;0.9543;
149.4000;0.7049;0.9265;
149.7000;0.7147;0.9473;
150.0000;0.7155;0.9450;
150.3000;0.7155;0.9427;
150.6000;0.7123;0.9450;
150.9000;0.7090;0.9195;
151.2000;0.7147;0.9334;
151.5000;0.7245;0.9636;
151.8000;0.7188;0.9450;
152.1000;0.7155;0.9381;
152.4000;0.7196;0.9450;
152.7000;0.7123;0.9311;
153.0000;0.7139;0.9357;
153.3000;0.7147;0.9450;
153.6000;0.7106;0.9381;
153.9000;0.7139;0.9404;
154.2000;0.7114;0.9311;
154.5000;0.7188;0.9520;
154.8000;0.7155;0.9427;
155.1000;0.7163;0.9404;
155.4000;0.7155;0.9450;
155.7000;0.7147;0.9450;
156.0000;0.7155;0.9520;
156.3000;0.7163;0.9520;
156.6000;0.7155;0.9404;
156.9000;0.7155;0.9381;
157.2000;0.7147;0.9288;
157.5000;0.7155;0.9357;
157.8000;0.7147;0.9357;
158.1000;0.7139;0.9334;
158.4000;0.7196;0.9497;
158.7000;0.7245;0.9590;
159.0000;0.7171;0.9381;
159.3000;0.7228;0.9497;
159.6000;0.7147;0.9311;
159.9000;0.7155;0.9357;
160.2000;0.7147;0.9381;
160.5000;0.7163;0.9520;
160.8000;0.7171;0.9473;
161.1000;0.7155;0.9404;
161.4000;0.7163;0.9427;
161.7000;0.7147;0.9427;
162.0000;0.7163;0.9543;
162.3000;0.7139;0.9543;
162.6000;0.7179;0.9566;
162.9000;0.7155;0.9404;
163.2000;0.7155;0.9357;
163.5000;0.7179;0.9427;
163.8000;0.7155;0.9427;
164.1000;0.7155;0.9473;
164.4000;0.7188;0.9543;
164.7000;0.7171;0.9450;
165.0000;0.7155;0.9404;
165.3000;0.7163;0.9473;
165.6000;0.7171;0.9473;
165.9000;0.7163;0.9427;
166.2000;0.7163;0.9404;
166.5000;0.7188;0.9473;
166.8000;0.7155;0.9427;
167.1000;0.7155;0.9450;
167.4000;0.7147;0.9381;
167.7000;0.7163;0.9543;
168.0000;0.7171;0.9613;
168.3000;0.7155;0.9636;
168.6000;0.7131;0.9566;
168.9000;0.7147;0.9590;
169.2000;0.7123;0.9543;
169.5000;0.7155;0.9590;
169.8000;0.7188;0.9636;
170.1000;0.7131;0.9473;
170.4000;0.7179;0.9659;
170.7000;0.7163;0.9590;
171.0000;0.7163;0.9682;
171.3000;0.7204;0.9799;
171.6000;0.7139;0.9706;
171.9000;0.7155;0.9706;
172.2000;0.7155;0.9613;
172.5000;0.7139;0.9566;
172.8000;0.7179;0.9659;
173.1000;0.7163;0.9520;
173.4000;0.7123;0.9357;
173.7000;0.7147;0.9473;
174.0000;0.7163;0.9613;
174.3000;0.7155;0.9636;
174.6000;0.7171;0.9566;
174.9000;0.7277;0.9659;
175.2000;0.7155;0.9404;
175.5000;0.7196;0.9427;
175.8000;0.7147;0.9357;
176.1000;0.7147;0.9241;
176.4000;0.7082;0.9056;
176.7000;0.7098;0.9079;
177.0000;0.7139;0.9195;
177.3000;0.7114;0.9148;
177.6000;0.7147;0.9218;
177.9000;0.7253;0.9520;
178.2000;0.7179;0.9288;
178.5000;0.7163;0.9195;
178.8000;0.7163;0.9148;
179.1000;0.7139;0.9125;
179.4000;0.7163;0.9218;
179.7000;0.7179;0.9381;
180.0000;0.7139;0.9381;
180.3000;0.7147;0.9381;
180.6000;0.7171;0.9520;
180.9000;0.7139;0.9404;
181.2000;0.7163;0.9427;
181.5000;0.7179;0.9427;
181.8000;0.7171;0.9450;
182.1000;0.7155;0.9566;
182.4000;0.7147;0.9497;
182.7000;0.7163;0.9497;
183.0000;0.7179;0.9450;
183.3000;0.7171;0.9427;
183.6000;0.7171;0.9450;
183.9000;0.7171;0.9427;
184.2000;0.7179;0.9450;
184.5000;0.7147;0.9381;
184.8000;0.7179;0.9357;
185.1000;0.7147;0.9218;
185.4000;0.7163;0.9265;
185.7000;0.7163;0.9265;
186.0000;0.7179;0.9218;
186.3000;0.7155;0.9172;
186.6000;0.7147;0.9172;
186.9000;0.7171;0.9148;
187.2000;0.7171;0.9125;
187.5000;0.7147;0.9125;
187.8000;0.7163;0.9218;
188.1000;0.7147;0.9241;
188.4000;0.7171;0.9241;
188.7000;0.7188;0.9311;
189.0000;0.7163;0.9288;
189.3000;0.7155;0.9195;
189.6000;0.7131;0.9172;
189.9000;0.7228;0.9404;
190.2000;0.7179;0.9311;
190.5000;0.7163;0.9311;
190.8000;0.7171;0.9404;
191.1000;0.7171;0.9404;
191.4000;0.7114;0.9265;
191.7000;0.7155;0.9311;
192.0000;0.7147;0.9288;
192.3000;0.7147;0.9218;
192.6000;0.7163;0.9265;
192.9000;0.7204;0.9357;
193.2000;0.7155;0.9288;
193.5000;0.7163;0.9334;
193.8000;0.7131;0.9334;
194.1000;0.7147;0.9334;
194.4000;0.7131;0.9334;
194.7000;0.7220;0.9450;
195.0000;0.7155;0.9381;
195.3000;0.7139;0.9288;
195.6000;0.7139;0.9334;
195.9000;0.7163;0.9404;
196.2000;0.7106;0.9311;
196.5000;0.7220;0.9590;
196.8000;0.7147;0.9404;
197.1000;0.7163;0.9473;
197.4000;0.7163;0.9497;
197.7000;0.7123;0.9473;
198.0000;0.7155;0.9450;
198.3000;0.7155;0.9497;
198.6000;0.7147;0.9520;
198.9000;0.7171;0.9590;
199.2000;0.7228;0.9752;
199.5000;0.7188;0.9566;
199.8000;0.7171;0.9543;
200.1000;0.7179;0.9520;
200.4000;0.7171;0.9450;
200.7000;0.7163;0.9334;
201.0000;0.7179;0.9334;
201.3000;0.7139;0.9288;
201.6000;0.7147;0.9311;
201.9000;0.7155;0.9357;
202.2000;0.7171;0.9404;
202.5000;0.7163;0.9404;
202.8000;0.7155;0.9404;
203.1000;0.7171;0.9404;
203.4000;0.7163;0.9427;
203.7000;0.7179;0.9497;
204.0000;0.7171;0.9566;
204.3000;0.7155;0.9497;
204.6000;0.7171;0.9543;
204.9000;0.7171;0.9520;
205.2000;0.7163;0.9636;
205.5000;0.7163;0.9497;
205.8000;0.7163;0.9520;
206.1000;0.7155;0.9404;
206.4000;0.7163;0.9334;
206.7000;0.7139;0.9404;
207.0000;0.7147;0.9497;
207.3000;0.7179;0.9613;
207.6000;0.7163;0.9520;
207.9000;0.7155;0.9543;
208.2000;0.7163;0.9590;
208.5000;0.7171;0.9636;
208.8000;0.7196;0.9729;
209.1000;0.7163;0.9706;
209.4000;0.7220;0.9799;
209.7000;0.7171;0.9659;
210.0000;0.7179;0.9636;
210.3000;0.7196;0.9775;
210.6000;0.7196;0.9799;
210.9000;0.7163;0.9659;
211.2000;0.7163;0.9659;
211.5000;0.7163;0.9729;
211.8000;0.7131;0.9659;
212.1000;0.7163;0.9613;
212.4000;0.7171;0.9636;
212.7000;0.7155;0.9566;
213.0000;0.7147;0.9520;
213.3000;0.7155;0.9590;
213.6000;0.7139;0.9659;
213.9000;0.7236;0.9799;
214.2000;0.7188;0.9682;
214.5000;0.7147;0.9543;
214.8000;0.7171;0.9473;
215.1000;0.7179;0.9473;
215.4000;0.7171;0.9497;
215.7000;0.7179;0.9497;
216.0000;0.7155;0.9334;
216.3000;0.7163;0.9450;
216.6000;0.7106;0.9473;
216.9000;0.7114;0.9497;
217.2000;0.7155;0.9613;
217.5000;0.7123;0.9659;
217.8000;0.7342;1.0124;
218.1000;0.7139;0.9613;
218.4000;0.7106;0.9543;
218.7000;0.7147;0.9706;
219.0000;0.7155;0.9636;
219.3000;0.7171;0.9613;
219.6000;0.7155;0.9520;
219.9000;0.7163;0.9543;
220.2000;0.7171;0.9590;
220.5000;0.7171;0.9590;
220.8000;0.7171;0.9613;
221.1000;0.7163;0.9659;
221.4000;0.7155;0.9659;
221.7000;0.7220;0.9822;
222.0000;0.7155;0.9590;
222.3000;0.7147;0.9543;
222.6000;0.7155;0.9497;
222.9000;0.7171;0.9473;
223.2000;0.7171;0.9334;
223.5000;0.7163;0.9381;
223.8000;0.7155;0.9311;
224.1000;0.7163;0.9473;
224.4000;0.7171;0.9450;
224.7000;0.7171;0.9497;
225.0000;0.7163;0.9357;
225.3000;0.7114;0.9265;
225.6000;0.7196;0.9497;
225.9000;0.7171;0.9543;
226.2000;0.7155;0.9566;
226.5000;0.7163;0.9543;
226.8000;0.7147;0.9636;
227.1000;0.7155;0.9590;
227.4000;0.7155;0.9566;
227.7000;0.7098;0.9404;
228.0000;0.7163;0.9566;
228.3000;0.7171;0.9590;
228.6000;0.7179;0.9590;
228.9000;0.7147;0.9590;
229.2000;0.7171;0.9473;
229.5000;0.7171;0.9450;
229.8000;0.7163;0.9450;
230.1000;0.7163;0.9334;
230.4000;0.7179;0.9427;
230.7000;0.7171;0.9427;
231.0000;0.7188;0.9473;
231.3000;0.7179;0.9357;
231.6000;0.7188;0.9473;
231.9000;0.7171;0.9381;
232.2000;0.7179;0.9357;
232.5000;0.7155;0.9241;
232.8000;0.7188;0.9218;
233.1000;0.7171;0.9265;
233.4000;0.7179;0.9288;
233.7000;0.7171;0.9218;
234.0000;0.7171;0.9218;
234.3000;0.7171;0.9241;
234.6000;0.7179;0.9334;
234.9000;0.7179;0.9265;
235.2000;0.7171;0.9288;
235.5000;0.7188;0.9427;
235.8000;0.7171;0.9450;
236.1000;0.7179;0.9450;
236.4000;0.7139;0.9311;
236.7000;0.7171;0.9334;
237.0000;0.7179;0.9404;
237.3000;0.7163;0.9357;
237.6000;0.7236;0.9613;
237.9000;0.7171;0.9473;
238.2000;0.7171;0.9473;
238.5000;0.7171;0.9520;
238.8000;0.7188;0.9543;
239.1000;0.7163;0.9520;
239.4000;0.7171;0.9543;
239.7000;0.7131;0.9427;
240.0000;0.7155;0.9473;
240.3000;0.7163;0.9497;
240.6000;0.7155;0.9427;
240.9000;0.7171;0.9404;
241.2000;0.7155;0.9404;
241.5000;0.7179;0.9473;
241.8000;0.7147;0.9427;
242.1000;0.7155;0.9497;
242.4000;0.7171;0.9520;
242.7000;0.7188;0.9590;
243.0000;0.7139;0.9566;
243.3000;0.7179;0.9682;
243.6000;0.7155;0.9636;
243.9000;0.7155;0.9520;
244.2000;0.7163;0.9473;
244.5000;0.7171;0.9450;
244.8000;0.7171;0.9473;
245.1000;0.7163;0.9497;
245.4000;0.7155;0.9543;
245.7000;0.7171;0.9613;
246.0000;0.7171;0.9590;
246.3000;0.7155;0.9590;
246.6000;0.7155;0.9613;
246.9000;0.7204;0.9659;
247.2000;0.7171;0.9636;
247.5000;0.7147;0.9613;
247.8000;0.7147;0.9566;
248.1000;0.7171;0.9566;
248.4000;0.7163;0.9566;
248.7000;0.7155;0.9566;
249.0000;0.7261;0.9891;
249.3000;0.7188;0.9659;
249.6000;0.7179;0.9497;
249.9000;0.7179;0.9520;
250.2000;0.7179;0.9566;
250.5000;0.7123;0.9473;
250.8000;0.7171;0.9520;
251.1000;0.7163;0.9566;
251.4000;0.7163;0.9543;
251.7000;0.7163;0.9543;
252.0000;0.7155;0.9543;
252.3000;0.7179;0.9566;
252.6000;0.7179;0.9636;
252.9000;0.7147;0.9613;
253.2000;0.7171;0.9613;
253.5000;0.7171;0.9636;
253.8000;0.7163;0.9520;
254.1000;0.7155;0.9334;
254.4000;0.7155;0.9381;
254.7000;0.7171;0.9404;
255.0000;0.7179;0.9404;
255.3000;0.7179;0.9357;
255.6000;0.7171;0.9288;
255.9000;0.7171;0.9265;
256.2000;0.7196;0.9241;
256.5000;0.7163;0.9125;
256.8000;0.7179;0.9102;
257.1000;0.7171;0.9148;
257.4000;0.7123;0.9125;
257.7000;0.7179;0.9381;
258.0000;0.7163;0.9473;
258.3000;0.7163;0.9450;
258.6000;0.7163;0.9404;
258.9000;0.7155;0.9288;
259.2000;0.7171;0.9311;
259.5000;0.7163;0.9427;
259.8000;0.7155;0.9334;
260.1000;0.7163;0.9427;
260.4000;0.7163;0.9427;
260.7000;0.7179;0.9473;
261.0000;0.7171;0.9520;
261.3000;0.7171;0.9427;
261.6000;0.7163;0.9497;
261.9000;0.7155;0.9590;
262.2000;0.7147;0.9590;
262.5000;0.7196;0.9613;
262.8000;0.7163;0.9543;
263.1000;0.7163;0.9566;
263.4000;0.7171;0.9613;
263.7000;0.7155;0.9543;
264.0000;0.7114;0.9404;
264.3000;0.7139;0.9520;
264.6000;0.7171;0.9659;
264.9000;0.7163;0.9659;
265.2000;0.7179;0.9659;
265.5000;0.7163;0.9613;
265.8000;0.7114;0.9613;
266.1000;0.7196;0.9752;
266.4000;0.7155;0.9706;
266.7000;0.7131;0.9566;
267.0000;0.7139;0.9497;
267.3000;0.7171;0.9613;
267.6000;0.7171;0.9682;
267.9000;0.7147;0.9636;
268.2000;0.7147;0.9497;
268.5000;0.7220;0.9659;
268.8000;0.7139;0.9381;
269.1000;0.7171;0.9473;
269.4000;0.7228;0.9566;
269.7000;0.7147;0.9427;
270.0000;0.7196;0.9590;
270.3000;0.7277;0.9822;
270.6000;0.7163;0.9590;
270.9000;0.7171;0.9636;
271.2000;0.7163;0.9636;
271.5000;0.7066;0.9381;
271.8000;0.7114;0.9404;
272.1000;0.7179;0.9497;
272.4000;0.7245;0.9729;
272.7000;0.7285;0.9822;
273.0000;0.7196;0.9682;
273.3000;0.7163;0.9566;
273.6000;0.7171;0.9566;
273.9000;0.7179;0.9566;
274.2000;0.7171;0.9497;
274.5000;0.7106;0.9450;
274.8000;0.7155;0.9473;
275.1000;0.7171;0.9497;
275.4000;0.7163;0.9636;
275.7000;0.7171;0.9659;
276.0000;0.7171;0.9613;
276.3000;0.7155;0.9659;
276.6000;0.7179;0.9729;
276.9000;0.7155;0.9659;
277.2000;0.7155;0.9682;
277.5000;0.7139;0.9729;
277.8000;0.7179;0.9659;
278.1000;0.7147;0.9566;
278.4000;0.7163;0.9566;
278.7000;0.7163;0.9473;
279.0000;0.7163;0.9473;
279.3000;0.7228;0.9590;
279.6000;0.7171;0.9543;
279.9000;0.7163;0.9543;
280.2000;0.7155;0.9520;
280.5000;0.7139;0.9543;
280.8000;0.7163;0.9520;
281.1000;0.7147;0.9473;
281.4000;0.7139;0.9473;
281.7000;0.7188;0.9613;
282.0000;0.7155;0.9613;
282.3000;0.7163;0.9636;
282.6000;0.7155;0.9729;
282.9000;0.7155;0.9752;
283.2000;0.7179;0.9752;
283.5000;0.7147;0.9659;
283.8000;0.7114;0.9497;
284.1000;0.7155;0.9590;
284.4000;0.7310;0.9891;
284.7000;0.7155;0.9613;
285.0000;0.7155;0.9636;
285.3000;0.7131;0.9590;
285.6000;0.7163;0.9729;
285.9000;0.7123;0.9636;
286.2000;0.7163;0.9682;
286.5000;0.7131;0.9659;
286.8000;0.7155;0.9752;
287.1000;0.7155;0.9682;
287.4000;0.7261;1.0031;
287.7000;0.7220;0.9984;
288.0000;0.7171;0.9822;
288.3000;0.7114;0.9706;
288.6000;0.7179;0.9822;
288.9000;0.7212;0.9961;
289.2000;0.7155;0.9845;
289.5000;0.7147;0.9868;
289.8000;0.7212;0.9938;
290.1000;0.7131;0.9636;
290.4000;0.7179;0.9659;
290.7000;0.7147;0.9590;
291.0000;0.7155;0.9613;
291.3000;0.7106;0.9497;
291.6000;0.7293;0.9961;
291.9000;0.7179;0.9822;
292.2000;0.7131;0.9706;
292.5000;0.7123;0.9636;
292.8000;0.7171;0.9775;
293.1000;0.7171;0.9775;
293.4000;0.7179;0.9729;
293.7000;0.7163;0.9566;
294.0000;0.7139;0.9497;
294.3000;0.7114;0.9497;
294.6000;0.7155;0.9659;
294.9000;0.7163;0.9613;
295.2000;0.7155;0.9590;
295.5000;0.7236;0.9845;
295.8000;0.7204;0.9752;
296.1000;0.7163;0.9566;
296.4000;0.7155;0.9450;
296.7000;0.7131;0.9450;
297.0000;0.7155;0.9473;
297.3000;0.7163;0.9473;
297.6000;0.7163;0.9497;
297.9000;0.7163;0.9473;
298.2000;0.7179;0.9497;
298.5000;0.7188;0.9520;
298.8000;0.7147;0.9543;
299.1000;0.7155;0.9473;
299.4000;0.7163;0.9497;
299.7000;0.7163;0.9520;
300.0000;0.7155;0.9590;
300.3000;0.7155;0.9590;
300.6000;0.7204;0.9775;
300.9000;0.7163;0.9706;
301.2000;0.7171;0.9682;
301.5000;0.7155;0.9636;
301.8000;0.7147;0.9590;
302.1000;0.7163;0.9590;
302.4000;0.7179;0.9543;
302.7000;0.7114;0.9357;
303.0000;0.7163;0.9543;
303.3000;0.7179;0.9636;
303.6000;0.7163;0.9590;
303.9000;0.7147;0.9566;
304.2000;0.7147;0.9636;
304.5000;0.7171;0.9729;
304.8000;0.7147;0.9636;
305.1000;0.7155;0.9706;
305.4000;0.7171;0.9752;
305.7000;0.7147;0.9682;
306.0000;0.7163;0.9845;
306.3000;0.7139;0.9729;
306.6000;0.7171;0.9822;
306.9000;0.7188;0.9822;
307.2000;0.7163;0.9799;
307.5000;0.7106;0.9706;
307.8000;0.7114;0.9682;
308.1000;0.7155;0.9706;
308.4000;0.7147;0.9659;
308.7000;0.7204;0.9845;
309.0000;0.7179;0.9706;
309.3000;0.7179;0.9682;
309.6000;0.7171;0.9752;
309.9000;0.7220;0.9775;
310.2000;0.7163;0.9659;
310.5000;0.7139;0.9706;
310.8000;0.7155;0.9659;
311.1000;0.7179;0.9775;
311.4000;0.7163;0.9729;
311.7000;0.7155;0.9706;
312.0000;0.7171;0.9682;
312.3000;0.7163;0.9729;
312.6000;0.7179;0.9822;
312.9000;0.7147;0.9729;
313.2000;0.7123;0.9682;
313.5000;0.7139;0.9752;
313.8000;0.7171;0.9775;
314.1000;0.7171;0.9659;
314.4000;0.7171;0.9590;
314.7000;0.7155;0.9636;
315.0000;0.7179;0.9636;
315.3000;0.7123;0.9636;
315.6000;0.7155;0.9752;
315.9000;0.7155;0.9706;
316.2000;0.7163;0.9682;
316.5000;0.7155;0.9636;
316.8000;0.7131;0.9566;
317.1000;0.7163;0.9682;
317.4000;0.7179;0.9775;
317.7000;0.7171;0.9752;
318.0000;0.7171;0.9659;
318.3000;0.7147;0.9566;
318.6000;0.7163;0.9659;
318.9000;0.7171;0.9659;
319.2000;0.7212;0.9822;
319.5000;0.7155;0.9706;
319.8000;0.7163;0.9752;
320.1000;0.7131;0.9659;
320.4000;0.7147;0.9659;
320.7000;0.7114;0.9590;
321.0000;0.7131;0.9613;
321.3000;0.7155;0.9636;
321.6000;0.7179;0.9706;
321.9000;0.7147;0.9613;
322.2000;0.7139;0.9590;
322.5000;0.7155;0.9566;
322.8000;0.7163;0.9636;
323.1000;0.7155;0.9613;
323.4000;0.7147;0.9613;
323.7000;0.7220;0.9845;
324.0000;0.7163;0.9752;
324.3000;0.7171;0.9775;
324.6000;0.7179;0.9775;
324.9000;0.7171;0.9636;
325.2000;0.7155;0.9590;
325.5000;0.7155;0.9636;
325.8000;0.7147;0.9566;
326.1000;0.7131;0.9473;
326.4000;0.7155;0.9566;
326.7000;0.7123;0.9497;
327.0000;0.7171;0.9590;
327.3000;0.7163;0.9706;
327.6000;0.7171;0.9659;
327.9000;0.7139;0.9682;
328.2000;0.7163;0.9845;
328.5000;0.7155;0.9822;
328.8000;0.7163;0.9799;
329.1000;0.7171;0.9752;
329.4000;0.7163;0.9729;
329.7000;0.7139;0.9775;
330.0000;0.7155;0.9799;
330.3000;0.7163;0.9891;
330.6000;0.7171;0.9868;
330.9000;0.7155;0.9775;
331.2000;0.7139;0.9706;
331.5000;0.7155;0.9682;
331.8000;0.7163;0.9752;
332.1000;0.7139;0.9752;
332.4000;0.7131;0.9682;
332.7000;0.7155;0.9775;
333.0000;0.7155;0.9682;
333.3000;0.7139;0.9613;
333.6000;0.7220;0.9706;
333.9000;0.7163;0.9613;
334.2000;0.7228;0.9799;
334.5000;0.7163;0.9752;
334.8000;0.7196;0.9845;
335.1000;0.7163;0.9799;
335.4000;0.7163;0.9822;
335.7000;0.7163;0.9775;
336.0000;0.7147;0.9706;
336.3000;0.7245;0.9891;
336.6000;0.7123;0.9729;
336.9000;0.7139;0.9799;
337.2000;0.7147;0.9799;
337.5000;0.7163;0.9799;
337.8000;0.7155;0.9775;
338.1000;0.7155;0.9822;
338.4000;0.7155;0.9845;
338.7000;0.7139;0.9799;
339.0000;0.7139;0.9775;
339.3000;0.7171;0.9799;
339.6000;0.7131;0.9636;
339.9000;0.7082;0.9566;
340.2000;0.7155;0.9752;
340.5000;0.7163;0.9729;
340.8000;0.7131;0.9590;
341.1000;0.7139;0.9566;
341.4000;0.7171;0.9590;
341.7000;0.7155;0.9566;
342.0000;0.7163;0.9590;
342.3000;0.7163;0.9682;
342.6000;0.7139;0.9636;
342.9000;0.7220;0.9891;
343.2000;0.7171;0.9822;
343.5000;0.7171;0.9845;
343.8000;0.7123;0.9729;
344.1000;0.7147;0.9775;
344.4000;0.7171;0.9845;
344.7000;0.7147;0.9706;
345.0000;0.7131;0.9682;
345.3000;0.7163;0.9799;
345.6000;0.7147;0.9752;
345.9000;0.7188;0.9845;
346.2000;0.7155;0.9775;
346.5000;0.7114;0.9729;
346.8000;0.7155;0.9845;
347.1000;0.7163;0.9799;
347.4000;0.7139;0.9775;
347.7000;0.7139;0.9682;
348.0000;0.7155;0.9566;
348.3000;0.7163;0.9613;
348.6000;0.7155;0.9706;
348.9000;0.7179;0.9706;
349.2000;0.7147;0.9613;
349.5000;0.7163;0.9752;
349.8000;0.7179;0.9729;
350.1000;0.7155;0.9706;
350.4000;0.7155;0.9659;
350.7000;0.7163;0.9590;
351.0000;0.7196;0.9682;
351.3000;0.7163;0.9636;
351.6000;0.7131;0.9520;
351.9000;0.7139;0.9520;
352.2000;0.7179;0.9543;
352.5000;0.7155;0.9520;
352.8000;0.7163;0.9473;
353.1000;0.7163;0.9566;
353.4000;0.7155;0.9659;
353.7000;0.7163;0.9706;
354.0000;0.7155;0.9659;
354.3000;0.7163;0.9706;
354.6000;0.7179;0.9659;
354.9000;0.7179;0.9659;
355.2000;0.7163;0.9636;
355.5000;0.7204;0.9659;
355.8000;0.7155;0.9497;
356.1000;0.7163;0.9613;
356.4000;0.7163;0.9590;
356.7000;0.7147;0.9473;
357.0000;0.7171;0.9404;
357.3000;0.7163;0.9427;
357.6000;0.7155;0.9520;
357.9000;0.7147;0.9566;
358.2000;0.7171;0.9706;
358.5000;0.7163;0.9775;
358.8000;0.7147;0.9822;
359.1000;0.7179;0.9799;
359.4000;0.7163;0.9729;
359.7000;0.7179;0.9799;
360.0000;0.7155;0.9706;
360.3000;0.7171;0.9543;
360.6000;0.7147;0.9520;
360.9000;0.7147;0.9566;
361.2000;0.7098;0.9473;
361.5000;0.7212;0.9706;
361.8000;0.7155;0.9613;
362.1000;0.7171;0.9659;
362.4000;0.7163;0.9682;
362.7000;0.7155;0.9706;
363.0000;0.7139;0.9659;
363.3000;0.7261;0.9984;
363.6000;0.7188;0.9868;
363.9000;0.7155;0.9822;
364.2000;0.7114;0.9752;
364.5000;0.7204;0.9984;
364.8000;0.7123;0.9729;
365.1000;0.7171;0.9845;
365.4000;0.7049;0.9520;
365.7000;0.7155;0.9775;
366.0000;0.7261;1.0008;
366.3000;0.7220;0.9891;
366.6000;0.7163;0.9706;
366.9000;0.7123;0.9590;
367.2000;0.7139;0.9613;
367.5000;0.7163;0.9729;
367.8000;0.7147;0.9682;
368.1000;0.7188;0.9822;
368.4000;0.7147;0.9636;
368.7000;0.7155;0.9729;
369.0000;0.7123;0.9682;
369.3000;0.7163;0.9706;
369.6000;0.7163;0.9752;
369.9000;0.7163;0.9752;
370.2000;0.7171;0.9822;
370.5000;0.7171;0.9845;
370.8000;0.7147;0.9706;
371.1000;0.7179;0.9682;
371.4000;0.7171;0.9729;
371.7000;0.7074;0.9543;
372.0000;0.7155;0.9752;
372.3000;0.7163;0.9775;
372.6000;0.7179;0.9822;
372.9000;0.7155;0.9752;
373.2000;0.7155;0.9775;
373.5000;0.7147;0.9752;
373.8000;0.7163;0.9706;
374.1000;0.7245;0.9845;
374.4000;0.7163;0.9706;
374.7000;0.7171;0.9729;
375.0000;0.7155;0.9775;
375.3000;0.7139;0.9706;
375.6000;0.7163;0.9775;
375.9000;0.7147;0.9752;
376.2000;0.7171;0.9775;
376.5000;0.7147;0.9636;
376.8000;0.7179;0.9590;
377.1000;0.7155;0.9590;
377.4000;0.7131;0.9497;
377.7000;0.7171;0.9520;
378.0000;0.7171;0.9543;
378.3000;0.7139;0.9473;
378.6000;0.7163;0.9520;
378.9000;0.7123;0.9427;
379.2000;0.7147;0.9497;
379.5000;0.7106;0.9381;
379.8000;0.7147;0.9357;
380.1000;0.7147;0.9334;
380.4000;0.7163;0.9427;
380.7000;0.7155;0.9566;
381.0000;0.7139;0.9613;
381.3000;0.7196;0.9729;
381.6000;0.7155;0.9729;
381.9000;0.7131;0.9543;
382.2000;0.7139;0.9636;
382.5000;0.7171;0.9706;
382.8000;0.7155;0.9659;
383.1000;0.7155;0.9659;
383.4000;0.7163;0.9636;
383.7000;0.7147;0.9659;
384.0000;0.7171;0.9752;
384.3000;0.7155;0.9659;
384.6000;0.7131;0.9659;
384.9000;0.7139;0.9682;
385.2000;0.7123;0.9706;
385.5000;0.7123;0.9682;
385.8000;0.7139;0.9682;
386.1000;0.7179;0.9891;
386.4000;0.7155;0.9868;
386.7000;0.7147;0.9822;
387.0000;0.7163;0.9775;
387.3000;0.7171;0.9775;
387.6000;0.7082;0.9613;
387.9000;0.7147;0.9822;
388.2000;0.7163;0.9775;
388.5000;0.7147;0.9752;
388.8000;0.7114;0.9706;
389.1000;0.7147;0.9799;
389.4000;0.7155;0.9891;
389.7000;0.7147;0.9845;
390.0000;0.7123;0.9706;
390.3000;0.7188;0.9868;
390.6000;0.7155;0.9729;
390.9000;0.7147;0.9729;
391.2000;0.7147;0.9775;
391.5000;0.7171;0.9822;
391.8000;0.7147;0.9822;
392.1000;0.7155;0.9868;
392.4000;0.7147;0.9868;
392.7000;0.7098;0.9752;
393.0000;0.7163;0.9891;
393.3000;0.7188;0.9984;
393.6000;0.7155;0.9915;
393.9000;0.7155;0.9868;
394.2000;0.7163;0.9915;
394.5000;0.7171;1.0031;
394.8000;0.7179;1.0100;
395.1000;0.7163;1.0124;
395.4000;0.7179;1.0100;
395.7000;0.7131;1.0008;
396.0000;0.7163;1.0054;
396.3000;0.7163;1.0054;
396.6000;0.7179;1.0124;
396.9000;0.7179;1.0031;
397.2000;0.7171;0.9822;
397.5000;0.7163;0.9729;
397.8000;0.7171;0.9799;
398.1000;0.7163;0.9799;
398.4000;0.7171;0.9891;
398.7000;0.7139;0.9799;
399.0000;0.7155;0.9938;
399.3000;0.7163;0.9822;
399.6000;0.7155;0.9845;
399.9000;0.7171;0.9822;
400.2000;0.7163;0.9729;
400.5000;0.7171;0.9613;
400.8000;0.7163;0.9613;
401.1000;0.7171;0.9636;
401.4000;0.7171;0.9729;
401.7000;0.7163;0.9752;
402.0000;0.7163;0.9729;
402.3000;0.7171;0.9752;
402.6000;0.7163;0.9752;
402.9000;0.7131;0.9729;
403.2000;0.7163;0.9891;
403.5000;0.7228;1.0031;
403.8000;0.7066;0.9659;
404.1000;0.7139;0.9891;
404.4000;0.7179;0.9961;
404.7000;0.7147;0.9845;
405.0000;0.7131;0.9729;
405.3000;0.7131;0.9682;
405.6000;0.7139;0.9729;
405.9000;0.7220;0.9891;
406.2000;0.7139;0.9682;
406.5000;0.7074;0.9636;
406.8000;0.7171;0.9845;
407.1000;0.7171;0.9891;
407.4000;0.7139;0.9845;
407.7000;0.7155;0.9822;
408.0000;0.7155;0.9752;
408.3000;0.7171;0.9822;
408.6000;0.7155;0.9706;
408.9000;0.7155;0.9729;
409.2000;0.7147;0.9752;
409.5000;0.7131;0.9752;
409.8000;0.7147;0.9775;
410.1000;0.7147;0.9729;
410.4000;0.7147;0.9566;
410.7000;0.7188;0.9682;
411.0000;0.7163;0.9682;
411.3000;0.7188;0.9822;
411.6000;0.7155;0.9729;
411.9000;0.7163;0.9682;
412.2000;0.7155;0.9682;
412.5000;0.7155;0.9729;
412.8000;0.7139;0.9659;
413.1000;0.7139;0.9752;
413.4000;0.7179;0.9799;
413.7000;0.7139;0.9613;
414.0000;0.7139;0.9543;
414.3000;0.7155;0.9613;
414.6000;0.7025;0.9404;
414.9000;0.7147;0.9659;
415.2000;0.7163;0.9682;
415.5000;0.7139;0.9729;
415.8000;0.7171;0.9775;
416.1000;0.7147;0.9729;
416.4000;0.7163;0.9752;
416.7000;0.7114;0.9706;
417.0000;0.7163;0.9706;
417.3000;0.7179;0.9752;
417.6000;0.7147;0.9752;
417.9000;0.7163;0.9868;
418.2000;0.7155;0.9775;
418.5000;0.7147;0.9752;
418.8000;0.7179;0.9752;
419.1000;0.7228;0.9915;
419.4000;0.7139;0.9706;
419.7000;0.7147;0.9729;
420.0000;0.7179;0.9822;
420.3000;0.7155;0.9799;
420.6000;0.7139;0.9706;
420.9000;0.7139;0.9636;
421.2000;0.7155;0.9566;
421.5000;0.7155;0.9520;
421.8000;0.7179;0.9566;
422.1000;0.7155;0.9473;
422.4000;0.7139;0.9473;
422.7000;0.7269;0.9682;
423.0000;0.7147;0.9265;
423.3000;0.7163;0.9334;
423.6000;0.7196;0.9543;
423.9000;0.7147;0.9450;
424.2000;0.7147;0.9520;
424.5000;0.7171;0.9590;
424.8000;0.7082;0.9334;
425.1000;0.7155;0.9566;
425.4000;0.7106;0.9473;
425.7000;0.7212;0.9752;
426.0000;0.7147;0.9659;
426.3000;0.7131;0.9659;
426.6000;0.7155;0.9729;
426.9000;0.7155;0.9659;
427.2000;0.7155;0.9520;
427.5000;0.7171;0.9427;
427.8000;0.7147;0.9450;
428.1000;0.7147;0.9357;
428.4000;0.7131;0.9334;
428.7000;0.7147;0.9473;
429.0000;0.7155;0.9450;
429.3000;0.7163;0.9473;
429.6000;0.7147;0.9590;
429.9000;0.7147;0.9613;
430.2000;0.7155;0.9613;
430.5000;0.7098;0.9497;
430.8000;0.7139;0.9543;
431.1000;0.7171;0.9543;
431.4000;0.7147;0.9497;
431.7000;0.7163;0.9543;
432.0000;0.7196;0.9566;
432.3000;0.7155;0.9427;
432.6000;0.7155;0.9357;
432.9000;0.7155;0.9381;
433.2000;0.7179;0.9520;
433.5000;0.7131;0.9520;
433.8000;0.7163;0.9659;
434.1000;0.7147;0.9752;
434.4000;0.7131;0.9659;
434.7000;0.7123;0.9682;
435.0000;0.7155;0.9752;
435.3000;0.7139;0.9706;
435.6000;0.7155;0.9613;
435.9000;0.7131;0.9427;
436.2000;0.7179;0.9543;
436.5000;0.7163;0.9520;
436.8000;0.7139;0.9543;
437.1000;0.7155;0.9566;
437.4000;0.7155;0.9590;
437.7000;0.7163;0.9590;
438.0000;0.7163;0.9543;
438.3000;0.7139;0.9590;
438.6000;0.7131;0.9659;
438.9000;0.7171;0.9799;
439.2000;0.7155;0.9729;
439.5000;0.7147;0.9775;
439.8000;0.7131;0.9775;
440.1000;0.7155;0.9822;
440.4000;0.7139;0.9822;
440.7000;0.7171;0.9799;
441.0000;0.7139;0.9613;
441.3000;0.7147;0.9636;
441.6000;0.7196;0.9729;
441.9000;0.7155;0.9636;
442.2000;0.7163;0.9590;
442.5000;0.7163;0.9566;
442.8000;0.7155;0.9543;
443.1000;0.7155;0.9543;
443.4000;0.7155;0.9590;
443.7000;0.7131;0.9520;
444.0000;0.7147;0.9450;
444.3000;0.7147;0.9497;
444.6000;0.7163;0.9590;
444.9000;0.7147;0.9450;
445.2000;0.7147;0.9543;
445.5000;0.7147;0.9520;
445.8000;0.7163;0.9543;
446.1000;0.7139;0.9566;
446.4000;0.7147;0.9543;
446.7000;0.7196;0.9659;
447.0000;0.7171;0.9613;
447.3000;0.7155;0.9613;
447.6000;0.7147;0.9566;
447.9000;0.7155;0.9590;
448.2000;0.7131;0.9497;
448.5000;0.7155;0.9520;
448.8000;0.7147;0.9520;
449.1000;0.7171;0.9473;
449.4000;0.7171;0.9404;
449.7000;0.7155;0.9427;
450.0000;0.7155;0.9473;
450.3000;0.7188;0.9590;
450.6000;0.7147;0.9473;
450.9000;0.7163;0.9520;
451.2000;0.7188;0.9520;
451.5000;0.7155;0.9404;
451.8000;0.7171;0.9543;
452.1000;0.7155;0.9520;
452.4000;0.7131;0.9450;
452.7000;0.7147;0.9520;
453.0000;0.7155;0.9543;
453.3000;0.7147;0.9520;
453.6000;0.7171;0.9636;
453.9000;0.7147;0.9566;
454.2000;0.7139;0.9613;
454.5000;0.7155;0.9659;
454.8000;0.7147;0.9497;
455.1000;0.7188;0.9473;
455.4000;0.7163;0.9427;
455.7000;0.7131;0.9427;
456.0000;0.7155;0.9497;
456.3000;0.7090;0.9404;
456.6000;0.7212;0.9520;
456.9000;0.7155;0.9404;
457.2000;0.7155;0.9334;
457.5000;0.7220;0.9520;
457.8000;0.7155;0.9427;
458.1000;0.7188;0.9450;
458.4000;0.7155;0.9381;
458.7000;0.7139;0.9357;
459.0000;0.7147;0.9381;
459.3000;0.7106;0.9265;
459.6000;0.7131;0.9357;
459.9000;0.7163;0.9427;
460.2000;0.7139;0.9357;
460.5000;0.7155;0.9497;
460.8000;0.7131;0.9450;
461.1000;0.7220;0.9590;
461.4000;0.7155;0.9473;
461.7000;0.7155;0.9590;
462.0000;0.7171;0.9682;
462.3000;0.7163;0.9706;
462.6000;0.7155;0.9729;
462.9000;0.7171;0.9799;
463.2000;0.7163;0.9729;
463.5000;0.7131;0.9590;
463.8000;0.7114;0.9543;
464.1000;0.7163;0.9566;
464.4000;0.7163;0.9613;
464.7000;0.7179;0.9566;
465.0000;0.7163;0.9497;
465.3000;0.7155;0.9450;
465.6000;0.7155;0.9473;
465.9000;0.7171;0.9497;
466.2000;0.7147;0.9427;
466.5000;0.7147;0.9473;
466.8000;0.7147;0.9427;
467.1000;0.7155;0.9334;
467.4000;0.7163;0.9450;
467.7000;0.7212;0.9590;
468.0000;0.7155;0.9543;
468.3000;0.7171;0.9543;
468.6000;0.7171;0.9566;
468.9000;0.7179;0.9613;
469.2000;0.7163;0.9636;
469.5000;0.7147;0.9590;
469.8000;0.7147;0.9590;
470.1000;0.7139;0.9566;
470.4000;0.7147;0.9613;
470.7000;0.7041;0.9357;
471.0000;0.7139;0.9566;
471.3000;0.7155;0.9520;
471.6000;0.7131;0.9497;
471.9000;0.7139;0.9590;
472.2000;0.7147;0.9590;
472.5000;0.7131;0.9473;
472.8000;0.7114;0.9450;
473.1000;0.7188;0.9543;
473.4000;0.7163;0.9497;
473.7000;0.7155;0.9543;
474.0000;0.7155;0.9473;
474.3000;0.7228;0.9682;
474.6000;0.7123;0.9590;
474.9000;0.7179;0.9682;
475.2000;0.7171;0.9613;
475.5000;0.7147;0.9543;
475.8000;0.7155;0.9613;
476.1000;0.7139;0.9590;
476.4000;0.7163;0.9636;
476.7000;0.7147;0.9543;
477.0000;0.7139;0.9520;
477.3000;0.7155;0.9590;
477.6000;0.7155;0.9590;
477.9000;0.7155;0.9636;
478.2000;0.7090;0.9520;
478.5000;0.7293;1.0008;
478.8000;0.7147;0.9636;
479.1000;0.7228;0.9729;
479.4000;0.7131;0.9613;
479.7000;0.7277;0.9984;
480.0000;0.7155;0.9659;
480.3000;0.7204;0.9799;
480.6000;0.7179;0.9822;
480.9000;0.7163;0.9822;
481.2000;0.7139;0.9775;
481.5000;0.7074;0.9775;
481.8000;0.7131;0.9775;
482.1000;0.7139;0.9799;
482.4000;0.7147;0.9822;
482.7000;0.7163;0.9822;
483.0000;0.7147;0.9636;
483.3000;0.7147;0.9636;
483.6000;0.7090;0.9497;
483.9000;0.7049;0.9381;
484.2000;0.7139;0.9520;
484.5000;0.7131;0.9543;
484.8000;0.7155;0.9613;
485.1000;0.7179;0.9636;
485.4000;0.7155;0.9613;
485.7000;0.7123;0.9543;
486.0000;0.7131;0.9543;
486.3000;0.7147;0.9613;
486.6000;0.7090;0.9497;
486.9000;0.7131;0.9590;
487.2000;0.7147;0.9543;
487.5000;0.7106;0.9497;
487.8000;0.7155;0.9566;
488.1000;0.7163;0.9590;
488.4000;0.7171;0.9613;
488.7000;0.7163;0.9543;
489.0000;0.7163;0.9590;
489.3000;0.7179;0.9613;
489.6000;0.7082;0.9381;
489.9000;0.7147;0.9566;
490.2000;0.7147;0.9427;
490.5000;0.7155;0.9450;
490.8000;0.7204;0.9613;
491.1000;0.7155;0.9566;
491.4000;0.7147;0.9566;
491.7000;0.7139;0.9473;
492.0000;0.7139;0.9473;
492.3000;0.7228;0.9543;
492.6000;0.7155;0.9404;
492.9000;0.7163;0.9473;
493.2000;0.7123;0.9450;
493.5000;0.7212;0.9543;
493.8000;0.7171;0.9473;
494.1000;0.7171;0.9357;
494.4000;0.7204;0.9497;
494.7000;0.7188;0.9566;
495.0000;0.7147;0.9450;
495.3000;0.7098;0.9357;
495.6000;0.7139;0.9566;
495.9000;0.7098;0.9520;
496.2000;0.7131;0.9497;
496.5000;0.7212;0.9659;
496.8000;0.7147;0.9497;
497.1000;0.7131;0.9520;
497.4000;0.7163;0.9659;
497.7000;0.7106;0.9659;
498.0000;0.7131;0.9799;
498.3000;0.7155;0.9799;
498.6000;0.7106;0.9636;
498.9000;0.7179;0.9775;
499.2000;0.7139;0.9706;
499.5000;0.7204;0.9799;
499.8000;0.7123;0.9636;
500.1000;0.7123;0.9613;
500.4000;0.7106;0.9520;
500.7000;0.7171;0.9636;
501.0000;0.7139;0.9520;
501.3000;0.7179;0.9613;
501.6000;0.7155;0.9636;
501.9000;0.7139;0.9590;
502.2000;0.7179;0.9659;
502.5000;0.7131;0.9590;
502.8000;0.7188;0.9659;
503.1000;0.7147;0.9566;
503.4000;0.7188;0.9659;
503.7000;0.7131;0.9427;
504.0000;0.7163;0.9497;
504.3000;0.7163;0.9520;
504.6000;0.7139;0.9381;
504.9000;0.7163;0.9473;
505.2000;0.7179;0.9497;
505.5000;0.7049;0.9241;
505.8000;0.7139;0.9497;
506.1000;0.7139;0.9520;
506.4000;0.7147;0.9566;
506.7000;0.7147;0.9636;
507.0000;0.7163;0.9706;
507.3000;0.7147;0.9682;
507.6000;0.7147;0.9752;
507.9000;0.7139;0.9613;
508.2000;0.7163;0.9566;
508.5000;0.7131;0.9543;
508.8000;0.7123;0.9497;
509.1000;0.7139;0.9450;
509.4000;0.7163;0.9566;
509.7000;0.7155;0.9636;
510.0000;0.7131;0.9636;
510.3000;0.7147;0.9636;
510.6000;0.7204;0.9752;
510.9000;0.7139;0.9613;
511.2000;0.7139;0.9520;
511.5000;0.7171;0.9590;
511.8000;0.7139;0.9566;
512.1000;0.7114;0.9613;
512.4000;0.7131;0.9729;
512.7000;0.7139;0.9659;
513.0000;0.7147;0.9590;
513.3000;0.7131;0.9520;
513.6000;0.7106;0.9520;
513.9000;0.7074;0.9404;
514.2000;0.7114;0.9473;
514.5000;0.7147;0.9497;
514.8000;0.7139;0.9520;
515.1000;0.7139;0.9497;
515.4000;0.7131;0.9450;
515.7000;0.7114;0.9334;
516.0000;0.7139;0.9473;
516.3000;0.7123;0.9473;
516.6000;0.7155;0.9590;
516.9000;0.7147;0.9543;
517.2000;0.7139;0.9590;
517.5000;0.7139;0.9590;
517.8000;0.7131;0.9613;
518.1000;0.7139;0.9566;
518.4000;0.7171;0.9613;
518.7000;0.7147;0.9636;
519.0000;0.7139;0.9543;
519.3000;0.7139;0.9590;
519.6000;0.7147;0.9613;
519.9000;0.7171;0.9613;
520.2000;0.7139;0.9497;
520.5000;0.7131;0.9566;
520.8000;0.7139;0.9636;
521.1000;0.7147;0.9729;
521.4000;0.7171;0.9752;
521.7000;0.7123;0.9636;
522.0000;0.7147;0.9566;
522.3000;0.7131;0.9543;
522.6000;0.7155;0.9497;
522.9000;0.7188;0.9566;
523.2000;0.7114;0.9473;
523.5000;0.7139;0.9590;
523.8000;0.7139;0.9543;
524.1000;0.7163;0.9659;
524.4000;0.7212;0.9775;
524.7000;0.7131;0.9566;
525.0000;0.7139;0.9659;
525.3000;0.7155;0.9752;
525.6000;0.7131;0.9682;
525.9000;0.7155;0.9729;
526.2000;0.7147;0.9752;
526.5000;0.7123;0.9590;
526.8000;0.7106;0.9566;
527.1000;0.7033;0.9357;
527.4000;0.7114;0.9636;
527.7000;0.7131;0.9682;
528.0000;0.7131;0.9706;
528.3000;0.7139;0.9659;
528.6000;0.7139;0.9497;
528.9000;0.7155;0.9613;
529.2000;0.7139;0.9636;
529.5000;0.7155;0.9659;
529.8000;0.7147;0.9520;
530.1000;0.7163;0.9543;
530.4000;0.7163;0.9543;
530.7000;0.7155;0.9613;
531.0000;0.7139;0.9613;
531.3000;0.7163;0.9636;
531.6000;0.7131;0.9520;
531.9000;0.7131;0.9497;
532.2000;0.7131;0.9520;
532.5000;0.7139;0.9520;
532.8000;0.7114;0.9566;
533.1000;0.7131;0.9590;
533.4000;0.7123;0.9613;
533.7000;0.7155;0.9590;
534.0000;0.7155;0.9543;
534.3000;0.7139;0.9473;
534.6000;0.7155;0.9613;
534.9000;0.7269;0.9868;
535.2000;0.7155;0.9682;
535.5000;0.7139;0.9682;
535.8000;0.7147;0.9799;
536.1000;0.7155;0.9845;
536.4000;0.7131;0.9682;
536.7000;0.7139;0.9682;
537.0000;0.7139;0.9752;
537.3000;0.7147;0.9729;
537.6000;0.7139;0.9682;
537.9000;0.7155;0.9868;
538.2000;0.7139;0.9822;
538.5000;0.7147;0.9822;
538.8000;0.7163;0.9938;
539.1000;0.7131;0.9729;
539.4000;0.7277;1.0031;
539.7000;0.7163;0.9752;
540.0000;0.7147;0.9659;
540.3000;0.7155;0.9636;
540.6000;0.7139;0.9543;
540.9000;0.7147;0.9566;
541.2000;0.7131;0.9636;
541.5000;0.7066;0.9497;
541.8000;0.7139;0.9636;
542.1000;0.7131;0.9636;
542.4000;0.7131;0.9590;
542.7000;0.7131;0.9590;
543.0000;0.7139;0.9613;
543.3000;0.7139;0.9682;
543.6000;0.7114;0.9613;
543.9000;0.7139;0.9659;
544.2000;0.7196;0.9590;
544.5000;0.7106;0.9427;
544.8000;0.7139;0.9543;
545.1000;0.7074;0.9427;
545.4000;0.7139;0.9659;
545.7000;0.7114;0.9613;
546.0000;0.7139;0.9590;
546.3000;0.7139;0.9566;
546.6000;0.7163;0.9613;
546.9000;0.7139;0.9566;
547.2000;0.7131;0.9427;
547.5000;0.7139;0.9473;
547.8000;0.7147;0.9543;
548.1000;0.7114;0.9566;
548.4000;0.7114;0.9590;
548.7000;0.7147;0.9613;
549.0000;0.7155;0.9682;
549.3000;0.7253;0.9915;
549.6000;0.7114;0.9520;
549.9000;0.7155;0.9636;
550.2000;0.7155;0.9566;
550.5000;0.7147;0.9613;
550.8000;0.7139;0.9613;
551.1000;0.7114;0.9497;
551.4000;0.7131;0.9566;
551.7000;0.7171;0.9706;
552.0000;0.7139;0.9543;
552.3000;0.7155;0.9613;
552.6000;0.7139;0.9659;
552.9000;0.7139;0.9636;
553.2000;0.7155;0.9590;
553.5000;0.7139;0.9450;
553.8000;0.7131;0.9566;
554.1000;0.7147;0.9682;
554.4000;0.7147;0.9706;
554.7000;0.7212;0.9915;
555.0000;0.7155;0.9752;
555.3000;0.7147;0.9845;
555.6000;0.7171;0.9891;
555.9000;0.7139;0.9822;
556.2000;0.7147;0.9868;
556.5000;0.7155;0.9845;
556.8000;0.7098;0.9775;
557.1000;0.7131;0.9799;
557.4000;0.7114;0.9752;
557.7000;0.7131;0.9799;
558.0000;0.7196;0.9891;
558.3000;0.7139;0.9799;
558.6000;0.7139;0.9891;
558.9000;0.7147;0.9799;
559.2000;0.7155;0.9775;
559.5000;0.7163;0.9822;
559.8000;0.7147;0.9729;
560.1000;0.7147;0.9729;
560.4000;0.7131;0.9682;
560.7000;0.7082;0.9590;
561.0000;0.7139;0.9822;
561.3000;0.7090;0.9590;
561.6000;0.7123;0.9682;
561.9000;0.7147;0.9636;
562.2000;0.7139;0.9590;
562.5000;0.7131;0.9520;
562.8000;0.7098;0.9450;
563.1000;0.7131;0.9566;
563.4000;0.7131;0.9497;
563.7000;0.7147;0.9497;
564.0000;0.7139;0.9404;
564.3000;0.7163;0.9427;
564.6000;0.7147;0.9450;
564.9000;0.7147;0.9404;
565.2000;0.7139;0.9450;
565.5000;0.7123;0.9404;
565.8000;0.7155;0.9473;
566.1000;0.7155;0.9473;
566.4000;0.7139;0.9427;
566.7000;0.7139;0.9404;
567.0000;0.7155;0.9473;
567.3000;0.7147;0.9566;
567.6000;0.7139;0.9590;
567.9000;0.7139;0.9636;
568.2000;0.7163;0.9706;
568.5000;0.7106;0.9613;
568.8000;0.7131;0.9729;
569.1000;0.7147;0.9752;
569.4000;0.7163;0.9682;
569.7000;0.7147;0.9613;
570.0000;0.7139;0.9590;
570.3000;0.7179;0.9706;
570.6000;0.7171;0.9590;
570.9000;0.7147;0.9520;
571.2000;0.7171;0.9590;
571.5000;0.7139;0.9566;
571.8000;0.7155;0.9520;
572.1000;0.7147;0.9473;
572.4000;0.7123;0.9473;
572.7000;0.7139;0.9566;
573.0000;0.7147;0.9543;
573.3000;0.7163;0.9590;
573.6000;0.7139;0.9473;
573.9000;0.7131;0.9497;
574.2000;0.7139;0.9404;
574.5000;0.7139;0.9450;
574.8000;0.7163;0.9566;
575.1000;0.7131;0.9404;
575.4000;0.7123;0.9381;
575.7000;0.7131;0.9404;
576.0000;0.7163;0.9473;
576.3000;0.7131;0.9404;
576.6000;0.7098;0.9311;
576.9000;0.7123;0.9404;
577.2000;0.7139;0.9404;
577.5000;0.7139;0.9288;
577.8000;0.7155;0.9311;
578.1000;0.7163;0.9404;
578.4000;0.7139;0.9427;
578.7000;0.7139;0.9473;
579.0000;0.7155;0.9636;
579.3000;0.7155;0.9682;
579.6000;0.7123;0.9613;
579.9000;0.7147;0.9682;
580.2000;0.7131;0.9682;
580.5000;0.7114;0.9682;
580.8000;0.7131;0.9752;
581.1000;0.7114;0.9752;
581.4000;0.7131;0.9845;
581.7000;0.7114;0.9845;
582.0000;0.7139;0.9938;
582.3000;0.7131;0.9891;
582.6000;0.7139;0.9845;
582.9000;0.7131;0.9775;
583.2000;0.7147;0.9799;
583.5000;0.7123;0.9752;
583.8000;0.7155;0.9706;
584.1000;0.7131;0.9636;
584.4000;0.7114;0.9566;
584.7000;0.7057;0.9473;
585.0000;0.7106;0.9659;
585.3000;0.7123;0.9682;
585.6000;0.7114;0.9682;
585.9000;0.7033;0.9497;
586.2000;0.7123;0.9799;
586.5000;0.7139;0.9822;
586.8000;0.7131;0.9752;
587.1000;0.7114;0.9613;
587.4000;0.7106;0.9613;
587.7000;0.7114;0.9729;
588.0000;0.7106;0.9752;
588.3000;0.7074;0.9636;
588.6000;0.7131;0.9752;
588.9000;0.7131;0.9682;
589.2000;0.7147;0.9706;
589.5000;0.7123;0.9613;
589.8000;0.7147;0.9613;
590.1000;0.7106;0.9613;
590.4000;0.7131;0.9613;
590.7000;0.7131;0.9613;
591.0000;0.7147;0.9659;
591.3000;0.7139;0.9636;
591.6000;0.7155;0.9729;
591.9000;0.7139;0.9659;
592.2000;0.7171;0.9706;
592.5000;0.7196;0.9752;
592.8000;0.7163;0.9659;
593.1000;0.7131;0.9613;
593.4000;0.7139;0.9590;
593.7000;0.7155;0.9566;
594.0000;0.7163;0.9613;
594.3000;0.7171;0.9613;
594.6000;0.7131;0.9613;
594.9000;0.7155;0.9613;
595.2000;0.7245;0.9891;
595.5000;0.7106;0.9682;
595.8000;0.7131;0.9706;
596.1000;0.7155;0.9845;
596.4000;0.7074;0.9636;
596.7000;0.7131;0.9752;
597.0000;0.7139;0.9752;
597.3000;0.7171;0.9868;
597.6000;0.7139;0.9729;
597.9000;0.7139;0.9729;
598.2000;0.7123;0.9636;
598.5000;0.7139;0.9659;
598.8000;0.7139;0.9659;
599.1000;0.7139;0.9682;
599.4000;0.7131;0.9636;
599.7000;0.7131;0.9613;
600.0000;0.7114;0.9566;
600.3000;0.7155;0.9543;
600.6000;0.7155;0.9520;
600.9000;0.7155;0.9473;
601.2000;0.7114;0.9404;
601.5000;0.7090;0.9311;
601.8000;0.7049;0.9148;
602.1000;0.7017;0.8986;
602.4000;0.6976;0.8870;
602.7000;0.6992;0.8800;
603.0000;0.6919;0.8614;
603.3000;0.6878;0.8452;
603.6000;0.6854;0.8498;
603.9000;0.6821;0.8429;
604.2000;0.6732;0.8243;
604.5000;0.6740;0.8266;
604.8000;0.6699;0.8173;
605.1000;0.6675;0.8266;
605.4000;0.6642;0.8173;
605.7000;0.6634;0.8266;
606.0000;0.6577;0.8080;
606.3000;0.6577;0.8034;
606.6000;0.6585;0.8011;
606.9000;0.6528;0.7871;
607.2000;0.6504;0.7871;
607.5000;0.6463;0.7732;
607.8000;0.6463;0.7686;
608.1000;0.6455;0.7709;
608.4000;0.6439;0.7825;
608.7000;0.6504;0.8127;
609.0000;0.6422;0.7848;
609.3000;0.6382;0.7755;
609.6000;0.6357;0.7639;
609.9000;0.6349;0.7570;
610.2000;0.6309;0.7523;
610.5000;0.6243;0.7384;
610.8000;0.6252;0.7453;
611.1000;0.6235;0.7477;
611.4000;0.6227;0.7523;
611.7000;0.6268;0.7662;
612.0000;0.6211;0.7593;
612.3000;0.6219;0.7662;
612.6000;0.6178;0.7639;
612.9000;0.6146;0.7570;
613.2000;0.6178;0.7686;
613.5000;0.6129;0.7593;
613.8000;0.6235;0.7755;
614.1000;0.6129;0.7500;
614.4000;0.6113;0.7453;
614.7000;0.6121;0.7477;
615.0000;0.6064;0.7384;
615.3000;0.6097;0.7500;
615.6000;0.5999;0.7221;
615.9000;0.6097;0.7570;
616.2000;0.6081;0.7477;
616.5000;0.6024;0.7361;
616.8000;0.6007;0.7361;
617.1000;0.5999;0.7291;
617.4000;0.5975;0.7221;
617.7000;0.5999;0.7291;
618.0000;0.5958;0.7337;
618.3000;0.5975;0.7314;
618.6000;0.5893;0.7175;
618.9000;0.5950;0.7244;
619.2000;0.5975;0.7337;
619.5000;0.5942;0.7291;
619.8000;0.5926;0.7221;
620.1000;0.5910;0.7175;
620.4000;0.5869;0.7035;
620.7000;0.5885;0.7175;
621.0000;0.5877;0.7244;
621.3000;0.5869;0.7314;
621.6000;0.5869;0.7268;
621.9000;0.5853;0.7268;
622.2000;0.5853;0.7430;
622.5000;0.5853;0.7453;
622.8000;0.5820;0.7291;
623.1000;0.5836;0.7291;
623.4000;0.5820;0.7268;
623.7000;0.5836;0.7244;
624.0000;0.5820;0.7198;
624.3000;0.5804;0.7244;
624.6000;0.5796;0.7175;
624.9000;0.5804;0.7244;
625.2000;0.5763;0.7175;
625.5000;0.5779;0.7453;
625.8000;0.5731;0.7361;
626.1000;0.5747;0.7361;
626.4000;0.5722;0.7244;
626.7000;0.5739;0.7314;
627.0000;0.5763;0.7337;
627.3000;0.5739;0.7268;
627.6000;0.5747;0.7291;
627.9000;0.5706;0.7244;
628.2000;0.5690;0.7244;
628.5000;0.5714;0.7384;
628.8000;0.5739;0.7477;
629.1000;0.5682;0.7337;
629.4000;0.5674;0.7361;
629.7000;0.5625;0.7198;
630.0000;0.5617;0.7268;
630.3000;0.5641;0.7198;
630.6000;0.5674;0.7314;
630.9000;0.5649;0.7244;
631.2000;0.5641;0.7221;
631.5000;0.5657;0.7244;
631.8000;0.5641;0.7221;
632.1000;0.5625;0.7175;
632.4000;0.5600;0.7221;
632.7000;0.5608;0.7198;
633.0000;0.5584;0.7059;
633.3000;0.5600;0.7082;
633.6000;0.5608;0.7152;
633.9000;0.5633;0.7152;
634.2000;0.5584;0.7035;
634.5000;0.5625;0.7221;
634.8000;0.5527;0.7128;
635.1000;0.5568;0.7361;
635.4000;0.5560;0.7384;
635.7000;0.5584;0.7453;
636.0000;0.5535;0.7384;
636.3000;0.5527;0.7361;
636.6000;0.5495;0.7244;
636.9000;0.5568;0.7337;
637.2000;0.5543;0.7268;
637.5000;0.5543;0.7314;
637.8000;0.5527;0.7198;
638.1000;0.5527;0.7152;
638.4000;0.5535;0.7268;
638.7000;0.5551;0.7337;
639.0000;0.5519;0.7291;
639.3000;0.5527;0.7221;
639.6000;0.5503;0.7221;
639.9000;0.5511;0.7198;
640.2000;0.5511;0.7198;
640.5000;0.5503;0.7221;
640.8000;0.5462;0.7152;
641.1000;0.5478;0.7175;
641.4000;0.5478;0.7128;
641.7000;0.5438;0.7082;
642.0000;0.5470;0.7082;
642.3000;0.5462;0.7059;
642.6000;0.5527;0.7268;
642.9000;0.5438;0.7059;
643.2000;0.5462;0.7105;
643.5000;0.5462;0.7268;
643.8000;0.5470;0.7337;
644.1000;0.5413;0.7291;
644.4000;0.5438;0.7314;
644.7000;0.5470;0.7384;
645.0000;0.5454;0.7268;
645.3000;0.5429;0.7221;
645.6000;0.5364;0.7012;
645.9000;0.5413;0.7244;
646.2000;0.5429;0.7291;
646.5000;0.5413;0.7291;
646.8000;0.5340;0.7175;
647.1000;0.5405;0.7198;
647.4000;0.5381;0.7175;
647.7000;0.5421;0.7244;
648.0000;0.5397;0.7152;
648.3000;0.5413;0.7105;
648.6000;0.5486;0.7314;
648.9000;0.5397;0.7175;
649.2000;0.5405;0.7221;
649.5000;0.5405;0.7175;
649.8000;0.5389;0.7082;
650.1000;0.5421;0.7128;
650.4000;0.5389;0.7059;
650.7000;0.5405;0.7082;
651.0000;0.5454;0.7082;
651.3000;0.5372;0.6989;
651.6000;0.5413;0.7128;
651.9000;0.5381;0.7035;
652.2000;0.5364;0.7082;
652.5000;0.5372;0.7175;
652.8000;0.5315;0.6989;
653.1000;0.5356;0.6989;
653.4000;0.5340;0.6919;
653.7000;0.5324;0.6919;
654.0000;0.5324;0.6943;
654.3000;0.5332;0.6989;
654.6000;0.5332;0.7082;
654.9000;0.5332;0.6989;
655.2000;0.5340;0.6919;
655.5000;0.5307;0.6943;
655.8000;0.5348;0.7059;
656.1000;0.5332;0.7152;
656.4000;0.5356;0.7268;
656.7000;0.5332;0.7221;
657.0000;0.5291;0.7152;
657.3000;0.5315;0.7128;
657.6000;0.5299;0.7082;
657.9000;0.5242;0.6919;
658.2000;0.5307;0.7059;
658.5000;0.5242;0.6989;
658.8000;0.5348;0.7291;
659.1000;0.5299;0.7198;
659.4000;0.5258;0.7035;
659.7000;0.5283;0.7128;
660.0000;0.5307;0.7128;
660.3000;0.5291;0.7198;
660.6000;0.5291;0.7244;
660.9000;0.5267;0.7175;
661.2000;0.5275;0.7291;
661.5000;0.5275;0.7337;
661.8000;0.5283;0.7291;
662.1000;0.5258;0.7361;
662.4000;0.5258;0.7268;
662.7000;0.5275;0.7268;
663.0000;0.5275;0.7175;
663.3000;0.5267;0.7128;
663.6000;0.5250;0.7105;
663.9000;0.5258;0.7198;
664.2000;0.5381;0.7546;
664.5000;0.5210;0.7082;
664.8000;0.5250;0.7244;
665.1000;0.5267;0.7291;
665.4000;0.5267;0.7337;
665.7000;0.5267;0.7291;
666.0000;0.5242;0.7361;
666.3000;0.5242;0.7453;
666.6000;0.5250;0.7407;
666.9000;0.5218;0.7361;
667.2000;0.5226;0.7361;
667.5000;0.5234;0.7361;
667.8000;0.5267;0.7361;
668.1000;0.5226;0.7175;
668.4000;0.5242;0.7198;
668.7000;0.5234;0.7221;
669.0000;0.5193;0.7128;
669.3000;0.5242;0.7314;
669.6000;0.5226;0.7314;
669.9000;0.5226;0.7268;
670.2000;0.5226;0.7244;
670.5000;0.5242;0.7291;
670.8000;0.5210;0.7198;
671.1000;0.5169;0.7175;
671.4000;0.5226;0.7361;
671.7000;0.5193;0.7291;
672.0000;0.5226;0.7314;
672.3000;0.5218;0.7244;
672.6000;0.5275;0.7407;
672.9000;0.5242;0.7407;
673.2000;0.5210;0.7407;
673.5000;0.5177;0.7430;
673.8000;0.5242;0.7709;
674.1000;0.5283;0.7825;
674.4000;0.5218;0.7709;
674.7000;0.5185;0.7593;
675.0000;0.5201;0.7639;
675.3000;0.5210;0.7570;
675.6000;0.5210;0.7570;
675.9000;0.5177;0.7523;
676.2000;0.5201;0.7593;
676.5000;0.5185;0.7616;
676.8000;0.5193;0.7662;
677.1000;0.5193;0.7616;
677.4000;0.5185;0.7523;
677.7000;0.5193;0.7500;
678.0000;0.5185;0.7477;
678.3000;0.5112;0.7314;
678.6000;0.5185;0.7453;
678.9000;0.5161;0.7430;
679.2000;0.5193;0.7430;
679.5000;0.5161;0.7453;
679.8000;0.5169;0.7430;
680.1000;0.5177;0.7430;
680.4000;0.5177;0.7384;
680.7000;0.5161;0.7384;
681.0000;0.5161;0.7244;
681.3000;0.5104;0.7082;
681.6000;0.5161;0.7244;
681.9000;0.5185;0.7175;
682.2000;0.5185;0.7221;
682.5000;0.5177;0.7384;
682.8000;0.5153;0.7384;
683.1000;0.5161;0.7430;
683.4000;0.5153;0.7314;
683.7000;0.5144;0.7361;
684.0000;0.5185;0.7477;
684.3000;0.5144;0.7384;
684.6000;0.5153;0.7384;
684.9000;0.5136;0.7384;
685.2000;0.5128;0.7384;
685.5000;0.5136;0.7477;
685.8000;0.5169;0.7453;
686.1000;0.5136;0.7268;
686.4000;0.5079;0.7268;
686.7000;0.5136;0.7314;
687.0000;0.5144;0.7361;
687.3000;0.5153;0.7291;
687.6000;0.5136;0.7337;
687.9000;0.5136;0.7430;
688.2000;0.5128;0.7500;
688.5000;0.5112;0.7430;
688.8000;0.5136;0.7546;
689.1000;0.5120;0.7546;
689.4000;0.5104;0.7523;
689.7000;0.5153;0.7500;
690.0000;0.5136;0.7453;
690.3000;0.5201;0.7500;
690.6000;0.5185;0.7453;
690.9000;0.5120;0.7291;
691.2000;0.5022;0.7059;
691.5000;0.5104;0.7314;
691.8000;0.5120;0.7314;
692.1000;0.5120;0.7314;
692.4000;0.5104;0.7268;
692.7000;0.5136;0.7314;
693.0000;0.5096;0.7105;
693.3000;0.5104;0.7221;
693.6000;0.5136;0.7407;
693.9000;0.5112;0.7384;
694.2000;0.5128;0.7407;
694.5000;0.5120;0.7453;
694.8000;0.5128;0.7546;
695.1000;0.5120;0.7523;
695.4000;0.5088;0.7430;
695.7000;0.5112;0.7430;
696.0000;0.5144;0.7430;
696.3000;0.5120;0.7314;
696.6000;0.5104;0.7128;
696.9000;0.5112;0.7221;
697.2000;0.5063;0.7105;
697.5000;0.5120;0.7314;
697.8000;0.5088;0.7314;
698.1000;0.5136;0.7453;
698.4000;0.5120;0.7337;
698.7000;0.5088;0.7244;
699.0000;0.5112;0.7268;
699.3000;0.5112;0.7268;
699.6000;0.5104;0.7361;
699.9000;0.5144;0.7384;
700.2000;0.5112;0.7268;
700.5000;0.5088;0.7244;
700.8000;0.5096;0.7244;
701.1000;0.5104;0.7291;
701.4000;0.5055;0.7175;
701.7000;0.5088;0.7291;
702.0000;0.5096;0.7453;
702.3000;0.5047;0.7337;
702.6000;0.5071;0.7384;
702.9000;0.5071;0.7268;
703.2000;0.5063;0.7291;
703.5000;0.5055;0.7244;
703.8000;0.5071;0.7384;
704.1000;0.5063;0.7407;
704.4000;0.5096;0.7453;
704.7000;0.5055;0.7268;
705.0000;0.5088;0.7361;
705.3000;0.5039;0.7221;
705.6000;0.5055;0.7244;
705.9000;0.5047;0.7128;
706.2000;0.5128;0.7244;
706.5000;0.5104;0.7268;
706.8000;0.5055;0.7244;
707.1000;0.5055;0.7244;
707.4000;0.5201;0.7616;
707.7000;0.5161;0.7546;
708.0000;0.5055;0.7314;
708.3000;0.5014;0.7175;
708.6000;0.5063;0.7291;
708.9000;0.5063;0.7244;
709.2000;0.5039;0.7314;
709.5000;0.5063;0.7430;
709.8000;0.5112;0.7570;
710.1000;0.5071;0.7430;
710.4000;0.5039;0.7384;
710.7000;0.5047;0.7477;
711.0000;0.5063;0.7477;
711.3000;0.5039;0.7407;
711.6000;0.5039;0.7361;
711.9000;0.5047;0.7337;
712.2000;0.5047;0.7291;
712.5000;0.5055;0.7337;
712.8000;0.5063;0.7337;
713.1000;0.5047;0.7244;
713.4000;0.5120;0.7361;
713.7000;0.5047;0.7175;
714.0000;0.5071;0.7221;
714.3000;0.5047;0.7198;
714.6000;0.5047;0.7244;
714.9000;0.5047;0.7152;
715.2000;0.5055;0.7221;
715.5000;0.5063;0.7268;
715.8000;0.5063;0.7314;
716.1000;0.5047;0.7221;
716.4000;0.5047;0.7152;
716.7000;0.5039;0.7082;
717.0000;0.5063;0.7152;
717.3000;0.5047;0.7082;
717.6000;0.5047;0.6989;
717.9000;0.5055;0.6989;
718.2000;0.4998;0.6943;
718.5000;0.5039;0.7082;
718.8000;0.5047;0.7059;
719.1000;0.5014;0.6966;
719.4000;0.5006;0.6966;
719.7000;0.5047;0.7128;
720.0000;0.5022;0.7128;
720.3000;0.5047;0.7082;
720.6000;0.5031;0.7152;
720.9000;0.5120;0.7384;
721.2000;0.5031;0.7175;
721.5000;0.5031;0.7175;
721.8000;0.5006;0.7105;
722.1000;0.5022;0.7152;
722.4000;0.5006;0.7198;
722.7000;0.5047;0.7291;
723.0000;0.5022;0.7221;
723.3000;0.5022;0.7175;
723.6000;0.5014;0.7198;
723.9000;0.4982;0.7105;
724.2000;0.5014;0.7291;
724.5000;0.5031;0.7337;
724.8000;0.4957;0.7198;
725.1000;0.5112;0.7523;
725.4000;0.5039;0.7268;
725.7000;0.4933;0.7035;
726.0000;0.4990;0.7175;
726.3000;0.5055;0.7221;
726.6000;0.5006;0.7128;
726.9000;0.4965;0.7059;
727.2000;0.4982;0.7105;
727.5000;0.5006;0.7128;
727.8000;0.5047;0.7291;
728.1000;0.5031;0.7221;
728.4000;0.5039;0.7198;
728.7000;0.5055;0.7244;
729.0000;0.5014;0.7221;
729.3000;0.4974;0.7128;
729.6000;0.5006;0.7198;
729.9000;0.4957;0.7105;
730.2000;0.5006;0.7244;
730.5000;0.4998;0.7268;
730.8000;0.5031;0.7384;
731.1000;0.5031;0.7384;
731.4000;0.5071;0.7477;
731.7000;0.5047;0.7453;
732.0000;0.5006;0.7291;
732.3000;0.5014;0.7268;
732.6000;0.5006;0.7268;
732.9000;0.4998;0.7314;
733.2000;0.5022;0.7268;
733.5000;0.4998;0.7244;
733.8000;0.4990;0.7198;
734.1000;0.5014;0.7268;
734.4000;0.4974;0.7128;
734.7000;0.5039;0.7314;
735.0000;0.5014;0.7198;
735.3000;0.4998;0.7244;
735.6000;0.5063;0.7453;
735.9000;0.5006;0.7314;
736.2000;0.4998;0.7337;
736.5000;0.5022;0.7384;
736.8000;0.5006;0.7314;
737.1000;0.5047;0.7384;
737.4000;0.5006;0.7314;
737.7000;0.5006;0.7221;
738.0000;0.4998;0.7152;
738.3000;0.5039;0.7291;
738.6000;0.4974;0.7105;
738.9000;0.5006;0.7082;
739.2000;0.5014;0.7059;
739.5000;0.4965;0.6919;
739.8000;0.4957;0.6896;
740.1000;0.5006;0.7012;
740.4000;0.4965;0.6966;
740.7000;0.4990;0.6803;
741.0000;0.5006;0.6850;
741.3000;0.4998;0.6850;
741.6000;0.5006;0.6943;
741.9000;0.5006;0.7035;
742.2000;0.5031;0.7082;
742.5000;0.5031;0.7198;
742.8000;0.4998;0.7152;
743.1000;0.4998;0.7128;
743.4000;0.4965;0.7105;
743.7000;0.4957;0.7082;
744.0000;0.4998;0.7244;
744.3000;0.4990;0.7128;
744.6000;0.4965;0.6919;
744.9000;0.4998;0.7012;
745.2000;0.5006;0.7082;
745.5000;0.4982;0.7035;
745.8000;0.4949;0.6780;
746.1000;0.4998;0.6896;
746.4000;0.4982;0.6919;
746.7000;0.4949;0.6896;
747.0000;0.4982;0.6943;
747.3000;0.4900;0.6850;
747.6000;0.4990;0.7105;
747.9000;0.4974;0.7059;
748.2000;0.5031;0.7244;
748.5000;0.4982;0.7198;
748.8000;0.4925;0.7059;
749.1000;0.4982;0.7221;
749.4000;0.4957;0.7128;
749.7000;0.4974;0.7152;
750.0000;0.5039;0.7268;
750.3000;0.5031;0.7175;
750.6000;0.4982;0.7128;
750.9000;0.5039;0.7337;
751.2000;0.4982;0.7175;
751.5000;0.4982;0.7198;
751.8000;0.4974;0.7268;
752.1000;0.4982;0.7361;
752.4000;0.4998;0.7407;
752.7000;0.4982;0.7430;
753.0000;0.4965;0.7407;
753.3000;0.4990;0.7384;
753.6000;0.4957;0.7268;
753.9000;0.4990;0.7291;
754.2000;0.4965;0.7268;
754.5000;0.4990;0.7291;
754.8000;0.4990;0.7337;
755.1000;0.4982;0.7361;
755.4000;0.4982;0.7314;
755.7000;0.4965;0.7314;
756.0000;0.4965;0.7268;
756.3000;0.4974;0.7268;
756.6000;0.4965;0.7244;
756.9000;0.4957;0.7337;
757.2000;0.4965;0.7361;
757.5000;0.4974;0.7361;
757.8000;0.4982;0.7361;
758.1000;0.4941;0.7384;
758.4000;0.4957;0.7407;
758.7000;0.4982;0.7477;
759.0000;0.4949;0.7314;
759.3000;0.4974;0.7314;
759.6000;0.4957;0.7268;
759.9000;0.4965;0.7244;
760.2000;0.4965;0.7337;
760.5000;0.4965;0.7291;
760.8000;0.4957;0.7244;
761.1000;0.4957;0.7291;
761.4000;0.4974;0.7291;
761.7000;0.4949;0.7244;
762.0000;0.4941;0.7291;
762.3000;0.4949;0.7361;
762.6000;0.4949;0.7384;
762.9000;0.4957;0.7384;
763.2000;0.4998;0.7407;
763.5000;0.4990;0.7384;
763.8000;0.4941;0.7337;
764.1000;0.4965;0.7430;
764.4000;0.4982;0.7337;
764.7000;0.5039;0.7453;
765.0000;0.4957;0.7337;
765.3000;0.4941;0.7361;
765.6000;0.4949;0.7337;
765.9000;0.4941;0.7337;
766.2000;0.4965;0.7361;
766.5000;0.4965;0.7384;
766.8000;0.4949;0.7268;
767.1000;0.4990;0.7361;
767.4000;0.4957;0.7314;
767.7000;0.4957;0.7314;
768.0000;0.4957;0.7430;
768.3000;0.4949;0.7453;
768.6000;0.4990;0.7430;
768.9000;0.4974;0.7384;
769.2000;0.4974;0.7337;
769.5000;0.4941;0.7244;
769.8000;0.4949;0.7152;
770.1000;0.4941;0.7082;
770.4000;0.4957;0.7128;
770.7000;0.4892;0.6966;
771.0000;0.4949;0.7059;
771.3000;0.4990;0.7244;
771.6000;0.4998;0.7314;
771.9000;0.4965;0.7337;
772.2000;0.4917;0.7152;
772.5000;0.4925;0.7221;
772.8000;0.5039;0.7593;
773.1000;0.5022;0.7500;
773.4000;0.4925;0.7291;
773.7000;0.4965;0.7314;
774.0000;0.4949;0.7198;
774.3000;0.4957;0.7407;
774.6000;0.4957;0.7453;
774.9000;0.4965;0.7453;
775.2000;0.4949;0.7477;
775.5000;0.4974;0.7523;
775.8000;0.4933;0.7523;
776.1000;0.4925;0.7570;
776.4000;0.4917;0.7477;
776.7000;0.4957;0.7616;
777.0000;0.4974;0.7686;
777.3000;0.5014;0.7709;
777.6000;0.4933;0.7430;
777.9000;0.4917;0.7407;
778.2000;0.4957;0.7523;
778.5000;0.4949;0.7477;
778.8000;0.4941;0.7361;
779.1000;0.4949;0.7407;
779.4000;0.5014;0.7500;
779.7000;0.4957;0.7430;
780.0000;0.4974;0.7407;
780.3000;0.4949;0.7361;
780.6000;0.4933;0.7361;
780.9000;0.5014;0.7570;
781.2000;0.4941;0.7453;
781.5000;0.4957;0.7430;
781.8000;0.4941;0.7546;
782.1000;0.4933;0.7523;
782.4000;0.4900;0.7361;
782.7000;0.5014;0.7570;
783.0000;0.4925;0.7523;
783.3000;0.4933;0.7453;
783.6000;0.4949;0.7500;
783.9000;0.4917;0.7477;
784.2000;0.4974;0.7570;
784.5000;0.5006;0.7616;
784.8000;0.4957;0.7384;
785.1000;0.4957;0.7453;
785.4000;0.4957;0.7361;
785.7000;0.4933;0.7291;
786.0000;0.4917;0.7291;
786.3000;0.4917;0.7337;
786.6000;0.4925;0.7337;
786.9000;0.4949;0.7361;
787.2000;0.4941;0.7314;
787.5000;0.4933;0.7407;
787.8000;0.4933;0.7291;
788.1000;0.4933;0.7291;
788.4000;0.4949;0.7314;
788.7000;0.4933;0.7314;
789.0000;0.4925;0.7244;
789.3000;0.4933;0.7198;
789.6000;0.4957;0.7198;
789.9000;0.4941;0.7128;
790.2000;0.4933;0.7128;
790.5000;0.4933;0.7152;
790.8000;0.4941;0.7175;
791.1000;0.4925;0.7337;
791.4000;0.4933;0.7337;
791.7000;0.4941;0.7314;
792.0000;0.4908;0.7268;
792.3000;0.4933;0.7268;
792.6000;0.4933;0.7268;
792.9000;0.4925;0.7244;
793.2000;0.4933;0.7244;
793.5000;0.4941;0.7175;
793.8000;0.4925;0.7128;
794.1000;0.4925;0.7152;
794.4000;0.4933;0.7128;
794.7000;0.4933;0.7082;
795.0000;0.4925;0.7198;
795.3000;0.4925;0.7291;
795.6000;0.4827;0.7128;
795.9000;0.4933;0.7268;
796.2000;0.4925;0.7244;
796.5000;0.4925;0.7314;
796.8000;0.4917;0.7268;
797.1000;0.4957;0.7407;
797.4000;0.4900;0.7291;
797.7000;0.4908;0.7198;
798.0000;0.4933;0.7244;
798.3000;0.4900;0.7175;
798.6000;0.4917;0.7152;
798.9000;0.4925;0.7152;
799.2000;0.4933;0.7059;
799.5000;0.4941;0.7059;
799.8000;0.4941;0.7152;
800.1000;0.4908;0.7105;
800.4000;0.4892;0.7035;
800.7000;0.4941;0.7105;
801.0000;0.5014;0.7361;
801.3000;0.4933;0.7105;
801.6000;0.4965;0.7175;
801.9000;0.4900;0.7128;
802.2000;0.4917;0.7152;
802.5000;0.4908;0.7059;
802.8000;0.4900;0.7128;
803.1000;0.4917;0.7198;
803.4000;0.4917;0.7152;
803.7000;0.4917;0.7198;
804.0000;0.4917;0.7198;
804.3000;0.4917;0.7175;
804.6000;0.4941;0.7244;
804.9000;0.4933;0.7221;
805.2000;0.4917;0.7198;
805.5000;0.4941;0.7221;
805.8000;0.4925;0.7314;
806.1000;0.4892;0.7244;
806.4000;0.4990;0.7523;
806.7000;0.4925;0.7407;
807.0000;0.4925;0.7407;
807.3000;0.4917;0.7361;
807.6000;0.4917;0.7361;
807.9000;0.4917;0.7384;
808.2000;0.4917;0.7337;
808.5000;0.4908;0.7198;
808.8000;0.4933;0.7453;
809.1000;0.4917;0.7361;
809.4000;0.4917;0.7361;
809.7000;0.4908;0.7337;
810.0000;0.4908;0.7314;
810.3000;0.4925;0.7361;
810.6000;0.4892;0.7268;
810.9000;0.5031;0.7570;
811.2000;0.4843;0.7152;
811.5000;0.4933;0.7523;
811.8000;0.4908;0.7453;
812.1000;0.4941;0.7500;
812.4000;0.4900;0.7500;
812.7000;0.4900;0.7546;
813.0000;0.4851;0.7337;
813.3000;0.4925;0.7430;
813.6000;0.4876;0.7384;
813.9000;0.4933;0.7453;
814.2000;0.4900;0.7407;
814.5000;0.4900;0.7430;
814.8000;0.4900;0.7453;
815.1000;0.4917;0.7453;
815.4000;0.4933;0.7523;
815.7000;0.4908;0.7662;
816.0000;0.4900;0.7477;
816.3000;0.4941;0.7430;
816.6000;0.4925;0.7384;
816.9000;0.4933;0.7430;
817.2000;0.4982;0.7500;
817.5000;0.4925;0.7337;
817.8000;0.4941;0.7384;
818.1000;0.4884;0.7314;
818.4000;0.4908;0.7337;
818.7000;0.4908;0.7361;
819.0000;0.4908;0.7337;
819.3000;0.4925;0.7430;
819.6000;0.4908;0.7407;
819.9000;0.4925;0.7407;
820.2000;0.4917;0.7500;
820.5000;0.4851;0.7314;
820.8000;0.4892;0.7430;
821.1000;0.4925;0.7477;
821.4000;0.5014;0.7593;
821.7000;0.4908;0.7384;
822.0000;0.4900;0.7314;
822.3000;0.4925;0.7361;
822.6000;0.4900;0.7384;
822.9000;0.4884;0.7314;
823.2000;0.4908;0.7314;
823.5000;0.4900;0.7291;
823.8000;0.4917;0.7314;
824.1000;0.4917;0.7407;
824.4000;0.4900;0.7384;
824.7000;0.4917;0.7453;
825.0000;0.4900;0.7430;
825.3000;0.4908;0.7500;
825.6000;0.4884;0.7407;
825.9000;0.4892;0.7407;
826.2000;0.4884;0.7384;
826.5000;0.4876;0.7384;
826.8000;0.4908;0.7361;
827.1000;0.4900;0.7291;
827.4000;0.4925;0.7268;
827.7000;0.4892;0.7221;
828.0000;0.4900;0.7221;
828.3000;0.4900;0.7244;
828.6000;0.4917;0.7337;
828.9000;0.4925;0.7314;
829.2000;0.4900;0.7268;
829.5000;0.4884;0.7221;
829.8000;0.4908;0.7221;
830.1000;0.4917;0.7337;
830.4000;0.4908;0.7361;
830.7000;0.4933;0.7361;
831.0000;0.4851;0.7059;
831.3000;0.4900;0.7175;
831.6000;0.4925;0.7314;
831.9000;0.4860;0.7244;
832.2000;0.4843;0.7198;
832.5000;0.4884;0.7268;
832.8000;0.4900;0.7430;
833.1000;0.4900;0.7430;
833.4000;0.4860;0.7337;
833.7000;0.4884;0.7361;
834.0000;0.4908;0.7361;
834.3000;0.4900;0.7361;
834.6000;0.4868;0.7198;
834.9000;0.4957;0.7291;
835.2000;0.4884;0.7198;
835.5000;0.4933;0.7337;
835.8000;0.4933;0.7291;
836.1000;0.4900;0.7291;
836.4000;0.4900;0.7291;
836.7000;0.4900;0.7221;
837.0000;0.4884;0.7198;
837.3000;0.4900;0.7337;
837.6000;0.4892;0.7244;
837.9000;0.4892;0.7175;
838.2000;0.4892;0.7175;
838.5000;0.4900;0.7244;
838.8000;0.4892;0.7314;
839.1000;0.4925;0.7337;
839.4000;0.4900;0.7152;
839.7000;0.4892;0.7221;
840.0000;0.4908;0.7361;
840.3000;0.4925;0.7430;
840.6000;0.4998;0.7732;
840.9000;0.4917;0.7686;
841.2000;0.4835;0.7500;
841.5000;0.4892;0.7570;
841.8000;0.4884;0.7546;
842.1000;0.4900;0.7639;
842.4000;0.4884;0.7570;
842.7000;0.4957;0.7639;
843.0000;0.4900;0.7430;
843.3000;0.4843;0.7291;
843.6000;0.4860;0.7430;
843.9000;0.4908;0.7546;
844.2000;0.4965;0.7686;
844.5000;0.5022;0.7755;
844.8000;0.4900;0.7453;
845.1000;0.4900;0.7384;
845.4000;0.4835;0.7244;
845.7000;0.4917;0.7361;
846.0000;0.4900;0.7337;
846.3000;0.4974;0.7500;
846.6000;0.4876;0.7314;
846.9000;0.4917;0.7314;
847.2000;0.4884;0.7337;
847.5000;0.4860;0.7291;
847.8000;0.4884;0.7384;
848.1000;0.4900;0.7453;
848.4000;0.4884;0.7384;
848.7000;0.4892;0.7384;
849.0000;0.4900;0.7453;
849.3000;0.4917;0.7430;
849.6000;0.4876;0.7430;
849.9000;0.4900;0.7500;
850.2000;0.4892;0.7500;
850.5000;0.4892;0.7430;
850.8000;0.4908;0.7407;
851.1000;0.4908;0.7337;
851.4000;0.4941;0.7384;
851.7000;0.4900;0.7361;
852.0000;0.4925;0.7477;
852.3000;0.4917;0.7523;
852.6000;0.4900;0.7477;
852.9000;0.4917;0.7523;
853.2000;0.4900;0.7500;
853.5000;0.4892;0.7430;
853.8000;0.4900;0.7407;
854.1000;0.4908;0.7430;
854.4000;0.4884;0.7361;
854.7000;0.4876;0.7384;
855.0000;0.4876;0.7430;
855.3000;0.4892;0.7523;
855.6000;0.4892;0.7453;
855.9000;0.4868;0.7407;
856.2000;0.4917;0.7477;
856.5000;0.4917;0.7523;
856.8000;0.4900;0.7453;
857.1000;0.4900;0.7430;
857.4000;0.4900;0.7361;
857.7000;0.4876;0.7314;
858.0000;0.4892;0.7314;
858.3000;0.4892;0.7291;
858.6000;0.4835;0.7175;
858.9000;0.4876;0.7314;
859.2000;0.4900;0.7337;
859.5000;0.4884;0.7337;
859.8000;0.4868;0.7268;
860.1000;0.4884;0.7291;
860.4000;0.4884;0.7361;
860.7000;0.4876;0.7523;
861.0000;0.4892;0.7616;
861.3000;0.4843;0.7453;
861.6000;0.4868;0.7500;
861.9000;0.4892;0.7523;
862.2000;0.4868;0.7523;
862.5000;0.4892;0.7477;
862.8000;0.4933;0.7546;
863.1000;0.4868;0.7361;
863.4000;0.4892;0.7477;
863.7000;0.4965;0.7732;
864.0000;0.4876;0.7523;
864.3000;0.4851;0.7407;
864.6000;0.4941;0.7686;
864.9000;0.4884;0.7500;
865.2000;0.4892;0.7593;
865.5000;0.4835;0.7523;
865.8000;0.4868;0.7593;
866.1000;0.4900;0.7523;
866.4000;0.4884;0.7453;
866.7000;0.4892;0.7291;
867.0000;0.4884;0.7198;
867.3000;0.4851;0.7128;
867.6000;0.4884;0.7175;
867.9000;0.4998;0.7500;
868.2000;0.4925;0.7198;
868.5000;0.4884;0.7082;
868.8000;0.4851;0.7082;
869.1000;0.4868;0.7105;
869.4000;0.4868;0.7082;
869.7000;0.4900;0.7152;
870.0000;0.4892;0.7198;
870.3000;0.4892;0.7198;
870.6000;0.4876;0.7105;
870.9000;0.4851;0.7105;
871.2000;0.4908;0.7337;
871.5000;0.4876;0.7268;
871.8000;0.4884;0.7244;
872.1000;0.4892;0.7268;
872.4000;0.4884;0.7244;
872.7000;0.4851;0.7221;
873.0000;0.4884;0.7291;
873.3000;0.4884;0.7291;
873.6000;0.4843;0.7105;
873.9000;0.4957;0.7430;
874.2000;0.4884;0.7244;
874.5000;0.4884;0.7198;
874.8000;0.4876;0.7337;
875.1000;0.4908;0.7407;
875.4000;0.4900;0.7407;
875.7000;0.4892;0.7407;
876.0000;0.4941;0.7662;
876.3000;0.4908;0.7593;
876.6000;0.4908;0.7500;
876.9000;0.4884;0.7407;
877.2000;0.4884;0.7453;
877.5000;0.4900;0.7384;
877.8000;0.4900;0.7430;
878.1000;0.4884;0.7384;
878.4000;0.4884;0.7430;
878.7000;0.4884;0.7500;
879.0000;0.4884;0.7477;
879.3000;0.4908;0.7500;
879.6000;0.4908;0.7477;
879.9000;0.4843;0.7291;
880.2000;0.4908;0.7361;
880.5000;0.4860;0.7175;
880.8000;0.4884;0.7244;
881.1000;0.4884;0.7314;
881.4000;0.4917;0.7500;
881.7000;0.4803;0.7337;
882.0000;0.4908;0.7523;
882.3000;0.4933;0.7523;
882.6000;0.4925;0.7546;
882.9000;0.4884;0.7430;
883.2000;0.4982;0.7639;
883.5000;0.4876;0.7407;
883.8000;0.4892;0.7453;
884.1000;0.4900;0.7546;
884.4000;0.4908;0.7546;
884.7000;0.4884;0.7523;
885.0000;0.4892;0.7523;
885.3000;0.4884;0.7361;
885.6000;0.4860;0.7244;
885.9000;0.4892;0.7337;
886.2000;0.4868;0.7244;
886.5000;0.4892;0.7268;
886.8000;0.4892;0.7291;
887.1000;0.4876;0.7244;
887.4000;0.4884;0.7291;
887.7000;0.4892;0.7384;
888.0000;0.4884;0.7361;
888.3000;0.4884;0.7407;
888.6000;0.4876;0.7453;
888.9000;0.4917;0.7523;
889.2000;0.4908;0.7523;
889.5000;0.4876;0.7361;
889.8000;0.4811;0.7244;
890.1000;0.4884;0.7477;
890.4000;0.4949;0.7593;
890.7000;0.4884;0.7384;
891.0000;0.4860;0.7314;
891.3000;0.4868;0.7291;
891.6000;0.4868;0.7384;
891.9000;0.4876;0.7314;
892.2000;0.4876;0.7314;
892.5000;0.4868;0.7291;
892.8000;0.4876;0.7314;
893.1000;0.4884;0.7384;
893.4000;0.4892;0.7430;
893.7000;0.4860;0.7361;
894.0000;0.4876;0.7453;
894.3000;0.4884;0.7546;
894.6000;0.4892;0.7616;
894.9000;0.4884;0.7500;
895.2000;0.4892;0.7546;
895.5000;0.5006;0.7778;
895.8000;0.4884;0.7523;
896.1000;0.4884;0.7523;
896.4000;0.4860;0.7430;
896.7000;0.4860;0.7337;
897.0000;0.4884;0.7430;
897.3000;0.4884;0.7361;
897.6000;0.4884;0.7361;
897.9000;0.4876;0.7384;
898.2000;0.4892;0.7546;
898.5000;0.4925;0.7686;
898.8000;0.4876;0.7639;
899.1000;0.4868;0.7500;
899.4000;0.4876;0.7523;
899.7000;0.4884;0.7546;
900.0000;0.4876;0.7523;
900.3000;0.4876;0.7570;
900.6000;0.4925;0.7802;
900.9000;0.4925;0.7709;
901.2000;0.4868;0.7546;
901.5000;0.4843;0.7523;
901.8000;0.4876;0.7662;
902.1000;0.4876;0.7639;
902.4000;0.4876;0.7709;
902.7000;0.4851;0.7570;
903.0000;0.4982;0.7825;
903.3000;0.4892;0.7732;
903.6000;0.4908;0.7732;
903.9000;0.4860;0.7593;
904.2000;0.4803;0.7384;
904.5000;0.4900;0.7593;
904.8000;0.4860;0.7453;
905.1000;0.4892;0.7477;
905.4000;0.4868;0.7384;
905.7000;0.4884;0.7430;
906.0000;0.4876;0.7430;
906.3000;0.4860;0.7500;
906.6000;0.4835;0.7453;
906.9000;0.4876;0.7616;
907.2000;0.4949;0.7755;
907.5000;0.4851;0.7453;
907.8000;0.4868;0.7523;
908.1000;0.4884;0.7616;
908.4000;0.4884;0.7546;
908.7000;0.4900;0.7616;
909.0000;0.4868;0.7546;
909.3000;0.4884;0.7593;
909.6000;0.4868;0.7662;
909.9000;0.4860;0.7523;
910.2000;0.4860;0.7616;
910.5000;0.4884;0.7616;
910.8000;0.4868;0.7616;
911.1000;0.4876;0.7570;
911.4000;0.4884;0.7593;
911.7000;0.4884;0.7662;
912.0000;0.4900;0.7616;
912.3000;0.4900;0.7546;
912.6000;0.4868;0.7500;
912.9000;0.4892;0.7639;
913.2000;0.4884;0.7616;
913.5000;0.4908;0.7709;
913.8000;0.4835;0.7593;
914.1000;0.4851;0.7616;
914.4000;0.4860;0.7639;
914.7000;0.4925;0.7848;
915.0000;0.4876;0.7825;
915.3000;0.4811;0.7639;
915.6000;0.4876;0.7686;
915.9000;0.4868;0.7639;
916.2000;0.4868;0.7686;
916.5000;0.4884;0.7593;
916.8000;0.4876;0.7546;
917.1000;0.4876;0.7593;
917.4000;0.4868;0.7593;
917.7000;0.4851;0.7593;
918.0000;0.4868;0.7709;
918.3000;0.4876;0.7686;
918.6000;0.4860;0.7755;
918.9000;0.4868;0.7778;
919.2000;0.4860;0.7709;
919.5000;0.4868;0.7755;
919.8000;0.4876;0.7755;
920.1000;0.4860;0.7709;
920.4000;0.4908;0.7732;
920.7000;0.4843;0.7570;
921.0000;0.4868;0.7593;
921.3000;0.4884;0.7500;
921.6000;0.4803;0.7361;
921.9000;0.4819;0.7361;
922.2000;0.4876;0.7523;
922.5000;0.4884;0.7407;
922.8000;0.4892;0.7384;
923.1000;0.4868;0.7430;
923.4000;0.4868;0.7453;
923.7000;0.4860;0.7477;
924.0000;0.4892;0.7546;
924.3000;0.4884;0.7477;
924.6000;0.4876;0.7523;
924.9000;0.4892;0.7570;
925.2000;0.4851;0.7570;
925.5000;0.4851;0.7570;
925.8000;0.4851;0.7546;
926.1000;0.4860;0.7430;
926.4000;0.4851;0.7361;
926.7000;0.4908;0.7500;
927.0000;0.4794;0.7314;
927.3000;0.4868;0.7500;
927.6000;0.4884;0.7639;
927.9000;0.4851;0.7570;
928.2000;0.4876;0.7662;
928.5000;0.4811;0.7593;
928.8000;0.4860;0.7686;
929.1000;0.4860;0.7616;
929.4000;0.4868;0.7546;
929.7000;0.4851;0.7384;
930.0000;0.4876;0.7453;
930.3000;0.4925;0.7407;
930.6000;0.4860;0.7337;
930.9000;0.4860;0.7314;
931.2000;0.4868;0.7361;
931.5000;0.4860;0.7453;
931.8000;0.4851;0.7477;
932.1000;0.4860;0.7570;
932.4000;0.4868;0.7616;
932.7000;0.4876;0.7662;
933.0000;0.4860;0.7686;
933.3000;0.4860;0.7593;
933.6000;0.4843;0.7639;
933.9000;0.4876;0.7732;
934.2000;0.4843;0.7662;
934.5000;0.4860;0.7616;
934.8000;0.4843;0.7570;
935.1000;0.4933;0.7709;
935.4000;0.4868;0.7616;
935.7000;0.4835;0.7616;
936.0000;0.4868;0.7639;
936.3000;0.4851;0.7616;
936.6000;0.4811;0.7453;
936.9000;0.4868;0.7523;
937.2000;0.4860;0.7500;
937.5000;0.4851;0.7477;
937.8000;0.4868;0.7546;
938.1000;0.4876;0.7616;
938.4000;0.4851;0.7546;
938.7000;0.4843;0.7500;
939.0000;0.4868;0.7477;
939.3000;0.4851;0.7477;
939.6000;0.4925;0.7686;
939.9000;0.4860;0.7616;
940.2000;0.4868;0.7453;
940.5000;0.4843;0.7384;
940.8000;0.4868;0.7314;
941.1000;0.4860;0.7314;
941.4000;0.4843;0.7221;
941.7000;0.4860;0.7384;
942.0000;0.4851;0.7407;
942.3000;0.4868;0.7430;
942.6000;0.4851;0.7361;
942.9000;0.4917;0.7523;
943.2000;0.4908;0.7384;
943.5000;0.4819;0.7198;
943.8000;0.4868;0.7291;
944.1000;0.4868;0.7244;
944.4000;0.4868;0.7314;
944.7000;0.4876;0.7384;
945.0000;0.4868;0.7407;
945.3000;0.4860;0.7361;
945.6000;0.4860;0.7453;
945.9000;0.4851;0.7361;
946.2000;0.4860;0.7268;
946.5000;0.4778;0.7128;
946.8000;0.4908;0.7477;
947.1000;0.4868;0.7453;
947.4000;0.4860;0.7430;
947.7000;0.4851;0.7453;
948.0000;0.4843;0.7500;
948.3000;0.4876;0.7523;
948.6000;0.4851;0.7477;
948.9000;0.4860;0.7407;
949.2000;0.4876;0.7407;
949.5000;0.4876;0.7407;
949.8000;0.4860;0.7430;
950.1000;0.4868;0.7361;
950.4000;0.4884;0.7523;
950.7000;0.4876;0.7593;
951.0000;0.4868;0.7523;
951.3000;0.4843;0.7477;
951.6000;0.4860;0.7546;
951.9000;0.4835;0.7453;
952.2000;0.4843;0.7477;
952.5000;0.4860;0.7546;
952.8000;0.4868;0.7570;
953.1000;0.4851;0.7500;
953.4000;0.4868;0.7407;
953.7000;0.4860;0.7337;
954.0000;0.4868;0.7384;
954.3000;0.4917;0.7546;
954.6000;0.4860;0.7407;
954.9000;0.4900;0.7523;
955.2000;0.4843;0.7291;
955.5000;0.4860;0.7384;
955.8000;0.4876;0.7477;
956.1000;0.4843;0.7384;
956.4000;0.4843;0.7407;
956.7000;0.4851;0.7337;
957.0000;0.4876;0.7337;
957.3000;0.4843;0.7314;
957.6000;0.4835;0.7384;
957.9000;0.4851;0.7477;
958.2000;0.4884;0.7523;
958.5000;0.4884;0.7523;
958.8000;0.4876;0.7593;
959.1000;0.4965;0.7732;
959.4000;0.4884;0.7593;
959.7000;0.4868;0.7523;
960.0000;0.4868;0.7523;
960.3000;0.4876;0.7570;
960.6000;0.4868;0.7500;
960.9000;0.4868;0.7477;
961.2000;0.4868;0.7477;
961.5000;0.4860;0.7453;
961.8000;0.4851;0.7500;
962.1000;0.4860;0.7616;
962.4000;0.4851;0.7616;
962.7000;0.4851;0.7477;
963.0000;0.4933;0.7732;
963.3000;0.4876;0.7570;
963.6000;0.4860;0.7500;
963.9000;0.4860;0.7593;
964.2000;0.4860;0.7523;
964.5000;0.4819;0.7500;
964.8000;0.4884;0.7546;
965.1000;0.4851;0.7523;
965.4000;0.4851;0.7570;
965.7000;0.4860;0.7500;
966.0000;0.4868;0.7570;
966.3000;0.4860;0.7546;
966.6000;0.4868;0.7546;
966.9000;0.4860;0.7430;
967.2000;0.4884;0.7337;
967.5000;0.4876;0.7314;
967.8000;0.4843;0.7337;
968.1000;0.4827;0.7291;
968.4000;0.4843;0.7291;
968.7000;0.4843;0.7244;
969.0000;0.4860;0.7314;
969.3000;0.4860;0.7314;
969.6000;0.4843;0.7337;
969.9000;0.4827;0.7291;
970.2000;0.4843;0.7314;
970.5000;0.4827;0.7152;
970.8000;0.4892;0.7268;
971.1000;0.4843;0.7152;
971.4000;0.4860;0.7082;
971.7000;0.4884;0.7128;
972.0000;0.4868;0.7198;
972.3000;0.4876;0.7244;
972.6000;0.4851;0.7198;
972.9000;0.4851;0.7268;
973.2000;0.4843;0.7291;
973.5000;0.4908;0.7523;
973.8000;0.4843;0.7384;
974.1000;0.4860;0.7430;
974.4000;0.4827;0.7407;
974.7000;0.4876;0.7453;
975.0000;0.4860;0.7407;
975.3000;0.4949;0.7616;
975.6000;0.4868;0.7430;
975.9000;0.4884;0.7500;
976.2000;0.4868;0.7523;
976.5000;0.4868;0.7477;
976.8000;0.4933;0.7662;
977.1000;0.4892;0.7570;
977.4000;0.4851;0.7477;
977.7000;0.4860;0.7384;
978.0000;0.4835;0.7337;
978.3000;0.4868;0.7384;
978.6000;0.4843;0.7291;
978.9000;0.4868;0.7291;
979.2000;0.4851;0.7244;
979.5000;0.4843;0.7244;
979.8000;0.4851;0.7198;
980.1000;0.4917;0.7337;
980.4000;0.4860;0.7337;
980.7000;0.4827;0.7291;
981.0000;0.4851;0.7337;
981.3000;0.4860;0.7407;
981.6000;0.4851;0.7430;
981.9000;0.4851;0.7477;
982.2000;0.4851;0.7453;
982.5000;0.4819;0.7546;
982.8000;0.4876;0.7570;
983.1000;0.4811;0.7337;
983.4000;0.4860;0.7384;
983.7000;0.4794;0.7314;
984.0000;0.4851;0.7453;
984.3000;0.4851;0.7453;
984.6000;0.4908;0.7570;
984.9000;0.4868;0.7453;
985.2000;0.4843;0.7453;
985.5000;0.4860;0.7546;
985.8000;0.4843;0.7477;
986.1000;0.4868;0.7546;
986.4000;0.4868;0.7570;
986.7000;0.4843;0.7430;
987.0000;0.4851;0.7430;
987.3000;0.4868;0.7593;
987.6000;0.4851;0.7523;
987.9000;0.4860;0.7546;
988.2000;0.4843;0.7500;
988.5000;0.4851;0.7500;
988.8000;0.4835;0.7523;
989.1000;0.4860;0.7639;
989.4000;0.4835;0.7662;
989.7000;0.4876;0.7686;
990.0000;0.4843;0.7616;
990.3000;0.4868;0.7639;
990.6000;0.4876;0.7593;
990.9000;0.4860;0.7639;
991.2000;0.4851;0.7686;
991.5000;0.4860;0.7732;
991.8000;0.4778;0.7384;
992.1000;0.4851;0.7639;
992.4000;0.4925;0.7848;
992.7000;0.4851;0.7662;
993.0000;0.4851;0.7593;
993.3000;0.4868;0.7570;
993.6000;0.4851;0.7593;
993.9000;0.4868;0.7639;
994.2000;0.4860;0.7709;
994.5000;0.4884;0.7755;
994.8000;0.4860;0.7639;
995.1000;0.4868;0.7616;
995.4000;0.4876;0.7593;
995.7000;0.4851;0.7546;
996.0000;0.4876;0.7686;
996.3000;0.4892;0.7778;
996.6000;0.4876;0.7825;
996.9000;0.4835;0.7662;
997.2000;0.4868;0.7686;
997.5000;0.4860;0.7639;
997.8000;0.4876;0.7639;
998.1000;0.4868;0.7593;
998.4000;0.4843;0.7639;
998.7000;0.4827;0.7500;
999.0000;0.4884;0.7639;
999.3000;0.4851;0.7500;
999.6000;0.4778;0.7221;
999.9000;0.4835;0.7337;
1000.2000;0.4851;0.7384;
1000.5000;0.4851;0.7430;
1000.8000;0.4868;0.7453;
1001.1000;0.4851;0.7430;
1001.4000;0.4860;0.7384;
1001.7000;0.4843;0.7430;
1002.0000;0.4884;0.7570;
1002.3000;0.4851;0.7639;
1002.6000;0.4835;0.7593;
1002.9000;0.4851;0.7523;
1003.2000;0.4843;0.7523;
1003.5000;0.4860;0.7477;
1003.8000;0.4843;0.7500;
1004.1000;0.4860;0.7453;
1004.4000;0.4851;0.7453;
1004.7000;0.4851;0.7477;
1005.0000;0.4892;0.7477;
1005.3000;0.4851;0.7314;
1005.6000;0.4868;0.7384;
1005.9000;0.4868;0.7384;
1006.2000;0.4860;0.7407;
1006.5000;0.4868;0.7384;
1006.8000;0.4851;0.7407;
1007.1000;0.4868;0.7407;
1007.4000;0.4860;0.7384;
1007.7000;0.4868;0.7384;
1008.0000;0.4868;0.7314;
1008.3000;0.4843;0.7268;
1008.6000;0.4851;0.7268;
1008.9000;0.4827;0.7314;
1009.2000;0.4835;0.7407;
1009.5000;0.4835;0.7384;
1009.8000;0.4803;0.7291;
1010.1000;0.4819;0.7361;
1010.4000;0.4851;0.7384;
1010.7000;0.4851;0.7430;
1011.0000;0.4860;0.7523;
1011.3000;0.4762;0.7268;
1011.6000;0.4900;0.7570;
1011.9000;0.4884;0.7477;
1012.2000;0.4860;0.7453;
1012.5000;0.4868;0.7453;
1012.8000;0.4868;0.7523;
1013.1000;0.4860;0.7523;
1013.4000;0.4803;0.7314;
1013.7000;0.4851;0.7430;
1014.0000;0.4843;0.7453;
1014.3000;0.4851;0.7500;
1014.6000;0.4835;0.7430;
1014.9000;0.4860;0.7523;
1015.2000;0.4851;0.7570;
1015.5000;0.4835;0.7546;
1015.8000;0.4884;0.7570;
1016.1000;0.4835;0.7500;
1016.4000;0.4860;0.7616;
1016.7000;0.4843;0.7593;
1017.0000;0.4868;0.7546;
1017.3000;0.4851;0.7523;
1017.6000;0.4851;0.7523;
1017.9000;0.4868;0.7523;
1018.2000;0.4868;0.7662;
1018.5000;0.4900;0.7709;
1018.8000;0.4876;0.7616;
1019.1000;0.4860;0.7546;
1019.4000;0.4900;0.7639;
1019.7000;0.4876;0.7523;
1020.0000;0.4860;0.7477;
1020.3000;0.4851;0.7361;
1020.6000;0.4876;0.7430;
1020.9000;0.4892;0.7523;
1021.2000;0.4860;0.7477;
1021.5000;0.4892;0.7523;
1021.8000;0.4827;0.7314;
1022.1000;0.4868;0.7430;
1022.4000;0.4892;0.7453;
1022.7000;0.4819;0.7291;
1023.0000;0.4851;0.7361;
1023.3000;0.4851;0.7337;
1023.6000;0.4868;0.7430;
1023.9000;0.4851;0.7361;
1024.2000;0.4843;0.7407;
1024.5000;0.4843;0.7477;
1024.8000;0.4851;0.7639;
1025.1000;0.4835;0.7546;
1025.4000;0.4843;0.7523;
1025.7000;0.4851;0.7523;
1026.0000;0.4884;0.7570;
1026.3000;0.4876;0.7523;
1026.6000;0.4868;0.7523;
1026.9000;0.4900;0.7500;
1027.2000;0.4868;0.7453;
1027.5000;0.4868;0.7407;
1027.8000;0.4851;0.7361;
1028.1000;0.4868;0.7337;
1028.4000;0.4868;0.7384;
1028.7000;0.4860;0.7361;
1029.0000;0.4876;0.7337;
1029.3000;0.4843;0.7337;
1029.6000;0.4860;0.7430;
1029.9000;0.4843;0.7430;
1030.2000;0.4868;0.7453;
1030.5000;0.4868;0.7453;
1030.8000;0.4908;0.7616;
1031.1000;0.4851;0.7500;
1031.4000;0.4876;0.7500;
1031.7000;0.4851;0.7407;
1032.0000;0.4868;0.7477;
1032.3000;0.4900;0.7500;
1032.6000;0.4876;0.7384;
1032.9000;0.4876;0.7407;
1033.2000;0.4860;0.7430;
1033.5000;0.4851;0.7337;
1033.8000;0.4851;0.7430;
1034.1000;0.4876;0.7593;
1034.4000;0.4835;0.7500;
1034.7000;0.4851;0.7523;
1035.0000;0.4884;0.7616;
1035.3000;0.4843;0.7523;
1035.6000;0.4827;0.7523;
1035.9000;0.4860;0.7755;
1036.2000;0.4884;0.7848;
1036.5000;0.4835;0.7802;
1036.8000;0.4884;0.7941;
1037.1000;0.4851;0.7871;
1037.4000;0.4778;0.7732;
1037.7000;0.4851;0.7871;
1038.0000;0.4860;0.7755;
1038.3000;0.4843;0.7732;
1038.6000;0.4860;0.7732;
1038.9000;0.4860;0.7686;
1039.2000;0.4851;0.7570;
1039.5000;0.4827;0.7477;
1039.8000;0.4851;0.7523;
1040.1000;0.4843;0.7477;
1040.4000;0.4843;0.7477;
1040.7000;0.4860;0.7546;
1041.0000;0.4803;0.7430;
1041.3000;0.4851;0.7477;
1041.6000;0.4860;0.7430;
1041.9000;0.4876;0.7523;
1042.2000;0.4892;0.7546;
1042.5000;0.4860;0.7453;
1042.8000;0.4868;0.7523;
1043.1000;0.4851;0.7477;
1043.4000;0.4868;0.7453;
1043.7000;0.4884;0.7407;
1044.0000;0.4860;0.7221;
1044.3000;0.4908;0.7361;
1044.6000;0.4843;0.7221;
1044.9000;0.4860;0.7384;
1045.2000;0.4868;0.7384;
1045.5000;0.4851;0.7384;
1045.8000;0.4843;0.7407;
1046.1000;0.4860;0.7546;
1046.4000;0.4860;0.7593;
1046.7000;0.4884;0.7616;
1047.0000;0.4843;0.7523;
1047.3000;0.4860;0.7477;
1047.6000;0.4860;0.7477;
1047.9000;0.4860;0.7500;
1048.2000;0.4843;0.7523;
1048.5000;0.4835;0.7500;
1048.8000;0.4811;0.7407;
1049.1000;0.4949;0.7732;
1049.4000;0.4811;0.7384;
1049.7000;0.4835;0.7477;
1050.0000;0.4860;0.7593;
1050.3000;0.4843;0.7546;
1050.6000;0.4843;0.7477;
1050.9000;0.4851;0.7500;
1051.2000;0.4876;0.7453;
1051.5000;0.4884;0.7477;
1051.8000;0.4990;0.7662;
1052.1000;0.4851;0.7407;
1052.4000;0.4851;0.7430;
1052.7000;0.4770;0.7314;
1053.0000;0.4819;0.7361;
1053.3000;0.4835;0.7384;
1053.6000;0.4884;0.7546;
1053.9000;0.4786;0.7430;
1054.2000;0.4843;0.7523;
1054.5000;0.4851;0.7546;
1054.8000;0.4786;0.7407;
1055.1000;0.4762;0.7384;
1055.4000;0.4868;0.7546;
1055.7000;0.4860;0.7477;
1056.0000;0.4860;0.7570;
1056.3000;0.4851;0.7477;
1056.6000;0.4868;0.7523;
1056.9000;0.4876;0.7570;
1057.2000;0.4851;0.7523;
1057.5000;0.4892;0.7686;
1057.8000;0.4851;0.7639;
1058.1000;0.4884;0.7709;
1058.4000;0.4851;0.7593;
1058.7000;0.4835;0.7337;
1059.0000;0.4851;0.7407;
1059.3000;0.4843;0.7500;
1059.6000;0.4811;0.7407;
1059.9000;0.4868;0.7639;
1060.2000;0.4851;0.7709;
1060.5000;0.4868;0.7732;
1060.8000;0.4860;0.7662;
1061.1000;0.4835;0.7616;
1061.4000;0.4843;0.7709;
1061.7000;0.4843;0.7662;
1062.0000;0.4868;0.7570;
1062.3000;0.4835;0.7407;
1062.6000;0.4860;0.7361;
1062.9000;0.4860;0.7453;
1063.2000;0.4876;0.7453;
1063.5000;0.4868;0.7477;
1063.8000;0.4860;0.7407;
1064.1000;0.4843;0.7453;
1064.4000;0.4851;0.7500;
1064.7000;0.4860;0.7546;
1065.0000;0.4851;0.7570;
1065.3000;0.4851;0.7570;
1065.6000;0.4876;0.7593;
1065.9000;0.4851;0.7523;
1066.2000;0.4843;0.7500;
1066.5000;0.4851;0.7523;
1066.8000;0.4851;0.7593;
1067.1000;0.4827;0.7477;
1067.4000;0.4843;0.7361;
1067.7000;0.4933;0.7546;
1068.0000;0.4868;0.7384;
1068.3000;0.4860;0.7337;
1068.6000;0.4835;0.7314;
1068.9000;0.4851;0.7337;
1069.2000;0.4900;0.7453;
1069.5000;0.4860;0.7291;
1069.8000;0.4884;0.7407;
1070.1000;0.4827;0.7291;
1070.4000;0.4860;0.7384;
1070.7000;0.4876;0.7500;
1071.0000;0.4860;0.7453;
1071.3000;0.4851;0.7477;
1071.6000;0.4843;0.7570;
1071.9000;0.4811;0.7593;
1072.2000;0.4917;0.7825;
1072.5000;0.4835;0.7616;
1072.8000;0.4851;0.7639;
1073.1000;0.4835;0.7570;
1073.4000;0.4851;0.7477;
1073.7000;0.4843;0.7384;
1074.0000;0.4851;0.7430;
1074.3000;0.4851;0.7523;
1074.6000;0.4876;0.7639;
1074.9000;0.4803;0.7430;
1075.2000;0.4851;0.7570;
1075.5000;0.4851;0.7593;
1075.8000;0.4892;0.7732;
1076.1000;0.4827;0.7546;
1076.4000;0.4860;0.7570;
1076.7000;0.4835;0.7523;
1077.0000;0.4786;0.7407;
1077.3000;0.4851;0.7616;
1077.6000;0.4770;0.7453;
1077.9000;0.4819;0.7593;
1078.2000;0.4843;0.7477;
1078.5000;0.4851;0.7430;
1078.8000;0.4835;0.7407;
1079.1000;0.4843;0.7407;
1079.4000;0.4900;0.7593;
1079.7000;0.4851;0.7546;
1080.0000;0.4786;0.7430;
1080.3000;0.4835;0.7523;
1080.6000;0.4843;0.7453;
1080.9000;0.4860;0.7430;
1081.2000;0.4876;0.7593;
1081.5000;0.4819;0.7500;
1081.8000;0.4851;0.7546;
1082.1000;0.4860;0.7546;
1082.4000;0.4851;0.7546;
1082.7000;0.4860;0.7570;
1083.0000;0.4851;0.7500;
1083.3000;0.4860;0.7523;
1083.6000;0.4843;0.7593;
1083.9000;0.4770;0.7477;
1084.2000;0.4835;0.7639;
1084.5000;0.4851;0.7686;
1084.8000;0.4835;0.7593;
1085.1000;0.4843;0.7639;
1085.4000;0.4860;0.7686;
1085.7000;0.4876;0.7686;
1086.0000;0.4843;0.7709;
1086.3000;0.4876;0.7755;
1086.6000;0.4860;0.7709;
1086.9000;0.4925;0.7825;
1087.2000;0.4851;0.7662;
1087.5000;0.4860;0.7616;
1087.8000;0.4860;0.7616;
1088.1000;0.4884;0.7616;
1088.4000;0.4860;0.7430;
1088.7000;0.4876;0.7430;
1089.0000;0.4868;0.7546;
1089.3000;0.4843;0.7500;
1089.6000;0.4835;0.7384;
1089.9000;0.4876;0.7314;
1090.2000;0.4786;0.7198;
1090.5000;0.4851;0.7314;
1090.8000;0.4851;0.7384;
1091.1000;0.4851;0.7361;
1091.4000;0.4851;0.7384;
1091.7000;0.4835;0.7384;
1092.0000;0.4860;0.7477;
1092.3000;0.4835;0.7453;
1092.6000;0.4876;0.7477;
1092.9000;0.4860;0.7337;
1093.2000;0.4819;0.7314;
1093.5000;0.4827;0.7361;
1093.8000;0.4868;0.7407;
1094.1000;0.4835;0.7314;
1094.4000;0.4860;0.7407;
1094.7000;0.4868;0.7477;
1095.0000;0.4827;0.7430;
1095.3000;0.4835;0.7477;
1095.6000;0.4835;0.7500;
1095.9000;0.4835;0.7523;
1096.2000;0.4860;0.7523;
1096.5000;0.4843;0.7593;
1096.8000;0.4835;0.7593;
1097.1000;0.4843;0.7616;
1097.4000;0.4868;0.7686;
1097.7000;0.4860;0.7732;
1098.0000;0.4851;0.7593;
1098.3000;0.4819;0.7477;
1098.6000;0.4860;0.7570;
1098.9000;0.4868;0.7593;
1099.2000;0.4908;0.7778;
1099.5000;0.4851;0.7570;
1099.8000;0.4835;0.7500;
1100.1000;0.4851;0.7616;
1100.4000;0.4860;0.7639;
1100.7000;0.4851;0.7593;
1101.0000;0.4900;0.7662;
1101.3000;0.4860;0.7686;
1101.6000;0.4868;0.7778;
1101.9000;0.4884;0.7686;
1102.2000;0.4851;0.7616;
1102.5000;0.4827;0.7477;
1102.8000;0.4835;0.7570;
1103.1000;0.4794;0.7546;
1103.4000;0.4868;0.7732;
1103.7000;0.4851;0.7662;
1104.0000;0.4917;0.7825;
1104.3000;0.4851;0.7709;
1104.6000;0.4843;0.7616;
1104.9000;0.4851;0.7570;
1105.2000;0.4860;0.7639;
1105.5000;0.4827;0.7523;
1105.8000;0.4843;0.7546;
1106.1000;0.4803;0.7477;
1106.4000;0.4868;0.7523;
1106.7000;0.4860;0.7407;
1107.0000;0.4835;0.7361;
1107.3000;0.4843;0.7384;
1107.6000;0.4843;0.7430;
1107.9000;0.4851;0.7430;
1108.2000;0.4843;0.7430;
1108.5000;0.4851;0.7500;
1108.8000;0.4819;0.7407;
1109.1000;0.4876;0.7593;
1109.4000;0.4803;0.7477;
1109.7000;0.4892;0.7639;
1110.0000;0.4892;0.7686;
1110.3000;0.4843;0.7523;
1110.6000;0.4770;0.7268;
1110.9000;0.4868;0.7546;
1111.2000;0.4884;0.7523;
1111.5000;0.4860;0.7523;
1111.8000;0.4843;0.7500;
1112.1000;0.4843;0.7453;
1112.4000;0.4892;0.7662;
1112.7000;0.4827;0.7500;
1113.0000;0.4835;0.7546;
1113.3000;0.4819;0.7453;
1113.6000;0.4892;0.7546;
1113.9000;0.4843;0.7523;
1114.2000;0.4868;0.7570;
1114.5000;0.4851;0.7453;
1114.8000;0.4851;0.7570;
1115.1000;0.4835;0.7453;
1115.4000;0.4868;0.7477;
1115.7000;0.4819;0.7361;
1116.0000;0.4860;0.7500;
1116.3000;0.4843;0.7453;
1116.6000;0.4778;0.7337;
1116.9000;0.4892;0.7570;
1117.2000;0.4770;0.7337;
1117.5000;0.4851;0.7477;
1117.8000;0.4843;0.7500;
1118.1000;0.4843;0.7523;
1118.4000;0.4827;0.7477;
1118.7000;0.4819;0.7500;
1119.0000;0.4876;0.7500;
1119.3000;0.4868;0.7500;
1119.6000;0.4843;0.7593;
1119.9000;0.4868;0.7686;
1120.2000;0.4835;0.7593;
1120.5000;0.4860;0.7686;
1120.8000;0.4851;0.7686;
1121.1000;0.4843;0.7639;
1121.4000;0.4851;0.7686;
1121.7000;0.4851;0.7639;
1122.0000;0.4811;0.7477;
1122.3000;0.4860;0.7616;
1122.6000;0.4835;0.7500;
1122.9000;0.4843;0.7570;
1123.2000;0.4876;0.7639;
1123.5000;0.4835;0.7593;
1123.8000;0.4900;0.7662;
1124.1000;0.4827;0.7546;
1124.4000;0.4819;0.7546;
1124.7000;0.4851;0.7546;
1125.0000;0.4851;0.7570;
1125.3000;0.4860;0.7593;
1125.6000;0.4851;0.7593;
1125.9000;0.4860;0.7500;
1126.2000;0.4851;0.7361;
1126.5000;0.4811;0.7291;
1126.8000;0.4868;0.7384;
1127.1000;0.4851;0.7221;
1127.4000;0.4851;0.7152;
1127.7000;0.4827;0.7152;
1128.0000;0.4835;0.7221;
1128.3000;0.4843;0.7198;
1128.6000;0.4892;0.7314;
1128.9000;0.4843;0.7244;
1129.2000;0.4819;0.7314;
1129.5000;0.4843;0.7314;
1129.8000;0.4835;0.7361;
1130.1000;0.4843;0.7453;
1130.4000;0.4827;0.7546;
1130.7000;0.4851;0.7593;
1131.0000;0.4876;0.7570;
1131.3000;0.4827;0.7500;
1131.6000;0.4770;0.7384;
1131.9000;0.4851;0.7546;
1132.2000;0.4843;0.7453;
1132.5000;0.4851;0.7546;
1132.8000;0.4835;0.7523;
1133.1000;0.4835;0.7430;
1133.4000;0.4835;0.7430;
1133.7000;0.4851;0.7384;
1134.0000;0.4827;0.7291;
1134.3000;0.4860;0.7361;
1134.6000;0.4868;0.7453;
1134.9000;0.4868;0.7477;
1135.2000;0.4868;0.7523;
1135.5000;0.4876;0.7570;
1135.8000;0.4851;0.7593;
1136.1000;0.4860;0.7570;
1136.4000;0.4851;0.7523;
1136.7000;0.4851;0.7523;
1137.0000;0.4884;0.7593;
1137.3000;0.4851;0.7593;
1137.6000;0.4835;0.7546;
1137.9000;0.4868;0.7593;
1138.2000;0.4843;0.7500;
1138.5000;0.4811;0.7477;
1138.8000;0.4860;0.7453;
1139.1000;0.4868;0.7500;
1139.4000;0.4843;0.7361;
1139.7000;0.4851;0.7361;
1140.0000;0.4835;0.7430;
1140.3000;0.4835;0.7546;
1140.6000;0.4868;0.7593;
1140.9000;0.4851;0.7546;
1141.2000;0.4917;0.7639;
1141.5000;0.4827;0.7570;
1141.8000;0.4786;0.7430;
1142.1000;0.4843;0.7570;
1142.4000;0.4843;0.7500;
1142.7000;0.4860;0.7593;
1143.0000;0.4851;0.7616;
1143.3000;0.4835;0.7616;
1143.6000;0.4835;0.7639;
1143.9000;0.4917;0.7732;
1144.2000;0.4843;0.7477;
1144.5000;0.4835;0.7500;
1144.8000;0.4819;0.7500;
1145.1000;0.4851;0.7616;
1145.4000;0.4851;0.7662;
1145.7000;0.4876;0.7732;
1146.0000;0.4843;0.7686;
1146.3000;0.4876;0.7755;
1146.6000;0.4835;0.7639;
1146.9000;0.4827;0.7523;
1147.2000;0.4827;0.7523;
1147.5000;0.4860;0.7546;
1147.8000;0.4851;0.7593;
1148.1000;0.4843;0.7616;
1148.4000;0.4884;0.7593;
1148.7000;0.4843;0.7407;
1149.0000;0.4868;0.7477;
1149.3000;0.4860;0.7523;
1149.6000;0.4860;0.7523;
1149.9000;0.4884;0.7570;
1150.2000;0.4835;0.7453;
1150.5000;0.4835;0.7523;
1150.8000;0.4843;0.7616;
1151.1000;0.4851;0.7593;
1151.4000;0.4811;0.7616;
1151.7000;0.4851;0.7570;
1152.0000;0.4868;0.7639;
1152.3000;0.4729;0.7361;
1152.6000;0.4827;0.7593;
1152.9000;0.4819;0.7616;
1153.2000;0.4851;0.7686;
1153.5000;0.4835;0.7686;
1153.8000;0.4917;0.7871;
1154.1000;0.4843;0.7709;
1154.4000;0.4843;0.7686;
1154.7000;0.4843;0.7709;
1155.0000;0.4860;0.7639;
1155.3000;0.4843;0.7639;
1155.6000;0.4860;0.7639;
1155.9000;0.4835;0.7616;
1156.2000;0.4860;0.7639;
1156.5000;0.4851;0.7639;
1156.8000;0.4860;0.7732;
1157.1000;0.4860;0.7662;
1157.4000;0.4868;0.7662;
1157.7000;0.4892;0.7686;
1158.0000;0.4851;0.7616;
1158.3000;0.4835;0.7546;
1158.6000;0.4851;0.7570;
1158.9000;0.4860;0.7662;
1159.2000;0.4860;0.7616;
1159.5000;0.4868;0.7616;
1159.8000;0.4851;0.7662;
1160.1000;0.4851;0.7709;
1160.4000;0.4876;0.7825;
1160.7000;0.4851;0.7709;
1161.0000;0.4729;0.7361;
1161.3000;0.4835;0.7662;
1161.6000;0.4860;0.7616;
1161.9000;0.4851;0.7662;
1162.2000;0.4835;0.7593;
1162.5000;0.4843;0.7639;
1162.8000;0.4860;0.7686;
1163.1000;0.4835;0.7639;
1163.4000;0.4843;0.7616;
1163.7000;0.4851;0.7686;
1164.0000;0.4860;0.7709;
1164.3000;0.4860;0.7686;
1164.6000;0.4868;0.7755;
1164.9000;0.4819;0.7686;
1165.2000;0.4835;0.7639;
1165.5000;0.4860;0.7732;
1165.8000;0.4900;0.7778;
1166.1000;0.4835;0.7546;
1166.4000;0.4860;0.7500;
1166.7000;0.4917;0.7709;
1167.0000;0.4851;0.7570;
1167.3000;0.4851;0.7686;
1167.6000;0.4868;0.7662;
1167.9000;0.4860;0.7570;
1168.2000;0.4851;0.7570;
1168.5000;0.4860;0.7546;
1168.8000;0.4851;0.7546;
1169.1000;0.4843;0.7430;
1169.4000;0.4868;0.7384;
1169.7000;0.4860;0.7384;
1170.0000;0.4843;0.7361;
1170.3000;0.4827;0.7361;
1170.6000;0.4868;0.7361;
1170.9000;0.4835;0.7430;
1171.2000;0.4794;0.7337;
1171.5000;0.4868;0.7570;
1171.8000;0.4900;0.7616;
1172.1000;0.4851;0.7546;
1172.4000;0.4949;0.7755;
1172.7000;0.4860;0.7546;
1173.0000;0.4892;0.7686;
1173.3000;0.4851;0.7523;
1173.6000;0.4843;0.7384;
1173.9000;0.4965;0.7616;
1174.2000;0.4851;0.7384;
1174.5000;0.4851;0.7500;
1174.8000;0.4827;0.7477;
1175.1000;0.4835;0.7500;
1175.4000;0.4860;0.7546;
1175.7000;0.4868;0.7546;
1176.0000;0.4851;0.7453;
1176.3000;0.4843;0.7453;
1176.6000;0.4933;0.7593;
1176.9000;0.4851;0.7361;
1177.2000;0.4860;0.7430;
1177.5000;0.4843;0.7430;
1177.8000;0.4819;0.7430;
1178.1000;0.4843;0.7570;
1178.4000;0.4851;0.7616;
1178.7000;0.4786;0.7477;
1179.0000;0.4835;0.7500;
1179.3000;0.4835;0.7384;
1179.6000;0.4827;0.7453;
1179.9000;0.4835;0.7407;
1180.2000;0.4827;0.7430;
1180.5000;0.4941;0.7778;
1180.8000;0.4843;0.7639;
1181.1000;0.4851;0.7662;
1181.4000;0.4851;0.7616;
1181.7000;0.4827;0.7546;
1182.0000;0.4868;0.7639;
1182.3000;0.4860;0.7570;
1182.6000;0.4843;0.7616;
1182.9000;0.4843;0.7639;
1183.2000;0.4843;0.7616;
1183.5000;0.4851;0.7546;
1183.8000;0.4835;0.7500;
1184.1000;0.4827;0.7384;
1184.4000;0.4860;0.7500;
1184.7000;0.4794;0.7291;
1185.0000;0.4868;0.7407;
1185.3000;0.4811;0.7314;
1185.6000;0.4851;0.7430;
1185.9000;0.4835;0.7384;
1186.2000;0.4941;0.7523;
1186.5000;0.4868;0.7361;
1186.8000;0.4892;0.7453;
1187.1000;0.4843;0.7430;
1187.4000;0.4843;0.7407;
1187.7000;0.4860;0.7453;
1188.0000;0.4843;0.7384;
1188.3000;0.4835;0.7453;
1188.6000;0.4835;0.7500;
1188.9000;0.4835;0.7523;
1189.2000;0.4900;0.7662;
1189.5000;0.4851;0.7453;
1189.8000;0.4843;0.7453;
1190.1000;0.4843;0.7407;
1190.4000;0.4843;0.7407;
1190.7000;0.4851;0.7453;
1191.0000;0.4851;0.7430;
1191.3000;0.4860;0.7430;
1191.6000;0.4876;0.7523;
1191.9000;0.4843;0.7430;
1192.2000;0.4860;0.7477;
1192.5000;0.4843;0.7500;
1192.8000;0.4835;0.7477;
1193.1000;0.4835;0.7500;
1193.4000;0.4868;0.7523;
1193.7000;0.4843;0.7453;
1194.0000;0.4851;0.7500;
1194.3000;0.4843;0.7477;
1194.6000;0.4851;0.7361;
1194.9000;0.4851;0.7453;
1195.2000;0.4884;0.7546;
1195.5000;0.4860;0.7453;
1195.8000;0.4851;0.7384;
1196.1000;0.4860;0.7430;
1196.4000;0.4851;0.7337;
1196.7000;0.4860;0.7268;
1197.0000;0.4770;0.7035;
1197.3000;0.4868;0.7291;
1197.6000;0.4819;0.7198;
1197.9000;0.4851;0.7244;
1198.2000;0.4868;0.7361;
1198.5000;0.4868;0.7361;
1198.8000;0.4884;0.7593;
1199.1000;0.4868;0.7546;
1199.4000;0.4860;0.7523;
1199.7000;0.4803;0.7407;
1200.0000;0.4827;0.7453;
1200.3000;0.4770;0.7314;
1200.6000;0.4835;0.7361;
1200.9000;0.4860;0.7384;
1201.2000;0.4851;0.7407;
1201.5000;0.4851;0.7430;
1201.8000;0.4811;0.7337;
1202.1000;0.4843;0.7430;
1202.4000;0.4851;0.7477;
1202.7000;0.4851;0.7570;
1203.0000;0.4843;0.7523;
1203.3000;0.4843;0.7430;
1203.6000;0.4851;0.7244;
1203.9000;0.4843;0.7198;
1204.2000;0.4868;0.7198;
1204.5000;0.4860;0.7198;
1204.8000;0.4851;0.7268;
1205.1000;0.4827;0.7221;
1205.4000;0.4835;0.7198;
1205.7000;0.4811;0.7082;
1206.0000;0.4786;0.6966;
1206.3000;0.4851;0.7105;
1206.6000;0.4851;0.7221;
1206.9000;0.4835;0.7221;
1207.2000;0.4851;0.7175;
1207.5000;0.4868;0.7244;
1207.8000;0.4860;0.7198;
1208.1000;0.4860;0.7152;
1208.4000;0.4827;0.7128;
1208.7000;0.4876;0.7198;
1209.0000;0.4851;0.7152;
1209.3000;0.4851;0.7175;
1209.6000;0.4917;0.7337;
1209.9000;0.4827;0.7152;
1210.2000;0.4851;0.7175;
1210.5000;0.4860;0.7152;
1210.8000;0.4827;0.7012;
1211.1000;0.4843;0.7082;
1211.4000;0.4811;0.7082;
1211.7000;0.4892;0.7268;
1212.0000;0.4843;0.7198;
1212.3000;0.4851;0.7198;
1212.6000;0.4843;0.7268;
1212.9000;0.4860;0.7337;
1213.2000;0.4843;0.7268;
1213.5000;0.4851;0.7291;
1213.8000;0.4851;0.7337;
1214.1000;0.4843;0.7361;
1214.4000;0.4876;0.7453;
1214.7000;0.4835;0.7430;
1215.0000;0.4900;0.7593;
1215.3000;0.4843;0.7430;
1215.6000;0.4892;0.7500;
1215.9000;0.4819;0.7453;
1216.2000;0.4868;0.7616;
1216.5000;0.4860;0.7546;
1216.8000;0.4851;0.7500;
1217.1000;0.4835;0.7500;
1217.4000;0.4843;0.7500;
1217.7000;0.4835;0.7453;
1218.0000;0.4876;0.7453;
1218.3000;0.4851;0.7430;
1218.6000;0.4835;0.7337;
1218.9000;0.4851;0.7314;
1219.2000;0.4868;0.7361;
1219.5000;0.4860;0.7361;
1219.8000;0.4851;0.7244;
1220.1000;0.4851;0.7291;
1220.4000;0.4843;0.7337;
1220.7000;0.4843;0.7384;
1221.0000;0.4900;0.7546;
1221.3000;0.4819;0.7384;
1221.6000;0.4860;0.7407;
1221.9000;0.4835;0.7314;
1222.2000;0.4843;0.7361;
1222.5000;0.4884;0.7500;
1222.8000;0.4900;0.7453;
1223.1000;0.4868;0.7361;
1223.4000;0.4860;0.7337;
1223.7000;0.4860;0.7430;
1224.0000;0.4843;0.7407;
1224.3000;0.4876;0.7477;
1224.6000;0.4892;0.7453;
1224.9000;0.4803;0.7291;
1225.2000;0.4843;0.7430;
1225.5000;0.4900;0.7523;
1225.8000;0.4851;0.7430;
1226.1000;0.4860;0.7453;
1226.4000;0.4917;0.7546;
1226.7000;0.4737;0.7059;
1227.0000;0.4851;0.7361;
1227.3000;0.4851;0.7407;
1227.6000;0.4835;0.7384;
1227.9000;0.4851;0.7453;
1228.2000;0.4835;0.7500;
1228.5000;0.4835;0.7523;
1228.8000;0.4811;0.7477;
1229.1000;0.4851;0.7639;
1229.4000;0.4860;0.7662;
1229.7000;0.4835;0.7546;
1230.0000;0.4835;0.7593;
1230.3000;0.4851;0.7662;
1230.6000;0.4843;0.7453;
1230.9000;0.4851;0.7407;
1231.2000;0.4835;0.7361;
1231.5000;0.4843;0.7244;
1231.8000;0.4851;0.7175;
1232.1000;0.4843;0.7244;
1232.4000;0.4851;0.7221;
1232.7000;0.4835;0.7152;
1233.0000;0.4843;0.7152;
1233.3000;0.4835;0.7152;
1233.6000;0.4835;0.7221;
1233.9000;0.4819;0.7268;
1234.2000;0.4860;0.7384;
1234.5000;0.4868;0.7453;
1234.8000;0.4819;0.7198;
1235.1000;0.4835;0.7268;
1235.4000;0.4868;0.7453;
1235.7000;0.4843;0.7453;
1236.0000;0.4843;0.7384;
1236.3000;0.4835;0.7361;
1236.6000;0.4843;0.7384;
1236.9000;0.4746;0.7268;
1237.2000;0.4835;0.7500;
1237.5000;0.4843;0.7407;
1237.8000;0.4843;0.7477;
1238.1000;0.4819;0.7407;
1238.4000;0.4851;0.7407;
1238.7000;0.4827;0.7291;
1239.0000;0.4843;0.7268;
1239.3000;0.4876;0.7361;
1239.6000;0.4860;0.7314;
1239.9000;0.4827;0.7384;
1240.2000;0.4835;0.7337;
1240.5000;0.4851;0.7384;
1240.8000;0.4835;0.7430;
1241.1000;0.4843;0.7361;
1241.4000;0.4860;0.7477;
1241.7000;0.4835;0.7453;
1242.0000;0.4851;0.7546;
1242.3000;0.4860;0.7662;
1242.6000;0.4851;0.7593;
1242.9000;0.4843;0.7639;
1243.2000;0.4860;0.7686;
1243.5000;0.4884;0.7686;
1243.8000;0.4860;0.7639;
1244.1000;0.4843;0.7570;
1244.4000;0.4892;0.7639;
1244.7000;0.4827;0.7570;
1245.0000;0.4851;0.7662;
1245.3000;0.4819;0.7616;
1245.6000;0.4827;0.7616;
1245.9000;0.4843;0.7662;
1246.2000;0.4851;0.7662;
1246.5000;0.4860;0.7616;
1246.8000;0.4843;0.7639;
1247.1000;0.4835;0.7686;
1247.4000;0.4851;0.7755;
1247.7000;0.4803;0.7570;
1248.0000;0.4843;0.7593;
1248.3000;0.4860;0.7477;
1248.6000;0.4713;0.7128;
1248.9000;0.4843;0.7500;
1249.2000;0.4835;0.7500;
1249.5000;0.4851;0.7546;
1249.8000;0.4843;0.7453;
1250.1000;0.4835;0.7500;
1250.4000;0.4843;0.7546;
1250.7000;0.4851;0.7593;
1251.0000;0.4835;0.7546;
1251.3000;0.4843;0.7523;
1251.6000;0.4819;0.7453;
1251.9000;0.4835;0.7430;
1252.2000;0.4851;0.7430;
1252.5000;0.4860;0.7407;
1252.8000;0.4933;0.7546;
1253.1000;0.4835;0.7314;
1253.4000;0.4860;0.7384;
1253.7000;0.4868;0.7430;
1254.0000;0.4917;0.7570;
1254.3000;0.4835;0.7430;
1254.6000;0.4835;0.7291;
1254.9000;0.4851;0.7268;
1255.2000;0.4835;0.7314;
1255.5000;0.4876;0.7453;
1255.8000;0.4876;0.7546;
1256.1000;0.4900;0.7593;
1256.4000;0.4843;0.7500;
1256.7000;0.4851;0.7593;
1257.0000;0.4851;0.7523;
1257.3000;0.4843;0.7570;
1257.6000;0.4851;0.7546;
1257.9000;0.4851;0.7523;
1258.2000;0.4941;0.7709;
1258.5000;0.4827;0.7361;
1258.8000;0.4860;0.7430;
1259.1000;0.4835;0.7314;
1259.4000;0.4827;0.7244;
1259.7000;0.4843;0.7337;
1260.0000;0.4868;0.7500;
1260.3000;0.4851;0.7477;
1260.6000;0.4843;0.7477;
1260.9000;0.4770;0.7361;
1261.2000;0.4868;0.7570;
1261.5000;0.4851;0.7570;
1261.8000;0.4868;0.7616;
1262.1000;0.4843;0.7546;
1262.4000;0.4892;0.7639;
1262.7000;0.4835;0.7500;
1263.0000;0.4835;0.7430;
1263.3000;0.4835;0.7477;
1263.6000;0.4860;0.7500;
1263.9000;0.4835;0.7407;
1264.2000;0.4860;0.7430;
1264.5000;0.4860;0.7546;
1264.8000;0.4851;0.7593;
1265.1000;0.4835;0.7546;
1265.4000;0.4835;0.7430;
1265.7000;0.4851;0.7500;
1266.0000;0.4851;0.7500;
1266.3000;0.4868;0.7477;
1266.6000;0.4884;0.7546;
1266.9000;0.4860;0.7477;
1267.2000;0.4827;0.7384;
1267.5000;0.4843;0.7337;
1267.8000;0.4876;0.7361;
1268.1000;0.4957;0.7570;
1268.4000;0.4884;0.7361;
1268.7000;0.4868;0.7337;
1269.0000;0.4851;0.7337;
1269.3000;0.4754;0.7082;
1269.6000;0.4851;0.7314;
1269.9000;0.4843;0.7314;
1270.2000;0.4860;0.7291;
1270.5000;0.4860;0.7314;
1270.8000;0.4851;0.7361;
1271.1000;0.4843;0.7314;
1271.4000;0.4851;0.7453;
1271.7000;0.4843;0.7546;
1272.0000;0.4835;0.7477;
1272.3000;0.4827;0.7407;
1272.6000;0.4819;0.7314;
1272.9000;0.4835;0.7291;
1273.2000;0.4860;0.7361;
1273.5000;0.4851;0.7430;
1273.8000;0.4900;0.7523;
1274.1000;0.4843;0.7407;
1274.4000;0.4827;0.7407;
1274.7000;0.4876;0.7430;
1275.0000;0.4835;0.7384;
1275.3000;0.4860;0.7500;
1275.6000;0.4868;0.7407;
1275.9000;0.4843;0.7361;
1276.2000;0.4851;0.7407;
1276.5000;0.4868;0.7500;
1276.8000;0.4876;0.7523;
1277.1000;0.4860;0.7453;
1277.4000;0.4843;0.7523;
1277.7000;0.4843;0.7523;
1278.0000;0.4868;0.7686;
1278.3000;0.4835;0.7662;
1278.6000;0.4835;0.7639;
1278.9000;0.4786;0.7546;
1279.2000;0.4868;0.7686;
1279.5000;0.4851;0.7523;
1279.8000;0.4843;0.7477;
1280.1000;0.4860;0.7430;
1280.4000;0.4900;0.7477;
1280.7000;0.4851;0.7453;
1281.0000;0.4843;0.7407;
1281.3000;0.4794;0.7361;
1281.6000;0.4851;0.7500;
1281.9000;0.4835;0.7361;
1282.2000;0.4835;0.7244;
1282.5000;0.4908;0.7384;
1282.8000;0.4851;0.7337;
1283.1000;0.4851;0.7477;
1283.4000;0.4835;0.7477;
1283.7000;0.4827;0.7430;
1284.0000;0.4868;0.7500;
1284.3000;0.4835;0.7430;
1284.6000;0.4827;0.7523;
1284.9000;0.4843;0.7477;
1285.2000;0.4819;0.7430;
1285.5000;0.4843;0.7453;
1285.8000;0.4835;0.7500;
1286.1000;0.4827;0.7500;
1286.4000;0.4851;0.7662;
1286.7000;0.4908;0.7778;
1287.0000;0.4827;0.7523;
1287.3000;0.4819;0.7570;
1287.6000;0.4835;0.7639;
1287.9000;0.4851;0.7732;
1288.2000;0.4876;0.7662;
1288.5000;0.4851;0.7523;
1288.8000;0.4925;0.7686;
1289.1000;0.4851;0.7500;
1289.4000;0.4868;0.7593;
1289.7000;0.4860;0.7523;
1290.0000;0.4868;0.7546;
1290.3000;0.4835;0.7500;
1290.6000;0.4835;0.7546;
1290.9000;0.4851;0.7570;
1291.2000;0.4746;0.7314;
1291.5000;0.4868;0.7546;
1291.8000;0.4884;0.7570;
1292.1000;0.4843;0.7500;
1292.4000;0.4851;0.7337;
1292.7000;0.4851;0.7198;
1293.0000;0.4868;0.7268;
1293.3000;0.4843;0.7291;
1293.6000;0.4811;0.7175;
1293.9000;0.4843;0.7152;
1294.2000;0.4851;0.7152;
1294.5000;0.4827;0.7244;
1294.8000;0.4811;0.7221;
1295.1000;0.4827;0.7337;
1295.4000;0.4843;0.7430;
1295.7000;0.4827;0.7361;
1296.0000;0.4843;0.7314;
1296.3000;0.4827;0.7198;
1296.6000;0.4860;0.7337;
1296.9000;0.4851;0.7384;
1297.2000;0.4851;0.7430;
1297.5000;0.4884;0.7546;
1297.8000;0.4851;0.7384;
1298.1000;0.4835;0.7477;
1298.4000;0.4835;0.7570;
1298.7000;0.4827;0.7523;
1299.0000;0.4827;0.7500;
1299.3000;0.4827;0.7500;
1299.6000;0.4860;0.7546;
1299.9000;0.4835;0.7453;
1300.2000;0.4868;0.7570;
1300.5000;0.4892;0.7593;
1300.8000;0.4860;0.7384;
1301.1000;0.4851;0.7361;
1301.4000;0.4827;0.7337;
1301.7000;0.4900;0.7453;
1302.0000;0.4900;0.7314;
1302.3000;0.4851;0.7221;
1302.6000;0.4860;0.7128;
1302.9000;0.4843;0.7105;
1303.2000;0.4835;0.7128;
1303.5000;0.4860;0.7128;
1303.8000;0.4851;0.7128;
1304.1000;0.4819;0.7175;
1304.4000;0.4892;0.7337;
1304.7000;0.4778;0.7105;
1305.0000;0.4835;0.7221;
1305.3000;0.4827;0.7128;
1305.6000;0.4851;0.7128;
1305.9000;0.4860;0.7082;
1306.2000;0.4908;0.7082;
1306.5000;0.4851;0.7059;
1306.8000;0.4851;0.7082;
1307.1000;0.4851;0.7012;
1307.4000;0.4876;0.7175;
1307.7000;0.4851;0.7198;
1308.0000;0.4835;0.7221;
1308.3000;0.4843;0.7198;
1308.6000;0.4835;0.7198;
1308.9000;0.4843;0.7128;
1309.2000;0.4860;0.7198;
1309.5000;0.4851;0.7175;
1309.8000;0.4827;0.7175;
1310.1000;0.4851;0.7198;
1310.4000;0.4851;0.7175;
1310.7000;0.4851;0.7198;
1311.0000;0.4843;0.7244;
1311.3000;0.4843;0.7268;
1311.6000;0.4868;0.7244;
1311.9000;0.4851;0.7244;
1312.2000;0.4860;0.7268;
1312.5000;0.4884;0.7407;
1312.8000;0.4868;0.7407;
1313.1000;0.4868;0.7407;
1313.4000;0.4860;0.7430;
1313.7000;0.4868;0.7523;
1314.0000;0.4908;0.7709;
1314.3000;0.4778;0.7291;
1314.6000;0.4819;0.7314;
1314.9000;0.4892;0.7430;
1315.2000;0.4868;0.7384;
1315.5000;0.4843;0.7337;
1315.8000;0.4860;0.7337;
1316.1000;0.4851;0.7361;
1316.4000;0.4884;0.7337;
1316.7000;0.4811;0.7128;
1317.0000;0.4803;0.7128;
1317.3000;0.4860;0.7244;
1317.6000;0.4860;0.7244;
1317.9000;0.4941;0.7477;
1318.2000;0.4835;0.7128;
1318.5000;0.4803;0.7082;
1318.8000;0.4835;0.7268;
1319.1000;0.4835;0.7221;
1319.4000;0.4762;0.7082;
1319.7000;0.4851;0.7337;
1320.0000;0.4835;0.7268;
1320.3000;0.4851;0.7291;
1320.6000;0.4892;0.7453;
1320.9000;0.4835;0.7268;
1321.2000;0.4868;0.7337;
1321.5000;0.4868;0.7337;
1321.8000;0.4851;0.7314;
1322.1000;0.4876;0.7407;
1322.4000;0.4860;0.7407;
1322.7000;0.4884;0.7337;
1323.0000;0.4835;0.7198;
1323.3000;0.4851;0.7198;
1323.6000;0.4835;0.7175;
1323.9000;0.4843;0.7105;
1324.2000;0.4835;0.7059;
1324.5000;0.4851;0.7152;
1324.8000;0.4917;0.7384;
1325.1000;0.4835;0.7291;
1325.4000;0.4843;0.7314;
1325.7000;0.4860;0.7314;
1326.0000;0.4868;0.7314;
1326.3000;0.4868;0.7314;
1326.6000;0.4860;0.7361;
1326.9000;0.4851;0.7407;
1327.2000;0.4900;0.7593;
1327.5000;0.4876;0.7546;
1327.8000;0.4843;0.7453;
1328.1000;0.4827;0.7314;
1328.4000;0.4851;0.7500;
1328.7000;0.4908;0.7616;
1329.0000;0.4851;0.7384;
1329.3000;0.4851;0.7384;
1329.6000;0.4819;0.7291;
1329.9000;0.4941;0.7546;
1330.2000;0.4827;0.7268;
1330.5000;0.4851;0.7361;
1330.8000;0.4851;0.7477;
1331.1000;0.4835;0.7546;
1331.4000;0.4851;0.7616;
1331.7000;0.4851;0.7686;
1332.0000;0.4843;0.7686;
1332.3000;0.4868;0.7755;
1332.6000;0.4835;0.7616;
1332.9000;0.4843;0.7639;
1333.2000;0.4827;0.7593;
1333.5000;0.4843;0.7500;
1333.8000;0.4827;0.7523;
1334.1000;0.4851;0.7546;
1334.4000;0.4835;0.7407;
1334.7000;0.4819;0.7314;
1335.0000;0.4843;0.7361;
1335.3000;0.4835;0.7314;
1335.6000;0.4860;0.7384;
1335.9000;0.4851;0.7384;
1336.2000;0.4843;0.7337;
1336.5000;0.4892;0.7500;
1336.8000;0.4876;0.7407;
1337.1000;0.4868;0.7384;
1337.4000;0.4917;0.7337;
1337.7000;0.4868;0.7268;
1338.0000;0.4892;0.7337;
1338.3000;0.4860;0.7221;
1338.6000;0.4868;0.7268;
1338.9000;0.4835;0.7268;
1339.2000;0.4851;0.7361;
1339.5000;0.4746;0.7035;
1339.8000;0.4851;0.7337;
1340.1000;0.4843;0.7384;
1340.4000;0.4876;0.7430;
1340.7000;0.4835;0.7314;
1341.0000;0.4786;0.7268;
1341.3000;0.4843;0.7384;
1341.6000;0.4843;0.7314;
1341.9000;0.4819;0.7221;
1342.2000;0.4843;0.7407;
1342.5000;0.4868;0.7430;
1342.8000;0.4860;0.7361;
1343.1000;0.4860;0.7407;
1343.4000;0.4803;0.7291;
1343.7000;0.4811;0.7361;
1344.0000;0.4843;0.7384;
1344.3000;0.4843;0.7221;
1344.6000;0.4876;0.7337;
1344.9000;0.4892;0.7430;
1345.2000;0.4843;0.7384;
1345.5000;0.4843;0.7268;
1345.8000;0.4811;0.7105;
1346.1000;0.4835;0.7152;
1346.4000;0.4860;0.7291;
1346.7000;0.4835;0.7291;
1347.0000;0.4860;0.7361;
1347.3000;0.4851;0.7291;
1347.6000;0.4860;0.7337;
1347.9000;0.4868;0.7244;
1348.2000;0.4892;0.7407;
1348.5000;0.4860;0.7337;
1348.8000;0.4851;0.7361;
1349.1000;0.4843;0.7337;
1349.4000;0.4819;0.7291;
1349.7000;0.4851;0.7407;
1350.0000;0.4843;0.7361;
1350.3000;0.4843;0.7314;
1350.6000;0.4851;0.7337;
1350.9000;0.4843;0.7337;
1351.2000;0.4868;0.7314;
1351.5000;0.4860;0.7152;
1351.8000;0.4843;0.7012;
1352.1000;0.4860;0.7105;
1352.4000;0.4908;0.7268;
1352.7000;0.4843;0.7198;
1353.0000;0.4860;0.7221;
1353.3000;0.4843;0.7175;
1353.6000;0.4843;0.7152;
1353.9000;0.4835;0.7128;
1354.2000;0.4843;0.7152;
1354.5000;0.4860;0.7082;
1354.8000;0.4835;0.7035;
1355.1000;0.4835;0.6989;
1355.4000;0.4827;0.7035;
1355.7000;0.4851;0.6989;
1356.0000;0.4827;0.6850;
1356.3000;0.4835;0.6873;
1356.6000;0.4835;0.6826;
1356.9000;0.4835;0.6896;
1357.2000;0.4851;0.6966;
1357.5000;0.4860;0.6989;
1357.8000;0.4860;0.7012;
1358.1000;0.4860;0.7012;
1358.4000;0.4868;0.7059;
1358.7000;0.4860;0.7082;
1359.0000;0.4843;0.7152;
1359.3000;0.4860;0.7175;
1359.6000;0.4851;0.7105;
1359.9000;0.4827;0.7105;
1360.2000;0.4835;0.7128;
1360.5000;0.4851;0.7082;
1360.8000;0.4868;0.7105;
1361.1000;0.4860;0.7059;
1361.4000;0.4876;0.7105;
1361.7000;0.4835;0.7059;
1362.0000;0.4851;0.7128;
1362.3000;0.4860;0.7244;
1362.6000;0.4851;0.7291;
1362.9000;0.4884;0.7361;
1363.2000;0.4843;0.7291;
1363.5000;0.4860;0.7361;
1363.8000;0.4884;0.7337;
1364.1000;0.4860;0.7407;
1364.4000;0.4851;0.7244;
1364.7000;0.4843;0.7314;
1365.0000;0.4827;0.7221;
1365.3000;0.4827;0.7268;
1365.6000;0.4835;0.7268;
1365.9000;0.4843;0.7198;
1366.2000;0.4835;0.7175;
1366.5000;0.4835;0.7128;
1366.8000;0.4851;0.7384;
1367.1000;0.4843;0.7337;
1367.4000;0.4827;0.7314;
1367.7000;0.4843;0.7337;
1368.0000;0.4819;0.7291;
1368.3000;0.4860;0.7477;
1368.6000;0.4762;0.7268;
1368.9000;0.4851;0.7523;
1369.2000;0.4851;0.7384;
1369.5000;0.4860;0.7291;
1369.8000;0.4827;0.7244;
1370.1000;0.4868;0.7384;
1370.4000;0.4860;0.7337;
1370.7000;0.4851;0.7244;
1371.0000;0.4851;0.7314;
1371.3000;0.4843;0.7337;
1371.6000;0.4843;0.7361;
1371.9000;0.4827;0.7407;
1372.2000;0.4868;0.7407;
1372.5000;0.4868;0.7361;
1372.8000;0.4851;0.7314;
1373.1000;0.4851;0.7244;
1373.4000;0.4786;0.7128;
1373.7000;0.4876;0.7361;
1374.0000;0.4851;0.7361;
1374.3000;0.4843;0.7361;
1374.6000;0.4900;0.7407;
1374.9000;0.4803;0.7175;
1375.2000;0.4851;0.7314;
1375.5000;0.4868;0.7221;
1375.8000;0.4860;0.7198;
1376.1000;0.4860;0.7244;
1376.4000;0.4778;0.7175;
1376.7000;0.4851;0.7384;
1377.0000;0.4794;0.7244;
1377.3000;0.4860;0.7361;
1377.6000;0.4868;0.7291;
1377.9000;0.4892;0.7384;
1378.2000;0.4892;0.7500;
1378.5000;0.4884;0.7523;
1378.8000;0.4851;0.7477;
1379.1000;0.4884;0.7477;
1379.4000;0.4843;0.7384;
1379.7000;0.4851;0.7430;
1380.0000;0.4851;0.7384;
1380.3000;0.4851;0.7314;
1380.6000;0.4835;0.7291;
1380.9000;0.4884;0.7361;
1381.2000;0.4835;0.7268;
1381.5000;0.4827;0.7244;
1381.8000;0.4778;0.7105;
1382.1000;0.4835;0.7268;
1382.4000;0.4827;0.7291;
1382.7000;0.4843;0.7291;
1383.0000;0.4957;0.7570;
1383.3000;0.4851;0.7384;
1383.6000;0.4860;0.7361;
1383.9000;0.4851;0.7361;
1384.2000;0.4851;0.7430;
1384.5000;0.4851;0.7407;
1384.8000;0.4851;0.7500;
1385.1000;0.4892;0.7686;
1385.4000;0.4900;0.7732;
1385.7000;0.4843;0.7546;
1386.0000;0.4860;0.7523;
1386.3000;0.4868;0.7500;
1386.6000;0.4835;0.7407;
1386.9000;0.4819;0.7314;
1387.2000;0.4835;0.7291;
1387.5000;0.4835;0.7291;
1387.8000;0.4851;0.7314;
1388.1000;0.4851;0.7221;
1388.4000;0.4876;0.7314;
1388.7000;0.4843;0.7268;
1389.0000;0.4851;0.7384;
1389.3000;0.4843;0.7314;
1389.6000;0.4860;0.7361;
1389.9000;0.4843;0.7268;
1390.2000;0.4860;0.7244;
1390.5000;0.4819;0.7268;
1390.8000;0.4827;0.7244;
1391.1000;0.4843;0.7361;
1391.4000;0.4965;0.7732;
1391.7000;0.4851;0.7523;
1392.0000;0.4876;0.7639;
1392.3000;0.4843;0.7546;
1392.6000;0.4868;0.7639;
1392.9000;0.4876;0.7732;
1393.2000;0.4835;0.7639;
1393.5000;0.4835;0.7709;
1393.8000;0.4843;0.7709;
1394.1000;0.4860;0.7732;
1394.4000;0.4851;0.7709;
1394.7000;0.4876;0.7871;
1395.0000;0.4843;0.7755;
1395.3000;0.4851;0.7732;
1395.6000;0.4892;0.7709;
1395.9000;0.4851;0.7616;
1396.2000;0.4811;0.7523;
1396.5000;0.4843;0.7686;
1396.8000;0.4835;0.7616;
1397.1000;0.4851;0.7616;
1397.4000;0.4851;0.7593;
1397.7000;0.4754;0.7361;
1398.0000;0.4827;0.7523;
1398.3000;0.4851;0.7477;
1398.6000;0.4868;0.7500;
1398.9000;0.4884;0.7523;
1399.2000;0.4827;0.7221;
1399.5000;0.4786;0.7082;
1399.8000;0.4835;0.7244;
