time/ms;Fluo/V;P700 deltaI/I x10³;
-199.8000;0.6211;0.9357;
-199.5000;0.6162;0.9172;
-199.2000;0.6162;0.9195;
-198.9000;0.6276;0.9381;
-198.6000;0.6178;0.9195;
-198.3000;0.6178;0.9125;
-198.0000;0.6178;0.9148;
-197.7000;0.6154;0.9148;
-197.4000;0.6170;0.9102;
-197.1000;0.6178;0.9148;
-196.8000;0.6162;0.9056;
-196.5000;0.6154;0.9032;
-196.2000;0.6154;0.9056;
-195.9000;0.6178;0.9195;
-195.6000;0.6162;0.9172;
-195.3000;0.6203;0.9265;
-195.0000;0.6162;0.9125;
-194.7000;0.6154;0.9009;
-194.4000;0.6170;0.9056;
-194.1000;0.6170;0.9218;
-193.8000;0.6162;0.9125;
-193.5000;0.6170;0.9102;
-193.2000;0.6203;0.9079;
-192.9000;0.6178;0.9032;
-192.6000;0.6178;0.8986;
-192.3000;0.6162;0.9032;
-192.0000;0.6178;0.9056;
-191.7000;0.6178;0.9079;
-191.4000;0.6162;0.9009;
-191.1000;0.6162;0.8986;
-190.8000;0.6170;0.8916;
-190.5000;0.6178;0.8963;
-190.2000;0.6138;0.8870;
-189.9000;0.6154;0.8916;
-189.6000;0.6203;0.9079;
-189.3000;0.6146;0.8939;
-189.0000;0.6162;0.9009;
-188.7000;0.6268;0.9288;
-188.4000;0.6162;0.9056;
-188.1000;0.6146;0.8986;
-187.8000;0.6097;0.8939;
-187.5000;0.6121;0.8963;
-187.2000;0.6146;0.8986;
-186.9000;0.6170;0.9032;
-186.6000;0.6154;0.9032;
-186.3000;0.6268;0.9450;
-186.0000;0.6154;0.9288;
-185.7000;0.6154;0.9241;
-185.4000;0.6121;0.9241;
-185.1000;0.6146;0.9288;
-184.8000;0.6154;0.9218;
-184.5000;0.6162;0.9218;
-184.2000;0.6154;0.9195;
-183.9000;0.6162;0.9265;
-183.6000;0.6170;0.9241;
-183.3000;0.6170;0.9195;
-183.0000;0.6195;0.9195;
-182.7000;0.6195;0.9079;
-182.4000;0.6195;0.9102;
-182.1000;0.6195;0.9125;
-181.8000;0.6243;0.9265;
-181.5000;0.6162;0.9056;
-181.2000;0.6162;0.9172;
-180.9000;0.6178;0.9288;
-180.6000;0.6170;0.9195;
-180.3000;0.6170;0.9172;
-180.0000;0.6146;0.9148;
-179.7000;0.6154;0.9125;
-179.4000;0.6154;0.9172;
-179.1000;0.6162;0.9172;
-178.8000;0.6178;0.9172;
-178.5000;0.6292;0.9334;
-178.2000;0.6178;0.9009;
-177.9000;0.6154;0.8939;
-177.6000;0.6162;0.8939;
-177.3000;0.6089;0.8847;
-177.0000;0.6178;0.9079;
-176.7000;0.6178;0.9056;
-176.4000;0.6138;0.8939;
-176.1000;0.6154;0.8986;
-175.8000;0.6154;0.8986;
-175.5000;0.6162;0.9056;
-175.2000;0.6162;0.9148;
-174.9000;0.6178;0.9148;
-174.6000;0.6146;0.9056;
-174.3000;0.6129;0.9125;
-174.0000;0.6170;0.9125;
-173.7000;0.6227;0.9172;
-173.4000;0.6178;0.9102;
-173.1000;0.6146;0.9079;
-172.8000;0.6162;0.9148;
-172.5000;0.6162;0.9056;
-172.2000;0.6186;0.9056;
-171.9000;0.6195;0.9079;
-171.6000;0.6170;0.9102;
-171.3000;0.6138;0.9009;
-171.0000;0.6186;0.9148;
-170.7000;0.6170;0.9102;
-170.4000;0.6178;0.9079;
-170.1000;0.6162;0.9102;
-169.8000;0.6154;0.9102;
-169.5000;0.6162;0.9125;
-169.2000;0.6154;0.9125;
-168.9000;0.6162;0.9079;
-168.6000;0.6154;0.9032;
-168.3000;0.6195;0.9056;
-168.0000;0.6170;0.8986;
-167.7000;0.6170;0.8893;
-167.4000;0.6154;0.8823;
-167.1000;0.6178;0.8939;
-166.8000;0.6186;0.9102;
-166.5000;0.6154;0.9056;
-166.2000;0.6154;0.9009;
-165.9000;0.6170;0.9125;
-165.6000;0.6154;0.9125;
-165.3000;0.6129;0.9056;
-165.0000;0.6154;0.9125;
-164.7000;0.6162;0.9148;
-164.4000;0.6138;0.9079;
-164.1000;0.6170;0.9172;
-163.8000;0.6243;0.9357;
-163.5000;0.6138;0.9079;
-163.2000;0.6154;0.9079;
-162.9000;0.6170;0.9125;
-162.6000;0.6195;0.9241;
-162.3000;0.6178;0.9172;
-162.0000;0.6211;0.9265;
-161.7000;0.6186;0.9172;
-161.4000;0.6186;0.9102;
-161.1000;0.6162;0.9125;
-160.8000;0.6219;0.9288;
-160.5000;0.6154;0.9125;
-160.2000;0.6252;0.9265;
-159.9000;0.6203;0.9195;
-159.6000;0.6170;0.9102;
-159.3000;0.6162;0.9125;
-159.0000;0.6154;0.9102;
-158.7000;0.6186;0.9172;
-158.4000;0.6203;0.9125;
-158.1000;0.6162;0.9009;
-157.8000;0.6186;0.9079;
-157.5000;0.6195;0.9056;
-157.2000;0.6170;0.8847;
-156.9000;0.6170;0.8893;
-156.6000;0.6162;0.9032;
-156.3000;0.6154;0.9079;
-156.0000;0.6170;0.9079;
-155.7000;0.6186;0.9241;
-155.4000;0.6186;0.9311;
-155.1000;0.6162;0.9195;
-154.8000;0.6170;0.9218;
-154.5000;0.6089;0.9056;
-154.2000;0.6146;0.9218;
-153.9000;0.6276;0.9497;
-153.6000;0.6154;0.9195;
-153.3000;0.6138;0.9172;
-153.0000;0.6113;0.9125;
-152.7000;0.6146;0.9056;
-152.4000;0.6162;0.9148;
-152.1000;0.6170;0.9218;
-151.8000;0.6186;0.9265;
-151.5000;0.6170;0.9195;
-151.2000;0.6064;0.8963;
-150.9000;0.6146;0.9148;
-150.6000;0.6186;0.9241;
-150.3000;0.6162;0.9241;
-150.0000;0.6138;0.9241;
-149.7000;0.6170;0.9311;
-149.4000;0.6154;0.9311;
-149.1000;0.6097;0.9079;
-148.8000;0.6162;0.9265;
-148.5000;0.6162;0.9265;
-148.2000;0.6162;0.9195;
-147.9000;0.6162;0.9265;
-147.6000;0.6170;0.9241;
-147.3000;0.6252;0.9497;
-147.0000;0.6178;0.9381;
-146.7000;0.6170;0.9381;
-146.4000;0.6138;0.9334;
-146.1000;0.6170;0.9288;
-145.8000;0.6162;0.9334;
-145.5000;0.6178;0.9288;
-145.2000;0.6186;0.9288;
-144.9000;0.6195;0.9288;
-144.6000;0.6219;0.9334;
-144.3000;0.6162;0.9172;
-144.0000;0.6170;0.9056;
-143.7000;0.6170;0.9009;
-143.4000;0.6162;0.8939;
-143.1000;0.6170;0.8916;
-142.8000;0.6186;0.8963;
-142.5000;0.6162;0.8870;
-142.2000;0.6219;0.9056;
-141.9000;0.6162;0.9009;
-141.6000;0.6162;0.9009;
-141.3000;0.6154;0.8916;
-141.0000;0.6186;0.8870;
-140.7000;0.6170;0.8893;
-140.4000;0.6170;0.8939;
-140.1000;0.6146;0.8963;
-139.8000;0.6170;0.9056;
-139.5000;0.6170;0.9056;
-139.2000;0.6178;0.9102;
-138.9000;0.6170;0.9009;
-138.6000;0.6178;0.9125;
-138.3000;0.6170;0.9079;
-138.0000;0.6170;0.9079;
-137.7000;0.6154;0.9009;
-137.4000;0.6178;0.9102;
-137.1000;0.6154;0.9032;
-136.8000;0.6170;0.9009;
-136.5000;0.6170;0.8986;
-136.2000;0.6178;0.8893;
-135.9000;0.6178;0.8823;
-135.6000;0.6170;0.8847;
-135.3000;0.6162;0.8823;
-135.0000;0.6162;0.8847;
-134.7000;0.6195;0.8986;
-134.4000;0.6154;0.8939;
-134.1000;0.6170;0.9009;
-133.8000;0.6203;0.9079;
-133.5000;0.6162;0.8939;
-133.2000;0.6170;0.8847;
-132.9000;0.6154;0.8823;
-132.6000;0.6178;0.8847;
-132.3000;0.6129;0.8847;
-132.0000;0.6162;0.8986;
-131.7000;0.6064;0.8870;
-131.4000;0.6154;0.9125;
-131.1000;0.6195;0.9172;
-130.8000;0.6178;0.9056;
-130.5000;0.6162;0.9009;
-130.2000;0.6154;0.9032;
-129.9000;0.6178;0.9056;
-129.6000;0.6178;0.9079;
-129.3000;0.6203;0.9056;
-129.0000;0.6146;0.8963;
-128.7000;0.6170;0.9032;
-128.4000;0.6162;0.8963;
-128.1000;0.6146;0.8986;
-127.8000;0.6170;0.9009;
-127.5000;0.6162;0.8963;
-127.2000;0.6146;0.8986;
-126.9000;0.6170;0.9079;
-126.6000;0.6154;0.9056;
-126.3000;0.6170;0.9009;
-126.0000;0.6195;0.9102;
-125.7000;0.6170;0.9009;
-125.4000;0.6178;0.8939;
-125.1000;0.6170;0.9032;
-124.8000;0.6178;0.9009;
-124.5000;0.6186;0.9009;
-124.2000;0.6178;0.8986;
-123.9000;0.6170;0.9032;
-123.6000;0.6162;0.9056;
-123.3000;0.6162;0.9056;
-123.0000;0.6186;0.9102;
-122.7000;0.6162;0.9056;
-122.4000;0.6154;0.9032;
-122.1000;0.6154;0.9009;
-121.8000;0.6178;0.9009;
-121.5000;0.6170;0.8939;
-121.2000;0.6186;0.8986;
-120.9000;0.6154;0.9032;
-120.6000;0.6113;0.8847;
-120.3000;0.6170;0.8986;
-120.0000;0.6186;0.9079;
-119.7000;0.6154;0.9079;
-119.4000;0.6162;0.9125;
-119.1000;0.6227;0.9265;
-118.8000;0.6154;0.9009;
-118.5000;0.6170;0.9056;
-118.2000;0.6227;0.9241;
-117.9000;0.6178;0.9056;
-117.6000;0.6186;0.9079;
-117.3000;0.6178;0.9148;
-117.0000;0.6138;0.9056;
-116.7000;0.6154;0.9102;
-116.4000;0.6186;0.9311;
-116.1000;0.6129;0.9241;
-115.8000;0.6146;0.9265;
-115.5000;0.6178;0.9241;
-115.2000;0.6162;0.9218;
-114.9000;0.6162;0.9218;
-114.6000;0.6162;0.9056;
-114.3000;0.6129;0.8870;
-114.0000;0.6162;0.8939;
-113.7000;0.6178;0.8963;
-113.4000;0.6170;0.9056;
-113.1000;0.6162;0.9009;
-112.8000;0.6178;0.9009;
-112.5000;0.6105;0.8777;
-112.2000;0.6195;0.9009;
-111.9000;0.6162;0.9032;
-111.6000;0.6203;0.9195;
-111.3000;0.6162;0.9195;
-111.0000;0.6154;0.9218;
-110.7000;0.6154;0.9032;
-110.4000;0.6178;0.9125;
-110.1000;0.6170;0.8963;
-109.8000;0.6178;0.8916;
-109.5000;0.6178;0.9009;
-109.2000;0.6170;0.8916;
-108.9000;0.6178;0.9009;
-108.6000;0.6162;0.9102;
-108.3000;0.6186;0.9195;
-108.0000;0.6186;0.9265;
-107.7000;0.6170;0.9148;
-107.4000;0.6138;0.9125;
-107.1000;0.6162;0.9172;
-106.8000;0.6170;0.9125;
-106.5000;0.6178;0.9218;
-106.2000;0.6243;0.9357;
-105.9000;0.6162;0.9218;
-105.6000;0.6113;0.9102;
-105.3000;0.6170;0.9195;
-105.0000;0.6170;0.9102;
-104.7000;0.6162;0.9009;
-104.4000;0.6178;0.9032;
-104.1000;0.6170;0.9079;
-103.8000;0.6170;0.9125;
-103.5000;0.6138;0.9102;
-103.2000;0.6146;0.9148;
-102.9000;0.6219;0.9357;
-102.6000;0.6170;0.9311;
-102.3000;0.6195;0.9311;
-102.0000;0.6154;0.9265;
-101.7000;0.6170;0.9288;
-101.4000;0.6178;0.9241;
-101.1000;0.6072;0.8986;
-100.8000;0.6162;0.9195;
-100.5000;0.6195;0.9241;
-100.2000;0.6129;0.9079;
-99.9000;0.6170;0.9148;
-99.6000;0.6170;0.9125;
-99.3000;0.6162;0.9032;
-99.0000;0.6186;0.9056;
-98.7000;0.6170;0.9032;
-98.4000;0.6178;0.9009;
-98.1000;0.6170;0.8963;
-97.8000;0.6186;0.9172;
-97.5000;0.6162;0.9102;
-97.2000;0.6186;0.9032;
-96.9000;0.6162;0.9032;
-96.6000;0.6154;0.9125;
-96.3000;0.6170;0.9218;
-96.0000;0.6170;0.9195;
-95.7000;0.6162;0.9125;
-95.4000;0.6162;0.9125;
-95.1000;0.6170;0.9172;
-94.8000;0.6186;0.9172;
-94.5000;0.6170;0.9172;
-94.2000;0.6138;0.9079;
-93.9000;0.6186;0.9148;
-93.6000;0.6170;0.9172;
-93.3000;0.6154;0.9102;
-93.0000;0.6113;0.9032;
-92.7000;0.6162;0.9148;
-92.4000;0.6178;0.9172;
-92.1000;0.6146;0.9102;
-91.8000;0.6162;0.9079;
-91.5000;0.6162;0.9102;
-91.2000;0.6146;0.9009;
-90.9000;0.6162;0.8986;
-90.6000;0.6203;0.9079;
-90.3000;0.6138;0.8986;
-90.0000;0.6178;0.9009;
-89.7000;0.6178;0.8986;
-89.4000;0.6154;0.8916;
-89.1000;0.6178;0.8870;
-88.8000;0.6129;0.8870;
-88.5000;0.6162;0.9102;
-88.2000;0.6162;0.9056;
-87.9000;0.6178;0.9009;
-87.6000;0.6170;0.8986;
-87.3000;0.6162;0.9032;
-87.0000;0.6178;0.9079;
-86.7000;0.6170;0.9009;
-86.4000;0.6186;0.8986;
-86.1000;0.6170;0.8823;
-85.8000;0.6154;0.8754;
-85.5000;0.6178;0.8800;
-85.2000;0.6154;0.8777;
-84.9000;0.6243;0.9125;
-84.6000;0.6170;0.8916;
-84.3000;0.6235;0.9125;
-84.0000;0.6268;0.9195;
-83.7000;0.6186;0.8986;
-83.4000;0.6113;0.8823;
-83.1000;0.6162;0.8963;
-82.8000;0.6170;0.8986;
-82.5000;0.6162;0.9009;
-82.2000;0.6219;0.9125;
-81.9000;0.6178;0.9102;
-81.6000;0.6162;0.9102;
-81.3000;0.6186;0.9056;
-81.0000;0.6113;0.8916;
-80.7000;0.6170;0.9148;
-80.4000;0.6138;0.9125;
-80.1000;0.6170;0.9102;
-79.8000;0.6170;0.9172;
-79.5000;0.6170;0.9125;
-79.2000;0.6178;0.9172;
-78.9000;0.6162;0.9148;
-78.6000;0.6162;0.9172;
-78.3000;0.6121;0.9148;
-78.0000;0.6138;0.9218;
-77.7000;0.6154;0.9218;
-77.4000;0.6162;0.9241;
-77.1000;0.6260;0.9450;
-76.8000;0.6178;0.9148;
-76.5000;0.6162;0.9056;
-76.2000;0.6162;0.9125;
-75.9000;0.6162;0.9218;
-75.6000;0.6146;0.9195;
-75.3000;0.6170;0.9218;
-75.0000;0.6178;0.9218;
-74.7000;0.6252;0.9334;
-74.4000;0.6170;0.9125;
-74.1000;0.6186;0.9148;
-73.8000;0.6162;0.9079;
-73.5000;0.6195;0.9102;
-73.2000;0.6203;0.9148;
-72.9000;0.6203;0.9241;
-72.6000;0.6178;0.9241;
-72.3000;0.6170;0.9265;
-72.0000;0.6154;0.9172;
-71.7000;0.6186;0.9218;
-71.4000;0.6146;0.9195;
-71.1000;0.6162;0.9172;
-70.8000;0.6170;0.9148;
-70.5000;0.6170;0.9148;
-70.2000;0.6154;0.9009;
-69.9000;0.6203;0.9102;
-69.6000;0.6170;0.9009;
-69.3000;0.6146;0.8986;
-69.0000;0.6170;0.9032;
-68.7000;0.6178;0.9148;
-68.4000;0.6162;0.9102;
-68.1000;0.6178;0.9102;
-67.8000;0.6186;0.9032;
-67.5000;0.6178;0.9079;
-67.2000;0.6186;0.9125;
-66.9000;0.6113;0.8893;
-66.6000;0.6113;0.8986;
-66.3000;0.6154;0.9102;
-66.0000;0.6162;0.9148;
-65.7000;0.6170;0.9102;
-65.4000;0.6170;0.9056;
-65.1000;0.6154;0.8963;
-64.8000;0.6170;0.9009;
-64.5000;0.6203;0.9102;
-64.2000;0.6203;0.9032;
-63.9000;0.6195;0.9056;
-63.6000;0.6178;0.9009;
-63.3000;0.6186;0.8986;
-63.0000;0.6178;0.9009;
-62.7000;0.6129;0.8893;
-62.4000;0.6154;0.8939;
-62.1000;0.6195;0.8939;
-61.8000;0.6170;0.8870;
-61.5000;0.6170;0.8847;
-61.2000;0.6170;0.8939;
-60.9000;0.6162;0.9009;
-60.6000;0.6170;0.9032;
-60.3000;0.6186;0.9032;
-60.0000;0.6162;0.9056;
-59.7000;0.6170;0.9079;
-59.4000;0.6178;0.9032;
-59.1000;0.6178;0.9032;
-58.8000;0.6162;0.9009;
-58.5000;0.6203;0.9125;
-58.2000;0.6138;0.8870;
-57.9000;0.6129;0.8870;
-57.6000;0.6162;0.8986;
-57.3000;0.6154;0.9032;
-57.0000;0.6146;0.9032;
-56.7000;0.6154;0.9009;
-56.4000;0.6154;0.8893;
-56.1000;0.6178;0.8939;
-55.8000;0.6170;0.8939;
-55.5000;0.6186;0.9056;
-55.2000;0.6178;0.9009;
-54.9000;0.6162;0.9009;
-54.6000;0.6170;0.9056;
-54.3000;0.6178;0.9056;
-54.0000;0.6105;0.9032;
-53.7000;0.6162;0.9125;
-53.4000;0.6162;0.9125;
-53.1000;0.6170;0.9102;
-52.8000;0.6186;0.9148;
-52.5000;0.6162;0.9009;
-52.2000;0.6162;0.8963;
-51.9000;0.6170;0.9032;
-51.6000;0.6195;0.9079;
-51.3000;0.6170;0.9032;
-51.0000;0.6170;0.9032;
-50.7000;0.6170;0.9056;
-50.4000;0.6186;0.8986;
-50.1000;0.6162;0.8986;
-49.8000;0.6154;0.8986;
-49.5000;0.6170;0.8939;
-49.2000;0.6178;0.8893;
-48.9000;0.6170;0.8916;
-48.6000;0.6170;0.9056;
-48.3000;0.6170;0.9102;
-48.0000;0.6154;0.9079;
-47.7000;0.6162;0.9079;
-47.4000;0.6178;0.9056;
-47.1000;0.6113;0.8823;
-46.8000;0.6170;0.8870;
-46.5000;0.6219;0.8963;
-46.2000;0.6154;0.8823;
-45.9000;0.6178;0.8916;
-45.6000;0.6154;0.8870;
-45.3000;0.6138;0.8939;
-45.0000;0.6113;0.8823;
-44.7000;0.6227;0.9125;
-44.4000;0.6146;0.8963;
-44.1000;0.6170;0.8939;
-43.8000;0.6097;0.8823;
-43.5000;0.6154;0.8939;
-43.2000;0.6186;0.9032;
-42.9000;0.6170;0.9102;
-42.6000;0.6195;0.9102;
-42.3000;0.6162;0.9032;
-42.0000;0.6162;0.9102;
-41.7000;0.6162;0.9079;
-41.4000;0.6195;0.9079;
-41.1000;0.6178;0.9125;
-40.8000;0.6162;0.9125;
-40.5000;0.6178;0.9102;
-40.2000;0.6162;0.9148;
-39.9000;0.6162;0.9148;
-39.6000;0.6178;0.9288;
-39.3000;0.6170;0.9218;
-39.0000;0.6162;0.9172;
-38.7000;0.6146;0.9009;
-38.4000;0.6195;0.9032;
-38.1000;0.6186;0.8963;
-37.8000;0.6195;0.9009;
-37.5000;0.6211;0.9125;
-37.2000;0.6178;0.9125;
-36.9000;0.6178;0.8963;
-36.6000;0.6292;0.9334;
-36.3000;0.6195;0.9079;
-36.0000;0.6162;0.9009;
-35.7000;0.6170;0.8963;
-35.4000;0.6162;0.9009;
-35.1000;0.6178;0.9125;
-34.8000;0.6178;0.9148;
-34.5000;0.6211;0.9265;
-34.2000;0.6162;0.9125;
-33.9000;0.6170;0.9172;
-33.6000;0.6162;0.9265;
-33.3000;0.6170;0.9195;
-33.0000;0.6227;0.9148;
-32.7000;0.6170;0.9079;
-32.4000;0.6178;0.9195;
-32.1000;0.6146;0.9218;
-31.8000;0.6121;0.9172;
-31.5000;0.6170;0.9241;
-31.2000;0.6170;0.9311;
-30.9000;0.6170;0.9311;
-30.6000;0.6089;0.9218;
-30.3000;0.6162;0.9381;
-30.0000;0.6178;0.9357;
-29.7000;0.6219;0.9450;
-29.4000;0.6170;0.9334;
-29.1000;0.6056;0.9009;
-28.8000;0.6154;0.9241;
-28.5000;0.6162;0.9195;
-28.2000;0.6170;0.9172;
-27.9000;0.6227;0.9218;
-27.6000;0.6170;0.9032;
-27.3000;0.6170;0.9032;
-27.0000;0.6154;0.9009;
-26.7000;0.6195;0.9032;
-26.4000;0.6178;0.9009;
-26.1000;0.6178;0.9032;
-25.8000;0.6170;0.9009;
-25.5000;0.6129;0.8986;
-25.2000;0.6105;0.8986;
-24.9000;0.6154;0.9125;
-24.6000;0.6170;0.9125;
-24.3000;0.6162;0.9148;
-24.0000;0.6162;0.9102;
-23.7000;0.6186;0.9148;
-23.4000;0.6170;0.9125;
-23.1000;0.6227;0.9218;
-22.8000;0.6162;0.9125;
-22.5000;0.6154;0.9032;
-22.2000;0.6146;0.8963;
-21.9000;0.6178;0.8963;
-21.6000;0.6162;0.8963;
-21.3000;0.6170;0.9079;
-21.0000;0.6260;0.9357;
-20.7000;0.6162;0.9172;
-20.4000;0.6138;0.9102;
-20.1000;0.6129;0.9102;
-19.8000;0.6129;0.9172;
-19.5000;0.6178;0.9241;
-19.2000;0.6162;0.9125;
-18.9000;0.6138;0.9102;
-18.6000;0.6170;0.9079;
-18.3000;0.6178;0.9056;
-18.0000;0.6170;0.9032;
-17.7000;0.6154;0.9032;
-17.4000;0.6162;0.9125;
-17.1000;0.6154;0.9079;
-16.8000;0.6154;0.9172;
-16.5000;0.6154;0.9125;
-16.2000;0.6138;0.9009;
-15.9000;0.6178;0.9056;
-15.6000;0.6154;0.9056;
-15.3000;0.6170;0.9056;
-15.0000;0.6138;0.9009;
-14.7000;0.6170;0.9079;
-14.4000;0.6146;0.8986;
-14.1000;0.6162;0.8963;
-13.8000;0.6138;0.8893;
-13.5000;0.6162;0.8916;
-13.2000;0.6170;0.8800;
-12.9000;0.6162;0.8823;
-12.6000;0.6186;0.8939;
-12.3000;0.6138;0.8823;
-12.0000;0.6154;0.8893;
-11.7000;0.6178;0.8893;
-11.4000;0.6154;0.8893;
-11.1000;0.6162;0.8893;
-10.8000;0.6154;0.8870;
-10.5000;0.6154;0.8893;
-10.2000;0.6138;0.8893;
-9.9000;0.6162;0.9009;
-9.6000;0.6154;0.9009;
-9.3000;0.6154;0.9032;
-9.0000;0.6154;0.9009;
-8.7000;0.6211;0.9125;
-8.4000;0.6178;0.9032;
-8.1000;0.6170;0.8963;
-7.8000;0.6235;0.9102;
-7.5000;0.6146;0.8870;
-7.2000;0.6170;0.8963;
-6.9000;0.6178;0.9032;
-6.6000;0.6235;0.9265;
-6.3000;0.6138;0.9079;
-6.0000;0.6170;0.9218;
-5.7000;0.6186;0.9195;
-5.4000;0.6162;0.9079;
-5.1000;0.6186;0.9102;
-4.8000;0.6138;0.9102;
-4.5000;0.6162;0.9172;
-4.2000;0.6170;0.9079;
-3.9000;0.6178;0.9125;
-3.6000;0.6178;0.9172;
-3.3000;0.6162;0.9172;
-3.0000;0.6154;0.9125;
-2.7000;0.6170;0.9218;
-2.4000;0.6170;0.9265;
-2.1000;0.6113;0.9102;
-1.8000;0.6162;0.9241;
-1.5000;0.6186;0.9218;
-1.2000;0.6121;0.8939;
-0.9000;0.6170;0.9032;
-0.6000;0.6170;0.9102;
-0.3000;0.6154;0.9125;
0.0000;0.6154;0.9125;
0.3000;0.6162;0.9056;
0.6000;0.6203;0.9311;
0.9000;0.6211;0.9473;
1.2000;0.6243;0.9799;
1.5000;0.6243;0.9845;
1.8000;0.6309;1.0217;
2.1000;0.6276;1.0193;
2.4000;0.6292;1.0333;
2.7000;0.6292;1.0402;
3.0000;0.6260;1.0356;
3.3000;0.6300;1.0565;
3.6000;0.6309;1.0634;
3.9000;0.6309;1.0611;
4.2000;0.6325;1.0704;
4.5000;0.6317;1.0797;
4.8000;0.6317;1.0774;
5.1000;0.6325;1.0774;
5.4000;0.6325;1.0727;
5.7000;0.6325;1.0704;
6.0000;0.6341;1.0704;
6.3000;0.6309;1.0611;
6.6000;0.6325;1.0634;
6.9000;0.6357;1.0774;
7.2000;0.6357;1.0820;
7.5000;0.6333;1.0867;
7.8000;0.6365;1.0960;
8.1000;0.6349;1.0913;
8.4000;0.6357;1.0960;
8.7000;0.6357;1.0960;
9.0000;0.6365;1.0936;
9.3000;0.6357;1.0890;
9.6000;0.6317;1.0843;
9.9000;0.6325;1.0843;
10.2000;0.6374;1.0890;
10.5000;0.6349;1.0820;
10.8000;0.6349;1.0843;
11.1000;0.6349;1.0890;
11.4000;0.6382;1.1006;
11.7000;0.6349;1.0890;
12.0000;0.6390;1.0983;
12.3000;0.6398;1.1052;
12.6000;0.6431;1.1145;
12.9000;0.6398;1.1099;
13.2000;0.6390;1.1168;
13.5000;0.6406;1.1145;
13.8000;0.6276;1.0797;
14.1000;0.6390;1.0983;
14.4000;0.6325;1.0727;
14.7000;0.6406;1.0913;
15.0000;0.6325;1.0704;
15.3000;0.6463;1.1006;
15.6000;0.6414;1.0843;
15.9000;0.6406;1.0774;
16.2000;0.6447;1.0843;
16.5000;0.6414;1.0751;
16.8000;0.6382;1.0704;
17.1000;0.6398;1.0797;
17.4000;0.6341;1.0704;
17.7000;0.6414;1.0843;
18.0000;0.6431;1.0843;
18.3000;0.6422;1.0913;
18.6000;0.6431;1.0867;
18.9000;0.6439;1.0843;
19.2000;0.6479;1.0960;
19.5000;0.6455;1.0913;
19.8000;0.6431;1.0797;
20.1000;0.6488;1.0890;
20.4000;0.6431;1.0797;
20.7000;0.6439;1.0820;
21.0000;0.6471;1.0820;
21.3000;0.6455;1.0867;
21.6000;0.6447;1.0867;
21.9000;0.6447;1.0867;
22.2000;0.6447;1.0913;
22.5000;0.6439;1.0820;
22.8000;0.6463;1.0960;
23.1000;0.6431;1.0913;
23.4000;0.6463;1.0936;
23.7000;0.6439;1.0913;
24.0000;0.6439;1.0936;
24.3000;0.6463;1.0890;
24.6000;0.6455;1.0983;
24.9000;0.6471;1.1029;
25.2000;0.6463;1.0936;
25.5000;0.6455;1.0867;
25.8000;0.6431;1.1029;
26.1000;0.6439;1.0960;
26.4000;0.6471;1.0983;
26.7000;0.6479;1.1029;
27.0000;0.6431;1.0960;
27.3000;0.6447;1.1052;
27.6000;0.6447;1.1029;
27.9000;0.6455;1.1076;
28.2000;0.6455;1.1099;
28.5000;0.6447;1.1122;
28.8000;0.6463;1.1099;
29.1000;0.6398;1.0890;
29.4000;0.6479;1.1122;
29.7000;0.6447;1.0983;
30.0000;0.6447;1.0983;
30.3000;0.6463;1.1076;
30.6000;0.6471;1.1145;
30.9000;0.6496;1.1145;
31.2000;0.6471;1.1029;
31.5000;0.6479;1.1006;
31.8000;0.6471;1.1029;
32.1000;0.6520;1.1029;
32.4000;0.6463;1.0890;
32.7000;0.6479;1.0960;
33.0000;0.6455;1.0936;
33.3000;0.6488;1.0936;
33.6000;0.6479;1.0960;
33.9000;0.6488;1.1052;
34.2000;0.6488;1.0983;
34.5000;0.6479;1.0960;
34.8000;0.6455;1.0890;
35.1000;0.6471;1.0983;
35.4000;0.6479;1.0960;
35.7000;0.6488;1.1029;
36.0000;0.6471;1.0983;
36.3000;0.6488;1.0983;
36.6000;0.6479;1.0960;
36.9000;0.6455;1.1052;
37.2000;0.6488;1.1006;
37.5000;0.6471;1.1006;
37.8000;0.6512;1.1076;
38.1000;0.6439;1.0890;
38.4000;0.6463;1.0983;
38.7000;0.6471;1.1006;
39.0000;0.6479;1.1006;
39.3000;0.6496;1.1029;
39.6000;0.6488;1.0936;
39.9000;0.6479;1.0983;
40.2000;0.6463;1.1029;
40.5000;0.6504;1.1052;
40.8000;0.6496;1.1076;
41.1000;0.6479;1.1006;
41.4000;0.6504;1.1099;
41.7000;0.6488;1.1076;
42.0000;0.6471;1.1029;
42.3000;0.6496;1.0983;
42.6000;0.6504;1.1006;
42.9000;0.6504;1.1099;
43.2000;0.6496;1.1029;
43.5000;0.6504;1.1076;
43.8000;0.6528;1.1076;
44.1000;0.6504;1.1029;
44.4000;0.6520;1.1029;
44.7000;0.6479;1.0843;
45.0000;0.6439;1.0704;
45.3000;0.6512;1.0867;
45.6000;0.6512;1.0867;
45.9000;0.6504;1.0797;
46.2000;0.6512;1.0820;
46.5000;0.6479;1.0751;
46.8000;0.6504;1.0820;
47.1000;0.6463;1.0751;
47.4000;0.6488;1.0727;
47.7000;0.6479;1.0681;
48.0000;0.6463;1.0681;
48.3000;0.6414;1.0542;
48.6000;0.6512;1.0843;
48.9000;0.6512;1.0820;
49.2000;0.6504;1.0727;
49.5000;0.6496;1.0797;
49.8000;0.6488;1.0890;
50.1000;0.6512;1.0867;
50.4000;0.6496;1.0867;
50.7000;0.6504;1.0890;
51.0000;0.6504;1.0820;
51.3000;0.6479;1.0797;
51.6000;0.6496;1.0843;
51.9000;0.6561;1.0983;
52.2000;0.6528;1.0843;
52.5000;0.6488;1.0751;
52.8000;0.6488;1.0704;
53.1000;0.6496;1.0727;
53.4000;0.6520;1.0751;
53.7000;0.6512;1.0751;
54.0000;0.6504;1.0751;
54.3000;0.6496;1.0727;
54.6000;0.6536;1.0751;
54.9000;0.6520;1.0704;
55.2000;0.6520;1.0751;
55.5000;0.6536;1.0797;
55.8000;0.6512;1.0820;
56.1000;0.6512;1.0843;
56.4000;0.6463;1.0727;
56.7000;0.6504;1.0820;
57.0000;0.6520;1.0797;
57.3000;0.6479;1.0658;
57.6000;0.6512;1.0704;
57.9000;0.6504;1.0658;
58.2000;0.6496;1.0681;
58.5000;0.6488;1.0634;
58.8000;0.6496;1.0542;
59.1000;0.6512;1.0681;
59.4000;0.6504;1.0727;
59.7000;0.6504;1.0751;
60.0000;0.6553;1.0797;
60.3000;0.6504;1.0774;
60.6000;0.6512;1.0843;
60.9000;0.6504;1.0843;
61.2000;0.6471;1.0797;
61.5000;0.6496;1.0843;
61.8000;0.6447;1.0774;
62.1000;0.6463;1.0890;
62.4000;0.6496;1.1006;
62.7000;0.6496;1.0936;
63.0000;0.6512;1.0890;
63.3000;0.6520;1.0936;
63.6000;0.6520;1.0983;
63.9000;0.6520;1.0913;
64.2000;0.6422;1.0797;
64.5000;0.6488;1.0983;
64.8000;0.6512;1.0913;
65.1000;0.6528;1.0820;
65.4000;0.6512;1.0820;
65.7000;0.6536;1.0797;
66.0000;0.6520;1.0751;
66.3000;0.6520;1.0774;
66.6000;0.6512;1.0704;
66.9000;0.6520;1.0751;
67.2000;0.6512;1.0727;
67.5000;0.6528;1.0797;
67.8000;0.6545;1.0890;
68.1000;0.6455;1.0704;
68.4000;0.6504;1.0843;
68.7000;0.6471;1.0820;
69.0000;0.6496;1.0774;
69.3000;0.6512;1.0797;
69.6000;0.6569;1.0913;
69.9000;0.6496;1.0751;
70.2000;0.6536;1.0774;
70.5000;0.6528;1.0727;
70.8000;0.6463;1.0565;
71.1000;0.6512;1.0751;
71.4000;0.6528;1.0843;
71.7000;0.6528;1.0936;
72.0000;0.6545;1.0843;
72.3000;0.6512;1.0704;
72.6000;0.6455;1.0611;
72.9000;0.6488;1.0751;
73.2000;0.6439;1.0565;
73.5000;0.6504;1.0820;
73.8000;0.6504;1.0820;
74.1000;0.6520;1.0890;
74.4000;0.6536;1.0867;
74.7000;0.6496;1.0704;
75.0000;0.6512;1.0774;
75.3000;0.6496;1.0658;
75.6000;0.6496;1.0704;
75.9000;0.6512;1.0797;
76.2000;0.6520;1.0843;
76.5000;0.6488;1.0751;
76.8000;0.6512;1.0913;
77.1000;0.6512;1.0867;
77.4000;0.6553;1.0867;
77.7000;0.6520;1.0843;
78.0000;0.6512;1.0797;
78.3000;0.6488;1.0704;
78.6000;0.6536;1.0890;
78.9000;0.6520;1.0936;
79.2000;0.6528;1.0913;
79.5000;0.6512;1.0936;
79.8000;0.6520;1.0983;
80.1000;0.6520;1.0843;
80.4000;0.6553;1.0867;
80.7000;0.6504;1.0727;
81.0000;0.6496;1.0704;
81.3000;0.6528;1.0727;
81.6000;0.6528;1.0774;
81.9000;0.6504;1.0751;
82.2000;0.6512;1.0797;
82.5000;0.6471;1.0681;
82.8000;0.6634;1.1076;
83.1000;0.6512;1.0727;
83.4000;0.6520;1.0658;
83.7000;0.6488;1.0681;
84.0000;0.6512;1.0727;
84.3000;0.6488;1.0681;
84.6000;0.6496;1.0658;
84.9000;0.6536;1.0727;
85.2000;0.6528;1.0727;
85.5000;0.6504;1.0704;
85.8000;0.6504;1.0727;
86.1000;0.6520;1.0820;
86.4000;0.6528;1.0960;
86.7000;0.6536;1.1006;
87.0000;0.6536;1.0983;
87.3000;0.6520;1.0913;
87.6000;0.6520;1.0843;
87.9000;0.6553;1.0960;
88.2000;0.6520;1.0983;
88.5000;0.6536;1.1006;
88.8000;0.6471;1.0843;
89.1000;0.6536;1.1029;
89.4000;0.6520;1.0983;
89.7000;0.6488;1.0960;
90.0000;0.6536;1.1122;
90.3000;0.6512;1.0983;
90.6000;0.6561;1.1029;
90.9000;0.6545;1.1052;
91.2000;0.6520;1.0960;
91.5000;0.6553;1.1006;
91.8000;0.6553;1.0960;
92.1000;0.6545;1.0936;
92.4000;0.6504;1.0820;
92.7000;0.6488;1.0820;
93.0000;0.6585;1.1052;
93.3000;0.6520;1.0890;
93.6000;0.6520;1.0843;
93.9000;0.6471;1.0658;
94.2000;0.6520;1.0727;
94.5000;0.6504;1.0658;
94.8000;0.6496;1.0681;
95.1000;0.6504;1.0681;
95.4000;0.6504;1.0565;
95.7000;0.6447;1.0518;
96.0000;0.6512;1.0634;
96.3000;0.6504;1.0681;
96.6000;0.6569;1.0867;
96.9000;0.6504;1.0727;
97.2000;0.6512;1.0751;
97.5000;0.6504;1.0797;
97.8000;0.6528;1.0820;
98.1000;0.6536;1.0890;
98.4000;0.6520;1.0820;
98.7000;0.6520;1.0797;
99.0000;0.6520;1.0843;
99.3000;0.6512;1.0867;
99.6000;0.6528;1.0913;
99.9000;0.6512;1.0913;
100.2000;0.6520;1.0890;
100.5000;0.6528;1.0960;
100.8000;0.6528;1.0983;
101.1000;0.6536;1.1029;
101.4000;0.6528;1.1122;
101.7000;0.6536;1.1099;
102.0000;0.6536;1.1076;
102.3000;0.6528;1.1076;
102.6000;0.6545;1.1052;
102.9000;0.6553;1.0960;
103.2000;0.6536;1.0890;
103.5000;0.6520;1.0843;
103.8000;0.6496;1.0843;
104.1000;0.6569;1.1099;
104.4000;0.6528;1.0960;
104.7000;0.6512;1.0913;
105.0000;0.6479;1.0797;
105.3000;0.6528;1.0890;
105.6000;0.6455;1.0704;
105.9000;0.6512;1.0890;
106.2000;0.6504;1.0797;
106.5000;0.6512;1.0774;
106.8000;0.6512;1.0820;
107.1000;0.6512;1.0843;
107.4000;0.6504;1.0751;
107.7000;0.6520;1.0797;
108.0000;0.6512;1.0774;
108.3000;0.6463;1.0634;
108.6000;0.6504;1.0658;
108.9000;0.6610;1.1029;
109.2000;0.6439;1.0565;
109.5000;0.6496;1.0774;
109.8000;0.6479;1.0797;
110.1000;0.6504;1.0890;
110.4000;0.6447;1.0797;
110.7000;0.6528;1.1029;
111.0000;0.6528;1.1006;
111.3000;0.6536;1.0960;
111.6000;0.6512;1.0960;
111.9000;0.6496;1.1029;
112.2000;0.6512;1.1006;
112.5000;0.6512;1.0913;
112.8000;0.6504;1.0867;
113.1000;0.6553;1.0960;
113.4000;0.6512;1.0890;
113.7000;0.6528;1.0867;
114.0000;0.6496;1.0797;
114.3000;0.6496;1.0774;
114.6000;0.6504;1.0913;
114.9000;0.6528;1.0960;
115.2000;0.6528;1.1029;
115.5000;0.6488;1.0843;
115.8000;0.6520;1.0913;
116.1000;0.6471;1.0774;
116.4000;0.6512;1.0820;
116.7000;0.6504;1.0890;
117.0000;0.6536;1.1052;
117.3000;0.6520;1.1006;
117.6000;0.6512;1.0983;
117.9000;0.6463;1.0843;
118.2000;0.6504;1.0960;
118.5000;0.6528;1.0936;
118.8000;0.6520;1.0820;
119.1000;0.6504;1.0774;
119.4000;0.6512;1.0681;
119.7000;0.6569;1.0797;
120.0000;0.6504;1.0751;
120.3000;0.6520;1.0751;
120.6000;0.6512;1.0727;
120.9000;0.6488;1.0704;
121.2000;0.6512;1.0704;
121.5000;0.6504;1.0727;
121.8000;0.6512;1.0751;
122.1000;0.6528;1.0820;
122.4000;0.6536;1.0867;
122.7000;0.6520;1.0936;
123.0000;0.6536;1.0913;
123.3000;0.6545;1.0960;
123.6000;0.6512;1.0867;
123.9000;0.6536;1.0913;
124.2000;0.6536;1.0913;
124.5000;0.6520;1.0913;
124.8000;0.6545;1.0890;
125.1000;0.6528;1.0936;
125.4000;0.6520;1.0913;
125.7000;0.6512;1.0820;
126.0000;0.6528;1.0820;
126.3000;0.6528;1.0936;
126.6000;0.6545;1.1029;
126.9000;0.6504;1.1006;
127.2000;0.6504;1.1029;
127.5000;0.6520;1.1076;
127.8000;0.6528;1.1006;
128.1000;0.6528;1.1006;
128.4000;0.6512;1.1052;
128.7000;0.6675;1.1494;
129.0000;0.6520;1.1052;
129.3000;0.6520;1.1052;
129.6000;0.6512;1.1029;
129.9000;0.6512;1.0983;
130.2000;0.6512;1.1076;
130.5000;0.6496;1.1122;
130.8000;0.6488;1.1145;
131.1000;0.6520;1.1192;
131.4000;0.6455;1.1052;
131.7000;0.6496;1.1238;
132.0000;0.6618;1.1494;
132.3000;0.6504;1.1192;
132.6000;0.6504;1.1145;
132.9000;0.6512;1.1122;
133.2000;0.6488;1.0960;
133.5000;0.6504;1.0890;
133.8000;0.6520;1.1029;
134.1000;0.6512;1.1006;
134.4000;0.6626;1.1308;
134.7000;0.6504;1.1029;
135.0000;0.6512;1.1076;
135.3000;0.6520;1.0960;
135.6000;0.6496;1.0936;
135.9000;0.6504;1.0960;
136.2000;0.6512;1.0960;
136.5000;0.6520;1.0960;
136.8000;0.6512;1.0983;
137.1000;0.6512;1.0890;
137.4000;0.6512;1.0890;
137.7000;0.6528;1.0936;
138.0000;0.6536;1.1052;
138.3000;0.6528;1.1052;
138.6000;0.6528;1.1052;
138.9000;0.6536;1.1052;
139.2000;0.6536;1.1052;
139.5000;0.6520;1.0913;
139.8000;0.6520;1.0936;
140.1000;0.6520;1.0960;
140.4000;0.6520;1.0913;
140.7000;0.6561;1.1006;
141.0000;0.6520;1.0867;
141.3000;0.6496;1.0867;
141.6000;0.6520;1.0913;
141.9000;0.6512;1.0960;
142.2000;0.6528;1.1099;
142.5000;0.6520;1.1168;
142.8000;0.6528;1.1261;
143.1000;0.6431;1.1006;
143.4000;0.6512;1.1168;
143.7000;0.6561;1.1285;
144.0000;0.6512;1.1168;
144.3000;0.6528;1.1192;
144.6000;0.6512;1.1122;
144.9000;0.6512;1.1168;
145.2000;0.6520;1.1168;
145.5000;0.6512;1.1099;
145.8000;0.6520;1.1099;
146.1000;0.6447;1.0936;
146.4000;0.6528;1.1145;
146.7000;0.6512;1.1029;
147.0000;0.6520;1.1052;
147.3000;0.6504;1.1029;
147.6000;0.6528;1.1099;
147.9000;0.6528;1.0983;
148.2000;0.6536;1.0936;
148.5000;0.6528;1.0983;
148.8000;0.6528;1.0960;
149.1000;0.6520;1.0960;
149.4000;0.6536;1.1052;
149.7000;0.6479;1.0867;
150.0000;0.6504;1.0960;
150.3000;0.6512;1.0983;
150.6000;0.6504;1.1029;
150.9000;0.6536;1.1192;
151.2000;0.6504;1.1099;
151.5000;0.6512;1.1029;
151.8000;0.6512;1.1006;
152.1000;0.6528;1.1029;
152.4000;0.6512;1.0960;
152.7000;0.6512;1.0936;
153.0000;0.6585;1.1099;
153.3000;0.6512;1.0913;
153.6000;0.6520;1.0960;
153.9000;0.6504;1.0890;
154.2000;0.6512;1.0960;
154.5000;0.6512;1.1006;
154.8000;0.6479;1.0913;
155.1000;0.6488;1.1006;
155.4000;0.6512;1.1006;
155.7000;0.6479;1.0983;
156.0000;0.6488;1.1052;
156.3000;0.6504;1.0960;
156.6000;0.6520;1.0983;
156.9000;0.6520;1.0960;
157.2000;0.6536;1.0983;
157.5000;0.6520;1.0843;
157.8000;0.6520;1.0820;
158.1000;0.6553;1.0913;
158.4000;0.6536;1.0797;
158.7000;0.6520;1.0843;
159.0000;0.6512;1.0867;
159.3000;0.6528;1.0960;
159.6000;0.6536;1.1006;
159.9000;0.6528;1.0890;
160.2000;0.6520;1.0913;
160.5000;0.6479;1.0843;
160.8000;0.6528;1.0913;
161.1000;0.6496;1.0751;
161.4000;0.6512;1.0797;
161.7000;0.6553;1.0843;
162.0000;0.6488;1.0704;
162.3000;0.6512;1.0797;
162.6000;0.6536;1.0867;
162.9000;0.6512;1.0936;
163.2000;0.6626;1.1215;
163.5000;0.6520;1.0867;
163.8000;0.6520;1.0843;
164.1000;0.6512;1.0843;
164.4000;0.6520;1.0751;
164.7000;0.6455;1.0681;
165.0000;0.6496;1.0820;
165.3000;0.6536;1.0913;
165.6000;0.6585;1.1029;
165.9000;0.6520;1.0867;
166.2000;0.6561;1.1006;
166.5000;0.6471;1.0867;
166.8000;0.6479;1.0913;
167.1000;0.6553;1.1006;
167.4000;0.6512;1.0890;
167.7000;0.6504;1.0867;
168.0000;0.6585;1.1006;
168.3000;0.6528;1.0843;
168.6000;0.6504;1.0774;
168.9000;0.6545;1.0751;
169.2000;0.6504;1.0634;
169.5000;0.6520;1.0751;
169.8000;0.6512;1.0774;
170.1000;0.6406;1.0542;
170.4000;0.6488;1.0774;
170.7000;0.6520;1.0751;
171.0000;0.6520;1.0797;
171.3000;0.6504;1.0797;
171.6000;0.6520;1.0774;
171.9000;0.6479;1.0751;
172.2000;0.6512;1.0843;
172.5000;0.6512;1.0751;
172.8000;0.6520;1.0751;
173.1000;0.6447;1.0565;
173.4000;0.6528;1.0774;
173.7000;0.6520;1.0820;
174.0000;0.6488;1.0913;
174.3000;0.6504;1.0936;
174.6000;0.6528;1.0913;
174.9000;0.6463;1.0867;
175.2000;0.6504;1.0983;
175.5000;0.6512;1.0983;
175.8000;0.6520;1.1006;
176.1000;0.6504;1.1006;
176.4000;0.6520;1.1076;
176.7000;0.6496;1.1006;
177.0000;0.6463;1.0867;
177.3000;0.6512;1.0983;
177.6000;0.6504;1.0867;
177.9000;0.6496;1.0751;
178.2000;0.6536;1.0890;
178.5000;0.6520;1.0774;
178.8000;0.6512;1.0774;
179.1000;0.6504;1.0751;
179.4000;0.6512;1.0820;
179.7000;0.6504;1.0704;
180.0000;0.6528;1.0751;
180.3000;0.6577;1.0867;
180.6000;0.6496;1.0727;
180.9000;0.6520;1.0751;
181.2000;0.6512;1.0797;
181.5000;0.6512;1.0913;
181.8000;0.6512;1.0913;
182.1000;0.6520;1.0890;
182.4000;0.6512;1.0843;
182.7000;0.6512;1.0820;
183.0000;0.6512;1.0913;
183.3000;0.6512;1.0936;
183.6000;0.6512;1.0936;
183.9000;0.6504;1.0797;
184.2000;0.6520;1.0820;
184.5000;0.6496;1.0843;
184.8000;0.6512;1.0867;
185.1000;0.6520;1.0867;
185.4000;0.6512;1.0820;
185.7000;0.6504;1.0797;
186.0000;0.6504;1.0843;
186.3000;0.6488;1.0867;
186.6000;0.6496;1.0913;
186.9000;0.6569;1.1076;
187.2000;0.6504;1.0960;
187.5000;0.6447;1.0867;
187.8000;0.6520;1.1052;
188.1000;0.6479;1.0960;
188.4000;0.6528;1.1029;
188.7000;0.6528;1.0960;
189.0000;0.6520;1.0936;
189.3000;0.6520;1.1006;
189.6000;0.6479;1.0890;
189.9000;0.6504;1.0890;
190.2000;0.6520;1.0751;
190.5000;0.6414;1.0565;
190.8000;0.6545;1.0890;
191.1000;0.6520;1.0843;
191.4000;0.6528;1.0936;
191.7000;0.6512;1.0820;
192.0000;0.6520;1.0867;
192.3000;0.6504;1.0890;
192.6000;0.6520;1.0867;
192.9000;0.6512;1.0867;
193.2000;0.6520;1.0867;
193.5000;0.6512;1.0913;
193.8000;0.6504;1.0820;
194.1000;0.6471;1.0658;
194.4000;0.6504;1.0611;
194.7000;0.6496;1.0542;
195.0000;0.6545;1.0658;
195.3000;0.6488;1.0565;
195.6000;0.6471;1.0518;
195.9000;0.6496;1.0518;
196.2000;0.6504;1.0542;
196.5000;0.6512;1.0588;
196.8000;0.6512;1.0658;
197.1000;0.6479;1.0634;
197.4000;0.6512;1.0681;
197.7000;0.6488;1.0634;
198.0000;0.6504;1.0727;
198.3000;0.6488;1.0681;
198.6000;0.6447;1.0518;
198.9000;0.6520;1.0565;
199.2000;0.6512;1.0565;
199.5000;0.6520;1.0565;
199.8000;0.6528;1.0727;
200.1000;0.6512;1.0820;
200.4000;0.6520;1.0890;
200.7000;0.6463;1.0797;
201.0000;0.6504;1.0890;
201.3000;0.6471;1.0774;
201.6000;0.6512;1.0843;
201.9000;0.6536;1.0867;
202.2000;0.6577;1.0936;
202.5000;0.6520;1.0797;
202.8000;0.6610;1.1145;
203.1000;0.6536;1.0913;
203.4000;0.6504;1.0774;
203.7000;0.6528;1.0751;
204.0000;0.6536;1.0820;
204.3000;0.6520;1.0797;
204.6000;0.6512;1.0774;
204.9000;0.6553;1.0890;
205.2000;0.6585;1.1052;
205.5000;0.6528;1.0867;
205.8000;0.6512;1.0820;
206.1000;0.6512;1.0774;
206.4000;0.6520;1.0774;
206.7000;0.6496;1.0681;
207.0000;0.6512;1.0797;
207.3000;0.6536;1.0843;
207.6000;0.6496;1.0820;
207.9000;0.6520;1.0820;
208.2000;0.6536;1.0936;
208.5000;0.6512;1.0913;
208.8000;0.6512;1.1006;
209.1000;0.6520;1.1052;
209.4000;0.6496;1.1029;
209.7000;0.6512;1.1006;
210.0000;0.6520;1.0983;
210.3000;0.6463;1.0843;
210.6000;0.6520;1.0983;
210.9000;0.6520;1.0867;
211.2000;0.6496;1.0843;
211.5000;0.6431;1.0704;
211.8000;0.6520;1.0867;
212.1000;0.6520;1.0936;
212.4000;0.6520;1.0890;
212.7000;0.6496;1.0867;
213.0000;0.6471;1.0820;
213.3000;0.6479;1.0890;
213.6000;0.6504;1.0913;
213.9000;0.6496;1.0867;
214.2000;0.6528;1.1006;
214.5000;0.6496;1.0890;
214.8000;0.6496;1.0936;
215.1000;0.6512;1.0843;
215.4000;0.6512;1.0704;
215.7000;0.6496;1.0704;
216.0000;0.6471;1.0681;
216.3000;0.6512;1.0751;
216.6000;0.6512;1.0797;
216.9000;0.6520;1.0890;
217.2000;0.6553;1.1099;
217.5000;0.6496;1.1006;
217.8000;0.6479;1.0936;
218.1000;0.6496;1.0913;
218.4000;0.6512;1.0890;
218.7000;0.6496;1.0890;
219.0000;0.6488;1.0890;
219.3000;0.6496;1.0936;
219.6000;0.6512;1.0983;
219.9000;0.6520;1.0983;
220.2000;0.6504;1.0890;
220.5000;0.6471;1.0913;
220.8000;0.6496;1.1006;
221.1000;0.6512;1.1076;
221.4000;0.6504;1.1076;
221.7000;0.6528;1.1052;
222.0000;0.6528;1.1029;
222.3000;0.6520;1.0913;
222.6000;0.6545;1.0960;
222.9000;0.6512;1.0890;
223.2000;0.6536;1.0913;
223.5000;0.6504;1.0960;
223.8000;0.6536;1.1076;
224.1000;0.6512;1.1029;
224.4000;0.6496;1.0913;
224.7000;0.6479;1.0843;
225.0000;0.6520;1.1006;
225.3000;0.6528;1.1052;
225.6000;0.6520;1.1052;
225.9000;0.6512;1.1029;
226.2000;0.6577;1.1145;
226.5000;0.6504;1.0983;
226.8000;0.6504;1.0983;
227.1000;0.6496;1.1029;
227.4000;0.6471;1.0960;
227.7000;0.6553;1.1099;
228.0000;0.6463;1.0867;
228.3000;0.6504;1.1006;
228.6000;0.6520;1.0890;
228.9000;0.6471;1.0751;
229.2000;0.6488;1.0704;
229.5000;0.6520;1.0774;
229.8000;0.6520;1.0867;
230.1000;0.6553;1.0843;
230.4000;0.6512;1.0774;
230.7000;0.6520;1.0820;
231.0000;0.6536;1.0797;
231.3000;0.6536;1.0751;
231.6000;0.6512;1.0588;
231.9000;0.6520;1.0704;
232.2000;0.6496;1.0681;
232.5000;0.6520;1.0820;
232.8000;0.6512;1.0843;
233.1000;0.6504;1.0913;
233.4000;0.6504;1.1052;
233.7000;0.6496;1.0936;
234.0000;0.6488;1.0890;
234.3000;0.6512;1.0843;
234.6000;0.6496;1.0890;
234.9000;0.6520;1.1052;
235.2000;0.6520;1.0983;
235.5000;0.6512;1.0936;
235.8000;0.6504;1.0913;
236.1000;0.6528;1.1029;
236.4000;0.6504;1.1029;
236.7000;0.6512;1.0960;
237.0000;0.6488;1.1006;
237.3000;0.6512;1.1029;
237.6000;0.6504;1.0983;
237.9000;0.6471;1.0983;
238.2000;0.6528;1.1099;
238.5000;0.6488;1.0936;
238.8000;0.6512;1.0936;
239.1000;0.6520;1.0983;
239.4000;0.6479;1.0843;
239.7000;0.6520;1.0936;
240.0000;0.6496;1.0983;
240.3000;0.6488;1.0890;
240.6000;0.6504;1.0936;
240.9000;0.6504;1.0890;
241.2000;0.6561;1.1029;
241.5000;0.6585;1.1238;
241.8000;0.6520;1.1052;
242.1000;0.6496;1.1006;
242.4000;0.6512;1.1122;
242.7000;0.6520;1.1099;
243.0000;0.6504;1.0983;
243.3000;0.6463;1.0913;
243.6000;0.6496;1.1052;
243.9000;0.6520;1.1215;
244.2000;0.6439;1.1006;
244.5000;0.6512;1.1076;
244.8000;0.6496;1.0890;
245.1000;0.6520;1.0936;
245.4000;0.6512;1.0960;
245.7000;0.6512;1.0960;
246.0000;0.6414;1.0704;
246.3000;0.6536;1.0936;
246.6000;0.6496;1.0774;
246.9000;0.6471;1.0704;
247.2000;0.6504;1.0820;
247.5000;0.6504;1.0960;
247.8000;0.6512;1.0960;
248.1000;0.6553;1.1099;
248.4000;0.6488;1.1052;
248.7000;0.6496;1.1099;
249.0000;0.6439;1.0936;
249.3000;0.6520;1.1076;
249.6000;0.6512;1.1099;
249.9000;0.6512;1.1076;
250.2000;0.6512;1.1099;
250.5000;0.6496;1.0890;
250.8000;0.6471;1.0843;
251.1000;0.6496;1.0867;
251.4000;0.6488;1.0890;
251.7000;0.6496;1.1029;
252.0000;0.6463;1.0936;
252.3000;0.6479;1.0867;
252.6000;0.6512;1.1006;
252.9000;0.6496;1.0936;
253.2000;0.6496;1.0913;
253.5000;0.6479;1.0913;
253.8000;0.6496;1.0983;
254.1000;0.6496;1.0936;
254.4000;0.6504;1.0936;
254.7000;0.6488;1.0960;
255.0000;0.6512;1.1052;
255.3000;0.6488;1.0960;
255.6000;0.6496;1.0960;
255.9000;0.6504;1.1076;
256.2000;0.6512;1.1122;
256.5000;0.6520;1.1006;
256.8000;0.6512;1.1029;
257.1000;0.6496;1.1052;
257.4000;0.6528;1.1099;
257.7000;0.6504;1.1006;
258.0000;0.6504;1.0960;
258.3000;0.6488;1.0843;
258.6000;0.6488;1.0774;
258.9000;0.6512;1.0727;
259.2000;0.6520;1.0820;
259.5000;0.6512;1.0890;
259.8000;0.6496;1.0936;
260.1000;0.6512;1.1006;
260.4000;0.6488;1.1029;
260.7000;0.6488;1.1029;
261.0000;0.6520;1.1029;
261.3000;0.6479;1.0867;
261.6000;0.6610;1.1145;
261.9000;0.6512;1.0843;
262.2000;0.6528;1.0890;
262.5000;0.6504;1.0843;
262.8000;0.6488;1.0843;
263.1000;0.6512;1.0843;
263.4000;0.6471;1.0774;
263.7000;0.6463;1.0751;
264.0000;0.6479;1.0774;
264.3000;0.6488;1.0890;
264.6000;0.6471;1.0843;
264.9000;0.6479;1.0820;
265.2000;0.6496;1.0797;
265.5000;0.6536;1.0820;
265.8000;0.6520;1.0820;
266.1000;0.6520;1.0820;
266.4000;0.6504;1.0751;
266.7000;0.6496;1.0843;
267.0000;0.6471;1.0774;
267.3000;0.6520;1.0890;
267.6000;0.6488;1.0820;
267.9000;0.6504;1.0820;
268.2000;0.6512;1.0820;
268.5000;0.6422;1.0634;
268.8000;0.6520;1.0867;
269.1000;0.6488;1.0820;
269.4000;0.6504;1.0843;
269.7000;0.6496;1.0774;
270.0000;0.6504;1.0843;
270.3000;0.6504;1.0820;
270.6000;0.6528;1.0820;
270.9000;0.6512;1.0890;
271.2000;0.6504;1.0913;
271.5000;0.6512;1.0913;
271.8000;0.6512;1.0936;
272.1000;0.6504;1.0913;
272.4000;0.6488;1.0843;
272.7000;0.6593;1.1122;
273.0000;0.6577;1.1099;
273.3000;0.6496;1.0936;
273.6000;0.6520;1.1052;
273.9000;0.6488;1.0960;
274.2000;0.6504;1.1006;
274.5000;0.6512;1.1006;
274.8000;0.6488;1.1006;
275.1000;0.6528;1.1029;
275.4000;0.6512;1.1052;
275.7000;0.6488;1.1076;
276.0000;0.6479;1.1029;
276.3000;0.6512;1.1076;
276.6000;0.6520;1.1006;
276.9000;0.6488;1.0913;
277.2000;0.6496;1.0983;
277.5000;0.6496;1.0960;
277.8000;0.6479;1.0913;
278.1000;0.6496;1.0983;
278.4000;0.6496;1.0936;
278.7000;0.6504;1.0867;
279.0000;0.6504;1.0913;
279.3000;0.6512;1.0913;
279.6000;0.6504;1.0843;
279.9000;0.6504;1.0843;
280.2000;0.6488;1.0890;
280.5000;0.6463;1.0913;
280.8000;0.6528;1.1029;
281.1000;0.6504;1.0983;
281.4000;0.6488;1.0960;
281.7000;0.6496;1.0890;
282.0000;0.6593;1.1052;
282.3000;0.6512;1.0867;
282.6000;0.6545;1.0820;
282.9000;0.6512;1.0727;
283.2000;0.6496;1.0727;
283.5000;0.6496;1.0704;
283.8000;0.6488;1.0681;
284.1000;0.6488;1.0542;
284.4000;0.6504;1.0495;
284.7000;0.6447;1.0402;
285.0000;0.6496;1.0588;
285.3000;0.6479;1.0588;
285.6000;0.6504;1.0681;
285.9000;0.6553;1.0867;
286.2000;0.6504;1.0774;
286.5000;0.6488;1.0867;
286.8000;0.6504;1.0936;
287.1000;0.6520;1.0960;
287.4000;0.6528;1.0913;
287.7000;0.6512;1.0936;
288.0000;0.6463;1.0727;
288.3000;0.6504;1.0774;
288.6000;0.6488;1.0797;
288.9000;0.6504;1.0797;
289.2000;0.6455;1.0634;
289.5000;0.6504;1.0681;
289.8000;0.6520;1.0774;
290.1000;0.6504;1.0797;
290.4000;0.6504;1.0843;
290.7000;0.6520;1.0843;
291.0000;0.6561;1.0983;
291.3000;0.6504;1.0843;
291.6000;0.6512;1.0820;
291.9000;0.6504;1.0797;
292.2000;0.6520;1.0867;
292.5000;0.6471;1.0727;
292.8000;0.6504;1.0890;
293.1000;0.6512;1.0913;
293.4000;0.6479;1.0797;
293.7000;0.6504;1.0820;
294.0000;0.6504;1.0843;
294.3000;0.6504;1.0820;
294.6000;0.6512;1.0843;
294.9000;0.6569;1.0913;
295.2000;0.6496;1.0727;
295.5000;0.6479;1.0727;
295.8000;0.6455;1.0727;
296.1000;0.6496;1.0820;
296.4000;0.6512;1.0867;
296.7000;0.6488;1.0820;
297.0000;0.6431;1.0704;
297.3000;0.6496;1.0727;
297.6000;0.6504;1.0634;
297.9000;0.6545;1.0727;
298.2000;0.6406;1.0402;
298.5000;0.6504;1.0681;
298.8000;0.6512;1.0820;
299.1000;0.6488;1.0820;
299.4000;0.6504;1.0867;
299.7000;0.6520;1.0843;
300.0000;0.6512;1.0820;
300.3000;0.6479;1.0797;
300.6000;0.6488;1.0774;
300.9000;0.6488;1.0774;
301.2000;0.6504;1.0913;
301.5000;0.6520;1.0820;
301.8000;0.6504;1.0751;
302.1000;0.6488;1.0658;
302.4000;0.6488;1.0681;
302.7000;0.6520;1.0704;
303.0000;0.6479;1.0658;
303.3000;0.6488;1.0843;
303.6000;0.6488;1.0936;
303.9000;0.6455;1.0843;
304.2000;0.6496;1.0867;
304.5000;0.6496;1.0936;
304.8000;0.6496;1.0890;
305.1000;0.6488;1.0820;
305.4000;0.6496;1.0890;
305.7000;0.6471;1.0843;
306.0000;0.6496;1.0890;
306.3000;0.6504;1.0843;
306.6000;0.6463;1.0797;
306.9000;0.6471;1.0774;
307.2000;0.6463;1.0727;
307.5000;0.6390;1.0611;
307.8000;0.6488;1.0820;
308.1000;0.6471;1.0890;
308.4000;0.6479;1.0936;
308.7000;0.6496;1.0983;
309.0000;0.6488;1.0913;
309.3000;0.6528;1.0913;
309.6000;0.6479;1.0797;
309.9000;0.6512;1.0820;
310.2000;0.6520;1.0913;
310.5000;0.6504;1.0843;
310.8000;0.6496;1.0890;
311.1000;0.6488;1.0843;
311.4000;0.6471;1.0681;
311.7000;0.6504;1.0797;
312.0000;0.6488;1.0820;
312.3000;0.6488;1.0983;
312.6000;0.6455;1.0890;
312.9000;0.6504;1.0890;
313.2000;0.6471;1.0843;
313.5000;0.6504;1.0983;
313.8000;0.6512;1.1029;
314.1000;0.6488;1.0983;
314.4000;0.6479;1.1029;
314.7000;0.6504;1.0960;
315.0000;0.6496;1.0936;
315.3000;0.6593;1.1145;
315.6000;0.6455;1.0797;
315.9000;0.6496;1.0774;
316.2000;0.6512;1.0890;
316.5000;0.6569;1.1029;
316.8000;0.6504;1.0913;
317.1000;0.6488;1.0843;
317.4000;0.6520;1.0890;
317.7000;0.6496;1.0843;
318.0000;0.6496;1.0890;
318.3000;0.6512;1.0983;
318.6000;0.6463;1.0913;
318.9000;0.6398;1.0751;
319.2000;0.6455;1.0913;
319.5000;0.6488;1.1052;
319.8000;0.6471;1.0983;
320.1000;0.6463;1.0960;
320.4000;0.6471;1.1029;
320.7000;0.6431;1.0936;
321.0000;0.6488;1.1052;
321.3000;0.6390;1.0797;
321.6000;0.6488;1.0890;
321.9000;0.6553;1.0960;
322.2000;0.6536;1.0913;
322.5000;0.6496;1.0913;
322.8000;0.6528;1.1006;
323.1000;0.6520;1.1006;
323.4000;0.6479;1.0936;
323.7000;0.6455;1.0797;
324.0000;0.6479;1.0867;
324.3000;0.6488;1.0820;
324.6000;0.6496;1.0960;
324.9000;0.6488;1.0983;
325.2000;0.6512;1.1006;
325.5000;0.6496;1.0983;
325.8000;0.6463;1.0936;
326.1000;0.6471;1.1052;
326.4000;0.6504;1.1145;
326.7000;0.6479;1.1099;
327.0000;0.6520;1.1029;
327.3000;0.6504;1.1006;
327.6000;0.6488;1.1029;
327.9000;0.6463;1.0913;
328.2000;0.6528;1.0983;
328.5000;0.6520;1.0960;
328.8000;0.6496;1.0913;
329.1000;0.6512;1.0867;
329.4000;0.6520;1.0774;
329.7000;0.6504;1.0890;
330.0000;0.6504;1.0820;
330.3000;0.6496;1.0820;
330.6000;0.6512;1.0820;
330.9000;0.6520;1.0774;
331.2000;0.6463;1.0704;
331.5000;0.6488;1.0820;
331.8000;0.6488;1.0774;
332.1000;0.6496;1.0797;
332.4000;0.6512;1.0797;
332.7000;0.6479;1.0843;
333.0000;0.6496;1.0797;
333.3000;0.6512;1.0867;
333.6000;0.6488;1.0843;
333.9000;0.6479;1.0890;
334.2000;0.6479;1.0890;
334.5000;0.6504;1.0960;
334.8000;0.6496;1.0913;
335.1000;0.6496;1.0890;
335.4000;0.6455;1.0774;
335.7000;0.6479;1.0843;
336.0000;0.6504;1.0890;
336.3000;0.6496;1.0890;
336.6000;0.6463;1.0797;
336.9000;0.6479;1.0913;
337.2000;0.6504;1.1052;
337.5000;0.6536;1.1145;
337.8000;0.6536;1.1076;
338.1000;0.6471;1.0890;
338.4000;0.6479;1.0890;
338.7000;0.6455;1.0774;
339.0000;0.6488;1.0820;
339.3000;0.6455;1.0820;
339.6000;0.6463;1.0867;
339.9000;0.6512;1.0960;
340.2000;0.6528;1.1076;
340.5000;0.6479;1.0983;
340.8000;0.6496;1.1029;
341.1000;0.6488;1.1006;
341.4000;0.6479;1.0913;
341.7000;0.6479;1.0867;
342.0000;0.6479;1.0820;
342.3000;0.6447;1.0681;
342.6000;0.6455;1.0634;
342.9000;0.6479;1.0704;
343.2000;0.6471;1.0797;
343.5000;0.6504;1.0867;
343.8000;0.6504;1.0820;
344.1000;0.6479;1.0820;
344.4000;0.6488;1.0843;
344.7000;0.6512;1.0820;
345.0000;0.6520;1.0913;
345.3000;0.6488;1.0867;
345.6000;0.6479;1.0797;
345.9000;0.6479;1.0797;
346.2000;0.6471;1.0867;
346.5000;0.6471;1.0820;
346.8000;0.6471;1.0797;
347.1000;0.6488;1.0890;
347.4000;0.6512;1.0983;
347.7000;0.6496;1.1052;
348.0000;0.6471;1.1029;
348.3000;0.6479;1.1006;
348.6000;0.6496;1.0936;
348.9000;0.6496;1.0983;
349.2000;0.6471;1.1052;
349.5000;0.6496;1.1145;
349.8000;0.6496;1.1238;
350.1000;0.6504;1.1215;
350.4000;0.6488;1.1192;
350.7000;0.6512;1.1238;
351.0000;0.6488;1.1076;
351.3000;0.6512;1.1099;
351.6000;0.6479;1.1076;
351.9000;0.6488;1.1052;
352.2000;0.6504;1.1076;
352.5000;0.6496;1.1052;
352.8000;0.6504;1.1076;
353.1000;0.6496;1.1099;
353.4000;0.6488;1.1076;
353.7000;0.6496;1.1122;
354.0000;0.6496;1.1145;
354.3000;0.6504;1.1099;
354.6000;0.6488;1.1029;
354.9000;0.6463;1.1099;
355.2000;0.6504;1.1099;
355.5000;0.6512;1.1145;
355.8000;0.6488;1.1168;
356.1000;0.6463;1.1122;
356.4000;0.6496;1.1029;
356.7000;0.6479;1.0983;
357.0000;0.6536;1.1052;
357.3000;0.6471;1.0867;
357.6000;0.6496;1.0820;
357.9000;0.6455;1.0727;
358.2000;0.6479;1.0890;
358.5000;0.6447;1.0913;
358.8000;0.6504;1.1099;
359.1000;0.6504;1.1076;
359.4000;0.6504;1.1006;
359.7000;0.6512;1.1029;
360.0000;0.6496;1.1076;
360.3000;0.6512;1.1168;
360.6000;0.6528;1.1261;
360.9000;0.6504;1.1215;
361.2000;0.6439;1.1006;
361.5000;0.6504;1.1192;
361.8000;0.6479;1.1099;
362.1000;0.6585;1.1285;
362.4000;0.6488;1.1052;
362.7000;0.6471;1.0960;
363.0000;0.6479;1.1029;
363.3000;0.6479;1.1052;
363.6000;0.6479;1.1029;
363.9000;0.6479;1.1006;
364.2000;0.6455;1.0913;
364.5000;0.6479;1.0960;
364.8000;0.6479;1.0913;
365.1000;0.6488;1.0983;
365.4000;0.6504;1.1076;
365.7000;0.6398;1.0867;
366.0000;0.6479;1.0913;
366.3000;0.6488;1.0843;
366.6000;0.6504;1.0936;
366.9000;0.6496;1.1006;
367.2000;0.6488;1.0913;
367.5000;0.6471;1.0913;
367.8000;0.6414;1.0727;
368.1000;0.6504;1.0890;
368.4000;0.6471;1.0843;
368.7000;0.6471;1.0820;
369.0000;0.6496;1.0867;
369.3000;0.6479;1.0774;
369.6000;0.6488;1.0820;
369.9000;0.6471;1.0890;
370.2000;0.6488;1.0867;
370.5000;0.6496;1.0867;
370.8000;0.6479;1.0820;
371.1000;0.6479;1.0843;
371.4000;0.6488;1.0843;
371.7000;0.6520;1.0890;
372.0000;0.6520;1.0960;
372.3000;0.6471;1.0890;
372.6000;0.6496;1.0960;
372.9000;0.6488;1.0913;
373.2000;0.6471;1.0843;
373.5000;0.6488;1.0983;
373.8000;0.6488;1.1076;
374.1000;0.6463;1.1076;
374.4000;0.6488;1.1099;
374.7000;0.6479;1.1029;
375.0000;0.6496;1.1052;
375.3000;0.6512;1.1052;
375.6000;0.6512;1.1099;
375.9000;0.6488;1.1076;
376.2000;0.6488;1.1076;
376.5000;0.6479;1.1145;
376.8000;0.6463;1.1192;
377.1000;0.6512;1.1308;
377.4000;0.6463;1.1192;
377.7000;0.6439;1.1099;
378.0000;0.6520;1.1261;
378.3000;0.6471;1.1122;
378.6000;0.6479;1.1076;
378.9000;0.6488;1.1052;
379.2000;0.6479;1.0983;
379.5000;0.6471;1.0960;
379.8000;0.6463;1.0843;
380.1000;0.6479;1.0843;
380.4000;0.6488;1.0936;
380.7000;0.6488;1.0936;
381.0000;0.6471;1.0890;
381.3000;0.6447;1.0797;
381.6000;0.6488;1.0936;
381.9000;0.6488;1.0983;
382.2000;0.6536;1.1145;
382.5000;0.6439;1.0913;
382.8000;0.6488;1.1006;
383.1000;0.6471;1.0913;
383.4000;0.6463;1.0890;
383.7000;0.6479;1.0774;
384.0000;0.6536;1.0890;
384.3000;0.6447;1.0727;
384.6000;0.6479;1.0936;
384.9000;0.6479;1.0983;
385.2000;0.6479;1.0960;
385.5000;0.6488;1.0936;
385.8000;0.6488;1.0913;
386.1000;0.6496;1.0913;
386.4000;0.6479;1.0890;
386.7000;0.6496;1.0751;
387.0000;0.6512;1.0797;
387.3000;0.6496;1.0820;
387.6000;0.6488;1.0913;
387.9000;0.6455;1.0751;
388.2000;0.6479;1.0890;
388.5000;0.6455;1.0843;
388.8000;0.6463;1.0867;
389.1000;0.6471;1.0960;
389.4000;0.6496;1.1029;
389.7000;0.6504;1.0960;
390.0000;0.6479;1.0936;
390.3000;0.6488;1.0913;
390.6000;0.6488;1.0960;
390.9000;0.6463;1.0867;
391.2000;0.6504;1.0960;
391.5000;0.6496;1.0890;
391.8000;0.6479;1.0774;
392.1000;0.6365;1.0518;
392.4000;0.6455;1.0681;
392.7000;0.6471;1.0843;
393.0000;0.6496;1.0913;
393.3000;0.6471;1.0890;
393.6000;0.6471;1.0890;
393.9000;0.6479;1.0960;
394.2000;0.6471;1.0913;
394.5000;0.6488;1.0890;
394.8000;0.6479;1.0913;
395.1000;0.6496;1.0890;
395.4000;0.6463;1.0843;
395.7000;0.6471;1.0820;
396.0000;0.6496;1.0843;
396.3000;0.6488;1.0867;
396.6000;0.6463;1.0890;
396.9000;0.6496;1.0867;
397.2000;0.6504;1.0820;
397.5000;0.6504;1.0913;
397.8000;0.6488;1.0843;
398.1000;0.6504;1.0843;
398.4000;0.6463;1.0681;
398.7000;0.6536;1.0867;
399.0000;0.6463;1.0681;
399.3000;0.6496;1.0751;
399.6000;0.6512;1.0867;
399.9000;0.6496;1.0843;
400.2000;0.6504;1.0936;
400.5000;0.6488;1.0913;
400.8000;0.6496;1.1029;
401.1000;0.6496;1.1076;
401.4000;0.6479;1.1029;
401.7000;0.6479;1.1052;
402.0000;0.6496;1.1006;
402.3000;0.6520;1.1099;
402.6000;0.6504;1.1029;
402.9000;0.6479;1.1076;
403.2000;0.6545;1.1238;
403.5000;0.6488;1.1099;
403.8000;0.6504;1.1145;
404.1000;0.6439;1.0936;
404.4000;0.6455;1.1052;
404.7000;0.6504;1.1145;
405.0000;0.6496;1.1168;
405.3000;0.6488;1.1122;
405.6000;0.6496;1.1168;
405.9000;0.6496;1.1168;
406.2000;0.6496;1.1145;
406.5000;0.6447;1.1052;
406.8000;0.6488;1.1192;
407.1000;0.6488;1.1238;
407.4000;0.6496;1.1215;
407.7000;0.6488;1.1215;
408.0000;0.6512;1.1308;
408.3000;0.6496;1.1261;
408.6000;0.6455;1.1168;
408.9000;0.6504;1.1215;
409.2000;0.6496;1.1122;
409.5000;0.6479;1.1122;
409.8000;0.6488;1.1029;
410.1000;0.6390;1.0727;
410.4000;0.6488;1.1029;
410.7000;0.6463;1.1006;
411.0000;0.6471;1.1006;
411.3000;0.6504;1.1029;
411.6000;0.6496;1.1052;
411.9000;0.6520;1.1006;
412.2000;0.6471;1.0890;
412.5000;0.6488;1.0913;
412.8000;0.6520;1.0983;
413.1000;0.6496;1.0936;
413.4000;0.6553;1.1122;
413.7000;0.6512;1.1029;
414.0000;0.6504;1.0983;
414.3000;0.6561;1.1076;
414.6000;0.6488;1.0843;
414.9000;0.6447;1.0774;
415.2000;0.6545;1.1076;
415.5000;0.6471;1.1006;
415.8000;0.6455;1.1006;
416.1000;0.6479;1.0983;
416.4000;0.6447;1.0843;
416.7000;0.6585;1.1192;
417.0000;0.6479;1.1006;
417.3000;0.6488;1.1006;
417.6000;0.6488;1.0960;
417.9000;0.6463;1.1006;
418.2000;0.6496;1.1076;
418.5000;0.6479;1.1076;
418.8000;0.6463;1.0983;
419.1000;0.6479;1.1029;
419.4000;0.6471;1.0983;
419.7000;0.6471;1.0983;
420.0000;0.6463;1.1006;
420.3000;0.6479;1.0960;
420.6000;0.6488;1.1006;
420.9000;0.6471;1.0960;
421.2000;0.6479;1.1099;
421.5000;0.6496;1.1168;
421.8000;0.6479;1.1099;
422.1000;0.6496;1.1122;
422.4000;0.6488;1.1076;
422.7000;0.6553;1.1168;
423.0000;0.6496;1.1052;
423.3000;0.6479;1.1052;
423.6000;0.6422;1.0890;
423.9000;0.6479;1.0983;
424.2000;0.6488;1.0890;
424.5000;0.6488;1.0867;
424.8000;0.6463;1.0890;
425.1000;0.6479;1.0913;
425.4000;0.6488;1.0913;
425.7000;0.6520;1.1029;
426.0000;0.6488;1.0936;
426.3000;0.6528;1.1052;
426.6000;0.6479;1.0983;
426.9000;0.6455;1.0983;
427.2000;0.6496;1.1076;
427.5000;0.6471;1.1099;
427.8000;0.6496;1.1168;
428.1000;0.6496;1.1122;
428.4000;0.6471;1.0936;
428.7000;0.6463;1.0936;
429.0000;0.6471;1.0890;
429.3000;0.6496;1.0890;
429.6000;0.6496;1.0890;
429.9000;0.6479;1.0820;
430.2000;0.6455;1.0681;
430.5000;0.6479;1.0681;
430.8000;0.6455;1.0634;
431.1000;0.6439;1.0704;
431.4000;0.6463;1.0751;
431.7000;0.6496;1.0727;
432.0000;0.6479;1.0634;
432.3000;0.6447;1.0611;
432.6000;0.6496;1.0611;
432.9000;0.6479;1.0588;
433.2000;0.6455;1.0565;
433.5000;0.6471;1.0658;
433.8000;0.6520;1.0867;
434.1000;0.6479;1.0774;
434.4000;0.6496;1.0843;
434.7000;0.6496;1.0867;
435.0000;0.6471;1.0843;
435.3000;0.6504;1.0960;
435.6000;0.6463;1.0867;
435.9000;0.6455;1.0936;
436.2000;0.6504;1.1029;
436.5000;0.6447;1.0867;
436.8000;0.6398;1.0751;
437.1000;0.6479;1.0843;
437.4000;0.6471;1.0797;
437.7000;0.6496;1.0890;
438.0000;0.6488;1.0843;
438.3000;0.6545;1.0867;
438.6000;0.6455;1.0681;
438.9000;0.6496;1.0704;
439.2000;0.6471;1.0751;
439.5000;0.6488;1.0774;
439.8000;0.6512;1.0704;
440.1000;0.6496;1.0681;
440.4000;0.6471;1.0681;
440.7000;0.6479;1.0704;
441.0000;0.6447;1.0658;
441.3000;0.6496;1.0867;
441.6000;0.6471;1.0843;
441.9000;0.6488;1.0867;
442.2000;0.6496;1.0936;
442.5000;0.6471;1.0913;
442.8000;0.6479;1.0820;
443.1000;0.6479;1.0843;
443.4000;0.6504;1.0890;
443.7000;0.6488;1.0936;
444.0000;0.6488;1.0983;
444.3000;0.6496;1.0983;
444.6000;0.6471;1.0820;
444.9000;0.6471;1.0820;
445.2000;0.6520;1.0913;
445.5000;0.6471;1.0797;
445.8000;0.6471;1.0820;
446.1000;0.6463;1.0774;
446.4000;0.6479;1.0774;
446.7000;0.6447;1.0820;
447.0000;0.6512;1.0936;
447.3000;0.6504;1.0913;
447.6000;0.6504;1.0913;
447.9000;0.6471;1.0867;
448.2000;0.6479;1.0820;
448.5000;0.6422;1.0704;
448.8000;0.6463;1.0890;
449.1000;0.6447;1.0867;
449.4000;0.6496;1.0983;
449.7000;0.6463;1.0913;
450.0000;0.6479;1.0913;
450.3000;0.6439;1.0820;
450.6000;0.6455;1.0843;
450.9000;0.6479;1.0820;
451.2000;0.6471;1.0867;
451.5000;0.6504;1.0983;
451.8000;0.6463;1.0867;
452.1000;0.6471;1.0867;
452.4000;0.6471;1.0890;
452.7000;0.6488;1.0936;
453.0000;0.6471;1.0867;
453.3000;0.6414;1.0681;
453.6000;0.6479;1.0658;
453.9000;0.6479;1.0658;
454.2000;0.6488;1.0727;
454.5000;0.6463;1.0727;
454.8000;0.6479;1.0727;
455.1000;0.6439;1.0658;
455.4000;0.6414;1.0588;
455.7000;0.6463;1.0681;
456.0000;0.6479;1.0634;
456.3000;0.6471;1.0588;
456.6000;0.6471;1.0611;
456.9000;0.6471;1.0611;
457.2000;0.6471;1.0634;
457.5000;0.6471;1.0495;
457.8000;0.6536;1.0751;
458.1000;0.6488;1.0681;
458.4000;0.6479;1.0704;
458.7000;0.6512;1.0843;
459.0000;0.6463;1.0820;
459.3000;0.6488;1.0913;
459.6000;0.6463;1.0843;
459.9000;0.6479;1.0890;
460.2000;0.6504;1.0983;
460.5000;0.6471;1.0936;
460.8000;0.6479;1.1029;
461.1000;0.6471;1.0983;
461.4000;0.6479;1.0983;
461.7000;0.6471;1.1006;
462.0000;0.6463;1.1029;
462.3000;0.6479;1.1122;
462.6000;0.6488;1.1052;
462.9000;0.6479;1.1052;
463.2000;0.6471;1.1029;
463.5000;0.6488;1.0983;
463.8000;0.6447;1.0843;
464.1000;0.6479;1.0913;
464.4000;0.6488;1.0960;
464.7000;0.6479;1.1029;
465.0000;0.6479;1.1076;
465.3000;0.6488;1.1006;
465.6000;0.6471;1.0913;
465.9000;0.6463;1.0913;
466.2000;0.6471;1.0960;
466.5000;0.6463;1.0820;
466.8000;0.6455;1.0890;
467.1000;0.6471;1.0843;
467.4000;0.6463;1.0727;
467.7000;0.6471;1.0704;
468.0000;0.6455;1.0751;
468.3000;0.6463;1.0751;
468.6000;0.6471;1.0774;
468.9000;0.6479;1.0820;
469.2000;0.6479;1.0727;
469.5000;0.6398;1.0518;
469.8000;0.6479;1.0774;
470.1000;0.6463;1.0751;
470.4000;0.6455;1.0751;
470.7000;0.6463;1.0843;
471.0000;0.6463;1.0913;
471.3000;0.6488;1.0890;
471.6000;0.6463;1.0797;
471.9000;0.6471;1.0797;
472.2000;0.6479;1.0843;
472.5000;0.6479;1.0890;
472.8000;0.6447;1.0797;
473.1000;0.6455;1.0774;
473.4000;0.6414;1.0681;
473.7000;0.6471;1.0704;
474.0000;0.6471;1.0727;
474.3000;0.6463;1.0774;
474.6000;0.6447;1.0704;
474.9000;0.6422;1.0634;
475.2000;0.6406;1.0658;
475.5000;0.6488;1.0867;
475.8000;0.6479;1.0820;
476.1000;0.6455;1.0751;
476.4000;0.6479;1.0820;
476.7000;0.6463;1.0751;
477.0000;0.6471;1.0774;
477.3000;0.6471;1.0843;
477.6000;0.6479;1.0867;
477.9000;0.6414;1.0774;
478.2000;0.6479;1.0913;
478.5000;0.6431;1.0843;
478.8000;0.6431;1.0797;
479.1000;0.6504;1.0890;
479.4000;0.6479;1.0727;
479.7000;0.6479;1.0681;
480.0000;0.6488;1.0681;
480.3000;0.6455;1.0588;
480.6000;0.6463;1.0565;
480.9000;0.6455;1.0425;
481.2000;0.6471;1.0518;
481.5000;0.6488;1.0542;
481.8000;0.6471;1.0588;
482.1000;0.6471;1.0727;
482.4000;0.6488;1.0843;
482.7000;0.6431;1.0681;
483.0000;0.6479;1.0820;
483.3000;0.6479;1.0913;
483.6000;0.6431;1.0751;
483.9000;0.6471;1.0797;
484.2000;0.6471;1.0843;
484.5000;0.6463;1.0751;
484.8000;0.6471;1.0774;
485.1000;0.6439;1.0681;
485.4000;0.6471;1.0797;
485.7000;0.6447;1.0751;
486.0000;0.6463;1.0797;
486.3000;0.6439;1.0681;
486.6000;0.6479;1.0751;
486.9000;0.6488;1.0820;
487.2000;0.6471;1.0797;
487.5000;0.6447;1.0704;
487.8000;0.6479;1.0820;
488.1000;0.6463;1.0797;
488.4000;0.6471;1.0704;
488.7000;0.6455;1.0727;
489.0000;0.6471;1.0681;
489.3000;0.6479;1.0704;
489.6000;0.6455;1.0634;
489.9000;0.6463;1.0681;
490.2000;0.6463;1.0611;
490.5000;0.6463;1.0588;
490.8000;0.6463;1.0611;
491.1000;0.6455;1.0658;
491.4000;0.6463;1.0658;
491.7000;0.6455;1.0658;
492.0000;0.6447;1.0634;
492.3000;0.6463;1.0727;
492.6000;0.6414;1.0611;
492.9000;0.6463;1.0681;
493.2000;0.6471;1.0751;
493.5000;0.6512;1.0797;
493.8000;0.6463;1.0634;
494.1000;0.6463;1.0634;
494.4000;0.6488;1.0797;
494.7000;0.6488;1.0820;
495.0000;0.6463;1.0867;
495.3000;0.6471;1.0936;
495.6000;0.6463;1.0936;
495.9000;0.6471;1.0983;
496.2000;0.6488;1.0983;
496.5000;0.6439;1.0774;
496.8000;0.6463;1.0936;
497.1000;0.6488;1.0890;
497.4000;0.6471;1.0751;
497.7000;0.6463;1.0774;
498.0000;0.6488;1.0890;
498.3000;0.6471;1.0936;
498.6000;0.6479;1.0960;
498.9000;0.6471;1.0983;
499.2000;0.6471;1.0960;
499.5000;0.6471;1.1076;
499.8000;0.6488;1.1006;
500.1000;0.6463;1.0890;
500.4000;0.6463;1.0960;
500.7000;0.6471;1.0983;
501.0000;0.6463;1.0890;
501.3000;0.6471;1.0774;
501.6000;0.6463;1.0681;
501.9000;0.6488;1.0681;
502.2000;0.6471;1.0658;
502.5000;0.6463;1.0634;
502.8000;0.6439;1.0611;
503.1000;0.6488;1.0751;
503.4000;0.6488;1.0704;
503.7000;0.6455;1.0588;
504.0000;0.6455;1.0611;
504.3000;0.6447;1.0681;
504.6000;0.6488;1.0843;
504.9000;0.6471;1.0658;
505.2000;0.6471;1.0588;
505.5000;0.6471;1.0565;
505.8000;0.6471;1.0681;
506.1000;0.6463;1.0704;
506.4000;0.6471;1.0704;
506.7000;0.6455;1.0634;
507.0000;0.6479;1.0611;
507.3000;0.6455;1.0634;
507.6000;0.6479;1.0681;
507.9000;0.6463;1.0658;
508.2000;0.6479;1.0704;
508.5000;0.6463;1.0704;
508.8000;0.6488;1.0820;
509.1000;0.6463;1.0797;
509.4000;0.6479;1.0751;
509.7000;0.6463;1.0727;
510.0000;0.6471;1.0727;
510.3000;0.6479;1.0727;
510.6000;0.6463;1.0774;
510.9000;0.6479;1.0843;
511.2000;0.6496;1.0890;
511.5000;0.6463;1.0727;
511.8000;0.6488;1.0820;
512.1000;0.6479;1.0867;
512.4000;0.6479;1.0797;
512.7000;0.6488;1.0751;
513.0000;0.6479;1.0797;
513.3000;0.6479;1.0843;
513.6000;0.6512;1.0936;
513.9000;0.6479;1.1006;
514.2000;0.6536;1.1076;
514.5000;0.6488;1.0960;
514.8000;0.6471;1.0960;
515.1000;0.6488;1.1006;
515.4000;0.6455;1.0890;
515.7000;0.6479;1.0890;
516.0000;0.6488;1.0890;
516.3000;0.6471;1.0913;
516.6000;0.6520;1.1006;
516.9000;0.6479;1.0820;
517.2000;0.6357;1.0565;
517.5000;0.6471;1.0867;
517.8000;0.6471;1.0913;
518.1000;0.6463;1.1006;
518.4000;0.6463;1.0983;
518.7000;0.6431;1.0960;
519.0000;0.6406;1.0936;
519.3000;0.6463;1.1029;
519.6000;0.6422;1.0890;
519.9000;0.6471;1.0983;
520.2000;0.6479;1.1006;
520.5000;0.6471;1.1029;
520.8000;0.6447;1.1052;
521.1000;0.6447;1.1052;
521.4000;0.6463;1.1099;
521.7000;0.6479;1.1192;
522.0000;0.6488;1.1192;
522.3000;0.6463;1.1076;
522.6000;0.6463;1.1099;
522.9000;0.6455;1.1052;
523.2000;0.6471;1.1099;
523.5000;0.6455;1.1076;
523.8000;0.6479;1.1145;
524.1000;0.6463;1.1099;
524.4000;0.6455;1.1076;
524.7000;0.6479;1.1215;
525.0000;0.6488;1.1145;
525.3000;0.6374;1.0843;
525.6000;0.6512;1.1099;
525.9000;0.6479;1.1099;
526.2000;0.6471;1.1145;
526.5000;0.6585;1.1354;
526.8000;0.6479;1.1122;
527.1000;0.6463;1.0983;
527.4000;0.6463;1.0983;
527.7000;0.6390;1.0797;
528.0000;0.6455;1.1029;
528.3000;0.6439;1.1006;
528.6000;0.6455;1.0983;
528.9000;0.6455;1.1029;
529.2000;0.6463;1.1029;
529.5000;0.6455;1.0960;
529.8000;0.6496;1.0983;
530.1000;0.6455;1.0797;
530.4000;0.6463;1.0727;
530.7000;0.6431;1.0658;
531.0000;0.6471;1.0774;
531.3000;0.6455;1.0843;
531.6000;0.6479;1.0936;
531.9000;0.6471;1.0913;
532.2000;0.6463;1.0960;
532.5000;0.6463;1.0983;
532.8000;0.6479;1.1029;
533.1000;0.6471;1.1052;
533.4000;0.6455;1.1029;
533.7000;0.6447;1.1029;
534.0000;0.6463;1.1029;
534.3000;0.6471;1.1122;
534.6000;0.6463;1.1122;
534.9000;0.6447;1.1099;
535.2000;0.6471;1.1192;
535.5000;0.6463;1.1122;
535.8000;0.6463;1.1168;
536.1000;0.6463;1.1168;
536.4000;0.6471;1.1238;
536.7000;0.6455;1.1285;
537.0000;0.6471;1.1354;
537.3000;0.6471;1.1354;
537.6000;0.6463;1.1331;
537.9000;0.6455;1.1261;
538.2000;0.6447;1.1122;
538.5000;0.6439;1.1052;
538.8000;0.6455;1.1006;
539.1000;0.6455;1.0983;
539.4000;0.6488;1.0960;
539.7000;0.6463;1.1006;
540.0000;0.6504;1.1145;
540.3000;0.6488;1.1145;
540.6000;0.6471;1.1076;
540.9000;0.6382;1.0820;
541.2000;0.6431;1.0867;
541.5000;0.6447;1.0797;
541.8000;0.6463;1.0890;
542.1000;0.6471;1.0936;
542.4000;0.6447;1.0936;
542.7000;0.6455;1.1076;
543.0000;0.6463;1.1122;
543.3000;0.6447;1.1099;
543.6000;0.6439;1.0960;
543.9000;0.6488;1.1122;
544.2000;0.6488;1.1076;
544.5000;0.6488;1.1122;
544.8000;0.6463;1.1052;
545.1000;0.6496;1.0983;
545.4000;0.6471;1.0913;
545.7000;0.6479;1.0913;
546.0000;0.6374;1.0658;
546.3000;0.6447;1.0890;
546.6000;0.6455;1.0890;
546.9000;0.6479;1.0960;
547.2000;0.6528;1.1099;
547.5000;0.6545;1.1122;
547.8000;0.6463;1.0983;
548.1000;0.6496;1.1192;
548.4000;0.6471;1.1261;
548.7000;0.6488;1.1308;
549.0000;0.6496;1.1285;
549.3000;0.6447;1.1076;
549.6000;0.6455;1.1076;
549.9000;0.6455;1.1099;
550.2000;0.6479;1.1145;
550.5000;0.6479;1.1029;
550.8000;0.6488;1.0960;
551.1000;0.6479;1.0913;
551.4000;0.6479;1.0936;
551.7000;0.6471;1.0936;
552.0000;0.6471;1.0890;
552.3000;0.6463;1.0843;
552.6000;0.6471;1.0797;
552.9000;0.6463;1.0843;
553.2000;0.6479;1.0960;
553.5000;0.6463;1.0913;
553.8000;0.6414;1.0751;
554.1000;0.6455;1.0867;
554.4000;0.6463;1.0913;
554.7000;0.6463;1.0936;
555.0000;0.6463;1.0960;
555.3000;0.6463;1.0913;
555.6000;0.6471;1.1076;
555.9000;0.6479;1.1006;
556.2000;0.6455;1.0960;
556.5000;0.6455;1.1006;
556.8000;0.6463;1.0983;
557.1000;0.6471;1.0983;
557.4000;0.6463;1.0960;
557.7000;0.6471;1.0983;
558.0000;0.6471;1.1006;
558.3000;0.6455;1.0960;
558.6000;0.6463;1.0983;
558.9000;0.6471;1.0960;
559.2000;0.6479;1.0960;
559.5000;0.6479;1.1076;
559.8000;0.6479;1.1029;
560.1000;0.6479;1.1052;
560.4000;0.6455;1.1029;
560.7000;0.6455;1.1099;
561.0000;0.6463;1.1168;
561.3000;0.6455;1.1145;
561.6000;0.6463;1.1215;
561.9000;0.6479;1.1238;
562.2000;0.6463;1.1076;
562.5000;0.6488;1.1099;
562.8000;0.6463;1.0983;
563.1000;0.6577;1.1238;
563.4000;0.6471;1.0960;
563.7000;0.6414;1.0751;
564.0000;0.6422;1.0658;
564.3000;0.6422;1.0681;
564.6000;0.6463;1.0820;
564.9000;0.6471;1.0797;
565.2000;0.6463;1.0751;
565.5000;0.6431;1.0611;
565.8000;0.6447;1.0681;
566.1000;0.6447;1.0820;
566.4000;0.6455;1.0843;
566.7000;0.6463;1.0820;
567.0000;0.6463;1.0936;
567.3000;0.6479;1.1006;
567.6000;0.6479;1.0960;
567.9000;0.6479;1.1006;
568.2000;0.6414;1.0890;
568.5000;0.6463;1.1029;
568.8000;0.6463;1.1052;
569.1000;0.6536;1.1145;
569.4000;0.6455;1.1029;
569.7000;0.6463;1.1145;
570.0000;0.6488;1.1168;
570.3000;0.6545;1.1215;
570.6000;0.6447;1.1006;
570.9000;0.6520;1.1122;
571.2000;0.6479;1.1052;
571.5000;0.6455;1.1006;
571.8000;0.6463;1.1052;
572.1000;0.6439;1.1006;
572.4000;0.6406;1.0960;
572.7000;0.6455;1.0983;
573.0000;0.6447;1.0843;
573.3000;0.6414;1.0774;
573.6000;0.6431;1.0843;
573.9000;0.6455;1.0936;
574.2000;0.6504;1.0960;
574.5000;0.6463;1.0797;
574.8000;0.6479;1.0867;
575.1000;0.6479;1.0936;
575.4000;0.6479;1.0913;
575.7000;0.6414;1.0797;
576.0000;0.6471;1.1006;
576.3000;0.6439;1.0936;
576.6000;0.6414;1.0797;
576.9000;0.6447;1.0820;
577.2000;0.6431;1.0913;
577.5000;0.6463;1.0983;
577.8000;0.6414;1.0843;
578.1000;0.6455;1.0913;
578.4000;0.6471;1.0960;
578.7000;0.6455;1.0983;
579.0000;0.6455;1.1029;
579.3000;0.6447;1.0936;
579.6000;0.6471;1.0936;
579.9000;0.6463;1.0983;
580.2000;0.6455;1.0983;
580.5000;0.6455;1.0913;
580.8000;0.6439;1.0960;
581.1000;0.6479;1.0936;
581.4000;0.6488;1.1006;
581.7000;0.6455;1.0913;
582.0000;0.6463;1.1029;
582.3000;0.6488;1.1076;
582.6000;0.6463;1.1052;
582.9000;0.6447;1.0983;
583.2000;0.6463;1.0983;
583.5000;0.6463;1.0960;
583.8000;0.6479;1.1006;
584.1000;0.6471;1.0890;
584.4000;0.6463;1.0843;
584.7000;0.6463;1.0913;
585.0000;0.6398;1.0727;
585.3000;0.6455;1.0797;
585.6000;0.6455;1.0820;
585.9000;0.6471;1.0867;
586.2000;0.6479;1.0890;
586.5000;0.6536;1.1076;
586.8000;0.6439;1.0890;
587.1000;0.6439;1.0936;
587.4000;0.6463;1.0913;
587.7000;0.6471;1.0890;
588.0000;0.6455;1.0913;
588.3000;0.6463;1.1006;
588.6000;0.6496;1.1029;
588.9000;0.6479;1.0983;
589.2000;0.6431;1.0890;
589.5000;0.6422;1.0867;
589.8000;0.6463;1.0890;
590.1000;0.6439;1.0820;
590.4000;0.6447;1.0867;
590.7000;0.6545;1.1099;
591.0000;0.6488;1.0960;
591.3000;0.6463;1.0867;
591.6000;0.6471;1.0936;
591.9000;0.6471;1.0983;
592.2000;0.6422;1.0867;
592.5000;0.6471;1.0890;
592.8000;0.6479;1.0797;
593.1000;0.6463;1.0681;
593.4000;0.6471;1.0820;
593.7000;0.6447;1.0820;
594.0000;0.6496;1.0983;
594.3000;0.6512;1.1122;
594.6000;0.6455;1.0960;
594.9000;0.6471;1.0983;
595.2000;0.6455;1.0983;
595.5000;0.6431;1.0960;
595.8000;0.6471;1.1029;
596.1000;0.6439;1.1006;
596.4000;0.6439;1.0913;
596.7000;0.6463;1.0960;
597.0000;0.6463;1.0913;
597.3000;0.6569;1.1099;
597.6000;0.6447;1.0820;
597.9000;0.6471;1.0960;
598.2000;0.6463;1.0867;
598.5000;0.6447;1.0843;
598.8000;0.6447;1.0890;
599.1000;0.6455;1.0960;
599.4000;0.6455;1.1122;
599.7000;0.6455;1.1122;
600.0000;0.6496;1.1168;
600.3000;0.6471;1.0890;
600.6000;0.6479;1.0751;
600.9000;0.6455;1.0495;
601.2000;0.6463;1.0472;
601.5000;0.6422;1.0356;
601.8000;0.6406;1.0193;
602.1000;0.6374;1.0008;
602.4000;0.6325;0.9891;
602.7000;0.6292;0.9706;
603.0000;0.6276;0.9613;
603.3000;0.6235;0.9543;
603.6000;0.6203;0.9427;
603.9000;0.6178;0.9450;
604.2000;0.6170;0.9450;
604.5000;0.6138;0.9311;
604.8000;0.6121;0.9288;
605.1000;0.6072;0.9195;
605.4000;0.6048;0.9056;
605.7000;0.5999;0.8916;
606.0000;0.6040;0.9102;
606.3000;0.5967;0.8870;
606.6000;0.5967;0.8893;
606.9000;0.5975;0.8893;
607.2000;0.5983;0.8847;
607.5000;0.5918;0.8754;
607.8000;0.5885;0.8684;
608.1000;0.5861;0.8591;
608.4000;0.5877;0.8591;
608.7000;0.5869;0.8521;
609.0000;0.5796;0.8336;
609.3000;0.5820;0.8475;
609.6000;0.5820;0.8498;
609.9000;0.5779;0.8475;
610.2000;0.5771;0.8498;
610.5000;0.5747;0.8359;
610.8000;0.5747;0.8382;
611.1000;0.5788;0.8405;
611.4000;0.5771;0.8452;
611.7000;0.5739;0.8382;
612.0000;0.5714;0.8359;
612.3000;0.5641;0.8243;
612.6000;0.5633;0.8266;
612.9000;0.5674;0.8452;
613.2000;0.5682;0.8498;
613.5000;0.5641;0.8452;
613.8000;0.5608;0.8405;
614.1000;0.5617;0.8521;
614.4000;0.5608;0.8498;
614.7000;0.5633;0.8498;
615.0000;0.5592;0.8289;
615.3000;0.5584;0.8429;
615.6000;0.5584;0.8452;
615.9000;0.5568;0.8429;
616.2000;0.5576;0.8545;
616.5000;0.5551;0.8498;
616.8000;0.5551;0.8498;
617.1000;0.5551;0.8475;
617.4000;0.5503;0.8382;
617.7000;0.5551;0.8498;
618.0000;0.5519;0.8405;
618.3000;0.5608;0.8568;
618.6000;0.5527;0.8405;
618.9000;0.5511;0.8243;
619.2000;0.5495;0.8150;
619.5000;0.5486;0.8220;
619.8000;0.5429;0.8127;
620.1000;0.5478;0.8289;
620.4000;0.5478;0.8313;
620.7000;0.5470;0.8382;
621.0000;0.5462;0.8382;
621.3000;0.5584;0.8707;
621.6000;0.5454;0.8429;
621.9000;0.5429;0.8429;
622.2000;0.5438;0.8405;
622.5000;0.5429;0.8313;
622.8000;0.5413;0.8220;
623.1000;0.5429;0.8243;
623.4000;0.5421;0.8289;
623.7000;0.5478;0.8429;
624.0000;0.5413;0.8289;
624.3000;0.5389;0.8243;
624.6000;0.5405;0.8313;
624.9000;0.5405;0.8359;
625.2000;0.5364;0.8220;
625.5000;0.5381;0.8173;
625.8000;0.5372;0.8173;
626.1000;0.5397;0.8266;
626.4000;0.5381;0.8220;
626.7000;0.5356;0.8266;
627.0000;0.5348;0.8313;
627.3000;0.5348;0.8336;
627.6000;0.5324;0.8313;
627.9000;0.5348;0.8359;
628.2000;0.5299;0.8289;
628.5000;0.5340;0.8382;
628.8000;0.5332;0.8336;
629.1000;0.5324;0.8289;
629.4000;0.5283;0.8289;
629.7000;0.5324;0.8359;
630.0000;0.5315;0.8359;
630.3000;0.5315;0.8359;
630.6000;0.5283;0.8336;
630.9000;0.5364;0.8568;
631.2000;0.5340;0.8614;
631.5000;0.5275;0.8382;
631.8000;0.5267;0.8313;
632.1000;0.5267;0.8289;
632.4000;0.5275;0.8289;
632.7000;0.5258;0.8266;
633.0000;0.5275;0.8359;
633.3000;0.5267;0.8382;
633.6000;0.5226;0.8313;
633.9000;0.5267;0.8405;
634.2000;0.5210;0.8266;
634.5000;0.5242;0.8313;
634.8000;0.5299;0.8498;
635.1000;0.5218;0.8313;
635.4000;0.5226;0.8313;
635.7000;0.5250;0.8313;
636.0000;0.5226;0.8243;
636.3000;0.5210;0.8173;
636.6000;0.5201;0.8196;
636.9000;0.5242;0.8359;
637.2000;0.5201;0.8220;
637.5000;0.5218;0.8243;
637.8000;0.5210;0.8243;
638.1000;0.5193;0.8220;
638.4000;0.5218;0.8313;
638.7000;0.5169;0.8173;
639.0000;0.5169;0.8127;
639.3000;0.5169;0.8127;
639.6000;0.5193;0.8127;
639.9000;0.5161;0.8173;
640.2000;0.5201;0.8220;
640.5000;0.5177;0.8220;
640.8000;0.5177;0.8266;
641.1000;0.5169;0.8313;
641.4000;0.5169;0.8289;
641.7000;0.5161;0.8289;
642.0000;0.5161;0.8243;
642.3000;0.5185;0.8266;
642.6000;0.5144;0.8196;
642.9000;0.5210;0.8405;
643.2000;0.5055;0.7941;
643.5000;0.5136;0.8104;
643.8000;0.5210;0.8266;
644.1000;0.5128;0.8080;
644.4000;0.5153;0.8150;
644.7000;0.5136;0.8127;
645.0000;0.5144;0.8104;
645.3000;0.5144;0.8196;
645.6000;0.5201;0.8313;
645.9000;0.5136;0.8336;
646.2000;0.5112;0.8336;
646.5000;0.5120;0.8382;
646.8000;0.5079;0.8266;
647.1000;0.5112;0.8289;
647.4000;0.5120;0.8313;
647.7000;0.5104;0.8336;
648.0000;0.5096;0.8289;
648.3000;0.5185;0.8429;
648.6000;0.5128;0.8359;
648.9000;0.5128;0.8545;
649.2000;0.5096;0.8405;
649.5000;0.5112;0.8382;
649.8000;0.5071;0.8359;
650.1000;0.5120;0.8405;
650.4000;0.5104;0.8405;
650.7000;0.5088;0.8313;
651.0000;0.5071;0.8266;
651.3000;0.5096;0.8405;
651.6000;0.5079;0.8429;
651.9000;0.5071;0.8382;
652.2000;0.5071;0.8382;
652.5000;0.5079;0.8405;
652.8000;0.5096;0.8336;
653.1000;0.5104;0.8452;
653.4000;0.5063;0.8289;
653.7000;0.5071;0.8266;
654.0000;0.5071;0.8266;
654.3000;0.5071;0.8266;
654.6000;0.5071;0.8243;
654.9000;0.5079;0.8196;
655.2000;0.5063;0.8127;
655.5000;0.5063;0.8173;
655.8000;0.5120;0.8359;
656.1000;0.5022;0.8313;
656.4000;0.5047;0.8336;
656.7000;0.5047;0.8313;
657.0000;0.5047;0.8313;
657.3000;0.5014;0.8266;
657.6000;0.5014;0.8289;
657.9000;0.5039;0.8359;
658.2000;0.4982;0.8289;
658.5000;0.5022;0.8336;
658.8000;0.4965;0.8173;
659.1000;0.5014;0.8289;
659.4000;0.4974;0.8173;
659.7000;0.5022;0.8313;
660.0000;0.5014;0.8289;
660.3000;0.5022;0.8336;
660.6000;0.5031;0.8243;
660.9000;0.5014;0.8243;
661.2000;0.4998;0.8220;
661.5000;0.5014;0.8196;
661.8000;0.5006;0.8080;
662.1000;0.5006;0.7987;
662.4000;0.5039;0.8104;
662.7000;0.4949;0.7848;
663.0000;0.5014;0.8104;
663.3000;0.4974;0.8011;
663.6000;0.4998;0.8150;
663.9000;0.4982;0.8034;
664.2000;0.5014;0.8150;
664.5000;0.5022;0.8266;
664.8000;0.5006;0.8266;
665.1000;0.5055;0.8405;
665.4000;0.5006;0.8243;
665.7000;0.5006;0.8243;
666.0000;0.5006;0.8150;
666.3000;0.4974;0.8011;
666.6000;0.4990;0.8057;
666.9000;0.5006;0.8057;
667.2000;0.5079;0.8266;
667.5000;0.4974;0.7941;
667.8000;0.4957;0.8011;
668.1000;0.4982;0.8080;
668.4000;0.5063;0.8266;
668.7000;0.4990;0.8080;
669.0000;0.4982;0.8196;
669.3000;0.4982;0.8289;
669.6000;0.4998;0.8220;
669.9000;0.4974;0.8196;
670.2000;0.4974;0.8150;
670.5000;0.4965;0.8196;
670.8000;0.4974;0.8127;
671.1000;0.4957;0.8080;
671.4000;0.4949;0.8173;
671.7000;0.4965;0.8196;
672.0000;0.4982;0.8196;
672.3000;0.4925;0.8104;
672.6000;0.4949;0.8104;
672.9000;0.4982;0.8220;
673.2000;0.4917;0.8127;
673.5000;0.4949;0.8196;
673.8000;0.4941;0.8196;
674.1000;0.4917;0.8150;
674.4000;0.4957;0.8173;
674.7000;0.4974;0.8266;
675.0000;0.4941;0.8243;
675.3000;0.4965;0.8359;
675.6000;0.4974;0.8336;
675.9000;0.4941;0.8266;
676.2000;0.4965;0.8382;
676.5000;0.4949;0.8336;
676.8000;0.4933;0.8243;
677.1000;0.4949;0.8104;
677.4000;0.4949;0.8104;
677.7000;0.4933;0.8104;
678.0000;0.4933;0.8104;
678.3000;0.4965;0.8173;
678.6000;0.4925;0.8104;
678.9000;0.4925;0.8150;
679.2000;0.4933;0.8220;
679.5000;0.4949;0.8196;
679.8000;0.4933;0.8196;
680.1000;0.4990;0.8452;
680.4000;0.4925;0.8289;
680.7000;0.4925;0.8196;
681.0000;0.4876;0.7987;
681.3000;0.4925;0.8127;
681.6000;0.4917;0.8266;
681.9000;0.4908;0.8173;
682.2000;0.4998;0.8359;
682.5000;0.4965;0.8382;
682.8000;0.4917;0.8196;
683.1000;0.4925;0.8173;
683.4000;0.4876;0.8104;
683.7000;0.4925;0.8243;
684.0000;0.4957;0.8336;
684.3000;0.4941;0.8382;
684.6000;0.4892;0.8266;
684.9000;0.5047;0.8638;
685.2000;0.4949;0.8382;
685.5000;0.4900;0.8289;
685.8000;0.4908;0.8313;
686.1000;0.4884;0.8220;
686.4000;0.4917;0.8196;
686.7000;0.4892;0.8220;
687.0000;0.4884;0.8196;
687.3000;0.4908;0.8289;
687.6000;0.4908;0.8382;
687.9000;0.4892;0.8266;
688.2000;0.4965;0.8452;
688.5000;0.4908;0.8313;
688.8000;0.4917;0.8405;
689.1000;0.4941;0.8429;
689.4000;0.4908;0.8336;
689.7000;0.4900;0.8359;
690.0000;0.4908;0.8405;
690.3000;0.4835;0.8173;
690.6000;0.4892;0.8289;
690.9000;0.4892;0.8313;
691.2000;0.4941;0.8405;
691.5000;0.4884;0.8289;
691.8000;0.4892;0.8336;
692.1000;0.4884;0.8336;
692.4000;0.4900;0.8429;
692.7000;0.4892;0.8313;
693.0000;0.4892;0.8359;
693.3000;0.4876;0.8289;
693.6000;0.4876;0.8266;
693.9000;0.4990;0.8521;
694.2000;0.4876;0.8289;
694.5000;0.4884;0.8313;
694.8000;0.4884;0.8313;
695.1000;0.4900;0.8452;
695.4000;0.4892;0.8475;
695.7000;0.4990;0.8661;
696.0000;0.4908;0.8359;
696.3000;0.4900;0.8266;
696.6000;0.4900;0.8289;
696.9000;0.4860;0.8127;
697.2000;0.4860;0.8220;
697.5000;0.4876;0.8313;
697.8000;0.4843;0.8266;
698.1000;0.4868;0.8313;
698.4000;0.4876;0.8429;
698.7000;0.4868;0.8405;
699.0000;0.4884;0.8452;
699.3000;0.4892;0.8429;
699.6000;0.4860;0.8405;
699.9000;0.4876;0.8452;
700.2000;0.4892;0.8475;
700.5000;0.4868;0.8405;
700.8000;0.4868;0.8382;
701.1000;0.4876;0.8429;
701.4000;0.4835;0.8359;
701.7000;0.4868;0.8498;
702.0000;0.4868;0.8475;
702.3000;0.4851;0.8498;
702.6000;0.4868;0.8591;
702.9000;0.4941;0.8847;
703.2000;0.4884;0.8684;
703.5000;0.4835;0.8521;
703.8000;0.4851;0.8429;
704.1000;0.4835;0.8429;
704.4000;0.4860;0.8475;
704.7000;0.4811;0.8359;
705.0000;0.4827;0.8359;
705.3000;0.4803;0.8266;
705.6000;0.4860;0.8313;
705.9000;0.4876;0.8405;
706.2000;0.4843;0.8289;
706.5000;0.4835;0.8289;
706.8000;0.4851;0.8313;
707.1000;0.4851;0.8313;
707.4000;0.4851;0.8452;
707.7000;0.4965;0.8777;
708.0000;0.4900;0.8684;
708.3000;0.4965;0.8870;
708.6000;0.4851;0.8521;
708.9000;0.4762;0.8289;
709.2000;0.4835;0.8498;
709.5000;0.4843;0.8545;
709.8000;0.4835;0.8498;
710.1000;0.4835;0.8452;
710.4000;0.4794;0.8475;
710.7000;0.4835;0.8545;
711.0000;0.4892;0.8591;
711.3000;0.4884;0.8591;
711.6000;0.4827;0.8475;
711.9000;0.4827;0.8545;
712.2000;0.4835;0.8661;
712.5000;0.4868;0.8707;
712.8000;0.4843;0.8638;
713.1000;0.4851;0.8661;
713.4000;0.4835;0.8591;
713.7000;0.4827;0.8498;
714.0000;0.4835;0.8545;
714.3000;0.4843;0.8638;
714.6000;0.4843;0.8661;
714.9000;0.4835;0.8638;
715.2000;0.4843;0.8661;
715.5000;0.4827;0.8591;
715.8000;0.4827;0.8614;
716.1000;0.4835;0.8521;
716.4000;0.4843;0.8614;
716.7000;0.4819;0.8545;
717.0000;0.4851;0.8498;
717.3000;0.4835;0.8429;
717.6000;0.4835;0.8359;
717.9000;0.4835;0.8405;
718.2000;0.4803;0.8336;
718.5000;0.4819;0.8289;
718.8000;0.4811;0.8289;
719.1000;0.4827;0.8336;
719.4000;0.4827;0.8336;
719.7000;0.4835;0.8452;
720.0000;0.4835;0.8498;
720.3000;0.4835;0.8614;
720.6000;0.4803;0.8614;
720.9000;0.4843;0.8591;
721.2000;0.4827;0.8475;
721.5000;0.4819;0.8429;
721.8000;0.4819;0.8429;
722.1000;0.4819;0.8382;
722.4000;0.4851;0.8359;
722.7000;0.4811;0.8243;
723.0000;0.4794;0.8196;
723.3000;0.4819;0.8266;
723.6000;0.4819;0.8266;
723.9000;0.4876;0.8429;
724.2000;0.4794;0.8382;
724.5000;0.4811;0.8475;
724.8000;0.4778;0.8475;
725.1000;0.4794;0.8475;
725.4000;0.4794;0.8475;
725.7000;0.4803;0.8452;
726.0000;0.4803;0.8405;
726.3000;0.4794;0.8521;
726.6000;0.4770;0.8475;
726.9000;0.4811;0.8545;
727.2000;0.4868;0.8545;
727.5000;0.4803;0.8429;
727.8000;0.4811;0.8475;
728.1000;0.4819;0.8452;
728.4000;0.4811;0.8498;
728.7000;0.4811;0.8498;
729.0000;0.4803;0.8545;
729.3000;0.4746;0.8475;
729.6000;0.4811;0.8661;
729.9000;0.4860;0.8707;
730.2000;0.4803;0.8614;
730.5000;0.4803;0.8568;
730.8000;0.4811;0.8521;
731.1000;0.4794;0.8498;
731.4000;0.4794;0.8545;
731.7000;0.4754;0.8405;
732.0000;0.4794;0.8521;
732.3000;0.4778;0.8568;
732.6000;0.4786;0.8521;
732.9000;0.4746;0.8405;
733.2000;0.4803;0.8452;
733.5000;0.4860;0.8638;
733.8000;0.4762;0.8452;
734.1000;0.4786;0.8498;
734.4000;0.4786;0.8359;
734.7000;0.4811;0.8382;
735.0000;0.4794;0.8545;
735.3000;0.4770;0.8452;
735.6000;0.4819;0.8614;
735.9000;0.4803;0.8591;
736.2000;0.4786;0.8614;
736.5000;0.4803;0.8591;
736.8000;0.4819;0.8661;
737.1000;0.4819;0.8638;
737.4000;0.4803;0.8638;
737.7000;0.4770;0.8545;
738.0000;0.4746;0.8545;
738.3000;0.4778;0.8545;
738.6000;0.4794;0.8568;
738.9000;0.4762;0.8498;
739.2000;0.4754;0.8521;
739.5000;0.4762;0.8545;
739.8000;0.4762;0.8545;
740.1000;0.4697;0.8429;
740.4000;0.4762;0.8521;
740.7000;0.4786;0.8614;
741.0000;0.4786;0.8638;
741.3000;0.4762;0.8614;
741.6000;0.4786;0.8707;
741.9000;0.4811;0.8754;
742.2000;0.4770;0.8591;
742.5000;0.4794;0.8661;
742.8000;0.4786;0.8591;
743.1000;0.4786;0.8591;
743.4000;0.4794;0.8521;
743.7000;0.4778;0.8429;
744.0000;0.4786;0.8521;
744.3000;0.4794;0.8614;
744.6000;0.4794;0.8638;
744.9000;0.4794;0.8777;
745.2000;0.4778;0.8777;
745.5000;0.4770;0.8707;
745.8000;0.4778;0.8684;
746.1000;0.4770;0.8661;
746.4000;0.4770;0.8638;
746.7000;0.4778;0.8545;
747.0000;0.4754;0.8545;
747.3000;0.4778;0.8568;
747.6000;0.4770;0.8614;
747.9000;0.4770;0.8591;
748.2000;0.4770;0.8568;
748.5000;0.4786;0.8614;
748.8000;0.4737;0.8521;
749.1000;0.4778;0.8614;
749.4000;0.4746;0.8452;
749.7000;0.4770;0.8405;
750.0000;0.4770;0.8498;
750.3000;0.4746;0.8429;
750.6000;0.4778;0.8498;
750.9000;0.4770;0.8568;
751.2000;0.4770;0.8614;
751.5000;0.4754;0.8545;
751.8000;0.4786;0.8707;
752.1000;0.4786;0.8707;
752.4000;0.4770;0.8591;
752.7000;0.4778;0.8684;
753.0000;0.4770;0.8638;
753.3000;0.4721;0.8336;
753.6000;0.4778;0.8405;
753.9000;0.4803;0.8521;
754.2000;0.4762;0.8359;
754.5000;0.4794;0.8405;
754.8000;0.4746;0.8313;
755.1000;0.4794;0.8475;
755.4000;0.4770;0.8521;
755.7000;0.4762;0.8429;
756.0000;0.4827;0.8545;
756.3000;0.4819;0.8568;
756.6000;0.4746;0.8475;
756.9000;0.4762;0.8614;
757.2000;0.4754;0.8568;
757.5000;0.4729;0.8475;
757.8000;0.4770;0.8638;
758.1000;0.4794;0.8684;
758.4000;0.4762;0.8707;
758.7000;0.4762;0.8754;
759.0000;0.4786;0.8707;
759.3000;0.4770;0.8707;
759.6000;0.4754;0.8684;
759.9000;0.4754;0.8638;
760.2000;0.4746;0.8591;
760.5000;0.4762;0.8614;
760.8000;0.4737;0.8545;
761.1000;0.4770;0.8661;
761.4000;0.4762;0.8614;
761.7000;0.4762;0.8661;
762.0000;0.4803;0.8661;
762.3000;0.4754;0.8521;
762.6000;0.4754;0.8545;
762.9000;0.4778;0.8545;
763.2000;0.4754;0.8568;
763.5000;0.4770;0.8591;
763.8000;0.4762;0.8614;
764.1000;0.4729;0.8429;
764.4000;0.4737;0.8382;
764.7000;0.4762;0.8545;
765.0000;0.4737;0.8452;
765.3000;0.4762;0.8498;
765.6000;0.4754;0.8452;
765.9000;0.4737;0.8405;
766.2000;0.4754;0.8498;
766.5000;0.4762;0.8545;
766.8000;0.4754;0.8591;
767.1000;0.4754;0.8545;
767.4000;0.4762;0.8684;
767.7000;0.4762;0.8754;
768.0000;0.4770;0.8847;
768.3000;0.4762;0.8823;
768.6000;0.4729;0.8800;
768.9000;0.4762;0.8754;
769.2000;0.4737;0.8661;
769.5000;0.4754;0.8638;
769.8000;0.4689;0.8452;
770.1000;0.4746;0.8545;
770.4000;0.4762;0.8638;
770.7000;0.4770;0.8591;
771.0000;0.4746;0.8568;
771.3000;0.4746;0.8591;
771.6000;0.4762;0.8661;
771.9000;0.4778;0.8754;
772.2000;0.4746;0.8684;
772.5000;0.4770;0.8707;
772.8000;0.4770;0.8684;
773.1000;0.4803;0.8730;
773.4000;0.4770;0.8661;
773.7000;0.4770;0.8521;
774.0000;0.4754;0.8545;
774.3000;0.4754;0.8521;
774.6000;0.4746;0.8475;
774.9000;0.4705;0.8475;
775.2000;0.4754;0.8638;
775.5000;0.4737;0.8545;
775.8000;0.4729;0.8591;
776.1000;0.4737;0.8707;
776.4000;0.4713;0.8661;
776.7000;0.4664;0.8452;
777.0000;0.4860;0.8893;
777.3000;0.4746;0.8638;
777.6000;0.4860;0.8870;
777.9000;0.4754;0.8638;
778.2000;0.4737;0.8638;
778.5000;0.4762;0.8684;
778.8000;0.4746;0.8661;
779.1000;0.4770;0.8707;
779.4000;0.4746;0.8730;
779.7000;0.4754;0.8707;
780.0000;0.4737;0.8707;
780.3000;0.4705;0.8661;
780.6000;0.4754;0.8777;
780.9000;0.4762;0.8730;
781.2000;0.4721;0.8730;
781.5000;0.4746;0.8754;
781.8000;0.4762;0.8754;
782.1000;0.4786;0.8777;
782.4000;0.4697;0.8545;
782.7000;0.4729;0.8521;
783.0000;0.4640;0.8359;
783.3000;0.4762;0.8754;
783.6000;0.4746;0.8661;
783.9000;0.4737;0.8638;
784.2000;0.4762;0.8661;
784.5000;0.4737;0.8661;
784.8000;0.4754;0.8684;
785.1000;0.4827;0.8893;
785.4000;0.4754;0.8707;
785.7000;0.4713;0.8638;
786.0000;0.4737;0.8661;
786.3000;0.4729;0.8638;
786.6000;0.4811;0.8823;
786.9000;0.4754;0.8707;
787.2000;0.4737;0.8614;
787.5000;0.4737;0.8638;
787.8000;0.4737;0.8591;
788.1000;0.4689;0.8475;
788.4000;0.4729;0.8591;
788.7000;0.4729;0.8684;
789.0000;0.4705;0.8591;
789.3000;0.4713;0.8591;
789.6000;0.4729;0.8614;
789.9000;0.4697;0.8521;
790.2000;0.4721;0.8614;
790.5000;0.4721;0.8568;
790.8000;0.4713;0.8452;
791.1000;0.4754;0.8591;
791.4000;0.4770;0.8661;
791.7000;0.4729;0.8684;
792.0000;0.4729;0.8707;
792.3000;0.4713;0.8614;
792.6000;0.4762;0.8707;
792.9000;0.4737;0.8591;
793.2000;0.4746;0.8591;
793.5000;0.4754;0.8684;
793.8000;0.4713;0.8568;
794.1000;0.4705;0.8545;
794.4000;0.4721;0.8521;
794.7000;0.4705;0.8475;
795.0000;0.4721;0.8382;
795.3000;0.4754;0.8429;
795.6000;0.4713;0.8382;
795.9000;0.4721;0.8429;
796.2000;0.4713;0.8359;
796.5000;0.4705;0.8382;
796.8000;0.4697;0.8382;
797.1000;0.4656;0.8220;
797.4000;0.4713;0.8336;
797.7000;0.4713;0.8429;
798.0000;0.4778;0.8545;
798.3000;0.4794;0.8521;
798.6000;0.4737;0.8405;
798.9000;0.4737;0.8336;
799.2000;0.4729;0.8220;
799.5000;0.4705;0.8243;
799.8000;0.4737;0.8429;
800.1000;0.4705;0.8475;
800.4000;0.4770;0.8730;
800.7000;0.4672;0.8521;
801.0000;0.4746;0.8614;
801.3000;0.4713;0.8498;
801.6000;0.4705;0.8498;
801.9000;0.4705;0.8498;
802.2000;0.4705;0.8498;
802.5000;0.4746;0.8452;
802.8000;0.4697;0.8313;
803.1000;0.4713;0.8382;
803.4000;0.4737;0.8382;
803.7000;0.4713;0.8382;
804.0000;0.4713;0.8545;
804.3000;0.4689;0.8429;
804.6000;0.4754;0.8684;
804.9000;0.4746;0.8754;
805.2000;0.4713;0.8638;
805.5000;0.4754;0.8777;
805.8000;0.4721;0.8707;
806.1000;0.4737;0.8638;
806.4000;0.4721;0.8521;
806.7000;0.4713;0.8568;
807.0000;0.4713;0.8521;
807.3000;0.4713;0.8452;
807.6000;0.4729;0.8475;
807.9000;0.4746;0.8452;
808.2000;0.4713;0.8429;
808.5000;0.4713;0.8452;
808.8000;0.4762;0.8591;
809.1000;0.4697;0.8452;
809.4000;0.4721;0.8475;
809.7000;0.4729;0.8429;
810.0000;0.4737;0.8405;
810.3000;0.4721;0.8405;
810.6000;0.4697;0.8382;
810.9000;0.4681;0.8382;
811.2000;0.4729;0.8545;
811.5000;0.4713;0.8452;
811.8000;0.4705;0.8359;
812.1000;0.4721;0.8475;
812.4000;0.4713;0.8545;
812.7000;0.4713;0.8545;
813.0000;0.4664;0.8429;
813.3000;0.4729;0.8638;
813.6000;0.4721;0.8661;
813.9000;0.4770;0.8847;
814.2000;0.4737;0.8823;
814.5000;0.4705;0.8684;
814.8000;0.4705;0.8730;
815.1000;0.4721;0.8661;
815.4000;0.4713;0.8661;
815.7000;0.4729;0.8730;
816.0000;0.4754;0.8777;
816.3000;0.4713;0.8661;
816.6000;0.4721;0.8707;
816.9000;0.4713;0.8707;
817.2000;0.4713;0.8614;
817.5000;0.4681;0.8568;
817.8000;0.4697;0.8545;
818.1000;0.4697;0.8614;
818.4000;0.4705;0.8661;
818.7000;0.4721;0.8754;
819.0000;0.4737;0.8754;
819.3000;0.4689;0.8684;
819.6000;0.4721;0.8777;
819.9000;0.4713;0.8847;
820.2000;0.4737;0.8916;
820.5000;0.4737;0.8800;
820.8000;0.4713;0.8661;
821.1000;0.4746;0.8614;
821.4000;0.4762;0.8545;
821.7000;0.4729;0.8475;
822.0000;0.4689;0.8382;
822.3000;0.4705;0.8359;
822.6000;0.4697;0.8359;
822.9000;0.4713;0.8498;
823.2000;0.4681;0.8405;
823.5000;0.4721;0.8545;
823.8000;0.4770;0.8661;
824.1000;0.4721;0.8684;
824.4000;0.4713;0.8730;
824.7000;0.4746;0.8870;
825.0000;0.4713;0.8777;
825.3000;0.4697;0.8800;
825.6000;0.4851;0.9125;
825.9000;0.4713;0.8754;
826.2000;0.4705;0.8684;
826.5000;0.4681;0.8591;
826.8000;0.4697;0.8614;
827.1000;0.4713;0.8591;
827.4000;0.4705;0.8521;
827.7000;0.4697;0.8591;
828.0000;0.4721;0.8661;
828.3000;0.4697;0.8568;
828.6000;0.4705;0.8614;
828.9000;0.4737;0.8684;
829.2000;0.4729;0.8684;
829.5000;0.4721;0.8777;
829.8000;0.4705;0.8730;
830.1000;0.4721;0.8730;
830.4000;0.4737;0.8754;
830.7000;0.4705;0.8707;
831.0000;0.4737;0.8661;
831.3000;0.4729;0.8591;
831.6000;0.4705;0.8591;
831.9000;0.4705;0.8661;
832.2000;0.4697;0.8661;
832.5000;0.4599;0.8452;
832.8000;0.4705;0.8730;
833.1000;0.4697;0.8568;
833.4000;0.4681;0.8545;
833.7000;0.4697;0.8568;
834.0000;0.4697;0.8545;
834.3000;0.4705;0.8545;
834.6000;0.4721;0.8591;
834.9000;0.4705;0.8591;
835.2000;0.4697;0.8661;
835.5000;0.4721;0.8661;
835.8000;0.4705;0.8661;
836.1000;0.4705;0.8684;
836.4000;0.4697;0.8684;
836.7000;0.4697;0.8614;
837.0000;0.4721;0.8684;
837.3000;0.4672;0.8638;
837.6000;0.4689;0.8707;
837.9000;0.4721;0.8800;
838.2000;0.4705;0.8800;
838.5000;0.4705;0.8777;
838.8000;0.4770;0.8963;
839.1000;0.4689;0.8730;
839.4000;0.4689;0.8777;
839.7000;0.4713;0.8730;
840.0000;0.4697;0.8638;
840.3000;0.4689;0.8638;
840.6000;0.4713;0.8730;
840.9000;0.4705;0.8661;
841.2000;0.4705;0.8661;
841.5000;0.4705;0.8614;
841.8000;0.4697;0.8591;
842.1000;0.4713;0.8707;
842.4000;0.4705;0.8730;
842.7000;0.4705;0.8730;
843.0000;0.4705;0.8684;
843.3000;0.4697;0.8730;
843.6000;0.4713;0.8823;
843.9000;0.4705;0.8777;
844.2000;0.4697;0.8823;
844.5000;0.4689;0.8893;
844.8000;0.4705;0.8939;
845.1000;0.4713;0.8939;
845.4000;0.4697;0.8963;
845.7000;0.4721;0.9009;
846.0000;0.4713;0.8986;
846.3000;0.4664;0.8963;
846.6000;0.4697;0.8916;
846.9000;0.4705;0.8847;
847.2000;0.4778;0.8986;
847.5000;0.4705;0.8823;
847.8000;0.4697;0.8777;
848.1000;0.4689;0.8847;
848.4000;0.4729;0.8916;
848.7000;0.4737;0.8893;
849.0000;0.4672;0.8800;
849.3000;0.4689;0.8777;
849.6000;0.4713;0.8800;
849.9000;0.4697;0.8754;
850.2000;0.4697;0.8800;
850.5000;0.4689;0.8754;
850.8000;0.4664;0.8707;
851.1000;0.4689;0.8730;
851.4000;0.4705;0.8684;
851.7000;0.4689;0.8661;
852.0000;0.4681;0.8707;
852.3000;0.4721;0.8754;
852.6000;0.4705;0.8684;
852.9000;0.4713;0.8730;
853.2000;0.4705;0.8777;
853.5000;0.4632;0.8684;
853.8000;0.4697;0.8777;
854.1000;0.4697;0.8777;
854.4000;0.4689;0.8847;
854.7000;0.4672;0.8823;
855.0000;0.4689;0.8916;
855.3000;0.4689;0.8847;
855.6000;0.4632;0.8730;
855.9000;0.4713;0.8916;
856.2000;0.4689;0.8916;
856.5000;0.4689;0.8684;
856.8000;0.4689;0.8638;
857.1000;0.4713;0.8661;
857.4000;0.4697;0.8614;
857.7000;0.4648;0.8498;
858.0000;0.4705;0.8591;
858.3000;0.4681;0.8475;
858.6000;0.4689;0.8638;
858.9000;0.4681;0.8638;
859.2000;0.4672;0.8521;
859.5000;0.4681;0.8545;
859.8000;0.4770;0.8823;
860.1000;0.4705;0.8684;
860.4000;0.4689;0.8661;
860.7000;0.4697;0.8614;
861.0000;0.4705;0.8661;
861.3000;0.4672;0.8545;
861.6000;0.4697;0.8661;
861.9000;0.4664;0.8545;
862.2000;0.4672;0.8498;
862.5000;0.4689;0.8638;
862.8000;0.4697;0.8591;
863.1000;0.4754;0.8684;
863.4000;0.4689;0.8545;
863.7000;0.4697;0.8521;
864.0000;0.4681;0.8521;
864.3000;0.4697;0.8568;
864.6000;0.4697;0.8545;
864.9000;0.4689;0.8568;
865.2000;0.4697;0.8614;
865.5000;0.4705;0.8684;
865.8000;0.4705;0.8777;
866.1000;0.4697;0.8754;
866.4000;0.4729;0.8823;
866.7000;0.4713;0.8777;
867.0000;0.4705;0.8707;
867.3000;0.4811;0.8939;
867.6000;0.4721;0.8730;
867.9000;0.4697;0.8707;
868.2000;0.4689;0.8684;
868.5000;0.4689;0.8730;
868.8000;0.4689;0.8684;
869.1000;0.4681;0.8591;
869.4000;0.4705;0.8545;
869.7000;0.4689;0.8498;
870.0000;0.4689;0.8475;
870.3000;0.4697;0.8521;
870.6000;0.4689;0.8498;
870.9000;0.4624;0.8336;
871.2000;0.4689;0.8545;
871.5000;0.4672;0.8521;
871.8000;0.4681;0.8498;
872.1000;0.4672;0.8405;
872.4000;0.4615;0.8266;
872.7000;0.4689;0.8405;
873.0000;0.4689;0.8382;
873.3000;0.4664;0.8313;
873.6000;0.4664;0.8289;
873.9000;0.4672;0.8405;
874.2000;0.4681;0.8475;
874.5000;0.4607;0.8313;
874.8000;0.4689;0.8591;
875.1000;0.4689;0.8614;
875.4000;0.4689;0.8591;
875.7000;0.4689;0.8568;
876.0000;0.4664;0.8545;
876.3000;0.4705;0.8661;
876.6000;0.4705;0.8545;
876.9000;0.4705;0.8638;
877.2000;0.4697;0.8568;
877.5000;0.4664;0.8521;
877.8000;0.4632;0.8359;
878.1000;0.4681;0.8545;
878.4000;0.4672;0.8614;
878.7000;0.4697;0.8684;
879.0000;0.4689;0.8614;
879.3000;0.4681;0.8614;
879.6000;0.4656;0.8591;
879.9000;0.4762;0.8893;
880.2000;0.4689;0.8730;
880.5000;0.4705;0.8800;
880.8000;0.4672;0.8684;
881.1000;0.4672;0.8777;
881.4000;0.4697;0.8800;
881.7000;0.4672;0.8730;
882.0000;0.4664;0.8661;
882.3000;0.4672;0.8707;
882.6000;0.4689;0.8823;
882.9000;0.4672;0.8684;
883.2000;0.4656;0.8638;
883.5000;0.4672;0.8754;
883.8000;0.4697;0.8823;
884.1000;0.4672;0.8754;
884.4000;0.4664;0.8661;
884.7000;0.4689;0.8638;
885.0000;0.4664;0.8591;
885.3000;0.4681;0.8638;
885.6000;0.4689;0.8684;
885.9000;0.4664;0.8614;
886.2000;0.4713;0.8684;
886.5000;0.4689;0.8591;
886.8000;0.4681;0.8568;
887.1000;0.4656;0.8591;
887.4000;0.4672;0.8754;
887.7000;0.4697;0.8754;
888.0000;0.4681;0.8754;
888.3000;0.4689;0.8800;
888.6000;0.4681;0.8823;
888.9000;0.4689;0.8777;
889.2000;0.4681;0.8730;
889.5000;0.4689;0.8777;
889.8000;0.4705;0.8730;
890.1000;0.4689;0.8684;
890.4000;0.4648;0.8498;
890.7000;0.4786;0.8847;
891.0000;0.4681;0.8521;
891.3000;0.4672;0.8568;
891.6000;0.4689;0.8591;
891.9000;0.4697;0.8568;
892.2000;0.4697;0.8591;
892.5000;0.4672;0.8614;
892.8000;0.4656;0.8568;
893.1000;0.4681;0.8591;
893.4000;0.4615;0.8382;
893.7000;0.4672;0.8568;
894.0000;0.4558;0.8243;
894.3000;0.4672;0.8545;
894.6000;0.4664;0.8545;
894.9000;0.4672;0.8614;
895.2000;0.4713;0.8754;
895.5000;0.4681;0.8800;
895.8000;0.4689;0.8754;
896.1000;0.4754;0.8916;
896.4000;0.4599;0.8545;
896.7000;0.4615;0.8545;
897.0000;0.4672;0.8707;
897.3000;0.4672;0.8591;
897.6000;0.4672;0.8521;
897.9000;0.4664;0.8498;
898.2000;0.4689;0.8521;
898.5000;0.4689;0.8498;
898.8000;0.4681;0.8545;
899.1000;0.4697;0.8614;
899.4000;0.4648;0.8405;
899.7000;0.4697;0.8591;
900.0000;0.4689;0.8591;
900.3000;0.4729;0.8684;
900.6000;0.4689;0.8638;
900.9000;0.4689;0.8614;
901.2000;0.4681;0.8591;
901.5000;0.4689;0.8661;
901.8000;0.4754;0.8823;
902.1000;0.4681;0.8684;
902.4000;0.4681;0.8754;
902.7000;0.4689;0.8800;
903.0000;0.4664;0.8754;
903.3000;0.4672;0.8754;
903.6000;0.4689;0.8754;
903.9000;0.4778;0.8916;
904.2000;0.4664;0.8661;
904.5000;0.4681;0.8707;
904.8000;0.4664;0.8614;
905.1000;0.4640;0.8614;
905.4000;0.4681;0.8730;
905.7000;0.4689;0.8684;
906.0000;0.4632;0.8545;
906.3000;0.4640;0.8498;
906.6000;0.4672;0.8614;
906.9000;0.4615;0.8498;
907.2000;0.4689;0.8661;
907.5000;0.4681;0.8638;
907.8000;0.4689;0.8684;
908.1000;0.4713;0.8777;
908.4000;0.4681;0.8754;
908.7000;0.4672;0.8777;
909.0000;0.4664;0.8847;
909.3000;0.4656;0.8823;
909.6000;0.4672;0.8707;
909.9000;0.4624;0.8614;
910.2000;0.4632;0.8614;
910.5000;0.4689;0.8754;
910.8000;0.4681;0.8707;
911.1000;0.4681;0.8730;
911.4000;0.4648;0.8777;
911.7000;0.4640;0.8730;
912.0000;0.4689;0.8823;
912.3000;0.4607;0.8568;
912.6000;0.4689;0.8800;
912.9000;0.4681;0.8730;
913.2000;0.4746;0.8800;
913.5000;0.4681;0.8661;
913.8000;0.4672;0.8614;
914.1000;0.4697;0.8638;
914.4000;0.4689;0.8730;
914.7000;0.4632;0.8591;
915.0000;0.4713;0.8777;
915.3000;0.4656;0.8591;
915.6000;0.4737;0.8754;
915.9000;0.4672;0.8638;
916.2000;0.4664;0.8638;
916.5000;0.4672;0.8591;
916.8000;0.4656;0.8591;
917.1000;0.4721;0.8684;
917.4000;0.4705;0.8591;
917.7000;0.4664;0.8521;
918.0000;0.4689;0.8521;
918.3000;0.4656;0.8429;
918.6000;0.4746;0.8707;
918.9000;0.4664;0.8591;
919.2000;0.4681;0.8661;
919.5000;0.4681;0.8568;
919.8000;0.4681;0.8498;
920.1000;0.4672;0.8498;
920.4000;0.4681;0.8568;
920.7000;0.4672;0.8591;
921.0000;0.4672;0.8591;
921.3000;0.4672;0.8591;
921.6000;0.4681;0.8591;
921.9000;0.4746;0.8730;
922.2000;0.4672;0.8638;
922.5000;0.4721;0.8707;
922.8000;0.4664;0.8359;
923.1000;0.4648;0.8313;
923.4000;0.4746;0.8545;
923.7000;0.4713;0.8545;
924.0000;0.4656;0.8498;
924.3000;0.4672;0.8591;
924.6000;0.4656;0.8614;
924.9000;0.4681;0.8591;
925.2000;0.4689;0.8521;
925.5000;0.4672;0.8498;
925.8000;0.4681;0.8452;
926.1000;0.4672;0.8498;
926.4000;0.4672;0.8521;
926.7000;0.4681;0.8498;
927.0000;0.4664;0.8475;
927.3000;0.4664;0.8452;
927.6000;0.4697;0.8568;
927.9000;0.4713;0.8684;
928.2000;0.4681;0.8638;
928.5000;0.4681;0.8568;
928.8000;0.4672;0.8568;
929.1000;0.4681;0.8521;
929.4000;0.4656;0.8429;
929.7000;0.4664;0.8475;
930.0000;0.4754;0.8800;
930.3000;0.4640;0.8452;
930.6000;0.4656;0.8568;
930.9000;0.4681;0.8614;
931.2000;0.4681;0.8568;
931.5000;0.4697;0.8707;
931.8000;0.4664;0.8591;
932.1000;0.4656;0.8498;
932.4000;0.4672;0.8545;
932.7000;0.4664;0.8568;
933.0000;0.4811;0.8963;
933.3000;0.4664;0.8568;
933.6000;0.4656;0.8452;
933.9000;0.4705;0.8568;
934.2000;0.4656;0.8382;
934.5000;0.4640;0.8429;
934.8000;0.4664;0.8452;
935.1000;0.4656;0.8568;
935.4000;0.4697;0.8684;
935.7000;0.4672;0.8475;
936.0000;0.4664;0.8429;
936.3000;0.4656;0.8452;
936.6000;0.4656;0.8521;
936.9000;0.4664;0.8568;
937.2000;0.4632;0.8614;
937.5000;0.4664;0.8638;
937.8000;0.4664;0.8614;
938.1000;0.4721;0.8754;
938.4000;0.4689;0.8730;
938.7000;0.4672;0.8800;
939.0000;0.4664;0.8893;
939.3000;0.4672;0.8963;
939.6000;0.4681;0.9009;
939.9000;0.4656;0.8986;
940.2000;0.4681;0.9056;
940.5000;0.4648;0.8893;
940.8000;0.4803;0.9218;
941.1000;0.4656;0.8916;
941.4000;0.4681;0.8847;
941.7000;0.4648;0.8684;
942.0000;0.4672;0.8777;
942.3000;0.4664;0.8777;
942.6000;0.4697;0.8800;
942.9000;0.4681;0.8800;
943.2000;0.4664;0.8777;
943.5000;0.4664;0.8684;
943.8000;0.4681;0.8730;
944.1000;0.4672;0.8754;
944.4000;0.4697;0.8777;
944.7000;0.4689;0.8707;
945.0000;0.4664;0.8730;
945.3000;0.4615;0.8638;
945.6000;0.4697;0.8800;
945.9000;0.4705;0.8707;
946.2000;0.4672;0.8614;
946.5000;0.4681;0.8638;
946.8000;0.4697;0.8614;
947.1000;0.4681;0.8521;
947.4000;0.4640;0.8452;
947.7000;0.4697;0.8591;
948.0000;0.4697;0.8730;
948.3000;0.4681;0.8730;
948.6000;0.4681;0.8754;
948.9000;0.4664;0.8754;
949.2000;0.4697;0.8730;
949.5000;0.4689;0.8754;
949.8000;0.4689;0.8823;
950.1000;0.4697;0.8707;
950.4000;0.4681;0.8638;
950.7000;0.4705;0.8730;
951.0000;0.4672;0.8707;
951.3000;0.4672;0.8707;
951.6000;0.4672;0.8614;
951.9000;0.4664;0.8591;
952.2000;0.4656;0.8498;
952.5000;0.4648;0.8452;
952.8000;0.4656;0.8452;
953.1000;0.4672;0.8521;
953.4000;0.4664;0.8568;
953.7000;0.4664;0.8568;
954.0000;0.4737;0.8754;
954.3000;0.4689;0.8568;
954.6000;0.4689;0.8475;
954.9000;0.4664;0.8429;
955.2000;0.4681;0.8568;
955.5000;0.4705;0.8730;
955.8000;0.4664;0.8638;
956.1000;0.4656;0.8614;
956.4000;0.4664;0.8638;
956.7000;0.4664;0.8638;
957.0000;0.4656;0.8638;
957.3000;0.4648;0.8568;
957.6000;0.4656;0.8568;
957.9000;0.4672;0.8661;
958.2000;0.4681;0.8684;
958.5000;0.4681;0.8684;
958.8000;0.4607;0.8568;
959.1000;0.4681;0.8823;
959.4000;0.4681;0.8800;
959.7000;0.4689;0.8870;
960.0000;0.4664;0.8870;
960.3000;0.4697;0.8916;
960.6000;0.4672;0.8847;
960.9000;0.4689;0.8800;
961.2000;0.4697;0.8916;
961.5000;0.4664;0.8916;
961.8000;0.4656;0.8870;
962.1000;0.4681;0.8870;
962.4000;0.4681;0.8847;
962.7000;0.4656;0.8800;
963.0000;0.4664;0.8661;
963.3000;0.4689;0.8684;
963.6000;0.4672;0.8707;
963.9000;0.4664;0.8730;
964.2000;0.4681;0.8823;
964.5000;0.4713;0.8893;
964.8000;0.4672;0.8777;
965.1000;0.4664;0.8707;
965.4000;0.4754;0.8893;
965.7000;0.4672;0.8707;
966.0000;0.4664;0.8661;
966.3000;0.4664;0.8684;
966.6000;0.4778;0.8939;
966.9000;0.4656;0.8661;
967.2000;0.4664;0.8614;
967.5000;0.4681;0.8591;
967.8000;0.4656;0.8614;
968.1000;0.4762;0.8939;
968.4000;0.4713;0.8847;
968.7000;0.4672;0.8823;
969.0000;0.4681;0.8916;
969.3000;0.4778;0.9148;
969.6000;0.4664;0.8800;
969.9000;0.4689;0.8730;
970.2000;0.4672;0.8707;
970.5000;0.4656;0.8614;
970.8000;0.4681;0.8684;
971.1000;0.4681;0.8730;
971.4000;0.4721;0.8800;
971.7000;0.4672;0.8684;
972.0000;0.4632;0.8568;
972.3000;0.4672;0.8707;
972.6000;0.4640;0.8545;
972.9000;0.4672;0.8661;
973.2000;0.4664;0.8638;
973.5000;0.4624;0.8568;
973.8000;0.4672;0.8684;
974.1000;0.4672;0.8707;
974.4000;0.4689;0.8823;
974.7000;0.4672;0.8777;
975.0000;0.4648;0.8707;
975.3000;0.4689;0.8823;
975.6000;0.4672;0.8730;
975.9000;0.4615;0.8638;
976.2000;0.4664;0.8707;
976.5000;0.4672;0.8777;
976.8000;0.4567;0.8545;
977.1000;0.4656;0.8661;
977.4000;0.4689;0.8730;
977.7000;0.4648;0.8614;
978.0000;0.4656;0.8521;
978.3000;0.4632;0.8475;
978.6000;0.4648;0.8614;
978.9000;0.4672;0.8707;
979.2000;0.4681;0.8754;
979.5000;0.4672;0.8707;
979.8000;0.4705;0.8870;
980.1000;0.4648;0.8754;
980.4000;0.4656;0.8754;
980.7000;0.4672;0.8754;
981.0000;0.4681;0.8707;
981.3000;0.4697;0.8707;
981.6000;0.4681;0.8754;
981.9000;0.4656;0.8730;
982.2000;0.4689;0.8800;
982.5000;0.4689;0.8754;
982.8000;0.4664;0.8638;
983.1000;0.4664;0.8614;
983.4000;0.4681;0.8684;
983.7000;0.4664;0.8638;
984.0000;0.4681;0.8638;
984.3000;0.4648;0.8614;
984.6000;0.4632;0.8521;
984.9000;0.4664;0.8568;
985.2000;0.4656;0.8475;
985.5000;0.4681;0.8614;
985.8000;0.4656;0.8545;
986.1000;0.4681;0.8545;
986.4000;0.4697;0.8591;
986.7000;0.4656;0.8545;
987.0000;0.4656;0.8614;
987.3000;0.4656;0.8498;
987.6000;0.4664;0.8568;
987.9000;0.4656;0.8568;
988.2000;0.4624;0.8521;
988.5000;0.4656;0.8568;
988.8000;0.4664;0.8591;
989.1000;0.4672;0.8614;
989.4000;0.4681;0.8730;
989.7000;0.4648;0.8661;
990.0000;0.4664;0.8707;
990.3000;0.4672;0.8638;
990.6000;0.4672;0.8638;
990.9000;0.4689;0.8614;
991.2000;0.4656;0.8614;
991.5000;0.4664;0.8730;
991.8000;0.4664;0.8754;
992.1000;0.4697;0.8800;
992.4000;0.4648;0.8684;
992.7000;0.4664;0.8777;
993.0000;0.4664;0.8754;
993.3000;0.4648;0.8568;
993.6000;0.4664;0.8707;
993.9000;0.4656;0.8707;
994.2000;0.4672;0.8754;
994.5000;0.4681;0.8684;
994.8000;0.4656;0.8545;
995.1000;0.4664;0.8568;
995.4000;0.4689;0.8684;
995.7000;0.4648;0.8498;
996.0000;0.4648;0.8475;
996.3000;0.4648;0.8452;
996.6000;0.4664;0.8498;
996.9000;0.4664;0.8475;
997.2000;0.4664;0.8452;
997.5000;0.4664;0.8475;
997.8000;0.4770;0.8823;
998.1000;0.4624;0.8545;
998.4000;0.4689;0.8661;
998.7000;0.4648;0.8452;
999.0000;0.4672;0.8521;
999.3000;0.4770;0.8800;
999.6000;0.4648;0.8591;
999.9000;0.4656;0.8568;
1000.2000;0.4648;0.8521;
1000.5000;0.4672;0.8614;
1000.8000;0.4697;0.8568;
1001.1000;0.4656;0.8498;
1001.4000;0.4664;0.8568;
1001.7000;0.4648;0.8545;
1002.0000;0.4656;0.8591;
1002.3000;0.4672;0.8568;
1002.6000;0.4656;0.8382;
1002.9000;0.4697;0.8475;
1003.2000;0.4632;0.8359;
1003.5000;0.4656;0.8521;
1003.8000;0.4648;0.8545;
1004.1000;0.4672;0.8661;
1004.4000;0.4648;0.8591;
1004.7000;0.4648;0.8614;
1005.0000;0.4648;0.8568;
1005.3000;0.4713;0.8638;
1005.6000;0.4697;0.8591;
1005.9000;0.4664;0.8591;
1006.2000;0.4656;0.8638;
1006.5000;0.4672;0.8638;
1006.8000;0.4681;0.8614;
1007.1000;0.4656;0.8452;
1007.4000;0.4737;0.8707;
1007.7000;0.4721;0.8684;
1008.0000;0.4656;0.8429;
1008.3000;0.4664;0.8429;
1008.6000;0.4681;0.8498;
1008.9000;0.4672;0.8521;
1009.2000;0.4689;0.8638;
1009.5000;0.4599;0.8382;
1009.8000;0.4656;0.8521;
1010.1000;0.4615;0.8545;
1010.4000;0.4607;0.8498;
1010.7000;0.4640;0.8614;
1011.0000;0.4664;0.8730;
1011.3000;0.4640;0.8661;
1011.6000;0.4656;0.8684;
1011.9000;0.4648;0.8568;
1012.2000;0.4640;0.8498;
1012.5000;0.4697;0.8591;
1012.8000;0.4664;0.8545;
1013.1000;0.4656;0.8568;
1013.4000;0.4640;0.8521;
1013.7000;0.4656;0.8661;
1014.0000;0.4656;0.8684;
1014.3000;0.4672;0.8707;
1014.6000;0.4664;0.8684;
1014.9000;0.4672;0.8707;
1015.2000;0.4672;0.8707;
1015.5000;0.4656;0.8661;
1015.8000;0.4697;0.8730;
1016.1000;0.4672;0.8730;
1016.4000;0.4648;0.8684;
1016.7000;0.4656;0.8591;
1017.0000;0.4664;0.8661;
1017.3000;0.4664;0.8452;
1017.6000;0.4664;0.8405;
1017.9000;0.4672;0.8452;
1018.2000;0.4648;0.8429;
1018.5000;0.4664;0.8382;
1018.8000;0.4632;0.8313;
1019.1000;0.4672;0.8475;
1019.4000;0.4656;0.8382;
1019.7000;0.4656;0.8382;
1020.0000;0.4672;0.8405;
1020.3000;0.4672;0.8405;
1020.6000;0.4672;0.8382;
1020.9000;0.4672;0.8359;
1021.2000;0.4672;0.8405;
1021.5000;0.4664;0.8498;
1021.8000;0.4672;0.8521;
1022.1000;0.4664;0.8568;
1022.4000;0.4656;0.8545;
1022.7000;0.4681;0.8591;
1023.0000;0.4672;0.8545;
1023.3000;0.4648;0.8568;
1023.6000;0.4648;0.8521;
1023.9000;0.4664;0.8568;
1024.2000;0.4664;0.8568;
1024.5000;0.4656;0.8707;
1024.8000;0.4648;0.8661;
1025.1000;0.4607;0.8498;
1025.4000;0.4656;0.8614;
1025.7000;0.4640;0.8521;
1026.0000;0.4672;0.8521;
1026.3000;0.4656;0.8545;
1026.6000;0.4640;0.8429;
1026.9000;0.4550;0.8266;
1027.2000;0.4640;0.8452;
1027.5000;0.4713;0.8638;
1027.8000;0.4672;0.8568;
1028.1000;0.4705;0.8730;
1028.4000;0.4656;0.8568;
1028.7000;0.4640;0.8475;
1029.0000;0.4689;0.8568;
1029.3000;0.4664;0.8568;
1029.6000;0.4705;0.8800;
1029.9000;0.4632;0.8638;
1030.2000;0.4664;0.8661;
1030.5000;0.4681;0.8684;
1030.8000;0.4664;0.8614;
1031.1000;0.4656;0.8638;
1031.4000;0.4689;0.8684;
1031.7000;0.4672;0.8614;
1032.0000;0.4656;0.8591;
1032.3000;0.4672;0.8591;
1032.6000;0.4656;0.8452;
1032.9000;0.4664;0.8382;
1033.2000;0.4681;0.8336;
1033.5000;0.4689;0.8429;
1033.8000;0.4713;0.8545;
1034.1000;0.4640;0.8521;
1034.4000;0.4648;0.8475;
1034.7000;0.4664;0.8475;
1035.0000;0.4697;0.8661;
1035.3000;0.4656;0.8545;
1035.6000;0.4672;0.8545;
1035.9000;0.4656;0.8591;
1036.2000;0.4656;0.8591;
1036.5000;0.4672;0.8684;
1036.8000;0.4656;0.8684;
1037.1000;0.4672;0.8661;
1037.4000;0.4664;0.8661;
1037.7000;0.4672;0.8614;
1038.0000;0.4550;0.8313;
1038.3000;0.4648;0.8591;
1038.6000;0.4656;0.8591;
1038.9000;0.4656;0.8521;
1039.2000;0.4664;0.8545;
1039.5000;0.4664;0.8498;
1039.8000;0.4681;0.8638;
1040.1000;0.4656;0.8568;
1040.4000;0.4640;0.8498;
1040.7000;0.4648;0.8498;
1041.0000;0.4664;0.8429;
1041.3000;0.4664;0.8475;
1041.6000;0.4672;0.8452;
1041.9000;0.4681;0.8429;
1042.2000;0.4632;0.8405;
1042.5000;0.4664;0.8568;
1042.8000;0.4681;0.8568;
1043.1000;0.4664;0.8591;
1043.4000;0.4664;0.8591;
1043.7000;0.4664;0.8591;
1044.0000;0.4681;0.8638;
1044.3000;0.4672;0.8661;
1044.6000;0.4648;0.8521;
1044.9000;0.4681;0.8661;
1045.2000;0.4656;0.8707;
1045.5000;0.4656;0.8707;
1045.8000;0.4648;0.8591;
1046.1000;0.4656;0.8614;
1046.4000;0.4664;0.8614;
1046.7000;0.4672;0.8661;
1047.0000;0.4664;0.8684;
1047.3000;0.4640;0.8568;
1047.6000;0.4615;0.8475;
1047.9000;0.4648;0.8545;
1048.2000;0.4656;0.8521;
1048.5000;0.4640;0.8452;
1048.8000;0.4656;0.8521;
1049.1000;0.4583;0.8382;
1049.4000;0.4640;0.8498;
1049.7000;0.4648;0.8498;
1050.0000;0.4583;0.8382;
1050.3000;0.4656;0.8545;
1050.6000;0.4648;0.8475;
1050.9000;0.4567;0.8382;
1051.2000;0.4624;0.8452;
1051.5000;0.4656;0.8545;
1051.8000;0.4656;0.8521;
1052.1000;0.4640;0.8591;
1052.4000;0.4624;0.8545;
1052.7000;0.4648;0.8684;
1053.0000;0.4648;0.8730;
1053.3000;0.4664;0.8870;
1053.6000;0.4656;0.8823;
1053.9000;0.4656;0.8800;
1054.2000;0.4607;0.8545;
1054.5000;0.4648;0.8661;
1054.8000;0.4664;0.8638;
1055.1000;0.4648;0.8568;
1055.4000;0.4656;0.8521;
1055.7000;0.4648;0.8498;
1056.0000;0.4656;0.8475;
1056.3000;0.4656;0.8429;
1056.6000;0.4664;0.8591;
1056.9000;0.4672;0.8661;
1057.2000;0.4664;0.8661;
1057.5000;0.4664;0.8777;
1057.8000;0.4672;0.8800;
1058.1000;0.4656;0.8777;
1058.4000;0.4648;0.8870;
1058.7000;0.4656;0.8916;
1059.0000;0.4664;0.8916;
1059.3000;0.4681;0.8916;
1059.6000;0.4664;0.8800;
1059.9000;0.4640;0.8800;
1060.2000;0.4607;0.8777;
1060.5000;0.4656;0.8847;
1060.8000;0.4640;0.8847;
1061.1000;0.4648;0.8916;
1061.4000;0.4640;0.8800;
1061.7000;0.4672;0.8800;
1062.0000;0.4640;0.8707;
1062.3000;0.4656;0.8730;
1062.6000;0.4672;0.8707;
1062.9000;0.4681;0.8707;
1063.2000;0.4656;0.8614;
1063.5000;0.4664;0.8684;
1063.8000;0.4656;0.8661;
1064.1000;0.4656;0.8614;
1064.4000;0.4648;0.8591;
1064.7000;0.4664;0.8638;
1065.0000;0.4656;0.8568;
1065.3000;0.4640;0.8568;
1065.6000;0.4664;0.8638;
1065.9000;0.4656;0.8707;
1066.2000;0.4624;0.8707;
1066.5000;0.4656;0.8707;
1066.8000;0.4640;0.8754;
1067.1000;0.4640;0.8661;
1067.4000;0.4648;0.8638;
1067.7000;0.4656;0.8568;
1068.0000;0.4664;0.8498;
1068.3000;0.4681;0.8429;
1068.6000;0.4656;0.8336;
1068.9000;0.4648;0.8359;
1069.2000;0.4648;0.8452;
1069.5000;0.4672;0.8498;
1069.8000;0.4632;0.8382;
1070.1000;0.4681;0.8521;
1070.4000;0.4672;0.8568;
1070.7000;0.4656;0.8521;
1071.0000;0.4672;0.8568;
1071.3000;0.4640;0.8475;
1071.6000;0.4632;0.8313;
1071.9000;0.4615;0.8289;
1072.2000;0.4681;0.8405;
1072.5000;0.4656;0.8313;
1072.8000;0.4656;0.8429;
1073.1000;0.4632;0.8382;
1073.4000;0.4664;0.8452;
1073.7000;0.4648;0.8382;
1074.0000;0.4762;0.8661;
1074.3000;0.4664;0.8429;
1074.6000;0.4664;0.8475;
1074.9000;0.4672;0.8568;
1075.2000;0.4624;0.8521;
1075.5000;0.4656;0.8591;
1075.8000;0.4656;0.8498;
1076.1000;0.4640;0.8429;
1076.4000;0.4648;0.8429;
1076.7000;0.4648;0.8382;
1077.0000;0.4656;0.8498;
1077.3000;0.4648;0.8429;
1077.6000;0.4664;0.8498;
1077.9000;0.4656;0.8521;
1078.2000;0.4656;0.8638;
1078.5000;0.4648;0.8638;
1078.8000;0.4729;0.8730;
1079.1000;0.4656;0.8568;
1079.4000;0.4656;0.8614;
1079.7000;0.4648;0.8614;
1080.0000;0.4615;0.8429;
1080.3000;0.4640;0.8521;
1080.6000;0.4664;0.8545;
1080.9000;0.4624;0.8452;
1081.2000;0.4640;0.8521;
1081.5000;0.4664;0.8498;
1081.8000;0.4656;0.8452;
1082.1000;0.4672;0.8521;
1082.4000;0.4681;0.8545;
1082.7000;0.4656;0.8475;
1083.0000;0.4632;0.8521;
1083.3000;0.4640;0.8521;
1083.6000;0.4648;0.8614;
1083.9000;0.4648;0.8684;
1084.2000;0.4624;0.8521;
1084.5000;0.4648;0.8545;
1084.8000;0.4656;0.8638;
1085.1000;0.4664;0.8638;
1085.4000;0.4648;0.8591;
1085.7000;0.4632;0.8591;
1086.0000;0.4664;0.8707;
1086.3000;0.4648;0.8568;
1086.6000;0.4656;0.8661;
1086.9000;0.4664;0.8730;
1087.2000;0.4681;0.8754;
1087.5000;0.4672;0.8707;
1087.8000;0.4672;0.8777;
1088.1000;0.4672;0.8777;
1088.4000;0.4640;0.8754;
1088.7000;0.4656;0.8800;
1089.0000;0.4648;0.8847;
1089.3000;0.4754;0.9056;
1089.6000;0.4640;0.8777;
1089.9000;0.4737;0.8986;
1090.2000;0.4648;0.8707;
1090.5000;0.4689;0.8707;
1090.8000;0.4664;0.8754;
1091.1000;0.4672;0.8800;
1091.4000;0.4656;0.8800;
1091.7000;0.4632;0.8800;
1092.0000;0.4640;0.8800;
1092.3000;0.4656;0.8800;
1092.6000;0.4656;0.8847;
1092.9000;0.4640;0.8777;
1093.2000;0.4664;0.8684;
1093.5000;0.4664;0.8730;
1093.8000;0.4672;0.8777;
1094.1000;0.4648;0.8777;
1094.4000;0.4648;0.8730;
1094.7000;0.4648;0.8730;
1095.0000;0.4640;0.8754;
1095.3000;0.4632;0.8777;
1095.6000;0.4624;0.8777;
1095.9000;0.4648;0.8730;
1096.2000;0.4664;0.8823;
1096.5000;0.4648;0.8847;
1096.8000;0.4648;0.8823;
1097.1000;0.4640;0.8847;
1097.4000;0.4656;0.8870;
1097.7000;0.4640;0.8730;
1098.0000;0.4624;0.8730;
1098.3000;0.4664;0.8800;
1098.6000;0.4615;0.8568;
1098.9000;0.4656;0.8638;
1099.2000;0.4681;0.8661;
1099.5000;0.4656;0.8614;
1099.8000;0.4648;0.8568;
1100.1000;0.4558;0.8336;
1100.4000;0.4640;0.8568;
1100.7000;0.4656;0.8568;
1101.0000;0.4672;0.8568;
1101.3000;0.4648;0.8475;
1101.6000;0.4624;0.8452;
1101.9000;0.4672;0.8452;
1102.2000;0.4746;0.8568;
1102.5000;0.4697;0.8591;
1102.8000;0.4672;0.8521;
1103.1000;0.4648;0.8521;
1103.4000;0.4656;0.8638;
1103.7000;0.4656;0.8684;
1104.0000;0.4640;0.8707;
1104.3000;0.4705;0.8800;
1104.6000;0.4664;0.8754;
1104.9000;0.4648;0.8684;
1105.2000;0.4583;0.8545;
1105.5000;0.4713;0.8823;
1105.8000;0.4656;0.8707;
1106.1000;0.4640;0.8545;
1106.4000;0.4640;0.8545;
1106.7000;0.4681;0.8777;
1107.0000;0.4656;0.8777;
1107.3000;0.4664;0.8754;
1107.6000;0.4648;0.8684;
1107.9000;0.4656;0.8498;
1108.2000;0.4583;0.8405;
1108.5000;0.4681;0.8591;
1108.8000;0.4640;0.8545;
1109.1000;0.4656;0.8521;
1109.4000;0.4640;0.8614;
1109.7000;0.4713;0.8707;
1110.0000;0.4656;0.8661;
1110.3000;0.4664;0.8661;
1110.6000;0.4656;0.8568;
1110.9000;0.4632;0.8475;
1111.2000;0.4656;0.8545;
1111.5000;0.4664;0.8661;
1111.8000;0.4615;0.8521;
1112.1000;0.4640;0.8614;
1112.4000;0.4656;0.8591;
1112.7000;0.4640;0.8545;
1113.0000;0.4664;0.8614;
1113.3000;0.4656;0.8684;
1113.6000;0.4648;0.8638;
1113.9000;0.4656;0.8614;
1114.2000;0.4648;0.8614;
1114.5000;0.4656;0.8614;
1114.8000;0.4672;0.8707;
1115.1000;0.4648;0.8684;
1115.4000;0.4648;0.8684;
1115.7000;0.4664;0.8707;
1116.0000;0.4664;0.8730;
1116.3000;0.4656;0.8684;
1116.6000;0.4664;0.8684;
1116.9000;0.4664;0.8684;
1117.2000;0.4624;0.8614;
1117.5000;0.4640;0.8521;
1117.8000;0.4648;0.8614;
1118.1000;0.4664;0.8707;
1118.4000;0.4648;0.8730;
1118.7000;0.4632;0.8730;
1119.0000;0.4632;0.8638;
1119.3000;0.4583;0.8475;
1119.6000;0.4648;0.8777;
1119.9000;0.4583;0.8545;
1120.2000;0.4713;0.8916;
1120.5000;0.4656;0.8823;
1120.8000;0.4713;0.8963;
1121.1000;0.4672;0.8823;
1121.4000;0.4648;0.8777;
1121.7000;0.4664;0.8847;
1122.0000;0.4615;0.8730;
1122.3000;0.4664;0.8754;
1122.6000;0.4648;0.8707;
1122.9000;0.4664;0.8754;
1123.2000;0.4664;0.8684;
1123.5000;0.4681;0.8754;
1123.8000;0.4656;0.8638;
1124.1000;0.4648;0.8568;
1124.4000;0.4656;0.8452;
1124.7000;0.4656;0.8405;
1125.0000;0.4599;0.8313;
1125.3000;0.4648;0.8429;
1125.6000;0.4632;0.8382;
1125.9000;0.4648;0.8475;
1126.2000;0.4705;0.8568;
1126.5000;0.4664;0.8429;
1126.8000;0.4632;0.8429;
1127.1000;0.4664;0.8498;
1127.4000;0.4656;0.8545;
1127.7000;0.4632;0.8591;
1128.0000;0.4640;0.8638;
1128.3000;0.4632;0.8614;
1128.6000;0.4664;0.8754;
1128.9000;0.4640;0.8661;
1129.2000;0.4754;0.8916;
1129.5000;0.4624;0.8591;
1129.8000;0.4664;0.8684;
1130.1000;0.4624;0.8661;
1130.4000;0.4632;0.8661;
1130.7000;0.4648;0.8777;
1131.0000;0.4624;0.8684;
1131.3000;0.4648;0.8684;
1131.6000;0.4640;0.8684;
1131.9000;0.4640;0.8684;
1132.2000;0.4591;0.8545;
1132.5000;0.4648;0.8684;
1132.8000;0.4640;0.8568;
1133.1000;0.4632;0.8545;
1133.4000;0.4640;0.8591;
1133.7000;0.4664;0.8568;
1134.0000;0.4672;0.8545;
1134.3000;0.4640;0.8475;
1134.6000;0.4656;0.8521;
1134.9000;0.4656;0.8521;
1135.2000;0.4656;0.8568;
1135.5000;0.4648;0.8614;
1135.8000;0.4664;0.8684;
1136.1000;0.4648;0.8730;
1136.4000;0.4656;0.8730;
1136.7000;0.4664;0.8614;
1137.0000;0.4664;0.8591;
1137.3000;0.4640;0.8591;
1137.6000;0.4648;0.8684;
1137.9000;0.4624;0.8684;
1138.2000;0.4672;0.8777;
1138.5000;0.4640;0.8754;
1138.8000;0.4672;0.8730;
1139.1000;0.4656;0.8591;
1139.4000;0.4672;0.8545;
1139.7000;0.4640;0.8475;
1140.0000;0.4640;0.8429;
1140.3000;0.4648;0.8405;
1140.6000;0.4632;0.8429;
1140.9000;0.4672;0.8545;
1141.2000;0.4632;0.8475;
1141.5000;0.4672;0.8568;
1141.8000;0.4640;0.8545;
1142.1000;0.4632;0.8591;
1142.4000;0.4656;0.8707;
1142.7000;0.4632;0.8614;
1143.0000;0.4624;0.8498;
1143.3000;0.4583;0.8475;
1143.6000;0.4640;0.8545;
1143.9000;0.4648;0.8568;
1144.2000;0.4640;0.8591;
1144.5000;0.4648;0.8568;
1144.8000;0.4648;0.8521;
1145.1000;0.4672;0.8545;
1145.4000;0.4632;0.8429;
1145.7000;0.4648;0.8521;
1146.0000;0.4648;0.8568;
1146.3000;0.4697;0.8730;
1146.6000;0.4656;0.8638;
1146.9000;0.4648;0.8521;
1147.2000;0.4664;0.8568;
1147.5000;0.4656;0.8614;
1147.8000;0.4664;0.8614;
1148.1000;0.4656;0.8614;
1148.4000;0.4656;0.8545;
1148.7000;0.4632;0.8521;
1149.0000;0.4648;0.8568;
1149.3000;0.4640;0.8452;
1149.6000;0.4632;0.8452;
1149.9000;0.4648;0.8661;
1150.2000;0.4664;0.8638;
1150.5000;0.4656;0.8684;
1150.8000;0.4705;0.8800;
1151.1000;0.4648;0.8754;
1151.4000;0.4648;0.8707;
1151.7000;0.4591;0.8545;
1152.0000;0.4656;0.8684;
1152.3000;0.4672;0.8777;
1152.6000;0.4705;0.8777;
1152.9000;0.4656;0.8684;
1153.2000;0.4648;0.8661;
1153.5000;0.4640;0.8521;
1153.8000;0.4664;0.8638;
1154.1000;0.4656;0.8661;
1154.4000;0.4656;0.8614;
1154.7000;0.4656;0.8661;
1155.0000;0.4648;0.8707;
1155.3000;0.4632;0.8754;
1155.6000;0.4648;0.8730;
1155.9000;0.4656;0.8754;
1156.2000;0.4648;0.8707;
1156.5000;0.4648;0.8614;
1156.8000;0.4648;0.8661;
1157.1000;0.4640;0.8614;
1157.4000;0.4656;0.8707;
1157.7000;0.4640;0.8614;
1158.0000;0.4648;0.8591;
1158.3000;0.4689;0.8777;
1158.6000;0.4648;0.8707;
1158.9000;0.4656;0.8661;
1159.2000;0.4664;0.8684;
1159.5000;0.4583;0.8452;
1159.8000;0.4656;0.8638;
1160.1000;0.4681;0.8638;
1160.4000;0.4607;0.8521;
1160.7000;0.4648;0.8707;
1161.0000;0.4615;0.8591;
1161.3000;0.4632;0.8638;
1161.6000;0.4624;0.8614;
1161.9000;0.4632;0.8591;
1162.2000;0.4664;0.8591;
1162.5000;0.4599;0.8475;
1162.8000;0.4648;0.8614;
1163.1000;0.4672;0.8661;
1163.4000;0.4624;0.8545;
1163.7000;0.4624;0.8568;
1164.0000;0.4624;0.8591;
1164.3000;0.4640;0.8591;
1164.6000;0.4697;0.8707;
1164.9000;0.4558;0.8429;
1165.2000;0.4681;0.8730;
1165.5000;0.4624;0.8475;
1165.8000;0.4640;0.8521;
1166.1000;0.4640;0.8638;
1166.4000;0.4648;0.8684;
1166.7000;0.4664;0.8754;
1167.0000;0.4721;0.8754;
1167.3000;0.4632;0.8521;
1167.6000;0.4672;0.8498;
1167.9000;0.4648;0.8475;
1168.2000;0.4697;0.8568;
1168.5000;0.4697;0.8568;
1168.8000;0.4648;0.8591;
1169.1000;0.4640;0.8591;
1169.4000;0.4640;0.8614;
1169.7000;0.4672;0.8730;
1170.0000;0.4648;0.8777;
1170.3000;0.4656;0.8754;
1170.6000;0.4664;0.8661;
1170.9000;0.4656;0.8661;
1171.2000;0.4656;0.8661;
1171.5000;0.4640;0.8614;
1171.8000;0.4664;0.8614;
1172.1000;0.4672;0.8661;
1172.4000;0.4664;0.8638;
1172.7000;0.4681;0.8545;
1173.0000;0.4656;0.8684;
1173.3000;0.4664;0.8614;
1173.6000;0.4624;0.8521;
1173.9000;0.4656;0.8614;
1174.2000;0.4705;0.8730;
1174.5000;0.4624;0.8568;
1174.8000;0.4648;0.8591;
1175.1000;0.4664;0.8614;
1175.4000;0.4697;0.8707;
1175.7000;0.4672;0.8614;
1176.0000;0.4664;0.8545;
1176.3000;0.4640;0.8545;
1176.6000;0.4664;0.8591;
1176.9000;0.4672;0.8568;
1177.2000;0.4624;0.8568;
1177.5000;0.4624;0.8591;
1177.8000;0.4664;0.8638;
1178.1000;0.4656;0.8707;
1178.4000;0.4664;0.8684;
1178.7000;0.4640;0.8638;
1179.0000;0.4648;0.8684;
1179.3000;0.4705;0.8754;
1179.6000;0.4656;0.8521;
1179.9000;0.4648;0.8568;
1180.2000;0.4664;0.8591;
1180.5000;0.4672;0.8614;
1180.8000;0.4672;0.8730;
1181.1000;0.4640;0.8638;
1181.4000;0.4705;0.8800;
1181.7000;0.4681;0.8661;
1182.0000;0.4607;0.8498;
1182.3000;0.4729;0.8754;
1182.6000;0.4567;0.8336;
1182.9000;0.4632;0.8475;
1183.2000;0.4640;0.8568;
1183.5000;0.4754;0.8730;
1183.8000;0.4632;0.8266;
1184.1000;0.4648;0.8196;
1184.4000;0.4640;0.8196;
1184.7000;0.4648;0.8243;
1185.0000;0.4640;0.8266;
1185.3000;0.4632;0.8150;
1185.6000;0.4648;0.8266;
1185.9000;0.4640;0.8336;
1186.2000;0.4640;0.8429;
1186.5000;0.4632;0.8568;
1186.8000;0.4697;0.8754;
1187.1000;0.4615;0.8614;
1187.4000;0.4640;0.8638;
1187.7000;0.4632;0.8498;
1188.0000;0.4640;0.8545;
1188.3000;0.4672;0.8661;
1188.6000;0.4640;0.8638;
1188.9000;0.4640;0.8591;
1189.2000;0.4632;0.8591;
1189.5000;0.4656;0.8614;
1189.8000;0.4664;0.8707;
1190.1000;0.4632;0.8661;
1190.4000;0.4632;0.8661;
1190.7000;0.4640;0.8545;
1191.0000;0.4640;0.8568;
1191.3000;0.4640;0.8521;
1191.6000;0.4664;0.8545;
1191.9000;0.4648;0.8475;
1192.2000;0.4656;0.8545;
1192.5000;0.4632;0.8614;
1192.8000;0.4640;0.8661;
1193.1000;0.4632;0.8707;
1193.4000;0.4648;0.8684;
1193.7000;0.4640;0.8638;
1194.0000;0.4632;0.8638;
1194.3000;0.4656;0.8661;
1194.6000;0.4648;0.8754;
1194.9000;0.4640;0.8707;
1195.2000;0.4664;0.8777;
1195.5000;0.4664;0.8777;
1195.8000;0.4640;0.8754;
1196.1000;0.4664;0.8800;
1196.4000;0.4672;0.8754;
1196.7000;0.4664;0.8638;
1197.0000;0.4632;0.8568;
1197.3000;0.4713;0.8800;
1197.6000;0.4640;0.8614;
1197.9000;0.4640;0.8591;
1198.2000;0.4648;0.8638;
1198.5000;0.4648;0.8591;
1198.8000;0.4656;0.8521;
1199.1000;0.4664;0.8545;
1199.4000;0.4599;0.8405;
1199.7000;0.4648;0.8638;
1200.0000;0.4656;0.8684;
1200.3000;0.4640;0.8638;
1200.6000;0.4640;0.8568;
1200.9000;0.4648;0.8568;
1201.2000;0.4656;0.8591;
1201.5000;0.4705;0.8638;
1201.8000;0.4656;0.8521;
1202.1000;0.4664;0.8498;
1202.4000;0.4567;0.8243;
1202.7000;0.4648;0.8545;
1203.0000;0.4648;0.8568;
1203.3000;0.4624;0.8498;
1203.6000;0.4632;0.8545;
1203.9000;0.4648;0.8730;
1204.2000;0.4656;0.8823;
1204.5000;0.4640;0.8823;
1204.8000;0.4632;0.8730;
1205.1000;0.4567;0.8452;
1205.4000;0.4648;0.8545;
1205.7000;0.4656;0.8591;
1206.0000;0.4664;0.8661;
1206.3000;0.4640;0.8545;
1206.6000;0.4664;0.8614;
1206.9000;0.4672;0.8730;
1207.2000;0.4640;0.8730;
1207.5000;0.4713;0.8823;
1207.8000;0.4664;0.8707;
1208.1000;0.4648;0.8614;
1208.4000;0.4656;0.8545;
1208.7000;0.4640;0.8498;
1209.0000;0.4648;0.8568;
1209.3000;0.4648;0.8452;
1209.6000;0.4648;0.8429;
1209.9000;0.4656;0.8614;
1210.2000;0.4648;0.8661;
1210.5000;0.4656;0.8661;
1210.8000;0.4648;0.8498;
1211.1000;0.4656;0.8545;
1211.4000;0.4746;0.8916;
1211.7000;0.4656;0.8730;
1212.0000;0.4648;0.8684;
1212.3000;0.4664;0.8730;
1212.6000;0.4656;0.8754;
1212.9000;0.4648;0.8707;
1213.2000;0.4550;0.8521;
1213.5000;0.4648;0.8847;
1213.8000;0.4640;0.8777;
1214.1000;0.4746;0.8893;
1214.4000;0.4664;0.8707;
1214.7000;0.4632;0.8614;
1215.0000;0.4640;0.8521;
1215.3000;0.4721;0.8707;
1215.6000;0.4640;0.8521;
1215.9000;0.4681;0.8614;
1216.2000;0.4656;0.8591;
1216.5000;0.4664;0.8614;
1216.8000;0.4648;0.8614;
1217.1000;0.4648;0.8661;
1217.4000;0.4632;0.8661;
1217.7000;0.4624;0.8638;
1218.0000;0.4632;0.8661;
1218.3000;0.4599;0.8591;
1218.6000;0.4632;0.8684;
1218.9000;0.4648;0.8684;
1219.2000;0.4640;0.8684;
1219.5000;0.4632;0.8568;
1219.8000;0.4632;0.8638;
1220.1000;0.4632;0.8452;
1220.4000;0.4640;0.8498;
1220.7000;0.4640;0.8498;
1221.0000;0.4632;0.8498;
1221.3000;0.4624;0.8498;
1221.6000;0.4648;0.8684;
1221.9000;0.4648;0.8707;
1222.2000;0.4624;0.8661;
1222.5000;0.4729;0.8870;
1222.8000;0.4656;0.8707;
1223.1000;0.4648;0.8707;
1223.4000;0.4697;0.8823;
1223.7000;0.4615;0.8545;
1224.0000;0.4648;0.8591;
1224.3000;0.4591;0.8359;
1224.6000;0.4624;0.8521;
1224.9000;0.4632;0.8614;
1225.2000;0.4689;0.8754;
1225.5000;0.4705;0.8823;
1225.8000;0.4689;0.8800;
1226.1000;0.4640;0.8730;
1226.4000;0.4640;0.8661;
1226.7000;0.4648;0.8684;
1227.0000;0.4705;0.8730;
1227.3000;0.4664;0.8684;
1227.6000;0.4648;0.8591;
1227.9000;0.4624;0.8429;
1228.2000;0.4656;0.8521;
1228.5000;0.4632;0.8405;
1228.8000;0.4648;0.8475;
1229.1000;0.4640;0.8545;
1229.4000;0.4640;0.8614;
1229.7000;0.4640;0.8638;
1230.0000;0.4648;0.8707;
1230.3000;0.4656;0.8754;
1230.6000;0.4656;0.8684;
1230.9000;0.4664;0.8730;
1231.2000;0.4664;0.8730;
1231.5000;0.4656;0.8684;
1231.8000;0.4656;0.8730;
1232.1000;0.4648;0.8707;
1232.4000;0.4640;0.8661;
1232.7000;0.4656;0.8707;
1233.0000;0.4672;0.8545;
1233.3000;0.4664;0.8405;
1233.6000;0.4640;0.8266;
1233.9000;0.4624;0.8336;
1234.2000;0.4599;0.8359;
1234.5000;0.4648;0.8568;
1234.8000;0.4664;0.8707;
1235.1000;0.4754;0.8939;
1235.4000;0.4632;0.8800;
1235.7000;0.4640;0.8870;
1236.0000;0.4640;0.8823;
1236.3000;0.4624;0.8823;
1236.6000;0.4656;0.8823;
1236.9000;0.4624;0.8730;
1237.2000;0.4648;0.8730;
1237.5000;0.4648;0.8661;
1237.8000;0.4648;0.8638;
1238.1000;0.4640;0.8638;
1238.4000;0.4672;0.8638;
1238.7000;0.4656;0.8591;
1239.0000;0.4607;0.8382;
1239.3000;0.4648;0.8429;
1239.6000;0.4664;0.8475;
1239.9000;0.4640;0.8452;
1240.2000;0.4615;0.8545;
1240.5000;0.4640;0.8614;
1240.8000;0.4697;0.8800;
1241.1000;0.4656;0.8730;
1241.4000;0.4640;0.8591;
1241.7000;0.4632;0.8568;
1242.0000;0.4640;0.8591;
1242.3000;0.4624;0.8568;
1242.6000;0.4648;0.8614;
1242.9000;0.4656;0.8614;
1243.2000;0.4640;0.8545;
1243.5000;0.4689;0.8614;
1243.8000;0.4672;0.8521;
1244.1000;0.4648;0.8521;
1244.4000;0.4648;0.8429;
1244.7000;0.4648;0.8475;
1245.0000;0.4648;0.8475;
1245.3000;0.4664;0.8521;
1245.6000;0.4656;0.8638;
1245.9000;0.4575;0.8568;
1246.2000;0.4656;0.8707;
1246.5000;0.4648;0.8638;
1246.8000;0.4640;0.8591;
1247.1000;0.4672;0.8684;
1247.4000;0.4713;0.8777;
1247.7000;0.4648;0.8614;
1248.0000;0.4656;0.8614;
1248.3000;0.4607;0.8498;
1248.6000;0.4713;0.8847;
1248.9000;0.4672;0.8823;
1249.2000;0.4640;0.8777;
1249.5000;0.4737;0.8986;
1249.8000;0.4640;0.8847;
1250.1000;0.4689;0.8986;
1250.4000;0.4632;0.8916;
1250.7000;0.4656;0.8847;
1251.0000;0.4737;0.9079;
1251.3000;0.4632;0.8963;
1251.6000;0.4656;0.8986;
1251.9000;0.4672;0.9056;
1252.2000;0.4632;0.8939;
1252.5000;0.4632;0.8939;
1252.8000;0.4640;0.8893;
1253.1000;0.4607;0.8661;
1253.4000;0.4656;0.8638;
1253.7000;0.4648;0.8591;
1254.0000;0.4640;0.8568;
1254.3000;0.4640;0.8591;
1254.6000;0.4664;0.8684;
1254.9000;0.4656;0.8730;
1255.2000;0.4681;0.8893;
1255.5000;0.4656;0.8823;
1255.8000;0.4656;0.8777;
1256.1000;0.4624;0.8730;
1256.4000;0.4672;0.8847;
1256.7000;0.4632;0.8754;
1257.0000;0.4632;0.8777;
1257.3000;0.4656;0.8800;
1257.6000;0.4648;0.8777;
1257.9000;0.4632;0.8800;
1258.2000;0.4689;0.8939;
1258.5000;0.4664;0.8777;
1258.8000;0.4664;0.8754;
1259.1000;0.4713;0.8754;
1259.4000;0.4640;0.8684;
1259.7000;0.4648;0.8684;
1260.0000;0.4648;0.8614;
1260.3000;0.4632;0.8568;
1260.6000;0.4632;0.8638;
1260.9000;0.4607;0.8521;
1261.2000;0.4648;0.8661;
1261.5000;0.4632;0.8661;
1261.8000;0.4632;0.8707;
1262.1000;0.4746;0.9032;
1262.4000;0.4672;0.8939;
1262.7000;0.4648;0.8916;
1263.0000;0.4648;0.8870;
1263.3000;0.4624;0.8777;
1263.6000;0.4656;0.8870;
1263.9000;0.4664;0.8939;
1264.2000;0.4656;0.8963;
1264.5000;0.4656;0.8986;
1264.8000;0.4664;0.9032;
1265.1000;0.4664;0.8963;
1265.4000;0.4656;0.8730;
1265.7000;0.4648;0.8870;
1266.0000;0.4640;0.8870;
1266.3000;0.4615;0.8963;
1266.6000;0.4632;0.8893;
1266.9000;0.4640;0.8800;
1267.2000;0.4656;0.8823;
1267.5000;0.4656;0.8730;
1267.8000;0.4656;0.8754;
1268.1000;0.4640;0.8730;
1268.4000;0.4640;0.8893;
1268.7000;0.4656;0.8963;
1269.0000;0.4664;0.8893;
1269.3000;0.4681;0.8939;
1269.6000;0.4656;0.8939;
1269.9000;0.4648;0.8986;
1270.2000;0.4648;0.8916;
1270.5000;0.4640;0.8823;
1270.8000;0.4632;0.8777;
1271.1000;0.4648;0.8823;
1271.4000;0.4632;0.8800;
1271.7000;0.4640;0.8870;
1272.0000;0.4632;0.8847;
1272.3000;0.4624;0.8870;
1272.6000;0.4632;0.8823;
1272.9000;0.4632;0.8847;
1273.2000;0.4656;0.8939;
1273.5000;0.4664;0.8847;
1273.8000;0.4648;0.8730;
1274.1000;0.4648;0.8823;
1274.4000;0.4599;0.8800;
1274.7000;0.4656;0.9056;
1275.0000;0.4607;0.8963;
1275.3000;0.4615;0.8986;
1275.6000;0.4672;0.9056;
1275.9000;0.4640;0.8963;
1276.2000;0.4640;0.8893;
1276.5000;0.4640;0.9009;
1276.8000;0.4599;0.8939;
1277.1000;0.4664;0.9195;
1277.4000;0.4648;0.9056;
1277.7000;0.4640;0.8986;
1278.0000;0.4640;0.8939;
1278.3000;0.4640;0.8870;
1278.6000;0.4648;0.8800;
1278.9000;0.4672;0.8777;
1279.2000;0.4664;0.8800;
1279.5000;0.4648;0.8847;
1279.8000;0.4648;0.8870;
1280.1000;0.4640;0.8823;
1280.4000;0.4656;0.8939;
1280.7000;0.4648;0.8893;
1281.0000;0.4640;0.8916;
1281.3000;0.4640;0.8939;
1281.6000;0.4648;0.8986;
1281.9000;0.4656;0.9009;
1282.2000;0.4615;0.8870;
1282.5000;0.4624;0.8916;
1282.8000;0.4664;0.8939;
1283.1000;0.4664;0.8939;
1283.4000;0.4664;0.8823;
1283.7000;0.4697;0.8939;
1284.0000;0.4640;0.8893;
1284.3000;0.4656;0.8939;
1284.6000;0.4632;0.8986;
1284.9000;0.4632;0.8986;
1285.2000;0.4656;0.9009;
1285.5000;0.4672;0.9056;
1285.8000;0.4640;0.8963;
1286.1000;0.4648;0.8963;
1286.4000;0.4624;0.8963;
1286.7000;0.4648;0.8939;
1287.0000;0.4656;0.8963;
1287.3000;0.4648;0.8870;
1287.6000;0.4656;0.8777;
1287.9000;0.4640;0.8800;
1288.2000;0.4664;0.8800;
1288.5000;0.4640;0.8823;
1288.8000;0.4648;0.8847;
1289.1000;0.4640;0.8986;
1289.4000;0.4648;0.9009;
1289.7000;0.4648;0.8963;
1290.0000;0.4656;0.8916;
1290.3000;0.4672;0.9009;
1290.6000;0.4648;0.8963;
1290.9000;0.4648;0.8847;
1291.2000;0.4697;0.8963;
1291.5000;0.4624;0.8800;
1291.8000;0.4656;0.8916;
1292.1000;0.4648;0.8800;
1292.4000;0.4664;0.8870;
1292.7000;0.4640;0.8847;
1293.0000;0.4624;0.8800;
1293.3000;0.4648;0.8777;
1293.6000;0.4640;0.8754;
1293.9000;0.4664;0.8823;
1294.2000;0.4648;0.8730;
1294.5000;0.4664;0.8777;
1294.8000;0.4632;0.8661;
1295.1000;0.4672;0.8730;
1295.4000;0.4648;0.8591;
1295.7000;0.4624;0.8568;
1296.0000;0.4640;0.8707;
1296.3000;0.4624;0.8661;
1296.6000;0.4648;0.8730;
1296.9000;0.4632;0.8800;
1297.2000;0.4656;0.8823;
1297.5000;0.4624;0.8800;
1297.8000;0.4607;0.8754;
1298.1000;0.4656;0.8963;
1298.4000;0.4656;0.8847;
1298.7000;0.4640;0.8777;
1299.0000;0.4664;0.8870;
1299.3000;0.4656;0.8893;
1299.6000;0.4656;0.8870;
1299.9000;0.4656;0.8800;
1300.2000;0.4640;0.8823;
1300.5000;0.4648;0.8847;
1300.8000;0.4632;0.8777;
1301.1000;0.4640;0.8800;
1301.4000;0.4640;0.8730;
1301.7000;0.4664;0.8823;
1302.0000;0.4640;0.8754;
1302.3000;0.4656;0.8754;
1302.6000;0.4648;0.8661;
1302.9000;0.4583;0.8405;
1303.2000;0.4664;0.8638;
1303.5000;0.4632;0.8707;
1303.8000;0.4640;0.8730;
1304.1000;0.4640;0.8707;
1304.4000;0.4632;0.8707;
1304.7000;0.4656;0.8730;
1305.0000;0.4648;0.8754;
1305.3000;0.4632;0.8707;
1305.6000;0.4640;0.8684;
1305.9000;0.4664;0.8800;
1306.2000;0.4713;0.8986;
1306.5000;0.4640;0.8730;
1306.8000;0.4689;0.8847;
1307.1000;0.4632;0.8777;
1307.4000;0.4656;0.8823;
1307.7000;0.4648;0.8707;
1308.0000;0.4624;0.8661;
1308.3000;0.4648;0.8730;
1308.6000;0.4681;0.8847;
1308.9000;0.4648;0.8847;
1309.2000;0.4672;0.8870;
1309.5000;0.4648;0.8730;
1309.8000;0.4664;0.8707;
1310.1000;0.4664;0.8707;
1310.4000;0.4632;0.8638;
1310.7000;0.4615;0.8591;
1311.0000;0.4624;0.8545;
1311.3000;0.4664;0.8568;
1311.6000;0.4640;0.8614;
1311.9000;0.4648;0.8545;
1312.2000;0.4648;0.8614;
1312.5000;0.4648;0.8638;
1312.8000;0.4550;0.8452;
1313.1000;0.4632;0.8661;
1313.4000;0.4648;0.8707;
1313.7000;0.4640;0.8638;
1314.0000;0.4640;0.8638;
1314.3000;0.4632;0.8568;
1314.6000;0.4648;0.8545;
1314.9000;0.4656;0.8614;
1315.2000;0.4640;0.8545;
1315.5000;0.4656;0.8545;
1315.8000;0.4591;0.8429;
1316.1000;0.4640;0.8661;
1316.4000;0.4632;0.8661;
1316.7000;0.4648;0.8638;
1317.0000;0.4664;0.8707;
1317.3000;0.4656;0.8684;
1317.6000;0.4640;0.8777;
1317.9000;0.4664;0.8893;
1318.2000;0.4640;0.8800;
1318.5000;0.4632;0.8777;
1318.8000;0.4648;0.8730;
1319.1000;0.4705;0.8800;
1319.4000;0.4632;0.8568;
1319.7000;0.4640;0.8661;
1320.0000;0.4640;0.8777;
1320.3000;0.4640;0.8730;
1320.6000;0.4640;0.8591;
1320.9000;0.4640;0.8614;
1321.2000;0.4640;0.8638;
1321.5000;0.4648;0.8707;
1321.8000;0.4599;0.8545;
1322.1000;0.4705;0.8916;
1322.4000;0.4583;0.8638;
1322.7000;0.4640;0.8823;
1323.0000;0.4607;0.8730;
1323.3000;0.4632;0.8800;
1323.6000;0.4640;0.8730;
1323.9000;0.4681;0.8823;
1324.2000;0.4648;0.8847;
1324.5000;0.4632;0.8847;
1324.8000;0.4615;0.8707;
1325.1000;0.4615;0.8707;
1325.4000;0.4656;0.8893;
1325.7000;0.4632;0.8800;
1326.0000;0.4656;0.8870;
1326.3000;0.4640;0.8800;
1326.6000;0.4648;0.8893;
1326.9000;0.4632;0.8870;
1327.2000;0.4648;0.8823;
1327.5000;0.4648;0.8823;
1327.8000;0.4648;0.8847;
1328.1000;0.4648;0.8777;
1328.4000;0.4640;0.8777;
1328.7000;0.4632;0.8707;
1329.0000;0.4705;0.8847;
1329.3000;0.4640;0.8707;
1329.6000;0.4656;0.8707;
1329.9000;0.4672;0.8661;
1330.2000;0.4648;0.8638;
1330.5000;0.4648;0.8638;
1330.8000;0.4640;0.8638;
1331.1000;0.4648;0.8684;
1331.4000;0.4664;0.8754;
1331.7000;0.4656;0.8707;
1332.0000;0.4615;0.8591;
1332.3000;0.4624;0.8614;
1332.6000;0.4632;0.8661;
1332.9000;0.4656;0.8730;
1333.2000;0.4648;0.8777;
1333.5000;0.4640;0.8754;
1333.8000;0.4534;0.8498;
1334.1000;0.4656;0.8823;
1334.4000;0.4648;0.8847;
1334.7000;0.4567;0.8661;
1335.0000;0.4632;0.8800;
1335.3000;0.4632;0.8754;
1335.6000;0.4632;0.8638;
1335.9000;0.4599;0.8614;
1336.2000;0.4624;0.8684;
1336.5000;0.4624;0.8707;
1336.8000;0.4656;0.8870;
1337.1000;0.4640;0.8800;
1337.4000;0.4648;0.8847;
1337.7000;0.4681;0.8963;
1338.0000;0.4632;0.8893;
1338.3000;0.4648;0.8847;
1338.6000;0.4656;0.8893;
1338.9000;0.4632;0.8870;
1339.2000;0.4575;0.8684;
1339.5000;0.4640;0.8800;
1339.8000;0.4632;0.8777;
1340.1000;0.4640;0.8800;
1340.4000;0.4705;0.9032;
1340.7000;0.4746;0.9125;
1341.0000;0.4632;0.8754;
1341.3000;0.4648;0.8777;
1341.6000;0.4713;0.9009;
1341.9000;0.4640;0.8730;
1342.2000;0.4656;0.8730;
1342.5000;0.4754;0.8963;
1342.8000;0.4632;0.8707;
1343.1000;0.4656;0.8684;
1343.4000;0.4754;0.8893;
1343.7000;0.4664;0.8638;
1344.0000;0.4632;0.8568;
1344.3000;0.4640;0.8568;
1344.6000;0.4632;0.8591;
1344.9000;0.4640;0.8684;
1345.2000;0.4591;0.8568;
1345.5000;0.4640;0.8638;
1345.8000;0.4656;0.8730;
1346.1000;0.4558;0.8521;
1346.4000;0.4632;0.8730;
1346.7000;0.4640;0.8707;
1347.0000;0.4656;0.8754;
1347.3000;0.4567;0.8498;
1347.6000;0.4624;0.8521;
1347.9000;0.4599;0.8429;
1348.2000;0.4632;0.8521;
1348.5000;0.4648;0.8661;
1348.8000;0.4640;0.8684;
1349.1000;0.4648;0.8707;
1349.4000;0.4632;0.8614;
1349.7000;0.4640;0.8707;
1350.0000;0.4681;0.8847;
1350.3000;0.4648;0.8661;
1350.6000;0.4640;0.8661;
1350.9000;0.4632;0.8638;
1351.2000;0.4607;0.8475;
1351.5000;0.4664;0.8521;
1351.8000;0.4656;0.8545;
1352.1000;0.4615;0.8545;
1352.4000;0.4656;0.8638;
1352.7000;0.4632;0.8638;
1353.0000;0.4632;0.8730;
1353.3000;0.4591;0.8568;
1353.6000;0.4640;0.8661;
1353.9000;0.4656;0.8568;
1354.2000;0.4640;0.8545;
1354.5000;0.4648;0.8614;
1354.8000;0.4648;0.8638;
1355.1000;0.4632;0.8684;
1355.4000;0.4632;0.8521;
1355.7000;0.4648;0.8521;
1356.0000;0.4705;0.8754;
1356.3000;0.4746;0.8916;
1356.6000;0.4664;0.8661;
1356.9000;0.4648;0.8638;
1357.2000;0.4632;0.8661;
1357.5000;0.4664;0.8777;
1357.8000;0.4640;0.8754;
1358.1000;0.4640;0.8800;
1358.4000;0.4648;0.8870;
1358.7000;0.4648;0.8777;
1359.0000;0.4648;0.8754;
1359.3000;0.4648;0.8916;
1359.6000;0.4591;0.8707;
1359.9000;0.4656;0.8823;
1360.2000;0.4624;0.8661;
1360.5000;0.4672;0.8730;
1360.8000;0.4648;0.8730;
1361.1000;0.4640;0.8730;
1361.4000;0.4640;0.8661;
1361.7000;0.4656;0.8661;
1362.0000;0.4648;0.8661;
1362.3000;0.4648;0.8707;
1362.6000;0.4640;0.8730;
1362.9000;0.4648;0.8800;
1363.2000;0.4664;0.8684;
1363.5000;0.4632;0.8614;
1363.8000;0.4632;0.8661;
1364.1000;0.4640;0.8591;
1364.4000;0.4632;0.8684;
1364.7000;0.4664;0.8823;
1365.0000;0.4640;0.8754;
1365.3000;0.4648;0.8777;
1365.6000;0.4648;0.8823;
1365.9000;0.4648;0.8847;
1366.2000;0.4664;0.8916;
1366.5000;0.4737;0.9032;
1366.8000;0.4656;0.8777;
1367.1000;0.4615;0.8591;
1367.4000;0.4632;0.8638;
1367.7000;0.4697;0.8730;
1368.0000;0.4656;0.8661;
1368.3000;0.4664;0.8568;
1368.6000;0.4664;0.8545;
1368.9000;0.4607;0.8382;
1369.2000;0.4575;0.8313;
1369.5000;0.4632;0.8452;
1369.8000;0.4607;0.8359;
1370.1000;0.4640;0.8336;
1370.4000;0.4640;0.8336;
1370.7000;0.4640;0.8313;
1371.0000;0.4583;0.8243;
1371.3000;0.4648;0.8452;
1371.6000;0.4640;0.8429;
1371.9000;0.4656;0.8405;
1372.2000;0.4664;0.8545;
1372.5000;0.4648;0.8521;
1372.8000;0.4648;0.8521;
1373.1000;0.4672;0.8568;
1373.4000;0.4632;0.8591;
1373.7000;0.4656;0.8684;
1374.0000;0.4648;0.8707;
1374.3000;0.4648;0.8591;
1374.6000;0.4640;0.8568;
1374.9000;0.4648;0.8498;
1375.2000;0.4640;0.8475;
1375.5000;0.4632;0.8429;
1375.8000;0.4615;0.8405;
1376.1000;0.4640;0.8498;
1376.4000;0.4656;0.8498;
1376.7000;0.4640;0.8382;
1377.0000;0.4656;0.8382;
1377.3000;0.4656;0.8498;
1377.6000;0.4648;0.8568;
1377.9000;0.4615;0.8405;
1378.2000;0.4672;0.8545;
1378.5000;0.4632;0.8498;
1378.8000;0.4640;0.8498;
1379.1000;0.4640;0.8452;
1379.4000;0.4632;0.8452;
1379.7000;0.4648;0.8521;
1380.0000;0.4640;0.8498;
1380.3000;0.4632;0.8521;
1380.6000;0.4640;0.8452;
1380.9000;0.4640;0.8452;
1381.2000;0.4648;0.8545;
1381.5000;0.4664;0.8591;
1381.8000;0.4640;0.8591;
1382.1000;0.4640;0.8661;
1382.4000;0.4640;0.8591;
1382.7000;0.4656;0.8568;
1383.0000;0.4632;0.8475;
1383.3000;0.4640;0.8405;
1383.6000;0.4640;0.8452;
1383.9000;0.4648;0.8521;
1384.2000;0.4615;0.8452;
1384.5000;0.4624;0.8405;
1384.8000;0.4640;0.8498;
1385.1000;0.4648;0.8498;
1385.4000;0.4640;0.8475;
1385.7000;0.4656;0.8498;
1386.0000;0.4640;0.8498;
1386.3000;0.4624;0.8452;
1386.6000;0.4656;0.8614;
1386.9000;0.4648;0.8638;
1387.2000;0.4624;0.8545;
1387.5000;0.4648;0.8591;
1387.8000;0.4705;0.8730;
1388.1000;0.4672;0.8591;
1388.4000;0.4664;0.8521;
1388.7000;0.4640;0.8498;
1389.0000;0.4656;0.8591;
1389.3000;0.4689;0.8730;
1389.6000;0.4632;0.8684;
1389.9000;0.4640;0.8684;
1390.2000;0.4624;0.8614;
1390.5000;0.4648;0.8638;
1390.8000;0.4640;0.8638;
1391.1000;0.4632;0.8521;
1391.4000;0.4640;0.8591;
1391.7000;0.4656;0.8638;
1392.0000;0.4713;0.8800;
1392.3000;0.4615;0.8638;
1392.6000;0.4648;0.8707;
1392.9000;0.4656;0.8754;
1393.2000;0.4583;0.8638;
1393.5000;0.4624;0.8730;
1393.8000;0.4632;0.8754;
1394.1000;0.4632;0.8754;
1394.4000;0.4656;0.8684;
1394.7000;0.4624;0.8591;
1395.0000;0.4672;0.8661;
1395.3000;0.4640;0.8568;
1395.6000;0.4607;0.8498;
1395.9000;0.4632;0.8498;
1396.2000;0.4697;0.8684;
1396.5000;0.4640;0.8498;
1396.8000;0.4640;0.8568;
1397.1000;0.4648;0.8614;
1397.4000;0.4656;0.8498;
1397.7000;0.4640;0.8475;
1398.0000;0.4583;0.8313;
1398.3000;0.4640;0.8498;
1398.6000;0.4648;0.8498;
1398.9000;0.4640;0.8521;
1399.2000;0.4705;0.8730;
1399.5000;0.4640;0.8545;
1399.8000;0.4656;0.8568;
