time/ms;Fluo/V;P700 deltaI/I x10³;
-199.8000;0.4070;1.4160;
-199.5000;0.4086;1.4185;
-199.2000;0.4094;1.4185;
-198.9000;0.4086;1.4160;
-198.6000;0.4078;1.4160;
-198.3000;0.4070;1.4210;
-198.0000;0.4078;1.4235;
-197.7000;0.4070;1.4210;
-197.4000;0.4070;1.4185;
-197.1000;0.4078;1.4235;
-196.8000;0.4094;1.4409;
-196.5000;0.4078;1.4285;
-196.2000;0.4070;1.4135;
-195.9000;0.4029;1.4085;
-195.6000;0.4078;1.4185;
-195.3000;0.4054;1.4160;
-195.0000;0.4103;1.4210;
-194.7000;0.4070;1.4160;
-194.4000;0.4078;1.4210;
-194.1000;0.4119;1.4334;
-193.8000;0.4070;1.4210;
-193.5000;0.4070;1.4135;
-193.2000;0.4086;1.4160;
-192.9000;0.4078;1.4185;
-192.6000;0.4078;1.4235;
-192.3000;0.4078;1.4210;
-192.0000;0.4078;1.4185;
-191.7000;0.4070;1.4160;
-191.4000;0.4054;1.4235;
-191.1000;0.4160;1.4434;
-190.8000;0.4078;1.4185;
-190.5000;0.4086;1.4110;
-190.2000;0.4062;1.4060;
-189.9000;0.4094;1.4060;
-189.6000;0.4078;1.4110;
-189.3000;0.4094;1.4085;
-189.0000;0.4086;1.4085;
-188.7000;0.4078;1.4060;
-188.4000;0.4086;1.4135;
-188.1000;0.4070;1.4035;
-187.8000;0.4086;1.4085;
-187.5000;0.4086;1.4035;
-187.2000;0.4078;1.4010;
-186.9000;0.4086;1.4085;
-186.6000;0.4078;1.4110;
-186.3000;0.4086;1.4110;
-186.0000;0.4078;1.4135;
-185.7000;0.4078;1.4135;
-185.4000;0.4078;1.4085;
-185.1000;0.4111;1.4185;
-184.8000;0.4086;1.4285;
-184.5000;0.4094;1.4309;
-184.2000;0.4078;1.4309;
-183.9000;0.4086;1.4260;
-183.6000;0.4070;1.4210;
-183.3000;0.4070;1.4210;
-183.0000;0.4086;1.4309;
-182.7000;0.4094;1.4334;
-182.4000;0.4062;1.4260;
-182.1000;0.4078;1.4285;
-181.8000;0.4086;1.4260;
-181.5000;0.4078;1.4210;
-181.2000;0.4062;1.4135;
-180.9000;0.4070;1.4060;
-180.6000;0.4111;1.4135;
-180.3000;0.4103;1.4035;
-180.0000;0.4078;1.4035;
-179.7000;0.4078;1.4060;
-179.4000;0.4070;1.4060;
-179.1000;0.4070;1.4060;
-178.8000;0.4078;1.4010;
-178.5000;0.4070;1.3985;
-178.2000;0.4078;1.4010;
-177.9000;0.4143;1.4210;
-177.6000;0.4094;1.4060;
-177.3000;0.4062;1.3985;
-177.0000;0.4078;1.4010;
-176.7000;0.4070;1.4010;
-176.4000;0.4029;1.3935;
-176.1000;0.4070;1.4110;
-175.8000;0.4070;1.4110;
-175.5000;0.4151;1.4334;
-175.2000;0.4021;1.4035;
-174.9000;0.4054;1.4060;
-174.6000;0.4054;1.3985;
-174.3000;0.4054;1.4010;
-174.0000;0.4070;1.4035;
-173.7000;0.4070;1.3985;
-173.4000;0.4062;1.3960;
-173.1000;0.4086;1.4010;
-172.8000;0.4078;1.3985;
-172.5000;0.4078;1.4060;
-172.2000;0.4111;1.4085;
-171.9000;0.4070;1.4085;
-171.6000;0.4086;1.4235;
-171.3000;0.4094;1.4185;
-171.0000;0.4086;1.4135;
-170.7000;0.4070;1.4085;
-170.4000;0.4078;1.4085;
-170.1000;0.4086;1.4085;
-169.8000;0.4062;1.4035;
-169.5000;0.4094;1.4160;
-169.2000;0.4078;1.4160;
-168.9000;0.4037;1.3960;
-168.6000;0.4127;1.4210;
-168.3000;0.4094;1.4110;
-168.0000;0.4103;1.4060;
-167.7000;0.4094;1.4035;
-167.4000;0.4094;1.4160;
-167.1000;0.4094;1.4135;
-166.8000;0.4070;1.4110;
-166.5000;0.4062;1.4085;
-166.2000;0.4094;1.4135;
-165.9000;0.4111;1.4160;
-165.6000;0.4078;1.4010;
-165.3000;0.4078;1.3885;
-165.0000;0.4078;1.3910;
-164.7000;0.4086;1.3885;
-164.4000;0.4086;1.3935;
-164.1000;0.4070;1.3860;
-163.8000;0.4046;1.3810;
-163.5000;0.4111;1.4035;
-163.2000;0.4078;1.4010;
-162.9000;0.4021;1.3910;
-162.6000;0.4005;1.3835;
-162.3000;0.4086;1.4010;
-162.0000;0.4086;1.4035;
-161.7000;0.4168;1.4309;
-161.4000;0.4078;1.4035;
-161.1000;0.4094;1.4110;
-160.8000;0.4062;1.4110;
-160.5000;0.4070;1.4010;
-160.2000;0.4062;1.4010;
-159.9000;0.4013;1.3885;
-159.6000;0.4086;1.4035;
-159.3000;0.4046;1.3960;
-159.0000;0.4086;1.4035;
-158.7000;0.4086;1.4060;
-158.4000;0.4078;1.4085;
-158.1000;0.4078;1.4110;
-157.8000;0.4078;1.4060;
-157.5000;0.4062;1.4110;
-157.2000;0.4086;1.4235;
-156.9000;0.4078;1.4210;
-156.6000;0.4070;1.4135;
-156.3000;0.4078;1.4160;
-156.0000;0.4086;1.4160;
-155.7000;0.4086;1.4110;
-155.4000;0.4070;1.4010;
-155.1000;0.4086;1.4010;
-154.8000;0.4062;1.4060;
-154.5000;0.4086;1.4160;
-154.2000;0.4078;1.4185;
-153.9000;0.4143;1.4309;
-153.6000;0.4070;1.4235;
-153.3000;0.4062;1.4160;
-153.0000;0.4062;1.4135;
-152.7000;0.4054;1.4035;
-152.4000;0.4094;1.4135;
-152.1000;0.4094;1.4135;
-151.8000;0.4054;1.4010;
-151.5000;0.4070;1.3960;
-151.2000;0.4103;1.4060;
-150.9000;0.4070;1.4010;
-150.6000;0.4078;1.4010;
-150.3000;0.4070;1.3985;
-150.0000;0.4070;1.3985;
-149.7000;0.4070;1.3910;
-149.4000;0.4086;1.3885;
-149.1000;0.4062;1.3885;
-148.8000;0.4070;1.3885;
-148.5000;0.4054;1.3810;
-148.2000;0.4086;1.3910;
-147.9000;0.4078;1.3935;
-147.6000;0.4062;1.3960;
-147.3000;0.4078;1.4060;
-147.0000;0.4086;1.4160;
-146.7000;0.4062;1.4135;
-146.4000;0.4086;1.4235;
-146.1000;0.4086;1.4334;
-145.8000;0.4029;1.4085;
-145.5000;0.4046;1.4085;
-145.2000;0.4094;1.4160;
-144.9000;0.4062;1.4110;
-144.6000;0.4086;1.4110;
-144.3000;0.4070;1.4035;
-144.0000;0.4086;1.4035;
-143.7000;0.4103;1.4010;
-143.4000;0.4086;1.4010;
-143.1000;0.4094;1.4085;
-142.8000;0.4094;1.4135;
-142.5000;0.4086;1.4085;
-142.2000;0.4094;1.4060;
-141.9000;0.4086;1.4035;
-141.6000;0.4086;1.4035;
-141.3000;0.4078;1.3960;
-141.0000;0.4086;1.4085;
-140.7000;0.4078;1.4135;
-140.4000;0.4086;1.4185;
-140.1000;0.4078;1.4110;
-139.8000;0.4070;1.4060;
-139.5000;0.4078;1.4085;
-139.2000;0.4029;1.3960;
-138.9000;0.4062;1.4160;
-138.6000;0.4094;1.4285;
-138.3000;0.4094;1.4235;
-138.0000;0.4103;1.4160;
-137.7000;0.4021;1.4010;
-137.4000;0.4094;1.4135;
-137.1000;0.4086;1.4085;
-136.8000;0.4086;1.4135;
-136.5000;0.4070;1.4060;
-136.2000;0.4078;1.4010;
-135.9000;0.4070;1.4060;
-135.6000;0.4054;1.3985;
-135.3000;0.4078;1.4035;
-135.0000;0.4094;1.4010;
-134.7000;0.4078;1.4010;
-134.4000;0.4094;1.4035;
-134.1000;0.4062;1.3985;
-133.8000;0.4086;1.4035;
-133.5000;0.4070;1.4110;
-133.2000;0.4078;1.4110;
-132.9000;0.4086;1.4210;
-132.6000;0.4086;1.4185;
-132.3000;0.4078;1.4185;
-132.0000;0.4078;1.4235;
-131.7000;0.4086;1.4334;
-131.4000;0.4119;1.4509;
-131.1000;0.4078;1.4384;
-130.8000;0.4086;1.4359;
-130.5000;0.4078;1.4260;
-130.2000;0.4086;1.4235;
-129.9000;0.4103;1.4185;
-129.6000;0.4062;1.4010;
-129.3000;0.4078;1.4010;
-129.0000;0.4062;1.3935;
-128.7000;0.4078;1.4010;
-128.4000;0.4086;1.4010;
-128.1000;0.4078;1.3910;
-127.8000;0.4094;1.3985;
-127.5000;0.4078;1.3985;
-127.2000;0.4086;1.4010;
-126.9000;0.4086;1.4060;
-126.6000;0.4086;1.4010;
-126.3000;0.4086;1.4010;
-126.0000;0.4054;1.3985;
-125.7000;0.4094;1.4060;
-125.4000;0.4086;1.4085;
-125.1000;0.4062;1.4060;
-124.8000;0.4054;1.4035;
-124.5000;0.4143;1.4285;
-124.2000;0.4094;1.4135;
-123.9000;0.4070;1.4110;
-123.6000;0.4070;1.4160;
-123.3000;0.4078;1.4160;
-123.0000;0.4086;1.4160;
-122.7000;0.4070;1.4160;
-122.4000;0.4070;1.4210;
-122.1000;0.4070;1.4235;
-121.8000;0.4070;1.4309;
-121.5000;0.4078;1.4309;
-121.2000;0.4070;1.4185;
-120.9000;0.4070;1.4110;
-120.6000;0.4070;1.4010;
-120.3000;0.4127;1.4085;
-120.0000;0.4078;1.3935;
-119.7000;0.4070;1.3885;
-119.4000;0.4086;1.3910;
-119.1000;0.4094;1.4060;
-118.8000;0.4103;1.4160;
-118.5000;0.4127;1.4210;
-118.2000;0.4094;1.4135;
-117.9000;0.4094;1.4085;
-117.6000;0.4086;1.4185;
-117.3000;0.3989;1.4035;
-117.0000;0.4070;1.4309;
-116.7000;0.4070;1.4285;
-116.4000;0.4078;1.4260;
-116.1000;0.4103;1.4309;
-115.8000;0.4111;1.4384;
-115.5000;0.4037;1.4185;
-115.2000;0.4111;1.4334;
-114.9000;0.4046;1.4210;
-114.6000;0.4094;1.4334;
-114.3000;0.4078;1.4309;
-114.0000;0.4094;1.4309;
-113.7000;0.4062;1.4185;
-113.4000;0.4070;1.4210;
-113.1000;0.4070;1.4185;
-112.8000;0.4086;1.4260;
-112.5000;0.4143;1.4334;
-112.2000;0.4086;1.4110;
-111.9000;0.4070;1.4010;
-111.6000;0.4070;1.4085;
-111.3000;0.4086;1.4160;
-111.0000;0.4062;1.4135;
-110.7000;0.4062;1.4135;
-110.4000;0.4070;1.4185;
-110.1000;0.4062;1.4160;
-109.8000;0.4054;1.4110;
-109.5000;0.4070;1.4110;
-109.2000;0.4070;1.4110;
-108.9000;0.4078;1.4160;
-108.6000;0.4062;1.4135;
-108.3000;0.4086;1.4210;
-108.0000;0.4103;1.4260;
-107.7000;0.4103;1.4334;
-107.4000;0.4094;1.4434;
-107.1000;0.4078;1.4434;
-106.8000;0.4094;1.4434;
-106.5000;0.4094;1.4384;
-106.2000;0.4127;1.4384;
-105.9000;0.4070;1.4309;
-105.6000;0.4078;1.4384;
-105.3000;0.4086;1.4459;
-105.0000;0.4078;1.4434;
-104.7000;0.4086;1.4384;
-104.4000;0.4078;1.4334;
-104.1000;0.4070;1.4235;
-103.8000;0.4078;1.4260;
-103.5000;0.4094;1.4260;
-103.2000;0.4094;1.4285;
-102.9000;0.4111;1.4359;
-102.6000;0.4078;1.4235;
-102.3000;0.4094;1.4309;
-102.0000;0.4070;1.4235;
-101.7000;0.4086;1.4309;
-101.4000;0.4078;1.4334;
-101.1000;0.4086;1.4359;
-100.8000;0.4086;1.4309;
-100.5000;0.4070;1.4309;
-100.2000;0.4094;1.4459;
-99.9000;0.4086;1.4459;
-99.6000;0.4151;1.4609;
-99.3000;0.4062;1.4434;
-99.0000;0.4062;1.4409;
-98.7000;0.4070;1.4359;
-98.4000;0.4062;1.4309;
-98.1000;0.4062;1.4210;
-97.8000;0.4127;1.4384;
-97.5000;0.4070;1.4260;
-97.2000;0.4054;1.4260;
-96.9000;0.4078;1.4260;
-96.6000;0.4070;1.4334;
-96.3000;0.4021;1.4160;
-96.0000;0.4070;1.4160;
-95.7000;0.4078;1.4160;
-95.4000;0.4078;1.4160;
-95.1000;0.4160;1.4309;
-94.8000;0.4070;1.4060;
-94.5000;0.4078;1.4085;
-94.2000;0.4078;1.4135;
-93.9000;0.4070;1.4110;
-93.6000;0.4078;1.4185;
-93.3000;0.4078;1.4185;
-93.0000;0.4111;1.4235;
-92.7000;0.4078;1.4160;
-92.4000;0.4086;1.4085;
-92.1000;0.4111;1.4235;
-91.8000;0.4094;1.4185;
-91.5000;0.4086;1.4135;
-91.2000;0.4070;1.4110;
-90.9000;0.4078;1.4085;
-90.6000;0.4070;1.4085;
-90.3000;0.4070;1.4035;
-90.0000;0.4070;1.4110;
-89.7000;0.4062;1.4085;
-89.4000;0.4078;1.4035;
-89.1000;0.4135;1.4285;
-88.8000;0.4070;1.4135;
-88.5000;0.4086;1.4110;
-88.2000;0.4086;1.4185;
-87.9000;0.4143;1.4359;
-87.6000;0.4086;1.4235;
-87.3000;0.4086;1.4285;
-87.0000;0.4086;1.4285;
-86.7000;0.4078;1.4359;
-86.4000;0.4094;1.4459;
-86.1000;0.4078;1.4409;
-85.8000;0.4078;1.4384;
-85.5000;0.4086;1.4309;
-85.2000;0.4086;1.4285;
-84.9000;0.4086;1.4185;
-84.6000;0.4094;1.4110;
-84.3000;0.4070;1.4010;
-84.0000;0.4094;1.4035;
-83.7000;0.4054;1.3885;
-83.4000;0.4086;1.4010;
-83.1000;0.4078;1.3935;
-82.8000;0.4086;1.4035;
-82.5000;0.4086;1.4035;
-82.2000;0.4119;1.4035;
-81.9000;0.4078;1.3960;
-81.6000;0.4086;1.4110;
-81.3000;0.4070;1.4085;
-81.0000;0.4070;1.4110;
-80.7000;0.4054;1.4160;
-80.4000;0.4070;1.4235;
-80.1000;0.4078;1.4135;
-79.8000;0.4070;1.4135;
-79.5000;0.4070;1.4185;
-79.2000;0.4062;1.4235;
-78.9000;0.4062;1.4235;
-78.6000;0.4070;1.4235;
-78.3000;0.4086;1.4285;
-78.0000;0.4094;1.4359;
-77.7000;0.4070;1.4359;
-77.4000;0.4037;1.4260;
-77.1000;0.4094;1.4359;
-76.8000;0.4078;1.4260;
-76.5000;0.4078;1.4285;
-76.2000;0.4070;1.4235;
-75.9000;0.4119;1.4235;
-75.6000;0.4070;1.4085;
-75.3000;0.4078;1.4035;
-75.0000;0.4046;1.3935;
-74.7000;0.4054;1.3910;
-74.4000;0.4078;1.3985;
-74.1000;0.4062;1.3985;
-73.8000;0.4078;1.4010;
-73.5000;0.4127;1.4160;
-73.2000;0.4086;1.4035;
-72.9000;0.4054;1.4060;
-72.6000;0.4062;1.4085;
-72.3000;0.4062;1.4035;
-72.0000;0.4078;1.4035;
-71.7000;0.4078;1.4060;
-71.4000;0.4070;1.4210;
-71.1000;0.4078;1.4210;
-70.8000;0.4078;1.4235;
-70.5000;0.4086;1.4235;
-70.2000;0.4070;1.4210;
-69.9000;0.4078;1.4210;
-69.6000;0.4078;1.4285;
-69.3000;0.4103;1.4260;
-69.0000;0.4062;1.4135;
-68.7000;0.4086;1.4210;
-68.4000;0.4070;1.4185;
-68.1000;0.4086;1.4210;
-67.8000;0.4078;1.4160;
-67.5000;0.4078;1.4235;
-67.2000;0.4062;1.4260;
-66.9000;0.4086;1.4334;
-66.6000;0.4086;1.4334;
-66.3000;0.4094;1.4334;
-66.0000;0.4086;1.4235;
-65.7000;0.4078;1.4285;
-65.4000;0.4094;1.4384;
-65.1000;0.4062;1.4334;
-64.8000;0.4143;1.4409;
-64.5000;0.4086;1.4235;
-64.2000;0.4094;1.4210;
-63.9000;0.4070;1.4260;
-63.6000;0.4086;1.4309;
-63.3000;0.4070;1.4309;
-63.0000;0.4103;1.4384;
-62.7000;0.4086;1.4309;
-62.4000;0.4078;1.4334;
-62.1000;0.4070;1.4309;
-61.8000;0.4086;1.4285;
-61.5000;0.4078;1.4285;
-61.2000;0.4086;1.4409;
-60.9000;0.4078;1.4334;
-60.6000;0.4070;1.4309;
-60.3000;0.4070;1.4285;
-60.0000;0.4062;1.4185;
-59.7000;0.4062;1.4160;
-59.4000;0.4062;1.4160;
-59.1000;0.4078;1.4210;
-58.8000;0.4054;1.4210;
-58.5000;0.4078;1.4235;
-58.2000;0.4078;1.4185;
-57.9000;0.4062;1.4160;
-57.6000;0.4078;1.4235;
-57.3000;0.4054;1.4185;
-57.0000;0.4046;1.4010;
-56.7000;0.4078;1.4085;
-56.4000;0.4086;1.4060;
-56.1000;0.4078;1.4110;
-55.8000;0.4086;1.4135;
-55.5000;0.4094;1.4085;
-55.2000;0.4103;1.3960;
-54.9000;0.4078;1.3860;
-54.6000;0.4078;1.3885;
-54.3000;0.4078;1.3935;
-54.0000;0.4086;1.3960;
-53.7000;0.4062;1.3960;
-53.4000;0.4070;1.3985;
-53.1000;0.4086;1.4010;
-52.8000;0.4054;1.3985;
-52.5000;0.4086;1.4035;
-52.2000;0.4078;1.4060;
-51.9000;0.4086;1.4060;
-51.6000;0.4062;1.4060;
-51.3000;0.4103;1.4160;
-51.0000;0.4086;1.4110;
-50.7000;0.4143;1.4235;
-50.4000;0.4103;1.4110;
-50.1000;0.4103;1.4160;
-49.8000;0.4078;1.4160;
-49.5000;0.4062;1.4135;
-49.2000;0.4086;1.4135;
-48.9000;0.4119;1.4210;
-48.6000;0.4086;1.4185;
-48.3000;0.4086;1.4060;
-48.0000;0.4070;1.4035;
-47.7000;0.4086;1.4135;
-47.4000;0.4086;1.4160;
-47.1000;0.4070;1.4160;
-46.8000;0.4070;1.4160;
-46.5000;0.4078;1.4235;
-46.2000;0.4086;1.4235;
-45.9000;0.4086;1.4235;
-45.6000;0.4078;1.4160;
-45.3000;0.4078;1.4210;
-45.0000;0.4037;1.4135;
-44.7000;0.4078;1.4260;
-44.4000;0.4086;1.4210;
-44.1000;0.4078;1.4135;
-43.8000;0.4078;1.4110;
-43.5000;0.4086;1.4135;
-43.2000;0.4078;1.4085;
-42.9000;0.4070;1.4085;
-42.6000;0.4062;1.4035;
-42.3000;0.4086;1.4110;
-42.0000;0.4029;1.3910;
-41.7000;0.4062;1.4110;
-41.4000;0.4078;1.4110;
-41.1000;0.4094;1.4060;
-40.8000;0.4094;1.4085;
-40.5000;0.4078;1.4160;
-40.2000;0.4094;1.4185;
-39.9000;0.4078;1.4135;
-39.6000;0.4062;1.4210;
-39.3000;0.4078;1.4235;
-39.0000;0.4070;1.4185;
-38.7000;0.4094;1.4260;
-38.4000;0.4037;1.4110;
-38.1000;0.4062;1.4135;
-37.8000;0.4078;1.4160;
-37.5000;0.4086;1.4060;
-37.2000;0.4086;1.4135;
-36.9000;0.4078;1.4110;
-36.6000;0.4062;1.4160;
-36.3000;0.4103;1.4260;
-36.0000;0.4054;1.4110;
-35.7000;0.4078;1.4110;
-35.4000;0.4054;1.3985;
-35.1000;0.4111;1.4085;
-34.8000;0.4062;1.4060;
-34.5000;0.4078;1.4110;
-34.2000;0.4078;1.4085;
-33.9000;0.4070;1.4060;
-33.6000;0.4094;1.4085;
-33.3000;0.4078;1.4060;
-33.0000;0.4078;1.4135;
-32.7000;0.4078;1.4135;
-32.4000;0.4070;1.4210;
-32.1000;0.4070;1.4334;
-31.8000;0.4070;1.4285;
-31.5000;0.4062;1.4210;
-31.2000;0.4078;1.4309;
-30.9000;0.4094;1.4334;
-30.6000;0.4078;1.4210;
-30.3000;0.4078;1.4185;
-30.0000;0.4062;1.4285;
-29.7000;0.4094;1.4384;
-29.4000;0.4086;1.4260;
-29.1000;0.4078;1.4185;
-28.8000;0.4070;1.4235;
-28.5000;0.4078;1.4235;
-28.2000;0.4086;1.4210;
-27.9000;0.4070;1.4110;
-27.6000;0.4086;1.4060;
-27.3000;0.4094;1.4060;
-27.0000;0.4086;1.4060;
-26.7000;0.4062;1.4035;
-26.4000;0.4062;1.4085;
-26.1000;0.4046;1.4035;
-25.8000;0.4046;1.4085;
-25.5000;0.4143;1.4434;
-25.2000;0.4078;1.4285;
-24.9000;0.4086;1.4309;
-24.6000;0.4070;1.4285;
-24.3000;0.4103;1.4359;
-24.0000;0.4086;1.4285;
-23.7000;0.4070;1.4260;
-23.4000;0.4086;1.4260;
-23.1000;0.4037;1.4060;
-22.8000;0.4078;1.4185;
-22.5000;0.4111;1.4260;
-22.2000;0.4086;1.4160;
-21.9000;0.4070;1.4135;
-21.6000;0.4046;1.3985;
-21.3000;0.4070;1.4035;
-21.0000;0.4054;1.4035;
-20.7000;0.4086;1.4110;
-20.4000;0.4078;1.4085;
-20.1000;0.4086;1.4110;
-19.8000;0.4094;1.4110;
-19.5000;0.4160;1.4334;
-19.2000;0.4078;1.4110;
-18.9000;0.4078;1.4235;
-18.6000;0.4070;1.4210;
-18.3000;0.4070;1.4285;
-18.0000;0.4078;1.4359;
-17.7000;0.4054;1.4309;
-17.4000;0.4054;1.4309;
-17.1000;0.4062;1.4235;
-16.8000;0.4086;1.4260;
-16.5000;0.4094;1.4260;
-16.2000;0.4078;1.4235;
-15.9000;0.4070;1.4285;
-15.6000;0.4094;1.4409;
-15.3000;0.4111;1.4484;
-15.0000;0.4070;1.4359;
-14.7000;0.4086;1.4384;
-14.4000;0.4062;1.4359;
-14.1000;0.4086;1.4384;
-13.8000;0.4078;1.4260;
-13.5000;0.4086;1.4210;
-13.2000;0.4103;1.4260;
-12.9000;0.4086;1.4085;
-12.6000;0.4070;1.4035;
-12.3000;0.4070;1.4035;
-12.0000;0.4078;1.4010;
-11.7000;0.4086;1.4060;
-11.4000;0.4078;1.4085;
-11.1000;0.4054;1.4035;
-10.8000;0.4086;1.4060;
-10.5000;0.4070;1.4135;
-10.2000;0.4078;1.4235;
-9.9000;0.4078;1.4185;
-9.6000;0.4094;1.4210;
-9.3000;0.4078;1.4235;
-9.0000;0.4037;1.4110;
-8.7000;0.4054;1.4160;
-8.4000;0.4070;1.4110;
-8.1000;0.4046;1.4010;
-7.8000;0.4078;1.4135;
-7.5000;0.4086;1.4110;
-7.2000;0.4070;1.4060;
-6.9000;0.4070;1.4010;
-6.6000;0.4037;1.3885;
-6.3000;0.4070;1.4010;
-6.0000;0.4070;1.4035;
-5.7000;0.4078;1.4060;
-5.4000;0.4094;1.4110;
-5.1000;0.4078;1.4110;
-4.8000;0.4078;1.4060;
-4.5000;0.4086;1.4110;
-4.2000;0.4086;1.4185;
-3.9000;0.4070;1.4235;
-3.6000;0.4070;1.4135;
-3.3000;0.4094;1.4135;
-3.0000;0.4086;1.4160;
-2.7000;0.4103;1.4160;
-2.4000;0.4078;1.4110;
-2.1000;0.4078;1.4160;
-1.8000;0.4021;1.3985;
-1.5000;0.4078;1.4060;
-1.2000;0.4046;1.3935;
-0.9000;0.4078;1.3985;
-0.6000;0.4070;1.4035;
-0.3000;0.4078;1.4010;
0.0000;0.4078;1.4010;
0.3000;0.4265;1.4160;
0.6000;0.4583;1.4484;
0.9000;0.4908;1.5109;
1.2000;0.5063;1.5233;
1.5000;0.5218;1.5383;
1.8000;0.5315;1.5608;
2.1000;0.5413;1.5883;
2.4000;0.5495;1.6108;
2.7000;0.5551;1.6207;
3.0000;0.5592;1.6332;
3.3000;0.5665;1.6557;
3.6000;0.5690;1.6657;
3.9000;0.5731;1.6657;
4.2000;0.5747;1.6582;
4.5000;0.5771;1.6582;
4.8000;0.5804;1.6482;
5.1000;0.5820;1.6457;
5.4000;0.5853;1.6532;
5.7000;0.5885;1.6632;
6.0000;0.5918;1.6757;
6.3000;0.5942;1.6807;
6.6000;0.5950;1.6782;
6.9000;0.5967;1.6782;
7.2000;0.6015;1.6857;
7.5000;0.6007;1.6782;
7.8000;0.6015;1.6807;
8.1000;0.5983;1.6732;
8.4000;0.6056;1.6857;
8.7000;0.6081;1.6832;
9.0000;0.6089;1.6832;
9.3000;0.6105;1.6832;
9.6000;0.6170;1.6932;
9.9000;0.6138;1.6832;
10.2000;0.6154;1.6857;
10.5000;0.6162;1.6932;
10.8000;0.6170;1.6857;
11.1000;0.6195;1.6857;
11.4000;0.6235;1.6832;
11.7000;0.6219;1.6807;
12.0000;0.6235;1.6732;
12.3000;0.6243;1.6707;
12.6000;0.6260;1.6757;
12.9000;0.6276;1.6732;
13.2000;0.6268;1.6757;
13.5000;0.6276;1.6757;
13.8000;0.6317;1.6807;
14.1000;0.6325;1.6782;
14.4000;0.6333;1.6757;
14.7000;0.6349;1.6807;
15.0000;0.6357;1.6757;
15.3000;0.6382;1.6707;
15.6000;0.6398;1.6707;
15.9000;0.6390;1.6707;
16.2000;0.6406;1.6657;
16.5000;0.6463;1.6957;
16.8000;0.6431;1.6807;
17.1000;0.6455;1.6857;
17.4000;0.6382;1.6632;
17.7000;0.6479;1.6882;
18.0000;0.6488;1.6932;
18.3000;0.6463;1.6757;
18.6000;0.6471;1.6807;
18.9000;0.6520;1.6932;
19.2000;0.6528;1.6957;
19.5000;0.6528;1.6982;
19.8000;0.6545;1.7007;
20.1000;0.6553;1.6982;
20.4000;0.6610;1.7032;
20.7000;0.6569;1.6832;
21.0000;0.6577;1.6832;
21.3000;0.6585;1.6832;
21.6000;0.6593;1.6832;
21.9000;0.6610;1.6932;
22.2000;0.6618;1.6982;
22.5000;0.6634;1.6932;
22.8000;0.6618;1.6857;
23.1000;0.6642;1.6832;
23.4000;0.6634;1.6882;
23.7000;0.6659;1.6907;
24.0000;0.6667;1.6857;
24.3000;0.6675;1.6832;
24.6000;0.6667;1.6782;
24.9000;0.6691;1.6807;
25.2000;0.6699;1.6832;
25.5000;0.6683;1.6782;
25.8000;0.6699;1.6757;
26.1000;0.6707;1.6832;
26.4000;0.6732;1.6782;
26.7000;0.6740;1.6757;
27.0000;0.6740;1.6782;
27.3000;0.6740;1.6782;
27.6000;0.6756;1.6907;
27.9000;0.6748;1.6932;
28.2000;0.6756;1.6857;
28.5000;0.6756;1.6732;
28.8000;0.6764;1.6707;
29.1000;0.6789;1.6682;
29.4000;0.6756;1.6507;
29.7000;0.6772;1.6482;
30.0000;0.6789;1.6632;
30.3000;0.6805;1.6657;
30.6000;0.6813;1.6682;
30.9000;0.6797;1.6657;
31.2000;0.6813;1.6607;
31.5000;0.6821;1.6607;
31.8000;0.6821;1.6657;
32.1000;0.6821;1.6682;
32.4000;0.6838;1.6732;
32.7000;0.6862;1.6782;
33.0000;0.6878;1.6757;
33.3000;0.6838;1.6682;
33.6000;0.6838;1.6682;
33.9000;0.6846;1.6732;
34.2000;0.6878;1.6757;
34.5000;0.6862;1.6657;
34.8000;0.6862;1.6657;
35.1000;0.6870;1.6657;
35.4000;0.6911;1.6682;
35.7000;0.6935;1.6632;
36.0000;0.6895;1.6532;
36.3000;0.6895;1.6532;
36.6000;0.6895;1.6407;
36.9000;0.6919;1.6432;
37.2000;0.6895;1.6432;
37.5000;0.6919;1.6557;
37.8000;0.6911;1.6607;
38.1000;0.6935;1.6557;
38.4000;0.6935;1.6482;
38.7000;0.6927;1.6482;
39.0000;0.6927;1.6407;
39.3000;0.6935;1.6507;
39.6000;0.7009;1.6807;
39.9000;0.6935;1.6632;
40.2000;0.6952;1.6657;
40.5000;0.6968;1.6732;
40.8000;0.6952;1.6632;
41.1000;0.6952;1.6532;
41.4000;0.6960;1.6557;
41.7000;0.6968;1.6557;
42.0000;0.6976;1.6557;
42.3000;0.6976;1.6557;
42.6000;0.7041;1.6707;
42.9000;0.6943;1.6382;
43.2000;0.6984;1.6432;
43.5000;0.6976;1.6457;
43.8000;0.7000;1.6457;
44.1000;0.6992;1.6582;
44.4000;0.6984;1.6582;
44.7000;0.6984;1.6557;
45.0000;0.6976;1.6507;
45.3000;0.7000;1.6607;
45.6000;0.7009;1.6532;
45.9000;0.6927;1.6357;
46.2000;0.7009;1.6557;
46.5000;0.7017;1.6557;
46.8000;0.7025;1.6507;
47.1000;0.7033;1.6532;
47.4000;0.7033;1.6557;
47.7000;0.7025;1.6507;
48.0000;0.7025;1.6507;
48.3000;0.7017;1.6482;
48.6000;0.7025;1.6432;
48.9000;0.6992;1.6407;
49.2000;0.7025;1.6457;
49.5000;0.7041;1.6457;
49.8000;0.7033;1.6407;
50.1000;0.7025;1.6482;
50.4000;0.7033;1.6507;
50.7000;0.7049;1.6532;
51.0000;0.7041;1.6482;
51.3000;0.7074;1.6507;
51.6000;0.7049;1.6432;
51.9000;0.7066;1.6482;
52.2000;0.7098;1.6532;
52.5000;0.7066;1.6582;
52.8000;0.7066;1.6532;
53.1000;0.7066;1.6532;
53.4000;0.7082;1.6582;
53.7000;0.7090;1.6632;
54.0000;0.7074;1.6632;
54.3000;0.7074;1.6607;
54.6000;0.7082;1.6582;
54.9000;0.7090;1.6607;
55.2000;0.7090;1.6582;
55.5000;0.7090;1.6557;
55.8000;0.7074;1.6532;
56.1000;0.7106;1.6582;
56.4000;0.7082;1.6532;
56.7000;0.7106;1.6432;
57.0000;0.7114;1.6432;
57.3000;0.7123;1.6432;
57.6000;0.7106;1.6407;
57.9000;0.7106;1.6507;
58.2000;0.7106;1.6507;
58.5000;0.7131;1.6507;
58.8000;0.7171;1.6632;
59.1000;0.7212;1.6707;
59.4000;0.7123;1.6482;
59.7000;0.7123;1.6482;
60.0000;0.7131;1.6507;
60.3000;0.7123;1.6482;
60.6000;0.7131;1.6482;
60.9000;0.7139;1.6457;
61.2000;0.7147;1.6532;
61.5000;0.7147;1.6507;
61.8000;0.7147;1.6482;
62.1000;0.7155;1.6482;
62.4000;0.7155;1.6532;
62.7000;0.7155;1.6482;
63.0000;0.7114;1.6432;
63.3000;0.7155;1.6507;
63.6000;0.7123;1.6432;
63.9000;0.7155;1.6382;
64.2000;0.7139;1.6307;
64.5000;0.7163;1.6257;
64.8000;0.7171;1.6282;
65.1000;0.7179;1.6257;
65.4000;0.7106;1.6058;
65.7000;0.7188;1.6207;
66.0000;0.7179;1.6108;
66.3000;0.7188;1.6182;
66.6000;0.7163;1.6157;
66.9000;0.7179;1.6108;
67.2000;0.7179;1.6157;
67.5000;0.7171;1.6232;
67.8000;0.7212;1.6307;
68.1000;0.7179;1.6282;
68.4000;0.7204;1.6282;
68.7000;0.7196;1.6257;
69.0000;0.7188;1.6307;
69.3000;0.7188;1.6232;
69.6000;0.7204;1.6282;
69.9000;0.7171;1.6207;
70.2000;0.7253;1.6407;
70.5000;0.7188;1.6182;
70.8000;0.7179;1.6133;
71.1000;0.7196;1.6108;
71.4000;0.7212;1.6182;
71.7000;0.7188;1.6207;
72.0000;0.7196;1.6307;
72.3000;0.7204;1.6332;
72.6000;0.7204;1.6332;
72.9000;0.7212;1.6357;
73.2000;0.7196;1.6407;
73.5000;0.7196;1.6357;
73.8000;0.7220;1.6382;
74.1000;0.7220;1.6332;
74.4000;0.7212;1.6332;
74.7000;0.7196;1.6282;
75.0000;0.7228;1.6332;
75.3000;0.7228;1.6282;
75.6000;0.7212;1.6332;
75.9000;0.7220;1.6307;
76.2000;0.7236;1.6282;
76.5000;0.7236;1.6282;
76.8000;0.7245;1.6282;
77.1000;0.7236;1.6207;
77.4000;0.7236;1.6182;
77.7000;0.7228;1.6207;
78.0000;0.7228;1.6207;
78.3000;0.7236;1.6282;
78.6000;0.7253;1.6407;
78.9000;0.7253;1.6432;
79.2000;0.7236;1.6457;
79.5000;0.7228;1.6482;
79.8000;0.7261;1.6557;
80.1000;0.7269;1.6482;
80.4000;0.7253;1.6357;
80.7000;0.7261;1.6332;
81.0000;0.7269;1.6382;
81.3000;0.7261;1.6382;
81.6000;0.7261;1.6432;
81.9000;0.7253;1.6457;
82.2000;0.7269;1.6457;
82.5000;0.7261;1.6432;
82.8000;0.7228;1.6332;
83.1000;0.7253;1.6407;
83.4000;0.7253;1.6382;
83.7000;0.7261;1.6432;
84.0000;0.7269;1.6432;
84.3000;0.7261;1.6407;
84.6000;0.7245;1.6432;
84.9000;0.7269;1.6407;
85.2000;0.7293;1.6532;
85.5000;0.7269;1.6507;
85.8000;0.7253;1.6482;
86.1000;0.7269;1.6482;
86.4000;0.7285;1.6432;
86.7000;0.7285;1.6482;
87.0000;0.7302;1.6507;
87.3000;0.7277;1.6382;
87.6000;0.7269;1.6382;
87.9000;0.7302;1.6382;
88.2000;0.7285;1.6382;
88.5000;0.7285;1.6332;
88.8000;0.7302;1.6282;
89.1000;0.7293;1.6257;
89.4000;0.7236;1.6108;
89.7000;0.7334;1.6307;
90.0000;0.7359;1.6357;
90.3000;0.7367;1.6432;
90.6000;0.7293;1.6207;
90.9000;0.7326;1.6332;
91.2000;0.7302;1.6332;
91.5000;0.7318;1.6382;
91.8000;0.7293;1.6332;
92.1000;0.7318;1.6432;
92.4000;0.7310;1.6407;
92.7000;0.7302;1.6407;
93.0000;0.7310;1.6332;
93.3000;0.7277;1.6282;
93.6000;0.7310;1.6332;
93.9000;0.7326;1.6207;
94.2000;0.7342;1.6257;
94.5000;0.7318;1.6157;
94.8000;0.7310;1.6133;
95.1000;0.7310;1.6182;
95.4000;0.7334;1.6232;
95.7000;0.7326;1.6207;
96.0000;0.7310;1.6182;
96.3000;0.7318;1.6257;
96.6000;0.7326;1.6182;
96.9000;0.7367;1.6257;
97.2000;0.7326;1.6108;
97.5000;0.7326;1.6133;
97.8000;0.7326;1.6182;
98.1000;0.7350;1.6282;
98.4000;0.7318;1.6232;
98.7000;0.7326;1.6282;
99.0000;0.7326;1.6257;
99.3000;0.7326;1.6257;
99.6000;0.7334;1.6182;
99.9000;0.7326;1.6157;
100.2000;0.7342;1.6157;
100.5000;0.7334;1.6033;
100.8000;0.7334;1.6083;
101.1000;0.7310;1.6058;
101.4000;0.7350;1.6182;
101.7000;0.7359;1.6257;
102.0000;0.7334;1.6282;
102.3000;0.7350;1.6257;
102.6000;0.7334;1.6257;
102.9000;0.7326;1.6282;
103.2000;0.7350;1.6332;
103.5000;0.7318;1.6257;
103.8000;0.7318;1.6207;
104.1000;0.7359;1.6232;
104.4000;0.7416;1.6407;
104.7000;0.7350;1.6207;
105.0000;0.7318;1.6157;
105.3000;0.7334;1.6157;
105.6000;0.7350;1.6207;
105.9000;0.7318;1.6133;
106.2000;0.7350;1.6083;
106.5000;0.7326;1.6108;
106.8000;0.7350;1.6257;
107.1000;0.7334;1.6207;
107.4000;0.7326;1.6207;
107.7000;0.7342;1.6282;
108.0000;0.7350;1.6382;
108.3000;0.7342;1.6382;
108.6000;0.7359;1.6382;
108.9000;0.7318;1.6207;
109.2000;0.7326;1.6282;
109.5000;0.7342;1.6332;
109.8000;0.7359;1.6307;
110.1000;0.7318;1.6108;
110.4000;0.7310;1.6033;
110.7000;0.7359;1.6182;
111.0000;0.7302;1.5983;
111.3000;0.7310;1.6058;
111.6000;0.7350;1.6207;
111.9000;0.7342;1.6133;
112.2000;0.7375;1.6232;
112.5000;0.7359;1.6232;
112.8000;0.7359;1.6133;
113.1000;0.7359;1.6108;
113.4000;0.7350;1.6083;
113.7000;0.7350;1.6083;
114.0000;0.7375;1.6182;
114.3000;0.7375;1.6083;
114.6000;0.7367;1.6083;
114.9000;0.7359;1.6108;
115.2000;0.7359;1.6182;
115.5000;0.7350;1.6257;
115.8000;0.7407;1.6382;
116.1000;0.7359;1.6257;
116.4000;0.7359;1.6257;
116.7000;0.7359;1.6332;
117.0000;0.7367;1.6357;
117.3000;0.7359;1.6307;
117.6000;0.7375;1.6332;
117.9000;0.7359;1.6357;
118.2000;0.7350;1.6332;
118.5000;0.7383;1.6357;
118.8000;0.7375;1.6307;
119.1000;0.7367;1.6257;
119.4000;0.7383;1.6307;
119.7000;0.7375;1.6407;
120.0000;0.7391;1.6407;
120.3000;0.7383;1.6432;
120.6000;0.7375;1.6357;
120.9000;0.7383;1.6382;
121.2000;0.7391;1.6332;
121.5000;0.7375;1.6307;
121.8000;0.7383;1.6457;
122.1000;0.7375;1.6457;
122.4000;0.7383;1.6507;
122.7000;0.7367;1.6507;
123.0000;0.7375;1.6507;
123.3000;0.7375;1.6432;
123.6000;0.7399;1.6432;
123.9000;0.7391;1.6382;
124.2000;0.7391;1.6257;
124.5000;0.7383;1.6307;
124.8000;0.7383;1.6357;
125.1000;0.7367;1.6232;
125.4000;0.7391;1.6307;
125.7000;0.7383;1.6282;
126.0000;0.7383;1.6332;
126.3000;0.7383;1.6357;
126.6000;0.7359;1.6432;
126.9000;0.7391;1.6432;
127.2000;0.7359;1.6382;
127.5000;0.7375;1.6407;
127.8000;0.7375;1.6407;
128.1000;0.7367;1.6432;
128.4000;0.7407;1.6532;
128.7000;0.7399;1.6532;
129.0000;0.7375;1.6582;
129.3000;0.7383;1.6507;
129.6000;0.7383;1.6407;
129.9000;0.7383;1.6332;
130.2000;0.7383;1.6282;
130.5000;0.7383;1.6282;
130.8000;0.7375;1.6207;
131.1000;0.7383;1.6282;
131.4000;0.7367;1.6282;
131.7000;0.7375;1.6357;
132.0000;0.7367;1.6257;
132.3000;0.7375;1.6282;
132.6000;0.7375;1.6133;
132.9000;0.7367;1.6108;
133.2000;0.7383;1.6182;
133.5000;0.7334;1.6108;
133.8000;0.7399;1.6232;
134.1000;0.7391;1.6357;
134.4000;0.7416;1.6432;
134.7000;0.7391;1.6282;
135.0000;0.7383;1.6257;
135.3000;0.7407;1.6307;
135.6000;0.7383;1.6232;
135.9000;0.7416;1.6332;
136.2000;0.7383;1.6282;
136.5000;0.7399;1.6332;
136.8000;0.7383;1.6357;
137.1000;0.7375;1.6407;
137.4000;0.7359;1.6382;
137.7000;0.7383;1.6457;
138.0000;0.7383;1.6407;
138.3000;0.7407;1.6357;
138.6000;0.7375;1.6257;
138.9000;0.7383;1.6257;
139.2000;0.7391;1.6332;
139.5000;0.7375;1.6282;
139.8000;0.7383;1.6357;
140.1000;0.7383;1.6257;
140.4000;0.7375;1.6282;
140.7000;0.7367;1.6232;
141.0000;0.7375;1.6232;
141.3000;0.7383;1.6232;
141.6000;0.7391;1.6357;
141.9000;0.7464;1.6532;
142.2000;0.7407;1.6307;
142.5000;0.7391;1.6157;
142.8000;0.7399;1.6108;
143.1000;0.7399;1.6133;
143.4000;0.7399;1.6133;
143.7000;0.7391;1.6133;
144.0000;0.7416;1.6157;
144.3000;0.7367;1.6033;
144.6000;0.7399;1.6083;
144.9000;0.7416;1.6083;
145.2000;0.7416;1.6157;
145.5000;0.7399;1.6133;
145.8000;0.7399;1.6157;
146.1000;0.7383;1.6182;
146.4000;0.7399;1.6207;
146.7000;0.7391;1.6257;
147.0000;0.7391;1.6207;
147.3000;0.7424;1.6357;
147.6000;0.7375;1.6108;
147.9000;0.7375;1.6108;
148.2000;0.7391;1.6157;
148.5000;0.7383;1.6182;
148.8000;0.7391;1.6232;
149.1000;0.7407;1.6207;
149.4000;0.7399;1.6207;
149.7000;0.7383;1.6232;
150.0000;0.7383;1.6332;
150.3000;0.7391;1.6382;
150.6000;0.7416;1.6307;
150.9000;0.7391;1.6182;
151.2000;0.7399;1.6157;
151.5000;0.7407;1.6108;
151.8000;0.7326;1.5833;
152.1000;0.7383;1.6008;
152.4000;0.7391;1.6083;
152.7000;0.7342;1.5983;
153.0000;0.7367;1.6058;
153.3000;0.7407;1.6083;
153.6000;0.7391;1.6033;
153.9000;0.7383;1.5983;
154.2000;0.7399;1.6108;
154.5000;0.7367;1.6008;
154.8000;0.7407;1.6008;
155.1000;0.7399;1.6058;
155.4000;0.7399;1.6058;
155.7000;0.7407;1.6182;
156.0000;0.7383;1.6133;
156.3000;0.7416;1.6257;
156.6000;0.7424;1.6282;
156.9000;0.7391;1.6182;
157.2000;0.7407;1.6207;
157.5000;0.7383;1.6083;
157.8000;0.7383;1.6108;
158.1000;0.7424;1.6232;
158.4000;0.7407;1.6282;
158.7000;0.7407;1.6232;
159.0000;0.7399;1.6207;
159.3000;0.7416;1.6307;
159.6000;0.7416;1.6282;
159.9000;0.7407;1.6282;
160.2000;0.7407;1.6232;
160.5000;0.7391;1.6182;
160.8000;0.7391;1.6232;
161.1000;0.7391;1.6232;
161.4000;0.7383;1.6157;
161.7000;0.7399;1.6232;
162.0000;0.7416;1.6307;
162.3000;0.7391;1.6307;
162.6000;0.7391;1.6282;
162.9000;0.7424;1.6307;
163.2000;0.7399;1.6282;
163.5000;0.7399;1.6282;
163.8000;0.7399;1.6232;
164.1000;0.7391;1.6257;
164.4000;0.7407;1.6307;
164.7000;0.7399;1.6257;
165.0000;0.7383;1.6232;
165.3000;0.7391;1.6157;
165.6000;0.7399;1.6182;
165.9000;0.7407;1.6157;
166.2000;0.7399;1.6182;
166.5000;0.7399;1.6232;
166.8000;0.7416;1.6282;
167.1000;0.7399;1.6257;
167.4000;0.7391;1.6257;
167.7000;0.7391;1.6133;
168.0000;0.7407;1.6157;
168.3000;0.7416;1.6108;
168.6000;0.7407;1.6083;
168.9000;0.7407;1.6133;
169.2000;0.7407;1.6108;
169.5000;0.7399;1.6108;
169.8000;0.7391;1.6133;
170.1000;0.7383;1.6207;
170.4000;0.7407;1.6282;
170.7000;0.7391;1.6307;
171.0000;0.7416;1.6332;
171.3000;0.7416;1.6332;
171.6000;0.7359;1.6108;
171.9000;0.7416;1.6182;
172.2000;0.7391;1.6108;
172.5000;0.7375;1.6108;
172.8000;0.7399;1.6157;
173.1000;0.7391;1.6157;
173.4000;0.7391;1.6207;
173.7000;0.7391;1.6182;
174.0000;0.7391;1.6232;
174.3000;0.7399;1.6257;
174.6000;0.7407;1.6332;
174.9000;0.7391;1.6257;
175.2000;0.7407;1.6232;
175.5000;0.7391;1.6332;
175.8000;0.7416;1.6382;
176.1000;0.7391;1.6357;
176.4000;0.7391;1.6357;
176.7000;0.7464;1.6557;
177.0000;0.7391;1.6357;
177.3000;0.7407;1.6357;
177.6000;0.7391;1.6332;
177.9000;0.7424;1.6432;
178.2000;0.7383;1.6257;
178.5000;0.7391;1.6332;
178.8000;0.7391;1.6232;
179.1000;0.7375;1.6182;
179.4000;0.7383;1.6232;
179.7000;0.7383;1.6307;
180.0000;0.7383;1.6257;
180.3000;0.7399;1.6282;
180.6000;0.7391;1.6157;
180.9000;0.7399;1.6207;
181.2000;0.7399;1.6307;
181.5000;0.7424;1.6332;
181.8000;0.7383;1.6182;
182.1000;0.7399;1.6157;
182.4000;0.7407;1.6207;
182.7000;0.7375;1.6257;
183.0000;0.7407;1.6307;
183.3000;0.7416;1.6357;
183.6000;0.7391;1.6357;
183.9000;0.7375;1.6282;
184.2000;0.7391;1.6307;
184.5000;0.7383;1.6232;
184.8000;0.7326;1.6108;
185.1000;0.7367;1.6157;
185.4000;0.7391;1.6257;
185.7000;0.7375;1.6282;
186.0000;0.7383;1.6332;
186.3000;0.7407;1.6407;
186.6000;0.7383;1.6332;
186.9000;0.7383;1.6407;
187.2000;0.7383;1.6282;
187.5000;0.7416;1.6257;
187.8000;0.7432;1.6182;
188.1000;0.7391;1.6033;
188.4000;0.7391;1.5983;
188.7000;0.7391;1.6033;
189.0000;0.7359;1.5883;
189.3000;0.7367;1.5908;
189.6000;0.7383;1.5858;
189.9000;0.7416;1.5958;
190.2000;0.7407;1.6033;
190.5000;0.7391;1.5983;
190.8000;0.7399;1.6033;
191.1000;0.7399;1.6033;
191.4000;0.7416;1.6008;
191.7000;0.7407;1.5983;
192.0000;0.7399;1.5958;
192.3000;0.7416;1.5883;
192.6000;0.7407;1.5883;
192.9000;0.7391;1.6008;
193.2000;0.7391;1.6058;
193.5000;0.7367;1.6108;
193.8000;0.7407;1.6157;
194.1000;0.7367;1.6033;
194.4000;0.7391;1.6133;
194.7000;0.7399;1.6083;
195.0000;0.7383;1.5958;
195.3000;0.7359;1.5858;
195.6000;0.7391;1.6033;
195.9000;0.7391;1.6058;
196.2000;0.7391;1.6108;
196.5000;0.7407;1.6083;
196.8000;0.7383;1.6058;
197.1000;0.7383;1.6083;
197.4000;0.7399;1.6157;
197.7000;0.7407;1.6207;
198.0000;0.7399;1.6157;
198.3000;0.7391;1.6182;
198.6000;0.7399;1.6182;
198.9000;0.7399;1.6257;
199.2000;0.7383;1.6257;
199.5000;0.7391;1.6282;
199.8000;0.7383;1.6257;
200.1000;0.7383;1.6257;
200.4000;0.7383;1.6282;
200.7000;0.7383;1.6282;
201.0000;0.7391;1.6307;
201.3000;0.7391;1.6307;
201.6000;0.7399;1.6332;
201.9000;0.7375;1.6307;
202.2000;0.7375;1.6382;
202.5000;0.7342;1.6282;
202.8000;0.7399;1.6407;
203.1000;0.7407;1.6407;
203.4000;0.7424;1.6457;
203.7000;0.7391;1.6357;
204.0000;0.7383;1.6382;
204.3000;0.7399;1.6382;
204.6000;0.7399;1.6407;
204.9000;0.7448;1.6557;
205.2000;0.7391;1.6482;
205.5000;0.7359;1.6407;
205.8000;0.7375;1.6457;
206.1000;0.7359;1.6432;
206.4000;0.7375;1.6507;
206.7000;0.7399;1.6482;
207.0000;0.7383;1.6407;
207.3000;0.7367;1.6407;
207.6000;0.7375;1.6407;
207.9000;0.7424;1.6507;
208.2000;0.7391;1.6432;
208.5000;0.7383;1.6482;
208.8000;0.7407;1.6607;
209.1000;0.7383;1.6482;
209.4000;0.7375;1.6532;
209.7000;0.7375;1.6532;
210.0000;0.7375;1.6482;
210.3000;0.7383;1.6557;
210.6000;0.7391;1.6532;
210.9000;0.7310;1.6357;
211.2000;0.7359;1.6432;
211.5000;0.7367;1.6507;
211.8000;0.7383;1.6557;
212.1000;0.7375;1.6532;
212.4000;0.7383;1.6532;
212.7000;0.7391;1.6532;
213.0000;0.7391;1.6582;
213.3000;0.7375;1.6507;
213.6000;0.7383;1.6507;
213.9000;0.7383;1.6507;
214.2000;0.7407;1.6582;
214.5000;0.7383;1.6557;
214.8000;0.7391;1.6582;
215.1000;0.7375;1.6657;
215.4000;0.7391;1.6632;
215.7000;0.7383;1.6607;
216.0000;0.7383;1.6557;
216.3000;0.7383;1.6482;
216.6000;0.7391;1.6507;
216.9000;0.7424;1.6582;
217.2000;0.7391;1.6432;
217.5000;0.7367;1.6432;
217.8000;0.7367;1.6432;
218.1000;0.7383;1.6507;
218.4000;0.7383;1.6657;
218.7000;0.7367;1.6482;
219.0000;0.7367;1.6482;
219.3000;0.7424;1.6582;
219.6000;0.7391;1.6382;
219.9000;0.7367;1.6232;
220.2000;0.7375;1.6257;
220.5000;0.7375;1.6357;
220.8000;0.7375;1.6307;
221.1000;0.7383;1.6357;
221.4000;0.7375;1.6282;
221.7000;0.7383;1.6232;
222.0000;0.7359;1.6182;
222.3000;0.7367;1.6257;
222.6000;0.7367;1.6207;
222.9000;0.7350;1.6232;
223.2000;0.7391;1.6307;
223.5000;0.7375;1.6332;
223.8000;0.7367;1.6357;
224.1000;0.7375;1.6407;
224.4000;0.7424;1.6482;
224.7000;0.7375;1.6482;
225.0000;0.7367;1.6482;
225.3000;0.7383;1.6482;
225.6000;0.7407;1.6682;
225.9000;0.7391;1.6557;
226.2000;0.7375;1.6457;
226.5000;0.7391;1.6457;
226.8000;0.7383;1.6407;
227.1000;0.7391;1.6457;
227.4000;0.7383;1.6432;
227.7000;0.7375;1.6382;
228.0000;0.7375;1.6382;
228.3000;0.7407;1.6457;
228.6000;0.7407;1.6532;
228.9000;0.7399;1.6457;
229.2000;0.7367;1.6482;
229.5000;0.7383;1.6507;
229.8000;0.7375;1.6482;
230.1000;0.7391;1.6507;
230.4000;0.7383;1.6457;
230.7000;0.7342;1.6407;
231.0000;0.7383;1.6482;
231.3000;0.7359;1.6432;
231.6000;0.7375;1.6432;
231.9000;0.7391;1.6507;
232.2000;0.7383;1.6457;
232.5000;0.7375;1.6407;
232.8000;0.7367;1.6482;
233.1000;0.7367;1.6507;
233.4000;0.7391;1.6557;
233.7000;0.7367;1.6432;
234.0000;0.7350;1.6357;
234.3000;0.7367;1.6332;
234.6000;0.7367;1.6357;
234.9000;0.7350;1.6307;
235.2000;0.7367;1.6307;
235.5000;0.7359;1.6232;
235.8000;0.7383;1.6232;
236.1000;0.7367;1.6257;
236.4000;0.7367;1.6257;
236.7000;0.7383;1.6332;
237.0000;0.7383;1.6407;
237.3000;0.7367;1.6432;
237.6000;0.7367;1.6432;
237.9000;0.7375;1.6407;
238.2000;0.7383;1.6357;
238.5000;0.7391;1.6332;
238.8000;0.7399;1.6332;
239.1000;0.7359;1.6307;
239.4000;0.7375;1.6332;
239.7000;0.7375;1.6307;
240.0000;0.7383;1.6257;
240.3000;0.7383;1.6282;
240.6000;0.7367;1.6332;
240.9000;0.7383;1.6407;
241.2000;0.7375;1.6407;
241.5000;0.7375;1.6407;
241.8000;0.7367;1.6482;
242.1000;0.7383;1.6507;
242.4000;0.7383;1.6432;
242.7000;0.7383;1.6382;
243.0000;0.7383;1.6357;
243.3000;0.7367;1.6407;
243.6000;0.7432;1.6532;
243.9000;0.7375;1.6407;
244.2000;0.7334;1.6307;
244.5000;0.7383;1.6357;
244.8000;0.7383;1.6332;
245.1000;0.7302;1.6207;
245.4000;0.7375;1.6382;
245.7000;0.7367;1.6407;
246.0000;0.7375;1.6482;
246.3000;0.7326;1.6382;
246.6000;0.7416;1.6657;
246.9000;0.7350;1.6582;
247.2000;0.7375;1.6657;
247.5000;0.7383;1.6707;
247.8000;0.7375;1.6632;
248.1000;0.7375;1.6632;
248.4000;0.7375;1.6582;
248.7000;0.7367;1.6532;
249.0000;0.7367;1.6582;
249.3000;0.7367;1.6532;
249.6000;0.7367;1.6482;
249.9000;0.7375;1.6532;
250.2000;0.7367;1.6532;
250.5000;0.7367;1.6557;
250.8000;0.7367;1.6507;
251.1000;0.7383;1.6582;
251.4000;0.7375;1.6532;
251.7000;0.7375;1.6532;
252.0000;0.7383;1.6457;
252.3000;0.7342;1.6307;
252.6000;0.7359;1.6332;
252.9000;0.7367;1.6357;
253.2000;0.7334;1.6257;
253.5000;0.7367;1.6282;
253.8000;0.7359;1.6257;
254.1000;0.7367;1.6257;
254.4000;0.7350;1.6232;
254.7000;0.7367;1.6332;
255.0000;0.7375;1.6407;
255.3000;0.7350;1.6332;
255.6000;0.7342;1.6282;
255.9000;0.7342;1.6382;
256.2000;0.7359;1.6457;
256.5000;0.7375;1.6507;
256.8000;0.7342;1.6482;
257.1000;0.7367;1.6432;
257.4000;0.7359;1.6382;
257.7000;0.7375;1.6482;
258.0000;0.7359;1.6507;
258.3000;0.7375;1.6582;
258.6000;0.7367;1.6507;
258.9000;0.7407;1.6582;
259.2000;0.7359;1.6482;
259.5000;0.7350;1.6407;
259.8000;0.7359;1.6432;
260.1000;0.7375;1.6507;
260.4000;0.7359;1.6532;
260.7000;0.7342;1.6482;
261.0000;0.7367;1.6657;
261.3000;0.7383;1.6732;
261.6000;0.7383;1.6707;
261.9000;0.7350;1.6507;
262.2000;0.7359;1.6457;
262.5000;0.7359;1.6482;
262.8000;0.7367;1.6532;
263.1000;0.7456;1.6732;
263.4000;0.7367;1.6457;
263.7000;0.7375;1.6382;
264.0000;0.7383;1.6332;
264.3000;0.7350;1.6207;
264.6000;0.7367;1.6207;
264.9000;0.7367;1.6108;
265.2000;0.7367;1.6157;
265.5000;0.7359;1.6182;
265.8000;0.7350;1.6133;
266.1000;0.7334;1.6133;
266.4000;0.7350;1.6207;
266.7000;0.7399;1.6182;
267.0000;0.7367;1.6108;
267.3000;0.7350;1.6182;
267.6000;0.7318;1.6033;
267.9000;0.7359;1.6232;
268.2000;0.7350;1.6257;
268.5000;0.7391;1.6332;
268.8000;0.7367;1.6257;
269.1000;0.7342;1.6332;
269.4000;0.7334;1.6282;
269.7000;0.7350;1.6382;
270.0000;0.7359;1.6432;
270.3000;0.7342;1.6457;
270.6000;0.7350;1.6557;
270.9000;0.7350;1.6532;
271.2000;0.7375;1.6582;
271.5000;0.7367;1.6557;
271.8000;0.7367;1.6532;
272.1000;0.7383;1.6482;
272.4000;0.7383;1.6432;
272.7000;0.7359;1.6482;
273.0000;0.7375;1.6457;
273.3000;0.7367;1.6457;
273.6000;0.7350;1.6482;
273.9000;0.7367;1.6532;
274.2000;0.7367;1.6632;
274.5000;0.7375;1.6657;
274.8000;0.7367;1.6557;
275.1000;0.7456;1.6732;
275.4000;0.7359;1.6482;
275.7000;0.7367;1.6432;
276.0000;0.7367;1.6432;
276.3000;0.7342;1.6282;
276.6000;0.7367;1.6257;
276.9000;0.7367;1.6307;
277.2000;0.7407;1.6407;
277.5000;0.7359;1.6282;
277.8000;0.7359;1.6307;
278.1000;0.7367;1.6257;
278.4000;0.7326;1.6282;
278.7000;0.7375;1.6407;
279.0000;0.7359;1.6382;
279.3000;0.7359;1.6382;
279.6000;0.7367;1.6407;
279.9000;0.7350;1.6432;
280.2000;0.7359;1.6507;
280.5000;0.7359;1.6532;
280.8000;0.7359;1.6457;
281.1000;0.7359;1.6432;
281.4000;0.7342;1.6407;
281.7000;0.7367;1.6407;
282.0000;0.7367;1.6382;
282.3000;0.7342;1.6382;
282.6000;0.7334;1.6332;
282.9000;0.7350;1.6407;
283.2000;0.7334;1.6307;
283.5000;0.7359;1.6257;
283.8000;0.7342;1.6207;
284.1000;0.7359;1.6307;
284.4000;0.7375;1.6307;
284.7000;0.7375;1.6332;
285.0000;0.7399;1.6457;
285.3000;0.7432;1.6482;
285.6000;0.7350;1.6307;
285.9000;0.7359;1.6282;
286.2000;0.7359;1.6282;
286.5000;0.7359;1.6307;
286.8000;0.7359;1.6257;
287.1000;0.7375;1.6332;
287.4000;0.7367;1.6307;
287.7000;0.7359;1.6332;
288.0000;0.7367;1.6357;
288.3000;0.7375;1.6457;
288.6000;0.7383;1.6482;
288.9000;0.7342;1.6382;
289.2000;0.7350;1.6557;
289.5000;0.7407;1.6732;
289.8000;0.7375;1.6607;
290.1000;0.7432;1.6707;
290.4000;0.7350;1.6457;
290.7000;0.7359;1.6457;
291.0000;0.7359;1.6557;
291.3000;0.7350;1.6432;
291.6000;0.7367;1.6457;
291.9000;0.7367;1.6407;
292.2000;0.7448;1.6682;
292.5000;0.7350;1.6407;
292.8000;0.7342;1.6357;
293.1000;0.7399;1.6457;
293.4000;0.7342;1.6257;
293.7000;0.7432;1.6507;
294.0000;0.7342;1.6232;
294.3000;0.7375;1.6407;
294.6000;0.7375;1.6457;
294.9000;0.7342;1.6357;
295.2000;0.7334;1.6257;
295.5000;0.7350;1.6232;
295.8000;0.7359;1.6357;
296.1000;0.7350;1.6407;
296.4000;0.7342;1.6307;
296.7000;0.7342;1.6207;
297.0000;0.7334;1.6232;
297.3000;0.7350;1.6257;
297.6000;0.7350;1.6257;
297.9000;0.7342;1.6232;
298.2000;0.7367;1.6357;
298.5000;0.7375;1.6232;
298.8000;0.7350;1.6232;
299.1000;0.7350;1.6257;
299.4000;0.7367;1.6232;
299.7000;0.7367;1.6157;
300.0000;0.7318;1.6133;
300.3000;0.7359;1.6232;
300.6000;0.7350;1.6232;
300.9000;0.7367;1.6257;
301.2000;0.7359;1.6232;
301.5000;0.7350;1.6307;
301.8000;0.7334;1.6282;
302.1000;0.7334;1.6257;
302.4000;0.7326;1.6207;
302.7000;0.7334;1.6207;
303.0000;0.7359;1.6307;
303.3000;0.7375;1.6407;
303.6000;0.7342;1.6357;
303.9000;0.7326;1.6307;
304.2000;0.7342;1.6407;
304.5000;0.7342;1.6282;
304.8000;0.7399;1.6407;
305.1000;0.7342;1.6357;
305.4000;0.7326;1.6382;
305.7000;0.7334;1.6357;
306.0000;0.7367;1.6482;
306.3000;0.7334;1.6457;
306.6000;0.7326;1.6532;
306.9000;0.7334;1.6557;
307.2000;0.7326;1.6482;
307.5000;0.7334;1.6357;
307.8000;0.7334;1.6332;
308.1000;0.7318;1.6257;
308.4000;0.7350;1.6257;
308.7000;0.7342;1.6257;
309.0000;0.7383;1.6407;
309.3000;0.7334;1.6332;
309.6000;0.7342;1.6357;
309.9000;0.7350;1.6332;
310.2000;0.7350;1.6357;
310.5000;0.7359;1.6332;
310.8000;0.7350;1.6307;
311.1000;0.7342;1.6257;
311.4000;0.7350;1.6332;
311.7000;0.7318;1.6282;
312.0000;0.7326;1.6357;
312.3000;0.7334;1.6407;
312.6000;0.7334;1.6432;
312.9000;0.7367;1.6407;
313.2000;0.7359;1.6307;
313.5000;0.7342;1.6257;
313.8000;0.7342;1.6282;
314.1000;0.7350;1.6357;
314.4000;0.7350;1.6357;
314.7000;0.7326;1.6382;
315.0000;0.7367;1.6582;
315.3000;0.7350;1.6557;
315.6000;0.7334;1.6482;
315.9000;0.7334;1.6557;
316.2000;0.7359;1.6632;
316.5000;0.7416;1.6807;
316.8000;0.7326;1.6582;
317.1000;0.7334;1.6632;
317.4000;0.7359;1.6657;
317.7000;0.7342;1.6732;
318.0000;0.7334;1.6782;
318.3000;0.7326;1.6757;
318.6000;0.7399;1.6957;
318.9000;0.7350;1.6857;
319.2000;0.7342;1.6707;
319.5000;0.7367;1.6632;
319.8000;0.7318;1.6507;
320.1000;0.7342;1.6557;
320.4000;0.7326;1.6532;
320.7000;0.7350;1.6557;
321.0000;0.7342;1.6582;
321.3000;0.7334;1.6582;
321.6000;0.7350;1.6582;
321.9000;0.7350;1.6582;
322.2000;0.7367;1.6682;
322.5000;0.7285;1.6532;
322.8000;0.7350;1.6682;
323.1000;0.7334;1.6657;
323.4000;0.7383;1.6682;
323.7000;0.7334;1.6607;
324.0000;0.7342;1.6657;
324.3000;0.7350;1.6707;
324.6000;0.7342;1.6582;
324.9000;0.7318;1.6507;
325.2000;0.7342;1.6607;
325.5000;0.7350;1.6557;
325.8000;0.7334;1.6532;
326.1000;0.7334;1.6507;
326.4000;0.7310;1.6457;
326.7000;0.7342;1.6482;
327.0000;0.7318;1.6457;
327.3000;0.7326;1.6407;
327.6000;0.7326;1.6407;
327.9000;0.7310;1.6432;
328.2000;0.7318;1.6557;
328.5000;0.7310;1.6507;
328.8000;0.7350;1.6607;
329.1000;0.7326;1.6582;
329.4000;0.7326;1.6532;
329.7000;0.7334;1.6482;
330.0000;0.7399;1.6657;
330.3000;0.7342;1.6432;
330.6000;0.7326;1.6382;
330.9000;0.7318;1.6357;
331.2000;0.7334;1.6382;
331.5000;0.7326;1.6407;
331.8000;0.7342;1.6482;
332.1000;0.7293;1.6332;
332.4000;0.7318;1.6457;
332.7000;0.7326;1.6482;
333.0000;0.7350;1.6557;
333.3000;0.7334;1.6482;
333.6000;0.7326;1.6457;
333.9000;0.7342;1.6482;
334.2000;0.7350;1.6657;
334.5000;0.7350;1.6582;
334.8000;0.7359;1.6707;
335.1000;0.7326;1.6632;
335.4000;0.7326;1.6757;
335.7000;0.7326;1.6757;
336.0000;0.7326;1.6682;
336.3000;0.7318;1.6582;
336.6000;0.7350;1.6682;
336.9000;0.7334;1.6657;
337.2000;0.7367;1.6807;
337.5000;0.7318;1.6632;
337.8000;0.7326;1.6607;
338.1000;0.7342;1.6682;
338.4000;0.7302;1.6607;
338.7000;0.7367;1.6707;
339.0000;0.7334;1.6582;
339.3000;0.7326;1.6507;
339.6000;0.7293;1.6332;
339.9000;0.7334;1.6357;
340.2000;0.7342;1.6432;
340.5000;0.7342;1.6457;
340.8000;0.7326;1.6432;
341.1000;0.7326;1.6507;
341.4000;0.7318;1.6457;
341.7000;0.7342;1.6507;
342.0000;0.7350;1.6457;
342.3000;0.7310;1.6407;
342.6000;0.7416;1.6657;
342.9000;0.7334;1.6557;
343.2000;0.7318;1.6507;
343.5000;0.7302;1.6457;
343.8000;0.7326;1.6432;
344.1000;0.7350;1.6532;
344.4000;0.7342;1.6532;
344.7000;0.7342;1.6582;
345.0000;0.7350;1.6632;
345.3000;0.7285;1.6482;
345.6000;0.7342;1.6657;
345.9000;0.7342;1.6707;
346.2000;0.7334;1.6657;
346.5000;0.7261;1.6432;
346.8000;0.7310;1.6607;
347.1000;0.7367;1.6582;
347.4000;0.7342;1.6582;
347.7000;0.7326;1.6532;
348.0000;0.7383;1.6732;
348.3000;0.7318;1.6557;
348.6000;0.7326;1.6607;
348.9000;0.7326;1.6557;
349.2000;0.7342;1.6532;
349.5000;0.7318;1.6482;
349.8000;0.7318;1.6407;
350.1000;0.7302;1.6432;
350.4000;0.7318;1.6507;
350.7000;0.7342;1.6507;
351.0000;0.7334;1.6507;
351.3000;0.7326;1.6482;
351.6000;0.7310;1.6557;
351.9000;0.7310;1.6582;
352.2000;0.7318;1.6632;
352.5000;0.7318;1.6582;
352.8000;0.7310;1.6557;
353.1000;0.7310;1.6532;
353.4000;0.7334;1.6532;
353.7000;0.7318;1.6557;
354.0000;0.7318;1.6582;
354.3000;0.7326;1.6532;
354.6000;0.7318;1.6432;
354.9000;0.7326;1.6507;
355.2000;0.7334;1.6582;
355.5000;0.7310;1.6532;
355.8000;0.7342;1.6582;
356.1000;0.7342;1.6607;
356.4000;0.7334;1.6707;
356.7000;0.7326;1.6682;
357.0000;0.7334;1.6707;
357.3000;0.7342;1.6657;
357.6000;0.7334;1.6657;
357.9000;0.7293;1.6557;
358.2000;0.7318;1.6607;
358.5000;0.7326;1.6657;
358.8000;0.7318;1.6607;
359.1000;0.7318;1.6582;
359.4000;0.7399;1.6782;
359.7000;0.7285;1.6557;
360.0000;0.7334;1.6707;
360.3000;0.7350;1.6807;
360.6000;0.7391;1.6957;
360.9000;0.7342;1.6832;
361.2000;0.7350;1.6857;
361.5000;0.7334;1.6782;
361.8000;0.7326;1.6807;
362.1000;0.7318;1.6782;
362.4000;0.7334;1.6932;
362.7000;0.7334;1.6932;
363.0000;0.7326;1.6782;
363.3000;0.7285;1.6607;
363.6000;0.7269;1.6457;
363.9000;0.7310;1.6582;
364.2000;0.7375;1.6757;
364.5000;0.7326;1.6657;
364.8000;0.7318;1.6682;
365.1000;0.7318;1.6682;
365.4000;0.7326;1.6682;
365.7000;0.7326;1.6682;
366.0000;0.7334;1.6657;
366.3000;0.7391;1.6757;
366.6000;0.7334;1.6707;
366.9000;0.7334;1.6732;
367.2000;0.7326;1.6682;
367.5000;0.7342;1.6607;
367.8000;0.7342;1.6532;
368.1000;0.7318;1.6532;
368.4000;0.7318;1.6607;
368.7000;0.7334;1.6607;
369.0000;0.7326;1.6532;
369.3000;0.7326;1.6532;
369.6000;0.7334;1.6532;
369.9000;0.7334;1.6657;
370.2000;0.7326;1.6657;
370.5000;0.7350;1.6782;
370.8000;0.7334;1.6732;
371.1000;0.7342;1.6682;
371.4000;0.7334;1.6682;
371.7000;0.7318;1.6657;
372.0000;0.7326;1.6682;
372.3000;0.7326;1.6782;
372.6000;0.7318;1.6807;
372.9000;0.7310;1.6782;
373.2000;0.7318;1.6732;
373.5000;0.7318;1.6657;
373.8000;0.7318;1.6682;
374.1000;0.7310;1.6707;
374.4000;0.7310;1.6757;
374.7000;0.7326;1.6732;
375.0000;0.7318;1.6707;
375.3000;0.7326;1.6707;
375.6000;0.7326;1.6657;
375.9000;0.7318;1.6707;
376.2000;0.7334;1.6757;
376.5000;0.7318;1.6732;
376.8000;0.7326;1.6707;
377.1000;0.7302;1.6657;
377.4000;0.7318;1.6607;
377.7000;0.7302;1.6632;
378.0000;0.7318;1.6707;
378.3000;0.7318;1.6607;
378.6000;0.7310;1.6582;
378.9000;0.7269;1.6482;
379.2000;0.7342;1.6607;
379.5000;0.7302;1.6507;
379.8000;0.7310;1.6532;
380.1000;0.7359;1.6757;
380.4000;0.7318;1.6657;
380.7000;0.7310;1.6632;
381.0000;0.7293;1.6657;
381.3000;0.7310;1.6732;
381.6000;0.7302;1.6782;
381.9000;0.7302;1.6707;
382.2000;0.7310;1.6682;
382.5000;0.7293;1.6607;
382.8000;0.7302;1.6657;
383.1000;0.7302;1.6657;
383.4000;0.7310;1.6707;
383.7000;0.7302;1.6607;
384.0000;0.7310;1.6582;
384.3000;0.7269;1.6432;
384.6000;0.7293;1.6407;
384.9000;0.7302;1.6432;
385.2000;0.7310;1.6557;
385.5000;0.7342;1.6657;
385.8000;0.7359;1.6782;
386.1000;0.7302;1.6582;
386.4000;0.7318;1.6582;
386.7000;0.7383;1.6807;
387.0000;0.7293;1.6507;
387.3000;0.7318;1.6532;
387.6000;0.7342;1.6707;
387.9000;0.7326;1.6607;
388.2000;0.7310;1.6532;
388.5000;0.7277;1.6457;
388.8000;0.7318;1.6582;
389.1000;0.7302;1.6632;
389.4000;0.7318;1.6757;
389.7000;0.7302;1.6732;
390.0000;0.7302;1.6732;
390.3000;0.7326;1.6832;
390.6000;0.7326;1.6707;
390.9000;0.7318;1.6757;
391.2000;0.7302;1.6707;
391.5000;0.7285;1.6707;
391.8000;0.7326;1.6832;
392.1000;0.7334;1.6857;
392.4000;0.7334;1.6707;
392.7000;0.7326;1.6732;
393.0000;0.7326;1.6732;
393.3000;0.7326;1.6732;
393.6000;0.7334;1.6632;
393.9000;0.7310;1.6532;
394.2000;0.7326;1.6557;
394.5000;0.7310;1.6532;
394.8000;0.7293;1.6507;
395.1000;0.7318;1.6507;
395.4000;0.7318;1.6482;
395.7000;0.7318;1.6482;
396.0000;0.7277;1.6382;
396.3000;0.7318;1.6582;
396.6000;0.7302;1.6657;
396.9000;0.7334;1.6657;
397.2000;0.7269;1.6607;
397.5000;0.7310;1.6607;
397.8000;0.7310;1.6632;
398.1000;0.7293;1.6557;
398.4000;0.7318;1.6607;
398.7000;0.7318;1.6632;
399.0000;0.7293;1.6582;
399.3000;0.7293;1.6582;
399.6000;0.7293;1.6532;
399.9000;0.7310;1.6507;
400.2000;0.7302;1.6457;
400.5000;0.7318;1.6532;
400.8000;0.7302;1.6557;
401.1000;0.7302;1.6557;
401.4000;0.7310;1.6557;
401.7000;0.7318;1.6582;
402.0000;0.7310;1.6632;
402.3000;0.7302;1.6507;
402.6000;0.7302;1.6557;
402.9000;0.7310;1.6607;
403.2000;0.7310;1.6632;
403.5000;0.7302;1.6507;
403.8000;0.7293;1.6457;
404.1000;0.7302;1.6482;
404.4000;0.7310;1.6557;
404.7000;0.7302;1.6607;
405.0000;0.7293;1.6557;
405.3000;0.7302;1.6557;
405.6000;0.7318;1.6632;
405.9000;0.7334;1.6632;
406.2000;0.7310;1.6507;
406.5000;0.7302;1.6507;
406.8000;0.7318;1.6532;
407.1000;0.7326;1.6632;
407.4000;0.7310;1.6657;
407.7000;0.7277;1.6582;
408.0000;0.7326;1.6732;
408.3000;0.7302;1.6657;
408.6000;0.7318;1.6682;
408.9000;0.7302;1.6682;
409.2000;0.7285;1.6682;
409.5000;0.7285;1.6582;
409.8000;0.7293;1.6607;
410.1000;0.7285;1.6557;
410.4000;0.7334;1.6707;
410.7000;0.7302;1.6607;
411.0000;0.7293;1.6532;
411.3000;0.7285;1.6432;
411.6000;0.7342;1.6607;
411.9000;0.7293;1.6482;
412.2000;0.7310;1.6507;
412.5000;0.7302;1.6532;
412.8000;0.7277;1.6407;
413.1000;0.7310;1.6482;
413.4000;0.7310;1.6557;
413.7000;0.7310;1.6532;
414.0000;0.7310;1.6482;
414.3000;0.7310;1.6482;
414.6000;0.7302;1.6507;
414.9000;0.7310;1.6582;
415.2000;0.7318;1.6557;
415.5000;0.7285;1.6482;
415.8000;0.7302;1.6482;
416.1000;0.7293;1.6382;
416.4000;0.7302;1.6407;
416.7000;0.7302;1.6457;
417.0000;0.7310;1.6507;
417.3000;0.7318;1.6532;
417.6000;0.7302;1.6407;
417.9000;0.7277;1.6307;
418.2000;0.7310;1.6457;
418.5000;0.7302;1.6332;
418.8000;0.7334;1.6407;
419.1000;0.7302;1.6382;
419.4000;0.7318;1.6407;
419.7000;0.7318;1.6457;
420.0000;0.7310;1.6482;
420.3000;0.7318;1.6432;
420.6000;0.7302;1.6382;
420.9000;0.7293;1.6432;
421.2000;0.7302;1.6532;
421.5000;0.7293;1.6507;
421.8000;0.7302;1.6457;
422.1000;0.7318;1.6557;
422.4000;0.7293;1.6482;
422.7000;0.7310;1.6457;
423.0000;0.7293;1.6432;
423.3000;0.7261;1.6357;
423.6000;0.7310;1.6482;
423.9000;0.7318;1.6557;
424.2000;0.7310;1.6507;
424.5000;0.7302;1.6432;
424.8000;0.7318;1.6482;
425.1000;0.7310;1.6582;
425.4000;0.7310;1.6507;
425.7000;0.7310;1.6482;
426.0000;0.7302;1.6457;
426.3000;0.7302;1.6482;
426.6000;0.7302;1.6482;
426.9000;0.7302;1.6582;
427.2000;0.7285;1.6582;
427.5000;0.7318;1.6582;
427.8000;0.7310;1.6507;
428.1000;0.7350;1.6682;
428.4000;0.7310;1.6632;
428.7000;0.7326;1.6707;
429.0000;0.7310;1.6757;
429.3000;0.7302;1.6707;
429.6000;0.7293;1.6632;
429.9000;0.7310;1.6657;
430.2000;0.7285;1.6582;
430.5000;0.7302;1.6557;
430.8000;0.7293;1.6507;
431.1000;0.7302;1.6532;
431.4000;0.7342;1.6582;
431.7000;0.7293;1.6507;
432.0000;0.7326;1.6557;
432.3000;0.7302;1.6482;
432.6000;0.7318;1.6507;
432.9000;0.7326;1.6582;
433.2000;0.7302;1.6532;
433.5000;0.7342;1.6657;
433.8000;0.7302;1.6582;
434.1000;0.7293;1.6582;
434.4000;0.7236;1.6382;
434.7000;0.7285;1.6457;
435.0000;0.7293;1.6582;
435.3000;0.7302;1.6632;
435.6000;0.7310;1.6682;
435.9000;0.7293;1.6607;
436.2000;0.7302;1.6607;
436.5000;0.7285;1.6432;
436.8000;0.7302;1.6482;
437.1000;0.7293;1.6432;
437.4000;0.7334;1.6532;
437.7000;0.7326;1.6482;
438.0000;0.7285;1.6382;
438.3000;0.7285;1.6507;
438.6000;0.7293;1.6607;
438.9000;0.7310;1.6607;
439.2000;0.7302;1.6557;
439.5000;0.7293;1.6482;
439.8000;0.7302;1.6507;
440.1000;0.7310;1.6457;
440.4000;0.7228;1.6232;
440.7000;0.7285;1.6482;
441.0000;0.7293;1.6507;
441.3000;0.7293;1.6532;
441.6000;0.7253;1.6332;
441.9000;0.7285;1.6432;
442.2000;0.7293;1.6457;
442.5000;0.7302;1.6532;
442.8000;0.7318;1.6507;
443.1000;0.7302;1.6457;
443.4000;0.7293;1.6432;
443.7000;0.7302;1.6507;
444.0000;0.7302;1.6482;
444.3000;0.7310;1.6457;
444.6000;0.7293;1.6357;
444.9000;0.7310;1.6307;
445.2000;0.7293;1.6232;
445.5000;0.7302;1.6332;
445.8000;0.7293;1.6407;
446.1000;0.7302;1.6457;
446.4000;0.7302;1.6457;
446.7000;0.7350;1.6557;
447.0000;0.7302;1.6457;
447.3000;0.7293;1.6407;
447.6000;0.7293;1.6382;
447.9000;0.7261;1.6307;
448.2000;0.7253;1.6257;
448.5000;0.7293;1.6282;
448.8000;0.7253;1.6182;
449.1000;0.7302;1.6432;
449.4000;0.7302;1.6457;
449.7000;0.7293;1.6432;
450.0000;0.7310;1.6607;
450.3000;0.7375;1.6782;
450.6000;0.7318;1.6557;
450.9000;0.7318;1.6582;
451.2000;0.7302;1.6532;
451.5000;0.7302;1.6557;
451.8000;0.7326;1.6557;
452.1000;0.7277;1.6457;
452.4000;0.7310;1.6607;
452.7000;0.7302;1.6607;
453.0000;0.7318;1.6657;
453.3000;0.7318;1.6682;
453.6000;0.7310;1.6657;
453.9000;0.7302;1.6632;
454.2000;0.7310;1.6632;
454.5000;0.7302;1.6632;
454.8000;0.7310;1.6732;
455.1000;0.7318;1.6682;
455.4000;0.7269;1.6582;
455.7000;0.7220;1.6457;
456.0000;0.7269;1.6607;
456.3000;0.7334;1.6807;
456.6000;0.7285;1.6582;
456.9000;0.7285;1.6532;
457.2000;0.7318;1.6607;
457.5000;0.7293;1.6557;
457.8000;0.7318;1.6632;
458.1000;0.7253;1.6432;
458.4000;0.7326;1.6682;
458.7000;0.7302;1.6657;
459.0000;0.7326;1.6707;
459.3000;0.7302;1.6682;
459.6000;0.7359;1.6832;
459.9000;0.7293;1.6657;
460.2000;0.7293;1.6632;
460.5000;0.7310;1.6682;
460.8000;0.7277;1.6582;
461.1000;0.7285;1.6582;
461.4000;0.7326;1.6632;
461.7000;0.7293;1.6507;
462.0000;0.7285;1.6457;
462.3000;0.7285;1.6482;
462.6000;0.7293;1.6582;
462.9000;0.7293;1.6532;
463.2000;0.7310;1.6557;
463.5000;0.7302;1.6582;
463.8000;0.7293;1.6582;
464.1000;0.7285;1.6557;
464.4000;0.7326;1.6657;
464.7000;0.7293;1.6632;
465.0000;0.7293;1.6607;
465.3000;0.7285;1.6582;
465.6000;0.7293;1.6607;
465.9000;0.7277;1.6632;
466.2000;0.7302;1.6632;
466.5000;0.7269;1.6507;
466.8000;0.7285;1.6532;
467.1000;0.7302;1.6557;
467.4000;0.7293;1.6482;
467.7000;0.7269;1.6507;
468.0000;0.7302;1.6557;
468.3000;0.7277;1.6482;
468.6000;0.7285;1.6457;
468.9000;0.7293;1.6457;
469.2000;0.7261;1.6357;
469.5000;0.7293;1.6282;
469.8000;0.7310;1.6357;
470.1000;0.7318;1.6482;
470.4000;0.7277;1.6407;
470.7000;0.7269;1.6382;
471.0000;0.7277;1.6382;
471.3000;0.7261;1.6257;
471.6000;0.7285;1.6257;
471.9000;0.7293;1.6232;
472.2000;0.7302;1.6232;
472.5000;0.7293;1.6182;
472.8000;0.7285;1.6157;
473.1000;0.7277;1.6133;
473.4000;0.7277;1.6133;
473.7000;0.7302;1.6207;
474.0000;0.7285;1.6133;
474.3000;0.7334;1.6407;
474.6000;0.7293;1.6282;
474.9000;0.7293;1.6282;
475.2000;0.7293;1.6307;
475.5000;0.7285;1.6332;
475.8000;0.7310;1.6432;
476.1000;0.7261;1.6357;
476.4000;0.7285;1.6457;
476.7000;0.7302;1.6482;
477.0000;0.7302;1.6457;
477.3000;0.7253;1.6382;
477.6000;0.7285;1.6457;
477.9000;0.7293;1.6432;
478.2000;0.7310;1.6407;
478.5000;0.7302;1.6407;
478.8000;0.7326;1.6532;
479.1000;0.7285;1.6557;
479.4000;0.7285;1.6482;
479.7000;0.7293;1.6557;
480.0000;0.7302;1.6582;
480.3000;0.7253;1.6457;
480.6000;0.7277;1.6632;
480.9000;0.7359;1.6782;
481.2000;0.7285;1.6457;
481.5000;0.7285;1.6357;
481.8000;0.7261;1.6332;
482.1000;0.7261;1.6307;
482.4000;0.7220;1.6207;
482.7000;0.7228;1.6232;
483.0000;0.7277;1.6332;
483.3000;0.7285;1.6507;
483.6000;0.7302;1.6532;
483.9000;0.7293;1.6457;
484.2000;0.7277;1.6407;
484.5000;0.7277;1.6432;
484.8000;0.7285;1.6482;
485.1000;0.7285;1.6382;
485.4000;0.7302;1.6332;
485.7000;0.7277;1.6407;
486.0000;0.7277;1.6357;
486.3000;0.7293;1.6382;
486.6000;0.7293;1.6407;
486.9000;0.7269;1.6382;
487.2000;0.7302;1.6432;
487.5000;0.7269;1.6382;
487.8000;0.7285;1.6457;
488.1000;0.7285;1.6482;
488.4000;0.7359;1.6707;
488.7000;0.7277;1.6507;
489.0000;0.7285;1.6557;
489.3000;0.7293;1.6507;
489.6000;0.7285;1.6532;
489.9000;0.7293;1.6557;
490.2000;0.7302;1.6582;
490.5000;0.7285;1.6507;
490.8000;0.7277;1.6482;
491.1000;0.7293;1.6532;
491.4000;0.7293;1.6507;
491.7000;0.7285;1.6432;
492.0000;0.7293;1.6407;
492.3000;0.7285;1.6357;
492.6000;0.7293;1.6482;
492.9000;0.7302;1.6532;
493.2000;0.7261;1.6432;
493.5000;0.7293;1.6507;
493.8000;0.7302;1.6507;
494.1000;0.7277;1.6457;
494.4000;0.7293;1.6507;
494.7000;0.7302;1.6532;
495.0000;0.7293;1.6557;
495.3000;0.7277;1.6532;
495.6000;0.7269;1.6482;
495.9000;0.7277;1.6457;
496.2000;0.7293;1.6457;
496.5000;0.7293;1.6457;
496.8000;0.7277;1.6457;
497.1000;0.7277;1.6457;
497.4000;0.7285;1.6482;
497.7000;0.7350;1.6607;
498.0000;0.7285;1.6507;
498.3000;0.7277;1.6482;
498.6000;0.7277;1.6457;
498.9000;0.7318;1.6432;
499.2000;0.7293;1.6482;
499.5000;0.7293;1.6457;
499.8000;0.7302;1.6457;
500.1000;0.7293;1.6507;
500.4000;0.7293;1.6482;
500.7000;0.7326;1.6557;
501.0000;0.7277;1.6407;
501.3000;0.7302;1.6457;
501.6000;0.7310;1.6457;
501.9000;0.7302;1.6382;
502.2000;0.7285;1.6407;
502.5000;0.7261;1.6332;
502.8000;0.7310;1.6482;
503.1000;0.7285;1.6357;
503.4000;0.7293;1.6482;
503.7000;0.7293;1.6482;
504.0000;0.7285;1.6482;
504.3000;0.7285;1.6457;
504.6000;0.7326;1.6532;
504.9000;0.7285;1.6482;
505.2000;0.7302;1.6532;
505.5000;0.7285;1.6432;
505.8000;0.7285;1.6507;
506.1000;0.7277;1.6557;
506.4000;0.7302;1.6557;
506.7000;0.7269;1.6457;
507.0000;0.7261;1.6432;
507.3000;0.7277;1.6457;
507.6000;0.7196;1.6282;
507.9000;0.7277;1.6507;
508.2000;0.7285;1.6507;
508.5000;0.7212;1.6407;
508.8000;0.7277;1.6632;
509.1000;0.7285;1.6582;
509.4000;0.7269;1.6482;
509.7000;0.7277;1.6507;
510.0000;0.7293;1.6557;
510.3000;0.7302;1.6657;
510.6000;0.7285;1.6682;
510.9000;0.7269;1.6582;
511.2000;0.7277;1.6532;
511.5000;0.7285;1.6482;
511.8000;0.7261;1.6432;
512.1000;0.7269;1.6457;
512.4000;0.7302;1.6382;
512.7000;0.7293;1.6357;
513.0000;0.7285;1.6357;
513.3000;0.7285;1.6357;
513.6000;0.7245;1.6282;
513.9000;0.7285;1.6357;
514.2000;0.7261;1.6382;
514.5000;0.7302;1.6432;
514.8000;0.7277;1.6407;
515.1000;0.7269;1.6457;
515.4000;0.7285;1.6407;
515.7000;0.7293;1.6482;
516.0000;0.7261;1.6357;
516.3000;0.7293;1.6432;
516.6000;0.7261;1.6332;
516.9000;0.7269;1.6382;
517.2000;0.7188;1.6108;
517.5000;0.7261;1.6382;
517.8000;0.7253;1.6407;
518.1000;0.7285;1.6607;
518.4000;0.7277;1.6607;
518.7000;0.7277;1.6557;
519.0000;0.7285;1.6532;
519.3000;0.7269;1.6532;
519.6000;0.7285;1.6557;
519.9000;0.7269;1.6507;
520.2000;0.7261;1.6407;
520.5000;0.7293;1.6457;
520.8000;0.7285;1.6532;
521.1000;0.7293;1.6532;
521.4000;0.7285;1.6557;
521.7000;0.7326;1.6557;
522.0000;0.7318;1.6507;
522.3000;0.7253;1.6382;
522.6000;0.7269;1.6457;
522.9000;0.7277;1.6557;
523.2000;0.7277;1.6582;
523.5000;0.7277;1.6582;
523.8000;0.7269;1.6532;
524.1000;0.7277;1.6557;
524.4000;0.7285;1.6482;
524.7000;0.7285;1.6432;
525.0000;0.7285;1.6407;
525.3000;0.7302;1.6382;
525.6000;0.7277;1.6357;
525.9000;0.7261;1.6407;
526.2000;0.7277;1.6482;
526.5000;0.7277;1.6507;
526.8000;0.7277;1.6532;
527.1000;0.7277;1.6507;
527.4000;0.7277;1.6432;
527.7000;0.7253;1.6382;
528.0000;0.7261;1.6357;
528.3000;0.7277;1.6407;
528.6000;0.7277;1.6332;
528.9000;0.7277;1.6357;
529.2000;0.7277;1.6407;
529.5000;0.7269;1.6407;
529.8000;0.7293;1.6357;
530.1000;0.7269;1.6357;
530.4000;0.7375;1.6657;
530.7000;0.7277;1.6457;
531.0000;0.7277;1.6432;
531.3000;0.7277;1.6307;
531.6000;0.7236;1.6108;
531.9000;0.7277;1.6207;
532.2000;0.7285;1.6182;
532.5000;0.7277;1.6232;
532.8000;0.7285;1.6282;
533.1000;0.7285;1.6307;
533.4000;0.7277;1.6357;
533.7000;0.7277;1.6382;
534.0000;0.7277;1.6457;
534.3000;0.7269;1.6407;
534.6000;0.7269;1.6357;
534.9000;0.7285;1.6357;
535.2000;0.7261;1.6307;
535.5000;0.7277;1.6382;
535.8000;0.7277;1.6457;
536.1000;0.7293;1.6482;
536.4000;0.7285;1.6432;
536.7000;0.7269;1.6482;
537.0000;0.7261;1.6432;
537.3000;0.7293;1.6457;
537.6000;0.7261;1.6457;
537.9000;0.7261;1.6382;
538.2000;0.7285;1.6407;
538.5000;0.7253;1.6307;
538.8000;0.7285;1.6332;
539.1000;0.7277;1.6357;
539.4000;0.7261;1.6332;
539.7000;0.7236;1.6307;
540.0000;0.7277;1.6382;
540.3000;0.7285;1.6357;
540.6000;0.7253;1.6257;
540.9000;0.7245;1.6307;
541.2000;0.7253;1.6257;
541.5000;0.7269;1.6257;
541.8000;0.7269;1.6332;
542.1000;0.7236;1.6332;
542.4000;0.7253;1.6332;
542.7000;0.7261;1.6357;
543.0000;0.7269;1.6282;
543.3000;0.7293;1.6457;
543.6000;0.7261;1.6457;
543.9000;0.7261;1.6507;
544.2000;0.7269;1.6532;
544.5000;0.7269;1.6607;
544.8000;0.7261;1.6557;
545.1000;0.7277;1.6657;
545.4000;0.7285;1.6632;
545.7000;0.7269;1.6532;
546.0000;0.7293;1.6607;
546.3000;0.7285;1.6557;
546.6000;0.7285;1.6532;
546.9000;0.7277;1.6457;
547.2000;0.7285;1.6482;
547.5000;0.7285;1.6457;
547.8000;0.7302;1.6507;
548.1000;0.7318;1.6582;
548.4000;0.7269;1.6407;
548.7000;0.7285;1.6482;
549.0000;0.7269;1.6407;
549.3000;0.7245;1.6332;
549.6000;0.7285;1.6482;
549.9000;0.7277;1.6407;
550.2000;0.7293;1.6307;
550.5000;0.7285;1.6232;
550.8000;0.7269;1.6282;
551.1000;0.7269;1.6357;
551.4000;0.7261;1.6357;
551.7000;0.7277;1.6407;
552.0000;0.7245;1.6357;
552.3000;0.7253;1.6282;
552.6000;0.7277;1.6382;
552.9000;0.7269;1.6407;
553.2000;0.7253;1.6307;
553.5000;0.7285;1.6307;
553.8000;0.7261;1.6207;
554.1000;0.7269;1.6257;
554.4000;0.7228;1.6257;
554.7000;0.7269;1.6382;
555.0000;0.7269;1.6432;
555.3000;0.7293;1.6482;
555.6000;0.7228;1.6357;
555.9000;0.7277;1.6407;
556.2000;0.7277;1.6382;
556.5000;0.7285;1.6507;
556.8000;0.7285;1.6532;
557.1000;0.7277;1.6432;
557.4000;0.7212;1.6232;
557.7000;0.7269;1.6407;
558.0000;0.7285;1.6457;
558.3000;0.7253;1.6432;
558.6000;0.7228;1.6382;
558.9000;0.7245;1.6507;
559.2000;0.7261;1.6557;
559.5000;0.7253;1.6532;
559.8000;0.7245;1.6557;
560.1000;0.7245;1.6582;
560.4000;0.7293;1.6682;
560.7000;0.7269;1.6582;
561.0000;0.7269;1.6457;
561.3000;0.7285;1.6607;
561.6000;0.7277;1.6657;
561.9000;0.7285;1.6607;
562.2000;0.7261;1.6607;
562.5000;0.7277;1.6632;
562.8000;0.7285;1.6532;
563.1000;0.7277;1.6532;
563.4000;0.7261;1.6482;
563.7000;0.7277;1.6507;
564.0000;0.7310;1.6582;
564.3000;0.7269;1.6582;
564.6000;0.7261;1.6507;
564.9000;0.7261;1.6532;
565.2000;0.7253;1.6507;
565.5000;0.7261;1.6582;
565.8000;0.7253;1.6582;
566.1000;0.7269;1.6532;
566.4000;0.7228;1.6407;
566.7000;0.7285;1.6557;
567.0000;0.7188;1.6307;
567.3000;0.7253;1.6407;
567.6000;0.7253;1.6432;
567.9000;0.7326;1.6632;
568.2000;0.7253;1.6432;
568.5000;0.7253;1.6432;
568.8000;0.7245;1.6457;
569.1000;0.7285;1.6557;
569.4000;0.7236;1.6457;
569.7000;0.7285;1.6582;
570.0000;0.7261;1.6507;
570.3000;0.7285;1.6557;
570.6000;0.7204;1.6332;
570.9000;0.7269;1.6457;
571.2000;0.7253;1.6432;
571.5000;0.7269;1.6357;
571.8000;0.7318;1.6507;
572.1000;0.7277;1.6382;
572.4000;0.7285;1.6432;
572.7000;0.7269;1.6332;
573.0000;0.7277;1.6357;
573.3000;0.7261;1.6382;
573.6000;0.7261;1.6382;
573.9000;0.7261;1.6382;
574.2000;0.7310;1.6507;
574.5000;0.7269;1.6432;
574.8000;0.7245;1.6407;
575.1000;0.7269;1.6507;
575.4000;0.7285;1.6507;
575.7000;0.7245;1.6557;
576.0000;0.7277;1.6657;
576.3000;0.7269;1.6482;
576.6000;0.7261;1.6457;
576.9000;0.7261;1.6482;
577.2000;0.7269;1.6582;
577.5000;0.7261;1.6557;
577.8000;0.7261;1.6457;
578.1000;0.7269;1.6482;
578.4000;0.7269;1.6557;
578.7000;0.7269;1.6557;
579.0000;0.7269;1.6632;
579.3000;0.7253;1.6632;
579.6000;0.7236;1.6532;
579.9000;0.7228;1.6607;
580.2000;0.7253;1.6707;
580.5000;0.7253;1.6557;
580.8000;0.7261;1.6532;
581.1000;0.7269;1.6582;
581.4000;0.7253;1.6532;
581.7000;0.7261;1.6582;
582.0000;0.7269;1.6532;
582.3000;0.7253;1.6432;
582.6000;0.7277;1.6482;
582.9000;0.7269;1.6432;
583.2000;0.7261;1.6407;
583.5000;0.7269;1.6382;
583.8000;0.7277;1.6357;
584.1000;0.7277;1.6257;
584.4000;0.7277;1.6232;
584.7000;0.7277;1.6207;
585.0000;0.7228;1.6207;
585.3000;0.7245;1.6232;
585.6000;0.7253;1.6232;
585.9000;0.7261;1.6182;
586.2000;0.7269;1.6282;
586.5000;0.7253;1.6232;
586.8000;0.7220;1.6257;
587.1000;0.7269;1.6382;
587.4000;0.7277;1.6432;
587.7000;0.7293;1.6457;
588.0000;0.7253;1.6357;
588.3000;0.7236;1.6332;
588.6000;0.7269;1.6382;
588.9000;0.7253;1.6332;
589.2000;0.7236;1.6232;
589.5000;0.7269;1.6282;
589.8000;0.7261;1.6282;
590.1000;0.7236;1.6282;
590.4000;0.7261;1.6382;
590.7000;0.7269;1.6432;
591.0000;0.7277;1.6432;
591.3000;0.7269;1.6332;
591.6000;0.7228;1.6257;
591.9000;0.7269;1.6282;
592.2000;0.7269;1.6307;
592.5000;0.7261;1.6307;
592.8000;0.7228;1.6307;
593.1000;0.7245;1.6407;
593.4000;0.7261;1.6432;
593.7000;0.7261;1.6357;
594.0000;0.7236;1.6282;
594.3000;0.7236;1.6282;
594.6000;0.7285;1.6457;
594.9000;0.7253;1.6407;
595.2000;0.7253;1.6407;
595.5000;0.7253;1.6457;
595.8000;0.7269;1.6507;
596.1000;0.7253;1.6532;
596.4000;0.7253;1.6532;
596.7000;0.7269;1.6632;
597.0000;0.7277;1.6582;
597.3000;0.7253;1.6532;
597.6000;0.7269;1.6582;
597.9000;0.7253;1.6432;
598.2000;0.7253;1.6457;
598.5000;0.7253;1.6457;
598.8000;0.7277;1.6607;
599.1000;0.7261;1.6632;
599.4000;0.7261;1.6657;
599.7000;0.7245;1.6607;
600.0000;0.7269;1.6657;
600.3000;0.7253;1.6582;
600.6000;0.7204;1.6282;
600.9000;0.7131;1.6033;
601.2000;0.7025;1.5883;
601.5000;0.6911;1.5708;
601.8000;0.6829;1.5608;
602.1000;0.6683;1.5433;
602.4000;0.6610;1.5358;
602.7000;0.6479;1.5184;
603.0000;0.6390;1.4984;
603.3000;0.6284;1.4784;
603.6000;0.6284;1.4834;
603.9000;0.6146;1.4634;
604.2000;0.6081;1.4559;
604.5000;0.5983;1.4359;
604.8000;0.5942;1.4334;
605.1000;0.5893;1.4309;
605.4000;0.5836;1.4185;
605.7000;0.5788;1.4160;
606.0000;0.5747;1.4160;
606.3000;0.5706;1.4110;
606.6000;0.5641;1.4035;
606.9000;0.5617;1.3960;
607.2000;0.5576;1.3910;
607.5000;0.5551;1.3985;
607.8000;0.5511;1.3860;
608.1000;0.5486;1.3760;
608.4000;0.5421;1.3685;
608.7000;0.5421;1.3760;
609.0000;0.5364;1.3685;
609.3000;0.5348;1.3660;
609.6000;0.5340;1.3660;
609.9000;0.5315;1.3735;
610.2000;0.5291;1.3710;
610.5000;0.5283;1.3660;
610.8000;0.5250;1.3585;
611.1000;0.5210;1.3510;
611.4000;0.5185;1.3510;
611.7000;0.5177;1.3510;
612.0000;0.5161;1.3485;
612.3000;0.5112;1.3435;
612.6000;0.5128;1.3510;
612.9000;0.5169;1.3635;
613.2000;0.5185;1.3710;
613.5000;0.5055;1.3410;
613.8000;0.5063;1.3460;
614.1000;0.5063;1.3485;
614.4000;0.5014;1.3460;
614.7000;0.4957;1.3336;
615.0000;0.4990;1.3510;
615.3000;0.4998;1.3560;
615.6000;0.4982;1.3535;
615.9000;0.4965;1.3610;
616.2000;0.4965;1.3560;
616.5000;0.4949;1.3510;
616.8000;0.4933;1.3460;
617.1000;0.4908;1.3336;
617.4000;0.4917;1.3286;
617.7000;0.4892;1.3261;
618.0000;0.4876;1.3261;
618.3000;0.4876;1.3236;
618.6000;0.4876;1.3236;
618.9000;0.4843;1.3236;
619.2000;0.4851;1.3311;
619.5000;0.4819;1.3236;
619.8000;0.4794;1.3211;
620.1000;0.4794;1.3261;
620.4000;0.4811;1.3261;
620.7000;0.4819;1.3385;
621.0000;0.4778;1.3385;
621.3000;0.4770;1.3410;
621.6000;0.4770;1.3485;
621.9000;0.4762;1.3485;
622.2000;0.4737;1.3460;
622.5000;0.4713;1.3286;
622.8000;0.4754;1.3460;
623.1000;0.4729;1.3410;
623.4000;0.4746;1.3435;
623.7000;0.4721;1.3485;
624.0000;0.4705;1.3435;
624.3000;0.4705;1.3385;
624.6000;0.4681;1.3410;
624.9000;0.4697;1.3485;
625.2000;0.4672;1.3560;
625.5000;0.4689;1.3510;
625.8000;0.4689;1.3410;
626.1000;0.4672;1.3435;
626.4000;0.4648;1.3435;
626.7000;0.4656;1.3435;
627.0000;0.4648;1.3460;
627.3000;0.4640;1.3435;
627.6000;0.4664;1.3535;
627.9000;0.4648;1.3560;
628.2000;0.4624;1.3460;
628.5000;0.4632;1.3460;
628.8000;0.4615;1.3435;
629.1000;0.4624;1.3460;
629.4000;0.4632;1.3460;
629.7000;0.4591;1.3385;
630.0000;0.4607;1.3535;
630.3000;0.4624;1.3610;
630.6000;0.4624;1.3435;
630.9000;0.4583;1.3410;
631.2000;0.4575;1.3311;
631.5000;0.4599;1.3361;
631.8000;0.4526;1.3286;
632.1000;0.4550;1.3385;
632.4000;0.4534;1.3385;
632.7000;0.4558;1.3485;
633.0000;0.4558;1.3560;
633.3000;0.4550;1.3610;
633.6000;0.4534;1.3560;
633.9000;0.4501;1.3560;
634.2000;0.4534;1.3685;
634.5000;0.4550;1.3660;
634.8000;0.4510;1.3560;
635.1000;0.4526;1.3585;
635.4000;0.4493;1.3485;
635.7000;0.4501;1.3410;
636.0000;0.4510;1.3460;
636.3000;0.4493;1.3435;
636.6000;0.4493;1.3361;
636.9000;0.4493;1.3311;
637.2000;0.4477;1.3311;
637.5000;0.4501;1.3286;
637.8000;0.4485;1.3236;
638.1000;0.4493;1.3186;
638.4000;0.4501;1.3186;
638.7000;0.4477;1.3161;
639.0000;0.4477;1.3161;
639.3000;0.4493;1.3236;
639.6000;0.4485;1.3161;
639.9000;0.4477;1.3186;
640.2000;0.4469;1.3211;
640.5000;0.4453;1.3261;
640.8000;0.4453;1.3261;
641.1000;0.4493;1.3485;
641.4000;0.4477;1.3485;
641.7000;0.4453;1.3460;
642.0000;0.4444;1.3510;
642.3000;0.4461;1.3585;
642.6000;0.4428;1.3560;
642.9000;0.4436;1.3585;
643.2000;0.4428;1.3510;
643.5000;0.4436;1.3535;
643.8000;0.4428;1.3510;
644.1000;0.4436;1.3585;
644.4000;0.4420;1.3635;
644.7000;0.4387;1.3535;
645.0000;0.4396;1.3510;
645.3000;0.4420;1.3510;
645.6000;0.4404;1.3535;
645.9000;0.4404;1.3485;
646.2000;0.4330;1.3336;
646.5000;0.4428;1.3610;
646.8000;0.4387;1.3510;
647.1000;0.4396;1.3460;
647.4000;0.4396;1.3485;
647.7000;0.4387;1.3535;
648.0000;0.4412;1.3660;
648.3000;0.4371;1.3585;
648.6000;0.4371;1.3610;
648.9000;0.4412;1.3610;
649.2000;0.4363;1.3510;
649.5000;0.4396;1.3635;
649.8000;0.4363;1.3585;
650.1000;0.4371;1.3635;
650.4000;0.4330;1.3535;
650.7000;0.4355;1.3610;
651.0000;0.4371;1.3635;
651.3000;0.4355;1.3635;
651.6000;0.4306;1.3510;
651.9000;0.4330;1.3510;
652.2000;0.4355;1.3560;
652.5000;0.4412;1.3785;
652.8000;0.4355;1.3560;
653.1000;0.4371;1.3535;
653.4000;0.4347;1.3510;
653.7000;0.4330;1.3535;
654.0000;0.4314;1.3535;
654.3000;0.4322;1.3510;
654.6000;0.4330;1.3560;
654.9000;0.4322;1.3535;
655.2000;0.4314;1.3485;
655.5000;0.4306;1.3485;
655.8000;0.4306;1.3485;
656.1000;0.4306;1.3560;
656.4000;0.4298;1.3485;
656.7000;0.4306;1.3485;
657.0000;0.4306;1.3535;
657.3000;0.4306;1.3535;
657.6000;0.4298;1.3510;
657.9000;0.4290;1.3435;
658.2000;0.4298;1.3435;
658.5000;0.4290;1.3410;
658.8000;0.4265;1.3435;
659.1000;0.4274;1.3510;
659.4000;0.4274;1.3460;
659.7000;0.4306;1.3535;
660.0000;0.4290;1.3585;
660.3000;0.4274;1.3610;
660.6000;0.4257;1.3460;
660.9000;0.4339;1.3710;
661.2000;0.4257;1.3535;
661.5000;0.4257;1.3485;
661.8000;0.4257;1.3485;
662.1000;0.4257;1.3485;
662.4000;0.4265;1.3485;
662.7000;0.4265;1.3460;
663.0000;0.4249;1.3435;
663.3000;0.4274;1.3485;
663.6000;0.4265;1.3485;
663.9000;0.4355;1.3760;
664.2000;0.4265;1.3585;
664.5000;0.4265;1.3460;
664.8000;0.4257;1.3510;
665.1000;0.4387;1.3785;
665.4000;0.4241;1.3410;
665.7000;0.4225;1.3361;
666.0000;0.4249;1.3460;
666.3000;0.4241;1.3385;
666.6000;0.4225;1.3261;
666.9000;0.4257;1.3311;
667.2000;0.4298;1.3460;
667.5000;0.4257;1.3361;
667.8000;0.4241;1.3311;
668.1000;0.4306;1.3460;
668.4000;0.4282;1.3336;
668.7000;0.4233;1.3261;
669.0000;0.4249;1.3410;
669.3000;0.4225;1.3460;
669.6000;0.4249;1.3535;
669.9000;0.4225;1.3485;
670.2000;0.4143;1.3385;
670.5000;0.4176;1.3385;
670.8000;0.4168;1.3410;
671.1000;0.4200;1.3410;
671.4000;0.4200;1.3485;
671.7000;0.4233;1.3560;
672.0000;0.4176;1.3460;
672.3000;0.4176;1.3385;
672.6000;0.4217;1.3485;
672.9000;0.4192;1.3410;
673.2000;0.4192;1.3410;
673.5000;0.4208;1.3435;
673.8000;0.4184;1.3336;
674.1000;0.4192;1.3336;
674.4000;0.4192;1.3286;
674.7000;0.4184;1.3286;
675.0000;0.4200;1.3311;
675.3000;0.4192;1.3311;
675.6000;0.4176;1.3286;
675.9000;0.4168;1.3286;
676.2000;0.4192;1.3336;
676.5000;0.4168;1.3286;
676.8000;0.4176;1.3336;
677.1000;0.4135;1.3261;
677.4000;0.4168;1.3435;
677.7000;0.4160;1.3510;
678.0000;0.4184;1.3560;
678.3000;0.4160;1.3510;
678.6000;0.4151;1.3460;
678.9000;0.4160;1.3361;
679.2000;0.4200;1.3460;
679.5000;0.4168;1.3361;
679.8000;0.4168;1.3385;
680.1000;0.4143;1.3261;
680.4000;0.4168;1.3336;
680.7000;0.4151;1.3435;
681.0000;0.4111;1.3311;
681.3000;0.4135;1.3410;
681.6000;0.4151;1.3460;
681.9000;0.4151;1.3535;
682.2000;0.4135;1.3460;
682.5000;0.4135;1.3460;
682.8000;0.4119;1.3385;
683.1000;0.4127;1.3460;
683.4000;0.4151;1.3535;
683.7000;0.4127;1.3560;
684.0000;0.4192;1.3710;
684.3000;0.4151;1.3710;
684.6000;0.4151;1.3685;
684.9000;0.4168;1.3660;
685.2000;0.4127;1.3560;
685.5000;0.4135;1.3610;
685.8000;0.4119;1.3560;
686.1000;0.4111;1.3660;
686.4000;0.4119;1.3535;
686.7000;0.4111;1.3485;
687.0000;0.4135;1.3560;
687.3000;0.4094;1.3460;
687.6000;0.4119;1.3460;
687.9000;0.4111;1.3485;
688.2000;0.4111;1.3485;
688.5000;0.4111;1.3361;
688.8000;0.4119;1.3385;
689.1000;0.4151;1.3535;
689.4000;0.4119;1.3510;
689.7000;0.4111;1.3535;
690.0000;0.4103;1.3510;
690.3000;0.4103;1.3560;
690.6000;0.4070;1.3510;
690.9000;0.4086;1.3485;
691.2000;0.4078;1.3435;
691.5000;0.4103;1.3510;
691.8000;0.4094;1.3560;
692.1000;0.4070;1.3510;
692.4000;0.4086;1.3435;
692.7000;0.4062;1.3435;
693.0000;0.4111;1.3585;
693.3000;0.4094;1.3435;
693.6000;0.4086;1.3485;
693.9000;0.4086;1.3510;
694.2000;0.4111;1.3635;
694.5000;0.4127;1.3610;
694.8000;0.4103;1.3560;
695.1000;0.4086;1.3435;
695.4000;0.4054;1.3336;
695.7000;0.4094;1.3410;
696.0000;0.4070;1.3361;
696.3000;0.4086;1.3435;
696.6000;0.4029;1.3311;
696.9000;0.4070;1.3460;
697.2000;0.4078;1.3460;
697.5000;0.4070;1.3535;
697.8000;0.4070;1.3510;
698.1000;0.4070;1.3610;
698.4000;0.4078;1.3610;
698.7000;0.4070;1.3535;
699.0000;0.4070;1.3560;
699.3000;0.4070;1.3560;
699.6000;0.4086;1.3535;
699.9000;0.4086;1.3460;
700.2000;0.4062;1.3435;
700.5000;0.4078;1.3585;
700.8000;0.4078;1.3560;
701.1000;0.4070;1.3585;
701.4000;0.4070;1.3585;
701.7000;0.4062;1.3660;
702.0000;0.4086;1.3735;
702.3000;0.4070;1.3735;
702.6000;0.4070;1.3760;
702.9000;0.4070;1.3710;
703.2000;0.4078;1.3735;
703.5000;0.4062;1.3785;
703.8000;0.4070;1.3760;
704.1000;0.4062;1.3685;
704.4000;0.4070;1.3760;
704.7000;0.4078;1.3685;
705.0000;0.4078;1.3610;
705.3000;0.4070;1.3610;
705.6000;0.4062;1.3610;
705.9000;0.4062;1.3585;
706.2000;0.4094;1.3685;
706.5000;0.4046;1.3610;
706.8000;0.4062;1.3610;
707.1000;0.4054;1.3610;
707.4000;0.4054;1.3585;
707.7000;0.4013;1.3535;
708.0000;0.4062;1.3635;
708.3000;0.4021;1.3635;
708.6000;0.4054;1.3760;
708.9000;0.4062;1.3760;
709.2000;0.4029;1.3735;
709.5000;0.4029;1.3735;
709.8000;0.4021;1.3710;
710.1000;0.4013;1.3535;
710.4000;0.4029;1.3585;
710.7000;0.4046;1.3485;
711.0000;0.4062;1.3510;
711.3000;0.4070;1.3585;
711.6000;0.4029;1.3535;
711.9000;0.3989;1.3460;
712.2000;0.4037;1.3635;
712.5000;0.4037;1.3610;
712.8000;0.4037;1.3585;
713.1000;0.4037;1.3610;
713.4000;0.4021;1.3585;
713.7000;0.4046;1.3660;
714.0000;0.4054;1.3635;
714.3000;0.4037;1.3560;
714.6000;0.4046;1.3610;
714.9000;0.4021;1.3510;
715.2000;0.4046;1.3460;
715.5000;0.3997;1.3460;
715.8000;0.4029;1.3535;
716.1000;0.4029;1.3560;
716.4000;0.4013;1.3385;
716.7000;0.4062;1.3535;
717.0000;0.4005;1.3510;
717.3000;0.4013;1.3535;
717.6000;0.4029;1.3660;
717.9000;0.4005;1.3685;
718.2000;0.3997;1.3710;
718.5000;0.4005;1.3760;
718.8000;0.4013;1.3810;
719.1000;0.3989;1.3710;
719.4000;0.3997;1.3635;
719.7000;0.4021;1.3635;
720.0000;0.4021;1.3635;
720.3000;0.4013;1.3560;
720.6000;0.3972;1.3485;
720.9000;0.4013;1.3710;
721.2000;0.4029;1.3760;
721.5000;0.3997;1.3610;
721.8000;0.3980;1.3585;
722.1000;0.3989;1.3610;
722.4000;0.3997;1.3610;
722.7000;0.4005;1.3585;
723.0000;0.3997;1.3610;
723.3000;0.3964;1.3585;
723.6000;0.4005;1.3610;
723.9000;0.4013;1.3685;
724.2000;0.3989;1.3635;
724.5000;0.3989;1.3710;
724.8000;0.4046;1.3835;
725.1000;0.4013;1.3635;
725.4000;0.4005;1.3635;
725.7000;0.3997;1.3710;
726.0000;0.4005;1.3785;
726.3000;0.4005;1.3760;
726.6000;0.3956;1.3610;
726.9000;0.3989;1.3585;
727.2000;0.4013;1.3535;
727.5000;0.3997;1.3560;
727.8000;0.4021;1.3760;
728.1000;0.3980;1.3610;
728.4000;0.3940;1.3485;
728.7000;0.3964;1.3585;
729.0000;0.3972;1.3585;
729.3000;0.3980;1.3585;
729.6000;0.3956;1.3560;
729.9000;0.3964;1.3585;
730.2000;0.3940;1.3485;
730.5000;0.3964;1.3560;
730.8000;0.3972;1.3510;
731.1000;0.3972;1.3460;
731.4000;0.3980;1.3485;
731.7000;0.3964;1.3485;
732.0000;0.3980;1.3560;
732.3000;0.3972;1.3535;
732.6000;0.3980;1.3460;
732.9000;0.3980;1.3485;
733.2000;0.3980;1.3560;
733.5000;0.3989;1.3585;
733.8000;0.3980;1.3560;
734.1000;0.3989;1.3560;
734.4000;0.3980;1.3560;
734.7000;0.3980;1.3510;
735.0000;0.3989;1.3560;
735.3000;0.3989;1.3585;
735.6000;0.3980;1.3535;
735.9000;0.3972;1.3535;
736.2000;0.3980;1.3535;
736.5000;0.3972;1.3585;
736.8000;0.3980;1.3635;
737.1000;0.3980;1.3610;
737.4000;0.3972;1.3585;
737.7000;0.3972;1.3485;
738.0000;0.3948;1.3485;
738.3000;0.3964;1.3610;
738.6000;0.3948;1.3610;
738.9000;0.3980;1.3610;
739.2000;0.3956;1.3535;
739.5000;0.3956;1.3585;
739.8000;0.3964;1.3610;
740.1000;0.3964;1.3560;
740.4000;0.3964;1.3585;
740.7000;0.3948;1.3585;
741.0000;0.3956;1.3510;
741.3000;0.3964;1.3560;
741.6000;0.4005;1.3585;
741.9000;0.3980;1.3510;
742.2000;0.3948;1.3410;
742.5000;0.3948;1.3435;
742.8000;0.3948;1.3460;
743.1000;0.3948;1.3535;
743.4000;0.3948;1.3660;
743.7000;0.3948;1.3685;
744.0000;0.3923;1.3710;
744.3000;0.3956;1.3860;
744.6000;0.3956;1.3785;
744.9000;0.3940;1.3660;
745.2000;0.3940;1.3685;
745.5000;0.3948;1.3685;
745.8000;0.3964;1.3685;
746.1000;0.3940;1.3610;
746.4000;0.3948;1.3510;
746.7000;0.3956;1.3510;
747.0000;0.3948;1.3485;
747.3000;0.3948;1.3460;
747.6000;0.3940;1.3535;
747.9000;0.3948;1.3610;
748.2000;0.3940;1.3485;
748.5000;0.3932;1.3485;
748.8000;0.3932;1.3485;
749.1000;0.3940;1.3460;
749.4000;0.3940;1.3635;
749.7000;0.3932;1.3660;
750.0000;0.3940;1.3660;
750.3000;0.3948;1.3660;
750.6000;0.3956;1.3635;
750.9000;0.3948;1.3635;
751.2000;0.3907;1.3660;
751.5000;0.3948;1.3835;
751.8000;0.3932;1.3860;
752.1000;0.3907;1.3760;
752.4000;0.3923;1.3785;
752.7000;0.3923;1.3810;
753.0000;0.3956;1.3935;
753.3000;0.3915;1.3760;
753.6000;0.3915;1.3735;
753.9000;0.3923;1.3735;
754.2000;0.3923;1.3810;
754.5000;0.3932;1.3885;
754.8000;0.3932;1.3860;
755.1000;0.3940;1.3810;
755.4000;0.3915;1.3735;
755.7000;0.3932;1.3785;
756.0000;0.3875;1.3635;
756.3000;0.3915;1.3860;
756.6000;0.3932;1.3885;
756.9000;0.3907;1.3910;
757.2000;0.3923;1.3960;
757.5000;0.3923;1.3835;
757.8000;0.3932;1.3810;
758.1000;0.3932;1.3835;
758.4000;0.3932;1.3860;
758.7000;0.3915;1.3860;
759.0000;0.3932;1.3810;
759.3000;0.3899;1.3760;
759.6000;0.3932;1.3810;
759.9000;0.3899;1.3710;
760.2000;0.3923;1.3735;
760.5000;0.3867;1.3560;
760.8000;0.3923;1.3660;
761.1000;0.3907;1.3660;
761.4000;0.3923;1.3710;
761.7000;0.3907;1.3685;
762.0000;0.3932;1.3760;
762.3000;0.3940;1.3835;
762.6000;0.3915;1.3710;
762.9000;0.3915;1.3685;
763.2000;0.3899;1.3585;
763.5000;0.3907;1.3635;
763.8000;0.3915;1.3660;
764.1000;0.3956;1.3760;
764.4000;0.3907;1.3685;
764.7000;0.3915;1.3735;
765.0000;0.3915;1.3735;
765.3000;0.3891;1.3685;
765.6000;0.3899;1.3685;
765.9000;0.3850;1.3460;
766.2000;0.3907;1.3635;
766.5000;0.3891;1.3735;
766.8000;0.3915;1.3760;
767.1000;0.3883;1.3660;
767.4000;0.3899;1.3685;
767.7000;0.3899;1.3710;
768.0000;0.3907;1.3685;
768.3000;0.3915;1.3710;
768.6000;0.3899;1.3660;
768.9000;0.3907;1.3635;
769.2000;0.3899;1.3610;
769.5000;0.3891;1.3610;
769.8000;0.3923;1.3635;
770.1000;0.3907;1.3660;
770.4000;0.3899;1.3710;
770.7000;0.3915;1.3785;
771.0000;0.3899;1.3710;
771.3000;0.3923;1.3710;
771.6000;0.3899;1.3635;
771.9000;0.3891;1.3610;
772.2000;0.3850;1.3510;
772.5000;0.3891;1.3635;
772.8000;0.3891;1.3635;
773.1000;0.3875;1.3560;
773.4000;0.3875;1.3560;
773.7000;0.3891;1.3635;
774.0000;0.3883;1.3660;
774.3000;0.3891;1.3710;
774.6000;0.3883;1.3735;
774.9000;0.3875;1.3660;
775.2000;0.3907;1.3685;
775.5000;0.3891;1.3585;
775.8000;0.3891;1.3685;
776.1000;0.3826;1.3485;
776.4000;0.3899;1.3785;
776.7000;0.3883;1.3860;
777.0000;0.3891;1.3885;
777.3000;0.3899;1.3910;
777.6000;0.3883;1.3935;
777.9000;0.3899;1.3860;
778.2000;0.3810;1.3635;
778.5000;0.3875;1.3735;
778.8000;0.3875;1.3660;
779.1000;0.3883;1.3735;
779.4000;0.3883;1.3785;
779.7000;0.3858;1.3710;
780.0000;0.3875;1.3735;
780.3000;0.3858;1.3635;
780.6000;0.3883;1.3660;
780.9000;0.3891;1.3635;
781.2000;0.3891;1.3635;
781.5000;0.3883;1.3610;
781.8000;0.3891;1.3660;
782.1000;0.3891;1.3660;
782.4000;0.3907;1.3735;
782.7000;0.3899;1.3685;
783.0000;0.3883;1.3560;
783.3000;0.3810;1.3410;
783.6000;0.3867;1.3560;
783.9000;0.3883;1.3635;
784.2000;0.3883;1.3585;
784.5000;0.3923;1.3710;
784.8000;0.3883;1.3560;
785.1000;0.3850;1.3560;
785.4000;0.3875;1.3685;
785.7000;0.3883;1.3685;
786.0000;0.3883;1.3660;
786.3000;0.3891;1.3660;
786.6000;0.3883;1.3635;
786.9000;0.3891;1.3710;
787.2000;0.3875;1.3685;
787.5000;0.3964;1.3885;
787.8000;0.3891;1.3660;
788.1000;0.3875;1.3685;
788.4000;0.3867;1.3685;
788.7000;0.3907;1.3885;
789.0000;0.3867;1.3910;
789.3000;0.3875;1.3910;
789.6000;0.3875;1.3860;
789.9000;0.3858;1.3810;
790.2000;0.3875;1.3810;
790.5000;0.3875;1.3810;
790.8000;0.3875;1.3810;
791.1000;0.3883;1.3860;
791.4000;0.3899;1.3835;
791.7000;0.3883;1.3785;
792.0000;0.3875;1.3760;
792.3000;0.3867;1.3860;
792.6000;0.3891;1.3885;
792.9000;0.3850;1.3660;
793.2000;0.3867;1.3660;
793.5000;0.3842;1.3685;
793.8000;0.3858;1.3710;
794.1000;0.3858;1.3635;
794.4000;0.3850;1.3760;
794.7000;0.3850;1.3685;
795.0000;0.3858;1.3635;
795.3000;0.3883;1.3685;
795.6000;0.3858;1.3660;
795.9000;0.3891;1.3635;
796.2000;0.3875;1.3685;
796.5000;0.3867;1.3610;
796.8000;0.3858;1.3685;
797.1000;0.3867;1.3735;
797.4000;0.3875;1.3860;
797.7000;0.3883;1.3885;
798.0000;0.3850;1.3910;
798.3000;0.3858;1.3885;
798.6000;0.3867;1.3785;
798.9000;0.3858;1.3760;
799.2000;0.3858;1.3835;
799.5000;0.3858;1.3835;
799.8000;0.3850;1.3760;
800.1000;0.3875;1.3810;
800.4000;0.3867;1.3835;
800.7000;0.3850;1.3810;
801.0000;0.3842;1.3785;
801.3000;0.3858;1.3835;
801.6000;0.3858;1.3685;
801.9000;0.3834;1.3610;
802.2000;0.3891;1.3835;
802.5000;0.3867;1.3735;
802.8000;0.3875;1.3785;
803.1000;0.3867;1.3860;
803.4000;0.3867;1.3785;
803.7000;0.3858;1.3710;
804.0000;0.3875;1.3710;
804.3000;0.3867;1.3710;
804.6000;0.3834;1.3635;
804.9000;0.3850;1.3685;
805.2000;0.3858;1.3760;
805.5000;0.3858;1.3735;
805.8000;0.3850;1.3735;
806.1000;0.3850;1.3710;
806.4000;0.3867;1.3735;
806.7000;0.3850;1.3635;
807.0000;0.3858;1.3610;
807.3000;0.3801;1.3435;
807.6000;0.3867;1.3535;
807.9000;0.3883;1.3660;
808.2000;0.3842;1.3610;
808.5000;0.3858;1.3610;
808.8000;0.3858;1.3660;
809.1000;0.3858;1.3710;
809.4000;0.3858;1.3785;
809.7000;0.3850;1.3735;
810.0000;0.3850;1.3810;
810.3000;0.3867;1.3860;
810.6000;0.3826;1.3710;
810.9000;0.3858;1.3810;
811.2000;0.3875;1.3710;
811.5000;0.3850;1.3635;
811.8000;0.3842;1.3635;
812.1000;0.3883;1.3735;
812.4000;0.3850;1.3610;
812.7000;0.3850;1.3560;
813.0000;0.3842;1.3485;
813.3000;0.3826;1.3485;
813.6000;0.3867;1.3585;
813.9000;0.3842;1.3635;
814.2000;0.3834;1.3585;
814.5000;0.3850;1.3710;
814.8000;0.3842;1.3760;
815.1000;0.3834;1.3735;
815.4000;0.3834;1.3810;
815.7000;0.3842;1.3810;
816.0000;0.3834;1.3785;
816.3000;0.3826;1.3785;
816.6000;0.3834;1.3810;
816.9000;0.3858;1.3835;
817.2000;0.3842;1.3810;
817.5000;0.3826;1.3710;
817.8000;0.3850;1.3685;
818.1000;0.3818;1.3610;
818.4000;0.3858;1.3735;
818.7000;0.3785;1.3510;
819.0000;0.3826;1.3585;
819.3000;0.3818;1.3485;
819.6000;0.3810;1.3535;
819.9000;0.3842;1.3635;
820.2000;0.3842;1.3685;
820.5000;0.3826;1.3710;
820.8000;0.3834;1.3885;
821.1000;0.3826;1.3810;
821.4000;0.3826;1.3785;
821.7000;0.3834;1.3810;
822.0000;0.3850;1.3810;
822.3000;0.3842;1.3785;
822.6000;0.3834;1.3785;
822.9000;0.3826;1.3785;
823.2000;0.3818;1.3835;
823.5000;0.3818;1.3910;
823.8000;0.3826;1.3910;
824.1000;0.3850;1.3910;
824.4000;0.3842;1.3885;
824.7000;0.3850;1.3910;
825.0000;0.3826;1.3860;
825.3000;0.3818;1.3835;
825.6000;0.3842;1.3935;
825.9000;0.3826;1.3885;
826.2000;0.3850;1.3960;
826.5000;0.3818;1.3910;
826.8000;0.3834;1.3960;
827.1000;0.3842;1.3985;
827.4000;0.3842;1.3935;
827.7000;0.3834;1.3935;
828.0000;0.3826;1.3935;
828.3000;0.3858;1.4010;
828.6000;0.3858;1.3985;
828.9000;0.3842;1.3960;
829.2000;0.3842;1.3985;
829.5000;0.3834;1.4010;
829.8000;0.3842;1.4060;
830.1000;0.3818;1.3885;
830.4000;0.3842;1.3935;
830.7000;0.3834;1.3860;
831.0000;0.3842;1.3910;
831.3000;0.3850;1.4035;
831.6000;0.3818;1.3935;
831.9000;0.3834;1.3960;
832.2000;0.3858;1.4060;
832.5000;0.3818;1.3985;
832.8000;0.3834;1.4035;
833.1000;0.3834;1.3985;
833.4000;0.3834;1.3985;
833.7000;0.3810;1.3985;
834.0000;0.3801;1.4010;
834.3000;0.3875;1.4210;
834.6000;0.3867;1.4085;
834.9000;0.3818;1.3910;
835.2000;0.3818;1.3835;
835.5000;0.3875;1.3960;
835.8000;0.3793;1.3835;
836.1000;0.3842;1.4010;
836.4000;0.3818;1.4010;
836.7000;0.3801;1.4035;
837.0000;0.3810;1.4060;
837.3000;0.3801;1.4110;
837.6000;0.3834;1.4160;
837.9000;0.3769;1.3935;
838.2000;0.3858;1.4135;
838.5000;0.3826;1.4060;
838.8000;0.3826;1.4010;
839.1000;0.3834;1.4010;
839.4000;0.3875;1.4060;
839.7000;0.3834;1.3985;
840.0000;0.3842;1.3985;
840.3000;0.3875;1.4135;
840.6000;0.3810;1.4035;
840.9000;0.3818;1.4160;
841.2000;0.3834;1.4160;
841.5000;0.3834;1.4085;
841.8000;0.3810;1.4035;
842.1000;0.3777;1.3960;
842.4000;0.3826;1.4010;
842.7000;0.3834;1.4060;
843.0000;0.3834;1.4060;
843.3000;0.3818;1.4110;
843.6000;0.3810;1.4010;
843.9000;0.3834;1.4010;
844.2000;0.3801;1.3935;
844.5000;0.3818;1.3935;
844.8000;0.3818;1.3985;
845.1000;0.3842;1.4060;
845.4000;0.3810;1.4060;
845.7000;0.3810;1.4085;
846.0000;0.3818;1.4035;
846.3000;0.3834;1.3985;
846.6000;0.3810;1.3860;
846.9000;0.3818;1.3860;
847.2000;0.3777;1.3760;
847.5000;0.3818;1.3810;
847.8000;0.3810;1.3760;
848.1000;0.3818;1.3785;
848.4000;0.3801;1.3735;
848.7000;0.3834;1.3885;
849.0000;0.3818;1.3860;
849.3000;0.3826;1.3735;
849.6000;0.3818;1.3710;
849.9000;0.3793;1.3685;
850.2000;0.3810;1.3760;
850.5000;0.3810;1.3835;
850.8000;0.3801;1.3810;
851.1000;0.3810;1.3785;
851.4000;0.3785;1.3785;
851.7000;0.3818;1.3960;
852.0000;0.3810;1.3985;
852.3000;0.3818;1.3960;
852.6000;0.3810;1.3960;
852.9000;0.3867;1.4085;
853.2000;0.3801;1.3985;
853.5000;0.3793;1.4010;
853.8000;0.3818;1.4010;
854.1000;0.3818;1.4035;
854.4000;0.3801;1.4035;
854.7000;0.3801;1.4010;
855.0000;0.3810;1.3960;
855.3000;0.3793;1.3910;
855.6000;0.3810;1.3835;
855.9000;0.3810;1.3860;
856.2000;0.3801;1.3935;
856.5000;0.3801;1.3885;
856.8000;0.3810;1.3960;
857.1000;0.3785;1.3885;
857.4000;0.3785;1.3885;
857.7000;0.3801;1.3910;
858.0000;0.3801;1.3785;
858.3000;0.3785;1.3810;
858.6000;0.3785;1.3810;
858.9000;0.3801;1.3910;
859.2000;0.3785;1.3860;
859.5000;0.3818;1.3935;
859.8000;0.3801;1.3885;
860.1000;0.3769;1.3810;
860.4000;0.3818;1.4035;
860.7000;0.3810;1.3960;
861.0000;0.3801;1.3910;
861.3000;0.3793;1.3910;
861.6000;0.3753;1.3835;
861.9000;0.3785;1.3910;
862.2000;0.3785;1.3935;
862.5000;0.3777;1.3985;
862.8000;0.3801;1.4035;
863.1000;0.3801;1.3985;
863.4000;0.3793;1.3985;
863.7000;0.3793;1.3935;
864.0000;0.3810;1.3960;
864.3000;0.3801;1.3910;
864.6000;0.3785;1.3735;
864.9000;0.3801;1.3785;
865.2000;0.3818;1.3860;
865.5000;0.3793;1.3835;
865.8000;0.3793;1.3810;
866.1000;0.3801;1.3760;
866.4000;0.3810;1.3685;
866.7000;0.3818;1.3785;
867.0000;0.3801;1.3735;
867.3000;0.3793;1.3735;
867.6000;0.3801;1.3735;
867.9000;0.3801;1.3810;
868.2000;0.3826;1.4010;
868.5000;0.3785;1.3885;
868.8000;0.3810;1.3910;
869.1000;0.3801;1.3860;
869.4000;0.3801;1.3810;
869.7000;0.3858;1.3935;
870.0000;0.3793;1.3735;
870.3000;0.3834;1.3935;
870.6000;0.3801;1.3760;
870.9000;0.3793;1.3810;
871.2000;0.3818;1.3885;
871.5000;0.3801;1.3860;
871.8000;0.3793;1.3835;
872.1000;0.3785;1.3785;
872.4000;0.3793;1.3860;
872.7000;0.3769;1.3810;
873.0000;0.3801;1.3935;
873.3000;0.3785;1.3885;
873.6000;0.3801;1.3860;
873.9000;0.3818;1.3835;
874.2000;0.3801;1.3710;
874.5000;0.3801;1.3685;
874.8000;0.3793;1.3635;
875.1000;0.3777;1.3635;
875.4000;0.3810;1.3735;
875.7000;0.3793;1.3760;
876.0000;0.3801;1.3735;
876.3000;0.3793;1.3835;
876.6000;0.3793;1.3785;
876.9000;0.3801;1.3785;
877.2000;0.3801;1.3785;
877.5000;0.3785;1.3785;
877.8000;0.3793;1.3785;
878.1000;0.3801;1.3860;
878.4000;0.3801;1.3860;
878.7000;0.3785;1.3810;
879.0000;0.3785;1.3860;
879.3000;0.3801;1.3860;
879.6000;0.3785;1.3885;
879.9000;0.3801;1.3960;
880.2000;0.3777;1.3960;
880.5000;0.3777;1.3885;
880.8000;0.3801;1.3935;
881.1000;0.3801;1.3910;
881.4000;0.3793;1.3910;
881.7000;0.3777;1.3935;
882.0000;0.3785;1.3885;
882.3000;0.3785;1.3835;
882.6000;0.3793;1.3860;
882.9000;0.3793;1.3885;
883.2000;0.3793;1.3785;
883.5000;0.3801;1.3810;
883.8000;0.3793;1.3785;
884.1000;0.3785;1.3735;
884.4000;0.3777;1.3760;
884.7000;0.3793;1.3810;
885.0000;0.3777;1.3710;
885.3000;0.3720;1.3485;
885.6000;0.3785;1.3685;
885.9000;0.3785;1.3735;
886.2000;0.3785;1.3810;
886.5000;0.3761;1.3735;
886.8000;0.3769;1.3710;
887.1000;0.3818;1.3810;
887.4000;0.3777;1.3710;
887.7000;0.3810;1.3710;
888.0000;0.3785;1.3635;
888.3000;0.3785;1.3635;
888.6000;0.3777;1.3660;
888.9000;0.3753;1.3660;
889.2000;0.3785;1.3785;
889.5000;0.3785;1.3810;
889.8000;0.3801;1.3910;
890.1000;0.3785;1.3960;
890.4000;0.3769;1.3960;
890.7000;0.3777;1.3985;
891.0000;0.3801;1.3985;
891.3000;0.3777;1.3910;
891.6000;0.3785;1.3935;
891.9000;0.3761;1.3910;
892.2000;0.3769;1.3910;
892.5000;0.3769;1.3810;
892.8000;0.3769;1.3735;
893.1000;0.3793;1.3785;
893.4000;0.3810;1.3910;
893.7000;0.3785;1.3835;
894.0000;0.3769;1.3860;
894.3000;0.3801;1.3860;
894.6000;0.3785;1.3835;
894.9000;0.3785;1.3785;
895.2000;0.3761;1.3860;
895.5000;0.3769;1.3835;
895.8000;0.3777;1.3860;
896.1000;0.3777;1.3860;
896.4000;0.3801;1.3885;
896.7000;0.3769;1.3785;
897.0000;0.3785;1.3835;
897.3000;0.3777;1.3835;
897.6000;0.3785;1.3760;
897.9000;0.3761;1.3760;
898.2000;0.3777;1.3785;
898.5000;0.3777;1.3835;
898.8000;0.3777;1.3785;
899.1000;0.3777;1.3785;
899.4000;0.3777;1.3760;
899.7000;0.3728;1.3710;
900.0000;0.3793;1.3885;
900.3000;0.3777;1.3935;
900.6000;0.3744;1.3935;
900.9000;0.3761;1.3935;
901.2000;0.3785;1.3960;
901.5000;0.3785;1.3985;
901.8000;0.3777;1.3985;
902.1000;0.3769;1.3910;
902.4000;0.3744;1.3885;
902.7000;0.3769;1.3935;
903.0000;0.3769;1.3860;
903.3000;0.3785;1.3935;
903.6000;0.3720;1.3785;
903.9000;0.3777;1.3860;
904.2000;0.3785;1.3785;
904.5000;0.3736;1.3735;
904.8000;0.3785;1.3810;
905.1000;0.3777;1.3835;
905.4000;0.3761;1.3810;
905.7000;0.3777;1.3785;
906.0000;0.3761;1.3710;
906.3000;0.3793;1.3810;
906.6000;0.3785;1.3810;
906.9000;0.3777;1.3760;
907.2000;0.3785;1.3735;
907.5000;0.3793;1.3835;
907.8000;0.3777;1.3885;
908.1000;0.3761;1.3785;
908.4000;0.3777;1.3810;
908.7000;0.3769;1.3760;
909.0000;0.3761;1.3710;
909.3000;0.3818;1.3885;
909.6000;0.3736;1.3660;
909.9000;0.3769;1.3735;
910.2000;0.3785;1.3785;
910.5000;0.3785;1.3835;
910.8000;0.3801;1.3935;
911.1000;0.3753;1.3835;
911.4000;0.3769;1.3885;
911.7000;0.3777;1.3910;
912.0000;0.3785;1.3835;
912.3000;0.3761;1.3810;
912.6000;0.3777;1.3935;
912.9000;0.3761;1.3885;
913.2000;0.3744;1.3810;
913.5000;0.3777;1.3860;
913.8000;0.3785;1.3860;
914.1000;0.3801;1.3935;
914.4000;0.3785;1.3985;
914.7000;0.3801;1.4010;
915.0000;0.3736;1.3835;
915.3000;0.3785;1.3885;
915.6000;0.3761;1.3785;
915.9000;0.3769;1.3810;
916.2000;0.3810;1.3885;
916.5000;0.3785;1.3785;
916.8000;0.3769;1.3735;
917.1000;0.3761;1.3685;
917.4000;0.3761;1.3835;
917.7000;0.3761;1.3835;
918.0000;0.3769;1.3810;
918.3000;0.3753;1.3785;
918.6000;0.3753;1.3810;
918.9000;0.3744;1.3735;
919.2000;0.3753;1.3735;
919.5000;0.3769;1.3810;
919.8000;0.3753;1.3735;
920.1000;0.3761;1.3785;
920.4000;0.3761;1.3835;
920.7000;0.3769;1.3860;
921.0000;0.3736;1.3785;
921.3000;0.3761;1.3885;
921.6000;0.3761;1.3835;
921.9000;0.3753;1.3785;
922.2000;0.3761;1.3735;
922.5000;0.3761;1.3835;
922.8000;0.3769;1.3885;
923.1000;0.3777;1.3860;
923.4000;0.3834;1.4085;
923.7000;0.3744;1.3910;
924.0000;0.3858;1.4160;
924.3000;0.3785;1.3910;
924.6000;0.3801;1.3960;
924.9000;0.3777;1.3960;
925.2000;0.3777;1.3910;
925.5000;0.3736;1.3785;
925.8000;0.3777;1.3885;
926.1000;0.3761;1.3860;
926.4000;0.3777;1.3835;
926.7000;0.3793;1.3985;
927.0000;0.3753;1.3935;
927.3000;0.3744;1.3860;
927.6000;0.3769;1.3835;
927.9000;0.3785;1.3860;
928.2000;0.3769;1.3835;
928.5000;0.3777;1.3910;
928.8000;0.3769;1.3910;
929.1000;0.3753;1.3910;
929.4000;0.3753;1.3885;
929.7000;0.3777;1.3935;
930.0000;0.3785;1.3910;
930.3000;0.3769;1.3935;
930.6000;0.3777;1.3960;
930.9000;0.3769;1.3985;
931.2000;0.3761;1.3960;
931.5000;0.3728;1.3910;
931.8000;0.3761;1.3935;
932.1000;0.3744;1.3860;
932.4000;0.3834;1.4060;
932.7000;0.3753;1.3935;
933.0000;0.3793;1.4110;
933.3000;0.3761;1.4035;
933.6000;0.3744;1.3935;
933.9000;0.3712;1.3810;
934.2000;0.3761;1.3960;
934.5000;0.3744;1.3935;
934.8000;0.3761;1.3985;
935.1000;0.3761;1.4085;
935.4000;0.3769;1.4135;
935.7000;0.3761;1.4010;
936.0000;0.3785;1.4085;
936.3000;0.3769;1.4110;
936.6000;0.3777;1.4160;
936.9000;0.3753;1.4110;
937.2000;0.3687;1.3860;
937.5000;0.3761;1.3985;
937.8000;0.3801;1.4060;
938.1000;0.3769;1.4060;
938.4000;0.3753;1.4010;
938.7000;0.3769;1.3935;
939.0000;0.3761;1.3910;
939.3000;0.3753;1.3910;
939.6000;0.3753;1.3910;
939.9000;0.3753;1.3835;
940.2000;0.3720;1.3785;
940.5000;0.3753;1.3885;
940.8000;0.3777;1.3910;
941.1000;0.3769;1.3860;
941.4000;0.3769;1.3985;
941.7000;0.3753;1.3935;
942.0000;0.3769;1.3885;
942.3000;0.3744;1.3810;
942.6000;0.3777;1.3910;
942.9000;0.3744;1.3760;
943.2000;0.3736;1.3810;
943.5000;0.3753;1.3835;
943.8000;0.3736;1.3885;
944.1000;0.3744;1.3860;
944.4000;0.3753;1.3885;
944.7000;0.3761;1.3860;
945.0000;0.3761;1.3810;
945.3000;0.3744;1.3760;
945.6000;0.3728;1.3685;
945.9000;0.3769;1.3710;
946.2000;0.3769;1.3710;
946.5000;0.3753;1.3710;
946.8000;0.3761;1.3735;
947.1000;0.3769;1.3785;
947.4000;0.3769;1.3685;
947.7000;0.3753;1.3685;
948.0000;0.3753;1.3710;
948.3000;0.3818;1.3910;
948.6000;0.3769;1.3735;
948.9000;0.3761;1.3835;
949.2000;0.3753;1.3910;
949.5000;0.3761;1.3935;
949.8000;0.3744;1.3935;
950.1000;0.3753;1.3960;
950.4000;0.3801;1.4010;
950.7000;0.3769;1.3860;
951.0000;0.3769;1.3860;
951.3000;0.3769;1.3810;
951.6000;0.3761;1.3835;
951.9000;0.3761;1.3860;
952.2000;0.3753;1.3960;
952.5000;0.3753;1.3960;
952.8000;0.3753;1.4010;
953.1000;0.3712;1.3985;
953.4000;0.3761;1.4160;
953.7000;0.3753;1.4210;
954.0000;0.3761;1.4210;
954.3000;0.3761;1.4235;
954.6000;0.3728;1.4160;
954.9000;0.3736;1.4110;
955.2000;0.3744;1.4110;
955.5000;0.3728;1.4035;
955.8000;0.3753;1.4160;
956.1000;0.3744;1.4160;
956.4000;0.3761;1.4160;
956.7000;0.3761;1.4135;
957.0000;0.3761;1.4110;
957.3000;0.3744;1.4110;
957.6000;0.3753;1.4035;
957.9000;0.3720;1.3960;
958.2000;0.3728;1.3985;
958.5000;0.3736;1.4010;
958.8000;0.3736;1.4060;
959.1000;0.3736;1.4060;
959.4000;0.3761;1.4135;
959.7000;0.3761;1.4085;
960.0000;0.3744;1.4060;
960.3000;0.3769;1.4135;
960.6000;0.3753;1.4185;
960.9000;0.3744;1.4235;
961.2000;0.3810;1.4334;
961.5000;0.3753;1.4285;
961.8000;0.3777;1.4260;
962.1000;0.3777;1.4235;
962.4000;0.3761;1.4185;
962.7000;0.3761;1.4085;
963.0000;0.3761;1.4110;
963.3000;0.3793;1.4160;
963.6000;0.3753;1.4035;
963.9000;0.3753;1.4035;
964.2000;0.3728;1.3960;
964.5000;0.3761;1.4060;
964.8000;0.3753;1.3960;
965.1000;0.3761;1.3935;
965.4000;0.3744;1.3885;
965.7000;0.3736;1.3885;
966.0000;0.3736;1.3860;
966.3000;0.3753;1.3860;
966.6000;0.3744;1.3885;
966.9000;0.3744;1.3985;
967.2000;0.3736;1.4035;
967.5000;0.3769;1.3985;
967.8000;0.3753;1.4010;
968.1000;0.3761;1.3960;
968.4000;0.3753;1.4010;
968.7000;0.3753;1.4010;
969.0000;0.3753;1.4060;
969.3000;0.3736;1.4060;
969.6000;0.3736;1.4010;
969.9000;0.3753;1.4085;
970.2000;0.3744;1.4010;
970.5000;0.3777;1.4060;
970.8000;0.3736;1.4010;
971.1000;0.3736;1.4010;
971.4000;0.3744;1.4035;
971.7000;0.3736;1.4035;
972.0000;0.3728;1.4035;
972.3000;0.3704;1.3985;
972.6000;0.3769;1.4110;
972.9000;0.3744;1.4085;
973.2000;0.3720;1.4035;
973.5000;0.3736;1.4060;
973.8000;0.3728;1.4135;
974.1000;0.3736;1.4110;
974.4000;0.3761;1.4110;
974.7000;0.3736;1.4135;
975.0000;0.3777;1.4235;
975.3000;0.3761;1.4235;
975.6000;0.3744;1.4160;
975.9000;0.3736;1.4110;
976.2000;0.3728;1.4110;
976.5000;0.3696;1.4010;
976.8000;0.3744;1.4110;
977.1000;0.3728;1.4060;
977.4000;0.3761;1.4010;
977.7000;0.3736;1.4010;
978.0000;0.3736;1.3985;
978.3000;0.3744;1.4110;
978.6000;0.3744;1.4060;
978.9000;0.3753;1.4060;
979.2000;0.3720;1.3885;
979.5000;0.3728;1.3935;
979.8000;0.3753;1.3885;
980.1000;0.3793;1.3910;
980.4000;0.3753;1.3960;
980.7000;0.3744;1.4060;
981.0000;0.3736;1.4085;
981.3000;0.3736;1.4110;
981.6000;0.3744;1.4160;
981.9000;0.3736;1.4135;
982.2000;0.3704;1.4035;
982.5000;0.3736;1.4035;
982.8000;0.3753;1.3935;
983.1000;0.3753;1.3885;
983.4000;0.3736;1.3885;
983.7000;0.3736;1.3985;
984.0000;0.3753;1.4010;
984.3000;0.3753;1.3885;
984.6000;0.3736;1.3885;
984.9000;0.3761;1.3960;
985.2000;0.3744;1.3985;
985.5000;0.3744;1.4010;
985.8000;0.3753;1.4060;
986.1000;0.3744;1.4060;
986.4000;0.3769;1.4085;
986.7000;0.3801;1.4110;
987.0000;0.3777;1.3935;
987.3000;0.3753;1.3885;
987.6000;0.3736;1.3785;
987.9000;0.3736;1.3810;
988.2000;0.3728;1.3835;
988.5000;0.3744;1.3935;
988.8000;0.3728;1.3985;
989.1000;0.3744;1.4010;
989.4000;0.3736;1.3985;
989.7000;0.3744;1.3985;
990.0000;0.3761;1.4110;
990.3000;0.3744;1.4060;
990.6000;0.3744;1.4010;
990.9000;0.3687;1.3835;
991.2000;0.3736;1.3935;
991.5000;0.3720;1.3835;
991.8000;0.3761;1.3910;
992.1000;0.3736;1.3885;
992.4000;0.3826;1.4085;
992.7000;0.3744;1.3810;
993.0000;0.3728;1.3710;
993.3000;0.3736;1.3785;
993.6000;0.3736;1.3810;
993.9000;0.3753;1.3785;
994.2000;0.3753;1.3835;
994.5000;0.3777;1.3935;
994.8000;0.3744;1.3835;
995.1000;0.3736;1.3910;
995.4000;0.3744;1.3935;
995.7000;0.3769;1.3960;
996.0000;0.3744;1.3960;
996.3000;0.3712;1.3910;
996.6000;0.3728;1.3885;
996.9000;0.3704;1.3810;
997.2000;0.3736;1.3935;
997.5000;0.3736;1.3935;
997.8000;0.3736;1.3910;
998.1000;0.3728;1.3960;
998.4000;0.3728;1.3885;
998.7000;0.3744;1.3985;
999.0000;0.3728;1.3910;
999.3000;0.3744;1.3985;
999.6000;0.3744;1.4035;
999.9000;0.3736;1.4085;
1000.2000;0.3720;1.4110;
1000.5000;0.3736;1.4035;
1000.8000;0.3744;1.3985;
1001.1000;0.3728;1.3985;
1001.4000;0.3744;1.3960;
1001.7000;0.3728;1.3810;
1002.0000;0.3728;1.3860;
1002.3000;0.3769;1.3960;
1002.6000;0.3712;1.3785;
1002.9000;0.3728;1.3760;
1003.2000;0.3736;1.3810;
1003.5000;0.3753;1.3910;
1003.8000;0.3736;1.3835;
1004.1000;0.3761;1.4010;
1004.4000;0.3810;1.4010;
1004.7000;0.3736;1.3785;
1005.0000;0.3769;1.3835;
1005.3000;0.3736;1.3760;
1005.6000;0.3696;1.3710;
1005.9000;0.3736;1.3785;
1006.2000;0.3696;1.3685;
1006.5000;0.3736;1.3785;
1006.8000;0.3744;1.3785;
1007.1000;0.3761;1.3885;
1007.4000;0.3777;1.3860;
1007.7000;0.3744;1.3785;
1008.0000;0.3744;1.3860;
1008.3000;0.3761;1.4010;
1008.6000;0.3761;1.4035;
1008.9000;0.3744;1.4060;
1009.2000;0.3769;1.4010;
1009.5000;0.3736;1.3960;
1009.8000;0.3736;1.3960;
1010.1000;0.3712;1.3935;
1010.4000;0.3728;1.3985;
1010.7000;0.3744;1.3985;
1011.0000;0.3671;1.3860;
1011.3000;0.3728;1.3885;
1011.6000;0.3736;1.3960;
1011.9000;0.3736;1.4010;
1012.2000;0.3736;1.4060;
1012.5000;0.3736;1.4010;
1012.8000;0.3753;1.3835;
1013.1000;0.3720;1.3760;
1013.4000;0.3736;1.3885;
1013.7000;0.3744;1.3910;
1014.0000;0.3736;1.3985;
1014.3000;0.3728;1.3960;
1014.6000;0.3728;1.3960;
1014.9000;0.3736;1.3960;
1015.2000;0.3720;1.3810;
1015.5000;0.3687;1.3735;
1015.8000;0.3736;1.3810;
1016.1000;0.3744;1.3835;
1016.4000;0.3753;1.3760;
1016.7000;0.3744;1.3735;
1017.0000;0.3720;1.3685;
1017.3000;0.3736;1.3785;
1017.6000;0.3736;1.3810;
1017.9000;0.3736;1.3685;
1018.2000;0.3720;1.3635;
1018.5000;0.3777;1.3810;
1018.8000;0.3728;1.3710;
1019.1000;0.3753;1.3835;
1019.4000;0.3736;1.3910;
1019.7000;0.3728;1.3860;
1020.0000;0.3744;1.4010;
1020.3000;0.3720;1.3985;
1020.6000;0.3720;1.3935;
1020.9000;0.3728;1.3960;
1021.2000;0.3720;1.3960;
1021.5000;0.3736;1.3935;
1021.8000;0.3753;1.3985;
1022.1000;0.3720;1.3935;
1022.4000;0.3736;1.4060;
1022.7000;0.3810;1.4235;
1023.0000;0.3736;1.4085;
1023.3000;0.3736;1.4135;
1023.6000;0.3736;1.4060;
1023.9000;0.3720;1.4110;
1024.2000;0.3753;1.4185;
1024.5000;0.3712;1.4085;
1024.8000;0.3736;1.4135;
1025.1000;0.3720;1.4135;
1025.4000;0.3679;1.4010;
1025.7000;0.3728;1.4135;
1026.0000;0.3728;1.4185;
1026.3000;0.3687;1.4085;
1026.6000;0.3720;1.4135;
1026.9000;0.3696;1.4035;
1027.2000;0.3785;1.4309;
1027.5000;0.3736;1.4210;
1027.8000;0.3728;1.4135;
1028.1000;0.3712;1.3985;
1028.4000;0.3736;1.3985;
1028.7000;0.3744;1.4035;
1029.0000;0.3744;1.4035;
1029.3000;0.3720;1.3960;
1029.6000;0.3720;1.3960;
1029.9000;0.3728;1.4110;
1030.2000;0.3736;1.4085;
1030.5000;0.3736;1.4135;
1030.8000;0.3728;1.4085;
1031.1000;0.3696;1.4035;
1031.4000;0.3736;1.4185;
1031.7000;0.3736;1.4235;
1032.0000;0.3736;1.4260;
1032.3000;0.3728;1.4185;
1032.6000;0.3744;1.4160;
1032.9000;0.3736;1.4110;
1033.2000;0.3679;1.3935;
1033.5000;0.3728;1.4035;
1033.8000;0.3728;1.4035;
1034.1000;0.3736;1.4035;
1034.4000;0.3712;1.3985;
1034.7000;0.3712;1.4060;
1035.0000;0.3744;1.4135;
1035.3000;0.3736;1.4160;
1035.6000;0.3736;1.4260;
1035.9000;0.3712;1.4210;
1036.2000;0.3753;1.4210;
1036.5000;0.3728;1.4160;
1036.8000;0.3736;1.4260;
1037.1000;0.3720;1.4160;
1037.4000;0.3728;1.4060;
1037.7000;0.3720;1.3985;
1038.0000;0.3736;1.3985;
1038.3000;0.3720;1.3910;
1038.6000;0.3720;1.3885;
1038.9000;0.3720;1.3835;
1039.2000;0.3728;1.3860;
1039.5000;0.3728;1.3810;
1039.8000;0.3712;1.3785;
1040.1000;0.3728;1.3885;
1040.4000;0.3704;1.3885;
1040.7000;0.3736;1.3960;
1041.0000;0.3736;1.3935;
1041.3000;0.3736;1.4035;
1041.6000;0.3720;1.4035;
1041.9000;0.3696;1.3885;
1042.2000;0.3720;1.3935;
1042.5000;0.3744;1.4060;
1042.8000;0.3753;1.4035;
1043.1000;0.3736;1.4035;
1043.4000;0.3736;1.3960;
1043.7000;0.3728;1.4010;
1044.0000;0.3761;1.4060;
1044.3000;0.3736;1.4035;
1044.6000;0.3736;1.3985;
1044.9000;0.3736;1.3885;
1045.2000;0.3744;1.3985;
1045.5000;0.3728;1.4010;
1045.8000;0.3720;1.4010;
1046.1000;0.3728;1.4010;
1046.4000;0.3826;1.4334;
1046.7000;0.3744;1.4060;
1047.0000;0.3728;1.4035;
1047.3000;0.3753;1.4110;
1047.6000;0.3728;1.4060;
1047.9000;0.3736;1.4185;
1048.2000;0.3744;1.4185;
1048.5000;0.3687;1.3985;
1048.8000;0.3728;1.4010;
1049.1000;0.3696;1.3860;
1049.4000;0.3736;1.3960;
1049.7000;0.3687;1.3835;
1050.0000;0.3728;1.3960;
1050.3000;0.3720;1.3985;
1050.6000;0.3728;1.4010;
1050.9000;0.3655;1.3785;
1051.2000;0.3728;1.3960;
1051.5000;0.3728;1.3985;
1051.8000;0.3728;1.4060;
1052.1000;0.3728;1.3960;
1052.4000;0.3728;1.3935;
1052.7000;0.3728;1.3985;
1053.0000;0.3736;1.3985;
1053.3000;0.3736;1.4010;
1053.6000;0.3728;1.4010;
1053.9000;0.3720;1.4010;
1054.2000;0.3736;1.4085;
1054.5000;0.3736;1.4110;
1054.8000;0.3720;1.4085;
1055.1000;0.3712;1.4035;
1055.4000;0.3712;1.3985;
1055.7000;0.3736;1.3985;
1056.0000;0.3720;1.3910;
1056.3000;0.3720;1.3885;
1056.6000;0.3736;1.4060;
1056.9000;0.3728;1.4035;
1057.2000;0.3663;1.3835;
1057.5000;0.3736;1.3985;
1057.8000;0.3720;1.3935;
1058.1000;0.3736;1.3960;
1058.4000;0.3720;1.4010;
1058.7000;0.3744;1.4010;
1059.0000;0.3712;1.3910;
1059.3000;0.3736;1.4035;
1059.6000;0.3728;1.4035;
1059.9000;0.3728;1.4010;
1060.2000;0.3704;1.4010;
1060.5000;0.3728;1.4060;
1060.8000;0.3728;1.3985;
1061.1000;0.3720;1.4035;
1061.4000;0.3720;1.4035;
1061.7000;0.3704;1.4060;
1062.0000;0.3720;1.4035;
1062.3000;0.3720;1.4060;
1062.6000;0.3712;1.4060;
1062.9000;0.3712;1.3885;
1063.2000;0.3728;1.3910;
1063.5000;0.3720;1.3935;
1063.8000;0.3728;1.3985;
1064.1000;0.3736;1.4010;
1064.4000;0.3647;1.3785;
1064.7000;0.3736;1.4035;
1065.0000;0.3704;1.4060;
1065.3000;0.3736;1.4060;
1065.6000;0.3728;1.4010;
1065.9000;0.3744;1.4010;
1066.2000;0.3728;1.3960;
1066.5000;0.3720;1.3910;
1066.8000;0.3720;1.3960;
1067.1000;0.3720;1.3985;
1067.4000;0.3720;1.4035;
1067.7000;0.3720;1.4135;
1068.0000;0.3728;1.4110;
1068.3000;0.3720;1.4085;
1068.6000;0.3720;1.4035;
1068.9000;0.3720;1.4010;
1069.2000;0.3712;1.3985;
1069.5000;0.3728;1.3985;
1069.8000;0.3728;1.3960;
1070.1000;0.3736;1.3935;
1070.4000;0.3671;1.3710;
1070.7000;0.3720;1.3785;
1071.0000;0.3736;1.3885;
1071.3000;0.3728;1.3785;
1071.6000;0.3704;1.3735;
1071.9000;0.3704;1.3760;
1072.2000;0.3712;1.3785;
1072.5000;0.3728;1.3860;
1072.8000;0.3728;1.3760;
1073.1000;0.3696;1.3635;
1073.4000;0.3736;1.3760;
1073.7000;0.3728;1.3835;
1074.0000;0.3720;1.3860;
1074.3000;0.3753;1.3960;
1074.6000;0.3744;1.3860;
1074.9000;0.3720;1.3810;
1075.2000;0.3728;1.3810;
1075.5000;0.3720;1.3860;
1075.8000;0.3728;1.3810;
1076.1000;0.3728;1.3735;
1076.4000;0.3736;1.3810;
1076.7000;0.3736;1.3785;
1077.0000;0.3736;1.3810;
1077.3000;0.3728;1.3885;
1077.6000;0.3728;1.3860;
1077.9000;0.3728;1.3885;
1078.2000;0.3728;1.3910;
1078.5000;0.3728;1.3935;
1078.8000;0.3728;1.3860;
1079.1000;0.3736;1.3785;
1079.4000;0.3728;1.3810;
1079.7000;0.3736;1.3860;
1080.0000;0.3712;1.3810;
1080.3000;0.3720;1.3860;
1080.6000;0.3728;1.3885;
1080.9000;0.3712;1.3885;
1081.2000;0.3728;1.3835;
1081.5000;0.3720;1.3810;
1081.8000;0.3720;1.3960;
1082.1000;0.3728;1.3985;
1082.4000;0.3728;1.3910;
1082.7000;0.3712;1.3910;
1083.0000;0.3704;1.3860;
1083.3000;0.3712;1.3910;
1083.6000;0.3712;1.3935;
1083.9000;0.3736;1.3835;
1084.2000;0.3728;1.3785;
1084.5000;0.3712;1.3835;
1084.8000;0.3736;1.3935;
1085.1000;0.3744;1.3885;
1085.4000;0.3728;1.3935;
1085.7000;0.3761;1.4085;
1086.0000;0.3728;1.3985;
1086.3000;0.3728;1.4010;
1086.6000;0.3720;1.4035;
1086.9000;0.3728;1.3985;
1087.2000;0.3712;1.4060;
1087.5000;0.3769;1.4210;
1087.8000;0.3728;1.4085;
1088.1000;0.3704;1.4010;
1088.4000;0.3704;1.4035;
1088.7000;0.3712;1.4110;
1089.0000;0.3720;1.4110;
1089.3000;0.3712;1.4185;
1089.6000;0.3720;1.4160;
1089.9000;0.3736;1.4235;
1090.2000;0.3728;1.4160;
1090.5000;0.3736;1.4110;
1090.8000;0.3704;1.4035;
1091.1000;0.3720;1.4035;
1091.4000;0.3728;1.4110;
1091.7000;0.3720;1.4010;
1092.0000;0.3679;1.3960;
1092.3000;0.3712;1.3985;
1092.6000;0.3728;1.4035;
1092.9000;0.3704;1.3960;
1093.2000;0.3712;1.4010;
1093.5000;0.3712;1.3985;
1093.8000;0.3720;1.3935;
1094.1000;0.3736;1.3885;
1094.4000;0.3704;1.3735;
1094.7000;0.3728;1.3810;
1095.0000;0.3728;1.3785;
1095.3000;0.3728;1.3760;
1095.6000;0.3712;1.3785;
1095.9000;0.3720;1.3785;
1096.2000;0.3736;1.3735;
1096.5000;0.3720;1.3785;
1096.8000;0.3720;1.3810;
1097.1000;0.3720;1.3810;
1097.4000;0.3712;1.3910;
1097.7000;0.3712;1.3935;
1098.0000;0.3704;1.4010;
1098.3000;0.3728;1.3885;
1098.6000;0.3720;1.3910;
1098.9000;0.3728;1.3885;
1099.2000;0.3712;1.3860;
1099.5000;0.3712;1.3910;
1099.8000;0.3696;1.3885;
1100.1000;0.3728;1.3960;
1100.4000;0.3736;1.3985;
1100.7000;0.3712;1.3860;
1101.0000;0.3704;1.3810;
1101.3000;0.3736;1.3835;
1101.6000;0.3728;1.3935;
1101.9000;0.3736;1.3985;
1102.2000;0.3712;1.3910;
1102.5000;0.3728;1.4035;
1102.8000;0.3712;1.4035;
1103.1000;0.3728;1.4135;
1103.4000;0.3712;1.4110;
1103.7000;0.3720;1.4135;
1104.0000;0.3720;1.4135;
1104.3000;0.3736;1.4060;
1104.6000;0.3736;1.4060;
1104.9000;0.3720;1.4035;
1105.2000;0.3728;1.4085;
1105.5000;0.3744;1.4110;
1105.8000;0.3728;1.4060;
1106.1000;0.3728;1.3935;
1106.4000;0.3728;1.3935;
1106.7000;0.3720;1.3935;
1107.0000;0.3712;1.3960;
1107.3000;0.3712;1.4010;
1107.6000;0.3712;1.3985;
1107.9000;0.3736;1.4060;
1108.2000;0.3712;1.4010;
1108.5000;0.3712;1.3985;
1108.8000;0.3720;1.3985;
1109.1000;0.3704;1.3885;
1109.4000;0.3761;1.3910;
1109.7000;0.3728;1.3810;
1110.0000;0.3720;1.3910;
1110.3000;0.3728;1.3935;
1110.6000;0.3720;1.3935;
1110.9000;0.3720;1.3885;
1111.2000;0.3720;1.3885;
1111.5000;0.3720;1.3960;
1111.8000;0.3736;1.4035;
1112.1000;0.3720;1.3985;
1112.4000;0.3712;1.3910;
1112.7000;0.3712;1.3885;
1113.0000;0.3720;1.3885;
1113.3000;0.3728;1.3910;
1113.6000;0.3720;1.3910;
1113.9000;0.3704;1.3885;
1114.2000;0.3720;1.3985;
1114.5000;0.3728;1.4035;
1114.8000;0.3720;1.3935;
1115.1000;0.3720;1.3910;
1115.4000;0.3744;1.3960;
1115.7000;0.3728;1.3910;
1116.0000;0.3720;1.3910;
1116.3000;0.3720;1.3960;
1116.6000;0.3720;1.3985;
1116.9000;0.3712;1.3985;
1117.2000;0.3704;1.3985;
1117.5000;0.3704;1.3960;
1117.8000;0.3712;1.3885;
1118.1000;0.3712;1.3885;
1118.4000;0.3671;1.3735;
1118.7000;0.3720;1.3885;
1119.0000;0.3728;1.3910;
1119.3000;0.3712;1.3785;
1119.6000;0.3720;1.3835;
1119.9000;0.3704;1.3735;
1120.2000;0.3696;1.3760;
1120.5000;0.3736;1.3835;
1120.8000;0.3728;1.3760;
1121.1000;0.3736;1.3785;
1121.4000;0.3696;1.3785;
1121.7000;0.3704;1.3935;
1122.0000;0.3753;1.4010;
1122.3000;0.3720;1.4035;
1122.6000;0.3720;1.4010;
1122.9000;0.3728;1.4135;
1123.2000;0.3736;1.4235;
1123.5000;0.3728;1.4135;
1123.8000;0.3728;1.4235;
1124.1000;0.3712;1.4285;
1124.4000;0.3696;1.4235;
1124.7000;0.3720;1.4285;
1125.0000;0.3720;1.4185;
1125.3000;0.3720;1.4010;
1125.6000;0.3720;1.3960;
1125.9000;0.3736;1.3985;
1126.2000;0.3728;1.4010;
1126.5000;0.3720;1.3960;
1126.8000;0.3720;1.3985;
1127.1000;0.3728;1.4060;
1127.4000;0.3647;1.3885;
1127.7000;0.3728;1.4085;
1128.0000;0.3704;1.4085;
1128.3000;0.3704;1.4135;
1128.6000;0.3671;1.4060;
1128.9000;0.3704;1.4110;
1129.2000;0.3720;1.4085;
1129.5000;0.3704;1.3985;
1129.8000;0.3720;1.4010;
1130.1000;0.3712;1.4085;
1130.4000;0.3704;1.4085;
1130.7000;0.3712;1.4110;
1131.0000;0.3736;1.4235;
1131.3000;0.3736;1.4334;
1131.6000;0.3712;1.4260;
1131.9000;0.3704;1.4185;
1132.2000;0.3712;1.4160;
1132.5000;0.3696;1.4110;
1132.8000;0.3696;1.4060;
1133.1000;0.3696;1.4135;
1133.4000;0.3704;1.4185;
1133.7000;0.3720;1.4185;
1134.0000;0.3712;1.4110;
1134.3000;0.3712;1.4085;
1134.6000;0.3720;1.4110;
1134.9000;0.3712;1.4135;
1135.2000;0.3720;1.4085;
1135.5000;0.3720;1.4110;
1135.8000;0.3671;1.4010;
1136.1000;0.3720;1.4160;
1136.4000;0.3761;1.4260;
1136.7000;0.3720;1.4135;
1137.0000;0.3720;1.4035;
1137.3000;0.3736;1.3960;
1137.6000;0.3736;1.3985;
1137.9000;0.3704;1.3935;
1138.2000;0.3728;1.4035;
1138.5000;0.3720;1.4010;
1138.8000;0.3736;1.3985;
1139.1000;0.3728;1.3910;
1139.4000;0.3704;1.3960;
1139.7000;0.3712;1.3935;
1140.0000;0.3704;1.3985;
1140.3000;0.3720;1.4010;
1140.6000;0.3720;1.3960;
1140.9000;0.3720;1.4035;
1141.2000;0.3720;1.4010;
1141.5000;0.3687;1.3860;
1141.8000;0.3720;1.3960;
1142.1000;0.3679;1.3910;
1142.4000;0.3736;1.3935;
1142.7000;0.3687;1.3810;
1143.0000;0.3712;1.3910;
1143.3000;0.3712;1.3885;
1143.6000;0.3785;1.4060;
1143.9000;0.3712;1.3910;
1144.2000;0.3704;1.3885;
1144.5000;0.3639;1.3785;
1144.8000;0.3704;1.3960;
1145.1000;0.3736;1.4085;
1145.4000;0.3769;1.4110;
1145.7000;0.3712;1.4035;
1146.0000;0.3696;1.4060;
1146.3000;0.3728;1.4085;
1146.6000;0.3720;1.3885;
1146.9000;0.3712;1.3860;
1147.2000;0.3720;1.3810;
1147.5000;0.3712;1.3810;
1147.8000;0.3712;1.3860;
1148.1000;0.3696;1.3810;
1148.4000;0.3736;1.3910;
1148.7000;0.3720;1.3960;
1149.0000;0.3720;1.3910;
1149.3000;0.3753;1.4035;
1149.6000;0.3704;1.4060;
1149.9000;0.3704;1.4110;
1150.2000;0.3720;1.4110;
1150.5000;0.3761;1.4160;
1150.8000;0.3712;1.3985;
1151.1000;0.3728;1.3985;
1151.4000;0.3663;1.3785;
1151.7000;0.3720;1.4010;
1152.0000;0.3696;1.4035;
1152.3000;0.3704;1.4010;
1152.6000;0.3712;1.4035;
1152.9000;0.3704;1.3935;
1153.2000;0.3704;1.3985;
1153.5000;0.3720;1.4035;
1153.8000;0.3712;1.4035;
1154.1000;0.3720;1.4085;
1154.4000;0.3712;1.4110;
1154.7000;0.3704;1.4135;
1155.0000;0.3712;1.4260;
1155.3000;0.3704;1.4185;
1155.6000;0.3704;1.4135;
1155.9000;0.3712;1.4135;
1156.2000;0.3696;1.4160;
1156.5000;0.3696;1.4085;
1156.8000;0.3704;1.4110;
1157.1000;0.3655;1.3985;
1157.4000;0.3712;1.3985;
1157.7000;0.3704;1.4035;
1158.0000;0.3712;1.4185;
1158.3000;0.3704;1.4085;
1158.6000;0.3728;1.4085;
1158.9000;0.3720;1.4035;
1159.2000;0.3785;1.4135;
1159.5000;0.3687;1.3785;
1159.8000;0.3720;1.3885;
1160.1000;0.3720;1.3935;
1160.4000;0.3736;1.3910;
1160.7000;0.3720;1.3810;
1161.0000;0.3720;1.3835;
1161.3000;0.3728;1.3860;
1161.6000;0.3753;1.3960;
1161.9000;0.3736;1.3960;
1162.2000;0.3810;1.4160;
1162.5000;0.3671;1.3710;
1162.8000;0.3720;1.3910;
1163.1000;0.3712;1.3885;
1163.4000;0.3720;1.3860;
1163.7000;0.3696;1.3860;
1164.0000;0.3736;1.3985;
1164.3000;0.3712;1.3960;
1164.6000;0.3712;1.3985;
1164.9000;0.3696;1.4035;
1165.2000;0.3712;1.4110;
1165.5000;0.3712;1.4135;
1165.8000;0.3704;1.4185;
1166.1000;0.3704;1.4085;
1166.4000;0.3712;1.4010;
1166.7000;0.3736;1.3935;
1167.0000;0.3704;1.3835;
1167.3000;0.3696;1.3810;
1167.6000;0.3655;1.3735;
1167.9000;0.3728;1.3910;
1168.2000;0.3696;1.3860;
1168.5000;0.3704;1.3885;
1168.8000;0.3704;1.3860;
1169.1000;0.3728;1.3835;
1169.4000;0.3696;1.3835;
1169.7000;0.3712;1.3835;
1170.0000;0.3712;1.3810;
1170.3000;0.3696;1.3860;
1170.6000;0.3704;1.3885;
1170.9000;0.3712;1.3910;
1171.2000;0.3704;1.3835;
1171.5000;0.3712;1.3835;
1171.8000;0.3696;1.3810;
1172.1000;0.3712;1.3810;
1172.4000;0.3687;1.3785;
1172.7000;0.3704;1.3835;
1173.0000;0.3728;1.3810;
1173.3000;0.3712;1.3735;
1173.6000;0.3704;1.3760;
1173.9000;0.3712;1.3810;
1174.2000;0.3704;1.3885;
1174.5000;0.3720;1.3835;
1174.8000;0.3696;1.3860;
1175.1000;0.3679;1.3810;
1175.4000;0.3663;1.3760;
1175.7000;0.3712;1.3935;
1176.0000;0.3704;1.3935;
1176.3000;0.3728;1.3935;
1176.6000;0.3704;1.3935;
1176.9000;0.3696;1.3960;
1177.2000;0.3712;1.3885;
1177.5000;0.3744;1.3960;
1177.8000;0.3728;1.3960;
1178.1000;0.3687;1.3935;
1178.4000;0.3728;1.4010;
1178.7000;0.3696;1.3910;
1179.0000;0.3720;1.3935;
1179.3000;0.3704;1.3885;
1179.6000;0.3704;1.3885;
1179.9000;0.3712;1.3910;
1180.2000;0.3720;1.3960;
1180.5000;0.3679;1.3960;
1180.8000;0.3704;1.3985;
1181.1000;0.3679;1.3885;
1181.4000;0.3671;1.3935;
1181.7000;0.3696;1.3960;
1182.0000;0.3704;1.3985;
1182.3000;0.3720;1.3985;
1182.6000;0.3704;1.3885;
1182.9000;0.3736;1.3910;
1183.2000;0.3696;1.3760;
1183.5000;0.3712;1.3785;
1183.8000;0.3696;1.3685;
1184.1000;0.3720;1.3735;
1184.4000;0.3704;1.3760;
1184.7000;0.3736;1.3810;
1185.0000;0.3728;1.3835;
1185.3000;0.3720;1.3810;
1185.6000;0.3720;1.3885;
1185.9000;0.3736;1.4010;
1186.2000;0.3712;1.3885;
1186.5000;0.3720;1.4010;
1186.8000;0.3720;1.3935;
1187.1000;0.3712;1.3910;
1187.4000;0.3720;1.3885;
1187.7000;0.3736;1.3935;
1188.0000;0.3704;1.3860;
1188.3000;0.3712;1.3935;
1188.6000;0.3712;1.3910;
1188.9000;0.3736;1.3885;
1189.2000;0.3687;1.3885;
1189.5000;0.3720;1.3960;
1189.8000;0.3720;1.3985;
1190.1000;0.3712;1.4010;
1190.4000;0.3704;1.3935;
1190.7000;0.3687;1.3885;
1191.0000;0.3744;1.4060;
1191.3000;0.3728;1.3985;
1191.6000;0.3712;1.3960;
1191.9000;0.3704;1.3985;
1192.2000;0.3720;1.4085;
1192.5000;0.3712;1.4060;
1192.8000;0.3704;1.4010;
1193.1000;0.3696;1.3960;
1193.4000;0.3712;1.3960;
1193.7000;0.3712;1.3910;
1194.0000;0.3712;1.3935;
1194.3000;0.3777;1.4060;
1194.6000;0.3704;1.3935;
1194.9000;0.3720;1.4035;
1195.2000;0.3696;1.3985;
1195.5000;0.3696;1.3985;
1195.8000;0.3728;1.3885;
1196.1000;0.3736;1.3935;
1196.4000;0.3671;1.3835;
1196.7000;0.3720;1.3985;
1197.0000;0.3712;1.4035;
1197.3000;0.3720;1.4110;
1197.6000;0.3720;1.4110;
1197.9000;0.3728;1.4135;
1198.2000;0.3712;1.4085;
1198.5000;0.3720;1.4085;
1198.8000;0.3704;1.4010;
1199.1000;0.3712;1.4035;
1199.4000;0.3712;1.4035;
1199.7000;0.3736;1.4060;
1200.0000;0.3728;1.4060;
1200.3000;0.3704;1.4060;
1200.6000;0.3704;1.4010;
1200.9000;0.3712;1.4035;
1201.2000;0.3712;1.4135;
1201.5000;0.3720;1.4185;
1201.8000;0.3720;1.4160;
1202.1000;0.3712;1.4135;
1202.4000;0.3720;1.4010;
1202.7000;0.3704;1.4010;
1203.0000;0.3736;1.3935;
1203.3000;0.3712;1.3910;
1203.6000;0.3696;1.3885;
1203.9000;0.3728;1.3985;
1204.2000;0.3704;1.3910;
1204.5000;0.3696;1.3935;
1204.8000;0.3704;1.3935;
1205.1000;0.3704;1.3910;
1205.4000;0.3728;1.3910;
1205.7000;0.3696;1.3885;
1206.0000;0.3753;1.4010;
1206.3000;0.3687;1.3910;
1206.6000;0.3712;1.3985;
1206.9000;0.3704;1.3960;
1207.2000;0.3696;1.4010;
1207.5000;0.3720;1.4060;
1207.8000;0.3712;1.3960;
1208.1000;0.3736;1.3985;
1208.4000;0.3704;1.4010;
1208.7000;0.3704;1.4085;
1209.0000;0.3753;1.4085;
1209.3000;0.3696;1.4035;
1209.6000;0.3712;1.4110;
1209.9000;0.3720;1.4085;
1210.2000;0.3769;1.4185;
1210.5000;0.3712;1.4085;
1210.8000;0.3696;1.4060;
1211.1000;0.3687;1.4110;
1211.4000;0.3712;1.4135;
1211.7000;0.3777;1.4285;
1212.0000;0.3728;1.4085;
1212.3000;0.3720;1.4035;
1212.6000;0.3720;1.4085;
1212.9000;0.3720;1.4085;
1213.2000;0.3704;1.4035;
1213.5000;0.3696;1.3960;
1213.8000;0.3720;1.3985;
1214.1000;0.3736;1.4060;
1214.4000;0.3728;1.4160;
1214.7000;0.3712;1.4010;
1215.0000;0.3704;1.3960;
1215.3000;0.3712;1.4010;
1215.6000;0.3712;1.4085;
1215.9000;0.3696;1.4135;
1216.2000;0.3712;1.4110;
1216.5000;0.3720;1.4135;
1216.8000;0.3720;1.4185;
1217.1000;0.3704;1.4160;
1217.4000;0.3753;1.4285;
1217.7000;0.3696;1.4235;
1218.0000;0.3704;1.4185;
1218.3000;0.3704;1.4210;
1218.6000;0.3704;1.4235;
1218.9000;0.3720;1.4309;
1219.2000;0.3801;1.4509;
1219.5000;0.3728;1.4285;
1219.8000;0.3720;1.4334;
1220.1000;0.3720;1.4309;
1220.4000;0.3696;1.4285;
1220.7000;0.3720;1.4260;
1221.0000;0.3712;1.4285;
1221.3000;0.3679;1.4235;
1221.6000;0.3704;1.4260;
1221.9000;0.3728;1.4260;
1222.2000;0.3704;1.4185;
1222.5000;0.3728;1.4135;
1222.8000;0.3720;1.4010;
1223.1000;0.3728;1.4035;
1223.4000;0.3720;1.4085;
1223.7000;0.3712;1.4085;
1224.0000;0.3720;1.4110;
1224.3000;0.3687;1.4035;
1224.6000;0.3696;1.4085;
1224.9000;0.3704;1.4035;
1225.2000;0.3679;1.3935;
1225.5000;0.3704;1.4060;
1225.8000;0.3696;1.4110;
1226.1000;0.3720;1.4210;
1226.4000;0.3704;1.4260;
1226.7000;0.3696;1.4235;
1227.0000;0.3696;1.4160;
1227.3000;0.3687;1.4135;
1227.6000;0.3696;1.4160;
1227.9000;0.3712;1.4160;
1228.2000;0.3687;1.4110;
1228.5000;0.3704;1.4160;
1228.8000;0.3728;1.4185;
1229.1000;0.3696;1.4160;
1229.4000;0.3720;1.4260;
1229.7000;0.3728;1.4210;
1230.0000;0.3728;1.4185;
1230.3000;0.3704;1.4035;
1230.6000;0.3704;1.4060;
1230.9000;0.3712;1.4110;
1231.2000;0.3712;1.4135;
1231.5000;0.3696;1.4185;
1231.8000;0.3663;1.4085;
1232.1000;0.3712;1.4285;
1232.4000;0.3712;1.4309;
1232.7000;0.3720;1.4285;
1233.0000;0.3728;1.4384;
1233.3000;0.3720;1.4334;
1233.6000;0.3753;1.4434;
1233.9000;0.3712;1.4359;
1234.2000;0.3720;1.4359;
1234.5000;0.3720;1.4285;
1234.8000;0.3720;1.4235;
1235.1000;0.3712;1.4235;
1235.4000;0.3736;1.4309;
1235.7000;0.3712;1.4235;
1236.0000;0.3720;1.4185;
1236.3000;0.3720;1.4110;
1236.6000;0.3744;1.4160;
1236.9000;0.3704;1.4035;
1237.2000;0.3712;1.4035;
1237.5000;0.3728;1.4085;
1237.8000;0.3753;1.4235;
1238.1000;0.3744;1.4285;
1238.4000;0.3647;1.4060;
1238.7000;0.3728;1.4285;
1239.0000;0.3712;1.4235;
1239.3000;0.3736;1.4359;
1239.6000;0.3704;1.4285;
1239.9000;0.3712;1.4185;
1240.2000;0.3704;1.4160;
1240.5000;0.3720;1.4135;
1240.8000;0.3712;1.4085;
1241.1000;0.3712;1.4135;
1241.4000;0.3687;1.4060;
1241.7000;0.3696;1.4085;
1242.0000;0.3736;1.4235;
1242.3000;0.3720;1.4235;
1242.6000;0.3696;1.4210;
1242.9000;0.3704;1.4235;
1243.2000;0.3712;1.4260;
1243.5000;0.3712;1.4309;
1243.8000;0.3704;1.4285;
1244.1000;0.3712;1.4384;
1244.4000;0.3720;1.4409;
1244.7000;0.3728;1.4359;
1245.0000;0.3720;1.4260;
1245.3000;0.3712;1.4210;
1245.6000;0.3728;1.4260;
1245.9000;0.3728;1.4285;
1246.2000;0.3720;1.4285;
1246.5000;0.3728;1.4309;
1246.8000;0.3696;1.4185;
1247.1000;0.3704;1.4160;
1247.4000;0.3712;1.4110;
1247.7000;0.3720;1.4060;
1248.0000;0.3720;1.4060;
1248.3000;0.3720;1.4010;
1248.6000;0.3720;1.3960;
1248.9000;0.3712;1.3860;
1249.2000;0.3728;1.3960;
1249.5000;0.3728;1.3985;
1249.8000;0.3720;1.3985;
1250.1000;0.3728;1.3960;
1250.4000;0.3704;1.3835;
1250.7000;0.3720;1.3910;
1251.0000;0.3712;1.3860;
1251.3000;0.3704;1.3835;
1251.6000;0.3704;1.3860;
1251.9000;0.3704;1.3885;
1252.2000;0.3704;1.3935;
1252.5000;0.3712;1.3910;
1252.8000;0.3736;1.3935;
1253.1000;0.3712;1.3860;
1253.4000;0.3720;1.3860;
1253.7000;0.3785;1.4060;
1254.0000;0.3801;1.4110;
1254.3000;0.3720;1.3935;
1254.6000;0.3720;1.3860;
1254.9000;0.3720;1.3960;
1255.2000;0.3720;1.3910;
1255.5000;0.3704;1.3860;
1255.8000;0.3736;1.4035;
1256.1000;0.3753;1.3985;
1256.4000;0.3712;1.3885;
1256.7000;0.3704;1.3935;
1257.0000;0.3736;1.3985;
1257.3000;0.3696;1.3785;
1257.6000;0.3728;1.3985;
1257.9000;0.3720;1.4035;
1258.2000;0.3712;1.4135;
1258.5000;0.3720;1.4210;
1258.8000;0.3728;1.4185;
1259.1000;0.3769;1.4285;
1259.4000;0.3687;1.4135;
1259.7000;0.3712;1.4160;
1260.0000;0.3639;1.4010;
1260.3000;0.3696;1.4110;
1260.6000;0.3647;1.3960;
1260.9000;0.3679;1.4160;
1261.2000;0.3704;1.4235;
1261.5000;0.3704;1.4185;
1261.8000;0.3720;1.4260;
1262.1000;0.3769;1.4384;
1262.4000;0.3663;1.4160;
1262.7000;0.3712;1.4210;
1263.0000;0.3704;1.4160;
1263.3000;0.3704;1.4110;
1263.6000;0.3704;1.4160;
1263.9000;0.3761;1.4309;
1264.2000;0.3728;1.4135;
1264.5000;0.3712;1.4110;
1264.8000;0.3687;1.4110;
1265.1000;0.3720;1.4060;
1265.4000;0.3720;1.4160;
1265.7000;0.3720;1.4160;
1266.0000;0.3712;1.4185;
1266.3000;0.3704;1.4160;
1266.6000;0.3687;1.4135;
1266.9000;0.3687;1.4235;
1267.2000;0.3687;1.4359;
1267.5000;0.3712;1.4409;
1267.8000;0.3720;1.4409;
1268.1000;0.3720;1.4285;
1268.4000;0.3712;1.4135;
1268.7000;0.3728;1.4085;
1269.0000;0.3696;1.4210;
1269.3000;0.3704;1.4160;
1269.6000;0.3720;1.4210;
1269.9000;0.3663;1.4010;
1270.2000;0.3639;1.3985;
1270.5000;0.3712;1.4235;
1270.8000;0.3696;1.4135;
1271.1000;0.3720;1.4185;
1271.4000;0.3712;1.4085;
1271.7000;0.3687;1.4085;
1272.0000;0.3720;1.4085;
1272.3000;0.3696;1.4035;
1272.6000;0.3704;1.4035;
1272.9000;0.3687;1.4085;
1273.2000;0.3687;1.4035;
1273.5000;0.3704;1.4135;
1273.8000;0.3720;1.4210;
1274.1000;0.3720;1.4235;
1274.4000;0.3712;1.4260;
1274.7000;0.3696;1.4210;
1275.0000;0.3630;1.4060;
1275.3000;0.3720;1.4185;
1275.6000;0.3696;1.4110;
1275.9000;0.3704;1.4160;
1276.2000;0.3712;1.4110;
1276.5000;0.3671;1.4085;
1276.8000;0.3728;1.4285;
1277.1000;0.3687;1.4235;
1277.4000;0.3704;1.4309;
1277.7000;0.3712;1.4235;
1278.0000;0.3704;1.4210;
1278.3000;0.3704;1.4160;
1278.6000;0.3704;1.4110;
1278.9000;0.3687;1.4035;
1279.2000;0.3744;1.4160;
1279.5000;0.3712;1.4135;
1279.8000;0.3720;1.4160;
1280.1000;0.3728;1.4160;
1280.4000;0.3753;1.4160;
1280.7000;0.3720;1.4110;
1281.0000;0.3720;1.4035;
1281.3000;0.3728;1.4010;
1281.6000;0.3728;1.4060;
1281.9000;0.3728;1.4010;
1282.2000;0.3728;1.4010;
1282.5000;0.3728;1.4085;
1282.8000;0.3720;1.4060;
1283.1000;0.3769;1.4210;
1283.4000;0.3687;1.4010;
1283.7000;0.3704;1.4085;
1284.0000;0.3696;1.4060;
1284.3000;0.3720;1.4210;
1284.6000;0.3720;1.4160;
1284.9000;0.3704;1.4135;
1285.2000;0.3761;1.4210;
1285.5000;0.3720;1.4160;
1285.8000;0.3696;1.4110;
1286.1000;0.3671;1.4010;
1286.4000;0.3704;1.4160;
1286.7000;0.3704;1.4085;
1287.0000;0.3712;1.4010;
1287.3000;0.3720;1.3985;
1287.6000;0.3728;1.4010;
1287.9000;0.3720;1.4035;
1288.2000;0.3712;1.4160;
1288.5000;0.3744;1.4210;
1288.8000;0.3720;1.4085;
1289.1000;0.3728;1.4085;
1289.4000;0.3704;1.4110;
1289.7000;0.3712;1.4135;
1290.0000;0.3712;1.4210;
1290.3000;0.3720;1.4285;
1290.6000;0.3720;1.4384;
1290.9000;0.3712;1.4334;
1291.2000;0.3728;1.4309;
1291.5000;0.3696;1.4135;
1291.8000;0.3720;1.4185;
1292.1000;0.3704;1.4160;
1292.4000;0.3712;1.4160;
1292.7000;0.3696;1.4110;
1293.0000;0.3704;1.4110;
1293.3000;0.3728;1.4160;
1293.6000;0.3720;1.4110;
1293.9000;0.3720;1.4085;
1294.2000;0.3753;1.4160;
1294.5000;0.3728;1.4010;
1294.8000;0.3744;1.4085;
1295.1000;0.3720;1.4060;
1295.4000;0.3712;1.4060;
1295.7000;0.3712;1.4085;
1296.0000;0.3712;1.4185;
1296.3000;0.3696;1.4160;
1296.6000;0.3704;1.4235;
1296.9000;0.3704;1.4285;
1297.2000;0.3712;1.4285;
1297.5000;0.3712;1.4235;
1297.8000;0.3704;1.4185;
1298.1000;0.3704;1.4110;
1298.4000;0.3720;1.4160;
1298.7000;0.3712;1.4085;
1299.0000;0.3712;1.4085;
1299.3000;0.3712;1.4185;
1299.6000;0.3696;1.4135;
1299.9000;0.3728;1.4185;
1300.2000;0.3720;1.4135;
1300.5000;0.3696;1.4060;
1300.8000;0.3647;1.4010;
1301.1000;0.3777;1.4334;
1301.4000;0.3720;1.4160;
1301.7000;0.3720;1.4185;
1302.0000;0.3671;1.4085;
1302.3000;0.3728;1.4135;
1302.6000;0.3785;1.4210;
1302.9000;0.3712;1.4110;
1303.2000;0.3728;1.4185;
1303.5000;0.3728;1.4185;
1303.8000;0.3712;1.4160;
1304.1000;0.3671;1.4085;
1304.4000;0.3720;1.4135;
1304.7000;0.3712;1.4260;
1305.0000;0.3728;1.4285;
1305.3000;0.3704;1.4210;
1305.6000;0.3712;1.4185;
1305.9000;0.3704;1.4110;
1306.2000;0.3728;1.4110;
1306.5000;0.3728;1.4110;
1306.8000;0.3728;1.4060;
1307.1000;0.3728;1.4110;
1307.4000;0.3712;1.4035;
1307.7000;0.3720;1.4035;
1308.0000;0.3696;1.4110;
1308.3000;0.3712;1.4309;
1308.6000;0.3728;1.4359;
1308.9000;0.3728;1.4285;
1309.2000;0.3696;1.4160;
1309.5000;0.3720;1.4110;
1309.8000;0.3696;1.4035;
1310.1000;0.3720;1.4160;
1310.4000;0.3728;1.4210;
1310.7000;0.3663;1.4135;
1311.0000;0.3712;1.4309;
1311.3000;0.3720;1.4260;
1311.6000;0.3712;1.4185;
1311.9000;0.3712;1.4160;
1312.2000;0.3728;1.4110;
1312.5000;0.3720;1.4110;
1312.8000;0.3696;1.4035;
1313.1000;0.3704;1.4110;
1313.4000;0.3712;1.4160;
1313.7000;0.3704;1.4060;
1314.0000;0.3696;1.4110;
1314.3000;0.3687;1.4085;
1314.6000;0.3720;1.4135;
1314.9000;0.3712;1.4110;
1315.2000;0.3744;1.4185;
1315.5000;0.3720;1.4085;
1315.8000;0.3712;1.4035;
1316.1000;0.3728;1.4035;
1316.4000;0.3720;1.4085;
1316.7000;0.3696;1.4010;
1317.0000;0.3696;1.4010;
1317.3000;0.3712;1.3985;
1317.6000;0.3712;1.4060;
1317.9000;0.3696;1.4085;
1318.2000;0.3712;1.4160;
1318.5000;0.3704;1.4060;
1318.8000;0.3736;1.4160;
1319.1000;0.3671;1.4085;
1319.4000;0.3704;1.4135;
1319.7000;0.3720;1.4035;
1320.0000;0.3720;1.4010;
1320.3000;0.3696;1.4035;
1320.6000;0.3712;1.4235;
1320.9000;0.3639;1.4035;
1321.2000;0.3728;1.4235;
1321.5000;0.3744;1.4309;
1321.8000;0.3712;1.4260;
1322.1000;0.3696;1.4210;
1322.4000;0.3736;1.4309;
1322.7000;0.3720;1.4260;
1323.0000;0.3647;1.4035;
1323.3000;0.3704;1.4160;
1323.6000;0.3704;1.4185;
1323.9000;0.3753;1.4309;
1324.2000;0.3720;1.4235;
1324.5000;0.3720;1.4110;
1324.8000;0.3736;1.4060;
1325.1000;0.3728;1.4060;
1325.4000;0.3712;1.4010;
1325.7000;0.3753;1.4135;
1326.0000;0.3761;1.4135;
1326.3000;0.3720;1.3985;
1326.6000;0.3744;1.3985;
1326.9000;0.3728;1.4010;
1327.2000;0.3736;1.3985;
1327.5000;0.3712;1.3985;
1327.8000;0.3810;1.4235;
1328.1000;0.3712;1.4060;
1328.4000;0.3704;1.4085;
1328.7000;0.3728;1.4135;
1329.0000;0.3720;1.4160;
1329.3000;0.3712;1.4110;
1329.6000;0.3696;1.4010;
1329.9000;0.3744;1.4085;
1330.2000;0.3720;1.4110;
1330.5000;0.3696;1.4010;
1330.8000;0.3736;1.4060;
1331.1000;0.3712;1.4060;
1331.4000;0.3720;1.4035;
1331.7000;0.3728;1.4035;
1332.0000;0.3720;1.3835;
1332.3000;0.3720;1.3985;
1332.6000;0.3736;1.3935;
1332.9000;0.3720;1.3960;
1333.2000;0.3728;1.3985;
1333.5000;0.3712;1.3960;
1333.8000;0.3712;1.3985;
1334.1000;0.3622;1.3760;
1334.4000;0.3712;1.3860;
1334.7000;0.3712;1.3860;
1335.0000;0.3704;1.3985;
1335.3000;0.3687;1.3985;
1335.6000;0.3712;1.4035;
1335.9000;0.3712;1.4060;
1336.2000;0.3753;1.4135;
1336.5000;0.3712;1.4010;
1336.8000;0.3728;1.3985;
1337.1000;0.3720;1.3985;
1337.4000;0.3728;1.4085;
1337.7000;0.3720;1.4160;
1338.0000;0.3720;1.4135;
1338.3000;0.3761;1.4260;
1338.6000;0.3720;1.4160;
1338.9000;0.3712;1.4235;
1339.2000;0.3736;1.4185;
1339.5000;0.3712;1.4085;
1339.8000;0.3712;1.4160;
1340.1000;0.3704;1.4135;
1340.4000;0.3704;1.4060;
1340.7000;0.3696;1.4035;
1341.0000;0.3712;1.4110;
1341.3000;0.3704;1.4135;
1341.6000;0.3687;1.4085;
1341.9000;0.3720;1.4135;
1342.2000;0.3720;1.4035;
1342.5000;0.3712;1.4035;
1342.8000;0.3728;1.4085;
1343.1000;0.3720;1.4110;
1343.4000;0.3712;1.4060;
1343.7000;0.3704;1.4110;
1344.0000;0.3696;1.4160;
1344.3000;0.3696;1.4210;
1344.6000;0.3704;1.4285;
1344.9000;0.3712;1.4235;
1345.2000;0.3704;1.4160;
1345.5000;0.3720;1.4110;
1345.8000;0.3687;1.4060;
1346.1000;0.3704;1.4035;
1346.4000;0.3696;1.4060;
1346.7000;0.3704;1.4035;
1347.0000;0.3728;1.4110;
1347.3000;0.3687;1.4135;
1347.6000;0.3704;1.4185;
1347.9000;0.3704;1.4085;
1348.2000;0.3712;1.4135;
1348.5000;0.3712;1.4210;
1348.8000;0.3704;1.4210;
1349.1000;0.3720;1.4309;
1349.4000;0.3720;1.4285;
1349.7000;0.3712;1.4235;
1350.0000;0.3785;1.4459;
1350.3000;0.3728;1.4359;
1350.6000;0.3728;1.4384;
1350.9000;0.3720;1.4334;
1351.2000;0.3728;1.4334;
1351.5000;0.3744;1.4235;
1351.8000;0.3728;1.4185;
1352.1000;0.3744;1.4185;
1352.4000;0.3720;1.4085;
1352.7000;0.3712;1.4035;
1353.0000;0.3720;1.4035;
1353.3000;0.3720;1.4035;
1353.6000;0.3679;1.3985;
1353.9000;0.3712;1.4010;
1354.2000;0.3769;1.4210;
1354.5000;0.3696;1.4060;
1354.8000;0.3728;1.4085;
1355.1000;0.3785;1.4160;
1355.4000;0.3777;1.4160;
1355.7000;0.3720;1.4035;
1356.0000;0.3712;1.3985;
1356.3000;0.3712;1.4035;
1356.6000;0.3712;1.4085;
1356.9000;0.3712;1.4085;
1357.2000;0.3728;1.4060;
1357.5000;0.3720;1.4060;
1357.8000;0.3728;1.3985;
1358.1000;0.3712;1.3885;
1358.4000;0.3744;1.3860;
1358.7000;0.3720;1.3860;
1359.0000;0.3704;1.3835;
1359.3000;0.3720;1.3910;
1359.6000;0.3728;1.3985;
1359.9000;0.3720;1.4010;
1360.2000;0.3704;1.4010;
1360.5000;0.3720;1.4110;
1360.8000;0.3687;1.3935;
1361.1000;0.3712;1.3985;
1361.4000;0.3712;1.4035;
1361.7000;0.3696;1.3960;
1362.0000;0.3712;1.4035;
1362.3000;0.3712;1.4135;
1362.6000;0.3704;1.4235;
1362.9000;0.3728;1.4235;
1363.2000;0.3712;1.4110;
1363.5000;0.3720;1.4185;
1363.8000;0.3704;1.4160;
1364.1000;0.3679;1.4035;
1364.4000;0.3704;1.4010;
1364.7000;0.3704;1.4060;
1365.0000;0.3696;1.4110;
1365.3000;0.3712;1.4210;
1365.6000;0.3720;1.4210;
1365.9000;0.3720;1.4185;
1366.2000;0.3696;1.4160;
1366.5000;0.3704;1.4235;
1366.8000;0.3696;1.4160;
1367.1000;0.3704;1.4060;
1367.4000;0.3720;1.4085;
1367.7000;0.3712;1.4185;
1368.0000;0.3720;1.4210;
1368.3000;0.3663;1.4060;
1368.6000;0.3696;1.4235;
1368.9000;0.3704;1.4210;
1369.2000;0.3720;1.4210;
1369.5000;0.3696;1.4160;
1369.8000;0.3785;1.4309;
1370.1000;0.3720;1.4210;
1370.4000;0.3704;1.4160;
1370.7000;0.3712;1.4185;
1371.0000;0.3736;1.4185;
1371.3000;0.3704;1.4110;
1371.6000;0.3704;1.4160;
1371.9000;0.3696;1.4035;
1372.2000;0.3712;1.4010;
1372.5000;0.3736;1.4035;
1372.8000;0.3761;1.4160;
1373.1000;0.3720;1.4060;
1373.4000;0.3720;1.4010;
1373.7000;0.3736;1.4010;
1374.0000;0.3769;1.4135;
1374.3000;0.3736;1.4035;
1374.6000;0.3720;1.3985;
1374.9000;0.3696;1.4085;
1375.2000;0.3696;1.4110;
1375.5000;0.3696;1.4085;
1375.8000;0.3712;1.4110;
1376.1000;0.3687;1.4035;
1376.4000;0.3744;1.4160;
1376.7000;0.3712;1.4085;
1377.0000;0.3736;1.4160;
1377.3000;0.3712;1.4035;
1377.6000;0.3704;1.4010;
1377.9000;0.3712;1.3985;
1378.2000;0.3696;1.3910;
1378.5000;0.3704;1.3910;
1378.8000;0.3704;1.3935;
1379.1000;0.3753;1.4085;
1379.4000;0.3704;1.3910;
1379.7000;0.3696;1.3835;
1380.0000;0.3712;1.3835;
1380.3000;0.3720;1.3960;
1380.6000;0.3696;1.3960;
1380.9000;0.3671;1.3860;
1381.2000;0.3744;1.4060;
1381.5000;0.3728;1.3985;
1381.8000;0.3720;1.3935;
1382.1000;0.3712;1.3935;
1382.4000;0.3720;1.4010;
1382.7000;0.3728;1.3960;
1383.0000;0.3728;1.4010;
1383.3000;0.3712;1.4110;
1383.6000;0.3720;1.4160;
1383.9000;0.3728;1.4135;
1384.2000;0.3720;1.4160;
1384.5000;0.3704;1.4035;
1384.8000;0.3712;1.4135;
1385.1000;0.3728;1.4085;
1385.4000;0.3728;1.4110;
1385.7000;0.3704;1.4060;
1386.0000;0.3712;1.4010;
1386.3000;0.3696;1.3960;
1386.6000;0.3704;1.3985;
1386.9000;0.3679;1.3960;
1387.2000;0.3696;1.4085;
1387.5000;0.3753;1.4135;
1387.8000;0.3728;1.4035;
1388.1000;0.3704;1.4010;
1388.4000;0.3720;1.3985;
1388.7000;0.3720;1.4035;
1389.0000;0.3753;1.4160;
1389.3000;0.3744;1.4160;
1389.6000;0.3712;1.4010;
1389.9000;0.3696;1.3960;
1390.2000;0.3712;1.3910;
1390.5000;0.3704;1.3885;
1390.8000;0.3712;1.3960;
1391.1000;0.3704;1.4010;
1391.4000;0.3704;1.4110;
1391.7000;0.3720;1.4185;
1392.0000;0.3712;1.4135;
1392.3000;0.3736;1.4185;
1392.6000;0.3720;1.4035;
1392.9000;0.3744;1.4060;
1393.2000;0.3679;1.3960;
1393.5000;0.3696;1.3910;
1393.8000;0.3720;1.4085;
1394.1000;0.3744;1.4135;
1394.4000;0.3728;1.4035;
1394.7000;0.3720;1.4035;
1395.0000;0.3720;1.3960;
1395.3000;0.3720;1.3785;
1395.6000;0.3720;1.3835;
1395.9000;0.3712;1.3785;
1396.2000;0.3712;1.3860;
1396.5000;0.3744;1.3910;
1396.8000;0.3712;1.3885;
1397.1000;0.3720;1.3960;
1397.4000;0.3712;1.3860;
1397.7000;0.3712;1.3810;
1398.0000;0.3753;1.3935;
1398.3000;0.3712;1.3910;
1398.6000;0.3687;1.3860;
1398.9000;0.3712;1.3935;
1399.2000;0.3720;1.4010;
1399.5000;0.3704;1.3960;
1399.8000;0.3712;1.4035;
