time/ms;Fluo/V;P700 deltaI/I x10³;
-199.8000;1.1502;0.8061;
-199.5000;1.1486;0.7985;
-199.2000;1.1486;0.7960;
-198.9000;1.1494;0.8036;
-198.6000;1.1494;0.7960;
-198.3000;1.1469;0.7935;
-198.0000;1.1477;0.7910;
-197.7000;1.1477;0.7935;
-197.4000;1.1477;0.7960;
-197.1000;1.1486;0.7935;
-196.8000;1.1477;0.7884;
-196.5000;1.1486;0.7910;
-196.2000;1.1494;0.7935;
-195.9000;1.1477;0.7960;
-195.6000;1.1486;0.7985;
-195.3000;1.1494;0.8036;
-195.0000;1.1486;0.8086;
-194.7000;1.1477;0.8111;
-194.4000;1.1494;0.8010;
-194.1000;1.1486;0.7935;
-193.8000;1.1486;0.8010;
-193.5000;1.1502;0.8187;
-193.2000;1.1494;0.8162;
-192.9000;1.1486;0.8036;
-192.6000;1.1494;0.8036;
-192.3000;1.1502;0.8136;
-192.0000;1.1477;0.8086;
-191.7000;1.1494;0.8086;
-191.4000;1.1486;0.8086;
-191.1000;1.1486;0.8136;
-190.8000;1.1486;0.8111;
-190.5000;1.1486;0.8061;
-190.2000;1.1477;0.8061;
-189.9000;1.1494;0.8061;
-189.6000;1.1494;0.8086;
-189.3000;1.1494;0.8136;
-189.0000;1.1486;0.8061;
-188.7000;1.1518;0.8136;
-188.4000;1.1502;0.8136;
-188.1000;1.1494;0.8036;
-187.8000;1.1494;0.8010;
-187.5000;1.1502;0.8086;
-187.2000;1.1510;0.8111;
-186.9000;1.1510;0.8136;
-186.6000;1.1477;0.8036;
-186.3000;1.1477;0.8010;
-186.0000;1.1486;0.8036;
-185.7000;1.1486;0.8010;
-185.4000;1.1469;0.7884;
-185.1000;1.1494;0.7910;
-184.8000;1.1477;0.7859;
-184.5000;1.1486;0.7884;
-184.2000;1.1477;0.7759;
-183.9000;1.1477;0.7834;
-183.6000;1.1486;0.7784;
-183.3000;1.1477;0.7859;
-183.0000;1.1486;0.7910;
-182.7000;1.1469;0.7910;
-182.4000;1.1494;0.7859;
-182.1000;1.1494;0.7910;
-181.8000;1.1477;0.7859;
-181.5000;1.1469;0.7910;
-181.2000;1.1494;0.7859;
-180.9000;1.1486;0.7859;
-180.6000;1.1477;0.7809;
-180.3000;1.1486;0.7809;
-180.0000;1.1477;0.7784;
-179.7000;1.1486;0.7834;
-179.4000;1.1477;0.7809;
-179.1000;1.1477;0.7935;
-178.8000;1.1477;0.7935;
-178.5000;1.1486;0.7960;
-178.2000;1.1486;0.8036;
-177.9000;1.1445;0.7859;
-177.6000;1.1486;0.7859;
-177.3000;1.1502;0.7884;
-177.0000;1.1494;0.7859;
-176.7000;1.1486;0.7935;
-176.4000;1.1494;0.7910;
-176.1000;1.1510;0.7935;
-175.8000;1.1502;0.7859;
-175.5000;1.1494;0.7859;
-175.2000;1.1477;0.7960;
-174.9000;1.1494;0.7935;
-174.6000;1.1510;0.7910;
-174.3000;1.1567;0.8061;
-174.0000;1.1494;0.7834;
-173.7000;1.1486;0.7884;
-173.4000;1.1486;0.7884;
-173.1000;1.1494;0.7935;
-172.8000;1.1486;0.7859;
-172.5000;1.1494;0.7884;
-172.2000;1.1477;0.7809;
-171.9000;1.1477;0.7834;
-171.6000;1.1420;0.7633;
-171.3000;1.1477;0.7759;
-171.0000;1.1477;0.7834;
-170.7000;1.1486;0.7859;
-170.4000;1.1526;0.8010;
-170.1000;1.1469;0.7910;
-169.8000;1.1477;0.8036;
-169.5000;1.1486;0.8061;
-169.2000;1.1469;0.8111;
-168.9000;1.1469;0.8010;
-168.6000;1.1486;0.7960;
-168.3000;1.1477;0.7935;
-168.0000;1.1494;0.7910;
-167.7000;1.1486;0.7834;
-167.4000;1.1494;0.7809;
-167.1000;1.1469;0.7759;
-166.8000;1.1494;0.7935;
-166.5000;1.1502;0.7960;
-166.2000;1.1486;0.8010;
-165.9000;1.1494;0.8036;
-165.6000;1.1502;0.8036;
-165.3000;1.1412;0.7733;
-165.0000;1.1502;0.7960;
-164.7000;1.1445;0.7834;
-164.4000;1.1453;0.7859;
-164.1000;1.1494;0.7935;
-163.8000;1.1477;0.7859;
-163.5000;1.1477;0.7935;
-163.2000;1.1486;0.7960;
-162.9000;1.1502;0.8036;
-162.6000;1.1502;0.8086;
-162.3000;1.1477;0.8086;
-162.0000;1.1494;0.8086;
-161.7000;1.1486;0.8086;
-161.4000;1.1469;0.8010;
-161.1000;1.1486;0.8061;
-160.8000;1.1477;0.7985;
-160.5000;1.1469;0.7910;
-160.2000;1.1477;0.8036;
-159.9000;1.1477;0.8136;
-159.6000;1.1477;0.8212;
-159.3000;1.1453;0.8036;
-159.0000;1.1494;0.8136;
-158.7000;1.1469;0.8010;
-158.4000;1.1502;0.8061;
-158.1000;1.1494;0.7935;
-157.8000;1.1477;0.7859;
-157.5000;1.1502;0.7910;
-157.2000;1.1494;0.7985;
-156.9000;1.1494;0.8086;
-156.6000;1.1486;0.8061;
-156.3000;1.1477;0.7960;
-156.0000;1.1477;0.7935;
-155.7000;1.1461;0.7935;
-155.4000;1.1477;0.7935;
-155.1000;1.1486;0.8010;
-154.8000;1.1486;0.8036;
-154.5000;1.1477;0.8036;
-154.2000;1.1494;0.8010;
-153.9000;1.1486;0.8036;
-153.6000;1.1494;0.8010;
-153.3000;1.1469;0.7960;
-153.0000;1.1502;0.8061;
-152.7000;1.1486;0.8061;
-152.4000;1.1486;0.8136;
-152.1000;1.1502;0.8162;
-151.8000;1.1510;0.8187;
-151.5000;1.1477;0.8136;
-151.2000;1.1486;0.8036;
-150.9000;1.1477;0.8010;
-150.6000;1.1486;0.8010;
-150.3000;1.1494;0.8111;
-150.0000;1.1469;0.8086;
-149.7000;1.1469;0.8086;
-149.4000;1.1477;0.8136;
-149.1000;1.1461;0.8061;
-148.8000;1.1477;0.7985;
-148.5000;1.1477;0.7910;
-148.2000;1.1494;0.7910;
-147.9000;1.1486;0.7884;
-147.6000;1.1494;0.7910;
-147.3000;1.1486;0.7834;
-147.0000;1.1494;0.7834;
-146.7000;1.1502;0.7884;
-146.4000;1.1486;0.7910;
-146.1000;1.1477;0.7910;
-145.8000;1.1486;0.7960;
-145.5000;1.1461;0.7935;
-145.2000;1.1494;0.7960;
-144.9000;1.1477;0.7859;
-144.6000;1.1469;0.7834;
-144.3000;1.1469;0.7834;
-144.0000;1.1486;0.7910;
-143.7000;1.1494;0.8010;
-143.4000;1.1486;0.8036;
-143.1000;1.1477;0.7985;
-142.8000;1.1494;0.8086;
-142.5000;1.1510;0.8136;
-142.2000;1.1486;0.8111;
-141.9000;1.1551;0.8262;
-141.6000;1.1486;0.8136;
-141.3000;1.1534;0.8136;
-141.0000;1.1477;0.7859;
-140.7000;1.1494;0.7834;
-140.4000;1.1486;0.7935;
-140.1000;1.1469;0.7985;
-139.8000;1.1477;0.8010;
-139.5000;1.1494;0.8086;
-139.2000;1.1469;0.8136;
-138.9000;1.1486;0.8187;
-138.6000;1.1494;0.8162;
-138.3000;1.1494;0.8111;
-138.0000;1.1494;0.8111;
-137.7000;1.1477;0.8036;
-137.4000;1.1551;0.8212;
-137.1000;1.1388;0.7784;
-136.8000;1.1477;0.7935;
-136.5000;1.1502;0.7910;
-136.2000;1.1510;0.7985;
-135.9000;1.1486;0.7985;
-135.6000;1.1526;0.8162;
-135.3000;1.1494;0.8162;
-135.0000;1.1494;0.8111;
-134.7000;1.1494;0.8111;
-134.4000;1.1469;0.8086;
-134.1000;1.1486;0.8061;
-133.8000;1.1453;0.7985;
-133.5000;1.1494;0.8111;
-133.2000;1.1502;0.8061;
-132.9000;1.1469;0.8010;
-132.6000;1.1477;0.7985;
-132.3000;1.1502;0.8111;
-132.0000;1.1469;0.8036;
-131.7000;1.1477;0.8061;
-131.4000;1.1486;0.8061;
-131.1000;1.1494;0.8111;
-130.8000;1.1486;0.8061;
-130.5000;1.1486;0.8111;
-130.2000;1.1526;0.8212;
-129.9000;1.1494;0.8162;
-129.6000;1.1494;0.8187;
-129.3000;1.1469;0.8136;
-129.0000;1.1477;0.8136;
-128.7000;1.1429;0.8036;
-128.4000;1.1486;0.8136;
-128.1000;1.1469;0.8111;
-127.8000;1.1453;0.8086;
-127.5000;1.1477;0.8111;
-127.2000;1.1469;0.8010;
-126.9000;1.1477;0.8036;
-126.6000;1.1486;0.8036;
-126.3000;1.1477;0.8010;
-126.0000;1.1477;0.7910;
-125.7000;1.1477;0.7935;
-125.4000;1.1477;0.7960;
-125.1000;1.1494;0.7884;
-124.8000;1.1502;0.7960;
-124.5000;1.1477;0.7910;
-124.2000;1.1461;0.7859;
-123.9000;1.1469;0.7859;
-123.6000;1.1469;0.8086;
-123.3000;1.1477;0.8010;
-123.0000;1.1510;0.8162;
-122.7000;1.1461;0.7985;
-122.4000;1.1486;0.7985;
-122.1000;1.1453;0.7834;
-121.8000;1.1461;0.7884;
-121.5000;1.1461;0.7910;
-121.2000;1.1461;0.7935;
-120.9000;1.1461;0.7884;
-120.6000;1.1477;0.7910;
-120.3000;1.1477;0.7985;
-120.0000;1.1477;0.8036;
-119.7000;1.1486;0.7935;
-119.4000;1.1477;0.7935;
-119.1000;1.1477;0.7884;
-118.8000;1.1477;0.7884;
-118.5000;1.1510;0.8036;
-118.2000;1.1486;0.8061;
-117.9000;1.1486;0.8036;
-117.6000;1.1486;0.8036;
-117.3000;1.1486;0.8010;
-117.0000;1.1486;0.7985;
-116.7000;1.1486;0.7884;
-116.4000;1.1494;0.7859;
-116.1000;1.1502;0.7935;
-115.8000;1.1502;0.7935;
-115.5000;1.1486;0.7985;
-115.2000;1.1486;0.7985;
-114.9000;1.1477;0.7985;
-114.6000;1.1494;0.8036;
-114.3000;1.1510;0.8086;
-114.0000;1.1477;0.7985;
-113.7000;1.1469;0.7960;
-113.4000;1.1477;0.7884;
-113.1000;1.1486;0.7884;
-112.8000;1.1486;0.7884;
-112.5000;1.1477;0.7859;
-112.2000;1.1494;0.7910;
-111.9000;1.1494;0.7859;
-111.6000;1.1486;0.7784;
-111.3000;1.1477;0.7733;
-111.0000;1.1486;0.7809;
-110.7000;1.1461;0.7834;
-110.4000;1.1445;0.7910;
-110.1000;1.1461;0.8010;
-109.8000;1.1543;0.8162;
-109.5000;1.1486;0.7985;
-109.2000;1.1477;0.7910;
-108.9000;1.1477;0.7910;
-108.6000;1.1494;0.7985;
-108.3000;1.1486;0.8036;
-108.0000;1.1477;0.8010;
-107.7000;1.1477;0.8010;
-107.4000;1.1486;0.8036;
-107.1000;1.1526;0.8162;
-106.8000;1.1526;0.8111;
-106.5000;1.1453;0.7960;
-106.2000;1.1486;0.8010;
-105.9000;1.1461;0.8036;
-105.6000;1.1469;0.8086;
-105.3000;1.1477;0.8086;
-105.0000;1.1461;0.8010;
-104.7000;1.1510;0.8187;
-104.4000;1.1510;0.8237;
-104.1000;1.1486;0.8111;
-103.8000;1.1526;0.8212;
-103.5000;1.1477;0.8086;
-103.2000;1.1502;0.8111;
-102.9000;1.1543;0.8212;
-102.6000;1.1486;0.8136;
-102.3000;1.1477;0.8162;
-102.0000;1.1469;0.8187;
-101.7000;1.1486;0.8111;
-101.4000;1.1486;0.8136;
-101.1000;1.1494;0.8162;
-100.8000;1.1429;0.8010;
-100.5000;1.1534;0.8262;
-100.2000;1.1469;0.8111;
-99.9000;1.1477;0.8136;
-99.6000;1.1477;0.8111;
-99.3000;1.1477;0.8086;
-99.0000;1.1437;0.7859;
-98.7000;1.1486;0.7960;
-98.4000;1.1461;0.7884;
-98.1000;1.1477;0.7985;
-97.8000;1.1453;0.8061;
-97.5000;1.1469;0.8036;
-97.2000;1.1453;0.8010;
-96.9000;1.1486;0.8187;
-96.6000;1.1486;0.8111;
-96.3000;1.1477;0.8086;
-96.0000;1.1486;0.8086;
-95.7000;1.1494;0.8136;
-95.4000;1.1486;0.8162;
-95.1000;1.1502;0.8061;
-94.8000;1.1494;0.8010;
-94.5000;1.1518;0.8036;
-94.2000;1.1502;0.8010;
-93.9000;1.1486;0.7960;
-93.6000;1.1494;0.8036;
-93.3000;1.1477;0.8010;
-93.0000;1.1477;0.7935;
-92.7000;1.1486;0.8010;
-92.4000;1.1477;0.8010;
-92.1000;1.1486;0.7985;
-91.8000;1.1477;0.8036;
-91.5000;1.1494;0.8086;
-91.2000;1.1518;0.8111;
-90.9000;1.1486;0.7985;
-90.6000;1.1502;0.8010;
-90.3000;1.1494;0.8061;
-90.0000;1.1486;0.7910;
-89.7000;1.1477;0.7910;
-89.4000;1.1486;0.8036;
-89.1000;1.1477;0.8036;
-88.8000;1.1494;0.8086;
-88.5000;1.1486;0.7960;
-88.2000;1.1469;0.7960;
-87.9000;1.1477;0.8061;
-87.6000;1.1486;0.7985;
-87.3000;1.1502;0.7985;
-87.0000;1.1469;0.7859;
-86.7000;1.1445;0.7784;
-86.4000;1.1469;0.7884;
-86.1000;1.1486;0.7935;
-85.8000;1.1543;0.8162;
-85.5000;1.1486;0.8061;
-85.2000;1.1469;0.8162;
-84.9000;1.1486;0.8136;
-84.6000;1.1453;0.7985;
-84.3000;1.1469;0.8111;
-84.0000;1.1469;0.8036;
-83.7000;1.1469;0.7985;
-83.4000;1.1486;0.7960;
-83.1000;1.1486;0.7960;
-82.8000;1.1502;0.7960;
-82.5000;1.1486;0.7935;
-82.2000;1.1502;0.8036;
-81.9000;1.1477;0.8010;
-81.6000;1.1526;0.8111;
-81.3000;1.1486;0.8036;
-81.0000;1.1486;0.7935;
-80.7000;1.1526;0.8036;
-80.4000;1.1469;0.7960;
-80.1000;1.1502;0.7960;
-79.8000;1.1469;0.7935;
-79.5000;1.1486;0.7985;
-79.2000;1.1494;0.8061;
-78.9000;1.1510;0.8061;
-78.6000;1.1486;0.7884;
-78.3000;1.1469;0.7910;
-78.0000;1.1461;0.7910;
-77.7000;1.1477;0.7935;
-77.4000;1.1477;0.7985;
-77.1000;1.1469;0.8036;
-76.8000;1.1469;0.8136;
-76.5000;1.1518;0.8162;
-76.2000;1.1445;0.7960;
-75.9000;1.1494;0.7960;
-75.6000;1.1486;0.7935;
-75.3000;1.1486;0.8010;
-75.0000;1.1510;0.8086;
-74.7000;1.1469;0.7985;
-74.4000;1.1469;0.8010;
-74.1000;1.1486;0.8061;
-73.8000;1.1494;0.8010;
-73.5000;1.1477;0.8086;
-73.2000;1.1461;0.8010;
-72.9000;1.1469;0.7960;
-72.6000;1.1510;0.8136;
-72.3000;1.1477;0.8061;
-72.0000;1.1477;0.8036;
-71.7000;1.1518;0.8061;
-71.4000;1.1477;0.8010;
-71.1000;1.1486;0.8036;
-70.8000;1.1477;0.8111;
-70.5000;1.1477;0.8086;
-70.2000;1.1486;0.8136;
-69.9000;1.1477;0.8061;
-69.6000;1.1494;0.8162;
-69.3000;1.1477;0.8136;
-69.0000;1.1494;0.8136;
-68.7000;1.1502;0.8187;
-68.4000;1.1477;0.8111;
-68.1000;1.1543;0.8237;
-67.8000;1.1469;0.8086;
-67.5000;1.1486;0.8136;
-67.2000;1.1453;0.8061;
-66.9000;1.1477;0.8111;
-66.6000;1.1477;0.8086;
-66.3000;1.1526;0.8187;
-66.0000;1.1502;0.8111;
-65.7000;1.1477;0.8061;
-65.4000;1.1477;0.8136;
-65.1000;1.1469;0.8136;
-64.8000;1.1477;0.8212;
-64.5000;1.1469;0.8162;
-64.2000;1.1486;0.8162;
-63.9000;1.1486;0.8162;
-63.6000;1.1429;0.8061;
-63.3000;1.1477;0.8237;
-63.0000;1.1477;0.8136;
-62.7000;1.1486;0.8187;
-62.4000;1.1494;0.8262;
-62.1000;1.1477;0.8187;
-61.8000;1.1477;0.8111;
-61.5000;1.1486;0.8187;
-61.2000;1.1486;0.8111;
-60.9000;1.1477;0.8111;
-60.6000;1.1551;0.8313;
-60.3000;1.1567;0.8313;
-60.0000;1.1494;0.8086;
-59.7000;1.1518;0.8187;
-59.4000;1.1502;0.8162;
-59.1000;1.1477;0.8212;
-58.8000;1.1486;0.8288;
-58.5000;1.1477;0.8262;
-58.2000;1.1486;0.8237;
-57.9000;1.1502;0.8262;
-57.6000;1.1526;0.8288;
-57.3000;1.1518;0.8313;
-57.0000;1.1486;0.8262;
-56.7000;1.1486;0.8288;
-56.4000;1.1469;0.8262;
-56.1000;1.1486;0.8288;
-55.8000;1.1510;0.8363;
-55.5000;1.1486;0.8288;
-55.2000;1.1477;0.8288;
-54.9000;1.1477;0.8262;
-54.6000;1.1477;0.8187;
-54.3000;1.1494;0.8262;
-54.0000;1.1469;0.8262;
-53.7000;1.1477;0.8288;
-53.4000;1.1453;0.8237;
-53.1000;1.1477;0.8313;
-52.8000;1.1477;0.8288;
-52.5000;1.1469;0.8237;
-52.2000;1.1477;0.8212;
-51.9000;1.1494;0.8262;
-51.6000;1.1469;0.8162;
-51.3000;1.1518;0.8212;
-51.0000;1.1477;0.8162;
-50.7000;1.1469;0.8086;
-50.4000;1.1453;0.8036;
-50.1000;1.1469;0.8136;
-49.8000;1.1477;0.8162;
-49.5000;1.1477;0.8212;
-49.2000;1.1502;0.8187;
-48.9000;1.1453;0.8036;
-48.6000;1.1477;0.8086;
-48.3000;1.1494;0.8111;
-48.0000;1.1477;0.8086;
-47.7000;1.1486;0.8111;
-47.4000;1.1469;0.8061;
-47.1000;1.1486;0.8187;
-46.8000;1.1494;0.8212;
-46.5000;1.1486;0.8162;
-46.2000;1.1486;0.8212;
-45.9000;1.1486;0.8212;
-45.6000;1.1486;0.8111;
-45.3000;1.1486;0.8111;
-45.0000;1.1469;0.8212;
-44.7000;1.1486;0.8187;
-44.4000;1.1477;0.8136;
-44.1000;1.1477;0.8086;
-43.8000;1.1486;0.7960;
-43.5000;1.1453;0.7935;
-43.2000;1.1486;0.8010;
-42.9000;1.1477;0.7960;
-42.6000;1.1477;0.8010;
-42.3000;1.1477;0.8036;
-42.0000;1.1486;0.8010;
-41.7000;1.1486;0.7884;
-41.4000;1.1486;0.7859;
-41.1000;1.1477;0.7809;
-40.8000;1.1477;0.7859;
-40.5000;1.1494;0.7859;
-40.2000;1.1461;0.7784;
-39.9000;1.1477;0.7859;
-39.6000;1.1494;0.7884;
-39.3000;1.1486;0.7834;
-39.0000;1.1486;0.7784;
-38.7000;1.1477;0.7834;
-38.4000;1.1469;0.7809;
-38.1000;1.1494;0.7910;
-37.8000;1.1486;0.7935;
-37.5000;1.1437;0.7834;
-37.2000;1.1486;0.7859;
-36.9000;1.1486;0.7859;
-36.6000;1.1486;0.7859;
-36.3000;1.1461;0.7834;
-36.0000;1.1486;0.7759;
-35.7000;1.1486;0.7759;
-35.4000;1.1486;0.7759;
-35.1000;1.1486;0.7759;
-34.8000;1.1510;0.7859;
-34.5000;1.1494;0.7884;
-34.2000;1.1502;0.7910;
-33.9000;1.1502;0.7859;
-33.6000;1.1486;0.7859;
-33.3000;1.1477;0.7834;
-33.0000;1.1477;0.7834;
-32.7000;1.1502;0.7910;
-32.4000;1.1469;0.7859;
-32.1000;1.1486;0.7985;
-31.8000;1.1494;0.8086;
-31.5000;1.1477;0.8086;
-31.2000;1.1477;0.8111;
-30.9000;1.1477;0.8187;
-30.6000;1.1477;0.8111;
-30.3000;1.1502;0.8187;
-30.0000;1.1469;0.8212;
-29.7000;1.1477;0.8187;
-29.4000;1.1469;0.8036;
-29.1000;1.1486;0.8010;
-28.8000;1.1486;0.7985;
-28.5000;1.1486;0.8036;
-28.2000;1.1494;0.7960;
-27.9000;1.1486;0.7960;
-27.6000;1.1494;0.8010;
-27.3000;1.1477;0.7985;
-27.0000;1.1469;0.8111;
-26.7000;1.1526;0.8262;
-26.4000;1.1469;0.8111;
-26.1000;1.1477;0.7985;
-25.8000;1.1486;0.8086;
-25.5000;1.1477;0.8061;
-25.2000;1.1486;0.8036;
-24.9000;1.1461;0.8010;
-24.6000;1.1486;0.8086;
-24.3000;1.1494;0.8111;
-24.0000;1.1486;0.8162;
-23.7000;1.1494;0.8136;
-23.4000;1.1494;0.8086;
-23.1000;1.1502;0.8036;
-22.8000;1.1494;0.8162;
-22.5000;1.1494;0.8212;
-22.2000;1.1486;0.8086;
-21.9000;1.1486;0.8086;
-21.6000;1.1486;0.8036;
-21.3000;1.1477;0.7985;
-21.0000;1.1477;0.8036;
-20.7000;1.1486;0.8036;
-20.4000;1.1494;0.8086;
-20.1000;1.1486;0.7985;
-19.8000;1.1494;0.7985;
-19.5000;1.1477;0.7985;
-19.2000;1.1494;0.7884;
-18.9000;1.1486;0.7960;
-18.6000;1.1486;0.7935;
-18.3000;1.1486;0.7985;
-18.0000;1.1486;0.7960;
-17.7000;1.1486;0.7935;
-17.4000;1.1494;0.8010;
-17.1000;1.1453;0.7859;
-16.8000;1.1486;0.7910;
-16.5000;1.1477;0.7935;
-16.2000;1.1486;0.7935;
-15.9000;1.1494;0.7935;
-15.6000;1.1420;0.7658;
-15.3000;1.1502;0.7910;
-15.0000;1.1477;0.7884;
-14.7000;1.1477;0.7884;
-14.4000;1.1477;0.7884;
-14.1000;1.1486;0.7910;
-13.8000;1.1494;0.7859;
-13.5000;1.1510;0.8036;
-13.2000;1.1486;0.7960;
-12.9000;1.1486;0.8036;
-12.6000;1.1486;0.8036;
-12.3000;1.1477;0.7985;
-12.0000;1.1477;0.7884;
-11.7000;1.1486;0.7910;
-11.4000;1.1494;0.7910;
-11.1000;1.1486;0.7935;
-10.8000;1.1437;0.7859;
-10.5000;1.1469;0.7859;
-10.2000;1.1502;0.7960;
-9.9000;1.1486;0.7859;
-9.6000;1.1477;0.7683;
-9.3000;1.1461;0.7607;
-9.0000;1.1494;0.7759;
-8.7000;1.1502;0.7809;
-8.4000;1.1477;0.7859;
-8.1000;1.1461;0.7759;
-7.8000;1.1494;0.7884;
-7.5000;1.1429;0.7809;
-7.2000;1.1453;0.7960;
-6.9000;1.1486;0.8086;
-6.6000;1.1510;0.8187;
-6.3000;1.1477;0.8010;
-6.0000;1.1486;0.7960;
-5.7000;1.1559;0.8136;
-5.4000;1.1477;0.7960;
-5.1000;1.1559;0.8136;
-4.8000;1.1486;0.8010;
-4.5000;1.1486;0.7960;
-4.2000;1.1486;0.7910;
-3.9000;1.1510;0.7935;
-3.6000;1.1518;0.7960;
-3.3000;1.1518;0.7910;
-3.0000;1.1494;0.7809;
-2.7000;1.1412;0.7607;
-2.4000;1.1469;0.7633;
-2.1000;1.1486;0.7759;
-1.8000;1.1477;0.7809;
-1.5000;1.1486;0.7834;
-1.2000;1.1477;0.7784;
-0.9000;1.1526;0.7884;
-0.6000;1.1494;0.7884;
-0.3000;1.1502;0.7935;
0.0000;1.1502;0.7935;
0.3000;1.1526;0.7834;
0.6000;1.1543;0.7910;
0.9000;1.1673;0.8288;
1.2000;1.1705;0.8464;
1.5000;1.1770;0.8716;
1.8000;1.1803;0.8917;
2.1000;1.1827;0.9068;
2.4000;1.1844;0.9245;
2.7000;1.1901;0.9421;
3.0000;1.1876;0.9446;
3.3000;1.1909;0.9572;
3.6000;1.1893;0.9547;
3.9000;1.1925;0.9547;
4.2000;1.1941;0.9623;
4.5000;1.1950;0.9698;
4.8000;1.1950;0.9698;
5.1000;1.1974;0.9723;
5.4000;1.1982;0.9874;
5.7000;1.1998;0.9849;
6.0000;1.1998;0.9799;
6.3000;1.1998;0.9698;
6.6000;1.2015;0.9749;
6.9000;1.2031;0.9749;
7.2000;1.2007;0.9673;
7.5000;1.2047;0.9874;
7.8000;1.2120;1.0126;
8.1000;1.2047;0.9925;
8.4000;1.2023;0.9849;
8.7000;1.2047;0.9849;
9.0000;1.2031;0.9824;
9.3000;1.2055;0.9900;
9.6000;1.2080;1.0026;
9.9000;1.2063;0.9950;
10.2000;1.2055;0.9874;
10.5000;1.2088;0.9975;
10.8000;1.2088;0.9900;
11.1000;1.2104;0.9975;
11.4000;1.2080;0.9900;
11.7000;1.2072;0.9925;
12.0000;1.2088;0.9950;
12.3000;1.2120;1.0026;
12.6000;1.2080;0.9925;
12.9000;1.2120;1.0076;
13.2000;1.2072;0.9950;
13.5000;1.2096;1.0000;
13.8000;1.2169;1.0227;
14.1000;1.2104;0.9975;
14.4000;1.2096;0.9900;
14.7000;1.2063;0.9874;
15.0000;1.2112;0.9925;
15.3000;1.2137;1.0026;
15.6000;1.2096;0.9925;
15.9000;1.2153;0.9975;
16.2000;1.2120;0.9849;
16.5000;1.2112;0.9774;
16.8000;1.2137;0.9925;
17.1000;1.2129;0.9849;
17.4000;1.2112;0.9799;
17.7000;1.2129;0.9900;
18.0000;1.2112;0.9925;
18.3000;1.2137;1.0000;
18.6000;1.2120;0.9950;
18.9000;1.2194;1.0026;
19.2000;1.2137;0.9950;
19.5000;1.2161;0.9900;
19.8000;1.2137;0.9774;
20.1000;1.2153;0.9824;
20.4000;1.2153;0.9774;
20.7000;1.2153;0.9774;
21.0000;1.2161;0.9874;
21.3000;1.2161;0.9774;
21.6000;1.2161;0.9874;
21.9000;1.2137;0.9900;
22.2000;1.2145;1.0051;
22.5000;1.2153;1.0000;
22.8000;1.2161;0.9950;
23.1000;1.2177;0.9950;
23.4000;1.2169;0.9925;
23.7000;1.2137;0.9799;
24.0000;1.2153;0.9824;
24.3000;1.2153;0.9874;
24.6000;1.2169;0.9874;
24.9000;1.2169;0.9900;
25.2000;1.2169;0.9925;
25.5000;1.2169;0.9975;
25.8000;1.2153;0.9900;
26.1000;1.2169;0.9874;
26.4000;1.2153;0.9900;
26.7000;1.2153;0.9925;
27.0000;1.2153;0.9925;
27.3000;1.2169;0.9925;
27.6000;1.2169;0.9975;
27.9000;1.2145;0.9950;
28.2000;1.2161;1.0026;
28.5000;1.2169;1.0000;
28.8000;1.2177;1.0026;
29.1000;1.2137;1.0000;
29.4000;1.2137;1.0026;
29.7000;1.2169;1.0000;
30.0000;1.2161;0.9925;
30.3000;1.2145;0.9824;
30.6000;1.2120;0.9673;
30.9000;1.2129;0.9799;
31.2000;1.2177;0.9950;
31.5000;1.2202;0.9925;
31.8000;1.2202;0.9975;
32.1000;1.2186;0.9900;
32.4000;1.2177;0.9900;
32.7000;1.2177;1.0026;
33.0000;1.2186;1.0000;
33.3000;1.2226;1.0051;
33.6000;1.2145;0.9799;
33.9000;1.2129;0.9849;
34.2000;1.2186;1.0026;
34.5000;1.2194;1.0076;
34.8000;1.2177;1.0051;
35.1000;1.2186;1.0076;
35.4000;1.2177;1.0101;
35.7000;1.2169;1.0000;
36.0000;1.2186;1.0076;
36.3000;1.2194;1.0126;
36.6000;1.2145;1.0076;
36.9000;1.2177;1.0076;
37.2000;1.2186;1.0101;
37.5000;1.2186;1.0126;
37.8000;1.2169;1.0101;
38.1000;1.2161;1.0177;
38.4000;1.2161;1.0152;
38.7000;1.2194;1.0051;
39.0000;1.2161;1.0000;
39.3000;1.2177;1.0076;
39.6000;1.2186;1.0051;
39.9000;1.2177;1.0051;
40.2000;1.2161;1.0026;
40.5000;1.2169;1.0076;
40.8000;1.2169;1.0000;
41.1000;1.2194;1.0076;
41.4000;1.2177;1.0101;
41.7000;1.2161;0.9900;
42.0000;1.2177;0.9975;
42.3000;1.2177;1.0026;
42.6000;1.2161;1.0000;
42.9000;1.2177;1.0076;
43.2000;1.2169;1.0026;
43.5000;1.2161;1.0076;
43.8000;1.2177;0.9975;
44.1000;1.2129;0.9749;
44.4000;1.2161;0.9774;
44.7000;1.2169;0.9749;
45.0000;1.2177;0.9774;
45.3000;1.2177;0.9900;
45.6000;1.2186;0.9900;
45.9000;1.2186;0.9900;
46.2000;1.2177;0.9874;
46.5000;1.2169;0.9900;
46.8000;1.2177;0.9975;
47.1000;1.2169;0.9874;
47.4000;1.2153;0.9723;
47.7000;1.2161;0.9723;
48.0000;1.2161;0.9648;
48.3000;1.2161;0.9673;
48.6000;1.2186;0.9774;
48.9000;1.2186;0.9824;
49.2000;1.2161;0.9799;
49.5000;1.2177;0.9824;
49.8000;1.2161;0.9925;
50.1000;1.2210;1.0076;
50.4000;1.2169;1.0026;
50.7000;1.2145;1.0026;
51.0000;1.2153;1.0051;
51.3000;1.2177;1.0051;
51.6000;1.2177;0.9925;
51.9000;1.2186;0.9849;
52.2000;1.2161;0.9799;
52.5000;1.2186;0.9824;
52.8000;1.2161;0.9749;
53.1000;1.2186;0.9749;
53.4000;1.2169;0.9774;
53.7000;1.2169;0.9900;
54.0000;1.2169;0.9749;
54.3000;1.2177;0.9874;
54.6000;1.2145;0.9849;
54.9000;1.2202;0.9950;
55.2000;1.2177;0.9900;
55.5000;1.2194;1.0000;
55.8000;1.2129;0.9824;
56.1000;1.2169;0.9900;
56.4000;1.2153;0.9824;
56.7000;1.2177;0.9950;
57.0000;1.2177;0.9874;
57.3000;1.2169;0.9874;
57.6000;1.2226;1.0026;
57.9000;1.2169;0.9950;
58.2000;1.2161;1.0026;
58.5000;1.2153;1.0000;
58.8000;1.2145;0.9950;
59.1000;1.2169;0.9900;
59.4000;1.2153;0.9874;
59.7000;1.2161;0.9925;
60.0000;1.2153;0.9925;
60.3000;1.2161;1.0000;
60.6000;1.2169;1.0076;
60.9000;1.2234;1.0227;
61.2000;1.2153;1.0101;
61.5000;1.2153;1.0076;
61.8000;1.2161;1.0126;
62.1000;1.2243;1.0202;
62.4000;1.2177;0.9975;
62.7000;1.2186;0.9975;
63.0000;1.2169;0.9900;
63.3000;1.2169;0.9975;
63.6000;1.2145;0.9950;
63.9000;1.2161;0.9900;
64.2000;1.2161;0.9925;
64.5000;1.2177;1.0000;
64.8000;1.2186;1.0051;
65.1000;1.2169;1.0051;
65.4000;1.2169;1.0076;
65.7000;1.2194;1.0051;
66.0000;1.2161;1.0026;
66.3000;1.2169;1.0076;
66.6000;1.2194;1.0101;
66.9000;1.2177;0.9975;
67.2000;1.2177;1.0000;
67.5000;1.2169;0.9950;
67.8000;1.2202;1.0026;
68.1000;1.2186;1.0000;
68.4000;1.2177;1.0000;
68.7000;1.2194;1.0101;
69.0000;1.2169;1.0026;
69.3000;1.2169;1.0026;
69.6000;1.2161;1.0076;
69.9000;1.2169;0.9975;
70.2000;1.2186;1.0026;
70.5000;1.2177;1.0026;
70.8000;1.2145;0.9975;
71.1000;1.2169;1.0101;
71.4000;1.2161;1.0026;
71.7000;1.2169;1.0000;
72.0000;1.2177;0.9975;
72.3000;1.2177;0.9950;
72.6000;1.2177;0.9900;
72.9000;1.2177;0.9900;
73.2000;1.2186;0.9975;
73.5000;1.2169;0.9950;
73.8000;1.2169;0.9975;
74.1000;1.2161;0.9975;
74.4000;1.2186;1.0000;
74.7000;1.2202;1.0101;
75.0000;1.2161;1.0076;
75.3000;1.2169;1.0101;
75.6000;1.2186;1.0202;
75.9000;1.2145;1.0101;
76.2000;1.2169;1.0101;
76.5000;1.2153;1.0101;
76.8000;1.2177;1.0177;
77.1000;1.2169;1.0152;
77.4000;1.2145;1.0051;
77.7000;1.2177;1.0076;
78.0000;1.2210;1.0076;
78.3000;1.2177;0.9950;
78.6000;1.2169;1.0026;
78.9000;1.2153;1.0051;
79.2000;1.2161;1.0000;
79.5000;1.2169;1.0000;
79.8000;1.2120;0.9925;
80.1000;1.2145;1.0051;
80.4000;1.2169;1.0126;
80.7000;1.2186;1.0076;
81.0000;1.2153;1.0026;
81.3000;1.2169;1.0076;
81.6000;1.2096;0.9874;
81.9000;1.2177;0.9950;
82.2000;1.2177;0.9950;
82.5000;1.2145;1.0000;
82.8000;1.2169;1.0101;
83.1000;1.2186;1.0101;
83.4000;1.2177;1.0101;
83.7000;1.2161;1.0051;
84.0000;1.2153;0.9975;
84.3000;1.2120;0.9925;
84.6000;1.2129;1.0026;
84.9000;1.2153;1.0177;
85.2000;1.2161;1.0202;
85.5000;1.2145;1.0177;
85.8000;1.2161;1.0152;
86.1000;1.2145;1.0152;
86.4000;1.2145;1.0126;
86.7000;1.2153;1.0076;
87.0000;1.2161;1.0026;
87.3000;1.2153;0.9975;
87.6000;1.2161;0.9900;
87.9000;1.2161;0.9925;
88.2000;1.2177;1.0000;
88.5000;1.2177;0.9975;
88.8000;1.2177;0.9950;
89.1000;1.2161;0.9874;
89.4000;1.2153;0.9925;
89.7000;1.2169;1.0101;
90.0000;1.2145;1.0051;
90.3000;1.2169;1.0076;
90.6000;1.2169;1.0152;
90.9000;1.2161;1.0051;
91.2000;1.2153;1.0076;
91.5000;1.2145;1.0051;
91.8000;1.2186;1.0026;
92.1000;1.2177;1.0051;
92.4000;1.2169;1.0076;
92.7000;1.2202;1.0202;
93.0000;1.2169;1.0076;
93.3000;1.2177;1.0076;
93.6000;1.2177;1.0126;
93.9000;1.2153;1.0076;
94.2000;1.2161;1.0051;
94.5000;1.2169;1.0051;
94.8000;1.2161;1.0076;
95.1000;1.2153;0.9975;
95.4000;1.2169;1.0026;
95.7000;1.2153;0.9925;
96.0000;1.2161;0.9950;
96.3000;1.2145;1.0051;
96.6000;1.2145;1.0026;
96.9000;1.2153;0.9975;
97.2000;1.2161;0.9975;
97.5000;1.2145;0.9950;
97.8000;1.2112;0.9774;
98.1000;1.2161;0.9900;
98.4000;1.2177;0.9950;
98.7000;1.2161;0.9900;
99.0000;1.2153;0.9925;
99.3000;1.2112;0.9874;
99.6000;1.2145;1.0101;
99.9000;1.2161;1.0101;
100.2000;1.2153;1.0051;
100.5000;1.2177;1.0126;
100.8000;1.2145;1.0051;
101.1000;1.2153;1.0076;
101.4000;1.2177;1.0152;
101.7000;1.2161;1.0177;
102.0000;1.2137;1.0177;
102.3000;1.2177;1.0278;
102.6000;1.2169;1.0227;
102.9000;1.2145;1.0126;
103.2000;1.2161;1.0101;
103.5000;1.2161;1.0000;
103.8000;1.2161;0.9975;
104.1000;1.2161;1.0000;
104.4000;1.2137;1.0000;
104.7000;1.2169;1.0076;
105.0000;1.2161;1.0126;
105.3000;1.2161;1.0101;
105.6000;1.2169;1.0152;
105.9000;1.2145;1.0101;
106.2000;1.2161;1.0152;
106.5000;1.2145;1.0177;
106.8000;1.2145;1.0152;
107.1000;1.2161;1.0101;
107.4000;1.2137;1.0076;
107.7000;1.2120;1.0076;
108.0000;1.2153;1.0152;
108.3000;1.2129;1.0076;
108.6000;1.2153;1.0126;
108.9000;1.2161;1.0202;
109.2000;1.2145;1.0177;
109.5000;1.2145;1.0252;
109.8000;1.2177;1.0353;
110.1000;1.2169;1.0303;
110.4000;1.2161;1.0152;
110.7000;1.2063;0.9950;
111.0000;1.2096;1.0051;
111.3000;1.2137;1.0126;
111.6000;1.2194;1.0278;
111.9000;1.2137;1.0076;
112.2000;1.2104;0.9975;
112.5000;1.2137;1.0101;
112.8000;1.2129;1.0051;
113.1000;1.2145;1.0026;
113.4000;1.2145;1.0000;
113.7000;1.2153;0.9900;
114.0000;1.2153;0.9975;
114.3000;1.2137;1.0051;
114.6000;1.2153;1.0126;
114.9000;1.2137;1.0126;
115.2000;1.2129;1.0152;
115.5000;1.2137;1.0177;
115.8000;1.2137;1.0252;
116.1000;1.2137;1.0227;
116.4000;1.2145;1.0076;
116.7000;1.2129;1.0051;
117.0000;1.2129;1.0126;
117.3000;1.2145;1.0152;
117.6000;1.2145;1.0202;
117.9000;1.2161;1.0202;
118.2000;1.2137;0.9975;
118.5000;1.2137;0.9975;
118.8000;1.2145;0.9950;
119.1000;1.2153;0.9975;
119.4000;1.2145;1.0000;
119.7000;1.2137;1.0051;
120.0000;1.2153;1.0126;
120.3000;1.2153;1.0051;
120.6000;1.2145;0.9950;
120.9000;1.2145;0.9975;
121.2000;1.2120;0.9950;
121.5000;1.2153;1.0076;
121.8000;1.2145;1.0101;
122.1000;1.2137;1.0152;
122.4000;1.2169;1.0177;
122.7000;1.2161;1.0101;
123.0000;1.2169;1.0101;
123.3000;1.2194;1.0152;
123.6000;1.2153;1.0051;
123.9000;1.2202;1.0303;
124.2000;1.2145;1.0227;
124.5000;1.2153;1.0202;
124.8000;1.2072;1.0000;
125.1000;1.2210;1.0353;
125.4000;1.2153;1.0126;
125.7000;1.2129;1.0051;
126.0000;1.2186;1.0177;
126.3000;1.2145;0.9900;
126.6000;1.2145;1.0026;
126.9000;1.2218;1.0177;
127.2000;1.2145;1.0000;
127.5000;1.2137;0.9925;
127.8000;1.2129;0.9874;
128.1000;1.2145;0.9925;
128.4000;1.2120;0.9774;
128.7000;1.2153;0.9900;
129.0000;1.2153;0.9975;
129.3000;1.2120;0.9925;
129.6000;1.2137;0.9950;
129.9000;1.2129;0.9950;
130.2000;1.2202;1.0126;
130.5000;1.2153;1.0076;
130.8000;1.2153;1.0101;
131.1000;1.2129;1.0000;
131.4000;1.2186;1.0152;
131.7000;1.2145;1.0076;
132.0000;1.2137;1.0126;
132.3000;1.2145;1.0202;
132.6000;1.2137;1.0126;
132.9000;1.2145;1.0126;
133.2000;1.2129;1.0152;
133.5000;1.2129;1.0126;
133.8000;1.2129;1.0101;
134.1000;1.2169;1.0152;
134.4000;1.2161;1.0076;
134.7000;1.2137;1.0000;
135.0000;1.2145;0.9925;
135.3000;1.2120;0.9799;
135.6000;1.2153;0.9975;
135.9000;1.2129;0.9900;
136.2000;1.2129;0.9925;
136.5000;1.2145;0.9975;
136.8000;1.2137;1.0000;
137.1000;1.2145;1.0026;
137.4000;1.2137;0.9975;
137.7000;1.2153;0.9900;
138.0000;1.2145;0.9849;
138.3000;1.2145;0.9975;
138.6000;1.2120;0.9900;
138.9000;1.2137;0.9950;
139.2000;1.2137;1.0000;
139.5000;1.2137;0.9950;
139.8000;1.2145;1.0000;
140.1000;1.2129;1.0000;
140.4000;1.2137;0.9975;
140.7000;1.2137;0.9925;
141.0000;1.2169;1.0051;
141.3000;1.2120;0.9950;
141.6000;1.2177;1.0076;
141.9000;1.2145;1.0051;
142.2000;1.2153;1.0126;
142.5000;1.2129;1.0126;
142.8000;1.2112;1.0126;
143.1000;1.2145;1.0152;
143.4000;1.2169;1.0177;
143.7000;1.2137;1.0051;
144.0000;1.2137;1.0076;
144.3000;1.2137;1.0101;
144.6000;1.2145;1.0152;
144.9000;1.2129;1.0126;
145.2000;1.2137;1.0202;
145.5000;1.2153;1.0227;
145.8000;1.2137;1.0227;
146.1000;1.2137;1.0227;
146.4000;1.2161;1.0328;
146.7000;1.2104;1.0177;
147.0000;1.2137;1.0252;
147.3000;1.2153;1.0278;
147.6000;1.2120;1.0152;
147.9000;1.2153;1.0252;
148.2000;1.2129;1.0278;
148.5000;1.2129;1.0252;
148.8000;1.2137;1.0328;
149.1000;1.2120;1.0303;
149.4000;1.2161;1.0378;
149.7000;1.2153;1.0403;
150.0000;1.2112;1.0303;
150.3000;1.2104;1.0252;
150.6000;1.2137;1.0252;
150.9000;1.2145;1.0303;
151.2000;1.2120;1.0252;
151.5000;1.2120;1.0227;
151.8000;1.2137;1.0202;
152.1000;1.2137;1.0202;
152.4000;1.2137;1.0227;
152.7000;1.2120;1.0202;
153.0000;1.2120;1.0177;
153.3000;1.2145;1.0202;
153.6000;1.2161;1.0177;
153.9000;1.2120;1.0126;
154.2000;1.2137;1.0101;
154.5000;1.2161;1.0177;
154.8000;1.2137;1.0152;
155.1000;1.2129;1.0101;
155.4000;1.2145;1.0051;
155.7000;1.2145;1.0051;
156.0000;1.2137;1.0076;
156.3000;1.2129;1.0152;
156.6000;1.2129;1.0177;
156.9000;1.2137;1.0202;
157.2000;1.2129;1.0202;
157.5000;1.2137;1.0202;
157.8000;1.2137;1.0126;
158.1000;1.2129;1.0177;
158.4000;1.2145;1.0202;
158.7000;1.2161;1.0278;
159.0000;1.2153;1.0303;
159.3000;1.2120;1.0278;
159.6000;1.2137;1.0202;
159.9000;1.2120;1.0278;
160.2000;1.2129;1.0202;
160.5000;1.2129;1.0126;
160.8000;1.2137;1.0051;
161.1000;1.2145;1.0126;
161.4000;1.2129;1.0026;
161.7000;1.2112;1.0026;
162.0000;1.2129;1.0026;
162.3000;1.2137;1.0026;
162.6000;1.2129;1.0051;
162.9000;1.2129;1.0126;
163.2000;1.2129;1.0126;
163.5000;1.2145;1.0202;
163.8000;1.2161;1.0152;
164.1000;1.2161;1.0126;
164.4000;1.2104;0.9975;
164.7000;1.2129;1.0051;
165.0000;1.2104;1.0026;
165.3000;1.2112;0.9975;
165.6000;1.2137;0.9950;
165.9000;1.2137;0.9975;
166.2000;1.2137;1.0051;
166.5000;1.2129;1.0026;
166.8000;1.2120;0.9950;
167.1000;1.2137;1.0000;
167.4000;1.2137;0.9975;
167.7000;1.2137;1.0051;
168.0000;1.2129;1.0126;
168.3000;1.2112;1.0026;
168.6000;1.2137;1.0101;
168.9000;1.2145;1.0152;
169.2000;1.2120;1.0101;
169.5000;1.2120;1.0051;
169.8000;1.2129;1.0051;
170.1000;1.2129;1.0126;
170.4000;1.2161;1.0252;
170.7000;1.2161;1.0202;
171.0000;1.2153;1.0202;
171.3000;1.2145;1.0227;
171.6000;1.2137;1.0152;
171.9000;1.2145;1.0227;
172.2000;1.2153;1.0202;
172.5000;1.2145;1.0202;
172.8000;1.2129;1.0202;
173.1000;1.2145;1.0252;
173.4000;1.2129;1.0278;
173.7000;1.2129;1.0353;
174.0000;1.2120;1.0303;
174.3000;1.2137;1.0278;
174.6000;1.2129;1.0278;
174.9000;1.2169;1.0403;
175.2000;1.2129;1.0303;
175.5000;1.2129;1.0303;
175.8000;1.2112;1.0202;
176.1000;1.2120;1.0152;
176.4000;1.2137;1.0126;
176.7000;1.2137;1.0152;
177.0000;1.2120;1.0126;
177.3000;1.2129;1.0076;
177.6000;1.2129;1.0101;
177.9000;1.2112;1.0101;
178.2000;1.2161;1.0252;
178.5000;1.2129;1.0227;
178.8000;1.2129;1.0252;
179.1000;1.2120;1.0202;
179.4000;1.2112;1.0177;
179.7000;1.2104;1.0076;
180.0000;1.2120;1.0101;
180.3000;1.2120;1.0076;
180.6000;1.2112;1.0051;
180.9000;1.2129;1.0051;
181.2000;1.2120;1.0152;
181.5000;1.2161;1.0252;
181.8000;1.2145;1.0227;
182.1000;1.2129;1.0202;
182.4000;1.2137;1.0177;
182.7000;1.2145;1.0177;
183.0000;1.2112;1.0227;
183.3000;1.2120;1.0227;
183.6000;1.2112;1.0177;
183.9000;1.2129;1.0126;
184.2000;1.2129;1.0051;
184.5000;1.2104;0.9975;
184.8000;1.2096;1.0026;
185.1000;1.2129;1.0076;
185.4000;1.2129;1.0126;
185.7000;1.2120;1.0026;
186.0000;1.2120;0.9975;
186.3000;1.2137;1.0026;
186.6000;1.2129;1.0126;
186.9000;1.2120;1.0101;
187.2000;1.2120;1.0076;
187.5000;1.2112;1.0101;
187.8000;1.2129;1.0177;
188.1000;1.2129;1.0202;
188.4000;1.2120;1.0177;
188.7000;1.2039;0.9925;
189.0000;1.2088;1.0026;
189.3000;1.2129;1.0101;
189.6000;1.2088;0.9975;
189.9000;1.2145;1.0126;
190.2000;1.2120;1.0101;
190.5000;1.2153;1.0227;
190.8000;1.2112;1.0126;
191.1000;1.2120;1.0227;
191.4000;1.2112;1.0278;
191.7000;1.2112;1.0328;
192.0000;1.2129;1.0252;
192.3000;1.2104;1.0202;
192.6000;1.2112;1.0252;
192.9000;1.2112;1.0252;
193.2000;1.2120;1.0152;
193.5000;1.2096;1.0000;
193.8000;1.2104;1.0026;
194.1000;1.2112;1.0152;
194.4000;1.2129;1.0126;
194.7000;1.2129;1.0126;
195.0000;1.2120;1.0101;
195.3000;1.2137;1.0202;
195.6000;1.2145;1.0202;
195.9000;1.2129;1.0152;
196.2000;1.2112;1.0076;
196.5000;1.2112;1.0101;
196.8000;1.2129;1.0051;
197.1000;1.2129;0.9950;
197.4000;1.2120;0.9900;
197.7000;1.2120;0.9950;
198.0000;1.2120;0.9950;
198.3000;1.2112;0.9950;
198.6000;1.2088;0.9849;
198.9000;1.2129;0.9950;
199.2000;1.2112;1.0051;
199.5000;1.2112;1.0101;
199.8000;1.2104;1.0051;
200.1000;1.2088;1.0076;
200.4000;1.2096;1.0076;
200.7000;1.2063;1.0000;
201.0000;1.2120;1.0177;
201.3000;1.2112;1.0177;
201.6000;1.2104;1.0177;
201.9000;1.2112;1.0152;
202.2000;1.2112;1.0152;
202.5000;1.2161;1.0202;
202.8000;1.2112;1.0126;
203.1000;1.2120;1.0101;
203.4000;1.2112;1.0126;
203.7000;1.2104;1.0177;
204.0000;1.2129;1.0152;
204.3000;1.2112;1.0076;
204.6000;1.2120;1.0126;
204.9000;1.2112;1.0227;
205.2000;1.2120;1.0227;
205.5000;1.2120;1.0278;
205.8000;1.2129;1.0177;
206.1000;1.2129;1.0152;
206.4000;1.2104;1.0126;
206.7000;1.2129;1.0202;
207.0000;1.2112;1.0101;
207.3000;1.2120;1.0051;
207.6000;1.2112;1.0076;
207.9000;1.2112;1.0026;
208.2000;1.2104;1.0076;
208.5000;1.2112;1.0051;
208.8000;1.2096;1.0000;
209.1000;1.2120;1.0076;
209.4000;1.2112;1.0152;
209.7000;1.2112;1.0202;
210.0000;1.2120;1.0126;
210.3000;1.2120;1.0101;
210.6000;1.2129;1.0076;
210.9000;1.2120;1.0076;
211.2000;1.2112;1.0051;
211.5000;1.2104;1.0051;
211.8000;1.2112;1.0126;
212.1000;1.2137;1.0101;
212.4000;1.2129;1.0101;
212.7000;1.2112;1.0026;
213.0000;1.2112;1.0076;
213.3000;1.2112;1.0177;
213.6000;1.2104;1.0126;
213.9000;1.2112;1.0152;
214.2000;1.2096;1.0177;
214.5000;1.2112;1.0252;
214.8000;1.2112;1.0252;
215.1000;1.2104;1.0152;
215.4000;1.2112;1.0227;
215.7000;1.2129;1.0353;
216.0000;1.2120;1.0328;
216.3000;1.2112;1.0328;
216.6000;1.2104;1.0353;
216.9000;1.2104;1.0328;
217.2000;1.2120;1.0252;
217.5000;1.2120;1.0252;
217.8000;1.2104;1.0227;
218.1000;1.2096;1.0126;
218.4000;1.2104;1.0152;
218.7000;1.2080;1.0126;
219.0000;1.2104;1.0202;
219.3000;1.2104;1.0227;
219.6000;1.2080;1.0202;
219.9000;1.2112;1.0227;
220.2000;1.2129;1.0252;
220.5000;1.2080;1.0227;
220.8000;1.2112;1.0378;
221.1000;1.2104;1.0378;
221.4000;1.2072;1.0177;
221.7000;1.2096;1.0227;
222.0000;1.2096;1.0152;
222.3000;1.2112;1.0202;
222.6000;1.2112;1.0177;
222.9000;1.2104;1.0076;
223.2000;1.2112;1.0177;
223.5000;1.2112;1.0126;
223.8000;1.2112;1.0152;
224.1000;1.2096;1.0126;
224.4000;1.2088;1.0126;
224.7000;1.2104;1.0177;
225.0000;1.2104;1.0202;
225.3000;1.2104;1.0252;
225.6000;1.2096;1.0252;
225.9000;1.2112;1.0303;
226.2000;1.2104;1.0278;
226.5000;1.2129;1.0303;
226.8000;1.2104;1.0177;
227.1000;1.2096;1.0177;
227.4000;1.2120;1.0227;
227.7000;1.2104;1.0152;
228.0000;1.2096;1.0152;
228.3000;1.2080;1.0101;
228.6000;1.2153;1.0303;
228.9000;1.2104;1.0177;
229.2000;1.2088;1.0177;
229.5000;1.2088;1.0076;
229.8000;1.2096;1.0051;
230.1000;1.2112;1.0126;
230.4000;1.2104;1.0152;
230.7000;1.2104;1.0126;
231.0000;1.2096;1.0227;
231.3000;1.2104;1.0278;
231.6000;1.2104;1.0252;
231.9000;1.2096;1.0303;
232.2000;1.2096;1.0278;
232.5000;1.2104;1.0252;
232.8000;1.2104;1.0252;
233.1000;1.2096;1.0202;
233.4000;1.2088;1.0177;
233.7000;1.2112;1.0152;
234.0000;1.2120;1.0177;
234.3000;1.2096;1.0076;
234.6000;1.2104;1.0076;
234.9000;1.2112;1.0051;
235.2000;1.2104;1.0051;
235.5000;1.2096;1.0101;
235.8000;1.2104;1.0152;
236.1000;1.2104;1.0252;
236.4000;1.2104;1.0328;
236.7000;1.2112;1.0252;
237.0000;1.2120;1.0177;
237.3000;1.2096;1.0076;
237.6000;1.2096;1.0000;
237.9000;1.2096;1.0000;
238.2000;1.2088;0.9900;
238.5000;1.2096;0.9925;
238.8000;1.2096;0.9900;
239.1000;1.2104;0.9950;
239.4000;1.2055;0.9900;
239.7000;1.2080;1.0101;
240.0000;1.2104;1.0177;
240.3000;1.2112;1.0126;
240.6000;1.2104;1.0252;
240.9000;1.2072;1.0126;
241.2000;1.2096;1.0227;
241.5000;1.2104;1.0202;
241.8000;1.2096;1.0126;
242.1000;1.2104;1.0101;
242.4000;1.2104;1.0101;
242.7000;1.2080;1.0076;
243.0000;1.2096;1.0051;
243.3000;1.2120;1.0026;
243.6000;1.2039;0.9849;
243.9000;1.2080;0.9950;
244.2000;1.2088;0.9950;
244.5000;1.2088;1.0026;
244.8000;1.2096;0.9925;
245.1000;1.2055;0.9849;
245.4000;1.2104;0.9975;
245.7000;1.2104;1.0051;
246.0000;1.2072;1.0000;
246.3000;1.2137;1.0328;
246.6000;1.2096;1.0303;
246.9000;1.2120;1.0303;
247.2000;1.2104;1.0202;
247.5000;1.2120;1.0202;
247.8000;1.2112;1.0202;
248.1000;1.2112;1.0177;
248.4000;1.2072;1.0101;
248.7000;1.2096;1.0177;
249.0000;1.2120;1.0227;
249.3000;1.2104;1.0278;
249.6000;1.2112;1.0202;
249.9000;1.2120;1.0202;
250.2000;1.2120;1.0227;
250.5000;1.2055;1.0026;
250.8000;1.2104;1.0152;
251.1000;1.2088;1.0126;
251.4000;1.2096;1.0227;
251.7000;1.2104;1.0126;
252.0000;1.2088;1.0177;
252.3000;1.2112;1.0202;
252.6000;1.2112;1.0177;
252.9000;1.2104;1.0252;
253.2000;1.2088;1.0177;
253.5000;1.2096;1.0177;
253.8000;1.2088;1.0152;
254.1000;1.2096;1.0152;
254.4000;1.2104;1.0126;
254.7000;1.2104;1.0126;
255.0000;1.2088;1.0152;
255.3000;1.2120;1.0177;
255.6000;1.2088;1.0051;
255.9000;1.2088;1.0000;
256.2000;1.2088;1.0000;
256.5000;1.2088;1.0000;
256.8000;1.2104;1.0076;
257.1000;1.2137;1.0177;
257.4000;1.2104;1.0076;
257.7000;1.2096;1.0126;
258.0000;1.2104;1.0101;
258.3000;1.2096;1.0202;
258.6000;1.2063;1.0152;
258.9000;1.2104;1.0252;
259.2000;1.2129;1.0303;
259.5000;1.2104;1.0152;
259.8000;1.2161;1.0278;
260.1000;1.2080;1.0076;
260.4000;1.2120;1.0152;
260.7000;1.2137;1.0227;
261.0000;1.2104;1.0252;
261.3000;1.2031;1.0202;
261.6000;1.2088;1.0378;
261.9000;1.2088;1.0328;
262.2000;1.2104;1.0378;
262.5000;1.2096;1.0353;
262.8000;1.2104;1.0328;
263.1000;1.2104;1.0353;
263.4000;1.2145;1.0353;
263.7000;1.2072;1.0152;
264.0000;1.2129;1.0303;
264.3000;1.2112;1.0252;
264.6000;1.2096;1.0202;
264.9000;1.2088;1.0303;
265.2000;1.2080;1.0227;
265.5000;1.2096;1.0227;
265.8000;1.2112;1.0252;
266.1000;1.2096;1.0278;
266.4000;1.2104;1.0252;
266.7000;1.2088;1.0278;
267.0000;1.2137;1.0403;
267.3000;1.2096;1.0303;
267.6000;1.2080;1.0303;
267.9000;1.2096;1.0328;
268.2000;1.2112;1.0278;
268.5000;1.2088;1.0303;
268.8000;1.2088;1.0278;
269.1000;1.2096;1.0227;
269.4000;1.2112;1.0303;
269.7000;1.2104;1.0252;
270.0000;1.2088;1.0202;
270.3000;1.2088;1.0202;
270.6000;1.2096;1.0177;
270.9000;1.2096;1.0227;
271.2000;1.2080;1.0227;
271.5000;1.2088;1.0227;
271.8000;1.2088;1.0126;
272.1000;1.2104;1.0126;
272.4000;1.2112;1.0202;
272.7000;1.2104;1.0328;
273.0000;1.2088;1.0303;
273.3000;1.2096;1.0278;
273.6000;1.2080;1.0202;
273.9000;1.2096;1.0278;
274.2000;1.2096;1.0278;
274.5000;1.2072;1.0227;
274.8000;1.2080;1.0252;
275.1000;1.2104;1.0227;
275.4000;1.2088;1.0177;
275.7000;1.2080;1.0202;
276.0000;1.2096;1.0278;
276.3000;1.2096;1.0202;
276.6000;1.2039;1.0126;
276.9000;1.2080;1.0278;
277.2000;1.2096;1.0177;
277.5000;1.2063;1.0101;
277.8000;1.2104;1.0152;
278.1000;1.2088;1.0076;
278.4000;1.2096;1.0051;
278.7000;1.2088;1.0126;
279.0000;1.2088;1.0177;
279.3000;1.2072;1.0202;
279.6000;1.2088;1.0278;
279.9000;1.2080;1.0227;
280.2000;1.2080;1.0278;
280.5000;1.2072;1.0202;
280.8000;1.2088;1.0202;
281.1000;1.2088;1.0152;
281.4000;1.2080;1.0252;
281.7000;1.2072;1.0278;
282.0000;1.2088;1.0278;
282.3000;1.2096;1.0328;
282.6000;1.2072;1.0278;
282.9000;1.2047;1.0252;
283.2000;1.2080;1.0177;
283.5000;1.2096;1.0101;
283.8000;1.2096;1.0101;
284.1000;1.2096;1.0177;
284.4000;1.2088;1.0252;
284.7000;1.2088;1.0177;
285.0000;1.2112;1.0126;
285.3000;1.2088;1.0026;
285.6000;1.2080;1.0076;
285.9000;1.2096;1.0126;
286.2000;1.2072;1.0000;
286.5000;1.2080;1.0101;
286.8000;1.2088;1.0026;
287.1000;1.2080;1.0076;
287.4000;1.2120;1.0152;
287.7000;1.2088;1.0051;
288.0000;1.2120;1.0177;
288.3000;1.2088;0.9975;
288.6000;1.2096;1.0000;
288.9000;1.2096;1.0101;
289.2000;1.2088;1.0101;
289.5000;1.2088;1.0101;
289.8000;1.2096;1.0076;
290.1000;1.2096;1.0101;
290.4000;1.2120;1.0177;
290.7000;1.2080;1.0101;
291.0000;1.2072;1.0152;
291.3000;1.2088;1.0227;
291.6000;1.2096;1.0202;
291.9000;1.2096;1.0227;
292.2000;1.2169;1.0429;
292.5000;1.2072;1.0202;
292.8000;1.2072;1.0177;
293.1000;1.2080;1.0227;
293.4000;1.2137;1.0278;
293.7000;1.2088;1.0177;
294.0000;1.2104;1.0202;
294.3000;1.2088;1.0227;
294.6000;1.2088;1.0152;
294.9000;1.2112;1.0202;
295.2000;1.2088;1.0177;
295.5000;1.2112;1.0227;
295.8000;1.2080;1.0152;
296.1000;1.2104;1.0303;
296.4000;1.2088;1.0328;
296.7000;1.2047;1.0202;
297.0000;1.2072;1.0227;
297.3000;1.2055;1.0278;
297.6000;1.2088;1.0303;
297.9000;1.2096;1.0353;
298.2000;1.2080;1.0303;
298.5000;1.2080;1.0227;
298.8000;1.2088;1.0252;
299.1000;1.2096;1.0252;
299.4000;1.2080;1.0252;
299.7000;1.2055;1.0202;
300.0000;1.2055;1.0353;
300.3000;1.2088;1.0403;
300.6000;1.2096;1.0328;
300.9000;1.2096;1.0278;
301.2000;1.2088;1.0278;
301.5000;1.2080;1.0202;
301.8000;1.2096;1.0177;
302.1000;1.2072;1.0101;
302.4000;1.2096;1.0076;
302.7000;1.2120;1.0076;
303.0000;1.2112;1.0101;
303.3000;1.2088;0.9950;
303.6000;1.2088;0.9950;
303.9000;1.2088;0.9950;
304.2000;1.2088;1.0051;
304.5000;1.2080;1.0076;
304.8000;1.2104;1.0126;
305.1000;1.2088;1.0152;
305.4000;1.2096;1.0152;
305.7000;1.2088;1.0051;
306.0000;1.2080;1.0076;
306.3000;1.2080;1.0051;
306.6000;1.2096;1.0126;
306.9000;1.2080;1.0076;
307.2000;1.2080;1.0026;
307.5000;1.2080;1.0000;
307.8000;1.2096;1.0000;
308.1000;1.2088;1.0026;
308.4000;1.2072;1.0026;
308.7000;1.2088;1.0000;
309.0000;1.2088;1.0000;
309.3000;1.2088;0.9950;
309.6000;1.2088;0.9950;
309.9000;1.2096;0.9950;
310.2000;1.2088;0.9975;
310.5000;1.2129;1.0076;
310.8000;1.2088;0.9950;
311.1000;1.2080;0.9900;
311.4000;1.2063;0.9849;
311.7000;1.2080;0.9900;
312.0000;1.2063;0.9925;
312.3000;1.2137;1.0000;
312.6000;1.2088;0.9824;
312.9000;1.2080;0.9799;
313.2000;1.2055;0.9698;
313.5000;1.2080;0.9824;
313.8000;1.2112;0.9925;
314.1000;1.2080;0.9950;
314.4000;1.2080;0.9975;
314.7000;1.2088;0.9975;
315.0000;1.2055;0.9925;
315.3000;1.2080;1.0026;
315.6000;1.2096;1.0101;
315.9000;1.2112;1.0177;
316.2000;1.2186;1.0353;
316.5000;1.2104;1.0177;
316.8000;1.2080;1.0202;
317.1000;1.2088;1.0202;
317.4000;1.2145;1.0353;
317.7000;1.2161;1.0278;
318.0000;1.2096;1.0126;
318.3000;1.2137;1.0278;
318.6000;1.2063;1.0051;
318.9000;1.2096;1.0026;
319.2000;1.2007;0.9824;
319.5000;1.2063;0.9900;
319.8000;1.2072;1.0026;
320.1000;1.2080;0.9975;
320.4000;1.2072;1.0026;
320.7000;1.2072;1.0026;
321.0000;1.2080;1.0076;
321.3000;1.2080;1.0051;
321.6000;1.2072;1.0101;
321.9000;1.2080;1.0152;
322.2000;1.2063;1.0076;
322.5000;1.2072;1.0076;
322.8000;1.2072;1.0076;
323.1000;1.2088;1.0126;
323.4000;1.2088;1.0126;
323.7000;1.2080;1.0126;
324.0000;1.2080;1.0227;
324.3000;1.2104;1.0278;
324.6000;1.2104;1.0328;
324.9000;1.2088;1.0353;
325.2000;1.2072;1.0328;
325.5000;1.2063;1.0278;
325.8000;1.2063;1.0177;
326.1000;1.2080;1.0202;
326.4000;1.2072;1.0227;
326.7000;1.2080;1.0152;
327.0000;1.2080;1.0177;
327.3000;1.2088;1.0202;
327.6000;1.2080;1.0177;
327.9000;1.2104;1.0202;
328.2000;1.2031;1.0051;
328.5000;1.2088;1.0076;
328.8000;1.2072;1.0026;
329.1000;1.2088;0.9950;
329.4000;1.2088;1.0000;
329.7000;1.2096;1.0026;
330.0000;1.2088;1.0076;
330.3000;1.2063;1.0101;
330.6000;1.2088;1.0076;
330.9000;1.2088;1.0051;
331.2000;1.2055;1.0101;
331.5000;1.2096;1.0177;
331.8000;1.2072;1.0126;
332.1000;1.2096;1.0202;
332.4000;1.2047;1.0051;
332.7000;1.2063;1.0202;
333.0000;1.2088;1.0252;
333.3000;1.2072;1.0202;
333.6000;1.2080;1.0152;
333.9000;1.2088;1.0152;
334.2000;1.2104;1.0177;
334.5000;1.2096;1.0202;
334.8000;1.2161;1.0429;
335.1000;1.2063;1.0278;
335.4000;1.2072;1.0252;
335.7000;1.2080;1.0227;
336.0000;1.2039;1.0126;
336.3000;1.2080;1.0202;
336.6000;1.2072;1.0101;
336.9000;1.2063;1.0126;
337.2000;1.2063;1.0202;
337.5000;1.2080;1.0278;
337.8000;1.2088;1.0227;
338.1000;1.2088;1.0252;
338.4000;1.2063;1.0227;
338.7000;1.2088;1.0303;
339.0000;1.2096;1.0378;
339.3000;1.2112;1.0378;
339.6000;1.2096;1.0252;
339.9000;1.2104;1.0252;
340.2000;1.2169;1.0403;
340.5000;1.2088;1.0177;
340.8000;1.2080;1.0177;
341.1000;1.2080;1.0126;
341.4000;1.2080;1.0202;
341.7000;1.2096;1.0252;
342.0000;1.2072;1.0152;
342.3000;1.2047;1.0126;
342.6000;1.2080;1.0177;
342.9000;1.2080;1.0252;
343.2000;1.2120;1.0353;
343.5000;1.2096;1.0252;
343.8000;1.2080;1.0152;
344.1000;1.2072;1.0101;
344.4000;1.2080;1.0252;
344.7000;1.2088;1.0303;
345.0000;1.2072;1.0378;
345.3000;1.2063;1.0429;
345.6000;1.2063;1.0504;
345.9000;1.2072;1.0529;
346.2000;1.2088;1.0429;
346.5000;1.2063;1.0479;
346.8000;1.2055;1.0454;
347.1000;1.2063;1.0403;
347.4000;1.2080;1.0403;
347.7000;1.2063;1.0227;
348.0000;1.2080;1.0252;
348.3000;1.2072;1.0278;
348.6000;1.2096;1.0227;
348.9000;1.2080;1.0278;
349.2000;1.2063;1.0252;
349.5000;1.2047;1.0252;
349.8000;1.2072;1.0303;
350.1000;1.2080;1.0328;
350.4000;1.2063;1.0328;
350.7000;1.2063;1.0303;
351.0000;1.2055;1.0303;
351.3000;1.2088;1.0328;
351.6000;1.2047;1.0202;
351.9000;1.2055;1.0126;
352.2000;1.2129;1.0328;
352.5000;1.2072;1.0227;
352.8000;1.2080;1.0278;
353.1000;1.2072;1.0252;
353.4000;1.2080;1.0303;
353.7000;1.2120;1.0454;
354.0000;1.2080;1.0378;
354.3000;1.2080;1.0353;
354.6000;1.2080;1.0353;
354.9000;1.2072;1.0252;
355.2000;1.2072;1.0278;
355.5000;1.2063;1.0202;
355.8000;1.2080;1.0278;
356.1000;1.2072;1.0252;
356.4000;1.2145;1.0429;
356.7000;1.2047;1.0328;
357.0000;1.2055;1.0403;
357.3000;1.2063;1.0429;
357.6000;1.2088;1.0479;
357.9000;1.2088;1.0454;
358.2000;1.2063;1.0353;
358.5000;1.2080;1.0378;
358.8000;1.2104;1.0479;
359.1000;1.2072;1.0429;
359.4000;1.2096;1.0504;
359.7000;1.2055;1.0303;
360.0000;1.2080;1.0353;
360.3000;1.2080;1.0353;
360.6000;1.2080;1.0353;
360.9000;1.2047;1.0328;
361.2000;1.2080;1.0303;
361.5000;1.2080;1.0278;
361.8000;1.2063;1.0278;
362.1000;1.2063;1.0252;
362.4000;1.2072;1.0252;
362.7000;1.2072;1.0278;
363.0000;1.2088;1.0303;
363.3000;1.2063;1.0278;
363.6000;1.2063;1.0303;
363.9000;1.2072;1.0252;
364.2000;1.2072;1.0252;
364.5000;1.2080;1.0252;
364.8000;1.2080;1.0202;
365.1000;1.2080;1.0177;
365.4000;1.2072;1.0126;
365.7000;1.2055;1.0051;
366.0000;1.2080;1.0152;
366.3000;1.2088;1.0177;
366.6000;1.2080;1.0227;
366.9000;1.2072;1.0252;
367.2000;1.2063;1.0303;
367.5000;1.2080;1.0303;
367.8000;1.2080;1.0328;
368.1000;1.2088;1.0303;
368.4000;1.2072;1.0152;
368.7000;1.2072;1.0202;
369.0000;1.2080;1.0152;
369.3000;1.2072;1.0026;
369.6000;1.2072;1.0026;
369.9000;1.2063;1.0026;
370.2000;1.2072;1.0126;
370.5000;1.2063;1.0227;
370.8000;1.2072;1.0202;
371.1000;1.2063;1.0202;
371.4000;1.2072;1.0227;
371.7000;1.2055;1.0101;
372.0000;1.2055;1.0051;
372.3000;1.2072;1.0051;
372.6000;1.2063;1.0051;
372.9000;1.2063;1.0000;
373.2000;1.2072;1.0026;
373.5000;1.2063;1.0076;
373.8000;1.2063;1.0126;
374.1000;1.2063;1.0101;
374.4000;1.2072;1.0177;
374.7000;1.2153;1.0403;
375.0000;1.2080;1.0252;
375.3000;1.2088;1.0303;
375.6000;1.2104;1.0353;
375.9000;1.2072;1.0227;
376.2000;1.2007;1.0101;
376.5000;1.2072;1.0252;
376.8000;1.2072;1.0202;
377.1000;1.2063;1.0177;
377.4000;1.2063;1.0177;
377.7000;1.2072;1.0177;
378.0000;1.2063;1.0152;
378.3000;1.2137;1.0303;
378.6000;1.2055;1.0126;
378.9000;1.2039;1.0051;
379.2000;1.2072;1.0076;
379.5000;1.2063;1.0051;
379.8000;1.2063;1.0051;
380.1000;1.2063;1.0026;
380.4000;1.2063;1.0051;
380.7000;1.2072;0.9950;
381.0000;1.2072;0.9950;
381.3000;1.2055;0.9925;
381.6000;1.2072;0.9950;
381.9000;1.2055;0.9925;
382.2000;1.2063;0.9900;
382.5000;1.2055;0.9799;
382.8000;1.2023;0.9723;
383.1000;1.2080;0.9925;
383.4000;1.2072;0.9975;
383.7000;1.2072;1.0051;
384.0000;1.2023;0.9950;
384.3000;1.2072;1.0101;
384.6000;1.2120;1.0202;
384.9000;1.2063;1.0076;
385.2000;1.2047;1.0000;
385.5000;1.2096;1.0101;
385.8000;1.2080;1.0026;
386.1000;1.2055;0.9900;
386.4000;1.2063;1.0000;
386.7000;1.2072;1.0000;
387.0000;1.2063;1.0051;
387.3000;1.2080;1.0076;
387.6000;1.2080;1.0076;
387.9000;1.2063;1.0026;
388.2000;1.2080;1.0101;
388.5000;1.2072;1.0101;
388.8000;1.2055;1.0076;
389.1000;1.2080;1.0101;
389.4000;1.2063;1.0101;
389.7000;1.2063;1.0000;
390.0000;1.2080;1.0026;
390.3000;1.2063;1.0051;
390.6000;1.2063;1.0051;
390.9000;1.2063;0.9975;
391.2000;1.2063;0.9950;
391.5000;1.2007;0.9799;
391.8000;1.2063;1.0051;
392.1000;1.2047;1.0026;
392.4000;1.2055;1.0026;
392.7000;1.1990;0.9900;
393.0000;1.2055;1.0101;
393.3000;1.2072;1.0126;
393.6000;1.2047;1.0126;
393.9000;1.2072;1.0152;
394.2000;1.2072;1.0126;
394.5000;1.2080;1.0101;
394.8000;1.2072;1.0076;
395.1000;1.2080;1.0101;
395.4000;1.2047;1.0026;
395.7000;1.2072;1.0126;
396.0000;1.2063;1.0101;
396.3000;1.2031;1.0026;
396.6000;1.2055;1.0152;
396.9000;1.2055;1.0278;
397.2000;1.2047;1.0227;
397.5000;1.2063;1.0177;
397.8000;1.2072;1.0328;
398.1000;1.2088;1.0328;
398.4000;1.2072;1.0378;
398.7000;1.2055;1.0202;
399.0000;1.2047;1.0278;
399.3000;1.2047;1.0353;
399.6000;1.2031;1.0303;
399.9000;1.2072;1.0328;
400.2000;1.2023;1.0202;
400.5000;1.2055;1.0227;
400.8000;1.2063;1.0278;
401.1000;1.2023;1.0177;
401.4000;1.2120;1.0378;
401.7000;1.2063;1.0303;
402.0000;1.2023;1.0227;
402.3000;1.2063;1.0328;
402.6000;1.2047;1.0278;
402.9000;1.2096;1.0278;
403.2000;1.2055;1.0152;
403.5000;1.2055;1.0152;
403.8000;1.2055;1.0227;
404.1000;1.2039;1.0177;
404.4000;1.2088;1.0278;
404.7000;1.2080;1.0227;
405.0000;1.2055;1.0202;
405.3000;1.2047;1.0152;
405.6000;1.2055;1.0126;
405.9000;1.2047;1.0101;
406.2000;1.2080;1.0126;
406.5000;1.2055;1.0126;
406.8000;1.2063;1.0126;
407.1000;1.2047;1.0076;
407.4000;1.2194;1.0504;
407.7000;1.2063;1.0126;
408.0000;1.2023;1.0026;
408.3000;1.2047;1.0177;
408.6000;1.2063;1.0152;
408.9000;1.2047;1.0076;
409.2000;1.2039;1.0051;
409.5000;1.2055;1.0126;
409.8000;1.2063;1.0126;
410.1000;1.2063;1.0076;
410.4000;1.2047;1.0101;
410.7000;1.2055;1.0101;
411.0000;1.2039;1.0126;
411.3000;1.2055;1.0177;
411.6000;1.2031;1.0126;
411.9000;1.2039;1.0051;
412.2000;1.2047;1.0152;
412.5000;1.1998;1.0101;
412.8000;1.2063;1.0278;
413.1000;1.2047;1.0227;
413.4000;1.2047;1.0202;
413.7000;1.2055;1.0278;
414.0000;1.2031;1.0202;
414.3000;1.2055;1.0177;
414.6000;1.2063;1.0227;
414.9000;1.2055;1.0227;
415.2000;1.2055;1.0278;
415.5000;1.2063;1.0303;
415.8000;1.2063;1.0278;
416.1000;1.2039;1.0227;
416.4000;1.2055;1.0126;
416.7000;1.2072;1.0177;
417.0000;1.2072;1.0152;
417.3000;1.2063;1.0177;
417.6000;1.2129;1.0403;
417.9000;1.2080;1.0227;
418.2000;1.2072;1.0278;
418.5000;1.2063;1.0076;
418.8000;1.2055;1.0051;
419.1000;1.2055;1.0076;
419.4000;1.2047;1.0101;
419.7000;1.2055;1.0126;
420.0000;1.2063;1.0051;
420.3000;1.2047;1.0076;
420.6000;1.2072;1.0152;
420.9000;1.2072;1.0126;
421.2000;1.2072;1.0227;
421.5000;1.2039;1.0126;
421.8000;1.2055;1.0152;
422.1000;1.2055;1.0126;
422.4000;1.2039;1.0152;
422.7000;1.2063;1.0227;
423.0000;1.2080;1.0378;
423.3000;1.2063;1.0328;
423.6000;1.2047;1.0378;
423.9000;1.2072;1.0429;
424.2000;1.2072;1.0403;
424.5000;1.2047;1.0378;
424.8000;1.2047;1.0303;
425.1000;1.2055;1.0303;
425.4000;1.2047;1.0303;
425.7000;1.2039;1.0227;
426.0000;1.2129;1.0454;
426.3000;1.2063;1.0328;
426.6000;1.2031;1.0152;
426.9000;1.2063;1.0202;
427.2000;1.2063;1.0126;
427.5000;1.2055;1.0177;
427.8000;1.2063;1.0177;
428.1000;1.2047;1.0126;
428.4000;1.1998;1.0101;
428.7000;1.2031;1.0227;
429.0000;1.2047;1.0252;
429.3000;1.2039;1.0252;
429.6000;1.2047;1.0177;
429.9000;1.2039;1.0202;
430.2000;1.2063;1.0252;
430.5000;1.2055;1.0252;
430.8000;1.2047;1.0177;
431.1000;1.2047;1.0152;
431.4000;1.2063;1.0126;
431.7000;1.2072;1.0202;
432.0000;1.2055;1.0202;
432.3000;1.2055;1.0202;
432.6000;1.2063;1.0202;
432.9000;1.2072;1.0328;
433.2000;1.2063;1.0353;
433.5000;1.1958;1.0076;
433.8000;1.2055;1.0303;
434.1000;1.2055;1.0328;
434.4000;1.2047;1.0328;
434.7000;1.2055;1.0252;
435.0000;1.2055;1.0227;
435.3000;1.2055;1.0252;
435.6000;1.2055;1.0227;
435.9000;1.2031;1.0051;
436.2000;1.2023;0.9900;
436.5000;1.2055;0.9900;
436.8000;1.2104;0.9925;
437.1000;1.2063;0.9849;
437.4000;1.2055;0.9950;
437.7000;1.2055;0.9975;
438.0000;1.2063;0.9975;
438.3000;1.2055;1.0051;
438.6000;1.2047;1.0076;
438.9000;1.2088;1.0101;
439.2000;1.2063;1.0152;
439.5000;1.2063;1.0152;
439.8000;1.2039;1.0152;
440.1000;1.2015;1.0152;
440.4000;1.2063;1.0278;
440.7000;1.2055;1.0252;
441.0000;1.2047;1.0177;
441.3000;1.2055;1.0177;
441.6000;1.2055;1.0101;
441.9000;1.2055;1.0026;
442.2000;1.2055;0.9975;
442.5000;1.2055;0.9975;
442.8000;1.2055;0.9950;
443.1000;1.2047;0.9925;
443.4000;1.2055;0.9849;
443.7000;1.2039;0.9849;
444.0000;1.2039;0.9799;
444.3000;1.2055;0.9874;
444.6000;1.2047;0.9975;
444.9000;1.2039;0.9925;
445.2000;1.2031;0.9900;
445.5000;1.2015;0.9849;
445.8000;1.2047;0.9975;
446.1000;1.2047;1.0000;
446.4000;1.2039;0.9925;
446.7000;1.2047;0.9925;
447.0000;1.1990;0.9749;
447.3000;1.2055;0.9925;
447.6000;1.2055;1.0026;
447.9000;1.2055;0.9975;
448.2000;1.2055;0.9925;
448.5000;1.2055;0.9950;
448.8000;1.2047;0.9975;
449.1000;1.2039;0.9975;
449.4000;1.2047;0.9975;
449.7000;1.2047;1.0000;
450.0000;1.2063;1.0000;
450.3000;1.2047;0.9975;
450.6000;1.2047;0.9975;
450.9000;1.2047;0.9975;
451.2000;1.2063;1.0051;
451.5000;1.2055;1.0000;
451.8000;1.2055;0.9874;
452.1000;1.2072;0.9975;
452.4000;1.2039;0.9900;
452.7000;1.2047;0.9900;
453.0000;1.2055;0.9950;
453.3000;1.2063;0.9950;
453.6000;1.2055;0.9975;
453.9000;1.2039;0.9975;
454.2000;1.2039;1.0000;
454.5000;1.2039;0.9975;
454.8000;1.2072;1.0076;
455.1000;1.2039;1.0051;
455.4000;1.2039;1.0101;
455.7000;1.2047;1.0126;
456.0000;1.2047;1.0076;
456.3000;1.2055;1.0051;
456.6000;1.2055;1.0076;
456.9000;1.2039;1.0101;
457.2000;1.2063;1.0227;
457.5000;1.2120;1.0328;
457.8000;1.2055;1.0177;
458.1000;1.2047;1.0152;
458.4000;1.2055;1.0126;
458.7000;1.2047;1.0101;
459.0000;1.2039;1.0202;
459.3000;1.2063;1.0252;
459.6000;1.2063;1.0252;
459.9000;1.2047;1.0126;
460.2000;1.2063;1.0202;
460.5000;1.2007;1.0126;
460.8000;1.2047;1.0303;
461.1000;1.2047;1.0202;
461.4000;1.2047;1.0202;
461.7000;1.2039;1.0227;
462.0000;1.2063;1.0278;
462.3000;1.2055;1.0278;
462.6000;1.2063;1.0353;
462.9000;1.2055;1.0278;
463.2000;1.2055;1.0328;
463.5000;1.2055;1.0328;
463.8000;1.2039;1.0227;
464.1000;1.2031;1.0152;
464.4000;1.2120;1.0328;
464.7000;1.2047;1.0202;
465.0000;1.2055;1.0227;
465.3000;1.2039;1.0202;
465.6000;1.2039;1.0177;
465.9000;1.2031;1.0177;
466.2000;1.2031;1.0177;
466.5000;1.2047;1.0227;
466.8000;1.2023;1.0126;
467.1000;1.2047;1.0227;
467.4000;1.2055;1.0202;
467.7000;1.2039;1.0202;
468.0000;1.2047;1.0076;
468.3000;1.2039;1.0126;
468.6000;1.2063;1.0152;
468.9000;1.2055;1.0076;
469.2000;1.2063;1.0000;
469.5000;1.2015;0.9900;
469.8000;1.2047;1.0076;
470.1000;1.2039;0.9900;
470.4000;1.2023;0.9900;
470.7000;1.2039;0.9874;
471.0000;1.2055;0.9975;
471.3000;1.2063;1.0051;
471.6000;1.2063;1.0126;
471.9000;1.2039;1.0026;
472.2000;1.2047;1.0152;
472.5000;1.2055;1.0177;
472.8000;1.2031;1.0126;
473.1000;1.2031;1.0101;
473.4000;1.2039;1.0177;
473.7000;1.2039;1.0101;
474.0000;1.2039;1.0126;
474.3000;1.2015;0.9975;
474.6000;1.2047;1.0051;
474.9000;1.2031;1.0000;
475.2000;1.2031;1.0000;
475.5000;1.2039;0.9975;
475.8000;1.2047;0.9975;
476.1000;1.2063;1.0126;
476.4000;1.2055;1.0126;
476.7000;1.2047;1.0278;
477.0000;1.2031;1.0328;
477.3000;1.2047;1.0353;
477.6000;1.2023;1.0227;
477.9000;1.2039;1.0152;
478.2000;1.2047;1.0101;
478.5000;1.2047;1.0126;
478.8000;1.2047;1.0101;
479.1000;1.2055;1.0152;
479.4000;1.2047;1.0101;
479.7000;1.2039;1.0152;
480.0000;1.2055;1.0227;
480.3000;1.2031;1.0252;
480.6000;1.2039;1.0227;
480.9000;1.2047;1.0227;
481.2000;1.2055;1.0227;
481.5000;1.2129;1.0454;
481.8000;1.2055;1.0227;
482.1000;1.2055;1.0278;
482.4000;1.2055;1.0227;
482.7000;1.2063;1.0303;
483.0000;1.2055;1.0202;
483.3000;1.2047;1.0177;
483.6000;1.2055;1.0202;
483.9000;1.2023;1.0126;
484.2000;1.2063;1.0152;
484.5000;1.2055;1.0177;
484.8000;1.2023;1.0126;
485.1000;1.2023;1.0076;
485.4000;1.2039;1.0126;
485.7000;1.2023;1.0051;
486.0000;1.2031;1.0026;
486.3000;1.2129;1.0303;
486.6000;1.2047;1.0000;
486.9000;1.2031;0.9925;
487.2000;1.2039;0.9950;
487.5000;1.2039;0.9950;
487.8000;1.2055;1.0000;
488.1000;1.2055;0.9900;
488.4000;1.2047;0.9874;
488.7000;1.2047;0.9900;
489.0000;1.2063;1.0000;
489.3000;1.2063;1.0026;
489.6000;1.2047;1.0051;
489.9000;1.2039;1.0051;
490.2000;1.2031;0.9975;
490.5000;1.2047;1.0000;
490.8000;1.2039;1.0076;
491.1000;1.2031;1.0101;
491.4000;1.2039;1.0101;
491.7000;1.2063;1.0076;
492.0000;1.2072;1.0000;
492.3000;1.2072;0.9975;
492.6000;1.2007;0.9824;
492.9000;1.2055;1.0000;
493.2000;1.2039;1.0000;
493.5000;1.2039;1.0000;
493.8000;1.2031;1.0000;
494.1000;1.2031;0.9975;
494.4000;1.2072;1.0076;
494.7000;1.2039;0.9975;
495.0000;1.2023;0.9925;
495.3000;1.2023;0.9925;
495.6000;1.2047;1.0000;
495.9000;1.2047;1.0076;
496.2000;1.2039;1.0000;
496.5000;1.2031;1.0000;
496.8000;1.2039;1.0000;
497.1000;1.2023;0.9975;
497.4000;1.2055;1.0076;
497.7000;1.2031;1.0051;
498.0000;1.2047;1.0051;
498.3000;1.2039;1.0076;
498.6000;1.2039;1.0051;
498.9000;1.2023;1.0026;
499.2000;1.2023;0.9950;
499.5000;1.2023;1.0051;
499.8000;1.2031;1.0051;
500.1000;1.2007;1.0026;
500.4000;1.2015;1.0152;
500.7000;1.2031;1.0202;
501.0000;1.2047;1.0202;
501.3000;1.2031;1.0177;
501.6000;1.2039;1.0177;
501.9000;1.2031;1.0126;
502.2000;1.2047;1.0152;
502.5000;1.2015;1.0152;
502.8000;1.2047;1.0303;
503.1000;1.2055;1.0252;
503.4000;1.2047;1.0278;
503.7000;1.2039;1.0177;
504.0000;1.2047;1.0101;
504.3000;1.2015;1.0076;
504.6000;1.2039;1.0101;
504.9000;1.2031;1.0126;
505.2000;1.2031;1.0101;
505.5000;1.2039;1.0051;
505.8000;1.2047;1.0076;
506.1000;1.2104;1.0252;
506.4000;1.2031;1.0101;
506.7000;1.2031;1.0051;
507.0000;1.2039;1.0051;
507.3000;1.2031;0.9975;
507.6000;1.1998;0.9874;
507.9000;1.2023;0.9975;
508.2000;1.2072;1.0126;
508.5000;1.2031;1.0000;
508.8000;1.2031;1.0000;
509.1000;1.2031;1.0076;
509.4000;1.2047;1.0126;
509.7000;1.2063;1.0076;
510.0000;1.2023;0.9950;
510.3000;1.1982;0.9799;
510.6000;1.2039;0.9950;
510.9000;1.2039;0.9975;
511.2000;1.2039;0.9950;
511.5000;1.2039;0.9950;
511.8000;1.2047;1.0076;
512.1000;1.2015;1.0101;
512.4000;1.2031;1.0152;
512.7000;1.2039;1.0126;
513.0000;1.2039;1.0227;
513.3000;1.2055;1.0252;
513.6000;1.2031;1.0177;
513.9000;1.2023;1.0101;
514.2000;1.2031;1.0101;
514.5000;1.2055;1.0152;
514.8000;1.2055;1.0126;
515.1000;1.2031;1.0051;
515.4000;1.2023;1.0076;
515.7000;1.2039;1.0126;
516.0000;1.2039;1.0152;
516.3000;1.2031;1.0126;
516.6000;1.2015;1.0126;
516.9000;1.2031;1.0177;
517.2000;1.2031;1.0278;
517.5000;1.2047;1.0252;
517.8000;1.2039;1.0202;
518.1000;1.2039;1.0177;
518.4000;1.2039;1.0126;
518.7000;1.2031;1.0076;
519.0000;1.2023;1.0051;
519.3000;1.2031;1.0152;
519.6000;1.2023;1.0152;
519.9000;1.2039;1.0177;
520.2000;1.2031;1.0076;
520.5000;1.2031;1.0051;
520.8000;1.2039;1.0076;
521.1000;1.2039;1.0126;
521.4000;1.2007;1.0026;
521.7000;1.2031;1.0101;
522.0000;1.2031;1.0126;
522.3000;1.2039;1.0126;
522.6000;1.2055;1.0126;
522.9000;1.2023;1.0000;
523.2000;1.2031;1.0101;
523.5000;1.2047;1.0126;
523.8000;1.2047;1.0126;
524.1000;1.2047;1.0177;
524.4000;1.1950;0.9950;
524.7000;1.2047;1.0101;
525.0000;1.2039;1.0076;
525.3000;1.2039;1.0101;
525.6000;1.2047;1.0101;
525.9000;1.2007;0.9950;
526.2000;1.2031;1.0051;
526.5000;1.2023;1.0076;
526.8000;1.2023;1.0126;
527.1000;1.2015;1.0202;
527.4000;1.2015;1.0126;
527.7000;1.2007;1.0076;
528.0000;1.2039;1.0051;
528.3000;1.2031;1.0051;
528.6000;1.2055;1.0051;
528.9000;1.2039;1.0026;
529.2000;1.2039;1.0101;
529.5000;1.2031;1.0126;
529.8000;1.2031;1.0076;
530.1000;1.2023;0.9975;
530.4000;1.2031;1.0076;
530.7000;1.2015;1.0026;
531.0000;1.2031;1.0177;
531.3000;1.2031;1.0152;
531.6000;1.1998;1.0076;
531.9000;1.1941;1.0026;
532.2000;1.2039;1.0278;
532.5000;1.2015;1.0252;
532.8000;1.2023;1.0303;
533.1000;1.2023;1.0353;
533.4000;1.2023;1.0303;
533.7000;1.2007;1.0202;
534.0000;1.2031;1.0202;
534.3000;1.2023;1.0152;
534.6000;1.2039;1.0177;
534.9000;1.2055;1.0101;
535.2000;1.2031;0.9975;
535.5000;1.2031;1.0026;
535.8000;1.2023;1.0026;
536.1000;1.2007;1.0126;
536.4000;1.2039;1.0278;
536.7000;1.2031;1.0252;
537.0000;1.2023;1.0152;
537.3000;1.1990;1.0026;
537.6000;1.1990;1.0076;
537.9000;1.2031;1.0152;
538.2000;1.2039;1.0076;
538.5000;1.2031;1.0152;
538.8000;1.2023;1.0202;
539.1000;1.2007;1.0177;
539.4000;1.2015;1.0126;
539.7000;1.2023;1.0101;
540.0000;1.2047;1.0177;
540.3000;1.2015;1.0076;
540.6000;1.2039;1.0101;
540.9000;1.2015;1.0101;
541.2000;1.2015;1.0051;
541.5000;1.2047;1.0152;
541.8000;1.2031;1.0126;
542.1000;1.2031;1.0101;
542.4000;1.2023;1.0101;
542.7000;1.2039;1.0126;
543.0000;1.2120;1.0378;
543.3000;1.2039;1.0227;
543.6000;1.2015;1.0101;
543.9000;1.2039;1.0051;
544.2000;1.2047;1.0076;
544.5000;1.2047;1.0126;
544.8000;1.2031;1.0076;
545.1000;1.2047;1.0152;
545.4000;1.2039;1.0152;
545.7000;1.2023;1.0076;
546.0000;1.2047;1.0076;
546.3000;1.2088;1.0152;
546.6000;1.1998;1.0026;
546.9000;1.2015;1.0076;
547.2000;1.2023;1.0051;
547.5000;1.2031;1.0152;
547.8000;1.2039;1.0076;
548.1000;1.2031;1.0076;
548.4000;1.2039;1.0051;
548.7000;1.2023;0.9975;
549.0000;1.1998;0.9975;
549.3000;1.2023;1.0076;
549.6000;1.2015;1.0177;
549.9000;1.1990;1.0000;
550.2000;1.2015;1.0000;
550.5000;1.2015;1.0051;
550.8000;1.2015;1.0126;
551.1000;1.1998;1.0000;
551.4000;1.2015;1.0051;
551.7000;1.2031;1.0026;
552.0000;1.2023;0.9950;
552.3000;1.1998;0.9975;
552.6000;1.2007;1.0026;
552.9000;1.2055;1.0126;
553.2000;1.2023;1.0076;
553.5000;1.2015;1.0126;
553.8000;1.2015;1.0051;
554.1000;1.2015;1.0026;
554.4000;1.2047;1.0152;
554.7000;1.1998;0.9925;
555.0000;1.2015;0.9975;
555.3000;1.2023;0.9975;
555.6000;1.2015;0.9900;
555.9000;1.2023;0.9925;
556.2000;1.2015;0.9925;
556.5000;1.2015;0.9900;
556.8000;1.2023;0.9975;
557.1000;1.2015;0.9950;
557.4000;1.2015;0.9925;
557.7000;1.2023;0.9950;
558.0000;1.1998;0.9925;
558.3000;1.2023;1.0000;
558.6000;1.2023;0.9975;
558.9000;1.2007;0.9975;
559.2000;1.2023;0.9975;
559.5000;1.2031;1.0026;
559.8000;1.2023;0.9900;
560.1000;1.2039;0.9900;
560.4000;1.2039;0.9975;
560.7000;1.2031;1.0101;
561.0000;1.2015;1.0076;
561.3000;1.2015;1.0026;
561.6000;1.2039;1.0101;
561.9000;1.2031;1.0101;
562.2000;1.2015;1.0101;
562.5000;1.1998;1.0076;
562.8000;1.2015;1.0126;
563.1000;1.2039;1.0152;
563.4000;1.2007;1.0000;
563.7000;1.1925;0.9824;
564.0000;1.2023;1.0101;
564.3000;1.2055;1.0126;
564.6000;1.2047;1.0101;
564.9000;1.2015;1.0101;
565.2000;1.2023;1.0126;
565.5000;1.2023;1.0101;
565.8000;1.2015;1.0026;
566.1000;1.2023;1.0076;
566.4000;1.2023;1.0101;
566.7000;1.2015;1.0051;
567.0000;1.2007;1.0101;
567.3000;1.2015;0.9975;
567.6000;1.2015;0.9900;
567.9000;1.2015;0.9874;
568.2000;1.2031;0.9900;
568.5000;1.2015;0.9900;
568.8000;1.2039;1.0000;
569.1000;1.2031;0.9950;
569.4000;1.2007;0.9900;
569.7000;1.2031;0.9950;
570.0000;1.2015;0.9925;
570.3000;1.2031;1.0026;
570.6000;1.2031;1.0026;
570.9000;1.2023;1.0000;
571.2000;1.2015;0.9975;
571.5000;1.2023;1.0000;
571.8000;1.2023;1.0000;
572.1000;1.2031;1.0076;
572.4000;1.2015;1.0051;
572.7000;1.1982;0.9925;
573.0000;1.1998;1.0026;
573.3000;1.2015;1.0051;
573.6000;1.2023;1.0152;
573.9000;1.2023;1.0026;
574.2000;1.1998;0.9975;
574.5000;1.2015;1.0026;
574.8000;1.2007;1.0000;
575.1000;1.2015;0.9950;
575.4000;1.2015;0.9975;
575.7000;1.2023;1.0026;
576.0000;1.2007;0.9975;
576.3000;1.2015;0.9975;
576.6000;1.1998;0.9975;
576.9000;1.2007;1.0000;
577.2000;1.2096;1.0177;
577.5000;1.2007;0.9925;
577.8000;1.2007;0.9975;
578.1000;1.2007;0.9925;
578.4000;1.1990;0.9824;
578.7000;1.2007;0.9824;
579.0000;1.2023;0.9925;
579.3000;1.2023;0.9874;
579.6000;1.2031;0.9925;
579.9000;1.2039;0.9950;
580.2000;1.2023;0.9975;
580.5000;1.2023;0.9975;
580.8000;1.2023;1.0026;
581.1000;1.2047;1.0076;
581.4000;1.1990;0.9950;
581.7000;1.2023;1.0076;
582.0000;1.2031;1.0126;
582.3000;1.2039;1.0202;
582.6000;1.2015;1.0101;
582.9000;1.2023;1.0051;
583.2000;1.2007;0.9975;
583.5000;1.2023;1.0101;
583.8000;1.2055;1.0227;
584.1000;1.1982;1.0051;
584.4000;1.2007;1.0026;
584.7000;1.2096;1.0252;
585.0000;1.2015;1.0051;
585.3000;1.1982;0.9874;
585.6000;1.2023;1.0000;
585.9000;1.1998;1.0000;
586.2000;1.2104;1.0227;
586.5000;1.2023;1.0000;
586.8000;1.2031;0.9950;
587.1000;1.2031;1.0000;
587.4000;1.2015;1.0000;
587.7000;1.2063;1.0101;
588.0000;1.2007;0.9950;
588.3000;1.2023;1.0101;
588.6000;1.2023;1.0101;
588.9000;1.1990;0.9950;
589.2000;1.2015;0.9925;
589.5000;1.2007;0.9950;
589.8000;1.2023;0.9950;
590.1000;1.1941;0.9849;
590.4000;1.1990;1.0000;
590.7000;1.2007;1.0101;
591.0000;1.1998;1.0101;
591.3000;1.2088;1.0278;
591.6000;1.2007;0.9975;
591.9000;1.2063;1.0152;
592.2000;1.1990;0.9950;
592.5000;1.2007;0.9925;
592.8000;1.2023;1.0026;
593.1000;1.1998;0.9975;
593.4000;1.1998;1.0000;
593.7000;1.1966;0.9900;
594.0000;1.1998;0.9950;
594.3000;1.2007;1.0000;
594.6000;1.2015;1.0000;
594.9000;1.2031;0.9975;
595.2000;1.2023;1.0076;
595.5000;1.1998;1.0026;
595.8000;1.2007;1.0000;
596.1000;1.1982;0.9874;
596.4000;1.2015;1.0000;
596.7000;1.2007;0.9975;
597.0000;1.2007;1.0000;
597.3000;1.2007;0.9950;
597.6000;1.2039;1.0026;
597.9000;1.2007;0.9900;
598.2000;1.1998;0.9925;
598.5000;1.2007;0.9950;
598.8000;1.2007;0.9824;
599.1000;1.2007;0.9900;
599.4000;1.2015;0.9975;
599.7000;1.1982;0.9849;
600.0000;1.2015;0.9950;
600.3000;1.2007;0.9874;
600.6000;1.2063;0.9900;
600.9000;1.1950;0.9673;
601.2000;1.1917;0.9572;
601.5000;1.1787;0.9345;
601.8000;1.1673;0.9094;
602.1000;1.1575;0.8968;
602.4000;1.1543;0.9119;
602.7000;1.1372;0.8791;
603.0000;1.1282;0.8590;
603.3000;1.1160;0.8313;
603.6000;1.1103;0.8288;
603.9000;1.1022;0.8162;
604.2000;1.1005;0.8187;
604.5000;1.0883;0.7935;
604.8000;1.0802;0.7759;
605.1000;1.0761;0.7733;
605.4000;1.0688;0.7607;
605.7000;1.0615;0.7607;
606.0000;1.0558;0.7582;
606.3000;1.0525;0.7481;
606.6000;1.0435;0.7381;
606.9000;1.0403;0.7456;
607.2000;1.0379;0.7431;
607.5000;1.0289;0.7305;
607.8000;1.0224;0.7204;
608.1000;1.0216;0.7305;
608.4000;1.0118;0.7154;
608.7000;1.0085;0.7179;
609.0000;1.0053;0.7154;
609.3000;1.0012;0.7154;
609.6000;0.9947;0.7028;
609.9000;0.9906;0.6952;
610.2000;0.9890;0.6927;
610.5000;0.9849;0.6902;
610.8000;0.9760;0.6852;
611.1000;0.9703;0.6701;
611.4000;0.9719;0.6877;
611.7000;0.9646;0.6801;
612.0000;0.9613;0.6826;
612.3000;0.9589;0.6852;
612.6000;0.9548;0.6776;
612.9000;0.9499;0.6625;
613.2000;0.9499;0.6675;
613.5000;0.9467;0.6600;
613.8000;0.9434;0.6675;
614.1000;0.9402;0.6575;
614.4000;0.9369;0.6549;
614.7000;0.9312;0.6499;
615.0000;0.9288;0.6499;
615.3000;0.9247;0.6423;
615.6000;0.9247;0.6524;
615.9000;0.9214;0.6449;
616.2000;0.9182;0.6423;
616.5000;0.9149;0.6449;
616.8000;0.9133;0.6499;
617.1000;0.9101;0.6499;
617.4000;0.9060;0.6499;
617.7000;0.9044;0.6474;
618.0000;0.9027;0.6449;
618.3000;0.8995;0.6423;
618.6000;0.8978;0.6348;
618.9000;0.9003;0.6499;
619.2000;0.8938;0.6449;
619.5000;0.8921;0.6449;
619.8000;0.8873;0.6474;
620.1000;0.8848;0.6499;
620.4000;0.8824;0.6474;
620.7000;0.8807;0.6499;
621.0000;0.8824;0.6600;
621.3000;0.8767;0.6524;
621.6000;0.8759;0.6549;
621.9000;0.8734;0.6499;
622.2000;0.8734;0.6549;
622.5000;0.8685;0.6549;
622.8000;0.8653;0.6474;
623.1000;0.8653;0.6449;
623.4000;0.8620;0.6373;
623.7000;0.8710;0.6600;
624.0000;0.8604;0.6398;
624.3000;0.8571;0.6449;
624.6000;0.8596;0.6474;
624.9000;0.8539;0.6297;
625.2000;0.8531;0.6423;
625.5000;0.8514;0.6398;
625.8000;0.8490;0.6323;
626.1000;0.8466;0.6297;
626.4000;0.8409;0.6247;
626.7000;0.8425;0.6272;
627.0000;0.8433;0.6348;
627.3000;0.8392;0.6272;
627.6000;0.8392;0.6373;
627.9000;0.8376;0.6373;
628.2000;0.8360;0.6348;
628.5000;0.8335;0.6222;
628.8000;0.8368;0.6297;
629.1000;0.8311;0.6121;
629.4000;0.8311;0.6197;
629.7000;0.8295;0.6222;
630.0000;0.8262;0.6222;
630.3000;0.8262;0.6197;
630.6000;0.8246;0.6197;
630.9000;0.8213;0.6172;
631.2000;0.8197;0.6247;
631.5000;0.8205;0.6373;
631.8000;0.8189;0.6323;
632.1000;0.8181;0.6323;
632.4000;0.8156;0.6323;
632.7000;0.8148;0.6348;
633.0000;0.8140;0.6297;
633.3000;0.8132;0.6323;
633.6000;0.8099;0.6297;
633.9000;0.8099;0.6323;
634.2000;0.8091;0.6373;
634.5000;0.8075;0.6323;
634.8000;0.8059;0.6297;
635.1000;0.8075;0.6323;
635.4000;0.8050;0.6398;
635.7000;0.8018;0.6348;
636.0000;0.7977;0.6197;
636.3000;0.8026;0.6348;
636.6000;0.8002;0.6323;
636.9000;0.8010;0.6323;
637.2000;0.7993;0.6297;
637.5000;0.7953;0.6297;
637.8000;0.7937;0.6348;
638.1000;0.7961;0.6373;
638.4000;0.7896;0.6247;
638.7000;0.7920;0.6373;
639.0000;0.7896;0.6323;
639.3000;0.7888;0.6297;
639.6000;0.7863;0.6297;
639.9000;0.7945;0.6524;
640.2000;0.7855;0.6323;
640.5000;0.7847;0.6297;
640.8000;0.7855;0.6272;
641.1000;0.7863;0.6247;
641.4000;0.7855;0.6247;
641.7000;0.7831;0.6272;
642.0000;0.7847;0.6297;
642.3000;0.7814;0.6348;
642.6000;0.7806;0.6348;
642.9000;0.7782;0.6323;
643.2000;0.7774;0.6297;
643.5000;0.7774;0.6423;
643.8000;0.7741;0.6423;
644.1000;0.7741;0.6398;
644.4000;0.7733;0.6423;
644.7000;0.7725;0.6323;
645.0000;0.7766;0.6398;
645.3000;0.7725;0.6272;
645.6000;0.7700;0.6247;
645.9000;0.7700;0.6222;
646.2000;0.7692;0.6146;
646.5000;0.7692;0.6172;
646.8000;0.7676;0.6071;
647.1000;0.7676;0.6046;
647.4000;0.7635;0.5995;
647.7000;0.7676;0.6121;
648.0000;0.7660;0.6071;
648.3000;0.7635;0.6020;
648.6000;0.7709;0.6172;
648.9000;0.7627;0.6071;
649.2000;0.7619;0.6096;
649.5000;0.7611;0.6046;
649.8000;0.7611;0.6071;
650.1000;0.7619;0.6146;
650.4000;0.7627;0.6121;
650.7000;0.7570;0.6020;
651.0000;0.7595;0.5995;
651.3000;0.7578;0.6046;
651.6000;0.7562;0.5945;
651.9000;0.7570;0.5920;
652.2000;0.7554;0.5869;
652.5000;0.7570;0.5894;
652.8000;0.7505;0.5819;
653.1000;0.7521;0.5869;
653.4000;0.7513;0.5869;
653.7000;0.7513;0.5945;
654.0000;0.7505;0.6020;
654.3000;0.7497;0.6046;
654.6000;0.7505;0.6046;
654.9000;0.7481;0.5995;
655.2000;0.7481;0.6096;
655.5000;0.7456;0.6046;
655.8000;0.7440;0.6046;
656.1000;0.7448;0.6121;
656.4000;0.7473;0.6272;
656.7000;0.7440;0.6121;
657.0000;0.7464;0.6121;
657.3000;0.7424;0.6146;
657.6000;0.7497;0.6423;
657.9000;0.7424;0.6197;
658.2000;0.7375;0.6096;
658.5000;0.7383;0.6096;
658.8000;0.7399;0.6121;
659.1000;0.7399;0.6071;
659.4000;0.7367;0.6020;
659.7000;0.7383;0.6071;
660.0000;0.7383;0.6146;
660.3000;0.7391;0.5995;
660.6000;0.7367;0.5995;
660.9000;0.7367;0.6071;
661.2000;0.7350;0.6071;
661.5000;0.7367;0.6071;
661.8000;0.7350;0.6020;
662.1000;0.7359;0.6046;
662.4000;0.7342;0.6146;
662.7000;0.7367;0.6121;
663.0000;0.7342;0.5920;
663.3000;0.7326;0.5920;
663.6000;0.7326;0.5945;
663.9000;0.7342;0.5894;
664.2000;0.7334;0.5894;
664.5000;0.7310;0.5869;
664.8000;0.7342;0.5970;
665.1000;0.7318;0.5945;
665.4000;0.7302;0.5970;
665.7000;0.7285;0.5945;
666.0000;0.7245;0.5894;
666.3000;0.7302;0.5920;
666.6000;0.7293;0.5920;
666.9000;0.7277;0.5945;
667.2000;0.7277;0.5945;
667.5000;0.7277;0.5894;
667.8000;0.7269;0.5970;
668.1000;0.7261;0.5970;
668.4000;0.7261;0.5970;
668.7000;0.7253;0.5995;
669.0000;0.7261;0.6046;
669.3000;0.7236;0.6020;
669.6000;0.7220;0.5970;
669.9000;0.7228;0.6020;
670.2000;0.7212;0.6020;
670.5000;0.7236;0.5995;
670.8000;0.7204;0.5970;
671.1000;0.7220;0.6071;
671.4000;0.7212;0.5945;
671.7000;0.7220;0.5920;
672.0000;0.7204;0.5844;
672.3000;0.7204;0.5894;
672.6000;0.7220;0.5995;
672.9000;0.7204;0.6096;
673.2000;0.7196;0.6146;
673.5000;0.7163;0.6121;
673.8000;0.7196;0.6247;
674.1000;0.7188;0.6222;
674.4000;0.7188;0.6121;
674.7000;0.7179;0.6071;
675.0000;0.7171;0.6046;
675.3000;0.7179;0.6020;
675.6000;0.7163;0.6020;
675.9000;0.7155;0.6020;
676.2000;0.7147;0.6071;
676.5000;0.7155;0.6096;
676.8000;0.7171;0.6121;
677.1000;0.7131;0.6020;
677.4000;0.7179;0.6096;
677.7000;0.7139;0.5970;
678.0000;0.7131;0.5970;
678.3000;0.7098;0.5945;
678.6000;0.7114;0.6046;
678.9000;0.7114;0.6046;
679.2000;0.7106;0.6046;
679.5000;0.7106;0.6046;
679.8000;0.7033;0.5920;
680.1000;0.7082;0.5995;
680.4000;0.7114;0.6071;
680.7000;0.7017;0.5894;
681.0000;0.7090;0.6046;
681.3000;0.7123;0.6146;
681.6000;0.7090;0.6096;
681.9000;0.7082;0.6121;
682.2000;0.7025;0.6020;
682.5000;0.7066;0.6071;
682.8000;0.7074;0.6096;
683.1000;0.7066;0.6121;
683.4000;0.7057;0.5970;
683.7000;0.7057;0.5920;
684.0000;0.7057;0.5945;
684.3000;0.7066;0.5920;
684.6000;0.7049;0.5970;
684.9000;0.7041;0.5920;
685.2000;0.7041;0.5920;
685.5000;0.7041;0.5970;
685.8000;0.7049;0.5945;
686.1000;0.7033;0.5945;
686.4000;0.7033;0.5995;
686.7000;0.7025;0.6146;
687.0000;0.7033;0.6146;
687.3000;0.7017;0.6121;
687.6000;0.6968;0.6020;
687.9000;0.7017;0.6121;
688.2000;0.7033;0.6071;
688.5000;0.7025;0.6046;
688.8000;0.7000;0.5894;
689.1000;0.7009;0.5869;
689.4000;0.7000;0.5894;
689.7000;0.7000;0.5920;
690.0000;0.6992;0.5920;
690.3000;0.6992;0.5970;
690.6000;0.6984;0.5970;
690.9000;0.6984;0.5920;
691.2000;0.7000;0.5970;
691.5000;0.6984;0.5945;
691.8000;0.6984;0.5970;
692.1000;0.7009;0.6096;
692.4000;0.6968;0.6046;
692.7000;0.6943;0.6071;
693.0000;0.6968;0.6096;
693.3000;0.6976;0.6096;
693.6000;0.6960;0.6096;
693.9000;0.6984;0.6121;
694.2000;0.6976;0.6146;
694.5000;0.6984;0.6297;
694.8000;0.6952;0.6222;
695.1000;0.6935;0.6046;
695.4000;0.6952;0.6046;
695.7000;0.6943;0.6020;
696.0000;0.6935;0.5970;
696.3000;0.6935;0.5894;
696.6000;0.6895;0.5794;
696.9000;0.6943;0.5995;
697.2000;0.6952;0.6071;
697.5000;0.6968;0.6020;
697.8000;0.6952;0.6020;
698.1000;0.6919;0.5920;
698.4000;0.6943;0.5995;
698.7000;0.6943;0.6020;
699.0000;0.6927;0.5970;
699.3000;0.6911;0.5945;
699.6000;0.6895;0.5920;
699.9000;0.6919;0.6046;
700.2000;0.6919;0.6096;
700.5000;0.6911;0.6096;
700.8000;0.6911;0.6071;
701.1000;0.6903;0.6071;
701.4000;0.6911;0.6071;
701.7000;0.6903;0.5920;
702.0000;0.6870;0.5844;
702.3000;0.6911;0.5920;
702.6000;0.6886;0.5894;
702.9000;0.6878;0.5894;
703.2000;0.6870;0.5794;
703.5000;0.6870;0.5869;
703.8000;0.6781;0.5718;
704.1000;0.6903;0.5970;
704.4000;0.6878;0.5945;
704.7000;0.6862;0.5995;
705.0000;0.6854;0.5995;
705.3000;0.6870;0.5970;
705.6000;0.6862;0.5995;
705.9000;0.6862;0.5970;
706.2000;0.6854;0.5995;
706.5000;0.6854;0.5970;
706.8000;0.6886;0.6020;
707.1000;0.6813;0.5769;
707.4000;0.6846;0.5894;
707.7000;0.6846;0.5894;
708.0000;0.6854;0.5844;
708.3000;0.6854;0.6020;
708.6000;0.6838;0.6046;
708.9000;0.6838;0.6096;
709.2000;0.6821;0.6121;
709.5000;0.6862;0.6146;
709.8000;0.6838;0.6071;
710.1000;0.6838;0.6121;
710.4000;0.6805;0.6020;
710.7000;0.6829;0.6096;
711.0000;0.6838;0.6197;
711.3000;0.6829;0.6172;
711.6000;0.6838;0.6121;
711.9000;0.6821;0.6071;
712.2000;0.6829;0.6071;
712.5000;0.6846;0.5995;
712.8000;0.6805;0.5970;
713.1000;0.6797;0.5920;
713.4000;0.6789;0.5894;
713.7000;0.6789;0.6020;
714.0000;0.6805;0.6020;
714.3000;0.6813;0.6071;
714.6000;0.6813;0.6046;
714.9000;0.6821;0.6096;
715.2000;0.6797;0.6020;
715.5000;0.6789;0.6046;
715.8000;0.6797;0.6146;
716.1000;0.6789;0.6096;
716.4000;0.6789;0.6121;
716.7000;0.6764;0.5995;
717.0000;0.6789;0.6146;
717.3000;0.6805;0.6222;
717.6000;0.6789;0.6197;
717.9000;0.6789;0.6222;
718.2000;0.6740;0.6046;
718.5000;0.6781;0.6323;
718.8000;0.6781;0.6323;
719.1000;0.6772;0.6247;
719.4000;0.6813;0.6323;
719.7000;0.6740;0.6071;
720.0000;0.6772;0.6172;
720.3000;0.6829;0.6247;
720.6000;0.6756;0.6020;
720.9000;0.6772;0.5970;
721.2000;0.6772;0.5945;
721.5000;0.6764;0.5920;
721.8000;0.6756;0.5995;
722.1000;0.6764;0.6071;
722.4000;0.6772;0.6046;
722.7000;0.6781;0.6121;
723.0000;0.6740;0.6020;
723.3000;0.6756;0.5970;
723.6000;0.6764;0.6046;
723.9000;0.6756;0.6046;
724.2000;0.6748;0.6046;
724.5000;0.6732;0.6020;
724.8000;0.6732;0.6046;
725.1000;0.6740;0.6096;
725.4000;0.6740;0.5995;
725.7000;0.6724;0.5920;
726.0000;0.6756;0.6020;
726.3000;0.6732;0.5920;
726.6000;0.6740;0.5869;
726.9000;0.6748;0.5894;
727.2000;0.6732;0.5920;
727.5000;0.6732;0.5844;
727.8000;0.6732;0.5869;
728.1000;0.6683;0.5718;
728.4000;0.6724;0.5945;
728.7000;0.6732;0.5945;
729.0000;0.6699;0.5894;
729.3000;0.6732;0.5945;
729.6000;0.6716;0.5920;
729.9000;0.6732;0.5995;
730.2000;0.6732;0.6046;
730.5000;0.6724;0.5995;
730.8000;0.6724;0.5995;
731.1000;0.6667;0.5970;
731.4000;0.6699;0.6020;
731.7000;0.6748;0.6121;
732.0000;0.6699;0.5970;
732.3000;0.6716;0.5970;
732.6000;0.6781;0.6096;
732.9000;0.6716;0.5970;
733.2000;0.6707;0.5945;
733.5000;0.6707;0.5894;
733.8000;0.6716;0.5869;
734.1000;0.6716;0.5894;
734.4000;0.6683;0.5794;
734.7000;0.6691;0.5769;
735.0000;0.6699;0.5743;
735.3000;0.6707;0.5769;
735.6000;0.6707;0.5794;
735.9000;0.6683;0.5769;
736.2000;0.6691;0.5894;
736.5000;0.6691;0.5945;
736.8000;0.6691;0.5920;
737.1000;0.6756;0.6121;
737.4000;0.6634;0.5844;
737.7000;0.6683;0.5995;
738.0000;0.6683;0.6046;
738.3000;0.6699;0.6121;
738.6000;0.6691;0.6071;
738.9000;0.6675;0.6046;
739.2000;0.6675;0.6046;
739.5000;0.6683;0.6146;
739.8000;0.6667;0.6096;
740.1000;0.6659;0.6046;
740.4000;0.6699;0.6020;
740.7000;0.6691;0.5920;
741.0000;0.6675;0.5819;
741.3000;0.6699;0.5819;
741.6000;0.6659;0.5718;
741.9000;0.6667;0.5718;
742.2000;0.6642;0.5718;
742.5000;0.6675;0.5794;
742.8000;0.6659;0.5693;
743.1000;0.6683;0.5718;
743.4000;0.6675;0.5693;
743.7000;0.6667;0.5592;
744.0000;0.6675;0.5542;
744.3000;0.6675;0.5567;
744.6000;0.6659;0.5592;
744.9000;0.6642;0.5592;
745.2000;0.6642;0.5617;
745.5000;0.6659;0.5718;
745.8000;0.6642;0.5743;
746.1000;0.6642;0.5693;
746.4000;0.6642;0.5718;
746.7000;0.6634;0.5794;
747.0000;0.6642;0.5819;
747.3000;0.6634;0.5819;
747.6000;0.6642;0.5869;
747.9000;0.6634;0.5819;
748.2000;0.6642;0.5844;
748.5000;0.6650;0.5844;
748.8000;0.6618;0.5743;
749.1000;0.6634;0.5819;
749.4000;0.6659;0.5894;
749.7000;0.6650;0.5769;
750.0000;0.6659;0.5894;
750.3000;0.6626;0.5794;
750.6000;0.6634;0.5769;
750.9000;0.6634;0.5869;
751.2000;0.6626;0.5894;
751.5000;0.6626;0.5869;
751.8000;0.6650;0.5920;
752.1000;0.6626;0.5920;
752.4000;0.6602;0.5844;
752.7000;0.6618;0.5794;
753.0000;0.6602;0.5794;
753.3000;0.6634;0.5894;
753.6000;0.6626;0.5945;
753.9000;0.6602;0.5920;
754.2000;0.6634;0.6071;
754.5000;0.6626;0.6096;
754.8000;0.6634;0.6071;
755.1000;0.6618;0.6096;
755.4000;0.6602;0.6121;
755.7000;0.6602;0.6197;
756.0000;0.6626;0.6247;
756.3000;0.6618;0.6046;
756.6000;0.6650;0.6071;
756.9000;0.6634;0.6071;
757.2000;0.6618;0.5970;
757.5000;0.6659;0.6071;
757.8000;0.6602;0.5894;
758.1000;0.6610;0.5995;
758.4000;0.6618;0.6071;
758.7000;0.6610;0.6046;
759.0000;0.6610;0.6046;
759.3000;0.6626;0.6020;
759.6000;0.6618;0.6071;
759.9000;0.6593;0.6096;
760.2000;0.6610;0.6222;
760.5000;0.6602;0.6247;
760.8000;0.6610;0.6197;
761.1000;0.6602;0.6222;
761.4000;0.6545;0.6046;
761.7000;0.6593;0.6172;
762.0000;0.6577;0.6121;
762.3000;0.6593;0.6172;
762.6000;0.6593;0.6197;
762.9000;0.6602;0.6121;
763.2000;0.6610;0.6172;
763.5000;0.6602;0.6046;
763.8000;0.6602;0.6020;
764.1000;0.6593;0.6020;
764.4000;0.6585;0.6071;
764.7000;0.6585;0.6071;
765.0000;0.6610;0.6071;
765.3000;0.6593;0.5945;
765.6000;0.6585;0.5945;
765.9000;0.6536;0.5769;
766.2000;0.6569;0.5920;
766.5000;0.6569;0.5869;
766.8000;0.6553;0.5869;
767.1000;0.6577;0.6020;
767.4000;0.6577;0.5945;
767.7000;0.6577;0.5920;
768.0000;0.6659;0.6121;
768.3000;0.6585;0.5945;
768.6000;0.6585;0.5920;
768.9000;0.6577;0.5869;
769.2000;0.6577;0.5920;
769.5000;0.6585;0.5819;
769.8000;0.6593;0.5819;
770.1000;0.6585;0.5869;
770.4000;0.6585;0.5869;
770.7000;0.6561;0.5920;
771.0000;0.6577;0.5995;
771.3000;0.6577;0.5945;
771.6000;0.6553;0.5894;
771.9000;0.6545;0.5920;
772.2000;0.6569;0.6046;
772.5000;0.6569;0.6071;
772.8000;0.6553;0.6046;
773.1000;0.6545;0.5995;
773.4000;0.6561;0.6071;
773.7000;0.6553;0.6096;
774.0000;0.6545;0.6046;
774.3000;0.6545;0.6020;
774.6000;0.6536;0.5945;
774.9000;0.6561;0.5970;
775.2000;0.6553;0.5869;
775.5000;0.6545;0.5869;
775.8000;0.6536;0.5844;
776.1000;0.6528;0.5819;
776.4000;0.6561;0.5920;
776.7000;0.6536;0.5819;
777.0000;0.6553;0.5844;
777.3000;0.6561;0.5894;
777.6000;0.6545;0.5869;
777.9000;0.6545;0.5945;
778.2000;0.6545;0.5970;
778.5000;0.6585;0.6096;
778.8000;0.6536;0.5945;
779.1000;0.6561;0.6020;
779.4000;0.6553;0.5995;
779.7000;0.6569;0.6046;
780.0000;0.6569;0.6096;
780.3000;0.6561;0.5970;
780.6000;0.6585;0.6096;
780.9000;0.6569;0.6146;
781.2000;0.6561;0.6146;
781.5000;0.6569;0.6272;
781.8000;0.6553;0.6222;
782.1000;0.6528;0.6272;
782.4000;0.6528;0.6323;
782.7000;0.6553;0.6297;
783.0000;0.6528;0.6222;
783.3000;0.6536;0.6172;
783.6000;0.6528;0.6146;
783.9000;0.6545;0.6121;
784.2000;0.6536;0.6096;
784.5000;0.6536;0.6096;
784.8000;0.6545;0.6096;
785.1000;0.6536;0.6046;
785.4000;0.6520;0.6071;
785.7000;0.6520;0.6071;
786.0000;0.6512;0.6121;
786.3000;0.6528;0.6172;
786.6000;0.6545;0.6172;
786.9000;0.6504;0.6071;
787.2000;0.6504;0.6096;
787.5000;0.6536;0.6146;
787.8000;0.6520;0.5945;
788.1000;0.6512;0.5995;
788.4000;0.6496;0.5970;
788.7000;0.6520;0.5945;
789.0000;0.6479;0.5769;
789.3000;0.6528;0.5920;
789.6000;0.6520;0.5970;
789.9000;0.6528;0.5945;
790.2000;0.6512;0.5970;
790.5000;0.6536;0.6020;
790.8000;0.6512;0.6020;
791.1000;0.6520;0.6046;
791.4000;0.6528;0.6020;
791.7000;0.6520;0.6020;
792.0000;0.6520;0.6020;
792.3000;0.6504;0.6020;
792.6000;0.6528;0.6096;
792.9000;0.6545;0.6096;
793.2000;0.6512;0.6071;
793.5000;0.6479;0.5894;
793.8000;0.6504;0.6020;
794.1000;0.6528;0.6046;
794.4000;0.6512;0.6071;
794.7000;0.6512;0.6172;
795.0000;0.6536;0.6197;
795.3000;0.6536;0.6222;
795.6000;0.6528;0.6247;
795.9000;0.6504;0.6247;
796.2000;0.6512;0.6297;
796.5000;0.6536;0.6398;
796.8000;0.6504;0.6449;
797.1000;0.6488;0.6423;
797.4000;0.6512;0.6423;
797.7000;0.6488;0.6423;
798.0000;0.6520;0.6474;
798.3000;0.6471;0.6373;
798.6000;0.6496;0.6398;
798.9000;0.6496;0.6398;
799.2000;0.6455;0.6272;
799.5000;0.6512;0.6474;
799.8000;0.6479;0.6398;
800.1000;0.6504;0.6499;
800.4000;0.6553;0.6675;
800.7000;0.6504;0.6524;
801.0000;0.6496;0.6499;
801.3000;0.6479;0.6423;
801.6000;0.6496;0.6423;
801.9000;0.6520;0.6474;
802.2000;0.6471;0.6373;
802.5000;0.6504;0.6423;
802.8000;0.6479;0.6423;
803.1000;0.6471;0.6499;
803.4000;0.6488;0.6549;
803.7000;0.6488;0.6423;
804.0000;0.6488;0.6323;
804.3000;0.6479;0.6348;
804.6000;0.6520;0.6423;
804.9000;0.6504;0.6297;
805.2000;0.6496;0.6323;
805.5000;0.6561;0.6499;
805.8000;0.6488;0.6373;
806.1000;0.6488;0.6272;
806.4000;0.6504;0.6348;
806.7000;0.6488;0.6348;
807.0000;0.6496;0.6373;
807.3000;0.6463;0.6348;
807.6000;0.6488;0.6398;
807.9000;0.6463;0.6423;
808.2000;0.6488;0.6449;
808.5000;0.6455;0.6348;
808.8000;0.6479;0.6323;
809.1000;0.6488;0.6398;
809.4000;0.6479;0.6323;
809.7000;0.6488;0.6348;
810.0000;0.6463;0.6373;
810.3000;0.6471;0.6423;
810.6000;0.6431;0.6297;
810.9000;0.6471;0.6499;
811.2000;0.6463;0.6423;
811.5000;0.6496;0.6449;
811.8000;0.6479;0.6398;
812.1000;0.6455;0.6247;
812.4000;0.6455;0.6247;
812.7000;0.6504;0.6297;
813.0000;0.6455;0.6222;
813.3000;0.6463;0.6247;
813.6000;0.6455;0.6297;
813.9000;0.6439;0.6297;
814.2000;0.6463;0.6323;
814.5000;0.6463;0.6373;
814.8000;0.6463;0.6373;
815.1000;0.6463;0.6423;
815.4000;0.6455;0.6474;
815.7000;0.6447;0.6398;
816.0000;0.6422;0.6323;
816.3000;0.6455;0.6348;
816.6000;0.6455;0.6348;
816.9000;0.6447;0.6297;
817.2000;0.6463;0.6373;
817.5000;0.6447;0.6272;
817.8000;0.6488;0.6373;
818.1000;0.6471;0.6297;
818.4000;0.6439;0.6272;
818.7000;0.6463;0.6297;
819.0000;0.6447;0.6348;
819.3000;0.6471;0.6449;
819.6000;0.6471;0.6600;
819.9000;0.6463;0.6600;
820.2000;0.6471;0.6675;
820.5000;0.6447;0.6650;
820.8000;0.6447;0.6650;
821.1000;0.6488;0.6675;
821.4000;0.6463;0.6600;
821.7000;0.6447;0.6575;
822.0000;0.6422;0.6423;
822.3000;0.6439;0.6398;
822.6000;0.6447;0.6373;
822.9000;0.6439;0.6398;
823.2000;0.6439;0.6474;
823.5000;0.6471;0.6524;
823.8000;0.6439;0.6373;
824.1000;0.6414;0.6323;
824.4000;0.6455;0.6373;
824.7000;0.6447;0.6348;
825.0000;0.6455;0.6373;
825.3000;0.6447;0.6323;
825.6000;0.6447;0.6297;
825.9000;0.6463;0.6348;
826.2000;0.6447;0.6348;
826.5000;0.6455;0.6373;
826.8000;0.6439;0.6373;
827.1000;0.6463;0.6398;
827.4000;0.6447;0.6323;
827.7000;0.6431;0.6297;
828.0000;0.6431;0.6272;
828.3000;0.6447;0.6272;
828.6000;0.6447;0.6247;
828.9000;0.6431;0.6172;
829.2000;0.6431;0.6197;
829.5000;0.6431;0.6146;
829.8000;0.6447;0.6272;
830.1000;0.6455;0.6272;
830.4000;0.6439;0.6272;
830.7000;0.6447;0.6323;
831.0000;0.6439;0.6297;
831.3000;0.6439;0.6247;
831.6000;0.6414;0.6096;
831.9000;0.6422;0.6071;
832.2000;0.6439;0.6172;
832.5000;0.6422;0.6197;
832.8000;0.6414;0.6222;
833.1000;0.6414;0.6272;
833.4000;0.6406;0.6272;
833.7000;0.6439;0.6323;
834.0000;0.6422;0.6323;
834.3000;0.6463;0.6449;
834.6000;0.6439;0.6524;
834.9000;0.6431;0.6499;
835.2000;0.6471;0.6549;
835.5000;0.6439;0.6449;
835.8000;0.6439;0.6474;
836.1000;0.6422;0.6474;
836.4000;0.6414;0.6373;
836.7000;0.6365;0.6172;
837.0000;0.6431;0.6373;
837.3000;0.6431;0.6423;
837.6000;0.6439;0.6575;
837.9000;0.6414;0.6449;
838.2000;0.6422;0.6373;
838.5000;0.6431;0.6398;
838.8000;0.6422;0.6398;
839.1000;0.6414;0.6348;
839.4000;0.6406;0.6373;
839.7000;0.6431;0.6449;
840.0000;0.6414;0.6423;
840.3000;0.6431;0.6373;
840.6000;0.6422;0.6323;
840.9000;0.6406;0.6348;
841.2000;0.6431;0.6423;
841.5000;0.6431;0.6423;
841.8000;0.6422;0.6348;
842.1000;0.6414;0.6323;
842.4000;0.6422;0.6373;
842.7000;0.6422;0.6348;
843.0000;0.6431;0.6449;
843.3000;0.6422;0.6474;
843.6000;0.6422;0.6423;
843.9000;0.6422;0.6423;
844.2000;0.6455;0.6499;
844.5000;0.6398;0.6449;
844.8000;0.6398;0.6423;
845.1000;0.6414;0.6348;
845.4000;0.6414;0.6222;
845.7000;0.6398;0.6146;
846.0000;0.6398;0.6046;
846.3000;0.6374;0.5945;
846.6000;0.6422;0.6071;
846.9000;0.6414;0.5995;
847.2000;0.6422;0.5995;
847.5000;0.6447;0.6197;
847.8000;0.6414;0.6197;
848.1000;0.6422;0.6222;
848.4000;0.6431;0.6323;
848.7000;0.6382;0.6247;
849.0000;0.6414;0.6449;
849.3000;0.6406;0.6474;
849.6000;0.6414;0.6474;
849.9000;0.6414;0.6575;
850.2000;0.6406;0.6600;
850.5000;0.6398;0.6499;
850.8000;0.6365;0.6398;
851.1000;0.6325;0.6297;
851.4000;0.6333;0.6323;
851.7000;0.6398;0.6398;
852.0000;0.6520;0.6675;
852.3000;0.6414;0.6423;
852.6000;0.6398;0.6423;
852.9000;0.6422;0.6423;
853.2000;0.6414;0.6373;
853.5000;0.6398;0.6297;
853.8000;0.6406;0.6222;
854.1000;0.6390;0.6172;
854.4000;0.6390;0.6247;
854.7000;0.6390;0.6348;
855.0000;0.6398;0.6272;
855.3000;0.6398;0.6247;
855.6000;0.6382;0.6272;
855.9000;0.6398;0.6348;
856.2000;0.6374;0.6297;
856.5000;0.6398;0.6348;
856.8000;0.6422;0.6398;
857.1000;0.6398;0.6297;
857.4000;0.6390;0.6297;
857.7000;0.6398;0.6323;
858.0000;0.6390;0.6398;
858.3000;0.6390;0.6348;
858.6000;0.6374;0.6272;
858.9000;0.6374;0.6297;
859.2000;0.6382;0.6297;
859.5000;0.6333;0.6247;
859.8000;0.6374;0.6398;
860.1000;0.6382;0.6474;
860.4000;0.6390;0.6549;
860.7000;0.6390;0.6575;
861.0000;0.6374;0.6499;
861.3000;0.6317;0.6272;
861.6000;0.6398;0.6474;
861.9000;0.6398;0.6348;
862.2000;0.6382;0.6272;
862.5000;0.6390;0.6272;
862.8000;0.6390;0.6272;
863.1000;0.6398;0.6272;
863.4000;0.6374;0.6247;
863.7000;0.6398;0.6297;
864.0000;0.6398;0.6297;
864.3000;0.6390;0.6297;
864.6000;0.6382;0.6323;
864.9000;0.6431;0.6474;
865.2000;0.6382;0.6348;
865.5000;0.6382;0.6373;
865.8000;0.6398;0.6373;
866.1000;0.6382;0.6398;
866.4000;0.6374;0.6348;
866.7000;0.6357;0.6272;
867.0000;0.6398;0.6348;
867.3000;0.6382;0.6323;
867.6000;0.6390;0.6373;
867.9000;0.6382;0.6449;
868.2000;0.6390;0.6499;
868.5000;0.6357;0.6474;
868.8000;0.6382;0.6499;
869.1000;0.6390;0.6499;
869.4000;0.6382;0.6499;
869.7000;0.6390;0.6474;
870.0000;0.6374;0.6524;
870.3000;0.6374;0.6474;
870.6000;0.6357;0.6398;
870.9000;0.6365;0.6398;
871.2000;0.6374;0.6398;
871.5000;0.6455;0.6575;
871.8000;0.6390;0.6373;
872.1000;0.6406;0.6423;
872.4000;0.6398;0.6423;
872.7000;0.6390;0.6423;
873.0000;0.6374;0.6373;
873.3000;0.6390;0.6423;
873.6000;0.6357;0.6272;
873.9000;0.6382;0.6348;
874.2000;0.6382;0.6474;
874.5000;0.6341;0.6373;
874.8000;0.6398;0.6449;
875.1000;0.6292;0.6197;
875.4000;0.6357;0.6323;
875.7000;0.6390;0.6398;
876.0000;0.6374;0.6398;
876.3000;0.6382;0.6398;
876.6000;0.6382;0.6373;
876.9000;0.6406;0.6524;
877.2000;0.6382;0.6373;
877.5000;0.6365;0.6247;
877.8000;0.6357;0.6323;
878.1000;0.6374;0.6247;
878.4000;0.6382;0.6398;
878.7000;0.6422;0.6474;
879.0000;0.6357;0.6373;
879.3000;0.6374;0.6323;
879.6000;0.6374;0.6423;
879.9000;0.6357;0.6373;
880.2000;0.6374;0.6373;
880.5000;0.6349;0.6348;
880.8000;0.6374;0.6373;
881.1000;0.6357;0.6323;
881.4000;0.6365;0.6398;
881.7000;0.6374;0.6423;
882.0000;0.6374;0.6373;
882.3000;0.6374;0.6398;
882.6000;0.6357;0.6398;
882.9000;0.6374;0.6348;
883.2000;0.6309;0.6272;
883.5000;0.6365;0.6474;
883.8000;0.6374;0.6474;
884.1000;0.6357;0.6549;
884.4000;0.6414;0.6726;
884.7000;0.6374;0.6524;
885.0000;0.6374;0.6575;
885.3000;0.6349;0.6524;
885.6000;0.6382;0.6675;
885.9000;0.6357;0.6575;
886.2000;0.6349;0.6625;
886.5000;0.6374;0.6675;
886.8000;0.6357;0.6600;
887.1000;0.6374;0.6625;
887.4000;0.6390;0.6549;
887.7000;0.6365;0.6524;
888.0000;0.6349;0.6449;
888.3000;0.6365;0.6499;
888.6000;0.6374;0.6524;
888.9000;0.6382;0.6600;
889.2000;0.6357;0.6549;
889.5000;0.6382;0.6575;
889.8000;0.6349;0.6474;
890.1000;0.6357;0.6474;
890.4000;0.6357;0.6474;
890.7000;0.6333;0.6423;
891.0000;0.6349;0.6524;
891.3000;0.6357;0.6524;
891.6000;0.6341;0.6499;
891.9000;0.6357;0.6499;
892.2000;0.6365;0.6575;
892.5000;0.6365;0.6549;
892.8000;0.6357;0.6549;
893.1000;0.6333;0.6474;
893.4000;0.6341;0.6524;
893.7000;0.6341;0.6474;
894.0000;0.6325;0.6348;
894.3000;0.6341;0.6398;
894.6000;0.6357;0.6398;
894.9000;0.6357;0.6348;
895.2000;0.6357;0.6423;
895.5000;0.6357;0.6524;
895.8000;0.6341;0.6474;
896.1000;0.6349;0.6499;
896.4000;0.6341;0.6423;
896.7000;0.6349;0.6423;
897.0000;0.6390;0.6474;
897.3000;0.6374;0.6474;
897.6000;0.6349;0.6449;
897.9000;0.6349;0.6524;
898.2000;0.6341;0.6600;
898.5000;0.6422;0.6801;
898.8000;0.6374;0.6600;
899.1000;0.6341;0.6524;
899.4000;0.6341;0.6449;
899.7000;0.6341;0.6499;
900.0000;0.6349;0.6549;
900.3000;0.6357;0.6675;
900.6000;0.6341;0.6650;
900.9000;0.6390;0.6650;
901.2000;0.6349;0.6575;
901.5000;0.6349;0.6701;
901.8000;0.6341;0.6650;
902.1000;0.6357;0.6726;
902.4000;0.6349;0.6726;
902.7000;0.6333;0.6675;
903.0000;0.6341;0.6726;
903.3000;0.6333;0.6751;
903.6000;0.6333;0.6776;
903.9000;0.6341;0.6675;
904.2000;0.6300;0.6524;
904.5000;0.6268;0.6398;
904.8000;0.6349;0.6701;
905.1000;0.6341;0.6675;
905.4000;0.6333;0.6600;
905.7000;0.6365;0.6751;
906.0000;0.6333;0.6625;
906.3000;0.6374;0.6751;
906.6000;0.6374;0.6751;
906.9000;0.6398;0.6826;
907.2000;0.6341;0.6549;
907.5000;0.6374;0.6701;
907.8000;0.6349;0.6675;
908.1000;0.6284;0.6423;
908.4000;0.6357;0.6625;
908.7000;0.6349;0.6675;
909.0000;0.6349;0.6650;
909.3000;0.6333;0.6575;
909.6000;0.6325;0.6499;
909.9000;0.6333;0.6474;
910.2000;0.6333;0.6524;
910.5000;0.6349;0.6524;
910.8000;0.6300;0.6323;
911.1000;0.6325;0.6398;
911.4000;0.6349;0.6524;
911.7000;0.6349;0.6524;
912.0000;0.6349;0.6474;
912.3000;0.6341;0.6449;
912.6000;0.6365;0.6423;
912.9000;0.6349;0.6373;
913.2000;0.6357;0.6398;
913.5000;0.6317;0.6398;
913.8000;0.6341;0.6499;
914.1000;0.6292;0.6449;
914.4000;0.6300;0.6474;
914.7000;0.6325;0.6499;
915.0000;0.6357;0.6600;
915.3000;0.6333;0.6600;
915.6000;0.6309;0.6499;
915.9000;0.6333;0.6398;
916.2000;0.6317;0.6474;
916.5000;0.6317;0.6499;
916.8000;0.6276;0.6474;
917.1000;0.6317;0.6524;
917.4000;0.6333;0.6524;
917.7000;0.6325;0.6449;
918.0000;0.6341;0.6524;
918.3000;0.6357;0.6524;
918.6000;0.6317;0.6499;
918.9000;0.6333;0.6600;
919.2000;0.6333;0.6625;
919.5000;0.6317;0.6575;
919.8000;0.6325;0.6549;
920.1000;0.6333;0.6549;
920.4000;0.6349;0.6575;
920.7000;0.6341;0.6549;
921.0000;0.6317;0.6499;
921.3000;0.6325;0.6524;
921.6000;0.6349;0.6675;
921.9000;0.6357;0.6801;
922.2000;0.6333;0.6801;
922.5000;0.6317;0.6650;
922.8000;0.6325;0.6625;
923.1000;0.6325;0.6650;
923.4000;0.6333;0.6650;
923.7000;0.6325;0.6549;
924.0000;0.6341;0.6625;
924.3000;0.6333;0.6575;
924.6000;0.6325;0.6549;
924.9000;0.6341;0.6549;
925.2000;0.6325;0.6474;
925.5000;0.6333;0.6449;
925.8000;0.6333;0.6474;
926.1000;0.6325;0.6449;
926.4000;0.6357;0.6625;
926.7000;0.6292;0.6398;
927.0000;0.6317;0.6423;
927.3000;0.6309;0.6423;
927.6000;0.6317;0.6423;
927.9000;0.6325;0.6449;
928.2000;0.6333;0.6524;
928.5000;0.6284;0.6398;
928.8000;0.6300;0.6499;
929.1000;0.6309;0.6499;
929.4000;0.6309;0.6499;
929.7000;0.6317;0.6499;
930.0000;0.6300;0.6398;
930.3000;0.6284;0.6474;
930.6000;0.6341;0.6549;
930.9000;0.6309;0.6474;
931.2000;0.6300;0.6499;
931.5000;0.6317;0.6423;
931.8000;0.6260;0.6373;
932.1000;0.6309;0.6474;
932.4000;0.6317;0.6474;
932.7000;0.6284;0.6423;
933.0000;0.6317;0.6524;
933.3000;0.6284;0.6499;
933.6000;0.6325;0.6524;
933.9000;0.6317;0.6549;
934.2000;0.6341;0.6575;
934.5000;0.6317;0.6575;
934.8000;0.6309;0.6575;
935.1000;0.6300;0.6650;
935.4000;0.6333;0.6701;
935.7000;0.6325;0.6675;
936.0000;0.6317;0.6675;
936.3000;0.6292;0.6575;
936.6000;0.6317;0.6524;
936.9000;0.6317;0.6625;
937.2000;0.6284;0.6575;
937.5000;0.6309;0.6600;
937.8000;0.6309;0.6650;
938.1000;0.6309;0.6675;
938.4000;0.6317;0.6701;
938.7000;0.6317;0.6675;
939.0000;0.6309;0.6726;
939.3000;0.6309;0.6751;
939.6000;0.6309;0.6852;
939.9000;0.6317;0.6902;
940.2000;0.6268;0.6650;
940.5000;0.6300;0.6675;
940.8000;0.6341;0.6675;
941.1000;0.6268;0.6398;
941.4000;0.6268;0.6323;
941.7000;0.6300;0.6499;
942.0000;0.6300;0.6423;
942.3000;0.6317;0.6423;
942.6000;0.6309;0.6449;
942.9000;0.6309;0.6423;
943.2000;0.6309;0.6499;
943.5000;0.6309;0.6499;
943.8000;0.6284;0.6474;
944.1000;0.6284;0.6398;
944.4000;0.6349;0.6575;
944.7000;0.6325;0.6549;
945.0000;0.6357;0.6650;
945.3000;0.6284;0.6474;
945.6000;0.6317;0.6474;
945.9000;0.6382;0.6675;
946.2000;0.6300;0.6449;
946.5000;0.6300;0.6423;
946.8000;0.6300;0.6423;
947.1000;0.6300;0.6449;
947.4000;0.6325;0.6449;
947.7000;0.6309;0.6524;
948.0000;0.6292;0.6524;
948.3000;0.6292;0.6474;
948.6000;0.6309;0.6474;
948.9000;0.6341;0.6524;
949.2000;0.6309;0.6449;
949.5000;0.6300;0.6348;
949.8000;0.6309;0.6348;
950.1000;0.6309;0.6398;
950.4000;0.6292;0.6398;
950.7000;0.6300;0.6398;
951.0000;0.6333;0.6499;
951.3000;0.6333;0.6524;
951.6000;0.6284;0.6398;
951.9000;0.6309;0.6474;
952.2000;0.6292;0.6499;
952.5000;0.6284;0.6499;
952.8000;0.6292;0.6499;
953.1000;0.6309;0.6474;
953.4000;0.6276;0.6373;
953.7000;0.6300;0.6474;
954.0000;0.6300;0.6549;
954.3000;0.6292;0.6549;
954.6000;0.6292;0.6499;
954.9000;0.6300;0.6423;
955.2000;0.6300;0.6423;
955.5000;0.6276;0.6297;
955.8000;0.6300;0.6373;
956.1000;0.6292;0.6398;
956.4000;0.6284;0.6398;
956.7000;0.6252;0.6398;
957.0000;0.6292;0.6499;
957.3000;0.6284;0.6398;
957.6000;0.6300;0.6474;
957.9000;0.6284;0.6474;
958.2000;0.6284;0.6474;
958.5000;0.6309;0.6499;
958.8000;0.6317;0.6625;
959.1000;0.6292;0.6600;
959.4000;0.6292;0.6575;
959.7000;0.6309;0.6625;
960.0000;0.6276;0.6575;
960.3000;0.6300;0.6675;
960.6000;0.6284;0.6675;
960.9000;0.6309;0.6600;
961.2000;0.6300;0.6600;
961.5000;0.6276;0.6575;
961.8000;0.6284;0.6650;
962.1000;0.6284;0.6650;
962.4000;0.6309;0.6625;
962.7000;0.6276;0.6474;
963.0000;0.6284;0.6499;
963.3000;0.6284;0.6474;
963.6000;0.6276;0.6549;
963.9000;0.6300;0.6549;
964.2000;0.6300;0.6549;
964.5000;0.6292;0.6524;
964.8000;0.6300;0.6575;
965.1000;0.6292;0.6549;
965.4000;0.6292;0.6575;
965.7000;0.6300;0.6575;
966.0000;0.6333;0.6726;
966.3000;0.6284;0.6600;
966.6000;0.6309;0.6650;
966.9000;0.6268;0.6373;
967.2000;0.6284;0.6499;
967.5000;0.6276;0.6449;
967.8000;0.6276;0.6323;
968.1000;0.6227;0.6197;
968.4000;0.6276;0.6272;
968.7000;0.6276;0.6348;
969.0000;0.6406;0.6751;
969.3000;0.6292;0.6449;
969.6000;0.6300;0.6499;
969.9000;0.6268;0.6449;
970.2000;0.6300;0.6499;
970.5000;0.6284;0.6423;
970.8000;0.6252;0.6348;
971.1000;0.6276;0.6297;
971.4000;0.6284;0.6323;
971.7000;0.6292;0.6297;
972.0000;0.6292;0.6272;
972.3000;0.6284;0.6297;
972.6000;0.6276;0.6348;
972.9000;0.6349;0.6524;
973.2000;0.6292;0.6449;
973.5000;0.6276;0.6423;
973.8000;0.6292;0.6423;
974.1000;0.6276;0.6474;
974.4000;0.6276;0.6398;
974.7000;0.6243;0.6323;
975.0000;0.6276;0.6449;
975.3000;0.6300;0.6449;
975.6000;0.6284;0.6474;
975.9000;0.6276;0.6474;
976.2000;0.6276;0.6423;
976.5000;0.6284;0.6524;
976.8000;0.6227;0.6373;
977.1000;0.6260;0.6474;
977.4000;0.6227;0.6398;
977.7000;0.6300;0.6701;
978.0000;0.6268;0.6575;
978.3000;0.6260;0.6499;
978.6000;0.6260;0.6524;
978.9000;0.6300;0.6575;
979.2000;0.6292;0.6600;
979.5000;0.6292;0.6650;
979.8000;0.6374;0.6877;
980.1000;0.6284;0.6600;
980.4000;0.6292;0.6625;
980.7000;0.6300;0.6650;
981.0000;0.6276;0.6600;
981.3000;0.6276;0.6600;
981.6000;0.6284;0.6625;
981.9000;0.6300;0.6625;
982.2000;0.6292;0.6549;
982.5000;0.6260;0.6423;
982.8000;0.6300;0.6499;
983.1000;0.6284;0.6575;
983.4000;0.6260;0.6575;
983.7000;0.6284;0.6549;
984.0000;0.6276;0.6423;
984.3000;0.6276;0.6449;
984.6000;0.6276;0.6524;
984.9000;0.6284;0.6423;
985.2000;0.6268;0.6398;
985.5000;0.6300;0.6474;
985.8000;0.6276;0.6499;
986.1000;0.6268;0.6549;
986.4000;0.6268;0.6575;
986.7000;0.6276;0.6650;
987.0000;0.6284;0.6675;
987.3000;0.6268;0.6575;
987.6000;0.6268;0.6549;
987.9000;0.6284;0.6675;
988.2000;0.6260;0.6625;
988.5000;0.6268;0.6625;
988.8000;0.6276;0.6675;
989.1000;0.6300;0.6701;
989.4000;0.6260;0.6701;
989.7000;0.6284;0.6675;
990.0000;0.6284;0.6600;
990.3000;0.6300;0.6549;
990.6000;0.6276;0.6575;
990.9000;0.6227;0.6474;
991.2000;0.6260;0.6575;
991.5000;0.6276;0.6499;
991.8000;0.6292;0.6524;
992.1000;0.6260;0.6449;
992.4000;0.6276;0.6499;
992.7000;0.6260;0.6373;
993.0000;0.6276;0.6398;
993.3000;0.6284;0.6398;
993.6000;0.6268;0.6449;
993.9000;0.6292;0.6524;
994.2000;0.6284;0.6474;
994.5000;0.6284;0.6600;
994.8000;0.6300;0.6650;
995.1000;0.6292;0.6650;
995.4000;0.6260;0.6575;
995.7000;0.6268;0.6625;
996.0000;0.6292;0.6701;
996.3000;0.6276;0.6701;
996.6000;0.6243;0.6675;
996.9000;0.6268;0.6726;
997.2000;0.6268;0.6625;
997.5000;0.6260;0.6625;
997.8000;0.6260;0.6549;
998.1000;0.6260;0.6499;
998.4000;0.6268;0.6575;
998.7000;0.6252;0.6600;
999.0000;0.6243;0.6650;
999.3000;0.6243;0.6600;
999.6000;0.6243;0.6600;
999.9000;0.6252;0.6549;
1000.2000;0.6203;0.6423;
1000.5000;0.6260;0.6549;
1000.8000;0.6284;0.6600;
1001.1000;0.6252;0.6600;
1001.4000;0.6252;0.6575;
1001.7000;0.6284;0.6650;
1002.0000;0.6252;0.6575;
1002.3000;0.6309;0.6776;
1002.6000;0.6260;0.6675;
1002.9000;0.6268;0.6701;
1003.2000;0.6276;0.6701;
1003.5000;0.6260;0.6701;
1003.8000;0.6252;0.6701;
1004.1000;0.6252;0.6625;
1004.4000;0.6260;0.6625;
1004.7000;0.6292;0.6751;
1005.0000;0.6284;0.6852;
1005.3000;0.6284;0.6852;
1005.6000;0.6268;0.6751;
1005.9000;0.6276;0.6726;
1006.2000;0.6260;0.6701;
1006.5000;0.6276;0.6650;
1006.8000;0.6276;0.6776;
1007.1000;0.6268;0.6726;
1007.4000;0.6260;0.6600;
1007.7000;0.6260;0.6549;
1008.0000;0.6341;0.6751;
1008.3000;0.6235;0.6499;
1008.6000;0.6260;0.6600;
1008.9000;0.6252;0.6600;
1009.2000;0.6252;0.6575;
1009.5000;0.6268;0.6650;
1009.8000;0.6252;0.6650;
1010.1000;0.6211;0.6474;
1010.4000;0.6260;0.6675;
1010.7000;0.6268;0.6625;
1011.0000;0.6252;0.6625;
1011.3000;0.6252;0.6600;
1011.6000;0.6235;0.6625;
1011.9000;0.6243;0.6625;
1012.2000;0.6252;0.6701;
1012.5000;0.6235;0.6701;
1012.8000;0.6252;0.6726;
1013.1000;0.6243;0.6600;
1013.4000;0.6243;0.6650;
1013.7000;0.6243;0.6625;
1014.0000;0.6252;0.6650;
1014.3000;0.6260;0.6751;
1014.6000;0.6243;0.6826;
1014.9000;0.6252;0.6877;
1015.2000;0.6268;0.6801;
1015.5000;0.6268;0.6801;
1015.8000;0.6276;0.6776;
1016.1000;0.6341;0.7028;
1016.4000;0.6276;0.6751;
1016.7000;0.6276;0.6650;
1017.0000;0.6260;0.6625;
1017.3000;0.6268;0.6650;
1017.6000;0.6309;0.6776;
1017.9000;0.6252;0.6625;
1018.2000;0.6260;0.6650;
1018.5000;0.6276;0.6726;
1018.8000;0.6268;0.6726;
1019.1000;0.6268;0.6701;
1019.4000;0.6235;0.6549;
1019.7000;0.6276;0.6549;
1020.0000;0.6260;0.6575;
1020.3000;0.6268;0.6625;
1020.6000;0.6276;0.6625;
1020.9000;0.6284;0.6600;
1021.2000;0.6276;0.6675;
1021.5000;0.6260;0.6675;
1021.8000;0.6227;0.6575;
1022.1000;0.6235;0.6600;
1022.4000;0.6276;0.6675;
1022.7000;0.6292;0.6675;
1023.0000;0.6252;0.6625;
1023.3000;0.6227;0.6524;
1023.6000;0.6341;0.6801;
1023.9000;0.6243;0.6499;
1024.2000;0.6268;0.6600;
1024.5000;0.6252;0.6499;
1024.8000;0.6260;0.6398;
1025.1000;0.6260;0.6499;
1025.4000;0.6260;0.6499;
1025.7000;0.6284;0.6575;
1026.0000;0.6260;0.6524;
1026.3000;0.6252;0.6600;
1026.6000;0.6252;0.6600;
1026.9000;0.6260;0.6650;
1027.2000;0.6268;0.6650;
1027.5000;0.6260;0.6625;
1027.8000;0.6276;0.6625;
1028.1000;0.6268;0.6675;
1028.4000;0.6235;0.6650;
1028.7000;0.6260;0.6600;
1029.0000;0.6260;0.6575;
1029.3000;0.6260;0.6524;
1029.6000;0.6252;0.6575;
1029.9000;0.6203;0.6499;
1030.2000;0.6235;0.6499;
1030.5000;0.6243;0.6524;
1030.8000;0.6252;0.6600;
1031.1000;0.6268;0.6675;
1031.4000;0.6276;0.6751;
1031.7000;0.6276;0.6776;
1032.0000;0.6268;0.6751;
1032.3000;0.6260;0.6701;
1032.6000;0.6235;0.6625;
1032.9000;0.6252;0.6650;
1033.2000;0.6252;0.6675;
1033.5000;0.6243;0.6726;
1033.8000;0.6268;0.6801;
1034.1000;0.6219;0.6701;
1034.4000;0.6219;0.6675;
1034.7000;0.6260;0.6776;
1035.0000;0.6268;0.6801;
1035.3000;0.6260;0.6751;
1035.6000;0.6243;0.6726;
1035.9000;0.6235;0.6549;
1036.2000;0.6235;0.6449;
1036.5000;0.6325;0.6751;
1036.8000;0.6243;0.6524;
1037.1000;0.6235;0.6474;
1037.4000;0.6260;0.6474;
1037.7000;0.6252;0.6449;
1038.0000;0.6243;0.6323;
1038.3000;0.6227;0.6297;
1038.6000;0.6227;0.6272;
1038.9000;0.6227;0.6373;
1039.2000;0.6243;0.6398;
1039.5000;0.6252;0.6474;
1039.8000;0.6243;0.6499;
1040.1000;0.6292;0.6600;
1040.4000;0.6268;0.6549;
1040.7000;0.6227;0.6524;
1041.0000;0.6260;0.6675;
1041.3000;0.6252;0.6625;
1041.6000;0.6260;0.6600;
1041.9000;0.6243;0.6524;
1042.2000;0.6276;0.6524;
1042.5000;0.6252;0.6449;
1042.8000;0.6252;0.6449;
1043.1000;0.6243;0.6398;
1043.4000;0.6235;0.6423;
1043.7000;0.6260;0.6348;
1044.0000;0.6227;0.6398;
1044.3000;0.6235;0.6423;
1044.6000;0.6260;0.6423;
1044.9000;0.6227;0.6323;
1045.2000;0.6235;0.6348;
1045.5000;0.6243;0.6449;
1045.8000;0.6243;0.6499;
1046.1000;0.6227;0.6423;
1046.4000;0.6219;0.6423;
1046.7000;0.6154;0.6222;
1047.0000;0.6235;0.6373;
1047.3000;0.6284;0.6549;
1047.6000;0.6243;0.6499;
1047.9000;0.6252;0.6524;
1048.2000;0.6243;0.6499;
1048.5000;0.6235;0.6499;
1048.8000;0.6219;0.6524;
1049.1000;0.6219;0.6575;
1049.4000;0.6227;0.6575;
1049.7000;0.6235;0.6524;
1050.0000;0.6252;0.6499;
1050.3000;0.6243;0.6398;
1050.6000;0.6252;0.6348;
1050.9000;0.6252;0.6348;
1051.2000;0.6243;0.6449;
1051.5000;0.6252;0.6449;
1051.8000;0.6268;0.6423;
1052.1000;0.6252;0.6423;
1052.4000;0.6260;0.6373;
1052.7000;0.6252;0.6323;
1053.0000;0.6268;0.6348;
1053.3000;0.6252;0.6348;
1053.6000;0.6219;0.6323;
1053.9000;0.6211;0.6323;
1054.2000;0.6211;0.6449;
1054.5000;0.6243;0.6650;
1054.8000;0.6227;0.6575;
1055.1000;0.6227;0.6524;
1055.4000;0.6219;0.6600;
1055.7000;0.6227;0.6726;
1056.0000;0.6260;0.6877;
1056.3000;0.6235;0.6776;
1056.6000;0.6243;0.6726;
1056.9000;0.6235;0.6701;
1057.2000;0.6235;0.6650;
1057.5000;0.6219;0.6575;
1057.8000;0.6235;0.6650;
1058.1000;0.6243;0.6650;
1058.4000;0.6235;0.6625;
1058.7000;0.6219;0.6575;
1059.0000;0.6211;0.6549;
1059.3000;0.6211;0.6575;
1059.6000;0.6235;0.6675;
1059.9000;0.6300;0.6801;
1060.2000;0.6235;0.6625;
1060.5000;0.6219;0.6600;
1060.8000;0.6252;0.6625;
1061.1000;0.6235;0.6600;
1061.4000;0.6243;0.6701;
1061.7000;0.6284;0.6776;
1062.0000;0.6219;0.6701;
1062.3000;0.6243;0.6776;
1062.6000;0.6195;0.6575;
1062.9000;0.6300;0.6776;
1063.2000;0.6243;0.6650;
1063.5000;0.6235;0.6650;
1063.8000;0.6227;0.6650;
1064.1000;0.6284;0.6902;
1064.4000;0.6227;0.6726;
1064.7000;0.6243;0.6751;
1065.0000;0.6219;0.6625;
1065.3000;0.6235;0.6675;
1065.6000;0.6211;0.6625;
1065.9000;0.6219;0.6650;
1066.2000;0.6235;0.6675;
1066.5000;0.6219;0.6625;
1066.8000;0.6243;0.6650;
1067.1000;0.6211;0.6600;
1067.4000;0.6252;0.6751;
1067.7000;0.6227;0.6726;
1068.0000;0.6243;0.6776;
1068.3000;0.6227;0.6675;
1068.6000;0.6243;0.6675;
1068.9000;0.6219;0.6600;
1069.2000;0.6219;0.6625;
1069.5000;0.6227;0.6701;
1069.8000;0.6252;0.6726;
1070.1000;0.6235;0.6575;
1070.4000;0.6211;0.6549;
1070.7000;0.6235;0.6575;
1071.0000;0.6227;0.6549;
1071.3000;0.6211;0.6575;
1071.6000;0.6235;0.6675;
1071.9000;0.6211;0.6675;
1072.2000;0.6235;0.6701;
1072.5000;0.6219;0.6600;
1072.8000;0.6227;0.6499;
1073.1000;0.6219;0.6499;
1073.4000;0.6292;0.6600;
1073.7000;0.6227;0.6398;
1074.0000;0.6219;0.6348;
1074.3000;0.6227;0.6449;
1074.6000;0.6227;0.6423;
1074.9000;0.6219;0.6423;
1075.2000;0.6227;0.6449;
1075.5000;0.6211;0.6499;
1075.8000;0.6219;0.6549;
1076.1000;0.6243;0.6726;
1076.4000;0.6235;0.6650;
1076.7000;0.6227;0.6575;
1077.0000;0.6211;0.6575;
1077.3000;0.6227;0.6600;
1077.6000;0.6227;0.6650;
1077.9000;0.6219;0.6575;
1078.2000;0.6219;0.6575;
1078.5000;0.6219;0.6600;
1078.8000;0.6227;0.6549;
1079.1000;0.6211;0.6675;
1079.4000;0.6186;0.6625;
1079.7000;0.6211;0.6625;
1080.0000;0.6219;0.6625;
1080.3000;0.6243;0.6575;
1080.6000;0.6219;0.6449;
1080.9000;0.6235;0.6449;
1081.2000;0.6252;0.6524;
1081.5000;0.6243;0.6449;
1081.8000;0.6243;0.6423;
1082.1000;0.6243;0.6449;
1082.4000;0.6276;0.6600;
1082.7000;0.6235;0.6449;
1083.0000;0.6268;0.6524;
1083.3000;0.6260;0.6524;
1083.6000;0.6235;0.6499;
1083.9000;0.6243;0.6524;
1084.2000;0.6227;0.6499;
1084.5000;0.6227;0.6625;
1084.8000;0.6227;0.6625;
1085.1000;0.6235;0.6575;
1085.4000;0.6227;0.6549;
1085.7000;0.6235;0.6675;
1086.0000;0.6252;0.6877;
1086.3000;0.6243;0.6852;
1086.6000;0.6243;0.6801;
1086.9000;0.6292;0.7028;
1087.2000;0.6219;0.6927;
1087.5000;0.6235;0.6927;
1087.8000;0.6235;0.6902;
1088.1000;0.6227;0.6826;
1088.4000;0.6227;0.6751;
1088.7000;0.6219;0.6776;
1089.0000;0.6219;0.6801;
1089.3000;0.6235;0.6751;
1089.6000;0.6219;0.6751;
1089.9000;0.6227;0.6826;
1090.2000;0.6219;0.6852;
1090.5000;0.6211;0.6852;
1090.8000;0.6203;0.6826;
1091.1000;0.6219;0.6902;
1091.4000;0.6227;0.6952;
1091.7000;0.6227;0.6776;
1092.0000;0.6227;0.6751;
1092.3000;0.6227;0.6726;
1092.6000;0.6227;0.6701;
1092.9000;0.6211;0.6701;
1093.2000;0.6219;0.6726;
1093.5000;0.6203;0.6726;
1093.8000;0.6195;0.6751;
1094.1000;0.6203;0.6776;
1094.4000;0.6227;0.6801;
1094.7000;0.6195;0.6701;
1095.0000;0.6203;0.6675;
1095.3000;0.6211;0.6600;
1095.6000;0.6227;0.6625;
1095.9000;0.6235;0.6600;
1096.2000;0.6219;0.6650;
1096.5000;0.6243;0.6675;
1096.8000;0.6178;0.6449;
1097.1000;0.6235;0.6575;
1097.4000;0.6195;0.6474;
1097.7000;0.6227;0.6549;
1098.0000;0.6227;0.6575;
1098.3000;0.6203;0.6398;
1098.6000;0.6211;0.6474;
1098.9000;0.6235;0.6499;
1099.2000;0.6219;0.6474;
1099.5000;0.6203;0.6398;
1099.8000;0.6211;0.6423;
1100.1000;0.6227;0.6499;
1100.4000;0.6227;0.6549;
1100.7000;0.6219;0.6524;
1101.0000;0.6219;0.6449;
1101.3000;0.6211;0.6474;
1101.6000;0.6284;0.6625;
1101.9000;0.6219;0.6499;
1102.2000;0.6211;0.6600;
1102.5000;0.6227;0.6575;
1102.8000;0.6186;0.6524;
1103.1000;0.6211;0.6524;
1103.4000;0.6260;0.6625;
1103.7000;0.6252;0.6600;
1104.0000;0.6211;0.6600;
1104.3000;0.6235;0.6625;
1104.6000;0.6186;0.6474;
1104.9000;0.6219;0.6549;
1105.2000;0.6203;0.6650;
1105.5000;0.6219;0.6650;
1105.8000;0.6211;0.6625;
1106.1000;0.6211;0.6650;
1106.4000;0.6203;0.6600;
1106.7000;0.6235;0.6776;
1107.0000;0.6243;0.6826;
1107.3000;0.6227;0.6776;
1107.6000;0.6219;0.6726;
1107.9000;0.6162;0.6650;
1108.2000;0.6219;0.6801;
1108.5000;0.6138;0.6499;
1108.8000;0.6219;0.6650;
1109.1000;0.6219;0.6675;
1109.4000;0.6227;0.6726;
1109.7000;0.6243;0.6726;
1110.0000;0.6203;0.6650;
1110.3000;0.6227;0.6650;
1110.6000;0.6243;0.6575;
1110.9000;0.6235;0.6575;
1111.2000;0.6227;0.6600;
1111.5000;0.6203;0.6650;
1111.8000;0.6154;0.6499;
1112.1000;0.6227;0.6625;
1112.4000;0.6211;0.6524;
1112.7000;0.6227;0.6549;
1113.0000;0.6227;0.6600;
1113.3000;0.6227;0.6675;
1113.6000;0.6252;0.6751;
1113.9000;0.6211;0.6549;
1114.2000;0.6219;0.6600;
1114.5000;0.6235;0.6625;
1114.8000;0.6219;0.6524;
1115.1000;0.6203;0.6549;
1115.4000;0.6252;0.6726;
1115.7000;0.6235;0.6625;
1116.0000;0.6219;0.6650;
1116.3000;0.6219;0.6625;
1116.6000;0.6203;0.6549;
1116.9000;0.6211;0.6575;
1117.2000;0.6219;0.6575;
1117.5000;0.6211;0.6549;
1117.8000;0.6235;0.6524;
1118.1000;0.6219;0.6575;
1118.4000;0.6219;0.6625;
1118.7000;0.6195;0.6625;
1119.0000;0.6203;0.6650;
1119.3000;0.6211;0.6650;
1119.6000;0.6219;0.6701;
1119.9000;0.6227;0.6776;
1120.2000;0.6203;0.6751;
1120.5000;0.6211;0.6751;
1120.8000;0.6178;0.6625;
1121.1000;0.6203;0.6675;
1121.4000;0.6203;0.6726;
1121.7000;0.6211;0.6701;
1122.0000;0.6219;0.6675;
1122.3000;0.6219;0.6675;
1122.6000;0.6211;0.6650;
1122.9000;0.6195;0.6650;
1123.2000;0.6219;0.6701;
1123.5000;0.6219;0.6650;
1123.8000;0.6252;0.6751;
1124.1000;0.6211;0.6726;
1124.4000;0.6203;0.6675;
1124.7000;0.6203;0.6701;
1125.0000;0.6219;0.6726;
1125.3000;0.6203;0.6751;
1125.6000;0.6211;0.6751;
1125.9000;0.6186;0.6751;
1126.2000;0.6203;0.6826;
1126.5000;0.6195;0.6675;
1126.8000;0.6211;0.6650;
1127.1000;0.6211;0.6499;
1127.4000;0.6195;0.6474;
1127.7000;0.6195;0.6449;
1128.0000;0.6186;0.6423;
1128.3000;0.6203;0.6423;
1128.6000;0.6203;0.6499;
1128.9000;0.6203;0.6625;
1129.2000;0.6211;0.6625;
1129.5000;0.6211;0.6575;
1129.8000;0.6211;0.6474;
1130.1000;0.6235;0.6524;
1130.4000;0.6195;0.6449;
1130.7000;0.6186;0.6449;
1131.0000;0.6203;0.6524;
1131.3000;0.6203;0.6600;
1131.6000;0.6203;0.6650;
1131.9000;0.6219;0.6675;
1132.2000;0.6211;0.6701;
1132.5000;0.6211;0.6600;
1132.8000;0.6203;0.6625;
1133.1000;0.6203;0.6575;
1133.4000;0.6178;0.6474;
1133.7000;0.6211;0.6499;
1134.0000;0.6276;0.6701;
1134.3000;0.6203;0.6499;
1134.6000;0.6203;0.6575;
1134.9000;0.6211;0.6600;
1135.2000;0.6211;0.6549;
1135.5000;0.6211;0.6575;
1135.8000;0.6203;0.6575;
1136.1000;0.6211;0.6524;
1136.4000;0.6195;0.6524;
1136.7000;0.6203;0.6575;
1137.0000;0.6203;0.6575;
1137.3000;0.6203;0.6600;
1137.6000;0.6203;0.6549;
1137.9000;0.6195;0.6549;
1138.2000;0.6178;0.6524;
1138.5000;0.6211;0.6575;
1138.8000;0.6211;0.6449;
1139.1000;0.6227;0.6524;
1139.4000;0.6219;0.6524;
1139.7000;0.6203;0.6650;
1140.0000;0.6211;0.6776;
1140.3000;0.6211;0.6776;
1140.6000;0.6195;0.6675;
1140.9000;0.6211;0.6650;
1141.2000;0.6211;0.6650;
1141.5000;0.6195;0.6625;
1141.8000;0.6121;0.6373;
1142.1000;0.6219;0.6650;
1142.4000;0.6219;0.6600;
1142.7000;0.6211;0.6575;
1143.0000;0.6195;0.6600;
1143.3000;0.6195;0.6575;
1143.6000;0.6227;0.6701;
1143.9000;0.6227;0.6801;
1144.2000;0.6211;0.6751;
1144.5000;0.6195;0.6801;
1144.8000;0.6211;0.6852;
1145.1000;0.6186;0.6776;
1145.4000;0.6203;0.6776;
1145.7000;0.6219;0.6826;
1146.0000;0.6195;0.6776;
1146.3000;0.6211;0.6776;
1146.6000;0.6219;0.6726;
1146.9000;0.6211;0.6625;
1147.2000;0.6203;0.6675;
1147.5000;0.6211;0.6726;
1147.8000;0.6195;0.6625;
1148.1000;0.6203;0.6575;
1148.4000;0.6186;0.6575;
1148.7000;0.6203;0.6625;
1149.0000;0.6211;0.6701;
1149.3000;0.6235;0.6776;
1149.6000;0.6219;0.6701;
1149.9000;0.6203;0.6625;
1150.2000;0.6219;0.6600;
1150.5000;0.6195;0.6575;
1150.8000;0.6138;0.6499;
1151.1000;0.6195;0.6650;
1151.4000;0.6186;0.6675;
1151.7000;0.6211;0.6701;
1152.0000;0.6203;0.6625;
1152.3000;0.6186;0.6625;
1152.6000;0.6203;0.6675;
1152.9000;0.6211;0.6675;
1153.2000;0.6203;0.6625;
1153.5000;0.6162;0.6524;
1153.8000;0.6219;0.6701;
1154.1000;0.6219;0.6701;
1154.4000;0.6203;0.6625;
1154.7000;0.6203;0.6600;
1155.0000;0.6235;0.6650;
1155.3000;0.6203;0.6575;
1155.6000;0.6243;0.6650;
1155.9000;0.6284;0.6726;
1156.2000;0.6195;0.6549;
1156.5000;0.6203;0.6549;
1156.8000;0.6203;0.6575;
1157.1000;0.6195;0.6600;
1157.4000;0.6203;0.6600;
1157.7000;0.6203;0.6575;
1158.0000;0.6195;0.6625;
1158.3000;0.6203;0.6726;
1158.6000;0.6186;0.6701;
1158.9000;0.6211;0.6826;
1159.2000;0.6203;0.6826;
1159.5000;0.6195;0.6701;
1159.8000;0.6203;0.6625;
1160.1000;0.6203;0.6701;
1160.4000;0.6186;0.6625;
1160.7000;0.6195;0.6675;
1161.0000;0.6178;0.6701;
1161.3000;0.6178;0.6701;
1161.6000;0.6195;0.6675;
1161.9000;0.6203;0.6701;
1162.2000;0.6195;0.6726;
1162.5000;0.6219;0.6826;
1162.8000;0.6178;0.6776;
1163.1000;0.6195;0.6826;
1163.4000;0.6195;0.6726;
1163.7000;0.6195;0.6675;
1164.0000;0.6203;0.6726;
1164.3000;0.6195;0.6751;
1164.6000;0.6129;0.6600;
1164.9000;0.6186;0.6701;
1165.2000;0.6154;0.6675;
1165.5000;0.6195;0.6801;
1165.8000;0.6186;0.6726;
1166.1000;0.6195;0.6776;
1166.4000;0.6195;0.6801;
1166.7000;0.6195;0.6826;
1167.0000;0.6203;0.6801;
1167.3000;0.6195;0.6726;
1167.6000;0.6203;0.6726;
1167.9000;0.6211;0.6826;
1168.2000;0.6195;0.6801;
1168.5000;0.6203;0.6852;
1168.8000;0.6186;0.6751;
1169.1000;0.6186;0.6625;
1169.4000;0.6178;0.6575;
1169.7000;0.6211;0.6650;
1170.0000;0.6186;0.6549;
1170.3000;0.6178;0.6549;
1170.6000;0.6186;0.6549;
1170.9000;0.6211;0.6524;
1171.2000;0.6203;0.6549;
1171.5000;0.6203;0.6524;
1171.8000;0.6219;0.6575;
1172.1000;0.6162;0.6423;
1172.4000;0.6203;0.6499;
1172.7000;0.6219;0.6549;
1173.0000;0.6178;0.6499;
1173.3000;0.6203;0.6600;
1173.6000;0.6186;0.6600;
1173.9000;0.6195;0.6650;
1174.2000;0.6203;0.6675;
1174.5000;0.6227;0.6726;
1174.8000;0.6195;0.6549;
1175.1000;0.6178;0.6524;
1175.4000;0.6235;0.6701;
1175.7000;0.6203;0.6675;
1176.0000;0.6203;0.6650;
1176.3000;0.6195;0.6549;
1176.6000;0.6195;0.6499;
1176.9000;0.6195;0.6524;
1177.2000;0.6211;0.6575;
1177.5000;0.6203;0.6524;
1177.8000;0.6203;0.6524;
1178.1000;0.6203;0.6549;
1178.4000;0.6260;0.6826;
1178.7000;0.6186;0.6625;
1179.0000;0.6138;0.6449;
1179.3000;0.6219;0.6650;
1179.6000;0.6195;0.6650;
1179.9000;0.6211;0.6675;
1180.2000;0.6203;0.6625;
1180.5000;0.6211;0.6600;
1180.8000;0.6203;0.6625;
1181.1000;0.6203;0.6625;
1181.4000;0.6211;0.6625;
1181.7000;0.6252;0.6801;
1182.0000;0.6203;0.6675;
1182.3000;0.6195;0.6625;
1182.6000;0.6186;0.6701;
1182.9000;0.6195;0.6701;
1183.2000;0.6203;0.6726;
1183.5000;0.6203;0.6726;
1183.8000;0.6211;0.6776;
1184.1000;0.6203;0.6751;
1184.4000;0.6203;0.6826;
1184.7000;0.6211;0.6776;
1185.0000;0.6211;0.6776;
1185.3000;0.6219;0.6801;
1185.6000;0.6203;0.6776;
1185.9000;0.6203;0.6701;
1186.2000;0.6178;0.6675;
1186.5000;0.6178;0.6600;
1186.8000;0.6252;0.6751;
1187.1000;0.6195;0.6549;
1187.4000;0.6186;0.6650;
1187.7000;0.6195;0.6675;
1188.0000;0.6195;0.6701;
1188.3000;0.6203;0.6701;
1188.6000;0.6195;0.6701;
1188.9000;0.6211;0.6776;
1189.2000;0.6186;0.6625;
1189.5000;0.6195;0.6524;
1189.8000;0.6211;0.6524;
1190.1000;0.6186;0.6474;
1190.4000;0.6195;0.6499;
1190.7000;0.6195;0.6600;
1191.0000;0.6227;0.6625;
1191.3000;0.6195;0.6625;
1191.6000;0.6195;0.6549;
1191.9000;0.6195;0.6600;
1192.2000;0.6162;0.6499;
1192.5000;0.6203;0.6650;
1192.8000;0.6195;0.6625;
1193.1000;0.6178;0.6600;
1193.4000;0.6178;0.6650;
1193.7000;0.6154;0.6549;
1194.0000;0.6195;0.6625;
1194.3000;0.6186;0.6751;
1194.6000;0.6178;0.6701;
1194.9000;0.6170;0.6650;
1195.2000;0.6178;0.6600;
1195.5000;0.6178;0.6600;
1195.8000;0.6203;0.6650;
1196.1000;0.6195;0.6650;
1196.4000;0.6186;0.6650;
1196.7000;0.6186;0.6600;
1197.0000;0.6203;0.6549;
1197.3000;0.6203;0.6650;
1197.6000;0.6186;0.6650;
1197.9000;0.6186;0.6575;
1198.2000;0.6178;0.6549;
1198.5000;0.6186;0.6524;
1198.8000;0.6219;0.6499;
1199.1000;0.6195;0.6423;
1199.4000;0.6203;0.6549;
1199.7000;0.6186;0.6600;
1200.0000;0.6186;0.6625;
1200.3000;0.6203;0.6625;
1200.6000;0.6211;0.6675;
1200.9000;0.6170;0.6499;
1201.2000;0.6211;0.6575;
1201.5000;0.6211;0.6524;
1201.8000;0.6186;0.6575;
1202.1000;0.6178;0.6625;
1202.4000;0.6195;0.6650;
1202.7000;0.6113;0.6423;
1203.0000;0.6195;0.6701;
1203.3000;0.6195;0.6751;
1203.6000;0.6227;0.6776;
1203.9000;0.6211;0.6675;
1204.2000;0.6195;0.6600;
1204.5000;0.6203;0.6650;
1204.8000;0.6211;0.6650;
1205.1000;0.6211;0.6675;
1205.4000;0.6186;0.6675;
1205.7000;0.6186;0.6675;
1206.0000;0.6195;0.6650;
1206.3000;0.6219;0.6701;
1206.6000;0.6186;0.6650;
1206.9000;0.6186;0.6675;
1207.2000;0.6203;0.6675;
1207.5000;0.6203;0.6726;
1207.8000;0.6211;0.6826;
1208.1000;0.6195;0.6675;
1208.4000;0.6178;0.6675;
1208.7000;0.6186;0.6625;
1209.0000;0.6186;0.6625;
1209.3000;0.6186;0.6650;
1209.6000;0.6178;0.6650;
1209.9000;0.6186;0.6701;
1210.2000;0.6178;0.6600;
1210.5000;0.6178;0.6575;
1210.8000;0.6186;0.6524;
1211.1000;0.6195;0.6600;
1211.4000;0.6219;0.6751;
1211.7000;0.6178;0.6675;
1212.0000;0.6186;0.6650;
1212.3000;0.6170;0.6625;
1212.6000;0.6170;0.6650;
1212.9000;0.6203;0.6751;
1213.2000;0.6178;0.6726;
1213.5000;0.6170;0.6675;
1213.8000;0.6186;0.6650;
1214.1000;0.6195;0.6675;
1214.4000;0.6170;0.6726;
1214.7000;0.6186;0.6726;
1215.0000;0.6154;0.6650;
1215.3000;0.6203;0.6852;
1215.6000;0.6186;0.6751;
1215.9000;0.6186;0.6776;
1216.2000;0.6203;0.6826;
1216.5000;0.6186;0.6726;
1216.8000;0.6162;0.6575;
1217.1000;0.6178;0.6625;
1217.4000;0.6203;0.6625;
1217.7000;0.6195;0.6625;
1218.0000;0.6170;0.6625;
1218.3000;0.6178;0.6499;
1218.6000;0.6195;0.6499;
1218.9000;0.6186;0.6549;
1219.2000;0.6186;0.6524;
1219.5000;0.6195;0.6675;
1219.8000;0.6211;0.6751;
1220.1000;0.6186;0.6600;
1220.4000;0.6186;0.6625;
1220.7000;0.6186;0.6701;
1221.0000;0.6186;0.6701;
1221.3000;0.6195;0.6801;
1221.6000;0.6186;0.6751;
1221.9000;0.6195;0.6801;
1222.2000;0.6186;0.6826;
1222.5000;0.6129;0.6650;
1222.8000;0.6235;0.6877;
1223.1000;0.6211;0.6726;
1223.4000;0.6186;0.6726;
1223.7000;0.6195;0.6751;
1224.0000;0.6203;0.6675;
1224.3000;0.6211;0.6600;
1224.6000;0.6211;0.6600;
1224.9000;0.6195;0.6524;
1225.2000;0.6195;0.6549;
1225.5000;0.6178;0.6625;
1225.8000;0.6186;0.6549;
1226.1000;0.6203;0.6575;
1226.4000;0.6186;0.6675;
1226.7000;0.6203;0.6852;
1227.0000;0.6170;0.6726;
1227.3000;0.6170;0.6726;
1227.6000;0.6178;0.6751;
1227.9000;0.6178;0.6751;
1228.2000;0.6178;0.6826;
1228.5000;0.6170;0.6751;
1228.8000;0.6178;0.6776;
1229.1000;0.6186;0.6726;
1229.4000;0.6186;0.6726;
1229.7000;0.6186;0.6852;
1230.0000;0.6195;0.6902;
1230.3000;0.6186;0.7003;
1230.6000;0.6186;0.7003;
1230.9000;0.6178;0.6978;
1231.2000;0.6178;0.6978;
1231.5000;0.6186;0.7028;
1231.8000;0.6186;0.7003;
1232.1000;0.6178;0.6927;
1232.4000;0.6162;0.6978;
1232.7000;0.6186;0.6952;
1233.0000;0.6162;0.6877;
1233.3000;0.6170;0.6801;
1233.6000;0.6170;0.6801;
1233.9000;0.6162;0.6801;
1234.2000;0.6227;0.6902;
1234.5000;0.6154;0.6776;
1234.8000;0.6186;0.6826;
1235.1000;0.6178;0.6675;
1235.4000;0.6203;0.6675;
1235.7000;0.6195;0.6600;
1236.0000;0.6178;0.6625;
1236.3000;0.6219;0.6675;
1236.6000;0.6186;0.6549;
1236.9000;0.6195;0.6600;
1237.2000;0.6195;0.6675;
1237.5000;0.6195;0.6751;
1237.8000;0.6178;0.6701;
1238.1000;0.6170;0.6701;
1238.4000;0.6186;0.6726;
1238.7000;0.6186;0.6751;
1239.0000;0.6219;0.6852;
1239.3000;0.6178;0.6675;
1239.6000;0.6186;0.6701;
1239.9000;0.6178;0.6675;
1240.2000;0.6186;0.6726;
1240.5000;0.6186;0.6701;
1240.8000;0.6195;0.6675;
1241.1000;0.6243;0.6852;
1241.4000;0.6170;0.6701;
1241.7000;0.6186;0.6726;
1242.0000;0.6178;0.6776;
1242.3000;0.6170;0.6776;
1242.6000;0.6186;0.6826;
1242.9000;0.6170;0.6751;
1243.2000;0.6178;0.6726;
1243.5000;0.6195;0.6826;
1243.8000;0.6162;0.6701;
1244.1000;0.6170;0.6776;
1244.4000;0.6186;0.6902;
1244.7000;0.6195;0.6852;
1245.0000;0.6186;0.6877;
1245.3000;0.6195;0.6927;
1245.6000;0.6170;0.6902;
1245.9000;0.6235;0.7053;
1246.2000;0.6170;0.6801;
1246.5000;0.6178;0.6877;
1246.8000;0.6170;0.6852;
1247.1000;0.6170;0.6852;
1247.4000;0.6170;0.6801;
1247.7000;0.6203;0.6751;
1248.0000;0.6146;0.6600;
1248.3000;0.6178;0.6600;
1248.6000;0.6186;0.6701;
1248.9000;0.6154;0.6625;
1249.2000;0.6186;0.6776;
1249.5000;0.6162;0.6701;
1249.8000;0.6170;0.6751;
1250.1000;0.6138;0.6524;
1250.4000;0.6162;0.6625;
1250.7000;0.6178;0.6625;
1251.0000;0.6195;0.6650;
1251.3000;0.6186;0.6625;
1251.6000;0.6178;0.6600;
1251.9000;0.6178;0.6600;
1252.2000;0.6211;0.6701;
1252.5000;0.6186;0.6751;
1252.8000;0.6178;0.6751;
1253.1000;0.6162;0.6877;
1253.4000;0.6162;0.6801;
1253.7000;0.6178;0.6751;
1254.0000;0.6186;0.6751;
1254.3000;0.6162;0.6801;
1254.6000;0.6162;0.6801;
1254.9000;0.6195;0.6877;
1255.2000;0.6170;0.6877;
1255.5000;0.6170;0.6801;
1255.8000;0.6178;0.6852;
1256.1000;0.6170;0.6927;
1256.4000;0.6178;0.6902;
1256.7000;0.6178;0.6902;
1257.0000;0.6170;0.6826;
1257.3000;0.6162;0.6801;
1257.6000;0.6186;0.6801;
1257.9000;0.6178;0.6726;
1258.2000;0.6178;0.6701;
1258.5000;0.6170;0.6701;
1258.8000;0.6170;0.6701;
1259.1000;0.6162;0.6625;
1259.4000;0.6178;0.6701;
1259.7000;0.6170;0.6751;
1260.0000;0.6186;0.6877;
1260.3000;0.6178;0.6852;
1260.6000;0.6170;0.6801;
1260.9000;0.6170;0.6826;
1261.2000;0.6219;0.6927;
1261.5000;0.6211;0.6852;
1261.8000;0.6170;0.6776;
1262.1000;0.6186;0.6952;
1262.4000;0.6195;0.6952;
1262.7000;0.6178;0.6902;
1263.0000;0.6186;0.6877;
1263.3000;0.6186;0.6776;
1263.6000;0.6186;0.6650;
1263.9000;0.6146;0.6524;
1264.2000;0.6227;0.6701;
1264.5000;0.6170;0.6625;
1264.8000;0.6186;0.6701;
1265.1000;0.6195;0.6751;
1265.4000;0.6186;0.6726;
1265.7000;0.6178;0.6675;
1266.0000;0.6260;0.6927;
1266.3000;0.6186;0.6726;
1266.6000;0.6170;0.6625;
1266.9000;0.6178;0.6650;
1267.2000;0.6178;0.6701;
1267.5000;0.6162;0.6575;
1267.8000;0.6195;0.6726;
1268.1000;0.6186;0.6776;
1268.4000;0.6203;0.6826;
1268.7000;0.6186;0.6776;
1269.0000;0.6162;0.6776;
1269.3000;0.6162;0.6801;
1269.6000;0.6170;0.6751;
1269.9000;0.6146;0.6600;
1270.2000;0.6170;0.6625;
1270.5000;0.6203;0.6701;
1270.8000;0.6186;0.6776;
1271.1000;0.6162;0.6751;
1271.4000;0.6121;0.6650;
1271.7000;0.6186;0.6776;
1272.0000;0.6235;0.6902;
1272.3000;0.6162;0.6701;
1272.6000;0.6105;0.6524;
1272.9000;0.6154;0.6726;
1273.2000;0.6186;0.6776;
1273.5000;0.6178;0.6826;
1273.8000;0.6170;0.6801;
1274.1000;0.6195;0.6877;
1274.4000;0.6178;0.6751;
1274.7000;0.6219;0.6801;
1275.0000;0.6170;0.6625;
1275.3000;0.6170;0.6726;
1275.6000;0.6186;0.6776;
1275.9000;0.6178;0.6801;
1276.2000;0.6178;0.6701;
1276.5000;0.6170;0.6726;
1276.8000;0.6186;0.6877;
1277.1000;0.6162;0.6826;
1277.4000;0.6186;0.6877;
1277.7000;0.6195;0.6902;
1278.0000;0.6178;0.6902;
1278.3000;0.6162;0.6902;
1278.6000;0.6162;0.6902;
1278.9000;0.6170;0.6877;
1279.2000;0.6170;0.6877;
1279.5000;0.6170;0.6801;
1279.8000;0.6146;0.6675;
1280.1000;0.6178;0.6726;
1280.4000;0.6186;0.6701;
1280.7000;0.6203;0.6801;
1281.0000;0.6170;0.6826;
1281.3000;0.6138;0.6751;
1281.6000;0.6186;0.6877;
1281.9000;0.6178;0.6877;
1282.2000;0.6186;0.6952;
1282.5000;0.6178;0.6927;
1282.8000;0.6186;0.6902;
1283.1000;0.6178;0.6852;
1283.4000;0.6162;0.6801;
1283.7000;0.6121;0.6751;
1284.0000;0.6178;0.6852;
1284.3000;0.6162;0.6776;
1284.6000;0.6195;0.6826;
1284.9000;0.6154;0.6726;
1285.2000;0.6227;0.7003;
1285.5000;0.6195;0.6852;
1285.8000;0.6162;0.6801;
1286.1000;0.6203;0.6902;
1286.4000;0.6170;0.6826;
1286.7000;0.6243;0.7003;
1287.0000;0.6121;0.6751;
1287.3000;0.6162;0.6852;
1287.6000;0.6162;0.6902;
1287.9000;0.6195;0.6927;
1288.2000;0.6162;0.6801;
1288.5000;0.6203;0.6852;
1288.8000;0.6162;0.6801;
1289.1000;0.6186;0.6852;
1289.4000;0.6170;0.6801;
1289.7000;0.6170;0.6751;
1290.0000;0.6146;0.6726;
1290.3000;0.6129;0.6600;
1290.6000;0.6170;0.6675;
1290.9000;0.6178;0.6701;
1291.2000;0.6170;0.6751;
1291.5000;0.6186;0.6801;
1291.8000;0.6170;0.6801;
1292.1000;0.6170;0.6776;
1292.4000;0.6170;0.6650;
1292.7000;0.6154;0.6650;
1293.0000;0.6170;0.6701;
1293.3000;0.6162;0.6675;
1293.6000;0.6170;0.6675;
1293.9000;0.6170;0.6650;
1294.2000;0.6195;0.6701;
1294.5000;0.6170;0.6575;
1294.8000;0.6186;0.6575;
1295.1000;0.6162;0.6524;
1295.4000;0.6178;0.6524;
1295.7000;0.6162;0.6549;
1296.0000;0.6170;0.6625;
1296.3000;0.6170;0.6549;
1296.6000;0.6170;0.6600;
1296.9000;0.6186;0.6625;
1297.2000;0.6170;0.6650;
1297.5000;0.6170;0.6701;
1297.8000;0.6178;0.6701;
1298.1000;0.6178;0.6650;
1298.4000;0.6162;0.6575;
1298.7000;0.6186;0.6675;
1299.0000;0.6178;0.6625;
1299.3000;0.6178;0.6549;
1299.6000;0.6162;0.6449;
1299.9000;0.6178;0.6449;
1300.2000;0.6154;0.6449;
1300.5000;0.6186;0.6650;
1300.8000;0.6154;0.6575;
1301.1000;0.6170;0.6524;
1301.4000;0.6186;0.6549;
1301.7000;0.6178;0.6524;
1302.0000;0.6186;0.6499;
1302.3000;0.6203;0.6575;
1302.6000;0.6186;0.6474;
1302.9000;0.6186;0.6575;
1303.2000;0.6178;0.6549;
1303.5000;0.6178;0.6474;
1303.8000;0.6178;0.6474;
1304.1000;0.6162;0.6474;
1304.4000;0.6186;0.6549;
1304.7000;0.6097;0.6348;
1305.0000;0.6178;0.6675;
1305.3000;0.6146;0.6701;
1305.6000;0.6170;0.6801;
1305.9000;0.6178;0.6751;
1306.2000;0.6178;0.6776;
1306.5000;0.6178;0.6877;
1306.8000;0.6154;0.6826;
1307.1000;0.6178;0.6877;
1307.4000;0.6162;0.6726;
1307.7000;0.6162;0.6675;
1308.0000;0.6162;0.6650;
1308.3000;0.6186;0.6650;
1308.6000;0.6178;0.6625;
1308.9000;0.6162;0.6701;
1309.2000;0.6162;0.6751;
1309.5000;0.6170;0.6751;
1309.8000;0.6162;0.6751;
1310.1000;0.6154;0.6625;
1310.4000;0.6162;0.6701;
1310.7000;0.6178;0.6701;
1311.0000;0.6154;0.6600;
1311.3000;0.6170;0.6549;
1311.6000;0.6170;0.6600;
1311.9000;0.6162;0.6701;
1312.2000;0.6170;0.6751;
1312.5000;0.6170;0.6726;
1312.8000;0.6170;0.6726;
1313.1000;0.6178;0.6701;
1313.4000;0.6170;0.6650;
1313.7000;0.6162;0.6701;
1314.0000;0.6178;0.6726;
1314.3000;0.6178;0.6675;
1314.6000;0.6195;0.6751;
1314.9000;0.6170;0.6650;
1315.2000;0.6170;0.6650;
1315.5000;0.6170;0.6751;
1315.8000;0.6178;0.6826;
1316.1000;0.6170;0.6776;
1316.4000;0.6186;0.6826;
1316.7000;0.6178;0.6852;
1317.0000;0.6178;0.6776;
1317.3000;0.6170;0.6751;
1317.6000;0.6203;0.6776;
1317.9000;0.6178;0.6726;
1318.2000;0.6186;0.6826;
1318.5000;0.6178;0.6801;
1318.8000;0.6178;0.6877;
1319.1000;0.6178;0.6751;
1319.4000;0.6162;0.6701;
1319.7000;0.6146;0.6675;
1320.0000;0.6170;0.6776;
1320.3000;0.6170;0.6826;
1320.6000;0.6162;0.6776;
1320.9000;0.6170;0.6751;
1321.2000;0.6162;0.6701;
1321.5000;0.6227;0.6826;
1321.8000;0.6219;0.6826;
1322.1000;0.6154;0.6751;
1322.4000;0.6170;0.6776;
1322.7000;0.6170;0.6776;
1323.0000;0.6186;0.6852;
1323.3000;0.6178;0.6801;
1323.6000;0.6186;0.6776;
1323.9000;0.6170;0.6726;
1324.2000;0.6154;0.6600;
1324.5000;0.6162;0.6549;
1324.8000;0.6162;0.6549;
1325.1000;0.6178;0.6675;
1325.4000;0.6162;0.6625;
1325.7000;0.6170;0.6650;
1326.0000;0.6186;0.6650;
1326.3000;0.6162;0.6675;
1326.6000;0.6195;0.6751;
1326.9000;0.6170;0.6625;
1327.2000;0.6186;0.6701;
1327.5000;0.6178;0.6675;
1327.8000;0.6178;0.6600;
1328.1000;0.6178;0.6625;
1328.4000;0.6170;0.6499;
1328.7000;0.6154;0.6449;
1329.0000;0.6178;0.6499;
1329.3000;0.6170;0.6423;
1329.6000;0.6186;0.6549;
1329.9000;0.6162;0.6524;
1330.2000;0.6154;0.6549;
1330.5000;0.6154;0.6675;
1330.8000;0.6162;0.6726;
1331.1000;0.6146;0.6701;
1331.4000;0.6170;0.6751;
1331.7000;0.6178;0.6625;
1332.0000;0.6178;0.6701;
1332.3000;0.6162;0.6701;
1332.6000;0.6195;0.6751;
1332.9000;0.6146;0.6675;
1333.2000;0.6178;0.6675;
1333.5000;0.6227;0.6776;
1333.8000;0.6178;0.6751;
1334.1000;0.6170;0.6701;
1334.4000;0.6170;0.6726;
1334.7000;0.6203;0.6902;
1335.0000;0.6138;0.6726;
1335.3000;0.6162;0.6751;
1335.6000;0.6203;0.6902;
1335.9000;0.6170;0.6826;
1336.2000;0.6195;0.6852;
1336.5000;0.6170;0.6852;
1336.8000;0.6162;0.6776;
1337.1000;0.6170;0.6776;
1337.4000;0.6170;0.6726;
1337.7000;0.6178;0.6726;
1338.0000;0.6186;0.6801;
1338.3000;0.6178;0.6852;
1338.6000;0.6170;0.6877;
1338.9000;0.6170;0.6826;
1339.2000;0.6162;0.6776;
1339.5000;0.6154;0.6701;
1339.8000;0.6162;0.6776;
1340.1000;0.6170;0.6726;
1340.4000;0.6170;0.6801;
1340.7000;0.6146;0.6726;
1341.0000;0.6170;0.6701;
1341.3000;0.6170;0.6726;
1341.6000;0.6243;0.6927;
1341.9000;0.6105;0.6625;
1342.2000;0.6154;0.6751;
1342.5000;0.6170;0.6852;
1342.8000;0.6195;0.6927;
1343.1000;0.6170;0.6852;
1343.4000;0.6170;0.6726;
1343.7000;0.6178;0.6726;
1344.0000;0.6170;0.6776;
1344.3000;0.6170;0.6776;
1344.6000;0.6170;0.6675;
1344.9000;0.6170;0.6650;
1345.2000;0.6162;0.6701;
1345.5000;0.6170;0.6675;
1345.8000;0.6146;0.6650;
1346.1000;0.6162;0.6650;
1346.4000;0.6170;0.6751;
1346.7000;0.6162;0.6751;
1347.0000;0.6178;0.6877;
1347.3000;0.6195;0.6978;
1347.6000;0.6162;0.6826;
1347.9000;0.6154;0.6826;
1348.2000;0.6227;0.6927;
1348.5000;0.6162;0.6726;
1348.8000;0.6138;0.6600;
1349.1000;0.6170;0.6701;
1349.4000;0.6195;0.6902;
1349.7000;0.6170;0.6801;
1350.0000;0.6146;0.6751;
1350.3000;0.6195;0.6826;
1350.6000;0.6146;0.6726;
1350.9000;0.6154;0.6852;
1351.2000;0.6162;0.6852;
1351.5000;0.6170;0.6877;
1351.8000;0.6162;0.6877;
1352.1000;0.6162;0.6902;
1352.4000;0.6154;0.6902;
1352.7000;0.6162;0.6877;
1353.0000;0.6186;0.6902;
1353.3000;0.6162;0.6826;
1353.6000;0.6146;0.6751;
1353.9000;0.6170;0.6776;
1354.2000;0.6186;0.6726;
1354.5000;0.6178;0.6776;
1354.8000;0.6178;0.6726;
1355.1000;0.6162;0.6650;
1355.4000;0.6178;0.6650;
1355.7000;0.6162;0.6625;
1356.0000;0.6170;0.6625;
1356.3000;0.6146;0.6600;
1356.6000;0.6154;0.6701;
1356.9000;0.6154;0.6801;
1357.2000;0.6154;0.6877;
1357.5000;0.6146;0.6801;
1357.8000;0.6162;0.6927;
1358.1000;0.6170;0.6952;
1358.4000;0.6170;0.6877;
1358.7000;0.6162;0.6751;
1359.0000;0.6162;0.6701;
1359.3000;0.6170;0.6751;
1359.6000;0.6186;0.6726;
1359.9000;0.6162;0.6776;
1360.2000;0.6138;0.6726;
1360.5000;0.6113;0.6675;
1360.8000;0.6146;0.6751;
1361.1000;0.6162;0.6826;
1361.4000;0.6162;0.6801;
1361.7000;0.6097;0.6625;
1362.0000;0.6105;0.6575;
1362.3000;0.6195;0.6902;
1362.6000;0.6170;0.6852;
1362.9000;0.6219;0.7028;
1363.2000;0.6170;0.6852;
1363.5000;0.6178;0.6927;
1363.8000;0.6178;0.6952;
1364.1000;0.6105;0.6726;
1364.4000;0.6162;0.6826;
1364.7000;0.6162;0.6776;
1365.0000;0.6121;0.6600;
1365.3000;0.6154;0.6751;
1365.6000;0.6178;0.6776;
1365.9000;0.6170;0.6726;
1366.2000;0.6162;0.6625;
1366.5000;0.6170;0.6650;
1366.8000;0.6162;0.6650;
1367.1000;0.6178;0.6751;
1367.4000;0.6154;0.6625;
1367.7000;0.6154;0.6575;
1368.0000;0.6154;0.6650;
1368.3000;0.6178;0.6801;
1368.6000;0.6170;0.6852;
1368.9000;0.6186;0.6902;
1369.2000;0.6186;0.6902;
1369.5000;0.6162;0.6801;
1369.8000;0.6170;0.6902;
1370.1000;0.6146;0.6877;
1370.4000;0.6154;0.6826;
1370.7000;0.6170;0.6877;
1371.0000;0.6154;0.6877;
1371.3000;0.6170;0.6852;
1371.6000;0.6178;0.6852;
1371.9000;0.6186;0.6877;
1372.2000;0.6162;0.6852;
1372.5000;0.6170;0.6826;
1372.8000;0.6162;0.6650;
1373.1000;0.6170;0.6650;
1373.4000;0.6178;0.6600;
1373.7000;0.6138;0.6499;
1374.0000;0.6162;0.6600;
1374.3000;0.6162;0.6549;
1374.6000;0.6170;0.6650;
1374.9000;0.6170;0.6625;
1375.2000;0.6162;0.6650;
1375.5000;0.6154;0.6549;
1375.8000;0.6154;0.6549;
1376.1000;0.6154;0.6600;
1376.4000;0.6146;0.6625;
1376.7000;0.6154;0.6549;
1377.0000;0.6170;0.6524;
1377.3000;0.6113;0.6423;
1377.6000;0.6162;0.6575;
1377.9000;0.6178;0.6499;
1378.2000;0.6170;0.6499;
1378.5000;0.6178;0.6600;
1378.8000;0.6170;0.6600;
1379.1000;0.6178;0.6600;
1379.4000;0.6186;0.6600;
1379.7000;0.6170;0.6650;
1380.0000;0.6154;0.6549;
1380.3000;0.6186;0.6650;
1380.6000;0.6162;0.6575;
1380.9000;0.6170;0.6600;
1381.2000;0.6178;0.6625;
1381.5000;0.6170;0.6625;
1381.8000;0.6138;0.6524;
1382.1000;0.6162;0.6650;
1382.4000;0.6170;0.6751;
1382.7000;0.6170;0.6801;
1383.0000;0.6162;0.6826;
1383.3000;0.6170;0.6877;
1383.6000;0.6154;0.6801;
1383.9000;0.6186;0.6902;
1384.2000;0.6162;0.6801;
1384.5000;0.6154;0.6675;
1384.8000;0.6162;0.6600;
1385.1000;0.6162;0.6575;
1385.4000;0.6146;0.6499;
1385.7000;0.6154;0.6474;
1386.0000;0.6186;0.6474;
1386.3000;0.6162;0.6423;
1386.6000;0.6162;0.6474;
1386.9000;0.6178;0.6575;
1387.2000;0.6154;0.6449;
1387.5000;0.6154;0.6474;
1387.8000;0.6154;0.6499;
1388.1000;0.6138;0.6549;
1388.4000;0.6170;0.6549;
1388.7000;0.6162;0.6650;
1389.0000;0.6162;0.6600;
1389.3000;0.6146;0.6524;
1389.6000;0.6162;0.6524;
1389.9000;0.6162;0.6549;
1390.2000;0.6186;0.6650;
1390.5000;0.6154;0.6575;
1390.8000;0.6162;0.6575;
1391.1000;0.6146;0.6625;
1391.4000;0.6162;0.6600;
1391.7000;0.6170;0.6625;
1392.0000;0.6162;0.6549;
1392.3000;0.6146;0.6524;
1392.6000;0.6146;0.6575;
1392.9000;0.6146;0.6524;
1393.2000;0.6154;0.6499;
1393.5000;0.6146;0.6524;
1393.8000;0.6162;0.6701;
1394.1000;0.6178;0.6751;
1394.4000;0.6162;0.6650;
1394.7000;0.6146;0.6751;
1395.0000;0.6162;0.6852;
1395.3000;0.6154;0.6751;
1395.6000;0.6162;0.6726;
1395.9000;0.6162;0.6625;
1396.2000;0.6154;0.6650;
1396.5000;0.6162;0.6675;
1396.8000;0.6162;0.6726;
1397.1000;0.6162;0.6751;
1397.4000;0.6154;0.6701;
1397.7000;0.6170;0.6776;
1398.0000;0.6154;0.6801;
1398.3000;0.6154;0.6776;
1398.6000;0.6138;0.6726;
1398.9000;0.6162;0.6726;
1399.2000;0.6170;0.6751;
1399.5000;0.6162;0.6751;
1399.8000;0.6162;0.6776;
