time/ms;Fluo/V;P700 deltaI/I x10³;
-199.8000;0.8262;0.8061;
-199.5000;0.8303;0.8086;
-199.2000;0.8303;0.7935;
-198.9000;0.8327;0.8036;
-198.6000;0.8221;0.7834;
-198.3000;0.8287;0.7960;
-198.0000;0.8278;0.7809;
-197.7000;0.8303;0.7859;
-197.4000;0.8311;0.7884;
-197.1000;0.8287;0.7884;
-196.8000;0.8303;0.7935;
-196.5000;0.8303;0.7960;
-196.2000;0.8311;0.8036;
-195.9000;0.8303;0.7960;
-195.6000;0.8311;0.8036;
-195.3000;0.8303;0.7985;
-195.0000;0.8303;0.8061;
-194.7000;0.8303;0.8036;
-194.4000;0.8262;0.7910;
-194.1000;0.8287;0.7859;
-193.8000;0.8295;0.7910;
-193.5000;0.8295;0.7910;
-193.2000;0.8327;0.7910;
-192.9000;0.8344;0.8036;
-192.6000;0.8238;0.7809;
-192.3000;0.8344;0.8061;
-192.0000;0.8311;0.7985;
-191.7000;0.8303;0.7960;
-191.4000;0.8295;0.7985;
-191.1000;0.8303;0.8086;
-190.8000;0.8287;0.8187;
-190.5000;0.8295;0.8111;
-190.2000;0.8303;0.8111;
-189.9000;0.8295;0.8010;
-189.6000;0.8295;0.7935;
-189.3000;0.8262;0.7935;
-189.0000;0.8295;0.8036;
-188.7000;0.8303;0.8061;
-188.4000;0.8287;0.8036;
-188.1000;0.8287;0.8010;
-187.8000;0.8295;0.8061;
-187.5000;0.8287;0.8136;
-187.2000;0.8327;0.8262;
-186.9000;0.8319;0.8237;
-186.6000;0.8295;0.8237;
-186.3000;0.8319;0.8237;
-186.0000;0.8303;0.8086;
-185.7000;0.8287;0.7910;
-185.4000;0.8295;0.7960;
-185.1000;0.8319;0.8111;
-184.8000;0.8311;0.8187;
-184.5000;0.8303;0.8162;
-184.2000;0.8303;0.8212;
-183.9000;0.8287;0.8187;
-183.6000;0.8303;0.8111;
-183.3000;0.8319;0.8162;
-183.0000;0.8303;0.8086;
-182.7000;0.8311;0.8086;
-182.4000;0.8295;0.7985;
-182.1000;0.8319;0.8111;
-181.8000;0.8287;0.8136;
-181.5000;0.8303;0.8162;
-181.2000;0.8295;0.8262;
-180.9000;0.8303;0.8262;
-180.6000;0.8278;0.8288;
-180.3000;0.8327;0.8363;
-180.0000;0.8303;0.8288;
-179.7000;0.8319;0.8288;
-179.4000;0.8335;0.8363;
-179.1000;0.8303;0.8237;
-178.8000;0.8376;0.8388;
-178.5000;0.8311;0.8237;
-178.2000;0.8335;0.8212;
-177.9000;0.8287;0.8086;
-177.6000;0.8303;0.8111;
-177.3000;0.8295;0.8187;
-177.0000;0.8311;0.8136;
-176.7000;0.8295;0.8212;
-176.4000;0.8303;0.8288;
-176.1000;0.8287;0.8187;
-175.8000;0.8303;0.8237;
-175.5000;0.8311;0.8212;
-175.2000;0.8287;0.7985;
-174.9000;0.8303;0.8061;
-174.6000;0.8311;0.8111;
-174.3000;0.8278;0.8162;
-174.0000;0.8311;0.8262;
-173.7000;0.8287;0.8162;
-173.4000;0.8287;0.8212;
-173.1000;0.8303;0.8262;
-172.8000;0.8303;0.8338;
-172.5000;0.8278;0.8187;
-172.2000;0.8278;0.8136;
-171.9000;0.8311;0.8136;
-171.6000;0.8327;0.8036;
-171.3000;0.8278;0.7859;
-171.0000;0.8303;0.7910;
-170.7000;0.8303;0.7859;
-170.4000;0.8311;0.7910;
-170.1000;0.8278;0.7859;
-169.8000;0.8295;0.7859;
-169.5000;0.8295;0.7960;
-169.2000;0.8295;0.8010;
-168.9000;0.8311;0.8111;
-168.6000;0.8368;0.8237;
-168.3000;0.8303;0.8036;
-168.0000;0.8303;0.8061;
-167.7000;0.8295;0.8036;
-167.4000;0.8303;0.7960;
-167.1000;0.8303;0.7960;
-166.8000;0.8327;0.7859;
-166.5000;0.8327;0.7884;
-166.2000;0.8311;0.7859;
-165.9000;0.8319;0.7859;
-165.6000;0.8311;0.7910;
-165.3000;0.8295;0.7910;
-165.0000;0.8278;0.7834;
-164.7000;0.8303;0.7859;
-164.4000;0.8303;0.7859;
-164.1000;0.8295;0.7960;
-163.8000;0.8335;0.8086;
-163.5000;0.8303;0.7985;
-163.2000;0.8311;0.8061;
-162.9000;0.8319;0.8136;
-162.6000;0.8287;0.8036;
-162.3000;0.8287;0.7960;
-162.0000;0.8254;0.7960;
-161.7000;0.8303;0.8136;
-161.4000;0.8295;0.8162;
-161.1000;0.8295;0.8162;
-160.8000;0.8262;0.8111;
-160.5000;0.8295;0.8288;
-160.2000;0.8295;0.8262;
-159.9000;0.8278;0.8136;
-159.6000;0.8295;0.8162;
-159.3000;0.8311;0.8212;
-159.0000;0.8295;0.8162;
-158.7000;0.8295;0.8187;
-158.4000;0.8278;0.8086;
-158.1000;0.8311;0.8187;
-157.8000;0.8295;0.8313;
-157.5000;0.8295;0.8237;
-157.2000;0.8303;0.8187;
-156.9000;0.8295;0.8162;
-156.6000;0.8311;0.8212;
-156.3000;0.8287;0.8187;
-156.0000;0.8303;0.8237;
-155.7000;0.8287;0.8162;
-155.4000;0.8303;0.8212;
-155.1000;0.8303;0.8162;
-154.8000;0.8295;0.8136;
-154.5000;0.8311;0.8237;
-154.2000;0.8303;0.8313;
-153.9000;0.8303;0.8313;
-153.6000;0.8311;0.8288;
-153.3000;0.8303;0.8313;
-153.0000;0.8311;0.8313;
-152.7000;0.8303;0.8288;
-152.4000;0.8303;0.8262;
-152.1000;0.8311;0.8288;
-151.8000;0.8319;0.8313;
-151.5000;0.8311;0.8288;
-151.2000;0.8287;0.8212;
-150.9000;0.8311;0.8187;
-150.6000;0.8319;0.8212;
-150.3000;0.8311;0.8212;
-150.0000;0.8319;0.8111;
-149.7000;0.8303;0.8036;
-149.4000;0.8303;0.8010;
-149.1000;0.8327;0.8061;
-148.8000;0.8295;0.7884;
-148.5000;0.8295;0.7910;
-148.2000;0.8311;0.8010;
-147.9000;0.8319;0.8111;
-147.6000;0.8303;0.8111;
-147.3000;0.8278;0.8086;
-147.0000;0.8303;0.8111;
-146.7000;0.8311;0.8111;
-146.4000;0.8319;0.8162;
-146.1000;0.8311;0.8036;
-145.8000;0.8246;0.7859;
-145.5000;0.8303;0.8061;
-145.2000;0.8335;0.8187;
-144.9000;0.8319;0.8162;
-144.6000;0.8303;0.8061;
-144.3000;0.8287;0.8086;
-144.0000;0.8303;0.8187;
-143.7000;0.8319;0.8212;
-143.4000;0.8287;0.8086;
-143.1000;0.8303;0.8010;
-142.8000;0.8303;0.7985;
-142.5000;0.8303;0.7859;
-142.2000;0.8295;0.7759;
-141.9000;0.8311;0.7784;
-141.6000;0.8311;0.7859;
-141.3000;0.8319;0.7910;
-141.0000;0.8303;0.7985;
-140.7000;0.8327;0.7960;
-140.4000;0.8303;0.7960;
-140.1000;0.8311;0.7960;
-139.8000;0.8311;0.7960;
-139.5000;0.8262;0.7859;
-139.2000;0.8287;0.7910;
-138.9000;0.8303;0.7985;
-138.6000;0.8230;0.7809;
-138.3000;0.8287;0.7910;
-138.0000;0.8287;0.7884;
-137.7000;0.8311;0.7935;
-137.4000;0.8303;0.7884;
-137.1000;0.8311;0.7884;
-136.8000;0.8303;0.7910;
-136.5000;0.8319;0.7910;
-136.2000;0.8303;0.7935;
-135.9000;0.8303;0.7859;
-135.6000;0.8287;0.7859;
-135.3000;0.8303;0.7935;
-135.0000;0.8319;0.7910;
-134.7000;0.8311;0.7935;
-134.4000;0.8303;0.7960;
-134.1000;0.8303;0.7960;
-133.8000;0.8295;0.7985;
-133.5000;0.8319;0.8010;
-133.2000;0.8303;0.8010;
-132.9000;0.8303;0.8010;
-132.6000;0.8287;0.7960;
-132.3000;0.8287;0.7960;
-132.0000;0.8303;0.8086;
-131.7000;0.8303;0.8111;
-131.4000;0.8311;0.8136;
-131.1000;0.8319;0.8187;
-130.8000;0.8303;0.8136;
-130.5000;0.8287;0.8162;
-130.2000;0.8287;0.8212;
-129.9000;0.8295;0.8262;
-129.6000;0.8287;0.8162;
-129.3000;0.8295;0.8061;
-129.0000;0.8287;0.8061;
-128.7000;0.8278;0.7884;
-128.4000;0.8295;0.7834;
-128.1000;0.8287;0.7784;
-127.8000;0.8278;0.7809;
-127.5000;0.8278;0.7834;
-127.2000;0.8303;0.7859;
-126.9000;0.8295;0.7784;
-126.6000;0.8327;0.7985;
-126.3000;0.8327;0.8061;
-126.0000;0.8303;0.7935;
-125.7000;0.8303;0.7960;
-125.4000;0.8295;0.7935;
-125.1000;0.8278;0.7809;
-124.8000;0.8319;0.7859;
-124.5000;0.8303;0.7884;
-124.2000;0.8295;0.7859;
-123.9000;0.8335;0.7960;
-123.6000;0.8287;0.7884;
-123.3000;0.8303;0.7935;
-123.0000;0.8303;0.7985;
-122.7000;0.8303;0.8036;
-122.4000;0.8295;0.7935;
-122.1000;0.8303;0.7985;
-121.8000;0.8287;0.7960;
-121.5000;0.8278;0.7935;
-121.2000;0.8295;0.7960;
-120.9000;0.8303;0.7985;
-120.6000;0.8295;0.7910;
-120.3000;0.8303;0.7985;
-120.0000;0.8311;0.8036;
-119.7000;0.8303;0.8086;
-119.4000;0.8295;0.8136;
-119.1000;0.8344;0.8237;
-118.8000;0.8295;0.8086;
-118.5000;0.8311;0.8111;
-118.2000;0.8295;0.8162;
-117.9000;0.8303;0.8136;
-117.6000;0.8295;0.8162;
-117.3000;0.8311;0.8187;
-117.0000;0.8311;0.8212;
-116.7000;0.8287;0.8136;
-116.4000;0.8295;0.8136;
-116.1000;0.8303;0.8162;
-115.8000;0.8295;0.8136;
-115.5000;0.8303;0.8162;
-115.2000;0.8303;0.8187;
-114.9000;0.8287;0.8086;
-114.6000;0.8303;0.8111;
-114.3000;0.8295;0.8061;
-114.0000;0.8319;0.8086;
-113.7000;0.8295;0.8086;
-113.4000;0.8278;0.8086;
-113.1000;0.8287;0.8162;
-112.8000;0.8295;0.8162;
-112.5000;0.8295;0.8086;
-112.2000;0.8311;0.8111;
-111.9000;0.8287;0.8136;
-111.6000;0.8287;0.8212;
-111.3000;0.8311;0.8187;
-111.0000;0.8311;0.8136;
-110.7000;0.8327;0.8061;
-110.4000;0.8352;0.8136;
-110.1000;0.8303;0.8061;
-109.8000;0.8303;0.8061;
-109.5000;0.8344;0.8136;
-109.2000;0.8303;0.7985;
-108.9000;0.8295;0.7985;
-108.6000;0.8295;0.7985;
-108.3000;0.8262;0.7910;
-108.0000;0.8262;0.7960;
-107.7000;0.8311;0.8086;
-107.4000;0.8287;0.7960;
-107.1000;0.8303;0.8036;
-106.8000;0.8319;0.8086;
-106.5000;0.8311;0.8086;
-106.2000;0.8287;0.8010;
-105.9000;0.8311;0.8136;
-105.6000;0.8303;0.8111;
-105.3000;0.8270;0.8036;
-105.0000;0.8295;0.8212;
-104.7000;0.8287;0.8162;
-104.4000;0.8319;0.8162;
-104.1000;0.8303;0.8212;
-103.8000;0.8295;0.8187;
-103.5000;0.8295;0.8136;
-103.2000;0.8295;0.8187;
-102.9000;0.8311;0.8313;
-102.6000;0.8303;0.8262;
-102.3000;0.8278;0.8162;
-102.0000;0.8303;0.8212;
-101.7000;0.8303;0.8212;
-101.4000;0.8303;0.8212;
-101.1000;0.8295;0.8237;
-100.8000;0.8295;0.8262;
-100.5000;0.8246;0.8187;
-100.2000;0.8295;0.8363;
-99.9000;0.8295;0.8262;
-99.6000;0.8295;0.8262;
-99.3000;0.8352;0.8363;
-99.0000;0.8335;0.8363;
-98.7000;0.8295;0.8313;
-98.4000;0.8311;0.8338;
-98.1000;0.8319;0.8413;
-97.8000;0.8295;0.8388;
-97.5000;0.8311;0.8413;
-97.2000;0.8287;0.8237;
-96.9000;0.8311;0.8237;
-96.6000;0.8311;0.8262;
-96.3000;0.8311;0.8338;
-96.0000;0.8311;0.8388;
-95.7000;0.8311;0.8388;
-95.4000;0.8319;0.8313;
-95.1000;0.8303;0.8363;
-94.8000;0.8295;0.8313;
-94.5000;0.8327;0.8338;
-94.2000;0.8303;0.8288;
-93.9000;0.8303;0.8338;
-93.6000;0.8319;0.8338;
-93.3000;0.8278;0.8162;
-93.0000;0.8311;0.8187;
-92.7000;0.8311;0.8262;
-92.4000;0.8327;0.8262;
-92.1000;0.8311;0.8237;
-91.8000;0.8295;0.8212;
-91.5000;0.8311;0.8237;
-91.2000;0.8311;0.8212;
-90.9000;0.8335;0.8187;
-90.6000;0.8311;0.8162;
-90.3000;0.8311;0.8162;
-90.0000;0.8319;0.8237;
-89.7000;0.8319;0.8313;
-89.4000;0.8303;0.8262;
-89.1000;0.8303;0.8338;
-88.8000;0.8303;0.8313;
-88.5000;0.8319;0.8363;
-88.2000;0.8303;0.8313;
-87.9000;0.8303;0.8338;
-87.6000;0.8303;0.8313;
-87.3000;0.8335;0.8388;
-87.0000;0.8295;0.8262;
-86.7000;0.8287;0.8313;
-86.4000;0.8230;0.8237;
-86.1000;0.8287;0.8338;
-85.8000;0.8287;0.8338;
-85.5000;0.8303;0.8338;
-85.2000;0.8303;0.8237;
-84.9000;0.8311;0.8212;
-84.6000;0.8295;0.8111;
-84.3000;0.8287;0.8061;
-84.0000;0.8303;0.8111;
-83.7000;0.8287;0.8061;
-83.4000;0.8303;0.8111;
-83.1000;0.8287;0.8111;
-82.8000;0.8303;0.8162;
-82.5000;0.8303;0.8162;
-82.2000;0.8295;0.8136;
-81.9000;0.8303;0.8162;
-81.6000;0.8303;0.8111;
-81.3000;0.8303;0.8187;
-81.0000;0.8278;0.8010;
-80.7000;0.8287;0.8061;
-80.4000;0.8303;0.8010;
-80.1000;0.8319;0.8111;
-79.8000;0.8295;0.8111;
-79.5000;0.8311;0.8237;
-79.2000;0.8295;0.8288;
-78.9000;0.8327;0.8313;
-78.6000;0.8303;0.8288;
-78.3000;0.8287;0.8212;
-78.0000;0.8287;0.8237;
-77.7000;0.8303;0.8313;
-77.4000;0.8311;0.8388;
-77.1000;0.8311;0.8388;
-76.8000;0.8303;0.8313;
-76.5000;0.8295;0.8262;
-76.2000;0.8311;0.8413;
-75.9000;0.8287;0.8388;
-75.6000;0.8287;0.8363;
-75.3000;0.8295;0.8237;
-75.0000;0.8295;0.8288;
-74.7000;0.8287;0.8288;
-74.4000;0.8303;0.8338;
-74.1000;0.8295;0.8363;
-73.8000;0.8303;0.8413;
-73.5000;0.8303;0.8489;
-73.2000;0.8303;0.8439;
-72.9000;0.8270;0.8338;
-72.6000;0.8311;0.8413;
-72.3000;0.8311;0.8288;
-72.0000;0.8303;0.8237;
-71.7000;0.8262;0.8237;
-71.4000;0.8287;0.8313;
-71.1000;0.8303;0.8338;
-70.8000;0.8319;0.8313;
-70.5000;0.8246;0.8187;
-70.2000;0.8270;0.8262;
-69.9000;0.8246;0.8237;
-69.6000;0.8230;0.8111;
-69.3000;0.8295;0.8212;
-69.0000;0.8303;0.8237;
-68.7000;0.8319;0.8338;
-68.4000;0.8295;0.8237;
-68.1000;0.8278;0.8262;
-67.8000;0.8278;0.8388;
-67.5000;0.8287;0.8388;
-67.2000;0.8303;0.8388;
-66.9000;0.8303;0.8363;
-66.6000;0.8287;0.8363;
-66.3000;0.8319;0.8363;
-66.0000;0.8311;0.8363;
-65.7000;0.8295;0.8363;
-65.4000;0.8287;0.8388;
-65.1000;0.8295;0.8388;
-64.8000;0.8311;0.8338;
-64.5000;0.8303;0.8313;
-64.2000;0.8311;0.8313;
-63.9000;0.8327;0.8288;
-63.6000;0.8295;0.8262;
-63.3000;0.8311;0.8187;
-63.0000;0.8287;0.8086;
-62.7000;0.8278;0.8010;
-62.4000;0.8303;0.8061;
-62.1000;0.8303;0.8036;
-61.8000;0.8270;0.8136;
-61.5000;0.8295;0.8237;
-61.2000;0.8295;0.8212;
-60.9000;0.8303;0.8162;
-60.6000;0.8287;0.8162;
-60.3000;0.8287;0.8136;
-60.0000;0.8295;0.8086;
-59.7000;0.8287;0.8111;
-59.4000;0.8303;0.8111;
-59.1000;0.8270;0.8136;
-58.8000;0.8295;0.8187;
-58.5000;0.8262;0.8086;
-58.2000;0.8311;0.8136;
-57.9000;0.8303;0.8212;
-57.6000;0.8311;0.8187;
-57.3000;0.8311;0.8162;
-57.0000;0.8311;0.8212;
-56.7000;0.8311;0.8212;
-56.4000;0.8303;0.8136;
-56.1000;0.8319;0.8187;
-55.8000;0.8319;0.8212;
-55.5000;0.8303;0.8162;
-55.2000;0.8246;0.8111;
-54.9000;0.8311;0.8237;
-54.6000;0.8295;0.8288;
-54.3000;0.8287;0.8288;
-54.0000;0.8303;0.8338;
-53.7000;0.8230;0.8061;
-53.4000;0.8303;0.8187;
-53.1000;0.8287;0.8187;
-52.8000;0.8295;0.8187;
-52.5000;0.8287;0.8086;
-52.2000;0.8262;0.8061;
-51.9000;0.8303;0.8162;
-51.6000;0.8303;0.8136;
-51.3000;0.8303;0.8212;
-51.0000;0.8303;0.8212;
-50.7000;0.8344;0.8338;
-50.4000;0.8295;0.8187;
-50.1000;0.8303;0.8212;
-49.8000;0.8254;0.8136;
-49.5000;0.8303;0.8262;
-49.2000;0.8327;0.8388;
-48.9000;0.8311;0.8388;
-48.6000;0.8278;0.8262;
-48.3000;0.8295;0.8288;
-48.0000;0.8303;0.8313;
-47.7000;0.8311;0.8313;
-47.4000;0.8270;0.8162;
-47.1000;0.8287;0.8136;
-46.8000;0.8270;0.8010;
-46.5000;0.8262;0.8061;
-46.2000;0.8270;0.8237;
-45.9000;0.8295;0.8262;
-45.6000;0.8287;0.8237;
-45.3000;0.8278;0.8262;
-45.0000;0.8311;0.8262;
-44.7000;0.8295;0.8136;
-44.4000;0.8303;0.8111;
-44.1000;0.8287;0.8111;
-43.8000;0.8295;0.8162;
-43.5000;0.8295;0.8111;
-43.2000;0.8295;0.8111;
-42.9000;0.8303;0.8162;
-42.6000;0.8303;0.8212;
-42.3000;0.8311;0.8237;
-42.0000;0.8327;0.8237;
-41.7000;0.8287;0.8136;
-41.4000;0.8278;0.8111;
-41.1000;0.8295;0.8187;
-40.8000;0.8303;0.8136;
-40.5000;0.8303;0.8212;
-40.2000;0.8303;0.8162;
-39.9000;0.8295;0.8162;
-39.6000;0.8295;0.8086;
-39.3000;0.8295;0.8086;
-39.0000;0.8303;0.8061;
-38.7000;0.8287;0.8036;
-38.4000;0.8303;0.8111;
-38.1000;0.8287;0.8136;
-37.8000;0.8303;0.8162;
-37.5000;0.8270;0.8162;
-37.2000;0.8311;0.8212;
-36.9000;0.8319;0.8212;
-36.6000;0.8303;0.8061;
-36.3000;0.8303;0.8136;
-36.0000;0.8254;0.8036;
-35.7000;0.8295;0.8061;
-35.4000;0.8311;0.8111;
-35.1000;0.8287;0.8061;
-34.8000;0.8278;0.8036;
-34.5000;0.8287;0.8061;
-34.2000;0.8303;0.8086;
-33.9000;0.8311;0.8111;
-33.6000;0.8319;0.8111;
-33.3000;0.8295;0.8061;
-33.0000;0.8303;0.8187;
-32.7000;0.8311;0.8262;
-32.4000;0.8270;0.8111;
-32.1000;0.8303;0.8111;
-31.8000;0.8311;0.8111;
-31.5000;0.8295;0.8111;
-31.2000;0.8254;0.8010;
-30.9000;0.8311;0.8136;
-30.6000;0.8270;0.8086;
-30.3000;0.8287;0.8162;
-30.0000;0.8311;0.8262;
-29.7000;0.8303;0.8237;
-29.4000;0.8295;0.8212;
-29.1000;0.8327;0.8262;
-28.8000;0.8319;0.8187;
-28.5000;0.8295;0.8162;
-28.2000;0.8295;0.8187;
-27.9000;0.8303;0.8136;
-27.6000;0.8287;0.8111;
-27.3000;0.8295;0.8187;
-27.0000;0.8295;0.8187;
-26.7000;0.8287;0.8212;
-26.4000;0.8311;0.8212;
-26.1000;0.8287;0.8237;
-25.8000;0.8295;0.8313;
-25.5000;0.8295;0.8313;
-25.2000;0.8319;0.8363;
-24.9000;0.8278;0.8237;
-24.6000;0.8303;0.8338;
-24.3000;0.8303;0.8313;
-24.0000;0.8287;0.8262;
-23.7000;0.8319;0.8288;
-23.4000;0.8278;0.8187;
-23.1000;0.8303;0.8237;
-22.8000;0.8254;0.8111;
-22.5000;0.8352;0.8439;
-22.2000;0.8278;0.8262;
-21.9000;0.8287;0.8288;
-21.6000;0.8303;0.8363;
-21.3000;0.8287;0.8288;
-21.0000;0.8287;0.8237;
-20.7000;0.8295;0.8262;
-20.4000;0.8295;0.8262;
-20.1000;0.8303;0.8212;
-19.8000;0.8278;0.8086;
-19.5000;0.8295;0.8010;
-19.2000;0.8303;0.8061;
-18.9000;0.8311;0.8086;
-18.6000;0.8319;0.8086;
-18.3000;0.8311;0.8061;
-18.0000;0.8303;0.8086;
-17.7000;0.8295;0.7985;
-17.4000;0.8295;0.8036;
-17.1000;0.8295;0.8036;
-16.8000;0.8278;0.8136;
-16.5000;0.8295;0.8237;
-16.2000;0.8295;0.8288;
-15.9000;0.8278;0.8262;
-15.6000;0.8295;0.8288;
-15.3000;0.8287;0.8262;
-15.0000;0.8295;0.8237;
-14.7000;0.8287;0.8162;
-14.4000;0.8238;0.8010;
-14.1000;0.8295;0.8162;
-13.8000;0.8303;0.8212;
-13.5000;0.8287;0.8187;
-13.2000;0.8303;0.8262;
-12.9000;0.8295;0.8162;
-12.6000;0.8303;0.8111;
-12.3000;0.8319;0.8212;
-12.0000;0.8303;0.8212;
-11.7000;0.8295;0.8212;
-11.4000;0.8254;0.8136;
-11.1000;0.8311;0.8237;
-10.8000;0.8287;0.8162;
-10.5000;0.8303;0.8187;
-10.2000;0.8278;0.8111;
-9.9000;0.8287;0.8086;
-9.6000;0.8254;0.7960;
-9.3000;0.8319;0.8187;
-9.0000;0.8327;0.8061;
-8.7000;0.8303;0.8036;
-8.4000;0.8327;0.7960;
-8.1000;0.8295;0.7910;
-7.8000;0.8303;0.7985;
-7.5000;0.8262;0.7884;
-7.2000;0.8344;0.8162;
-6.9000;0.8319;0.8036;
-6.6000;0.8295;0.7985;
-6.3000;0.8287;0.7985;
-6.0000;0.8303;0.8010;
-5.7000;0.8311;0.8010;
-5.4000;0.8270;0.7985;
-5.1000;0.8295;0.8086;
-4.8000;0.8295;0.8111;
-4.5000;0.8278;0.8061;
-4.2000;0.8278;0.8086;
-3.9000;0.8303;0.8136;
-3.6000;0.8311;0.8162;
-3.3000;0.8303;0.8136;
-3.0000;0.8319;0.8111;
-2.7000;0.8311;0.8086;
-2.4000;0.8303;0.8010;
-2.1000;0.8319;0.8010;
-1.8000;0.8287;0.7985;
-1.5000;0.8287;0.8010;
-1.2000;0.8295;0.8036;
-0.9000;0.8287;0.8010;
-0.6000;0.8295;0.8010;
-0.3000;0.8278;0.8010;
0.0000;0.8278;0.8010;
0.3000;0.8645;0.8363;
0.6000;0.9166;0.8816;
0.9000;0.9581;0.9194;
1.2000;0.9915;0.9597;
1.5000;1.0183;0.9874;
1.8000;1.0362;1.0126;
2.1000;1.0558;1.0378;
2.4000;1.0655;1.0479;
2.7000;1.0777;1.0681;
3.0000;1.0883;1.0781;
3.3000;1.0956;1.0832;
3.6000;1.1030;1.0882;
3.9000;1.1095;1.1033;
4.2000;1.1168;1.1134;
4.5000;1.1241;1.1235;
4.8000;1.1282;1.1260;
5.1000;1.1363;1.1335;
5.4000;1.1396;1.1310;
5.7000;1.1461;1.1361;
6.0000;1.1494;1.1335;
6.3000;1.1543;1.1285;
6.6000;1.1583;1.1285;
6.9000;1.1616;1.1310;
7.2000;1.1681;1.1310;
7.5000;1.1722;1.1285;
7.8000;1.1746;1.1285;
8.1000;1.1770;1.1285;
8.4000;1.1811;1.1310;
8.7000;1.1836;1.1159;
9.0000;1.1893;1.1210;
9.3000;1.1925;1.1235;
9.6000;1.1941;1.1159;
9.9000;1.1982;1.1159;
10.2000;1.2007;1.1260;
10.5000;1.2047;1.1361;
10.8000;1.2063;1.1361;
11.1000;1.2096;1.1386;
11.4000;1.2129;1.1335;
11.7000;1.2161;1.1310;
12.0000;1.2177;1.1260;
12.3000;1.2210;1.1134;
12.6000;1.2243;1.1134;
12.9000;1.2259;1.1184;
13.2000;1.2275;1.1184;
13.5000;1.2291;1.1210;
13.8000;1.2308;1.1184;
14.1000;1.2332;1.1235;
14.4000;1.2373;1.1235;
14.7000;1.2373;1.1210;
15.0000;1.2405;1.1184;
15.3000;1.2397;1.1109;
15.6000;1.2422;1.1210;
15.9000;1.2462;1.1260;
16.2000;1.2462;1.1210;
16.5000;1.2462;1.1109;
16.8000;1.2511;1.1210;
17.1000;1.2503;1.1184;
17.4000;1.2544;1.1260;
17.7000;1.2552;1.1260;
18.0000;1.2576;1.1235;
18.3000;1.2593;1.1159;
18.6000;1.2576;1.1134;
18.9000;1.2601;1.1235;
19.2000;1.2674;1.1361;
19.5000;1.2617;1.1159;
19.8000;1.2641;1.1159;
20.1000;1.2658;1.1109;
20.4000;1.2690;1.1184;
20.7000;1.2682;1.1184;
21.0000;1.2715;1.1285;
21.3000;1.2674;1.1310;
21.6000;1.2707;1.1386;
21.9000;1.2723;1.1335;
22.2000;1.2731;1.1285;
22.5000;1.2747;1.1260;
22.8000;1.2747;1.1184;
23.1000;1.2755;1.1260;
23.4000;1.2780;1.1310;
23.7000;1.2780;1.1260;
24.0000;1.2796;1.1260;
24.3000;1.2804;1.1235;
24.6000;1.2804;1.1235;
24.9000;1.2812;1.1335;
25.2000;1.2821;1.1335;
25.5000;1.2821;1.1210;
25.8000;1.2837;1.1235;
26.1000;1.2845;1.1310;
26.4000;1.2821;1.1260;
26.7000;1.2869;1.1386;
27.0000;1.2869;1.1310;
27.3000;1.2894;1.1361;
27.6000;1.2902;1.1386;
27.9000;1.2877;1.1285;
28.2000;1.2877;1.1310;
28.5000;1.2894;1.1210;
28.8000;1.2902;1.1184;
29.1000;1.2877;1.1134;
29.4000;1.2902;1.1285;
29.7000;1.2926;1.1285;
30.0000;1.2910;1.1235;
30.3000;1.2918;1.1235;
30.6000;1.2926;1.1235;
30.9000;1.2934;1.1260;
31.2000;1.2910;1.1260;
31.5000;1.3000;1.1411;
31.8000;1.2943;1.1159;
32.1000;1.2951;1.1184;
32.4000;1.2943;1.1184;
32.7000;1.2967;1.1159;
33.0000;1.2967;1.1210;
33.3000;1.2983;1.1184;
33.6000;1.2983;1.1260;
33.9000;1.2983;1.1235;
34.2000;1.2991;1.1210;
34.5000;1.3008;1.1134;
34.8000;1.3008;1.1134;
35.1000;1.3000;1.1184;
35.4000;1.2991;1.1210;
35.7000;1.2983;1.1210;
36.0000;1.3000;1.1310;
36.3000;1.3000;1.1285;
36.6000;1.3008;1.1235;
36.9000;1.3008;1.1260;
37.2000;1.3016;1.1260;
37.5000;1.3024;1.1335;
37.8000;1.3040;1.1361;
38.1000;1.3040;1.1335;
38.4000;1.3032;1.1335;
38.7000;1.3032;1.1310;
39.0000;1.3040;1.1285;
39.3000;1.3024;1.1210;
39.6000;1.3057;1.1210;
39.9000;1.3048;1.1184;
40.2000;1.3048;1.1260;
40.5000;1.3032;1.1260;
40.8000;1.3073;1.1361;
41.1000;1.3040;1.1210;
41.4000;1.3040;1.1184;
41.7000;1.3040;1.1134;
42.0000;1.3040;1.1109;
42.3000;1.3048;1.1134;
42.6000;1.3114;1.1361;
42.9000;1.3048;1.1184;
43.2000;1.3040;1.1210;
43.5000;1.3065;1.1159;
43.8000;1.3065;1.1134;
44.1000;1.3081;1.1210;
44.4000;1.3040;1.1109;
44.7000;1.3065;1.1134;
45.0000;1.3065;1.1109;
45.3000;1.3122;1.1235;
45.6000;1.3073;1.1184;
45.9000;1.3089;1.1235;
46.2000;1.3097;1.1386;
46.5000;1.3089;1.1361;
46.8000;1.3089;1.1361;
47.1000;1.3097;1.1335;
47.4000;1.3097;1.1310;
47.7000;1.3089;1.1285;
48.0000;1.3114;1.1260;
48.3000;1.3089;1.1260;
48.6000;1.3081;1.1184;
48.9000;1.3105;1.1159;
49.2000;1.3114;1.1159;
49.5000;1.3097;1.1210;
49.8000;1.3114;1.1310;
50.1000;1.3130;1.1310;
50.4000;1.3130;1.1335;
50.7000;1.3114;1.1235;
51.0000;1.3105;1.1235;
51.3000;1.3114;1.1285;
51.6000;1.3105;1.1285;
51.9000;1.3105;1.1260;
52.2000;1.3114;1.1260;
52.5000;1.3114;1.1310;
52.8000;1.3097;1.1335;
53.1000;1.3105;1.1436;
53.4000;1.3105;1.1386;
53.7000;1.3138;1.1310;
54.0000;1.3138;1.1361;
54.3000;1.3114;1.1361;
54.6000;1.3122;1.1285;
54.9000;1.3122;1.1361;
55.2000;1.3114;1.1361;
55.5000;1.3130;1.1386;
55.8000;1.3105;1.1285;
56.1000;1.3114;1.1335;
56.4000;1.3114;1.1335;
56.7000;1.3138;1.1411;
57.0000;1.3114;1.1335;
57.3000;1.3130;1.1335;
57.6000;1.3138;1.1335;
57.9000;1.3146;1.1436;
58.2000;1.3138;1.1335;
58.5000;1.3154;1.1361;
58.8000;1.3138;1.1411;
59.1000;1.3154;1.1361;
59.4000;1.3130;1.1260;
59.7000;1.3171;1.1361;
60.0000;1.3138;1.1285;
60.3000;1.3162;1.1386;
60.6000;1.3122;1.1335;
60.9000;1.3130;1.1361;
61.2000;1.3138;1.1361;
61.5000;1.3122;1.1310;
61.8000;1.3146;1.1361;
62.1000;1.3130;1.1260;
62.4000;1.3154;1.1310;
62.7000;1.3171;1.1310;
63.0000;1.3146;1.1335;
63.3000;1.3138;1.1335;
63.6000;1.3195;1.1461;
63.9000;1.3154;1.1335;
64.2000;1.3171;1.1335;
64.5000;1.3146;1.1310;
64.8000;1.3162;1.1235;
65.1000;1.3187;1.1260;
65.4000;1.3171;1.1285;
65.7000;1.3154;1.1310;
66.0000;1.3162;1.1310;
66.3000;1.3171;1.1310;
66.6000;1.3162;1.1260;
66.9000;1.3162;1.1235;
67.2000;1.3154;1.1184;
67.5000;1.3146;1.1159;
67.8000;1.3171;1.1184;
68.1000;1.3146;1.1084;
68.4000;1.3138;1.1109;
68.7000;1.3162;1.1159;
69.0000;1.3179;1.1159;
69.3000;1.3162;1.1109;
69.6000;1.3154;1.1058;
69.9000;1.3187;1.1134;
70.2000;1.3162;1.1159;
70.5000;1.3195;1.1260;
70.8000;1.3179;1.1134;
71.1000;1.3154;1.1058;
71.4000;1.3154;1.1134;
71.7000;1.3171;1.1235;
72.0000;1.3154;1.1134;
72.3000;1.3138;1.1033;
72.6000;1.3171;1.1058;
72.9000;1.3179;1.1109;
73.2000;1.3179;1.1134;
73.5000;1.3179;1.1210;
73.8000;1.3187;1.1184;
74.1000;1.3179;1.1210;
74.4000;1.3162;1.1159;
74.7000;1.3162;1.1084;
75.0000;1.3162;1.1159;
75.3000;1.3162;1.1159;
75.6000;1.3171;1.1235;
75.9000;1.3171;1.1235;
76.2000;1.3187;1.1210;
76.5000;1.3187;1.1134;
76.8000;1.3179;1.1084;
77.1000;1.3179;1.1058;
77.4000;1.3171;1.0983;
77.7000;1.3171;1.1033;
78.0000;1.3171;1.1109;
78.3000;1.3187;1.1134;
78.6000;1.3211;1.1159;
78.9000;1.3171;1.1084;
79.2000;1.3179;1.1109;
79.5000;1.3179;1.1109;
79.8000;1.3162;1.1058;
80.1000;1.3122;1.0932;
80.4000;1.3179;1.1134;
80.7000;1.3179;1.1159;
81.0000;1.3162;1.1184;
81.3000;1.3179;1.1260;
81.6000;1.3203;1.1361;
81.9000;1.3171;1.1285;
82.2000;1.3171;1.1235;
82.5000;1.3146;1.1159;
82.8000;1.3171;1.1184;
83.1000;1.3195;1.1235;
83.4000;1.3195;1.1184;
83.7000;1.3179;1.1109;
84.0000;1.3179;1.1134;
84.3000;1.3179;1.1159;
84.6000;1.3179;1.1184;
84.9000;1.3171;1.1033;
85.2000;1.3244;1.1184;
85.5000;1.3211;1.1084;
85.8000;1.3162;1.0907;
86.1000;1.3187;1.0983;
86.4000;1.3195;1.1033;
86.7000;1.3187;1.0958;
87.0000;1.3203;1.1008;
87.3000;1.3171;1.0932;
87.6000;1.3187;1.0958;
87.9000;1.3179;1.0907;
88.2000;1.3179;1.0983;
88.5000;1.3171;1.0958;
88.8000;1.3179;1.1008;
89.1000;1.3187;1.1084;
89.4000;1.3187;1.1084;
89.7000;1.3195;1.1109;
90.0000;1.3195;1.1033;
90.3000;1.3187;1.1033;
90.6000;1.3187;1.1109;
90.9000;1.3195;1.1058;
91.2000;1.3195;1.1084;
91.5000;1.3195;1.1033;
91.8000;1.3187;1.1033;
92.1000;1.3244;1.1235;
92.4000;1.3195;1.1109;
92.7000;1.3187;1.1109;
93.0000;1.3179;1.1084;
93.3000;1.3195;1.1134;
93.6000;1.3195;1.1159;
93.9000;1.3171;1.1159;
94.2000;1.3179;1.1184;
94.5000;1.3130;1.1008;
94.8000;1.3187;1.1134;
95.1000;1.3211;1.1159;
95.4000;1.3195;1.1058;
95.7000;1.3203;1.1134;
96.0000;1.3203;1.1210;
96.3000;1.3211;1.1184;
96.6000;1.3187;1.1210;
96.9000;1.3203;1.1260;
97.2000;1.3195;1.1210;
97.5000;1.3211;1.1235;
97.8000;1.3203;1.1159;
98.1000;1.3195;1.1033;
98.4000;1.3187;1.0983;
98.7000;1.3211;1.1109;
99.0000;1.3195;1.1008;
99.3000;1.3203;1.1058;
99.6000;1.3219;1.1134;
99.9000;1.3219;1.1159;
100.2000;1.3219;1.1084;
100.5000;1.3211;1.1033;
100.8000;1.3195;1.1109;
101.1000;1.3268;1.1260;
101.4000;1.3187;1.1033;
101.7000;1.3179;1.0983;
102.0000;1.3187;1.0958;
102.3000;1.3211;1.1033;
102.6000;1.3195;1.1008;
102.9000;1.3195;1.0932;
103.2000;1.3195;1.0882;
103.5000;1.3187;1.0857;
103.8000;1.3244;1.0932;
104.1000;1.3203;1.0958;
104.4000;1.3211;1.1033;
104.7000;1.3211;1.0958;
105.0000;1.3203;1.0983;
105.3000;1.3211;1.1033;
105.6000;1.3203;1.1033;
105.9000;1.3195;1.1058;
106.2000;1.3211;1.1134;
106.5000;1.3203;1.1058;
106.8000;1.3203;1.0958;
107.1000;1.3195;1.0983;
107.4000;1.3211;1.1159;
107.7000;1.3219;1.1134;
108.0000;1.3187;1.1134;
108.3000;1.3162;1.1084;
108.6000;1.3211;1.1235;
108.9000;1.3195;1.1210;
109.2000;1.3195;1.1210;
109.5000;1.3187;1.1159;
109.8000;1.3187;1.1210;
110.1000;1.3219;1.1386;
110.4000;1.3293;1.1638;
110.7000;1.3203;1.1386;
111.0000;1.3203;1.1361;
111.3000;1.3211;1.1285;
111.6000;1.3203;1.1235;
111.9000;1.3195;1.1210;
112.2000;1.3195;1.1184;
112.5000;1.3203;1.1159;
112.8000;1.3195;1.1134;
113.1000;1.3179;1.1084;
113.4000;1.3195;1.1058;
113.7000;1.3203;1.1008;
114.0000;1.3203;1.1033;
114.3000;1.3203;1.1033;
114.6000;1.3203;1.1008;
114.9000;1.3211;1.1109;
115.2000;1.3203;1.1159;
115.5000;1.3244;1.1285;
115.8000;1.3203;1.1159;
116.1000;1.3211;1.1134;
116.4000;1.3195;1.1134;
116.7000;1.3195;1.1184;
117.0000;1.3187;1.1134;
117.3000;1.3195;1.1109;
117.6000;1.3154;1.0932;
117.9000;1.3195;1.1109;
118.2000;1.3195;1.1084;
118.5000;1.3146;1.1008;
118.8000;1.3187;1.1033;
119.1000;1.3203;1.1033;
119.4000;1.3211;1.1033;
119.7000;1.3187;1.0958;
120.0000;1.3203;1.0932;
120.3000;1.3203;1.1033;
120.6000;1.3187;1.1008;
120.9000;1.3179;1.0983;
121.2000;1.3203;1.1134;
121.5000;1.3195;1.1184;
121.8000;1.3228;1.1285;
122.1000;1.3195;1.1210;
122.4000;1.3187;1.1109;
122.7000;1.3203;1.1084;
123.0000;1.3203;1.1210;
123.3000;1.3228;1.1159;
123.6000;1.3228;1.1159;
123.9000;1.3195;1.1134;
124.2000;1.3211;1.1285;
124.5000;1.3171;1.1134;
124.8000;1.3195;1.1134;
125.1000;1.3211;1.1134;
125.4000;1.3211;1.1159;
125.7000;1.3211;1.1033;
126.0000;1.3195;1.0983;
126.3000;1.3228;1.1033;
126.6000;1.3171;1.0882;
126.9000;1.3203;1.1008;
127.2000;1.3219;1.1033;
127.5000;1.3203;1.0882;
127.8000;1.3195;1.0882;
128.1000;1.3203;1.0907;
128.4000;1.3203;1.0907;
128.7000;1.3203;1.0882;
129.0000;1.3219;1.1109;
129.3000;1.3195;1.1109;
129.6000;1.3195;1.1109;
129.9000;1.3219;1.1159;
130.2000;1.3203;1.1184;
130.5000;1.3211;1.1184;
130.8000;1.3203;1.1159;
131.1000;1.3195;1.1184;
131.4000;1.3211;1.1210;
131.7000;1.3179;1.1109;
132.0000;1.3187;1.1260;
132.3000;1.3195;1.1235;
132.6000;1.3187;1.1134;
132.9000;1.3228;1.1134;
133.2000;1.3219;1.1134;
133.5000;1.3211;1.1134;
133.8000;1.3162;1.1033;
134.1000;1.3236;1.1159;
134.4000;1.3195;1.1134;
134.7000;1.3203;1.1134;
135.0000;1.3211;1.1109;
135.3000;1.3219;1.1084;
135.6000;1.3203;1.1008;
135.9000;1.3203;1.0958;
136.2000;1.3195;1.0832;
136.5000;1.3211;1.0932;
136.8000;1.3211;1.0907;
137.1000;1.3203;1.0907;
137.4000;1.3203;1.0932;
137.7000;1.3195;1.0983;
138.0000;1.3203;1.1109;
138.3000;1.3219;1.1134;
138.6000;1.3187;1.0983;
138.9000;1.3195;1.1033;
139.2000;1.3187;1.1109;
139.5000;1.3187;1.1134;
139.8000;1.3219;1.1260;
140.1000;1.3211;1.1285;
140.4000;1.3211;1.1310;
140.7000;1.3195;1.1310;
141.0000;1.3203;1.1335;
141.3000;1.3203;1.1310;
141.6000;1.3228;1.1386;
141.9000;1.3211;1.1436;
142.2000;1.3219;1.1487;
142.5000;1.3211;1.1487;
142.8000;1.3244;1.1587;
143.1000;1.3203;1.1436;
143.4000;1.3211;1.1487;
143.7000;1.3203;1.1512;
144.0000;1.3187;1.1537;
144.3000;1.3211;1.1613;
144.6000;1.3203;1.1487;
144.9000;1.3195;1.1411;
145.2000;1.3187;1.1386;
145.5000;1.3195;1.1461;
145.8000;1.3195;1.1436;
146.1000;1.3195;1.1361;
146.4000;1.3179;1.1159;
146.7000;1.3211;1.1285;
147.0000;1.3211;1.1285;
147.3000;1.3219;1.1361;
147.6000;1.3195;1.1235;
147.9000;1.3203;1.1159;
148.2000;1.3203;1.1159;
148.5000;1.3203;1.1109;
148.8000;1.3187;1.1184;
149.1000;1.3195;1.1184;
149.4000;1.3195;1.1260;
149.7000;1.3114;1.1084;
150.0000;1.3195;1.1260;
150.3000;1.3211;1.1184;
150.6000;1.3187;1.1184;
150.9000;1.3228;1.1285;
151.2000;1.3203;1.1285;
151.5000;1.3203;1.1285;
151.8000;1.3211;1.1310;
152.1000;1.3211;1.1260;
152.4000;1.3276;1.1361;
152.7000;1.3219;1.1235;
153.0000;1.3219;1.1210;
153.3000;1.3228;1.1361;
153.6000;1.3211;1.1310;
153.9000;1.3195;1.1159;
154.2000;1.3187;1.1134;
154.5000;1.3211;1.1210;
154.8000;1.3211;1.1159;
155.1000;1.3187;1.1084;
155.4000;1.3195;1.1159;
155.7000;1.3203;1.1235;
156.0000;1.3211;1.1310;
156.3000;1.3219;1.1361;
156.6000;1.3187;1.1386;
156.9000;1.3203;1.1285;
157.2000;1.3195;1.1285;
157.5000;1.3260;1.1487;
157.8000;1.3162;1.1159;
158.1000;1.3195;1.1159;
158.4000;1.3219;1.1159;
158.7000;1.3179;1.1184;
159.0000;1.3187;1.1235;
159.3000;1.3244;1.1411;
159.6000;1.3219;1.1386;
159.9000;1.3211;1.1361;
160.2000;1.3130;1.1260;
160.5000;1.3171;1.1260;
160.8000;1.3187;1.1235;
161.1000;1.3195;1.1210;
161.4000;1.3219;1.1235;
161.7000;1.3195;1.1134;
162.0000;1.3195;1.1260;
162.3000;1.3187;1.1210;
162.6000;1.3203;1.1210;
162.9000;1.3187;1.1159;
163.2000;1.3203;1.1235;
163.5000;1.3130;1.1084;
163.8000;1.3195;1.1235;
164.1000;1.3179;1.1184;
164.4000;1.3097;1.0958;
164.7000;1.3195;1.1134;
165.0000;1.3219;1.1159;
165.3000;1.3219;1.1159;
165.6000;1.3211;1.1235;
165.9000;1.3211;1.1184;
166.2000;1.3211;1.1159;
166.5000;1.3203;1.1159;
166.8000;1.3195;1.1184;
167.1000;1.3203;1.1159;
167.4000;1.3195;1.1184;
167.7000;1.3187;1.1210;
168.0000;1.3211;1.1335;
168.3000;1.3203;1.1235;
168.6000;1.3203;1.1210;
168.9000;1.3203;1.1260;
169.2000;1.3187;1.1184;
169.5000;1.3195;1.1084;
169.8000;1.3284;1.1335;
170.1000;1.3187;1.1109;
170.4000;1.3211;1.1134;
170.7000;1.3211;1.1184;
171.0000;1.3228;1.1235;
171.3000;1.3203;1.1235;
171.6000;1.3203;1.1235;
171.9000;1.3203;1.1109;
172.2000;1.3179;1.1033;
172.5000;1.3203;1.1084;
172.8000;1.3179;1.1058;
173.1000;1.3179;1.0958;
173.4000;1.3179;1.1134;
173.7000;1.3187;1.1184;
174.0000;1.3187;1.1210;
174.3000;1.3122;1.1159;
174.6000;1.3179;1.1361;
174.9000;1.3187;1.1436;
175.2000;1.3187;1.1461;
175.5000;1.3195;1.1512;
175.8000;1.3219;1.1562;
176.1000;1.3195;1.1512;
176.4000;1.3203;1.1512;
176.7000;1.3162;1.1386;
177.0000;1.3195;1.1361;
177.3000;1.3276;1.1487;
177.6000;1.3276;1.1487;
177.9000;1.3211;1.1361;
178.2000;1.3219;1.1335;
178.5000;1.3211;1.1310;
178.8000;1.3203;1.1235;
179.1000;1.3203;1.1260;
179.4000;1.3236;1.1285;
179.7000;1.3187;1.1134;
180.0000;1.3195;1.1159;
180.3000;1.3211;1.1285;
180.6000;1.3284;1.1487;
180.9000;1.3195;1.1285;
181.2000;1.3187;1.1361;
181.5000;1.3211;1.1436;
181.8000;1.3195;1.1260;
182.1000;1.3187;1.1184;
182.4000;1.3122;1.1058;
182.7000;1.3179;1.1260;
183.0000;1.3187;1.1285;
183.3000;1.3187;1.1260;
183.6000;1.3179;1.1184;
183.9000;1.3187;1.1235;
184.2000;1.3179;1.1210;
184.5000;1.3195;1.1235;
184.8000;1.3179;1.1210;
185.1000;1.3219;1.1184;
185.4000;1.3203;1.1134;
185.7000;1.3219;1.1210;
186.0000;1.3195;1.1134;
186.3000;1.3195;1.1235;
186.6000;1.3203;1.1235;
186.9000;1.3211;1.1310;
187.2000;1.3211;1.1210;
187.5000;1.3211;1.1184;
187.8000;1.3211;1.1210;
188.1000;1.3219;1.1210;
188.4000;1.3195;1.1260;
188.7000;1.3211;1.1260;
189.0000;1.3211;1.1310;
189.3000;1.3203;1.1235;
189.6000;1.3211;1.1235;
189.9000;1.3195;1.1184;
190.2000;1.3187;1.1260;
190.5000;1.3171;1.1159;
190.8000;1.3162;1.1109;
191.1000;1.3203;1.1260;
191.4000;1.3195;1.1210;
191.7000;1.3228;1.1235;
192.0000;1.3187;1.1109;
192.3000;1.3203;1.1134;
192.6000;1.3179;1.1058;
192.9000;1.3195;1.1109;
193.2000;1.3171;1.1084;
193.5000;1.3154;1.1109;
193.8000;1.3179;1.1260;
194.1000;1.3195;1.1235;
194.4000;1.3171;1.1134;
194.7000;1.3195;1.1235;
195.0000;1.3187;1.1260;
195.3000;1.3195;1.1235;
195.6000;1.3187;1.1184;
195.9000;1.3195;1.1159;
196.2000;1.3179;1.1159;
196.5000;1.3179;1.1159;
196.8000;1.3260;1.1310;
197.1000;1.3211;1.1159;
197.4000;1.3187;1.1134;
197.7000;1.3187;1.1184;
198.0000;1.3203;1.1260;
198.3000;1.3146;1.1109;
198.6000;1.3179;1.1210;
198.9000;1.3162;1.1159;
199.2000;1.3146;1.1159;
199.5000;1.3187;1.1411;
199.8000;1.3179;1.1386;
200.1000;1.3179;1.1335;
200.4000;1.3252;1.1512;
200.7000;1.3171;1.1361;
201.0000;1.3187;1.1461;
201.3000;1.3179;1.1436;
201.6000;1.3203;1.1537;
201.9000;1.3203;1.1537;
202.2000;1.3195;1.1411;
202.5000;1.3195;1.1411;
202.8000;1.3187;1.1411;
203.1000;1.3195;1.1361;
203.4000;1.3195;1.1386;
203.7000;1.3171;1.1260;
204.0000;1.3187;1.1335;
204.3000;1.3195;1.1411;
204.6000;1.3203;1.1386;
204.9000;1.3187;1.1310;
205.2000;1.3179;1.1260;
205.5000;1.3179;1.1210;
205.8000;1.3187;1.1159;
206.1000;1.3187;1.1109;
206.4000;1.3187;1.1109;
206.7000;1.3195;1.1159;
207.0000;1.3187;1.1210;
207.3000;1.3195;1.1260;
207.6000;1.3211;1.1235;
207.9000;1.3187;1.1159;
208.2000;1.3211;1.1210;
208.5000;1.3203;1.1335;
208.8000;1.3195;1.1361;
209.1000;1.3187;1.1361;
209.4000;1.3276;1.1537;
209.7000;1.3187;1.1235;
210.0000;1.3195;1.1235;
210.3000;1.3179;1.1184;
210.6000;1.3179;1.1235;
210.9000;1.3211;1.1310;
211.2000;1.3195;1.1210;
211.5000;1.3195;1.1134;
211.8000;1.3195;1.1134;
212.1000;1.3203;1.1134;
212.4000;1.3211;1.1159;
212.7000;1.3203;1.1210;
213.0000;1.3187;1.1184;
213.3000;1.3195;1.1159;
213.6000;1.3211;1.1184;
213.9000;1.3195;1.1109;
214.2000;1.3187;1.1084;
214.5000;1.3195;1.1109;
214.8000;1.3195;1.1210;
215.1000;1.3171;1.1184;
215.4000;1.3187;1.1210;
215.7000;1.3195;1.1210;
216.0000;1.3187;1.1109;
216.3000;1.3219;1.1159;
216.6000;1.3187;1.1058;
216.9000;1.3187;1.1109;
217.2000;1.3236;1.1310;
217.5000;1.3146;1.1134;
217.8000;1.3195;1.1210;
218.1000;1.3195;1.1184;
218.4000;1.3211;1.1235;
218.7000;1.3203;1.1159;
219.0000;1.3171;1.1134;
219.3000;1.3187;1.1084;
219.6000;1.3171;1.1084;
219.9000;1.3203;1.1184;
220.2000;1.3162;1.1084;
220.5000;1.3162;1.1033;
220.8000;1.3187;1.1033;
221.1000;1.3195;1.0983;
221.4000;1.3195;1.0983;
221.7000;1.3179;1.1008;
222.0000;1.3179;1.0983;
222.3000;1.3146;1.0907;
222.6000;1.3187;1.1008;
222.9000;1.3203;1.1008;
223.2000;1.3195;1.1033;
223.5000;1.3195;1.1033;
223.8000;1.3187;1.0983;
224.1000;1.3195;1.0932;
224.4000;1.3179;1.0983;
224.7000;1.3195;1.0958;
225.0000;1.3187;1.1008;
225.3000;1.3187;1.0983;
225.6000;1.3187;1.0958;
225.9000;1.3195;1.1058;
226.2000;1.3211;1.1058;
226.5000;1.3187;1.0958;
226.8000;1.3187;1.0958;
227.1000;1.3195;1.1033;
227.4000;1.3162;1.1008;
227.7000;1.3211;1.1033;
228.0000;1.3195;1.1008;
228.3000;1.3195;1.0983;
228.6000;1.3195;1.0958;
228.9000;1.3162;1.0958;
229.2000;1.3179;1.1033;
229.5000;1.3195;1.1033;
229.8000;1.3187;1.0932;
230.1000;1.3122;1.0807;
230.4000;1.3187;1.1008;
230.7000;1.3187;1.1033;
231.0000;1.3187;1.0958;
231.3000;1.3187;1.0832;
231.6000;1.3203;1.0932;
231.9000;1.3219;1.0958;
232.2000;1.3171;1.0882;
232.5000;1.3276;1.1159;
232.8000;1.3162;1.0832;
233.1000;1.3179;1.0958;
233.4000;1.3187;1.1008;
233.7000;1.3195;1.1033;
234.0000;1.3179;1.0958;
234.3000;1.3195;1.0907;
234.6000;1.3203;1.0882;
234.9000;1.3195;1.0882;
235.2000;1.3187;1.1008;
235.5000;1.3187;1.0983;
235.8000;1.3171;1.0882;
236.1000;1.3195;1.0907;
236.4000;1.3203;1.0882;
236.7000;1.3195;1.0958;
237.0000;1.3195;1.0907;
237.3000;1.3211;1.0907;
237.6000;1.3211;1.0983;
237.9000;1.3162;1.0932;
238.2000;1.3179;1.1008;
238.5000;1.3203;1.1033;
238.8000;1.3187;1.1008;
239.1000;1.3187;1.0958;
239.4000;1.3179;1.1008;
239.7000;1.3179;1.1109;
240.0000;1.3219;1.1285;
240.3000;1.3195;1.1159;
240.6000;1.3219;1.1285;
240.9000;1.3236;1.1235;
241.2000;1.3187;1.1159;
241.5000;1.3171;1.1109;
241.8000;1.3203;1.1210;
242.1000;1.3162;1.1159;
242.4000;1.3211;1.1210;
242.7000;1.3195;1.1184;
243.0000;1.3195;1.1159;
243.3000;1.3187;1.1134;
243.6000;1.3195;1.1210;
243.9000;1.3171;1.1109;
244.2000;1.3211;1.1159;
244.5000;1.3187;1.1109;
244.8000;1.3154;1.0932;
245.1000;1.3195;1.1008;
245.4000;1.3154;1.0907;
245.7000;1.3187;1.1008;
246.0000;1.3179;1.0932;
246.3000;1.3260;1.1058;
246.6000;1.3187;1.0857;
246.9000;1.3179;1.0857;
247.2000;1.3171;1.0882;
247.5000;1.3195;1.1008;
247.8000;1.3195;1.1058;
248.1000;1.3187;1.1084;
248.4000;1.3203;1.1058;
248.7000;1.3187;1.0958;
249.0000;1.3195;1.1033;
249.3000;1.3211;1.0907;
249.6000;1.3195;1.0907;
249.9000;1.3187;1.0983;
250.2000;1.3203;1.1134;
250.5000;1.3187;1.1084;
250.8000;1.3187;1.1134;
251.1000;1.3211;1.1084;
251.4000;1.3187;1.1008;
251.7000;1.3195;1.0983;
252.0000;1.3195;1.0958;
252.3000;1.3171;1.0907;
252.6000;1.3179;1.0958;
252.9000;1.3252;1.1159;
253.2000;1.3122;1.0781;
253.5000;1.3195;1.0932;
253.8000;1.3195;1.1008;
254.1000;1.3236;1.1058;
254.4000;1.3195;1.1033;
254.7000;1.3187;1.1033;
255.0000;1.3195;1.1008;
255.3000;1.3097;1.0706;
255.6000;1.3195;1.0857;
255.9000;1.3211;1.0958;
256.2000;1.3187;1.0882;
256.5000;1.3203;1.1008;
256.8000;1.3171;1.0932;
257.1000;1.3171;1.0983;
257.4000;1.3171;1.0932;
257.7000;1.3219;1.1008;
258.0000;1.3179;1.0958;
258.3000;1.3195;1.0907;
258.6000;1.3179;1.0983;
258.9000;1.3187;1.1008;
259.2000;1.3195;1.1058;
259.5000;1.3195;1.1084;
259.8000;1.3187;1.1058;
260.1000;1.3195;1.1033;
260.4000;1.3187;1.1008;
260.7000;1.3195;1.1058;
261.0000;1.3179;1.1033;
261.3000;1.3179;1.1084;
261.6000;1.3179;1.1033;
261.9000;1.3195;1.1058;
262.2000;1.3187;1.1033;
262.5000;1.3195;1.1058;
262.8000;1.3171;1.0983;
263.1000;1.3171;1.0983;
263.4000;1.3195;1.1008;
263.7000;1.3171;1.0958;
264.0000;1.3162;1.0958;
264.3000;1.3146;1.0983;
264.6000;1.3179;1.1033;
264.9000;1.3179;1.1008;
265.2000;1.3171;1.1084;
265.5000;1.3162;1.1084;
265.8000;1.3203;1.1134;
266.1000;1.3179;1.1033;
266.4000;1.3171;1.0983;
266.7000;1.3105;1.0857;
267.0000;1.3187;1.1134;
267.3000;1.3162;1.1109;
267.6000;1.3203;1.1134;
267.9000;1.3187;1.1109;
268.2000;1.3260;1.1310;
268.5000;1.3179;1.1058;
268.8000;1.3130;1.0958;
269.1000;1.3195;1.1159;
269.4000;1.3195;1.1235;
269.7000;1.3195;1.1134;
270.0000;1.3203;1.1285;
270.3000;1.3187;1.1260;
270.6000;1.3203;1.1235;
270.9000;1.3203;1.1159;
271.2000;1.3219;1.1210;
271.5000;1.3179;1.1058;
271.8000;1.3244;1.1210;
272.1000;1.3187;1.1109;
272.4000;1.3187;1.1159;
272.7000;1.3211;1.1260;
273.0000;1.3171;1.1058;
273.3000;1.3154;1.0983;
273.6000;1.3252;1.1260;
273.9000;1.3179;1.1109;
274.2000;1.3179;1.1134;
274.5000;1.3195;1.1184;
274.8000;1.3179;1.1260;
275.1000;1.3154;1.1058;
275.4000;1.3179;1.1109;
275.7000;1.3179;1.1109;
276.0000;1.3195;1.1184;
276.3000;1.3211;1.1210;
276.6000;1.3171;1.1058;
276.9000;1.3179;1.1109;
277.2000;1.3219;1.1184;
277.5000;1.3195;1.1210;
277.8000;1.3187;1.1184;
278.1000;1.3171;1.1184;
278.4000;1.3179;1.1159;
278.7000;1.3179;1.1058;
279.0000;1.3162;1.1084;
279.3000;1.3195;1.1184;
279.6000;1.3179;1.1210;
279.9000;1.3236;1.1260;
280.2000;1.3195;1.1159;
280.5000;1.3179;1.1109;
280.8000;1.3179;1.1084;
281.1000;1.3187;1.1109;
281.4000;1.3179;1.1084;
281.7000;1.3179;1.1033;
282.0000;1.3187;1.1084;
282.3000;1.3187;1.1109;
282.6000;1.3171;1.1084;
282.9000;1.3162;1.0983;
283.2000;1.3179;1.1058;
283.5000;1.3187;1.1109;
283.8000;1.3114;1.0932;
284.1000;1.3187;1.1260;
284.4000;1.3162;1.1159;
284.7000;1.3187;1.1159;
285.0000;1.3195;1.1235;
285.3000;1.3171;1.1134;
285.6000;1.3179;1.1134;
285.9000;1.3179;1.1058;
286.2000;1.3179;1.1008;
286.5000;1.3203;1.1008;
286.8000;1.3146;1.0907;
287.1000;1.3171;1.0983;
287.4000;1.3171;1.1058;
287.7000;1.3171;1.0958;
288.0000;1.3187;1.1033;
288.3000;1.3154;1.0958;
288.6000;1.3195;1.0958;
288.9000;1.3179;1.0983;
289.2000;1.3179;1.1058;
289.5000;1.3187;1.1084;
289.8000;1.3195;1.1134;
290.1000;1.3187;1.1109;
290.4000;1.3171;1.1084;
290.7000;1.3162;1.1109;
291.0000;1.3138;1.1058;
291.3000;1.3187;1.1109;
291.6000;1.3179;1.1033;
291.9000;1.3146;1.0958;
292.2000;1.3195;1.1058;
292.5000;1.3171;1.0983;
292.8000;1.3211;1.1058;
293.1000;1.3203;1.0932;
293.4000;1.3244;1.1033;
293.7000;1.3154;1.0882;
294.0000;1.3195;1.0958;
294.3000;1.3203;1.0958;
294.6000;1.3203;1.1084;
294.9000;1.3195;1.1084;
295.2000;1.3203;1.1134;
295.5000;1.3187;1.1109;
295.8000;1.3171;1.0983;
296.1000;1.3179;1.1008;
296.4000;1.3114;1.0857;
296.7000;1.3154;1.1008;
297.0000;1.3171;1.1134;
297.3000;1.3162;1.1109;
297.6000;1.3162;1.1109;
297.9000;1.3138;1.1008;
298.2000;1.3146;1.1058;
298.5000;1.3154;1.0983;
298.8000;1.3162;1.1109;
299.1000;1.3171;1.1184;
299.4000;1.3171;1.1109;
299.7000;1.3171;1.1058;
300.0000;1.3187;1.1084;
300.3000;1.3179;1.1159;
300.6000;1.3179;1.1210;
300.9000;1.3203;1.1235;
301.2000;1.3179;1.1159;
301.5000;1.3179;1.1184;
301.8000;1.3179;1.1184;
302.1000;1.3162;1.1159;
302.4000;1.3179;1.1159;
302.7000;1.3179;1.1109;
303.0000;1.3171;1.1184;
303.3000;1.3236;1.1411;
303.6000;1.3171;1.1285;
303.9000;1.3171;1.1285;
304.2000;1.3171;1.1235;
304.5000;1.3195;1.1235;
304.8000;1.3171;1.1159;
305.1000;1.3179;1.1134;
305.4000;1.3195;1.1159;
305.7000;1.3187;1.1134;
306.0000;1.3179;1.1058;
306.3000;1.3179;1.1033;
306.6000;1.3179;1.1033;
306.9000;1.3162;1.1084;
307.2000;1.3162;1.1109;
307.5000;1.3162;1.1084;
307.8000;1.3179;1.1058;
308.1000;1.3171;1.1084;
308.4000;1.3179;1.1184;
308.7000;1.3146;1.1084;
309.0000;1.3171;1.1084;
309.3000;1.3171;1.1058;
309.6000;1.3195;1.1058;
309.9000;1.3171;1.0983;
310.2000;1.3171;1.1033;
310.5000;1.3171;1.1109;
310.8000;1.3179;1.1184;
311.1000;1.3179;1.1260;
311.4000;1.3146;1.1134;
311.7000;1.3211;1.1260;
312.0000;1.3195;1.1184;
312.3000;1.3171;1.1134;
312.6000;1.3138;1.1058;
312.9000;1.3179;1.1109;
313.2000;1.3162;1.1109;
313.5000;1.3195;1.1134;
313.8000;1.3171;1.1109;
314.1000;1.3162;1.1084;
314.4000;1.3179;1.1084;
314.7000;1.3171;1.1184;
315.0000;1.3162;1.1184;
315.3000;1.3187;1.1184;
315.6000;1.3179;1.1134;
315.9000;1.3260;1.1310;
316.2000;1.3146;1.1134;
316.5000;1.3179;1.1159;
316.8000;1.3138;1.1058;
317.1000;1.3171;1.1159;
317.4000;1.3162;1.1134;
317.7000;1.3179;1.1109;
318.0000;1.3171;1.0983;
318.3000;1.3162;1.0882;
318.6000;1.3171;1.0932;
318.9000;1.3187;1.0907;
319.2000;1.3162;1.0882;
319.5000;1.3203;1.0932;
319.8000;1.3171;1.0882;
320.1000;1.3179;1.0932;
320.4000;1.3195;1.1033;
320.7000;1.3179;1.1033;
321.0000;1.3162;1.1033;
321.3000;1.3171;1.1084;
321.6000;1.3154;1.1184;
321.9000;1.3154;1.1235;
322.2000;1.3162;1.1210;
322.5000;1.3154;1.1159;
322.8000;1.3154;1.1159;
323.1000;1.3162;1.1260;
323.4000;1.3162;1.1285;
323.7000;1.3162;1.1184;
324.0000;1.3130;1.1058;
324.3000;1.3162;1.1109;
324.6000;1.3187;1.1159;
324.9000;1.3162;1.1084;
325.2000;1.3171;1.1109;
325.5000;1.3187;1.1184;
325.8000;1.3179;1.1260;
326.1000;1.3162;1.1235;
326.4000;1.3171;1.1235;
326.7000;1.3162;1.1260;
327.0000;1.3179;1.1159;
327.3000;1.3187;1.1109;
327.6000;1.3195;1.1184;
327.9000;1.3195;1.1184;
328.2000;1.3179;1.1184;
328.5000;1.3171;1.1184;
328.8000;1.3179;1.1184;
329.1000;1.3154;1.1134;
329.4000;1.3171;1.1184;
329.7000;1.3179;1.1260;
330.0000;1.3179;1.1260;
330.3000;1.3179;1.1184;
330.6000;1.3236;1.1310;
330.9000;1.3146;1.1058;
331.2000;1.3171;1.1084;
331.5000;1.3171;1.1109;
331.8000;1.3179;1.1109;
332.1000;1.3171;1.1109;
332.4000;1.3162;1.1058;
332.7000;1.3154;1.0932;
333.0000;1.3228;1.1058;
333.3000;1.3171;1.0857;
333.6000;1.3211;1.0958;
333.9000;1.3179;1.0857;
334.2000;1.3162;1.0907;
334.5000;1.3171;1.1033;
334.8000;1.3179;1.1033;
335.1000;1.3171;1.1134;
335.4000;1.3171;1.1184;
335.7000;1.3146;1.1084;
336.0000;1.3171;1.1033;
336.3000;1.3171;1.1084;
336.6000;1.3154;1.1058;
336.9000;1.3154;1.1109;
337.2000;1.3203;1.1310;
337.5000;1.3179;1.1184;
337.8000;1.3146;1.1159;
338.1000;1.3114;1.1058;
338.4000;1.3114;1.0983;
338.7000;1.3162;1.1159;
339.0000;1.3187;1.1235;
339.3000;1.3179;1.1134;
339.6000;1.3179;1.1109;
339.9000;1.3171;1.1210;
340.2000;1.3179;1.1184;
340.5000;1.3179;1.1084;
340.8000;1.3195;1.1184;
341.1000;1.3179;1.1109;
341.4000;1.3171;1.1159;
341.7000;1.3162;1.1134;
342.0000;1.3187;1.1084;
342.3000;1.3179;1.1058;
342.6000;1.3162;1.0958;
342.9000;1.3171;1.1008;
343.2000;1.3162;1.1058;
343.5000;1.3162;1.1033;
343.8000;1.3105;1.0882;
344.1000;1.3187;1.1134;
344.4000;1.3105;1.0983;
344.7000;1.3179;1.1134;
345.0000;1.3187;1.1210;
345.3000;1.3154;1.1159;
345.6000;1.3162;1.1134;
345.9000;1.3162;1.1159;
346.2000;1.3146;1.1134;
346.5000;1.3211;1.1260;
346.8000;1.3162;1.1109;
347.1000;1.3162;1.1134;
347.4000;1.3154;1.1084;
347.7000;1.3162;1.1058;
348.0000;1.3179;1.1109;
348.3000;1.3187;1.1084;
348.6000;1.3146;1.1033;
348.9000;1.3179;1.1058;
349.2000;1.3179;1.1058;
349.5000;1.3219;1.1134;
349.8000;1.3187;1.1084;
350.1000;1.3179;1.1134;
350.4000;1.3203;1.1210;
350.7000;1.3162;1.1159;
351.0000;1.3179;1.1210;
351.3000;1.3187;1.1235;
351.6000;1.3162;1.1184;
351.9000;1.3171;1.1210;
352.2000;1.3162;1.1210;
352.5000;1.3154;1.1184;
352.8000;1.3171;1.1235;
353.1000;1.3162;1.1210;
353.4000;1.3138;1.1109;
353.7000;1.3146;1.1134;
354.0000;1.3162;1.1134;
354.3000;1.3171;1.1134;
354.6000;1.3162;1.1184;
354.9000;1.3195;1.1361;
355.2000;1.3187;1.1310;
355.5000;1.3171;1.1235;
355.8000;1.3171;1.1184;
356.1000;1.3179;1.1210;
356.4000;1.3162;1.1260;
356.7000;1.3171;1.1361;
357.0000;1.3195;1.1411;
357.3000;1.3171;1.1310;
357.6000;1.3171;1.1335;
357.9000;1.3171;1.1335;
358.2000;1.3162;1.1285;
358.5000;1.3162;1.1361;
358.8000;1.3171;1.1386;
359.1000;1.3179;1.1260;
359.4000;1.3154;1.1134;
359.7000;1.3162;1.1084;
360.0000;1.3171;1.1210;
360.3000;1.3162;1.1260;
360.6000;1.3162;1.1134;
360.9000;1.3154;1.1058;
361.2000;1.3162;1.1159;
361.5000;1.3179;1.1134;
361.8000;1.3179;1.1159;
362.1000;1.3211;1.1210;
362.4000;1.3162;1.1058;
362.7000;1.3179;1.1033;
363.0000;1.3171;1.1084;
363.3000;1.3179;1.1134;
363.6000;1.3162;1.1134;
363.9000;1.3162;1.1159;
364.2000;1.3171;1.1159;
364.5000;1.3154;1.1134;
364.8000;1.3162;1.1134;
365.1000;1.3179;1.1184;
365.4000;1.3187;1.1134;
365.7000;1.3171;1.1134;
366.0000;1.3162;1.1134;
366.3000;1.3138;1.0983;
366.6000;1.3154;1.1058;
366.9000;1.3162;1.1033;
367.2000;1.3154;1.0958;
367.5000;1.3171;1.0983;
367.8000;1.3162;1.0932;
368.1000;1.3162;1.0958;
368.4000;1.3179;1.1033;
368.7000;1.3154;1.0958;
369.0000;1.3162;1.1008;
369.3000;1.3154;1.1008;
369.6000;1.3162;1.1008;
369.9000;1.3171;1.0932;
370.2000;1.3171;1.0882;
370.5000;1.3171;1.0857;
370.8000;1.3179;1.0958;
371.1000;1.3171;1.0983;
371.4000;1.3171;1.1109;
371.7000;1.3179;1.1134;
372.0000;1.3171;1.1109;
372.3000;1.3138;1.1084;
372.6000;1.3146;1.1184;
372.9000;1.3162;1.1210;
373.2000;1.3162;1.1210;
373.5000;1.3146;1.1084;
373.8000;1.3171;1.1109;
374.1000;1.3187;1.1159;
374.4000;1.3154;1.1084;
374.7000;1.3171;1.1109;
375.0000;1.3171;1.1109;
375.3000;1.3162;1.1184;
375.6000;1.3187;1.1184;
375.9000;1.3162;1.1109;
376.2000;1.3171;1.0983;
376.5000;1.3154;1.0932;
376.8000;1.3187;1.1033;
377.1000;1.3171;1.1008;
377.4000;1.3171;1.0907;
377.7000;1.3162;1.0958;
378.0000;1.3162;1.0907;
378.3000;1.3162;1.0983;
378.6000;1.3179;1.0983;
378.9000;1.3171;1.0958;
379.2000;1.3162;1.0983;
379.5000;1.3162;1.1109;
379.8000;1.3171;1.1184;
380.1000;1.3114;1.1084;
380.4000;1.3162;1.1159;
380.7000;1.3114;1.0983;
381.0000;1.3162;1.1134;
381.3000;1.3154;1.1134;
381.6000;1.3130;1.1008;
381.9000;1.3146;1.1109;
382.2000;1.3154;1.1159;
382.5000;1.3154;1.1134;
382.8000;1.3154;1.1134;
383.1000;1.3154;1.1159;
383.4000;1.3162;1.1109;
383.7000;1.3154;1.1084;
384.0000;1.3146;1.1058;
384.3000;1.3114;1.0907;
384.6000;1.3146;1.0983;
384.9000;1.3138;1.1008;
385.2000;1.3146;1.1058;
385.5000;1.3162;1.1033;
385.8000;1.3162;1.0983;
386.1000;1.3179;1.1033;
386.4000;1.3171;1.1033;
386.7000;1.3195;1.1109;
387.0000;1.3179;1.1033;
387.3000;1.3211;1.1184;
387.6000;1.3154;1.1008;
387.9000;1.3171;1.0983;
388.2000;1.3162;1.1008;
388.5000;1.3114;1.0882;
388.8000;1.3146;1.0907;
389.1000;1.3162;1.0907;
389.4000;1.3122;1.0832;
389.7000;1.3179;1.0882;
390.0000;1.3187;1.0958;
390.3000;1.3146;1.1008;
390.6000;1.3162;1.1109;
390.9000;1.3162;1.1109;
391.2000;1.3154;1.1109;
391.5000;1.3162;1.1084;
391.8000;1.3154;1.0958;
392.1000;1.3162;1.0983;
392.4000;1.3162;1.0958;
392.7000;1.3162;1.0907;
393.0000;1.3162;1.0907;
393.3000;1.3171;1.0983;
393.6000;1.3171;1.1058;
393.9000;1.3162;1.1033;
394.2000;1.3162;1.0932;
394.5000;1.3130;1.0932;
394.8000;1.3162;1.1084;
395.1000;1.3154;1.1008;
395.4000;1.3154;1.0932;
395.7000;1.3162;1.0907;
396.0000;1.3179;1.1008;
396.3000;1.3162;1.1084;
396.6000;1.3162;1.0983;
396.9000;1.3162;1.1058;
397.2000;1.3138;1.1084;
397.5000;1.3154;1.1084;
397.8000;1.3171;1.1134;
398.1000;1.3162;1.1109;
398.4000;1.3171;1.1109;
398.7000;1.3179;1.1084;
399.0000;1.3171;1.1134;
399.3000;1.3146;1.1008;
399.6000;1.3162;1.0958;
399.9000;1.3162;1.0958;
400.2000;1.3171;1.0932;
400.5000;1.3146;1.0857;
400.8000;1.3171;1.0907;
401.1000;1.3236;1.1134;
401.4000;1.3162;1.0958;
401.7000;1.3162;1.1033;
402.0000;1.3179;1.1033;
402.3000;1.3138;1.0907;
402.6000;1.3162;1.0983;
402.9000;1.3154;1.1058;
403.2000;1.3138;1.1084;
403.5000;1.3187;1.1134;
403.8000;1.3162;1.1109;
404.1000;1.3138;1.1084;
404.4000;1.3162;1.1109;
404.7000;1.3154;1.1184;
405.0000;1.3130;1.1109;
405.3000;1.3146;1.1159;
405.6000;1.3138;1.1109;
405.9000;1.3162;1.1184;
406.2000;1.3162;1.1084;
406.5000;1.3187;1.1159;
406.8000;1.3154;1.1033;
407.1000;1.3081;1.0882;
407.4000;1.3211;1.1134;
407.7000;1.3171;1.1159;
408.0000;1.3171;1.1134;
408.3000;1.3154;1.1159;
408.6000;1.3146;1.1084;
408.9000;1.3162;1.1184;
409.2000;1.3162;1.1159;
409.5000;1.3138;1.1084;
409.8000;1.3154;1.1109;
410.1000;1.3162;1.1084;
410.4000;1.3162;1.1084;
410.7000;1.3154;1.1109;
411.0000;1.3162;1.1159;
411.3000;1.3097;1.0983;
411.6000;1.3154;1.1058;
411.9000;1.3162;1.1008;
412.2000;1.3162;1.1008;
412.5000;1.3195;1.1109;
412.8000;1.3162;1.1058;
413.1000;1.3162;1.0983;
413.4000;1.3089;1.0731;
413.7000;1.3154;1.0907;
414.0000;1.3154;1.0907;
414.3000;1.3146;1.0932;
414.6000;1.3162;1.0958;
414.9000;1.3162;1.0983;
415.2000;1.3171;1.1008;
415.5000;1.3154;1.0983;
415.8000;1.3171;1.1058;
416.1000;1.3154;1.1033;
416.4000;1.3162;1.1134;
416.7000;1.3154;1.1210;
417.0000;1.3154;1.1134;
417.3000;1.3154;1.1134;
417.6000;1.3171;1.1134;
417.9000;1.3154;1.1210;
418.2000;1.3154;1.1260;
418.5000;1.3146;1.1260;
418.8000;1.3162;1.1184;
419.1000;1.3154;1.1084;
419.4000;1.3138;1.0983;
419.7000;1.3154;1.0958;
420.0000;1.3171;1.0958;
420.3000;1.3154;1.0907;
420.6000;1.3179;1.0958;
420.9000;1.3162;1.0958;
421.2000;1.3162;1.1008;
421.5000;1.3162;1.1084;
421.8000;1.3171;1.1058;
422.1000;1.3146;1.1033;
422.4000;1.3154;1.1058;
422.7000;1.3138;1.1058;
423.0000;1.3138;1.1084;
423.3000;1.3154;1.1033;
423.6000;1.3154;1.1084;
423.9000;1.3162;1.1084;
424.2000;1.3138;1.0983;
424.5000;1.3171;1.1033;
424.8000;1.3130;1.0907;
425.1000;1.3162;1.1008;
425.4000;1.3146;1.1008;
425.7000;1.3146;1.0958;
426.0000;1.3146;1.1008;
426.3000;1.3154;1.0983;
426.6000;1.3179;1.1134;
426.9000;1.3154;1.1033;
427.2000;1.3162;1.1033;
427.5000;1.3162;1.1109;
427.8000;1.3171;1.1084;
428.1000;1.3187;1.1109;
428.4000;1.3162;1.1058;
428.7000;1.3187;1.1084;
429.0000;1.3187;1.1008;
429.3000;1.3162;1.0983;
429.6000;1.3154;1.0983;
429.9000;1.3105;1.0882;
430.2000;1.3162;1.1084;
430.5000;1.3162;1.0983;
430.8000;1.3219;1.1134;
431.1000;1.3130;1.0983;
431.4000;1.3146;1.1084;
431.7000;1.3162;1.1159;
432.0000;1.3138;1.1058;
432.3000;1.3179;1.1184;
432.6000;1.3138;1.1235;
432.9000;1.3154;1.1335;
433.2000;1.3171;1.1436;
433.5000;1.3162;1.1411;
433.8000;1.3162;1.1436;
434.1000;1.3162;1.1461;
434.4000;1.3179;1.1461;
434.7000;1.3162;1.1361;
435.0000;1.3146;1.1285;
435.3000;1.3130;1.1235;
435.6000;1.3171;1.1235;
435.9000;1.3162;1.1235;
436.2000;1.3154;1.1159;
436.5000;1.3146;1.1109;
436.8000;1.3146;1.1184;
437.1000;1.3154;1.1260;
437.4000;1.3187;1.1411;
437.7000;1.3154;1.1361;
438.0000;1.3154;1.1210;
438.3000;1.3122;1.1033;
438.6000;1.3171;1.1109;
438.9000;1.3154;1.1109;
439.2000;1.3154;1.1184;
439.5000;1.3162;1.1310;
439.8000;1.3171;1.1260;
440.1000;1.3146;1.1159;
440.4000;1.3130;1.1184;
440.7000;1.3154;1.1235;
441.0000;1.3146;1.1260;
441.3000;1.3146;1.1335;
441.6000;1.3162;1.1335;
441.9000;1.3138;1.1285;
442.2000;1.3154;1.1285;
442.5000;1.3138;1.1310;
442.8000;1.3081;1.1134;
443.1000;1.3162;1.1285;
443.4000;1.3171;1.1386;
443.7000;1.3097;1.1134;
444.0000;1.3138;1.1260;
444.3000;1.3179;1.1310;
444.6000;1.3187;1.1310;
444.9000;1.3130;1.1159;
445.2000;1.3171;1.1285;
445.5000;1.3154;1.1285;
445.8000;1.3154;1.1361;
446.1000;1.3146;1.1335;
446.4000;1.3146;1.1361;
446.7000;1.3138;1.1335;
447.0000;1.3154;1.1310;
447.3000;1.3171;1.1361;
447.6000;1.3162;1.1310;
447.9000;1.3146;1.1210;
448.2000;1.3154;1.1235;
448.5000;1.3154;1.1235;
448.8000;1.3187;1.1285;
449.1000;1.3146;1.1134;
449.4000;1.3162;1.1210;
449.7000;1.3162;1.1235;
450.0000;1.3154;1.1134;
450.3000;1.3138;1.1184;
450.6000;1.3154;1.1260;
450.9000;1.3179;1.1386;
451.2000;1.3130;1.1260;
451.5000;1.3122;1.1210;
451.8000;1.3146;1.1159;
452.1000;1.3171;1.1184;
452.4000;1.3146;1.1033;
452.7000;1.3146;1.1008;
453.0000;1.3105;1.0932;
453.3000;1.3162;1.1033;
453.6000;1.3122;1.1033;
453.9000;1.3146;1.1058;
454.2000;1.3130;1.1033;
454.5000;1.3171;1.1084;
454.8000;1.3130;1.0958;
455.1000;1.3154;1.0983;
455.4000;1.3130;1.0882;
455.7000;1.3179;1.1058;
456.0000;1.3146;1.1008;
456.3000;1.3089;1.0781;
456.6000;1.3162;1.0907;
456.9000;1.3146;1.0907;
457.2000;1.3154;1.0958;
457.5000;1.3162;1.0958;
457.8000;1.3138;1.0932;
458.1000;1.3162;1.1033;
458.4000;1.3179;1.0983;
458.7000;1.3162;1.0958;
459.0000;1.3162;1.0983;
459.3000;1.3154;1.0958;
459.6000;1.3146;1.0932;
459.9000;1.3162;1.0983;
460.2000;1.3154;1.1084;
460.5000;1.3065;1.0882;
460.8000;1.3162;1.1109;
461.1000;1.3162;1.1084;
461.4000;1.3154;1.1008;
461.7000;1.3171;1.1033;
462.0000;1.3154;1.1058;
462.3000;1.3154;1.1109;
462.6000;1.3162;1.1134;
462.9000;1.3154;1.1134;
463.2000;1.3154;1.1058;
463.5000;1.3154;1.1159;
463.8000;1.3171;1.1210;
464.1000;1.3154;1.1235;
464.4000;1.3138;1.1159;
464.7000;1.3154;1.1285;
465.0000;1.3162;1.1159;
465.3000;1.3146;1.1134;
465.6000;1.3154;1.1134;
465.9000;1.3130;1.1134;
466.2000;1.3105;1.1058;
466.5000;1.3138;1.1084;
466.8000;1.3146;1.0983;
467.1000;1.3146;1.1008;
467.4000;1.3179;1.1033;
467.7000;1.3138;1.1008;
468.0000;1.3122;1.0958;
468.3000;1.3154;1.0958;
468.6000;1.3130;1.0857;
468.9000;1.3162;1.0907;
469.2000;1.3154;1.0857;
469.5000;1.3105;1.0756;
469.8000;1.3146;1.0857;
470.1000;1.3187;1.0932;
470.4000;1.3171;1.0857;
470.7000;1.3146;1.0807;
471.0000;1.3154;1.0958;
471.3000;1.3171;1.1134;
471.6000;1.3154;1.1033;
471.9000;1.3154;1.0983;
472.2000;1.3138;1.0958;
472.5000;1.3154;1.0932;
472.8000;1.3154;1.1008;
473.1000;1.3130;1.0907;
473.4000;1.3138;1.0958;
473.7000;1.3154;1.0932;
474.0000;1.3154;1.0983;
474.3000;1.3154;1.0983;
474.6000;1.3179;1.0958;
474.9000;1.3146;1.0882;
475.2000;1.3154;1.0882;
475.5000;1.3138;1.0832;
475.8000;1.3130;1.0857;
476.1000;1.3146;1.0882;
476.4000;1.3138;1.0932;
476.7000;1.3195;1.1134;
477.0000;1.3146;1.0983;
477.3000;1.3138;1.1058;
477.6000;1.3146;1.1109;
477.9000;1.3114;1.1109;
478.2000;1.3138;1.1058;
478.5000;1.3138;1.1008;
478.8000;1.3130;1.1008;
479.1000;1.3146;1.1033;
479.4000;1.3122;1.0932;
479.7000;1.3138;1.1033;
480.0000;1.3154;1.1159;
480.3000;1.3138;1.1210;
480.6000;1.3138;1.1235;
480.9000;1.3130;1.1260;
481.2000;1.3154;1.1260;
481.5000;1.3097;1.1159;
481.8000;1.3154;1.1310;
482.1000;1.3138;1.1310;
482.4000;1.3122;1.1285;
482.7000;1.3130;1.1310;
483.0000;1.3138;1.1335;
483.3000;1.3114;1.1335;
483.6000;1.3114;1.1361;
483.9000;1.3228;1.1613;
484.2000;1.3146;1.1361;
484.5000;1.3122;1.1210;
484.8000;1.3138;1.1210;
485.1000;1.3146;1.1134;
485.4000;1.3146;1.1184;
485.7000;1.3130;1.1134;
486.0000;1.3162;1.1134;
486.3000;1.3130;1.1033;
486.6000;1.3146;1.1084;
486.9000;1.3114;1.1159;
487.2000;1.3130;1.1184;
487.5000;1.3114;1.1184;
487.8000;1.3154;1.1159;
488.1000;1.3138;1.1184;
488.4000;1.3138;1.1184;
488.7000;1.3138;1.1260;
489.0000;1.3138;1.1361;
489.3000;1.3146;1.1310;
489.6000;1.3097;1.1058;
489.9000;1.3146;1.1260;
490.2000;1.3130;1.1184;
490.5000;1.3162;1.1260;
490.8000;1.3146;1.1235;
491.1000;1.3130;1.1134;
491.4000;1.3138;1.1084;
491.7000;1.3154;1.1159;
492.0000;1.3138;1.1159;
492.3000;1.3162;1.1184;
492.6000;1.3138;1.1210;
492.9000;1.3146;1.1285;
493.2000;1.3154;1.1260;
493.5000;1.3138;1.1210;
493.8000;1.3138;1.1235;
494.1000;1.3146;1.1260;
494.4000;1.3154;1.1260;
494.7000;1.3146;1.1134;
495.0000;1.3146;1.1159;
495.3000;1.3130;1.1084;
495.6000;1.3138;1.1084;
495.9000;1.3105;1.1033;
496.2000;1.3122;1.0983;
496.5000;1.3130;1.0983;
496.8000;1.3130;1.1008;
497.1000;1.3138;1.1008;
497.4000;1.3138;1.0983;
497.7000;1.3130;1.0932;
498.0000;1.3130;1.1008;
498.3000;1.3146;1.0907;
498.6000;1.3122;1.0958;
498.9000;1.3146;1.0958;
499.2000;1.3146;1.0983;
499.5000;1.3146;1.0907;
499.8000;1.3138;1.0882;
500.1000;1.3138;1.0932;
500.4000;1.3130;1.0907;
500.7000;1.3146;1.0983;
501.0000;1.3130;1.1033;
501.3000;1.3138;1.1109;
501.6000;1.3146;1.1084;
501.9000;1.3154;1.1033;
502.2000;1.3138;1.0958;
502.5000;1.3130;1.0958;
502.8000;1.3138;1.1033;
503.1000;1.3146;1.0983;
503.4000;1.3138;1.1008;
503.7000;1.3138;1.1084;
504.0000;1.3138;1.1008;
504.3000;1.3114;1.0932;
504.6000;1.3154;1.0958;
504.9000;1.3146;1.0983;
505.2000;1.3146;1.1033;
505.5000;1.3154;1.1058;
505.8000;1.3162;1.0983;
506.1000;1.3146;1.1008;
506.4000;1.3138;1.1008;
506.7000;1.3154;1.1008;
507.0000;1.3138;1.0932;
507.3000;1.3138;1.0932;
507.6000;1.3138;1.0932;
507.9000;1.3122;1.0882;
508.2000;1.3138;1.0832;
508.5000;1.3130;1.0832;
508.8000;1.3146;1.0882;
509.1000;1.3138;1.0907;
509.4000;1.3130;1.0882;
509.7000;1.3146;1.0932;
510.0000;1.3146;1.0958;
510.3000;1.3154;1.1033;
510.6000;1.3122;1.0958;
510.9000;1.3122;1.0958;
511.2000;1.3162;1.1159;
511.5000;1.3130;1.0983;
511.8000;1.3138;1.1008;
512.1000;1.3122;1.0907;
512.4000;1.3130;1.0907;
512.7000;1.3138;1.0958;
513.0000;1.3122;1.0983;
513.3000;1.3122;1.1058;
513.6000;1.3130;1.1134;
513.9000;1.3114;1.1109;
514.2000;1.3138;1.1084;
514.5000;1.3122;1.0958;
514.8000;1.3154;1.0882;
515.1000;1.3105;1.0681;
515.4000;1.3130;1.0756;
515.7000;1.3171;1.0907;
516.0000;1.3171;1.0932;
516.3000;1.3162;1.0958;
516.6000;1.3138;1.0983;
516.9000;1.3146;1.0932;
517.2000;1.3195;1.1033;
517.5000;1.3146;1.1008;
517.8000;1.3211;1.1260;
518.1000;1.3089;1.0882;
518.4000;1.3146;1.1033;
518.7000;1.3138;1.1033;
519.0000;1.3154;1.1084;
519.3000;1.3138;1.1033;
519.6000;1.3154;1.0983;
519.9000;1.3162;1.0983;
520.2000;1.3130;1.0958;
520.5000;1.3162;1.1033;
520.8000;1.3130;1.0958;
521.1000;1.3171;1.1008;
521.4000;1.3162;1.1084;
521.7000;1.3114;1.0958;
522.0000;1.3154;1.1084;
522.3000;1.3114;1.1008;
522.6000;1.3203;1.1184;
522.9000;1.3122;1.1058;
523.2000;1.3089;1.1058;
523.5000;1.3171;1.1210;
523.8000;1.3154;1.1134;
524.1000;1.3162;1.1134;
524.4000;1.3130;1.0983;
524.7000;1.3122;1.0932;
525.0000;1.3130;1.1084;
525.3000;1.3122;1.1084;
525.6000;1.3114;1.1058;
525.9000;1.3146;1.1134;
526.2000;1.3187;1.1235;
526.5000;1.3130;1.1134;
526.8000;1.3130;1.1159;
527.1000;1.3138;1.1134;
527.4000;1.3057;1.0857;
527.7000;1.3130;1.1008;
528.0000;1.3130;1.1033;
528.3000;1.3122;1.1058;
528.6000;1.3154;1.1084;
528.9000;1.3146;1.1109;
529.2000;1.3146;1.1109;
529.5000;1.3138;1.1008;
529.8000;1.3122;1.1109;
530.1000;1.3130;1.1033;
530.4000;1.3138;1.1033;
530.7000;1.3130;1.1033;
531.0000;1.3130;1.0983;
531.3000;1.3130;1.0983;
531.6000;1.3138;1.1008;
531.9000;1.3130;1.0932;
532.2000;1.3105;1.0958;
532.5000;1.3122;1.1033;
532.8000;1.3146;1.1058;
533.1000;1.3114;1.1084;
533.4000;1.3114;1.1058;
533.7000;1.3130;1.1109;
534.0000;1.3105;1.1008;
534.3000;1.3105;1.1109;
534.6000;1.3114;1.1109;
534.9000;1.3138;1.1058;
535.2000;1.3138;1.1084;
535.5000;1.3122;1.0983;
535.8000;1.3114;1.0932;
536.1000;1.3114;1.0832;
536.4000;1.3154;1.0958;
536.7000;1.3138;1.0907;
537.0000;1.3122;1.0857;
537.3000;1.3114;1.0882;
537.6000;1.3130;1.1084;
537.9000;1.3122;1.0958;
538.2000;1.3114;1.0882;
538.5000;1.3114;1.0907;
538.8000;1.3130;1.0932;
539.1000;1.3122;1.0958;
539.4000;1.3130;1.0932;
539.7000;1.3114;1.0907;
540.0000;1.3146;1.1058;
540.3000;1.3146;1.0983;
540.6000;1.3138;1.0882;
540.9000;1.3114;1.0882;
541.2000;1.3130;1.0882;
541.5000;1.3154;1.0958;
541.8000;1.3146;1.0983;
542.1000;1.3114;1.0932;
542.4000;1.3154;1.0958;
542.7000;1.3138;1.0958;
543.0000;1.3122;1.0983;
543.3000;1.3130;1.0983;
543.6000;1.3138;1.0907;
543.9000;1.3122;1.0932;
544.2000;1.3138;1.1058;
544.5000;1.3130;1.1058;
544.8000;1.3138;1.1058;
545.1000;1.3122;1.1058;
545.4000;1.3146;1.1058;
545.7000;1.3105;1.0983;
546.0000;1.3130;1.0932;
546.3000;1.3146;1.0907;
546.6000;1.3154;1.0983;
546.9000;1.3138;1.0958;
547.2000;1.3203;1.1159;
547.5000;1.3138;1.0958;
547.8000;1.3130;1.0857;
548.1000;1.3162;1.0907;
548.4000;1.3122;1.0706;
548.7000;1.3122;1.0706;
549.0000;1.3105;1.0630;
549.3000;1.3130;1.0630;
549.6000;1.3122;1.0706;
549.9000;1.3114;1.0731;
550.2000;1.3138;1.0832;
550.5000;1.3154;1.0882;
550.8000;1.3138;1.0907;
551.1000;1.3146;1.0857;
551.4000;1.3146;1.0832;
551.7000;1.3179;1.0857;
552.0000;1.3130;1.0681;
552.3000;1.3146;1.0706;
552.6000;1.3138;1.0655;
552.9000;1.3219;1.0832;
553.2000;1.3154;1.0630;
553.5000;1.3130;1.0580;
553.8000;1.3122;1.0605;
554.1000;1.3138;1.0731;
554.4000;1.3130;1.0731;
554.7000;1.3122;1.0731;
555.0000;1.3130;1.0781;
555.3000;1.3138;1.0807;
555.6000;1.3122;1.0756;
555.9000;1.3130;1.0706;
556.2000;1.3122;1.0706;
556.5000;1.3114;1.0655;
556.8000;1.3138;1.0781;
557.1000;1.3138;1.0781;
557.4000;1.3130;1.0731;
557.7000;1.3130;1.0731;
558.0000;1.3146;1.0857;
558.3000;1.3162;1.0932;
558.6000;1.3122;1.0781;
558.9000;1.3130;1.0781;
559.2000;1.3130;1.0756;
559.5000;1.3089;1.0655;
559.8000;1.3130;1.0781;
560.1000;1.3138;1.0882;
560.4000;1.3130;1.0907;
560.7000;1.3122;1.0857;
561.0000;1.3114;1.0857;
561.3000;1.3122;1.0882;
561.6000;1.3154;1.0983;
561.9000;1.3138;1.0857;
562.2000;1.3138;1.0882;
562.5000;1.3114;1.0832;
562.8000;1.3122;1.0907;
563.1000;1.3138;1.0958;
563.4000;1.3130;1.1008;
563.7000;1.3089;1.0932;
564.0000;1.3114;1.0983;
564.3000;1.3122;1.1008;
564.6000;1.3122;1.0932;
564.9000;1.3114;1.0882;
565.2000;1.3130;1.0882;
565.5000;1.3138;1.0857;
565.8000;1.3114;1.0781;
566.1000;1.3122;1.0756;
566.4000;1.3122;1.0731;
566.7000;1.3114;1.0731;
567.0000;1.3146;1.0781;
567.3000;1.3122;1.0756;
567.6000;1.3114;1.0832;
567.9000;1.3122;1.0932;
568.2000;1.3122;1.1008;
568.5000;1.3114;1.0958;
568.8000;1.3122;1.0907;
569.1000;1.3122;1.0983;
569.4000;1.3105;1.0907;
569.7000;1.3130;1.0958;
570.0000;1.3138;1.1084;
570.3000;1.3114;1.1134;
570.6000;1.3122;1.1235;
570.9000;1.3105;1.1260;
571.2000;1.3114;1.1335;
571.5000;1.3130;1.1235;
571.8000;1.3122;1.1184;
572.1000;1.3097;1.1109;
572.4000;1.3114;1.1109;
572.7000;1.3114;1.1109;
573.0000;1.3097;1.1033;
573.3000;1.3114;1.1084;
573.6000;1.3114;1.1084;
573.9000;1.3154;1.1184;
574.2000;1.3105;1.1134;
574.5000;1.3130;1.1235;
574.8000;1.3122;1.1210;
575.1000;1.3122;1.1159;
575.4000;1.3114;1.1058;
575.7000;1.3114;1.1033;
576.0000;1.3114;1.1033;
576.3000;1.3146;1.1134;
576.6000;1.3114;1.1084;
576.9000;1.3122;1.0983;
577.2000;1.3130;1.0857;
577.5000;1.3122;1.0882;
577.8000;1.3114;1.0882;
578.1000;1.3114;1.0882;
578.4000;1.3138;1.1008;
578.7000;1.3138;1.0932;
579.0000;1.3122;1.0932;
579.3000;1.3130;1.1058;
579.6000;1.3114;1.0983;
579.9000;1.3122;1.1033;
580.2000;1.3122;1.1008;
580.5000;1.3122;1.0932;
580.8000;1.3138;1.1033;
581.1000;1.3146;1.1084;
581.4000;1.3114;1.0932;
581.7000;1.3114;1.0907;
582.0000;1.3122;1.0932;
582.3000;1.3130;1.0882;
582.6000;1.3138;1.0882;
582.9000;1.3122;1.0907;
583.2000;1.3138;1.0907;
583.5000;1.3146;1.0958;
583.8000;1.3114;1.0907;
584.1000;1.3105;1.0832;
584.4000;1.3105;1.0832;
584.7000;1.3130;1.0832;
585.0000;1.3114;1.0832;
585.3000;1.3138;1.0932;
585.6000;1.3105;1.0857;
585.9000;1.3081;1.0781;
586.2000;1.3130;1.0932;
586.5000;1.3122;1.0958;
586.8000;1.3138;1.0882;
587.1000;1.3114;1.0832;
587.4000;1.3122;1.0832;
587.7000;1.3105;1.0781;
588.0000;1.3122;1.0857;
588.3000;1.3114;1.0832;
588.6000;1.3138;1.0907;
588.9000;1.3138;1.0857;
589.2000;1.3138;1.0832;
589.5000;1.3122;1.0781;
589.8000;1.3162;1.0983;
590.1000;1.3130;1.0807;
590.4000;1.3130;1.0882;
590.7000;1.3114;1.0857;
591.0000;1.3089;1.0807;
591.3000;1.3105;1.0932;
591.6000;1.3114;1.0958;
591.9000;1.3114;1.0958;
592.2000;1.3105;1.0958;
592.5000;1.3122;1.0983;
592.8000;1.3122;1.1058;
593.1000;1.3138;1.1134;
593.4000;1.3114;1.0958;
593.7000;1.3146;1.1084;
594.0000;1.3122;1.0932;
594.3000;1.3130;1.1008;
594.6000;1.3122;1.1008;
594.9000;1.3105;1.0958;
595.2000;1.3097;1.0882;
595.5000;1.3105;1.0983;
595.8000;1.3097;1.0882;
596.1000;1.3114;1.0857;
596.4000;1.3114;1.0907;
596.7000;1.3114;1.0781;
597.0000;1.3122;1.0807;
597.3000;1.3130;1.0807;
597.6000;1.3105;1.0832;
597.9000;1.3105;1.0832;
598.2000;1.3114;1.0907;
598.5000;1.3130;1.0932;
598.8000;1.3130;1.0958;
599.1000;1.3130;1.0932;
599.4000;1.3122;1.0832;
599.7000;1.3105;1.0907;
600.0000;1.3114;1.0932;
600.3000;1.3146;1.0807;
600.6000;1.3138;1.0731;
600.9000;1.3081;1.0580;
601.2000;1.2991;1.0429;
601.5000;1.2853;1.0227;
601.8000;1.2772;1.0202;
602.1000;1.2658;1.0076;
602.4000;1.2568;0.9975;
602.7000;1.2454;0.9925;
603.0000;1.2340;0.9774;
603.3000;1.2234;0.9673;
603.6000;1.2120;0.9497;
603.9000;1.2055;0.9497;
604.2000;1.1958;0.9320;
604.5000;1.1860;0.9169;
604.8000;1.1803;0.9018;
605.1000;1.1713;0.8842;
605.4000;1.1648;0.8842;
605.7000;1.1583;0.8842;
606.0000;1.1534;0.8842;
606.3000;1.1437;0.8766;
606.6000;1.1388;0.8716;
606.9000;1.1331;0.8691;
607.2000;1.1274;0.8716;
607.5000;1.1201;0.8716;
607.8000;1.1152;0.8539;
608.1000;1.1079;0.8338;
608.4000;1.1022;0.8439;
608.7000;1.0989;0.8489;
609.0000;1.0940;0.8439;
609.3000;1.0867;0.8388;
609.6000;1.0834;0.8413;
609.9000;1.0810;0.8489;
610.2000;1.0737;0.8338;
610.5000;1.0696;0.8288;
610.8000;1.0615;0.8187;
611.1000;1.0590;0.8262;
611.4000;1.0566;0.8237;
611.7000;1.0517;0.8136;
612.0000;1.0460;0.8136;
612.3000;1.0427;0.8061;
612.6000;1.0395;0.8086;
612.9000;1.0362;0.7935;
613.2000;1.0313;0.7910;
613.5000;1.0281;0.7884;
613.8000;1.0248;0.7910;
614.1000;1.0208;0.7859;
614.4000;1.0151;0.7834;
614.7000;1.0126;0.7985;
615.0000;1.0077;0.7910;
615.3000;1.0045;0.7859;
615.6000;1.0020;0.7935;
615.9000;1.0045;0.8061;
616.2000;0.9939;0.7935;
616.5000;0.9947;0.8036;
616.8000;0.9858;0.7859;
617.1000;0.9817;0.7784;
617.4000;0.9817;0.7859;
617.7000;0.9784;0.7759;
618.0000;0.9760;0.7784;
618.3000;0.9678;0.7683;
618.6000;0.9711;0.7733;
618.9000;0.9646;0.7683;
619.2000;0.9662;0.7784;
619.5000;0.9638;0.7859;
619.8000;0.9589;0.7759;
620.1000;0.9548;0.7658;
620.4000;0.9524;0.7683;
620.7000;0.9516;0.7658;
621.0000;0.9524;0.7759;
621.3000;0.9467;0.7708;
621.6000;0.9451;0.7683;
621.9000;0.9418;0.7708;
622.2000;0.9377;0.7733;
622.5000;0.9353;0.7759;
622.8000;0.9345;0.7859;
623.1000;0.9312;0.7834;
623.4000;0.9296;0.7834;
623.7000;0.9255;0.7834;
624.0000;0.9239;0.7834;
624.3000;0.9206;0.7834;
624.6000;0.9198;0.7884;
624.9000;0.9158;0.7884;
625.2000;0.9133;0.7834;
625.5000;0.9125;0.7809;
625.8000;0.9101;0.7708;
626.1000;0.9101;0.7733;
626.4000;0.9052;0.7582;
626.7000;0.9044;0.7658;
627.0000;0.9035;0.7658;
627.3000;0.9019;0.7809;
627.6000;0.8930;0.7582;
627.9000;0.8995;0.7733;
628.2000;0.8938;0.7607;
628.5000;0.8954;0.7658;
628.8000;0.8921;0.7759;
629.1000;0.8897;0.7733;
629.4000;0.8881;0.7759;
629.7000;0.8856;0.7759;
630.0000;0.8840;0.7708;
630.3000;0.8832;0.7708;
630.6000;0.8807;0.7708;
630.9000;0.8799;0.7733;
631.2000;0.8807;0.7759;
631.5000;0.8742;0.7607;
631.8000;0.8726;0.7557;
632.1000;0.8783;0.7784;
632.4000;0.8726;0.7633;
632.7000;0.8702;0.7658;
633.0000;0.8669;0.7683;
633.3000;0.8661;0.7733;
633.6000;0.8653;0.7759;
633.9000;0.8653;0.7658;
634.2000;0.8653;0.7658;
634.5000;0.8620;0.7557;
634.8000;0.8604;0.7507;
635.1000;0.8588;0.7607;
635.4000;0.8571;0.7582;
635.7000;0.8580;0.7633;
636.0000;0.8547;0.7607;
636.3000;0.8523;0.7557;
636.6000;0.8506;0.7557;
636.9000;0.8498;0.7507;
637.2000;0.8498;0.7582;
637.5000;0.8490;0.7633;
637.8000;0.8457;0.7633;
638.1000;0.8449;0.7607;
638.4000;0.8425;0.7633;
638.7000;0.8441;0.7633;
639.0000;0.8400;0.7633;
639.3000;0.8392;0.7582;
639.6000;0.8360;0.7507;
639.9000;0.8352;0.7557;
640.2000;0.8352;0.7582;
640.5000;0.8327;0.7582;
640.8000;0.8335;0.7582;
641.1000;0.8335;0.7607;
641.4000;0.8303;0.7633;
641.7000;0.8262;0.7532;
642.0000;0.8295;0.7557;
642.3000;0.8335;0.7658;
642.6000;0.8270;0.7532;
642.9000;0.8262;0.7532;
643.2000;0.8230;0.7481;
643.5000;0.8254;0.7582;
643.8000;0.8238;0.7532;
644.1000;0.8287;0.7683;
644.4000;0.8205;0.7481;
644.7000;0.8205;0.7481;
645.0000;0.8181;0.7355;
645.3000;0.8189;0.7381;
645.6000;0.8173;0.7330;
645.9000;0.8173;0.7355;
646.2000;0.8164;0.7431;
646.5000;0.8124;0.7280;
646.8000;0.8116;0.7305;
647.1000;0.8132;0.7406;
647.4000;0.8116;0.7406;
647.7000;0.8107;0.7456;
648.0000;0.8107;0.7481;
648.3000;0.8132;0.7481;
648.6000;0.8083;0.7330;
648.9000;0.8083;0.7456;
649.2000;0.8042;0.7255;
649.5000;0.8034;0.7255;
649.8000;0.8042;0.7305;
650.1000;0.7985;0.7179;
650.4000;0.7945;0.7078;
650.7000;0.8059;0.7456;
651.0000;0.8010;0.7381;
651.3000;0.8002;0.7305;
651.6000;0.7961;0.7154;
651.9000;0.7961;0.7255;
652.2000;0.7961;0.7230;
652.5000;0.8002;0.7406;
652.8000;0.7945;0.7406;
653.1000;0.7937;0.7406;
653.4000;0.7880;0.7330;
653.7000;0.7928;0.7381;
654.0000;0.7993;0.7532;
654.3000;0.7920;0.7355;
654.6000;0.7912;0.7330;
654.9000;0.7896;0.7255;
655.2000;0.7904;0.7280;
655.5000;0.7880;0.7230;
655.8000;0.7880;0.7255;
656.1000;0.7880;0.7381;
656.4000;0.7888;0.7481;
656.7000;0.7855;0.7355;
657.0000;0.7847;0.7355;
657.3000;0.7855;0.7381;
657.6000;0.7847;0.7381;
657.9000;0.7823;0.7431;
658.2000;0.7855;0.7532;
658.5000;0.7823;0.7456;
658.8000;0.7823;0.7532;
659.1000;0.7823;0.7481;
659.4000;0.7806;0.7507;
659.7000;0.7790;0.7355;
660.0000;0.7782;0.7330;
660.3000;0.7790;0.7456;
660.6000;0.7741;0.7280;
660.9000;0.7749;0.7355;
661.2000;0.7766;0.7381;
661.5000;0.7757;0.7431;
661.8000;0.7757;0.7456;
662.1000;0.7749;0.7406;
662.4000;0.7741;0.7355;
662.7000;0.7749;0.7381;
663.0000;0.7733;0.7330;
663.3000;0.7717;0.7330;
663.6000;0.7692;0.7330;
663.9000;0.7725;0.7481;
664.2000;0.7733;0.7507;
664.5000;0.7668;0.7507;
664.8000;0.7676;0.7557;
665.1000;0.7684;0.7607;
665.4000;0.7668;0.7481;
665.7000;0.7660;0.7355;
666.0000;0.7676;0.7381;
666.3000;0.7562;0.7129;
666.6000;0.7652;0.7406;
666.9000;0.7635;0.7330;
667.2000;0.7684;0.7481;
667.5000;0.7635;0.7406;
667.8000;0.7643;0.7456;
668.1000;0.7635;0.7507;
668.4000;0.7619;0.7456;
668.7000;0.7619;0.7507;
669.0000;0.7668;0.7633;
669.3000;0.7684;0.7784;
669.6000;0.7611;0.7683;
669.9000;0.7586;0.7507;
670.2000;0.7578;0.7431;
670.5000;0.7554;0.7305;
670.8000;0.7530;0.7280;
671.1000;0.7562;0.7406;
671.4000;0.7570;0.7355;
671.7000;0.7570;0.7406;
672.0000;0.7554;0.7481;
672.3000;0.7538;0.7532;
672.6000;0.7538;0.7481;
672.9000;0.7562;0.7582;
673.2000;0.7546;0.7557;
673.5000;0.7530;0.7582;
673.8000;0.7538;0.7582;
674.1000;0.7570;0.7607;
674.4000;0.7538;0.7456;
674.7000;0.7521;0.7456;
675.0000;0.7513;0.7381;
675.3000;0.7489;0.7406;
675.6000;0.7513;0.7406;
675.9000;0.7513;0.7381;
676.2000;0.7448;0.7230;
676.5000;0.7464;0.7255;
676.8000;0.7481;0.7255;
677.1000;0.7521;0.7355;
677.4000;0.7464;0.7280;
677.7000;0.7473;0.7305;
678.0000;0.7416;0.7179;
678.3000;0.7464;0.7204;
678.6000;0.7440;0.7129;
678.9000;0.7416;0.7129;
679.2000;0.7383;0.7154;
679.5000;0.7440;0.7280;
679.8000;0.7448;0.7255;
680.1000;0.7456;0.7230;
680.4000;0.7440;0.7154;
680.7000;0.7432;0.7053;
681.0000;0.7416;0.7104;
681.3000;0.7416;0.7104;
681.6000;0.7383;0.7104;
681.9000;0.7399;0.7154;
682.2000;0.7399;0.7179;
682.5000;0.7391;0.7129;
682.8000;0.7391;0.7230;
683.1000;0.7391;0.7204;
683.4000;0.7375;0.7154;
683.7000;0.7367;0.7230;
684.0000;0.7383;0.7305;
684.3000;0.7399;0.7330;
684.6000;0.7375;0.7330;
684.9000;0.7391;0.7330;
685.2000;0.7367;0.7255;
685.5000;0.7375;0.7381;
685.8000;0.7383;0.7532;
686.1000;0.7359;0.7532;
686.4000;0.7375;0.7557;
686.7000;0.7350;0.7633;
687.0000;0.7350;0.7532;
687.3000;0.7375;0.7507;
687.6000;0.7350;0.7532;
687.9000;0.7334;0.7557;
688.2000;0.7334;0.7582;
688.5000;0.7326;0.7658;
688.8000;0.7318;0.7582;
689.1000;0.7318;0.7557;
689.4000;0.7342;0.7507;
689.7000;0.7326;0.7507;
690.0000;0.7318;0.7532;
690.3000;0.7293;0.7507;
690.6000;0.7302;0.7481;
690.9000;0.7293;0.7406;
691.2000;0.7277;0.7230;
691.5000;0.7293;0.7305;
691.8000;0.7293;0.7305;
692.1000;0.7302;0.7355;
692.4000;0.7310;0.7406;
692.7000;0.7269;0.7255;
693.0000;0.7228;0.7204;
693.3000;0.7277;0.7355;
693.6000;0.7285;0.7507;
693.9000;0.7277;0.7507;
694.2000;0.7269;0.7481;
694.5000;0.7277;0.7381;
694.8000;0.7293;0.7381;
695.1000;0.7269;0.7330;
695.4000;0.7334;0.7431;
695.7000;0.7293;0.7280;
696.0000;0.7277;0.7355;
696.3000;0.7261;0.7330;
696.6000;0.7236;0.7204;
696.9000;0.7236;0.7280;
697.2000;0.7261;0.7406;
697.5000;0.7236;0.7406;
697.8000;0.7220;0.7381;
698.1000;0.7228;0.7431;
698.4000;0.7228;0.7431;
698.7000;0.7228;0.7507;
699.0000;0.7220;0.7406;
699.3000;0.7220;0.7406;
699.6000;0.7204;0.7355;
699.9000;0.7228;0.7330;
700.2000;0.7131;0.7003;
700.5000;0.7196;0.7179;
700.8000;0.7204;0.7230;
701.1000;0.7204;0.7129;
701.4000;0.7204;0.7204;
701.7000;0.7179;0.7204;
702.0000;0.7155;0.7179;
702.3000;0.7179;0.7204;
702.6000;0.7163;0.7179;
702.9000;0.7163;0.7204;
703.2000;0.7171;0.7179;
703.5000;0.7171;0.7179;
703.8000;0.7171;0.7230;
704.1000;0.7179;0.7204;
704.4000;0.7179;0.7255;
704.7000;0.7196;0.7280;
705.0000;0.7155;0.7230;
705.3000;0.7147;0.7230;
705.6000;0.7171;0.7255;
705.9000;0.7171;0.7355;
706.2000;0.7236;0.7633;
706.5000;0.7155;0.7406;
706.8000;0.7147;0.7381;
707.1000;0.7123;0.7330;
707.4000;0.7147;0.7381;
707.7000;0.7139;0.7456;
708.0000;0.7139;0.7582;
708.3000;0.7139;0.7456;
708.6000;0.7131;0.7431;
708.9000;0.7123;0.7431;
709.2000;0.7131;0.7481;
709.5000;0.7131;0.7456;
709.8000;0.7131;0.7481;
710.1000;0.7114;0.7456;
710.4000;0.7123;0.7507;
710.7000;0.7188;0.7708;
711.0000;0.7139;0.7532;
711.3000;0.7139;0.7481;
711.6000;0.7114;0.7481;
711.9000;0.7131;0.7507;
712.2000;0.7090;0.7355;
712.5000;0.7106;0.7280;
712.8000;0.7098;0.7230;
713.1000;0.7098;0.7305;
713.4000;0.7114;0.7330;
713.7000;0.7098;0.7431;
714.0000;0.7090;0.7456;
714.3000;0.7066;0.7406;
714.6000;0.7090;0.7456;
714.9000;0.7090;0.7431;
715.2000;0.7009;0.7204;
715.5000;0.7074;0.7381;
715.8000;0.7082;0.7381;
716.1000;0.7098;0.7431;
716.4000;0.7082;0.7381;
716.7000;0.7074;0.7406;
717.0000;0.7066;0.7456;
717.3000;0.7057;0.7431;
717.6000;0.7074;0.7481;
717.9000;0.7066;0.7481;
718.2000;0.7066;0.7381;
718.5000;0.7074;0.7255;
718.8000;0.7066;0.7230;
719.1000;0.7074;0.7255;
719.4000;0.7090;0.7280;
719.7000;0.7074;0.7305;
720.0000;0.7074;0.7255;
720.3000;0.7066;0.7305;
720.6000;0.7057;0.7280;
720.9000;0.7057;0.7280;
721.2000;0.7049;0.7255;
721.5000;0.7066;0.7204;
721.8000;0.7049;0.7204;
722.1000;0.7049;0.7280;
722.4000;0.7049;0.7255;
722.7000;0.7049;0.7305;
723.0000;0.7041;0.7305;
723.3000;0.7041;0.7280;
723.6000;0.7033;0.7381;
723.9000;0.7025;0.7406;
724.2000;0.7041;0.7481;
724.5000;0.7041;0.7532;
724.8000;0.7025;0.7532;
725.1000;0.7025;0.7507;
725.4000;0.7025;0.7507;
725.7000;0.7017;0.7481;
726.0000;0.7000;0.7355;
726.3000;0.7017;0.7381;
726.6000;0.7074;0.7582;
726.9000;0.7017;0.7532;
727.2000;0.7009;0.7456;
727.5000;0.7009;0.7406;
727.8000;0.7017;0.7381;
728.1000;0.7000;0.7406;
728.4000;0.7009;0.7456;
728.7000;0.6992;0.7557;
729.0000;0.7017;0.7557;
729.3000;0.7009;0.7532;
729.6000;0.7009;0.7557;
729.9000;0.7000;0.7507;
730.2000;0.7017;0.7381;
730.5000;0.6984;0.7255;
730.8000;0.7017;0.7330;
731.1000;0.6984;0.7230;
731.4000;0.6984;0.7230;
731.7000;0.7000;0.7230;
732.0000;0.6976;0.7204;
732.3000;0.6984;0.7255;
732.6000;0.6992;0.7230;
732.9000;0.6984;0.7230;
733.2000;0.6984;0.7230;
733.5000;0.7000;0.7280;
733.8000;0.6992;0.7179;
734.1000;0.7000;0.7129;
734.4000;0.6976;0.7003;
734.7000;0.6984;0.7179;
735.0000;0.7000;0.7330;
735.3000;0.6984;0.7280;
735.6000;0.6976;0.7280;
735.9000;0.6960;0.7230;
736.2000;0.6960;0.7230;
736.5000;0.6960;0.7204;
736.8000;0.6992;0.7305;
737.1000;0.6984;0.7280;
737.4000;0.6952;0.7255;
737.7000;0.6911;0.7154;
738.0000;0.6968;0.7204;
738.3000;0.6976;0.7154;
738.6000;0.6960;0.7255;
738.9000;0.6943;0.7230;
739.2000;0.6968;0.7280;
739.5000;0.6968;0.7305;
739.8000;0.6943;0.7280;
740.1000;0.6968;0.7330;
740.4000;0.6976;0.7330;
740.7000;0.6960;0.7406;
741.0000;0.6952;0.7406;
741.3000;0.6943;0.7381;
741.6000;0.6960;0.7355;
741.9000;0.6943;0.7330;
742.2000;0.6943;0.7355;
742.5000;0.6935;0.7305;
742.8000;0.7017;0.7507;
743.1000;0.6943;0.7355;
743.4000;0.6943;0.7381;
743.7000;0.6919;0.7381;
744.0000;0.6943;0.7381;
744.3000;0.6919;0.7305;
744.6000;0.6927;0.7381;
744.9000;0.6943;0.7381;
745.2000;0.6935;0.7330;
745.5000;0.6911;0.7255;
745.8000;0.6927;0.7330;
746.1000;0.6878;0.7104;
746.4000;0.6903;0.7230;
746.7000;0.6919;0.7255;
747.0000;0.6919;0.7230;
747.3000;0.6919;0.7179;
747.6000;0.6919;0.7179;
747.9000;0.6911;0.7204;
748.2000;0.6911;0.7255;
748.5000;0.6919;0.7255;
748.8000;0.6903;0.7204;
749.1000;0.6911;0.7230;
749.4000;0.6903;0.7179;
749.7000;0.6903;0.7179;
750.0000;0.6903;0.7154;
750.3000;0.6903;0.7129;
750.6000;0.6919;0.7204;
750.9000;0.6903;0.7154;
751.2000;0.6886;0.7179;
751.5000;0.6878;0.7154;
751.8000;0.6895;0.7204;
752.1000;0.6903;0.7179;
752.4000;0.6895;0.7129;
752.7000;0.6895;0.7129;
753.0000;0.6895;0.7003;
753.3000;0.6895;0.7078;
753.6000;0.6903;0.7154;
753.9000;0.6895;0.7053;
754.2000;0.6903;0.7028;
754.5000;0.6895;0.7078;
754.8000;0.6903;0.7078;
755.1000;0.6903;0.7078;
755.4000;0.6895;0.7104;
755.7000;0.6903;0.7104;
756.0000;0.6903;0.7204;
756.3000;0.6895;0.7255;
756.6000;0.6895;0.7280;
756.9000;0.6870;0.7255;
757.2000;0.6895;0.7280;
757.5000;0.6895;0.7204;
757.8000;0.6870;0.7179;
758.1000;0.6854;0.7154;
758.4000;0.6846;0.7204;
758.7000;0.6862;0.7204;
759.0000;0.6813;0.7154;
759.3000;0.6862;0.7255;
759.6000;0.6854;0.7330;
759.9000;0.6919;0.7557;
760.2000;0.6838;0.7381;
760.5000;0.6862;0.7381;
760.8000;0.6862;0.7355;
761.1000;0.6870;0.7330;
761.4000;0.6829;0.7330;
761.7000;0.6862;0.7381;
762.0000;0.6829;0.7255;
762.3000;0.6846;0.7330;
762.6000;0.6854;0.7355;
762.9000;0.6862;0.7456;
763.2000;0.6870;0.7481;
763.5000;0.6862;0.7456;
763.8000;0.6862;0.7330;
764.1000;0.6846;0.7280;
764.4000;0.6829;0.7255;
764.7000;0.6838;0.7355;
765.0000;0.6895;0.7507;
765.3000;0.6772;0.7280;
765.6000;0.6854;0.7507;
765.9000;0.6903;0.7582;
766.2000;0.6870;0.7582;
766.5000;0.6813;0.7456;
766.8000;0.6838;0.7431;
767.1000;0.6846;0.7481;
767.4000;0.6870;0.7582;
767.7000;0.6862;0.7607;
768.0000;0.6846;0.7532;
768.3000;0.6870;0.7582;
768.6000;0.6862;0.7557;
768.9000;0.6829;0.7557;
769.2000;0.6821;0.7507;
769.5000;0.6829;0.7481;
769.8000;0.6838;0.7507;
770.1000;0.6838;0.7456;
770.4000;0.6838;0.7507;
770.7000;0.6829;0.7381;
771.0000;0.6838;0.7355;
771.3000;0.6821;0.7305;
771.6000;0.6846;0.7406;
771.9000;0.6813;0.7330;
772.2000;0.6846;0.7431;
772.5000;0.6813;0.7381;
772.8000;0.6813;0.7406;
773.1000;0.6797;0.7355;
773.4000;0.6821;0.7481;
773.7000;0.6805;0.7456;
774.0000;0.6846;0.7481;
774.3000;0.6805;0.7431;
774.6000;0.6878;0.7507;
774.9000;0.6829;0.7431;
775.2000;0.6813;0.7431;
775.5000;0.6821;0.7456;
775.8000;0.6821;0.7406;
776.1000;0.6821;0.7406;
776.4000;0.6829;0.7431;
776.7000;0.6829;0.7431;
777.0000;0.6805;0.7406;
777.3000;0.6821;0.7507;
777.6000;0.6821;0.7481;
777.9000;0.6813;0.7381;
778.2000;0.6805;0.7305;
778.5000;0.6846;0.7406;
778.8000;0.6797;0.7381;
779.1000;0.6813;0.7481;
779.4000;0.6797;0.7406;
779.7000;0.6789;0.7330;
780.0000;0.6781;0.7406;
780.3000;0.6805;0.7406;
780.6000;0.6813;0.7381;
780.9000;0.6797;0.7355;
781.2000;0.6797;0.7381;
781.5000;0.6805;0.7381;
781.8000;0.6797;0.7305;
782.1000;0.6797;0.7406;
782.4000;0.6789;0.7481;
782.7000;0.6813;0.7532;
783.0000;0.6781;0.7381;
783.3000;0.6789;0.7406;
783.6000;0.6797;0.7507;
783.9000;0.6781;0.7481;
784.2000;0.6789;0.7532;
784.5000;0.6772;0.7456;
784.8000;0.6789;0.7406;
785.1000;0.6772;0.7355;
785.4000;0.6789;0.7355;
785.7000;0.6789;0.7330;
786.0000;0.6789;0.7381;
786.3000;0.6789;0.7431;
786.6000;0.6813;0.7557;
786.9000;0.6781;0.7355;
787.2000;0.6781;0.7305;
787.5000;0.6772;0.7280;
787.8000;0.6772;0.7280;
788.1000;0.6797;0.7330;
788.4000;0.6797;0.7280;
788.7000;0.6789;0.7330;
789.0000;0.6797;0.7431;
789.3000;0.6789;0.7481;
789.6000;0.6772;0.7406;
789.9000;0.6821;0.7406;
790.2000;0.6797;0.7255;
790.5000;0.6732;0.7129;
790.8000;0.6789;0.7305;
791.1000;0.6772;0.7330;
791.4000;0.6772;0.7406;
791.7000;0.6789;0.7381;
792.0000;0.6781;0.7330;
792.3000;0.6756;0.7230;
792.6000;0.6764;0.7230;
792.9000;0.6781;0.7355;
793.2000;0.6781;0.7406;
793.5000;0.6789;0.7456;
793.8000;0.6789;0.7456;
794.1000;0.6764;0.7330;
794.4000;0.6691;0.7154;
794.7000;0.6756;0.7355;
795.0000;0.6748;0.7280;
795.3000;0.6781;0.7230;
795.6000;0.6675;0.7003;
795.9000;0.6748;0.7230;
796.2000;0.6756;0.7280;
796.5000;0.6764;0.7330;
796.8000;0.6772;0.7381;
797.1000;0.6772;0.7305;
797.4000;0.6756;0.7330;
797.7000;0.6781;0.7381;
798.0000;0.6740;0.7280;
798.3000;0.6732;0.7104;
798.6000;0.6756;0.7204;
798.9000;0.6764;0.7154;
799.2000;0.6756;0.7179;
799.5000;0.6764;0.7204;
799.8000;0.6748;0.7078;
800.1000;0.6756;0.7154;
800.4000;0.6764;0.7230;
800.7000;0.6772;0.7255;
801.0000;0.6748;0.7255;
801.3000;0.6748;0.7255;
801.6000;0.6748;0.7305;
801.9000;0.6772;0.7355;
802.2000;0.6764;0.7355;
802.5000;0.6772;0.7381;
802.8000;0.6772;0.7280;
803.1000;0.6764;0.7230;
803.4000;0.6756;0.7230;
803.7000;0.6772;0.7230;
804.0000;0.6748;0.7179;
804.3000;0.6732;0.7230;
804.6000;0.6748;0.7230;
804.9000;0.6724;0.7129;
805.2000;0.6732;0.7179;
805.5000;0.6740;0.7154;
805.8000;0.6748;0.7179;
806.1000;0.6748;0.7179;
806.4000;0.6732;0.7154;
806.7000;0.6756;0.7305;
807.0000;0.6748;0.7330;
807.3000;0.6748;0.7355;
807.6000;0.6716;0.7280;
807.9000;0.6691;0.7204;
808.2000;0.6740;0.7431;
808.5000;0.6764;0.7431;
808.8000;0.6732;0.7456;
809.1000;0.6732;0.7481;
809.4000;0.6732;0.7607;
809.7000;0.6740;0.7481;
810.0000;0.6707;0.7330;
810.3000;0.6740;0.7481;
810.6000;0.6732;0.7481;
810.9000;0.6740;0.7481;
811.2000;0.6740;0.7456;
811.5000;0.6797;0.7607;
811.8000;0.6732;0.7481;
812.1000;0.6748;0.7507;
812.4000;0.6781;0.7481;
812.7000;0.6740;0.7305;
813.0000;0.6740;0.7305;
813.3000;0.6732;0.7305;
813.6000;0.6748;0.7305;
813.9000;0.6732;0.7381;
814.2000;0.6724;0.7381;
814.5000;0.6732;0.7330;
814.8000;0.6740;0.7305;
815.1000;0.6716;0.7179;
815.4000;0.6716;0.7104;
815.7000;0.6732;0.7255;
816.0000;0.6732;0.7255;
816.3000;0.6724;0.7280;
816.6000;0.6707;0.7330;
816.9000;0.6724;0.7330;
817.2000;0.6732;0.7431;
817.5000;0.6707;0.7305;
817.8000;0.6716;0.7305;
818.1000;0.6732;0.7330;
818.4000;0.6716;0.7330;
818.7000;0.6716;0.7456;
819.0000;0.6716;0.7481;
819.3000;0.6699;0.7355;
819.6000;0.6707;0.7355;
819.9000;0.6724;0.7456;
820.2000;0.6724;0.7406;
820.5000;0.6691;0.7280;
820.8000;0.6707;0.7355;
821.1000;0.6642;0.7104;
821.4000;0.6732;0.7280;
821.7000;0.6707;0.7230;
822.0000;0.6716;0.7330;
822.3000;0.6691;0.7305;
822.6000;0.6732;0.7381;
822.9000;0.6716;0.7330;
823.2000;0.6699;0.7330;
823.5000;0.6724;0.7305;
823.8000;0.6732;0.7330;
824.1000;0.6724;0.7355;
824.4000;0.6707;0.7255;
824.7000;0.6716;0.7280;
825.0000;0.6707;0.7305;
825.3000;0.6732;0.7305;
825.6000;0.6707;0.7305;
825.9000;0.6740;0.7355;
826.2000;0.6732;0.7330;
826.5000;0.6724;0.7355;
826.8000;0.6683;0.7280;
827.1000;0.6716;0.7305;
827.4000;0.6724;0.7355;
827.7000;0.6724;0.7406;
828.0000;0.6683;0.7255;
828.3000;0.6683;0.7255;
828.6000;0.6699;0.7230;
828.9000;0.6707;0.7204;
829.2000;0.6699;0.7154;
829.5000;0.6707;0.7104;
829.8000;0.6699;0.7129;
830.1000;0.6716;0.7204;
830.4000;0.6707;0.7154;
830.7000;0.6675;0.7078;
831.0000;0.6781;0.7305;
831.3000;0.6740;0.7179;
831.6000;0.6772;0.7355;
831.9000;0.6683;0.7104;
832.2000;0.6716;0.7154;
832.5000;0.6716;0.7230;
832.8000;0.6716;0.7355;
833.1000;0.6691;0.7355;
833.4000;0.6691;0.7230;
833.7000;0.6716;0.7280;
834.0000;0.6699;0.7305;
834.3000;0.6699;0.7255;
834.6000;0.6683;0.7280;
834.9000;0.6699;0.7255;
835.2000;0.6691;0.7255;
835.5000;0.6699;0.7280;
835.8000;0.6691;0.7255;
836.1000;0.6707;0.7255;
836.4000;0.6707;0.7230;
836.7000;0.6691;0.7154;
837.0000;0.6675;0.7154;
837.3000;0.6691;0.7104;
837.6000;0.6707;0.7078;
837.9000;0.6699;0.7053;
838.2000;0.6675;0.7028;
838.5000;0.6683;0.7104;
838.8000;0.6691;0.7204;
839.1000;0.6683;0.7179;
839.4000;0.6675;0.7154;
839.7000;0.6675;0.7053;
840.0000;0.6667;0.7078;
840.3000;0.6675;0.7179;
840.6000;0.6724;0.7280;
840.9000;0.6675;0.7154;
841.2000;0.6626;0.6952;
841.5000;0.6675;0.7104;
841.8000;0.6675;0.7028;
842.1000;0.6667;0.7003;
842.4000;0.6707;0.7053;
842.7000;0.6683;0.6978;
843.0000;0.6675;0.6978;
843.3000;0.6683;0.6952;
843.6000;0.6675;0.6978;
843.9000;0.6699;0.7179;
844.2000;0.6675;0.7078;
844.5000;0.6683;0.7078;
844.8000;0.6683;0.7078;
845.1000;0.6691;0.7078;
845.4000;0.6691;0.7078;
845.7000;0.6683;0.7028;
846.0000;0.6667;0.7028;
846.3000;0.6707;0.7104;
846.6000;0.6667;0.7104;
846.9000;0.6618;0.6877;
847.2000;0.6675;0.7154;
847.5000;0.6683;0.7154;
847.8000;0.6683;0.7104;
848.1000;0.6683;0.7104;
848.4000;0.6675;0.7104;
848.7000;0.6667;0.7179;
849.0000;0.6675;0.7154;
849.3000;0.6675;0.7154;
849.6000;0.6683;0.7204;
849.9000;0.6667;0.7179;
850.2000;0.6667;0.7280;
850.5000;0.6650;0.7129;
850.8000;0.6659;0.7204;
851.1000;0.6691;0.7355;
851.4000;0.6642;0.7204;
851.7000;0.6675;0.7305;
852.0000;0.6699;0.7355;
852.3000;0.6667;0.7255;
852.6000;0.6667;0.7179;
852.9000;0.6707;0.7330;
853.2000;0.6675;0.7179;
853.5000;0.6667;0.7154;
853.8000;0.6675;0.7053;
854.1000;0.6610;0.6927;
854.4000;0.6683;0.7154;
854.7000;0.6642;0.7053;
855.0000;0.6650;0.7230;
855.3000;0.6683;0.7280;
855.6000;0.6659;0.7280;
855.9000;0.6675;0.7355;
856.2000;0.6650;0.7305;
856.5000;0.6675;0.7381;
856.8000;0.6659;0.7330;
857.1000;0.6659;0.7280;
857.4000;0.6650;0.7204;
857.7000;0.6650;0.7230;
858.0000;0.6659;0.7280;
858.3000;0.6650;0.7204;
858.6000;0.6593;0.7129;
858.9000;0.6650;0.7280;
859.2000;0.6675;0.7305;
859.5000;0.6659;0.7255;
859.8000;0.6659;0.7204;
860.1000;0.6650;0.7104;
860.4000;0.6650;0.7104;
860.7000;0.6659;0.7179;
861.0000;0.6667;0.7230;
861.3000;0.6683;0.7305;
861.6000;0.6675;0.7381;
861.9000;0.6667;0.7355;
862.2000;0.6659;0.7280;
862.5000;0.6667;0.7255;
862.8000;0.6659;0.7230;
863.1000;0.6659;0.7104;
863.4000;0.6667;0.7028;
863.7000;0.6659;0.7003;
864.0000;0.6659;0.7003;
864.3000;0.6707;0.7179;
864.6000;0.6634;0.6978;
864.9000;0.6634;0.7003;
865.2000;0.6650;0.6978;
865.5000;0.6650;0.7053;
865.8000;0.6667;0.6978;
866.1000;0.6650;0.7028;
866.4000;0.6675;0.7078;
866.7000;0.6650;0.6952;
867.0000;0.6667;0.6978;
867.3000;0.6659;0.6902;
867.6000;0.6650;0.6826;
867.9000;0.6650;0.6852;
868.2000;0.6659;0.6801;
868.5000;0.6659;0.6751;
868.8000;0.6642;0.6776;
869.1000;0.6659;0.6852;
869.4000;0.6667;0.6776;
869.7000;0.6642;0.6826;
870.0000;0.6634;0.6852;
870.3000;0.6659;0.6927;
870.6000;0.6650;0.6877;
870.9000;0.6675;0.7003;
871.2000;0.6650;0.6852;
871.5000;0.6659;0.6826;
871.8000;0.6642;0.6877;
872.1000;0.6659;0.6852;
872.4000;0.6642;0.6852;
872.7000;0.6650;0.6927;
873.0000;0.6610;0.6801;
873.3000;0.6634;0.6852;
873.6000;0.6667;0.6877;
873.9000;0.6634;0.6952;
874.2000;0.6683;0.7078;
874.5000;0.6642;0.7078;
874.8000;0.6650;0.7129;
875.1000;0.6618;0.7028;
875.4000;0.6642;0.7129;
875.7000;0.6626;0.7078;
876.0000;0.6642;0.7230;
876.3000;0.6618;0.7179;
876.6000;0.6626;0.7255;
876.9000;0.6683;0.7330;
877.2000;0.6642;0.7179;
877.5000;0.6650;0.7179;
877.8000;0.6618;0.7104;
878.1000;0.6634;0.7053;
878.4000;0.6659;0.7129;
878.7000;0.6642;0.7179;
879.0000;0.6610;0.7129;
879.3000;0.6642;0.7280;
879.6000;0.6626;0.7255;
879.9000;0.6593;0.7129;
880.2000;0.6642;0.7255;
880.5000;0.6642;0.7280;
880.8000;0.6707;0.7456;
881.1000;0.6626;0.7330;
881.4000;0.6642;0.7330;
881.7000;0.6626;0.7330;
882.0000;0.6626;0.7355;
882.3000;0.6659;0.7481;
882.6000;0.6650;0.7305;
882.9000;0.6642;0.7305;
883.2000;0.6634;0.7330;
883.5000;0.6642;0.7305;
883.8000;0.6642;0.7204;
884.1000;0.6634;0.7204;
884.4000;0.6634;0.7204;
884.7000;0.6659;0.7280;
885.0000;0.6650;0.7255;
885.3000;0.6634;0.7280;
885.6000;0.6618;0.7330;
885.9000;0.6659;0.7355;
886.2000;0.6642;0.7305;
886.5000;0.6634;0.7305;
886.8000;0.6642;0.7330;
887.1000;0.6650;0.7381;
887.4000;0.6634;0.7255;
887.7000;0.6626;0.7179;
888.0000;0.6634;0.7204;
888.3000;0.6642;0.7280;
888.6000;0.6634;0.7230;
888.9000;0.6626;0.7204;
889.2000;0.6634;0.7280;
889.5000;0.6634;0.7280;
889.8000;0.6593;0.7204;
890.1000;0.6610;0.7230;
890.4000;0.6618;0.7230;
890.7000;0.6618;0.7255;
891.0000;0.6618;0.7255;
891.3000;0.6618;0.7204;
891.6000;0.6626;0.7255;
891.9000;0.6618;0.7078;
892.2000;0.6626;0.7078;
892.5000;0.6618;0.7028;
892.8000;0.6659;0.7104;
893.1000;0.6618;0.7129;
893.4000;0.6610;0.7179;
893.7000;0.6650;0.7179;
894.0000;0.6634;0.7179;
894.3000;0.6626;0.7154;
894.6000;0.6618;0.7129;
894.9000;0.6610;0.7129;
895.2000;0.6602;0.7028;
895.5000;0.6602;0.7129;
895.8000;0.6602;0.7204;
896.1000;0.6618;0.7255;
896.4000;0.6610;0.7204;
896.7000;0.6618;0.7230;
897.0000;0.6610;0.7179;
897.3000;0.6642;0.7230;
897.6000;0.6626;0.7154;
897.9000;0.6618;0.7154;
898.2000;0.6642;0.7255;
898.5000;0.6593;0.7104;
898.8000;0.6626;0.7179;
899.1000;0.6618;0.7204;
899.4000;0.6602;0.7154;
899.7000;0.6634;0.7230;
900.0000;0.6642;0.7305;
900.3000;0.6593;0.7230;
900.6000;0.6610;0.7204;
900.9000;0.6610;0.7154;
901.2000;0.6585;0.7078;
901.5000;0.6602;0.7129;
901.8000;0.6610;0.7204;
902.1000;0.6602;0.7280;
902.4000;0.6610;0.7280;
902.7000;0.6610;0.7255;
903.0000;0.6634;0.7280;
903.3000;0.6585;0.7104;
903.6000;0.6577;0.7078;
903.9000;0.6610;0.7129;
904.2000;0.6618;0.7028;
904.5000;0.6618;0.7129;
904.8000;0.6626;0.7154;
905.1000;0.6618;0.7230;
905.4000;0.6610;0.7255;
905.7000;0.6626;0.7255;
906.0000;0.6593;0.7204;
906.3000;0.6577;0.7179;
906.6000;0.6585;0.7255;
906.9000;0.6618;0.7305;
907.2000;0.6585;0.7255;
907.5000;0.6593;0.7305;
907.8000;0.6610;0.7280;
908.1000;0.6602;0.7230;
908.4000;0.6610;0.7204;
908.7000;0.6602;0.7179;
909.0000;0.6610;0.7230;
909.3000;0.6610;0.7255;
909.6000;0.6569;0.7129;
909.9000;0.6602;0.7179;
910.2000;0.6618;0.7230;
910.5000;0.6593;0.7305;
910.8000;0.6610;0.7330;
911.1000;0.6593;0.7255;
911.4000;0.6602;0.7280;
911.7000;0.6602;0.7330;
912.0000;0.6593;0.7280;
912.3000;0.6602;0.7230;
912.6000;0.6626;0.7280;
912.9000;0.6610;0.7204;
913.2000;0.6585;0.7104;
913.5000;0.6667;0.7305;
913.8000;0.6602;0.7129;
914.1000;0.6610;0.7204;
914.4000;0.6626;0.7280;
914.7000;0.6577;0.7179;
915.0000;0.6602;0.7305;
915.3000;0.6602;0.7305;
915.6000;0.6626;0.7255;
915.9000;0.6593;0.7255;
916.2000;0.6593;0.7230;
916.5000;0.6593;0.7255;
916.8000;0.6602;0.7230;
917.1000;0.6593;0.7129;
917.4000;0.6602;0.7154;
917.7000;0.6634;0.7255;
918.0000;0.6610;0.7280;
918.3000;0.6602;0.7280;
918.6000;0.6593;0.7305;
918.9000;0.6610;0.7355;
919.2000;0.6610;0.7330;
919.5000;0.6593;0.7204;
919.8000;0.6618;0.7179;
920.1000;0.6618;0.7179;
920.4000;0.6610;0.7280;
920.7000;0.6561;0.7179;
921.0000;0.6610;0.7280;
921.3000;0.6561;0.7204;
921.6000;0.6602;0.7154;
921.9000;0.6610;0.7129;
922.2000;0.6593;0.7129;
922.5000;0.6585;0.7104;
922.8000;0.6626;0.7204;
923.1000;0.6602;0.7179;
923.4000;0.6634;0.7305;
923.7000;0.6593;0.7179;
924.0000;0.6593;0.7230;
924.3000;0.6536;0.7104;
924.6000;0.6618;0.7305;
924.9000;0.6593;0.7255;
925.2000;0.6569;0.7330;
925.5000;0.6585;0.7355;
925.8000;0.6618;0.7431;
926.1000;0.6585;0.7305;
926.4000;0.6593;0.7305;
926.7000;0.6585;0.7381;
927.0000;0.6585;0.7330;
927.3000;0.6577;0.7280;
927.6000;0.6593;0.7330;
927.9000;0.6545;0.7179;
928.2000;0.6593;0.7330;
928.5000;0.6561;0.7179;
928.8000;0.6650;0.7381;
929.1000;0.6585;0.7255;
929.4000;0.6602;0.7204;
929.7000;0.6602;0.7078;
930.0000;0.6593;0.7053;
930.3000;0.6593;0.7053;
930.6000;0.6602;0.7078;
930.9000;0.6618;0.7204;
931.2000;0.6593;0.7179;
931.5000;0.6602;0.7129;
931.8000;0.6602;0.7154;
932.1000;0.6593;0.7179;
932.4000;0.6577;0.7154;
932.7000;0.6593;0.7078;
933.0000;0.6602;0.7078;
933.3000;0.6585;0.7003;
933.6000;0.6593;0.7104;
933.9000;0.6585;0.7129;
934.2000;0.6610;0.7204;
934.5000;0.6585;0.7230;
934.8000;0.6593;0.7179;
935.1000;0.6585;0.7078;
935.4000;0.6593;0.7129;
935.7000;0.6593;0.7104;
936.0000;0.6553;0.7028;
936.3000;0.6585;0.7179;
936.6000;0.6593;0.7154;
936.9000;0.6585;0.7129;
937.2000;0.6536;0.7129;
937.5000;0.6585;0.7255;
937.8000;0.6585;0.7154;
938.1000;0.6585;0.7078;
938.4000;0.6585;0.7129;
938.7000;0.6569;0.7204;
939.0000;0.6585;0.7204;
939.3000;0.6585;0.7255;
939.6000;0.6528;0.7078;
939.9000;0.6585;0.7255;
940.2000;0.6577;0.7179;
940.5000;0.6602;0.7230;
940.8000;0.6585;0.7104;
941.1000;0.6618;0.7230;
941.4000;0.6602;0.7305;
941.7000;0.6618;0.7431;
942.0000;0.6593;0.7330;
942.3000;0.6593;0.7305;
942.6000;0.6577;0.7255;
942.9000;0.6577;0.7230;
943.2000;0.6602;0.7230;
943.5000;0.6585;0.7230;
943.8000;0.6569;0.7129;
944.1000;0.6593;0.7154;
944.4000;0.6569;0.7179;
944.7000;0.6593;0.7204;
945.0000;0.6561;0.7104;
945.3000;0.6569;0.7230;
945.6000;0.6577;0.7280;
945.9000;0.6585;0.7305;
946.2000;0.6585;0.7280;
946.5000;0.6561;0.7204;
946.8000;0.6569;0.7204;
947.1000;0.6569;0.7355;
947.4000;0.6577;0.7431;
947.7000;0.6545;0.7255;
948.0000;0.6569;0.7305;
948.3000;0.6593;0.7431;
948.6000;0.6569;0.7355;
948.9000;0.6569;0.7355;
949.2000;0.6585;0.7355;
949.5000;0.6602;0.7381;
949.8000;0.6602;0.7381;
950.1000;0.6585;0.7305;
950.4000;0.6577;0.7406;
950.7000;0.6577;0.7381;
951.0000;0.6593;0.7406;
951.3000;0.6585;0.7431;
951.6000;0.6561;0.7355;
951.9000;0.6585;0.7431;
952.2000;0.6585;0.7431;
952.5000;0.6593;0.7507;
952.8000;0.6536;0.7381;
953.1000;0.6577;0.7406;
953.4000;0.6585;0.7381;
953.7000;0.6593;0.7456;
954.0000;0.6577;0.7330;
954.3000;0.6585;0.7381;
954.6000;0.6593;0.7330;
954.9000;0.6577;0.7330;
955.2000;0.6577;0.7406;
955.5000;0.6569;0.7381;
955.8000;0.6577;0.7406;
956.1000;0.6569;0.7355;
956.4000;0.6545;0.7230;
956.7000;0.6561;0.7230;
957.0000;0.6569;0.7255;
957.3000;0.6577;0.7230;
957.6000;0.6577;0.7305;
957.9000;0.6561;0.7204;
958.2000;0.6569;0.7179;
958.5000;0.6577;0.7305;
958.8000;0.6569;0.7305;
959.1000;0.6553;0.7255;
959.4000;0.6536;0.7230;
959.7000;0.6561;0.7280;
960.0000;0.6577;0.7305;
960.3000;0.6561;0.7280;
960.6000;0.6585;0.7355;
960.9000;0.6561;0.7255;
961.2000;0.6577;0.7406;
961.5000;0.6545;0.7355;
961.8000;0.6585;0.7406;
962.1000;0.6610;0.7507;
962.4000;0.6553;0.7431;
962.7000;0.6553;0.7507;
963.0000;0.6561;0.7406;
963.3000;0.6536;0.7355;
963.6000;0.6569;0.7305;
963.9000;0.6553;0.7230;
964.2000;0.6569;0.7255;
964.5000;0.6569;0.7179;
964.8000;0.6561;0.7280;
965.1000;0.6569;0.7255;
965.4000;0.6561;0.7255;
965.7000;0.6593;0.7330;
966.0000;0.6545;0.7255;
966.3000;0.6553;0.7255;
966.6000;0.6561;0.7330;
966.9000;0.6561;0.7355;
967.2000;0.6561;0.7431;
967.5000;0.6553;0.7381;
967.8000;0.6561;0.7381;
968.1000;0.6593;0.7532;
968.4000;0.6569;0.7481;
968.7000;0.6545;0.7305;
969.0000;0.6569;0.7330;
969.3000;0.6569;0.7280;
969.6000;0.6561;0.7204;
969.9000;0.6553;0.7154;
970.2000;0.6618;0.7330;
970.5000;0.6577;0.7179;
970.8000;0.6488;0.6852;
971.1000;0.6577;0.7129;
971.4000;0.6569;0.7154;
971.7000;0.6561;0.7179;
972.0000;0.6577;0.7204;
972.3000;0.6569;0.7255;
972.6000;0.6561;0.7179;
972.9000;0.6585;0.7280;
973.2000;0.6585;0.7305;
973.5000;0.6528;0.7179;
973.8000;0.6561;0.7255;
974.1000;0.6569;0.7255;
974.4000;0.6553;0.7280;
974.7000;0.6585;0.7381;
975.0000;0.6545;0.7280;
975.3000;0.6545;0.7154;
975.6000;0.6553;0.7179;
975.9000;0.6561;0.7255;
976.2000;0.6553;0.7330;
976.5000;0.6585;0.7305;
976.8000;0.6569;0.7255;
977.1000;0.6569;0.7230;
977.4000;0.6561;0.7255;
977.7000;0.6569;0.7204;
978.0000;0.6569;0.7154;
978.3000;0.6561;0.7053;
978.6000;0.6553;0.7028;
978.9000;0.6561;0.7078;
979.2000;0.6577;0.7129;
979.5000;0.6569;0.7154;
979.8000;0.6569;0.7255;
980.1000;0.6553;0.7280;
980.4000;0.6553;0.7355;
980.7000;0.6585;0.7381;
981.0000;0.6553;0.7305;
981.3000;0.6561;0.7280;
981.6000;0.6561;0.7255;
981.9000;0.6569;0.7230;
982.2000;0.6569;0.7381;
982.5000;0.6569;0.7330;
982.8000;0.6545;0.7179;
983.1000;0.6561;0.7255;
983.4000;0.6577;0.7255;
983.7000;0.6553;0.7255;
984.0000;0.6561;0.7305;
984.3000;0.6536;0.7179;
984.6000;0.6553;0.7280;
984.9000;0.6553;0.7204;
985.2000;0.6569;0.7104;
985.5000;0.6561;0.7129;
985.8000;0.6561;0.7204;
986.1000;0.6553;0.7179;
986.4000;0.6561;0.7255;
986.7000;0.6569;0.7305;
987.0000;0.6569;0.7305;
987.3000;0.6561;0.7255;
987.6000;0.6561;0.7330;
987.9000;0.6553;0.7381;
988.2000;0.6561;0.7355;
988.5000;0.6553;0.7255;
988.8000;0.6536;0.7255;
989.1000;0.6561;0.7330;
989.4000;0.6553;0.7280;
989.7000;0.6561;0.7154;
990.0000;0.6553;0.7154;
990.3000;0.6536;0.7230;
990.6000;0.6569;0.7355;
990.9000;0.6545;0.7330;
991.2000;0.6553;0.7381;
991.5000;0.6545;0.7456;
991.8000;0.6545;0.7431;
992.1000;0.6569;0.7431;
992.4000;0.6545;0.7507;
992.7000;0.6528;0.7507;
993.0000;0.6545;0.7607;
993.3000;0.6536;0.7607;
993.6000;0.6536;0.7532;
993.9000;0.6561;0.7557;
994.2000;0.6536;0.7582;
994.5000;0.6561;0.7683;
994.8000;0.6553;0.7708;
995.1000;0.6561;0.7733;
995.4000;0.6545;0.7582;
995.7000;0.6536;0.7557;
996.0000;0.6553;0.7582;
996.3000;0.6536;0.7532;
996.6000;0.6561;0.7582;
996.9000;0.6528;0.7557;
997.2000;0.6553;0.7582;
997.5000;0.6536;0.7456;
997.8000;0.6528;0.7381;
998.1000;0.6545;0.7431;
998.4000;0.6569;0.7557;
998.7000;0.6536;0.7557;
999.0000;0.6528;0.7633;
999.3000;0.6520;0.7582;
999.6000;0.6545;0.7633;
999.9000;0.6553;0.7633;
1000.2000;0.6512;0.7532;
1000.5000;0.6528;0.7557;
1000.8000;0.6553;0.7557;
1001.1000;0.6528;0.7481;
1001.4000;0.6553;0.7456;
1001.7000;0.6536;0.7431;
1002.0000;0.6553;0.7431;
1002.3000;0.6512;0.7431;
1002.6000;0.6536;0.7557;
1002.9000;0.6545;0.7582;
1003.2000;0.6553;0.7658;
1003.5000;0.6569;0.7658;
1003.8000;0.6536;0.7582;
1004.1000;0.6528;0.7557;
1004.4000;0.6553;0.7633;
1004.7000;0.6520;0.7582;
1005.0000;0.6545;0.7633;
1005.3000;0.6528;0.7633;
1005.6000;0.6528;0.7607;
1005.9000;0.6528;0.7582;
1006.2000;0.6553;0.7481;
1006.5000;0.6536;0.7381;
1006.8000;0.6545;0.7330;
1007.1000;0.6545;0.7431;
1007.4000;0.6561;0.7532;
1007.7000;0.6528;0.7557;
1008.0000;0.6545;0.7582;
1008.3000;0.6447;0.7330;
1008.6000;0.6545;0.7481;
1008.9000;0.6553;0.7507;
1009.2000;0.6536;0.7481;
1009.5000;0.6536;0.7507;
1009.8000;0.6561;0.7557;
1010.1000;0.6545;0.7557;
1010.4000;0.6536;0.7507;
1010.7000;0.6536;0.7532;
1011.0000;0.6553;0.7582;
1011.3000;0.6528;0.7481;
1011.6000;0.6545;0.7507;
1011.9000;0.6512;0.7381;
1012.2000;0.6553;0.7431;
1012.5000;0.6561;0.7481;
1012.8000;0.6528;0.7456;
1013.1000;0.6545;0.7481;
1013.4000;0.6545;0.7456;
1013.7000;0.6536;0.7381;
1014.0000;0.6553;0.7406;
1014.3000;0.6528;0.7431;
1014.6000;0.6536;0.7406;
1014.9000;0.6528;0.7381;
1015.2000;0.6536;0.7381;
1015.5000;0.6504;0.7330;
1015.8000;0.6536;0.7406;
1016.1000;0.6528;0.7381;
1016.4000;0.6528;0.7355;
1016.7000;0.6520;0.7255;
1017.0000;0.6545;0.7280;
1017.3000;0.6553;0.7355;
1017.6000;0.6528;0.7330;
1017.9000;0.6520;0.7431;
1018.2000;0.6545;0.7557;
1018.5000;0.6536;0.7532;
1018.8000;0.6585;0.7582;
1019.1000;0.6536;0.7431;
1019.4000;0.6528;0.7381;
1019.7000;0.6536;0.7406;
1020.0000;0.6577;0.7355;
1020.3000;0.6545;0.7230;
1020.6000;0.6545;0.7255;
1020.9000;0.6545;0.7230;
1021.2000;0.6545;0.7330;
1021.5000;0.6504;0.7179;
1021.8000;0.6520;0.7280;
1022.1000;0.6528;0.7330;
1022.4000;0.6553;0.7355;
1022.7000;0.6545;0.7355;
1023.0000;0.6536;0.7330;
1023.3000;0.6545;0.7330;
1023.6000;0.6536;0.7255;
1023.9000;0.6528;0.7230;
1024.2000;0.6520;0.7255;
1024.5000;0.6536;0.7280;
1024.8000;0.6528;0.7305;
1025.1000;0.6536;0.7330;
1025.4000;0.6528;0.7305;
1025.7000;0.6520;0.7255;
1026.0000;0.6528;0.7330;
1026.3000;0.6536;0.7381;
1026.6000;0.6536;0.7481;
1026.9000;0.6545;0.7456;
1027.2000;0.6504;0.7406;
1027.5000;0.6536;0.7607;
1027.8000;0.6536;0.7658;
1028.1000;0.6520;0.7658;
1028.4000;0.6520;0.7607;
1028.7000;0.6504;0.7633;
1029.0000;0.6520;0.7658;
1029.3000;0.6471;0.7406;
1029.6000;0.6536;0.7532;
1029.9000;0.6536;0.7557;
1030.2000;0.6520;0.7481;
1030.5000;0.6520;0.7456;
1030.8000;0.6536;0.7557;
1031.1000;0.6528;0.7481;
1031.4000;0.6528;0.7456;
1031.7000;0.6553;0.7456;
1032.0000;0.6528;0.7280;
1032.3000;0.6528;0.7330;
1032.6000;0.6553;0.7431;
1032.9000;0.6545;0.7305;
1033.2000;0.6536;0.7305;
1033.5000;0.6545;0.7255;
1033.8000;0.6536;0.7255;
1034.1000;0.6553;0.7230;
1034.4000;0.6528;0.7078;
1034.7000;0.6553;0.7104;
1035.0000;0.6520;0.7129;
1035.3000;0.6528;0.7179;
1035.6000;0.6520;0.7255;
1035.9000;0.6520;0.7204;
1036.2000;0.6520;0.7280;
1036.5000;0.6520;0.7305;
1036.8000;0.6520;0.7305;
1037.1000;0.6520;0.7305;
1037.4000;0.6512;0.7255;
1037.7000;0.6528;0.7255;
1038.0000;0.6528;0.7204;
1038.3000;0.6528;0.7179;
1038.6000;0.6512;0.7154;
1038.9000;0.6496;0.7154;
1039.2000;0.6561;0.7507;
1039.5000;0.6520;0.7431;
1039.8000;0.6512;0.7507;
1040.1000;0.6528;0.7507;
1040.4000;0.6528;0.7431;
1040.7000;0.6528;0.7381;
1041.0000;0.6520;0.7381;
1041.3000;0.6496;0.7330;
1041.6000;0.6520;0.7481;
1041.9000;0.6520;0.7507;
1042.2000;0.6520;0.7481;
1042.5000;0.6520;0.7481;
1042.8000;0.6520;0.7481;
1043.1000;0.6528;0.7406;
1043.4000;0.6536;0.7280;
1043.7000;0.6585;0.7381;
1044.0000;0.6528;0.7179;
1044.3000;0.6536;0.7230;
1044.6000;0.6528;0.7255;
1044.9000;0.6536;0.7305;
1045.2000;0.6520;0.7204;
1045.5000;0.6528;0.7204;
1045.8000;0.6528;0.7305;
1046.1000;0.6536;0.7381;
1046.4000;0.6512;0.7431;
1046.7000;0.6520;0.7381;
1047.0000;0.6528;0.7330;
1047.3000;0.6504;0.7230;
1047.6000;0.6520;0.7230;
1047.9000;0.6504;0.7230;
1048.2000;0.6512;0.7255;
1048.5000;0.6520;0.7305;
1048.8000;0.6545;0.7431;
1049.1000;0.6520;0.7330;
1049.4000;0.6520;0.7381;
1049.7000;0.6504;0.7406;
1050.0000;0.6512;0.7406;
1050.3000;0.6504;0.7456;
1050.6000;0.6545;0.7557;
1050.9000;0.6504;0.7456;
1051.2000;0.6496;0.7355;
1051.5000;0.6512;0.7431;
1051.8000;0.6528;0.7481;
1052.1000;0.6496;0.7431;
1052.4000;0.6496;0.7456;
1052.7000;0.6520;0.7431;
1053.0000;0.6512;0.7330;
1053.3000;0.6585;0.7481;
1053.6000;0.6512;0.7280;
1053.9000;0.6520;0.7280;
1054.2000;0.6528;0.7280;
1054.5000;0.6528;0.7280;
1054.8000;0.6512;0.7330;
1055.1000;0.6512;0.7280;
1055.4000;0.6512;0.7255;
1055.7000;0.6545;0.7330;
1056.0000;0.6520;0.7255;
1056.3000;0.6536;0.7280;
1056.6000;0.6504;0.7204;
1056.9000;0.6471;0.7104;
1057.2000;0.6512;0.7230;
1057.5000;0.6512;0.7230;
1057.8000;0.6512;0.7355;
1058.1000;0.6520;0.7431;
1058.4000;0.6569;0.7431;
1058.7000;0.6512;0.7330;
1059.0000;0.6528;0.7280;
1059.3000;0.6512;0.7255;
1059.6000;0.6520;0.7255;
1059.9000;0.6569;0.7406;
1060.2000;0.6545;0.7280;
1060.5000;0.6512;0.7280;
1060.8000;0.6496;0.7330;
1061.1000;0.6520;0.7330;
1061.4000;0.6504;0.7381;
1061.7000;0.6504;0.7431;
1062.0000;0.6512;0.7481;
1062.3000;0.6520;0.7481;
1062.6000;0.6618;0.7733;
1062.9000;0.6512;0.7456;
1063.2000;0.6512;0.7507;
1063.5000;0.6512;0.7456;
1063.8000;0.6520;0.7431;
1064.1000;0.6504;0.7431;
1064.4000;0.6479;0.7406;
1064.7000;0.6520;0.7532;
1065.0000;0.6496;0.7481;
1065.3000;0.6504;0.7431;
1065.6000;0.6496;0.7406;
1065.9000;0.6512;0.7456;
1066.2000;0.6504;0.7507;
1066.5000;0.6496;0.7507;
1066.8000;0.6463;0.7456;
1067.1000;0.6520;0.7582;
1067.4000;0.6528;0.7507;
1067.7000;0.6520;0.7456;
1068.0000;0.6520;0.7406;
1068.3000;0.6528;0.7481;
1068.6000;0.6520;0.7456;
1068.9000;0.6512;0.7381;
1069.2000;0.6512;0.7330;
1069.5000;0.6528;0.7330;
1069.8000;0.6528;0.7381;
1070.1000;0.6512;0.7280;
1070.4000;0.6431;0.7053;
1070.7000;0.6471;0.7179;
1071.0000;0.6512;0.7204;
1071.3000;0.6504;0.7204;
1071.6000;0.6512;0.7053;
1071.9000;0.6512;0.7078;
1072.2000;0.6520;0.7078;
1072.5000;0.6512;0.7255;
1072.8000;0.6520;0.7280;
1073.1000;0.6520;0.7230;
1073.4000;0.6520;0.7204;
1073.7000;0.6528;0.7280;
1074.0000;0.6488;0.7305;
1074.3000;0.6496;0.7305;
1074.6000;0.6496;0.7355;
1074.9000;0.6496;0.7431;
1075.2000;0.6528;0.7456;
1075.5000;0.6488;0.7406;
1075.8000;0.6496;0.7406;
1076.1000;0.6504;0.7456;
1076.4000;0.6512;0.7507;
1076.7000;0.6504;0.7557;
1077.0000;0.6512;0.7557;
1077.3000;0.6520;0.7532;
1077.6000;0.6520;0.7456;
1077.9000;0.6520;0.7557;
1078.2000;0.6496;0.7507;
1078.5000;0.6536;0.7633;
1078.8000;0.6520;0.7607;
1079.1000;0.6512;0.7532;
1079.4000;0.6504;0.7633;
1079.7000;0.6528;0.7708;
1080.0000;0.6585;0.7784;
1080.3000;0.6512;0.7532;
1080.6000;0.6455;0.7330;
1080.9000;0.6488;0.7481;
1081.2000;0.6504;0.7532;
1081.5000;0.6496;0.7507;
1081.8000;0.6504;0.7456;
1082.1000;0.6528;0.7481;
1082.4000;0.6496;0.7431;
1082.7000;0.6561;0.7658;
1083.0000;0.6471;0.7406;
1083.3000;0.6512;0.7633;
1083.6000;0.6520;0.7582;
1083.9000;0.6520;0.7507;
1084.2000;0.6520;0.7431;
1084.5000;0.6504;0.7406;
1084.8000;0.6528;0.7456;
1085.1000;0.6512;0.7456;
1085.4000;0.6512;0.7532;
1085.7000;0.6488;0.7507;
1086.0000;0.6488;0.7507;
1086.3000;0.6488;0.7481;
1086.6000;0.6512;0.7557;
1086.9000;0.6520;0.7481;
1087.2000;0.6504;0.7532;
1087.5000;0.6496;0.7532;
1087.8000;0.6512;0.7481;
1088.1000;0.6504;0.7507;
1088.4000;0.6439;0.7305;
1088.7000;0.6512;0.7456;
1089.0000;0.6512;0.7557;
1089.3000;0.6528;0.7607;
1089.6000;0.6488;0.7507;
1089.9000;0.6520;0.7557;
1090.2000;0.6447;0.7330;
1090.5000;0.6504;0.7431;
1090.8000;0.6553;0.7481;
1091.1000;0.6496;0.7507;
1091.4000;0.6504;0.7582;
1091.7000;0.6463;0.7507;
1092.0000;0.6488;0.7507;
1092.3000;0.6488;0.7507;
1092.6000;0.6479;0.7406;
1092.9000;0.6496;0.7280;
1093.2000;0.6504;0.7305;
1093.5000;0.6504;0.7330;
1093.8000;0.6488;0.7330;
1094.1000;0.6504;0.7381;
1094.4000;0.6504;0.7406;
1094.7000;0.6479;0.7431;
1095.0000;0.6488;0.7532;
1095.3000;0.6496;0.7532;
1095.6000;0.6496;0.7532;
1095.9000;0.6512;0.7532;
1096.2000;0.6463;0.7406;
1096.5000;0.6504;0.7456;
1096.8000;0.6504;0.7431;
1097.1000;0.6528;0.7481;
1097.4000;0.6488;0.7406;
1097.7000;0.6488;0.7406;
1098.0000;0.6496;0.7431;
1098.3000;0.6553;0.7607;
1098.6000;0.6504;0.7481;
1098.9000;0.6504;0.7532;
1099.2000;0.6512;0.7557;
1099.5000;0.6488;0.7532;
1099.8000;0.6496;0.7607;
1100.1000;0.6496;0.7607;
1100.4000;0.6512;0.7607;
1100.7000;0.6504;0.7532;
1101.0000;0.6488;0.7481;
1101.3000;0.6561;0.7683;
1101.6000;0.6488;0.7532;
1101.9000;0.6504;0.7507;
1102.2000;0.6488;0.7431;
1102.5000;0.6488;0.7431;
1102.8000;0.6479;0.7456;
1103.1000;0.6496;0.7633;
1103.4000;0.6479;0.7582;
1103.7000;0.6479;0.7532;
1104.0000;0.6496;0.7607;
1104.3000;0.6504;0.7582;
1104.6000;0.6504;0.7557;
1104.9000;0.6520;0.7431;
1105.2000;0.6512;0.7481;
1105.5000;0.6520;0.7532;
1105.8000;0.6512;0.7507;
1106.1000;0.6496;0.7507;
1106.4000;0.6512;0.7607;
1106.7000;0.6479;0.7481;
1107.0000;0.6512;0.7557;
1107.3000;0.6545;0.7557;
1107.6000;0.6504;0.7456;
1107.9000;0.6496;0.7456;
1108.2000;0.6536;0.7481;
1108.5000;0.6496;0.7330;
1108.8000;0.6512;0.7481;
1109.1000;0.6512;0.7507;
1109.4000;0.6496;0.7481;
1109.7000;0.6488;0.7406;
1110.0000;0.6488;0.7381;
1110.3000;0.6471;0.7431;
1110.6000;0.6512;0.7456;
1110.9000;0.6496;0.7406;
1111.2000;0.6455;0.7305;
1111.5000;0.6463;0.7305;
1111.8000;0.6471;0.7280;
1112.1000;0.6488;0.7280;
1112.4000;0.6488;0.7255;
1112.7000;0.6479;0.7280;
1113.0000;0.6471;0.7280;
1113.3000;0.6512;0.7230;
1113.6000;0.6479;0.7204;
1113.9000;0.6520;0.7381;
1114.2000;0.6496;0.7381;
1114.5000;0.6504;0.7355;
1114.8000;0.6488;0.7280;
1115.1000;0.6479;0.7381;
1115.4000;0.6536;0.7607;
1115.7000;0.6504;0.7557;
1116.0000;0.6463;0.7481;
1116.3000;0.6496;0.7532;
1116.6000;0.6577;0.7809;
1116.9000;0.6504;0.7759;
1117.2000;0.6496;0.7809;
1117.5000;0.6488;0.7708;
1117.8000;0.6488;0.7607;
1118.1000;0.6496;0.7607;
1118.4000;0.6479;0.7507;
1118.7000;0.6504;0.7456;
1119.0000;0.6496;0.7456;
1119.3000;0.6479;0.7456;
1119.6000;0.6504;0.7507;
1119.9000;0.6488;0.7532;
1120.2000;0.6488;0.7481;
1120.5000;0.6496;0.7456;
1120.8000;0.6496;0.7431;
1121.1000;0.6504;0.7456;
1121.4000;0.6488;0.7481;
1121.7000;0.6463;0.7406;
1122.0000;0.6479;0.7456;
1122.3000;0.6504;0.7431;
1122.6000;0.6488;0.7381;
1122.9000;0.6496;0.7431;
1123.2000;0.6488;0.7481;
1123.5000;0.6504;0.7607;
1123.8000;0.6496;0.7557;
1124.1000;0.6471;0.7431;
1124.4000;0.6479;0.7557;
1124.7000;0.6463;0.7456;
1125.0000;0.6479;0.7456;
1125.3000;0.6496;0.7355;
1125.6000;0.6471;0.7355;
1125.9000;0.6496;0.7381;
1126.2000;0.6496;0.7406;
1126.5000;0.6488;0.7355;
1126.8000;0.6479;0.7355;
1127.1000;0.6496;0.7431;
1127.4000;0.6471;0.7431;
1127.7000;0.6504;0.7507;
1128.0000;0.6463;0.7381;
1128.3000;0.6479;0.7431;
1128.6000;0.6471;0.7431;
1128.9000;0.6479;0.7481;
1129.2000;0.6496;0.7507;
1129.5000;0.6479;0.7557;
1129.8000;0.6463;0.7532;
1130.1000;0.6471;0.7532;
1130.4000;0.6479;0.7607;
1130.7000;0.6496;0.7658;
1131.0000;0.6406;0.7406;
1131.3000;0.6463;0.7532;
1131.6000;0.6479;0.7557;
1131.9000;0.6545;0.7733;
1132.2000;0.6504;0.7582;
1132.5000;0.6496;0.7507;
1132.8000;0.6471;0.7456;
1133.1000;0.6479;0.7381;
1133.4000;0.6471;0.7330;
1133.7000;0.6504;0.7355;
1134.0000;0.6479;0.7355;
1134.3000;0.6479;0.7381;
1134.6000;0.6488;0.7431;
1134.9000;0.6488;0.7431;
1135.2000;0.6488;0.7406;
1135.5000;0.6479;0.7381;
1135.8000;0.6488;0.7330;
1136.1000;0.6463;0.7280;
1136.4000;0.6561;0.7582;
1136.7000;0.6512;0.7456;
1137.0000;0.6471;0.7305;
1137.3000;0.6455;0.7230;
1137.6000;0.6488;0.7355;
1137.9000;0.6447;0.7204;
1138.2000;0.6488;0.7381;
1138.5000;0.6463;0.7481;
1138.8000;0.6471;0.7456;
1139.1000;0.6479;0.7381;
1139.4000;0.6488;0.7431;
1139.7000;0.6479;0.7507;
1140.0000;0.6479;0.7481;
1140.3000;0.6496;0.7582;
1140.6000;0.6471;0.7481;
1140.9000;0.6488;0.7355;
1141.2000;0.6496;0.7406;
1141.5000;0.6479;0.7456;
1141.8000;0.6496;0.7406;
1142.1000;0.6479;0.7381;
1142.4000;0.6496;0.7406;
1142.7000;0.6471;0.7280;
1143.0000;0.6479;0.7355;
1143.3000;0.6479;0.7330;
1143.6000;0.6471;0.7255;
1143.9000;0.6479;0.7255;
1144.2000;0.6488;0.7230;
1144.5000;0.6463;0.7381;
1144.8000;0.6488;0.7431;
1145.1000;0.6504;0.7431;
1145.4000;0.6455;0.7305;
1145.7000;0.6504;0.7381;
1146.0000;0.6488;0.7305;
1146.3000;0.6488;0.7330;
1146.6000;0.6496;0.7381;
1146.9000;0.6479;0.7305;
1147.2000;0.6488;0.7255;
1147.5000;0.6479;0.7255;
1147.8000;0.6528;0.7355;
1148.1000;0.6479;0.7179;
1148.4000;0.6455;0.7154;
1148.7000;0.6496;0.7280;
1149.0000;0.6496;0.7305;
1149.3000;0.6496;0.7305;
1149.6000;0.6488;0.7230;
1149.9000;0.6488;0.7179;
1150.2000;0.6536;0.7330;
1150.5000;0.6488;0.7255;
1150.8000;0.6471;0.7255;
1151.1000;0.6479;0.7280;
1151.4000;0.6488;0.7330;
1151.7000;0.6455;0.7179;
1152.0000;0.6471;0.7330;
1152.3000;0.6488;0.7507;
1152.6000;0.6496;0.7406;
1152.9000;0.6488;0.7456;
1153.2000;0.6471;0.7381;
1153.5000;0.6471;0.7305;
1153.8000;0.6479;0.7305;
1154.1000;0.6536;0.7431;
1154.4000;0.6479;0.7305;
1154.7000;0.6520;0.7431;
1155.0000;0.6488;0.7355;
1155.3000;0.6471;0.7330;
1155.6000;0.6414;0.7305;
1155.9000;0.6471;0.7330;
1156.2000;0.6471;0.7305;
1156.5000;0.6496;0.7355;
1156.8000;0.6463;0.7330;
1157.1000;0.6463;0.7305;
1157.4000;0.6479;0.7305;
1157.7000;0.6496;0.7255;
1158.0000;0.6488;0.7179;
1158.3000;0.6463;0.7230;
1158.6000;0.6496;0.7305;
1158.9000;0.6471;0.7305;
1159.2000;0.6479;0.7381;
1159.5000;0.6463;0.7355;
1159.8000;0.6479;0.7481;
1160.1000;0.6488;0.7481;
1160.4000;0.6471;0.7507;
1160.7000;0.6471;0.7481;
1161.0000;0.6479;0.7507;
1161.3000;0.6471;0.7456;
1161.6000;0.6488;0.7431;
1161.9000;0.6488;0.7406;
1162.2000;0.6496;0.7507;
1162.5000;0.6479;0.7481;
1162.8000;0.6479;0.7507;
1163.1000;0.6479;0.7406;
1163.4000;0.6479;0.7406;
1163.7000;0.6488;0.7355;
1164.0000;0.6463;0.7280;
1164.3000;0.6479;0.7305;
1164.6000;0.6488;0.7230;
1164.9000;0.6463;0.7154;
1165.2000;0.6471;0.7154;
1165.5000;0.6479;0.7204;
1165.8000;0.6463;0.7230;
1166.1000;0.6479;0.7330;
1166.4000;0.6471;0.7330;
1166.7000;0.6471;0.7355;
1167.0000;0.6471;0.7204;
1167.3000;0.6463;0.7154;
1167.6000;0.6479;0.7179;
1167.9000;0.6471;0.7305;
1168.2000;0.6479;0.7456;
1168.5000;0.6479;0.7456;
1168.8000;0.6479;0.7381;
1169.1000;0.6504;0.7381;
1169.4000;0.6479;0.7280;
1169.7000;0.6471;0.7280;
1170.0000;0.6471;0.7355;
1170.3000;0.6488;0.7381;
1170.6000;0.6439;0.7204;
1170.9000;0.6471;0.7305;
1171.2000;0.6479;0.7255;
1171.5000;0.6479;0.7230;
1171.8000;0.6479;0.7230;
1172.1000;0.6479;0.7255;
1172.4000;0.6471;0.7280;
1172.7000;0.6488;0.7355;
1173.0000;0.6479;0.7431;
1173.3000;0.6471;0.7431;
1173.6000;0.6479;0.7507;
1173.9000;0.6439;0.7456;
1174.2000;0.6471;0.7582;
1174.5000;0.6488;0.7456;
1174.8000;0.6471;0.7406;
1175.1000;0.6463;0.7280;
1175.4000;0.6471;0.7305;
1175.7000;0.6496;0.7355;
1176.0000;0.6488;0.7481;
1176.3000;0.6447;0.7406;
1176.6000;0.6479;0.7481;
1176.9000;0.6504;0.7658;
1177.2000;0.6479;0.7507;
1177.5000;0.6479;0.7557;
1177.8000;0.6479;0.7557;
1178.1000;0.6463;0.7481;
1178.4000;0.6471;0.7557;
1178.7000;0.6471;0.7507;
1179.0000;0.6471;0.7456;
1179.3000;0.6512;0.7507;
1179.6000;0.6471;0.7456;
1179.9000;0.6463;0.7330;
1180.2000;0.6455;0.7330;
1180.5000;0.6471;0.7431;
1180.8000;0.6504;0.7456;
1181.1000;0.6496;0.7456;
1181.4000;0.6431;0.7230;
1181.7000;0.6463;0.7305;
1182.0000;0.6479;0.7406;
1182.3000;0.6488;0.7355;
1182.6000;0.6479;0.7330;
1182.9000;0.6463;0.7381;
1183.2000;0.6479;0.7406;
1183.5000;0.6479;0.7456;
1183.8000;0.6463;0.7431;
1184.1000;0.6463;0.7431;
1184.4000;0.6463;0.7406;
1184.7000;0.6479;0.7481;
1185.0000;0.6471;0.7532;
1185.3000;0.6463;0.7532;
1185.6000;0.6479;0.7557;
1185.9000;0.6447;0.7481;
1186.2000;0.6471;0.7481;
1186.5000;0.6488;0.7507;
1186.8000;0.6536;0.7658;
1187.1000;0.6479;0.7507;
1187.4000;0.6471;0.7532;
1187.7000;0.6512;0.7733;
1188.0000;0.6479;0.7633;
1188.3000;0.6463;0.7607;
1188.6000;0.6479;0.7633;
1188.9000;0.6479;0.7557;
1189.2000;0.6463;0.7607;
1189.5000;0.6479;0.7607;
1189.8000;0.6488;0.7582;
1190.1000;0.6463;0.7532;
1190.4000;0.6471;0.7532;
1190.7000;0.6471;0.7557;
1191.0000;0.6463;0.7582;
1191.3000;0.6479;0.7582;
1191.6000;0.6479;0.7557;
1191.9000;0.6463;0.7557;
1192.2000;0.6488;0.7633;
1192.5000;0.6488;0.7708;
1192.8000;0.6390;0.7481;
1193.1000;0.6455;0.7532;
1193.4000;0.6463;0.7582;
1193.7000;0.6528;0.7658;
1194.0000;0.6471;0.7406;
1194.3000;0.6488;0.7355;
1194.6000;0.6496;0.7406;
1194.9000;0.6496;0.7431;
1195.2000;0.6463;0.7406;
1195.5000;0.6414;0.7330;
1195.8000;0.6455;0.7481;
1196.1000;0.6479;0.7532;
1196.4000;0.6488;0.7406;
1196.7000;0.6463;0.7280;
1197.0000;0.6471;0.7305;
1197.3000;0.6463;0.7280;
1197.6000;0.6471;0.7355;
1197.9000;0.6463;0.7381;
1198.2000;0.6463;0.7431;
1198.5000;0.6479;0.7507;
1198.8000;0.6455;0.7507;
1199.1000;0.6471;0.7456;
1199.4000;0.6479;0.7330;
1199.7000;0.6471;0.7305;
1200.0000;0.6463;0.7456;
1200.3000;0.6463;0.7431;
1200.6000;0.6406;0.7305;
1200.9000;0.6471;0.7532;
1201.2000;0.6504;0.7708;
1201.5000;0.6463;0.7633;
1201.8000;0.6479;0.7633;
1202.1000;0.6463;0.7582;
1202.4000;0.6463;0.7582;
1202.7000;0.6463;0.7557;
1203.0000;0.6463;0.7532;
1203.3000;0.6447;0.7532;
1203.6000;0.6439;0.7507;
1203.9000;0.6463;0.7557;
1204.2000;0.6455;0.7532;
1204.5000;0.6463;0.7431;
1204.8000;0.6455;0.7381;
1205.1000;0.6455;0.7406;
1205.4000;0.6422;0.7305;
1205.7000;0.6447;0.7406;
1206.0000;0.6447;0.7305;
1206.3000;0.6422;0.7305;
1206.6000;0.6488;0.7557;
1206.9000;0.6463;0.7607;
1207.2000;0.6471;0.7633;
1207.5000;0.6455;0.7607;
1207.8000;0.6439;0.7582;
1208.1000;0.6439;0.7633;
1208.4000;0.6455;0.7481;
1208.7000;0.6471;0.7532;
1209.0000;0.6431;0.7456;
1209.3000;0.6496;0.7557;
1209.6000;0.6463;0.7431;
1209.9000;0.6471;0.7507;
1210.2000;0.6463;0.7507;
1210.5000;0.6471;0.7507;
1210.8000;0.6504;0.7658;
1211.1000;0.6463;0.7532;
1211.4000;0.6471;0.7557;
1211.7000;0.6463;0.7582;
1212.0000;0.6463;0.7683;
1212.3000;0.6488;0.7683;
1212.6000;0.6431;0.7481;
1212.9000;0.6471;0.7633;
1213.2000;0.6471;0.7658;
1213.5000;0.6471;0.7683;
1213.8000;0.6447;0.7582;
1214.1000;0.6455;0.7633;
1214.4000;0.6455;0.7557;
1214.7000;0.6447;0.7481;
1215.0000;0.6447;0.7355;
1215.3000;0.6455;0.7406;
1215.6000;0.6463;0.7431;
1215.9000;0.6463;0.7355;
1216.2000;0.6431;0.7355;
1216.5000;0.6455;0.7532;
1216.8000;0.6479;0.7607;
1217.1000;0.6471;0.7607;
1217.4000;0.6479;0.7507;
1217.7000;0.6479;0.7507;
1218.0000;0.6471;0.7557;
1218.3000;0.6463;0.7507;
1218.6000;0.6455;0.7507;
1218.9000;0.6471;0.7582;
1219.2000;0.6471;0.7683;
1219.5000;0.6471;0.7658;
1219.8000;0.6479;0.7658;
1220.1000;0.6455;0.7557;
1220.4000;0.6479;0.7557;
1220.7000;0.6471;0.7532;
1221.0000;0.6447;0.7456;
1221.3000;0.6471;0.7431;
1221.6000;0.6431;0.7305;
1221.9000;0.6504;0.7607;
1222.2000;0.6431;0.7431;
1222.5000;0.6479;0.7557;
1222.8000;0.6496;0.7633;
1223.1000;0.6471;0.7607;
1223.4000;0.6447;0.7557;
1223.7000;0.6455;0.7507;
1224.0000;0.6455;0.7481;
1224.3000;0.6463;0.7456;
1224.6000;0.6463;0.7355;
1224.9000;0.6536;0.7532;
1225.2000;0.6447;0.7204;
1225.5000;0.6463;0.7280;
1225.8000;0.6463;0.7305;
1226.1000;0.6471;0.7330;
1226.4000;0.6463;0.7355;
1226.7000;0.6463;0.7406;
1227.0000;0.6447;0.7330;
1227.3000;0.6463;0.7355;
1227.6000;0.6463;0.7431;
1227.9000;0.6463;0.7532;
1228.2000;0.6471;0.7507;
1228.5000;0.6463;0.7456;
1228.8000;0.6479;0.7481;
1229.1000;0.6455;0.7507;
1229.4000;0.6488;0.7532;
1229.7000;0.6471;0.7532;
1230.0000;0.6455;0.7381;
1230.3000;0.6479;0.7431;
1230.6000;0.6471;0.7355;
1230.9000;0.6455;0.7305;
1231.2000;0.6479;0.7330;
1231.5000;0.6471;0.7381;
1231.8000;0.6447;0.7406;
1232.1000;0.6471;0.7456;
1232.4000;0.6463;0.7406;
1232.7000;0.6471;0.7456;
1233.0000;0.6455;0.7431;
1233.3000;0.6471;0.7456;
1233.6000;0.6439;0.7355;
1233.9000;0.6455;0.7381;
1234.2000;0.6463;0.7481;
1234.5000;0.6455;0.7481;
1234.8000;0.6455;0.7355;
1235.1000;0.6455;0.7406;
1235.4000;0.6447;0.7406;
1235.7000;0.6463;0.7507;
1236.0000;0.6455;0.7456;
1236.3000;0.6439;0.7456;
1236.6000;0.6455;0.7532;
1236.9000;0.6455;0.7507;
1237.2000;0.6463;0.7456;
1237.5000;0.6455;0.7406;
1237.8000;0.6463;0.7481;
1238.1000;0.6463;0.7481;
1238.4000;0.6463;0.7456;
1238.7000;0.6414;0.7230;
1239.0000;0.6463;0.7431;
1239.3000;0.6528;0.7683;
1239.6000;0.6496;0.7532;
1239.9000;0.6471;0.7456;
1240.2000;0.6463;0.7507;
1240.5000;0.6471;0.7607;
1240.8000;0.6479;0.7582;
1241.1000;0.6463;0.7532;
1241.4000;0.6422;0.7355;
1241.7000;0.6479;0.7355;
1242.0000;0.6463;0.7330;
1242.3000;0.6488;0.7355;
1242.6000;0.6455;0.7204;
1242.9000;0.6471;0.7179;
1243.2000;0.6479;0.7255;
1243.5000;0.6471;0.7330;
1243.8000;0.6463;0.7305;
1244.1000;0.6447;0.7330;
1244.4000;0.6447;0.7431;
1244.7000;0.6455;0.7456;
1245.0000;0.6406;0.7406;
1245.3000;0.6447;0.7633;
1245.6000;0.6455;0.7683;
1245.9000;0.6463;0.7733;
1246.2000;0.6463;0.7759;
1246.5000;0.6439;0.7633;
1246.8000;0.6455;0.7582;
1247.1000;0.6479;0.7607;
1247.4000;0.6463;0.7557;
1247.7000;0.6422;0.7481;
1248.0000;0.6488;0.7607;
1248.3000;0.6431;0.7507;
1248.6000;0.6422;0.7456;
1248.9000;0.6455;0.7481;
1249.2000;0.6447;0.7431;
1249.5000;0.6455;0.7456;
1249.8000;0.6463;0.7456;
1250.1000;0.6471;0.7481;
1250.4000;0.6455;0.7507;
1250.7000;0.6455;0.7532;
1251.0000;0.6455;0.7582;
1251.3000;0.6447;0.7633;
1251.6000;0.6447;0.7582;
1251.9000;0.6463;0.7557;
1252.2000;0.6406;0.7431;
1252.5000;0.6455;0.7557;
1252.8000;0.6447;0.7507;
1253.1000;0.6447;0.7456;
1253.4000;0.6439;0.7355;
1253.7000;0.6463;0.7532;
1254.0000;0.6471;0.7557;
1254.3000;0.6463;0.7557;
1254.6000;0.6463;0.7633;
1254.9000;0.6471;0.7708;
1255.2000;0.6463;0.7532;
1255.5000;0.6455;0.7557;
1255.8000;0.6463;0.7582;
1256.1000;0.6463;0.7658;
1256.4000;0.6455;0.7683;
1256.7000;0.6447;0.7683;
1257.0000;0.6439;0.7708;
1257.3000;0.6463;0.7784;
1257.6000;0.6463;0.7809;
1257.9000;0.6455;0.7733;
1258.2000;0.6455;0.7683;
1258.5000;0.6471;0.7607;
1258.8000;0.6479;0.7607;
1259.1000;0.6455;0.7532;
1259.4000;0.6455;0.7557;
1259.7000;0.6455;0.7658;
1260.0000;0.6447;0.7557;
1260.3000;0.6439;0.7582;
1260.6000;0.6455;0.7633;
1260.9000;0.6447;0.7557;
1261.2000;0.6463;0.7658;
1261.5000;0.6463;0.7633;
1261.8000;0.6463;0.7633;
1262.1000;0.6447;0.7557;
1262.4000;0.6455;0.7633;
1262.7000;0.6496;0.7708;
1263.0000;0.6463;0.7683;
1263.3000;0.6447;0.7557;
1263.6000;0.6390;0.7305;
1263.9000;0.6455;0.7532;
1264.2000;0.6414;0.7381;
1264.5000;0.6455;0.7456;
1264.8000;0.6463;0.7456;
1265.1000;0.6471;0.7532;
1265.4000;0.6488;0.7607;
1265.7000;0.6455;0.7507;
1266.0000;0.6463;0.7431;
1266.3000;0.6463;0.7431;
1266.6000;0.6455;0.7431;
1266.9000;0.6439;0.7406;
1267.2000;0.6463;0.7532;
1267.5000;0.6471;0.7607;
1267.8000;0.6479;0.7633;
1268.1000;0.6496;0.7683;
1268.4000;0.6463;0.7633;
1268.7000;0.6471;0.7733;
1269.0000;0.6455;0.7708;
1269.3000;0.6447;0.7708;
1269.6000;0.6447;0.7683;
1269.9000;0.6398;0.7557;
1270.2000;0.6463;0.7708;
1270.5000;0.6390;0.7532;
1270.8000;0.6439;0.7633;
1271.1000;0.6455;0.7658;
1271.4000;0.6455;0.7582;
1271.7000;0.6488;0.7633;
1272.0000;0.6447;0.7481;
1272.3000;0.6463;0.7481;
1272.6000;0.6455;0.7456;
1272.9000;0.6447;0.7557;
1273.2000;0.6479;0.7658;
1273.5000;0.6422;0.7532;
1273.8000;0.6447;0.7658;
1274.1000;0.6471;0.7607;
1274.4000;0.6463;0.7557;
1274.7000;0.6447;0.7507;
1275.0000;0.6463;0.7582;
1275.3000;0.6455;0.7633;
1275.6000;0.6471;0.7784;
1275.9000;0.6455;0.7708;
1276.2000;0.6463;0.7683;
1276.5000;0.6463;0.7733;
1276.8000;0.6455;0.7683;
1277.1000;0.6455;0.7633;
1277.4000;0.6463;0.7582;
1277.7000;0.6447;0.7532;
1278.0000;0.6463;0.7507;
1278.3000;0.6447;0.7507;
1278.6000;0.6447;0.7532;
1278.9000;0.6439;0.7557;
1279.2000;0.6447;0.7633;
1279.5000;0.6398;0.7507;
1279.8000;0.6447;0.7658;
1280.1000;0.6463;0.7633;
1280.4000;0.6398;0.7557;
1280.7000;0.6431;0.7633;
1281.0000;0.6447;0.7733;
1281.3000;0.6512;0.7859;
1281.6000;0.6455;0.7733;
1281.9000;0.6439;0.7759;
1282.2000;0.6455;0.7683;
1282.5000;0.6455;0.7859;
1282.8000;0.6455;0.7960;
1283.1000;0.6479;0.7884;
1283.4000;0.6463;0.7834;
1283.7000;0.6414;0.7708;
1284.0000;0.6447;0.7708;
1284.3000;0.6479;0.7733;
1284.6000;0.6512;0.7784;
1284.9000;0.6447;0.7582;
1285.2000;0.6455;0.7582;
1285.5000;0.6463;0.7507;
1285.8000;0.6471;0.7633;
1286.1000;0.6512;0.7733;
1286.4000;0.6431;0.7507;
1286.7000;0.6455;0.7532;
1287.0000;0.6463;0.7557;
1287.3000;0.6414;0.7507;
1287.6000;0.6447;0.7607;
1287.9000;0.6471;0.7683;
1288.2000;0.6463;0.7633;
1288.5000;0.6439;0.7582;
1288.8000;0.6431;0.7607;
1289.1000;0.6455;0.7733;
1289.4000;0.6479;0.7784;
1289.7000;0.6471;0.7784;
1290.0000;0.6439;0.7683;
1290.3000;0.6447;0.7733;
1290.6000;0.6471;0.7708;
1290.9000;0.6471;0.7733;
1291.2000;0.6455;0.7809;
1291.5000;0.6455;0.7759;
1291.8000;0.6463;0.7809;
1292.1000;0.6455;0.7708;
1292.4000;0.6447;0.7658;
1292.7000;0.6455;0.7708;
1293.0000;0.6504;0.7759;
1293.3000;0.6455;0.7708;
1293.6000;0.6439;0.7859;
1293.9000;0.6447;0.7910;
1294.2000;0.6447;0.7834;
1294.5000;0.6439;0.7834;
1294.8000;0.6447;0.7834;
1295.1000;0.6447;0.7784;
1295.4000;0.6439;0.7759;
1295.7000;0.6463;0.7809;
1296.0000;0.6455;0.7784;
1296.3000;0.6447;0.7834;
1296.6000;0.6431;0.7733;
1296.9000;0.6439;0.7759;
1297.2000;0.6439;0.7784;
1297.5000;0.6447;0.7884;
1297.8000;0.6447;0.7884;
1298.1000;0.6447;0.7859;
1298.4000;0.6463;0.7935;
1298.7000;0.6447;0.7759;
1299.0000;0.6447;0.7708;
1299.3000;0.6463;0.7733;
1299.6000;0.6479;0.7834;
1299.9000;0.6414;0.7607;
1300.2000;0.6455;0.7733;
1300.5000;0.6431;0.7633;
1300.8000;0.6455;0.7633;
1301.1000;0.6455;0.7633;
1301.4000;0.6447;0.7507;
1301.7000;0.6447;0.7456;
1302.0000;0.6471;0.7557;
1302.3000;0.6455;0.7381;
1302.6000;0.6431;0.7280;
1302.9000;0.6447;0.7381;
1303.2000;0.6463;0.7481;
1303.5000;0.6439;0.7532;
1303.8000;0.6431;0.7532;
1304.1000;0.6431;0.7481;
1304.4000;0.6447;0.7557;
1304.7000;0.6431;0.7481;
1305.0000;0.6439;0.7507;
1305.3000;0.6463;0.7532;
1305.6000;0.6406;0.7507;
1305.9000;0.6455;0.7607;
1306.2000;0.6439;0.7532;
1306.5000;0.6447;0.7582;
1306.8000;0.6422;0.7582;
1307.1000;0.6422;0.7557;
1307.4000;0.6455;0.7633;
1307.7000;0.6455;0.7633;
1308.0000;0.6455;0.7658;
1308.3000;0.6447;0.7683;
1308.6000;0.6439;0.7633;
1308.9000;0.6455;0.7633;
1309.2000;0.6431;0.7532;
1309.5000;0.6447;0.7582;
1309.8000;0.6414;0.7507;
1310.1000;0.6439;0.7582;
1310.4000;0.6463;0.7607;
1310.7000;0.6520;0.7784;
1311.0000;0.6455;0.7658;
1311.3000;0.6431;0.7507;
1311.6000;0.6455;0.7507;
1311.9000;0.6439;0.7507;
1312.2000;0.6414;0.7481;
1312.5000;0.6496;0.7683;
1312.8000;0.6455;0.7481;
1313.1000;0.6455;0.7456;
1313.4000;0.6455;0.7431;
1313.7000;0.6455;0.7481;
1314.0000;0.6471;0.7507;
1314.3000;0.6439;0.7355;
1314.6000;0.6463;0.7330;
1314.9000;0.6488;0.7305;
1315.2000;0.6455;0.7179;
1315.5000;0.6455;0.7204;
1315.8000;0.6463;0.7280;
1316.1000;0.6463;0.7305;
1316.4000;0.6455;0.7381;
1316.7000;0.6455;0.7355;
1317.0000;0.6455;0.7330;
1317.3000;0.6439;0.7381;
1317.6000;0.6431;0.7230;
1317.9000;0.6455;0.7280;
1318.2000;0.6447;0.7330;
1318.5000;0.6447;0.7406;
1318.8000;0.6463;0.7456;
1319.1000;0.6504;0.7557;
1319.4000;0.6422;0.7381;
1319.7000;0.6447;0.7431;
1320.0000;0.6447;0.7481;
1320.3000;0.6488;0.7532;
1320.6000;0.6447;0.7381;
1320.9000;0.6455;0.7456;
1321.2000;0.6455;0.7532;
1321.5000;0.6439;0.7507;
1321.8000;0.6455;0.7557;
1322.1000;0.6439;0.7507;
1322.4000;0.6471;0.7607;
1322.7000;0.6439;0.7532;
1323.0000;0.6455;0.7532;
1323.3000;0.6512;0.7683;
1323.6000;0.6455;0.7481;
1323.9000;0.6488;0.7557;
1324.2000;0.6455;0.7532;
1324.5000;0.6455;0.7582;
1324.8000;0.6455;0.7557;
1325.1000;0.6463;0.7532;
1325.4000;0.6455;0.7557;
1325.7000;0.6463;0.7633;
1326.0000;0.6455;0.7607;
1326.3000;0.6455;0.7607;
1326.6000;0.6447;0.7507;
1326.9000;0.6422;0.7330;
1327.2000;0.6439;0.7406;
1327.5000;0.6447;0.7431;
1327.8000;0.6447;0.7355;
1328.1000;0.6447;0.7305;
1328.4000;0.6455;0.7204;
1328.7000;0.6463;0.7230;
1329.0000;0.6455;0.7255;
1329.3000;0.6463;0.7204;
1329.6000;0.6439;0.7179;
1329.9000;0.6447;0.7204;
1330.2000;0.6447;0.7204;
1330.5000;0.6439;0.7154;
1330.8000;0.6447;0.7154;
1331.1000;0.6479;0.7179;
1331.4000;0.6455;0.7230;
1331.7000;0.6455;0.7255;
1332.0000;0.6439;0.7255;
1332.3000;0.6504;0.7431;
1332.6000;0.6447;0.7330;
1332.9000;0.6455;0.7355;
1333.2000;0.6455;0.7330;
1333.5000;0.6471;0.7381;
1333.8000;0.6520;0.7481;
1334.1000;0.6455;0.7330;
1334.4000;0.6447;0.7431;
1334.7000;0.6471;0.7532;
1335.0000;0.6455;0.7456;
1335.3000;0.6447;0.7481;
1335.6000;0.6439;0.7532;
1335.9000;0.6447;0.7582;
1336.2000;0.6455;0.7633;
1336.5000;0.6447;0.7607;
1336.8000;0.6455;0.7633;
1337.1000;0.6439;0.7532;
1337.4000;0.6431;0.7481;
1337.7000;0.6455;0.7406;
1338.0000;0.6455;0.7481;
1338.3000;0.6447;0.7456;
1338.6000;0.6439;0.7330;
1338.9000;0.6439;0.7406;
1339.2000;0.6439;0.7381;
1339.5000;0.6447;0.7582;
1339.8000;0.6447;0.7507;
1340.1000;0.6447;0.7507;
1340.4000;0.6463;0.7557;
1340.7000;0.6463;0.7532;
1341.0000;0.6463;0.7481;
1341.3000;0.6455;0.7456;
1341.6000;0.6520;0.7557;
1341.9000;0.6512;0.7532;
1342.2000;0.6439;0.7305;
1342.5000;0.6447;0.7305;
1342.8000;0.6431;0.7456;
1343.1000;0.6431;0.7381;
1343.4000;0.6431;0.7355;
1343.7000;0.6439;0.7381;
1344.0000;0.6447;0.7456;
1344.3000;0.6455;0.7456;
1344.6000;0.6439;0.7431;
1344.9000;0.6463;0.7481;
1345.2000;0.6439;0.7481;
1345.5000;0.6447;0.7456;
1345.8000;0.6439;0.7406;
1346.1000;0.6455;0.7406;
1346.4000;0.6382;0.7179;
1346.7000;0.6431;0.7280;
1347.0000;0.6447;0.7330;
1347.3000;0.6496;0.7456;
1347.6000;0.6431;0.7305;
1347.9000;0.6439;0.7305;
1348.2000;0.6431;0.7255;
1348.5000;0.6431;0.7230;
1348.8000;0.6422;0.7204;
1349.1000;0.6439;0.7330;
1349.4000;0.6398;0.7230;
1349.7000;0.6471;0.7481;
1350.0000;0.6447;0.7330;
1350.3000;0.6447;0.7255;
1350.6000;0.6455;0.7280;
1350.9000;0.6455;0.7330;
1351.2000;0.6455;0.7230;
1351.5000;0.6431;0.7179;
1351.8000;0.6439;0.7104;
1352.1000;0.6447;0.7104;
1352.4000;0.6439;0.7129;
1352.7000;0.6431;0.7204;
1353.0000;0.6439;0.7280;
1353.3000;0.6431;0.7280;
1353.6000;0.6447;0.7280;
1353.9000;0.6422;0.7381;
1354.2000;0.6455;0.7431;
1354.5000;0.6504;0.7507;
1354.8000;0.6479;0.7431;
1355.1000;0.6447;0.7255;
1355.4000;0.6455;0.7280;
1355.7000;0.6455;0.7305;
1356.0000;0.6455;0.7305;
1356.3000;0.6471;0.7330;
1356.6000;0.6447;0.7255;
1356.9000;0.6447;0.7255;
1357.2000;0.6439;0.7431;
1357.5000;0.6455;0.7355;
1357.8000;0.6431;0.7381;
1358.1000;0.6439;0.7381;
1358.4000;0.6439;0.7381;
1358.7000;0.6471;0.7381;
1359.0000;0.6439;0.7280;
1359.3000;0.6463;0.7406;
1359.6000;0.6455;0.7406;
1359.9000;0.6455;0.7481;
1360.2000;0.6455;0.7481;
1360.5000;0.6447;0.7507;
1360.8000;0.6422;0.7431;
1361.1000;0.6422;0.7431;
1361.4000;0.6390;0.7355;
1361.7000;0.6414;0.7456;
1362.0000;0.6520;0.7784;
1362.3000;0.6422;0.7481;
1362.6000;0.6431;0.7456;
1362.9000;0.6439;0.7557;
1363.2000;0.6447;0.7507;
1363.5000;0.6439;0.7532;
1363.8000;0.6422;0.7507;
1364.1000;0.6382;0.7456;
1364.4000;0.6431;0.7532;
1364.7000;0.6439;0.7557;
1365.0000;0.6479;0.7683;
1365.3000;0.6439;0.7532;
1365.6000;0.6439;0.7582;
1365.9000;0.6439;0.7557;
1366.2000;0.6488;0.7658;
1366.5000;0.6439;0.7582;
1366.8000;0.6439;0.7582;
1367.1000;0.6431;0.7557;
1367.4000;0.6439;0.7582;
1367.7000;0.6455;0.7633;
1368.0000;0.6447;0.7607;
1368.3000;0.6447;0.7582;
1368.6000;0.6439;0.7633;
1368.9000;0.6431;0.7633;
1369.2000;0.6422;0.7532;
1369.5000;0.6455;0.7582;
1369.8000;0.6455;0.7507;
1370.1000;0.6455;0.7431;
1370.4000;0.6422;0.7305;
1370.7000;0.6439;0.7330;
1371.0000;0.6455;0.7456;
1371.3000;0.6455;0.7481;
1371.6000;0.6455;0.7456;
1371.9000;0.6455;0.7406;
1372.2000;0.6439;0.7431;
1372.5000;0.6447;0.7456;
1372.8000;0.6439;0.7481;
1373.1000;0.6431;0.7532;
1373.4000;0.6414;0.7507;
1373.7000;0.6431;0.7532;
1374.0000;0.6431;0.7456;
1374.3000;0.6439;0.7507;
1374.6000;0.6439;0.7507;
1374.9000;0.6447;0.7431;
1375.2000;0.6431;0.7381;
1375.5000;0.6431;0.7381;
1375.8000;0.6431;0.7381;
1376.1000;0.6455;0.7481;
1376.4000;0.6414;0.7305;
1376.7000;0.6455;0.7330;
1377.0000;0.6439;0.7406;
1377.3000;0.6447;0.7381;
1377.6000;0.6504;0.7532;
1377.9000;0.6463;0.7330;
1378.2000;0.6431;0.7204;
1378.5000;0.6439;0.7255;
1378.8000;0.6439;0.7255;
1379.1000;0.6414;0.7179;
1379.4000;0.6479;0.7406;
1379.7000;0.6455;0.7381;
1380.0000;0.6463;0.7481;
1380.3000;0.6455;0.7507;
1380.6000;0.6447;0.7557;
1380.9000;0.6455;0.7557;
1381.2000;0.6455;0.7532;
1381.5000;0.6463;0.7557;
1381.8000;0.6455;0.7557;
1382.1000;0.6439;0.7532;
1382.4000;0.6463;0.7557;
1382.7000;0.6447;0.7557;
1383.0000;0.6439;0.7507;
1383.3000;0.6414;0.7481;
1383.6000;0.6406;0.7481;
1383.9000;0.6463;0.7481;
1384.2000;0.6431;0.7481;
1384.5000;0.6414;0.7431;
1384.8000;0.6439;0.7507;
1385.1000;0.6447;0.7557;
1385.4000;0.6447;0.7557;
1385.7000;0.6431;0.7507;
1386.0000;0.6439;0.7532;
1386.3000;0.6455;0.7507;
1386.6000;0.6447;0.7532;
1386.9000;0.6447;0.7481;
1387.2000;0.6447;0.7507;
1387.5000;0.6455;0.7507;
1387.8000;0.6439;0.7456;
1388.1000;0.6439;0.7406;
1388.4000;0.6439;0.7431;
1388.7000;0.6431;0.7481;
1389.0000;0.6447;0.7557;
1389.3000;0.6447;0.7582;
1389.6000;0.6390;0.7381;
1389.9000;0.6447;0.7456;
1390.2000;0.6455;0.7431;
1390.5000;0.6431;0.7330;
1390.8000;0.6447;0.7456;
1391.1000;0.6439;0.7456;
1391.4000;0.6439;0.7582;
1391.7000;0.6439;0.7557;
1392.0000;0.6447;0.7532;
1392.3000;0.6431;0.7557;
1392.6000;0.6463;0.7607;
1392.9000;0.6447;0.7481;
1393.2000;0.6447;0.7481;
1393.5000;0.6439;0.7532;
1393.8000;0.6447;0.7532;
1394.1000;0.6439;0.7532;
1394.4000;0.6422;0.7507;
1394.7000;0.6439;0.7431;
1395.0000;0.6439;0.7481;
1395.3000;0.6455;0.7481;
1395.6000;0.6447;0.7431;
1395.9000;0.6439;0.7381;
1396.2000;0.6439;0.7431;
1396.5000;0.6463;0.7456;
1396.8000;0.6447;0.7507;
1397.1000;0.6431;0.7481;
1397.4000;0.6414;0.7532;
1397.7000;0.6463;0.7532;
1398.0000;0.6439;0.7507;
1398.3000;0.6439;0.7481;
1398.6000;0.6463;0.7481;
1398.9000;0.6439;0.7355;
1399.2000;0.6447;0.7330;
1399.5000;0.6431;0.7330;
1399.8000;0.6455;0.7456;
