time/ms;Fluo/V;P700 deltaI/I x10³;
-199.8000;1.0615;0.7910;
-199.5000;1.0598;0.7884;
-199.2000;1.0517;0.7708;
-198.9000;1.0582;0.7809;
-198.6000;1.0582;0.7834;
-198.3000;1.0590;0.7834;
-198.0000;1.0590;0.7809;
-197.7000;1.0582;0.7809;
-197.4000;1.0590;0.7759;
-197.1000;1.0590;0.7759;
-196.8000;1.0598;0.7784;
-196.5000;1.0598;0.7708;
-196.2000;1.0582;0.7658;
-195.9000;1.0615;0.7683;
-195.6000;1.0590;0.7633;
-195.3000;1.0598;0.7633;
-195.0000;1.0590;0.7658;
-194.7000;1.0615;0.7708;
-194.4000;1.0598;0.7708;
-194.1000;1.0606;0.7733;
-193.8000;1.0590;0.7582;
-193.5000;1.0598;0.7582;
-193.2000;1.0598;0.7633;
-192.9000;1.0574;0.7507;
-192.6000;1.0582;0.7607;
-192.3000;1.0606;0.7658;
-192.0000;1.0574;0.7683;
-191.7000;1.0590;0.7708;
-191.4000;1.0590;0.7759;
-191.1000;1.0590;0.7733;
-190.8000;1.0606;0.7759;
-190.5000;1.0598;0.7733;
-190.2000;1.0606;0.7759;
-189.9000;1.0590;0.7834;
-189.6000;1.0598;0.7910;
-189.3000;1.0598;0.7910;
-189.0000;1.0590;0.7834;
-188.7000;1.0590;0.7784;
-188.4000;1.0606;0.7708;
-188.1000;1.0590;0.7733;
-187.8000;1.0606;0.7759;
-187.5000;1.0582;0.7784;
-187.2000;1.0590;0.7759;
-186.9000;1.0606;0.7784;
-186.6000;1.0663;0.7960;
-186.3000;1.0590;0.7733;
-186.0000;1.0590;0.7733;
-185.7000;1.0606;0.7708;
-185.4000;1.0598;0.7708;
-185.1000;1.0582;0.7733;
-184.8000;1.0598;0.7759;
-184.5000;1.0590;0.7759;
-184.2000;1.0615;0.7809;
-183.9000;1.0623;0.7809;
-183.6000;1.0598;0.7708;
-183.3000;1.0598;0.7733;
-183.0000;1.0615;0.7733;
-182.7000;1.0598;0.7759;
-182.4000;1.0598;0.7784;
-182.1000;1.0598;0.7834;
-181.8000;1.0615;0.7884;
-181.5000;1.0590;0.7859;
-181.2000;1.0598;0.7834;
-180.9000;1.0582;0.7809;
-180.6000;1.0606;0.7733;
-180.3000;1.0598;0.7759;
-180.0000;1.0598;0.7733;
-179.7000;1.0598;0.7784;
-179.4000;1.0598;0.7708;
-179.1000;1.0615;0.7759;
-178.8000;1.0598;0.7733;
-178.5000;1.0525;0.7532;
-178.2000;1.0590;0.7658;
-177.9000;1.0598;0.7733;
-177.6000;1.0566;0.7733;
-177.3000;1.0582;0.7784;
-177.0000;1.0606;0.7834;
-176.7000;1.0615;0.7884;
-176.4000;1.0590;0.7834;
-176.1000;1.0590;0.7733;
-175.8000;1.0566;0.7607;
-175.5000;1.0623;0.7708;
-175.2000;1.0574;0.7658;
-174.9000;1.0590;0.7683;
-174.6000;1.0598;0.7658;
-174.3000;1.0615;0.7683;
-174.0000;1.0598;0.7683;
-173.7000;1.0574;0.7708;
-173.4000;1.0582;0.7733;
-173.1000;1.0566;0.7784;
-172.8000;1.0606;0.7884;
-172.5000;1.0574;0.7859;
-172.2000;1.0566;0.7733;
-171.9000;1.0598;0.7759;
-171.6000;1.0590;0.7708;
-171.3000;1.0582;0.7733;
-171.0000;1.0590;0.7708;
-170.7000;1.0590;0.7759;
-170.4000;1.0590;0.7784;
-170.1000;1.0606;0.7859;
-169.8000;1.0582;0.7884;
-169.5000;1.0598;0.7960;
-169.2000;1.0598;0.7859;
-168.9000;1.0598;0.7910;
-168.6000;1.0615;0.7809;
-168.3000;1.0582;0.7759;
-168.0000;1.0598;0.7834;
-167.7000;1.0598;0.7859;
-167.4000;1.0590;0.7859;
-167.1000;1.0631;0.7960;
-166.8000;1.0623;0.7859;
-166.5000;1.0606;0.7834;
-166.2000;1.0606;0.7859;
-165.9000;1.0598;0.7834;
-165.6000;1.0541;0.7683;
-165.3000;1.0606;0.7809;
-165.0000;1.0590;0.7759;
-164.7000;1.0574;0.7683;
-164.4000;1.0598;0.7759;
-164.1000;1.0615;0.7784;
-163.8000;1.0606;0.7834;
-163.5000;1.0598;0.7884;
-163.2000;1.0582;0.7884;
-162.9000;1.0606;0.7859;
-162.6000;1.0606;0.7834;
-162.3000;1.0598;0.7809;
-162.0000;1.0598;0.7809;
-161.7000;1.0590;0.7708;
-161.4000;1.0615;0.7708;
-161.1000;1.0590;0.7708;
-160.8000;1.0590;0.7658;
-160.5000;1.0606;0.7633;
-160.2000;1.0590;0.7582;
-159.9000;1.0590;0.7557;
-159.6000;1.0598;0.7683;
-159.3000;1.0566;0.7658;
-159.0000;1.0615;0.7759;
-158.7000;1.0606;0.7708;
-158.4000;1.0525;0.7557;
-158.1000;1.0582;0.7557;
-157.8000;1.0606;0.7733;
-157.5000;1.0606;0.7708;
-157.2000;1.0574;0.7633;
-156.9000;1.0582;0.7708;
-156.6000;1.0590;0.7759;
-156.3000;1.0606;0.7859;
-156.0000;1.0566;0.7809;
-155.7000;1.0582;0.7859;
-155.4000;1.0533;0.7759;
-155.1000;1.0598;0.8010;
-154.8000;1.0590;0.7960;
-154.5000;1.0598;0.7884;
-154.2000;1.0615;0.7935;
-153.9000;1.0533;0.7633;
-153.6000;1.0606;0.7809;
-153.3000;1.0598;0.7733;
-153.0000;1.0590;0.7708;
-152.7000;1.0582;0.7633;
-152.4000;1.0615;0.7582;
-152.1000;1.0606;0.7431;
-151.8000;1.0574;0.7355;
-151.5000;1.0615;0.7456;
-151.2000;1.0606;0.7406;
-150.9000;1.0598;0.7557;
-150.6000;1.0606;0.7708;
-150.3000;1.0598;0.7708;
-150.0000;1.0606;0.7759;
-149.7000;1.0598;0.7733;
-149.4000;1.0574;0.7683;
-149.1000;1.0615;0.7708;
-148.8000;1.0598;0.7708;
-148.5000;1.0615;0.7733;
-148.2000;1.0590;0.7759;
-147.9000;1.0598;0.7834;
-147.6000;1.0598;0.7884;
-147.3000;1.0598;0.7910;
-147.0000;1.0582;0.7859;
-146.7000;1.0582;0.7834;
-146.4000;1.0582;0.7884;
-146.1000;1.0590;0.7960;
-145.8000;1.0582;0.7985;
-145.5000;1.0574;0.8086;
-145.2000;1.0574;0.7985;
-144.9000;1.0598;0.7960;
-144.6000;1.0590;0.7935;
-144.3000;1.0582;0.7935;
-144.0000;1.0590;0.7884;
-143.7000;1.0615;0.7935;
-143.4000;1.0582;0.7910;
-143.1000;1.0574;0.7884;
-142.8000;1.0590;0.7859;
-142.5000;1.0590;0.7784;
-142.2000;1.0606;0.7809;
-141.9000;1.0582;0.7784;
-141.6000;1.0574;0.7784;
-141.3000;1.0590;0.7759;
-141.0000;1.0606;0.7809;
-140.7000;1.0615;0.7859;
-140.4000;1.0590;0.7884;
-140.1000;1.0590;0.7884;
-139.8000;1.0598;0.7884;
-139.5000;1.0606;0.7884;
-139.2000;1.0647;0.7884;
-138.9000;1.0590;0.7784;
-138.6000;1.0574;0.7834;
-138.3000;1.0598;0.7910;
-138.0000;1.0590;0.7960;
-137.7000;1.0598;0.7935;
-137.4000;1.0639;0.8010;
-137.1000;1.0598;0.7859;
-136.8000;1.0606;0.7910;
-136.5000;1.0541;0.7759;
-136.2000;1.0582;0.7910;
-135.9000;1.0598;0.7910;
-135.6000;1.0574;0.7834;
-135.3000;1.0590;0.7859;
-135.0000;1.0615;0.7884;
-134.7000;1.0598;0.7834;
-134.4000;1.0509;0.7607;
-134.1000;1.0590;0.7809;
-133.8000;1.0606;0.7834;
-133.5000;1.0598;0.7884;
-133.2000;1.0590;0.7834;
-132.9000;1.0590;0.7809;
-132.6000;1.0598;0.7884;
-132.3000;1.0582;0.7859;
-132.0000;1.0582;0.7960;
-131.7000;1.0590;0.7910;
-131.4000;1.0623;0.8036;
-131.1000;1.0558;0.7910;
-130.8000;1.0574;0.7985;
-130.5000;1.0574;0.7985;
-130.2000;1.0590;0.7985;
-129.9000;1.0590;0.7910;
-129.6000;1.0606;0.7884;
-129.3000;1.0598;0.7935;
-129.0000;1.0606;0.7884;
-128.7000;1.0615;0.7960;
-128.4000;1.0623;0.7960;
-128.1000;1.0615;0.7960;
-127.8000;1.0598;0.7935;
-127.5000;1.0590;0.7985;
-127.2000;1.0582;0.7910;
-126.9000;1.0598;0.7935;
-126.6000;1.0574;0.7935;
-126.3000;1.0574;0.7910;
-126.0000;1.0590;0.7935;
-125.7000;1.0590;0.8010;
-125.4000;1.0582;0.8036;
-125.1000;1.0574;0.8010;
-124.8000;1.0574;0.7935;
-124.5000;1.0558;0.7809;
-124.2000;1.0582;0.7784;
-123.9000;1.0582;0.7759;
-123.6000;1.0598;0.7708;
-123.3000;1.0647;0.7859;
-123.0000;1.0606;0.7759;
-122.7000;1.0598;0.7809;
-122.4000;1.0598;0.7834;
-122.1000;1.0606;0.7910;
-121.8000;1.0517;0.7834;
-121.5000;1.0574;0.8010;
-121.2000;1.0590;0.8086;
-120.9000;1.0590;0.8061;
-120.6000;1.0590;0.8136;
-120.3000;1.0582;0.8061;
-120.0000;1.0590;0.8036;
-119.7000;1.0598;0.7960;
-119.4000;1.0606;0.7960;
-119.1000;1.0615;0.7859;
-118.8000;1.0590;0.7859;
-118.5000;1.0606;0.7784;
-118.2000;1.0615;0.7834;
-117.9000;1.0590;0.7884;
-117.6000;1.0606;0.7985;
-117.3000;1.0590;0.7960;
-117.0000;1.0615;0.7960;
-116.7000;1.0582;0.7935;
-116.4000;1.0615;0.7985;
-116.1000;1.0598;0.7935;
-115.8000;1.0574;0.7910;
-115.5000;1.0558;0.7834;
-115.2000;1.0598;0.7910;
-114.9000;1.0582;0.7859;
-114.6000;1.0558;0.7884;
-114.3000;1.0566;0.7859;
-114.0000;1.0574;0.7935;
-113.7000;1.0590;0.7935;
-113.4000;1.0647;0.7960;
-113.1000;1.0598;0.7834;
-112.8000;1.0606;0.7834;
-112.5000;1.0574;0.7834;
-112.2000;1.0549;0.7809;
-111.9000;1.0598;0.7910;
-111.6000;1.0574;0.7834;
-111.3000;1.0525;0.7759;
-111.0000;1.0598;0.7910;
-110.7000;1.0582;0.7935;
-110.4000;1.0582;0.7784;
-110.1000;1.0582;0.7633;
-109.8000;1.0590;0.7658;
-109.5000;1.0566;0.7633;
-109.2000;1.0623;0.7809;
-108.9000;1.0582;0.7733;
-108.6000;1.0590;0.7733;
-108.3000;1.0598;0.7708;
-108.0000;1.0590;0.7733;
-107.7000;1.0615;0.7759;
-107.4000;1.0590;0.7683;
-107.1000;1.0606;0.7834;
-106.8000;1.0590;0.7935;
-106.5000;1.0606;0.7884;
-106.2000;1.0574;0.7834;
-105.9000;1.0574;0.7784;
-105.6000;1.0590;0.7859;
-105.3000;1.0582;0.7935;
-105.0000;1.0574;0.7910;
-104.7000;1.0582;0.7884;
-104.4000;1.0558;0.7834;
-104.1000;1.0606;0.7884;
-103.8000;1.0606;0.7809;
-103.5000;1.0590;0.7759;
-103.2000;1.0590;0.7809;
-102.9000;1.0598;0.7834;
-102.6000;1.0598;0.7834;
-102.3000;1.0606;0.7809;
-102.0000;1.0582;0.7809;
-101.7000;1.0606;0.7809;
-101.4000;1.0598;0.7809;
-101.1000;1.0590;0.7733;
-100.8000;1.0566;0.7708;
-100.5000;1.0574;0.7708;
-100.2000;1.0598;0.7759;
-99.9000;1.0582;0.7658;
-99.6000;1.0574;0.7683;
-99.3000;1.0598;0.7708;
-99.0000;1.0582;0.7633;
-98.7000;1.0558;0.7633;
-98.4000;1.0558;0.7683;
-98.1000;1.0590;0.7708;
-97.8000;1.0606;0.7708;
-97.5000;1.0615;0.7784;
-97.2000;1.0590;0.7733;
-96.9000;1.0582;0.7708;
-96.6000;1.0615;0.7784;
-96.3000;1.0582;0.7759;
-96.0000;1.0598;0.7859;
-95.7000;1.0574;0.7859;
-95.4000;1.0598;0.7884;
-95.1000;1.0590;0.7859;
-94.8000;1.0582;0.7935;
-94.5000;1.0598;0.7960;
-94.2000;1.0590;0.7859;
-93.9000;1.0582;0.7910;
-93.6000;1.0582;0.7935;
-93.3000;1.0598;0.7910;
-93.0000;1.0590;0.7809;
-92.7000;1.0582;0.7859;
-92.4000;1.0590;0.7834;
-92.1000;1.0598;0.7960;
-91.8000;1.0598;0.7910;
-91.5000;1.0606;0.7884;
-91.2000;1.0598;0.7935;
-90.9000;1.0590;0.7884;
-90.6000;1.0574;0.7834;
-90.3000;1.0598;0.7910;
-90.0000;1.0590;0.7910;
-89.7000;1.0615;0.7960;
-89.4000;1.0590;0.7935;
-89.1000;1.0590;0.7985;
-88.8000;1.0590;0.7910;
-88.5000;1.0598;0.7985;
-88.2000;1.0574;0.8010;
-87.9000;1.0582;0.8061;
-87.6000;1.0598;0.7985;
-87.3000;1.0582;0.7884;
-87.0000;1.0590;0.7910;
-86.7000;1.0582;0.7910;
-86.4000;1.0598;0.7985;
-86.1000;1.0590;0.7935;
-85.8000;1.0647;0.8061;
-85.5000;1.0582;0.7960;
-85.2000;1.0590;0.7884;
-84.9000;1.0598;0.7884;
-84.6000;1.0598;0.7935;
-84.3000;1.0598;0.8010;
-84.0000;1.0590;0.8086;
-83.7000;1.0541;0.7910;
-83.4000;1.0598;0.8010;
-83.1000;1.0582;0.8036;
-82.8000;1.0590;0.8036;
-82.5000;1.0623;0.8136;
-82.2000;1.0598;0.8111;
-81.9000;1.0590;0.8086;
-81.6000;1.0598;0.8061;
-81.3000;1.0639;0.8162;
-81.0000;1.0590;0.8061;
-80.7000;1.0590;0.8086;
-80.4000;1.0558;0.7960;
-80.1000;1.0590;0.8061;
-79.8000;1.0655;0.8212;
-79.5000;1.0598;0.8010;
-79.2000;1.0582;0.8010;
-78.9000;1.0590;0.7985;
-78.6000;1.0598;0.7985;
-78.3000;1.0590;0.7910;
-78.0000;1.0582;0.7884;
-77.7000;1.0533;0.7708;
-77.4000;1.0598;0.7859;
-77.1000;1.0590;0.7784;
-76.8000;1.0598;0.7809;
-76.5000;1.0566;0.7683;
-76.2000;1.0582;0.7809;
-75.9000;1.0590;0.7733;
-75.6000;1.0598;0.7759;
-75.3000;1.0582;0.7784;
-75.0000;1.0590;0.7809;
-74.7000;1.0574;0.7784;
-74.4000;1.0590;0.7708;
-74.1000;1.0574;0.7607;
-73.8000;1.0574;0.7557;
-73.5000;1.0590;0.7582;
-73.2000;1.0590;0.7607;
-72.9000;1.0574;0.7557;
-72.6000;1.0582;0.7582;
-72.3000;1.0606;0.7582;
-72.0000;1.0598;0.7607;
-71.7000;1.0582;0.7633;
-71.4000;1.0574;0.7582;
-71.1000;1.0615;0.7633;
-70.8000;1.0615;0.7708;
-70.5000;1.0590;0.7582;
-70.2000;1.0590;0.7507;
-69.9000;1.0606;0.7582;
-69.6000;1.0598;0.7582;
-69.3000;1.0590;0.7759;
-69.0000;1.0598;0.7809;
-68.7000;1.0590;0.7834;
-68.4000;1.0574;0.7784;
-68.1000;1.0590;0.7809;
-67.8000;1.0574;0.7859;
-67.5000;1.0574;0.7809;
-67.2000;1.0623;0.7985;
-66.9000;1.0598;0.7985;
-66.6000;1.0598;0.7985;
-66.3000;1.0566;0.7935;
-66.0000;1.0590;0.7935;
-65.7000;1.0598;0.7884;
-65.4000;1.0631;0.7935;
-65.1000;1.0590;0.7884;
-64.8000;1.0590;0.7935;
-64.5000;1.0598;0.7960;
-64.2000;1.0590;0.7935;
-63.9000;1.0582;0.7910;
-63.6000;1.0582;0.7859;
-63.3000;1.0574;0.7935;
-63.0000;1.0582;0.7935;
-62.7000;1.0574;0.7935;
-62.4000;1.0582;0.7985;
-62.1000;1.0606;0.8036;
-61.8000;1.0598;0.7935;
-61.5000;1.0590;0.8036;
-61.2000;1.0582;0.7960;
-60.9000;1.0590;0.8010;
-60.6000;1.0606;0.8010;
-60.3000;1.0582;0.7910;
-60.0000;1.0558;0.7784;
-59.7000;1.0606;0.7960;
-59.4000;1.0598;0.7960;
-59.1000;1.0590;0.7960;
-58.8000;1.0574;0.7910;
-58.5000;1.0590;0.7935;
-58.2000;1.0558;0.7784;
-57.9000;1.0598;0.7859;
-57.6000;1.0582;0.7809;
-57.3000;1.0598;0.7935;
-57.0000;1.0598;0.7985;
-56.7000;1.0590;0.7960;
-56.4000;1.0582;0.7960;
-56.1000;1.0582;0.7935;
-55.8000;1.0590;0.7935;
-55.5000;1.0582;0.7884;
-55.2000;1.0615;0.7910;
-54.9000;1.0574;0.7910;
-54.6000;1.0582;0.7859;
-54.3000;1.0582;0.7859;
-54.0000;1.0590;0.7884;
-53.7000;1.0582;0.7859;
-53.4000;1.0590;0.7834;
-53.1000;1.0582;0.7784;
-52.8000;1.0574;0.7784;
-52.5000;1.0582;0.7884;
-52.2000;1.0590;0.7960;
-51.9000;1.0598;0.7960;
-51.6000;1.0590;0.7935;
-51.3000;1.0590;0.7834;
-51.0000;1.0574;0.7733;
-50.7000;1.0598;0.7708;
-50.4000;1.0549;0.7683;
-50.1000;1.0582;0.7784;
-49.8000;1.0598;0.7834;
-49.5000;1.0558;0.7759;
-49.2000;1.0582;0.7910;
-48.9000;1.0590;0.7834;
-48.6000;1.0574;0.7733;
-48.3000;1.0574;0.7683;
-48.0000;1.0606;0.7733;
-47.7000;1.0606;0.7759;
-47.4000;1.0598;0.7784;
-47.1000;1.0541;0.7582;
-46.8000;1.0606;0.7658;
-46.5000;1.0598;0.7708;
-46.2000;1.0582;0.7658;
-45.9000;1.0598;0.7708;
-45.6000;1.0590;0.7733;
-45.3000;1.0590;0.7733;
-45.0000;1.0582;0.7759;
-44.7000;1.0590;0.7784;
-44.4000;1.0598;0.7834;
-44.1000;1.0582;0.7809;
-43.8000;1.0590;0.7809;
-43.5000;1.0590;0.7733;
-43.2000;1.0590;0.7708;
-42.9000;1.0623;0.7784;
-42.6000;1.0582;0.7708;
-42.3000;1.0606;0.7759;
-42.0000;1.0590;0.7708;
-41.7000;1.0590;0.7708;
-41.4000;1.0574;0.7683;
-41.1000;1.0598;0.7708;
-40.8000;1.0533;0.7557;
-40.5000;1.0590;0.7658;
-40.2000;1.0574;0.7633;
-39.9000;1.0590;0.7784;
-39.6000;1.0574;0.7759;
-39.3000;1.0598;0.7708;
-39.0000;1.0615;0.7759;
-38.7000;1.0566;0.7708;
-38.4000;1.0582;0.7733;
-38.1000;1.0598;0.7809;
-37.8000;1.0582;0.7784;
-37.5000;1.0590;0.7784;
-37.2000;1.0582;0.7708;
-36.9000;1.0590;0.7708;
-36.6000;1.0598;0.7784;
-36.3000;1.0615;0.7809;
-36.0000;1.0606;0.7809;
-35.7000;1.0598;0.7834;
-35.4000;1.0615;0.7759;
-35.1000;1.0615;0.7784;
-34.8000;1.0598;0.7784;
-34.5000;1.0606;0.7784;
-34.2000;1.0606;0.7834;
-33.9000;1.0598;0.7859;
-33.6000;1.0606;0.7985;
-33.3000;1.0672;0.8086;
-33.0000;1.0615;0.7910;
-32.7000;1.0606;0.7859;
-32.4000;1.0598;0.7910;
-32.1000;1.0590;0.7960;
-31.8000;1.0615;0.8036;
-31.5000;1.0598;0.8010;
-31.2000;1.0590;0.7935;
-30.9000;1.0598;0.7935;
-30.6000;1.0582;0.7960;
-30.3000;1.0590;0.8036;
-30.0000;1.0590;0.7985;
-29.7000;1.0590;0.7859;
-29.4000;1.0582;0.7960;
-29.1000;1.0590;0.7960;
-28.8000;1.0582;0.7935;
-28.5000;1.0549;0.7759;
-28.2000;1.0574;0.7809;
-27.9000;1.0566;0.7910;
-27.6000;1.0582;0.7960;
-27.3000;1.0606;0.8036;
-27.0000;1.0582;0.8036;
-26.7000;1.0598;0.8036;
-26.4000;1.0541;0.7784;
-26.1000;1.0582;0.7859;
-25.8000;1.0606;0.7834;
-25.5000;1.0598;0.7834;
-25.2000;1.0623;0.7884;
-24.9000;1.0623;0.7884;
-24.6000;1.0606;0.7884;
-24.3000;1.0582;0.7733;
-24.0000;1.0615;0.7784;
-23.7000;1.0598;0.7859;
-23.4000;1.0615;0.7884;
-23.1000;1.0606;0.7910;
-22.8000;1.0590;0.7809;
-22.5000;1.0615;0.7884;
-22.2000;1.0606;0.7884;
-21.9000;1.0615;0.7935;
-21.6000;1.0590;0.7935;
-21.3000;1.0590;0.7910;
-21.0000;1.0606;0.7910;
-20.7000;1.0598;0.7960;
-20.4000;1.0549;0.7784;
-20.1000;1.0615;0.7910;
-19.8000;1.0598;0.7960;
-19.5000;1.0590;0.7910;
-19.2000;1.0598;0.7935;
-18.9000;1.0598;0.7985;
-18.6000;1.0590;0.8010;
-18.3000;1.0639;0.8162;
-18.0000;1.0574;0.7935;
-17.7000;1.0574;0.7910;
-17.4000;1.0590;0.7960;
-17.1000;1.0598;0.8061;
-16.8000;1.0566;0.7960;
-16.5000;1.0590;0.8036;
-16.2000;1.0590;0.7960;
-15.9000;1.0606;0.7910;
-15.6000;1.0590;0.7960;
-15.3000;1.0582;0.7985;
-15.0000;1.0606;0.7960;
-14.7000;1.0615;0.7985;
-14.4000;1.0590;0.7935;
-14.1000;1.0541;0.7759;
-13.8000;1.0606;0.7859;
-13.5000;1.0615;0.7910;
-13.2000;1.0598;0.7935;
-12.9000;1.0582;0.8010;
-12.6000;1.0590;0.7960;
-12.3000;1.0582;0.7884;
-12.0000;1.0606;0.7935;
-11.7000;1.0631;0.7884;
-11.4000;1.0598;0.7834;
-11.1000;1.0606;0.7859;
-10.8000;1.0598;0.7809;
-10.5000;1.0590;0.7834;
-10.2000;1.0574;0.7809;
-9.9000;1.0623;0.7884;
-9.6000;1.0672;0.8061;
-9.3000;1.0606;0.7884;
-9.0000;1.0590;0.7910;
-8.7000;1.0590;0.7960;
-8.4000;1.0615;0.8036;
-8.1000;1.0574;0.7910;
-7.8000;1.0558;0.7809;
-7.5000;1.0558;0.7884;
-7.2000;1.0598;0.7935;
-6.9000;1.0590;0.7884;
-6.6000;1.0582;0.7859;
-6.3000;1.0598;0.7884;
-6.0000;1.0582;0.7809;
-5.7000;1.0606;0.7935;
-5.4000;1.0598;0.7985;
-5.1000;1.0590;0.8010;
-4.8000;1.0574;0.8010;
-4.5000;1.0623;0.8086;
-4.2000;1.0566;0.7935;
-3.9000;1.0574;0.7859;
-3.6000;1.0566;0.7759;
-3.3000;1.0590;0.7733;
-3.0000;1.0590;0.7708;
-2.7000;1.0590;0.7582;
-2.4000;1.0582;0.7582;
-2.1000;1.0598;0.7658;
-1.8000;1.0598;0.7607;
-1.5000;1.0631;0.7582;
-1.2000;1.0606;0.7607;
-0.9000;1.0680;0.7884;
-0.6000;1.0615;0.7733;
-0.3000;1.0598;0.7708;
0.0000;1.0598;0.7708;
0.3000;1.0786;0.7633;
0.6000;1.1062;0.7985;
0.9000;1.1241;0.8237;
1.2000;1.1412;0.8590;
1.5000;1.1526;0.8892;
1.8000;1.1656;0.9094;
2.1000;1.1730;0.9220;
2.4000;1.1779;0.9396;
2.7000;1.1860;0.9597;
3.0000;1.1933;0.9774;
3.3000;1.1941;0.9849;
3.6000;1.1982;0.9950;
3.9000;1.2015;0.9975;
4.2000;1.2047;1.0051;
4.5000;1.2104;1.0101;
4.8000;1.2129;1.0101;
5.1000;1.2169;1.0227;
5.4000;1.2161;1.0177;
5.7000;1.2202;1.0227;
6.0000;1.2226;1.0252;
6.3000;1.2275;1.0303;
6.6000;1.2324;1.0328;
6.9000;1.2316;1.0202;
7.2000;1.2283;1.0126;
7.5000;1.2308;1.0152;
7.8000;1.2324;1.0202;
8.1000;1.2340;1.0328;
8.4000;1.2365;1.0278;
8.7000;1.2389;1.0227;
9.0000;1.2405;1.0202;
9.3000;1.2414;1.0303;
9.6000;1.2430;1.0252;
9.9000;1.2438;1.0177;
10.2000;1.2454;1.0177;
10.5000;1.2503;1.0227;
10.8000;1.2495;1.0328;
11.1000;1.2511;1.0403;
11.4000;1.2495;1.0378;
11.7000;1.2462;1.0227;
12.0000;1.2519;1.0378;
12.3000;1.2527;1.0303;
12.6000;1.2536;1.0353;
12.9000;1.2576;1.0328;
13.2000;1.2576;1.0353;
13.5000;1.2503;1.0252;
13.8000;1.2584;1.0479;
14.1000;1.2584;1.0504;
14.4000;1.2609;1.0454;
14.7000;1.2601;1.0454;
15.0000;1.2617;1.0479;
15.3000;1.2633;1.0429;
15.6000;1.2617;1.0429;
15.9000;1.2633;1.0429;
16.2000;1.2593;1.0252;
16.5000;1.2641;1.0353;
16.8000;1.2666;1.0403;
17.1000;1.2674;1.0403;
17.4000;1.2625;1.0303;
17.7000;1.2658;1.0479;
18.0000;1.2682;1.0429;
18.3000;1.2690;1.0454;
18.6000;1.2698;1.0454;
18.9000;1.2682;1.0479;
19.2000;1.2666;1.0378;
19.5000;1.2650;1.0278;
19.8000;1.2682;1.0303;
20.1000;1.2698;1.0278;
20.4000;1.2707;1.0177;
20.7000;1.2731;1.0202;
21.0000;1.2723;1.0126;
21.3000;1.2723;1.0101;
21.6000;1.2731;1.0000;
21.9000;1.2731;1.0076;
22.2000;1.2723;1.0000;
22.5000;1.2723;1.0000;
22.8000;1.2731;1.0076;
23.1000;1.2747;1.0152;
23.4000;1.2739;1.0152;
23.7000;1.2755;1.0152;
24.0000;1.2723;1.0126;
24.3000;1.2731;1.0126;
24.6000;1.2707;1.0076;
24.9000;1.2747;1.0101;
25.2000;1.2723;1.0126;
25.5000;1.2747;1.0202;
25.8000;1.2755;1.0177;
26.1000;1.2764;1.0177;
26.4000;1.2780;1.0252;
26.7000;1.2772;1.0303;
27.0000;1.2764;1.0252;
27.3000;1.2780;1.0278;
27.6000;1.2755;1.0202;
27.9000;1.2788;1.0353;
28.2000;1.2764;1.0227;
28.5000;1.2788;1.0353;
28.8000;1.2804;1.0403;
29.1000;1.2690;1.0101;
29.4000;1.2780;1.0353;
29.7000;1.2772;1.0303;
30.0000;1.2812;1.0353;
30.3000;1.2796;1.0353;
30.6000;1.2780;1.0278;
30.9000;1.2780;1.0303;
31.2000;1.2780;1.0328;
31.5000;1.2772;1.0252;
31.8000;1.2780;1.0403;
32.1000;1.2804;1.0454;
32.4000;1.2796;1.0378;
32.7000;1.2829;1.0479;
33.0000;1.2772;1.0454;
33.3000;1.2796;1.0429;
33.6000;1.2796;1.0353;
33.9000;1.2853;1.0580;
34.2000;1.2804;1.0429;
34.5000;1.2829;1.0454;
34.8000;1.2861;1.0479;
35.1000;1.2829;1.0353;
35.4000;1.2772;1.0252;
35.7000;1.2780;1.0252;
36.0000;1.2796;1.0303;
36.3000;1.2804;1.0303;
36.6000;1.2837;1.0378;
36.9000;1.2812;1.0328;
37.2000;1.2812;1.0252;
37.5000;1.2869;1.0353;
37.8000;1.2812;1.0227;
38.1000;1.2829;1.0202;
38.4000;1.2829;1.0202;
38.7000;1.2837;1.0202;
39.0000;1.2845;1.0328;
39.3000;1.2821;1.0303;
39.6000;1.2829;1.0202;
39.9000;1.2861;1.0227;
40.2000;1.2853;1.0227;
40.5000;1.2829;1.0152;
40.8000;1.2861;1.0152;
41.1000;1.2829;1.0126;
41.4000;1.2829;1.0126;
41.7000;1.2853;1.0227;
42.0000;1.2821;1.0278;
42.3000;1.2821;1.0227;
42.6000;1.2837;1.0202;
42.9000;1.2837;1.0278;
43.2000;1.2845;1.0353;
43.5000;1.2829;1.0177;
43.8000;1.2829;1.0126;
44.1000;1.2869;1.0303;
44.4000;1.2837;1.0252;
44.7000;1.2845;1.0252;
45.0000;1.2796;1.0227;
45.3000;1.2837;1.0353;
45.6000;1.2821;1.0353;
45.9000;1.2845;1.0378;
46.2000;1.2837;1.0353;
46.5000;1.2837;1.0328;
46.8000;1.2837;1.0278;
47.1000;1.2829;1.0278;
47.4000;1.2837;1.0278;
47.7000;1.2837;1.0252;
48.0000;1.2829;1.0303;
48.3000;1.2829;1.0454;
48.6000;1.2837;1.0403;
48.9000;1.2845;1.0403;
49.2000;1.2821;1.0278;
49.5000;1.2837;1.0403;
49.8000;1.2829;1.0429;
50.1000;1.2837;1.0353;
50.4000;1.2853;1.0403;
50.7000;1.2837;1.0328;
51.0000;1.2829;1.0353;
51.3000;1.2910;1.0605;
51.6000;1.2804;1.0353;
51.9000;1.2853;1.0454;
52.2000;1.2845;1.0403;
52.5000;1.2837;1.0403;
52.8000;1.2837;1.0378;
53.1000;1.2788;1.0278;
53.4000;1.2837;1.0429;
53.7000;1.2829;1.0378;
54.0000;1.2804;1.0278;
54.3000;1.2845;1.0378;
54.6000;1.2829;1.0303;
54.9000;1.2853;1.0403;
55.2000;1.2845;1.0378;
55.5000;1.2853;1.0378;
55.8000;1.2902;1.0403;
56.1000;1.2845;1.0353;
56.4000;1.2853;1.0378;
56.7000;1.2853;1.0403;
57.0000;1.2861;1.0378;
57.3000;1.2845;1.0278;
57.6000;1.2853;1.0328;
57.9000;1.2869;1.0328;
58.2000;1.2861;1.0278;
58.5000;1.2861;1.0278;
58.8000;1.2853;1.0252;
59.1000;1.2853;1.0278;
59.4000;1.2861;1.0378;
59.7000;1.2821;1.0403;
60.0000;1.2829;1.0403;
60.3000;1.2845;1.0454;
60.6000;1.2918;1.0681;
60.9000;1.2845;1.0403;
61.2000;1.2853;1.0378;
61.5000;1.2837;1.0378;
61.8000;1.2853;1.0353;
62.1000;1.2845;1.0454;
62.4000;1.2837;1.0378;
62.7000;1.2845;1.0479;
63.0000;1.2845;1.0605;
63.3000;1.2829;1.0529;
63.6000;1.2845;1.0555;
63.9000;1.2837;1.0403;
64.2000;1.2829;1.0353;
64.5000;1.2845;1.0353;
64.8000;1.2853;1.0403;
65.1000;1.2853;1.0479;
65.4000;1.2845;1.0504;
65.7000;1.2853;1.0479;
66.0000;1.2837;1.0529;
66.3000;1.2829;1.0529;
66.6000;1.2853;1.0479;
66.9000;1.2845;1.0504;
67.2000;1.2853;1.0529;
67.5000;1.2845;1.0378;
67.8000;1.2845;1.0429;
68.1000;1.2853;1.0479;
68.4000;1.2780;1.0328;
68.7000;1.2845;1.0378;
69.0000;1.2837;1.0353;
69.3000;1.2845;1.0328;
69.6000;1.2837;1.0303;
69.9000;1.2845;1.0378;
70.2000;1.2853;1.0403;
70.5000;1.2869;1.0454;
70.8000;1.2877;1.0479;
71.1000;1.2845;1.0479;
71.4000;1.2861;1.0529;
71.7000;1.2821;1.0454;
72.0000;1.2877;1.0504;
72.3000;1.2853;1.0479;
72.6000;1.2853;1.0403;
72.9000;1.2869;1.0454;
73.2000;1.2853;1.0504;
73.5000;1.2861;1.0504;
73.8000;1.2853;1.0454;
74.1000;1.2853;1.0378;
74.4000;1.2837;1.0403;
74.7000;1.2796;1.0278;
75.0000;1.2845;1.0378;
75.3000;1.2837;1.0278;
75.6000;1.2837;1.0328;
75.9000;1.2861;1.0328;
76.2000;1.2877;1.0303;
76.5000;1.2861;1.0227;
76.8000;1.2877;1.0303;
77.1000;1.2918;1.0328;
77.4000;1.2837;1.0152;
77.7000;1.2853;1.0152;
78.0000;1.2861;1.0126;
78.3000;1.2877;1.0101;
78.6000;1.2861;1.0177;
78.9000;1.2837;1.0126;
79.2000;1.2845;1.0202;
79.5000;1.2853;1.0126;
79.8000;1.2861;1.0227;
80.1000;1.2853;1.0202;
80.4000;1.2829;1.0227;
80.7000;1.2861;1.0227;
81.0000;1.2853;1.0227;
81.3000;1.2861;1.0177;
81.6000;1.2861;1.0278;
81.9000;1.2869;1.0328;
82.2000;1.2853;1.0278;
82.5000;1.2861;1.0252;
82.8000;1.2877;1.0278;
83.1000;1.2869;1.0227;
83.4000;1.2845;1.0252;
83.7000;1.2853;1.0403;
84.0000;1.2845;1.0378;
84.3000;1.2772;1.0076;
84.6000;1.2845;1.0227;
84.9000;1.2861;1.0227;
85.2000;1.2861;1.0303;
85.5000;1.2853;1.0252;
85.8000;1.2837;1.0152;
86.1000;1.2861;1.0227;
86.4000;1.2861;1.0328;
86.7000;1.2845;1.0303;
87.0000;1.2853;1.0454;
87.3000;1.2869;1.0479;
87.6000;1.2804;1.0328;
87.9000;1.2837;1.0403;
88.2000;1.2812;1.0328;
88.5000;1.2853;1.0353;
88.8000;1.2869;1.0278;
89.1000;1.2845;1.0278;
89.4000;1.2837;1.0278;
89.7000;1.2845;1.0278;
90.0000;1.2926;1.0454;
90.3000;1.2804;1.0202;
90.6000;1.2796;1.0252;
90.9000;1.2829;1.0353;
91.2000;1.2845;1.0403;
91.5000;1.2845;1.0429;
91.8000;1.2853;1.0479;
92.1000;1.2845;1.0529;
92.4000;1.2959;1.0706;
92.7000;1.2821;1.0378;
93.0000;1.2853;1.0403;
93.3000;1.2853;1.0353;
93.6000;1.2861;1.0353;
93.9000;1.2853;1.0328;
94.2000;1.2861;1.0252;
94.5000;1.2845;1.0227;
94.8000;1.2853;1.0227;
95.1000;1.2845;1.0177;
95.4000;1.2861;1.0126;
95.7000;1.2845;1.0177;
96.0000;1.2837;1.0152;
96.3000;1.2861;1.0152;
96.6000;1.2845;1.0177;
96.9000;1.2845;1.0152;
97.2000;1.2894;1.0252;
97.5000;1.2861;1.0202;
97.8000;1.2845;1.0202;
98.1000;1.2861;1.0126;
98.4000;1.2853;1.0202;
98.7000;1.2845;1.0202;
99.0000;1.2861;1.0252;
99.3000;1.2853;1.0227;
99.6000;1.2869;1.0278;
99.9000;1.2861;1.0227;
100.2000;1.2877;1.0252;
100.5000;1.2861;1.0303;
100.8000;1.2853;1.0278;
101.1000;1.2861;1.0278;
101.4000;1.2853;1.0278;
101.7000;1.2877;1.0278;
102.0000;1.2886;1.0278;
102.3000;1.2861;1.0227;
102.6000;1.2853;1.0252;
102.9000;1.2853;1.0252;
103.2000;1.2853;1.0278;
103.5000;1.2845;1.0278;
103.8000;1.2869;1.0353;
104.1000;1.2861;1.0353;
104.4000;1.2869;1.0403;
104.7000;1.2861;1.0303;
105.0000;1.2845;1.0353;
105.3000;1.2853;1.0353;
105.6000;1.2861;1.0328;
105.9000;1.2869;1.0403;
106.2000;1.2861;1.0378;
106.5000;1.2910;1.0504;
106.8000;1.2853;1.0353;
107.1000;1.2829;1.0278;
107.4000;1.2853;1.0303;
107.7000;1.2869;1.0378;
108.0000;1.2845;1.0378;
108.3000;1.2812;1.0278;
108.6000;1.2821;1.0353;
108.9000;1.2877;1.0454;
109.2000;1.2926;1.0630;
109.5000;1.2845;1.0378;
109.8000;1.2886;1.0529;
110.1000;1.2853;1.0403;
110.4000;1.2812;1.0328;
110.7000;1.2861;1.0403;
111.0000;1.2829;1.0328;
111.3000;1.2845;1.0429;
111.6000;1.2821;1.0429;
111.9000;1.2853;1.0479;
112.2000;1.2845;1.0454;
112.5000;1.2837;1.0328;
112.8000;1.2845;1.0403;
113.1000;1.2845;1.0454;
113.4000;1.2804;1.0303;
113.7000;1.2780;1.0227;
114.0000;1.2853;1.0403;
114.3000;1.2861;1.0403;
114.6000;1.2853;1.0403;
114.9000;1.2861;1.0429;
115.2000;1.2869;1.0504;
115.5000;1.2934;1.0655;
115.8000;1.2853;1.0555;
116.1000;1.2845;1.0529;
116.4000;1.2845;1.0378;
116.7000;1.2853;1.0454;
117.0000;1.2853;1.0429;
117.3000;1.2861;1.0429;
117.6000;1.2837;1.0378;
117.9000;1.2853;1.0403;
118.2000;1.2869;1.0454;
118.5000;1.2829;1.0303;
118.8000;1.2829;1.0227;
119.1000;1.2853;1.0303;
119.4000;1.2853;1.0328;
119.7000;1.2861;1.0403;
120.0000;1.2845;1.0454;
120.3000;1.2837;1.0454;
120.6000;1.2861;1.0429;
120.9000;1.2845;1.0429;
121.2000;1.2829;1.0378;
121.5000;1.2837;1.0378;
121.8000;1.2853;1.0454;
122.1000;1.2845;1.0378;
122.4000;1.2845;1.0378;
122.7000;1.2837;1.0353;
123.0000;1.2845;1.0328;
123.3000;1.2861;1.0479;
123.6000;1.2837;1.0353;
123.9000;1.2845;1.0479;
124.2000;1.2829;1.0454;
124.5000;1.2845;1.0504;
124.8000;1.2845;1.0454;
125.1000;1.2837;1.0429;
125.4000;1.2829;1.0353;
125.7000;1.2837;1.0353;
126.0000;1.2829;1.0328;
126.3000;1.2837;1.0353;
126.6000;1.2837;1.0378;
126.9000;1.2845;1.0328;
127.2000;1.2837;1.0328;
127.5000;1.2804;1.0227;
127.8000;1.2845;1.0378;
128.1000;1.2845;1.0429;
128.4000;1.2853;1.0353;
128.7000;1.2845;1.0353;
129.0000;1.2837;1.0328;
129.3000;1.2821;1.0303;
129.6000;1.2861;1.0278;
129.9000;1.2837;1.0152;
130.2000;1.2837;1.0252;
130.5000;1.2804;1.0152;
130.8000;1.2845;1.0177;
131.1000;1.2853;1.0101;
131.4000;1.2796;0.9975;
131.7000;1.2845;1.0177;
132.0000;1.2837;1.0152;
132.3000;1.2837;1.0202;
132.6000;1.2829;1.0152;
132.9000;1.2837;1.0152;
133.2000;1.2837;1.0126;
133.5000;1.2837;1.0051;
133.8000;1.2837;1.0101;
134.1000;1.2837;1.0076;
134.4000;1.2837;1.0101;
134.7000;1.2845;1.0177;
135.0000;1.2853;1.0202;
135.3000;1.2853;1.0202;
135.6000;1.2869;1.0252;
135.9000;1.2853;1.0227;
136.2000;1.2829;1.0202;
136.5000;1.2821;1.0278;
136.8000;1.2845;1.0353;
137.1000;1.2845;1.0353;
137.4000;1.2821;1.0252;
137.7000;1.2845;1.0328;
138.0000;1.2837;1.0403;
138.3000;1.2861;1.0378;
138.6000;1.2845;1.0328;
138.9000;1.2837;1.0278;
139.2000;1.2869;1.0303;
139.5000;1.2845;1.0202;
139.8000;1.2886;1.0202;
140.1000;1.2845;1.0177;
140.4000;1.2853;1.0303;
140.7000;1.2845;1.0252;
141.0000;1.2837;1.0303;
141.3000;1.2837;1.0303;
141.6000;1.2821;1.0126;
141.9000;1.2845;1.0152;
142.2000;1.2853;1.0227;
142.5000;1.2853;1.0278;
142.8000;1.2845;1.0328;
143.1000;1.2886;1.0378;
143.4000;1.2853;1.0328;
143.7000;1.2812;1.0252;
144.0000;1.2837;1.0328;
144.3000;1.2837;1.0429;
144.6000;1.2821;1.0353;
144.9000;1.2845;1.0328;
145.2000;1.2837;1.0278;
145.5000;1.2829;1.0227;
145.8000;1.2837;1.0177;
146.1000;1.2780;1.0000;
146.4000;1.2845;1.0152;
146.7000;1.2829;1.0126;
147.0000;1.2837;1.0202;
147.3000;1.2853;1.0278;
147.6000;1.2877;1.0328;
147.9000;1.2853;1.0278;
148.2000;1.2853;1.0303;
148.5000;1.2853;1.0303;
148.8000;1.2853;1.0303;
149.1000;1.2837;1.0202;
149.4000;1.2845;1.0202;
149.7000;1.2837;1.0227;
150.0000;1.2853;1.0227;
150.3000;1.2853;1.0126;
150.6000;1.2869;1.0227;
150.9000;1.2837;1.0152;
151.2000;1.2845;1.0126;
151.5000;1.2853;1.0126;
151.8000;1.2837;1.0076;
152.1000;1.2837;1.0000;
152.4000;1.2861;1.0227;
152.7000;1.2829;1.0227;
153.0000;1.2821;1.0252;
153.3000;1.2845;1.0328;
153.6000;1.2837;1.0378;
153.9000;1.2837;1.0328;
154.2000;1.2845;1.0328;
154.5000;1.2845;1.0278;
154.8000;1.2886;1.0252;
155.1000;1.2853;1.0152;
155.4000;1.2886;1.0278;
155.7000;1.2853;1.0202;
156.0000;1.2837;1.0152;
156.3000;1.2861;1.0252;
156.6000;1.2853;1.0278;
156.9000;1.2837;1.0328;
157.2000;1.2853;1.0278;
157.5000;1.2845;1.0227;
157.8000;1.2845;1.0202;
158.1000;1.2861;1.0252;
158.4000;1.2829;1.0152;
158.7000;1.2837;1.0152;
159.0000;1.2804;1.0026;
159.3000;1.2861;1.0126;
159.6000;1.2829;1.0101;
159.9000;1.2861;1.0177;
160.2000;1.2829;1.0252;
160.5000;1.2796;1.0152;
160.8000;1.2821;1.0227;
161.1000;1.2821;1.0278;
161.4000;1.2853;1.0328;
161.7000;1.2837;1.0303;
162.0000;1.2829;1.0227;
162.3000;1.2829;1.0227;
162.6000;1.2837;1.0303;
162.9000;1.2837;1.0378;
163.2000;1.2821;1.0328;
163.5000;1.2829;1.0278;
163.8000;1.2837;1.0227;
164.1000;1.2837;1.0252;
164.4000;1.2837;1.0152;
164.7000;1.2845;1.0202;
165.0000;1.2845;1.0202;
165.3000;1.2845;1.0177;
165.6000;1.2812;1.0026;
165.9000;1.2845;1.0101;
166.2000;1.2804;1.0152;
166.5000;1.2845;1.0303;
166.8000;1.2853;1.0252;
167.1000;1.2788;1.0101;
167.4000;1.2829;1.0227;
167.7000;1.2837;1.0252;
168.0000;1.2837;1.0303;
168.3000;1.2837;1.0328;
168.6000;1.2829;1.0303;
168.9000;1.2837;1.0353;
169.2000;1.2821;1.0303;
169.5000;1.2837;1.0378;
169.8000;1.2829;1.0378;
170.1000;1.2829;1.0353;
170.4000;1.2829;1.0378;
170.7000;1.2821;1.0353;
171.0000;1.2829;1.0378;
171.3000;1.2829;1.0328;
171.6000;1.2837;1.0353;
171.9000;1.2837;1.0378;
172.2000;1.2821;1.0278;
172.5000;1.2821;1.0252;
172.8000;1.2829;1.0303;
173.1000;1.2837;1.0328;
173.4000;1.2853;1.0454;
173.7000;1.2837;1.0454;
174.0000;1.2829;1.0328;
174.3000;1.2829;1.0328;
174.6000;1.2845;1.0353;
174.9000;1.2845;1.0252;
175.2000;1.2845;1.0252;
175.5000;1.2845;1.0202;
175.8000;1.2853;1.0202;
176.1000;1.2829;1.0177;
176.4000;1.2845;1.0278;
176.7000;1.2829;1.0278;
177.0000;1.2829;1.0177;
177.3000;1.2837;1.0152;
177.6000;1.2821;1.0278;
177.9000;1.2853;1.0353;
178.2000;1.2845;1.0353;
178.5000;1.2829;1.0353;
178.8000;1.2837;1.0378;
179.1000;1.2829;1.0353;
179.4000;1.2837;1.0378;
179.7000;1.2837;1.0378;
180.0000;1.2869;1.0403;
180.3000;1.2910;1.0504;
180.6000;1.2837;1.0278;
180.9000;1.2829;1.0353;
181.2000;1.2821;1.0353;
181.5000;1.2829;1.0353;
181.8000;1.2837;1.0328;
182.1000;1.2821;1.0328;
182.4000;1.2829;1.0378;
182.7000;1.2837;1.0454;
183.0000;1.2845;1.0454;
183.3000;1.2837;1.0403;
183.6000;1.2837;1.0378;
183.9000;1.2821;1.0353;
184.2000;1.2829;1.0378;
184.5000;1.2869;1.0454;
184.8000;1.2829;1.0303;
185.1000;1.2821;1.0353;
185.4000;1.2837;1.0479;
185.7000;1.2877;1.0580;
186.0000;1.2764;1.0278;
186.3000;1.2853;1.0504;
186.6000;1.2837;1.0454;
186.9000;1.2853;1.0605;
187.2000;1.2829;1.0555;
187.5000;1.2812;1.0555;
187.8000;1.2821;1.0529;
188.1000;1.2837;1.0504;
188.4000;1.2837;1.0454;
188.7000;1.2829;1.0479;
189.0000;1.2829;1.0328;
189.3000;1.2837;1.0353;
189.6000;1.2821;1.0303;
189.9000;1.2821;1.0303;
190.2000;1.2837;1.0454;
190.5000;1.2845;1.0504;
190.8000;1.2829;1.0403;
191.1000;1.2845;1.0479;
191.4000;1.2829;1.0403;
191.7000;1.2829;1.0454;
192.0000;1.2829;1.0529;
192.3000;1.2837;1.0555;
192.6000;1.2812;1.0479;
192.9000;1.2829;1.0555;
193.2000;1.2804;1.0454;
193.5000;1.2821;1.0555;
193.8000;1.2829;1.0555;
194.1000;1.2829;1.0504;
194.4000;1.2829;1.0504;
194.7000;1.2821;1.0479;
195.0000;1.2812;1.0378;
195.3000;1.2821;1.0429;
195.6000;1.2845;1.0479;
195.9000;1.2837;1.0454;
196.2000;1.2821;1.0353;
196.5000;1.2821;1.0378;
196.8000;1.2829;1.0403;
197.1000;1.2837;1.0328;
197.4000;1.2829;1.0353;
197.7000;1.2829;1.0353;
198.0000;1.2788;1.0278;
198.3000;1.2829;1.0403;
198.6000;1.2837;1.0353;
198.9000;1.2837;1.0403;
199.2000;1.2829;1.0403;
199.5000;1.2829;1.0429;
199.8000;1.2861;1.0555;
200.1000;1.2837;1.0504;
200.4000;1.2853;1.0504;
200.7000;1.2837;1.0429;
201.0000;1.2829;1.0403;
201.3000;1.2829;1.0403;
201.6000;1.2829;1.0328;
201.9000;1.2902;1.0479;
202.2000;1.2837;1.0378;
202.5000;1.2829;1.0353;
202.8000;1.2812;1.0303;
203.1000;1.2812;1.0353;
203.4000;1.2837;1.0378;
203.7000;1.2812;1.0328;
204.0000;1.2829;1.0429;
204.3000;1.2804;1.0278;
204.6000;1.2853;1.0429;
204.9000;1.2829;1.0504;
205.2000;1.2821;1.0529;
205.5000;1.2861;1.0605;
205.8000;1.2829;1.0580;
206.1000;1.2837;1.0555;
206.4000;1.2845;1.0529;
206.7000;1.2821;1.0529;
207.0000;1.2821;1.0529;
207.3000;1.2821;1.0580;
207.6000;1.2804;1.0580;
207.9000;1.2812;1.0630;
208.2000;1.2804;1.0529;
208.5000;1.2845;1.0555;
208.8000;1.2829;1.0504;
209.1000;1.2812;1.0479;
209.4000;1.2821;1.0504;
209.7000;1.2821;1.0479;
210.0000;1.2845;1.0580;
210.3000;1.2837;1.0580;
210.6000;1.2821;1.0555;
210.9000;1.2829;1.0529;
211.2000;1.2829;1.0605;
211.5000;1.2821;1.0504;
211.8000;1.2821;1.0403;
212.1000;1.2812;1.0403;
212.4000;1.2821;1.0454;
212.7000;1.2821;1.0378;
213.0000;1.2804;1.0328;
213.3000;1.2829;1.0429;
213.6000;1.2821;1.0378;
213.9000;1.2853;1.0479;
214.2000;1.2821;1.0378;
214.5000;1.2804;1.0403;
214.8000;1.2804;1.0403;
215.1000;1.2829;1.0454;
215.4000;1.2821;1.0479;
215.7000;1.2837;1.0529;
216.0000;1.2796;1.0429;
216.3000;1.2829;1.0479;
216.6000;1.2780;1.0454;
216.9000;1.2829;1.0454;
217.2000;1.2804;1.0403;
217.5000;1.2829;1.0504;
217.8000;1.2829;1.0529;
218.1000;1.2796;1.0580;
218.4000;1.2804;1.0529;
218.7000;1.2829;1.0605;
219.0000;1.2821;1.0454;
219.3000;1.2829;1.0378;
219.6000;1.2804;1.0454;
219.9000;1.2812;1.0529;
220.2000;1.2886;1.0756;
220.5000;1.2821;1.0605;
220.8000;1.2853;1.0706;
221.1000;1.2821;1.0605;
221.4000;1.2837;1.0655;
221.7000;1.2812;1.0529;
222.0000;1.2845;1.0580;
222.3000;1.2804;1.0529;
222.6000;1.2821;1.0504;
222.9000;1.2845;1.0605;
223.2000;1.2812;1.0630;
223.5000;1.2829;1.0731;
223.8000;1.2853;1.0907;
224.1000;1.2821;1.0857;
224.4000;1.2812;1.0807;
224.7000;1.2821;1.0706;
225.0000;1.2829;1.0731;
225.3000;1.2821;1.0731;
225.6000;1.2812;1.0807;
225.9000;1.2821;1.0756;
226.2000;1.2821;1.0832;
226.5000;1.2829;1.0807;
226.8000;1.2837;1.0807;
227.1000;1.2845;1.0807;
227.4000;1.2853;1.0882;
227.7000;1.2804;1.0781;
228.0000;1.2796;1.0807;
228.3000;1.2869;1.1008;
228.6000;1.2821;1.0907;
228.9000;1.2812;1.0857;
229.2000;1.2829;1.0857;
229.5000;1.2853;1.0832;
229.8000;1.2812;1.0681;
230.1000;1.2829;1.0731;
230.4000;1.2821;1.0706;
230.7000;1.2821;1.0807;
231.0000;1.2821;1.0756;
231.3000;1.2853;1.0857;
231.6000;1.2821;1.0706;
231.9000;1.2812;1.0731;
232.2000;1.2812;1.0756;
232.5000;1.2829;1.0857;
232.8000;1.2869;1.0882;
233.1000;1.2837;1.0706;
233.4000;1.2821;1.0630;
233.7000;1.2812;1.0529;
234.0000;1.2845;1.0555;
234.3000;1.2837;1.0555;
234.6000;1.2837;1.0529;
234.9000;1.2829;1.0580;
235.2000;1.2829;1.0605;
235.5000;1.2837;1.0681;
235.8000;1.2812;1.0605;
236.1000;1.2812;1.0605;
236.4000;1.2821;1.0605;
236.7000;1.2845;1.0781;
237.0000;1.2829;1.0781;
237.3000;1.2796;1.0681;
237.6000;1.2821;1.0781;
237.9000;1.2812;1.0731;
238.2000;1.2804;1.0756;
238.5000;1.2780;1.0731;
238.8000;1.2804;1.0630;
239.1000;1.2804;1.0580;
239.4000;1.2829;1.0706;
239.7000;1.2829;1.0706;
240.0000;1.2821;1.0731;
240.3000;1.2821;1.0756;
240.6000;1.2829;1.0756;
240.9000;1.2821;1.0781;
241.2000;1.2812;1.0681;
241.5000;1.2812;1.0681;
241.8000;1.2821;1.0681;
242.1000;1.2829;1.0706;
242.4000;1.2821;1.0781;
242.7000;1.2812;1.0756;
243.0000;1.2829;1.0655;
243.3000;1.2812;1.0655;
243.6000;1.2829;1.0681;
243.9000;1.2812;1.0681;
244.2000;1.2788;1.0655;
244.5000;1.2821;1.0731;
244.8000;1.2796;1.0706;
245.1000;1.2812;1.0630;
245.4000;1.2812;1.0555;
245.7000;1.2821;1.0580;
246.0000;1.2829;1.0504;
246.3000;1.2829;1.0504;
246.6000;1.2829;1.0454;
246.9000;1.2829;1.0479;
247.2000;1.2812;1.0555;
247.5000;1.2812;1.0479;
247.8000;1.2812;1.0529;
248.1000;1.2821;1.0555;
248.4000;1.2804;1.0529;
248.7000;1.2804;1.0605;
249.0000;1.2804;1.0605;
249.3000;1.2804;1.0605;
249.6000;1.2845;1.0756;
249.9000;1.2804;1.0681;
250.2000;1.2829;1.0781;
250.5000;1.2812;1.0756;
250.8000;1.2821;1.0756;
251.1000;1.2812;1.0706;
251.4000;1.2796;1.0605;
251.7000;1.2804;1.0630;
252.0000;1.2796;1.0580;
252.3000;1.2804;1.0529;
252.6000;1.2821;1.0555;
252.9000;1.2821;1.0681;
253.2000;1.2821;1.0555;
253.5000;1.2829;1.0630;
253.8000;1.2796;1.0555;
254.1000;1.2804;1.0605;
254.4000;1.2788;1.0655;
254.7000;1.2812;1.0706;
255.0000;1.2821;1.0655;
255.3000;1.2812;1.0605;
255.6000;1.2796;1.0605;
255.9000;1.2829;1.0681;
256.2000;1.2821;1.0605;
256.5000;1.2772;1.0605;
256.8000;1.2821;1.0681;
257.1000;1.2812;1.0605;
257.4000;1.2821;1.0630;
257.7000;1.2804;1.0605;
258.0000;1.2796;1.0630;
258.3000;1.2812;1.0706;
258.6000;1.2829;1.0807;
258.9000;1.2788;1.0832;
259.2000;1.2796;1.0907;
259.5000;1.2796;1.0857;
259.8000;1.2845;1.0958;
260.1000;1.2812;1.0882;
260.4000;1.2821;1.0807;
260.7000;1.2829;1.0882;
261.0000;1.2821;1.0932;
261.3000;1.2845;1.0983;
261.6000;1.2829;1.0983;
261.9000;1.2821;1.0932;
262.2000;1.2812;1.0857;
262.5000;1.2788;1.0756;
262.8000;1.2804;1.0706;
263.1000;1.2861;1.0832;
263.4000;1.2804;1.0706;
263.7000;1.2804;1.0655;
264.0000;1.2780;1.0529;
264.3000;1.2796;1.0529;
264.6000;1.2804;1.0580;
264.9000;1.2804;1.0605;
265.2000;1.2812;1.0580;
265.5000;1.2796;1.0504;
265.8000;1.2796;1.0555;
266.1000;1.2812;1.0605;
266.4000;1.2812;1.0630;
266.7000;1.2804;1.0529;
267.0000;1.2812;1.0504;
267.3000;1.2829;1.0605;
267.6000;1.2821;1.0504;
267.9000;1.2821;1.0429;
268.2000;1.2804;1.0479;
268.5000;1.2804;1.0580;
268.8000;1.2812;1.0580;
269.1000;1.2788;1.0605;
269.4000;1.2861;1.0731;
269.7000;1.2829;1.0605;
270.0000;1.2821;1.0655;
270.3000;1.2812;1.0605;
270.6000;1.2804;1.0580;
270.9000;1.2812;1.0555;
271.2000;1.2829;1.0605;
271.5000;1.2821;1.0529;
271.8000;1.2804;1.0454;
272.1000;1.2812;1.0429;
272.4000;1.2837;1.0529;
272.7000;1.2812;1.0504;
273.0000;1.2812;1.0504;
273.3000;1.2812;1.0479;
273.6000;1.2812;1.0454;
273.9000;1.2821;1.0479;
274.2000;1.2812;1.0479;
274.5000;1.2796;1.0479;
274.8000;1.2812;1.0504;
275.1000;1.2821;1.0605;
275.4000;1.2812;1.0655;
275.7000;1.2812;1.0731;
276.0000;1.2821;1.0807;
276.3000;1.2804;1.0781;
276.6000;1.2804;1.0630;
276.9000;1.2804;1.0681;
277.2000;1.2812;1.0756;
277.5000;1.2804;1.0706;
277.8000;1.2812;1.0681;
278.1000;1.2780;1.0529;
278.4000;1.2796;1.0504;
278.7000;1.2804;1.0504;
279.0000;1.2788;1.0479;
279.3000;1.2812;1.0529;
279.6000;1.2788;1.0504;
279.9000;1.2796;1.0529;
280.2000;1.2796;1.0555;
280.5000;1.2772;1.0378;
280.8000;1.2796;1.0353;
281.1000;1.2796;1.0328;
281.4000;1.2804;1.0278;
281.7000;1.2853;1.0353;
282.0000;1.2796;1.0303;
282.3000;1.2804;1.0378;
282.6000;1.2804;1.0378;
282.9000;1.2796;1.0353;
283.2000;1.2788;1.0378;
283.5000;1.2780;1.0454;
283.8000;1.2796;1.0504;
284.1000;1.2812;1.0479;
284.4000;1.2796;1.0429;
284.7000;1.2780;1.0353;
285.0000;1.2796;1.0303;
285.3000;1.2747;1.0076;
285.6000;1.2772;1.0177;
285.9000;1.2788;1.0303;
286.2000;1.2812;1.0303;
286.5000;1.2821;1.0303;
286.8000;1.2829;1.0303;
287.1000;1.2877;1.0454;
287.4000;1.2812;1.0303;
287.7000;1.2821;1.0303;
288.0000;1.2812;1.0378;
288.3000;1.2747;1.0227;
288.6000;1.2804;1.0353;
288.9000;1.2804;1.0353;
289.2000;1.2804;1.0328;
289.5000;1.2812;1.0353;
289.8000;1.2796;1.0378;
290.1000;1.2804;1.0378;
290.4000;1.2894;1.0555;
290.7000;1.2788;1.0454;
291.0000;1.2804;1.0479;
291.3000;1.2804;1.0454;
291.6000;1.2804;1.0429;
291.9000;1.2804;1.0378;
292.2000;1.2796;1.0454;
292.5000;1.2788;1.0429;
292.8000;1.2821;1.0555;
293.1000;1.2796;1.0605;
293.4000;1.2804;1.0605;
293.7000;1.2788;1.0529;
294.0000;1.2804;1.0580;
294.3000;1.2788;1.0504;
294.6000;1.2837;1.0655;
294.9000;1.2788;1.0504;
295.2000;1.2788;1.0479;
295.5000;1.2796;1.0479;
295.8000;1.2788;1.0479;
296.1000;1.2764;1.0353;
296.4000;1.2853;1.0630;
296.7000;1.2821;1.0504;
297.0000;1.2804;1.0504;
297.3000;1.2764;1.0429;
297.6000;1.2804;1.0479;
297.9000;1.2812;1.0328;
298.2000;1.2796;1.0278;
298.5000;1.2821;1.0278;
298.8000;1.2804;1.0353;
299.1000;1.2796;1.0328;
299.4000;1.2788;1.0152;
299.7000;1.2755;1.0152;
300.0000;1.2796;1.0227;
300.3000;1.2796;1.0328;
300.6000;1.2796;1.0303;
300.9000;1.2804;1.0353;
301.2000;1.2804;1.0504;
301.5000;1.2804;1.0529;
301.8000;1.2821;1.0630;
302.1000;1.2812;1.0580;
302.4000;1.2821;1.0630;
302.7000;1.2739;1.0454;
303.0000;1.2821;1.0529;
303.3000;1.2812;1.0504;
303.6000;1.2821;1.0504;
303.9000;1.2829;1.0479;
304.2000;1.2804;1.0580;
304.5000;1.2723;1.0353;
304.8000;1.2780;1.0529;
305.1000;1.2796;1.0580;
305.4000;1.2812;1.0580;
305.7000;1.2812;1.0605;
306.0000;1.2796;1.0504;
306.3000;1.2796;1.0454;
306.6000;1.2804;1.0529;
306.9000;1.2812;1.0479;
307.2000;1.2812;1.0454;
307.5000;1.2812;1.0479;
307.8000;1.2821;1.0630;
308.1000;1.2796;1.0681;
308.4000;1.2821;1.0681;
308.7000;1.2812;1.0655;
309.0000;1.2796;1.0580;
309.3000;1.2796;1.0605;
309.6000;1.2764;1.0479;
309.9000;1.2796;1.0479;
310.2000;1.2804;1.0504;
310.5000;1.2812;1.0580;
310.8000;1.2804;1.0529;
311.1000;1.2788;1.0504;
311.4000;1.2780;1.0479;
311.7000;1.2772;1.0378;
312.0000;1.2894;1.0731;
312.3000;1.2821;1.0605;
312.6000;1.2804;1.0630;
312.9000;1.2804;1.0655;
313.2000;1.2821;1.0630;
313.5000;1.2812;1.0630;
313.8000;1.2780;1.0529;
314.1000;1.2796;1.0529;
314.4000;1.2821;1.0605;
314.7000;1.2804;1.0605;
315.0000;1.2788;1.0580;
315.3000;1.2788;1.0580;
315.6000;1.2804;1.0580;
315.9000;1.2796;1.0529;
316.2000;1.2747;1.0454;
316.5000;1.2821;1.0580;
316.8000;1.2812;1.0555;
317.1000;1.2796;1.0504;
317.4000;1.2804;1.0630;
317.7000;1.2804;1.0630;
318.0000;1.2796;1.0706;
318.3000;1.2804;1.0681;
318.6000;1.2861;1.0756;
318.9000;1.2829;1.0580;
319.2000;1.2788;1.0454;
319.5000;1.2796;1.0580;
319.8000;1.2788;1.0529;
320.1000;1.2812;1.0731;
320.4000;1.2715;1.0580;
320.7000;1.2796;1.0706;
321.0000;1.2804;1.0655;
321.3000;1.2764;1.0580;
321.6000;1.2731;1.0429;
321.9000;1.2788;1.0504;
322.2000;1.2796;1.0555;
322.5000;1.2804;1.0504;
322.8000;1.2804;1.0529;
323.1000;1.2780;1.0555;
323.4000;1.2796;1.0580;
323.7000;1.2788;1.0555;
324.0000;1.2796;1.0630;
324.3000;1.2796;1.0605;
324.6000;1.2796;1.0655;
324.9000;1.2812;1.0681;
325.2000;1.2804;1.0681;
325.5000;1.2796;1.0655;
325.8000;1.2812;1.0580;
326.1000;1.2796;1.0529;
326.4000;1.2804;1.0454;
326.7000;1.2788;1.0353;
327.0000;1.2804;1.0378;
327.3000;1.2804;1.0429;
327.6000;1.2796;1.0429;
327.9000;1.2788;1.0429;
328.2000;1.2788;1.0429;
328.5000;1.2853;1.0555;
328.8000;1.2788;1.0403;
329.1000;1.2780;1.0353;
329.4000;1.2796;1.0378;
329.7000;1.2788;1.0378;
330.0000;1.2788;1.0479;
330.3000;1.2788;1.0429;
330.6000;1.2788;1.0403;
330.9000;1.2845;1.0605;
331.2000;1.2812;1.0580;
331.5000;1.2796;1.0504;
331.8000;1.2780;1.0529;
332.1000;1.2796;1.0529;
332.4000;1.2780;1.0555;
332.7000;1.2796;1.0630;
333.0000;1.2796;1.0655;
333.3000;1.2812;1.0630;
333.6000;1.2788;1.0580;
333.9000;1.2804;1.0605;
334.2000;1.2853;1.0630;
334.5000;1.2764;1.0454;
334.8000;1.2780;1.0529;
335.1000;1.2796;1.0529;
335.4000;1.2788;1.0403;
335.7000;1.2796;1.0403;
336.0000;1.2796;1.0378;
336.3000;1.2764;1.0403;
336.6000;1.2739;1.0353;
336.9000;1.2788;1.0605;
337.2000;1.2796;1.0504;
337.5000;1.2723;1.0378;
337.8000;1.2796;1.0454;
338.1000;1.2804;1.0479;
338.4000;1.2796;1.0454;
338.7000;1.2796;1.0479;
339.0000;1.2796;1.0429;
339.3000;1.2812;1.0479;
339.6000;1.2796;1.0454;
339.9000;1.2796;1.0504;
340.2000;1.2804;1.0555;
340.5000;1.2780;1.0529;
340.8000;1.2780;1.0454;
341.1000;1.2780;1.0504;
341.4000;1.2812;1.0580;
341.7000;1.2772;1.0504;
342.0000;1.2861;1.0580;
342.3000;1.2780;1.0479;
342.6000;1.2804;1.0454;
342.9000;1.2788;1.0378;
343.2000;1.2755;1.0378;
343.5000;1.2796;1.0504;
343.8000;1.2821;1.0630;
344.1000;1.2804;1.0681;
344.4000;1.2804;1.0630;
344.7000;1.2780;1.0580;
345.0000;1.2780;1.0655;
345.3000;1.2796;1.0605;
345.6000;1.2780;1.0605;
345.9000;1.2772;1.0529;
346.2000;1.2788;1.0479;
346.5000;1.2821;1.0605;
346.8000;1.2804;1.0529;
347.1000;1.2804;1.0529;
347.4000;1.2780;1.0529;
347.7000;1.2829;1.0681;
348.0000;1.2796;1.0605;
348.3000;1.2780;1.0580;
348.6000;1.2796;1.0681;
348.9000;1.2788;1.0630;
349.2000;1.2780;1.0630;
349.5000;1.2788;1.0605;
349.8000;1.2780;1.0681;
350.1000;1.2780;1.0655;
350.4000;1.2780;1.0630;
350.7000;1.2780;1.0706;
351.0000;1.2788;1.0706;
351.3000;1.2780;1.0731;
351.6000;1.2788;1.0605;
351.9000;1.2788;1.0580;
352.2000;1.2796;1.0630;
352.5000;1.2764;1.0605;
352.8000;1.2804;1.0706;
353.1000;1.2772;1.0630;
353.4000;1.2780;1.0756;
353.7000;1.2796;1.0731;
354.0000;1.2788;1.0706;
354.3000;1.2788;1.0605;
354.6000;1.2788;1.0605;
354.9000;1.2780;1.0630;
355.2000;1.2788;1.0655;
355.5000;1.2788;1.0655;
355.8000;1.2755;1.0630;
356.1000;1.2788;1.0630;
356.4000;1.2837;1.0731;
356.7000;1.2780;1.0529;
357.0000;1.2804;1.0555;
357.3000;1.2845;1.0706;
357.6000;1.2780;1.0529;
357.9000;1.2804;1.0504;
358.2000;1.2796;1.0454;
358.5000;1.2788;1.0479;
358.8000;1.2788;1.0429;
359.1000;1.2804;1.0580;
359.4000;1.2780;1.0504;
359.7000;1.2788;1.0529;
360.0000;1.2780;1.0529;
360.3000;1.2829;1.0580;
360.6000;1.2772;1.0529;
360.9000;1.2772;1.0529;
361.2000;1.2780;1.0429;
361.5000;1.2772;1.0429;
361.8000;1.2788;1.0479;
362.1000;1.2780;1.0429;
362.4000;1.2804;1.0454;
362.7000;1.2772;1.0454;
363.0000;1.2780;1.0353;
363.3000;1.2780;1.0353;
363.6000;1.2788;1.0353;
363.9000;1.2780;1.0252;
364.2000;1.2796;1.0227;
364.5000;1.2804;1.0252;
364.8000;1.2804;1.0303;
365.1000;1.2788;1.0353;
365.4000;1.2788;1.0479;
365.7000;1.2796;1.0454;
366.0000;1.2796;1.0403;
366.3000;1.2764;1.0403;
366.6000;1.2796;1.0479;
366.9000;1.2788;1.0555;
367.2000;1.2780;1.0504;
367.5000;1.2772;1.0479;
367.8000;1.2804;1.0529;
368.1000;1.2804;1.0605;
368.4000;1.2796;1.0555;
368.7000;1.2788;1.0504;
369.0000;1.2788;1.0555;
369.3000;1.2796;1.0529;
369.6000;1.2796;1.0555;
369.9000;1.2780;1.0504;
370.2000;1.2772;1.0504;
370.5000;1.2788;1.0605;
370.8000;1.2788;1.0655;
371.1000;1.2772;1.0605;
371.4000;1.2780;1.0580;
371.7000;1.2796;1.0681;
372.0000;1.2796;1.0655;
372.3000;1.2796;1.0681;
372.6000;1.2739;1.0555;
372.9000;1.2780;1.0655;
373.2000;1.2788;1.0655;
373.5000;1.2780;1.0681;
373.8000;1.2780;1.0580;
374.1000;1.2788;1.0630;
374.4000;1.2796;1.0681;
374.7000;1.2772;1.0555;
375.0000;1.2764;1.0529;
375.3000;1.2796;1.0630;
375.6000;1.2780;1.0605;
375.9000;1.2796;1.0605;
376.2000;1.2764;1.0479;
376.5000;1.2772;1.0479;
376.8000;1.2804;1.0529;
377.1000;1.2796;1.0479;
377.4000;1.2772;1.0479;
377.7000;1.2780;1.0479;
378.0000;1.2788;1.0504;
378.3000;1.2812;1.0580;
378.6000;1.2788;1.0529;
378.9000;1.2780;1.0529;
379.2000;1.2755;1.0378;
379.5000;1.2788;1.0479;
379.8000;1.2845;1.0655;
380.1000;1.2796;1.0504;
380.4000;1.2772;1.0403;
380.7000;1.2796;1.0403;
381.0000;1.2788;1.0353;
381.3000;1.2829;1.0429;
381.6000;1.2780;1.0403;
381.9000;1.2804;1.0555;
382.2000;1.2788;1.0555;
382.5000;1.2804;1.0681;
382.8000;1.2764;1.0681;
383.1000;1.2780;1.0630;
383.4000;1.2780;1.0630;
383.7000;1.2845;1.0781;
384.0000;1.2780;1.0580;
384.3000;1.2780;1.0555;
384.6000;1.2772;1.0504;
384.9000;1.2780;1.0504;
385.2000;1.2780;1.0529;
385.5000;1.2788;1.0605;
385.8000;1.2772;1.0605;
386.1000;1.2780;1.0580;
386.4000;1.2755;1.0605;
386.7000;1.2764;1.0681;
387.0000;1.2772;1.0756;
387.3000;1.2780;1.0731;
387.6000;1.2780;1.0706;
387.9000;1.2772;1.0630;
388.2000;1.2772;1.0681;
388.5000;1.2796;1.0731;
388.8000;1.2788;1.0605;
389.1000;1.2780;1.0630;
389.4000;1.2780;1.0529;
389.7000;1.2772;1.0529;
390.0000;1.2804;1.0555;
390.3000;1.2780;1.0580;
390.6000;1.2796;1.0580;
390.9000;1.2788;1.0580;
391.2000;1.2796;1.0605;
391.5000;1.2796;1.0630;
391.8000;1.2764;1.0479;
392.1000;1.2796;1.0529;
392.4000;1.2788;1.0504;
392.7000;1.2780;1.0454;
393.0000;1.2772;1.0403;
393.3000;1.2796;1.0429;
393.6000;1.2780;1.0378;
393.9000;1.2796;1.0504;
394.2000;1.2780;1.0479;
394.5000;1.2772;1.0429;
394.8000;1.2788;1.0454;
395.1000;1.2780;1.0529;
395.4000;1.2788;1.0580;
395.7000;1.2788;1.0555;
396.0000;1.2788;1.0504;
396.3000;1.2788;1.0504;
396.6000;1.2755;1.0454;
396.9000;1.2764;1.0454;
397.2000;1.2772;1.0403;
397.5000;1.2780;1.0429;
397.8000;1.2788;1.0353;
398.1000;1.2804;1.0403;
398.4000;1.2788;1.0328;
398.7000;1.2780;1.0303;
399.0000;1.2755;1.0202;
399.3000;1.2804;1.0378;
399.6000;1.2796;1.0328;
399.9000;1.2788;1.0252;
400.2000;1.2796;1.0303;
400.5000;1.2780;1.0278;
400.8000;1.2788;1.0303;
401.1000;1.2788;1.0353;
401.4000;1.2788;1.0479;
401.7000;1.2772;1.0504;
402.0000;1.2780;1.0580;
402.3000;1.2755;1.0630;
402.6000;1.2788;1.0655;
402.9000;1.2796;1.0605;
403.2000;1.2772;1.0479;
403.5000;1.2772;1.0353;
403.8000;1.2755;1.0303;
404.1000;1.2796;1.0378;
404.4000;1.2772;1.0353;
404.7000;1.2772;1.0454;
405.0000;1.2804;1.0504;
405.3000;1.2804;1.0580;
405.6000;1.2796;1.0605;
405.9000;1.2780;1.0529;
406.2000;1.2780;1.0529;
406.5000;1.2788;1.0555;
406.8000;1.2747;1.0378;
407.1000;1.2780;1.0278;
407.4000;1.2780;1.0252;
407.7000;1.2796;1.0328;
408.0000;1.2780;1.0278;
408.3000;1.2780;1.0278;
408.6000;1.2788;1.0278;
408.9000;1.2796;1.0252;
409.2000;1.2788;1.0252;
409.5000;1.2788;1.0252;
409.8000;1.2764;1.0177;
410.1000;1.2796;1.0303;
410.4000;1.2796;1.0252;
410.7000;1.2780;1.0126;
411.0000;1.2788;1.0152;
411.3000;1.2796;1.0152;
411.6000;1.2796;1.0202;
411.9000;1.2780;1.0227;
412.2000;1.2804;1.0278;
412.5000;1.2796;1.0227;
412.8000;1.2772;1.0227;
413.1000;1.2772;1.0202;
413.4000;1.2780;1.0202;
413.7000;1.2780;1.0227;
414.0000;1.2764;1.0328;
414.3000;1.2788;1.0303;
414.6000;1.2772;1.0202;
414.9000;1.2772;1.0101;
415.2000;1.2772;1.0126;
415.5000;1.2780;1.0303;
415.8000;1.2845;1.0479;
416.1000;1.2772;1.0177;
416.4000;1.2772;1.0177;
416.7000;1.2755;1.0252;
417.0000;1.2788;1.0353;
417.3000;1.2764;1.0303;
417.6000;1.2755;1.0303;
417.9000;1.2747;1.0328;
418.2000;1.2772;1.0328;
418.5000;1.2755;1.0328;
418.8000;1.2747;1.0328;
419.1000;1.2764;1.0403;
419.4000;1.2772;1.0403;
419.7000;1.2788;1.0378;
420.0000;1.2780;1.0328;
420.3000;1.2772;1.0378;
420.6000;1.2739;1.0328;
420.9000;1.2723;1.0278;
421.2000;1.2772;1.0454;
421.5000;1.2772;1.0429;
421.8000;1.2796;1.0529;
422.1000;1.2780;1.0479;
422.4000;1.2764;1.0353;
422.7000;1.2772;1.0278;
423.0000;1.2780;1.0328;
423.3000;1.2780;1.0353;
423.6000;1.2772;1.0454;
423.9000;1.2772;1.0605;
424.2000;1.2780;1.0605;
424.5000;1.2780;1.0655;
424.8000;1.2772;1.0655;
425.1000;1.2772;1.0605;
425.4000;1.2772;1.0580;
425.7000;1.2780;1.0630;
426.0000;1.2772;1.0681;
426.3000;1.2764;1.0655;
426.6000;1.2780;1.0681;
426.9000;1.2780;1.0605;
427.2000;1.2796;1.0605;
427.5000;1.2772;1.0580;
427.8000;1.2804;1.0706;
428.1000;1.2780;1.0580;
428.4000;1.2739;1.0454;
428.7000;1.2747;1.0429;
429.0000;1.2747;1.0429;
429.3000;1.2853;1.0655;
429.6000;1.2780;1.0378;
429.9000;1.2764;1.0429;
430.2000;1.2772;1.0479;
430.5000;1.2780;1.0555;
430.8000;1.2788;1.0555;
431.1000;1.2780;1.0529;
431.4000;1.2772;1.0630;
431.7000;1.2780;1.0630;
432.0000;1.2772;1.0504;
432.3000;1.2772;1.0529;
432.6000;1.2772;1.0555;
432.9000;1.2788;1.0605;
433.2000;1.2764;1.0529;
433.5000;1.2723;1.0529;
433.8000;1.2772;1.0555;
434.1000;1.2780;1.0605;
434.4000;1.2812;1.0756;
434.7000;1.2788;1.0655;
435.0000;1.2764;1.0580;
435.3000;1.2772;1.0529;
435.6000;1.2772;1.0555;
435.9000;1.2739;1.0504;
436.2000;1.2739;1.0504;
436.5000;1.2747;1.0529;
436.8000;1.2764;1.0580;
437.1000;1.2772;1.0605;
437.4000;1.2788;1.0706;
437.7000;1.2780;1.0655;
438.0000;1.2772;1.0605;
438.3000;1.2772;1.0555;
438.6000;1.2804;1.0655;
438.9000;1.2780;1.0529;
439.2000;1.2715;1.0378;
439.5000;1.2731;1.0378;
439.8000;1.2788;1.0454;
440.1000;1.2764;1.0403;
440.4000;1.2772;1.0429;
440.7000;1.2772;1.0504;
441.0000;1.2780;1.0504;
441.3000;1.2788;1.0504;
441.6000;1.2772;1.0555;
441.9000;1.2772;1.0580;
442.2000;1.2764;1.0605;
442.5000;1.2772;1.0555;
442.8000;1.2772;1.0655;
443.1000;1.2772;1.0580;
443.4000;1.2772;1.0580;
443.7000;1.2780;1.0529;
444.0000;1.2772;1.0555;
444.3000;1.2764;1.0429;
444.6000;1.2780;1.0479;
444.9000;1.2772;1.0429;
445.2000;1.2764;1.0378;
445.5000;1.2764;1.0378;
445.8000;1.2804;1.0504;
446.1000;1.2755;1.0504;
446.4000;1.2764;1.0429;
446.7000;1.2764;1.0378;
447.0000;1.2780;1.0378;
447.3000;1.2796;1.0454;
447.6000;1.2772;1.0378;
447.9000;1.2755;1.0227;
448.2000;1.2780;1.0278;
448.5000;1.2812;1.0303;
448.8000;1.2796;1.0202;
449.1000;1.2772;1.0152;
449.4000;1.2772;1.0227;
449.7000;1.2739;1.0177;
450.0000;1.2804;1.0353;
450.3000;1.2764;1.0479;
450.6000;1.2772;1.0555;
450.9000;1.2739;1.0403;
451.2000;1.2739;1.0429;
451.5000;1.2796;1.0555;
451.8000;1.2804;1.0555;
452.1000;1.2764;1.0454;
452.4000;1.2780;1.0454;
452.7000;1.2772;1.0504;
453.0000;1.2804;1.0580;
453.3000;1.2764;1.0429;
453.6000;1.2731;1.0353;
453.9000;1.2747;1.0403;
454.2000;1.2764;1.0529;
454.5000;1.2739;1.0479;
454.8000;1.2780;1.0630;
455.1000;1.2772;1.0655;
455.4000;1.2772;1.0555;
455.7000;1.2739;1.0504;
456.0000;1.2780;1.0555;
456.3000;1.2788;1.0655;
456.6000;1.2707;1.0479;
456.9000;1.2772;1.0605;
457.2000;1.2764;1.0681;
457.5000;1.2780;1.0731;
457.8000;1.2755;1.0681;
458.1000;1.2747;1.0706;
458.4000;1.2690;1.0605;
458.7000;1.2772;1.0731;
459.0000;1.2780;1.0706;
459.3000;1.2747;1.0630;
459.6000;1.2772;1.0756;
459.9000;1.2764;1.0681;
460.2000;1.2780;1.0681;
460.5000;1.2739;1.0555;
460.8000;1.2772;1.0655;
461.1000;1.2788;1.0655;
461.4000;1.2739;1.0555;
461.7000;1.2780;1.0630;
462.0000;1.2780;1.0555;
462.3000;1.2772;1.0504;
462.6000;1.2788;1.0580;
462.9000;1.2780;1.0630;
463.2000;1.2780;1.0706;
463.5000;1.2739;1.0605;
463.8000;1.2764;1.0756;
464.1000;1.2772;1.0706;
464.4000;1.2764;1.0756;
464.7000;1.2739;1.0706;
465.0000;1.2772;1.0706;
465.3000;1.2788;1.0731;
465.6000;1.2772;1.0605;
465.9000;1.2764;1.0605;
466.2000;1.2772;1.0630;
466.5000;1.2788;1.0605;
466.8000;1.2764;1.0630;
467.1000;1.2764;1.0605;
467.4000;1.2755;1.0630;
467.7000;1.2780;1.0756;
468.0000;1.2772;1.0807;
468.3000;1.2755;1.0781;
468.6000;1.2788;1.0958;
468.9000;1.2780;1.0857;
469.2000;1.2755;1.0781;
469.5000;1.2764;1.0781;
469.8000;1.2747;1.0731;
470.1000;1.2747;1.0655;
470.4000;1.2772;1.0681;
470.7000;1.2772;1.0731;
471.0000;1.2764;1.0706;
471.3000;1.2772;1.0706;
471.6000;1.2780;1.0681;
471.9000;1.2772;1.0706;
472.2000;1.2780;1.0681;
472.5000;1.2755;1.0681;
472.8000;1.2788;1.0781;
473.1000;1.2755;1.0706;
473.4000;1.2755;1.0681;
473.7000;1.2755;1.0781;
474.0000;1.2739;1.0681;
474.3000;1.2674;1.0454;
474.6000;1.2780;1.0681;
474.9000;1.2764;1.0630;
475.2000;1.2764;1.0655;
475.5000;1.2780;1.0706;
475.8000;1.2764;1.0681;
476.1000;1.2739;1.0605;
476.4000;1.2772;1.0731;
476.7000;1.2780;1.0706;
477.0000;1.2764;1.0655;
477.3000;1.2747;1.0630;
477.6000;1.2755;1.0681;
477.9000;1.2780;1.0807;
478.2000;1.2764;1.0807;
478.5000;1.2731;1.0706;
478.8000;1.2755;1.0781;
479.1000;1.2772;1.0756;
479.4000;1.2780;1.0706;
479.7000;1.2780;1.0655;
480.0000;1.2723;1.0479;
480.3000;1.2764;1.0630;
480.6000;1.2780;1.0655;
480.9000;1.2747;1.0580;
481.2000;1.2764;1.0605;
481.5000;1.2764;1.0555;
481.8000;1.2780;1.0555;
482.1000;1.2788;1.0605;
482.4000;1.2764;1.0555;
482.7000;1.2780;1.0731;
483.0000;1.2780;1.0807;
483.3000;1.2772;1.0731;
483.6000;1.2772;1.0630;
483.9000;1.2772;1.0655;
484.2000;1.2764;1.0655;
484.5000;1.2755;1.0731;
484.8000;1.2764;1.0655;
485.1000;1.2764;1.0605;
485.4000;1.2747;1.0580;
485.7000;1.2764;1.0630;
486.0000;1.2772;1.0580;
486.3000;1.2755;1.0479;
486.6000;1.2731;1.0378;
486.9000;1.2772;1.0479;
487.2000;1.2772;1.0529;
487.5000;1.2755;1.0529;
487.8000;1.2772;1.0454;
488.1000;1.2780;1.0403;
488.4000;1.2755;1.0378;
488.7000;1.2747;1.0429;
489.0000;1.2755;1.0479;
489.3000;1.2780;1.0529;
489.6000;1.2747;1.0504;
489.9000;1.2755;1.0580;
490.2000;1.2755;1.0630;
490.5000;1.2755;1.0681;
490.8000;1.2755;1.0681;
491.1000;1.2755;1.0655;
491.4000;1.2772;1.0605;
491.7000;1.2747;1.0580;
492.0000;1.2755;1.0555;
492.3000;1.2764;1.0580;
492.6000;1.2739;1.0529;
492.9000;1.2739;1.0479;
493.2000;1.2772;1.0504;
493.5000;1.2772;1.0529;
493.8000;1.2747;1.0555;
494.1000;1.2764;1.0655;
494.4000;1.2747;1.0655;
494.7000;1.2772;1.0630;
495.0000;1.2764;1.0681;
495.3000;1.2755;1.0655;
495.6000;1.2780;1.0630;
495.9000;1.2747;1.0580;
496.2000;1.2755;1.0580;
496.5000;1.2772;1.0580;
496.8000;1.2747;1.0504;
497.1000;1.2723;1.0479;
497.4000;1.2755;1.0605;
497.7000;1.2764;1.0655;
498.0000;1.2764;1.0630;
498.3000;1.2707;1.0504;
498.6000;1.2772;1.0630;
498.9000;1.2747;1.0580;
499.2000;1.2739;1.0479;
499.5000;1.2764;1.0555;
499.8000;1.2772;1.0555;
500.1000;1.2747;1.0504;
500.4000;1.2747;1.0479;
500.7000;1.2764;1.0504;
501.0000;1.2747;1.0454;
501.3000;1.2772;1.0504;
501.6000;1.2764;1.0529;
501.9000;1.2755;1.0580;
502.2000;1.2764;1.0555;
502.5000;1.2780;1.0555;
502.8000;1.2747;1.0580;
503.1000;1.2747;1.0529;
503.4000;1.2764;1.0580;
503.7000;1.2755;1.0580;
504.0000;1.2723;1.0454;
504.3000;1.2755;1.0555;
504.6000;1.2772;1.0555;
504.9000;1.2739;1.0479;
505.2000;1.2772;1.0605;
505.5000;1.2772;1.0555;
505.8000;1.2764;1.0529;
506.1000;1.2788;1.0529;
506.4000;1.2764;1.0429;
506.7000;1.2747;1.0353;
507.0000;1.2764;1.0353;
507.3000;1.2772;1.0378;
507.6000;1.2747;1.0378;
507.9000;1.2723;1.0353;
508.2000;1.2747;1.0504;
508.5000;1.2755;1.0504;
508.8000;1.2764;1.0454;
509.1000;1.2747;1.0378;
509.4000;1.2731;1.0454;
509.7000;1.2698;1.0353;
510.0000;1.2755;1.0479;
510.3000;1.2764;1.0454;
510.6000;1.2747;1.0378;
510.9000;1.2780;1.0454;
511.2000;1.2755;1.0378;
511.5000;1.2796;1.0328;
511.8000;1.2747;1.0252;
512.1000;1.2747;1.0252;
512.4000;1.2755;1.0378;
512.7000;1.2829;1.0580;
513.0000;1.2747;1.0378;
513.3000;1.2764;1.0378;
513.6000;1.2772;1.0378;
513.9000;1.2764;1.0353;
514.2000;1.2747;1.0278;
514.5000;1.2755;1.0227;
514.8000;1.2780;1.0353;
515.1000;1.2747;1.0328;
515.4000;1.2747;1.0353;
515.7000;1.2747;1.0328;
516.0000;1.2755;1.0353;
516.3000;1.2755;1.0479;
516.6000;1.2755;1.0529;
516.9000;1.2739;1.0555;
517.2000;1.2755;1.0605;
517.5000;1.2747;1.0580;
517.8000;1.2812;1.0756;
518.1000;1.2747;1.0504;
518.4000;1.2739;1.0504;
518.7000;1.2723;1.0403;
519.0000;1.2755;1.0454;
519.3000;1.2764;1.0403;
519.6000;1.2772;1.0529;
519.9000;1.2764;1.0454;
520.2000;1.2772;1.0504;
520.5000;1.2780;1.0529;
520.8000;1.2780;1.0580;
521.1000;1.2780;1.0630;
521.4000;1.2739;1.0605;
521.7000;1.2715;1.0580;
522.0000;1.2812;1.0807;
522.3000;1.2796;1.0832;
522.6000;1.2772;1.0882;
522.9000;1.2780;1.0756;
523.2000;1.2764;1.0630;
523.5000;1.2764;1.0504;
523.8000;1.2764;1.0504;
524.1000;1.2755;1.0504;
524.4000;1.2747;1.0529;
524.7000;1.2764;1.0504;
525.0000;1.2764;1.0504;
525.3000;1.2764;1.0504;
525.6000;1.2755;1.0479;
525.9000;1.2755;1.0504;
526.2000;1.2764;1.0479;
526.5000;1.2804;1.0605;
526.8000;1.2755;1.0504;
527.1000;1.2723;1.0504;
527.4000;1.2788;1.0706;
527.7000;1.2739;1.0655;
528.0000;1.2731;1.0580;
528.3000;1.2764;1.0630;
528.6000;1.2682;1.0429;
528.9000;1.2772;1.0580;
529.2000;1.2747;1.0605;
529.5000;1.2715;1.0580;
529.8000;1.2723;1.0580;
530.1000;1.2755;1.0630;
530.4000;1.2698;1.0580;
530.7000;1.2772;1.0681;
531.0000;1.2747;1.0605;
531.3000;1.2690;1.0403;
531.6000;1.2755;1.0529;
531.9000;1.2755;1.0529;
532.2000;1.2764;1.0580;
532.5000;1.2755;1.0555;
532.8000;1.2747;1.0504;
533.1000;1.2755;1.0504;
533.4000;1.2707;1.0328;
533.7000;1.2764;1.0479;
534.0000;1.2772;1.0479;
534.3000;1.2764;1.0504;
534.6000;1.2747;1.0429;
534.9000;1.2739;1.0504;
535.2000;1.2747;1.0605;
535.5000;1.2755;1.0580;
535.8000;1.2739;1.0555;
536.1000;1.2764;1.0580;
536.4000;1.2747;1.0555;
536.7000;1.2755;1.0529;
537.0000;1.2772;1.0529;
537.3000;1.2747;1.0504;
537.6000;1.2747;1.0403;
537.9000;1.2764;1.0403;
538.2000;1.2747;1.0429;
538.5000;1.2747;1.0378;
538.8000;1.2747;1.0353;
539.1000;1.2755;1.0328;
539.4000;1.2755;1.0328;
539.7000;1.2764;1.0403;
540.0000;1.2755;1.0353;
540.3000;1.2747;1.0403;
540.6000;1.2755;1.0429;
540.9000;1.2747;1.0403;
541.2000;1.2764;1.0504;
541.5000;1.2747;1.0454;
541.8000;1.2780;1.0479;
542.1000;1.2739;1.0353;
542.4000;1.2747;1.0429;
542.7000;1.2682;1.0303;
543.0000;1.2739;1.0555;
543.3000;1.2755;1.0529;
543.6000;1.2764;1.0504;
543.9000;1.2682;1.0303;
544.2000;1.2764;1.0529;
544.5000;1.2739;1.0529;
544.8000;1.2772;1.0630;
545.1000;1.2723;1.0555;
545.4000;1.2796;1.0681;
545.7000;1.2804;1.0781;
546.0000;1.2739;1.0555;
546.3000;1.2739;1.0504;
546.6000;1.2739;1.0529;
546.9000;1.2747;1.0580;
547.2000;1.2747;1.0555;
547.5000;1.2764;1.0630;
547.8000;1.2755;1.0504;
548.1000;1.2755;1.0429;
548.4000;1.2739;1.0429;
548.7000;1.2715;1.0454;
549.0000;1.2739;1.0454;
549.3000;1.2739;1.0479;
549.6000;1.2747;1.0529;
549.9000;1.2739;1.0403;
550.2000;1.2731;1.0353;
550.5000;1.2739;1.0328;
550.8000;1.2764;1.0454;
551.1000;1.2804;1.0630;
551.4000;1.2747;1.0504;
551.7000;1.2739;1.0504;
552.0000;1.2755;1.0504;
552.3000;1.2764;1.0504;
552.6000;1.2755;1.0504;
552.9000;1.2772;1.0580;
553.2000;1.2764;1.0504;
553.5000;1.2780;1.0479;
553.8000;1.2788;1.0555;
554.1000;1.2764;1.0504;
554.4000;1.2796;1.0630;
554.7000;1.2739;1.0504;
555.0000;1.2747;1.0555;
555.3000;1.2707;1.0504;
555.6000;1.2755;1.0529;
555.9000;1.2747;1.0529;
556.2000;1.2723;1.0504;
556.5000;1.2747;1.0504;
556.8000;1.2747;1.0454;
557.1000;1.2747;1.0454;
557.4000;1.2796;1.0580;
557.7000;1.2747;1.0479;
558.0000;1.2739;1.0429;
558.3000;1.2739;1.0403;
558.6000;1.2739;1.0429;
558.9000;1.2739;1.0378;
559.2000;1.2747;1.0353;
559.5000;1.2764;1.0429;
559.8000;1.2747;1.0353;
560.1000;1.2747;1.0454;
560.4000;1.2747;1.0504;
560.7000;1.2731;1.0479;
561.0000;1.2747;1.0529;
561.3000;1.2739;1.0454;
561.6000;1.2731;1.0378;
561.9000;1.2739;1.0479;
562.2000;1.2772;1.0504;
562.5000;1.2755;1.0504;
562.8000;1.2739;1.0479;
563.1000;1.2764;1.0504;
563.4000;1.2755;1.0529;
563.7000;1.2755;1.0479;
564.0000;1.2731;1.0529;
564.3000;1.2739;1.0555;
564.6000;1.2747;1.0529;
564.9000;1.2731;1.0479;
565.2000;1.2747;1.0454;
565.5000;1.2747;1.0529;
565.8000;1.2780;1.0555;
566.1000;1.2788;1.0555;
566.4000;1.2764;1.0454;
566.7000;1.2764;1.0479;
567.0000;1.2723;1.0353;
567.3000;1.2755;1.0429;
567.6000;1.2739;1.0454;
567.9000;1.2731;1.0403;
568.2000;1.2812;1.0555;
568.5000;1.2764;1.0555;
568.8000;1.2715;1.0504;
569.1000;1.2690;1.0378;
569.4000;1.2731;1.0479;
569.7000;1.2755;1.0580;
570.0000;1.2747;1.0655;
570.3000;1.2739;1.0605;
570.6000;1.2764;1.0580;
570.9000;1.2755;1.0529;
571.2000;1.2739;1.0555;
571.5000;1.2707;1.0454;
571.8000;1.2739;1.0504;
572.1000;1.2764;1.0605;
572.4000;1.2731;1.0529;
572.7000;1.2747;1.0605;
573.0000;1.2747;1.0655;
573.3000;1.2739;1.0580;
573.6000;1.2747;1.0479;
573.9000;1.2755;1.0529;
574.2000;1.2755;1.0504;
574.5000;1.2731;1.0555;
574.8000;1.2731;1.0630;
575.1000;1.2755;1.0731;
575.4000;1.2755;1.0756;
575.7000;1.2747;1.0655;
576.0000;1.2755;1.0605;
576.3000;1.2764;1.0655;
576.6000;1.2755;1.0655;
576.9000;1.2755;1.0630;
577.2000;1.2755;1.0655;
577.5000;1.2747;1.0555;
577.8000;1.2674;1.0403;
578.1000;1.2723;1.0429;
578.4000;1.2731;1.0429;
578.7000;1.2739;1.0454;
579.0000;1.2731;1.0429;
579.3000;1.2731;1.0454;
579.6000;1.2731;1.0353;
579.9000;1.2739;1.0429;
580.2000;1.2780;1.0529;
580.5000;1.2747;1.0479;
580.8000;1.2739;1.0454;
581.1000;1.2739;1.0504;
581.4000;1.2739;1.0479;
581.7000;1.2715;1.0252;
582.0000;1.2747;1.0353;
582.3000;1.2747;1.0353;
582.6000;1.2747;1.0353;
582.9000;1.2772;1.0429;
583.2000;1.2755;1.0378;
583.5000;1.2764;1.0403;
583.8000;1.2764;1.0403;
584.1000;1.2755;1.0353;
584.4000;1.2755;1.0403;
584.7000;1.2715;1.0378;
585.0000;1.2731;1.0454;
585.3000;1.2755;1.0529;
585.6000;1.2747;1.0454;
585.9000;1.2715;1.0353;
586.2000;1.2731;1.0429;
586.5000;1.2723;1.0454;
586.8000;1.2739;1.0479;
587.1000;1.2707;1.0529;
587.4000;1.2715;1.0605;
587.7000;1.2739;1.0605;
588.0000;1.2723;1.0580;
588.3000;1.2731;1.0555;
588.6000;1.2731;1.0504;
588.9000;1.2739;1.0479;
589.2000;1.2747;1.0454;
589.5000;1.2723;1.0353;
589.8000;1.2723;1.0378;
590.1000;1.2764;1.0605;
590.4000;1.2739;1.0529;
590.7000;1.2723;1.0504;
591.0000;1.2731;1.0529;
591.3000;1.2755;1.0580;
591.6000;1.2731;1.0504;
591.9000;1.2747;1.0454;
592.2000;1.2723;1.0403;
592.5000;1.2658;1.0126;
592.8000;1.2739;1.0328;
593.1000;1.2747;1.0378;
593.4000;1.2723;1.0378;
593.7000;1.2731;1.0429;
594.0000;1.2723;1.0504;
594.3000;1.2715;1.0529;
594.6000;1.2666;1.0429;
594.9000;1.2755;1.0681;
595.2000;1.2731;1.0580;
595.5000;1.2755;1.0655;
595.8000;1.2731;1.0605;
596.1000;1.2715;1.0504;
596.4000;1.2755;1.0605;
596.7000;1.2731;1.0555;
597.0000;1.2764;1.0555;
597.3000;1.2739;1.0429;
597.6000;1.2715;1.0454;
597.9000;1.2739;1.0555;
598.2000;1.2731;1.0555;
598.5000;1.2731;1.0479;
598.8000;1.2682;1.0378;
599.1000;1.2747;1.0580;
599.4000;1.2698;1.0605;
599.7000;1.2747;1.0706;
600.0000;1.2731;1.0681;
600.3000;1.2764;1.0655;
600.6000;1.2739;1.0580;
600.9000;1.2690;1.0378;
601.2000;1.2584;1.0152;
601.5000;1.2487;0.9950;
601.8000;1.2373;0.9698;
602.1000;1.2251;0.9471;
602.4000;1.2153;0.9295;
602.7000;1.2080;0.9194;
603.0000;1.1950;0.9043;
603.3000;1.1884;0.8942;
603.6000;1.1844;0.8968;
603.9000;1.1673;0.8565;
604.2000;1.1600;0.8464;
604.5000;1.1526;0.8413;
604.8000;1.1412;0.8338;
605.1000;1.1372;0.8388;
605.4000;1.1306;0.8288;
605.7000;1.1217;0.8136;
606.0000;1.1168;0.8237;
606.3000;1.1103;0.8237;
606.6000;1.1127;0.8413;
606.9000;1.1005;0.8162;
607.2000;1.0956;0.8136;
607.5000;1.0875;0.8036;
607.8000;1.0802;0.7834;
608.1000;1.0786;0.7884;
608.4000;1.0712;0.7809;
608.7000;1.0655;0.7809;
609.0000;1.0615;0.7809;
609.3000;1.0549;0.7834;
609.6000;1.0517;0.7859;
609.9000;1.0468;0.7809;
610.2000;1.0435;0.7884;
610.5000;1.0395;0.7859;
610.8000;1.0362;0.7910;
611.1000;1.0273;0.7683;
611.4000;1.0256;0.7759;
611.7000;1.0216;0.7708;
612.0000;1.0191;0.7607;
612.3000;1.0126;0.7582;
612.6000;1.0085;0.7582;
612.9000;1.0037;0.7507;
613.2000;1.0020;0.7481;
613.5000;0.9980;0.7431;
613.8000;0.9939;0.7456;
614.1000;0.9915;0.7507;
614.4000;0.9874;0.7481;
614.7000;0.9833;0.7481;
615.0000;0.9784;0.7456;
615.3000;0.9776;0.7557;
615.6000;0.9735;0.7532;
615.9000;0.9711;0.7507;
616.2000;0.9678;0.7456;
616.5000;0.9630;0.7406;
616.8000;0.9605;0.7456;
617.1000;0.9589;0.7481;
617.4000;0.9573;0.7381;
617.7000;0.9540;0.7406;
618.0000;0.9491;0.7355;
618.3000;0.9475;0.7330;
618.6000;0.9451;0.7381;
618.9000;0.9475;0.7633;
619.2000;0.9377;0.7355;
619.5000;0.9353;0.7330;
619.8000;0.9337;0.7280;
620.1000;0.9328;0.7305;
620.4000;0.9271;0.7255;
620.7000;0.9263;0.7255;
621.0000;0.9231;0.7204;
621.3000;0.9198;0.7179;
621.6000;0.9190;0.7104;
621.9000;0.9174;0.7053;
622.2000;0.9158;0.7104;
622.5000;0.9125;0.7053;
622.8000;0.9117;0.7078;
623.1000;0.9084;0.7053;
623.4000;0.9117;0.7154;
623.7000;0.9027;0.7003;
624.0000;0.9011;0.7028;
624.3000;0.8995;0.7129;
624.6000;0.8970;0.7154;
624.9000;0.8946;0.7129;
625.2000;0.8946;0.7204;
625.5000;0.8864;0.7053;
625.8000;0.8881;0.7129;
626.1000;0.8881;0.7179;
626.4000;0.8856;0.7104;
626.7000;0.8848;0.7154;
627.0000;0.8799;0.7129;
627.3000;0.8791;0.7078;
627.6000;0.8775;0.7129;
627.9000;0.8751;0.7053;
628.2000;0.8734;0.7179;
628.5000;0.8718;0.7078;
628.8000;0.8685;0.7104;
629.1000;0.8677;0.7003;
629.4000;0.8661;0.7053;
629.7000;0.8742;0.7280;
630.0000;0.8645;0.7104;
630.3000;0.8637;0.7078;
630.6000;0.8588;0.7028;
630.9000;0.8571;0.6978;
631.2000;0.8596;0.7003;
631.5000;0.8580;0.7028;
631.8000;0.8555;0.6978;
632.1000;0.8523;0.6952;
632.4000;0.8506;0.7028;
632.7000;0.8490;0.7028;
633.0000;0.8482;0.6927;
633.3000;0.8457;0.6826;
633.6000;0.8433;0.6826;
633.9000;0.8441;0.6877;
634.2000;0.8425;0.6801;
634.5000;0.8425;0.6776;
634.8000;0.8417;0.6902;
635.1000;0.8400;0.6902;
635.4000;0.8376;0.6877;
635.7000;0.8360;0.6877;
636.0000;0.8368;0.6902;
636.3000;0.8368;0.6801;
636.6000;0.8311;0.6575;
636.9000;0.8335;0.6650;
637.2000;0.8311;0.6575;
637.5000;0.8287;0.6524;
637.8000;0.8278;0.6499;
638.1000;0.8254;0.6524;
638.4000;0.8238;0.6524;
638.7000;0.8238;0.6600;
639.0000;0.8197;0.6600;
639.3000;0.8197;0.6625;
639.6000;0.8197;0.6650;
639.9000;0.8156;0.6549;
640.2000;0.8173;0.6650;
640.5000;0.8164;0.6675;
640.8000;0.8156;0.6726;
641.1000;0.8140;0.6776;
641.4000;0.8140;0.6826;
641.7000;0.8132;0.6801;
642.0000;0.8107;0.6776;
642.3000;0.8107;0.6877;
642.6000;0.8091;0.6877;
642.9000;0.8083;0.6927;
643.2000;0.8083;0.6902;
643.5000;0.8034;0.6826;
643.8000;0.8067;0.6826;
644.1000;0.8050;0.6726;
644.4000;0.8026;0.6701;
644.7000;0.8026;0.6675;
645.0000;0.8018;0.6751;
645.3000;0.8018;0.6751;
645.6000;0.7985;0.6701;
645.9000;0.8002;0.6751;
646.2000;0.8002;0.6701;
646.5000;0.7969;0.6575;
646.8000;0.7953;0.6675;
647.1000;0.8002;0.6776;
647.4000;0.7953;0.6701;
647.7000;0.7937;0.6675;
648.0000;0.7937;0.6726;
648.3000;0.7912;0.6650;
648.6000;0.7912;0.6675;
648.9000;0.7896;0.6701;
649.2000;0.7904;0.6826;
649.5000;0.7880;0.6751;
649.8000;0.7888;0.6726;
650.1000;0.7888;0.6726;
650.4000;0.7880;0.6776;
650.7000;0.7855;0.6701;
651.0000;0.7855;0.6675;
651.3000;0.7847;0.6625;
651.6000;0.7839;0.6675;
651.9000;0.7855;0.6877;
652.2000;0.7823;0.6826;
652.5000;0.7814;0.6826;
652.8000;0.7847;0.6852;
653.1000;0.7774;0.6675;
653.4000;0.7717;0.6549;
653.7000;0.7749;0.6701;
654.0000;0.7774;0.6751;
654.3000;0.7774;0.6751;
654.6000;0.7749;0.6751;
654.9000;0.7757;0.6776;
655.2000;0.7733;0.6877;
655.5000;0.7749;0.6902;
655.8000;0.7757;0.6852;
656.1000;0.7733;0.6751;
656.4000;0.7717;0.6751;
656.7000;0.7668;0.6650;
657.0000;0.7692;0.6852;
657.3000;0.7692;0.6852;
657.6000;0.7700;0.6826;
657.9000;0.7700;0.6877;
658.2000;0.7668;0.6852;
658.5000;0.7660;0.6751;
658.8000;0.7619;0.6625;
659.1000;0.7643;0.6801;
659.4000;0.7643;0.6801;
659.7000;0.7627;0.6701;
660.0000;0.7635;0.6801;
660.3000;0.7635;0.6852;
660.6000;0.7611;0.6826;
660.9000;0.7619;0.6902;
661.2000;0.7611;0.6852;
661.5000;0.7627;0.6826;
661.8000;0.7643;0.6902;
662.1000;0.7619;0.6826;
662.4000;0.7586;0.6751;
662.7000;0.7578;0.6701;
663.0000;0.7578;0.6675;
663.3000;0.7570;0.6675;
663.6000;0.7546;0.6726;
663.9000;0.7546;0.6776;
664.2000;0.7554;0.6826;
664.5000;0.7562;0.6801;
664.8000;0.7538;0.6701;
665.1000;0.7546;0.6675;
665.4000;0.7619;0.6902;
665.7000;0.7521;0.6675;
666.0000;0.7530;0.6751;
666.3000;0.7530;0.6751;
666.6000;0.7505;0.6650;
666.9000;0.7521;0.6701;
667.2000;0.7513;0.6776;
667.5000;0.7497;0.6701;
667.8000;0.7530;0.6751;
668.1000;0.7505;0.6801;
668.4000;0.7497;0.6776;
668.7000;0.7464;0.6751;
669.0000;0.7497;0.6776;
669.3000;0.7464;0.6650;
669.6000;0.7481;0.6650;
669.9000;0.7448;0.6650;
670.2000;0.7464;0.6751;
670.5000;0.7448;0.6776;
670.8000;0.7448;0.6826;
671.1000;0.7440;0.6801;
671.4000;0.7448;0.6726;
671.7000;0.7432;0.6650;
672.0000;0.7456;0.6675;
672.3000;0.7424;0.6600;
672.6000;0.7424;0.6575;
672.9000;0.7407;0.6575;
673.2000;0.7424;0.6701;
673.5000;0.7407;0.6701;
673.8000;0.7399;0.6776;
674.1000;0.7391;0.6726;
674.4000;0.7432;0.6801;
674.7000;0.7383;0.6701;
675.0000;0.7367;0.6726;
675.3000;0.7367;0.6701;
675.6000;0.7399;0.6826;
675.9000;0.7375;0.6826;
676.2000;0.7359;0.6751;
676.5000;0.7391;0.6801;
676.8000;0.7367;0.6751;
677.1000;0.7367;0.6801;
677.4000;0.7350;0.6726;
677.7000;0.7350;0.6801;
678.0000;0.7285;0.6650;
678.3000;0.7302;0.6801;
678.6000;0.7318;0.6826;
678.9000;0.7326;0.6826;
679.2000;0.7326;0.6877;
679.5000;0.7326;0.6877;
679.8000;0.7334;0.6826;
680.1000;0.7310;0.6801;
680.4000;0.7302;0.6776;
680.7000;0.7302;0.6877;
681.0000;0.7318;0.6927;
681.3000;0.7293;0.6852;
681.6000;0.7293;0.6852;
681.9000;0.7277;0.6852;
682.2000;0.7220;0.6675;
682.5000;0.7269;0.6801;
682.8000;0.7261;0.6801;
683.1000;0.7302;0.6952;
683.4000;0.7245;0.6801;
683.7000;0.7253;0.6726;
684.0000;0.7261;0.6776;
684.3000;0.7236;0.6701;
684.6000;0.7245;0.6751;
684.9000;0.7253;0.6801;
685.2000;0.7188;0.6625;
685.5000;0.7236;0.6751;
685.8000;0.7245;0.6701;
686.1000;0.7236;0.6751;
686.4000;0.7261;0.6852;
686.7000;0.7245;0.6852;
687.0000;0.7228;0.6751;
687.3000;0.7269;0.6978;
687.6000;0.7220;0.6776;
687.9000;0.7245;0.6776;
688.2000;0.7212;0.6701;
688.5000;0.7212;0.6650;
688.8000;0.7204;0.6675;
689.1000;0.7196;0.6726;
689.4000;0.7179;0.6625;
689.7000;0.7204;0.6625;
690.0000;0.7188;0.6625;
690.3000;0.7188;0.6625;
690.6000;0.7188;0.6650;
690.9000;0.7188;0.6625;
691.2000;0.7188;0.6675;
691.5000;0.7188;0.6650;
691.8000;0.7163;0.6549;
692.1000;0.7163;0.6524;
692.4000;0.7179;0.6549;
692.7000;0.7179;0.6600;
693.0000;0.7171;0.6650;
693.3000;0.7171;0.6701;
693.6000;0.7155;0.6701;
693.9000;0.7147;0.6625;
694.2000;0.7171;0.6650;
694.5000;0.7155;0.6600;
694.8000;0.7147;0.6650;
695.1000;0.7139;0.6650;
695.4000;0.7114;0.6524;
695.7000;0.7155;0.6524;
696.0000;0.7163;0.6726;
696.3000;0.7139;0.6701;
696.6000;0.7123;0.6675;
696.9000;0.7123;0.6751;
697.2000;0.7114;0.6726;
697.5000;0.7139;0.6801;
697.8000;0.7123;0.6726;
698.1000;0.7139;0.6701;
698.4000;0.7106;0.6625;
698.7000;0.7114;0.6625;
699.0000;0.7106;0.6650;
699.3000;0.7082;0.6625;
699.6000;0.7139;0.6776;
699.9000;0.7123;0.6751;
700.2000;0.7123;0.6701;
700.5000;0.7098;0.6675;
700.8000;0.7066;0.6600;
701.1000;0.7098;0.6600;
701.4000;0.7114;0.6575;
701.7000;0.7098;0.6625;
702.0000;0.7098;0.6650;
702.3000;0.7090;0.6650;
702.6000;0.7090;0.6675;
702.9000;0.7066;0.6675;
703.2000;0.7082;0.6726;
703.5000;0.7082;0.6701;
703.8000;0.7074;0.6726;
704.1000;0.7049;0.6701;
704.4000;0.7041;0.6701;
704.7000;0.7066;0.6826;
705.0000;0.7057;0.6852;
705.3000;0.7017;0.6801;
705.6000;0.7098;0.7003;
705.9000;0.7057;0.6801;
706.2000;0.7074;0.6877;
706.5000;0.7033;0.6776;
706.8000;0.6992;0.6600;
707.1000;0.6976;0.6650;
707.4000;0.7041;0.6776;
707.7000;0.7033;0.6726;
708.0000;0.7049;0.6675;
708.3000;0.7041;0.6650;
708.6000;0.7049;0.6726;
708.9000;0.7041;0.6751;
709.2000;0.7000;0.6776;
709.5000;0.7025;0.6927;
709.8000;0.7074;0.7179;
710.1000;0.7082;0.7179;
710.4000;0.7033;0.6978;
710.7000;0.7017;0.6952;
711.0000;0.7009;0.6877;
711.3000;0.7000;0.6852;
711.6000;0.7017;0.6877;
711.9000;0.7000;0.6902;
712.2000;0.7000;0.6927;
712.5000;0.6984;0.6952;
712.8000;0.7017;0.6877;
713.1000;0.6968;0.6726;
713.4000;0.6952;0.6675;
713.7000;0.6984;0.6726;
714.0000;0.7000;0.6776;
714.3000;0.7000;0.6826;
714.6000;0.6976;0.6701;
714.9000;0.6976;0.6701;
715.2000;0.6976;0.6701;
715.5000;0.6976;0.6675;
715.8000;0.6984;0.6701;
716.1000;0.6976;0.6852;
716.4000;0.6968;0.6877;
716.7000;0.6984;0.6852;
717.0000;0.6952;0.6751;
717.3000;0.6976;0.6801;
717.6000;0.6968;0.6826;
717.9000;0.7000;0.6852;
718.2000;0.6976;0.6776;
718.5000;0.6968;0.6701;
718.8000;0.6976;0.6726;
719.1000;0.6960;0.6726;
719.4000;0.6935;0.6600;
719.7000;0.6960;0.6726;
720.0000;0.6935;0.6826;
720.3000;0.6960;0.6877;
720.6000;0.6952;0.6801;
720.9000;0.6935;0.6776;
721.2000;0.6960;0.6826;
721.5000;0.6960;0.6877;
721.8000;0.6935;0.6852;
722.1000;0.6943;0.6826;
722.4000;0.6935;0.6852;
722.7000;0.6927;0.6776;
723.0000;0.6935;0.6776;
723.3000;0.6911;0.6776;
723.6000;0.6927;0.6852;
723.9000;0.6911;0.6801;
724.2000;0.6935;0.6826;
724.5000;0.6943;0.6877;
724.8000;0.6911;0.6826;
725.1000;0.6919;0.6751;
725.4000;0.6911;0.6852;
725.7000;0.6919;0.6776;
726.0000;0.6911;0.6852;
726.3000;0.6911;0.6751;
726.6000;0.6927;0.6801;
726.9000;0.6895;0.6726;
727.2000;0.6919;0.6776;
727.5000;0.6919;0.6776;
727.8000;0.6935;0.6726;
728.1000;0.6911;0.6650;
728.4000;0.6919;0.6650;
728.7000;0.6919;0.6701;
729.0000;0.6895;0.6726;
729.3000;0.6895;0.6675;
729.6000;0.6911;0.6650;
729.9000;0.6911;0.6701;
730.2000;0.6886;0.6600;
730.5000;0.6886;0.6549;
730.8000;0.6960;0.6801;
731.1000;0.6870;0.6524;
731.4000;0.6886;0.6474;
731.7000;0.6903;0.6449;
732.0000;0.6895;0.6600;
732.3000;0.6878;0.6575;
732.6000;0.6878;0.6625;
732.9000;0.6886;0.6575;
733.2000;0.6895;0.6575;
733.5000;0.6895;0.6650;
733.8000;0.6870;0.6549;
734.1000;0.6870;0.6474;
734.4000;0.6886;0.6549;
734.7000;0.6862;0.6625;
735.0000;0.6862;0.6701;
735.3000;0.6862;0.6701;
735.6000;0.6886;0.6801;
735.9000;0.6895;0.6776;
736.2000;0.6846;0.6625;
736.5000;0.6862;0.6701;
736.8000;0.6903;0.6927;
737.1000;0.6854;0.6701;
737.4000;0.6854;0.6751;
737.7000;0.6821;0.6726;
738.0000;0.6846;0.6675;
738.3000;0.6854;0.6600;
738.6000;0.6854;0.6549;
738.9000;0.6854;0.6474;
739.2000;0.6870;0.6474;
739.5000;0.6862;0.6499;
739.8000;0.6862;0.6524;
740.1000;0.6854;0.6499;
740.4000;0.6895;0.6575;
740.7000;0.6862;0.6524;
741.0000;0.6789;0.6499;
741.3000;0.6862;0.6726;
741.6000;0.6854;0.6701;
741.9000;0.6854;0.6600;
742.2000;0.6829;0.6524;
742.5000;0.6846;0.6549;
742.8000;0.6821;0.6348;
743.1000;0.6846;0.6398;
743.4000;0.6846;0.6348;
743.7000;0.6846;0.6348;
744.0000;0.6829;0.6348;
744.3000;0.6821;0.6348;
744.6000;0.6846;0.6449;
744.9000;0.6805;0.6449;
745.2000;0.6829;0.6499;
745.5000;0.6821;0.6549;
745.8000;0.6829;0.6600;
746.1000;0.6838;0.6675;
746.4000;0.6813;0.6675;
746.7000;0.6838;0.6801;
747.0000;0.6821;0.6751;
747.3000;0.6878;0.6877;
747.6000;0.6821;0.6776;
747.9000;0.6813;0.6751;
748.2000;0.6805;0.6701;
748.5000;0.6829;0.6726;
748.8000;0.6821;0.6776;
749.1000;0.6821;0.6877;
749.4000;0.6821;0.6877;
749.7000;0.6813;0.6826;
750.0000;0.6813;0.6776;
750.3000;0.6772;0.6675;
750.6000;0.6781;0.6776;
750.9000;0.6797;0.6801;
751.2000;0.6797;0.6801;
751.5000;0.6789;0.6826;
751.8000;0.6829;0.6927;
752.1000;0.6797;0.6877;
752.4000;0.6797;0.6902;
752.7000;0.6797;0.6826;
753.0000;0.6797;0.6826;
753.3000;0.6781;0.6776;
753.6000;0.6789;0.6726;
753.9000;0.6781;0.6625;
754.2000;0.6789;0.6549;
754.5000;0.6789;0.6474;
754.8000;0.6797;0.6449;
755.1000;0.6781;0.6449;
755.4000;0.6813;0.6549;
755.7000;0.6756;0.6449;
756.0000;0.6724;0.6474;
756.3000;0.6781;0.6650;
756.6000;0.6691;0.6474;
756.9000;0.6772;0.6575;
757.2000;0.6821;0.6776;
757.5000;0.6772;0.6701;
757.8000;0.6772;0.6675;
758.1000;0.6789;0.6675;
758.4000;0.6764;0.6650;
758.7000;0.6829;0.6826;
759.0000;0.6764;0.6575;
759.3000;0.6772;0.6575;
759.6000;0.6781;0.6549;
759.9000;0.6740;0.6423;
760.2000;0.6772;0.6423;
760.5000;0.6772;0.6398;
760.8000;0.6772;0.6474;
761.1000;0.6764;0.6499;
761.4000;0.6772;0.6549;
761.7000;0.6756;0.6549;
762.0000;0.6764;0.6499;
762.3000;0.6764;0.6449;
762.6000;0.6756;0.6499;
762.9000;0.6740;0.6474;
763.2000;0.6724;0.6524;
763.5000;0.6772;0.6575;
763.8000;0.6821;0.6675;
764.1000;0.6740;0.6449;
764.4000;0.6740;0.6474;
764.7000;0.6732;0.6474;
765.0000;0.6764;0.6499;
765.3000;0.6748;0.6499;
765.6000;0.6716;0.6373;
765.9000;0.6732;0.6474;
766.2000;0.6740;0.6474;
766.5000;0.6756;0.6499;
766.8000;0.6716;0.6423;
767.1000;0.6748;0.6575;
767.4000;0.6740;0.6625;
767.7000;0.6740;0.6675;
768.0000;0.6756;0.6650;
768.3000;0.6748;0.6650;
768.6000;0.6838;0.6751;
768.9000;0.6740;0.6549;
769.2000;0.6740;0.6524;
769.5000;0.6740;0.6474;
769.8000;0.6748;0.6499;
770.1000;0.6756;0.6625;
770.4000;0.6740;0.6625;
770.7000;0.6732;0.6600;
771.0000;0.6724;0.6575;
771.3000;0.6732;0.6549;
771.6000;0.6732;0.6524;
771.9000;0.6724;0.6524;
772.2000;0.6707;0.6499;
772.5000;0.6699;0.6499;
772.8000;0.6732;0.6600;
773.1000;0.6732;0.6650;
773.4000;0.6716;0.6625;
773.7000;0.6699;0.6575;
774.0000;0.6716;0.6625;
774.3000;0.6724;0.6726;
774.6000;0.6716;0.6625;
774.9000;0.6732;0.6625;
775.2000;0.6740;0.6675;
775.5000;0.6724;0.6625;
775.8000;0.6683;0.6600;
776.1000;0.6707;0.6625;
776.4000;0.6724;0.6625;
776.7000;0.6716;0.6625;
777.0000;0.6716;0.6549;
777.3000;0.6691;0.6625;
777.6000;0.6740;0.6801;
777.9000;0.6748;0.6726;
778.2000;0.6716;0.6625;
778.5000;0.6716;0.6575;
778.8000;0.6707;0.6549;
779.1000;0.6707;0.6524;
779.4000;0.6707;0.6449;
779.7000;0.6683;0.6474;
780.0000;0.6683;0.6474;
780.3000;0.6748;0.6650;
780.6000;0.6716;0.6625;
780.9000;0.6732;0.6675;
781.2000;0.6691;0.6650;
781.5000;0.6732;0.6675;
781.8000;0.6667;0.6524;
782.1000;0.6699;0.6675;
782.4000;0.6716;0.6675;
782.7000;0.6699;0.6600;
783.0000;0.6716;0.6675;
783.3000;0.6675;0.6625;
783.6000;0.6691;0.6726;
783.9000;0.6667;0.6625;
784.2000;0.6675;0.6675;
784.5000;0.6691;0.6650;
784.8000;0.6707;0.6650;
785.1000;0.6675;0.6650;
785.4000;0.6748;0.6852;
785.7000;0.6699;0.6776;
786.0000;0.6707;0.6701;
786.3000;0.6691;0.6701;
786.6000;0.6707;0.6801;
786.9000;0.6724;0.6801;
787.2000;0.6691;0.6726;
787.5000;0.6691;0.6801;
787.8000;0.6659;0.6726;
788.1000;0.6683;0.6701;
788.4000;0.6699;0.6726;
788.7000;0.6683;0.6751;
789.0000;0.6707;0.6826;
789.3000;0.6699;0.6852;
789.6000;0.6675;0.6852;
789.9000;0.6707;0.6902;
790.2000;0.6691;0.6826;
790.5000;0.6683;0.6751;
790.8000;0.6699;0.6852;
791.1000;0.6667;0.6927;
791.4000;0.6626;0.6801;
791.7000;0.6691;0.6952;
792.0000;0.6675;0.6852;
792.3000;0.6650;0.6852;
792.6000;0.6650;0.6826;
792.9000;0.6675;0.6952;
793.2000;0.6675;0.6902;
793.5000;0.6675;0.6902;
793.8000;0.6683;0.6902;
794.1000;0.6659;0.6877;
794.4000;0.6675;0.6852;
794.7000;0.6675;0.6776;
795.0000;0.6691;0.6776;
795.3000;0.6650;0.6675;
795.6000;0.6707;0.6801;
795.9000;0.6683;0.6650;
796.2000;0.6667;0.6600;
796.5000;0.6659;0.6625;
796.8000;0.6667;0.6650;
797.1000;0.6740;0.6927;
797.4000;0.6675;0.6675;
797.7000;0.6667;0.6701;
798.0000;0.6667;0.6776;
798.3000;0.6650;0.6726;
798.6000;0.6667;0.6826;
798.9000;0.6667;0.6801;
799.2000;0.6593;0.6650;
799.5000;0.6667;0.6902;
799.8000;0.6659;0.6877;
800.1000;0.6659;0.6826;
800.4000;0.6675;0.6852;
800.7000;0.6659;0.6701;
801.0000;0.6675;0.6675;
801.3000;0.6650;0.6474;
801.6000;0.6667;0.6449;
801.9000;0.6667;0.6499;
802.2000;0.6659;0.6499;
802.5000;0.6675;0.6549;
802.8000;0.6691;0.6801;
803.1000;0.6699;0.6826;
803.4000;0.6642;0.6650;
803.7000;0.6642;0.6751;
804.0000;0.6699;0.6927;
804.3000;0.6650;0.6801;
804.6000;0.6650;0.6726;
804.9000;0.6659;0.6701;
805.2000;0.6650;0.6701;
805.5000;0.6659;0.6801;
805.8000;0.6650;0.6826;
806.1000;0.6634;0.6701;
806.4000;0.6634;0.6726;
806.7000;0.6642;0.6701;
807.0000;0.6699;0.6877;
807.3000;0.6659;0.6801;
807.6000;0.6634;0.6701;
807.9000;0.6618;0.6701;
808.2000;0.6634;0.6726;
808.5000;0.6610;0.6600;
808.8000;0.6618;0.6549;
809.1000;0.6642;0.6575;
809.4000;0.6634;0.6549;
809.7000;0.6634;0.6575;
810.0000;0.6626;0.6650;
810.3000;0.6642;0.6600;
810.6000;0.6626;0.6499;
810.9000;0.6650;0.6549;
811.2000;0.6642;0.6575;
811.5000;0.6626;0.6499;
811.8000;0.6618;0.6474;
812.1000;0.6634;0.6499;
812.4000;0.6650;0.6524;
812.7000;0.6610;0.6474;
813.0000;0.6610;0.6474;
813.3000;0.6650;0.6600;
813.6000;0.6634;0.6675;
813.9000;0.6650;0.6726;
814.2000;0.6659;0.6776;
814.5000;0.6642;0.6675;
814.8000;0.6618;0.6549;
815.1000;0.6642;0.6625;
815.4000;0.6626;0.6575;
815.7000;0.6626;0.6600;
816.0000;0.6626;0.6650;
816.3000;0.6626;0.6701;
816.6000;0.6634;0.6826;
816.9000;0.6618;0.6801;
817.2000;0.6691;0.7003;
817.5000;0.6634;0.6776;
817.8000;0.6634;0.6776;
818.1000;0.6618;0.6776;
818.4000;0.6626;0.6826;
818.7000;0.6626;0.6826;
819.0000;0.6650;0.6902;
819.3000;0.6618;0.6826;
819.6000;0.6626;0.6852;
819.9000;0.6634;0.6952;
820.2000;0.6618;0.7003;
820.5000;0.6610;0.6978;
820.8000;0.6610;0.7104;
821.1000;0.6659;0.7255;
821.4000;0.6585;0.7104;
821.7000;0.6602;0.7129;
822.0000;0.6577;0.6978;
822.3000;0.6650;0.7179;
822.6000;0.6618;0.6952;
822.9000;0.6610;0.6902;
823.2000;0.6634;0.7053;
823.5000;0.6602;0.6952;
823.8000;0.6618;0.6952;
824.1000;0.6634;0.7053;
824.4000;0.6602;0.6902;
824.7000;0.6593;0.6852;
825.0000;0.6610;0.6826;
825.3000;0.6626;0.6801;
825.6000;0.6602;0.6751;
825.9000;0.6610;0.6751;
826.2000;0.6577;0.6776;
826.5000;0.6553;0.6675;
826.8000;0.6602;0.6902;
827.1000;0.6610;0.6927;
827.4000;0.6634;0.6978;
827.7000;0.6593;0.6902;
828.0000;0.6536;0.6650;
828.3000;0.6593;0.6751;
828.6000;0.6545;0.6701;
828.9000;0.6610;0.6877;
829.2000;0.6593;0.6902;
829.5000;0.6602;0.6902;
829.8000;0.6610;0.6952;
830.1000;0.6610;0.7028;
830.4000;0.6610;0.6877;
830.7000;0.6610;0.6826;
831.0000;0.6593;0.6877;
831.3000;0.6610;0.6902;
831.6000;0.6593;0.6952;
831.9000;0.6642;0.6978;
832.2000;0.6610;0.6826;
832.5000;0.6602;0.6877;
832.8000;0.6602;0.7003;
833.1000;0.6602;0.7028;
833.4000;0.6593;0.7003;
833.7000;0.6610;0.6978;
834.0000;0.6593;0.6952;
834.3000;0.6618;0.6952;
834.6000;0.6585;0.6927;
834.9000;0.6602;0.6978;
835.2000;0.6585;0.7003;
835.5000;0.6602;0.7104;
835.8000;0.6585;0.7003;
836.1000;0.6602;0.6902;
836.4000;0.6602;0.6801;
836.7000;0.6610;0.6877;
837.0000;0.6593;0.6852;
837.3000;0.6593;0.6877;
837.6000;0.6602;0.6801;
837.9000;0.6593;0.6726;
838.2000;0.6585;0.6776;
838.5000;0.6577;0.6776;
838.8000;0.6585;0.6852;
839.1000;0.6585;0.6877;
839.4000;0.6602;0.7053;
839.7000;0.6577;0.7078;
840.0000;0.6585;0.7179;
840.3000;0.6593;0.7129;
840.6000;0.6585;0.7104;
840.9000;0.6585;0.7104;
841.2000;0.6585;0.7053;
841.5000;0.6593;0.7028;
841.8000;0.6602;0.6978;
842.1000;0.6610;0.6978;
842.4000;0.6593;0.7003;
842.7000;0.6593;0.7078;
843.0000;0.6561;0.7104;
843.3000;0.6585;0.7129;
843.6000;0.6585;0.7078;
843.9000;0.6536;0.6877;
844.2000;0.6585;0.6978;
844.5000;0.6585;0.6877;
844.8000;0.6593;0.6952;
845.1000;0.6585;0.6902;
845.4000;0.6585;0.7003;
845.7000;0.6610;0.6978;
846.0000;0.6577;0.6902;
846.3000;0.6577;0.6902;
846.6000;0.6577;0.6952;
846.9000;0.6585;0.6877;
847.2000;0.6593;0.6877;
847.5000;0.6585;0.6877;
847.8000;0.6577;0.6852;
848.1000;0.6593;0.6927;
848.4000;0.6585;0.6927;
848.7000;0.6577;0.6726;
849.0000;0.6520;0.6524;
849.3000;0.6553;0.6625;
849.6000;0.6561;0.6701;
849.9000;0.6569;0.6701;
850.2000;0.6561;0.6801;
850.5000;0.6569;0.6826;
850.8000;0.6585;0.6776;
851.1000;0.6610;0.6751;
851.4000;0.6577;0.6751;
851.7000;0.6561;0.6801;
852.0000;0.6569;0.6826;
852.3000;0.6577;0.6952;
852.6000;0.6561;0.6902;
852.9000;0.6536;0.6801;
853.2000;0.6577;0.6902;
853.5000;0.6577;0.6801;
853.8000;0.6569;0.6776;
854.1000;0.6569;0.6852;
854.4000;0.6512;0.6751;
854.7000;0.6577;0.6927;
855.0000;0.6545;0.6877;
855.3000;0.6577;0.6927;
855.6000;0.6569;0.6927;
855.9000;0.6585;0.6978;
856.2000;0.6569;0.6978;
856.5000;0.6512;0.6801;
856.8000;0.6569;0.6978;
857.1000;0.6553;0.6927;
857.4000;0.6561;0.6978;
857.7000;0.6561;0.7003;
858.0000;0.6561;0.7104;
858.3000;0.6553;0.7129;
858.6000;0.6553;0.7078;
858.9000;0.6569;0.7078;
859.2000;0.6545;0.7003;
859.5000;0.6569;0.6952;
859.8000;0.6569;0.6877;
860.1000;0.6561;0.6952;
860.4000;0.6561;0.6902;
860.7000;0.6577;0.6978;
861.0000;0.6577;0.7078;
861.3000;0.6561;0.7053;
861.6000;0.6561;0.6902;
861.9000;0.6561;0.6927;
862.2000;0.6569;0.6877;
862.5000;0.6553;0.6877;
862.8000;0.6561;0.6902;
863.1000;0.6536;0.6952;
863.4000;0.6577;0.7053;
863.7000;0.6553;0.6927;
864.0000;0.6545;0.6902;
864.3000;0.6545;0.6852;
864.6000;0.6561;0.6902;
864.9000;0.6553;0.6902;
865.2000;0.6561;0.6826;
865.5000;0.6536;0.6852;
865.8000;0.6569;0.6877;
866.1000;0.6561;0.6852;
866.4000;0.6545;0.6801;
866.7000;0.6553;0.6776;
867.0000;0.6553;0.6776;
867.3000;0.6569;0.6877;
867.6000;0.6553;0.6801;
867.9000;0.6553;0.6751;
868.2000;0.6561;0.6701;
868.5000;0.6561;0.6726;
868.8000;0.6569;0.6701;
869.1000;0.6553;0.6675;
869.4000;0.6569;0.6776;
869.7000;0.6553;0.6726;
870.0000;0.6561;0.6826;
870.3000;0.6536;0.6801;
870.6000;0.6553;0.6826;
870.9000;0.6561;0.6852;
871.2000;0.6553;0.6826;
871.5000;0.6528;0.6852;
871.8000;0.6593;0.7078;
872.1000;0.6569;0.7053;
872.4000;0.6561;0.7028;
872.7000;0.6545;0.6902;
873.0000;0.6455;0.6751;
873.3000;0.6528;0.6927;
873.6000;0.6520;0.6801;
873.9000;0.6536;0.6877;
874.2000;0.6536;0.6776;
874.5000;0.6520;0.6776;
874.8000;0.6536;0.6751;
875.1000;0.6569;0.6751;
875.4000;0.6536;0.6675;
875.7000;0.6528;0.6726;
876.0000;0.6528;0.6726;
876.3000;0.6545;0.6776;
876.6000;0.6528;0.6801;
876.9000;0.6528;0.6852;
877.2000;0.6545;0.6927;
877.5000;0.6577;0.7003;
877.8000;0.6536;0.6952;
878.1000;0.6496;0.6776;
878.4000;0.6528;0.6877;
878.7000;0.6536;0.6852;
879.0000;0.6553;0.6902;
879.3000;0.6528;0.6776;
879.6000;0.6496;0.6751;
879.9000;0.6536;0.6852;
880.2000;0.6536;0.6776;
880.5000;0.6577;0.6801;
880.8000;0.6545;0.6701;
881.1000;0.6545;0.6751;
881.4000;0.6545;0.6751;
881.7000;0.6536;0.6801;
882.0000;0.6536;0.6902;
882.3000;0.6536;0.6826;
882.6000;0.6536;0.6701;
882.9000;0.6536;0.6726;
883.2000;0.6536;0.6650;
883.5000;0.6536;0.6650;
883.8000;0.6545;0.6650;
884.1000;0.6545;0.6650;
884.4000;0.6545;0.6650;
884.7000;0.6520;0.6625;
885.0000;0.6536;0.6701;
885.3000;0.6536;0.6726;
885.6000;0.6479;0.6575;
885.9000;0.6512;0.6625;
886.2000;0.6536;0.6650;
886.5000;0.6504;0.6499;
886.8000;0.6536;0.6499;
887.1000;0.6536;0.6524;
887.4000;0.6528;0.6600;
887.7000;0.6488;0.6524;
888.0000;0.6512;0.6650;
888.3000;0.6504;0.6625;
888.6000;0.6602;0.6902;
888.9000;0.6520;0.6675;
889.2000;0.6536;0.6650;
889.5000;0.6520;0.6650;
889.8000;0.6528;0.6650;
890.1000;0.6528;0.6701;
890.4000;0.6536;0.6776;
890.7000;0.6528;0.6726;
891.0000;0.6545;0.6801;
891.3000;0.6553;0.6826;
891.6000;0.6545;0.6902;
891.9000;0.6545;0.6978;
892.2000;0.6528;0.6927;
892.5000;0.6536;0.6852;
892.8000;0.6528;0.6877;
893.1000;0.6504;0.6801;
893.4000;0.6520;0.6801;
893.7000;0.6520;0.6776;
894.0000;0.6520;0.6801;
894.3000;0.6479;0.6625;
894.6000;0.6512;0.6650;
894.9000;0.6512;0.6675;
895.2000;0.6553;0.6776;
895.5000;0.6520;0.6650;
895.8000;0.6512;0.6701;
896.1000;0.6569;0.6927;
896.4000;0.6528;0.6776;
896.7000;0.6528;0.6826;
897.0000;0.6504;0.6726;
897.3000;0.6528;0.6675;
897.6000;0.6536;0.6650;
897.9000;0.6512;0.6600;
898.2000;0.6496;0.6524;
898.5000;0.6561;0.6625;
898.8000;0.6536;0.6549;
899.1000;0.6536;0.6625;
899.4000;0.6528;0.6650;
899.7000;0.6528;0.6625;
900.0000;0.6520;0.6650;
900.3000;0.6520;0.6625;
900.6000;0.6536;0.6701;
900.9000;0.6545;0.6852;
901.2000;0.6520;0.6826;
901.5000;0.6528;0.6826;
901.8000;0.6520;0.6826;
902.1000;0.6504;0.6776;
902.4000;0.6504;0.6776;
902.7000;0.6545;0.6902;
903.0000;0.6528;0.6877;
903.3000;0.6520;0.6826;
903.6000;0.6520;0.6852;
903.9000;0.6520;0.6852;
904.2000;0.6536;0.6852;
904.5000;0.6520;0.6826;
904.8000;0.6504;0.6751;
905.1000;0.6520;0.6801;
905.4000;0.6504;0.6826;
905.7000;0.6512;0.6801;
906.0000;0.6504;0.6726;
906.3000;0.6520;0.6650;
906.6000;0.6504;0.6675;
906.9000;0.6504;0.6701;
907.2000;0.6512;0.6776;
907.5000;0.6520;0.6801;
907.8000;0.6504;0.6801;
908.1000;0.6528;0.6826;
908.4000;0.6536;0.6826;
908.7000;0.6512;0.6852;
909.0000;0.6512;0.6978;
909.3000;0.6520;0.7028;
909.6000;0.6520;0.6978;
909.9000;0.6496;0.6978;
910.2000;0.6512;0.7028;
910.5000;0.6504;0.7053;
910.8000;0.6471;0.6927;
911.1000;0.6504;0.7003;
911.4000;0.6512;0.7003;
911.7000;0.6528;0.7003;
912.0000;0.6520;0.7053;
912.3000;0.6512;0.7053;
912.6000;0.6528;0.7078;
912.9000;0.6512;0.7003;
913.2000;0.6512;0.7028;
913.5000;0.6496;0.6978;
913.8000;0.6504;0.6927;
914.1000;0.6504;0.6978;
914.4000;0.6504;0.6877;
914.7000;0.6520;0.6927;
915.0000;0.6504;0.6952;
915.3000;0.6496;0.6902;
915.6000;0.6520;0.6877;
915.9000;0.6471;0.6877;
916.2000;0.6512;0.7003;
916.5000;0.6545;0.7053;
916.8000;0.6496;0.6927;
917.1000;0.6520;0.7028;
917.4000;0.6496;0.6978;
917.7000;0.6528;0.7003;
918.0000;0.6479;0.6902;
918.3000;0.6488;0.6852;
918.6000;0.6504;0.6902;
918.9000;0.6479;0.6877;
919.2000;0.6488;0.6902;
919.5000;0.6512;0.6978;
919.8000;0.6512;0.6952;
920.1000;0.6439;0.6852;
920.4000;0.6496;0.7028;
920.7000;0.6536;0.7104;
921.0000;0.6488;0.7003;
921.3000;0.6504;0.7003;
921.6000;0.6496;0.6978;
921.9000;0.6496;0.6978;
922.2000;0.6496;0.6902;
922.5000;0.6496;0.6877;
922.8000;0.6512;0.6952;
923.1000;0.6504;0.7028;
923.4000;0.6479;0.6927;
923.7000;0.6504;0.6978;
924.0000;0.6479;0.6852;
924.3000;0.6479;0.6801;
924.6000;0.6488;0.6826;
924.9000;0.6496;0.6751;
925.2000;0.6471;0.6600;
925.5000;0.6512;0.6600;
925.8000;0.6504;0.6549;
926.1000;0.6496;0.6600;
926.4000;0.6496;0.6600;
926.7000;0.6496;0.6600;
927.0000;0.6504;0.6625;
927.3000;0.6504;0.6549;
927.6000;0.6488;0.6499;
927.9000;0.6488;0.6499;
928.2000;0.6488;0.6600;
928.5000;0.6512;0.6575;
928.8000;0.6512;0.6625;
929.1000;0.6512;0.6650;
929.4000;0.6496;0.6600;
929.7000;0.6504;0.6650;
930.0000;0.6504;0.6776;
930.3000;0.6536;0.6902;
930.6000;0.6479;0.6751;
930.9000;0.6488;0.6801;
931.2000;0.6488;0.6751;
931.5000;0.6488;0.6801;
931.8000;0.6479;0.6852;
932.1000;0.6479;0.6826;
932.4000;0.6504;0.6877;
932.7000;0.6496;0.6877;
933.0000;0.6512;0.6952;
933.3000;0.6471;0.6852;
933.6000;0.6512;0.6902;
933.9000;0.6488;0.6877;
934.2000;0.6479;0.6751;
934.5000;0.6496;0.6726;
934.8000;0.6479;0.6726;
935.1000;0.6496;0.6701;
935.4000;0.6479;0.6650;
935.7000;0.6488;0.6801;
936.0000;0.6504;0.6801;
936.3000;0.6488;0.6751;
936.6000;0.6455;0.6826;
936.9000;0.6471;0.6902;
937.2000;0.6479;0.6801;
937.5000;0.6496;0.6776;
937.8000;0.6488;0.6776;
938.1000;0.6488;0.6776;
938.4000;0.6496;0.6852;
938.7000;0.6496;0.6852;
939.0000;0.6455;0.6701;
939.3000;0.6479;0.6701;
939.6000;0.6471;0.6650;
939.9000;0.6471;0.6701;
940.2000;0.6471;0.6701;
940.5000;0.6479;0.6801;
940.8000;0.6463;0.6826;
941.1000;0.6479;0.6826;
941.4000;0.6488;0.6902;
941.7000;0.6496;0.6902;
942.0000;0.6488;0.6902;
942.3000;0.6488;0.6952;
942.6000;0.6488;0.6902;
942.9000;0.6479;0.6902;
943.2000;0.6479;0.6927;
943.5000;0.6496;0.7003;
943.8000;0.6488;0.6952;
944.1000;0.6439;0.6826;
944.4000;0.6479;0.6902;
944.7000;0.6463;0.6826;
945.0000;0.6471;0.6776;
945.3000;0.6471;0.6826;
945.6000;0.6455;0.6852;
945.9000;0.6471;0.6826;
946.2000;0.6479;0.6877;
946.5000;0.6553;0.7129;
946.8000;0.6488;0.6927;
947.1000;0.6512;0.6902;
947.4000;0.6536;0.6952;
947.7000;0.6504;0.6877;
948.0000;0.6488;0.6826;
948.3000;0.6488;0.6801;
948.6000;0.6528;0.6877;
948.9000;0.6479;0.6776;
949.2000;0.6479;0.6801;
949.5000;0.6479;0.6751;
949.8000;0.6479;0.6726;
950.1000;0.6496;0.6801;
950.4000;0.6479;0.6776;
950.7000;0.6479;0.6852;
951.0000;0.6488;0.6877;
951.3000;0.6471;0.6852;
951.6000;0.6471;0.6852;
951.9000;0.6463;0.6902;
952.2000;0.6455;0.6852;
952.5000;0.6439;0.6776;
952.8000;0.6479;0.6902;
953.1000;0.6455;0.6801;
953.4000;0.6463;0.6826;
953.7000;0.6471;0.6852;
954.0000;0.6471;0.6852;
954.3000;0.6496;0.6978;
954.6000;0.6471;0.6902;
954.9000;0.6479;0.6927;
955.2000;0.6496;0.6927;
955.5000;0.6471;0.6852;
955.8000;0.6463;0.6776;
956.1000;0.6455;0.6801;
956.4000;0.6488;0.6952;
956.7000;0.6455;0.6801;
957.0000;0.6471;0.6801;
957.3000;0.6447;0.6701;
957.6000;0.6479;0.6801;
957.9000;0.6479;0.6826;
958.2000;0.6479;0.6852;
958.5000;0.6463;0.6751;
958.8000;0.6479;0.6726;
959.1000;0.6455;0.6701;
959.4000;0.6479;0.6852;
959.7000;0.6463;0.6852;
960.0000;0.6463;0.6776;
960.3000;0.6488;0.6776;
960.6000;0.6406;0.6549;
960.9000;0.6447;0.6726;
961.2000;0.6463;0.6801;
961.5000;0.6479;0.6826;
961.8000;0.6471;0.6877;
962.1000;0.6479;0.6927;
962.4000;0.6471;0.6952;
962.7000;0.6479;0.6978;
963.0000;0.6512;0.7028;
963.3000;0.6479;0.6952;
963.6000;0.6471;0.6877;
963.9000;0.6512;0.7053;
964.2000;0.6463;0.6877;
964.5000;0.6479;0.6852;
964.8000;0.6463;0.6852;
965.1000;0.6471;0.6801;
965.4000;0.6479;0.6776;
965.7000;0.6463;0.6751;
966.0000;0.6520;0.6902;
966.3000;0.6520;0.6978;
966.6000;0.6455;0.6776;
966.9000;0.6463;0.6852;
967.2000;0.6455;0.6826;
967.5000;0.6431;0.6776;
967.8000;0.6463;0.6902;
968.1000;0.6463;0.6902;
968.4000;0.6455;0.6776;
968.7000;0.6463;0.6701;
969.0000;0.6431;0.6575;
969.3000;0.6439;0.6625;
969.6000;0.6455;0.6726;
969.9000;0.6479;0.6826;
970.2000;0.6455;0.6852;
970.5000;0.6463;0.6852;
970.8000;0.6447;0.6801;
971.1000;0.6431;0.6801;
971.4000;0.6455;0.6852;
971.7000;0.6463;0.6826;
972.0000;0.6390;0.6625;
972.3000;0.6455;0.6801;
972.6000;0.6455;0.6726;
972.9000;0.6455;0.6776;
973.2000;0.6479;0.6877;
973.5000;0.6455;0.6776;
973.8000;0.6447;0.6776;
974.1000;0.6463;0.6826;
974.4000;0.6471;0.6902;
974.7000;0.6463;0.6826;
975.0000;0.6463;0.6826;
975.3000;0.6463;0.6852;
975.6000;0.6463;0.6801;
975.9000;0.6439;0.6826;
976.2000;0.6455;0.6877;
976.5000;0.6455;0.6902;
976.8000;0.6431;0.6826;
977.1000;0.6463;0.6776;
977.4000;0.6455;0.6751;
977.7000;0.6431;0.6701;
978.0000;0.6479;0.6801;
978.3000;0.6479;0.6751;
978.6000;0.6455;0.6776;
978.9000;0.6455;0.6877;
979.2000;0.6463;0.6902;
979.5000;0.6447;0.6776;
979.8000;0.6455;0.6877;
980.1000;0.6455;0.6776;
980.4000;0.6463;0.6801;
980.7000;0.6463;0.6776;
981.0000;0.6455;0.6877;
981.3000;0.6447;0.6852;
981.6000;0.6455;0.6902;
981.9000;0.6439;0.6801;
982.2000;0.6455;0.6826;
982.5000;0.6447;0.6751;
982.8000;0.6439;0.6726;
983.1000;0.6479;0.6902;
983.4000;0.6455;0.6751;
983.7000;0.6455;0.6701;
984.0000;0.6447;0.6625;
984.3000;0.6447;0.6575;
984.6000;0.6447;0.6600;
984.9000;0.6439;0.6524;
985.2000;0.6439;0.6499;
985.5000;0.6455;0.6650;
985.8000;0.6374;0.6474;
986.1000;0.6447;0.6726;
986.4000;0.6422;0.6726;
986.7000;0.6439;0.6852;
987.0000;0.6479;0.6927;
987.3000;0.6414;0.6801;
987.6000;0.6390;0.6726;
987.9000;0.6374;0.6650;
988.2000;0.6447;0.6751;
988.5000;0.6447;0.6852;
988.8000;0.6471;0.6952;
989.1000;0.6422;0.6852;
989.4000;0.6447;0.6927;
989.7000;0.6447;0.7003;
990.0000;0.6455;0.7053;
990.3000;0.6439;0.7053;
990.6000;0.6455;0.7028;
990.9000;0.6439;0.7003;
991.2000;0.6390;0.6801;
991.5000;0.6447;0.6978;
991.8000;0.6439;0.6952;
992.1000;0.6447;0.6952;
992.4000;0.6463;0.7053;
992.7000;0.6439;0.7003;
993.0000;0.6463;0.7003;
993.3000;0.6455;0.6902;
993.6000;0.6431;0.6701;
993.9000;0.6463;0.6801;
994.2000;0.6447;0.6751;
994.5000;0.6455;0.6801;
994.8000;0.6431;0.6751;
995.1000;0.6455;0.6877;
995.4000;0.6414;0.6751;
995.7000;0.6455;0.6927;
996.0000;0.6455;0.6952;
996.3000;0.6447;0.6852;
996.6000;0.6431;0.6902;
996.9000;0.6365;0.6726;
997.2000;0.6455;0.6927;
997.5000;0.6439;0.6877;
997.8000;0.6455;0.6852;
998.1000;0.6431;0.6776;
998.4000;0.6479;0.6877;
998.7000;0.6422;0.6776;
999.0000;0.6455;0.6852;
999.3000;0.6479;0.6852;
999.6000;0.6447;0.6776;
999.9000;0.6447;0.6776;
1000.2000;0.6439;0.6751;
1000.5000;0.6422;0.6726;
1000.8000;0.6447;0.6801;
1001.1000;0.6439;0.6751;
1001.4000;0.6431;0.6751;
1001.7000;0.6431;0.6701;
1002.0000;0.6455;0.6776;
1002.3000;0.6422;0.6801;
1002.6000;0.6439;0.6877;
1002.9000;0.6431;0.6927;
1003.2000;0.6414;0.6852;
1003.5000;0.6422;0.6902;
1003.8000;0.6455;0.6902;
1004.1000;0.6439;0.6877;
1004.4000;0.6447;0.6801;
1004.7000;0.6431;0.6675;
1005.0000;0.6447;0.6751;
1005.3000;0.6447;0.6751;
1005.6000;0.6439;0.6852;
1005.9000;0.6447;0.6826;
1006.2000;0.6439;0.6826;
1006.5000;0.6496;0.7003;
1006.8000;0.6447;0.6927;
1007.1000;0.6447;0.6801;
1007.4000;0.6439;0.6751;
1007.7000;0.6455;0.6852;
1008.0000;0.6439;0.6751;
1008.3000;0.6439;0.6801;
1008.6000;0.6447;0.6877;
1008.9000;0.6471;0.6902;
1009.2000;0.6463;0.6877;
1009.5000;0.6439;0.6726;
1009.8000;0.6447;0.6776;
1010.1000;0.6455;0.6751;
1010.4000;0.6447;0.6776;
1010.7000;0.6463;0.6801;
1011.0000;0.6471;0.6801;
1011.3000;0.6422;0.6726;
1011.6000;0.6414;0.6675;
1011.9000;0.6439;0.6701;
1012.2000;0.6431;0.6701;
1012.5000;0.6439;0.6726;
1012.8000;0.6447;0.6826;
1013.1000;0.6414;0.6801;
1013.4000;0.6414;0.6801;
1013.7000;0.6414;0.6801;
1014.0000;0.6504;0.7104;
1014.3000;0.6422;0.6877;
1014.6000;0.6365;0.6776;
1014.9000;0.6439;0.6902;
1015.2000;0.6431;0.6776;
1015.5000;0.6431;0.6826;
1015.8000;0.6406;0.6801;
1016.1000;0.6414;0.6776;
1016.4000;0.6422;0.6826;
1016.7000;0.6431;0.6927;
1017.0000;0.6406;0.6826;
1017.3000;0.6422;0.6852;
1017.6000;0.6439;0.6877;
1017.9000;0.6439;0.6927;
1018.2000;0.6422;0.6927;
1018.5000;0.6439;0.7028;
1018.8000;0.6455;0.6952;
1019.1000;0.6455;0.7003;
1019.4000;0.6439;0.6877;
1019.7000;0.6431;0.6751;
1020.0000;0.6447;0.6902;
1020.3000;0.6455;0.6902;
1020.6000;0.6439;0.6927;
1020.9000;0.6455;0.6852;
1021.2000;0.6422;0.6801;
1021.5000;0.6439;0.6801;
1021.8000;0.6439;0.6826;
1022.1000;0.6455;0.6927;
1022.4000;0.6439;0.6826;
1022.7000;0.6431;0.6852;
1023.0000;0.6422;0.6902;
1023.3000;0.6455;0.6927;
1023.6000;0.6439;0.6801;
1023.9000;0.6431;0.6801;
1024.2000;0.6471;0.6852;
1024.5000;0.6447;0.6751;
1024.8000;0.6374;0.6650;
1025.1000;0.6439;0.6902;
1025.4000;0.6447;0.6927;
1025.7000;0.6422;0.6902;
1026.0000;0.6422;0.6902;
1026.3000;0.6398;0.6877;
1026.6000;0.6406;0.6978;
1026.9000;0.6439;0.7129;
1027.2000;0.6414;0.7003;
1027.5000;0.6398;0.6826;
1027.8000;0.6422;0.6776;
1028.1000;0.6439;0.6726;
1028.4000;0.6439;0.6751;
1028.7000;0.6439;0.6826;
1029.0000;0.6422;0.6751;
1029.3000;0.6422;0.6751;
1029.6000;0.6447;0.6751;
1029.9000;0.6414;0.6625;
1030.2000;0.6422;0.6701;
1030.5000;0.6422;0.6751;
1030.8000;0.6471;0.6852;
1031.1000;0.6398;0.6751;
1031.4000;0.6431;0.6826;
1031.7000;0.6422;0.6902;
1032.0000;0.6431;0.6877;
1032.3000;0.6422;0.6877;
1032.6000;0.6365;0.6650;
1032.9000;0.6439;0.6852;
1033.2000;0.6431;0.6877;
1033.5000;0.6431;0.6852;
1033.8000;0.6414;0.6877;
1034.1000;0.6431;0.6927;
1034.4000;0.6431;0.6877;
1034.7000;0.6414;0.6852;
1035.0000;0.6422;0.6927;
1035.3000;0.6414;0.6952;
1035.6000;0.6431;0.7053;
1035.9000;0.6422;0.6978;
1036.2000;0.6365;0.6801;
1036.5000;0.6431;0.6952;
1036.8000;0.6455;0.7129;
1037.1000;0.6341;0.6751;
1037.4000;0.6398;0.6927;
1037.7000;0.6398;0.6902;
1038.0000;0.6431;0.6776;
1038.3000;0.6422;0.6751;
1038.6000;0.6422;0.6726;
1038.9000;0.6414;0.6726;
1039.2000;0.6439;0.6877;
1039.5000;0.6488;0.7003;
1039.8000;0.6414;0.6826;
1040.1000;0.6406;0.6701;
1040.4000;0.6422;0.6852;
1040.7000;0.6414;0.6801;
1041.0000;0.6406;0.6751;
1041.3000;0.6406;0.6776;
1041.6000;0.6398;0.6751;
1041.9000;0.6422;0.6952;
1042.2000;0.6422;0.6952;
1042.5000;0.6398;0.6927;
1042.8000;0.6398;0.6877;
1043.1000;0.6422;0.6902;
1043.4000;0.6414;0.6902;
1043.7000;0.6414;0.6902;
1044.0000;0.6414;0.6978;
1044.3000;0.6422;0.7028;
1044.6000;0.6414;0.7078;
1044.9000;0.6414;0.7003;
1045.2000;0.6406;0.6978;
1045.5000;0.6422;0.7003;
1045.8000;0.6414;0.7078;
1046.1000;0.6414;0.7028;
1046.4000;0.6414;0.6952;
1046.7000;0.6414;0.7078;
1047.0000;0.6406;0.7028;
1047.3000;0.6431;0.7104;
1047.6000;0.6414;0.7028;
1047.9000;0.6414;0.7053;
1048.2000;0.6357;0.6978;
1048.5000;0.6431;0.7104;
1048.8000;0.6398;0.7003;
1049.1000;0.6398;0.7028;
1049.4000;0.6374;0.7003;
1049.7000;0.6414;0.7028;
1050.0000;0.6422;0.6927;
1050.3000;0.6414;0.6927;
1050.6000;0.6398;0.6902;
1050.9000;0.6414;0.6902;
1051.2000;0.6422;0.6877;
1051.5000;0.6414;0.6801;
1051.8000;0.6357;0.6650;
1052.1000;0.6422;0.6852;
1052.4000;0.6431;0.6877;
1052.7000;0.6431;0.6902;
1053.0000;0.6431;0.6978;
1053.3000;0.6414;0.6927;
1053.6000;0.6431;0.6952;
1053.9000;0.6406;0.7003;
1054.2000;0.6422;0.7003;
1054.5000;0.6422;0.6978;
1054.8000;0.6333;0.6726;
1055.1000;0.6422;0.6927;
1055.4000;0.6431;0.6952;
1055.7000;0.6357;0.6726;
1056.0000;0.6447;0.6927;
1056.3000;0.6414;0.6877;
1056.6000;0.6349;0.6675;
1056.9000;0.6422;0.6852;
1057.2000;0.6414;0.6801;
1057.5000;0.6406;0.6801;
1057.8000;0.6422;0.6852;
1058.1000;0.6414;0.6826;
1058.4000;0.6414;0.6877;
1058.7000;0.6406;0.6877;
1059.0000;0.6406;0.6852;
1059.3000;0.6406;0.7003;
1059.6000;0.6374;0.6952;
1059.9000;0.6455;0.7129;
1060.2000;0.6414;0.6952;
1060.5000;0.6365;0.6826;
1060.8000;0.6406;0.7028;
1061.1000;0.6422;0.7078;
1061.4000;0.6488;0.7230;
1061.7000;0.6406;0.7078;
1062.0000;0.6414;0.7003;
1062.3000;0.6422;0.6978;
1062.6000;0.6406;0.6927;
1062.9000;0.6431;0.7028;
1063.2000;0.6414;0.7129;
1063.5000;0.6398;0.7154;
1063.8000;0.6406;0.7154;
1064.1000;0.6398;0.7028;
1064.4000;0.6447;0.7129;
1064.7000;0.6390;0.6952;
1065.0000;0.6406;0.6978;
1065.3000;0.6414;0.7003;
1065.6000;0.6406;0.7028;
1065.9000;0.6422;0.7078;
1066.2000;0.6439;0.7078;
1066.5000;0.6431;0.7053;
1066.8000;0.6479;0.7154;
1067.1000;0.6390;0.7003;
1067.4000;0.6406;0.7104;
1067.7000;0.6422;0.7230;
1068.0000;0.6406;0.7179;
1068.3000;0.6398;0.7129;
1068.6000;0.6374;0.7028;
1068.9000;0.6422;0.7104;
1069.2000;0.6431;0.7028;
1069.5000;0.6398;0.6927;
1069.8000;0.6398;0.6927;
1070.1000;0.6422;0.6978;
1070.4000;0.6406;0.7028;
1070.7000;0.6406;0.6952;
1071.0000;0.6406;0.6927;
1071.3000;0.6414;0.6902;
1071.6000;0.6365;0.6801;
1071.9000;0.6414;0.7003;
1072.2000;0.6398;0.6978;
1072.5000;0.6374;0.7003;
1072.8000;0.6406;0.7104;
1073.1000;0.6390;0.7078;
1073.4000;0.6422;0.7053;
1073.7000;0.6406;0.7104;
1074.0000;0.6414;0.7204;
1074.3000;0.6447;0.7179;
1074.6000;0.6390;0.7003;
1074.9000;0.6447;0.7104;
1075.2000;0.6414;0.7053;
1075.5000;0.6406;0.6902;
1075.8000;0.6414;0.6877;
1076.1000;0.6398;0.6826;
1076.4000;0.6422;0.6852;
1076.7000;0.6414;0.6751;
1077.0000;0.6414;0.6726;
1077.3000;0.6414;0.6675;
1077.6000;0.6406;0.6650;
1077.9000;0.6398;0.6625;
1078.2000;0.6398;0.6625;
1078.5000;0.6398;0.6726;
1078.8000;0.6365;0.6650;
1079.1000;0.6406;0.6726;
1079.4000;0.6414;0.6801;
1079.7000;0.6414;0.6852;
1080.0000;0.6406;0.6902;
1080.3000;0.6455;0.6978;
1080.6000;0.6382;0.6726;
1080.9000;0.6390;0.6675;
1081.2000;0.6406;0.6650;
1081.5000;0.6390;0.6701;
1081.8000;0.6406;0.6801;
1082.1000;0.6414;0.6776;
1082.4000;0.6398;0.6751;
1082.7000;0.6390;0.6701;
1083.0000;0.6406;0.6877;
1083.3000;0.6374;0.6877;
1083.6000;0.6365;0.6826;
1083.9000;0.6422;0.6952;
1084.2000;0.6398;0.6927;
1084.5000;0.6398;0.6877;
1084.8000;0.6365;0.6726;
1085.1000;0.6398;0.6801;
1085.4000;0.6390;0.6852;
1085.7000;0.6398;0.6801;
1086.0000;0.6414;0.6801;
1086.3000;0.6398;0.6751;
1086.6000;0.6414;0.6801;
1086.9000;0.6390;0.6852;
1087.2000;0.6406;0.6927;
1087.5000;0.6414;0.6877;
1087.8000;0.6398;0.6877;
1088.1000;0.6390;0.6902;
1088.4000;0.6390;0.6927;
1088.7000;0.6406;0.6877;
1089.0000;0.6414;0.6751;
1089.3000;0.6414;0.6801;
1089.6000;0.6398;0.6726;
1089.9000;0.6414;0.6751;
1090.2000;0.6398;0.6801;
1090.5000;0.6414;0.6826;
1090.8000;0.6431;0.6902;
1091.1000;0.6398;0.6927;
1091.4000;0.6398;0.6952;
1091.7000;0.6390;0.6952;
1092.0000;0.6398;0.6902;
1092.3000;0.6414;0.6952;
1092.6000;0.6406;0.6902;
1092.9000;0.6398;0.6877;
1093.2000;0.6398;0.6826;
1093.5000;0.6390;0.6801;
1093.8000;0.6398;0.6726;
1094.1000;0.6406;0.6675;
1094.4000;0.6422;0.6726;
1094.7000;0.6398;0.6600;
1095.0000;0.6398;0.6650;
1095.3000;0.6341;0.6499;
1095.6000;0.6406;0.6575;
1095.9000;0.6406;0.6625;
1096.2000;0.6406;0.6524;
1096.5000;0.6406;0.6575;
1096.8000;0.6406;0.6575;
1097.1000;0.6398;0.6650;
1097.4000;0.6398;0.6726;
1097.7000;0.6398;0.6751;
1098.0000;0.6398;0.6701;
1098.3000;0.6406;0.6776;
1098.6000;0.6382;0.6776;
1098.9000;0.6414;0.6826;
1099.2000;0.6414;0.6826;
1099.5000;0.6414;0.6852;
1099.8000;0.6398;0.6952;
1100.1000;0.6406;0.6902;
1100.4000;0.6422;0.6877;
1100.7000;0.6431;0.6952;
1101.0000;0.6406;0.6852;
1101.3000;0.6406;0.6826;
1101.6000;0.6398;0.6801;
1101.9000;0.6398;0.6751;
1102.2000;0.6398;0.6726;
1102.5000;0.6406;0.6751;
1102.8000;0.6390;0.6776;
1103.1000;0.6398;0.6801;
1103.4000;0.6390;0.6826;
1103.7000;0.6390;0.6726;
1104.0000;0.6390;0.6726;
1104.3000;0.6390;0.6726;
1104.6000;0.6390;0.6751;
1104.9000;0.6398;0.6776;
1105.2000;0.6390;0.6826;
1105.5000;0.6414;0.6927;
1105.8000;0.6471;0.7078;
1106.1000;0.6365;0.6751;
1106.4000;0.6406;0.6801;
1106.7000;0.6398;0.6701;
1107.0000;0.6414;0.6776;
1107.3000;0.6422;0.6852;
1107.6000;0.6333;0.6726;
1107.9000;0.6390;0.6852;
1108.2000;0.6398;0.6877;
1108.5000;0.6390;0.6902;
1108.8000;0.6390;0.6927;
1109.1000;0.6398;0.6978;
1109.4000;0.6374;0.7104;
1109.7000;0.6398;0.7104;
1110.0000;0.6422;0.7154;
1110.3000;0.6374;0.7053;
1110.6000;0.6455;0.7280;
1110.9000;0.6382;0.7104;
1111.2000;0.6382;0.7053;
1111.5000;0.6325;0.6952;
1111.8000;0.6398;0.7053;
1112.1000;0.6422;0.7129;
1112.4000;0.6414;0.7053;
1112.7000;0.6398;0.7028;
1113.0000;0.6390;0.6978;
1113.3000;0.6382;0.6927;
1113.6000;0.6398;0.6877;
1113.9000;0.6390;0.6877;
1114.2000;0.6390;0.6852;
1114.5000;0.6374;0.6826;
1114.8000;0.6390;0.6852;
1115.1000;0.6382;0.6826;
1115.4000;0.6390;0.6877;
1115.7000;0.6374;0.6751;
1116.0000;0.6398;0.6852;
1116.3000;0.6382;0.6852;
1116.6000;0.6390;0.6927;
1116.9000;0.6382;0.6902;
1117.2000;0.6398;0.6952;
1117.5000;0.6382;0.6927;
1117.8000;0.6382;0.6927;
1118.1000;0.6390;0.6826;
1118.4000;0.6390;0.6801;
1118.7000;0.6374;0.6776;
1119.0000;0.6382;0.6877;
1119.3000;0.6374;0.6952;
1119.6000;0.6374;0.7028;
1119.9000;0.6309;0.6801;
1120.2000;0.6374;0.6952;
1120.5000;0.6390;0.6952;
1120.8000;0.6382;0.6826;
1121.1000;0.6406;0.6902;
1121.4000;0.6390;0.6776;
1121.7000;0.6431;0.6902;
1122.0000;0.6382;0.6776;
1122.3000;0.6382;0.6801;
1122.6000;0.6414;0.6877;
1122.9000;0.6390;0.6927;
1123.2000;0.6398;0.6877;
1123.5000;0.6398;0.6927;
1123.8000;0.6382;0.6826;
1124.1000;0.6390;0.6852;
1124.4000;0.6390;0.6978;
1124.7000;0.6357;0.6852;
1125.0000;0.6398;0.7028;
1125.3000;0.6374;0.6902;
1125.6000;0.6365;0.6927;
1125.9000;0.6382;0.6826;
1126.2000;0.6414;0.6877;
1126.5000;0.6390;0.6826;
1126.8000;0.6390;0.6877;
1127.1000;0.6390;0.6776;
1127.4000;0.6398;0.6801;
1127.7000;0.6390;0.6852;
1128.0000;0.6406;0.6978;
1128.3000;0.6390;0.6902;
1128.6000;0.6406;0.6952;
1128.9000;0.6357;0.6902;
1129.2000;0.6341;0.6877;
1129.5000;0.6398;0.7078;
1129.8000;0.6390;0.7028;
1130.1000;0.6455;0.7179;
1130.4000;0.6390;0.6978;
1130.7000;0.6390;0.6952;
1131.0000;0.6382;0.6978;
1131.3000;0.6398;0.6978;
1131.6000;0.6414;0.7003;
1131.9000;0.6374;0.6877;
1132.2000;0.6349;0.6826;
1132.5000;0.6390;0.6877;
1132.8000;0.6447;0.7053;
1133.1000;0.6414;0.6902;
1133.4000;0.6398;0.6902;
1133.7000;0.6382;0.6902;
1134.0000;0.6398;0.7003;
1134.3000;0.6390;0.6978;
1134.6000;0.6390;0.7028;
1134.9000;0.6390;0.7028;
1135.2000;0.6398;0.7003;
1135.5000;0.6374;0.6877;
1135.8000;0.6374;0.6776;
1136.1000;0.6390;0.6801;
1136.4000;0.6398;0.6902;
1136.7000;0.6398;0.6952;
1137.0000;0.6431;0.7078;
1137.3000;0.6382;0.6852;
1137.6000;0.6365;0.6751;
1137.9000;0.6398;0.6826;
1138.2000;0.6382;0.6776;
1138.5000;0.6382;0.6826;
1138.8000;0.6382;0.6902;
1139.1000;0.6374;0.6927;
1139.4000;0.6374;0.6952;
1139.7000;0.6390;0.7003;
1140.0000;0.6390;0.7003;
1140.3000;0.6374;0.7003;
1140.6000;0.6365;0.6902;
1140.9000;0.6382;0.6952;
1141.2000;0.6333;0.6852;
1141.5000;0.6374;0.6877;
1141.8000;0.6382;0.6877;
1142.1000;0.6382;0.6826;
1142.4000;0.6406;0.6852;
1142.7000;0.6365;0.6776;
1143.0000;0.6382;0.6852;
1143.3000;0.6390;0.7003;
1143.6000;0.6382;0.7129;
1143.9000;0.6374;0.7179;
1144.2000;0.6382;0.7204;
1144.5000;0.6382;0.7129;
1144.8000;0.6382;0.7104;
1145.1000;0.6382;0.7129;
1145.4000;0.6390;0.7104;
1145.7000;0.6390;0.7078;
1146.0000;0.6374;0.7078;
1146.3000;0.6382;0.7078;
1146.6000;0.6414;0.7028;
1146.9000;0.6390;0.7003;
1147.2000;0.6382;0.7053;
1147.5000;0.6406;0.7204;
1147.8000;0.6398;0.7129;
1148.1000;0.6390;0.7280;
1148.4000;0.6357;0.7230;
1148.7000;0.6390;0.7305;
1149.0000;0.6414;0.7305;
1149.3000;0.6398;0.7280;
1149.6000;0.6374;0.7154;
1149.9000;0.6365;0.7154;
1150.2000;0.6382;0.7179;
1150.5000;0.6365;0.7179;
1150.8000;0.6382;0.7255;
1151.1000;0.6382;0.7280;
1151.4000;0.6390;0.7204;
1151.7000;0.6447;0.7330;
1152.0000;0.6382;0.7003;
1152.3000;0.6317;0.6801;
1152.6000;0.6390;0.7003;
1152.9000;0.6374;0.6902;
1153.2000;0.6382;0.6902;
1153.5000;0.6406;0.6927;
1153.8000;0.6374;0.6776;
1154.1000;0.6357;0.6826;
1154.4000;0.6398;0.6978;
1154.7000;0.6365;0.6978;
1155.0000;0.6357;0.6902;
1155.3000;0.6357;0.6902;
1155.6000;0.6357;0.6877;
1155.9000;0.6374;0.6952;
1156.2000;0.6357;0.6902;
1156.5000;0.6374;0.6902;
1156.8000;0.6382;0.6952;
1157.1000;0.6422;0.7028;
1157.4000;0.6374;0.6902;
1157.7000;0.6374;0.6852;
1158.0000;0.6357;0.6852;
1158.3000;0.6374;0.6927;
1158.6000;0.6390;0.6952;
1158.9000;0.6382;0.6978;
1159.2000;0.6365;0.6952;
1159.5000;0.6398;0.6927;
1159.8000;0.6365;0.6978;
1160.1000;0.6374;0.6902;
1160.4000;0.6374;0.6927;
1160.7000;0.6365;0.6927;
1161.0000;0.6382;0.6952;
1161.3000;0.6382;0.6927;
1161.6000;0.6382;0.7003;
1161.9000;0.6414;0.7053;
1162.2000;0.6374;0.6952;
1162.5000;0.6374;0.7028;
1162.8000;0.6382;0.7003;
1163.1000;0.6390;0.6952;
1163.4000;0.6390;0.6927;
1163.7000;0.6398;0.6952;
1164.0000;0.6341;0.6852;
1164.3000;0.6374;0.7078;
1164.6000;0.6382;0.7154;
1164.9000;0.6374;0.7028;
1165.2000;0.6357;0.7104;
1165.5000;0.6374;0.7053;
1165.8000;0.6357;0.7053;
1166.1000;0.6382;0.7104;
1166.4000;0.6374;0.7104;
1166.7000;0.6365;0.7053;
1167.0000;0.6365;0.7003;
1167.3000;0.6398;0.7078;
1167.6000;0.6365;0.7028;
1167.9000;0.6382;0.6978;
1168.2000;0.6390;0.6978;
1168.5000;0.6382;0.6902;
1168.8000;0.6414;0.7003;
1169.1000;0.6382;0.6952;
1169.4000;0.6374;0.6978;
1169.7000;0.6398;0.7028;
1170.0000;0.6390;0.6978;
1170.3000;0.6374;0.7003;
1170.6000;0.6374;0.7003;
1170.9000;0.6406;0.7053;
1171.2000;0.6374;0.7028;
1171.5000;0.6398;0.7078;
1171.8000;0.6374;0.7028;
1172.1000;0.6374;0.7078;
1172.4000;0.6398;0.7129;
1172.7000;0.6390;0.7078;
1173.0000;0.6390;0.7053;
1173.3000;0.6382;0.7104;
1173.6000;0.6382;0.7053;
1173.9000;0.6374;0.6927;
1174.2000;0.6365;0.6952;
1174.5000;0.6374;0.7003;
1174.8000;0.6365;0.6902;
1175.1000;0.6374;0.6902;
1175.4000;0.6357;0.6902;
1175.7000;0.6365;0.6877;
1176.0000;0.6365;0.6826;
1176.3000;0.6357;0.6826;
1176.6000;0.6382;0.6877;
1176.9000;0.6357;0.6877;
1177.2000;0.6374;0.6978;
1177.5000;0.6349;0.6902;
1177.8000;0.6333;0.6852;
1178.1000;0.6390;0.6927;
1178.4000;0.6341;0.6701;
1178.7000;0.6365;0.6826;
1179.0000;0.6365;0.6826;
1179.3000;0.6357;0.6801;
1179.6000;0.6365;0.6801;
1179.9000;0.6382;0.6776;
1180.2000;0.6374;0.6801;
1180.5000;0.6349;0.6776;
1180.8000;0.6374;0.6877;
1181.1000;0.6374;0.6852;
1181.4000;0.6365;0.6852;
1181.7000;0.6382;0.6927;
1182.0000;0.6406;0.7003;
1182.3000;0.6374;0.6902;
1182.6000;0.6374;0.6927;
1182.9000;0.6382;0.6978;
1183.2000;0.6382;0.7003;
1183.5000;0.6390;0.6952;
1183.8000;0.6374;0.7003;
1184.1000;0.6374;0.7078;
1184.4000;0.6374;0.7104;
1184.7000;0.6374;0.7154;
1185.0000;0.6398;0.7129;
1185.3000;0.6382;0.7129;
1185.6000;0.6374;0.7078;
1185.9000;0.6382;0.7028;
1186.2000;0.6374;0.6978;
1186.5000;0.6382;0.6927;
1186.8000;0.6357;0.6927;
1187.1000;0.6382;0.7003;
1187.4000;0.6365;0.7053;
1187.7000;0.6325;0.6902;
1188.0000;0.6374;0.6978;
1188.3000;0.6365;0.6877;
1188.6000;0.6374;0.6877;
1188.9000;0.6382;0.6877;
1189.2000;0.6382;0.6902;
1189.5000;0.6357;0.6927;
1189.8000;0.6374;0.6927;
1190.1000;0.6365;0.6877;
1190.4000;0.6365;0.6952;
1190.7000;0.6374;0.6952;
1191.0000;0.6365;0.6952;
1191.3000;0.6357;0.7003;
1191.6000;0.6357;0.6978;
1191.9000;0.6374;0.6978;
1192.2000;0.6357;0.6927;
1192.5000;0.6374;0.6927;
1192.8000;0.6325;0.6877;
1193.1000;0.6374;0.6902;
1193.4000;0.6365;0.6978;
1193.7000;0.6374;0.6978;
1194.0000;0.6382;0.7003;
1194.3000;0.6357;0.6952;
1194.6000;0.6382;0.7028;
1194.9000;0.6374;0.7078;
1195.2000;0.6374;0.7129;
1195.5000;0.6365;0.7053;
1195.8000;0.6382;0.7104;
1196.1000;0.6357;0.6952;
1196.4000;0.6374;0.6978;
1196.7000;0.6365;0.6952;
1197.0000;0.6365;0.6902;
1197.3000;0.6357;0.6927;
1197.6000;0.6374;0.6978;
1197.9000;0.6398;0.7028;
1198.2000;0.6357;0.6952;
1198.5000;0.6463;0.7154;
1198.8000;0.6382;0.6902;
1199.1000;0.6374;0.6927;
1199.4000;0.6374;0.6852;
1199.7000;0.6365;0.6902;
1200.0000;0.6374;0.7053;
1200.3000;0.6317;0.7003;
1200.6000;0.6349;0.7129;
1200.9000;0.6357;0.7078;
1201.2000;0.6374;0.7028;
1201.5000;0.6382;0.7028;
1201.8000;0.6390;0.7078;
1202.1000;0.6365;0.7053;
1202.4000;0.6349;0.6978;
1202.7000;0.6365;0.6952;
1203.0000;0.6365;0.7028;
1203.3000;0.6398;0.7053;
1203.6000;0.6374;0.7078;
1203.9000;0.6382;0.6978;
1204.2000;0.6374;0.7028;
1204.5000;0.6382;0.7003;
1204.8000;0.6374;0.7028;
1205.1000;0.6374;0.7028;
1205.4000;0.6390;0.7078;
1205.7000;0.6365;0.7129;
1206.0000;0.6382;0.7104;
1206.3000;0.6365;0.7078;
1206.6000;0.6292;0.6852;
1206.9000;0.6365;0.6952;
1207.2000;0.6357;0.6902;
1207.5000;0.6357;0.6801;
1207.8000;0.6374;0.6877;
1208.1000;0.6374;0.6852;
1208.4000;0.6357;0.6826;
1208.7000;0.6365;0.6852;
1209.0000;0.6374;0.6852;
1209.3000;0.6374;0.6826;
1209.6000;0.6333;0.6675;
1209.9000;0.6365;0.6726;
1210.2000;0.6365;0.6801;
1210.5000;0.6365;0.6801;
1210.8000;0.6414;0.6927;
1211.1000;0.6365;0.6826;
1211.4000;0.6349;0.6776;
1211.7000;0.6365;0.6877;
1212.0000;0.6374;0.6852;
1212.3000;0.6333;0.6751;
1212.6000;0.6365;0.6877;
1212.9000;0.6374;0.6927;
1213.2000;0.6349;0.7003;
1213.5000;0.6357;0.6978;
1213.8000;0.6365;0.6927;
1214.1000;0.6365;0.6978;
1214.4000;0.6431;0.7129;
1214.7000;0.6357;0.6776;
1215.0000;0.6349;0.6751;
1215.3000;0.6431;0.7003;
1215.6000;0.6349;0.6726;
1215.9000;0.6349;0.6801;
1216.2000;0.6365;0.6776;
1216.5000;0.6309;0.6751;
1216.8000;0.6382;0.6902;
1217.1000;0.6349;0.6902;
1217.4000;0.6341;0.6952;
1217.7000;0.6365;0.7129;
1218.0000;0.6422;0.7280;
1218.3000;0.6374;0.7129;
1218.6000;0.6341;0.6978;
1218.9000;0.6390;0.7028;
1219.2000;0.6365;0.7003;
1219.5000;0.6374;0.7053;
1219.8000;0.6374;0.7129;
1220.1000;0.6357;0.7053;
1220.4000;0.6398;0.7104;
1220.7000;0.6398;0.7179;
1221.0000;0.6374;0.7078;
1221.3000;0.6349;0.6952;
1221.6000;0.6357;0.6902;
1221.9000;0.6365;0.6877;
1222.2000;0.6439;0.6927;
1222.5000;0.6365;0.6826;
1222.8000;0.6390;0.6877;
1223.1000;0.6398;0.6927;
1223.4000;0.6357;0.6902;
1223.7000;0.6357;0.6927;
1224.0000;0.6357;0.6877;
1224.3000;0.6374;0.6902;
1224.6000;0.6349;0.6978;
1224.9000;0.6333;0.6927;
1225.2000;0.6357;0.6902;
1225.5000;0.6349;0.6902;
1225.8000;0.6357;0.6877;
1226.1000;0.6349;0.6852;
1226.4000;0.6357;0.6852;
1226.7000;0.6365;0.7003;
1227.0000;0.6365;0.7028;
1227.3000;0.6365;0.7028;
1227.6000;0.6349;0.7003;
1227.9000;0.6349;0.6952;
1228.2000;0.6357;0.6952;
1228.5000;0.6365;0.7053;
1228.8000;0.6357;0.7028;
1229.1000;0.6317;0.6826;
1229.4000;0.6292;0.6826;
1229.7000;0.6325;0.7028;
1230.0000;0.6374;0.7078;
1230.3000;0.6365;0.7078;
1230.6000;0.6414;0.7179;
1230.9000;0.6365;0.7078;
1231.2000;0.6374;0.7078;
1231.5000;0.6325;0.6902;
1231.8000;0.6357;0.6927;
1232.1000;0.6357;0.7078;
1232.4000;0.6349;0.6952;
1232.7000;0.6341;0.6902;
1233.0000;0.6349;0.6952;
1233.3000;0.6349;0.6927;
1233.6000;0.6357;0.7028;
1233.9000;0.6333;0.6978;
1234.2000;0.6349;0.7003;
1234.5000;0.6374;0.7028;
1234.8000;0.6365;0.7078;
1235.1000;0.6365;0.7179;
1235.4000;0.6374;0.7255;
1235.7000;0.6325;0.7129;
1236.0000;0.6357;0.7129;
1236.3000;0.6365;0.7129;
1236.6000;0.6341;0.7104;
1236.9000;0.6357;0.7104;
1237.2000;0.6341;0.7053;
1237.5000;0.6365;0.7078;
1237.8000;0.6341;0.7003;
1238.1000;0.6341;0.6927;
1238.4000;0.6390;0.7053;
1238.7000;0.6374;0.7179;
1239.0000;0.6333;0.7129;
1239.3000;0.6365;0.7129;
1239.6000;0.6357;0.7028;
1239.9000;0.6357;0.7003;
1240.2000;0.6365;0.7028;
1240.5000;0.6382;0.7078;
1240.8000;0.6349;0.7053;
1241.1000;0.6365;0.7078;
1241.4000;0.6349;0.6978;
1241.7000;0.6357;0.6902;
1242.0000;0.6365;0.7053;
1242.3000;0.6357;0.7028;
1242.6000;0.6374;0.7028;
1242.9000;0.6357;0.6902;
1243.2000;0.6357;0.6927;
1243.5000;0.6374;0.7053;
1243.8000;0.6349;0.7003;
1244.1000;0.6357;0.7028;
1244.4000;0.6341;0.7003;
1244.7000;0.6292;0.6877;
1245.0000;0.6398;0.7104;
1245.3000;0.6357;0.6877;
1245.6000;0.6333;0.6852;
1245.9000;0.6357;0.6927;
1246.2000;0.6349;0.6826;
1246.5000;0.6374;0.6877;
1246.8000;0.6341;0.6877;
1247.1000;0.6325;0.6927;
1247.4000;0.6382;0.7078;
1247.7000;0.6365;0.6978;
1248.0000;0.6357;0.6927;
1248.3000;0.6357;0.6902;
1248.6000;0.6357;0.6952;
1248.9000;0.6349;0.6877;
1249.2000;0.6406;0.7179;
1249.5000;0.6374;0.7154;
1249.8000;0.6357;0.7104;
1250.1000;0.6365;0.7154;
1250.4000;0.6374;0.7230;
1250.7000;0.6374;0.7255;
1251.0000;0.6357;0.7129;
1251.3000;0.6349;0.7053;
1251.6000;0.6382;0.7230;
1251.9000;0.6365;0.7154;
1252.2000;0.6357;0.7003;
1252.5000;0.6349;0.7003;
1252.8000;0.6357;0.7003;
1253.1000;0.6349;0.6978;
1253.4000;0.6398;0.7129;
1253.7000;0.6357;0.7053;
1254.0000;0.6357;0.7028;
1254.3000;0.6333;0.6902;
1254.6000;0.6349;0.6927;
1254.9000;0.6349;0.7053;
1255.2000;0.6374;0.7230;
1255.5000;0.6414;0.7305;
1255.8000;0.6349;0.7078;
1256.1000;0.6365;0.7129;
1256.4000;0.6357;0.7179;
1256.7000;0.6357;0.7204;
1257.0000;0.6349;0.7179;
1257.3000;0.6341;0.7129;
1257.6000;0.6365;0.7104;
1257.9000;0.6349;0.7129;
1258.2000;0.6309;0.6927;
1258.5000;0.6292;0.6877;
1258.8000;0.6365;0.7003;
1259.1000;0.6365;0.7028;
1259.4000;0.6349;0.7053;
1259.7000;0.6406;0.7204;
1260.0000;0.6365;0.7053;
1260.3000;0.6365;0.7078;
1260.6000;0.6357;0.7104;
1260.9000;0.6349;0.7053;
1261.2000;0.6357;0.7104;
1261.5000;0.6357;0.7129;
1261.8000;0.6365;0.7204;
1262.1000;0.6349;0.7129;
1262.4000;0.6374;0.7104;
1262.7000;0.6382;0.7154;
1263.0000;0.6325;0.7028;
1263.3000;0.6341;0.7028;
1263.6000;0.6349;0.7003;
1263.9000;0.6365;0.7028;
1264.2000;0.6349;0.7028;
1264.5000;0.6357;0.7053;
1264.8000;0.6349;0.7179;
1265.1000;0.6374;0.7204;
1265.4000;0.6374;0.7204;
1265.7000;0.6365;0.7154;
1266.0000;0.6365;0.7204;
1266.3000;0.6349;0.7129;
1266.6000;0.6349;0.7154;
1266.9000;0.6341;0.7003;
1267.2000;0.6349;0.7129;
1267.5000;0.6341;0.7104;
1267.8000;0.6357;0.7154;
1268.1000;0.6349;0.7255;
1268.4000;0.6357;0.7305;
1268.7000;0.6341;0.7230;
1269.0000;0.6382;0.7381;
1269.3000;0.6357;0.7305;
1269.6000;0.6349;0.7305;
1269.9000;0.6317;0.7230;
1270.2000;0.6333;0.7330;
1270.5000;0.6357;0.7280;
1270.8000;0.6325;0.7179;
1271.1000;0.6341;0.7154;
1271.4000;0.6341;0.7230;
1271.7000;0.6365;0.7255;
1272.0000;0.6349;0.7230;
1272.3000;0.6349;0.7204;
1272.6000;0.6341;0.7204;
1272.9000;0.6357;0.7330;
1273.2000;0.6349;0.7230;
1273.5000;0.6357;0.7179;
1273.8000;0.6365;0.7154;
1274.1000;0.6365;0.7003;
1274.4000;0.6365;0.7003;
1274.7000;0.6349;0.7078;
1275.0000;0.6349;0.7154;
1275.3000;0.6374;0.7204;
1275.6000;0.6357;0.7104;
1275.9000;0.6349;0.7053;
1276.2000;0.6349;0.6978;
1276.5000;0.6374;0.6978;
1276.8000;0.6357;0.6927;
1277.1000;0.6382;0.6952;
1277.4000;0.6365;0.6902;
1277.7000;0.6349;0.6902;
1278.0000;0.6333;0.6902;
1278.3000;0.6349;0.7003;
1278.6000;0.6341;0.7053;
1278.9000;0.6365;0.7204;
1279.2000;0.6349;0.7104;
1279.5000;0.6365;0.7028;
1279.8000;0.6349;0.6927;
1280.1000;0.6357;0.7078;
1280.4000;0.6357;0.7078;
1280.7000;0.6349;0.7078;
1281.0000;0.6357;0.7078;
1281.3000;0.6357;0.7129;
1281.6000;0.6349;0.7129;
1281.9000;0.6357;0.7078;
1282.2000;0.6349;0.7053;
1282.5000;0.6317;0.7003;
1282.8000;0.6349;0.7078;
1283.1000;0.6341;0.6978;
1283.4000;0.6349;0.6952;
1283.7000;0.6341;0.6952;
1284.0000;0.6349;0.6952;
1284.3000;0.6349;0.6902;
1284.6000;0.6357;0.6852;
1284.9000;0.6349;0.6801;
1285.2000;0.6333;0.6751;
1285.5000;0.6349;0.6726;
1285.8000;0.6325;0.6675;
1286.1000;0.6341;0.6801;
1286.4000;0.6357;0.6877;
1286.7000;0.6374;0.6952;
1287.0000;0.6365;0.6927;
1287.3000;0.6284;0.6701;
1287.6000;0.6357;0.6852;
1287.9000;0.6341;0.6826;
1288.2000;0.6349;0.6801;
1288.5000;0.6325;0.6776;
1288.8000;0.6349;0.6927;
1289.1000;0.6349;0.6877;
1289.4000;0.6349;0.6877;
1289.7000;0.6349;0.6826;
1290.0000;0.6317;0.6726;
1290.3000;0.6349;0.6826;
1290.6000;0.6357;0.6902;
1290.9000;0.6357;0.6927;
1291.2000;0.6349;0.6902;
1291.5000;0.6341;0.6877;
1291.8000;0.6357;0.6877;
1292.1000;0.6349;0.6902;
1292.4000;0.6365;0.7003;
1292.7000;0.6357;0.7053;
1293.0000;0.6365;0.7154;
1293.3000;0.6357;0.7028;
1293.6000;0.6349;0.7003;
1293.9000;0.6349;0.7104;
1294.2000;0.6349;0.7078;
1294.5000;0.6349;0.7078;
1294.8000;0.6349;0.7129;
1295.1000;0.6357;0.7154;
1295.4000;0.6349;0.7129;
1295.7000;0.6357;0.7129;
1296.0000;0.6357;0.7078;
1296.3000;0.6349;0.7104;
1296.6000;0.6357;0.7179;
1296.9000;0.6341;0.7179;
1297.2000;0.6365;0.7179;
1297.5000;0.6349;0.7129;
1297.8000;0.6349;0.7179;
1298.1000;0.6341;0.7179;
1298.4000;0.6349;0.7129;
1298.7000;0.6349;0.7154;
1299.0000;0.6300;0.6902;
1299.3000;0.6341;0.7003;
1299.6000;0.6349;0.7078;
1299.9000;0.6365;0.7129;
1300.2000;0.6341;0.7129;
1300.5000;0.6357;0.7154;
1300.8000;0.6365;0.7154;
1301.1000;0.6365;0.7129;
1301.4000;0.6374;0.7204;
1301.7000;0.6357;0.7129;
1302.0000;0.6357;0.7028;
1302.3000;0.6357;0.6952;
1302.6000;0.6341;0.6978;
1302.9000;0.6365;0.7078;
1303.2000;0.6325;0.6952;
1303.5000;0.6357;0.6927;
1303.8000;0.6341;0.6927;
1304.1000;0.6333;0.7028;
1304.4000;0.6333;0.7003;
1304.7000;0.6349;0.6952;
1305.0000;0.6341;0.6877;
1305.3000;0.6341;0.6877;
1305.6000;0.6341;0.6902;
1305.9000;0.6341;0.6902;
1306.2000;0.6341;0.6826;
1306.5000;0.6333;0.6801;
1306.8000;0.6333;0.6801;
1307.1000;0.6341;0.6877;
1307.4000;0.6341;0.6852;
1307.7000;0.6325;0.6751;
1308.0000;0.6333;0.6751;
1308.3000;0.6341;0.6826;
1308.6000;0.6341;0.6852;
1308.9000;0.6357;0.6927;
1309.2000;0.6406;0.7154;
1309.5000;0.6349;0.6952;
1309.8000;0.6349;0.7003;
1310.1000;0.6349;0.7028;
1310.4000;0.6349;0.7078;
1310.7000;0.6349;0.7053;
1311.0000;0.6365;0.7154;
1311.3000;0.6357;0.6927;
1311.6000;0.6349;0.6978;
1311.9000;0.6349;0.6978;
1312.2000;0.6365;0.6902;
1312.5000;0.6365;0.6852;
1312.8000;0.6365;0.6877;
1313.1000;0.6341;0.6801;
1313.4000;0.6341;0.6902;
1313.7000;0.6349;0.7003;
1314.0000;0.6333;0.7003;
1314.3000;0.6333;0.6927;
1314.6000;0.6374;0.7003;
1314.9000;0.6341;0.6826;
1315.2000;0.6349;0.6852;
1315.5000;0.6349;0.6801;
1315.8000;0.6398;0.6952;
1316.1000;0.6357;0.6877;
1316.4000;0.6365;0.6927;
1316.7000;0.6341;0.6826;
1317.0000;0.6325;0.6726;
1317.3000;0.6349;0.6701;
1317.6000;0.6349;0.6751;
1317.9000;0.6349;0.6776;
1318.2000;0.6349;0.6927;
1318.5000;0.6349;0.6952;
1318.8000;0.6349;0.6902;
1319.1000;0.6341;0.6877;
1319.4000;0.6325;0.6978;
1319.7000;0.6325;0.6978;
1320.0000;0.6333;0.7053;
1320.3000;0.6341;0.7078;
1320.6000;0.6341;0.7078;
1320.9000;0.6341;0.7028;
1321.2000;0.6357;0.6978;
1321.5000;0.6382;0.7028;
1321.8000;0.6325;0.7003;
1322.1000;0.6341;0.7078;
1322.4000;0.6341;0.7078;
1322.7000;0.6365;0.7104;
1323.0000;0.6333;0.6978;
1323.3000;0.6333;0.7028;
1323.6000;0.6341;0.7053;
1323.9000;0.6349;0.6978;
1324.2000;0.6349;0.7104;
1324.5000;0.6341;0.6978;
1324.8000;0.6333;0.7003;
1325.1000;0.6357;0.7053;
1325.4000;0.6357;0.7204;
1325.7000;0.6365;0.7129;
1326.0000;0.6357;0.7053;
1326.3000;0.6341;0.7003;
1326.6000;0.6349;0.7154;
1326.9000;0.6357;0.7154;
1327.2000;0.6349;0.7028;
1327.5000;0.6349;0.7028;
1327.8000;0.6374;0.7078;
1328.1000;0.6341;0.7003;
1328.4000;0.6260;0.6726;
1328.7000;0.6382;0.7129;
1329.0000;0.6325;0.6952;
1329.3000;0.6349;0.6952;
1329.6000;0.6333;0.6902;
1329.9000;0.6357;0.7078;
1330.2000;0.6325;0.7028;
1330.5000;0.6300;0.7003;
1330.8000;0.6317;0.7028;
1331.1000;0.6325;0.7003;
1331.4000;0.6317;0.7028;
1331.7000;0.6374;0.7129;
1332.0000;0.6357;0.7078;
1332.3000;0.6349;0.6978;
1332.6000;0.6349;0.6978;
1332.9000;0.6365;0.7053;
1333.2000;0.6357;0.7028;
1333.5000;0.6341;0.7003;
1333.8000;0.6341;0.6978;
1334.1000;0.6349;0.7028;
1334.4000;0.6341;0.7003;
1334.7000;0.6406;0.7129;
1335.0000;0.6365;0.7028;
1335.3000;0.6341;0.6952;
1335.6000;0.6349;0.7003;
1335.9000;0.6341;0.6902;
1336.2000;0.6333;0.6927;
1336.5000;0.6365;0.7053;
1336.8000;0.6357;0.7053;
1337.1000;0.6349;0.7028;
1337.4000;0.6341;0.6978;
1337.7000;0.6349;0.6978;
1338.0000;0.6309;0.6952;
1338.3000;0.6357;0.7129;
1338.6000;0.6357;0.7078;
1338.9000;0.6341;0.7104;
1339.2000;0.6341;0.7078;
1339.5000;0.6333;0.7053;
1339.8000;0.6341;0.7104;
1340.1000;0.6333;0.7078;
1340.4000;0.6333;0.7053;
1340.7000;0.6341;0.7129;
1341.0000;0.6325;0.7078;
1341.3000;0.6333;0.7003;
1341.6000;0.6333;0.6978;
1341.9000;0.6357;0.7104;
1342.2000;0.6349;0.7028;
1342.5000;0.6374;0.6978;
1342.8000;0.6341;0.6852;
1343.1000;0.6341;0.6927;
1343.4000;0.6365;0.6978;
1343.7000;0.6349;0.6902;
1344.0000;0.6341;0.6902;
1344.3000;0.6341;0.6952;
1344.6000;0.6341;0.6927;
1344.9000;0.6357;0.6927;
1345.2000;0.6333;0.6801;
1345.5000;0.6325;0.6927;
1345.8000;0.6341;0.7129;
1346.1000;0.6341;0.7154;
1346.4000;0.6357;0.7129;
1346.7000;0.6349;0.7028;
1347.0000;0.6349;0.7154;
1347.3000;0.6349;0.7179;
1347.6000;0.6357;0.7230;
1347.9000;0.6333;0.7179;
1348.2000;0.6349;0.7230;
1348.5000;0.6325;0.7179;
1348.8000;0.6341;0.7255;
1349.1000;0.6341;0.7078;
1349.4000;0.6349;0.7104;
1349.7000;0.6365;0.7230;
1350.0000;0.6349;0.7204;
1350.3000;0.6333;0.7154;
1350.6000;0.6341;0.7129;
1350.9000;0.6406;0.7230;
1351.2000;0.6325;0.7078;
1351.5000;0.6341;0.7104;
1351.8000;0.6357;0.7179;
1352.1000;0.6349;0.7204;
1352.4000;0.6365;0.7255;
1352.7000;0.6390;0.7255;
1353.0000;0.6349;0.7179;
1353.3000;0.6325;0.7104;
1353.6000;0.6341;0.7104;
1353.9000;0.6325;0.7154;
1354.2000;0.6300;0.7078;
1354.5000;0.6349;0.7179;
1354.8000;0.6349;0.7028;
1355.1000;0.6333;0.6978;
1355.4000;0.6398;0.7078;
1355.7000;0.6333;0.6902;
1356.0000;0.6349;0.6826;
1356.3000;0.6357;0.6952;
1356.6000;0.6317;0.6978;
1356.9000;0.6333;0.7003;
1357.2000;0.6349;0.6978;
1357.5000;0.6357;0.7053;
1357.8000;0.6341;0.7003;
1358.1000;0.6341;0.7028;
1358.4000;0.6357;0.7204;
1358.7000;0.6365;0.7179;
1359.0000;0.6365;0.7179;
1359.3000;0.6325;0.7053;
1359.6000;0.6357;0.7028;
1359.9000;0.6341;0.7104;
1360.2000;0.6349;0.7154;
1360.5000;0.6325;0.7154;
1360.8000;0.6341;0.7028;
1361.1000;0.6284;0.6877;
1361.4000;0.6357;0.6952;
1361.7000;0.6341;0.6952;
1362.0000;0.6333;0.6978;
1362.3000;0.6333;0.7028;
1362.6000;0.6349;0.7104;
1362.9000;0.6349;0.7053;
1363.2000;0.6349;0.7053;
1363.5000;0.6341;0.7028;
1363.8000;0.6357;0.6927;
1364.1000;0.6341;0.6902;
1364.4000;0.6349;0.6927;
1364.7000;0.6357;0.7028;
1365.0000;0.6357;0.7104;
1365.3000;0.6357;0.7204;
1365.6000;0.6341;0.7255;
1365.9000;0.6309;0.7255;
1366.2000;0.6365;0.7330;
1366.5000;0.6333;0.7255;
1366.8000;0.6341;0.7255;
1367.1000;0.6333;0.7179;
1367.4000;0.6349;0.7255;
1367.7000;0.6325;0.7255;
1368.0000;0.6333;0.7204;
1368.3000;0.6349;0.7129;
1368.6000;0.6317;0.6978;
1368.9000;0.6365;0.7104;
1369.2000;0.6325;0.7179;
1369.5000;0.6300;0.7078;
1369.8000;0.6374;0.7129;
1370.1000;0.6422;0.7305;
1370.4000;0.6349;0.7104;
1370.7000;0.6317;0.6952;
1371.0000;0.6333;0.6902;
1371.3000;0.6341;0.6826;
1371.6000;0.6341;0.6726;
1371.9000;0.6341;0.6701;
1372.2000;0.6333;0.6751;
1372.5000;0.6341;0.6826;
1372.8000;0.6341;0.6902;
1373.1000;0.6349;0.6902;
1373.4000;0.6349;0.6902;
1373.7000;0.6341;0.6801;
1374.0000;0.6357;0.6776;
1374.3000;0.6325;0.6600;
1374.6000;0.6333;0.6650;
1374.9000;0.6398;0.6826;
1375.2000;0.6341;0.6675;
1375.5000;0.6333;0.6726;
1375.8000;0.6341;0.6776;
1376.1000;0.6349;0.6801;
1376.4000;0.6365;0.6852;
1376.7000;0.6382;0.6978;
1377.0000;0.6341;0.6877;
1377.3000;0.6317;0.6776;
1377.6000;0.6309;0.6801;
1377.9000;0.6325;0.6927;
1378.2000;0.6349;0.6952;
1378.5000;0.6333;0.6852;
1378.8000;0.6317;0.6801;
1379.1000;0.6341;0.6902;
1379.4000;0.6341;0.6927;
1379.7000;0.6333;0.6927;
1380.0000;0.6349;0.6978;
1380.3000;0.6333;0.7028;
1380.6000;0.6333;0.6927;
1380.9000;0.6341;0.6902;
1381.2000;0.6349;0.6826;
1381.5000;0.6333;0.6826;
1381.8000;0.6325;0.6877;
1382.1000;0.6341;0.6902;
1382.4000;0.6325;0.6952;
1382.7000;0.6349;0.6952;
1383.0000;0.6333;0.6952;
1383.3000;0.6341;0.7003;
1383.6000;0.6349;0.6978;
1383.9000;0.6341;0.6902;
1384.2000;0.6349;0.6852;
1384.5000;0.6349;0.6852;
1384.8000;0.6341;0.6826;
1385.1000;0.6357;0.6902;
1385.4000;0.6349;0.6877;
1385.7000;0.6349;0.6952;
1386.0000;0.6349;0.7003;
1386.3000;0.6357;0.7053;
1386.6000;0.6382;0.7154;
1386.9000;0.6341;0.7129;
1387.2000;0.6333;0.7129;
1387.5000;0.6341;0.7154;
1387.8000;0.6349;0.7204;
1388.1000;0.6357;0.7078;
1388.4000;0.6309;0.6877;
1388.7000;0.6349;0.7078;
1389.0000;0.6357;0.7078;
1389.3000;0.6357;0.7078;
1389.6000;0.6341;0.7053;
1389.9000;0.6333;0.7028;
1390.2000;0.6341;0.7003;
1390.5000;0.6341;0.7028;
1390.8000;0.6333;0.7003;
1391.1000;0.6333;0.6952;
1391.4000;0.6341;0.7078;
1391.7000;0.6341;0.7053;
1392.0000;0.6333;0.7078;
1392.3000;0.6333;0.7104;
1392.6000;0.6341;0.7129;
1392.9000;0.6341;0.7104;
1393.2000;0.6333;0.7028;
1393.5000;0.6333;0.6978;
1393.8000;0.6333;0.6852;
1394.1000;0.6349;0.6776;
1394.4000;0.6357;0.6852;
1394.7000;0.6341;0.6751;
1395.0000;0.6349;0.6776;
1395.3000;0.6333;0.6877;
1395.6000;0.6349;0.6902;
1395.9000;0.6341;0.6927;
1396.2000;0.6341;0.6877;
1396.5000;0.6284;0.6726;
1396.8000;0.6341;0.6751;
1397.1000;0.6341;0.6650;
1397.4000;0.6309;0.6650;
1397.7000;0.6349;0.6751;
1398.0000;0.6341;0.6650;
1398.3000;0.6333;0.6675;
1398.6000;0.6333;0.6726;
1398.9000;0.6333;0.6801;
1399.2000;0.6341;0.6826;
1399.5000;0.6349;0.6877;
1399.8000;0.6333;0.6877;
