time/ms;Fluo/V;P700 deltaI/I x10³;
-199.8000;0.4632;2.8466;
-199.5000;0.4632;2.8493;
-199.2000;0.4632;2.8466;
-198.9000;0.4607;2.8387;
-198.6000;0.4632;2.8466;
-198.3000;0.4624;2.8546;
-198.0000;0.4624;2.8546;
-197.7000;0.4632;2.8625;
-197.4000;0.4624;2.8677;
-197.1000;0.4632;2.8704;
-196.8000;0.4624;2.8730;
-196.5000;0.4632;2.8651;
-196.2000;0.4632;2.8546;
-195.9000;0.4664;2.8625;
-195.6000;0.4624;2.8519;
-195.3000;0.4640;2.8598;
-195.0000;0.4672;2.8677;
-194.7000;0.4624;2.8519;
-194.4000;0.4648;2.8466;
-194.1000;0.4664;2.8414;
-193.8000;0.4656;2.8440;
-193.5000;0.4681;2.8493;
-193.2000;0.4705;2.8651;
-192.9000;0.4648;2.8493;
-192.6000;0.4648;2.8440;
-192.3000;0.4640;2.8361;
-192.0000;0.4705;2.8414;
-191.7000;0.4648;2.8123;
-191.4000;0.4615;2.8044;
-191.1000;0.4640;2.8097;
-190.8000;0.4664;2.8071;
-190.5000;0.4648;2.8097;
-190.2000;0.4648;2.8071;
-189.9000;0.4640;2.8071;
-189.6000;0.4648;2.8071;
-189.3000;0.4640;2.8044;
-189.0000;0.4648;2.8176;
-188.7000;0.4648;2.8229;
-188.4000;0.4640;2.8203;
-188.1000;0.4648;2.8150;
-187.8000;0.4648;2.8334;
-187.5000;0.4705;2.8546;
-187.2000;0.4656;2.8466;
-186.9000;0.4640;2.8387;
-186.6000;0.4632;2.8440;
-186.3000;0.4526;2.8044;
-186.0000;0.4681;2.8414;
-185.7000;0.4648;2.8334;
-185.4000;0.4697;2.8493;
-185.1000;0.4672;2.8414;
-184.8000;0.4672;2.8361;
-184.5000;0.4648;2.8308;
-184.2000;0.4656;2.8334;
-183.9000;0.4640;2.8361;
-183.6000;0.4640;2.8334;
-183.3000;0.4640;2.8334;
-183.0000;0.4640;2.8229;
-182.7000;0.4640;2.8229;
-182.4000;0.4648;2.8229;
-182.1000;0.4656;2.8255;
-181.8000;0.4640;2.8282;
-181.5000;0.4640;2.8308;
-181.2000;0.4624;2.8334;
-180.9000;0.4664;2.8519;
-180.6000;0.4640;2.8546;
-180.3000;0.4624;2.8493;
-180.0000;0.4672;2.8730;
-179.7000;0.4648;2.8625;
-179.4000;0.4656;2.8677;
-179.1000;0.4640;2.8651;
-178.8000;0.4615;2.8466;
-178.5000;0.4624;2.8598;
-178.2000;0.4632;2.8598;
-177.9000;0.4640;2.8598;
-177.6000;0.4615;2.8625;
-177.3000;0.4615;2.8651;
-177.0000;0.4567;2.8466;
-176.7000;0.4510;2.8229;
-176.4000;0.4632;2.8598;
-176.1000;0.4640;2.8598;
-175.8000;0.4664;2.8546;
-175.5000;0.4648;2.8519;
-175.2000;0.4624;2.8414;
-174.9000;0.4640;2.8361;
-174.6000;0.4656;2.8440;
-174.3000;0.4648;2.8387;
-174.0000;0.4624;2.8282;
-173.7000;0.4648;2.8282;
-173.4000;0.4648;2.8308;
-173.1000;0.4640;2.8229;
-172.8000;0.4575;2.8044;
-172.5000;0.4632;2.8229;
-172.2000;0.4632;2.8255;
-171.9000;0.4656;2.8361;
-171.6000;0.4656;2.8361;
-171.3000;0.4697;2.8493;
-171.0000;0.4632;2.8255;
-170.7000;0.4640;2.8334;
-170.4000;0.4624;2.8150;
-170.1000;0.4713;2.8414;
-169.8000;0.4664;2.8176;
-169.5000;0.4664;2.8123;
-169.2000;0.4648;2.8176;
-168.9000;0.4615;2.8044;
-168.6000;0.4558;2.7860;
-168.3000;0.4640;2.8044;
-168.0000;0.4648;2.8150;
-167.7000;0.4640;2.8097;
-167.4000;0.4583;2.7912;
-167.1000;0.4640;2.8176;
-166.8000;0.4656;2.8150;
-166.5000;0.4632;2.8071;
-166.2000;0.4607;2.7965;
-165.9000;0.4615;2.7939;
-165.6000;0.4656;2.8071;
-165.3000;0.4558;2.7886;
-165.0000;0.4648;2.8361;
-164.7000;0.4640;2.8282;
-164.4000;0.4697;2.8466;
-164.1000;0.4721;2.8572;
-163.8000;0.4624;2.8361;
-163.5000;0.4632;2.8308;
-163.2000;0.4632;2.8308;
-162.9000;0.4648;2.8334;
-162.6000;0.4542;2.8018;
-162.3000;0.4632;2.8308;
-162.0000;0.4640;2.8387;
-161.7000;0.4624;2.8334;
-161.4000;0.4648;2.8519;
-161.1000;0.4640;2.8572;
-160.8000;0.4640;2.8572;
-160.5000;0.4624;2.8704;
-160.2000;0.4632;2.8757;
-159.9000;0.4640;2.8730;
-159.6000;0.4770;2.9020;
-159.3000;0.4632;2.8572;
-159.0000;0.4640;2.8625;
-158.7000;0.4640;2.8704;
-158.4000;0.4615;2.8677;
-158.1000;0.4648;2.8677;
-157.8000;0.4648;2.8783;
-157.5000;0.4640;2.8757;
-157.2000;0.4648;2.8783;
-156.9000;0.4632;2.8757;
-156.6000;0.4624;2.8704;
-156.3000;0.4558;2.8387;
-156.0000;0.4632;2.8651;
-155.7000;0.4624;2.8704;
-155.4000;0.4624;2.8651;
-155.1000;0.4624;2.8598;
-154.8000;0.4567;2.8440;
-154.5000;0.4624;2.8519;
-154.2000;0.4640;2.8546;
-153.9000;0.4681;2.8572;
-153.6000;0.4640;2.8493;
-153.3000;0.4632;2.8414;
-153.0000;0.4648;2.8387;
-152.7000;0.4648;2.8334;
-152.4000;0.4713;2.8519;
-152.1000;0.4640;2.8361;
-151.8000;0.4632;2.8308;
-151.5000;0.4599;2.8229;
-151.2000;0.4648;2.8334;
-150.9000;0.4624;2.8176;
-150.6000;0.4640;2.8176;
-150.3000;0.4648;2.8097;
-150.0000;0.4648;2.8203;
-149.7000;0.4640;2.8176;
-149.4000;0.4624;2.8044;
-149.1000;0.4664;2.8282;
-148.8000;0.4656;2.8308;
-148.5000;0.4632;2.8229;
-148.2000;0.4632;2.8255;
-147.9000;0.4705;2.8387;
-147.6000;0.4664;2.8308;
-147.3000;0.4632;2.8176;
-147.0000;0.4640;2.8176;
-146.7000;0.4648;2.8123;
-146.4000;0.4672;2.8203;
-146.1000;0.4648;2.8176;
-145.8000;0.4640;2.8229;
-145.5000;0.4640;2.8308;
-145.2000;0.4656;2.8334;
-144.9000;0.4656;2.8334;
-144.6000;0.4697;2.8466;
-144.3000;0.4648;2.8282;
-144.0000;0.4648;2.8229;
-143.7000;0.4656;2.8176;
-143.4000;0.4656;2.8176;
-143.1000;0.4640;2.8255;
-142.8000;0.4599;2.8044;
-142.5000;0.4640;2.8203;
-142.2000;0.4632;2.8203;
-141.9000;0.4640;2.8229;
-141.6000;0.4632;2.8282;
-141.3000;0.4648;2.8440;
-141.0000;0.4656;2.8546;
-140.7000;0.4648;2.8598;
-140.4000;0.4615;2.8493;
-140.1000;0.4632;2.8625;
-139.8000;0.4640;2.8730;
-139.5000;0.4632;2.8730;
-139.2000;0.4640;2.8783;
-138.9000;0.4607;2.8783;
-138.6000;0.4681;2.8968;
-138.3000;0.4624;2.8757;
-138.0000;0.4632;2.8730;
-137.7000;0.4624;2.8730;
-137.4000;0.4632;2.8704;
-137.1000;0.4632;2.8572;
-136.8000;0.4640;2.8598;
-136.5000;0.4624;2.8546;
-136.2000;0.4632;2.8572;
-135.9000;0.4624;2.8519;
-135.6000;0.4648;2.8519;
-135.3000;0.4672;2.8572;
-135.0000;0.4632;2.8440;
-134.7000;0.4640;2.8414;
-134.4000;0.4640;2.8414;
-134.1000;0.4632;2.8414;
-133.8000;0.4583;2.8282;
-133.5000;0.4656;2.8493;
-133.2000;0.4656;2.8493;
-132.9000;0.4624;2.8308;
-132.6000;0.4640;2.8282;
-132.3000;0.4648;2.8334;
-132.0000;0.4640;2.8282;
-131.7000;0.4640;2.8203;
-131.4000;0.4648;2.8229;
-131.1000;0.4624;2.8150;
-130.8000;0.4632;2.8203;
-130.5000;0.4648;2.8229;
-130.2000;0.4640;2.8229;
-129.9000;0.4648;2.8176;
-129.6000;0.4681;2.8282;
-129.3000;0.4624;2.8150;
-129.0000;0.4624;2.8150;
-128.7000;0.4632;2.8308;
-128.4000;0.4640;2.8334;
-128.1000;0.4648;2.8387;
-127.8000;0.4632;2.8308;
-127.5000;0.4640;2.8334;
-127.2000;0.4672;2.8414;
-126.9000;0.4632;2.8361;
-126.6000;0.4632;2.8255;
-126.3000;0.4640;2.8334;
-126.0000;0.4640;2.8414;
-125.7000;0.4624;2.8308;
-125.4000;0.4640;2.8361;
-125.1000;0.4640;2.8334;
-124.8000;0.4656;2.8466;
-124.5000;0.4648;2.8414;
-124.2000;0.4648;2.8361;
-123.9000;0.4648;2.8387;
-123.6000;0.4632;2.8387;
-123.3000;0.4599;2.8150;
-123.0000;0.4648;2.8387;
-122.7000;0.4640;2.8334;
-122.4000;0.4632;2.8414;
-122.1000;0.4656;2.8519;
-121.8000;0.4624;2.8519;
-121.5000;0.4591;2.8361;
-121.2000;0.4632;2.8414;
-120.9000;0.4624;2.8414;
-120.6000;0.4640;2.8414;
-120.3000;0.4632;2.8414;
-120.0000;0.4615;2.8387;
-119.7000;0.4656;2.8519;
-119.4000;0.4640;2.8493;
-119.1000;0.4656;2.8598;
-118.8000;0.4632;2.8546;
-118.5000;0.4656;2.8704;
-118.2000;0.4648;2.8625;
-117.9000;0.4648;2.8519;
-117.6000;0.4632;2.8546;
-117.3000;0.4624;2.8546;
-117.0000;0.4632;2.8440;
-116.7000;0.4640;2.8519;
-116.4000;0.4640;2.8546;
-116.1000;0.4624;2.8440;
-115.8000;0.4648;2.8493;
-115.5000;0.4648;2.8466;
-115.2000;0.4632;2.8387;
-114.9000;0.4648;2.8440;
-114.6000;0.4640;2.8414;
-114.3000;0.4607;2.8308;
-114.0000;0.4648;2.8493;
-113.7000;0.4632;2.8440;
-113.4000;0.4615;2.8387;
-113.1000;0.4640;2.8466;
-112.8000;0.4648;2.8334;
-112.5000;0.4615;2.8203;
-112.2000;0.4607;2.8150;
-111.9000;0.4648;2.8229;
-111.6000;0.4640;2.8229;
-111.3000;0.4632;2.8176;
-111.0000;0.4583;2.8203;
-110.7000;0.4632;2.8308;
-110.4000;0.4632;2.8334;
-110.1000;0.4640;2.8334;
-109.8000;0.4615;2.8361;
-109.5000;0.4656;2.8546;
-109.2000;0.4648;2.8519;
-108.9000;0.4632;2.8466;
-108.6000;0.4640;2.8466;
-108.3000;0.4648;2.8466;
-108.0000;0.4648;2.8440;
-107.7000;0.4656;2.8493;
-107.4000;0.4640;2.8387;
-107.1000;0.4648;2.8387;
-106.8000;0.4648;2.8334;
-106.5000;0.4656;2.8255;
-106.2000;0.4640;2.8229;
-105.9000;0.4656;2.8229;
-105.6000;0.4640;2.8176;
-105.3000;0.4672;2.8361;
-105.0000;0.4640;2.8229;
-104.7000;0.4640;2.8282;
-104.4000;0.4632;2.8334;
-104.1000;0.4632;2.8334;
-103.8000;0.4624;2.8334;
-103.5000;0.4648;2.8308;
-103.2000;0.4632;2.8255;
-102.9000;0.4656;2.8361;
-102.6000;0.4624;2.8308;
-102.3000;0.4632;2.8387;
-102.0000;0.4640;2.8414;
-101.7000;0.4648;2.8493;
-101.4000;0.4615;2.8414;
-101.1000;0.4624;2.8466;
-100.8000;0.4632;2.8440;
-100.5000;0.4648;2.8546;
-100.2000;0.4632;2.8440;
-99.9000;0.4640;2.8466;
-99.6000;0.4648;2.8466;
-99.3000;0.4624;2.8493;
-99.0000;0.4640;2.8572;
-98.7000;0.4624;2.8598;
-98.4000;0.4640;2.8651;
-98.1000;0.4640;2.8651;
-97.8000;0.4664;2.8598;
-97.5000;0.4656;2.8625;
-97.2000;0.4640;2.8598;
-96.9000;0.4632;2.8598;
-96.6000;0.4648;2.8677;
-96.3000;0.4640;2.8625;
-96.0000;0.4624;2.8466;
-95.7000;0.4640;2.8466;
-95.4000;0.4648;2.8493;
-95.1000;0.4615;2.8440;
-94.8000;0.4640;2.8493;
-94.5000;0.4648;2.8493;
-94.2000;0.4648;2.8361;
-93.9000;0.4656;2.8414;
-93.6000;0.4648;2.8361;
-93.3000;0.4656;2.8387;
-93.0000;0.4640;2.8440;
-92.7000;0.4640;2.8440;
-92.4000;0.4624;2.8334;
-92.1000;0.4664;2.8440;
-91.8000;0.4632;2.8414;
-91.5000;0.4737;2.8677;
-91.2000;0.4640;2.8414;
-90.9000;0.4632;2.8361;
-90.6000;0.4648;2.8334;
-90.3000;0.4632;2.8229;
-90.0000;0.4624;2.8308;
-89.7000;0.4624;2.8308;
-89.4000;0.4632;2.8255;
-89.1000;0.4640;2.8229;
-88.8000;0.4648;2.8097;
-88.5000;0.4648;2.8123;
-88.2000;0.4664;2.8071;
-87.9000;0.4640;2.7939;
-87.6000;0.4648;2.7991;
-87.3000;0.4697;2.8203;
-87.0000;0.4697;2.8255;
-86.7000;0.4640;2.8044;
-86.4000;0.4672;2.8123;
-86.1000;0.4656;2.8071;
-85.8000;0.4640;2.8123;
-85.5000;0.4615;2.8097;
-85.2000;0.4648;2.8255;
-84.9000;0.4632;2.8229;
-84.6000;0.4640;2.8203;
-84.3000;0.4664;2.8334;
-84.0000;0.4648;2.8203;
-83.7000;0.4640;2.8203;
-83.4000;0.4656;2.8203;
-83.1000;0.4640;2.8097;
-82.8000;0.4656;2.8071;
-82.5000;0.4640;2.8229;
-82.2000;0.4656;2.8308;
-81.9000;0.4648;2.8334;
-81.6000;0.4632;2.8361;
-81.3000;0.4664;2.8493;
-81.0000;0.4632;2.8440;
-80.7000;0.4640;2.8440;
-80.4000;0.4615;2.8440;
-80.1000;0.4632;2.8493;
-79.8000;0.4648;2.8519;
-79.5000;0.4624;2.8466;
-79.2000;0.4632;2.8414;
-78.9000;0.4624;2.8387;
-78.6000;0.4640;2.8440;
-78.3000;0.4615;2.8440;
-78.0000;0.4615;2.8440;
-77.7000;0.4632;2.8572;
-77.4000;0.4624;2.8466;
-77.1000;0.4648;2.8493;
-76.8000;0.4640;2.8440;
-76.5000;0.4632;2.8466;
-76.2000;0.4648;2.8493;
-75.9000;0.4664;2.8519;
-75.6000;0.4632;2.8440;
-75.3000;0.4624;2.8414;
-75.0000;0.4632;2.8493;
-74.7000;0.4632;2.8493;
-74.4000;0.4640;2.8466;
-74.1000;0.4640;2.8414;
-73.8000;0.4754;2.8704;
-73.5000;0.4648;2.8334;
-73.2000;0.4681;2.8308;
-72.9000;0.4640;2.8203;
-72.6000;0.4640;2.8150;
-72.3000;0.4640;2.8097;
-72.0000;0.4681;2.8176;
-71.7000;0.4648;2.8044;
-71.4000;0.4664;2.8123;
-71.1000;0.4656;2.8018;
-70.8000;0.4656;2.8097;
-70.5000;0.4632;2.8150;
-70.2000;0.4648;2.8203;
-69.9000;0.4656;2.8229;
-69.6000;0.4624;2.8097;
-69.3000;0.4648;2.8176;
-69.0000;0.4632;2.8203;
-68.7000;0.4632;2.8229;
-68.4000;0.4656;2.8203;
-68.1000;0.4648;2.8203;
-67.8000;0.4640;2.8150;
-67.5000;0.4648;2.8255;
-67.2000;0.4648;2.8229;
-66.9000;0.4640;2.8176;
-66.6000;0.4640;2.8150;
-66.3000;0.4542;2.7833;
-66.0000;0.4640;2.8229;
-65.7000;0.4656;2.8150;
-65.4000;0.4640;2.8229;
-65.1000;0.4648;2.8255;
-64.8000;0.4640;2.8255;
-64.5000;0.4721;2.8598;
-64.2000;0.4656;2.8334;
-63.9000;0.4624;2.8334;
-63.6000;0.4640;2.8334;
-63.3000;0.4656;2.8361;
-63.0000;0.4746;2.8625;
-62.7000;0.4648;2.8387;
-62.4000;0.4648;2.8334;
-62.1000;0.4615;2.8176;
-61.8000;0.4632;2.8282;
-61.5000;0.4632;2.8440;
-61.2000;0.4632;2.8414;
-60.9000;0.4624;2.8361;
-60.6000;0.4632;2.8519;
-60.3000;0.4640;2.8387;
-60.0000;0.4624;2.8466;
-59.7000;0.4640;2.8493;
-59.4000;0.4632;2.8493;
-59.1000;0.4640;2.8466;
-58.8000;0.4624;2.8493;
-58.5000;0.4656;2.8598;
-58.2000;0.4640;2.8598;
-57.9000;0.4632;2.8704;
-57.6000;0.4640;2.8757;
-57.3000;0.4640;2.8677;
-57.0000;0.4656;2.8730;
-56.7000;0.4632;2.8546;
-56.4000;0.4640;2.8598;
-56.1000;0.4648;2.8598;
-55.8000;0.4640;2.8598;
-55.5000;0.4567;2.8466;
-55.2000;0.4632;2.8677;
-54.9000;0.4648;2.8625;
-54.6000;0.4632;2.8466;
-54.3000;0.4632;2.8440;
-54.0000;0.4624;2.8414;
-53.7000;0.4624;2.8387;
-53.4000;0.4648;2.8361;
-53.1000;0.4632;2.8414;
-52.8000;0.4632;2.8361;
-52.5000;0.4640;2.8361;
-52.2000;0.4632;2.8229;
-51.9000;0.4640;2.8203;
-51.6000;0.4656;2.8334;
-51.3000;0.4656;2.8361;
-51.0000;0.4648;2.8308;
-50.7000;0.4542;2.7991;
-50.4000;0.4632;2.8361;
-50.1000;0.4624;2.8308;
-49.8000;0.4624;2.8308;
-49.5000;0.4648;2.8387;
-49.2000;0.4648;2.8387;
-48.9000;0.4640;2.8361;
-48.6000;0.4632;2.8334;
-48.3000;0.4648;2.8308;
-48.0000;0.4648;2.8282;
-47.7000;0.4721;2.8466;
-47.4000;0.4640;2.8282;
-47.1000;0.4664;2.8334;
-46.8000;0.4591;2.8229;
-46.5000;0.4648;2.8387;
-46.2000;0.4648;2.8387;
-45.9000;0.4664;2.8493;
-45.6000;0.4640;2.8519;
-45.3000;0.4737;2.8809;
-45.0000;0.4640;2.8387;
-44.7000;0.4640;2.8308;
-44.4000;0.4640;2.8308;
-44.1000;0.4713;2.8493;
-43.8000;0.4656;2.8361;
-43.5000;0.4640;2.8334;
-43.2000;0.4632;2.8361;
-42.9000;0.4632;2.8414;
-42.6000;0.4640;2.8414;
-42.3000;0.4624;2.8361;
-42.0000;0.4640;2.8387;
-41.7000;0.4640;2.8466;
-41.4000;0.4640;2.8466;
-41.1000;0.4624;2.8440;
-40.8000;0.4640;2.8598;
-40.5000;0.4648;2.8677;
-40.2000;0.4583;2.8466;
-39.9000;0.4624;2.8572;
-39.6000;0.4632;2.8519;
-39.3000;0.4632;2.8546;
-39.0000;0.4697;2.8677;
-38.7000;0.4632;2.8598;
-38.4000;0.4632;2.8598;
-38.1000;0.4664;2.8704;
-37.8000;0.4640;2.8730;
-37.5000;0.4648;2.8704;
-37.2000;0.4632;2.8598;
-36.9000;0.4664;2.8651;
-36.6000;0.4640;2.8651;
-36.3000;0.4648;2.8677;
-36.0000;0.4648;2.8677;
-35.7000;0.4648;2.8625;
-35.4000;0.4648;2.8572;
-35.1000;0.4632;2.8466;
-34.8000;0.4640;2.8387;
-34.5000;0.4632;2.8334;
-34.2000;0.4640;2.8414;
-33.9000;0.4648;2.8414;
-33.6000;0.4648;2.8361;
-33.3000;0.4632;2.8334;
-33.0000;0.4640;2.8387;
-32.7000;0.4681;2.8440;
-32.4000;0.4648;2.8282;
-32.1000;0.4632;2.8150;
-31.8000;0.4648;2.8150;
-31.5000;0.4648;2.8229;
-31.2000;0.4640;2.8203;
-30.9000;0.4664;2.8308;
-30.6000;0.4607;2.8123;
-30.3000;0.4648;2.8361;
-30.0000;0.4640;2.8334;
-29.7000;0.4632;2.8308;
-29.4000;0.4640;2.8308;
-29.1000;0.4632;2.8334;
-28.8000;0.4656;2.8308;
-28.5000;0.4648;2.8282;
-28.2000;0.4632;2.8334;
-27.9000;0.4599;2.8203;
-27.6000;0.4624;2.8334;
-27.3000;0.4632;2.8414;
-27.0000;0.4640;2.8493;
-26.7000;0.4648;2.8546;
-26.4000;0.4648;2.8466;
-26.1000;0.4664;2.8572;
-25.8000;0.4648;2.8440;
-25.5000;0.4624;2.8414;
-25.2000;0.4648;2.8519;
-24.9000;0.4664;2.8466;
-24.6000;0.4656;2.8414;
-24.3000;0.4656;2.8440;
-24.0000;0.4672;2.8598;
-23.7000;0.4632;2.8572;
-23.4000;0.4624;2.8519;
-23.1000;0.4664;2.8625;
-22.8000;0.4640;2.8625;
-22.5000;0.4640;2.8546;
-22.2000;0.4640;2.8546;
-21.9000;0.4664;2.8598;
-21.6000;0.4607;2.8493;
-21.3000;0.4681;2.8757;
-21.0000;0.4640;2.8651;
-20.7000;0.4624;2.8651;
-20.4000;0.4640;2.8757;
-20.1000;0.4648;2.8836;
-19.8000;0.4624;2.8730;
-19.5000;0.4607;2.8598;
-19.2000;0.4640;2.8730;
-18.9000;0.4624;2.8625;
-18.6000;0.4640;2.8677;
-18.3000;0.4542;2.8334;
-18.0000;0.4632;2.8572;
-17.7000;0.4615;2.8493;
-17.4000;0.4632;2.8546;
-17.1000;0.4640;2.8598;
-16.8000;0.4681;2.8598;
-16.5000;0.4632;2.8519;
-16.2000;0.4632;2.8519;
-15.9000;0.4583;2.8308;
-15.6000;0.4632;2.8466;
-15.3000;0.4624;2.8466;
-15.0000;0.4640;2.8440;
-14.7000;0.4526;2.8044;
-14.4000;0.4762;2.8651;
-14.1000;0.4640;2.8255;
-13.8000;0.4591;2.8044;
-13.5000;0.4640;2.8334;
-13.2000;0.4656;2.8414;
-12.9000;0.4640;2.8361;
-12.6000;0.4632;2.8387;
-12.3000;0.4640;2.8387;
-12.0000;0.4632;2.8387;
-11.7000;0.4632;2.8387;
-11.4000;0.4640;2.8466;
-11.1000;0.4640;2.8493;
-10.8000;0.4656;2.8519;
-10.5000;0.4656;2.8546;
-10.2000;0.4632;2.8387;
-9.9000;0.4648;2.8387;
-9.6000;0.4615;2.8334;
-9.3000;0.4640;2.8440;
-9.0000;0.4648;2.8572;
-8.7000;0.4648;2.8651;
-8.4000;0.4640;2.8546;
-8.1000;0.4648;2.8493;
-7.8000;0.4648;2.8598;
-7.5000;0.4648;2.8519;
-7.2000;0.4656;2.8546;
-6.9000;0.4648;2.8493;
-6.6000;0.4640;2.8414;
-6.3000;0.4640;2.8493;
-6.0000;0.4656;2.8440;
-5.7000;0.4640;2.8334;
-5.4000;0.4640;2.8282;
-5.1000;0.4640;2.8387;
-4.8000;0.4664;2.8466;
-4.5000;0.4656;2.8466;
-4.2000;0.4648;2.8361;
-3.9000;0.4632;2.8361;
-3.6000;0.4648;2.8387;
-3.3000;0.4656;2.8334;
-3.0000;0.4648;2.8308;
-2.7000;0.4632;2.8334;
-2.4000;0.4615;2.8255;
-2.1000;0.4672;2.8519;
-1.8000;0.4648;2.8493;
-1.5000;0.4624;2.8466;
-1.2000;0.4615;2.8440;
-0.9000;0.4648;2.8677;
-0.6000;0.4648;2.8757;
-0.3000;0.4640;2.8730;
0.0000;0.4640;2.8730;
0.3000;0.4737;2.8493;
0.6000;0.4957;2.9020;
0.9000;0.5104;2.9443;
1.2000;0.5185;2.9785;
1.5000;0.5324;3.0287;
1.8000;0.5397;3.0630;
2.1000;0.5462;3.0973;
2.4000;0.5543;3.1289;
2.7000;0.5576;3.1500;
3.0000;0.5617;3.1659;
3.3000;0.5641;3.1764;
3.6000;0.5665;3.1975;
3.9000;0.5665;3.2054;
4.2000;0.5698;3.2081;
4.5000;0.5755;3.2213;
4.8000;0.5763;3.2186;
5.1000;0.5788;3.2292;
5.4000;0.5779;3.2213;
5.7000;0.5885;3.2476;
6.0000;0.5828;3.2318;
6.3000;0.5869;3.2424;
6.6000;0.5853;3.2371;
6.9000;0.5845;3.2345;
7.2000;0.5926;3.2529;
7.5000;0.5885;3.2345;
7.8000;0.5845;3.2160;
8.1000;0.5910;3.2318;
8.4000;0.5910;3.2292;
8.7000;0.5926;3.2213;
9.0000;0.5918;3.2107;
9.3000;0.5975;3.2186;
9.6000;0.5967;3.2107;
9.9000;0.5950;3.2213;
10.2000;0.5975;3.2265;
10.5000;0.5991;3.2371;
10.8000;0.5983;3.2265;
11.1000;0.5999;3.2292;
11.4000;0.6007;3.2318;
11.7000;0.6015;3.2292;
12.0000;0.5999;3.2292;
12.3000;0.6024;3.2345;
12.6000;0.6024;3.2424;
12.9000;0.6040;3.2371;
13.2000;0.6015;3.2318;
13.5000;0.6040;3.2424;
13.8000;0.6064;3.2529;
14.1000;0.6040;3.2503;
14.4000;0.6064;3.2476;
14.7000;0.6056;3.2424;
15.0000;0.6048;3.2318;
15.3000;0.6097;3.2476;
15.6000;0.6113;3.2556;
15.9000;0.6097;3.2397;
16.2000;0.6113;3.2318;
16.5000;0.6146;3.2450;
16.8000;0.6097;3.2397;
17.1000;0.6105;3.2476;
17.4000;0.6121;3.2503;
17.7000;0.6113;3.2556;
18.0000;0.6113;3.2529;
18.3000;0.6121;3.2529;
18.6000;0.6089;3.2318;
18.9000;0.6178;3.2556;
19.2000;0.6113;3.2397;
19.5000;0.6146;3.2476;
19.8000;0.6154;3.2424;
20.1000;0.6170;3.2582;
20.4000;0.6146;3.2635;
20.7000;0.6146;3.2688;
21.0000;0.6154;3.2740;
21.3000;0.6154;3.2767;
21.6000;0.6146;3.2688;
21.9000;0.6162;3.2872;
22.2000;0.6113;3.2767;
22.5000;0.6186;3.2819;
22.8000;0.6186;3.2819;
23.1000;0.6146;3.2661;
23.4000;0.6178;3.2819;
23.7000;0.6203;3.2819;
24.0000;0.6203;3.2767;
24.3000;0.6195;3.2740;
24.6000;0.6195;3.2714;
24.9000;0.6211;3.2688;
25.2000;0.6203;3.2635;
25.5000;0.6276;3.2767;
25.8000;0.6211;3.2556;
26.1000;0.6219;3.2582;
26.4000;0.6235;3.2503;
26.7000;0.6178;3.2397;
27.0000;0.6219;3.2529;
27.3000;0.6227;3.2582;
27.6000;0.6186;3.2450;
27.9000;0.6219;3.2556;
28.2000;0.6211;3.2529;
28.5000;0.6203;3.2529;
28.8000;0.6227;3.2608;
29.1000;0.6252;3.2582;
29.4000;0.6227;3.2476;
29.7000;0.6235;3.2424;
30.0000;0.6227;3.2318;
30.3000;0.6235;3.2476;
30.6000;0.6235;3.2476;
30.9000;0.6260;3.2424;
31.2000;0.6260;3.2503;
31.5000;0.6260;3.2556;
31.8000;0.6195;3.2397;
32.1000;0.6252;3.2450;
32.4000;0.6252;3.2371;
32.7000;0.6260;3.2424;
33.0000;0.6252;3.2397;
33.3000;0.6300;3.2582;
33.6000;0.6252;3.2476;
33.9000;0.6284;3.2582;
34.2000;0.6268;3.2529;
34.5000;0.6260;3.2450;
34.8000;0.6276;3.2529;
35.1000;0.6309;3.2608;
35.4000;0.6260;3.2529;
35.7000;0.6300;3.2714;
36.0000;0.6325;3.2846;
36.3000;0.6284;3.2714;
36.6000;0.6317;3.2714;
36.9000;0.6268;3.2582;
37.2000;0.6260;3.2608;
37.5000;0.6252;3.2529;
37.8000;0.6292;3.2556;
38.1000;0.6260;3.2503;
38.4000;0.6268;3.2503;
38.7000;0.6268;3.2529;
39.0000;0.6268;3.2503;
39.3000;0.6260;3.2450;
39.6000;0.6268;3.2556;
39.9000;0.6252;3.2529;
40.2000;0.6268;3.2556;
40.5000;0.6276;3.2582;
40.8000;0.6292;3.2635;
41.1000;0.6260;3.2529;
41.4000;0.6300;3.2688;
41.7000;0.6268;3.2793;
42.0000;0.6260;3.2767;
42.3000;0.6268;3.2819;
42.6000;0.6284;3.2819;
42.9000;0.6284;3.2793;
43.2000;0.6243;3.2740;
43.5000;0.6284;3.2767;
43.8000;0.6195;3.2503;
44.1000;0.6284;3.2714;
44.4000;0.6292;3.2714;
44.7000;0.6227;3.2582;
45.0000;0.6292;3.2688;
45.3000;0.6317;3.2740;
45.6000;0.6309;3.2740;
45.9000;0.6309;3.2740;
46.2000;0.6300;3.2661;
46.5000;0.6309;3.2608;
46.8000;0.6333;3.2688;
47.1000;0.6300;3.2556;
47.4000;0.6284;3.2529;
47.7000;0.6317;3.2476;
48.0000;0.6309;3.2397;
48.3000;0.6292;3.2371;
48.6000;0.6309;3.2424;
48.9000;0.6333;3.2450;
49.2000;0.6317;3.2450;
49.5000;0.6333;3.2424;
49.8000;0.6333;3.2397;
50.1000;0.6325;3.2371;
50.4000;0.6333;3.2397;
50.7000;0.6333;3.2292;
51.0000;0.6325;3.2213;
51.3000;0.6309;3.2239;
51.6000;0.6292;3.2160;
51.9000;0.6333;3.2213;
52.2000;0.6357;3.2213;
52.5000;0.6333;3.2160;
52.8000;0.6333;3.2213;
53.1000;0.6357;3.2292;
53.4000;0.6333;3.2371;
53.7000;0.6357;3.2476;
54.0000;0.6317;3.2345;
54.3000;0.6349;3.2397;
54.6000;0.6390;3.2529;
54.9000;0.6317;3.2345;
55.2000;0.6357;3.2424;
55.5000;0.6333;3.2476;
55.8000;0.6341;3.2503;
56.1000;0.6333;3.2503;
56.4000;0.6333;3.2450;
56.7000;0.6333;3.2345;
57.0000;0.6325;3.2424;
57.3000;0.6325;3.2450;
57.6000;0.6325;3.2529;
57.9000;0.6325;3.2529;
58.2000;0.6309;3.2608;
58.5000;0.6317;3.2608;
58.8000;0.6325;3.2608;
59.1000;0.6317;3.2582;
59.4000;0.6300;3.2503;
59.7000;0.6300;3.2450;
60.0000;0.6317;3.2582;
60.3000;0.6317;3.2476;
60.6000;0.6325;3.2503;
60.9000;0.6284;3.2424;
61.2000;0.6349;3.2635;
61.5000;0.6317;3.2556;
61.8000;0.6317;3.2529;
62.1000;0.6398;3.2661;
62.4000;0.6317;3.2582;
62.7000;0.6309;3.2608;
63.0000;0.6300;3.2529;
63.3000;0.6333;3.2635;
63.6000;0.6333;3.2582;
63.9000;0.6300;3.2476;
64.2000;0.6333;3.2476;
64.5000;0.6309;3.2503;
64.8000;0.6325;3.2556;
65.1000;0.6325;3.2582;
65.4000;0.6374;3.2661;
65.7000;0.6317;3.2556;
66.0000;0.6317;3.2503;
66.3000;0.6349;3.2608;
66.6000;0.6317;3.2661;
66.9000;0.6333;3.2635;
67.2000;0.6333;3.2635;
67.5000;0.6309;3.2582;
67.8000;0.6333;3.2635;
68.1000;0.6317;3.2529;
68.4000;0.6333;3.2476;
68.7000;0.6333;3.2450;
69.0000;0.6341;3.2371;
69.3000;0.6284;3.2186;
69.6000;0.6341;3.2371;
69.9000;0.6341;3.2292;
70.2000;0.6317;3.2186;
70.5000;0.6390;3.2371;
70.8000;0.6317;3.2239;
71.1000;0.6341;3.2292;
71.4000;0.6365;3.2371;
71.7000;0.6390;3.2424;
72.0000;0.6349;3.2292;
72.3000;0.6349;3.2345;
72.6000;0.6357;3.2371;
72.9000;0.6341;3.2265;
73.2000;0.6349;3.2345;
73.5000;0.6357;3.2318;
73.8000;0.6341;3.2239;
74.1000;0.6235;3.2002;
74.4000;0.6325;3.2265;
74.7000;0.6455;3.2556;
75.0000;0.6317;3.2213;
75.3000;0.6349;3.2265;
75.6000;0.6341;3.2213;
75.9000;0.6341;3.2186;
76.2000;0.6333;3.2239;
76.5000;0.6341;3.2318;
76.8000;0.6414;3.2450;
77.1000;0.6341;3.2265;
77.4000;0.6341;3.2371;
77.7000;0.6317;3.2292;
78.0000;0.6333;3.2476;
78.3000;0.6300;3.2450;
78.6000;0.6325;3.2529;
78.9000;0.6341;3.2529;
79.2000;0.6333;3.2556;
79.5000;0.6325;3.2529;
79.8000;0.6325;3.2556;
80.1000;0.6317;3.2556;
80.4000;0.6317;3.2635;
80.7000;0.6341;3.2714;
81.0000;0.6333;3.2740;
81.3000;0.6341;3.2793;
81.6000;0.6333;3.2714;
81.9000;0.6309;3.2740;
82.2000;0.6333;3.2767;
82.5000;0.6333;3.2740;
82.8000;0.6325;3.2661;
83.1000;0.6292;3.2529;
83.4000;0.6333;3.2767;
83.7000;0.6333;3.2740;
84.0000;0.6300;3.2661;
84.3000;0.6325;3.2688;
84.6000;0.6325;3.2503;
84.9000;0.6325;3.2476;
85.2000;0.6333;3.2503;
85.5000;0.6341;3.2503;
85.8000;0.6333;3.2424;
86.1000;0.6349;3.2556;
86.4000;0.6349;3.2397;
86.7000;0.6333;3.2424;
87.0000;0.6341;3.2424;
87.3000;0.6365;3.2503;
87.6000;0.6341;3.2450;
87.9000;0.6374;3.2556;
88.2000;0.6300;3.2424;
88.5000;0.6333;3.2582;
88.8000;0.6341;3.2635;
89.1000;0.6349;3.2556;
89.4000;0.6341;3.2476;
89.7000;0.6341;3.2529;
90.0000;0.6357;3.2529;
90.3000;0.6349;3.2556;
90.6000;0.6333;3.2476;
90.9000;0.6341;3.2397;
91.2000;0.6341;3.2424;
91.5000;0.6349;3.2450;
91.8000;0.6268;3.2239;
92.1000;0.6374;3.2476;
92.4000;0.6341;3.2450;
92.7000;0.6325;3.2345;
93.0000;0.6365;3.2476;
93.3000;0.6349;3.2476;
93.6000;0.6357;3.2529;
93.9000;0.6357;3.2397;
94.2000;0.6365;3.2450;
94.5000;0.6357;3.2476;
94.8000;0.6333;3.2424;
95.1000;0.6333;3.2450;
95.4000;0.6349;3.2450;
95.7000;0.6317;3.2397;
96.0000;0.6349;3.2529;
96.3000;0.6357;3.2582;
96.6000;0.6365;3.2635;
96.9000;0.6300;3.2529;
97.2000;0.6341;3.2661;
97.5000;0.6333;3.2661;
97.8000;0.6341;3.2556;
98.1000;0.6349;3.2556;
98.4000;0.6341;3.2450;
98.7000;0.6349;3.2503;
99.0000;0.6349;3.2529;
99.3000;0.6349;3.2582;
99.6000;0.6309;3.2529;
99.9000;0.6292;3.2450;
100.2000;0.6349;3.2661;
100.5000;0.6374;3.2740;
100.8000;0.6317;3.2635;
101.1000;0.6374;3.2872;
101.4000;0.6341;3.2767;
101.7000;0.6365;3.2767;
102.0000;0.6317;3.2819;
102.3000;0.6284;3.2767;
102.6000;0.6341;3.2872;
102.9000;0.6325;3.2793;
103.2000;0.6317;3.2819;
103.5000;0.6333;3.2793;
103.8000;0.6414;3.2872;
104.1000;0.6349;3.2582;
104.4000;0.6349;3.2608;
104.7000;0.6349;3.2608;
105.0000;0.6341;3.2556;
105.3000;0.6341;3.2556;
105.6000;0.6357;3.2556;
105.9000;0.6357;3.2529;
106.2000;0.6341;3.2450;
106.5000;0.6341;3.2397;
106.8000;0.6341;3.2371;
107.1000;0.6325;3.2371;
107.4000;0.6349;3.2371;
107.7000;0.6341;3.2318;
108.0000;0.6357;3.2345;
108.3000;0.6333;3.2292;
108.6000;0.6333;3.2292;
108.9000;0.6365;3.2292;
109.2000;0.6365;3.2371;
109.5000;0.6365;3.2345;
109.8000;0.6349;3.2371;
110.1000;0.6349;3.2345;
110.4000;0.6357;3.2345;
110.7000;0.6398;3.2450;
111.0000;0.6365;3.2239;
111.3000;0.6365;3.2213;
111.6000;0.6357;3.2186;
111.9000;0.6349;3.2318;
112.2000;0.6341;3.2424;
112.5000;0.6349;3.2424;
112.8000;0.6341;3.2424;
113.1000;0.6365;3.2424;
113.4000;0.6365;3.2371;
113.7000;0.6341;3.2397;
114.0000;0.6333;3.2371;
114.3000;0.6357;3.2450;
114.6000;0.6260;3.2186;
114.9000;0.6341;3.2371;
115.2000;0.6333;3.2371;
115.5000;0.6341;3.2397;
115.8000;0.6341;3.2424;
116.1000;0.6349;3.2476;
116.4000;0.6382;3.2503;
116.7000;0.6325;3.2371;
117.0000;0.6357;3.2556;
117.3000;0.6333;3.2529;
117.6000;0.6349;3.2556;
117.9000;0.6341;3.2635;
118.2000;0.6341;3.2635;
118.5000;0.6365;3.2661;
118.8000;0.6235;3.2292;
119.1000;0.6333;3.2661;
119.4000;0.6252;3.2318;
119.7000;0.6357;3.2688;
120.0000;0.6349;3.2661;
120.3000;0.6325;3.2635;
120.6000;0.6341;3.2635;
120.9000;0.6333;3.2661;
121.2000;0.6341;3.2688;
121.5000;0.6406;3.2872;
121.8000;0.6333;3.2714;
122.1000;0.6309;3.2556;
122.4000;0.6325;3.2661;
122.7000;0.6325;3.2635;
123.0000;0.6333;3.2661;
123.3000;0.6333;3.2661;
123.6000;0.6333;3.2556;
123.9000;0.6325;3.2503;
124.2000;0.6365;3.2582;
124.5000;0.6365;3.2503;
124.8000;0.6365;3.2503;
125.1000;0.6349;3.2582;
125.4000;0.6341;3.2529;
125.7000;0.6341;3.2476;
126.0000;0.6349;3.2529;
126.3000;0.6349;3.2582;
126.6000;0.6365;3.2582;
126.9000;0.6365;3.2635;
127.2000;0.6365;3.2688;
127.5000;0.6341;3.2635;
127.8000;0.6341;3.2608;
128.1000;0.6349;3.2661;
128.4000;0.6365;3.2714;
128.7000;0.6349;3.2688;
129.0000;0.6349;3.2608;
129.3000;0.6349;3.2476;
129.6000;0.6357;3.2476;
129.9000;0.6349;3.2529;
130.2000;0.6349;3.2503;
130.5000;0.6341;3.2450;
130.8000;0.6349;3.2424;
131.1000;0.6365;3.2503;
131.4000;0.6357;3.2529;
131.7000;0.6341;3.2476;
132.0000;0.6341;3.2450;
132.3000;0.6357;3.2476;
132.6000;0.6374;3.2556;
132.9000;0.6349;3.2265;
133.2000;0.6357;3.2345;
133.5000;0.6357;3.2450;
133.8000;0.6333;3.2397;
134.1000;0.6349;3.2450;
134.4000;0.6333;3.2424;
134.7000;0.6365;3.2529;
135.0000;0.6365;3.2529;
135.3000;0.6349;3.2529;
135.6000;0.6357;3.2556;
135.9000;0.6422;3.2688;
136.2000;0.6357;3.2503;
136.5000;0.6341;3.2529;
136.8000;0.6317;3.2503;
137.1000;0.6357;3.2556;
137.4000;0.6349;3.2661;
137.7000;0.6268;3.2503;
138.0000;0.6325;3.2608;
138.3000;0.6365;3.2714;
138.6000;0.6349;3.2688;
138.9000;0.6333;3.2767;
139.2000;0.6333;3.2767;
139.5000;0.6341;3.2767;
139.8000;0.6390;3.2899;
140.1000;0.6349;3.2740;
140.4000;0.6252;3.2661;
140.7000;0.6325;3.2846;
141.0000;0.6341;3.2899;
141.3000;0.6333;3.2819;
141.6000;0.6317;3.2872;
141.9000;0.6325;3.2846;
142.2000;0.6333;3.2872;
142.5000;0.6349;3.2793;
142.8000;0.6341;3.2819;
143.1000;0.6357;3.2846;
143.4000;0.6341;3.2793;
143.7000;0.6333;3.2846;
144.0000;0.6300;3.2767;
144.3000;0.6325;3.2793;
144.6000;0.6382;3.2899;
144.9000;0.6349;3.2925;
145.2000;0.6357;3.2899;
145.5000;0.6349;3.2819;
145.8000;0.6325;3.2661;
146.1000;0.6341;3.2688;
146.4000;0.6349;3.2635;
146.7000;0.6341;3.2635;
147.0000;0.6341;3.2635;
147.3000;0.6341;3.2661;
147.6000;0.6349;3.2688;
147.9000;0.6341;3.2714;
148.2000;0.6333;3.2635;
148.5000;0.6341;3.2582;
148.8000;0.6374;3.2661;
149.1000;0.6349;3.2608;
149.4000;0.6333;3.2635;
149.7000;0.6349;3.2635;
150.0000;0.6341;3.2635;
150.3000;0.6357;3.2608;
150.6000;0.6341;3.2503;
150.9000;0.6325;3.2318;
151.2000;0.6365;3.2450;
151.5000;0.6357;3.2476;
151.8000;0.6333;3.2318;
152.1000;0.6325;3.2265;
152.4000;0.6341;3.2318;
152.7000;0.6349;3.2371;
153.0000;0.6349;3.2318;
153.3000;0.6357;3.2318;
153.6000;0.6357;3.2292;
153.9000;0.6357;3.2345;
154.2000;0.6365;3.2397;
154.5000;0.6357;3.2424;
154.8000;0.6357;3.2424;
155.1000;0.6382;3.2397;
155.4000;0.6414;3.2529;
155.7000;0.6341;3.2397;
156.0000;0.6333;3.2424;
156.3000;0.6341;3.2529;
156.6000;0.6349;3.2582;
156.9000;0.6341;3.2556;
157.2000;0.6341;3.2608;
157.5000;0.6341;3.2582;
157.8000;0.6349;3.2635;
158.1000;0.6349;3.2688;
158.4000;0.6252;3.2397;
158.7000;0.6341;3.2688;
159.0000;0.6349;3.2688;
159.3000;0.6365;3.2767;
159.6000;0.6341;3.2740;
159.9000;0.6341;3.2688;
160.2000;0.6349;3.2740;
160.5000;0.6333;3.2714;
160.8000;0.6309;3.2819;
161.1000;0.6317;3.2793;
161.4000;0.6292;3.2661;
161.7000;0.6333;3.2793;
162.0000;0.6341;3.2846;
162.3000;0.6325;3.2846;
162.6000;0.6325;3.2899;
162.9000;0.6325;3.2925;
163.2000;0.6300;3.2767;
163.5000;0.6317;3.2846;
163.8000;0.6260;3.2661;
164.1000;0.6317;3.2793;
164.4000;0.6309;3.2635;
164.7000;0.6300;3.2503;
165.0000;0.6406;3.2793;
165.3000;0.6341;3.2661;
165.6000;0.6357;3.2582;
165.9000;0.6341;3.2529;
166.2000;0.6333;3.2556;
166.5000;0.6390;3.2767;
166.8000;0.6325;3.2556;
167.1000;0.6357;3.2556;
167.4000;0.6333;3.2450;
167.7000;0.6284;3.2213;
168.0000;0.6349;3.2345;
168.3000;0.6349;3.2371;
168.6000;0.6341;3.2371;
168.9000;0.6325;3.2292;
169.2000;0.6374;3.2345;
169.5000;0.6333;3.2292;
169.8000;0.6317;3.2345;
170.1000;0.6488;3.2793;
170.4000;0.6357;3.2529;
170.7000;0.6333;3.2476;
171.0000;0.6349;3.2450;
171.3000;0.6333;3.2397;
171.6000;0.6357;3.2582;
171.9000;0.6365;3.2556;
172.2000;0.6365;3.2635;
172.5000;0.6341;3.2582;
172.8000;0.6365;3.2608;
173.1000;0.6357;3.2582;
173.4000;0.6349;3.2556;
173.7000;0.6349;3.2608;
174.0000;0.6349;3.2635;
174.3000;0.6349;3.2635;
174.6000;0.6357;3.2608;
174.9000;0.6357;3.2556;
175.2000;0.6243;3.2265;
175.5000;0.6365;3.2661;
175.8000;0.6365;3.2714;
176.1000;0.6357;3.2608;
176.4000;0.6357;3.2582;
176.7000;0.6357;3.2661;
177.0000;0.6357;3.2714;
177.3000;0.6349;3.2688;
177.6000;0.6292;3.2529;
177.9000;0.6317;3.2608;
178.2000;0.6317;3.2635;
178.5000;0.6349;3.2635;
178.8000;0.6333;3.2661;
179.1000;0.6284;3.2582;
179.4000;0.6349;3.2714;
179.7000;0.6357;3.2661;
180.0000;0.6357;3.2635;
180.3000;0.6349;3.2661;
180.6000;0.6365;3.2714;
180.9000;0.6325;3.2767;
181.2000;0.6349;3.2740;
181.5000;0.6317;3.2767;
181.8000;0.6333;3.2767;
182.1000;0.6309;3.2661;
182.4000;0.6341;3.2740;
182.7000;0.6333;3.2661;
183.0000;0.6333;3.2661;
183.3000;0.6349;3.2661;
183.6000;0.6325;3.2714;
183.9000;0.6341;3.2688;
184.2000;0.6309;3.2661;
184.5000;0.6333;3.2740;
184.8000;0.6349;3.2714;
185.1000;0.6349;3.2635;
185.4000;0.6317;3.2556;
185.7000;0.6325;3.2608;
186.0000;0.6325;3.2556;
186.3000;0.6349;3.2635;
186.6000;0.6341;3.2556;
186.9000;0.6349;3.2529;
187.2000;0.6325;3.2582;
187.5000;0.6333;3.2529;
187.8000;0.6349;3.2556;
188.1000;0.6300;3.2450;
188.4000;0.6357;3.2608;
188.7000;0.6341;3.2503;
189.0000;0.6333;3.2397;
189.3000;0.6333;3.2371;
189.6000;0.6357;3.2556;
189.9000;0.6349;3.2582;
190.2000;0.6341;3.2608;
190.5000;0.6357;3.2635;
190.8000;0.6341;3.2529;
191.1000;0.6357;3.2476;
191.4000;0.6365;3.2450;
191.7000;0.6276;3.2186;
192.0000;0.6349;3.2345;
192.3000;0.6357;3.2397;
192.6000;0.6325;3.2318;
192.9000;0.6349;3.2397;
193.2000;0.6309;3.2424;
193.5000;0.6341;3.2503;
193.8000;0.6414;3.2529;
194.1000;0.6276;3.2292;
194.4000;0.6333;3.2397;
194.7000;0.6341;3.2397;
195.0000;0.6325;3.2424;
195.3000;0.6317;3.2450;
195.6000;0.6374;3.2688;
195.9000;0.6341;3.2661;
196.2000;0.6243;3.2450;
196.5000;0.6333;3.2661;
196.8000;0.6422;3.2872;
197.1000;0.6325;3.2608;
197.4000;0.6341;3.2661;
197.7000;0.6333;3.2608;
198.0000;0.6333;3.2608;
198.3000;0.6333;3.2582;
198.6000;0.6284;3.2529;
198.9000;0.6325;3.2608;
199.2000;0.6333;3.2608;
199.5000;0.6325;3.2529;
199.8000;0.6309;3.2503;
200.1000;0.6333;3.2635;
200.4000;0.6300;3.2556;
200.7000;0.6325;3.2608;
201.0000;0.6349;3.2635;
201.3000;0.6333;3.2608;
201.6000;0.6357;3.2661;
201.9000;0.6341;3.2767;
202.2000;0.6349;3.2819;
202.5000;0.6325;3.2767;
202.8000;0.6325;3.2767;
203.1000;0.6317;3.2767;
203.4000;0.6341;3.2793;
203.7000;0.6333;3.2846;
204.0000;0.6333;3.2767;
204.3000;0.6365;3.2872;
204.6000;0.6300;3.2767;
204.9000;0.6333;3.2793;
205.2000;0.6325;3.2767;
205.5000;0.6300;3.2635;
205.8000;0.6374;3.2899;
206.1000;0.6309;3.2661;
206.4000;0.6349;3.2688;
206.7000;0.6349;3.2608;
207.0000;0.6357;3.2635;
207.3000;0.6333;3.2556;
207.6000;0.6325;3.2556;
207.9000;0.6357;3.2688;
208.2000;0.6325;3.2503;
208.5000;0.6341;3.2397;
208.8000;0.6333;3.2397;
209.1000;0.6357;3.2582;
209.4000;0.6349;3.2556;
209.7000;0.6349;3.2608;
210.0000;0.6284;3.2371;
210.3000;0.6349;3.2503;
210.6000;0.6292;3.2371;
210.9000;0.6276;3.2371;
211.2000;0.6357;3.2503;
211.5000;0.6374;3.2529;
211.8000;0.6317;3.2213;
212.1000;0.6357;3.2345;
212.4000;0.6357;3.2345;
212.7000;0.6406;3.2450;
213.0000;0.6357;3.2292;
213.3000;0.6325;3.2239;
213.6000;0.6325;3.2213;
213.9000;0.6341;3.2265;
214.2000;0.6357;3.2292;
214.5000;0.6349;3.2318;
214.8000;0.6341;3.2239;
215.1000;0.6349;3.2371;
215.4000;0.6300;3.2160;
215.7000;0.6276;3.2160;
216.0000;0.6325;3.2318;
216.3000;0.6309;3.2186;
216.6000;0.6349;3.2292;
216.9000;0.6365;3.2292;
217.2000;0.6374;3.2424;
217.5000;0.6349;3.2450;
217.8000;0.6398;3.2635;
218.1000;0.6300;3.2529;
218.4000;0.6325;3.2582;
218.7000;0.6325;3.2582;
219.0000;0.6333;3.2661;
219.3000;0.6325;3.2714;
219.6000;0.6309;3.2661;
219.9000;0.6325;3.2767;
220.2000;0.6398;3.2978;
220.5000;0.6333;3.2819;
220.8000;0.6317;3.2714;
221.1000;0.6341;3.2740;
221.4000;0.6341;3.2793;
221.7000;0.6349;3.2872;
222.0000;0.6341;3.2767;
222.3000;0.6349;3.2767;
222.6000;0.6357;3.2793;
222.9000;0.6325;3.2819;
223.2000;0.6365;3.2899;
223.5000;0.6333;3.2740;
223.8000;0.6341;3.2767;
224.1000;0.6317;3.2661;
224.4000;0.6349;3.2767;
224.7000;0.6317;3.2635;
225.0000;0.6317;3.2608;
225.3000;0.6341;3.2582;
225.6000;0.6333;3.2608;
225.9000;0.6317;3.2503;
226.2000;0.6317;3.2476;
226.5000;0.6357;3.2556;
226.8000;0.6341;3.2450;
227.1000;0.6349;3.2397;
227.4000;0.6349;3.2424;
227.7000;0.6349;3.2371;
228.0000;0.6349;3.2397;
228.3000;0.6349;3.2450;
228.6000;0.6317;3.2371;
228.9000;0.6325;3.2318;
229.2000;0.6325;3.2371;
229.5000;0.6341;3.2397;
229.8000;0.6325;3.2292;
230.1000;0.6325;3.2213;
230.4000;0.6300;3.2213;
230.7000;0.6333;3.2371;
231.0000;0.6341;3.2371;
231.3000;0.6333;3.2371;
231.6000;0.6357;3.2450;
231.9000;0.6349;3.2556;
232.2000;0.6357;3.2556;
232.5000;0.6349;3.2476;
232.8000;0.6357;3.2529;
233.1000;0.6374;3.2556;
233.4000;0.6349;3.2503;
233.7000;0.6365;3.2529;
234.0000;0.6268;3.2213;
234.3000;0.6317;3.2371;
234.6000;0.6276;3.2265;
234.9000;0.6365;3.2397;
235.2000;0.6276;3.2160;
235.5000;0.6333;3.2292;
235.8000;0.6341;3.2265;
236.1000;0.6357;3.2397;
236.4000;0.6357;3.2371;
236.7000;0.6349;3.2345;
237.0000;0.6349;3.2397;
237.3000;0.6309;3.2318;
237.6000;0.6349;3.2503;
237.9000;0.6341;3.2529;
238.2000;0.6317;3.2529;
238.5000;0.6317;3.2450;
238.8000;0.6325;3.2582;
239.1000;0.6309;3.2503;
239.4000;0.6349;3.2688;
239.7000;0.6203;3.2345;
240.0000;0.6325;3.2714;
240.3000;0.6325;3.2740;
240.6000;0.6333;3.2740;
240.9000;0.6325;3.2819;
241.2000;0.6333;3.2846;
241.5000;0.6325;3.2899;
241.8000;0.6357;3.3004;
242.1000;0.6333;3.2925;
242.4000;0.6333;3.2872;
242.7000;0.6349;3.2872;
243.0000;0.6357;3.3004;
243.3000;0.6341;3.2925;
243.6000;0.6349;3.2846;
243.9000;0.6341;3.2793;
244.2000;0.6341;3.2740;
244.5000;0.6325;3.2767;
244.8000;0.6341;3.2793;
245.1000;0.6341;3.2793;
245.4000;0.6317;3.2688;
245.7000;0.6325;3.2767;
246.0000;0.6341;3.2767;
246.3000;0.6349;3.2688;
246.6000;0.6341;3.2688;
246.9000;0.6349;3.2608;
247.2000;0.6349;3.2608;
247.5000;0.6333;3.2556;
247.8000;0.6341;3.2556;
248.1000;0.6349;3.2476;
248.4000;0.6357;3.2397;
248.7000;0.6349;3.2371;
249.0000;0.6333;3.2424;
249.3000;0.6333;3.2529;
249.6000;0.6357;3.2661;
249.9000;0.6284;3.2476;
250.2000;0.6349;3.2661;
250.5000;0.6333;3.2582;
250.8000;0.6333;3.2582;
251.1000;0.6341;3.2556;
251.4000;0.6333;3.2503;
251.7000;0.6341;3.2529;
252.0000;0.6317;3.2397;
252.3000;0.6333;3.2503;
252.6000;0.6317;3.2450;
252.9000;0.6325;3.2476;
253.2000;0.6333;3.2529;
253.5000;0.6349;3.2503;
253.8000;0.6365;3.2608;
254.1000;0.6309;3.2424;
254.4000;0.6317;3.2503;
254.7000;0.6341;3.2450;
255.0000;0.6333;3.2397;
255.3000;0.6349;3.2556;
255.6000;0.6333;3.2529;
255.9000;0.6325;3.2424;
256.2000;0.6325;3.2397;
256.5000;0.6349;3.2450;
256.8000;0.6333;3.2424;
257.1000;0.6349;3.2397;
257.4000;0.6341;3.2345;
257.7000;0.6333;3.2345;
258.0000;0.6357;3.2476;
258.3000;0.6235;3.2160;
258.6000;0.6349;3.2450;
258.9000;0.6333;3.2476;
259.2000;0.6325;3.2371;
259.5000;0.6374;3.2450;
259.8000;0.6333;3.2345;
260.1000;0.6333;3.2292;
260.4000;0.6341;3.2397;
260.7000;0.6365;3.2661;
261.0000;0.6317;3.2714;
261.3000;0.6325;3.2872;
261.6000;0.6325;3.2819;
261.9000;0.6317;3.2819;
262.2000;0.6325;3.2819;
262.5000;0.6333;3.2846;
262.8000;0.6317;3.2793;
263.1000;0.6252;3.2556;
263.4000;0.6309;3.2767;
263.7000;0.6333;3.2793;
264.0000;0.6333;3.2846;
264.3000;0.6325;3.2846;
264.6000;0.6317;3.2767;
264.9000;0.6243;3.2582;
265.2000;0.6325;3.2767;
265.5000;0.6309;3.2635;
265.8000;0.6341;3.2582;
266.1000;0.6341;3.2608;
266.4000;0.6341;3.2503;
266.7000;0.6341;3.2556;
267.0000;0.6341;3.2556;
267.3000;0.6309;3.2503;
267.6000;0.6349;3.2556;
267.9000;0.6382;3.2635;
268.2000;0.6333;3.2503;
268.5000;0.6341;3.2476;
268.8000;0.6341;3.2424;
269.1000;0.6357;3.2529;
269.4000;0.6357;3.2503;
269.7000;0.6341;3.2424;
270.0000;0.6333;3.2503;
270.3000;0.6357;3.2503;
270.6000;0.6357;3.2529;
270.9000;0.6341;3.2529;
271.2000;0.6349;3.2450;
271.5000;0.6357;3.2397;
271.8000;0.6365;3.2397;
272.1000;0.6349;3.2397;
272.4000;0.6276;3.2107;
272.7000;0.6349;3.2397;
273.0000;0.6333;3.2371;
273.3000;0.6341;3.2397;
273.6000;0.6284;3.2265;
273.9000;0.6374;3.2582;
274.2000;0.6349;3.2608;
274.5000;0.6374;3.2608;
274.8000;0.6333;3.2476;
275.1000;0.6341;3.2503;
275.4000;0.6374;3.2582;
275.7000;0.6349;3.2529;
276.0000;0.6357;3.2503;
276.3000;0.6341;3.2556;
276.6000;0.6349;3.2582;
276.9000;0.6406;3.2740;
277.2000;0.6341;3.2582;
277.5000;0.6325;3.2582;
277.8000;0.6325;3.2608;
278.1000;0.6341;3.2714;
278.4000;0.6325;3.2688;
278.7000;0.6325;3.2767;
279.0000;0.6333;3.2740;
279.3000;0.6333;3.2688;
279.6000;0.6333;3.2714;
279.9000;0.6235;3.2476;
280.2000;0.6317;3.2714;
280.5000;0.6317;3.2740;
280.8000;0.6284;3.2556;
281.1000;0.6357;3.2635;
281.4000;0.6333;3.2635;
281.7000;0.6309;3.2582;
282.0000;0.6325;3.2529;
282.3000;0.6309;3.2582;
282.6000;0.6268;3.2529;
282.9000;0.6333;3.2714;
283.2000;0.6317;3.2608;
283.5000;0.6333;3.2556;
283.8000;0.6333;3.2556;
284.1000;0.6333;3.2556;
284.4000;0.6349;3.2661;
284.7000;0.6357;3.2793;
285.0000;0.6341;3.2714;
285.3000;0.6357;3.2661;
285.6000;0.6349;3.2608;
285.9000;0.6447;3.2819;
286.2000;0.6325;3.2450;
286.5000;0.6317;3.2450;
286.8000;0.6325;3.2503;
287.1000;0.6333;3.2529;
287.4000;0.6333;3.2529;
287.7000;0.6325;3.2476;
288.0000;0.6325;3.2397;
288.3000;0.6317;3.2345;
288.6000;0.6333;3.2265;
288.9000;0.6292;3.2054;
289.2000;0.6349;3.2107;
289.5000;0.6325;3.2002;
289.8000;0.6431;3.2292;
290.1000;0.6341;3.2133;
290.4000;0.6341;3.2160;
290.7000;0.6349;3.2239;
291.0000;0.6349;3.2160;
291.3000;0.6341;3.2239;
291.6000;0.6341;3.2292;
291.9000;0.6365;3.2265;
292.2000;0.6325;3.2186;
292.5000;0.6341;3.2213;
292.8000;0.6325;3.2239;
293.1000;0.6341;3.2265;
293.4000;0.6357;3.2450;
293.7000;0.6333;3.2476;
294.0000;0.6317;3.2476;
294.3000;0.6333;3.2503;
294.6000;0.6333;3.2476;
294.9000;0.6341;3.2450;
295.2000;0.6325;3.2292;
295.5000;0.6300;3.2213;
295.8000;0.6333;3.2239;
296.1000;0.6325;3.2239;
296.4000;0.6325;3.2239;
296.7000;0.6333;3.2213;
297.0000;0.6382;3.2397;
297.3000;0.6349;3.2292;
297.6000;0.6325;3.2239;
297.9000;0.6317;3.2292;
298.2000;0.6333;3.2397;
298.5000;0.6333;3.2424;
298.8000;0.6309;3.2582;
299.1000;0.6325;3.2635;
299.4000;0.6317;3.2582;
299.7000;0.6325;3.2556;
300.0000;0.6317;3.2529;
300.3000;0.6333;3.2503;
300.6000;0.6333;3.2556;
300.9000;0.6349;3.2556;
301.2000;0.6357;3.2635;
301.5000;0.6333;3.2661;
301.8000;0.6211;3.2397;
302.1000;0.6325;3.2661;
302.4000;0.6357;3.2819;
302.7000;0.6325;3.2793;
303.0000;0.6325;3.2872;
303.3000;0.6325;3.2846;
303.6000;0.6309;3.2819;
303.9000;0.6357;3.2899;
304.2000;0.6325;3.2740;
304.5000;0.6333;3.2819;
304.8000;0.6325;3.2872;
305.1000;0.6349;3.2819;
305.4000;0.6333;3.2740;
305.7000;0.6333;3.2635;
306.0000;0.6365;3.2688;
306.3000;0.6325;3.2556;
306.6000;0.6333;3.2556;
306.9000;0.6227;3.2160;
307.2000;0.6357;3.2556;
307.5000;0.6357;3.2529;
307.8000;0.6349;3.2424;
308.1000;0.6333;3.2345;
308.4000;0.6333;3.2318;
308.7000;0.6341;3.2292;
309.0000;0.6333;3.2160;
309.3000;0.6349;3.2213;
309.6000;0.6414;3.2476;
309.9000;0.6349;3.2345;
310.2000;0.6341;3.2371;
310.5000;0.6333;3.2371;
310.8000;0.6333;3.2424;
311.1000;0.6325;3.2424;
311.4000;0.6349;3.2503;
311.7000;0.6309;3.2450;
312.0000;0.6325;3.2529;
312.3000;0.6333;3.2635;
312.6000;0.6341;3.2608;
312.9000;0.6300;3.2503;
313.2000;0.6300;3.2529;
313.5000;0.6325;3.2608;
313.8000;0.6325;3.2529;
314.1000;0.6333;3.2582;
314.4000;0.6333;3.2529;
314.7000;0.6292;3.2397;
315.0000;0.6341;3.2476;
315.3000;0.6325;3.2608;
315.6000;0.6325;3.2582;
315.9000;0.6341;3.2582;
316.2000;0.6341;3.2556;
316.5000;0.6333;3.2529;
316.8000;0.6317;3.2503;
317.1000;0.6292;3.2503;
317.4000;0.6317;3.2503;
317.7000;0.6325;3.2450;
318.0000;0.6317;3.2476;
318.3000;0.6325;3.2397;
318.6000;0.6309;3.2292;
318.9000;0.6325;3.2450;
319.2000;0.6349;3.2582;
319.5000;0.6309;3.2556;
319.8000;0.6317;3.2608;
320.1000;0.6235;3.2345;
320.4000;0.6333;3.2582;
320.7000;0.6317;3.2556;
321.0000;0.6325;3.2661;
321.3000;0.6309;3.2661;
321.6000;0.6325;3.2661;
321.9000;0.6317;3.2661;
322.2000;0.6309;3.2608;
322.5000;0.6317;3.2688;
322.8000;0.6317;3.2688;
323.1000;0.6325;3.2608;
323.4000;0.6317;3.2582;
323.7000;0.6317;3.2608;
324.0000;0.6325;3.2714;
324.3000;0.6325;3.2740;
324.6000;0.6325;3.2767;
324.9000;0.6325;3.2661;
325.2000;0.6333;3.2661;
325.5000;0.6333;3.2714;
325.8000;0.6341;3.2714;
326.1000;0.6390;3.2767;
326.4000;0.6333;3.2635;
326.7000;0.6406;3.2714;
327.0000;0.6349;3.2556;
327.3000;0.6317;3.2503;
327.6000;0.6349;3.2556;
327.9000;0.6349;3.2582;
328.2000;0.6284;3.2345;
328.5000;0.6325;3.2397;
328.8000;0.6325;3.2345;
329.1000;0.6341;3.2292;
329.4000;0.6341;3.2318;
329.7000;0.6317;3.2345;
330.0000;0.6333;3.2318;
330.3000;0.6349;3.2345;
330.6000;0.6333;3.2318;
330.9000;0.6325;3.2292;
331.2000;0.6333;3.2292;
331.5000;0.6341;3.2345;
331.8000;0.6341;3.2265;
332.1000;0.6333;3.2371;
332.4000;0.6317;3.2345;
332.7000;0.6333;3.2318;
333.0000;0.6341;3.2292;
333.3000;0.6349;3.2186;
333.6000;0.6333;3.2186;
333.9000;0.6325;3.2133;
334.2000;0.6341;3.2107;
334.5000;0.6341;3.2107;
334.8000;0.6317;3.2107;
335.1000;0.6349;3.2160;
335.4000;0.6333;3.2239;
335.7000;0.6317;3.2160;
336.0000;0.6333;3.2186;
336.3000;0.6333;3.2239;
336.6000;0.6317;3.2107;
336.9000;0.6365;3.2239;
337.2000;0.6341;3.2186;
337.5000;0.6309;3.2213;
337.8000;0.6317;3.2292;
338.1000;0.6325;3.2397;
338.4000;0.6309;3.2371;
338.7000;0.6292;3.2424;
339.0000;0.6309;3.2503;
339.3000;0.6309;3.2582;
339.6000;0.6325;3.2582;
339.9000;0.6325;3.2529;
340.2000;0.6325;3.2556;
340.5000;0.6309;3.2503;
340.8000;0.6325;3.2503;
341.1000;0.6349;3.2608;
341.4000;0.6292;3.2345;
341.7000;0.6317;3.2397;
342.0000;0.6292;3.2371;
342.3000;0.6325;3.2529;
342.6000;0.6260;3.2318;
342.9000;0.6284;3.2397;
343.2000;0.6325;3.2503;
343.5000;0.6431;3.2819;
343.8000;0.6292;3.2503;
344.1000;0.6292;3.2556;
344.4000;0.6341;3.2529;
344.7000;0.6317;3.2529;
345.0000;0.6300;3.2397;
345.3000;0.6317;3.2529;
345.6000;0.6260;3.2345;
345.9000;0.6317;3.2450;
346.2000;0.6349;3.2450;
346.5000;0.6276;3.2292;
346.8000;0.6325;3.2371;
347.1000;0.6325;3.2424;
347.4000;0.6317;3.2371;
347.7000;0.6309;3.2371;
348.0000;0.6325;3.2424;
348.3000;0.6317;3.2424;
348.6000;0.6447;3.2688;
348.9000;0.6325;3.2318;
349.2000;0.6333;3.2292;
349.5000;0.6333;3.2318;
349.8000;0.6317;3.2265;
350.1000;0.6227;3.2081;
350.4000;0.6300;3.2397;
350.7000;0.6341;3.2556;
351.0000;0.6349;3.2529;
351.3000;0.6333;3.2371;
351.6000;0.6325;3.2371;
351.9000;0.6357;3.2450;
352.2000;0.6341;3.2556;
352.5000;0.6325;3.2503;
352.8000;0.6341;3.2476;
353.1000;0.6317;3.2371;
353.4000;0.6333;3.2397;
353.7000;0.6349;3.2424;
354.0000;0.6349;3.2424;
354.3000;0.6341;3.2424;
354.6000;0.6349;3.2450;
354.9000;0.6325;3.2371;
355.2000;0.6365;3.2503;
355.5000;0.6276;3.2345;
355.8000;0.6341;3.2476;
356.1000;0.6341;3.2397;
356.4000;0.6325;3.2345;
356.7000;0.6252;3.2345;
357.0000;0.6333;3.2476;
357.3000;0.6333;3.2450;
357.6000;0.6382;3.2608;
357.9000;0.6341;3.2476;
358.2000;0.6317;3.2476;
358.5000;0.6325;3.2476;
358.8000;0.6325;3.2476;
359.1000;0.6309;3.2450;
359.4000;0.6300;3.2397;
359.7000;0.6317;3.2476;
360.0000;0.6325;3.2529;
360.3000;0.6333;3.2661;
360.6000;0.6317;3.2635;
360.9000;0.6317;3.2688;
361.2000;0.6317;3.2635;
361.5000;0.6317;3.2608;
361.8000;0.6333;3.2556;
362.1000;0.6317;3.2608;
362.4000;0.6317;3.2661;
362.7000;0.6317;3.2661;
363.0000;0.6325;3.2608;
363.3000;0.6309;3.2582;
363.6000;0.6325;3.2635;
363.9000;0.6325;3.2582;
364.2000;0.6268;3.2371;
364.5000;0.6300;3.2450;
364.8000;0.6341;3.2476;
365.1000;0.6317;3.2476;
365.4000;0.6349;3.2556;
365.7000;0.6300;3.2397;
366.0000;0.6333;3.2450;
366.3000;0.6333;3.2450;
366.6000;0.6325;3.2424;
366.9000;0.6325;3.2397;
367.2000;0.6333;3.2318;
367.5000;0.6341;3.2345;
367.8000;0.6349;3.2345;
368.1000;0.6325;3.2186;
368.4000;0.6227;3.1949;
368.7000;0.6333;3.2107;
369.0000;0.6333;3.2160;
369.3000;0.6341;3.2292;
369.6000;0.6292;3.2265;
369.9000;0.6325;3.2371;
370.2000;0.6317;3.2371;
370.5000;0.6333;3.2582;
370.8000;0.6309;3.2476;
371.1000;0.6284;3.2318;
371.4000;0.6325;3.2397;
371.7000;0.6276;3.2239;
372.0000;0.6333;3.2424;
372.3000;0.6365;3.2529;
372.6000;0.6333;3.2503;
372.9000;0.6292;3.2318;
373.2000;0.6422;3.2529;
373.5000;0.6341;3.2213;
373.8000;0.6309;3.2213;
374.1000;0.6341;3.2239;
374.4000;0.6325;3.2213;
374.7000;0.6317;3.2133;
375.0000;0.6341;3.2265;
375.3000;0.6317;3.2239;
375.6000;0.6325;3.2160;
375.9000;0.6365;3.2318;
376.2000;0.6357;3.2239;
376.5000;0.6333;3.2160;
376.8000;0.6317;3.2186;
377.1000;0.6382;3.2397;
377.4000;0.6365;3.2371;
377.7000;0.6333;3.2371;
378.0000;0.6309;3.2318;
378.3000;0.6325;3.2397;
378.6000;0.6333;3.2424;
378.9000;0.6349;3.2424;
379.2000;0.6309;3.2476;
379.5000;0.6300;3.2424;
379.8000;0.6309;3.2450;
380.1000;0.6341;3.2476;
380.4000;0.6317;3.2371;
380.7000;0.6292;3.2318;
381.0000;0.6309;3.2345;
381.3000;0.6300;3.2371;
381.6000;0.6325;3.2345;
381.9000;0.6325;3.2318;
382.2000;0.6325;3.2292;
382.5000;0.6349;3.2424;
382.8000;0.6325;3.2424;
383.1000;0.6349;3.2582;
383.4000;0.6325;3.2556;
383.7000;0.6341;3.2503;
384.0000;0.6227;3.2186;
384.3000;0.6333;3.2450;
384.6000;0.6309;3.2318;
384.9000;0.6333;3.2397;
385.2000;0.6341;3.2476;
385.5000;0.6309;3.2318;
385.8000;0.6317;3.2345;
386.1000;0.6300;3.2345;
386.4000;0.6300;3.2345;
386.7000;0.6300;3.2239;
387.0000;0.6317;3.2265;
387.3000;0.6333;3.2265;
387.6000;0.6325;3.2239;
387.9000;0.6333;3.2186;
388.2000;0.6243;3.1922;
388.5000;0.6300;3.2081;
388.8000;0.6333;3.2054;
389.1000;0.6349;3.2028;
389.4000;0.6325;3.2081;
389.7000;0.6341;3.2107;
390.0000;0.6431;3.2345;
390.3000;0.6341;3.2133;
390.6000;0.6325;3.2107;
390.9000;0.6325;3.2133;
391.2000;0.6333;3.2160;
391.5000;0.6292;3.2054;
391.8000;0.6333;3.2160;
392.1000;0.6325;3.2107;
392.4000;0.6333;3.2028;
392.7000;0.6357;3.2107;
393.0000;0.6325;3.2081;
393.3000;0.6333;3.2081;
393.6000;0.6374;3.2265;
393.9000;0.6309;3.2054;
394.2000;0.6325;3.2054;
394.5000;0.6325;3.2054;
394.8000;0.6300;3.2054;
395.1000;0.6309;3.2054;
395.4000;0.6341;3.2054;
395.7000;0.6341;3.2160;
396.0000;0.6333;3.2160;
396.3000;0.6317;3.2160;
396.6000;0.6333;3.2186;
396.9000;0.6471;3.2661;
397.2000;0.6325;3.2292;
397.5000;0.6317;3.2213;
397.8000;0.6341;3.2292;
398.1000;0.6325;3.2292;
398.4000;0.6390;3.2503;
398.7000;0.6317;3.2345;
399.0000;0.6317;3.2318;
399.3000;0.6309;3.2397;
399.6000;0.6309;3.2450;
399.9000;0.6317;3.2397;
400.2000;0.6292;3.2450;
400.5000;0.6317;3.2556;
400.8000;0.6300;3.2582;
401.1000;0.6333;3.2582;
401.4000;0.6292;3.2582;
401.7000;0.6447;3.2899;
402.0000;0.6333;3.2582;
402.3000;0.6325;3.2556;
402.6000;0.6300;3.2503;
402.9000;0.6317;3.2635;
403.2000;0.6211;3.2318;
403.5000;0.6235;3.2450;
403.8000;0.6309;3.2582;
404.1000;0.6325;3.2608;
404.4000;0.6325;3.2582;
404.7000;0.6317;3.2503;
405.0000;0.6317;3.2476;
405.3000;0.6333;3.2503;
405.6000;0.6309;3.2424;
405.9000;0.6333;3.2397;
406.2000;0.6325;3.2265;
406.5000;0.6235;3.2054;
406.8000;0.6309;3.2265;
407.1000;0.6300;3.2239;
407.4000;0.6317;3.2318;
407.7000;0.6317;3.2265;
408.0000;0.6325;3.2318;
408.3000;0.6341;3.2213;
408.6000;0.6333;3.2239;
408.9000;0.6341;3.2213;
409.2000;0.6333;3.2265;
409.5000;0.6341;3.2265;
409.8000;0.6357;3.2318;
410.1000;0.6341;3.2186;
410.4000;0.6325;3.2081;
410.7000;0.6333;3.2107;
411.0000;0.6317;3.2054;
411.3000;0.6309;3.2133;
411.6000;0.6333;3.2213;
411.9000;0.6284;3.2133;
412.2000;0.6333;3.2265;
412.5000;0.6333;3.2265;
412.8000;0.6333;3.2345;
413.1000;0.6333;3.2397;
413.4000;0.6341;3.2476;
413.7000;0.6357;3.2556;
414.0000;0.6333;3.2503;
414.3000;0.6268;3.2239;
414.6000;0.6365;3.2345;
414.9000;0.6325;3.2213;
415.2000;0.6292;3.2002;
415.5000;0.6317;3.2054;
415.8000;0.6349;3.2160;
416.1000;0.6333;3.2186;
416.4000;0.6317;3.2186;
416.7000;0.6325;3.2292;
417.0000;0.6325;3.2318;
417.3000;0.6325;3.2450;
417.6000;0.6317;3.2397;
417.9000;0.6317;3.2345;
418.2000;0.6341;3.2476;
418.5000;0.6333;3.2503;
418.8000;0.6325;3.2503;
419.1000;0.6268;3.2450;
419.4000;0.6325;3.2635;
419.7000;0.6317;3.2635;
420.0000;0.6349;3.2688;
420.3000;0.6300;3.2582;
420.6000;0.6284;3.2503;
420.9000;0.6309;3.2556;
421.2000;0.6309;3.2529;
421.5000;0.6325;3.2608;
421.8000;0.6235;3.2424;
422.1000;0.6300;3.2608;
422.4000;0.6309;3.2688;
422.7000;0.6325;3.2608;
423.0000;0.6292;3.2503;
423.3000;0.6455;3.2899;
423.6000;0.6292;3.2424;
423.9000;0.6341;3.2476;
424.2000;0.6292;3.2397;
424.5000;0.6341;3.2529;
424.8000;0.6317;3.2397;
425.1000;0.6317;3.2450;
425.4000;0.6300;3.2503;
425.7000;0.6365;3.2582;
426.0000;0.6300;3.2371;
426.3000;0.6317;3.2371;
426.6000;0.6300;3.2318;
426.9000;0.6349;3.2397;
427.2000;0.6390;3.2503;
427.5000;0.6439;3.2661;
427.8000;0.6292;3.2292;
428.1000;0.6309;3.2265;
428.4000;0.6317;3.2265;
428.7000;0.6317;3.2160;
429.0000;0.6325;3.2239;
429.3000;0.6341;3.2239;
429.6000;0.6325;3.2160;
429.9000;0.6341;3.2186;
430.2000;0.6325;3.2213;
430.5000;0.6325;3.2133;
430.8000;0.6325;3.2133;
431.1000;0.6349;3.2265;
431.4000;0.6333;3.2239;
431.7000;0.6325;3.2160;
432.0000;0.6309;3.2160;
432.3000;0.6333;3.2186;
432.6000;0.6333;3.2133;
432.9000;0.6333;3.2186;
433.2000;0.6333;3.2160;
433.5000;0.6333;3.2028;
433.8000;0.6317;3.1949;
434.1000;0.6325;3.2054;
434.4000;0.6325;3.2133;
434.7000;0.6317;3.2054;
435.0000;0.6325;3.2081;
435.3000;0.6309;3.2054;
435.6000;0.6333;3.2186;
435.9000;0.6317;3.2213;
436.2000;0.6333;3.2345;
436.5000;0.6317;3.2345;
436.8000;0.6325;3.2318;
437.1000;0.6300;3.2292;
437.4000;0.6333;3.2371;
437.7000;0.6300;3.2292;
438.0000;0.6300;3.2345;
438.3000;0.6292;3.2292;
438.6000;0.6325;3.2476;
438.9000;0.6300;3.2397;
439.2000;0.6333;3.2503;
439.5000;0.6317;3.2556;
439.8000;0.6284;3.2635;
440.1000;0.6292;3.2556;
440.4000;0.6309;3.2688;
440.7000;0.6309;3.2714;
441.0000;0.6300;3.2688;
441.3000;0.6309;3.2661;
441.6000;0.6325;3.2556;
441.9000;0.6349;3.2556;
442.2000;0.6276;3.2318;
442.5000;0.6300;3.2371;
442.8000;0.6317;3.2424;
443.1000;0.6325;3.2503;
443.4000;0.6317;3.2529;
443.7000;0.6325;3.2582;
444.0000;0.6341;3.2608;
444.3000;0.6325;3.2529;
444.6000;0.6341;3.2503;
444.9000;0.6292;3.2424;
445.2000;0.6317;3.2450;
445.5000;0.6325;3.2476;
445.8000;0.6317;3.2424;
446.1000;0.6341;3.2529;
446.4000;0.6382;3.2556;
446.7000;0.6284;3.2397;
447.0000;0.6300;3.2318;
447.3000;0.6309;3.2239;
447.6000;0.6333;3.2186;
447.9000;0.6325;3.2239;
448.2000;0.6333;3.2186;
448.5000;0.6349;3.2292;
448.8000;0.6309;3.2213;
449.1000;0.6333;3.2292;
449.4000;0.6333;3.2186;
449.7000;0.6325;3.2133;
450.0000;0.6317;3.2160;
450.3000;0.6333;3.2186;
450.6000;0.6325;3.2081;
450.9000;0.6284;3.1975;
451.2000;0.6325;3.2133;
451.5000;0.6325;3.2081;
451.8000;0.6317;3.2081;
452.1000;0.6333;3.2081;
452.4000;0.6325;3.2081;
452.7000;0.6317;3.2002;
453.0000;0.6325;3.2081;
453.3000;0.6341;3.2054;
453.6000;0.6333;3.2054;
453.9000;0.6333;3.2081;
454.2000;0.6349;3.2133;
454.5000;0.6349;3.2160;
454.8000;0.6325;3.2160;
455.1000;0.6317;3.2186;
455.4000;0.6325;3.2186;
455.7000;0.6333;3.2213;
456.0000;0.6325;3.2133;
456.3000;0.6317;3.2133;
456.6000;0.6309;3.2213;
456.9000;0.6317;3.2318;
457.2000;0.6325;3.2503;
457.5000;0.6317;3.2582;
457.8000;0.6268;3.2371;
458.1000;0.6284;3.2450;
458.4000;0.6300;3.2503;
458.7000;0.6284;3.2371;
459.0000;0.6292;3.2529;
459.3000;0.6317;3.2582;
459.6000;0.6309;3.2661;
459.9000;0.6227;3.2397;
460.2000;0.6284;3.2529;
460.5000;0.6292;3.2529;
460.8000;0.6300;3.2608;
461.1000;0.6325;3.2740;
461.4000;0.6349;3.2819;
461.7000;0.6292;3.2688;
462.0000;0.6309;3.2714;
462.3000;0.6284;3.2688;
462.6000;0.6292;3.2635;
462.9000;0.6284;3.2661;
463.2000;0.6333;3.2767;
463.5000;0.6300;3.2714;
463.8000;0.6300;3.2635;
464.1000;0.6317;3.2529;
464.4000;0.6317;3.2556;
464.7000;0.6333;3.2608;
465.0000;0.6333;3.2556;
465.3000;0.6309;3.2397;
465.6000;0.6292;3.2424;
465.9000;0.6325;3.2529;
466.2000;0.6349;3.2503;
466.5000;0.6325;3.2450;
466.8000;0.6317;3.2450;
467.1000;0.6325;3.2397;
467.4000;0.6309;3.2450;
467.7000;0.6300;3.2424;
468.0000;0.6325;3.2450;
468.3000;0.6309;3.2397;
468.6000;0.6309;3.2424;
468.9000;0.6300;3.2371;
469.2000;0.6317;3.2450;
469.5000;0.6333;3.2397;
469.8000;0.6317;3.2318;
470.1000;0.6317;3.2318;
470.4000;0.6333;3.2371;
470.7000;0.6333;3.2318;
471.0000;0.6333;3.2239;
471.3000;0.6341;3.2265;
471.6000;0.6317;3.2213;
471.9000;0.6325;3.2160;
472.2000;0.6309;3.2028;
472.5000;0.6325;3.2133;
472.8000;0.6325;3.2186;
473.1000;0.6317;3.2133;
473.4000;0.6317;3.2186;
473.7000;0.6333;3.2213;
474.0000;0.6317;3.2160;
474.3000;0.6325;3.2133;
474.6000;0.6325;3.2160;
474.9000;0.6325;3.2133;
475.2000;0.6317;3.2054;
475.5000;0.6317;3.2028;
475.8000;0.6317;3.2054;
476.1000;0.6333;3.2186;
476.4000;0.6333;3.2160;
476.7000;0.6317;3.2160;
477.0000;0.6325;3.2107;
477.3000;0.6317;3.2213;
477.6000;0.6300;3.2213;
477.9000;0.6292;3.2186;
478.2000;0.6309;3.2213;
478.5000;0.6325;3.2318;
478.8000;0.6300;3.2371;
479.1000;0.6309;3.2450;
479.4000;0.6317;3.2503;
479.7000;0.6309;3.2556;
480.0000;0.6309;3.2608;
480.3000;0.6300;3.2635;
480.6000;0.6300;3.2688;
480.9000;0.6284;3.2688;
481.2000;0.6252;3.2582;
481.5000;0.6292;3.2793;
481.8000;0.6292;3.2846;
482.1000;0.6284;3.2740;
482.4000;0.6325;3.2767;
482.7000;0.6309;3.2767;
483.0000;0.6317;3.2740;
483.3000;0.6317;3.2740;
483.6000;0.6398;3.3057;
483.9000;0.6365;3.2951;
484.2000;0.6252;3.2714;
484.5000;0.6317;3.2793;
484.8000;0.6382;3.2846;
485.1000;0.6390;3.2872;
485.4000;0.6260;3.2503;
485.7000;0.6309;3.2582;
486.0000;0.6309;3.2529;
486.3000;0.6325;3.2608;
486.6000;0.6422;3.2872;
486.9000;0.6300;3.2503;
487.2000;0.6292;3.2424;
487.5000;0.6325;3.2503;
487.8000;0.6325;3.2503;
488.1000;0.6317;3.2397;
488.4000;0.6447;3.2661;
488.7000;0.6309;3.2345;
489.0000;0.6292;3.2424;
489.3000;0.6284;3.2265;
489.6000;0.6325;3.2345;
489.9000;0.6325;3.2371;
490.2000;0.6284;3.2213;
490.5000;0.6333;3.2292;
490.8000;0.6309;3.2239;
491.1000;0.6325;3.2265;
491.4000;0.6325;3.2265;
491.7000;0.6276;3.2133;
492.0000;0.6317;3.2265;
492.3000;0.6325;3.2239;
492.6000;0.6325;3.2265;
492.9000;0.6317;3.2239;
493.2000;0.6390;3.2397;
493.5000;0.6309;3.2292;
493.8000;0.6300;3.2292;
494.1000;0.6341;3.2476;
494.4000;0.6300;3.2397;
494.7000;0.6341;3.2345;
495.0000;0.6317;3.2186;
495.3000;0.6325;3.2213;
495.6000;0.6325;3.2160;
495.9000;0.6284;3.2133;
496.2000;0.6309;3.2265;
496.5000;0.6300;3.2292;
496.8000;0.6276;3.2265;
497.1000;0.6309;3.2371;
497.4000;0.6292;3.2397;
497.7000;0.6300;3.2450;
498.0000;0.6309;3.2345;
498.3000;0.6300;3.2318;
498.6000;0.6292;3.2345;
498.9000;0.6300;3.2397;
499.2000;0.6300;3.2371;
499.5000;0.6309;3.2424;
499.8000;0.6292;3.2397;
500.1000;0.6300;3.2424;
500.4000;0.6317;3.2503;
500.7000;0.6325;3.2688;
501.0000;0.6309;3.2688;
501.3000;0.6309;3.2635;
501.6000;0.6325;3.2661;
501.9000;0.6317;3.2661;
502.2000;0.6300;3.2688;
502.5000;0.6333;3.2767;
502.8000;0.6341;3.2740;
503.1000;0.6317;3.2714;
503.4000;0.6317;3.2661;
503.7000;0.6382;3.2925;
504.0000;0.6325;3.2740;
504.3000;0.6292;3.2714;
504.6000;0.6333;3.2793;
504.9000;0.6382;3.2872;
505.2000;0.6317;3.2556;
505.5000;0.6317;3.2476;
505.8000;0.6333;3.2476;
506.1000;0.6374;3.2424;
506.4000;0.6333;3.2239;
506.7000;0.6341;3.2292;
507.0000;0.6309;3.2265;
507.3000;0.6309;3.2186;
507.6000;0.6292;3.2160;
507.9000;0.6374;3.2345;
508.2000;0.6309;3.2133;
508.5000;0.6252;3.1975;
508.8000;0.6300;3.2160;
509.1000;0.6349;3.2371;
509.4000;0.6325;3.2318;
509.7000;0.6325;3.2371;
510.0000;0.6309;3.2292;
510.3000;0.6325;3.2265;
510.6000;0.6284;3.2081;
510.9000;0.6325;3.2213;
511.2000;0.6325;3.2160;
511.5000;0.6317;3.2186;
511.8000;0.6333;3.2292;
512.1000;0.6325;3.2186;
512.4000;0.6309;3.2213;
512.7000;0.6268;3.2160;
513.0000;0.6325;3.2371;
513.3000;0.6325;3.2397;
513.6000;0.6333;3.2450;
513.9000;0.6260;3.2371;
514.2000;0.6317;3.2503;
514.5000;0.6325;3.2503;
514.8000;0.6317;3.2529;
515.1000;0.6341;3.2503;
515.4000;0.6317;3.2450;
515.7000;0.6325;3.2476;
516.0000;0.6300;3.2371;
516.3000;0.6300;3.2371;
516.6000;0.6292;3.2318;
516.9000;0.6317;3.2397;
517.2000;0.6317;3.2424;
517.5000;0.6292;3.2371;
517.8000;0.6317;3.2371;
518.1000;0.6292;3.2397;
518.4000;0.6309;3.2556;
518.7000;0.6268;3.2476;
519.0000;0.6374;3.2714;
519.3000;0.6292;3.2503;
519.6000;0.6268;3.2450;
519.9000;0.6284;3.2529;
520.2000;0.6276;3.2529;
520.5000;0.6365;3.2661;
520.8000;0.6268;3.2635;
521.1000;0.6284;3.2661;
521.4000;0.6300;3.2582;
521.7000;0.6260;3.2476;
522.0000;0.6284;3.2582;
522.3000;0.6300;3.2556;
522.6000;0.6300;3.2635;
522.9000;0.6309;3.2635;
523.2000;0.6300;3.2688;
523.5000;0.6292;3.2740;
523.8000;0.6309;3.2767;
524.1000;0.6268;3.2740;
524.4000;0.6284;3.2714;
524.7000;0.6300;3.2635;
525.0000;0.6300;3.2661;
525.3000;0.6292;3.2582;
525.6000;0.6292;3.2529;
525.9000;0.6317;3.2503;
526.2000;0.6317;3.2424;
526.5000;0.6317;3.2318;
526.8000;0.6292;3.2239;
527.1000;0.6317;3.2292;
527.4000;0.6325;3.2292;
527.7000;0.6317;3.2292;
528.0000;0.6309;3.2292;
528.3000;0.6325;3.2213;
528.6000;0.6333;3.2160;
528.9000;0.6284;3.2081;
529.2000;0.6309;3.2160;
529.5000;0.6292;3.2213;
529.8000;0.6325;3.2345;
530.1000;0.6317;3.2345;
530.4000;0.6300;3.2186;
530.7000;0.6309;3.2160;
531.0000;0.6325;3.2186;
531.3000;0.6341;3.2318;
531.6000;0.6325;3.2133;
531.9000;0.6365;3.2213;
532.2000;0.6325;3.2292;
532.5000;0.6317;3.2133;
532.8000;0.6276;3.2002;
533.1000;0.6309;3.2081;
533.4000;0.6390;3.2186;
533.7000;0.6317;3.2002;
534.0000;0.6325;3.2028;
534.3000;0.6252;3.1843;
534.6000;0.6341;3.2107;
534.9000;0.6333;3.2107;
535.2000;0.6203;3.1764;
535.5000;0.6325;3.2160;
535.8000;0.6398;3.2397;
536.1000;0.6349;3.2345;
536.4000;0.6260;3.2133;
536.7000;0.6325;3.2318;
537.0000;0.6300;3.2186;
537.3000;0.6317;3.2292;
537.6000;0.6317;3.2345;
537.9000;0.6300;3.2345;
538.2000;0.6252;3.2213;
538.5000;0.6317;3.2371;
538.8000;0.6317;3.2450;
539.1000;0.6284;3.2318;
539.4000;0.6284;3.2292;
539.7000;0.6292;3.2424;
540.0000;0.6260;3.2424;
540.3000;0.6292;3.2556;
540.6000;0.6284;3.2608;
540.9000;0.6284;3.2608;
541.2000;0.6292;3.2635;
541.5000;0.6268;3.2635;
541.8000;0.6235;3.2450;
542.1000;0.6268;3.2529;
542.4000;0.6300;3.2476;
542.7000;0.6317;3.2503;
543.0000;0.6309;3.2503;
543.3000;0.6292;3.2397;
543.6000;0.6292;3.2476;
543.9000;0.6292;3.2450;
544.2000;0.6276;3.2292;
544.5000;0.6252;3.2265;
544.8000;0.6292;3.2476;
545.1000;0.6276;3.2345;
545.4000;0.6292;3.2345;
545.7000;0.6317;3.2397;
546.0000;0.6284;3.2265;
546.3000;0.6325;3.2371;
546.6000;0.6325;3.2292;
546.9000;0.6300;3.2054;
547.2000;0.6300;3.2028;
547.5000;0.6325;3.2054;
547.8000;0.6341;3.2081;
548.1000;0.6317;3.2107;
548.4000;0.6341;3.2081;
548.7000;0.6325;3.2081;
549.0000;0.6292;3.2054;
549.3000;0.6317;3.2107;
549.6000;0.6325;3.2265;
549.9000;0.6317;3.2265;
550.2000;0.6292;3.2213;
550.5000;0.6333;3.2397;
550.8000;0.6309;3.2345;
551.1000;0.6300;3.2450;
551.4000;0.6325;3.2503;
551.7000;0.6292;3.2318;
552.0000;0.6292;3.2213;
552.3000;0.6211;3.1896;
552.6000;0.6333;3.2133;
552.9000;0.6325;3.2160;
553.2000;0.6325;3.2133;
553.5000;0.6300;3.2054;
553.8000;0.6325;3.2107;
554.1000;0.6309;3.2160;
554.4000;0.6309;3.2160;
554.7000;0.6300;3.2213;
555.0000;0.6309;3.2213;
555.3000;0.6333;3.2292;
555.6000;0.6317;3.2213;
555.9000;0.6300;3.2133;
556.2000;0.6309;3.2213;
556.5000;0.6309;3.2213;
556.8000;0.6365;3.2397;
557.1000;0.6333;3.2318;
557.4000;0.6309;3.2265;
557.7000;0.6325;3.2371;
558.0000;0.6309;3.2345;
558.3000;0.6309;3.2371;
558.6000;0.6292;3.2424;
558.9000;0.6317;3.2503;
559.2000;0.6300;3.2608;
559.5000;0.6284;3.2582;
559.8000;0.6300;3.2661;
560.1000;0.6309;3.2582;
560.4000;0.6333;3.2556;
560.7000;0.6300;3.2476;
561.0000;0.6341;3.2529;
561.3000;0.6268;3.2397;
561.6000;0.6268;3.2476;
561.9000;0.6268;3.2371;
562.2000;0.6186;3.2186;
562.5000;0.6284;3.2397;
562.8000;0.6300;3.2345;
563.1000;0.6309;3.2503;
563.4000;0.6300;3.2424;
563.7000;0.6300;3.2424;
564.0000;0.6292;3.2476;
564.3000;0.6300;3.2476;
564.6000;0.6398;3.2582;
564.9000;0.6292;3.2239;
565.2000;0.6268;3.2213;
565.5000;0.6309;3.2318;
565.8000;0.6309;3.2450;
566.1000;0.6300;3.2476;
566.4000;0.6284;3.2424;
566.7000;0.6292;3.2371;
567.0000;0.6317;3.2476;
567.3000;0.6260;3.2371;
567.6000;0.6300;3.2397;
567.9000;0.6309;3.2345;
568.2000;0.6309;3.2265;
568.5000;0.6300;3.2186;
568.8000;0.6300;3.2107;
569.1000;0.6309;3.2160;
569.4000;0.6317;3.2213;
569.7000;0.6300;3.2028;
570.0000;0.6284;3.1922;
570.3000;0.6317;3.1896;
570.6000;0.6309;3.1896;
570.9000;0.6317;3.1975;
571.2000;0.6325;3.2054;
571.5000;0.6333;3.2133;
571.8000;0.6325;3.2133;
572.1000;0.6333;3.2160;
572.4000;0.6325;3.2133;
572.7000;0.6317;3.2081;
573.0000;0.6325;3.2160;
573.3000;0.6333;3.2054;
573.6000;0.6300;3.2081;
573.9000;0.6300;3.2054;
574.2000;0.6325;3.2107;
574.5000;0.6325;3.2028;
574.8000;0.6317;3.2028;
575.1000;0.6309;3.2054;
575.4000;0.6309;3.2160;
575.7000;0.6284;3.2133;
576.0000;0.6333;3.2371;
576.3000;0.6300;3.2424;
576.6000;0.6317;3.2397;
576.9000;0.6333;3.2476;
577.2000;0.6357;3.2556;
577.5000;0.6284;3.2424;
577.8000;0.6309;3.2476;
578.1000;0.6292;3.2529;
578.4000;0.6268;3.2424;
578.7000;0.6292;3.2371;
579.0000;0.6252;3.2292;
579.3000;0.6252;3.2397;
579.6000;0.6276;3.2529;
579.9000;0.6309;3.2556;
580.2000;0.6276;3.2556;
580.5000;0.6309;3.2661;
580.8000;0.6284;3.2608;
581.1000;0.6276;3.2661;
581.4000;0.6268;3.2714;
581.7000;0.6284;3.2661;
582.0000;0.6284;3.2661;
582.3000;0.6325;3.2793;
582.6000;0.6284;3.2688;
582.9000;0.6309;3.2661;
583.2000;0.6292;3.2582;
583.5000;0.6317;3.2582;
583.8000;0.6300;3.2397;
584.1000;0.6284;3.2318;
584.4000;0.6268;3.2186;
584.7000;0.6325;3.2397;
585.0000;0.6276;3.2397;
585.3000;0.6309;3.2450;
585.6000;0.6309;3.2397;
585.9000;0.6309;3.2318;
586.2000;0.6325;3.2345;
586.5000;0.6309;3.2265;
586.8000;0.6309;3.2345;
587.1000;0.6309;3.2371;
587.4000;0.6333;3.2476;
587.7000;0.6276;3.2345;
588.0000;0.6309;3.2371;
588.3000;0.6309;3.2239;
588.6000;0.6333;3.2318;
588.9000;0.6309;3.2318;
589.2000;0.6317;3.2265;
589.5000;0.6309;3.2292;
589.8000;0.6317;3.2345;
590.1000;0.6317;3.2265;
590.4000;0.6317;3.2239;
590.7000;0.6292;3.2239;
591.0000;0.6325;3.2265;
591.3000;0.6300;3.2186;
591.6000;0.6292;3.2160;
591.9000;0.6309;3.2213;
592.2000;0.6300;3.2292;
592.5000;0.6284;3.2213;
592.8000;0.6292;3.2318;
593.1000;0.6309;3.2371;
593.4000;0.6325;3.2345;
593.7000;0.6325;3.2371;
594.0000;0.6309;3.2318;
594.3000;0.6292;3.2318;
594.6000;0.6317;3.2345;
594.9000;0.6300;3.2345;
595.2000;0.6317;3.2424;
595.5000;0.6333;3.2397;
595.8000;0.6317;3.2397;
596.1000;0.6341;3.2450;
596.4000;0.6300;3.2292;
596.7000;0.6333;3.2424;
597.0000;0.6349;3.2397;
597.3000;0.6309;3.2450;
597.6000;0.6309;3.2450;
597.9000;0.6300;3.2397;
598.2000;0.6284;3.2397;
598.5000;0.6309;3.2371;
598.8000;0.6325;3.2397;
599.1000;0.6325;3.2450;
599.4000;0.6309;3.2503;
599.7000;0.6292;3.2608;
600.0000;0.6292;3.2582;
600.3000;0.6252;3.2529;
600.6000;0.6276;3.2450;
600.9000;0.6203;3.2028;
601.2000;0.6276;3.2133;
601.5000;0.6178;3.1817;
601.8000;0.6129;3.1553;
602.1000;0.5861;3.0867;
602.4000;0.6064;3.1263;
602.7000;0.6015;3.1052;
603.0000;0.5991;3.0788;
603.3000;0.6007;3.0735;
603.6000;0.5893;3.0366;
603.9000;0.5942;3.0419;
604.2000;0.5861;3.0181;
604.5000;0.5828;3.0076;
604.8000;0.5682;2.9680;
605.1000;0.5788;2.9944;
605.4000;0.5763;2.9891;
605.7000;0.5747;2.9733;
606.0000;0.5698;2.9574;
606.3000;0.5747;2.9601;
606.6000;0.5682;2.9416;
606.9000;0.5657;2.9390;
607.2000;0.5633;2.9284;
607.5000;0.5608;2.9258;
607.8000;0.5722;2.9495;
608.1000;0.5584;2.9020;
608.4000;0.5568;2.9047;
608.7000;0.5568;2.9179;
609.0000;0.5543;2.9126;
609.3000;0.5543;2.9047;
609.6000;0.5527;2.9047;
609.9000;0.5503;2.8941;
610.2000;0.5511;2.8862;
610.5000;0.5495;2.8783;
610.8000;0.5470;2.8730;
611.1000;0.5446;2.8677;
611.4000;0.5429;2.8757;
611.7000;0.5372;2.8598;
612.0000;0.5405;2.8836;
612.3000;0.5381;2.8862;
612.6000;0.5364;2.8836;
612.9000;0.5381;2.8888;
613.2000;0.5364;2.8704;
613.5000;0.5348;2.8625;
613.8000;0.5332;2.8677;
614.1000;0.5332;2.8572;
614.4000;0.5332;2.8598;
614.7000;0.5299;2.8572;
615.0000;0.5307;2.8651;
615.3000;0.5275;2.8625;
615.6000;0.5267;2.8625;
615.9000;0.5267;2.8625;
616.2000;0.5250;2.8651;
616.5000;0.5234;2.8625;
616.8000;0.5258;2.8677;
617.1000;0.5201;2.8493;
617.4000;0.5193;2.8466;
617.7000;0.5112;2.8282;
618.0000;0.5193;2.8546;
618.3000;0.5185;2.8493;
618.6000;0.5177;2.8519;
618.9000;0.5169;2.8572;
619.2000;0.5153;2.8572;
619.5000;0.5161;2.8598;
619.8000;0.5161;2.8572;
620.1000;0.5144;2.8519;
620.4000;0.5128;2.8493;
620.7000;0.5120;2.8493;
621.0000;0.5096;2.8493;
621.3000;0.5096;2.8546;
621.6000;0.5096;2.8625;
621.9000;0.5104;2.8704;
622.2000;0.5071;2.8704;
622.5000;0.5088;2.8598;
622.8000;0.5088;2.8651;
623.1000;0.5063;2.8519;
623.4000;0.5039;2.8308;
623.7000;0.5039;2.8255;
624.0000;0.5031;2.8387;
624.3000;0.5071;2.8598;
624.6000;0.5031;2.8414;
624.9000;0.5022;2.8414;
625.2000;0.5039;2.8598;
625.5000;0.5031;2.8546;
625.8000;0.5006;2.8466;
626.1000;0.4998;2.8493;
626.4000;0.4990;2.8414;
626.7000;0.4998;2.8414;
627.0000;0.4990;2.8440;
627.3000;0.4982;2.8466;
627.6000;0.4949;2.8361;
627.9000;0.4982;2.8493;
628.2000;0.4957;2.8387;
628.5000;0.4925;2.8255;
628.8000;0.4949;2.8334;
629.1000;0.4941;2.8387;
629.4000;0.4949;2.8519;
629.7000;0.4957;2.8572;
630.0000;0.4925;2.8440;
630.3000;0.4917;2.8387;
630.6000;0.4933;2.8414;
630.9000;0.4908;2.8466;
631.2000;0.4908;2.8361;
631.5000;0.4908;2.8414;
631.8000;0.4908;2.8414;
632.1000;0.4892;2.8334;
632.4000;0.4884;2.8282;
632.7000;0.4900;2.8229;
633.0000;0.4860;2.8150;
633.3000;0.4876;2.8229;
633.6000;0.4876;2.8229;
633.9000;0.4803;2.7965;
634.2000;0.4876;2.8150;
634.5000;0.4868;2.8097;
634.8000;0.4860;2.8150;
635.1000;0.4860;2.8097;
635.4000;0.4835;2.8044;
635.7000;0.4860;2.8203;
636.0000;0.4835;2.8308;
636.3000;0.4843;2.8361;
636.6000;0.4803;2.8334;
636.9000;0.4827;2.8387;
637.2000;0.4819;2.8334;
637.5000;0.4843;2.8414;
637.8000;0.4811;2.8282;
638.1000;0.4794;2.8282;
638.4000;0.4811;2.8387;
638.7000;0.4737;2.8203;
639.0000;0.4770;2.8334;
639.3000;0.4794;2.8414;
639.6000;0.4786;2.8466;
639.9000;0.4778;2.8493;
640.2000;0.4778;2.8440;
640.5000;0.4746;2.8493;
640.8000;0.4754;2.8625;
641.1000;0.4762;2.8598;
641.4000;0.4770;2.8598;
641.7000;0.4778;2.8598;
642.0000;0.4762;2.8704;
642.3000;0.4729;2.8625;
642.6000;0.4672;2.8493;
642.9000;0.4770;2.8915;
643.2000;0.4762;2.8809;
643.5000;0.4737;2.8783;
643.8000;0.4746;2.8836;
644.1000;0.4737;2.8757;
644.4000;0.4737;2.8677;
644.7000;0.4737;2.8625;
645.0000;0.4729;2.8598;
645.3000;0.4729;2.8546;
645.6000;0.4721;2.8493;
645.9000;0.4721;2.8414;
646.2000;0.4786;2.8546;
646.5000;0.4746;2.8546;
646.8000;0.4713;2.8519;
647.1000;0.4713;2.8493;
647.4000;0.4737;2.8493;
647.7000;0.4689;2.8414;
648.0000;0.4762;2.8651;
648.3000;0.4705;2.8493;
648.6000;0.4705;2.8493;
648.9000;0.4705;2.8519;
649.2000;0.4697;2.8493;
649.5000;0.4624;2.8308;
649.8000;0.4672;2.8466;
650.1000;0.4689;2.8572;
650.4000;0.4737;2.8598;
650.7000;0.4681;2.8493;
651.0000;0.4705;2.8598;
651.3000;0.4835;2.8915;
651.6000;0.4697;2.8466;
651.9000;0.4697;2.8440;
652.2000;0.4713;2.8519;
652.5000;0.4689;2.8414;
652.8000;0.4681;2.8414;
653.1000;0.4656;2.8361;
653.4000;0.4664;2.8361;
653.7000;0.4648;2.8387;
654.0000;0.4664;2.8440;
654.3000;0.4656;2.8387;
654.6000;0.4648;2.8308;
654.9000;0.4640;2.8308;
655.2000;0.4672;2.8334;
655.5000;0.4648;2.8229;
655.8000;0.4640;2.8203;
656.1000;0.4640;2.8308;
656.4000;0.4664;2.8493;
656.7000;0.4656;2.8493;
657.0000;0.4640;2.8414;
657.3000;0.4632;2.8334;
657.6000;0.4640;2.8493;
657.9000;0.4648;2.8519;
658.2000;0.4624;2.8466;
658.5000;0.4624;2.8493;
658.8000;0.4615;2.8519;
659.1000;0.4624;2.8519;
659.4000;0.4591;2.8387;
659.7000;0.4542;2.8229;
660.0000;0.4607;2.8546;
660.3000;0.4632;2.8677;
660.6000;0.4615;2.8625;
660.9000;0.4599;2.8625;
661.2000;0.4615;2.8783;
661.5000;0.4624;2.8809;
661.8000;0.4591;2.8836;
662.1000;0.4599;2.8809;
662.4000;0.4599;2.8757;
662.7000;0.4615;2.8757;
663.0000;0.4599;2.8572;
663.3000;0.4615;2.8598;
663.6000;0.4624;2.8572;
663.9000;0.4583;2.8493;
664.2000;0.4607;2.8572;
664.5000;0.4583;2.8546;
664.8000;0.4615;2.8651;
665.1000;0.4607;2.8572;
665.4000;0.4599;2.8546;
665.7000;0.4607;2.8546;
666.0000;0.4591;2.8519;
666.3000;0.4583;2.8493;
666.6000;0.4591;2.8466;
666.9000;0.4550;2.8414;
667.2000;0.4583;2.8440;
667.5000;0.4591;2.8440;
667.8000;0.4624;2.8414;
668.1000;0.4599;2.8282;
668.4000;0.4599;2.8282;
668.7000;0.4583;2.8229;
669.0000;0.4542;2.8255;
669.3000;0.4575;2.8308;
669.6000;0.4575;2.8176;
669.9000;0.4575;2.8255;
670.2000;0.4615;2.8361;
670.5000;0.4591;2.8229;
670.8000;0.4583;2.8229;
671.1000;0.4558;2.8176;
671.4000;0.4640;2.8598;
671.7000;0.4575;2.8440;
672.0000;0.4567;2.8334;
672.3000;0.4632;2.8546;
672.6000;0.4591;2.8387;
672.9000;0.4526;2.8203;
673.2000;0.4575;2.8282;
673.5000;0.4444;2.7912;
673.8000;0.4550;2.8203;
674.1000;0.4575;2.8282;
674.4000;0.4550;2.8176;
674.7000;0.4567;2.8150;
675.0000;0.4542;2.8203;
675.3000;0.4640;2.8493;
675.6000;0.4567;2.8387;
675.9000;0.4567;2.8414;
676.2000;0.4534;2.8282;
676.5000;0.4558;2.8466;
676.8000;0.4534;2.8387;
677.1000;0.4558;2.8546;
677.4000;0.4534;2.8546;
677.7000;0.4558;2.8572;
678.0000;0.4558;2.8572;
678.3000;0.4583;2.8651;
678.6000;0.4542;2.8572;
678.9000;0.4526;2.8519;
679.2000;0.4542;2.8572;
679.5000;0.4526;2.8546;
679.8000;0.4518;2.8546;
680.1000;0.4526;2.8572;
680.4000;0.4567;2.8783;
680.7000;0.4534;2.8783;
681.0000;0.4534;2.8783;
681.3000;0.4558;2.8836;
681.6000;0.4542;2.8757;
681.9000;0.4526;2.8783;
682.2000;0.4526;2.8862;
682.5000;0.4534;2.8809;
682.8000;0.4501;2.8730;
683.1000;0.4542;2.8809;
683.4000;0.4526;2.8730;
683.7000;0.4550;2.8836;
684.0000;0.4534;2.8783;
684.3000;0.4510;2.8625;
684.6000;0.4526;2.8598;
684.9000;0.4428;2.8308;
685.2000;0.4501;2.8546;
685.5000;0.4501;2.8493;
685.8000;0.4615;2.8757;
686.1000;0.4518;2.8361;
686.4000;0.4493;2.8203;
686.7000;0.4534;2.8361;
687.0000;0.4493;2.8255;
687.3000;0.4510;2.8229;
687.6000;0.4558;2.8229;
687.9000;0.4526;2.8229;
688.2000;0.4510;2.8308;
688.5000;0.4510;2.8414;
688.8000;0.4501;2.8466;
689.1000;0.4469;2.8361;
689.4000;0.4510;2.8414;
689.7000;0.4396;2.8044;
690.0000;0.4501;2.8334;
690.3000;0.4493;2.8308;
690.6000;0.4501;2.8334;
690.9000;0.4493;2.8308;
691.2000;0.4493;2.8361;
691.5000;0.4493;2.8361;
691.8000;0.4501;2.8361;
692.1000;0.4534;2.8361;
692.4000;0.4518;2.8414;
692.7000;0.4501;2.8387;
693.0000;0.4477;2.8387;
693.3000;0.4542;2.8519;
693.6000;0.4493;2.8334;
693.9000;0.4453;2.8123;
694.2000;0.4485;2.8203;
694.5000;0.4485;2.8176;
694.8000;0.4542;2.8308;
695.1000;0.4485;2.8203;
695.4000;0.4501;2.8361;
695.7000;0.4485;2.8361;
696.0000;0.4469;2.8361;
696.3000;0.4461;2.8334;
696.6000;0.4469;2.8308;
696.9000;0.4558;2.8546;
697.2000;0.4485;2.8334;
697.5000;0.4534;2.8493;
697.8000;0.4444;2.8150;
698.1000;0.4477;2.8361;
698.4000;0.4461;2.8361;
698.7000;0.4485;2.8361;
699.0000;0.4485;2.8414;
699.3000;0.4461;2.8334;
699.6000;0.4477;2.8572;
699.9000;0.4501;2.8783;
700.2000;0.4453;2.8651;
700.5000;0.4461;2.8704;
700.8000;0.4469;2.8757;
701.1000;0.4477;2.8677;
701.4000;0.4469;2.8730;
701.7000;0.4477;2.8757;
702.0000;0.4469;2.8783;
702.3000;0.4485;2.8730;
702.6000;0.4469;2.8704;
702.9000;0.4461;2.8651;
703.2000;0.4436;2.8572;
703.5000;0.4477;2.8625;
703.8000;0.4469;2.8572;
704.1000;0.4477;2.8493;
704.4000;0.4363;2.8150;
704.7000;0.4428;2.8387;
705.0000;0.4444;2.8440;
705.3000;0.4469;2.8546;
705.6000;0.4453;2.8440;
705.9000;0.4444;2.8361;
706.2000;0.4461;2.8387;
706.5000;0.4453;2.8334;
706.8000;0.4444;2.8361;
707.1000;0.4477;2.8361;
707.4000;0.4469;2.8361;
707.7000;0.4461;2.8361;
708.0000;0.4477;2.8334;
708.3000;0.4469;2.8282;
708.6000;0.4469;2.8334;
708.9000;0.4526;2.8519;
709.2000;0.4501;2.8598;
709.5000;0.4444;2.8493;
709.8000;0.4493;2.8572;
710.1000;0.4453;2.8440;
710.4000;0.4436;2.8308;
710.7000;0.4428;2.8308;
711.0000;0.4485;2.8466;
711.3000;0.4461;2.8361;
711.6000;0.4461;2.8387;
711.9000;0.4428;2.8282;
712.2000;0.4534;2.8625;
712.5000;0.4461;2.8387;
712.8000;0.4453;2.8255;
713.1000;0.4477;2.8308;
713.4000;0.4444;2.8308;
713.7000;0.4477;2.8334;
714.0000;0.4461;2.8308;
714.3000;0.4469;2.8334;
714.6000;0.4444;2.8361;
714.9000;0.4453;2.8361;
715.2000;0.4387;2.8123;
715.5000;0.4453;2.8308;
715.8000;0.4436;2.8361;
716.1000;0.4444;2.8466;
716.4000;0.4453;2.8546;
716.7000;0.4444;2.8572;
717.0000;0.4436;2.8625;
717.3000;0.4461;2.8598;
717.6000;0.4469;2.8651;
717.9000;0.4436;2.8677;
718.2000;0.4355;2.8414;
718.5000;0.4453;2.8757;
718.8000;0.4436;2.8757;
719.1000;0.4436;2.8677;
719.4000;0.4510;2.8915;
719.7000;0.4404;2.8651;
720.0000;0.4420;2.8625;
720.3000;0.4501;2.8730;
720.6000;0.4420;2.8519;
720.9000;0.4428;2.8546;
721.2000;0.4396;2.8466;
721.5000;0.4436;2.8546;
721.8000;0.4461;2.8651;
722.1000;0.4387;2.8334;
722.4000;0.4396;2.8203;
722.7000;0.4428;2.8334;
723.0000;0.4428;2.8255;
723.3000;0.4436;2.8255;
723.6000;0.4444;2.8282;
723.9000;0.4428;2.8229;
724.2000;0.4558;2.8651;
724.5000;0.4420;2.8308;
724.8000;0.4469;2.8493;
725.1000;0.4436;2.8387;
725.4000;0.4436;2.8440;
725.7000;0.4420;2.8334;
726.0000;0.4412;2.8308;
726.3000;0.4428;2.8255;
726.6000;0.4428;2.8282;
726.9000;0.4436;2.8334;
727.2000;0.4453;2.8414;
727.5000;0.4485;2.8546;
727.8000;0.4485;2.8493;
728.1000;0.4444;2.8387;
728.4000;0.4436;2.8361;
728.7000;0.4420;2.8334;
729.0000;0.4436;2.8361;
729.3000;0.4428;2.8414;
729.6000;0.4420;2.8414;
729.9000;0.4420;2.8440;
730.2000;0.4444;2.8519;
730.5000;0.4396;2.8387;
730.8000;0.4485;2.8572;
731.1000;0.4453;2.8440;
731.4000;0.4510;2.8704;
731.7000;0.4436;2.8493;
732.0000;0.4453;2.8598;
732.3000;0.4347;2.8255;
732.6000;0.4420;2.8440;
732.9000;0.4436;2.8493;
733.2000;0.4428;2.8493;
733.5000;0.4379;2.8387;
733.8000;0.4420;2.8466;
734.1000;0.4428;2.8546;
734.4000;0.4428;2.8493;
734.7000;0.4436;2.8440;
735.0000;0.4420;2.8334;
735.3000;0.4412;2.8414;
735.6000;0.4461;2.8572;
735.9000;0.4412;2.8466;
736.2000;0.4436;2.8414;
736.5000;0.4420;2.8361;
736.8000;0.4428;2.8414;
737.1000;0.4436;2.8493;
737.4000;0.4404;2.8466;
737.7000;0.4428;2.8546;
738.0000;0.4404;2.8440;
738.3000;0.4469;2.8546;
738.6000;0.4404;2.8414;
738.9000;0.4453;2.8572;
739.2000;0.4412;2.8440;
739.5000;0.4404;2.8519;
739.8000;0.4387;2.8466;
740.1000;0.4396;2.8572;
740.4000;0.4396;2.8546;
740.7000;0.4396;2.8519;
741.0000;0.4404;2.8466;
741.3000;0.4428;2.8677;
741.6000;0.4412;2.8651;
741.9000;0.4404;2.8757;
742.2000;0.4404;2.8730;
742.5000;0.4396;2.8704;
742.8000;0.4477;2.8888;
743.1000;0.4420;2.8598;
743.4000;0.4420;2.8625;
743.7000;0.4420;2.8625;
744.0000;0.4412;2.8625;
744.3000;0.4493;2.8888;
744.6000;0.4412;2.8519;
744.9000;0.4412;2.8493;
745.2000;0.4396;2.8414;
745.5000;0.4404;2.8493;
745.8000;0.4420;2.8546;
746.1000;0.4412;2.8519;
746.4000;0.4428;2.8414;
746.7000;0.4412;2.8493;
747.0000;0.4404;2.8493;
747.3000;0.4387;2.8493;
747.6000;0.4404;2.8414;
747.9000;0.4412;2.8466;
748.2000;0.4428;2.8572;
748.5000;0.4396;2.8466;
748.8000;0.4420;2.8519;
749.1000;0.4420;2.8572;
749.4000;0.4404;2.8519;
749.7000;0.4444;2.8651;
750.0000;0.4404;2.8572;
750.3000;0.4306;2.8203;
750.6000;0.4396;2.8440;
750.9000;0.4387;2.8440;
751.2000;0.4453;2.8625;
751.5000;0.4404;2.8546;
751.8000;0.4461;2.8704;
752.1000;0.4404;2.8519;
752.4000;0.4420;2.8598;
752.7000;0.4404;2.8677;
753.0000;0.4387;2.8572;
753.3000;0.4404;2.8625;
753.6000;0.4404;2.8677;
753.9000;0.4404;2.8625;
754.2000;0.4420;2.8572;
754.5000;0.4404;2.8519;
754.8000;0.4404;2.8493;
755.1000;0.4396;2.8519;
755.4000;0.4396;2.8440;
755.7000;0.4379;2.8361;
756.0000;0.4412;2.8414;
756.3000;0.4404;2.8414;
756.6000;0.4404;2.8387;
756.9000;0.4428;2.8519;
757.2000;0.4387;2.8334;
757.5000;0.4396;2.8387;
757.8000;0.4387;2.8361;
758.1000;0.4387;2.8440;
758.4000;0.4387;2.8572;
758.7000;0.4412;2.8572;
759.0000;0.4428;2.8598;
759.3000;0.4396;2.8546;
759.6000;0.4371;2.8519;
759.9000;0.4404;2.8625;
760.2000;0.4404;2.8625;
760.5000;0.4396;2.8598;
760.8000;0.4371;2.8493;
761.1000;0.4379;2.8677;
761.4000;0.4396;2.8704;
761.7000;0.4355;2.8625;
762.0000;0.4363;2.8677;
762.3000;0.4379;2.8704;
762.6000;0.4396;2.8730;
762.9000;0.4387;2.8677;
763.2000;0.4396;2.8677;
763.5000;0.4404;2.8651;
763.8000;0.4396;2.8783;
764.1000;0.4453;2.8862;
764.4000;0.4387;2.8704;
764.7000;0.4477;2.8836;
765.0000;0.4371;2.8704;
765.3000;0.4428;2.8836;
765.6000;0.4387;2.8704;
765.9000;0.4314;2.8414;
766.2000;0.4257;2.8123;
766.5000;0.4396;2.8519;
766.8000;0.4363;2.8387;
767.1000;0.4477;2.8730;
767.4000;0.4379;2.8414;
767.7000;0.4387;2.8334;
768.0000;0.4387;2.8361;
768.3000;0.4379;2.8334;
768.6000;0.4387;2.8308;
768.9000;0.4379;2.8334;
769.2000;0.4404;2.8387;
769.5000;0.4396;2.8308;
769.8000;0.4379;2.8282;
770.1000;0.4371;2.8334;
770.4000;0.4330;2.8229;
770.7000;0.4396;2.8414;
771.0000;0.4412;2.8466;
771.3000;0.4355;2.8334;
771.6000;0.4387;2.8440;
771.9000;0.4404;2.8387;
772.2000;0.4428;2.8440;
772.5000;0.4371;2.8308;
772.8000;0.4404;2.8387;
773.1000;0.4396;2.8308;
773.4000;0.4387;2.8308;
773.7000;0.4347;2.8203;
774.0000;0.4404;2.8308;
774.3000;0.4387;2.8308;
774.6000;0.4379;2.8334;
774.9000;0.4412;2.8387;
775.2000;0.4387;2.8334;
775.5000;0.4387;2.8361;
775.8000;0.4404;2.8466;
776.1000;0.4379;2.8414;
776.4000;0.4387;2.8440;
776.7000;0.4396;2.8493;
777.0000;0.4396;2.8519;
777.3000;0.4379;2.8440;
777.6000;0.4412;2.8598;
777.9000;0.4330;2.8414;
778.2000;0.4371;2.8466;
778.5000;0.4371;2.8519;
778.8000;0.4379;2.8493;
779.1000;0.4379;2.8519;
779.4000;0.4379;2.8546;
779.7000;0.4412;2.8651;
780.0000;0.4339;2.8440;
780.3000;0.4379;2.8598;
780.6000;0.4371;2.8625;
780.9000;0.4371;2.8651;
781.2000;0.4347;2.8651;
781.5000;0.4371;2.8757;
781.8000;0.4298;2.8466;
782.1000;0.4387;2.8757;
782.4000;0.4371;2.8546;
782.7000;0.4363;2.8493;
783.0000;0.4412;2.8651;
783.3000;0.4387;2.8598;
783.6000;0.4355;2.8414;
783.9000;0.4387;2.8598;
784.2000;0.4371;2.8493;
784.5000;0.4347;2.8361;
784.8000;0.4396;2.8519;
785.1000;0.4363;2.8308;
785.4000;0.4453;2.8572;
785.7000;0.4379;2.8334;
786.0000;0.4387;2.8361;
786.3000;0.4371;2.8361;
786.6000;0.4347;2.8308;
786.9000;0.4387;2.8334;
787.2000;0.4379;2.8255;
787.5000;0.4355;2.8334;
787.8000;0.4371;2.8334;
788.1000;0.4330;2.8176;
788.4000;0.4396;2.8282;
788.7000;0.4371;2.8176;
789.0000;0.4355;2.8176;
789.3000;0.4526;2.8783;
789.6000;0.4436;2.8519;
789.9000;0.4330;2.8255;
790.2000;0.4387;2.8387;
790.5000;0.4444;2.8546;
790.8000;0.4404;2.8387;
791.1000;0.4428;2.8440;
791.4000;0.4355;2.8229;
791.7000;0.4404;2.8466;
792.0000;0.4387;2.8440;
792.3000;0.4379;2.8414;
792.6000;0.4339;2.8440;
792.9000;0.4355;2.8493;
793.2000;0.4355;2.8493;
793.5000;0.4363;2.8387;
793.8000;0.4355;2.8334;
794.1000;0.4387;2.8308;
794.4000;0.4379;2.8334;
794.7000;0.4379;2.8282;
795.0000;0.4363;2.8229;
795.3000;0.4387;2.8097;
795.6000;0.4396;2.8123;
795.9000;0.4379;2.8229;
796.2000;0.4379;2.8176;
796.5000;0.4371;2.8150;
796.8000;0.4379;2.8176;
797.1000;0.4387;2.8229;
797.4000;0.4387;2.8361;
797.7000;0.4347;2.8255;
798.0000;0.4355;2.8361;
798.3000;0.4339;2.8387;
798.6000;0.4387;2.8519;
798.9000;0.4371;2.8519;
799.2000;0.4363;2.8519;
799.5000;0.4347;2.8466;
799.8000;0.4363;2.8519;
800.1000;0.4371;2.8651;
800.4000;0.4347;2.8677;
800.7000;0.4371;2.8783;
801.0000;0.4371;2.8862;
801.3000;0.4355;2.8783;
801.6000;0.4363;2.8809;
801.9000;0.4396;2.8968;
802.2000;0.4363;2.8862;
802.5000;0.4379;2.8915;
802.8000;0.4355;2.8836;
803.1000;0.4363;2.8836;
803.4000;0.4363;2.8730;
803.7000;0.4363;2.8704;
804.0000;0.4257;2.8387;
804.3000;0.4363;2.8704;
804.6000;0.4363;2.8730;
804.9000;0.4387;2.8757;
805.2000;0.4379;2.8651;
805.5000;0.4363;2.8572;
805.8000;0.4371;2.8598;
806.1000;0.4379;2.8519;
806.4000;0.4339;2.8361;
806.7000;0.4363;2.8361;
807.0000;0.4265;2.8018;
807.3000;0.4363;2.8203;
807.6000;0.4363;2.8255;
807.9000;0.4428;2.8414;
808.2000;0.4396;2.8387;
808.5000;0.4339;2.8255;
808.8000;0.4371;2.8282;
809.1000;0.4339;2.8176;
809.4000;0.4347;2.8282;
809.7000;0.4387;2.8387;
810.0000;0.4355;2.8387;
810.3000;0.4371;2.8493;
810.6000;0.4396;2.8572;
810.9000;0.4379;2.8572;
811.2000;0.4379;2.8572;
811.5000;0.4330;2.8361;
811.8000;0.4387;2.8598;
812.1000;0.4444;2.8862;
812.4000;0.4363;2.8625;
812.7000;0.4339;2.8546;
813.0000;0.4347;2.8519;
813.3000;0.4339;2.8387;
813.6000;0.4363;2.8493;
813.9000;0.4404;2.8572;
814.2000;0.4371;2.8361;
814.5000;0.4387;2.8387;
814.8000;0.4379;2.8361;
815.1000;0.4371;2.8387;
815.4000;0.4322;2.8334;
815.7000;0.4363;2.8466;
816.0000;0.4379;2.8493;
816.3000;0.4363;2.8414;
816.6000;0.4379;2.8546;
816.9000;0.4371;2.8493;
817.2000;0.4363;2.8466;
817.5000;0.4347;2.8466;
817.8000;0.4355;2.8546;
818.1000;0.4355;2.8466;
818.4000;0.4282;2.8282;
818.7000;0.4387;2.8625;
819.0000;0.4371;2.8598;
819.3000;0.4347;2.8519;
819.6000;0.4371;2.8493;
819.9000;0.4355;2.8493;
820.2000;0.4444;2.8783;
820.5000;0.4363;2.8572;
820.8000;0.4355;2.8546;
821.1000;0.4379;2.8651;
821.4000;0.4282;2.8414;
821.7000;0.4355;2.8677;
822.0000;0.4371;2.8704;
822.3000;0.4387;2.8730;
822.6000;0.4363;2.8651;
822.9000;0.4339;2.8546;
823.2000;0.4347;2.8598;
823.5000;0.4355;2.8598;
823.8000;0.4363;2.8651;
824.1000;0.4339;2.8519;
824.4000;0.4347;2.8572;
824.7000;0.4387;2.8651;
825.0000;0.4322;2.8546;
825.3000;0.4371;2.8572;
825.6000;0.4347;2.8440;
825.9000;0.4282;2.8150;
826.2000;0.4371;2.8334;
826.5000;0.4363;2.8255;
826.8000;0.4355;2.8255;
827.1000;0.4379;2.8282;
827.4000;0.4355;2.8203;
827.7000;0.4355;2.8176;
828.0000;0.4469;2.8572;
828.3000;0.4363;2.8282;
828.6000;0.4363;2.8229;
828.9000;0.4355;2.8176;
829.2000;0.4363;2.8203;
829.5000;0.4387;2.8176;
829.8000;0.4371;2.8097;
830.1000;0.4371;2.8203;
830.4000;0.4371;2.8229;
830.7000;0.4387;2.8308;
831.0000;0.4371;2.8282;
831.3000;0.4347;2.8255;
831.6000;0.4387;2.8387;
831.9000;0.4387;2.8361;
832.2000;0.4371;2.8440;
832.5000;0.4387;2.8519;
832.8000;0.4387;2.8414;
833.1000;0.4371;2.8466;
833.4000;0.4363;2.8387;
833.7000;0.4363;2.8466;
834.0000;0.4387;2.8493;
834.3000;0.4355;2.8387;
834.6000;0.4347;2.8282;
834.9000;0.4355;2.8334;
835.2000;0.4363;2.8440;
835.5000;0.4330;2.8414;
835.8000;0.4355;2.8493;
836.1000;0.4355;2.8466;
836.4000;0.4371;2.8546;
836.7000;0.4371;2.8519;
837.0000;0.4347;2.8466;
837.3000;0.4355;2.8466;
837.6000;0.4363;2.8519;
837.9000;0.4379;2.8651;
838.2000;0.4371;2.8598;
838.5000;0.4404;2.8651;
838.8000;0.4347;2.8546;
839.1000;0.4363;2.8651;
839.4000;0.4330;2.8572;
839.7000;0.4339;2.8677;
840.0000;0.4355;2.8862;
840.3000;0.4363;2.8862;
840.6000;0.4371;2.8836;
840.9000;0.4355;2.8783;
841.2000;0.4355;2.8730;
841.5000;0.4379;2.8836;
841.8000;0.4379;2.8888;
842.1000;0.4339;2.8836;
842.4000;0.4363;2.8836;
842.7000;0.4355;2.8757;
843.0000;0.4347;2.8730;
843.3000;0.4347;2.8809;
843.6000;0.4355;2.8809;
843.9000;0.4347;2.8783;
844.2000;0.4355;2.8809;
844.5000;0.4355;2.8757;
844.8000;0.4339;2.8730;
845.1000;0.4363;2.8783;
845.4000;0.4355;2.8757;
845.7000;0.4355;2.8730;
846.0000;0.4347;2.8809;
846.3000;0.4363;2.8757;
846.6000;0.4347;2.8677;
846.9000;0.4363;2.8704;
847.2000;0.4363;2.8704;
847.5000;0.4363;2.8730;
847.8000;0.4306;2.8572;
848.1000;0.4355;2.8704;
848.4000;0.4347;2.8625;
848.7000;0.4363;2.8598;
849.0000;0.4330;2.8546;
849.3000;0.4371;2.8651;
849.6000;0.4355;2.8572;
849.9000;0.4404;2.8651;
850.2000;0.4241;2.8176;
850.5000;0.4363;2.8493;
850.8000;0.4330;2.8361;
851.1000;0.4363;2.8414;
851.4000;0.4363;2.8387;
851.7000;0.4371;2.8387;
852.0000;0.4355;2.8361;
852.3000;0.4371;2.8308;
852.6000;0.4371;2.8255;
852.9000;0.4339;2.8203;
853.2000;0.4355;2.8361;
853.5000;0.4371;2.8334;
853.8000;0.4371;2.8334;
854.1000;0.4363;2.8334;
854.4000;0.4371;2.8255;
854.7000;0.4371;2.8255;
855.0000;0.4363;2.8282;
855.3000;0.4355;2.8334;
855.6000;0.4379;2.8519;
855.9000;0.4355;2.8466;
856.2000;0.4363;2.8440;
856.5000;0.4355;2.8414;
856.8000;0.4355;2.8387;
857.1000;0.4379;2.8519;
857.4000;0.4379;2.8572;
857.7000;0.4363;2.8414;
858.0000;0.4347;2.8440;
858.3000;0.4347;2.8466;
858.6000;0.4347;2.8546;
858.9000;0.4339;2.8440;
859.2000;0.4322;2.8572;
859.5000;0.4379;2.8730;
859.8000;0.4355;2.8651;
860.1000;0.4339;2.8546;
860.4000;0.4339;2.8572;
860.7000;0.4339;2.8625;
861.0000;0.4347;2.8625;
861.3000;0.4339;2.8704;
861.6000;0.4339;2.8730;
861.9000;0.4355;2.8730;
862.2000;0.4379;2.8809;
862.5000;0.4347;2.8651;
862.8000;0.4339;2.8519;
863.1000;0.4192;2.8097;
863.4000;0.4347;2.8546;
863.7000;0.4347;2.8519;
864.0000;0.4355;2.8519;
864.3000;0.4339;2.8546;
864.6000;0.4461;2.8915;
864.9000;0.4363;2.8625;
865.2000;0.4355;2.8519;
865.5000;0.4363;2.8466;
865.8000;0.4379;2.8466;
866.1000;0.4379;2.8440;
866.4000;0.4347;2.8334;
866.7000;0.4347;2.8334;
867.0000;0.4371;2.8414;
867.3000;0.4355;2.8229;
867.6000;0.4330;2.8176;
867.9000;0.4355;2.8229;
868.2000;0.4347;2.8255;
868.5000;0.4355;2.8255;
868.8000;0.4493;2.8730;
869.1000;0.4363;2.8387;
869.4000;0.4355;2.8414;
869.7000;0.4355;2.8519;
870.0000;0.4371;2.8440;
870.3000;0.4347;2.8387;
870.6000;0.4355;2.8387;
870.9000;0.4355;2.8414;
871.2000;0.4371;2.8414;
871.5000;0.4355;2.8334;
871.8000;0.4339;2.8308;
872.1000;0.4355;2.8361;
872.4000;0.4347;2.8334;
872.7000;0.4363;2.8334;
873.0000;0.4347;2.8361;
873.3000;0.4371;2.8334;
873.6000;0.4355;2.8282;
873.9000;0.4330;2.8150;
874.2000;0.4339;2.8255;
874.5000;0.4355;2.8203;
874.8000;0.4347;2.8203;
875.1000;0.4363;2.8229;
875.4000;0.4339;2.8229;
875.7000;0.4314;2.8176;
876.0000;0.4363;2.8308;
876.3000;0.4363;2.8440;
876.6000;0.4347;2.8546;
876.9000;0.4355;2.8546;
877.2000;0.4371;2.8625;
877.5000;0.4347;2.8598;
877.8000;0.4347;2.8651;
878.1000;0.4355;2.8651;
878.4000;0.4371;2.8625;
878.7000;0.4298;2.8440;
879.0000;0.4396;2.8677;
879.3000;0.4371;2.8572;
879.6000;0.4339;2.8651;
879.9000;0.4469;2.9047;
880.2000;0.4363;2.8730;
880.5000;0.4339;2.8572;
880.8000;0.4347;2.8598;
881.1000;0.4363;2.8704;
881.4000;0.4363;2.8730;
881.7000;0.4347;2.8677;
882.0000;0.4322;2.8572;
882.3000;0.4339;2.8704;
882.6000;0.4347;2.8730;
882.9000;0.4339;2.8598;
883.2000;0.4330;2.8625;
883.5000;0.4444;2.8941;
883.8000;0.4355;2.8704;
884.1000;0.4355;2.8546;
884.4000;0.4355;2.8572;
884.7000;0.4347;2.8387;
885.0000;0.4347;2.8334;
885.3000;0.4387;2.8466;
885.6000;0.4314;2.8229;
885.9000;0.4339;2.8203;
886.2000;0.4330;2.8203;
886.5000;0.4412;2.8414;
886.8000;0.4339;2.8308;
887.1000;0.4306;2.8123;
887.4000;0.4347;2.8203;
887.7000;0.4347;2.8176;
888.0000;0.4330;2.8176;
888.3000;0.4355;2.8229;
888.6000;0.4347;2.8097;
888.9000;0.4379;2.8176;
889.2000;0.4347;2.8071;
889.5000;0.4371;2.8123;
889.8000;0.4347;2.8071;
890.1000;0.4363;2.8071;
890.4000;0.4371;2.8044;
890.7000;0.4371;2.8123;
891.0000;0.4339;2.8097;
891.3000;0.4330;2.8123;
891.6000;0.4363;2.8203;
891.9000;0.4371;2.8176;
892.2000;0.4363;2.8123;
892.5000;0.4339;2.8071;
892.8000;0.4371;2.8176;
893.1000;0.4379;2.8282;
893.4000;0.4347;2.8255;
893.7000;0.4387;2.8255;
894.0000;0.4363;2.8203;
894.3000;0.4347;2.8123;
894.6000;0.4355;2.8123;
894.9000;0.4330;2.8176;
895.2000;0.4404;2.8361;
895.5000;0.4298;2.8071;
895.8000;0.4355;2.8203;
896.1000;0.4355;2.8229;
896.4000;0.4355;2.8255;
896.7000;0.4355;2.8229;
897.0000;0.4347;2.8229;
897.3000;0.4347;2.8176;
897.6000;0.4347;2.8282;
897.9000;0.4330;2.8203;
898.2000;0.4347;2.8334;
898.5000;0.4339;2.8387;
898.8000;0.4347;2.8493;
899.1000;0.4347;2.8466;
899.4000;0.4339;2.8493;
899.7000;0.4461;2.8888;
900.0000;0.4363;2.8598;
900.3000;0.4314;2.8572;
900.6000;0.4355;2.8677;
900.9000;0.4355;2.8651;
901.2000;0.4322;2.8519;
901.5000;0.4314;2.8546;
901.8000;0.4355;2.8598;
902.1000;0.4371;2.8598;
902.4000;0.4322;2.8466;
902.7000;0.4347;2.8519;
903.0000;0.4347;2.8572;
903.3000;0.4339;2.8704;
903.6000;0.4347;2.8757;
903.9000;0.4314;2.8651;
904.2000;0.4330;2.8757;
904.5000;0.4339;2.8704;
904.8000;0.4396;2.8836;
905.1000;0.4387;2.8625;
905.4000;0.4387;2.8572;
905.7000;0.4412;2.8546;
906.0000;0.4314;2.8282;
906.3000;0.4339;2.8440;
906.6000;0.4347;2.8466;
906.9000;0.4322;2.8387;
907.2000;0.4355;2.8414;
907.5000;0.4355;2.8387;
907.8000;0.4314;2.8282;
908.1000;0.4347;2.8414;
908.4000;0.4363;2.8466;
908.7000;0.4347;2.8466;
909.0000;0.4347;2.8466;
909.3000;0.4355;2.8466;
909.6000;0.4363;2.8440;
909.9000;0.4347;2.8466;
910.2000;0.4322;2.8493;
910.5000;0.4355;2.8519;
910.8000;0.4330;2.8387;
911.1000;0.4339;2.8493;
911.4000;0.4355;2.8440;
911.7000;0.4339;2.8308;
912.0000;0.4363;2.8387;
912.3000;0.4371;2.8414;
912.6000;0.4347;2.8308;
912.9000;0.4339;2.8334;
913.2000;0.4363;2.8308;
913.5000;0.4379;2.8255;
913.8000;0.4379;2.8255;
914.1000;0.4371;2.8334;
914.4000;0.4363;2.8334;
914.7000;0.4371;2.8387;
915.0000;0.4363;2.8334;
915.3000;0.4363;2.8308;
915.6000;0.4371;2.8334;
915.9000;0.4347;2.8282;
916.2000;0.4355;2.8334;
916.5000;0.4322;2.8203;
916.8000;0.4379;2.8203;
917.1000;0.4355;2.8150;
917.4000;0.4355;2.8123;
917.7000;0.4347;2.8123;
918.0000;0.4355;2.8255;
918.3000;0.4355;2.8308;
918.6000;0.4339;2.8387;
918.9000;0.4347;2.8466;
919.2000;0.4355;2.8493;
919.5000;0.4298;2.8387;
919.8000;0.4355;2.8546;
920.1000;0.4314;2.8361;
920.4000;0.4347;2.8493;
920.7000;0.4347;2.8519;
921.0000;0.4347;2.8651;
921.3000;0.4306;2.8546;
921.6000;0.4339;2.8625;
921.9000;0.4249;2.8387;
922.2000;0.4330;2.8440;
922.5000;0.4330;2.8440;
922.8000;0.4379;2.8625;
923.1000;0.4282;2.8387;
923.4000;0.4347;2.8625;
923.7000;0.4314;2.8572;
924.0000;0.4330;2.8677;
924.3000;0.4347;2.8730;
924.6000;0.4339;2.8598;
924.9000;0.4339;2.8493;
925.2000;0.4339;2.8387;
925.5000;0.4290;2.8255;
925.8000;0.4347;2.8414;
926.1000;0.4314;2.8282;
926.4000;0.4347;2.8308;
926.7000;0.4355;2.8308;
927.0000;0.4355;2.8334;
927.3000;0.4355;2.8229;
927.6000;0.4363;2.8308;
927.9000;0.4330;2.8203;
928.2000;0.4355;2.8203;
928.5000;0.4363;2.8229;
928.8000;0.4363;2.8308;
929.1000;0.4420;2.8466;
929.4000;0.4330;2.8255;
929.7000;0.4363;2.8308;
930.0000;0.4339;2.8255;
930.3000;0.4314;2.8203;
930.6000;0.4347;2.8255;
930.9000;0.4347;2.8282;
931.2000;0.4330;2.8255;
931.5000;0.4314;2.8123;
931.8000;0.4330;2.8176;
932.1000;0.4347;2.8203;
932.4000;0.4330;2.8150;
932.7000;0.4347;2.8176;
933.0000;0.4363;2.8203;
933.3000;0.4290;2.8071;
933.6000;0.4339;2.8203;
933.9000;0.4347;2.8176;
934.2000;0.4330;2.8044;
934.5000;0.4322;2.8044;
934.8000;0.4347;2.8176;
935.1000;0.4355;2.8255;
935.4000;0.4355;2.8203;
935.7000;0.4355;2.8255;
936.0000;0.4347;2.8282;
936.3000;0.4355;2.8308;
936.6000;0.4330;2.8229;
936.9000;0.4330;2.8255;
937.2000;0.4347;2.8334;
937.5000;0.4347;2.8361;
937.8000;0.4355;2.8440;
938.1000;0.4322;2.8466;
938.4000;0.4444;2.8809;
938.7000;0.4412;2.8704;
939.0000;0.4339;2.8519;
939.3000;0.4322;2.8493;
939.6000;0.4322;2.8493;
939.9000;0.4347;2.8493;
940.2000;0.4330;2.8519;
940.5000;0.4306;2.8546;
940.8000;0.4306;2.8546;
941.1000;0.4330;2.8651;
941.4000;0.4322;2.8704;
941.7000;0.4314;2.8677;
942.0000;0.4412;2.8809;
942.3000;0.4330;2.8519;
942.6000;0.4330;2.8466;
942.9000;0.4339;2.8493;
943.2000;0.4330;2.8493;
943.5000;0.4339;2.8677;
943.8000;0.4314;2.8651;
944.1000;0.4339;2.8625;
944.4000;0.4339;2.8493;
944.7000;0.4347;2.8334;
945.0000;0.4363;2.8387;
945.3000;0.4355;2.8282;
945.6000;0.4355;2.8308;
945.9000;0.4371;2.8414;
946.2000;0.4322;2.8255;
946.5000;0.4412;2.8546;
946.8000;0.4339;2.8334;
947.1000;0.4330;2.8308;
947.4000;0.4339;2.8387;
947.7000;0.4347;2.8414;
948.0000;0.4339;2.8334;
948.3000;0.4322;2.8255;
948.6000;0.4330;2.8282;
948.9000;0.4371;2.8466;
949.2000;0.4363;2.8493;
949.5000;0.4330;2.8466;
949.8000;0.4379;2.8572;
950.1000;0.4363;2.8414;
950.4000;0.4347;2.8361;
950.7000;0.4355;2.8334;
951.0000;0.4363;2.8334;
951.3000;0.4363;2.8334;
951.6000;0.4371;2.8282;
951.9000;0.4339;2.8229;
952.2000;0.4330;2.8203;
952.5000;0.4339;2.8150;
952.8000;0.4355;2.8203;
953.1000;0.4420;2.8440;
953.4000;0.4355;2.8361;
953.7000;0.4339;2.8255;
954.0000;0.4355;2.8334;
954.3000;0.4363;2.8361;
954.6000;0.4347;2.8387;
954.9000;0.4363;2.8361;
955.2000;0.4282;2.8150;
955.5000;0.4363;2.8387;
955.8000;0.4355;2.8387;
956.1000;0.4347;2.8387;
956.4000;0.4363;2.8361;
956.7000;0.4363;2.8361;
957.0000;0.4371;2.8440;
957.3000;0.4339;2.8414;
957.6000;0.4330;2.8414;
957.9000;0.4339;2.8546;
958.2000;0.4274;2.8361;
958.5000;0.4322;2.8546;
958.8000;0.4347;2.8546;
959.1000;0.4347;2.8572;
959.4000;0.4363;2.8625;
959.7000;0.4428;2.8941;
960.0000;0.4322;2.8572;
960.3000;0.4339;2.8730;
960.6000;0.4298;2.8677;
960.9000;0.4347;2.8783;
961.2000;0.4322;2.8704;
961.5000;0.4322;2.8677;
961.8000;0.4330;2.8757;
962.1000;0.4355;2.8809;
962.4000;0.4330;2.8730;
962.7000;0.4339;2.8625;
963.0000;0.4330;2.8625;
963.3000;0.4257;2.8493;
963.6000;0.4322;2.8625;
963.9000;0.4330;2.8572;
964.2000;0.4339;2.8598;
964.5000;0.4330;2.8625;
964.8000;0.4339;2.8546;
965.1000;0.4330;2.8519;
965.4000;0.4339;2.8572;
965.7000;0.4347;2.8546;
966.0000;0.4387;2.8572;
966.3000;0.4347;2.8414;
966.6000;0.4298;2.8255;
966.9000;0.4314;2.8361;
967.2000;0.4330;2.8334;
967.5000;0.4290;2.8203;
967.8000;0.4347;2.8361;
968.1000;0.4347;2.8334;
968.4000;0.4347;2.8308;
968.7000;0.4355;2.8387;
969.0000;0.4330;2.8282;
969.3000;0.4363;2.8387;
969.6000;0.4355;2.8387;
969.9000;0.4355;2.8414;
970.2000;0.4322;2.8308;
970.5000;0.4355;2.8440;
970.8000;0.4355;2.8440;
971.1000;0.4347;2.8493;
971.4000;0.4363;2.8546;
971.7000;0.4339;2.8493;
972.0000;0.4363;2.8493;
972.3000;0.4371;2.8493;
972.6000;0.4387;2.8677;
972.9000;0.4355;2.8572;
973.2000;0.4355;2.8625;
973.5000;0.4339;2.8546;
973.8000;0.4249;2.8229;
974.1000;0.4485;2.8809;
974.4000;0.4363;2.8572;
974.7000;0.4379;2.8572;
975.0000;0.4322;2.8414;
975.3000;0.4355;2.8546;
975.6000;0.4298;2.8493;
975.9000;0.4330;2.8677;
976.2000;0.4330;2.8625;
976.5000;0.4339;2.8625;
976.8000;0.4347;2.8730;
977.1000;0.4322;2.8651;
977.4000;0.4339;2.8730;
977.7000;0.4306;2.8625;
978.0000;0.4322;2.8809;
978.3000;0.4339;2.8968;
978.6000;0.4339;2.9020;
978.9000;0.4330;2.9020;
979.2000;0.4314;2.8862;
979.5000;0.4314;2.8915;
979.8000;0.4298;2.8757;
980.1000;0.4339;2.8757;
980.4000;0.4339;2.8783;
980.7000;0.4322;2.8836;
981.0000;0.4322;2.8809;
981.3000;0.4322;2.8809;
981.6000;0.4355;2.8836;
981.9000;0.4241;2.8466;
982.2000;0.4314;2.8625;
982.5000;0.4330;2.8598;
982.8000;0.4322;2.8572;
983.1000;0.4330;2.8677;
983.4000;0.4322;2.8730;
983.7000;0.4314;2.8625;
984.0000;0.4306;2.8493;
984.3000;0.4363;2.8440;
984.6000;0.4330;2.8334;
984.9000;0.4347;2.8308;
985.2000;0.4330;2.8282;
985.5000;0.4330;2.8334;
985.8000;0.4339;2.8282;
986.1000;0.4347;2.8387;
986.4000;0.4347;2.8361;
986.7000;0.4371;2.8466;
987.0000;0.4330;2.8414;
987.3000;0.4322;2.8255;
987.6000;0.4298;2.8097;
987.9000;0.4330;2.8229;
988.2000;0.4330;2.8308;
988.5000;0.4371;2.8414;
988.8000;0.4355;2.8387;
989.1000;0.4371;2.8387;
989.4000;0.4339;2.8334;
989.7000;0.4314;2.8334;
990.0000;0.4265;2.8229;
990.3000;0.4339;2.8334;
990.6000;0.4347;2.8334;
990.9000;0.4371;2.8466;
991.2000;0.4330;2.8282;
991.5000;0.4363;2.8361;
991.8000;0.4355;2.8334;
992.1000;0.4347;2.8308;
992.4000;0.4355;2.8308;
992.7000;0.4347;2.8361;
993.0000;0.4265;2.8123;
993.3000;0.4330;2.8229;
993.6000;0.4314;2.8123;
993.9000;0.4339;2.8203;
994.2000;0.4339;2.8203;
994.5000;0.4339;2.8203;
994.8000;0.4339;2.8282;
995.1000;0.4355;2.8308;
995.4000;0.4290;2.8071;
995.7000;0.4306;2.8176;
996.0000;0.4339;2.8334;
996.3000;0.4322;2.8334;
996.6000;0.4436;2.8677;
996.9000;0.4322;2.8361;
997.2000;0.4314;2.8414;
997.5000;0.4322;2.8440;
997.8000;0.4322;2.8466;
998.1000;0.4322;2.8440;
998.4000;0.4314;2.8519;
998.7000;0.4347;2.8572;
999.0000;0.4314;2.8440;
999.3000;0.4330;2.8519;
999.6000;0.4330;2.8546;
999.9000;0.4314;2.8546;
1000.2000;0.4339;2.8651;
1000.5000;0.4233;2.8282;
1000.8000;0.4322;2.8572;
1001.1000;0.4314;2.8598;
1001.4000;0.4371;2.8783;
1001.7000;0.4339;2.8704;
1002.0000;0.4330;2.8651;
1002.3000;0.4282;2.8414;
1002.6000;0.4330;2.8677;
1002.9000;0.4339;2.8704;
1003.2000;0.4347;2.8651;
1003.5000;0.4347;2.8757;
1003.8000;0.4339;2.8757;
1004.1000;0.4339;2.8730;
1004.4000;0.4282;2.8572;
1004.7000;0.4330;2.8546;
1005.0000;0.4330;2.8440;
1005.3000;0.4339;2.8493;
1005.6000;0.4347;2.8493;
1005.9000;0.4330;2.8414;
1006.2000;0.4339;2.8308;
1006.5000;0.4347;2.8361;
1006.8000;0.4355;2.8282;
1007.1000;0.4347;2.8203;
1007.4000;0.4371;2.8255;
1007.7000;0.4371;2.8334;
1008.0000;0.4420;2.8519;
1008.3000;0.4347;2.8361;
1008.6000;0.4330;2.8282;
1008.9000;0.4306;2.8229;
1009.2000;0.4355;2.8361;
1009.5000;0.4347;2.8387;
1009.8000;0.4339;2.8308;
1010.1000;0.4355;2.8361;
1010.4000;0.4355;2.8176;
1010.7000;0.4347;2.8203;
1011.0000;0.4363;2.8282;
1011.3000;0.4355;2.8255;
1011.6000;0.4355;2.8334;
1011.9000;0.4363;2.8387;
1012.2000;0.4355;2.8440;
1012.5000;0.4314;2.8334;
1012.8000;0.4347;2.8440;
1013.1000;0.4347;2.8387;
1013.4000;0.4339;2.8334;
1013.7000;0.4347;2.8308;
1014.0000;0.4314;2.8282;
1014.3000;0.4322;2.8361;
1014.6000;0.4339;2.8387;
1014.9000;0.4314;2.8308;
1015.2000;0.4355;2.8440;
1015.5000;0.4355;2.8519;
1015.8000;0.4290;2.8361;
1016.1000;0.4330;2.8414;
1016.4000;0.4330;2.8493;
1016.7000;0.4330;2.8493;
1017.0000;0.4355;2.8598;
1017.3000;0.4347;2.8598;
1017.6000;0.4339;2.8625;
1017.9000;0.4347;2.8730;
1018.2000;0.4339;2.8704;
1018.5000;0.4306;2.8466;
1018.8000;0.4274;2.8414;
1019.1000;0.4322;2.8546;
1019.4000;0.4314;2.8519;
1019.7000;0.4322;2.8546;
1020.0000;0.4322;2.8677;
1020.3000;0.4339;2.8704;
1020.6000;0.4371;2.8783;
1020.9000;0.4322;2.8598;
1021.2000;0.4282;2.8440;
1021.5000;0.4314;2.8493;
1021.8000;0.4339;2.8572;
1022.1000;0.4330;2.8546;
1022.4000;0.4322;2.8519;
1022.7000;0.4330;2.8651;
1023.0000;0.4339;2.8704;
1023.3000;0.4290;2.8519;
1023.6000;0.4322;2.8625;
1023.9000;0.4339;2.8730;
1024.2000;0.4339;2.8651;
1024.5000;0.4387;2.8809;
1024.8000;0.4339;2.8651;
1025.1000;0.4314;2.8572;
1025.4000;0.4347;2.8677;
1025.7000;0.4330;2.8572;
1026.0000;0.4314;2.8387;
1026.3000;0.4306;2.8203;
1026.6000;0.4306;2.8308;
1026.9000;0.4363;2.8414;
1027.2000;0.4330;2.8282;
1027.5000;0.4347;2.8334;
1027.8000;0.4339;2.8334;
1028.1000;0.4330;2.8334;
1028.4000;0.4330;2.8334;
1028.7000;0.4265;2.8123;
1029.0000;0.4322;2.8414;
1029.3000;0.4396;2.8598;
1029.6000;0.4347;2.8414;
1029.9000;0.4347;2.8387;
1030.2000;0.4363;2.8493;
1030.5000;0.4322;2.8440;
1030.8000;0.4339;2.8493;
1031.1000;0.4330;2.8572;
1031.4000;0.4314;2.8598;
1031.7000;0.4265;2.8414;
1032.0000;0.4330;2.8651;
1032.3000;0.4339;2.8598;
1032.6000;0.4347;2.8625;
1032.9000;0.4322;2.8519;
1033.2000;0.4347;2.8598;
1033.5000;0.4355;2.8546;
1033.8000;0.4347;2.8440;
1034.1000;0.4339;2.8414;
1034.4000;0.4339;2.8519;
1034.7000;0.4469;2.8809;
1035.0000;0.4347;2.8414;
1035.3000;0.4347;2.8414;
1035.6000;0.4330;2.8466;
1035.9000;0.4355;2.8598;
1036.2000;0.4347;2.8519;
1036.5000;0.4339;2.8440;
1036.8000;0.4347;2.8414;
1037.1000;0.4363;2.8414;
1037.4000;0.4339;2.8466;
1037.7000;0.4265;2.8229;
1038.0000;0.4363;2.8598;
1038.3000;0.4347;2.8651;
1038.6000;0.4420;2.8836;
1038.9000;0.4330;2.8598;
1039.2000;0.4339;2.8757;
1039.5000;0.4330;2.8757;
1039.8000;0.4371;2.8915;
1040.1000;0.4347;2.8809;
1040.4000;0.4330;2.8836;
1040.7000;0.4314;2.8836;
1041.0000;0.4322;2.8862;
1041.3000;0.4322;2.8783;
1041.6000;0.4339;2.8809;
1041.9000;0.4322;2.8783;
1042.2000;0.4347;2.8862;
1042.5000;0.4330;2.8757;
1042.8000;0.4379;2.8862;
1043.1000;0.4339;2.8598;
1043.4000;0.4347;2.8572;
1043.7000;0.4339;2.8466;
1044.0000;0.4355;2.8493;
1044.3000;0.4339;2.8493;
1044.6000;0.4330;2.8493;
1044.9000;0.4339;2.8440;
1045.2000;0.4347;2.8414;
1045.5000;0.4347;2.8308;
1045.8000;0.4322;2.8308;
1046.1000;0.4339;2.8361;
1046.4000;0.4339;2.8414;
1046.7000;0.4306;2.8255;
1047.0000;0.4330;2.8387;
1047.3000;0.4322;2.8387;
1047.6000;0.4339;2.8387;
1047.9000;0.4339;2.8308;
1048.2000;0.4330;2.8334;
1048.5000;0.4339;2.8361;
1048.8000;0.4330;2.8361;
1049.1000;0.4322;2.8387;
1049.4000;0.4265;2.8308;
1049.7000;0.4347;2.8414;
1050.0000;0.4339;2.8308;
1050.3000;0.4314;2.8203;
1050.6000;0.4298;2.8203;
1050.9000;0.4355;2.8334;
1051.2000;0.4355;2.8361;
1051.5000;0.4330;2.8361;
1051.8000;0.4347;2.8361;
1052.1000;0.4387;2.8493;
1052.4000;0.4355;2.8414;
1052.7000;0.4298;2.8282;
1053.0000;0.4396;2.8598;
1053.3000;0.4347;2.8493;
1053.6000;0.4355;2.8440;
1053.9000;0.4330;2.8414;
1054.2000;0.4274;2.8255;
1054.5000;0.4330;2.8414;
1054.8000;0.4396;2.8546;
1055.1000;0.4347;2.8387;
1055.4000;0.4363;2.8440;
1055.7000;0.4330;2.8334;
1056.0000;0.4339;2.8334;
1056.3000;0.4339;2.8334;
1056.6000;0.4347;2.8387;
1056.9000;0.4404;2.8493;
1057.2000;0.4330;2.8255;
1057.5000;0.4363;2.8361;
1057.8000;0.4347;2.8361;
1058.1000;0.4347;2.8334;
1058.4000;0.4314;2.8361;
1058.7000;0.4347;2.8519;
1059.0000;0.4355;2.8572;
1059.3000;0.4339;2.8572;
1059.6000;0.4330;2.8625;
1059.9000;0.4339;2.8572;
1060.2000;0.4322;2.8414;
1060.5000;0.4330;2.8387;
1060.8000;0.4290;2.8414;
1061.1000;0.4339;2.8493;
1061.4000;0.4355;2.8625;
1061.7000;0.4322;2.8625;
1062.0000;0.4363;2.8783;
1062.3000;0.4306;2.8730;
1062.6000;0.4322;2.8783;
1062.9000;0.4330;2.8730;
1063.2000;0.4265;2.8493;
1063.5000;0.4314;2.8704;
1063.8000;0.4322;2.8704;
1064.1000;0.4339;2.8598;
1064.4000;0.4355;2.8572;
1064.7000;0.4322;2.8598;
1065.0000;0.4339;2.8572;
1065.3000;0.4339;2.8440;
1065.6000;0.4330;2.8361;
1065.9000;0.4347;2.8440;
1066.2000;0.4330;2.8519;
1066.5000;0.4339;2.8440;
1066.8000;0.4306;2.8203;
1067.1000;0.4339;2.8361;
1067.4000;0.4355;2.8387;
1067.7000;0.4355;2.8466;
1068.0000;0.4355;2.8493;
1068.3000;0.4347;2.8440;
1068.6000;0.4339;2.8414;
1068.9000;0.4347;2.8334;
1069.2000;0.4339;2.8572;
1069.5000;0.4339;2.8546;
1069.8000;0.4339;2.8440;
1070.1000;0.4274;2.8229;
1070.4000;0.4339;2.8387;
1070.7000;0.4306;2.8334;
1071.0000;0.4330;2.8440;
1071.3000;0.4330;2.8361;
1071.6000;0.4339;2.8308;
1071.9000;0.4330;2.8255;
1072.2000;0.4330;2.8308;
1072.5000;0.4330;2.8334;
1072.8000;0.4396;2.8493;
1073.1000;0.4339;2.8229;
1073.4000;0.4339;2.8282;
1073.7000;0.4347;2.8255;
1074.0000;0.4339;2.8440;
1074.3000;0.4347;2.8440;
1074.6000;0.4339;2.8493;
1074.9000;0.4330;2.8440;
1075.2000;0.4355;2.8334;
1075.5000;0.4339;2.8414;
1075.8000;0.4379;2.8493;
1076.1000;0.4339;2.8255;
1076.4000;0.4298;2.8150;
1076.7000;0.4330;2.8334;
1077.0000;0.4339;2.8440;
1077.3000;0.4339;2.8334;
1077.6000;0.4339;2.8361;
1077.9000;0.4330;2.8440;
1078.2000;0.4355;2.8598;
1078.5000;0.4339;2.8546;
1078.8000;0.4330;2.8546;
1079.1000;0.4339;2.8493;
1079.4000;0.4339;2.8493;
1079.7000;0.4306;2.8414;
1080.0000;0.4314;2.8440;
1080.3000;0.4322;2.8519;
1080.6000;0.4322;2.8572;
1080.9000;0.4322;2.8625;
1081.2000;0.4314;2.8677;
1081.5000;0.4314;2.8704;
1081.8000;0.4339;2.8757;
1082.1000;0.4314;2.8704;
1082.4000;0.4314;2.8677;
1082.7000;0.4322;2.8730;
1083.0000;0.4322;2.8757;
1083.3000;0.4339;2.8730;
1083.6000;0.4322;2.8677;
1083.9000;0.4330;2.8783;
1084.2000;0.4355;2.8809;
1084.5000;0.4330;2.8704;
1084.8000;0.4347;2.8651;
1085.1000;0.4330;2.8651;
1085.4000;0.4330;2.8625;
1085.7000;0.4330;2.8651;
1086.0000;0.4249;2.8387;
1086.3000;0.4330;2.8572;
1086.6000;0.4330;2.8414;
1086.9000;0.4330;2.8334;
1087.2000;0.4265;2.8123;
1087.5000;0.4330;2.8334;
1087.8000;0.4217;2.8044;
1088.1000;0.4347;2.8282;
1088.4000;0.4355;2.8361;
1088.7000;0.4363;2.8387;
1089.0000;0.4339;2.8334;
1089.3000;0.4347;2.8308;
1089.6000;0.4314;2.8229;
1089.9000;0.4330;2.8361;
1090.2000;0.4298;2.8255;
1090.5000;0.4330;2.8308;
1090.8000;0.4339;2.8334;
1091.1000;0.4355;2.8387;
1091.4000;0.4314;2.8334;
1091.7000;0.4330;2.8361;
1092.0000;0.4339;2.8387;
1092.3000;0.4339;2.8466;
1092.6000;0.4290;2.8334;
1092.9000;0.4330;2.8466;
1093.2000;0.4355;2.8519;
1093.5000;0.4347;2.8466;
1093.8000;0.4347;2.8546;
1094.1000;0.4314;2.8519;
1094.4000;0.4339;2.8572;
1094.7000;0.4339;2.8572;
1095.0000;0.4355;2.8572;
1095.3000;0.4322;2.8466;
1095.6000;0.4306;2.8361;
1095.9000;0.4355;2.8440;
1096.2000;0.4339;2.8361;
1096.5000;0.4322;2.8361;
1096.8000;0.4298;2.8361;
1097.1000;0.4355;2.8572;
1097.4000;0.4314;2.8493;
1097.7000;0.4322;2.8493;
1098.0000;0.4347;2.8546;
1098.3000;0.4339;2.8625;
1098.6000;0.4330;2.8651;
1098.9000;0.4330;2.8730;
1099.2000;0.4339;2.8730;
1099.5000;0.4330;2.8677;
1099.8000;0.4339;2.8677;
1100.1000;0.4322;2.8704;
1100.4000;0.4339;2.8730;
1100.7000;0.4306;2.8651;
1101.0000;0.4298;2.8598;
1101.3000;0.4322;2.8651;
1101.6000;0.4241;2.8493;
1101.9000;0.4322;2.8730;
1102.2000;0.4306;2.8677;
1102.5000;0.4322;2.8757;
1102.8000;0.4322;2.8757;
1103.1000;0.4314;2.8757;
1103.4000;0.4330;2.8809;
1103.7000;0.4330;2.8836;
1104.0000;0.4339;2.8730;
1104.3000;0.4322;2.8651;
1104.6000;0.4339;2.8651;
1104.9000;0.4330;2.8519;
1105.2000;0.4347;2.8493;
1105.5000;0.4322;2.8361;
1105.8000;0.4330;2.8440;
1106.1000;0.4420;2.8651;
1106.4000;0.4339;2.8387;
1106.7000;0.4339;2.8361;
1107.0000;0.4330;2.8361;
1107.3000;0.4265;2.8229;
1107.6000;0.4355;2.8466;
1107.9000;0.4379;2.8546;
1108.2000;0.4322;2.8493;
1108.5000;0.4347;2.8440;
1108.8000;0.4298;2.8387;
1109.1000;0.4339;2.8493;
1109.4000;0.4330;2.8466;
1109.7000;0.4330;2.8334;
1110.0000;0.4290;2.8229;
1110.3000;0.4314;2.8282;
1110.6000;0.4347;2.8334;
1110.9000;0.4339;2.8387;
1111.2000;0.4339;2.8493;
1111.5000;0.4339;2.8519;
1111.8000;0.4330;2.8519;
1112.1000;0.4355;2.8493;
1112.4000;0.4330;2.8493;
1112.7000;0.4330;2.8493;
1113.0000;0.4330;2.8519;
1113.3000;0.4298;2.8361;
1113.6000;0.4282;2.8334;
1113.9000;0.4339;2.8440;
1114.2000;0.4347;2.8414;
1114.5000;0.4322;2.8334;
1114.8000;0.4330;2.8308;
1115.1000;0.4339;2.8361;
1115.4000;0.4330;2.8308;
1115.7000;0.4322;2.8334;
1116.0000;0.4330;2.8308;
1116.3000;0.4290;2.8176;
1116.6000;0.4322;2.8361;
1116.9000;0.4330;2.8440;
1117.2000;0.4330;2.8493;
1117.5000;0.4339;2.8546;
1117.8000;0.4363;2.8572;
1118.1000;0.4330;2.8519;
1118.4000;0.4330;2.8546;
1118.7000;0.4347;2.8625;
1119.0000;0.4330;2.8677;
1119.3000;0.4339;2.8862;
1119.6000;0.4322;2.8809;
1119.9000;0.4314;2.8809;
1120.2000;0.4322;2.8862;
1120.5000;0.4339;2.8836;
1120.8000;0.4355;2.8941;
1121.1000;0.4330;2.8994;
1121.4000;0.4347;2.8968;
1121.7000;0.4347;2.8915;
1122.0000;0.4322;2.8809;
1122.3000;0.4322;2.8783;
1122.6000;0.4249;2.8598;
1122.9000;0.4322;2.8809;
1123.2000;0.4233;2.8493;
1123.5000;0.4322;2.8809;
1123.8000;0.4282;2.8625;
1124.1000;0.4339;2.8730;
1124.4000;0.4330;2.8651;
1124.7000;0.4314;2.8546;
1125.0000;0.4298;2.8387;
1125.3000;0.4339;2.8493;
1125.6000;0.4322;2.8546;
1125.9000;0.4322;2.8519;
1126.2000;0.4339;2.8572;
1126.5000;0.4339;2.8572;
1126.8000;0.4249;2.8255;
1127.1000;0.4339;2.8466;
1127.4000;0.4322;2.8440;
1127.7000;0.4371;2.8546;
1128.0000;0.4330;2.8440;
1128.3000;0.4330;2.8361;
1128.6000;0.4322;2.8255;
1128.9000;0.4330;2.8229;
1129.2000;0.4355;2.8361;
1129.5000;0.4363;2.8255;
1129.8000;0.4265;2.8018;
1130.1000;0.4453;2.8704;
1130.4000;0.4339;2.8387;
1130.7000;0.4330;2.8282;
1131.0000;0.4355;2.8308;
1131.3000;0.4347;2.8308;
1131.6000;0.4363;2.8361;
1131.9000;0.4339;2.8334;
1132.2000;0.4355;2.8361;
1132.5000;0.4330;2.8361;
1132.8000;0.4217;2.8123;
1133.1000;0.4314;2.8414;
1133.4000;0.4314;2.8414;
1133.7000;0.4330;2.8308;
1134.0000;0.4330;2.8282;
1134.3000;0.4339;2.8334;
1134.6000;0.4355;2.8387;
1134.9000;0.4347;2.8414;
1135.2000;0.4306;2.8203;
1135.5000;0.4339;2.8361;
1135.8000;0.4330;2.8334;
1136.1000;0.4330;2.8308;
1136.4000;0.4330;2.8308;
1136.7000;0.4371;2.8466;
1137.0000;0.4330;2.8361;
1137.3000;0.4355;2.8440;
1137.6000;0.4330;2.8334;
1137.9000;0.4298;2.8361;
1138.2000;0.4330;2.8440;
1138.5000;0.4339;2.8440;
1138.8000;0.4322;2.8361;
1139.1000;0.4322;2.8440;
1139.4000;0.4314;2.8334;
1139.7000;0.4274;2.8282;
1140.0000;0.4298;2.8466;
1140.3000;0.4322;2.8519;
1140.6000;0.4322;2.8546;
1140.9000;0.4339;2.8598;
1141.2000;0.4306;2.8572;
1141.5000;0.4330;2.8598;
1141.8000;0.4298;2.8519;
1142.1000;0.4347;2.8677;
1142.4000;0.4314;2.8651;
1142.7000;0.4290;2.8466;
1143.0000;0.4322;2.8598;
1143.3000;0.4339;2.8704;
1143.6000;0.4314;2.8677;
1143.9000;0.4347;2.8783;
1144.2000;0.4322;2.8625;
1144.5000;0.4322;2.8677;
1144.8000;0.4322;2.8704;
1145.1000;0.4322;2.8677;
1145.4000;0.4322;2.8625;
1145.7000;0.4322;2.8677;
1146.0000;0.4249;2.8361;
1146.3000;0.4322;2.8493;
1146.6000;0.4314;2.8414;
1146.9000;0.4314;2.8334;
1147.2000;0.4330;2.8361;
1147.5000;0.4363;2.8414;
1147.8000;0.4314;2.8282;
1148.1000;0.4379;2.8308;
1148.4000;0.4330;2.8097;
1148.7000;0.4330;2.8071;
1149.0000;0.4347;2.8150;
1149.3000;0.4355;2.8176;
1149.6000;0.4339;2.8176;
1149.9000;0.4355;2.8203;
1150.2000;0.4339;2.8203;
1150.5000;0.4339;2.8176;
1150.8000;0.4322;2.8071;
1151.1000;0.4355;2.8229;
1151.4000;0.4347;2.8176;
1151.7000;0.4322;2.8071;
1152.0000;0.4306;2.7991;
1152.3000;0.4347;2.8018;
1152.6000;0.4330;2.8044;
1152.9000;0.4339;2.8150;
1153.2000;0.4355;2.8123;
1153.5000;0.4330;2.8097;
1153.8000;0.4314;2.8044;
1154.1000;0.4371;2.8018;
1154.4000;0.4322;2.8018;
1154.7000;0.4330;2.8044;
1155.0000;0.4339;2.8123;
1155.3000;0.4339;2.8150;
1155.6000;0.4347;2.8176;
1155.9000;0.4322;2.8150;
1156.2000;0.4371;2.8282;
1156.5000;0.4339;2.8229;
1156.8000;0.4428;2.8519;
1157.1000;0.4330;2.8308;
1157.4000;0.4322;2.8282;
1157.7000;0.4339;2.8334;
1158.0000;0.4339;2.8414;
1158.3000;0.4298;2.8334;
1158.6000;0.4322;2.8440;
1158.9000;0.4330;2.8466;
1159.2000;0.4355;2.8598;
1159.5000;0.4314;2.8440;
1159.8000;0.4330;2.8466;
1160.1000;0.4339;2.8387;
1160.4000;0.4322;2.8414;
1160.7000;0.4339;2.8493;
1161.0000;0.4314;2.8493;
1161.3000;0.4322;2.8466;
1161.6000;0.4339;2.8387;
1161.9000;0.4322;2.8414;
1162.2000;0.4330;2.8493;
1162.5000;0.4306;2.8414;
1162.8000;0.4339;2.8493;
1163.1000;0.4330;2.8572;
1163.4000;0.4322;2.8572;
1163.7000;0.4339;2.8625;
1164.0000;0.4322;2.8598;
1164.3000;0.4347;2.8704;
1164.6000;0.4314;2.8572;
1164.9000;0.4330;2.8572;
1165.2000;0.4314;2.8466;
1165.5000;0.4363;2.8546;
1165.8000;0.4347;2.8493;
1166.1000;0.4314;2.8440;
1166.4000;0.4347;2.8546;
1166.7000;0.4282;2.8361;
1167.0000;0.4339;2.8466;
1167.3000;0.4339;2.8440;
1167.6000;0.4306;2.8361;
1167.9000;0.4379;2.8519;
1168.2000;0.4257;2.8229;
1168.5000;0.4322;2.8255;
1168.8000;0.4444;2.8757;
1169.1000;0.4330;2.8440;
1169.4000;0.4420;2.8677;
1169.7000;0.4330;2.8334;
1170.0000;0.4339;2.8334;
1170.3000;0.4355;2.8334;
1170.6000;0.4347;2.8282;
1170.9000;0.4330;2.8308;
1171.2000;0.4314;2.8308;
1171.5000;0.4290;2.8282;
1171.8000;0.4469;2.8730;
1172.1000;0.4404;2.8493;
1172.4000;0.4371;2.8387;
1172.7000;0.4322;2.8282;
1173.0000;0.4347;2.8308;
1173.3000;0.4347;2.8282;
1173.6000;0.4347;2.8282;
1173.9000;0.4347;2.8255;
1174.2000;0.4339;2.8255;
1174.5000;0.4322;2.8229;
1174.8000;0.4371;2.8414;
1175.1000;0.4355;2.8361;
1175.4000;0.4371;2.8519;
1175.7000;0.4339;2.8440;
1176.0000;0.4347;2.8361;
1176.3000;0.4363;2.8414;
1176.6000;0.4355;2.8387;
1176.9000;0.4330;2.8308;
1177.2000;0.4355;2.8334;
1177.5000;0.4347;2.8282;
1177.8000;0.4355;2.8229;
1178.1000;0.4298;2.8044;
1178.4000;0.4322;2.8071;
1178.7000;0.4339;2.8150;
1179.0000;0.4379;2.8361;
1179.3000;0.4339;2.8282;
1179.6000;0.4314;2.8229;
1179.9000;0.4314;2.8308;
1180.2000;0.4314;2.8334;
1180.5000;0.4314;2.8414;
1180.8000;0.4330;2.8387;
1181.1000;0.4322;2.8308;
1181.4000;0.4314;2.8282;
1181.7000;0.4339;2.8334;
1182.0000;0.4314;2.8229;
1182.3000;0.4322;2.8203;
1182.6000;0.4330;2.8308;
1182.9000;0.4306;2.8282;
1183.2000;0.4330;2.8387;
1183.5000;0.4314;2.8387;
1183.8000;0.4330;2.8334;
1184.1000;0.4347;2.8387;
1184.4000;0.4330;2.8361;
1184.7000;0.4339;2.8414;
1185.0000;0.4330;2.8308;
1185.3000;0.4355;2.8361;
1185.6000;0.4322;2.8361;
1185.9000;0.4330;2.8361;
1186.2000;0.4298;2.8414;
1186.5000;0.4322;2.8440;
1186.8000;0.4330;2.8334;
1187.1000;0.4298;2.8255;
1187.4000;0.4339;2.8361;
1187.7000;0.4314;2.8387;
1188.0000;0.4347;2.8440;
1188.3000;0.4412;2.8572;
1188.6000;0.4396;2.8546;
1188.9000;0.4330;2.8361;
1189.2000;0.4355;2.8440;
1189.5000;0.4347;2.8440;
1189.8000;0.4355;2.8493;
1190.1000;0.4314;2.8440;
1190.4000;0.4314;2.8493;
1190.7000;0.4265;2.8229;
1191.0000;0.4306;2.8282;
1191.3000;0.4322;2.8414;
1191.6000;0.4241;2.8071;
1191.9000;0.4371;2.8440;
1192.2000;0.4339;2.8255;
1192.5000;0.4330;2.8255;
1192.8000;0.4322;2.8255;
1193.1000;0.4363;2.8414;
1193.4000;0.4290;2.8203;
1193.7000;0.4225;2.8018;
1194.0000;0.4330;2.8334;
1194.3000;0.4314;2.8255;
1194.6000;0.4314;2.8334;
1194.9000;0.4339;2.8361;
1195.2000;0.4322;2.8334;
1195.5000;0.4339;2.8387;
1195.8000;0.4322;2.8334;
1196.1000;0.4322;2.8414;
1196.4000;0.4314;2.8387;
1196.7000;0.4322;2.8519;
1197.0000;0.4330;2.8519;
1197.3000;0.4339;2.8598;
1197.6000;0.4339;2.8598;
1197.9000;0.4355;2.8598;
1198.2000;0.4339;2.8493;
1198.5000;0.4330;2.8440;
1198.8000;0.4330;2.8493;
1199.1000;0.4330;2.8493;
1199.4000;0.4330;2.8598;
1199.7000;0.4322;2.8493;
1200.0000;0.4347;2.8572;
1200.3000;0.4339;2.8546;
1200.6000;0.4339;2.8625;
1200.9000;0.4330;2.8572;
1201.2000;0.4339;2.8598;
1201.5000;0.4322;2.8572;
1201.8000;0.4314;2.8546;
1202.1000;0.4355;2.8651;
1202.4000;0.4330;2.8625;
1202.7000;0.4314;2.8598;
1203.0000;0.4330;2.8651;
1203.3000;0.4314;2.8704;
1203.6000;0.4339;2.8757;
1203.9000;0.4339;2.8704;
1204.2000;0.4306;2.8598;
1204.5000;0.4339;2.8598;
1204.8000;0.4314;2.8572;
1205.1000;0.4314;2.8546;
1205.4000;0.4314;2.8466;
1205.7000;0.4322;2.8440;
1206.0000;0.4322;2.8361;
1206.3000;0.4314;2.8282;
1206.6000;0.4330;2.8255;
1206.9000;0.4314;2.8255;
1207.2000;0.4387;2.8493;
1207.5000;0.4387;2.8466;
1207.8000;0.4330;2.8282;
1208.1000;0.4322;2.8203;
1208.4000;0.4339;2.8282;
1208.7000;0.4347;2.8387;
1209.0000;0.4347;2.8414;
1209.3000;0.4298;2.8308;
1209.6000;0.4355;2.8466;
1209.9000;0.4322;2.8466;
1210.2000;0.4339;2.8466;
1210.5000;0.4322;2.8440;
1210.8000;0.4241;2.8176;
1211.1000;0.4339;2.8387;
1211.4000;0.4322;2.8414;
1211.7000;0.4339;2.8519;
1212.0000;0.4339;2.8493;
1212.3000;0.4347;2.8387;
1212.6000;0.4396;2.8466;
1212.9000;0.4339;2.8361;
1213.2000;0.4347;2.8229;
1213.5000;0.4420;2.8387;
1213.8000;0.4347;2.8150;
1214.1000;0.4322;2.8097;
1214.4000;0.4330;2.8150;
1214.7000;0.4347;2.8308;
1215.0000;0.4355;2.8387;
1215.3000;0.4322;2.8229;
1215.6000;0.4322;2.8203;
1215.9000;0.4330;2.8282;
1216.2000;0.4339;2.8308;
1216.5000;0.4322;2.8308;
1216.8000;0.4330;2.8282;
1217.1000;0.4330;2.8255;
1217.4000;0.4314;2.8361;
1217.7000;0.4339;2.8493;
1218.0000;0.4396;2.8677;
1218.3000;0.4330;2.8546;
1218.6000;0.4339;2.8519;
1218.9000;0.4322;2.8493;
1219.2000;0.4322;2.8519;
1219.5000;0.4322;2.8519;
1219.8000;0.4306;2.8519;
1220.1000;0.4314;2.8546;
1220.4000;0.4387;2.8730;
1220.7000;0.4306;2.8572;
1221.0000;0.4330;2.8783;
1221.3000;0.4314;2.8757;
1221.6000;0.4314;2.8783;
1221.9000;0.4339;2.8888;
1222.2000;0.4314;2.8809;
1222.5000;0.4314;2.8704;
1222.8000;0.4347;2.8809;
1223.1000;0.4314;2.8651;
1223.4000;0.4420;2.8968;
1223.7000;0.4347;2.8704;
1224.0000;0.4330;2.8651;
1224.3000;0.4330;2.8572;
1224.6000;0.4339;2.8572;
1224.9000;0.4363;2.8677;
1225.2000;0.4322;2.8546;
1225.5000;0.4282;2.8414;
1225.8000;0.4290;2.8361;
1226.1000;0.4265;2.8334;
1226.4000;0.4314;2.8466;
1226.7000;0.4322;2.8361;
1227.0000;0.4298;2.8229;
1227.3000;0.4298;2.8176;
1227.6000;0.4339;2.8176;
1227.9000;0.4339;2.8229;
1228.2000;0.4477;2.8651;
1228.5000;0.4355;2.8308;
1228.8000;0.4355;2.8387;
1229.1000;0.4339;2.8334;
1229.4000;0.4322;2.8414;
1229.7000;0.4330;2.8440;
1230.0000;0.4314;2.8387;
1230.3000;0.4330;2.8414;
1230.6000;0.4290;2.8387;
1230.9000;0.4322;2.8361;
1231.2000;0.4314;2.8440;
1231.5000;0.4314;2.8493;
1231.8000;0.4330;2.8466;
1232.1000;0.4347;2.8466;
1232.4000;0.4330;2.8387;
1232.7000;0.4355;2.8414;
1233.0000;0.4339;2.8387;
1233.3000;0.4355;2.8387;
1233.6000;0.4363;2.8493;
1233.9000;0.4330;2.8572;
1234.2000;0.4347;2.8493;
1234.5000;0.4339;2.8546;
1234.8000;0.4347;2.8625;
1235.1000;0.4330;2.8519;
1235.4000;0.4339;2.8519;
1235.7000;0.4379;2.8598;
1236.0000;0.4314;2.8387;
1236.3000;0.4322;2.8414;
1236.6000;0.4322;2.8387;
1236.9000;0.4347;2.8546;
1237.2000;0.4322;2.8546;
1237.5000;0.4330;2.8519;
1237.8000;0.4330;2.8704;
1238.1000;0.4330;2.8677;
1238.4000;0.4347;2.8704;
1238.7000;0.4314;2.8651;
1239.0000;0.4330;2.8757;
1239.3000;0.4330;2.8757;
1239.6000;0.4314;2.8730;
1239.9000;0.4330;2.8862;
1240.2000;0.4330;2.8862;
1240.5000;0.4314;2.8862;
1240.8000;0.4314;2.8888;
1241.1000;0.4274;2.8730;
1241.4000;0.4306;2.8862;
1241.7000;0.4322;2.8809;
1242.0000;0.4322;2.8730;
1242.3000;0.4314;2.8757;
1242.6000;0.4314;2.8757;
1242.9000;0.4322;2.8783;
1243.2000;0.4290;2.8704;
1243.5000;0.4322;2.8783;
1243.8000;0.4322;2.8783;
1244.1000;0.4355;2.8757;
1244.4000;0.4330;2.8704;
1244.7000;0.4322;2.8677;
1245.0000;0.4330;2.8598;
1245.3000;0.4347;2.8651;
1245.6000;0.4339;2.8519;
1245.9000;0.4347;2.8572;
1246.2000;0.4322;2.8466;
1246.5000;0.4339;2.8572;
1246.8000;0.4339;2.8572;
1247.1000;0.4330;2.8466;
1247.4000;0.4339;2.8440;
1247.7000;0.4379;2.8414;
1248.0000;0.4379;2.8440;
1248.3000;0.4347;2.8282;
1248.6000;0.4330;2.8255;
1248.9000;0.4322;2.8334;
1249.2000;0.4330;2.8308;
1249.5000;0.4330;2.8334;
1249.8000;0.4322;2.8440;
1250.1000;0.4347;2.8387;
1250.4000;0.4339;2.8334;
1250.7000;0.4347;2.8255;
1251.0000;0.4330;2.8203;
1251.3000;0.4290;2.8097;
1251.6000;0.4330;2.8203;
1251.9000;0.4330;2.8203;
1252.2000;0.4330;2.8255;
1252.5000;0.4322;2.8308;
1252.8000;0.4330;2.8203;
1253.1000;0.4347;2.8255;
1253.4000;0.4347;2.8255;
1253.7000;0.4314;2.8229;
1254.0000;0.4330;2.8282;
1254.3000;0.4355;2.8361;
1254.6000;0.4347;2.8282;
1254.9000;0.4355;2.8282;
1255.2000;0.4339;2.8334;
1255.5000;0.4339;2.8334;
1255.8000;0.4347;2.8414;
1256.1000;0.4322;2.8414;
1256.4000;0.4339;2.8440;
1256.7000;0.4339;2.8546;
1257.0000;0.4339;2.8519;
1257.3000;0.4314;2.8361;
1257.6000;0.4322;2.8361;
1257.9000;0.4330;2.8493;
1258.2000;0.4200;2.8176;
1258.5000;0.4330;2.8519;
1258.8000;0.4363;2.8625;
1259.1000;0.4330;2.8572;
1259.4000;0.4347;2.8677;
1259.7000;0.4404;2.8862;
1260.0000;0.4330;2.8677;
1260.3000;0.4330;2.8757;
1260.6000;0.4396;2.8915;
1260.9000;0.4339;2.8783;
1261.2000;0.4347;2.8783;
1261.5000;0.4322;2.8704;
1261.8000;0.4298;2.8704;
1262.1000;0.4322;2.8730;
1262.4000;0.4314;2.8677;
1262.7000;0.4330;2.8809;
1263.0000;0.4339;2.8783;
1263.3000;0.4322;2.8704;
1263.6000;0.4322;2.8730;
1263.9000;0.4339;2.8809;
1264.2000;0.4363;2.8757;
1264.5000;0.4339;2.8677;
1264.8000;0.4339;2.8704;
1265.1000;0.4355;2.8704;
1265.4000;0.4314;2.8572;
1265.7000;0.4282;2.8414;
1266.0000;0.4314;2.8493;
1266.3000;0.4314;2.8493;
1266.6000;0.4322;2.8466;
1266.9000;0.4355;2.8546;
1267.2000;0.4347;2.8466;
1267.5000;0.4322;2.8414;
1267.8000;0.4330;2.8361;
1268.1000;0.4330;2.8255;
1268.4000;0.4330;2.8229;
1268.7000;0.4355;2.8229;
1269.0000;0.4355;2.8229;
1269.3000;0.4322;2.8123;
1269.6000;0.4371;2.8282;
1269.9000;0.4339;2.8255;
1270.2000;0.4330;2.8308;
1270.5000;0.4314;2.8229;
1270.8000;0.4306;2.8308;
1271.1000;0.4347;2.8361;
1271.4000;0.4355;2.8466;
1271.7000;0.4322;2.8361;
1272.0000;0.4330;2.8308;
1272.3000;0.4347;2.8334;
1272.6000;0.4339;2.8229;
1272.9000;0.4339;2.8229;
1273.2000;0.4322;2.8176;
1273.5000;0.4306;2.8071;
1273.8000;0.4314;2.8123;
1274.1000;0.4339;2.8229;
1274.4000;0.4322;2.8176;
1274.7000;0.4339;2.8255;
1275.0000;0.4347;2.8282;
1275.3000;0.4339;2.8255;
1275.6000;0.4339;2.8229;
1275.9000;0.4347;2.8308;
1276.2000;0.4347;2.8308;
1276.5000;0.4347;2.8282;
1276.8000;0.4322;2.8255;
1277.1000;0.4306;2.8229;
1277.4000;0.4339;2.8387;
1277.7000;0.4330;2.8387;
1278.0000;0.4322;2.8414;
1278.3000;0.4306;2.8387;
1278.6000;0.4330;2.8466;
1278.9000;0.4330;2.8598;
1279.2000;0.4322;2.8598;
1279.5000;0.4330;2.8598;
1279.8000;0.4339;2.8651;
1280.1000;0.4233;2.8361;
1280.4000;0.4314;2.8730;
1280.7000;0.4322;2.8783;
1281.0000;0.4322;2.8783;
1281.3000;0.4314;2.8809;
1281.6000;0.4347;2.8836;
1281.9000;0.4314;2.8809;
1282.2000;0.4306;2.8757;
1282.5000;0.4322;2.8809;
1282.8000;0.4347;2.8888;
1283.1000;0.4306;2.8783;
1283.4000;0.4314;2.8704;
1283.7000;0.4290;2.8651;
1284.0000;0.4339;2.8836;
1284.3000;0.4339;2.8809;
1284.6000;0.4282;2.8625;
1284.9000;0.4330;2.8704;
1285.2000;0.4314;2.8704;
1285.5000;0.4322;2.8572;
1285.8000;0.4387;2.8704;
1286.1000;0.4355;2.8414;
1286.4000;0.4339;2.8387;
1286.7000;0.4306;2.8282;
1287.0000;0.4322;2.8334;
1287.3000;0.4330;2.8414;
1287.6000;0.4330;2.8334;
1287.9000;0.4249;2.8203;
1288.2000;0.4257;2.8123;
1288.5000;0.4322;2.8361;
1288.8000;0.4274;2.8255;
1289.1000;0.4339;2.8387;
1289.4000;0.4290;2.8229;
1289.7000;0.4387;2.8546;
1290.0000;0.4322;2.8440;
1290.3000;0.4314;2.8282;
1290.6000;0.4371;2.8440;
1290.9000;0.4330;2.8308;
1291.2000;0.4322;2.8361;
1291.5000;0.4339;2.8387;
1291.8000;0.4347;2.8414;
1292.1000;0.4330;2.8440;
1292.4000;0.4339;2.8519;
1292.7000;0.4355;2.8572;
1293.0000;0.4330;2.8466;
1293.3000;0.4363;2.8493;
1293.6000;0.4339;2.8334;
1293.9000;0.4330;2.8334;
1294.2000;0.4298;2.8229;
1294.5000;0.4330;2.8361;
1294.8000;0.4330;2.8361;
1295.1000;0.4347;2.8440;
1295.4000;0.4355;2.8493;
1295.7000;0.4347;2.8519;
1296.0000;0.4387;2.8677;
1296.3000;0.4322;2.8519;
1296.6000;0.4339;2.8519;
1296.9000;0.4322;2.8387;
1297.2000;0.4298;2.8255;
1297.5000;0.4339;2.8414;
1297.8000;0.4322;2.8466;
1298.1000;0.4322;2.8493;
1298.4000;0.4314;2.8466;
1298.7000;0.4298;2.8546;
1299.0000;0.4322;2.8651;
1299.3000;0.4330;2.8677;
1299.6000;0.4322;2.8677;
1299.9000;0.4314;2.8730;
1300.2000;0.4330;2.8783;
1300.5000;0.4330;2.8888;
1300.8000;0.4322;2.8915;
1301.1000;0.4330;2.8888;
1301.4000;0.4330;2.8888;
1301.7000;0.4322;2.8888;
1302.0000;0.4347;2.8994;
1302.3000;0.4428;2.9179;
1302.6000;0.4379;2.8888;
1302.9000;0.4330;2.8730;
1303.2000;0.4330;2.8625;
1303.5000;0.4322;2.8651;
1303.8000;0.4298;2.8625;
1304.1000;0.4314;2.8651;
1304.4000;0.4330;2.8730;
1304.7000;0.4306;2.8598;
1305.0000;0.4355;2.8651;
1305.3000;0.4330;2.8625;
1305.6000;0.4290;2.8414;
1305.9000;0.4330;2.8625;
1306.2000;0.4347;2.8598;
1306.5000;0.4339;2.8572;
1306.8000;0.4339;2.8598;
1307.1000;0.4314;2.8493;
1307.4000;0.4330;2.8598;
1307.7000;0.4330;2.8598;
1308.0000;0.4339;2.8651;
1308.3000;0.4347;2.8625;
1308.6000;0.4322;2.8598;
1308.9000;0.4290;2.8519;
1309.2000;0.4339;2.8572;
1309.5000;0.4347;2.8598;
1309.8000;0.4387;2.8625;
1310.1000;0.4265;2.8229;
1310.4000;0.4371;2.8519;
1310.7000;0.4347;2.8387;
1311.0000;0.4339;2.8308;
1311.3000;0.4339;2.8308;
1311.6000;0.4347;2.8387;
1311.9000;0.4298;2.8308;
1312.2000;0.4330;2.8334;
1312.5000;0.4306;2.8334;
1312.8000;0.4347;2.8466;
1313.1000;0.4322;2.8414;
1313.4000;0.4330;2.8308;
1313.7000;0.4314;2.8308;
1314.0000;0.4396;2.8519;
1314.3000;0.4306;2.8282;
1314.6000;0.4339;2.8387;
1314.9000;0.4330;2.8361;
1315.2000;0.4306;2.8282;
1315.5000;0.4330;2.8387;
1315.8000;0.4355;2.8440;
1316.1000;0.4355;2.8572;
1316.4000;0.4282;2.8519;
1316.7000;0.4371;2.8757;
1317.0000;0.4339;2.8625;
1317.3000;0.4330;2.8572;
1317.6000;0.4330;2.8519;
1317.9000;0.4322;2.8519;
1318.2000;0.4330;2.8598;
1318.5000;0.4314;2.8625;
1318.8000;0.4330;2.8677;
1319.1000;0.4339;2.8704;
1319.4000;0.4306;2.8677;
1319.7000;0.4355;2.8730;
1320.0000;0.4322;2.8757;
1320.3000;0.4314;2.8783;
1320.6000;0.4330;2.8862;
1320.9000;0.4322;2.8915;
1321.2000;0.4363;2.8941;
1321.5000;0.4322;2.8809;
1321.8000;0.4314;2.8730;
1322.1000;0.4330;2.8704;
1322.4000;0.4306;2.8677;
1322.7000;0.4306;2.8651;
1323.0000;0.4330;2.8677;
1323.3000;0.4322;2.8625;
1323.6000;0.4322;2.8677;
1323.9000;0.4314;2.8519;
1324.2000;0.4339;2.8519;
1324.5000;0.4396;2.8651;
1324.8000;0.4330;2.8546;
1325.1000;0.4339;2.8519;
1325.4000;0.4330;2.8387;
1325.7000;0.4330;2.8440;
1326.0000;0.4339;2.8334;
1326.3000;0.4339;2.8229;
1326.6000;0.4322;2.8308;
1326.9000;0.4347;2.8308;
1327.2000;0.4339;2.8334;
1327.5000;0.4339;2.8387;
1327.8000;0.4339;2.8361;
1328.1000;0.4322;2.8361;
1328.4000;0.4347;2.8466;
1328.7000;0.4330;2.8440;
1329.0000;0.4339;2.8466;
1329.3000;0.4330;2.8387;
1329.6000;0.4355;2.8519;
1329.9000;0.4339;2.8493;
1330.2000;0.4330;2.8440;
1330.5000;0.4322;2.8334;
1330.8000;0.4330;2.8334;
1331.1000;0.4339;2.8308;
1331.4000;0.4322;2.8282;
1331.7000;0.4339;2.8466;
1332.0000;0.4339;2.8466;
1332.3000;0.4306;2.8387;
1332.6000;0.4339;2.8466;
1332.9000;0.4330;2.8440;
1333.2000;0.4330;2.8440;
1333.5000;0.4322;2.8466;
1333.8000;0.4396;2.8677;
1334.1000;0.4371;2.8493;
1334.4000;0.4322;2.8414;
1334.7000;0.4322;2.8466;
1335.0000;0.4347;2.8546;
1335.3000;0.4339;2.8466;
1335.6000;0.4355;2.8598;
1335.9000;0.4339;2.8519;
1336.2000;0.4347;2.8493;
1336.5000;0.4396;2.8598;
1336.8000;0.4339;2.8546;
1337.1000;0.4322;2.8519;
1337.4000;0.4363;2.8598;
1337.7000;0.4404;2.8757;
1338.0000;0.4322;2.8493;
1338.3000;0.4339;2.8625;
1338.6000;0.4330;2.8730;
1338.9000;0.4290;2.8598;
1339.2000;0.4322;2.8730;
1339.5000;0.4330;2.8783;
1339.8000;0.4330;2.8757;
1340.1000;0.4339;2.8730;
1340.4000;0.4322;2.8704;
1340.7000;0.4298;2.8572;
1341.0000;0.4314;2.8677;
1341.3000;0.4330;2.8809;
1341.6000;0.4282;2.8704;
1341.9000;0.4322;2.8888;
1342.2000;0.4355;2.8994;
1342.5000;0.4330;2.8915;
1342.8000;0.4330;2.8862;
1343.1000;0.4306;2.8757;
1343.4000;0.4322;2.8677;
1343.7000;0.4339;2.8651;
1344.0000;0.4306;2.8546;
1344.3000;0.4322;2.8651;
1344.6000;0.4314;2.8598;
1344.9000;0.4322;2.8625;
1345.2000;0.4314;2.8598;
1345.5000;0.4282;2.8414;
1345.8000;0.4314;2.8519;
1346.1000;0.4330;2.8598;
1346.4000;0.4339;2.8519;
1346.7000;0.4330;2.8493;
1347.0000;0.4330;2.8493;
1347.3000;0.4322;2.8440;
1347.6000;0.4339;2.8466;
1347.9000;0.4330;2.8387;
1348.2000;0.4322;2.8414;
1348.5000;0.4306;2.8466;
1348.8000;0.4339;2.8519;
1349.1000;0.4322;2.8572;
1349.4000;0.4339;2.8598;
1349.7000;0.4314;2.8572;
1350.0000;0.4339;2.8466;
1350.3000;0.4330;2.8493;
1350.6000;0.4339;2.8493;
1350.9000;0.4306;2.8387;
1351.2000;0.4322;2.8493;
1351.5000;0.4339;2.8651;
1351.8000;0.4330;2.8598;
1352.1000;0.4322;2.8572;
1352.4000;0.4330;2.8466;
1352.7000;0.4339;2.8519;
1353.0000;0.4339;2.8572;
1353.3000;0.4322;2.8598;
1353.6000;0.4322;2.8651;
1353.9000;0.4330;2.8625;
1354.2000;0.4347;2.8572;
1354.5000;0.4265;2.8334;
1354.8000;0.4322;2.8361;
1355.1000;0.4290;2.8334;
1355.4000;0.4314;2.8387;
1355.7000;0.4298;2.8414;
1356.0000;0.4322;2.8493;
1356.3000;0.4347;2.8519;
1356.6000;0.4330;2.8572;
1356.9000;0.4339;2.8598;
1357.2000;0.4274;2.8440;
1357.5000;0.4282;2.8493;
1357.8000;0.4314;2.8519;
1358.1000;0.4330;2.8598;
1358.4000;0.4241;2.8282;
1358.7000;0.4404;2.8809;
1359.0000;0.4322;2.8598;
1359.3000;0.4322;2.8625;
1359.6000;0.4314;2.8625;
1359.9000;0.4314;2.8625;
1360.2000;0.4282;2.8572;
1360.5000;0.4322;2.8704;
1360.8000;0.4306;2.8704;
1361.1000;0.4314;2.8730;
1361.4000;0.4314;2.8704;
1361.7000;0.4290;2.8598;
1362.0000;0.4314;2.8677;
1362.3000;0.4339;2.8730;
1362.6000;0.4322;2.8730;
1362.9000;0.4306;2.8625;
1363.2000;0.4355;2.8730;
1363.5000;0.4330;2.8625;
1363.8000;0.4306;2.8546;
1364.1000;0.4404;2.8730;
1364.4000;0.4225;2.8229;
1364.7000;0.4330;2.8598;
1365.0000;0.4322;2.8572;
1365.3000;0.4322;2.8598;
1365.6000;0.4330;2.8519;
1365.9000;0.4298;2.8414;
1366.2000;0.4314;2.8387;
1366.5000;0.4339;2.8361;
1366.8000;0.4330;2.8334;
1367.1000;0.4322;2.8414;
1367.4000;0.4339;2.8414;
1367.7000;0.4339;2.8414;
1368.0000;0.4355;2.8466;
1368.3000;0.4347;2.8440;
1368.6000;0.4322;2.8466;
1368.9000;0.4306;2.8466;
1369.2000;0.4330;2.8440;
1369.5000;0.4347;2.8493;
1369.8000;0.4330;2.8387;
1370.1000;0.4347;2.8440;
1370.4000;0.4339;2.8361;
1370.7000;0.4322;2.8361;
1371.0000;0.4330;2.8519;
1371.3000;0.4314;2.8387;
1371.6000;0.4314;2.8282;
1371.9000;0.4363;2.8334;
1372.2000;0.4298;2.8229;
1372.5000;0.4322;2.8361;
1372.8000;0.4339;2.8440;
1373.1000;0.4330;2.8466;
1373.4000;0.4257;2.8308;
1373.7000;0.4339;2.8414;
1374.0000;0.4290;2.8334;
1374.3000;0.4347;2.8414;
1374.6000;0.4347;2.8440;
1374.9000;0.4339;2.8519;
1375.2000;0.4330;2.8546;
1375.5000;0.4314;2.8466;
1375.8000;0.4322;2.8466;
1376.1000;0.4339;2.8546;
1376.4000;0.4330;2.8440;
1376.7000;0.4306;2.8334;
1377.0000;0.4355;2.8546;
1377.3000;0.4314;2.8546;
1377.6000;0.4322;2.8546;
1377.9000;0.4314;2.8572;
1378.2000;0.4290;2.8466;
1378.5000;0.4322;2.8546;
1378.8000;0.4298;2.8466;
1379.1000;0.4363;2.8625;
1379.4000;0.4347;2.8625;
1379.7000;0.4314;2.8466;
1380.0000;0.4347;2.8598;
1380.3000;0.4314;2.8519;
1380.6000;0.4322;2.8677;
1380.9000;0.4274;2.8625;
1381.2000;0.4306;2.8704;
1381.5000;0.4330;2.8888;
1381.8000;0.4314;2.8941;
1382.1000;0.4282;2.8862;
1382.4000;0.4322;2.8968;
1382.7000;0.4322;2.8888;
1383.0000;0.4306;2.8862;
1383.3000;0.4322;2.8941;
1383.6000;0.4322;2.8941;
1383.9000;0.4330;2.8915;
1384.2000;0.4314;2.8888;
1384.5000;0.4355;2.8915;
1384.8000;0.4339;2.8836;
1385.1000;0.4347;2.8862;
1385.4000;0.4314;2.8730;
1385.7000;0.4322;2.8598;
1386.0000;0.4330;2.8598;
1386.3000;0.4339;2.8598;
1386.6000;0.4339;2.8519;
1386.9000;0.4322;2.8414;
1387.2000;0.4314;2.8414;
1387.5000;0.4339;2.8387;
1387.8000;0.4330;2.8414;
1388.1000;0.4330;2.8493;
1388.4000;0.4330;2.8466;
1388.7000;0.4347;2.8546;
1389.0000;0.4347;2.8546;
1389.3000;0.4347;2.8598;
1389.6000;0.4314;2.8493;
1389.9000;0.4339;2.8414;
1390.2000;0.4339;2.8334;
1390.5000;0.4306;2.8282;
1390.8000;0.4330;2.8255;
1391.1000;0.4330;2.8361;
1391.4000;0.4322;2.8387;
1391.7000;0.4330;2.8414;
1392.0000;0.4330;2.8466;
1392.3000;0.4330;2.8546;
1392.6000;0.4330;2.8572;
1392.9000;0.4339;2.8572;
1393.2000;0.4330;2.8440;
1393.5000;0.4330;2.8414;
1393.8000;0.4339;2.8466;
1394.1000;0.4347;2.8440;
1394.4000;0.4339;2.8387;
1394.7000;0.4339;2.8387;
1395.0000;0.4355;2.8440;
1395.3000;0.4355;2.8440;
1395.6000;0.4330;2.8361;
1395.9000;0.4347;2.8440;
1396.2000;0.4339;2.8361;
1396.5000;0.4339;2.8308;
1396.8000;0.4314;2.8150;
1397.1000;0.4306;2.8097;
1397.4000;0.4330;2.8203;
1397.7000;0.4322;2.8229;
1398.0000;0.4453;2.8625;
1398.3000;0.4330;2.8361;
1398.6000;0.4298;2.8308;
1398.9000;0.4330;2.8572;
1399.2000;0.4322;2.8677;
1399.5000;0.4330;2.8704;
1399.8000;0.4330;2.8783;
