time/ms;Fluo/V;P700 deltaI/I x10³;
-199.8000;0.5608;3.2635;
-199.5000;0.5600;3.2582;
-199.2000;0.5600;3.2635;
-198.9000;0.5608;3.2661;
-198.6000;0.5608;3.2661;
-198.3000;0.5608;3.2714;
-198.0000;0.5608;3.2767;
-197.7000;0.5617;3.2714;
-197.4000;0.5617;3.2767;
-197.1000;0.5625;3.2819;
-196.8000;0.5608;3.2714;
-196.5000;0.5608;3.2635;
-196.2000;0.5608;3.2688;
-195.9000;0.5617;3.2767;
-195.6000;0.5625;3.2767;
-195.3000;0.5584;3.2793;
-195.0000;0.5665;3.3004;
-194.7000;0.5608;3.2846;
-194.4000;0.5608;3.2872;
-194.1000;0.5600;3.2740;
-193.8000;0.5592;3.2740;
-193.5000;0.5600;3.2767;
-193.2000;0.5608;3.2767;
-192.9000;0.5617;3.2872;
-192.6000;0.5608;3.2951;
-192.3000;0.5600;3.3004;
-192.0000;0.5608;3.3004;
-191.7000;0.5600;3.2925;
-191.4000;0.5584;3.2925;
-191.1000;0.5600;3.2978;
-190.8000;0.5592;3.2951;
-190.5000;0.5592;3.3030;
-190.2000;0.5592;3.3004;
-189.9000;0.5592;3.3057;
-189.6000;0.5584;3.3110;
-189.3000;0.5592;3.3189;
-189.0000;0.5592;3.3215;
-188.7000;0.5617;3.3242;
-188.4000;0.5584;3.3189;
-188.1000;0.5584;3.3189;
-187.8000;0.5576;3.3057;
-187.5000;0.5584;3.3057;
-187.2000;0.5576;3.3110;
-186.9000;0.5592;3.3189;
-186.6000;0.5584;3.3057;
-186.3000;0.5568;3.3030;
-186.0000;0.5560;3.3030;
-185.7000;0.5576;3.3030;
-185.4000;0.5584;3.3083;
-185.1000;0.5576;3.2978;
-184.8000;0.5576;3.2951;
-184.5000;0.5592;3.2978;
-184.2000;0.5584;3.2951;
-183.9000;0.5592;3.2925;
-183.6000;0.5584;3.2872;
-183.3000;0.5592;3.2951;
-183.0000;0.5592;3.2925;
-182.7000;0.5584;3.2819;
-182.4000;0.5600;3.2793;
-182.1000;0.5600;3.2767;
-181.8000;0.5592;3.2767;
-181.5000;0.5600;3.2767;
-181.2000;0.5592;3.2714;
-180.9000;0.5600;3.2793;
-180.6000;0.5592;3.2793;
-180.3000;0.5617;3.2793;
-180.0000;0.5608;3.2846;
-179.7000;0.5625;3.2951;
-179.4000;0.5617;3.2925;
-179.1000;0.5608;3.2899;
-178.8000;0.5617;3.2872;
-178.5000;0.5600;3.2846;
-178.2000;0.5625;3.2899;
-177.9000;0.5617;3.2846;
-177.6000;0.5600;3.2819;
-177.3000;0.5600;3.2899;
-177.0000;0.5608;3.2846;
-176.7000;0.5625;3.2925;
-176.4000;0.5617;3.2899;
-176.1000;0.5600;3.2819;
-175.8000;0.5608;3.2819;
-175.5000;0.5600;3.2767;
-175.2000;0.5608;3.2793;
-174.9000;0.5600;3.2767;
-174.6000;0.5600;3.2793;
-174.3000;0.5608;3.2846;
-174.0000;0.5600;3.2793;
-173.7000;0.5608;3.2925;
-173.4000;0.5592;3.2951;
-173.1000;0.5608;3.2978;
-172.8000;0.5600;3.2978;
-172.5000;0.5592;3.3004;
-172.2000;0.5608;3.3030;
-171.9000;0.5600;3.3083;
-171.6000;0.5608;3.3294;
-171.3000;0.5592;3.3321;
-171.0000;0.5576;3.3242;
-170.7000;0.5584;3.3268;
-170.4000;0.5568;3.3242;
-170.1000;0.5568;3.3268;
-169.8000;0.5535;3.3136;
-169.5000;0.5560;3.3268;
-169.2000;0.5584;3.3268;
-168.9000;0.5584;3.3215;
-168.6000;0.5592;3.3215;
-168.3000;0.5592;3.3189;
-168.0000;0.5608;3.3268;
-167.7000;0.5584;3.3215;
-167.4000;0.5576;3.3189;
-167.1000;0.5592;3.3215;
-166.8000;0.5560;3.3162;
-166.5000;0.5600;3.3321;
-166.2000;0.5600;3.3400;
-165.9000;0.5633;3.3505;
-165.6000;0.5568;3.3294;
-165.3000;0.5592;3.3189;
-165.0000;0.5584;3.3162;
-164.7000;0.5584;3.3057;
-164.4000;0.5608;3.3030;
-164.1000;0.5592;3.3004;
-163.8000;0.5641;3.3083;
-163.5000;0.5592;3.2951;
-163.2000;0.5584;3.2951;
-162.9000;0.5535;3.2714;
-162.6000;0.5576;3.2872;
-162.3000;0.5600;3.2846;
-162.0000;0.5608;3.2793;
-161.7000;0.5608;3.2846;
-161.4000;0.5592;3.2793;
-161.1000;0.5600;3.2793;
-160.8000;0.5600;3.2793;
-160.5000;0.5592;3.2872;
-160.2000;0.5608;3.2899;
-159.9000;0.5608;3.2951;
-159.6000;0.5592;3.2846;
-159.3000;0.5560;3.2740;
-159.0000;0.5608;3.2793;
-158.7000;0.5617;3.2740;
-158.4000;0.5625;3.2767;
-158.1000;0.5617;3.2767;
-157.8000;0.5625;3.2819;
-157.5000;0.5617;3.2767;
-157.2000;0.5608;3.2767;
-156.9000;0.5617;3.2793;
-156.6000;0.5600;3.2767;
-156.3000;0.5600;3.2793;
-156.0000;0.5600;3.2793;
-155.7000;0.5657;3.2846;
-155.4000;0.5592;3.2688;
-155.1000;0.5600;3.2661;
-154.8000;0.5600;3.2793;
-154.5000;0.5584;3.2793;
-154.2000;0.5625;3.3004;
-153.9000;0.5600;3.2978;
-153.6000;0.5625;3.3004;
-153.3000;0.5600;3.2978;
-153.0000;0.5600;3.2951;
-152.7000;0.5608;3.3004;
-152.4000;0.5617;3.3030;
-152.1000;0.5617;3.3004;
-151.8000;0.5617;3.3057;
-151.5000;0.5600;3.3057;
-151.2000;0.5592;3.3110;
-150.9000;0.5478;3.2740;
-150.6000;0.5600;3.3057;
-150.3000;0.5592;3.3162;
-150.0000;0.5584;3.3136;
-149.7000;0.5576;3.3083;
-149.4000;0.5576;3.3030;
-149.1000;0.5568;3.3004;
-148.8000;0.5576;3.3030;
-148.5000;0.5592;3.3136;
-148.2000;0.5568;3.3136;
-147.9000;0.5584;3.3110;
-147.6000;0.5592;3.3136;
-147.3000;0.5584;3.3057;
-147.0000;0.5592;3.3030;
-146.7000;0.5592;3.3083;
-146.4000;0.5617;3.3162;
-146.1000;0.5576;3.3083;
-145.8000;0.5576;3.3004;
-145.5000;0.5600;3.3083;
-145.2000;0.5576;3.2951;
-144.9000;0.5535;3.2793;
-144.6000;0.5592;3.2925;
-144.3000;0.5617;3.3004;
-144.0000;0.5600;3.3004;
-143.7000;0.5600;3.3030;
-143.4000;0.5608;3.2951;
-143.1000;0.5592;3.2899;
-142.8000;0.5576;3.2872;
-142.5000;0.5584;3.2872;
-142.2000;0.5600;3.2899;
-141.9000;0.5592;3.2925;
-141.6000;0.5608;3.2925;
-141.3000;0.5617;3.2925;
-141.0000;0.5617;3.2872;
-140.7000;0.5722;3.3242;
-140.4000;0.5600;3.2819;
-140.1000;0.5535;3.2661;
-139.8000;0.5592;3.2740;
-139.5000;0.5608;3.2819;
-139.2000;0.5608;3.2846;
-138.9000;0.5560;3.2740;
-138.6000;0.5503;3.2714;
-138.3000;0.5592;3.2951;
-138.0000;0.5576;3.2846;
-137.7000;0.5617;3.2819;
-137.4000;0.5576;3.2688;
-137.1000;0.5617;3.2714;
-136.8000;0.5608;3.2793;
-136.5000;0.5568;3.2714;
-136.2000;0.5617;3.2846;
-135.9000;0.5617;3.2793;
-135.6000;0.5600;3.2767;
-135.3000;0.5608;3.2740;
-135.0000;0.5592;3.2688;
-134.7000;0.5608;3.2714;
-134.4000;0.5608;3.2688;
-134.1000;0.5584;3.2740;
-133.8000;0.5584;3.2767;
-133.5000;0.5592;3.2688;
-133.2000;0.5608;3.2767;
-132.9000;0.5617;3.2740;
-132.6000;0.5641;3.2793;
-132.3000;0.5608;3.2714;
-132.0000;0.5608;3.2793;
-131.7000;0.5576;3.2793;
-131.4000;0.5592;3.2872;
-131.1000;0.5592;3.2872;
-130.8000;0.5592;3.2899;
-130.5000;0.5584;3.2872;
-130.2000;0.5584;3.2951;
-129.9000;0.5576;3.2951;
-129.6000;0.5584;3.2978;
-129.3000;0.5584;3.3004;
-129.0000;0.5600;3.3189;
-128.7000;0.5682;3.3426;
-128.4000;0.5576;3.3189;
-128.1000;0.5600;3.3242;
-127.8000;0.5600;3.3215;
-127.5000;0.5592;3.3242;
-127.2000;0.5576;3.3321;
-126.9000;0.5592;3.3347;
-126.6000;0.5503;3.3083;
-126.3000;0.5600;3.3268;
-126.0000;0.5584;3.3162;
-125.7000;0.5592;3.3083;
-125.4000;0.5608;3.3136;
-125.1000;0.5584;3.3057;
-124.8000;0.5551;3.2951;
-124.5000;0.5592;3.3057;
-124.2000;0.5584;3.3004;
-123.9000;0.5584;3.3004;
-123.6000;0.5576;3.3004;
-123.3000;0.5592;3.2951;
-123.0000;0.5600;3.2951;
-122.7000;0.5600;3.2925;
-122.4000;0.5592;3.2899;
-122.1000;0.5592;3.2846;
-121.8000;0.5608;3.2846;
-121.5000;0.5592;3.2767;
-121.2000;0.5584;3.2740;
-120.9000;0.5600;3.2688;
-120.6000;0.5584;3.2661;
-120.3000;0.5600;3.2635;
-120.0000;0.5600;3.2661;
-119.7000;0.5600;3.2556;
-119.4000;0.5584;3.2635;
-119.1000;0.5617;3.2688;
-118.8000;0.5568;3.2608;
-118.5000;0.5576;3.2635;
-118.2000;0.5617;3.2740;
-117.9000;0.5560;3.2608;
-117.6000;0.5592;3.2635;
-117.3000;0.5592;3.2793;
-117.0000;0.5617;3.2767;
-116.7000;0.5560;3.2714;
-116.4000;0.5617;3.2793;
-116.1000;0.5657;3.2951;
-115.8000;0.5608;3.2872;
-115.5000;0.5617;3.2899;
-115.2000;0.5617;3.3004;
-114.9000;0.5633;3.2978;
-114.6000;0.5600;3.2872;
-114.3000;0.5608;3.2899;
-114.0000;0.5617;3.2899;
-113.7000;0.5649;3.2951;
-113.4000;0.5617;3.2899;
-113.1000;0.5584;3.2819;
-112.8000;0.5608;3.2978;
-112.5000;0.5560;3.2819;
-112.2000;0.5592;3.2872;
-111.9000;0.5592;3.2846;
-111.6000;0.5600;3.2846;
-111.3000;0.5617;3.2951;
-111.0000;0.5625;3.3004;
-110.7000;0.5600;3.2951;
-110.4000;0.5584;3.2978;
-110.1000;0.5568;3.2978;
-109.8000;0.5535;3.2872;
-109.5000;0.5576;3.2978;
-109.2000;0.5576;3.3136;
-108.9000;0.5576;3.3242;
-108.6000;0.5576;3.3294;
-108.3000;0.5535;3.3189;
-108.0000;0.5600;3.3373;
-107.7000;0.5625;3.3426;
-107.4000;0.5592;3.3268;
-107.1000;0.5551;3.3083;
-106.8000;0.5576;3.3189;
-106.5000;0.5657;3.3479;
-106.2000;0.5470;3.3004;
-105.9000;0.5608;3.3400;
-105.6000;0.5584;3.3242;
-105.3000;0.5592;3.3189;
-105.0000;0.5600;3.3242;
-104.7000;0.5625;3.3083;
-104.4000;0.5600;3.2872;
-104.1000;0.5608;3.2872;
-103.8000;0.5576;3.2793;
-103.5000;0.5608;3.2925;
-103.2000;0.5576;3.2846;
-102.9000;0.5592;3.2899;
-102.6000;0.5625;3.3004;
-102.3000;0.5600;3.2899;
-102.0000;0.5608;3.2899;
-101.7000;0.5617;3.2899;
-101.4000;0.5576;3.2793;
-101.1000;0.5608;3.2846;
-100.8000;0.5608;3.2951;
-100.5000;0.5568;3.2793;
-100.2000;0.5584;3.2819;
-99.9000;0.5608;3.2899;
-99.6000;0.5608;3.2819;
-99.3000;0.5608;3.2767;
-99.0000;0.5600;3.2714;
-98.7000;0.5690;3.2846;
-98.4000;0.5617;3.2582;
-98.1000;0.5625;3.2608;
-97.8000;0.5641;3.2688;
-97.5000;0.5600;3.2556;
-97.2000;0.5617;3.2582;
-96.9000;0.5592;3.2556;
-96.6000;0.5600;3.2688;
-96.3000;0.5600;3.2608;
-96.0000;0.5608;3.2688;
-95.7000;0.5600;3.2661;
-95.4000;0.5600;3.2661;
-95.1000;0.5608;3.2740;
-94.8000;0.5625;3.2846;
-94.5000;0.5600;3.2793;
-94.2000;0.5584;3.2714;
-93.9000;0.5617;3.2767;
-93.6000;0.5592;3.2688;
-93.3000;0.5608;3.2740;
-93.0000;0.5584;3.2714;
-92.7000;0.5576;3.2714;
-92.4000;0.5608;3.2740;
-92.1000;0.5592;3.2793;
-91.8000;0.5592;3.2819;
-91.5000;0.5543;3.2740;
-91.2000;0.5600;3.3083;
-90.9000;0.5592;3.3110;
-90.6000;0.5576;3.2951;
-90.3000;0.5584;3.2978;
-90.0000;0.5592;3.3004;
-89.7000;0.5576;3.2925;
-89.4000;0.5608;3.3004;
-89.1000;0.5584;3.2899;
-88.8000;0.5568;3.2925;
-88.5000;0.5592;3.2951;
-88.2000;0.5543;3.2793;
-87.9000;0.5625;3.3136;
-87.6000;0.5592;3.3057;
-87.3000;0.5617;3.3004;
-87.0000;0.5568;3.2978;
-86.7000;0.5576;3.3083;
-86.4000;0.5568;3.3110;
-86.1000;0.5584;3.3215;
-85.8000;0.5592;3.3215;
-85.5000;0.5584;3.3189;
-85.2000;0.5584;3.3057;
-84.9000;0.5592;3.3057;
-84.6000;0.5584;3.3004;
-84.3000;0.5600;3.3030;
-84.0000;0.5543;3.2899;
-83.7000;0.5600;3.3030;
-83.4000;0.5592;3.3057;
-83.1000;0.5657;3.3136;
-82.8000;0.5608;3.2925;
-82.5000;0.5617;3.2951;
-82.2000;0.5551;3.2767;
-81.9000;0.5608;3.3004;
-81.6000;0.5600;3.3030;
-81.3000;0.5600;3.2925;
-81.0000;0.5617;3.3004;
-80.7000;0.5617;3.2978;
-80.4000;0.5584;3.3004;
-80.1000;0.5608;3.3110;
-79.8000;0.5600;3.3030;
-79.5000;0.5608;3.3057;
-79.2000;0.5600;3.3030;
-78.9000;0.5584;3.2951;
-78.6000;0.5608;3.3004;
-78.3000;0.5625;3.3004;
-78.0000;0.5592;3.2978;
-77.7000;0.5608;3.3004;
-77.4000;0.5600;3.2925;
-77.1000;0.5608;3.2846;
-76.8000;0.5600;3.2846;
-76.5000;0.5608;3.2793;
-76.2000;0.5584;3.2899;
-75.9000;0.5625;3.2872;
-75.6000;0.5592;3.2872;
-75.3000;0.5600;3.2819;
-75.0000;0.5608;3.2872;
-74.7000;0.5617;3.2925;
-74.4000;0.5608;3.2925;
-74.1000;0.5584;3.2872;
-73.8000;0.5600;3.2819;
-73.5000;0.5576;3.2793;
-73.2000;0.5617;3.2872;
-72.9000;0.5560;3.2688;
-72.6000;0.5568;3.2635;
-72.3000;0.5568;3.2740;
-72.0000;0.5592;3.2925;
-71.7000;0.5600;3.3057;
-71.4000;0.5568;3.2899;
-71.1000;0.5576;3.2951;
-70.8000;0.5608;3.3030;
-70.5000;0.5674;3.3189;
-70.2000;0.5584;3.3004;
-69.9000;0.5592;3.3136;
-69.6000;0.5617;3.3189;
-69.3000;0.5592;3.3083;
-69.0000;0.5584;3.3083;
-68.7000;0.5600;3.3268;
-68.4000;0.5560;3.3162;
-68.1000;0.5576;3.3215;
-67.8000;0.5592;3.3268;
-67.5000;0.5584;3.3373;
-67.2000;0.5584;3.3321;
-66.9000;0.5600;3.3373;
-66.6000;0.5584;3.3294;
-66.3000;0.5560;3.3110;
-66.0000;0.5584;3.3242;
-65.7000;0.5592;3.3373;
-65.4000;0.5608;3.3453;
-65.1000;0.5584;3.3268;
-64.8000;0.5625;3.3268;
-64.5000;0.5592;3.3215;
-64.2000;0.5551;3.3057;
-63.9000;0.5608;3.3110;
-63.6000;0.5600;3.3004;
-63.3000;0.5608;3.2925;
-63.0000;0.5600;3.3004;
-62.7000;0.5592;3.2899;
-62.4000;0.5592;3.2951;
-62.1000;0.5657;3.3110;
-61.8000;0.5617;3.3004;
-61.5000;0.5608;3.2978;
-61.2000;0.5600;3.3004;
-60.9000;0.5584;3.3030;
-60.6000;0.5608;3.2978;
-60.3000;0.5600;3.2951;
-60.0000;0.5543;3.2793;
-59.7000;0.5592;3.2819;
-59.4000;0.5608;3.2819;
-59.1000;0.5592;3.2767;
-58.8000;0.5600;3.2793;
-58.5000;0.5600;3.2819;
-58.2000;0.5617;3.2978;
-57.9000;0.5608;3.2899;
-57.6000;0.5600;3.2872;
-57.3000;0.5608;3.2899;
-57.0000;0.5600;3.2978;
-56.7000;0.5592;3.3004;
-56.4000;0.5625;3.2978;
-56.1000;0.5608;3.2899;
-55.8000;0.5584;3.2899;
-55.5000;0.5600;3.2899;
-55.2000;0.5625;3.3004;
-54.9000;0.5608;3.2925;
-54.6000;0.5608;3.2951;
-54.3000;0.5600;3.2899;
-54.0000;0.5617;3.2978;
-53.7000;0.5608;3.2978;
-53.4000;0.5617;3.3004;
-53.1000;0.5617;3.3083;
-52.8000;0.5600;3.3083;
-52.5000;0.5592;3.2978;
-52.2000;0.5584;3.2951;
-51.9000;0.5592;3.2951;
-51.6000;0.5608;3.2899;
-51.3000;0.5600;3.2872;
-51.0000;0.5592;3.2846;
-50.7000;0.5584;3.2846;
-50.4000;0.5625;3.3083;
-50.1000;0.5576;3.3110;
-49.8000;0.5576;3.3110;
-49.5000;0.5576;3.3083;
-49.2000;0.5584;3.3083;
-48.9000;0.5584;3.3162;
-48.6000;0.5584;3.3242;
-48.3000;0.5576;3.3189;
-48.0000;0.5608;3.3189;
-47.7000;0.5584;3.3136;
-47.4000;0.5576;3.3057;
-47.1000;0.5560;3.3030;
-46.8000;0.5543;3.3004;
-46.5000;0.5584;3.3110;
-46.2000;0.5600;3.3110;
-45.9000;0.5584;3.3057;
-45.6000;0.5535;3.3030;
-45.3000;0.5592;3.3136;
-45.0000;0.5584;3.3083;
-44.7000;0.5584;3.3083;
-44.4000;0.5576;3.3030;
-44.1000;0.5568;3.3057;
-43.8000;0.5592;3.3083;
-43.5000;0.5600;3.3030;
-43.2000;0.5592;3.2925;
-42.9000;0.5592;3.2846;
-42.6000;0.5584;3.2846;
-42.3000;0.5600;3.2899;
-42.0000;0.5600;3.2767;
-41.7000;0.5584;3.2767;
-41.4000;0.5608;3.2767;
-41.1000;0.5625;3.2872;
-40.8000;0.5592;3.2819;
-40.5000;0.5592;3.2819;
-40.2000;0.5608;3.2951;
-39.9000;0.5617;3.2951;
-39.6000;0.5600;3.2899;
-39.3000;0.5617;3.2899;
-39.0000;0.5625;3.2951;
-38.7000;0.5617;3.2978;
-38.4000;0.5600;3.2978;
-38.1000;0.5608;3.2925;
-37.8000;0.5584;3.2872;
-37.5000;0.5592;3.2899;
-37.2000;0.5608;3.2872;
-36.9000;0.5584;3.2846;
-36.6000;0.5584;3.2767;
-36.3000;0.5608;3.2793;
-36.0000;0.5568;3.2819;
-35.7000;0.5600;3.2951;
-35.4000;0.5608;3.2925;
-35.1000;0.5592;3.2951;
-34.8000;0.5592;3.2872;
-34.5000;0.5625;3.2846;
-34.2000;0.5608;3.2846;
-33.9000;0.5576;3.2819;
-33.6000;0.5617;3.3004;
-33.3000;0.5617;3.3057;
-33.0000;0.5600;3.2925;
-32.7000;0.5592;3.2925;
-32.4000;0.5584;3.2925;
-32.1000;0.5584;3.2899;
-31.8000;0.5568;3.2819;
-31.5000;0.5592;3.2925;
-31.2000;0.5600;3.2951;
-30.9000;0.5600;3.3004;
-30.6000;0.5592;3.3057;
-30.3000;0.5560;3.3083;
-30.0000;0.5592;3.3189;
-29.7000;0.5608;3.3268;
-29.4000;0.5584;3.3268;
-29.1000;0.5592;3.3268;
-28.8000;0.5698;3.3558;
-28.5000;0.5568;3.3215;
-28.2000;0.5617;3.3321;
-27.9000;0.5568;3.3294;
-27.6000;0.5584;3.3242;
-27.3000;0.5535;3.3162;
-27.0000;0.5592;3.3268;
-26.7000;0.5584;3.3136;
-26.4000;0.5551;3.3004;
-26.1000;0.5584;3.3030;
-25.8000;0.5560;3.2951;
-25.5000;0.5584;3.3030;
-25.2000;0.5592;3.3083;
-24.9000;0.5592;3.3136;
-24.6000;0.5608;3.3083;
-24.3000;0.5592;3.2872;
-24.0000;0.5576;3.2767;
-23.7000;0.5608;3.2767;
-23.4000;0.5633;3.2793;
-23.1000;0.5600;3.2714;
-22.8000;0.5584;3.2661;
-22.5000;0.5592;3.2740;
-22.2000;0.5584;3.2767;
-21.9000;0.5592;3.2819;
-21.6000;0.5600;3.2846;
-21.3000;0.5608;3.2846;
-21.0000;0.5576;3.2846;
-20.7000;0.5592;3.2846;
-20.4000;0.5592;3.2740;
-20.1000;0.5584;3.2846;
-19.8000;0.5657;3.3136;
-19.5000;0.5600;3.3004;
-19.2000;0.5584;3.2951;
-18.9000;0.5608;3.3030;
-18.6000;0.5592;3.2899;
-18.3000;0.5600;3.2978;
-18.0000;0.5600;3.3083;
-17.7000;0.5600;3.3030;
-17.4000;0.5592;3.2951;
-17.1000;0.5600;3.2819;
-16.8000;0.5551;3.2740;
-16.5000;0.5584;3.2793;
-16.2000;0.5478;3.2556;
-15.9000;0.5576;3.2740;
-15.6000;0.5608;3.2899;
-15.3000;0.5584;3.2899;
-15.0000;0.5592;3.2925;
-14.7000;0.5608;3.2925;
-14.4000;0.5617;3.3030;
-14.1000;0.5592;3.3004;
-13.8000;0.5584;3.2978;
-13.5000;0.5608;3.3004;
-13.2000;0.5608;3.3057;
-12.9000;0.5592;3.2978;
-12.6000;0.5576;3.2978;
-12.3000;0.5584;3.3030;
-12.0000;0.5608;3.3136;
-11.7000;0.5600;3.3162;
-11.4000;0.5592;3.3136;
-11.1000;0.5600;3.3136;
-10.8000;0.5600;3.3110;
-10.5000;0.5584;3.3110;
-10.2000;0.5600;3.3136;
-9.9000;0.5592;3.3136;
-9.6000;0.5576;3.3189;
-9.3000;0.5600;3.3189;
-9.0000;0.5608;3.3321;
-8.7000;0.5592;3.3242;
-8.4000;0.5584;3.3321;
-8.1000;0.5592;3.3400;
-7.8000;0.5560;3.3321;
-7.5000;0.5584;3.3426;
-7.2000;0.5600;3.3479;
-6.9000;0.5576;3.3453;
-6.6000;0.5592;3.3400;
-6.3000;0.5633;3.3453;
-6.0000;0.5576;3.3242;
-5.7000;0.5584;3.3162;
-5.4000;0.5600;3.3189;
-5.1000;0.5600;3.3189;
-4.8000;0.5584;3.3136;
-4.5000;0.5592;3.3162;
-4.2000;0.5592;3.3110;
-3.9000;0.5600;3.3110;
-3.6000;0.5568;3.3110;
-3.3000;0.5592;3.3189;
-3.0000;0.5600;3.3162;
-2.7000;0.5617;3.3162;
-2.4000;0.5600;3.3136;
-2.1000;0.5592;3.2951;
-1.8000;0.5600;3.2925;
-1.5000;0.5576;3.2819;
-1.2000;0.5617;3.2899;
-0.9000;0.5600;3.2793;
-0.6000;0.5584;3.2846;
-0.3000;0.5568;3.2846;
0.0000;0.5568;3.2846;
0.3000;0.5608;3.2714;
0.6000;0.5560;3.2899;
0.9000;0.5674;3.3426;
1.2000;0.5674;3.3716;
1.5000;0.5714;3.4007;
1.8000;0.5706;3.4165;
2.1000;0.5722;3.4402;
2.4000;0.5731;3.4508;
2.7000;0.5845;3.5036;
3.0000;0.5731;3.4824;
3.3000;0.5747;3.5036;
3.6000;0.5812;3.5247;
3.9000;0.5731;3.5036;
4.2000;0.5739;3.5062;
4.5000;0.5763;3.5167;
4.8000;0.5755;3.5247;
5.1000;0.5731;3.5247;
5.4000;0.5771;3.5405;
5.7000;0.5771;3.5431;
6.0000;0.5779;3.5405;
6.3000;0.5771;3.5379;
6.6000;0.5779;3.5431;
6.9000;0.5771;3.5484;
7.2000;0.5779;3.5590;
7.5000;0.5788;3.5563;
7.8000;0.5893;3.5933;
8.1000;0.5747;3.5484;
8.4000;0.5796;3.5695;
8.7000;0.5771;3.5669;
9.0000;0.5771;3.5669;
9.3000;0.5771;3.5827;
9.6000;0.5755;3.5721;
9.9000;0.5771;3.5695;
10.2000;0.5731;3.5669;
10.5000;0.5763;3.5774;
10.8000;0.5763;3.5880;
11.1000;0.5771;3.5933;
11.4000;0.5771;3.5906;
11.7000;0.5771;3.5880;
12.0000;0.5763;3.5827;
12.3000;0.5779;3.5880;
12.6000;0.5788;3.5933;
12.9000;0.5771;3.5906;
13.2000;0.5796;3.6012;
13.5000;0.5796;3.6064;
13.8000;0.5796;3.6064;
14.1000;0.5788;3.6038;
14.4000;0.5714;3.5827;
14.7000;0.5788;3.6012;
15.0000;0.5788;3.5906;
15.3000;0.5788;3.5827;
15.6000;0.5796;3.5774;
15.9000;0.5788;3.5774;
16.2000;0.5763;3.5590;
16.5000;0.5812;3.5748;
16.8000;0.5812;3.5801;
17.1000;0.5796;3.5695;
17.4000;0.5796;3.5695;
17.7000;0.5788;3.5590;
18.0000;0.5804;3.5695;
18.3000;0.5869;3.5880;
18.6000;0.5706;3.5379;
18.9000;0.5804;3.5642;
19.2000;0.5812;3.5669;
19.5000;0.5820;3.5590;
19.8000;0.5836;3.5590;
20.1000;0.5804;3.5431;
20.4000;0.5804;3.5510;
20.7000;0.5804;3.5484;
21.0000;0.5788;3.5458;
21.3000;0.5820;3.5537;
21.6000;0.5820;3.5563;
21.9000;0.5812;3.5458;
22.2000;0.5828;3.5326;
22.5000;0.5788;3.5299;
22.8000;0.5836;3.5405;
23.1000;0.5820;3.5352;
23.4000;0.5828;3.5379;
23.7000;0.5820;3.5352;
24.0000;0.5845;3.5431;
24.3000;0.5828;3.5458;
24.6000;0.5820;3.5590;
24.9000;0.5828;3.5563;
25.2000;0.5804;3.5379;
25.5000;0.5804;3.5458;
25.8000;0.5828;3.5510;
26.1000;0.5820;3.5510;
26.4000;0.5918;3.5880;
26.7000;0.5820;3.5537;
27.0000;0.5836;3.5590;
27.3000;0.5812;3.5484;
27.6000;0.5828;3.5537;
27.9000;0.5820;3.5616;
28.2000;0.5812;3.5642;
28.5000;0.5836;3.5669;
28.8000;0.5812;3.5721;
29.1000;0.5836;3.5853;
29.4000;0.5812;3.5748;
29.7000;0.5877;3.5933;
30.0000;0.5820;3.5801;
30.3000;0.5812;3.5853;
30.6000;0.5812;3.5774;
30.9000;0.5820;3.5748;
31.2000;0.5861;3.5827;
31.5000;0.5812;3.5774;
31.8000;0.5812;3.5748;
32.1000;0.5804;3.5748;
32.4000;0.5796;3.5801;
32.7000;0.5820;3.5959;
33.0000;0.5812;3.5933;
33.3000;0.5820;3.5906;
33.6000;0.5820;3.5880;
33.9000;0.5820;3.5880;
34.2000;0.5820;3.5774;
34.5000;0.5820;3.5774;
34.8000;0.5804;3.5669;
35.1000;0.5804;3.5721;
35.4000;0.5820;3.5748;
35.7000;0.5820;3.5695;
36.0000;0.5828;3.5590;
36.3000;0.5836;3.5563;
36.6000;0.5820;3.5590;
36.9000;0.5836;3.5590;
37.2000;0.5820;3.5484;
37.5000;0.5828;3.5326;
37.8000;0.5836;3.5431;
38.1000;0.5836;3.5458;
38.4000;0.5836;3.5458;
38.7000;0.5836;3.5484;
39.0000;0.5812;3.5458;
39.3000;0.5869;3.5669;
39.6000;0.5836;3.5616;
39.9000;0.5812;3.5537;
40.2000;0.5820;3.5537;
40.5000;0.5812;3.5537;
40.8000;0.5828;3.5563;
41.1000;0.5820;3.5458;
41.4000;0.5796;3.5537;
41.7000;0.5820;3.5537;
42.0000;0.5828;3.5590;
42.3000;0.5845;3.5642;
42.6000;0.5804;3.5590;
42.9000;0.5861;3.5695;
43.2000;0.5836;3.5537;
43.5000;0.5828;3.5458;
43.8000;0.5861;3.5537;
44.1000;0.5845;3.5458;
44.4000;0.5853;3.5431;
44.7000;0.5836;3.5326;
45.0000;0.5836;3.5405;
45.3000;0.5820;3.5273;
45.6000;0.5845;3.5299;
45.9000;0.5706;3.5009;
46.2000;0.5828;3.5510;
46.5000;0.5796;3.5484;
46.8000;0.5828;3.5642;
47.1000;0.5828;3.5563;
47.4000;0.5828;3.5458;
47.7000;0.5820;3.5484;
48.0000;0.5804;3.5431;
48.3000;0.5828;3.5484;
48.6000;0.5796;3.5431;
48.9000;0.5942;3.5853;
49.2000;0.5820;3.5484;
49.5000;0.5836;3.5616;
49.8000;0.5820;3.5590;
50.1000;0.5788;3.5563;
50.4000;0.5877;3.5827;
50.7000;0.5828;3.5642;
51.0000;0.5828;3.5695;
51.3000;0.5812;3.5774;
51.6000;0.5820;3.5880;
51.9000;0.5828;3.5774;
52.2000;0.5804;3.5721;
52.5000;0.5820;3.5721;
52.8000;0.5820;3.5695;
53.1000;0.5812;3.5748;
53.4000;0.5820;3.5774;
53.7000;0.5820;3.5695;
54.0000;0.5812;3.5695;
54.3000;0.5836;3.5616;
54.6000;0.5820;3.5537;
54.9000;0.5836;3.5484;
55.2000;0.5836;3.5379;
55.5000;0.5812;3.5405;
55.8000;0.5861;3.5510;
56.1000;0.5828;3.5458;
56.4000;0.5828;3.5510;
56.7000;0.5820;3.5405;
57.0000;0.5820;3.5405;
57.3000;0.5836;3.5431;
57.6000;0.5820;3.5352;
57.9000;0.5828;3.5405;
58.2000;0.5845;3.5405;
58.5000;0.5845;3.5326;
58.8000;0.5845;3.5405;
59.1000;0.5828;3.5352;
59.4000;0.5853;3.5379;
59.7000;0.5845;3.5405;
60.0000;0.5836;3.5431;
60.3000;0.5836;3.5405;
60.6000;0.5836;3.5405;
60.9000;0.5845;3.5510;
61.2000;0.5828;3.5431;
61.5000;0.5828;3.5352;
61.8000;0.5861;3.5379;
62.1000;0.5853;3.5299;
62.4000;0.5877;3.5352;
62.7000;0.5836;3.5247;
63.0000;0.5853;3.5326;
63.3000;0.5853;3.5273;
63.6000;0.5845;3.5220;
63.9000;0.5820;3.5352;
64.2000;0.5828;3.5352;
64.5000;0.5836;3.5299;
64.8000;0.5820;3.5352;
65.1000;0.5812;3.5352;
65.4000;0.5845;3.5379;
65.7000;0.5771;3.5194;
66.0000;0.5836;3.5352;
66.3000;0.5853;3.5352;
66.6000;0.5918;3.5669;
66.9000;0.5853;3.5458;
67.2000;0.5958;3.5774;
67.5000;0.5836;3.5431;
67.8000;0.5828;3.5484;
68.1000;0.5812;3.5484;
68.4000;0.5828;3.5563;
68.7000;0.5828;3.5642;
69.0000;0.5804;3.5616;
69.3000;0.5885;3.5827;
69.6000;0.5836;3.5616;
69.9000;0.5804;3.5590;
70.2000;0.5942;3.6012;
70.5000;0.5828;3.5721;
70.8000;0.5828;3.5669;
71.1000;0.5812;3.5801;
71.4000;0.5845;3.5880;
71.7000;0.5812;3.5748;
72.0000;0.5828;3.5748;
72.3000;0.5804;3.5721;
72.6000;0.5828;3.5721;
72.9000;0.5804;3.5616;
73.2000;0.5812;3.5590;
73.5000;0.5902;3.5748;
73.8000;0.5820;3.5537;
74.1000;0.5828;3.5537;
74.4000;0.5820;3.5563;
74.7000;0.5820;3.5590;
75.0000;0.5836;3.5484;
75.3000;0.5820;3.5405;
75.6000;0.5820;3.5379;
75.9000;0.5902;3.5642;
76.2000;0.5820;3.5431;
76.5000;0.5828;3.5510;
76.8000;0.5812;3.5405;
77.1000;0.5812;3.5405;
77.4000;0.5812;3.5379;
77.7000;0.5820;3.5379;
78.0000;0.5845;3.5352;
78.3000;0.5812;3.5326;
78.6000;0.5820;3.5352;
78.9000;0.5828;3.5326;
79.2000;0.5836;3.5431;
79.5000;0.5836;3.5431;
79.8000;0.5820;3.5326;
80.1000;0.5836;3.5379;
80.4000;0.5836;3.5431;
80.7000;0.5836;3.5431;
81.0000;0.5828;3.5484;
81.3000;0.5845;3.5431;
81.6000;0.5845;3.5352;
81.9000;0.5828;3.5326;
82.2000;0.5804;3.5141;
82.5000;0.5820;3.5167;
82.8000;0.5845;3.5220;
83.1000;0.5828;3.5247;
83.4000;0.5836;3.5141;
83.7000;0.5836;3.5194;
84.0000;0.5836;3.5194;
84.3000;0.5910;3.5326;
84.6000;0.5820;3.5167;
84.9000;0.5845;3.5326;
85.2000;0.5861;3.5299;
85.5000;0.5853;3.5247;
85.8000;0.5804;3.5088;
86.1000;0.5885;3.5299;
86.4000;0.5869;3.5220;
86.7000;0.5836;3.5299;
87.0000;0.5828;3.5299;
87.3000;0.5820;3.5299;
87.6000;0.5885;3.5510;
87.9000;0.5804;3.5379;
88.2000;0.5828;3.5379;
88.5000;0.5820;3.5299;
88.8000;0.5812;3.5299;
89.1000;0.5804;3.5405;
89.4000;0.5902;3.5695;
89.7000;0.5812;3.5510;
90.0000;0.5836;3.5537;
90.3000;0.5820;3.5537;
90.6000;0.5804;3.5484;
90.9000;0.5885;3.5774;
91.2000;0.5812;3.5642;
91.5000;0.5812;3.5695;
91.8000;0.5820;3.5721;
92.1000;0.5804;3.5642;
92.4000;0.5804;3.5669;
92.7000;0.5820;3.5748;
93.0000;0.5845;3.5827;
93.3000;0.5828;3.5748;
93.6000;0.5820;3.5774;
93.9000;0.5812;3.5827;
94.2000;0.5845;3.5933;
94.5000;0.5845;3.5933;
94.8000;0.5812;3.5906;
95.1000;0.5845;3.6012;
95.4000;0.5828;3.5959;
95.7000;0.5828;3.6064;
96.0000;0.5828;3.6117;
96.3000;0.5836;3.6117;
96.6000;0.5861;3.6144;
96.9000;0.5845;3.6091;
97.2000;0.5845;3.5959;
97.5000;0.5820;3.5853;
97.8000;0.5820;3.5695;
98.1000;0.5828;3.5590;
98.4000;0.5845;3.5510;
98.7000;0.5804;3.5458;
99.0000;0.5836;3.5458;
99.3000;0.5861;3.5537;
99.6000;0.5828;3.5431;
99.9000;0.5828;3.5431;
100.2000;0.5836;3.5537;
100.5000;0.5828;3.5537;
100.8000;0.5845;3.5484;
101.1000;0.5853;3.5616;
101.4000;0.5845;3.5695;
101.7000;0.5714;3.5352;
102.0000;0.5828;3.5721;
102.3000;0.5836;3.5748;
102.6000;0.5828;3.5748;
102.9000;0.5820;3.5642;
103.2000;0.5836;3.5642;
103.5000;0.5812;3.5721;
103.8000;0.5828;3.5721;
104.1000;0.5812;3.5616;
104.4000;0.5836;3.5695;
104.7000;0.5836;3.5721;
105.0000;0.5828;3.5748;
105.3000;0.5845;3.5853;
105.6000;0.5853;3.5880;
105.9000;0.5853;3.5853;
106.2000;0.5853;3.5827;
106.5000;0.5836;3.5774;
106.8000;0.5836;3.5853;
107.1000;0.5836;3.5827;
107.4000;0.5812;3.5721;
107.7000;0.5820;3.5669;
108.0000;0.5836;3.5748;
108.3000;0.5836;3.5774;
108.6000;0.5804;3.5748;
108.9000;0.5804;3.5774;
109.2000;0.5812;3.5906;
109.5000;0.5820;3.5959;
109.8000;0.5820;3.5906;
110.1000;0.5763;3.5801;
110.4000;0.5731;3.5801;
110.7000;0.5820;3.6064;
111.0000;0.5812;3.6091;
111.3000;0.5804;3.6064;
111.6000;0.5804;3.6117;
111.9000;0.5812;3.6144;
112.2000;0.5812;3.6223;
112.5000;0.5812;3.6196;
112.8000;0.5845;3.6223;
113.1000;0.5804;3.6117;
113.4000;0.5828;3.6091;
113.7000;0.5812;3.5985;
114.0000;0.5820;3.6091;
114.3000;0.5812;3.5985;
114.6000;0.5861;3.5906;
114.9000;0.5845;3.5801;
115.2000;0.5796;3.5642;
115.5000;0.5820;3.5721;
115.8000;0.5771;3.5590;
116.1000;0.5820;3.5721;
116.4000;0.5828;3.5801;
116.7000;0.5828;3.5827;
117.0000;0.5763;3.5616;
117.3000;0.5836;3.5774;
117.6000;0.5820;3.5642;
117.9000;0.5853;3.5721;
118.2000;0.5722;3.5247;
118.5000;0.5796;3.5458;
118.8000;0.5845;3.5616;
119.1000;0.5828;3.5590;
119.4000;0.5861;3.5695;
119.7000;0.5845;3.5695;
120.0000;0.5820;3.5642;
120.3000;0.5820;3.5616;
120.6000;0.5828;3.5642;
120.9000;0.5812;3.5590;
121.2000;0.5820;3.5616;
121.5000;0.5812;3.5642;
121.8000;0.5771;3.5616;
122.1000;0.5845;3.5853;
122.4000;0.5820;3.5880;
122.7000;0.5812;3.5880;
123.0000;0.5812;3.5853;
123.3000;0.5747;3.5563;
123.6000;0.5796;3.5669;
123.9000;0.5845;3.5669;
124.2000;0.5836;3.5590;
124.5000;0.5836;3.5510;
124.8000;0.5771;3.5326;
125.1000;0.5836;3.5431;
125.4000;0.5820;3.5352;
125.7000;0.5845;3.5405;
126.0000;0.5853;3.5431;
126.3000;0.5828;3.5379;
126.6000;0.5828;3.5458;
126.9000;0.5820;3.5379;
127.2000;0.5812;3.5458;
127.5000;0.5845;3.5590;
127.8000;0.5836;3.5510;
128.1000;0.5828;3.5458;
128.4000;0.5812;3.5405;
128.7000;0.5820;3.5510;
129.0000;0.5812;3.5695;
129.3000;0.5812;3.5827;
129.6000;0.5820;3.5827;
129.9000;0.5804;3.5801;
130.2000;0.5820;3.5853;
130.5000;0.5804;3.5748;
130.8000;0.5820;3.5774;
131.1000;0.5804;3.5801;
131.4000;0.5828;3.5880;
131.7000;0.5804;3.5959;
132.0000;0.5820;3.6064;
132.3000;0.5812;3.6012;
132.6000;0.5796;3.5959;
132.9000;0.5804;3.5959;
133.2000;0.5796;3.5933;
133.5000;0.5845;3.5959;
133.8000;0.5812;3.5906;
134.1000;0.5804;3.5853;
134.4000;0.5820;3.5880;
134.7000;0.5804;3.5827;
135.0000;0.5853;3.5906;
135.3000;0.5845;3.5827;
135.6000;0.5804;3.5774;
135.9000;0.5820;3.5774;
136.2000;0.5836;3.5748;
136.5000;0.5820;3.5748;
136.8000;0.5820;3.5748;
137.1000;0.5828;3.5695;
137.4000;0.5812;3.5642;
137.7000;0.5845;3.5721;
138.0000;0.5820;3.5827;
138.3000;0.5812;3.5669;
138.6000;0.5812;3.5669;
138.9000;0.5804;3.5669;
139.2000;0.5820;3.5669;
139.5000;0.5812;3.5563;
139.8000;0.5739;3.5352;
140.1000;0.5796;3.5510;
140.4000;0.5845;3.5590;
140.7000;0.5828;3.5537;
141.0000;0.5820;3.5537;
141.3000;0.5902;3.5801;
141.6000;0.5820;3.5642;
141.9000;0.5845;3.5721;
142.2000;0.5796;3.5484;
142.5000;0.5820;3.5563;
142.8000;0.5828;3.5537;
143.1000;0.5926;3.5853;
143.4000;0.5796;3.5537;
143.7000;0.5820;3.5669;
144.0000;0.5812;3.5695;
144.3000;0.5836;3.5748;
144.6000;0.5820;3.5748;
144.9000;0.5812;3.5669;
145.2000;0.5820;3.5695;
145.5000;0.5836;3.5774;
145.8000;0.5820;3.5695;
146.1000;0.5820;3.5695;
146.4000;0.5820;3.5669;
146.7000;0.5812;3.5721;
147.0000;0.5828;3.5906;
147.3000;0.5836;3.5985;
147.6000;0.5820;3.5906;
147.9000;0.5828;3.5880;
148.2000;0.5804;3.5827;
148.5000;0.5812;3.5906;
148.8000;0.5804;3.5906;
149.1000;0.5828;3.5959;
149.4000;0.5804;3.5880;
149.7000;0.5820;3.5959;
150.0000;0.5812;3.5906;
150.3000;0.5836;3.6064;
150.6000;0.5820;3.6064;
150.9000;0.5804;3.5959;
151.2000;0.5820;3.5985;
151.5000;0.5812;3.5985;
151.8000;0.5812;3.5933;
152.1000;0.5820;3.6064;
152.4000;0.5828;3.6117;
152.7000;0.5812;3.6038;
153.0000;0.5812;3.6038;
153.3000;0.5788;3.5959;
153.6000;0.5812;3.6012;
153.9000;0.5820;3.5906;
154.2000;0.5820;3.6012;
154.5000;0.5812;3.5959;
154.8000;0.5812;3.5959;
155.1000;0.5812;3.5959;
155.4000;0.5788;3.5906;
155.7000;0.5820;3.5959;
156.0000;0.5812;3.5853;
156.3000;0.5950;3.6196;
156.6000;0.5788;3.5774;
156.9000;0.5796;3.5801;
157.2000;0.5828;3.5827;
157.5000;0.5820;3.5880;
157.8000;0.5812;3.5880;
158.1000;0.5828;3.5906;
158.4000;0.5828;3.5933;
158.7000;0.5812;3.5933;
159.0000;0.5828;3.5959;
159.3000;0.5820;3.5906;
159.6000;0.5845;3.6012;
159.9000;0.5804;3.5880;
160.2000;0.5788;3.5827;
160.5000;0.5820;3.5853;
160.8000;0.5812;3.5774;
161.1000;0.5828;3.5721;
161.4000;0.5845;3.5801;
161.7000;0.5820;3.5748;
162.0000;0.5836;3.5801;
162.3000;0.5804;3.5669;
162.6000;0.5828;3.5642;
162.9000;0.5804;3.5563;
163.2000;0.5828;3.5642;
163.5000;0.5845;3.5563;
163.8000;0.5820;3.5537;
164.1000;0.5836;3.5642;
164.4000;0.5820;3.5669;
164.7000;0.5836;3.5669;
165.0000;0.5820;3.5669;
165.3000;0.5861;3.5774;
165.6000;0.5812;3.5721;
165.9000;0.5836;3.5642;
166.2000;0.5820;3.5642;
166.5000;0.5828;3.5642;
166.8000;0.5820;3.5695;
167.1000;0.5828;3.5748;
167.4000;0.5812;3.5695;
167.7000;0.5796;3.5721;
168.0000;0.5804;3.5748;
168.3000;0.5812;3.5695;
168.6000;0.5828;3.5801;
168.9000;0.5812;3.5801;
169.2000;0.5788;3.5801;
169.5000;0.5796;3.5959;
169.8000;0.5796;3.5933;
170.1000;0.5796;3.5880;
170.4000;0.5771;3.5933;
170.7000;0.5804;3.5985;
171.0000;0.5820;3.6064;
171.3000;0.5796;3.6144;
171.6000;0.5788;3.6302;
171.9000;0.5804;3.6223;
172.2000;0.5812;3.6275;
172.5000;0.5804;3.6275;
172.8000;0.5804;3.6170;
173.1000;0.5820;3.6117;
173.4000;0.5828;3.6170;
173.7000;0.5820;3.6012;
174.0000;0.5804;3.5985;
174.3000;0.5820;3.5985;
174.6000;0.5812;3.6012;
174.9000;0.5804;3.6012;
175.2000;0.5812;3.6064;
175.5000;0.5804;3.6091;
175.8000;0.5828;3.6144;
176.1000;0.5820;3.6091;
176.4000;0.5820;3.6144;
176.7000;0.5804;3.6170;
177.0000;0.5828;3.6170;
177.3000;0.5828;3.6064;
177.6000;0.5820;3.5959;
177.9000;0.5812;3.5880;
178.2000;0.5828;3.5853;
178.5000;0.5828;3.5774;
178.8000;0.5820;3.5748;
179.1000;0.5812;3.5774;
179.4000;0.5804;3.5801;
179.7000;0.5812;3.5827;
180.0000;0.5885;3.6091;
180.3000;0.5853;3.5933;
180.6000;0.5804;3.5853;
180.9000;0.5804;3.5721;
181.2000;0.5828;3.5748;
181.5000;0.5820;3.5616;
181.8000;0.5845;3.5616;
182.1000;0.5820;3.5537;
182.4000;0.5828;3.5695;
182.7000;0.5836;3.5695;
183.0000;0.5820;3.5563;
183.3000;0.5812;3.5563;
183.6000;0.5926;3.5906;
183.9000;0.5820;3.5642;
184.2000;0.5820;3.5669;
184.5000;0.5812;3.5721;
184.8000;0.5804;3.5695;
185.1000;0.5804;3.5695;
185.4000;0.5796;3.5616;
185.7000;0.5788;3.5642;
186.0000;0.5804;3.5563;
186.3000;0.5812;3.5616;
186.6000;0.5804;3.5616;
186.9000;0.5812;3.5642;
187.2000;0.5820;3.5748;
187.5000;0.5812;3.5748;
187.8000;0.5820;3.5801;
188.1000;0.5698;3.5484;
188.4000;0.5820;3.5906;
188.7000;0.5828;3.5906;
189.0000;0.5796;3.5853;
189.3000;0.5812;3.6038;
189.6000;0.5804;3.6117;
189.9000;0.5804;3.6170;
190.2000;0.5820;3.6091;
190.5000;0.5796;3.6012;
190.8000;0.5796;3.6091;
191.1000;0.5739;3.6064;
191.4000;0.5796;3.6223;
191.7000;0.5788;3.6302;
192.0000;0.5788;3.6249;
192.3000;0.5788;3.6249;
192.6000;0.5788;3.6196;
192.9000;0.5722;3.5880;
193.2000;0.5796;3.5959;
193.5000;0.5804;3.6038;
193.8000;0.5804;3.6064;
194.1000;0.5804;3.6038;
194.4000;0.5812;3.5959;
194.7000;0.5796;3.5906;
195.0000;0.5804;3.5933;
195.3000;0.5812;3.5985;
195.6000;0.5796;3.5880;
195.9000;0.5763;3.5748;
196.2000;0.5804;3.5853;
196.5000;0.5820;3.5748;
196.8000;0.5796;3.5695;
197.1000;0.5804;3.5801;
197.4000;0.5828;3.5880;
197.7000;0.5812;3.5774;
198.0000;0.5812;3.5669;
198.3000;0.5828;3.5616;
198.6000;0.5812;3.5537;
198.9000;0.5820;3.5590;
199.2000;0.5796;3.5484;
199.5000;0.5828;3.5616;
199.8000;0.5820;3.5616;
200.1000;0.5820;3.5695;
200.4000;0.5820;3.5669;
200.7000;0.5828;3.5642;
201.0000;0.5861;3.5774;
201.3000;0.5804;3.5590;
201.6000;0.5820;3.5695;
201.9000;0.5820;3.5669;
202.2000;0.5779;3.5590;
202.5000;0.5812;3.5669;
202.8000;0.5836;3.5721;
203.1000;0.5820;3.5801;
203.4000;0.5796;3.5721;
203.7000;0.5836;3.5774;
204.0000;0.5828;3.5721;
204.3000;0.5861;3.5774;
204.6000;0.5804;3.5616;
204.9000;0.5812;3.5563;
205.2000;0.5836;3.5642;
205.5000;0.5812;3.5721;
205.8000;0.5755;3.5669;
206.1000;0.5861;3.5959;
206.4000;0.5812;3.5959;
206.7000;0.5812;3.6012;
207.0000;0.5788;3.5906;
207.3000;0.5804;3.5933;
207.6000;0.5771;3.5774;
207.9000;0.5812;3.5880;
208.2000;0.5812;3.5880;
208.5000;0.5812;3.5880;
208.8000;0.5812;3.5880;
209.1000;0.5828;3.5959;
209.4000;0.5828;3.5985;
209.7000;0.5812;3.5853;
210.0000;0.5796;3.5853;
210.3000;0.5804;3.5906;
210.6000;0.5804;3.5959;
210.9000;0.5788;3.5880;
211.2000;0.5796;3.5933;
211.5000;0.5779;3.5906;
211.8000;0.5796;3.5959;
212.1000;0.5788;3.5985;
212.4000;0.5796;3.6012;
212.7000;0.5804;3.6012;
213.0000;0.5812;3.5985;
213.3000;0.5804;3.5959;
213.6000;0.5771;3.5853;
213.9000;0.5804;3.5906;
214.2000;0.5853;3.5985;
214.5000;0.5804;3.5827;
214.8000;0.5804;3.5853;
215.1000;0.5804;3.5774;
215.4000;0.5845;3.5906;
215.7000;0.5788;3.5695;
216.0000;0.5836;3.5774;
216.3000;0.5796;3.5590;
216.6000;0.5804;3.5537;
216.9000;0.5820;3.5695;
217.2000;0.5788;3.5642;
217.5000;0.5804;3.5669;
217.8000;0.5893;3.5853;
218.1000;0.5804;3.5537;
218.4000;0.5812;3.5510;
218.7000;0.5796;3.5484;
219.0000;0.5812;3.5484;
219.3000;0.5812;3.5590;
219.6000;0.5788;3.5484;
219.9000;0.5812;3.5458;
220.2000;0.5804;3.5458;
220.5000;0.5804;3.5431;
220.8000;0.5812;3.5458;
221.1000;0.5812;3.5537;
221.4000;0.5820;3.5563;
221.7000;0.5804;3.5590;
222.0000;0.5828;3.5590;
222.3000;0.5812;3.5590;
222.6000;0.5796;3.5563;
222.9000;0.5804;3.5616;
223.2000;0.5820;3.5669;
223.5000;0.5796;3.5563;
223.8000;0.5820;3.5590;
224.1000;0.5812;3.5590;
224.4000;0.5820;3.5590;
224.7000;0.5820;3.5642;
225.0000;0.5812;3.5642;
225.3000;0.5812;3.5590;
225.6000;0.5828;3.5590;
225.9000;0.5796;3.5563;
226.2000;0.5796;3.5616;
226.5000;0.5812;3.5669;
226.8000;0.5812;3.5721;
227.1000;0.5788;3.5695;
227.4000;0.5812;3.5721;
227.7000;0.5788;3.5616;
228.0000;0.5812;3.5721;
228.3000;0.5812;3.5906;
228.6000;0.5771;3.5827;
228.9000;0.5779;3.5853;
229.2000;0.5804;3.5880;
229.5000;0.5804;3.5906;
229.8000;0.5804;3.5827;
230.1000;0.5788;3.5774;
230.4000;0.5910;3.6196;
230.7000;0.5804;3.5906;
231.0000;0.5812;3.5933;
231.3000;0.5804;3.5933;
231.6000;0.5779;3.5906;
231.9000;0.5804;3.6064;
232.2000;0.5820;3.6038;
232.5000;0.5828;3.6012;
232.8000;0.5812;3.5880;
233.1000;0.5812;3.5827;
233.4000;0.5788;3.5827;
233.7000;0.5812;3.5880;
234.0000;0.5796;3.5774;
234.3000;0.5771;3.5801;
234.6000;0.5836;3.5853;
234.9000;0.5804;3.5774;
235.2000;0.5812;3.5774;
235.5000;0.5804;3.5748;
235.8000;0.5796;3.5721;
236.1000;0.5788;3.5721;
236.4000;0.5788;3.5721;
236.7000;0.5788;3.5748;
237.0000;0.5804;3.5801;
237.3000;0.5698;3.5458;
237.6000;0.5812;3.5695;
237.9000;0.5763;3.5510;
238.2000;0.5788;3.5484;
238.5000;0.5796;3.5537;
238.8000;0.5804;3.5510;
239.1000;0.5804;3.5484;
239.4000;0.5845;3.5510;
239.7000;0.5845;3.5590;
240.0000;0.5804;3.5510;
240.3000;0.5820;3.5537;
240.6000;0.5812;3.5537;
240.9000;0.5755;3.5405;
241.2000;0.5820;3.5590;
241.5000;0.5804;3.5563;
241.8000;0.5820;3.5695;
242.1000;0.5836;3.5774;
242.4000;0.5804;3.5642;
242.7000;0.5804;3.5642;
243.0000;0.5804;3.5669;
243.3000;0.5820;3.5669;
243.6000;0.5836;3.5827;
243.9000;0.5820;3.5827;
244.2000;0.5804;3.5774;
244.5000;0.5828;3.5748;
244.8000;0.5820;3.5721;
245.1000;0.5812;3.5695;
245.4000;0.5820;3.5616;
245.7000;0.5804;3.5563;
246.0000;0.5812;3.5695;
246.3000;0.5812;3.5748;
246.6000;0.5812;3.5748;
246.9000;0.5804;3.5748;
247.2000;0.5796;3.5721;
247.5000;0.5812;3.5695;
247.8000;0.5788;3.5695;
248.1000;0.5804;3.5774;
248.4000;0.5804;3.5695;
248.7000;0.5779;3.5695;
249.0000;0.5788;3.5774;
249.3000;0.5820;3.5906;
249.6000;0.5788;3.5906;
249.9000;0.5796;3.5906;
250.2000;0.5869;3.6117;
250.5000;0.5788;3.5959;
250.8000;0.5788;3.5933;
251.1000;0.5779;3.5906;
251.4000;0.5812;3.5959;
251.7000;0.5771;3.5774;
252.0000;0.5788;3.5853;
252.3000;0.5788;3.5827;
252.6000;0.5836;3.5985;
252.9000;0.5796;3.5853;
253.2000;0.5893;3.6196;
253.5000;0.5796;3.5959;
253.8000;0.5771;3.5933;
254.1000;0.5804;3.6091;
254.4000;0.5788;3.6038;
254.7000;0.5812;3.6064;
255.0000;0.5820;3.6091;
255.3000;0.5812;3.5985;
255.6000;0.5812;3.5906;
255.9000;0.5812;3.5906;
256.2000;0.5828;3.5933;
256.5000;0.5812;3.5774;
256.8000;0.5747;3.5616;
257.1000;0.5804;3.5774;
257.4000;0.5796;3.5748;
257.7000;0.5804;3.5827;
258.0000;0.5804;3.5801;
258.3000;0.5820;3.5748;
258.6000;0.5796;3.5774;
258.9000;0.5812;3.5906;
259.2000;0.5812;3.5933;
259.5000;0.5820;3.5906;
259.8000;0.5796;3.5880;
260.1000;0.5804;3.5880;
260.4000;0.5820;3.5880;
260.7000;0.5812;3.5774;
261.0000;0.5812;3.5721;
261.3000;0.5812;3.5695;
261.6000;0.5796;3.5748;
261.9000;0.5812;3.5721;
262.2000;0.5763;3.5590;
262.5000;0.5804;3.5748;
262.8000;0.5804;3.5853;
263.1000;0.5804;3.5827;
263.4000;0.5796;3.5748;
263.7000;0.5796;3.5801;
264.0000;0.5804;3.5801;
264.3000;0.5820;3.5801;
264.6000;0.5804;3.5695;
264.9000;0.5796;3.5695;
265.2000;0.5869;3.5880;
265.5000;0.5812;3.5853;
265.8000;0.5812;3.5853;
266.1000;0.5796;3.5827;
266.4000;0.5796;3.5827;
266.7000;0.5804;3.5853;
267.0000;0.5804;3.5880;
267.3000;0.5804;3.5933;
267.6000;0.5812;3.5959;
267.9000;0.5796;3.5933;
268.2000;0.5820;3.6038;
268.5000;0.5812;3.6038;
268.8000;0.5796;3.6144;
269.1000;0.5796;3.6196;
269.4000;0.5771;3.6196;
269.7000;0.5788;3.6249;
270.0000;0.5796;3.6196;
270.3000;0.5796;3.6223;
270.6000;0.5804;3.6249;
270.9000;0.5788;3.6275;
271.2000;0.5812;3.6223;
271.5000;0.5796;3.6223;
271.8000;0.5812;3.6223;
272.1000;0.5771;3.6091;
272.4000;0.5771;3.6064;
272.7000;0.5788;3.6091;
273.0000;0.5820;3.6196;
273.3000;0.5755;3.5985;
273.6000;0.5779;3.5985;
273.9000;0.5779;3.5880;
274.2000;0.5771;3.5880;
274.5000;0.5779;3.5880;
274.8000;0.5796;3.5933;
275.1000;0.5788;3.5906;
275.4000;0.5763;3.5774;
275.7000;0.5820;3.5933;
276.0000;0.5796;3.5880;
276.3000;0.5706;3.5616;
276.6000;0.5739;3.5721;
276.9000;0.5820;3.5959;
277.2000;0.5796;3.5801;
277.5000;0.5812;3.5827;
277.8000;0.5788;3.5853;
278.1000;0.5763;3.5748;
278.4000;0.5804;3.5827;
278.7000;0.5828;3.5853;
279.0000;0.5796;3.5721;
279.3000;0.5755;3.5537;
279.6000;0.5796;3.5537;
279.9000;0.5804;3.5642;
280.2000;0.5804;3.5721;
280.5000;0.5796;3.5721;
280.8000;0.5828;3.5801;
281.1000;0.5812;3.5695;
281.4000;0.5812;3.5748;
281.7000;0.5812;3.5669;
282.0000;0.5820;3.5721;
282.3000;0.5796;3.5642;
282.6000;0.5771;3.5590;
282.9000;0.5788;3.5721;
283.2000;0.5804;3.5748;
283.5000;0.5812;3.5801;
283.8000;0.5788;3.5748;
284.1000;0.5853;3.5880;
284.4000;0.5804;3.5827;
284.7000;0.5812;3.5774;
285.0000;0.5804;3.5721;
285.3000;0.5812;3.5774;
285.6000;0.5812;3.5748;
285.9000;0.5804;3.5748;
286.2000;0.5812;3.5748;
286.5000;0.5820;3.5906;
286.8000;0.5812;3.5933;
287.1000;0.5804;3.5985;
287.4000;0.5779;3.5959;
287.7000;0.5788;3.6038;
288.0000;0.5845;3.6170;
288.3000;0.5812;3.6223;
288.6000;0.5804;3.6144;
288.9000;0.5788;3.6064;
289.2000;0.5788;3.6144;
289.5000;0.5796;3.6170;
289.8000;0.5788;3.6170;
290.1000;0.5845;3.6407;
290.4000;0.5788;3.6355;
290.7000;0.5812;3.6328;
291.0000;0.5788;3.6275;
291.3000;0.5796;3.6302;
291.6000;0.5804;3.6249;
291.9000;0.5771;3.6196;
292.2000;0.5804;3.6170;
292.5000;0.5812;3.6144;
292.8000;0.5812;3.6196;
293.1000;0.5796;3.6064;
293.4000;0.5804;3.6038;
293.7000;0.5771;3.5985;
294.0000;0.5779;3.5985;
294.3000;0.5812;3.6038;
294.6000;0.5779;3.5906;
294.9000;0.5779;3.6038;
295.2000;0.5796;3.6064;
295.5000;0.5804;3.6064;
295.8000;0.5779;3.6012;
296.1000;0.5779;3.5853;
296.4000;0.5788;3.5853;
296.7000;0.5828;3.5880;
297.0000;0.5796;3.5906;
297.3000;0.5763;3.5801;
297.6000;0.5812;3.5933;
297.9000;0.5788;3.5827;
298.2000;0.5779;3.5827;
298.5000;0.5828;3.5933;
298.8000;0.5910;3.5959;
299.1000;0.5926;3.5933;
299.4000;0.5788;3.5537;
299.7000;0.5796;3.5484;
300.0000;0.5779;3.5431;
300.3000;0.5836;3.5590;
300.6000;0.5755;3.5458;
300.9000;0.5812;3.5669;
301.2000;0.5812;3.5695;
301.5000;0.5796;3.5669;
301.8000;0.5885;3.5880;
302.1000;0.5804;3.5721;
302.4000;0.5812;3.5748;
302.7000;0.5836;3.5853;
303.0000;0.5812;3.5827;
303.3000;0.5812;3.5853;
303.6000;0.5747;3.5801;
303.9000;0.5755;3.5774;
304.2000;0.5796;3.5827;
304.5000;0.5796;3.5721;
304.8000;0.5796;3.5695;
305.1000;0.5763;3.5616;
305.4000;0.5812;3.5801;
305.7000;0.5779;3.5695;
306.0000;0.5779;3.5669;
306.3000;0.5796;3.5774;
306.6000;0.5804;3.5827;
306.9000;0.5796;3.5801;
307.2000;0.5820;3.5853;
307.5000;0.5796;3.5853;
307.8000;0.5788;3.5853;
308.1000;0.5804;3.5959;
308.4000;0.5804;3.6038;
308.7000;0.5788;3.5959;
309.0000;0.5779;3.6064;
309.3000;0.5796;3.6144;
309.6000;0.5796;3.6275;
309.9000;0.5779;3.6328;
310.2000;0.5804;3.6302;
310.5000;0.5796;3.6170;
310.8000;0.5796;3.6038;
311.1000;0.5788;3.6064;
311.4000;0.5796;3.6038;
311.7000;0.5779;3.5959;
312.0000;0.5788;3.5880;
312.3000;0.5788;3.5985;
312.6000;0.5779;3.6012;
312.9000;0.5796;3.6064;
313.2000;0.5804;3.6064;
313.5000;0.5788;3.5985;
313.8000;0.5796;3.5959;
314.1000;0.5731;3.5801;
314.4000;0.5804;3.5985;
314.7000;0.5796;3.6012;
315.0000;0.5804;3.5959;
315.3000;0.5804;3.5985;
315.6000;0.5796;3.6064;
315.9000;0.5788;3.6064;
316.2000;0.5804;3.6091;
316.5000;0.5804;3.6117;
316.8000;0.5804;3.6064;
317.1000;0.5796;3.6012;
317.4000;0.5788;3.6012;
317.7000;0.5796;3.6012;
318.0000;0.5796;3.6064;
318.3000;0.5796;3.5985;
318.6000;0.5796;3.6012;
318.9000;0.5788;3.6038;
319.2000;0.5796;3.5959;
319.5000;0.5796;3.5959;
319.8000;0.5788;3.5801;
320.1000;0.5788;3.5801;
320.4000;0.5788;3.5801;
320.7000;0.5820;3.5906;
321.0000;0.5788;3.5853;
321.3000;0.5804;3.5880;
321.6000;0.5788;3.5827;
321.9000;0.5804;3.5748;
322.2000;0.5812;3.5642;
322.5000;0.5771;3.5590;
322.8000;0.5869;3.5801;
323.1000;0.5869;3.5853;
323.4000;0.5804;3.5669;
323.7000;0.5853;3.5774;
324.0000;0.5788;3.5510;
324.3000;0.5804;3.5537;
324.6000;0.5877;3.5748;
324.9000;0.5820;3.5642;
325.2000;0.5804;3.5721;
325.5000;0.5812;3.5774;
325.8000;0.5796;3.5748;
326.1000;0.5804;3.5774;
326.4000;0.5804;3.5669;
326.7000;0.5796;3.5748;
327.0000;0.5796;3.5827;
327.3000;0.5804;3.5853;
327.6000;0.5796;3.5827;
327.9000;0.5853;3.6038;
328.2000;0.5779;3.5959;
328.5000;0.5836;3.6144;
328.8000;0.5788;3.5985;
329.1000;0.5779;3.5959;
329.4000;0.5788;3.5985;
329.7000;0.5779;3.5959;
330.0000;0.5779;3.5985;
330.3000;0.5788;3.6064;
330.6000;0.5796;3.6144;
330.9000;0.5779;3.6064;
331.2000;0.5788;3.6249;
331.5000;0.5788;3.6328;
331.8000;0.5796;3.6328;
332.1000;0.5796;3.6275;
332.4000;0.5763;3.6117;
332.7000;0.5771;3.6170;
333.0000;0.5779;3.6196;
333.3000;0.5779;3.6117;
333.6000;0.5779;3.6091;
333.9000;0.5771;3.6144;
334.2000;0.5771;3.6117;
334.5000;0.5788;3.6117;
334.8000;0.5788;3.6012;
335.1000;0.5771;3.6064;
335.4000;0.5796;3.6064;
335.7000;0.5788;3.5959;
336.0000;0.5796;3.5933;
336.3000;0.5788;3.5985;
336.6000;0.5788;3.6038;
336.9000;0.5812;3.6012;
337.2000;0.5779;3.5880;
337.5000;0.5796;3.5853;
337.8000;0.5804;3.5721;
338.1000;0.5788;3.5616;
338.4000;0.5812;3.5827;
338.7000;0.5804;3.5774;
339.0000;0.5796;3.5748;
339.3000;0.5845;3.5827;
339.6000;0.5796;3.5695;
339.9000;0.5804;3.5748;
340.2000;0.5804;3.5695;
340.5000;0.5796;3.5669;
340.8000;0.5804;3.5748;
341.1000;0.5771;3.5590;
341.4000;0.5788;3.5563;
341.7000;0.5779;3.5616;
342.0000;0.5804;3.5721;
342.3000;0.5804;3.5774;
342.6000;0.5788;3.5774;
342.9000;0.5796;3.5801;
343.2000;0.5804;3.5853;
343.5000;0.5779;3.5906;
343.8000;0.5796;3.5985;
344.1000;0.5796;3.5959;
344.4000;0.5804;3.5853;
344.7000;0.5804;3.5827;
345.0000;0.5820;3.5933;
345.3000;0.5796;3.5906;
345.6000;0.5739;3.5642;
345.9000;0.5796;3.5880;
346.2000;0.5796;3.5880;
346.5000;0.5828;3.5906;
346.8000;0.5779;3.5748;
347.1000;0.5731;3.5510;
347.4000;0.5706;3.5484;
347.7000;0.5796;3.5827;
348.0000;0.5779;3.5853;
348.3000;0.5788;3.5880;
348.6000;0.5747;3.5748;
348.9000;0.5788;3.5933;
349.2000;0.5796;3.6012;
349.5000;0.5771;3.5985;
349.8000;0.5804;3.6117;
350.1000;0.5804;3.6223;
350.4000;0.5796;3.6381;
350.7000;0.5796;3.6355;
351.0000;0.5763;3.6275;
351.3000;0.5828;3.6513;
351.6000;0.5788;3.6381;
351.9000;0.5779;3.6407;
352.2000;0.5779;3.6381;
352.5000;0.5788;3.6355;
352.8000;0.5796;3.6302;
353.1000;0.5804;3.6328;
353.4000;0.5779;3.6170;
353.7000;0.5804;3.6223;
354.0000;0.5779;3.6196;
354.3000;0.5788;3.6249;
354.6000;0.5779;3.6223;
354.9000;0.5836;3.6302;
355.2000;0.5796;3.6117;
355.5000;0.5788;3.6117;
355.8000;0.5779;3.6038;
356.1000;0.5788;3.6064;
356.4000;0.5812;3.6091;
356.7000;0.5779;3.5985;
357.0000;0.5804;3.6091;
357.3000;0.5804;3.6144;
357.6000;0.5820;3.6117;
357.9000;0.5804;3.6038;
358.2000;0.5804;3.6012;
358.5000;0.5812;3.6038;
358.8000;0.5812;3.6038;
359.1000;0.5779;3.5906;
359.4000;0.5796;3.5933;
359.7000;0.5788;3.5933;
360.0000;0.5804;3.5959;
360.3000;0.5788;3.5933;
360.6000;0.5796;3.5959;
360.9000;0.5771;3.5853;
361.2000;0.5885;3.6064;
361.5000;0.5779;3.5906;
361.8000;0.5796;3.5933;
362.1000;0.5714;3.5642;
362.4000;0.5788;3.5933;
362.7000;0.5812;3.5933;
363.0000;0.5804;3.5906;
363.3000;0.5755;3.5669;
363.6000;0.5812;3.5827;
363.9000;0.5804;3.5774;
364.2000;0.5796;3.5774;
364.5000;0.5796;3.5853;
364.8000;0.5779;3.5748;
365.1000;0.5796;3.5774;
365.4000;0.5771;3.5827;
365.7000;0.5779;3.5827;
366.0000;0.5779;3.5853;
366.3000;0.5804;3.5880;
366.6000;0.5796;3.5801;
366.9000;0.5796;3.5880;
367.2000;0.5779;3.5906;
367.5000;0.5804;3.5880;
367.8000;0.5779;3.5853;
368.1000;0.5779;3.5880;
368.4000;0.5771;3.5853;
368.7000;0.5796;3.5933;
369.0000;0.5788;3.5906;
369.3000;0.5788;3.5985;
369.6000;0.5820;3.6144;
369.9000;0.5796;3.6144;
370.2000;0.5836;3.6355;
370.5000;0.5804;3.6249;
370.8000;0.5771;3.6170;
371.1000;0.5910;3.6645;
371.4000;0.5836;3.6407;
371.7000;0.5788;3.6275;
372.0000;0.5755;3.6249;
372.3000;0.5755;3.6275;
372.6000;0.5722;3.6091;
372.9000;0.5788;3.6302;
373.2000;0.5804;3.6328;
373.5000;0.5771;3.6196;
373.8000;0.5796;3.6196;
374.1000;0.5779;3.6117;
374.4000;0.5804;3.6091;
374.7000;0.5779;3.6064;
375.0000;0.5788;3.6064;
375.3000;0.5796;3.6117;
375.6000;0.5804;3.6144;
375.9000;0.5796;3.6117;
376.2000;0.5796;3.6117;
376.5000;0.5796;3.6091;
376.8000;0.5804;3.6091;
377.1000;0.5796;3.6038;
377.4000;0.5771;3.6038;
377.7000;0.5779;3.5985;
378.0000;0.5788;3.5906;
378.3000;0.5796;3.5880;
378.6000;0.5804;3.5933;
378.9000;0.5796;3.5959;
379.2000;0.5788;3.5906;
379.5000;0.5796;3.5801;
379.8000;0.5796;3.5801;
380.1000;0.5788;3.5669;
380.4000;0.5804;3.5774;
380.7000;0.5788;3.5669;
381.0000;0.5804;3.5695;
381.3000;0.5779;3.5590;
381.6000;0.5796;3.5616;
381.9000;0.5796;3.5748;
382.2000;0.5804;3.5853;
382.5000;0.5796;3.5774;
382.8000;0.5804;3.5695;
383.1000;0.5820;3.5774;
383.4000;0.5804;3.5695;
383.7000;0.5755;3.5590;
384.0000;0.5804;3.5721;
384.3000;0.5796;3.5801;
384.6000;0.5788;3.5827;
384.9000;0.5788;3.5853;
385.2000;0.5763;3.5827;
385.5000;0.5788;3.5801;
385.8000;0.5796;3.5721;
386.1000;0.5788;3.5827;
386.4000;0.5788;3.5801;
386.7000;0.5771;3.5827;
387.0000;0.5804;3.5853;
387.3000;0.5828;3.5906;
387.6000;0.5788;3.5774;
387.9000;0.5796;3.5880;
388.2000;0.5788;3.5933;
388.5000;0.5796;3.5906;
388.8000;0.5771;3.5906;
389.1000;0.5788;3.6012;
389.4000;0.5796;3.6091;
389.7000;0.5788;3.6064;
390.0000;0.5771;3.6012;
390.3000;0.5779;3.6038;
390.6000;0.5763;3.5985;
390.9000;0.5788;3.5959;
391.2000;0.5763;3.6038;
391.5000;0.5788;3.6117;
391.8000;0.5796;3.6170;
392.1000;0.5845;3.6302;
392.4000;0.5804;3.6302;
392.7000;0.5779;3.6302;
393.0000;0.5788;3.6302;
393.3000;0.5771;3.6275;
393.6000;0.5674;3.5959;
393.9000;0.5788;3.6302;
394.2000;0.5779;3.6196;
394.5000;0.5788;3.6144;
394.8000;0.5763;3.6091;
395.1000;0.5796;3.6064;
395.4000;0.5771;3.5985;
395.7000;0.5918;3.6381;
396.0000;0.5788;3.5985;
396.3000;0.5796;3.5959;
396.6000;0.5796;3.6038;
396.9000;0.5779;3.6038;
397.2000;0.5796;3.6012;
397.5000;0.5796;3.6038;
397.8000;0.5771;3.5933;
398.1000;0.5796;3.5959;
398.4000;0.5779;3.5906;
398.7000;0.5779;3.5906;
399.0000;0.5771;3.5880;
399.3000;0.5804;3.5906;
399.6000;0.5779;3.5880;
399.9000;0.5836;3.5959;
400.2000;0.5771;3.5642;
400.5000;0.5771;3.5484;
400.8000;0.5771;3.5537;
401.1000;0.5779;3.5563;
401.4000;0.5747;3.5484;
401.7000;0.5796;3.5642;
402.0000;0.5869;3.5906;
402.3000;0.5788;3.5721;
402.6000;0.5788;3.5748;
402.9000;0.5779;3.5774;
403.2000;0.5779;3.5801;
403.5000;0.5804;3.5880;
403.8000;0.5804;3.5906;
404.1000;0.5788;3.5774;
404.4000;0.5779;3.5721;
404.7000;0.5788;3.5642;
405.0000;0.5788;3.5590;
405.3000;0.5796;3.5669;
405.6000;0.5771;3.5537;
405.9000;0.5804;3.5774;
406.2000;0.5796;3.5695;
406.5000;0.5788;3.5669;
406.8000;0.5788;3.5695;
407.1000;0.5771;3.5827;
407.4000;0.5788;3.5959;
407.7000;0.5739;3.5933;
408.0000;0.5771;3.6012;
408.3000;0.5796;3.6012;
408.6000;0.5755;3.5801;
408.9000;0.5739;3.5669;
409.2000;0.5739;3.5669;
409.5000;0.5804;3.5880;
409.8000;0.5779;3.5774;
410.1000;0.5779;3.5827;
410.4000;0.5788;3.5933;
410.7000;0.5902;3.6302;
411.0000;0.5763;3.6012;
411.3000;0.5779;3.6091;
411.6000;0.5788;3.6038;
411.9000;0.5763;3.6012;
412.2000;0.5771;3.6038;
412.5000;0.5788;3.6038;
412.8000;0.5763;3.5933;
413.1000;0.5845;3.6170;
413.4000;0.5763;3.5933;
413.7000;0.5779;3.5933;
414.0000;0.5779;3.5959;
414.3000;0.5771;3.5853;
414.6000;0.5779;3.5906;
414.9000;0.5779;3.5906;
415.2000;0.5788;3.5959;
415.5000;0.5771;3.5933;
415.8000;0.5755;3.5853;
416.1000;0.5796;3.5853;
416.4000;0.5763;3.5721;
416.7000;0.5771;3.5721;
417.0000;0.5779;3.5669;
417.3000;0.5771;3.5721;
417.6000;0.5812;3.5721;
417.9000;0.5779;3.5563;
418.2000;0.5779;3.5590;
418.5000;0.5788;3.5563;
418.8000;0.5804;3.5642;
419.1000;0.5796;3.5590;
419.4000;0.5812;3.5563;
419.7000;0.5739;3.5484;
420.0000;0.5804;3.5616;
420.3000;0.5804;3.5721;
420.6000;0.5836;3.5695;
420.9000;0.5796;3.5642;
421.2000;0.5804;3.5642;
421.5000;0.5747;3.5563;
421.8000;0.5788;3.5642;
422.1000;0.5788;3.5616;
422.4000;0.5804;3.5669;
422.7000;0.5804;3.5721;
423.0000;0.5788;3.5669;
423.3000;0.5788;3.5484;
423.6000;0.5812;3.5590;
423.9000;0.5788;3.5458;
424.2000;0.5812;3.5510;
424.5000;0.5796;3.5510;
424.8000;0.5779;3.5510;
425.1000;0.5779;3.5431;
425.4000;0.5788;3.5484;
425.7000;0.5788;3.5431;
426.0000;0.5779;3.5431;
426.3000;0.5788;3.5537;
426.6000;0.5771;3.5431;
426.9000;0.5796;3.5510;
427.2000;0.5788;3.5484;
427.5000;0.5690;3.5167;
427.8000;0.5788;3.5484;
428.1000;0.5788;3.5537;
428.4000;0.5755;3.5563;
428.7000;0.5763;3.5616;
429.0000;0.5788;3.5748;
429.3000;0.5796;3.5721;
429.6000;0.5771;3.5801;
429.9000;0.5722;3.5721;
430.2000;0.5796;3.5748;
430.5000;0.5788;3.5748;
430.8000;0.5771;3.5721;
431.1000;0.5779;3.5801;
431.4000;0.5771;3.5933;
431.7000;0.5763;3.5933;
432.0000;0.5755;3.5801;
432.3000;0.5771;3.5827;
432.6000;0.5771;3.5774;
432.9000;0.5763;3.5853;
433.2000;0.5771;3.5985;
433.5000;0.5763;3.5933;
433.8000;0.5771;3.5959;
434.1000;0.5779;3.5959;
434.4000;0.5771;3.6012;
434.7000;0.5739;3.5933;
435.0000;0.5771;3.6038;
435.3000;0.5788;3.6117;
435.6000;0.5796;3.6170;
435.9000;0.5812;3.6196;
436.2000;0.5796;3.6144;
436.5000;0.5804;3.6064;
436.8000;0.5788;3.5959;
437.1000;0.5788;3.5959;
437.4000;0.5812;3.5906;
437.7000;0.5788;3.5827;
438.0000;0.5796;3.5933;
438.3000;0.5771;3.5774;
438.6000;0.5788;3.5801;
438.9000;0.5788;3.5827;
439.2000;0.5796;3.5748;
439.5000;0.5812;3.5748;
439.8000;0.5771;3.5669;
440.1000;0.5796;3.5669;
440.4000;0.5796;3.5721;
440.7000;0.5812;3.5801;
441.0000;0.5796;3.5721;
441.3000;0.5779;3.5774;
441.6000;0.5788;3.5721;
441.9000;0.5820;3.5774;
442.2000;0.5788;3.5721;
442.5000;0.5804;3.5642;
442.8000;0.5804;3.5642;
443.1000;0.5836;3.5748;
443.4000;0.5877;3.5827;
443.7000;0.5788;3.5563;
444.0000;0.5771;3.5537;
444.3000;0.5796;3.5669;
444.6000;0.5853;3.5827;
444.9000;0.5804;3.5590;
445.2000;0.5788;3.5484;
445.5000;0.5836;3.5695;
445.8000;0.5812;3.5563;
446.1000;0.5804;3.5537;
446.4000;0.5853;3.5774;
446.7000;0.5788;3.5642;
447.0000;0.5804;3.5721;
447.3000;0.5755;3.5590;
447.6000;0.5755;3.5616;
447.9000;0.5788;3.5748;
448.2000;0.5779;3.5801;
448.5000;0.5722;3.5616;
448.8000;0.5755;3.5721;
449.1000;0.5747;3.5748;
449.4000;0.5779;3.5774;
449.7000;0.5771;3.5774;
450.0000;0.5828;3.6038;
450.3000;0.5771;3.5959;
450.6000;0.5771;3.6064;
450.9000;0.5771;3.5985;
451.2000;0.5779;3.6038;
451.5000;0.5763;3.6091;
451.8000;0.5796;3.6196;
452.1000;0.5820;3.6355;
452.4000;0.5804;3.6249;
452.7000;0.5755;3.6196;
453.0000;0.5796;3.6302;
453.3000;0.5771;3.6223;
453.6000;0.5771;3.6196;
453.9000;0.5763;3.6091;
454.2000;0.5739;3.6038;
454.5000;0.5763;3.6170;
454.8000;0.5771;3.6196;
455.1000;0.5771;3.6117;
455.4000;0.5779;3.6144;
455.7000;0.5788;3.6012;
456.0000;0.5771;3.5906;
456.3000;0.5788;3.5906;
456.6000;0.5804;3.5933;
456.9000;0.5788;3.5906;
457.2000;0.5771;3.5827;
457.5000;0.5763;3.5801;
457.8000;0.5771;3.5774;
458.1000;0.5779;3.5774;
458.4000;0.5779;3.5801;
458.7000;0.5788;3.5774;
459.0000;0.5779;3.5695;
459.3000;0.5771;3.5642;
459.6000;0.5771;3.5642;
459.9000;0.5657;3.5326;
460.2000;0.5796;3.5616;
460.5000;0.5788;3.5642;
460.8000;0.5796;3.5642;
461.1000;0.5796;3.5669;
461.4000;0.5788;3.5721;
461.7000;0.5747;3.5669;
462.0000;0.5804;3.5880;
462.3000;0.5796;3.5906;
462.6000;0.5796;3.5774;
462.9000;0.5779;3.5721;
463.2000;0.5788;3.5721;
463.5000;0.5796;3.5801;
463.8000;0.5796;3.5721;
464.1000;0.5788;3.5616;
464.4000;0.5779;3.5563;
464.7000;0.5788;3.5590;
465.0000;0.5779;3.5642;
465.3000;0.5771;3.5642;
465.6000;0.5779;3.5721;
465.9000;0.5796;3.5748;
466.2000;0.5755;3.5774;
466.5000;0.5788;3.5880;
466.8000;0.5796;3.6012;
467.1000;0.5763;3.5985;
467.4000;0.5771;3.6012;
467.7000;0.5771;3.5985;
468.0000;0.5820;3.6064;
468.3000;0.5771;3.5880;
468.6000;0.5812;3.5933;
468.9000;0.5771;3.5933;
469.2000;0.5771;3.5985;
469.5000;0.5698;3.5721;
469.8000;0.5755;3.5827;
470.1000;0.5779;3.5959;
470.4000;0.5731;3.5853;
470.7000;0.5771;3.6091;
471.0000;0.5779;3.6144;
471.3000;0.5788;3.6196;
471.6000;0.5779;3.6144;
471.9000;0.5755;3.6091;
472.2000;0.5755;3.5985;
472.5000;0.5763;3.6038;
472.8000;0.5755;3.6038;
473.1000;0.5722;3.5959;
473.4000;0.5771;3.5985;
473.7000;0.5763;3.5985;
474.0000;0.5722;3.5933;
474.3000;0.5779;3.6064;
474.6000;0.5779;3.5933;
474.9000;0.5796;3.6038;
475.2000;0.5796;3.6038;
475.5000;0.5796;3.6012;
475.8000;0.5763;3.6038;
476.1000;0.5779;3.6064;
476.4000;0.5788;3.5959;
476.7000;0.5796;3.5959;
477.0000;0.5779;3.5827;
477.3000;0.5747;3.5774;
477.6000;0.5779;3.5827;
477.9000;0.5755;3.5721;
478.2000;0.5739;3.5642;
478.5000;0.5788;3.5669;
478.8000;0.5788;3.5642;
479.1000;0.5796;3.5695;
479.4000;0.5828;3.5827;
479.7000;0.5763;3.5616;
480.0000;0.5763;3.5563;
480.3000;0.5796;3.5774;
480.6000;0.5755;3.5721;
480.9000;0.5771;3.5748;
481.2000;0.5731;3.5590;
481.5000;0.5771;3.5774;
481.8000;0.5869;3.5959;
482.1000;0.5788;3.5827;
482.4000;0.5788;3.5827;
482.7000;0.5788;3.5774;
483.0000;0.5796;3.5748;
483.3000;0.5804;3.5801;
483.6000;0.5771;3.5748;
483.9000;0.5779;3.5721;
484.2000;0.5812;3.5721;
484.5000;0.5804;3.5721;
484.8000;0.5674;3.5458;
485.1000;0.5706;3.5616;
485.4000;0.5788;3.5880;
485.7000;0.5722;3.5774;
486.0000;0.5731;3.5774;
486.3000;0.5625;3.5458;
486.6000;0.5788;3.5959;
486.9000;0.5771;3.5906;
487.2000;0.5739;3.5801;
487.5000;0.5788;3.5933;
487.8000;0.5755;3.5959;
488.1000;0.5779;3.6012;
488.4000;0.5779;3.6091;
488.7000;0.5771;3.6196;
489.0000;0.5771;3.6223;
489.3000;0.5771;3.6223;
489.6000;0.5755;3.6064;
489.9000;0.5755;3.6064;
490.2000;0.5755;3.6091;
490.5000;0.5771;3.6117;
490.8000;0.5763;3.6170;
491.1000;0.5763;3.6170;
491.4000;0.5869;3.6434;
491.7000;0.5755;3.6223;
492.0000;0.5779;3.6223;
492.3000;0.5763;3.6170;
492.6000;0.5747;3.6144;
492.9000;0.5788;3.6223;
493.2000;0.5771;3.6196;
493.5000;0.5682;3.5880;
493.8000;0.5812;3.6275;
494.1000;0.5779;3.6170;
494.4000;0.5779;3.6170;
494.7000;0.5788;3.6144;
495.0000;0.5828;3.6144;
495.3000;0.5788;3.6012;
495.6000;0.5796;3.6117;
495.9000;0.5788;3.6038;
496.2000;0.5763;3.5985;
496.5000;0.5796;3.5985;
496.8000;0.5779;3.5880;
497.1000;0.5771;3.5827;
497.4000;0.5771;3.5853;
497.7000;0.5771;3.5880;
498.0000;0.5779;3.5906;
498.3000;0.5788;3.5959;
498.6000;0.5779;3.6064;
498.9000;0.5779;3.5853;
499.2000;0.5779;3.5880;
499.5000;0.5796;3.5906;
499.8000;0.5771;3.5853;
500.1000;0.5779;3.5853;
500.4000;0.5788;3.5774;
500.7000;0.5771;3.5669;
501.0000;0.5739;3.5537;
501.3000;0.5779;3.5695;
501.6000;0.5796;3.5721;
501.9000;0.5779;3.5774;
502.2000;0.5747;3.5669;
502.5000;0.5771;3.5695;
502.8000;0.5779;3.5721;
503.1000;0.5828;3.5880;
503.4000;0.5779;3.5774;
503.7000;0.5771;3.5695;
504.0000;0.5804;3.5774;
504.3000;0.5763;3.5801;
504.6000;0.5796;3.5906;
504.9000;0.5755;3.5880;
505.2000;0.5796;3.5985;
505.5000;0.5771;3.5906;
505.8000;0.5771;3.5933;
506.1000;0.5779;3.5933;
506.4000;0.5714;3.5669;
506.7000;0.5747;3.5774;
507.0000;0.5763;3.5827;
507.3000;0.5779;3.5721;
507.6000;0.5763;3.5801;
507.9000;0.5763;3.5827;
508.2000;0.5771;3.5853;
508.5000;0.5755;3.5748;
508.8000;0.5722;3.5590;
509.1000;0.5763;3.5774;
509.4000;0.5747;3.5695;
509.7000;0.5763;3.5774;
510.0000;0.5747;3.5748;
510.3000;0.5714;3.5748;
510.6000;0.5779;3.5959;
510.9000;0.5763;3.5906;
511.2000;0.5763;3.5959;
511.5000;0.5763;3.6012;
511.8000;0.5779;3.6064;
512.1000;0.5763;3.6012;
512.4000;0.5779;3.6012;
512.7000;0.5771;3.5959;
513.0000;0.5779;3.6012;
513.3000;0.5788;3.6064;
513.6000;0.5739;3.5827;
513.9000;0.5788;3.5959;
514.2000;0.5763;3.5880;
514.5000;0.5828;3.6117;
514.8000;0.5788;3.5933;
515.1000;0.5755;3.5959;
515.4000;0.5885;3.6196;
515.7000;0.5739;3.5748;
516.0000;0.5779;3.5853;
516.3000;0.5763;3.5721;
516.6000;0.5747;3.5616;
516.9000;0.5779;3.5537;
517.2000;0.5796;3.5590;
517.5000;0.5788;3.5510;
517.8000;0.5788;3.5616;
518.1000;0.5755;3.5616;
518.4000;0.5788;3.5642;
518.7000;0.5771;3.5642;
519.0000;0.5779;3.5642;
519.3000;0.5771;3.5616;
519.6000;0.5788;3.5642;
519.9000;0.5779;3.5642;
520.2000;0.5771;3.5616;
520.5000;0.5788;3.5721;
520.8000;0.5763;3.5616;
521.1000;0.5771;3.5642;
521.4000;0.5771;3.5642;
521.7000;0.5796;3.5748;
522.0000;0.5771;3.5695;
522.3000;0.5779;3.5721;
522.6000;0.5804;3.5827;
522.9000;0.5779;3.5642;
523.2000;0.5771;3.5695;
523.5000;0.5788;3.5827;
523.8000;0.5779;3.5906;
524.1000;0.5690;3.5563;
524.4000;0.5788;3.5748;
524.7000;0.5779;3.5721;
525.0000;0.5771;3.5801;
525.3000;0.5779;3.5853;
525.6000;0.5763;3.5774;
525.9000;0.5779;3.5748;
526.2000;0.5747;3.5695;
526.5000;0.5763;3.5669;
526.8000;0.5747;3.5669;
527.1000;0.5779;3.5801;
527.4000;0.5771;3.5774;
527.7000;0.5779;3.5827;
528.0000;0.5755;3.5721;
528.3000;0.5796;3.5801;
528.6000;0.5788;3.5827;
528.9000;0.5771;3.5906;
529.2000;0.5755;3.5827;
529.5000;0.5771;3.5933;
529.8000;0.5763;3.6012;
530.1000;0.5771;3.6117;
530.4000;0.5755;3.6196;
530.7000;0.5747;3.6144;
531.0000;0.5828;3.6381;
531.3000;0.5755;3.6170;
531.6000;0.5763;3.6170;
531.9000;0.5755;3.6170;
532.2000;0.5763;3.6196;
532.5000;0.5674;3.5933;
532.8000;0.5747;3.6144;
533.1000;0.5828;3.6249;
533.4000;0.5763;3.6091;
533.7000;0.5779;3.6091;
534.0000;0.5828;3.6196;
534.3000;0.5779;3.6012;
534.6000;0.5714;3.5801;
534.9000;0.5731;3.5801;
535.2000;0.5771;3.5959;
535.5000;0.5747;3.6038;
535.8000;0.5763;3.5959;
536.1000;0.5722;3.5827;
536.4000;0.5763;3.5933;
536.7000;0.5763;3.5880;
537.0000;0.5763;3.5801;
537.3000;0.5779;3.5774;
537.6000;0.5788;3.5853;
537.9000;0.5771;3.5748;
538.2000;0.5779;3.5695;
538.5000;0.5779;3.5669;
538.8000;0.5788;3.5669;
539.1000;0.5804;3.5801;
539.4000;0.5763;3.5801;
539.7000;0.5755;3.5827;
540.0000;0.5779;3.5801;
540.3000;0.5788;3.5801;
540.6000;0.5788;3.5827;
540.9000;0.5763;3.5774;
541.2000;0.5771;3.5774;
541.5000;0.5747;3.5774;
541.8000;0.5755;3.5669;
542.1000;0.5779;3.5774;
542.4000;0.5771;3.5721;
542.7000;0.5779;3.5748;
543.0000;0.5771;3.5695;
543.3000;0.5779;3.5721;
543.6000;0.5836;3.5827;
543.9000;0.5796;3.5642;
544.2000;0.5812;3.5590;
544.5000;0.5796;3.5590;
544.8000;0.5763;3.5563;
545.1000;0.5755;3.5669;
545.4000;0.5771;3.5721;
545.7000;0.5779;3.5748;
546.0000;0.5771;3.5774;
546.3000;0.5755;3.5695;
546.6000;0.5788;3.5933;
546.9000;0.5779;3.5933;
547.2000;0.5763;3.5959;
547.5000;0.5788;3.6038;
547.8000;0.5771;3.6144;
548.1000;0.5755;3.6012;
548.4000;0.5779;3.6117;
548.7000;0.5755;3.6117;
549.0000;0.5641;3.5827;
549.3000;0.5902;3.6592;
549.6000;0.5771;3.6275;
549.9000;0.5779;3.6302;
550.2000;0.5779;3.6328;
550.5000;0.5763;3.6275;
550.8000;0.5747;3.6223;
551.1000;0.5755;3.6328;
551.4000;0.5877;3.6618;
551.7000;0.5755;3.6249;
552.0000;0.5779;3.6302;
552.3000;0.5763;3.6223;
552.6000;0.5771;3.6223;
552.9000;0.5771;3.6196;
553.2000;0.5755;3.6091;
553.5000;0.5755;3.6091;
553.8000;0.5771;3.5959;
554.1000;0.5755;3.5959;
554.4000;0.5771;3.6064;
554.7000;0.5763;3.5985;
555.0000;0.5763;3.5959;
555.3000;0.5771;3.5985;
555.6000;0.5788;3.5933;
555.9000;0.5747;3.5774;
556.2000;0.5747;3.5801;
556.5000;0.5779;3.5853;
556.8000;0.5771;3.5906;
557.1000;0.5763;3.5880;
557.4000;0.5755;3.5827;
557.7000;0.5763;3.5906;
558.0000;0.5771;3.5985;
558.3000;0.5779;3.5959;
558.6000;0.5771;3.5906;
558.9000;0.5771;3.5985;
559.2000;0.5812;3.6091;
559.5000;0.5804;3.5959;
559.8000;0.5763;3.5827;
560.1000;0.5779;3.5801;
560.4000;0.5771;3.5827;
560.7000;0.5771;3.5801;
561.0000;0.5796;3.5853;
561.3000;0.5779;3.5801;
561.6000;0.5755;3.5642;
561.9000;0.5804;3.5801;
562.2000;0.5763;3.5590;
562.5000;0.5812;3.5721;
562.8000;0.5763;3.5563;
563.1000;0.5771;3.5563;
563.4000;0.5788;3.5774;
563.7000;0.5788;3.5774;
564.0000;0.5755;3.5695;
564.3000;0.5771;3.5827;
564.6000;0.5788;3.5853;
564.9000;0.5820;3.5933;
565.2000;0.5771;3.5774;
565.5000;0.5763;3.5853;
565.8000;0.5763;3.5827;
566.1000;0.5779;3.5880;
566.4000;0.5763;3.5853;
566.7000;0.5788;3.5906;
567.0000;0.5763;3.5880;
567.3000;0.5779;3.5985;
567.6000;0.5731;3.5880;
567.9000;0.5755;3.5880;
568.2000;0.5755;3.5827;
568.5000;0.5755;3.5801;
568.8000;0.5747;3.5880;
569.1000;0.5779;3.6012;
569.4000;0.5747;3.5985;
569.7000;0.5763;3.6038;
570.0000;0.5755;3.6091;
570.3000;0.5771;3.6144;
570.6000;0.5763;3.6117;
570.9000;0.5755;3.6091;
571.2000;0.5755;3.6038;
571.5000;0.5763;3.6064;
571.8000;0.5714;3.5985;
572.1000;0.5755;3.6064;
572.4000;0.5682;3.5906;
572.7000;0.5771;3.6196;
573.0000;0.5771;3.6196;
573.3000;0.5779;3.6223;
573.6000;0.5763;3.6223;
573.9000;0.5788;3.6275;
574.2000;0.5755;3.6223;
574.5000;0.5763;3.6223;
574.8000;0.5771;3.6223;
575.1000;0.5755;3.6170;
575.4000;0.5706;3.5906;
575.7000;0.5763;3.6038;
576.0000;0.5779;3.6091;
576.3000;0.5779;3.5985;
576.6000;0.5747;3.5906;
576.9000;0.5747;3.5853;
577.2000;0.5796;3.5959;
577.5000;0.5771;3.5827;
577.8000;0.5763;3.5827;
578.1000;0.5763;3.5801;
578.4000;0.5812;3.5959;
578.7000;0.5779;3.5853;
579.0000;0.5739;3.5721;
579.3000;0.5771;3.5748;
579.6000;0.5747;3.5748;
579.9000;0.5779;3.5774;
580.2000;0.5690;3.5458;
580.5000;0.5698;3.5590;
580.8000;0.5771;3.5801;
581.1000;0.5747;3.5669;
581.4000;0.5779;3.5669;
581.7000;0.5788;3.5853;
582.0000;0.5755;3.5827;
582.3000;0.5747;3.5880;
582.6000;0.5779;3.5906;
582.9000;0.5690;3.5484;
583.2000;0.5788;3.5774;
583.5000;0.5755;3.5695;
583.8000;0.5771;3.5853;
584.1000;0.5747;3.5801;
584.4000;0.5779;3.5933;
584.7000;0.5600;3.5537;
585.0000;0.5763;3.5906;
585.3000;0.5788;3.5985;
585.6000;0.5771;3.5827;
585.9000;0.5779;3.5880;
586.2000;0.5796;3.5906;
586.5000;0.5788;3.5827;
586.8000;0.5755;3.5748;
587.1000;0.5771;3.5880;
587.4000;0.5771;3.5933;
587.7000;0.5763;3.5959;
588.0000;0.5674;3.5721;
588.3000;0.5755;3.5959;
588.6000;0.5755;3.6012;
588.9000;0.5763;3.6091;
589.2000;0.5779;3.6091;
589.5000;0.5755;3.6196;
589.8000;0.5649;3.5853;
590.1000;0.5771;3.6275;
590.4000;0.5771;3.6302;
590.7000;0.5747;3.6223;
591.0000;0.5747;3.6223;
591.3000;0.5755;3.6249;
591.6000;0.5804;3.6381;
591.9000;0.5657;3.5906;
592.2000;0.5706;3.6091;
592.5000;0.5763;3.6144;
592.8000;0.5771;3.6196;
593.1000;0.5747;3.6144;
593.4000;0.5763;3.6144;
593.7000;0.5747;3.6117;
594.0000;0.5779;3.6091;
594.3000;0.5763;3.6012;
594.6000;0.5771;3.6117;
594.9000;0.5755;3.6117;
595.2000;0.5771;3.6196;
595.5000;0.5755;3.6038;
595.8000;0.5779;3.6117;
596.1000;0.5779;3.6091;
596.4000;0.5771;3.5933;
596.7000;0.5763;3.5801;
597.0000;0.5771;3.5801;
597.3000;0.5747;3.5721;
597.6000;0.5771;3.5721;
597.9000;0.5779;3.5695;
598.2000;0.5739;3.5590;
598.5000;0.5788;3.5748;
598.8000;0.5779;3.5748;
599.1000;0.5893;3.6038;
599.4000;0.5722;3.5616;
599.7000;0.5763;3.5774;
600.0000;0.5796;3.5801;
600.3000;0.5747;3.5484;
600.6000;0.5763;3.5326;
600.9000;0.5747;3.5088;
601.2000;0.5739;3.4956;
601.5000;0.5682;3.4745;
601.8000;0.5633;3.4534;
602.1000;0.5617;3.4350;
602.4000;0.5560;3.4007;
602.7000;0.5503;3.3848;
603.0000;0.5495;3.3822;
603.3000;0.5462;3.3690;
603.6000;0.5429;3.3532;
603.9000;0.5397;3.3453;
604.2000;0.5315;3.3189;
604.5000;0.5348;3.3268;
604.8000;0.5340;3.3215;
605.1000;0.5258;3.2978;
605.4000;0.5283;3.3162;
605.7000;0.5218;3.2925;
606.0000;0.5234;3.2872;
606.3000;0.5210;3.2819;
606.6000;0.5218;3.2819;
606.9000;0.5210;3.2714;
607.2000;0.5185;3.2714;
607.5000;0.5193;3.2767;
607.8000;0.5120;3.2529;
608.1000;0.5120;3.2582;
608.4000;0.5104;3.2608;
608.7000;0.5079;3.2582;
609.0000;0.5088;3.2503;
609.3000;0.5063;3.2397;
609.6000;0.5047;3.2476;
609.9000;0.5055;3.2529;
610.2000;0.5022;3.2424;
610.5000;0.4998;3.2371;
610.8000;0.5022;3.2424;
611.1000;0.4998;3.2345;
611.4000;0.4982;3.2186;
611.7000;0.4998;3.2345;
612.0000;0.4990;3.2345;
612.3000;0.4982;3.2318;
612.6000;0.4965;3.2265;
612.9000;0.4941;3.2213;
613.2000;0.4949;3.2160;
613.5000;0.4933;3.2107;
613.8000;0.4908;3.2160;
614.1000;0.4900;3.2213;
614.4000;0.4900;3.2054;
614.7000;0.4835;3.1764;
615.0000;0.4843;3.1738;
615.3000;0.4868;3.1843;
615.6000;0.4884;3.1843;
615.9000;0.4851;3.1843;
616.2000;0.4843;3.1791;
616.5000;0.4851;3.1764;
616.8000;0.4811;3.1553;
617.1000;0.4819;3.1579;
617.4000;0.4827;3.1579;
617.7000;0.4843;3.1606;
618.0000;0.4811;3.1553;
618.3000;0.4860;3.1738;
618.6000;0.4819;3.1553;
618.9000;0.4803;3.1579;
619.2000;0.4819;3.1685;
619.5000;0.4778;3.1579;
619.8000;0.4770;3.1553;
620.1000;0.4664;3.1210;
620.4000;0.4908;3.1949;
620.7000;0.4778;3.1632;
621.0000;0.4811;3.1659;
621.3000;0.4770;3.1527;
621.6000;0.4762;3.1606;
621.9000;0.4762;3.1553;
622.2000;0.4746;3.1553;
622.5000;0.4729;3.1579;
622.8000;0.4689;3.1474;
623.1000;0.4746;3.1711;
623.4000;0.4754;3.1711;
623.7000;0.4729;3.1685;
624.0000;0.4697;3.1632;
624.3000;0.4705;3.1685;
624.6000;0.4713;3.1764;
624.9000;0.4689;3.1764;
625.2000;0.4697;3.1738;
625.5000;0.4672;3.1659;
625.8000;0.4664;3.1632;
626.1000;0.4689;3.1606;
626.4000;0.4624;3.1474;
626.7000;0.4681;3.1659;
627.0000;0.4656;3.1527;
627.3000;0.4648;3.1632;
627.6000;0.4640;3.1791;
627.9000;0.4681;3.2002;
628.2000;0.4640;3.1949;
628.5000;0.4681;3.2160;
628.8000;0.4624;3.2002;
629.1000;0.4624;3.2002;
629.4000;0.4607;3.2002;
629.7000;0.4615;3.2002;
630.0000;0.4591;3.1949;
630.3000;0.4599;3.1922;
630.6000;0.4599;3.1975;
630.9000;0.4615;3.1975;
631.2000;0.4615;3.2002;
631.5000;0.4640;3.2081;
631.8000;0.4607;3.2054;
632.1000;0.4607;3.2081;
632.4000;0.4624;3.2028;
632.7000;0.4591;3.1922;
633.0000;0.4583;3.1896;
633.3000;0.4575;3.1791;
633.6000;0.4583;3.1738;
633.9000;0.4567;3.1685;
634.2000;0.4575;3.1764;
634.5000;0.4542;3.1685;
634.8000;0.4558;3.1606;
635.1000;0.4575;3.1632;
635.4000;0.4558;3.1606;
635.7000;0.4575;3.1632;
636.0000;0.4558;3.1632;
636.3000;0.4558;3.1606;
636.6000;0.4534;3.1448;
636.9000;0.4542;3.1474;
637.2000;0.4518;3.1421;
637.5000;0.4534;3.1421;
637.8000;0.4534;3.1448;
638.1000;0.4583;3.1579;
638.4000;0.4526;3.1289;
638.7000;0.4550;3.1448;
639.0000;0.4526;3.1500;
639.3000;0.4518;3.1474;
639.6000;0.4575;3.1738;
639.9000;0.4526;3.1579;
640.2000;0.4526;3.1632;
640.5000;0.4501;3.1579;
640.8000;0.4518;3.1606;
641.1000;0.4510;3.1553;
641.4000;0.4534;3.1632;
641.7000;0.4526;3.1632;
642.0000;0.4501;3.1579;
642.3000;0.4510;3.1685;
642.6000;0.4518;3.1738;
642.9000;0.4493;3.1711;
643.2000;0.4485;3.1711;
643.5000;0.4501;3.1817;
643.8000;0.4501;3.1817;
644.1000;0.4453;3.1659;
644.4000;0.4501;3.1817;
644.7000;0.4469;3.1843;
645.0000;0.4477;3.1843;
645.3000;0.4477;3.1791;
645.6000;0.4453;3.1606;
645.9000;0.4477;3.1606;
646.2000;0.4461;3.1606;
646.5000;0.4493;3.1659;
646.8000;0.4444;3.1606;
647.1000;0.4461;3.1606;
647.4000;0.4469;3.1553;
647.7000;0.4444;3.1500;
648.0000;0.4453;3.1474;
648.3000;0.4444;3.1421;
648.6000;0.4436;3.1527;
648.9000;0.4453;3.1659;
649.2000;0.4453;3.1738;
649.5000;0.4412;3.1738;
649.8000;0.4436;3.1817;
650.1000;0.4436;3.1870;
650.4000;0.4469;3.1922;
650.7000;0.4436;3.1817;
651.0000;0.4436;3.1896;
651.3000;0.4339;3.1685;
651.6000;0.4420;3.1949;
651.9000;0.4428;3.2054;
652.2000;0.4412;3.1949;
652.5000;0.4412;3.1922;
652.8000;0.4420;3.1949;
653.1000;0.4444;3.2107;
653.4000;0.4387;3.2028;
653.7000;0.4396;3.1922;
654.0000;0.4420;3.1975;
654.3000;0.4412;3.1922;
654.6000;0.4420;3.1922;
654.9000;0.4420;3.1870;
655.2000;0.4420;3.1791;
655.5000;0.4404;3.1738;
655.8000;0.4396;3.1711;
656.1000;0.4444;3.1870;
656.4000;0.4330;3.1527;
656.7000;0.4420;3.1764;
657.0000;0.4404;3.1685;
657.3000;0.4396;3.1685;
657.6000;0.4396;3.1711;
657.9000;0.4420;3.1711;
658.2000;0.4420;3.1791;
658.5000;0.4330;3.1606;
658.8000;0.4371;3.1764;
659.1000;0.4387;3.1843;
659.4000;0.4371;3.1791;
659.7000;0.4396;3.1870;
660.0000;0.4404;3.1764;
660.3000;0.4404;3.1632;
660.6000;0.4387;3.1553;
660.9000;0.4379;3.1685;
661.2000;0.4371;3.1711;
661.5000;0.4396;3.1659;
661.8000;0.4363;3.1527;
662.1000;0.4363;3.1500;
662.4000;0.4379;3.1527;
662.7000;0.4387;3.1606;
663.0000;0.4387;3.1527;
663.3000;0.4379;3.1527;
663.6000;0.4371;3.1474;
663.9000;0.4339;3.1395;
664.2000;0.4363;3.1500;
664.5000;0.4363;3.1395;
664.8000;0.4355;3.1448;
665.1000;0.4355;3.1342;
665.4000;0.4355;3.1368;
665.7000;0.4363;3.1395;
666.0000;0.4355;3.1395;
666.3000;0.4355;3.1421;
666.6000;0.4371;3.1474;
666.9000;0.4347;3.1500;
667.2000;0.4290;3.1289;
667.5000;0.4363;3.1553;
667.8000;0.4355;3.1579;
668.1000;0.4355;3.1685;
668.4000;0.4339;3.1711;
668.7000;0.4339;3.1791;
669.0000;0.4339;3.1764;
669.3000;0.4347;3.1843;
669.6000;0.4330;3.1843;
669.9000;0.4330;3.1922;
670.2000;0.4347;3.1975;
670.5000;0.4355;3.2054;
670.8000;0.4355;3.2107;
671.1000;0.4330;3.2028;
671.4000;0.4347;3.2002;
671.7000;0.4339;3.2028;
672.0000;0.4330;3.2002;
672.3000;0.4249;3.1896;
672.6000;0.4330;3.2133;
672.9000;0.4330;3.2186;
673.2000;0.4347;3.2133;
673.5000;0.4322;3.2054;
673.8000;0.4306;3.2002;
674.1000;0.4314;3.2002;
674.4000;0.4339;3.2002;
674.7000;0.4347;3.2028;
675.0000;0.4387;3.2107;
675.3000;0.4371;3.1870;
675.6000;0.4322;3.1843;
675.9000;0.4330;3.1817;
676.2000;0.4322;3.1764;
676.5000;0.4322;3.1632;
676.8000;0.4306;3.1527;
677.1000;0.4306;3.1527;
677.4000;0.4330;3.1474;
677.7000;0.4339;3.1395;
678.0000;0.4314;3.1395;
678.3000;0.4330;3.1500;
678.6000;0.4314;3.1368;
678.9000;0.4322;3.1448;
679.2000;0.4314;3.1316;
679.5000;0.4314;3.1289;
679.8000;0.4298;3.1263;
680.1000;0.4306;3.1184;
680.4000;0.4306;3.1157;
680.7000;0.4306;3.1236;
681.0000;0.4298;3.1210;
681.3000;0.4306;3.1157;
681.6000;0.4314;3.1236;
681.9000;0.4298;3.1316;
682.2000;0.4282;3.1210;
682.5000;0.4314;3.1395;
682.8000;0.4306;3.1448;
683.1000;0.4322;3.1448;
683.4000;0.4322;3.1421;
683.7000;0.4314;3.1474;
684.0000;0.4314;3.1395;
684.3000;0.4314;3.1368;
684.6000;0.4306;3.1448;
684.9000;0.4322;3.1474;
685.2000;0.4306;3.1421;
685.5000;0.4282;3.1448;
685.8000;0.4306;3.1474;
686.1000;0.4298;3.1527;
686.4000;0.4290;3.1606;
686.7000;0.4282;3.1632;
687.0000;0.4274;3.1553;
687.3000;0.4290;3.1527;
687.6000;0.4290;3.1500;
687.9000;0.4290;3.1527;
688.2000;0.4290;3.1553;
688.5000;0.4290;3.1685;
688.8000;0.4330;3.1870;
689.1000;0.4298;3.1685;
689.4000;0.4306;3.1685;
689.7000;0.4290;3.1711;
690.0000;0.4274;3.1685;
690.3000;0.4274;3.1738;
690.6000;0.4282;3.1791;
690.9000;0.4322;3.1922;
691.2000;0.4322;3.1922;
691.5000;0.4257;3.1764;
691.8000;0.4257;3.1817;
692.1000;0.4257;3.1791;
692.4000;0.4233;3.1738;
692.7000;0.4274;3.1738;
693.0000;0.4265;3.1659;
693.3000;0.4265;3.1791;
693.6000;0.4274;3.1949;
693.9000;0.4274;3.1922;
694.2000;0.4257;3.1738;
694.5000;0.4233;3.1553;
694.8000;0.4257;3.1606;
695.1000;0.4274;3.1527;
695.4000;0.4257;3.1500;
695.7000;0.4249;3.1527;
696.0000;0.4265;3.1606;
696.3000;0.4241;3.1553;
696.6000;0.4225;3.1448;
696.9000;0.4257;3.1474;
697.2000;0.4249;3.1421;
697.5000;0.4143;3.1025;
697.8000;0.4257;3.1342;
698.1000;0.4257;3.1395;
698.4000;0.4306;3.1474;
698.7000;0.4290;3.1421;
699.0000;0.4290;3.1448;
699.3000;0.4290;3.1500;
699.6000;0.4314;3.1606;
699.9000;0.4265;3.1553;
700.2000;0.4257;3.1474;
700.5000;0.4257;3.1448;
700.8000;0.4274;3.1500;
701.1000;0.4282;3.1553;
701.4000;0.4290;3.1632;
701.7000;0.4265;3.1527;
702.0000;0.4241;3.1368;
702.3000;0.4249;3.1474;
702.6000;0.4274;3.1553;
702.9000;0.4249;3.1421;
703.2000;0.4257;3.1448;
703.5000;0.4274;3.1474;
703.8000;0.4274;3.1474;
704.1000;0.4298;3.1527;
704.4000;0.4282;3.1395;
704.7000;0.4265;3.1421;
705.0000;0.4241;3.1448;
705.3000;0.4249;3.1500;
705.6000;0.4241;3.1474;
705.9000;0.4119;3.1078;
706.2000;0.4233;3.1474;
706.5000;0.4241;3.1606;
706.8000;0.4241;3.1685;
707.1000;0.4363;3.2081;
707.4000;0.4249;3.1685;
707.7000;0.4257;3.1659;
708.0000;0.4225;3.1527;
708.3000;0.4249;3.1632;
708.6000;0.4233;3.1606;
708.9000;0.4249;3.1711;
709.2000;0.4241;3.1791;
709.5000;0.4233;3.1764;
709.8000;0.4233;3.1791;
710.1000;0.4257;3.1843;
710.4000;0.4257;3.1843;
710.7000;0.4241;3.1870;
711.0000;0.4233;3.1791;
711.3000;0.4225;3.1764;
711.6000;0.4241;3.1817;
711.9000;0.4241;3.1764;
712.2000;0.4217;3.1764;
712.5000;0.4217;3.1764;
712.8000;0.4233;3.1791;
713.1000;0.4225;3.1711;
713.4000;0.4217;3.1843;
713.7000;0.4225;3.1870;
714.0000;0.4168;3.1764;
714.3000;0.4282;3.1896;
714.6000;0.4233;3.1738;
714.9000;0.4225;3.1711;
715.2000;0.4290;3.1922;
715.5000;0.4225;3.1738;
715.8000;0.4200;3.1553;
716.1000;0.4225;3.1553;
716.4000;0.4233;3.1632;
716.7000;0.4225;3.1632;
717.0000;0.4217;3.1606;
717.3000;0.4257;3.1579;
717.6000;0.4225;3.1500;
717.9000;0.4241;3.1474;
718.2000;0.4249;3.1448;
718.5000;0.4290;3.1474;
718.8000;0.4241;3.1421;
719.1000;0.4127;3.1157;
719.4000;0.4217;3.1368;
719.7000;0.4241;3.1395;
720.0000;0.4233;3.1474;
720.3000;0.4208;3.1368;
720.6000;0.4225;3.1500;
720.9000;0.4208;3.1448;
721.2000;0.4217;3.1527;
721.5000;0.4241;3.1579;
721.8000;0.4208;3.1448;
722.1000;0.4217;3.1368;
722.4000;0.4217;3.1395;
722.7000;0.4347;3.1817;
723.0000;0.4208;3.1368;
723.3000;0.4241;3.1500;
723.6000;0.4192;3.1342;
723.9000;0.4249;3.1527;
724.2000;0.4233;3.1421;
724.5000;0.4217;3.1421;
724.8000;0.4225;3.1474;
725.1000;0.4217;3.1448;
725.4000;0.4200;3.1500;
725.7000;0.4225;3.1474;
726.0000;0.4208;3.1421;
726.3000;0.4225;3.1659;
726.6000;0.4290;3.1949;
726.9000;0.4233;3.1764;
727.2000;0.4217;3.1791;
727.5000;0.4208;3.1843;
727.8000;0.4200;3.1896;
728.1000;0.4217;3.1949;
728.4000;0.4208;3.1870;
728.7000;0.4200;3.1922;
729.0000;0.4208;3.1949;
729.3000;0.4217;3.1975;
729.6000;0.4160;3.1817;
729.9000;0.4217;3.1922;
730.2000;0.4208;3.1870;
730.5000;0.4184;3.1817;
730.8000;0.4225;3.1843;
731.1000;0.4200;3.1843;
731.4000;0.4176;3.1738;
731.7000;0.4200;3.1791;
732.0000;0.4192;3.1764;
732.3000;0.4208;3.1817;
732.6000;0.4200;3.1843;
732.9000;0.4241;3.2028;
733.2000;0.4200;3.1870;
733.5000;0.4176;3.1817;
733.8000;0.4160;3.1843;
734.1000;0.4208;3.1975;
734.4000;0.4200;3.1949;
734.7000;0.4208;3.1870;
735.0000;0.4200;3.1922;
735.3000;0.4200;3.1975;
735.6000;0.4208;3.1922;
735.9000;0.4225;3.1975;
736.2000;0.4208;3.1843;
736.5000;0.4184;3.1738;
736.8000;0.4200;3.1738;
737.1000;0.4249;3.1817;
737.4000;0.4217;3.1606;
737.7000;0.4192;3.1474;
738.0000;0.4192;3.1474;
738.3000;0.4225;3.1474;
738.6000;0.4217;3.1421;
738.9000;0.4208;3.1421;
739.2000;0.4192;3.1474;
739.5000;0.4217;3.1527;
739.8000;0.4241;3.1606;
740.1000;0.4225;3.1632;
740.4000;0.4217;3.1606;
740.7000;0.4225;3.1764;
741.0000;0.4200;3.1659;
741.3000;0.4249;3.1711;
741.6000;0.4200;3.1685;
741.9000;0.4225;3.1685;
742.2000;0.4225;3.1764;
742.5000;0.4208;3.1738;
742.8000;0.4184;3.1685;
743.1000;0.4217;3.1738;
743.4000;0.4168;3.1632;
743.7000;0.4200;3.1711;
744.0000;0.4111;3.1368;
744.3000;0.4184;3.1553;
744.6000;0.4208;3.1553;
744.9000;0.4208;3.1553;
745.2000;0.4208;3.1527;
745.5000;0.4241;3.1553;
745.8000;0.4200;3.1421;
746.1000;0.4192;3.1395;
746.4000;0.4176;3.1527;
746.7000;0.4208;3.1632;
747.0000;0.4184;3.1685;
747.3000;0.4168;3.1659;
747.6000;0.4184;3.1606;
747.9000;0.4184;3.1632;
748.2000;0.4184;3.1659;
748.5000;0.4168;3.1685;
748.8000;0.4233;3.1870;
749.1000;0.4200;3.1896;
749.4000;0.4200;3.1870;
749.7000;0.4208;3.1791;
750.0000;0.4200;3.1817;
750.3000;0.4208;3.1922;
750.6000;0.4184;3.1922;
750.9000;0.4208;3.2028;
751.2000;0.4192;3.2028;
751.5000;0.4160;3.2028;
751.8000;0.4184;3.2107;
752.1000;0.4208;3.2160;
752.4000;0.4200;3.2028;
752.7000;0.4184;3.1949;
753.0000;0.4192;3.2054;
753.3000;0.4176;3.2107;
753.6000;0.4184;3.2081;
753.9000;0.4184;3.1949;
754.2000;0.4160;3.1843;
754.5000;0.4217;3.2002;
754.8000;0.4208;3.2002;
755.1000;0.4070;3.1606;
755.4000;0.4192;3.2002;
755.7000;0.4176;3.1975;
756.0000;0.4184;3.1922;
756.3000;0.4176;3.1949;
756.6000;0.4192;3.1922;
756.9000;0.4200;3.1738;
757.2000;0.4192;3.1711;
757.5000;0.4184;3.1685;
757.8000;0.4168;3.1659;
758.1000;0.4168;3.1606;
758.4000;0.4176;3.1685;
758.7000;0.4192;3.1791;
759.0000;0.4168;3.1711;
759.3000;0.4168;3.1764;
759.6000;0.4192;3.1817;
759.9000;0.4192;3.1843;
760.2000;0.4192;3.1870;
760.5000;0.4200;3.1896;
760.8000;0.4192;3.1870;
761.1000;0.4200;3.1896;
761.4000;0.4184;3.1791;
761.7000;0.4208;3.1817;
762.0000;0.4176;3.1791;
762.3000;0.4184;3.1764;
762.6000;0.4192;3.1738;
762.9000;0.4192;3.1738;
763.2000;0.4176;3.1711;
763.5000;0.4192;3.1659;
763.8000;0.4184;3.1685;
764.1000;0.4200;3.1685;
764.4000;0.4176;3.1711;
764.7000;0.4192;3.1764;
765.0000;0.4208;3.1922;
765.3000;0.4208;3.1975;
765.6000;0.4192;3.1922;
765.9000;0.4192;3.1922;
766.2000;0.4176;3.2028;
766.5000;0.4208;3.2107;
766.8000;0.4176;3.2054;
767.1000;0.4176;3.2107;
767.4000;0.4184;3.2186;
767.7000;0.4176;3.2107;
768.0000;0.4160;3.2133;
768.3000;0.4176;3.2239;
768.6000;0.4176;3.2292;
768.9000;0.4168;3.2318;
769.2000;0.4184;3.2397;
769.5000;0.4135;3.2371;
769.8000;0.4151;3.2397;
770.1000;0.4160;3.2345;
770.4000;0.4160;3.2292;
770.7000;0.4184;3.2371;
771.0000;0.4184;3.2318;
771.3000;0.4184;3.2318;
771.6000;0.4184;3.2345;
771.9000;0.4249;3.2476;
772.2000;0.4184;3.2265;
772.5000;0.4143;3.2133;
772.8000;0.4168;3.2160;
773.1000;0.4176;3.2133;
773.4000;0.4184;3.2133;
773.7000;0.4160;3.2028;
774.0000;0.4184;3.2133;
774.3000;0.4176;3.2028;
774.6000;0.4184;3.2081;
774.9000;0.4135;3.1975;
775.2000;0.4298;3.2345;
775.5000;0.4184;3.2054;
775.8000;0.4168;3.1949;
776.1000;0.4249;3.2186;
776.4000;0.4184;3.1949;
776.7000;0.4070;3.1579;
777.0000;0.4184;3.1896;
777.3000;0.4168;3.1896;
777.6000;0.4176;3.1817;
777.9000;0.4176;3.1870;
778.2000;0.4176;3.1817;
778.5000;0.4249;3.2107;
778.8000;0.4176;3.1922;
779.1000;0.4265;3.2133;
779.4000;0.4168;3.1843;
779.7000;0.4184;3.1922;
780.0000;0.4176;3.1949;
780.3000;0.4176;3.1896;
780.6000;0.4192;3.1896;
780.9000;0.4168;3.1764;
781.2000;0.4217;3.1870;
781.5000;0.4176;3.1764;
781.8000;0.4184;3.1764;
782.1000;0.4176;3.1659;
782.4000;0.4127;3.1448;
782.7000;0.4184;3.1738;
783.0000;0.4176;3.1711;
783.3000;0.4176;3.1711;
783.6000;0.4168;3.1606;
783.9000;0.4176;3.1579;
784.2000;0.4127;3.1500;
784.5000;0.4176;3.1659;
784.8000;0.4160;3.1659;
785.1000;0.4135;3.1659;
785.4000;0.4176;3.1870;
785.7000;0.4176;3.1896;
786.0000;0.4176;3.1870;
786.3000;0.4151;3.1738;
786.6000;0.4176;3.1791;
786.9000;0.4176;3.1791;
787.2000;0.4160;3.1870;
787.5000;0.4160;3.1870;
787.8000;0.4119;3.1791;
788.1000;0.4160;3.1922;
788.4000;0.4151;3.1975;
788.7000;0.4160;3.1975;
789.0000;0.4143;3.1975;
789.3000;0.4168;3.1949;
789.6000;0.4143;3.2028;
789.9000;0.4160;3.1975;
790.2000;0.4176;3.2054;
790.5000;0.4184;3.2160;
790.8000;0.4168;3.2107;
791.1000;0.4160;3.2133;
791.4000;0.4176;3.2133;
791.7000;0.4151;3.2107;
792.0000;0.4168;3.2133;
792.3000;0.4184;3.2081;
792.6000;0.4143;3.2081;
792.9000;0.4233;3.2345;
793.2000;0.4168;3.2186;
793.5000;0.4176;3.2186;
793.8000;0.4168;3.2186;
794.1000;0.4160;3.2160;
794.4000;0.4176;3.2186;
794.7000;0.4176;3.2239;
795.0000;0.4151;3.2081;
795.3000;0.4160;3.2028;
795.6000;0.4168;3.2028;
795.9000;0.4168;3.1870;
796.2000;0.4176;3.1870;
796.5000;0.4160;3.1843;
796.8000;0.4176;3.1764;
797.1000;0.4184;3.1711;
797.4000;0.4184;3.1579;
797.7000;0.4160;3.1474;
798.0000;0.4168;3.1500;
798.3000;0.4135;3.1474;
798.6000;0.4119;3.1368;
798.9000;0.4200;3.1606;
799.2000;0.4265;3.1711;
799.5000;0.4168;3.1500;
799.8000;0.4168;3.1579;
800.1000;0.4168;3.1527;
800.4000;0.4160;3.1579;
800.7000;0.4160;3.1632;
801.0000;0.4160;3.1685;
801.3000;0.4168;3.1711;
801.6000;0.4176;3.1764;
801.9000;0.4208;3.1791;
802.2000;0.4200;3.1764;
802.5000;0.4168;3.1711;
802.8000;0.4160;3.1764;
803.1000;0.4135;3.1579;
803.4000;0.4176;3.1659;
803.7000;0.4143;3.1553;
804.0000;0.4151;3.1606;
804.3000;0.4151;3.1579;
804.6000;0.4151;3.1659;
804.9000;0.4160;3.1738;
805.2000;0.4184;3.1791;
805.5000;0.4176;3.1791;
805.8000;0.4184;3.1870;
806.1000;0.4160;3.1764;
806.4000;0.4094;3.1606;
806.7000;0.4160;3.1791;
807.0000;0.4225;3.1975;
807.3000;0.4176;3.1922;
807.6000;0.4176;3.1949;
807.9000;0.4160;3.1975;
808.2000;0.4160;3.1922;
808.5000;0.4151;3.1949;
808.8000;0.4037;3.1579;
809.1000;0.4127;3.1922;
809.4000;0.4160;3.2081;
809.7000;0.4160;3.2107;
810.0000;0.4151;3.2054;
810.3000;0.4151;3.2081;
810.6000;0.4135;3.2054;
810.9000;0.4160;3.2213;
811.2000;0.4127;3.2107;
811.5000;0.4143;3.2186;
811.8000;0.4151;3.2239;
812.1000;0.4151;3.2213;
812.4000;0.4192;3.2265;
812.7000;0.4192;3.2186;
813.0000;0.4160;3.2002;
813.3000;0.4160;3.2002;
813.6000;0.4151;3.1975;
813.9000;0.4135;3.1922;
814.2000;0.4143;3.2002;
814.5000;0.4094;3.1896;
814.8000;0.4176;3.2107;
815.1000;0.4135;3.2002;
815.4000;0.4103;3.1843;
815.7000;0.4249;3.2213;
816.0000;0.4176;3.1975;
816.3000;0.4151;3.1870;
816.6000;0.4192;3.1975;
816.9000;0.4143;3.1738;
817.2000;0.4160;3.1764;
817.5000;0.4111;3.1659;
817.8000;0.4160;3.1738;
818.1000;0.4160;3.1817;
818.4000;0.4151;3.1817;
818.7000;0.4151;3.1949;
819.0000;0.4160;3.1949;
819.3000;0.4151;3.1843;
819.6000;0.4143;3.1843;
819.9000;0.4168;3.1922;
820.2000;0.4151;3.1843;
820.5000;0.4111;3.1791;
820.8000;0.4176;3.2002;
821.1000;0.4176;3.2002;
821.4000;0.4184;3.2028;
821.7000;0.4200;3.2002;
822.0000;0.4184;3.2054;
822.3000;0.4176;3.2028;
822.6000;0.4168;3.1896;
822.9000;0.4086;3.1738;
823.2000;0.4143;3.1949;
823.5000;0.4143;3.1922;
823.8000;0.4160;3.1975;
824.1000;0.4135;3.1843;
824.4000;0.4143;3.1843;
824.7000;0.4151;3.1870;
825.0000;0.4151;3.1843;
825.3000;0.4160;3.1949;
825.6000;0.4160;3.1949;
825.9000;0.4151;3.1975;
826.2000;0.4143;3.2054;
826.5000;0.4151;3.2081;
826.8000;0.4151;3.1975;
827.1000;0.4151;3.1975;
827.4000;0.4160;3.2054;
827.7000;0.4176;3.2107;
828.0000;0.4184;3.2186;
828.3000;0.4135;3.2133;
828.6000;0.4151;3.2186;
828.9000;0.4143;3.2133;
829.2000;0.4192;3.2265;
829.5000;0.4143;3.2160;
829.8000;0.4143;3.2239;
830.1000;0.4037;3.1922;
830.4000;0.4151;3.2186;
830.7000;0.4151;3.2186;
831.0000;0.4127;3.2213;
831.3000;0.4168;3.2318;
831.6000;0.4135;3.2213;
831.9000;0.4135;3.2213;
832.2000;0.4135;3.2292;
832.5000;0.4127;3.2265;
832.8000;0.4257;3.2608;
833.1000;0.4160;3.2318;
833.4000;0.4151;3.2213;
833.7000;0.4151;3.2107;
834.0000;0.4168;3.2160;
834.3000;0.4160;3.2107;
834.6000;0.4151;3.2160;
834.9000;0.4143;3.2054;
835.2000;0.4184;3.2133;
835.5000;0.4151;3.2028;
835.8000;0.4151;3.2054;
836.1000;0.4151;3.1975;
836.4000;0.4200;3.2133;
836.7000;0.4135;3.1922;
837.0000;0.4151;3.1922;
837.3000;0.4135;3.1843;
837.6000;0.4135;3.1817;
837.9000;0.4160;3.1791;
838.2000;0.4160;3.1870;
838.5000;0.4151;3.1738;
838.8000;0.4111;3.1632;
839.1000;0.4151;3.1711;
839.4000;0.4119;3.1579;
839.7000;0.4119;3.1579;
840.0000;0.4135;3.1659;
840.3000;0.4143;3.1764;
840.6000;0.4151;3.1817;
840.9000;0.4086;3.1527;
841.2000;0.4143;3.1711;
841.5000;0.4119;3.1632;
841.8000;0.4160;3.1738;
842.1000;0.4143;3.1606;
842.4000;0.4151;3.1738;
842.7000;0.4160;3.1738;
843.0000;0.4160;3.1817;
843.3000;0.4168;3.1817;
843.6000;0.4151;3.1817;
843.9000;0.4046;3.1606;
844.2000;0.4094;3.1738;
844.5000;0.4168;3.1843;
844.8000;0.4143;3.1843;
845.1000;0.4127;3.1817;
845.4000;0.4143;3.1896;
845.7000;0.4160;3.1949;
846.0000;0.4160;3.1975;
846.3000;0.4176;3.2107;
846.6000;0.4151;3.2002;
846.9000;0.4070;3.1817;
847.2000;0.4176;3.2160;
847.5000;0.4160;3.2160;
847.8000;0.4143;3.2160;
848.1000;0.4151;3.2160;
848.4000;0.4135;3.2186;
848.7000;0.4127;3.2160;
849.0000;0.4135;3.2133;
849.3000;0.4135;3.2239;
849.6000;0.4160;3.2292;
849.9000;0.4127;3.2265;
850.2000;0.4103;3.2239;
850.5000;0.4135;3.2292;
850.8000;0.4143;3.2292;
851.1000;0.4143;3.2318;
851.4000;0.4135;3.2186;
851.7000;0.4127;3.2160;
852.0000;0.4135;3.2107;
852.3000;0.4111;3.2107;
852.6000;0.4151;3.2133;
852.9000;0.4070;3.1896;
853.2000;0.4135;3.2054;
853.5000;0.4143;3.2107;
853.8000;0.4151;3.2213;
854.1000;0.4127;3.2213;
854.4000;0.4135;3.2239;
854.7000;0.4143;3.2265;
855.0000;0.4143;3.2186;
855.3000;0.4062;3.1949;
855.6000;0.4176;3.2133;
855.9000;0.4151;3.2002;
856.2000;0.4168;3.2054;
856.5000;0.4143;3.2002;
856.8000;0.4160;3.2002;
857.1000;0.4135;3.1975;
857.4000;0.4160;3.2054;
857.7000;0.4160;3.2107;
858.0000;0.4143;3.2081;
858.3000;0.4151;3.2054;
858.6000;0.4143;3.2002;
858.9000;0.4143;3.1975;
859.2000;0.4160;3.1949;
859.5000;0.4176;3.1975;
859.8000;0.4143;3.1896;
860.1000;0.4151;3.1922;
860.4000;0.4135;3.1817;
860.7000;0.4143;3.1896;
861.0000;0.4127;3.1870;
861.3000;0.4127;3.1843;
861.6000;0.4143;3.1870;
861.9000;0.4176;3.1922;
862.2000;0.4151;3.1843;
862.5000;0.4168;3.1896;
862.8000;0.4151;3.1817;
863.1000;0.4160;3.1817;
863.4000;0.4143;3.1711;
863.7000;0.4151;3.1711;
864.0000;0.4135;3.1685;
864.3000;0.4168;3.1817;
864.6000;0.4160;3.1817;
864.9000;0.4160;3.1843;
865.2000;0.4168;3.1843;
865.5000;0.4143;3.1870;
865.8000;0.4143;3.1843;
866.1000;0.4127;3.1843;
866.4000;0.4184;3.1922;
866.7000;0.4127;3.1791;
867.0000;0.4135;3.1870;
867.3000;0.4143;3.2028;
867.6000;0.4127;3.2054;
867.9000;0.4168;3.2186;
868.2000;0.4160;3.2186;
868.5000;0.4168;3.2186;
868.8000;0.4151;3.2186;
869.1000;0.4241;3.2450;
869.4000;0.4103;3.2081;
869.7000;0.4127;3.2133;
870.0000;0.4127;3.2107;
870.3000;0.4127;3.2081;
870.6000;0.4160;3.2265;
870.9000;0.4119;3.2265;
871.2000;0.4160;3.2371;
871.5000;0.4119;3.2292;
871.8000;0.4135;3.2345;
872.1000;0.4135;3.2371;
872.4000;0.4151;3.2424;
872.7000;0.4143;3.2424;
873.0000;0.4127;3.2397;
873.3000;0.4143;3.2345;
873.6000;0.4151;3.2397;
873.9000;0.4135;3.2345;
874.2000;0.4103;3.2107;
874.5000;0.4135;3.2213;
874.8000;0.4127;3.2081;
875.1000;0.4143;3.2133;
875.4000;0.4143;3.2107;
875.7000;0.4127;3.2186;
876.0000;0.4127;3.2133;
876.3000;0.4135;3.2054;
876.6000;0.4119;3.1949;
876.9000;0.4094;3.1922;
877.2000;0.4135;3.1896;
877.5000;0.4135;3.1949;
877.8000;0.4143;3.1922;
878.1000;0.4119;3.1896;
878.4000;0.4135;3.1791;
878.7000;0.4151;3.1843;
879.0000;0.4151;3.1791;
879.3000;0.4151;3.1764;
879.6000;0.4127;3.1738;
879.9000;0.4143;3.1870;
880.2000;0.4143;3.1949;
880.5000;0.4143;3.2002;
880.8000;0.4143;3.1975;
881.1000;0.4119;3.1817;
881.4000;0.4135;3.1764;
881.7000;0.4135;3.1764;
882.0000;0.4119;3.1764;
882.3000;0.4143;3.1764;
882.6000;0.4127;3.1791;
882.9000;0.4135;3.1870;
883.2000;0.4135;3.1870;
883.5000;0.4135;3.1896;
883.8000;0.4143;3.1975;
884.1000;0.4143;3.1975;
884.4000;0.4021;3.1606;
884.7000;0.4135;3.1922;
885.0000;0.4119;3.1843;
885.3000;0.4143;3.1896;
885.6000;0.4151;3.2054;
885.9000;0.4127;3.2054;
886.2000;0.4135;3.2160;
886.5000;0.4119;3.2133;
886.8000;0.4135;3.2186;
887.1000;0.4151;3.2265;
887.4000;0.4135;3.2318;
887.7000;0.4127;3.2265;
888.0000;0.4151;3.2345;
888.3000;0.4135;3.2318;
888.6000;0.4127;3.2292;
888.9000;0.4135;3.2371;
889.2000;0.4135;3.2450;
889.5000;0.4127;3.2397;
889.8000;0.4119;3.2371;
890.1000;0.4143;3.2450;
890.4000;0.4176;3.2503;
890.7000;0.4127;3.2239;
891.0000;0.4135;3.2292;
891.3000;0.4119;3.2318;
891.6000;0.4119;3.2292;
891.9000;0.4111;3.2345;
892.2000;0.4127;3.2318;
892.5000;0.4119;3.2345;
892.8000;0.4135;3.2371;
893.1000;0.4135;3.2371;
893.4000;0.4192;3.2450;
893.7000;0.4127;3.2318;
894.0000;0.4135;3.2476;
894.3000;0.4127;3.2371;
894.6000;0.4135;3.2318;
894.9000;0.4135;3.2239;
895.2000;0.4168;3.2265;
895.5000;0.4143;3.2133;
895.8000;0.4143;3.2186;
896.1000;0.4143;3.2213;
896.4000;0.4127;3.2107;
896.7000;0.4151;3.2133;
897.0000;0.4143;3.2160;
897.3000;0.4119;3.2054;
897.6000;0.4119;3.2028;
897.9000;0.4135;3.2028;
898.2000;0.4111;3.2002;
898.5000;0.4135;3.2107;
898.8000;0.4135;3.2107;
899.1000;0.4135;3.2133;
899.4000;0.4111;3.2002;
899.7000;0.4143;3.2028;
900.0000;0.4143;3.2054;
900.3000;0.4143;3.2081;
900.6000;0.4143;3.2107;
900.9000;0.4127;3.2186;
901.2000;0.4111;3.2054;
901.5000;0.4135;3.2028;
901.8000;0.4249;3.2292;
902.1000;0.4127;3.2002;
902.4000;0.4151;3.2002;
902.7000;0.4143;3.1922;
903.0000;0.4184;3.1975;
903.3000;0.4135;3.1738;
903.6000;0.4127;3.1711;
903.9000;0.4086;3.1711;
904.2000;0.4135;3.1896;
904.5000;0.4127;3.1896;
904.8000;0.4151;3.1975;
905.1000;0.4127;3.1949;
905.4000;0.4143;3.2002;
905.7000;0.4127;3.1922;
906.0000;0.4176;3.1975;
906.3000;0.4192;3.2107;
906.6000;0.4127;3.2002;
906.9000;0.4094;3.2002;
907.2000;0.4143;3.2239;
907.5000;0.4135;3.2265;
907.8000;0.4135;3.2345;
908.1000;0.4127;3.2397;
908.4000;0.3940;3.1843;
908.7000;0.4135;3.2371;
909.0000;0.4192;3.2450;
909.3000;0.4103;3.2318;
909.6000;0.4127;3.2371;
909.9000;0.4127;3.2318;
910.2000;0.4127;3.2239;
910.5000;0.4208;3.2397;
910.8000;0.4111;3.2081;
911.1000;0.4127;3.2186;
911.4000;0.4119;3.2292;
911.7000;0.4094;3.2345;
912.0000;0.4135;3.2397;
912.3000;0.4119;3.2292;
912.6000;0.4127;3.2265;
912.9000;0.4135;3.2292;
913.2000;0.4119;3.2292;
913.5000;0.4135;3.2186;
913.8000;0.4135;3.2133;
914.1000;0.4143;3.2081;
914.4000;0.4135;3.2054;
914.7000;0.4143;3.2054;
915.0000;0.4143;3.2028;
915.3000;0.4103;3.1843;
915.6000;0.4135;3.1949;
915.9000;0.4127;3.1922;
916.2000;0.4037;3.1738;
916.5000;0.4127;3.1922;
916.8000;0.4135;3.1922;
917.1000;0.4135;3.2028;
917.4000;0.4111;3.1922;
917.7000;0.4265;3.2292;
918.0000;0.4135;3.1975;
918.3000;0.4127;3.1949;
918.6000;0.4143;3.1975;
918.9000;0.4127;3.2002;
919.2000;0.4046;3.1738;
919.5000;0.4135;3.1975;
919.8000;0.4143;3.2002;
920.1000;0.4143;3.1975;
920.4000;0.4119;3.1896;
920.7000;0.4168;3.2107;
921.0000;0.4176;3.2133;
921.3000;0.4119;3.2002;
921.6000;0.4127;3.2028;
921.9000;0.4143;3.2028;
922.2000;0.4013;3.1659;
922.5000;0.4127;3.2028;
922.8000;0.4135;3.2002;
923.1000;0.4151;3.2107;
923.4000;0.4143;3.2028;
923.7000;0.4127;3.1975;
924.0000;0.4184;3.2107;
924.3000;0.4062;3.1791;
924.6000;0.4135;3.1975;
924.9000;0.4135;3.2081;
925.2000;0.4151;3.2133;
925.5000;0.4127;3.2107;
925.8000;0.4168;3.2160;
926.1000;0.4143;3.2054;
926.4000;0.4151;3.2054;
926.7000;0.4135;3.1975;
927.0000;0.4151;3.2028;
927.3000;0.4119;3.2054;
927.6000;0.4127;3.2160;
927.9000;0.4184;3.2318;
928.2000;0.4143;3.2292;
928.5000;0.4127;3.2239;
928.8000;0.4046;3.2002;
929.1000;0.4119;3.2292;
929.4000;0.4070;3.2213;
929.7000;0.4094;3.2345;
930.0000;0.4135;3.2556;
930.3000;0.4135;3.2476;
930.6000;0.4119;3.2424;
930.9000;0.4127;3.2529;
931.2000;0.4143;3.2529;
931.5000;0.4119;3.2476;
931.8000;0.4184;3.2635;
932.1000;0.4127;3.2503;
932.4000;0.4135;3.2529;
932.7000;0.4119;3.2529;
933.0000;0.4143;3.2503;
933.3000;0.4127;3.2424;
933.6000;0.4078;3.2239;
933.9000;0.4143;3.2397;
934.2000;0.4135;3.2371;
934.5000;0.4135;3.2397;
934.8000;0.3989;3.1949;
935.1000;0.4135;3.2292;
935.4000;0.4127;3.2239;
935.7000;0.4119;3.2081;
936.0000;0.4111;3.2081;
936.3000;0.4135;3.2133;
936.6000;0.4127;3.2028;
936.9000;0.4127;3.1949;
937.2000;0.4103;3.1896;
937.5000;0.4127;3.1975;
937.8000;0.4127;3.2002;
938.1000;0.4127;3.2028;
938.4000;0.4111;3.1949;
938.7000;0.4127;3.2002;
939.0000;0.4119;3.1922;
939.3000;0.4103;3.1975;
939.6000;0.4135;3.1975;
939.9000;0.4037;3.1711;
940.2000;0.4176;3.2028;
940.5000;0.4127;3.1975;
940.8000;0.4151;3.2081;
941.1000;0.4143;3.2081;
941.4000;0.4143;3.2133;
941.7000;0.4135;3.2081;
942.0000;0.4119;3.2081;
942.3000;0.4135;3.2081;
942.6000;0.4135;3.2028;
942.9000;0.4184;3.2186;
943.2000;0.4127;3.2002;
943.5000;0.4160;3.2002;
943.8000;0.4127;3.1949;
944.1000;0.4119;3.1843;
944.4000;0.4135;3.1949;
944.7000;0.4119;3.1922;
945.0000;0.4111;3.2002;
945.3000;0.4168;3.2081;
945.6000;0.4151;3.2186;
945.9000;0.4111;3.2054;
946.2000;0.4151;3.2239;
946.5000;0.4151;3.2239;
946.8000;0.4135;3.2345;
947.1000;0.4151;3.2292;
947.4000;0.4135;3.2160;
947.7000;0.4135;3.2213;
948.0000;0.4029;3.2107;
948.3000;0.4111;3.2318;
948.6000;0.4070;3.2292;
948.9000;0.4111;3.2424;
949.2000;0.4135;3.2424;
949.5000;0.4103;3.2345;
949.8000;0.4127;3.2503;
950.1000;0.4119;3.2397;
950.4000;0.4143;3.2450;
950.7000;0.4119;3.2292;
951.0000;0.4143;3.2424;
951.3000;0.4135;3.2318;
951.6000;0.4127;3.2265;
951.9000;0.4111;3.2292;
952.2000;0.4127;3.2318;
952.5000;0.4078;3.2265;
952.8000;0.4111;3.2318;
953.1000;0.4127;3.2397;
953.4000;0.4111;3.2345;
953.7000;0.4119;3.2292;
954.0000;0.4127;3.2345;
954.3000;0.4111;3.2318;
954.6000;0.4119;3.2397;
954.9000;0.4127;3.2345;
955.2000;0.4160;3.2239;
955.5000;0.4119;3.2081;
955.8000;0.4160;3.2239;
956.1000;0.4143;3.2186;
956.4000;0.4192;3.2239;
956.7000;0.4135;3.2107;
957.0000;0.4119;3.1896;
957.3000;0.4111;3.1791;
957.6000;0.4078;3.1738;
957.9000;0.4046;3.1659;
958.2000;0.4103;3.1870;
958.5000;0.4127;3.1870;
958.8000;0.4078;3.1843;
959.1000;0.4143;3.2028;
959.4000;0.4078;3.1870;
959.7000;0.4200;3.2239;
960.0000;0.4200;3.2213;
960.3000;0.4168;3.2186;
960.6000;0.4151;3.2292;
960.9000;0.4103;3.2081;
961.2000;0.4111;3.2107;
961.5000;0.4127;3.2054;
961.8000;0.4127;3.2081;
962.1000;0.4200;3.2239;
962.4000;0.4135;3.2002;
962.7000;0.4127;3.1949;
963.0000;0.4135;3.1949;
963.3000;0.4160;3.1949;
963.6000;0.4111;3.1764;
963.9000;0.4103;3.1738;
964.2000;0.4119;3.1817;
964.5000;0.4111;3.1791;
964.8000;0.4143;3.1791;
965.1000;0.4135;3.1817;
965.4000;0.4127;3.1843;
965.7000;0.4135;3.1949;
966.0000;0.4135;3.2002;
966.3000;0.4168;3.2239;
966.6000;0.4135;3.2265;
966.9000;0.4111;3.2292;
967.2000;0.4135;3.2292;
967.5000;0.4103;3.2213;
967.8000;0.4119;3.2265;
968.1000;0.4127;3.2239;
968.4000;0.4127;3.2239;
968.7000;0.4094;3.2160;
969.0000;0.4119;3.2239;
969.3000;0.4119;3.2292;
969.6000;0.4119;3.2292;
969.9000;0.4119;3.2371;
970.2000;0.4233;3.2740;
970.5000;0.4111;3.2503;
970.8000;0.4111;3.2556;
971.1000;0.4111;3.2608;
971.4000;0.4119;3.2635;
971.7000;0.4135;3.2635;
972.0000;0.4103;3.2661;
972.3000;0.4111;3.2635;
972.6000;0.4103;3.2556;
972.9000;0.4127;3.2582;
973.2000;0.4119;3.2450;
973.5000;0.4111;3.2265;
973.8000;0.4127;3.2265;
974.1000;0.4135;3.2345;
974.4000;0.4151;3.2397;
974.7000;0.4127;3.2371;
975.0000;0.4127;3.2318;
975.3000;0.4127;3.2265;
975.6000;0.4119;3.2213;
975.9000;0.4119;3.2239;
976.2000;0.4094;3.2213;
976.5000;0.4111;3.2160;
976.8000;0.4143;3.2213;
977.1000;0.4143;3.2265;
977.4000;0.4086;3.2054;
977.7000;0.4143;3.2107;
978.0000;0.4151;3.2160;
978.3000;0.4127;3.2160;
978.6000;0.4151;3.2107;
978.9000;0.4135;3.1949;
979.2000;0.4135;3.1922;
979.5000;0.4119;3.1949;
979.8000;0.4135;3.2054;
980.1000;0.4127;3.2028;
980.4000;0.4127;3.2028;
980.7000;0.4143;3.2081;
981.0000;0.4241;3.2371;
981.3000;0.4135;3.2107;
981.6000;0.4127;3.2107;
981.9000;0.4062;3.1949;
982.2000;0.4135;3.2107;
982.5000;0.4111;3.2133;
982.8000;0.4119;3.2107;
983.1000;0.4135;3.2028;
983.4000;0.4119;3.1975;
983.7000;0.4127;3.2054;
984.0000;0.4143;3.2054;
984.3000;0.4127;3.2054;
984.6000;0.4135;3.2186;
984.9000;0.4160;3.2186;
985.2000;0.4233;3.2371;
985.5000;0.4143;3.2133;
985.8000;0.4143;3.2239;
986.1000;0.4143;3.2239;
986.4000;0.4135;3.2239;
986.7000;0.4135;3.2265;
987.0000;0.4127;3.2345;
987.3000;0.4127;3.2318;
987.6000;0.4119;3.2345;
987.9000;0.4111;3.2213;
988.2000;0.4119;3.2292;
988.5000;0.4127;3.2265;
988.8000;0.4143;3.2292;
989.1000;0.4127;3.2239;
989.4000;0.4127;3.2265;
989.7000;0.4135;3.2265;
990.0000;0.4111;3.2133;
990.3000;0.4143;3.2239;
990.6000;0.4135;3.2213;
990.9000;0.4119;3.2160;
991.2000;0.4127;3.2186;
991.5000;0.4127;3.2186;
991.8000;0.4127;3.2186;
992.1000;0.4111;3.2160;
992.4000;0.4127;3.2133;
992.7000;0.4127;3.2160;
993.0000;0.4119;3.2107;
993.3000;0.4119;3.2028;
993.6000;0.4119;3.2028;
993.9000;0.4127;3.2054;
994.2000;0.4127;3.2054;
994.5000;0.4111;3.2028;
994.8000;0.4127;3.2107;
995.1000;0.4119;3.2133;
995.4000;0.4086;3.2028;
995.7000;0.4127;3.2107;
996.0000;0.4119;3.2133;
996.3000;0.4111;3.2081;
996.6000;0.4127;3.2081;
996.9000;0.4135;3.2133;
997.2000;0.4135;3.2186;
997.5000;0.4135;3.2186;
997.8000;0.4151;3.2213;
998.1000;0.4119;3.2054;
998.4000;0.4127;3.1975;
998.7000;0.4143;3.2028;
999.0000;0.4135;3.1975;
999.3000;0.4127;3.1975;
999.6000;0.4127;3.1922;
999.9000;0.4119;3.1922;
1000.2000;0.4135;3.1922;
1000.5000;0.4241;3.2133;
1000.8000;0.4135;3.1738;
1001.1000;0.4135;3.1817;
1001.4000;0.4127;3.1870;
1001.7000;0.4135;3.1922;
1002.0000;0.4143;3.1896;
1002.3000;0.4103;3.1843;
1002.6000;0.4135;3.1949;
1002.9000;0.4127;3.1843;
1003.2000;0.4127;3.1870;
1003.5000;0.4160;3.2028;
1003.8000;0.4094;3.1870;
1004.1000;0.4143;3.1896;
1004.4000;0.4151;3.1922;
1004.7000;0.4127;3.1817;
1005.0000;0.4200;3.2002;
1005.3000;0.4127;3.1896;
1005.6000;0.4103;3.1843;
1005.9000;0.4111;3.1896;
1006.2000;0.4135;3.2002;
1006.5000;0.4127;3.1975;
1006.8000;0.4143;3.2028;
1007.1000;0.4127;3.2054;
1007.4000;0.4119;3.2107;
1007.7000;0.4127;3.2186;
1008.0000;0.4127;3.2186;
1008.3000;0.4119;3.2133;
1008.6000;0.4119;3.2186;
1008.9000;0.4119;3.2265;
1009.2000;0.4135;3.2371;
1009.5000;0.4070;3.2160;
1009.8000;0.4135;3.2239;
1010.1000;0.4151;3.2318;
1010.4000;0.4127;3.2345;
1010.7000;0.4111;3.2318;
1011.0000;0.4111;3.2318;
1011.3000;0.4103;3.2186;
1011.6000;0.4192;3.2397;
1011.9000;0.4127;3.2213;
1012.2000;0.4103;3.2239;
1012.5000;0.4111;3.2265;
1012.8000;0.4127;3.2213;
1013.1000;0.4119;3.2160;
1013.4000;0.4103;3.2107;
1013.7000;0.4111;3.2133;
1014.0000;0.4127;3.2054;
1014.3000;0.4103;3.2054;
1014.6000;0.4127;3.2081;
1014.9000;0.4119;3.2081;
1015.2000;0.4176;3.2239;
1015.5000;0.4127;3.2002;
1015.8000;0.4127;3.1975;
1016.1000;0.4111;3.1975;
1016.4000;0.4135;3.2081;
1016.7000;0.4127;3.2054;
1017.0000;0.4119;3.2002;
1017.3000;0.4111;3.1870;
1017.6000;0.4127;3.1896;
1017.9000;0.4135;3.1949;
1018.2000;0.4208;3.2213;
1018.5000;0.4135;3.1975;
1018.8000;0.4127;3.2028;
1019.1000;0.4127;3.2107;
1019.4000;0.4143;3.2107;
1019.7000;0.4119;3.2081;
1020.0000;0.4127;3.2054;
1020.3000;0.4127;3.2054;
1020.6000;0.4005;3.1711;
1020.9000;0.4127;3.2081;
1021.2000;0.4143;3.2239;
1021.5000;0.4111;3.2239;
1021.8000;0.4135;3.2239;
1022.1000;0.4127;3.2239;
1022.4000;0.4135;3.2160;
1022.7000;0.4127;3.2054;
1023.0000;0.4127;3.2133;
1023.3000;0.4127;3.2028;
1023.6000;0.4127;3.2054;
1023.9000;0.4143;3.2160;
1024.2000;0.4127;3.2133;
1024.5000;0.4127;3.2133;
1024.8000;0.4127;3.2133;
1025.1000;0.4127;3.2107;
1025.4000;0.4111;3.2081;
1025.7000;0.4135;3.2081;
1026.0000;0.4127;3.2081;
1026.3000;0.4176;3.2133;
1026.6000;0.4119;3.2054;
1026.9000;0.4127;3.2081;
1027.2000;0.4127;3.2133;
1027.5000;0.4119;3.2107;
1027.8000;0.4135;3.2133;
1028.1000;0.4127;3.2107;
1028.4000;0.4127;3.2160;
1028.7000;0.4119;3.2186;
1029.0000;0.4111;3.2213;
1029.3000;0.4119;3.2213;
1029.6000;0.4135;3.2345;
1029.9000;0.4029;3.2081;
1030.2000;0.4111;3.2371;
1030.5000;0.4111;3.2265;
1030.8000;0.4111;3.2397;
1031.1000;0.4119;3.2450;
1031.4000;0.4119;3.2424;
1031.7000;0.4119;3.2292;
1032.0000;0.4119;3.2318;
1032.3000;0.4127;3.2213;
1032.6000;0.4119;3.2107;
1032.9000;0.4111;3.2081;
1033.2000;0.4111;3.2133;
1033.5000;0.4037;3.1896;
1033.8000;0.4127;3.2213;
1034.1000;0.3980;3.1791;
1034.4000;0.4119;3.2160;
1034.7000;0.4135;3.2186;
1035.0000;0.4168;3.2318;
1035.3000;0.4119;3.2081;
1035.6000;0.4127;3.2028;
1035.9000;0.4127;3.2054;
1036.2000;0.4143;3.2002;
1036.5000;0.4119;3.2002;
1036.8000;0.4119;3.1975;
1037.1000;0.4127;3.1975;
1037.4000;0.4151;3.2028;
1037.7000;0.4111;3.1870;
1038.0000;0.4094;3.1843;
1038.3000;0.4119;3.1975;
1038.6000;0.4135;3.2002;
1038.9000;0.4119;3.2081;
1039.2000;0.4135;3.2186;
1039.5000;0.4127;3.2239;
1039.8000;0.4143;3.2239;
1040.1000;0.4135;3.2213;
1040.4000;0.4029;3.2028;
1040.7000;0.4135;3.2213;
1041.0000;0.4127;3.2213;
1041.3000;0.4127;3.2160;
1041.6000;0.4135;3.2160;
1041.9000;0.4094;3.2054;
1042.2000;0.4135;3.2028;
1042.5000;0.4135;3.1949;
1042.8000;0.4192;3.2133;
1043.1000;0.4127;3.1949;
1043.4000;0.4135;3.1922;
1043.7000;0.4135;3.1896;
1044.0000;0.4143;3.2028;
1044.3000;0.4151;3.2028;
1044.6000;0.4143;3.1922;
1044.9000;0.4143;3.1922;
1045.2000;0.4111;3.1843;
1045.5000;0.4135;3.1870;
1045.8000;0.4119;3.1843;
1046.1000;0.4127;3.1975;
1046.4000;0.4127;3.2002;
1046.7000;0.4151;3.2160;
1047.0000;0.4111;3.2054;
1047.3000;0.4111;3.2028;
1047.6000;0.4127;3.2160;
1047.9000;0.4119;3.2160;
1048.2000;0.4111;3.2186;
1048.5000;0.4119;3.2292;
1048.8000;0.4119;3.2397;
1049.1000;0.4160;3.2503;
1049.4000;0.4143;3.2529;
1049.7000;0.4119;3.2450;
1050.0000;0.4111;3.2345;
1050.3000;0.4094;3.2213;
1050.6000;0.4111;3.2318;
1050.9000;0.4103;3.2318;
1051.2000;0.4119;3.2424;
1051.5000;0.4094;3.2424;
1051.8000;0.4127;3.2503;
1052.1000;0.4111;3.2397;
1052.4000;0.4119;3.2397;
1052.7000;0.4135;3.2424;
1053.0000;0.4103;3.2345;
1053.3000;0.4062;3.2213;
1053.6000;0.4135;3.2318;
1053.9000;0.4160;3.2397;
1054.2000;0.4135;3.2397;
1054.5000;0.4143;3.2371;
1054.8000;0.4119;3.2292;
1055.1000;0.4143;3.2345;
1055.4000;0.4143;3.2186;
1055.7000;0.4103;3.1975;
1056.0000;0.4192;3.2213;
1056.3000;0.4119;3.1922;
1056.6000;0.4005;3.1579;
1056.9000;0.4184;3.1975;
1057.2000;0.4241;3.2054;
1057.5000;0.4127;3.1738;
1057.8000;0.4151;3.1843;
1058.1000;0.4111;3.1817;
1058.4000;0.4119;3.1896;
1058.7000;0.4111;3.1870;
1059.0000;0.4176;3.2002;
1059.3000;0.4127;3.1843;
1059.6000;0.4103;3.1870;
1059.9000;0.4127;3.1922;
1060.2000;0.4111;3.1922;
1060.5000;0.4119;3.1922;
1060.8000;0.4127;3.1922;
1061.1000;0.4111;3.1922;
1061.4000;0.4119;3.2002;
1061.7000;0.4127;3.2107;
1062.0000;0.4119;3.2081;
1062.3000;0.4094;3.1975;
1062.6000;0.4135;3.2002;
1062.9000;0.4119;3.2028;
1063.2000;0.4135;3.2028;
1063.5000;0.4143;3.2054;
1063.8000;0.4127;3.1922;
1064.1000;0.4119;3.1922;
1064.4000;0.4168;3.2081;
1064.7000;0.4119;3.1791;
1065.0000;0.4135;3.1791;
1065.3000;0.4135;3.1922;
1065.6000;0.4127;3.1949;
1065.9000;0.4119;3.1949;
1066.2000;0.4103;3.1949;
1066.5000;0.4119;3.2081;
1066.8000;0.4119;3.1975;
1067.1000;0.4127;3.2028;
1067.4000;0.4086;3.2028;
1067.7000;0.4119;3.2133;
1068.0000;0.4094;3.2054;
1068.3000;0.4143;3.2054;
1068.6000;0.4119;3.1843;
1068.9000;0.4119;3.1949;
1069.2000;0.4127;3.2081;
1069.5000;0.4086;3.2107;
1069.8000;0.4127;3.2265;
1070.1000;0.4127;3.2318;
1070.4000;0.4257;3.2793;
1070.7000;0.4160;3.2582;
1071.0000;0.4086;3.2450;
1071.3000;0.4119;3.2424;
1071.6000;0.4135;3.2397;
1071.9000;0.4184;3.2529;
1072.2000;0.4013;3.2002;
1072.5000;0.4111;3.2318;
1072.8000;0.3989;3.1975;
1073.1000;0.4135;3.2345;
1073.4000;0.4103;3.2239;
1073.7000;0.4103;3.2186;
1074.0000;0.4094;3.2160;
1074.3000;0.4111;3.2186;
1074.6000;0.4127;3.2213;
1074.9000;0.4054;3.1975;
1075.2000;0.4127;3.2160;
1075.5000;0.4160;3.2213;
1075.8000;0.4168;3.2239;
1076.1000;0.4135;3.2186;
1076.4000;0.4135;3.2133;
1076.7000;0.4151;3.2186;
1077.0000;0.4135;3.2054;
1077.3000;0.4103;3.1870;
1077.6000;0.4111;3.1975;
1077.9000;0.4127;3.1949;
1078.2000;0.4135;3.1817;
1078.5000;0.4135;3.1896;
1078.8000;0.4127;3.1922;
1079.1000;0.4135;3.1949;
1079.4000;0.4127;3.1949;
1079.7000;0.4127;3.1922;
1080.0000;0.4111;3.1896;
1080.3000;0.4127;3.1922;
1080.6000;0.4257;3.2371;
1080.9000;0.4127;3.2028;
1081.2000;0.4119;3.1975;
1081.5000;0.4151;3.2054;
1081.8000;0.4119;3.1922;
1082.1000;0.4135;3.1975;
1082.4000;0.4127;3.2081;
1082.7000;0.4127;3.2133;
1083.0000;0.4143;3.2213;
1083.3000;0.4143;3.2133;
1083.6000;0.4119;3.1949;
1083.9000;0.4135;3.2054;
1084.2000;0.4151;3.2054;
1084.5000;0.4127;3.1975;
1084.8000;0.4127;3.1922;
1085.1000;0.4119;3.1922;
1085.4000;0.4111;3.1843;
1085.7000;0.4143;3.1870;
1086.0000;0.4135;3.1975;
1086.3000;0.4119;3.1896;
1086.6000;0.4111;3.2028;
1086.9000;0.4127;3.2107;
1087.2000;0.4103;3.2081;
1087.5000;0.4111;3.2081;
1087.8000;0.4103;3.2133;
1088.1000;0.4094;3.2160;
1088.4000;0.4119;3.2160;
1088.7000;0.4127;3.2133;
1089.0000;0.4103;3.2133;
1089.3000;0.4094;3.2081;
1089.6000;0.4111;3.2107;
1089.9000;0.4086;3.2081;
1090.2000;0.4119;3.2292;
1090.5000;0.4111;3.2265;
1090.8000;0.4103;3.2292;
1091.1000;0.4094;3.2265;
1091.4000;0.4119;3.2318;
1091.7000;0.4103;3.2371;
1092.0000;0.4046;3.2213;
1092.3000;0.4111;3.2345;
1092.6000;0.4111;3.2292;
1092.9000;0.4143;3.2345;
1093.2000;0.4103;3.2292;
1093.5000;0.4111;3.2318;
1093.8000;0.4094;3.2213;
1094.1000;0.4151;3.2371;
1094.4000;0.4086;3.2239;
1094.7000;0.4119;3.2345;
1095.0000;0.4094;3.2265;
1095.3000;0.4119;3.2265;
1095.6000;0.4094;3.2133;
1095.9000;0.4143;3.2239;
1096.2000;0.4127;3.2239;
1096.5000;0.4119;3.2133;
1096.8000;0.4119;3.2028;
1097.1000;0.4111;3.2133;
1097.4000;0.4127;3.2133;
1097.7000;0.4119;3.2081;
1098.0000;0.4127;3.1975;
1098.3000;0.4111;3.2002;
1098.6000;0.4119;3.2107;
1098.9000;0.4119;3.2133;
1099.2000;0.4046;3.2002;
1099.5000;0.4135;3.2213;
1099.8000;0.4135;3.2081;
1100.1000;0.4127;3.2054;
1100.4000;0.4127;3.2107;
1100.7000;0.4119;3.2028;
1101.0000;0.4111;3.2054;
1101.3000;0.4135;3.2133;
1101.6000;0.4094;3.1949;
1101.9000;0.4070;3.1870;
1102.2000;0.4135;3.2133;
1102.5000;0.4127;3.2081;
1102.8000;0.4127;3.2054;
1103.1000;0.4127;3.2028;
1103.4000;0.4127;3.2133;
1103.7000;0.4119;3.2107;
1104.0000;0.4135;3.2081;
1104.3000;0.4127;3.2186;
1104.6000;0.4119;3.2239;
1104.9000;0.4127;3.2186;
1105.2000;0.4143;3.2107;
1105.5000;0.4127;3.2186;
1105.8000;0.4119;3.2160;
1106.1000;0.4135;3.2213;
1106.4000;0.4135;3.2160;
1106.7000;0.4086;3.2002;
1107.0000;0.4119;3.2133;
1107.3000;0.4119;3.2186;
1107.6000;0.4111;3.2292;
1107.9000;0.4119;3.2265;
1108.2000;0.4119;3.2265;
1108.5000;0.4111;3.2265;
1108.8000;0.4111;3.2265;
1109.1000;0.4111;3.2292;
1109.4000;0.4103;3.2345;
1109.7000;0.4127;3.2476;
1110.0000;0.4119;3.2424;
1110.3000;0.4127;3.2450;
1110.6000;0.4119;3.2476;
1110.9000;0.4094;3.2476;
1111.2000;0.4151;3.2582;
1111.5000;0.4111;3.2476;
1111.8000;0.4086;3.2476;
1112.1000;0.4086;3.2424;
1112.4000;0.4119;3.2424;
1112.7000;0.4111;3.2397;
1113.0000;0.4094;3.2371;
1113.3000;0.4119;3.2345;
1113.6000;0.4111;3.2265;
1113.9000;0.4119;3.2345;
1114.2000;0.4103;3.2345;
1114.5000;0.4054;3.2160;
1114.8000;0.4111;3.2371;
1115.1000;0.4143;3.2476;
1115.4000;0.4143;3.2450;
1115.7000;0.4119;3.2292;
1116.0000;0.4119;3.2345;
1116.3000;0.4127;3.2318;
1116.6000;0.4119;3.2292;
1116.9000;0.4127;3.2292;
1117.2000;0.4143;3.2292;
1117.5000;0.4184;3.2371;
1117.8000;0.4135;3.2292;
1118.1000;0.4119;3.2239;
1118.4000;0.4127;3.2186;
1118.7000;0.4119;3.2186;
1119.0000;0.4119;3.2107;
1119.3000;0.4119;3.2133;
1119.6000;0.4119;3.2054;
1119.9000;0.4111;3.1975;
1120.2000;0.4135;3.2028;
1120.5000;0.4078;3.1843;
1120.8000;0.4168;3.2081;
1121.1000;0.4119;3.1949;
1121.4000;0.4119;3.2002;
1121.7000;0.4094;3.1922;
1122.0000;0.4111;3.1949;
1122.3000;0.4143;3.1975;
1122.6000;0.4135;3.1870;
1122.9000;0.4127;3.1843;
1123.2000;0.4135;3.1870;
1123.5000;0.4119;3.1817;
1123.8000;0.4119;3.1791;
1124.1000;0.4135;3.1896;
1124.4000;0.4127;3.1764;
1124.7000;0.4119;3.1738;
1125.0000;0.4135;3.1817;
1125.3000;0.4176;3.1922;
1125.6000;0.4119;3.1738;
1125.9000;0.4127;3.1843;
1126.2000;0.4111;3.1922;
1126.5000;0.4111;3.1949;
1126.8000;0.4127;3.2002;
1127.1000;0.4086;3.1949;
1127.4000;0.4013;3.1685;
1127.7000;0.4127;3.2002;
1128.0000;0.4119;3.2002;
1128.3000;0.4094;3.2002;
1128.6000;0.4103;3.2054;
1128.9000;0.4119;3.2107;
1129.2000;0.4111;3.2081;
1129.5000;0.4111;3.2081;
1129.8000;0.4111;3.2054;
1130.1000;0.4086;3.2054;
1130.4000;0.4143;3.2213;
1130.7000;0.4135;3.2160;
1131.0000;0.4241;3.2503;
1131.3000;0.4086;3.2028;
1131.6000;0.4111;3.2133;
1131.9000;0.4135;3.2239;
1132.2000;0.4119;3.2160;
1132.5000;0.4135;3.2265;
1132.8000;0.4119;3.2160;
1133.1000;0.4111;3.2160;
1133.4000;0.4143;3.2265;
1133.7000;0.4111;3.2133;
1134.0000;0.4094;3.2160;
1134.3000;0.4103;3.2213;
1134.6000;0.4127;3.2345;
1134.9000;0.4111;3.2239;
1135.2000;0.4103;3.2186;
1135.5000;0.4111;3.2213;
1135.8000;0.4135;3.2213;
1136.1000;0.4127;3.2186;
1136.4000;0.4127;3.2160;
1136.7000;0.4127;3.2160;
1137.0000;0.4119;3.2107;
1137.3000;0.4111;3.2054;
1137.6000;0.4127;3.1975;
1137.9000;0.4151;3.2081;
1138.2000;0.4135;3.2002;
1138.5000;0.4119;3.1949;
1138.8000;0.4119;3.1922;
1139.1000;0.4135;3.2002;
1139.4000;0.4135;3.2028;
1139.7000;0.4119;3.2002;
1140.0000;0.4078;3.1896;
1140.3000;0.4127;3.1949;
1140.6000;0.4135;3.1975;
1140.9000;0.4135;3.1975;
1141.2000;0.4119;3.1870;
1141.5000;0.4127;3.1896;
1141.8000;0.4127;3.1949;
1142.1000;0.4111;3.1975;
1142.4000;0.4111;3.1922;
1142.7000;0.4127;3.2054;
1143.0000;0.4103;3.1896;
1143.3000;0.4111;3.1922;
1143.6000;0.4151;3.2002;
1143.9000;0.4070;3.1843;
1144.2000;0.4119;3.1949;
1144.5000;0.4119;3.2081;
1144.8000;0.4111;3.2081;
1145.1000;0.4111;3.2028;
1145.4000;0.4094;3.1975;
1145.7000;0.4127;3.1949;
1146.0000;0.4111;3.1949;
1146.3000;0.4135;3.1949;
1146.6000;0.4094;3.1922;
1146.9000;0.4241;3.2318;
1147.2000;0.4119;3.2081;
1147.5000;0.4127;3.2054;
1147.8000;0.4103;3.1922;
1148.1000;0.4127;3.2133;
1148.4000;0.4160;3.2397;
1148.7000;0.4103;3.2318;
1149.0000;0.4119;3.2371;
1149.3000;0.4127;3.2345;
1149.6000;0.4094;3.2318;
1149.9000;0.4094;3.2397;
1150.2000;0.4103;3.2397;
1150.5000;0.4127;3.2424;
1150.8000;0.4119;3.2371;
1151.1000;0.4143;3.2371;
1151.4000;0.4143;3.2450;
1151.7000;0.4094;3.2397;
1152.0000;0.4119;3.2424;
1152.3000;0.4111;3.2529;
1152.6000;0.4111;3.2503;
1152.9000;0.4119;3.2397;
1153.2000;0.4103;3.2345;
1153.5000;0.4103;3.2186;
1153.8000;0.4127;3.2107;
1154.1000;0.4119;3.2028;
1154.4000;0.4078;3.1922;
1154.7000;0.4111;3.1949;
1155.0000;0.4119;3.1975;
1155.3000;0.4111;3.1922;
1155.6000;0.4111;3.1896;
1155.9000;0.4127;3.1896;
1156.2000;0.4103;3.1764;
1156.5000;0.4119;3.1896;
1156.8000;0.4111;3.1922;
1157.1000;0.4119;3.1975;
1157.4000;0.4111;3.1949;
1157.7000;0.4094;3.1896;
1158.0000;0.4127;3.1975;
1158.3000;0.4111;3.1870;
1158.6000;0.4119;3.1896;
1158.9000;0.4119;3.1817;
1159.2000;0.4103;3.1949;
1159.5000;0.4127;3.2107;
1159.8000;0.4119;3.2107;
1160.1000;0.4111;3.2107;
1160.4000;0.4111;3.2028;
1160.7000;0.4135;3.2107;
1161.0000;0.4127;3.2054;
1161.3000;0.4127;3.2054;
1161.6000;0.4135;3.2133;
1161.9000;0.4127;3.2002;
1162.2000;0.4070;3.1896;
1162.5000;0.4143;3.2054;
1162.8000;0.4111;3.2002;
1163.1000;0.4127;3.2054;
1163.4000;0.4111;3.2133;
1163.7000;0.4103;3.2081;
1164.0000;0.4151;3.2133;
1164.3000;0.4143;3.2081;
1164.6000;0.4111;3.2028;
1164.9000;0.4103;3.2002;
1165.2000;0.4119;3.2186;
1165.5000;0.4103;3.2054;
1165.8000;0.4103;3.2054;
1166.1000;0.4127;3.2081;
1166.4000;0.4111;3.2054;
1166.7000;0.4037;3.1922;
1167.0000;0.4127;3.2213;
1167.3000;0.4160;3.2186;
1167.6000;0.4127;3.2054;
1167.9000;0.4111;3.2028;
1168.2000;0.4111;3.2160;
1168.5000;0.4103;3.2213;
1168.8000;0.4078;3.2186;
1169.1000;0.4119;3.2424;
1169.4000;0.4127;3.2397;
1169.7000;0.4103;3.2318;
1170.0000;0.3980;3.1975;
1170.3000;0.4086;3.2292;
1170.6000;0.4078;3.2213;
1170.9000;0.4103;3.2318;
1171.2000;0.4127;3.2529;
1171.5000;0.4119;3.2503;
1171.8000;0.4135;3.2582;
1172.1000;0.4119;3.2529;
1172.4000;0.4086;3.2397;
1172.7000;0.4127;3.2529;
1173.0000;0.4094;3.2397;
1173.3000;0.4054;3.2239;
1173.6000;0.4094;3.2424;
1173.9000;0.4103;3.2503;
1174.2000;0.4127;3.2556;
1174.5000;0.4143;3.2476;
1174.8000;0.4119;3.2318;
1175.1000;0.4094;3.2186;
1175.4000;0.4127;3.2186;
1175.7000;0.4119;3.2133;
1176.0000;0.4119;3.2160;
1176.3000;0.4151;3.2265;
1176.6000;0.4127;3.2160;
1176.9000;0.4111;3.2160;
1177.2000;0.4103;3.2081;
1177.5000;0.4143;3.2160;
1177.8000;0.4111;3.2160;
1178.1000;0.4086;3.2160;
1178.4000;0.4111;3.2186;
1178.7000;0.4127;3.2160;
1179.0000;0.4135;3.2133;
1179.3000;0.4103;3.1975;
1179.6000;0.4119;3.2002;
1179.9000;0.4135;3.2054;
1180.2000;0.4111;3.2054;
1180.5000;0.4103;3.2054;
1180.8000;0.4111;3.2107;
1181.1000;0.4103;3.2133;
1181.4000;0.4111;3.2107;
1181.7000;0.4103;3.2054;
1182.0000;0.4111;3.2133;
1182.3000;0.4119;3.2133;
1182.6000;0.4111;3.2133;
1182.9000;0.4094;3.1922;
1183.2000;0.4119;3.1949;
1183.5000;0.4135;3.1896;
1183.8000;0.4135;3.1896;
1184.1000;0.4135;3.1949;
1184.4000;0.4103;3.1922;
1184.7000;0.4111;3.1896;
1185.0000;0.4119;3.1922;
1185.3000;0.4119;3.2028;
1185.6000;0.4127;3.2054;
1185.9000;0.4111;3.1949;
1186.2000;0.4119;3.2028;
1186.5000;0.4119;3.2107;
1186.8000;0.4135;3.2186;
1187.1000;0.4127;3.2160;
1187.4000;0.4119;3.2213;
1187.7000;0.4127;3.2265;
1188.0000;0.4127;3.2345;
1188.3000;0.4103;3.2371;
1188.6000;0.4111;3.2450;
1188.9000;0.4127;3.2371;
1189.2000;0.4127;3.2345;
1189.5000;0.4111;3.2292;
1189.8000;0.4086;3.2318;
1190.1000;0.4111;3.2503;
1190.4000;0.4127;3.2608;
1190.7000;0.4103;3.2503;
1191.0000;0.4111;3.2582;
1191.3000;0.4103;3.2608;
1191.6000;0.4103;3.2582;
1191.9000;0.4143;3.2661;
1192.2000;0.4086;3.2608;
1192.5000;0.4111;3.2661;
1192.8000;0.4151;3.2688;
1193.1000;0.4094;3.2424;
1193.4000;0.4135;3.2608;
1193.7000;0.4078;3.2476;
1194.0000;0.4111;3.2503;
1194.3000;0.4103;3.2503;
1194.6000;0.4103;3.2424;
1194.9000;0.4135;3.2450;
1195.2000;0.4111;3.2476;
1195.5000;0.4103;3.2424;
1195.8000;0.4127;3.2397;
1196.1000;0.4119;3.2239;
1196.4000;0.4094;3.2133;
1196.7000;0.4111;3.2213;
1197.0000;0.4094;3.2133;
1197.3000;0.4127;3.2160;
1197.6000;0.4143;3.2186;
1197.9000;0.4257;3.2529;
1198.2000;0.4111;3.2081;
1198.5000;0.4184;3.2239;
1198.8000;0.4111;3.2160;
1199.1000;0.4127;3.2160;
1199.4000;0.4119;3.2133;
1199.7000;0.4111;3.2107;
1200.0000;0.4111;3.2107;
1200.3000;0.4111;3.2107;
1200.6000;0.4111;3.2107;
1200.9000;0.4103;3.2133;
1201.2000;0.4111;3.2107;
1201.5000;0.4127;3.2107;
1201.8000;0.4135;3.2160;
1202.1000;0.4151;3.2186;
1202.4000;0.4143;3.2213;
1202.7000;0.4119;3.2186;
1203.0000;0.4127;3.2239;
1203.3000;0.4143;3.2239;
1203.6000;0.4119;3.2160;
1203.9000;0.4143;3.2186;
1204.2000;0.4119;3.2186;
1204.5000;0.4127;3.2292;
1204.8000;0.4111;3.2186;
1205.1000;0.4119;3.2107;
1205.4000;0.4111;3.2081;
1205.7000;0.4119;3.2107;
1206.0000;0.4135;3.2186;
1206.3000;0.4103;3.1975;
1206.6000;0.4127;3.2107;
1206.9000;0.4119;3.2160;
1207.2000;0.4111;3.2160;
1207.5000;0.4103;3.2133;
1207.8000;0.4127;3.2265;
1208.1000;0.4119;3.2292;
1208.4000;0.4103;3.2292;
1208.7000;0.4127;3.2371;
1209.0000;0.4111;3.2424;
1209.3000;0.4086;3.2450;
1209.6000;0.4103;3.2450;
1209.9000;0.4119;3.2529;
1210.2000;0.4119;3.2503;
1210.5000;0.4094;3.2503;
1210.8000;0.4103;3.2529;
1211.1000;0.4111;3.2582;
1211.4000;0.4111;3.2635;
1211.7000;0.4103;3.2556;
1212.0000;0.4111;3.2503;
1212.3000;0.4160;3.2635;
1212.6000;0.4111;3.2503;
1212.9000;0.4111;3.2450;
1213.2000;0.4176;3.2661;
1213.5000;0.4119;3.2397;
1213.8000;0.4151;3.2318;
1214.1000;0.4111;3.2186;
1214.4000;0.4143;3.2213;
1214.7000;0.4143;3.2081;
1215.0000;0.4111;3.2054;
1215.3000;0.4135;3.2133;
1215.6000;0.4119;3.2054;
1215.9000;0.4143;3.2160;
1216.2000;0.4119;3.2054;
1216.5000;0.4111;3.1975;
1216.8000;0.4111;3.2054;
1217.1000;0.4119;3.2107;
1217.4000;0.4119;3.2133;
1217.7000;0.4119;3.2107;
1218.0000;0.4111;3.2186;
1218.3000;0.4054;3.2028;
1218.6000;0.4119;3.2239;
1218.9000;0.4127;3.2239;
1219.2000;0.4119;3.2186;
1219.5000;0.4135;3.2265;
1219.8000;0.4127;3.2292;
1220.1000;0.4151;3.2424;
1220.4000;0.4127;3.2213;
1220.7000;0.4127;3.2239;
1221.0000;0.4103;3.2160;
1221.3000;0.4119;3.2239;
1221.6000;0.4103;3.2213;
1221.9000;0.4127;3.2213;
1222.2000;0.4135;3.2265;
1222.5000;0.4127;3.2186;
1222.8000;0.4127;3.2160;
1223.1000;0.4119;3.2160;
1223.4000;0.4119;3.2107;
1223.7000;0.4127;3.2107;
1224.0000;0.4135;3.2133;
1224.3000;0.4143;3.2160;
1224.6000;0.4127;3.2160;
1224.9000;0.4119;3.2107;
1225.2000;0.4086;3.2028;
1225.5000;0.4119;3.2054;
1225.8000;0.4119;3.2002;
1226.1000;0.4119;3.2054;
1226.4000;0.4111;3.2160;
1226.7000;0.4103;3.2133;
1227.0000;0.4103;3.2107;
1227.3000;0.4111;3.2186;
1227.6000;0.4119;3.2213;
1227.9000;0.4111;3.2160;
1228.2000;0.4111;3.2186;
1228.5000;0.4119;3.2213;
1228.8000;0.4119;3.2239;
1229.1000;0.4127;3.2292;
1229.4000;0.4127;3.2397;
1229.7000;0.4119;3.2476;
1230.0000;0.4111;3.2476;
1230.3000;0.4119;3.2450;
1230.6000;0.4111;3.2476;
1230.9000;0.4103;3.2503;
1231.2000;0.4094;3.2582;
1231.5000;0.4103;3.2608;
1231.8000;0.4103;3.2582;
1232.1000;0.4119;3.2793;
1232.4000;0.4111;3.2714;
1232.7000;0.4119;3.2661;
1233.0000;0.4111;3.2661;
1233.3000;0.4078;3.2635;
1233.6000;0.4111;3.2661;
1233.9000;0.4119;3.2688;
1234.2000;0.4160;3.2661;
1234.5000;0.4119;3.2503;
1234.8000;0.4127;3.2476;
1235.1000;0.4127;3.2424;
1235.4000;0.4200;3.2635;
1235.7000;0.4111;3.2371;
1236.0000;0.4062;3.2213;
1236.3000;0.4233;3.2608;
1236.6000;0.4127;3.2292;
1236.9000;0.4103;3.2265;
1237.2000;0.4119;3.2186;
1237.5000;0.4103;3.2107;
1237.8000;0.4119;3.2133;
1238.1000;0.4119;3.2160;
1238.4000;0.4135;3.2213;
1238.7000;0.4111;3.2213;
1239.0000;0.4119;3.2318;
1239.3000;0.4119;3.2318;
1239.6000;0.4111;3.2239;
1239.9000;0.4127;3.2239;
1240.2000;0.4143;3.2318;
1240.5000;0.4135;3.2345;
1240.8000;0.4135;3.2265;
1241.1000;0.4111;3.2186;
1241.4000;0.4127;3.2265;
1241.7000;0.4127;3.2345;
1242.0000;0.4111;3.2186;
1242.3000;0.4103;3.2133;
1242.6000;0.4119;3.2160;
1242.9000;0.4119;3.2186;
1243.2000;0.4086;3.2133;
1243.5000;0.4103;3.2160;
1243.8000;0.4119;3.2239;
1244.1000;0.4119;3.2292;
1244.4000;0.4135;3.2239;
1244.7000;0.4111;3.2133;
1245.0000;0.4119;3.2133;
1245.3000;0.4192;3.2371;
1245.6000;0.4127;3.2213;
1245.9000;0.4143;3.2345;
1246.2000;0.4143;3.2556;
1246.5000;0.4103;3.2556;
1246.8000;0.4119;3.2556;
1247.1000;0.4168;3.2635;
1247.4000;0.4054;3.2371;
1247.7000;0.4119;3.2529;
1248.0000;0.4078;3.2503;
1248.3000;0.4127;3.2608;
1248.6000;0.4111;3.2529;
1248.9000;0.4103;3.2424;
1249.2000;0.4127;3.2450;
1249.5000;0.4135;3.2397;
1249.8000;0.4119;3.2424;
1250.1000;0.4103;3.2318;
1250.4000;0.4119;3.2345;
1250.7000;0.4103;3.2371;
1251.0000;0.4094;3.2265;
1251.3000;0.4103;3.2292;
1251.6000;0.4111;3.2397;
1251.9000;0.4119;3.2450;
1252.2000;0.4062;3.2318;
1252.5000;0.4094;3.2476;
1252.8000;0.4111;3.2608;
1253.1000;0.4127;3.2635;
1253.4000;0.4111;3.2529;
1253.7000;0.4094;3.2371;
1254.0000;0.4127;3.2397;
1254.3000;0.4103;3.2292;
1254.6000;0.4127;3.2371;
1254.9000;0.4111;3.2160;
1255.2000;0.4119;3.2107;
1255.5000;0.4143;3.2213;
1255.8000;0.4119;3.2186;
1256.1000;0.4135;3.2081;
1256.4000;0.4119;3.2107;
1256.7000;0.4119;3.2081;
1257.0000;0.4119;3.2081;
1257.3000;0.4103;3.2107;
1257.6000;0.4078;3.2002;
1257.9000;0.4111;3.2081;
1258.2000;0.4151;3.2133;
1258.5000;0.4119;3.2107;
1258.8000;0.4119;3.2081;
1259.1000;0.4119;3.2054;
1259.4000;0.4111;3.2107;
1259.7000;0.4168;3.2292;
1260.0000;0.3997;3.1817;
1260.3000;0.4233;3.2529;
1260.6000;0.4127;3.2213;
1260.9000;0.4119;3.2107;
1261.2000;0.4111;3.2081;
1261.5000;0.4127;3.2107;
1261.8000;0.4184;3.2292;
1262.1000;0.4086;3.2028;
1262.4000;0.4111;3.2028;
1262.7000;0.4119;3.2002;
1263.0000;0.4013;3.1711;
1263.3000;0.4127;3.2054;
1263.6000;0.4119;3.2081;
1263.9000;0.4013;3.1791;
1264.2000;0.4103;3.2002;
1264.5000;0.4078;3.1949;
1264.8000;0.4151;3.2054;
1265.1000;0.4029;3.1738;
1265.4000;0.4241;3.2450;
1265.7000;0.4111;3.2054;
1266.0000;0.4070;3.1896;
1266.3000;0.4143;3.2133;
1266.6000;0.4062;3.1817;
1266.9000;0.4103;3.1896;
1267.2000;0.4119;3.2054;
1267.5000;0.4119;3.2107;
1267.8000;0.4119;3.2160;
1268.1000;0.4233;3.2503;
1268.4000;0.4103;3.2186;
1268.7000;0.4111;3.2265;
1269.0000;0.4103;3.2213;
1269.3000;0.4078;3.2160;
1269.6000;0.4119;3.2160;
1269.9000;0.4127;3.2239;
1270.2000;0.4143;3.2345;
1270.5000;0.4103;3.2318;
1270.8000;0.4111;3.2424;
1271.1000;0.4135;3.2582;
1271.4000;0.4094;3.2503;
1271.7000;0.4111;3.2556;
1272.0000;0.4103;3.2503;
1272.3000;0.4119;3.2503;
1272.6000;0.4103;3.2529;
1272.9000;0.4233;3.2714;
1273.2000;0.4111;3.2503;
1273.5000;0.4127;3.2582;
1273.8000;0.4094;3.2424;
1274.1000;0.4094;3.2397;
1274.4000;0.4119;3.2345;
1274.7000;0.4111;3.2318;
1275.0000;0.4119;3.2239;
1275.3000;0.4119;3.2239;
1275.6000;0.4086;3.2160;
1275.9000;0.4111;3.2213;
1276.2000;0.4127;3.2265;
1276.5000;0.4119;3.2107;
1276.8000;0.4119;3.2213;
1277.1000;0.4111;3.2133;
1277.4000;0.4119;3.2160;
1277.7000;0.4111;3.2107;
1278.0000;0.4119;3.2160;
1278.3000;0.4094;3.2002;
1278.6000;0.4135;3.2028;
1278.9000;0.4086;3.1922;
1279.2000;0.4119;3.2081;
1279.5000;0.4111;3.2028;
1279.8000;0.4119;3.1975;
1280.1000;0.4103;3.1870;
1280.4000;0.4127;3.1896;
1280.7000;0.4111;3.1843;
1281.0000;0.4160;3.1975;
1281.3000;0.4135;3.1922;
1281.6000;0.4127;3.1922;
1281.9000;0.4127;3.1949;
1282.2000;0.4119;3.1870;
1282.5000;0.4217;3.2186;
1282.8000;0.4127;3.1922;
1283.1000;0.4111;3.1791;
1283.4000;0.4119;3.1791;
1283.7000;0.4135;3.1791;
1284.0000;0.4135;3.1896;
1284.3000;0.4127;3.1922;
1284.6000;0.4151;3.1922;
1284.9000;0.4135;3.1922;
1285.2000;0.4135;3.1975;
1285.5000;0.4086;3.1843;
1285.8000;0.4029;3.1659;
1286.1000;0.4103;3.2028;
1286.4000;0.4143;3.2081;
1286.7000;0.4143;3.2133;
1287.0000;0.4119;3.2054;
1287.3000;0.4111;3.2107;
1287.6000;0.4135;3.2186;
1287.9000;0.4119;3.2186;
1288.2000;0.4119;3.2239;
1288.5000;0.4151;3.2397;
1288.8000;0.4176;3.2450;
1289.1000;0.4070;3.2133;
1289.4000;0.4127;3.2213;
1289.7000;0.4111;3.2160;
1290.0000;0.4103;3.2160;
1290.3000;0.4119;3.2239;
1290.6000;0.4119;3.2318;
1290.9000;0.4111;3.2292;
1291.2000;0.4135;3.2397;
1291.5000;0.4127;3.2503;
1291.8000;0.4119;3.2556;
1292.1000;0.4111;3.2608;
1292.4000;0.4119;3.2582;
1292.7000;0.4119;3.2635;
1293.0000;0.4119;3.2503;
1293.3000;0.4111;3.2371;
1293.6000;0.4103;3.2318;
1293.9000;0.4135;3.2397;
1294.2000;0.4119;3.2345;
1294.5000;0.4135;3.2371;
1294.8000;0.4127;3.2371;
1295.1000;0.4127;3.2318;
1295.4000;0.4143;3.2318;
1295.7000;0.4192;3.2371;
1296.0000;0.4111;3.2239;
1296.3000;0.4127;3.2265;
1296.6000;0.4135;3.2239;
1296.9000;0.4111;3.2160;
1297.2000;0.4119;3.2186;
1297.5000;0.4135;3.2160;
1297.8000;0.4086;3.1975;
1298.1000;0.4103;3.1975;
1298.4000;0.4119;3.1949;
1298.7000;0.4111;3.2002;
1299.0000;0.4111;3.2028;
1299.3000;0.4143;3.2081;
1299.6000;0.4119;3.1975;
1299.9000;0.4135;3.2081;
1300.2000;0.4111;3.1975;
1300.5000;0.4127;3.2002;
1300.8000;0.4135;3.2028;
1301.1000;0.4111;3.2054;
1301.4000;0.4119;3.2133;
1301.7000;0.4127;3.2213;
1302.0000;0.4127;3.2213;
1302.3000;0.4135;3.2107;
1302.6000;0.4119;3.2002;
1302.9000;0.4127;3.2054;
1303.2000;0.4094;3.1870;
1303.5000;0.4078;3.1764;
1303.8000;0.4119;3.1870;
1304.1000;0.4127;3.1896;
1304.4000;0.4168;3.1949;
1304.7000;0.4127;3.1817;
1305.0000;0.4192;3.2028;
1305.3000;0.4078;3.1711;
1305.6000;0.4135;3.1922;
1305.9000;0.4103;3.1896;
1306.2000;0.4119;3.2054;
1306.5000;0.4054;3.2002;
1306.8000;0.4127;3.2186;
1307.1000;0.4103;3.2133;
1307.4000;0.4127;3.2213;
1307.7000;0.4103;3.2107;
1308.0000;0.4176;3.2397;
1308.3000;0.4119;3.2450;
1308.6000;0.4103;3.2345;
1308.9000;0.4119;3.2345;
1309.2000;0.4111;3.2292;
1309.5000;0.4103;3.2265;
1309.8000;0.4111;3.2292;
1310.1000;0.4127;3.2424;
1310.4000;0.4111;3.2450;
1310.7000;0.4111;3.2371;
1311.0000;0.4103;3.2345;
1311.3000;0.4127;3.2265;
1311.6000;0.4103;3.2265;
1311.9000;0.4143;3.2503;
1312.2000;0.4054;3.2213;
1312.5000;0.4111;3.2424;
1312.8000;0.4111;3.2397;
1313.1000;0.4086;3.2345;
1313.4000;0.4111;3.2345;
1313.7000;0.4111;3.2345;
1314.0000;0.4070;3.2239;
1314.3000;0.4078;3.2186;
1314.6000;0.4103;3.2239;
1314.9000;0.4119;3.2265;
1315.2000;0.4062;3.2213;
1315.5000;0.4094;3.2265;
1315.8000;0.4135;3.2397;
1316.1000;0.4111;3.2318;
1316.4000;0.4127;3.2265;
1316.7000;0.4119;3.2160;
1317.0000;0.4127;3.2107;
1317.3000;0.4143;3.2002;
1317.6000;0.4103;3.1870;
1317.9000;0.4135;3.1949;
1318.2000;0.4094;3.1922;
1318.5000;0.4119;3.1975;
1318.8000;0.4119;3.2002;
1319.1000;0.4103;3.1975;
1319.4000;0.4127;3.2028;
1319.7000;0.4111;3.2002;
1320.0000;0.4094;3.1949;
1320.3000;0.4135;3.2107;
1320.6000;0.4119;3.1975;
1320.9000;0.4151;3.2081;
1321.2000;0.4111;3.2002;
1321.5000;0.4111;3.2107;
1321.8000;0.4135;3.2107;
1322.1000;0.4103;3.2028;
1322.4000;0.4111;3.2054;
1322.7000;0.4119;3.2107;
1323.0000;0.4119;3.2107;
1323.3000;0.4054;3.1791;
1323.6000;0.4127;3.2054;
1323.9000;0.4119;3.2028;
1324.2000;0.4111;3.2054;
1324.5000;0.4103;3.2028;
1324.8000;0.4119;3.2081;
1325.1000;0.4119;3.1975;
1325.4000;0.4127;3.1949;
1325.7000;0.4094;3.1817;
1326.0000;0.4119;3.1870;
1326.3000;0.4094;3.1843;
1326.6000;0.4111;3.1896;
1326.9000;0.4127;3.1922;
1327.2000;0.4111;3.1949;
1327.5000;0.4111;3.1922;
1327.8000;0.4111;3.1922;
1328.1000;0.4135;3.2028;
1328.4000;0.4111;3.1949;
1328.7000;0.4111;3.2054;
1329.0000;0.4119;3.2133;
1329.3000;0.4127;3.2292;
1329.6000;0.4111;3.2239;
1329.9000;0.4103;3.2186;
1330.2000;0.4103;3.2133;
1330.5000;0.4151;3.2265;
1330.8000;0.4111;3.2186;
1331.1000;0.4119;3.2265;
1331.4000;0.4119;3.2265;
1331.7000;0.4119;3.2265;
1332.0000;0.4119;3.2292;
1332.3000;0.4119;3.2318;
1332.6000;0.4119;3.2345;
1332.9000;0.4111;3.2345;
1333.2000;0.4070;3.2160;
1333.5000;0.4119;3.2213;
1333.8000;0.4127;3.2292;
1334.1000;0.4103;3.2239;
1334.4000;0.4111;3.2186;
1334.7000;0.4111;3.2213;
1335.0000;0.4111;3.2160;
1335.3000;0.4143;3.2213;
1335.6000;0.4127;3.2265;
1335.9000;0.4111;3.2186;
1336.2000;0.4078;3.2160;
1336.5000;0.4127;3.2186;
1336.8000;0.4111;3.2133;
1337.1000;0.4160;3.2213;
1337.4000;0.4127;3.2160;
1337.7000;0.4127;3.2160;
1338.0000;0.4094;3.1975;
1338.3000;0.4135;3.2002;
1338.6000;0.4127;3.1975;
1338.9000;0.4111;3.1949;
1339.2000;0.4111;3.1870;
1339.5000;0.4111;3.1817;
1339.8000;0.4127;3.1817;
1340.1000;0.4127;3.1764;
1340.4000;0.4127;3.1711;
1340.7000;0.4119;3.1632;
1341.0000;0.4127;3.1685;
1341.3000;0.4127;3.1711;
1341.6000;0.4135;3.1711;
1341.9000;0.4119;3.1791;
1342.2000;0.4111;3.1791;
1342.5000;0.4127;3.1843;
1342.8000;0.4111;3.1922;
1343.1000;0.4127;3.1975;
1343.4000;0.4127;3.1975;
1343.7000;0.4135;3.1949;
1344.0000;0.4119;3.1896;
1344.3000;0.4005;3.1659;
1344.6000;0.4119;3.2002;
1344.9000;0.4111;3.2002;
1345.2000;0.4029;3.1711;
1345.5000;0.4111;3.1975;
1345.8000;0.4127;3.2107;
1346.1000;0.4111;3.2054;
1346.4000;0.4127;3.2028;
1346.7000;0.4111;3.2002;
1347.0000;0.4086;3.2028;
1347.3000;0.4111;3.2107;
1347.6000;0.4127;3.2160;
1347.9000;0.4119;3.2107;
1348.2000;0.4103;3.2081;
1348.5000;0.4119;3.2160;
1348.8000;0.4119;3.2292;
1349.1000;0.4127;3.2318;
1349.4000;0.4111;3.2265;
1349.7000;0.4111;3.2239;
1350.0000;0.4086;3.2107;
1350.3000;0.4127;3.2318;
1350.6000;0.4103;3.2239;
1350.9000;0.4111;3.2160;
1351.2000;0.4111;3.2265;
1351.5000;0.4119;3.2292;
1351.8000;0.4111;3.2213;
1352.1000;0.3989;3.1922;
1352.4000;0.4103;3.2265;
1352.7000;0.4111;3.2265;
1353.0000;0.4143;3.2371;
1353.3000;0.4127;3.2292;
1353.6000;0.4111;3.2292;
1353.9000;0.4111;3.2292;
1354.2000;0.4013;3.1975;
1354.5000;0.4176;3.2476;
1354.8000;0.4078;3.2160;
1355.1000;0.4094;3.2265;
1355.4000;0.4119;3.2265;
1355.7000;0.4119;3.2292;
1356.0000;0.4119;3.2186;
1356.3000;0.4111;3.2133;
1356.6000;0.4111;3.2054;
1356.9000;0.4119;3.2107;
1357.2000;0.4094;3.2002;
1357.5000;0.4119;3.2054;
1357.8000;0.4127;3.2028;
1358.1000;0.4103;3.1949;
1358.4000;0.4127;3.1896;
1358.7000;0.4111;3.1949;
1359.0000;0.4119;3.2002;
1359.3000;0.4127;3.2160;
1359.6000;0.4119;3.2107;
1359.9000;0.4111;3.2028;
1360.2000;0.4184;3.2186;
1360.5000;0.4111;3.2054;
1360.8000;0.4119;3.2107;
1361.1000;0.4217;3.2345;
1361.4000;0.4127;3.2133;
1361.7000;0.4127;3.2186;
1362.0000;0.4127;3.2265;
1362.3000;0.4143;3.2318;
1362.6000;0.4119;3.2213;
1362.9000;0.4119;3.2186;
1363.2000;0.4103;3.2133;
1363.5000;0.4094;3.2133;
1363.8000;0.4119;3.2160;
1364.1000;0.4127;3.2107;
1364.4000;0.4119;3.2054;
1364.7000;0.4168;3.2186;
1365.0000;0.4094;3.2002;
1365.3000;0.4119;3.2107;
1365.6000;0.4135;3.2186;
1365.9000;0.4192;3.2318;
1366.2000;0.4127;3.2186;
1366.5000;0.4111;3.2213;
1366.8000;0.4119;3.2213;
1367.1000;0.4111;3.2133;
1367.4000;0.4111;3.2186;
1367.7000;0.4119;3.2186;
1368.0000;0.4127;3.2213;
1368.3000;0.4135;3.2371;
1368.6000;0.4119;3.2345;
1368.9000;0.4111;3.2318;
1369.2000;0.4111;3.2450;
1369.5000;0.4111;3.2476;
1369.8000;0.4111;3.2371;
1370.1000;0.4094;3.2345;
1370.4000;0.4127;3.2450;
1370.7000;0.4119;3.2450;
1371.0000;0.4103;3.2476;
1371.3000;0.4111;3.2529;
1371.6000;0.4111;3.2529;
1371.9000;0.4103;3.2503;
1372.2000;0.4070;3.2318;
1372.5000;0.4094;3.2345;
1372.8000;0.4094;3.2239;
1373.1000;0.4094;3.2107;
1373.4000;0.4127;3.2160;
1373.7000;0.4103;3.2107;
1374.0000;0.4111;3.2133;
1374.3000;0.4111;3.2081;
1374.6000;0.4143;3.2213;
1374.9000;0.4127;3.2186;
1375.2000;0.4086;3.2054;
1375.5000;0.4111;3.2107;
1375.8000;0.4111;3.2107;
1376.1000;0.4062;3.1922;
1376.4000;0.4119;3.2002;
1376.7000;0.4111;3.1896;
1377.0000;0.4160;3.1975;
1377.3000;0.4111;3.1922;
1377.6000;0.4119;3.1975;
1377.9000;0.4119;3.2002;
1378.2000;0.4135;3.2107;
1378.5000;0.4200;3.2186;
1378.8000;0.4119;3.2002;
1379.1000;0.4111;3.2002;
1379.4000;0.4168;3.2081;
1379.7000;0.4111;3.1922;
1380.0000;0.4111;3.1922;
1380.3000;0.4119;3.1896;
1380.6000;0.4103;3.1791;
1380.9000;0.4119;3.1949;
1381.2000;0.4135;3.1975;
1381.5000;0.4119;3.2054;
1381.8000;0.4127;3.2133;
1382.1000;0.4119;3.2081;
1382.4000;0.4127;3.2133;
1382.7000;0.4078;3.1896;
1383.0000;0.4135;3.2054;
1383.3000;0.4111;3.2002;
1383.6000;0.4135;3.2028;
1383.9000;0.4127;3.1975;
1384.2000;0.4127;3.1949;
1384.5000;0.4111;3.1870;
1384.8000;0.4103;3.1975;
1385.1000;0.4119;3.2028;
1385.4000;0.4103;3.2028;
1385.7000;0.4168;3.2186;
1386.0000;0.4127;3.2133;
1386.3000;0.4119;3.2081;
1386.6000;0.4111;3.2028;
1386.9000;0.4094;3.2054;
1387.2000;0.4127;3.2160;
1387.5000;0.4119;3.2107;
1387.8000;0.4103;3.2186;
1388.1000;0.4103;3.2213;
1388.4000;0.4135;3.2318;
1388.7000;0.4103;3.2265;
1389.0000;0.4127;3.2424;
1389.3000;0.4062;3.2318;
1389.6000;0.4103;3.2529;
1389.9000;0.4103;3.2503;
1390.2000;0.4103;3.2556;
1390.5000;0.4094;3.2476;
1390.8000;0.4086;3.2529;
1391.1000;0.4119;3.2582;
1391.4000;0.4111;3.2503;
1391.7000;0.4111;3.2371;
1392.0000;0.4111;3.2371;
1392.3000;0.4135;3.2345;
1392.6000;0.4127;3.2397;
1392.9000;0.4103;3.2265;
1393.2000;0.4111;3.2292;
1393.5000;0.4103;3.2292;
1393.8000;0.4103;3.2318;
1394.1000;0.4103;3.2371;
1394.4000;0.4176;3.2450;
1394.7000;0.4127;3.2265;
1395.0000;0.4103;3.2239;
1395.3000;0.4111;3.2239;
1395.6000;0.4103;3.2160;
1395.9000;0.4111;3.2160;
1396.2000;0.4111;3.2213;
1396.5000;0.4249;3.2529;
1396.8000;0.4103;3.2081;
1397.1000;0.4127;3.2107;
1397.4000;0.4094;3.2081;
1397.7000;0.4119;3.2081;
1398.0000;0.4103;3.2002;
1398.3000;0.4111;3.2081;
1398.6000;0.4127;3.2002;
1398.9000;0.4127;3.2002;
1399.2000;0.4135;3.1896;
1399.5000;0.4119;3.1922;
1399.8000;0.4062;3.1738;
