time/ms;Fluo/V;P700 deltaI/I x10³;
-199.8000;0.4729;2.8704;
-199.5000;0.4786;2.8809;
-199.2000;0.4737;2.8598;
-198.9000;0.4746;2.8598;
-198.6000;0.4737;2.8546;
-198.3000;0.4746;2.8546;
-198.0000;0.4737;2.8440;
-197.7000;0.4746;2.8440;
-197.4000;0.4754;2.8334;
-197.1000;0.4746;2.8334;
-196.8000;0.4754;2.8334;
-196.5000;0.4762;2.8440;
-196.2000;0.4746;2.8387;
-195.9000;0.4746;2.8519;
-195.6000;0.4762;2.8519;
-195.3000;0.4754;2.8493;
-195.0000;0.4770;2.8519;
-194.7000;0.4762;2.8493;
-194.4000;0.4762;2.8519;
-194.1000;0.4770;2.8440;
-193.8000;0.4770;2.8440;
-193.5000;0.4868;2.8704;
-193.2000;0.4746;2.8440;
-192.9000;0.4754;2.8519;
-192.6000;0.4762;2.8546;
-192.3000;0.4746;2.8493;
-192.0000;0.4737;2.8493;
-191.7000;0.4754;2.8519;
-191.4000;0.4754;2.8466;
-191.1000;0.4737;2.8466;
-190.8000;0.4737;2.8440;
-190.5000;0.4737;2.8493;
-190.2000;0.4729;2.8572;
-189.9000;0.4754;2.8572;
-189.6000;0.4729;2.8546;
-189.3000;0.4729;2.8598;
-189.0000;0.4721;2.8519;
-188.7000;0.4754;2.8651;
-188.4000;0.4754;2.8519;
-188.1000;0.4737;2.8387;
-187.8000;0.4746;2.8387;
-187.5000;0.4713;2.8308;
-187.2000;0.4737;2.8414;
-186.9000;0.4737;2.8519;
-186.6000;0.4729;2.8466;
-186.3000;0.4729;2.8493;
-186.0000;0.4729;2.8546;
-185.7000;0.4681;2.8414;
-185.4000;0.4729;2.8651;
-185.1000;0.4746;2.8598;
-184.8000;0.4746;2.8598;
-184.5000;0.4746;2.8651;
-184.2000;0.4746;2.8598;
-183.9000;0.4746;2.8572;
-183.6000;0.4737;2.8493;
-183.3000;0.4729;2.8572;
-183.0000;0.4737;2.8493;
-182.7000;0.4754;2.8546;
-182.4000;0.4737;2.8546;
-182.1000;0.4746;2.8625;
-181.8000;0.4754;2.8757;
-181.5000;0.4737;2.8704;
-181.2000;0.4754;2.8651;
-180.9000;0.4746;2.8546;
-180.6000;0.4746;2.8466;
-180.3000;0.4746;2.8493;
-180.0000;0.4762;2.8519;
-179.7000;0.4778;2.8598;
-179.4000;0.4762;2.8493;
-179.1000;0.4754;2.8493;
-178.8000;0.4746;2.8519;
-178.5000;0.4737;2.8572;
-178.2000;0.4721;2.8519;
-177.9000;0.4754;2.8572;
-177.6000;0.4754;2.8598;
-177.3000;0.4737;2.8440;
-177.0000;0.4778;2.8546;
-176.7000;0.4721;2.8308;
-176.4000;0.4737;2.8308;
-176.1000;0.4770;2.8387;
-175.8000;0.4746;2.8414;
-175.5000;0.4778;2.8493;
-175.2000;0.4746;2.8440;
-174.9000;0.4762;2.8414;
-174.6000;0.4835;2.8625;
-174.3000;0.4737;2.8387;
-174.0000;0.4754;2.8414;
-173.7000;0.4754;2.8466;
-173.4000;0.4729;2.8519;
-173.1000;0.4811;2.8677;
-172.8000;0.4746;2.8361;
-172.5000;0.4729;2.8308;
-172.2000;0.4762;2.8387;
-171.9000;0.4746;2.8387;
-171.6000;0.4737;2.8361;
-171.3000;0.4737;2.8414;
-171.0000;0.4705;2.8466;
-170.7000;0.4746;2.8572;
-170.4000;0.4754;2.8572;
-170.1000;0.4729;2.8546;
-169.8000;0.4721;2.8466;
-169.5000;0.4746;2.8493;
-169.2000;0.4746;2.8387;
-168.9000;0.4729;2.8466;
-168.6000;0.4713;2.8387;
-168.3000;0.4737;2.8466;
-168.0000;0.4729;2.8466;
-167.7000;0.4729;2.8466;
-167.4000;0.4786;2.8625;
-167.1000;0.4746;2.8519;
-166.8000;0.4721;2.8519;
-166.5000;0.4721;2.8625;
-166.2000;0.4737;2.8730;
-165.9000;0.4721;2.8546;
-165.6000;0.4721;2.8546;
-165.3000;0.4721;2.8625;
-165.0000;0.4737;2.8757;
-164.7000;0.4729;2.8783;
-164.4000;0.4721;2.8730;
-164.1000;0.4737;2.8677;
-163.8000;0.4729;2.8677;
-163.5000;0.4729;2.8677;
-163.2000;0.4754;2.8783;
-162.9000;0.4729;2.8730;
-162.6000;0.4746;2.8836;
-162.3000;0.4746;2.8730;
-162.0000;0.4721;2.8677;
-161.7000;0.4754;2.8783;
-161.4000;0.4721;2.8677;
-161.1000;0.4737;2.8757;
-160.8000;0.4754;2.8757;
-160.5000;0.4754;2.8809;
-160.2000;0.4729;2.8757;
-159.9000;0.4737;2.8704;
-159.6000;0.4746;2.8757;
-159.3000;0.4681;2.8651;
-159.0000;0.4754;2.8730;
-158.7000;0.4721;2.8598;
-158.4000;0.4762;2.8730;
-158.1000;0.4737;2.8651;
-157.8000;0.4754;2.8730;
-157.5000;0.4713;2.8598;
-157.2000;0.4762;2.8625;
-156.9000;0.4762;2.8572;
-156.6000;0.4754;2.8493;
-156.3000;0.4762;2.8440;
-156.0000;0.4746;2.8440;
-155.7000;0.4762;2.8519;
-155.4000;0.4746;2.8493;
-155.1000;0.4754;2.8519;
-154.8000;0.4754;2.8598;
-154.5000;0.4811;2.8704;
-154.2000;0.4754;2.8519;
-153.9000;0.4754;2.8440;
-153.6000;0.4737;2.8493;
-153.3000;0.4770;2.8519;
-153.0000;0.4754;2.8519;
-152.7000;0.4754;2.8519;
-152.4000;0.4770;2.8519;
-152.1000;0.4762;2.8519;
-151.8000;0.4746;2.8493;
-151.5000;0.4754;2.8519;
-151.2000;0.4754;2.8440;
-150.9000;0.4737;2.8519;
-150.6000;0.4754;2.8572;
-150.3000;0.4746;2.8651;
-150.0000;0.4737;2.8730;
-149.7000;0.4754;2.8783;
-149.4000;0.4737;2.8730;
-149.1000;0.4729;2.8757;
-148.8000;0.4762;2.8730;
-148.5000;0.4746;2.8651;
-148.2000;0.4746;2.8651;
-147.9000;0.4762;2.8730;
-147.6000;0.4746;2.8809;
-147.3000;0.4746;2.8862;
-147.0000;0.4721;2.8677;
-146.7000;0.4721;2.8677;
-146.4000;0.4762;2.8809;
-146.1000;0.4794;2.8862;
-145.8000;0.4762;2.8809;
-145.5000;0.4746;2.8836;
-145.2000;0.4721;2.8836;
-144.9000;0.4729;2.8836;
-144.6000;0.4697;2.8651;
-144.3000;0.4754;2.8836;
-144.0000;0.4762;2.8941;
-143.7000;0.4729;2.8888;
-143.4000;0.4721;2.8836;
-143.1000;0.4705;2.8757;
-142.8000;0.4746;2.8862;
-142.5000;0.4819;2.8968;
-142.2000;0.4746;2.8757;
-141.9000;0.4762;2.8757;
-141.6000;0.4786;2.8862;
-141.3000;0.4786;2.8862;
-141.0000;0.4737;2.8625;
-140.7000;0.4762;2.8625;
-140.4000;0.4648;2.8414;
-140.1000;0.4729;2.8625;
-139.8000;0.4737;2.8651;
-139.5000;0.4746;2.8625;
-139.2000;0.4713;2.8546;
-138.9000;0.4737;2.8598;
-138.6000;0.4746;2.8598;
-138.3000;0.4729;2.8572;
-138.0000;0.4762;2.8677;
-137.7000;0.4746;2.8704;
-137.4000;0.4737;2.8598;
-137.1000;0.4754;2.8625;
-136.8000;0.4754;2.8625;
-136.5000;0.4754;2.8572;
-136.2000;0.4746;2.8519;
-135.9000;0.4754;2.8572;
-135.6000;0.4754;2.8519;
-135.3000;0.4754;2.8546;
-135.0000;0.4762;2.8414;
-134.7000;0.4778;2.8361;
-134.4000;0.4762;2.8334;
-134.1000;0.4770;2.8334;
-133.8000;0.4778;2.8387;
-133.5000;0.4729;2.8308;
-133.2000;0.4778;2.8414;
-132.9000;0.4762;2.8519;
-132.6000;0.4729;2.8546;
-132.3000;0.4762;2.8598;
-132.0000;0.4737;2.8519;
-131.7000;0.4721;2.8440;
-131.4000;0.4762;2.8598;
-131.1000;0.4770;2.8572;
-130.8000;0.4746;2.8546;
-130.5000;0.4729;2.8466;
-130.2000;0.4762;2.8598;
-129.9000;0.4721;2.8519;
-129.6000;0.4746;2.8651;
-129.3000;0.4762;2.8757;
-129.0000;0.4746;2.8809;
-128.7000;0.4754;2.8809;
-128.4000;0.4737;2.8730;
-128.1000;0.4721;2.8757;
-127.8000;0.4746;2.8836;
-127.5000;0.4762;2.8836;
-127.2000;0.4754;2.8862;
-126.9000;0.4721;2.8783;
-126.6000;0.4721;2.8730;
-126.3000;0.4705;2.8730;
-126.0000;0.4737;2.8757;
-125.7000;0.4729;2.8809;
-125.4000;0.4721;2.8757;
-125.1000;0.4729;2.8836;
-124.8000;0.4737;2.8809;
-124.5000;0.4721;2.8836;
-124.2000;0.4737;2.8809;
-123.9000;0.4754;2.8888;
-123.6000;0.4746;2.8862;
-123.3000;0.4737;2.8888;
-123.0000;0.4729;2.8888;
-122.7000;0.4705;2.8757;
-122.4000;0.4746;2.8862;
-122.1000;0.4762;2.8757;
-121.8000;0.4737;2.8625;
-121.5000;0.4754;2.8625;
-121.2000;0.4721;2.8572;
-120.9000;0.4746;2.8625;
-120.6000;0.4729;2.8440;
-120.3000;0.4770;2.8546;
-120.0000;0.4737;2.8493;
-119.7000;0.4803;2.8625;
-119.4000;0.4762;2.8440;
-119.1000;0.4729;2.8361;
-118.8000;0.4632;2.8097;
-118.5000;0.4672;2.8150;
-118.2000;0.4705;2.8334;
-117.9000;0.4746;2.8361;
-117.6000;0.4754;2.8334;
-117.3000;0.4794;2.8493;
-117.0000;0.4754;2.8440;
-116.7000;0.4746;2.8282;
-116.4000;0.4746;2.8334;
-116.1000;0.4737;2.8308;
-115.8000;0.4737;2.8308;
-115.5000;0.4762;2.8308;
-115.2000;0.4754;2.8229;
-114.9000;0.4746;2.8282;
-114.6000;0.4746;2.8308;
-114.3000;0.4729;2.8176;
-114.0000;0.4721;2.8150;
-113.7000;0.4737;2.8282;
-113.4000;0.4737;2.8334;
-113.1000;0.4737;2.8414;
-112.8000;0.4754;2.8414;
-112.5000;0.4705;2.8150;
-112.2000;0.4770;2.8440;
-111.9000;0.4746;2.8414;
-111.6000;0.4770;2.8387;
-111.3000;0.4762;2.8282;
-111.0000;0.4746;2.8308;
-110.7000;0.4762;2.8493;
-110.4000;0.4737;2.8519;
-110.1000;0.4737;2.8625;
-109.8000;0.4762;2.8651;
-109.5000;0.4762;2.8730;
-109.2000;0.4746;2.8598;
-108.9000;0.4729;2.8493;
-108.6000;0.4721;2.8466;
-108.3000;0.4737;2.8651;
-108.0000;0.4737;2.8757;
-107.7000;0.4729;2.8836;
-107.4000;0.4713;2.8730;
-107.1000;0.4746;2.8809;
-106.8000;0.4746;2.8809;
-106.5000;0.4737;2.8783;
-106.2000;0.4713;2.8757;
-105.9000;0.4672;2.8677;
-105.6000;0.4721;2.8915;
-105.3000;0.4737;2.8968;
-105.0000;0.4721;2.8915;
-104.7000;0.4721;2.8941;
-104.4000;0.4705;2.8915;
-104.1000;0.4721;2.8941;
-103.8000;0.4689;2.8757;
-103.5000;0.4713;2.8968;
-103.2000;0.4729;2.8994;
-102.9000;0.4721;2.8888;
-102.6000;0.4713;2.8809;
-102.3000;0.4762;2.8915;
-102.0000;0.4770;2.8968;
-101.7000;0.4811;2.9047;
-101.4000;0.4762;2.8915;
-101.1000;0.4729;2.8730;
-100.8000;0.4689;2.8546;
-100.5000;0.4746;2.8809;
-100.2000;0.4860;2.8968;
-99.9000;0.4754;2.8598;
-99.6000;0.4697;2.8414;
-99.3000;0.4681;2.8361;
-99.0000;0.4697;2.8334;
-98.7000;0.4737;2.8493;
-98.4000;0.4754;2.8519;
-98.1000;0.4762;2.8572;
-97.8000;0.4762;2.8598;
-97.5000;0.4737;2.8519;
-97.2000;0.4737;2.8546;
-96.9000;0.4754;2.8572;
-96.6000;0.4770;2.8598;
-96.3000;0.4737;2.8598;
-96.0000;0.4737;2.8651;
-95.7000;0.4754;2.8730;
-95.4000;0.4737;2.8598;
-95.1000;0.4754;2.8519;
-94.8000;0.4746;2.8519;
-94.5000;0.4721;2.8440;
-94.2000;0.4754;2.8493;
-93.9000;0.4754;2.8493;
-93.6000;0.4762;2.8598;
-93.3000;0.4762;2.8598;
-93.0000;0.4754;2.8572;
-92.7000;0.4746;2.8519;
-92.4000;0.4705;2.8440;
-92.1000;0.4746;2.8519;
-91.8000;0.4737;2.8546;
-91.5000;0.4762;2.8546;
-91.2000;0.4754;2.8546;
-90.9000;0.4778;2.8625;
-90.6000;0.4762;2.8598;
-90.3000;0.4754;2.8519;
-90.0000;0.4754;2.8546;
-89.7000;0.4754;2.8546;
-89.4000;0.4754;2.8546;
-89.1000;0.4762;2.8440;
-88.8000;0.4746;2.8493;
-88.5000;0.4754;2.8546;
-88.2000;0.4746;2.8493;
-87.9000;0.4754;2.8466;
-87.6000;0.4737;2.8440;
-87.3000;0.4721;2.8466;
-87.0000;0.4754;2.8677;
-86.7000;0.4754;2.8809;
-86.4000;0.4884;2.9231;
-86.1000;0.4754;2.8862;
-85.8000;0.4713;2.8836;
-85.5000;0.4754;2.8994;
-85.2000;0.4729;2.9020;
-84.9000;0.4737;2.8968;
-84.6000;0.4754;2.8968;
-84.3000;0.4672;2.8941;
-84.0000;0.4754;2.9100;
-83.7000;0.4737;2.9020;
-83.4000;0.4729;2.8941;
-83.1000;0.4729;2.8888;
-82.8000;0.4770;2.8968;
-82.5000;0.4754;2.8888;
-82.2000;0.4729;2.8757;
-81.9000;0.4746;2.8809;
-81.6000;0.4746;2.8809;
-81.3000;0.4737;2.8757;
-81.0000;0.4729;2.8598;
-80.7000;0.4754;2.8704;
-80.4000;0.4729;2.8677;
-80.1000;0.4754;2.8704;
-79.8000;0.4746;2.8625;
-79.5000;0.4737;2.8625;
-79.2000;0.4754;2.8677;
-78.9000;0.4737;2.8677;
-78.6000;0.4729;2.8677;
-78.3000;0.4778;2.8651;
-78.0000;0.4803;2.8730;
-77.7000;0.4762;2.8704;
-77.4000;0.4713;2.8546;
-77.1000;0.4624;2.8203;
-76.8000;0.4754;2.8546;
-76.5000;0.4762;2.8651;
-76.2000;0.4729;2.8572;
-75.9000;0.4737;2.8598;
-75.6000;0.4721;2.8519;
-75.3000;0.4754;2.8440;
-75.0000;0.4770;2.8440;
-74.7000;0.4746;2.8440;
-74.4000;0.4746;2.8387;
-74.1000;0.4754;2.8414;
-73.8000;0.4737;2.8361;
-73.5000;0.4746;2.8361;
-73.2000;0.4746;2.8440;
-72.9000;0.4746;2.8361;
-72.6000;0.4770;2.8414;
-72.3000;0.4746;2.8414;
-72.0000;0.4737;2.8466;
-71.7000;0.4746;2.8440;
-71.4000;0.4746;2.8440;
-71.1000;0.4754;2.8466;
-70.8000;0.4746;2.8493;
-70.5000;0.4754;2.8493;
-70.2000;0.4754;2.8598;
-69.9000;0.4664;2.8387;
-69.6000;0.4835;2.8915;
-69.3000;0.4729;2.8677;
-69.0000;0.4746;2.8730;
-68.7000;0.4770;2.8809;
-68.4000;0.4754;2.8757;
-68.1000;0.4754;2.8757;
-67.8000;0.4762;2.8836;
-67.5000;0.4786;2.8941;
-67.2000;0.4754;2.8968;
-66.9000;0.4746;2.8994;
-66.6000;0.4713;2.9020;
-66.3000;0.4713;2.9047;
-66.0000;0.4729;2.9047;
-65.7000;0.4746;2.9047;
-65.4000;0.4746;2.9020;
-65.1000;0.4746;2.8915;
-64.8000;0.4729;2.8809;
-64.5000;0.4729;2.8915;
-64.2000;0.4721;2.8968;
-63.9000;0.4762;2.8968;
-63.6000;0.4746;2.8968;
-63.3000;0.4729;2.8941;
-63.0000;0.4746;2.8836;
-62.7000;0.4737;2.8836;
-62.4000;0.4746;2.8888;
-62.1000;0.4737;2.8704;
-61.8000;0.4737;2.8546;
-61.5000;0.4713;2.8598;
-61.2000;0.4721;2.8546;
-60.9000;0.4746;2.8598;
-60.6000;0.4729;2.8466;
-60.3000;0.4811;2.8704;
-60.0000;0.4754;2.8493;
-59.7000;0.4746;2.8466;
-59.4000;0.4737;2.8440;
-59.1000;0.4721;2.8387;
-58.8000;0.4737;2.8440;
-58.5000;0.4746;2.8334;
-58.2000;0.4746;2.8203;
-57.9000;0.4737;2.8203;
-57.6000;0.4754;2.8176;
-57.3000;0.4762;2.8203;
-57.0000;0.4729;2.8123;
-56.7000;0.4762;2.8255;
-56.4000;0.4729;2.8229;
-56.1000;0.4794;2.8361;
-55.8000;0.4746;2.8308;
-55.5000;0.4754;2.8387;
-55.2000;0.4721;2.8440;
-54.9000;0.4762;2.8493;
-54.6000;0.4762;2.8519;
-54.3000;0.4746;2.8493;
-54.0000;0.4754;2.8546;
-53.7000;0.4762;2.8598;
-53.4000;0.4778;2.8730;
-53.1000;0.4754;2.8598;
-52.8000;0.4746;2.8546;
-52.5000;0.4754;2.8519;
-52.2000;0.4762;2.8519;
-51.9000;0.4754;2.8387;
-51.6000;0.4737;2.8334;
-51.3000;0.4754;2.8387;
-51.0000;0.4713;2.8282;
-50.7000;0.4721;2.8414;
-50.4000;0.4729;2.8572;
-50.1000;0.4737;2.8546;
-49.8000;0.4754;2.8546;
-49.5000;0.4754;2.8625;
-49.2000;0.4754;2.8677;
-48.9000;0.4746;2.8757;
-48.6000;0.4770;2.8888;
-48.3000;0.4746;2.8809;
-48.0000;0.4737;2.8757;
-47.7000;0.4737;2.8730;
-47.4000;0.4729;2.8625;
-47.1000;0.4737;2.8704;
-46.8000;0.4721;2.8730;
-46.5000;0.4721;2.8783;
-46.2000;0.4721;2.8809;
-45.9000;0.4770;2.8888;
-45.6000;0.4729;2.8757;
-45.3000;0.4729;2.8704;
-45.0000;0.4721;2.8677;
-44.7000;0.4754;2.8888;
-44.4000;0.4762;2.8941;
-44.1000;0.4746;2.8809;
-43.8000;0.4729;2.8757;
-43.5000;0.4746;2.8757;
-43.2000;0.4754;2.8783;
-42.9000;0.4770;2.8862;
-42.6000;0.4737;2.8836;
-42.3000;0.4737;2.8783;
-42.0000;0.4737;2.8757;
-41.7000;0.4737;2.8730;
-41.4000;0.4729;2.8783;
-41.1000;0.4770;2.8783;
-40.8000;0.4737;2.8677;
-40.5000;0.4656;2.8519;
-40.2000;0.4746;2.8783;
-39.9000;0.4754;2.8730;
-39.6000;0.4754;2.8757;
-39.3000;0.4746;2.8704;
-39.0000;0.4729;2.8546;
-38.7000;0.4754;2.8598;
-38.4000;0.4754;2.8598;
-38.1000;0.4689;2.8387;
-37.8000;0.4713;2.8466;
-37.5000;0.4778;2.8598;
-37.2000;0.4729;2.8493;
-36.9000;0.4762;2.8466;
-36.6000;0.4737;2.8519;
-36.3000;0.4729;2.8625;
-36.0000;0.4729;2.8625;
-35.7000;0.4762;2.8809;
-35.4000;0.4746;2.8783;
-35.1000;0.4754;2.8730;
-34.8000;0.4729;2.8572;
-34.5000;0.4762;2.8677;
-34.2000;0.4762;2.8704;
-33.9000;0.4697;2.8519;
-33.6000;0.4794;2.8836;
-33.3000;0.4713;2.8625;
-33.0000;0.4746;2.8598;
-32.7000;0.4664;2.8308;
-32.4000;0.4762;2.8625;
-32.1000;0.4737;2.8572;
-31.8000;0.4746;2.8519;
-31.5000;0.4754;2.8440;
-31.2000;0.4737;2.8361;
-30.9000;0.4737;2.8308;
-30.6000;0.4803;2.8572;
-30.3000;0.4746;2.8493;
-30.0000;0.4729;2.8572;
-29.7000;0.4770;2.8651;
-29.4000;0.4762;2.8572;
-29.1000;0.4754;2.8677;
-28.8000;0.4737;2.8677;
-28.5000;0.4754;2.8730;
-28.2000;0.4762;2.8730;
-27.9000;0.4721;2.8651;
-27.6000;0.4737;2.8572;
-27.3000;0.4737;2.8704;
-27.0000;0.4721;2.8651;
-26.7000;0.4729;2.8651;
-26.4000;0.4713;2.8625;
-26.1000;0.4721;2.8625;
-25.8000;0.4729;2.8704;
-25.5000;0.4721;2.8704;
-25.2000;0.4729;2.8783;
-24.9000;0.4737;2.8862;
-24.6000;0.4737;2.8888;
-24.3000;0.4746;2.8941;
-24.0000;0.4762;2.9047;
-23.7000;0.4754;2.9100;
-23.4000;0.4729;2.9020;
-23.1000;0.4721;2.8941;
-22.8000;0.4754;2.9020;
-22.5000;0.4729;2.8968;
-22.2000;0.4729;2.8888;
-21.9000;0.4729;2.8862;
-21.6000;0.4778;2.8968;
-21.3000;0.4737;2.8757;
-21.0000;0.4729;2.8730;
-20.7000;0.4721;2.8651;
-20.4000;0.4737;2.8598;
-20.1000;0.4713;2.8414;
-19.8000;0.4762;2.8493;
-19.5000;0.4713;2.8282;
-19.2000;0.4754;2.8361;
-18.9000;0.4721;2.8308;
-18.6000;0.4737;2.8334;
-18.3000;0.4746;2.8414;
-18.0000;0.4746;2.8440;
-17.7000;0.4721;2.8414;
-17.4000;0.4746;2.8387;
-17.1000;0.4770;2.8493;
-16.8000;0.4778;2.8546;
-16.5000;0.4754;2.8519;
-16.2000;0.4754;2.8493;
-15.9000;0.4754;2.8519;
-15.6000;0.4754;2.8519;
-15.3000;0.4746;2.8572;
-15.0000;0.4770;2.8598;
-14.7000;0.4721;2.8598;
-14.4000;0.4656;2.8387;
-14.1000;0.4754;2.8757;
-13.8000;0.4811;2.8888;
-13.5000;0.4746;2.8493;
-13.2000;0.4754;2.8519;
-12.9000;0.4729;2.8493;
-12.6000;0.4729;2.8625;
-12.3000;0.4754;2.8598;
-12.0000;0.4737;2.8519;
-11.7000;0.4737;2.8493;
-11.4000;0.4819;2.8625;
-11.1000;0.4737;2.8361;
-10.8000;0.4656;2.8150;
-10.5000;0.4721;2.8308;
-10.2000;0.4721;2.8308;
-9.9000;0.4729;2.8282;
-9.6000;0.4746;2.8282;
-9.3000;0.4786;2.8493;
-9.0000;0.4754;2.8414;
-8.7000;0.4754;2.8466;
-8.4000;0.4746;2.8414;
-8.1000;0.4786;2.8466;
-7.8000;0.4746;2.8414;
-7.5000;0.4705;2.8361;
-7.2000;0.4713;2.8440;
-6.9000;0.4713;2.8572;
-6.6000;0.4713;2.8625;
-6.3000;0.4705;2.8598;
-6.0000;0.4770;2.8941;
-5.7000;0.4794;2.9047;
-5.4000;0.4729;2.8730;
-5.1000;0.4754;2.8836;
-4.8000;0.4729;2.8941;
-4.5000;0.4754;2.9020;
-4.2000;0.4729;2.8941;
-3.9000;0.4721;2.8888;
-3.6000;0.4746;2.9047;
-3.3000;0.4681;2.8730;
-3.0000;0.4713;2.8836;
-2.7000;0.4737;2.8836;
-2.4000;0.4762;2.8888;
-2.1000;0.4737;2.8809;
-1.8000;0.4729;2.8730;
-1.5000;0.4721;2.8677;
-1.2000;0.4729;2.8757;
-0.9000;0.4721;2.8598;
-0.6000;0.4713;2.8546;
-0.3000;0.4713;2.8572;
0.0000;0.4713;2.8572;
0.3000;0.4843;2.8704;
0.6000;0.5039;2.9126;
0.9000;0.5177;2.9522;
1.2000;0.5315;2.9917;
1.5000;0.5348;3.0049;
1.8000;0.5478;3.0577;
2.1000;0.5519;3.0841;
2.4000;0.5608;3.1289;
2.7000;0.5617;3.1316;
3.0000;0.5625;3.1342;
3.3000;0.5657;3.1606;
3.6000;0.5698;3.1896;
3.9000;0.5714;3.1975;
4.2000;0.5739;3.2081;
4.5000;0.5731;3.2133;
4.8000;0.5771;3.2160;
5.1000;0.5763;3.2081;
5.4000;0.5804;3.2160;
5.7000;0.5828;3.2054;
6.0000;0.5845;3.2133;
6.3000;0.5836;3.2107;
6.6000;0.5877;3.2213;
6.9000;0.5861;3.2160;
7.2000;0.5885;3.2186;
7.5000;0.5885;3.2213;
7.8000;0.5910;3.2292;
8.1000;0.5910;3.2265;
8.4000;0.5885;3.2239;
8.7000;0.5926;3.2371;
9.0000;0.6007;3.2582;
9.3000;0.5950;3.2424;
9.6000;0.5942;3.2371;
9.9000;0.5983;3.2529;
10.2000;0.5942;3.2450;
10.5000;0.5958;3.2529;
10.8000;0.5918;3.2424;
11.1000;0.5967;3.2556;
11.4000;0.5975;3.2582;
11.7000;0.5999;3.2714;
12.0000;0.5999;3.2688;
12.3000;0.6007;3.2688;
12.6000;0.6007;3.2661;
12.9000;0.6015;3.2767;
13.2000;0.6024;3.2793;
13.5000;0.6072;3.2846;
13.8000;0.6072;3.2872;
14.1000;0.6032;3.2793;
14.4000;0.6024;3.2740;
14.7000;0.6040;3.2846;
15.0000;0.6056;3.2978;
15.3000;0.5991;3.2846;
15.6000;0.6064;3.2925;
15.9000;0.6056;3.2899;
16.2000;0.6056;3.2899;
16.5000;0.6089;3.2978;
16.8000;0.6089;3.2951;
17.1000;0.6064;3.2819;
17.4000;0.6081;3.2793;
17.7000;0.6056;3.2740;
18.0000;0.6072;3.2714;
18.3000;0.6105;3.2714;
18.6000;0.6064;3.2714;
18.9000;0.6105;3.2793;
19.2000;0.6138;3.2793;
19.5000;0.6121;3.2661;
19.8000;0.6121;3.2661;
20.1000;0.6129;3.2556;
20.4000;0.6138;3.2635;
20.7000;0.6146;3.2661;
21.0000;0.6129;3.2635;
21.3000;0.6146;3.2661;
21.6000;0.6138;3.2688;
21.9000;0.6146;3.2661;
22.2000;0.6154;3.2688;
22.5000;0.6154;3.2688;
22.8000;0.6146;3.2661;
23.1000;0.6178;3.2688;
23.4000;0.6170;3.2688;
23.7000;0.6162;3.2582;
24.0000;0.6170;3.2503;
24.3000;0.6186;3.2503;
24.6000;0.6154;3.2529;
24.9000;0.6170;3.2635;
25.2000;0.6154;3.2556;
25.5000;0.6162;3.2582;
25.8000;0.6195;3.2661;
26.1000;0.6162;3.2608;
26.4000;0.6227;3.2767;
26.7000;0.6170;3.2556;
27.0000;0.6186;3.2424;
27.3000;0.6178;3.2424;
27.6000;0.6178;3.2424;
27.9000;0.6178;3.2476;
28.2000;0.6211;3.2450;
28.5000;0.6219;3.2503;
28.8000;0.6203;3.2450;
29.1000;0.6195;3.2397;
29.4000;0.6203;3.2476;
29.7000;0.6178;3.2424;
30.0000;0.6211;3.2503;
30.3000;0.6170;3.2424;
30.6000;0.6219;3.2608;
30.9000;0.6268;3.2767;
31.2000;0.6203;3.2608;
31.5000;0.6219;3.2767;
31.8000;0.6211;3.2872;
32.1000;0.6211;3.2899;
32.4000;0.6211;3.2819;
32.7000;0.6186;3.2767;
33.0000;0.6203;3.2872;
33.3000;0.6211;3.2846;
33.6000;0.6211;3.2767;
33.9000;0.6211;3.2819;
34.2000;0.6211;3.2819;
34.5000;0.6186;3.2740;
34.8000;0.6203;3.2899;
35.1000;0.6219;3.2951;
35.4000;0.6211;3.2846;
35.7000;0.6227;3.2846;
36.0000;0.6203;3.2819;
36.3000;0.6203;3.2767;
36.6000;0.6243;3.2899;
36.9000;0.6186;3.2767;
37.2000;0.6219;3.2767;
37.5000;0.6211;3.2740;
37.8000;0.6219;3.2819;
38.1000;0.6227;3.2767;
38.4000;0.6227;3.2767;
38.7000;0.6243;3.2793;
39.0000;0.6235;3.2819;
39.3000;0.6227;3.2846;
39.6000;0.6252;3.2846;
39.9000;0.6252;3.2740;
40.2000;0.6235;3.2608;
40.5000;0.6235;3.2529;
40.8000;0.6243;3.2556;
41.1000;0.6243;3.2529;
41.4000;0.6235;3.2556;
41.7000;0.6227;3.2582;
42.0000;0.6235;3.2529;
42.3000;0.6243;3.2529;
42.6000;0.6227;3.2556;
42.9000;0.6227;3.2529;
43.2000;0.6219;3.2450;
43.5000;0.6243;3.2450;
43.8000;0.6252;3.2503;
44.1000;0.6243;3.2450;
44.4000;0.6243;3.2476;
44.7000;0.6243;3.2503;
45.0000;0.6268;3.2529;
45.3000;0.6268;3.2608;
45.6000;0.6235;3.2529;
45.9000;0.6252;3.2688;
46.2000;0.6227;3.2688;
46.5000;0.6260;3.2661;
46.8000;0.6235;3.2635;
47.1000;0.6252;3.2556;
47.4000;0.6260;3.2529;
47.7000;0.6284;3.2476;
48.0000;0.6243;3.2371;
48.3000;0.6260;3.2424;
48.6000;0.6243;3.2424;
48.9000;0.6284;3.2503;
49.2000;0.6227;3.2292;
49.5000;0.6260;3.2397;
49.8000;0.6252;3.2424;
50.1000;0.6252;3.2529;
50.4000;0.6260;3.2661;
50.7000;0.6260;3.2608;
51.0000;0.6243;3.2556;
51.3000;0.6235;3.2529;
51.6000;0.6243;3.2556;
51.9000;0.6252;3.2556;
52.2000;0.6243;3.2608;
52.5000;0.6260;3.2688;
52.8000;0.6252;3.2714;
53.1000;0.6260;3.2740;
53.4000;0.6268;3.2767;
53.7000;0.6300;3.2793;
54.0000;0.6268;3.2819;
54.3000;0.6260;3.2819;
54.6000;0.6203;3.2661;
54.9000;0.6252;3.2793;
55.2000;0.6252;3.2872;
55.5000;0.6195;3.2740;
55.8000;0.6252;3.2925;
56.1000;0.6211;3.2899;
56.4000;0.6252;3.2951;
56.7000;0.6260;3.2899;
57.0000;0.6260;3.2951;
57.3000;0.6268;3.2846;
57.6000;0.6252;3.2767;
57.9000;0.6268;3.2740;
58.2000;0.6309;3.2740;
58.5000;0.6268;3.2556;
58.8000;0.6300;3.2635;
59.1000;0.6219;3.2424;
59.4000;0.6243;3.2476;
59.7000;0.6276;3.2450;
60.0000;0.6276;3.2450;
60.3000;0.6292;3.2608;
60.6000;0.6268;3.2529;
60.9000;0.6268;3.2608;
61.2000;0.6300;3.2635;
61.5000;0.6292;3.2582;
61.8000;0.6146;3.2160;
62.1000;0.6325;3.2688;
62.4000;0.6235;3.2318;
62.7000;0.6276;3.2397;
63.0000;0.6284;3.2318;
63.3000;0.6284;3.2397;
63.6000;0.6284;3.2476;
63.9000;0.6300;3.2529;
64.2000;0.6325;3.2556;
64.5000;0.6309;3.2608;
64.8000;0.6300;3.2635;
65.1000;0.6276;3.2635;
65.4000;0.6309;3.2688;
65.7000;0.6300;3.2608;
66.0000;0.6284;3.2582;
66.3000;0.6276;3.2529;
66.6000;0.6284;3.2503;
66.9000;0.6309;3.2529;
67.2000;0.6284;3.2450;
67.5000;0.6268;3.2424;
67.8000;0.6284;3.2529;
68.1000;0.6292;3.2476;
68.4000;0.6292;3.2424;
68.7000;0.6276;3.2345;
69.0000;0.6317;3.2424;
69.3000;0.6300;3.2318;
69.6000;0.6292;3.2318;
69.9000;0.6317;3.2450;
70.2000;0.6276;3.2345;
70.5000;0.6309;3.2529;
70.8000;0.6276;3.2529;
71.1000;0.6260;3.2556;
71.4000;0.6162;3.2318;
71.7000;0.6284;3.2582;
72.0000;0.6284;3.2714;
72.3000;0.6260;3.2688;
72.6000;0.6268;3.2767;
72.9000;0.6276;3.2819;
73.2000;0.6252;3.2793;
73.5000;0.6260;3.2767;
73.8000;0.6276;3.2793;
74.1000;0.6268;3.2819;
74.4000;0.6300;3.2846;
74.7000;0.6268;3.2846;
75.0000;0.6268;3.2793;
75.3000;0.6292;3.2925;
75.6000;0.6300;3.2978;
75.9000;0.6292;3.2872;
76.2000;0.6268;3.2740;
76.5000;0.6276;3.2740;
76.8000;0.6284;3.2767;
77.1000;0.6268;3.2714;
77.4000;0.6284;3.2740;
77.7000;0.6268;3.2714;
78.0000;0.6276;3.2740;
78.3000;0.6268;3.2688;
78.6000;0.6284;3.2688;
78.9000;0.6284;3.2688;
79.2000;0.6292;3.2688;
79.5000;0.6292;3.2582;
79.8000;0.6300;3.2582;
80.1000;0.6276;3.2503;
80.4000;0.6284;3.2424;
80.7000;0.6284;3.2450;
81.0000;0.6292;3.2424;
81.3000;0.6300;3.2424;
81.6000;0.6276;3.2318;
81.9000;0.6284;3.2318;
82.2000;0.6243;3.2213;
82.5000;0.6292;3.2318;
82.8000;0.6284;3.2292;
83.1000;0.6276;3.2292;
83.4000;0.6292;3.2371;
83.7000;0.6292;3.2450;
84.0000;0.6284;3.2450;
84.3000;0.6284;3.2424;
84.6000;0.6317;3.2529;
84.9000;0.6317;3.2476;
85.2000;0.6325;3.2529;
85.5000;0.6276;3.2397;
85.8000;0.6235;3.2213;
86.1000;0.6317;3.2345;
86.4000;0.6292;3.2213;
86.7000;0.6300;3.2318;
87.0000;0.6300;3.2239;
87.3000;0.6292;3.2239;
87.6000;0.6276;3.2213;
87.9000;0.6333;3.2371;
88.2000;0.6309;3.2265;
88.5000;0.6317;3.2371;
88.8000;0.6431;3.2819;
89.1000;0.6276;3.2345;
89.4000;0.6317;3.2503;
89.7000;0.6292;3.2476;
90.0000;0.6284;3.2476;
90.3000;0.6284;3.2476;
90.6000;0.6276;3.2529;
90.9000;0.6292;3.2608;
91.2000;0.6284;3.2529;
91.5000;0.6292;3.2556;
91.8000;0.6276;3.2556;
92.1000;0.6260;3.2608;
92.4000;0.6284;3.2688;
92.7000;0.6284;3.2714;
93.0000;0.6252;3.2740;
93.3000;0.6260;3.2767;
93.6000;0.6284;3.2767;
93.9000;0.6276;3.2688;
94.2000;0.6374;3.3110;
94.5000;0.6252;3.2740;
94.8000;0.6276;3.2767;
95.1000;0.6292;3.2688;
95.4000;0.6317;3.2819;
95.7000;0.6292;3.2714;
96.0000;0.6284;3.2767;
96.3000;0.6268;3.2635;
96.6000;0.6235;3.2556;
96.9000;0.6268;3.2635;
97.2000;0.6276;3.2608;
97.5000;0.6276;3.2582;
97.8000;0.6284;3.2608;
98.1000;0.6374;3.2767;
98.4000;0.6300;3.2529;
98.7000;0.6309;3.2556;
99.0000;0.6292;3.2503;
99.3000;0.6276;3.2476;
99.6000;0.6284;3.2450;
99.9000;0.6317;3.2503;
100.2000;0.6325;3.2476;
100.5000;0.6309;3.2371;
100.8000;0.6252;3.2318;
101.1000;0.6325;3.2397;
101.4000;0.6211;3.2186;
101.7000;0.6439;3.2819;
102.0000;0.6284;3.2450;
102.3000;0.6292;3.2503;
102.6000;0.6276;3.2345;
102.9000;0.6309;3.2476;
103.2000;0.6325;3.2503;
103.5000;0.6300;3.2476;
103.8000;0.6268;3.2371;
104.1000;0.6292;3.2424;
104.4000;0.6309;3.2503;
104.7000;0.6317;3.2450;
105.0000;0.6317;3.2476;
105.3000;0.6300;3.2424;
105.6000;0.6300;3.2371;
105.9000;0.6309;3.2476;
106.2000;0.6325;3.2424;
106.5000;0.6325;3.2397;
106.8000;0.6317;3.2239;
107.1000;0.6300;3.2160;
107.4000;0.6309;3.2292;
107.7000;0.6284;3.2107;
108.0000;0.6325;3.2160;
108.3000;0.6300;3.2081;
108.6000;0.6300;3.2054;
108.9000;0.6292;3.2186;
109.2000;0.6300;3.2213;
109.5000;0.6292;3.2265;
109.8000;0.6260;3.2186;
110.1000;0.6292;3.2292;
110.4000;0.6309;3.2318;
110.7000;0.6317;3.2397;
111.0000;0.6284;3.2292;
111.3000;0.6374;3.2529;
111.6000;0.6252;3.2186;
111.9000;0.6284;3.2292;
112.2000;0.6276;3.2318;
112.5000;0.6292;3.2424;
112.8000;0.6260;3.2265;
113.1000;0.6276;3.2424;
113.4000;0.6260;3.2529;
113.7000;0.6292;3.2688;
114.0000;0.6300;3.2661;
114.3000;0.6284;3.2556;
114.6000;0.6284;3.2529;
114.9000;0.6276;3.2450;
115.2000;0.6260;3.2397;
115.5000;0.6276;3.2397;
115.8000;0.6292;3.2424;
116.1000;0.6276;3.2529;
116.4000;0.6276;3.2529;
116.7000;0.6284;3.2582;
117.0000;0.6300;3.2608;
117.3000;0.6284;3.2608;
117.6000;0.6309;3.2661;
117.9000;0.6276;3.2503;
118.2000;0.6284;3.2556;
118.5000;0.6276;3.2476;
118.8000;0.6300;3.2476;
119.1000;0.6284;3.2424;
119.4000;0.6292;3.2345;
119.7000;0.6268;3.2424;
120.0000;0.6260;3.2318;
120.3000;0.6284;3.2318;
120.6000;0.6292;3.2265;
120.9000;0.6284;3.2239;
121.2000;0.6284;3.2213;
121.5000;0.6292;3.2107;
121.8000;0.6317;3.2239;
122.1000;0.6325;3.2265;
122.4000;0.6300;3.2318;
122.7000;0.6374;3.2476;
123.0000;0.6317;3.2397;
123.3000;0.6333;3.2371;
123.6000;0.6317;3.2318;
123.9000;0.6292;3.2265;
124.2000;0.6325;3.2318;
124.5000;0.6309;3.2318;
124.8000;0.6268;3.2186;
125.1000;0.6300;3.2265;
125.4000;0.6300;3.2265;
125.7000;0.6365;3.2556;
126.0000;0.6333;3.2345;
126.3000;0.6317;3.2318;
126.6000;0.6309;3.2292;
126.9000;0.6309;3.2186;
127.2000;0.6309;3.2160;
127.5000;0.6317;3.2239;
127.8000;0.6309;3.2160;
128.1000;0.6325;3.2186;
128.4000;0.6309;3.2239;
128.7000;0.6260;3.2160;
129.0000;0.6292;3.2371;
129.3000;0.6317;3.2476;
129.6000;0.6292;3.2397;
129.9000;0.6300;3.2397;
130.2000;0.6317;3.2450;
130.5000;0.6309;3.2608;
130.8000;0.6325;3.2529;
131.1000;0.6284;3.2476;
131.4000;0.6284;3.2503;
131.7000;0.6317;3.2529;
132.0000;0.6300;3.2450;
132.3000;0.6292;3.2476;
132.6000;0.6300;3.2450;
132.9000;0.6260;3.2318;
133.2000;0.6300;3.2450;
133.5000;0.6276;3.2371;
133.8000;0.6284;3.2476;
134.1000;0.6292;3.2503;
134.4000;0.6333;3.2582;
134.7000;0.6284;3.2529;
135.0000;0.6252;3.2450;
135.3000;0.6276;3.2582;
135.6000;0.6292;3.2582;
135.9000;0.6276;3.2714;
136.2000;0.6284;3.2740;
136.5000;0.6276;3.2714;
136.8000;0.6284;3.2767;
137.1000;0.6300;3.2740;
137.4000;0.6292;3.2714;
137.7000;0.6276;3.2661;
138.0000;0.6284;3.2635;
138.3000;0.6276;3.2556;
138.6000;0.6268;3.2529;
138.9000;0.6292;3.2635;
139.2000;0.6276;3.2635;
139.5000;0.6300;3.2688;
139.8000;0.6276;3.2608;
140.1000;0.6284;3.2529;
140.4000;0.6284;3.2503;
140.7000;0.6333;3.2476;
141.0000;0.6276;3.2318;
141.3000;0.6276;3.2265;
141.6000;0.6309;3.2239;
141.9000;0.6309;3.2265;
142.2000;0.6300;3.2265;
142.5000;0.6292;3.2265;
142.8000;0.6284;3.2213;
143.1000;0.6300;3.2213;
143.4000;0.6284;3.2239;
143.7000;0.6309;3.2318;
144.0000;0.6292;3.2345;
144.3000;0.6276;3.2345;
144.6000;0.6252;3.2345;
144.9000;0.6284;3.2450;
145.2000;0.6292;3.2450;
145.5000;0.6317;3.2424;
145.8000;0.6292;3.2450;
146.1000;0.6317;3.2450;
146.4000;0.6317;3.2424;
146.7000;0.6268;3.2265;
147.0000;0.6309;3.2503;
147.3000;0.6317;3.2503;
147.6000;0.6284;3.2503;
147.9000;0.6300;3.2529;
148.2000;0.6292;3.2503;
148.5000;0.6300;3.2476;
148.8000;0.6300;3.2371;
149.1000;0.6300;3.2371;
149.4000;0.6292;3.2239;
149.7000;0.6243;3.2133;
150.0000;0.6300;3.2371;
150.3000;0.6292;3.2476;
150.6000;0.6309;3.2503;
150.9000;0.6309;3.2476;
151.2000;0.6341;3.2582;
151.5000;0.6300;3.2503;
151.8000;0.6276;3.2476;
152.1000;0.6284;3.2529;
152.4000;0.6390;3.2793;
152.7000;0.6300;3.2688;
153.0000;0.6284;3.2635;
153.3000;0.6268;3.2608;
153.6000;0.6276;3.2661;
153.9000;0.6252;3.2740;
154.2000;0.6292;3.2793;
154.5000;0.6268;3.2846;
154.8000;0.6227;3.2688;
155.1000;0.6276;3.2767;
155.4000;0.6276;3.2793;
155.7000;0.6268;3.2740;
156.0000;0.6276;3.2714;
156.3000;0.6300;3.2740;
156.6000;0.6300;3.2740;
156.9000;0.6276;3.2714;
157.2000;0.6276;3.2688;
157.5000;0.6309;3.2714;
157.8000;0.6284;3.2661;
158.1000;0.6268;3.2529;
158.4000;0.6276;3.2450;
158.7000;0.6284;3.2424;
159.0000;0.6292;3.2397;
159.3000;0.6276;3.2371;
159.6000;0.6292;3.2424;
159.9000;0.6292;3.2450;
160.2000;0.6284;3.2397;
160.5000;0.6252;3.2371;
160.8000;0.6276;3.2371;
161.1000;0.6276;3.2345;
161.4000;0.6284;3.2318;
161.7000;0.6284;3.2292;
162.0000;0.6292;3.2292;
162.3000;0.6260;3.2239;
162.6000;0.6292;3.2371;
162.9000;0.6243;3.2239;
163.2000;0.6292;3.2345;
163.5000;0.6235;3.2160;
163.8000;0.6300;3.2450;
164.1000;0.6325;3.2476;
164.4000;0.6309;3.2318;
164.7000;0.6284;3.2213;
165.0000;0.6309;3.2160;
165.3000;0.6300;3.2081;
165.6000;0.6300;3.2133;
165.9000;0.6292;3.2028;
166.2000;0.6309;3.2054;
166.5000;0.6268;3.2028;
166.8000;0.6317;3.2239;
167.1000;0.6333;3.2345;
167.4000;0.6292;3.2239;
167.7000;0.6300;3.2186;
168.0000;0.6284;3.2160;
168.3000;0.6284;3.2213;
168.6000;0.6292;3.2133;
168.9000;0.6300;3.2133;
169.2000;0.6284;3.2160;
169.5000;0.6284;3.2265;
169.8000;0.6260;3.2239;
170.1000;0.6276;3.2318;
170.4000;0.6317;3.2424;
170.7000;0.6325;3.2503;
171.0000;0.6276;3.2397;
171.3000;0.6292;3.2503;
171.6000;0.6252;3.2476;
171.9000;0.6292;3.2608;
172.2000;0.6309;3.2688;
172.5000;0.6300;3.2635;
172.8000;0.6268;3.2661;
173.1000;0.6284;3.2635;
173.4000;0.6276;3.2661;
173.7000;0.6284;3.2608;
174.0000;0.6276;3.2556;
174.3000;0.6276;3.2635;
174.6000;0.6276;3.2635;
174.9000;0.6284;3.2714;
175.2000;0.6325;3.2819;
175.5000;0.6276;3.2740;
175.8000;0.6284;3.2714;
176.1000;0.6276;3.2608;
176.4000;0.6341;3.2793;
176.7000;0.6284;3.2688;
177.0000;0.6284;3.2608;
177.3000;0.6268;3.2635;
177.6000;0.6276;3.2556;
177.9000;0.6284;3.2529;
178.2000;0.6309;3.2503;
178.5000;0.6292;3.2503;
178.8000;0.6243;3.2397;
179.1000;0.6252;3.2450;
179.4000;0.6284;3.2450;
179.7000;0.6292;3.2397;
180.0000;0.6276;3.2292;
180.3000;0.6252;3.2318;
180.6000;0.6292;3.2397;
180.9000;0.6268;3.2265;
181.2000;0.6276;3.2292;
181.5000;0.6284;3.2292;
181.8000;0.6300;3.2265;
182.1000;0.6276;3.2160;
182.4000;0.6284;3.2213;
182.7000;0.6284;3.2265;
183.0000;0.6317;3.2345;
183.3000;0.6300;3.2450;
183.6000;0.6284;3.2476;
183.9000;0.6268;3.2476;
184.2000;0.6317;3.2582;
184.5000;0.6406;3.2714;
184.8000;0.6219;3.2213;
185.1000;0.6227;3.2292;
185.4000;0.6284;3.2529;
185.7000;0.6300;3.2529;
186.0000;0.6284;3.2503;
186.3000;0.6374;3.2688;
186.6000;0.6300;3.2529;
186.9000;0.6300;3.2582;
187.2000;0.6292;3.2635;
187.5000;0.6292;3.2635;
187.8000;0.6300;3.2635;
188.1000;0.6300;3.2608;
188.4000;0.6300;3.2582;
188.7000;0.6309;3.2635;
189.0000;0.6292;3.2608;
189.3000;0.6284;3.2556;
189.6000;0.6309;3.2661;
189.9000;0.6284;3.2556;
190.2000;0.6268;3.2529;
190.5000;0.6292;3.2529;
190.8000;0.6292;3.2424;
191.1000;0.6268;3.2318;
191.4000;0.6268;3.2292;
191.7000;0.6300;3.2345;
192.0000;0.6276;3.2476;
192.3000;0.6300;3.2529;
192.6000;0.6268;3.2582;
192.9000;0.6276;3.2582;
193.2000;0.6276;3.2688;
193.5000;0.6268;3.2635;
193.8000;0.6260;3.2608;
194.1000;0.6268;3.2688;
194.4000;0.6260;3.2661;
194.7000;0.6219;3.2529;
195.0000;0.6260;3.2635;
195.3000;0.6260;3.2767;
195.6000;0.6276;3.2767;
195.9000;0.6252;3.2740;
196.2000;0.6252;3.2767;
196.5000;0.6276;3.2925;
196.8000;0.6268;3.2846;
197.1000;0.6292;3.2793;
197.4000;0.6276;3.2819;
197.7000;0.6300;3.2846;
198.0000;0.6292;3.2793;
198.3000;0.6276;3.2846;
198.6000;0.6300;3.2819;
198.9000;0.6284;3.2714;
199.2000;0.6260;3.2608;
199.5000;0.6292;3.2608;
199.8000;0.6292;3.2661;
200.1000;0.6300;3.2688;
200.4000;0.6333;3.2740;
200.7000;0.6292;3.2556;
201.0000;0.6309;3.2608;
201.3000;0.6292;3.2503;
201.6000;0.6349;3.2661;
201.9000;0.6284;3.2582;
202.2000;0.6284;3.2556;
202.5000;0.6309;3.2529;
202.8000;0.6292;3.2582;
203.1000;0.6292;3.2503;
203.4000;0.6300;3.2397;
203.7000;0.6365;3.2503;
204.0000;0.6235;3.2239;
204.3000;0.6268;3.2397;
204.6000;0.6309;3.2450;
204.9000;0.6292;3.2424;
205.2000;0.6268;3.2345;
205.5000;0.6292;3.2424;
205.8000;0.6325;3.2476;
206.1000;0.6333;3.2450;
206.4000;0.6300;3.2265;
206.7000;0.6309;3.2265;
207.0000;0.6300;3.2265;
207.3000;0.6406;3.2688;
207.6000;0.6309;3.2424;
207.9000;0.6309;3.2345;
208.2000;0.6317;3.2424;
208.5000;0.6317;3.2345;
208.8000;0.6309;3.2292;
209.1000;0.6341;3.2397;
209.4000;0.6284;3.2213;
209.7000;0.6292;3.2292;
210.0000;0.6341;3.2318;
210.3000;0.6317;3.2318;
210.6000;0.6276;3.2213;
210.9000;0.6292;3.2292;
211.2000;0.6284;3.2476;
211.5000;0.6227;3.2450;
211.8000;0.6292;3.2582;
212.1000;0.6284;3.2582;
212.4000;0.6284;3.2529;
212.7000;0.6276;3.2556;
213.0000;0.6284;3.2582;
213.3000;0.6284;3.2608;
213.6000;0.6276;3.2661;
213.9000;0.6268;3.2661;
214.2000;0.6268;3.2608;
214.5000;0.6268;3.2635;
214.8000;0.6268;3.2661;
215.1000;0.6276;3.2688;
215.4000;0.6276;3.2714;
215.7000;0.6276;3.2608;
216.0000;0.6268;3.2635;
216.3000;0.6284;3.2688;
216.6000;0.6284;3.2688;
216.9000;0.6235;3.2503;
217.2000;0.6268;3.2503;
217.5000;0.6300;3.2582;
217.8000;0.6284;3.2556;
218.1000;0.6292;3.2608;
218.4000;0.6276;3.2608;
218.7000;0.6211;3.2371;
219.0000;0.6292;3.2635;
219.3000;0.6284;3.2608;
219.6000;0.6268;3.2476;
219.9000;0.6300;3.2529;
220.2000;0.6300;3.2397;
220.5000;0.6252;3.2371;
220.8000;0.6203;3.2160;
221.1000;0.6178;3.2107;
221.4000;0.6317;3.2529;
221.7000;0.6309;3.2476;
222.0000;0.6243;3.2160;
222.3000;0.6227;3.2054;
222.6000;0.6309;3.2318;
222.9000;0.6292;3.2318;
223.2000;0.6300;3.2345;
223.5000;0.6309;3.2424;
223.8000;0.6292;3.2529;
224.1000;0.6292;3.2556;
224.4000;0.6276;3.2476;
224.7000;0.6300;3.2450;
225.0000;0.6300;3.2529;
225.3000;0.6390;3.2793;
225.6000;0.6300;3.2503;
225.9000;0.6268;3.2345;
226.2000;0.6268;3.2397;
226.5000;0.6211;3.2239;
226.8000;0.6154;3.2028;
227.1000;0.6276;3.2371;
227.4000;0.6284;3.2265;
227.7000;0.6292;3.2345;
228.0000;0.6284;3.2371;
228.3000;0.6292;3.2345;
228.6000;0.6292;3.2371;
228.9000;0.6300;3.2450;
229.2000;0.6276;3.2529;
229.5000;0.6309;3.2476;
229.8000;0.6243;3.2265;
230.1000;0.6300;3.2371;
230.4000;0.6300;3.2397;
230.7000;0.6292;3.2345;
231.0000;0.6268;3.2239;
231.3000;0.6276;3.2265;
231.6000;0.6317;3.2424;
231.9000;0.6276;3.2345;
232.2000;0.6276;3.2503;
232.5000;0.6260;3.2529;
232.8000;0.6260;3.2661;
233.1000;0.6309;3.2767;
233.4000;0.6300;3.2819;
233.7000;0.6268;3.2899;
234.0000;0.6284;3.2899;
234.3000;0.6268;3.2767;
234.6000;0.6260;3.2767;
234.9000;0.6252;3.2793;
235.2000;0.6276;3.2872;
235.5000;0.6284;3.2951;
235.8000;0.6260;3.2899;
236.1000;0.6268;3.2978;
236.4000;0.6268;3.3030;
236.7000;0.6276;3.2978;
237.0000;0.6349;3.3189;
237.3000;0.6252;3.2899;
237.6000;0.6300;3.2951;
237.9000;0.6292;3.2925;
238.2000;0.6276;3.2846;
238.5000;0.6284;3.2793;
238.8000;0.6284;3.2740;
239.1000;0.6300;3.2767;
239.4000;0.6276;3.2661;
239.7000;0.6260;3.2529;
240.0000;0.6276;3.2529;
240.3000;0.6268;3.2476;
240.6000;0.6309;3.2503;
240.9000;0.6300;3.2397;
241.2000;0.6276;3.2292;
241.5000;0.6260;3.2186;
241.8000;0.6292;3.2265;
242.1000;0.6309;3.2345;
242.4000;0.6300;3.2292;
242.7000;0.6195;3.2133;
243.0000;0.6341;3.2582;
243.3000;0.6292;3.2476;
243.6000;0.6422;3.2846;
243.9000;0.6284;3.2424;
244.2000;0.6300;3.2450;
244.5000;0.6309;3.2476;
244.8000;0.6284;3.2582;
245.1000;0.6292;3.2608;
245.4000;0.6300;3.2688;
245.7000;0.6300;3.2635;
246.0000;0.6284;3.2503;
246.3000;0.6268;3.2424;
246.6000;0.6276;3.2476;
246.9000;0.6333;3.2635;
247.2000;0.6292;3.2529;
247.5000;0.6276;3.2503;
247.8000;0.6292;3.2529;
248.1000;0.6284;3.2556;
248.4000;0.6300;3.2661;
248.7000;0.6276;3.2635;
249.0000;0.6292;3.2582;
249.3000;0.6341;3.2688;
249.6000;0.6317;3.2608;
249.9000;0.6292;3.2635;
250.2000;0.6292;3.2714;
250.5000;0.6268;3.2714;
250.8000;0.6422;3.3030;
251.1000;0.6276;3.2608;
251.4000;0.6284;3.2635;
251.7000;0.6284;3.2688;
252.0000;0.6300;3.2767;
252.3000;0.6284;3.2714;
252.6000;0.6260;3.2661;
252.9000;0.6170;3.2371;
253.2000;0.6260;3.2688;
253.5000;0.6260;3.2767;
253.8000;0.6276;3.2767;
254.1000;0.6276;3.2688;
254.4000;0.6276;3.2767;
254.7000;0.6284;3.2740;
255.0000;0.6300;3.2793;
255.3000;0.6268;3.2793;
255.6000;0.6292;3.2819;
255.9000;0.6284;3.2767;
256.2000;0.6260;3.2714;
256.5000;0.6284;3.2793;
256.8000;0.6276;3.2793;
257.1000;0.6276;3.2793;
257.4000;0.6260;3.2767;
257.7000;0.6268;3.2767;
258.0000;0.6276;3.2767;
258.3000;0.6268;3.2714;
258.6000;0.6268;3.2688;
258.9000;0.6276;3.2556;
259.2000;0.6268;3.2529;
259.5000;0.6260;3.2503;
259.8000;0.6300;3.2635;
260.1000;0.6276;3.2608;
260.4000;0.6276;3.2608;
260.7000;0.6284;3.2688;
261.0000;0.6284;3.2608;
261.3000;0.6276;3.2661;
261.6000;0.6292;3.2688;
261.9000;0.6317;3.2714;
262.2000;0.6260;3.2529;
262.5000;0.6284;3.2529;
262.8000;0.6268;3.2529;
263.1000;0.6292;3.2529;
263.4000;0.6309;3.2556;
263.7000;0.6260;3.2476;
264.0000;0.6284;3.2608;
264.3000;0.6309;3.2582;
264.6000;0.6284;3.2503;
264.9000;0.6292;3.2529;
265.2000;0.6276;3.2503;
265.5000;0.6325;3.2635;
265.8000;0.6170;3.2186;
266.1000;0.6284;3.2529;
266.4000;0.6300;3.2529;
266.7000;0.6243;3.2450;
267.0000;0.6268;3.2476;
267.3000;0.6276;3.2529;
267.6000;0.6227;3.2450;
267.9000;0.6178;3.2265;
268.2000;0.6300;3.2503;
268.5000;0.6276;3.2424;
268.8000;0.6227;3.2292;
269.1000;0.6284;3.2397;
269.4000;0.6309;3.2345;
269.7000;0.6284;3.2318;
270.0000;0.6292;3.2371;
270.3000;0.6219;3.2186;
270.6000;0.6284;3.2450;
270.9000;0.6300;3.2450;
271.2000;0.6317;3.2424;
271.5000;0.6292;3.2424;
271.8000;0.6276;3.2424;
272.1000;0.6292;3.2556;
272.4000;0.6284;3.2529;
272.7000;0.6268;3.2529;
273.0000;0.6268;3.2529;
273.3000;0.6186;3.2292;
273.6000;0.6268;3.2582;
273.9000;0.6276;3.2582;
274.2000;0.6260;3.2608;
274.5000;0.6276;3.2688;
274.8000;0.6268;3.2767;
275.1000;0.6260;3.2819;
275.4000;0.6276;3.2872;
275.7000;0.6276;3.2819;
276.0000;0.6284;3.2819;
276.3000;0.6219;3.2846;
276.6000;0.6268;3.2925;
276.9000;0.6276;3.2872;
277.2000;0.6276;3.2714;
277.5000;0.6268;3.2740;
277.8000;0.6268;3.2608;
278.1000;0.6227;3.2476;
278.4000;0.6252;3.2529;
278.7000;0.6276;3.2529;
279.0000;0.6203;3.2371;
279.3000;0.6268;3.2635;
279.6000;0.6317;3.2714;
279.9000;0.6268;3.2635;
280.2000;0.6284;3.2608;
280.5000;0.6292;3.2582;
280.8000;0.6243;3.2450;
281.1000;0.6292;3.2556;
281.4000;0.6292;3.2529;
281.7000;0.6284;3.2476;
282.0000;0.6260;3.2318;
282.3000;0.6276;3.2318;
282.6000;0.6227;3.2186;
282.9000;0.6300;3.2503;
283.2000;0.6276;3.2424;
283.5000;0.6260;3.2371;
283.8000;0.6284;3.2424;
284.1000;0.6292;3.2371;
284.4000;0.6268;3.2371;
284.7000;0.6341;3.2582;
285.0000;0.6268;3.2450;
285.3000;0.6300;3.2503;
285.6000;0.6292;3.2529;
285.9000;0.6300;3.2503;
286.2000;0.6284;3.2450;
286.5000;0.6300;3.2397;
286.8000;0.6300;3.2371;
287.1000;0.6284;3.2318;
287.4000;0.6300;3.2424;
287.7000;0.6284;3.2424;
288.0000;0.6284;3.2397;
288.3000;0.6292;3.2318;
288.6000;0.6284;3.2186;
288.9000;0.6276;3.2239;
289.2000;0.6268;3.2292;
289.5000;0.6268;3.2213;
289.8000;0.6260;3.2239;
290.1000;0.6276;3.2318;
290.4000;0.6284;3.2424;
290.7000;0.6260;3.2424;
291.0000;0.6252;3.2397;
291.3000;0.6268;3.2476;
291.6000;0.6276;3.2476;
291.9000;0.6235;3.2424;
292.2000;0.6317;3.2476;
292.5000;0.6211;3.2371;
292.8000;0.6260;3.2424;
293.1000;0.6260;3.2424;
293.4000;0.6268;3.2424;
293.7000;0.6260;3.2529;
294.0000;0.6252;3.2608;
294.3000;0.6268;3.2740;
294.6000;0.6260;3.2661;
294.9000;0.6292;3.2688;
295.2000;0.6268;3.2661;
295.5000;0.6268;3.2608;
295.8000;0.6317;3.2714;
296.1000;0.6252;3.2608;
296.4000;0.6260;3.2556;
296.7000;0.6276;3.2608;
297.0000;0.6268;3.2608;
297.3000;0.6325;3.2793;
297.6000;0.6260;3.2582;
297.9000;0.6170;3.2239;
298.2000;0.6276;3.2371;
298.5000;0.6268;3.2424;
298.8000;0.6260;3.2397;
299.1000;0.6276;3.2292;
299.4000;0.6276;3.2424;
299.7000;0.6284;3.2371;
300.0000;0.6284;3.2450;
300.3000;0.6333;3.2529;
300.6000;0.6284;3.2424;
300.9000;0.6227;3.2239;
301.2000;0.6276;3.2371;
301.5000;0.6284;3.2450;
301.8000;0.6284;3.2529;
302.1000;0.6292;3.2582;
302.4000;0.6276;3.2582;
302.7000;0.6276;3.2608;
303.0000;0.6292;3.2608;
303.3000;0.6276;3.2635;
303.6000;0.6235;3.2476;
303.9000;0.6284;3.2608;
304.2000;0.6276;3.2608;
304.5000;0.6284;3.2635;
304.8000;0.6292;3.2661;
305.1000;0.6268;3.2740;
305.4000;0.6243;3.2740;
305.7000;0.6268;3.2688;
306.0000;0.6284;3.2714;
306.3000;0.6309;3.2714;
306.6000;0.6276;3.2661;
306.9000;0.6292;3.2661;
307.2000;0.6284;3.2582;
307.5000;0.6374;3.2767;
307.8000;0.6268;3.2476;
308.1000;0.6219;3.2397;
308.4000;0.6300;3.2740;
308.7000;0.6284;3.2688;
309.0000;0.6260;3.2529;
309.3000;0.6276;3.2529;
309.6000;0.6284;3.2608;
309.9000;0.6268;3.2582;
310.2000;0.6284;3.2608;
310.5000;0.6284;3.2608;
310.8000;0.6284;3.2635;
311.1000;0.6300;3.2556;
311.4000;0.6292;3.2503;
311.7000;0.6276;3.2529;
312.0000;0.6292;3.2635;
312.3000;0.6333;3.2819;
312.6000;0.6317;3.2714;
312.9000;0.6284;3.2740;
313.2000;0.6284;3.2740;
313.5000;0.6284;3.2740;
313.8000;0.6268;3.2714;
314.1000;0.6260;3.2635;
314.4000;0.6243;3.2661;
314.7000;0.6252;3.2740;
315.0000;0.6284;3.2819;
315.3000;0.6284;3.2951;
315.6000;0.6260;3.2899;
315.9000;0.6260;3.2899;
316.2000;0.6276;3.3030;
316.5000;0.6260;3.2925;
316.8000;0.6260;3.2899;
317.1000;0.6268;3.2819;
317.4000;0.6276;3.2899;
317.7000;0.6276;3.2978;
318.0000;0.6268;3.2819;
318.3000;0.6276;3.2793;
318.6000;0.6268;3.2740;
318.9000;0.6382;3.3004;
319.2000;0.6292;3.2819;
319.5000;0.6276;3.2688;
319.8000;0.6268;3.2635;
320.1000;0.6276;3.2688;
320.4000;0.6276;3.2714;
320.7000;0.6252;3.2635;
321.0000;0.6276;3.2688;
321.3000;0.6325;3.2740;
321.6000;0.6252;3.2556;
321.9000;0.6390;3.2793;
322.2000;0.6276;3.2424;
322.5000;0.6260;3.2371;
322.8000;0.6260;3.2424;
323.1000;0.6276;3.2529;
323.4000;0.6252;3.2556;
323.7000;0.6276;3.2529;
324.0000;0.6260;3.2503;
324.3000;0.6211;3.2345;
324.6000;0.6260;3.2529;
324.9000;0.6268;3.2556;
325.2000;0.6268;3.2503;
325.5000;0.6260;3.2424;
325.8000;0.6276;3.2529;
326.1000;0.6292;3.2608;
326.4000;0.6276;3.2608;
326.7000;0.6268;3.2582;
327.0000;0.6276;3.2476;
327.3000;0.6268;3.2450;
327.6000;0.6252;3.2450;
327.9000;0.6292;3.2608;
328.2000;0.6292;3.2556;
328.5000;0.6276;3.2529;
328.8000;0.6422;3.2899;
329.1000;0.6276;3.2476;
329.4000;0.6300;3.2503;
329.7000;0.6284;3.2529;
330.0000;0.6284;3.2582;
330.3000;0.6284;3.2608;
330.6000;0.6268;3.2529;
330.9000;0.6276;3.2556;
331.2000;0.6268;3.2556;
331.5000;0.6268;3.2529;
331.8000;0.6268;3.2529;
332.1000;0.6260;3.2582;
332.4000;0.6195;3.2371;
332.7000;0.6276;3.2661;
333.0000;0.6276;3.2714;
333.3000;0.6235;3.2529;
333.6000;0.6268;3.2582;
333.9000;0.6276;3.2608;
334.2000;0.6252;3.2635;
334.5000;0.6211;3.2476;
334.8000;0.6260;3.2661;
335.1000;0.6268;3.2714;
335.4000;0.6260;3.2714;
335.7000;0.6235;3.2661;
336.0000;0.6268;3.2793;
336.3000;0.6268;3.2714;
336.6000;0.6276;3.2767;
336.9000;0.6252;3.2661;
337.2000;0.6243;3.2635;
337.5000;0.6268;3.2582;
337.8000;0.6276;3.2582;
338.1000;0.6235;3.2424;
338.4000;0.6268;3.2529;
338.7000;0.6252;3.2450;
339.0000;0.6276;3.2503;
339.3000;0.6284;3.2556;
339.6000;0.6284;3.2556;
339.9000;0.6268;3.2371;
340.2000;0.6284;3.2345;
340.5000;0.6284;3.2371;
340.8000;0.6268;3.2345;
341.1000;0.6276;3.2318;
341.4000;0.6341;3.2397;
341.7000;0.6292;3.2318;
342.0000;0.6260;3.2292;
342.3000;0.6243;3.2318;
342.6000;0.6284;3.2397;
342.9000;0.6276;3.2345;
343.2000;0.6300;3.2318;
343.5000;0.6292;3.2265;
343.8000;0.6284;3.2133;
344.1000;0.6284;3.2107;
344.4000;0.6268;3.2133;
344.7000;0.6276;3.2107;
345.0000;0.6276;3.2107;
345.3000;0.6235;3.2081;
345.6000;0.6268;3.2213;
345.9000;0.6276;3.2186;
346.2000;0.6268;3.2213;
346.5000;0.6276;3.2186;
346.8000;0.6300;3.2186;
347.1000;0.6227;3.2054;
347.4000;0.6276;3.2160;
347.7000;0.6276;3.2081;
348.0000;0.6276;3.2186;
348.3000;0.6284;3.2239;
348.6000;0.6284;3.2186;
348.9000;0.6276;3.2160;
349.2000;0.6292;3.2292;
349.5000;0.6276;3.2318;
349.8000;0.6276;3.2239;
350.1000;0.6309;3.2424;
350.4000;0.6268;3.2292;
350.7000;0.6284;3.2397;
351.0000;0.6203;3.2239;
351.3000;0.6260;3.2397;
351.6000;0.6227;3.2265;
351.9000;0.6276;3.2450;
352.2000;0.6243;3.2397;
352.5000;0.6284;3.2424;
352.8000;0.6260;3.2424;
353.1000;0.6268;3.2529;
353.4000;0.6268;3.2635;
353.7000;0.6252;3.2608;
354.0000;0.6243;3.2582;
354.3000;0.6260;3.2688;
354.6000;0.6268;3.2714;
354.9000;0.6349;3.2978;
355.2000;0.6260;3.2740;
355.5000;0.6268;3.2635;
355.8000;0.6276;3.2714;
356.1000;0.6243;3.2661;
356.4000;0.6243;3.2608;
356.7000;0.6260;3.2635;
357.0000;0.6268;3.2688;
357.3000;0.6260;3.2635;
357.6000;0.6292;3.2661;
357.9000;0.6219;3.2529;
358.2000;0.6284;3.2688;
358.5000;0.6325;3.2793;
358.8000;0.6235;3.2424;
359.1000;0.6260;3.2556;
359.4000;0.6284;3.2608;
359.7000;0.6276;3.2424;
360.0000;0.6276;3.2450;
360.3000;0.6292;3.2608;
360.6000;0.6292;3.2503;
360.9000;0.6268;3.2450;
361.2000;0.6276;3.2450;
361.5000;0.6276;3.2424;
361.8000;0.6390;3.2688;
362.1000;0.6325;3.2476;
362.4000;0.6268;3.2371;
362.7000;0.6268;3.2371;
363.0000;0.6284;3.2424;
363.3000;0.6284;3.2397;
363.6000;0.6292;3.2476;
363.9000;0.6268;3.2476;
364.2000;0.6292;3.2529;
364.5000;0.6276;3.2529;
364.8000;0.6284;3.2476;
365.1000;0.6268;3.2371;
365.4000;0.6268;3.2397;
365.7000;0.6284;3.2397;
366.0000;0.6268;3.2397;
366.3000;0.6268;3.2397;
366.6000;0.6276;3.2450;
366.9000;0.6284;3.2476;
367.2000;0.6260;3.2345;
367.5000;0.6292;3.2371;
367.8000;0.6292;3.2371;
368.1000;0.6300;3.2397;
368.4000;0.6284;3.2265;
368.7000;0.6276;3.2265;
369.0000;0.6276;3.2133;
369.3000;0.6325;3.2345;
369.6000;0.6276;3.2265;
369.9000;0.6252;3.2239;
370.2000;0.6276;3.2345;
370.5000;0.6260;3.2318;
370.8000;0.6268;3.2345;
371.1000;0.6260;3.2371;
371.4000;0.6260;3.2476;
371.7000;0.6235;3.2450;
372.0000;0.6243;3.2556;
372.3000;0.6243;3.2503;
372.6000;0.6252;3.2529;
372.9000;0.6243;3.2582;
373.2000;0.6260;3.2714;
373.5000;0.6284;3.2819;
373.8000;0.6243;3.2582;
374.1000;0.6260;3.2608;
374.4000;0.6219;3.2476;
374.7000;0.6252;3.2556;
375.0000;0.6211;3.2450;
375.3000;0.6235;3.2503;
375.6000;0.6243;3.2608;
375.9000;0.6211;3.2503;
376.2000;0.6276;3.2740;
376.5000;0.6292;3.2793;
376.8000;0.6211;3.2582;
377.1000;0.6252;3.2582;
377.4000;0.6268;3.2582;
377.7000;0.6252;3.2450;
378.0000;0.6268;3.2476;
378.3000;0.6292;3.2661;
378.6000;0.6284;3.2529;
378.9000;0.6268;3.2503;
379.2000;0.6252;3.2450;
379.5000;0.6260;3.2424;
379.8000;0.6260;3.2318;
380.1000;0.6268;3.2265;
380.4000;0.6260;3.2345;
380.7000;0.6252;3.2345;
381.0000;0.6260;3.2345;
381.3000;0.6268;3.2397;
381.6000;0.6284;3.2397;
381.9000;0.6260;3.2318;
382.2000;0.6268;3.2292;
382.5000;0.6284;3.2345;
382.8000;0.6235;3.2186;
383.1000;0.6268;3.2239;
383.4000;0.6284;3.2239;
383.7000;0.6292;3.2292;
384.0000;0.6268;3.2345;
384.3000;0.6292;3.2318;
384.6000;0.6284;3.2186;
384.9000;0.6276;3.2133;
385.2000;0.6292;3.2239;
385.5000;0.6260;3.2081;
385.8000;0.6284;3.2160;
386.1000;0.6268;3.2160;
386.4000;0.6398;3.2371;
386.7000;0.6260;3.2081;
387.0000;0.6276;3.2107;
387.3000;0.6300;3.2239;
387.6000;0.6292;3.2265;
387.9000;0.6276;3.2292;
388.2000;0.6284;3.2292;
388.5000;0.6260;3.2213;
388.8000;0.6268;3.2213;
389.1000;0.6276;3.2292;
389.4000;0.6252;3.2292;
389.7000;0.6300;3.2424;
390.0000;0.6252;3.2397;
390.3000;0.6284;3.2476;
390.6000;0.6260;3.2503;
390.9000;0.6268;3.2503;
391.2000;0.6260;3.2556;
391.5000;0.6260;3.2635;
391.8000;0.6260;3.2608;
392.1000;0.6317;3.2740;
392.4000;0.6252;3.2608;
392.7000;0.6260;3.2582;
393.0000;0.6260;3.2661;
393.3000;0.6235;3.2688;
393.6000;0.6268;3.2767;
393.9000;0.6276;3.2767;
394.2000;0.6268;3.2767;
394.5000;0.6235;3.2608;
394.8000;0.6260;3.2688;
395.1000;0.6252;3.2793;
395.4000;0.6243;3.2740;
395.7000;0.6284;3.2793;
396.0000;0.6235;3.2661;
396.3000;0.6317;3.2925;
396.6000;0.6243;3.2688;
396.9000;0.6243;3.2608;
397.2000;0.6186;3.2345;
397.5000;0.6325;3.2635;
397.8000;0.6333;3.2688;
398.1000;0.6252;3.2476;
398.4000;0.6219;3.2397;
398.7000;0.6325;3.2767;
399.0000;0.6268;3.2608;
399.3000;0.6268;3.2503;
399.6000;0.6325;3.2608;
399.9000;0.6268;3.2397;
400.2000;0.6317;3.2556;
400.5000;0.6276;3.2556;
400.8000;0.6260;3.2450;
401.1000;0.6276;3.2397;
401.4000;0.6260;3.2345;
401.7000;0.6284;3.2397;
402.0000;0.6268;3.2318;
402.3000;0.6268;3.2371;
402.6000;0.6268;3.2450;
402.9000;0.6268;3.2424;
403.2000;0.6260;3.2424;
403.5000;0.6260;3.2371;
403.8000;0.6268;3.2318;
404.1000;0.6268;3.2292;
404.4000;0.6284;3.2239;
404.7000;0.6268;3.2186;
405.0000;0.6284;3.2265;
405.3000;0.6268;3.2239;
405.6000;0.6276;3.2265;
405.9000;0.6268;3.2265;
406.2000;0.6260;3.2239;
406.5000;0.6276;3.2265;
406.8000;0.6211;3.1949;
407.1000;0.6284;3.2107;
407.4000;0.6276;3.2133;
407.7000;0.6268;3.2081;
408.0000;0.6276;3.2107;
408.3000;0.6276;3.2081;
408.6000;0.6414;3.2476;
408.9000;0.6276;3.2160;
409.2000;0.6260;3.2213;
409.5000;0.6268;3.2265;
409.8000;0.6268;3.2213;
410.1000;0.6260;3.2239;
410.4000;0.6284;3.2292;
410.7000;0.6268;3.2265;
411.0000;0.6260;3.2371;
411.3000;0.6260;3.2450;
411.6000;0.6276;3.2529;
411.9000;0.6243;3.2476;
412.2000;0.6268;3.2529;
412.5000;0.6235;3.2450;
412.8000;0.6252;3.2476;
413.1000;0.6276;3.2635;
413.4000;0.6252;3.2582;
413.7000;0.6260;3.2556;
414.0000;0.6235;3.2476;
414.3000;0.6219;3.2424;
414.6000;0.6268;3.2582;
414.9000;0.6243;3.2582;
415.2000;0.6252;3.2582;
415.5000;0.6170;3.2397;
415.8000;0.6276;3.2767;
416.1000;0.6260;3.2740;
416.4000;0.6235;3.2740;
416.7000;0.6243;3.2714;
417.0000;0.6292;3.2793;
417.3000;0.6260;3.2767;
417.6000;0.6260;3.2767;
417.9000;0.6203;3.2556;
418.2000;0.6284;3.2767;
418.5000;0.6260;3.2661;
418.8000;0.6268;3.2556;
419.1000;0.6252;3.2424;
419.4000;0.6268;3.2424;
419.7000;0.6284;3.2371;
420.0000;0.6260;3.2371;
420.3000;0.6260;3.2318;
420.6000;0.6268;3.2371;
420.9000;0.6292;3.2503;
421.2000;0.6374;3.2714;
421.5000;0.6260;3.2476;
421.8000;0.6276;3.2503;
422.1000;0.6268;3.2450;
422.4000;0.6203;3.2160;
422.7000;0.6260;3.2424;
423.0000;0.6243;3.2450;
423.3000;0.6276;3.2529;
423.6000;0.6325;3.2635;
423.9000;0.6260;3.2371;
424.2000;0.6268;3.2239;
424.5000;0.6284;3.2239;
424.8000;0.6260;3.2186;
425.1000;0.6292;3.2239;
425.4000;0.6252;3.2186;
425.7000;0.6260;3.2160;
426.0000;0.6276;3.2213;
426.3000;0.6300;3.2213;
426.6000;0.6300;3.2239;
426.9000;0.6276;3.2107;
427.2000;0.6284;3.2160;
427.5000;0.6268;3.2160;
427.8000;0.6243;3.2239;
428.1000;0.6260;3.2239;
428.4000;0.6260;3.2318;
428.7000;0.6276;3.2371;
429.0000;0.6268;3.2292;
429.3000;0.6260;3.2239;
429.6000;0.6268;3.2318;
429.9000;0.6268;3.2371;
430.2000;0.6260;3.2371;
430.5000;0.6268;3.2397;
430.8000;0.6260;3.2503;
431.1000;0.6284;3.2556;
431.4000;0.6284;3.2529;
431.7000;0.6309;3.2608;
432.0000;0.6276;3.2529;
432.3000;0.6170;3.2292;
432.6000;0.6276;3.2608;
432.9000;0.6268;3.2503;
433.2000;0.6260;3.2424;
433.5000;0.6260;3.2503;
433.8000;0.6260;3.2529;
434.1000;0.6252;3.2556;
434.4000;0.6219;3.2476;
434.7000;0.6260;3.2556;
435.0000;0.6260;3.2608;
435.3000;0.6186;3.2371;
435.6000;0.6260;3.2556;
435.9000;0.6268;3.2661;
436.2000;0.6252;3.2661;
436.5000;0.6260;3.2688;
436.8000;0.6252;3.2714;
437.1000;0.6268;3.2740;
437.4000;0.6260;3.2714;
437.7000;0.6268;3.2608;
438.0000;0.6260;3.2661;
438.3000;0.6170;3.2371;
438.6000;0.6268;3.2635;
438.9000;0.6203;3.2345;
439.2000;0.6260;3.2608;
439.5000;0.6349;3.2793;
439.8000;0.6284;3.2608;
440.1000;0.6260;3.2476;
440.4000;0.6333;3.2476;
440.7000;0.6284;3.2265;
441.0000;0.6276;3.2213;
441.3000;0.6292;3.2318;
441.6000;0.6292;3.2345;
441.9000;0.6268;3.2186;
442.2000;0.6284;3.2371;
442.5000;0.6276;3.2371;
442.8000;0.6276;3.2424;
443.1000;0.6260;3.2476;
443.4000;0.6243;3.2371;
443.7000;0.6252;3.2397;
444.0000;0.6276;3.2476;
444.3000;0.6268;3.2503;
444.6000;0.6260;3.2503;
444.9000;0.6268;3.2476;
445.2000;0.6292;3.2503;
445.5000;0.6260;3.2476;
445.8000;0.6260;3.2476;
446.1000;0.6268;3.2503;
446.4000;0.6276;3.2556;
446.7000;0.6260;3.2529;
447.0000;0.6276;3.2582;
447.3000;0.6252;3.2608;
447.6000;0.6284;3.2608;
447.9000;0.6260;3.2582;
448.2000;0.6284;3.2556;
448.5000;0.6317;3.2582;
448.8000;0.6252;3.2450;
449.1000;0.6252;3.2345;
449.4000;0.6260;3.2450;
449.7000;0.6284;3.2529;
450.0000;0.6268;3.2635;
450.3000;0.6325;3.2819;
450.6000;0.6235;3.2635;
450.9000;0.6276;3.2556;
451.2000;0.6203;3.2265;
451.5000;0.6333;3.2529;
451.8000;0.6268;3.2450;
452.1000;0.6260;3.2450;
452.4000;0.6268;3.2503;
452.7000;0.6284;3.2503;
453.0000;0.6252;3.2476;
453.3000;0.6252;3.2556;
453.6000;0.6243;3.2608;
453.9000;0.6268;3.2635;
454.2000;0.6252;3.2556;
454.5000;0.6235;3.2529;
454.8000;0.6260;3.2582;
455.1000;0.6325;3.2846;
455.4000;0.6268;3.2740;
455.7000;0.6268;3.2767;
456.0000;0.6235;3.2740;
456.3000;0.6260;3.2793;
456.6000;0.6284;3.2846;
456.9000;0.6252;3.2793;
457.2000;0.6260;3.2767;
457.5000;0.6276;3.2767;
457.8000;0.6292;3.2714;
458.1000;0.6243;3.2714;
458.4000;0.6317;3.2767;
458.7000;0.6243;3.2635;
459.0000;0.6252;3.2582;
459.3000;0.6235;3.2503;
459.6000;0.6227;3.2397;
459.9000;0.6227;3.2318;
460.2000;0.6260;3.2345;
460.5000;0.6243;3.2239;
460.8000;0.6276;3.2371;
461.1000;0.6243;3.2239;
461.4000;0.6252;3.2265;
461.7000;0.6268;3.2265;
462.0000;0.6276;3.2345;
462.3000;0.6268;3.2371;
462.6000;0.6292;3.2476;
462.9000;0.6276;3.2371;
463.2000;0.6252;3.2318;
463.5000;0.6219;3.2265;
463.8000;0.6243;3.2318;
464.1000;0.6252;3.2397;
464.4000;0.6276;3.2450;
464.7000;0.6276;3.2318;
465.0000;0.6268;3.2239;
465.3000;0.6138;3.1975;
465.6000;0.6268;3.2345;
465.9000;0.6284;3.2318;
466.2000;0.6252;3.2318;
466.5000;0.6252;3.2397;
466.8000;0.6162;3.2186;
467.1000;0.6260;3.2371;
467.4000;0.6260;3.2397;
467.7000;0.6284;3.2318;
468.0000;0.6325;3.2450;
468.3000;0.6276;3.2345;
468.6000;0.6268;3.2265;
468.9000;0.6260;3.2318;
469.2000;0.6317;3.2424;
469.5000;0.6219;3.2213;
469.8000;0.6300;3.2503;
470.1000;0.6300;3.2529;
470.4000;0.6178;3.2107;
470.7000;0.6252;3.2345;
471.0000;0.6260;3.2371;
471.3000;0.6276;3.2371;
471.6000;0.6243;3.2239;
471.9000;0.6268;3.2292;
472.2000;0.6235;3.2239;
472.5000;0.6300;3.2424;
472.8000;0.6268;3.2397;
473.1000;0.6276;3.2503;
473.4000;0.6243;3.2529;
473.7000;0.6268;3.2608;
474.0000;0.6252;3.2635;
474.3000;0.6260;3.2635;
474.6000;0.6227;3.2661;
474.9000;0.6235;3.2608;
475.2000;0.6260;3.2608;
475.5000;0.6260;3.2661;
475.8000;0.6300;3.2740;
476.1000;0.6252;3.2608;
476.4000;0.6260;3.2688;
476.7000;0.6243;3.2688;
477.0000;0.6203;3.2582;
477.3000;0.6268;3.2661;
477.6000;0.6284;3.2661;
477.9000;0.6276;3.2688;
478.2000;0.6252;3.2661;
478.5000;0.6252;3.2635;
478.8000;0.6195;3.2345;
479.1000;0.6211;3.2239;
479.4000;0.6235;3.2318;
479.7000;0.6243;3.2424;
480.0000;0.6260;3.2371;
480.3000;0.6317;3.2503;
480.6000;0.6252;3.2265;
480.9000;0.6317;3.2371;
481.2000;0.6260;3.2186;
481.5000;0.6284;3.2239;
481.8000;0.6276;3.2213;
482.1000;0.6260;3.2160;
482.4000;0.6211;3.2054;
482.7000;0.6252;3.2186;
483.0000;0.6252;3.2160;
483.3000;0.6284;3.2265;
483.6000;0.6268;3.2292;
483.9000;0.6268;3.2265;
484.2000;0.6268;3.2133;
484.5000;0.6300;3.2318;
484.8000;0.6268;3.2292;
485.1000;0.6268;3.2213;
485.4000;0.6243;3.2133;
485.7000;0.6276;3.2213;
486.0000;0.6260;3.2265;
486.3000;0.6260;3.2265;
486.6000;0.6276;3.2265;
486.9000;0.6268;3.2239;
487.2000;0.6260;3.2160;
487.5000;0.6268;3.2186;
487.8000;0.6260;3.2160;
488.1000;0.6284;3.2265;
488.4000;0.6260;3.2239;
488.7000;0.6252;3.2133;
489.0000;0.6260;3.2186;
489.3000;0.6284;3.2265;
489.6000;0.6268;3.2186;
489.9000;0.6268;3.2160;
490.2000;0.6268;3.2186;
490.5000;0.6300;3.2424;
490.8000;0.6300;3.2345;
491.1000;0.6268;3.2213;
491.4000;0.6211;3.2107;
491.7000;0.6243;3.2265;
492.0000;0.6268;3.2371;
492.3000;0.6252;3.2424;
492.6000;0.6235;3.2529;
492.9000;0.6243;3.2635;
493.2000;0.6243;3.2608;
493.5000;0.6219;3.2635;
493.8000;0.6292;3.2872;
494.1000;0.6252;3.2714;
494.4000;0.6252;3.2740;
494.7000;0.6268;3.2819;
495.0000;0.6243;3.2740;
495.3000;0.6243;3.2661;
495.6000;0.6227;3.2582;
495.9000;0.6260;3.2661;
496.2000;0.6268;3.2688;
496.5000;0.6227;3.2635;
496.8000;0.6252;3.2714;
497.1000;0.6211;3.2661;
497.4000;0.6243;3.2661;
497.7000;0.6211;3.2476;
498.0000;0.6243;3.2503;
498.3000;0.6243;3.2503;
498.6000;0.6235;3.2450;
498.9000;0.6243;3.2424;
499.2000;0.6252;3.2371;
499.5000;0.6243;3.2397;
499.8000;0.6243;3.2397;
500.1000;0.6276;3.2371;
500.4000;0.6268;3.2371;
500.7000;0.6219;3.2292;
501.0000;0.6252;3.2292;
501.3000;0.6260;3.2186;
501.6000;0.6252;3.2265;
501.9000;0.6252;3.2345;
502.2000;0.6243;3.2345;
502.5000;0.6268;3.2371;
502.8000;0.6243;3.2239;
503.1000;0.6268;3.2186;
503.4000;0.6276;3.2239;
503.7000;0.6276;3.2265;
504.0000;0.6276;3.2318;
504.3000;0.6162;3.2133;
504.6000;0.6268;3.2476;
504.9000;0.6252;3.2450;
505.2000;0.6268;3.2556;
505.5000;0.6227;3.2424;
505.8000;0.6235;3.2397;
506.1000;0.6219;3.2345;
506.4000;0.6268;3.2556;
506.7000;0.6268;3.2582;
507.0000;0.6260;3.2608;
507.3000;0.6406;3.3004;
507.6000;0.6252;3.2582;
507.9000;0.6252;3.2582;
508.2000;0.6243;3.2556;
508.5000;0.6252;3.2529;
508.8000;0.6260;3.2556;
509.1000;0.6235;3.2450;
509.4000;0.6260;3.2424;
509.7000;0.6252;3.2318;
510.0000;0.6243;3.2345;
510.3000;0.6252;3.2371;
510.6000;0.6252;3.2318;
510.9000;0.6252;3.2371;
511.2000;0.6227;3.2397;
511.5000;0.6227;3.2450;
511.8000;0.6252;3.2476;
512.1000;0.6227;3.2476;
512.4000;0.6243;3.2503;
512.7000;0.6252;3.2529;
513.0000;0.6325;3.2846;
513.3000;0.6243;3.2608;
513.6000;0.6195;3.2476;
513.9000;0.6243;3.2582;
514.2000;0.6235;3.2582;
514.5000;0.6268;3.2582;
514.8000;0.6260;3.2582;
515.1000;0.6219;3.2608;
515.4000;0.6243;3.2688;
515.7000;0.6219;3.2582;
516.0000;0.6252;3.2635;
516.3000;0.6243;3.2688;
516.6000;0.6203;3.2661;
516.9000;0.6227;3.2714;
517.2000;0.6243;3.2714;
517.5000;0.6219;3.2714;
517.8000;0.6260;3.2767;
518.1000;0.6243;3.2608;
518.4000;0.6211;3.2556;
518.7000;0.6227;3.2503;
519.0000;0.6268;3.2529;
519.3000;0.6260;3.2556;
519.6000;0.6260;3.2397;
519.9000;0.6243;3.2371;
520.2000;0.6260;3.2397;
520.5000;0.6252;3.2371;
520.8000;0.6252;3.2292;
521.1000;0.6260;3.2265;
521.4000;0.6268;3.2345;
521.7000;0.6260;3.2424;
522.0000;0.6276;3.2476;
522.3000;0.6260;3.2450;
522.6000;0.6268;3.2450;
522.9000;0.6235;3.2318;
523.2000;0.6243;3.2318;
523.5000;0.6268;3.2345;
523.8000;0.6162;3.2028;
524.1000;0.6276;3.2345;
524.4000;0.6260;3.2397;
524.7000;0.6268;3.2397;
525.0000;0.6235;3.2239;
525.3000;0.6268;3.2213;
525.6000;0.6260;3.2186;
525.9000;0.6260;3.2133;
526.2000;0.6186;3.1949;
526.5000;0.6268;3.2265;
526.8000;0.6260;3.2345;
527.1000;0.6260;3.2450;
527.4000;0.6268;3.2424;
527.7000;0.6268;3.2476;
528.0000;0.6268;3.2476;
528.3000;0.6243;3.2450;
528.6000;0.6390;3.2767;
528.9000;0.6260;3.2397;
529.2000;0.6268;3.2424;
529.5000;0.6276;3.2556;
529.8000;0.6292;3.2635;
530.1000;0.6252;3.2556;
530.4000;0.6252;3.2450;
530.7000;0.6243;3.2397;
531.0000;0.6252;3.2371;
531.3000;0.6276;3.2397;
531.6000;0.6227;3.2239;
531.9000;0.6243;3.2318;
532.2000;0.6252;3.2345;
532.5000;0.6276;3.2397;
532.8000;0.6243;3.2345;
533.1000;0.6252;3.2292;
533.4000;0.6252;3.2424;
533.7000;0.6243;3.2503;
534.0000;0.6235;3.2476;
534.3000;0.6235;3.2688;
534.6000;0.6235;3.2740;
534.9000;0.6284;3.2740;
535.2000;0.6235;3.2608;
535.5000;0.6227;3.2529;
535.8000;0.6235;3.2556;
536.1000;0.6243;3.2529;
536.4000;0.6243;3.2556;
536.7000;0.6243;3.2608;
537.0000;0.6243;3.2582;
537.3000;0.6252;3.2529;
537.6000;0.6243;3.2424;
537.9000;0.6235;3.2450;
538.2000;0.6252;3.2397;
538.5000;0.6260;3.2371;
538.8000;0.6292;3.2424;
539.1000;0.6333;3.2556;
539.4000;0.6243;3.2292;
539.7000;0.6170;3.2133;
540.0000;0.6268;3.2345;
540.3000;0.6260;3.2397;
540.6000;0.6227;3.2213;
540.9000;0.6390;3.2661;
541.2000;0.6252;3.2371;
541.5000;0.6260;3.2292;
541.8000;0.6260;3.2133;
542.1000;0.6260;3.2028;
542.4000;0.6243;3.2107;
542.7000;0.6260;3.2265;
543.0000;0.6260;3.2213;
543.3000;0.6252;3.2186;
543.6000;0.6284;3.2265;
543.9000;0.6260;3.2239;
544.2000;0.6235;3.2213;
544.5000;0.6276;3.2160;
544.8000;0.6260;3.2160;
545.1000;0.6276;3.2239;
545.4000;0.6268;3.2292;
545.7000;0.6317;3.2371;
546.0000;0.6276;3.2265;
546.3000;0.6341;3.2424;
546.6000;0.6309;3.2371;
546.9000;0.6325;3.2318;
547.2000;0.6219;3.2107;
547.5000;0.6203;3.2054;
547.8000;0.6162;3.1922;
548.1000;0.6252;3.2081;
548.4000;0.6252;3.2107;
548.7000;0.6284;3.2160;
549.0000;0.6284;3.2160;
549.3000;0.6195;3.1975;
549.6000;0.6243;3.2133;
549.9000;0.6252;3.2133;
550.2000;0.6284;3.2213;
550.5000;0.6268;3.2239;
550.8000;0.6260;3.2186;
551.1000;0.6195;3.2160;
551.4000;0.6292;3.2397;
551.7000;0.6243;3.2186;
552.0000;0.6211;3.2028;
552.3000;0.6268;3.2213;
552.6000;0.6317;3.2371;
552.9000;0.6227;3.2160;
553.2000;0.6382;3.2582;
553.5000;0.6260;3.2345;
553.8000;0.6252;3.2450;
554.1000;0.6227;3.2476;
554.4000;0.6243;3.2582;
554.7000;0.6219;3.2582;
555.0000;0.6243;3.2688;
555.3000;0.6227;3.2635;
555.6000;0.6235;3.2688;
555.9000;0.6235;3.2635;
556.2000;0.6243;3.2582;
556.5000;0.6252;3.2661;
556.8000;0.6235;3.2608;
557.1000;0.6235;3.2608;
557.4000;0.6252;3.2582;
557.7000;0.6243;3.2476;
558.0000;0.6252;3.2503;
558.3000;0.6260;3.2608;
558.6000;0.6243;3.2503;
558.9000;0.6260;3.2608;
559.2000;0.6235;3.2608;
559.5000;0.6243;3.2556;
559.8000;0.6243;3.2582;
560.1000;0.6349;3.2819;
560.4000;0.6219;3.2450;
560.7000;0.6252;3.2476;
561.0000;0.6243;3.2476;
561.3000;0.6252;3.2476;
561.6000;0.6398;3.2846;
561.9000;0.6243;3.2371;
562.2000;0.6252;3.2371;
562.5000;0.6235;3.2397;
562.8000;0.6243;3.2239;
563.1000;0.6243;3.2239;
563.4000;0.6276;3.2265;
563.7000;0.6146;3.1896;
564.0000;0.6252;3.2213;
564.3000;0.6252;3.2213;
564.6000;0.6268;3.2265;
564.9000;0.6260;3.2318;
565.2000;0.6260;3.2345;
565.5000;0.6227;3.2160;
565.8000;0.6268;3.2213;
566.1000;0.6195;3.2054;
566.4000;0.6268;3.2397;
566.7000;0.6268;3.2450;
567.0000;0.6243;3.2318;
567.3000;0.6252;3.2292;
567.6000;0.6260;3.2318;
567.9000;0.6252;3.2292;
568.2000;0.6252;3.2265;
568.5000;0.6243;3.2239;
568.8000;0.6252;3.2318;
569.1000;0.6243;3.2213;
569.4000;0.6260;3.2133;
569.7000;0.6309;3.2371;
570.0000;0.6243;3.2292;
570.3000;0.6268;3.2371;
570.6000;0.6227;3.2397;
570.9000;0.6243;3.2476;
571.2000;0.6268;3.2556;
571.5000;0.6268;3.2635;
571.8000;0.6211;3.2450;
572.1000;0.6227;3.2397;
572.4000;0.6243;3.2397;
572.7000;0.6235;3.2503;
573.0000;0.6211;3.2397;
573.3000;0.6235;3.2318;
573.6000;0.6211;3.2292;
573.9000;0.6300;3.2582;
574.2000;0.6235;3.2529;
574.5000;0.6243;3.2556;
574.8000;0.6219;3.2476;
575.1000;0.6219;3.2476;
575.4000;0.6243;3.2582;
575.7000;0.6260;3.2608;
576.0000;0.6252;3.2582;
576.3000;0.6235;3.2635;
576.6000;0.6235;3.2608;
576.9000;0.6260;3.2608;
577.2000;0.6227;3.2503;
577.5000;0.6243;3.2503;
577.8000;0.6252;3.2529;
578.1000;0.6260;3.2476;
578.4000;0.6227;3.2292;
578.7000;0.6243;3.2371;
579.0000;0.6243;3.2397;
579.3000;0.6235;3.2371;
579.6000;0.6260;3.2476;
579.9000;0.6235;3.2371;
580.2000;0.6243;3.2345;
580.5000;0.6268;3.2424;
580.8000;0.6260;3.2371;
581.1000;0.6243;3.2318;
581.4000;0.6243;3.2318;
581.7000;0.6268;3.2397;
582.0000;0.6243;3.2371;
582.3000;0.6284;3.2476;
582.6000;0.6243;3.2345;
582.9000;0.6260;3.2345;
583.2000;0.6235;3.2292;
583.5000;0.6243;3.2186;
583.8000;0.6227;3.2028;
584.1000;0.6227;3.1975;
584.4000;0.6243;3.2054;
584.7000;0.6276;3.2160;
585.0000;0.6268;3.2160;
585.3000;0.6268;3.2133;
585.6000;0.6195;3.1896;
585.9000;0.6268;3.2107;
586.2000;0.6252;3.2107;
586.5000;0.6300;3.2186;
586.8000;0.6268;3.2054;
587.1000;0.6268;3.2054;
587.4000;0.6260;3.2081;
587.7000;0.6219;3.1949;
588.0000;0.6276;3.2081;
588.3000;0.6268;3.2107;
588.6000;0.6268;3.2081;
588.9000;0.6260;3.1975;
589.2000;0.6227;3.1922;
589.5000;0.6235;3.1922;
589.8000;0.6252;3.2002;
590.1000;0.6243;3.2028;
590.4000;0.6268;3.2028;
590.7000;0.6276;3.2160;
591.0000;0.6235;3.2028;
591.3000;0.6243;3.2081;
591.6000;0.6243;3.2133;
591.9000;0.6325;3.2397;
592.2000;0.6260;3.2239;
592.5000;0.6252;3.2265;
592.8000;0.6235;3.2345;
593.1000;0.6243;3.2450;
593.4000;0.6252;3.2529;
593.7000;0.6252;3.2556;
594.0000;0.6260;3.2556;
594.3000;0.6243;3.2476;
594.6000;0.6252;3.2476;
594.9000;0.6235;3.2450;
595.2000;0.6235;3.2556;
595.5000;0.6235;3.2556;
595.8000;0.6219;3.2503;
596.1000;0.6235;3.2556;
596.4000;0.6227;3.2529;
596.7000;0.6227;3.2450;
597.0000;0.6243;3.2476;
597.3000;0.6178;3.2265;
597.6000;0.6235;3.2397;
597.9000;0.6227;3.2345;
598.2000;0.6252;3.2371;
598.5000;0.6227;3.2345;
598.8000;0.6243;3.2397;
599.1000;0.6252;3.2292;
599.4000;0.6203;3.2054;
599.7000;0.6260;3.2107;
600.0000;0.6268;3.2028;
600.3000;0.6219;3.1896;
600.6000;0.6235;3.1896;
600.9000;0.6252;3.1711;
601.2000;0.6203;3.1421;
601.5000;0.6186;3.1236;
601.8000;0.6105;3.0946;
602.1000;0.6056;3.0762;
602.4000;0.6040;3.0603;
602.7000;0.6007;3.0471;
603.0000;0.5967;3.0260;
603.3000;0.6040;3.0366;
603.6000;0.5893;3.0023;
603.9000;0.5853;2.9917;
604.2000;0.5820;2.9785;
604.5000;0.5771;2.9574;
604.8000;0.5779;2.9548;
605.1000;0.5788;2.9495;
605.4000;0.5731;2.9258;
605.7000;0.5706;2.9073;
606.0000;0.5722;2.9179;
606.3000;0.5674;2.9047;
606.6000;0.5649;2.8941;
606.9000;0.5600;2.8862;
607.2000;0.5584;2.8757;
607.5000;0.5600;2.8783;
607.8000;0.5560;2.8757;
608.1000;0.5535;2.8783;
608.4000;0.5519;2.8783;
608.7000;0.5527;2.8888;
609.0000;0.5527;2.8915;
609.3000;0.5470;2.8757;
609.6000;0.5454;2.8757;
609.9000;0.5429;2.8677;
610.2000;0.5421;2.8757;
610.5000;0.5413;2.8730;
610.8000;0.5405;2.8677;
611.1000;0.5413;2.8757;
611.4000;0.5397;2.8757;
611.7000;0.5315;2.8519;
612.0000;0.5356;2.8598;
612.3000;0.5356;2.8572;
612.6000;0.5324;2.8546;
612.9000;0.5332;2.8677;
613.2000;0.5291;2.8677;
613.5000;0.5299;2.8757;
613.8000;0.5258;2.8625;
614.1000;0.5275;2.8704;
614.4000;0.5267;2.8677;
614.7000;0.5242;2.8546;
615.0000;0.5242;2.8572;
615.3000;0.5234;2.8572;
615.6000;0.5218;2.8546;
615.9000;0.5185;2.8440;
616.2000;0.5210;2.8466;
616.5000;0.5201;2.8440;
616.8000;0.5177;2.8466;
617.1000;0.5193;2.8440;
617.4000;0.5169;2.8387;
617.7000;0.5185;2.8466;
618.0000;0.5193;2.8466;
618.3000;0.5136;2.8282;
618.6000;0.5128;2.8203;
618.9000;0.5144;2.8097;
619.2000;0.5144;2.8176;
619.5000;0.5120;2.8203;
619.8000;0.5112;2.8229;
620.1000;0.5104;2.8308;
620.4000;0.5112;2.8255;
620.7000;0.5088;2.8176;
621.0000;0.5104;2.8282;
621.3000;0.5079;2.8229;
621.6000;0.5063;2.8203;
621.9000;0.5055;2.8229;
622.2000;0.5047;2.8282;
622.5000;0.5063;2.8361;
622.8000;0.5039;2.8282;
623.1000;0.5022;2.8282;
623.4000;0.5055;2.8361;
623.7000;0.5022;2.8229;
624.0000;0.4908;2.7860;
624.3000;0.5006;2.8176;
624.6000;0.4990;2.8203;
624.9000;0.5006;2.8229;
625.2000;0.5006;2.8255;
625.5000;0.5006;2.8282;
625.8000;0.4965;2.8150;
626.1000;0.4982;2.8229;
626.4000;0.4933;2.8176;
626.7000;0.4974;2.8255;
627.0000;0.4982;2.8387;
627.3000;0.4925;2.8150;
627.6000;0.4957;2.8123;
627.9000;0.4957;2.8123;
628.2000;0.4965;2.8176;
628.5000;0.4925;2.8150;
628.8000;0.4908;2.8229;
629.1000;0.4917;2.8255;
629.4000;0.4917;2.8176;
629.7000;0.4900;2.8150;
630.0000;0.4884;2.8203;
630.3000;0.4908;2.8255;
630.6000;0.4892;2.8255;
630.9000;0.4860;2.8255;
631.2000;0.4876;2.8203;
631.5000;0.4941;2.8387;
631.8000;0.4860;2.8176;
632.1000;0.4868;2.8203;
632.4000;0.4851;2.8203;
632.7000;0.4843;2.8282;
633.0000;0.4851;2.8387;
633.3000;0.4843;2.8466;
633.6000;0.4827;2.8414;
633.9000;0.4835;2.8361;
634.2000;0.4851;2.8414;
634.5000;0.4803;2.8361;
634.8000;0.4819;2.8440;
635.1000;0.4819;2.8440;
635.4000;0.4827;2.8466;
635.7000;0.4827;2.8387;
636.0000;0.4803;2.8282;
636.3000;0.4770;2.8203;
636.6000;0.4982;2.8836;
636.9000;0.4794;2.8387;
637.2000;0.4778;2.8387;
637.5000;0.4803;2.8466;
637.8000;0.4762;2.8255;
638.1000;0.4803;2.8466;
638.4000;0.4794;2.8493;
638.7000;0.4786;2.8493;
639.0000;0.4892;2.8757;
639.3000;0.4754;2.8361;
639.6000;0.4762;2.8361;
639.9000;0.4737;2.8255;
640.2000;0.4746;2.8203;
640.5000;0.4762;2.8123;
640.8000;0.4762;2.8150;
641.1000;0.4729;2.8097;
641.4000;0.4754;2.8150;
641.7000;0.4754;2.8123;
642.0000;0.4737;2.8123;
642.3000;0.4754;2.8123;
642.6000;0.4746;2.8097;
642.9000;0.4746;2.8176;
643.2000;0.4794;2.8361;
643.5000;0.4729;2.8123;
643.8000;0.4737;2.8071;
644.1000;0.4721;2.7939;
644.4000;0.4729;2.8018;
644.7000;0.4794;2.8229;
645.0000;0.4721;2.7965;
645.3000;0.4721;2.8018;
645.6000;0.4713;2.8097;
645.9000;0.4697;2.8123;
646.2000;0.4705;2.8150;
646.5000;0.4689;2.8097;
646.8000;0.4689;2.8176;
647.1000;0.4689;2.8123;
647.4000;0.4689;2.8123;
647.7000;0.4681;2.8123;
648.0000;0.4689;2.8097;
648.3000;0.4672;2.8071;
648.6000;0.4672;2.8071;
648.9000;0.4681;2.8123;
649.2000;0.4681;2.8150;
649.5000;0.4640;2.8071;
649.8000;0.4656;2.8150;
650.1000;0.4664;2.8176;
650.4000;0.4664;2.8282;
650.7000;0.4672;2.8334;
651.0000;0.4656;2.8361;
651.3000;0.4648;2.8334;
651.6000;0.4640;2.8255;
651.9000;0.4656;2.8308;
652.2000;0.4624;2.8387;
652.5000;0.4575;2.8229;
652.8000;0.4664;2.8572;
653.1000;0.4640;2.8519;
653.4000;0.4648;2.8546;
653.7000;0.4615;2.8493;
654.0000;0.4640;2.8546;
654.3000;0.4640;2.8598;
654.6000;0.4632;2.8598;
654.9000;0.4640;2.8598;
655.2000;0.4640;2.8598;
655.5000;0.4615;2.8572;
655.8000;0.4762;2.8994;
656.1000;0.4607;2.8625;
656.4000;0.4624;2.8651;
656.7000;0.4624;2.8466;
657.0000;0.4624;2.8414;
657.3000;0.4624;2.8493;
657.6000;0.4615;2.8414;
657.9000;0.4615;2.8414;
658.2000;0.4607;2.8308;
658.5000;0.4624;2.8334;
658.8000;0.4624;2.8387;
659.1000;0.4607;2.8440;
659.4000;0.4615;2.8414;
659.7000;0.4624;2.8361;
660.0000;0.4615;2.8361;
660.3000;0.4599;2.8308;
660.6000;0.4534;2.8044;
660.9000;0.4607;2.8282;
661.2000;0.4615;2.8255;
661.5000;0.4632;2.8308;
661.8000;0.4599;2.8203;
662.1000;0.4615;2.8229;
662.4000;0.4599;2.8203;
662.7000;0.4599;2.8255;
663.0000;0.4599;2.8334;
663.3000;0.4599;2.8308;
663.6000;0.4599;2.8229;
663.9000;0.4624;2.8308;
664.2000;0.4591;2.8150;
664.5000;0.4583;2.8282;
664.8000;0.4575;2.8255;
665.1000;0.4591;2.8229;
665.4000;0.4583;2.8176;
665.7000;0.4583;2.8150;
666.0000;0.4575;2.8097;
666.3000;0.4550;2.7965;
666.6000;0.4575;2.8097;
666.9000;0.4558;2.8044;
667.2000;0.4558;2.8123;
667.5000;0.4558;2.8176;
667.8000;0.4567;2.8229;
668.1000;0.4542;2.8097;
668.4000;0.4697;2.8414;
668.7000;0.4567;2.8071;
669.0000;0.4567;2.8123;
669.3000;0.4550;2.8123;
669.6000;0.4534;2.8176;
669.9000;0.4542;2.8123;
670.2000;0.4558;2.8176;
670.5000;0.4542;2.8176;
670.8000;0.4534;2.8203;
671.1000;0.4534;2.8203;
671.4000;0.4567;2.8361;
671.7000;0.4485;2.8176;
672.0000;0.4534;2.8229;
672.3000;0.4550;2.8229;
672.6000;0.4542;2.8255;
672.9000;0.4542;2.8308;
673.2000;0.4542;2.8361;
673.5000;0.4477;2.8282;
673.8000;0.4550;2.8572;
674.1000;0.4534;2.8546;
674.4000;0.4526;2.8598;
674.7000;0.4526;2.8546;
675.0000;0.4526;2.8546;
675.3000;0.4534;2.8466;
675.6000;0.4534;2.8440;
675.9000;0.4526;2.8493;
676.2000;0.4518;2.8440;
676.5000;0.4518;2.8387;
676.8000;0.4510;2.8361;
677.1000;0.4493;2.8308;
677.4000;0.4493;2.8255;
677.7000;0.4510;2.8176;
678.0000;0.4518;2.8308;
678.3000;0.4477;2.8308;
678.6000;0.4518;2.8308;
678.9000;0.4526;2.8308;
679.2000;0.4428;2.8018;
679.5000;0.4501;2.8282;
679.8000;0.4518;2.8282;
680.1000;0.4510;2.8282;
680.4000;0.4526;2.8361;
680.7000;0.4461;2.8203;
681.0000;0.4501;2.8282;
681.3000;0.4510;2.8308;
681.6000;0.4469;2.8150;
681.9000;0.4501;2.8176;
682.2000;0.4412;2.7939;
682.5000;0.4501;2.8203;
682.8000;0.4518;2.8308;
683.1000;0.4510;2.8334;
683.4000;0.4501;2.8308;
683.7000;0.4493;2.8308;
684.0000;0.4518;2.8308;
684.3000;0.4501;2.8387;
684.6000;0.4461;2.8255;
684.9000;0.4493;2.8361;
685.2000;0.4501;2.8334;
685.5000;0.4501;2.8334;
685.8000;0.4493;2.8255;
686.1000;0.4485;2.8176;
686.4000;0.4485;2.8123;
686.7000;0.4558;2.8282;
687.0000;0.4493;2.8097;
687.3000;0.4493;2.8150;
687.6000;0.4493;2.8150;
687.9000;0.4591;2.8440;
688.2000;0.4501;2.8123;
688.5000;0.4493;2.8097;
688.8000;0.4453;2.8018;
689.1000;0.4518;2.8176;
689.4000;0.4493;2.8097;
689.7000;0.4469;2.7991;
690.0000;0.4461;2.7912;
690.3000;0.4444;2.7886;
690.6000;0.4469;2.7939;
690.9000;0.4453;2.7886;
691.2000;0.4436;2.7939;
691.5000;0.4461;2.8123;
691.8000;0.4477;2.8150;
692.1000;0.4469;2.8229;
692.4000;0.4453;2.8150;
692.7000;0.4469;2.8203;
693.0000;0.4461;2.8255;
693.3000;0.4469;2.8255;
693.6000;0.4461;2.8229;
693.9000;0.4461;2.8229;
694.2000;0.4477;2.8440;
694.5000;0.4428;2.8387;
694.8000;0.4461;2.8546;
695.1000;0.4453;2.8519;
695.4000;0.4420;2.8466;
695.7000;0.4412;2.8519;
696.0000;0.4461;2.8651;
696.3000;0.4453;2.8519;
696.6000;0.4518;2.8704;
696.9000;0.4436;2.8546;
697.2000;0.4469;2.8519;
697.5000;0.4477;2.8572;
697.8000;0.4428;2.8334;
698.1000;0.4485;2.8440;
698.4000;0.4469;2.8334;
698.7000;0.4461;2.8361;
699.0000;0.4420;2.8123;
699.3000;0.4469;2.8123;
699.6000;0.4453;2.8071;
699.9000;0.4477;2.8176;
700.2000;0.4444;2.8123;
700.5000;0.4461;2.8150;
700.8000;0.4412;2.7860;
701.1000;0.4453;2.7807;
701.4000;0.4420;2.7701;
701.7000;0.4444;2.7780;
702.0000;0.4436;2.7728;
702.3000;0.4436;2.7728;
702.6000;0.4477;2.7860;
702.9000;0.4436;2.7860;
703.2000;0.4444;2.7912;
703.5000;0.4444;2.7912;
703.8000;0.4436;2.7860;
704.1000;0.4453;2.7833;
704.4000;0.4461;2.7912;
704.7000;0.4444;2.7912;
705.0000;0.4461;2.8018;
705.3000;0.4444;2.7965;
705.6000;0.4428;2.7965;
705.9000;0.4461;2.7939;
706.2000;0.4444;2.7991;
706.5000;0.4436;2.8097;
706.8000;0.4428;2.8123;
707.1000;0.4453;2.8176;
707.4000;0.4444;2.8229;
707.7000;0.4436;2.8176;
708.0000;0.4444;2.8176;
708.3000;0.4428;2.8176;
708.6000;0.4453;2.8150;
708.9000;0.4453;2.8203;
709.2000;0.4444;2.8176;
709.5000;0.4469;2.8229;
709.8000;0.4444;2.8255;
710.1000;0.4420;2.8203;
710.4000;0.4444;2.8150;
710.7000;0.4444;2.8150;
711.0000;0.4453;2.8203;
711.3000;0.4428;2.8255;
711.6000;0.4404;2.8308;
711.9000;0.4428;2.8255;
712.2000;0.4436;2.8361;
712.5000;0.4444;2.8387;
712.8000;0.4412;2.8387;
713.1000;0.4428;2.8466;
713.4000;0.4420;2.8493;
713.7000;0.4412;2.8440;
714.0000;0.4412;2.8414;
714.3000;0.4420;2.8466;
714.6000;0.4420;2.8519;
714.9000;0.4420;2.8572;
715.2000;0.4428;2.8625;
715.5000;0.4436;2.8493;
715.8000;0.4420;2.8466;
716.1000;0.4428;2.8440;
716.4000;0.4420;2.8440;
716.7000;0.4404;2.8334;
717.0000;0.4404;2.8387;
717.3000;0.4461;2.8519;
717.6000;0.4436;2.8361;
717.9000;0.4412;2.8203;
718.2000;0.4412;2.8176;
718.5000;0.4371;2.7991;
718.8000;0.4444;2.8176;
719.1000;0.4420;2.8150;
719.4000;0.4322;2.7912;
719.7000;0.4428;2.8255;
720.0000;0.4428;2.8255;
720.3000;0.4444;2.8255;
720.6000;0.4428;2.8282;
720.9000;0.4420;2.8282;
721.2000;0.4428;2.8229;
721.5000;0.4420;2.8255;
721.8000;0.4428;2.8229;
722.1000;0.4404;2.8123;
722.4000;0.4412;2.8150;
722.7000;0.4412;2.8071;
723.0000;0.4404;2.8097;
723.3000;0.4420;2.8176;
723.6000;0.4396;2.8176;
723.9000;0.4461;2.8334;
724.2000;0.4436;2.8255;
724.5000;0.4396;2.8150;
724.8000;0.4404;2.8229;
725.1000;0.4436;2.8255;
725.4000;0.4420;2.8176;
725.7000;0.4477;2.8387;
726.0000;0.4412;2.8255;
726.3000;0.4404;2.8176;
726.6000;0.4461;2.8176;
726.9000;0.4387;2.7939;
727.2000;0.4420;2.8071;
727.5000;0.4355;2.7939;
727.8000;0.4404;2.8071;
728.1000;0.4387;2.8018;
728.4000;0.4396;2.8071;
728.7000;0.4404;2.8071;
729.0000;0.4404;2.8071;
729.3000;0.4396;2.8097;
729.6000;0.4404;2.8018;
729.9000;0.4412;2.8044;
730.2000;0.4412;2.8071;
730.5000;0.4379;2.7939;
730.8000;0.4412;2.8071;
731.1000;0.4436;2.8176;
731.4000;0.4387;2.8229;
731.7000;0.4396;2.8361;
732.0000;0.4396;2.8387;
732.3000;0.4363;2.8282;
732.6000;0.4501;2.8572;
732.9000;0.4436;2.8598;
733.2000;0.4387;2.8493;
733.5000;0.4387;2.8572;
733.8000;0.4404;2.8625;
734.1000;0.4379;2.8598;
734.4000;0.4396;2.8677;
734.7000;0.4379;2.8704;
735.0000;0.4396;2.8704;
735.3000;0.4396;2.8730;
735.6000;0.4396;2.8546;
735.9000;0.4387;2.8572;
736.2000;0.4371;2.8414;
736.5000;0.4379;2.8387;
736.8000;0.4379;2.8466;
737.1000;0.4412;2.8466;
737.4000;0.4387;2.8440;
737.7000;0.4396;2.8440;
738.0000;0.4387;2.8414;
738.3000;0.4493;2.8809;
738.6000;0.4363;2.8361;
738.9000;0.4387;2.8466;
739.2000;0.4379;2.8466;
739.5000;0.4371;2.8387;
739.8000;0.4379;2.8308;
740.1000;0.4379;2.8308;
740.4000;0.4436;2.8361;
740.7000;0.4339;2.8123;
741.0000;0.4387;2.8282;
741.3000;0.4298;2.7807;
741.6000;0.4404;2.8044;
741.9000;0.4396;2.8044;
742.2000;0.4387;2.7965;
742.5000;0.4485;2.8255;
742.8000;0.4396;2.7965;
743.1000;0.4396;2.7965;
743.4000;0.4510;2.8255;
743.7000;0.4387;2.7991;
744.0000;0.4396;2.7991;
744.3000;0.4428;2.8071;
744.6000;0.4314;2.7780;
744.9000;0.4404;2.8044;
745.2000;0.4396;2.8018;
745.5000;0.4404;2.7991;
745.8000;0.4363;2.7939;
746.1000;0.4387;2.8071;
746.4000;0.4379;2.8044;
746.7000;0.4379;2.8071;
747.0000;0.4306;2.7939;
747.3000;0.4396;2.8123;
747.6000;0.4379;2.7991;
747.9000;0.4379;2.7991;
748.2000;0.4396;2.8097;
748.5000;0.4371;2.8097;
748.8000;0.4363;2.8044;
749.1000;0.4387;2.8203;
749.4000;0.4396;2.8229;
749.7000;0.4371;2.8150;
750.0000;0.4363;2.8203;
750.3000;0.4371;2.8176;
750.6000;0.4387;2.8282;
750.9000;0.4396;2.8334;
751.2000;0.4330;2.8255;
751.5000;0.4379;2.8334;
751.8000;0.4371;2.8308;
752.1000;0.4371;2.8440;
752.4000;0.4371;2.8519;
752.7000;0.4501;2.8862;
753.0000;0.4371;2.8440;
753.3000;0.4387;2.8519;
753.6000;0.4371;2.8546;
753.9000;0.4379;2.8440;
754.2000;0.4379;2.8466;
754.5000;0.4404;2.8519;
754.8000;0.4379;2.8546;
755.1000;0.4355;2.8440;
755.4000;0.4355;2.8493;
755.7000;0.4387;2.8704;
756.0000;0.4428;2.8888;
756.3000;0.4371;2.8704;
756.6000;0.4371;2.8677;
756.9000;0.4396;2.8783;
757.2000;0.4379;2.8651;
757.5000;0.4371;2.8704;
757.8000;0.4355;2.8519;
758.1000;0.4363;2.8572;
758.4000;0.4387;2.8625;
758.7000;0.4379;2.8572;
759.0000;0.4477;2.8809;
759.3000;0.4371;2.8440;
759.6000;0.4387;2.8387;
759.9000;0.4379;2.8308;
760.2000;0.4379;2.8361;
760.5000;0.4387;2.8308;
760.8000;0.4379;2.8308;
761.1000;0.4396;2.8308;
761.4000;0.4379;2.8334;
761.7000;0.4371;2.8282;
762.0000;0.4347;2.8229;
762.3000;0.4396;2.8414;
762.6000;0.4363;2.8334;
762.9000;0.4396;2.8361;
763.2000;0.4371;2.8387;
763.5000;0.4387;2.8361;
763.8000;0.4355;2.8282;
764.1000;0.4363;2.8255;
764.4000;0.4420;2.8387;
764.7000;0.4379;2.8229;
765.0000;0.4387;2.8282;
765.3000;0.4404;2.8361;
765.6000;0.4274;2.8044;
765.9000;0.4339;2.8229;
766.2000;0.4379;2.8334;
766.5000;0.4485;2.8625;
766.8000;0.4371;2.8308;
767.1000;0.4379;2.8308;
767.4000;0.4453;2.8466;
767.7000;0.4363;2.8203;
768.0000;0.4355;2.8229;
768.3000;0.4330;2.8255;
768.6000;0.4371;2.8361;
768.9000;0.4363;2.8255;
769.2000;0.4371;2.8255;
769.5000;0.4363;2.8282;
769.8000;0.4485;2.8704;
770.1000;0.4379;2.8282;
770.4000;0.4363;2.8282;
770.7000;0.4379;2.8334;
771.0000;0.4396;2.8361;
771.3000;0.4371;2.8414;
771.6000;0.4282;2.8229;
771.9000;0.4355;2.8493;
772.2000;0.4347;2.8572;
772.5000;0.4379;2.8572;
772.8000;0.4412;2.8677;
773.1000;0.4469;2.8862;
773.4000;0.4420;2.8677;
773.7000;0.4379;2.8598;
774.0000;0.4355;2.8598;
774.3000;0.4347;2.8651;
774.6000;0.4168;2.8097;
774.9000;0.4371;2.8704;
775.2000;0.4339;2.8677;
775.5000;0.4347;2.8677;
775.8000;0.4347;2.8651;
776.1000;0.4363;2.8677;
776.4000;0.4330;2.8651;
776.7000;0.4347;2.8651;
777.0000;0.4363;2.8625;
777.3000;0.4379;2.8651;
777.6000;0.4363;2.8519;
777.9000;0.4371;2.8572;
778.2000;0.4363;2.8466;
778.5000;0.4347;2.8466;
778.8000;0.4339;2.8414;
779.1000;0.4339;2.8440;
779.4000;0.4339;2.8282;
779.7000;0.4355;2.8440;
780.0000;0.4355;2.8519;
780.3000;0.4363;2.8519;
780.6000;0.4347;2.8493;
780.9000;0.4363;2.8466;
781.2000;0.4363;2.8387;
781.5000;0.4347;2.8255;
781.8000;0.4404;2.8308;
782.1000;0.4363;2.8097;
782.4000;0.4339;2.8018;
782.7000;0.4379;2.7991;
783.0000;0.4371;2.8018;
783.3000;0.4363;2.8097;
783.6000;0.4371;2.8097;
783.9000;0.4355;2.8097;
784.2000;0.4347;2.8097;
784.5000;0.4363;2.8203;
784.8000;0.4347;2.8097;
785.1000;0.4355;2.8044;
785.4000;0.4371;2.8123;
785.7000;0.4371;2.8176;
786.0000;0.4371;2.8123;
786.3000;0.4379;2.8150;
786.6000;0.4396;2.8229;
786.9000;0.4371;2.8203;
787.2000;0.4371;2.8255;
787.5000;0.4371;2.8203;
787.8000;0.4371;2.8229;
788.1000;0.4314;2.7965;
788.4000;0.4363;2.8176;
788.7000;0.4355;2.8203;
789.0000;0.4347;2.8176;
789.3000;0.4371;2.8282;
789.6000;0.4347;2.8176;
789.9000;0.4355;2.8229;
790.2000;0.4371;2.8255;
790.5000;0.4355;2.8229;
790.8000;0.4355;2.8255;
791.1000;0.4355;2.8361;
791.4000;0.4363;2.8361;
791.7000;0.4347;2.8361;
792.0000;0.4330;2.8361;
792.3000;0.4371;2.8466;
792.6000;0.4322;2.8414;
792.9000;0.4347;2.8440;
793.2000;0.4330;2.8440;
793.5000;0.4355;2.8519;
793.8000;0.4347;2.8519;
794.1000;0.4322;2.8440;
794.4000;0.4363;2.8519;
794.7000;0.4330;2.8414;
795.0000;0.4330;2.8493;
795.3000;0.4371;2.8572;
795.6000;0.4412;2.8757;
795.9000;0.4339;2.8493;
796.2000;0.4355;2.8466;
796.5000;0.4339;2.8466;
796.8000;0.4355;2.8625;
797.1000;0.4379;2.8730;
797.4000;0.4412;2.8809;
797.7000;0.4363;2.8625;
798.0000;0.4363;2.8572;
798.3000;0.4387;2.8651;
798.6000;0.4363;2.8546;
798.9000;0.4355;2.8387;
799.2000;0.4355;2.8334;
799.5000;0.4428;2.8519;
799.8000;0.4363;2.8334;
800.1000;0.4396;2.8414;
800.4000;0.4339;2.8282;
800.7000;0.4347;2.8150;
801.0000;0.4363;2.8203;
801.3000;0.4347;2.8018;
801.6000;0.4363;2.8044;
801.9000;0.4387;2.8097;
802.2000;0.4339;2.7939;
802.5000;0.4363;2.7939;
802.8000;0.4363;2.7886;
803.1000;0.4371;2.7860;
803.4000;0.4355;2.7912;
803.7000;0.4347;2.7886;
804.0000;0.4371;2.7912;
804.3000;0.4347;2.7886;
804.6000;0.4363;2.7886;
804.9000;0.4330;2.7939;
805.2000;0.4355;2.8044;
805.5000;0.4355;2.8044;
805.8000;0.4339;2.7991;
806.1000;0.4322;2.7965;
806.4000;0.4355;2.7939;
806.7000;0.4339;2.7860;
807.0000;0.4355;2.7965;
807.3000;0.4339;2.7860;
807.6000;0.4330;2.7807;
807.9000;0.4371;2.7833;
808.2000;0.4355;2.7807;
808.5000;0.4339;2.7701;
808.8000;0.4387;2.7886;
809.1000;0.4330;2.7754;
809.4000;0.4322;2.7886;
809.7000;0.4322;2.7939;
810.0000;0.4339;2.8097;
810.3000;0.4347;2.8255;
810.6000;0.4355;2.8334;
810.9000;0.4347;2.8361;
811.2000;0.4314;2.8308;
811.5000;0.4330;2.8387;
811.8000;0.4347;2.8414;
812.1000;0.4298;2.8308;
812.4000;0.4330;2.8466;
812.7000;0.4330;2.8440;
813.0000;0.4347;2.8387;
813.3000;0.4339;2.8255;
813.6000;0.4363;2.8387;
813.9000;0.4330;2.8387;
814.2000;0.4322;2.8414;
814.5000;0.4274;2.8334;
814.8000;0.4314;2.8414;
815.1000;0.4339;2.8308;
815.4000;0.4322;2.8308;
815.7000;0.4355;2.8414;
816.0000;0.4322;2.8361;
816.3000;0.4265;2.8255;
816.6000;0.4355;2.8493;
816.9000;0.4330;2.8493;
817.2000;0.4339;2.8440;
817.5000;0.4339;2.8440;
817.8000;0.4387;2.8519;
818.1000;0.4330;2.8308;
818.4000;0.4371;2.8334;
818.7000;0.4322;2.8334;
819.0000;0.4355;2.8361;
819.3000;0.4314;2.8308;
819.6000;0.4322;2.8334;
819.9000;0.4322;2.8308;
820.2000;0.4322;2.8203;
820.5000;0.4347;2.8229;
820.8000;0.4314;2.8123;
821.1000;0.4330;2.8123;
821.4000;0.4306;2.8097;
821.7000;0.4339;2.8203;
822.0000;0.4347;2.8229;
822.3000;0.4339;2.8255;
822.6000;0.4322;2.8176;
822.9000;0.4355;2.8308;
823.2000;0.4322;2.8203;
823.5000;0.4347;2.8229;
823.8000;0.4347;2.8255;
824.1000;0.4241;2.7912;
824.4000;0.4347;2.8255;
824.7000;0.4339;2.8229;
825.0000;0.4355;2.8229;
825.3000;0.4330;2.8044;
825.6000;0.4339;2.8044;
825.9000;0.4363;2.8123;
826.2000;0.4371;2.8123;
826.5000;0.4339;2.7991;
826.8000;0.4347;2.7886;
827.1000;0.4314;2.7807;
827.4000;0.4355;2.7991;
827.7000;0.4322;2.7912;
828.0000;0.4347;2.8018;
828.3000;0.4339;2.8018;
828.6000;0.4371;2.8071;
828.9000;0.4347;2.8097;
829.2000;0.4322;2.8018;
829.5000;0.4347;2.8044;
829.8000;0.4363;2.8071;
830.1000;0.4347;2.7991;
830.4000;0.4314;2.7939;
830.7000;0.4330;2.7939;
831.0000;0.4330;2.8044;
831.3000;0.4339;2.8097;
831.6000;0.4314;2.8203;
831.9000;0.4306;2.8123;
832.2000;0.4355;2.8308;
832.5000;0.4347;2.8387;
832.8000;0.4330;2.8440;
833.1000;0.4404;2.8598;
833.4000;0.4233;2.8203;
833.7000;0.4355;2.8572;
834.0000;0.4339;2.8546;
834.3000;0.4330;2.8572;
834.6000;0.4322;2.8519;
834.9000;0.4339;2.8572;
835.2000;0.4347;2.8572;
835.5000;0.4379;2.8888;
835.8000;0.4330;2.8704;
836.1000;0.4339;2.8757;
836.4000;0.4322;2.8677;
836.7000;0.4387;2.8783;
837.0000;0.4322;2.8546;
837.3000;0.4387;2.8625;
837.6000;0.4339;2.8414;
837.9000;0.4298;2.8255;
838.2000;0.4330;2.8282;
838.5000;0.4347;2.8176;
838.8000;0.4322;2.7991;
839.1000;0.4322;2.8018;
839.4000;0.4322;2.8044;
839.7000;0.4322;2.7991;
840.0000;0.4322;2.7991;
840.3000;0.4257;2.7860;
840.6000;0.4339;2.8123;
840.9000;0.4355;2.8282;
841.2000;0.4396;2.8308;
841.5000;0.4322;2.8044;
841.8000;0.4314;2.8018;
842.1000;0.4322;2.8018;
842.4000;0.4330;2.8071;
842.7000;0.4298;2.7965;
843.0000;0.4363;2.8203;
843.3000;0.4339;2.8176;
843.6000;0.4298;2.8044;
843.9000;0.4387;2.8308;
844.2000;0.4347;2.8176;
844.5000;0.4347;2.8176;
844.8000;0.4339;2.8123;
845.1000;0.4404;2.8387;
845.4000;0.4347;2.8203;
845.7000;0.4322;2.8176;
846.0000;0.4339;2.8176;
846.3000;0.4330;2.8150;
846.6000;0.4314;2.7991;
846.9000;0.4322;2.7939;
847.2000;0.4339;2.7939;
847.5000;0.4347;2.7939;
847.8000;0.4339;2.7886;
848.1000;0.4347;2.7965;
848.4000;0.4347;2.8044;
848.7000;0.4347;2.8044;
849.0000;0.4339;2.8071;
849.3000;0.4330;2.8018;
849.6000;0.4330;2.7991;
849.9000;0.4436;2.8334;
850.2000;0.4347;2.8203;
850.5000;0.4347;2.8176;
850.8000;0.4347;2.8123;
851.1000;0.4330;2.8018;
851.4000;0.4322;2.8097;
851.7000;0.4322;2.8097;
852.0000;0.4347;2.8176;
852.3000;0.4330;2.8176;
852.6000;0.4347;2.8203;
852.9000;0.4322;2.8176;
853.2000;0.4322;2.8150;
853.5000;0.4314;2.8123;
853.8000;0.4322;2.8150;
854.1000;0.4347;2.8308;
854.4000;0.4371;2.8493;
854.7000;0.4322;2.8493;
855.0000;0.4314;2.8493;
855.3000;0.4330;2.8598;
855.6000;0.4330;2.8625;
855.9000;0.4322;2.8572;
856.2000;0.4314;2.8493;
856.5000;0.4339;2.8519;
856.8000;0.4404;2.8651;
857.1000;0.4314;2.8387;
857.4000;0.4306;2.8229;
857.7000;0.4306;2.8334;
858.0000;0.4322;2.8361;
858.3000;0.4298;2.8282;
858.6000;0.4322;2.8334;
858.9000;0.4371;2.8519;
859.2000;0.4330;2.8414;
859.5000;0.4339;2.8414;
859.8000;0.4347;2.8414;
860.1000;0.4330;2.8229;
860.4000;0.4330;2.8229;
860.7000;0.4339;2.8176;
861.0000;0.4314;2.8071;
861.3000;0.4322;2.8018;
861.6000;0.4314;2.7939;
861.9000;0.4330;2.7912;
862.2000;0.4339;2.7939;
862.5000;0.4306;2.7965;
862.8000;0.4339;2.8123;
863.1000;0.4339;2.8203;
863.4000;0.4339;2.8150;
863.7000;0.4314;2.8123;
864.0000;0.4322;2.8150;
864.3000;0.4396;2.8334;
864.6000;0.4330;2.8097;
864.9000;0.4339;2.8071;
865.2000;0.4314;2.8123;
865.5000;0.4339;2.8150;
865.8000;0.4371;2.8308;
866.1000;0.4322;2.8176;
866.4000;0.4306;2.8176;
866.7000;0.4322;2.8150;
867.0000;0.4330;2.8176;
867.3000;0.4290;2.8044;
867.6000;0.4306;2.8097;
867.9000;0.4339;2.8097;
868.2000;0.4339;2.8123;
868.5000;0.4404;2.8282;
868.8000;0.4339;2.8097;
869.1000;0.4306;2.7991;
869.4000;0.4339;2.8018;
869.7000;0.4339;2.8071;
870.0000;0.4339;2.8097;
870.3000;0.4322;2.8071;
870.6000;0.4322;2.8229;
870.9000;0.4322;2.8255;
871.2000;0.4322;2.8229;
871.5000;0.4339;2.8361;
871.8000;0.4330;2.8440;
872.1000;0.4330;2.8519;
872.4000;0.4339;2.8598;
872.7000;0.4298;2.8546;
873.0000;0.4330;2.8598;
873.3000;0.4314;2.8625;
873.6000;0.4322;2.8651;
873.9000;0.4330;2.8757;
874.2000;0.4330;2.8783;
874.5000;0.4306;2.8651;
874.8000;0.4298;2.8546;
875.1000;0.4314;2.8625;
875.4000;0.4322;2.8625;
875.7000;0.4330;2.8625;
876.0000;0.4314;2.8440;
876.3000;0.4363;2.8598;
876.6000;0.4330;2.8546;
876.9000;0.4444;2.8836;
877.2000;0.4330;2.8466;
877.5000;0.4314;2.8440;
877.8000;0.4306;2.8387;
878.1000;0.4355;2.8546;
878.4000;0.4322;2.8546;
878.7000;0.4314;2.8493;
879.0000;0.4208;2.8255;
879.3000;0.4322;2.8519;
879.6000;0.4330;2.8493;
879.9000;0.4322;2.8387;
880.2000;0.4339;2.8361;
880.5000;0.4330;2.8334;
880.8000;0.4322;2.8203;
881.1000;0.4314;2.8150;
881.4000;0.4379;2.8308;
881.7000;0.4322;2.8150;
882.0000;0.4314;2.8123;
882.3000;0.4322;2.8123;
882.6000;0.4330;2.8203;
882.9000;0.4314;2.8176;
883.2000;0.4322;2.8203;
883.5000;0.4322;2.8123;
883.8000;0.4322;2.8044;
884.1000;0.4322;2.7991;
884.4000;0.4347;2.7991;
884.7000;0.4339;2.7965;
885.0000;0.4330;2.8018;
885.3000;0.4347;2.8071;
885.6000;0.4355;2.8071;
885.9000;0.4330;2.8097;
886.2000;0.4339;2.8097;
886.5000;0.4330;2.8097;
886.8000;0.4290;2.7939;
887.1000;0.4339;2.8097;
887.4000;0.4322;2.8097;
887.7000;0.4330;2.8150;
888.0000;0.4298;2.8044;
888.3000;0.4347;2.8176;
888.6000;0.4322;2.8176;
888.9000;0.4322;2.8150;
889.2000;0.4330;2.8203;
889.5000;0.4428;2.8493;
889.8000;0.4339;2.8229;
890.1000;0.4355;2.8334;
890.4000;0.4314;2.8229;
890.7000;0.4274;2.8097;
891.0000;0.4306;2.8150;
891.3000;0.4314;2.8255;
891.6000;0.4379;2.8414;
891.9000;0.4290;2.8150;
892.2000;0.4314;2.8308;
892.5000;0.4274;2.8334;
892.8000;0.4257;2.8255;
893.1000;0.4290;2.8334;
893.4000;0.4314;2.8414;
893.7000;0.4330;2.8546;
894.0000;0.4330;2.8572;
894.3000;0.4306;2.8572;
894.6000;0.4306;2.8546;
894.9000;0.4347;2.8677;
895.2000;0.4339;2.8704;
895.5000;0.4330;2.8651;
895.8000;0.4314;2.8651;
896.1000;0.4347;2.8809;
896.4000;0.4306;2.8625;
896.7000;0.4298;2.8625;
897.0000;0.4330;2.8598;
897.3000;0.4298;2.8625;
897.6000;0.4339;2.8625;
897.9000;0.4306;2.8546;
898.2000;0.4314;2.8493;
898.5000;0.4330;2.8572;
898.8000;0.4355;2.8598;
899.1000;0.4322;2.8546;
899.4000;0.4330;2.8546;
899.7000;0.4330;2.8493;
900.0000;0.4322;2.8334;
900.3000;0.4330;2.8334;
900.6000;0.4322;2.8282;
900.9000;0.4347;2.8308;
901.2000;0.4339;2.8123;
901.5000;0.4339;2.8097;
901.8000;0.4322;2.8018;
902.1000;0.4322;2.8044;
902.4000;0.4314;2.8097;
902.7000;0.4306;2.8044;
903.0000;0.4290;2.7965;
903.3000;0.4322;2.8176;
903.6000;0.4314;2.8097;
903.9000;0.4322;2.8097;
904.2000;0.4330;2.8044;
904.5000;0.4322;2.8018;
904.8000;0.4290;2.7991;
905.1000;0.4339;2.8150;
905.4000;0.4339;2.8123;
905.7000;0.4306;2.8044;
906.0000;0.4339;2.8123;
906.3000;0.4306;2.8150;
906.6000;0.4330;2.8255;
906.9000;0.4330;2.8229;
907.2000;0.4330;2.8308;
907.5000;0.4355;2.8440;
907.8000;0.4330;2.8414;
908.1000;0.4314;2.8387;
908.4000;0.4282;2.8203;
908.7000;0.4290;2.8176;
909.0000;0.4322;2.8308;
909.3000;0.4330;2.8282;
909.6000;0.4265;2.8150;
909.9000;0.4314;2.8334;
910.2000;0.4330;2.8440;
910.5000;0.4322;2.8387;
910.8000;0.4314;2.8440;
911.1000;0.4298;2.8466;
911.4000;0.4322;2.8519;
911.7000;0.4322;2.8572;
912.0000;0.4314;2.8519;
912.3000;0.4306;2.8546;
912.6000;0.4339;2.8546;
912.9000;0.4314;2.8387;
913.2000;0.4322;2.8493;
913.5000;0.4306;2.8493;
913.8000;0.4298;2.8546;
914.1000;0.4306;2.8598;
914.4000;0.4322;2.8651;
914.7000;0.4282;2.8519;
915.0000;0.4298;2.8677;
915.3000;0.4322;2.8677;
915.6000;0.4363;2.8809;
915.9000;0.4306;2.8704;
916.2000;0.4314;2.8809;
916.5000;0.4306;2.8783;
916.8000;0.4314;2.8783;
917.1000;0.4330;2.8704;
917.4000;0.4322;2.8730;
917.7000;0.4306;2.8651;
918.0000;0.4314;2.8625;
918.3000;0.4322;2.8625;
918.6000;0.4314;2.8546;
918.9000;0.4306;2.8440;
919.2000;0.4330;2.8519;
919.5000;0.4322;2.8466;
919.8000;0.4330;2.8387;
920.1000;0.4339;2.8361;
920.4000;0.4330;2.8361;
920.7000;0.4339;2.8466;
921.0000;0.4306;2.8440;
921.3000;0.4322;2.8546;
921.6000;0.4330;2.8546;
921.9000;0.4347;2.8466;
922.2000;0.4330;2.8361;
922.5000;0.4314;2.8361;
922.8000;0.4322;2.8361;
923.1000;0.4322;2.8282;
923.4000;0.4339;2.8334;
923.7000;0.4208;2.8044;
924.0000;0.4314;2.8414;
924.3000;0.4298;2.8493;
924.6000;0.4330;2.8546;
924.9000;0.4322;2.8493;
925.2000;0.4339;2.8440;
925.5000;0.4347;2.8493;
925.8000;0.4404;2.8677;
926.1000;0.4330;2.8334;
926.4000;0.4330;2.8334;
926.7000;0.4306;2.8255;
927.0000;0.4339;2.8229;
927.3000;0.4298;2.8071;
927.6000;0.4322;2.8018;
927.9000;0.4314;2.8044;
928.2000;0.4322;2.8071;
928.5000;0.4306;2.7912;
928.8000;0.4314;2.7991;
929.1000;0.4282;2.7860;
929.4000;0.4314;2.8203;
929.7000;0.4330;2.8229;
930.0000;0.4322;2.8203;
930.3000;0.4330;2.8229;
930.6000;0.4322;2.8150;
930.9000;0.4322;2.8229;
931.2000;0.4330;2.8255;
931.5000;0.4330;2.8308;
931.8000;0.4379;2.8493;
932.1000;0.4322;2.8361;
932.4000;0.4306;2.8387;
932.7000;0.4314;2.8440;
933.0000;0.4322;2.8493;
933.3000;0.4314;2.8466;
933.6000;0.4298;2.8440;
933.9000;0.4306;2.8493;
934.2000;0.4306;2.8493;
934.5000;0.4298;2.8519;
934.8000;0.4314;2.8546;
935.1000;0.4314;2.8519;
935.4000;0.4298;2.8466;
935.7000;0.4314;2.8572;
936.0000;0.4306;2.8598;
936.3000;0.4306;2.8546;
936.6000;0.4314;2.8493;
936.9000;0.4314;2.8493;
937.2000;0.4379;2.8730;
937.5000;0.4314;2.8546;
937.8000;0.4314;2.8546;
938.1000;0.4306;2.8598;
938.4000;0.4330;2.8677;
938.7000;0.4314;2.8625;
939.0000;0.4233;2.8414;
939.3000;0.4306;2.8546;
939.6000;0.4306;2.8493;
939.9000;0.4322;2.8572;
940.2000;0.4314;2.8546;
940.5000;0.4306;2.8414;
940.8000;0.4314;2.8361;
941.1000;0.4322;2.8308;
941.4000;0.4322;2.8282;
941.7000;0.4339;2.8255;
942.0000;0.4322;2.8255;
942.3000;0.4314;2.8229;
942.6000;0.4306;2.8229;
942.9000;0.4314;2.8123;
943.2000;0.4322;2.8123;
943.5000;0.4314;2.7991;
943.8000;0.4322;2.8018;
944.1000;0.4379;2.8229;
944.4000;0.4347;2.8097;
944.7000;0.4322;2.8123;
945.0000;0.4322;2.8123;
945.3000;0.4314;2.8097;
945.6000;0.4306;2.8071;
945.9000;0.4322;2.8150;
946.2000;0.4306;2.8071;
946.5000;0.4330;2.8123;
946.8000;0.4347;2.8255;
947.1000;0.4330;2.8176;
947.4000;0.4314;2.8123;
947.7000;0.4322;2.8071;
948.0000;0.4306;2.7991;
948.3000;0.4339;2.7939;
948.6000;0.4314;2.7965;
948.9000;0.4298;2.7939;
949.2000;0.4330;2.8150;
949.5000;0.4314;2.8071;
949.8000;0.4322;2.8071;
950.1000;0.4322;2.8097;
950.4000;0.4306;2.8071;
950.7000;0.4314;2.8097;
951.0000;0.4322;2.8255;
951.3000;0.4322;2.8308;
951.6000;0.4306;2.8361;
951.9000;0.4314;2.8466;
952.2000;0.4322;2.8519;
952.5000;0.4330;2.8598;
952.8000;0.4322;2.8625;
953.1000;0.4298;2.8546;
953.4000;0.4379;2.8783;
953.7000;0.4379;2.8757;
954.0000;0.4298;2.8546;
954.3000;0.4298;2.8651;
954.6000;0.4306;2.8625;
954.9000;0.4306;2.8546;
955.2000;0.4290;2.8466;
955.5000;0.4322;2.8625;
955.8000;0.4387;2.8783;
956.1000;0.4322;2.8598;
956.4000;0.4314;2.8625;
956.7000;0.4306;2.8598;
957.0000;0.4306;2.8651;
957.3000;0.4322;2.8704;
957.6000;0.4322;2.8704;
957.9000;0.4298;2.8546;
958.2000;0.4306;2.8466;
958.5000;0.4298;2.8387;
958.8000;0.4290;2.8203;
959.1000;0.4306;2.8334;
959.4000;0.4298;2.8466;
959.7000;0.4298;2.8466;
960.0000;0.4314;2.8414;
960.3000;0.4322;2.8440;
960.6000;0.4322;2.8361;
960.9000;0.4322;2.8308;
961.2000;0.4290;2.8255;
961.5000;0.4322;2.8334;
961.8000;0.4322;2.8203;
962.1000;0.4225;2.7860;
962.4000;0.4330;2.8150;
962.7000;0.4322;2.8203;
963.0000;0.4330;2.8203;
963.3000;0.4322;2.8176;
963.6000;0.4322;2.8282;
963.9000;0.4339;2.8282;
964.2000;0.4330;2.8176;
964.5000;0.4298;2.8097;
964.8000;0.4330;2.8071;
965.1000;0.4322;2.8203;
965.4000;0.4322;2.8282;
965.7000;0.4314;2.8255;
966.0000;0.4306;2.8255;
966.3000;0.4330;2.8229;
966.6000;0.4290;2.7991;
966.9000;0.4330;2.8203;
967.2000;0.4330;2.8229;
967.5000;0.4330;2.8229;
967.8000;0.4339;2.8282;
968.1000;0.4330;2.8229;
968.4000;0.4322;2.8176;
968.7000;0.4314;2.8176;
969.0000;0.4330;2.8203;
969.3000;0.4306;2.8176;
969.6000;0.4322;2.8255;
969.9000;0.4298;2.8176;
970.2000;0.4314;2.8255;
970.5000;0.4314;2.8282;
970.8000;0.4306;2.8255;
971.1000;0.4290;2.8176;
971.4000;0.4306;2.8203;
971.7000;0.4306;2.8150;
972.0000;0.4322;2.8282;
972.3000;0.4339;2.8414;
972.6000;0.4314;2.8361;
972.9000;0.4306;2.8414;
973.2000;0.4330;2.8466;
973.5000;0.4306;2.8387;
973.8000;0.4306;2.8493;
974.1000;0.4322;2.8493;
974.4000;0.4322;2.8546;
974.7000;0.4322;2.8493;
975.0000;0.4274;2.8361;
975.3000;0.4265;2.8387;
975.6000;0.4314;2.8493;
975.9000;0.4322;2.8466;
976.2000;0.4322;2.8440;
976.5000;0.4290;2.8308;
976.8000;0.4322;2.8493;
977.1000;0.4322;2.8493;
977.4000;0.4290;2.8361;
977.7000;0.4176;2.8018;
978.0000;0.4322;2.8440;
978.3000;0.4314;2.8414;
978.6000;0.4314;2.8414;
978.9000;0.4298;2.8334;
979.2000;0.4322;2.8361;
979.5000;0.4314;2.8203;
979.8000;0.4314;2.8255;
980.1000;0.4306;2.8203;
980.4000;0.4314;2.8229;
980.7000;0.4314;2.8334;
981.0000;0.4322;2.8282;
981.3000;0.4233;2.7991;
981.6000;0.4330;2.8123;
981.9000;0.4355;2.8203;
982.2000;0.4306;2.8203;
982.5000;0.4314;2.8308;
982.8000;0.4314;2.8308;
983.1000;0.4322;2.8361;
983.4000;0.4298;2.8282;
983.7000;0.4314;2.8203;
984.0000;0.4314;2.8176;
984.3000;0.4322;2.8282;
984.6000;0.4330;2.8282;
984.9000;0.4314;2.8176;
985.2000;0.4330;2.8123;
985.5000;0.4314;2.7965;
985.8000;0.4322;2.7965;
986.1000;0.4412;2.8150;
986.4000;0.4322;2.7965;
986.7000;0.4330;2.8097;
987.0000;0.4339;2.8229;
987.3000;0.4306;2.8150;
987.6000;0.4298;2.8203;
987.9000;0.4322;2.8229;
988.2000;0.4322;2.8282;
988.5000;0.4330;2.8387;
988.8000;0.4314;2.8308;
989.1000;0.4322;2.8282;
989.4000;0.4314;2.8308;
989.7000;0.4330;2.8361;
990.0000;0.4322;2.8334;
990.3000;0.4306;2.8387;
990.6000;0.4314;2.8334;
990.9000;0.4322;2.8361;
991.2000;0.4306;2.8414;
991.5000;0.4314;2.8466;
991.8000;0.4306;2.8466;
992.1000;0.4314;2.8598;
992.4000;0.4298;2.8519;
992.7000;0.4314;2.8598;
993.0000;0.4322;2.8572;
993.3000;0.4306;2.8546;
993.6000;0.4314;2.8572;
993.9000;0.4306;2.8625;
994.2000;0.4322;2.8677;
994.5000;0.4322;2.8651;
994.8000;0.4282;2.8519;
995.1000;0.4298;2.8546;
995.4000;0.4290;2.8466;
995.7000;0.4306;2.8519;
996.0000;0.4290;2.8546;
996.3000;0.4290;2.8466;
996.6000;0.4290;2.8414;
996.9000;0.4322;2.8387;
997.2000;0.4322;2.8361;
997.5000;0.4306;2.8361;
997.8000;0.4314;2.8387;
998.1000;0.4306;2.8334;
998.4000;0.4314;2.8493;
998.7000;0.4314;2.8546;
999.0000;0.4322;2.8414;
999.3000;0.4322;2.8414;
999.6000;0.4306;2.8361;
999.9000;0.4322;2.8414;
1000.2000;0.4314;2.8387;
1000.5000;0.4330;2.8387;
1000.8000;0.4322;2.8440;
1001.1000;0.4306;2.8414;
1001.4000;0.4314;2.8414;
1001.7000;0.4396;2.8704;
1002.0000;0.4347;2.8519;
1002.3000;0.4322;2.8546;
1002.6000;0.4339;2.8598;
1002.9000;0.4339;2.8519;
1003.2000;0.4330;2.8546;
1003.5000;0.4339;2.8546;
1003.8000;0.4306;2.8414;
1004.1000;0.4322;2.8414;
1004.4000;0.4306;2.8414;
1004.7000;0.4306;2.8414;
1005.0000;0.4314;2.8334;
1005.3000;0.4290;2.8255;
1005.6000;0.4314;2.8282;
1005.9000;0.4322;2.8308;
1006.2000;0.4379;2.8466;
1006.5000;0.4314;2.8361;
1006.8000;0.4314;2.8414;
1007.1000;0.4322;2.8466;
1007.4000;0.4322;2.8414;
1007.7000;0.4339;2.8440;
1008.0000;0.4314;2.8387;
1008.3000;0.4314;2.8493;
1008.6000;0.4330;2.8572;
1008.9000;0.4282;2.8493;
1009.2000;0.4282;2.8493;
1009.5000;0.4322;2.8546;
1009.8000;0.4330;2.8651;
1010.1000;0.4306;2.8677;
1010.4000;0.4322;2.8651;
1010.7000;0.4330;2.8625;
1011.0000;0.4306;2.8572;
1011.3000;0.4339;2.8651;
1011.6000;0.4322;2.8704;
1011.9000;0.4314;2.8546;
1012.2000;0.4306;2.8572;
1012.5000;0.4314;2.8546;
1012.8000;0.4298;2.8546;
1013.1000;0.4314;2.8677;
1013.4000;0.4322;2.8651;
1013.7000;0.4306;2.8519;
1014.0000;0.4265;2.8414;
1014.3000;0.4298;2.8598;
1014.6000;0.4339;2.8862;
1014.9000;0.4322;2.8783;
1015.2000;0.4322;2.8757;
1015.5000;0.4306;2.8730;
1015.8000;0.4322;2.8757;
1016.1000;0.4290;2.8704;
1016.4000;0.4347;2.8809;
1016.7000;0.4298;2.8730;
1017.0000;0.4290;2.8757;
1017.3000;0.4298;2.8757;
1017.6000;0.4371;2.8941;
1017.9000;0.4363;2.8862;
1018.2000;0.4330;2.8598;
1018.5000;0.4314;2.8677;
1018.8000;0.4306;2.8546;
1019.1000;0.4412;2.8809;
1019.4000;0.4298;2.8387;
1019.7000;0.4298;2.8466;
1020.0000;0.4306;2.8546;
1020.3000;0.4265;2.8387;
1020.6000;0.4298;2.8466;
1020.9000;0.4257;2.8361;
1021.2000;0.4306;2.8466;
1021.5000;0.4298;2.8361;
1021.8000;0.4290;2.8334;
1022.1000;0.4306;2.8334;
1022.4000;0.4322;2.8203;
1022.7000;0.4322;2.8229;
1023.0000;0.4322;2.8229;
1023.3000;0.4330;2.8308;
1023.6000;0.4200;2.7912;
1023.9000;0.4314;2.8229;
1024.2000;0.4314;2.8334;
1024.5000;0.4274;2.8282;
1024.8000;0.4314;2.8414;
1025.1000;0.4314;2.8493;
1025.4000;0.4306;2.8546;
1025.7000;0.4306;2.8466;
1026.0000;0.4306;2.8387;
1026.3000;0.4322;2.8466;
1026.6000;0.4347;2.8414;
1026.9000;0.4290;2.8361;
1027.2000;0.4314;2.8361;
1027.5000;0.4330;2.8308;
1027.8000;0.4314;2.8308;
1028.1000;0.4330;2.8361;
1028.4000;0.4363;2.8493;
1028.7000;0.4306;2.8361;
1029.0000;0.4314;2.8361;
1029.3000;0.4314;2.8414;
1029.6000;0.4314;2.8440;
1029.9000;0.4314;2.8387;
1030.2000;0.4412;2.8704;
1030.5000;0.4322;2.8519;
1030.8000;0.4314;2.8440;
1031.1000;0.4322;2.8440;
1031.4000;0.4322;2.8414;
1031.7000;0.4314;2.8414;
1032.0000;0.4290;2.8440;
1032.3000;0.4290;2.8493;
1032.6000;0.4298;2.8704;
1032.9000;0.4306;2.8730;
1033.2000;0.4306;2.8704;
1033.5000;0.4306;2.8677;
1033.8000;0.4298;2.8625;
1034.1000;0.4314;2.8704;
1034.4000;0.4314;2.8783;
1034.7000;0.4306;2.8862;
1035.0000;0.4249;2.8677;
1035.3000;0.4330;2.8809;
1035.6000;0.4322;2.8757;
1035.9000;0.4306;2.8783;
1036.2000;0.4298;2.8783;
1036.5000;0.4306;2.8757;
1036.8000;0.4306;2.8730;
1037.1000;0.4314;2.8757;
1037.4000;0.4363;2.8809;
1037.7000;0.4306;2.8598;
1038.0000;0.4322;2.8625;
1038.3000;0.4322;2.8598;
1038.6000;0.4306;2.8546;
1038.9000;0.4306;2.8493;
1039.2000;0.4322;2.8519;
1039.5000;0.4322;2.8414;
1039.8000;0.4322;2.8519;
1040.1000;0.4314;2.8493;
1040.4000;0.4306;2.8493;
1040.7000;0.4371;2.8704;
1041.0000;0.4322;2.8625;
1041.3000;0.4306;2.8493;
1041.6000;0.4322;2.8572;
1041.9000;0.4330;2.8598;
1042.2000;0.4282;2.8387;
1042.5000;0.4298;2.8466;
1042.8000;0.4306;2.8440;
1043.1000;0.4314;2.8414;
1043.4000;0.4306;2.8387;
1043.7000;0.4306;2.8414;
1044.0000;0.4306;2.8414;
1044.3000;0.4306;2.8414;
1044.6000;0.4322;2.8361;
1044.9000;0.4314;2.8361;
1045.2000;0.4339;2.8361;
1045.5000;0.4347;2.8414;
1045.8000;0.4306;2.8334;
1046.1000;0.4306;2.8361;
1046.4000;0.4339;2.8361;
1046.7000;0.4322;2.8255;
1047.0000;0.4322;2.8308;
1047.3000;0.4298;2.8176;
1047.6000;0.4347;2.8282;
1047.9000;0.4314;2.8229;
1048.2000;0.4322;2.8414;
1048.5000;0.4322;2.8519;
1048.8000;0.4322;2.8546;
1049.1000;0.4298;2.8493;
1049.4000;0.4314;2.8519;
1049.7000;0.4290;2.8334;
1050.0000;0.4322;2.8387;
1050.3000;0.4298;2.8282;
1050.6000;0.4330;2.8414;
1050.9000;0.4314;2.8466;
1051.2000;0.4314;2.8466;
1051.5000;0.4306;2.8414;
1051.8000;0.4314;2.8440;
1052.1000;0.4298;2.8387;
1052.4000;0.4290;2.8440;
1052.7000;0.4322;2.8598;
1053.0000;0.4298;2.8625;
1053.3000;0.4298;2.8598;
1053.6000;0.4298;2.8625;
1053.9000;0.4290;2.8677;
1054.2000;0.4298;2.8704;
1054.5000;0.4290;2.8730;
1054.8000;0.4314;2.8836;
1055.1000;0.4347;2.8968;
1055.4000;0.4298;2.8730;
1055.7000;0.4347;2.8783;
1056.0000;0.4298;2.8598;
1056.3000;0.4347;2.8677;
1056.6000;0.4298;2.8572;
1056.9000;0.4290;2.8598;
1057.2000;0.4306;2.8625;
1057.5000;0.4306;2.8598;
1057.8000;0.4306;2.8519;
1058.1000;0.4306;2.8598;
1058.4000;0.4330;2.8546;
1058.7000;0.4330;2.8546;
1059.0000;0.4314;2.8519;
1059.3000;0.4306;2.8493;
1059.6000;0.4314;2.8440;
1059.9000;0.4339;2.8493;
1060.2000;0.4314;2.8361;
1060.5000;0.4314;2.8387;
1060.8000;0.4306;2.8334;
1061.1000;0.4314;2.8308;
1061.4000;0.4322;2.8308;
1061.7000;0.4322;2.8203;
1062.0000;0.4322;2.8229;
1062.3000;0.4290;2.8150;
1062.6000;0.4330;2.8203;
1062.9000;0.4314;2.8229;
1063.2000;0.4298;2.8150;
1063.5000;0.4298;2.8176;
1063.8000;0.4322;2.8282;
1064.1000;0.4330;2.8255;
1064.4000;0.4314;2.8308;
1064.7000;0.4306;2.8334;
1065.0000;0.4314;2.8387;
1065.3000;0.4339;2.8361;
1065.6000;0.4306;2.8334;
1065.9000;0.4314;2.8361;
1066.2000;0.4290;2.8176;
1066.5000;0.4306;2.8282;
1066.8000;0.4306;2.8282;
1067.1000;0.4306;2.8334;
1067.4000;0.4274;2.8255;
1067.7000;0.4306;2.8308;
1068.0000;0.4306;2.8255;
1068.3000;0.4298;2.8229;
1068.6000;0.4306;2.8176;
1068.9000;0.4322;2.8203;
1069.2000;0.4396;2.8387;
1069.5000;0.4322;2.8203;
1069.8000;0.4314;2.8229;
1070.1000;0.4330;2.8255;
1070.4000;0.4330;2.8229;
1070.7000;0.4322;2.8308;
1071.0000;0.4330;2.8334;
1071.3000;0.4306;2.8361;
1071.6000;0.4330;2.8361;
1071.9000;0.4314;2.8334;
1072.2000;0.4322;2.8387;
1072.5000;0.4322;2.8466;
1072.8000;0.4298;2.8519;
1073.1000;0.4298;2.8572;
1073.4000;0.4290;2.8572;
1073.7000;0.4290;2.8572;
1074.0000;0.4298;2.8651;
1074.3000;0.4314;2.8757;
1074.6000;0.4314;2.8757;
1074.9000;0.4355;2.8862;
1075.2000;0.4306;2.8836;
1075.5000;0.4282;2.8625;
1075.8000;0.4290;2.8598;
1076.1000;0.4330;2.8836;
1076.4000;0.4314;2.8809;
1076.7000;0.4290;2.8730;
1077.0000;0.4306;2.8704;
1077.3000;0.4274;2.8572;
1077.6000;0.4298;2.8730;
1077.9000;0.4314;2.8625;
1078.2000;0.4306;2.8493;
1078.5000;0.4290;2.8466;
1078.8000;0.4314;2.8519;
1079.1000;0.4184;2.8071;
1079.4000;0.4339;2.8466;
1079.7000;0.4233;2.8176;
1080.0000;0.4314;2.8414;
1080.3000;0.4306;2.8466;
1080.6000;0.4322;2.8493;
1080.9000;0.4330;2.8572;
1081.2000;0.4306;2.8546;
1081.5000;0.4298;2.8387;
1081.8000;0.4306;2.8334;
1082.1000;0.4298;2.8255;
1082.4000;0.4314;2.8361;
1082.7000;0.4330;2.8334;
1083.0000;0.4306;2.8255;
1083.3000;0.4306;2.8255;
1083.6000;0.4322;2.8229;
1083.9000;0.4314;2.8255;
1084.2000;0.4322;2.8255;
1084.5000;0.4314;2.8176;
1084.8000;0.4306;2.8255;
1085.1000;0.4217;2.7991;
1085.4000;0.4200;2.7965;
1085.7000;0.4322;2.8466;
1086.0000;0.4404;2.8783;
1086.3000;0.4322;2.8493;
1086.6000;0.4347;2.8519;
1086.9000;0.4322;2.8493;
1087.2000;0.4339;2.8387;
1087.5000;0.4339;2.8387;
1087.8000;0.4225;2.8071;
1088.1000;0.4306;2.8334;
1088.4000;0.4314;2.8308;
1088.7000;0.4322;2.8334;
1089.0000;0.4330;2.8361;
1089.3000;0.4330;2.8308;
1089.6000;0.4298;2.8308;
1089.9000;0.4306;2.8334;
1090.2000;0.4339;2.8519;
1090.5000;0.4330;2.8519;
1090.8000;0.4339;2.8546;
1091.1000;0.4298;2.8387;
1091.4000;0.4314;2.8414;
1091.7000;0.4322;2.8466;
1092.0000;0.4306;2.8466;
1092.3000;0.4298;2.8440;
1092.6000;0.4314;2.8361;
1092.9000;0.4314;2.8493;
1093.2000;0.4298;2.8651;
1093.5000;0.4339;2.8783;
1093.8000;0.4355;2.8915;
1094.1000;0.4306;2.8888;
1094.4000;0.4298;2.8888;
1094.7000;0.4290;2.8888;
1095.0000;0.4347;2.8994;
1095.3000;0.4314;2.8757;
1095.6000;0.4306;2.8836;
1095.9000;0.4290;2.8888;
1096.2000;0.4298;2.8809;
1096.5000;0.4257;2.8757;
1096.8000;0.4355;2.8888;
1097.1000;0.4298;2.8809;
1097.4000;0.4290;2.8783;
1097.7000;0.4306;2.8862;
1098.0000;0.4306;2.8783;
1098.3000;0.4298;2.8757;
1098.6000;0.4265;2.8519;
1098.9000;0.4306;2.8546;
1099.2000;0.4290;2.8493;
1099.5000;0.4322;2.8572;
1099.8000;0.4306;2.8519;
1100.1000;0.4306;2.8414;
1100.4000;0.4330;2.8440;
1100.7000;0.4314;2.8440;
1101.0000;0.4282;2.8308;
1101.3000;0.4306;2.8282;
1101.6000;0.4306;2.8334;
1101.9000;0.4306;2.8361;
1102.2000;0.4330;2.8334;
1102.5000;0.4306;2.8308;
1102.8000;0.4298;2.8255;
1103.1000;0.4314;2.8255;
1103.4000;0.4314;2.8229;
1103.7000;0.4306;2.8150;
1104.0000;0.4298;2.8203;
1104.3000;0.4322;2.8308;
1104.6000;0.4322;2.8308;
1104.9000;0.4306;2.8334;
1105.2000;0.4314;2.8308;
1105.5000;0.4322;2.8203;
1105.8000;0.4330;2.8229;
1106.1000;0.4330;2.8203;
1106.4000;0.4298;2.8203;
1106.7000;0.4306;2.8255;
1107.0000;0.4314;2.8229;
1107.3000;0.4330;2.8229;
1107.6000;0.4339;2.8387;
1107.9000;0.4282;2.8308;
1108.2000;0.4314;2.8361;
1108.5000;0.4322;2.8466;
1108.8000;0.4322;2.8440;
1109.1000;0.4314;2.8440;
1109.4000;0.4306;2.8414;
1109.7000;0.4306;2.8414;
1110.0000;0.4298;2.8414;
1110.3000;0.4306;2.8519;
1110.6000;0.4306;2.8598;
1110.9000;0.4339;2.8625;
1111.2000;0.4290;2.8651;
1111.5000;0.4298;2.8651;
1111.8000;0.4306;2.8651;
1112.1000;0.4322;2.8598;
1112.4000;0.4306;2.8572;
1112.7000;0.4322;2.8519;
1113.0000;0.4290;2.8466;
1113.3000;0.4298;2.8466;
1113.6000;0.4330;2.8598;
1113.9000;0.4282;2.8440;
1114.2000;0.4355;2.8704;
1114.5000;0.4306;2.8546;
1114.8000;0.4306;2.8546;
1115.1000;0.4290;2.8493;
1115.4000;0.4298;2.8519;
1115.7000;0.4290;2.8440;
1116.0000;0.4298;2.8546;
1116.3000;0.4339;2.8625;
1116.6000;0.4314;2.8519;
1116.9000;0.4314;2.8334;
1117.2000;0.4298;2.8308;
1117.5000;0.4184;2.8018;
1117.8000;0.4192;2.8071;
1118.1000;0.4314;2.8466;
1118.4000;0.4208;2.8176;
1118.7000;0.4322;2.8414;
1119.0000;0.4396;2.8598;
1119.3000;0.4306;2.8387;
1119.6000;0.4322;2.8493;
1119.9000;0.4330;2.8387;
1120.2000;0.4306;2.8282;
1120.5000;0.4314;2.8176;
1120.8000;0.4363;2.8176;
1121.1000;0.4347;2.8176;
1121.4000;0.4314;2.8282;
1121.7000;0.4322;2.8334;
1122.0000;0.4322;2.8334;
1122.3000;0.4314;2.8308;
1122.6000;0.4330;2.8334;
1122.9000;0.4306;2.8255;
1123.2000;0.4322;2.8176;
1123.5000;0.4314;2.8123;
1123.8000;0.4306;2.8150;
1124.1000;0.4306;2.8097;
1124.4000;0.4322;2.8097;
1124.7000;0.4314;2.8123;
1125.0000;0.4322;2.8176;
1125.3000;0.4265;2.8097;
1125.6000;0.4314;2.8097;
1125.9000;0.4330;2.8150;
1126.2000;0.4282;2.8123;
1126.5000;0.4322;2.8176;
1126.8000;0.4306;2.8097;
1127.1000;0.4314;2.8071;
1127.4000;0.4322;2.8176;
1127.7000;0.4298;2.8176;
1128.0000;0.4298;2.8071;
1128.3000;0.4306;2.8044;
1128.6000;0.4314;2.8203;
1128.9000;0.4322;2.8255;
1129.2000;0.4298;2.8334;
1129.5000;0.4306;2.8229;
1129.8000;0.4314;2.8334;
1130.1000;0.4306;2.8308;
1130.4000;0.4290;2.8282;
1130.7000;0.4314;2.8466;
1131.0000;0.4282;2.8572;
1131.3000;0.4282;2.8598;
1131.6000;0.4314;2.8704;
1131.9000;0.4314;2.8757;
1132.2000;0.4306;2.8704;
1132.5000;0.4322;2.8704;
1132.8000;0.4290;2.8519;
1133.1000;0.4298;2.8466;
1133.4000;0.4290;2.8546;
1133.7000;0.4298;2.8493;
1134.0000;0.4282;2.8598;
1134.3000;0.4282;2.8704;
1134.6000;0.4347;2.8862;
1134.9000;0.4282;2.8677;
1135.2000;0.4355;2.8757;
1135.5000;0.4298;2.8598;
1135.8000;0.4282;2.8598;
1136.1000;0.4290;2.8651;
1136.4000;0.4428;2.9020;
1136.7000;0.4314;2.8625;
1137.0000;0.4290;2.8704;
1137.3000;0.4330;2.8730;
1137.6000;0.4330;2.8730;
1137.9000;0.4330;2.8809;
1138.2000;0.4257;2.8466;
1138.5000;0.4282;2.8466;
1138.8000;0.4265;2.8334;
1139.1000;0.4314;2.8466;
1139.4000;0.4347;2.8546;
1139.7000;0.4298;2.8519;
1140.0000;0.4347;2.8757;
1140.3000;0.4306;2.8625;
1140.6000;0.4298;2.8598;
1140.9000;0.4249;2.8387;
1141.2000;0.4290;2.8466;
1141.5000;0.4314;2.8572;
1141.8000;0.4306;2.8546;
1142.1000;0.4298;2.8493;
1142.4000;0.4322;2.8414;
1142.7000;0.4314;2.8334;
1143.0000;0.4322;2.8255;
1143.3000;0.4306;2.8203;
1143.6000;0.4265;2.8018;
1143.9000;0.4298;2.8150;
1144.2000;0.4306;2.8203;
1144.5000;0.4306;2.8150;
1144.8000;0.4322;2.8308;
1145.1000;0.4290;2.8282;
1145.4000;0.4306;2.8334;
1145.7000;0.4314;2.8255;
1146.0000;0.4290;2.8203;
1146.3000;0.4306;2.8282;
1146.6000;0.4314;2.8334;
1146.9000;0.4314;2.8334;
1147.2000;0.4306;2.8334;
1147.5000;0.4322;2.8334;
1147.8000;0.4322;2.8334;
1148.1000;0.4330;2.8255;
1148.4000;0.4306;2.8203;
1148.7000;0.4314;2.8255;
1149.0000;0.4322;2.8282;
1149.3000;0.4347;2.8387;
1149.6000;0.4314;2.8334;
1149.9000;0.4282;2.8361;
1150.2000;0.4314;2.8625;
1150.5000;0.4306;2.8651;
1150.8000;0.4363;2.8757;
1151.1000;0.4322;2.8677;
1151.4000;0.4314;2.8598;
1151.7000;0.4339;2.8598;
1152.0000;0.4330;2.8651;
1152.3000;0.4290;2.8598;
1152.6000;0.4330;2.8677;
1152.9000;0.4330;2.8651;
1153.2000;0.4314;2.8546;
1153.5000;0.4290;2.8572;
1153.8000;0.4298;2.8546;
1154.1000;0.4306;2.8651;
1154.4000;0.4322;2.8836;
1154.7000;0.4322;2.8862;
1155.0000;0.4347;2.8915;
1155.3000;0.4274;2.8783;
1155.6000;0.4306;2.8783;
1155.9000;0.4298;2.8677;
1156.2000;0.4217;2.8229;
1156.5000;0.4306;2.8466;
1156.8000;0.4314;2.8519;
1157.1000;0.4314;2.8572;
1157.4000;0.4282;2.8493;
1157.7000;0.4290;2.8651;
1158.0000;0.4306;2.8704;
1158.3000;0.4290;2.8677;
1158.6000;0.4371;2.8862;
1158.9000;0.4314;2.8625;
1159.2000;0.4217;2.8229;
1159.5000;0.4274;2.8414;
1159.8000;0.4306;2.8334;
1160.1000;0.4306;2.8255;
1160.4000;0.4290;2.8176;
1160.7000;0.4314;2.8203;
1161.0000;0.4298;2.8097;
1161.3000;0.4274;2.7991;
1161.6000;0.4347;2.8123;
1161.9000;0.4290;2.7939;
1162.2000;0.4314;2.8044;
1162.5000;0.4298;2.7912;
1162.8000;0.4363;2.8150;
1163.1000;0.4306;2.8044;
1163.4000;0.4314;2.8071;
1163.7000;0.4314;2.8097;
1164.0000;0.4306;2.8123;
1164.3000;0.4306;2.8176;
1164.6000;0.4322;2.8255;
1164.9000;0.4282;2.8203;
1165.2000;0.4322;2.8229;
1165.5000;0.4314;2.8176;
1165.8000;0.4330;2.8229;
1166.1000;0.4322;2.8334;
1166.4000;0.4306;2.8255;
1166.7000;0.4290;2.8229;
1167.0000;0.4314;2.8414;
1167.3000;0.4314;2.8414;
1167.6000;0.4330;2.8414;
1167.9000;0.4314;2.8440;
1168.2000;0.4322;2.8414;
1168.5000;0.4322;2.8387;
1168.8000;0.4314;2.8334;
1169.1000;0.4314;2.8334;
1169.4000;0.4306;2.8414;
1169.7000;0.4314;2.8519;
1170.0000;0.4314;2.8493;
1170.3000;0.4298;2.8334;
1170.6000;0.4339;2.8466;
1170.9000;0.4322;2.8440;
1171.2000;0.4322;2.8414;
1171.5000;0.4330;2.8414;
1171.8000;0.4306;2.8334;
1172.1000;0.4322;2.8414;
1172.4000;0.4298;2.8387;
1172.7000;0.4298;2.8493;
1173.0000;0.4290;2.8572;
1173.3000;0.4274;2.8625;
1173.6000;0.4314;2.8730;
1173.9000;0.4314;2.8809;
1174.2000;0.4290;2.8757;
1174.5000;0.4314;2.8783;
1174.8000;0.4306;2.8730;
1175.1000;0.4298;2.8809;
1175.4000;0.4314;2.8783;
1175.7000;0.4314;2.8941;
1176.0000;0.4322;2.8994;
1176.3000;0.4298;2.8915;
1176.6000;0.4306;2.8757;
1176.9000;0.4306;2.8809;
1177.2000;0.4314;2.8888;
1177.5000;0.4290;2.8757;
1177.8000;0.4314;2.8677;
1178.1000;0.4339;2.8677;
1178.4000;0.4322;2.8677;
1178.7000;0.4322;2.8677;
1179.0000;0.4322;2.8651;
1179.3000;0.4314;2.8519;
1179.6000;0.4363;2.8704;
1179.9000;0.4314;2.8546;
1180.2000;0.4314;2.8519;
1180.5000;0.4347;2.8493;
1180.8000;0.4428;2.8651;
1181.1000;0.4314;2.8308;
1181.4000;0.4322;2.8440;
1181.7000;0.4306;2.8361;
1182.0000;0.4306;2.8387;
1182.3000;0.4306;2.8440;
1182.6000;0.4306;2.8414;
1182.9000;0.4298;2.8466;
1183.2000;0.4298;2.8440;
1183.5000;0.4322;2.8466;
1183.8000;0.4314;2.8466;
1184.1000;0.4306;2.8466;
1184.4000;0.4298;2.8387;
1184.7000;0.4379;2.8519;
1185.0000;0.4314;2.8308;
1185.3000;0.4314;2.8334;
1185.6000;0.4282;2.8255;
1185.9000;0.4298;2.8203;
1186.2000;0.4306;2.8255;
1186.5000;0.4322;2.8308;
1186.8000;0.4322;2.8361;
1187.1000;0.4314;2.8387;
1187.4000;0.4314;2.8334;
1187.7000;0.4314;2.8387;
1188.0000;0.4314;2.8308;
1188.3000;0.4298;2.8255;
1188.6000;0.4322;2.8334;
1188.9000;0.4314;2.8308;
1189.2000;0.4322;2.8387;
1189.5000;0.4322;2.8387;
1189.8000;0.4322;2.8440;
1190.1000;0.4290;2.8440;
1190.4000;0.4322;2.8572;
1190.7000;0.4306;2.8598;
1191.0000;0.4306;2.8572;
1191.3000;0.4314;2.8651;
1191.6000;0.4298;2.8625;
1191.9000;0.4298;2.8625;
1192.2000;0.4298;2.8651;
1192.5000;0.4257;2.8466;
1192.8000;0.4314;2.8625;
1193.1000;0.4322;2.8677;
1193.4000;0.4290;2.8625;
1193.7000;0.4306;2.8730;
1194.0000;0.4314;2.8862;
1194.3000;0.4306;2.8888;
1194.6000;0.4241;2.8757;
1194.9000;0.4314;2.8941;
1195.2000;0.4306;2.8862;
1195.5000;0.4379;2.8994;
1195.8000;0.4290;2.8704;
1196.1000;0.4322;2.8783;
1196.4000;0.4306;2.8730;
1196.7000;0.4208;2.8493;
1197.0000;0.4298;2.8704;
1197.3000;0.4282;2.8625;
1197.6000;0.4298;2.8704;
1197.9000;0.4306;2.8677;
1198.2000;0.4371;2.8730;
1198.5000;0.4314;2.8572;
1198.8000;0.4274;2.8572;
1199.1000;0.4306;2.8572;
1199.4000;0.4355;2.8519;
1199.7000;0.4208;2.8150;
1200.0000;0.4314;2.8334;
1200.3000;0.4314;2.8387;
1200.6000;0.4306;2.8440;
1200.9000;0.4306;2.8440;
1201.2000;0.4306;2.8493;
1201.5000;0.4339;2.8519;
1201.8000;0.4322;2.8493;
1202.1000;0.4265;2.8387;
1202.4000;0.4217;2.8203;
1202.7000;0.4274;2.8282;
1203.0000;0.4314;2.8414;
1203.3000;0.4322;2.8440;
1203.6000;0.4379;2.8546;
1203.9000;0.4306;2.8229;
1204.2000;0.4314;2.8361;
1204.5000;0.4314;2.8334;
1204.8000;0.4339;2.8334;
1205.1000;0.4282;2.8176;
1205.4000;0.4298;2.8255;
1205.7000;0.4306;2.8282;
1206.0000;0.4322;2.8229;
1206.3000;0.4306;2.8229;
1206.6000;0.4298;2.8282;
1206.9000;0.4306;2.8440;
1207.2000;0.4274;2.8334;
1207.5000;0.4298;2.8308;
1207.8000;0.4314;2.8361;
1208.1000;0.4306;2.8229;
1208.4000;0.4274;2.8229;
1208.7000;0.4322;2.8334;
1209.0000;0.4314;2.8361;
1209.3000;0.4306;2.8519;
1209.6000;0.4282;2.8466;
1209.9000;0.4322;2.8572;
1210.2000;0.4314;2.8598;
1210.5000;0.4314;2.8651;
1210.8000;0.4314;2.8598;
1211.1000;0.4306;2.8625;
1211.4000;0.4322;2.8730;
1211.7000;0.4290;2.8625;
1212.0000;0.4314;2.8704;
1212.3000;0.4265;2.8651;
1212.6000;0.4322;2.8809;
1212.9000;0.4379;2.9047;
1213.2000;0.4298;2.8809;
1213.5000;0.4306;2.8783;
1213.8000;0.4298;2.8677;
1214.1000;0.4306;2.8625;
1214.4000;0.4314;2.8677;
1214.7000;0.4298;2.8625;
1215.0000;0.4298;2.8572;
1215.3000;0.4306;2.8677;
1215.6000;0.4379;2.8941;
1215.9000;0.4282;2.8704;
1216.2000;0.4298;2.8704;
1216.5000;0.4298;2.8730;
1216.8000;0.4282;2.8677;
1217.1000;0.4265;2.8598;
1217.4000;0.4306;2.8677;
1217.7000;0.4274;2.8598;
1218.0000;0.4298;2.8730;
1218.3000;0.4306;2.8730;
1218.6000;0.4306;2.8625;
1218.9000;0.4298;2.8572;
1219.2000;0.4298;2.8572;
1219.5000;0.4314;2.8493;
1219.8000;0.4322;2.8493;
1220.1000;0.4306;2.8440;
1220.4000;0.4306;2.8387;
1220.7000;0.4298;2.8440;
1221.0000;0.4314;2.8440;
1221.3000;0.4298;2.8361;
1221.6000;0.4298;2.8334;
1221.9000;0.4298;2.8308;
1222.2000;0.4298;2.8229;
1222.5000;0.4306;2.8123;
1222.8000;0.4363;2.8308;
1223.1000;0.4306;2.8176;
1223.4000;0.4314;2.8176;
1223.7000;0.4330;2.8308;
1224.0000;0.4314;2.8255;
1224.3000;0.4420;2.8546;
1224.6000;0.4322;2.8255;
1224.9000;0.4330;2.8440;
1225.2000;0.4314;2.8414;
1225.5000;0.4314;2.8414;
1225.8000;0.4330;2.8546;
1226.1000;0.4322;2.8466;
1226.4000;0.4265;2.8255;
1226.7000;0.4314;2.8308;
1227.0000;0.4241;2.8123;
1227.3000;0.4322;2.8282;
1227.6000;0.4339;2.8361;
1227.9000;0.4322;2.8308;
1228.2000;0.4233;2.8044;
1228.5000;0.4265;2.8176;
1228.8000;0.4192;2.7912;
1229.1000;0.4241;2.8097;
1229.4000;0.4290;2.8282;
1229.7000;0.4306;2.8334;
1230.0000;0.4314;2.8361;
1230.3000;0.4282;2.8334;
1230.6000;0.4290;2.8387;
1230.9000;0.4290;2.8308;
1231.2000;0.4282;2.8282;
1231.5000;0.4290;2.8414;
1231.8000;0.4241;2.8387;
1232.1000;0.4306;2.8466;
1232.4000;0.4314;2.8493;
1232.7000;0.4306;2.8440;
1233.0000;0.4306;2.8519;
1233.3000;0.4314;2.8625;
1233.6000;0.4306;2.8598;
1233.9000;0.4265;2.8519;
1234.2000;0.4298;2.8572;
1234.5000;0.4387;2.8836;
1234.8000;0.4217;2.8440;
1235.1000;0.4306;2.8651;
1235.4000;0.4184;2.8282;
1235.7000;0.4290;2.8572;
1236.0000;0.4290;2.8598;
1236.3000;0.4314;2.8651;
1236.6000;0.4298;2.8598;
1236.9000;0.4257;2.8493;
1237.2000;0.4314;2.8625;
1237.5000;0.4306;2.8651;
1237.8000;0.4298;2.8598;
1238.1000;0.4306;2.8677;
1238.4000;0.4322;2.8704;
1238.7000;0.4330;2.8625;
1239.0000;0.4306;2.8546;
1239.3000;0.4306;2.8519;
1239.6000;0.4306;2.8493;
1239.9000;0.4306;2.8546;
1240.2000;0.4290;2.8387;
1240.5000;0.4298;2.8308;
1240.8000;0.4314;2.8361;
1241.1000;0.4322;2.8440;
1241.4000;0.4314;2.8466;
1241.7000;0.4298;2.8466;
1242.0000;0.4290;2.8466;
1242.3000;0.4314;2.8546;
1242.6000;0.4322;2.8466;
1242.9000;0.4314;2.8387;
1243.2000;0.4306;2.8308;
1243.5000;0.4306;2.8255;
1243.8000;0.4314;2.8203;
1244.1000;0.4306;2.8282;
1244.4000;0.4314;2.8255;
1244.7000;0.4306;2.8255;
1245.0000;0.4314;2.8229;
1245.3000;0.4298;2.8176;
1245.6000;0.4347;2.8255;
1245.9000;0.4290;2.8123;
1246.2000;0.4306;2.8176;
1246.5000;0.4314;2.8176;
1246.8000;0.4322;2.8176;
1247.1000;0.4322;2.8229;
1247.4000;0.4306;2.8229;
1247.7000;0.4330;2.8282;
1248.0000;0.4363;2.8414;
1248.3000;0.4330;2.8282;
1248.6000;0.4298;2.8282;
1248.9000;0.4314;2.8308;
1249.2000;0.4306;2.8361;
1249.5000;0.4290;2.8255;
1249.8000;0.4428;2.8651;
1250.1000;0.4330;2.8308;
1250.4000;0.4290;2.8361;
1250.7000;0.4355;2.8677;
1251.0000;0.4306;2.8493;
1251.3000;0.4330;2.8598;
1251.6000;0.4290;2.8466;
1251.9000;0.4306;2.8493;
1252.2000;0.4298;2.8466;
1252.5000;0.4355;2.8651;
1252.8000;0.4322;2.8546;
1253.1000;0.4306;2.8546;
1253.4000;0.4225;2.8282;
1253.7000;0.4298;2.8572;
1254.0000;0.4306;2.8704;
1254.3000;0.4249;2.8598;
1254.6000;0.4249;2.8572;
1254.9000;0.4298;2.8677;
1255.2000;0.4306;2.8704;
1255.5000;0.4274;2.8598;
1255.8000;0.4298;2.8730;
1256.1000;0.4282;2.8625;
1256.4000;0.4290;2.8651;
1256.7000;0.4298;2.8651;
1257.0000;0.4290;2.8625;
1257.3000;0.4322;2.8651;
1257.6000;0.4322;2.8625;
1257.9000;0.4314;2.8677;
1258.2000;0.4290;2.8572;
1258.5000;0.4282;2.8651;
1258.8000;0.4257;2.8493;
1259.1000;0.4306;2.8598;
1259.4000;0.4290;2.8519;
1259.7000;0.4387;2.8757;
1260.0000;0.4298;2.8414;
1260.3000;0.4306;2.8334;
1260.6000;0.4330;2.8308;
1260.9000;0.4322;2.8361;
1261.2000;0.4298;2.8308;
1261.5000;0.4290;2.8282;
1261.8000;0.4330;2.8308;
1262.1000;0.4306;2.8203;
1262.4000;0.4314;2.8176;
1262.7000;0.4314;2.8229;
1263.0000;0.4298;2.8282;
1263.3000;0.4282;2.8150;
1263.6000;0.4322;2.8176;
1263.9000;0.4322;2.8150;
1264.2000;0.4322;2.8308;
1264.5000;0.4298;2.8150;
1264.8000;0.4298;2.8150;
1265.1000;0.4314;2.8203;
1265.4000;0.4314;2.8097;
1265.7000;0.4322;2.8097;
1266.0000;0.4322;2.8071;
1266.3000;0.4314;2.8018;
1266.6000;0.4290;2.7965;
1266.9000;0.4355;2.8203;
1267.2000;0.4371;2.8282;
1267.5000;0.4298;2.8097;
1267.8000;0.4290;2.8071;
1268.1000;0.4290;2.8044;
1268.4000;0.4314;2.8150;
1268.7000;0.4314;2.8255;
1269.0000;0.4298;2.8334;
1269.3000;0.4298;2.8387;
1269.6000;0.4306;2.8361;
1269.9000;0.4314;2.8282;
1270.2000;0.4282;2.8203;
1270.5000;0.4339;2.8414;
1270.8000;0.4314;2.8387;
1271.1000;0.4298;2.8334;
1271.4000;0.4306;2.8466;
1271.7000;0.4314;2.8466;
1272.0000;0.4298;2.8493;
1272.3000;0.4306;2.8546;
1272.6000;0.4314;2.8546;
1272.9000;0.4314;2.8572;
1273.2000;0.4298;2.8598;
1273.5000;0.4355;2.8836;
1273.8000;0.4306;2.8704;
1274.1000;0.4298;2.8704;
1274.4000;0.4282;2.8651;
1274.7000;0.4306;2.8783;
1275.0000;0.4306;2.8704;
1275.3000;0.4347;2.8757;
1275.6000;0.4314;2.8677;
1275.9000;0.4306;2.8677;
1276.2000;0.4314;2.8730;
1276.5000;0.4306;2.8704;
1276.8000;0.4306;2.8651;
1277.1000;0.4322;2.8704;
1277.4000;0.4355;2.8651;
1277.7000;0.4306;2.8466;
1278.0000;0.4322;2.8598;
1278.3000;0.4306;2.8493;
1278.6000;0.4306;2.8361;
1278.9000;0.4274;2.8203;
1279.2000;0.4290;2.8176;
1279.5000;0.4298;2.8176;
1279.8000;0.4298;2.8150;
1280.1000;0.4298;2.8176;
1280.4000;0.4298;2.8150;
1280.7000;0.4314;2.8176;
1281.0000;0.4314;2.8203;
1281.3000;0.4298;2.8176;
1281.6000;0.4330;2.8255;
1281.9000;0.4298;2.8203;
1282.2000;0.4322;2.8229;
1282.5000;0.4314;2.8229;
1282.8000;0.4168;2.7912;
1283.1000;0.4306;2.8282;
1283.4000;0.4314;2.8282;
1283.7000;0.4339;2.8203;
1284.0000;0.4298;2.8123;
1284.3000;0.4298;2.8123;
1284.6000;0.4306;2.8123;
1284.9000;0.4322;2.8123;
1285.2000;0.4314;2.8123;
1285.5000;0.4290;2.8123;
1285.8000;0.4330;2.8097;
1286.1000;0.4322;2.8229;
1286.4000;0.4314;2.8229;
1286.7000;0.4306;2.8203;
1287.0000;0.4306;2.8176;
1287.3000;0.4322;2.8255;
1287.6000;0.4330;2.8308;
1287.9000;0.4322;2.8282;
1288.2000;0.4322;2.8255;
1288.5000;0.4257;2.7965;
1288.8000;0.4306;2.8176;
1289.1000;0.4274;2.8097;
1289.4000;0.4306;2.8176;
1289.7000;0.4322;2.8229;
1290.0000;0.4322;2.8150;
1290.3000;0.4200;2.7833;
1290.6000;0.4298;2.8123;
1290.9000;0.4330;2.8229;
1291.2000;0.4290;2.8123;
1291.5000;0.4314;2.8150;
1291.8000;0.4290;2.8071;
1292.1000;0.4298;2.8097;
1292.4000;0.4322;2.8229;
1292.7000;0.4257;2.8150;
1293.0000;0.4298;2.8255;
1293.3000;0.4322;2.8440;
1293.6000;0.4314;2.8493;
1293.9000;0.4184;2.8150;
1294.2000;0.4257;2.8466;
1294.5000;0.4314;2.8677;
1294.8000;0.4282;2.8677;
1295.1000;0.4290;2.8704;
1295.4000;0.4249;2.8572;
1295.7000;0.4282;2.8598;
1296.0000;0.4298;2.8730;
1296.3000;0.4298;2.8625;
1296.6000;0.4241;2.8387;
1296.9000;0.4257;2.8440;
1297.2000;0.4298;2.8625;
1297.5000;0.4306;2.8546;
1297.8000;0.4322;2.8493;
1298.1000;0.4322;2.8493;
1298.4000;0.4363;2.8625;
1298.7000;0.4314;2.8414;
1299.0000;0.4306;2.8414;
1299.3000;0.4306;2.8387;
1299.6000;0.4298;2.8308;
1299.9000;0.4290;2.8308;
1300.2000;0.4306;2.8229;
1300.5000;0.4290;2.8097;
1300.8000;0.4298;2.8071;
1301.1000;0.4396;2.8308;
1301.4000;0.4314;2.8097;
1301.7000;0.4298;2.8044;
1302.0000;0.4290;2.8044;
1302.3000;0.4306;2.8071;
1302.6000;0.4306;2.8097;
1302.9000;0.4265;2.7991;
1303.2000;0.4290;2.8044;
1303.5000;0.4298;2.8018;
1303.8000;0.4306;2.8044;
1304.1000;0.4306;2.7991;
1304.4000;0.4298;2.7991;
1304.7000;0.4298;2.7939;
1305.0000;0.4314;2.8018;
1305.3000;0.4306;2.8044;
1305.6000;0.4314;2.8071;
1305.9000;0.4314;2.8123;
1306.2000;0.4322;2.8123;
1306.5000;0.4330;2.8176;
1306.8000;0.4282;2.8097;
1307.1000;0.4322;2.8150;
1307.4000;0.4298;2.8150;
1307.7000;0.4298;2.8203;
1308.0000;0.4322;2.8203;
1308.3000;0.4322;2.8203;
1308.6000;0.4314;2.8150;
1308.9000;0.4322;2.8097;
1309.2000;0.4314;2.8150;
1309.5000;0.4314;2.8123;
1309.8000;0.4330;2.8097;
1310.1000;0.4330;2.8150;
1310.4000;0.4306;2.8150;
1310.7000;0.4282;2.8150;
1311.0000;0.4298;2.8123;
1311.3000;0.4330;2.8255;
1311.6000;0.4322;2.8361;
1311.9000;0.4322;2.8334;
1312.2000;0.4298;2.8334;
1312.5000;0.4306;2.8334;
1312.8000;0.4314;2.8387;
1313.1000;0.4298;2.8414;
1313.4000;0.4298;2.8361;
1313.7000;0.4355;2.8493;
1314.0000;0.4298;2.8229;
1314.3000;0.4233;2.8071;
1314.6000;0.4282;2.8255;
1314.9000;0.4306;2.8282;
1315.2000;0.4314;2.8440;
1315.5000;0.4290;2.8493;
1315.8000;0.4298;2.8440;
1316.1000;0.4282;2.8387;
1316.4000;0.4306;2.8466;
1316.7000;0.4290;2.8572;
1317.0000;0.4298;2.8572;
1317.3000;0.4314;2.8598;
1317.6000;0.4314;2.8546;
1317.9000;0.4306;2.8466;
1318.2000;0.4314;2.8519;
1318.5000;0.4330;2.8572;
1318.8000;0.4298;2.8440;
1319.1000;0.4298;2.8361;
1319.4000;0.4306;2.8308;
1319.7000;0.4314;2.8387;
1320.0000;0.4306;2.8414;
1320.3000;0.4265;2.8308;
1320.6000;0.4314;2.8440;
1320.9000;0.4322;2.8440;
1321.2000;0.4282;2.8282;
1321.5000;0.4314;2.8414;
1321.8000;0.4306;2.8440;
1322.1000;0.4306;2.8387;
1322.4000;0.4330;2.8414;
1322.7000;0.4306;2.8176;
1323.0000;0.4314;2.8176;
1323.3000;0.4314;2.8123;
1323.6000;0.4306;2.8229;
1323.9000;0.4298;2.8203;
1324.2000;0.4306;2.8255;
1324.5000;0.4322;2.8229;
1324.8000;0.4330;2.8308;
1325.1000;0.4306;2.8361;
1325.4000;0.4314;2.8308;
1325.7000;0.4314;2.8229;
1326.0000;0.4322;2.8229;
1326.3000;0.4298;2.8150;
1326.6000;0.4282;2.8150;
1326.9000;0.4306;2.8150;
1327.2000;0.4298;2.8176;
1327.5000;0.4306;2.8282;
1327.8000;0.4306;2.8255;
1328.1000;0.4322;2.8176;
1328.4000;0.4314;2.8176;
1328.7000;0.4290;2.8071;
1329.0000;0.4314;2.8123;
1329.3000;0.4322;2.8150;
1329.6000;0.4314;2.8071;
1329.9000;0.4298;2.8071;
1330.2000;0.4298;2.8097;
1330.5000;0.4347;2.8255;
1330.8000;0.4314;2.8282;
1331.1000;0.4306;2.8255;
1331.4000;0.4306;2.8229;
1331.7000;0.4322;2.8308;
1332.0000;0.4314;2.8308;
1332.3000;0.4298;2.8282;
1332.6000;0.4306;2.8334;
1332.9000;0.4290;2.8387;
1333.2000;0.4298;2.8414;
1333.5000;0.4306;2.8414;
1333.8000;0.4298;2.8387;
1334.1000;0.4322;2.8493;
1334.4000;0.4322;2.8493;
1334.7000;0.4274;2.8440;
1335.0000;0.4306;2.8572;
1335.3000;0.4282;2.8598;
1335.6000;0.4290;2.8677;
1335.9000;0.4290;2.8704;
1336.2000;0.4290;2.8651;
1336.5000;0.4314;2.8677;
1336.8000;0.4306;2.8546;
1337.1000;0.4314;2.8625;
1337.4000;0.4306;2.8625;
1337.7000;0.4339;2.8704;
1338.0000;0.4298;2.8651;
1338.3000;0.4379;2.8836;
1338.6000;0.4290;2.8598;
1338.9000;0.4306;2.8625;
1339.2000;0.4298;2.8598;
1339.5000;0.4363;2.8783;
1339.8000;0.4339;2.8757;
1340.1000;0.4330;2.8598;
1340.4000;0.4282;2.8519;
1340.7000;0.4412;2.8888;
1341.0000;0.4306;2.8572;
1341.3000;0.4306;2.8546;
1341.6000;0.4314;2.8572;
1341.9000;0.4217;2.8361;
1342.2000;0.4306;2.8625;
1342.5000;0.4233;2.8493;
1342.8000;0.4314;2.8730;
1343.1000;0.4314;2.8598;
1343.4000;0.4314;2.8546;
1343.7000;0.4306;2.8546;
1344.0000;0.4322;2.8493;
1344.3000;0.4298;2.8334;
1344.6000;0.4298;2.8440;
1344.9000;0.4257;2.8282;
1345.2000;0.4306;2.8440;
1345.5000;0.4306;2.8414;
1345.8000;0.4322;2.8440;
1346.1000;0.4306;2.8387;
1346.4000;0.4282;2.8308;
1346.7000;0.4306;2.8334;
1347.0000;0.4298;2.8414;
1347.3000;0.4314;2.8414;
1347.6000;0.4290;2.8361;
1347.9000;0.4306;2.8414;
1348.2000;0.4371;2.8625;
1348.5000;0.4314;2.8466;
1348.8000;0.4347;2.8572;
1349.1000;0.4306;2.8546;
1349.4000;0.4290;2.8493;
1349.7000;0.4192;2.8203;
1350.0000;0.4314;2.8466;
1350.3000;0.4290;2.8414;
1350.6000;0.4282;2.8334;
1350.9000;0.4298;2.8440;
1351.2000;0.4306;2.8546;
1351.5000;0.4282;2.8572;
1351.8000;0.4298;2.8625;
1352.1000;0.4322;2.8651;
1352.4000;0.4306;2.8598;
1352.7000;0.4200;2.8282;
1353.0000;0.4298;2.8625;
1353.3000;0.4298;2.8730;
1353.6000;0.4322;2.8862;
1353.9000;0.4330;2.9020;
1354.2000;0.4306;2.9100;
1354.5000;0.4298;2.9152;
1354.8000;0.4314;2.9205;
1355.1000;0.4298;2.9126;
1355.4000;0.4298;2.9126;
1355.7000;0.4290;2.9073;
1356.0000;0.4298;2.9020;
1356.3000;0.4330;2.9047;
1356.6000;0.4290;2.8941;
1356.9000;0.4306;2.8809;
1357.2000;0.4290;2.8915;
1357.5000;0.4314;2.8862;
1357.8000;0.4225;2.8598;
1358.1000;0.4314;2.8836;
1358.4000;0.4322;2.8783;
1358.7000;0.4322;2.8783;
1359.0000;0.4298;2.8730;
1359.3000;0.4298;2.8783;
1359.6000;0.4298;2.8809;
1359.9000;0.4290;2.8730;
1360.2000;0.4306;2.8730;
1360.5000;0.4306;2.8704;
1360.8000;0.4298;2.8625;
1361.1000;0.4322;2.8704;
1361.4000;0.4314;2.8704;
1361.7000;0.4290;2.8677;
1362.0000;0.4265;2.8625;
1362.3000;0.4322;2.8783;
1362.6000;0.4306;2.8783;
1362.9000;0.4298;2.8809;
1363.2000;0.4298;2.8836;
1363.5000;0.4314;2.8862;
1363.8000;0.4306;2.8836;
1364.1000;0.4314;2.8783;
1364.4000;0.4339;2.8730;
1364.7000;0.4306;2.8651;
1365.0000;0.4298;2.8677;
1365.3000;0.4200;2.8255;
1365.6000;0.4355;2.8730;
1365.9000;0.4314;2.8625;
1366.2000;0.4298;2.8546;
1366.5000;0.4274;2.8519;
1366.8000;0.4322;2.8572;
1367.1000;0.4387;2.8757;
1367.4000;0.4322;2.8598;
1367.7000;0.4306;2.8546;
1368.0000;0.4363;2.8704;
1368.3000;0.4347;2.8677;
1368.6000;0.4428;2.9073;
1368.9000;0.4314;2.8757;
1369.2000;0.4298;2.8704;
1369.5000;0.4306;2.8704;
1369.8000;0.4298;2.8730;
1370.1000;0.4298;2.8598;
1370.4000;0.4314;2.8625;
1370.7000;0.4314;2.8783;
1371.0000;0.4298;2.8836;
1371.3000;0.4274;2.8836;
1371.6000;0.4314;2.8941;
1371.9000;0.4306;2.8915;
1372.2000;0.4298;2.8888;
1372.5000;0.4298;2.8915;
1372.8000;0.4306;2.9020;
1373.1000;0.4298;2.8968;
1373.4000;0.4290;2.8941;
1373.7000;0.4290;2.8888;
1374.0000;0.4314;2.9047;
1374.3000;0.4298;2.9020;
1374.6000;0.4290;2.9020;
1374.9000;0.4282;2.8941;
1375.2000;0.4306;2.8915;
1375.5000;0.4306;2.8968;
1375.8000;0.4314;2.9020;
1376.1000;0.4298;2.8941;
1376.4000;0.4306;2.8836;
1376.7000;0.4314;2.8757;
1377.0000;0.4306;2.8783;
1377.3000;0.4306;2.8809;
1377.6000;0.4306;2.8915;
1377.9000;0.4314;2.8915;
1378.2000;0.4306;2.8809;
1378.5000;0.4314;2.8809;
1378.8000;0.4306;2.8757;
1379.1000;0.4322;2.8783;
1379.4000;0.4306;2.8757;
1379.7000;0.4322;2.8704;
1380.0000;0.4306;2.8572;
1380.3000;0.4322;2.8651;
1380.6000;0.4282;2.8466;
1380.9000;0.4298;2.8546;
1381.2000;0.4306;2.8572;
1381.5000;0.4314;2.8572;
1381.8000;0.4314;2.8572;
1382.1000;0.4314;2.8598;
1382.4000;0.4298;2.8598;
1382.7000;0.4306;2.8625;
1383.0000;0.4298;2.8677;
1383.3000;0.4355;2.8757;
1383.6000;0.4306;2.8546;
1383.9000;0.4306;2.8572;
1384.2000;0.4306;2.8598;
1384.5000;0.4322;2.8519;
1384.8000;0.4298;2.8387;
1385.1000;0.4306;2.8414;
1385.4000;0.4314;2.8466;
1385.7000;0.4322;2.8572;
1386.0000;0.4322;2.8651;
1386.3000;0.4306;2.8572;
1386.6000;0.4306;2.8546;
1386.9000;0.4314;2.8493;
1387.2000;0.4298;2.8387;
1387.5000;0.4306;2.8414;
1387.8000;0.4306;2.8519;
1388.1000;0.4306;2.8493;
1388.4000;0.4306;2.8546;
1388.7000;0.4322;2.8546;
1389.0000;0.4314;2.8466;
1389.3000;0.4314;2.8677;
1389.6000;0.4298;2.8704;
1389.9000;0.4290;2.8625;
1390.2000;0.4314;2.8625;
1390.5000;0.4265;2.8493;
1390.8000;0.4314;2.8598;
1391.1000;0.4290;2.8572;
1391.4000;0.4298;2.8625;
1391.7000;0.4290;2.8677;
1392.0000;0.4314;2.8677;
1392.3000;0.4298;2.8677;
1392.6000;0.4306;2.8625;
1392.9000;0.4298;2.8704;
1393.2000;0.4314;2.8704;
1393.5000;0.4290;2.8809;
1393.8000;0.4306;2.8862;
1394.1000;0.4298;2.8757;
1394.4000;0.4290;2.8730;
1394.7000;0.4314;2.8730;
1395.0000;0.4306;2.8651;
1395.3000;0.4265;2.8546;
1395.6000;0.4314;2.8598;
1395.9000;0.4314;2.8598;
1396.2000;0.4306;2.8704;
1396.5000;0.4306;2.8651;
1396.8000;0.4298;2.8730;
1397.1000;0.4306;2.8757;
1397.4000;0.4298;2.8783;
1397.7000;0.4290;2.8625;
1398.0000;0.4298;2.8651;
1398.3000;0.4298;2.8730;
1398.6000;0.4298;2.8730;
1398.9000;0.4306;2.8625;
1399.2000;0.4298;2.8546;
1399.5000;0.4314;2.8493;
1399.8000;0.4322;2.8572;
