time/ms;Fluo/V;P700 deltaI/I x10³;
-199.8000;0.4526;2.8123;
-199.5000;0.4518;2.8150;
-199.2000;0.4501;2.8176;
-198.9000;0.4510;2.8150;
-198.6000;0.4526;2.8203;
-198.3000;0.4477;2.8071;
-198.0000;0.4518;2.8229;
-197.7000;0.4542;2.8334;
-197.4000;0.4518;2.8255;
-197.1000;0.4542;2.8334;
-196.8000;0.4469;2.8018;
-196.5000;0.4534;2.8150;
-196.2000;0.4510;2.8150;
-195.9000;0.4518;2.8044;
-195.6000;0.4510;2.7965;
-195.3000;0.4469;2.7939;
-195.0000;0.4428;2.7754;
-194.7000;0.4461;2.7912;
-194.4000;0.4501;2.8044;
-194.1000;0.4501;2.8044;
-193.8000;0.4624;2.8334;
-193.5000;0.4526;2.8018;
-193.2000;0.4510;2.8044;
-192.9000;0.4510;2.8071;
-192.6000;0.4526;2.8176;
-192.3000;0.4510;2.8123;
-192.0000;0.4518;2.8044;
-191.7000;0.4567;2.8150;
-191.4000;0.4518;2.8018;
-191.1000;0.4518;2.8071;
-190.8000;0.4469;2.7939;
-190.5000;0.4526;2.8097;
-190.2000;0.4493;2.7991;
-189.9000;0.4526;2.8176;
-189.6000;0.4501;2.8071;
-189.3000;0.4526;2.8018;
-189.0000;0.4542;2.8044;
-188.7000;0.4510;2.7965;
-188.4000;0.4485;2.7860;
-188.1000;0.4518;2.7939;
-187.8000;0.4599;2.8097;
-187.5000;0.4501;2.7780;
-187.2000;0.4510;2.7780;
-186.9000;0.4510;2.7728;
-186.6000;0.4501;2.7728;
-186.3000;0.4501;2.7728;
-186.0000;0.4518;2.7860;
-185.7000;0.4501;2.7807;
-185.4000;0.4510;2.7912;
-185.1000;0.4542;2.8071;
-184.8000;0.4518;2.7939;
-184.5000;0.4501;2.7912;
-184.2000;0.4534;2.7991;
-183.9000;0.4526;2.7991;
-183.6000;0.4518;2.8044;
-183.3000;0.4518;2.8044;
-183.0000;0.4518;2.8123;
-182.7000;0.4526;2.8150;
-182.4000;0.4510;2.8123;
-182.1000;0.4534;2.8176;
-181.8000;0.4493;2.8097;
-181.5000;0.4485;2.8150;
-181.2000;0.4493;2.8176;
-180.9000;0.4493;2.8203;
-180.6000;0.4493;2.8308;
-180.3000;0.4420;2.8071;
-180.0000;0.4518;2.8334;
-179.7000;0.4526;2.8414;
-179.4000;0.4493;2.8334;
-179.1000;0.4510;2.8414;
-178.8000;0.4501;2.8361;
-178.5000;0.4510;2.8361;
-178.2000;0.4501;2.8282;
-177.9000;0.4518;2.8308;
-177.6000;0.4510;2.8308;
-177.3000;0.4493;2.8229;
-177.0000;0.4526;2.8255;
-176.7000;0.4518;2.8255;
-176.4000;0.4485;2.8176;
-176.1000;0.4493;2.8176;
-175.8000;0.4510;2.8176;
-175.5000;0.4444;2.7912;
-175.2000;0.4518;2.8176;
-174.9000;0.4501;2.8097;
-174.6000;0.4550;2.8229;
-174.3000;0.4493;2.8044;
-174.0000;0.4501;2.8044;
-173.7000;0.4624;2.8440;
-173.4000;0.4518;2.8255;
-173.1000;0.4501;2.8176;
-172.8000;0.4510;2.8150;
-172.5000;0.4534;2.8097;
-172.2000;0.4567;2.8282;
-171.9000;0.4518;2.8176;
-171.6000;0.4501;2.8176;
-171.3000;0.4518;2.8255;
-171.0000;0.4518;2.8255;
-170.7000;0.4510;2.8071;
-170.4000;0.4510;2.8018;
-170.1000;0.4526;2.7912;
-169.8000;0.4485;2.7701;
-169.5000;0.4518;2.7754;
-169.2000;0.4510;2.7807;
-168.9000;0.4518;2.7807;
-168.6000;0.4501;2.7833;
-168.3000;0.4477;2.7701;
-168.0000;0.4501;2.7701;
-167.7000;0.4534;2.7807;
-167.4000;0.4501;2.7701;
-167.1000;0.4534;2.7912;
-166.8000;0.4534;2.7939;
-166.5000;0.4518;2.7912;
-166.2000;0.4526;2.8018;
-165.9000;0.4526;2.7912;
-165.6000;0.4526;2.7912;
-165.3000;0.4510;2.7886;
-165.0000;0.4510;2.7860;
-164.7000;0.4518;2.7886;
-164.4000;0.4510;2.7833;
-164.1000;0.4485;2.7807;
-163.8000;0.4477;2.7833;
-163.5000;0.4526;2.7991;
-163.2000;0.4510;2.8044;
-162.9000;0.4518;2.8018;
-162.6000;0.4501;2.7991;
-162.3000;0.4501;2.8018;
-162.0000;0.4518;2.8044;
-161.7000;0.4510;2.8097;
-161.4000;0.4477;2.8097;
-161.1000;0.4542;2.8282;
-160.8000;0.4534;2.8282;
-160.5000;0.4518;2.8282;
-160.2000;0.4493;2.8176;
-159.9000;0.4501;2.8176;
-159.6000;0.4510;2.8176;
-159.3000;0.4542;2.8308;
-159.0000;0.4510;2.8203;
-158.7000;0.4493;2.8176;
-158.4000;0.4534;2.8282;
-158.1000;0.4526;2.8123;
-157.8000;0.4518;2.8123;
-157.5000;0.4510;2.8044;
-157.2000;0.4526;2.8018;
-156.9000;0.4526;2.7991;
-156.6000;0.4501;2.7991;
-156.3000;0.4510;2.8018;
-156.0000;0.4510;2.7991;
-155.7000;0.4526;2.8071;
-155.4000;0.4534;2.7991;
-155.1000;0.4510;2.7886;
-154.8000;0.4534;2.7991;
-154.5000;0.4526;2.7965;
-154.2000;0.4493;2.7860;
-153.9000;0.4518;2.7886;
-153.6000;0.4518;2.7939;
-153.3000;0.4510;2.8018;
-153.0000;0.4493;2.7912;
-152.7000;0.4501;2.7912;
-152.4000;0.4510;2.7965;
-152.1000;0.4518;2.7965;
-151.8000;0.4534;2.7939;
-151.5000;0.4428;2.7649;
-151.2000;0.4542;2.7886;
-150.9000;0.4534;2.7886;
-150.6000;0.4550;2.7912;
-150.3000;0.4485;2.7701;
-150.0000;0.4518;2.7754;
-149.7000;0.4526;2.7886;
-149.4000;0.4493;2.7780;
-149.1000;0.4501;2.7860;
-148.8000;0.4518;2.7886;
-148.5000;0.4526;2.7965;
-148.2000;0.4534;2.7939;
-147.9000;0.4542;2.7886;
-147.6000;0.4534;2.7939;
-147.3000;0.4518;2.8018;
-147.0000;0.4534;2.8097;
-146.7000;0.4542;2.8097;
-146.4000;0.4542;2.8018;
-146.1000;0.4518;2.7912;
-145.8000;0.4526;2.8071;
-145.5000;0.4526;2.8150;
-145.2000;0.4510;2.8150;
-144.9000;0.4518;2.8255;
-144.6000;0.4510;2.8176;
-144.3000;0.4510;2.8150;
-144.0000;0.4501;2.8176;
-143.7000;0.4501;2.8255;
-143.4000;0.4575;2.8440;
-143.1000;0.4518;2.8282;
-142.8000;0.4534;2.8334;
-142.5000;0.4510;2.8282;
-142.2000;0.4518;2.8308;
-141.9000;0.4518;2.8387;
-141.6000;0.4444;2.8282;
-141.3000;0.4510;2.8466;
-141.0000;0.4501;2.8493;
-140.7000;0.4493;2.8519;
-140.4000;0.4518;2.8677;
-140.1000;0.4501;2.8651;
-139.8000;0.4477;2.8519;
-139.5000;0.4510;2.8572;
-139.2000;0.4510;2.8493;
-138.9000;0.4501;2.8466;
-138.6000;0.4518;2.8493;
-138.3000;0.4510;2.8546;
-138.0000;0.4510;2.8572;
-137.7000;0.4526;2.8572;
-137.4000;0.4493;2.8440;
-137.1000;0.4542;2.8598;
-136.8000;0.4526;2.8572;
-136.5000;0.4510;2.8466;
-136.2000;0.4518;2.8361;
-135.9000;0.4501;2.8229;
-135.6000;0.4526;2.8255;
-135.3000;0.4428;2.8018;
-135.0000;0.4518;2.8203;
-134.7000;0.4526;2.8203;
-134.4000;0.4420;2.8018;
-134.1000;0.4518;2.8255;
-133.8000;0.4493;2.8150;
-133.5000;0.4485;2.8123;
-133.2000;0.4518;2.8203;
-132.9000;0.4526;2.8176;
-132.6000;0.4510;2.8123;
-132.3000;0.4526;2.8229;
-132.0000;0.4534;2.8176;
-131.7000;0.4542;2.8176;
-131.4000;0.4518;2.8255;
-131.1000;0.4534;2.8282;
-130.8000;0.4518;2.8203;
-130.5000;0.4518;2.8176;
-130.2000;0.4534;2.8176;
-129.9000;0.4526;2.8123;
-129.6000;0.4493;2.7939;
-129.3000;0.4493;2.7991;
-129.0000;0.4510;2.7965;
-128.7000;0.4518;2.7939;
-128.4000;0.4510;2.7886;
-128.1000;0.4510;2.7860;
-127.8000;0.4518;2.7965;
-127.5000;0.4599;2.8176;
-127.2000;0.4501;2.7912;
-126.9000;0.4526;2.7965;
-126.6000;0.4518;2.8097;
-126.3000;0.4510;2.8071;
-126.0000;0.4542;2.8150;
-125.7000;0.4518;2.8176;
-125.4000;0.4510;2.8123;
-125.1000;0.4518;2.8255;
-124.8000;0.4518;2.8282;
-124.5000;0.4575;2.8546;
-124.2000;0.4518;2.8361;
-123.9000;0.4453;2.8282;
-123.6000;0.4518;2.8493;
-123.3000;0.4493;2.8440;
-123.0000;0.4558;2.8572;
-122.7000;0.4518;2.8334;
-122.4000;0.4518;2.8308;
-122.1000;0.4510;2.8282;
-121.8000;0.4558;2.8493;
-121.5000;0.4526;2.8519;
-121.2000;0.4510;2.8466;
-120.9000;0.4501;2.8440;
-120.6000;0.4518;2.8493;
-120.3000;0.4518;2.8572;
-120.0000;0.4518;2.8572;
-119.7000;0.4518;2.8572;
-119.4000;0.4404;2.8282;
-119.1000;0.4510;2.8598;
-118.8000;0.4518;2.8546;
-118.5000;0.4510;2.8493;
-118.2000;0.4477;2.8334;
-117.9000;0.4542;2.8466;
-117.6000;0.4501;2.8361;
-117.3000;0.4510;2.8440;
-117.0000;0.4518;2.8493;
-116.7000;0.4518;2.8440;
-116.4000;0.4518;2.8334;
-116.1000;0.4493;2.8255;
-115.8000;0.4501;2.8176;
-115.5000;0.4526;2.8150;
-115.2000;0.4518;2.8123;
-114.9000;0.4510;2.8255;
-114.6000;0.4493;2.8176;
-114.3000;0.4461;2.8071;
-114.0000;0.4501;2.8123;
-113.7000;0.4542;2.8282;
-113.4000;0.4510;2.8229;
-113.1000;0.4518;2.8176;
-112.8000;0.4518;2.8071;
-112.5000;0.4510;2.8071;
-112.2000;0.4436;2.7728;
-111.9000;0.4510;2.7939;
-111.6000;0.4510;2.7991;
-111.3000;0.4534;2.8123;
-111.0000;0.4510;2.8018;
-110.7000;0.4518;2.8018;
-110.4000;0.4518;2.8123;
-110.1000;0.4518;2.8308;
-109.8000;0.4526;2.8308;
-109.5000;0.4526;2.8255;
-109.2000;0.4510;2.8282;
-108.9000;0.4501;2.8229;
-108.6000;0.4518;2.8176;
-108.3000;0.4510;2.8176;
-108.0000;0.4510;2.8176;
-107.7000;0.4510;2.8176;
-107.4000;0.4510;2.8123;
-107.1000;0.4526;2.8229;
-106.8000;0.4518;2.8282;
-106.5000;0.4485;2.8097;
-106.2000;0.4550;2.8255;
-105.9000;0.4518;2.8229;
-105.6000;0.4501;2.8176;
-105.3000;0.4501;2.8097;
-105.0000;0.4501;2.8176;
-104.7000;0.4542;2.8203;
-104.4000;0.4518;2.8097;
-104.1000;0.4501;2.8097;
-103.8000;0.4501;2.8150;
-103.5000;0.4518;2.8150;
-103.2000;0.4510;2.8150;
-102.9000;0.4485;2.8229;
-102.6000;0.4493;2.8361;
-102.3000;0.4477;2.8282;
-102.0000;0.4510;2.8387;
-101.7000;0.4477;2.8282;
-101.4000;0.4493;2.8414;
-101.1000;0.4493;2.8440;
-100.8000;0.4567;2.8677;
-100.5000;0.4501;2.8440;
-100.2000;0.4518;2.8519;
-99.9000;0.4510;2.8414;
-99.6000;0.4501;2.8334;
-99.3000;0.4501;2.8361;
-99.0000;0.4420;2.8044;
-98.7000;0.4461;2.8150;
-98.4000;0.4526;2.8361;
-98.1000;0.4501;2.8334;
-97.8000;0.4542;2.8361;
-97.5000;0.4493;2.8255;
-97.2000;0.4534;2.8361;
-96.9000;0.4526;2.8440;
-96.6000;0.4510;2.8414;
-96.3000;0.4542;2.8387;
-96.0000;0.4510;2.8150;
-95.7000;0.4510;2.8255;
-95.4000;0.4624;2.8546;
-95.1000;0.4567;2.8308;
-94.8000;0.4518;2.8176;
-94.5000;0.4542;2.8203;
-94.2000;0.4534;2.8203;
-93.9000;0.4510;2.8071;
-93.6000;0.4526;2.8150;
-93.3000;0.4518;2.8071;
-93.0000;0.4493;2.7965;
-92.7000;0.4510;2.7939;
-92.4000;0.4550;2.8044;
-92.1000;0.4510;2.7939;
-91.8000;0.4518;2.8018;
-91.5000;0.4501;2.8044;
-91.2000;0.4477;2.8018;
-90.9000;0.4542;2.8176;
-90.6000;0.4526;2.8071;
-90.3000;0.4477;2.7991;
-90.0000;0.4526;2.8097;
-89.7000;0.4534;2.8044;
-89.4000;0.4526;2.7965;
-89.1000;0.4501;2.7939;
-88.8000;0.4510;2.7886;
-88.5000;0.4501;2.7860;
-88.2000;0.4518;2.7912;
-87.9000;0.4501;2.7912;
-87.6000;0.4526;2.8044;
-87.3000;0.4518;2.7965;
-87.0000;0.4510;2.8018;
-86.7000;0.4526;2.8071;
-86.4000;0.4526;2.8071;
-86.1000;0.4501;2.8044;
-85.8000;0.4518;2.8044;
-85.5000;0.4534;2.8018;
-85.2000;0.4518;2.7939;
-84.9000;0.4510;2.7886;
-84.6000;0.4355;2.7517;
-84.3000;0.4510;2.8018;
-84.0000;0.4534;2.8176;
-83.7000;0.4526;2.8203;
-83.4000;0.4526;2.8229;
-83.1000;0.4501;2.8203;
-82.8000;0.4501;2.8229;
-82.5000;0.4575;2.8546;
-82.2000;0.4526;2.8361;
-81.9000;0.4501;2.8361;
-81.6000;0.4501;2.8414;
-81.3000;0.4526;2.8466;
-81.0000;0.4493;2.8361;
-80.7000;0.4542;2.8546;
-80.4000;0.4550;2.8493;
-80.1000;0.4526;2.8387;
-79.8000;0.4493;2.8308;
-79.5000;0.4510;2.8334;
-79.2000;0.4632;2.8677;
-78.9000;0.4518;2.8334;
-78.6000;0.4493;2.8282;
-78.3000;0.4518;2.8414;
-78.0000;0.4510;2.8440;
-77.7000;0.4542;2.8440;
-77.4000;0.4485;2.8387;
-77.1000;0.4493;2.8334;
-76.8000;0.4518;2.8229;
-76.5000;0.4518;2.8229;
-76.2000;0.4510;2.8150;
-75.9000;0.4493;2.8097;
-75.6000;0.4518;2.8150;
-75.3000;0.4510;2.8150;
-75.0000;0.4428;2.7807;
-74.7000;0.4453;2.8018;
-74.4000;0.4550;2.8282;
-74.1000;0.4534;2.8176;
-73.8000;0.4485;2.8097;
-73.5000;0.4526;2.8282;
-73.2000;0.4510;2.8229;
-72.9000;0.4534;2.8176;
-72.6000;0.4526;2.8176;
-72.3000;0.4510;2.8071;
-72.0000;0.4501;2.8044;
-71.7000;0.4534;2.8071;
-71.4000;0.4526;2.8044;
-71.1000;0.4493;2.7939;
-70.8000;0.4526;2.8018;
-70.5000;0.4501;2.8044;
-70.2000;0.4534;2.8123;
-69.9000;0.4583;2.8176;
-69.6000;0.4534;2.7991;
-69.3000;0.4526;2.8018;
-69.0000;0.4510;2.8018;
-68.7000;0.4534;2.8176;
-68.4000;0.4518;2.8097;
-68.1000;0.4518;2.8123;
-67.8000;0.4526;2.8123;
-67.5000;0.4542;2.8203;
-67.2000;0.4510;2.8176;
-66.9000;0.4501;2.8150;
-66.6000;0.4510;2.8097;
-66.3000;0.4510;2.8071;
-66.0000;0.4510;2.8123;
-65.7000;0.4526;2.8123;
-65.4000;0.4567;2.8229;
-65.1000;0.4510;2.8097;
-64.8000;0.4510;2.8071;
-64.5000;0.4534;2.8176;
-64.2000;0.4493;2.8229;
-63.9000;0.4526;2.8176;
-63.6000;0.4501;2.8123;
-63.3000;0.4493;2.8123;
-63.0000;0.4493;2.8097;
-62.7000;0.4542;2.8176;
-62.4000;0.4550;2.8150;
-62.1000;0.4510;2.8071;
-61.8000;0.4534;2.8150;
-61.5000;0.4510;2.8176;
-61.2000;0.4526;2.8229;
-60.9000;0.4526;2.8203;
-60.6000;0.4485;2.8123;
-60.3000;0.4510;2.8255;
-60.0000;0.4501;2.8308;
-59.7000;0.4469;2.8097;
-59.4000;0.4428;2.8044;
-59.1000;0.4518;2.8361;
-58.8000;0.4518;2.8334;
-58.5000;0.4567;2.8519;
-58.2000;0.4501;2.8255;
-57.9000;0.4518;2.8334;
-57.6000;0.4526;2.8414;
-57.3000;0.4526;2.8361;
-57.0000;0.4526;2.8282;
-56.7000;0.4526;2.8334;
-56.4000;0.4493;2.8308;
-56.1000;0.4518;2.8361;
-55.8000;0.4510;2.8282;
-55.5000;0.4510;2.8229;
-55.2000;0.4501;2.8150;
-54.9000;0.4526;2.8203;
-54.6000;0.4534;2.8334;
-54.3000;0.4526;2.8282;
-54.0000;0.4501;2.8176;
-53.7000;0.4493;2.8097;
-53.4000;0.4526;2.8176;
-53.1000;0.4526;2.8123;
-52.8000;0.4510;2.8097;
-52.5000;0.4518;2.8203;
-52.2000;0.4510;2.8176;
-51.9000;0.4518;2.8097;
-51.6000;0.4534;2.8123;
-51.3000;0.4518;2.8044;
-51.0000;0.4518;2.8044;
-50.7000;0.4575;2.8203;
-50.4000;0.4526;2.8071;
-50.1000;0.4501;2.8018;
-49.8000;0.4518;2.8071;
-49.5000;0.4396;2.7622;
-49.2000;0.4526;2.7833;
-48.9000;0.4518;2.7807;
-48.6000;0.4510;2.7860;
-48.3000;0.4526;2.7833;
-48.0000;0.4526;2.7807;
-47.7000;0.4510;2.7833;
-47.4000;0.4518;2.7939;
-47.1000;0.4526;2.8071;
-46.8000;0.4518;2.8123;
-46.5000;0.4518;2.8097;
-46.2000;0.4518;2.8097;
-45.9000;0.4518;2.8123;
-45.6000;0.4518;2.8203;
-45.3000;0.4510;2.8308;
-45.0000;0.4493;2.8334;
-44.7000;0.4518;2.8466;
-44.4000;0.4428;2.8282;
-44.1000;0.4526;2.8387;
-43.8000;0.4510;2.8334;
-43.5000;0.4469;2.8097;
-43.2000;0.4526;2.8308;
-42.9000;0.4526;2.8334;
-42.6000;0.4493;2.8308;
-42.3000;0.4485;2.8308;
-42.0000;0.4493;2.8440;
-41.7000;0.4493;2.8466;
-41.4000;0.4396;2.8176;
-41.1000;0.4607;2.8809;
-40.8000;0.4477;2.8440;
-40.5000;0.4485;2.8440;
-40.2000;0.4493;2.8519;
-39.9000;0.4501;2.8546;
-39.6000;0.4493;2.8440;
-39.3000;0.4493;2.8414;
-39.0000;0.4518;2.8414;
-38.7000;0.4510;2.8387;
-38.4000;0.4477;2.8361;
-38.1000;0.4501;2.8308;
-37.8000;0.4550;2.8493;
-37.5000;0.4501;2.8308;
-37.2000;0.4501;2.8255;
-36.9000;0.4501;2.8255;
-36.6000;0.4510;2.8282;
-36.3000;0.4518;2.8203;
-36.0000;0.4518;2.8150;
-35.7000;0.4542;2.8150;
-35.4000;0.4518;2.7991;
-35.1000;0.4518;2.7860;
-34.8000;0.4510;2.7886;
-34.5000;0.4558;2.8044;
-34.2000;0.4542;2.8018;
-33.9000;0.4575;2.8097;
-33.6000;0.4518;2.8018;
-33.3000;0.4501;2.7939;
-33.0000;0.4518;2.7991;
-32.7000;0.4575;2.8176;
-32.4000;0.4534;2.8018;
-32.1000;0.4518;2.7939;
-31.8000;0.4518;2.8071;
-31.5000;0.4518;2.7991;
-31.2000;0.4518;2.7939;
-30.9000;0.4534;2.8044;
-30.6000;0.4534;2.7991;
-30.3000;0.4534;2.7991;
-30.0000;0.4542;2.7860;
-29.7000;0.4542;2.7886;
-29.4000;0.4510;2.7728;
-29.1000;0.4534;2.7860;
-28.8000;0.4501;2.7754;
-28.5000;0.4526;2.7833;
-28.2000;0.4518;2.7860;
-27.9000;0.4526;2.7833;
-27.6000;0.4591;2.8044;
-27.3000;0.4510;2.7833;
-27.0000;0.4542;2.7939;
-26.7000;0.4534;2.7939;
-26.4000;0.4518;2.7939;
-26.1000;0.4518;2.7991;
-25.8000;0.4493;2.7860;
-25.5000;0.4510;2.7807;
-25.2000;0.4485;2.7886;
-24.9000;0.4510;2.7939;
-24.6000;0.4510;2.7991;
-24.3000;0.4501;2.8097;
-24.0000;0.4518;2.8203;
-23.7000;0.4493;2.8097;
-23.4000;0.4518;2.8229;
-23.1000;0.4518;2.8255;
-22.8000;0.4501;2.8229;
-22.5000;0.4518;2.8361;
-22.2000;0.4510;2.8414;
-21.9000;0.4518;2.8440;
-21.6000;0.4501;2.8466;
-21.3000;0.4485;2.8466;
-21.0000;0.4485;2.8387;
-20.7000;0.4501;2.8387;
-20.4000;0.4501;2.8387;
-20.1000;0.4518;2.8440;
-19.8000;0.4510;2.8440;
-19.5000;0.4477;2.8361;
-19.2000;0.4396;2.8203;
-18.9000;0.4518;2.8414;
-18.6000;0.4518;2.8334;
-18.3000;0.4526;2.8414;
-18.0000;0.4501;2.8282;
-17.7000;0.4518;2.8308;
-17.4000;0.4510;2.8414;
-17.1000;0.4510;2.8414;
-16.8000;0.4518;2.8387;
-16.5000;0.4575;2.8493;
-16.2000;0.4558;2.8361;
-15.9000;0.4526;2.8150;
-15.6000;0.4510;2.8123;
-15.3000;0.4510;2.8123;
-15.0000;0.4493;2.8018;
-14.7000;0.4501;2.8071;
-14.4000;0.4501;2.8123;
-14.1000;0.4518;2.8255;
-13.8000;0.4510;2.8282;
-13.5000;0.4518;2.8229;
-13.2000;0.4518;2.8203;
-12.9000;0.4518;2.8176;
-12.6000;0.4510;2.8176;
-12.3000;0.4534;2.8123;
-12.0000;0.4493;2.8018;
-11.7000;0.4518;2.8097;
-11.4000;0.4518;2.8123;
-11.1000;0.4510;2.8071;
-10.8000;0.4510;2.8044;
-10.5000;0.4542;2.8229;
-10.2000;0.4534;2.8123;
-9.9000;0.4501;2.8150;
-9.6000;0.4518;2.8123;
-9.3000;0.4518;2.8123;
-9.0000;0.4518;2.8123;
-8.7000;0.4436;2.7780;
-8.4000;0.4542;2.8071;
-8.1000;0.4518;2.7965;
-7.8000;0.4526;2.8018;
-7.5000;0.4526;2.8071;
-7.2000;0.4526;2.7965;
-6.9000;0.4477;2.7860;
-6.6000;0.4526;2.8071;
-6.3000;0.4518;2.7965;
-6.0000;0.4534;2.8018;
-5.7000;0.4510;2.7939;
-5.4000;0.4493;2.7860;
-5.1000;0.4526;2.7912;
-4.8000;0.4518;2.8018;
-4.5000;0.4477;2.7965;
-4.2000;0.4477;2.7991;
-3.9000;0.4518;2.8203;
-3.6000;0.4501;2.8229;
-3.3000;0.4518;2.8176;
-3.0000;0.4510;2.8203;
-2.7000;0.4501;2.8308;
-2.4000;0.4510;2.8414;
-2.1000;0.4501;2.8361;
-1.8000;0.4518;2.8387;
-1.5000;0.4501;2.8387;
-1.2000;0.4518;2.8466;
-0.9000;0.4518;2.8493;
-0.6000;0.4518;2.8466;
-0.3000;0.4518;2.8572;
0.0000;0.4518;2.8572;
0.3000;0.4599;2.8493;
0.6000;0.4811;2.8915;
0.9000;0.4998;2.9390;
1.2000;0.5136;2.9812;
1.5000;0.5258;3.0181;
1.8000;0.5348;3.0551;
2.1000;0.5429;3.0788;
2.4000;0.5470;3.1025;
2.7000;0.5543;3.1368;
3.0000;0.5568;3.1421;
3.3000;0.5584;3.1474;
3.6000;0.5617;3.1659;
3.9000;0.5657;3.1764;
4.2000;0.5690;3.1922;
4.5000;0.5706;3.1870;
4.8000;0.5722;3.1817;
5.1000;0.5747;3.1896;
5.4000;0.5788;3.1922;
5.7000;0.5788;3.1870;
6.0000;0.5779;3.1843;
6.3000;0.5828;3.1922;
6.6000;0.5845;3.1949;
6.9000;0.5845;3.1922;
7.2000;0.5828;3.1843;
7.5000;0.5869;3.1896;
7.8000;0.5869;3.1949;
8.1000;0.5869;3.1975;
8.4000;0.5910;3.2081;
8.7000;0.5910;3.2133;
9.0000;0.5910;3.2107;
9.3000;0.5942;3.2107;
9.6000;0.5942;3.2133;
9.9000;0.5950;3.2213;
10.2000;0.5983;3.2292;
10.5000;0.6040;3.2397;
10.8000;0.5999;3.2239;
11.1000;0.5991;3.2107;
11.4000;0.6040;3.2160;
11.7000;0.6015;3.2028;
12.0000;0.5999;3.2028;
12.3000;0.6064;3.2133;
12.6000;0.6048;3.2054;
12.9000;0.6040;3.2054;
13.2000;0.6040;3.1975;
13.5000;0.6056;3.1949;
13.8000;0.6064;3.2081;
14.1000;0.6064;3.2133;
14.4000;0.6064;3.2186;
14.7000;0.6056;3.2133;
15.0000;0.6064;3.2160;
15.3000;0.6072;3.2213;
15.6000;0.5999;3.2054;
15.9000;0.6072;3.2292;
16.2000;0.6015;3.2107;
16.5000;0.6097;3.2371;
16.8000;0.6113;3.2397;
17.1000;0.6105;3.2371;
17.4000;0.6081;3.2371;
17.7000;0.6105;3.2476;
18.0000;0.6097;3.2424;
18.3000;0.6138;3.2529;
18.6000;0.6170;3.2661;
18.9000;0.6146;3.2503;
19.2000;0.6162;3.2529;
19.5000;0.6146;3.2450;
19.8000;0.6154;3.2424;
20.1000;0.6146;3.2345;
20.4000;0.6170;3.2424;
20.7000;0.6170;3.2397;
21.0000;0.6170;3.2424;
21.3000;0.6162;3.2424;
21.6000;0.6276;3.2635;
21.9000;0.6195;3.2424;
22.2000;0.6195;3.2450;
22.5000;0.6186;3.2371;
22.8000;0.6243;3.2476;
23.1000;0.6186;3.2265;
23.4000;0.6138;3.2107;
23.7000;0.6203;3.2213;
24.0000;0.6203;3.2107;
24.3000;0.6235;3.2160;
24.6000;0.6203;3.2002;
24.9000;0.6227;3.2028;
25.2000;0.6146;3.1843;
25.5000;0.6235;3.2133;
25.8000;0.6260;3.2239;
26.1000;0.6227;3.2160;
26.4000;0.6252;3.2133;
26.7000;0.6227;3.2107;
27.0000;0.6243;3.2107;
27.3000;0.6260;3.2133;
27.6000;0.6260;3.2028;
27.9000;0.6260;3.2002;
28.2000;0.6252;3.2002;
28.5000;0.6260;3.2081;
28.8000;0.6325;3.2239;
29.1000;0.6260;3.2239;
29.4000;0.6276;3.2186;
29.7000;0.6243;3.2107;
30.0000;0.6235;3.2081;
30.3000;0.6260;3.2054;
30.6000;0.6260;3.2028;
30.9000;0.6276;3.2107;
31.2000;0.6309;3.2186;
31.5000;0.6260;3.2133;
31.8000;0.6276;3.2107;
32.1000;0.6284;3.2239;
32.4000;0.6284;3.2107;
32.7000;0.6300;3.2054;
33.0000;0.6276;3.2054;
33.3000;0.6300;3.2186;
33.6000;0.6300;3.2160;
33.9000;0.6300;3.2107;
34.2000;0.6309;3.2133;
34.5000;0.6309;3.2186;
34.8000;0.6317;3.2292;
35.1000;0.6292;3.2265;
35.4000;0.6284;3.2345;
35.7000;0.6309;3.2476;
36.0000;0.6292;3.2371;
36.3000;0.6284;3.2397;
36.6000;0.6170;3.2107;
36.9000;0.6284;3.2503;
37.2000;0.6317;3.2556;
37.5000;0.6276;3.2424;
37.8000;0.6406;3.2846;
38.1000;0.6292;3.2608;
38.4000;0.6284;3.2608;
38.7000;0.6317;3.2582;
39.0000;0.6365;3.2608;
39.3000;0.6243;3.2450;
39.6000;0.6268;3.2529;
39.9000;0.6317;3.2556;
40.2000;0.6309;3.2503;
40.5000;0.6300;3.2529;
40.8000;0.6325;3.2661;
41.1000;0.6325;3.2608;
41.4000;0.6309;3.2635;
41.7000;0.6276;3.2608;
42.0000;0.6309;3.2608;
42.3000;0.6260;3.2503;
42.6000;0.6309;3.2476;
42.9000;0.6300;3.2424;
43.2000;0.6325;3.2397;
43.5000;0.6333;3.2529;
43.8000;0.6325;3.2529;
44.1000;0.6325;3.2503;
44.4000;0.6333;3.2582;
44.7000;0.6325;3.2556;
45.0000;0.6333;3.2556;
45.3000;0.6333;3.2582;
45.6000;0.6341;3.2556;
45.9000;0.6325;3.2450;
46.2000;0.6357;3.2450;
46.5000;0.6349;3.2345;
46.8000;0.6325;3.2318;
47.1000;0.6341;3.2265;
47.4000;0.6309;3.2318;
47.7000;0.6333;3.2345;
48.0000;0.6341;3.2265;
48.3000;0.6341;3.2213;
48.6000;0.6349;3.2213;
48.9000;0.6349;3.2265;
49.2000;0.6365;3.2371;
49.5000;0.6357;3.2424;
49.8000;0.6341;3.2397;
50.1000;0.6365;3.2529;
50.4000;0.6357;3.2450;
50.7000;0.6390;3.2503;
51.0000;0.6365;3.2476;
51.3000;0.6252;3.2186;
51.6000;0.6349;3.2450;
51.9000;0.6341;3.2345;
52.2000;0.6341;3.2318;
52.5000;0.6349;3.2318;
52.8000;0.6349;3.2397;
53.1000;0.6357;3.2371;
53.4000;0.6317;3.2213;
53.7000;0.6349;3.2292;
54.0000;0.6357;3.2239;
54.3000;0.6390;3.2265;
54.6000;0.6349;3.2107;
54.9000;0.6357;3.2133;
55.2000;0.6357;3.2160;
55.5000;0.6365;3.2318;
55.8000;0.6341;3.2318;
56.1000;0.6357;3.2424;
56.4000;0.6341;3.2476;
56.7000;0.6341;3.2371;
57.0000;0.6333;3.2424;
57.3000;0.6309;3.2345;
57.6000;0.6325;3.2292;
57.9000;0.6341;3.2371;
58.2000;0.6374;3.2503;
58.5000;0.6325;3.2476;
58.8000;0.6357;3.2556;
59.1000;0.6349;3.2529;
59.4000;0.6365;3.2529;
59.7000;0.6333;3.2529;
60.0000;0.6349;3.2661;
60.3000;0.6349;3.2661;
60.6000;0.6325;3.2608;
60.9000;0.6333;3.2608;
61.2000;0.6341;3.2582;
61.5000;0.6398;3.2767;
61.8000;0.6341;3.2635;
62.1000;0.6349;3.2608;
62.4000;0.6333;3.2529;
62.7000;0.6333;3.2476;
63.0000;0.6349;3.2556;
63.3000;0.6357;3.2635;
63.6000;0.6341;3.2582;
63.9000;0.6349;3.2476;
64.2000;0.6357;3.2503;
64.5000;0.6333;3.2345;
64.8000;0.6341;3.2318;
65.1000;0.6357;3.2265;
65.4000;0.6365;3.2160;
65.7000;0.6349;3.2081;
66.0000;0.6357;3.2028;
66.3000;0.6374;3.2028;
66.6000;0.6333;3.1922;
66.9000;0.6374;3.2054;
67.2000;0.6341;3.2002;
67.5000;0.6365;3.2081;
67.8000;0.6374;3.2186;
68.1000;0.6365;3.2160;
68.4000;0.6390;3.2133;
68.7000;0.6382;3.2160;
69.0000;0.6382;3.2160;
69.3000;0.6414;3.2186;
69.6000;0.6341;3.2028;
69.9000;0.6382;3.2239;
70.2000;0.6398;3.2265;
70.5000;0.6365;3.2213;
70.8000;0.6382;3.2186;
71.1000;0.6398;3.2213;
71.4000;0.6284;3.2002;
71.7000;0.6382;3.2239;
72.0000;0.6374;3.2265;
72.3000;0.6357;3.2160;
72.6000;0.6374;3.2186;
72.9000;0.6374;3.2160;
73.2000;0.6374;3.2239;
73.5000;0.6398;3.2213;
73.8000;0.6357;3.2160;
74.1000;0.6365;3.2160;
74.4000;0.6390;3.2265;
74.7000;0.6398;3.2345;
75.0000;0.6357;3.2292;
75.3000;0.6357;3.2239;
75.6000;0.6374;3.2265;
75.9000;0.6374;3.2371;
76.2000;0.6365;3.2345;
76.5000;0.6365;3.2424;
76.8000;0.6390;3.2529;
77.1000;0.6365;3.2529;
77.4000;0.6374;3.2582;
77.7000;0.6365;3.2529;
78.0000;0.6365;3.2424;
78.3000;0.6357;3.2424;
78.6000;0.6349;3.2397;
78.9000;0.6357;3.2476;
79.2000;0.6365;3.2529;
79.5000;0.6374;3.2529;
79.8000;0.6479;3.2793;
80.1000;0.6365;3.2476;
80.4000;0.6365;3.2529;
80.7000;0.6357;3.2529;
81.0000;0.6374;3.2608;
81.3000;0.6349;3.2476;
81.6000;0.6341;3.2397;
81.9000;0.6382;3.2345;
82.2000;0.6374;3.2265;
82.5000;0.6382;3.2186;
82.8000;0.6357;3.2160;
83.1000;0.6374;3.2239;
83.4000;0.6349;3.2133;
83.7000;0.6374;3.2054;
84.0000;0.6390;3.1975;
84.3000;0.6382;3.1975;
84.6000;0.6382;3.2160;
84.9000;0.6414;3.2213;
85.2000;0.6382;3.2160;
85.5000;0.6365;3.2186;
85.8000;0.6398;3.2160;
86.1000;0.6390;3.2107;
86.4000;0.6382;3.2186;
86.7000;0.6382;3.2213;
87.0000;0.6390;3.2345;
87.3000;0.6325;3.2107;
87.6000;0.6382;3.2239;
87.9000;0.6374;3.2213;
88.2000;0.6374;3.2318;
88.5000;0.6382;3.2239;
88.8000;0.6374;3.2213;
89.1000;0.6374;3.2213;
89.4000;0.6374;3.2186;
89.7000;0.6374;3.2239;
90.0000;0.6390;3.2239;
90.3000;0.6374;3.2081;
90.6000;0.6382;3.2081;
90.9000;0.6382;3.2054;
91.2000;0.6398;3.2160;
91.5000;0.6414;3.2133;
91.8000;0.6390;3.2107;
92.1000;0.6447;3.2292;
92.4000;0.6398;3.2107;
92.7000;0.6357;3.2002;
93.0000;0.6382;3.2133;
93.3000;0.6390;3.2239;
93.6000;0.6365;3.2265;
93.9000;0.6374;3.2292;
94.2000;0.6374;3.2213;
94.5000;0.6365;3.2133;
94.8000;0.6374;3.2186;
95.1000;0.6382;3.2239;
95.4000;0.6382;3.2160;
95.7000;0.6374;3.2160;
96.0000;0.6447;3.2397;
96.3000;0.6357;3.2239;
96.6000;0.6382;3.2292;
96.9000;0.6406;3.2292;
97.2000;0.6365;3.2265;
97.5000;0.6382;3.2318;
97.8000;0.6455;3.2345;
98.1000;0.6382;3.2160;
98.4000;0.6382;3.2213;
98.7000;0.6398;3.2318;
99.0000;0.6447;3.2529;
99.3000;0.6365;3.2397;
99.6000;0.6390;3.2556;
99.9000;0.6365;3.2450;
100.2000;0.6365;3.2529;
100.5000;0.6447;3.2714;
100.8000;0.6365;3.2556;
101.1000;0.6382;3.2529;
101.4000;0.6374;3.2503;
101.7000;0.6365;3.2476;
102.0000;0.6365;3.2397;
102.3000;0.6382;3.2424;
102.6000;0.6374;3.2345;
102.9000;0.6333;3.2186;
103.2000;0.6382;3.2318;
103.5000;0.6357;3.2318;
103.8000;0.6374;3.2318;
104.1000;0.6365;3.2265;
104.4000;0.6357;3.2213;
104.7000;0.6365;3.2186;
105.0000;0.6365;3.2186;
105.3000;0.6390;3.2160;
105.6000;0.6382;3.2186;
105.9000;0.6374;3.2213;
106.2000;0.6382;3.2186;
106.5000;0.6406;3.2265;
106.8000;0.6382;3.2239;
107.1000;0.6357;3.2160;
107.4000;0.6406;3.2265;
107.7000;0.6357;3.2133;
108.0000;0.6398;3.2265;
108.3000;0.6374;3.2107;
108.6000;0.6382;3.2186;
108.9000;0.6398;3.2292;
109.2000;0.6365;3.2213;
109.5000;0.6382;3.2160;
109.8000;0.6365;3.2081;
110.1000;0.6390;3.2186;
110.4000;0.6374;3.2292;
110.7000;0.6374;3.2292;
111.0000;0.6365;3.2265;
111.3000;0.6496;3.2608;
111.6000;0.6553;3.2608;
111.9000;0.6382;3.2028;
112.2000;0.6365;3.2107;
112.5000;0.6455;3.2292;
112.8000;0.6406;3.2186;
113.1000;0.6406;3.2133;
113.4000;0.6398;3.2186;
113.7000;0.6374;3.2160;
114.0000;0.6374;3.2107;
114.3000;0.6390;3.2239;
114.6000;0.6365;3.2160;
114.9000;0.6365;3.2133;
115.2000;0.6382;3.2213;
115.5000;0.6406;3.2397;
115.8000;0.6374;3.2292;
116.1000;0.6349;3.2213;
116.4000;0.6382;3.2318;
116.7000;0.6365;3.2318;
117.0000;0.6398;3.2397;
117.3000;0.6374;3.2424;
117.6000;0.6374;3.2476;
117.9000;0.6374;3.2397;
118.2000;0.6349;3.2450;
118.5000;0.6374;3.2450;
118.8000;0.6365;3.2476;
119.1000;0.6406;3.2529;
119.4000;0.6325;3.2345;
119.7000;0.6374;3.2450;
120.0000;0.6374;3.2450;
120.3000;0.6365;3.2582;
120.6000;0.6365;3.2503;
120.9000;0.6365;3.2345;
121.2000;0.6349;3.2186;
121.5000;0.6390;3.2213;
121.8000;0.6374;3.2239;
122.1000;0.6447;3.2450;
122.4000;0.6357;3.2133;
122.7000;0.6325;3.2160;
123.0000;0.6406;3.2345;
123.3000;0.6317;3.2054;
123.6000;0.6357;3.2213;
123.9000;0.6406;3.2371;
124.2000;0.6390;3.2239;
124.5000;0.6382;3.2186;
124.8000;0.6374;3.2081;
125.1000;0.6382;3.2081;
125.4000;0.6390;3.2054;
125.7000;0.6390;3.2028;
126.0000;0.6390;3.2081;
126.3000;0.6390;3.2054;
126.6000;0.6390;3.2160;
126.9000;0.6227;3.1738;
127.2000;0.6374;3.2186;
127.5000;0.6365;3.2265;
127.8000;0.6365;3.2265;
128.1000;0.6406;3.2318;
128.4000;0.6309;3.2002;
128.7000;0.6252;3.1870;
129.0000;0.6382;3.2160;
129.3000;0.6374;3.2160;
129.6000;0.6414;3.2213;
129.9000;0.6390;3.2160;
130.2000;0.6398;3.2133;
130.5000;0.6382;3.2133;
130.8000;0.6431;3.2345;
131.1000;0.6390;3.2160;
131.4000;0.6398;3.2239;
131.7000;0.6374;3.2054;
132.0000;0.6365;3.1949;
132.3000;0.6357;3.1843;
132.6000;0.6406;3.2028;
132.9000;0.6365;3.2002;
133.2000;0.6365;3.2028;
133.5000;0.6398;3.2107;
133.8000;0.6365;3.2028;
134.1000;0.6431;3.2292;
134.4000;0.6374;3.2160;
134.7000;0.6382;3.2265;
135.0000;0.6422;3.2397;
135.3000;0.6357;3.2160;
135.6000;0.6431;3.2292;
135.9000;0.6374;3.2186;
136.2000;0.6357;3.2213;
136.5000;0.6414;3.2424;
136.8000;0.6374;3.2292;
137.1000;0.6471;3.2556;
137.4000;0.6398;3.2345;
137.7000;0.6374;3.2160;
138.0000;0.6455;3.2424;
138.3000;0.6390;3.2265;
138.6000;0.6374;3.2318;
138.9000;0.6365;3.2345;
139.2000;0.6374;3.2397;
139.5000;0.6382;3.2424;
139.8000;0.6357;3.2424;
140.1000;0.6382;3.2556;
140.4000;0.6382;3.2556;
140.7000;0.6365;3.2424;
141.0000;0.6496;3.2714;
141.3000;0.6357;3.2318;
141.6000;0.6374;3.2345;
141.9000;0.6390;3.2292;
142.2000;0.6365;3.2265;
142.5000;0.6374;3.2318;
142.8000;0.6374;3.2292;
143.1000;0.6365;3.2239;
143.4000;0.6414;3.2397;
143.7000;0.6374;3.2239;
144.0000;0.6374;3.2239;
144.3000;0.6357;3.2213;
144.6000;0.6422;3.2292;
144.9000;0.6365;3.2133;
145.2000;0.6325;3.1975;
145.5000;0.6471;3.2345;
145.8000;0.6382;3.2081;
146.1000;0.6333;3.1975;
146.4000;0.6398;3.2186;
146.7000;0.6390;3.2133;
147.0000;0.6390;3.2133;
147.3000;0.6390;3.2160;
147.6000;0.6382;3.2186;
147.9000;0.6374;3.2107;
148.2000;0.6406;3.2081;
148.5000;0.6390;3.2002;
148.8000;0.6333;3.1922;
149.1000;0.6439;3.2107;
149.4000;0.6390;3.2081;
149.7000;0.6390;3.2028;
150.0000;0.6374;3.1896;
150.3000;0.6398;3.1896;
150.6000;0.6349;3.1817;
150.9000;0.6439;3.2054;
151.2000;0.6382;3.1949;
151.5000;0.6390;3.1975;
151.8000;0.6333;3.1843;
152.1000;0.6406;3.2107;
152.4000;0.6463;3.2265;
152.7000;0.6365;3.2028;
153.0000;0.6390;3.2081;
153.3000;0.6398;3.2107;
153.6000;0.6406;3.2160;
153.9000;0.6341;3.1949;
154.2000;0.6390;3.2107;
154.5000;0.6382;3.2133;
154.8000;0.6333;3.2002;
155.1000;0.6365;3.2186;
155.4000;0.6390;3.2292;
155.7000;0.6374;3.2186;
156.0000;0.6382;3.2239;
156.3000;0.6357;3.2292;
156.6000;0.6357;3.2265;
156.9000;0.6357;3.2239;
157.2000;0.6365;3.2318;
157.5000;0.6365;3.2371;
157.8000;0.6365;3.2345;
158.1000;0.6382;3.2371;
158.4000;0.6382;3.2424;
158.7000;0.6374;3.2397;
159.0000;0.6374;3.2450;
159.3000;0.6365;3.2371;
159.6000;0.6374;3.2397;
159.9000;0.6390;3.2476;
160.2000;0.6365;3.2424;
160.5000;0.6374;3.2450;
160.8000;0.6382;3.2503;
161.1000;0.6365;3.2529;
161.4000;0.6365;3.2529;
161.7000;0.6374;3.2476;
162.0000;0.6365;3.2371;
162.3000;0.6390;3.2424;
162.6000;0.6390;3.2424;
162.9000;0.6398;3.2345;
163.2000;0.6390;3.2371;
163.5000;0.6333;3.2239;
163.8000;0.6390;3.2318;
164.1000;0.6390;3.2371;
164.4000;0.6349;3.2265;
164.7000;0.6390;3.2265;
165.0000;0.6382;3.2265;
165.3000;0.6390;3.2160;
165.6000;0.6365;3.2054;
165.9000;0.6374;3.2133;
166.2000;0.6390;3.2107;
166.5000;0.6390;3.2107;
166.8000;0.6390;3.2133;
167.1000;0.6374;3.2160;
167.4000;0.6374;3.2160;
167.7000;0.6365;3.2213;
168.0000;0.6374;3.2213;
168.3000;0.6382;3.2213;
168.6000;0.6439;3.2292;
168.9000;0.6374;3.2081;
169.2000;0.6292;3.1764;
169.5000;0.6382;3.2002;
169.8000;0.6488;3.2265;
170.1000;0.6471;3.2318;
170.4000;0.6398;3.2028;
170.7000;0.6309;3.1843;
171.0000;0.6431;3.2107;
171.3000;0.6398;3.2002;
171.6000;0.6406;3.1922;
171.9000;0.6374;3.1896;
172.2000;0.6374;3.1922;
172.5000;0.6374;3.1949;
172.8000;0.6382;3.1922;
173.1000;0.6398;3.1922;
173.4000;0.6390;3.1922;
173.7000;0.6382;3.1922;
174.0000;0.6382;3.2133;
174.3000;0.6390;3.2133;
174.6000;0.6374;3.2107;
174.9000;0.6357;3.2107;
175.2000;0.6496;3.2556;
175.5000;0.6374;3.2239;
175.8000;0.6382;3.2292;
176.1000;0.6365;3.2239;
176.4000;0.6406;3.2424;
176.7000;0.6382;3.2371;
177.0000;0.6365;3.2397;
177.3000;0.6365;3.2424;
177.6000;0.6357;3.2397;
177.9000;0.6365;3.2318;
178.2000;0.6374;3.2292;
178.5000;0.6374;3.2371;
178.8000;0.6365;3.2424;
179.1000;0.6365;3.2450;
179.4000;0.6382;3.2397;
179.7000;0.6365;3.2371;
180.0000;0.6365;3.2345;
180.3000;0.6374;3.2345;
180.6000;0.6357;3.2292;
180.9000;0.6357;3.2239;
181.2000;0.6365;3.2318;
181.5000;0.6390;3.2450;
181.8000;0.6374;3.2345;
182.1000;0.6390;3.2318;
182.4000;0.6382;3.2318;
182.7000;0.6365;3.2186;
183.0000;0.6390;3.2265;
183.3000;0.6382;3.2265;
183.6000;0.6390;3.2345;
183.9000;0.6398;3.2397;
184.2000;0.6398;3.2345;
184.5000;0.6333;3.2133;
184.8000;0.6382;3.2265;
185.1000;0.6390;3.2265;
185.4000;0.6365;3.2133;
185.7000;0.6357;3.2002;
186.0000;0.6390;3.1975;
186.3000;0.6365;3.1949;
186.6000;0.6349;3.1949;
186.9000;0.6390;3.2028;
187.2000;0.6374;3.1975;
187.5000;0.6398;3.2054;
187.8000;0.6365;3.2028;
188.1000;0.6390;3.2107;
188.4000;0.6390;3.2107;
188.7000;0.6382;3.2133;
189.0000;0.6365;3.2002;
189.3000;0.6390;3.1949;
189.6000;0.6406;3.2002;
189.9000;0.6382;3.1949;
190.2000;0.6390;3.1975;
190.5000;0.6398;3.2028;
190.8000;0.6390;3.2002;
191.1000;0.6365;3.1922;
191.4000;0.6382;3.1949;
191.7000;0.6382;3.2002;
192.0000;0.6398;3.2081;
192.3000;0.6374;3.2002;
192.6000;0.6325;3.1791;
192.9000;0.6382;3.1870;
193.2000;0.6382;3.1922;
193.5000;0.6382;3.1949;
193.8000;0.6390;3.1870;
194.1000;0.6341;3.1791;
194.4000;0.6374;3.1870;
194.7000;0.6390;3.1764;
195.0000;0.6382;3.1711;
195.3000;0.6374;3.1685;
195.6000;0.6365;3.1711;
195.9000;0.6390;3.1870;
196.2000;0.6365;3.1896;
196.5000;0.6365;3.1922;
196.8000;0.6374;3.1975;
197.1000;0.6374;3.2054;
197.4000;0.6374;3.2081;
197.7000;0.6357;3.2028;
198.0000;0.6382;3.2133;
198.3000;0.6374;3.1975;
198.6000;0.6390;3.1922;
198.9000;0.6374;3.1949;
199.2000;0.6349;3.2028;
199.5000;0.6365;3.2107;
199.8000;0.6374;3.2107;
200.1000;0.6374;3.2054;
200.4000;0.6365;3.2002;
200.7000;0.6374;3.2002;
201.0000;0.6390;3.2081;
201.3000;0.6374;3.2028;
201.6000;0.6374;3.2028;
201.9000;0.6333;3.1949;
202.2000;0.6374;3.2028;
202.5000;0.6374;3.1922;
202.8000;0.6374;3.1922;
203.1000;0.6374;3.1870;
203.4000;0.6365;3.1764;
203.7000;0.6365;3.1843;
204.0000;0.6382;3.1764;
204.3000;0.6374;3.1843;
204.6000;0.6374;3.1791;
204.9000;0.6341;3.1606;
205.2000;0.6374;3.1738;
205.5000;0.6382;3.1791;
205.8000;0.6406;3.1870;
206.1000;0.6365;3.1817;
206.4000;0.6349;3.1817;
206.7000;0.6374;3.1896;
207.0000;0.6382;3.1922;
207.3000;0.6390;3.1922;
207.6000;0.6382;3.1949;
207.9000;0.6357;3.1817;
208.2000;0.6374;3.1922;
208.5000;0.6390;3.2002;
208.8000;0.6390;3.1975;
209.1000;0.6390;3.2002;
209.4000;0.6390;3.1949;
209.7000;0.6406;3.1922;
210.0000;0.6390;3.1922;
210.3000;0.6365;3.1896;
210.6000;0.6374;3.1817;
210.9000;0.6398;3.1870;
211.2000;0.6382;3.1764;
211.5000;0.6406;3.1922;
211.8000;0.6365;3.1738;
212.1000;0.6374;3.1738;
212.4000;0.6390;3.1791;
212.7000;0.6365;3.1791;
213.0000;0.6374;3.1738;
213.3000;0.6374;3.1711;
213.6000;0.6374;3.1738;
213.9000;0.6382;3.1738;
214.2000;0.6365;3.1738;
214.5000;0.6349;3.1711;
214.8000;0.6447;3.1896;
215.1000;0.6374;3.1711;
215.4000;0.6333;3.1632;
215.7000;0.6365;3.1711;
216.0000;0.6374;3.1685;
216.3000;0.6382;3.1791;
216.6000;0.6357;3.1791;
216.9000;0.6365;3.1870;
217.2000;0.6374;3.1896;
217.5000;0.6365;3.1922;
217.8000;0.6349;3.1975;
218.1000;0.6357;3.2081;
218.4000;0.6309;3.1949;
218.7000;0.6382;3.2081;
219.0000;0.6374;3.2028;
219.3000;0.6349;3.2002;
219.6000;0.6374;3.2028;
219.9000;0.6496;3.2318;
220.2000;0.6374;3.2107;
220.5000;0.6365;3.2002;
220.8000;0.6382;3.1922;
221.1000;0.6382;3.2002;
221.4000;0.6439;3.2160;
221.7000;0.6357;3.2002;
222.0000;0.6455;3.2265;
222.3000;0.6431;3.2239;
222.6000;0.6374;3.2054;
222.9000;0.6374;3.1975;
223.2000;0.6374;3.1870;
223.5000;0.6365;3.1791;
223.8000;0.6382;3.1843;
224.1000;0.6406;3.1975;
224.4000;0.6382;3.1975;
224.7000;0.6357;3.1843;
225.0000;0.6374;3.1975;
225.3000;0.6390;3.1949;
225.6000;0.6382;3.1922;
225.9000;0.6374;3.1817;
226.2000;0.6357;3.1870;
226.5000;0.6439;3.2028;
226.8000;0.6374;3.1922;
227.1000;0.6357;3.1922;
227.4000;0.6390;3.1975;
227.7000;0.6374;3.1949;
228.0000;0.6365;3.1843;
228.3000;0.6365;3.1817;
228.6000;0.6488;3.2213;
228.9000;0.6357;3.1922;
229.2000;0.6382;3.1949;
229.5000;0.6374;3.1949;
229.8000;0.6374;3.1896;
230.1000;0.6357;3.1949;
230.4000;0.6374;3.2028;
230.7000;0.6382;3.1949;
231.0000;0.6374;3.1896;
231.3000;0.6382;3.1949;
231.6000;0.6390;3.1896;
231.9000;0.6317;3.1632;
232.2000;0.6390;3.1791;
232.5000;0.6309;3.1474;
232.8000;0.6390;3.1632;
233.1000;0.6382;3.1632;
233.4000;0.6382;3.1685;
233.7000;0.6374;3.1685;
234.0000;0.6382;3.1738;
234.3000;0.6382;3.1738;
234.6000;0.6374;3.1738;
234.9000;0.6365;3.1791;
235.2000;0.6390;3.1922;
235.5000;0.6398;3.1922;
235.8000;0.6365;3.1922;
236.1000;0.6357;3.1975;
236.4000;0.6374;3.2028;
236.7000;0.6349;3.1896;
237.0000;0.6341;3.1843;
237.3000;0.6382;3.1949;
237.6000;0.6365;3.1975;
237.9000;0.6422;3.2133;
238.2000;0.6365;3.2081;
238.5000;0.6365;3.2028;
238.8000;0.6471;3.2292;
239.1000;0.6365;3.2002;
239.4000;0.6341;3.1975;
239.7000;0.6349;3.1896;
240.0000;0.6382;3.2002;
240.3000;0.6382;3.2081;
240.6000;0.6365;3.2107;
240.9000;0.6341;3.1949;
241.2000;0.6357;3.1922;
241.5000;0.6349;3.1817;
241.8000;0.6382;3.1870;
242.1000;0.6374;3.1843;
242.4000;0.6341;3.1843;
242.7000;0.6357;3.1870;
243.0000;0.6365;3.1949;
243.3000;0.6398;3.2002;
243.6000;0.6276;3.1738;
243.9000;0.6349;3.1685;
244.2000;0.6341;3.1606;
244.5000;0.6357;3.1527;
244.8000;0.6365;3.1685;
245.1000;0.6365;3.1632;
245.4000;0.6439;3.1738;
245.7000;0.6374;3.1553;
246.0000;0.6365;3.1527;
246.3000;0.6414;3.1606;
246.6000;0.6390;3.1579;
246.9000;0.6382;3.1606;
247.2000;0.6374;3.1527;
247.5000;0.6390;3.1579;
247.8000;0.6374;3.1579;
248.1000;0.6382;3.1553;
248.4000;0.6382;3.1685;
248.7000;0.6374;3.1711;
249.0000;0.6365;3.1659;
249.3000;0.6357;3.1579;
249.6000;0.6374;3.1738;
249.9000;0.6382;3.1843;
250.2000;0.6365;3.1685;
250.5000;0.6374;3.1685;
250.8000;0.6390;3.1711;
251.1000;0.6374;3.1579;
251.4000;0.6374;3.1553;
251.7000;0.6398;3.1659;
252.0000;0.6382;3.1606;
252.3000;0.6398;3.1738;
252.6000;0.6382;3.1685;
252.9000;0.6374;3.1764;
253.2000;0.6374;3.1791;
253.5000;0.6398;3.1922;
253.8000;0.6455;3.2160;
254.1000;0.6382;3.1975;
254.4000;0.6357;3.1922;
254.7000;0.6374;3.2002;
255.0000;0.6414;3.2028;
255.3000;0.6374;3.1949;
255.6000;0.6349;3.1843;
255.9000;0.6398;3.2054;
256.2000;0.6365;3.2081;
256.5000;0.6357;3.2081;
256.8000;0.6439;3.2292;
257.1000;0.6357;3.2107;
257.4000;0.6349;3.2107;
257.7000;0.6309;3.2081;
258.0000;0.6284;3.2054;
258.3000;0.6365;3.2133;
258.6000;0.6349;3.2133;
258.9000;0.6488;3.2503;
259.2000;0.6357;3.2186;
259.5000;0.6357;3.2160;
259.8000;0.6357;3.2213;
260.1000;0.6357;3.2213;
260.4000;0.6349;3.2186;
260.7000;0.6390;3.2186;
261.0000;0.6374;3.2054;
261.3000;0.6382;3.2133;
261.6000;0.6496;3.2345;
261.9000;0.6382;3.2028;
262.2000;0.6317;3.1870;
262.5000;0.6406;3.2081;
262.8000;0.6357;3.2081;
263.1000;0.6382;3.2054;
263.4000;0.6374;3.2002;
263.7000;0.6349;3.1922;
264.0000;0.6382;3.1922;
264.3000;0.6349;3.1791;
264.6000;0.6374;3.1949;
264.9000;0.6382;3.1896;
265.2000;0.6357;3.1738;
265.5000;0.6382;3.1738;
265.8000;0.6382;3.1896;
266.1000;0.6374;3.1922;
266.4000;0.6382;3.1896;
266.7000;0.6382;3.1949;
267.0000;0.6390;3.2002;
267.3000;0.6382;3.1922;
267.6000;0.6382;3.1949;
267.9000;0.6374;3.1949;
268.2000;0.6382;3.2002;
268.5000;0.6374;3.2002;
268.8000;0.6382;3.1975;
269.1000;0.6390;3.1949;
269.4000;0.6398;3.1949;
269.7000;0.6398;3.2002;
270.0000;0.6374;3.1975;
270.3000;0.6398;3.2002;
270.6000;0.6390;3.2002;
270.9000;0.6382;3.1896;
271.2000;0.6398;3.2002;
271.5000;0.6406;3.2054;
271.8000;0.6365;3.1922;
272.1000;0.6390;3.1949;
272.4000;0.6414;3.1922;
272.7000;0.6382;3.1817;
273.0000;0.6365;3.1764;
273.3000;0.6374;3.1843;
273.6000;0.6365;3.1817;
273.9000;0.6365;3.1949;
274.2000;0.6365;3.2028;
274.5000;0.6365;3.2081;
274.8000;0.6398;3.2160;
275.1000;0.6374;3.2107;
275.4000;0.6333;3.1870;
275.7000;0.6390;3.2002;
276.0000;0.6341;3.1975;
276.3000;0.6357;3.2002;
276.6000;0.6341;3.2002;
276.9000;0.6357;3.2054;
277.2000;0.6374;3.2081;
277.5000;0.6341;3.1975;
277.8000;0.6276;3.1896;
278.1000;0.6390;3.2318;
278.4000;0.6357;3.2160;
278.7000;0.6398;3.2265;
279.0000;0.6374;3.2265;
279.3000;0.6382;3.2424;
279.6000;0.6365;3.2397;
279.9000;0.6365;3.2397;
280.2000;0.6382;3.2424;
280.5000;0.6374;3.2476;
280.8000;0.6382;3.2476;
281.1000;0.6374;3.2424;
281.4000;0.6382;3.2476;
281.7000;0.6365;3.2397;
282.0000;0.6365;3.2371;
282.3000;0.6455;3.2529;
282.6000;0.6382;3.2318;
282.9000;0.6374;3.2292;
283.2000;0.6365;3.2213;
283.5000;0.6398;3.2239;
283.8000;0.6374;3.2160;
284.1000;0.6382;3.2133;
284.4000;0.6357;3.2107;
284.7000;0.6300;3.1922;
285.0000;0.6374;3.2133;
285.3000;0.6374;3.2133;
285.6000;0.6374;3.2054;
285.9000;0.6365;3.1896;
286.2000;0.6365;3.1949;
286.5000;0.6439;3.2239;
286.8000;0.6374;3.2133;
287.1000;0.6365;3.2028;
287.4000;0.6349;3.2133;
287.7000;0.6365;3.2107;
288.0000;0.6341;3.1975;
288.3000;0.6374;3.2054;
288.6000;0.6382;3.2133;
288.9000;0.6382;3.2081;
289.2000;0.6382;3.2107;
289.5000;0.6382;3.2028;
289.8000;0.6365;3.1870;
290.1000;0.6374;3.1975;
290.4000;0.6390;3.2081;
290.7000;0.6390;3.2081;
291.0000;0.6374;3.2107;
291.3000;0.6374;3.2160;
291.6000;0.6439;3.2186;
291.9000;0.6398;3.2081;
292.2000;0.6374;3.1975;
292.5000;0.6325;3.1817;
292.8000;0.6382;3.1896;
293.1000;0.6357;3.1870;
293.4000;0.6382;3.1896;
293.7000;0.6374;3.1896;
294.0000;0.6365;3.1949;
294.3000;0.6374;3.1922;
294.6000;0.6374;3.1975;
294.9000;0.6357;3.1922;
295.2000;0.6357;3.1975;
295.5000;0.6333;3.1843;
295.8000;0.6390;3.2002;
296.1000;0.6382;3.1975;
296.4000;0.6349;3.1922;
296.7000;0.6374;3.2081;
297.0000;0.6382;3.2028;
297.3000;0.6357;3.2054;
297.6000;0.6365;3.2054;
297.9000;0.6382;3.2133;
298.2000;0.6365;3.2160;
298.5000;0.6374;3.2186;
298.8000;0.6300;3.2054;
299.1000;0.6357;3.2292;
299.4000;0.6357;3.2397;
299.7000;0.6325;3.2371;
300.0000;0.6357;3.2397;
300.3000;0.6349;3.2371;
300.6000;0.6382;3.2450;
300.9000;0.6268;3.2054;
301.2000;0.6341;3.2186;
301.5000;0.6325;3.2107;
301.8000;0.6382;3.2318;
302.1000;0.6357;3.2239;
302.4000;0.6374;3.2213;
302.7000;0.6374;3.2186;
303.0000;0.6463;3.2503;
303.3000;0.6390;3.2186;
303.6000;0.6406;3.2160;
303.9000;0.6365;3.2002;
304.2000;0.6390;3.1975;
304.5000;0.6374;3.1922;
304.8000;0.6365;3.1896;
305.1000;0.6357;3.1922;
305.4000;0.6374;3.2028;
305.7000;0.6390;3.2107;
306.0000;0.6382;3.2160;
306.3000;0.6349;3.2107;
306.6000;0.6365;3.2213;
306.9000;0.6365;3.2239;
307.2000;0.6398;3.2186;
307.5000;0.6349;3.2002;
307.8000;0.6341;3.2028;
308.1000;0.6390;3.2133;
308.4000;0.6390;3.2107;
308.7000;0.6422;3.2133;
309.0000;0.6382;3.2002;
309.3000;0.6365;3.2054;
309.6000;0.6406;3.2186;
309.9000;0.6390;3.2107;
310.2000;0.6365;3.2160;
310.5000;0.6349;3.2054;
310.8000;0.6374;3.2054;
311.1000;0.6365;3.2028;
311.4000;0.6431;3.2186;
311.7000;0.6357;3.1975;
312.0000;0.6357;3.1817;
312.3000;0.6382;3.1843;
312.6000;0.6398;3.1975;
312.9000;0.6374;3.2028;
313.2000;0.6398;3.2160;
313.5000;0.6382;3.2002;
313.8000;0.6471;3.2318;
314.1000;0.6374;3.1975;
314.4000;0.6325;3.1843;
314.7000;0.6365;3.1975;
315.0000;0.6357;3.2028;
315.3000;0.6365;3.2081;
315.6000;0.6357;3.2133;
315.9000;0.6349;3.2054;
316.2000;0.6374;3.2133;
316.5000;0.6390;3.2186;
316.8000;0.6349;3.2133;
317.1000;0.6349;3.2160;
317.4000;0.6365;3.2265;
317.7000;0.6357;3.2292;
318.0000;0.6349;3.2265;
318.3000;0.6333;3.2213;
318.6000;0.6382;3.2476;
318.9000;0.6422;3.2556;
319.2000;0.6349;3.2265;
319.5000;0.6382;3.2424;
319.8000;0.6357;3.2213;
320.1000;0.6365;3.2186;
320.4000;0.6365;3.2371;
320.7000;0.6349;3.2318;
321.0000;0.6341;3.2265;
321.3000;0.6357;3.2371;
321.6000;0.6374;3.2292;
321.9000;0.6341;3.2265;
322.2000;0.6357;3.2239;
322.5000;0.6349;3.2160;
322.8000;0.6300;3.2002;
323.1000;0.6349;3.2133;
323.4000;0.6374;3.2213;
323.7000;0.6357;3.2213;
324.0000;0.6382;3.2318;
324.3000;0.6349;3.2213;
324.6000;0.6300;3.2002;
324.9000;0.6357;3.2107;
325.2000;0.6317;3.1975;
325.5000;0.6309;3.1896;
325.8000;0.6398;3.2107;
326.1000;0.6357;3.2002;
326.4000;0.6374;3.2028;
326.7000;0.6374;3.2002;
327.0000;0.6349;3.1922;
327.3000;0.6365;3.1791;
327.6000;0.6357;3.1791;
327.9000;0.6365;3.1764;
328.2000;0.6374;3.1817;
328.5000;0.6357;3.1817;
328.8000;0.6374;3.1843;
329.1000;0.6374;3.1949;
329.4000;0.6357;3.1896;
329.7000;0.6365;3.1922;
330.0000;0.6382;3.1922;
330.3000;0.6357;3.1870;
330.6000;0.6365;3.1896;
330.9000;0.6365;3.1870;
331.2000;0.6374;3.1870;
331.5000;0.6374;3.1896;
331.8000;0.6374;3.1922;
332.1000;0.6374;3.1870;
332.4000;0.6357;3.1870;
332.7000;0.6382;3.1975;
333.0000;0.6390;3.2028;
333.3000;0.6382;3.2028;
333.6000;0.6382;3.2002;
333.9000;0.6365;3.1949;
334.2000;0.6357;3.1896;
334.5000;0.6357;3.1922;
334.8000;0.6374;3.2002;
335.1000;0.6382;3.2028;
335.4000;0.6333;3.1949;
335.7000;0.6341;3.2081;
336.0000;0.6357;3.2160;
336.3000;0.6341;3.2213;
336.6000;0.6365;3.2371;
336.9000;0.6365;3.2424;
337.2000;0.6341;3.2397;
337.5000;0.6317;3.2371;
337.8000;0.6341;3.2345;
338.1000;0.6365;3.2450;
338.4000;0.6374;3.2450;
338.7000;0.6365;3.2424;
339.0000;0.6357;3.2476;
339.3000;0.6357;3.2608;
339.6000;0.6357;3.2582;
339.9000;0.6357;3.2529;
340.2000;0.6422;3.2608;
340.5000;0.6365;3.2397;
340.8000;0.6341;3.2424;
341.1000;0.6357;3.2424;
341.4000;0.6333;3.2265;
341.7000;0.6382;3.2345;
342.0000;0.6341;3.2213;
342.3000;0.6357;3.2239;
342.6000;0.6365;3.2265;
342.9000;0.6374;3.2292;
343.2000;0.6365;3.2265;
343.5000;0.6365;3.2186;
343.8000;0.6365;3.2213;
344.1000;0.6382;3.2265;
344.4000;0.6357;3.2186;
344.7000;0.6365;3.2107;
345.0000;0.6357;3.2213;
345.3000;0.6374;3.2265;
345.6000;0.6333;3.2107;
345.9000;0.6357;3.2186;
346.2000;0.6382;3.2239;
346.5000;0.6357;3.2107;
346.8000;0.6374;3.2054;
347.1000;0.6349;3.2002;
347.4000;0.6357;3.2054;
347.7000;0.6382;3.2186;
348.0000;0.6374;3.2107;
348.3000;0.6357;3.2054;
348.6000;0.6349;3.1896;
348.9000;0.6341;3.1922;
349.2000;0.6422;3.2107;
349.5000;0.6390;3.2054;
349.8000;0.6365;3.1975;
350.1000;0.6422;3.2239;
350.4000;0.6365;3.2133;
350.7000;0.6382;3.2133;
351.0000;0.6341;3.2028;
351.3000;0.6357;3.2133;
351.6000;0.6374;3.2054;
351.9000;0.6390;3.2160;
352.2000;0.6349;3.2002;
352.5000;0.6357;3.2081;
352.8000;0.6447;3.2239;
353.1000;0.6365;3.2002;
353.4000;0.6374;3.2054;
353.7000;0.6365;3.2002;
354.0000;0.6374;3.1975;
354.3000;0.6382;3.2081;
354.6000;0.6374;3.2160;
354.9000;0.6357;3.2186;
355.2000;0.6365;3.2133;
355.5000;0.6357;3.2107;
355.8000;0.6341;3.2186;
356.1000;0.6349;3.2186;
356.4000;0.6357;3.2239;
356.7000;0.6235;3.1922;
357.0000;0.6382;3.2397;
357.3000;0.6325;3.2213;
357.6000;0.6341;3.2318;
357.9000;0.6349;3.2265;
358.2000;0.6325;3.2081;
358.5000;0.6317;3.2107;
358.8000;0.6333;3.2265;
359.1000;0.6357;3.2397;
359.4000;0.6317;3.2345;
359.7000;0.6374;3.2582;
360.0000;0.6341;3.2476;
360.3000;0.6349;3.2476;
360.6000;0.6349;3.2397;
360.9000;0.6357;3.2424;
361.2000;0.6349;3.2345;
361.5000;0.6300;3.2265;
361.8000;0.6341;3.2345;
362.1000;0.6341;3.2371;
362.4000;0.6365;3.2424;
362.7000;0.6349;3.2292;
363.0000;0.6357;3.2213;
363.3000;0.6357;3.2239;
363.6000;0.6357;3.2265;
363.9000;0.6341;3.2239;
364.2000;0.6349;3.2213;
364.5000;0.6284;3.2107;
364.8000;0.6357;3.2265;
365.1000;0.6357;3.2239;
365.4000;0.6309;3.2133;
365.7000;0.6349;3.2292;
366.0000;0.6365;3.2265;
366.3000;0.6357;3.2318;
366.6000;0.6349;3.2186;
366.9000;0.6365;3.2239;
367.2000;0.6365;3.2133;
367.5000;0.6422;3.2160;
367.8000;0.6357;3.2028;
368.1000;0.6365;3.2081;
368.4000;0.6374;3.2054;
368.7000;0.6357;3.2002;
369.0000;0.6382;3.2081;
369.3000;0.6374;3.2002;
369.6000;0.6365;3.2054;
369.9000;0.6374;3.2160;
370.2000;0.6374;3.2186;
370.5000;0.6374;3.2160;
370.8000;0.6365;3.2160;
371.1000;0.6382;3.2239;
371.4000;0.6374;3.2213;
371.7000;0.6349;3.2133;
372.0000;0.6357;3.2213;
372.3000;0.6365;3.2133;
372.6000;0.6341;3.2028;
372.9000;0.6374;3.2133;
373.2000;0.6382;3.2186;
373.5000;0.6382;3.2081;
373.8000;0.6365;3.2054;
374.1000;0.6349;3.1949;
374.4000;0.6374;3.1975;
374.7000;0.6365;3.2081;
375.0000;0.6357;3.2081;
375.3000;0.6374;3.2107;
375.6000;0.6382;3.2081;
375.9000;0.6374;3.2133;
376.2000;0.6382;3.2265;
376.5000;0.6382;3.2318;
376.8000;0.6341;3.2239;
377.1000;0.6276;3.1975;
377.4000;0.6349;3.2265;
377.7000;0.6365;3.2292;
378.0000;0.6333;3.2318;
378.3000;0.6349;3.2371;
378.6000;0.6309;3.2186;
378.9000;0.6317;3.2239;
379.2000;0.6349;3.2318;
379.5000;0.6341;3.2318;
379.8000;0.6390;3.2476;
380.1000;0.6349;3.2397;
380.4000;0.6365;3.2424;
380.7000;0.6382;3.2318;
381.0000;0.6374;3.2186;
381.3000;0.6365;3.2186;
381.6000;0.6374;3.2239;
381.9000;0.6349;3.2186;
382.2000;0.6349;3.2107;
382.5000;0.6365;3.2160;
382.8000;0.6357;3.2107;
383.1000;0.6341;3.2081;
383.4000;0.6365;3.2028;
383.7000;0.6374;3.1949;
384.0000;0.6365;3.1817;
384.3000;0.6365;3.1817;
384.6000;0.6349;3.1843;
384.9000;0.6341;3.1843;
385.2000;0.6357;3.1896;
385.5000;0.6349;3.1896;
385.8000;0.6374;3.1949;
386.1000;0.6365;3.1922;
386.4000;0.6382;3.2028;
386.7000;0.6365;3.1949;
387.0000;0.6374;3.2002;
387.3000;0.6349;3.1922;
387.6000;0.6349;3.2002;
387.9000;0.6357;3.2028;
388.2000;0.6349;3.2028;
388.5000;0.6341;3.2028;
388.8000;0.6374;3.2107;
389.1000;0.6357;3.2107;
389.4000;0.6357;3.2133;
389.7000;0.6374;3.2002;
390.0000;0.6365;3.1896;
390.3000;0.6365;3.1817;
390.6000;0.6365;3.1817;
390.9000;0.6374;3.1870;
391.2000;0.6382;3.1949;
391.5000;0.6390;3.1949;
391.8000;0.6398;3.2002;
392.1000;0.6365;3.1949;
392.4000;0.6382;3.2054;
392.7000;0.6365;3.2002;
393.0000;0.6390;3.1896;
393.3000;0.6341;3.1764;
393.6000;0.6365;3.1870;
393.9000;0.6365;3.1870;
394.2000;0.6390;3.1975;
394.5000;0.6309;3.1764;
394.8000;0.6374;3.2002;
395.1000;0.6365;3.1975;
395.4000;0.6365;3.2081;
395.7000;0.6374;3.2133;
396.0000;0.6357;3.2107;
396.3000;0.6382;3.2160;
396.6000;0.6390;3.2239;
396.9000;0.6341;3.2160;
397.2000;0.6333;3.2160;
397.5000;0.6309;3.2107;
397.8000;0.6406;3.2292;
398.1000;0.6333;3.2028;
398.4000;0.6374;3.2133;
398.7000;0.6349;3.2133;
399.0000;0.6431;3.2397;
399.3000;0.6333;3.2239;
399.6000;0.6317;3.2160;
399.9000;0.6341;3.2265;
400.2000;0.6374;3.2265;
400.5000;0.6325;3.2186;
400.8000;0.6341;3.2265;
401.1000;0.6365;3.2292;
401.4000;0.6333;3.2292;
401.7000;0.6365;3.2318;
402.0000;0.6382;3.2450;
402.3000;0.6349;3.2265;
402.6000;0.6357;3.2213;
402.9000;0.6357;3.2160;
403.2000;0.6365;3.2186;
403.5000;0.6357;3.2081;
403.8000;0.6349;3.2054;
404.1000;0.6439;3.2239;
404.4000;0.6365;3.2054;
404.7000;0.6300;3.1949;
405.0000;0.6479;3.2397;
405.3000;0.6365;3.2002;
405.6000;0.6333;3.1949;
405.9000;0.6382;3.2081;
406.2000;0.6349;3.1870;
406.5000;0.6349;3.1896;
406.8000;0.6374;3.1949;
407.1000;0.6374;3.2002;
407.4000;0.6357;3.2133;
407.7000;0.6365;3.2081;
408.0000;0.6349;3.1975;
408.3000;0.6341;3.1896;
408.6000;0.6374;3.2002;
408.9000;0.6357;3.1949;
409.2000;0.6398;3.2160;
409.5000;0.6374;3.2160;
409.8000;0.6365;3.2186;
410.1000;0.6357;3.2081;
410.4000;0.6390;3.2133;
410.7000;0.6365;3.2002;
411.0000;0.6374;3.1975;
411.3000;0.6390;3.2081;
411.6000;0.6390;3.2028;
411.9000;0.6365;3.1975;
412.2000;0.6374;3.1949;
412.5000;0.6357;3.1922;
412.8000;0.6357;3.1922;
413.1000;0.6382;3.2081;
413.4000;0.6374;3.1975;
413.7000;0.6333;3.1870;
414.0000;0.6365;3.2002;
414.3000;0.6349;3.2081;
414.6000;0.6357;3.2054;
414.9000;0.6317;3.1975;
415.2000;0.6349;3.2054;
415.5000;0.6365;3.2054;
415.8000;0.6349;3.2028;
416.1000;0.6349;3.2002;
416.4000;0.6317;3.1975;
416.7000;0.6365;3.2028;
417.0000;0.6365;3.2133;
417.3000;0.6357;3.2186;
417.6000;0.6309;3.2107;
417.9000;0.6357;3.2213;
418.2000;0.6317;3.2160;
418.5000;0.6357;3.2265;
418.8000;0.6357;3.2318;
419.1000;0.6357;3.2318;
419.4000;0.6341;3.2371;
419.7000;0.6349;3.2318;
420.0000;0.6317;3.2160;
420.3000;0.6365;3.2371;
420.6000;0.6439;3.2529;
420.9000;0.6349;3.2265;
421.2000;0.6341;3.2292;
421.5000;0.6349;3.2265;
421.8000;0.6365;3.2213;
422.1000;0.6300;3.1975;
422.4000;0.6349;3.2054;
422.7000;0.6357;3.1949;
423.0000;0.6349;3.1843;
423.3000;0.6382;3.1922;
423.6000;0.6349;3.1975;
423.9000;0.6349;3.1896;
424.2000;0.6333;3.1870;
424.5000;0.6325;3.1817;
424.8000;0.6341;3.1949;
425.1000;0.6357;3.2081;
425.4000;0.6325;3.2002;
425.7000;0.6333;3.2028;
426.0000;0.6365;3.2028;
426.3000;0.6365;3.2028;
426.6000;0.6357;3.2002;
426.9000;0.6349;3.2002;
427.2000;0.6365;3.1949;
427.5000;0.6357;3.1922;
427.8000;0.6317;3.1817;
428.1000;0.6374;3.2002;
428.4000;0.6382;3.2002;
428.7000;0.6365;3.1843;
429.0000;0.6341;3.1817;
429.3000;0.6357;3.1922;
429.6000;0.6357;3.2002;
429.9000;0.6390;3.1949;
430.2000;0.6382;3.2002;
430.5000;0.6365;3.1896;
430.8000;0.6341;3.1870;
431.1000;0.6365;3.1870;
431.4000;0.6325;3.1870;
431.7000;0.6349;3.1870;
432.0000;0.6374;3.1922;
432.3000;0.6341;3.1843;
432.6000;0.6365;3.1922;
432.9000;0.6374;3.1975;
433.2000;0.6357;3.1922;
433.5000;0.6365;3.1949;
433.8000;0.6357;3.1896;
434.1000;0.6374;3.1896;
434.4000;0.6349;3.1922;
434.7000;0.6333;3.1843;
435.0000;0.6357;3.1922;
435.3000;0.6341;3.1922;
435.6000;0.6341;3.2002;
435.9000;0.6357;3.2133;
436.2000;0.6349;3.2213;
436.5000;0.6341;3.2265;
436.8000;0.6390;3.2371;
437.1000;0.6333;3.2239;
437.4000;0.6357;3.2450;
437.7000;0.6333;3.2503;
438.0000;0.6341;3.2450;
438.3000;0.6325;3.2450;
438.6000;0.6357;3.2503;
438.9000;0.6349;3.2529;
439.2000;0.6341;3.2503;
439.5000;0.6349;3.2503;
439.8000;0.6349;3.2503;
440.1000;0.6349;3.2529;
440.4000;0.6341;3.2556;
440.7000;0.6333;3.2529;
441.0000;0.6341;3.2608;
441.3000;0.6325;3.2608;
441.6000;0.6349;3.2582;
441.9000;0.6463;3.2872;
442.2000;0.6357;3.2476;
442.5000;0.6374;3.2476;
442.8000;0.6406;3.2476;
443.1000;0.6341;3.2292;
443.4000;0.6365;3.2318;
443.7000;0.6349;3.2239;
444.0000;0.6300;3.2028;
444.3000;0.6349;3.2054;
444.6000;0.6365;3.2081;
444.9000;0.6357;3.2107;
445.2000;0.6365;3.2107;
445.5000;0.6325;3.2028;
445.8000;0.6455;3.2292;
446.1000;0.6333;3.1949;
446.4000;0.6341;3.1896;
446.7000;0.6357;3.1949;
447.0000;0.6365;3.2028;
447.3000;0.6341;3.1975;
447.6000;0.6349;3.1975;
447.9000;0.6365;3.2028;
448.2000;0.6357;3.1949;
448.5000;0.6365;3.1896;
448.8000;0.6374;3.2054;
449.1000;0.6357;3.2054;
449.4000;0.6365;3.2054;
449.7000;0.6357;3.2081;
450.0000;0.6365;3.2133;
450.3000;0.6374;3.2081;
450.6000;0.6349;3.2107;
450.9000;0.6374;3.2160;
451.2000;0.6365;3.2160;
451.5000;0.6382;3.2160;
451.8000;0.6349;3.2107;
452.1000;0.6365;3.2107;
452.4000;0.6365;3.2133;
452.7000;0.6357;3.2107;
453.0000;0.6357;3.2107;
453.3000;0.6349;3.2107;
453.6000;0.6406;3.2371;
453.9000;0.6325;3.2213;
454.2000;0.6374;3.2265;
454.5000;0.6349;3.2186;
454.8000;0.6341;3.2028;
455.1000;0.6341;3.2054;
455.4000;0.6317;3.2028;
455.7000;0.6357;3.2133;
456.0000;0.6333;3.2028;
456.3000;0.6406;3.2186;
456.6000;0.6471;3.2265;
456.9000;0.6341;3.2002;
457.2000;0.6357;3.2133;
457.5000;0.6374;3.2318;
457.8000;0.6349;3.2213;
458.1000;0.6365;3.2186;
458.4000;0.6357;3.2133;
458.7000;0.6341;3.2133;
459.0000;0.6349;3.2133;
459.3000;0.6365;3.2081;
459.6000;0.6309;3.2028;
459.9000;0.6333;3.2081;
460.2000;0.6349;3.2107;
460.5000;0.6341;3.2054;
460.8000;0.6365;3.2107;
461.1000;0.6333;3.2081;
461.4000;0.6349;3.2160;
461.7000;0.6333;3.2160;
462.0000;0.6349;3.2292;
462.3000;0.6357;3.2265;
462.6000;0.6349;3.2133;
462.9000;0.6349;3.2081;
463.2000;0.6357;3.2081;
463.5000;0.6333;3.2028;
463.8000;0.6357;3.2028;
464.1000;0.6341;3.2002;
464.4000;0.6349;3.1975;
464.7000;0.6357;3.1949;
465.0000;0.6357;3.1922;
465.3000;0.6349;3.1896;
465.6000;0.6309;3.1738;
465.9000;0.6422;3.2107;
466.2000;0.6349;3.1949;
466.5000;0.6357;3.2002;
466.8000;0.6357;3.1949;
467.1000;0.6365;3.1922;
467.4000;0.6357;3.1870;
467.7000;0.6349;3.1711;
468.0000;0.6382;3.1738;
468.3000;0.6374;3.1843;
468.6000;0.6374;3.1817;
468.9000;0.6325;3.1632;
469.2000;0.6365;3.1764;
469.5000;0.6357;3.1659;
469.8000;0.6357;3.1606;
470.1000;0.6341;3.1579;
470.4000;0.6357;3.1632;
470.7000;0.6325;3.1579;
471.0000;0.6349;3.1685;
471.3000;0.6292;3.1527;
471.6000;0.6333;3.1606;
471.9000;0.6357;3.1738;
472.2000;0.6374;3.1738;
472.5000;0.6333;3.1711;
472.8000;0.6341;3.1632;
473.1000;0.6357;3.1764;
473.4000;0.6382;3.1896;
473.7000;0.6349;3.1791;
474.0000;0.6341;3.1738;
474.3000;0.6365;3.1870;
474.6000;0.6300;3.1764;
474.9000;0.6365;3.1870;
475.2000;0.6325;3.1817;
475.5000;0.6406;3.2054;
475.8000;0.6349;3.1975;
476.1000;0.6382;3.2107;
476.4000;0.6341;3.1949;
476.7000;0.6325;3.2054;
477.0000;0.6252;3.1870;
477.3000;0.6382;3.2133;
477.6000;0.6325;3.2054;
477.9000;0.6341;3.2107;
478.2000;0.6422;3.2397;
478.5000;0.6341;3.2265;
478.8000;0.6357;3.2424;
479.1000;0.6317;3.2318;
479.4000;0.6357;3.2292;
479.7000;0.6317;3.2186;
480.0000;0.6333;3.2186;
480.3000;0.6382;3.2345;
480.6000;0.6349;3.2213;
480.9000;0.6341;3.2160;
481.2000;0.6333;3.2081;
481.5000;0.6357;3.2054;
481.8000;0.6349;3.1975;
482.1000;0.6341;3.2002;
482.4000;0.6349;3.1975;
482.7000;0.6349;3.1922;
483.0000;0.6357;3.1922;
483.3000;0.6333;3.1843;
483.6000;0.6398;3.2028;
483.9000;0.6349;3.2002;
484.2000;0.6357;3.2002;
484.5000;0.6349;3.1975;
484.8000;0.6357;3.1922;
485.1000;0.6357;3.1975;
485.4000;0.6357;3.1975;
485.7000;0.6357;3.1896;
486.0000;0.6349;3.1896;
486.3000;0.6357;3.1922;
486.6000;0.6365;3.1922;
486.9000;0.6349;3.1922;
487.2000;0.6357;3.2002;
487.5000;0.6357;3.1949;
487.8000;0.6365;3.1870;
488.1000;0.6357;3.1738;
488.4000;0.6349;3.1764;
488.7000;0.6365;3.1817;
489.0000;0.6382;3.1817;
489.3000;0.6333;3.1685;
489.6000;0.6333;3.1711;
489.9000;0.6349;3.1817;
490.2000;0.6357;3.1764;
490.5000;0.6374;3.1817;
490.8000;0.6349;3.1685;
491.1000;0.6365;3.1659;
491.4000;0.6349;3.1606;
491.7000;0.6365;3.1659;
492.0000;0.6357;3.1738;
492.3000;0.6357;3.1711;
492.6000;0.6333;3.1685;
492.9000;0.6357;3.1870;
493.2000;0.6333;3.1791;
493.5000;0.6357;3.1843;
493.8000;0.6365;3.1896;
494.1000;0.6341;3.1896;
494.4000;0.6333;3.1922;
494.7000;0.6349;3.2002;
495.0000;0.6341;3.2002;
495.3000;0.6349;3.2028;
495.6000;0.6357;3.2028;
495.9000;0.6357;3.2002;
496.2000;0.6357;3.2054;
496.5000;0.6398;3.2054;
496.8000;0.6300;3.1843;
497.1000;0.6341;3.1949;
497.4000;0.6357;3.1975;
497.7000;0.6317;3.1949;
498.0000;0.6309;3.1975;
498.3000;0.6292;3.1975;
498.6000;0.6357;3.2133;
498.9000;0.6349;3.2160;
499.2000;0.6349;3.2186;
499.5000;0.6333;3.2160;
499.8000;0.6390;3.2292;
500.1000;0.6349;3.2186;
500.4000;0.6349;3.2186;
500.7000;0.6333;3.2160;
501.0000;0.6203;3.1685;
501.3000;0.6382;3.2054;
501.6000;0.6357;3.1975;
501.9000;0.6414;3.2107;
502.2000;0.6365;3.2107;
502.5000;0.6341;3.2081;
502.8000;0.6333;3.2107;
503.1000;0.6341;3.2081;
503.4000;0.6341;3.2081;
503.7000;0.6333;3.1949;
504.0000;0.6349;3.1922;
504.3000;0.6333;3.1791;
504.6000;0.6349;3.1817;
504.9000;0.6357;3.1843;
505.2000;0.6333;3.1843;
505.5000;0.6349;3.2028;
505.8000;0.6333;3.1949;
506.1000;0.6333;3.1791;
506.4000;0.6365;3.1764;
506.7000;0.6357;3.1764;
507.0000;0.6349;3.1738;
507.3000;0.6309;3.1579;
507.6000;0.6349;3.1738;
507.9000;0.6341;3.1817;
508.2000;0.6333;3.1764;
508.5000;0.6357;3.1711;
508.8000;0.6349;3.1659;
509.1000;0.6365;3.1738;
509.4000;0.6357;3.1659;
509.7000;0.6349;3.1711;
510.0000;0.6365;3.1791;
510.3000;0.6341;3.1791;
510.6000;0.6349;3.1738;
510.9000;0.6357;3.1870;
511.2000;0.6357;3.1949;
511.5000;0.6341;3.1896;
511.8000;0.6349;3.1843;
512.1000;0.6325;3.1738;
512.4000;0.6341;3.1764;
512.7000;0.6357;3.1764;
513.0000;0.6374;3.1922;
513.3000;0.6243;3.1659;
513.6000;0.6349;3.1922;
513.9000;0.6349;3.1870;
514.2000;0.6365;3.1870;
514.5000;0.6357;3.1896;
514.8000;0.6349;3.1870;
515.1000;0.6349;3.1870;
515.4000;0.6357;3.1922;
515.7000;0.6357;3.1896;
516.0000;0.6333;3.1949;
516.3000;0.6317;3.1896;
516.6000;0.6325;3.1922;
516.9000;0.6333;3.2002;
517.2000;0.6317;3.2054;
517.5000;0.6325;3.2081;
517.8000;0.6333;3.2133;
518.1000;0.6333;3.2160;
518.4000;0.6341;3.2133;
518.7000;0.6317;3.2054;
519.0000;0.6333;3.2133;
519.3000;0.6349;3.2213;
519.6000;0.6341;3.2265;
519.9000;0.6317;3.2213;
520.2000;0.6333;3.2213;
520.5000;0.6341;3.2265;
520.8000;0.6341;3.2186;
521.1000;0.6349;3.2107;
521.4000;0.6325;3.1975;
521.7000;0.6333;3.2028;
522.0000;0.6333;3.1975;
522.3000;0.6292;3.1870;
522.6000;0.6325;3.1949;
522.9000;0.6333;3.2002;
523.2000;0.6341;3.1975;
523.5000;0.6341;3.2002;
523.8000;0.6341;3.1975;
524.1000;0.6341;3.1949;
524.4000;0.6357;3.1949;
524.7000;0.6349;3.1896;
525.0000;0.6317;3.1896;
525.3000;0.6317;3.1922;
525.6000;0.6349;3.1975;
525.9000;0.6349;3.1922;
526.2000;0.6341;3.1870;
526.5000;0.6333;3.1738;
526.8000;0.6333;3.1738;
527.1000;0.6349;3.1817;
527.4000;0.6365;3.1922;
527.7000;0.6341;3.1870;
528.0000;0.6357;3.1949;
528.3000;0.6357;3.1817;
528.6000;0.6333;3.1738;
528.9000;0.6349;3.1817;
529.2000;0.6341;3.1896;
529.5000;0.6365;3.2028;
529.8000;0.6357;3.2002;
530.1000;0.6349;3.1922;
530.4000;0.6374;3.2054;
530.7000;0.6382;3.2054;
531.0000;0.6357;3.2054;
531.3000;0.6333;3.1975;
531.6000;0.6357;3.2028;
531.9000;0.6357;3.2028;
532.2000;0.6341;3.2002;
532.5000;0.6333;3.1922;
532.8000;0.6357;3.1949;
533.1000;0.6341;3.1896;
533.4000;0.6317;3.1764;
533.7000;0.6349;3.1764;
534.0000;0.6349;3.1738;
534.3000;0.6488;3.2081;
534.6000;0.6349;3.1738;
534.9000;0.6292;3.1685;
535.2000;0.6325;3.1764;
535.5000;0.6349;3.1896;
535.8000;0.6341;3.2054;
536.1000;0.6365;3.2213;
536.4000;0.6227;3.1764;
536.7000;0.6325;3.2028;
537.0000;0.6284;3.2028;
537.3000;0.6333;3.2160;
537.6000;0.6341;3.2028;
537.9000;0.6341;3.2054;
538.2000;0.6398;3.2318;
538.5000;0.6390;3.2318;
538.8000;0.6333;3.2213;
539.1000;0.6325;3.2186;
539.4000;0.6349;3.2345;
539.7000;0.6333;3.2265;
540.0000;0.6333;3.2265;
540.3000;0.6325;3.2186;
540.6000;0.6333;3.2107;
540.9000;0.6333;3.2160;
541.2000;0.6365;3.2213;
541.5000;0.6333;3.2133;
541.8000;0.6325;3.2054;
542.1000;0.6349;3.2107;
542.4000;0.6349;3.2054;
542.7000;0.6284;3.1870;
543.0000;0.6349;3.2107;
543.3000;0.6349;3.2107;
543.6000;0.6333;3.2002;
543.9000;0.6333;3.2028;
544.2000;0.6341;3.2054;
544.5000;0.6341;3.1975;
544.8000;0.6333;3.1896;
545.1000;0.6341;3.1922;
545.4000;0.6365;3.1949;
545.7000;0.6341;3.1949;
546.0000;0.6365;3.2054;
546.3000;0.6374;3.2028;
546.6000;0.6349;3.1975;
546.9000;0.6357;3.2002;
547.2000;0.6365;3.1975;
547.5000;0.6317;3.1870;
547.8000;0.6357;3.1843;
548.1000;0.6341;3.1764;
548.4000;0.6414;3.1949;
548.7000;0.6349;3.1922;
549.0000;0.6357;3.1975;
549.3000;0.6357;3.1922;
549.6000;0.6341;3.1791;
549.9000;0.6365;3.1870;
550.2000;0.6341;3.1791;
550.5000;0.6357;3.1817;
550.8000;0.6349;3.1791;
551.1000;0.6341;3.1685;
551.4000;0.6357;3.1685;
551.7000;0.6374;3.1738;
552.0000;0.6325;3.1632;
552.3000;0.6309;3.1685;
552.6000;0.6333;3.1817;
552.9000;0.6365;3.1870;
553.2000;0.6349;3.1817;
553.5000;0.6309;3.1711;
553.8000;0.6309;3.1685;
554.1000;0.6333;3.1738;
554.4000;0.6317;3.1579;
554.7000;0.6317;3.1579;
555.0000;0.6349;3.1764;
555.3000;0.6349;3.1764;
555.6000;0.6357;3.1817;
555.9000;0.6349;3.1870;
556.2000;0.6349;3.1922;
556.5000;0.6349;3.2028;
556.8000;0.6333;3.2081;
557.1000;0.6365;3.2160;
557.4000;0.6341;3.2107;
557.7000;0.6309;3.2054;
558.0000;0.6341;3.2107;
558.3000;0.6325;3.2133;
558.6000;0.6333;3.2213;
558.9000;0.6333;3.2318;
559.2000;0.6333;3.2318;
559.5000;0.6317;3.2292;
559.8000;0.6325;3.2213;
560.1000;0.6341;3.2265;
560.4000;0.6349;3.2213;
560.7000;0.6341;3.2160;
561.0000;0.6317;3.2081;
561.3000;0.6333;3.2160;
561.6000;0.6349;3.2160;
561.9000;0.6341;3.2081;
562.2000;0.6341;3.2028;
562.5000;0.6325;3.1975;
562.8000;0.6365;3.2081;
563.1000;0.6309;3.1922;
563.4000;0.6341;3.2002;
563.7000;0.6309;3.1949;
564.0000;0.6341;3.2002;
564.3000;0.6357;3.2002;
564.6000;0.6325;3.1975;
564.9000;0.6349;3.1949;
565.2000;0.6333;3.1870;
565.5000;0.6317;3.1738;
565.8000;0.6341;3.1896;
566.1000;0.6325;3.1975;
566.4000;0.6349;3.1949;
566.7000;0.6349;3.1896;
567.0000;0.6325;3.1817;
567.3000;0.6292;3.1711;
567.6000;0.6349;3.1896;
567.9000;0.6349;3.1870;
568.2000;0.6333;3.1922;
568.5000;0.6365;3.2002;
568.8000;0.6341;3.1975;
569.1000;0.6325;3.1949;
569.4000;0.6309;3.1738;
569.7000;0.6349;3.1870;
570.0000;0.6333;3.1817;
570.3000;0.6349;3.1870;
570.6000;0.6349;3.1791;
570.9000;0.6357;3.1791;
571.2000;0.6341;3.1791;
571.5000;0.6365;3.1791;
571.8000;0.6349;3.1685;
572.1000;0.6325;3.1711;
572.4000;0.6203;3.1421;
572.7000;0.6341;3.1738;
573.0000;0.6349;3.1711;
573.3000;0.6382;3.1764;
573.6000;0.6341;3.1606;
573.9000;0.6333;3.1579;
574.2000;0.6357;3.1579;
574.5000;0.6317;3.1500;
574.8000;0.6333;3.1553;
575.1000;0.6341;3.1553;
575.4000;0.6333;3.1579;
575.7000;0.6357;3.1632;
576.0000;0.6333;3.1659;
576.3000;0.6341;3.1711;
576.6000;0.6309;3.1738;
576.9000;0.6333;3.1817;
577.2000;0.6317;3.1738;
577.5000;0.6333;3.1843;
577.8000;0.6325;3.1817;
578.1000;0.6333;3.1870;
578.4000;0.6317;3.1817;
578.7000;0.6325;3.1791;
579.0000;0.6341;3.1896;
579.3000;0.6292;3.1843;
579.6000;0.6325;3.2028;
579.9000;0.6374;3.2107;
580.2000;0.6325;3.1975;
580.5000;0.6357;3.2028;
580.8000;0.6357;3.1975;
581.1000;0.6333;3.1922;
581.4000;0.6341;3.1975;
581.7000;0.6349;3.2028;
582.0000;0.6341;3.2054;
582.3000;0.6333;3.2081;
582.6000;0.6284;3.1896;
582.9000;0.6317;3.1975;
583.2000;0.6317;3.1922;
583.5000;0.6341;3.1870;
583.8000;0.6284;3.1632;
584.1000;0.6374;3.1949;
584.4000;0.6365;3.1843;
584.7000;0.6341;3.1711;
585.0000;0.6349;3.1764;
585.3000;0.6325;3.1632;
585.6000;0.6341;3.1685;
585.9000;0.6374;3.1738;
586.2000;0.6325;3.1659;
586.5000;0.6341;3.1632;
586.8000;0.6317;3.1553;
587.1000;0.6325;3.1527;
587.4000;0.6357;3.1606;
587.7000;0.6357;3.1685;
588.0000;0.6357;3.1738;
588.3000;0.6349;3.1738;
588.6000;0.6325;3.1738;
588.9000;0.6357;3.1791;
589.2000;0.6333;3.1659;
589.5000;0.6341;3.1685;
589.8000;0.6333;3.1711;
590.1000;0.6349;3.1764;
590.4000;0.6341;3.1659;
590.7000;0.6365;3.1764;
591.0000;0.6357;3.1791;
591.3000;0.6349;3.1791;
591.6000;0.6349;3.1764;
591.9000;0.6325;3.1711;
592.2000;0.6349;3.1791;
592.5000;0.6365;3.1870;
592.8000;0.6349;3.1870;
593.1000;0.6406;3.1949;
593.4000;0.6341;3.1738;
593.7000;0.6365;3.1791;
594.0000;0.6284;3.1553;
594.3000;0.6341;3.1791;
594.6000;0.6357;3.1896;
594.9000;0.6357;3.1975;
595.2000;0.6341;3.1975;
595.5000;0.6341;3.1949;
595.8000;0.6317;3.2028;
596.1000;0.6349;3.2133;
596.4000;0.6414;3.2318;
596.7000;0.6325;3.1949;
597.0000;0.6349;3.2107;
597.3000;0.6357;3.2160;
597.6000;0.6325;3.2133;
597.9000;0.6333;3.2213;
598.2000;0.6390;3.2371;
598.5000;0.6325;3.2160;
598.8000;0.6333;3.2160;
599.1000;0.6325;3.2081;
599.4000;0.6333;3.2054;
599.7000;0.6333;3.2133;
600.0000;0.6300;3.2107;
600.3000;0.6341;3.2186;
600.6000;0.6309;3.1975;
600.9000;0.6333;3.1896;
601.2000;0.6252;3.1606;
601.5000;0.6227;3.1421;
601.8000;0.6243;3.1368;
602.1000;0.6146;3.0973;
602.4000;0.6105;3.0656;
602.7000;0.6064;3.0524;
603.0000;0.5942;2.9997;
603.3000;0.5967;3.0076;
603.6000;0.5975;2.9917;
603.9000;0.5902;2.9654;
604.2000;0.5902;2.9601;
604.5000;0.5885;2.9495;
604.8000;0.5845;2.9469;
605.1000;0.5845;2.9443;
605.4000;0.5812;2.9416;
605.7000;0.5763;2.9311;
606.0000;0.5763;2.9337;
606.3000;0.5779;2.9390;
606.6000;0.5706;2.9231;
606.9000;0.5674;2.9047;
607.2000;0.5690;2.9126;
607.5000;0.5665;2.9073;
607.8000;0.5617;2.8915;
608.1000;0.5608;2.8888;
608.4000;0.5584;2.8783;
608.7000;0.5608;2.8757;
609.0000;0.5576;2.8783;
609.3000;0.5568;2.8704;
609.6000;0.5543;2.8730;
609.9000;0.5511;2.8598;
610.2000;0.5495;2.8572;
610.5000;0.5495;2.8625;
610.8000;0.5486;2.8493;
611.1000;0.5470;2.8414;
611.4000;0.5446;2.8308;
611.7000;0.5429;2.8361;
612.0000;0.5421;2.8493;
612.3000;0.5405;2.8519;
612.6000;0.5413;2.8466;
612.9000;0.5405;2.8466;
613.2000;0.5364;2.8387;
613.5000;0.5381;2.8414;
613.8000;0.5348;2.8387;
614.1000;0.5356;2.8308;
614.4000;0.5315;2.8308;
614.7000;0.5315;2.8255;
615.0000;0.5332;2.8387;
615.3000;0.5291;2.8361;
615.6000;0.5315;2.8440;
615.9000;0.5258;2.8334;
616.2000;0.5275;2.8387;
616.5000;0.5250;2.8466;
616.8000;0.5332;2.8704;
617.1000;0.5250;2.8572;
617.4000;0.5250;2.8625;
617.7000;0.5234;2.8625;
618.0000;0.5218;2.8651;
618.3000;0.5226;2.8598;
618.6000;0.5193;2.8546;
618.9000;0.5128;2.8493;
619.2000;0.5185;2.8625;
619.5000;0.5153;2.8651;
619.8000;0.5153;2.8625;
620.1000;0.5218;2.8888;
620.4000;0.5201;2.8809;
620.7000;0.5144;2.8651;
621.0000;0.5112;2.8519;
621.3000;0.5096;2.8466;
621.6000;0.5112;2.8546;
621.9000;0.5104;2.8466;
622.2000;0.5104;2.8519;
622.5000;0.5022;2.8255;
622.8000;0.5144;2.8440;
623.1000;0.5079;2.8229;
623.4000;0.5071;2.8176;
623.7000;0.5031;2.8071;
624.0000;0.5063;2.8176;
624.3000;0.5039;2.8097;
624.6000;0.5014;2.8123;
624.9000;0.5022;2.8255;
625.2000;0.5031;2.8282;
625.5000;0.5014;2.8203;
625.8000;0.5031;2.8150;
626.1000;0.4998;2.8229;
626.4000;0.4998;2.8150;
626.7000;0.5006;2.8123;
627.0000;0.5022;2.8255;
627.3000;0.5006;2.8176;
627.6000;0.5006;2.8150;
627.9000;0.4974;2.8044;
628.2000;0.4957;2.8044;
628.5000;0.5014;2.8203;
628.8000;0.4957;2.8044;
629.1000;0.4982;2.8071;
629.4000;0.4998;2.8018;
629.7000;0.4957;2.7886;
630.0000;0.4957;2.7886;
630.3000;0.4990;2.8018;
630.6000;0.4933;2.7886;
630.9000;0.4933;2.7860;
631.2000;0.4917;2.7939;
631.5000;0.4925;2.8123;
631.8000;0.4925;2.8123;
632.1000;0.4941;2.8071;
632.4000;0.4917;2.7991;
632.7000;0.4925;2.7965;
633.0000;0.4917;2.7965;
633.3000;0.4917;2.8018;
633.6000;0.4900;2.8097;
633.9000;0.4860;2.8044;
634.2000;0.4868;2.8097;
634.5000;0.4876;2.8044;
634.8000;0.4851;2.8123;
635.1000;0.4868;2.8123;
635.4000;0.4851;2.8097;
635.7000;0.4851;2.8097;
636.0000;0.4843;2.8044;
636.3000;0.4835;2.8044;
636.6000;0.4835;2.8097;
636.9000;0.4835;2.8203;
637.2000;0.4819;2.8203;
637.5000;0.4868;2.8440;
637.8000;0.4835;2.8334;
638.1000;0.4819;2.8361;
638.4000;0.4827;2.8414;
638.7000;0.4803;2.8361;
639.0000;0.4811;2.8334;
639.3000;0.4819;2.8282;
639.6000;0.4778;2.8282;
639.9000;0.4843;2.8466;
640.2000;0.4721;2.8123;
640.5000;0.4794;2.8334;
640.8000;0.4794;2.8282;
641.1000;0.4794;2.8308;
641.4000;0.4778;2.8255;
641.7000;0.4786;2.8308;
642.0000;0.4754;2.8203;
642.3000;0.4754;2.8018;
642.6000;0.4778;2.8097;
642.9000;0.4754;2.8097;
643.2000;0.4770;2.8255;
643.5000;0.4803;2.8308;
643.8000;0.4868;2.8440;
644.1000;0.4770;2.8176;
644.4000;0.4737;2.7991;
644.7000;0.4754;2.8071;
645.0000;0.4754;2.7991;
645.3000;0.4770;2.7991;
645.6000;0.4721;2.7833;
645.9000;0.4640;2.7596;
646.2000;0.4721;2.7912;
646.5000;0.4786;2.8071;
646.8000;0.4632;2.7569;
647.1000;0.4729;2.7991;
647.4000;0.4729;2.8044;
647.7000;0.4681;2.7991;
648.0000;0.4737;2.8097;
648.3000;0.4729;2.8097;
648.6000;0.4713;2.8044;
648.9000;0.4713;2.8018;
649.2000;0.4713;2.7965;
649.5000;0.4721;2.7991;
649.8000;0.4721;2.8044;
650.1000;0.4721;2.7965;
650.4000;0.4721;2.7939;
650.7000;0.4746;2.8150;
651.0000;0.4689;2.7991;
651.3000;0.4697;2.8018;
651.6000;0.4705;2.7965;
651.9000;0.4697;2.7939;
652.2000;0.4705;2.7965;
652.5000;0.4681;2.7912;
652.8000;0.4721;2.7991;
653.1000;0.4697;2.8071;
653.4000;0.4705;2.8097;
653.7000;0.4705;2.8123;
654.0000;0.4681;2.8150;
654.3000;0.4664;2.8097;
654.6000;0.4615;2.8018;
654.9000;0.4656;2.8150;
655.2000;0.4786;2.8493;
655.5000;0.4656;2.8176;
655.8000;0.4672;2.8229;
656.1000;0.4656;2.8150;
656.4000;0.4648;2.8150;
656.7000;0.4648;2.8176;
657.0000;0.4640;2.8176;
657.3000;0.4648;2.8308;
657.6000;0.4624;2.8334;
657.9000;0.4640;2.8414;
658.2000;0.4632;2.8519;
658.5000;0.4632;2.8546;
658.8000;0.4624;2.8519;
659.1000;0.4632;2.8546;
659.4000;0.4632;2.8598;
659.7000;0.4607;2.8493;
660.0000;0.4640;2.8546;
660.3000;0.4615;2.8466;
660.6000;0.4624;2.8414;
660.9000;0.4624;2.8334;
661.2000;0.4624;2.8387;
661.5000;0.4607;2.8255;
661.8000;0.4632;2.8387;
662.1000;0.4624;2.8466;
662.4000;0.4632;2.8466;
662.7000;0.4640;2.8466;
663.0000;0.4615;2.8255;
663.3000;0.4689;2.8414;
663.6000;0.4640;2.8176;
663.9000;0.4632;2.8123;
664.2000;0.4632;2.7991;
664.5000;0.4632;2.7886;
664.8000;0.4615;2.7912;
665.1000;0.4624;2.7939;
665.4000;0.4640;2.7991;
665.7000;0.4615;2.7912;
666.0000;0.4624;2.7939;
666.3000;0.4453;2.7543;
666.6000;0.4607;2.7939;
666.9000;0.4615;2.8071;
667.2000;0.4591;2.8123;
667.5000;0.4550;2.8018;
667.8000;0.4591;2.8071;
668.1000;0.4583;2.7991;
668.4000;0.4534;2.7860;
668.7000;0.4575;2.7965;
669.0000;0.4640;2.8150;
669.3000;0.4575;2.7939;
669.6000;0.4558;2.7965;
669.9000;0.4599;2.8150;
670.2000;0.4583;2.8150;
670.5000;0.4567;2.8097;
670.8000;0.4550;2.8071;
671.1000;0.4583;2.8176;
671.4000;0.4583;2.8018;
671.7000;0.4558;2.7965;
672.0000;0.4558;2.7912;
672.3000;0.4567;2.7833;
672.6000;0.4558;2.7728;
672.9000;0.4575;2.7833;
673.2000;0.4583;2.7912;
673.5000;0.4583;2.7912;
673.8000;0.4583;2.7991;
674.1000;0.4575;2.7939;
674.4000;0.4575;2.7939;
674.7000;0.4550;2.7886;
675.0000;0.4591;2.8044;
675.3000;0.4591;2.8018;
675.6000;0.4575;2.7991;
675.9000;0.4558;2.7939;
676.2000;0.4485;2.7701;
676.5000;0.4550;2.7833;
676.8000;0.4534;2.7886;
677.1000;0.4534;2.7991;
677.4000;0.4518;2.7991;
677.7000;0.4550;2.8203;
678.0000;0.4567;2.8282;
678.3000;0.4550;2.8229;
678.6000;0.4550;2.8255;
678.9000;0.4558;2.8176;
679.2000;0.4501;2.8071;
679.5000;0.4444;2.7965;
679.8000;0.4534;2.8361;
680.1000;0.4534;2.8466;
680.4000;0.4550;2.8414;
680.7000;0.4493;2.8203;
681.0000;0.4526;2.8308;
681.3000;0.4542;2.8308;
681.6000;0.4542;2.8334;
681.9000;0.4510;2.8229;
682.2000;0.4542;2.8282;
682.5000;0.4518;2.8176;
682.8000;0.4558;2.8229;
683.1000;0.4542;2.8176;
683.4000;0.4534;2.8123;
683.7000;0.4534;2.8150;
684.0000;0.4526;2.8071;
684.3000;0.4518;2.8097;
684.6000;0.4534;2.8018;
684.9000;0.4510;2.7833;
685.2000;0.4526;2.7754;
685.5000;0.4526;2.7807;
685.8000;0.4526;2.7807;
686.1000;0.4526;2.7886;
686.4000;0.4534;2.7939;
686.7000;0.4526;2.7965;
687.0000;0.4518;2.7991;
687.3000;0.4518;2.7912;
687.6000;0.4526;2.7939;
687.9000;0.4510;2.7860;
688.2000;0.4518;2.7939;
688.5000;0.4485;2.7807;
688.8000;0.4501;2.7754;
689.1000;0.4501;2.7728;
689.4000;0.4558;2.7965;
689.7000;0.4607;2.8044;
690.0000;0.4575;2.8044;
690.3000;0.4550;2.7965;
690.6000;0.4550;2.8018;
690.9000;0.4567;2.7912;
691.2000;0.4526;2.7728;
691.5000;0.4518;2.7860;
691.8000;0.4518;2.7912;
692.1000;0.4526;2.8018;
692.4000;0.4510;2.7939;
692.7000;0.4510;2.8018;
693.0000;0.4510;2.8150;
693.3000;0.4501;2.8018;
693.6000;0.4501;2.8044;
693.9000;0.4510;2.8097;
694.2000;0.4501;2.8123;
694.5000;0.4534;2.8176;
694.8000;0.4493;2.8071;
695.1000;0.4493;2.8044;
695.4000;0.4493;2.7939;
695.7000;0.4477;2.7991;
696.0000;0.4461;2.8044;
696.3000;0.4477;2.8097;
696.6000;0.4526;2.8334;
696.9000;0.4493;2.8150;
697.2000;0.4485;2.8071;
697.5000;0.4485;2.7939;
697.8000;0.4469;2.7860;
698.1000;0.4485;2.7886;
698.4000;0.4501;2.7939;
698.7000;0.4461;2.8018;
699.0000;0.4477;2.8097;
699.3000;0.4493;2.8071;
699.6000;0.4412;2.7860;
699.9000;0.4461;2.8123;
700.2000;0.4510;2.8361;
700.5000;0.4526;2.8334;
700.8000;0.4469;2.8229;
701.1000;0.4510;2.8414;
701.4000;0.4477;2.8334;
701.7000;0.4477;2.8334;
702.0000;0.4510;2.8414;
702.3000;0.4469;2.8282;
702.6000;0.4493;2.8282;
702.9000;0.4583;2.8546;
703.2000;0.4493;2.8229;
703.5000;0.4453;2.8018;
703.8000;0.4477;2.8123;
704.1000;0.4453;2.8018;
704.4000;0.4485;2.8123;
704.7000;0.4469;2.8071;
705.0000;0.4485;2.8097;
705.3000;0.4493;2.8097;
705.6000;0.4493;2.8150;
705.9000;0.4493;2.8255;
706.2000;0.4485;2.8229;
706.5000;0.4469;2.8176;
706.8000;0.4469;2.8229;
707.1000;0.4461;2.8097;
707.4000;0.4453;2.8044;
707.7000;0.4453;2.8044;
708.0000;0.4493;2.8176;
708.3000;0.4469;2.8150;
708.6000;0.4453;2.8176;
708.9000;0.4493;2.8203;
709.2000;0.4477;2.8255;
709.5000;0.4477;2.8229;
709.8000;0.4501;2.8176;
710.1000;0.4461;2.7939;
710.4000;0.4493;2.7939;
710.7000;0.4493;2.7939;
711.0000;0.4534;2.8071;
711.3000;0.4453;2.7807;
711.6000;0.4493;2.7860;
711.9000;0.4469;2.7965;
712.2000;0.4469;2.7965;
712.5000;0.4477;2.7965;
712.8000;0.4461;2.8018;
713.1000;0.4518;2.8203;
713.4000;0.4485;2.8203;
713.7000;0.4453;2.8123;
714.0000;0.4444;2.8097;
714.3000;0.4453;2.8071;
714.6000;0.4444;2.7965;
714.9000;0.4469;2.7991;
715.2000;0.4453;2.7939;
715.5000;0.4444;2.8044;
715.8000;0.4453;2.8123;
716.1000;0.4453;2.8150;
716.4000;0.4436;2.8203;
716.7000;0.4461;2.8255;
717.0000;0.4493;2.8414;
717.3000;0.4444;2.8255;
717.6000;0.4444;2.8361;
717.9000;0.4453;2.8387;
718.2000;0.4428;2.8387;
718.5000;0.4444;2.8361;
718.8000;0.4469;2.8440;
719.1000;0.4420;2.8203;
719.4000;0.4436;2.8334;
719.7000;0.4420;2.8308;
720.0000;0.4453;2.8308;
720.3000;0.4428;2.8255;
720.6000;0.4444;2.8255;
720.9000;0.4453;2.8176;
721.2000;0.4420;2.7991;
721.5000;0.4420;2.7965;
721.8000;0.4461;2.7965;
722.1000;0.4355;2.7754;
722.4000;0.4461;2.7912;
722.7000;0.4453;2.7912;
723.0000;0.4412;2.7886;
723.3000;0.4453;2.8018;
723.6000;0.4453;2.8018;
723.9000;0.4461;2.8071;
724.2000;0.4469;2.8018;
724.5000;0.4542;2.8255;
724.8000;0.4453;2.7965;
725.1000;0.4444;2.7965;
725.4000;0.4493;2.7991;
725.7000;0.4453;2.7939;
726.0000;0.4461;2.7965;
726.3000;0.4469;2.7965;
726.6000;0.4461;2.7965;
726.9000;0.4436;2.7886;
727.2000;0.4444;2.7886;
727.5000;0.4420;2.7780;
727.8000;0.4412;2.7754;
728.1000;0.4428;2.7807;
728.4000;0.4444;2.7860;
728.7000;0.4477;2.8044;
729.0000;0.4436;2.7912;
729.3000;0.4420;2.7807;
729.6000;0.4428;2.7833;
729.9000;0.4412;2.7860;
730.2000;0.4436;2.7886;
730.5000;0.4428;2.7780;
730.8000;0.4420;2.7701;
731.1000;0.4461;2.7886;
731.4000;0.4461;2.7939;
731.7000;0.4396;2.7754;
732.0000;0.4428;2.7754;
732.3000;0.4444;2.7833;
732.6000;0.4444;2.7833;
732.9000;0.4436;2.7754;
733.2000;0.4436;2.7728;
733.5000;0.4436;2.7780;
733.8000;0.4428;2.7807;
734.1000;0.4436;2.7807;
734.4000;0.4436;2.7860;
734.7000;0.4404;2.7912;
735.0000;0.4453;2.8123;
735.3000;0.4436;2.8018;
735.6000;0.4453;2.7991;
735.9000;0.4428;2.8123;
736.2000;0.4436;2.8044;
736.5000;0.4428;2.8123;
736.8000;0.4444;2.8229;
737.1000;0.4420;2.8097;
737.4000;0.4436;2.8176;
737.7000;0.4396;2.8229;
738.0000;0.4428;2.8414;
738.3000;0.4420;2.8466;
738.6000;0.4412;2.8361;
738.9000;0.4314;2.8097;
739.2000;0.4396;2.8387;
739.5000;0.4355;2.8334;
739.8000;0.4428;2.8493;
740.1000;0.4404;2.8519;
740.4000;0.4355;2.8414;
740.7000;0.4412;2.8387;
741.0000;0.4404;2.8308;
741.3000;0.4371;2.8255;
741.6000;0.4412;2.8282;
741.9000;0.4396;2.8282;
742.2000;0.4412;2.8361;
742.5000;0.4412;2.8361;
742.8000;0.4436;2.8361;
743.1000;0.4396;2.8229;
743.4000;0.4428;2.8255;
743.7000;0.4396;2.8150;
744.0000;0.4420;2.8176;
744.3000;0.4420;2.8123;
744.6000;0.4428;2.8176;
744.9000;0.4420;2.8097;
745.2000;0.4412;2.8203;
745.5000;0.4444;2.8255;
745.8000;0.4412;2.8229;
746.1000;0.4420;2.8176;
746.4000;0.4379;2.8018;
746.7000;0.4444;2.8123;
747.0000;0.4436;2.8044;
747.3000;0.4436;2.8071;
747.6000;0.4420;2.8071;
747.9000;0.4404;2.7965;
748.2000;0.4420;2.8018;
748.5000;0.4404;2.8018;
748.8000;0.4412;2.7991;
749.1000;0.4396;2.7912;
749.4000;0.4412;2.8044;
749.7000;0.4428;2.8097;
750.0000;0.4396;2.8123;
750.3000;0.4396;2.8176;
750.6000;0.4412;2.8176;
750.9000;0.4436;2.8203;
751.2000;0.4396;2.8071;
751.5000;0.4420;2.8097;
751.8000;0.4412;2.8071;
752.1000;0.4412;2.8044;
752.4000;0.4387;2.7991;
752.7000;0.4396;2.8018;
753.0000;0.4396;2.8097;
753.3000;0.4420;2.8150;
753.6000;0.4404;2.8071;
753.9000;0.4412;2.8123;
754.2000;0.4404;2.8176;
754.5000;0.4412;2.8176;
754.8000;0.4412;2.8176;
755.1000;0.4404;2.8229;
755.4000;0.4396;2.8150;
755.7000;0.4428;2.8150;
756.0000;0.4396;2.8071;
756.3000;0.4387;2.8071;
756.6000;0.4396;2.8150;
756.9000;0.4412;2.8282;
757.2000;0.4404;2.8308;
757.5000;0.4387;2.8255;
757.8000;0.4282;2.7939;
758.1000;0.4387;2.8308;
758.4000;0.4404;2.8308;
758.7000;0.4404;2.8308;
759.0000;0.4379;2.8361;
759.3000;0.4396;2.8308;
759.6000;0.4396;2.8361;
759.9000;0.4396;2.8440;
760.2000;0.4501;2.8757;
760.5000;0.4387;2.8414;
760.8000;0.4396;2.8493;
761.1000;0.4420;2.8598;
761.4000;0.4371;2.8493;
761.7000;0.4404;2.8625;
762.0000;0.4404;2.8572;
762.3000;0.4396;2.8493;
762.6000;0.4396;2.8387;
762.9000;0.4387;2.8334;
763.2000;0.4396;2.8361;
763.5000;0.4396;2.8308;
763.8000;0.4396;2.8255;
764.1000;0.4371;2.8255;
764.4000;0.4404;2.8414;
764.7000;0.4387;2.8361;
765.0000;0.4387;2.8282;
765.3000;0.4412;2.8229;
765.6000;0.4396;2.8150;
765.9000;0.4387;2.8123;
766.2000;0.4396;2.8044;
766.5000;0.4387;2.7965;
766.8000;0.4396;2.8044;
767.1000;0.4412;2.8071;
767.4000;0.4379;2.7939;
767.7000;0.4412;2.7939;
768.0000;0.4404;2.7939;
768.3000;0.4396;2.7965;
768.6000;0.4355;2.7912;
768.9000;0.4387;2.7939;
769.2000;0.4396;2.7965;
769.5000;0.4412;2.8071;
769.8000;0.4428;2.8123;
770.1000;0.4428;2.8071;
770.4000;0.4387;2.8044;
770.7000;0.4428;2.8150;
771.0000;0.4404;2.8071;
771.3000;0.4396;2.8018;
771.6000;0.4404;2.8071;
771.9000;0.4387;2.7912;
772.2000;0.4379;2.7833;
772.5000;0.4404;2.7886;
772.8000;0.4387;2.7833;
773.1000;0.4420;2.8044;
773.4000;0.4412;2.8071;
773.7000;0.4396;2.8018;
774.0000;0.4387;2.8071;
774.3000;0.4379;2.8097;
774.6000;0.4412;2.8229;
774.9000;0.4387;2.8071;
775.2000;0.4363;2.8044;
775.5000;0.4396;2.8097;
775.8000;0.4396;2.8123;
776.1000;0.4404;2.8203;
776.4000;0.4396;2.8255;
776.7000;0.4412;2.8282;
777.0000;0.4387;2.8229;
777.3000;0.4379;2.8282;
777.6000;0.4379;2.8334;
777.9000;0.4355;2.8308;
778.2000;0.4379;2.8440;
778.5000;0.4396;2.8546;
778.8000;0.4298;2.8229;
779.1000;0.4396;2.8519;
779.4000;0.4379;2.8387;
779.7000;0.4379;2.8387;
780.0000;0.4387;2.8466;
780.3000;0.4387;2.8440;
780.6000;0.4387;2.8387;
780.9000;0.4371;2.8229;
781.2000;0.4436;2.8361;
781.5000;0.4379;2.8097;
781.8000;0.4339;2.7939;
782.1000;0.4387;2.8044;
782.4000;0.4396;2.8123;
782.7000;0.4420;2.8282;
783.0000;0.4404;2.8203;
783.3000;0.4396;2.8150;
783.6000;0.4404;2.8229;
783.9000;0.4379;2.8123;
784.2000;0.4330;2.7939;
784.5000;0.4404;2.8018;
784.8000;0.4306;2.7833;
785.1000;0.4396;2.8018;
785.4000;0.4396;2.8123;
785.7000;0.4371;2.8044;
786.0000;0.4379;2.8150;
786.3000;0.4396;2.8150;
786.6000;0.4396;2.8097;
786.9000;0.4387;2.8071;
787.2000;0.4379;2.8044;
787.5000;0.4396;2.8071;
787.8000;0.4379;2.8044;
788.1000;0.4396;2.8044;
788.4000;0.4420;2.8123;
788.7000;0.4436;2.8282;
789.0000;0.4396;2.8203;
789.3000;0.4404;2.8150;
789.6000;0.4379;2.8018;
789.9000;0.4387;2.8150;
790.2000;0.4387;2.8097;
790.5000;0.4387;2.8071;
790.8000;0.4379;2.7939;
791.1000;0.4396;2.8071;
791.4000;0.4404;2.8071;
791.7000;0.4412;2.8150;
792.0000;0.4387;2.8123;
792.3000;0.4379;2.8018;
792.6000;0.4412;2.8097;
792.9000;0.4387;2.8071;
793.2000;0.4363;2.7991;
793.5000;0.4404;2.8071;
793.8000;0.4387;2.8044;
794.1000;0.4428;2.8176;
794.4000;0.4371;2.8018;
794.7000;0.4379;2.8071;
795.0000;0.4379;2.8097;
795.3000;0.4404;2.8176;
795.6000;0.4387;2.8123;
795.9000;0.4379;2.8071;
796.2000;0.4371;2.8097;
796.5000;0.4363;2.8176;
796.8000;0.4371;2.8203;
797.1000;0.4363;2.8150;
797.4000;0.4371;2.8282;
797.7000;0.4371;2.8440;
798.0000;0.4379;2.8493;
798.3000;0.4371;2.8625;
798.6000;0.4355;2.8519;
798.9000;0.4363;2.8440;
799.2000;0.4363;2.8519;
799.5000;0.4371;2.8519;
799.8000;0.4322;2.8361;
800.1000;0.4347;2.8519;
800.4000;0.4379;2.8546;
800.7000;0.4371;2.8387;
801.0000;0.4371;2.8466;
801.3000;0.4363;2.8361;
801.6000;0.4379;2.8440;
801.9000;0.4371;2.8387;
802.2000;0.4355;2.8493;
802.5000;0.4306;2.8387;
802.8000;0.4347;2.8466;
803.1000;0.4371;2.8414;
803.4000;0.4355;2.8203;
803.7000;0.4371;2.8282;
804.0000;0.4371;2.8203;
804.3000;0.4371;2.8150;
804.6000;0.4371;2.8123;
804.9000;0.4379;2.8229;
805.2000;0.4379;2.8150;
805.5000;0.4379;2.8123;
805.8000;0.4371;2.8150;
806.1000;0.4379;2.8229;
806.4000;0.4404;2.8282;
806.7000;0.4379;2.8255;
807.0000;0.4379;2.8229;
807.3000;0.4347;2.8097;
807.6000;0.4379;2.8176;
807.9000;0.4379;2.8176;
808.2000;0.4371;2.8097;
808.5000;0.4379;2.8097;
808.8000;0.4379;2.8123;
809.1000;0.4387;2.8150;
809.4000;0.4387;2.8018;
809.7000;0.4379;2.7991;
810.0000;0.4387;2.7965;
810.3000;0.4298;2.7728;
810.6000;0.4379;2.8018;
810.9000;0.4257;2.7675;
811.2000;0.4387;2.7991;
811.5000;0.4387;2.8150;
811.8000;0.4371;2.8097;
812.1000;0.4363;2.8123;
812.4000;0.4371;2.8097;
812.7000;0.4355;2.8071;
813.0000;0.4371;2.8123;
813.3000;0.4387;2.8097;
813.6000;0.4363;2.8044;
813.9000;0.4355;2.8097;
814.2000;0.4371;2.8150;
814.5000;0.4404;2.8282;
814.8000;0.4387;2.8255;
815.1000;0.4363;2.8229;
815.4000;0.4379;2.8203;
815.7000;0.4371;2.8282;
816.0000;0.4371;2.8361;
816.3000;0.4339;2.8334;
816.6000;0.4363;2.8414;
816.9000;0.4371;2.8519;
817.2000;0.4339;2.8414;
817.5000;0.4387;2.8625;
817.8000;0.4363;2.8598;
818.1000;0.4436;2.8730;
818.4000;0.4379;2.8519;
818.7000;0.4347;2.8466;
819.0000;0.4371;2.8572;
819.3000;0.4387;2.8598;
819.6000;0.4387;2.8493;
819.9000;0.4363;2.8546;
820.2000;0.4257;2.8176;
820.5000;0.4355;2.8493;
820.8000;0.4428;2.8651;
821.1000;0.4436;2.8651;
821.4000;0.4363;2.8466;
821.7000;0.4363;2.8414;
822.0000;0.4347;2.8387;
822.3000;0.4339;2.8361;
822.6000;0.4355;2.8334;
822.9000;0.4371;2.8414;
823.2000;0.4363;2.8493;
823.5000;0.4379;2.8519;
823.8000;0.4379;2.8493;
824.1000;0.4379;2.8519;
824.4000;0.4379;2.8493;
824.7000;0.4379;2.8466;
825.0000;0.4363;2.8334;
825.3000;0.4355;2.8255;
825.6000;0.4371;2.8203;
825.9000;0.4347;2.8123;
826.2000;0.4371;2.8229;
826.5000;0.4347;2.8097;
826.8000;0.4412;2.8255;
827.1000;0.4371;2.8150;
827.4000;0.4371;2.8150;
827.7000;0.4363;2.8071;
828.0000;0.4363;2.8097;
828.3000;0.4339;2.8018;
828.6000;0.4363;2.8123;
828.9000;0.4379;2.8203;
829.2000;0.4379;2.8203;
829.5000;0.4379;2.8203;
829.8000;0.4379;2.8229;
830.1000;0.4371;2.8203;
830.4000;0.4371;2.8203;
830.7000;0.4371;2.8229;
831.0000;0.4379;2.8203;
831.3000;0.4379;2.8229;
831.6000;0.4379;2.8176;
831.9000;0.4379;2.8203;
832.2000;0.4371;2.8150;
832.5000;0.4330;2.8071;
832.8000;0.4436;2.8387;
833.1000;0.4355;2.8255;
833.4000;0.4371;2.8255;
833.7000;0.4355;2.8229;
834.0000;0.4371;2.8361;
834.3000;0.4387;2.8334;
834.6000;0.4363;2.8255;
834.9000;0.4363;2.8229;
835.2000;0.4379;2.8229;
835.5000;0.4371;2.8308;
835.8000;0.4355;2.8361;
836.1000;0.4347;2.8387;
836.4000;0.4371;2.8546;
836.7000;0.4371;2.8598;
837.0000;0.4379;2.8572;
837.3000;0.4363;2.8598;
837.6000;0.4330;2.8546;
837.9000;0.4355;2.8572;
838.2000;0.4339;2.8572;
838.5000;0.4387;2.8809;
838.8000;0.4371;2.8730;
839.1000;0.4371;2.8730;
839.4000;0.4363;2.8730;
839.7000;0.4379;2.8704;
840.0000;0.4355;2.8677;
840.3000;0.4379;2.8677;
840.6000;0.4314;2.8519;
840.9000;0.4347;2.8598;
841.2000;0.4363;2.8625;
841.5000;0.4371;2.8651;
841.8000;0.4363;2.8572;
842.1000;0.4355;2.8572;
842.4000;0.4379;2.8625;
842.7000;0.4379;2.8493;
843.0000;0.4363;2.8466;
843.3000;0.4363;2.8414;
843.6000;0.4371;2.8361;
843.9000;0.4347;2.8334;
844.2000;0.4355;2.8334;
844.5000;0.4355;2.8229;
844.8000;0.4347;2.8123;
845.1000;0.4371;2.8176;
845.4000;0.4371;2.8255;
845.7000;0.4371;2.8255;
846.0000;0.4371;2.8203;
846.3000;0.4379;2.8308;
846.6000;0.4379;2.8282;
846.9000;0.4355;2.8123;
847.2000;0.4371;2.8150;
847.5000;0.4371;2.8203;
847.8000;0.4363;2.8123;
848.1000;0.4387;2.8097;
848.4000;0.4363;2.8097;
848.7000;0.4363;2.8176;
849.0000;0.4371;2.8334;
849.3000;0.4347;2.8097;
849.6000;0.4371;2.8176;
849.9000;0.4363;2.8282;
850.2000;0.4355;2.8176;
850.5000;0.4387;2.8150;
850.8000;0.4379;2.8123;
851.1000;0.4371;2.8071;
851.4000;0.4347;2.7965;
851.7000;0.4363;2.7991;
852.0000;0.4363;2.7939;
852.3000;0.4371;2.7991;
852.6000;0.4322;2.7833;
852.9000;0.4371;2.8097;
853.2000;0.4436;2.8334;
853.5000;0.4371;2.8176;
853.8000;0.4363;2.8176;
854.1000;0.4371;2.8229;
854.4000;0.4420;2.8255;
854.7000;0.4355;2.8018;
855.0000;0.4371;2.8018;
855.3000;0.4371;2.8044;
855.6000;0.4379;2.8018;
855.9000;0.4363;2.7912;
856.2000;0.4355;2.7912;
856.5000;0.4363;2.8044;
856.8000;0.4355;2.8018;
857.1000;0.4355;2.8044;
857.4000;0.4363;2.8150;
857.7000;0.4339;2.8150;
858.0000;0.4347;2.8203;
858.3000;0.4379;2.8387;
858.6000;0.4330;2.8361;
858.9000;0.4355;2.8414;
859.2000;0.4363;2.8546;
859.5000;0.4314;2.8466;
859.8000;0.4363;2.8598;
860.1000;0.4355;2.8572;
860.4000;0.4363;2.8677;
860.7000;0.4371;2.8625;
861.0000;0.4371;2.8625;
861.3000;0.4371;2.8677;
861.6000;0.4314;2.8361;
861.9000;0.4347;2.8414;
862.2000;0.4355;2.8414;
862.5000;0.4355;2.8414;
862.8000;0.4363;2.8414;
863.1000;0.4355;2.8387;
863.4000;0.4322;2.8361;
863.7000;0.4347;2.8440;
864.0000;0.4363;2.8387;
864.3000;0.4314;2.8255;
864.6000;0.4330;2.8308;
864.9000;0.4355;2.8255;
865.2000;0.4282;2.7965;
865.5000;0.4379;2.8229;
865.8000;0.4371;2.8176;
866.1000;0.4363;2.8123;
866.4000;0.4371;2.8123;
866.7000;0.4371;2.8097;
867.0000;0.4363;2.8123;
867.3000;0.4339;2.8044;
867.6000;0.4355;2.8150;
867.9000;0.4330;2.8123;
868.2000;0.4371;2.8176;
868.5000;0.4420;2.8466;
868.8000;0.4339;2.8308;
869.1000;0.4371;2.8308;
869.4000;0.4363;2.8255;
869.7000;0.4371;2.8308;
870.0000;0.4363;2.8282;
870.3000;0.4363;2.8334;
870.6000;0.4396;2.8361;
870.9000;0.4444;2.8493;
871.2000;0.4371;2.8282;
871.5000;0.4347;2.8203;
871.8000;0.4339;2.8203;
872.1000;0.4387;2.8387;
872.4000;0.4363;2.8334;
872.7000;0.4249;2.8097;
873.0000;0.4363;2.8440;
873.3000;0.4363;2.8466;
873.6000;0.4371;2.8440;
873.9000;0.4396;2.8493;
874.2000;0.4322;2.8123;
874.5000;0.4363;2.8255;
874.8000;0.4371;2.8255;
875.1000;0.4371;2.8308;
875.4000;0.4347;2.8361;
875.7000;0.4363;2.8466;
876.0000;0.4363;2.8493;
876.3000;0.4379;2.8572;
876.6000;0.4371;2.8466;
876.9000;0.4330;2.8387;
877.2000;0.4379;2.8546;
877.5000;0.4265;2.8203;
877.8000;0.4371;2.8546;
878.1000;0.4355;2.8361;
878.4000;0.4412;2.8493;
878.7000;0.4355;2.8466;
879.0000;0.4412;2.8730;
879.3000;0.4371;2.8704;
879.6000;0.4363;2.8757;
879.9000;0.4363;2.8836;
880.2000;0.4355;2.8809;
880.5000;0.4265;2.8546;
880.8000;0.4379;2.8862;
881.1000;0.4363;2.8730;
881.4000;0.4322;2.8625;
881.7000;0.4290;2.8466;
882.0000;0.4363;2.8677;
882.3000;0.4347;2.8625;
882.6000;0.4339;2.8572;
882.9000;0.4339;2.8598;
883.2000;0.4355;2.8572;
883.5000;0.4363;2.8546;
883.8000;0.4339;2.8466;
884.1000;0.4339;2.8440;
884.4000;0.4355;2.8414;
884.7000;0.4363;2.8546;
885.0000;0.4355;2.8572;
885.3000;0.4347;2.8493;
885.6000;0.4363;2.8414;
885.9000;0.4339;2.8308;
886.2000;0.4347;2.8176;
886.5000;0.4379;2.8229;
886.8000;0.4379;2.8176;
887.1000;0.4379;2.8255;
887.4000;0.4363;2.8308;
887.7000;0.4371;2.8203;
888.0000;0.4363;2.8203;
888.3000;0.4363;2.8255;
888.6000;0.4363;2.8229;
888.9000;0.4363;2.8229;
889.2000;0.4322;2.8123;
889.5000;0.4363;2.8387;
889.8000;0.4371;2.8519;
890.1000;0.4371;2.8493;
890.4000;0.4371;2.8466;
890.7000;0.4363;2.8414;
891.0000;0.4355;2.8361;
891.3000;0.4387;2.8361;
891.6000;0.4363;2.8361;
891.9000;0.4347;2.8308;
892.2000;0.4404;2.8387;
892.5000;0.4379;2.8334;
892.8000;0.4347;2.8176;
893.1000;0.4371;2.8203;
893.4000;0.4379;2.8229;
893.7000;0.4379;2.8255;
894.0000;0.4339;2.8203;
894.3000;0.4347;2.8229;
894.6000;0.4347;2.8203;
894.9000;0.4396;2.8440;
895.2000;0.4363;2.8334;
895.5000;0.4339;2.8308;
895.8000;0.4314;2.8282;
896.1000;0.4347;2.8361;
896.4000;0.4363;2.8466;
896.7000;0.4404;2.8704;
897.0000;0.4347;2.8519;
897.3000;0.4355;2.8625;
897.6000;0.4412;2.8862;
897.9000;0.4330;2.8757;
898.2000;0.4355;2.8783;
898.5000;0.4339;2.8677;
898.8000;0.4387;2.8757;
899.1000;0.4330;2.8651;
899.4000;0.4339;2.8730;
899.7000;0.4322;2.8704;
900.0000;0.4347;2.8809;
900.3000;0.4355;2.8888;
900.6000;0.4355;2.8836;
900.9000;0.4396;2.8915;
901.2000;0.4355;2.8730;
901.5000;0.4363;2.8677;
901.8000;0.4355;2.8572;
902.1000;0.4379;2.8651;
902.4000;0.4355;2.8466;
902.7000;0.4371;2.8493;
903.0000;0.4330;2.8308;
903.3000;0.4371;2.8440;
903.6000;0.4363;2.8466;
903.9000;0.4371;2.8440;
904.2000;0.4371;2.8546;
904.5000;0.4436;2.8704;
904.8000;0.4379;2.8466;
905.1000;0.4363;2.8493;
905.4000;0.4363;2.8414;
905.7000;0.4371;2.8466;
906.0000;0.4355;2.8466;
906.3000;0.4347;2.8440;
906.6000;0.4355;2.8387;
906.9000;0.4355;2.8308;
907.2000;0.4347;2.8361;
907.5000;0.4339;2.8334;
907.8000;0.4355;2.8308;
908.1000;0.4355;2.8308;
908.4000;0.4355;2.8229;
908.7000;0.4387;2.8255;
909.0000;0.4347;2.8255;
909.3000;0.4387;2.8361;
909.6000;0.4355;2.8282;
909.9000;0.4379;2.8361;
910.2000;0.4274;2.8097;
910.5000;0.4355;2.8387;
910.8000;0.4371;2.8387;
911.1000;0.4363;2.8361;
911.4000;0.4371;2.8334;
911.7000;0.4379;2.8308;
912.0000;0.4363;2.8229;
912.3000;0.4249;2.7912;
912.6000;0.4379;2.8361;
912.9000;0.4379;2.8361;
913.2000;0.4371;2.8387;
913.5000;0.4355;2.8414;
913.8000;0.4339;2.8493;
914.1000;0.4363;2.8466;
914.4000;0.4371;2.8440;
914.7000;0.4347;2.8255;
915.0000;0.4347;2.8282;
915.3000;0.4363;2.8361;
915.6000;0.4347;2.8334;
915.9000;0.4347;2.8387;
916.2000;0.4363;2.8546;
916.5000;0.4347;2.8493;
916.8000;0.4347;2.8493;
917.1000;0.4339;2.8572;
917.4000;0.4347;2.8598;
917.7000;0.4347;2.8625;
918.0000;0.4355;2.8651;
918.3000;0.4347;2.8598;
918.6000;0.4347;2.8572;
918.9000;0.4322;2.8546;
919.2000;0.4387;2.8757;
919.5000;0.4355;2.8704;
919.8000;0.4347;2.8757;
920.1000;0.4339;2.8625;
920.4000;0.4363;2.8651;
920.7000;0.4444;2.8836;
921.0000;0.4347;2.8598;
921.3000;0.4314;2.8440;
921.6000;0.4347;2.8546;
921.9000;0.4347;2.8598;
922.2000;0.4347;2.8598;
922.5000;0.4339;2.8625;
922.8000;0.4363;2.8783;
923.1000;0.4379;2.8730;
923.4000;0.4363;2.8730;
923.7000;0.4428;2.8809;
924.0000;0.4371;2.8677;
924.3000;0.4363;2.8572;
924.6000;0.4363;2.8493;
924.9000;0.4347;2.8466;
925.2000;0.4339;2.8493;
925.5000;0.4355;2.8493;
925.8000;0.4371;2.8546;
926.1000;0.4339;2.8387;
926.4000;0.4412;2.8466;
926.7000;0.4339;2.8334;
927.0000;0.4371;2.8387;
927.3000;0.4363;2.8334;
927.6000;0.4330;2.8255;
927.9000;0.4436;2.8677;
928.2000;0.4371;2.8546;
928.5000;0.4371;2.8519;
928.8000;0.4339;2.8440;
929.1000;0.4355;2.8334;
929.4000;0.4371;2.8414;
929.7000;0.4347;2.8414;
930.0000;0.4347;2.8440;
930.3000;0.4363;2.8546;
930.6000;0.4363;2.8493;
930.9000;0.4355;2.8466;
931.2000;0.4387;2.8519;
931.5000;0.4355;2.8334;
931.8000;0.4379;2.8387;
932.1000;0.4363;2.8414;
932.4000;0.4363;2.8361;
932.7000;0.4363;2.8334;
933.0000;0.4355;2.8414;
933.3000;0.4379;2.8414;
933.6000;0.4363;2.8466;
933.9000;0.4322;2.8387;
934.2000;0.4387;2.8572;
934.5000;0.4347;2.8414;
934.8000;0.4322;2.8440;
935.1000;0.4339;2.8493;
935.4000;0.4330;2.8598;
935.7000;0.4371;2.8519;
936.0000;0.4363;2.8387;
936.3000;0.4371;2.8440;
936.6000;0.4306;2.8308;
936.9000;0.4371;2.8572;
937.2000;0.4363;2.8625;
937.5000;0.4339;2.8651;
937.8000;0.4330;2.8598;
938.1000;0.4387;2.8730;
938.4000;0.4347;2.8730;
938.7000;0.4355;2.8651;
939.0000;0.4339;2.8572;
939.3000;0.4330;2.8572;
939.6000;0.4347;2.8493;
939.9000;0.4330;2.8546;
940.2000;0.4363;2.8651;
940.5000;0.4339;2.8677;
940.8000;0.4339;2.8757;
941.1000;0.4322;2.8677;
941.4000;0.4339;2.8651;
941.7000;0.4274;2.8493;
942.0000;0.4282;2.8466;
942.3000;0.4355;2.8625;
942.6000;0.4339;2.8651;
942.9000;0.4330;2.8625;
943.2000;0.4330;2.8704;
943.5000;0.4347;2.8625;
943.8000;0.4355;2.8598;
944.1000;0.4355;2.8546;
944.4000;0.4339;2.8519;
944.7000;0.4355;2.8493;
945.0000;0.4339;2.8440;
945.3000;0.4355;2.8440;
945.6000;0.4355;2.8414;
945.9000;0.4355;2.8440;
946.2000;0.4355;2.8414;
946.5000;0.4363;2.8414;
946.8000;0.4355;2.8361;
947.1000;0.4371;2.8361;
947.4000;0.4371;2.8282;
947.7000;0.4339;2.8203;
948.0000;0.4355;2.8255;
948.3000;0.4355;2.8334;
948.6000;0.4347;2.8466;
948.9000;0.4355;2.8414;
949.2000;0.4339;2.8466;
949.5000;0.4396;2.8625;
949.8000;0.4387;2.8546;
950.1000;0.4355;2.8493;
950.4000;0.4274;2.8229;
950.7000;0.4355;2.8414;
951.0000;0.4290;2.8097;
951.3000;0.4387;2.8387;
951.6000;0.4363;2.8334;
951.9000;0.4355;2.8334;
952.2000;0.4379;2.8334;
952.5000;0.4363;2.8387;
952.8000;0.4379;2.8466;
953.1000;0.4363;2.8334;
953.4000;0.4339;2.8203;
953.7000;0.4363;2.8308;
954.0000;0.4355;2.8308;
954.3000;0.4339;2.8229;
954.6000;0.4363;2.8361;
954.9000;0.4363;2.8361;
955.2000;0.4339;2.8334;
955.5000;0.4355;2.8493;
955.8000;0.4339;2.8414;
956.1000;0.4282;2.8176;
956.4000;0.4339;2.8414;
956.7000;0.4339;2.8361;
957.0000;0.4363;2.8414;
957.3000;0.4347;2.8466;
957.6000;0.4371;2.8572;
957.9000;0.4355;2.8519;
958.2000;0.4371;2.8598;
958.5000;0.4371;2.8598;
958.8000;0.4363;2.8730;
959.1000;0.4379;2.8730;
959.4000;0.4347;2.8809;
959.7000;0.4347;2.8888;
960.0000;0.4347;2.8836;
960.3000;0.4330;2.8757;
960.6000;0.4347;2.8625;
960.9000;0.4339;2.8466;
961.2000;0.4355;2.8493;
961.5000;0.4371;2.8493;
961.8000;0.4363;2.8440;
962.1000;0.4355;2.8466;
962.4000;0.4347;2.8440;
962.7000;0.4314;2.8334;
963.0000;0.4339;2.8361;
963.3000;0.4322;2.8361;
963.6000;0.4355;2.8387;
963.9000;0.4355;2.8361;
964.2000;0.4347;2.8361;
964.5000;0.4217;2.8018;
964.8000;0.4355;2.8308;
965.1000;0.4339;2.8203;
965.4000;0.4355;2.8176;
965.7000;0.4347;2.8097;
966.0000;0.4339;2.8123;
966.3000;0.4379;2.8229;
966.6000;0.4355;2.8203;
966.9000;0.4404;2.8466;
967.2000;0.4355;2.8414;
967.5000;0.4339;2.8414;
967.8000;0.4355;2.8387;
968.1000;0.4274;2.8229;
968.4000;0.4379;2.8387;
968.7000;0.4363;2.8334;
969.0000;0.4355;2.8387;
969.3000;0.4371;2.8414;
969.6000;0.4363;2.8414;
969.9000;0.4355;2.8387;
970.2000;0.4396;2.8546;
970.5000;0.4347;2.8334;
970.8000;0.4322;2.8176;
971.1000;0.4330;2.8255;
971.4000;0.4355;2.8334;
971.7000;0.4330;2.8203;
972.0000;0.4339;2.8308;
972.3000;0.4241;2.7939;
972.6000;0.4420;2.8493;
972.9000;0.4339;2.8308;
973.2000;0.4355;2.8361;
973.5000;0.4347;2.8466;
973.8000;0.4306;2.8466;
974.1000;0.4371;2.8704;
974.4000;0.4461;2.8994;
974.7000;0.4339;2.8730;
975.0000;0.4322;2.8704;
975.3000;0.4387;2.8888;
975.6000;0.4339;2.8704;
975.9000;0.4322;2.8572;
976.2000;0.4347;2.8704;
976.5000;0.4363;2.8757;
976.8000;0.4339;2.8704;
977.1000;0.4347;2.8757;
977.4000;0.4339;2.8915;
977.7000;0.4322;2.8888;
978.0000;0.4339;2.8994;
978.3000;0.4347;2.9020;
978.6000;0.4330;2.8888;
978.9000;0.4306;2.8836;
979.2000;0.4355;2.8941;
979.5000;0.4347;2.8862;
979.8000;0.4339;2.8836;
980.1000;0.4347;2.8757;
980.4000;0.4330;2.8651;
980.7000;0.4347;2.8836;
981.0000;0.4339;2.8836;
981.3000;0.4339;2.8783;
981.6000;0.4322;2.8730;
981.9000;0.4355;2.8704;
982.2000;0.4355;2.8625;
982.5000;0.4404;2.8730;
982.8000;0.4355;2.8572;
983.1000;0.4355;2.8572;
983.4000;0.4355;2.8466;
983.7000;0.4347;2.8387;
984.0000;0.4371;2.8546;
984.3000;0.4322;2.8361;
984.6000;0.4339;2.8334;
984.9000;0.4363;2.8361;
985.2000;0.4339;2.8361;
985.5000;0.4355;2.8387;
985.8000;0.4322;2.8282;
986.1000;0.4396;2.8519;
986.4000;0.4347;2.8229;
986.7000;0.4306;2.8150;
987.0000;0.4379;2.8414;
987.3000;0.4339;2.8387;
987.6000;0.4306;2.8282;
987.9000;0.4363;2.8361;
988.2000;0.4371;2.8440;
988.5000;0.4347;2.8308;
988.8000;0.4379;2.8414;
989.1000;0.4363;2.8414;
989.4000;0.4371;2.8334;
989.7000;0.4347;2.8282;
990.0000;0.4347;2.8255;
990.3000;0.4339;2.8282;
990.6000;0.4355;2.8308;
990.9000;0.4347;2.8361;
991.2000;0.4339;2.8387;
991.5000;0.4330;2.8387;
991.8000;0.4379;2.8546;
992.1000;0.4347;2.8414;
992.4000;0.4282;2.8282;
992.7000;0.4330;2.8414;
993.0000;0.4371;2.8440;
993.3000;0.4355;2.8414;
993.6000;0.4363;2.8493;
993.9000;0.4330;2.8414;
994.2000;0.4412;2.8598;
994.5000;0.4355;2.8466;
994.8000;0.4347;2.8414;
995.1000;0.4355;2.8466;
995.4000;0.4322;2.8361;
995.7000;0.4420;2.8651;
996.0000;0.4363;2.8493;
996.3000;0.4330;2.8334;
996.6000;0.4347;2.8308;
996.9000;0.4322;2.8334;
997.2000;0.4339;2.8334;
997.5000;0.4330;2.8308;
997.8000;0.4330;2.8387;
998.1000;0.4330;2.8493;
998.4000;0.4339;2.8546;
998.7000;0.4355;2.8546;
999.0000;0.4339;2.8546;
999.3000;0.4322;2.8572;
999.6000;0.4347;2.8572;
999.9000;0.4339;2.8598;
1000.2000;0.4330;2.8572;
1000.5000;0.4379;2.8757;
1000.8000;0.4371;2.8651;
1001.1000;0.4355;2.8572;
1001.4000;0.4322;2.8466;
1001.7000;0.4330;2.8387;
1002.0000;0.4330;2.8334;
1002.3000;0.4339;2.8387;
1002.6000;0.4339;2.8414;
1002.9000;0.4330;2.8361;
1003.2000;0.4330;2.8334;
1003.5000;0.4347;2.8440;
1003.8000;0.4363;2.8466;
1004.1000;0.4339;2.8414;
1004.4000;0.4339;2.8361;
1004.7000;0.4363;2.8334;
1005.0000;0.4371;2.8334;
1005.3000;0.4355;2.8387;
1005.6000;0.4330;2.8282;
1005.9000;0.4363;2.8387;
1006.2000;0.4363;2.8361;
1006.5000;0.4347;2.8282;
1006.8000;0.4339;2.8282;
1007.1000;0.4355;2.8334;
1007.4000;0.4371;2.8308;
1007.7000;0.4347;2.8203;
1008.0000;0.4355;2.8123;
1008.3000;0.4330;2.8150;
1008.6000;0.4339;2.8123;
1008.9000;0.4339;2.8123;
1009.2000;0.4347;2.8150;
1009.5000;0.4347;2.8176;
1009.8000;0.4363;2.8255;
1010.1000;0.4371;2.8255;
1010.4000;0.4355;2.8176;
1010.7000;0.4347;2.8097;
1011.0000;0.4371;2.8071;
1011.3000;0.4347;2.8044;
1011.6000;0.4355;2.8123;
1011.9000;0.4330;2.8018;
1012.2000;0.4330;2.7886;
1012.5000;0.4355;2.8044;
1012.8000;0.4363;2.8018;
1013.1000;0.4306;2.7912;
1013.4000;0.4371;2.8203;
1013.7000;0.4347;2.8150;
1014.0000;0.4347;2.8150;
1014.3000;0.4330;2.8071;
1014.6000;0.4330;2.8123;
1014.9000;0.4339;2.8123;
1015.2000;0.4355;2.8123;
1015.5000;0.4347;2.8097;
1015.8000;0.4241;2.7886;
1016.1000;0.4339;2.8255;
1016.4000;0.4339;2.8229;
1016.7000;0.4347;2.8282;
1017.0000;0.4330;2.8282;
1017.3000;0.4249;2.8044;
1017.6000;0.4347;2.8308;
1017.9000;0.4330;2.8255;
1018.2000;0.4330;2.8308;
1018.5000;0.4322;2.8255;
1018.8000;0.4339;2.8334;
1019.1000;0.4339;2.8308;
1019.4000;0.4339;2.8308;
1019.7000;0.4322;2.8229;
1020.0000;0.4339;2.8255;
1020.3000;0.4355;2.8308;
1020.6000;0.4339;2.8387;
1020.9000;0.4330;2.8361;
1021.2000;0.4355;2.8414;
1021.5000;0.4330;2.8334;
1021.8000;0.4339;2.8334;
1022.1000;0.4330;2.8334;
1022.4000;0.4347;2.8387;
1022.7000;0.4363;2.8387;
1023.0000;0.4347;2.8176;
1023.3000;0.4339;2.8097;
1023.6000;0.4282;2.7912;
1023.9000;0.4339;2.8018;
1024.2000;0.4355;2.7965;
1024.5000;0.4322;2.7939;
1024.8000;0.4355;2.7965;
1025.1000;0.4347;2.7912;
1025.4000;0.4371;2.8044;
1025.7000;0.4371;2.8071;
1026.0000;0.4355;2.8071;
1026.3000;0.4355;2.8044;
1026.6000;0.4363;2.8018;
1026.9000;0.4371;2.8018;
1027.2000;0.4290;2.7807;
1027.5000;0.4347;2.8018;
1027.8000;0.4355;2.7965;
1028.1000;0.4347;2.7860;
1028.4000;0.4290;2.7649;
1028.7000;0.4290;2.7807;
1029.0000;0.4363;2.7965;
1029.3000;0.4339;2.8018;
1029.6000;0.4339;2.8071;
1029.9000;0.4322;2.8044;
1030.2000;0.4330;2.8071;
1030.5000;0.4249;2.7701;
1030.8000;0.4363;2.7991;
1031.1000;0.4355;2.8018;
1031.4000;0.4363;2.8071;
1031.7000;0.4371;2.8044;
1032.0000;0.4339;2.7965;
1032.3000;0.4347;2.7860;
1032.6000;0.4379;2.7939;
1032.9000;0.4347;2.8018;
1033.2000;0.4355;2.7965;
1033.5000;0.4330;2.8018;
1033.8000;0.4330;2.8097;
1034.1000;0.4339;2.8071;
1034.4000;0.4355;2.8044;
1034.7000;0.4322;2.7965;
1035.0000;0.4404;2.8334;
1035.3000;0.4355;2.8203;
1035.6000;0.4347;2.8203;
1035.9000;0.4339;2.8150;
1036.2000;0.4347;2.8150;
1036.5000;0.4257;2.7939;
1036.8000;0.4339;2.8203;
1037.1000;0.4298;2.8044;
1037.4000;0.4347;2.8123;
1037.7000;0.4330;2.8150;
1038.0000;0.4347;2.8229;
1038.3000;0.4339;2.8282;
1038.6000;0.4339;2.8361;
1038.9000;0.4314;2.8308;
1039.2000;0.4339;2.8361;
1039.5000;0.4339;2.8308;
1039.8000;0.4347;2.8282;
1040.1000;0.4371;2.8334;
1040.4000;0.4339;2.8203;
1040.7000;0.4330;2.8203;
1041.0000;0.4355;2.8282;
1041.3000;0.4339;2.8308;
1041.6000;0.4339;2.8255;
1041.9000;0.4249;2.7939;
1042.2000;0.4355;2.8176;
1042.5000;0.4355;2.8097;
1042.8000;0.4347;2.8071;
1043.1000;0.4355;2.7965;
1043.4000;0.4371;2.7886;
1043.7000;0.4387;2.7912;
1044.0000;0.4371;2.7860;
1044.3000;0.4347;2.7754;
1044.6000;0.4347;2.7649;
1044.9000;0.4355;2.7701;
1045.2000;0.4355;2.7754;
1045.5000;0.4347;2.7860;
1045.8000;0.4363;2.7939;
1046.1000;0.4363;2.7991;
1046.4000;0.4347;2.7965;
1046.7000;0.4339;2.7912;
1047.0000;0.4355;2.8018;
1047.3000;0.4322;2.7991;
1047.6000;0.4347;2.7991;
1047.9000;0.4322;2.7939;
1048.2000;0.4330;2.7965;
1048.5000;0.4355;2.8018;
1048.8000;0.4339;2.8123;
1049.1000;0.4363;2.8282;
1049.4000;0.4363;2.8176;
1049.7000;0.4322;2.8018;
1050.0000;0.4355;2.8071;
1050.3000;0.4371;2.8123;
1050.6000;0.4371;2.8071;
1050.9000;0.4371;2.8123;
1051.2000;0.4363;2.8097;
1051.5000;0.4322;2.8018;
1051.8000;0.4363;2.8123;
1052.1000;0.4363;2.8123;
1052.4000;0.4355;2.8071;
1052.7000;0.4330;2.8071;
1053.0000;0.4355;2.8123;
1053.3000;0.4322;2.8097;
1053.6000;0.4371;2.8255;
1053.9000;0.4339;2.8229;
1054.2000;0.4355;2.8123;
1054.5000;0.4355;2.8123;
1054.8000;0.4339;2.8097;
1055.1000;0.4428;2.8255;
1055.4000;0.4339;2.8044;
1055.7000;0.4347;2.8071;
1056.0000;0.4355;2.8097;
1056.3000;0.4330;2.8044;
1056.6000;0.4355;2.8097;
1056.9000;0.4330;2.8097;
1057.2000;0.4347;2.8123;
1057.5000;0.4208;2.7807;
1057.8000;0.4339;2.8308;
1058.1000;0.4322;2.8282;
1058.4000;0.4347;2.8229;
1058.7000;0.4330;2.8176;
1059.0000;0.4371;2.8334;
1059.3000;0.4330;2.8203;
1059.6000;0.4298;2.8255;
1059.9000;0.4371;2.8493;
1060.2000;0.4355;2.8334;
1060.5000;0.4330;2.8255;
1060.8000;0.4420;2.8466;
1061.1000;0.4355;2.8176;
1061.4000;0.4322;2.8097;
1061.7000;0.4208;2.7728;
1062.0000;0.4339;2.8123;
1062.3000;0.4314;2.8044;
1062.6000;0.4355;2.8203;
1062.9000;0.4339;2.8255;
1063.2000;0.4347;2.8334;
1063.5000;0.4339;2.8334;
1063.8000;0.4322;2.8203;
1064.1000;0.4347;2.8308;
1064.4000;0.4330;2.8308;
1064.7000;0.4339;2.8308;
1065.0000;0.4314;2.8255;
1065.3000;0.4339;2.8203;
1065.6000;0.4330;2.8123;
1065.9000;0.4314;2.8018;
1066.2000;0.4355;2.8044;
1066.5000;0.4339;2.7965;
1066.8000;0.4363;2.8071;
1067.1000;0.4355;2.7991;
1067.4000;0.4330;2.8018;
1067.7000;0.4355;2.8044;
1068.0000;0.4347;2.8097;
1068.3000;0.4355;2.8123;
1068.6000;0.4347;2.8150;
1068.9000;0.4339;2.8044;
1069.2000;0.4339;2.8018;
1069.5000;0.4322;2.7965;
1069.8000;0.4257;2.7754;
1070.1000;0.4355;2.8123;
1070.4000;0.4347;2.8097;
1070.7000;0.4184;2.7569;
1071.0000;0.4322;2.7965;
1071.3000;0.4347;2.8071;
1071.6000;0.4339;2.8071;
1071.9000;0.4428;2.8334;
1072.2000;0.4347;2.8097;
1072.5000;0.4355;2.8071;
1072.8000;0.4363;2.8097;
1073.1000;0.4339;2.8071;
1073.4000;0.4339;2.8203;
1073.7000;0.4355;2.8255;
1074.0000;0.4347;2.8203;
1074.3000;0.4322;2.8176;
1074.6000;0.4339;2.8203;
1074.9000;0.4339;2.8176;
1075.2000;0.4363;2.8334;
1075.5000;0.4347;2.8334;
1075.8000;0.4322;2.8229;
1076.1000;0.4241;2.8044;
1076.4000;0.4347;2.8440;
1076.7000;0.4363;2.8466;
1077.0000;0.4330;2.8519;
1077.3000;0.4339;2.8598;
1077.6000;0.4355;2.8677;
1077.9000;0.4347;2.8704;
1078.2000;0.4339;2.8809;
1078.5000;0.4274;2.8677;
1078.8000;0.4330;2.8757;
1079.1000;0.4355;2.8836;
1079.4000;0.4330;2.8757;
1079.7000;0.4339;2.8757;
1080.0000;0.4339;2.8730;
1080.3000;0.4355;2.8809;
1080.6000;0.4322;2.8704;
1080.9000;0.4306;2.8677;
1081.2000;0.4339;2.8730;
1081.5000;0.4290;2.8519;
1081.8000;0.4355;2.8651;
1082.1000;0.4404;2.8625;
1082.4000;0.4322;2.8414;
1082.7000;0.4347;2.8414;
1083.0000;0.4347;2.8414;
1083.3000;0.4330;2.8361;
1083.6000;0.4330;2.8308;
1083.9000;0.4314;2.8203;
1084.2000;0.4363;2.8334;
1084.5000;0.4339;2.8229;
1084.8000;0.4339;2.8255;
1085.1000;0.4363;2.8229;
1085.4000;0.4249;2.7939;
1085.7000;0.4347;2.8229;
1086.0000;0.4355;2.8203;
1086.3000;0.4355;2.8150;
1086.6000;0.4355;2.8203;
1086.9000;0.4355;2.8150;
1087.2000;0.4347;2.8203;
1087.5000;0.4363;2.8150;
1087.8000;0.4347;2.8150;
1088.1000;0.4355;2.8071;
1088.4000;0.4371;2.8097;
1088.7000;0.4355;2.8018;
1089.0000;0.4330;2.8018;
1089.3000;0.4363;2.8097;
1089.6000;0.4339;2.8150;
1089.9000;0.4322;2.8176;
1090.2000;0.4347;2.8150;
1090.5000;0.4347;2.8176;
1090.8000;0.4339;2.8150;
1091.1000;0.4347;2.8176;
1091.4000;0.4371;2.8229;
1091.7000;0.4355;2.8123;
1092.0000;0.4355;2.8097;
1092.3000;0.4355;2.8071;
1092.6000;0.4371;2.8044;
1092.9000;0.4339;2.7965;
1093.2000;0.4339;2.8071;
1093.5000;0.4355;2.8071;
1093.8000;0.4347;2.8044;
1094.1000;0.4339;2.8123;
1094.4000;0.4330;2.8018;
1094.7000;0.4355;2.8044;
1095.0000;0.4314;2.8018;
1095.3000;0.4355;2.8071;
1095.6000;0.4330;2.8071;
1095.9000;0.4347;2.8150;
1096.2000;0.4306;2.8044;
1096.5000;0.4363;2.8203;
1096.8000;0.4339;2.8334;
1097.1000;0.4330;2.8308;
1097.4000;0.4330;2.8282;
1097.7000;0.4339;2.8361;
1098.0000;0.4339;2.8440;
1098.3000;0.4347;2.8414;
1098.6000;0.4404;2.8651;
1098.9000;0.4355;2.8519;
1099.2000;0.4339;2.8493;
1099.5000;0.4363;2.8572;
1099.8000;0.4347;2.8519;
1100.1000;0.4322;2.8414;
1100.4000;0.4339;2.8387;
1100.7000;0.4217;2.7991;
1101.0000;0.4363;2.8387;
1101.3000;0.4225;2.7965;
1101.6000;0.4330;2.8255;
1101.9000;0.4355;2.8176;
1102.2000;0.4347;2.8176;
1102.5000;0.4371;2.8255;
1102.8000;0.4330;2.8203;
1103.1000;0.4347;2.8229;
1103.4000;0.4339;2.8229;
1103.7000;0.4355;2.8123;
1104.0000;0.4330;2.7939;
1104.3000;0.4339;2.7912;
1104.6000;0.4355;2.8044;
1104.9000;0.4290;2.7965;
1105.2000;0.4330;2.8150;
1105.5000;0.4339;2.8203;
1105.8000;0.4249;2.8071;
1106.1000;0.4225;2.7991;
1106.4000;0.4241;2.8071;
1106.7000;0.4339;2.8334;
1107.0000;0.4265;2.8176;
1107.3000;0.4339;2.8308;
1107.6000;0.4347;2.8282;
1107.9000;0.4355;2.8308;
1108.2000;0.4355;2.8361;
1108.5000;0.4363;2.8334;
1108.8000;0.4355;2.8308;
1109.1000;0.4330;2.8203;
1109.4000;0.4306;2.8150;
1109.7000;0.4363;2.8255;
1110.0000;0.4347;2.8255;
1110.3000;0.4347;2.8203;
1110.6000;0.4355;2.8150;
1110.9000;0.4347;2.8044;
1111.2000;0.4363;2.7939;
1111.5000;0.4330;2.7912;
1111.8000;0.4347;2.8071;
1112.1000;0.4363;2.8123;
1112.4000;0.4363;2.8150;
1112.7000;0.4363;2.8150;
1113.0000;0.4347;2.8097;
1113.3000;0.4355;2.8044;
1113.6000;0.4282;2.7833;
1113.9000;0.4363;2.8150;
1114.2000;0.4347;2.8150;
1114.5000;0.4330;2.8176;
1114.8000;0.4322;2.8176;
1115.1000;0.4339;2.8150;
1115.4000;0.4298;2.8044;
1115.7000;0.4339;2.8150;
1116.0000;0.4322;2.8150;
1116.3000;0.4339;2.8334;
1116.6000;0.4347;2.8361;
1116.9000;0.4314;2.8282;
1117.2000;0.4347;2.8440;
1117.5000;0.4347;2.8466;
1117.8000;0.4347;2.8493;
1118.1000;0.4339;2.8361;
1118.4000;0.4404;2.8519;
1118.7000;0.4347;2.8334;
1119.0000;0.4339;2.8203;
1119.3000;0.4347;2.8255;
1119.6000;0.4347;2.8229;
1119.9000;0.4347;2.8282;
1120.2000;0.4355;2.8282;
1120.5000;0.4347;2.8282;
1120.8000;0.4469;2.8625;
1121.1000;0.4412;2.8440;
1121.4000;0.4322;2.8150;
1121.7000;0.4347;2.8203;
1122.0000;0.4339;2.8203;
1122.3000;0.4396;2.8308;
1122.6000;0.4355;2.8203;
1122.9000;0.4339;2.8176;
1123.2000;0.4355;2.8150;
1123.5000;0.4404;2.8282;
1123.8000;0.4404;2.8361;
1124.1000;0.4347;2.8123;
1124.4000;0.4314;2.7912;
1124.7000;0.4363;2.8071;
1125.0000;0.4363;2.8044;
1125.3000;0.4347;2.7939;
1125.6000;0.4330;2.7965;
1125.9000;0.4330;2.7833;
1126.2000;0.4347;2.7912;
1126.5000;0.4322;2.7860;
1126.8000;0.4314;2.7860;
1127.1000;0.4330;2.8018;
1127.4000;0.4347;2.8071;
1127.7000;0.4355;2.8123;
1128.0000;0.4347;2.8123;
1128.3000;0.4339;2.8097;
1128.6000;0.4347;2.8044;
1128.9000;0.4290;2.7754;
1129.2000;0.4363;2.7939;
1129.5000;0.4355;2.7886;
1129.8000;0.4339;2.7939;
1130.1000;0.4339;2.7833;
1130.4000;0.4363;2.7833;
1130.7000;0.4347;2.7886;
1131.0000;0.4330;2.7886;
1131.3000;0.4339;2.8018;
1131.6000;0.4330;2.7965;
1131.9000;0.4225;2.7622;
1132.2000;0.4330;2.7939;
1132.5000;0.4371;2.7991;
1132.8000;0.4363;2.7780;
1133.1000;0.4371;2.7754;
1133.4000;0.4363;2.7860;
1133.7000;0.4339;2.7860;
1134.0000;0.4363;2.7886;
1134.3000;0.4347;2.7833;
1134.6000;0.4339;2.7886;
1134.9000;0.4330;2.7886;
1135.2000;0.4347;2.7912;
1135.5000;0.4330;2.7807;
1135.8000;0.4339;2.7780;
1136.1000;0.4363;2.7860;
1136.4000;0.4339;2.7886;
1136.7000;0.4339;2.7939;
1137.0000;0.4322;2.7886;
1137.3000;0.4363;2.7991;
1137.6000;0.4330;2.7833;
1137.9000;0.4330;2.7833;
1138.2000;0.4314;2.7886;
1138.5000;0.4282;2.7860;
1138.8000;0.4339;2.7965;
1139.1000;0.4339;2.8097;
1139.4000;0.4298;2.8071;
1139.7000;0.4322;2.8097;
1140.0000;0.4274;2.8044;
1140.3000;0.4274;2.8123;
1140.6000;0.4339;2.8229;
1140.9000;0.4322;2.8229;
1141.2000;0.4330;2.8203;
1141.5000;0.4306;2.8097;
1141.8000;0.4330;2.8203;
1142.1000;0.4330;2.8229;
1142.4000;0.4355;2.8229;
1142.7000;0.4330;2.8150;
1143.0000;0.4339;2.8150;
1143.3000;0.4330;2.8176;
1143.6000;0.4330;2.8176;
1143.9000;0.4330;2.8229;
1144.2000;0.4339;2.8176;
1144.5000;0.4339;2.8176;
1144.8000;0.4347;2.8071;
1145.1000;0.4347;2.8097;
1145.4000;0.4355;2.7912;
1145.7000;0.4371;2.7886;
1146.0000;0.4330;2.7886;
1146.3000;0.4339;2.7991;
1146.6000;0.4339;2.8071;
1146.9000;0.4355;2.8123;
1147.2000;0.4355;2.8176;
1147.5000;0.4330;2.8044;
1147.8000;0.4355;2.8123;
1148.1000;0.4363;2.8255;
1148.4000;0.4355;2.8203;
1148.7000;0.4347;2.8123;
1149.0000;0.4355;2.8150;
1149.3000;0.4339;2.8150;
1149.6000;0.4347;2.8123;
1149.9000;0.4420;2.8308;
1150.2000;0.4355;2.8150;
1150.5000;0.4371;2.8150;
1150.8000;0.4339;2.8071;
1151.1000;0.4330;2.8018;
1151.4000;0.4347;2.7991;
1151.7000;0.4347;2.8071;
1152.0000;0.4355;2.8097;
1152.3000;0.4347;2.8123;
1152.6000;0.4322;2.8203;
1152.9000;0.4298;2.8044;
1153.2000;0.4363;2.8255;
1153.5000;0.4339;2.8150;
1153.8000;0.4355;2.8150;
1154.1000;0.4322;2.8071;
1154.4000;0.4355;2.8044;
1154.7000;0.4355;2.8071;
1155.0000;0.4355;2.8044;
1155.3000;0.4339;2.8071;
1155.6000;0.4282;2.7886;
1155.9000;0.4330;2.8018;
1156.2000;0.4322;2.8018;
1156.5000;0.4339;2.8071;
1156.8000;0.4330;2.8176;
1157.1000;0.4314;2.8176;
1157.4000;0.4322;2.8282;
1157.7000;0.4322;2.8203;
1158.0000;0.4330;2.8255;
1158.3000;0.4347;2.8334;
1158.6000;0.4314;2.8334;
1158.9000;0.4257;2.8176;
1159.2000;0.4339;2.8519;
1159.5000;0.4339;2.8572;
1159.8000;0.4355;2.8598;
1160.1000;0.4339;2.8440;
1160.4000;0.4306;2.8361;
1160.7000;0.4347;2.8440;
1161.0000;0.4208;2.8123;
1161.3000;0.4306;2.8308;
1161.6000;0.4330;2.8387;
1161.9000;0.4339;2.8308;
1162.2000;0.4347;2.8361;
1162.5000;0.4298;2.8203;
1162.8000;0.4330;2.8176;
1163.1000;0.4314;2.8229;
1163.4000;0.4330;2.8255;
1163.7000;0.4330;2.8229;
1164.0000;0.4322;2.8203;
1164.3000;0.4330;2.8203;
1164.6000;0.4322;2.8097;
1164.9000;0.4339;2.8176;
1165.2000;0.4322;2.8255;
1165.5000;0.4330;2.8229;
1165.8000;0.4330;2.8203;
1166.1000;0.4347;2.8097;
1166.4000;0.4314;2.7939;
1166.7000;0.4330;2.8018;
1167.0000;0.4347;2.8071;
1167.3000;0.4322;2.8044;
1167.6000;0.4339;2.8071;
1167.9000;0.4322;2.8150;
1168.2000;0.4347;2.8229;
1168.5000;0.4363;2.8308;
1168.8000;0.4314;2.8282;
1169.1000;0.4330;2.8387;
1169.4000;0.4339;2.8414;
1169.7000;0.4330;2.8361;
1170.0000;0.4339;2.8361;
1170.3000;0.4363;2.8229;
1170.6000;0.4314;2.8176;
1170.9000;0.4322;2.8176;
1171.2000;0.4453;2.8440;
1171.5000;0.4347;2.7991;
1171.8000;0.4330;2.7912;
1172.1000;0.4339;2.7912;
1172.4000;0.4355;2.7939;
1172.7000;0.4330;2.7965;
1173.0000;0.4355;2.7939;
1173.3000;0.4330;2.7939;
1173.6000;0.4347;2.8097;
1173.9000;0.4330;2.8176;
1174.2000;0.4355;2.8203;
1174.5000;0.4330;2.8229;
1174.8000;0.4363;2.8387;
1175.1000;0.4347;2.8387;
1175.4000;0.4355;2.8466;
1175.7000;0.4339;2.8493;
1176.0000;0.4355;2.8519;
1176.3000;0.4322;2.8414;
1176.6000;0.4330;2.8282;
1176.9000;0.4339;2.8334;
1177.2000;0.4347;2.8519;
1177.5000;0.4363;2.8440;
1177.8000;0.4339;2.8334;
1178.1000;0.4330;2.8308;
1178.4000;0.4306;2.8229;
1178.7000;0.4347;2.8334;
1179.0000;0.4339;2.8334;
1179.3000;0.4306;2.8229;
1179.6000;0.4330;2.8282;
1179.9000;0.4404;2.8493;
1180.2000;0.4347;2.8414;
1180.5000;0.4347;2.8414;
1180.8000;0.4322;2.8440;
1181.1000;0.4347;2.8440;
1181.4000;0.4379;2.8519;
1181.7000;0.4330;2.8334;
1182.0000;0.4363;2.8440;
1182.3000;0.4461;2.8836;
1182.6000;0.4330;2.8414;
1182.9000;0.4330;2.8334;
1183.2000;0.4322;2.8282;
1183.5000;0.4347;2.8203;
1183.8000;0.4363;2.8282;
1184.1000;0.4339;2.8203;
1184.4000;0.4339;2.8255;
1184.7000;0.4330;2.8255;
1185.0000;0.4298;2.8071;
1185.3000;0.4355;2.8176;
1185.6000;0.4396;2.8334;
1185.9000;0.4347;2.8203;
1186.2000;0.4314;2.8071;
1186.5000;0.4339;2.8123;
1186.8000;0.4330;2.8176;
1187.1000;0.4322;2.8150;
1187.4000;0.4306;2.8097;
1187.7000;0.4322;2.8071;
1188.0000;0.4339;2.8203;
1188.3000;0.4363;2.8255;
1188.6000;0.4339;2.8229;
1188.9000;0.4363;2.8255;
1189.2000;0.4330;2.8229;
1189.5000;0.4347;2.8229;
1189.8000;0.4347;2.8071;
1190.1000;0.4347;2.8150;
1190.4000;0.4363;2.8203;
1190.7000;0.4347;2.8071;
1191.0000;0.4339;2.7991;
1191.3000;0.4412;2.8282;
1191.6000;0.4363;2.8282;
1191.9000;0.4371;2.8334;
1192.2000;0.4363;2.8308;
1192.5000;0.4371;2.8440;
1192.8000;0.4355;2.8334;
1193.1000;0.4363;2.8334;
1193.4000;0.4363;2.8282;
1193.7000;0.4371;2.8255;
1194.0000;0.4379;2.8282;
1194.3000;0.4355;2.8334;
1194.6000;0.4412;2.8572;
1194.9000;0.4355;2.8466;
1195.2000;0.4339;2.8361;
1195.5000;0.4339;2.8334;
1195.8000;0.4322;2.8334;
1196.1000;0.4330;2.8361;
1196.4000;0.4339;2.8440;
1196.7000;0.4363;2.8598;
1197.0000;0.4322;2.8466;
1197.3000;0.4330;2.8546;
1197.6000;0.4339;2.8519;
1197.9000;0.4306;2.8440;
1198.2000;0.4322;2.8493;
1198.5000;0.4347;2.8519;
1198.8000;0.4322;2.8493;
1199.1000;0.4339;2.8572;
1199.4000;0.4330;2.8493;
1199.7000;0.4330;2.8546;
1200.0000;0.4347;2.8651;
1200.3000;0.4339;2.8677;
1200.6000;0.4339;2.8704;
1200.9000;0.4306;2.8546;
1201.2000;0.4330;2.8493;
1201.5000;0.4330;2.8387;
1201.8000;0.4322;2.8308;
1202.1000;0.4314;2.8282;
1202.4000;0.4371;2.8414;
1202.7000;0.4347;2.8308;
1203.0000;0.4330;2.8203;
1203.3000;0.4339;2.8203;
1203.6000;0.4322;2.8229;
1203.9000;0.4314;2.8334;
1204.2000;0.4347;2.8414;
1204.5000;0.4330;2.8361;
1204.8000;0.4339;2.8308;
1205.1000;0.4339;2.8255;
1205.4000;0.4371;2.8361;
1205.7000;0.4347;2.8255;
1206.0000;0.4339;2.8150;
1206.3000;0.4363;2.8176;
1206.6000;0.4387;2.8097;
1206.9000;0.4339;2.7912;
1207.2000;0.4330;2.7833;
1207.5000;0.4330;2.7860;
1207.8000;0.4339;2.7912;
1208.1000;0.4355;2.7912;
1208.4000;0.4290;2.7701;
1208.7000;0.4339;2.7912;
1209.0000;0.4339;2.7833;
1209.3000;0.4347;2.7886;
1209.6000;0.4355;2.7965;
1209.9000;0.4363;2.7965;
1210.2000;0.4363;2.7991;
1210.5000;0.4404;2.8071;
1210.8000;0.4347;2.7965;
1211.1000;0.4347;2.7886;
1211.4000;0.4347;2.7939;
1211.7000;0.4355;2.7965;
1212.0000;0.4355;2.7991;
1212.3000;0.4355;2.7939;
1212.6000;0.4330;2.7939;
1212.9000;0.4355;2.8018;
1213.2000;0.4363;2.8123;
1213.5000;0.4404;2.8282;
1213.8000;0.4306;2.8097;
1214.1000;0.4355;2.8282;
1214.4000;0.4387;2.8334;
1214.7000;0.4298;2.8071;
1215.0000;0.4355;2.8282;
1215.3000;0.4330;2.8334;
1215.6000;0.4339;2.8387;
1215.9000;0.4355;2.8440;
1216.2000;0.4371;2.8519;
1216.5000;0.4461;2.8809;
1216.8000;0.4330;2.8440;
1217.1000;0.4347;2.8572;
1217.4000;0.4322;2.8546;
1217.7000;0.4347;2.8572;
1218.0000;0.4330;2.8493;
1218.3000;0.4330;2.8493;
1218.6000;0.4330;2.8493;
1218.9000;0.4322;2.8598;
1219.2000;0.4322;2.8572;
1219.5000;0.4371;2.8677;
1219.8000;0.4371;2.8704;
1220.1000;0.4322;2.8651;
1220.4000;0.4347;2.8651;
1220.7000;0.4306;2.8546;
1221.0000;0.4355;2.8598;
1221.3000;0.4330;2.8546;
1221.6000;0.4322;2.8519;
1221.9000;0.4347;2.8493;
1222.2000;0.4347;2.8440;
1222.5000;0.4347;2.8387;
1222.8000;0.4330;2.8229;
1223.1000;0.4347;2.8255;
1223.4000;0.4339;2.8255;
1223.7000;0.4330;2.8229;
1224.0000;0.4330;2.8229;
1224.3000;0.4330;2.8176;
1224.6000;0.4363;2.8203;
1224.9000;0.4355;2.8203;
1225.2000;0.4290;2.8071;
1225.5000;0.4363;2.8229;
1225.8000;0.4371;2.8229;
1226.1000;0.4330;2.8150;
1226.4000;0.4355;2.8176;
1226.7000;0.4355;2.8229;
1227.0000;0.4363;2.8387;
1227.3000;0.4347;2.8361;
1227.6000;0.4306;2.8150;
1227.9000;0.4347;2.8282;
1228.2000;0.4339;2.8308;
1228.5000;0.4363;2.8361;
1228.8000;0.4330;2.8282;
1229.1000;0.4330;2.8229;
1229.4000;0.4330;2.8308;
1229.7000;0.4347;2.8308;
1230.0000;0.4347;2.8203;
1230.3000;0.4339;2.8229;
1230.6000;0.4322;2.8150;
1230.9000;0.4347;2.8176;
1231.2000;0.4339;2.8097;
1231.5000;0.4355;2.8150;
1231.8000;0.4339;2.8097;
1232.1000;0.4347;2.8071;
1232.4000;0.4339;2.7991;
1232.7000;0.4339;2.8018;
1233.0000;0.4339;2.8044;
1233.3000;0.4371;2.8123;
1233.6000;0.4330;2.8071;
1233.9000;0.4339;2.8123;
1234.2000;0.4347;2.8071;
1234.5000;0.4347;2.8123;
1234.8000;0.4347;2.8123;
1235.1000;0.4339;2.8176;
1235.4000;0.4347;2.8203;
1235.7000;0.4330;2.8203;
1236.0000;0.4347;2.8334;
1236.3000;0.4355;2.8414;
1236.6000;0.4339;2.8414;
1236.9000;0.4339;2.8361;
1237.2000;0.4420;2.8704;
1237.5000;0.4355;2.8519;
1237.8000;0.4396;2.8651;
1238.1000;0.4371;2.8651;
1238.4000;0.4322;2.8440;
1238.7000;0.4298;2.8387;
1239.0000;0.4322;2.8466;
1239.3000;0.4314;2.8519;
1239.6000;0.4322;2.8493;
1239.9000;0.4306;2.8440;
1240.2000;0.4339;2.8519;
1240.5000;0.4290;2.8308;
1240.8000;0.4396;2.8519;
1241.1000;0.4298;2.8203;
1241.4000;0.4339;2.8387;
1241.7000;0.4347;2.8440;
1242.0000;0.4339;2.8387;
1242.3000;0.4363;2.8414;
1242.6000;0.4355;2.8361;
1242.9000;0.4355;2.8361;
1243.2000;0.4339;2.8308;
1243.5000;0.4339;2.8308;
1243.8000;0.4347;2.8203;
1244.1000;0.4347;2.8176;
1244.4000;0.4322;2.8123;
1244.7000;0.4347;2.8229;
1245.0000;0.4339;2.8123;
1245.3000;0.4339;2.8018;
1245.6000;0.4339;2.8071;
1245.9000;0.4265;2.7912;
1246.2000;0.4363;2.7965;
1246.5000;0.4347;2.7912;
1246.8000;0.4290;2.7728;
1247.1000;0.4339;2.7754;
1247.4000;0.4363;2.7807;
1247.7000;0.4371;2.7860;
1248.0000;0.4330;2.7912;
1248.3000;0.4363;2.8018;
1248.6000;0.4363;2.8018;
1248.9000;0.4339;2.7991;
1249.2000;0.4347;2.8018;
1249.5000;0.4217;2.7675;
1249.8000;0.4339;2.7965;
1250.1000;0.4355;2.8018;
1250.4000;0.4347;2.7965;
1250.7000;0.4330;2.7939;
1251.0000;0.4339;2.7860;
1251.3000;0.4347;2.7912;
1251.6000;0.4330;2.7860;
1251.9000;0.4347;2.7807;
1252.2000;0.4330;2.7780;
1252.5000;0.4298;2.7780;
1252.8000;0.4347;2.7886;
1253.1000;0.4355;2.7833;
1253.4000;0.4355;2.7780;
1253.7000;0.4347;2.7780;
1254.0000;0.4347;2.7886;
1254.3000;0.4322;2.7991;
1254.6000;0.4436;2.8414;
1254.9000;0.4322;2.8097;
1255.2000;0.4322;2.8097;
1255.5000;0.4330;2.8150;
1255.8000;0.4330;2.8123;
1256.1000;0.4322;2.8123;
1256.4000;0.4298;2.8176;
1256.7000;0.4339;2.8229;
1257.0000;0.4339;2.8308;
1257.3000;0.4339;2.8334;
1257.6000;0.4330;2.8282;
1257.9000;0.4339;2.8308;
1258.2000;0.4347;2.8308;
1258.5000;0.4339;2.8440;
1258.8000;0.4339;2.8466;
1259.1000;0.4330;2.8493;
1259.4000;0.4330;2.8466;
1259.7000;0.4347;2.8493;
1260.0000;0.4322;2.8466;
1260.3000;0.4314;2.8466;
1260.6000;0.4282;2.8229;
1260.9000;0.4330;2.8414;
1261.2000;0.4314;2.8440;
1261.5000;0.4347;2.8440;
1261.8000;0.4339;2.8414;
1262.1000;0.4306;2.8255;
1262.4000;0.4330;2.8308;
1262.7000;0.4306;2.8255;
1263.0000;0.4347;2.8440;
1263.3000;0.4347;2.8414;
1263.6000;0.4339;2.8308;
1263.9000;0.4347;2.8255;
1264.2000;0.4363;2.8282;
1264.5000;0.4355;2.8203;
1264.8000;0.4347;2.8123;
1265.1000;0.4347;2.8176;
1265.4000;0.4339;2.8176;
1265.7000;0.4363;2.8203;
1266.0000;0.4306;2.7991;
1266.3000;0.4330;2.8071;
1266.6000;0.4355;2.8097;
1266.9000;0.4355;2.7991;
1267.2000;0.4355;2.7991;
1267.5000;0.4347;2.8044;
1267.8000;0.4347;2.7965;
1268.1000;0.4347;2.8018;
1268.4000;0.4347;2.7965;
1268.7000;0.4363;2.7939;
1269.0000;0.4347;2.7912;
1269.3000;0.4330;2.7939;
1269.6000;0.4355;2.8097;
1269.9000;0.4233;2.7675;
1270.2000;0.4339;2.8018;
1270.5000;0.4355;2.8071;
1270.8000;0.4330;2.8044;
1271.1000;0.4355;2.8044;
1271.4000;0.4339;2.7991;
1271.7000;0.4363;2.8071;
1272.0000;0.4404;2.8255;
1272.3000;0.4371;2.8203;
1272.6000;0.4355;2.8308;
1272.9000;0.4355;2.8255;
1273.2000;0.4339;2.8176;
1273.5000;0.4355;2.8229;
1273.8000;0.4355;2.8176;
1274.1000;0.4330;2.8176;
1274.4000;0.4347;2.8203;
1274.7000;0.4339;2.8361;
1275.0000;0.4339;2.8255;
1275.3000;0.4298;2.8150;
1275.6000;0.4371;2.8282;
1275.9000;0.4347;2.8229;
1276.2000;0.4314;2.8255;
1276.5000;0.4347;2.8308;
1276.8000;0.4330;2.8387;
1277.1000;0.4363;2.8387;
1277.4000;0.4339;2.8440;
1277.7000;0.4339;2.8466;
1278.0000;0.4339;2.8493;
1278.3000;0.4339;2.8598;
1278.6000;0.4347;2.8572;
1278.9000;0.4322;2.8572;
1279.2000;0.4339;2.8730;
1279.5000;0.4322;2.8730;
1279.8000;0.4339;2.8677;
1280.1000;0.4347;2.8598;
1280.4000;0.4339;2.8651;
1280.7000;0.4330;2.8677;
1281.0000;0.4347;2.8625;
1281.3000;0.4347;2.8546;
1281.6000;0.4339;2.8546;
1281.9000;0.4339;2.8440;
1282.2000;0.4355;2.8387;
1282.5000;0.4355;2.8308;
1282.8000;0.4339;2.8387;
1283.1000;0.4347;2.8519;
1283.4000;0.4322;2.8440;
1283.7000;0.4339;2.8334;
1284.0000;0.4339;2.8282;
1284.3000;0.4330;2.8203;
1284.6000;0.4347;2.8150;
1284.9000;0.4298;2.8097;
1285.2000;0.4363;2.8229;
1285.5000;0.4322;2.8308;
1285.8000;0.4339;2.8308;
1286.1000;0.4379;2.8466;
1286.4000;0.4347;2.8387;
1286.7000;0.4330;2.8387;
1287.0000;0.4339;2.8414;
1287.3000;0.4306;2.8255;
1287.6000;0.4363;2.8334;
1287.9000;0.4339;2.8308;
1288.2000;0.4339;2.8387;
1288.5000;0.4355;2.8440;
1288.8000;0.4371;2.8414;
1289.1000;0.4347;2.8308;
1289.4000;0.4339;2.8414;
1289.7000;0.4322;2.8308;
1290.0000;0.4355;2.8334;
1290.3000;0.4322;2.8308;
1290.6000;0.4314;2.8229;
1290.9000;0.4347;2.8255;
1291.2000;0.4347;2.8282;
1291.5000;0.4420;2.8493;
1291.8000;0.4339;2.8308;
1292.1000;0.4339;2.8282;
1292.4000;0.4347;2.8229;
1292.7000;0.4339;2.8176;
1293.0000;0.4355;2.8229;
1293.3000;0.4314;2.8123;
1293.6000;0.4330;2.8097;
1293.9000;0.4363;2.8097;
1294.2000;0.4339;2.8150;
1294.5000;0.4347;2.8150;
1294.8000;0.4339;2.8150;
1295.1000;0.4355;2.8097;
1295.4000;0.4339;2.8176;
1295.7000;0.4322;2.8229;
1296.0000;0.4306;2.8255;
1296.3000;0.4339;2.8361;
1296.6000;0.4322;2.8361;
1296.9000;0.4339;2.8440;
1297.2000;0.4322;2.8414;
1297.5000;0.4347;2.8572;
1297.8000;0.4330;2.8546;
1298.1000;0.4339;2.8519;
1298.4000;0.4322;2.8493;
1298.7000;0.4306;2.8440;
1299.0000;0.4322;2.8546;
1299.3000;0.4322;2.8519;
1299.6000;0.4322;2.8466;
1299.9000;0.4339;2.8493;
1300.2000;0.4322;2.8493;
1300.5000;0.4322;2.8546;
1300.8000;0.4347;2.8493;
1301.1000;0.4347;2.8493;
1301.4000;0.4355;2.8493;
1301.7000;0.4347;2.8387;
1302.0000;0.4330;2.8334;
1302.3000;0.4314;2.8229;
1302.6000;0.4355;2.8387;
1302.9000;0.4330;2.8361;
1303.2000;0.4355;2.8387;
1303.5000;0.4339;2.8387;
1303.8000;0.4347;2.8440;
1304.1000;0.4330;2.8440;
1304.4000;0.4330;2.8334;
1304.7000;0.4330;2.8308;
1305.0000;0.4347;2.8308;
1305.3000;0.4355;2.8361;
1305.6000;0.4298;2.8150;
1305.9000;0.4322;2.8176;
1306.2000;0.4339;2.8282;
1306.5000;0.4363;2.8308;
1306.8000;0.4282;2.8071;
1307.1000;0.4347;2.8176;
1307.4000;0.4347;2.8203;
1307.7000;0.4355;2.8282;
1308.0000;0.4347;2.8229;
1308.3000;0.4363;2.8308;
1308.6000;0.4363;2.8282;
1308.9000;0.4298;2.8150;
1309.2000;0.4371;2.8255;
1309.5000;0.4363;2.8229;
1309.8000;0.4371;2.8203;
1310.1000;0.4412;2.8361;
1310.4000;0.4363;2.8282;
1310.7000;0.4363;2.8176;
1311.0000;0.4330;2.8150;
1311.3000;0.4347;2.8097;
1311.6000;0.4379;2.8176;
1311.9000;0.4379;2.8150;
1312.2000;0.4330;2.8097;
1312.5000;0.4347;2.8176;
1312.8000;0.4355;2.8229;
1313.1000;0.4322;2.8123;
1313.4000;0.4347;2.8203;
1313.7000;0.4330;2.8176;
1314.0000;0.4371;2.8308;
1314.3000;0.4339;2.8308;
1314.6000;0.4347;2.8255;
1314.9000;0.4412;2.8466;
1315.2000;0.4339;2.8282;
1315.5000;0.4347;2.8308;
1315.8000;0.4314;2.8282;
1316.1000;0.4330;2.8334;
1316.4000;0.4330;2.8308;
1316.7000;0.4339;2.8334;
1317.0000;0.4322;2.8414;
1317.3000;0.4322;2.8414;
1317.6000;0.4330;2.8414;
1317.9000;0.4396;2.8598;
1318.2000;0.4339;2.8440;
1318.5000;0.4339;2.8440;
1318.8000;0.4404;2.8677;
1319.1000;0.4347;2.8546;
1319.4000;0.4347;2.8519;
1319.7000;0.4330;2.8361;
1320.0000;0.4322;2.8308;
1320.3000;0.4347;2.8466;
1320.6000;0.4347;2.8572;
1320.9000;0.4347;2.8519;
1321.2000;0.4339;2.8493;
1321.5000;0.4347;2.8493;
1321.8000;0.4322;2.8361;
1322.1000;0.4306;2.8334;
1322.4000;0.4322;2.8334;
1322.7000;0.4371;2.8466;
1323.0000;0.4339;2.8308;
1323.3000;0.4347;2.8255;
1323.6000;0.4371;2.8334;
1323.9000;0.4363;2.8176;
1324.2000;0.4363;2.8229;
1324.5000;0.4379;2.8282;
1324.8000;0.4330;2.8123;
1325.1000;0.4363;2.8176;
1325.4000;0.4363;2.8229;
1325.7000;0.4363;2.8229;
1326.0000;0.4347;2.8150;
1326.3000;0.4347;2.8123;
1326.6000;0.4322;2.8044;
1326.9000;0.4339;2.8150;
1327.2000;0.4339;2.8123;
1327.5000;0.4355;2.8176;
1327.8000;0.4339;2.8176;
1328.1000;0.4347;2.8176;
1328.4000;0.4355;2.8150;
1328.7000;0.4306;2.8097;
1329.0000;0.4339;2.8229;
1329.3000;0.4339;2.8229;
1329.6000;0.4371;2.8255;
1329.9000;0.4347;2.8176;
1330.2000;0.4330;2.8176;
1330.5000;0.4355;2.8414;
1330.8000;0.4363;2.8440;
1331.1000;0.4355;2.8466;
1331.4000;0.4322;2.8334;
1331.7000;0.4330;2.8334;
1332.0000;0.4322;2.8308;
1332.3000;0.4314;2.8176;
1332.6000;0.4330;2.8203;
1332.9000;0.4306;2.7991;
1333.2000;0.4265;2.7939;
1333.5000;0.4330;2.8203;
1333.8000;0.4314;2.8150;
1334.1000;0.4265;2.7965;
1334.4000;0.4339;2.8229;
1334.7000;0.4363;2.8308;
1335.0000;0.4347;2.8308;
1335.3000;0.4396;2.8519;
1335.6000;0.4355;2.8387;
1335.9000;0.4217;2.8018;
1336.2000;0.4355;2.8334;
1336.5000;0.4314;2.8203;
1336.8000;0.4330;2.8203;
1337.1000;0.4330;2.8176;
1337.4000;0.4330;2.8203;
1337.7000;0.4339;2.8176;
1338.0000;0.4322;2.8123;
1338.3000;0.4322;2.8123;
1338.6000;0.4330;2.8203;
1338.9000;0.4306;2.8229;
1339.2000;0.4379;2.8387;
1339.5000;0.4322;2.8203;
1339.8000;0.4347;2.8255;
1340.1000;0.4339;2.8308;
1340.4000;0.4298;2.8176;
1340.7000;0.4322;2.8282;
1341.0000;0.4322;2.8308;
1341.3000;0.4322;2.8334;
1341.6000;0.4330;2.8203;
1341.9000;0.4322;2.8150;
1342.2000;0.4330;2.8071;
1342.5000;0.4339;2.8150;
1342.8000;0.4322;2.8123;
1343.1000;0.4298;2.8123;
1343.4000;0.4314;2.8176;
1343.7000;0.4363;2.8176;
1344.0000;0.4363;2.8255;
1344.3000;0.4355;2.8255;
1344.6000;0.4371;2.8308;
1344.9000;0.4355;2.8361;
1345.2000;0.4363;2.8229;
1345.5000;0.4355;2.8150;
1345.8000;0.4347;2.8071;
1346.1000;0.4347;2.8018;
1346.4000;0.4330;2.7965;
1346.7000;0.4282;2.7860;
1347.0000;0.4355;2.8018;
1347.3000;0.4347;2.8123;
1347.6000;0.4379;2.8176;
1347.9000;0.4339;2.8097;
1348.2000;0.4330;2.8071;
1348.5000;0.4347;2.8071;
1348.8000;0.4355;2.8044;
1349.1000;0.4330;2.8044;
1349.4000;0.4330;2.8097;
1349.7000;0.4371;2.8176;
1350.0000;0.4363;2.8150;
1350.3000;0.4347;2.8097;
1350.6000;0.4347;2.8097;
1350.9000;0.4347;2.8097;
1351.2000;0.4347;2.8044;
1351.5000;0.4298;2.7860;
1351.8000;0.4371;2.7991;
1352.1000;0.4339;2.7939;
1352.4000;0.4347;2.7886;
1352.7000;0.4339;2.7912;
1353.0000;0.4379;2.8018;
1353.3000;0.4322;2.7886;
1353.6000;0.4322;2.7939;
1353.9000;0.4330;2.7912;
1354.2000;0.4322;2.7886;
1354.5000;0.4330;2.7912;
1354.8000;0.4314;2.7780;
1355.1000;0.4355;2.7860;
1355.4000;0.4330;2.7912;
1355.7000;0.4339;2.7886;
1356.0000;0.4330;2.7833;
1356.3000;0.4379;2.8044;
1356.6000;0.4330;2.7939;
1356.9000;0.4347;2.7912;
1357.2000;0.4347;2.8018;
1357.5000;0.4347;2.8044;
1357.8000;0.4330;2.8071;
1358.1000;0.4314;2.8203;
1358.4000;0.4314;2.8229;
1358.7000;0.4330;2.8308;
1359.0000;0.4314;2.8255;
1359.3000;0.4347;2.8334;
1359.6000;0.4322;2.8203;
1359.9000;0.4444;2.8493;
1360.2000;0.4322;2.8097;
1360.5000;0.4355;2.8176;
1360.8000;0.4322;2.8071;
1361.1000;0.4330;2.8071;
1361.4000;0.4330;2.8044;
1361.7000;0.4347;2.8071;
1362.0000;0.4282;2.7939;
1362.3000;0.4322;2.8071;
1362.6000;0.4330;2.8097;
1362.9000;0.4330;2.8150;
1363.2000;0.4339;2.8071;
1363.5000;0.4314;2.7991;
1363.8000;0.4339;2.7991;
1364.1000;0.4330;2.8018;
1364.4000;0.4330;2.7991;
1364.7000;0.4314;2.7833;
1365.0000;0.4322;2.7807;
1365.3000;0.4363;2.7886;
1365.6000;0.4355;2.7939;
1365.9000;0.4322;2.7912;
1366.2000;0.4355;2.8044;
1366.5000;0.4330;2.7939;
1366.8000;0.4355;2.7965;
1367.1000;0.4314;2.7886;
1367.4000;0.4322;2.7912;
1367.7000;0.4339;2.7965;
1368.0000;0.4339;2.7991;
1368.3000;0.4306;2.7886;
1368.6000;0.4355;2.7939;
1368.9000;0.4339;2.8018;
1369.2000;0.4347;2.8071;
1369.5000;0.4347;2.8123;
1369.8000;0.4330;2.8123;
1370.1000;0.4347;2.8123;
1370.4000;0.4363;2.8071;
1370.7000;0.4404;2.8071;
1371.0000;0.4347;2.7754;
1371.3000;0.4355;2.7807;
1371.6000;0.4330;2.7807;
1371.9000;0.4339;2.7780;
1372.2000;0.4322;2.7780;
1372.5000;0.4322;2.7754;
1372.8000;0.4371;2.7833;
1373.1000;0.4363;2.7912;
1373.4000;0.4339;2.7912;
1373.7000;0.4339;2.8018;
1374.0000;0.4330;2.8018;
1374.3000;0.4339;2.8071;
1374.6000;0.4314;2.8018;
1374.9000;0.4330;2.8123;
1375.2000;0.4330;2.8097;
1375.5000;0.4428;2.8387;
1375.8000;0.4339;2.8176;
1376.1000;0.4322;2.8203;
1376.4000;0.4339;2.8255;
1376.7000;0.4339;2.8282;
1377.0000;0.4355;2.8334;
1377.3000;0.4355;2.8334;
1377.6000;0.4330;2.8308;
1377.9000;0.4347;2.8282;
1378.2000;0.4347;2.8361;
1378.5000;0.4330;2.8361;
1378.8000;0.4339;2.8361;
1379.1000;0.4339;2.8414;
1379.4000;0.4339;2.8493;
1379.7000;0.4330;2.8414;
1380.0000;0.4371;2.8546;
1380.3000;0.4347;2.8361;
1380.6000;0.4363;2.8308;
1380.9000;0.4347;2.8282;
1381.2000;0.4347;2.8203;
1381.5000;0.4330;2.8176;
1381.8000;0.4339;2.8071;
1382.1000;0.4330;2.8071;
1382.4000;0.4330;2.7991;
1382.7000;0.4322;2.8097;
1383.0000;0.4355;2.8282;
1383.3000;0.4355;2.8282;
1383.6000;0.4330;2.8176;
1383.9000;0.4298;2.8071;
1384.2000;0.4298;2.8071;
1384.5000;0.4347;2.8018;
1384.8000;0.4322;2.7991;
1385.1000;0.4347;2.7991;
1385.4000;0.4330;2.7991;
1385.7000;0.4355;2.8123;
1386.0000;0.4363;2.8071;
1386.3000;0.4436;2.8414;
1386.6000;0.4339;2.8097;
1386.9000;0.4249;2.7807;
1387.2000;0.4347;2.7991;
1387.5000;0.4347;2.7939;
1387.8000;0.4306;2.7860;
1388.1000;0.4347;2.7886;
1388.4000;0.4347;2.7886;
1388.7000;0.4347;2.7965;
1389.0000;0.4330;2.8018;
1389.3000;0.4347;2.8018;
1389.6000;0.4363;2.8150;
1389.9000;0.4339;2.8071;
1390.2000;0.4339;2.8044;
1390.5000;0.4339;2.8071;
1390.8000;0.4363;2.7991;
1391.1000;0.4347;2.8044;
1391.4000;0.4322;2.7991;
1391.7000;0.4363;2.8123;
1392.0000;0.4363;2.8044;
1392.3000;0.4330;2.7991;
1392.6000;0.4371;2.8097;
1392.9000;0.4322;2.7965;
1393.2000;0.4347;2.7886;
1393.5000;0.4282;2.7754;
1393.8000;0.4347;2.7991;
1394.1000;0.4339;2.7991;
1394.4000;0.4339;2.8097;
1394.7000;0.4330;2.8071;
1395.0000;0.4330;2.8071;
1395.3000;0.4371;2.8203;
1395.6000;0.4339;2.8150;
1395.9000;0.4322;2.8071;
1396.2000;0.4387;2.8282;
1396.5000;0.4355;2.8255;
1396.8000;0.4330;2.8229;
1397.1000;0.4453;2.8704;
1397.4000;0.4363;2.8440;
1397.7000;0.4404;2.8704;
1398.0000;0.4339;2.8414;
1398.3000;0.4428;2.8625;
1398.6000;0.4347;2.8440;
1398.9000;0.4322;2.8334;
1399.2000;0.4339;2.8282;
1399.5000;0.4322;2.8334;
1399.8000;0.4339;2.8361;
