time/ms;Fluo/V;P700 deltaI/I x10³;
-199.8000;0.4387;2.8044;
-199.5000;0.4404;2.8097;
-199.2000;0.4420;2.8018;
-198.9000;0.4339;2.7622;
-198.6000;0.4404;2.7807;
-198.3000;0.4404;2.7833;
-198.0000;0.4404;2.7833;
-197.7000;0.4371;2.7807;
-197.4000;0.4387;2.7912;
-197.1000;0.4387;2.7886;
-196.8000;0.4404;2.7939;
-196.5000;0.4379;2.7965;
-196.2000;0.4387;2.7991;
-195.9000;0.4387;2.8097;
-195.6000;0.4387;2.8097;
-195.3000;0.4396;2.8097;
-195.0000;0.4347;2.7965;
-194.7000;0.4371;2.7965;
-194.4000;0.4355;2.7939;
-194.1000;0.4371;2.8097;
-193.8000;0.4363;2.8097;
-193.5000;0.4387;2.8176;
-193.2000;0.4396;2.8255;
-192.9000;0.4396;2.8282;
-192.6000;0.4387;2.8176;
-192.3000;0.4387;2.8203;
-192.0000;0.4379;2.8176;
-191.7000;0.4396;2.8334;
-191.4000;0.4412;2.8308;
-191.1000;0.4412;2.8229;
-190.8000;0.4379;2.8203;
-190.5000;0.4379;2.8203;
-190.2000;0.4387;2.8176;
-189.9000;0.4396;2.8203;
-189.6000;0.4396;2.8308;
-189.3000;0.4396;2.8255;
-189.0000;0.4396;2.8176;
-188.7000;0.4363;2.8071;
-188.4000;0.4396;2.8203;
-188.1000;0.4404;2.8150;
-187.8000;0.4420;2.8123;
-187.5000;0.4404;2.7965;
-187.2000;0.4396;2.7886;
-186.9000;0.4396;2.7886;
-186.6000;0.4436;2.7939;
-186.3000;0.4396;2.7860;
-186.0000;0.4396;2.7860;
-185.7000;0.4371;2.7754;
-185.4000;0.4396;2.7912;
-185.1000;0.4363;2.7780;
-184.8000;0.4379;2.7912;
-184.5000;0.4404;2.8018;
-184.2000;0.4404;2.8044;
-183.9000;0.4436;2.8044;
-183.6000;0.4379;2.7965;
-183.3000;0.4412;2.8123;
-183.0000;0.4396;2.8044;
-182.7000;0.4396;2.8044;
-182.4000;0.4387;2.7991;
-182.1000;0.4412;2.7991;
-181.8000;0.4428;2.8044;
-181.5000;0.4404;2.7991;
-181.2000;0.4412;2.8018;
-180.9000;0.4265;2.7622;
-180.6000;0.4420;2.7965;
-180.3000;0.4396;2.8044;
-180.0000;0.4387;2.8071;
-179.7000;0.4396;2.8044;
-179.4000;0.4371;2.7780;
-179.1000;0.4420;2.7860;
-178.8000;0.4412;2.7860;
-178.5000;0.4412;2.7860;
-178.2000;0.4412;2.7860;
-177.9000;0.4420;2.7807;
-177.6000;0.4404;2.7939;
-177.3000;0.4412;2.7991;
-177.0000;0.4387;2.7965;
-176.7000;0.4396;2.8018;
-176.4000;0.4404;2.8071;
-176.1000;0.4404;2.8097;
-175.8000;0.4387;2.7965;
-175.5000;0.4387;2.8018;
-175.2000;0.4387;2.8123;
-174.9000;0.4396;2.8097;
-174.6000;0.4363;2.8097;
-174.3000;0.4371;2.8123;
-174.0000;0.4396;2.8123;
-173.7000;0.4396;2.8203;
-173.4000;0.4387;2.8176;
-173.1000;0.4371;2.8097;
-172.8000;0.4379;2.8203;
-172.5000;0.4387;2.8150;
-172.2000;0.4387;2.8176;
-171.9000;0.4387;2.8150;
-171.6000;0.4396;2.8123;
-171.3000;0.4396;2.8123;
-171.0000;0.4404;2.8123;
-170.7000;0.4387;2.8044;
-170.4000;0.4347;2.7860;
-170.1000;0.4387;2.8018;
-169.8000;0.4404;2.8071;
-169.5000;0.4396;2.7991;
-169.2000;0.4371;2.7860;
-168.9000;0.4387;2.7965;
-168.6000;0.4387;2.7939;
-168.3000;0.4387;2.7991;
-168.0000;0.4387;2.7886;
-167.7000;0.4396;2.7912;
-167.4000;0.4412;2.7912;
-167.1000;0.4404;2.7780;
-166.8000;0.4420;2.7807;
-166.5000;0.4412;2.7860;
-166.2000;0.4428;2.7886;
-165.9000;0.4387;2.7675;
-165.6000;0.4387;2.7728;
-165.3000;0.4396;2.7701;
-165.0000;0.4412;2.7833;
-164.7000;0.4396;2.7860;
-164.4000;0.4387;2.7754;
-164.1000;0.4379;2.7675;
-163.8000;0.4404;2.7675;
-163.5000;0.4396;2.7649;
-163.2000;0.4404;2.7754;
-162.9000;0.4396;2.7728;
-162.6000;0.4428;2.7780;
-162.3000;0.4404;2.7754;
-162.0000;0.4396;2.7754;
-161.7000;0.4396;2.7833;
-161.4000;0.4404;2.7780;
-161.1000;0.4412;2.7780;
-160.8000;0.4396;2.7728;
-160.5000;0.4396;2.7701;
-160.2000;0.4387;2.7754;
-159.9000;0.4396;2.7754;
-159.6000;0.4396;2.7780;
-159.3000;0.4396;2.7754;
-159.0000;0.4396;2.7754;
-158.7000;0.4404;2.7728;
-158.4000;0.4412;2.7860;
-158.1000;0.4396;2.7860;
-157.8000;0.4396;2.7833;
-157.5000;0.4396;2.7807;
-157.2000;0.4396;2.7728;
-156.9000;0.4404;2.7833;
-156.6000;0.4396;2.7886;
-156.3000;0.4387;2.7886;
-156.0000;0.4412;2.7965;
-155.7000;0.4387;2.7965;
-155.4000;0.4396;2.7991;
-155.1000;0.4371;2.7912;
-154.8000;0.4396;2.8018;
-154.5000;0.4387;2.7939;
-154.2000;0.4396;2.7912;
-153.9000;0.4282;2.7596;
-153.6000;0.4387;2.7965;
-153.3000;0.4396;2.8044;
-153.0000;0.4387;2.8071;
-152.7000;0.4371;2.7991;
-152.4000;0.4396;2.8123;
-152.1000;0.4363;2.7965;
-151.8000;0.4396;2.8097;
-151.5000;0.4396;2.8097;
-151.2000;0.4396;2.8071;
-150.9000;0.4404;2.8176;
-150.6000;0.4379;2.8097;
-150.3000;0.4379;2.8018;
-150.0000;0.4404;2.8097;
-149.7000;0.4379;2.8071;
-149.4000;0.4371;2.7991;
-149.1000;0.4371;2.7886;
-148.8000;0.4387;2.7912;
-148.5000;0.4396;2.8071;
-148.2000;0.4412;2.8097;
-147.9000;0.4225;2.7596;
-147.6000;0.4404;2.8150;
-147.3000;0.4396;2.8150;
-147.0000;0.4428;2.8123;
-146.7000;0.4396;2.7965;
-146.4000;0.4404;2.7939;
-146.1000;0.4355;2.7780;
-145.8000;0.4363;2.7701;
-145.5000;0.4379;2.7780;
-145.2000;0.4396;2.7807;
-144.9000;0.4371;2.7675;
-144.6000;0.4404;2.7754;
-144.3000;0.4396;2.7728;
-144.0000;0.4404;2.7860;
-143.7000;0.4387;2.7886;
-143.4000;0.4420;2.7939;
-143.1000;0.4396;2.7807;
-142.8000;0.4387;2.7860;
-142.5000;0.4387;2.7939;
-142.2000;0.4396;2.7965;
-141.9000;0.4404;2.7886;
-141.6000;0.4404;2.7965;
-141.3000;0.4404;2.8044;
-141.0000;0.4428;2.7991;
-140.7000;0.4412;2.7860;
-140.4000;0.4412;2.7939;
-140.1000;0.4371;2.7939;
-139.8000;0.4404;2.8044;
-139.5000;0.4412;2.7965;
-139.2000;0.4412;2.7912;
-138.9000;0.4420;2.7833;
-138.6000;0.4396;2.7860;
-138.3000;0.4387;2.7991;
-138.0000;0.4387;2.7965;
-137.7000;0.4387;2.7912;
-137.4000;0.4412;2.8018;
-137.1000;0.4396;2.8018;
-136.8000;0.4404;2.7965;
-136.5000;0.4396;2.7912;
-136.2000;0.4396;2.7912;
-135.9000;0.4371;2.7939;
-135.6000;0.4412;2.8044;
-135.3000;0.4396;2.8071;
-135.0000;0.4379;2.7991;
-134.7000;0.4396;2.7991;
-134.4000;0.4436;2.8123;
-134.1000;0.4436;2.8123;
-133.8000;0.4379;2.7991;
-133.5000;0.4379;2.7991;
-133.2000;0.4387;2.7991;
-132.9000;0.4371;2.7965;
-132.6000;0.4387;2.8097;
-132.3000;0.4379;2.8150;
-132.0000;0.4379;2.8203;
-131.7000;0.4396;2.8255;
-131.4000;0.4396;2.8334;
-131.1000;0.4396;2.8334;
-130.8000;0.4387;2.8387;
-130.5000;0.4387;2.8282;
-130.2000;0.4387;2.8282;
-129.9000;0.4387;2.8308;
-129.6000;0.4379;2.8282;
-129.3000;0.4436;2.8414;
-129.0000;0.4396;2.8282;
-128.7000;0.4387;2.8203;
-128.4000;0.4396;2.8123;
-128.1000;0.4396;2.8123;
-127.8000;0.4387;2.8123;
-127.5000;0.4379;2.8044;
-127.2000;0.4396;2.8044;
-126.9000;0.4387;2.7965;
-126.6000;0.4396;2.7965;
-126.3000;0.4404;2.7965;
-126.0000;0.4379;2.7780;
-125.7000;0.4396;2.7886;
-125.4000;0.4387;2.7912;
-125.1000;0.4412;2.7860;
-124.8000;0.4387;2.7833;
-124.5000;0.4396;2.7860;
-124.2000;0.4396;2.7939;
-123.9000;0.4396;2.7780;
-123.6000;0.4371;2.7701;
-123.3000;0.4404;2.7939;
-123.0000;0.4404;2.8018;
-122.7000;0.4387;2.7965;
-122.4000;0.4396;2.7965;
-122.1000;0.4387;2.7939;
-121.8000;0.4404;2.7991;
-121.5000;0.4412;2.8018;
-121.2000;0.4379;2.7912;
-120.9000;0.4404;2.8097;
-120.6000;0.4355;2.7991;
-120.3000;0.4404;2.8097;
-120.0000;0.4387;2.8071;
-119.7000;0.4387;2.8123;
-119.4000;0.4404;2.8123;
-119.1000;0.4404;2.8150;
-118.8000;0.4396;2.8097;
-118.5000;0.4371;2.8044;
-118.2000;0.4379;2.7991;
-117.9000;0.4387;2.7965;
-117.6000;0.4379;2.7965;
-117.3000;0.4396;2.8071;
-117.0000;0.4387;2.8071;
-116.7000;0.4387;2.8097;
-116.4000;0.4387;2.8071;
-116.1000;0.4371;2.7991;
-115.8000;0.4322;2.7939;
-115.5000;0.4387;2.8097;
-115.2000;0.4412;2.8097;
-114.9000;0.4404;2.8123;
-114.6000;0.4396;2.8150;
-114.3000;0.4387;2.8176;
-114.0000;0.4387;2.8203;
-113.7000;0.4404;2.8229;
-113.4000;0.4379;2.8203;
-113.1000;0.4387;2.8203;
-112.8000;0.4339;2.8071;
-112.5000;0.4379;2.8150;
-112.2000;0.4420;2.8282;
-111.9000;0.4355;2.8255;
-111.6000;0.4420;2.8308;
-111.3000;0.4355;2.8044;
-111.0000;0.4412;2.8255;
-110.7000;0.4387;2.8150;
-110.4000;0.4387;2.8123;
-110.1000;0.4387;2.8150;
-109.8000;0.4461;2.8387;
-109.5000;0.4387;2.8150;
-109.2000;0.4387;2.8150;
-108.9000;0.4387;2.8150;
-108.6000;0.4412;2.8203;
-108.3000;0.4387;2.8176;
-108.0000;0.4363;2.8123;
-107.7000;0.4396;2.8150;
-107.4000;0.4477;2.8334;
-107.1000;0.4396;2.7991;
-106.8000;0.4396;2.8018;
-106.5000;0.4404;2.8018;
-106.2000;0.4404;2.7991;
-105.9000;0.4412;2.7912;
-105.6000;0.4412;2.7965;
-105.3000;0.4404;2.7912;
-105.0000;0.4404;2.7833;
-104.7000;0.4404;2.7860;
-104.4000;0.4379;2.7833;
-104.1000;0.4363;2.7754;
-103.8000;0.4404;2.7965;
-103.5000;0.4510;2.8387;
-103.2000;0.4404;2.8044;
-102.9000;0.4396;2.7965;
-102.6000;0.4396;2.7965;
-102.3000;0.4469;2.8123;
-102.0000;0.4371;2.7860;
-101.7000;0.4396;2.7912;
-101.4000;0.4420;2.7780;
-101.1000;0.4404;2.7754;
-100.8000;0.4404;2.7780;
-100.5000;0.4412;2.7780;
-100.2000;0.4404;2.7728;
-99.9000;0.4387;2.7701;
-99.6000;0.4428;2.7807;
-99.3000;0.4404;2.7807;
-99.0000;0.4420;2.7939;
-98.7000;0.4404;2.7860;
-98.4000;0.4379;2.7780;
-98.1000;0.4387;2.7912;
-97.8000;0.4371;2.7939;
-97.5000;0.4339;2.7833;
-97.2000;0.4404;2.8097;
-96.9000;0.4444;2.8123;
-96.6000;0.4355;2.7807;
-96.3000;0.4453;2.8150;
-96.0000;0.4387;2.7939;
-95.7000;0.4298;2.7675;
-95.4000;0.4379;2.7860;
-95.1000;0.4363;2.7886;
-94.8000;0.4387;2.8044;
-94.5000;0.4396;2.8071;
-94.2000;0.4379;2.7965;
-93.9000;0.4371;2.7886;
-93.6000;0.4396;2.7965;
-93.3000;0.4404;2.8071;
-93.0000;0.4379;2.7965;
-92.7000;0.4379;2.8071;
-92.4000;0.4379;2.7991;
-92.1000;0.4363;2.7833;
-91.8000;0.4396;2.7939;
-91.5000;0.4379;2.7833;
-91.2000;0.4387;2.7912;
-90.9000;0.4396;2.7912;
-90.6000;0.4469;2.8150;
-90.3000;0.4404;2.7991;
-90.0000;0.4412;2.8150;
-89.7000;0.4420;2.8123;
-89.4000;0.4412;2.8071;
-89.1000;0.4420;2.8018;
-88.8000;0.4387;2.7965;
-88.5000;0.4387;2.7886;
-88.2000;0.4379;2.7860;
-87.9000;0.4444;2.8018;
-87.6000;0.4396;2.7939;
-87.3000;0.4461;2.8123;
-87.0000;0.4396;2.7833;
-86.7000;0.4396;2.7807;
-86.4000;0.4501;2.8176;
-86.1000;0.4396;2.7860;
-85.8000;0.4404;2.7780;
-85.5000;0.4379;2.7649;
-85.2000;0.4404;2.7701;
-84.9000;0.4428;2.7807;
-84.6000;0.4412;2.7675;
-84.3000;0.4412;2.7622;
-84.0000;0.4396;2.7543;
-83.7000;0.4404;2.7543;
-83.4000;0.4396;2.7649;
-83.1000;0.4404;2.7701;
-82.8000;0.4396;2.7701;
-82.5000;0.4387;2.7701;
-82.2000;0.4387;2.7728;
-81.9000;0.4396;2.7728;
-81.6000;0.4436;2.7886;
-81.3000;0.4396;2.7807;
-81.0000;0.4428;2.7886;
-80.7000;0.4387;2.7886;
-80.4000;0.4404;2.7991;
-80.1000;0.4396;2.7833;
-79.8000;0.4396;2.7754;
-79.5000;0.4412;2.7728;
-79.2000;0.4387;2.7701;
-78.9000;0.4387;2.7780;
-78.6000;0.4396;2.7701;
-78.3000;0.4404;2.7807;
-78.0000;0.4404;2.7807;
-77.7000;0.4404;2.7912;
-77.4000;0.4387;2.7833;
-77.1000;0.4387;2.7860;
-76.8000;0.4387;2.7833;
-76.5000;0.4387;2.7860;
-76.2000;0.4379;2.7807;
-75.9000;0.4387;2.7860;
-75.6000;0.4412;2.7912;
-75.3000;0.4396;2.7886;
-75.0000;0.4396;2.7965;
-74.7000;0.4363;2.7912;
-74.4000;0.4396;2.8018;
-74.1000;0.4371;2.7939;
-73.8000;0.4379;2.7991;
-73.5000;0.4412;2.8044;
-73.2000;0.4371;2.7860;
-72.9000;0.4396;2.7939;
-72.6000;0.4330;2.7754;
-72.3000;0.4404;2.7991;
-72.0000;0.4379;2.7833;
-71.7000;0.4396;2.7912;
-71.4000;0.4428;2.8018;
-71.1000;0.4387;2.7833;
-70.8000;0.4387;2.7701;
-70.5000;0.4396;2.7886;
-70.2000;0.4412;2.7965;
-69.9000;0.4347;2.7886;
-69.6000;0.4371;2.7965;
-69.3000;0.4387;2.7965;
-69.0000;0.4396;2.7860;
-68.7000;0.4396;2.7860;
-68.4000;0.4412;2.7860;
-68.1000;0.4387;2.7833;
-67.8000;0.4412;2.7833;
-67.5000;0.4396;2.7728;
-67.2000;0.4387;2.7675;
-66.9000;0.4396;2.7728;
-66.6000;0.4404;2.7780;
-66.3000;0.4379;2.7754;
-66.0000;0.4379;2.7649;
-65.7000;0.4379;2.7649;
-65.4000;0.4404;2.7675;
-65.1000;0.4404;2.7754;
-64.8000;0.4493;2.8097;
-64.5000;0.4404;2.7833;
-64.2000;0.4363;2.7701;
-63.9000;0.4420;2.7886;
-63.6000;0.4404;2.7860;
-63.3000;0.4412;2.7886;
-63.0000;0.4412;2.7991;
-62.7000;0.4412;2.7939;
-62.4000;0.4282;2.7517;
-62.1000;0.4396;2.7860;
-61.8000;0.4404;2.7833;
-61.5000;0.4396;2.7754;
-61.2000;0.4387;2.7649;
-60.9000;0.4461;2.7807;
-60.6000;0.4404;2.7754;
-60.3000;0.4412;2.7807;
-60.0000;0.4420;2.7807;
-59.7000;0.4404;2.7807;
-59.4000;0.4558;2.8282;
-59.1000;0.4404;2.7912;
-58.8000;0.4404;2.7912;
-58.5000;0.4396;2.7886;
-58.2000;0.4412;2.7939;
-57.9000;0.4404;2.7912;
-57.6000;0.4396;2.7912;
-57.3000;0.4330;2.7701;
-57.0000;0.4387;2.7886;
-56.7000;0.4387;2.7860;
-56.4000;0.4396;2.7991;
-56.1000;0.4387;2.7991;
-55.8000;0.4387;2.7965;
-55.5000;0.4379;2.7965;
-55.2000;0.4412;2.8176;
-54.9000;0.4396;2.8123;
-54.6000;0.4396;2.8150;
-54.3000;0.4412;2.8150;
-54.0000;0.4379;2.8071;
-53.7000;0.4404;2.8097;
-53.4000;0.4387;2.8044;
-53.1000;0.4412;2.8123;
-52.8000;0.4355;2.7939;
-52.5000;0.4387;2.8018;
-52.2000;0.4396;2.8044;
-51.9000;0.4379;2.7965;
-51.6000;0.4282;2.7622;
-51.3000;0.4387;2.7912;
-51.0000;0.4379;2.7965;
-50.7000;0.4363;2.7965;
-50.4000;0.4379;2.8097;
-50.1000;0.4379;2.8097;
-49.8000;0.4396;2.8071;
-49.5000;0.4371;2.8123;
-49.2000;0.4371;2.8150;
-48.9000;0.4355;2.7991;
-48.6000;0.4306;2.7780;
-48.3000;0.4379;2.7939;
-48.0000;0.4363;2.7939;
-47.7000;0.4387;2.7939;
-47.4000;0.4396;2.7939;
-47.1000;0.4396;2.7780;
-46.8000;0.4396;2.7833;
-46.5000;0.4387;2.7833;
-46.2000;0.4322;2.7569;
-45.9000;0.4379;2.7701;
-45.6000;0.4396;2.7807;
-45.3000;0.4371;2.7780;
-45.0000;0.4379;2.7860;
-44.7000;0.4412;2.7939;
-44.4000;0.4396;2.7780;
-44.1000;0.4404;2.7754;
-43.8000;0.4412;2.7807;
-43.5000;0.4404;2.7728;
-43.2000;0.4404;2.7754;
-42.9000;0.4412;2.7754;
-42.6000;0.4420;2.7912;
-42.3000;0.4404;2.7912;
-42.0000;0.4420;2.7860;
-41.7000;0.4436;2.7807;
-41.4000;0.4396;2.7675;
-41.1000;0.4412;2.7649;
-40.8000;0.4396;2.7701;
-40.5000;0.4436;2.7754;
-40.2000;0.4420;2.7675;
-39.9000;0.4420;2.7780;
-39.6000;0.4412;2.7754;
-39.3000;0.4387;2.7754;
-39.0000;0.4396;2.7728;
-38.7000;0.4444;2.7728;
-38.4000;0.4396;2.7622;
-38.1000;0.4404;2.7596;
-37.8000;0.4396;2.7701;
-37.5000;0.4314;2.7464;
-37.2000;0.4477;2.7912;
-36.9000;0.4396;2.7833;
-36.6000;0.4379;2.7807;
-36.3000;0.4339;2.7675;
-36.0000;0.4371;2.7780;
-35.7000;0.4396;2.7860;
-35.4000;0.4363;2.7807;
-35.1000;0.4371;2.7860;
-34.8000;0.4396;2.7991;
-34.5000;0.4371;2.7912;
-34.2000;0.4379;2.7912;
-33.9000;0.4387;2.7965;
-33.6000;0.4396;2.8044;
-33.3000;0.4436;2.8176;
-33.0000;0.4347;2.7991;
-32.7000;0.4379;2.8071;
-32.4000;0.4347;2.7991;
-32.1000;0.4396;2.8097;
-31.8000;0.4379;2.8044;
-31.5000;0.4379;2.8018;
-31.2000;0.4379;2.8097;
-30.9000;0.4404;2.8097;
-30.6000;0.4371;2.7991;
-30.3000;0.4298;2.7754;
-30.0000;0.4444;2.8097;
-29.7000;0.4371;2.7912;
-29.4000;0.4396;2.7833;
-29.1000;0.4379;2.7675;
-28.8000;0.4387;2.7649;
-28.5000;0.4404;2.7728;
-28.2000;0.4412;2.7807;
-27.9000;0.4387;2.7754;
-27.6000;0.4387;2.7728;
-27.3000;0.4347;2.7596;
-27.0000;0.4404;2.7728;
-26.7000;0.4379;2.7701;
-26.4000;0.4387;2.7728;
-26.1000;0.4363;2.7754;
-25.8000;0.4379;2.7728;
-25.5000;0.4314;2.7543;
-25.2000;0.4412;2.7754;
-24.9000;0.4387;2.7754;
-24.6000;0.4363;2.7701;
-24.3000;0.4396;2.7912;
-24.0000;0.4453;2.7939;
-23.7000;0.4396;2.7728;
-23.4000;0.4412;2.7649;
-23.1000;0.4453;2.7860;
-22.8000;0.4396;2.7622;
-22.5000;0.4444;2.7701;
-22.2000;0.4412;2.7649;
-21.9000;0.4420;2.7649;
-21.6000;0.4412;2.7649;
-21.3000;0.4387;2.7596;
-21.0000;0.4444;2.7728;
-20.7000;0.4387;2.7596;
-20.4000;0.4428;2.7569;
-20.1000;0.4387;2.7517;
-19.8000;0.4396;2.7543;
-19.5000;0.4404;2.7622;
-19.2000;0.4404;2.7517;
-18.9000;0.4404;2.7464;
-18.6000;0.4379;2.7490;
-18.3000;0.4387;2.7543;
-18.0000;0.4453;2.7780;
-17.7000;0.4412;2.7596;
-17.4000;0.4404;2.7596;
-17.1000;0.4396;2.7543;
-16.8000;0.4379;2.7490;
-16.5000;0.4387;2.7543;
-16.2000;0.4387;2.7622;
-15.9000;0.4379;2.7622;
-15.6000;0.4404;2.7728;
-15.3000;0.4379;2.7675;
-15.0000;0.4387;2.7728;
-14.7000;0.4379;2.7807;
-14.4000;0.4363;2.7912;
-14.1000;0.4371;2.7939;
-13.8000;0.4371;2.8044;
-13.5000;0.4444;2.8176;
-13.2000;0.4396;2.8018;
-12.9000;0.4379;2.7939;
-12.6000;0.4330;2.7754;
-12.3000;0.4339;2.7728;
-12.0000;0.4387;2.7965;
-11.7000;0.4396;2.8044;
-11.4000;0.4379;2.8018;
-11.1000;0.4396;2.8097;
-10.8000;0.4387;2.8097;
-10.5000;0.4404;2.8123;
-10.2000;0.4412;2.8123;
-9.9000;0.4379;2.8018;
-9.6000;0.4396;2.8018;
-9.3000;0.4387;2.7860;
-9.0000;0.4420;2.7912;
-8.7000;0.4396;2.7754;
-8.4000;0.4412;2.7780;
-8.1000;0.4404;2.7675;
-7.8000;0.4404;2.7754;
-7.5000;0.4379;2.7701;
-7.2000;0.4387;2.7675;
-6.9000;0.4420;2.7780;
-6.6000;0.4412;2.7728;
-6.3000;0.4339;2.7490;
-6.0000;0.4347;2.7490;
-5.7000;0.4355;2.7517;
-5.4000;0.4396;2.7701;
-5.1000;0.4379;2.7701;
-4.8000;0.4379;2.7701;
-4.5000;0.4379;2.7622;
-4.2000;0.4396;2.7596;
-3.9000;0.4420;2.7675;
-3.6000;0.4290;2.7358;
-3.3000;0.4444;2.7754;
-3.0000;0.4412;2.7596;
-2.7000;0.4396;2.7649;
-2.4000;0.4379;2.7596;
-2.1000;0.4396;2.7596;
-1.8000;0.4412;2.7569;
-1.5000;0.4420;2.7675;
-1.2000;0.4387;2.7649;
-0.9000;0.4371;2.7622;
-0.6000;0.4379;2.7622;
-0.3000;0.4371;2.7622;
0.0000;0.4371;2.7622;
0.3000;0.4542;2.7991;
0.6000;0.4778;2.8493;
0.9000;0.4957;2.8968;
1.2000;0.5096;2.9337;
1.5000;0.5226;2.9680;
1.8000;0.5307;2.9944;
2.1000;0.5397;3.0181;
2.4000;0.5470;3.0524;
2.7000;0.5527;3.0709;
3.0000;0.5543;3.0867;
3.3000;0.5584;3.1131;
3.6000;0.5617;3.1210;
3.9000;0.5657;3.1342;
4.2000;0.5665;3.1395;
4.5000;0.5731;3.1553;
4.8000;0.5731;3.1685;
5.1000;0.5731;3.1711;
5.4000;0.5722;3.1738;
5.7000;0.5763;3.1949;
6.0000;0.5836;3.2133;
6.3000;0.5804;3.1975;
6.6000;0.5812;3.2081;
6.9000;0.5828;3.2133;
7.2000;0.5885;3.2239;
7.5000;0.5885;3.2239;
7.8000;0.5877;3.2028;
8.1000;0.5861;3.2054;
8.4000;0.5893;3.2186;
8.7000;0.5877;3.2081;
9.0000;0.5910;3.2107;
9.3000;0.5942;3.2133;
9.6000;0.5934;3.2133;
9.9000;0.5958;3.2107;
10.2000;0.5975;3.2133;
10.5000;0.5983;3.2107;
10.8000;0.5983;3.2028;
11.1000;0.5991;3.2107;
11.4000;0.6024;3.2133;
11.7000;0.6024;3.1949;
12.0000;0.6048;3.1843;
12.3000;0.6040;3.1764;
12.6000;0.6040;3.1685;
12.9000;0.6097;3.1843;
13.2000;0.6015;3.1553;
13.5000;0.6081;3.1632;
13.8000;0.6113;3.1632;
14.1000;0.6105;3.1553;
14.4000;0.6113;3.1711;
14.7000;0.6097;3.1685;
15.0000;0.6113;3.1685;
15.3000;0.6121;3.1711;
15.6000;0.6138;3.1659;
15.9000;0.6121;3.1659;
16.2000;0.6138;3.1711;
16.5000;0.6146;3.1738;
16.8000;0.6170;3.1843;
17.1000;0.6146;3.1843;
17.4000;0.6170;3.1896;
17.7000;0.6178;3.1896;
18.0000;0.6211;3.1896;
18.3000;0.6219;3.1922;
18.6000;0.6211;3.1843;
18.9000;0.6203;3.1791;
19.2000;0.6178;3.1764;
19.5000;0.6260;3.1949;
19.8000;0.6195;3.1764;
20.1000;0.6219;3.1843;
20.4000;0.6219;3.1870;
20.7000;0.6154;3.1659;
21.0000;0.6203;3.1711;
21.3000;0.6227;3.1764;
21.6000;0.6252;3.1738;
21.9000;0.6243;3.1685;
22.2000;0.6243;3.1791;
22.5000;0.6243;3.1896;
22.8000;0.6252;3.1896;
23.1000;0.6260;3.1896;
23.4000;0.6276;3.1896;
23.7000;0.6235;3.1711;
24.0000;0.6260;3.1843;
24.3000;0.6276;3.1843;
24.6000;0.6252;3.1843;
24.9000;0.6268;3.1896;
25.2000;0.6284;3.2081;
25.5000;0.6292;3.2133;
25.8000;0.6284;3.2107;
26.1000;0.6268;3.2133;
26.4000;0.6292;3.2107;
26.7000;0.6292;3.2213;
27.0000;0.6292;3.2081;
27.3000;0.6284;3.1975;
27.6000;0.6284;3.1922;
27.9000;0.6292;3.1949;
28.2000;0.6309;3.1922;
28.5000;0.6300;3.1975;
28.8000;0.6309;3.1949;
29.1000;0.6317;3.1975;
29.4000;0.6317;3.2002;
29.7000;0.6325;3.2107;
30.0000;0.6309;3.2028;
30.3000;0.6276;3.1975;
30.6000;0.6325;3.2081;
30.9000;0.6300;3.1870;
31.2000;0.6195;3.1527;
31.5000;0.6325;3.1843;
31.8000;0.6341;3.1870;
32.1000;0.6317;3.1791;
32.4000;0.6341;3.1896;
32.7000;0.6325;3.1817;
33.0000;0.6365;3.1896;
33.3000;0.6357;3.1870;
33.6000;0.6349;3.1791;
33.9000;0.6333;3.1843;
34.2000;0.6357;3.1949;
34.5000;0.6357;3.1975;
34.8000;0.6382;3.1975;
35.1000;0.6365;3.1896;
35.4000;0.6365;3.1870;
35.7000;0.6365;3.1764;
36.0000;0.6357;3.1738;
36.3000;0.6349;3.1711;
36.6000;0.6382;3.1659;
36.9000;0.6382;3.1659;
37.2000;0.6365;3.1711;
37.5000;0.6382;3.1711;
37.8000;0.6300;3.1500;
38.1000;0.6357;3.1685;
38.4000;0.6382;3.1764;
38.7000;0.6374;3.1738;
39.0000;0.6374;3.1817;
39.3000;0.6390;3.1817;
39.6000;0.6382;3.1843;
39.9000;0.6463;3.2054;
40.2000;0.6390;3.1843;
40.5000;0.6357;3.1843;
40.8000;0.6422;3.1975;
41.1000;0.6292;3.1632;
41.4000;0.6382;3.1922;
41.7000;0.6374;3.1975;
42.0000;0.6406;3.2002;
42.3000;0.6374;3.1896;
42.6000;0.6439;3.2107;
42.9000;0.6357;3.1870;
43.2000;0.6398;3.1949;
43.5000;0.6382;3.1949;
43.8000;0.6398;3.1975;
44.1000;0.6382;3.1949;
44.4000;0.6276;3.1659;
44.7000;0.6422;3.1949;
45.0000;0.6357;3.1738;
45.3000;0.6390;3.1764;
45.6000;0.6390;3.1791;
45.9000;0.6398;3.1896;
46.2000;0.6382;3.1949;
46.5000;0.6365;3.2002;
46.8000;0.6439;3.2318;
47.1000;0.6382;3.2186;
47.4000;0.6398;3.2265;
47.7000;0.6382;3.2265;
48.0000;0.6382;3.2318;
48.3000;0.6390;3.2292;
48.6000;0.6406;3.2397;
48.9000;0.6398;3.2318;
49.2000;0.6398;3.2213;
49.5000;0.6414;3.2345;
49.8000;0.6414;3.2424;
50.1000;0.6414;3.2371;
50.4000;0.6390;3.2318;
50.7000;0.6406;3.2239;
51.0000;0.6398;3.2213;
51.3000;0.6406;3.2239;
51.6000;0.6390;3.2081;
51.9000;0.6390;3.2054;
52.2000;0.6439;3.2133;
52.5000;0.6414;3.2028;
52.8000;0.6390;3.1896;
53.1000;0.6414;3.1922;
53.4000;0.6325;3.1659;
53.7000;0.6431;3.1975;
54.0000;0.6406;3.1949;
54.3000;0.6406;3.1870;
54.6000;0.6414;3.1870;
54.9000;0.6455;3.1922;
55.2000;0.6455;3.2002;
55.5000;0.6398;3.1764;
55.8000;0.6382;3.1764;
56.1000;0.6406;3.1896;
56.4000;0.6406;3.1896;
56.7000;0.6382;3.1764;
57.0000;0.6406;3.1870;
57.3000;0.6439;3.1870;
57.6000;0.6439;3.1843;
57.9000;0.6414;3.1870;
58.2000;0.6479;3.2028;
58.5000;0.6422;3.1870;
58.8000;0.6455;3.1975;
59.1000;0.6431;3.2054;
59.4000;0.6422;3.2028;
59.7000;0.6398;3.1870;
60.0000;0.6422;3.1843;
60.3000;0.6431;3.1764;
60.6000;0.6431;3.1791;
60.9000;0.6422;3.1870;
61.2000;0.6431;3.1975;
61.5000;0.6414;3.1922;
61.8000;0.6439;3.2028;
62.1000;0.6431;3.2028;
62.4000;0.6439;3.2054;
62.7000;0.6439;3.2081;
63.0000;0.6431;3.2028;
63.3000;0.6422;3.1949;
63.6000;0.6422;3.1896;
63.9000;0.6439;3.1949;
64.2000;0.6431;3.1975;
64.5000;0.6390;3.1922;
64.8000;0.6406;3.2002;
65.1000;0.6463;3.2239;
65.4000;0.6431;3.2133;
65.7000;0.6414;3.2081;
66.0000;0.6406;3.2054;
66.3000;0.6439;3.2160;
66.6000;0.6422;3.2107;
66.9000;0.6414;3.2107;
67.2000;0.6406;3.2133;
67.5000;0.6455;3.2345;
67.8000;0.6357;3.2081;
68.1000;0.6414;3.2318;
68.4000;0.6414;3.2292;
68.7000;0.6406;3.2292;
69.0000;0.6439;3.2345;
69.3000;0.6512;3.2635;
69.6000;0.6422;3.2186;
69.9000;0.6406;3.2054;
70.2000;0.6431;3.2054;
70.5000;0.6431;3.2054;
70.8000;0.6439;3.2054;
71.1000;0.6431;3.2054;
71.4000;0.6431;3.1975;
71.7000;0.6439;3.1949;
72.0000;0.6439;3.1949;
72.3000;0.6431;3.1922;
72.6000;0.6439;3.2028;
72.9000;0.6439;3.1949;
73.2000;0.6422;3.1791;
73.5000;0.6455;3.1896;
73.8000;0.6439;3.1817;
74.1000;0.6463;3.1870;
74.4000;0.6447;3.1791;
74.7000;0.6439;3.1764;
75.0000;0.6447;3.1738;
75.3000;0.6455;3.1791;
75.6000;0.6439;3.1738;
75.9000;0.6431;3.1659;
76.2000;0.6447;3.1685;
76.5000;0.6422;3.1685;
76.8000;0.6439;3.1791;
77.1000;0.6439;3.1949;
77.4000;0.6447;3.1896;
77.7000;0.6439;3.1870;
78.0000;0.6431;3.1896;
78.3000;0.6431;3.1791;
78.6000;0.6431;3.1817;
78.9000;0.6439;3.1764;
79.2000;0.6455;3.1843;
79.5000;0.6439;3.1843;
79.8000;0.6439;3.1922;
80.1000;0.6414;3.1817;
80.4000;0.6439;3.1896;
80.7000;0.6439;3.1896;
81.0000;0.6553;3.2160;
81.3000;0.6463;3.1896;
81.6000;0.6439;3.1896;
81.9000;0.6455;3.1870;
82.2000;0.6455;3.1843;
82.5000;0.6447;3.1870;
82.8000;0.6431;3.1922;
83.1000;0.6365;3.1711;
83.4000;0.6431;3.2002;
83.7000;0.6398;3.1922;
84.0000;0.6431;3.2028;
84.3000;0.6439;3.2133;
84.6000;0.6422;3.2054;
84.9000;0.6447;3.2054;
85.2000;0.6447;3.2186;
85.5000;0.6455;3.2239;
85.8000;0.6431;3.2292;
86.1000;0.6406;3.2160;
86.4000;0.6431;3.2133;
86.7000;0.6431;3.2265;
87.0000;0.6439;3.2292;
87.3000;0.6422;3.2213;
87.6000;0.6414;3.2239;
87.9000;0.6431;3.2213;
88.2000;0.6422;3.2213;
88.5000;0.6431;3.2186;
88.8000;0.6439;3.2186;
89.1000;0.6414;3.2081;
89.4000;0.6431;3.2133;
89.7000;0.6439;3.2133;
90.0000;0.6512;3.2450;
90.3000;0.6374;3.2054;
90.6000;0.6455;3.2160;
90.9000;0.6422;3.2186;
91.2000;0.6422;3.2081;
91.5000;0.6496;3.2213;
91.8000;0.6455;3.2054;
92.1000;0.6447;3.1870;
92.4000;0.6431;3.1870;
92.7000;0.6431;3.1843;
93.0000;0.6439;3.1870;
93.3000;0.6455;3.1896;
93.6000;0.6422;3.1738;
93.9000;0.6422;3.1659;
94.2000;0.6447;3.1606;
94.5000;0.6455;3.1527;
94.8000;0.6439;3.1500;
95.1000;0.6447;3.1500;
95.4000;0.6463;3.1685;
95.7000;0.6463;3.1738;
96.0000;0.6455;3.1685;
96.3000;0.6463;3.1685;
96.6000;0.6455;3.1738;
96.9000;0.6471;3.1843;
97.2000;0.6479;3.1791;
97.5000;0.6414;3.1659;
97.8000;0.6455;3.1685;
98.1000;0.6471;3.1711;
98.4000;0.6463;3.1685;
98.7000;0.6455;3.1659;
99.0000;0.6463;3.1738;
99.3000;0.6447;3.1659;
99.6000;0.6471;3.1711;
99.9000;0.6463;3.1685;
100.2000;0.6463;3.1685;
100.5000;0.6593;3.2002;
100.8000;0.6439;3.1579;
101.1000;0.6471;3.1685;
101.4000;0.6455;3.1685;
101.7000;0.6447;3.1711;
102.0000;0.6439;3.1711;
102.3000;0.6455;3.1711;
102.6000;0.6455;3.1685;
102.9000;0.6439;3.1685;
103.2000;0.6447;3.1738;
103.5000;0.6471;3.1817;
103.8000;0.6439;3.1764;
104.1000;0.6488;3.1896;
104.4000;0.6447;3.1791;
104.7000;0.6455;3.1843;
105.0000;0.6496;3.2028;
105.3000;0.6431;3.1896;
105.6000;0.6439;3.1896;
105.9000;0.6439;3.1975;
106.2000;0.6422;3.1949;
106.5000;0.6431;3.1949;
106.8000;0.6325;3.1579;
107.1000;0.6406;3.1896;
107.4000;0.6455;3.1975;
107.7000;0.6488;3.2186;
108.0000;0.6431;3.2002;
108.3000;0.6431;3.1922;
108.6000;0.6447;3.1975;
108.9000;0.6431;3.2002;
109.2000;0.6431;3.1949;
109.5000;0.6431;3.1949;
109.8000;0.6455;3.2028;
110.1000;0.6447;3.1975;
110.4000;0.6439;3.1922;
110.7000;0.6439;3.1870;
111.0000;0.6463;3.1870;
111.3000;0.6463;3.1764;
111.6000;0.6447;3.1659;
111.9000;0.6439;3.1685;
112.2000;0.6439;3.1685;
112.5000;0.6447;3.1632;
112.8000;0.6569;3.2002;
113.1000;0.6455;3.1632;
113.4000;0.6439;3.1579;
113.7000;0.6455;3.1659;
114.0000;0.6431;3.1500;
114.3000;0.6341;3.1263;
114.6000;0.6325;3.1316;
114.9000;0.6463;3.1659;
115.2000;0.6455;3.1606;
115.5000;0.6439;3.1553;
115.8000;0.6439;3.1659;
116.1000;0.6447;3.1606;
116.4000;0.6455;3.1553;
116.7000;0.6447;3.1500;
117.0000;0.6447;3.1500;
117.3000;0.6447;3.1527;
117.6000;0.6422;3.1527;
117.9000;0.6455;3.1632;
118.2000;0.6439;3.1606;
118.5000;0.6455;3.1606;
118.8000;0.6455;3.1606;
119.1000;0.6431;3.1474;
119.4000;0.6447;3.1474;
119.7000;0.6463;3.1500;
120.0000;0.6463;3.1474;
120.3000;0.6471;3.1448;
120.6000;0.6447;3.1448;
120.9000;0.6455;3.1368;
121.2000;0.6471;3.1448;
121.5000;0.6455;3.1448;
121.8000;0.6463;3.1395;
122.1000;0.6463;3.1474;
122.4000;0.6431;3.1421;
122.7000;0.6463;3.1474;
123.0000;0.6455;3.1421;
123.3000;0.6585;3.1791;
123.6000;0.6463;3.1527;
123.9000;0.6455;3.1579;
124.2000;0.6406;3.1421;
124.5000;0.6447;3.1606;
124.8000;0.6439;3.1632;
125.1000;0.6447;3.1659;
125.4000;0.6447;3.1659;
125.7000;0.6431;3.1817;
126.0000;0.6439;3.1922;
126.3000;0.6455;3.2002;
126.6000;0.6431;3.1922;
126.9000;0.6447;3.1896;
127.2000;0.6431;3.1922;
127.5000;0.6528;3.2265;
127.8000;0.6431;3.2054;
128.1000;0.6447;3.2081;
128.4000;0.6439;3.2081;
128.7000;0.6431;3.2002;
129.0000;0.6357;3.1738;
129.3000;0.6422;3.1922;
129.6000;0.6447;3.2002;
129.9000;0.6431;3.1975;
130.2000;0.6439;3.1949;
130.5000;0.6536;3.2186;
130.8000;0.6455;3.1843;
131.1000;0.6447;3.1791;
131.4000;0.6447;3.1817;
131.7000;0.6455;3.1738;
132.0000;0.6463;3.1764;
132.3000;0.6455;3.1711;
132.6000;0.6447;3.1659;
132.9000;0.6471;3.1764;
133.2000;0.6447;3.1711;
133.5000;0.6471;3.1711;
133.8000;0.6471;3.1632;
134.1000;0.6455;3.1527;
134.4000;0.6463;3.1474;
134.7000;0.6455;3.1421;
135.0000;0.6447;3.1500;
135.3000;0.6496;3.1632;
135.6000;0.6422;3.1395;
135.9000;0.6463;3.1448;
136.2000;0.6455;3.1500;
136.5000;0.6471;3.1500;
136.8000;0.6431;3.1448;
137.1000;0.6463;3.1553;
137.4000;0.6439;3.1448;
137.7000;0.6422;3.1316;
138.0000;0.6341;3.1157;
138.3000;0.6463;3.1421;
138.6000;0.6455;3.1500;
138.9000;0.6431;3.1474;
139.2000;0.6463;3.1579;
139.5000;0.6471;3.1659;
139.8000;0.6463;3.1474;
140.1000;0.6422;3.1368;
140.4000;0.6463;3.1500;
140.7000;0.6447;3.1474;
141.0000;0.6439;3.1448;
141.3000;0.6439;3.1500;
141.6000;0.6439;3.1553;
141.9000;0.6455;3.1500;
142.2000;0.6447;3.1448;
142.5000;0.6455;3.1448;
142.8000;0.6447;3.1474;
143.1000;0.6455;3.1527;
143.4000;0.6431;3.1527;
143.7000;0.6447;3.1632;
144.0000;0.6447;3.1685;
144.3000;0.6455;3.1738;
144.6000;0.6447;3.1764;
144.9000;0.6447;3.1817;
145.2000;0.6447;3.1870;
145.5000;0.6447;3.1896;
145.8000;0.6431;3.1896;
146.1000;0.6504;3.2002;
146.4000;0.6439;3.1817;
146.7000;0.6447;3.1896;
147.0000;0.6422;3.1896;
147.3000;0.6471;3.2054;
147.6000;0.6431;3.1896;
147.9000;0.6422;3.1949;
148.2000;0.6463;3.2002;
148.5000;0.6455;3.1975;
148.8000;0.6422;3.1949;
149.1000;0.6439;3.1975;
149.4000;0.6520;3.2133;
149.7000;0.6431;3.1870;
150.0000;0.6431;3.1975;
150.3000;0.6390;3.1922;
150.6000;0.6349;3.1843;
150.9000;0.6422;3.2002;
151.2000;0.6439;3.1843;
151.5000;0.6545;3.2133;
151.8000;0.6431;3.1817;
152.1000;0.6463;3.1843;
152.4000;0.6455;3.1870;
152.7000;0.6455;3.1843;
153.0000;0.6455;3.1817;
153.3000;0.6471;3.1843;
153.6000;0.6463;3.1711;
153.9000;0.6422;3.1606;
154.2000;0.6463;3.1685;
154.5000;0.6447;3.1659;
154.8000;0.6463;3.1685;
155.1000;0.6463;3.1685;
155.4000;0.6447;3.1632;
155.7000;0.6463;3.1685;
156.0000;0.6455;3.1606;
156.3000;0.6455;3.1500;
156.6000;0.6447;3.1421;
156.9000;0.6455;3.1474;
157.2000;0.6463;3.1579;
157.5000;0.6455;3.1606;
157.8000;0.6455;3.1579;
158.1000;0.6463;3.1632;
158.4000;0.6463;3.1685;
158.7000;0.6496;3.1685;
159.0000;0.6463;3.1632;
159.3000;0.6455;3.1579;
159.6000;0.6520;3.1711;
159.9000;0.6463;3.1579;
160.2000;0.6439;3.1659;
160.5000;0.6504;3.1791;
160.8000;0.6471;3.1711;
161.1000;0.6439;3.1632;
161.4000;0.6455;3.1685;
161.7000;0.6431;3.1685;
162.0000;0.6463;3.1764;
162.3000;0.6447;3.1764;
162.6000;0.6455;3.1817;
162.9000;0.6414;3.1659;
163.2000;0.6439;3.1764;
163.5000;0.6463;3.1843;
163.8000;0.6463;3.1843;
164.1000;0.6447;3.1711;
164.4000;0.6439;3.1738;
164.7000;0.6447;3.1843;
165.0000;0.6447;3.1896;
165.3000;0.6447;3.1975;
165.6000;0.6447;3.1975;
165.9000;0.6439;3.1975;
166.2000;0.6439;3.2081;
166.5000;0.6447;3.2054;
166.8000;0.6431;3.2028;
167.1000;0.6447;3.2054;
167.4000;0.6447;3.2002;
167.7000;0.6439;3.2081;
168.0000;0.6455;3.2054;
168.3000;0.6455;3.2002;
168.6000;0.6447;3.1975;
168.9000;0.6447;3.1975;
169.2000;0.6447;3.1949;
169.5000;0.6422;3.1896;
169.8000;0.6414;3.1922;
170.1000;0.6439;3.1975;
170.4000;0.6447;3.2002;
170.7000;0.6406;3.1896;
171.0000;0.6455;3.1949;
171.3000;0.6439;3.1949;
171.6000;0.6431;3.1949;
171.9000;0.6439;3.2002;
172.2000;0.6431;3.1949;
172.5000;0.6455;3.1922;
172.8000;0.6471;3.1896;
173.1000;0.6455;3.1738;
173.4000;0.6447;3.1632;
173.7000;0.6365;3.1448;
174.0000;0.6439;3.1659;
174.3000;0.6439;3.1659;
174.6000;0.6439;3.1632;
174.9000;0.6439;3.1579;
175.2000;0.6463;3.1659;
175.5000;0.6471;3.1632;
175.8000;0.6439;3.1579;
176.1000;0.6447;3.1606;
176.4000;0.6471;3.1606;
176.7000;0.6471;3.1738;
177.0000;0.6447;3.1685;
177.3000;0.6431;3.1685;
177.6000;0.6455;3.1711;
177.9000;0.6455;3.1632;
178.2000;0.6488;3.1843;
178.5000;0.6455;3.1738;
178.8000;0.6463;3.1685;
179.1000;0.6406;3.1527;
179.4000;0.6455;3.1579;
179.7000;0.6471;3.1579;
180.0000;0.6471;3.1632;
180.3000;0.6463;3.1527;
180.6000;0.6455;3.1448;
180.9000;0.6463;3.1527;
181.2000;0.6455;3.1659;
181.5000;0.6447;3.1685;
181.8000;0.6471;3.1711;
182.1000;0.6439;3.1711;
182.4000;0.6447;3.1817;
182.7000;0.6455;3.1870;
183.0000;0.6463;3.1922;
183.3000;0.6365;3.1579;
183.6000;0.6439;3.1817;
183.9000;0.6463;3.1896;
184.2000;0.6455;3.1843;
184.5000;0.6439;3.1791;
184.8000;0.6431;3.1764;
185.1000;0.6439;3.1738;
185.4000;0.6414;3.1711;
185.7000;0.6431;3.1817;
186.0000;0.6439;3.1922;
186.3000;0.6439;3.2002;
186.6000;0.6455;3.2054;
186.9000;0.6422;3.2002;
187.2000;0.6422;3.1975;
187.5000;0.6414;3.1949;
187.8000;0.6447;3.2002;
188.1000;0.6439;3.1922;
188.4000;0.6447;3.1975;
188.7000;0.6447;3.1975;
189.0000;0.6431;3.2002;
189.3000;0.6447;3.1975;
189.6000;0.6455;3.1870;
189.9000;0.6431;3.1870;
190.2000;0.6439;3.1843;
190.5000;0.6447;3.1870;
190.8000;0.6447;3.1791;
191.1000;0.6431;3.1711;
191.4000;0.6455;3.1738;
191.7000;0.6479;3.1791;
192.0000;0.6447;3.1738;
192.3000;0.6439;3.1738;
192.6000;0.6479;3.1738;
192.9000;0.6471;3.1685;
193.2000;0.6455;3.1711;
193.5000;0.6463;3.1685;
193.8000;0.6455;3.1527;
194.1000;0.6463;3.1553;
194.4000;0.6471;3.1553;
194.7000;0.6455;3.1579;
195.0000;0.6455;3.1685;
195.3000;0.6471;3.1659;
195.6000;0.6439;3.1579;
195.9000;0.6414;3.1395;
196.2000;0.6463;3.1527;
196.5000;0.6447;3.1500;
196.8000;0.6414;3.1474;
197.1000;0.6455;3.1553;
197.4000;0.6447;3.1527;
197.7000;0.6455;3.1527;
198.0000;0.6463;3.1606;
198.3000;0.6447;3.1632;
198.6000;0.6439;3.1606;
198.9000;0.6455;3.1606;
199.2000;0.6471;3.1764;
199.5000;0.6439;3.1659;
199.8000;0.6447;3.1791;
200.1000;0.6455;3.1870;
200.4000;0.6463;3.1791;
200.7000;0.6422;3.1579;
201.0000;0.6455;3.1764;
201.3000;0.6463;3.1738;
201.6000;0.6455;3.1685;
201.9000;0.6463;3.1711;
202.2000;0.6463;3.1764;
202.5000;0.6439;3.1711;
202.8000;0.6471;3.1817;
203.1000;0.6463;3.1764;
203.4000;0.6455;3.1843;
203.7000;0.6455;3.1764;
204.0000;0.6463;3.1738;
204.3000;0.6455;3.1685;
204.6000;0.6447;3.1606;
204.9000;0.6439;3.1579;
205.2000;0.6431;3.1738;
205.5000;0.6455;3.1764;
205.8000;0.6414;3.1738;
206.1000;0.6431;3.1817;
206.4000;0.6349;3.1606;
206.7000;0.6447;3.1949;
207.0000;0.6447;3.2028;
207.3000;0.6439;3.2107;
207.6000;0.6422;3.2054;
207.9000;0.6406;3.2028;
208.2000;0.6439;3.2054;
208.5000;0.6463;3.2081;
208.8000;0.6406;3.1949;
209.1000;0.6431;3.1975;
209.4000;0.6447;3.1922;
209.7000;0.6447;3.1949;
210.0000;0.6414;3.1870;
210.3000;0.6439;3.1896;
210.6000;0.6439;3.1843;
210.9000;0.6447;3.1817;
211.2000;0.6439;3.1791;
211.5000;0.6422;3.1791;
211.8000;0.6431;3.1870;
212.1000;0.6447;3.1949;
212.4000;0.6455;3.1896;
212.7000;0.6447;3.1817;
213.0000;0.6455;3.1764;
213.3000;0.6447;3.1685;
213.6000;0.6455;3.1632;
213.9000;0.6455;3.1659;
214.2000;0.6455;3.1606;
214.5000;0.6455;3.1579;
214.8000;0.6479;3.1606;
215.1000;0.6414;3.1474;
215.4000;0.6463;3.1500;
215.7000;0.6455;3.1527;
216.0000;0.6406;3.1342;
216.3000;0.6447;3.1500;
216.6000;0.6414;3.1421;
216.9000;0.6406;3.1316;
217.2000;0.6439;3.1395;
217.5000;0.6414;3.1368;
217.8000;0.6439;3.1474;
218.1000;0.6349;3.1289;
218.4000;0.6439;3.1527;
218.7000;0.6447;3.1606;
219.0000;0.6455;3.1659;
219.3000;0.6545;3.1817;
219.6000;0.6471;3.1632;
219.9000;0.6447;3.1579;
220.2000;0.6414;3.1448;
220.5000;0.6512;3.1711;
220.8000;0.6447;3.1553;
221.1000;0.6300;3.1105;
221.4000;0.6447;3.1553;
221.7000;0.6431;3.1606;
222.0000;0.6431;3.1606;
222.3000;0.6439;3.1632;
222.6000;0.6365;3.1342;
222.9000;0.6431;3.1553;
223.2000;0.6414;3.1448;
223.5000;0.6439;3.1448;
223.8000;0.6447;3.1474;
224.1000;0.6431;3.1368;
224.4000;0.6447;3.1421;
224.7000;0.6455;3.1500;
225.0000;0.6455;3.1632;
225.3000;0.6447;3.1738;
225.6000;0.6431;3.1711;
225.9000;0.6455;3.1817;
226.2000;0.6447;3.1738;
226.5000;0.6439;3.1711;
226.8000;0.6488;3.2002;
227.1000;0.6447;3.1896;
227.4000;0.6447;3.1896;
227.7000;0.6455;3.1870;
228.0000;0.6406;3.1843;
228.3000;0.6439;3.1949;
228.6000;0.6422;3.1896;
228.9000;0.6431;3.1922;
229.2000;0.6455;3.1975;
229.5000;0.6455;3.1896;
229.8000;0.6488;3.1975;
230.1000;0.6455;3.1949;
230.4000;0.6447;3.1949;
230.7000;0.6447;3.1870;
231.0000;0.6431;3.1843;
231.3000;0.6414;3.1843;
231.6000;0.6496;3.2028;
231.9000;0.6414;3.1791;
232.2000;0.6455;3.1922;
232.5000;0.6390;3.1764;
232.8000;0.6422;3.1738;
233.1000;0.6431;3.1764;
233.4000;0.6439;3.1764;
233.7000;0.6398;3.1685;
234.0000;0.6447;3.1791;
234.3000;0.6447;3.1870;
234.6000;0.6422;3.1922;
234.9000;0.6325;3.1579;
235.2000;0.6439;3.1949;
235.5000;0.6447;3.1949;
235.8000;0.6447;3.1896;
236.1000;0.6447;3.1870;
236.4000;0.6455;3.1843;
236.7000;0.6447;3.1843;
237.0000;0.6447;3.1975;
237.3000;0.6447;3.2054;
237.6000;0.6447;3.1975;
237.9000;0.6390;3.1843;
238.2000;0.6479;3.1975;
238.5000;0.6447;3.1843;
238.8000;0.6463;3.1896;
239.1000;0.6439;3.1791;
239.4000;0.6471;3.1870;
239.7000;0.6455;3.1711;
240.0000;0.6463;3.1843;
240.3000;0.6496;3.1975;
240.6000;0.6479;3.1870;
240.9000;0.6447;3.1738;
241.2000;0.6471;3.1896;
241.5000;0.6431;3.1711;
241.8000;0.6447;3.1870;
242.1000;0.6439;3.1870;
242.4000;0.6447;3.1870;
242.7000;0.6455;3.1896;
243.0000;0.6447;3.1949;
243.3000;0.6422;3.1843;
243.6000;0.6439;3.1896;
243.9000;0.6447;3.1975;
244.2000;0.6422;3.1843;
244.5000;0.6447;3.1949;
244.8000;0.6431;3.2028;
245.1000;0.6341;3.1843;
245.4000;0.6447;3.2107;
245.7000;0.6439;3.2107;
246.0000;0.6463;3.2081;
246.3000;0.6422;3.1975;
246.6000;0.6471;3.2107;
246.9000;0.6479;3.2213;
247.2000;0.6431;3.2028;
247.5000;0.6422;3.2107;
247.8000;0.6439;3.2239;
248.1000;0.6325;3.1975;
248.4000;0.6431;3.2213;
248.7000;0.6390;3.2081;
249.0000;0.6447;3.2239;
249.3000;0.6439;3.2239;
249.6000;0.6479;3.2292;
249.9000;0.6447;3.2213;
250.2000;0.6455;3.2186;
250.5000;0.6439;3.2107;
250.8000;0.6455;3.2133;
251.1000;0.6455;3.1975;
251.4000;0.6447;3.2054;
251.7000;0.6439;3.1975;
252.0000;0.6447;3.2002;
252.3000;0.6455;3.1975;
252.6000;0.6439;3.1949;
252.9000;0.6390;3.1711;
253.2000;0.6455;3.1764;
253.5000;0.6431;3.1659;
253.8000;0.6422;3.1606;
254.1000;0.6431;3.1606;
254.4000;0.6431;3.1527;
254.7000;0.6422;3.1579;
255.0000;0.6439;3.1711;
255.3000;0.6414;3.1711;
255.6000;0.6382;3.1632;
255.9000;0.6374;3.1632;
256.2000;0.6463;3.1896;
256.5000;0.6431;3.1817;
256.8000;0.6471;3.1791;
257.1000;0.6447;3.1711;
257.4000;0.6447;3.1764;
257.7000;0.6439;3.1817;
258.0000;0.6447;3.1843;
258.3000;0.6463;3.1870;
258.6000;0.6431;3.1764;
258.9000;0.6439;3.1791;
259.2000;0.6455;3.1764;
259.5000;0.6463;3.1711;
259.8000;0.6447;3.1659;
260.1000;0.6488;3.1659;
260.4000;0.6447;3.1579;
260.7000;0.6431;3.1579;
261.0000;0.6463;3.1738;
261.3000;0.6447;3.1791;
261.6000;0.6455;3.1817;
261.9000;0.6463;3.1922;
262.2000;0.6455;3.1896;
262.5000;0.6447;3.1896;
262.8000;0.6455;3.1870;
263.1000;0.6439;3.1764;
263.4000;0.6447;3.1738;
263.7000;0.6447;3.1685;
264.0000;0.6398;3.1606;
264.3000;0.6431;3.1711;
264.6000;0.6431;3.1738;
264.9000;0.6463;3.1870;
265.2000;0.6406;3.1896;
265.5000;0.6504;3.2186;
265.8000;0.6447;3.2054;
266.1000;0.6382;3.1922;
266.4000;0.6431;3.2028;
266.7000;0.6422;3.2054;
267.0000;0.6431;3.2133;
267.3000;0.6439;3.2213;
267.6000;0.6479;3.2265;
267.9000;0.6439;3.2054;
268.2000;0.6496;3.2186;
268.5000;0.6357;3.1791;
268.8000;0.6431;3.1975;
269.1000;0.6471;3.2054;
269.4000;0.6455;3.2081;
269.7000;0.6406;3.1870;
270.0000;0.6406;3.1922;
270.3000;0.6447;3.2002;
270.6000;0.6504;3.2081;
270.9000;0.6447;3.1791;
271.2000;0.6439;3.1870;
271.5000;0.6455;3.1843;
271.8000;0.6447;3.1870;
272.1000;0.6455;3.1922;
272.4000;0.6447;3.1870;
272.7000;0.6463;3.1817;
273.0000;0.6447;3.1764;
273.3000;0.6439;3.1817;
273.6000;0.6455;3.1817;
273.9000;0.6431;3.1632;
274.2000;0.6455;3.1711;
274.5000;0.6422;3.1606;
274.8000;0.6447;3.1579;
275.1000;0.6447;3.1527;
275.4000;0.6447;3.1606;
275.7000;0.6447;3.1606;
276.0000;0.6455;3.1606;
276.3000;0.6479;3.1738;
276.6000;0.6422;3.1606;
276.9000;0.6447;3.1659;
277.2000;0.6455;3.1606;
277.5000;0.6455;3.1685;
277.8000;0.6463;3.1685;
278.1000;0.6447;3.1527;
278.4000;0.6398;3.1316;
278.7000;0.6463;3.1527;
279.0000;0.6439;3.1500;
279.3000;0.6463;3.1527;
279.6000;0.6439;3.1448;
279.9000;0.6439;3.1474;
280.2000;0.6439;3.1500;
280.5000;0.6439;3.1474;
280.8000;0.6447;3.1448;
281.1000;0.6431;3.1527;
281.4000;0.6422;3.1553;
281.7000;0.6422;3.1579;
282.0000;0.6455;3.1632;
282.3000;0.6447;3.1606;
282.6000;0.6455;3.1606;
282.9000;0.6431;3.1632;
283.2000;0.6447;3.1685;
283.5000;0.6463;3.1711;
283.8000;0.6455;3.1711;
284.1000;0.6439;3.1764;
284.4000;0.6447;3.1791;
284.7000;0.6431;3.1711;
285.0000;0.6422;3.1764;
285.3000;0.6431;3.1843;
285.6000;0.6390;3.1711;
285.9000;0.6422;3.1922;
286.2000;0.6439;3.2002;
286.5000;0.6447;3.2002;
286.8000;0.6439;3.2002;
287.1000;0.6422;3.2002;
287.4000;0.6422;3.2002;
287.7000;0.6439;3.2107;
288.0000;0.6390;3.1922;
288.3000;0.6439;3.2002;
288.6000;0.6390;3.1870;
288.9000;0.6439;3.1949;
289.2000;0.6431;3.1870;
289.5000;0.6414;3.1870;
289.8000;0.6431;3.1870;
290.1000;0.6439;3.1922;
290.4000;0.6414;3.1896;
290.7000;0.6398;3.1791;
291.0000;0.6349;3.1632;
291.3000;0.6439;3.1817;
291.6000;0.6479;3.1922;
291.9000;0.6439;3.1764;
292.2000;0.6463;3.1922;
292.5000;0.6455;3.1843;
292.8000;0.6455;3.1870;
293.1000;0.6341;3.1579;
293.4000;0.6439;3.1870;
293.7000;0.6471;3.1870;
294.0000;0.6463;3.1764;
294.3000;0.6439;3.1711;
294.6000;0.6455;3.1791;
294.9000;0.6447;3.1711;
295.2000;0.6463;3.1738;
295.5000;0.6447;3.1764;
295.8000;0.6455;3.1738;
296.1000;0.6455;3.1764;
296.4000;0.6463;3.1738;
296.7000;0.6447;3.1711;
297.0000;0.6455;3.1711;
297.3000;0.6447;3.1711;
297.6000;0.6439;3.1553;
297.9000;0.6455;3.1606;
298.2000;0.6447;3.1606;
298.5000;0.6439;3.1553;
298.8000;0.6439;3.1474;
299.1000;0.6447;3.1448;
299.4000;0.6455;3.1500;
299.7000;0.6455;3.1527;
300.0000;0.6439;3.1421;
300.3000;0.6414;3.1395;
300.6000;0.6439;3.1500;
300.9000;0.6439;3.1527;
301.2000;0.6414;3.1500;
301.5000;0.6455;3.1685;
301.8000;0.6504;3.1738;
302.1000;0.6439;3.1659;
302.4000;0.6431;3.1553;
302.7000;0.6463;3.1659;
303.0000;0.6463;3.1817;
303.3000;0.6447;3.1817;
303.6000;0.6414;3.1764;
303.9000;0.6422;3.1870;
304.2000;0.6431;3.1922;
304.5000;0.6447;3.1975;
304.8000;0.6406;3.1975;
305.1000;0.6422;3.2002;
305.4000;0.6447;3.2028;
305.7000;0.6414;3.1896;
306.0000;0.6374;3.1764;
306.3000;0.6406;3.2054;
306.6000;0.6422;3.2107;
306.9000;0.6463;3.2239;
307.2000;0.6422;3.2239;
307.5000;0.6414;3.2160;
307.8000;0.6431;3.2160;
308.1000;0.6414;3.2107;
308.4000;0.6431;3.2186;
308.7000;0.6431;3.2186;
309.0000;0.6447;3.2265;
309.3000;0.6439;3.2160;
309.6000;0.6422;3.2028;
309.9000;0.6333;3.1685;
310.2000;0.6431;3.1949;
310.5000;0.6431;3.1975;
310.8000;0.6422;3.2054;
311.1000;0.6431;3.2054;
311.4000;0.6422;3.2081;
311.7000;0.6463;3.2133;
312.0000;0.6447;3.2107;
312.3000;0.6447;3.1949;
312.6000;0.6431;3.1896;
312.9000;0.6431;3.1791;
313.2000;0.6455;3.1870;
313.5000;0.6447;3.1817;
313.8000;0.6439;3.1764;
314.1000;0.6422;3.1843;
314.4000;0.6447;3.1817;
314.7000;0.6431;3.1764;
315.0000;0.6447;3.1791;
315.3000;0.6439;3.1817;
315.6000;0.6496;3.2028;
315.9000;0.6455;3.1975;
316.2000;0.6431;3.1817;
316.5000;0.6439;3.1791;
316.8000;0.6447;3.1791;
317.1000;0.6447;3.1843;
317.4000;0.6431;3.1843;
317.7000;0.6439;3.1817;
318.0000;0.6406;3.1711;
318.3000;0.6447;3.1685;
318.6000;0.6447;3.1738;
318.9000;0.6447;3.1685;
319.2000;0.6447;3.1606;
319.5000;0.6463;3.1711;
319.8000;0.6455;3.1738;
320.1000;0.6439;3.1606;
320.4000;0.6439;3.1579;
320.7000;0.6439;3.1527;
321.0000;0.6422;3.1527;
321.3000;0.6439;3.1500;
321.6000;0.6447;3.1527;
321.9000;0.6455;3.1606;
322.2000;0.6455;3.1632;
322.5000;0.6447;3.1606;
322.8000;0.6455;3.1632;
323.1000;0.6447;3.1659;
323.4000;0.6455;3.1711;
323.7000;0.6422;3.1738;
324.0000;0.6447;3.1738;
324.3000;0.6479;3.1817;
324.6000;0.6414;3.1764;
324.9000;0.6398;3.1711;
325.2000;0.6414;3.1843;
325.5000;0.6414;3.1922;
325.8000;0.6414;3.1896;
326.1000;0.6439;3.2002;
326.4000;0.6309;3.1711;
326.7000;0.6431;3.2028;
327.0000;0.6414;3.2081;
327.3000;0.6431;3.2133;
327.6000;0.6422;3.2081;
327.9000;0.6414;3.1949;
328.2000;0.6431;3.1949;
328.5000;0.6447;3.2081;
328.8000;0.6414;3.2081;
329.1000;0.6422;3.2107;
329.4000;0.6431;3.2186;
329.7000;0.6439;3.2107;
330.0000;0.6398;3.1896;
330.3000;0.6431;3.1764;
330.6000;0.6422;3.1843;
330.9000;0.6431;3.1843;
331.2000;0.6439;3.1764;
331.5000;0.6431;3.1711;
331.8000;0.6431;3.1606;
332.1000;0.6398;3.1500;
332.4000;0.6439;3.1632;
332.7000;0.6422;3.1659;
333.0000;0.6422;3.1606;
333.3000;0.6447;3.1632;
333.6000;0.6431;3.1579;
333.9000;0.6447;3.1659;
334.2000;0.6455;3.1579;
334.5000;0.6431;3.1474;
334.8000;0.6325;3.1210;
335.1000;0.6414;3.1474;
335.4000;0.6431;3.1500;
335.7000;0.6431;3.1448;
336.0000;0.6431;3.1421;
336.3000;0.6439;3.1421;
336.6000;0.6439;3.1500;
336.9000;0.6431;3.1395;
337.2000;0.6439;3.1474;
337.5000;0.6431;3.1553;
337.8000;0.6455;3.1606;
338.1000;0.6431;3.1606;
338.4000;0.6439;3.1553;
338.7000;0.6463;3.1579;
339.0000;0.6463;3.1659;
339.3000;0.6447;3.1632;
339.6000;0.6455;3.1632;
339.9000;0.6447;3.1685;
340.2000;0.6439;3.1659;
340.5000;0.6439;3.1606;
340.8000;0.6422;3.1579;
341.1000;0.6455;3.1659;
341.4000;0.6463;3.1685;
341.7000;0.6463;3.1711;
342.0000;0.6431;3.1764;
342.3000;0.6431;3.1738;
342.6000;0.6439;3.1738;
342.9000;0.6463;3.1817;
343.2000;0.6463;3.1817;
343.5000;0.6439;3.1764;
343.8000;0.6439;3.1711;
344.1000;0.6439;3.1738;
344.4000;0.6439;3.1738;
344.7000;0.6414;3.1553;
345.0000;0.6447;3.1659;
345.3000;0.6406;3.1606;
345.6000;0.6422;3.1685;
345.9000;0.6431;3.1791;
346.2000;0.6439;3.1843;
346.5000;0.6431;3.1870;
346.8000;0.6422;3.1870;
347.1000;0.6431;3.1843;
347.4000;0.6455;3.1949;
347.7000;0.6439;3.1843;
348.0000;0.6414;3.1685;
348.3000;0.6414;3.1791;
348.6000;0.6439;3.1896;
348.9000;0.6471;3.2002;
349.2000;0.6431;3.1922;
349.5000;0.6341;3.1738;
349.8000;0.6414;3.1975;
350.1000;0.6431;3.1949;
350.4000;0.6431;3.1922;
350.7000;0.6439;3.1949;
351.0000;0.6422;3.1922;
351.3000;0.6414;3.1949;
351.6000;0.6422;3.1975;
351.9000;0.6439;3.1922;
352.2000;0.6447;3.1870;
352.5000;0.6431;3.1764;
352.8000;0.6447;3.1764;
353.1000;0.6463;3.1843;
353.4000;0.6439;3.1738;
353.7000;0.6471;3.1843;
354.0000;0.6422;3.1711;
354.3000;0.6447;3.1738;
354.6000;0.6463;3.1843;
354.9000;0.6349;3.1606;
355.2000;0.6447;3.1922;
355.5000;0.6447;3.1896;
355.8000;0.6439;3.1922;
356.1000;0.6406;3.1791;
356.4000;0.6431;3.1764;
356.7000;0.6447;3.1764;
357.0000;0.6447;3.1738;
357.3000;0.6431;3.1685;
357.6000;0.6431;3.1738;
357.9000;0.6439;3.1843;
358.2000;0.6447;3.1922;
358.5000;0.6439;3.1896;
358.8000;0.6488;3.2002;
359.1000;0.6463;3.1975;
359.4000;0.6455;3.2002;
359.7000;0.6406;3.1870;
360.0000;0.6439;3.2002;
360.3000;0.6471;3.2081;
360.6000;0.6447;3.2002;
360.9000;0.6479;3.2107;
361.2000;0.6431;3.1896;
361.5000;0.6406;3.1764;
361.8000;0.6447;3.1843;
362.1000;0.6431;3.1843;
362.4000;0.6422;3.1738;
362.7000;0.6374;3.1553;
363.0000;0.6414;3.1764;
363.3000;0.6422;3.1764;
363.6000;0.6455;3.1922;
363.9000;0.6422;3.1949;
364.2000;0.6325;3.1791;
364.5000;0.6390;3.1975;
364.8000;0.6422;3.2160;
365.1000;0.6520;3.2371;
365.4000;0.6422;3.2133;
365.7000;0.6463;3.2186;
366.0000;0.6439;3.2160;
366.3000;0.6414;3.2186;
366.6000;0.6439;3.2160;
366.9000;0.6439;3.2160;
367.2000;0.6447;3.2239;
367.5000;0.6414;3.2133;
367.8000;0.6414;3.2107;
368.1000;0.6422;3.2133;
368.4000;0.6431;3.2186;
368.7000;0.6439;3.2213;
369.0000;0.6414;3.2186;
369.3000;0.6406;3.2213;
369.6000;0.6431;3.2239;
369.9000;0.6504;3.2397;
370.2000;0.6439;3.2186;
370.5000;0.6357;3.1922;
370.8000;0.6431;3.2160;
371.1000;0.6422;3.2107;
371.4000;0.6479;3.2239;
371.7000;0.6422;3.2028;
372.0000;0.6422;3.1949;
372.3000;0.6431;3.1922;
372.6000;0.6422;3.1843;
372.9000;0.6422;3.1817;
373.2000;0.6431;3.1791;
373.5000;0.6398;3.1659;
373.8000;0.6422;3.1685;
374.1000;0.6431;3.1659;
374.4000;0.6439;3.1738;
374.7000;0.6422;3.1791;
375.0000;0.6422;3.1817;
375.3000;0.6431;3.1764;
375.6000;0.6431;3.1738;
375.9000;0.6447;3.1817;
376.2000;0.6431;3.1817;
376.5000;0.6422;3.1738;
376.8000;0.6447;3.1764;
377.1000;0.6447;3.1791;
377.4000;0.6349;3.1474;
377.7000;0.6422;3.1659;
378.0000;0.6431;3.1711;
378.3000;0.6422;3.1764;
378.6000;0.6455;3.1738;
378.9000;0.6414;3.1738;
379.2000;0.6455;3.1791;
379.5000;0.6463;3.1870;
379.8000;0.6439;3.1843;
380.1000;0.6447;3.1791;
380.4000;0.6463;3.1817;
380.7000;0.6439;3.1738;
381.0000;0.6447;3.1843;
381.3000;0.6431;3.1817;
381.6000;0.6406;3.1817;
381.9000;0.6422;3.1896;
382.2000;0.6422;3.1949;
382.5000;0.6341;3.1659;
382.8000;0.6439;3.1896;
383.1000;0.6414;3.1896;
383.4000;0.6422;3.1896;
383.7000;0.6390;3.1764;
384.0000;0.6406;3.1817;
384.3000;0.6414;3.1896;
384.6000;0.6398;3.1896;
384.9000;0.6406;3.2028;
385.2000;0.6431;3.2107;
385.5000;0.6439;3.2107;
385.8000;0.6414;3.2028;
386.1000;0.6422;3.2133;
386.4000;0.6390;3.1975;
386.7000;0.6422;3.2160;
387.0000;0.6325;3.1922;
387.3000;0.6422;3.2160;
387.6000;0.6504;3.2450;
387.9000;0.6422;3.2186;
388.2000;0.6422;3.2186;
388.5000;0.6414;3.2186;
388.8000;0.6422;3.2186;
389.1000;0.6447;3.2213;
389.4000;0.6422;3.2054;
389.7000;0.6439;3.2213;
390.0000;0.6439;3.2292;
390.3000;0.6545;3.2503;
390.6000;0.6422;3.2133;
390.9000;0.6431;3.2133;
391.2000;0.6422;3.2107;
391.5000;0.6431;3.2160;
391.8000;0.6431;3.2133;
392.1000;0.6406;3.2028;
392.4000;0.6422;3.2002;
392.7000;0.6439;3.1975;
393.0000;0.6455;3.1949;
393.3000;0.6431;3.2002;
393.6000;0.6422;3.2002;
393.9000;0.6431;3.2002;
394.2000;0.6422;3.1975;
394.5000;0.6422;3.1922;
394.8000;0.6439;3.1949;
395.1000;0.6431;3.1896;
395.4000;0.6455;3.1870;
395.7000;0.6406;3.1659;
396.0000;0.6439;3.1791;
396.3000;0.6455;3.1896;
396.6000;0.6455;3.1896;
396.9000;0.6447;3.1870;
397.2000;0.6447;3.1817;
397.5000;0.6479;3.1922;
397.8000;0.6365;3.1500;
398.1000;0.6422;3.1606;
398.4000;0.6439;3.1685;
398.7000;0.6455;3.1764;
399.0000;0.6422;3.1632;
399.3000;0.6422;3.1659;
399.6000;0.6455;3.1685;
399.9000;0.6439;3.1632;
400.2000;0.6447;3.1659;
400.5000;0.6447;3.1579;
400.8000;0.6422;3.1474;
401.1000;0.6414;3.1500;
401.4000;0.6439;3.1632;
401.7000;0.6422;3.1632;
402.0000;0.6431;3.1632;
402.3000;0.6447;3.1685;
402.6000;0.6447;3.1738;
402.9000;0.6365;3.1553;
403.2000;0.6422;3.1738;
403.5000;0.6422;3.1843;
403.8000;0.6422;3.1922;
404.1000;0.6382;3.1791;
404.4000;0.6382;3.1764;
404.7000;0.6414;3.1870;
405.0000;0.6447;3.1843;
405.3000;0.6414;3.1817;
405.6000;0.6422;3.1843;
405.9000;0.6422;3.1870;
406.2000;0.6398;3.1870;
406.5000;0.6431;3.2054;
406.8000;0.6414;3.1975;
407.1000;0.6414;3.1975;
407.4000;0.6357;3.1870;
407.7000;0.6422;3.2002;
408.0000;0.6422;3.1949;
408.3000;0.6406;3.1922;
408.6000;0.6439;3.2054;
408.9000;0.6414;3.1922;
409.2000;0.6414;3.1949;
409.5000;0.6422;3.1975;
409.8000;0.6422;3.1922;
410.1000;0.6422;3.1922;
410.4000;0.6439;3.1975;
410.7000;0.6422;3.2002;
411.0000;0.6422;3.1975;
411.3000;0.6439;3.2081;
411.6000;0.6455;3.2054;
411.9000;0.6422;3.1949;
412.2000;0.6422;3.1922;
412.5000;0.6439;3.2002;
412.8000;0.6431;3.1922;
413.1000;0.6447;3.1870;
413.4000;0.6439;3.1843;
413.7000;0.6422;3.1817;
414.0000;0.6439;3.1817;
414.3000;0.6431;3.1738;
414.6000;0.6439;3.1711;
414.9000;0.6496;3.1870;
415.2000;0.6439;3.1685;
415.5000;0.6439;3.1632;
415.8000;0.6422;3.1632;
416.1000;0.6447;3.1632;
416.4000;0.6447;3.1579;
416.7000;0.6439;3.1659;
417.0000;0.6479;3.1817;
417.3000;0.6439;3.1764;
417.6000;0.6447;3.1764;
417.9000;0.6455;3.1764;
418.2000;0.6431;3.1764;
418.5000;0.6422;3.1711;
418.8000;0.6422;3.1632;
419.1000;0.6447;3.1764;
419.4000;0.6447;3.1711;
419.7000;0.6455;3.1711;
420.0000;0.6439;3.1659;
420.3000;0.6374;3.1553;
420.6000;0.6422;3.1685;
420.9000;0.6414;3.1579;
421.2000;0.6431;3.1553;
421.5000;0.6382;3.1395;
421.8000;0.6431;3.1659;
422.1000;0.6439;3.1685;
422.4000;0.6431;3.1711;
422.7000;0.6439;3.1738;
423.0000;0.6406;3.1685;
423.3000;0.6504;3.1975;
423.6000;0.6422;3.1896;
423.9000;0.6382;3.1738;
424.2000;0.6406;3.1896;
424.5000;0.6431;3.2054;
424.8000;0.6406;3.1896;
425.1000;0.6365;3.1791;
425.4000;0.6382;3.1843;
425.7000;0.6414;3.1949;
426.0000;0.6406;3.2054;
426.3000;0.6414;3.2107;
426.6000;0.6414;3.2133;
426.9000;0.6333;3.2054;
427.2000;0.6414;3.2265;
427.5000;0.6422;3.2239;
427.8000;0.6431;3.2160;
428.1000;0.6422;3.2213;
428.4000;0.6422;3.2160;
428.7000;0.6406;3.2133;
429.0000;0.6414;3.2054;
429.3000;0.6414;3.2133;
429.6000;0.6422;3.2107;
429.9000;0.6414;3.2107;
430.2000;0.6414;3.2054;
430.5000;0.6439;3.2160;
430.8000;0.6447;3.1975;
431.1000;0.6431;3.1949;
431.4000;0.6422;3.1975;
431.7000;0.6431;3.2054;
432.0000;0.6439;3.2054;
432.3000;0.6431;3.1975;
432.6000;0.6406;3.1922;
432.9000;0.6439;3.1922;
433.2000;0.6439;3.1975;
433.5000;0.6431;3.1870;
433.8000;0.6422;3.1922;
434.1000;0.6422;3.1896;
434.4000;0.6431;3.1870;
434.7000;0.6447;3.1870;
435.0000;0.6431;3.1896;
435.3000;0.6422;3.1949;
435.6000;0.6463;3.2054;
435.9000;0.6431;3.2054;
436.2000;0.6431;3.2002;
436.5000;0.6422;3.1922;
436.8000;0.6431;3.1843;
437.1000;0.6422;3.1922;
437.4000;0.6422;3.1949;
437.7000;0.6422;3.1949;
438.0000;0.6406;3.1949;
438.3000;0.6414;3.1922;
438.6000;0.6431;3.1843;
438.9000;0.6406;3.1685;
439.2000;0.6439;3.1791;
439.5000;0.6431;3.1817;
439.8000;0.6431;3.1817;
440.1000;0.6455;3.1738;
440.4000;0.6504;3.1975;
440.7000;0.6431;3.1764;
441.0000;0.6414;3.1711;
441.3000;0.6439;3.1659;
441.6000;0.6422;3.1711;
441.9000;0.6422;3.1659;
442.2000;0.6439;3.1632;
442.5000;0.6341;3.1448;
442.8000;0.6414;3.1632;
443.1000;0.6431;3.1685;
443.4000;0.6439;3.1843;
443.7000;0.6422;3.1870;
444.0000;0.6455;3.2028;
444.3000;0.6406;3.1843;
444.6000;0.6439;3.1975;
444.9000;0.6422;3.2002;
445.2000;0.6422;3.1922;
445.5000;0.6414;3.1949;
445.8000;0.6414;3.2081;
446.1000;0.6414;3.2081;
446.4000;0.6406;3.2133;
446.7000;0.6406;3.2186;
447.0000;0.6431;3.2186;
447.3000;0.6422;3.2160;
447.6000;0.6398;3.2213;
447.9000;0.6406;3.2186;
448.2000;0.6374;3.2107;
448.5000;0.6422;3.2292;
448.8000;0.6447;3.2292;
449.1000;0.6357;3.1896;
449.4000;0.6374;3.1949;
449.7000;0.6406;3.1975;
450.0000;0.6439;3.1922;
450.3000;0.6422;3.1870;
450.6000;0.6414;3.1817;
450.9000;0.6439;3.1896;
451.2000;0.6439;3.1870;
451.5000;0.6406;3.1738;
451.8000;0.6422;3.1870;
452.1000;0.6431;3.1922;
452.4000;0.6455;3.2028;
452.7000;0.6422;3.1922;
453.0000;0.6431;3.1975;
453.3000;0.6447;3.1975;
453.6000;0.6406;3.1896;
453.9000;0.6325;3.1606;
454.2000;0.6390;3.1738;
454.5000;0.6463;3.1870;
454.8000;0.6414;3.1870;
455.1000;0.6439;3.1922;
455.4000;0.6431;3.1870;
455.7000;0.6447;3.1791;
456.0000;0.6422;3.1711;
456.3000;0.6439;3.1738;
456.6000;0.6553;3.2002;
456.9000;0.6439;3.1738;
457.2000;0.6414;3.1685;
457.5000;0.6431;3.1659;
457.8000;0.6447;3.1685;
458.1000;0.6398;3.1606;
458.4000;0.6447;3.1738;
458.7000;0.6447;3.1817;
459.0000;0.6488;3.1870;
459.3000;0.6439;3.1764;
459.6000;0.6422;3.1738;
459.9000;0.6431;3.1764;
460.2000;0.6414;3.1817;
460.5000;0.6414;3.1791;
460.8000;0.6374;3.1632;
461.1000;0.6431;3.1711;
461.4000;0.6431;3.1711;
461.7000;0.6439;3.1817;
462.0000;0.6585;3.2213;
462.3000;0.6422;3.1738;
462.6000;0.6439;3.1764;
462.9000;0.6406;3.1685;
463.2000;0.6422;3.1685;
463.5000;0.6422;3.1685;
463.8000;0.6414;3.1738;
464.1000;0.6439;3.1870;
464.4000;0.6479;3.2028;
464.7000;0.6414;3.1817;
465.0000;0.6422;3.1896;
465.3000;0.6398;3.1975;
465.6000;0.6406;3.1949;
465.9000;0.6398;3.1922;
466.2000;0.6414;3.2054;
466.5000;0.6414;3.2107;
466.8000;0.6414;3.2160;
467.1000;0.6406;3.2107;
467.4000;0.6406;3.2107;
467.7000;0.6431;3.2160;
468.0000;0.6422;3.2160;
468.3000;0.6390;3.2107;
468.6000;0.6390;3.2081;
468.9000;0.6439;3.2213;
469.2000;0.6431;3.2160;
469.5000;0.6431;3.2133;
469.8000;0.6406;3.2107;
470.1000;0.6447;3.2081;
470.4000;0.6431;3.2054;
470.7000;0.6406;3.2107;
471.0000;0.6422;3.2160;
471.3000;0.6414;3.2054;
471.6000;0.6439;3.2002;
471.9000;0.6422;3.1949;
472.2000;0.6488;3.2107;
472.5000;0.6431;3.2028;
472.8000;0.6447;3.2133;
473.1000;0.6414;3.2002;
473.4000;0.6463;3.2160;
473.7000;0.6414;3.2002;
474.0000;0.6422;3.2054;
474.3000;0.6439;3.2133;
474.6000;0.6390;3.1896;
474.9000;0.6406;3.1949;
475.2000;0.6406;3.1975;
475.5000;0.6414;3.1843;
475.8000;0.6414;3.1896;
476.1000;0.6422;3.1843;
476.4000;0.6431;3.1817;
476.7000;0.6431;3.1791;
477.0000;0.6447;3.1870;
477.3000;0.6414;3.1738;
477.6000;0.6439;3.1817;
477.9000;0.6398;3.1817;
478.2000;0.6439;3.1949;
478.5000;0.6471;3.2081;
478.8000;0.6431;3.2002;
479.1000;0.6504;3.2318;
479.4000;0.6455;3.2081;
479.7000;0.6422;3.1975;
480.0000;0.6406;3.1870;
480.3000;0.6357;3.1738;
480.6000;0.6431;3.1922;
480.9000;0.6398;3.1685;
481.2000;0.6365;3.1685;
481.5000;0.6422;3.1949;
481.8000;0.6398;3.1975;
482.1000;0.6422;3.2028;
482.4000;0.6439;3.2028;
482.7000;0.6382;3.1870;
483.0000;0.6504;3.2160;
483.3000;0.6439;3.1896;
483.6000;0.6406;3.1711;
483.9000;0.6406;3.1711;
484.2000;0.6406;3.1711;
484.5000;0.6422;3.1922;
484.8000;0.6414;3.1896;
485.1000;0.6422;3.2002;
485.4000;0.6406;3.2002;
485.7000;0.6398;3.2081;
486.0000;0.6398;3.2107;
486.3000;0.6398;3.2186;
486.6000;0.6414;3.2265;
486.9000;0.6414;3.2186;
487.2000;0.6414;3.2265;
487.5000;0.6390;3.2265;
487.8000;0.6422;3.2371;
488.1000;0.6414;3.2345;
488.4000;0.6414;3.2186;
488.7000;0.6414;3.2213;
489.0000;0.6414;3.2186;
489.3000;0.6463;3.2265;
489.6000;0.6414;3.2213;
489.9000;0.6447;3.2054;
490.2000;0.6431;3.2028;
490.5000;0.6414;3.2028;
490.8000;0.6422;3.2054;
491.1000;0.6422;3.1975;
491.4000;0.6431;3.1949;
491.7000;0.6406;3.1922;
492.0000;0.6431;3.1922;
492.3000;0.6439;3.1922;
492.6000;0.6414;3.1843;
492.9000;0.6398;3.1843;
493.2000;0.6414;3.1922;
493.5000;0.6317;3.1659;
493.8000;0.6414;3.1791;
494.1000;0.6398;3.1738;
494.4000;0.6439;3.1791;
494.7000;0.6422;3.1817;
495.0000;0.6520;3.2028;
495.3000;0.6528;3.2107;
495.6000;0.6406;3.1791;
495.9000;0.6431;3.1870;
496.2000;0.6488;3.2054;
496.5000;0.6431;3.1896;
496.8000;0.6536;3.2265;
497.1000;0.6390;3.1896;
497.4000;0.6455;3.2028;
497.7000;0.6455;3.2002;
498.0000;0.6398;3.1949;
498.3000;0.6422;3.1975;
498.6000;0.6439;3.1870;
498.9000;0.6471;3.1870;
499.2000;0.6439;3.1738;
499.5000;0.6431;3.1685;
499.8000;0.6536;3.1975;
500.1000;0.6398;3.1685;
500.4000;0.6455;3.1791;
500.7000;0.6431;3.1764;
501.0000;0.6439;3.1738;
501.3000;0.6431;3.1659;
501.6000;0.6431;3.1711;
501.9000;0.6414;3.1579;
502.2000;0.6422;3.1553;
502.5000;0.6382;3.1474;
502.8000;0.6422;3.1527;
503.1000;0.6414;3.1579;
503.4000;0.6439;3.1685;
503.7000;0.6406;3.1606;
504.0000;0.6496;3.1843;
504.3000;0.6422;3.1711;
504.6000;0.6382;3.1632;
504.9000;0.6414;3.1711;
505.2000;0.6398;3.1711;
505.5000;0.6414;3.1817;
505.8000;0.6406;3.1870;
506.1000;0.6414;3.1949;
506.4000;0.6406;3.1896;
506.7000;0.6406;3.1922;
507.0000;0.6398;3.1922;
507.3000;0.6414;3.2028;
507.6000;0.6431;3.2002;
507.9000;0.6422;3.2002;
508.2000;0.6414;3.1975;
508.5000;0.6406;3.1922;
508.8000;0.6455;3.2054;
509.1000;0.6422;3.1896;
509.4000;0.6414;3.1975;
509.7000;0.6406;3.1949;
510.0000;0.6406;3.1975;
510.3000;0.6422;3.1975;
510.6000;0.6439;3.1922;
510.9000;0.6398;3.1843;
511.2000;0.6422;3.1896;
511.5000;0.6479;3.2028;
511.8000;0.6398;3.1817;
512.1000;0.6431;3.1896;
512.4000;0.6374;3.1791;
512.7000;0.6431;3.1896;
513.0000;0.6439;3.1791;
513.3000;0.6414;3.1711;
513.6000;0.6422;3.1711;
513.9000;0.6439;3.1764;
514.2000;0.6439;3.1764;
514.5000;0.6414;3.1606;
514.8000;0.6439;3.1659;
515.1000;0.6447;3.1711;
515.4000;0.6431;3.1685;
515.7000;0.6431;3.1606;
516.0000;0.6414;3.1527;
516.3000;0.6414;3.1553;
516.6000;0.6414;3.1500;
516.9000;0.6463;3.1632;
517.2000;0.6414;3.1553;
517.5000;0.6422;3.1632;
517.8000;0.6414;3.1738;
518.1000;0.6422;3.1685;
518.4000;0.6439;3.1738;
518.7000;0.6447;3.1764;
519.0000;0.6455;3.1843;
519.3000;0.6471;3.1896;
519.6000;0.6431;3.1764;
519.9000;0.6292;3.1368;
520.2000;0.6422;3.1817;
520.5000;0.6414;3.1791;
520.8000;0.6422;3.1817;
521.1000;0.6422;3.1843;
521.4000;0.6422;3.1896;
521.7000;0.6447;3.1922;
522.0000;0.6422;3.1791;
522.3000;0.6422;3.1791;
522.6000;0.6422;3.1817;
522.9000;0.6414;3.1922;
523.2000;0.6447;3.1975;
523.5000;0.6471;3.2160;
523.8000;0.6422;3.2002;
524.1000;0.6439;3.2028;
524.4000;0.6406;3.1975;
524.7000;0.6365;3.1870;
525.0000;0.6414;3.1975;
525.3000;0.6422;3.2054;
525.6000;0.6406;3.2028;
525.9000;0.6398;3.2054;
526.2000;0.6398;3.2081;
526.5000;0.6422;3.2133;
526.8000;0.6398;3.2186;
527.1000;0.6398;3.2186;
527.4000;0.6406;3.2239;
527.7000;0.6406;3.2239;
528.0000;0.6406;3.2239;
528.3000;0.6398;3.2160;
528.6000;0.6365;3.2107;
528.9000;0.6414;3.2292;
529.2000;0.6406;3.2292;
529.5000;0.6390;3.2213;
529.8000;0.6406;3.2160;
530.1000;0.6398;3.2107;
530.4000;0.6406;3.2081;
530.7000;0.6414;3.2160;
531.0000;0.6422;3.2107;
531.3000;0.6406;3.2107;
531.6000;0.6390;3.2054;
531.9000;0.6431;3.2107;
532.2000;0.6414;3.1975;
532.5000;0.6414;3.1896;
532.8000;0.6398;3.1949;
533.1000;0.6414;3.1870;
533.4000;0.6422;3.1817;
533.7000;0.6422;3.1791;
534.0000;0.6422;3.1685;
534.3000;0.6439;3.1711;
534.6000;0.6422;3.1685;
534.9000;0.6439;3.1711;
535.2000;0.6414;3.1659;
535.5000;0.6325;3.1342;
535.8000;0.6414;3.1606;
536.1000;0.6414;3.1606;
536.4000;0.6382;3.1632;
536.7000;0.6447;3.1791;
537.0000;0.6406;3.1685;
537.3000;0.6406;3.1659;
537.6000;0.6431;3.1738;
537.9000;0.6422;3.1711;
538.2000;0.6431;3.1791;
538.5000;0.6390;3.1685;
538.8000;0.6398;3.1738;
539.1000;0.6422;3.1791;
539.4000;0.6422;3.1764;
539.7000;0.6447;3.1843;
540.0000;0.6422;3.1870;
540.3000;0.6422;3.1817;
540.6000;0.6439;3.1896;
540.9000;0.6431;3.1896;
541.2000;0.6398;3.1896;
541.5000;0.6414;3.1896;
541.8000;0.6414;3.1870;
542.1000;0.6422;3.1843;
542.4000;0.6422;3.1896;
542.7000;0.6439;3.1949;
543.0000;0.6390;3.1817;
543.3000;0.6414;3.1896;
543.6000;0.6406;3.1870;
543.9000;0.6414;3.2028;
544.2000;0.6414;3.2028;
544.5000;0.6406;3.2054;
544.8000;0.6431;3.2107;
545.1000;0.6520;3.2450;
545.4000;0.6414;3.2133;
545.7000;0.6414;3.2133;
546.0000;0.6406;3.2160;
546.3000;0.6406;3.2133;
546.6000;0.6414;3.2133;
546.9000;0.6390;3.2028;
547.2000;0.6422;3.2081;
547.5000;0.6398;3.1896;
547.8000;0.6398;3.1949;
548.1000;0.6414;3.2054;
548.4000;0.6414;3.2081;
548.7000;0.6447;3.2186;
549.0000;0.6406;3.2028;
549.3000;0.6414;3.2054;
549.6000;0.6406;3.2028;
549.9000;0.6398;3.2133;
550.2000;0.6382;3.2133;
550.5000;0.6414;3.2160;
550.8000;0.6471;3.2265;
551.1000;0.6406;3.2160;
551.4000;0.6414;3.2107;
551.7000;0.6406;3.2028;
552.0000;0.6504;3.2265;
552.3000;0.6422;3.2054;
552.6000;0.6414;3.1949;
552.9000;0.6374;3.1817;
553.2000;0.6382;3.1843;
553.5000;0.6398;3.1896;
553.8000;0.6398;3.1843;
554.1000;0.6439;3.1870;
554.4000;0.6406;3.1870;
554.7000;0.6406;3.1817;
555.0000;0.6431;3.1843;
555.3000;0.6414;3.1870;
555.6000;0.6414;3.1843;
555.9000;0.6463;3.1922;
556.2000;0.6422;3.1896;
556.5000;0.6414;3.1817;
556.8000;0.6414;3.1817;
557.1000;0.6422;3.1764;
557.4000;0.6431;3.1843;
557.7000;0.6422;3.1870;
558.0000;0.6422;3.1817;
558.3000;0.6422;3.1764;
558.6000;0.6422;3.1738;
558.9000;0.6422;3.1764;
559.2000;0.6406;3.1738;
559.5000;0.6414;3.1764;
559.8000;0.6406;3.1817;
560.1000;0.6422;3.1870;
560.4000;0.6431;3.1896;
560.7000;0.6431;3.1949;
561.0000;0.6439;3.1975;
561.3000;0.6422;3.2002;
561.6000;0.6414;3.1896;
561.9000;0.6414;3.1949;
562.2000;0.6431;3.1949;
562.5000;0.6414;3.1870;
562.8000;0.6414;3.1949;
563.1000;0.6422;3.1949;
563.4000;0.6414;3.1922;
563.7000;0.6382;3.1843;
564.0000;0.6414;3.2028;
564.3000;0.6398;3.2133;
564.6000;0.6406;3.2213;
564.9000;0.6333;3.1949;
565.2000;0.6414;3.2133;
565.5000;0.6398;3.2081;
565.8000;0.6390;3.2054;
566.1000;0.6398;3.2107;
566.4000;0.6406;3.2213;
566.7000;0.6406;3.2239;
567.0000;0.6414;3.2292;
567.3000;0.6422;3.2239;
567.6000;0.6431;3.2292;
567.9000;0.6382;3.2160;
568.2000;0.6390;3.2292;
568.5000;0.6406;3.2186;
568.8000;0.6422;3.2213;
569.1000;0.6406;3.2160;
569.4000;0.6398;3.2107;
569.7000;0.6333;3.1711;
570.0000;0.6390;3.1738;
570.3000;0.6422;3.1791;
570.6000;0.6333;3.1579;
570.9000;0.6414;3.1764;
571.2000;0.6406;3.1764;
571.5000;0.6431;3.1843;
571.8000;0.6406;3.1738;
572.1000;0.6431;3.1896;
572.4000;0.6422;3.1843;
572.7000;0.6439;3.1791;
573.0000;0.6439;3.1791;
573.3000;0.6406;3.1711;
573.6000;0.6439;3.1711;
573.9000;0.6398;3.1711;
574.2000;0.6439;3.1738;
574.5000;0.6422;3.1632;
574.8000;0.6406;3.1659;
575.1000;0.6333;3.1606;
575.4000;0.6414;3.1843;
575.7000;0.6414;3.1949;
576.0000;0.6504;3.2265;
576.3000;0.6406;3.1843;
576.6000;0.6422;3.1764;
576.9000;0.6447;3.1843;
577.2000;0.6422;3.1791;
577.5000;0.6479;3.2107;
577.8000;0.6406;3.1922;
578.1000;0.6398;3.1949;
578.4000;0.6406;3.1949;
578.7000;0.6422;3.1949;
579.0000;0.6422;3.1870;
579.3000;0.6414;3.1817;
579.6000;0.6414;3.1870;
579.9000;0.6439;3.1896;
580.2000;0.6414;3.1870;
580.5000;0.6414;3.1843;
580.8000;0.6414;3.1896;
581.1000;0.6422;3.1870;
581.4000;0.6488;3.2107;
581.7000;0.6398;3.1949;
582.0000;0.6406;3.1975;
582.3000;0.6431;3.2002;
582.6000;0.6406;3.1949;
582.9000;0.6406;3.1975;
583.2000;0.6414;3.2054;
583.5000;0.6406;3.2028;
583.8000;0.6406;3.1975;
584.1000;0.6414;3.1975;
584.4000;0.6414;3.1975;
584.7000;0.6398;3.2028;
585.0000;0.6414;3.2002;
585.3000;0.6545;3.2371;
585.6000;0.6414;3.2107;
585.9000;0.6374;3.1975;
586.2000;0.6398;3.2002;
586.5000;0.6406;3.2002;
586.8000;0.6431;3.2107;
587.1000;0.6398;3.2107;
587.4000;0.6382;3.2107;
587.7000;0.6406;3.2160;
588.0000;0.6422;3.2186;
588.3000;0.6406;3.2239;
588.6000;0.6414;3.2265;
588.9000;0.6431;3.2345;
589.2000;0.6422;3.2345;
589.5000;0.6390;3.2292;
589.8000;0.6406;3.2318;
590.1000;0.6406;3.2292;
590.4000;0.6398;3.2133;
590.7000;0.6374;3.2054;
591.0000;0.6455;3.2265;
591.3000;0.6406;3.2133;
591.6000;0.6439;3.2186;
591.9000;0.6422;3.2160;
592.2000;0.6406;3.1975;
592.5000;0.6406;3.1896;
592.8000;0.6496;3.2107;
593.1000;0.6398;3.1870;
593.4000;0.6357;3.1711;
593.7000;0.6406;3.1870;
594.0000;0.6390;3.1791;
594.3000;0.6349;3.1738;
594.6000;0.6406;3.1949;
594.9000;0.6309;3.1659;
595.2000;0.6390;3.1870;
595.5000;0.6325;3.1685;
595.8000;0.6422;3.2002;
596.1000;0.6431;3.1975;
596.4000;0.6414;3.2028;
596.7000;0.6431;3.1975;
597.0000;0.6463;3.1975;
597.3000;0.6422;3.1843;
597.6000;0.6414;3.1791;
597.9000;0.6414;3.1738;
598.2000;0.6406;3.1817;
598.5000;0.6431;3.1870;
598.8000;0.6414;3.1764;
599.1000;0.6447;3.1764;
599.4000;0.6398;3.1685;
599.7000;0.6422;3.1843;
600.0000;0.6406;3.1764;
600.3000;0.6431;3.1791;
600.6000;0.6447;3.1711;
600.9000;0.6390;3.1421;
601.2000;0.6374;3.1236;
601.5000;0.6309;3.1025;
601.8000;0.6284;3.0894;
602.1000;0.6227;3.0735;
602.4000;0.6178;3.0471;
602.7000;0.6146;3.0366;
603.0000;0.6154;3.0260;
603.3000;0.6064;2.9997;
603.6000;0.6040;2.9917;
603.9000;0.5983;2.9706;
604.2000;0.5958;2.9601;
604.5000;0.5934;2.9522;
604.8000;0.5893;2.9443;
605.1000;0.5902;2.9416;
605.4000;0.5828;2.9258;
605.7000;0.5820;2.9258;
606.0000;0.5820;2.9179;
606.3000;0.5845;2.9258;
606.6000;0.5771;2.9126;
606.9000;0.5788;2.9179;
607.2000;0.5731;2.9047;
607.5000;0.5722;2.8994;
607.8000;0.5690;2.8968;
608.1000;0.5657;2.8941;
608.4000;0.5657;2.8994;
608.7000;0.5633;2.8968;
609.0000;0.5608;2.8862;
609.3000;0.5608;2.8836;
609.6000;0.5592;2.8783;
609.9000;0.5584;2.8836;
610.2000;0.5560;2.8704;
610.5000;0.5560;2.8519;
610.8000;0.5535;2.8440;
611.1000;0.5503;2.8519;
611.4000;0.5527;2.8625;
611.7000;0.5495;2.8519;
612.0000;0.5454;2.8414;
612.3000;0.5486;2.8414;
612.6000;0.5462;2.8308;
612.9000;0.5470;2.8255;
613.2000;0.5405;2.8176;
613.5000;0.5438;2.8361;
613.8000;0.5495;2.8466;
614.1000;0.5503;2.8361;
614.4000;0.5389;2.8044;
614.7000;0.5364;2.8071;
615.0000;0.5381;2.8044;
615.3000;0.5364;2.7965;
615.6000;0.5340;2.7833;
615.9000;0.5356;2.7833;
616.2000;0.5356;2.7886;
616.5000;0.5324;2.7939;
616.8000;0.5381;2.8229;
617.1000;0.5324;2.8123;
617.4000;0.5283;2.7965;
617.7000;0.5307;2.8071;
618.0000;0.5340;2.8150;
618.3000;0.5258;2.7991;
618.6000;0.5267;2.8071;
618.9000;0.5250;2.8071;
619.2000;0.5242;2.8018;
619.5000;0.5234;2.7965;
619.8000;0.5234;2.8044;
620.1000;0.5226;2.8018;
620.4000;0.5193;2.7860;
620.7000;0.5201;2.7860;
621.0000;0.5210;2.7886;
621.3000;0.5193;2.7860;
621.6000;0.5169;2.7912;
621.9000;0.5161;2.7860;
622.2000;0.5169;2.8044;
622.5000;0.5161;2.8071;
622.8000;0.5063;2.7939;
623.1000;0.5136;2.8150;
623.4000;0.5128;2.8097;
623.7000;0.5128;2.8071;
624.0000;0.5112;2.8044;
624.3000;0.5104;2.8044;
624.6000;0.5096;2.8097;
624.9000;0.5104;2.8071;
625.2000;0.5088;2.8018;
625.5000;0.5071;2.8097;
625.8000;0.5063;2.8229;
626.1000;0.5022;2.8123;
626.4000;0.5055;2.8229;
626.7000;0.5047;2.8176;
627.0000;0.5055;2.8255;
627.3000;0.5055;2.8282;
627.6000;0.5047;2.8255;
627.9000;0.5153;2.8651;
628.2000;0.5031;2.8255;
628.5000;0.5022;2.8229;
628.8000;0.5014;2.8123;
629.1000;0.5031;2.8150;
629.4000;0.5006;2.8097;
629.7000;0.5006;2.8097;
630.0000;0.5006;2.8150;
630.3000;0.4982;2.8071;
630.6000;0.4990;2.8150;
630.9000;0.4941;2.8097;
631.2000;0.4998;2.8282;
631.5000;0.4974;2.8203;
631.8000;0.4900;2.7886;
632.1000;0.4965;2.8044;
632.4000;0.4957;2.8123;
632.7000;0.4957;2.8150;
633.0000;0.4965;2.8123;
633.3000;0.4925;2.8071;
633.6000;0.4900;2.8044;
633.9000;0.4949;2.8097;
634.2000;0.4941;2.7965;
634.5000;0.4933;2.7860;
634.8000;0.4908;2.7860;
635.1000;0.4933;2.7912;
635.4000;0.4917;2.7833;
635.7000;0.4917;2.7833;
636.0000;0.4917;2.7886;
636.3000;0.4917;2.7886;
636.6000;0.4892;2.7886;
636.9000;0.4868;2.7807;
637.2000;0.4892;2.7807;
637.5000;0.4892;2.7833;
637.8000;0.4908;2.7912;
638.1000;0.4868;2.7939;
638.4000;0.4868;2.7860;
638.7000;0.4876;2.7780;
639.0000;0.4860;2.7754;
639.3000;0.4868;2.7754;
639.6000;0.4876;2.7754;
639.9000;0.4843;2.7622;
640.2000;0.4851;2.7596;
640.5000;0.4860;2.7649;
640.8000;0.4860;2.7649;
641.1000;0.4819;2.7569;
641.4000;0.4835;2.7675;
641.7000;0.4835;2.7701;
642.0000;0.4827;2.7675;
642.3000;0.4819;2.7754;
642.6000;0.4835;2.7728;
642.9000;0.4827;2.7675;
643.2000;0.4827;2.7649;
643.5000;0.4876;2.7807;
643.8000;0.4794;2.7622;
644.1000;0.4819;2.7754;
644.4000;0.4778;2.7728;
644.7000;0.4811;2.7939;
645.0000;0.4803;2.8018;
645.3000;0.4778;2.8097;
645.6000;0.4803;2.8176;
645.9000;0.4778;2.8097;
646.2000;0.4770;2.8044;
646.5000;0.4778;2.8044;
646.8000;0.4746;2.8071;
647.1000;0.4778;2.8203;
647.4000;0.4770;2.8255;
647.7000;0.4770;2.8176;
648.0000;0.4778;2.8123;
648.3000;0.4762;2.8176;
648.6000;0.4754;2.8282;
648.9000;0.4770;2.8334;
649.2000;0.4770;2.8282;
649.5000;0.4746;2.8229;
649.8000;0.4729;2.8229;
650.1000;0.4713;2.8123;
650.4000;0.4754;2.8176;
650.7000;0.4754;2.8150;
651.0000;0.4697;2.7939;
651.3000;0.4762;2.7991;
651.6000;0.4729;2.7886;
651.9000;0.4713;2.7833;
652.2000;0.4737;2.7886;
652.5000;0.4721;2.7860;
652.8000;0.4640;2.7569;
653.1000;0.4713;2.7780;
653.4000;0.4778;2.7886;
653.7000;0.4689;2.7675;
654.0000;0.4705;2.7728;
654.3000;0.4697;2.7701;
654.6000;0.4754;2.7807;
654.9000;0.4713;2.7649;
655.2000;0.4697;2.7622;
655.5000;0.4721;2.7833;
655.8000;0.4705;2.7912;
656.1000;0.4713;2.7886;
656.4000;0.4689;2.7780;
656.7000;0.4697;2.7807;
657.0000;0.4697;2.7833;
657.3000;0.4672;2.7728;
657.6000;0.4672;2.7754;
657.9000;0.4705;2.7886;
658.2000;0.4705;2.7912;
658.5000;0.4681;2.7886;
658.8000;0.4681;2.7912;
659.1000;0.4697;2.7991;
659.4000;0.4705;2.7965;
659.7000;0.4705;2.7991;
660.0000;0.4681;2.7939;
660.3000;0.4672;2.7991;
660.6000;0.4681;2.8044;
660.9000;0.4689;2.8044;
661.2000;0.4689;2.7991;
661.5000;0.4664;2.7939;
661.8000;0.4697;2.7939;
662.1000;0.4656;2.7912;
662.4000;0.4648;2.7939;
662.7000;0.4656;2.7912;
663.0000;0.4664;2.7912;
663.3000;0.4664;2.7965;
663.6000;0.4640;2.8018;
663.9000;0.4648;2.7991;
664.2000;0.4640;2.7965;
664.5000;0.4648;2.8018;
664.8000;0.4664;2.8150;
665.1000;0.4632;2.8097;
665.4000;0.4648;2.8123;
665.7000;0.4632;2.8150;
666.0000;0.4746;2.8440;
666.3000;0.4640;2.8229;
666.6000;0.4705;2.8493;
666.9000;0.4632;2.8361;
667.2000;0.4640;2.8466;
667.5000;0.4664;2.8572;
667.8000;0.4575;2.8229;
668.1000;0.4624;2.8334;
668.4000;0.4615;2.8282;
668.7000;0.4542;2.8097;
669.0000;0.4607;2.8203;
669.3000;0.4632;2.8150;
669.6000;0.4632;2.8150;
669.9000;0.4640;2.8203;
670.2000;0.4640;2.8255;
670.5000;0.4624;2.8255;
670.8000;0.4632;2.8176;
671.1000;0.4615;2.8097;
671.4000;0.4632;2.8176;
671.7000;0.4607;2.8203;
672.0000;0.4624;2.8097;
672.3000;0.4632;2.7991;
672.6000;0.4632;2.8044;
672.9000;0.4607;2.7912;
673.2000;0.4567;2.7807;
673.5000;0.4599;2.7886;
673.8000;0.4615;2.7912;
674.1000;0.4615;2.7939;
674.4000;0.4615;2.7965;
674.7000;0.4615;2.8097;
675.0000;0.4567;2.7939;
675.3000;0.4624;2.8150;
675.6000;0.4624;2.8018;
675.9000;0.4615;2.8071;
676.2000;0.4550;2.7886;
676.5000;0.4615;2.8044;
676.8000;0.4599;2.7912;
677.1000;0.4607;2.8018;
677.4000;0.4599;2.8044;
677.7000;0.4510;2.7649;
678.0000;0.4591;2.7780;
678.3000;0.4591;2.7701;
678.6000;0.4591;2.7754;
678.9000;0.4599;2.7728;
679.2000;0.4591;2.7701;
679.5000;0.4599;2.7675;
679.8000;0.4599;2.7622;
680.1000;0.4591;2.7649;
680.4000;0.4575;2.7622;
680.7000;0.4583;2.7701;
681.0000;0.4583;2.7649;
681.3000;0.4656;2.7912;
681.6000;0.4575;2.7649;
681.9000;0.4534;2.7649;
682.2000;0.4558;2.7780;
682.5000;0.4575;2.7833;
682.8000;0.4583;2.7939;
683.1000;0.4591;2.7991;
683.4000;0.4558;2.7991;
683.7000;0.4583;2.8123;
684.0000;0.4575;2.8097;
684.3000;0.4575;2.8123;
684.6000;0.4575;2.8203;
684.9000;0.4583;2.8334;
685.2000;0.4567;2.8308;
685.5000;0.4485;2.8018;
685.8000;0.4624;2.8282;
686.1000;0.4542;2.8018;
686.4000;0.4632;2.8308;
686.7000;0.4575;2.8203;
687.0000;0.4558;2.8203;
687.3000;0.4550;2.8282;
687.6000;0.4542;2.8203;
687.9000;0.4550;2.8308;
688.2000;0.4550;2.8414;
688.5000;0.4501;2.8203;
688.8000;0.4558;2.8308;
689.1000;0.4550;2.8255;
689.4000;0.4558;2.8282;
689.7000;0.4575;2.8308;
690.0000;0.4534;2.8176;
690.3000;0.4550;2.8255;
690.6000;0.4404;2.7728;
690.9000;0.4526;2.7939;
691.2000;0.4558;2.7991;
691.5000;0.4542;2.7965;
691.8000;0.4599;2.8123;
692.1000;0.4542;2.7912;
692.4000;0.4518;2.7807;
692.7000;0.4550;2.7807;
693.0000;0.4542;2.7807;
693.3000;0.4542;2.7860;
693.6000;0.4534;2.7807;
693.9000;0.4558;2.7754;
694.2000;0.4534;2.7675;
694.5000;0.4542;2.7701;
694.8000;0.4567;2.7860;
695.1000;0.4542;2.7833;
695.4000;0.4542;2.7860;
695.7000;0.4558;2.7886;
696.0000;0.4542;2.7833;
696.3000;0.4550;2.7886;
696.6000;0.4550;2.7807;
696.9000;0.4542;2.7754;
697.2000;0.4575;2.7912;
697.5000;0.4534;2.7860;
697.8000;0.4583;2.7965;
698.1000;0.4501;2.7807;
698.4000;0.4526;2.7833;
698.7000;0.4485;2.7649;
699.0000;0.4550;2.7860;
699.3000;0.4542;2.7860;
699.6000;0.4534;2.7807;
699.9000;0.4510;2.7754;
700.2000;0.4534;2.7860;
700.5000;0.4534;2.7912;
700.8000;0.4542;2.7965;
701.1000;0.4518;2.7886;
701.4000;0.4567;2.7939;
701.7000;0.4534;2.7807;
702.0000;0.4493;2.7754;
702.3000;0.4526;2.7833;
702.6000;0.4518;2.7886;
702.9000;0.4526;2.7939;
703.2000;0.4534;2.8044;
703.5000;0.4493;2.8018;
703.8000;0.4510;2.8044;
704.1000;0.4477;2.8018;
704.4000;0.4510;2.8044;
704.7000;0.4510;2.8044;
705.0000;0.4542;2.8150;
705.3000;0.4526;2.8097;
705.6000;0.4518;2.8150;
705.9000;0.4526;2.8229;
706.2000;0.4518;2.8229;
706.5000;0.4485;2.8097;
706.8000;0.4493;2.8071;
707.1000;0.4575;2.8229;
707.4000;0.4518;2.8097;
707.7000;0.4501;2.8150;
708.0000;0.4493;2.8229;
708.3000;0.4501;2.8229;
708.6000;0.4469;2.8071;
708.9000;0.4477;2.8044;
709.2000;0.4485;2.8071;
709.5000;0.4485;2.8071;
709.8000;0.4453;2.7833;
710.1000;0.4461;2.7860;
710.4000;0.4510;2.7912;
710.7000;0.4510;2.7912;
711.0000;0.4493;2.7912;
711.3000;0.4510;2.7833;
711.6000;0.4534;2.7807;
711.9000;0.4501;2.7780;
712.2000;0.4510;2.7754;
712.5000;0.4526;2.7833;
712.8000;0.4461;2.7675;
713.1000;0.4493;2.7780;
713.4000;0.4518;2.7912;
713.7000;0.4501;2.7886;
714.0000;0.4501;2.7912;
714.3000;0.4493;2.8044;
714.6000;0.4510;2.8097;
714.9000;0.4469;2.7886;
715.2000;0.4510;2.7939;
715.5000;0.4510;2.7939;
715.8000;0.4510;2.7939;
716.1000;0.4501;2.7965;
716.4000;0.4493;2.7912;
716.7000;0.4501;2.7886;
717.0000;0.4510;2.7912;
717.3000;0.4510;2.7833;
717.6000;0.4493;2.7780;
717.9000;0.4477;2.7886;
718.2000;0.4501;2.7965;
718.5000;0.4510;2.8097;
718.8000;0.4493;2.8018;
719.1000;0.4485;2.8018;
719.4000;0.4485;2.8018;
719.7000;0.4493;2.7886;
720.0000;0.4493;2.7991;
720.3000;0.4477;2.7833;
720.6000;0.4501;2.7912;
720.9000;0.4501;2.7965;
721.2000;0.4501;2.7939;
721.5000;0.4501;2.8018;
721.8000;0.4526;2.8071;
722.1000;0.4477;2.7965;
722.4000;0.4469;2.8044;
722.7000;0.4493;2.8071;
723.0000;0.4412;2.7965;
723.3000;0.4526;2.8361;
723.6000;0.4485;2.8255;
723.9000;0.4469;2.8255;
724.2000;0.4469;2.8282;
724.5000;0.4461;2.8203;
724.8000;0.4469;2.8229;
725.1000;0.4461;2.8203;
725.4000;0.4469;2.8229;
725.7000;0.4428;2.8071;
726.0000;0.4477;2.8255;
726.3000;0.4469;2.8308;
726.6000;0.4469;2.8308;
726.9000;0.4469;2.8334;
727.2000;0.4485;2.8440;
727.5000;0.4477;2.8493;
727.8000;0.4461;2.8387;
728.1000;0.4444;2.8334;
728.4000;0.4461;2.8308;
728.7000;0.4436;2.8203;
729.0000;0.4477;2.8334;
729.3000;0.4453;2.8361;
729.6000;0.4477;2.8387;
729.9000;0.4469;2.8387;
730.2000;0.4469;2.8361;
730.5000;0.4477;2.8282;
730.8000;0.4469;2.8176;
731.1000;0.4485;2.8282;
731.4000;0.4493;2.8203;
731.7000;0.4469;2.7965;
732.0000;0.4485;2.7965;
732.3000;0.4436;2.7886;
732.6000;0.4485;2.7965;
732.9000;0.4477;2.8044;
733.2000;0.4453;2.7965;
733.5000;0.4469;2.8097;
733.8000;0.4477;2.8123;
734.1000;0.4444;2.8123;
734.4000;0.4444;2.8123;
734.7000;0.4453;2.8176;
735.0000;0.4477;2.8229;
735.3000;0.4469;2.8123;
735.6000;0.4436;2.8071;
735.9000;0.4461;2.8123;
736.2000;0.4461;2.8097;
736.5000;0.4444;2.8044;
736.8000;0.4444;2.8044;
737.1000;0.4461;2.8097;
737.4000;0.4461;2.8044;
737.7000;0.4477;2.7991;
738.0000;0.4477;2.7939;
738.3000;0.4453;2.7860;
738.6000;0.4387;2.7701;
738.9000;0.4485;2.8123;
739.2000;0.4461;2.8044;
739.5000;0.4461;2.7965;
739.8000;0.4469;2.7965;
740.1000;0.4485;2.8018;
740.4000;0.4477;2.7965;
740.7000;0.4461;2.8071;
741.0000;0.4469;2.8071;
741.3000;0.4485;2.8044;
741.6000;0.4477;2.7912;
741.9000;0.4469;2.7833;
742.2000;0.4477;2.7912;
742.5000;0.4469;2.7912;
742.8000;0.4453;2.7939;
743.1000;0.4485;2.7991;
743.4000;0.4436;2.7833;
743.7000;0.4290;2.7411;
744.0000;0.4355;2.7569;
744.3000;0.4420;2.7780;
744.6000;0.4461;2.7807;
744.9000;0.4436;2.7675;
745.2000;0.4453;2.7780;
745.5000;0.4453;2.7807;
745.8000;0.4469;2.7807;
746.1000;0.4412;2.7780;
746.4000;0.4436;2.7807;
746.7000;0.4436;2.7886;
747.0000;0.4404;2.7912;
747.3000;0.4396;2.7939;
747.6000;0.4444;2.8071;
747.9000;0.4444;2.8071;
748.2000;0.4453;2.8097;
748.5000;0.4420;2.8097;
748.8000;0.4444;2.8176;
749.1000;0.4436;2.8150;
749.4000;0.4396;2.8071;
749.7000;0.4444;2.8255;
750.0000;0.4436;2.8334;
750.3000;0.4453;2.8203;
750.6000;0.4453;2.8176;
750.9000;0.4469;2.8150;
751.2000;0.4453;2.8176;
751.5000;0.4469;2.8150;
751.8000;0.4461;2.8097;
752.1000;0.4469;2.8097;
752.4000;0.4453;2.8097;
752.7000;0.4477;2.8203;
753.0000;0.4477;2.8044;
753.3000;0.4493;2.8097;
753.6000;0.4444;2.7991;
753.9000;0.4453;2.7991;
754.2000;0.4453;2.7939;
754.5000;0.4453;2.7807;
754.8000;0.4444;2.7807;
755.1000;0.4404;2.7675;
755.4000;0.4485;2.7860;
755.7000;0.4453;2.7833;
756.0000;0.4444;2.7780;
756.3000;0.4444;2.7939;
756.6000;0.4453;2.7991;
756.9000;0.4436;2.8018;
757.2000;0.4453;2.8071;
757.5000;0.4453;2.8044;
757.8000;0.4469;2.7965;
758.1000;0.4461;2.7860;
758.4000;0.4436;2.7780;
758.7000;0.4428;2.7728;
759.0000;0.4453;2.7807;
759.3000;0.4469;2.7939;
759.6000;0.4444;2.7939;
759.9000;0.4420;2.7807;
760.2000;0.4444;2.7886;
760.5000;0.4436;2.7780;
760.8000;0.4436;2.7780;
761.1000;0.4453;2.7780;
761.4000;0.4444;2.7833;
761.7000;0.4453;2.7939;
762.0000;0.4461;2.7939;
762.3000;0.4453;2.7886;
762.6000;0.4444;2.7833;
762.9000;0.4444;2.7886;
763.2000;0.4444;2.7939;
763.5000;0.4444;2.7939;
763.8000;0.4444;2.8044;
764.1000;0.4436;2.7965;
764.4000;0.4444;2.8071;
764.7000;0.4444;2.8044;
765.0000;0.4436;2.7991;
765.3000;0.4436;2.8071;
765.6000;0.4453;2.8176;
765.9000;0.4420;2.8097;
766.2000;0.4444;2.8097;
766.5000;0.4420;2.8018;
766.8000;0.4412;2.8044;
767.1000;0.4404;2.8150;
767.4000;0.4396;2.8071;
767.7000;0.4453;2.8229;
768.0000;0.4436;2.8150;
768.3000;0.4436;2.8150;
768.6000;0.4420;2.7965;
768.9000;0.4436;2.7912;
769.2000;0.4436;2.7965;
769.5000;0.4436;2.8044;
769.8000;0.4396;2.7912;
770.1000;0.4428;2.8044;
770.4000;0.4493;2.8255;
770.7000;0.4436;2.7965;
771.0000;0.4420;2.7912;
771.3000;0.4363;2.7780;
771.6000;0.4453;2.7965;
771.9000;0.4428;2.7991;
772.2000;0.4412;2.7939;
772.5000;0.4461;2.7991;
772.8000;0.4420;2.7965;
773.1000;0.4453;2.8044;
773.4000;0.4453;2.8018;
773.7000;0.4306;2.7622;
774.0000;0.4428;2.7833;
774.3000;0.4428;2.7780;
774.6000;0.4436;2.7807;
774.9000;0.4428;2.7807;
775.2000;0.4420;2.7754;
775.5000;0.4436;2.7833;
775.8000;0.4444;2.7886;
776.1000;0.4469;2.8071;
776.4000;0.4412;2.7939;
776.7000;0.4444;2.8071;
777.0000;0.4436;2.8097;
777.3000;0.4453;2.8150;
777.6000;0.4412;2.7965;
777.9000;0.4404;2.7939;
778.2000;0.4444;2.7965;
778.5000;0.4436;2.7965;
778.8000;0.4461;2.7991;
779.1000;0.4379;2.7807;
779.4000;0.4420;2.7833;
779.7000;0.4420;2.7833;
780.0000;0.4428;2.7780;
780.3000;0.4428;2.7728;
780.6000;0.4444;2.7701;
780.9000;0.4453;2.7728;
781.2000;0.4444;2.7701;
781.5000;0.4355;2.7569;
781.8000;0.4428;2.7886;
782.1000;0.4420;2.7939;
782.4000;0.4436;2.7912;
782.7000;0.4436;2.7886;
783.0000;0.4412;2.7807;
783.3000;0.4428;2.7860;
783.6000;0.4428;2.7886;
783.9000;0.4436;2.7780;
784.2000;0.4404;2.7754;
784.5000;0.4428;2.7860;
784.8000;0.4420;2.7833;
785.1000;0.4420;2.7912;
785.4000;0.4420;2.7991;
785.7000;0.4428;2.8123;
786.0000;0.4428;2.8123;
786.3000;0.4428;2.8176;
786.6000;0.4412;2.8203;
786.9000;0.4428;2.8282;
787.2000;0.4436;2.8334;
787.5000;0.4428;2.8203;
787.8000;0.4339;2.7886;
788.1000;0.4412;2.8150;
788.4000;0.4412;2.8176;
788.7000;0.4428;2.8176;
789.0000;0.4412;2.8203;
789.3000;0.4412;2.8176;
789.6000;0.4420;2.8176;
789.9000;0.4420;2.8150;
790.2000;0.4412;2.7991;
790.5000;0.4428;2.7991;
790.8000;0.4428;2.7991;
791.1000;0.4436;2.7991;
791.4000;0.4428;2.7991;
791.7000;0.4371;2.7833;
792.0000;0.4371;2.7754;
792.3000;0.4412;2.7860;
792.6000;0.4420;2.7886;
792.9000;0.4485;2.8018;
793.2000;0.4412;2.7833;
793.5000;0.4396;2.7807;
793.8000;0.4428;2.7860;
794.1000;0.4436;2.7860;
794.4000;0.4436;2.7833;
794.7000;0.4404;2.7833;
795.0000;0.4436;2.7939;
795.3000;0.4412;2.7991;
795.6000;0.4412;2.8018;
795.9000;0.4420;2.8176;
796.2000;0.4420;2.8123;
796.5000;0.4436;2.8071;
796.8000;0.4428;2.7965;
797.1000;0.4428;2.7939;
797.4000;0.4436;2.7939;
797.7000;0.4461;2.8150;
798.0000;0.4444;2.8044;
798.3000;0.4444;2.8071;
798.6000;0.4444;2.8044;
798.9000;0.4436;2.8044;
799.2000;0.4493;2.8229;
799.5000;0.4444;2.8044;
799.8000;0.4420;2.8071;
800.1000;0.4461;2.8150;
800.4000;0.4436;2.8044;
800.7000;0.4396;2.7886;
801.0000;0.4461;2.8150;
801.3000;0.4428;2.8018;
801.6000;0.4436;2.7991;
801.9000;0.4412;2.7939;
802.2000;0.4420;2.7965;
802.5000;0.4404;2.8018;
802.8000;0.4412;2.8123;
803.1000;0.4412;2.8044;
803.4000;0.4436;2.8018;
803.7000;0.4412;2.8071;
804.0000;0.4428;2.8123;
804.3000;0.4420;2.8123;
804.6000;0.4428;2.8150;
804.9000;0.4420;2.8071;
805.2000;0.4420;2.8176;
805.5000;0.4412;2.8150;
805.8000;0.4412;2.8123;
806.1000;0.4404;2.8150;
806.4000;0.4363;2.8176;
806.7000;0.4404;2.8334;
807.0000;0.4412;2.8361;
807.3000;0.4404;2.8361;
807.6000;0.4412;2.8334;
807.9000;0.4412;2.8282;
808.2000;0.4396;2.8123;
808.5000;0.4428;2.8123;
808.8000;0.4485;2.8334;
809.1000;0.4404;2.8071;
809.4000;0.4412;2.8150;
809.7000;0.4396;2.8044;
810.0000;0.4396;2.8150;
810.3000;0.4412;2.8150;
810.6000;0.4412;2.8150;
810.9000;0.4428;2.8150;
811.2000;0.4412;2.8044;
811.5000;0.4404;2.8150;
811.8000;0.4412;2.8123;
812.1000;0.4420;2.8123;
812.4000;0.4396;2.8071;
812.7000;0.4428;2.8150;
813.0000;0.4420;2.8203;
813.3000;0.4428;2.8203;
813.6000;0.4404;2.8044;
813.9000;0.4412;2.7965;
814.2000;0.4412;2.8018;
814.5000;0.4428;2.8097;
814.8000;0.4404;2.7991;
815.1000;0.4428;2.8071;
815.4000;0.4412;2.8044;
815.7000;0.4420;2.7991;
816.0000;0.4404;2.7912;
816.3000;0.4396;2.7833;
816.6000;0.4412;2.7939;
816.9000;0.4436;2.7965;
817.2000;0.4339;2.7701;
817.5000;0.4420;2.7833;
817.8000;0.4355;2.7622;
818.1000;0.4436;2.7833;
818.4000;0.4428;2.7754;
818.7000;0.4420;2.7701;
819.0000;0.4436;2.7780;
819.3000;0.4436;2.7780;
819.6000;0.4444;2.7728;
819.9000;0.4330;2.7464;
820.2000;0.4428;2.7728;
820.5000;0.4428;2.7833;
820.8000;0.4420;2.7833;
821.1000;0.4396;2.7701;
821.4000;0.4396;2.7728;
821.7000;0.4444;2.7912;
822.0000;0.4420;2.7860;
822.3000;0.4428;2.7991;
822.6000;0.4412;2.8044;
822.9000;0.4404;2.8123;
823.2000;0.4436;2.8203;
823.5000;0.4412;2.8123;
823.8000;0.4412;2.8044;
824.1000;0.4510;2.8440;
824.4000;0.4428;2.8150;
824.7000;0.4453;2.8308;
825.0000;0.4282;2.7833;
825.3000;0.4412;2.8176;
825.6000;0.4396;2.8123;
825.9000;0.4461;2.8229;
826.2000;0.4355;2.7991;
826.5000;0.4396;2.8176;
826.8000;0.4412;2.8308;
827.1000;0.4371;2.8387;
827.4000;0.4404;2.8466;
827.7000;0.4469;2.8677;
828.0000;0.4379;2.8414;
828.3000;0.4412;2.8387;
828.6000;0.4387;2.8334;
828.9000;0.4339;2.8229;
829.2000;0.4404;2.8387;
829.5000;0.4404;2.8255;
829.8000;0.4387;2.8150;
830.1000;0.4469;2.8308;
830.4000;0.4412;2.8097;
830.7000;0.4420;2.8150;
831.0000;0.4412;2.8097;
831.3000;0.4428;2.8150;
831.6000;0.4436;2.8044;
831.9000;0.4412;2.7912;
832.2000;0.4428;2.7912;
832.5000;0.4428;2.7939;
832.8000;0.4436;2.7965;
833.1000;0.4444;2.7912;
833.4000;0.4453;2.7965;
833.7000;0.4420;2.7912;
834.0000;0.4420;2.7991;
834.3000;0.4420;2.7912;
834.6000;0.4412;2.7886;
834.9000;0.4420;2.7939;
835.2000;0.4420;2.7833;
835.5000;0.4477;2.8018;
835.8000;0.4412;2.7860;
836.1000;0.4412;2.7860;
836.4000;0.4282;2.7464;
836.7000;0.4396;2.7860;
837.0000;0.4412;2.7912;
837.3000;0.4404;2.7939;
837.6000;0.4485;2.8150;
837.9000;0.4396;2.7912;
838.2000;0.4404;2.7860;
838.5000;0.4387;2.7728;
838.8000;0.4428;2.7728;
839.1000;0.4379;2.7596;
839.4000;0.4518;2.7912;
839.7000;0.4436;2.7596;
840.0000;0.4412;2.7464;
840.3000;0.4420;2.7569;
840.6000;0.4404;2.7569;
840.9000;0.4420;2.7622;
841.2000;0.4420;2.7649;
841.5000;0.4412;2.7622;
841.8000;0.4412;2.7675;
842.1000;0.4420;2.7701;
842.4000;0.4404;2.7675;
842.7000;0.4387;2.7728;
843.0000;0.4404;2.7939;
843.3000;0.4412;2.8071;
843.6000;0.4404;2.8097;
843.9000;0.4412;2.8150;
844.2000;0.4396;2.8097;
844.5000;0.4404;2.8150;
844.8000;0.4404;2.8097;
845.1000;0.4371;2.7939;
845.4000;0.4404;2.8018;
845.7000;0.4436;2.8044;
846.0000;0.4412;2.8044;
846.3000;0.4412;2.7991;
846.6000;0.4396;2.7991;
846.9000;0.4420;2.8097;
847.2000;0.4436;2.8229;
847.5000;0.4396;2.8176;
847.8000;0.4412;2.8229;
848.1000;0.4396;2.8203;
848.4000;0.4404;2.8255;
848.7000;0.4396;2.8334;
849.0000;0.4379;2.8308;
849.3000;0.4387;2.8361;
849.6000;0.4387;2.8387;
849.9000;0.4404;2.8334;
850.2000;0.4282;2.7965;
850.5000;0.4404;2.8255;
850.8000;0.4396;2.8203;
851.1000;0.4420;2.8229;
851.4000;0.4396;2.8176;
851.7000;0.4526;2.8572;
852.0000;0.4420;2.8255;
852.3000;0.4404;2.8123;
852.6000;0.4420;2.8071;
852.9000;0.4396;2.7860;
853.2000;0.4412;2.7912;
853.5000;0.4412;2.7833;
853.8000;0.4420;2.7833;
854.1000;0.4428;2.7807;
854.4000;0.4404;2.7701;
854.7000;0.4436;2.7754;
855.0000;0.4412;2.7649;
855.3000;0.4396;2.7622;
855.6000;0.4396;2.7596;
855.9000;0.4461;2.7754;
856.2000;0.4428;2.7728;
856.5000;0.4420;2.7833;
856.8000;0.4404;2.7886;
857.1000;0.4412;2.7965;
857.4000;0.4404;2.7912;
857.7000;0.4396;2.8018;
858.0000;0.4412;2.7991;
858.3000;0.4396;2.7939;
858.6000;0.4387;2.7991;
858.9000;0.4396;2.7912;
859.2000;0.4412;2.7991;
859.5000;0.4412;2.7912;
859.8000;0.4396;2.7886;
860.1000;0.4420;2.7912;
860.4000;0.4412;2.7991;
860.7000;0.4412;2.7965;
861.0000;0.4290;2.7649;
861.3000;0.4428;2.8018;
861.6000;0.4412;2.7991;
861.9000;0.4387;2.7912;
862.2000;0.4412;2.7939;
862.5000;0.4330;2.7701;
862.8000;0.4379;2.7965;
863.1000;0.4477;2.8282;
863.4000;0.4387;2.8123;
863.7000;0.4404;2.8203;
864.0000;0.4379;2.8203;
864.3000;0.4396;2.8203;
864.6000;0.4396;2.8282;
864.9000;0.4420;2.8282;
865.2000;0.4396;2.8176;
865.5000;0.4379;2.8176;
865.8000;0.4387;2.8255;
866.1000;0.4290;2.7939;
866.4000;0.4428;2.8334;
866.7000;0.4396;2.8255;
867.0000;0.4387;2.8203;
867.3000;0.4355;2.8176;
867.6000;0.4396;2.8361;
867.9000;0.4404;2.8414;
868.2000;0.4387;2.8414;
868.5000;0.4396;2.8466;
868.8000;0.4379;2.8282;
869.1000;0.4404;2.8308;
869.4000;0.4387;2.8150;
869.7000;0.4371;2.8097;
870.0000;0.4379;2.8071;
870.3000;0.4387;2.8044;
870.6000;0.4436;2.8123;
870.9000;0.4404;2.8071;
871.2000;0.4379;2.8018;
871.5000;0.4404;2.8150;
871.8000;0.4428;2.8123;
872.1000;0.4339;2.7833;
872.4000;0.4396;2.7886;
872.7000;0.4412;2.7912;
873.0000;0.4412;2.7886;
873.3000;0.4396;2.7912;
873.6000;0.4412;2.7860;
873.9000;0.4396;2.7860;
874.2000;0.4412;2.8071;
874.5000;0.4404;2.8044;
874.8000;0.4404;2.8071;
875.1000;0.4396;2.8018;
875.4000;0.4412;2.8071;
875.7000;0.4420;2.8071;
876.0000;0.4396;2.7860;
876.3000;0.4428;2.7886;
876.6000;0.4420;2.7939;
876.9000;0.4322;2.7596;
877.2000;0.4412;2.7833;
877.5000;0.4428;2.7780;
877.8000;0.4428;2.7754;
878.1000;0.4428;2.7807;
878.4000;0.4387;2.7622;
878.7000;0.4396;2.7675;
879.0000;0.4396;2.7596;
879.3000;0.4404;2.7649;
879.6000;0.4420;2.7728;
879.9000;0.4314;2.7490;
880.2000;0.4412;2.7860;
880.5000;0.4404;2.7860;
880.8000;0.4404;2.7965;
881.1000;0.4420;2.7965;
881.4000;0.4428;2.7965;
881.7000;0.4314;2.7649;
882.0000;0.4412;2.8071;
882.3000;0.4420;2.8097;
882.6000;0.4404;2.8097;
882.9000;0.4412;2.8203;
883.2000;0.4387;2.8176;
883.5000;0.4396;2.8097;
883.8000;0.4387;2.8071;
884.1000;0.4396;2.8018;
884.4000;0.4396;2.8071;
884.7000;0.4396;2.8018;
885.0000;0.4404;2.7991;
885.3000;0.4404;2.8071;
885.6000;0.4387;2.8071;
885.9000;0.4387;2.8097;
886.2000;0.4363;2.8044;
886.5000;0.4396;2.8071;
886.8000;0.4371;2.8097;
887.1000;0.4404;2.8150;
887.4000;0.4387;2.8044;
887.7000;0.4379;2.8071;
888.0000;0.4412;2.8150;
888.3000;0.4387;2.8097;
888.6000;0.4387;2.8176;
888.9000;0.4404;2.8150;
889.2000;0.4371;2.7991;
889.5000;0.4379;2.8097;
889.8000;0.4379;2.8071;
890.1000;0.4387;2.7991;
890.4000;0.4379;2.7991;
890.7000;0.4404;2.7991;
891.0000;0.4396;2.7939;
891.3000;0.4412;2.8044;
891.6000;0.4396;2.8044;
891.9000;0.4396;2.8071;
892.2000;0.4396;2.8123;
892.5000;0.4404;2.8176;
892.8000;0.4396;2.8176;
893.1000;0.4469;2.8282;
893.4000;0.4404;2.8044;
893.7000;0.4396;2.8097;
894.0000;0.4396;2.8071;
894.3000;0.4396;2.7965;
894.6000;0.4412;2.7965;
894.9000;0.4420;2.7939;
895.2000;0.4387;2.7939;
895.5000;0.4396;2.7939;
895.8000;0.4428;2.7991;
896.1000;0.4396;2.8044;
896.4000;0.4412;2.8044;
896.7000;0.4379;2.7965;
897.0000;0.4404;2.7886;
897.3000;0.4404;2.7860;
897.6000;0.4314;2.7543;
897.9000;0.4396;2.7780;
898.2000;0.4412;2.7780;
898.5000;0.4387;2.7833;
898.8000;0.4379;2.7912;
899.1000;0.4404;2.7965;
899.4000;0.4379;2.7860;
899.7000;0.4387;2.7912;
900.0000;0.4396;2.7991;
900.3000;0.4404;2.8018;
900.6000;0.4396;2.7939;
900.9000;0.4379;2.7833;
901.2000;0.4387;2.7939;
901.5000;0.4387;2.7939;
901.8000;0.4396;2.7965;
902.1000;0.4396;2.7912;
902.4000;0.4404;2.7912;
902.7000;0.4322;2.7675;
903.0000;0.4396;2.7991;
903.3000;0.4387;2.8071;
903.6000;0.4387;2.8097;
903.9000;0.4412;2.7991;
904.2000;0.4404;2.8018;
904.5000;0.4387;2.8018;
904.8000;0.4379;2.7965;
905.1000;0.4412;2.8123;
905.4000;0.4379;2.8150;
905.7000;0.4387;2.8229;
906.0000;0.4387;2.8255;
906.3000;0.4404;2.8255;
906.6000;0.4379;2.8203;
906.9000;0.4396;2.8334;
907.2000;0.4379;2.8334;
907.5000;0.4420;2.8361;
907.8000;0.4412;2.8493;
908.1000;0.4379;2.8361;
908.4000;0.4396;2.8361;
908.7000;0.4420;2.8361;
909.0000;0.4396;2.8150;
909.3000;0.4396;2.8229;
909.6000;0.4371;2.8176;
909.9000;0.4379;2.8176;
910.2000;0.4387;2.8176;
910.5000;0.4387;2.8123;
910.8000;0.4387;2.8071;
911.1000;0.4412;2.8018;
911.4000;0.4412;2.8018;
911.7000;0.4396;2.7939;
912.0000;0.4404;2.8071;
912.3000;0.4379;2.7939;
912.6000;0.4453;2.7991;
912.9000;0.4396;2.7807;
913.2000;0.4387;2.7860;
913.5000;0.4387;2.7833;
913.8000;0.4387;2.7807;
914.1000;0.4379;2.7701;
914.4000;0.4396;2.7728;
914.7000;0.4379;2.7701;
915.0000;0.4387;2.7649;
915.3000;0.4444;2.7701;
915.6000;0.4428;2.7728;
915.9000;0.4428;2.7728;
916.2000;0.4355;2.7701;
916.5000;0.4428;2.7860;
916.8000;0.4412;2.7833;
917.1000;0.4355;2.7675;
917.4000;0.4387;2.7833;
917.7000;0.4404;2.7833;
918.0000;0.4428;2.7833;
918.3000;0.4404;2.7833;
918.6000;0.4396;2.7886;
918.9000;0.4314;2.7596;
919.2000;0.4396;2.7807;
919.5000;0.4404;2.7754;
919.8000;0.4387;2.7728;
920.1000;0.4404;2.7701;
920.4000;0.4404;2.7701;
920.7000;0.4396;2.7701;
921.0000;0.4404;2.7701;
921.3000;0.4363;2.7622;
921.6000;0.4412;2.7754;
921.9000;0.4412;2.7780;
922.2000;0.4396;2.7701;
922.5000;0.4396;2.7649;
922.8000;0.4387;2.7754;
923.1000;0.4396;2.7675;
923.4000;0.4379;2.7860;
923.7000;0.4355;2.7860;
924.0000;0.4404;2.7991;
924.3000;0.4396;2.7965;
924.6000;0.4404;2.8044;
924.9000;0.4428;2.8097;
925.2000;0.4396;2.8044;
925.5000;0.4453;2.8334;
925.8000;0.4396;2.8123;
926.1000;0.4396;2.8176;
926.4000;0.4387;2.8176;
926.7000;0.4396;2.8203;
927.0000;0.4387;2.8255;
927.3000;0.4387;2.8282;
927.6000;0.4396;2.8255;
927.9000;0.4379;2.8229;
928.2000;0.4387;2.8255;
928.5000;0.4396;2.8255;
928.8000;0.4379;2.8123;
929.1000;0.4387;2.8176;
929.4000;0.4371;2.8097;
929.7000;0.4355;2.7965;
930.0000;0.4404;2.8176;
930.3000;0.4404;2.8176;
930.6000;0.4404;2.8150;
930.9000;0.4379;2.8097;
931.2000;0.4371;2.7991;
931.5000;0.4396;2.8097;
931.8000;0.4404;2.8097;
932.1000;0.4396;2.8044;
932.4000;0.4298;2.7754;
932.7000;0.4355;2.7833;
933.0000;0.4322;2.7622;
933.3000;0.4387;2.7780;
933.6000;0.4379;2.7728;
933.9000;0.4379;2.7754;
934.2000;0.4379;2.7622;
934.5000;0.4314;2.7358;
934.8000;0.4387;2.7543;
935.1000;0.4387;2.7517;
935.4000;0.4282;2.7121;
935.7000;0.4355;2.7332;
936.0000;0.4387;2.7543;
936.3000;0.4396;2.7517;
936.6000;0.4387;2.7490;
936.9000;0.4412;2.7517;
937.2000;0.4387;2.7649;
937.5000;0.4387;2.7675;
937.8000;0.4347;2.7596;
938.1000;0.4469;2.7860;
938.4000;0.4404;2.7701;
938.7000;0.4469;2.7912;
939.0000;0.4428;2.7754;
939.3000;0.4444;2.7754;
939.6000;0.4396;2.7701;
939.9000;0.4387;2.7622;
940.2000;0.4404;2.7675;
940.5000;0.4387;2.7596;
940.8000;0.4387;2.7569;
941.1000;0.4396;2.7596;
941.4000;0.4379;2.7517;
941.7000;0.4428;2.7701;
942.0000;0.4379;2.7543;
942.3000;0.4396;2.7543;
942.6000;0.4387;2.7490;
942.9000;0.4420;2.7649;
943.2000;0.4396;2.7517;
943.5000;0.4387;2.7490;
943.8000;0.4387;2.7543;
944.1000;0.4404;2.7569;
944.4000;0.4404;2.7649;
944.7000;0.4396;2.7754;
945.0000;0.4396;2.7754;
945.3000;0.4404;2.7675;
945.6000;0.4396;2.7780;
945.9000;0.4396;2.7833;
946.2000;0.4387;2.7886;
946.5000;0.4371;2.7886;
946.8000;0.4387;2.7965;
947.1000;0.4379;2.8018;
947.4000;0.4379;2.7886;
947.7000;0.4387;2.7939;
948.0000;0.4404;2.7991;
948.3000;0.4412;2.7965;
948.6000;0.4371;2.7860;
948.9000;0.4371;2.7833;
949.2000;0.4387;2.7939;
949.5000;0.4404;2.8018;
949.8000;0.4347;2.7833;
950.1000;0.4404;2.7912;
950.4000;0.4387;2.7860;
950.7000;0.4347;2.7807;
951.0000;0.4396;2.8018;
951.3000;0.4396;2.7991;
951.6000;0.4396;2.7965;
951.9000;0.4404;2.8018;
952.2000;0.4396;2.7886;
952.5000;0.4387;2.7754;
952.8000;0.4412;2.7780;
953.1000;0.4396;2.7701;
953.4000;0.4404;2.7701;
953.7000;0.4404;2.7675;
954.0000;0.4396;2.7649;
954.3000;0.4371;2.7622;
954.6000;0.4363;2.7569;
954.9000;0.4396;2.7675;
955.2000;0.4347;2.7569;
955.5000;0.4412;2.7780;
955.8000;0.4412;2.7780;
956.1000;0.4412;2.7780;
956.4000;0.4387;2.7596;
956.7000;0.4396;2.7649;
957.0000;0.4371;2.7569;
957.3000;0.4420;2.7780;
957.6000;0.4412;2.7780;
957.9000;0.4379;2.7780;
958.2000;0.4501;2.8176;
958.5000;0.4396;2.7912;
958.8000;0.4396;2.7807;
959.1000;0.4420;2.7833;
959.4000;0.4404;2.7754;
959.7000;0.4428;2.7833;
960.0000;0.4404;2.7701;
960.3000;0.4444;2.7860;
960.6000;0.4387;2.7701;
960.9000;0.4379;2.7649;
961.2000;0.4404;2.7780;
961.5000;0.4469;2.7886;
961.8000;0.4387;2.7675;
962.1000;0.4363;2.7622;
962.4000;0.4404;2.7675;
962.7000;0.4420;2.7649;
963.0000;0.4387;2.7543;
963.3000;0.4379;2.7543;
963.6000;0.4387;2.7622;
963.9000;0.4404;2.7728;
964.2000;0.4371;2.7675;
964.5000;0.4379;2.7754;
964.8000;0.4412;2.7860;
965.1000;0.4387;2.7728;
965.4000;0.4379;2.7622;
965.7000;0.4363;2.7543;
966.0000;0.4371;2.7649;
966.3000;0.4387;2.7807;
966.6000;0.4371;2.7807;
966.9000;0.4371;2.7807;
967.2000;0.4363;2.7833;
967.5000;0.4379;2.7991;
967.8000;0.4363;2.7965;
968.1000;0.4379;2.7991;
968.4000;0.4387;2.7939;
968.7000;0.4387;2.7965;
969.0000;0.4387;2.8071;
969.3000;0.4379;2.8097;
969.6000;0.4387;2.8097;
969.9000;0.4404;2.8044;
970.2000;0.4379;2.8018;
970.5000;0.4396;2.8071;
970.8000;0.4453;2.8150;
971.1000;0.4404;2.7939;
971.4000;0.4387;2.7860;
971.7000;0.4420;2.7886;
972.0000;0.4396;2.7833;
972.3000;0.4396;2.7701;
972.6000;0.4396;2.7675;
972.9000;0.4387;2.7596;
973.2000;0.4387;2.7569;
973.5000;0.4371;2.7490;
973.8000;0.4444;2.7596;
974.1000;0.4387;2.7543;
974.4000;0.4387;2.7543;
974.7000;0.4379;2.7649;
975.0000;0.4379;2.7675;
975.3000;0.4396;2.7675;
975.6000;0.4420;2.7701;
975.9000;0.4404;2.7622;
976.2000;0.4428;2.7780;
976.5000;0.4396;2.7701;
976.8000;0.4387;2.7596;
977.1000;0.4371;2.7490;
977.4000;0.4412;2.7622;
977.7000;0.4379;2.7490;
978.0000;0.4379;2.7517;
978.3000;0.4412;2.7675;
978.6000;0.4396;2.7675;
978.9000;0.4339;2.7490;
979.2000;0.4428;2.7728;
979.5000;0.4396;2.7622;
979.8000;0.4387;2.7596;
980.1000;0.4420;2.7622;
980.4000;0.4436;2.7649;
980.7000;0.4396;2.7543;
981.0000;0.4363;2.7569;
981.3000;0.4412;2.7754;
981.6000;0.4387;2.7675;
981.9000;0.4379;2.7569;
982.2000;0.4379;2.7569;
982.5000;0.4396;2.7675;
982.8000;0.4396;2.7728;
983.1000;0.4404;2.7701;
983.4000;0.4428;2.7912;
983.7000;0.4371;2.7754;
984.0000;0.4379;2.7833;
984.3000;0.4379;2.7860;
984.6000;0.4274;2.7596;
984.9000;0.4387;2.7833;
985.2000;0.4396;2.7912;
985.5000;0.4396;2.8018;
985.8000;0.4379;2.8044;
986.1000;0.4379;2.8123;
986.4000;0.4371;2.8150;
986.7000;0.4371;2.8229;
987.0000;0.4371;2.8229;
987.3000;0.4314;2.8097;
987.6000;0.4379;2.8229;
987.9000;0.4371;2.8176;
988.2000;0.4379;2.8176;
988.5000;0.4387;2.8229;
988.8000;0.4412;2.8229;
989.1000;0.4387;2.8150;
989.4000;0.4379;2.8123;
989.7000;0.4387;2.8123;
990.0000;0.4396;2.8203;
990.3000;0.4371;2.8123;
990.6000;0.4379;2.8097;
990.9000;0.4387;2.8071;
991.2000;0.4387;2.8123;
991.5000;0.4371;2.8123;
991.8000;0.4387;2.8123;
992.1000;0.4387;2.8097;
992.4000;0.4396;2.8018;
992.7000;0.4396;2.7965;
993.0000;0.4412;2.8018;
993.3000;0.4412;2.7939;
993.6000;0.4396;2.7860;
993.9000;0.4396;2.7754;
994.2000;0.4396;2.7649;
994.5000;0.4420;2.7675;
994.8000;0.4420;2.7780;
995.1000;0.4404;2.7649;
995.4000;0.4404;2.7754;
995.7000;0.4396;2.7780;
996.0000;0.4379;2.7701;
996.3000;0.4396;2.7701;
996.6000;0.4404;2.7754;
996.9000;0.4420;2.7860;
997.2000;0.4404;2.7807;
997.5000;0.4396;2.7675;
997.8000;0.4396;2.7701;
998.1000;0.4412;2.7728;
998.4000;0.4396;2.7649;
998.7000;0.4412;2.7701;
999.0000;0.4371;2.7701;
999.3000;0.4396;2.7780;
999.6000;0.4412;2.7833;
999.9000;0.4412;2.7886;
1000.2000;0.4396;2.7807;
1000.5000;0.4396;2.7780;
1000.8000;0.4412;2.7860;
1001.1000;0.4387;2.7754;
1001.4000;0.4387;2.7701;
1001.7000;0.4404;2.7754;
1002.0000;0.4404;2.7912;
1002.3000;0.4379;2.7807;
1002.6000;0.4379;2.7886;
1002.9000;0.4379;2.7965;
1003.2000;0.4371;2.7991;
1003.5000;0.4387;2.8044;
1003.8000;0.4387;2.8097;
1004.1000;0.4420;2.8229;
1004.4000;0.4379;2.8044;
1004.7000;0.4379;2.8044;
1005.0000;0.4387;2.8123;
1005.3000;0.4339;2.7991;
1005.6000;0.4371;2.8176;
1005.9000;0.4387;2.8229;
1006.2000;0.4428;2.8361;
1006.5000;0.4387;2.8255;
1006.8000;0.4379;2.8203;
1007.1000;0.4379;2.8150;
1007.4000;0.4379;2.8229;
1007.7000;0.4444;2.8440;
1008.0000;0.4379;2.8229;
1008.3000;0.4453;2.8282;
1008.6000;0.4387;2.8044;
1008.9000;0.4379;2.8097;
1009.2000;0.4371;2.8097;
1009.5000;0.4387;2.8176;
1009.8000;0.4387;2.8150;
1010.1000;0.4379;2.8176;
1010.4000;0.4355;2.8044;
1010.7000;0.4404;2.8123;
1011.0000;0.4404;2.8097;
1011.3000;0.4428;2.8123;
1011.6000;0.4379;2.7939;
1011.9000;0.4396;2.7886;
1012.2000;0.4339;2.7675;
1012.5000;0.4412;2.7833;
1012.8000;0.4379;2.7780;
1013.1000;0.4396;2.7939;
1013.4000;0.4396;2.7912;
1013.7000;0.4355;2.7833;
1014.0000;0.4387;2.7939;
1014.3000;0.4477;2.8203;
1014.6000;0.4396;2.7965;
1014.9000;0.4412;2.7912;
1015.2000;0.4396;2.7886;
1015.5000;0.4396;2.7912;
1015.8000;0.4396;2.7886;
1016.1000;0.4396;2.7912;
1016.4000;0.4387;2.7754;
1016.7000;0.4322;2.7517;
1017.0000;0.4379;2.7649;
1017.3000;0.4404;2.7754;
1017.6000;0.4453;2.7886;
1017.9000;0.4387;2.7701;
1018.2000;0.4404;2.7833;
1018.5000;0.4396;2.7833;
1018.8000;0.4404;2.7912;
1019.1000;0.4396;2.8018;
1019.4000;0.4396;2.8018;
1019.7000;0.4420;2.8071;
1020.0000;0.4396;2.7886;
1020.3000;0.4396;2.7754;
1020.6000;0.4371;2.7780;
1020.9000;0.4387;2.7780;
1021.2000;0.4404;2.7886;
1021.5000;0.4363;2.7780;
1021.8000;0.4396;2.7886;
1022.1000;0.4396;2.7886;
1022.4000;0.4396;2.8044;
1022.7000;0.4387;2.8071;
1023.0000;0.4387;2.8071;
1023.3000;0.4387;2.8097;
1023.6000;0.4387;2.8150;
1023.9000;0.4387;2.8150;
1024.2000;0.4387;2.8150;
1024.5000;0.4396;2.8150;
1024.8000;0.4436;2.8334;
1025.1000;0.4387;2.8308;
1025.4000;0.4387;2.8361;
1025.7000;0.4379;2.8334;
1026.0000;0.4387;2.8282;
1026.3000;0.4379;2.8255;
1026.6000;0.4387;2.8334;
1026.9000;0.4379;2.8282;
1027.2000;0.4355;2.8097;
1027.5000;0.4387;2.8255;
1027.8000;0.4249;2.7886;
1028.1000;0.4501;2.8519;
1028.4000;0.4379;2.8229;
1028.7000;0.4387;2.8229;
1029.0000;0.4387;2.8203;
1029.3000;0.4461;2.8414;
1029.6000;0.4379;2.8176;
1029.9000;0.4363;2.8097;
1030.2000;0.4371;2.8123;
1030.5000;0.4379;2.8150;
1030.8000;0.4387;2.8229;
1031.1000;0.4379;2.8229;
1031.4000;0.4404;2.8176;
1031.7000;0.4404;2.8203;
1032.0000;0.4396;2.8203;
1032.3000;0.4347;2.8018;
1032.6000;0.4363;2.8018;
1032.9000;0.4387;2.8097;
1033.2000;0.4322;2.7886;
1033.5000;0.4339;2.7860;
1033.8000;0.4363;2.7886;
1034.1000;0.4363;2.7912;
1034.4000;0.4396;2.7939;
1034.7000;0.4396;2.7886;
1035.0000;0.4404;2.7939;
1035.3000;0.4453;2.8123;
1035.6000;0.4404;2.8018;
1035.9000;0.4404;2.8123;
1036.2000;0.4461;2.8361;
1036.5000;0.4363;2.8018;
1036.8000;0.4396;2.8071;
1037.1000;0.4387;2.8018;
1037.4000;0.4387;2.7939;
1037.7000;0.4404;2.7991;
1038.0000;0.4404;2.7965;
1038.3000;0.4396;2.7939;
1038.6000;0.4387;2.7860;
1038.9000;0.4387;2.7939;
1039.2000;0.4396;2.7912;
1039.5000;0.4396;2.7912;
1039.8000;0.4379;2.7965;
1040.1000;0.4396;2.8044;
1040.4000;0.4404;2.8018;
1040.7000;0.4396;2.7991;
1041.0000;0.4379;2.8044;
1041.3000;0.4387;2.8097;
1041.6000;0.4396;2.8203;
1041.9000;0.4396;2.8282;
1042.2000;0.4387;2.8229;
1042.5000;0.4379;2.8282;
1042.8000;0.4396;2.8361;
1043.1000;0.4420;2.8414;
1043.4000;0.4379;2.8203;
1043.7000;0.4387;2.8308;
1044.0000;0.4444;2.8440;
1044.3000;0.4404;2.8255;
1044.6000;0.4371;2.8282;
1044.9000;0.4363;2.8229;
1045.2000;0.4257;2.7886;
1045.5000;0.4379;2.8229;
1045.8000;0.4387;2.8255;
1046.1000;0.4322;2.8071;
1046.4000;0.4387;2.8308;
1046.7000;0.4249;2.8018;
1047.0000;0.4363;2.8414;
1047.3000;0.4396;2.8466;
1047.6000;0.4501;2.8862;
1047.9000;0.4363;2.8519;
1048.2000;0.4396;2.8572;
1048.5000;0.4298;2.8282;
1048.8000;0.4363;2.8598;
1049.1000;0.4387;2.8625;
1049.4000;0.4339;2.8493;
1049.7000;0.4379;2.8572;
1050.0000;0.4363;2.8440;
1050.3000;0.4371;2.8308;
1050.6000;0.4371;2.8203;
1050.9000;0.4347;2.8176;
1051.2000;0.4396;2.8282;
1051.5000;0.4404;2.8282;
1051.8000;0.4396;2.8308;
1052.1000;0.4396;2.8255;
1052.4000;0.4379;2.8176;
1052.7000;0.4339;2.8071;
1053.0000;0.4379;2.8176;
1053.3000;0.4453;2.8387;
1053.6000;0.4379;2.8176;
1053.9000;0.4330;2.8123;
1054.2000;0.4330;2.8097;
1054.5000;0.4379;2.8255;
1054.8000;0.4387;2.8176;
1055.1000;0.4379;2.8123;
1055.4000;0.4387;2.8229;
1055.7000;0.4404;2.8308;
1056.0000;0.4387;2.8229;
1056.3000;0.4404;2.8282;
1056.6000;0.4379;2.8150;
1056.9000;0.4396;2.8203;
1057.2000;0.4396;2.8097;
1057.5000;0.4404;2.8044;
1057.8000;0.4379;2.7939;
1058.1000;0.4371;2.7833;
1058.4000;0.4396;2.7886;
1058.7000;0.4379;2.7912;
1059.0000;0.4387;2.7939;
1059.3000;0.4412;2.7991;
1059.6000;0.4387;2.7860;
1059.9000;0.4404;2.7833;
1060.2000;0.4387;2.7860;
1060.5000;0.4404;2.7965;
1060.8000;0.4404;2.7965;
1061.1000;0.4404;2.7860;
1061.4000;0.4396;2.7912;
1061.7000;0.4379;2.7886;
1062.0000;0.4396;2.7939;
1062.3000;0.4379;2.7833;
1062.6000;0.4387;2.7886;
1062.9000;0.4396;2.7860;
1063.2000;0.4396;2.7991;
1063.5000;0.4396;2.8018;
1063.8000;0.4330;2.7833;
1064.1000;0.4387;2.8071;
1064.4000;0.4363;2.7991;
1064.7000;0.4387;2.8176;
1065.0000;0.4379;2.8255;
1065.3000;0.4371;2.8308;
1065.6000;0.4290;2.8123;
1065.9000;0.4355;2.8361;
1066.2000;0.4396;2.8387;
1066.5000;0.4371;2.8334;
1066.8000;0.4379;2.8387;
1067.1000;0.4387;2.8387;
1067.4000;0.4363;2.8361;
1067.7000;0.4387;2.8466;
1068.0000;0.4387;2.8519;
1068.3000;0.4355;2.8466;
1068.6000;0.4396;2.8493;
1068.9000;0.4371;2.8466;
1069.2000;0.4363;2.8361;
1069.5000;0.4363;2.8308;
1069.8000;0.4396;2.8255;
1070.1000;0.4371;2.8071;
1070.4000;0.4371;2.8044;
1070.7000;0.4404;2.8071;
1071.0000;0.4363;2.7912;
1071.3000;0.4355;2.7860;
1071.6000;0.4453;2.8018;
1071.9000;0.4387;2.7912;
1072.2000;0.4371;2.7886;
1072.5000;0.4396;2.7939;
1072.8000;0.4387;2.7912;
1073.1000;0.4387;2.7833;
1073.4000;0.4396;2.7886;
1073.7000;0.4387;2.7860;
1074.0000;0.4396;2.7912;
1074.3000;0.4387;2.7886;
1074.6000;0.4387;2.7991;
1074.9000;0.4461;2.8176;
1075.2000;0.4363;2.7886;
1075.5000;0.4387;2.7991;
1075.8000;0.4396;2.8071;
1076.1000;0.4387;2.7991;
1076.4000;0.4469;2.8176;
1076.7000;0.4387;2.8071;
1077.0000;0.4355;2.7965;
1077.3000;0.4404;2.8044;
1077.6000;0.4396;2.8097;
1077.9000;0.4436;2.8176;
1078.2000;0.4265;2.7596;
1078.5000;0.4379;2.7886;
1078.8000;0.4396;2.7965;
1079.1000;0.4396;2.7860;
1079.4000;0.4404;2.7833;
1079.7000;0.4387;2.7780;
1080.0000;0.4412;2.7833;
1080.3000;0.4412;2.7780;
1080.6000;0.4396;2.7780;
1080.9000;0.4396;2.7833;
1081.2000;0.4428;2.7939;
1081.5000;0.4404;2.7939;
1081.8000;0.4387;2.7939;
1082.1000;0.4396;2.7965;
1082.4000;0.4396;2.8018;
1082.7000;0.4420;2.8018;
1083.0000;0.4387;2.7965;
1083.3000;0.4379;2.8018;
1083.6000;0.4363;2.7991;
1083.9000;0.4412;2.8018;
1084.2000;0.4363;2.7860;
1084.5000;0.4379;2.7965;
1084.8000;0.4396;2.7965;
1085.1000;0.4379;2.8018;
1085.4000;0.4371;2.8044;
1085.7000;0.4371;2.8097;
1086.0000;0.4371;2.8071;
1086.3000;0.4371;2.8071;
1086.6000;0.4371;2.8018;
1086.9000;0.4330;2.7807;
1087.2000;0.4371;2.7939;
1087.5000;0.4396;2.8044;
1087.8000;0.4461;2.8282;
1088.1000;0.4339;2.8044;
1088.4000;0.4387;2.8123;
1088.7000;0.4363;2.8123;
1089.0000;0.4420;2.8308;
1089.3000;0.4363;2.8123;
1089.6000;0.4371;2.8176;
1089.9000;0.4363;2.8282;
1090.2000;0.4379;2.8440;
1090.5000;0.4371;2.8387;
1090.8000;0.4371;2.8255;
1091.1000;0.4396;2.8176;
1091.4000;0.4379;2.8097;
1091.7000;0.4387;2.8071;
1092.0000;0.4387;2.8097;
1092.3000;0.4379;2.7991;
1092.6000;0.4387;2.7912;
1092.9000;0.4404;2.7886;
1093.2000;0.4355;2.7675;
1093.5000;0.4387;2.7728;
1093.8000;0.4387;2.7701;
1094.1000;0.4387;2.7701;
1094.4000;0.4387;2.7649;
1094.7000;0.4363;2.7675;
1095.0000;0.4461;2.8018;
1095.3000;0.4404;2.7807;
1095.6000;0.4396;2.7780;
1095.9000;0.4387;2.7886;
1096.2000;0.4396;2.7912;
1096.5000;0.4396;2.7912;
1096.8000;0.4387;2.7939;
1097.1000;0.4396;2.7886;
1097.4000;0.4387;2.7860;
1097.7000;0.4396;2.7807;
1098.0000;0.4387;2.7780;
1098.3000;0.4436;2.7860;
1098.6000;0.4420;2.7860;
1098.9000;0.4387;2.7780;
1099.2000;0.4396;2.7780;
1099.5000;0.4420;2.7833;
1099.8000;0.4379;2.7780;
1100.1000;0.4396;2.7780;
1100.4000;0.4347;2.7701;
1100.7000;0.4404;2.7728;
1101.0000;0.4387;2.7833;
1101.3000;0.4387;2.7833;
1101.6000;0.4387;2.7860;
1101.9000;0.4387;2.7939;
1102.2000;0.4469;2.8203;
1102.5000;0.4363;2.7912;
1102.8000;0.4396;2.7991;
1103.1000;0.4379;2.7991;
1103.4000;0.4363;2.7912;
1103.7000;0.4379;2.7991;
1104.0000;0.4387;2.8150;
1104.3000;0.4404;2.8150;
1104.6000;0.4379;2.8071;
1104.9000;0.4379;2.8018;
1105.2000;0.4412;2.8018;
1105.5000;0.4355;2.7991;
1105.8000;0.4387;2.8071;
1106.1000;0.4379;2.8123;
1106.4000;0.4371;2.8097;
1106.7000;0.4355;2.8097;
1107.0000;0.4379;2.8123;
1107.3000;0.4379;2.8203;
1107.6000;0.4363;2.8176;
1107.9000;0.4371;2.8203;
1108.2000;0.4371;2.8150;
1108.5000;0.4379;2.8018;
1108.8000;0.4379;2.8044;
1109.1000;0.4371;2.7886;
1109.4000;0.4379;2.7912;
1109.7000;0.4371;2.7991;
1110.0000;0.4371;2.8018;
1110.3000;0.4404;2.8071;
1110.6000;0.4363;2.7991;
1110.9000;0.4306;2.7780;
1111.2000;0.4379;2.7807;
1111.5000;0.4387;2.7807;
1111.8000;0.4355;2.7728;
1112.1000;0.4379;2.7780;
1112.4000;0.4387;2.7780;
1112.7000;0.4339;2.7596;
1113.0000;0.4379;2.7728;
1113.3000;0.4371;2.7728;
1113.6000;0.4387;2.7860;
1113.9000;0.4396;2.7833;
1114.2000;0.4379;2.7780;
1114.5000;0.4420;2.7965;
1114.8000;0.4396;2.7939;
1115.1000;0.4387;2.7991;
1115.4000;0.4379;2.7939;
1115.7000;0.4396;2.7807;
1116.0000;0.4371;2.7675;
1116.3000;0.4396;2.7701;
1116.6000;0.4420;2.7675;
1116.9000;0.4396;2.7754;
1117.2000;0.4387;2.7780;
1117.5000;0.4404;2.7833;
1117.8000;0.4387;2.7833;
1118.1000;0.4379;2.7833;
1118.4000;0.4396;2.7833;
1118.7000;0.4404;2.7860;
1119.0000;0.4387;2.7886;
1119.3000;0.4404;2.7939;
1119.6000;0.4396;2.7991;
1119.9000;0.4396;2.8018;
1120.2000;0.4396;2.7965;
1120.5000;0.4387;2.7886;
1120.8000;0.4387;2.7807;
1121.1000;0.4387;2.7675;
1121.4000;0.4387;2.7649;
1121.7000;0.4396;2.7701;
1122.0000;0.4453;2.8018;
1122.3000;0.4379;2.7833;
1122.6000;0.4396;2.7939;
1122.9000;0.4396;2.8018;
1123.2000;0.4396;2.8123;
1123.5000;0.4387;2.8123;
1123.8000;0.4379;2.8123;
1124.1000;0.4404;2.8097;
1124.4000;0.4347;2.8044;
1124.7000;0.4371;2.8071;
1125.0000;0.4379;2.7991;
1125.3000;0.4363;2.8044;
1125.6000;0.4363;2.8018;
1125.9000;0.4461;2.8334;
1126.2000;0.4396;2.8229;
1126.5000;0.4298;2.7991;
1126.8000;0.4371;2.8176;
1127.1000;0.4355;2.8203;
1127.4000;0.4347;2.8203;
1127.7000;0.4379;2.8255;
1128.0000;0.4371;2.8308;
1128.3000;0.4412;2.8440;
1128.6000;0.4363;2.8282;
1128.9000;0.4396;2.8255;
1129.2000;0.4379;2.8255;
1129.5000;0.4387;2.8176;
1129.8000;0.4387;2.8123;
1130.1000;0.4379;2.8097;
1130.4000;0.4379;2.8018;
1130.7000;0.4371;2.7965;
1131.0000;0.4396;2.8018;
1131.3000;0.4379;2.8044;
1131.6000;0.4371;2.7965;
1131.9000;0.4355;2.7833;
1132.2000;0.4396;2.7886;
1132.5000;0.4379;2.7886;
1132.8000;0.4379;2.7860;
1133.1000;0.4404;2.7860;
1133.4000;0.4363;2.7728;
1133.7000;0.4379;2.7807;
1134.0000;0.4379;2.7728;
1134.3000;0.4396;2.7728;
1134.6000;0.4379;2.7754;
1134.9000;0.4379;2.7728;
1135.2000;0.4379;2.7649;
1135.5000;0.4306;2.7464;
1135.8000;0.4396;2.7675;
1136.1000;0.4363;2.7675;
1136.4000;0.4387;2.7728;
1136.7000;0.4371;2.7675;
1137.0000;0.4330;2.7517;
1137.3000;0.4396;2.7622;
1137.6000;0.4396;2.7622;
1137.9000;0.4363;2.7649;
1138.2000;0.4396;2.7807;
1138.5000;0.4396;2.7833;
1138.8000;0.4420;2.7860;
1139.1000;0.4387;2.7701;
1139.4000;0.4396;2.7701;
1139.7000;0.4436;2.7807;
1140.0000;0.4396;2.7754;
1140.3000;0.4396;2.7780;
1140.6000;0.4371;2.7807;
1140.9000;0.4363;2.7754;
1141.2000;0.4387;2.7754;
1141.5000;0.4396;2.7833;
1141.8000;0.4420;2.7912;
1142.1000;0.4371;2.7939;
1142.4000;0.4379;2.7939;
1142.7000;0.4387;2.7860;
1143.0000;0.4387;2.7965;
1143.3000;0.4379;2.8044;
1143.6000;0.4387;2.8044;
1143.9000;0.4396;2.8044;
1144.2000;0.4412;2.8044;
1144.5000;0.4379;2.7939;
1144.8000;0.4379;2.8018;
1145.1000;0.4371;2.7965;
1145.4000;0.4371;2.8071;
1145.7000;0.4371;2.8044;
1146.0000;0.4396;2.8044;
1146.3000;0.4371;2.8071;
1146.6000;0.4379;2.8097;
1146.9000;0.4387;2.8150;
1147.2000;0.4363;2.8097;
1147.5000;0.4371;2.8255;
1147.8000;0.4322;2.8203;
1148.1000;0.4379;2.8334;
1148.4000;0.4379;2.8203;
1148.7000;0.4379;2.8203;
1149.0000;0.4379;2.8203;
1149.3000;0.4379;2.8176;
1149.6000;0.4387;2.8176;
1149.9000;0.4379;2.8097;
1150.2000;0.4387;2.8150;
1150.5000;0.4363;2.8018;
1150.8000;0.4371;2.8150;
1151.1000;0.4347;2.8071;
1151.4000;0.4379;2.8097;
1151.7000;0.4396;2.8097;
1152.0000;0.4379;2.8044;
1152.3000;0.4387;2.8071;
1152.6000;0.4387;2.8018;
1152.9000;0.4404;2.8044;
1153.2000;0.4265;2.7675;
1153.5000;0.4396;2.8018;
1153.8000;0.4387;2.7939;
1154.1000;0.4371;2.7860;
1154.4000;0.4387;2.7860;
1154.7000;0.4371;2.7807;
1155.0000;0.4396;2.7860;
1155.3000;0.4371;2.7807;
1155.6000;0.4387;2.7965;
1155.9000;0.4387;2.7965;
1156.2000;0.4379;2.7912;
1156.5000;0.4396;2.7939;
1156.8000;0.4387;2.7965;
1157.1000;0.4363;2.7912;
1157.4000;0.4371;2.7912;
1157.7000;0.4379;2.7939;
1158.0000;0.4404;2.7939;
1158.3000;0.4396;2.7833;
1158.6000;0.4396;2.7833;
1158.9000;0.4396;2.7780;
1159.2000;0.4404;2.7833;
1159.5000;0.4396;2.7754;
1159.8000;0.4420;2.7886;
1160.1000;0.4420;2.7886;
1160.4000;0.4461;2.8044;
1160.7000;0.4396;2.7754;
1161.0000;0.4387;2.7701;
1161.3000;0.4379;2.7701;
1161.6000;0.4387;2.7780;
1161.9000;0.4412;2.7939;
1162.2000;0.4387;2.7886;
1162.5000;0.4387;2.7807;
1162.8000;0.4371;2.7886;
1163.1000;0.4387;2.7965;
1163.4000;0.4387;2.7912;
1163.7000;0.4371;2.7965;
1164.0000;0.4371;2.8018;
1164.3000;0.4379;2.8097;
1164.6000;0.4396;2.8071;
1164.9000;0.4379;2.8150;
1165.2000;0.4477;2.8519;
1165.5000;0.4379;2.8150;
1165.8000;0.4379;2.8229;
1166.1000;0.4371;2.8255;
1166.4000;0.4404;2.8440;
1166.7000;0.4363;2.8414;
1167.0000;0.4420;2.8440;
1167.3000;0.4363;2.8361;
1167.6000;0.4396;2.8361;
1167.9000;0.4371;2.8308;
1168.2000;0.4306;2.8044;
1168.5000;0.4379;2.8071;
1168.8000;0.4485;2.8414;
1169.1000;0.4347;2.8018;
1169.4000;0.4396;2.8097;
1169.7000;0.4428;2.8203;
1170.0000;0.4379;2.8123;
1170.3000;0.4404;2.8150;
1170.6000;0.4387;2.8176;
1170.9000;0.4363;2.8097;
1171.2000;0.4493;2.8440;
1171.5000;0.4396;2.8044;
1171.8000;0.4396;2.7965;
1172.1000;0.4396;2.7965;
1172.4000;0.4396;2.7939;
1172.7000;0.4387;2.7886;
1173.0000;0.4355;2.7807;
1173.3000;0.4387;2.7807;
1173.6000;0.4355;2.7675;
1173.9000;0.4396;2.7701;
1174.2000;0.4363;2.7596;
1174.5000;0.4396;2.7675;
1174.8000;0.4379;2.7649;
1175.1000;0.4379;2.7596;
1175.4000;0.4379;2.7569;
1175.7000;0.4355;2.7517;
1176.0000;0.4387;2.7649;
1176.3000;0.4387;2.7622;
1176.6000;0.4387;2.7596;
1176.9000;0.4387;2.7754;
1177.2000;0.4396;2.7860;
1177.5000;0.4404;2.7807;
1177.8000;0.4379;2.7701;
1178.1000;0.4387;2.7780;
1178.4000;0.4396;2.7807;
1178.7000;0.4420;2.7860;
1179.0000;0.4404;2.7807;
1179.3000;0.4396;2.7780;
1179.6000;0.4412;2.7833;
1179.9000;0.4396;2.7807;
1180.2000;0.4387;2.7886;
1180.5000;0.4396;2.7912;
1180.8000;0.4396;2.7807;
1181.1000;0.4436;2.7833;
1181.4000;0.4412;2.7754;
1181.7000;0.4387;2.7754;
1182.0000;0.4379;2.7754;
1182.3000;0.4420;2.7912;
1182.6000;0.4371;2.7833;
1182.9000;0.4355;2.7754;
1183.2000;0.4363;2.7833;
1183.5000;0.4396;2.7886;
1183.8000;0.4257;2.7649;
1184.1000;0.4404;2.8018;
1184.4000;0.4387;2.7965;
1184.7000;0.4396;2.8097;
1185.0000;0.4396;2.8123;
1185.3000;0.4371;2.8071;
1185.6000;0.4363;2.8097;
1185.9000;0.4436;2.8334;
1186.2000;0.4371;2.8150;
1186.5000;0.4428;2.8308;
1186.8000;0.4363;2.8123;
1187.1000;0.4371;2.8203;
1187.4000;0.4412;2.8361;
1187.7000;0.4363;2.8150;
1188.0000;0.4396;2.8203;
1188.3000;0.4371;2.8150;
1188.6000;0.4347;2.8044;
1188.9000;0.4379;2.8176;
1189.2000;0.4371;2.8150;
1189.5000;0.4347;2.8044;
1189.8000;0.4371;2.8150;
1190.1000;0.4339;2.8044;
1190.4000;0.4420;2.8282;
1190.7000;0.4387;2.8176;
1191.0000;0.4274;2.7833;
1191.3000;0.4396;2.8229;
1191.6000;0.4379;2.8123;
1191.9000;0.4379;2.8203;
1192.2000;0.4387;2.8203;
1192.5000;0.4387;2.8282;
1192.8000;0.4461;2.8440;
1193.1000;0.4379;2.8097;
1193.4000;0.4420;2.8255;
1193.7000;0.4404;2.8176;
1194.0000;0.4477;2.8361;
1194.3000;0.4347;2.7965;
1194.6000;0.4371;2.8071;
1194.9000;0.4371;2.8044;
1195.2000;0.4444;2.8229;
1195.5000;0.4396;2.8176;
1195.8000;0.4404;2.8203;
1196.1000;0.4436;2.8282;
1196.4000;0.4387;2.8123;
1196.7000;0.4379;2.8071;
1197.0000;0.4396;2.8097;
1197.3000;0.4396;2.8071;
1197.6000;0.4428;2.8150;
1197.9000;0.4404;2.8018;
1198.2000;0.4396;2.8044;
1198.5000;0.4396;2.8097;
1198.8000;0.4371;2.8044;
1199.1000;0.4306;2.7939;
1199.4000;0.4379;2.8071;
1199.7000;0.4387;2.8123;
1200.0000;0.4404;2.8150;
1200.3000;0.4387;2.8176;
1200.6000;0.4379;2.8176;
1200.9000;0.4387;2.8203;
1201.2000;0.4387;2.8176;
1201.5000;0.4404;2.8229;
1201.8000;0.4412;2.8334;
1202.1000;0.4404;2.8308;
1202.4000;0.4396;2.8282;
1202.7000;0.4387;2.8282;
1203.0000;0.4371;2.8282;
1203.3000;0.4404;2.8519;
1203.6000;0.4371;2.8334;
1203.9000;0.4453;2.8519;
1204.2000;0.4379;2.8414;
1204.5000;0.4355;2.8387;
1204.8000;0.4387;2.8572;
1205.1000;0.4339;2.8466;
1205.4000;0.4363;2.8466;
1205.7000;0.4363;2.8546;
1206.0000;0.4363;2.8519;
1206.3000;0.4387;2.8598;
1206.6000;0.4387;2.8546;
1206.9000;0.4396;2.8598;
1207.2000;0.4379;2.8519;
1207.5000;0.4387;2.8572;
1207.8000;0.4379;2.8546;
1208.1000;0.4379;2.8440;
1208.4000;0.4371;2.8334;
1208.7000;0.4363;2.8255;
1209.0000;0.4387;2.8361;
1209.3000;0.4387;2.8414;
1209.6000;0.4363;2.8334;
1209.9000;0.4412;2.8493;
1210.2000;0.4396;2.8414;
1210.5000;0.4379;2.8282;
1210.8000;0.4363;2.8229;
1211.1000;0.4387;2.8282;
1211.4000;0.4379;2.8229;
1211.7000;0.4387;2.8176;
1212.0000;0.4396;2.8097;
1212.3000;0.4371;2.7939;
1212.6000;0.4396;2.7991;
1212.9000;0.4396;2.7939;
1213.2000;0.4355;2.7780;
1213.5000;0.4371;2.7833;
1213.8000;0.4387;2.7833;
1214.1000;0.4396;2.7939;
1214.4000;0.4396;2.7886;
1214.7000;0.4387;2.7833;
1215.0000;0.4387;2.7833;
1215.3000;0.4396;2.7886;
1215.6000;0.4404;2.7991;
1215.9000;0.4387;2.8018;
1216.2000;0.4387;2.8071;
1216.5000;0.4371;2.8018;
1216.8000;0.4420;2.8071;
1217.1000;0.4371;2.7939;
1217.4000;0.4387;2.7965;
1217.7000;0.4363;2.7991;
1218.0000;0.4404;2.8176;
1218.3000;0.4469;2.8308;
1218.6000;0.4379;2.7991;
1218.9000;0.4371;2.7991;
1219.2000;0.4363;2.7991;
1219.5000;0.4404;2.8044;
1219.8000;0.4387;2.7991;
1220.1000;0.4387;2.8018;
1220.4000;0.4396;2.8097;
1220.7000;0.4387;2.8097;
1221.0000;0.4371;2.8018;
1221.3000;0.4453;2.8282;
1221.6000;0.4355;2.8071;
1221.9000;0.4396;2.8150;
1222.2000;0.4371;2.8044;
1222.5000;0.4387;2.8071;
1222.8000;0.4404;2.8203;
1223.1000;0.4387;2.8203;
1223.4000;0.4363;2.8071;
1223.7000;0.4420;2.8255;
1224.0000;0.4339;2.8071;
1224.3000;0.4347;2.8097;
1224.6000;0.4339;2.8071;
1224.9000;0.4371;2.8097;
1225.2000;0.4355;2.8150;
1225.5000;0.4387;2.8308;
1225.8000;0.4379;2.8334;
1226.1000;0.4404;2.8466;
1226.4000;0.4412;2.8466;
1226.7000;0.4387;2.8466;
1227.0000;0.4387;2.8440;
1227.3000;0.4379;2.8440;
1227.6000;0.4371;2.8387;
1227.9000;0.4379;2.8519;
1228.2000;0.4387;2.8572;
1228.5000;0.4371;2.8493;
1228.8000;0.4371;2.8493;
1229.1000;0.4371;2.8546;
1229.4000;0.4387;2.8519;
1229.7000;0.4379;2.8414;
1230.0000;0.4347;2.8308;
1230.3000;0.4379;2.8440;
1230.6000;0.4387;2.8519;
1230.9000;0.4387;2.8493;
1231.2000;0.4404;2.8440;
1231.5000;0.4379;2.8361;
1231.8000;0.4387;2.8203;
1232.1000;0.4396;2.8203;
1232.4000;0.4387;2.8150;
1232.7000;0.4363;2.8123;
1233.0000;0.4379;2.8203;
1233.3000;0.4396;2.8203;
1233.6000;0.4396;2.8229;
1233.9000;0.4396;2.8203;
1234.2000;0.4371;2.8123;
1234.5000;0.4387;2.8150;
1234.8000;0.4363;2.8150;
1235.1000;0.4371;2.7991;
1235.4000;0.4387;2.8018;
1235.7000;0.4387;2.7991;
1236.0000;0.4428;2.8123;
1236.3000;0.4387;2.8071;
1236.6000;0.4404;2.8150;
1236.9000;0.4379;2.8123;
1237.2000;0.4387;2.8150;
1237.5000;0.4396;2.8203;
1237.8000;0.4396;2.8203;
1238.1000;0.4428;2.8308;
1238.4000;0.4387;2.8229;
1238.7000;0.4355;2.8123;
1239.0000;0.4371;2.8176;
1239.3000;0.4379;2.8229;
1239.6000;0.4371;2.8255;
1239.9000;0.4387;2.8229;
1240.2000;0.4404;2.8255;
1240.5000;0.4387;2.8044;
1240.8000;0.4379;2.8071;
1241.1000;0.4379;2.8044;
1241.4000;0.4379;2.8097;
1241.7000;0.4387;2.8150;
1242.0000;0.4379;2.8123;
1242.3000;0.4387;2.8255;
1242.6000;0.4379;2.8255;
1242.9000;0.4396;2.8229;
1243.2000;0.4404;2.8308;
1243.5000;0.4379;2.8440;
1243.8000;0.4404;2.8414;
1244.1000;0.4387;2.8387;
1244.4000;0.4379;2.8440;
1244.7000;0.4420;2.8651;
1245.0000;0.4379;2.8572;
1245.3000;0.4396;2.8651;
1245.6000;0.4371;2.8546;
1245.9000;0.4387;2.8493;
1246.2000;0.4387;2.8440;
1246.5000;0.4371;2.8493;
1246.8000;0.4379;2.8519;
1247.1000;0.4371;2.8519;
1247.4000;0.4379;2.8651;
1247.7000;0.4355;2.8651;
1248.0000;0.4371;2.8677;
1248.3000;0.4387;2.8677;
1248.6000;0.4396;2.8704;
1248.9000;0.4371;2.8572;
1249.2000;0.4379;2.8625;
1249.5000;0.4371;2.8598;
1249.8000;0.4347;2.8546;
1250.1000;0.4363;2.8519;
1250.4000;0.4379;2.8493;
1250.7000;0.4322;2.8282;
1251.0000;0.4387;2.8440;
1251.3000;0.4371;2.8414;
1251.6000;0.4306;2.8150;
1251.9000;0.4371;2.8255;
1252.2000;0.4379;2.8255;
1252.5000;0.4404;2.8255;
1252.8000;0.4396;2.8229;
1253.1000;0.4404;2.8308;
1253.4000;0.4387;2.8282;
1253.7000;0.4396;2.8308;
1254.0000;0.4453;2.8387;
1254.3000;0.4379;2.8176;
1254.6000;0.4363;2.8150;
1254.9000;0.4404;2.8255;
1255.2000;0.4404;2.8361;
1255.5000;0.4379;2.8255;
1255.8000;0.4371;2.8255;
1256.1000;0.4396;2.8308;
1256.4000;0.4396;2.8308;
1256.7000;0.4379;2.8229;
1257.0000;0.4387;2.8229;
1257.3000;0.4387;2.8176;
1257.6000;0.4387;2.8203;
1257.9000;0.4396;2.8150;
1258.2000;0.4387;2.8044;
1258.5000;0.4314;2.7860;
1258.8000;0.4428;2.8229;
1259.1000;0.4412;2.8097;
1259.4000;0.4379;2.8097;
1259.7000;0.4347;2.8044;
1260.0000;0.4347;2.8071;
1260.3000;0.4314;2.7965;
1260.6000;0.4387;2.8203;
1260.9000;0.4396;2.8334;
1261.2000;0.4387;2.8334;
1261.5000;0.4347;2.8203;
1261.8000;0.4379;2.8387;
1262.1000;0.4428;2.8546;
1262.4000;0.4387;2.8493;
1262.7000;0.4469;2.8783;
1263.0000;0.4379;2.8519;
1263.3000;0.4428;2.8677;
1263.6000;0.4379;2.8493;
1263.9000;0.4387;2.8546;
1264.2000;0.4396;2.8572;
1264.5000;0.4355;2.8572;
1264.8000;0.4387;2.8757;
1265.1000;0.4379;2.8783;
1265.4000;0.4379;2.8783;
1265.7000;0.4371;2.8783;
1266.0000;0.4420;2.8888;
1266.3000;0.4363;2.8677;
1266.6000;0.4379;2.8704;
1266.9000;0.4379;2.8677;
1267.2000;0.4371;2.8625;
1267.5000;0.4371;2.8546;
1267.8000;0.4420;2.8625;
1268.1000;0.4387;2.8440;
1268.4000;0.4339;2.8361;
1268.7000;0.4387;2.8493;
1269.0000;0.4387;2.8440;
1269.3000;0.4396;2.8334;
1269.6000;0.4379;2.8282;
1269.9000;0.4371;2.8282;
1270.2000;0.4379;2.8414;
1270.5000;0.4355;2.8334;
1270.8000;0.4396;2.8440;
1271.1000;0.4387;2.8546;
1271.4000;0.4396;2.8493;
1271.7000;0.4396;2.8493;
1272.0000;0.4379;2.8440;
1272.3000;0.4387;2.8466;
1272.6000;0.4387;2.8414;
1272.9000;0.4379;2.8282;
1273.2000;0.4387;2.8229;
1273.5000;0.4404;2.8176;
1273.8000;0.4379;2.8176;
1274.1000;0.4396;2.8176;
1274.4000;0.4412;2.8097;
1274.7000;0.4477;2.8387;
1275.0000;0.4444;2.8176;
1275.3000;0.4387;2.8071;
1275.6000;0.4428;2.8176;
1275.9000;0.4379;2.7991;
1276.2000;0.4387;2.7991;
1276.5000;0.4387;2.7965;
1276.8000;0.4347;2.7886;
1277.1000;0.4396;2.8097;
1277.4000;0.4387;2.8123;
1277.7000;0.4379;2.8123;
1278.0000;0.4387;2.8203;
1278.3000;0.4404;2.8334;
1278.6000;0.4387;2.8308;
1278.9000;0.4396;2.8334;
1279.2000;0.4404;2.8387;
1279.5000;0.4485;2.8598;
1279.8000;0.4371;2.8387;
1280.1000;0.4396;2.8334;
1280.4000;0.4404;2.8414;
1280.7000;0.4379;2.8440;
1281.0000;0.4396;2.8308;
1281.3000;0.4387;2.8361;
1281.6000;0.4387;2.8334;
1281.9000;0.4396;2.8282;
1282.2000;0.4396;2.8229;
1282.5000;0.4387;2.8229;
1282.8000;0.4355;2.8203;
1283.1000;0.4428;2.8440;
1283.4000;0.4412;2.8440;
1283.7000;0.4396;2.8466;
1284.0000;0.4379;2.8414;
1284.3000;0.4396;2.8572;
1284.6000;0.4363;2.8598;
1284.9000;0.4347;2.8598;
1285.2000;0.4379;2.8677;
1285.5000;0.4387;2.8598;
1285.8000;0.4379;2.8546;
1286.1000;0.4330;2.8361;
1286.4000;0.4355;2.8493;
1286.7000;0.4371;2.8466;
1287.0000;0.4363;2.8440;
1287.3000;0.4379;2.8466;
1287.6000;0.4420;2.8466;
1287.9000;0.4371;2.8440;
1288.2000;0.4387;2.8546;
1288.5000;0.4404;2.8519;
1288.8000;0.4396;2.8493;
1289.1000;0.4363;2.8334;
1289.4000;0.4347;2.8282;
1289.7000;0.4396;2.8519;
1290.0000;0.4379;2.8546;
1290.3000;0.4396;2.8493;
1290.6000;0.4379;2.8466;
1290.9000;0.4387;2.8414;
1291.2000;0.4330;2.8203;
1291.5000;0.4363;2.8255;
1291.8000;0.4339;2.8123;
1292.1000;0.4379;2.8123;
1292.4000;0.4412;2.8229;
1292.7000;0.4379;2.8071;
1293.0000;0.4387;2.8018;
1293.3000;0.4404;2.8071;
1293.6000;0.4412;2.8203;
1293.9000;0.4355;2.8071;
1294.2000;0.4363;2.8123;
1294.5000;0.4387;2.8282;
1294.8000;0.4396;2.8308;
1295.1000;0.4396;2.8308;
1295.4000;0.4420;2.8308;
1295.7000;0.4371;2.8229;
1296.0000;0.4412;2.8229;
1296.3000;0.4404;2.8150;
1296.6000;0.4387;2.8071;
1296.9000;0.4420;2.8044;
1297.2000;0.4387;2.7991;
1297.5000;0.4396;2.8123;
1297.8000;0.4387;2.8150;
1298.1000;0.4371;2.8071;
1298.4000;0.4379;2.8123;
1298.7000;0.4387;2.8123;
1299.0000;0.4379;2.8071;
1299.3000;0.4396;2.8097;
1299.6000;0.4371;2.8097;
1299.9000;0.4282;2.7886;
1300.2000;0.4404;2.8150;
1300.5000;0.4404;2.8176;
1300.8000;0.4404;2.8150;
1301.1000;0.4420;2.8229;
1301.4000;0.4396;2.8176;
1301.7000;0.4501;2.8546;
1302.0000;0.4404;2.8203;
1302.3000;0.4396;2.8255;
1302.6000;0.4387;2.8203;
1302.9000;0.4396;2.8334;
1303.2000;0.4379;2.8255;
1303.5000;0.4412;2.8440;
1303.8000;0.4387;2.8361;
1304.1000;0.4387;2.8282;
1304.4000;0.4379;2.8176;
1304.7000;0.4379;2.8255;
1305.0000;0.4379;2.8334;
1305.3000;0.4396;2.8414;
1305.6000;0.4363;2.8282;
1305.9000;0.4379;2.8229;
1306.2000;0.4379;2.8361;
1306.5000;0.4322;2.8255;
1306.8000;0.4347;2.8229;
1307.1000;0.4436;2.8519;
1307.4000;0.4379;2.8387;
1307.7000;0.4355;2.8203;
1308.0000;0.4314;2.8097;
1308.3000;0.4379;2.8255;
1308.6000;0.4371;2.8282;
1308.9000;0.4379;2.8361;
1309.2000;0.4371;2.8361;
1309.5000;0.4355;2.8361;
1309.8000;0.4387;2.8387;
1310.1000;0.4363;2.8361;
1310.4000;0.4387;2.8361;
1310.7000;0.4257;2.8018;
1311.0000;0.4387;2.8361;
1311.3000;0.4371;2.8308;
1311.6000;0.4412;2.8387;
1311.9000;0.4371;2.8255;
1312.2000;0.4371;2.8203;
1312.5000;0.4363;2.8203;
1312.8000;0.4396;2.8176;
1313.1000;0.4396;2.8229;
1313.4000;0.4396;2.8203;
1313.7000;0.4396;2.8150;
1314.0000;0.4412;2.8176;
1314.3000;0.4347;2.8071;
1314.6000;0.4379;2.8097;
1314.9000;0.4404;2.8229;
1315.2000;0.4404;2.8255;
1315.5000;0.4379;2.8176;
1315.8000;0.4379;2.8176;
1316.1000;0.4330;2.8150;
1316.4000;0.4387;2.8282;
1316.7000;0.4420;2.8308;
1317.0000;0.4387;2.8176;
1317.3000;0.4412;2.8282;
1317.6000;0.4379;2.8203;
1317.9000;0.4404;2.8229;
1318.2000;0.4396;2.8097;
1318.5000;0.4379;2.8097;
1318.8000;0.4396;2.8255;
1319.1000;0.4396;2.8203;
1319.4000;0.4396;2.8097;
1319.7000;0.4412;2.8282;
1320.0000;0.4412;2.8282;
1320.3000;0.4404;2.8255;
1320.6000;0.4396;2.8282;
1320.9000;0.4404;2.8229;
1321.2000;0.4371;2.8097;
1321.5000;0.4363;2.8018;
1321.8000;0.4387;2.8150;
1322.1000;0.4379;2.8123;
1322.4000;0.4379;2.8176;
1322.7000;0.4396;2.8176;
1323.0000;0.4428;2.8308;
1323.3000;0.4396;2.8123;
1323.6000;0.4379;2.8229;
1323.9000;0.4355;2.8229;
1324.2000;0.4379;2.8255;
1324.5000;0.4363;2.8176;
1324.8000;0.4379;2.8361;
1325.1000;0.4363;2.8361;
1325.4000;0.4428;2.8466;
1325.7000;0.4379;2.8440;
1326.0000;0.4379;2.8414;
1326.3000;0.4371;2.8440;
1326.6000;0.4379;2.8466;
1326.9000;0.4371;2.8519;
1327.2000;0.4363;2.8572;
1327.5000;0.4371;2.8704;
1327.8000;0.4379;2.8730;
1328.1000;0.4379;2.8757;
1328.4000;0.4363;2.8677;
1328.7000;0.4436;2.8862;
1329.0000;0.4371;2.8704;
1329.3000;0.4379;2.8572;
1329.6000;0.4371;2.8493;
1329.9000;0.4355;2.8440;
1330.2000;0.4290;2.8150;
1330.5000;0.4379;2.8308;
1330.8000;0.4396;2.8308;
1331.1000;0.4379;2.8361;
1331.4000;0.4396;2.8361;
1331.7000;0.4387;2.8334;
1332.0000;0.4371;2.8255;
1332.3000;0.4379;2.8282;
1332.6000;0.4379;2.8203;
1332.9000;0.4396;2.8097;
1333.2000;0.4412;2.8018;
1333.5000;0.4387;2.7965;
1333.8000;0.4404;2.8097;
1334.1000;0.4387;2.8097;
1334.4000;0.4404;2.8176;
1334.7000;0.4428;2.8229;
1335.0000;0.4379;2.8018;
1335.3000;0.4387;2.8018;
1335.6000;0.4347;2.7912;
1335.9000;0.4396;2.8071;
1336.2000;0.4396;2.8097;
1336.5000;0.4371;2.8018;
1336.8000;0.4379;2.8097;
1337.1000;0.4428;2.8282;
1337.4000;0.4387;2.8203;
1337.7000;0.4371;2.8229;
1338.0000;0.4404;2.8255;
1338.3000;0.4387;2.8150;
1338.6000;0.4379;2.8097;
1338.9000;0.4387;2.8150;
1339.2000;0.4306;2.7912;
1339.5000;0.4387;2.8203;
1339.8000;0.4420;2.8414;
1340.1000;0.4404;2.8334;
1340.4000;0.4396;2.8361;
1340.7000;0.4404;2.8334;
1341.0000;0.4396;2.8334;
1341.3000;0.4404;2.8282;
1341.6000;0.4387;2.8282;
1341.9000;0.4387;2.8255;
1342.2000;0.4355;2.8150;
1342.5000;0.4387;2.8229;
1342.8000;0.4363;2.8176;
1343.1000;0.4363;2.8176;
1343.4000;0.4371;2.8229;
1343.7000;0.4387;2.8361;
1344.0000;0.4339;2.8308;
1344.3000;0.4379;2.8334;
1344.6000;0.4379;2.8466;
1344.9000;0.4379;2.8493;
1345.2000;0.4371;2.8493;
1345.5000;0.4387;2.8414;
1345.8000;0.4387;2.8387;
1346.1000;0.4347;2.8282;
1346.4000;0.4396;2.8387;
1346.7000;0.4379;2.8308;
1347.0000;0.4363;2.8282;
1347.3000;0.4290;2.8150;
1347.6000;0.4363;2.8361;
1347.9000;0.4371;2.8308;
1348.2000;0.4387;2.8334;
1348.5000;0.4387;2.8334;
1348.8000;0.4363;2.8282;
1349.1000;0.4379;2.8334;
1349.4000;0.4387;2.8387;
1349.7000;0.4379;2.8466;
1350.0000;0.4444;2.8651;
1350.3000;0.4371;2.8387;
1350.6000;0.4371;2.8361;
1350.9000;0.4396;2.8361;
1351.2000;0.4396;2.8387;
1351.5000;0.4396;2.8361;
1351.8000;0.4371;2.8308;
1352.1000;0.4355;2.8176;
1352.4000;0.4379;2.8203;
1352.7000;0.4387;2.8229;
1353.0000;0.4371;2.8150;
1353.3000;0.4379;2.8150;
1353.6000;0.4363;2.8123;
1353.9000;0.4379;2.8203;
1354.2000;0.4371;2.8071;
1354.5000;0.4379;2.7991;
1354.8000;0.4387;2.8044;
1355.1000;0.4379;2.7939;
1355.4000;0.4363;2.7886;
1355.7000;0.4396;2.7991;
1356.0000;0.4387;2.7939;
1356.3000;0.4420;2.8097;
1356.6000;0.4363;2.7991;
1356.9000;0.4371;2.8044;
1357.2000;0.4387;2.8071;
1357.5000;0.4404;2.8123;
1357.8000;0.4387;2.8123;
1358.1000;0.4371;2.8203;
1358.4000;0.4371;2.8150;
1358.7000;0.4371;2.8176;
1359.0000;0.4412;2.8203;
1359.3000;0.4412;2.8203;
1359.6000;0.4379;2.8123;
1359.9000;0.4501;2.8466;
1360.2000;0.4396;2.8255;
1360.5000;0.4371;2.8255;
1360.8000;0.4371;2.8229;
1361.1000;0.4396;2.8308;
1361.4000;0.4396;2.8334;
1361.7000;0.4387;2.8361;
1362.0000;0.4379;2.8361;
1362.3000;0.4420;2.8572;
1362.6000;0.4420;2.8625;
1362.9000;0.4363;2.8387;
1363.2000;0.4412;2.8440;
1363.5000;0.4379;2.8387;
1363.8000;0.4387;2.8255;
1364.1000;0.4387;2.8308;
1364.4000;0.4355;2.8176;
1364.7000;0.4387;2.8282;
1365.0000;0.4371;2.8308;
1365.3000;0.4379;2.8334;
1365.6000;0.4387;2.8387;
1365.9000;0.4379;2.8440;
1366.2000;0.4379;2.8466;
1366.5000;0.4379;2.8414;
1366.8000;0.4371;2.8387;
1367.1000;0.4339;2.8334;
1367.4000;0.4379;2.8361;
1367.7000;0.4379;2.8440;
1368.0000;0.4347;2.8466;
1368.3000;0.4396;2.8625;
1368.6000;0.4363;2.8572;
1368.9000;0.4379;2.8598;
1369.2000;0.4355;2.8546;
1369.5000;0.4363;2.8519;
1369.8000;0.4371;2.8493;
1370.1000;0.4387;2.8519;
1370.4000;0.4396;2.8440;
1370.7000;0.4379;2.8361;
1371.0000;0.4526;2.8757;
1371.3000;0.4396;2.8334;
1371.6000;0.4396;2.8361;
1371.9000;0.4387;2.8308;
1372.2000;0.4396;2.8308;
1372.5000;0.4379;2.8361;
1372.8000;0.4404;2.8414;
1373.1000;0.4396;2.8440;
1373.4000;0.4412;2.8414;
1373.7000;0.4412;2.8387;
1374.0000;0.4379;2.8308;
1374.3000;0.4387;2.8282;
1374.6000;0.4371;2.8255;
1374.9000;0.4371;2.8282;
1375.2000;0.4396;2.8255;
1375.5000;0.4404;2.8229;
1375.8000;0.4404;2.8229;
1376.1000;0.4461;2.8519;
1376.4000;0.4396;2.8334;
1376.7000;0.4404;2.8334;
1377.0000;0.4371;2.8334;
1377.3000;0.4396;2.8255;
1377.6000;0.4363;2.8176;
1377.9000;0.4404;2.8229;
1378.2000;0.4387;2.8255;
1378.5000;0.4396;2.8282;
1378.8000;0.4379;2.8203;
1379.1000;0.4387;2.8176;
1379.4000;0.4371;2.8150;
1379.7000;0.4396;2.8123;
1380.0000;0.4322;2.7912;
1380.3000;0.4420;2.8229;
1380.6000;0.4404;2.8282;
1380.9000;0.4387;2.8282;
1381.2000;0.4444;2.8361;
1381.5000;0.4387;2.8203;
1381.8000;0.4379;2.8282;
1382.1000;0.4387;2.8387;
1382.4000;0.4396;2.8387;
1382.7000;0.4428;2.8440;
1383.0000;0.4396;2.8308;
1383.3000;0.4379;2.8282;
1383.6000;0.4387;2.8334;
1383.9000;0.4322;2.8229;
1384.2000;0.4363;2.8334;
1384.5000;0.4379;2.8361;
1384.8000;0.4387;2.8361;
1385.1000;0.4396;2.8466;
1385.4000;0.4355;2.8493;
1385.7000;0.4387;2.8519;
1386.0000;0.4371;2.8598;
1386.3000;0.4379;2.8572;
1386.6000;0.4387;2.8677;
1386.9000;0.4347;2.8572;
1387.2000;0.4379;2.8625;
1387.5000;0.4371;2.8572;
1387.8000;0.4371;2.8519;
1388.1000;0.4379;2.8572;
1388.4000;0.4387;2.8677;
1388.7000;0.4379;2.8757;
1389.0000;0.4379;2.8757;
1389.3000;0.4363;2.8625;
1389.6000;0.4387;2.8625;
1389.9000;0.4387;2.8651;
1390.2000;0.4396;2.8625;
1390.5000;0.4387;2.8546;
1390.8000;0.4396;2.8519;
1391.1000;0.4404;2.8546;
1391.4000;0.4387;2.8466;
1391.7000;0.4404;2.8466;
1392.0000;0.4379;2.8414;
1392.3000;0.4396;2.8414;
1392.6000;0.4379;2.8334;
1392.9000;0.4387;2.8466;
1393.2000;0.4396;2.8414;
1393.5000;0.4387;2.8334;
1393.8000;0.4387;2.8334;
1394.1000;0.4396;2.8387;
1394.4000;0.4396;2.8308;
1394.7000;0.4396;2.8176;
1395.0000;0.4387;2.8097;
1395.3000;0.4379;2.8097;
1395.6000;0.4379;2.8071;
1395.9000;0.4396;2.8203;
1396.2000;0.4396;2.8308;
1396.5000;0.4387;2.8334;
1396.8000;0.4396;2.8334;
1397.1000;0.4420;2.8414;
1397.4000;0.4396;2.8308;
1397.7000;0.4396;2.8387;
1398.0000;0.4396;2.8414;
1398.3000;0.4412;2.8519;
1398.6000;0.4412;2.8519;
1398.9000;0.4396;2.8414;
1399.2000;0.4412;2.8361;
1399.5000;0.4396;2.8387;
1399.8000;0.4396;2.8414;
