time/ms;Fluo/V;P700 deltaI/I x10³;
-199.8000;0.5600;3.1527;
-199.5000;0.5641;3.1659;
-199.2000;0.5600;3.1553;
-198.9000;0.5592;3.1579;
-198.6000;0.5617;3.1606;
-198.3000;0.5568;3.1448;
-198.0000;0.5592;3.1421;
-197.7000;0.5592;3.1421;
-197.4000;0.5592;3.1368;
-197.1000;0.5576;3.1342;
-196.8000;0.5576;3.1342;
-196.5000;0.5592;3.1421;
-196.2000;0.5592;3.1421;
-195.9000;0.5633;3.1579;
-195.6000;0.5608;3.1553;
-195.3000;0.5600;3.1527;
-195.0000;0.5568;3.1448;
-194.7000;0.5584;3.1448;
-194.4000;0.5576;3.1368;
-194.1000;0.5600;3.1527;
-193.8000;0.5608;3.1632;
-193.5000;0.5617;3.1632;
-193.2000;0.5592;3.1553;
-192.9000;0.5576;3.1500;
-192.6000;0.5608;3.1553;
-192.3000;0.5600;3.1448;
-192.0000;0.5592;3.1421;
-191.7000;0.5584;3.1421;
-191.4000;0.5584;3.1395;
-191.1000;0.5568;3.1342;
-190.8000;0.5592;3.1448;
-190.5000;0.5600;3.1421;
-190.2000;0.5608;3.1474;
-189.9000;0.5608;3.1395;
-189.6000;0.5617;3.1395;
-189.3000;0.5600;3.1289;
-189.0000;0.5608;3.1316;
-188.7000;0.5600;3.1368;
-188.4000;0.5600;3.1289;
-188.1000;0.5600;3.1395;
-187.8000;0.5600;3.1342;
-187.5000;0.5600;3.1395;
-187.2000;0.5608;3.1500;
-186.9000;0.5592;3.1421;
-186.6000;0.5608;3.1421;
-186.3000;0.5625;3.1395;
-186.0000;0.5608;3.1368;
-185.7000;0.5617;3.1474;
-185.4000;0.5633;3.1500;
-185.1000;0.5600;3.1368;
-184.8000;0.5617;3.1421;
-184.5000;0.5625;3.1368;
-184.2000;0.5649;3.1421;
-183.9000;0.5625;3.1368;
-183.6000;0.5617;3.1316;
-183.3000;0.5633;3.1316;
-183.0000;0.5625;3.1289;
-182.7000;0.5600;3.1263;
-182.4000;0.5625;3.1289;
-182.1000;0.5608;3.1236;
-181.8000;0.5608;3.1316;
-181.5000;0.5608;3.1316;
-181.2000;0.5584;3.1316;
-180.9000;0.5617;3.1448;
-180.6000;0.5617;3.1500;
-180.3000;0.5584;3.1421;
-180.0000;0.5584;3.1368;
-179.7000;0.5633;3.1632;
-179.4000;0.5600;3.1527;
-179.1000;0.5608;3.1500;
-178.8000;0.5600;3.1553;
-178.5000;0.5600;3.1553;
-178.2000;0.5617;3.1632;
-177.9000;0.5584;3.1527;
-177.6000;0.5600;3.1606;
-177.3000;0.5600;3.1632;
-177.0000;0.5592;3.1606;
-176.7000;0.5617;3.1606;
-176.4000;0.5592;3.1474;
-176.1000;0.5592;3.1606;
-175.8000;0.5600;3.1606;
-175.5000;0.5600;3.1685;
-175.2000;0.5584;3.1606;
-174.9000;0.5608;3.1632;
-174.6000;0.5600;3.1579;
-174.3000;0.5608;3.1553;
-174.0000;0.5600;3.1606;
-173.7000;0.5617;3.1659;
-173.4000;0.5600;3.1606;
-173.1000;0.5608;3.1632;
-172.8000;0.5584;3.1553;
-172.5000;0.5592;3.1579;
-172.2000;0.5576;3.1474;
-171.9000;0.5600;3.1500;
-171.6000;0.5600;3.1500;
-171.3000;0.5592;3.1395;
-171.0000;0.5608;3.1316;
-170.7000;0.5600;3.1263;
-170.4000;0.5600;3.1263;
-170.1000;0.5592;3.1184;
-169.8000;0.5584;3.1157;
-169.5000;0.5608;3.1210;
-169.2000;0.5600;3.1210;
-168.9000;0.5592;3.1263;
-168.6000;0.5608;3.1342;
-168.3000;0.5608;3.1448;
-168.0000;0.5608;3.1421;
-167.7000;0.5625;3.1474;
-167.4000;0.5608;3.1474;
-167.1000;0.5592;3.1395;
-166.8000;0.5584;3.1316;
-166.5000;0.5592;3.1236;
-166.2000;0.5592;3.1263;
-165.9000;0.5600;3.1316;
-165.6000;0.5608;3.1342;
-165.3000;0.5633;3.1448;
-165.0000;0.5600;3.1342;
-164.7000;0.5617;3.1395;
-164.4000;0.5592;3.1368;
-164.1000;0.5617;3.1368;
-163.8000;0.5592;3.1421;
-163.5000;0.5576;3.1421;
-163.2000;0.5617;3.1527;
-162.9000;0.5543;3.1395;
-162.6000;0.5617;3.1527;
-162.3000;0.5625;3.1606;
-162.0000;0.5608;3.1527;
-161.7000;0.5576;3.1474;
-161.4000;0.5633;3.1606;
-161.1000;0.5617;3.1632;
-160.8000;0.5625;3.1606;
-160.5000;0.5625;3.1527;
-160.2000;0.5617;3.1553;
-159.9000;0.5617;3.1474;
-159.6000;0.5617;3.1448;
-159.3000;0.5617;3.1579;
-159.0000;0.5633;3.1527;
-158.7000;0.5535;3.1316;
-158.4000;0.5608;3.1500;
-158.1000;0.5608;3.1659;
-157.8000;0.5617;3.1685;
-157.5000;0.5560;3.1579;
-157.2000;0.5600;3.1685;
-156.9000;0.5633;3.1817;
-156.6000;0.5592;3.1632;
-156.3000;0.5584;3.1685;
-156.0000;0.5584;3.1606;
-155.7000;0.5576;3.1632;
-155.4000;0.5592;3.1659;
-155.1000;0.5560;3.1579;
-154.8000;0.5576;3.1738;
-154.5000;0.5608;3.1870;
-154.2000;0.5584;3.1791;
-153.9000;0.5600;3.1791;
-153.6000;0.5584;3.1738;
-153.3000;0.5600;3.1738;
-153.0000;0.5608;3.1685;
-152.7000;0.5608;3.1579;
-152.4000;0.5592;3.1685;
-152.1000;0.5592;3.1632;
-151.8000;0.5674;3.1870;
-151.5000;0.5592;3.1711;
-151.2000;0.5608;3.1659;
-150.9000;0.5592;3.1606;
-150.6000;0.5617;3.1553;
-150.3000;0.5625;3.1659;
-150.0000;0.5584;3.1553;
-149.7000;0.5600;3.1579;
-149.4000;0.5608;3.1632;
-149.1000;0.5608;3.1527;
-148.8000;0.5608;3.1527;
-148.5000;0.5617;3.1553;
-148.2000;0.5617;3.1553;
-147.9000;0.5608;3.1553;
-147.6000;0.5617;3.1553;
-147.3000;0.5617;3.1500;
-147.0000;0.5592;3.1527;
-146.7000;0.5617;3.1659;
-146.4000;0.5617;3.1632;
-146.1000;0.5600;3.1474;
-145.8000;0.5576;3.1368;
-145.5000;0.5576;3.1421;
-145.2000;0.5617;3.1500;
-144.9000;0.5600;3.1448;
-144.6000;0.5600;3.1527;
-144.3000;0.5608;3.1500;
-144.0000;0.5641;3.1579;
-143.7000;0.5608;3.1500;
-143.4000;0.5592;3.1448;
-143.1000;0.5617;3.1500;
-142.8000;0.5617;3.1553;
-142.5000;0.5617;3.1553;
-142.2000;0.5641;3.1579;
-141.9000;0.5608;3.1500;
-141.6000;0.5608;3.1500;
-141.3000;0.5527;3.1421;
-141.0000;0.5592;3.1711;
-140.7000;0.5584;3.1711;
-140.4000;0.5576;3.1553;
-140.1000;0.5608;3.1711;
-139.8000;0.5600;3.1843;
-139.5000;0.5600;3.1843;
-139.2000;0.5592;3.1738;
-138.9000;0.5592;3.1791;
-138.6000;0.5617;3.1870;
-138.3000;0.5600;3.1922;
-138.0000;0.5592;3.1870;
-137.7000;0.5600;3.1922;
-137.4000;0.5608;3.1896;
-137.1000;0.5592;3.1870;
-136.8000;0.5592;3.1896;
-136.5000;0.5576;3.1764;
-136.2000;0.5625;3.1922;
-135.9000;0.5592;3.1843;
-135.6000;0.5584;3.1870;
-135.3000;0.5592;3.1922;
-135.0000;0.5584;3.1870;
-134.7000;0.5600;3.1843;
-134.4000;0.5608;3.1896;
-134.1000;0.5600;3.1764;
-133.8000;0.5600;3.1711;
-133.5000;0.5608;3.1791;
-133.2000;0.5576;3.1659;
-132.9000;0.5600;3.1711;
-132.6000;0.5608;3.1738;
-132.3000;0.5608;3.1685;
-132.0000;0.5617;3.1685;
-131.7000;0.5608;3.1685;
-131.4000;0.5649;3.1764;
-131.1000;0.5608;3.1738;
-130.8000;0.5608;3.1632;
-130.5000;0.5592;3.1527;
-130.2000;0.5600;3.1579;
-129.9000;0.5617;3.1527;
-129.6000;0.5584;3.1500;
-129.3000;0.5592;3.1553;
-129.0000;0.5608;3.1527;
-128.7000;0.5608;3.1474;
-128.4000;0.5633;3.1579;
-128.1000;0.5608;3.1685;
-127.8000;0.5600;3.1553;
-127.5000;0.5625;3.1606;
-127.2000;0.5625;3.1606;
-126.9000;0.5617;3.1579;
-126.6000;0.5592;3.1579;
-126.3000;0.5608;3.1579;
-126.0000;0.5617;3.1474;
-125.7000;0.5608;3.1395;
-125.4000;0.5755;3.1817;
-125.1000;0.5731;3.1817;
-124.8000;0.5592;3.1527;
-124.5000;0.5625;3.1500;
-124.2000;0.5674;3.1579;
-123.9000;0.5649;3.1474;
-123.6000;0.5625;3.1500;
-123.3000;0.5592;3.1448;
-123.0000;0.5608;3.1527;
-122.7000;0.5608;3.1579;
-122.4000;0.5584;3.1579;
-122.1000;0.5600;3.1606;
-121.8000;0.5617;3.1685;
-121.5000;0.5584;3.1579;
-121.2000;0.5714;3.2002;
-120.9000;0.5747;3.2133;
-120.6000;0.5600;3.1711;
-120.3000;0.5608;3.1685;
-120.0000;0.5608;3.1685;
-119.7000;0.5592;3.1606;
-119.4000;0.5600;3.1553;
-119.1000;0.5600;3.1606;
-118.8000;0.5600;3.1606;
-118.5000;0.5592;3.1659;
-118.2000;0.5592;3.1738;
-117.9000;0.5600;3.1817;
-117.6000;0.5617;3.1949;
-117.3000;0.5600;3.1949;
-117.0000;0.5617;3.1922;
-116.7000;0.5600;3.1870;
-116.4000;0.5584;3.1843;
-116.1000;0.5608;3.1870;
-115.8000;0.5600;3.1896;
-115.5000;0.5608;3.1843;
-115.2000;0.5633;3.1975;
-114.9000;0.5592;3.1870;
-114.6000;0.5592;3.1896;
-114.3000;0.5600;3.1817;
-114.0000;0.5600;3.1738;
-113.7000;0.5503;3.1421;
-113.4000;0.5600;3.1659;
-113.1000;0.5584;3.1711;
-112.8000;0.5608;3.1711;
-112.5000;0.5608;3.1738;
-112.2000;0.5608;3.1764;
-111.9000;0.5633;3.1738;
-111.6000;0.5584;3.1632;
-111.3000;0.5584;3.1606;
-111.0000;0.5600;3.1606;
-110.7000;0.5608;3.1632;
-110.4000;0.5608;3.1606;
-110.1000;0.5592;3.1527;
-109.8000;0.5617;3.1474;
-109.5000;0.5600;3.1421;
-109.2000;0.5608;3.1421;
-108.9000;0.5600;3.1368;
-108.6000;0.5755;3.1817;
-108.3000;0.5608;3.1316;
-108.0000;0.5617;3.1289;
-107.7000;0.5608;3.1342;
-107.4000;0.5608;3.1474;
-107.1000;0.5617;3.1500;
-106.8000;0.5600;3.1527;
-106.5000;0.5617;3.1527;
-106.2000;0.5617;3.1474;
-105.9000;0.5600;3.1448;
-105.6000;0.5617;3.1527;
-105.3000;0.5633;3.1553;
-105.0000;0.5625;3.1500;
-104.7000;0.5600;3.1448;
-104.4000;0.5625;3.1500;
-104.1000;0.5608;3.1421;
-103.8000;0.5617;3.1421;
-103.5000;0.5592;3.1395;
-103.2000;0.5617;3.1500;
-102.9000;0.5617;3.1500;
-102.6000;0.5617;3.1606;
-102.3000;0.5584;3.1342;
-102.0000;0.5633;3.1474;
-101.7000;0.5625;3.1500;
-101.4000;0.5625;3.1527;
-101.1000;0.5600;3.1632;
-100.8000;0.5617;3.1685;
-100.5000;0.5568;3.1527;
-100.2000;0.5608;3.1606;
-99.9000;0.5600;3.1579;
-99.6000;0.5568;3.1527;
-99.3000;0.5682;3.1870;
-99.0000;0.5633;3.1764;
-98.7000;0.5625;3.1791;
-98.4000;0.5600;3.1843;
-98.1000;0.5625;3.1922;
-97.8000;0.5600;3.1817;
-97.5000;0.5600;3.1791;
-97.2000;0.5592;3.1817;
-96.9000;0.5592;3.1817;
-96.6000;0.5592;3.1870;
-96.3000;0.5600;3.1949;
-96.0000;0.5584;3.1870;
-95.7000;0.5592;3.1817;
-95.4000;0.5592;3.1896;
-95.1000;0.5592;3.1870;
-94.8000;0.5600;3.1870;
-94.5000;0.5584;3.1817;
-94.2000;0.5600;3.1922;
-93.9000;0.5608;3.1817;
-93.6000;0.5608;3.1843;
-93.3000;0.5608;3.1843;
-93.0000;0.5584;3.1685;
-92.7000;0.5625;3.1685;
-92.4000;0.5608;3.1632;
-92.1000;0.5600;3.1527;
-91.8000;0.5600;3.1553;
-91.5000;0.5568;3.1474;
-91.2000;0.5608;3.1553;
-90.9000;0.5617;3.1448;
-90.6000;0.5617;3.1342;
-90.3000;0.5617;3.1289;
-90.0000;0.5617;3.1263;
-89.7000;0.5608;3.1289;
-89.4000;0.5576;3.1131;
-89.1000;0.5617;3.1236;
-88.8000;0.5617;3.1289;
-88.5000;0.5600;3.1342;
-88.2000;0.5600;3.1342;
-87.9000;0.5600;3.1316;
-87.6000;0.5625;3.1289;
-87.3000;0.5600;3.1210;
-87.0000;0.5608;3.1316;
-86.7000;0.5608;3.1184;
-86.4000;0.5584;3.1184;
-86.1000;0.5617;3.1210;
-85.8000;0.5535;3.0894;
-85.5000;0.5625;3.1078;
-85.2000;0.5608;3.1025;
-84.9000;0.5608;3.1078;
-84.6000;0.5568;3.0973;
-84.3000;0.5576;3.0999;
-84.0000;0.5600;3.1078;
-83.7000;0.5657;3.1210;
-83.4000;0.5543;3.0894;
-83.1000;0.5543;3.0999;
-82.8000;0.5617;3.1131;
-82.5000;0.5617;3.1131;
-82.2000;0.5633;3.1316;
-81.9000;0.5511;3.1025;
-81.6000;0.5608;3.1289;
-81.3000;0.5625;3.1263;
-81.0000;0.5617;3.1210;
-80.7000;0.5600;3.1184;
-80.4000;0.5617;3.1210;
-80.1000;0.5608;3.1289;
-79.8000;0.5625;3.1368;
-79.5000;0.5600;3.1263;
-79.2000;0.5608;3.1316;
-78.9000;0.5584;3.1316;
-78.6000;0.5617;3.1421;
-78.3000;0.5584;3.1421;
-78.0000;0.5592;3.1342;
-77.7000;0.5592;3.1527;
-77.4000;0.5608;3.1579;
-77.1000;0.5584;3.1553;
-76.8000;0.5592;3.1606;
-76.5000;0.5592;3.1527;
-76.2000;0.5584;3.1579;
-75.9000;0.5633;3.1711;
-75.6000;0.5608;3.1764;
-75.3000;0.5568;3.1685;
-75.0000;0.5608;3.1791;
-74.7000;0.5600;3.1738;
-74.4000;0.5584;3.1606;
-74.1000;0.5584;3.1711;
-73.8000;0.5584;3.1738;
-73.5000;0.5608;3.1791;
-73.2000;0.5600;3.1685;
-72.9000;0.5576;3.1606;
-72.6000;0.5608;3.1791;
-72.3000;0.5600;3.1659;
-72.0000;0.5600;3.1711;
-71.7000;0.5617;3.1711;
-71.4000;0.5600;3.1527;
-71.1000;0.5600;3.1527;
-70.8000;0.5608;3.1553;
-70.5000;0.5625;3.1527;
-70.2000;0.5617;3.1553;
-69.9000;0.5608;3.1553;
-69.6000;0.5608;3.1448;
-69.3000;0.5600;3.1395;
-69.0000;0.5568;3.1342;
-68.7000;0.5543;3.1289;
-68.4000;0.5584;3.1421;
-68.1000;0.5576;3.1474;
-67.8000;0.5608;3.1527;
-67.5000;0.5592;3.1606;
-67.2000;0.5608;3.1659;
-66.9000;0.5600;3.1553;
-66.6000;0.5592;3.1553;
-66.3000;0.5608;3.1527;
-66.0000;0.5657;3.1632;
-65.7000;0.5608;3.1527;
-65.4000;0.5617;3.1527;
-65.1000;0.5617;3.1448;
-64.8000;0.5608;3.1448;
-64.5000;0.5608;3.1421;
-64.2000;0.5625;3.1553;
-63.9000;0.5608;3.1527;
-63.6000;0.5576;3.1474;
-63.3000;0.5592;3.1500;
-63.0000;0.5608;3.1500;
-62.7000;0.5641;3.1632;
-62.4000;0.5600;3.1527;
-62.1000;0.5600;3.1606;
-61.8000;0.5617;3.1527;
-61.5000;0.5608;3.1448;
-61.2000;0.5617;3.1421;
-60.9000;0.5625;3.1474;
-60.6000;0.5608;3.1474;
-60.3000;0.5600;3.1448;
-60.0000;0.5600;3.1500;
-59.7000;0.5527;3.1263;
-59.4000;0.5535;3.1421;
-59.1000;0.5584;3.1606;
-58.8000;0.5592;3.1579;
-58.5000;0.5592;3.1606;
-58.2000;0.5568;3.1579;
-57.9000;0.5592;3.1685;
-57.6000;0.5592;3.1685;
-57.3000;0.5592;3.1659;
-57.0000;0.5584;3.1579;
-56.7000;0.5592;3.1606;
-56.4000;0.5608;3.1738;
-56.1000;0.5600;3.1817;
-55.8000;0.5600;3.1791;
-55.5000;0.5617;3.1791;
-55.2000;0.5600;3.1764;
-54.9000;0.5608;3.1685;
-54.6000;0.5608;3.1685;
-54.3000;0.5665;3.1896;
-54.0000;0.5617;3.1711;
-53.7000;0.5576;3.1659;
-53.4000;0.5592;3.1632;
-53.1000;0.5600;3.1632;
-52.8000;0.5608;3.1579;
-52.5000;0.5617;3.1527;
-52.2000;0.5625;3.1421;
-51.9000;0.5617;3.1500;
-51.6000;0.5617;3.1553;
-51.3000;0.5625;3.1606;
-51.0000;0.5617;3.1553;
-50.7000;0.5608;3.1632;
-50.4000;0.5608;3.1711;
-50.1000;0.5617;3.1632;
-49.8000;0.5608;3.1579;
-49.5000;0.5568;3.1448;
-49.2000;0.5592;3.1579;
-48.9000;0.5608;3.1685;
-48.6000;0.5600;3.1632;
-48.3000;0.5617;3.1659;
-48.0000;0.5649;3.1764;
-47.7000;0.5535;3.1342;
-47.4000;0.5600;3.1527;
-47.1000;0.5584;3.1500;
-46.8000;0.5576;3.1448;
-46.5000;0.5600;3.1500;
-46.2000;0.5625;3.1527;
-45.9000;0.5617;3.1553;
-45.6000;0.5617;3.1659;
-45.3000;0.5617;3.1659;
-45.0000;0.5600;3.1579;
-44.7000;0.5617;3.1579;
-44.4000;0.5584;3.1527;
-44.1000;0.5617;3.1527;
-43.8000;0.5592;3.1448;
-43.5000;0.5617;3.1342;
-43.2000;0.5608;3.1395;
-42.9000;0.5617;3.1421;
-42.6000;0.5625;3.1474;
-42.3000;0.5600;3.1395;
-42.0000;0.5625;3.1553;
-41.7000;0.5592;3.1500;
-41.4000;0.5608;3.1579;
-41.1000;0.5617;3.1606;
-40.8000;0.5617;3.1553;
-40.5000;0.5600;3.1500;
-40.2000;0.5617;3.1579;
-39.9000;0.5592;3.1474;
-39.6000;0.5592;3.1553;
-39.3000;0.5608;3.1606;
-39.0000;0.5608;3.1685;
-38.7000;0.5592;3.1606;
-38.4000;0.5592;3.1711;
-38.1000;0.5600;3.1711;
-37.8000;0.5600;3.1711;
-37.5000;0.5600;3.1738;
-37.2000;0.5584;3.1606;
-36.9000;0.5592;3.1659;
-36.6000;0.5592;3.1764;
-36.3000;0.5592;3.1843;
-36.0000;0.5592;3.1843;
-35.7000;0.5608;3.1843;
-35.4000;0.5674;3.2081;
-35.1000;0.5584;3.1817;
-34.8000;0.5706;3.2213;
-34.5000;0.5600;3.1896;
-34.2000;0.5592;3.1764;
-33.9000;0.5592;3.1817;
-33.6000;0.5568;3.1632;
-33.3000;0.5592;3.1632;
-33.0000;0.5608;3.1659;
-32.7000;0.5625;3.1764;
-32.4000;0.5608;3.1738;
-32.1000;0.5600;3.1711;
-31.8000;0.5551;3.1632;
-31.5000;0.5592;3.1659;
-31.2000;0.5600;3.1632;
-30.9000;0.5608;3.1579;
-30.6000;0.5674;3.1685;
-30.3000;0.5584;3.1448;
-30.0000;0.5608;3.1421;
-29.7000;0.5608;3.1421;
-29.4000;0.5600;3.1421;
-29.1000;0.5600;3.1289;
-28.8000;0.5600;3.1289;
-28.5000;0.5592;3.1263;
-28.2000;0.5584;3.1263;
-27.9000;0.5617;3.1395;
-27.6000;0.5625;3.1289;
-27.3000;0.5674;3.1368;
-27.0000;0.5511;3.0946;
-26.7000;0.5600;3.1184;
-26.4000;0.5617;3.1263;
-26.1000;0.5576;3.1263;
-25.8000;0.5608;3.1395;
-25.5000;0.5584;3.1395;
-25.2000;0.5641;3.1474;
-24.9000;0.5617;3.1263;
-24.6000;0.5608;3.1236;
-24.3000;0.5608;3.1316;
-24.0000;0.5617;3.1289;
-23.7000;0.5600;3.1316;
-23.4000;0.5576;3.1316;
-23.1000;0.5608;3.1342;
-22.8000;0.5617;3.1342;
-22.5000;0.5608;3.1395;
-22.2000;0.5617;3.1368;
-21.9000;0.5584;3.1368;
-21.6000;0.5600;3.1500;
-21.3000;0.5617;3.1632;
-21.0000;0.5584;3.1579;
-20.7000;0.5592;3.1500;
-20.4000;0.5584;3.1448;
-20.1000;0.5600;3.1474;
-19.8000;0.5625;3.1579;
-19.5000;0.5617;3.1474;
-19.2000;0.5608;3.1500;
-18.9000;0.5617;3.1553;
-18.6000;0.5608;3.1579;
-18.3000;0.5600;3.1553;
-18.0000;0.5592;3.1553;
-17.7000;0.5584;3.1527;
-17.4000;0.5600;3.1659;
-17.1000;0.5592;3.1711;
-16.8000;0.5568;3.1659;
-16.5000;0.5584;3.1659;
-16.2000;0.5576;3.1685;
-15.9000;0.5600;3.1843;
-15.6000;0.5617;3.2054;
-15.3000;0.5576;3.2002;
-15.0000;0.5568;3.1870;
-14.7000;0.5600;3.1949;
-14.4000;0.5608;3.1870;
-14.1000;0.5600;3.1896;
-13.8000;0.5608;3.1922;
-13.5000;0.5608;3.1896;
-13.2000;0.5617;3.1843;
-12.9000;0.5600;3.1896;
-12.6000;0.5511;3.1738;
-12.3000;0.5608;3.1896;
-12.0000;0.5592;3.1791;
-11.7000;0.5584;3.1606;
-11.4000;0.5592;3.1685;
-11.1000;0.5600;3.1659;
-10.8000;0.5617;3.1659;
-10.5000;0.5608;3.1527;
-10.2000;0.5608;3.1527;
-9.9000;0.5608;3.1606;
-9.6000;0.5820;3.2239;
-9.3000;0.5600;3.1632;
-9.0000;0.5617;3.1659;
-8.7000;0.5625;3.1659;
-8.4000;0.5657;3.1711;
-8.1000;0.5608;3.1500;
-7.8000;0.5617;3.1474;
-7.5000;0.5608;3.1474;
-7.2000;0.5608;3.1342;
-6.9000;0.5617;3.1395;
-6.6000;0.5608;3.1368;
-6.3000;0.5608;3.1368;
-6.0000;0.5608;3.1395;
-5.7000;0.5617;3.1395;
-5.4000;0.5592;3.1263;
-5.1000;0.5617;3.1289;
-4.8000;0.5617;3.1342;
-4.5000;0.5633;3.1395;
-4.2000;0.5625;3.1421;
-3.9000;0.5584;3.1289;
-3.6000;0.5633;3.1448;
-3.3000;0.5617;3.1368;
-3.0000;0.5633;3.1342;
-2.7000;0.5625;3.1263;
-2.4000;0.5617;3.1263;
-2.1000;0.5617;3.1263;
-1.8000;0.5608;3.1263;
-1.5000;0.5592;3.1236;
-1.2000;0.5600;3.1289;
-0.9000;0.5625;3.1395;
-0.6000;0.5592;3.1316;
-0.3000;0.5568;3.1263;
0.0000;0.5568;3.1263;
0.3000;0.5617;3.1764;
0.6000;0.5682;3.2160;
0.9000;0.5690;3.2345;
1.2000;0.5690;3.2424;
1.5000;0.5836;3.2872;
1.8000;0.5763;3.2819;
2.1000;0.5755;3.3030;
2.4000;0.5755;3.3189;
2.7000;0.5771;3.3373;
3.0000;0.5779;3.3611;
3.3000;0.5788;3.3690;
3.6000;0.5796;3.3796;
3.9000;0.5820;3.3980;
4.2000;0.5812;3.4007;
4.5000;0.5836;3.4218;
4.8000;0.5820;3.4297;
5.1000;0.5804;3.4191;
5.4000;0.5836;3.4270;
5.7000;0.5853;3.4376;
6.0000;0.5845;3.4455;
6.3000;0.5991;3.4824;
6.6000;0.5771;3.4244;
6.9000;0.5853;3.4482;
7.2000;0.5853;3.4561;
7.5000;0.5836;3.4508;
7.8000;0.5861;3.4482;
8.1000;0.5934;3.4719;
8.4000;0.5820;3.4350;
8.7000;0.5853;3.4402;
9.0000;0.5853;3.4244;
9.3000;0.5755;3.3954;
9.6000;0.5861;3.4244;
9.9000;0.5869;3.4244;
10.2000;0.5845;3.4218;
10.5000;0.5877;3.4297;
10.8000;0.5910;3.4376;
11.1000;0.5885;3.4350;
11.4000;0.5991;3.4613;
11.7000;0.5877;3.4350;
12.0000;0.5893;3.4429;
12.3000;0.5893;3.4376;
12.6000;0.5910;3.4323;
12.9000;0.5902;3.4270;
13.2000;0.5942;3.4429;
13.5000;0.5902;3.4350;
13.8000;0.5975;3.4482;
14.1000;0.5885;3.4376;
14.4000;0.5853;3.4482;
14.7000;0.5877;3.4561;
15.0000;0.5910;3.4666;
15.3000;0.5893;3.4587;
15.6000;0.5902;3.4640;
15.9000;0.5869;3.4534;
16.2000;0.5926;3.4534;
16.5000;0.5918;3.4429;
16.8000;0.5910;3.4376;
17.1000;0.5910;3.4350;
17.4000;0.5918;3.4323;
17.7000;0.5877;3.4244;
18.0000;0.5918;3.4297;
18.3000;0.5918;3.4323;
18.6000;0.5902;3.4270;
18.9000;0.5902;3.4270;
19.2000;0.5926;3.4270;
19.5000;0.5934;3.4165;
19.8000;0.5893;3.4086;
20.1000;0.5893;3.4191;
20.4000;0.5902;3.4139;
20.7000;0.5918;3.4191;
21.0000;0.6064;3.4613;
21.3000;0.5934;3.4402;
21.6000;0.5926;3.4376;
21.9000;0.5918;3.4402;
22.2000;0.5926;3.4534;
22.5000;0.5934;3.4587;
22.8000;0.5934;3.4666;
23.1000;0.5934;3.4719;
23.4000;0.5910;3.4772;
23.7000;0.5910;3.4745;
24.0000;0.5902;3.4693;
24.3000;0.5869;3.4587;
24.6000;0.5942;3.4772;
24.9000;0.5926;3.4666;
25.2000;0.5910;3.4745;
25.5000;0.5910;3.4772;
25.8000;0.5967;3.4983;
26.1000;0.5950;3.4930;
26.4000;0.5918;3.4772;
26.7000;0.5877;3.4666;
27.0000;0.5926;3.4798;
27.3000;0.5910;3.4798;
27.6000;0.5926;3.4772;
27.9000;0.5934;3.4772;
28.2000;0.5942;3.4693;
28.5000;0.5926;3.4613;
28.8000;0.5934;3.4561;
29.1000;0.5845;3.4297;
29.4000;0.5918;3.4482;
29.7000;0.5934;3.4587;
30.0000;0.5934;3.4587;
30.3000;0.5999;3.4693;
30.6000;0.5885;3.4297;
30.9000;0.5950;3.4482;
31.2000;0.5885;3.4429;
31.5000;0.5926;3.4561;
31.8000;0.5958;3.4587;
32.1000;0.5942;3.4482;
32.4000;0.5958;3.4561;
32.7000;0.5934;3.4455;
33.0000;0.5958;3.4429;
33.3000;0.5918;3.4297;
33.6000;0.5942;3.4350;
33.9000;0.5958;3.4376;
34.2000;0.5926;3.4270;
34.5000;0.5918;3.4270;
34.8000;0.5950;3.4482;
35.1000;0.5942;3.4482;
35.4000;0.5885;3.4297;
35.7000;0.5942;3.4402;
36.0000;0.5942;3.4402;
36.3000;0.5983;3.4455;
36.6000;0.5950;3.4297;
36.9000;0.5950;3.4244;
37.2000;0.5950;3.4244;
37.5000;0.5958;3.4323;
37.8000;0.5950;3.4270;
38.1000;0.5942;3.4270;
38.4000;0.5958;3.4376;
38.7000;0.5934;3.4350;
39.0000;0.5934;3.4429;
39.3000;0.5958;3.4455;
39.6000;0.5926;3.4429;
39.9000;0.5934;3.4482;
40.2000;0.5934;3.4402;
40.5000;0.5934;3.4376;
40.8000;0.5918;3.4297;
41.1000;0.5934;3.4323;
41.4000;0.5942;3.4455;
41.7000;0.5926;3.4508;
42.0000;0.5942;3.4587;
42.3000;0.5934;3.4613;
42.6000;0.5942;3.4640;
42.9000;0.5950;3.4798;
43.2000;0.5926;3.4745;
43.5000;0.5910;3.4719;
43.8000;0.5910;3.4719;
44.1000;0.5926;3.4824;
44.4000;0.5934;3.4851;
44.7000;0.5926;3.4798;
45.0000;0.5934;3.4666;
45.3000;0.5934;3.4666;
45.6000;0.5926;3.4719;
45.9000;0.5926;3.4719;
46.2000;0.5902;3.4587;
46.5000;0.5958;3.4745;
46.8000;0.5942;3.4798;
47.1000;0.5926;3.4745;
47.4000;0.5958;3.4904;
47.7000;0.5845;3.4482;
48.0000;0.5942;3.4719;
48.3000;0.5926;3.4666;
48.6000;0.5885;3.4482;
48.9000;0.5999;3.4824;
49.2000;0.5942;3.4666;
49.5000;0.5942;3.4561;
49.8000;0.6007;3.4745;
50.1000;0.5958;3.4613;
50.4000;0.5958;3.4482;
50.7000;0.5934;3.4482;
51.0000;0.5942;3.4455;
51.3000;0.5934;3.4482;
51.6000;0.5950;3.4534;
51.9000;0.5950;3.4534;
52.2000;0.5934;3.4350;
52.5000;0.5967;3.4429;
52.8000;0.5967;3.4376;
53.1000;0.5958;3.4376;
53.4000;0.5950;3.4297;
53.7000;0.5934;3.4112;
54.0000;0.5958;3.4244;
54.3000;0.5967;3.4191;
54.6000;0.5934;3.4086;
54.9000;0.5950;3.4191;
55.2000;0.5934;3.4191;
55.5000;0.5950;3.4297;
55.8000;0.5975;3.4323;
56.1000;0.5958;3.4402;
56.4000;0.5958;3.4402;
56.7000;0.5950;3.4376;
57.0000;0.5958;3.4244;
57.3000;0.5950;3.4165;
57.6000;0.5934;3.4165;
57.9000;0.5942;3.4218;
58.2000;0.5958;3.4165;
58.5000;0.5950;3.4191;
58.8000;0.5967;3.4270;
59.1000;0.5958;3.4270;
59.4000;0.5967;3.4270;
59.7000;0.5942;3.4191;
60.0000;0.5950;3.4323;
60.3000;0.5950;3.4350;
60.6000;0.5967;3.4508;
60.9000;0.5950;3.4429;
61.2000;0.5926;3.4402;
61.5000;0.5942;3.4482;
61.8000;0.5934;3.4508;
62.1000;0.5934;3.4482;
62.4000;0.5926;3.4429;
62.7000;0.5926;3.4508;
63.0000;0.5918;3.4534;
63.3000;0.5942;3.4640;
63.6000;0.5999;3.4851;
63.9000;0.5942;3.4561;
64.2000;0.5934;3.4693;
64.5000;0.5918;3.4587;
64.8000;0.5950;3.4798;
65.1000;0.5877;3.4613;
65.4000;0.5934;3.4745;
65.7000;0.5958;3.4745;
66.0000;0.5942;3.4693;
66.3000;0.5942;3.4745;
66.6000;0.5942;3.4745;
66.9000;0.5934;3.4693;
67.2000;0.5877;3.4561;
67.5000;0.5950;3.4719;
67.8000;0.5926;3.4534;
68.1000;0.5967;3.4666;
68.4000;0.5958;3.4587;
68.7000;0.5967;3.4561;
69.0000;0.6064;3.4798;
69.3000;0.5950;3.4402;
69.6000;0.5950;3.4323;
69.9000;0.5934;3.4297;
70.2000;0.5934;3.4244;
70.5000;0.5942;3.4297;
70.8000;0.5934;3.4402;
71.1000;0.5950;3.4402;
71.4000;0.5958;3.4402;
71.7000;0.5967;3.4508;
72.0000;0.5942;3.4429;
72.3000;0.5958;3.4455;
72.6000;0.5950;3.4455;
72.9000;0.5958;3.4429;
73.2000;0.5958;3.4429;
73.5000;0.5950;3.4402;
73.8000;0.5934;3.4402;
74.1000;0.5950;3.4350;
74.4000;0.5967;3.4350;
74.7000;0.5967;3.4376;
75.0000;0.5950;3.4244;
75.3000;0.5950;3.4165;
75.6000;0.5950;3.4244;
75.9000;0.5967;3.4323;
76.2000;0.5934;3.4218;
76.5000;0.5950;3.4350;
76.8000;0.5942;3.4376;
77.1000;0.5942;3.4350;
77.4000;0.5950;3.4402;
77.7000;0.5942;3.4350;
78.0000;0.5991;3.4402;
78.3000;0.5950;3.4350;
78.6000;0.5950;3.4323;
78.9000;0.5950;3.4297;
79.2000;0.5958;3.4429;
79.5000;0.5934;3.4429;
79.8000;0.5934;3.4534;
80.1000;0.5942;3.4508;
80.4000;0.5950;3.4534;
80.7000;0.5950;3.4508;
81.0000;0.5934;3.4561;
81.3000;0.5942;3.4508;
81.6000;0.6081;3.4877;
81.9000;0.5958;3.4534;
82.2000;0.5942;3.4482;
82.5000;0.5942;3.4534;
82.8000;0.5934;3.4534;
83.1000;0.5934;3.4561;
83.4000;0.5942;3.4666;
83.7000;0.5958;3.4772;
84.0000;0.5942;3.4745;
84.3000;0.5926;3.4640;
84.6000;0.5934;3.4482;
84.9000;0.5950;3.4534;
85.2000;0.5950;3.4587;
85.5000;0.5918;3.4429;
85.8000;0.5926;3.4429;
86.1000;0.5942;3.4482;
86.4000;0.5942;3.4482;
86.7000;0.5950;3.4429;
87.0000;0.5918;3.4350;
87.3000;0.5958;3.4508;
87.6000;0.5942;3.4561;
87.9000;0.5950;3.4508;
88.2000;0.5942;3.4534;
88.5000;0.5942;3.4508;
88.8000;0.5950;3.4561;
89.1000;0.5950;3.4534;
89.4000;0.5853;3.4244;
89.7000;0.5934;3.4508;
90.0000;0.5991;3.4561;
90.3000;0.5942;3.4218;
90.6000;0.5950;3.4191;
90.9000;0.5942;3.4112;
91.2000;0.5967;3.4218;
91.5000;0.5983;3.4139;
91.8000;0.5950;3.4033;
92.1000;0.5942;3.4059;
92.4000;0.5942;3.4086;
92.7000;0.5967;3.4086;
93.0000;0.5950;3.4033;
93.3000;0.5975;3.4165;
93.6000;0.5958;3.4086;
93.9000;0.5975;3.4191;
94.2000;0.5950;3.4165;
94.5000;0.5926;3.4007;
94.8000;0.5950;3.4112;
95.1000;0.5967;3.4112;
95.4000;0.5958;3.4086;
95.7000;0.5958;3.4086;
96.0000;0.5926;3.4086;
96.3000;0.5983;3.4270;
96.6000;0.5950;3.4086;
96.9000;0.5934;3.4139;
97.2000;0.5958;3.4086;
97.5000;0.5950;3.4218;
97.8000;0.5967;3.4270;
98.1000;0.5853;3.3875;
98.4000;0.5942;3.4165;
98.7000;0.5958;3.4218;
99.0000;0.5950;3.4218;
99.3000;0.5950;3.4244;
99.6000;0.5942;3.4270;
99.9000;0.5950;3.4376;
100.2000;0.5958;3.4429;
100.5000;0.5950;3.4402;
100.8000;0.5934;3.4482;
101.1000;0.5942;3.4455;
101.4000;0.5942;3.4508;
101.7000;0.5918;3.4455;
102.0000;0.5934;3.4534;
102.3000;0.5910;3.4482;
102.6000;0.5918;3.4587;
102.9000;0.5934;3.4587;
103.2000;0.5910;3.4587;
103.5000;0.5877;3.4613;
103.8000;0.5934;3.4745;
104.1000;0.5934;3.4824;
104.4000;0.5918;3.4613;
104.7000;0.5934;3.4666;
105.0000;0.5893;3.4693;
105.3000;0.5942;3.4956;
105.6000;0.5950;3.4877;
105.9000;0.5999;3.4877;
106.2000;0.5934;3.4745;
106.5000;0.5893;3.4587;
106.8000;0.5934;3.4666;
107.1000;0.5934;3.4666;
107.4000;0.5926;3.4587;
107.7000;0.5934;3.4534;
108.0000;0.5934;3.4482;
108.3000;0.5918;3.4482;
108.6000;0.5918;3.4455;
108.9000;0.5958;3.4482;
109.2000;0.5942;3.4482;
109.5000;0.6007;3.4613;
109.8000;0.5950;3.4508;
110.1000;0.5958;3.4429;
110.4000;0.5950;3.4402;
110.7000;0.5950;3.4297;
111.0000;0.5950;3.4244;
111.3000;0.5942;3.4244;
111.6000;0.5926;3.4112;
111.9000;0.5942;3.4218;
112.2000;0.5958;3.4139;
112.5000;0.5934;3.4086;
112.8000;0.5967;3.4218;
113.1000;0.5958;3.4191;
113.4000;0.5902;3.4086;
113.7000;0.5942;3.4218;
114.0000;0.5950;3.4244;
114.3000;0.5942;3.4191;
114.6000;0.5950;3.4112;
114.9000;0.5958;3.4139;
115.2000;0.5942;3.4191;
115.5000;0.5942;3.4244;
115.8000;0.5950;3.4244;
116.1000;0.5942;3.4139;
116.4000;0.5918;3.4086;
116.7000;0.5950;3.4244;
117.0000;0.5950;3.4323;
117.3000;0.5950;3.4191;
117.6000;0.5934;3.4139;
117.9000;0.5950;3.4165;
118.2000;0.5950;3.4191;
118.5000;0.5950;3.4270;
118.8000;0.6081;3.4640;
119.1000;0.5958;3.4350;
119.4000;0.5942;3.4297;
119.7000;0.5975;3.4350;
120.0000;0.5950;3.4376;
120.3000;0.5910;3.4297;
120.6000;0.5958;3.4429;
120.9000;0.5950;3.4429;
121.2000;0.5975;3.4482;
121.5000;0.5926;3.4376;
121.8000;0.5942;3.4455;
122.1000;0.5991;3.4719;
122.4000;0.5983;3.4745;
122.7000;0.5910;3.4587;
123.0000;0.5853;3.4376;
123.3000;0.5877;3.4482;
123.6000;0.5918;3.4508;
123.9000;0.5910;3.4508;
124.2000;0.5926;3.4534;
124.5000;0.5942;3.4482;
124.8000;0.5950;3.4587;
125.1000;0.5942;3.4508;
125.4000;0.5918;3.4482;
125.7000;0.5958;3.4613;
126.0000;0.5942;3.4587;
126.3000;0.5934;3.4587;
126.6000;0.5918;3.4534;
126.9000;0.5853;3.4376;
127.2000;0.5942;3.4666;
127.5000;0.5942;3.4666;
127.8000;0.5934;3.4613;
128.1000;0.5942;3.4587;
128.4000;0.5942;3.4640;
128.7000;0.5902;3.4534;
129.0000;0.5934;3.4613;
129.3000;0.5958;3.4640;
129.6000;0.5934;3.4587;
129.9000;0.5950;3.4455;
130.2000;0.5958;3.4402;
130.5000;0.5942;3.4402;
130.8000;0.5934;3.4270;
131.1000;0.5934;3.4165;
131.4000;0.5942;3.4165;
131.7000;0.5942;3.4059;
132.0000;0.5942;3.4086;
132.3000;0.5942;3.4218;
132.6000;0.5958;3.4191;
132.9000;0.5942;3.4191;
133.2000;0.5950;3.4191;
133.5000;0.5918;3.4139;
133.8000;0.6015;3.4429;
134.1000;0.5958;3.4244;
134.4000;0.5958;3.4323;
134.7000;0.5942;3.4297;
135.0000;0.5934;3.4323;
135.3000;0.5967;3.4429;
135.6000;0.5902;3.4218;
135.9000;0.5918;3.4376;
136.2000;0.5942;3.4402;
136.5000;0.5950;3.4323;
136.8000;0.5967;3.4402;
137.1000;0.5950;3.4429;
137.4000;0.5918;3.4429;
137.7000;0.5918;3.4429;
138.0000;0.5942;3.4482;
138.3000;0.5942;3.4482;
138.6000;0.5958;3.4561;
138.9000;0.5934;3.4429;
139.2000;0.5950;3.4455;
139.5000;0.5958;3.4482;
139.8000;0.6040;3.4666;
140.1000;0.5934;3.4429;
140.4000;0.5910;3.4429;
140.7000;0.5967;3.4587;
141.0000;0.5958;3.4561;
141.3000;0.5942;3.4508;
141.6000;0.5877;3.4350;
141.9000;0.5934;3.4482;
142.2000;0.5942;3.4613;
142.5000;0.5934;3.4613;
142.8000;0.5934;3.4666;
143.1000;0.5934;3.4693;
143.4000;0.5926;3.4666;
143.7000;0.5893;3.4587;
144.0000;0.5910;3.4561;
144.3000;0.5934;3.4693;
144.6000;0.5910;3.4640;
144.9000;0.5934;3.4745;
145.2000;0.5950;3.4745;
145.5000;0.5934;3.4798;
145.8000;0.5991;3.4877;
146.1000;0.5958;3.4693;
146.4000;0.5934;3.4640;
146.7000;0.5942;3.4613;
147.0000;0.5910;3.4534;
147.3000;0.5861;3.4402;
147.6000;0.5958;3.4587;
147.9000;0.5942;3.4508;
148.2000;0.5926;3.4534;
148.5000;0.5893;3.4350;
148.8000;0.5934;3.4376;
149.1000;0.5910;3.4270;
149.4000;0.5926;3.4244;
149.7000;0.5836;3.4033;
150.0000;0.5934;3.4323;
150.3000;0.5958;3.4323;
150.6000;0.5942;3.4297;
150.9000;0.5934;3.4270;
151.2000;0.5926;3.4270;
151.5000;0.5958;3.4297;
151.8000;0.5950;3.4112;
152.1000;0.5934;3.4191;
152.4000;0.5926;3.4059;
152.7000;0.5942;3.4112;
153.0000;0.5942;3.4165;
153.3000;0.5934;3.4165;
153.6000;0.5950;3.4218;
153.9000;0.5950;3.4350;
154.2000;0.5950;3.4508;
154.5000;0.5950;3.4455;
154.8000;0.5942;3.4376;
155.1000;0.5958;3.4376;
155.4000;0.5958;3.4350;
155.7000;0.5958;3.4244;
156.0000;0.5942;3.4297;
156.3000;0.5950;3.4297;
156.6000;0.5950;3.4323;
156.9000;0.5934;3.4218;
157.2000;0.5934;3.4165;
157.5000;0.5836;3.3848;
157.8000;0.5942;3.4139;
158.1000;0.5934;3.4112;
158.4000;0.5926;3.4086;
158.7000;0.5926;3.4112;
159.0000;0.5942;3.4191;
159.3000;0.5926;3.4165;
159.6000;0.5893;3.4086;
159.9000;0.5934;3.4165;
160.2000;0.5942;3.4086;
160.5000;0.5942;3.4033;
160.8000;0.5942;3.4033;
161.1000;0.5926;3.4059;
161.4000;0.5942;3.4191;
161.7000;0.5942;3.4218;
162.0000;0.5926;3.4270;
162.3000;0.5910;3.4323;
162.6000;0.5934;3.4508;
162.9000;0.5942;3.4561;
163.2000;0.5934;3.4534;
163.5000;0.5926;3.4561;
163.8000;0.5902;3.4482;
164.1000;0.5942;3.4613;
164.4000;0.5926;3.4666;
164.7000;0.6056;3.5009;
165.0000;0.5918;3.4640;
165.3000;0.5950;3.4719;
165.6000;0.5893;3.4613;
165.9000;0.5926;3.4666;
166.2000;0.5918;3.4534;
166.5000;0.5926;3.4455;
166.8000;0.5934;3.4482;
167.1000;0.5918;3.4376;
167.4000;0.5942;3.4402;
167.7000;0.5926;3.4402;
168.0000;0.5942;3.4402;
168.3000;0.5942;3.4429;
168.6000;0.5942;3.4429;
168.9000;0.5893;3.4429;
169.2000;0.5918;3.4402;
169.5000;0.5910;3.4323;
169.8000;0.5869;3.4270;
170.1000;0.5926;3.4482;
170.4000;0.5926;3.4350;
170.7000;0.5926;3.4350;
171.0000;0.5934;3.4350;
171.3000;0.5934;3.4297;
171.6000;0.5934;3.4376;
171.9000;0.5942;3.4376;
172.2000;0.5885;3.4191;
172.5000;0.5926;3.4270;
172.8000;0.5950;3.4323;
173.1000;0.5950;3.4429;
173.4000;0.6015;3.4666;
173.7000;0.5934;3.4297;
174.0000;0.5942;3.4270;
174.3000;0.5934;3.4376;
174.6000;0.5934;3.4482;
174.9000;0.5926;3.4534;
175.2000;0.5942;3.4482;
175.5000;0.5942;3.4402;
175.8000;0.5958;3.4297;
176.1000;0.5942;3.4165;
176.4000;0.5942;3.4165;
176.7000;0.5934;3.4139;
177.0000;0.5926;3.4244;
177.3000;0.5958;3.4297;
177.6000;0.5918;3.4323;
177.9000;0.5950;3.4350;
178.2000;0.5958;3.4402;
178.5000;0.5950;3.4482;
178.8000;0.5926;3.4402;
179.1000;0.5902;3.4402;
179.4000;0.5926;3.4482;
179.7000;0.5902;3.4455;
180.0000;0.5926;3.4561;
180.3000;0.5934;3.4534;
180.6000;0.6024;3.4824;
180.9000;0.5926;3.4508;
181.2000;0.5967;3.4613;
181.5000;0.5958;3.4561;
181.8000;0.5934;3.4455;
182.1000;0.5942;3.4508;
182.4000;0.5934;3.4561;
182.7000;0.5934;3.4455;
183.0000;0.5902;3.4455;
183.3000;0.5918;3.4666;
183.6000;0.5942;3.4745;
183.9000;0.5893;3.4745;
184.2000;0.5918;3.4719;
184.5000;0.5942;3.4772;
184.8000;0.5934;3.4745;
185.1000;0.5918;3.4693;
185.4000;0.5926;3.4666;
185.7000;0.5934;3.4745;
186.0000;0.5853;3.4482;
186.3000;0.5967;3.4851;
186.6000;0.5926;3.4745;
186.9000;0.5934;3.4745;
187.2000;0.5926;3.4772;
187.5000;0.5934;3.4851;
187.8000;0.5918;3.4719;
188.1000;0.5934;3.4719;
188.4000;0.5885;3.4534;
188.7000;0.5926;3.4508;
189.0000;0.5926;3.4534;
189.3000;0.5926;3.4613;
189.6000;0.5926;3.4587;
189.9000;0.5926;3.4561;
190.2000;0.5926;3.4482;
190.5000;0.5950;3.4429;
190.8000;0.5942;3.4429;
191.1000;0.5967;3.4482;
191.4000;0.5942;3.4429;
191.7000;0.5950;3.4350;
192.0000;0.5950;3.4376;
192.3000;0.5950;3.4297;
192.6000;0.5926;3.4244;
192.9000;0.5934;3.4297;
193.2000;0.5950;3.4376;
193.5000;0.5934;3.4376;
193.8000;0.5926;3.4297;
194.1000;0.5934;3.4323;
194.4000;0.5942;3.4429;
194.7000;0.5958;3.4376;
195.0000;0.5942;3.4297;
195.3000;0.5926;3.4270;
195.6000;0.5999;3.4376;
195.9000;0.5934;3.4139;
196.2000;0.5926;3.4191;
196.5000;0.5934;3.4218;
196.8000;0.5918;3.4244;
197.1000;0.5926;3.4270;
197.4000;0.5983;3.4429;
197.7000;0.5934;3.4297;
198.0000;0.5845;3.4059;
198.3000;0.5942;3.4508;
198.6000;0.5934;3.4508;
198.9000;0.5934;3.4482;
199.2000;0.5934;3.4508;
199.5000;0.5902;3.4455;
199.8000;0.5926;3.4561;
200.1000;0.5918;3.4587;
200.4000;0.5942;3.4640;
200.7000;0.5910;3.4508;
201.0000;0.5918;3.4587;
201.3000;0.5918;3.4613;
201.6000;0.5910;3.4587;
201.9000;0.5983;3.4693;
202.2000;0.5926;3.4482;
202.5000;0.5926;3.4455;
202.8000;0.5950;3.4402;
203.1000;0.5942;3.4376;
203.4000;0.5942;3.4508;
203.7000;0.6032;3.4877;
204.0000;0.5902;3.4482;
204.3000;0.5934;3.4534;
204.6000;0.5902;3.4561;
204.9000;0.5893;3.4613;
205.2000;0.5918;3.4798;
205.5000;0.5918;3.4666;
205.8000;0.5910;3.4561;
206.1000;0.5926;3.4693;
206.4000;0.5910;3.4640;
206.7000;0.5918;3.4640;
207.0000;0.5910;3.4534;
207.3000;0.5967;3.4745;
207.6000;0.5999;3.4666;
207.9000;0.5942;3.4376;
208.2000;0.5926;3.4270;
208.5000;0.5918;3.4244;
208.8000;0.5926;3.4218;
209.1000;0.5934;3.4376;
209.4000;0.5926;3.4350;
209.7000;0.5918;3.4297;
210.0000;0.5983;3.4587;
210.3000;0.5942;3.4376;
210.6000;0.5910;3.4244;
210.9000;0.5918;3.4270;
211.2000;0.5926;3.4270;
211.5000;0.5934;3.4323;
211.8000;0.5934;3.4218;
212.1000;0.5926;3.4165;
212.4000;0.5934;3.4139;
212.7000;0.5926;3.4191;
213.0000;0.5942;3.4218;
213.3000;0.5934;3.4218;
213.6000;0.5918;3.4139;
213.9000;0.5950;3.4297;
214.2000;0.6015;3.4508;
214.5000;0.5910;3.4297;
214.8000;0.5950;3.4350;
215.1000;0.5942;3.4297;
215.4000;0.5934;3.4270;
215.7000;0.5918;3.4323;
216.0000;0.5918;3.4376;
216.3000;0.5934;3.4429;
216.6000;0.5934;3.4376;
216.9000;0.5918;3.4270;
217.2000;0.5942;3.4323;
217.5000;0.5934;3.4323;
217.8000;0.5910;3.4270;
218.1000;0.5910;3.4191;
218.4000;0.5910;3.4297;
218.7000;0.5934;3.4350;
219.0000;0.5934;3.4376;
219.3000;0.5926;3.4376;
219.6000;0.5950;3.4534;
219.9000;0.5918;3.4376;
220.2000;0.5910;3.4297;
220.5000;0.5902;3.4323;
220.8000;0.5926;3.4297;
221.1000;0.5918;3.4297;
221.4000;0.6032;3.4772;
221.7000;0.5926;3.4561;
222.0000;0.5926;3.4587;
222.3000;0.5910;3.4508;
222.6000;0.5926;3.4640;
222.9000;0.5942;3.4719;
223.2000;0.5942;3.4824;
223.5000;0.5934;3.4904;
223.8000;0.5902;3.4798;
224.1000;0.5942;3.4904;
224.4000;0.5926;3.4851;
224.7000;0.5958;3.4798;
225.0000;0.5902;3.4640;
225.3000;0.5918;3.4666;
225.6000;0.5926;3.4613;
225.9000;0.5918;3.4561;
226.2000;0.5902;3.4482;
226.5000;0.5885;3.4482;
226.8000;0.5918;3.4587;
227.1000;0.5893;3.4534;
227.4000;0.5942;3.4613;
227.7000;0.5950;3.4613;
228.0000;0.5926;3.4561;
228.3000;0.5918;3.4534;
228.6000;0.5926;3.4402;
228.9000;0.5910;3.4191;
229.2000;0.5926;3.4270;
229.5000;0.5950;3.4270;
229.8000;0.5934;3.4218;
230.1000;0.5934;3.4218;
230.4000;0.6040;3.4508;
230.7000;0.5934;3.4165;
231.0000;0.5999;3.4297;
231.3000;0.5910;3.4165;
231.6000;0.5926;3.4139;
231.9000;0.5942;3.4191;
232.2000;0.5934;3.4270;
232.5000;0.5926;3.4218;
232.8000;0.5934;3.4244;
233.1000;0.5934;3.4270;
233.4000;0.5926;3.4165;
233.7000;0.5893;3.4007;
234.0000;0.5812;3.3796;
234.3000;0.5918;3.4112;
234.6000;0.5934;3.4191;
234.9000;0.5942;3.4086;
235.2000;0.5918;3.3954;
235.5000;0.5902;3.3980;
235.8000;0.5934;3.4059;
236.1000;0.5926;3.4112;
236.4000;0.5926;3.4191;
236.7000;0.5918;3.4165;
237.0000;0.5942;3.4350;
237.3000;0.5885;3.4191;
237.6000;0.5934;3.4244;
237.9000;0.5934;3.4218;
238.2000;0.5926;3.4165;
238.5000;0.5926;3.4244;
238.8000;0.5934;3.4165;
239.1000;0.5967;3.4376;
239.4000;0.5926;3.4244;
239.7000;0.5942;3.4270;
240.0000;0.5902;3.4165;
240.3000;0.5902;3.4297;
240.6000;0.5918;3.4323;
240.9000;0.5918;3.4350;
241.2000;0.5967;3.4534;
241.5000;0.5902;3.4376;
241.8000;0.5893;3.4429;
242.1000;0.5877;3.4323;
242.4000;0.5910;3.4402;
242.7000;0.5926;3.4508;
243.0000;0.5902;3.4482;
243.3000;0.5902;3.4429;
243.6000;0.5926;3.4613;
243.9000;0.5918;3.4666;
244.2000;0.5918;3.4693;
244.5000;0.5918;3.4640;
244.8000;0.5926;3.4561;
245.1000;0.5902;3.4455;
245.4000;0.5885;3.4402;
245.7000;0.5910;3.4508;
246.0000;0.5918;3.4429;
246.3000;0.5910;3.4429;
246.6000;0.5918;3.4402;
246.9000;0.5836;3.4165;
247.2000;0.5918;3.4482;
247.5000;0.5910;3.4455;
247.8000;0.5910;3.4534;
248.1000;0.5910;3.4508;
248.4000;0.5918;3.4482;
248.7000;0.5934;3.4534;
249.0000;0.5934;3.4455;
249.3000;0.5918;3.4350;
249.6000;0.5918;3.4350;
249.9000;0.5934;3.4323;
250.2000;0.5942;3.4376;
250.5000;0.5934;3.4323;
250.8000;0.6056;3.4666;
251.1000;0.5926;3.4376;
251.4000;0.5902;3.4297;
251.7000;0.5918;3.4218;
252.0000;0.5934;3.4323;
252.3000;0.5918;3.4297;
252.6000;0.5942;3.4297;
252.9000;0.5942;3.4297;
253.2000;0.5942;3.4323;
253.5000;0.5999;3.4508;
253.8000;0.5950;3.4429;
254.1000;0.5934;3.4376;
254.4000;0.5926;3.4270;
254.7000;0.5934;3.4270;
255.0000;0.5950;3.4323;
255.3000;0.5975;3.4482;
255.6000;0.5926;3.4376;
255.9000;0.5926;3.4376;
256.2000;0.5910;3.4323;
256.5000;0.5910;3.4218;
256.8000;0.5926;3.4270;
257.1000;0.5902;3.4191;
257.4000;0.6007;3.4482;
257.7000;0.5934;3.4270;
258.0000;0.5910;3.4218;
258.3000;0.5942;3.4270;
258.6000;0.5942;3.4297;
258.9000;0.5934;3.4323;
259.2000;0.5958;3.4402;
259.5000;0.5877;3.4297;
259.8000;0.5902;3.4508;
260.1000;0.5934;3.4534;
260.4000;0.5926;3.4429;
260.7000;0.5918;3.4534;
261.0000;0.5910;3.4587;
261.3000;0.5926;3.4719;
261.6000;0.5926;3.4772;
261.9000;0.5885;3.4640;
262.2000;0.5918;3.4719;
262.5000;0.5942;3.4666;
262.8000;0.5893;3.4561;
263.1000;0.5893;3.4693;
263.4000;0.5926;3.4693;
263.7000;0.5845;3.4402;
264.0000;0.5934;3.4666;
264.3000;0.5958;3.4772;
264.6000;0.5893;3.4666;
264.9000;0.5934;3.4798;
265.2000;0.5918;3.4666;
265.5000;0.5918;3.4561;
265.8000;0.5910;3.4561;
266.1000;0.5942;3.4640;
266.4000;0.5942;3.4666;
266.7000;0.5926;3.4587;
267.0000;0.5934;3.4561;
267.3000;0.5942;3.4534;
267.6000;0.5918;3.4508;
267.9000;0.5910;3.4455;
268.2000;0.5910;3.4482;
268.5000;0.5983;3.4640;
268.8000;0.5910;3.4455;
269.1000;0.5918;3.4429;
269.4000;0.5934;3.4429;
269.7000;0.5918;3.4402;
270.0000;0.5926;3.4350;
270.3000;0.5950;3.4350;
270.6000;0.5942;3.4376;
270.9000;0.5910;3.4244;
271.2000;0.5926;3.4270;
271.5000;0.5958;3.4350;
271.8000;0.5902;3.4218;
272.1000;0.5918;3.4270;
272.4000;0.5934;3.4323;
272.7000;0.5934;3.4297;
273.0000;0.5926;3.4350;
273.3000;0.5934;3.4350;
273.6000;0.5983;3.4376;
273.9000;0.5926;3.4297;
274.2000;0.5942;3.4323;
274.5000;0.5918;3.4270;
274.8000;0.5934;3.4270;
275.1000;0.5983;3.4350;
275.4000;0.5942;3.4297;
275.7000;0.5926;3.4350;
276.0000;0.5918;3.4297;
276.3000;0.5918;3.4376;
276.6000;0.5942;3.4402;
276.9000;0.5934;3.4323;
277.2000;0.5926;3.4376;
277.5000;0.5918;3.4376;
277.8000;0.5926;3.4455;
278.1000;0.5918;3.4508;
278.4000;0.5926;3.4508;
278.7000;0.5869;3.4402;
279.0000;0.5926;3.4534;
279.3000;0.5942;3.4587;
279.6000;0.5918;3.4587;
279.9000;0.5926;3.4613;
280.2000;0.5869;3.4402;
280.5000;0.5950;3.4640;
280.8000;0.5910;3.4508;
281.1000;0.5918;3.4482;
281.4000;0.6007;3.4745;
281.7000;0.5926;3.4587;
282.0000;0.5910;3.4429;
282.3000;0.5934;3.4455;
282.6000;0.5902;3.4402;
282.9000;0.5910;3.4455;
283.2000;0.5918;3.4482;
283.5000;0.5910;3.4534;
283.8000;0.5885;3.4561;
284.1000;0.5910;3.4587;
284.4000;0.5942;3.4693;
284.7000;0.5918;3.4613;
285.0000;0.5902;3.4666;
285.3000;0.5893;3.4719;
285.6000;0.5902;3.4798;
285.9000;0.5926;3.4693;
286.2000;0.5910;3.4666;
286.5000;0.5910;3.4666;
286.8000;0.5918;3.4693;
287.1000;0.5942;3.4640;
287.4000;0.5910;3.4587;
287.7000;0.5902;3.4455;
288.0000;0.5918;3.4534;
288.3000;0.5918;3.4561;
288.6000;0.5926;3.4482;
288.9000;0.5910;3.4429;
289.2000;0.5918;3.4455;
289.5000;0.5918;3.4482;
289.8000;0.5918;3.4455;
290.1000;0.5926;3.4482;
290.4000;0.5926;3.4402;
290.7000;0.5910;3.4429;
291.0000;0.5910;3.4350;
291.3000;0.5918;3.4402;
291.6000;0.5926;3.4402;
291.9000;0.5958;3.4455;
292.2000;0.5950;3.4561;
292.5000;0.5812;3.4165;
292.8000;0.5918;3.4508;
293.1000;0.5942;3.4534;
293.4000;0.5934;3.4508;
293.7000;0.5926;3.4534;
294.0000;0.5926;3.4508;
294.3000;0.5902;3.4508;
294.6000;0.5950;3.4745;
294.9000;0.6056;3.4930;
295.2000;0.5934;3.4561;
295.5000;0.5942;3.4587;
295.8000;0.5926;3.4534;
296.1000;0.5918;3.4455;
296.4000;0.5926;3.4482;
296.7000;0.5918;3.4587;
297.0000;0.5934;3.4561;
297.3000;0.5918;3.4455;
297.6000;0.5967;3.4587;
297.9000;0.5910;3.4429;
298.2000;0.5942;3.4534;
298.5000;0.5918;3.4587;
298.8000;0.5918;3.4613;
299.1000;0.5950;3.4719;
299.4000;0.5918;3.4640;
299.7000;0.5934;3.4719;
300.0000;0.5934;3.4693;
300.3000;0.5934;3.4587;
300.6000;0.5845;3.4376;
300.9000;0.5910;3.4534;
301.2000;0.5820;3.4270;
301.5000;0.5885;3.4508;
301.8000;0.5902;3.4587;
302.1000;0.5910;3.4719;
302.4000;0.5902;3.4693;
302.7000;0.5861;3.4613;
303.0000;0.5893;3.4719;
303.3000;0.5845;3.4640;
303.6000;0.5893;3.4772;
303.9000;0.5902;3.4772;
304.2000;0.5893;3.4745;
304.5000;0.5902;3.4719;
304.8000;0.5918;3.4824;
305.1000;0.5910;3.4851;
305.4000;0.5918;3.4904;
305.7000;0.5918;3.4930;
306.0000;0.5918;3.4930;
306.3000;0.5910;3.5036;
306.6000;0.5926;3.4983;
306.9000;0.5926;3.5009;
307.2000;0.5934;3.4983;
307.5000;0.5950;3.5036;
307.8000;0.5926;3.4798;
308.1000;0.5910;3.4693;
308.4000;0.5926;3.4640;
308.7000;0.5918;3.4666;
309.0000;0.5918;3.4640;
309.3000;0.5910;3.4534;
309.6000;0.5926;3.4482;
309.9000;0.5869;3.4429;
310.2000;0.5853;3.4297;
310.5000;0.5934;3.4429;
310.8000;0.5926;3.4455;
311.1000;0.5926;3.4508;
311.4000;0.5934;3.4482;
311.7000;0.5950;3.4455;
312.0000;0.5942;3.4508;
312.3000;0.5918;3.4508;
312.6000;0.5926;3.4455;
312.9000;0.5885;3.4218;
313.2000;0.5918;3.4297;
313.5000;0.5836;3.3980;
313.8000;0.5926;3.4244;
314.1000;0.5926;3.4244;
314.4000;0.5942;3.4323;
314.7000;0.5926;3.4191;
315.0000;0.5942;3.4323;
315.3000;0.5918;3.4270;
315.6000;0.5926;3.4297;
315.9000;0.5910;3.4244;
316.2000;0.5926;3.4297;
316.5000;0.5942;3.4297;
316.8000;0.5934;3.4244;
317.1000;0.5918;3.4297;
317.4000;0.5926;3.4429;
317.7000;0.5910;3.4402;
318.0000;0.5926;3.4376;
318.3000;0.5910;3.4350;
318.6000;0.5918;3.4350;
318.9000;0.5934;3.4429;
319.2000;0.5918;3.4455;
319.5000;0.5902;3.4534;
319.8000;0.5918;3.4482;
320.1000;0.5926;3.4482;
320.4000;0.5902;3.4402;
320.7000;0.5910;3.4455;
321.0000;0.5910;3.4613;
321.3000;0.5926;3.4798;
321.6000;0.5861;3.4534;
321.9000;0.5902;3.4666;
322.2000;0.5893;3.4693;
322.5000;0.5918;3.4613;
322.8000;0.5918;3.4666;
323.1000;0.5885;3.4534;
323.4000;0.5910;3.4693;
323.7000;0.5910;3.4693;
324.0000;0.5861;3.4561;
324.3000;0.5893;3.4587;
324.6000;0.5902;3.4561;
324.9000;0.5893;3.4666;
325.2000;0.5902;3.4745;
325.5000;0.5926;3.4798;
325.8000;0.5877;3.4824;
326.1000;0.5926;3.4904;
326.4000;0.5910;3.4904;
326.7000;0.5902;3.4824;
327.0000;0.5910;3.4824;
327.3000;0.5910;3.4851;
327.6000;0.5910;3.4693;
327.9000;0.5893;3.4561;
328.2000;0.5918;3.4640;
328.5000;0.5893;3.4482;
328.8000;0.5885;3.4482;
329.1000;0.5918;3.4561;
329.4000;0.5902;3.4482;
329.7000;0.5999;3.4719;
330.0000;0.5918;3.4429;
330.3000;0.5885;3.4376;
330.6000;0.5926;3.4455;
330.9000;0.5918;3.4482;
331.2000;0.5942;3.4587;
331.5000;0.5918;3.4587;
331.8000;0.5910;3.4482;
332.1000;0.5893;3.4376;
332.4000;0.5918;3.4455;
332.7000;0.5926;3.4508;
333.0000;0.5942;3.4640;
333.3000;0.5934;3.4613;
333.6000;0.5942;3.4640;
333.9000;0.5918;3.4561;
334.2000;0.5910;3.4587;
334.5000;0.5836;3.4350;
334.8000;0.6024;3.4798;
335.1000;0.5836;3.4244;
335.4000;0.5942;3.4455;
335.7000;0.5934;3.4455;
336.0000;0.5926;3.4350;
336.3000;0.6056;3.4745;
336.6000;0.6007;3.4666;
336.9000;0.5902;3.4350;
337.2000;0.5918;3.4350;
337.5000;0.5885;3.4165;
337.8000;0.5942;3.4323;
338.1000;0.5918;3.4244;
338.4000;0.5910;3.4244;
338.7000;0.5918;3.4297;
339.0000;0.5926;3.4350;
339.3000;0.5893;3.4350;
339.6000;0.5910;3.4482;
339.9000;0.5942;3.4508;
340.2000;0.5902;3.4455;
340.5000;0.5918;3.4613;
340.8000;0.5967;3.4824;
341.1000;0.5918;3.4640;
341.4000;0.5934;3.4772;
341.7000;0.5934;3.4798;
342.0000;0.5910;3.4719;
342.3000;0.5910;3.4798;
342.6000;0.5918;3.4851;
342.9000;0.5926;3.4877;
343.2000;0.5926;3.4983;
343.5000;0.5902;3.4983;
343.8000;0.5893;3.5062;
344.1000;0.5926;3.5141;
344.4000;0.5918;3.5088;
344.7000;0.5885;3.4930;
345.0000;0.5869;3.4877;
345.3000;0.5877;3.4956;
345.6000;0.5885;3.4851;
345.9000;0.5877;3.4877;
346.2000;0.5950;3.5009;
346.5000;0.5885;3.4904;
346.8000;0.5902;3.4877;
347.1000;0.5926;3.4772;
347.4000;0.5950;3.4693;
347.7000;0.5926;3.4587;
348.0000;0.5926;3.4613;
348.3000;0.5902;3.4482;
348.6000;0.5910;3.4508;
348.9000;0.6024;3.4824;
349.2000;0.5942;3.4587;
349.5000;0.5958;3.4534;
349.8000;0.5942;3.4402;
350.1000;0.5902;3.4244;
350.4000;0.5885;3.4165;
350.7000;0.6032;3.4587;
351.0000;0.5910;3.4218;
351.3000;0.5918;3.4218;
351.6000;0.5893;3.4191;
351.9000;0.5910;3.4244;
352.2000;0.5926;3.4244;
352.5000;0.5926;3.4244;
352.8000;0.5958;3.4323;
353.1000;0.5910;3.4323;
353.4000;0.5910;3.4376;
353.7000;0.5918;3.4350;
354.0000;0.5926;3.4323;
354.3000;0.5942;3.4323;
354.6000;0.5918;3.4350;
354.9000;0.5950;3.4455;
355.2000;0.5918;3.4297;
355.5000;0.6048;3.4613;
355.8000;0.5910;3.4244;
356.1000;0.5902;3.4218;
356.4000;0.5902;3.4218;
356.7000;0.5926;3.4165;
357.0000;0.5926;3.4191;
357.3000;0.5975;3.4482;
357.6000;0.5934;3.4376;
357.9000;0.5902;3.4270;
358.2000;0.5934;3.4350;
358.5000;0.5861;3.4218;
358.8000;0.5796;3.4007;
359.1000;0.5918;3.4429;
359.4000;0.5902;3.4482;
359.7000;0.5902;3.4455;
360.0000;0.5893;3.4508;
360.3000;0.6024;3.4877;
360.6000;0.5902;3.4482;
360.9000;0.5983;3.4613;
361.2000;0.5910;3.4508;
361.5000;0.5942;3.4613;
361.8000;0.5910;3.4482;
362.1000;0.5918;3.4561;
362.4000;0.5918;3.4693;
362.7000;0.5910;3.4640;
363.0000;0.5918;3.4640;
363.3000;0.5902;3.4693;
363.6000;0.5910;3.4640;
363.9000;0.5902;3.4587;
364.2000;0.5893;3.4587;
364.5000;0.5918;3.4666;
364.8000;0.5836;3.4455;
365.1000;0.5893;3.4640;
365.4000;0.5918;3.4666;
365.7000;0.5893;3.4666;
366.0000;0.5918;3.4640;
366.3000;0.5918;3.4587;
366.6000;0.5918;3.4508;
366.9000;0.5902;3.4429;
367.2000;0.5926;3.4350;
367.5000;0.5918;3.4402;
367.8000;0.5902;3.4376;
368.1000;0.5950;3.4376;
368.4000;0.5918;3.4350;
368.7000;0.5918;3.4350;
369.0000;0.5885;3.4139;
369.3000;0.5902;3.4244;
369.6000;0.5902;3.4244;
369.9000;0.5910;3.4323;
370.2000;0.5893;3.4244;
370.5000;0.5853;3.4165;
370.8000;0.5885;3.4244;
371.1000;0.5788;3.3822;
371.4000;0.5902;3.4112;
371.7000;0.5918;3.4086;
372.0000;0.5942;3.4165;
372.3000;0.5942;3.4086;
372.6000;0.5926;3.4112;
372.9000;0.5918;3.4112;
373.2000;0.5910;3.4139;
373.5000;0.5910;3.4139;
373.8000;0.5918;3.4086;
374.1000;0.5910;3.4112;
374.4000;0.5902;3.4086;
374.7000;0.5934;3.4139;
375.0000;0.5942;3.4191;
375.3000;0.5999;3.4297;
375.6000;0.5918;3.4059;
375.9000;0.5918;3.4007;
376.2000;0.5926;3.4059;
376.5000;0.5975;3.4218;
376.8000;0.5902;3.4033;
377.1000;0.5926;3.4112;
377.4000;0.5820;3.3901;
377.7000;0.5926;3.4218;
378.0000;0.5926;3.4270;
378.3000;0.5926;3.4139;
378.6000;0.5926;3.4112;
378.9000;0.5934;3.4165;
379.2000;0.5926;3.4191;
379.5000;0.5934;3.4270;
379.8000;0.5918;3.4270;
380.1000;0.5902;3.4244;
380.4000;0.5893;3.4270;
380.7000;0.5918;3.4429;
381.0000;0.5893;3.4508;
381.3000;0.5918;3.4482;
381.6000;0.5910;3.4350;
381.9000;0.5902;3.4244;
382.2000;0.5902;3.4350;
382.5000;0.5885;3.4482;
382.8000;0.5910;3.4508;
383.1000;0.5845;3.4429;
383.4000;0.5893;3.4587;
383.7000;0.5885;3.4587;
384.0000;0.5885;3.4534;
384.3000;0.5885;3.4482;
384.6000;0.5885;3.4455;
384.9000;0.5902;3.4508;
385.2000;0.5893;3.4534;
385.5000;0.5942;3.4613;
385.8000;0.5885;3.4482;
386.1000;0.5910;3.4534;
386.4000;0.5902;3.4534;
386.7000;0.5885;3.4534;
387.0000;0.5893;3.4561;
387.3000;0.5902;3.4561;
387.6000;0.5934;3.4561;
387.9000;0.5885;3.4402;
388.2000;0.5910;3.4455;
388.5000;0.5918;3.4455;
388.8000;0.5910;3.4429;
389.1000;0.5910;3.4270;
389.4000;0.5893;3.4323;
389.7000;0.5918;3.4297;
390.0000;0.5910;3.4270;
390.3000;0.5902;3.4165;
390.6000;0.5893;3.4112;
390.9000;0.5926;3.4165;
391.2000;0.5918;3.4139;
391.5000;0.5918;3.4086;
391.8000;0.5918;3.4112;
392.1000;0.5991;3.4350;
392.4000;0.5902;3.4218;
392.7000;0.5869;3.4218;
393.0000;0.5975;3.4534;
393.3000;0.5918;3.4376;
393.6000;0.5902;3.4323;
393.9000;0.5893;3.4244;
394.2000;0.5934;3.4244;
394.5000;0.5983;3.4429;
394.8000;0.5902;3.4218;
395.1000;0.5869;3.4112;
395.4000;0.5910;3.4297;
395.7000;0.5869;3.4165;
396.0000;0.5910;3.4270;
396.3000;0.5902;3.4350;
396.6000;0.5934;3.4297;
396.9000;0.5902;3.4191;
397.2000;0.5836;3.4112;
397.5000;0.5910;3.4244;
397.8000;0.5885;3.4218;
398.1000;0.5910;3.4350;
398.4000;0.5910;3.4350;
398.7000;0.5910;3.4323;
399.0000;0.5910;3.4350;
399.3000;0.5885;3.4376;
399.6000;0.5902;3.4482;
399.9000;0.5893;3.4455;
400.2000;0.5893;3.4508;
400.5000;0.5877;3.4508;
400.8000;0.5853;3.4429;
401.1000;0.5885;3.4613;
401.4000;0.5893;3.4693;
401.7000;0.5885;3.4693;
402.0000;0.5885;3.4693;
402.3000;0.5853;3.4613;
402.6000;0.5893;3.4824;
402.9000;0.5910;3.4824;
403.2000;0.5902;3.4851;
403.5000;0.5902;3.4956;
403.8000;0.5885;3.4930;
404.1000;0.5910;3.4904;
404.4000;0.5893;3.4824;
404.7000;0.5918;3.4798;
405.0000;0.5902;3.4824;
405.3000;0.5902;3.4693;
405.6000;0.5926;3.4798;
405.9000;0.5918;3.4772;
406.2000;0.5926;3.4798;
406.5000;0.5885;3.4640;
406.8000;0.5845;3.4482;
407.1000;0.5893;3.4429;
407.4000;0.5893;3.4323;
407.7000;0.5910;3.4455;
408.0000;0.5893;3.4350;
408.3000;0.5893;3.4429;
408.6000;0.5934;3.4534;
408.9000;0.5885;3.4455;
409.2000;0.5885;3.4350;
409.5000;0.5910;3.4402;
409.8000;0.5910;3.4350;
410.1000;0.5902;3.4297;
410.4000;0.5902;3.4376;
410.7000;0.5918;3.4350;
411.0000;0.5910;3.4350;
411.3000;0.5893;3.4323;
411.6000;0.5910;3.4429;
411.9000;0.5902;3.4402;
412.2000;0.5910;3.4402;
412.5000;0.5902;3.4297;
412.8000;0.5828;3.3980;
413.1000;0.5918;3.4297;
413.4000;0.5942;3.4429;
413.7000;0.6072;3.4772;
414.0000;0.5983;3.4482;
414.3000;0.5910;3.4323;
414.6000;0.5926;3.4402;
414.9000;0.5918;3.4270;
415.2000;0.5893;3.4297;
415.5000;0.5877;3.4244;
415.8000;0.5910;3.4270;
416.1000;0.5918;3.4350;
416.4000;0.5918;3.4323;
416.7000;0.5926;3.4376;
417.0000;0.5918;3.4376;
417.3000;0.5926;3.4402;
417.6000;0.5902;3.4402;
417.9000;0.5926;3.4429;
418.2000;0.5918;3.4429;
418.5000;0.5926;3.4455;
418.8000;0.5918;3.4429;
419.1000;0.5845;3.4191;
419.4000;0.5902;3.4297;
419.7000;0.5893;3.4297;
420.0000;0.5926;3.4402;
420.3000;0.5885;3.4402;
420.6000;0.5902;3.4429;
420.9000;0.5885;3.4350;
421.2000;0.5902;3.4429;
421.5000;0.5893;3.4482;
421.8000;0.5918;3.4508;
422.1000;0.5902;3.4508;
422.4000;0.5902;3.4508;
422.7000;0.5885;3.4455;
423.0000;0.5893;3.4534;
423.3000;0.5885;3.4613;
423.6000;0.5893;3.4772;
423.9000;0.5885;3.4745;
424.2000;0.5877;3.4719;
424.5000;0.5861;3.4561;
424.8000;0.5893;3.4613;
425.1000;0.5885;3.4587;
425.4000;0.5893;3.4587;
425.7000;0.5902;3.4587;
426.0000;0.5893;3.4534;
426.3000;0.5918;3.4666;
426.6000;0.5910;3.4534;
426.9000;0.5885;3.4482;
427.2000;0.5902;3.4508;
427.5000;0.5918;3.4508;
427.8000;0.5893;3.4429;
428.1000;0.5910;3.4455;
428.4000;0.5885;3.4508;
428.7000;0.5910;3.4482;
429.0000;0.5853;3.4270;
429.3000;0.5893;3.4376;
429.6000;0.5910;3.4323;
429.9000;0.5926;3.4270;
430.2000;0.5902;3.4191;
430.5000;0.5877;3.4059;
430.8000;0.5893;3.4165;
431.1000;0.5918;3.4323;
431.4000;0.5893;3.4323;
431.7000;0.5910;3.4270;
432.0000;0.5918;3.4218;
432.3000;0.5910;3.4350;
432.6000;0.5910;3.4270;
432.9000;0.5885;3.4191;
433.2000;0.5910;3.4191;
433.5000;0.5902;3.4191;
433.8000;0.5869;3.4218;
434.1000;0.5926;3.4376;
434.4000;0.5910;3.4376;
434.7000;0.5926;3.4350;
435.0000;0.5926;3.4323;
435.3000;0.5926;3.4270;
435.6000;0.5902;3.4350;
435.9000;0.5877;3.4350;
436.2000;0.5910;3.4429;
436.5000;0.5910;3.4508;
436.8000;0.5885;3.4429;
437.1000;0.5885;3.4350;
437.4000;0.5893;3.4376;
437.7000;0.5910;3.4402;
438.0000;0.5918;3.4429;
438.3000;0.5893;3.4455;
438.6000;0.5902;3.4350;
438.9000;0.5918;3.4350;
439.2000;0.5902;3.4350;
439.5000;0.5918;3.4350;
439.8000;0.5902;3.4323;
440.1000;0.5934;3.4482;
440.4000;0.5918;3.4455;
440.7000;0.5893;3.4429;
441.0000;0.5926;3.4534;
441.3000;0.5893;3.4508;
441.6000;0.5902;3.4402;
441.9000;0.5861;3.4376;
442.2000;0.5902;3.4482;
442.5000;0.5902;3.4666;
442.8000;0.5902;3.4587;
443.1000;0.5885;3.4587;
443.4000;0.5999;3.4904;
443.7000;0.5902;3.4587;
444.0000;0.5869;3.4482;
444.3000;0.5885;3.4455;
444.6000;0.5861;3.4376;
444.9000;0.5893;3.4376;
445.2000;0.5893;3.4482;
445.5000;0.5902;3.4455;
445.8000;0.5950;3.4613;
446.1000;0.5893;3.4402;
446.4000;0.5893;3.4429;
446.7000;0.5918;3.4508;
447.0000;0.5910;3.4561;
447.3000;0.5885;3.4455;
447.6000;0.5885;3.4482;
447.9000;0.5918;3.4587;
448.2000;0.5902;3.4534;
448.5000;0.5893;3.4455;
448.8000;0.5885;3.4350;
449.1000;0.5918;3.4376;
449.4000;0.5918;3.4323;
449.7000;0.5885;3.4270;
450.0000;0.5926;3.4297;
450.3000;0.5967;3.4376;
450.6000;0.5902;3.4244;
450.9000;0.5918;3.4297;
451.2000;0.5893;3.4244;
451.5000;0.5926;3.4297;
451.8000;0.5893;3.4244;
452.1000;0.5885;3.4191;
452.4000;0.5910;3.4270;
452.7000;0.5893;3.4350;
453.0000;0.5869;3.4218;
453.3000;0.5861;3.4165;
453.6000;0.5877;3.4350;
453.9000;0.5893;3.4402;
454.2000;0.5902;3.4323;
454.5000;0.5910;3.4244;
454.8000;0.5926;3.4165;
455.1000;0.5869;3.4086;
455.4000;0.5910;3.4165;
455.7000;0.5934;3.4297;
456.0000;0.5902;3.4244;
456.3000;0.5918;3.4244;
456.6000;0.5902;3.4191;
456.9000;0.5902;3.4244;
457.2000;0.5910;3.4297;
457.5000;0.5869;3.4191;
457.8000;0.5893;3.4191;
458.1000;0.5902;3.4270;
458.4000;0.5918;3.4323;
458.7000;0.5910;3.4323;
459.0000;0.5893;3.4270;
459.3000;0.5910;3.4376;
459.6000;0.5893;3.4376;
459.9000;0.5902;3.4455;
460.2000;0.5893;3.4429;
460.5000;0.5902;3.4429;
460.8000;0.5926;3.4482;
461.1000;0.5902;3.4429;
461.4000;0.5877;3.4402;
461.7000;0.5902;3.4482;
462.0000;0.5902;3.4508;
462.3000;0.5918;3.4613;
462.6000;0.5885;3.4587;
462.9000;0.5877;3.4613;
463.2000;0.5893;3.4640;
463.5000;0.5902;3.4613;
463.8000;0.5902;3.4561;
464.1000;0.5869;3.4613;
464.4000;0.5877;3.4613;
464.7000;0.5902;3.4640;
465.0000;0.5910;3.4719;
465.3000;0.5910;3.4798;
465.6000;0.5893;3.4772;
465.9000;0.5893;3.4745;
466.2000;0.5893;3.4640;
466.5000;0.5893;3.4666;
466.8000;0.5902;3.4640;
467.1000;0.5942;3.4772;
467.4000;0.5885;3.4508;
467.7000;0.5812;3.4165;
468.0000;0.5950;3.4666;
468.3000;0.5902;3.4508;
468.6000;0.5885;3.4402;
468.9000;0.5885;3.4350;
469.2000;0.5869;3.4270;
469.5000;0.5853;3.4165;
469.8000;0.5942;3.4323;
470.1000;0.5885;3.4218;
470.4000;0.5910;3.4244;
470.7000;0.5910;3.4270;
471.0000;0.5902;3.4218;
471.3000;0.5910;3.4165;
471.6000;0.5893;3.4191;
471.9000;0.5910;3.4270;
472.2000;0.5910;3.4323;
472.5000;0.5885;3.4244;
472.8000;0.5910;3.4218;
473.1000;0.5893;3.4244;
473.4000;0.5885;3.4112;
473.7000;0.5918;3.4139;
474.0000;0.5893;3.4059;
474.3000;0.5861;3.4007;
474.6000;0.5902;3.4191;
474.9000;0.5902;3.4191;
475.2000;0.5910;3.4244;
475.5000;0.5893;3.4323;
475.8000;0.5902;3.4350;
476.1000;0.5926;3.4429;
476.4000;0.5885;3.4350;
476.7000;0.5877;3.4323;
477.0000;0.5910;3.4376;
477.3000;0.5885;3.4323;
477.6000;0.5877;3.4218;
477.9000;0.5910;3.4297;
478.2000;0.5885;3.4323;
478.5000;0.5885;3.4402;
478.8000;0.5902;3.4376;
479.1000;0.5893;3.4323;
479.4000;0.5877;3.4429;
479.7000;0.5893;3.4482;
480.0000;0.5893;3.4482;
480.3000;0.5877;3.4455;
480.6000;0.5893;3.4376;
480.9000;0.5893;3.4402;
481.2000;0.5910;3.4508;
481.5000;0.5893;3.4482;
481.8000;0.5926;3.4772;
482.1000;0.5893;3.4851;
482.4000;0.5869;3.4719;
482.7000;0.5885;3.4798;
483.0000;0.5828;3.4693;
483.3000;0.5877;3.4693;
483.6000;0.5877;3.4719;
483.9000;0.5877;3.4719;
484.2000;0.5861;3.4719;
484.5000;0.5869;3.4772;
484.8000;0.5902;3.4904;
485.1000;0.5861;3.4798;
485.4000;0.5877;3.4798;
485.7000;0.5902;3.4824;
486.0000;0.5893;3.4824;
486.3000;0.5902;3.4851;
486.6000;0.5926;3.4877;
486.9000;0.5902;3.4719;
487.2000;0.5828;3.4455;
487.5000;0.5910;3.4587;
487.8000;0.5885;3.4455;
488.1000;0.5771;3.4033;
488.4000;0.5869;3.4323;
488.7000;0.5893;3.4429;
489.0000;0.5893;3.4350;
489.3000;0.5918;3.4376;
489.6000;0.5893;3.4350;
489.9000;0.5926;3.4429;
490.2000;0.5902;3.4429;
490.5000;0.5893;3.4482;
490.8000;0.5902;3.4482;
491.1000;0.5983;3.4613;
491.4000;0.5950;3.4561;
491.7000;0.5902;3.4429;
492.0000;0.5893;3.4402;
492.3000;0.5902;3.4350;
492.6000;0.5902;3.4297;
492.9000;0.5902;3.4350;
493.2000;0.5902;3.4376;
493.5000;0.5902;3.4376;
493.8000;0.5902;3.4429;
494.1000;0.5918;3.4376;
494.4000;0.5885;3.4297;
494.7000;0.5910;3.4402;
495.0000;0.5910;3.4429;
495.3000;0.5885;3.4270;
495.6000;0.5902;3.4350;
495.9000;0.5902;3.4376;
496.2000;0.5918;3.4455;
496.5000;0.5918;3.4508;
496.8000;0.5910;3.4402;
497.1000;0.5926;3.4376;
497.4000;0.5918;3.4376;
497.7000;0.5934;3.4482;
498.0000;0.5991;3.4666;
498.3000;0.5910;3.4455;
498.6000;0.5893;3.4429;
498.9000;0.5893;3.4482;
499.2000;0.5902;3.4455;
499.5000;0.5926;3.4508;
499.8000;0.5877;3.4270;
500.1000;0.5877;3.4218;
500.4000;0.5893;3.4270;
500.7000;0.5885;3.4244;
501.0000;0.5877;3.4350;
501.3000;0.5885;3.4429;
501.6000;0.6032;3.4798;
501.9000;0.5893;3.4455;
502.2000;0.5885;3.4455;
502.5000;0.5902;3.4587;
502.8000;0.5893;3.4587;
503.1000;0.5861;3.4719;
503.4000;0.5861;3.4719;
503.7000;0.5853;3.4745;
504.0000;0.5885;3.4772;
504.3000;0.5869;3.4745;
504.6000;0.5877;3.4798;
504.9000;0.5877;3.4772;
505.2000;0.5853;3.4613;
505.5000;0.5869;3.4561;
505.8000;0.5950;3.4745;
506.1000;0.5893;3.4613;
506.4000;0.5877;3.4482;
506.7000;0.5893;3.4482;
507.0000;0.5893;3.4613;
507.3000;0.5885;3.4534;
507.6000;0.5877;3.4587;
507.9000;0.5910;3.4561;
508.2000;0.5926;3.4561;
508.5000;0.5902;3.4561;
508.8000;0.5893;3.4482;
509.1000;0.5934;3.4534;
509.4000;0.5910;3.4534;
509.7000;0.5893;3.4455;
510.0000;0.5877;3.4508;
510.3000;0.5885;3.4508;
510.6000;0.5877;3.4376;
510.9000;0.5926;3.4482;
511.2000;0.5853;3.4218;
511.5000;0.5902;3.4429;
511.8000;0.5869;3.4323;
512.1000;0.5942;3.4482;
512.4000;0.5893;3.4376;
512.7000;0.5918;3.4455;
513.0000;0.5934;3.4508;
513.3000;0.5893;3.4402;
513.6000;0.5893;3.4402;
513.9000;0.5893;3.4429;
514.2000;0.5902;3.4376;
514.5000;0.5910;3.4323;
514.8000;0.5918;3.4323;
515.1000;0.5885;3.4297;
515.4000;0.5910;3.4402;
515.7000;0.5942;3.4587;
516.0000;0.5918;3.4376;
516.3000;0.5918;3.4402;
516.6000;0.5902;3.4323;
516.9000;0.5902;3.4270;
517.2000;0.5902;3.4323;
517.5000;0.5934;3.4429;
517.8000;0.5902;3.4402;
518.1000;0.5893;3.4297;
518.4000;0.5869;3.4165;
518.7000;0.5885;3.4376;
519.0000;0.5902;3.4455;
519.3000;0.5885;3.4376;
519.6000;0.5893;3.4350;
519.9000;0.5958;3.4508;
520.2000;0.5877;3.4244;
520.5000;0.5885;3.4350;
520.8000;0.5910;3.4429;
521.1000;0.5885;3.4323;
521.4000;0.5869;3.4376;
521.7000;0.5893;3.4534;
522.0000;0.5893;3.4482;
522.3000;0.5902;3.4587;
522.6000;0.5902;3.4640;
522.9000;0.5885;3.4640;
523.2000;0.5869;3.4613;
523.5000;0.5861;3.4613;
523.8000;0.5869;3.4693;
524.1000;0.5885;3.4666;
524.4000;0.5893;3.4640;
524.7000;0.5877;3.4561;
525.0000;0.5861;3.4508;
525.3000;0.5877;3.4534;
525.6000;0.5893;3.4587;
525.9000;0.5845;3.4508;
526.2000;0.5893;3.4745;
526.5000;0.5788;3.4561;
526.8000;0.5885;3.4561;
527.1000;0.5885;3.4534;
527.4000;0.5845;3.4350;
527.7000;0.5893;3.4376;
528.0000;0.5877;3.4350;
528.3000;0.5877;3.4350;
528.6000;0.5902;3.4482;
528.9000;0.5877;3.4350;
529.2000;0.5861;3.4218;
529.5000;0.5885;3.4244;
529.8000;0.5804;3.4059;
530.1000;0.5885;3.4244;
530.4000;0.5885;3.4244;
530.7000;0.5877;3.4244;
531.0000;0.5877;3.4218;
531.3000;0.5885;3.4191;
531.6000;0.5885;3.4244;
531.9000;0.5885;3.4139;
532.2000;0.5893;3.4139;
532.5000;0.5902;3.4139;
532.8000;0.5893;3.4191;
533.1000;0.5885;3.4165;
533.4000;0.5893;3.4191;
533.7000;0.5910;3.4218;
534.0000;0.5877;3.4165;
534.3000;0.5902;3.4323;
534.6000;0.5893;3.4323;
534.9000;0.5918;3.4350;
535.2000;0.5910;3.4297;
535.5000;0.5869;3.4270;
535.8000;0.5885;3.4270;
536.1000;0.5902;3.4191;
536.4000;0.5885;3.4165;
536.7000;0.5885;3.4139;
537.0000;0.5779;3.3848;
537.3000;0.5828;3.4059;
537.6000;0.5910;3.4297;
537.9000;0.5820;3.4112;
538.2000;0.5902;3.4323;
538.5000;0.5910;3.4455;
538.8000;0.5885;3.4350;
539.1000;0.5885;3.4402;
539.4000;0.5885;3.4350;
539.7000;0.6015;3.4693;
540.0000;0.6015;3.4693;
540.3000;0.5902;3.4244;
540.6000;0.5893;3.4270;
540.9000;0.5853;3.4165;
541.2000;0.5910;3.4350;
541.5000;0.5836;3.4139;
541.8000;0.5934;3.4402;
542.1000;0.5885;3.4297;
542.4000;0.5877;3.4402;
542.7000;0.5877;3.4429;
543.0000;0.5893;3.4561;
543.3000;0.5869;3.4561;
543.6000;0.5869;3.4745;
543.9000;0.5853;3.4666;
544.2000;0.5910;3.4798;
544.5000;0.5877;3.4824;
544.8000;0.5885;3.4772;
545.1000;0.5861;3.4719;
545.4000;0.5861;3.4666;
545.7000;0.5877;3.4640;
546.0000;0.5902;3.4693;
546.3000;0.5877;3.4508;
546.6000;0.5893;3.4561;
546.9000;0.5885;3.4587;
547.2000;0.5845;3.4402;
547.5000;0.5918;3.4534;
547.8000;0.5877;3.4402;
548.1000;0.5926;3.4455;
548.4000;0.5885;3.4270;
548.7000;0.5910;3.4350;
549.0000;0.5893;3.4270;
549.3000;0.5877;3.4218;
549.6000;0.5869;3.4218;
549.9000;0.5877;3.4297;
550.2000;0.5885;3.4323;
550.5000;0.5893;3.4270;
550.8000;0.5836;3.4112;
551.1000;0.6015;3.4587;
551.4000;0.5893;3.4218;
551.7000;0.5893;3.4191;
552.0000;0.5893;3.4218;
552.3000;0.5877;3.4218;
552.6000;0.5910;3.4297;
552.9000;0.5877;3.4270;
553.2000;0.5893;3.4323;
553.5000;0.5869;3.4218;
553.8000;0.5877;3.4270;
554.1000;0.5877;3.4323;
554.4000;0.5885;3.4270;
554.7000;0.5893;3.4297;
555.0000;0.5869;3.4376;
555.3000;0.5877;3.4323;
555.6000;0.5910;3.4429;
555.9000;0.5893;3.4455;
556.2000;0.5877;3.4297;
556.5000;0.5902;3.4323;
556.8000;0.5893;3.4323;
557.1000;0.5893;3.4323;
557.4000;0.5893;3.4270;
557.7000;0.5902;3.4350;
558.0000;0.5869;3.4218;
558.3000;0.5902;3.4323;
558.6000;0.5877;3.4218;
558.9000;0.5902;3.4270;
559.2000;0.5902;3.4297;
559.5000;0.5910;3.4402;
559.8000;0.5918;3.4402;
560.1000;0.5902;3.4376;
560.4000;0.5828;3.4165;
560.7000;0.5902;3.4402;
561.0000;0.5869;3.4270;
561.3000;0.5893;3.4376;
561.6000;0.5902;3.4350;
561.9000;0.5869;3.4429;
562.2000;0.5893;3.4534;
562.5000;0.5853;3.4350;
562.8000;0.5893;3.4534;
563.1000;0.5877;3.4587;
563.4000;0.5991;3.4983;
563.7000;0.5893;3.4745;
564.0000;0.5885;3.4745;
564.3000;0.5893;3.4851;
564.6000;0.5869;3.4824;
564.9000;0.5885;3.4877;
565.2000;0.5885;3.4877;
565.5000;0.5885;3.4877;
565.8000;0.5836;3.4693;
566.1000;0.5861;3.4693;
566.4000;0.5877;3.4745;
566.7000;0.5893;3.4693;
567.0000;0.5836;3.4508;
567.3000;0.5885;3.4613;
567.6000;0.5861;3.4613;
567.9000;0.5893;3.4693;
568.2000;0.5893;3.4561;
568.5000;0.5877;3.4587;
568.8000;0.5893;3.4561;
569.1000;0.5918;3.4640;
569.4000;0.5910;3.4587;
569.7000;0.5910;3.4640;
570.0000;0.5902;3.4482;
570.3000;0.5869;3.4429;
570.6000;0.5828;3.4350;
570.9000;0.5902;3.4613;
571.2000;0.5885;3.4561;
571.5000;0.5902;3.4561;
571.8000;0.5902;3.4561;
572.1000;0.5999;3.4824;
572.4000;0.5893;3.4455;
572.7000;0.5836;3.4270;
573.0000;0.5893;3.4402;
573.3000;0.5926;3.4482;
573.6000;0.5893;3.4402;
573.9000;0.5869;3.4244;
574.2000;0.5902;3.4350;
574.5000;0.5893;3.4350;
574.8000;0.5885;3.4323;
575.1000;0.5910;3.4270;
575.4000;0.5885;3.4323;
575.7000;0.5902;3.4402;
576.0000;0.5902;3.4534;
576.3000;0.5893;3.4455;
576.6000;0.5902;3.4482;
576.9000;0.5893;3.4429;
577.2000;0.5902;3.4482;
577.5000;0.5893;3.4455;
577.8000;0.5861;3.4323;
578.1000;0.5877;3.4429;
578.4000;0.5902;3.4455;
578.7000;0.5893;3.4482;
579.0000;0.5885;3.4429;
579.3000;0.5893;3.4376;
579.6000;0.5893;3.4482;
579.9000;0.5861;3.4429;
580.2000;0.5877;3.4482;
580.5000;0.5877;3.4561;
580.8000;0.5902;3.4613;
581.1000;0.5877;3.4640;
581.4000;0.5861;3.4561;
581.7000;0.5877;3.4587;
582.0000;0.5869;3.4587;
582.3000;0.5869;3.4561;
582.6000;0.5845;3.4561;
582.9000;0.5869;3.4745;
583.2000;0.5885;3.4877;
583.5000;0.5910;3.5062;
583.8000;0.5877;3.4956;
584.1000;0.5926;3.5088;
584.4000;0.5861;3.4956;
584.7000;0.5885;3.4983;
585.0000;0.5869;3.4930;
585.3000;0.5771;3.4561;
585.6000;0.5869;3.4798;
585.9000;0.6015;3.5220;
586.2000;0.5885;3.4851;
586.5000;0.5877;3.4745;
586.8000;0.5877;3.4719;
587.1000;0.5877;3.4772;
587.4000;0.5877;3.4719;
587.7000;0.5893;3.4693;
588.0000;0.5771;3.4429;
588.3000;0.5877;3.4666;
588.6000;0.5893;3.4772;
588.9000;0.5885;3.4719;
589.2000;0.5893;3.4693;
589.5000;0.5902;3.4482;
589.8000;0.5893;3.4508;
590.1000;0.5885;3.4429;
590.4000;0.5877;3.4455;
590.7000;0.5877;3.4429;
591.0000;0.5893;3.4587;
591.3000;0.5877;3.4534;
591.6000;0.5885;3.4561;
591.9000;0.5902;3.4561;
592.2000;0.5902;3.4508;
592.5000;0.5902;3.4534;
592.8000;0.5885;3.4455;
593.1000;0.5869;3.4455;
593.4000;0.5885;3.4455;
593.7000;0.5893;3.4429;
594.0000;0.5893;3.4455;
594.3000;0.5885;3.4376;
594.6000;0.5902;3.4429;
594.9000;0.5902;3.4455;
595.2000;0.5893;3.4376;
595.5000;0.5836;3.4165;
595.8000;0.5902;3.4323;
596.1000;0.5910;3.4297;
596.4000;0.5918;3.4455;
596.7000;0.5934;3.4508;
597.0000;0.5893;3.4350;
597.3000;0.5812;3.4033;
597.6000;0.5902;3.4297;
597.9000;0.5861;3.4244;
598.2000;0.5877;3.4376;
598.5000;0.5820;3.4297;
598.8000;0.5869;3.4587;
599.1000;0.5853;3.4508;
599.4000;0.5869;3.4640;
599.7000;0.5893;3.4666;
600.0000;0.5869;3.4561;
600.3000;0.5893;3.4613;
600.6000;0.5877;3.4482;
600.9000;0.5836;3.4376;
601.2000;0.5918;3.4455;
601.5000;0.5779;3.4033;
601.8000;0.5722;3.3796;
602.1000;0.5690;3.3532;
602.4000;0.5690;3.3347;
602.7000;0.5617;3.3189;
603.0000;0.5511;3.2899;
603.3000;0.5551;3.2819;
603.6000;0.5543;3.2740;
603.9000;0.5584;3.2714;
604.2000;0.5495;3.2371;
604.5000;0.5454;3.2160;
604.8000;0.5429;3.2028;
605.1000;0.5348;3.1764;
605.4000;0.5405;3.1870;
605.7000;0.5381;3.1738;
606.0000;0.5332;3.1685;
606.3000;0.5340;3.1632;
606.6000;0.5307;3.1553;
606.9000;0.5283;3.1500;
607.2000;0.5226;3.1289;
607.5000;0.5258;3.1289;
607.8000;0.5226;3.1289;
608.1000;0.5234;3.1236;
608.4000;0.5210;3.1157;
608.7000;0.5193;3.1157;
609.0000;0.5104;3.0841;
609.3000;0.5201;3.1105;
609.6000;0.5161;3.0946;
609.9000;0.5185;3.0999;
610.2000;0.5161;3.0999;
610.5000;0.5169;3.0973;
610.8000;0.5128;3.0867;
611.1000;0.5096;3.0841;
611.4000;0.5088;3.0841;
611.7000;0.5071;3.0735;
612.0000;0.5063;3.0709;
612.3000;0.5112;3.0867;
612.6000;0.5063;3.0841;
612.9000;0.5031;3.0762;
613.2000;0.5039;3.0814;
613.5000;0.5104;3.1025;
613.8000;0.5014;3.0867;
614.1000;0.5014;3.0762;
614.4000;0.5014;3.0682;
614.7000;0.4990;3.0630;
615.0000;0.4925;3.0445;
615.3000;0.4965;3.0551;
615.6000;0.4957;3.0498;
615.9000;0.4974;3.0630;
616.2000;0.4949;3.0603;
616.5000;0.4957;3.0551;
616.8000;0.4933;3.0471;
617.1000;0.4933;3.0498;
617.4000;0.4925;3.0445;
617.7000;0.4876;3.0419;
618.0000;0.4908;3.0498;
618.3000;0.4868;3.0340;
618.6000;0.4811;3.0155;
618.9000;0.4876;3.0445;
619.2000;0.4860;3.0392;
619.5000;0.4843;3.0471;
619.8000;0.4868;3.0524;
620.1000;0.4851;3.0445;
620.4000;0.4860;3.0603;
620.7000;0.4843;3.0577;
621.0000;0.4843;3.0603;
621.3000;0.4819;3.0551;
621.6000;0.4957;3.0920;
621.9000;0.4819;3.0603;
622.2000;0.4794;3.0603;
622.5000;0.4794;3.0656;
622.8000;0.4803;3.0814;
623.1000;0.4770;3.0735;
623.4000;0.4786;3.0788;
623.7000;0.4770;3.0709;
624.0000;0.4729;3.0577;
624.3000;0.4786;3.0735;
624.6000;0.4746;3.0735;
624.9000;0.4754;3.0814;
625.2000;0.4746;3.0762;
625.5000;0.4737;3.0735;
625.8000;0.4762;3.0762;
626.1000;0.4786;3.0894;
626.4000;0.4770;3.0867;
626.7000;0.4746;3.0735;
627.0000;0.4746;3.0867;
627.3000;0.4721;3.0735;
627.6000;0.4729;3.0682;
627.9000;0.4656;3.0551;
628.2000;0.4737;3.0735;
628.5000;0.4721;3.0735;
628.8000;0.4713;3.0682;
629.1000;0.4664;3.0524;
629.4000;0.4746;3.0656;
629.7000;0.4689;3.0366;
630.0000;0.4697;3.0392;
630.3000;0.4705;3.0366;
630.6000;0.4705;3.0366;
630.9000;0.4664;3.0234;
631.2000;0.4591;2.9997;
631.5000;0.4705;3.0234;
631.8000;0.4681;3.0155;
632.1000;0.4697;3.0155;
632.4000;0.4672;2.9970;
632.7000;0.4632;3.0023;
633.0000;0.4737;3.0287;
633.3000;0.4640;3.0128;
633.6000;0.4632;3.0128;
633.9000;0.4632;3.0181;
634.2000;0.4632;3.0181;
634.5000;0.4648;3.0313;
634.8000;0.4640;3.0287;
635.1000;0.4624;3.0128;
635.4000;0.4697;3.0366;
635.7000;0.4648;3.0340;
636.0000;0.4640;3.0366;
636.3000;0.4632;3.0287;
636.6000;0.4615;3.0287;
636.9000;0.4632;3.0313;
637.2000;0.4607;3.0234;
637.5000;0.4591;3.0155;
637.8000;0.4575;3.0076;
638.1000;0.4599;3.0049;
638.4000;0.4615;3.0023;
638.7000;0.4583;2.9970;
639.0000;0.4583;2.9997;
639.3000;0.4599;3.0155;
639.6000;0.4591;3.0155;
639.9000;0.4534;2.9997;
640.2000;0.4583;3.0234;
640.5000;0.4542;3.0208;
640.8000;0.4583;3.0392;
641.1000;0.4550;3.0392;
641.4000;0.4550;3.0551;
641.7000;0.4567;3.0735;
642.0000;0.4583;3.0709;
642.3000;0.4615;3.0735;
642.6000;0.4542;3.0630;
642.9000;0.4526;3.0682;
643.2000;0.4575;3.0920;
643.5000;0.4485;3.0603;
643.8000;0.4526;3.0603;
644.1000;0.4542;3.0682;
644.4000;0.4526;3.0551;
644.7000;0.4599;3.0867;
645.0000;0.4501;3.0551;
645.3000;0.4510;3.0630;
645.6000;0.4558;3.0814;
645.9000;0.4534;3.0709;
646.2000;0.4599;3.0788;
646.5000;0.4526;3.0577;
646.8000;0.4526;3.0524;
647.1000;0.4518;3.0577;
647.4000;0.4526;3.0551;
647.7000;0.4477;3.0392;
648.0000;0.4485;3.0419;
648.3000;0.4518;3.0471;
648.6000;0.4501;3.0577;
648.9000;0.4501;3.0524;
649.2000;0.4501;3.0445;
649.5000;0.4501;3.0445;
649.8000;0.4485;3.0419;
650.1000;0.4501;3.0366;
650.4000;0.4493;3.0313;
650.7000;0.4493;3.0234;
651.0000;0.4534;3.0392;
651.3000;0.4493;3.0287;
651.6000;0.4493;3.0287;
651.9000;0.4526;3.0340;
652.2000;0.4501;3.0260;
652.5000;0.4477;3.0155;
652.8000;0.4469;3.0208;
653.1000;0.4469;3.0208;
653.4000;0.4453;3.0155;
653.7000;0.4493;3.0260;
654.0000;0.4518;3.0445;
654.3000;0.4436;3.0260;
654.6000;0.4477;3.0471;
654.9000;0.4469;3.0419;
655.2000;0.4469;3.0260;
655.5000;0.4461;3.0102;
655.8000;0.4510;3.0287;
656.1000;0.4510;3.0260;
656.4000;0.4591;3.0551;
656.7000;0.4469;3.0155;
657.0000;0.4493;3.0208;
657.3000;0.4453;3.0076;
657.6000;0.4444;3.0102;
657.9000;0.4485;3.0260;
658.2000;0.4453;3.0155;
658.5000;0.4453;3.0181;
658.8000;0.4461;3.0234;
659.1000;0.4461;3.0234;
659.4000;0.4444;3.0155;
659.7000;0.4436;3.0128;
660.0000;0.4436;3.0155;
660.3000;0.4444;3.0128;
660.6000;0.4444;3.0128;
660.9000;0.4444;3.0155;
661.2000;0.4461;3.0313;
661.5000;0.4453;3.0445;
661.8000;0.4428;3.0445;
662.1000;0.4428;3.0419;
662.4000;0.4420;3.0445;
662.7000;0.4444;3.0577;
663.0000;0.4404;3.0445;
663.3000;0.4412;3.0577;
663.6000;0.4436;3.0656;
663.9000;0.4420;3.0630;
664.2000;0.4412;3.0551;
664.5000;0.4420;3.0524;
664.8000;0.4404;3.0577;
665.1000;0.4485;3.0735;
665.4000;0.4420;3.0498;
665.7000;0.4396;3.0471;
666.0000;0.4420;3.0419;
666.3000;0.4428;3.0366;
666.6000;0.4404;3.0313;
666.9000;0.4412;3.0313;
667.2000;0.4396;3.0340;
667.5000;0.4412;3.0366;
667.8000;0.4412;3.0208;
668.1000;0.4436;3.0340;
668.4000;0.4404;3.0208;
668.7000;0.4412;3.0287;
669.0000;0.4404;3.0313;
669.3000;0.4404;3.0260;
669.6000;0.4387;3.0234;
669.9000;0.4412;3.0260;
670.2000;0.4387;3.0313;
670.5000;0.4396;3.0287;
670.8000;0.4396;3.0313;
671.1000;0.4404;3.0392;
671.4000;0.4387;3.0392;
671.7000;0.4387;3.0392;
672.0000;0.4412;3.0419;
672.3000;0.4396;3.0392;
672.6000;0.4404;3.0392;
672.9000;0.4387;3.0313;
673.2000;0.4404;3.0313;
673.5000;0.4379;3.0287;
673.8000;0.4404;3.0260;
674.1000;0.4387;3.0234;
674.4000;0.4387;3.0155;
674.7000;0.4396;3.0155;
675.0000;0.4379;3.0102;
675.3000;0.4387;3.0076;
675.6000;0.4314;2.9944;
675.9000;0.4371;3.0234;
676.2000;0.4363;3.0155;
676.5000;0.4379;3.0155;
676.8000;0.4396;3.0234;
677.1000;0.4363;3.0155;
677.4000;0.4379;3.0234;
677.7000;0.4396;3.0208;
678.0000;0.4387;3.0208;
678.3000;0.4420;3.0313;
678.6000;0.4477;3.0445;
678.9000;0.4379;3.0234;
679.2000;0.4371;3.0260;
679.5000;0.4363;3.0340;
679.8000;0.4355;3.0287;
680.1000;0.4371;3.0366;
680.4000;0.4363;3.0287;
680.7000;0.4387;3.0419;
681.0000;0.4355;3.0419;
681.3000;0.4379;3.0577;
681.6000;0.4347;3.0603;
681.9000;0.4347;3.0630;
682.2000;0.4339;3.0603;
682.5000;0.4355;3.0630;
682.8000;0.4371;3.0630;
683.1000;0.4347;3.0656;
683.4000;0.4339;3.0603;
683.7000;0.4330;3.0709;
684.0000;0.4428;3.0920;
684.3000;0.4330;3.0709;
684.6000;0.4347;3.0735;
684.9000;0.4306;3.0682;
685.2000;0.4347;3.0841;
685.5000;0.4339;3.0788;
685.8000;0.4355;3.0762;
686.1000;0.4330;3.0735;
686.4000;0.4330;3.0656;
686.7000;0.4330;3.0682;
687.0000;0.4347;3.0709;
687.3000;0.4363;3.0656;
687.6000;0.4330;3.0551;
687.9000;0.4347;3.0551;
688.2000;0.4371;3.0656;
688.5000;0.4347;3.0577;
688.8000;0.4314;3.0577;
689.1000;0.4436;3.0946;
689.4000;0.4330;3.0603;
689.7000;0.4339;3.0577;
690.0000;0.4322;3.0445;
690.3000;0.4371;3.0551;
690.6000;0.4322;3.0498;
690.9000;0.4330;3.0471;
691.2000;0.4322;3.0419;
691.5000;0.4314;3.0313;
691.8000;0.4347;3.0392;
692.1000;0.4306;3.0260;
692.4000;0.4314;3.0181;
692.7000;0.4298;3.0102;
693.0000;0.4330;3.0260;
693.3000;0.4330;3.0392;
693.6000;0.4347;3.0419;
693.9000;0.4330;3.0392;
694.2000;0.4404;3.0603;
694.5000;0.4339;3.0366;
694.8000;0.4339;3.0392;
695.1000;0.4306;3.0313;
695.4000;0.4371;3.0392;
695.7000;0.4330;3.0208;
696.0000;0.4339;3.0234;
696.3000;0.4306;3.0128;
696.6000;0.4306;3.0208;
696.9000;0.4322;3.0260;
697.2000;0.4322;3.0260;
697.5000;0.4387;3.0551;
697.8000;0.4306;3.0260;
698.1000;0.4298;3.0155;
698.4000;0.4314;3.0260;
698.7000;0.4298;3.0234;
699.0000;0.4347;3.0498;
699.3000;0.4339;3.0419;
699.6000;0.4322;3.0445;
699.9000;0.4290;3.0524;
700.2000;0.4257;3.0498;
700.5000;0.4290;3.0419;
700.8000;0.4314;3.0498;
701.1000;0.4330;3.0577;
701.4000;0.4314;3.0603;
701.7000;0.4306;3.0524;
702.0000;0.4298;3.0498;
702.3000;0.4290;3.0471;
702.6000;0.4290;3.0419;
702.9000;0.4339;3.0630;
703.2000;0.4306;3.0551;
703.5000;0.4217;3.0260;
703.8000;0.4290;3.0551;
704.1000;0.4274;3.0524;
704.4000;0.4274;3.0445;
704.7000;0.4282;3.0471;
705.0000;0.4282;3.0471;
705.3000;0.4257;3.0366;
705.6000;0.4282;3.0471;
705.9000;0.4290;3.0445;
706.2000;0.4290;3.0524;
706.5000;0.4249;3.0313;
706.8000;0.4314;3.0498;
707.1000;0.4306;3.0419;
707.4000;0.4282;3.0471;
707.7000;0.4290;3.0524;
708.0000;0.4290;3.0524;
708.3000;0.4298;3.0392;
708.6000;0.4306;3.0392;
708.9000;0.4290;3.0419;
709.2000;0.4298;3.0419;
709.5000;0.4306;3.0313;
709.8000;0.4306;3.0366;
710.1000;0.4298;3.0366;
710.4000;0.4290;3.0366;
710.7000;0.4265;3.0287;
711.0000;0.4306;3.0366;
711.3000;0.4306;3.0392;
711.6000;0.4282;3.0234;
711.9000;0.4290;3.0208;
712.2000;0.4306;3.0260;
712.5000;0.4282;3.0155;
712.8000;0.4355;3.0340;
713.1000;0.4290;3.0234;
713.4000;0.4339;3.0287;
713.7000;0.4298;3.0287;
714.0000;0.4290;3.0287;
714.3000;0.4298;3.0287;
714.6000;0.4314;3.0234;
714.9000;0.4290;3.0260;
715.2000;0.4347;3.0445;
715.5000;0.4225;3.0155;
715.8000;0.4257;3.0208;
716.1000;0.4265;3.0287;
716.4000;0.4274;3.0366;
716.7000;0.4257;3.0340;
717.0000;0.4282;3.0419;
717.3000;0.4274;3.0392;
717.6000;0.4265;3.0366;
717.9000;0.4274;3.0419;
718.2000;0.4249;3.0392;
718.5000;0.4387;3.0735;
718.8000;0.4274;3.0498;
719.1000;0.4290;3.0551;
719.4000;0.4265;3.0551;
719.7000;0.4257;3.0524;
720.0000;0.4274;3.0603;
720.3000;0.4274;3.0682;
720.6000;0.4274;3.0656;
720.9000;0.4298;3.0814;
721.2000;0.4274;3.0709;
721.5000;0.4208;3.0577;
721.8000;0.4241;3.0682;
722.1000;0.4241;3.0603;
722.4000;0.4265;3.0735;
722.7000;0.4257;3.0682;
723.0000;0.4290;3.0762;
723.3000;0.4322;3.0894;
723.6000;0.4274;3.0762;
723.9000;0.4290;3.0841;
724.2000;0.4298;3.0867;
724.5000;0.4249;3.0656;
724.8000;0.4249;3.0682;
725.1000;0.4274;3.0814;
725.4000;0.4265;3.0814;
725.7000;0.4241;3.0762;
726.0000;0.4119;3.0392;
726.3000;0.4249;3.0735;
726.6000;0.4257;3.0788;
726.9000;0.4249;3.0630;
727.2000;0.4225;3.0524;
727.5000;0.4265;3.0630;
727.8000;0.4176;3.0313;
728.1000;0.4257;3.0603;
728.4000;0.4265;3.0577;
728.7000;0.4257;3.0498;
729.0000;0.4257;3.0392;
729.3000;0.4274;3.0340;
729.6000;0.4257;3.0260;
729.9000;0.4330;3.0498;
730.2000;0.4282;3.0445;
730.5000;0.4274;3.0366;
730.8000;0.4233;3.0366;
731.1000;0.4249;3.0551;
731.4000;0.4257;3.0603;
731.7000;0.4282;3.0630;
732.0000;0.4257;3.0551;
732.3000;0.4257;3.0577;
732.6000;0.4249;3.0498;
732.9000;0.4265;3.0577;
733.2000;0.4274;3.0577;
733.5000;0.4282;3.0498;
733.8000;0.4249;3.0471;
734.1000;0.4257;3.0392;
734.4000;0.4306;3.0551;
734.7000;0.4290;3.0471;
735.0000;0.4265;3.0392;
735.3000;0.4233;3.0181;
735.6000;0.4257;3.0181;
735.9000;0.4233;3.0076;
736.2000;0.4241;3.0128;
736.5000;0.4257;3.0128;
736.8000;0.4257;3.0208;
737.1000;0.4257;3.0287;
737.4000;0.4249;3.0287;
737.7000;0.4257;3.0313;
738.0000;0.4257;3.0287;
738.3000;0.4192;3.0102;
738.6000;0.4249;3.0181;
738.9000;0.4257;3.0049;
739.2000;0.4249;3.0155;
739.5000;0.4241;3.0208;
739.8000;0.4241;3.0181;
740.1000;0.4249;3.0208;
740.4000;0.4249;3.0234;
740.7000;0.4257;3.0208;
741.0000;0.4257;3.0287;
741.3000;0.4241;3.0392;
741.6000;0.4233;3.0471;
741.9000;0.4233;3.0471;
742.2000;0.4200;3.0366;
742.5000;0.4233;3.0551;
742.8000;0.4168;3.0313;
743.1000;0.4233;3.0471;
743.4000;0.4241;3.0551;
743.7000;0.4241;3.0577;
744.0000;0.4249;3.0551;
744.3000;0.4274;3.0498;
744.6000;0.4176;3.0366;
744.9000;0.4233;3.0603;
745.2000;0.4274;3.0709;
745.5000;0.4241;3.0709;
745.8000;0.4241;3.0682;
746.1000;0.4225;3.0630;
746.4000;0.4192;3.0445;
746.7000;0.4249;3.0603;
747.0000;0.4217;3.0524;
747.3000;0.4217;3.0577;
747.6000;0.4233;3.0551;
747.9000;0.4208;3.0419;
748.2000;0.4241;3.0524;
748.5000;0.4249;3.0524;
748.8000;0.4233;3.0471;
749.1000;0.4290;3.0524;
749.4000;0.4151;3.0049;
749.7000;0.4241;3.0313;
750.0000;0.4241;3.0181;
750.3000;0.4233;3.0102;
750.6000;0.4233;3.0102;
750.9000;0.4233;3.0076;
751.2000;0.4249;3.0181;
751.5000;0.4184;3.0076;
751.8000;0.4265;3.0419;
752.1000;0.4241;3.0445;
752.4000;0.4225;3.0366;
752.7000;0.4225;3.0260;
753.0000;0.4249;3.0340;
753.3000;0.4200;3.0208;
753.6000;0.4241;3.0366;
753.9000;0.4241;3.0313;
754.2000;0.4241;3.0340;
754.5000;0.4249;3.0260;
754.8000;0.4265;3.0234;
755.1000;0.4249;3.0181;
755.4000;0.4241;3.0234;
755.7000;0.4249;3.0313;
756.0000;0.4265;3.0366;
756.3000;0.4225;3.0260;
756.6000;0.4233;3.0313;
756.9000;0.4249;3.0445;
757.2000;0.4249;3.0392;
757.5000;0.4249;3.0260;
757.8000;0.4249;3.0208;
758.1000;0.4233;3.0128;
758.4000;0.4233;3.0234;
758.7000;0.4233;3.0234;
759.0000;0.4282;3.0419;
759.3000;0.4249;3.0260;
759.6000;0.4265;3.0392;
759.9000;0.4241;3.0392;
760.2000;0.4233;3.0340;
760.5000;0.4225;3.0419;
760.8000;0.4233;3.0524;
761.1000;0.4265;3.0603;
761.4000;0.4233;3.0471;
761.7000;0.4217;3.0471;
762.0000;0.4184;3.0313;
762.3000;0.4200;3.0445;
762.6000;0.4208;3.0603;
762.9000;0.4200;3.0630;
763.2000;0.4217;3.0709;
763.5000;0.4233;3.0788;
763.8000;0.4233;3.0814;
764.1000;0.4233;3.0867;
764.4000;0.4225;3.0894;
764.7000;0.4233;3.0920;
765.0000;0.4217;3.0841;
765.3000;0.4233;3.0788;
765.6000;0.4225;3.0841;
765.9000;0.4192;3.0762;
766.2000;0.4233;3.0894;
766.5000;0.4233;3.0867;
766.8000;0.4233;3.0814;
767.1000;0.4217;3.0709;
767.4000;0.4208;3.0630;
767.7000;0.4168;3.0366;
768.0000;0.4225;3.0419;
768.3000;0.4241;3.0392;
768.6000;0.4225;3.0313;
768.9000;0.4225;3.0313;
769.2000;0.4208;3.0287;
769.5000;0.4225;3.0313;
769.8000;0.4249;3.0419;
770.1000;0.4233;3.0419;
770.4000;0.4274;3.0471;
770.7000;0.4208;3.0366;
771.0000;0.4241;3.0551;
771.3000;0.4339;3.0814;
771.6000;0.4225;3.0498;
771.9000;0.4217;3.0577;
772.2000;0.4208;3.0551;
772.5000;0.4233;3.0656;
772.8000;0.4241;3.0656;
773.1000;0.4225;3.0498;
773.4000;0.4217;3.0524;
773.7000;0.4241;3.0498;
774.0000;0.4347;3.0814;
774.3000;0.4225;3.0445;
774.6000;0.4225;3.0419;
774.9000;0.4249;3.0551;
775.2000;0.4217;3.0498;
775.5000;0.4225;3.0524;
775.8000;0.4225;3.0524;
776.1000;0.4208;3.0498;
776.4000;0.4135;3.0234;
776.7000;0.4225;3.0471;
777.0000;0.4176;3.0366;
777.3000;0.4217;3.0577;
777.6000;0.4225;3.0551;
777.9000;0.4282;3.0682;
778.2000;0.4249;3.0630;
778.5000;0.4225;3.0656;
778.8000;0.4217;3.0630;
779.1000;0.4233;3.0630;
779.4000;0.4233;3.0524;
779.7000;0.4225;3.0471;
780.0000;0.4241;3.0551;
780.3000;0.4225;3.0498;
780.6000;0.4217;3.0471;
780.9000;0.4200;3.0498;
781.2000;0.4217;3.0419;
781.5000;0.4208;3.0445;
781.8000;0.4208;3.0498;
782.1000;0.4200;3.0577;
782.4000;0.4200;3.0551;
782.7000;0.4233;3.0603;
783.0000;0.4208;3.0682;
783.3000;0.4200;3.0788;
783.6000;0.4241;3.0841;
783.9000;0.4200;3.0946;
784.2000;0.4200;3.0894;
784.5000;0.4208;3.0867;
784.8000;0.4135;3.0709;
785.1000;0.4217;3.0841;
785.4000;0.4176;3.0656;
785.7000;0.4208;3.0709;
786.0000;0.4208;3.0762;
786.3000;0.4306;3.1052;
786.6000;0.4208;3.0709;
786.9000;0.4217;3.0762;
787.2000;0.4200;3.0682;
787.5000;0.4217;3.0682;
787.8000;0.4200;3.0709;
788.1000;0.4217;3.0682;
788.4000;0.4192;3.0524;
788.7000;0.4217;3.0498;
789.0000;0.4208;3.0471;
789.3000;0.4208;3.0340;
789.6000;0.4208;3.0340;
789.9000;0.4135;3.0023;
790.2000;0.4241;3.0287;
790.5000;0.4233;3.0260;
790.8000;0.4217;3.0234;
791.1000;0.4208;3.0260;
791.4000;0.4200;3.0260;
791.7000;0.4241;3.0340;
792.0000;0.4225;3.0287;
792.3000;0.4192;3.0234;
792.6000;0.4330;3.0656;
792.9000;0.4217;3.0234;
793.2000;0.4217;3.0287;
793.5000;0.4192;3.0313;
793.8000;0.4217;3.0313;
794.1000;0.4208;3.0287;
794.4000;0.4298;3.0524;
794.7000;0.4217;3.0287;
795.0000;0.4217;3.0340;
795.3000;0.4217;3.0445;
795.6000;0.4257;3.0577;
795.9000;0.4192;3.0392;
796.2000;0.4290;3.0603;
796.5000;0.4168;3.0287;
796.8000;0.4200;3.0498;
797.1000;0.4217;3.0498;
797.4000;0.4241;3.0577;
797.7000;0.4233;3.0471;
798.0000;0.4217;3.0471;
798.3000;0.4208;3.0419;
798.6000;0.4274;3.0551;
798.9000;0.4208;3.0419;
799.2000;0.4208;3.0392;
799.5000;0.4298;3.0603;
799.8000;0.4168;3.0260;
800.1000;0.4208;3.0445;
800.4000;0.4290;3.0709;
800.7000;0.4225;3.0577;
801.0000;0.4192;3.0524;
801.3000;0.4200;3.0524;
801.6000;0.4208;3.0551;
801.9000;0.4208;3.0551;
802.2000;0.4225;3.0577;
802.5000;0.4208;3.0577;
802.8000;0.4160;3.0577;
803.1000;0.4200;3.0709;
803.4000;0.4184;3.0735;
803.7000;0.4225;3.0709;
804.0000;0.4208;3.0656;
804.3000;0.4192;3.0709;
804.6000;0.4200;3.0841;
804.9000;0.4208;3.0867;
805.2000;0.4217;3.0920;
805.5000;0.4274;3.1052;
805.8000;0.4217;3.0841;
806.1000;0.4200;3.0762;
806.4000;0.4192;3.0709;
806.7000;0.4217;3.0630;
807.0000;0.4208;3.0577;
807.3000;0.4249;3.0682;
807.6000;0.4176;3.0366;
807.9000;0.4200;3.0313;
808.2000;0.4225;3.0340;
808.5000;0.4208;3.0313;
808.8000;0.4217;3.0260;
809.1000;0.4208;3.0234;
809.4000;0.4217;3.0208;
809.7000;0.4208;3.0208;
810.0000;0.4208;3.0340;
810.3000;0.4208;3.0366;
810.6000;0.4143;3.0208;
810.9000;0.4208;3.0445;
811.2000;0.4200;3.0340;
811.5000;0.4168;3.0234;
811.8000;0.4127;3.0208;
812.1000;0.4217;3.0340;
812.4000;0.4192;3.0260;
812.7000;0.4176;3.0234;
813.0000;0.4184;3.0340;
813.3000;0.4233;3.0524;
813.6000;0.4217;3.0498;
813.9000;0.4192;3.0366;
814.2000;0.4217;3.0234;
814.5000;0.4200;3.0181;
814.8000;0.4200;3.0234;
815.1000;0.4168;3.0102;
815.4000;0.4208;3.0155;
815.7000;0.4225;3.0181;
816.0000;0.4265;3.0181;
816.3000;0.4265;3.0181;
816.6000;0.4282;3.0313;
816.9000;0.4208;3.0155;
817.2000;0.4200;3.0155;
817.5000;0.4217;3.0234;
817.8000;0.4184;3.0023;
818.1000;0.4184;3.0128;
818.4000;0.4200;3.0287;
818.7000;0.4257;3.0524;
819.0000;0.4192;3.0392;
819.3000;0.4208;3.0524;
819.6000;0.4241;3.0577;
819.9000;0.4208;3.0630;
820.2000;0.4184;3.0577;
820.5000;0.4192;3.0551;
820.8000;0.4208;3.0630;
821.1000;0.4208;3.0630;
821.4000;0.4184;3.0656;
821.7000;0.4192;3.0682;
822.0000;0.4208;3.0762;
822.3000;0.4192;3.0867;
822.6000;0.4176;3.0867;
822.9000;0.4184;3.0973;
823.2000;0.4200;3.0973;
823.5000;0.4184;3.0999;
823.8000;0.4192;3.0999;
824.1000;0.4176;3.0867;
824.4000;0.4192;3.0894;
824.7000;0.4184;3.0920;
825.0000;0.4200;3.0946;
825.3000;0.4200;3.0973;
825.6000;0.4127;3.0762;
825.9000;0.4200;3.0946;
826.2000;0.4200;3.0920;
826.5000;0.4184;3.0762;
826.8000;0.4094;3.0498;
827.1000;0.4208;3.0867;
827.4000;0.4176;3.0814;
827.7000;0.4217;3.0946;
828.0000;0.4184;3.0867;
828.3000;0.4208;3.0894;
828.6000;0.4208;3.0894;
828.9000;0.4200;3.0867;
829.2000;0.4200;3.0814;
829.5000;0.4192;3.0709;
829.8000;0.4225;3.0788;
830.1000;0.4200;3.0709;
830.4000;0.4200;3.0735;
830.7000;0.4208;3.0656;
831.0000;0.4200;3.0603;
831.3000;0.4225;3.0709;
831.6000;0.4208;3.0682;
831.9000;0.4217;3.0735;
832.2000;0.4200;3.0709;
832.5000;0.4217;3.0656;
832.8000;0.4192;3.0630;
833.1000;0.4200;3.0656;
833.4000;0.4200;3.0656;
833.7000;0.4200;3.0630;
834.0000;0.4184;3.0551;
834.3000;0.4168;3.0471;
834.6000;0.4241;3.0709;
834.9000;0.4200;3.0603;
835.2000;0.4192;3.0524;
835.5000;0.4184;3.0445;
835.8000;0.4200;3.0577;
836.1000;0.4200;3.0551;
836.4000;0.4241;3.0788;
836.7000;0.4200;3.0656;
837.0000;0.4208;3.0603;
837.3000;0.4208;3.0524;
837.6000;0.4208;3.0577;
837.9000;0.4192;3.0577;
838.2000;0.4200;3.0630;
838.5000;0.4208;3.0656;
838.8000;0.4200;3.0630;
839.1000;0.4241;3.0788;
839.4000;0.4200;3.0709;
839.7000;0.4192;3.0709;
840.0000;0.4160;3.0682;
840.3000;0.4192;3.0735;
840.6000;0.4143;3.0735;
840.9000;0.4233;3.0999;
841.2000;0.4184;3.0920;
841.5000;0.4192;3.0841;
841.8000;0.4192;3.0814;
842.1000;0.4135;3.0709;
842.4000;0.4208;3.0867;
842.7000;0.4184;3.0894;
843.0000;0.4192;3.0920;
843.3000;0.4143;3.0814;
843.6000;0.4200;3.0894;
843.9000;0.4184;3.0841;
844.2000;0.4184;3.0946;
844.5000;0.4225;3.1131;
844.8000;0.4135;3.0841;
845.1000;0.4192;3.0973;
845.4000;0.4078;3.0630;
845.7000;0.4176;3.0894;
846.0000;0.4200;3.0999;
846.3000;0.4225;3.0946;
846.6000;0.4192;3.0841;
846.9000;0.4184;3.0735;
847.2000;0.4176;3.0735;
847.5000;0.4184;3.0735;
847.8000;0.4184;3.0735;
848.1000;0.4200;3.0735;
848.4000;0.4192;3.0682;
848.7000;0.4176;3.0577;
849.0000;0.4184;3.0471;
849.3000;0.4192;3.0445;
849.6000;0.4192;3.0524;
849.9000;0.4168;3.0524;
850.2000;0.4184;3.0577;
850.5000;0.4200;3.0577;
850.8000;0.4184;3.0498;
851.1000;0.4176;3.0445;
851.4000;0.4184;3.0392;
851.7000;0.4233;3.0551;
852.0000;0.4192;3.0445;
852.3000;0.4192;3.0445;
852.6000;0.4208;3.0392;
852.9000;0.4200;3.0340;
853.2000;0.4257;3.0524;
853.5000;0.4184;3.0445;
853.8000;0.4192;3.0392;
854.1000;0.4208;3.0392;
854.4000;0.4208;3.0445;
854.7000;0.4176;3.0392;
855.0000;0.4184;3.0419;
855.3000;0.4119;3.0181;
855.6000;0.4143;3.0313;
855.9000;0.4192;3.0366;
856.2000;0.4192;3.0366;
856.5000;0.4184;3.0313;
856.8000;0.4225;3.0340;
857.1000;0.4225;3.0366;
857.4000;0.4200;3.0392;
857.7000;0.4217;3.0366;
858.0000;0.4208;3.0287;
858.3000;0.4192;3.0208;
858.6000;0.4184;3.0128;
858.9000;0.4184;3.0234;
859.2000;0.4192;3.0208;
859.5000;0.4208;3.0392;
859.8000;0.4184;3.0419;
860.1000;0.4184;3.0445;
860.4000;0.4184;3.0577;
860.7000;0.4184;3.0682;
861.0000;0.4192;3.0630;
861.3000;0.4176;3.0577;
861.6000;0.4192;3.0551;
861.9000;0.4200;3.0603;
862.2000;0.4176;3.0682;
862.5000;0.4160;3.0603;
862.8000;0.4176;3.0656;
863.1000;0.4192;3.0762;
863.4000;0.4168;3.0603;
863.7000;0.4192;3.0603;
864.0000;0.4168;3.0603;
864.3000;0.4184;3.0709;
864.6000;0.4176;3.0656;
864.9000;0.4241;3.0841;
865.2000;0.4160;3.0682;
865.5000;0.4184;3.0682;
865.8000;0.4200;3.0682;
866.1000;0.4176;3.0603;
866.4000;0.4168;3.0603;
866.7000;0.4143;3.0498;
867.0000;0.4184;3.0524;
867.3000;0.4241;3.0656;
867.6000;0.4208;3.0630;
867.9000;0.4322;3.0946;
868.2000;0.4217;3.0551;
868.5000;0.4208;3.0471;
868.8000;0.4176;3.0445;
869.1000;0.4184;3.0366;
869.4000;0.4160;3.0260;
869.7000;0.4192;3.0340;
870.0000;0.4119;3.0208;
870.3000;0.4184;3.0260;
870.6000;0.4184;3.0260;
870.9000;0.4249;3.0366;
871.2000;0.4192;3.0287;
871.5000;0.4192;3.0313;
871.8000;0.4208;3.0366;
872.1000;0.4192;3.0260;
872.4000;0.4184;3.0313;
872.7000;0.4200;3.0366;
873.0000;0.4200;3.0419;
873.3000;0.4192;3.0340;
873.6000;0.4225;3.0366;
873.9000;0.4192;3.0287;
874.2000;0.4200;3.0340;
874.5000;0.4192;3.0287;
874.8000;0.4192;3.0260;
875.1000;0.4151;3.0102;
875.4000;0.4192;3.0208;
875.7000;0.4200;3.0234;
876.0000;0.4192;3.0208;
876.3000;0.4241;3.0340;
876.6000;0.4192;3.0208;
876.9000;0.4184;3.0208;
877.2000;0.4208;3.0313;
877.5000;0.4184;3.0234;
877.8000;0.4200;3.0260;
878.1000;0.4208;3.0287;
878.4000;0.4217;3.0234;
878.7000;0.4176;3.0208;
879.0000;0.4176;3.0313;
879.3000;0.4184;3.0340;
879.6000;0.4176;3.0340;
879.9000;0.4176;3.0366;
880.2000;0.4168;3.0340;
880.5000;0.4160;3.0313;
880.8000;0.4176;3.0340;
881.1000;0.4176;3.0419;
881.4000;0.4176;3.0419;
881.7000;0.4176;3.0524;
882.0000;0.4168;3.0630;
882.3000;0.4184;3.0656;
882.6000;0.4200;3.0709;
882.9000;0.4184;3.0682;
883.2000;0.4176;3.0735;
883.5000;0.4160;3.0656;
883.8000;0.4184;3.0656;
884.1000;0.4176;3.0630;
884.4000;0.4176;3.0709;
884.7000;0.4176;3.0656;
885.0000;0.4192;3.0630;
885.3000;0.4176;3.0603;
885.6000;0.4168;3.0577;
885.9000;0.4200;3.0709;
886.2000;0.4168;3.0603;
886.5000;0.4160;3.0577;
886.8000;0.4168;3.0551;
887.1000;0.4176;3.0498;
887.4000;0.4168;3.0498;
887.7000;0.4208;3.0577;
888.0000;0.4176;3.0524;
888.3000;0.4184;3.0524;
888.6000;0.4176;3.0524;
888.9000;0.4184;3.0682;
889.2000;0.4111;3.0551;
889.5000;0.4168;3.0709;
889.8000;0.4176;3.0682;
890.1000;0.4160;3.0656;
890.4000;0.4176;3.0630;
890.7000;0.4176;3.0630;
891.0000;0.4184;3.0682;
891.3000;0.4151;3.0577;
891.6000;0.4160;3.0524;
891.9000;0.4184;3.0551;
892.2000;0.4192;3.0603;
892.5000;0.4200;3.0551;
892.8000;0.4225;3.0551;
893.1000;0.4184;3.0498;
893.4000;0.4200;3.0551;
893.7000;0.4192;3.0445;
894.0000;0.4192;3.0471;
894.3000;0.4192;3.0445;
894.6000;0.4192;3.0498;
894.9000;0.4225;3.0630;
895.2000;0.4176;3.0471;
895.5000;0.4208;3.0471;
895.8000;0.4184;3.0392;
896.1000;0.4184;3.0471;
896.4000;0.4192;3.0498;
896.7000;0.4192;3.0471;
897.0000;0.4176;3.0419;
897.3000;0.4200;3.0340;
897.6000;0.4200;3.0445;
897.9000;0.4192;3.0524;
898.2000;0.4208;3.0551;
898.5000;0.4217;3.0577;
898.8000;0.4200;3.0682;
899.1000;0.4176;3.0524;
899.4000;0.4208;3.0524;
899.7000;0.4200;3.0498;
900.0000;0.4184;3.0498;
900.3000;0.4184;3.0551;
900.6000;0.4143;3.0419;
900.9000;0.4168;3.0524;
901.2000;0.4160;3.0445;
901.5000;0.4176;3.0498;
901.8000;0.4168;3.0445;
902.1000;0.4241;3.0735;
902.4000;0.4200;3.0603;
902.7000;0.4176;3.0524;
903.0000;0.4176;3.0577;
903.3000;0.4168;3.0551;
903.6000;0.4208;3.0735;
903.9000;0.4168;3.0682;
904.2000;0.4168;3.0762;
904.5000;0.4168;3.0841;
904.8000;0.4143;3.0709;
905.1000;0.4176;3.0788;
905.4000;0.4249;3.1105;
905.7000;0.4176;3.0946;
906.0000;0.4168;3.0814;
906.3000;0.4176;3.0841;
906.6000;0.4290;3.1184;
906.9000;0.4192;3.0867;
907.2000;0.4176;3.0762;
907.5000;0.4078;3.0419;
907.8000;0.4135;3.0498;
908.1000;0.4160;3.0524;
908.4000;0.4192;3.0630;
908.7000;0.4160;3.0524;
909.0000;0.4241;3.0709;
909.3000;0.4208;3.0709;
909.6000;0.4184;3.0603;
909.9000;0.4282;3.0920;
910.2000;0.4168;3.0656;
910.5000;0.4176;3.0603;
910.8000;0.4233;3.0788;
911.1000;0.4184;3.0630;
911.4000;0.4176;3.0471;
911.7000;0.4176;3.0392;
912.0000;0.4176;3.0419;
912.3000;0.4168;3.0287;
912.6000;0.4176;3.0392;
912.9000;0.4184;3.0392;
913.2000;0.4086;3.0076;
913.5000;0.4168;3.0313;
913.8000;0.4192;3.0287;
914.1000;0.4192;3.0313;
914.4000;0.4192;3.0208;
914.7000;0.4192;3.0234;
915.0000;0.4176;3.0155;
915.3000;0.4184;3.0208;
915.6000;0.4168;3.0234;
915.9000;0.4192;3.0366;
916.2000;0.4176;3.0287;
916.5000;0.4176;3.0287;
916.8000;0.4176;3.0287;
917.1000;0.4192;3.0260;
917.4000;0.4200;3.0313;
917.7000;0.4168;3.0287;
918.0000;0.4184;3.0366;
918.3000;0.4176;3.0366;
918.6000;0.4200;3.0392;
918.9000;0.4217;3.0524;
919.2000;0.4184;3.0603;
919.5000;0.4184;3.0762;
919.8000;0.4168;3.0788;
920.1000;0.4168;3.0788;
920.4000;0.4176;3.0841;
920.7000;0.4200;3.0894;
921.0000;0.4168;3.0788;
921.3000;0.4184;3.0735;
921.6000;0.4192;3.0709;
921.9000;0.4184;3.0709;
922.2000;0.4143;3.0630;
922.5000;0.4192;3.0735;
922.8000;0.4176;3.0656;
923.1000;0.4184;3.0735;
923.4000;0.4200;3.0735;
923.7000;0.4111;3.0656;
924.0000;0.4192;3.0841;
924.3000;0.4168;3.0867;
924.6000;0.4160;3.0894;
924.9000;0.4176;3.0894;
925.2000;0.4176;3.0788;
925.5000;0.4176;3.0841;
925.8000;0.4176;3.0894;
926.1000;0.4054;3.0656;
926.4000;0.4257;3.1157;
926.7000;0.4184;3.0973;
927.0000;0.4168;3.0867;
927.3000;0.4168;3.0762;
927.6000;0.4160;3.0788;
927.9000;0.4184;3.0788;
928.2000;0.4192;3.0709;
928.5000;0.4184;3.0709;
928.8000;0.4168;3.0762;
929.1000;0.4168;3.0735;
929.4000;0.4184;3.0788;
929.7000;0.4094;3.0524;
930.0000;0.4184;3.0630;
930.3000;0.4176;3.0498;
930.6000;0.4184;3.0577;
930.9000;0.4208;3.0603;
931.2000;0.4192;3.0524;
931.5000;0.4192;3.0524;
931.8000;0.4160;3.0445;
932.1000;0.4233;3.0524;
932.4000;0.4225;3.0471;
932.7000;0.4184;3.0366;
933.0000;0.4192;3.0392;
933.3000;0.4200;3.0366;
933.6000;0.4160;3.0419;
933.9000;0.4192;3.0498;
934.2000;0.4062;3.0128;
934.5000;0.4176;3.0471;
934.8000;0.4192;3.0498;
935.1000;0.4192;3.0524;
935.4000;0.4184;3.0392;
935.7000;0.4168;3.0366;
936.0000;0.4184;3.0524;
936.3000;0.4176;3.0551;
936.6000;0.4176;3.0445;
936.9000;0.4184;3.0445;
937.2000;0.4200;3.0471;
937.5000;0.4168;3.0419;
937.8000;0.4168;3.0287;
938.1000;0.4176;3.0287;
938.4000;0.4184;3.0313;
938.7000;0.4176;3.0366;
939.0000;0.4184;3.0419;
939.3000;0.4184;3.0498;
939.6000;0.4192;3.0524;
939.9000;0.4176;3.0524;
940.2000;0.4208;3.0603;
940.5000;0.4168;3.0656;
940.8000;0.4184;3.0709;
941.1000;0.4176;3.0630;
941.4000;0.4176;3.0709;
941.7000;0.4168;3.0630;
942.0000;0.4168;3.0656;
942.3000;0.4168;3.0682;
942.6000;0.4135;3.0656;
942.9000;0.4168;3.0814;
943.2000;0.4176;3.0867;
943.5000;0.4184;3.0894;
943.8000;0.4192;3.0894;
944.1000;0.4192;3.0920;
944.4000;0.4176;3.0867;
944.7000;0.4168;3.0814;
945.0000;0.4168;3.0814;
945.3000;0.4160;3.0788;
945.6000;0.4168;3.0709;
945.9000;0.4135;3.0682;
946.2000;0.4217;3.0841;
946.5000;0.4192;3.0814;
946.8000;0.4176;3.0735;
947.1000;0.4151;3.0682;
947.4000;0.4192;3.0788;
947.7000;0.4168;3.0682;
948.0000;0.4160;3.0603;
948.3000;0.4192;3.0735;
948.6000;0.4160;3.0656;
948.9000;0.4184;3.0682;
949.2000;0.4160;3.0445;
949.5000;0.4160;3.0445;
949.8000;0.4184;3.0445;
950.1000;0.4184;3.0419;
950.4000;0.4176;3.0313;
950.7000;0.4184;3.0340;
951.0000;0.4192;3.0340;
951.3000;0.4176;3.0340;
951.6000;0.4192;3.0366;
951.9000;0.4176;3.0419;
952.2000;0.4176;3.0366;
952.5000;0.4160;3.0234;
952.8000;0.4233;3.0366;
953.1000;0.4184;3.0260;
953.4000;0.4160;3.0260;
953.7000;0.4127;3.0287;
954.0000;0.4168;3.0419;
954.3000;0.4168;3.0366;
954.6000;0.4192;3.0340;
954.9000;0.4160;3.0392;
955.2000;0.4192;3.0445;
955.5000;0.4184;3.0419;
955.8000;0.4290;3.0682;
956.1000;0.4208;3.0392;
956.4000;0.4168;3.0313;
956.7000;0.4176;3.0287;
957.0000;0.4176;3.0392;
957.3000;0.4176;3.0445;
957.6000;0.4184;3.0419;
957.9000;0.4192;3.0445;
958.2000;0.4046;3.0023;
958.5000;0.4184;3.0366;
958.8000;0.4176;3.0313;
959.1000;0.4184;3.0366;
959.4000;0.4184;3.0498;
959.7000;0.4168;3.0471;
960.0000;0.4135;3.0445;
960.3000;0.4176;3.0471;
960.6000;0.4176;3.0498;
960.9000;0.4168;3.0498;
961.2000;0.4143;3.0498;
961.5000;0.4192;3.0682;
961.8000;0.4160;3.0656;
962.1000;0.4127;3.0603;
962.4000;0.4168;3.0682;
962.7000;0.4160;3.0682;
963.0000;0.4192;3.0814;
963.3000;0.4184;3.0735;
963.6000;0.4160;3.0682;
963.9000;0.4176;3.0894;
964.2000;0.4160;3.0894;
964.5000;0.4168;3.0867;
964.8000;0.4168;3.0920;
965.1000;0.4176;3.0867;
965.4000;0.4200;3.0814;
965.7000;0.4176;3.0762;
966.0000;0.4184;3.0841;
966.3000;0.4168;3.0762;
966.6000;0.4184;3.0709;
966.9000;0.4184;3.0709;
967.2000;0.4200;3.0682;
967.5000;0.4160;3.0524;
967.8000;0.4168;3.0471;
968.1000;0.4160;3.0445;
968.4000;0.4176;3.0551;
968.7000;0.4168;3.0577;
969.0000;0.4176;3.0577;
969.3000;0.4298;3.0788;
969.6000;0.4176;3.0445;
969.9000;0.4200;3.0498;
970.2000;0.4192;3.0419;
970.5000;0.4176;3.0313;
970.8000;0.4200;3.0419;
971.1000;0.4119;3.0260;
971.4000;0.4217;3.0498;
971.7000;0.4192;3.0498;
972.0000;0.4192;3.0471;
972.3000;0.4217;3.0551;
972.6000;0.4200;3.0498;
972.9000;0.4168;3.0471;
973.2000;0.4168;3.0498;
973.5000;0.4176;3.0471;
973.8000;0.4176;3.0498;
974.1000;0.4168;3.0471;
974.4000;0.4200;3.0603;
974.7000;0.4168;3.0630;
975.0000;0.4192;3.0630;
975.3000;0.4168;3.0577;
975.6000;0.4184;3.0630;
975.9000;0.4184;3.0656;
976.2000;0.4176;3.0498;
976.5000;0.4168;3.0471;
976.8000;0.4119;3.0287;
977.1000;0.4176;3.0551;
977.4000;0.4192;3.0524;
977.7000;0.4168;3.0551;
978.0000;0.4176;3.0630;
978.3000;0.4168;3.0630;
978.6000;0.4168;3.0577;
978.9000;0.4176;3.0551;
979.2000;0.4176;3.0577;
979.5000;0.4176;3.0656;
979.8000;0.4151;3.0603;
980.1000;0.4176;3.0603;
980.4000;0.4176;3.0709;
980.7000;0.4168;3.0788;
981.0000;0.4184;3.0867;
981.3000;0.4200;3.0867;
981.6000;0.4200;3.0867;
981.9000;0.4184;3.0841;
982.2000;0.4160;3.0814;
982.5000;0.4160;3.0762;
982.8000;0.4176;3.0814;
983.1000;0.4168;3.0814;
983.4000;0.4160;3.0709;
983.7000;0.4168;3.0656;
984.0000;0.4111;3.0577;
984.3000;0.4168;3.0788;
984.6000;0.4176;3.0841;
984.9000;0.4151;3.0841;
985.2000;0.4282;3.1184;
985.5000;0.4168;3.0735;
985.8000;0.4217;3.0867;
986.1000;0.4184;3.0682;
986.4000;0.4168;3.0735;
986.7000;0.4176;3.0735;
987.0000;0.4184;3.0577;
987.3000;0.4176;3.0630;
987.6000;0.4160;3.0603;
987.9000;0.4184;3.0603;
988.2000;0.4168;3.0471;
988.5000;0.4192;3.0471;
988.8000;0.4160;3.0287;
989.1000;0.4160;3.0419;
989.4000;0.4192;3.0471;
989.7000;0.4184;3.0419;
990.0000;0.4176;3.0445;
990.3000;0.4168;3.0471;
990.6000;0.4176;3.0498;
990.9000;0.4176;3.0471;
991.2000;0.4168;3.0445;
991.5000;0.4151;3.0392;
991.8000;0.4217;3.0630;
992.1000;0.4184;3.0577;
992.4000;0.4184;3.0498;
992.7000;0.4184;3.0445;
993.0000;0.4192;3.0445;
993.3000;0.4168;3.0471;
993.6000;0.4192;3.0630;
993.9000;0.4184;3.0630;
994.2000;0.4168;3.0630;
994.5000;0.4176;3.0656;
994.8000;0.4192;3.0762;
995.1000;0.4176;3.0577;
995.4000;0.4184;3.0551;
995.7000;0.4192;3.0630;
996.0000;0.4192;3.0630;
996.3000;0.4200;3.0630;
996.6000;0.4176;3.0577;
996.9000;0.4176;3.0603;
997.2000;0.4168;3.0498;
997.5000;0.4151;3.0524;
997.8000;0.4176;3.0603;
998.1000;0.4225;3.0762;
998.4000;0.4151;3.0630;
998.7000;0.4168;3.0603;
999.0000;0.4176;3.0551;
999.3000;0.4184;3.0630;
999.6000;0.4192;3.0709;
999.9000;0.4233;3.0788;
1000.2000;0.4160;3.0709;
1000.5000;0.4176;3.0867;
1000.8000;0.4127;3.0841;
1001.1000;0.4192;3.1025;
1001.4000;0.4176;3.1052;
1001.7000;0.4192;3.1052;
1002.0000;0.4160;3.0973;
1002.3000;0.4151;3.0973;
1002.6000;0.4192;3.1131;
1002.9000;0.4184;3.1105;
1003.2000;0.4160;3.1025;
1003.5000;0.4176;3.1025;
1003.8000;0.4184;3.1105;
1004.1000;0.4151;3.1052;
1004.4000;0.4160;3.1052;
1004.7000;0.4151;3.0946;
1005.0000;0.4176;3.0946;
1005.3000;0.4151;3.0841;
1005.6000;0.4160;3.0920;
1005.9000;0.4176;3.0946;
1006.2000;0.4160;3.0920;
1006.5000;0.4184;3.0867;
1006.8000;0.4046;3.0445;
1007.1000;0.4160;3.0656;
1007.4000;0.4111;3.0471;
1007.7000;0.4151;3.0551;
1008.0000;0.4208;3.0682;
1008.3000;0.4168;3.0577;
1008.6000;0.4135;3.0445;
1008.9000;0.4168;3.0551;
1009.2000;0.4168;3.0656;
1009.5000;0.4168;3.0603;
1009.8000;0.4160;3.0524;
1010.1000;0.4168;3.0551;
1010.4000;0.4176;3.0419;
1010.7000;0.4168;3.0419;
1011.0000;0.4168;3.0524;
1011.3000;0.4184;3.0524;
1011.6000;0.4168;3.0445;
1011.9000;0.4184;3.0366;
1012.2000;0.4184;3.0419;
1012.5000;0.4176;3.0419;
1012.8000;0.4184;3.0471;
1013.1000;0.4176;3.0445;
1013.4000;0.4176;3.0471;
1013.7000;0.4200;3.0445;
1014.0000;0.4176;3.0498;
1014.3000;0.4184;3.0577;
1014.6000;0.4184;3.0603;
1014.9000;0.4200;3.0630;
1015.2000;0.4160;3.0551;
1015.5000;0.4160;3.0471;
1015.8000;0.4151;3.0524;
1016.1000;0.4168;3.0551;
1016.4000;0.4192;3.0603;
1016.7000;0.4176;3.0498;
1017.0000;0.4176;3.0577;
1017.3000;0.4135;3.0524;
1017.6000;0.4127;3.0471;
1017.9000;0.4192;3.0682;
1018.2000;0.4168;3.0577;
1018.5000;0.4184;3.0630;
1018.8000;0.4143;3.0551;
1019.1000;0.4176;3.0735;
1019.4000;0.4151;3.0709;
1019.7000;0.4160;3.0762;
1020.0000;0.4160;3.0762;
1020.3000;0.4151;3.0788;
1020.6000;0.4176;3.0867;
1020.9000;0.4160;3.0894;
1021.2000;0.4151;3.0814;
1021.5000;0.4200;3.0999;
1021.8000;0.4127;3.0814;
1022.1000;0.4127;3.0762;
1022.4000;0.4176;3.0814;
1022.7000;0.4176;3.0762;
1023.0000;0.4184;3.0841;
1023.3000;0.4176;3.0894;
1023.6000;0.4143;3.0920;
1023.9000;0.4184;3.1052;
1024.2000;0.4176;3.0973;
1024.5000;0.4160;3.0894;
1024.8000;0.4143;3.0946;
1025.1000;0.4143;3.0946;
1025.4000;0.4151;3.0920;
1025.7000;0.4135;3.0814;
1026.0000;0.4168;3.0946;
1026.3000;0.4168;3.0867;
1026.6000;0.4225;3.0999;
1026.9000;0.4078;3.0603;
1027.2000;0.4184;3.0762;
1027.5000;0.4151;3.0709;
1027.8000;0.4176;3.0735;
1028.1000;0.4078;3.0498;
1028.4000;0.4176;3.0630;
1028.7000;0.4184;3.0656;
1029.0000;0.4151;3.0551;
1029.3000;0.4184;3.0630;
1029.6000;0.4176;3.0577;
1029.9000;0.4168;3.0498;
1030.2000;0.4168;3.0577;
1030.5000;0.4200;3.0656;
1030.8000;0.4168;3.0551;
1031.1000;0.4200;3.0577;
1031.4000;0.4160;3.0471;
1031.7000;0.4168;3.0551;
1032.0000;0.4176;3.0524;
1032.3000;0.4184;3.0419;
1032.6000;0.4135;3.0419;
1032.9000;0.4160;3.0445;
1033.2000;0.4176;3.0577;
1033.5000;0.4217;3.0630;
1033.8000;0.4143;3.0392;
1034.1000;0.4176;3.0524;
1034.4000;0.4168;3.0630;
1034.7000;0.4168;3.0630;
1035.0000;0.4168;3.0630;
1035.3000;0.4184;3.0603;
1035.6000;0.4200;3.0603;
1035.9000;0.4168;3.0471;
1036.2000;0.4176;3.0392;
1036.5000;0.4257;3.0735;
1036.8000;0.4168;3.0498;
1037.1000;0.4184;3.0419;
1037.4000;0.4192;3.0392;
1037.7000;0.4143;3.0260;
1038.0000;0.4184;3.0340;
1038.3000;0.4184;3.0419;
1038.6000;0.4192;3.0445;
1038.9000;0.4160;3.0471;
1039.2000;0.4184;3.0471;
1039.5000;0.4168;3.0498;
1039.8000;0.4160;3.0498;
1040.1000;0.4176;3.0577;
1040.4000;0.4143;3.0630;
1040.7000;0.4168;3.0735;
1041.0000;0.4151;3.0682;
1041.3000;0.4168;3.0735;
1041.6000;0.4200;3.0814;
1041.9000;0.4168;3.0735;
1042.2000;0.4168;3.0735;
1042.5000;0.4192;3.0762;
1042.8000;0.4168;3.0709;
1043.1000;0.4160;3.0682;
1043.4000;0.4184;3.0762;
1043.7000;0.4160;3.0814;
1044.0000;0.4168;3.0867;
1044.3000;0.4160;3.0788;
1044.6000;0.4184;3.0630;
1044.9000;0.4151;3.0471;
1045.2000;0.4176;3.0471;
1045.5000;0.4127;3.0313;
1045.8000;0.4151;3.0471;
1046.1000;0.4151;3.0445;
1046.4000;0.4184;3.0471;
1046.7000;0.4176;3.0498;
1047.0000;0.4160;3.0445;
1047.3000;0.4168;3.0498;
1047.6000;0.4143;3.0392;
1047.9000;0.4111;3.0128;
1048.2000;0.4168;3.0234;
1048.5000;0.4143;3.0234;
1048.8000;0.4241;3.0471;
1049.1000;0.4127;3.0155;
1049.4000;0.4192;3.0234;
1049.7000;0.4151;3.0313;
1050.0000;0.4176;3.0392;
1050.3000;0.4274;3.0630;
1050.6000;0.4168;3.0366;
1050.9000;0.4135;3.0260;
1051.2000;0.4176;3.0419;
1051.5000;0.4176;3.0445;
1051.8000;0.4143;3.0366;
1052.1000;0.4103;3.0128;
1052.4000;0.4176;3.0287;
1052.7000;0.4160;3.0313;
1053.0000;0.4192;3.0419;
1053.3000;0.4168;3.0340;
1053.6000;0.4176;3.0287;
1053.9000;0.4176;3.0313;
1054.2000;0.4168;3.0260;
1054.5000;0.4160;3.0234;
1054.8000;0.4168;3.0234;
1055.1000;0.4160;3.0181;
1055.4000;0.4233;3.0419;
1055.7000;0.4151;3.0234;
1056.0000;0.4168;3.0155;
1056.3000;0.4200;3.0208;
1056.6000;0.4151;3.0076;
1056.9000;0.4062;2.9838;
1057.2000;0.4168;3.0102;
1057.5000;0.4160;3.0023;
1057.8000;0.4176;3.0076;
1058.1000;0.4168;3.0049;
1058.4000;0.4184;3.0128;
1058.7000;0.4184;3.0234;
1059.0000;0.4111;3.0128;
1059.3000;0.4168;3.0340;
1059.6000;0.4225;3.0445;
1059.9000;0.4184;3.0445;
1060.2000;0.4168;3.0498;
1060.5000;0.4168;3.0498;
1060.8000;0.4160;3.0445;
1061.1000;0.4168;3.0471;
1061.4000;0.4176;3.0524;
1061.7000;0.4135;3.0392;
1062.0000;0.4176;3.0471;
1062.3000;0.4151;3.0471;
1062.6000;0.4160;3.0498;
1062.9000;0.4160;3.0498;
1063.2000;0.4151;3.0524;
1063.5000;0.4176;3.0577;
1063.8000;0.4119;3.0551;
1064.1000;0.4217;3.0867;
1064.4000;0.4037;3.0419;
1064.7000;0.4111;3.0709;
1065.0000;0.4151;3.0841;
1065.3000;0.4176;3.0999;
1065.6000;0.4168;3.0999;
1065.9000;0.4160;3.0973;
1066.2000;0.4168;3.1052;
1066.5000;0.4176;3.1105;
1066.8000;0.4176;3.1052;
1067.1000;0.4176;3.0946;
1067.4000;0.4176;3.0946;
1067.7000;0.4176;3.0788;
1068.0000;0.4168;3.0682;
1068.3000;0.4168;3.0656;
1068.6000;0.4184;3.0656;
1068.9000;0.4176;3.0603;
1069.2000;0.4176;3.0551;
1069.5000;0.4143;3.0471;
1069.8000;0.4290;3.0814;
1070.1000;0.4119;3.0313;
1070.4000;0.4176;3.0392;
1070.7000;0.4160;3.0287;
1071.0000;0.4151;3.0313;
1071.3000;0.4176;3.0419;
1071.6000;0.4176;3.0419;
1071.9000;0.4176;3.0419;
1072.2000;0.4168;3.0392;
1072.5000;0.4168;3.0313;
1072.8000;0.4192;3.0340;
1073.1000;0.4168;3.0287;
1073.4000;0.4200;3.0366;
1073.7000;0.4184;3.0471;
1074.0000;0.4184;3.0471;
1074.3000;0.4151;3.0392;
1074.6000;0.4176;3.0445;
1074.9000;0.4184;3.0419;
1075.2000;0.4168;3.0287;
1075.5000;0.4217;3.0498;
1075.8000;0.4184;3.0471;
1076.1000;0.4176;3.0445;
1076.4000;0.4151;3.0340;
1076.7000;0.4176;3.0419;
1077.0000;0.4151;3.0366;
1077.3000;0.4176;3.0471;
1077.6000;0.4143;3.0392;
1077.9000;0.4184;3.0577;
1078.2000;0.4168;3.0471;
1078.5000;0.4184;3.0551;
1078.8000;0.4176;3.0577;
1079.1000;0.4168;3.0656;
1079.4000;0.4184;3.0735;
1079.7000;0.4168;3.0630;
1080.0000;0.4184;3.0709;
1080.3000;0.4168;3.0603;
1080.6000;0.4184;3.0577;
1080.9000;0.4151;3.0603;
1081.2000;0.4143;3.0524;
1081.5000;0.4111;3.0471;
1081.8000;0.4160;3.0656;
1082.1000;0.4151;3.0656;
1082.4000;0.4151;3.0788;
1082.7000;0.4160;3.0867;
1083.0000;0.4127;3.0762;
1083.3000;0.4176;3.0946;
1083.6000;0.4184;3.0867;
1083.9000;0.4184;3.1025;
1084.2000;0.4168;3.0999;
1084.5000;0.4168;3.0973;
1084.8000;0.4151;3.0946;
1085.1000;0.4160;3.0841;
1085.4000;0.4160;3.0735;
1085.7000;0.4176;3.0709;
1086.0000;0.4176;3.0682;
1086.3000;0.4143;3.0630;
1086.6000;0.4160;3.0656;
1086.9000;0.4176;3.0656;
1087.2000;0.4151;3.0603;
1087.5000;0.4160;3.0551;
1087.8000;0.4168;3.0524;
1088.1000;0.4298;3.0788;
1088.4000;0.4176;3.0366;
1088.7000;0.4184;3.0313;
1089.0000;0.4184;3.0366;
1089.3000;0.4200;3.0419;
1089.6000;0.4192;3.0392;
1089.9000;0.4160;3.0260;
1090.2000;0.4151;3.0234;
1090.5000;0.4168;3.0366;
1090.8000;0.4151;3.0313;
1091.1000;0.4168;3.0313;
1091.4000;0.4168;3.0445;
1091.7000;0.4160;3.0366;
1092.0000;0.4168;3.0445;
1092.3000;0.4168;3.0471;
1092.6000;0.4160;3.0498;
1092.9000;0.4168;3.0471;
1093.2000;0.4176;3.0471;
1093.5000;0.4184;3.0445;
1093.8000;0.4265;3.0709;
1094.1000;0.4176;3.0471;
1094.4000;0.4192;3.0392;
1094.7000;0.4168;3.0260;
1095.0000;0.4176;3.0340;
1095.3000;0.4176;3.0392;
1095.6000;0.4184;3.0498;
1095.9000;0.4070;3.0128;
1096.2000;0.4168;3.0471;
1096.5000;0.4184;3.0498;
1096.8000;0.4200;3.0498;
1097.1000;0.4176;3.0498;
1097.4000;0.4192;3.0498;
1097.7000;0.4200;3.0551;
1098.0000;0.4168;3.0577;
1098.3000;0.4151;3.0445;
1098.6000;0.4200;3.0498;
1098.9000;0.4176;3.0445;
1099.2000;0.4151;3.0313;
1099.5000;0.4184;3.0524;
1099.8000;0.4160;3.0603;
1100.1000;0.4160;3.0656;
1100.4000;0.4176;3.0735;
1100.7000;0.4176;3.0762;
1101.0000;0.4127;3.0603;
1101.3000;0.4160;3.0709;
1101.6000;0.4135;3.0709;
1101.9000;0.4151;3.0682;
1102.2000;0.4143;3.0709;
1102.5000;0.4160;3.0762;
1102.8000;0.4127;3.0735;
1103.1000;0.4160;3.0841;
1103.4000;0.4176;3.0946;
1103.7000;0.4160;3.0841;
1104.0000;0.4176;3.0894;
1104.3000;0.4184;3.0894;
1104.6000;0.4168;3.0894;
1104.9000;0.4176;3.1025;
1105.2000;0.4176;3.0999;
1105.5000;0.4160;3.0920;
1105.8000;0.4200;3.1052;
1106.1000;0.4151;3.0894;
1106.4000;0.4176;3.0735;
1106.7000;0.4192;3.0814;
1107.0000;0.4168;3.0656;
1107.3000;0.4160;3.0630;
1107.6000;0.4160;3.0551;
1107.9000;0.4168;3.0603;
1108.2000;0.4160;3.0630;
1108.5000;0.4184;3.0603;
1108.8000;0.4168;3.0419;
1109.1000;0.4143;3.0313;
1109.4000;0.4176;3.0340;
1109.7000;0.4200;3.0524;
1110.0000;0.4160;3.0392;
1110.3000;0.4160;3.0366;
1110.6000;0.4192;3.0524;
1110.9000;0.4176;3.0498;
1111.2000;0.4176;3.0471;
1111.5000;0.4176;3.0471;
1111.8000;0.4160;3.0445;
1112.1000;0.4176;3.0577;
1112.4000;0.4160;3.0551;
1112.7000;0.4119;3.0445;
1113.0000;0.4192;3.0577;
1113.3000;0.4184;3.0551;
1113.6000;0.4192;3.0551;
1113.9000;0.4168;3.0498;
1114.2000;0.4184;3.0551;
1114.5000;0.4176;3.0471;
1114.8000;0.4062;3.0155;
1115.1000;0.4184;3.0340;
1115.4000;0.4176;3.0313;
1115.7000;0.4176;3.0260;
1116.0000;0.4184;3.0260;
1116.3000;0.4176;3.0340;
1116.6000;0.4168;3.0419;
1116.9000;0.4168;3.0419;
1117.2000;0.4176;3.0419;
1117.5000;0.4192;3.0392;
1117.8000;0.4208;3.0419;
1118.1000;0.4160;3.0181;
1118.4000;0.4151;3.0181;
1118.7000;0.4160;3.0155;
1119.0000;0.4160;3.0155;
1119.3000;0.4176;3.0128;
1119.6000;0.4168;3.0208;
1119.9000;0.4306;3.0656;
1120.2000;0.4168;3.0366;
1120.5000;0.4143;3.0366;
1120.8000;0.4151;3.0524;
1121.1000;0.4151;3.0577;
1121.4000;0.4225;3.0682;
1121.7000;0.4168;3.0603;
1122.0000;0.4143;3.0630;
1122.3000;0.4168;3.0788;
1122.6000;0.4176;3.0841;
1122.9000;0.4151;3.0788;
1123.2000;0.4176;3.0946;
1123.5000;0.4160;3.0946;
1123.8000;0.4151;3.0894;
1124.1000;0.4160;3.0894;
1124.4000;0.4143;3.0762;
1124.7000;0.4151;3.0788;
1125.0000;0.4168;3.0814;
1125.3000;0.4143;3.0762;
1125.6000;0.4160;3.0841;
1125.9000;0.4160;3.0841;
1126.2000;0.4160;3.0841;
1126.5000;0.4151;3.0867;
1126.8000;0.4176;3.0946;
1127.1000;0.4143;3.0867;
1127.4000;0.4160;3.0894;
1127.7000;0.4176;3.0814;
1128.0000;0.4217;3.0814;
1128.3000;0.4168;3.0656;
1128.6000;0.4168;3.0524;
1128.9000;0.4160;3.0419;
1129.2000;0.4160;3.0419;
1129.5000;0.4151;3.0392;
1129.8000;0.4151;3.0392;
1130.1000;0.4168;3.0392;
1130.4000;0.4168;3.0340;
1130.7000;0.4192;3.0419;
1131.0000;0.4070;3.0049;
1131.3000;0.4322;3.0709;
1131.6000;0.4160;3.0287;
1131.9000;0.4168;3.0313;
1132.2000;0.4151;3.0287;
1132.5000;0.4176;3.0366;
1132.8000;0.4217;3.0445;
1133.1000;0.4184;3.0392;
1133.4000;0.4176;3.0392;
1133.7000;0.4290;3.0762;
1134.0000;0.4184;3.0471;
1134.3000;0.4168;3.0340;
1134.6000;0.4184;3.0445;
1134.9000;0.4208;3.0577;
1135.2000;0.4184;3.0498;
1135.5000;0.4184;3.0445;
1135.8000;0.4184;3.0445;
1136.1000;0.4176;3.0471;
1136.4000;0.4184;3.0577;
1136.7000;0.4176;3.0630;
1137.0000;0.4168;3.0656;
1137.3000;0.4176;3.0682;
1137.6000;0.4168;3.0551;
1137.9000;0.4192;3.0603;
1138.2000;0.4184;3.0471;
1138.5000;0.4168;3.0471;
1138.8000;0.4192;3.0524;
1139.1000;0.4192;3.0577;
1139.4000;0.4168;3.0630;
1139.7000;0.4135;3.0551;
1140.0000;0.4176;3.0656;
1140.3000;0.4168;3.0709;
1140.6000;0.4168;3.0788;
1140.9000;0.4217;3.0814;
1141.2000;0.4168;3.0656;
1141.5000;0.4160;3.0630;
1141.8000;0.4168;3.0735;
1142.1000;0.4176;3.0814;
1142.4000;0.4168;3.0762;
1142.7000;0.4160;3.0735;
1143.0000;0.4168;3.0762;
1143.3000;0.4160;3.0656;
1143.6000;0.4168;3.0603;
1143.9000;0.4168;3.0682;
1144.2000;0.4135;3.0603;
1144.5000;0.4168;3.0709;
1144.8000;0.4160;3.0682;
1145.1000;0.4168;3.0682;
1145.4000;0.4298;3.1078;
1145.7000;0.4168;3.0735;
1146.0000;0.4151;3.0762;
1146.3000;0.4176;3.0709;
1146.6000;0.4168;3.0762;
1146.9000;0.4168;3.0788;
1147.2000;0.4151;3.0656;
1147.5000;0.4151;3.0656;
1147.8000;0.4200;3.0762;
1148.1000;0.4176;3.0709;
1148.4000;0.4160;3.0656;
1148.7000;0.4168;3.0524;
1149.0000;0.4160;3.0498;
1149.3000;0.4160;3.0445;
1149.6000;0.4192;3.0577;
1149.9000;0.4168;3.0471;
1150.2000;0.4176;3.0498;
1150.5000;0.4168;3.0471;
1150.8000;0.4160;3.0445;
1151.1000;0.4160;3.0392;
1151.4000;0.4168;3.0366;
1151.7000;0.4176;3.0419;
1152.0000;0.4225;3.0524;
1152.3000;0.4184;3.0471;
1152.6000;0.4184;3.0524;
1152.9000;0.4192;3.0419;
1153.2000;0.4168;3.0340;
1153.5000;0.4151;3.0287;
1153.8000;0.4176;3.0366;
1154.1000;0.4176;3.0392;
1154.4000;0.4184;3.0419;
1154.7000;0.4176;3.0366;
1155.0000;0.4168;3.0445;
1155.3000;0.4217;3.0603;
1155.6000;0.4192;3.0498;
1155.9000;0.4184;3.0392;
1156.2000;0.4143;3.0287;
1156.5000;0.4168;3.0392;
1156.8000;0.4168;3.0366;
1157.1000;0.4176;3.0419;
1157.4000;0.4151;3.0340;
1157.7000;0.4151;3.0366;
1158.0000;0.4176;3.0524;
1158.3000;0.4176;3.0577;
1158.6000;0.4160;3.0577;
1158.9000;0.4176;3.0603;
1159.2000;0.4176;3.0603;
1159.5000;0.4217;3.0788;
1159.8000;0.4160;3.0709;
1160.1000;0.4184;3.0841;
1160.4000;0.4119;3.0630;
1160.7000;0.4208;3.0814;
1161.0000;0.4176;3.0762;
1161.3000;0.4168;3.0788;
1161.6000;0.4168;3.0814;
1161.9000;0.4143;3.0762;
1162.2000;0.4168;3.0788;
1162.5000;0.4184;3.0814;
1162.8000;0.4151;3.0656;
1163.1000;0.4151;3.0656;
1163.4000;0.4151;3.0735;
1163.7000;0.4184;3.0788;
1164.0000;0.4168;3.0762;
1164.3000;0.4127;3.0682;
1164.6000;0.4168;3.0814;
1164.9000;0.4143;3.0788;
1165.2000;0.4160;3.0788;
1165.5000;0.4160;3.0788;
1165.8000;0.4160;3.0814;
1166.1000;0.4176;3.0867;
1166.4000;0.4176;3.0894;
1166.7000;0.4168;3.0841;
1167.0000;0.4176;3.0867;
1167.3000;0.4160;3.0788;
1167.6000;0.4192;3.0814;
1167.9000;0.4151;3.0762;
1168.2000;0.4176;3.0735;
1168.5000;0.4160;3.0682;
1168.8000;0.4143;3.0524;
1169.1000;0.4160;3.0551;
1169.4000;0.4151;3.0445;
1169.7000;0.4160;3.0471;
1170.0000;0.4160;3.0445;
1170.3000;0.4151;3.0366;
1170.6000;0.4168;3.0340;
1170.9000;0.4176;3.0445;
1171.2000;0.4176;3.0498;
1171.5000;0.4176;3.0392;
1171.8000;0.4290;3.0682;
1172.1000;0.4184;3.0366;
1172.4000;0.4176;3.0392;
1172.7000;0.4176;3.0524;
1173.0000;0.4184;3.0471;
1173.3000;0.4160;3.0445;
1173.6000;0.4192;3.0498;
1173.9000;0.4176;3.0419;
1174.2000;0.4160;3.0392;
1174.5000;0.4168;3.0419;
1174.8000;0.4176;3.0445;
1175.1000;0.4176;3.0471;
1175.4000;0.4233;3.0577;
1175.7000;0.4160;3.0419;
1176.0000;0.4176;3.0471;
1176.3000;0.4176;3.0471;
1176.6000;0.4168;3.0630;
1176.9000;0.4168;3.0603;
1177.2000;0.4184;3.0656;
1177.5000;0.4184;3.0656;
1177.8000;0.4168;3.0577;
1178.1000;0.4176;3.0551;
1178.4000;0.4176;3.0577;
1178.7000;0.4184;3.0682;
1179.0000;0.4184;3.0603;
1179.3000;0.4200;3.0630;
1179.6000;0.4168;3.0498;
1179.9000;0.4168;3.0392;
1180.2000;0.4086;3.0260;
1180.5000;0.4151;3.0419;
1180.8000;0.4160;3.0419;
1181.1000;0.4176;3.0498;
1181.4000;0.4168;3.0551;
1181.7000;0.4290;3.0894;
1182.0000;0.4160;3.0577;
1182.3000;0.4200;3.0814;
1182.6000;0.4168;3.0762;
1182.9000;0.4151;3.0709;
1183.2000;0.4135;3.0656;
1183.5000;0.4176;3.0841;
1183.8000;0.4160;3.0682;
1184.1000;0.4151;3.0656;
1184.4000;0.4143;3.0762;
1184.7000;0.4176;3.0920;
1185.0000;0.4151;3.0894;
1185.3000;0.4143;3.0920;
1185.6000;0.4160;3.0920;
1185.9000;0.4135;3.0841;
1186.2000;0.4160;3.0867;
1186.5000;0.4151;3.0841;
1186.8000;0.4160;3.0814;
1187.1000;0.4168;3.0841;
1187.4000;0.4176;3.0920;
1187.7000;0.4184;3.0946;
1188.0000;0.4168;3.0841;
1188.3000;0.4143;3.0841;
1188.6000;0.4168;3.0788;
1188.9000;0.4184;3.0841;
1189.2000;0.4168;3.0867;
1189.5000;0.4160;3.0867;
1189.8000;0.4160;3.0867;
1190.1000;0.4225;3.0973;
1190.4000;0.4176;3.0735;
1190.7000;0.4160;3.0762;
1191.0000;0.4160;3.0762;
1191.3000;0.4151;3.0814;
1191.6000;0.4176;3.0814;
1191.9000;0.4176;3.0788;
1192.2000;0.4168;3.0682;
1192.5000;0.4160;3.0577;
1192.8000;0.4192;3.0524;
1193.1000;0.4176;3.0419;
1193.4000;0.4160;3.0392;
1193.7000;0.4160;3.0392;
1194.0000;0.4168;3.0419;
1194.3000;0.4151;3.0366;
1194.6000;0.4160;3.0445;
1194.9000;0.4160;3.0419;
1195.2000;0.4168;3.0445;
1195.5000;0.4168;3.0392;
1195.8000;0.4168;3.0392;
1196.1000;0.4168;3.0340;
1196.4000;0.4151;3.0392;
1196.7000;0.4151;3.0340;
1197.0000;0.4086;3.0076;
1197.3000;0.4176;3.0392;
1197.6000;0.4176;3.0392;
1197.9000;0.4282;3.0682;
1198.2000;0.4160;3.0392;
1198.5000;0.4160;3.0498;
1198.8000;0.4135;3.0366;
1199.1000;0.4168;3.0603;
1199.4000;0.4176;3.0630;
1199.7000;0.4184;3.0630;
1200.0000;0.4192;3.0709;
1200.3000;0.4143;3.0498;
1200.6000;0.4151;3.0524;
1200.9000;0.4160;3.0656;
1201.2000;0.4160;3.0735;
1201.5000;0.4160;3.0682;
1201.8000;0.4151;3.0735;
1202.1000;0.4176;3.0814;
1202.4000;0.4168;3.0841;
1202.7000;0.4168;3.0841;
1203.0000;0.4184;3.0946;
1203.3000;0.4176;3.0841;
1203.6000;0.4160;3.0894;
1203.9000;0.4151;3.0920;
1204.2000;0.4160;3.0920;
1204.5000;0.4143;3.0920;
1204.8000;0.4168;3.0973;
1205.1000;0.4160;3.0867;
1205.4000;0.4119;3.0762;
1205.7000;0.4160;3.0762;
1206.0000;0.4160;3.0841;
1206.3000;0.4143;3.0709;
1206.6000;0.4184;3.0894;
1206.9000;0.4168;3.0946;
1207.2000;0.4151;3.0894;
1207.5000;0.4176;3.0946;
1207.8000;0.4168;3.0788;
1208.1000;0.4176;3.0709;
1208.4000;0.4168;3.0682;
1208.7000;0.4184;3.0709;
1209.0000;0.4160;3.0656;
1209.3000;0.4168;3.0551;
1209.6000;0.4176;3.0577;
1209.9000;0.4168;3.0524;
1210.2000;0.4151;3.0445;
1210.5000;0.4168;3.0498;
1210.8000;0.4168;3.0471;
1211.1000;0.4160;3.0366;
1211.4000;0.4184;3.0366;
1211.7000;0.4168;3.0392;
1212.0000;0.4176;3.0471;
1212.3000;0.4168;3.0471;
1212.6000;0.4192;3.0603;
1212.9000;0.4037;3.0208;
1213.2000;0.4168;3.0524;
1213.5000;0.4176;3.0419;
1213.8000;0.4217;3.0577;
1214.1000;0.4160;3.0471;
1214.4000;0.4160;3.0498;
1214.7000;0.4176;3.0471;
1215.0000;0.4160;3.0471;
1215.3000;0.4160;3.0524;
1215.6000;0.4176;3.0551;
1215.9000;0.4160;3.0498;
1216.2000;0.4168;3.0551;
1216.5000;0.4184;3.0551;
1216.8000;0.4168;3.0524;
1217.1000;0.4184;3.0551;
1217.4000;0.4168;3.0709;
1217.7000;0.4143;3.0577;
1218.0000;0.4143;3.0551;
1218.3000;0.4168;3.0656;
1218.6000;0.4192;3.0735;
1218.9000;0.4192;3.0682;
1219.2000;0.4160;3.0551;
1219.5000;0.4176;3.0471;
1219.8000;0.4176;3.0524;
1220.1000;0.4168;3.0471;
1220.4000;0.4151;3.0419;
1220.7000;0.4168;3.0551;
1221.0000;0.4151;3.0656;
1221.3000;0.4168;3.0682;
1221.6000;0.4160;3.0630;
1221.9000;0.4160;3.0762;
1222.2000;0.4168;3.0762;
1222.5000;0.4176;3.0867;
1222.8000;0.4168;3.0867;
1223.1000;0.4160;3.0920;
1223.4000;0.4160;3.0999;
1223.7000;0.4151;3.1078;
1224.0000;0.4176;3.1131;
1224.3000;0.4135;3.1052;
1224.6000;0.4176;3.1131;
1224.9000;0.4184;3.1078;
1225.2000;0.4176;3.0894;
1225.5000;0.4168;3.0788;
1225.8000;0.4168;3.0788;
1226.1000;0.4135;3.0656;
1226.4000;0.4160;3.0735;
1226.7000;0.4127;3.0735;
1227.0000;0.4160;3.0841;
1227.3000;0.4265;3.1025;
1227.6000;0.4168;3.0709;
1227.9000;0.4160;3.0682;
1228.2000;0.4160;3.0682;
1228.5000;0.4184;3.0551;
1228.8000;0.4054;3.0128;
1229.1000;0.4176;3.0445;
1229.4000;0.4160;3.0419;
1229.7000;0.4176;3.0445;
1230.0000;0.4176;3.0419;
1230.3000;0.4151;3.0419;
1230.6000;0.4151;3.0445;
1230.9000;0.4151;3.0498;
1231.2000;0.4151;3.0498;
1231.5000;0.4176;3.0603;
1231.8000;0.4151;3.0603;
1232.1000;0.4168;3.0603;
1232.4000;0.4160;3.0603;
1232.7000;0.4160;3.0524;
1233.0000;0.4160;3.0471;
1233.3000;0.4184;3.0603;
1233.6000;0.4184;3.0630;
1233.9000;0.4168;3.0577;
1234.2000;0.4176;3.0603;
1234.5000;0.4143;3.0551;
1234.8000;0.4176;3.0630;
1235.1000;0.4184;3.0656;
1235.4000;0.4176;3.0814;
1235.7000;0.4184;3.0814;
1236.0000;0.4168;3.0735;
1236.3000;0.4176;3.0788;
1236.6000;0.4176;3.0709;
1236.9000;0.4257;3.0894;
1237.2000;0.4160;3.0656;
1237.5000;0.4184;3.0630;
1237.8000;0.4217;3.0709;
1238.1000;0.4176;3.0656;
1238.4000;0.4176;3.0709;
1238.7000;0.4119;3.0630;
1239.0000;0.4184;3.0735;
1239.3000;0.4217;3.0735;
1239.6000;0.4143;3.0630;
1239.9000;0.4200;3.0867;
1240.2000;0.4184;3.0894;
1240.5000;0.4160;3.0762;
1240.8000;0.4160;3.0788;
1241.1000;0.4176;3.0788;
1241.4000;0.4176;3.0762;
1241.7000;0.4160;3.0762;
1242.0000;0.4151;3.0788;
1242.3000;0.4160;3.0814;
1242.6000;0.4160;3.0867;
1242.9000;0.4151;3.0841;
1243.2000;0.4168;3.0841;
1243.5000;0.4151;3.0841;
1243.8000;0.4168;3.0841;
1244.1000;0.4160;3.0841;
1244.4000;0.4168;3.0894;
1244.7000;0.4135;3.0867;
1245.0000;0.4176;3.1078;
1245.3000;0.4176;3.0999;
1245.6000;0.4135;3.0867;
1245.9000;0.4151;3.0920;
1246.2000;0.4143;3.0867;
1246.5000;0.4192;3.0867;
1246.8000;0.4168;3.0788;
1247.1000;0.4168;3.0841;
1247.4000;0.4168;3.0814;
1247.7000;0.4192;3.0867;
1248.0000;0.4176;3.0841;
1248.3000;0.4168;3.0762;
1248.6000;0.4168;3.0630;
1248.9000;0.4176;3.0603;
1249.2000;0.4176;3.0630;
1249.5000;0.4168;3.0524;
1249.8000;0.4176;3.0445;
1250.1000;0.4151;3.0471;
1250.4000;0.4265;3.0762;
1250.7000;0.4184;3.0551;
1251.0000;0.4160;3.0524;
1251.3000;0.4168;3.0577;
1251.6000;0.4151;3.0577;
1251.9000;0.4160;3.0498;
1252.2000;0.4151;3.0524;
1252.5000;0.4151;3.0498;
1252.8000;0.4168;3.0551;
1253.1000;0.4143;3.0392;
1253.4000;0.4151;3.0471;
1253.7000;0.4176;3.0419;
1254.0000;0.4151;3.0419;
1254.3000;0.4176;3.0392;
1254.6000;0.4151;3.0313;
1254.9000;0.4176;3.0340;
1255.2000;0.4168;3.0340;
1255.5000;0.4184;3.0392;
1255.8000;0.4168;3.0287;
1256.1000;0.4160;3.0340;
1256.4000;0.4176;3.0392;
1256.7000;0.4208;3.0524;
1257.0000;0.4168;3.0392;
1257.3000;0.4160;3.0419;
1257.6000;0.4151;3.0445;
1257.9000;0.4160;3.0471;
1258.2000;0.4151;3.0419;
1258.5000;0.4241;3.0788;
1258.8000;0.4176;3.0630;
1259.1000;0.4176;3.0656;
1259.4000;0.4192;3.0735;
1259.7000;0.4241;3.0814;
1260.0000;0.4168;3.0603;
1260.3000;0.4127;3.0656;
1260.6000;0.4151;3.0788;
1260.9000;0.4160;3.0735;
1261.2000;0.4160;3.0788;
1261.5000;0.4094;3.0551;
1261.8000;0.4168;3.0867;
1262.1000;0.4151;3.0709;
1262.4000;0.4151;3.0788;
1262.7000;0.4160;3.0841;
1263.0000;0.4176;3.0894;
1263.3000;0.4176;3.1025;
1263.6000;0.4127;3.0894;
1263.9000;0.4168;3.0973;
1264.2000;0.4176;3.1052;
1264.5000;0.4192;3.1078;
1264.8000;0.4151;3.1052;
1265.1000;0.4168;3.1131;
1265.4000;0.4168;3.1105;
1265.7000;0.4160;3.0973;
1266.0000;0.4151;3.0973;
1266.3000;0.4143;3.0920;
1266.6000;0.4135;3.0920;
1266.9000;0.4160;3.0841;
1267.2000;0.4160;3.0762;
1267.5000;0.4160;3.0762;
1267.8000;0.4078;3.0524;
1268.1000;0.4168;3.0841;
1268.4000;0.4257;3.1052;
1268.7000;0.4233;3.1025;
1269.0000;0.4135;3.0630;
1269.3000;0.4176;3.0656;
1269.6000;0.4176;3.0630;
1269.9000;0.4160;3.0524;
1270.2000;0.4184;3.0551;
1270.5000;0.4168;3.0471;
1270.8000;0.4168;3.0471;
1271.1000;0.4143;3.0340;
1271.4000;0.4160;3.0392;
1271.7000;0.4143;3.0340;
1272.0000;0.4168;3.0366;
1272.3000;0.4143;3.0313;
1272.6000;0.4192;3.0445;
1272.9000;0.4168;3.0392;
1273.2000;0.4176;3.0419;
1273.5000;0.4168;3.0445;
1273.8000;0.4217;3.0656;
1274.1000;0.4192;3.0524;
1274.4000;0.4119;3.0340;
1274.7000;0.4184;3.0366;
1275.0000;0.4168;3.0260;
1275.3000;0.4160;3.0287;
1275.6000;0.4176;3.0260;
1275.9000;0.4184;3.0340;
1276.2000;0.4160;3.0208;
1276.5000;0.4176;3.0181;
1276.8000;0.4168;3.0287;
1277.1000;0.4176;3.0260;
1277.4000;0.4111;3.0181;
1277.7000;0.4160;3.0313;
1278.0000;0.4168;3.0287;
1278.3000;0.4257;3.0577;
1278.6000;0.4184;3.0366;
1278.9000;0.4184;3.0392;
1279.2000;0.4176;3.0340;
1279.5000;0.4160;3.0287;
1279.8000;0.4151;3.0366;
1280.1000;0.4127;3.0419;
1280.4000;0.4192;3.0524;
1280.7000;0.4176;3.0498;
1281.0000;0.4176;3.0603;
1281.3000;0.4176;3.0630;
1281.6000;0.4160;3.0630;
1281.9000;0.4119;3.0551;
1282.2000;0.4217;3.0894;
1282.5000;0.4160;3.0762;
1282.8000;0.4168;3.0841;
1283.1000;0.4135;3.0735;
1283.4000;0.4135;3.0788;
1283.7000;0.4151;3.0762;
1284.0000;0.4160;3.0762;
1284.3000;0.4168;3.0735;
1284.6000;0.4151;3.0709;
1284.9000;0.4151;3.0709;
1285.2000;0.4160;3.0709;
1285.5000;0.4143;3.0682;
1285.8000;0.4151;3.0762;
1286.1000;0.4160;3.0814;
1286.4000;0.4160;3.0682;
1286.7000;0.4151;3.0709;
1287.0000;0.4127;3.0577;
1287.3000;0.4151;3.0709;
1287.6000;0.4151;3.0709;
1287.9000;0.4135;3.0682;
1288.2000;0.4160;3.0656;
1288.5000;0.4151;3.0471;
1288.8000;0.4208;3.0577;
1289.1000;0.4160;3.0445;
1289.4000;0.4168;3.0392;
1289.7000;0.4143;3.0287;
1290.0000;0.4225;3.0524;
1290.3000;0.4176;3.0392;
1290.6000;0.4176;3.0419;
1290.9000;0.4176;3.0313;
1291.2000;0.4168;3.0392;
1291.5000;0.4184;3.0366;
1291.8000;0.4200;3.0498;
1292.1000;0.4192;3.0445;
1292.4000;0.4176;3.0392;
1292.7000;0.4176;3.0287;
1293.0000;0.4176;3.0313;
1293.3000;0.4151;3.0260;
1293.6000;0.4160;3.0260;
1293.9000;0.4184;3.0392;
1294.2000;0.4176;3.0392;
1294.5000;0.4233;3.0498;
1294.8000;0.4192;3.0419;
1295.1000;0.4168;3.0313;
1295.4000;0.4143;3.0340;
1295.7000;0.4151;3.0366;
1296.0000;0.4160;3.0392;
1296.3000;0.4168;3.0471;
1296.6000;0.4217;3.0656;
1296.9000;0.4168;3.0524;
1297.2000;0.4160;3.0498;
1297.5000;0.4184;3.0656;
1297.8000;0.4176;3.0603;
1298.1000;0.4143;3.0551;
1298.4000;0.4176;3.0524;
1298.7000;0.4176;3.0524;
1299.0000;0.4168;3.0498;
1299.3000;0.4151;3.0630;
1299.6000;0.4176;3.0630;
1299.9000;0.4176;3.0709;
1300.2000;0.4168;3.0735;
1300.5000;0.4160;3.0735;
1300.8000;0.4151;3.0814;
1301.1000;0.4160;3.0946;
1301.4000;0.4160;3.0946;
1301.7000;0.4176;3.0867;
1302.0000;0.4168;3.0814;
1302.3000;0.4176;3.0920;
1302.6000;0.4176;3.0894;
1302.9000;0.4168;3.0894;
1303.2000;0.4160;3.0867;
1303.5000;0.4135;3.0788;
1303.8000;0.4168;3.0867;
1304.1000;0.4160;3.0762;
1304.4000;0.4233;3.1052;
1304.7000;0.4282;3.1210;
1305.0000;0.4176;3.0920;
1305.3000;0.4160;3.0920;
1305.6000;0.4184;3.1025;
1305.9000;0.4119;3.0814;
1306.2000;0.4168;3.0867;
1306.5000;0.4135;3.0735;
1306.8000;0.4143;3.0814;
1307.1000;0.4127;3.0709;
1307.4000;0.4168;3.0814;
1307.7000;0.4103;3.0603;
1308.0000;0.4151;3.0603;
1308.3000;0.4160;3.0630;
1308.6000;0.4168;3.0735;
1308.9000;0.4160;3.0814;
1309.2000;0.4160;3.0788;
1309.5000;0.4168;3.0762;
1309.8000;0.4176;3.0682;
1310.1000;0.4168;3.0603;
1310.4000;0.4192;3.0682;
1310.7000;0.4160;3.0656;
1311.0000;0.4151;3.0682;
1311.3000;0.4151;3.0603;
1311.6000;0.4184;3.0603;
1311.9000;0.4184;3.0498;
1312.2000;0.4151;3.0445;
1312.5000;0.4176;3.0551;
1312.8000;0.4192;3.0551;
1313.1000;0.4176;3.0524;
1313.4000;0.4151;3.0392;
1313.7000;0.4168;3.0419;
1314.0000;0.4176;3.0471;
1314.3000;0.4176;3.0419;
1314.6000;0.4168;3.0313;
1314.9000;0.4151;3.0366;
1315.2000;0.4160;3.0498;
1315.5000;0.4176;3.0551;
1315.8000;0.4151;3.0471;
1316.1000;0.4168;3.0471;
1316.4000;0.4176;3.0498;
1316.7000;0.4184;3.0577;
1317.0000;0.4176;3.0471;
1317.3000;0.4151;3.0340;
1317.6000;0.4176;3.0471;
1317.9000;0.4168;3.0524;
1318.2000;0.4176;3.0524;
1318.5000;0.4176;3.0551;
1318.8000;0.4160;3.0656;
1319.1000;0.4168;3.0682;
1319.4000;0.4160;3.0709;
1319.7000;0.4143;3.0682;
1320.0000;0.4143;3.0735;
1320.3000;0.4135;3.0682;
1320.6000;0.4233;3.0894;
1320.9000;0.4184;3.0762;
1321.2000;0.4168;3.0682;
1321.5000;0.4184;3.0735;
1321.8000;0.4151;3.0735;
1322.1000;0.4160;3.0814;
1322.4000;0.4151;3.0841;
1322.7000;0.4135;3.0788;
1323.0000;0.4176;3.0894;
1323.3000;0.4054;3.0656;
1323.6000;0.4168;3.1025;
1323.9000;0.4151;3.0999;
1324.2000;0.4168;3.1025;
1324.5000;0.4168;3.0946;
1324.8000;0.4151;3.0920;
1325.1000;0.4143;3.0762;
1325.4000;0.4160;3.0814;
1325.7000;0.4151;3.0735;
1326.0000;0.4160;3.0788;
1326.3000;0.4192;3.0894;
1326.6000;0.4160;3.0762;
1326.9000;0.4184;3.0814;
1327.2000;0.4135;3.0656;
1327.5000;0.4143;3.0656;
1327.8000;0.4111;3.0445;
1328.1000;0.4208;3.0709;
1328.4000;0.4200;3.0682;
1328.7000;0.4111;3.0419;
1329.0000;0.4151;3.0524;
1329.3000;0.4160;3.0498;
1329.6000;0.4037;3.0234;
1329.9000;0.4070;3.0366;
1330.2000;0.4151;3.0551;
1330.5000;0.4184;3.0709;
1330.8000;0.4176;3.0682;
1331.1000;0.4176;3.0682;
1331.4000;0.4192;3.0762;
1331.7000;0.4168;3.0682;
1332.0000;0.4168;3.0709;
1332.3000;0.4160;3.0656;
1332.6000;0.4160;3.0551;
1332.9000;0.4160;3.0498;
1333.2000;0.4168;3.0498;
1333.5000;0.4168;3.0524;
1333.8000;0.4168;3.0471;
1334.1000;0.4176;3.0524;
1334.4000;0.4257;3.0814;
1334.7000;0.4168;3.0445;
1335.0000;0.4160;3.0445;
1335.3000;0.4127;3.0392;
1335.6000;0.4176;3.0498;
1335.9000;0.4176;3.0630;
1336.2000;0.4160;3.0419;
1336.5000;0.4200;3.0656;
1336.8000;0.4168;3.0577;
1337.1000;0.4184;3.0603;
1337.4000;0.4168;3.0524;
1337.7000;0.4192;3.0524;
1338.0000;0.4160;3.0419;
1338.3000;0.4184;3.0471;
1338.6000;0.4151;3.0313;
1338.9000;0.4160;3.0392;
1339.2000;0.4176;3.0498;
1339.5000;0.4208;3.0709;
1339.8000;0.4160;3.0603;
1340.1000;0.4151;3.0630;
1340.4000;0.4151;3.0656;
1340.7000;0.4168;3.0709;
1341.0000;0.4192;3.0867;
1341.3000;0.4168;3.0841;
1341.6000;0.4151;3.0788;
1341.9000;0.4160;3.0841;
1342.2000;0.4160;3.0867;
1342.5000;0.4151;3.0920;
1342.8000;0.4143;3.0999;
1343.1000;0.4127;3.0999;
1343.4000;0.4160;3.1105;
1343.7000;0.4160;3.1025;
1344.0000;0.4160;3.0946;
1344.3000;0.4127;3.0894;
1344.6000;0.4160;3.0946;
1344.9000;0.4151;3.0867;
1345.2000;0.4168;3.0735;
1345.5000;0.4151;3.0709;
1345.8000;0.4135;3.0630;
1346.1000;0.4176;3.0814;
1346.4000;0.4184;3.0867;
1346.7000;0.4168;3.0735;
1347.0000;0.4168;3.0814;
1347.3000;0.4160;3.0788;
1347.6000;0.4168;3.0762;
1347.9000;0.4168;3.0709;
1348.2000;0.4184;3.0630;
1348.5000;0.4160;3.0524;
1348.8000;0.4168;3.0498;
1349.1000;0.4135;3.0340;
1349.4000;0.4168;3.0471;
1349.7000;0.4160;3.0419;
1350.0000;0.4233;3.0656;
1350.3000;0.4151;3.0498;
1350.6000;0.4143;3.0524;
1350.9000;0.4160;3.0577;
1351.2000;0.4200;3.0709;
1351.5000;0.4200;3.0788;
1351.8000;0.4208;3.0735;
1352.1000;0.4143;3.0551;
1352.4000;0.4160;3.0577;
1352.7000;0.4168;3.0577;
1353.0000;0.4168;3.0577;
1353.3000;0.4176;3.0551;
1353.6000;0.4184;3.0603;
1353.9000;0.4168;3.0498;
1354.2000;0.4168;3.0524;
1354.5000;0.4176;3.0656;
1354.8000;0.4176;3.0656;
1355.1000;0.4225;3.0894;
1355.4000;0.4176;3.0788;
1355.7000;0.4184;3.0735;
1356.0000;0.4168;3.0709;
1356.3000;0.4184;3.0762;
1356.6000;0.4160;3.0682;
1356.9000;0.4168;3.0656;
1357.2000;0.4192;3.0709;
1357.5000;0.4184;3.0630;
1357.8000;0.4184;3.0656;
1358.1000;0.4184;3.0551;
1358.4000;0.4168;3.0524;
1358.7000;0.4143;3.0603;
1359.0000;0.4176;3.0682;
1359.3000;0.4176;3.0656;
1359.6000;0.4151;3.0603;
1359.9000;0.4168;3.0656;
1360.2000;0.4168;3.0603;
1360.5000;0.4160;3.0656;
1360.8000;0.4160;3.0656;
1361.1000;0.4168;3.0709;
1361.4000;0.4160;3.0709;
1361.7000;0.4168;3.0841;
1362.0000;0.4151;3.0867;
1362.3000;0.4160;3.0920;
1362.6000;0.4127;3.0841;
1362.9000;0.4160;3.0920;
1363.2000;0.4160;3.0946;
1363.5000;0.4168;3.0999;
1363.8000;0.4160;3.0973;
1364.1000;0.4151;3.0920;
1364.4000;0.4078;3.0735;
1364.7000;0.4168;3.1105;
1365.0000;0.4160;3.0999;
1365.3000;0.4176;3.1078;
1365.6000;0.4135;3.0973;
1365.9000;0.4151;3.0999;
1366.2000;0.4160;3.1052;
1366.5000;0.4160;3.1052;
1366.8000;0.4160;3.1078;
1367.1000;0.4160;3.1025;
1367.4000;0.4160;3.0999;
1367.7000;0.4168;3.1078;
1368.0000;0.4168;3.1078;
1368.3000;0.4151;3.1052;
1368.6000;0.4135;3.0920;
1368.9000;0.4168;3.0894;
1369.2000;0.4160;3.0867;
1369.5000;0.4151;3.0788;
1369.8000;0.4143;3.0656;
1370.1000;0.4160;3.0577;
1370.4000;0.4225;3.0814;
1370.7000;0.4160;3.0577;
1371.0000;0.4168;3.0551;
1371.3000;0.4176;3.0551;
1371.6000;0.4160;3.0445;
1371.9000;0.4160;3.0445;
1372.2000;0.4176;3.0366;
1372.5000;0.4151;3.0366;
1372.8000;0.4176;3.0498;
1373.1000;0.4151;3.0498;
1373.4000;0.4143;3.0445;
1373.7000;0.4160;3.0577;
1374.0000;0.4192;3.0630;
1374.3000;0.4168;3.0524;
1374.6000;0.4160;3.0577;
1374.9000;0.4127;3.0551;
1375.2000;0.4176;3.0656;
1375.5000;0.4143;3.0524;
1375.8000;0.4168;3.0603;
1376.1000;0.4168;3.0656;
1376.4000;0.4192;3.0709;
1376.7000;0.4168;3.0682;
1377.0000;0.4151;3.0630;
1377.3000;0.4151;3.0630;
1377.6000;0.4192;3.0630;
1377.9000;0.4241;3.0841;
1378.2000;0.4176;3.0630;
1378.5000;0.4184;3.0841;
1378.8000;0.4241;3.1025;
1379.1000;0.4103;3.0735;
1379.4000;0.4176;3.0946;
1379.7000;0.4160;3.0867;
1380.0000;0.4168;3.0999;
1380.3000;0.4160;3.0999;
1380.6000;0.4168;3.1078;
1380.9000;0.4143;3.0999;
1381.2000;0.4160;3.1052;
1381.5000;0.4143;3.0946;
1381.8000;0.4151;3.0973;
1382.1000;0.4168;3.0973;
1382.4000;0.4176;3.1078;
1382.7000;0.4151;3.0973;
1383.0000;0.4168;3.0946;
1383.3000;0.4160;3.0999;
1383.6000;0.4135;3.0973;
1383.9000;0.4176;3.1105;
1384.2000;0.4217;3.1289;
1384.5000;0.4143;3.1052;
1384.8000;0.4192;3.1263;
1385.1000;0.4160;3.1131;
1385.4000;0.4176;3.1157;
1385.7000;0.4151;3.1105;
1386.0000;0.4168;3.1184;
1386.3000;0.4168;3.1157;
1386.6000;0.4119;3.0973;
1386.9000;0.4184;3.1210;
1387.2000;0.4176;3.1131;
1387.5000;0.4143;3.1078;
1387.8000;0.4143;3.0973;
1388.1000;0.4143;3.0920;
1388.4000;0.4062;3.0682;
1388.7000;0.4151;3.0867;
1389.0000;0.4135;3.0788;
1389.3000;0.4151;3.0762;
1389.6000;0.4160;3.0762;
1389.9000;0.4151;3.0735;
1390.2000;0.4143;3.0762;
1390.5000;0.4143;3.0762;
1390.8000;0.4176;3.0814;
1391.1000;0.4176;3.0788;
1391.4000;0.4103;3.0551;
1391.7000;0.4151;3.0735;
1392.0000;0.4143;3.0709;
1392.3000;0.4168;3.0788;
1392.6000;0.4151;3.0762;
1392.9000;0.4160;3.0841;
1393.2000;0.4176;3.0841;
1393.5000;0.4184;3.0762;
1393.8000;0.4151;3.0682;
1394.1000;0.4176;3.0735;
1394.4000;0.4176;3.0735;
1394.7000;0.4192;3.0682;
1395.0000;0.4135;3.0577;
1395.3000;0.4184;3.0682;
1395.6000;0.4168;3.0656;
1395.9000;0.4176;3.0709;
1396.2000;0.4176;3.0656;
1396.5000;0.4168;3.0630;
1396.8000;0.4151;3.0551;
1397.1000;0.4184;3.0577;
1397.4000;0.4168;3.0630;
1397.7000;0.4160;3.0630;
1398.0000;0.4151;3.0656;
1398.3000;0.4184;3.0841;
1398.6000;0.4176;3.0841;
1398.9000;0.4160;3.0894;
1399.2000;0.4176;3.0973;
1399.5000;0.4208;3.1025;
1399.8000;0.4184;3.0946;
