time/ms;Fluo/V;P700 deltaI/I x10³;
-199.8000;0.0855;4.3349;
-199.5000;0.0871;4.3374;
-199.2000;0.0879;4.3398;
-198.9000;0.0863;4.3422;
-198.6000;0.0887;4.3447;
-198.3000;0.0741;4.2984;
-198.0000;0.0863;4.3228;
-197.7000;0.0879;4.3179;
-197.4000;0.0879;4.3179;
-197.1000;0.0847;4.3155;
-196.8000;0.0863;4.3179;
-196.5000;0.0879;4.3228;
-196.2000;0.0879;4.3228;
-195.9000;0.0863;4.3155;
-195.6000;0.0879;4.3203;
-195.3000;0.0879;4.3228;
-195.0000;0.0855;4.3203;
-194.7000;0.0871;4.3179;
-194.4000;0.0887;4.3203;
-194.1000;0.0814;4.3057;
-193.8000;0.0887;4.3276;
-193.5000;0.0871;4.3276;
-193.2000;0.0879;4.3301;
-192.9000;0.0765;4.3009;
-192.6000;0.0895;4.3301;
-192.3000;0.0895;4.3349;
-192.0000;0.0871;4.3301;
-191.7000;0.0871;4.3325;
-191.4000;0.0855;4.3252;
-191.1000;0.0855;4.3301;
-190.8000;0.0855;4.3276;
-190.5000;0.0871;4.3276;
-190.2000;0.0847;4.3179;
-189.9000;0.0936;4.3422;
-189.6000;0.0855;4.3228;
-189.3000;0.0887;4.3325;
-189.0000;0.0814;4.3130;
-188.7000;0.0961;4.3495;
-188.4000;0.0936;4.3422;
-188.1000;0.0912;4.3301;
-187.8000;0.0781;4.2984;
-187.5000;0.0871;4.3276;
-187.2000;0.0871;4.3228;
-186.9000;0.0895;4.3301;
-186.6000;0.0895;4.3349;
-186.3000;0.0895;4.3374;
-186.0000;0.0904;4.3349;
-185.7000;0.0806;4.3130;
-185.4000;0.1001;4.3739;
-185.1000;0.0920;4.3471;
-184.8000;0.0961;4.3568;
-184.5000;0.0863;4.3301;
-184.2000;0.0708;4.2911;
-183.9000;0.0806;4.3203;
-183.6000;0.0920;4.3495;
-183.3000;0.0822;4.3349;
-183.0000;0.0871;4.3520;
-182.7000;0.0863;4.3495;
-182.4000;0.0863;4.3447;
-182.1000;0.0920;4.3520;
-181.8000;0.0847;4.3276;
-181.5000;0.0863;4.3301;
-181.2000;0.0814;4.3155;
-180.9000;0.0871;4.3276;
-180.6000;0.0871;4.3349;
-180.3000;0.0733;4.2936;
-180.0000;0.0936;4.3471;
-179.7000;0.0724;4.2911;
-179.4000;0.0863;4.3228;
-179.1000;0.0798;4.3106;
-178.8000;0.0912;4.3471;
-178.5000;0.0895;4.3495;
-178.2000;0.0871;4.3422;
-177.9000;0.0977;4.3617;
-177.6000;0.0806;4.3130;
-177.3000;0.0879;4.3252;
-177.0000;0.0863;4.3252;
-176.7000;0.0863;4.3228;
-176.4000;0.0887;4.3228;
-176.1000;0.0781;4.3033;
-175.8000;0.0879;4.3228;
-175.5000;0.0847;4.3130;
-175.2000;0.0798;4.3033;
-174.9000;0.0847;4.3082;
-174.6000;0.0863;4.3203;
-174.3000;0.0855;4.3155;
-174.0000;0.0879;4.3203;
-173.7000;0.0887;4.3155;
-173.4000;0.0863;4.3057;
-173.1000;0.0863;4.3082;
-172.8000;0.0895;4.3130;
-172.5000;0.0830;4.3082;
-172.2000;0.0936;4.3349;
-171.9000;0.0879;4.3179;
-171.6000;0.0928;4.3398;
-171.3000;0.1009;4.3617;
-171.0000;0.0863;4.3130;
-170.7000;0.0871;4.3252;
-170.4000;0.0887;4.3252;
-170.1000;0.0895;4.3349;
-169.8000;0.0895;4.3398;
-169.5000;0.0961;4.3641;
-169.2000;0.0847;4.3349;
-168.9000;0.0814;4.3252;
-168.6000;0.0952;4.3690;
-168.3000;0.0806;4.3228;
-168.0000;0.0871;4.3349;
-167.7000;0.0863;4.3398;
-167.4000;0.0977;4.3714;
-167.1000;0.0871;4.3349;
-166.8000;0.0887;4.3471;
-166.5000;0.0863;4.3374;
-166.2000;0.0806;4.3106;
-165.9000;0.0879;4.3252;
-165.6000;0.0855;4.3155;
-165.3000;0.0863;4.3252;
-165.0000;0.0920;4.3349;
-164.7000;0.0895;4.3301;
-164.4000;0.0855;4.3203;
-164.1000;0.0855;4.3252;
-163.8000;0.0847;4.3252;
-163.5000;0.0879;4.3325;
-163.2000;0.0871;4.3325;
-162.9000;0.0887;4.3301;
-162.6000;0.0879;4.3106;
-162.3000;0.0806;4.2838;
-162.0000;0.0863;4.3033;
-161.7000;0.0863;4.3082;
-161.4000;0.0863;4.3057;
-161.1000;0.0855;4.3106;
-160.8000;0.0871;4.3057;
-160.5000;0.0871;4.3179;
-160.2000;0.0847;4.3179;
-159.9000;0.0855;4.3179;
-159.6000;0.0822;4.3033;
-159.3000;0.0855;4.3033;
-159.0000;0.0863;4.3033;
-158.7000;0.0871;4.3179;
-158.4000;0.0847;4.3130;
-158.1000;0.0904;4.3252;
-157.8000;0.0969;4.3349;
-157.5000;0.0887;4.3130;
-157.2000;0.0847;4.3009;
-156.9000;0.0879;4.3057;
-156.6000;0.0895;4.3228;
-156.3000;0.0847;4.3106;
-156.0000;0.0855;4.3276;
-155.7000;0.0830;4.3155;
-155.4000;0.0863;4.3325;
-155.1000;0.0887;4.3325;
-154.8000;0.0879;4.3228;
-154.5000;0.0969;4.3520;
-154.2000;0.0871;4.3325;
-153.9000;0.0863;4.3228;
-153.6000;0.0847;4.3155;
-153.3000;0.0822;4.3130;
-153.0000;0.0806;4.2984;
-152.7000;0.0847;4.3057;
-152.4000;0.0814;4.2960;
-152.1000;0.0879;4.3155;
-151.8000;0.0887;4.3130;
-151.5000;0.0871;4.3155;
-151.2000;0.0822;4.3057;
-150.9000;0.0871;4.3203;
-150.6000;0.0871;4.3252;
-150.3000;0.0822;4.3057;
-150.0000;0.0887;4.3179;
-149.7000;0.0879;4.3228;
-149.4000;0.0871;4.3155;
-149.1000;0.0944;4.3349;
-148.8000;0.0733;4.2789;
-148.5000;0.0863;4.3252;
-148.2000;0.0863;4.3179;
-147.9000;0.0847;4.3155;
-147.6000;0.0952;4.3398;
-147.3000;0.0871;4.3106;
-147.0000;0.0904;4.3203;
-146.7000;0.0871;4.3130;
-146.4000;0.1026;4.3471;
-146.1000;0.0871;4.3179;
-145.8000;0.0871;4.3203;
-145.5000;0.0830;4.3203;
-145.2000;0.0904;4.3422;
-144.9000;0.0838;4.3203;
-144.6000;0.0863;4.3203;
-144.3000;0.0863;4.3179;
-144.0000;0.0895;4.3276;
-143.7000;0.0863;4.3155;
-143.4000;0.1034;4.3690;
-143.1000;0.0855;4.3155;
-142.8000;0.0863;4.3179;
-142.5000;0.0863;4.3203;
-142.2000;0.0871;4.3325;
-141.9000;0.0790;4.3130;
-141.6000;0.0879;4.3325;
-141.3000;0.0936;4.3520;
-141.0000;0.0871;4.3252;
-140.7000;0.0871;4.3228;
-140.4000;0.0863;4.3106;
-140.1000;0.0847;4.3033;
-139.8000;0.0887;4.3130;
-139.5000;0.0847;4.3057;
-139.2000;0.0904;4.3203;
-138.9000;0.0847;4.3082;
-138.6000;0.0871;4.3276;
-138.3000;0.0822;4.3203;
-138.0000;0.0863;4.3301;
-137.7000;0.0871;4.3325;
-137.4000;0.0887;4.3447;
-137.1000;0.0871;4.3398;
-136.8000;0.0879;4.3447;
-136.5000;0.0887;4.3422;
-136.2000;0.0887;4.3422;
-135.9000;0.0855;4.3349;
-135.6000;0.0830;4.3228;
-135.3000;0.0871;4.3276;
-135.0000;0.0749;4.3082;
-134.7000;0.0895;4.3398;
-134.4000;0.0733;4.2960;
-134.1000;0.0863;4.3252;
-133.8000;0.0879;4.3301;
-133.5000;0.0879;4.3179;
-133.2000;0.0879;4.3179;
-132.9000;0.0887;4.3252;
-132.6000;0.0887;4.3179;
-132.3000;0.0871;4.3155;
-132.0000;0.0830;4.3106;
-131.7000;0.0928;4.3276;
-131.4000;0.0863;4.3130;
-131.1000;0.0879;4.3106;
-130.8000;0.0928;4.3179;
-130.5000;0.0887;4.3228;
-130.2000;0.0887;4.3252;
-129.9000;0.0830;4.3082;
-129.6000;0.0871;4.3057;
-129.3000;0.0895;4.3179;
-129.0000;0.0847;4.3082;
-128.7000;0.0814;4.2984;
-128.4000;0.0928;4.3398;
-128.1000;0.0969;4.3422;
-127.8000;0.0928;4.3276;
-127.5000;0.0887;4.3130;
-127.2000;0.0952;4.3374;
-126.9000;0.0961;4.3422;
-126.6000;0.0863;4.3130;
-126.3000;0.0928;4.3252;
-126.0000;0.0847;4.2960;
-125.7000;0.0895;4.3082;
-125.4000;0.0871;4.3033;
-125.1000;0.0871;4.3130;
-124.8000;0.0855;4.3155;
-124.5000;0.0847;4.3106;
-124.2000;0.0855;4.3082;
-123.9000;0.0879;4.3009;
-123.6000;0.0887;4.3106;
-123.3000;0.0904;4.3082;
-123.0000;0.0863;4.2960;
-122.7000;0.0879;4.3057;
-122.4000;0.0847;4.3179;
-122.1000;0.0871;4.3155;
-121.8000;0.0895;4.3228;
-121.5000;0.0879;4.3203;
-121.2000;0.0879;4.3155;
-120.9000;0.0920;4.3301;
-120.6000;0.0904;4.3228;
-120.3000;0.0855;4.3033;
-120.0000;0.0830;4.2814;
-119.7000;0.0838;4.2862;
-119.4000;0.0871;4.2936;
-119.1000;0.0871;4.2936;
-118.8000;0.0871;4.2911;
-118.5000;0.0847;4.2887;
-118.2000;0.0863;4.2911;
-117.9000;0.0887;4.2984;
-117.6000;0.0863;4.2936;
-117.3000;0.0863;4.3033;
-117.0000;0.0871;4.3057;
-116.7000;0.0887;4.3082;
-116.4000;0.0887;4.3009;
-116.1000;0.0871;4.2936;
-115.8000;0.0871;4.2838;
-115.5000;0.0863;4.2984;
-115.2000;0.0855;4.2960;
-114.9000;0.0887;4.3033;
-114.6000;0.0863;4.3033;
-114.3000;0.0895;4.3106;
-114.0000;0.0806;4.2862;
-113.7000;0.0871;4.3082;
-113.4000;0.0887;4.3082;
-113.1000;0.0879;4.3057;
-112.8000;0.0879;4.3057;
-112.5000;0.0895;4.3057;
-112.2000;0.0855;4.2936;
-111.9000;0.0741;4.2570;
-111.6000;0.0879;4.2936;
-111.3000;0.0895;4.3033;
-111.0000;0.0928;4.3106;
-110.7000;0.0879;4.2911;
-110.4000;0.0977;4.3130;
-110.1000;0.0863;4.2862;
-109.8000;0.0871;4.2789;
-109.5000;0.0879;4.2789;
-109.2000;0.0895;4.2887;
-108.9000;0.0871;4.2814;
-108.6000;0.0871;4.2862;
-108.3000;0.0781;4.2741;
-108.0000;0.0838;4.2936;
-107.7000;0.0904;4.3009;
-107.4000;0.0830;4.2692;
-107.1000;0.0855;4.2716;
-106.8000;0.0887;4.2838;
-106.5000;0.0863;4.2887;
-106.2000;0.0855;4.2887;
-105.9000;0.0855;4.2862;
-105.6000;0.0871;4.2911;
-105.3000;0.0944;4.3155;
-105.0000;0.0879;4.3009;
-104.7000;0.0855;4.2887;
-104.4000;0.0912;4.3033;
-104.1000;0.0928;4.3009;
-103.8000;0.0830;4.2741;
-103.5000;0.0879;4.2887;
-103.2000;0.0830;4.2741;
-102.9000;0.0863;4.2838;
-102.6000;0.0879;4.2862;
-102.3000;0.0847;4.2741;
-102.0000;0.0879;4.2887;
-101.7000;0.0863;4.2911;
-101.4000;0.0863;4.2960;
-101.1000;0.0863;4.3009;
-100.8000;0.0830;4.2765;
-100.5000;0.0863;4.2887;
-100.2000;0.0904;4.2984;
-99.9000;0.0887;4.2984;
-99.6000;0.0879;4.2984;
-99.3000;0.0863;4.2960;
-99.0000;0.0928;4.3106;
-98.7000;0.0871;4.2936;
-98.4000;0.0790;4.2643;
-98.1000;0.0895;4.2936;
-97.8000;0.0871;4.2936;
-97.5000;0.0928;4.3155;
-97.2000;0.0855;4.3033;
-96.9000;0.0814;4.2838;
-96.6000;0.0961;4.3252;
-96.3000;0.0879;4.3106;
-96.0000;0.0830;4.3106;
-95.7000;0.0847;4.3203;
-95.4000;0.0895;4.3325;
-95.1000;0.0928;4.3252;
-94.8000;0.0855;4.3057;
-94.5000;0.0830;4.2960;
-94.2000;0.0871;4.3082;
-93.9000;0.0822;4.2862;
-93.6000;0.0855;4.2862;
-93.3000;0.0871;4.2887;
-93.0000;0.0863;4.2814;
-92.7000;0.0871;4.2862;
-92.4000;0.0863;4.2862;
-92.1000;0.0887;4.2862;
-91.8000;0.0871;4.2789;
-91.5000;0.0887;4.2838;
-91.2000;0.0879;4.2838;
-90.9000;0.0895;4.2862;
-90.6000;0.0871;4.2862;
-90.3000;0.0871;4.2936;
-90.0000;0.0863;4.2887;
-89.7000;0.0855;4.2838;
-89.4000;0.0838;4.2741;
-89.1000;0.0855;4.2862;
-88.8000;0.0879;4.2936;
-88.5000;0.0879;4.2911;
-88.2000;0.0871;4.2862;
-87.9000;0.0863;4.2838;
-87.6000;0.0887;4.2984;
-87.3000;0.0830;4.2911;
-87.0000;0.0871;4.3009;
-86.7000;0.0855;4.3009;
-86.4000;0.0822;4.2911;
-86.1000;0.0871;4.3106;
-85.8000;0.0887;4.3082;
-85.5000;0.0895;4.3009;
-85.2000;0.0855;4.2960;
-84.9000;0.0871;4.3009;
-84.6000;0.0863;4.2911;
-84.3000;0.0871;4.2862;
-84.0000;0.0895;4.3057;
-83.7000;0.0855;4.3009;
-83.4000;0.0871;4.3033;
-83.1000;0.0847;4.2911;
-82.8000;0.0822;4.2838;
-82.5000;0.0871;4.2960;
-82.2000;0.0855;4.2789;
-81.9000;0.0863;4.2814;
-81.6000;0.0871;4.2765;
-81.3000;0.0871;4.2814;
-81.0000;0.0871;4.2887;
-80.7000;0.0847;4.2789;
-80.4000;0.0822;4.2741;
-80.1000;0.0871;4.2862;
-79.8000;0.0871;4.2862;
-79.5000;0.0879;4.2765;
-79.2000;0.0871;4.2716;
-78.9000;0.0863;4.2692;
-78.6000;0.0871;4.2716;
-78.3000;0.0879;4.2692;
-78.0000;0.0895;4.2765;
-77.7000;0.0879;4.2814;
-77.4000;0.0879;4.2716;
-77.1000;0.0871;4.2741;
-76.8000;0.0863;4.2668;
-76.5000;0.0847;4.2765;
-76.2000;0.0879;4.2838;
-75.9000;0.0855;4.2814;
-75.6000;0.0855;4.2838;
-75.3000;0.0887;4.2814;
-75.0000;0.0879;4.2789;
-74.7000;0.0863;4.2789;
-74.4000;0.0847;4.2692;
-74.1000;0.0838;4.2643;
-73.8000;0.0863;4.2789;
-73.5000;0.0863;4.2814;
-73.2000;0.0863;4.2789;
-72.9000;0.0855;4.2716;
-72.6000;0.0863;4.2692;
-72.3000;0.0847;4.2668;
-72.0000;0.0887;4.2838;
-71.7000;0.0887;4.2887;
-71.4000;0.0871;4.2887;
-71.1000;0.0904;4.3009;
-70.8000;0.0887;4.2887;
-70.5000;0.0855;4.2838;
-70.2000;0.0855;4.2862;
-69.9000;0.0838;4.2765;
-69.6000;0.0863;4.2887;
-69.3000;0.0847;4.2838;
-69.0000;0.0887;4.2936;
-68.7000;0.0838;4.2862;
-68.4000;0.0863;4.2936;
-68.1000;0.0847;4.2862;
-67.8000;0.0879;4.2984;
-67.5000;0.0879;4.3082;
-67.2000;0.0912;4.3155;
-66.9000;0.0798;4.2838;
-66.6000;0.0871;4.2960;
-66.3000;0.0863;4.2984;
-66.0000;0.0879;4.3033;
-65.7000;0.0863;4.3009;
-65.4000;0.0879;4.3106;
-65.1000;0.0847;4.3057;
-64.8000;0.0855;4.3033;
-64.5000;0.0887;4.3155;
-64.2000;0.0863;4.3057;
-63.9000;0.0814;4.2887;
-63.6000;0.0871;4.3082;
-63.3000;0.0863;4.3130;
-63.0000;0.0855;4.3155;
-62.7000;0.0855;4.3106;
-62.4000;0.0863;4.3082;
-62.1000;0.0879;4.3009;
-61.8000;0.0887;4.3033;
-61.5000;0.0871;4.2960;
-61.2000;0.0830;4.2960;
-60.9000;0.0904;4.3057;
-60.6000;0.0879;4.3106;
-60.3000;0.0855;4.3009;
-60.0000;0.0928;4.3179;
-59.7000;0.0895;4.3106;
-59.4000;0.0863;4.2936;
-59.1000;0.0887;4.3057;
-58.8000;0.0879;4.3009;
-58.5000;0.0871;4.3009;
-58.2000;0.0887;4.3033;
-57.9000;0.0871;4.2960;
-57.6000;0.0855;4.2984;
-57.3000;0.0887;4.3082;
-57.0000;0.0887;4.3130;
-56.7000;0.0871;4.3082;
-56.4000;0.0871;4.3130;
-56.1000;0.0871;4.3082;
-55.8000;0.0895;4.3179;
-55.5000;0.0863;4.3106;
-55.2000;0.0944;4.3301;
-54.9000;0.0863;4.3057;
-54.6000;0.0871;4.3057;
-54.3000;0.0912;4.3228;
-54.0000;0.0863;4.3082;
-53.7000;0.0847;4.3057;
-53.4000;0.0814;4.2887;
-53.1000;0.0855;4.2887;
-52.8000;0.0879;4.2936;
-52.5000;0.0879;4.2984;
-52.2000;0.0887;4.3057;
-51.9000;0.0871;4.2960;
-51.6000;0.0879;4.3033;
-51.3000;0.0871;4.3057;
-51.0000;0.0871;4.3033;
-50.7000;0.1026;4.3471;
-50.4000;0.0871;4.3033;
-50.1000;0.0871;4.2984;
-49.8000;0.0920;4.3082;
-49.5000;0.0887;4.2936;
-49.2000;0.0871;4.2936;
-48.9000;0.0790;4.2741;
-48.6000;0.0879;4.3009;
-48.3000;0.0863;4.2960;
-48.0000;0.0895;4.3009;
-47.7000;0.0781;4.2643;
-47.4000;0.0838;4.2814;
-47.1000;0.0863;4.2911;
-46.8000;0.0879;4.3033;
-46.5000;0.0871;4.3009;
-46.2000;0.0871;4.2984;
-45.9000;0.0863;4.2911;
-45.6000;0.0912;4.3082;
-45.3000;0.0855;4.2960;
-45.0000;0.0871;4.3033;
-44.7000;0.0904;4.3082;
-44.4000;0.0871;4.2984;
-44.1000;0.0822;4.2838;
-43.8000;0.0855;4.2984;
-43.5000;0.0887;4.2960;
-43.2000;0.0871;4.2911;
-42.9000;0.0912;4.3057;
-42.6000;0.0863;4.2887;
-42.3000;0.0863;4.2887;
-42.0000;0.0879;4.2960;
-41.7000;0.0863;4.3009;
-41.4000;0.0855;4.2838;
-41.1000;0.0847;4.2960;
-40.8000;0.0855;4.2911;
-40.5000;0.0855;4.2887;
-40.2000;0.0822;4.2765;
-39.9000;0.0871;4.2911;
-39.6000;0.0871;4.2911;
-39.3000;0.0920;4.3155;
-39.0000;0.0855;4.3057;
-38.7000;0.0855;4.2936;
-38.4000;0.0871;4.3057;
-38.1000;0.0871;4.3155;
-37.8000;0.0879;4.3082;
-37.5000;0.0855;4.3033;
-37.2000;0.0871;4.3106;
-36.9000;0.0871;4.3106;
-36.6000;0.0895;4.3155;
-36.3000;0.0920;4.3276;
-36.0000;0.0838;4.2984;
-35.7000;0.0871;4.3009;
-35.4000;0.0879;4.3009;
-35.1000;0.0863;4.2936;
-34.8000;0.0863;4.2911;
-34.5000;0.0855;4.2862;
-34.2000;0.0822;4.2862;
-33.9000;0.0863;4.3009;
-33.6000;0.0863;4.3130;
-33.3000;0.0887;4.3179;
-33.0000;0.0822;4.2984;
-32.7000;0.0879;4.3033;
-32.4000;0.0847;4.2936;
-32.1000;0.0863;4.2960;
-31.8000;0.1001;4.3349;
-31.5000;0.0879;4.2936;
-31.2000;0.0871;4.2862;
-30.9000;0.0871;4.2862;
-30.6000;0.0855;4.2911;
-30.3000;0.0920;4.3009;
-30.0000;0.0855;4.2862;
-29.7000;0.0847;4.2838;
-29.4000;0.0887;4.2936;
-29.1000;0.0985;4.3349;
-28.8000;0.0863;4.2984;
-28.5000;0.0879;4.3082;
-28.2000;0.0879;4.3130;
-27.9000;0.0879;4.3179;
-27.6000;0.0871;4.3179;
-27.3000;0.0871;4.3082;
-27.0000;0.0822;4.2984;
-26.7000;0.0871;4.3106;
-26.4000;0.0855;4.3106;
-26.1000;0.0830;4.3106;
-25.8000;0.0887;4.3325;
-25.5000;0.0871;4.3203;
-25.2000;0.0887;4.3203;
-24.9000;0.0871;4.3228;
-24.6000;0.0871;4.3130;
-24.3000;0.0855;4.3203;
-24.0000;0.0847;4.3155;
-23.7000;0.0871;4.3276;
-23.4000;0.0855;4.3203;
-23.1000;0.0887;4.3252;
-22.8000;0.0879;4.3082;
-22.5000;0.0920;4.3179;
-22.2000;0.0871;4.3057;
-21.9000;0.0879;4.3082;
-21.6000;0.0871;4.3057;
-21.3000;0.0838;4.2887;
-21.0000;0.0952;4.3349;
-20.7000;0.0887;4.3130;
-20.4000;0.0847;4.3009;
-20.1000;0.0920;4.3155;
-19.8000;0.0879;4.3009;
-19.5000;0.0855;4.2936;
-19.2000;0.0887;4.3033;
-18.9000;0.0887;4.3057;
-18.6000;0.0847;4.2984;
-18.3000;0.0895;4.3057;
-18.0000;0.0879;4.3033;
-17.7000;0.0879;4.3009;
-17.4000;0.0765;4.2716;
-17.1000;0.0838;4.2936;
-16.8000;0.0871;4.3033;
-16.5000;0.0879;4.3106;
-16.2000;0.0895;4.3155;
-15.9000;0.0855;4.3106;
-15.6000;0.0855;4.3130;
-15.3000;0.0895;4.3228;
-15.0000;0.0879;4.3203;
-14.7000;0.0871;4.3130;
-14.4000;0.0822;4.2984;
-14.1000;0.0871;4.3106;
-13.8000;0.0863;4.3082;
-13.5000;0.0879;4.3106;
-13.2000;0.0814;4.2911;
-12.9000;0.0879;4.3082;
-12.6000;0.0879;4.3033;
-12.3000;0.0920;4.3203;
-12.0000;0.0871;4.3106;
-11.7000;0.0879;4.3179;
-11.4000;0.0879;4.3179;
-11.1000;0.0887;4.3228;
-10.8000;0.0830;4.3228;
-10.5000;0.0855;4.3276;
-10.2000;0.0944;4.3374;
-9.9000;0.0838;4.3130;
-9.6000;0.0904;4.3422;
-9.3000;0.0871;4.3422;
-9.0000;0.0871;4.3398;
-8.7000;0.0863;4.3422;
-8.4000;0.0871;4.3325;
-8.1000;0.0863;4.3228;
-7.8000;0.0855;4.3228;
-7.5000;0.0879;4.3228;
-7.2000;0.0830;4.3130;
-6.9000;0.0871;4.3155;
-6.6000;0.0855;4.3009;
-6.3000;0.0838;4.2887;
-6.0000;0.0887;4.3057;
-5.7000;0.0871;4.3082;
-5.4000;0.0830;4.3082;
-5.1000;0.0798;4.2960;
-4.8000;0.0863;4.3203;
-4.5000;0.0838;4.3130;
-4.2000;0.0855;4.3155;
-3.9000;0.0871;4.3106;
-3.6000;0.0863;4.3130;
-3.3000;0.0830;4.3130;
-3.0000;0.0871;4.3228;
-2.7000;0.0855;4.3155;
-2.4000;0.0879;4.3252;
-2.1000;0.0871;4.3130;
-1.8000;0.0830;4.3057;
-1.5000;0.0847;4.3155;
-1.2000;0.0855;4.3106;
-0.9000;0.0822;4.3130;
-0.6000;0.0904;4.3325;
-0.3000;0.0830;4.3082;
0.0000;0.0830;4.3082;
0.3000;0.0904;4.3009;
0.6000;0.0855;4.2984;
0.9000;0.0887;4.3057;
1.2000;0.0928;4.3228;
1.5000;0.0928;4.3374;
1.8000;0.0977;4.3568;
2.1000;0.0985;4.3690;
2.4000;0.0985;4.3860;
2.7000;0.0985;4.3982;
3.0000;0.1042;4.4177;
3.3000;0.1026;4.4177;
3.6000;0.0985;4.4201;
3.9000;0.0936;4.4104;
4.2000;0.1034;4.4396;
4.5000;0.0985;4.4396;
4.8000;0.1001;4.4493;
5.1000;0.1066;4.4639;
5.4000;0.1018;4.4493;
5.7000;0.0920;4.4226;
6.0000;0.1001;4.4518;
6.3000;0.0993;4.4396;
6.6000;0.1034;4.4518;
6.9000;0.1026;4.4542;
7.2000;0.1018;4.4542;
7.5000;0.1009;4.4615;
7.8000;0.0985;4.4469;
8.1000;0.1074;4.4542;
8.4000;0.1074;4.4591;
8.7000;0.1034;4.4542;
9.0000;0.1018;4.4542;
9.3000;0.1009;4.4420;
9.6000;0.1026;4.4299;
9.9000;0.1018;4.4250;
10.2000;0.1058;4.4323;
10.5000;0.1018;4.4274;
10.8000;0.1009;4.4226;
11.1000;0.0977;4.4177;
11.4000;0.1009;4.4153;
11.7000;0.1034;4.4201;
12.0000;0.0985;4.4104;
12.3000;0.1001;4.4226;
12.6000;0.1009;4.4274;
12.9000;0.1026;4.4347;
13.2000;0.0993;4.4274;
13.5000;0.1018;4.4445;
13.8000;0.1115;4.4712;
14.1000;0.1018;4.4323;
14.4000;0.0936;4.4079;
14.7000;0.1018;4.4347;
15.0000;0.1001;4.4299;
15.3000;0.1034;4.4347;
15.6000;0.1026;4.4299;
15.9000;0.1050;4.4347;
16.2000;0.1009;4.4299;
16.5000;0.1042;4.4396;
16.8000;0.1009;4.4420;
17.1000;0.1034;4.4469;
17.4000;0.1009;4.4396;
17.7000;0.1050;4.4396;
18.0000;0.1034;4.4396;
18.3000;0.1042;4.4323;
18.6000;0.1042;4.4347;
18.9000;0.1001;4.4201;
19.2000;0.0985;4.4226;
19.5000;0.1009;4.4323;
19.8000;0.1058;4.4469;
20.1000;0.1018;4.4396;
20.4000;0.1042;4.4323;
20.7000;0.0993;4.4226;
21.0000;0.1026;4.4372;
21.3000;0.1042;4.4396;
21.6000;0.1026;4.4445;
21.9000;0.0977;4.4396;
22.2000;0.1034;4.4420;
22.5000;0.1026;4.4445;
22.8000;0.1074;4.4542;
23.1000;0.1050;4.4445;
23.4000;0.0985;4.4250;
23.7000;0.1042;4.4250;
24.0000;0.1050;4.4372;
24.3000;0.1042;4.4372;
24.6000;0.1050;4.4372;
24.9000;0.1001;4.4153;
25.2000;0.1066;4.4323;
25.5000;0.1026;4.4274;
25.8000;0.1018;4.4299;
26.1000;0.1034;4.4372;
26.4000;0.1042;4.4323;
26.7000;0.1026;4.4372;
27.0000;0.1018;4.4274;
27.3000;0.1050;4.4420;
27.6000;0.1034;4.4420;
27.9000;0.0912;4.4055;
28.2000;0.1009;4.4323;
28.5000;0.1042;4.4396;
28.8000;0.1034;4.4323;
29.1000;0.1131;4.4591;
29.4000;0.1026;4.4323;
29.7000;0.1034;4.4396;
30.0000;0.0977;4.4226;
30.3000;0.1026;4.4201;
30.6000;0.0952;4.3982;
30.9000;0.1018;4.4104;
31.2000;0.1066;4.4323;
31.5000;0.1058;4.4347;
31.8000;0.1066;4.4445;
32.1000;0.1083;4.4445;
32.4000;0.1050;4.4323;
32.7000;0.1042;4.4299;
33.0000;0.1042;4.4201;
33.3000;0.1058;4.4250;
33.6000;0.1034;4.4250;
33.9000;0.1050;4.4250;
34.2000;0.1058;4.4250;
34.5000;0.1042;4.4299;
34.8000;0.1050;4.4372;
35.1000;0.1058;4.4226;
35.4000;0.1042;4.4128;
35.7000;0.1034;4.4055;
36.0000;0.1042;4.4079;
36.3000;0.1050;4.4128;
36.6000;0.1050;4.4177;
36.9000;0.1042;4.4177;
37.2000;0.1091;4.4250;
37.5000;0.1050;4.4128;
37.8000;0.0952;4.3885;
38.1000;0.1058;4.4250;
38.4000;0.1026;4.4104;
38.7000;0.1058;4.4201;
39.0000;0.1074;4.4347;
39.3000;0.1026;4.4226;
39.6000;0.1058;4.4323;
39.9000;0.1026;4.4250;
40.2000;0.1050;4.4372;
40.5000;0.1042;4.4323;
40.8000;0.1050;4.4323;
41.1000;0.1050;4.4372;
41.4000;0.1066;4.4323;
41.7000;0.1050;4.4250;
42.0000;0.1066;4.4347;
42.3000;0.1050;4.4323;
42.6000;0.1018;4.4274;
42.9000;0.1034;4.4323;
43.2000;0.1066;4.4420;
43.5000;0.1066;4.4420;
43.8000;0.1042;4.4299;
44.1000;0.1042;4.4250;
44.4000;0.1050;4.4372;
44.7000;0.1034;4.4226;
45.0000;0.1066;4.4347;
45.3000;0.1034;4.4128;
45.6000;0.1058;4.4250;
45.9000;0.1074;4.4347;
46.2000;0.1034;4.4201;
46.5000;0.1042;4.4128;
46.8000;0.1034;4.4201;
47.1000;0.1050;4.4250;
47.4000;0.1042;4.4226;
47.7000;0.1074;4.4274;
48.0000;0.1026;4.4201;
48.3000;0.1050;4.4226;
48.6000;0.1034;4.4226;
48.9000;0.1099;4.4420;
49.2000;0.1034;4.4347;
49.5000;0.1050;4.4396;
49.8000;0.1042;4.4372;
50.1000;0.1026;4.4299;
50.4000;0.1018;4.4323;
50.7000;0.1083;4.4469;
51.0000;0.1042;4.4299;
51.3000;0.1058;4.4420;
51.6000;0.1050;4.4323;
51.9000;0.1131;4.4591;
52.2000;0.1058;4.4323;
52.5000;0.1026;4.4250;
52.8000;0.1026;4.4420;
53.1000;0.1034;4.4445;
53.4000;0.1066;4.4566;
53.7000;0.1123;4.4761;
54.0000;0.1042;4.4542;
54.3000;0.1042;4.4493;
54.6000;0.1197;4.4956;
54.9000;0.1074;4.4493;
55.2000;0.1050;4.4420;
55.5000;0.1009;4.4299;
55.8000;0.1009;4.4323;
56.1000;0.1042;4.4420;
56.4000;0.1066;4.4299;
56.7000;0.1042;4.4323;
57.0000;0.1074;4.4518;
57.3000;0.1058;4.4469;
57.6000;0.1066;4.4542;
57.9000;0.1058;4.4566;
58.2000;0.1050;4.4518;
58.5000;0.1074;4.4566;
58.8000;0.1009;4.4396;
59.1000;0.1066;4.4591;
59.4000;0.1050;4.4591;
59.7000;0.0936;4.4226;
60.0000;0.1042;4.4445;
60.3000;0.1050;4.4445;
60.6000;0.1131;4.4664;
60.9000;0.0993;4.4347;
61.2000;0.1042;4.4542;
61.5000;0.1058;4.4664;
61.8000;0.0961;4.4396;
62.1000;0.1066;4.4542;
62.4000;0.1050;4.4445;
62.7000;0.1034;4.4396;
63.0000;0.1042;4.4469;
63.3000;0.1050;4.4445;
63.6000;0.1066;4.4469;
63.9000;0.1058;4.4493;
64.2000;0.1050;4.4469;
64.5000;0.1050;4.4469;
64.8000;0.1058;4.4518;
65.1000;0.1050;4.4420;
65.4000;0.1066;4.4396;
65.7000;0.1058;4.4445;
66.0000;0.0985;4.4347;
66.3000;0.1050;4.4420;
66.6000;0.1042;4.4396;
66.9000;0.1042;4.4299;
67.2000;0.1050;4.4347;
67.5000;0.1058;4.4347;
67.8000;0.1034;4.4372;
68.1000;0.1066;4.4420;
68.4000;0.1066;4.4420;
68.7000;0.1034;4.4396;
69.0000;0.1091;4.4542;
69.3000;0.1050;4.4469;
69.6000;0.1034;4.4372;
69.9000;0.1058;4.4518;
70.2000;0.1058;4.4469;
70.5000;0.1083;4.4518;
70.8000;0.1091;4.4591;
71.1000;0.1066;4.4493;
71.4000;0.1058;4.4469;
71.7000;0.1009;4.4323;
72.0000;0.1018;4.4274;
72.3000;0.1074;4.4323;
72.6000;0.1058;4.4323;
72.9000;0.1123;4.4542;
73.2000;0.1058;4.4396;
73.5000;0.1066;4.4445;
73.8000;0.1083;4.4493;
74.1000;0.1066;4.4445;
74.4000;0.1034;4.4347;
74.7000;0.1058;4.4469;
75.0000;0.1066;4.4566;
75.3000;0.1050;4.4469;
75.6000;0.1058;4.4469;
75.9000;0.1042;4.4372;
76.2000;0.1083;4.4469;
76.5000;0.1074;4.4445;
76.8000;0.1074;4.4469;
77.1000;0.1042;4.4372;
77.4000;0.1066;4.4542;
77.7000;0.0969;4.4299;
78.0000;0.0993;4.4396;
78.3000;0.1074;4.4591;
78.6000;0.1050;4.4591;
78.9000;0.1066;4.4542;
79.2000;0.1050;4.4493;
79.5000;0.1026;4.4347;
79.8000;0.1009;4.4372;
80.1000;0.1050;4.4396;
80.4000;0.1066;4.4372;
80.7000;0.1148;4.4518;
81.0000;0.1001;4.4128;
81.3000;0.1066;4.4323;
81.6000;0.1066;4.4372;
81.9000;0.1042;4.4372;
82.2000;0.1066;4.4396;
82.5000;0.1066;4.4372;
82.8000;0.1050;4.4323;
83.1000;0.1050;4.4420;
83.4000;0.1074;4.4518;
83.7000;0.1042;4.4542;
84.0000;0.1107;4.4810;
84.3000;0.1066;4.4664;
84.6000;0.1058;4.4761;
84.9000;0.1099;4.4785;
85.2000;0.1058;4.4615;
85.5000;0.1034;4.4518;
85.8000;0.0993;4.4372;
86.1000;0.1058;4.4615;
86.4000;0.1115;4.4712;
86.7000;0.1099;4.4664;
87.0000;0.1083;4.4639;
87.3000;0.0985;4.4542;
87.6000;0.1050;4.4712;
87.9000;0.1099;4.4712;
88.2000;0.1058;4.4615;
88.5000;0.1074;4.4566;
88.8000;0.1058;4.4420;
89.1000;0.0993;4.4128;
89.4000;0.1066;4.4323;
89.7000;0.1066;4.4372;
90.0000;0.1058;4.4420;
90.3000;0.1050;4.4518;
90.6000;0.1050;4.4566;
90.9000;0.1066;4.4542;
91.2000;0.1042;4.4469;
91.5000;0.1058;4.4542;
91.8000;0.1058;4.4493;
92.1000;0.0993;4.4274;
92.4000;0.1066;4.4615;
92.7000;0.1050;4.4518;
93.0000;0.1066;4.4591;
93.3000;0.1050;4.4518;
93.6000;0.1123;4.4761;
93.9000;0.1066;4.4591;
94.2000;0.1066;4.4445;
94.5000;0.1083;4.4420;
94.8000;0.1009;4.4299;
95.1000;0.1034;4.4347;
95.4000;0.1066;4.4347;
95.7000;0.1066;4.4469;
96.0000;0.1001;4.4274;
96.3000;0.1034;4.4347;
96.6000;0.1026;4.4372;
96.9000;0.1066;4.4542;
97.2000;0.1107;4.4639;
97.5000;0.1148;4.4688;
97.8000;0.1058;4.4469;
98.1000;0.1091;4.4615;
98.4000;0.1058;4.4542;
98.7000;0.1066;4.4518;
99.0000;0.1058;4.4591;
99.3000;0.1050;4.4591;
99.6000;0.1001;4.4420;
99.9000;0.1083;4.4615;
100.2000;0.1001;4.4518;
100.5000;0.1188;4.4980;
100.8000;0.1058;4.4566;
101.1000;0.1066;4.4591;
101.4000;0.1066;4.4639;
101.7000;0.1034;4.4469;
102.0000;0.1083;4.4591;
102.3000;0.1050;4.4591;
102.6000;0.1026;4.4493;
102.9000;0.1058;4.4591;
103.2000;0.1099;4.4639;
103.5000;0.1001;4.4347;
103.8000;0.1009;4.4226;
104.1000;0.1099;4.4469;
104.4000;0.1099;4.4493;
104.7000;0.1074;4.4396;
105.0000;0.1058;4.4445;
105.3000;0.1083;4.4493;
105.6000;0.1050;4.4420;
105.9000;0.1058;4.4420;
106.2000;0.1018;4.4299;
106.5000;0.1066;4.4469;
106.8000;0.1050;4.4420;
107.1000;0.1026;4.4396;
107.4000;0.1066;4.4396;
107.7000;0.1066;4.4396;
108.0000;0.1058;4.4250;
108.3000;0.1131;4.4469;
108.6000;0.1058;4.4299;
108.9000;0.1066;4.4323;
109.2000;0.1066;4.4299;
109.5000;0.1058;4.4396;
109.8000;0.1066;4.4518;
110.1000;0.1058;4.4469;
110.4000;0.1042;4.4493;
110.7000;0.1066;4.4469;
111.0000;0.1066;4.4493;
111.3000;0.1066;4.4518;
111.6000;0.1099;4.4445;
111.9000;0.1074;4.4396;
112.2000;0.1018;4.4177;
112.5000;0.0993;4.4177;
112.8000;0.1083;4.4396;
113.1000;0.1140;4.4591;
113.4000;0.1066;4.4396;
113.7000;0.1066;4.4299;
114.0000;0.1050;4.4128;
114.3000;0.1066;4.4104;
114.6000;0.1131;4.4323;
114.9000;0.1066;4.4079;
115.2000;0.1026;4.4031;
115.5000;0.1066;4.4177;
115.8000;0.1050;4.4177;
116.1000;0.1058;4.4177;
116.4000;0.1026;4.4104;
116.7000;0.1107;4.4299;
117.0000;0.1066;4.4274;
117.3000;0.1074;4.4323;
117.6000;0.1058;4.4299;
117.9000;0.1066;4.4347;
118.2000;0.1066;4.4347;
118.5000;0.1066;4.4372;
118.8000;0.1156;4.4566;
119.1000;0.1074;4.4226;
119.4000;0.1058;4.4274;
119.7000;0.1074;4.4372;
120.0000;0.1034;4.4250;
120.3000;0.1058;4.4250;
120.6000;0.1034;4.4250;
120.9000;0.1058;4.4420;
121.2000;0.1066;4.4469;
121.5000;0.1099;4.4615;
121.8000;0.1066;4.4566;
122.1000;0.1058;4.4518;
122.4000;0.1058;4.4372;
122.7000;0.1083;4.4445;
123.0000;0.1083;4.4420;
123.3000;0.1091;4.4420;
123.6000;0.1050;4.4274;
123.9000;0.1050;4.4347;
124.2000;0.1058;4.4323;
124.5000;0.1074;4.4323;
124.8000;0.1058;4.4299;
125.1000;0.1099;4.4420;
125.4000;0.1074;4.4420;
125.7000;0.1050;4.4469;
126.0000;0.1115;4.4712;
126.3000;0.1099;4.4639;
126.6000;0.1140;4.4761;
126.9000;0.1058;4.4518;
127.2000;0.1050;4.4445;
127.5000;0.1066;4.4372;
127.8000;0.1066;4.4469;
128.1000;0.1074;4.4518;
128.4000;0.1026;4.4347;
128.7000;0.1074;4.4518;
129.0000;0.1050;4.4469;
129.3000;0.1074;4.4518;
129.6000;0.1083;4.4615;
129.9000;0.1083;4.4542;
130.2000;0.1058;4.4445;
130.5000;0.1066;4.4372;
130.8000;0.1058;4.4420;
131.1000;0.1074;4.4493;
131.4000;0.1066;4.4518;
131.7000;0.1066;4.4566;
132.0000;0.1066;4.4542;
132.3000;0.1066;4.4518;
132.6000;0.1050;4.4347;
132.9000;0.1066;4.4323;
133.2000;0.1050;4.4299;
133.5000;0.1074;4.4420;
133.8000;0.1099;4.4445;
134.1000;0.1050;4.4347;
134.4000;0.0977;4.4079;
134.7000;0.1074;4.4396;
135.0000;0.1066;4.4372;
135.3000;0.1058;4.4420;
135.6000;0.1237;4.4858;
135.9000;0.1050;4.4396;
136.2000;0.1083;4.4493;
136.5000;0.1074;4.4420;
136.8000;0.1050;4.4347;
137.1000;0.1099;4.4493;
137.4000;0.1009;4.4299;
137.7000;0.1042;4.4396;
138.0000;0.1221;4.4834;
138.3000;0.1083;4.4493;
138.6000;0.1034;4.4420;
138.9000;0.1066;4.4542;
139.2000;0.1050;4.4518;
139.5000;0.1083;4.4542;
139.8000;0.1066;4.4518;
140.1000;0.1066;4.4445;
140.4000;0.1066;4.4347;
140.7000;0.1083;4.4372;
141.0000;0.1034;4.4299;
141.3000;0.1050;4.4299;
141.6000;0.1115;4.4518;
141.9000;0.1042;4.4299;
142.2000;0.1026;4.4274;
142.5000;0.1066;4.4372;
142.8000;0.1026;4.4323;
143.1000;0.1074;4.4445;
143.4000;0.1083;4.4493;
143.7000;0.1091;4.4420;
144.0000;0.1018;4.4250;
144.3000;0.1074;4.4469;
144.6000;0.1083;4.4420;
144.9000;0.1066;4.4396;
145.2000;0.1074;4.4372;
145.5000;0.1034;4.4299;
145.8000;0.1001;4.4128;
146.1000;0.1115;4.4396;
146.4000;0.1050;4.4250;
146.7000;0.1050;4.4274;
147.0000;0.1058;4.4299;
147.3000;0.1066;4.4372;
147.6000;0.1074;4.4299;
147.9000;0.1042;4.4250;
148.2000;0.1034;4.4299;
148.5000;0.1074;4.4493;
148.8000;0.1091;4.4518;
149.1000;0.1050;4.4347;
149.4000;0.1058;4.4250;
149.7000;0.1074;4.4347;
150.0000;0.1066;4.4274;
150.3000;0.1042;4.4153;
150.6000;0.1058;4.4274;
150.9000;0.0969;4.4006;
151.2000;0.1058;4.4299;
151.5000;0.1066;4.4274;
151.8000;0.1050;4.4299;
152.1000;0.1148;4.4542;
152.4000;0.1066;4.4274;
152.7000;0.1074;4.4372;
153.0000;0.0944;4.4079;
153.3000;0.0961;4.4250;
153.6000;0.0952;4.4201;
153.9000;0.1050;4.4542;
154.2000;0.1074;4.4591;
154.5000;0.1050;4.4542;
154.8000;0.1042;4.4493;
155.1000;0.1140;4.4737;
155.4000;0.1058;4.4445;
155.7000;0.1058;4.4445;
156.0000;0.1058;4.4420;
156.3000;0.1058;4.4420;
156.6000;0.1050;4.4372;
156.9000;0.1083;4.4445;
157.2000;0.1034;4.4396;
157.5000;0.1050;4.4518;
157.8000;0.1034;4.4420;
158.1000;0.1050;4.4542;
158.4000;0.1009;4.4372;
158.7000;0.1074;4.4542;
159.0000;0.1099;4.4566;
159.3000;0.1034;4.4347;
159.6000;0.1058;4.4445;
159.9000;0.1083;4.4493;
160.2000;0.1091;4.4518;
160.5000;0.1123;4.4566;
160.8000;0.1074;4.4420;
161.1000;0.1091;4.4469;
161.4000;0.1066;4.4372;
161.7000;0.1058;4.4299;
162.0000;0.1066;4.4299;
162.3000;0.1083;4.4396;
162.6000;0.1188;4.4761;
162.9000;0.1074;4.4420;
163.2000;0.1050;4.4372;
163.5000;0.1058;4.4347;
163.8000;0.1042;4.4250;
164.1000;0.1083;4.4347;
164.4000;0.1050;4.4177;
164.7000;0.1034;4.4104;
165.0000;0.1026;4.4079;
165.3000;0.1066;4.4177;
165.6000;0.1066;4.4153;
165.9000;0.1058;4.4177;
166.2000;0.1058;4.4201;
166.5000;0.1066;4.4250;
166.8000;0.1066;4.4299;
167.1000;0.1074;4.4299;
167.4000;0.1058;4.4226;
167.7000;0.1058;4.4250;
168.0000;0.1148;4.4420;
168.3000;0.1066;4.4201;
168.6000;0.1066;4.4177;
168.9000;0.1066;4.4177;
169.2000;0.1091;4.4250;
169.5000;0.1042;4.4128;
169.8000;0.1058;4.4274;
170.1000;0.1042;4.4250;
170.4000;0.1074;4.4250;
170.7000;0.0977;4.3933;
171.0000;0.1066;4.4226;
171.3000;0.1074;4.4226;
171.6000;0.1074;4.4250;
171.9000;0.1074;4.4299;
172.2000;0.1083;4.4299;
172.5000;0.1066;4.4274;
172.8000;0.1026;4.4177;
173.1000;0.1074;4.4299;
173.4000;0.1034;4.4128;
173.7000;0.1066;4.4104;
174.0000;0.1058;4.4079;
174.3000;0.1140;4.4299;
174.6000;0.1115;4.4250;
174.9000;0.1058;4.4055;
175.2000;0.1099;4.4250;
175.5000;0.1066;4.4128;
175.8000;0.1140;4.4372;
176.1000;0.1066;4.4299;
176.4000;0.1066;4.4372;
176.7000;0.1205;4.4785;
177.0000;0.1197;4.4712;
177.3000;0.1066;4.4347;
177.6000;0.0985;4.4055;
177.9000;0.0920;4.3909;
178.2000;0.1066;4.4347;
178.5000;0.1058;4.4274;
178.8000;0.1074;4.4201;
179.1000;0.1107;4.4299;
179.4000;0.1066;4.4250;
179.7000;0.1058;4.4274;
180.0000;0.1099;4.4299;
180.3000;0.1066;4.4153;
180.6000;0.1058;4.4104;
180.9000;0.1099;4.4201;
181.2000;0.1058;4.4128;
181.5000;0.1083;4.4250;
181.8000;0.1066;4.4323;
182.1000;0.1042;4.4274;
182.4000;0.1058;4.4274;
182.7000;0.1042;4.4153;
183.0000;0.1074;4.4274;
183.3000;0.1074;4.4177;
183.6000;0.1083;4.4153;
183.9000;0.1066;4.4201;
184.2000;0.1050;4.4250;
184.5000;0.1074;4.4323;
184.8000;0.1042;4.4177;
185.1000;0.1009;4.4153;
185.4000;0.1074;4.4299;
185.7000;0.1091;4.4372;
186.0000;0.0993;4.4104;
186.3000;0.1074;4.4396;
186.6000;0.1066;4.4347;
186.9000;0.1042;4.4396;
187.2000;0.1099;4.4518;
187.5000;0.1066;4.4420;
187.8000;0.1074;4.4372;
188.1000;0.1083;4.4396;
188.4000;0.1066;4.4372;
188.7000;0.1074;4.4469;
189.0000;0.1074;4.4372;
189.3000;0.1074;4.4396;
189.6000;0.1042;4.4347;
189.9000;0.1066;4.4323;
190.2000;0.1091;4.4347;
190.5000;0.1074;4.4250;
190.8000;0.1140;4.4372;
191.1000;0.1107;4.4250;
191.4000;0.1074;4.4128;
191.7000;0.1074;4.4031;
192.0000;0.1058;4.4006;
192.3000;0.1074;4.3958;
192.6000;0.1074;4.4006;
192.9000;0.1099;4.4079;
193.2000;0.1034;4.3982;
193.5000;0.1074;4.4128;
193.8000;0.1148;4.4396;
194.1000;0.1050;4.4128;
194.4000;0.1074;4.4153;
194.7000;0.1074;4.4128;
195.0000;0.1050;4.4128;
195.3000;0.1058;4.4128;
195.6000;0.0977;4.3933;
195.9000;0.1099;4.4299;
196.2000;0.1058;4.4153;
196.5000;0.1099;4.4274;
196.8000;0.1131;4.4420;
197.1000;0.1074;4.4347;
197.4000;0.1099;4.4420;
197.7000;0.1042;4.4347;
198.0000;0.1074;4.4420;
198.3000;0.1091;4.4323;
198.6000;0.1042;4.4177;
198.9000;0.1009;4.4079;
199.2000;0.1058;4.4250;
199.5000;0.1083;4.4323;
199.8000;0.1001;4.4104;
200.1000;0.0961;4.4055;
200.4000;0.1066;4.4445;
200.7000;0.1156;4.4688;
201.0000;0.1066;4.4420;
201.3000;0.1050;4.4445;
201.6000;0.1074;4.4420;
201.9000;0.1034;4.4274;
202.2000;0.1050;4.4299;
202.5000;0.1042;4.4274;
202.8000;0.1074;4.4299;
203.1000;0.1066;4.4323;
203.4000;0.1099;4.4469;
203.7000;0.1083;4.4445;
204.0000;0.0985;4.4201;
204.3000;0.1050;4.4323;
204.6000;0.1083;4.4518;
204.9000;0.1042;4.4396;
205.2000;0.1042;4.4396;
205.5000;0.1066;4.4493;
205.8000;0.1034;4.4493;
206.1000;0.1066;4.4542;
206.4000;0.1050;4.4518;
206.7000;0.1074;4.4493;
207.0000;0.0961;4.4104;
207.3000;0.1066;4.4396;
207.6000;0.1058;4.4347;
207.9000;0.0952;4.3958;
208.2000;0.1083;4.4372;
208.5000;0.1058;4.4372;
208.8000;0.1083;4.4493;
209.1000;0.1026;4.4347;
209.4000;0.1058;4.4445;
209.7000;0.1050;4.4396;
210.0000;0.1042;4.4323;
210.3000;0.1058;4.4372;
210.6000;0.1091;4.4420;
210.9000;0.1058;4.4299;
211.2000;0.1074;4.4420;
211.5000;0.1091;4.4420;
211.8000;0.1074;4.4347;
212.1000;0.1107;4.4372;
212.4000;0.1074;4.4347;
212.7000;0.1148;4.4518;
213.0000;0.1042;4.4250;
213.3000;0.1074;4.4323;
213.6000;0.1034;4.4177;
213.9000;0.1058;4.4299;
214.2000;0.1058;4.4323;
214.5000;0.1058;4.4347;
214.8000;0.1188;4.4615;
215.1000;0.1164;4.4493;
215.4000;0.1066;4.4177;
215.7000;0.1074;4.4177;
216.0000;0.1066;4.4104;
216.3000;0.1066;4.4177;
216.6000;0.1042;4.4128;
216.9000;0.1066;4.4177;
217.2000;0.1066;4.4201;
217.5000;0.1148;4.4396;
217.8000;0.1115;4.4299;
218.1000;0.1074;4.4274;
218.4000;0.1066;4.4177;
218.7000;0.1050;4.4177;
219.0000;0.1058;4.4274;
219.3000;0.1066;4.4323;
219.6000;0.1074;4.4226;
219.9000;0.1083;4.4201;
220.2000;0.0961;4.3958;
220.5000;0.1050;4.4153;
220.8000;0.1001;4.4128;
221.1000;0.1074;4.4299;
221.4000;0.1042;4.4274;
221.7000;0.1042;4.4274;
222.0000;0.1066;4.4323;
222.3000;0.1074;4.4347;
222.6000;0.1050;4.4299;
222.9000;0.1091;4.4445;
223.2000;0.1058;4.4347;
223.5000;0.1050;4.4347;
223.8000;0.1001;4.4226;
224.1000;0.1058;4.4274;
224.4000;0.1074;4.4274;
224.7000;0.1058;4.4104;
225.0000;0.1074;4.4201;
225.3000;0.1026;4.4079;
225.6000;0.1042;4.4079;
225.9000;0.0961;4.3812;
226.2000;0.1066;4.4177;
226.5000;0.1091;4.4274;
226.8000;0.1083;4.4226;
227.1000;0.1066;4.4177;
227.4000;0.1099;4.4201;
227.7000;0.1107;4.4299;
228.0000;0.1074;4.4201;
228.3000;0.1034;4.4153;
228.6000;0.1083;4.4299;
228.9000;0.1066;4.4299;
229.2000;0.1164;4.4542;
229.5000;0.1050;4.4201;
229.8000;0.1083;4.4299;
230.1000;0.1034;4.4104;
230.4000;0.1123;4.4372;
230.7000;0.1034;4.4104;
231.0000;0.1083;4.4201;
231.3000;0.1083;4.4226;
231.6000;0.1197;4.4591;
231.9000;0.1091;4.4226;
232.2000;0.1042;4.4226;
232.5000;0.1066;4.4323;
232.8000;0.1099;4.4347;
233.1000;0.1066;4.4177;
233.4000;0.1074;4.4153;
233.7000;0.1074;4.4201;
234.0000;0.1099;4.4226;
234.3000;0.1066;4.4153;
234.6000;0.1042;4.4104;
234.9000;0.1074;4.4177;
235.2000;0.1042;4.4104;
235.5000;0.1042;4.4079;
235.8000;0.1034;4.4006;
236.1000;0.1066;4.4079;
236.4000;0.1074;4.4031;
236.7000;0.1123;4.4128;
237.0000;0.1009;4.3933;
237.3000;0.1074;4.4104;
237.6000;0.1074;4.4128;
237.9000;0.1172;4.4445;
238.2000;0.1058;4.4128;
238.5000;0.1058;4.4201;
238.8000;0.1083;4.4323;
239.1000;0.1066;4.4274;
239.4000;0.1066;4.4323;
239.7000;0.1066;4.4372;
240.0000;0.1058;4.4347;
240.3000;0.1034;4.4250;
240.6000;0.1050;4.4274;
240.9000;0.1074;4.4372;
241.2000;0.1026;4.4226;
241.5000;0.1058;4.4323;
241.8000;0.1050;4.4274;
242.1000;0.1058;4.4274;
242.4000;0.1083;4.4299;
242.7000;0.1074;4.4323;
243.0000;0.1074;4.4347;
243.3000;0.1083;4.4372;
243.6000;0.1001;4.4153;
243.9000;0.1066;4.4347;
244.2000;0.1001;4.4177;
244.5000;0.1058;4.4323;
244.8000;0.1083;4.4250;
245.1000;0.1099;4.4323;
245.4000;0.1066;4.4323;
245.7000;0.1058;4.4274;
246.0000;0.1018;4.4177;
246.3000;0.1066;4.4250;
246.6000;0.1058;4.4128;
246.9000;0.1050;4.4128;
247.2000;0.1058;4.4153;
247.5000;0.1066;4.4153;
247.8000;0.1074;4.4153;
248.1000;0.1074;4.4177;
248.4000;0.1058;4.4153;
248.7000;0.1058;4.4104;
249.0000;0.1083;4.4128;
249.3000;0.1074;4.4006;
249.6000;0.1066;4.3982;
249.9000;0.1091;4.3982;
250.2000;0.1058;4.3958;
250.5000;0.1066;4.3933;
250.8000;0.1050;4.3958;
251.1000;0.1058;4.4006;
251.4000;0.1001;4.3909;
251.7000;0.1050;4.4006;
252.0000;0.1254;4.4493;
252.3000;0.1058;4.3909;
252.6000;0.1018;4.3933;
252.9000;0.0993;4.3885;
253.2000;0.1083;4.4177;
253.5000;0.1083;4.4128;
253.8000;0.1083;4.4055;
254.1000;0.1083;4.4104;
254.4000;0.1001;4.3836;
254.7000;0.1042;4.3909;
255.0000;0.1058;4.3860;
255.3000;0.1058;4.3860;
255.6000;0.1099;4.3933;
255.9000;0.1066;4.3933;
256.2000;0.1091;4.3982;
256.5000;0.1074;4.3982;
256.8000;0.1091;4.4031;
257.1000;0.1074;4.4031;
257.4000;0.1042;4.4006;
257.7000;0.1074;4.4104;
258.0000;0.1001;4.4006;
258.3000;0.1009;4.4006;
258.6000;0.1058;4.4177;
258.9000;0.1066;4.4250;
259.2000;0.0993;4.3933;
259.5000;0.1083;4.4104;
259.8000;0.1034;4.3909;
260.1000;0.1066;4.3933;
260.4000;0.1074;4.4006;
260.7000;0.1074;4.4079;
261.0000;0.1001;4.3958;
261.3000;0.1066;4.4079;
261.6000;0.1091;4.4079;
261.9000;0.1058;4.4031;
262.2000;0.1009;4.3909;
262.5000;0.1026;4.3933;
262.8000;0.1074;4.3982;
263.1000;0.1050;4.4006;
263.4000;0.1058;4.4006;
263.7000;0.1074;4.4128;
264.0000;0.1050;4.4128;
264.3000;0.1074;4.4177;
264.6000;0.1083;4.4128;
264.9000;0.1034;4.4006;
265.2000;0.1058;4.4104;
265.5000;0.0993;4.3885;
265.8000;0.1074;4.4177;
266.1000;0.1066;4.4153;
266.4000;0.1074;4.4153;
266.7000;0.1074;4.4153;
267.0000;0.0993;4.3933;
267.3000;0.1074;4.4177;
267.6000;0.1042;4.4031;
267.9000;0.1083;4.4128;
268.2000;0.1066;4.4226;
268.5000;0.1066;4.4104;
268.8000;0.0936;4.3787;
269.1000;0.1050;4.4128;
269.4000;0.1115;4.4372;
269.7000;0.1058;4.4104;
270.0000;0.1001;4.3958;
270.3000;0.1034;4.3958;
270.6000;0.1050;4.3982;
270.9000;0.1026;4.3958;
271.2000;0.1050;4.4006;
271.5000;0.1058;4.4031;
271.8000;0.1042;4.3982;
272.1000;0.1042;4.3909;
272.4000;0.1083;4.4031;
272.7000;0.1083;4.4006;
273.0000;0.1083;4.3933;
273.3000;0.1058;4.3836;
273.6000;0.1050;4.3836;
273.9000;0.1066;4.4031;
274.2000;0.1058;4.4031;
274.5000;0.1058;4.4079;
274.8000;0.1074;4.4153;
275.1000;0.1083;4.4153;
275.4000;0.1066;4.4128;
275.7000;0.1074;4.4153;
276.0000;0.1083;4.4226;
276.3000;0.1066;4.4079;
276.6000;0.1034;4.4153;
276.9000;0.1066;4.4177;
277.2000;0.1042;4.4128;
277.5000;0.1034;4.4128;
277.8000;0.1083;4.4177;
278.1000;0.1074;4.4177;
278.4000;0.1058;4.4201;
278.7000;0.1042;4.4128;
279.0000;0.1066;4.4153;
279.3000;0.1083;4.4128;
279.6000;0.1050;4.4104;
279.9000;0.1058;4.4006;
280.2000;0.1009;4.3836;
280.5000;0.1042;4.4055;
280.8000;0.1050;4.4079;
281.1000;0.1074;4.4128;
281.4000;0.1083;4.4128;
281.7000;0.1058;4.4128;
282.0000;0.1091;4.4177;
282.3000;0.1058;4.4201;
282.6000;0.1091;4.4226;
282.9000;0.1131;4.4274;
283.2000;0.1050;4.3933;
283.5000;0.1058;4.4031;
283.8000;0.1026;4.3958;
284.1000;0.1050;4.4031;
284.4000;0.1066;4.4055;
284.7000;0.1058;4.4079;
285.0000;0.0969;4.3812;
285.3000;0.1066;4.4153;
285.6000;0.0961;4.3909;
285.9000;0.1026;4.4104;
286.2000;0.1050;4.4104;
286.5000;0.1115;4.4201;
286.8000;0.1050;4.4128;
287.1000;0.1074;4.4128;
287.4000;0.1083;4.4153;
287.7000;0.1229;4.4615;
288.0000;0.1050;4.4177;
288.3000;0.1066;4.4226;
288.6000;0.1074;4.4274;
288.9000;0.1074;4.4299;
289.2000;0.1083;4.4396;
289.5000;0.1140;4.4518;
289.8000;0.1050;4.4299;
290.1000;0.1074;4.4323;
290.4000;0.1115;4.4420;
290.7000;0.1042;4.4153;
291.0000;0.0952;4.3933;
291.3000;0.1018;4.4201;
291.6000;0.1050;4.4201;
291.9000;0.1091;4.4323;
292.2000;0.1050;4.4250;
292.5000;0.1058;4.4299;
292.8000;0.1156;4.4518;
293.1000;0.1115;4.4420;
293.4000;0.1050;4.4347;
293.7000;0.1050;4.4201;
294.0000;0.1026;4.4153;
294.3000;0.1058;4.4153;
294.6000;0.1091;4.4250;
294.9000;0.1050;4.4104;
295.2000;0.1091;4.4201;
295.5000;0.1074;4.4250;
295.8000;0.1058;4.4201;
296.1000;0.1066;4.4177;
296.4000;0.1066;4.4177;
296.7000;0.1050;4.4104;
297.0000;0.1123;4.4274;
297.3000;0.1066;4.4031;
297.6000;0.1066;4.3958;
297.9000;0.1058;4.3958;
298.2000;0.1058;4.4006;
298.5000;0.1074;4.4031;
298.8000;0.1058;4.4128;
299.1000;0.1058;4.4177;
299.4000;0.1066;4.4153;
299.7000;0.1042;4.4006;
300.0000;0.1083;4.4031;
300.3000;0.1066;4.4055;
300.6000;0.1066;4.4055;
300.9000;0.1042;4.4031;
301.2000;0.1074;4.4031;
301.5000;0.1009;4.3933;
301.8000;0.1083;4.4177;
302.1000;0.1050;4.4104;
302.4000;0.1074;4.4104;
302.7000;0.1042;4.3933;
303.0000;0.1066;4.3982;
303.3000;0.1074;4.4104;
303.6000;0.1131;4.4299;
303.9000;0.1066;4.4177;
304.2000;0.1050;4.4201;
304.5000;0.1026;4.4104;
304.8000;0.1221;4.4518;
305.1000;0.1058;4.4079;
305.4000;0.1107;4.4226;
305.7000;0.1066;4.4079;
306.0000;0.1074;4.4055;
306.3000;0.1050;4.4153;
306.6000;0.1074;4.4104;
306.9000;0.1083;4.4104;
307.2000;0.1066;4.4055;
307.5000;0.1091;4.4104;
307.8000;0.1074;4.4006;
308.1000;0.1083;4.4031;
308.4000;0.1058;4.4031;
308.7000;0.1074;4.3958;
309.0000;0.1050;4.3909;
309.3000;0.1091;4.4055;
309.6000;0.1074;4.3982;
309.9000;0.1034;4.3958;
310.2000;0.1074;4.4055;
310.5000;0.1058;4.4055;
310.8000;0.1050;4.4055;
311.1000;0.1074;4.4006;
311.4000;0.1066;4.4079;
311.7000;0.1115;4.4323;
312.0000;0.1083;4.4226;
312.3000;0.1083;4.4226;
312.6000;0.1091;4.4274;
312.9000;0.1050;4.4250;
313.2000;0.1058;4.4250;
313.5000;0.1042;4.4299;
313.8000;0.1083;4.4445;
314.1000;0.1229;4.4834;
314.4000;0.1058;4.4323;
314.7000;0.1066;4.4250;
315.0000;0.1156;4.4396;
315.3000;0.1058;4.4128;
315.6000;0.1091;4.4201;
315.9000;0.1083;4.4177;
316.2000;0.1083;4.4250;
316.5000;0.1083;4.4153;
316.8000;0.1058;4.4031;
317.1000;0.1107;4.4055;
317.4000;0.1050;4.4006;
317.7000;0.1083;4.4153;
318.0000;0.1074;4.4031;
318.3000;0.1091;4.4055;
318.6000;0.1050;4.3933;
318.9000;0.1099;4.4006;
319.2000;0.1083;4.3982;
319.5000;0.1058;4.3982;
319.8000;0.1083;4.4006;
320.1000;0.1066;4.3982;
320.4000;0.1058;4.3958;
320.7000;0.1058;4.4031;
321.0000;0.1083;4.4079;
321.3000;0.1066;4.4128;
321.6000;0.1083;4.4153;
321.9000;0.1074;4.4128;
322.2000;0.1083;4.4031;
322.5000;0.1001;4.3812;
322.8000;0.1050;4.4006;
323.1000;0.1074;4.4079;
323.4000;0.0993;4.3933;
323.7000;0.1083;4.4274;
324.0000;0.1083;4.4299;
324.3000;0.1058;4.4299;
324.6000;0.1058;4.4299;
324.9000;0.1058;4.4372;
325.2000;0.1058;4.4274;
325.5000;0.1066;4.4250;
325.8000;0.1058;4.4274;
326.1000;0.1058;4.4226;
326.4000;0.1058;4.4299;
326.7000;0.1050;4.4104;
327.0000;0.1066;4.4201;
327.3000;0.1074;4.4201;
327.6000;0.1066;4.4128;
327.9000;0.1066;4.4079;
328.2000;0.1050;4.4031;
328.5000;0.1074;4.4055;
328.8000;0.1066;4.4055;
329.1000;0.1066;4.4250;
329.4000;0.1058;4.4250;
329.7000;0.1091;4.4323;
330.0000;0.1066;4.4201;
330.3000;0.1034;4.4031;
330.6000;0.1050;4.4128;
330.9000;0.0961;4.3860;
331.2000;0.1083;4.4201;
331.5000;0.1074;4.4274;
331.8000;0.1074;4.4226;
332.1000;0.1074;4.4177;
332.4000;0.1074;4.4299;
332.7000;0.1083;4.4323;
333.0000;0.1115;4.4323;
333.3000;0.1066;4.4177;
333.6000;0.1083;4.4104;
333.9000;0.1099;4.4153;
334.2000;0.1074;4.4104;
334.5000;0.1042;4.4128;
334.8000;0.1066;4.4128;
335.1000;0.1091;4.4031;
335.4000;0.1099;4.4006;
335.7000;0.1083;4.4079;
336.0000;0.1058;4.4079;
336.3000;0.1058;4.4079;
336.6000;0.1083;4.4031;
336.9000;0.1058;4.4055;
337.2000;0.1066;4.4006;
337.5000;0.1066;4.4055;
337.8000;0.1074;4.4104;
338.1000;0.1074;4.4177;
338.4000;0.1058;4.4055;
338.7000;0.1050;4.4031;
339.0000;0.1213;4.4518;
339.3000;0.1034;4.4128;
339.6000;0.1042;4.4104;
339.9000;0.1050;4.4128;
340.2000;0.1066;4.4201;
340.5000;0.1074;4.4250;
340.8000;0.1091;4.4372;
341.1000;0.1058;4.4493;
341.4000;0.1066;4.4542;
341.7000;0.1058;4.4469;
342.0000;0.1123;4.4542;
342.3000;0.1009;4.4201;
342.6000;0.1058;4.4299;
342.9000;0.1042;4.4226;
343.2000;0.1140;4.4420;
343.5000;0.1074;4.4250;
343.8000;0.1066;4.4299;
344.1000;0.1107;4.4372;
344.4000;0.1074;4.4250;
344.7000;0.1091;4.4299;
345.0000;0.1148;4.4469;
345.3000;0.1066;4.4250;
345.6000;0.1074;4.4177;
345.9000;0.1091;4.4250;
346.2000;0.1034;4.4104;
346.5000;0.1131;4.4347;
346.8000;0.1083;4.4226;
347.1000;0.1074;4.4201;
347.4000;0.1009;4.3982;
347.7000;0.1050;4.4128;
348.0000;0.0993;4.3933;
348.3000;0.1066;4.4104;
348.6000;0.1058;4.4104;
348.9000;0.1066;4.4201;
349.2000;0.1066;4.4153;
349.5000;0.1058;4.4104;
349.8000;0.1066;4.4104;
350.1000;0.1058;4.4079;
350.4000;0.1074;4.4055;
350.7000;0.1026;4.4079;
351.0000;0.1066;4.4079;
351.3000;0.1066;4.4055;
351.6000;0.1083;4.4153;
351.9000;0.1042;4.4055;
352.2000;0.1123;4.4226;
352.5000;0.1083;4.4153;
352.8000;0.1009;4.4006;
353.1000;0.1066;4.4201;
353.4000;0.1074;4.4079;
353.7000;0.1058;4.4079;
354.0000;0.1058;4.4104;
354.3000;0.1066;4.4104;
354.6000;0.1050;4.4055;
354.9000;0.1001;4.3982;
355.2000;0.1058;4.4201;
355.5000;0.1066;4.4250;
355.8000;0.1074;4.4299;
356.1000;0.1042;4.4177;
356.4000;0.1091;4.4299;
356.7000;0.1058;4.4201;
357.0000;0.1058;4.4128;
357.3000;0.1074;4.4128;
357.6000;0.1074;4.4104;
357.9000;0.1107;4.4201;
358.2000;0.1083;4.4104;
358.5000;0.1083;4.4104;
358.8000;0.1083;4.4104;
359.1000;0.1058;4.4055;
359.4000;0.1091;4.4104;
359.7000;0.1034;4.3958;
360.0000;0.1058;4.4079;
360.3000;0.1050;4.4128;
360.6000;0.1042;4.4079;
360.9000;0.1074;4.4153;
361.2000;0.1058;4.4177;
361.5000;0.1074;4.4153;
361.8000;0.1050;4.4055;
362.1000;0.1148;4.4250;
362.4000;0.1058;4.4006;
362.7000;0.1026;4.3933;
363.0000;0.1034;4.3982;
363.3000;0.1058;4.4104;
363.6000;0.1058;4.4055;
363.9000;0.1091;4.4104;
364.2000;0.1050;4.4055;
364.5000;0.1074;4.4153;
364.8000;0.1034;4.4079;
365.1000;0.1066;4.4250;
365.4000;0.1026;4.4153;
365.7000;0.1074;4.4323;
366.0000;0.1058;4.4323;
366.3000;0.1058;4.4153;
366.6000;0.1074;4.4201;
366.9000;0.1058;4.4274;
367.2000;0.1083;4.4396;
367.5000;0.1058;4.4299;
367.8000;0.1099;4.4445;
368.1000;0.1180;4.4688;
368.4000;0.1213;4.4834;
368.7000;0.1083;4.4323;
369.0000;0.1066;4.4299;
369.3000;0.1066;4.4323;
369.6000;0.1050;4.4250;
369.9000;0.1058;4.4250;
370.2000;0.1074;4.4299;
370.5000;0.1131;4.4518;
370.8000;0.1058;4.4396;
371.1000;0.1172;4.4785;
371.4000;0.1001;4.4226;
371.7000;0.1034;4.4323;
372.0000;0.1058;4.4299;
372.3000;0.1066;4.4274;
372.6000;0.1058;4.4250;
372.9000;0.1058;4.4104;
373.2000;0.1058;4.4128;
373.5000;0.1001;4.3958;
373.8000;0.1148;4.4347;
374.1000;0.1050;4.3958;
374.4000;0.1083;4.4079;
374.7000;0.1026;4.4055;
375.0000;0.0993;4.3958;
375.3000;0.1026;4.4006;
375.6000;0.1050;4.4055;
375.9000;0.1066;4.4201;
376.2000;0.1034;4.4104;
376.5000;0.1066;4.4079;
376.8000;0.1229;4.4566;
377.1000;0.1091;4.4274;
377.4000;0.1066;4.4250;
377.7000;0.1115;4.4445;
378.0000;0.1058;4.4274;
378.3000;0.1074;4.4201;
378.6000;0.1083;4.4153;
378.9000;0.1074;4.4177;
379.2000;0.1034;4.4079;
379.5000;0.1058;4.4104;
379.8000;0.1026;4.4055;
380.1000;0.1091;4.4153;
380.4000;0.1034;4.4055;
380.7000;0.1107;4.4299;
381.0000;0.1074;4.4177;
381.3000;0.1164;4.4493;
381.6000;0.1148;4.4493;
381.9000;0.1042;4.4226;
382.2000;0.1099;4.4372;
382.5000;0.0944;4.3909;
382.8000;0.1099;4.4177;
383.1000;0.1074;4.4250;
383.4000;0.1074;4.4299;
383.7000;0.1172;4.4469;
384.0000;0.0969;4.3909;
384.3000;0.1058;4.4128;
384.6000;0.1091;4.4177;
384.9000;0.1074;4.4177;
385.2000;0.1050;4.4250;
385.5000;0.1034;4.4201;
385.8000;0.1050;4.4299;
386.1000;0.1050;4.4250;
386.4000;0.1083;4.4396;
386.7000;0.1058;4.4323;
387.0000;0.1140;4.4493;
387.3000;0.1074;4.4226;
387.6000;0.1050;4.4274;
387.9000;0.1042;4.4201;
388.2000;0.1050;4.4274;
388.5000;0.1058;4.4274;
388.8000;0.1066;4.4299;
389.1000;0.1042;4.4250;
389.4000;0.1050;4.4274;
389.7000;0.1083;4.4445;
390.0000;0.1018;4.4201;
390.3000;0.1042;4.4347;
390.6000;0.1074;4.4420;
390.9000;0.1058;4.4396;
391.2000;0.1107;4.4420;
391.5000;0.1058;4.4299;
391.8000;0.1066;4.4299;
392.1000;0.1058;4.4274;
392.4000;0.1066;4.4323;
392.7000;0.1083;4.4347;
393.0000;0.1164;4.4469;
393.3000;0.1034;4.4201;
393.6000;0.1050;4.4226;
393.9000;0.1066;4.4250;
394.2000;0.1050;4.4201;
394.5000;0.1058;4.4250;
394.8000;0.1050;4.4420;
395.1000;0.1074;4.4493;
395.4000;0.1074;4.4469;
395.7000;0.1034;4.4299;
396.0000;0.1050;4.4396;
396.3000;0.1091;4.4420;
396.6000;0.1026;4.4177;
396.9000;0.1058;4.4299;
397.2000;0.1058;4.4250;
397.5000;0.0961;4.3885;
397.8000;0.1042;4.4177;
398.1000;0.1058;4.4177;
398.4000;0.1066;4.4177;
398.7000;0.1018;4.4079;
399.0000;0.1058;4.4128;
399.3000;0.1083;4.4274;
399.6000;0.1074;4.4274;
399.9000;0.1107;4.4396;
400.2000;0.1107;4.4372;
400.5000;0.1066;4.4153;
400.8000;0.1083;4.4250;
401.1000;0.1115;4.4445;
401.4000;0.1180;4.4688;
401.7000;0.1115;4.4469;
402.0000;0.1066;4.4469;
402.3000;0.1074;4.4469;
402.6000;0.1074;4.4493;
402.9000;0.1042;4.4396;
403.2000;0.1066;4.4469;
403.5000;0.1026;4.4396;
403.8000;0.1074;4.4566;
404.1000;0.1058;4.4445;
404.4000;0.1066;4.4445;
404.7000;0.1058;4.4396;
405.0000;0.1091;4.4566;
405.3000;0.1074;4.4591;
405.6000;0.1058;4.4615;
405.9000;0.1058;4.4566;
406.2000;0.1074;4.4615;
406.5000;0.0920;4.4128;
406.8000;0.1066;4.4518;
407.1000;0.1042;4.4420;
407.4000;0.1066;4.4396;
407.7000;0.1034;4.4250;
408.0000;0.1018;4.4177;
408.3000;0.1074;4.4323;
408.6000;0.1042;4.4299;
408.9000;0.1042;4.4347;
409.2000;0.1058;4.4323;
409.5000;0.1058;4.4299;
409.8000;0.1050;4.4274;
410.1000;0.1050;4.4226;
410.4000;0.1066;4.4323;
410.7000;0.1074;4.4347;
411.0000;0.1050;4.4274;
411.3000;0.1034;4.4201;
411.6000;0.1074;4.4299;
411.9000;0.1026;4.4055;
412.2000;0.1099;4.4177;
412.5000;0.1074;4.4153;
412.8000;0.1091;4.4201;
413.1000;0.1058;4.4104;
413.4000;0.1050;4.4128;
413.7000;0.1034;4.4128;
414.0000;0.1050;4.4104;
414.3000;0.1058;4.4128;
414.6000;0.1058;4.4201;
414.9000;0.1050;4.4128;
415.2000;0.1066;4.4128;
415.5000;0.1050;4.4079;
415.8000;0.1034;4.4031;
416.1000;0.1042;4.4055;
416.4000;0.1066;4.4177;
416.7000;0.1107;4.4323;
417.0000;0.1058;4.4177;
417.3000;0.1107;4.4372;
417.6000;0.1042;4.4274;
417.9000;0.1083;4.4372;
418.2000;0.1074;4.4372;
418.5000;0.1042;4.4323;
418.8000;0.1009;4.4201;
419.1000;0.1099;4.4347;
419.4000;0.1058;4.4226;
419.7000;0.1074;4.4469;
420.0000;0.1074;4.4518;
420.3000;0.1058;4.4518;
420.6000;0.1156;4.4761;
420.9000;0.1050;4.4420;
421.2000;0.1091;4.4566;
421.5000;0.1066;4.4493;
421.8000;0.1099;4.4591;
422.1000;0.1066;4.4469;
422.4000;0.1058;4.4493;
422.7000;0.1001;4.4420;
423.0000;0.1083;4.4639;
423.3000;0.1066;4.4469;
423.6000;0.1091;4.4542;
423.9000;0.1205;4.4858;
424.2000;0.1050;4.4420;
424.5000;0.1058;4.4493;
424.8000;0.1001;4.4323;
425.1000;0.1066;4.4493;
425.4000;0.1074;4.4518;
425.7000;0.1058;4.4469;
426.0000;0.1058;4.4445;
426.3000;0.1058;4.4493;
426.6000;0.1123;4.4664;
426.9000;0.1074;4.4493;
427.2000;0.1058;4.4396;
427.5000;0.1058;4.4420;
427.8000;0.1066;4.4493;
428.1000;0.1058;4.4420;
428.4000;0.1066;4.4445;
428.7000;0.1026;4.4274;
429.0000;0.1066;4.4420;
429.3000;0.1074;4.4591;
429.6000;0.1066;4.4445;
429.9000;0.1074;4.4469;
430.2000;0.1083;4.4469;
430.5000;0.1058;4.4323;
430.8000;0.1042;4.4250;
431.1000;0.1074;4.4396;
431.4000;0.1050;4.4299;
431.7000;0.1050;4.4396;
432.0000;0.1050;4.4299;
432.3000;0.1050;4.4250;
432.6000;0.1091;4.4420;
432.9000;0.1050;4.4250;
433.2000;0.1123;4.4469;
433.5000;0.1066;4.4372;
433.8000;0.1066;4.4274;
434.1000;0.1058;4.4274;
434.4000;0.1066;4.4299;
434.7000;0.1083;4.4396;
435.0000;0.1042;4.4299;
435.3000;0.1066;4.4323;
435.6000;0.1066;4.4299;
435.9000;0.1083;4.4299;
436.2000;0.1066;4.4201;
436.5000;0.1099;4.4396;
436.8000;0.1074;4.4372;
437.1000;0.1050;4.4323;
437.4000;0.1058;4.4323;
437.7000;0.1050;4.4323;
438.0000;0.1091;4.4420;
438.3000;0.1001;4.4201;
438.6000;0.1066;4.4420;
438.9000;0.0985;4.4201;
439.2000;0.1050;4.4299;
439.5000;0.1083;4.4445;
439.8000;0.1058;4.4347;
440.1000;0.1058;4.4274;
440.4000;0.1058;4.4250;
440.7000;0.1074;4.4323;
441.0000;0.1148;4.4469;
441.3000;0.1050;4.4299;
441.6000;0.1050;4.4323;
441.9000;0.1066;4.4347;
442.2000;0.1026;4.4226;
442.5000;0.1107;4.4372;
442.8000;0.1074;4.4347;
443.1000;0.1099;4.4372;
443.4000;0.1066;4.4274;
443.7000;0.1066;4.4226;
444.0000;0.1034;4.4201;
444.3000;0.1074;4.4323;
444.6000;0.1172;4.4664;
444.9000;0.1050;4.4372;
445.2000;0.1066;4.4372;
445.5000;0.1050;4.4323;
445.8000;0.1066;4.4372;
446.1000;0.1074;4.4445;
446.4000;0.1066;4.4445;
446.7000;0.1058;4.4469;
447.0000;0.1066;4.4420;
447.3000;0.1074;4.4420;
447.6000;0.1066;4.4396;
447.9000;0.1058;4.4347;
448.2000;0.1107;4.4469;
448.5000;0.1099;4.4396;
448.8000;0.1156;4.4420;
449.1000;0.1099;4.4299;
449.4000;0.1066;4.4299;
449.7000;0.1074;4.4347;
450.0000;0.1131;4.4518;
450.3000;0.1042;4.4274;
450.6000;0.1083;4.4396;
450.9000;0.1074;4.4372;
451.2000;0.1066;4.4299;
451.5000;0.1066;4.4128;
451.8000;0.1074;4.4226;
452.1000;0.1058;4.4226;
452.4000;0.1091;4.4323;
452.7000;0.1058;4.4031;
453.0000;0.1050;4.4104;
453.3000;0.1074;4.4153;
453.6000;0.1050;4.4226;
453.9000;0.1083;4.4323;
454.2000;0.0928;4.3958;
454.5000;0.1066;4.4445;
454.8000;0.1074;4.4396;
455.1000;0.1115;4.4542;
455.4000;0.1042;4.4299;
455.7000;0.1083;4.4420;
456.0000;0.1074;4.4372;
456.3000;0.1074;4.4347;
456.6000;0.1026;4.4347;
456.9000;0.1074;4.4469;
457.2000;0.1074;4.4469;
457.5000;0.1066;4.4396;
457.8000;0.1066;4.4299;
458.1000;0.1083;4.4420;
458.4000;0.1099;4.4469;
458.7000;0.1083;4.4347;
459.0000;0.1058;4.4274;
459.3000;0.1066;4.4250;
459.6000;0.1066;4.4274;
459.9000;0.1058;4.4250;
460.2000;0.1058;4.4274;
460.5000;0.1042;4.4299;
460.8000;0.1074;4.4347;
461.1000;0.1074;4.4274;
461.4000;0.1058;4.4299;
461.7000;0.1050;4.4177;
462.0000;0.1074;4.4250;
462.3000;0.1066;4.4299;
462.6000;0.1074;4.4347;
462.9000;0.1058;4.4323;
463.2000;0.1026;4.4226;
463.5000;0.1123;4.4420;
463.8000;0.1050;4.4201;
464.1000;0.1083;4.4250;
464.4000;0.0969;4.4055;
464.7000;0.1074;4.4250;
465.0000;0.1074;4.4420;
465.3000;0.1074;4.4347;
465.6000;0.1042;4.4177;
465.9000;0.1083;4.4153;
466.2000;0.1042;4.4079;
466.5000;0.1099;4.4299;
466.8000;0.1066;4.4177;
467.1000;0.1066;4.4104;
467.4000;0.1042;4.4104;
467.7000;0.1058;4.4128;
468.0000;0.1050;4.4079;
468.3000;0.1050;4.4153;
468.6000;0.1074;4.4347;
468.9000;0.1066;4.4299;
469.2000;0.1050;4.4201;
469.5000;0.1083;4.4201;
469.8000;0.1058;4.4079;
470.1000;0.1042;4.3982;
470.4000;0.1058;4.3958;
470.7000;0.1107;4.4055;
471.0000;0.1058;4.4031;
471.3000;0.1042;4.4031;
471.6000;0.1050;4.4006;
471.9000;0.1164;4.4396;
472.2000;0.1066;4.4153;
472.5000;0.1066;4.4055;
472.8000;0.1066;4.3933;
473.1000;0.1042;4.3909;
473.4000;0.1050;4.3958;
473.7000;0.1066;4.4079;
474.0000;0.1074;4.4079;
474.3000;0.1074;4.4153;
474.6000;0.1074;4.4079;
474.9000;0.1034;4.4031;
475.2000;0.1083;4.4055;
475.5000;0.1042;4.4031;
475.8000;0.1026;4.4006;
476.1000;0.1074;4.4177;
476.4000;0.1131;4.4347;
476.7000;0.1074;4.4104;
477.0000;0.1018;4.4031;
477.3000;0.1066;4.4153;
477.6000;0.1074;4.4177;
477.9000;0.1050;4.4128;
478.2000;0.1018;4.4128;
478.5000;0.1058;4.4250;
478.8000;0.1099;4.4372;
479.1000;0.1099;4.4347;
479.4000;0.1058;4.4177;
479.7000;0.1058;4.4153;
480.0000;0.0944;4.3909;
480.3000;0.1042;4.4177;
480.6000;0.1058;4.4323;
480.9000;0.1058;4.4299;
481.2000;0.1066;4.4226;
481.5000;0.1083;4.4153;
481.8000;0.1091;4.4226;
482.1000;0.1050;4.4153;
482.4000;0.1091;4.4274;
482.7000;0.1099;4.4274;
483.0000;0.1099;4.4299;
483.3000;0.1058;4.4323;
483.6000;0.1074;4.4250;
483.9000;0.1066;4.4201;
484.2000;0.1066;4.4250;
484.5000;0.1083;4.4323;
484.8000;0.1050;4.4299;
485.1000;0.1074;4.4323;
485.4000;0.1034;4.4250;
485.7000;0.1026;4.4226;
486.0000;0.1042;4.4274;
486.3000;0.1083;4.4445;
486.6000;0.1074;4.4396;
486.9000;0.1083;4.4347;
487.2000;0.1058;4.4347;
487.5000;0.0993;4.4031;
487.8000;0.1083;4.4250;
488.1000;0.1066;4.4079;
488.4000;0.1050;4.4006;
488.7000;0.1034;4.3958;
489.0000;0.1066;4.4031;
489.3000;0.1042;4.4104;
489.6000;0.0944;4.3836;
489.9000;0.1058;4.4079;
490.2000;0.1066;4.4104;
490.5000;0.1091;4.4250;
490.8000;0.0961;4.3860;
491.1000;0.1050;4.3958;
491.4000;0.1074;4.4006;
491.7000;0.1074;4.4055;
492.0000;0.1074;4.4031;
492.3000;0.1042;4.3933;
492.6000;0.1058;4.4104;
492.9000;0.1026;4.4006;
493.2000;0.1042;4.4079;
493.5000;0.1026;4.4128;
493.8000;0.1131;4.4299;
494.1000;0.1074;4.4079;
494.4000;0.1074;4.4104;
494.7000;0.1066;4.4006;
495.0000;0.1066;4.3909;
495.3000;0.1058;4.3933;
495.6000;0.1050;4.3982;
495.9000;0.1034;4.4055;
496.2000;0.1197;4.4469;
496.5000;0.1083;4.4201;
496.8000;0.1050;4.4104;
497.1000;0.1050;4.4153;
497.4000;0.0985;4.3933;
497.7000;0.1009;4.4128;
498.0000;0.1074;4.4299;
498.3000;0.1156;4.4469;
498.6000;0.1009;4.3982;
498.9000;0.1083;4.4153;
499.2000;0.1026;4.4006;
499.5000;0.0912;4.3690;
499.8000;0.1091;4.4250;
500.1000;0.1074;4.4250;
500.4000;0.1066;4.4128;
500.7000;0.1083;4.4104;
501.0000;0.1066;4.4104;
501.3000;0.1066;4.4153;
501.6000;0.1074;4.4153;
501.9000;0.1058;4.4104;
502.2000;0.1050;4.4104;
502.5000;0.1026;4.4055;
502.8000;0.1099;4.4153;
503.1000;0.1099;4.4177;
503.4000;0.1091;4.4201;
503.7000;0.1083;4.4299;
504.0000;0.1066;4.4274;
504.3000;0.1050;4.4226;
504.6000;0.1058;4.4323;
504.9000;0.1066;4.4250;
505.2000;0.1050;4.4274;
505.5000;0.1091;4.4396;
505.8000;0.1066;4.4299;
506.1000;0.1058;4.4250;
506.4000;0.1058;4.4250;
506.7000;0.1091;4.4323;
507.0000;0.1058;4.4274;
507.3000;0.1058;4.4274;
507.6000;0.1066;4.4323;
507.9000;0.1074;4.4226;
508.2000;0.1066;4.4104;
508.5000;0.1066;4.4104;
508.8000;0.1074;4.4031;
509.1000;0.1058;4.4055;
509.4000;0.1066;4.4104;
509.7000;0.1066;4.4128;
510.0000;0.1026;4.4055;
510.3000;0.1026;4.4104;
510.6000;0.1074;4.4274;
510.9000;0.1050;4.4201;
511.2000;0.1050;4.4104;
511.5000;0.1050;4.4006;
511.8000;0.1026;4.3909;
512.1000;0.0944;4.3690;
512.4000;0.1042;4.3982;
512.7000;0.1034;4.3982;
513.0000;0.1091;4.4055;
513.3000;0.1050;4.3860;
513.6000;0.1058;4.3933;
513.9000;0.1172;4.4299;
514.2000;0.1058;4.3933;
514.5000;0.1140;4.4153;
514.8000;0.0985;4.3787;
515.1000;0.1034;4.4006;
515.4000;0.1083;4.4177;
515.7000;0.1058;4.4177;
516.0000;0.1066;4.4299;
516.3000;0.1034;4.4201;
516.6000;0.1042;4.4250;
516.9000;0.1066;4.4347;
517.2000;0.1009;4.4177;
517.5000;0.1058;4.4347;
517.8000;0.1123;4.4469;
518.1000;0.1050;4.4323;
518.4000;0.1066;4.4274;
518.7000;0.1074;4.4274;
519.0000;0.0993;4.4104;
519.3000;0.1074;4.4323;
519.6000;0.1042;4.4347;
519.9000;0.1066;4.4469;
520.2000;0.1009;4.4299;
520.5000;0.1140;4.4639;
520.8000;0.1042;4.4372;
521.1000;0.1050;4.4323;
521.4000;0.1050;4.4372;
521.7000;0.1066;4.4518;
522.0000;0.1074;4.4469;
522.3000;0.1042;4.4347;
522.6000;0.1018;4.4323;
522.9000;0.1083;4.4420;
523.2000;0.1034;4.4323;
523.5000;0.1156;4.4615;
523.8000;0.1074;4.4347;
524.1000;0.1083;4.4201;
524.4000;0.1066;4.4104;
524.7000;0.1091;4.4177;
525.0000;0.1050;4.4104;
525.3000;0.1026;4.4128;
525.6000;0.1091;4.4372;
525.9000;0.1042;4.4274;
526.2000;0.1074;4.4372;
526.5000;0.1074;4.4396;
526.8000;0.1058;4.4299;
527.1000;0.1066;4.4347;
527.4000;0.1074;4.4469;
527.7000;0.1058;4.4420;
528.0000;0.1066;4.4323;
528.3000;0.1099;4.4420;
528.6000;0.1050;4.4299;
528.9000;0.1058;4.4347;
529.2000;0.1034;4.4299;
529.5000;0.1050;4.4347;
529.8000;0.1074;4.4469;
530.1000;0.1058;4.4299;
530.4000;0.1001;4.4079;
530.7000;0.1074;4.4347;
531.0000;0.1066;4.4250;
531.3000;0.1074;4.4274;
531.6000;0.1074;4.4299;
531.9000;0.1099;4.4396;
532.2000;0.1074;4.4445;
532.5000;0.1058;4.4347;
532.8000;0.1066;4.4372;
533.1000;0.1050;4.4274;
533.4000;0.1050;4.4372;
533.7000;0.0993;4.4299;
534.0000;0.1074;4.4518;
534.3000;0.1026;4.4347;
534.6000;0.1034;4.4347;
534.9000;0.1074;4.4420;
535.2000;0.1034;4.4250;
535.5000;0.1164;4.4664;
535.8000;0.1091;4.4420;
536.1000;0.1066;4.4347;
536.4000;0.1148;4.4615;
536.7000;0.1066;4.4396;
537.0000;0.1042;4.4299;
537.3000;0.1058;4.4372;
537.6000;0.1066;4.4396;
537.9000;0.1066;4.4469;
538.2000;0.1042;4.4469;
538.5000;0.1074;4.4518;
538.8000;0.0969;4.4274;
539.1000;0.1042;4.4420;
539.4000;0.1042;4.4518;
539.7000;0.1018;4.4372;
540.0000;0.1066;4.4469;
540.3000;0.1042;4.4420;
540.6000;0.1083;4.4493;
540.9000;0.1042;4.4396;
541.2000;0.1058;4.4639;
541.5000;0.1058;4.4566;
541.8000;0.1058;4.4518;
542.1000;0.1050;4.4396;
542.4000;0.1074;4.4396;
542.7000;0.1083;4.4493;
543.0000;0.1042;4.4445;
543.3000;0.1066;4.4420;
543.6000;0.1091;4.4518;
543.9000;0.1074;4.4469;
544.2000;0.1074;4.4420;
544.5000;0.1058;4.4493;
544.8000;0.1058;4.4542;
545.1000;0.1066;4.4469;
545.4000;0.1042;4.4372;
545.7000;0.1050;4.4347;
546.0000;0.1099;4.4445;
546.3000;0.1083;4.4493;
546.6000;0.1099;4.4493;
546.9000;0.1058;4.4347;
547.2000;0.1058;4.4372;
547.5000;0.1074;4.4323;
547.8000;0.1066;4.4372;
548.1000;0.1034;4.4299;
548.4000;0.1050;4.4323;
548.7000;0.1083;4.4323;
549.0000;0.1140;4.4469;
549.3000;0.1058;4.4299;
549.6000;0.1050;4.4250;
549.9000;0.1074;4.4299;
550.2000;0.1058;4.4226;
550.5000;0.1050;4.4226;
550.8000;0.1066;4.4274;
551.1000;0.1083;4.4396;
551.4000;0.1074;4.4372;
551.7000;0.1091;4.4445;
552.0000;0.1058;4.4396;
552.3000;0.1083;4.4445;
552.6000;0.1066;4.4469;
552.9000;0.1066;4.4518;
553.2000;0.1083;4.4493;
553.5000;0.1066;4.4396;
553.8000;0.1083;4.4445;
554.1000;0.1034;4.4323;
554.4000;0.1042;4.4372;
554.7000;0.1026;4.4347;
555.0000;0.1066;4.4420;
555.3000;0.1058;4.4469;
555.6000;0.1083;4.4469;
555.9000;0.1066;4.4420;
556.2000;0.1058;4.4274;
556.5000;0.1172;4.4761;
556.8000;0.1066;4.4445;
557.1000;0.1066;4.4372;
557.4000;0.1058;4.4250;
557.7000;0.1050;4.4177;
558.0000;0.1034;4.4104;
558.3000;0.1066;4.4177;
558.6000;0.1148;4.4420;
558.9000;0.1074;4.4274;
559.2000;0.1074;4.4323;
559.5000;0.1058;4.4201;
559.8000;0.1034;4.4079;
560.1000;0.1058;4.4201;
560.4000;0.1140;4.4469;
560.7000;0.1018;4.4153;
561.0000;0.1026;4.4128;
561.3000;0.1042;4.4128;
561.6000;0.1074;4.4153;
561.9000;0.1050;4.4201;
562.2000;0.1042;4.4299;
562.5000;0.1050;4.4299;
562.8000;0.0887;4.3812;
563.1000;0.1074;4.4299;
563.4000;0.1066;4.4347;
563.7000;0.1058;4.4372;
564.0000;0.1074;4.4323;
564.3000;0.1058;4.4250;
564.6000;0.1058;4.4299;
564.9000;0.1066;4.4372;
565.2000;0.1066;4.4445;
565.5000;0.1058;4.4420;
565.8000;0.1058;4.4396;
566.1000;0.1058;4.4396;
566.4000;0.1066;4.4347;
566.7000;0.1050;4.4323;
567.0000;0.1074;4.4469;
567.3000;0.1058;4.4420;
567.6000;0.1066;4.4372;
567.9000;0.1091;4.4493;
568.2000;0.1074;4.4493;
568.5000;0.1066;4.4372;
568.8000;0.1018;4.4226;
569.1000;0.1083;4.4396;
569.4000;0.1074;4.4323;
569.7000;0.1066;4.4347;
570.0000;0.1099;4.4396;
570.3000;0.1058;4.4201;
570.6000;0.1050;4.4226;
570.9000;0.1066;4.4299;
571.2000;0.1066;4.4226;
571.5000;0.1058;4.4177;
571.8000;0.1074;4.4226;
572.1000;0.1066;4.4177;
572.4000;0.1074;4.4250;
572.7000;0.1058;4.4250;
573.0000;0.1083;4.4323;
573.3000;0.0944;4.3909;
573.6000;0.1058;4.4153;
573.9000;0.0985;4.3909;
574.2000;0.1058;4.4201;
574.5000;0.1058;4.4299;
574.8000;0.1042;4.4299;
575.1000;0.1074;4.4396;
575.4000;0.1026;4.4274;
575.7000;0.1058;4.4372;
576.0000;0.1066;4.4493;
576.3000;0.1050;4.4372;
576.6000;0.1091;4.4518;
576.9000;0.1050;4.4542;
577.2000;0.1083;4.4639;
577.5000;0.1083;4.4639;
577.8000;0.1066;4.4469;
578.1000;0.1066;4.4469;
578.4000;0.1042;4.4420;
578.7000;0.1066;4.4469;
579.0000;0.1074;4.4372;
579.3000;0.1083;4.4323;
579.6000;0.1099;4.4372;
579.9000;0.1074;4.4274;
580.2000;0.1050;4.4226;
580.5000;0.1083;4.4250;
580.8000;0.1026;4.4201;
581.1000;0.1042;4.4226;
581.4000;0.1131;4.4518;
581.7000;0.1058;4.4299;
582.0000;0.1066;4.4274;
582.3000;0.1009;4.4079;
582.6000;0.0961;4.3982;
582.9000;0.1050;4.4201;
583.2000;0.1058;4.4153;
583.5000;0.1042;4.4104;
583.8000;0.1066;4.4201;
584.1000;0.1066;4.4177;
584.4000;0.1034;4.4226;
584.7000;0.1009;4.4006;
585.0000;0.1050;4.4128;
585.3000;0.1091;4.4274;
585.6000;0.1083;4.4226;
585.9000;0.1083;4.4274;
586.2000;0.1050;4.4153;
586.5000;0.1050;4.4201;
586.8000;0.1083;4.4323;
587.1000;0.1066;4.4250;
587.4000;0.1074;4.4153;
587.7000;0.1074;4.4104;
588.0000;0.1058;4.4104;
588.3000;0.1042;4.4104;
588.6000;0.1042;4.4153;
588.9000;0.1058;4.4128;
589.2000;0.1066;4.4128;
589.5000;0.1107;4.4201;
589.8000;0.1058;4.4079;
590.1000;0.1050;4.4079;
590.4000;0.1066;4.4031;
590.7000;0.1050;4.4006;
591.0000;0.1066;4.4055;
591.3000;0.1058;4.3982;
591.6000;0.1083;4.4055;
591.9000;0.1042;4.3885;
592.2000;0.1066;4.3933;
592.5000;0.1058;4.3909;
592.8000;0.1066;4.4006;
593.1000;0.1034;4.4031;
593.4000;0.1066;4.4153;
593.7000;0.1066;4.4128;
594.0000;0.1042;4.4079;
594.3000;0.1058;4.4153;
594.6000;0.1083;4.4128;
594.9000;0.1034;4.3982;
595.2000;0.1058;4.4055;
595.5000;0.1074;4.4031;
595.8000;0.0944;4.3714;
596.1000;0.1058;4.4031;
596.4000;0.1091;4.4128;
596.7000;0.1066;4.4104;
597.0000;0.1140;4.4299;
597.3000;0.1042;4.4104;
597.6000;0.1042;4.4006;
597.9000;0.1058;4.4031;
598.2000;0.1074;4.4153;
598.5000;0.1050;4.4128;
598.8000;0.1074;4.4177;
599.1000;0.1034;4.4055;
599.4000;0.1091;4.4201;
599.7000;0.1066;4.4201;
600.0000;0.1058;4.4153;
600.3000;0.1050;4.3933;
600.6000;0.1058;4.3885;
600.9000;0.1050;4.3690;
601.2000;0.1066;4.3666;
601.5000;0.1034;4.3568;
601.8000;0.1034;4.3544;
602.1000;0.1050;4.3447;
602.4000;0.1026;4.3325;
602.7000;0.1009;4.3252;
603.0000;0.1034;4.3276;
603.3000;0.1172;4.3593;
603.6000;0.1026;4.3155;
603.9000;0.0993;4.2984;
604.2000;0.1009;4.2984;
604.5000;0.1074;4.3106;
604.8000;0.1009;4.2911;
605.1000;0.0993;4.2936;
605.4000;0.0952;4.2789;
605.7000;0.1001;4.2960;
606.0000;0.1001;4.2936;
606.3000;0.1066;4.3082;
606.6000;0.0993;4.2911;
606.9000;0.1009;4.2960;
607.2000;0.0993;4.2911;
607.5000;0.0993;4.2765;
607.8000;0.1001;4.2692;
608.1000;0.0920;4.2522;
608.4000;0.0977;4.2668;
608.7000;0.1074;4.2984;
609.0000;0.1009;4.2862;
609.3000;0.0936;4.2643;
609.6000;0.1001;4.2765;
609.9000;0.0969;4.2741;
610.2000;0.0977;4.2789;
610.5000;0.0977;4.2765;
610.8000;0.0952;4.2643;
611.1000;0.0977;4.2692;
611.4000;0.0969;4.2668;
611.7000;0.0977;4.2765;
612.0000;0.0969;4.2789;
612.3000;0.0952;4.2765;
612.6000;0.0969;4.2789;
612.9000;0.0952;4.2862;
613.2000;0.0961;4.2814;
613.5000;0.0969;4.2789;
613.8000;0.0961;4.2765;
614.1000;0.0969;4.2862;
614.4000;0.0969;4.2838;
614.7000;0.0969;4.2838;
615.0000;0.0993;4.2887;
615.3000;0.0928;4.2862;
615.6000;0.0952;4.2887;
615.9000;0.0912;4.2716;
616.2000;0.0969;4.2814;
616.5000;0.0936;4.2716;
616.8000;0.1018;4.3009;
617.1000;0.0977;4.2911;
617.4000;0.1050;4.3155;
617.7000;0.0961;4.2887;
618.0000;0.0961;4.2838;
618.3000;0.0920;4.2668;
618.6000;0.0936;4.2716;
618.9000;0.0936;4.2643;
619.2000;0.0952;4.2692;
619.5000;0.0944;4.2692;
619.8000;0.0936;4.2692;
620.1000;0.1066;4.3082;
620.4000;0.0928;4.2643;
620.7000;0.0936;4.2668;
621.0000;0.0944;4.2692;
621.3000;0.1115;4.3130;
621.6000;0.0936;4.2716;
621.9000;0.0920;4.2741;
622.2000;0.0936;4.2692;
622.5000;0.0961;4.2741;
622.8000;0.0961;4.2765;
623.1000;0.0936;4.2595;
623.4000;0.0952;4.2570;
623.7000;0.0936;4.2595;
624.0000;0.0928;4.2570;
624.3000;0.0904;4.2595;
624.6000;0.0936;4.2619;
624.9000;0.0936;4.2619;
625.2000;0.0928;4.2668;
625.5000;0.0912;4.2570;
625.8000;0.0969;4.2789;
626.1000;0.0977;4.2887;
626.4000;0.0928;4.2789;
626.7000;0.0920;4.2789;
627.0000;0.0936;4.2765;
627.3000;0.0936;4.2692;
627.6000;0.0920;4.2814;
627.9000;0.0952;4.2789;
628.2000;0.0879;4.2595;
628.5000;0.0952;4.2765;
628.8000;0.0895;4.2643;
629.1000;0.0928;4.2668;
629.4000;0.0904;4.2546;
629.7000;0.0936;4.2716;
630.0000;0.0936;4.2570;
630.3000;0.0920;4.2473;
630.6000;0.0969;4.2595;
630.9000;0.0895;4.2497;
631.2000;0.0936;4.2619;
631.5000;0.0928;4.2692;
631.8000;0.0920;4.2692;
632.1000;0.0871;4.2570;
632.4000;0.0895;4.2570;
632.7000;0.0912;4.2716;
633.0000;0.0936;4.2862;
633.3000;0.0944;4.2936;
633.6000;0.0912;4.2789;
633.9000;0.0993;4.2960;
634.2000;0.0912;4.2668;
634.5000;0.0928;4.2619;
634.8000;0.1042;4.2960;
635.1000;0.0912;4.2619;
635.4000;0.0912;4.2643;
635.7000;0.0920;4.2716;
636.0000;0.0928;4.2765;
636.3000;0.0928;4.2741;
636.6000;0.0920;4.2643;
636.9000;0.0863;4.2449;
637.2000;0.0912;4.2643;
637.5000;0.0944;4.2765;
637.8000;0.0920;4.2619;
638.1000;0.0993;4.2838;
638.4000;0.0895;4.2522;
638.7000;0.0895;4.2497;
639.0000;0.0912;4.2473;
639.3000;0.0912;4.2570;
639.6000;0.0920;4.2619;
639.9000;0.0912;4.2643;
640.2000;0.0912;4.2643;
640.5000;0.0936;4.2643;
640.8000;0.0904;4.2643;
641.1000;0.0912;4.2643;
641.4000;0.0944;4.2716;
641.7000;0.0928;4.2765;
642.0000;0.0904;4.2643;
642.3000;0.0977;4.2814;
642.6000;0.0920;4.2619;
642.9000;0.0920;4.2595;
643.2000;0.0912;4.2522;
643.5000;0.0912;4.2546;
643.8000;0.0912;4.2595;
644.1000;0.0904;4.2595;
644.4000;0.0904;4.2692;
644.7000;0.0871;4.2546;
645.0000;0.0920;4.2716;
645.3000;0.0912;4.2789;
645.6000;0.0895;4.2692;
645.9000;0.0928;4.2862;
646.2000;0.0912;4.2814;
646.5000;0.0928;4.2741;
646.8000;0.0928;4.2741;
647.1000;0.0895;4.2716;
647.4000;0.0904;4.2692;
647.7000;0.0904;4.2716;
648.0000;0.0920;4.2741;
648.3000;0.0895;4.2716;
648.6000;0.0952;4.2936;
648.9000;0.0895;4.2814;
649.2000;0.0904;4.2814;
649.5000;0.0920;4.2838;
649.8000;0.0879;4.2692;
650.1000;0.0879;4.2716;
650.4000;0.0928;4.2936;
650.7000;0.0936;4.2911;
651.0000;0.0895;4.2838;
651.3000;0.0912;4.2862;
651.6000;0.0830;4.2668;
651.9000;0.0879;4.2765;
652.2000;0.0969;4.2984;
652.5000;0.0912;4.2716;
652.8000;0.0944;4.2789;
653.1000;0.0928;4.2692;
653.4000;0.0944;4.2765;
653.7000;0.0904;4.2668;
654.0000;0.0879;4.2692;
654.3000;0.0920;4.2765;
654.6000;0.0871;4.2619;
654.9000;0.0887;4.2692;
655.2000;0.0863;4.2741;
655.5000;0.0879;4.2814;
655.8000;0.0912;4.2862;
656.1000;0.0879;4.2789;
656.4000;0.0904;4.2887;
656.7000;0.0904;4.2838;
657.0000;0.0879;4.2692;
657.3000;0.0895;4.2716;
657.6000;0.0904;4.2814;
657.9000;0.0912;4.2838;
658.2000;0.0912;4.2716;
658.5000;0.0912;4.2741;
658.8000;0.0904;4.2692;
659.1000;0.0985;4.2838;
659.4000;0.0912;4.2643;
659.7000;0.0887;4.2692;
660.0000;0.0904;4.2692;
660.3000;0.0912;4.2741;
660.6000;0.0895;4.2692;
660.9000;0.0887;4.2643;
661.2000;0.0912;4.2692;
661.5000;0.0887;4.2619;
661.8000;0.0920;4.2668;
662.1000;0.0904;4.2643;
662.4000;0.0936;4.2619;
662.7000;0.0904;4.2643;
663.0000;0.0806;4.2351;
663.3000;0.0879;4.2619;
663.6000;0.0887;4.2692;
663.9000;0.0904;4.2765;
664.2000;0.0887;4.2716;
664.5000;0.0944;4.2838;
664.8000;0.0904;4.2692;
665.1000;0.0895;4.2668;
665.4000;0.0904;4.2619;
665.7000;0.0863;4.2497;
666.0000;0.0985;4.2838;
666.3000;0.0912;4.2643;
666.6000;0.0895;4.2497;
666.9000;0.0879;4.2497;
667.2000;0.0904;4.2497;
667.5000;0.0887;4.2424;
667.8000;0.0895;4.2473;
668.1000;0.0928;4.2619;
668.4000;0.0904;4.2668;
668.7000;0.0904;4.2619;
669.0000;0.0895;4.2619;
669.3000;0.0887;4.2741;
669.6000;0.0904;4.2838;
669.9000;0.0895;4.2765;
670.2000;0.0863;4.2789;
670.5000;0.0895;4.2862;
670.8000;0.0895;4.2814;
671.1000;0.0912;4.2838;
671.4000;0.0887;4.2838;
671.7000;0.0912;4.2887;
672.0000;0.0847;4.2716;
672.3000;0.0871;4.2789;
672.6000;0.0814;4.2473;
672.9000;0.0904;4.2668;
673.2000;0.0887;4.2595;
673.5000;0.0887;4.2595;
673.8000;0.0765;4.2303;
674.1000;0.0961;4.2862;
674.4000;0.0895;4.2692;
674.7000;0.0879;4.2643;
675.0000;0.0871;4.2643;
675.3000;0.0757;4.2424;
675.6000;0.0822;4.2619;
675.9000;0.0895;4.2838;
676.2000;0.0895;4.2887;
676.5000;0.0887;4.2887;
676.8000;0.0847;4.2765;
677.1000;0.0765;4.2473;
677.4000;0.0814;4.2570;
677.7000;0.0871;4.2789;
678.0000;0.0912;4.2862;
678.3000;0.0904;4.2862;
678.6000;0.0887;4.2814;
678.9000;0.0871;4.2668;
679.2000;0.0920;4.2692;
679.5000;0.0879;4.2595;
679.8000;0.0863;4.2570;
680.1000;0.0879;4.2643;
680.4000;0.0830;4.2497;
680.7000;0.0887;4.2741;
681.0000;0.0904;4.2814;
681.3000;0.0912;4.2862;
681.6000;0.0912;4.2838;
681.9000;0.0895;4.2765;
682.2000;0.0749;4.2449;
682.5000;0.0895;4.2765;
682.8000;0.0887;4.2765;
683.1000;0.0912;4.2838;
683.4000;0.0920;4.2862;
683.7000;0.0895;4.2741;
684.0000;0.0887;4.2838;
684.3000;0.0895;4.2765;
684.6000;0.0904;4.2765;
684.9000;0.0879;4.2546;
685.2000;0.0904;4.2668;
685.5000;0.0895;4.2619;
685.8000;0.0895;4.2595;
686.1000;0.0798;4.2303;
686.4000;0.0895;4.2643;
686.7000;0.0928;4.2716;
687.0000;0.1058;4.3057;
687.3000;0.0879;4.2546;
687.6000;0.0879;4.2522;
687.9000;0.0887;4.2595;
688.2000;0.0887;4.2546;
688.5000;0.0936;4.2692;
688.8000;0.0895;4.2643;
689.1000;0.0871;4.2570;
689.4000;0.0895;4.2643;
689.7000;0.0944;4.2911;
690.0000;0.0887;4.2741;
690.3000;0.0863;4.2619;
690.6000;0.0895;4.2716;
690.9000;0.0879;4.2716;
691.2000;0.0733;4.2376;
691.5000;0.0887;4.2789;
691.8000;0.0895;4.2814;
692.1000;0.0879;4.2765;
692.4000;0.0887;4.2716;
692.7000;0.0847;4.2668;
693.0000;0.0879;4.2643;
693.3000;0.0855;4.2570;
693.6000;0.0879;4.2595;
693.9000;0.0879;4.2595;
694.2000;0.0887;4.2668;
694.5000;0.0895;4.2741;
694.8000;0.0871;4.2692;
695.1000;0.0887;4.2716;
695.4000;0.0912;4.2765;
695.7000;0.0895;4.2643;
696.0000;0.0895;4.2643;
696.3000;0.0895;4.2741;
696.6000;0.0904;4.2765;
696.9000;0.0895;4.2692;
697.2000;0.0830;4.2522;
697.5000;0.0871;4.2716;
697.8000;0.0887;4.2692;
698.1000;0.0879;4.2716;
698.4000;0.0887;4.2692;
698.7000;0.0871;4.2668;
699.0000;0.0863;4.2595;
699.3000;0.0879;4.2692;
699.6000;0.0871;4.2643;
699.9000;0.0879;4.2668;
700.2000;0.0887;4.2692;
700.5000;0.0871;4.2546;
700.8000;0.0952;4.2814;
701.1000;0.0904;4.2765;
701.4000;0.0904;4.2814;
701.7000;0.0847;4.2741;
702.0000;0.0863;4.2838;
702.3000;0.0847;4.2789;
702.6000;0.0887;4.2887;
702.9000;0.0879;4.2936;
703.2000;0.0798;4.2716;
703.5000;0.0887;4.2911;
703.8000;0.0944;4.3009;
704.1000;0.0895;4.2789;
704.4000;0.0928;4.2887;
704.7000;0.0871;4.2741;
705.0000;0.0904;4.2789;
705.3000;0.0920;4.2838;
705.6000;0.0887;4.2887;
705.9000;0.0936;4.2984;
706.2000;0.0969;4.3009;
706.5000;0.0895;4.2814;
706.8000;0.0879;4.2716;
707.1000;0.0879;4.2692;
707.4000;0.0871;4.2716;
707.7000;0.0912;4.2789;
708.0000;0.0838;4.2619;
708.3000;0.0871;4.2643;
708.6000;0.0904;4.2765;
708.9000;0.0863;4.2668;
709.2000;0.0887;4.2765;
709.5000;0.0887;4.2789;
709.8000;0.0904;4.2692;
710.1000;0.0855;4.2546;
710.4000;0.0855;4.2497;
710.7000;0.0879;4.2570;
711.0000;0.0904;4.2716;
711.3000;0.0871;4.2619;
711.6000;0.0895;4.2643;
711.9000;0.0847;4.2570;
712.2000;0.0838;4.2595;
712.5000;0.0961;4.2984;
712.8000;0.0855;4.2716;
713.1000;0.0904;4.2887;
713.4000;0.0904;4.2887;
713.7000;0.0887;4.2765;
714.0000;0.0871;4.2692;
714.3000;0.0879;4.2741;
714.6000;0.0904;4.2765;
714.9000;0.0887;4.2814;
715.2000;0.0920;4.2838;
715.5000;0.0895;4.2814;
715.8000;0.0879;4.2838;
716.1000;0.0904;4.2789;
716.4000;0.0887;4.2643;
716.7000;0.0895;4.2668;
717.0000;0.0871;4.2643;
717.3000;0.0887;4.2619;
717.6000;0.0904;4.2643;
717.9000;0.0895;4.2570;
718.2000;0.0871;4.2716;
718.5000;0.0904;4.2716;
718.8000;0.0871;4.2595;
719.1000;0.0863;4.2570;
719.4000;0.0822;4.2522;
719.7000;0.0879;4.2546;
720.0000;0.0895;4.2570;
720.3000;0.0895;4.2692;
720.6000;0.0920;4.2643;
720.9000;0.0920;4.2619;
721.2000;0.0879;4.2619;
721.5000;0.0830;4.2522;
721.8000;0.0928;4.2789;
722.1000;0.0863;4.2692;
722.4000;0.0969;4.3057;
722.7000;0.1009;4.3155;
723.0000;0.0863;4.2838;
723.3000;0.0879;4.2887;
723.6000;0.0895;4.3009;
723.9000;0.0830;4.2741;
724.2000;0.0895;4.2862;
724.5000;0.0879;4.2838;
724.8000;0.0936;4.2984;
725.1000;0.0871;4.2789;
725.4000;0.0822;4.2716;
725.7000;0.0920;4.3033;
726.0000;0.0863;4.2887;
726.3000;0.0814;4.2765;
726.6000;0.0847;4.2911;
726.9000;0.0847;4.2838;
727.2000;0.0879;4.2936;
727.5000;0.0863;4.2936;
727.8000;0.0961;4.3155;
728.1000;0.0871;4.2887;
728.4000;0.0961;4.3106;
728.7000;0.0871;4.2984;
729.0000;0.0904;4.3009;
729.3000;0.0871;4.2911;
729.6000;0.0879;4.2887;
729.9000;0.0887;4.2911;
730.2000;0.0912;4.3033;
730.5000;0.0879;4.2838;
730.8000;0.0879;4.2789;
731.1000;0.0904;4.2765;
731.4000;0.0879;4.2716;
731.7000;0.0879;4.2814;
732.0000;0.0855;4.2643;
732.3000;0.0847;4.2546;
732.6000;0.0928;4.2643;
732.9000;0.0830;4.2400;
733.2000;0.0822;4.2449;
733.5000;0.0863;4.2619;
733.8000;0.0887;4.2765;
734.1000;0.0887;4.2789;
734.4000;0.0871;4.2765;
734.7000;0.0863;4.2765;
735.0000;0.0847;4.2789;
735.3000;0.0879;4.2887;
735.6000;0.0920;4.3033;
735.9000;0.0692;4.2376;
736.2000;0.0838;4.2838;
736.5000;0.0936;4.3057;
736.8000;0.0887;4.2936;
737.1000;0.0920;4.2960;
737.4000;0.0904;4.2789;
737.7000;0.0863;4.2789;
738.0000;0.0887;4.2862;
738.3000;0.0887;4.2862;
738.6000;0.0887;4.2936;
738.9000;0.0895;4.2984;
739.2000;0.0863;4.2911;
739.5000;0.0847;4.2936;
739.8000;0.0855;4.2838;
740.1000;0.0895;4.2936;
740.4000;0.0863;4.2765;
740.7000;0.0904;4.2789;
741.0000;0.0790;4.2570;
741.3000;0.0920;4.2960;
741.6000;0.0781;4.2546;
741.9000;0.0830;4.2619;
742.2000;0.0822;4.2570;
742.5000;0.0887;4.2692;
742.8000;0.0887;4.2838;
743.1000;0.0879;4.2838;
743.4000;0.0912;4.2911;
743.7000;0.0871;4.2741;
744.0000;0.0928;4.2911;
744.3000;0.0863;4.2862;
744.6000;0.0895;4.2984;
744.9000;0.0879;4.2936;
745.2000;0.0855;4.2936;
745.5000;0.0871;4.3033;
745.8000;0.0863;4.2984;
746.1000;0.0887;4.2984;
746.4000;0.0855;4.2862;
746.7000;0.0887;4.2936;
747.0000;0.0871;4.2960;
747.3000;0.0887;4.3082;
747.6000;0.0969;4.3252;
747.9000;0.0855;4.2789;
748.2000;0.0871;4.2814;
748.5000;0.0847;4.2765;
748.8000;0.0716;4.2351;
749.1000;0.0838;4.2741;
749.4000;0.0895;4.2862;
749.7000;0.0855;4.2692;
750.0000;0.0871;4.2741;
750.3000;0.0952;4.3009;
750.6000;0.0871;4.2789;
750.9000;0.0871;4.2838;
751.2000;0.0912;4.3057;
751.5000;0.0871;4.2960;
751.8000;0.0895;4.3082;
752.1000;0.0887;4.3057;
752.4000;0.0904;4.3033;
752.7000;0.0887;4.3082;
753.0000;0.0887;4.2984;
753.3000;0.0887;4.2911;
753.6000;0.0871;4.2862;
753.9000;0.0863;4.2789;
754.2000;0.0887;4.2789;
754.5000;0.0904;4.2887;
754.8000;0.0904;4.2911;
755.1000;0.0838;4.2765;
755.4000;0.0863;4.2887;
755.7000;0.0855;4.2838;
756.0000;0.0887;4.2838;
756.3000;0.0887;4.2814;
756.6000;0.0814;4.2570;
756.9000;0.0952;4.2960;
757.2000;0.0871;4.2789;
757.5000;0.0879;4.2814;
757.8000;0.0879;4.2838;
758.1000;0.0895;4.2960;
758.4000;0.0879;4.2887;
758.7000;0.0847;4.2862;
759.0000;0.0871;4.2960;
759.3000;0.0855;4.2911;
759.6000;0.0863;4.2887;
759.9000;0.0847;4.2838;
760.2000;0.0871;4.2862;
760.5000;0.0765;4.2643;
760.8000;0.0895;4.3009;
761.1000;0.0790;4.2716;
761.4000;0.0887;4.2814;
761.7000;0.0871;4.2862;
762.0000;0.0895;4.2911;
762.3000;0.0904;4.2862;
762.6000;0.0838;4.2741;
762.9000;0.0887;4.2838;
763.2000;0.0847;4.2789;
763.5000;0.0863;4.2765;
763.8000;0.0863;4.2814;
764.1000;0.0847;4.2716;
764.4000;0.0912;4.2838;
764.7000;0.0895;4.2814;
765.0000;0.0879;4.2765;
765.3000;0.0871;4.2643;
765.6000;0.0887;4.2595;
765.9000;0.0887;4.2643;
766.2000;0.0887;4.2643;
766.5000;0.0920;4.2765;
766.8000;0.0887;4.2692;
767.1000;0.0847;4.2619;
767.4000;0.0887;4.2814;
767.7000;0.0838;4.2741;
768.0000;0.0863;4.2765;
768.3000;0.0871;4.2765;
768.6000;0.0895;4.2838;
768.9000;0.0904;4.2789;
769.2000;0.0871;4.2716;
769.5000;0.0814;4.2522;
769.8000;0.0847;4.2619;
770.1000;0.0863;4.2741;
770.4000;0.0863;4.2643;
770.7000;0.0879;4.2741;
771.0000;0.0855;4.2741;
771.3000;0.0879;4.2814;
771.6000;0.0936;4.2960;
771.9000;0.0806;4.2643;
772.2000;0.0920;4.2960;
772.5000;0.0895;4.2911;
772.8000;0.0952;4.3082;
773.1000;0.0814;4.2595;
773.4000;0.0879;4.2716;
773.7000;0.0847;4.2643;
774.0000;0.0912;4.2814;
774.3000;0.0781;4.2619;
774.6000;0.0879;4.2887;
774.9000;0.0830;4.2668;
775.2000;0.0863;4.2741;
775.5000;0.0887;4.2692;
775.8000;0.0879;4.2716;
776.1000;0.0879;4.2789;
776.4000;0.0871;4.2741;
776.7000;0.0855;4.2692;
777.0000;0.0847;4.2789;
777.3000;0.0863;4.2741;
777.6000;0.0887;4.2838;
777.9000;0.0847;4.2789;
778.2000;0.0879;4.2887;
778.5000;0.0863;4.2960;
778.8000;0.0830;4.2862;
779.1000;0.0895;4.3082;
779.4000;0.0863;4.3033;
779.7000;0.0855;4.2936;
780.0000;0.0887;4.2887;
780.3000;0.0895;4.2984;
780.6000;0.0838;4.2862;
780.9000;0.0887;4.3009;
781.2000;0.0871;4.2936;
781.5000;0.0879;4.2936;
781.8000;0.0822;4.2741;
782.1000;0.0855;4.2838;
782.4000;0.0871;4.2838;
782.7000;0.0838;4.2789;
783.0000;0.0969;4.3033;
783.3000;0.0863;4.2814;
783.6000;0.0879;4.2741;
783.9000;0.0855;4.2619;
784.2000;0.0871;4.2692;
784.5000;0.0887;4.2838;
784.8000;0.0879;4.2814;
785.1000;0.0847;4.2765;
785.4000;0.0855;4.2862;
785.7000;0.0798;4.2692;
786.0000;0.0879;4.2887;
786.3000;0.0879;4.2887;
786.6000;0.0952;4.3009;
786.9000;0.0871;4.2838;
787.2000;0.0895;4.2984;
787.5000;0.0855;4.2960;
787.8000;0.0871;4.2911;
788.1000;0.0895;4.3033;
788.4000;0.0863;4.2936;
788.7000;0.0879;4.2936;
789.0000;0.0912;4.2984;
789.3000;0.0830;4.2692;
789.6000;0.0879;4.2765;
789.9000;0.0895;4.2814;
790.2000;0.0879;4.2692;
790.5000;0.0952;4.3033;
790.8000;0.0912;4.2887;
791.1000;0.0871;4.2814;
791.4000;0.0895;4.2887;
791.7000;0.0895;4.2862;
792.0000;0.0838;4.2814;
792.3000;0.0741;4.2595;
792.6000;0.0749;4.2522;
792.9000;0.0830;4.2814;
793.2000;0.0952;4.3057;
793.5000;0.0928;4.2984;
793.8000;0.0952;4.3033;
794.1000;0.0863;4.2887;
794.4000;0.0847;4.2838;
794.7000;0.0863;4.2887;
795.0000;0.0806;4.2692;
795.3000;0.0879;4.2936;
795.6000;0.1001;4.3252;
795.9000;0.0863;4.2936;
796.2000;0.0871;4.2936;
796.5000;0.0895;4.3057;
796.8000;0.0871;4.3009;
797.1000;0.0887;4.3009;
797.4000;0.0879;4.2960;
797.7000;0.0887;4.2936;
798.0000;0.0847;4.2887;
798.3000;0.0724;4.2619;
798.6000;0.0887;4.3106;
798.9000;0.0863;4.3106;
799.2000;0.0879;4.3155;
799.5000;0.0887;4.3130;
799.8000;0.0895;4.3155;
800.1000;0.0798;4.2789;
800.4000;0.0895;4.2936;
800.7000;0.0871;4.2814;
801.0000;0.0904;4.3009;
801.3000;0.0838;4.2765;
801.6000;0.0879;4.2911;
801.9000;0.0895;4.2911;
802.2000;0.0879;4.2887;
802.5000;0.0871;4.2814;
802.8000;0.0887;4.2862;
803.1000;0.0879;4.2862;
803.4000;0.0887;4.2936;
803.7000;0.0977;4.3203;
804.0000;0.0863;4.2911;
804.3000;0.0871;4.2960;
804.6000;0.0912;4.3009;
804.9000;0.0855;4.2741;
805.2000;0.0879;4.2789;
805.5000;0.0879;4.2838;
805.8000;0.0871;4.2862;
806.1000;0.0871;4.2911;
806.4000;0.0847;4.2789;
806.7000;0.0895;4.2911;
807.0000;0.0887;4.2911;
807.3000;0.0855;4.2862;
807.6000;0.0871;4.2911;
807.9000;0.0871;4.2887;
808.2000;0.0855;4.2936;
808.5000;0.0847;4.2984;
808.8000;0.0863;4.3009;
809.1000;0.0879;4.3009;
809.4000;0.0895;4.3057;
809.7000;0.0871;4.3033;
810.0000;0.0863;4.2984;
810.3000;0.0879;4.2960;
810.6000;0.0879;4.3033;
810.9000;0.0936;4.3130;
811.2000;0.0863;4.2936;
811.5000;0.0871;4.2984;
811.8000;0.0904;4.3106;
812.1000;0.0879;4.3057;
812.4000;0.0887;4.3130;
812.7000;0.0895;4.3155;
813.0000;0.0879;4.3130;
813.3000;0.0806;4.2814;
813.6000;0.0790;4.2838;
813.9000;0.0879;4.3009;
814.2000;0.0912;4.3057;
814.5000;0.0798;4.2741;
814.8000;0.0847;4.2814;
815.1000;0.0733;4.2570;
815.4000;0.0863;4.2936;
815.7000;0.0895;4.3033;
816.0000;0.0847;4.2984;
816.3000;0.0920;4.3057;
816.6000;0.0871;4.2911;
816.9000;0.0855;4.2960;
817.2000;0.0912;4.3155;
817.5000;0.0871;4.2936;
817.8000;0.0895;4.2887;
818.1000;0.0847;4.2692;
818.4000;0.0814;4.2716;
818.7000;0.0863;4.2814;
819.0000;0.0863;4.2862;
819.3000;0.0895;4.2911;
819.6000;0.0863;4.2838;
819.9000;0.0855;4.2911;
820.2000;0.0806;4.2741;
820.5000;0.0904;4.3009;
820.8000;0.0847;4.2862;
821.1000;0.0855;4.2838;
821.4000;0.0863;4.2814;
821.7000;0.0855;4.2862;
822.0000;0.0887;4.2887;
822.3000;0.0879;4.2911;
822.6000;0.0879;4.2887;
822.9000;0.0879;4.2862;
823.2000;0.0895;4.2887;
823.5000;0.0863;4.2862;
823.8000;0.0871;4.2887;
824.1000;0.0871;4.2887;
824.4000;0.0863;4.2936;
824.7000;0.0871;4.2887;
825.0000;0.0871;4.2838;
825.3000;0.0904;4.2960;
825.6000;0.0863;4.2936;
825.9000;0.0879;4.2936;
826.2000;0.0961;4.3155;
826.5000;0.0887;4.2862;
826.8000;0.0904;4.2862;
827.1000;0.0838;4.2741;
827.4000;0.0863;4.2838;
827.7000;0.0920;4.3057;
828.0000;0.0863;4.2911;
828.3000;0.0863;4.2887;
828.6000;0.0847;4.2838;
828.9000;0.0871;4.2936;
829.2000;0.0879;4.3033;
829.5000;0.0822;4.2838;
829.8000;0.0879;4.2960;
830.1000;0.0871;4.2936;
830.4000;0.0838;4.2789;
830.7000;0.0863;4.2814;
831.0000;0.0871;4.2838;
831.3000;0.0887;4.2887;
831.6000;0.0895;4.2911;
831.9000;0.0863;4.2911;
832.2000;0.0871;4.2887;
832.5000;0.0863;4.2862;
832.8000;0.0855;4.2887;
833.1000;0.0822;4.2741;
833.4000;0.0887;4.2911;
833.7000;0.0871;4.2887;
834.0000;0.0895;4.2887;
834.3000;0.0863;4.2838;
834.6000;0.0871;4.2838;
834.9000;0.0863;4.2838;
835.2000;0.0871;4.2838;
835.5000;0.0895;4.2862;
835.8000;0.0863;4.2814;
836.1000;0.0887;4.3033;
836.4000;0.0871;4.2984;
836.7000;0.0879;4.3033;
837.0000;0.0920;4.3130;
837.3000;0.0895;4.3057;
837.6000;0.0952;4.3203;
837.9000;0.0830;4.2814;
838.2000;0.0871;4.2960;
838.5000;0.0895;4.2911;
838.8000;0.0863;4.2887;
839.1000;0.0920;4.3009;
839.4000;0.0879;4.2838;
839.7000;0.0814;4.2643;
840.0000;0.0863;4.2765;
840.3000;0.0847;4.2814;
840.6000;0.0830;4.2838;
840.9000;0.0855;4.2911;
841.2000;0.0798;4.2741;
841.5000;0.0879;4.2984;
841.8000;0.0879;4.2936;
842.1000;0.0863;4.2936;
842.4000;0.0806;4.2692;
842.7000;0.0830;4.2789;
843.0000;0.0863;4.2789;
843.3000;0.0838;4.2765;
843.6000;0.0871;4.2765;
843.9000;0.0887;4.2838;
844.2000;0.1074;4.3325;
844.5000;0.0863;4.2765;
844.8000;0.0871;4.2741;
845.1000;0.0830;4.2765;
845.4000;0.0855;4.2814;
845.7000;0.0773;4.2570;
846.0000;0.0879;4.2936;
846.3000;0.0879;4.2936;
846.6000;0.0879;4.2984;
846.9000;0.0904;4.3057;
847.2000;0.0855;4.3106;
847.5000;0.0895;4.3130;
847.8000;0.0855;4.2936;
848.1000;0.0912;4.2984;
848.4000;0.0879;4.2936;
848.7000;0.0863;4.2862;
849.0000;0.0871;4.2862;
849.3000;0.0863;4.2887;
849.6000;0.0871;4.2862;
849.9000;0.0871;4.2765;
850.2000;0.0863;4.2838;
850.5000;0.0871;4.2862;
850.8000;0.0863;4.2911;
851.1000;0.0855;4.2862;
851.4000;0.0879;4.3009;
851.7000;0.0904;4.3082;
852.0000;0.0887;4.2984;
852.3000;0.0887;4.2936;
852.6000;0.0879;4.2814;
852.9000;0.0879;4.2887;
853.2000;0.0855;4.2838;
853.5000;0.0847;4.2838;
853.8000;0.0863;4.2887;
854.1000;0.0879;4.2911;
854.4000;0.0871;4.2936;
854.7000;0.0855;4.2911;
855.0000;0.0871;4.2984;
855.3000;0.0855;4.3009;
855.6000;0.0838;4.3033;
855.9000;0.0895;4.3203;
856.2000;0.0871;4.2984;
856.5000;0.0863;4.2911;
856.8000;0.0887;4.3009;
857.1000;0.0879;4.2960;
857.4000;0.0847;4.2911;
857.7000;0.0887;4.3033;
858.0000;0.0847;4.2887;
858.3000;0.0863;4.2911;
858.6000;0.0871;4.2887;
858.9000;0.0863;4.2765;
859.2000;0.0879;4.2741;
859.5000;0.0904;4.2936;
859.8000;0.0847;4.2862;
860.1000;0.0830;4.2789;
860.4000;0.0773;4.2668;
860.7000;0.0887;4.3009;
861.0000;0.0871;4.2984;
861.3000;0.0879;4.3057;
861.6000;0.0887;4.3130;
861.9000;0.0765;4.2862;
862.2000;0.0855;4.3009;
862.5000;0.0838;4.2862;
862.8000;0.0830;4.2887;
863.1000;0.0790;4.2692;
863.4000;0.0920;4.3033;
863.7000;0.0863;4.2887;
864.0000;0.0879;4.2911;
864.3000;0.0847;4.2838;
864.6000;0.0830;4.2887;
864.9000;0.0855;4.2960;
865.2000;0.0912;4.3228;
865.5000;0.0871;4.3106;
865.8000;0.0871;4.3130;
866.1000;0.0863;4.3155;
866.4000;0.0879;4.3179;
866.7000;0.0847;4.3082;
867.0000;0.0895;4.3252;
867.3000;0.0871;4.3179;
867.6000;0.0871;4.3228;
867.9000;0.0863;4.3252;
868.2000;0.0830;4.3203;
868.5000;0.0895;4.3349;
868.8000;0.0863;4.3252;
869.1000;0.0838;4.3155;
869.4000;0.0904;4.3155;
869.7000;0.0904;4.3082;
870.0000;0.0887;4.3009;
870.3000;0.0863;4.2887;
870.6000;0.0871;4.2936;
870.9000;0.0887;4.2936;
871.2000;0.0887;4.2887;
871.5000;0.0887;4.2936;
871.8000;0.0879;4.3009;
872.1000;0.0977;4.3325;
872.4000;0.0879;4.3106;
872.7000;0.0871;4.3106;
873.0000;0.0863;4.3106;
873.3000;0.0855;4.3009;
873.6000;0.0887;4.3033;
873.9000;0.0863;4.2911;
874.2000;0.0863;4.2936;
874.5000;0.0904;4.2936;
874.8000;0.0887;4.2960;
875.1000;0.0887;4.2984;
875.4000;0.0855;4.2936;
875.7000;0.0944;4.3203;
876.0000;0.0855;4.3009;
876.3000;0.0863;4.3009;
876.6000;0.0847;4.2984;
876.9000;0.0920;4.3082;
877.2000;0.0822;4.2911;
877.5000;0.0904;4.3082;
877.8000;0.0895;4.3082;
878.1000;0.0887;4.3106;
878.4000;0.0871;4.3009;
878.7000;0.0887;4.3033;
879.0000;0.0838;4.2862;
879.3000;0.0887;4.2960;
879.6000;0.0855;4.2936;
879.9000;0.0887;4.3033;
880.2000;0.0855;4.2911;
880.5000;0.0847;4.2862;
880.8000;0.0879;4.2911;
881.1000;0.0871;4.2936;
881.4000;0.0904;4.3033;
881.7000;0.0904;4.2936;
882.0000;0.0879;4.2936;
882.3000;0.0814;4.2765;
882.6000;0.0855;4.2765;
882.9000;0.0855;4.2741;
883.2000;0.0871;4.2814;
883.5000;0.0904;4.2887;
883.8000;0.0879;4.2741;
884.1000;0.0936;4.2960;
884.4000;0.0863;4.2789;
884.7000;0.0838;4.2789;
885.0000;0.0871;4.2887;
885.3000;0.0798;4.2741;
885.6000;0.0838;4.2814;
885.9000;0.0863;4.2960;
886.2000;0.0847;4.2936;
886.5000;0.0887;4.2984;
886.8000;0.0798;4.2668;
887.1000;0.0855;4.2887;
887.4000;0.0855;4.2984;
887.7000;0.0879;4.3033;
888.0000;0.0944;4.3252;
888.3000;0.0838;4.2960;
888.6000;0.0879;4.3033;
888.9000;0.0838;4.2936;
889.2000;0.0879;4.3009;
889.5000;0.0838;4.2789;
889.8000;0.0855;4.2716;
890.1000;0.0879;4.2887;
890.4000;0.0871;4.2862;
890.7000;0.0855;4.2838;
891.0000;0.0863;4.2741;
891.3000;0.0741;4.2424;
891.6000;0.0904;4.2960;
891.9000;0.0871;4.2936;
892.2000;0.0871;4.2984;
892.5000;0.0879;4.2960;
892.8000;0.0847;4.2936;
893.1000;0.0863;4.2960;
893.4000;0.0847;4.2936;
893.7000;0.0887;4.2960;
894.0000;0.0871;4.2960;
894.3000;0.0879;4.2936;
894.6000;0.0855;4.2887;
894.9000;0.0871;4.2911;
895.2000;0.0887;4.2984;
895.5000;0.0838;4.2862;
895.8000;0.0879;4.2911;
896.1000;0.0871;4.2936;
896.4000;0.0847;4.2887;
896.7000;0.0879;4.2887;
897.0000;0.0822;4.2887;
897.3000;0.0847;4.2911;
897.6000;0.0855;4.2911;
897.9000;0.0863;4.2887;
898.2000;0.0847;4.2911;
898.5000;0.0904;4.2936;
898.8000;0.0879;4.2911;
899.1000;0.0871;4.2936;
899.4000;0.0855;4.2838;
899.7000;0.0863;4.2911;
900.0000;0.0863;4.2862;
900.3000;0.0855;4.2911;
900.6000;0.0879;4.2911;
900.9000;0.0847;4.2838;
901.2000;0.0847;4.2911;
901.5000;0.0847;4.2936;
901.8000;0.0806;4.2862;
902.1000;0.0830;4.2887;
902.4000;0.0879;4.3033;
902.7000;0.0871;4.2960;
903.0000;0.0847;4.2862;
903.3000;0.0838;4.2692;
903.6000;0.0855;4.2643;
903.9000;0.0871;4.2643;
904.2000;0.0871;4.2668;
904.5000;0.0847;4.2692;
904.8000;0.0863;4.2716;
905.1000;0.0912;4.2814;
905.4000;0.0838;4.2692;
905.7000;0.0871;4.2716;
906.0000;0.0879;4.2765;
906.3000;0.0871;4.2838;
906.6000;0.0838;4.2862;
906.9000;0.0879;4.2936;
907.2000;0.0871;4.2887;
907.5000;0.0863;4.2765;
907.8000;0.0863;4.2741;
908.1000;0.0855;4.2765;
908.4000;0.0822;4.2741;
908.7000;0.0855;4.2911;
909.0000;0.0871;4.2936;
909.3000;0.0814;4.2862;
909.6000;0.0871;4.3106;
909.9000;0.0871;4.3033;
910.2000;0.0863;4.3057;
910.5000;0.0822;4.3009;
910.8000;0.0830;4.3082;
911.1000;0.0855;4.3057;
911.4000;0.0879;4.3130;
911.7000;0.0936;4.3179;
912.0000;0.0895;4.3057;
912.3000;0.0855;4.2984;
912.6000;0.0887;4.2960;
912.9000;0.0920;4.3033;
913.2000;0.0863;4.2911;
913.5000;0.0863;4.2862;
913.8000;0.0838;4.2838;
914.1000;0.0871;4.2936;
914.4000;0.0871;4.2862;
914.7000;0.0895;4.2887;
915.0000;0.0887;4.2984;
915.3000;0.1009;4.3252;
915.6000;0.0879;4.2911;
915.9000;0.0871;4.2887;
916.2000;0.0855;4.2960;
916.5000;0.0871;4.2984;
916.8000;0.0871;4.3033;
917.1000;0.0847;4.3033;
917.4000;0.0830;4.3009;
917.7000;0.0838;4.3082;
918.0000;0.0879;4.3106;
918.3000;0.0855;4.3009;
918.6000;0.0863;4.3057;
918.9000;0.0871;4.3057;
919.2000;0.0855;4.2960;
919.5000;0.0830;4.2911;
919.8000;0.0863;4.3106;
920.1000;0.0855;4.3106;
920.4000;0.0944;4.3349;
920.7000;0.0773;4.2911;
921.0000;0.0855;4.3106;
921.3000;0.0847;4.3106;
921.6000;0.0822;4.3082;
921.9000;0.0855;4.3179;
922.2000;0.0855;4.3228;
922.5000;0.0936;4.3422;
922.8000;0.0855;4.3155;
923.1000;0.0863;4.3252;
923.4000;0.0838;4.3155;
923.7000;0.0863;4.3276;
924.0000;0.0863;4.3325;
924.3000;0.0895;4.3398;
924.6000;0.0863;4.3203;
924.9000;0.0863;4.3106;
925.2000;0.0863;4.3130;
925.5000;0.0830;4.2984;
925.8000;0.0863;4.3082;
926.1000;0.0855;4.3082;
926.4000;0.0887;4.3179;
926.7000;0.0879;4.3130;
927.0000;0.0863;4.3106;
927.3000;0.0822;4.3009;
927.6000;0.0895;4.3179;
927.9000;0.0887;4.3082;
928.2000;0.0871;4.3082;
928.5000;0.0879;4.3033;
928.8000;0.0847;4.2936;
929.1000;0.0733;4.2497;
929.4000;0.0847;4.2789;
929.7000;0.0855;4.2838;
930.0000;0.0863;4.2862;
930.3000;0.0855;4.2960;
930.6000;0.0814;4.3009;
930.9000;0.0879;4.3130;
931.2000;0.0855;4.3009;
931.5000;0.0855;4.2936;
931.8000;0.0895;4.3057;
932.1000;0.0863;4.3082;
932.4000;0.0863;4.3082;
932.7000;0.0847;4.2960;
933.0000;0.0863;4.3033;
933.3000;0.0822;4.2984;
933.6000;0.0855;4.2960;
933.9000;0.0863;4.2911;
934.2000;0.0855;4.2887;
934.5000;0.0855;4.2936;
934.8000;0.0855;4.3009;
935.1000;0.0879;4.2960;
935.4000;0.0969;4.3252;
935.7000;0.0757;4.2668;
936.0000;0.0822;4.2838;
936.3000;0.0855;4.2887;
936.6000;0.0855;4.2911;
936.9000;0.1001;4.3276;
937.2000;0.0944;4.3155;
937.5000;0.0871;4.2984;
937.8000;0.0855;4.2911;
938.1000;0.0838;4.2838;
938.4000;0.0790;4.2692;
938.7000;0.0863;4.3033;
939.0000;0.0855;4.3009;
939.3000;0.0863;4.3082;
939.6000;0.0879;4.3155;
939.9000;0.0863;4.3155;
940.2000;0.0838;4.3009;
940.5000;0.0847;4.3106;
940.8000;0.0944;4.3276;
941.1000;0.0847;4.3130;
941.4000;0.0879;4.3130;
941.7000;0.0838;4.3130;
942.0000;0.0847;4.3203;
942.3000;0.0838;4.3228;
942.6000;0.0847;4.3276;
942.9000;0.0773;4.3082;
943.2000;0.0847;4.3228;
943.5000;0.0920;4.3228;
943.8000;0.0855;4.3057;
944.1000;0.0855;4.3009;
944.4000;0.0879;4.3179;
944.7000;0.0814;4.3009;
945.0000;0.0855;4.3057;
945.3000;0.0863;4.3057;
945.6000;0.0879;4.3033;
945.9000;0.0879;4.3106;
946.2000;0.0895;4.3130;
946.5000;0.0920;4.3179;
946.8000;0.0928;4.3228;
947.1000;0.0879;4.3033;
947.4000;0.0895;4.3130;
947.7000;0.0887;4.3228;
948.0000;0.0879;4.3228;
948.3000;0.0871;4.3203;
948.6000;0.0863;4.3130;
948.9000;0.0993;4.3349;
949.2000;0.0912;4.3179;
949.5000;0.0879;4.3057;
949.8000;0.0863;4.3033;
950.1000;0.0863;4.3033;
950.4000;0.0838;4.2984;
950.7000;0.0855;4.3033;
951.0000;0.0871;4.3082;
951.3000;0.0830;4.2984;
951.6000;0.0863;4.3057;
951.9000;0.0855;4.3082;
952.2000;0.0879;4.3106;
952.5000;0.0863;4.3009;
952.8000;0.0838;4.2911;
953.1000;0.0871;4.2911;
953.4000;0.0887;4.2960;
953.7000;0.0847;4.2838;
954.0000;0.0895;4.2936;
954.3000;0.1001;4.3325;
954.6000;0.0871;4.2936;
954.9000;0.0879;4.3009;
955.2000;0.0871;4.2984;
955.5000;0.0847;4.2984;
955.8000;0.0798;4.2887;
956.1000;0.0879;4.3082;
956.4000;0.0887;4.3033;
956.7000;0.0773;4.2765;
957.0000;0.0871;4.3082;
957.3000;0.0887;4.3082;
957.6000;0.0887;4.3082;
957.9000;0.0855;4.3009;
958.2000;0.0895;4.3106;
958.5000;0.0847;4.2960;
958.8000;0.0871;4.3009;
959.1000;0.0855;4.3033;
959.4000;0.0928;4.3179;
959.7000;0.0798;4.2936;
960.0000;0.0904;4.3228;
960.3000;0.0871;4.3106;
960.6000;0.0847;4.3106;
960.9000;0.0806;4.2960;
961.2000;0.0920;4.3252;
961.5000;0.0887;4.3106;
961.8000;0.0887;4.3130;
962.1000;0.0879;4.3082;
962.4000;0.0871;4.3057;
962.7000;0.0871;4.2984;
963.0000;0.0879;4.3033;
963.3000;0.0855;4.2960;
963.6000;0.0863;4.3009;
963.9000;0.0879;4.3082;
964.2000;0.0895;4.3106;
964.5000;0.0912;4.3155;
964.8000;0.0871;4.2984;
965.1000;0.0928;4.3155;
965.4000;0.0847;4.2862;
965.7000;0.0871;4.2936;
966.0000;0.0879;4.3057;
966.3000;0.0855;4.2960;
966.6000;0.0969;4.3203;
966.9000;0.0847;4.2887;
967.2000;0.0887;4.2984;
967.5000;0.0912;4.2960;
967.8000;0.0879;4.2936;
968.1000;0.0863;4.2911;
968.4000;0.0879;4.2936;
968.7000;0.0830;4.2789;
969.0000;0.0871;4.2984;
969.3000;0.0871;4.2984;
969.6000;0.0773;4.2716;
969.9000;0.0863;4.2984;
970.2000;0.0847;4.3057;
970.5000;0.0871;4.3009;
970.8000;0.0830;4.2911;
971.1000;0.0879;4.3033;
971.4000;0.0887;4.3009;
971.7000;0.0887;4.3082;
972.0000;0.0871;4.3033;
972.3000;0.0863;4.2984;
972.6000;0.0879;4.3130;
972.9000;0.0863;4.3130;
973.2000;0.0749;4.2789;
973.5000;0.0887;4.3228;
973.8000;0.0838;4.3057;
974.1000;0.0838;4.3082;
974.4000;0.0879;4.3276;
974.7000;0.0847;4.3130;
975.0000;0.0871;4.3203;
975.3000;0.0863;4.3130;
975.6000;0.0863;4.3130;
975.9000;0.0863;4.3106;
976.2000;0.0895;4.3203;
976.5000;0.0822;4.3009;
976.8000;0.0863;4.3082;
977.1000;0.0847;4.3057;
977.4000;0.0830;4.3033;
977.7000;0.0871;4.3228;
978.0000;0.0936;4.3447;
978.3000;0.0847;4.3203;
978.6000;0.0887;4.3301;
978.9000;0.0855;4.3228;
979.2000;0.0895;4.3301;
979.5000;0.0871;4.3155;
979.8000;0.0822;4.3082;
980.1000;0.0847;4.3179;
980.4000;0.0838;4.3155;
980.7000;0.0871;4.3252;
981.0000;0.0879;4.3228;
981.3000;0.0879;4.3179;
981.6000;0.0847;4.3082;
981.9000;0.0887;4.3155;
982.2000;0.0830;4.2960;
982.5000;0.0847;4.3130;
982.8000;0.0871;4.3228;
983.1000;0.0863;4.3130;
983.4000;0.0855;4.3155;
983.7000;0.0847;4.3082;
984.0000;0.0863;4.3130;
984.3000;0.0871;4.3033;
984.6000;0.0838;4.3082;
984.9000;0.0952;4.3252;
985.2000;0.0887;4.3033;
985.5000;0.0863;4.2960;
985.8000;0.0855;4.2936;
986.1000;0.0863;4.3033;
986.4000;0.0863;4.3033;
986.7000;0.0887;4.3057;
987.0000;0.0822;4.2911;
987.3000;0.0879;4.3057;
987.6000;0.0855;4.2936;
987.9000;0.0871;4.2862;
988.2000;0.0871;4.2862;
988.5000;0.0887;4.2838;
988.8000;0.0936;4.2911;
989.1000;0.0863;4.2716;
989.4000;0.0871;4.2692;
989.7000;0.0871;4.2741;
990.0000;0.0887;4.2862;
990.3000;0.0855;4.2789;
990.6000;0.0822;4.2692;
990.9000;0.0847;4.2789;
991.2000;0.0887;4.2765;
991.5000;0.0871;4.2838;
991.8000;0.0855;4.2911;
992.1000;0.0863;4.2887;
992.4000;0.0879;4.2887;
992.7000;0.0855;4.2984;
993.0000;0.0855;4.2936;
993.3000;0.0871;4.3082;
993.6000;0.0895;4.3155;
993.9000;0.0863;4.3009;
994.2000;0.0814;4.2887;
994.5000;0.0871;4.3009;
994.8000;0.0920;4.3155;
995.1000;0.0822;4.2984;
995.4000;0.0879;4.3057;
995.7000;0.0887;4.3057;
996.0000;0.0871;4.3033;
996.3000;0.0952;4.3301;
996.6000;0.0887;4.3082;
996.9000;0.0855;4.3009;
997.2000;0.0863;4.3082;
997.5000;0.0863;4.3082;
997.8000;0.0871;4.3130;
998.1000;0.0887;4.3252;
998.4000;0.0879;4.3301;
998.7000;0.0871;4.3252;
999.0000;0.0830;4.3155;
999.3000;0.0822;4.3203;
999.6000;0.0871;4.3228;
999.9000;0.0879;4.3252;
1000.2000;0.0879;4.3276;
1000.5000;0.0993;4.3593;
1000.8000;0.0855;4.3252;
1001.1000;0.0871;4.3228;
1001.4000;0.0814;4.3106;
1001.7000;0.0855;4.3203;
1002.0000;0.0879;4.3155;
1002.3000;0.0822;4.3033;
1002.6000;0.0814;4.3082;
1002.9000;0.0879;4.3276;
1003.2000;0.0895;4.3374;
1003.5000;0.0879;4.3301;
1003.8000;0.0847;4.3276;
1004.1000;0.0855;4.3301;
1004.4000;0.0847;4.3252;
1004.7000;0.0961;4.3471;
1005.0000;0.0871;4.3252;
1005.3000;0.1001;4.3568;
1005.6000;0.0871;4.3130;
1005.9000;0.0855;4.3106;
1006.2000;0.0847;4.3057;
1006.5000;0.0887;4.3179;
1006.8000;0.0790;4.3033;
1007.1000;0.0855;4.3155;
1007.4000;0.0863;4.3179;
1007.7000;0.0855;4.3155;
1008.0000;0.0993;4.3495;
1008.3000;0.0928;4.3228;
1008.6000;0.0871;4.3033;
1008.9000;0.0887;4.3155;
1009.2000;0.0855;4.3009;
1009.5000;0.0847;4.3009;
1009.8000;0.0895;4.3130;
1010.1000;0.0863;4.3106;
1010.4000;0.0895;4.3349;
1010.7000;0.0838;4.3130;
1011.0000;0.0871;4.3130;
1011.3000;0.0871;4.3130;
1011.6000;0.0855;4.3106;
1011.9000;0.0879;4.3155;
1012.2000;0.0887;4.3203;
1012.5000;0.0887;4.3228;
1012.8000;0.0871;4.3179;
1013.1000;0.0887;4.3203;
1013.4000;0.0855;4.3130;
1013.7000;0.0749;4.2862;
1014.0000;0.0847;4.3252;
1014.3000;0.0895;4.3447;
1014.6000;0.0912;4.3495;
1014.9000;0.0863;4.3374;
1015.2000;0.0855;4.3349;
1015.5000;0.0847;4.3349;
1015.8000;0.0871;4.3301;
1016.1000;0.0912;4.3398;
1016.4000;0.0887;4.3276;
1016.7000;0.0952;4.3398;
1017.0000;0.0798;4.2960;
1017.3000;0.0830;4.3082;
1017.6000;0.0822;4.2960;
1017.9000;0.0855;4.3057;
1018.2000;0.0855;4.3106;
1018.5000;0.0855;4.3057;
1018.8000;0.0847;4.3057;
1019.1000;0.0830;4.2984;
1019.4000;0.0871;4.3179;
1019.7000;0.0863;4.3203;
1020.0000;0.0847;4.3033;
1020.3000;0.0879;4.3082;
1020.6000;0.0871;4.3057;
1020.9000;0.0855;4.3106;
1021.2000;0.0871;4.3228;
1021.5000;0.0855;4.3130;
1021.8000;0.0928;4.3252;
1022.1000;0.0912;4.3155;
1022.4000;0.0887;4.3033;
1022.7000;0.0887;4.3033;
1023.0000;0.0847;4.2960;
1023.3000;0.0920;4.3179;
1023.6000;0.0863;4.3106;
1023.9000;0.0863;4.3082;
1024.2000;0.1001;4.3398;
1024.5000;0.0855;4.2984;
1024.8000;0.0863;4.3106;
1025.1000;0.0863;4.3082;
1025.4000;0.0887;4.3057;
1025.7000;0.0879;4.3033;
1026.0000;0.0879;4.3057;
1026.3000;0.0855;4.3009;
1026.6000;0.0798;4.2911;
1026.9000;0.0879;4.3082;
1027.2000;0.0879;4.3082;
1027.5000;0.0912;4.3082;
1027.8000;0.0928;4.3228;
1028.1000;0.0838;4.3082;
1028.4000;0.0904;4.3228;
1028.7000;0.0863;4.3155;
1029.0000;0.0879;4.3130;
1029.3000;0.0838;4.3106;
1029.6000;0.0871;4.3106;
1029.9000;0.0863;4.3130;
1030.2000;0.0838;4.3106;
1030.5000;0.0863;4.3228;
1030.8000;0.0904;4.3301;
1031.1000;0.0887;4.3228;
1031.4000;0.0879;4.3130;
1031.7000;0.0944;4.3252;
1032.0000;0.0863;4.2984;
1032.3000;0.0838;4.2838;
1032.6000;0.0871;4.2887;
1032.9000;0.0863;4.2862;
1033.2000;0.0847;4.2838;
1033.5000;0.0879;4.2936;
1033.8000;0.0855;4.2911;
1034.1000;0.0765;4.2692;
1034.4000;0.0871;4.2936;
1034.7000;0.0847;4.2960;
1035.0000;0.0879;4.3106;
1035.3000;0.0863;4.3033;
1035.6000;0.0847;4.3082;
1035.9000;0.0904;4.3276;
1036.2000;0.0863;4.3155;
1036.5000;0.0855;4.3106;
1036.8000;0.0863;4.3130;
1037.1000;0.0847;4.3033;
1037.4000;0.0879;4.3009;
1037.7000;0.0912;4.3057;
1038.0000;0.0838;4.2911;
1038.3000;0.0871;4.2984;
1038.6000;0.0863;4.3057;
1038.9000;0.0952;4.3374;
1039.2000;0.0871;4.3130;
1039.5000;0.0863;4.3106;
1039.8000;0.0847;4.3057;
1040.1000;0.0936;4.3374;
1040.4000;0.0904;4.3349;
1040.7000;0.0847;4.3082;
1041.0000;0.0838;4.2960;
1041.3000;0.0863;4.2960;
1041.6000;0.0741;4.2741;
1041.9000;0.0847;4.2984;
1042.2000;0.0855;4.2960;
1042.5000;0.0871;4.2887;
1042.8000;0.0855;4.2716;
1043.1000;0.0855;4.2765;
1043.4000;0.0879;4.2911;
1043.7000;0.0887;4.2984;
1044.0000;0.0887;4.2911;
1044.3000;0.0863;4.2911;
1044.6000;0.0871;4.2911;
1044.9000;0.0895;4.3009;
1045.2000;0.0912;4.2984;
1045.5000;0.0855;4.2765;
1045.8000;0.0822;4.2668;
1046.1000;0.0830;4.2716;
1046.4000;0.0871;4.2814;
1046.7000;0.0904;4.2936;
1047.0000;0.0871;4.2960;
1047.3000;0.0887;4.3082;
1047.6000;0.0879;4.3009;
1047.9000;0.0855;4.2960;
1048.2000;0.0871;4.2984;
1048.5000;0.0879;4.3033;
1048.8000;0.0887;4.2984;
1049.1000;0.0871;4.2911;
1049.4000;0.0855;4.2887;
1049.7000;0.0920;4.3057;
1050.0000;0.0871;4.2984;
1050.3000;0.0814;4.2911;
1050.6000;0.0822;4.3033;
1050.9000;0.0855;4.3082;
1051.2000;0.0895;4.3252;
1051.5000;0.0847;4.3130;
1051.8000;0.0936;4.3301;
1052.1000;0.0887;4.3106;
1052.4000;0.0822;4.2960;
1052.7000;0.0936;4.3276;
1053.0000;0.0887;4.3179;
1053.3000;0.0822;4.3009;
1053.6000;0.0847;4.3009;
1053.9000;0.0863;4.3009;
1054.2000;0.0814;4.2936;
1054.5000;0.0863;4.3082;
1054.8000;0.0781;4.2862;
1055.1000;0.0871;4.3082;
1055.4000;0.0838;4.2936;
1055.7000;0.0871;4.3009;
1056.0000;0.0684;4.2595;
1056.3000;0.0904;4.3252;
1056.6000;0.0871;4.3252;
1056.9000;0.0806;4.3082;
1057.2000;0.0863;4.3228;
1057.5000;0.0863;4.3252;
1057.8000;0.0871;4.3276;
1058.1000;0.0863;4.3179;
1058.4000;0.0855;4.3082;
1058.7000;0.0847;4.3082;
1059.0000;0.0895;4.3179;
1059.3000;0.0863;4.2936;
1059.6000;0.0879;4.2960;
1059.9000;0.0847;4.2960;
1060.2000;0.0863;4.2984;
1060.5000;0.0977;4.3301;
1060.8000;0.0838;4.2984;
1061.1000;0.0863;4.3057;
1061.4000;0.0855;4.3130;
1061.7000;0.0741;4.2887;
1062.0000;0.0879;4.3301;
1062.3000;0.0863;4.3228;
1062.6000;0.0887;4.3301;
1062.9000;0.0871;4.3203;
1063.2000;0.0961;4.3398;
1063.5000;0.0855;4.3057;
1063.8000;0.0969;4.3252;
1064.1000;0.0847;4.2911;
1064.4000;0.0871;4.2960;
1064.7000;0.0847;4.2984;
1065.0000;0.0838;4.3009;
1065.3000;0.0855;4.3057;
1065.6000;0.0887;4.3009;
1065.9000;0.0847;4.2960;
1066.2000;0.0912;4.3203;
1066.5000;0.0879;4.3106;
1066.8000;0.0879;4.3106;
1067.1000;0.0871;4.3033;
1067.4000;0.0855;4.2911;
1067.7000;0.0879;4.2911;
1068.0000;0.0830;4.2911;
1068.3000;0.0871;4.2960;
1068.6000;0.0830;4.2936;
1068.9000;0.0863;4.3033;
1069.2000;0.0879;4.3082;
1069.5000;0.0855;4.2911;
1069.8000;0.0838;4.2862;
1070.1000;0.0895;4.3009;
1070.4000;0.0887;4.3082;
1070.7000;0.0855;4.3009;
1071.0000;0.0830;4.3033;
1071.3000;0.0879;4.3179;
1071.6000;0.0838;4.3106;
1071.9000;0.0879;4.3130;
1072.2000;0.0887;4.3179;
1072.5000;0.0879;4.3203;
1072.8000;0.0838;4.3130;
1073.1000;0.0855;4.3179;
1073.4000;0.0855;4.3130;
1073.7000;0.0855;4.3033;
1074.0000;0.0847;4.3009;
1074.3000;0.0855;4.3082;
1074.6000;0.0855;4.2984;
1074.9000;0.0895;4.3009;
1075.2000;0.0879;4.2960;
1075.5000;0.0838;4.2862;
1075.8000;0.0879;4.2887;
1076.1000;0.0895;4.2984;
1076.4000;0.1009;4.3374;
1076.7000;0.0847;4.2936;
1077.0000;0.0863;4.2984;
1077.3000;0.0871;4.2887;
1077.6000;0.0879;4.2984;
1077.9000;0.0863;4.3009;
1078.2000;0.0879;4.3130;
1078.5000;0.0871;4.3057;
1078.8000;0.0863;4.3057;
1079.1000;0.0879;4.3082;
1079.4000;0.0871;4.3082;
1079.7000;0.0838;4.3033;
1080.0000;0.0871;4.3057;
1080.3000;0.0855;4.2936;
1080.6000;0.0863;4.2984;
1080.9000;0.0855;4.2960;
1081.2000;0.0879;4.2984;
1081.5000;0.0847;4.2789;
1081.8000;0.0855;4.2862;
1082.1000;0.0863;4.2911;
1082.4000;0.0871;4.2936;
1082.7000;0.0871;4.2911;
1083.0000;0.0879;4.2911;
1083.3000;0.0847;4.2814;
1083.6000;0.0863;4.2765;
1083.9000;0.0855;4.2765;
1084.2000;0.0887;4.2911;
1084.5000;0.0863;4.2838;
1084.8000;0.0773;4.2668;
1085.1000;0.0887;4.2984;
1085.4000;0.0871;4.3033;
1085.7000;0.0879;4.3009;
1086.0000;0.0838;4.2911;
1086.3000;0.0838;4.3009;
1086.6000;0.0814;4.2887;
1086.9000;0.0863;4.2984;
1087.2000;0.0895;4.3082;
1087.5000;0.0871;4.3057;
1087.8000;0.0838;4.3057;
1088.1000;0.0838;4.3082;
1088.4000;0.0871;4.3179;
1088.7000;0.0847;4.3155;
1089.0000;0.0871;4.3203;
1089.3000;0.0863;4.3155;
1089.6000;0.0863;4.3203;
1089.9000;0.0871;4.3106;
1090.2000;0.0871;4.3009;
1090.5000;0.0863;4.3082;
1090.8000;0.0863;4.3082;
1091.1000;0.0847;4.3033;
1091.4000;0.0871;4.3033;
1091.7000;0.0904;4.3082;
1092.0000;0.0879;4.3033;
1092.3000;0.0904;4.3130;
1092.6000;0.0855;4.2984;
1092.9000;0.0887;4.3009;
1093.2000;0.0806;4.2814;
1093.5000;0.0781;4.2765;
1093.8000;0.0863;4.2936;
1094.1000;0.0928;4.3276;
1094.4000;0.0936;4.3252;
1094.7000;0.0847;4.3057;
1095.0000;0.0863;4.3009;
1095.3000;0.0847;4.2960;
1095.6000;0.0871;4.3057;
1095.9000;0.0920;4.3082;
1096.2000;0.0879;4.2862;
1096.5000;0.0895;4.2887;
1096.8000;0.0847;4.2789;
1097.1000;0.0871;4.2911;
1097.4000;0.0855;4.2936;
1097.7000;0.0830;4.2911;
1098.0000;0.0879;4.2960;
1098.3000;0.0847;4.2911;
1098.6000;0.0863;4.2887;
1098.9000;0.0847;4.2741;
1099.2000;0.0855;4.2887;
1099.5000;0.0879;4.2936;
1099.8000;0.0863;4.2911;
1100.1000;0.0871;4.2838;
1100.4000;0.0733;4.2376;
1100.7000;0.0806;4.2449;
1101.0000;0.0936;4.2887;
1101.3000;0.0879;4.2814;
1101.6000;0.0879;4.2911;
1101.9000;0.0847;4.2887;
1102.2000;0.0855;4.2984;
1102.5000;0.0863;4.3009;
1102.8000;0.0887;4.3009;
1103.1000;0.0871;4.2936;
1103.4000;0.0863;4.2911;
1103.7000;0.0863;4.2960;
1104.0000;0.0879;4.3033;
1104.3000;0.0887;4.3057;
1104.6000;0.0879;4.3033;
1104.9000;0.0871;4.3155;
1105.2000;0.0871;4.3082;
1105.5000;0.0838;4.2887;
1105.8000;0.0863;4.2936;
1106.1000;0.0871;4.2911;
1106.4000;0.0863;4.2984;
1106.7000;0.0936;4.3155;
1107.0000;0.0847;4.2936;
1107.3000;0.0879;4.3009;
1107.6000;0.0838;4.2960;
1107.9000;0.0863;4.3009;
1108.2000;0.0920;4.3155;
1108.5000;0.0904;4.3106;
1108.8000;0.0871;4.2936;
1109.1000;0.0871;4.2936;
1109.4000;0.0863;4.2960;
1109.7000;0.0871;4.2984;
1110.0000;0.0716;4.2595;
1110.3000;0.0855;4.2984;
1110.6000;0.0871;4.2984;
1110.9000;0.0855;4.2936;
1111.2000;0.0863;4.2960;
1111.5000;0.0871;4.2984;
1111.8000;0.0863;4.2984;
1112.1000;0.0863;4.3057;
1112.4000;0.0879;4.3082;
1112.7000;0.0863;4.3082;
1113.0000;0.0830;4.2960;
1113.3000;0.0863;4.3009;
1113.6000;0.0871;4.3106;
1113.9000;0.0847;4.2984;
1114.2000;0.0847;4.2936;
1114.5000;0.0871;4.3057;
1114.8000;0.0847;4.3057;
1115.1000;0.0887;4.3179;
1115.4000;0.0806;4.2911;
1115.7000;0.0863;4.3033;
1116.0000;0.0838;4.2984;
1116.3000;0.0847;4.2984;
1116.6000;0.0863;4.3106;
1116.9000;0.0855;4.2960;
1117.2000;0.0855;4.3033;
1117.5000;0.0904;4.3252;
1117.8000;0.0871;4.3082;
1118.1000;0.0863;4.3033;
1118.4000;0.0773;4.2789;
1118.7000;0.0847;4.2984;
1119.0000;0.0863;4.3057;
1119.3000;0.0887;4.3155;
1119.6000;0.0863;4.3057;
1119.9000;0.0863;4.3106;
1120.2000;0.0863;4.3057;
1120.5000;0.0806;4.2911;
1120.8000;0.0863;4.3033;
1121.1000;0.0724;4.2643;
1121.4000;0.0757;4.2765;
1121.7000;0.0814;4.2862;
1122.0000;0.0847;4.2887;
1122.3000;0.0895;4.3009;
1122.6000;0.0863;4.2862;
1122.9000;0.0847;4.2960;
1123.2000;0.0781;4.2789;
1123.5000;0.0879;4.2960;
1123.8000;0.0879;4.2936;
1124.1000;0.0887;4.2936;
1124.4000;0.0830;4.2789;
1124.7000;0.0871;4.2960;
1125.0000;0.0895;4.3082;
1125.3000;0.0838;4.3009;
1125.6000;0.0863;4.3057;
1125.9000;0.0879;4.3033;
1126.2000;0.0936;4.3179;
1126.5000;0.0855;4.2911;
1126.8000;0.0887;4.2887;
1127.1000;0.0887;4.2960;
1127.4000;0.0895;4.3033;
1127.7000;0.0879;4.3009;
1128.0000;0.0838;4.2960;
1128.3000;0.0855;4.2911;
1128.6000;0.0871;4.2936;
1128.9000;0.0847;4.2960;
1129.2000;0.0806;4.2984;
1129.5000;0.0855;4.3155;
1129.8000;0.0822;4.3009;
1130.1000;0.0863;4.3130;
1130.4000;0.0855;4.3033;
1130.7000;0.0838;4.2960;
1131.0000;0.0806;4.2789;
1131.3000;0.0871;4.2960;
1131.6000;0.0863;4.2911;
1131.9000;0.0863;4.2911;
1132.2000;0.0847;4.2936;
1132.5000;0.0912;4.3155;
1132.8000;0.0863;4.3106;
1133.1000;0.0879;4.3106;
1133.4000;0.0830;4.3082;
1133.7000;0.0895;4.3228;
1134.0000;0.0855;4.3106;
1134.3000;0.0863;4.3082;
1134.6000;0.0838;4.2984;
1134.9000;0.0871;4.2960;
1135.2000;0.0887;4.3009;
1135.5000;0.0838;4.2862;
1135.8000;0.0871;4.2936;
1136.1000;0.0765;4.2692;
1136.4000;0.0895;4.2960;
1136.7000;0.0871;4.2887;
1137.0000;0.0847;4.2814;
1137.3000;0.0871;4.2936;
1137.6000;0.0879;4.3009;
1137.9000;0.0895;4.3082;
1138.2000;0.0838;4.2887;
1138.5000;0.0863;4.3009;
1138.8000;0.0847;4.3082;
1139.1000;0.0847;4.3130;
1139.4000;0.0863;4.3057;
1139.7000;0.0871;4.2984;
1140.0000;0.0879;4.3130;
1140.3000;0.0863;4.3057;
1140.6000;0.0895;4.3155;
1140.9000;0.0790;4.2862;
1141.2000;0.0863;4.3033;
1141.5000;0.0879;4.3155;
1141.8000;0.0798;4.3033;
1142.1000;0.0830;4.3057;
1142.4000;0.0863;4.3203;
1142.7000;0.0871;4.3203;
1143.0000;0.0879;4.3130;
1143.3000;0.0847;4.3082;
1143.6000;0.0879;4.3106;
1143.9000;0.0847;4.3009;
1144.2000;0.0806;4.2741;
1144.5000;0.0838;4.2789;
1144.8000;0.0855;4.2814;
1145.1000;0.0790;4.2716;
1145.4000;0.0855;4.2887;
1145.7000;0.0871;4.3057;
1146.0000;0.0871;4.3203;
1146.3000;0.0863;4.3179;
1146.6000;0.0887;4.3179;
1146.9000;0.0863;4.3155;
1147.2000;0.0806;4.2936;
1147.5000;0.0830;4.2911;
1147.8000;0.0887;4.2984;
1148.1000;0.0944;4.3179;
1148.4000;0.0871;4.2911;
1148.7000;0.0855;4.2936;
1149.0000;0.0838;4.2960;
1149.3000;0.0863;4.3009;
1149.6000;0.0847;4.2887;
1149.9000;0.0838;4.2862;
1150.2000;0.0879;4.3033;
1150.5000;0.0847;4.3033;
1150.8000;0.0855;4.3009;
1151.1000;0.0871;4.3057;
1151.4000;0.0855;4.3130;
1151.7000;0.0847;4.3033;
1152.0000;0.0863;4.3106;
1152.3000;0.0863;4.3057;
1152.6000;0.0855;4.3106;
1152.9000;0.0871;4.3082;
1153.2000;0.0855;4.3106;
1153.5000;0.0838;4.3106;
1153.8000;0.0871;4.3155;
1154.1000;0.0863;4.3057;
1154.4000;0.0895;4.3130;
1154.7000;0.0871;4.3057;
1155.0000;0.0855;4.3057;
1155.3000;0.0879;4.3130;
1155.6000;0.0863;4.3009;
1155.9000;0.0871;4.2984;
1156.2000;0.0790;4.2765;
1156.5000;0.0879;4.3033;
1156.8000;0.0855;4.2936;
1157.1000;0.0887;4.3057;
1157.4000;0.0863;4.3009;
1157.7000;0.0879;4.3057;
1158.0000;0.0838;4.2960;
1158.3000;0.0855;4.3009;
1158.6000;0.0855;4.3033;
1158.9000;0.0871;4.3082;
1159.2000;0.0912;4.3179;
1159.5000;0.0855;4.2936;
1159.8000;0.0855;4.2838;
1160.1000;0.0724;4.2449;
1160.4000;0.0863;4.2765;
1160.7000;0.0863;4.2741;
1161.0000;0.0863;4.2692;
1161.3000;0.0871;4.2765;
1161.6000;0.0855;4.2765;
1161.9000;0.0879;4.2814;
1162.2000;0.0838;4.2765;
1162.5000;0.0863;4.2838;
1162.8000;0.0871;4.2960;
1163.1000;0.0830;4.2960;
1163.4000;0.0863;4.3057;
1163.7000;0.0871;4.3033;
1164.0000;0.0863;4.3033;
1164.3000;0.0847;4.2936;
1164.6000;0.0871;4.2936;
1164.9000;0.0847;4.2911;
1165.2000;0.0830;4.2862;
1165.5000;0.0863;4.2911;
1165.8000;0.0838;4.3009;
1166.1000;0.0806;4.2887;
1166.4000;0.0855;4.3106;
1166.7000;0.0871;4.3155;
1167.0000;0.0871;4.3082;
1167.3000;0.0920;4.3203;
1167.6000;0.0838;4.3057;
1167.9000;0.0847;4.3009;
1168.2000;0.0847;4.3033;
1168.5000;0.0838;4.2887;
1168.8000;0.0781;4.2765;
1169.1000;0.0871;4.2960;
1169.4000;0.0920;4.3179;
1169.7000;0.0855;4.3009;
1170.0000;0.0871;4.3106;
1170.3000;0.0855;4.3057;
1170.6000;0.0855;4.3130;
1170.9000;0.0871;4.3155;
1171.2000;0.0969;4.3422;
1171.5000;0.0871;4.3033;
1171.8000;0.0879;4.3130;
1172.1000;0.0912;4.3301;
1172.4000;0.0863;4.3130;
1172.7000;0.1009;4.3641;
1173.0000;0.0863;4.3276;
1173.3000;0.0887;4.3252;
1173.6000;0.0887;4.3301;
1173.9000;0.0838;4.3203;
1174.2000;0.0863;4.3155;
1174.5000;0.0871;4.3130;
1174.8000;0.0830;4.3009;
1175.1000;0.0838;4.3033;
1175.4000;0.0879;4.3228;
1175.7000;0.0871;4.3203;
1176.0000;0.0879;4.3276;
1176.3000;0.0830;4.3203;
1176.6000;0.0895;4.3301;
1176.9000;0.0879;4.3106;
1177.2000;0.0855;4.3009;
1177.5000;0.0863;4.3033;
1177.8000;0.0863;4.3009;
1178.1000;0.0863;4.3057;
1178.4000;0.0847;4.3057;
1178.7000;0.0847;4.3082;
1179.0000;0.0855;4.3057;
1179.3000;0.0887;4.3276;
1179.6000;0.0855;4.3301;
1179.9000;0.0847;4.3252;
1180.2000;0.0863;4.3228;
1180.5000;0.0855;4.3179;
1180.8000;0.0838;4.3203;
1181.1000;0.0855;4.3228;
1181.4000;0.0830;4.3106;
1181.7000;0.0871;4.3130;
1182.0000;0.0855;4.3155;
1182.3000;0.0863;4.3203;
1182.6000;0.0895;4.3398;
1182.9000;0.0879;4.3276;
1183.2000;0.0871;4.3301;
1183.5000;0.0838;4.3082;
1183.8000;0.0871;4.3203;
1184.1000;0.0920;4.3398;
1184.4000;0.0830;4.3106;
1184.7000;0.0879;4.3252;
1185.0000;0.0838;4.3179;
1185.3000;0.0830;4.3252;
1185.6000;0.0847;4.3349;
1185.9000;0.0871;4.3398;
1186.2000;0.0871;4.3349;
1186.5000;0.0887;4.3422;
1186.8000;0.0838;4.3276;
1187.1000;0.0895;4.3422;
1187.4000;0.0904;4.3447;
1187.7000;0.0944;4.3471;
1188.0000;0.0847;4.3130;
1188.3000;0.0814;4.3033;
1188.6000;0.0871;4.3082;
1188.9000;0.0855;4.3130;
1189.2000;0.0855;4.3130;
1189.5000;0.0855;4.3155;
1189.8000;0.0855;4.3106;
1190.1000;0.0855;4.3179;
1190.4000;0.0871;4.3203;
1190.7000;0.0724;4.2862;
1191.0000;0.0895;4.3276;
1191.3000;0.0904;4.3349;
1191.6000;0.0847;4.3179;
1191.9000;0.0822;4.3130;
1192.2000;0.0895;4.3301;
1192.5000;0.0879;4.3252;
1192.8000;0.0814;4.3033;
1193.1000;0.0847;4.3106;
1193.4000;0.0871;4.3106;
1193.7000;0.1001;4.3495;
1194.0000;0.0855;4.3033;
1194.3000;0.0847;4.2960;
1194.6000;0.0838;4.3033;
1194.9000;0.0895;4.3082;
1195.2000;0.0863;4.2984;
1195.5000;0.0863;4.3130;
1195.8000;0.0838;4.3106;
1196.1000;0.0879;4.3422;
1196.4000;0.0863;4.3422;
1196.7000;0.0871;4.3374;
1197.0000;0.0879;4.3301;
1197.3000;0.0871;4.3203;
1197.6000;0.0871;4.3179;
1197.9000;0.0887;4.3155;
1198.2000;0.0879;4.3228;
1198.5000;0.0871;4.3179;
1198.8000;0.0871;4.3130;
1199.1000;0.0871;4.3203;
1199.4000;0.0838;4.3276;
1199.7000;0.0855;4.3276;
1200.0000;0.0879;4.3276;
1200.3000;0.0879;4.3252;
1200.6000;0.0904;4.3398;
1200.9000;0.0863;4.3349;
1201.2000;0.0830;4.3228;
1201.5000;0.0871;4.3179;
1201.8000;0.0847;4.3179;
1202.1000;0.0838;4.3106;
1202.4000;0.0879;4.3203;
1202.7000;0.0863;4.3203;
1203.0000;0.0863;4.3179;
1203.3000;0.0863;4.3130;
1203.6000;0.0822;4.3009;
1203.9000;0.0879;4.3252;
1204.2000;0.0838;4.3155;
1204.5000;0.0863;4.3130;
1204.8000;0.0838;4.3106;
1205.1000;0.0871;4.3155;
1205.4000;0.0887;4.3106;
1205.7000;0.0863;4.3082;
1206.0000;0.0830;4.2984;
1206.3000;0.0879;4.3203;
1206.6000;0.0863;4.3082;
1206.9000;0.0838;4.3033;
1207.2000;0.0855;4.3033;
1207.5000;0.0847;4.2960;
1207.8000;0.0863;4.3009;
1208.1000;0.0838;4.2936;
1208.4000;0.0847;4.2862;
1208.7000;0.0871;4.2960;
1209.0000;0.0887;4.3057;
1209.3000;0.0895;4.3033;
1209.6000;0.0847;4.2911;
1209.9000;0.0879;4.3033;
1210.2000;0.0863;4.2984;
1210.5000;0.0920;4.3057;
1210.8000;0.0838;4.2765;
1211.1000;0.0895;4.2911;
1211.4000;0.0928;4.3057;
1211.7000;0.0871;4.2936;
1212.0000;0.0830;4.2911;
1212.3000;0.0790;4.2862;
1212.6000;0.0781;4.2887;
1212.9000;0.0871;4.3179;
1213.2000;0.0871;4.3203;
1213.5000;0.0863;4.3082;
1213.8000;0.0879;4.3082;
1214.1000;0.0879;4.3130;
1214.4000;0.0855;4.3033;
1214.7000;0.0863;4.3057;
1215.0000;0.0912;4.3228;
1215.3000;0.0871;4.3130;
1215.6000;0.0855;4.3106;
1215.9000;0.0904;4.3252;
1216.2000;0.0961;4.3301;
1216.5000;0.0871;4.3155;
1216.8000;0.0749;4.2789;
1217.1000;0.0806;4.3009;
1217.4000;0.0871;4.3130;
1217.7000;0.0887;4.3155;
1218.0000;0.0863;4.3057;
1218.3000;0.0863;4.3082;
1218.6000;0.0871;4.3179;
1218.9000;0.0765;4.2838;
1219.2000;0.0838;4.3057;
1219.5000;0.0871;4.3130;
1219.8000;0.0806;4.2936;
1220.1000;0.0895;4.3106;
1220.4000;0.0871;4.3106;
1220.7000;0.0887;4.3009;
1221.0000;0.0855;4.3033;
1221.3000;0.0879;4.3082;
1221.6000;0.0879;4.3082;
1221.9000;0.0814;4.2960;
1222.2000;0.0855;4.3033;
1222.5000;0.0822;4.3033;
1222.8000;0.0847;4.3033;
1223.1000;0.0855;4.3082;
1223.4000;0.0863;4.3179;
1223.7000;0.0847;4.3130;
1224.0000;0.0855;4.3155;
1224.3000;0.0847;4.3082;
1224.6000;0.0863;4.3130;
1224.9000;0.0863;4.3130;
1225.2000;0.0871;4.3179;
1225.5000;0.0863;4.3106;
1225.8000;0.0830;4.3057;
1226.1000;0.0871;4.3155;
1226.4000;0.0871;4.3106;
1226.7000;0.0879;4.3057;
1227.0000;0.0879;4.3009;
1227.3000;0.0887;4.3057;
1227.6000;0.0904;4.3057;
1227.9000;0.0879;4.2984;
1228.2000;0.0871;4.2960;
1228.5000;0.0855;4.2789;
1228.8000;0.0855;4.2765;
1229.1000;0.0830;4.2692;
1229.4000;0.0879;4.2789;
1229.7000;0.0879;4.2741;
1230.0000;0.0920;4.2887;
1230.3000;0.0879;4.2716;
1230.6000;0.0887;4.2716;
1230.9000;0.0879;4.2619;
1231.2000;0.0863;4.2497;
1231.5000;0.0895;4.2668;
1231.8000;0.0871;4.2668;
1232.1000;0.0798;4.2497;
1232.4000;0.0871;4.2570;
1232.7000;0.0871;4.2595;
1233.0000;0.0847;4.2570;
1233.3000;0.0863;4.2619;
1233.6000;0.0773;4.2473;
1233.9000;0.0985;4.3155;
1234.2000;0.0863;4.2838;
1234.5000;0.0798;4.2741;
1234.8000;0.0904;4.3179;
1235.1000;0.0879;4.3106;
1235.4000;0.0904;4.3130;
1235.7000;0.0863;4.3009;
1236.0000;0.0830;4.2984;
1236.3000;0.0863;4.3228;
1236.6000;0.0895;4.3252;
1236.9000;0.0830;4.3057;
1237.2000;0.0871;4.3130;
1237.5000;0.0863;4.3082;
1237.8000;0.0855;4.3009;
1238.1000;0.0847;4.3009;
1238.4000;0.0855;4.3033;
1238.7000;0.0879;4.3057;
1239.0000;0.0879;4.3033;
1239.3000;0.0879;4.2984;
1239.6000;0.0863;4.2984;
1239.9000;0.0847;4.2984;
1240.2000;0.0871;4.3057;
1240.5000;0.0855;4.3033;
1240.8000;0.0863;4.3082;
1241.1000;0.0871;4.3082;
1241.4000;0.0887;4.2960;
1241.7000;0.0871;4.2984;
1242.0000;0.0895;4.3130;
1242.3000;0.0887;4.3155;
1242.6000;0.0863;4.3130;
1242.9000;0.0904;4.3252;
1243.2000;0.0863;4.3106;
1243.5000;0.0838;4.3033;
1243.8000;0.0855;4.2936;
1244.1000;0.0920;4.3106;
1244.4000;0.0863;4.3009;
1244.7000;0.0904;4.3179;
1245.0000;0.0887;4.3228;
1245.3000;0.0847;4.3082;
1245.6000;0.0863;4.3057;
1245.9000;0.0863;4.3082;
1246.2000;0.0838;4.2911;
1246.5000;0.0847;4.2887;
1246.8000;0.0879;4.3009;
1247.1000;0.0847;4.2984;
1247.4000;0.0847;4.2960;
1247.7000;0.0887;4.3082;
1248.0000;0.0895;4.3203;
1248.3000;0.0895;4.3252;
1248.6000;0.0879;4.3325;
1248.9000;0.0822;4.3228;
1249.2000;0.0855;4.3301;
1249.5000;0.0847;4.3252;
1249.8000;0.0920;4.3471;
1250.1000;0.0830;4.3155;
1250.4000;0.0863;4.3252;
1250.7000;0.0855;4.3155;
1251.0000;0.0855;4.3082;
1251.3000;0.0855;4.3106;
1251.6000;0.0863;4.3130;
1251.9000;0.0855;4.3130;
1252.2000;0.0855;4.3155;
1252.5000;0.0847;4.3130;
1252.8000;0.0887;4.3179;
1253.1000;0.0879;4.3130;
1253.4000;0.0863;4.3155;
1253.7000;0.0879;4.3155;
1254.0000;0.0871;4.3082;
1254.3000;0.0855;4.3033;
1254.6000;0.0879;4.3082;
1254.9000;0.0879;4.3009;
1255.2000;0.0847;4.3009;
1255.5000;0.0863;4.3106;
1255.8000;0.0871;4.3082;
1256.1000;0.0863;4.3106;
1256.4000;0.0838;4.3155;
1256.7000;0.0863;4.3276;
1257.0000;0.0847;4.3228;
1257.3000;0.0887;4.3252;
1257.6000;0.0855;4.3130;
1257.9000;0.0871;4.3203;
1258.2000;0.0855;4.3155;
1258.5000;0.0855;4.3155;
1258.8000;0.0863;4.3082;
1259.1000;0.0855;4.3130;
1259.4000;0.0871;4.3252;
1259.7000;0.0928;4.3325;
1260.0000;0.0863;4.3130;
1260.3000;0.0855;4.3179;
1260.6000;0.0790;4.3009;
1260.9000;0.0855;4.3228;
1261.2000;0.0822;4.3179;
1261.5000;0.0879;4.3301;
1261.8000;0.0847;4.3155;
1262.1000;0.0863;4.3082;
1262.4000;0.0822;4.3106;
1262.7000;0.0855;4.3276;
1263.0000;0.0863;4.3252;
1263.3000;0.0863;4.3228;
1263.6000;0.0895;4.3374;
1263.9000;0.0847;4.3301;
1264.2000;0.0912;4.3495;
1264.5000;0.0855;4.3301;
1264.8000;0.0863;4.3252;
1265.1000;0.0863;4.3228;
1265.4000;0.0871;4.3252;
1265.7000;0.0887;4.3228;
1266.0000;0.0879;4.3228;
1266.3000;0.0879;4.3203;
1266.6000;0.0863;4.3276;
1266.9000;0.0895;4.3349;
1267.2000;0.0863;4.3252;
1267.5000;0.0871;4.3301;
1267.8000;0.0855;4.3301;
1268.1000;0.0863;4.3252;
1268.4000;0.0871;4.3349;
1268.7000;0.0879;4.3325;
1269.0000;0.0855;4.3179;
1269.3000;0.0838;4.3130;
1269.6000;0.0887;4.3228;
1269.9000;0.0830;4.3130;
1270.2000;0.0879;4.3179;
1270.5000;0.0904;4.3325;
1270.8000;0.0871;4.3374;
1271.1000;0.0871;4.3471;
1271.4000;0.0838;4.3228;
1271.7000;0.0871;4.3276;
1272.0000;0.0879;4.3325;
1272.3000;0.0871;4.3301;
1272.6000;0.0724;4.2911;
1272.9000;0.0863;4.3374;
1273.2000;0.0806;4.3228;
1273.5000;0.0798;4.3155;
1273.8000;0.0838;4.3252;
1274.1000;0.0936;4.3422;
1274.4000;0.0855;4.3179;
1274.7000;0.0855;4.3179;
1275.0000;0.0863;4.3252;
1275.3000;0.0871;4.3374;
1275.6000;0.0871;4.3447;
1275.9000;0.0879;4.3301;
1276.2000;0.0944;4.3447;
1276.5000;0.0879;4.3325;
1276.8000;0.0838;4.3276;
1277.1000;0.0895;4.3349;
1277.4000;0.0871;4.3252;
1277.7000;0.0863;4.3252;
1278.0000;0.0871;4.3179;
1278.3000;0.0822;4.3057;
1278.6000;0.0855;4.3276;
1278.9000;0.0863;4.3325;
1279.2000;0.0887;4.3276;
1279.5000;0.0855;4.3155;
1279.8000;0.1009;4.3593;
1280.1000;0.0847;4.3155;
1280.4000;0.0855;4.3228;
1280.7000;0.0822;4.3203;
1281.0000;0.0879;4.3301;
1281.3000;0.0887;4.3325;
1281.6000;0.0863;4.3301;
1281.9000;0.0871;4.3301;
1282.2000;0.0847;4.3203;
1282.5000;0.0879;4.3228;
1282.8000;0.0871;4.3179;
1283.1000;0.0871;4.3228;
1283.4000;0.0887;4.3398;
1283.7000;0.0855;4.3252;
1284.0000;0.0871;4.3301;
1284.3000;0.0863;4.3228;
1284.6000;0.0879;4.3179;
1284.9000;0.0879;4.3106;
1285.2000;0.0855;4.3082;
1285.5000;0.0838;4.3033;
1285.8000;0.0871;4.3155;
1286.1000;0.0863;4.3130;
1286.4000;0.0879;4.3179;
1286.7000;0.0847;4.3179;
1287.0000;0.0814;4.3130;
1287.3000;0.0871;4.3349;
1287.6000;0.0895;4.3471;
1287.9000;0.0773;4.3252;
1288.2000;0.0855;4.3422;
1288.5000;0.0879;4.3422;
1288.8000;0.0863;4.3422;
1289.1000;0.0871;4.3398;
1289.4000;0.0871;4.3325;
1289.7000;0.0830;4.3228;
1290.0000;0.0879;4.3203;
1290.3000;0.0871;4.3106;
1290.6000;0.0863;4.3179;
1290.9000;0.0871;4.3155;
1291.2000;0.0895;4.3301;
1291.5000;0.0830;4.3106;
1291.8000;0.0838;4.3033;
1292.1000;0.0830;4.2984;
1292.4000;0.0855;4.3155;
1292.7000;0.0855;4.3203;
1293.0000;0.0847;4.3106;
1293.3000;0.0855;4.3082;
1293.6000;0.0952;4.3398;
1293.9000;0.0863;4.3057;
1294.2000;0.0895;4.3130;
1294.5000;0.0855;4.3082;
1294.8000;0.0863;4.3106;
1295.1000;0.0879;4.3179;
1295.4000;0.0838;4.3106;
1295.7000;0.0814;4.3057;
1296.0000;0.0871;4.3301;
1296.3000;0.0871;4.3276;
1296.6000;0.0871;4.3228;
1296.9000;0.0847;4.3179;
1297.2000;0.0830;4.3057;
1297.5000;0.0887;4.3179;
1297.8000;0.0871;4.3106;
1298.1000;0.0871;4.3155;
1298.4000;0.0863;4.3252;
1298.7000;0.0847;4.3252;
1299.0000;0.0863;4.3252;
1299.3000;0.0855;4.3276;
1299.6000;0.0855;4.3203;
1299.9000;0.0855;4.3155;
1300.2000;0.0847;4.3155;
1300.5000;0.0847;4.3155;
1300.8000;0.0838;4.3130;
1301.1000;0.0855;4.3228;
1301.4000;0.0749;4.2911;
1301.7000;0.0863;4.3203;
1302.0000;0.0912;4.3325;
1302.3000;0.0879;4.3276;
1302.6000;0.0838;4.3276;
1302.9000;0.0855;4.3325;
1303.2000;0.0855;4.3349;
1303.5000;0.0830;4.3252;
1303.8000;0.0904;4.3447;
1304.1000;0.0871;4.3447;
1304.4000;0.0863;4.3374;
1304.7000;0.0871;4.3422;
1305.0000;0.0863;4.3252;
1305.3000;0.0855;4.3228;
1305.6000;0.0879;4.3276;
1305.9000;0.0855;4.3301;
1306.2000;0.0879;4.3301;
1306.5000;0.0887;4.3276;
1306.8000;0.0863;4.3155;
1307.1000;0.0855;4.3130;
1307.4000;0.0863;4.3155;
1307.7000;0.0863;4.3106;
1308.0000;0.0879;4.3179;
1308.3000;0.0863;4.3130;
1308.6000;0.0847;4.3130;
1308.9000;0.0830;4.3082;
1309.2000;0.0879;4.3252;
1309.5000;0.0871;4.3228;
1309.8000;0.0847;4.3179;
1310.1000;0.0952;4.3520;
1310.4000;0.0871;4.3276;
1310.7000;0.0912;4.3349;
1311.0000;0.0879;4.3325;
1311.3000;0.0847;4.3228;
1311.6000;0.0871;4.3349;
1311.9000;0.0724;4.2911;
1312.2000;0.0855;4.3276;
1312.5000;0.0871;4.3276;
1312.8000;0.0863;4.3228;
1313.1000;0.0895;4.3301;
1313.4000;0.0830;4.3179;
1313.7000;0.0863;4.3228;
1314.0000;0.0855;4.3179;
1314.3000;0.0871;4.3203;
1314.6000;0.0871;4.3082;
1314.9000;0.0895;4.3009;
1315.2000;0.0838;4.2960;
1315.5000;0.0895;4.3155;
1315.8000;0.0863;4.3130;
1316.1000;0.0855;4.3130;
1316.4000;0.0855;4.3179;
1316.7000;0.0887;4.3301;
1317.0000;0.0855;4.3106;
1317.3000;0.0855;4.3130;
1317.6000;0.0798;4.2960;
1317.9000;0.0855;4.3106;
1318.2000;0.0928;4.3301;
1318.5000;0.0838;4.3033;
1318.8000;0.0855;4.3082;
1319.1000;0.0855;4.3155;
1319.4000;0.0855;4.3252;
1319.7000;0.0912;4.3398;
1320.0000;0.0806;4.3155;
1320.3000;0.0871;4.3398;
1320.6000;0.0863;4.3349;
1320.9000;0.0863;4.3228;
1321.2000;0.0871;4.3349;
1321.5000;0.0928;4.3544;
1321.8000;0.0871;4.3398;
1322.1000;0.0863;4.3349;
1322.4000;0.0879;4.3349;
1322.7000;0.0822;4.3203;
1323.0000;0.0790;4.3155;
1323.3000;0.0847;4.3447;
1323.6000;0.0855;4.3422;
1323.9000;0.0855;4.3301;
1324.2000;0.0847;4.3301;
1324.5000;0.0847;4.3276;
1324.8000;0.0863;4.3349;
1325.1000;0.0855;4.3325;
1325.4000;0.0855;4.3325;
1325.7000;0.0895;4.3447;
1326.0000;0.0855;4.3398;
1326.3000;0.0871;4.3398;
1326.6000;0.0871;4.3398;
1326.9000;0.0879;4.3325;
1327.2000;0.0855;4.3349;
1327.5000;0.0855;4.3422;
1327.8000;0.0855;4.3447;
1328.1000;0.0887;4.3447;
1328.4000;0.0855;4.3398;
1328.7000;0.0863;4.3398;
1329.0000;0.0830;4.3203;
1329.3000;0.0879;4.3252;
1329.6000;0.0879;4.3203;
1329.9000;0.0887;4.3325;
1330.2000;0.0912;4.3325;
1330.5000;0.0847;4.3179;
1330.8000;0.0871;4.3228;
1331.1000;0.0863;4.3203;
1331.4000;0.0765;4.2862;
1331.7000;0.0920;4.3228;
1332.0000;0.0863;4.3155;
1332.3000;0.0806;4.3009;
1332.6000;0.0871;4.3203;
1332.9000;0.0838;4.3130;
1333.2000;0.0936;4.3325;
1333.5000;0.0871;4.3179;
1333.8000;0.0741;4.2789;
1334.1000;0.0838;4.3106;
1334.4000;0.0904;4.3349;
1334.7000;0.0863;4.3106;
1335.0000;0.0863;4.3082;
1335.3000;0.0871;4.3179;
1335.6000;0.0863;4.3203;
1335.9000;0.0871;4.3179;
1336.2000;0.0847;4.3155;
1336.5000;0.0855;4.3179;
1336.8000;0.0879;4.3228;
1337.1000;0.0863;4.3203;
1337.4000;0.0879;4.3130;
1337.7000;0.0912;4.3155;
1338.0000;0.0895;4.3106;
1338.3000;0.0871;4.3057;
1338.6000;0.0863;4.3106;
1338.9000;0.0863;4.2960;
1339.2000;0.0847;4.2887;
1339.5000;0.0855;4.2936;
1339.8000;0.0871;4.2911;
1340.1000;0.0830;4.2789;
1340.4000;0.0871;4.2984;
1340.7000;0.0830;4.2936;
1341.0000;0.0814;4.2960;
1341.3000;0.0879;4.3057;
1341.6000;0.0830;4.2911;
1341.9000;0.0887;4.2960;
1342.2000;0.0830;4.2936;
1342.5000;0.0871;4.3082;
1342.8000;0.0887;4.3276;
1343.1000;0.0871;4.3374;
1343.4000;0.0855;4.3276;
1343.7000;0.0855;4.3130;
1344.0000;0.0863;4.3228;
1344.3000;0.0847;4.3106;
1344.6000;0.0879;4.3276;
1344.9000;0.0855;4.3276;
1345.2000;0.0871;4.3325;
1345.5000;0.0863;4.3301;
1345.8000;0.0863;4.3203;
1346.1000;0.0830;4.3057;
1346.4000;0.0863;4.3179;
1346.7000;0.0879;4.3228;
1347.0000;0.0871;4.3203;
1347.3000;0.0879;4.3228;
1347.6000;0.0863;4.3155;
1347.9000;0.0830;4.3106;
1348.2000;0.0863;4.3203;
1348.5000;0.0847;4.3276;
1348.8000;0.0838;4.3252;
1349.1000;0.0895;4.3374;
1349.4000;0.0741;4.2911;
1349.7000;0.0871;4.3203;
1350.0000;0.0871;4.3179;
1350.3000;0.0855;4.3179;
1350.6000;0.0863;4.3228;
1350.9000;0.0871;4.3252;
1351.2000;0.0879;4.3325;
1351.5000;0.0855;4.3203;
1351.8000;0.0879;4.3301;
1352.1000;0.0863;4.3349;
1352.4000;0.0863;4.3325;
1352.7000;0.0871;4.3276;
1353.0000;0.0830;4.3106;
1353.3000;0.0830;4.3106;
1353.6000;0.0863;4.3155;
1353.9000;0.0855;4.3106;
1354.2000;0.0871;4.3082;
1354.5000;0.0863;4.3009;
1354.8000;0.0847;4.2984;
1355.1000;0.0912;4.3155;
1355.4000;0.0863;4.3057;
1355.7000;0.0887;4.3130;
1356.0000;0.0871;4.3252;
1356.3000;0.0830;4.3082;
1356.6000;0.0887;4.3228;
1356.9000;0.0887;4.3179;
1357.2000;0.0855;4.3130;
1357.5000;0.0879;4.3228;
1357.8000;0.0847;4.3155;
1358.1000;0.0847;4.3106;
1358.4000;0.0838;4.3106;
1358.7000;0.0863;4.3130;
1359.0000;0.0871;4.3203;
1359.3000;0.0838;4.3179;
1359.6000;0.0879;4.3301;
1359.9000;0.0855;4.3252;
1360.2000;0.0855;4.3179;
1360.5000;0.0855;4.3179;
1360.8000;0.0838;4.3179;
1361.1000;0.0928;4.3471;
1361.4000;0.0879;4.3398;
1361.7000;0.0863;4.3398;
1362.0000;0.0879;4.3447;
1362.3000;0.0871;4.3398;
1362.6000;0.0895;4.3422;
1362.9000;0.0790;4.3106;
1363.2000;0.0871;4.3301;
1363.5000;0.0863;4.3228;
1363.8000;0.0863;4.3228;
1364.1000;0.0822;4.3106;
1364.4000;0.0871;4.3252;
1364.7000;0.0887;4.3349;
1365.0000;0.0830;4.3203;
1365.3000;0.0895;4.3276;
1365.6000;0.0871;4.3130;
1365.9000;0.0904;4.3228;
1366.2000;0.0781;4.2862;
1366.5000;0.0871;4.3155;
1366.8000;0.0895;4.3155;
1367.1000;0.0863;4.3082;
1367.4000;0.0879;4.3155;
1367.7000;0.0879;4.3203;
1368.0000;0.0879;4.3130;
1368.3000;0.0879;4.3082;
1368.6000;0.0879;4.3130;
1368.9000;0.0863;4.3252;
1369.2000;0.0830;4.3179;
1369.5000;0.0928;4.3325;
1369.8000;0.0806;4.2984;
1370.1000;0.0912;4.3276;
1370.4000;0.0781;4.2911;
1370.7000;0.0847;4.3106;
1371.0000;0.0871;4.3203;
1371.3000;0.0773;4.3033;
1371.6000;0.0863;4.3130;
1371.9000;0.0838;4.3082;
1372.2000;0.0757;4.2765;
1372.5000;0.0863;4.3009;
1372.8000;0.0863;4.2960;
1373.1000;0.0863;4.2984;
1373.4000;0.0838;4.2838;
1373.7000;0.0822;4.2814;
1374.0000;0.0863;4.2936;
1374.3000;0.0855;4.2960;
1374.6000;0.0847;4.2838;
1374.9000;0.0863;4.2814;
1375.2000;0.0895;4.2814;
1375.5000;0.0863;4.2741;
1375.8000;0.0863;4.2765;
1376.1000;0.0871;4.2789;
1376.4000;0.0847;4.2765;
1376.7000;0.0863;4.2692;
1377.0000;0.0920;4.2789;
1377.3000;0.0887;4.2668;
1377.6000;0.0863;4.2619;
1377.9000;0.0879;4.2643;
1378.2000;0.0912;4.2789;
1378.5000;0.0855;4.2643;
1378.8000;0.0871;4.2692;
1379.1000;0.0830;4.2643;
1379.4000;0.0863;4.2789;
1379.7000;0.0838;4.2692;
1380.0000;0.0863;4.2765;
1380.3000;0.0855;4.2741;
1380.6000;0.0855;4.2765;
1380.9000;0.0855;4.2862;
1381.2000;0.0928;4.3082;
1381.5000;0.0871;4.2960;
1381.8000;0.0806;4.2838;
1382.1000;0.0863;4.2936;
1382.4000;0.0855;4.2960;
1382.7000;0.0855;4.3009;
1383.0000;0.0863;4.3057;
1383.3000;0.0871;4.3057;
1383.6000;0.0855;4.3130;
1383.9000;0.0790;4.2911;
1384.2000;0.0863;4.3155;
1384.5000;0.0847;4.3203;
1384.8000;0.0871;4.3252;
1385.1000;0.0863;4.3106;
1385.4000;0.0863;4.3082;
1385.7000;0.0863;4.3057;
1386.0000;0.0855;4.3155;
1386.3000;0.0879;4.3203;
1386.6000;0.0871;4.3228;
1386.9000;0.1001;4.3617;
1387.2000;0.0863;4.3203;
1387.5000;0.0871;4.3179;
1387.8000;0.0871;4.3203;
1388.1000;0.0855;4.3130;
1388.4000;0.0863;4.3130;
1388.7000;0.0863;4.3106;
1389.0000;0.0936;4.3301;
1389.3000;0.0871;4.3130;
1389.6000;0.0838;4.2960;
1389.9000;0.0773;4.2692;
1390.2000;0.0871;4.2984;
1390.5000;0.0863;4.2911;
1390.8000;0.0961;4.3252;
1391.1000;0.0781;4.2887;
1391.4000;0.0863;4.3106;
1391.7000;0.0830;4.3033;
1392.0000;0.0798;4.3082;
1392.3000;0.0863;4.3252;
1392.6000;0.0879;4.3325;
1392.9000;0.0855;4.3349;
1393.2000;0.0855;4.3374;
1393.5000;0.0887;4.3422;
1393.8000;0.0887;4.3374;
1394.1000;0.0863;4.3325;
1394.4000;0.0871;4.3276;
1394.7000;0.0855;4.3203;
1395.0000;0.0741;4.2887;
1395.3000;0.0847;4.3252;
1395.6000;0.0879;4.3301;
1395.9000;0.0879;4.3325;
1396.2000;0.0871;4.3301;
1396.5000;0.0863;4.3276;
1396.8000;0.0871;4.3252;
1397.1000;0.0879;4.3179;
1397.4000;0.0928;4.3325;
1397.7000;0.0879;4.3179;
1398.0000;0.0838;4.3155;
1398.3000;0.0855;4.3203;
1398.6000;0.0806;4.2960;
1398.9000;0.0895;4.3155;
1399.2000;0.0977;4.3374;
1399.5000;0.0879;4.3082;
1399.8000;0.0871;4.3033;
