time/ms;Fluo/V;P700 deltaI/I x10³;
-199.8000;0.8799;1.2276;
-199.5000;0.8783;1.2250;
-199.2000;0.8799;1.2276;
-198.9000;0.8799;1.2326;
-198.6000;0.8816;1.2250;
-198.3000;0.8816;1.2124;
-198.0000;0.8799;1.2047;
-197.7000;0.8807;1.2098;
-197.4000;0.8816;1.2047;
-197.1000;0.8824;1.2022;
-196.8000;0.8799;1.2073;
-196.5000;0.8791;1.2124;
-196.2000;0.8832;1.2098;
-195.9000;0.8816;1.2047;
-195.6000;0.8816;1.2073;
-195.3000;0.8726;1.1895;
-195.0000;0.8807;1.2174;
-194.7000;0.8807;1.2200;
-194.4000;0.8864;1.2276;
-194.1000;0.8734;1.1971;
-193.8000;0.8799;1.2124;
-193.5000;0.8832;1.2225;
-193.2000;0.8791;1.2124;
-192.9000;0.8816;1.2225;
-192.6000;0.8824;1.2250;
-192.3000;0.8832;1.2200;
-192.0000;0.8816;1.2174;
-191.7000;0.8840;1.2174;
-191.4000;0.8807;1.2250;
-191.1000;0.8807;1.2250;
-190.8000;0.8816;1.2377;
-190.5000;0.8767;1.2377;
-190.2000;0.8799;1.2326;
-189.9000;0.8816;1.2326;
-189.6000;0.8905;1.2605;
-189.3000;0.8783;1.2352;
-189.0000;0.8799;1.2352;
-188.7000;0.8807;1.2377;
-188.4000;0.8824;1.2403;
-188.1000;0.8824;1.2403;
-187.8000;0.8791;1.2326;
-187.5000;0.8799;1.2352;
-187.2000;0.8816;1.2377;
-186.9000;0.8791;1.2428;
-186.6000;0.8824;1.2555;
-186.3000;0.8816;1.2453;
-186.0000;0.8816;1.2403;
-185.7000;0.8807;1.2377;
-185.4000;0.8775;1.2301;
-185.1000;0.8799;1.2352;
-184.8000;0.8767;1.2200;
-184.5000;0.8840;1.2301;
-184.2000;0.8816;1.2250;
-183.9000;0.8807;1.2073;
-183.6000;0.8816;1.2047;
-183.3000;0.8816;1.2047;
-183.0000;0.8775;1.1946;
-182.7000;0.8807;1.2073;
-182.4000;0.8783;1.2073;
-182.1000;0.8799;1.2149;
-181.8000;0.8799;1.2047;
-181.5000;0.8816;1.2149;
-181.2000;0.8832;1.2200;
-180.9000;0.8807;1.2124;
-180.6000;0.8913;1.2403;
-180.3000;0.8816;1.2250;
-180.0000;0.8807;1.2250;
-179.7000;0.8751;1.2098;
-179.4000;0.8783;1.2174;
-179.1000;0.8807;1.2250;
-178.8000;0.8807;1.2174;
-178.5000;0.8783;1.2098;
-178.2000;0.8807;1.2174;
-177.9000;0.8816;1.2124;
-177.6000;0.8807;1.2200;
-177.3000;0.8807;1.2200;
-177.0000;0.8864;1.2377;
-176.7000;0.8799;1.2200;
-176.4000;0.8799;1.2250;
-176.1000;0.8816;1.2276;
-175.8000;0.8807;1.2276;
-175.5000;0.8799;1.2301;
-175.2000;0.8791;1.2326;
-174.9000;0.8799;1.2250;
-174.6000;0.8791;1.2326;
-174.3000;0.8799;1.2276;
-174.0000;0.8816;1.2225;
-173.7000;0.8791;1.2124;
-173.4000;0.8799;1.2149;
-173.1000;0.8775;1.2149;
-172.8000;0.8807;1.2301;
-172.5000;0.8759;1.2124;
-172.2000;0.8791;1.2174;
-171.9000;0.8816;1.2301;
-171.6000;0.8799;1.2326;
-171.3000;0.8856;1.2479;
-171.0000;0.8807;1.2250;
-170.7000;0.8799;1.2250;
-170.4000;0.8840;1.2352;
-170.1000;0.8807;1.2200;
-169.8000;0.8799;1.2174;
-169.5000;0.8816;1.2124;
-169.2000;0.8807;1.2174;
-168.9000;0.8775;1.2200;
-168.6000;0.8799;1.2200;
-168.3000;0.8807;1.2174;
-168.0000;0.8783;1.2073;
-167.7000;0.8799;1.2022;
-167.4000;0.8799;1.2098;
-167.1000;0.8791;1.2200;
-166.8000;0.8775;1.2149;
-166.5000;0.8832;1.2301;
-166.2000;0.8783;1.2174;
-165.9000;0.8816;1.2200;
-165.6000;0.8791;1.2149;
-165.3000;0.8775;1.2149;
-165.0000;0.8807;1.2326;
-164.7000;0.8791;1.2276;
-164.4000;0.8799;1.2200;
-164.1000;0.8824;1.2225;
-163.8000;0.8824;1.2124;
-163.5000;0.8807;1.2073;
-163.2000;0.8751;1.1997;
-162.9000;0.8807;1.2250;
-162.6000;0.8799;1.2250;
-162.3000;0.8807;1.2276;
-162.0000;0.8807;1.2225;
-161.7000;0.8824;1.2200;
-161.4000;0.8832;1.2225;
-161.1000;0.8807;1.2174;
-160.8000;0.8807;1.2225;
-160.5000;0.8807;1.2250;
-160.2000;0.8799;1.2250;
-159.9000;0.8775;1.2250;
-159.6000;0.8751;1.2225;
-159.3000;0.8799;1.2276;
-159.0000;0.8807;1.2200;
-158.7000;0.8873;1.2403;
-158.4000;0.8799;1.2250;
-158.1000;0.8791;1.2200;
-157.8000;0.8807;1.2276;
-157.5000;0.8807;1.2301;
-157.2000;0.8816;1.2326;
-156.9000;0.8807;1.2301;
-156.6000;0.8791;1.2250;
-156.3000;0.8759;1.2200;
-156.0000;0.8783;1.2326;
-155.7000;0.8807;1.2377;
-155.4000;0.8824;1.2377;
-155.1000;0.8824;1.2453;
-154.8000;0.8783;1.2352;
-154.5000;0.8816;1.2504;
-154.2000;0.8807;1.2529;
-153.9000;0.8807;1.2580;
-153.6000;0.8816;1.2682;
-153.3000;0.8807;1.2682;
-153.0000;0.8897;1.2910;
-152.7000;0.8824;1.2783;
-152.4000;0.8824;1.2758;
-152.1000;0.8816;1.2682;
-151.8000;0.8816;1.2555;
-151.5000;0.8824;1.2428;
-151.2000;0.8799;1.2428;
-150.9000;0.8807;1.2403;
-150.6000;0.8824;1.2453;
-150.3000;0.8799;1.2403;
-150.0000;0.8807;1.2377;
-149.7000;0.8799;1.2301;
-149.4000;0.8816;1.2326;
-149.1000;0.8791;1.2276;
-148.8000;0.8816;1.2352;
-148.5000;0.8816;1.2276;
-148.2000;0.8807;1.2225;
-147.9000;0.8832;1.2250;
-147.6000;0.8824;1.2326;
-147.3000;0.8799;1.2326;
-147.0000;0.8856;1.2428;
-146.7000;0.8807;1.2377;
-146.4000;0.8816;1.2352;
-146.1000;0.8832;1.2326;
-145.8000;0.8832;1.2276;
-145.5000;0.8791;1.2174;
-145.2000;0.8848;1.2276;
-144.9000;0.8848;1.2326;
-144.6000;0.8816;1.2276;
-144.3000;0.8799;1.2200;
-144.0000;0.8807;1.2301;
-143.7000;0.8816;1.2250;
-143.4000;0.8783;1.2174;
-143.1000;0.8807;1.2276;
-142.8000;0.8807;1.2301;
-142.5000;0.8807;1.2326;
-142.2000;0.8816;1.2326;
-141.9000;0.8807;1.2301;
-141.6000;0.8816;1.2326;
-141.3000;0.8824;1.2352;
-141.0000;0.8848;1.2479;
-140.7000;0.8816;1.2428;
-140.4000;0.8807;1.2453;
-140.1000;0.8807;1.2504;
-139.8000;0.8889;1.2580;
-139.5000;0.8807;1.2326;
-139.2000;0.8816;1.2428;
-138.9000;0.8816;1.2403;
-138.6000;0.8816;1.2428;
-138.3000;0.8816;1.2479;
-138.0000;0.8824;1.2504;
-137.7000;0.8816;1.2453;
-137.4000;0.8816;1.2403;
-137.1000;0.8816;1.2377;
-136.8000;0.8816;1.2326;
-136.5000;0.8824;1.2326;
-136.2000;0.8856;1.2504;
-135.9000;0.8824;1.2403;
-135.6000;0.8799;1.2453;
-135.3000;0.8816;1.2479;
-135.0000;0.8816;1.2403;
-134.7000;0.8799;1.2403;
-134.4000;0.8807;1.2428;
-134.1000;0.8807;1.2453;
-133.8000;0.8816;1.2529;
-133.5000;0.8807;1.2428;
-133.2000;0.8816;1.2428;
-132.9000;0.8816;1.2529;
-132.6000;0.8807;1.2479;
-132.3000;0.8824;1.2453;
-132.0000;0.8816;1.2403;
-131.7000;0.8816;1.2479;
-131.4000;0.8824;1.2403;
-131.1000;0.8791;1.2377;
-130.8000;0.8799;1.2352;
-130.5000;0.8799;1.2301;
-130.2000;0.8799;1.2250;
-129.9000;0.8791;1.2200;
-129.6000;0.8799;1.2149;
-129.3000;0.8783;1.2149;
-129.0000;0.8791;1.2225;
-128.7000;0.8799;1.2326;
-128.4000;0.8791;1.2250;
-128.1000;0.8807;1.2326;
-127.8000;0.8807;1.2250;
-127.5000;0.8799;1.2250;
-127.2000;0.8807;1.2276;
-126.9000;0.8799;1.2301;
-126.6000;0.8816;1.2352;
-126.3000;0.8832;1.2352;
-126.0000;0.8807;1.2200;
-125.7000;0.8816;1.2301;
-125.4000;0.8807;1.2200;
-125.1000;0.8807;1.2301;
-124.8000;0.8807;1.2250;
-124.5000;0.8791;1.2200;
-124.2000;0.8816;1.2250;
-123.9000;0.8807;1.2352;
-123.6000;0.8816;1.2326;
-123.3000;0.8816;1.2250;
-123.0000;0.8791;1.2301;
-122.7000;0.8799;1.2276;
-122.4000;0.8816;1.2326;
-122.1000;0.8799;1.2301;
-121.8000;0.8816;1.2276;
-121.5000;0.8816;1.2301;
-121.2000;0.8816;1.2250;
-120.9000;0.8807;1.2276;
-120.6000;0.8799;1.2225;
-120.3000;0.8807;1.2174;
-120.0000;0.8799;1.2250;
-119.7000;0.8799;1.2326;
-119.4000;0.8775;1.2250;
-119.1000;0.8824;1.2377;
-118.8000;0.8824;1.2301;
-118.5000;0.8816;1.2352;
-118.2000;0.8799;1.2301;
-117.9000;0.8767;1.2276;
-117.6000;0.8816;1.2403;
-117.3000;0.8816;1.2453;
-117.0000;0.8799;1.2428;
-116.7000;0.8799;1.2352;
-116.4000;0.8807;1.2352;
-116.1000;0.8840;1.2428;
-115.8000;0.8816;1.2352;
-115.5000;0.8856;1.2403;
-115.2000;0.8807;1.2250;
-114.9000;0.8824;1.2301;
-114.6000;0.8807;1.2200;
-114.3000;0.8799;1.2149;
-114.0000;0.8783;1.2377;
-113.7000;0.8807;1.2377;
-113.4000;0.8807;1.2428;
-113.1000;0.8807;1.2403;
-112.8000;0.8799;1.2276;
-112.5000;0.8807;1.2352;
-112.2000;0.8816;1.2403;
-111.9000;0.8807;1.2428;
-111.6000;0.8816;1.2326;
-111.3000;0.8816;1.2326;
-111.0000;0.8799;1.2250;
-110.7000;0.8807;1.2276;
-110.4000;0.8791;1.2352;
-110.1000;0.8783;1.2326;
-109.8000;0.8816;1.2403;
-109.5000;0.8791;1.2301;
-109.2000;0.8807;1.2301;
-108.9000;0.8799;1.2276;
-108.6000;0.8816;1.2276;
-108.3000;0.8807;1.2276;
-108.0000;0.8791;1.2352;
-107.7000;0.8799;1.2403;
-107.4000;0.8807;1.2479;
-107.1000;0.8791;1.2529;
-106.8000;0.8799;1.2580;
-106.5000;0.8783;1.2504;
-106.2000;0.8807;1.2580;
-105.9000;0.8799;1.2529;
-105.6000;0.8799;1.2529;
-105.3000;0.8799;1.2504;
-105.0000;0.8816;1.2504;
-104.7000;0.8816;1.2504;
-104.4000;0.8889;1.2707;
-104.1000;0.8799;1.2555;
-103.8000;0.8759;1.2453;
-103.5000;0.8799;1.2504;
-103.2000;0.8807;1.2428;
-102.9000;0.8807;1.2403;
-102.6000;0.8783;1.2276;
-102.3000;0.8807;1.2276;
-102.0000;0.8816;1.2352;
-101.7000;0.8669;1.2098;
-101.4000;0.8726;1.2149;
-101.1000;0.8816;1.2428;
-100.8000;0.8816;1.2403;
-100.5000;0.8824;1.2453;
-100.2000;0.8816;1.2377;
-99.9000;0.8799;1.2352;
-99.6000;0.8791;1.2352;
-99.3000;0.8816;1.2377;
-99.0000;0.8783;1.2326;
-98.7000;0.8816;1.2403;
-98.4000;0.8807;1.2326;
-98.1000;0.8799;1.2326;
-97.8000;0.8791;1.2377;
-97.5000;0.8799;1.2428;
-97.2000;0.8807;1.2428;
-96.9000;0.8816;1.2504;
-96.6000;0.8848;1.2529;
-96.3000;0.8807;1.2529;
-96.0000;0.8807;1.2555;
-95.7000;0.8832;1.2479;
-95.4000;0.8824;1.2453;
-95.1000;0.8840;1.2428;
-94.8000;0.8791;1.2352;
-94.5000;0.8824;1.2504;
-94.2000;0.8791;1.2504;
-93.9000;0.8832;1.2656;
-93.6000;0.8783;1.2453;
-93.3000;0.8799;1.2504;
-93.0000;0.8807;1.2479;
-92.7000;0.8799;1.2428;
-92.4000;0.8816;1.2403;
-92.1000;0.8791;1.2276;
-91.8000;0.8710;1.2047;
-91.5000;0.8799;1.2326;
-91.2000;0.8807;1.2377;
-90.9000;0.8767;1.2276;
-90.6000;0.8767;1.2301;
-90.3000;0.8791;1.2352;
-90.0000;0.8791;1.2326;
-89.7000;0.8864;1.2504;
-89.4000;0.8775;1.2301;
-89.1000;0.8816;1.2453;
-88.8000;0.8799;1.2428;
-88.5000;0.8791;1.2352;
-88.2000;0.8807;1.2403;
-87.9000;0.8824;1.2428;
-87.6000;0.8791;1.2326;
-87.3000;0.8824;1.2428;
-87.0000;0.8816;1.2555;
-86.7000;0.8807;1.2529;
-86.4000;0.8913;1.2682;
-86.1000;0.8799;1.2428;
-85.8000;0.8824;1.2529;
-85.5000;0.8832;1.2555;
-85.2000;0.8783;1.2403;
-84.9000;0.8799;1.2453;
-84.6000;0.8791;1.2453;
-84.3000;0.8799;1.2529;
-84.0000;0.8807;1.2529;
-83.7000;0.8807;1.2529;
-83.4000;0.8807;1.2555;
-83.1000;0.8816;1.2605;
-82.8000;0.8799;1.2580;
-82.5000;0.8807;1.2529;
-82.2000;0.8807;1.2453;
-81.9000;0.8816;1.2403;
-81.6000;0.8791;1.2326;
-81.3000;0.8799;1.2403;
-81.0000;0.8807;1.2326;
-80.7000;0.8824;1.2250;
-80.4000;0.8816;1.2250;
-80.1000;0.8807;1.2200;
-79.8000;0.8799;1.2225;
-79.5000;0.8824;1.2403;
-79.2000;0.8783;1.2225;
-78.9000;0.8807;1.2326;
-78.6000;0.8816;1.2403;
-78.3000;0.8799;1.2352;
-78.0000;0.8816;1.2428;
-77.7000;0.8791;1.2453;
-77.4000;0.8816;1.2580;
-77.1000;0.8799;1.2529;
-76.8000;0.8807;1.2479;
-76.5000;0.8807;1.2555;
-76.2000;0.8807;1.2631;
-75.9000;0.8751;1.2377;
-75.6000;0.8816;1.2555;
-75.3000;0.8807;1.2529;
-75.0000;0.8807;1.2555;
-74.7000;0.8783;1.2555;
-74.4000;0.8807;1.2605;
-74.1000;0.8799;1.2656;
-73.8000;0.8685;1.2428;
-73.5000;0.8856;1.2808;
-73.2000;0.8840;1.2758;
-72.9000;0.8832;1.2783;
-72.6000;0.8799;1.2707;
-72.3000;0.8783;1.2656;
-72.0000;0.8824;1.2808;
-71.7000;0.8799;1.2732;
-71.4000;0.8832;1.2758;
-71.1000;0.8848;1.2783;
-70.8000;0.8824;1.2656;
-70.5000;0.8775;1.2529;
-70.2000;0.8799;1.2555;
-69.9000;0.8816;1.2580;
-69.6000;0.8799;1.2504;
-69.3000;0.8807;1.2453;
-69.0000;0.8816;1.2529;
-68.7000;0.8799;1.2555;
-68.4000;0.8799;1.2479;
-68.1000;0.8824;1.2504;
-67.8000;0.8775;1.2377;
-67.5000;0.8824;1.2529;
-67.2000;0.8807;1.2428;
-66.9000;0.8791;1.2479;
-66.6000;0.8840;1.2631;
-66.3000;0.8824;1.2580;
-66.0000;0.8816;1.2580;
-65.7000;0.8824;1.2580;
-65.4000;0.8824;1.2580;
-65.1000;0.8799;1.2555;
-64.8000;0.8799;1.2580;
-64.5000;0.8767;1.2580;
-64.2000;0.8799;1.2631;
-63.9000;0.8799;1.2656;
-63.6000;0.8791;1.2605;
-63.3000;0.8710;1.2377;
-63.0000;0.8873;1.2758;
-62.7000;0.8816;1.2682;
-62.4000;0.8783;1.2580;
-62.1000;0.8791;1.2631;
-61.8000;0.8816;1.2631;
-61.5000;0.8807;1.2529;
-61.2000;0.8824;1.2555;
-60.9000;0.8799;1.2428;
-60.6000;0.8791;1.2403;
-60.3000;0.8791;1.2529;
-60.0000;0.8807;1.2453;
-59.7000;0.8791;1.2352;
-59.4000;0.8799;1.2326;
-59.1000;0.8807;1.2326;
-58.8000;0.8816;1.2352;
-58.5000;0.8783;1.2504;
-58.2000;0.8807;1.2529;
-57.9000;0.8816;1.2555;
-57.6000;0.8783;1.2504;
-57.3000;0.8783;1.2428;
-57.0000;0.8913;1.2758;
-56.7000;0.8807;1.2479;
-56.4000;0.8816;1.2555;
-56.1000;0.8807;1.2428;
-55.8000;0.8807;1.2453;
-55.5000;0.8783;1.2555;
-55.2000;0.8816;1.2605;
-54.9000;0.8677;1.2225;
-54.6000;0.8824;1.2529;
-54.3000;0.8824;1.2580;
-54.0000;0.8832;1.2529;
-53.7000;0.8807;1.2479;
-53.4000;0.8807;1.2377;
-53.1000;0.8791;1.2352;
-52.8000;0.8832;1.2479;
-52.5000;0.8791;1.2428;
-52.2000;0.8824;1.2453;
-51.9000;0.8734;1.2250;
-51.6000;0.8807;1.2403;
-51.3000;0.8816;1.2453;
-51.0000;0.8799;1.2428;
-50.7000;0.8816;1.2377;
-50.4000;0.8881;1.2555;
-50.1000;0.8816;1.2403;
-49.8000;0.8759;1.2250;
-49.5000;0.8807;1.2326;
-49.2000;0.8832;1.2326;
-48.9000;0.8807;1.2326;
-48.6000;0.8807;1.2250;
-48.3000;0.8759;1.2276;
-48.0000;0.8799;1.2428;
-47.7000;0.8807;1.2504;
-47.4000;0.8775;1.2352;
-47.1000;0.8799;1.2403;
-46.8000;0.8840;1.2479;
-46.5000;0.8824;1.2377;
-46.2000;0.8816;1.2403;
-45.9000;0.8799;1.2428;
-45.6000;0.8807;1.2377;
-45.3000;0.8791;1.2301;
-45.0000;0.8824;1.2453;
-44.7000;0.8824;1.2453;
-44.4000;0.8824;1.2453;
-44.1000;0.8799;1.2352;
-43.8000;0.8783;1.2403;
-43.5000;0.8824;1.2453;
-43.2000;0.8807;1.2352;
-42.9000;0.8799;1.2276;
-42.6000;0.8751;1.2124;
-42.3000;0.8824;1.2250;
-42.0000;0.8840;1.2352;
-41.7000;0.8783;1.2250;
-41.4000;0.8799;1.2301;
-41.1000;0.8824;1.2352;
-40.8000;0.8791;1.2276;
-40.5000;0.8799;1.2276;
-40.2000;0.8816;1.2326;
-39.9000;0.8816;1.2326;
-39.6000;0.8799;1.2301;
-39.3000;0.8816;1.2377;
-39.0000;0.8807;1.2403;
-38.7000;0.8889;1.2682;
-38.4000;0.8824;1.2403;
-38.1000;0.8799;1.2377;
-37.8000;0.8799;1.2352;
-37.5000;0.8807;1.2352;
-37.2000;0.8799;1.2377;
-36.9000;0.8824;1.2428;
-36.6000;0.8791;1.2403;
-36.3000;0.8832;1.2504;
-36.0000;0.8799;1.2529;
-35.7000;0.8791;1.2479;
-35.4000;0.8807;1.2504;
-35.1000;0.8742;1.2403;
-34.8000;0.8807;1.2656;
-34.5000;0.8816;1.2605;
-34.2000;0.8783;1.2605;
-33.9000;0.8873;1.2859;
-33.6000;0.8824;1.2682;
-33.3000;0.8807;1.2707;
-33.0000;0.8791;1.2707;
-32.7000;0.8783;1.2605;
-32.4000;0.8816;1.2580;
-32.1000;0.8832;1.2479;
-31.8000;0.8816;1.2453;
-31.5000;0.8799;1.2403;
-31.2000;0.8816;1.2428;
-30.9000;0.8816;1.2352;
-30.6000;0.8799;1.2276;
-30.3000;0.8807;1.2301;
-30.0000;0.8816;1.2352;
-29.7000;0.8807;1.2326;
-29.4000;0.8799;1.2250;
-29.1000;0.8685;1.1946;
-28.8000;0.8816;1.2352;
-28.5000;0.8848;1.2453;
-28.2000;0.8816;1.2276;
-27.9000;0.8799;1.2276;
-27.6000;0.8807;1.2149;
-27.3000;0.8832;1.2200;
-27.0000;0.8824;1.2225;
-26.7000;0.8791;1.2250;
-26.4000;0.8807;1.2326;
-26.1000;0.8824;1.2326;
-25.8000;0.8807;1.2225;
-25.5000;0.8799;1.2174;
-25.2000;0.8807;1.2250;
-24.9000;0.8799;1.2301;
-24.6000;0.8799;1.2301;
-24.3000;0.8799;1.2377;
-24.0000;0.8775;1.2250;
-23.7000;0.8807;1.2326;
-23.4000;0.8816;1.2326;
-23.1000;0.8799;1.2301;
-22.8000;0.8807;1.2326;
-22.5000;0.8816;1.2453;
-22.2000;0.8816;1.2453;
-21.9000;0.8807;1.2529;
-21.6000;0.8807;1.2504;
-21.3000;0.8799;1.2352;
-21.0000;0.8816;1.2352;
-20.7000;0.8816;1.2352;
-20.4000;0.8856;1.2377;
-20.1000;0.8791;1.2276;
-19.8000;0.8816;1.2377;
-19.5000;0.8799;1.2326;
-19.2000;0.8832;1.2403;
-18.9000;0.8799;1.2326;
-18.6000;0.8799;1.2276;
-18.3000;0.8816;1.2352;
-18.0000;0.8848;1.2377;
-17.7000;0.8799;1.2225;
-17.4000;0.8807;1.2200;
-17.1000;0.8799;1.2149;
-16.8000;0.8816;1.2200;
-16.5000;0.8791;1.2098;
-16.2000;0.8816;1.2200;
-15.9000;0.8824;1.2250;
-15.6000;0.8816;1.2301;
-15.3000;0.8799;1.2250;
-15.0000;0.8816;1.2352;
-14.7000;0.8807;1.2352;
-14.4000;0.8799;1.2200;
-14.1000;0.8799;1.2250;
-13.8000;0.8799;1.2225;
-13.5000;0.8799;1.2250;
-13.2000;0.8824;1.2225;
-12.9000;0.8791;1.2124;
-12.6000;0.8799;1.2174;
-12.3000;0.8840;1.2301;
-12.0000;0.8807;1.2250;
-11.7000;0.8791;1.2276;
-11.4000;0.8816;1.2200;
-11.1000;0.8799;1.2276;
-10.8000;0.8799;1.2377;
-10.5000;0.8799;1.2301;
-10.2000;0.8816;1.2301;
-9.9000;0.8791;1.2225;
-9.6000;0.8807;1.2276;
-9.3000;0.8816;1.2276;
-9.0000;0.8816;1.2326;
-8.7000;0.8791;1.2200;
-8.4000;0.8799;1.2301;
-8.1000;0.8824;1.2352;
-7.8000;0.8824;1.2276;
-7.5000;0.8807;1.2301;
-7.2000;0.8807;1.2276;
-6.9000;0.8816;1.2301;
-6.6000;0.8824;1.2326;
-6.3000;0.8799;1.2225;
-6.0000;0.8799;1.2276;
-5.7000;0.8807;1.2326;
-5.4000;0.8807;1.2326;
-5.1000;0.8832;1.2326;
-4.8000;0.8816;1.2250;
-4.5000;0.8799;1.2200;
-4.2000;0.8807;1.2225;
-3.9000;0.8807;1.2149;
-3.6000;0.8816;1.2124;
-3.3000;0.8824;1.2200;
-3.0000;0.8807;1.2200;
-2.7000;0.8816;1.2326;
-2.4000;0.8807;1.2352;
-2.1000;0.8832;1.2301;
-1.8000;0.8791;1.2250;
-1.5000;0.8807;1.2301;
-1.2000;0.8807;1.2301;
-0.9000;0.8816;1.2377;
-0.6000;0.8816;1.2428;
-0.3000;0.8816;1.2403;
0.0000;0.8816;1.2403;
0.3000;0.8864;1.2326;
0.6000;0.8978;1.2732;
0.9000;0.9068;1.3214;
1.2000;0.9133;1.3595;
1.5000;0.9182;1.3950;
1.8000;0.9247;1.4406;
2.1000;0.9377;1.4990;
2.4000;0.9288;1.4913;
2.7000;0.9304;1.5192;
3.0000;0.9320;1.5370;
3.3000;0.9337;1.5573;
3.6000;0.9353;1.5725;
3.9000;0.9328;1.5725;
4.2000;0.9353;1.5979;
4.5000;0.9402;1.6004;
4.8000;0.9385;1.6004;
5.1000;0.9394;1.6004;
5.4000;0.9402;1.6004;
5.7000;0.9426;1.6080;
6.0000;0.9402;1.6080;
6.3000;0.9442;1.6106;
6.6000;0.9434;1.6080;
6.9000;0.9442;1.6156;
7.2000;0.9459;1.6080;
7.5000;0.9459;1.6080;
7.8000;0.9459;1.6106;
8.1000;0.9491;1.6182;
8.4000;0.9499;1.6131;
8.7000;0.9499;1.6207;
9.0000;0.9475;1.6207;
9.3000;0.9508;1.6258;
9.6000;0.9499;1.6283;
9.9000;0.9524;1.6461;
10.2000;0.9491;1.6283;
10.5000;0.9524;1.6410;
10.8000;0.9532;1.6385;
11.1000;0.9524;1.6410;
11.4000;0.9524;1.6334;
11.7000;0.9532;1.6359;
12.0000;0.9556;1.6385;
12.3000;0.9499;1.6207;
12.6000;0.9548;1.6359;
12.9000;0.9573;1.6435;
13.2000;0.9556;1.6359;
13.5000;0.9621;1.6562;
13.8000;0.9565;1.6410;
14.1000;0.9565;1.6359;
14.4000;0.9687;1.6613;
14.7000;0.9508;1.6106;
15.0000;0.9565;1.6207;
15.3000;0.9581;1.6182;
15.6000;0.9589;1.6207;
15.9000;0.9589;1.6106;
16.2000;0.9581;1.6207;
16.5000;0.9605;1.6308;
16.8000;0.9589;1.6283;
17.1000;0.9589;1.6283;
17.4000;0.9605;1.6334;
17.7000;0.9597;1.6334;
18.0000;0.9556;1.6283;
18.3000;0.9581;1.6308;
18.6000;0.9491;1.6106;
18.9000;0.9589;1.6461;
19.2000;0.9605;1.6486;
19.5000;0.9565;1.6461;
19.8000;0.9621;1.6613;
20.1000;0.9589;1.6385;
20.4000;0.9630;1.6511;
20.7000;0.9613;1.6410;
21.0000;0.9613;1.6410;
21.3000;0.9613;1.6334;
21.6000;0.9630;1.6258;
21.9000;0.9621;1.6258;
22.2000;0.9646;1.6258;
22.5000;0.9654;1.6410;
22.8000;0.9638;1.6308;
23.1000;0.9646;1.6258;
23.4000;0.9630;1.6308;
23.7000;0.9646;1.6308;
24.0000;0.9638;1.6258;
24.3000;0.9605;1.6131;
24.6000;0.9646;1.6258;
24.9000;0.9646;1.6283;
25.2000;0.9613;1.6385;
25.5000;0.9662;1.6562;
25.8000;0.9630;1.6511;
26.1000;0.9662;1.6562;
26.4000;0.9630;1.6359;
26.7000;0.9646;1.6410;
27.0000;0.9654;1.6461;
27.3000;0.9654;1.6461;
27.6000;0.9638;1.6334;
27.9000;0.9662;1.6207;
28.2000;0.9670;1.6182;
28.5000;0.9687;1.6232;
28.8000;0.9646;1.6258;
29.1000;0.9646;1.6308;
29.4000;0.9621;1.6258;
29.7000;0.9654;1.6359;
30.0000;0.9662;1.6334;
30.3000;0.9662;1.6334;
30.6000;0.9646;1.6308;
30.9000;0.9630;1.6258;
31.2000;0.9646;1.6334;
31.5000;0.9646;1.6334;
31.8000;0.9638;1.6334;
32.1000;0.9638;1.6308;
32.4000;0.9670;1.6359;
32.7000;0.9670;1.6385;
33.0000;0.9646;1.6283;
33.3000;0.9638;1.6385;
33.6000;0.9605;1.6334;
33.9000;0.9646;1.6461;
34.2000;0.9638;1.6461;
34.5000;0.9597;1.6359;
34.8000;0.9532;1.6156;
35.1000;0.9662;1.6511;
35.4000;0.9654;1.6435;
35.7000;0.9581;1.6258;
36.0000;0.9646;1.6385;
36.3000;0.9670;1.6486;
36.6000;0.9654;1.6435;
36.9000;0.9646;1.6385;
37.2000;0.9662;1.6334;
37.5000;0.9662;1.6308;
37.8000;0.9654;1.6308;
38.1000;0.9654;1.6359;
38.4000;0.9654;1.6410;
38.7000;0.9654;1.6359;
39.0000;0.9662;1.6283;
39.3000;0.9662;1.6308;
39.6000;0.9662;1.6308;
39.9000;0.9646;1.6359;
40.2000;0.9646;1.6308;
40.5000;0.9703;1.6435;
40.8000;0.9646;1.6283;
41.1000;0.9638;1.6258;
41.4000;0.9662;1.6283;
41.7000;0.9630;1.6156;
42.0000;0.9654;1.6258;
42.3000;0.9662;1.6232;
42.6000;0.9621;1.6156;
42.9000;0.9654;1.6207;
43.2000;0.9646;1.6283;
43.5000;0.9621;1.6258;
43.8000;0.9638;1.6308;
44.1000;0.9630;1.6258;
44.4000;0.9654;1.6410;
44.7000;0.9605;1.6308;
45.0000;0.9654;1.6410;
45.3000;0.9630;1.6334;
45.6000;0.9638;1.6334;
45.9000;0.9630;1.6385;
46.2000;0.9638;1.6359;
46.5000;0.9638;1.6511;
46.8000;0.9621;1.6410;
47.1000;0.9638;1.6486;
47.4000;0.9646;1.6537;
47.7000;0.9654;1.6537;
48.0000;0.9646;1.6461;
48.3000;0.9597;1.6359;
48.6000;0.9613;1.6435;
48.9000;0.9613;1.6461;
49.2000;0.9605;1.6385;
49.5000;0.9638;1.6511;
49.8000;0.9630;1.6461;
50.1000;0.9630;1.6435;
50.4000;0.9646;1.6410;
50.7000;0.9621;1.6359;
51.0000;0.9621;1.6334;
51.3000;0.9630;1.6385;
51.6000;0.9613;1.6308;
51.9000;0.9638;1.6385;
52.2000;0.9687;1.6435;
52.5000;0.9621;1.6258;
52.8000;0.9638;1.6385;
53.1000;0.9646;1.6435;
53.4000;0.9589;1.6334;
53.7000;0.9638;1.6334;
54.0000;0.9646;1.6385;
54.3000;0.9646;1.6385;
54.6000;0.9597;1.6258;
54.9000;0.9621;1.6334;
55.2000;0.9678;1.6385;
55.5000;0.9662;1.6359;
55.8000;0.9605;1.6232;
56.1000;0.9621;1.6283;
56.4000;0.9638;1.6258;
56.7000;0.9605;1.6258;
57.0000;0.9678;1.6359;
57.3000;0.9638;1.6232;
57.6000;0.9613;1.6106;
57.9000;0.9670;1.6207;
58.2000;0.9654;1.6207;
58.5000;0.9646;1.6156;
58.8000;0.9670;1.6207;
59.1000;0.9646;1.6207;
59.4000;0.9638;1.6182;
59.7000;0.9654;1.6232;
60.0000;0.9630;1.6131;
60.3000;0.9646;1.6232;
60.6000;0.9670;1.6435;
60.9000;0.9613;1.6410;
61.2000;0.9613;1.6435;
61.5000;0.9621;1.6410;
61.8000;0.9605;1.6410;
62.1000;0.9621;1.6435;
62.4000;0.9605;1.6359;
62.7000;0.9621;1.6359;
63.0000;0.9638;1.6435;
63.3000;0.9646;1.6461;
63.6000;0.9638;1.6511;
63.9000;0.9630;1.6486;
64.2000;0.9646;1.6537;
64.5000;0.9646;1.6511;
64.8000;0.9638;1.6537;
65.1000;0.9621;1.6537;
65.4000;0.9638;1.6511;
65.7000;0.9638;1.6486;
66.0000;0.9613;1.6334;
66.3000;0.9630;1.6308;
66.6000;0.9613;1.6308;
66.9000;0.9670;1.6511;
67.2000;0.9597;1.6283;
67.5000;0.9613;1.6435;
67.8000;0.9597;1.6435;
68.1000;0.9621;1.6486;
68.4000;0.9621;1.6461;
68.7000;0.9605;1.6410;
69.0000;0.9630;1.6435;
69.3000;0.9605;1.6410;
69.6000;0.9524;1.6182;
69.9000;0.9621;1.6511;
70.2000;0.9695;1.6689;
70.5000;0.9638;1.6613;
70.8000;0.9613;1.6689;
71.1000;0.9613;1.6740;
71.4000;0.9581;1.6587;
71.7000;0.9638;1.6714;
72.0000;0.9597;1.6537;
72.3000;0.9573;1.6385;
72.6000;0.9613;1.6410;
72.9000;0.9613;1.6486;
73.2000;0.9662;1.6562;
73.5000;0.9621;1.6410;
73.8000;0.9605;1.6359;
74.1000;0.9621;1.6410;
74.4000;0.9630;1.6461;
74.7000;0.9646;1.6511;
75.0000;0.9621;1.6537;
75.3000;0.9605;1.6461;
75.6000;0.9613;1.6359;
75.9000;0.9638;1.6587;
76.2000;0.9621;1.6511;
76.5000;0.9630;1.6435;
76.8000;0.9621;1.6385;
77.1000;0.9621;1.6359;
77.4000;0.9630;1.6435;
77.7000;0.9621;1.6359;
78.0000;0.9613;1.6359;
78.3000;0.9621;1.6359;
78.6000;0.9630;1.6385;
78.9000;0.9613;1.6334;
79.2000;0.9630;1.6359;
79.5000;0.9630;1.6308;
79.8000;0.9605;1.6207;
80.1000;0.9613;1.6232;
80.4000;0.9605;1.6232;
80.7000;0.9630;1.6232;
81.0000;0.9589;1.6080;
81.3000;0.9613;1.6156;
81.6000;0.9605;1.6106;
81.9000;0.9613;1.6156;
82.2000;0.9621;1.6232;
82.5000;0.9589;1.6207;
82.8000;0.9621;1.6334;
83.1000;0.9573;1.6207;
83.4000;0.9605;1.6258;
83.7000;0.9613;1.6258;
84.0000;0.9638;1.6334;
84.3000;0.9613;1.6359;
84.6000;0.9605;1.6359;
84.9000;0.9613;1.6334;
85.2000;0.9613;1.6207;
85.5000;0.9613;1.6258;
85.8000;0.9613;1.6182;
86.1000;0.9621;1.6232;
86.4000;0.9605;1.6207;
86.7000;0.9605;1.6258;
87.0000;0.9605;1.6359;
87.3000;0.9597;1.6486;
87.6000;0.9597;1.6511;
87.9000;0.9589;1.6537;
88.2000;0.9613;1.6562;
88.5000;0.9621;1.6562;
88.8000;0.9605;1.6511;
89.1000;0.9638;1.6613;
89.4000;0.9613;1.6562;
89.7000;0.9605;1.6486;
90.0000;0.9605;1.6461;
90.3000;0.9597;1.6486;
90.6000;0.9613;1.6410;
90.9000;0.9613;1.6334;
91.2000;0.9597;1.6308;
91.5000;0.9597;1.6258;
91.8000;0.9613;1.6410;
92.1000;0.9613;1.6308;
92.4000;0.9630;1.6385;
92.7000;0.9630;1.6435;
93.0000;0.9613;1.6410;
93.3000;0.9613;1.6511;
93.6000;0.9638;1.6562;
93.9000;0.9613;1.6461;
94.2000;0.9597;1.6435;
94.5000;0.9605;1.6410;
94.8000;0.9597;1.6486;
95.1000;0.9605;1.6562;
95.4000;0.9589;1.6511;
95.7000;0.9597;1.6486;
96.0000;0.9605;1.6410;
96.3000;0.9605;1.6461;
96.6000;0.9605;1.6537;
96.9000;0.9605;1.6486;
97.2000;0.9613;1.6486;
97.5000;0.9613;1.6359;
97.8000;0.9597;1.6308;
98.1000;0.9597;1.6258;
98.4000;0.9613;1.6359;
98.7000;0.9613;1.6283;
99.0000;0.9605;1.6258;
99.3000;0.9613;1.6334;
99.6000;0.9597;1.6334;
99.9000;0.9605;1.6334;
100.2000;0.9613;1.6410;
100.5000;0.9597;1.6359;
100.8000;0.9581;1.6359;
101.1000;0.9589;1.6258;
101.4000;0.9597;1.6283;
101.7000;0.9573;1.6232;
102.0000;0.9581;1.6258;
102.3000;0.9597;1.6359;
102.6000;0.9597;1.6461;
102.9000;0.9589;1.6334;
103.2000;0.9581;1.6334;
103.5000;0.9605;1.6461;
103.8000;0.9621;1.6435;
104.1000;0.9597;1.6359;
104.4000;0.9589;1.6283;
104.7000;0.9605;1.6435;
105.0000;0.9589;1.6511;
105.3000;0.9589;1.6461;
105.6000;0.9589;1.6435;
105.9000;0.9573;1.6486;
106.2000;0.9597;1.6537;
106.5000;0.9589;1.6461;
106.8000;0.9589;1.6410;
107.1000;0.9589;1.6410;
107.4000;0.9597;1.6461;
107.7000;0.9597;1.6461;
108.0000;0.9589;1.6486;
108.3000;0.9597;1.6461;
108.6000;0.9605;1.6435;
108.9000;0.9597;1.6461;
109.2000;0.9597;1.6435;
109.5000;0.9589;1.6334;
109.8000;0.9605;1.6359;
110.1000;0.9605;1.6359;
110.4000;0.9532;1.6207;
110.7000;0.9589;1.6385;
111.0000;0.9597;1.6435;
111.3000;0.9613;1.6511;
111.6000;0.9581;1.6334;
111.9000;0.9597;1.6283;
112.2000;0.9613;1.6359;
112.5000;0.9597;1.6308;
112.8000;0.9613;1.6385;
113.1000;0.9589;1.6232;
113.4000;0.9565;1.6232;
113.7000;0.9605;1.6308;
114.0000;0.9613;1.6334;
114.3000;0.9589;1.6258;
114.6000;0.9589;1.6308;
114.9000;0.9605;1.6359;
115.2000;0.9597;1.6410;
115.5000;0.9597;1.6410;
115.8000;0.9597;1.6435;
116.1000;0.9597;1.6486;
116.4000;0.9597;1.6613;
116.7000;0.9597;1.6613;
117.0000;0.9589;1.6486;
117.3000;0.9597;1.6486;
117.6000;0.9589;1.6562;
117.9000;0.9597;1.6562;
118.2000;0.9524;1.6258;
118.5000;0.9573;1.6410;
118.8000;0.9597;1.6385;
119.1000;0.9589;1.6410;
119.4000;0.9613;1.6511;
119.7000;0.9589;1.6461;
120.0000;0.9589;1.6486;
120.3000;0.9589;1.6486;
120.6000;0.9581;1.6435;
120.9000;0.9565;1.6385;
121.2000;0.9581;1.6435;
121.5000;0.9589;1.6537;
121.8000;0.9573;1.6435;
122.1000;0.9703;1.6816;
122.4000;0.9589;1.6587;
122.7000;0.9597;1.6638;
123.0000;0.9597;1.6740;
123.3000;0.9597;1.6638;
123.6000;0.9589;1.6486;
123.9000;0.9589;1.6511;
124.2000;0.9573;1.6613;
124.5000;0.9573;1.6587;
124.8000;0.9573;1.6537;
125.1000;0.9581;1.6613;
125.4000;0.9589;1.6511;
125.7000;0.9565;1.6562;
126.0000;0.9581;1.6613;
126.3000;0.9597;1.6613;
126.6000;0.9573;1.6511;
126.9000;0.9581;1.6537;
127.2000;0.9581;1.6562;
127.5000;0.9597;1.6664;
127.8000;0.9597;1.6664;
128.1000;0.9589;1.6638;
128.4000;0.9597;1.6613;
128.7000;0.9589;1.6562;
129.0000;0.9605;1.6537;
129.3000;0.9605;1.6511;
129.6000;0.9605;1.6562;
129.9000;0.9540;1.6410;
130.2000;0.9597;1.6511;
130.5000;0.9581;1.6486;
130.8000;0.9532;1.6334;
131.1000;0.9573;1.6385;
131.4000;0.9581;1.6410;
131.7000;0.9573;1.6410;
132.0000;0.9573;1.6410;
132.3000;0.9573;1.6461;
132.6000;0.9597;1.6435;
132.9000;0.9581;1.6410;
133.2000;0.9581;1.6410;
133.5000;0.9597;1.6435;
133.8000;0.9581;1.6359;
134.1000;0.9613;1.6435;
134.4000;0.9597;1.6486;
134.7000;0.9565;1.6461;
135.0000;0.9573;1.6562;
135.3000;0.9589;1.6511;
135.6000;0.9581;1.6562;
135.9000;0.9597;1.6587;
136.2000;0.9581;1.6537;
136.5000;0.9581;1.6587;
136.8000;0.9589;1.6562;
137.1000;0.9451;1.6283;
137.4000;0.9605;1.6613;
137.7000;0.9597;1.6613;
138.0000;0.9662;1.6816;
138.3000;0.9556;1.6486;
138.6000;0.9597;1.6511;
138.9000;0.9589;1.6410;
139.2000;0.9621;1.6435;
139.5000;0.9556;1.6334;
139.8000;0.9581;1.6308;
140.1000;0.9581;1.6334;
140.4000;0.9581;1.6359;
140.7000;0.9581;1.6435;
141.0000;0.9573;1.6410;
141.3000;0.9630;1.6511;
141.6000;0.9597;1.6461;
141.9000;0.9613;1.6664;
142.2000;0.9621;1.6714;
142.5000;0.9540;1.6562;
142.8000;0.9532;1.6587;
143.1000;0.9581;1.6689;
143.4000;0.9565;1.6562;
143.7000;0.9581;1.6537;
144.0000;0.9565;1.6587;
144.3000;0.9630;1.6790;
144.6000;0.9573;1.6537;
144.9000;0.9597;1.6461;
145.2000;0.9581;1.6511;
145.5000;0.9589;1.6613;
145.8000;0.9581;1.6613;
146.1000;0.9573;1.6664;
146.4000;0.9573;1.6714;
146.7000;0.9581;1.6714;
147.0000;0.9589;1.6613;
147.3000;0.9581;1.6486;
147.6000;0.9565;1.6410;
147.9000;0.9589;1.6511;
148.2000;0.9573;1.6461;
148.5000;0.9516;1.6283;
148.8000;0.9581;1.6486;
149.1000;0.9573;1.6638;
149.4000;0.9589;1.6689;
149.7000;0.9573;1.6714;
150.0000;0.9556;1.6689;
150.3000;0.9589;1.6841;
150.6000;0.9516;1.6689;
150.9000;0.9581;1.6892;
151.2000;0.9573;1.6866;
151.5000;0.9621;1.6866;
151.8000;0.9565;1.6740;
152.1000;0.9589;1.6841;
152.4000;0.9573;1.6816;
152.7000;0.9589;1.6841;
153.0000;0.9597;1.6866;
153.3000;0.9597;1.6841;
153.6000;0.9581;1.6740;
153.9000;0.9573;1.6740;
154.2000;0.9589;1.6816;
154.5000;0.9589;1.6841;
154.8000;0.9589;1.6816;
155.1000;0.9573;1.6816;
155.4000;0.9621;1.6917;
155.7000;0.9589;1.6917;
156.0000;0.9573;1.6790;
156.3000;0.9581;1.6790;
156.6000;0.9524;1.6790;
156.9000;0.9597;1.6841;
157.2000;0.9573;1.6790;
157.5000;0.9540;1.6689;
157.8000;0.9573;1.6765;
158.1000;0.9597;1.6714;
158.4000;0.9589;1.6765;
158.7000;0.9508;1.6562;
159.0000;0.9581;1.6689;
159.3000;0.9581;1.6765;
159.6000;0.9581;1.6740;
159.9000;0.9573;1.6664;
160.2000;0.9565;1.6638;
160.5000;0.9589;1.6740;
160.8000;0.9589;1.6664;
161.1000;0.9548;1.6587;
161.4000;0.9573;1.6689;
161.7000;0.9589;1.6689;
162.0000;0.9581;1.6638;
162.3000;0.9556;1.6537;
162.6000;0.9573;1.6511;
162.9000;0.9565;1.6562;
163.2000;0.9540;1.6511;
163.5000;0.9597;1.6664;
163.8000;0.9556;1.6613;
164.1000;0.9532;1.6410;
164.4000;0.9565;1.6511;
164.7000;0.9589;1.6613;
165.0000;0.9573;1.6511;
165.3000;0.9475;1.6410;
165.6000;0.9589;1.6689;
165.9000;0.9565;1.6664;
166.2000;0.9581;1.6689;
166.5000;0.9613;1.6790;
166.8000;0.9565;1.6689;
167.1000;0.9565;1.6714;
167.4000;0.9573;1.6714;
167.7000;0.9565;1.6714;
168.0000;0.9573;1.6638;
168.3000;0.9573;1.6638;
168.6000;0.9597;1.6689;
168.9000;0.9565;1.6587;
169.2000;0.9581;1.6562;
169.5000;0.9581;1.6587;
169.8000;0.9589;1.6587;
170.1000;0.9573;1.6537;
170.4000;0.9556;1.6537;
170.7000;0.9646;1.6714;
171.0000;0.9565;1.6511;
171.3000;0.9556;1.6562;
171.6000;0.9556;1.6486;
171.9000;0.9548;1.6435;
172.2000;0.9597;1.6562;
172.5000;0.9581;1.6537;
172.8000;0.9565;1.6562;
173.1000;0.9548;1.6613;
173.4000;0.9581;1.6638;
173.7000;0.9573;1.6587;
174.0000;0.9573;1.6587;
174.3000;0.9556;1.6537;
174.6000;0.9556;1.6537;
174.9000;0.9548;1.6511;
175.2000;0.9540;1.6511;
175.5000;0.9475;1.6334;
175.8000;0.9556;1.6613;
176.1000;0.9556;1.6664;
176.4000;0.9548;1.6587;
176.7000;0.9548;1.6587;
177.0000;0.9532;1.6587;
177.3000;0.9573;1.6638;
177.6000;0.9565;1.6537;
177.9000;0.9540;1.6461;
178.2000;0.9565;1.6511;
178.5000;0.9581;1.6511;
178.8000;0.9565;1.6486;
179.1000;0.9556;1.6435;
179.4000;0.9565;1.6486;
179.7000;0.9548;1.6461;
180.0000;0.9573;1.6486;
180.3000;0.9556;1.6461;
180.6000;0.9548;1.6435;
180.9000;0.9565;1.6511;
181.2000;0.9499;1.6385;
181.5000;0.9573;1.6537;
181.8000;0.9556;1.6461;
182.1000;0.9565;1.6385;
182.4000;0.9573;1.6461;
182.7000;0.9565;1.6537;
183.0000;0.9483;1.6385;
183.3000;0.9573;1.6638;
183.6000;0.9556;1.6613;
183.9000;0.9589;1.6638;
184.2000;0.9556;1.6562;
184.5000;0.9565;1.6511;
184.8000;0.9589;1.6587;
185.1000;0.9556;1.6587;
185.4000;0.9573;1.6587;
185.7000;0.9556;1.6537;
186.0000;0.9556;1.6587;
186.3000;0.9565;1.6587;
186.6000;0.9573;1.6638;
186.9000;0.9565;1.6587;
187.2000;0.9573;1.6511;
187.5000;0.9573;1.6562;
187.8000;0.9573;1.6486;
188.1000;0.9581;1.6511;
188.4000;0.9548;1.6435;
188.7000;0.9581;1.6511;
189.0000;0.9548;1.6461;
189.3000;0.9565;1.6435;
189.6000;0.9540;1.6461;
189.9000;0.9565;1.6537;
190.2000;0.9556;1.6562;
190.5000;0.9548;1.6537;
190.8000;0.9548;1.6562;
191.1000;0.9540;1.6486;
191.4000;0.9589;1.6511;
191.7000;0.9467;1.6207;
192.0000;0.9556;1.6461;
192.3000;0.9548;1.6511;
192.6000;0.9540;1.6562;
192.9000;0.9565;1.6613;
193.2000;0.9573;1.6587;
193.5000;0.9573;1.6638;
193.8000;0.9451;1.6385;
194.1000;0.9589;1.6790;
194.4000;0.9573;1.6765;
194.7000;0.9565;1.6816;
195.0000;0.9556;1.6790;
195.3000;0.9565;1.6816;
195.6000;0.9556;1.6841;
195.9000;0.9491;1.6664;
196.2000;0.9565;1.6790;
196.5000;0.9540;1.6765;
196.8000;0.9540;1.6664;
197.1000;0.9540;1.6664;
197.4000;0.9556;1.6714;
197.7000;0.9573;1.6664;
198.0000;0.9565;1.6714;
198.3000;0.9565;1.6740;
198.6000;0.9565;1.6689;
198.9000;0.9565;1.6638;
199.2000;0.9565;1.6664;
199.5000;0.9573;1.6664;
199.8000;0.9556;1.6664;
200.1000;0.9556;1.6714;
200.4000;0.9573;1.6765;
200.7000;0.9548;1.6689;
201.0000;0.9556;1.6689;
201.3000;0.9581;1.6689;
201.6000;0.9581;1.6689;
201.9000;0.9565;1.6638;
202.2000;0.9548;1.6613;
202.5000;0.9556;1.6613;
202.8000;0.9565;1.6740;
203.1000;0.9524;1.6664;
203.4000;0.9548;1.6740;
203.7000;0.9581;1.6790;
204.0000;0.9565;1.6790;
204.3000;0.9565;1.6689;
204.6000;0.9565;1.6613;
204.9000;0.9556;1.6638;
205.2000;0.9524;1.6537;
205.5000;0.9581;1.6689;
205.8000;0.9532;1.6511;
206.1000;0.9548;1.6537;
206.4000;0.9548;1.6638;
206.7000;0.9581;1.6689;
207.0000;0.9556;1.6587;
207.3000;0.9565;1.6587;
207.6000;0.9573;1.6638;
207.9000;0.9548;1.6486;
208.2000;0.9508;1.6461;
208.5000;0.9565;1.6613;
208.8000;0.9573;1.6613;
209.1000;0.9581;1.6613;
209.4000;0.9573;1.6765;
209.7000;0.9532;1.6765;
210.0000;0.9556;1.6816;
210.3000;0.9581;1.6790;
210.6000;0.9581;1.6638;
210.9000;0.9581;1.6562;
211.2000;0.9556;1.6613;
211.5000;0.9565;1.6638;
211.8000;0.9548;1.6537;
212.1000;0.9556;1.6537;
212.4000;0.9548;1.6461;
212.7000;0.9540;1.6359;
213.0000;0.9573;1.6385;
213.3000;0.9548;1.6334;
213.6000;0.9565;1.6359;
213.9000;0.9573;1.6359;
214.2000;0.9565;1.6359;
214.5000;0.9565;1.6435;
214.8000;0.9565;1.6511;
215.1000;0.9565;1.6461;
215.4000;0.9556;1.6511;
215.7000;0.9540;1.6486;
216.0000;0.9548;1.6537;
216.3000;0.9548;1.6511;
216.6000;0.9565;1.6511;
216.9000;0.9556;1.6511;
217.2000;0.9556;1.6562;
217.5000;0.9540;1.6511;
217.8000;0.9532;1.6461;
218.1000;0.9556;1.6562;
218.4000;0.9565;1.6613;
218.7000;0.9556;1.6537;
219.0000;0.9573;1.6714;
219.3000;0.9565;1.6638;
219.6000;0.9548;1.6562;
219.9000;0.9548;1.6587;
220.2000;0.9556;1.6537;
220.5000;0.9556;1.6511;
220.8000;0.9556;1.6410;
221.1000;0.9540;1.6410;
221.4000;0.9565;1.6359;
221.7000;0.9532;1.6258;
222.0000;0.9548;1.6410;
222.3000;0.9540;1.6435;
222.6000;0.9548;1.6511;
222.9000;0.9548;1.6587;
223.2000;0.9556;1.6638;
223.5000;0.9565;1.6613;
223.8000;0.9556;1.6613;
224.1000;0.9556;1.6511;
224.4000;0.9548;1.6435;
224.7000;0.9548;1.6410;
225.0000;0.9540;1.6435;
225.3000;0.9524;1.6359;
225.6000;0.9548;1.6385;
225.9000;0.9532;1.6258;
226.2000;0.9540;1.6410;
226.5000;0.9540;1.6461;
226.8000;0.9556;1.6486;
227.1000;0.9565;1.6511;
227.4000;0.9548;1.6486;
227.7000;0.9548;1.6385;
228.0000;0.9548;1.6410;
228.3000;0.9532;1.6359;
228.6000;0.9556;1.6385;
228.9000;0.9556;1.6410;
229.2000;0.9565;1.6410;
229.5000;0.9556;1.6385;
229.8000;0.9556;1.6511;
230.1000;0.9556;1.6587;
230.4000;0.9556;1.6689;
230.7000;0.9548;1.6638;
231.0000;0.9581;1.6638;
231.3000;0.9532;1.6562;
231.6000;0.9540;1.6562;
231.9000;0.9556;1.6537;
232.2000;0.9556;1.6587;
232.5000;0.9565;1.6562;
232.8000;0.9565;1.6511;
233.1000;0.9573;1.6537;
233.4000;0.9556;1.6537;
233.7000;0.9573;1.6537;
234.0000;0.9548;1.6359;
234.3000;0.9532;1.6359;
234.6000;0.9556;1.6511;
234.9000;0.9540;1.6511;
235.2000;0.9532;1.6613;
235.5000;0.9548;1.6664;
235.8000;0.9532;1.6613;
236.1000;0.9548;1.6537;
236.4000;0.9548;1.6486;
236.7000;0.9540;1.6435;
237.0000;0.9548;1.6435;
237.3000;0.9556;1.6359;
237.6000;0.9548;1.6334;
237.9000;0.9573;1.6486;
238.2000;0.9556;1.6511;
238.5000;0.9556;1.6562;
238.8000;0.9565;1.6562;
239.1000;0.9556;1.6511;
239.4000;0.9532;1.6435;
239.7000;0.9548;1.6587;
240.0000;0.9556;1.6613;
240.3000;0.9540;1.6613;
240.6000;0.9532;1.6587;
240.9000;0.9548;1.6613;
241.2000;0.9556;1.6587;
241.5000;0.9524;1.6613;
241.8000;0.9442;1.6385;
242.1000;0.9524;1.6613;
242.4000;0.9548;1.6638;
242.7000;0.9556;1.6638;
243.0000;0.9556;1.6689;
243.3000;0.9556;1.6790;
243.6000;0.9565;1.6765;
243.9000;0.9548;1.6613;
244.2000;0.9540;1.6638;
244.5000;0.9540;1.6638;
244.8000;0.9548;1.6664;
245.1000;0.9581;1.6664;
245.4000;0.9548;1.6638;
245.7000;0.9565;1.6664;
246.0000;0.9573;1.6613;
246.3000;0.9565;1.6587;
246.6000;0.9540;1.6537;
246.9000;0.9565;1.6638;
247.2000;0.9516;1.6486;
247.5000;0.9491;1.6461;
247.8000;0.9548;1.6689;
248.1000;0.9556;1.6689;
248.4000;0.9556;1.6664;
248.7000;0.9573;1.6638;
249.0000;0.9573;1.6562;
249.3000;0.9540;1.6486;
249.6000;0.9573;1.6511;
249.9000;0.9581;1.6587;
250.2000;0.9548;1.6511;
250.5000;0.9548;1.6537;
250.8000;0.9548;1.6613;
251.1000;0.9540;1.6714;
251.4000;0.9556;1.6740;
251.7000;0.9556;1.6664;
252.0000;0.9556;1.6740;
252.3000;0.9540;1.6664;
252.6000;0.9556;1.6689;
252.9000;0.9426;1.6359;
253.2000;0.9565;1.6664;
253.5000;0.9491;1.6587;
253.8000;0.9540;1.6664;
254.1000;0.9532;1.6562;
254.4000;0.9597;1.6790;
254.7000;0.9532;1.6537;
255.0000;0.9565;1.6638;
255.3000;0.9565;1.6664;
255.6000;0.9548;1.6613;
255.9000;0.9548;1.6689;
256.2000;0.9565;1.6816;
256.5000;0.9589;1.6790;
256.8000;0.9483;1.6537;
257.1000;0.9548;1.6664;
257.4000;0.9540;1.6613;
257.7000;0.9556;1.6537;
258.0000;0.9573;1.6664;
258.3000;0.9556;1.6664;
258.6000;0.9573;1.6689;
258.9000;0.9556;1.6587;
259.2000;0.9491;1.6435;
259.5000;0.9548;1.6638;
259.8000;0.9556;1.6714;
260.1000;0.9467;1.6435;
260.4000;0.9426;1.6308;
260.7000;0.9451;1.6385;
261.0000;0.9565;1.6664;
261.3000;0.9687;1.6943;
261.6000;0.9556;1.6638;
261.9000;0.9556;1.6740;
262.2000;0.9597;1.6790;
262.5000;0.9670;1.6993;
262.8000;0.9516;1.6714;
263.1000;0.9548;1.6765;
263.4000;0.9548;1.6740;
263.7000;0.9508;1.6638;
264.0000;0.9556;1.6816;
264.3000;0.9548;1.6816;
264.6000;0.9540;1.6841;
264.9000;0.9548;1.6841;
265.2000;0.9548;1.6841;
265.5000;0.9532;1.6740;
265.8000;0.9524;1.6664;
266.1000;0.9532;1.6740;
266.4000;0.9548;1.6765;
266.7000;0.9548;1.6816;
267.0000;0.9491;1.6664;
267.3000;0.9565;1.6841;
267.6000;0.9548;1.6892;
267.9000;0.9548;1.6892;
268.2000;0.9548;1.6866;
268.5000;0.9556;1.6917;
268.8000;0.9532;1.6816;
269.1000;0.9556;1.6892;
269.4000;0.9532;1.6866;
269.7000;0.9548;1.6866;
270.0000;0.9532;1.6917;
270.3000;0.9548;1.6993;
270.6000;0.9581;1.7120;
270.9000;0.9532;1.6993;
271.2000;0.9548;1.7044;
271.5000;0.9532;1.6917;
271.8000;0.9524;1.6841;
272.1000;0.9540;1.6866;
272.4000;0.9548;1.6841;
272.7000;0.9524;1.6740;
273.0000;0.9548;1.6841;
273.3000;0.9548;1.6841;
273.6000;0.9548;1.6740;
273.9000;0.9540;1.6689;
274.2000;0.9548;1.6664;
274.5000;0.9556;1.6664;
274.8000;0.9556;1.6664;
275.1000;0.9573;1.6740;
275.4000;0.9556;1.6765;
275.7000;0.9548;1.6765;
276.0000;0.9540;1.6740;
276.3000;0.9556;1.6790;
276.6000;0.9524;1.6689;
276.9000;0.9540;1.6689;
277.2000;0.9556;1.6664;
277.5000;0.9589;1.6790;
277.8000;0.9524;1.6638;
278.1000;0.9548;1.6664;
278.4000;0.9556;1.6765;
278.7000;0.9613;1.6866;
279.0000;0.9556;1.6664;
279.3000;0.9565;1.6689;
279.6000;0.9540;1.6587;
279.9000;0.9556;1.6587;
280.2000;0.9516;1.6613;
280.5000;0.9548;1.6740;
280.8000;0.9556;1.6816;
281.1000;0.9532;1.6790;
281.4000;0.9548;1.6943;
281.7000;0.9508;1.6892;
282.0000;0.9532;1.6892;
282.3000;0.9532;1.6866;
282.6000;0.9532;1.6790;
282.9000;0.9540;1.6841;
283.2000;0.9499;1.6740;
283.5000;0.9605;1.6968;
283.8000;0.9540;1.6765;
284.1000;0.9516;1.6613;
284.4000;0.9565;1.6689;
284.7000;0.9581;1.6638;
285.0000;0.9556;1.6562;
285.3000;0.9613;1.6740;
285.6000;0.9565;1.6689;
285.9000;0.9540;1.6613;
286.2000;0.9524;1.6638;
286.5000;0.9548;1.6689;
286.8000;0.9556;1.6765;
287.1000;0.9678;1.7019;
287.4000;0.9556;1.6689;
287.7000;0.9540;1.6689;
288.0000;0.9548;1.6562;
288.3000;0.9548;1.6537;
288.6000;0.9556;1.6562;
288.9000;0.9548;1.6613;
289.2000;0.9548;1.6613;
289.5000;0.9532;1.6689;
289.8000;0.9524;1.6664;
290.1000;0.9548;1.6664;
290.4000;0.9548;1.6714;
290.7000;0.9556;1.6689;
291.0000;0.9548;1.6689;
291.3000;0.9556;1.6714;
291.6000;0.9589;1.6765;
291.9000;0.9556;1.6765;
292.2000;0.9459;1.6587;
292.5000;0.9540;1.6765;
292.8000;0.9565;1.6790;
293.1000;0.9678;1.6968;
293.4000;0.9532;1.6664;
293.7000;0.9532;1.6664;
294.0000;0.9548;1.6689;
294.3000;0.9540;1.6689;
294.6000;0.9548;1.6664;
294.9000;0.9532;1.6689;
295.2000;0.9418;1.6385;
295.5000;0.9556;1.6765;
295.8000;0.9556;1.6816;
296.1000;0.9556;1.6765;
296.4000;0.9540;1.6638;
296.7000;0.9556;1.6587;
297.0000;0.9540;1.6486;
297.3000;0.9540;1.6461;
297.6000;0.9548;1.6613;
297.9000;0.9548;1.6587;
298.2000;0.9532;1.6587;
298.5000;0.9540;1.6511;
298.8000;0.9548;1.6587;
299.1000;0.9556;1.6613;
299.4000;0.9548;1.6537;
299.7000;0.9540;1.6537;
300.0000;0.9532;1.6562;
300.3000;0.9532;1.6613;
300.6000;0.9565;1.6740;
300.9000;0.9532;1.6714;
301.2000;0.9581;1.6714;
301.5000;0.9524;1.6613;
301.8000;0.9565;1.6765;
302.1000;0.9540;1.6714;
302.4000;0.9548;1.6714;
302.7000;0.9556;1.6866;
303.0000;0.9565;1.6943;
303.3000;0.9556;1.6943;
303.6000;0.9556;1.6892;
303.9000;0.9556;1.6892;
304.2000;0.9540;1.6841;
304.5000;0.9548;1.6866;
304.8000;0.9565;1.6866;
305.1000;0.9532;1.6816;
305.4000;0.9581;1.6968;
305.7000;0.9524;1.6866;
306.0000;0.9540;1.6917;
306.3000;0.9524;1.6917;
306.6000;0.9540;1.6917;
306.9000;0.9565;1.6968;
307.2000;0.9548;1.6892;
307.5000;0.9548;1.6841;
307.8000;0.9548;1.6765;
308.1000;0.9556;1.6765;
308.4000;0.9556;1.6790;
308.7000;0.9548;1.6866;
309.0000;0.9540;1.6740;
309.3000;0.9556;1.6740;
309.6000;0.9540;1.6714;
309.9000;0.9556;1.6689;
310.2000;0.9540;1.6613;
310.5000;0.9548;1.6638;
310.8000;0.9540;1.6638;
311.1000;0.9556;1.6638;
311.4000;0.9532;1.6613;
311.7000;0.9532;1.6638;
312.0000;0.9548;1.6866;
312.3000;0.9548;1.6841;
312.6000;0.9524;1.6790;
312.9000;0.9532;1.6866;
313.2000;0.9565;1.6917;
313.5000;0.9556;1.6892;
313.8000;0.9548;1.6765;
314.1000;0.9540;1.6866;
314.4000;0.9548;1.6765;
314.7000;0.9540;1.6740;
315.0000;0.9548;1.6816;
315.3000;0.9540;1.6841;
315.6000;0.9524;1.6866;
315.9000;0.9532;1.6866;
316.2000;0.9540;1.6816;
316.5000;0.9524;1.6841;
316.8000;0.9532;1.6816;
317.1000;0.9524;1.6740;
317.4000;0.9540;1.6714;
317.7000;0.9540;1.6790;
318.0000;0.9540;1.6816;
318.3000;0.9540;1.6943;
318.6000;0.9540;1.6943;
318.9000;0.9540;1.6917;
319.2000;0.9548;1.6943;
319.5000;0.9556;1.6917;
319.8000;0.9540;1.6866;
320.1000;0.9499;1.6714;
320.4000;0.9556;1.6866;
320.7000;0.9548;1.6917;
321.0000;0.9581;1.6892;
321.3000;0.9556;1.6866;
321.6000;0.9491;1.6790;
321.9000;0.9540;1.6943;
322.2000;0.9532;1.6866;
322.5000;0.9548;1.6993;
322.8000;0.9548;1.6943;
323.1000;0.9581;1.7044;
323.4000;0.9565;1.6917;
323.7000;0.9540;1.6816;
324.0000;0.9597;1.6917;
324.3000;0.9556;1.6740;
324.6000;0.9573;1.6841;
324.9000;0.9556;1.6740;
325.2000;0.9524;1.6689;
325.5000;0.9540;1.6816;
325.8000;0.9532;1.6765;
326.1000;0.9540;1.6740;
326.4000;0.9556;1.6816;
326.7000;0.9532;1.6765;
327.0000;0.9540;1.6841;
327.3000;0.9565;1.6892;
327.6000;0.9556;1.6816;
327.9000;0.9540;1.6714;
328.2000;0.9532;1.6740;
328.5000;0.9532;1.6714;
328.8000;0.9548;1.6841;
329.1000;0.9548;1.6892;
329.4000;0.9516;1.6714;
329.7000;0.9573;1.6740;
330.0000;0.9540;1.6689;
330.3000;0.9524;1.6740;
330.6000;0.9532;1.6765;
330.9000;0.9540;1.6790;
331.2000;0.9548;1.6790;
331.5000;0.9548;1.6714;
331.8000;0.9532;1.6740;
332.1000;0.9548;1.6816;
332.4000;0.9540;1.6917;
332.7000;0.9532;1.6968;
333.0000;0.9532;1.6866;
333.3000;0.9475;1.6790;
333.6000;0.9540;1.6892;
333.9000;0.9548;1.6866;
334.2000;0.9548;1.6892;
334.5000;0.9532;1.6765;
334.8000;0.9540;1.6816;
335.1000;0.9556;1.6866;
335.4000;0.9540;1.6892;
335.7000;0.9524;1.6866;
336.0000;0.9532;1.6765;
336.3000;0.9540;1.6790;
336.6000;0.9548;1.6841;
336.9000;0.9532;1.6765;
337.2000;0.9548;1.6740;
337.5000;0.9548;1.6765;
337.8000;0.9540;1.6841;
338.1000;0.9540;1.6841;
338.4000;0.9540;1.6790;
338.7000;0.9548;1.6765;
339.0000;0.9548;1.6740;
339.3000;0.9459;1.6410;
339.6000;0.9556;1.6638;
339.9000;0.9540;1.6664;
340.2000;0.9467;1.6537;
340.5000;0.9532;1.6664;
340.8000;0.9540;1.6638;
341.1000;0.9540;1.6638;
341.4000;0.9540;1.6562;
341.7000;0.9524;1.6461;
342.0000;0.9524;1.6461;
342.3000;0.9532;1.6461;
342.6000;0.9524;1.6537;
342.9000;0.9540;1.6638;
343.2000;0.9540;1.6866;
343.5000;0.9524;1.6841;
343.8000;0.9532;1.6943;
344.1000;0.9532;1.6866;
344.4000;0.9597;1.7044;
344.7000;0.9548;1.6968;
345.0000;0.9565;1.6917;
345.3000;0.9548;1.6866;
345.6000;0.9540;1.6917;
345.9000;0.9548;1.6866;
346.2000;0.9532;1.6765;
346.5000;0.9540;1.6765;
346.8000;0.9532;1.6790;
347.1000;0.9524;1.6714;
347.4000;0.9589;1.6765;
347.7000;0.9548;1.6714;
348.0000;0.9532;1.6790;
348.3000;0.9540;1.6765;
348.6000;0.9556;1.6714;
348.9000;0.9540;1.6714;
349.2000;0.9540;1.6664;
349.5000;0.9532;1.6714;
349.8000;0.9556;1.6714;
350.1000;0.9540;1.6664;
350.4000;0.9581;1.6740;
350.7000;0.9532;1.6562;
351.0000;0.9467;1.6385;
351.3000;0.9540;1.6613;
351.6000;0.9532;1.6562;
351.9000;0.9532;1.6562;
352.2000;0.9532;1.6664;
352.5000;0.9532;1.6613;
352.8000;0.9540;1.6664;
353.1000;0.9524;1.6689;
353.4000;0.9540;1.6765;
353.7000;0.9548;1.6841;
354.0000;0.9548;1.6790;
354.3000;0.9540;1.6740;
354.6000;0.9540;1.6816;
354.9000;0.9516;1.6790;
355.2000;0.9532;1.6866;
355.5000;0.9516;1.6740;
355.8000;0.9508;1.6765;
356.1000;0.9524;1.6790;
356.4000;0.9532;1.6841;
356.7000;0.9532;1.6841;
357.0000;0.9516;1.6816;
357.3000;0.9532;1.6917;
357.6000;0.9540;1.6892;
357.9000;0.9548;1.6866;
358.2000;0.9532;1.6790;
358.5000;0.9556;1.6841;
358.8000;0.9678;1.7222;
359.1000;0.9548;1.6816;
359.4000;0.9556;1.6765;
359.7000;0.9532;1.6689;
360.0000;0.9548;1.6714;
360.3000;0.9491;1.6689;
360.6000;0.9524;1.6790;
360.9000;0.9540;1.6866;
361.2000;0.9524;1.6866;
361.5000;0.9540;1.6968;
361.8000;0.9524;1.6968;
362.1000;0.9524;1.6968;
362.4000;0.9540;1.7044;
362.7000;0.9540;1.6943;
363.0000;0.9524;1.6866;
363.3000;0.9499;1.6892;
363.6000;0.9540;1.6968;
363.9000;0.9483;1.6740;
364.2000;0.9548;1.6841;
364.5000;0.9548;1.6790;
364.8000;0.9548;1.6714;
365.1000;0.9434;1.6486;
365.4000;0.9548;1.6613;
365.7000;0.9426;1.6334;
366.0000;0.9524;1.6613;
366.3000;0.9548;1.6714;
366.6000;0.9532;1.6613;
366.9000;0.9475;1.6359;
367.2000;0.9532;1.6562;
367.5000;0.9532;1.6537;
367.8000;0.9548;1.6511;
368.1000;0.9516;1.6461;
368.4000;0.9556;1.6562;
368.7000;0.9548;1.6587;
369.0000;0.9565;1.6562;
369.3000;0.9573;1.6613;
369.6000;0.9565;1.6562;
369.9000;0.9548;1.6562;
370.2000;0.9516;1.6486;
370.5000;0.9589;1.6714;
370.8000;0.9532;1.6435;
371.1000;0.9548;1.6410;
371.4000;0.9524;1.6435;
371.7000;0.9573;1.6638;
372.0000;0.9556;1.6689;
372.3000;0.9548;1.6689;
372.6000;0.9532;1.6638;
372.9000;0.9426;1.6308;
373.2000;0.9540;1.6587;
373.5000;0.9565;1.6689;
373.8000;0.9483;1.6613;
374.1000;0.9540;1.6765;
374.4000;0.9516;1.6740;
374.7000;0.9524;1.6765;
375.0000;0.9524;1.6841;
375.3000;0.9516;1.6892;
375.6000;0.9540;1.6917;
375.9000;0.9532;1.6740;
376.2000;0.9548;1.6740;
376.5000;0.9548;1.6790;
376.8000;0.9532;1.6866;
377.1000;0.9532;1.6866;
377.4000;0.9532;1.6943;
377.7000;0.9540;1.6968;
378.0000;0.9540;1.7069;
378.3000;0.9556;1.7069;
378.6000;0.9499;1.6917;
378.9000;0.9508;1.6892;
379.2000;0.9540;1.6943;
379.5000;0.9548;1.6892;
379.8000;0.9516;1.6841;
380.1000;0.9548;1.6866;
380.4000;0.9532;1.6892;
380.7000;0.9556;1.6943;
381.0000;0.9491;1.6866;
381.3000;0.9548;1.7069;
381.6000;0.9532;1.6993;
381.9000;0.9524;1.6943;
382.2000;0.9524;1.6943;
382.5000;0.9540;1.6993;
382.8000;0.9516;1.6968;
383.1000;0.9524;1.6968;
383.4000;0.9524;1.6841;
383.7000;0.9573;1.7044;
384.0000;0.9508;1.6892;
384.3000;0.9532;1.6943;
384.6000;0.9646;1.7196;
384.9000;0.9532;1.6816;
385.2000;0.9532;1.6841;
385.5000;0.9442;1.6562;
385.8000;0.9524;1.6790;
386.1000;0.9499;1.6689;
386.4000;0.9467;1.6714;
386.7000;0.9491;1.6790;
387.0000;0.9573;1.7069;
387.3000;0.9524;1.7095;
387.6000;0.9540;1.7069;
387.9000;0.9581;1.7095;
388.2000;0.9524;1.6968;
388.5000;0.9532;1.6993;
388.8000;0.9548;1.6968;
389.1000;0.9540;1.7019;
389.4000;0.9597;1.7222;
389.7000;0.9532;1.7171;
390.0000;0.9556;1.7196;
390.3000;0.9540;1.7069;
390.6000;0.9516;1.7019;
390.9000;0.9548;1.6993;
391.2000;0.9540;1.6968;
391.5000;0.9516;1.6892;
391.8000;0.9556;1.6943;
392.1000;0.9540;1.6917;
392.4000;0.9573;1.7019;
392.7000;0.9516;1.6790;
393.0000;0.9532;1.6866;
393.3000;0.9540;1.6892;
393.6000;0.9556;1.6841;
393.9000;0.9540;1.6866;
394.2000;0.9540;1.6866;
394.5000;0.9556;1.6943;
394.8000;0.9540;1.6943;
395.1000;0.9524;1.6993;
395.4000;0.9508;1.6943;
395.7000;0.9467;1.6866;
396.0000;0.9532;1.7019;
396.3000;0.9540;1.6993;
396.6000;0.9573;1.7044;
396.9000;0.9540;1.6968;
397.2000;0.9540;1.6892;
397.5000;0.9638;1.7044;
397.8000;0.9605;1.6917;
398.1000;0.9548;1.6740;
398.4000;0.9565;1.6765;
398.7000;0.9532;1.6740;
399.0000;0.9540;1.6689;
399.3000;0.9581;1.6816;
399.6000;0.9540;1.6740;
399.9000;0.9524;1.6765;
400.2000;0.9524;1.6892;
400.5000;0.9516;1.6816;
400.8000;0.9589;1.7044;
401.1000;0.9483;1.6765;
401.4000;0.9508;1.6866;
401.7000;0.9540;1.6892;
402.0000;0.9418;1.6587;
402.3000;0.9532;1.6943;
402.6000;0.9548;1.6917;
402.9000;0.9532;1.6892;
403.2000;0.9605;1.7095;
403.5000;0.9459;1.6740;
403.8000;0.9532;1.6892;
404.1000;0.9524;1.6816;
404.4000;0.9516;1.6740;
404.7000;0.9508;1.6714;
405.0000;0.9532;1.6740;
405.3000;0.9524;1.6664;
405.6000;0.9613;1.6866;
405.9000;0.9540;1.6587;
406.2000;0.9540;1.6613;
406.5000;0.9524;1.6613;
406.8000;0.9548;1.6714;
407.1000;0.9524;1.6714;
407.4000;0.9532;1.6740;
407.7000;0.9548;1.6790;
408.0000;0.9556;1.6816;
408.3000;0.9491;1.6664;
408.6000;0.9499;1.6562;
408.9000;0.9524;1.6740;
409.2000;0.9540;1.6816;
409.5000;0.9548;1.6841;
409.8000;0.9524;1.6841;
410.1000;0.9548;1.6816;
410.4000;0.9524;1.6790;
410.7000;0.9499;1.6740;
411.0000;0.9516;1.6689;
411.3000;0.9516;1.6638;
411.6000;0.9516;1.6664;
411.9000;0.9524;1.6689;
412.2000;0.9532;1.6638;
412.5000;0.9548;1.6664;
412.8000;0.9540;1.6689;
413.1000;0.9532;1.6664;
413.4000;0.9540;1.6638;
413.7000;0.9548;1.6562;
414.0000;0.9532;1.6587;
414.3000;0.9548;1.6638;
414.6000;0.9540;1.6613;
414.9000;0.9524;1.6562;
415.2000;0.9597;1.6562;
415.5000;0.9540;1.6410;
415.8000;0.9524;1.6334;
416.1000;0.9532;1.6385;
416.4000;0.9540;1.6461;
416.7000;0.9524;1.6385;
417.0000;0.9613;1.6613;
417.3000;0.9548;1.6435;
417.6000;0.9532;1.6435;
417.9000;0.9556;1.6587;
418.2000;0.9532;1.6486;
418.5000;0.9532;1.6461;
418.8000;0.9540;1.6486;
419.1000;0.9654;1.6689;
419.4000;0.9516;1.6334;
419.7000;0.9540;1.6486;
420.0000;0.9524;1.6486;
420.3000;0.9475;1.6308;
420.6000;0.9483;1.6359;
420.9000;0.9532;1.6562;
421.2000;0.9524;1.6613;
421.5000;0.9516;1.6714;
421.8000;0.9516;1.6664;
422.1000;0.9524;1.6613;
422.4000;0.9548;1.6714;
422.7000;0.9532;1.6740;
423.0000;0.9532;1.6714;
423.3000;0.9524;1.6613;
423.6000;0.9540;1.6664;
423.9000;0.9540;1.6689;
424.2000;0.9532;1.6537;
424.5000;0.9532;1.6562;
424.8000;0.9524;1.6537;
425.1000;0.9524;1.6638;
425.4000;0.9540;1.6638;
425.7000;0.9516;1.6562;
426.0000;0.9516;1.6613;
426.3000;0.9532;1.6714;
426.6000;0.9499;1.6689;
426.9000;0.9516;1.6765;
427.2000;0.9516;1.6816;
427.5000;0.9524;1.6816;
427.8000;0.9540;1.6816;
428.1000;0.9524;1.6714;
428.4000;0.9524;1.6638;
428.7000;0.9548;1.6613;
429.0000;0.9548;1.6664;
429.3000;0.9540;1.6714;
429.6000;0.9524;1.6613;
429.9000;0.9459;1.6461;
430.2000;0.9532;1.6664;
430.5000;0.9499;1.6689;
430.8000;0.9499;1.6714;
431.1000;0.9524;1.6790;
431.4000;0.9548;1.6816;
431.7000;0.9540;1.6790;
432.0000;0.9516;1.6765;
432.3000;0.9540;1.6765;
432.6000;0.9524;1.6765;
432.9000;0.9532;1.6816;
433.2000;0.9548;1.6866;
433.5000;0.9508;1.6790;
433.8000;0.9540;1.6816;
434.1000;0.9532;1.6841;
434.4000;0.9532;1.6841;
434.7000;0.9524;1.6790;
435.0000;0.9516;1.6790;
435.3000;0.9524;1.6841;
435.6000;0.9524;1.6892;
435.9000;0.9516;1.6816;
436.2000;0.9499;1.6790;
436.5000;0.9524;1.6816;
436.8000;0.9532;1.6765;
437.1000;0.9516;1.6714;
437.4000;0.9532;1.6765;
437.7000;0.9548;1.6841;
438.0000;0.9532;1.6765;
438.3000;0.9556;1.6841;
438.6000;0.9548;1.6816;
438.9000;0.9540;1.6790;
439.2000;0.9565;1.6892;
439.5000;0.9540;1.6917;
439.8000;0.9548;1.6892;
440.1000;0.9565;1.6892;
440.4000;0.9524;1.6740;
440.7000;0.9540;1.6638;
441.0000;0.9524;1.6689;
441.3000;0.9524;1.6664;
441.6000;0.9499;1.6537;
441.9000;0.9532;1.6664;
442.2000;0.9524;1.6714;
442.5000;0.9524;1.6866;
442.8000;0.9524;1.6841;
443.1000;0.9548;1.6816;
443.4000;0.9540;1.6740;
443.7000;0.9524;1.6765;
444.0000;0.9540;1.6790;
444.3000;0.9540;1.6765;
444.6000;0.9524;1.6740;
444.9000;0.9524;1.6689;
445.2000;0.9548;1.6664;
445.5000;0.9532;1.6664;
445.8000;0.9540;1.6664;
446.1000;0.9540;1.6562;
446.4000;0.9540;1.6613;
446.7000;0.9548;1.6587;
447.0000;0.9532;1.6537;
447.3000;0.9524;1.6486;
447.6000;0.9540;1.6435;
447.9000;0.9556;1.6461;
448.2000;0.9540;1.6435;
448.5000;0.9540;1.6486;
448.8000;0.9532;1.6613;
449.1000;0.9540;1.6613;
449.4000;0.9548;1.6638;
449.7000;0.9532;1.6638;
450.0000;0.9524;1.6638;
450.3000;0.9532;1.6613;
450.6000;0.9548;1.6511;
450.9000;0.9524;1.6511;
451.2000;0.9532;1.6587;
451.5000;0.9532;1.6613;
451.8000;0.9540;1.6638;
452.1000;0.9532;1.6613;
452.4000;0.9532;1.6587;
452.7000;0.9548;1.6537;
453.0000;0.9540;1.6486;
453.3000;0.9540;1.6537;
453.6000;0.9532;1.6486;
453.9000;0.9508;1.6461;
454.2000;0.9573;1.6562;
454.5000;0.9540;1.6613;
454.8000;0.9532;1.6613;
455.1000;0.9548;1.6664;
455.4000;0.9540;1.6638;
455.7000;0.9524;1.6511;
456.0000;0.9516;1.6410;
456.3000;0.9524;1.6461;
456.6000;0.9499;1.6511;
456.9000;0.9540;1.6664;
457.2000;0.9524;1.6664;
457.5000;0.9516;1.6689;
457.8000;0.9524;1.6689;
458.1000;0.9516;1.6587;
458.4000;0.9532;1.6613;
458.7000;0.9516;1.6613;
459.0000;0.9524;1.6638;
459.3000;0.9524;1.6587;
459.6000;0.9508;1.6587;
459.9000;0.9532;1.6638;
460.2000;0.9532;1.6562;
460.5000;0.9524;1.6461;
460.8000;0.9532;1.6435;
461.1000;0.9524;1.6461;
461.4000;0.9434;1.6258;
461.7000;0.9532;1.6435;
462.0000;0.9573;1.6537;
462.3000;0.9589;1.6537;
462.6000;0.9540;1.6461;
462.9000;0.9532;1.6410;
463.2000;0.9451;1.6283;
463.5000;0.9548;1.6562;
463.8000;0.9540;1.6511;
464.1000;0.9532;1.6486;
464.4000;0.9548;1.6587;
464.7000;0.9540;1.6562;
465.0000;0.9524;1.6638;
465.3000;0.9524;1.6740;
465.6000;0.9524;1.6765;
465.9000;0.9516;1.6740;
466.2000;0.9573;1.6892;
466.5000;0.9532;1.6816;
466.8000;0.9524;1.6765;
467.1000;0.9524;1.6790;
467.4000;0.9540;1.6866;
467.7000;0.9524;1.6892;
468.0000;0.9532;1.6866;
468.3000;0.9540;1.6790;
468.6000;0.9532;1.6740;
468.9000;0.9516;1.6689;
469.2000;0.9524;1.6714;
469.5000;0.9532;1.6638;
469.8000;0.9508;1.6664;
470.1000;0.9524;1.6664;
470.4000;0.9532;1.6664;
470.7000;0.9508;1.6511;
471.0000;0.9573;1.6714;
471.3000;0.9524;1.6613;
471.6000;0.9516;1.6613;
471.9000;0.9532;1.6638;
472.2000;0.9524;1.6613;
472.5000;0.9524;1.6587;
472.8000;0.9548;1.6638;
473.1000;0.9540;1.6638;
473.4000;0.9532;1.6587;
473.7000;0.9540;1.6664;
474.0000;0.9556;1.6638;
474.3000;0.9565;1.6638;
474.6000;0.9548;1.6664;
474.9000;0.9540;1.6790;
475.2000;0.9532;1.6790;
475.5000;0.9524;1.6841;
475.8000;0.9540;1.6943;
476.1000;0.9540;1.6917;
476.4000;0.9524;1.6790;
476.7000;0.9532;1.6765;
477.0000;0.9532;1.6689;
477.3000;0.9548;1.6740;
477.6000;0.9532;1.6714;
477.9000;0.9548;1.6816;
478.2000;0.9540;1.6765;
478.5000;0.9548;1.6740;
478.8000;0.9532;1.6740;
479.1000;0.9532;1.6740;
479.4000;0.9532;1.6689;
479.7000;0.9508;1.6638;
480.0000;0.9516;1.6689;
480.3000;0.9516;1.6664;
480.6000;0.9532;1.6638;
480.9000;0.9516;1.6562;
481.2000;0.9540;1.6689;
481.5000;0.9524;1.6664;
481.8000;0.9524;1.6689;
482.1000;0.9532;1.6638;
482.4000;0.9402;1.6385;
482.7000;0.9516;1.6664;
483.0000;0.9556;1.6765;
483.3000;0.9548;1.6765;
483.6000;0.9524;1.6740;
483.9000;0.9532;1.6740;
484.2000;0.9540;1.6841;
484.5000;0.9540;1.6917;
484.8000;0.9532;1.6943;
485.1000;0.9532;1.6917;
485.4000;0.9540;1.6841;
485.7000;0.9540;1.6765;
486.0000;0.9548;1.6841;
486.3000;0.9532;1.6689;
486.6000;0.9548;1.6714;
486.9000;0.9475;1.6562;
487.2000;0.9540;1.6714;
487.5000;0.9540;1.6714;
487.8000;0.9589;1.6841;
488.1000;0.9532;1.6765;
488.4000;0.9524;1.6816;
488.7000;0.9516;1.6816;
489.0000;0.9442;1.6587;
489.3000;0.9654;1.7095;
489.6000;0.9524;1.6816;
489.9000;0.9565;1.6816;
490.2000;0.9524;1.6740;
490.5000;0.9491;1.6689;
490.8000;0.9532;1.6790;
491.1000;0.9540;1.6714;
491.4000;0.9524;1.6714;
491.7000;0.9532;1.6714;
492.0000;0.9524;1.6664;
492.3000;0.9548;1.6740;
492.6000;0.9548;1.6740;
492.9000;0.9605;1.6841;
493.2000;0.9524;1.6638;
493.5000;0.9540;1.6638;
493.8000;0.9573;1.6740;
494.1000;0.9524;1.6740;
494.4000;0.9532;1.6765;
494.7000;0.9516;1.6816;
495.0000;0.9475;1.6765;
495.3000;0.9516;1.6866;
495.6000;0.9540;1.6866;
495.9000;0.9540;1.6866;
496.2000;0.9605;1.6993;
496.5000;0.9565;1.6866;
496.8000;0.9532;1.6765;
497.1000;0.9524;1.6765;
497.4000;0.9548;1.6917;
497.7000;0.9540;1.6816;
498.0000;0.9508;1.6790;
498.3000;0.9556;1.6943;
498.6000;0.9556;1.6892;
498.9000;0.9540;1.6917;
499.2000;0.9532;1.6917;
499.5000;0.9532;1.6892;
499.8000;0.9508;1.6841;
500.1000;0.9540;1.6816;
500.4000;0.9589;1.6993;
500.7000;0.9573;1.6968;
501.0000;0.9589;1.7044;
501.3000;0.9532;1.6892;
501.6000;0.9524;1.6968;
501.9000;0.9524;1.6917;
502.2000;0.9532;1.6943;
502.5000;0.9540;1.7019;
502.8000;0.9524;1.6993;
503.1000;0.9508;1.6892;
503.4000;0.9540;1.6892;
503.7000;0.9524;1.6841;
504.0000;0.9524;1.6816;
504.3000;0.9483;1.6714;
504.6000;0.9499;1.6714;
504.9000;0.9508;1.6613;
505.2000;0.9516;1.6664;
505.5000;0.9581;1.6790;
505.8000;0.9524;1.6587;
506.1000;0.9524;1.6562;
506.4000;0.9499;1.6435;
506.7000;0.9524;1.6562;
507.0000;0.9524;1.6587;
507.3000;0.9516;1.6689;
507.6000;0.9548;1.6816;
507.9000;0.9491;1.6740;
508.2000;0.9508;1.6790;
508.5000;0.9499;1.6714;
508.8000;0.9532;1.6790;
509.1000;0.9524;1.6790;
509.4000;0.9540;1.6841;
509.7000;0.9532;1.6816;
510.0000;0.9499;1.6740;
510.3000;0.9532;1.6816;
510.6000;0.9516;1.6740;
510.9000;0.9516;1.6714;
511.2000;0.9508;1.6689;
511.5000;0.9467;1.6562;
511.8000;0.9556;1.6841;
512.1000;0.9556;1.6841;
512.4000;0.9499;1.6714;
512.7000;0.9524;1.6816;
513.0000;0.9532;1.6790;
513.3000;0.9532;1.6841;
513.6000;0.9516;1.6892;
513.9000;0.9540;1.6943;
514.2000;0.9532;1.6866;
514.5000;0.9540;1.6892;
514.8000;0.9532;1.6892;
515.1000;0.9532;1.6892;
515.4000;0.9540;1.6917;
515.7000;0.9508;1.6765;
516.0000;0.9613;1.7095;
516.3000;0.9532;1.6917;
516.6000;0.9548;1.6866;
516.9000;0.9540;1.6892;
517.2000;0.9491;1.6816;
517.5000;0.9524;1.6943;
517.8000;0.9516;1.6866;
518.1000;0.9451;1.6689;
518.4000;0.9524;1.6841;
518.7000;0.9532;1.6968;
519.0000;0.9532;1.6993;
519.3000;0.9516;1.6917;
519.6000;0.9508;1.6892;
519.9000;0.9540;1.6790;
520.2000;0.9565;1.6740;
520.5000;0.9565;1.6765;
520.8000;0.9410;1.6410;
521.1000;0.9516;1.6638;
521.4000;0.9499;1.6511;
521.7000;0.9532;1.6613;
522.0000;0.9532;1.6562;
522.3000;0.9516;1.6537;
522.6000;0.9532;1.6613;
522.9000;0.9524;1.6664;
523.2000;0.9508;1.6587;
523.5000;0.9516;1.6537;
523.8000;0.9532;1.6638;
524.1000;0.9499;1.6664;
524.4000;0.9516;1.6664;
524.7000;0.9548;1.6638;
525.0000;0.9540;1.6664;
525.3000;0.9548;1.6790;
525.6000;0.9548;1.6866;
525.9000;0.9524;1.6816;
526.2000;0.9532;1.6765;
526.5000;0.9540;1.6689;
526.8000;0.9524;1.6613;
527.1000;0.9524;1.6638;
527.4000;0.9516;1.6587;
527.7000;0.9524;1.6613;
528.0000;0.9524;1.6714;
528.3000;0.9491;1.6714;
528.6000;0.9516;1.6790;
528.9000;0.9516;1.6765;
529.2000;0.9548;1.6765;
529.5000;0.9524;1.6664;
529.8000;0.9540;1.6714;
530.1000;0.9540;1.6714;
530.4000;0.9532;1.6816;
530.7000;0.9532;1.6892;
531.0000;0.9516;1.6765;
531.3000;0.9524;1.6841;
531.6000;0.9516;1.6790;
531.9000;0.9516;1.6866;
532.2000;0.9475;1.6714;
532.5000;0.9524;1.6689;
532.8000;0.9532;1.6613;
533.1000;0.9434;1.6410;
533.4000;0.9524;1.6511;
533.7000;0.9516;1.6587;
534.0000;0.9524;1.6638;
534.3000;0.9540;1.6664;
534.6000;0.9573;1.6765;
534.9000;0.9524;1.6664;
535.2000;0.9499;1.6587;
535.5000;0.9516;1.6587;
535.8000;0.9516;1.6664;
536.1000;0.9508;1.6714;
536.4000;0.9516;1.6638;
536.7000;0.9540;1.6689;
537.0000;0.9540;1.6689;
537.3000;0.9532;1.6740;
537.6000;0.9524;1.6714;
537.9000;0.9524;1.6689;
538.2000;0.9540;1.6765;
538.5000;0.9532;1.6689;
538.8000;0.9532;1.6740;
539.1000;0.9548;1.6816;
539.4000;0.9548;1.6790;
539.7000;0.9524;1.6790;
540.0000;0.9516;1.6740;
540.3000;0.9516;1.6740;
540.6000;0.9475;1.6689;
540.9000;0.9516;1.6866;
541.2000;0.9516;1.6790;
541.5000;0.9532;1.6765;
541.8000;0.9499;1.6714;
542.1000;0.9516;1.6664;
542.4000;0.9532;1.6816;
542.7000;0.9524;1.6866;
543.0000;0.9540;1.6943;
543.3000;0.9524;1.6993;
543.6000;0.9524;1.6968;
543.9000;0.9532;1.6993;
544.2000;0.9540;1.7044;
544.5000;0.9540;1.6917;
544.8000;0.9524;1.6841;
545.1000;0.9540;1.6866;
545.4000;0.9548;1.6816;
545.7000;0.9532;1.6790;
546.0000;0.9532;1.6740;
546.3000;0.9516;1.6841;
546.6000;0.9524;1.6892;
546.9000;0.9532;1.6841;
547.2000;0.9499;1.6689;
547.5000;0.9540;1.6841;
547.8000;0.9540;1.6892;
548.1000;0.9532;1.6993;
548.4000;0.9524;1.6790;
548.7000;0.9532;1.6765;
549.0000;0.9540;1.6790;
549.3000;0.9532;1.6765;
549.6000;0.9508;1.6740;
549.9000;0.9532;1.6866;
550.2000;0.9524;1.6790;
550.5000;0.9524;1.6790;
550.8000;0.9532;1.6816;
551.1000;0.9516;1.6765;
551.4000;0.9516;1.6740;
551.7000;0.9508;1.6765;
552.0000;0.9516;1.6866;
552.3000;0.9532;1.6968;
552.6000;0.9524;1.6917;
552.9000;0.9508;1.6968;
553.2000;0.9532;1.6943;
553.5000;0.9532;1.6816;
553.8000;0.9516;1.6765;
554.1000;0.9524;1.6740;
554.4000;0.9532;1.6740;
554.7000;0.9532;1.6664;
555.0000;0.9499;1.6486;
555.3000;0.9524;1.6587;
555.6000;0.9524;1.6613;
555.9000;0.9532;1.6638;
556.2000;0.9467;1.6435;
556.5000;0.9516;1.6537;
556.8000;0.9516;1.6511;
557.1000;0.9524;1.6486;
557.4000;0.9532;1.6587;
557.7000;0.9516;1.6613;
558.0000;0.9524;1.6689;
558.3000;0.9524;1.6714;
558.6000;0.9532;1.6714;
558.9000;0.9524;1.6765;
559.2000;0.9467;1.6638;
559.5000;0.9524;1.6816;
559.8000;0.9532;1.6765;
560.1000;0.9524;1.6816;
560.4000;0.9508;1.6689;
560.7000;0.9524;1.6740;
561.0000;0.9532;1.6740;
561.3000;0.9524;1.6689;
561.6000;0.9524;1.6816;
561.9000;0.9524;1.6917;
562.2000;0.9548;1.6917;
562.5000;0.9524;1.6943;
562.8000;0.9516;1.6866;
563.1000;0.9532;1.6943;
563.4000;0.9532;1.6917;
563.7000;0.9524;1.6917;
564.0000;0.9516;1.6765;
564.3000;0.9532;1.6765;
564.6000;0.9532;1.6714;
564.9000;0.9532;1.6638;
565.2000;0.9540;1.6613;
565.5000;0.9540;1.6664;
565.8000;0.9532;1.6613;
566.1000;0.9540;1.6689;
566.4000;0.9516;1.6714;
566.7000;0.9524;1.6765;
567.0000;0.9532;1.6866;
567.3000;0.9451;1.6689;
567.6000;0.9532;1.6841;
567.9000;0.9524;1.6790;
568.2000;0.9532;1.6816;
568.5000;0.9548;1.6841;
568.8000;0.9540;1.6765;
569.1000;0.9532;1.6765;
569.4000;0.9524;1.6664;
569.7000;0.9540;1.6689;
570.0000;0.9532;1.6664;
570.3000;0.9548;1.6613;
570.6000;0.9516;1.6587;
570.9000;0.9532;1.6689;
571.2000;0.9548;1.6790;
571.5000;0.9508;1.6740;
571.8000;0.9532;1.6765;
572.1000;0.9532;1.6790;
572.4000;0.9516;1.6714;
572.7000;0.9532;1.6740;
573.0000;0.9524;1.6664;
573.3000;0.9605;1.6917;
573.6000;0.9556;1.6714;
573.9000;0.9548;1.6689;
574.2000;0.9540;1.6740;
574.5000;0.9434;1.6562;
574.8000;0.9532;1.6892;
575.1000;0.9532;1.6892;
575.4000;0.9524;1.6943;
575.7000;0.9524;1.6968;
576.0000;0.9532;1.6993;
576.3000;0.9548;1.7044;
576.6000;0.9532;1.7044;
576.9000;0.9508;1.6993;
577.2000;0.9532;1.6968;
577.5000;0.9524;1.7019;
577.8000;0.9532;1.7019;
578.1000;0.9540;1.7069;
578.4000;0.9467;1.6841;
578.7000;0.9573;1.7069;
579.0000;0.9532;1.6968;
579.3000;0.9532;1.6993;
579.6000;0.9540;1.7069;
579.9000;0.9532;1.7069;
580.2000;0.9524;1.7069;
580.5000;0.9524;1.6917;
580.8000;0.9508;1.6892;
581.1000;0.9516;1.6917;
581.4000;0.9499;1.6866;
581.7000;0.9524;1.6866;
582.0000;0.9508;1.6816;
582.3000;0.9540;1.6917;
582.6000;0.9516;1.6892;
582.9000;0.9516;1.6841;
583.2000;0.9532;1.6740;
583.5000;0.9524;1.6816;
583.8000;0.9548;1.6816;
584.1000;0.9524;1.6714;
584.4000;0.9516;1.6638;
584.7000;0.9589;1.6917;
585.0000;0.9540;1.6790;
585.3000;0.9532;1.6740;
585.6000;0.9516;1.6714;
585.9000;0.9524;1.6740;
586.2000;0.9532;1.6765;
586.5000;0.9524;1.6790;
586.8000;0.9524;1.6740;
587.1000;0.9524;1.6740;
587.4000;0.9532;1.6765;
587.7000;0.9524;1.6790;
588.0000;0.9532;1.6740;
588.3000;0.9508;1.6664;
588.6000;0.9516;1.6638;
588.9000;0.9540;1.6714;
589.2000;0.9540;1.6765;
589.5000;0.9516;1.6714;
589.8000;0.9532;1.6816;
590.1000;0.9548;1.6866;
590.4000;0.9524;1.6892;
590.7000;0.9532;1.6943;
591.0000;0.9540;1.7019;
591.3000;0.9532;1.6993;
591.6000;0.9540;1.6892;
591.9000;0.9540;1.6866;
592.2000;0.9548;1.6841;
592.5000;0.9524;1.6816;
592.8000;0.9385;1.6486;
593.1000;0.9508;1.6841;
593.4000;0.9508;1.6740;
593.7000;0.9532;1.6765;
594.0000;0.9540;1.6917;
594.3000;0.9467;1.6689;
594.6000;0.9540;1.6740;
594.9000;0.9508;1.6638;
595.2000;0.9532;1.6664;
595.5000;0.9524;1.6689;
595.8000;0.9508;1.6765;
596.1000;0.9499;1.6689;
596.4000;0.9613;1.6892;
596.7000;0.9516;1.6714;
597.0000;0.9491;1.6714;
597.3000;0.9548;1.6866;
597.6000;0.9524;1.6816;
597.9000;0.9499;1.6740;
598.2000;0.9532;1.6816;
598.5000;0.9573;1.6917;
598.8000;0.9524;1.6816;
599.1000;0.9532;1.6892;
599.4000;0.9573;1.6892;
599.7000;0.9540;1.6816;
600.0000;0.9524;1.6866;
600.3000;0.9442;1.6486;
600.6000;0.9556;1.6486;
600.9000;0.9532;1.6232;
601.2000;0.9524;1.6106;
601.5000;0.9508;1.5827;
601.8000;0.9385;1.5269;
602.1000;0.9402;1.5167;
602.4000;0.9328;1.4964;
602.7000;0.9312;1.4812;
603.0000;0.9239;1.4584;
603.3000;0.9158;1.4203;
603.6000;0.9141;1.4127;
603.9000;0.9109;1.4026;
604.2000;0.9101;1.3924;
604.5000;0.9003;1.3671;
604.8000;0.9035;1.3645;
605.1000;0.9003;1.3569;
605.4000;0.9027;1.3595;
605.7000;0.8946;1.3366;
606.0000;0.8889;1.3290;
606.3000;0.8856;1.3240;
606.6000;0.8962;1.3442;
606.9000;0.8824;1.3138;
607.2000;0.8856;1.3265;
607.5000;0.8759;1.2986;
607.8000;0.8742;1.2884;
608.1000;0.8775;1.2961;
608.4000;0.8694;1.2834;
608.7000;0.8677;1.2859;
609.0000;0.8677;1.2834;
609.3000;0.8637;1.2732;
609.6000;0.8628;1.2732;
609.9000;0.8612;1.2707;
610.2000;0.8604;1.2732;
610.5000;0.8514;1.2479;
610.8000;0.8555;1.2605;
611.1000;0.8531;1.2580;
611.4000;0.8490;1.2529;
611.7000;0.8514;1.2631;
612.0000;0.8498;1.2580;
612.3000;0.8474;1.2555;
612.6000;0.8457;1.2555;
612.9000;0.8457;1.2555;
613.2000;0.8449;1.2529;
613.5000;0.8376;1.2326;
613.8000;0.8441;1.2479;
614.1000;0.8400;1.2326;
614.4000;0.8392;1.2250;
614.7000;0.8547;1.2580;
615.0000;0.8376;1.2124;
615.3000;0.8335;1.2073;
615.6000;0.8327;1.2124;
615.9000;0.8384;1.2352;
616.2000;0.8295;1.2149;
616.5000;0.8303;1.2174;
616.8000;0.8270;1.2073;
617.1000;0.8311;1.2200;
617.4000;0.8262;1.2022;
617.7000;0.8270;1.2047;
618.0000;0.8270;1.1997;
618.3000;0.8254;1.2073;
618.6000;0.8246;1.2022;
618.9000;0.8197;1.1971;
619.2000;0.8197;1.1971;
619.5000;0.8230;1.2098;
619.8000;0.8221;1.2149;
620.1000;0.8205;1.2149;
620.4000;0.8205;1.2225;
620.7000;0.8238;1.2276;
621.0000;0.8181;1.2073;
621.3000;0.8156;1.2098;
621.6000;0.8238;1.2377;
621.9000;0.8099;1.2022;
622.2000;0.8140;1.2073;
622.5000;0.8140;1.2098;
622.8000;0.8132;1.2047;
623.1000;0.8189;1.2225;
623.4000;0.8148;1.2149;
623.7000;0.8116;1.2174;
624.0000;0.8107;1.2124;
624.3000;0.8124;1.2098;
624.6000;0.8091;1.1946;
624.9000;0.8124;1.1946;
625.2000;0.8083;1.1870;
625.5000;0.8067;1.1921;
625.8000;0.8067;1.1921;
626.1000;0.8075;1.1921;
626.4000;0.8059;1.1895;
626.7000;0.8075;1.1971;
627.0000;0.8059;1.1971;
627.3000;0.8034;1.1997;
627.6000;0.8042;1.1997;
627.9000;0.8059;1.2047;
628.2000;0.8050;1.2149;
628.5000;0.8018;1.2073;
628.8000;0.8050;1.2174;
629.1000;0.8010;1.2047;
629.4000;0.8010;1.2047;
629.7000;0.8034;1.2098;
630.0000;0.8067;1.2174;
630.3000;0.8018;1.2047;
630.6000;0.8002;1.2098;
630.9000;0.8010;1.2149;
631.2000;0.7985;1.2047;
631.5000;0.7993;1.2073;
631.8000;0.7969;1.1895;
632.1000;0.7993;1.1971;
632.4000;0.7904;1.1768;
632.7000;0.7977;1.2047;
633.0000;0.7977;1.2098;
633.3000;0.7953;1.2073;
633.6000;0.7969;1.2124;
633.9000;0.7961;1.2022;
634.2000;0.7961;1.1946;
634.5000;0.8026;1.2149;
634.8000;0.7969;1.1895;
635.1000;0.7953;1.1845;
635.4000;0.7953;1.1870;
635.7000;0.7961;1.1895;
636.0000;0.7945;1.1895;
636.3000;0.7928;1.1921;
636.6000;0.7953;1.1997;
636.9000;0.7937;1.1870;
637.2000;0.7928;1.1845;
637.5000;0.7961;1.1895;
637.8000;0.7928;1.1819;
638.1000;0.7855;1.1566;
638.4000;0.7920;1.1819;
638.7000;0.7985;1.1971;
639.0000;0.7920;1.1743;
639.3000;0.7904;1.1667;
639.6000;0.7920;1.1743;
639.9000;0.7912;1.1743;
640.2000;0.7904;1.1743;
640.5000;0.7896;1.1743;
640.8000;0.7888;1.1692;
641.1000;0.7896;1.1692;
641.4000;0.7888;1.1616;
641.7000;0.7831;1.1540;
642.0000;0.7880;1.1768;
642.3000;0.7880;1.1870;
642.6000;0.7888;1.1971;
642.9000;0.7855;1.1870;
643.2000;0.7896;1.1997;
643.5000;0.7912;1.2022;
643.8000;0.7880;1.1895;
644.1000;0.7847;1.1768;
644.4000;0.7928;1.1997;
644.7000;0.7896;1.1895;
645.0000;0.7847;1.1768;
645.3000;0.7847;1.1718;
645.6000;0.7847;1.1692;
645.9000;0.7855;1.1718;
646.2000;0.7847;1.1743;
646.5000;0.7839;1.1743;
646.8000;0.7847;1.1768;
647.1000;0.7839;1.1743;
647.4000;0.7863;1.1794;
647.7000;0.7839;1.1743;
648.0000;0.7896;1.1971;
648.3000;0.7839;1.1819;
648.6000;0.7839;1.1819;
648.9000;0.7839;1.1819;
649.2000;0.7790;1.1692;
649.5000;0.7814;1.1870;
649.8000;0.7847;1.1946;
650.1000;0.7814;1.1946;
650.4000;0.7823;1.1997;
650.7000;0.7839;1.1971;
651.0000;0.7814;1.1819;
651.3000;0.7806;1.1768;
651.6000;0.7823;1.1819;
651.9000;0.7806;1.1794;
652.2000;0.7823;1.1819;
652.5000;0.7798;1.1743;
652.8000;0.7798;1.1667;
653.1000;0.7823;1.1667;
653.4000;0.7814;1.1591;
653.7000;0.7806;1.1743;
654.0000;0.7806;1.1819;
654.3000;0.7782;1.1743;
654.6000;0.7790;1.1794;
654.9000;0.7806;1.1870;
655.2000;0.7798;1.1819;
655.5000;0.7782;1.1794;
655.8000;0.7798;1.1895;
656.1000;0.7782;1.1794;
656.4000;0.7782;1.1794;
656.7000;0.7782;1.1718;
657.0000;0.7782;1.1642;
657.3000;0.7782;1.1642;
657.6000;0.7798;1.1718;
657.9000;0.7741;1.1591;
658.2000;0.7766;1.1616;
658.5000;0.7782;1.1768;
658.8000;0.7766;1.1768;
659.1000;0.7766;1.1768;
659.4000;0.7766;1.1768;
659.7000;0.7774;1.1743;
660.0000;0.7798;1.1819;
660.3000;0.7749;1.1768;
660.6000;0.7741;1.1718;
660.9000;0.7749;1.1794;
661.2000;0.7766;1.1768;
661.5000;0.7757;1.1743;
661.8000;0.7725;1.1743;
662.1000;0.7749;1.1743;
662.4000;0.7757;1.1845;
662.7000;0.7741;1.1743;
663.0000;0.7741;1.1667;
663.3000;0.7717;1.1616;
663.6000;0.7733;1.1667;
663.9000;0.7757;1.1718;
664.2000;0.7741;1.1667;
664.5000;0.7684;1.1616;
664.8000;0.7741;1.1718;
665.1000;0.7733;1.1743;
665.4000;0.7725;1.1692;
665.7000;0.7717;1.1718;
666.0000;0.7725;1.1718;
666.3000;0.7741;1.1819;
666.6000;0.7717;1.1794;
666.9000;0.7717;1.1718;
667.2000;0.7717;1.1667;
667.5000;0.7741;1.1667;
667.8000;0.7717;1.1667;
668.1000;0.7733;1.1667;
668.4000;0.7717;1.1642;
668.7000;0.7741;1.1692;
669.0000;0.7733;1.1692;
669.3000;0.7741;1.1794;
669.6000;0.7733;1.1718;
669.9000;0.7709;1.1642;
670.2000;0.7741;1.1667;
670.5000;0.7717;1.1667;
670.8000;0.7709;1.1616;
671.1000;0.7700;1.1667;
671.4000;0.7700;1.1768;
671.7000;0.7725;1.1616;
672.0000;0.7717;1.1591;
672.3000;0.7692;1.1591;
672.6000;0.7725;1.1667;
672.9000;0.7709;1.1540;
673.2000;0.7725;1.1489;
673.5000;0.7709;1.1413;
673.8000;0.7700;1.1515;
674.1000;0.7717;1.1489;
674.4000;0.7692;1.1413;
674.7000;0.7692;1.1439;
675.0000;0.7635;1.1337;
675.3000;0.7709;1.1489;
675.6000;0.7684;1.1464;
675.9000;0.7692;1.1489;
676.2000;0.7684;1.1515;
676.5000;0.7684;1.1489;
676.8000;0.7692;1.1515;
677.1000;0.7684;1.1515;
677.4000;0.7676;1.1464;
677.7000;0.7684;1.1489;
678.0000;0.7684;1.1540;
678.3000;0.7676;1.1489;
678.6000;0.7692;1.1591;
678.9000;0.7668;1.1439;
679.2000;0.7684;1.1413;
679.5000;0.7684;1.1489;
679.8000;0.7676;1.1464;
680.1000;0.7668;1.1540;
680.4000;0.7676;1.1489;
680.7000;0.7660;1.1464;
681.0000;0.7660;1.1388;
681.3000;0.7668;1.1489;
681.6000;0.7709;1.1642;
681.9000;0.7668;1.1591;
682.2000;0.7660;1.1566;
682.5000;0.7652;1.1515;
682.8000;0.7668;1.1566;
683.1000;0.7668;1.1692;
683.4000;0.7717;1.1743;
683.7000;0.7635;1.1616;
684.0000;0.7643;1.1591;
684.3000;0.7660;1.1667;
684.6000;0.7643;1.1616;
684.9000;0.7643;1.1616;
685.2000;0.7684;1.1616;
685.5000;0.7643;1.1515;
685.8000;0.7562;1.1287;
686.1000;0.7643;1.1489;
686.4000;0.7627;1.1464;
686.7000;0.7676;1.1515;
687.0000;0.7660;1.1591;
687.3000;0.7643;1.1591;
687.6000;0.7668;1.1616;
687.9000;0.7652;1.1692;
688.2000;0.7668;1.1667;
688.5000;0.7652;1.1566;
688.8000;0.7643;1.1439;
689.1000;0.7652;1.1515;
689.4000;0.7643;1.1464;
689.7000;0.7562;1.1337;
690.0000;0.7643;1.1718;
690.3000;0.7652;1.1616;
690.6000;0.7627;1.1515;
690.9000;0.7725;1.1591;
691.2000;0.7619;1.1388;
691.5000;0.7635;1.1363;
691.8000;0.7774;1.1794;
692.1000;0.7619;1.1413;
692.4000;0.7619;1.1388;
692.7000;0.7627;1.1439;
693.0000;0.7627;1.1540;
693.3000;0.7627;1.1566;
693.6000;0.7635;1.1642;
693.9000;0.7635;1.1616;
694.2000;0.7684;1.1768;
694.5000;0.7627;1.1667;
694.8000;0.7627;1.1642;
695.1000;0.7619;1.1566;
695.4000;0.7643;1.1591;
695.7000;0.7635;1.1692;
696.0000;0.7627;1.1616;
696.3000;0.7595;1.1591;
696.6000;0.7619;1.1692;
696.9000;0.7619;1.1591;
697.2000;0.7619;1.1566;
697.5000;0.7603;1.1464;
697.8000;0.7611;1.1566;
698.1000;0.7635;1.1692;
698.4000;0.7595;1.1642;
698.7000;0.7603;1.1616;
699.0000;0.7627;1.1692;
699.3000;0.7619;1.1692;
699.6000;0.7611;1.1667;
699.9000;0.7521;1.1388;
700.2000;0.7611;1.1616;
700.5000;0.7611;1.1718;
700.8000;0.7611;1.1667;
701.1000;0.7595;1.1743;
701.4000;0.7611;1.1845;
701.7000;0.7554;1.1642;
702.0000;0.7595;1.1692;
702.3000;0.7603;1.1768;
702.6000;0.7586;1.1642;
702.9000;0.7627;1.1692;
703.2000;0.7627;1.1718;
703.5000;0.7611;1.1743;
703.8000;0.7603;1.1870;
704.1000;0.7595;1.1845;
704.4000;0.7595;1.1845;
704.7000;0.7595;1.1895;
705.0000;0.7578;1.1895;
705.3000;0.7570;1.1946;
705.6000;0.7586;1.1971;
705.9000;0.7586;1.1921;
706.2000;0.7586;1.1870;
706.5000;0.7578;1.1845;
706.8000;0.7570;1.1743;
707.1000;0.7570;1.1768;
707.4000;0.7586;1.1845;
707.7000;0.7530;1.1743;
708.0000;0.7578;1.1768;
708.3000;0.7595;1.1743;
708.6000;0.7595;1.1667;
708.9000;0.7570;1.1642;
709.2000;0.7570;1.1667;
709.5000;0.7611;1.1794;
709.8000;0.7595;1.1616;
710.1000;0.7595;1.1566;
710.4000;0.7586;1.1540;
710.7000;0.7586;1.1540;
711.0000;0.7643;1.1642;
711.3000;0.7619;1.1515;
711.6000;0.7586;1.1413;
711.9000;0.7595;1.1363;
712.2000;0.7586;1.1388;
712.5000;0.7627;1.1540;
712.8000;0.7595;1.1439;
713.1000;0.7603;1.1515;
713.4000;0.7595;1.1591;
713.7000;0.7586;1.1718;
714.0000;0.7595;1.1794;
714.3000;0.7570;1.1692;
714.6000;0.7578;1.1768;
714.9000;0.7643;1.1997;
715.2000;0.7562;1.1794;
715.5000;0.7578;1.1768;
715.8000;0.7538;1.1642;
716.1000;0.7635;1.1895;
716.4000;0.7570;1.1819;
716.7000;0.7578;1.1870;
717.0000;0.7692;1.2200;
717.3000;0.7586;1.1921;
717.6000;0.7595;1.1921;
717.9000;0.7473;1.1566;
718.2000;0.7562;1.1667;
718.5000;0.7603;1.1692;
718.8000;0.7578;1.1566;
719.1000;0.7570;1.1489;
719.4000;0.7546;1.1566;
719.7000;0.7554;1.1566;
720.0000;0.7546;1.1591;
720.3000;0.7546;1.1591;
720.6000;0.7570;1.1768;
720.9000;0.7562;1.1819;
721.2000;0.7530;1.1768;
721.5000;0.7538;1.1743;
721.8000;0.7603;1.1768;
722.1000;0.7562;1.1768;
722.4000;0.7570;1.1819;
722.7000;0.7619;1.1845;
723.0000;0.7562;1.1667;
723.3000;0.7562;1.1616;
723.6000;0.7562;1.1642;
723.9000;0.7562;1.1692;
724.2000;0.7489;1.1591;
724.5000;0.7497;1.1718;
724.8000;0.7586;1.1870;
725.1000;0.7546;1.1768;
725.4000;0.7554;1.1743;
725.7000;0.7578;1.1768;
726.0000;0.7570;1.1718;
726.3000;0.7554;1.1667;
726.6000;0.7546;1.1667;
726.9000;0.7562;1.1718;
727.2000;0.7554;1.1667;
727.5000;0.7546;1.1667;
727.8000;0.7530;1.1642;
728.1000;0.7562;1.1768;
728.4000;0.7562;1.1768;
728.7000;0.7530;1.1692;
729.0000;0.7546;1.1692;
729.3000;0.7546;1.1667;
729.6000;0.7416;1.1388;
729.9000;0.7513;1.1718;
730.2000;0.7530;1.1768;
730.5000;0.7505;1.1692;
730.8000;0.7562;1.1845;
731.1000;0.7676;1.2174;
731.4000;0.7521;1.1870;
731.7000;0.7546;1.1870;
732.0000;0.7497;1.1718;
732.3000;0.7546;1.1870;
732.6000;0.7538;1.1819;
732.9000;0.7489;1.1692;
733.2000;0.7521;1.1794;
733.5000;0.7530;1.1692;
733.8000;0.7546;1.1743;
734.1000;0.7521;1.1718;
734.4000;0.7505;1.1591;
734.7000;0.7538;1.1540;
735.0000;0.7530;1.1591;
735.3000;0.7538;1.1667;
735.6000;0.7505;1.1515;
735.9000;0.7505;1.1413;
736.2000;0.7538;1.1566;
736.5000;0.7586;1.1692;
736.8000;0.7530;1.1591;
737.1000;0.7521;1.1616;
737.4000;0.7530;1.1642;
737.7000;0.7554;1.1718;
738.0000;0.7505;1.1692;
738.3000;0.7513;1.1794;
738.6000;0.7513;1.1768;
738.9000;0.7668;1.2200;
739.2000;0.7489;1.1718;
739.5000;0.7530;1.1794;
739.8000;0.7538;1.1895;
740.1000;0.7578;1.1946;
740.4000;0.7546;1.1870;
740.7000;0.7513;1.1743;
741.0000;0.7570;1.1845;
741.3000;0.7505;1.1794;
741.6000;0.7505;1.1743;
741.9000;0.7473;1.1768;
742.2000;0.7530;1.1895;
742.5000;0.7497;1.1794;
742.8000;0.7538;1.1794;
743.1000;0.7554;1.1895;
743.4000;0.7538;1.1845;
743.7000;0.7513;1.1718;
744.0000;0.7538;1.1768;
744.3000;0.7513;1.1794;
744.6000;0.7538;1.1819;
744.9000;0.7530;1.1768;
745.2000;0.7538;1.1845;
745.5000;0.7538;1.1946;
745.8000;0.7521;1.1819;
746.1000;0.7530;1.1794;
746.4000;0.7530;1.1819;
746.7000;0.7521;1.1819;
747.0000;0.7521;1.1794;
747.3000;0.7481;1.1718;
747.6000;0.7538;1.1768;
747.9000;0.7538;1.1743;
748.2000;0.7473;1.1667;
748.5000;0.7513;1.1845;
748.8000;0.7513;1.1921;
749.1000;0.7627;1.2149;
749.4000;0.7456;1.1845;
749.7000;0.7497;1.1946;
750.0000;0.7513;1.1997;
750.3000;0.7489;1.1946;
750.6000;0.7497;1.1895;
750.9000;0.7481;1.1845;
751.2000;0.7505;1.1921;
751.5000;0.7521;1.2022;
751.8000;0.7513;1.1971;
752.1000;0.7497;1.1870;
752.4000;0.7489;1.1845;
752.7000;0.7513;1.1845;
753.0000;0.7513;1.1870;
753.3000;0.7554;1.1870;
753.6000;0.7505;1.1743;
753.9000;0.7513;1.1718;
754.2000;0.7521;1.1718;
754.5000;0.7497;1.1667;
754.8000;0.7505;1.1794;
755.1000;0.7489;1.1794;
755.4000;0.7505;1.1870;
755.7000;0.7513;1.1971;
756.0000;0.7497;1.1946;
756.3000;0.7473;1.1997;
756.6000;0.7513;1.2073;
756.9000;0.7473;1.1946;
757.2000;0.7489;1.1971;
757.5000;0.7497;1.1971;
757.8000;0.7505;1.1921;
758.1000;0.7481;1.1870;
758.4000;0.7497;1.1946;
758.7000;0.7595;1.2225;
759.0000;0.7497;1.1895;
759.3000;0.7505;1.1895;
759.6000;0.7464;1.1692;
759.9000;0.7489;1.1718;
760.2000;0.7513;1.1743;
760.5000;0.7489;1.1616;
760.8000;0.7513;1.1743;
761.1000;0.7505;1.1718;
761.4000;0.7481;1.1718;
761.7000;0.7489;1.1768;
762.0000;0.7513;1.1794;
762.3000;0.7505;1.1642;
762.6000;0.7497;1.1667;
762.9000;0.7505;1.1743;
763.2000;0.7497;1.1743;
763.5000;0.7489;1.1743;
763.8000;0.7521;1.1768;
764.1000;0.7505;1.1616;
764.4000;0.7481;1.1540;
764.7000;0.7489;1.1515;
765.0000;0.7497;1.1515;
765.3000;0.7497;1.1464;
765.6000;0.7489;1.1464;
765.9000;0.7497;1.1515;
766.2000;0.7464;1.1439;
766.5000;0.7481;1.1388;
766.8000;0.7497;1.1464;
767.1000;0.7481;1.1464;
767.4000;0.7473;1.1515;
767.7000;0.7505;1.1642;
768.0000;0.7489;1.1540;
768.3000;0.7489;1.1591;
768.6000;0.7375;1.1363;
768.9000;0.7554;1.1895;
769.2000;0.7505;1.1794;
769.5000;0.7489;1.1819;
769.8000;0.7473;1.1743;
770.1000;0.7505;1.1768;
770.4000;0.7473;1.1718;
770.7000;0.7383;1.1413;
771.0000;0.7424;1.1515;
771.3000;0.7489;1.1768;
771.6000;0.7481;1.1845;
771.9000;0.7489;1.1895;
772.2000;0.7481;1.1895;
772.5000;0.7464;1.1946;
772.8000;0.7489;1.1997;
773.1000;0.7497;1.1997;
773.4000;0.7497;1.1971;
773.7000;0.7481;1.1845;
774.0000;0.7489;1.1870;
774.3000;0.7497;1.1921;
774.6000;0.7489;1.1845;
774.9000;0.7473;1.1794;
775.2000;0.7456;1.1845;
775.5000;0.7497;1.2047;
775.8000;0.7489;1.1971;
776.1000;0.7473;1.1895;
776.4000;0.7464;1.1921;
776.7000;0.7489;1.1946;
777.0000;0.7505;1.1971;
777.3000;0.7603;1.2200;
777.6000;0.7481;1.1845;
777.9000;0.7473;1.1768;
778.2000;0.7554;1.1946;
778.5000;0.7489;1.1895;
778.8000;0.7489;1.1921;
779.1000;0.7464;1.1870;
779.4000;0.7473;1.1845;
779.7000;0.7481;1.1895;
780.0000;0.7481;1.1870;
780.3000;0.7481;1.1819;
780.6000;0.7489;1.1768;
780.9000;0.7473;1.1718;
781.2000;0.7473;1.1642;
781.5000;0.7440;1.1743;
781.8000;0.7481;1.1794;
782.1000;0.7473;1.1819;
782.4000;0.7489;1.1819;
782.7000;0.7497;1.1895;
783.0000;0.7464;1.1819;
783.3000;0.7440;1.1743;
783.6000;0.7497;1.1895;
783.9000;0.7473;1.1794;
784.2000;0.7497;1.1895;
784.5000;0.7481;1.1971;
784.8000;0.7481;1.1997;
785.1000;0.7456;1.2073;
785.4000;0.7481;1.2149;
785.7000;0.7407;1.1845;
786.0000;0.7464;1.1895;
786.3000;0.7489;1.1895;
786.6000;0.7456;1.1743;
786.9000;0.7473;1.1768;
787.2000;0.7473;1.1794;
787.5000;0.7464;1.1845;
787.8000;0.7489;1.1819;
788.1000;0.7481;1.1845;
788.4000;0.7464;1.1819;
788.7000;0.7448;1.1743;
789.0000;0.7481;1.1768;
789.3000;0.7473;1.1794;
789.6000;0.7473;1.1870;
789.9000;0.7432;1.1743;
790.2000;0.7456;1.1845;
790.5000;0.7481;1.1819;
790.8000;0.7464;1.1768;
791.1000;0.7473;1.1794;
791.4000;0.7464;1.1667;
791.7000;0.7440;1.1642;
792.0000;0.7481;1.1743;
792.3000;0.7464;1.1718;
792.6000;0.7456;1.1768;
792.9000;0.7456;1.1768;
793.2000;0.7473;1.1819;
793.5000;0.7456;1.1768;
793.8000;0.7473;1.1768;
794.1000;0.7473;1.1794;
794.4000;0.7464;1.1768;
794.7000;0.7473;1.1819;
795.0000;0.7473;1.1870;
795.3000;0.7473;1.1845;
795.6000;0.7456;1.1819;
795.9000;0.7464;1.1845;
796.2000;0.7481;1.1794;
796.5000;0.7464;1.1743;
796.8000;0.7464;1.1768;
797.1000;0.7448;1.1667;
797.4000;0.7448;1.1616;
797.7000;0.7456;1.1616;
798.0000;0.7464;1.1566;
798.3000;0.7456;1.1616;
798.6000;0.7456;1.1566;
798.9000;0.7448;1.1515;
799.2000;0.7456;1.1489;
799.5000;0.7456;1.1413;
799.8000;0.7456;1.1363;
800.1000;0.7448;1.1287;
800.4000;0.7456;1.1236;
800.7000;0.7456;1.1236;
801.0000;0.7456;1.1337;
801.3000;0.7448;1.1413;
801.6000;0.7473;1.1464;
801.9000;0.7456;1.1540;
802.2000;0.7456;1.1540;
802.5000;0.7448;1.1616;
802.8000;0.7481;1.1768;
803.1000;0.7464;1.1743;
803.4000;0.7448;1.1768;
803.7000;0.7473;1.1921;
804.0000;0.7473;1.1870;
804.3000;0.7473;1.1870;
804.6000;0.7456;1.1794;
804.9000;0.7448;1.1743;
805.2000;0.7416;1.1642;
805.5000;0.7440;1.1692;
805.8000;0.7440;1.1692;
806.1000;0.7521;1.1845;
806.4000;0.7448;1.1692;
806.7000;0.7448;1.1718;
807.0000;0.7416;1.1667;
807.3000;0.7448;1.1642;
807.6000;0.7448;1.1566;
807.9000;0.7448;1.1642;
808.2000;0.7473;1.1718;
808.5000;0.7456;1.1692;
808.8000;0.7448;1.1718;
809.1000;0.7456;1.1768;
809.4000;0.7456;1.1718;
809.7000;0.7473;1.1794;
810.0000;0.7481;1.1743;
810.3000;0.7456;1.1692;
810.6000;0.7546;1.1971;
810.9000;0.7448;1.1616;
811.2000;0.7448;1.1642;
811.5000;0.7456;1.1743;
811.8000;0.7440;1.1667;
812.1000;0.7456;1.1718;
812.4000;0.7448;1.1692;
812.7000;0.7456;1.1718;
813.0000;0.7456;1.1692;
813.3000;0.7464;1.1642;
813.6000;0.7473;1.1667;
813.9000;0.7473;1.1591;
814.2000;0.7464;1.1566;
814.5000;0.7456;1.1489;
814.8000;0.7481;1.1489;
815.1000;0.7473;1.1515;
815.4000;0.7456;1.1489;
815.7000;0.7448;1.1515;
816.0000;0.7456;1.1540;
816.3000;0.7440;1.1566;
816.6000;0.7448;1.1566;
816.9000;0.7440;1.1515;
817.2000;0.7456;1.1540;
817.5000;0.7464;1.1591;
817.8000;0.7456;1.1616;
818.1000;0.7407;1.1489;
818.4000;0.7448;1.1642;
818.7000;0.7440;1.1642;
819.0000;0.7448;1.1768;
819.3000;0.7456;1.1870;
819.6000;0.7440;1.1845;
819.9000;0.7473;1.1870;
820.2000;0.7456;1.1819;
820.5000;0.7342;1.1540;
820.8000;0.7497;1.1946;
821.1000;0.7440;1.1845;
821.4000;0.7448;1.1845;
821.7000;0.7448;1.1845;
822.0000;0.7440;1.1946;
822.3000;0.7440;1.1971;
822.6000;0.7448;1.1971;
822.9000;0.7448;1.1971;
823.2000;0.7440;1.1870;
823.5000;0.7456;1.1718;
823.8000;0.7448;1.1768;
824.1000;0.7440;1.1692;
824.4000;0.7448;1.1743;
824.7000;0.7448;1.1743;
825.0000;0.7448;1.1743;
825.3000;0.7399;1.1515;
825.6000;0.7424;1.1566;
825.9000;0.7440;1.1616;
826.2000;0.7432;1.1642;
826.5000;0.7448;1.1566;
826.8000;0.7407;1.1489;
827.1000;0.7424;1.1591;
827.4000;0.7432;1.1667;
827.7000;0.7424;1.1591;
828.0000;0.7432;1.1692;
828.3000;0.7432;1.1718;
828.6000;0.7440;1.1667;
828.9000;0.7456;1.1718;
829.2000;0.7448;1.1718;
829.5000;0.7440;1.1743;
829.8000;0.7407;1.1692;
830.1000;0.7448;1.1819;
830.4000;0.7448;1.1692;
830.7000;0.7440;1.1794;
831.0000;0.7440;1.1768;
831.3000;0.7424;1.1743;
831.6000;0.7440;1.1718;
831.9000;0.7424;1.1642;
832.2000;0.7399;1.1616;
832.5000;0.7432;1.1794;
832.8000;0.7432;1.1642;
833.1000;0.7440;1.1718;
833.4000;0.7440;1.1794;
833.7000;0.7448;1.1768;
834.0000;0.7456;1.1819;
834.3000;0.7440;1.1794;
834.6000;0.7440;1.1743;
834.9000;0.7448;1.1845;
835.2000;0.7456;1.1870;
835.5000;0.7342;1.1616;
835.8000;0.7424;1.1794;
836.1000;0.7416;1.1667;
836.4000;0.7407;1.1616;
836.7000;0.7432;1.1768;
837.0000;0.7448;1.1819;
837.3000;0.7464;1.1895;
837.6000;0.7424;1.1870;
837.9000;0.7440;1.1845;
838.2000;0.7407;1.1667;
838.5000;0.7424;1.1616;
838.8000;0.7448;1.1768;
839.1000;0.7416;1.1692;
839.4000;0.7440;1.1768;
839.7000;0.7440;1.1743;
840.0000;0.7432;1.1718;
840.3000;0.7456;1.1692;
840.6000;0.7432;1.1743;
840.9000;0.7440;1.1845;
841.2000;0.7416;1.1768;
841.5000;0.7440;1.1794;
841.8000;0.7456;1.1845;
842.1000;0.7456;1.1819;
842.4000;0.7432;1.1718;
842.7000;0.7440;1.1794;
843.0000;0.7448;1.1845;
843.3000;0.7399;1.1768;
843.6000;0.7424;1.1870;
843.9000;0.7432;1.1946;
844.2000;0.7440;1.1921;
844.5000;0.7416;1.1718;
844.8000;0.7464;1.1768;
845.1000;0.7440;1.1642;
845.4000;0.7416;1.1591;
845.7000;0.7424;1.1667;
846.0000;0.7424;1.1667;
846.3000;0.7424;1.1692;
846.6000;0.7416;1.1667;
846.9000;0.7464;1.1768;
847.2000;0.7432;1.1743;
847.5000;0.7440;1.1768;
847.8000;0.7416;1.1794;
848.1000;0.7432;1.1895;
848.4000;0.7359;1.1768;
848.7000;0.7416;1.1870;
849.0000;0.7440;1.1819;
849.3000;0.7432;1.1819;
849.6000;0.7416;1.1768;
849.9000;0.7440;1.1845;
850.2000;0.7432;1.1819;
850.5000;0.7407;1.1819;
850.8000;0.7432;1.1819;
851.1000;0.7424;1.1870;
851.4000;0.7407;1.1819;
851.7000;0.7424;1.1794;
852.0000;0.7416;1.1718;
852.3000;0.7440;1.1692;
852.6000;0.7432;1.1616;
852.9000;0.7432;1.1692;
853.2000;0.7293;1.1439;
853.5000;0.7432;1.1743;
853.8000;0.7383;1.1642;
854.1000;0.7416;1.1768;
854.4000;0.7432;1.1768;
854.7000;0.7432;1.1718;
855.0000;0.7424;1.1743;
855.3000;0.7464;1.1794;
855.6000;0.7424;1.1616;
855.9000;0.7432;1.1667;
856.2000;0.7432;1.1743;
856.5000;0.7432;1.1692;
856.8000;0.7416;1.1743;
857.1000;0.7432;1.1794;
857.4000;0.7424;1.1845;
857.7000;0.7407;1.1845;
858.0000;0.7432;1.1870;
858.3000;0.7448;1.1845;
858.6000;0.7424;1.1794;
858.9000;0.7416;1.1768;
859.2000;0.7456;1.1819;
859.5000;0.7407;1.1692;
859.8000;0.7440;1.1870;
860.1000;0.7440;1.1921;
860.4000;0.7424;1.1819;
860.7000;0.7464;1.1819;
861.0000;0.7432;1.1718;
861.3000;0.7424;1.1692;
861.6000;0.7416;1.1667;
861.9000;0.7440;1.1819;
862.2000;0.7424;1.1768;
862.5000;0.7424;1.1743;
862.8000;0.7432;1.1768;
863.1000;0.7481;1.1895;
863.4000;0.7448;1.1845;
863.7000;0.7432;1.1743;
864.0000;0.7407;1.1642;
864.3000;0.7416;1.1692;
864.6000;0.7432;1.1845;
864.9000;0.7318;1.1540;
865.2000;0.7407;1.1718;
865.5000;0.7440;1.1667;
865.8000;0.7448;1.1845;
866.1000;0.7383;1.1718;
866.4000;0.7302;1.1540;
866.7000;0.7424;1.1895;
867.0000;0.7391;1.1819;
867.3000;0.7416;1.1794;
867.6000;0.7416;1.1794;
867.9000;0.7407;1.1768;
868.2000;0.7416;1.1845;
868.5000;0.7440;1.1946;
868.8000;0.7424;1.1895;
869.1000;0.7432;1.1895;
869.4000;0.7440;1.1946;
869.7000;0.7432;1.1997;
870.0000;0.7424;1.1921;
870.3000;0.7416;1.1921;
870.6000;0.7416;1.1921;
870.9000;0.7416;1.1921;
871.2000;0.7416;1.1819;
871.5000;0.7424;1.1794;
871.8000;0.7432;1.1743;
872.1000;0.7432;1.1794;
872.4000;0.7440;1.1794;
872.7000;0.7440;1.1819;
873.0000;0.7432;1.1819;
873.3000;0.7399;1.1718;
873.6000;0.7448;1.1768;
873.9000;0.7416;1.1692;
874.2000;0.7416;1.1642;
874.5000;0.7407;1.1743;
874.8000;0.7440;1.1718;
875.1000;0.7383;1.1616;
875.4000;0.7391;1.1540;
875.7000;0.7424;1.1692;
876.0000;0.7440;1.1667;
876.3000;0.7407;1.1642;
876.6000;0.7416;1.1667;
876.9000;0.7424;1.1667;
877.2000;0.7424;1.1794;
877.5000;0.7416;1.1768;
877.8000;0.7440;1.1819;
878.1000;0.7432;1.1768;
878.4000;0.7505;1.1946;
878.7000;0.7432;1.1718;
879.0000;0.7440;1.1819;
879.3000;0.7416;1.1692;
879.6000;0.7448;1.1794;
879.9000;0.7432;1.1794;
880.2000;0.7407;1.1794;
880.5000;0.7424;1.1743;
880.8000;0.7407;1.1667;
881.1000;0.7424;1.1718;
881.4000;0.7407;1.1667;
881.7000;0.7407;1.1591;
882.0000;0.7432;1.1489;
882.3000;0.7424;1.1464;
882.6000;0.7432;1.1642;
882.9000;0.7424;1.1540;
883.2000;0.7424;1.1540;
883.5000;0.7432;1.1616;
883.8000;0.7375;1.1464;
884.1000;0.7440;1.1616;
884.4000;0.7407;1.1464;
884.7000;0.7367;1.1439;
885.0000;0.7440;1.1667;
885.3000;0.7432;1.1591;
885.6000;0.7407;1.1540;
885.9000;0.7407;1.1591;
886.2000;0.7440;1.1718;
886.5000;0.7440;1.1718;
886.8000;0.7407;1.1642;
887.1000;0.7464;1.1718;
887.4000;0.7416;1.1566;
887.7000;0.7424;1.1591;
888.0000;0.7391;1.1566;
888.3000;0.7399;1.1591;
888.6000;0.7416;1.1692;
888.9000;0.7424;1.1743;
889.2000;0.7424;1.1692;
889.5000;0.7432;1.1718;
889.8000;0.7424;1.1743;
890.1000;0.7432;1.1743;
890.4000;0.7416;1.1845;
890.7000;0.7407;1.1845;
891.0000;0.7407;1.1946;
891.3000;0.7375;1.1794;
891.6000;0.7464;1.2022;
891.9000;0.7424;1.1946;
892.2000;0.7407;1.1895;
892.5000;0.7440;1.1971;
892.8000;0.7481;1.2047;
893.1000;0.7424;1.1946;
893.4000;0.7416;1.1895;
893.7000;0.7432;1.1845;
894.0000;0.7318;1.1616;
894.3000;0.7424;1.1921;
894.6000;0.7416;1.1895;
894.9000;0.7432;1.1971;
895.2000;0.7407;1.1971;
895.5000;0.7407;1.1921;
895.8000;0.7432;1.1845;
896.1000;0.7416;1.1794;
896.4000;0.7432;1.1870;
896.7000;0.7424;1.1794;
897.0000;0.7416;1.1845;
897.3000;0.7416;1.1768;
897.6000;0.7432;1.1794;
897.9000;0.7424;1.1768;
898.2000;0.7416;1.1768;
898.5000;0.7432;1.1768;
898.8000;0.7432;1.1692;
899.1000;0.7432;1.1768;
899.4000;0.7440;1.1794;
899.7000;0.7432;1.1743;
900.0000;0.7440;1.1768;
900.3000;0.7440;1.1946;
900.6000;0.7448;1.1845;
900.9000;0.7424;1.1768;
901.2000;0.7416;1.1768;
901.5000;0.7432;1.1845;
901.8000;0.7424;1.1870;
902.1000;0.7432;1.1946;
902.4000;0.7432;1.1971;
902.7000;0.7456;1.2047;
903.0000;0.7424;1.1971;
903.3000;0.7416;1.1870;
903.6000;0.7407;1.1819;
903.9000;0.7424;1.1921;
904.2000;0.7424;1.1921;
904.5000;0.7416;1.1895;
904.8000;0.7424;1.1895;
905.1000;0.7440;1.1845;
905.4000;0.7432;1.1718;
905.7000;0.7432;1.1768;
906.0000;0.7432;1.1718;
906.3000;0.7440;1.1718;
906.6000;0.7440;1.1794;
906.9000;0.7416;1.1743;
907.2000;0.7424;1.1768;
907.5000;0.7448;1.1845;
907.8000;0.7424;1.1895;
908.1000;0.7416;1.1921;
908.4000;0.7407;1.2047;
908.7000;0.7432;1.1946;
909.0000;0.7440;1.2073;
909.3000;0.7424;1.2047;
909.6000;0.7407;1.1895;
909.9000;0.7416;1.1819;
910.2000;0.7416;1.1895;
910.5000;0.7448;1.2022;
910.8000;0.7424;1.1921;
911.1000;0.7424;1.1768;
911.4000;0.7424;1.1895;
911.7000;0.7424;1.2022;
912.0000;0.7416;1.1946;
912.3000;0.7416;1.1921;
912.6000;0.7424;1.1845;
912.9000;0.7407;1.1921;
913.2000;0.7407;1.1971;
913.5000;0.7416;1.1971;
913.8000;0.7424;1.1971;
914.1000;0.7424;1.1946;
914.4000;0.7448;1.1971;
914.7000;0.7440;1.1870;
915.0000;0.7432;1.1768;
915.3000;0.7424;1.1692;
915.6000;0.7424;1.1718;
915.9000;0.7424;1.1642;
916.2000;0.7302;1.1287;
916.5000;0.7416;1.1616;
916.8000;0.7448;1.1616;
917.1000;0.7407;1.1540;
917.4000;0.7424;1.1667;
917.7000;0.7407;1.1794;
918.0000;0.7448;1.1895;
918.3000;0.7432;1.1895;
918.6000;0.7407;1.1921;
918.9000;0.7424;1.1946;
919.2000;0.7554;1.2250;
919.5000;0.7432;1.1971;
919.8000;0.7424;1.1921;
920.1000;0.7407;1.1794;
920.4000;0.7416;1.1743;
920.7000;0.7391;1.1616;
921.0000;0.7432;1.1642;
921.3000;0.7440;1.1718;
921.6000;0.7399;1.1667;
921.9000;0.7440;1.1692;
922.2000;0.7416;1.1667;
922.5000;0.7407;1.1591;
922.8000;0.7473;1.1692;
923.1000;0.7416;1.1540;
923.4000;0.7521;1.1794;
923.7000;0.7416;1.1540;
924.0000;0.7424;1.1591;
924.3000;0.7399;1.1515;
924.6000;0.7407;1.1566;
924.9000;0.7424;1.1692;
925.2000;0.7521;1.2022;
925.5000;0.7326;1.1489;
925.8000;0.7432;1.1768;
926.1000;0.7399;1.1768;
926.4000;0.7416;1.1895;
926.7000;0.7359;1.1616;
927.0000;0.7407;1.1819;
927.3000;0.7326;1.1566;
927.6000;0.7391;1.1642;
927.9000;0.7407;1.1743;
928.2000;0.7416;1.1794;
928.5000;0.7416;1.1794;
928.8000;0.7383;1.1794;
929.1000;0.7407;1.1845;
929.4000;0.7416;1.1743;
929.7000;0.7407;1.1768;
930.0000;0.7407;1.1819;
930.3000;0.7407;1.1845;
930.6000;0.7424;1.1921;
930.9000;0.7293;1.1489;
931.2000;0.7399;1.1819;
931.5000;0.7399;1.1845;
931.8000;0.7399;1.1768;
932.1000;0.7416;1.1819;
932.4000;0.7407;1.1794;
932.7000;0.7416;1.1845;
933.0000;0.7416;1.1845;
933.3000;0.7407;1.1819;
933.6000;0.7416;1.1794;
933.9000;0.7407;1.1870;
934.2000;0.7391;1.1870;
934.5000;0.7407;1.1768;
934.8000;0.7416;1.1616;
935.1000;0.7407;1.1642;
935.4000;0.7407;1.1692;
935.7000;0.7416;1.1743;
936.0000;0.7416;1.1743;
936.3000;0.7399;1.1642;
936.6000;0.7424;1.1616;
936.9000;0.7440;1.1566;
937.2000;0.7416;1.1439;
937.5000;0.7375;1.1261;
937.8000;0.7407;1.1312;
938.1000;0.7391;1.1363;
938.4000;0.7407;1.1337;
938.7000;0.7407;1.1413;
939.0000;0.7432;1.1439;
939.3000;0.7383;1.1388;
939.6000;0.7416;1.1489;
939.9000;0.7350;1.1337;
940.2000;0.7407;1.1489;
940.5000;0.7473;1.1743;
940.8000;0.7481;1.1743;
941.1000;0.7424;1.1591;
941.4000;0.7416;1.1540;
941.7000;0.7407;1.1489;
942.0000;0.7424;1.1464;
942.3000;0.7416;1.1464;
942.6000;0.7350;1.1337;
942.9000;0.7416;1.1566;
943.2000;0.7424;1.1616;
943.5000;0.7399;1.1489;
943.8000;0.7407;1.1489;
944.1000;0.7416;1.1566;
944.4000;0.7407;1.1540;
944.7000;0.7416;1.1591;
945.0000;0.7416;1.1667;
945.3000;0.7407;1.1667;
945.6000;0.7407;1.1616;
945.9000;0.7416;1.1540;
946.2000;0.7407;1.1566;
946.5000;0.7399;1.1566;
946.8000;0.7399;1.1540;
947.1000;0.7424;1.1616;
947.4000;0.7399;1.1591;
947.7000;0.7399;1.1642;
948.0000;0.7399;1.1718;
948.3000;0.7416;1.1895;
948.6000;0.7407;1.1819;
948.9000;0.7391;1.1845;
949.2000;0.7407;1.1921;
949.5000;0.7416;1.1870;
949.8000;0.7416;1.1845;
950.1000;0.7391;1.1743;
950.4000;0.7416;1.1743;
950.7000;0.7424;1.1768;
951.0000;0.7416;1.1616;
951.3000;0.7407;1.1566;
951.6000;0.7399;1.1540;
951.9000;0.7416;1.1667;
952.2000;0.7416;1.1718;
952.5000;0.7424;1.1743;
952.8000;0.7416;1.1768;
953.1000;0.7407;1.1692;
953.4000;0.7416;1.1616;
953.7000;0.7424;1.1667;
954.0000;0.7407;1.1642;
954.3000;0.7416;1.1642;
954.6000;0.7432;1.1667;
954.9000;0.7416;1.1566;
955.2000;0.7399;1.1540;
955.5000;0.7416;1.1768;
955.8000;0.7432;1.1819;
956.1000;0.7424;1.1819;
956.4000;0.7407;1.1895;
956.7000;0.7448;1.1895;
957.0000;0.7416;1.1870;
957.3000;0.7416;1.1895;
957.6000;0.7424;1.1971;
957.9000;0.7407;1.1971;
958.2000;0.7464;1.2047;
958.5000;0.7399;1.1870;
958.8000;0.7334;1.1667;
959.1000;0.7505;1.2073;
959.4000;0.7407;1.1819;
959.7000;0.7391;1.1743;
960.0000;0.7407;1.1845;
960.3000;0.7391;1.1819;
960.6000;0.7391;1.1768;
960.9000;0.7391;1.1768;
961.2000;0.7399;1.1616;
961.5000;0.7391;1.1642;
961.8000;0.7391;1.1642;
962.1000;0.7407;1.1718;
962.4000;0.7407;1.1718;
962.7000;0.7513;1.2124;
963.0000;0.7391;1.1845;
963.3000;0.7416;1.1794;
963.6000;0.7407;1.1895;
963.9000;0.7416;1.1921;
964.2000;0.7391;1.1845;
964.5000;0.7432;1.1845;
964.8000;0.7391;1.1718;
965.1000;0.7399;1.1743;
965.4000;0.7383;1.1692;
965.7000;0.7391;1.1743;
966.0000;0.7407;1.1743;
966.3000;0.7391;1.1692;
966.6000;0.7432;1.1768;
966.9000;0.7407;1.1743;
967.2000;0.7407;1.1845;
967.5000;0.7440;1.1895;
967.8000;0.7407;1.1794;
968.1000;0.7416;1.1768;
968.4000;0.7424;1.1768;
968.7000;0.7456;1.1921;
969.0000;0.7416;1.1870;
969.3000;0.7416;1.1921;
969.6000;0.7432;1.2073;
969.9000;0.7432;1.2124;
970.2000;0.7416;1.2022;
970.5000;0.7391;1.1870;
970.8000;0.7383;1.1794;
971.1000;0.7391;1.1743;
971.4000;0.7310;1.1464;
971.7000;0.7407;1.1692;
972.0000;0.7407;1.1718;
972.3000;0.7407;1.1794;
972.6000;0.7399;1.1718;
972.9000;0.7391;1.1743;
973.2000;0.7424;1.1870;
973.5000;0.7407;1.1870;
973.8000;0.7424;1.1845;
974.1000;0.7367;1.1692;
974.4000;0.7310;1.1616;
974.7000;0.7318;1.1616;
975.0000;0.7432;1.1819;
975.3000;0.7383;1.1743;
975.6000;0.7407;1.1718;
975.9000;0.7391;1.1616;
976.2000;0.7424;1.1616;
976.5000;0.7407;1.1616;
976.8000;0.7399;1.1642;
977.1000;0.7416;1.1616;
977.4000;0.7424;1.1692;
977.7000;0.7416;1.1642;
978.0000;0.7399;1.1642;
978.3000;0.7383;1.1642;
978.6000;0.7416;1.1768;
978.9000;0.7448;1.1794;
979.2000;0.7407;1.1718;
979.5000;0.7407;1.1692;
979.8000;0.7416;1.1718;
980.1000;0.7424;1.1667;
980.4000;0.7432;1.1743;
980.7000;0.7391;1.1743;
981.0000;0.7407;1.1718;
981.3000;0.7416;1.1616;
981.6000;0.7432;1.1692;
981.9000;0.7448;1.1667;
982.2000;0.7391;1.1591;
982.5000;0.7432;1.1667;
982.8000;0.7399;1.1616;
983.1000;0.7407;1.1566;
983.4000;0.7375;1.1464;
983.7000;0.7464;1.1794;
984.0000;0.7407;1.1667;
984.3000;0.7391;1.1667;
984.6000;0.7407;1.1692;
984.9000;0.7481;1.1946;
985.2000;0.7416;1.1768;
985.5000;0.7399;1.1667;
985.8000;0.7391;1.1616;
986.1000;0.7399;1.1566;
986.4000;0.7407;1.1667;
986.7000;0.7391;1.1718;
987.0000;0.7407;1.1794;
987.3000;0.7399;1.1718;
987.6000;0.7399;1.1743;
987.9000;0.7416;1.1819;
988.2000;0.7424;1.1870;
988.5000;0.7407;1.1794;
988.8000;0.7399;1.1895;
989.1000;0.7407;1.1895;
989.4000;0.7399;1.1794;
989.7000;0.7391;1.1718;
990.0000;0.7416;1.1768;
990.3000;0.7383;1.1642;
990.6000;0.7407;1.1642;
990.9000;0.7407;1.1591;
991.2000;0.7399;1.1540;
991.5000;0.7416;1.1692;
991.8000;0.7407;1.1540;
992.1000;0.7391;1.1591;
992.4000;0.7440;1.1692;
992.7000;0.7407;1.1667;
993.0000;0.7432;1.1768;
993.3000;0.7407;1.1743;
993.6000;0.7375;1.1642;
993.9000;0.7424;1.1794;
994.2000;0.7416;1.1718;
994.5000;0.7416;1.1768;
994.8000;0.7456;1.1794;
995.1000;0.7432;1.1692;
995.4000;0.7399;1.1692;
995.7000;0.7375;1.1566;
996.0000;0.7416;1.1616;
996.3000;0.7399;1.1566;
996.6000;0.7383;1.1515;
996.9000;0.7407;1.1642;
997.2000;0.7416;1.1718;
997.5000;0.7424;1.1692;
997.8000;0.7407;1.1692;
998.1000;0.7391;1.1642;
998.4000;0.7391;1.1667;
998.7000;0.7383;1.1692;
999.0000;0.7399;1.1667;
999.3000;0.7432;1.1718;
999.6000;0.7399;1.1616;
999.9000;0.7407;1.1743;
1000.2000;0.7407;1.1845;
1000.5000;0.7424;1.1845;
1000.8000;0.7391;1.1692;
1001.1000;0.7424;1.1692;
1001.4000;0.7399;1.1667;
1001.7000;0.7416;1.1718;
1002.0000;0.7432;1.1692;
1002.3000;0.7432;1.1667;
1002.6000;0.7391;1.1667;
1002.9000;0.7391;1.1616;
1003.2000;0.7424;1.1743;
1003.5000;0.7424;1.1768;
1003.8000;0.7407;1.1768;
1004.1000;0.7432;1.1743;
1004.4000;0.7416;1.1718;
1004.7000;0.7407;1.1692;
1005.0000;0.7342;1.1616;
1005.3000;0.7424;1.1845;
1005.6000;0.7416;1.1743;
1005.9000;0.7391;1.1743;
1006.2000;0.7407;1.1870;
1006.5000;0.7407;1.1845;
1006.8000;0.7416;1.1819;
1007.1000;0.7407;1.1794;
1007.4000;0.7407;1.1819;
1007.7000;0.7407;1.1768;
1008.0000;0.7399;1.1718;
1008.3000;0.7399;1.1794;
1008.6000;0.7399;1.1768;
1008.9000;0.7399;1.1819;
1009.2000;0.7407;1.1895;
1009.5000;0.7424;1.1819;
1009.8000;0.7383;1.1667;
1010.1000;0.7383;1.1692;
1010.4000;0.7407;1.1718;
1010.7000;0.7326;1.1566;
1011.0000;0.7456;1.1997;
1011.3000;0.7399;1.1946;
1011.6000;0.7367;1.1845;
1011.9000;0.7399;1.1870;
1012.2000;0.7399;1.1819;
1012.5000;0.7416;1.1870;
1012.8000;0.7391;1.1794;
1013.1000;0.7407;1.1718;
1013.4000;0.7424;1.1819;
1013.7000;0.7416;1.1845;
1014.0000;0.7407;1.1946;
1014.3000;0.7416;1.1971;
1014.6000;0.7424;1.1971;
1014.9000;0.7391;1.1845;
1015.2000;0.7326;1.1667;
1015.5000;0.7399;1.1819;
1015.8000;0.7424;1.1794;
1016.1000;0.7399;1.1616;
1016.4000;0.7456;1.1768;
1016.7000;0.7399;1.1692;
1017.0000;0.7424;1.1718;
1017.3000;0.7416;1.1667;
1017.6000;0.7424;1.1692;
1017.9000;0.7424;1.1768;
1018.2000;0.7407;1.1743;
1018.5000;0.7399;1.1743;
1018.8000;0.7407;1.1819;
1019.1000;0.7424;1.1895;
1019.4000;0.7399;1.1743;
1019.7000;0.7432;1.1743;
1020.0000;0.7432;1.1692;
1020.3000;0.7407;1.1667;
1020.6000;0.7407;1.1743;
1020.9000;0.7416;1.1794;
1021.2000;0.7399;1.1794;
1021.5000;0.7424;1.1819;
1021.8000;0.7432;1.1895;
1022.1000;0.7399;1.1819;
1022.4000;0.7399;1.1845;
1022.7000;0.7399;1.1921;
1023.0000;0.7399;1.1971;
1023.3000;0.7416;1.2022;
1023.6000;0.7416;1.2022;
1023.9000;0.7399;1.1946;
1024.2000;0.7416;1.1921;
1024.5000;0.7416;1.1870;
1024.8000;0.7432;1.1819;
1025.1000;0.7407;1.1870;
1025.4000;0.7407;1.1819;
1025.7000;0.7481;1.2022;
1026.0000;0.7432;1.1870;
1026.3000;0.7424;1.1921;
1026.6000;0.7399;1.1794;
1026.9000;0.7399;1.1870;
1027.2000;0.7399;1.1768;
1027.5000;0.7416;1.1794;
1027.8000;0.7416;1.1768;
1028.1000;0.7407;1.1743;
1028.4000;0.7416;1.1794;
1028.7000;0.7407;1.1794;
1029.0000;0.7391;1.1768;
1029.3000;0.7432;1.1895;
1029.6000;0.7432;1.1971;
1029.9000;0.7407;1.2022;
1030.2000;0.7391;1.1971;
1030.5000;0.7399;1.2073;
1030.8000;0.7391;1.2047;
1031.1000;0.7424;1.2022;
1031.4000;0.7416;1.1819;
1031.7000;0.7440;1.1870;
1032.0000;0.7407;1.1845;
1032.3000;0.7440;1.1971;
1032.6000;0.7383;1.1768;
1032.9000;0.7448;1.1921;
1033.2000;0.7416;1.1870;
1033.5000;0.7416;1.1921;
1033.8000;0.7416;1.1870;
1034.1000;0.7424;1.1845;
1034.4000;0.7407;1.1616;
1034.7000;0.7424;1.1743;
1035.0000;0.7424;1.1743;
1035.3000;0.7424;1.1667;
1035.6000;0.7399;1.1591;
1035.9000;0.7432;1.1566;
1036.2000;0.7407;1.1642;
1036.5000;0.7399;1.1692;
1036.8000;0.7407;1.1718;
1037.1000;0.7432;1.1743;
1037.4000;0.7424;1.1743;
1037.7000;0.7407;1.1794;
1038.0000;0.7416;1.1845;
1038.3000;0.7432;1.1921;
1038.6000;0.7399;1.1794;
1038.9000;0.7432;1.1895;
1039.2000;0.7416;1.1870;
1039.5000;0.7432;1.1997;
1039.8000;0.7424;1.2098;
1040.1000;0.7407;1.1946;
1040.4000;0.7432;1.2022;
1040.7000;0.7416;1.2047;
1041.0000;0.7407;1.1971;
1041.3000;0.7407;1.1971;
1041.6000;0.7407;1.1946;
1041.9000;0.7383;1.1895;
1042.2000;0.7391;1.1946;
1042.5000;0.7399;1.1997;
1042.8000;0.7391;1.1997;
1043.1000;0.7383;1.2047;
1043.4000;0.7424;1.2149;
1043.7000;0.7416;1.2124;
1044.0000;0.7407;1.2073;
1044.3000;0.7367;1.1921;
1044.6000;0.7424;1.1997;
1044.9000;0.7448;1.1971;
1045.2000;0.7424;1.1946;
1045.5000;0.7416;1.1870;
1045.8000;0.7407;1.1895;
1046.1000;0.7424;1.1921;
1046.4000;0.7424;1.1895;
1046.7000;0.7416;1.1946;
1047.0000;0.7416;1.1895;
1047.3000;0.7424;1.1971;
1047.6000;0.7432;1.1845;
1047.9000;0.7432;1.1794;
1048.2000;0.7407;1.1794;
1048.5000;0.7407;1.1794;
1048.8000;0.7391;1.1794;
1049.1000;0.7416;1.1794;
1049.4000;0.7407;1.1819;
1049.7000;0.7530;1.2149;
1050.0000;0.7407;1.1845;
1050.3000;0.7432;1.1921;
1050.6000;0.7399;1.1845;
1050.9000;0.7473;1.2022;
1051.2000;0.7416;1.1895;
1051.5000;0.7424;1.1921;
1051.8000;0.7432;1.1921;
1052.1000;0.7407;1.1794;
1052.4000;0.7416;1.1845;
1052.7000;0.7416;1.1819;
1053.0000;0.7399;1.1794;
1053.3000;0.7416;1.1667;
1053.6000;0.7399;1.1591;
1053.9000;0.7399;1.1566;
1054.2000;0.7399;1.1718;
1054.5000;0.7383;1.1768;
1054.8000;0.7399;1.1819;
1055.1000;0.7416;1.1819;
1055.4000;0.7391;1.1895;
1055.7000;0.7416;1.1946;
1056.0000;0.7375;1.1794;
1056.3000;0.7416;1.1870;
1056.6000;0.7464;1.1921;
1056.9000;0.7391;1.1692;
1057.2000;0.7399;1.1642;
1057.5000;0.7407;1.1642;
1057.8000;0.7456;1.1718;
1058.1000;0.7407;1.1616;
1058.4000;0.7416;1.1642;
1058.7000;0.7359;1.1363;
1059.0000;0.7407;1.1489;
1059.3000;0.7416;1.1540;
1059.6000;0.7407;1.1489;
1059.9000;0.7416;1.1489;
1060.2000;0.7424;1.1566;
1060.5000;0.7424;1.1616;
1060.8000;0.7416;1.1591;
1061.1000;0.7416;1.1616;
1061.4000;0.7367;1.1566;
1061.7000;0.7407;1.1616;
1062.0000;0.7416;1.1642;
1062.3000;0.7399;1.1566;
1062.6000;0.7416;1.1591;
1062.9000;0.7424;1.1616;
1063.2000;0.7399;1.1540;
1063.5000;0.7391;1.1540;
1063.8000;0.7416;1.1667;
1064.1000;0.7407;1.1743;
1064.4000;0.7416;1.1743;
1064.7000;0.7432;1.1768;
1065.0000;0.7407;1.1692;
1065.3000;0.7399;1.1718;
1065.6000;0.7416;1.1819;
1065.9000;0.7399;1.1794;
1066.2000;0.7407;1.1794;
1066.5000;0.7407;1.1819;
1066.8000;0.7464;1.2047;
1067.1000;0.7391;1.1819;
1067.4000;0.7407;1.1845;
1067.7000;0.7416;1.1895;
1068.0000;0.7416;1.1819;
1068.3000;0.7407;1.1794;
1068.6000;0.7432;1.1895;
1068.9000;0.7424;1.1845;
1069.2000;0.7432;1.1870;
1069.5000;0.7440;1.1794;
1069.8000;0.7424;1.1794;
1070.1000;0.7432;1.1794;
1070.4000;0.7440;1.1819;
1070.7000;0.7424;1.1895;
1071.0000;0.7399;1.1743;
1071.3000;0.7424;1.1845;
1071.6000;0.7432;1.1845;
1071.9000;0.7399;1.1718;
1072.2000;0.7416;1.1768;
1072.5000;0.7424;1.1768;
1072.8000;0.7350;1.1616;
1073.1000;0.7530;1.2047;
1073.4000;0.7416;1.1692;
1073.7000;0.7424;1.1566;
1074.0000;0.7424;1.1566;
1074.3000;0.7424;1.1642;
1074.6000;0.7424;1.1667;
1074.9000;0.7375;1.1515;
1075.2000;0.7416;1.1667;
1075.5000;0.7432;1.1667;
1075.8000;0.7383;1.1591;
1076.1000;0.7391;1.1591;
1076.4000;0.7538;1.1971;
1076.7000;0.7407;1.1692;
1077.0000;0.7399;1.1667;
1077.3000;0.7383;1.1642;
1077.6000;0.7407;1.1718;
1077.9000;0.7399;1.1692;
1078.2000;0.7399;1.1794;
1078.5000;0.7399;1.1794;
1078.8000;0.7399;1.1870;
1079.1000;0.7407;1.1870;
1079.4000;0.7407;1.1819;
1079.7000;0.7359;1.1718;
1080.0000;0.7407;1.1768;
1080.3000;0.7424;1.1794;
1080.6000;0.7432;1.1819;
1080.9000;0.7432;1.1845;
1081.2000;0.7424;1.1870;
1081.5000;0.7391;1.1819;
1081.8000;0.7399;1.1794;
1082.1000;0.7407;1.1768;
1082.4000;0.7407;1.1718;
1082.7000;0.7424;1.1692;
1083.0000;0.7399;1.1667;
1083.3000;0.7407;1.1768;
1083.6000;0.7407;1.1718;
1083.9000;0.7424;1.1819;
1084.2000;0.7440;1.1743;
1084.5000;0.7416;1.1768;
1084.8000;0.7432;1.1768;
1085.1000;0.7399;1.1642;
1085.4000;0.7448;1.1870;
1085.7000;0.7489;1.1997;
1086.0000;0.7424;1.1870;
1086.3000;0.7416;1.1845;
1086.6000;0.7407;1.1870;
1086.9000;0.7407;1.1794;
1087.2000;0.7424;1.1895;
1087.5000;0.7407;1.1845;
1087.8000;0.7399;1.1718;
1088.1000;0.7424;1.1743;
1088.4000;0.7530;1.2022;
1088.7000;0.7399;1.1667;
1089.0000;0.7416;1.1743;
1089.3000;0.7424;1.1819;
1089.6000;0.7489;1.2098;
1089.9000;0.7383;1.1895;
1090.2000;0.7416;1.1895;
1090.5000;0.7448;1.1997;
1090.8000;0.7416;1.1819;
1091.1000;0.7416;1.1870;
1091.4000;0.7407;1.1845;
1091.7000;0.7391;1.1743;
1092.0000;0.7416;1.1794;
1092.3000;0.7391;1.1692;
1092.6000;0.7416;1.1692;
1092.9000;0.7416;1.1768;
1093.2000;0.7416;1.1743;
1093.5000;0.7416;1.1692;
1093.8000;0.7407;1.1692;
1094.1000;0.7399;1.1667;
1094.4000;0.7424;1.1743;
1094.7000;0.7416;1.1768;
1095.0000;0.7424;1.1743;
1095.3000;0.7383;1.1667;
1095.6000;0.7416;1.1845;
1095.9000;0.7399;1.1794;
1096.2000;0.7407;1.1743;
1096.5000;0.7440;1.1692;
1096.8000;0.7489;1.1819;
1097.1000;0.7432;1.1642;
1097.4000;0.7440;1.1667;
1097.7000;0.7399;1.1642;
1098.0000;0.7416;1.1692;
1098.3000;0.7432;1.1794;
1098.6000;0.7391;1.1642;
1098.9000;0.7399;1.1616;
1099.2000;0.7424;1.1591;
1099.5000;0.7448;1.1642;
1099.8000;0.7407;1.1515;
1100.1000;0.7432;1.1540;
1100.4000;0.7424;1.1515;
1100.7000;0.7416;1.1464;
1101.0000;0.7416;1.1515;
1101.3000;0.7424;1.1616;
1101.6000;0.7407;1.1591;
1101.9000;0.7440;1.1768;
1102.2000;0.7391;1.1616;
1102.5000;0.7432;1.1768;
1102.8000;0.7399;1.1718;
1103.1000;0.7407;1.1819;
1103.4000;0.7424;1.1845;
1103.7000;0.7391;1.1718;
1104.0000;0.7424;1.1718;
1104.3000;0.7407;1.1718;
1104.6000;0.7424;1.1743;
1104.9000;0.7440;1.1718;
1105.2000;0.7416;1.1642;
1105.5000;0.7416;1.1667;
1105.8000;0.7424;1.1692;
1106.1000;0.7416;1.1768;
1106.4000;0.7416;1.1718;
1106.7000;0.7391;1.1768;
1107.0000;0.7367;1.1743;
1107.3000;0.7416;1.1819;
1107.6000;0.7407;1.1870;
1107.9000;0.7424;1.1895;
1108.2000;0.7424;1.1946;
1108.5000;0.7407;1.1895;
1108.8000;0.7399;1.1870;
1109.1000;0.7407;1.1845;
1109.4000;0.7473;1.1997;
1109.7000;0.7432;1.1819;
1110.0000;0.7432;1.1845;
1110.3000;0.7407;1.1794;
1110.6000;0.7424;1.1794;
1110.9000;0.7407;1.1870;
1111.2000;0.7416;1.1870;
1111.5000;0.7342;1.1794;
1111.8000;0.7521;1.2326;
1112.1000;0.7383;1.1921;
1112.4000;0.7391;1.1895;
1112.7000;0.7407;1.1895;
1113.0000;0.7399;1.1794;
1113.3000;0.7432;1.1895;
1113.6000;0.7440;1.1895;
1113.9000;0.7424;1.1768;
1114.2000;0.7367;1.1642;
1114.5000;0.7416;1.1692;
1114.8000;0.7407;1.1692;
1115.1000;0.7407;1.1718;
1115.4000;0.7424;1.1895;
1115.7000;0.7416;1.1870;
1116.0000;0.7416;1.1946;
1116.3000;0.7424;1.1921;
1116.6000;0.7407;1.1845;
1116.9000;0.7416;1.1794;
1117.2000;0.7407;1.1667;
1117.5000;0.7424;1.1642;
1117.8000;0.7399;1.1566;
1118.1000;0.7416;1.1616;
1118.4000;0.7407;1.1718;
1118.7000;0.7407;1.1819;
1119.0000;0.7448;1.1845;
1119.3000;0.7416;1.1718;
1119.6000;0.7416;1.1743;
1119.9000;0.7448;1.1895;
1120.2000;0.7407;1.1768;
1120.5000;0.7416;1.1743;
1120.8000;0.7424;1.1768;
1121.1000;0.7416;1.1794;
1121.4000;0.7407;1.1794;
1121.7000;0.7416;1.1768;
1122.0000;0.7440;1.1819;
1122.3000;0.7424;1.1819;
1122.6000;0.7424;1.1845;
1122.9000;0.7432;1.1870;
1123.2000;0.7416;1.1870;
1123.5000;0.7416;1.1921;
1123.8000;0.7424;1.1946;
1124.1000;0.7424;1.1997;
1124.4000;0.7399;1.1946;
1124.7000;0.7416;1.2047;
1125.0000;0.7399;1.1997;
1125.3000;0.7375;1.1845;
1125.6000;0.7456;1.1921;
1125.9000;0.7456;1.1921;
1126.2000;0.7424;1.1946;
1126.5000;0.7424;1.1895;
1126.8000;0.7416;1.1946;
1127.1000;0.7407;1.1971;
1127.4000;0.7489;1.2174;
1127.7000;0.7407;1.2047;
1128.0000;0.7416;1.2022;
1128.3000;0.7416;1.2022;
1128.6000;0.7416;1.1997;
1128.9000;0.7416;1.2022;
1129.2000;0.7432;1.2073;
1129.5000;0.7424;1.2098;
1129.8000;0.7424;1.2022;
1130.1000;0.7424;1.1870;
1130.4000;0.7407;1.1794;
1130.7000;0.7399;1.1743;
1131.0000;0.7399;1.1768;
1131.3000;0.7432;1.1794;
1131.6000;0.7424;1.1819;
1131.9000;0.7383;1.1667;
1132.2000;0.7432;1.1794;
1132.5000;0.7424;1.1845;
1132.8000;0.7326;1.1616;
1133.1000;0.7424;1.1895;
1133.4000;0.7424;1.1870;
1133.7000;0.7416;1.1870;
1134.0000;0.7407;1.1819;
1134.3000;0.7432;1.1921;
1134.6000;0.7424;1.1870;
1134.9000;0.7407;1.1921;
1135.2000;0.7448;1.2047;
1135.5000;0.7416;1.1895;
1135.8000;0.7416;1.1895;
1136.1000;0.7416;1.1895;
1136.4000;0.7416;1.1768;
1136.7000;0.7407;1.1718;
1137.0000;0.7424;1.1642;
1137.3000;0.7424;1.1718;
1137.6000;0.7424;1.1718;
1137.9000;0.7416;1.1794;
1138.2000;0.7432;1.1845;
1138.5000;0.7424;1.1794;
1138.8000;0.7440;1.1845;
1139.1000;0.7432;1.1794;
1139.4000;0.7432;1.1870;
1139.7000;0.7432;1.1997;
1140.0000;0.7407;1.1971;
1140.3000;0.7432;1.2073;
1140.6000;0.7399;1.2047;
1140.9000;0.7416;1.1997;
1141.2000;0.7416;1.2022;
1141.5000;0.7416;1.2047;
1141.8000;0.7416;1.1946;
1142.1000;0.7407;1.1845;
1142.4000;0.7416;1.1870;
1142.7000;0.7383;1.1819;
1143.0000;0.7399;1.1870;
1143.3000;0.7432;1.1946;
1143.6000;0.7416;1.1921;
1143.9000;0.7407;1.1895;
1144.2000;0.7432;1.1946;
1144.5000;0.7432;1.1895;
1144.8000;0.7424;1.1921;
1145.1000;0.7432;1.1971;
1145.4000;0.7464;1.2073;
1145.7000;0.7424;1.1921;
1146.0000;0.7424;1.1845;
1146.3000;0.7424;1.1819;
1146.6000;0.7416;1.1870;
1146.9000;0.7424;1.1997;
1147.2000;0.7424;1.2098;
1147.5000;0.7399;1.2047;
1147.8000;0.7448;1.2149;
1148.1000;0.7407;1.1971;
1148.4000;0.7416;1.2047;
1148.7000;0.7432;1.2022;
1149.0000;0.7399;1.1946;
1149.3000;0.7342;1.1870;
1149.6000;0.7391;1.2047;
1149.9000;0.7383;1.1971;
1150.2000;0.7448;1.2047;
1150.5000;0.7432;1.2124;
1150.8000;0.7416;1.2124;
1151.1000;0.7424;1.2200;
1151.4000;0.7407;1.2124;
1151.7000;0.7416;1.1971;
1152.0000;0.7416;1.1870;
1152.3000;0.7391;1.1870;
1152.6000;0.7407;1.1870;
1152.9000;0.7448;1.1895;
1153.2000;0.7432;1.1895;
1153.5000;0.7432;1.1946;
1153.8000;0.7424;1.1946;
1154.1000;0.7440;1.1845;
1154.4000;0.7464;1.1845;
1154.7000;0.7440;1.1845;
1155.0000;0.7424;1.1870;
1155.3000;0.7416;1.1768;
1155.6000;0.7440;1.1794;
1155.9000;0.7399;1.1768;
1156.2000;0.7391;1.1768;
1156.5000;0.7440;1.1895;
1156.8000;0.7432;1.1895;
1157.1000;0.7416;1.1870;
1157.4000;0.7424;1.1946;
1157.7000;0.7530;1.2301;
1158.0000;0.7416;1.1997;
1158.3000;0.7424;1.1971;
1158.6000;0.7407;1.1895;
1158.9000;0.7416;1.1946;
1159.2000;0.7424;1.1971;
1159.5000;0.7424;1.1895;
1159.8000;0.7424;1.1870;
1160.1000;0.7407;1.1794;
1160.4000;0.7424;1.1895;
1160.7000;0.7383;1.1794;
1161.0000;0.7424;1.1870;
1161.3000;0.7424;1.1921;
1161.6000;0.7407;1.1971;
1161.9000;0.7416;1.1921;
1162.2000;0.7383;1.1819;
1162.5000;0.7407;1.1870;
1162.8000;0.7407;1.1946;
1163.1000;0.7424;1.1921;
1163.4000;0.7416;1.1895;
1163.7000;0.7407;1.1819;
1164.0000;0.7424;1.1819;
1164.3000;0.7432;1.1794;
1164.6000;0.7424;1.1692;
1164.9000;0.7440;1.1667;
1165.2000;0.7416;1.1566;
1165.5000;0.7416;1.1642;
1165.8000;0.7407;1.1692;
1166.1000;0.7416;1.1819;
1166.4000;0.7391;1.1743;
1166.7000;0.7448;1.1870;
1167.0000;0.7424;1.1794;
1167.3000;0.7416;1.1768;
1167.6000;0.7416;1.1768;
1167.9000;0.7416;1.1794;
1168.2000;0.7416;1.1768;
1168.5000;0.7399;1.1743;
1168.8000;0.7399;1.1667;
1169.1000;0.7416;1.1718;
1169.4000;0.7416;1.1642;
1169.7000;0.7432;1.1616;
1170.0000;0.7407;1.1667;
1170.3000;0.7407;1.1667;
1170.6000;0.7432;1.1743;
1170.9000;0.7424;1.1743;
1171.2000;0.7407;1.1743;
1171.5000;0.7464;1.2022;
1171.8000;0.7416;1.1946;
1172.1000;0.7416;1.1997;
1172.4000;0.7375;1.1895;
1172.7000;0.7416;1.1971;
1173.0000;0.7448;1.1997;
1173.3000;0.7432;1.1895;
1173.6000;0.7416;1.1768;
1173.9000;0.7416;1.1692;
1174.2000;0.7424;1.1768;
1174.5000;0.7505;1.1971;
1174.8000;0.7521;1.2022;
1175.1000;0.7424;1.1768;
1175.4000;0.7432;1.1895;
1175.7000;0.7424;1.1946;
1176.0000;0.7407;1.1921;
1176.3000;0.7399;1.1743;
1176.6000;0.7416;1.1743;
1176.9000;0.7440;1.1768;
1177.2000;0.7424;1.1768;
1177.5000;0.7424;1.1895;
1177.8000;0.7391;1.1768;
1178.1000;0.7440;1.1870;
1178.4000;0.7432;1.1921;
1178.7000;0.7432;1.1997;
1179.0000;0.7416;1.1997;
1179.3000;0.7424;1.1997;
1179.6000;0.7416;1.2022;
1179.9000;0.7432;1.2022;
1180.2000;0.7416;1.1895;
1180.5000;0.7416;1.1895;
1180.8000;0.7424;1.1895;
1181.1000;0.7416;1.1870;
1181.4000;0.7416;1.1768;
1181.7000;0.7440;1.1819;
1182.0000;0.7416;1.1718;
1182.3000;0.7440;1.1743;
1182.6000;0.7473;1.1794;
1182.9000;0.7416;1.1718;
1183.2000;0.7424;1.1743;
1183.5000;0.7432;1.1718;
1183.8000;0.7432;1.1743;
1184.1000;0.7399;1.1743;
1184.4000;0.7432;1.1794;
1184.7000;0.7424;1.1768;
1185.0000;0.7440;1.1895;
1185.3000;0.7407;1.1895;
1185.6000;0.7383;1.1946;
1185.9000;0.7440;1.2073;
1186.2000;0.7416;1.2022;
1186.5000;0.7424;1.2022;
1186.8000;0.7424;1.1971;
1187.1000;0.7424;1.1921;
1187.4000;0.7538;1.2174;
1187.7000;0.7416;1.1870;
1188.0000;0.7416;1.1870;
1188.3000;0.7399;1.1870;
1188.6000;0.7432;1.1819;
1188.9000;0.7367;1.1692;
1189.2000;0.7448;1.1921;
1189.5000;0.7440;1.1921;
1189.8000;0.7424;1.1946;
1190.1000;0.7424;1.1946;
1190.4000;0.7432;1.1946;
1190.7000;0.7432;1.1946;
1191.0000;0.7440;1.1946;
1191.3000;0.7416;1.1921;
1191.6000;0.7416;1.1895;
1191.9000;0.7416;1.1895;
1192.2000;0.7407;1.1819;
1192.5000;0.7432;1.1794;
1192.8000;0.7416;1.1794;
1193.1000;0.7416;1.1845;
1193.4000;0.7399;1.1870;
1193.7000;0.7407;1.1921;
1194.0000;0.7424;1.1743;
1194.3000;0.7416;1.1718;
1194.6000;0.7416;1.1743;
1194.9000;0.7440;1.1794;
1195.2000;0.7432;1.1870;
1195.5000;0.7424;1.1946;
1195.8000;0.7432;1.1971;
1196.1000;0.7440;1.1971;
1196.4000;0.7424;1.1997;
1196.7000;0.7432;1.1946;
1197.0000;0.7424;1.1921;
1197.3000;0.7416;1.1895;
1197.6000;0.7399;1.1895;
1197.9000;0.7416;1.1946;
1198.2000;0.7416;1.1921;
1198.5000;0.7399;1.1895;
1198.8000;0.7432;1.1971;
1199.1000;0.7416;1.1946;
1199.4000;0.7424;1.1997;
1199.7000;0.7424;1.2047;
1200.0000;0.7440;1.1946;
1200.3000;0.7432;1.1870;
1200.6000;0.7424;1.1819;
1200.9000;0.7424;1.1845;
1201.2000;0.7473;1.1946;
1201.5000;0.7416;1.1768;
1201.8000;0.7440;1.1819;
1202.1000;0.7424;1.1768;
1202.4000;0.7424;1.1819;
1202.7000;0.7440;1.1845;
1203.0000;0.7424;1.1921;
1203.3000;0.7440;1.1997;
1203.6000;0.7448;1.1971;
1203.9000;0.7416;1.1997;
1204.2000;0.7407;1.1895;
1204.5000;0.7407;1.1895;
1204.8000;0.7367;1.1794;
1205.1000;0.7424;1.1921;
1205.4000;0.7424;1.1870;
1205.7000;0.7440;1.1870;
1206.0000;0.7424;1.1718;
1206.3000;0.7416;1.1642;
1206.6000;0.7432;1.1768;
1206.9000;0.7424;1.1794;
1207.2000;0.7432;1.1895;
1207.5000;0.7399;1.1819;
1207.8000;0.7432;1.1845;
1208.1000;0.7424;1.1870;
1208.4000;0.7416;1.2022;
1208.7000;0.7407;1.1997;
1209.0000;0.7424;1.1895;
1209.3000;0.7367;1.1718;
1209.6000;0.7464;1.1946;
1209.9000;0.7473;1.1971;
1210.2000;0.7416;1.1794;
1210.5000;0.7424;1.1768;
1210.8000;0.7407;1.1743;
1211.1000;0.7432;1.1870;
1211.4000;0.7416;1.1845;
1211.7000;0.7407;1.1845;
1212.0000;0.7424;1.1819;
1212.3000;0.7407;1.1870;
1212.6000;0.7424;1.1895;
1212.9000;0.7391;1.1819;
1213.2000;0.7424;1.1870;
1213.5000;0.7440;1.1946;
1213.8000;0.7424;1.1895;
1214.1000;0.7424;1.1921;
1214.4000;0.7432;1.1895;
1214.7000;0.7416;1.1870;
1215.0000;0.7407;1.1870;
1215.3000;0.7440;1.1997;
1215.6000;0.7424;1.1946;
1215.9000;0.7440;1.1895;
1216.2000;0.7416;1.1870;
1216.5000;0.7473;1.1946;
1216.8000;0.7383;1.1667;
1217.1000;0.7432;1.1768;
1217.4000;0.7424;1.1794;
1217.7000;0.7407;1.1845;
1218.0000;0.7448;1.1870;
1218.3000;0.7424;1.1870;
1218.6000;0.7424;1.1921;
1218.9000;0.7432;1.1997;
1219.2000;0.7416;1.1997;
1219.5000;0.7326;1.1667;
1219.8000;0.7432;1.2047;
1220.1000;0.7440;1.2073;
1220.4000;0.7424;1.2022;
1220.7000;0.7383;1.1768;
1221.0000;0.7424;1.1845;
1221.3000;0.7481;1.1997;
1221.6000;0.7416;1.1845;
1221.9000;0.7416;1.1845;
1222.2000;0.7375;1.1794;
1222.5000;0.7424;1.1819;
1222.8000;0.7326;1.1591;
1223.1000;0.7424;1.1819;
1223.4000;0.7440;1.1794;
1223.7000;0.7440;1.1895;
1224.0000;0.7440;1.1870;
1224.3000;0.7432;1.1845;
1224.6000;0.7432;1.1870;
1224.9000;0.7432;1.1921;
1225.2000;0.7448;1.1971;
1225.5000;0.7440;1.1845;
1225.8000;0.7464;1.1997;
1226.1000;0.7424;1.1997;
1226.4000;0.7530;1.2326;
1226.7000;0.7448;1.2124;
1227.0000;0.7416;1.1997;
1227.3000;0.7407;1.2047;
1227.6000;0.7432;1.2073;
1227.9000;0.7432;1.1997;
1228.2000;0.7424;1.1921;
1228.5000;0.7424;1.1895;
1228.8000;0.7416;1.1870;
1229.1000;0.7497;1.2047;
1229.4000;0.7448;1.1921;
1229.7000;0.7424;1.1895;
1230.0000;0.7424;1.1921;
1230.3000;0.7432;1.1946;
1230.6000;0.7407;1.1971;
1230.9000;0.7424;1.2047;
1231.2000;0.7424;1.2149;
1231.5000;0.7440;1.2250;
1231.8000;0.7432;1.2073;
1232.1000;0.7375;1.1895;
1232.4000;0.7407;1.1895;
1232.7000;0.7440;1.2022;
1233.0000;0.7440;1.2073;
1233.3000;0.7432;1.1997;
1233.6000;0.7407;1.2022;
1233.9000;0.7326;1.1895;
1234.2000;0.7440;1.2276;
1234.5000;0.7432;1.2250;
1234.8000;0.7416;1.2301;
1235.1000;0.7424;1.2326;
1235.4000;0.7375;1.2301;
1235.7000;0.7424;1.2301;
1236.0000;0.7432;1.2250;
1236.3000;0.7424;1.2098;
1236.6000;0.7432;1.2047;
1236.9000;0.7424;1.2073;
1237.2000;0.7416;1.2047;
1237.5000;0.7416;1.2073;
1237.8000;0.7416;1.2047;
1238.1000;0.7424;1.1997;
1238.4000;0.7424;1.2047;
1238.7000;0.7432;1.2098;
1239.0000;0.7432;1.2149;
1239.3000;0.7432;1.2174;
1239.6000;0.7432;1.2326;
1239.9000;0.7399;1.2200;
1240.2000;0.7416;1.2200;
1240.5000;0.7432;1.2200;
1240.8000;0.7432;1.2149;
1241.1000;0.7432;1.2073;
1241.4000;0.7407;1.1971;
1241.7000;0.7416;1.2022;
1242.0000;0.7440;1.2149;
1242.3000;0.7407;1.2124;
1242.6000;0.7432;1.2174;
1242.9000;0.7399;1.2073;
1243.2000;0.7310;1.1845;
1243.5000;0.7326;1.1921;
1243.8000;0.7350;1.2073;
1244.1000;0.7399;1.2200;
1244.4000;0.7367;1.2200;
1244.7000;0.7424;1.2276;
1245.0000;0.7399;1.2022;
1245.3000;0.7489;1.2301;
1245.6000;0.7432;1.1997;
1245.9000;0.7432;1.1971;
1246.2000;0.7416;1.2022;
1246.5000;0.7424;1.2073;
1246.8000;0.7350;1.1921;
1247.1000;0.7448;1.2098;
1247.4000;0.7416;1.1997;
1247.7000;0.7407;1.2098;
1248.0000;0.7424;1.2200;
1248.3000;0.7424;1.2200;
1248.6000;0.7440;1.2225;
1248.9000;0.7432;1.2225;
1249.2000;0.7464;1.2250;
1249.5000;0.7432;1.2149;
1249.8000;0.7473;1.2276;
1250.1000;0.7432;1.2098;
1250.4000;0.7432;1.2149;
1250.7000;0.7448;1.2124;
1251.0000;0.7407;1.2073;
1251.3000;0.7416;1.2047;
1251.6000;0.7399;1.1971;
1251.9000;0.7432;1.2047;
1252.2000;0.7424;1.1946;
1252.5000;0.7432;1.2098;
1252.8000;0.7424;1.2022;
1253.1000;0.7424;1.1997;
1253.4000;0.7424;1.1971;
1253.7000;0.7424;1.1921;
1254.0000;0.7440;1.1946;
1254.3000;0.7432;1.1997;
1254.6000;0.7464;1.2073;
1254.9000;0.7448;1.2098;
1255.2000;0.7432;1.2098;
1255.5000;0.7497;1.2124;
1255.8000;0.7440;1.1997;
1256.1000;0.7424;1.1946;
1256.4000;0.7359;1.1870;
1256.7000;0.7367;1.1819;
1257.0000;0.7562;1.2352;
1257.3000;0.7432;1.2047;
1257.6000;0.7416;1.2047;
1257.9000;0.7350;1.1819;
1258.2000;0.7440;1.2022;
1258.5000;0.7424;1.1971;
1258.8000;0.7407;1.1895;
1259.1000;0.7464;1.2073;
1259.4000;0.7456;1.1997;
1259.7000;0.7505;1.2225;
1260.0000;0.7432;1.1997;
1260.3000;0.7464;1.2047;
1260.6000;0.7448;1.2098;
1260.9000;0.7440;1.2124;
1261.2000;0.7391;1.1946;
1261.5000;0.7432;1.2047;
1261.8000;0.7424;1.1997;
1262.1000;0.7432;1.1997;
1262.4000;0.7440;1.2022;
1262.7000;0.7424;1.1997;
1263.0000;0.7440;1.2047;
1263.3000;0.7399;1.1946;
1263.6000;0.7391;1.1971;
1263.9000;0.7432;1.2073;
1264.2000;0.7424;1.2073;
1264.5000;0.7448;1.2149;
1264.8000;0.7448;1.1971;
1265.1000;0.7432;1.1819;
1265.4000;0.7448;1.1895;
1265.7000;0.7497;1.2073;
1266.0000;0.7440;1.1971;
1266.3000;0.7448;1.1997;
1266.6000;0.7416;1.1946;
1266.9000;0.7440;1.2022;
1267.2000;0.7440;1.2098;
1267.5000;0.7391;1.1997;
1267.8000;0.7416;1.2022;
1268.1000;0.7424;1.2022;
1268.4000;0.7424;1.2047;
1268.7000;0.7440;1.2098;
1269.0000;0.7407;1.2022;
1269.3000;0.7416;1.2047;
1269.6000;0.7432;1.2124;
1269.9000;0.7432;1.2174;
1270.2000;0.7424;1.2149;
1270.5000;0.7432;1.2276;
1270.8000;0.7432;1.2250;
1271.1000;0.7440;1.2200;
1271.4000;0.7432;1.2200;
1271.7000;0.7424;1.2200;
1272.0000;0.7416;1.2124;
1272.3000;0.7424;1.2149;
1272.6000;0.7416;1.2149;
1272.9000;0.7432;1.2174;
1273.2000;0.7424;1.2098;
1273.5000;0.7440;1.2149;
1273.8000;0.7424;1.2149;
1274.1000;0.7448;1.2124;
1274.4000;0.7424;1.2047;
1274.7000;0.7464;1.2149;
1275.0000;0.7416;1.2098;
1275.3000;0.7424;1.2174;
1275.6000;0.7432;1.2098;
1275.9000;0.7456;1.2124;
1276.2000;0.7440;1.2022;
1276.5000;0.7448;1.2073;
1276.8000;0.7505;1.2200;
1277.1000;0.7407;1.2022;
1277.4000;0.7432;1.2098;
1277.7000;0.7416;1.2047;
1278.0000;0.7432;1.2098;
1278.3000;0.7456;1.2174;
1278.6000;0.7440;1.2098;
1278.9000;0.7416;1.1921;
1279.2000;0.7407;1.1895;
1279.5000;0.7432;1.1971;
1279.8000;0.7416;1.1971;
1280.1000;0.7505;1.2225;
1280.4000;0.7416;1.2098;
1280.7000;0.7432;1.2149;
1281.0000;0.7448;1.2200;
1281.3000;0.7432;1.2098;
1281.6000;0.7440;1.2098;
1281.9000;0.7416;1.2098;
1282.2000;0.7440;1.2124;
1282.5000;0.7432;1.2149;
1282.8000;0.7416;1.1971;
1283.1000;0.7407;1.1971;
1283.4000;0.7489;1.2200;
1283.7000;0.7440;1.2073;
1284.0000;0.7424;1.2124;
1284.3000;0.7416;1.1971;
1284.6000;0.7432;1.2047;
1284.9000;0.7424;1.1997;
1285.2000;0.7440;1.1921;
1285.5000;0.7440;1.1946;
1285.8000;0.7432;1.1971;
1286.1000;0.7432;1.1946;
1286.4000;0.7432;1.1921;
1286.7000;0.7456;1.2022;
1287.0000;0.7424;1.1971;
1287.3000;0.7424;1.1971;
1287.6000;0.7464;1.1997;
1287.9000;0.7448;1.1971;
1288.2000;0.7432;1.2047;
1288.5000;0.7399;1.2047;
1288.8000;0.7448;1.2098;
1289.1000;0.7432;1.2073;
1289.4000;0.7464;1.2124;
1289.7000;0.7440;1.1921;
1290.0000;0.7456;1.1921;
1290.3000;0.7456;1.1845;
1290.6000;0.7416;1.1718;
1290.9000;0.7432;1.1743;
1291.2000;0.7448;1.1845;
1291.5000;0.7391;1.1667;
1291.8000;0.7432;1.1794;
1292.1000;0.7432;1.1794;
1292.4000;0.7432;1.1870;
1292.7000;0.7424;1.1870;
1293.0000;0.7367;1.1768;
1293.3000;0.7440;1.1946;
1293.6000;0.7432;1.1946;
1293.9000;0.7416;1.1921;
1294.2000;0.7448;1.1870;
1294.5000;0.7505;1.2022;
1294.8000;0.7424;1.1819;
1295.1000;0.7440;1.1946;
1295.4000;0.7432;1.1971;
1295.7000;0.7432;1.1971;
1296.0000;0.7448;1.2073;
1296.3000;0.7440;1.2047;
1296.6000;0.7432;1.2022;
1296.9000;0.7432;1.2073;
1297.2000;0.7424;1.2174;
1297.5000;0.7432;1.2225;
1297.8000;0.7497;1.2403;
1298.1000;0.7424;1.2200;
1298.4000;0.7424;1.2200;
1298.7000;0.7424;1.2174;
1299.0000;0.7456;1.2174;
1299.3000;0.7448;1.2098;
1299.6000;0.7440;1.2047;
1299.9000;0.7432;1.2225;
1300.2000;0.7481;1.2326;
1300.5000;0.7432;1.2250;
1300.8000;0.7440;1.2326;
1301.1000;0.7440;1.2352;
1301.4000;0.7416;1.2352;
1301.7000;0.7424;1.2301;
1302.0000;0.7432;1.2352;
1302.3000;0.7424;1.2301;
1302.6000;0.7440;1.2276;
1302.9000;0.7416;1.2326;
1303.2000;0.7424;1.2377;
1303.5000;0.7399;1.2326;
1303.8000;0.7432;1.2352;
1304.1000;0.7432;1.2377;
1304.4000;0.7448;1.2403;
1304.7000;0.7440;1.2403;
1305.0000;0.7424;1.2301;
1305.3000;0.7448;1.2250;
1305.6000;0.7440;1.2200;
1305.9000;0.7432;1.2200;
1306.2000;0.7448;1.2276;
1306.5000;0.7424;1.2200;
1306.8000;0.7424;1.2200;
1307.1000;0.7432;1.2276;
1307.4000;0.7424;1.2174;
1307.7000;0.7456;1.2326;
1308.0000;0.7424;1.2174;
1308.3000;0.7448;1.2200;
1308.6000;0.7424;1.2174;
1308.9000;0.7448;1.2377;
1309.2000;0.7440;1.2352;
1309.5000;0.7448;1.2453;
1309.8000;0.7432;1.2479;
1310.1000;0.7464;1.2529;
1310.4000;0.7424;1.2479;
1310.7000;0.7407;1.2377;
1311.0000;0.7432;1.2479;
1311.3000;0.7440;1.2377;
1311.6000;0.7440;1.2377;
1311.9000;0.7440;1.2352;
1312.2000;0.7440;1.2352;
1312.5000;0.7432;1.2403;
1312.8000;0.7481;1.2580;
1313.1000;0.7383;1.2377;
1313.4000;0.7448;1.2428;
1313.7000;0.7424;1.2326;
1314.0000;0.7505;1.2529;
1314.3000;0.7489;1.2377;
1314.6000;0.7375;1.2098;
1314.9000;0.7367;1.2073;
1315.2000;0.7497;1.2352;
1315.5000;0.7456;1.2174;
1315.8000;0.7464;1.2174;
1316.1000;0.7456;1.2124;
1316.4000;0.7448;1.2174;
1316.7000;0.7448;1.2250;
1317.0000;0.7440;1.2276;
1317.3000;0.7448;1.2276;
1317.6000;0.7440;1.2250;
1317.9000;0.7448;1.2149;
1318.2000;0.7448;1.2124;
1318.5000;0.7432;1.2073;
1318.8000;0.7440;1.2124;
1319.1000;0.7432;1.1971;
1319.4000;0.7448;1.2098;
1319.7000;0.7440;1.2073;
1320.0000;0.7448;1.1997;
1320.3000;0.7432;1.1971;
1320.6000;0.7448;1.1946;
1320.9000;0.7432;1.1921;
1321.2000;0.7448;1.2022;
1321.5000;0.7448;1.2073;
1321.8000;0.7440;1.2073;
1322.1000;0.7432;1.2149;
1322.4000;0.7424;1.2225;
1322.7000;0.7432;1.2276;
1323.0000;0.7448;1.2225;
1323.3000;0.7424;1.2149;
1323.6000;0.7424;1.2174;
1323.9000;0.7440;1.2250;
1324.2000;0.7416;1.2174;
1324.5000;0.7440;1.2250;
1324.8000;0.7432;1.2301;
1325.1000;0.7440;1.2301;
1325.4000;0.7440;1.2301;
1325.7000;0.7432;1.2326;
1326.0000;0.7432;1.2403;
1326.3000;0.7399;1.2352;
1326.6000;0.7424;1.2326;
1326.9000;0.7440;1.2352;
1327.2000;0.7359;1.2073;
1327.5000;0.7424;1.2225;
1327.8000;0.7424;1.2200;
1328.1000;0.7416;1.2174;
1328.4000;0.7424;1.2225;
1328.7000;0.7440;1.2200;
1329.0000;0.7432;1.2200;
1329.3000;0.7448;1.2200;
1329.6000;0.7432;1.2200;
1329.9000;0.7440;1.2149;
1330.2000;0.7448;1.2047;
1330.5000;0.7432;1.2047;
1330.8000;0.7505;1.2250;
1331.1000;0.7448;1.2098;
1331.4000;0.7448;1.2174;
1331.7000;0.7440;1.2098;
1332.0000;0.7448;1.2098;
1332.3000;0.7448;1.1997;
1332.6000;0.7432;1.2047;
1332.9000;0.7481;1.2174;
1333.2000;0.7424;1.2124;
1333.5000;0.7432;1.2250;
1333.8000;0.7456;1.2276;
1334.1000;0.7416;1.2250;
1334.4000;0.7456;1.2326;
1334.7000;0.7448;1.2250;
1335.0000;0.7464;1.2301;
1335.3000;0.7464;1.2377;
1335.6000;0.7448;1.2276;
1335.9000;0.7399;1.2098;
1336.2000;0.7432;1.2174;
1336.5000;0.7383;1.2022;
1336.8000;0.7407;1.2098;
1337.1000;0.7416;1.2073;
1337.4000;0.7407;1.2073;
1337.7000;0.7440;1.2174;
1338.0000;0.7432;1.2174;
1338.3000;0.7359;1.2047;
1338.6000;0.7448;1.2326;
1338.9000;0.7424;1.2124;
1339.2000;0.7440;1.2149;
1339.5000;0.7432;1.2200;
1339.8000;0.7432;1.2124;
1340.1000;0.7432;1.2098;
1340.4000;0.7448;1.2149;
1340.7000;0.7424;1.2200;
1341.0000;0.7432;1.2250;
1341.3000;0.7432;1.2149;
1341.6000;0.7432;1.2225;
1341.9000;0.7432;1.2326;
1342.2000;0.7424;1.2200;
1342.5000;0.7440;1.2174;
1342.8000;0.7416;1.2225;
1343.1000;0.7424;1.2200;
1343.4000;0.7448;1.2326;
1343.7000;0.7448;1.2453;
1344.0000;0.7432;1.2453;
1344.3000;0.7440;1.2504;
1344.6000;0.7399;1.2326;
1344.9000;0.7424;1.2428;
1345.2000;0.7448;1.2377;
1345.5000;0.7432;1.2276;
1345.8000;0.7456;1.2326;
1346.1000;0.7440;1.2301;
1346.4000;0.7440;1.2276;
1346.7000;0.7464;1.2301;
1347.0000;0.7440;1.2276;
1347.3000;0.7391;1.2047;
1347.6000;0.7416;1.2098;
1347.9000;0.7448;1.2200;
1348.2000;0.7424;1.2098;
1348.5000;0.7424;1.2124;
1348.8000;0.7432;1.2098;
1349.1000;0.7440;1.2047;
1349.4000;0.7383;1.1971;
1349.7000;0.7432;1.2073;
1350.0000;0.7432;1.2098;
1350.3000;0.7424;1.2022;
1350.6000;0.7432;1.2022;
1350.9000;0.7448;1.2149;
1351.2000;0.7440;1.2225;
1351.5000;0.7391;1.2047;
1351.8000;0.7464;1.2250;
1352.1000;0.7432;1.2149;
1352.4000;0.7440;1.2225;
1352.7000;0.7456;1.2174;
1353.0000;0.7424;1.2022;
1353.3000;0.7440;1.2073;
1353.6000;0.7424;1.2098;
1353.9000;0.7399;1.2098;
1354.2000;0.7383;1.1946;
1354.5000;0.7448;1.2250;
1354.8000;0.7489;1.2403;
1355.1000;0.7432;1.2250;
1355.4000;0.7473;1.2428;
1355.7000;0.7416;1.2377;
1356.0000;0.7432;1.2479;
1356.3000;0.7440;1.2555;
1356.6000;0.7432;1.2504;
1356.9000;0.7399;1.2326;
1357.2000;0.7473;1.2453;
1357.5000;0.7399;1.2276;
1357.8000;0.7432;1.2225;
1358.1000;0.7424;1.2098;
1358.4000;0.7432;1.2022;
1358.7000;0.7432;1.2022;
1359.0000;0.7456;1.2022;
1359.3000;0.7448;1.2073;
1359.6000;0.7416;1.1971;
1359.9000;0.7424;1.2047;
1360.2000;0.7440;1.2047;
1360.5000;0.7464;1.2149;
1360.8000;0.7424;1.1997;
1361.1000;0.7440;1.1971;
1361.4000;0.7505;1.2073;
1361.7000;0.7432;1.1971;
1362.0000;0.7399;1.1870;
1362.3000;0.7448;1.2047;
1362.6000;0.7399;1.2022;
1362.9000;0.7464;1.2326;
1363.2000;0.7432;1.2149;
1363.5000;0.7407;1.2073;
1363.8000;0.7448;1.2073;
1364.1000;0.7440;1.1997;
1364.4000;0.7432;1.2022;
1364.7000;0.7448;1.2124;
1365.0000;0.7448;1.2149;
1365.3000;0.7440;1.2174;
1365.6000;0.7440;1.2124;
1365.9000;0.7440;1.2174;
1366.2000;0.7440;1.2276;
1366.5000;0.7456;1.2250;
1366.8000;0.7432;1.2149;
1367.1000;0.7416;1.2124;
1367.4000;0.7440;1.2149;
1367.7000;0.7448;1.2124;
1368.0000;0.7448;1.2022;
1368.3000;0.7456;1.1946;
1368.6000;0.7456;1.1895;
1368.9000;0.7464;1.1997;
1369.2000;0.7440;1.1971;
1369.5000;0.7440;1.1997;
1369.8000;0.7456;1.2073;
1370.1000;0.7432;1.2047;
1370.4000;0.7456;1.2047;
1370.7000;0.7456;1.2200;
1371.0000;0.7391;1.2047;
1371.3000;0.7456;1.2200;
1371.6000;0.7432;1.2073;
1371.9000;0.7424;1.2124;
1372.2000;0.7440;1.2073;
1372.5000;0.7424;1.2022;
1372.8000;0.7407;1.2073;
1373.1000;0.7424;1.2301;
1373.4000;0.7440;1.2250;
1373.7000;0.7424;1.2250;
1374.0000;0.7416;1.2377;
1374.3000;0.7432;1.2479;
1374.6000;0.7456;1.2631;
1374.9000;0.7416;1.2428;
1375.2000;0.7424;1.2403;
1375.5000;0.7416;1.2326;
1375.8000;0.7375;1.2250;
1376.1000;0.7440;1.2377;
1376.4000;0.7424;1.2301;
1376.7000;0.7432;1.2250;
1377.0000;0.7424;1.2250;
1377.3000;0.7391;1.2073;
1377.6000;0.7432;1.2250;
1377.9000;0.7456;1.2225;
1378.2000;0.7448;1.2149;
1378.5000;0.7440;1.2098;
1378.8000;0.7416;1.2022;
1379.1000;0.7456;1.2149;
1379.4000;0.7440;1.2149;
1379.7000;0.7456;1.2174;
1380.0000;0.7448;1.2174;
1380.3000;0.7416;1.2022;
1380.6000;0.7440;1.2047;
1380.9000;0.7440;1.2073;
1381.2000;0.7448;1.2174;
1381.5000;0.7448;1.2200;
1381.8000;0.7464;1.2174;
1382.1000;0.7432;1.2073;
1382.4000;0.7424;1.1971;
1382.7000;0.7448;1.2098;
1383.0000;0.7448;1.2149;
1383.3000;0.7424;1.2174;
1383.6000;0.7440;1.2200;
1383.9000;0.7448;1.2250;
1384.2000;0.7456;1.2149;
1384.5000;0.7440;1.2149;
1384.8000;0.7424;1.2124;
1385.1000;0.7448;1.2276;
1385.4000;0.7432;1.2250;
1385.7000;0.7432;1.2200;
1386.0000;0.7440;1.2149;
1386.3000;0.7432;1.2098;
1386.6000;0.7448;1.2225;
1386.9000;0.7424;1.2250;
1387.2000;0.7440;1.2250;
1387.5000;0.7440;1.2377;
1387.8000;0.7456;1.2403;
1388.1000;0.7432;1.2428;
1388.4000;0.7448;1.2403;
1388.7000;0.7473;1.2453;
1389.0000;0.7456;1.2428;
1389.3000;0.7448;1.2403;
1389.6000;0.7595;1.2758;
1389.9000;0.7440;1.2428;
1390.2000;0.7464;1.2479;
1390.5000;0.7448;1.2428;
1390.8000;0.7481;1.2479;
1391.1000;0.7448;1.2403;
1391.4000;0.7440;1.2377;
1391.7000;0.7432;1.2326;
1392.0000;0.7448;1.2403;
1392.3000;0.7440;1.2377;
1392.6000;0.7505;1.2605;
1392.9000;0.7440;1.2428;
1393.2000;0.7440;1.2504;
1393.5000;0.7416;1.2403;
1393.8000;0.7448;1.2403;
1394.1000;0.7448;1.2352;
1394.4000;0.7424;1.2352;
1394.7000;0.7432;1.2276;
1395.0000;0.7432;1.2276;
1395.3000;0.7448;1.2301;
1395.6000;0.7424;1.2250;
1395.9000;0.7440;1.2326;
1396.2000;0.7481;1.2377;
1396.5000;0.7448;1.2301;
1396.8000;0.7440;1.2225;
1397.1000;0.7432;1.2124;
1397.4000;0.7334;1.1921;
1397.7000;0.7383;1.2149;
1398.0000;0.7440;1.2301;
1398.3000;0.7416;1.2352;
1398.6000;0.7464;1.2479;
1398.9000;0.7562;1.2783;
1399.2000;0.7448;1.2403;
1399.5000;0.7440;1.2326;
1399.8000;0.7440;1.2326;
