time/ms;Fluo/V;P700 deltaI/I x10³;
-199.8000;0.6960;0.9460;
-199.5000;0.6952;0.9537;
-199.2000;0.6968;0.9537;
-198.9000;0.6756;0.8979;
-198.6000;0.6960;0.9511;
-198.3000;0.6960;0.9486;
-198.0000;0.7139;0.9968;
-197.7000;0.6968;0.9435;
-197.4000;0.6976;0.9384;
-197.1000;0.6976;0.9435;
-196.8000;0.7009;0.9511;
-196.5000;0.7000;0.9511;
-196.2000;0.7000;0.9410;
-195.9000;0.7066;0.9486;
-195.6000;0.7000;0.9308;
-195.3000;0.6992;0.9258;
-195.0000;0.7000;0.9283;
-194.7000;0.7009;0.9181;
-194.4000;0.7025;0.9207;
-194.1000;0.6927;0.8877;
-193.8000;0.7074;0.9308;
-193.5000;0.7017;0.9156;
-193.2000;0.6895;0.8877;
-192.9000;0.6992;0.9156;
-192.6000;0.7009;0.9232;
-192.3000;0.7009;0.9207;
-192.0000;0.6919;0.8979;
-191.7000;0.7041;0.9232;
-191.4000;0.6976;0.9055;
-191.1000;0.7074;0.9334;
-190.8000;0.6935;0.8979;
-190.5000;0.7033;0.9308;
-190.2000;0.7033;0.9384;
-189.9000;0.6968;0.9258;
-189.6000;0.7025;0.9410;
-189.3000;0.7041;0.9410;
-189.0000;0.7049;0.9334;
-188.7000;0.7017;0.9258;
-188.4000;0.7009;0.9283;
-188.1000;0.7066;0.9486;
-187.8000;0.7057;0.9435;
-187.5000;0.7041;0.9359;
-187.2000;0.7057;0.9308;
-186.9000;0.7066;0.9258;
-186.6000;0.7074;0.9283;
-186.3000;0.7074;0.9258;
-186.0000;0.7082;0.9232;
-185.7000;0.7082;0.9258;
-185.4000;0.7082;0.9258;
-185.1000;0.7074;0.9232;
-184.8000;0.7082;0.9207;
-184.5000;0.7082;0.9283;
-184.2000;0.7098;0.9258;
-183.9000;0.7082;0.9258;
-183.6000;0.7098;0.9283;
-183.3000;0.7098;0.9181;
-183.0000;0.7106;0.9181;
-182.7000;0.7106;0.9131;
-182.4000;0.7106;0.9232;
-182.1000;0.7114;0.9232;
-181.8000;0.7106;0.9232;
-181.5000;0.7123;0.9334;
-181.2000;0.7098;0.9308;
-180.9000;0.7123;0.9359;
-180.6000;0.7131;0.9308;
-180.3000;0.7131;0.9308;
-180.0000;0.7139;0.9334;
-179.7000;0.7139;0.9359;
-179.4000;0.7131;0.9511;
-179.1000;0.7049;0.9359;
-178.8000;0.7131;0.9486;
-178.5000;0.7049;0.9258;
-178.2000;0.7147;0.9486;
-177.9000;0.7147;0.9486;
-177.6000;0.7155;0.9460;
-177.3000;0.7139;0.9308;
-177.0000;0.7163;0.9283;
-176.7000;0.7163;0.9384;
-176.4000;0.7204;0.9537;
-176.1000;0.7155;0.9359;
-175.8000;0.7171;0.9334;
-175.5000;0.7188;0.9410;
-175.2000;0.7204;0.9435;
-174.9000;0.7179;0.9359;
-174.6000;0.7188;0.9359;
-174.3000;0.7106;0.9080;
-174.0000;0.7204;0.9384;
-173.7000;0.7236;0.9435;
-173.4000;0.7196;0.9359;
-173.1000;0.7212;0.9334;
-172.8000;0.7196;0.9334;
-172.5000;0.7204;0.9384;
-172.2000;0.7196;0.9359;
-171.9000;0.7236;0.9460;
-171.6000;0.7220;0.9410;
-171.3000;0.7228;0.9283;
-171.0000;0.7228;0.9359;
-170.7000;0.7269;0.9435;
-170.4000;0.7245;0.9334;
-170.1000;0.7220;0.9359;
-169.8000;0.7236;0.9460;
-169.5000;0.7236;0.9511;
-169.2000;0.7261;0.9486;
-168.9000;0.7245;0.9460;
-168.6000;0.7139;0.9131;
-168.3000;0.7261;0.9359;
-168.0000;0.7277;0.9308;
-167.7000;0.7269;0.9334;
-167.4000;0.7269;0.9359;
-167.1000;0.7269;0.9334;
-166.8000;0.7277;0.9334;
-166.5000;0.7277;0.9258;
-166.2000;0.7277;0.9207;
-165.9000;0.7277;0.9232;
-165.6000;0.7277;0.9308;
-165.3000;0.7285;0.9258;
-165.0000;0.7277;0.9258;
-164.7000;0.7285;0.9334;
-164.4000;0.7293;0.9334;
-164.1000;0.7310;0.9359;
-163.8000;0.7293;0.9308;
-163.5000;0.7285;0.9232;
-163.2000;0.7310;0.9334;
-162.9000;0.7318;0.9384;
-162.6000;0.7318;0.9435;
-162.3000;0.7334;0.9460;
-162.0000;0.7318;0.9359;
-161.7000;0.7334;0.9410;
-161.4000;0.7326;0.9410;
-161.1000;0.7326;0.9435;
-160.8000;0.7334;0.9384;
-160.5000;0.7310;0.9359;
-160.2000;0.7350;0.9435;
-159.9000;0.7350;0.9511;
-159.6000;0.7350;0.9537;
-159.3000;0.7350;0.9537;
-159.0000;0.7350;0.9435;
-158.7000;0.7350;0.9384;
-158.4000;0.7359;0.9410;
-158.1000;0.7432;0.9537;
-157.8000;0.7424;0.9587;
-157.5000;0.7375;0.9410;
-157.2000;0.7367;0.9334;
-156.9000;0.7383;0.9334;
-156.6000;0.7391;0.9384;
-156.3000;0.7399;0.9410;
-156.0000;0.7383;0.9308;
-155.7000;0.7375;0.9232;
-155.4000;0.7407;0.9334;
-155.1000;0.7399;0.9384;
-154.8000;0.7399;0.9384;
-154.5000;0.7399;0.9435;
-154.2000;0.7416;0.9359;
-153.9000;0.7407;0.9308;
-153.6000;0.7473;0.9486;
-153.3000;0.7416;0.9460;
-153.0000;0.7416;0.9511;
-152.7000;0.7432;0.9537;
-152.4000;0.7440;0.9537;
-152.1000;0.7424;0.9435;
-151.8000;0.7407;0.9460;
-151.5000;0.7416;0.9460;
-151.2000;0.7424;0.9384;
-150.9000;0.7448;0.9410;
-150.6000;0.7448;0.9384;
-150.3000;0.7456;0.9384;
-150.0000;0.7464;0.9410;
-149.7000;0.7464;0.9410;
-149.4000;0.7448;0.9308;
-149.1000;0.7440;0.9359;
-148.8000;0.7473;0.9435;
-148.5000;0.7513;0.9638;
-148.2000;0.7464;0.9410;
-147.9000;0.7473;0.9359;
-147.6000;0.7513;0.9435;
-147.3000;0.7456;0.9258;
-147.0000;0.7473;0.9283;
-146.7000;0.7481;0.9334;
-146.4000;0.7497;0.9308;
-146.1000;0.7513;0.9359;
-145.8000;0.7481;0.9308;
-145.5000;0.7570;0.9435;
-145.2000;0.7505;0.9131;
-144.9000;0.7497;0.9131;
-144.6000;0.7505;0.9232;
-144.3000;0.7489;0.9207;
-144.0000;0.7546;0.9384;
-143.7000;0.7530;0.9359;
-143.4000;0.7521;0.9308;
-143.1000;0.7481;0.9232;
-142.8000;0.7538;0.9308;
-142.5000;0.7538;0.9181;
-142.2000;0.7530;0.9156;
-141.9000;0.7521;0.9131;
-141.6000;0.7595;0.9359;
-141.3000;0.7489;0.8979;
-141.0000;0.7497;0.9004;
-140.7000;0.7424;0.8852;
-140.4000;0.7546;0.9232;
-140.1000;0.7538;0.9232;
-139.8000;0.7538;0.9181;
-139.5000;0.7546;0.9181;
-139.2000;0.7554;0.9258;
-138.9000;0.7554;0.9283;
-138.6000;0.7554;0.9384;
-138.3000;0.7554;0.9384;
-138.0000;0.7586;0.9359;
-137.7000;0.7668;0.9562;
-137.4000;0.7586;0.9435;
-137.1000;0.7603;0.9460;
-136.8000;0.7643;0.9562;
-136.5000;0.7570;0.9308;
-136.2000;0.7586;0.9334;
-135.9000;0.7627;0.9410;
-135.6000;0.7578;0.9283;
-135.3000;0.7619;0.9334;
-135.0000;0.7578;0.9258;
-134.7000;0.7619;0.9435;
-134.4000;0.7619;0.9384;
-134.1000;0.7643;0.9486;
-133.8000;0.7611;0.9410;
-133.5000;0.7595;0.9308;
-133.2000;0.7627;0.9359;
-132.9000;0.7619;0.9359;
-132.6000;0.7741;0.9663;
-132.3000;0.7709;0.9486;
-132.0000;0.7627;0.9334;
-131.7000;0.7652;0.9435;
-131.4000;0.7635;0.9359;
-131.1000;0.7643;0.9410;
-130.8000;0.7635;0.9460;
-130.5000;0.7643;0.9511;
-130.2000;0.7652;0.9486;
-129.9000;0.7652;0.9460;
-129.6000;0.7643;0.9435;
-129.3000;0.7627;0.9334;
-129.0000;0.7660;0.9435;
-128.7000;0.7652;0.9460;
-128.4000;0.7668;0.9460;
-128.1000;0.7660;0.9410;
-127.8000;0.7668;0.9334;
-127.5000;0.7676;0.9308;
-127.2000;0.7700;0.9308;
-126.9000;0.7717;0.9486;
-126.6000;0.7692;0.9410;
-126.3000;0.7692;0.9384;
-126.0000;0.7709;0.9384;
-125.7000;0.7717;0.9410;
-125.4000;0.7700;0.9384;
-125.1000;0.7684;0.9283;
-124.8000;0.7717;0.9359;
-124.5000;0.7709;0.9283;
-124.2000;0.7700;0.9308;
-123.9000;0.7700;0.9359;
-123.6000;0.7709;0.9435;
-123.3000;0.7700;0.9384;
-123.0000;0.7692;0.9460;
-122.7000;0.7709;0.9384;
-122.4000;0.7717;0.9308;
-122.1000;0.7741;0.9308;
-121.8000;0.7725;0.9308;
-121.5000;0.7692;0.9258;
-121.2000;0.7733;0.9232;
-120.9000;0.7725;0.9384;
-120.6000;0.7733;0.9384;
-120.3000;0.7717;0.9359;
-120.0000;0.7733;0.9359;
-119.7000;0.7733;0.9308;
-119.4000;0.7774;0.9384;
-119.1000;0.7757;0.9334;
-118.8000;0.7766;0.9232;
-118.5000;0.7741;0.9283;
-118.2000;0.7888;0.9689;
-117.9000;0.7766;0.9308;
-117.6000;0.7749;0.9232;
-117.3000;0.7757;0.9258;
-117.0000;0.7774;0.9334;
-116.7000;0.7798;0.9334;
-116.4000;0.7782;0.9359;
-116.1000;0.7790;0.9334;
-115.8000;0.7847;0.9511;
-115.5000;0.7790;0.9384;
-115.2000;0.7603;0.9004;
-114.9000;0.7774;0.9486;
-114.6000;0.7806;0.9562;
-114.3000;0.7798;0.9435;
-114.0000;0.7725;0.9181;
-113.7000;0.7855;0.9460;
-113.4000;0.7814;0.9384;
-113.1000;0.7871;0.9460;
-112.8000;0.7839;0.9308;
-112.5000;0.7839;0.9283;
-112.2000;0.7855;0.9384;
-111.9000;0.7823;0.9359;
-111.6000;0.7790;0.9258;
-111.3000;0.7831;0.9460;
-111.0000;0.7823;0.9486;
-110.7000;0.7782;0.9384;
-110.4000;0.7839;0.9435;
-110.1000;0.7831;0.9334;
-109.8000;0.7839;0.9308;
-109.5000;0.7855;0.9258;
-109.2000;0.7823;0.9308;
-108.9000;0.7855;0.9308;
-108.6000;0.7871;0.9334;
-108.3000;0.7847;0.9283;
-108.0000;0.7863;0.9359;
-107.7000;0.7871;0.9384;
-107.4000;0.7847;0.9384;
-107.1000;0.7847;0.9410;
-106.8000;0.7863;0.9410;
-106.5000;0.7871;0.9334;
-106.2000;0.7839;0.9308;
-105.9000;0.7863;0.9334;
-105.6000;0.7863;0.9334;
-105.3000;0.7871;0.9334;
-105.0000;0.7880;0.9308;
-104.7000;0.7863;0.9131;
-104.4000;0.7839;0.9105;
-104.1000;0.7888;0.9308;
-103.8000;0.7888;0.9334;
-103.5000;0.7888;0.9308;
-103.2000;0.7904;0.9334;
-102.9000;0.7904;0.9410;
-102.6000;0.7912;0.9410;
-102.3000;0.7920;0.9359;
-102.0000;0.7928;0.9460;
-101.7000;0.7912;0.9334;
-101.4000;0.7920;0.9283;
-101.1000;0.7920;0.9308;
-100.8000;0.7904;0.9258;
-100.5000;0.7920;0.9283;
-100.2000;0.7896;0.9384;
-99.9000;0.7904;0.9511;
-99.6000;0.7912;0.9511;
-99.3000;0.7863;0.9384;
-99.0000;0.7912;0.9460;
-98.7000;0.7912;0.9460;
-98.4000;0.7912;0.9486;
-98.1000;0.7945;0.9587;
-97.8000;0.7953;0.9587;
-97.5000;0.7953;0.9562;
-97.2000;0.7937;0.9562;
-96.9000;0.7953;0.9511;
-96.6000;0.7961;0.9587;
-96.3000;0.7945;0.9435;
-96.0000;0.7945;0.9460;
-95.7000;0.7969;0.9511;
-95.4000;0.7985;0.9562;
-95.1000;0.7945;0.9435;
-94.8000;0.7945;0.9511;
-94.5000;0.7969;0.9562;
-94.2000;0.7969;0.9562;
-93.9000;0.7969;0.9410;
-93.6000;0.7969;0.9359;
-93.3000;0.7977;0.9308;
-93.0000;0.7985;0.9308;
-92.7000;0.7993;0.9384;
-92.4000;0.7985;0.9232;
-92.1000;0.7977;0.9181;
-91.8000;0.8002;0.9283;
-91.5000;0.8002;0.9258;
-91.2000;0.8059;0.9460;
-90.9000;0.8018;0.9384;
-90.6000;0.7969;0.9258;
-90.3000;0.8010;0.9384;
-90.0000;0.7993;0.9308;
-89.7000;0.7993;0.9283;
-89.4000;0.7985;0.9258;
-89.1000;0.8050;0.9359;
-88.8000;0.8018;0.9283;
-88.5000;0.8010;0.9207;
-88.2000;0.8010;0.9181;
-87.9000;0.7920;0.9004;
-87.6000;0.8026;0.9207;
-87.3000;0.8026;0.9181;
-87.0000;0.8026;0.9232;
-86.7000;0.8067;0.9334;
-86.4000;0.8026;0.9283;
-86.1000;0.8034;0.9258;
-85.8000;0.8034;0.9156;
-85.5000;0.8010;0.9232;
-85.2000;0.8034;0.9258;
-84.9000;0.8002;0.9055;
-84.6000;0.8034;0.9156;
-84.3000;0.8026;0.9105;
-84.0000;0.8034;0.9131;
-83.7000;0.8050;0.9181;
-83.4000;0.8034;0.9105;
-83.1000;0.8042;0.9207;
-82.8000;0.8050;0.9258;
-82.5000;0.7945;0.8953;
-82.2000;0.8050;0.9181;
-81.9000;0.8059;0.9258;
-81.6000;0.8075;0.9283;
-81.3000;0.8099;0.9384;
-81.0000;0.8050;0.9334;
-80.7000;0.8083;0.9384;
-80.4000;0.8050;0.9308;
-80.1000;0.8075;0.9435;
-79.8000;0.8067;0.9384;
-79.5000;0.8075;0.9359;
-79.2000;0.8083;0.9308;
-78.9000;0.8083;0.9283;
-78.6000;0.8099;0.9232;
-78.3000;0.8083;0.9207;
-78.0000;0.8067;0.9156;
-77.7000;0.8099;0.9232;
-77.4000;0.8099;0.9207;
-77.1000;0.8091;0.9105;
-76.8000;0.8083;0.9156;
-76.5000;0.8099;0.9258;
-76.2000;0.8107;0.9207;
-75.9000;0.8099;0.9334;
-75.6000;0.8099;0.9359;
-75.3000;0.8140;0.9410;
-75.0000;0.8099;0.9283;
-74.7000;0.8107;0.9283;
-74.4000;0.8107;0.9334;
-74.1000;0.8140;0.9384;
-73.8000;0.8107;0.9384;
-73.5000;0.8107;0.9384;
-73.2000;0.8164;0.9359;
-72.9000;0.8116;0.9156;
-72.6000;0.8124;0.9105;
-72.3000;0.8124;0.9105;
-72.0000;0.8124;0.9131;
-71.7000;0.8075;0.8953;
-71.4000;0.8132;0.9055;
-71.1000;0.8124;0.9131;
-70.8000;0.8132;0.9156;
-70.5000;0.8148;0.9156;
-70.2000;0.8173;0.9181;
-69.9000;0.8246;0.9283;
-69.6000;0.8140;0.9029;
-69.3000;0.8140;0.9080;
-69.0000;0.8132;0.9004;
-68.7000;0.8148;0.9080;
-68.4000;0.8164;0.8953;
-68.1000;0.8148;0.8852;
-67.8000;0.8148;0.8877;
-67.5000;0.8164;0.8877;
-67.2000;0.8221;0.9055;
-66.9000;0.8181;0.8928;
-66.6000;0.8156;0.8953;
-66.3000;0.8173;0.9055;
-66.0000;0.8164;0.9156;
-65.7000;0.8164;0.9131;
-65.4000;0.8164;0.9232;
-65.1000;0.8173;0.9334;
-64.8000;0.8181;0.9359;
-64.5000;0.8181;0.9334;
-64.2000;0.8181;0.9232;
-63.9000;0.8173;0.9105;
-63.6000;0.8197;0.9080;
-63.3000;0.8254;0.9181;
-63.0000;0.8213;0.9131;
-62.7000;0.8189;0.9029;
-62.4000;0.8205;0.9105;
-62.1000;0.8197;0.9080;
-61.8000;0.8197;0.9080;
-61.5000;0.8156;0.9029;
-61.2000;0.8205;0.9055;
-60.9000;0.8181;0.9029;
-60.6000;0.8197;0.9055;
-60.3000;0.8205;0.9105;
-60.0000;0.8205;0.9105;
-59.7000;0.8189;0.9080;
-59.4000;0.8205;0.9029;
-59.1000;0.8205;0.9055;
-58.8000;0.8205;0.9004;
-58.5000;0.8303;0.9308;
-58.2000;0.8230;0.9207;
-57.9000;0.8230;0.9334;
-57.6000;0.8278;0.9460;
-57.3000;0.8246;0.9537;
-57.0000;0.8205;0.9410;
-56.7000;0.8230;0.9410;
-56.4000;0.8287;0.9587;
-56.1000;0.8230;0.9435;
-55.8000;0.8238;0.9384;
-55.5000;0.8221;0.9410;
-55.2000;0.8230;0.9334;
-54.9000;0.8213;0.9181;
-54.6000;0.8262;0.9258;
-54.3000;0.8230;0.9181;
-54.0000;0.8246;0.9232;
-53.7000;0.8246;0.9207;
-53.4000;0.8246;0.9232;
-53.1000;0.8246;0.9181;
-52.8000;0.8230;0.9131;
-52.5000;0.8246;0.9181;
-52.2000;0.8254;0.9105;
-51.9000;0.8246;0.9105;
-51.6000;0.8270;0.9207;
-51.3000;0.8230;0.9080;
-51.0000;0.8221;0.9055;
-50.7000;0.8295;0.9181;
-50.4000;0.8238;0.9004;
-50.1000;0.8295;0.9131;
-49.8000;0.8287;0.9055;
-49.5000;0.8270;0.8979;
-49.2000;0.8287;0.8902;
-48.9000;0.8287;0.9080;
-48.6000;0.8278;0.9156;
-48.3000;0.8262;0.9029;
-48.0000;0.8319;0.9131;
-47.7000;0.8213;0.8902;
-47.4000;0.8287;0.9232;
-47.1000;0.8335;0.9359;
-46.8000;0.8303;0.9334;
-46.5000;0.8295;0.9334;
-46.2000;0.8303;0.9258;
-45.9000;0.8311;0.9232;
-45.6000;0.8311;0.9232;
-45.3000;0.8303;0.9207;
-45.0000;0.8335;0.9283;
-44.7000;0.8311;0.9207;
-44.4000;0.8303;0.9258;
-44.1000;0.8303;0.9181;
-43.8000;0.8311;0.9232;
-43.5000;0.8319;0.9258;
-43.2000;0.8262;0.9131;
-42.9000;0.8311;0.9207;
-42.6000;0.8311;0.9207;
-42.3000;0.8376;0.9486;
-42.0000;0.8319;0.9359;
-41.7000;0.8311;0.9232;
-41.4000;0.8311;0.9207;
-41.1000;0.8376;0.9359;
-40.8000;0.8352;0.9283;
-40.5000;0.8327;0.9283;
-40.2000;0.8319;0.9232;
-39.9000;0.8278;0.9004;
-39.6000;0.8368;0.9207;
-39.3000;0.8287;0.8928;
-39.0000;0.8352;0.9131;
-38.7000;0.8352;0.9156;
-38.4000;0.8344;0.9156;
-38.1000;0.8335;0.9156;
-37.8000;0.8303;0.9181;
-37.5000;0.8344;0.9207;
-37.2000;0.8344;0.9334;
-36.9000;0.8352;0.9308;
-36.6000;0.8287;0.9131;
-36.3000;0.8327;0.9156;
-36.0000;0.8360;0.9207;
-35.7000;0.8368;0.9283;
-35.4000;0.8344;0.9258;
-35.1000;0.8352;0.9181;
-34.8000;0.8352;0.9156;
-34.5000;0.8352;0.9232;
-34.2000;0.8360;0.9283;
-33.9000;0.8368;0.9334;
-33.6000;0.8344;0.9283;
-33.3000;0.8344;0.9258;
-33.0000;0.8368;0.9308;
-32.7000;0.8368;0.9359;
-32.4000;0.8368;0.9359;
-32.1000;0.8368;0.9258;
-31.8000;0.8376;0.9283;
-31.5000;0.8360;0.9334;
-31.2000;0.8376;0.9359;
-30.9000;0.8409;0.9410;
-30.6000;0.8392;0.9334;
-30.3000;0.8360;0.9207;
-30.0000;0.8376;0.9232;
-29.7000;0.8384;0.9283;
-29.4000;0.8392;0.9258;
-29.1000;0.8417;0.9308;
-28.8000;0.8360;0.9156;
-28.5000;0.8376;0.9232;
-28.2000;0.8417;0.9334;
-27.9000;0.8392;0.9283;
-27.6000;0.8400;0.9334;
-27.3000;0.8400;0.9410;
-27.0000;0.8417;0.9435;
-26.7000;0.8425;0.9384;
-26.4000;0.8409;0.9359;
-26.1000;0.8360;0.9156;
-25.8000;0.8400;0.9308;
-25.5000;0.8360;0.9283;
-25.2000;0.8376;0.9384;
-24.9000;0.8425;0.9460;
-24.6000;0.8409;0.9486;
-24.3000;0.8457;0.9537;
-24.0000;0.8498;0.9486;
-23.7000;0.8417;0.9258;
-23.4000;0.8376;0.9181;
-23.1000;0.8409;0.9283;
-22.8000;0.8425;0.9308;
-22.5000;0.8409;0.9283;
-22.2000;0.8417;0.9308;
-21.9000;0.8433;0.9283;
-21.6000;0.8433;0.9181;
-21.3000;0.8441;0.9258;
-21.0000;0.8425;0.9131;
-20.7000;0.8441;0.9131;
-20.4000;0.8441;0.9181;
-20.1000;0.8490;0.9384;
-19.8000;0.8425;0.9105;
-19.5000;0.8425;0.9131;
-19.2000;0.8441;0.9156;
-18.9000;0.8457;0.9131;
-18.6000;0.8433;0.9080;
-18.3000;0.8449;0.9105;
-18.0000;0.8449;0.9055;
-17.7000;0.8392;0.8902;
-17.4000;0.8466;0.9181;
-17.1000;0.8433;0.9131;
-16.8000;0.8457;0.9156;
-16.5000;0.8466;0.9181;
-16.2000;0.8490;0.9207;
-15.9000;0.8441;0.9131;
-15.6000;0.8466;0.9232;
-15.3000;0.8482;0.9308;
-15.0000;0.8474;0.9258;
-14.7000;0.8441;0.9105;
-14.4000;0.8474;0.9207;
-14.1000;0.8457;0.9258;
-13.8000;0.8425;0.9232;
-13.5000;0.8466;0.9359;
-13.2000;0.8482;0.9410;
-12.9000;0.8474;0.9384;
-12.6000;0.8457;0.9359;
-12.3000;0.8449;0.9308;
-12.0000;0.8457;0.9283;
-11.7000;0.8474;0.9359;
-11.4000;0.8482;0.9410;
-11.1000;0.8466;0.9384;
-10.8000;0.8474;0.9410;
-10.5000;0.8514;0.9511;
-10.2000;0.8482;0.9435;
-9.9000;0.8482;0.9359;
-9.6000;0.8498;0.9308;
-9.3000;0.8417;0.9156;
-9.0000;0.8506;0.9283;
-8.7000;0.8506;0.9283;
-8.4000;0.8490;0.9232;
-8.1000;0.8506;0.9258;
-7.8000;0.8506;0.9308;
-7.5000;0.8514;0.9283;
-7.2000;0.8514;0.9283;
-6.9000;0.8466;0.9131;
-6.6000;0.8474;0.9156;
-6.3000;0.8490;0.9207;
-6.0000;0.8523;0.9283;
-5.7000;0.8531;0.9308;
-5.4000;0.8498;0.9207;
-5.1000;0.8474;0.9232;
-4.8000;0.8514;0.9283;
-4.5000;0.8523;0.9258;
-4.2000;0.8400;0.8877;
-3.9000;0.8547;0.9334;
-3.6000;0.8539;0.9359;
-3.3000;0.8523;0.9384;
-3.0000;0.8514;0.9359;
-2.7000;0.8580;0.9537;
-2.4000;0.8490;0.9308;
-2.1000;0.8555;0.9384;
-1.8000;0.8523;0.9460;
-1.5000;0.8580;0.9587;
-1.2000;0.8563;0.9486;
-0.9000;0.8514;0.9435;
-0.6000;0.8539;0.9435;
-0.3000;0.8547;0.9435;
0.0000;0.8547;0.9435;
0.3000;0.8710;0.9537;
0.6000;0.9011;1.0095;
0.9000;0.9288;1.0703;
1.2000;0.9508;1.1210;
1.5000;0.9678;1.1616;
1.8000;0.9776;1.1895;
2.1000;0.9882;1.2174;
2.4000;0.9988;1.2479;
2.7000;1.0110;1.2758;
3.0000;1.0102;1.2808;
3.3000;1.0151;1.2859;
3.6000;1.0216;1.2986;
3.9000;1.0248;1.3113;
4.2000;1.0248;1.3037;
4.5000;1.0395;1.3366;
4.8000;1.0289;1.3062;
5.1000;1.0330;1.3037;
5.4000;1.0338;1.3113;
5.7000;1.0354;1.3189;
6.0000;1.0370;1.3265;
6.3000;1.0387;1.3290;
6.6000;1.0411;1.3240;
6.9000;1.0419;1.3290;
7.2000;1.0444;1.3240;
7.5000;1.0460;1.3240;
7.8000;1.0460;1.3240;
8.1000;1.0484;1.3290;
8.4000;1.0492;1.3316;
8.7000;1.0501;1.3265;
9.0000;1.0517;1.3163;
9.3000;1.0435;1.2910;
9.6000;1.0517;1.3189;
9.9000;1.0533;1.3189;
10.2000;1.0541;1.3214;
10.5000;1.0549;1.3240;
10.8000;1.0574;1.3214;
11.1000;1.0582;1.3189;
11.4000;1.0598;1.3163;
11.7000;1.0574;1.3062;
12.0000;1.0623;1.3189;
12.3000;1.0639;1.3189;
12.6000;1.0647;1.3214;
12.9000;1.0655;1.3290;
13.2000;1.0688;1.3392;
13.5000;1.0663;1.3290;
13.8000;1.0680;1.3265;
14.1000;1.0696;1.3341;
14.4000;1.0696;1.3316;
14.7000;1.0802;1.3519;
15.0000;1.0720;1.3265;
15.3000;1.0729;1.3138;
15.6000;1.0729;1.3011;
15.9000;1.0729;1.2961;
16.2000;1.0737;1.3011;
16.5000;1.0753;1.3037;
16.8000;1.0753;1.3113;
17.1000;1.0777;1.3163;
17.4000;1.0753;1.3163;
17.7000;1.0802;1.3214;
18.0000;1.0753;1.3037;
18.3000;1.0794;1.3113;
18.6000;1.0818;1.3163;
18.9000;1.0802;1.3113;
19.2000;1.0810;1.3138;
19.5000;1.0834;1.3189;
19.8000;1.0826;1.3113;
20.1000;1.0842;1.3113;
20.4000;1.0818;1.3113;
20.7000;1.0851;1.3087;
21.0000;1.0859;1.3062;
21.3000;1.0883;1.3113;
21.6000;1.0899;1.3163;
21.9000;1.0883;1.3113;
22.2000;1.0883;1.3163;
22.5000;1.0899;1.3138;
22.8000;1.0908;1.3214;
23.1000;1.0916;1.3113;
23.4000;1.0924;1.3240;
23.7000;1.0924;1.3163;
24.0000;1.0932;1.3113;
24.3000;1.0940;1.3062;
24.6000;1.0932;1.3037;
24.9000;1.0965;1.3062;
25.2000;1.0940;1.3062;
25.5000;1.0956;1.3189;
25.8000;1.0956;1.3163;
26.1000;1.0932;1.3087;
26.4000;1.0940;1.3062;
26.7000;1.0989;1.3037;
27.0000;1.0965;1.2961;
27.3000;1.0973;1.3062;
27.6000;1.1013;1.3138;
27.9000;1.0916;1.2986;
28.2000;1.1005;1.3240;
28.5000;1.0924;1.3011;
28.8000;1.0989;1.3113;
29.1000;1.1005;1.3163;
29.4000;1.1013;1.3062;
29.7000;1.1005;1.3037;
30.0000;1.1013;1.3062;
30.3000;1.1038;1.3062;
30.6000;1.1030;1.3062;
30.9000;1.1119;1.3265;
31.2000;1.1030;1.3113;
31.5000;1.1046;1.3062;
31.8000;1.1038;1.3113;
32.1000;1.1038;1.3189;
32.4000;1.1038;1.3214;
32.7000;1.1038;1.3189;
33.0000;1.1022;1.3087;
33.3000;1.1070;1.3087;
33.6000;1.1095;1.3163;
33.9000;1.1079;1.3011;
34.2000;1.1087;1.2961;
34.5000;1.1184;1.3163;
34.8000;1.1079;1.2859;
35.1000;1.1152;1.3138;
35.4000;1.1070;1.3087;
35.7000;1.1087;1.3138;
36.0000;1.1087;1.3138;
36.3000;1.1103;1.3062;
36.6000;1.1087;1.3037;
36.9000;1.1111;1.3087;
37.2000;1.1111;1.3062;
37.5000;1.1095;1.2986;
37.8000;1.1087;1.2986;
38.1000;1.1127;1.3062;
38.4000;1.1103;1.2910;
38.7000;1.1111;1.2808;
39.0000;1.1103;1.2808;
39.3000;1.1119;1.2834;
39.6000;1.1111;1.2758;
39.9000;1.1119;1.2682;
40.2000;1.1119;1.2707;
40.5000;1.1038;1.2529;
40.8000;1.1111;1.2732;
41.1000;1.1111;1.2682;
41.4000;1.1119;1.2605;
41.7000;1.1127;1.2580;
42.0000;1.1127;1.2656;
42.3000;1.1144;1.2707;
42.6000;1.1136;1.2605;
42.9000;1.1144;1.2682;
43.2000;1.1144;1.2580;
43.5000;1.1176;1.2707;
43.8000;1.1160;1.2656;
44.1000;1.1136;1.2555;
44.4000;1.1176;1.2682;
44.7000;1.1152;1.2682;
45.0000;1.1152;1.2682;
45.3000;1.1152;1.2631;
45.6000;1.1168;1.2631;
45.9000;1.1176;1.2707;
46.2000;1.1168;1.2631;
46.5000;1.1144;1.2580;
46.8000;1.1136;1.2555;
47.1000;1.1160;1.2605;
47.4000;1.1160;1.2580;
47.7000;1.1168;1.2529;
48.0000;1.1184;1.2504;
48.3000;1.1193;1.2428;
48.6000;1.1184;1.2403;
48.9000;1.1184;1.2428;
49.2000;1.1201;1.2453;
49.5000;1.1201;1.2453;
49.8000;1.1176;1.2529;
50.1000;1.1176;1.2479;
50.4000;1.1193;1.2555;
50.7000;1.1209;1.2529;
51.0000;1.1201;1.2529;
51.3000;1.1209;1.2555;
51.6000;1.1217;1.2504;
51.9000;1.1274;1.2707;
52.2000;1.1233;1.2580;
52.5000;1.1176;1.2428;
52.8000;1.1119;1.2352;
53.1000;1.1209;1.2605;
53.4000;1.1217;1.2605;
53.7000;1.1201;1.2479;
54.0000;1.1176;1.2403;
54.3000;1.1217;1.2479;
54.6000;1.1217;1.2529;
54.9000;1.1233;1.2555;
55.2000;1.1209;1.2504;
55.5000;1.1209;1.2453;
55.8000;1.1217;1.2479;
56.1000;1.1225;1.2605;
56.4000;1.1241;1.2631;
56.7000;1.1217;1.2479;
57.0000;1.1347;1.2758;
57.3000;1.1233;1.2529;
57.6000;1.1217;1.2529;
57.9000;1.1225;1.2479;
58.2000;1.1233;1.2428;
58.5000;1.1249;1.2479;
58.8000;1.1241;1.2428;
59.1000;1.1233;1.2504;
59.4000;1.1266;1.2555;
59.7000;1.1241;1.2555;
60.0000;1.1201;1.2529;
60.3000;1.1249;1.2631;
60.6000;1.1266;1.2707;
60.9000;1.1266;1.2631;
61.2000;1.1241;1.2580;
61.5000;1.1282;1.2631;
61.8000;1.1241;1.2453;
62.1000;1.1258;1.2504;
62.4000;1.1266;1.2580;
62.7000;1.1258;1.2631;
63.0000;1.1266;1.2631;
63.3000;1.1249;1.2631;
63.6000;1.1282;1.2682;
63.9000;1.1241;1.2529;
64.2000;1.1258;1.2529;
64.5000;1.1315;1.2707;
64.8000;1.1290;1.2631;
65.1000;1.1266;1.2555;
65.4000;1.1241;1.2453;
65.7000;1.1266;1.2403;
66.0000;1.1306;1.2453;
66.3000;1.1274;1.2403;
66.6000;1.1274;1.2453;
66.9000;1.1282;1.2403;
67.2000;1.1266;1.2301;
67.5000;1.1274;1.2352;
67.8000;1.1241;1.2301;
68.1000;1.1266;1.2403;
68.4000;1.1282;1.2504;
68.7000;1.1274;1.2428;
69.0000;1.1290;1.2504;
69.3000;1.1282;1.2428;
69.6000;1.1274;1.2377;
69.9000;1.1290;1.2326;
70.2000;1.1258;1.2250;
70.5000;1.1225;1.2149;
70.8000;1.1298;1.2352;
71.1000;1.1282;1.2377;
71.4000;1.1290;1.2352;
71.7000;1.1298;1.2403;
72.0000;1.1315;1.2301;
72.3000;1.1306;1.2250;
72.6000;1.1290;1.2149;
72.9000;1.1298;1.2174;
73.2000;1.1298;1.2200;
73.5000;1.1315;1.2276;
73.8000;1.1315;1.2250;
74.1000;1.1274;1.2149;
74.4000;1.1315;1.2174;
74.7000;1.1323;1.2174;
75.0000;1.1306;1.2073;
75.3000;1.1306;1.2047;
75.6000;1.1339;1.2200;
75.9000;1.1290;1.2174;
76.2000;1.1323;1.2377;
76.5000;1.1315;1.2377;
76.8000;1.1298;1.2377;
77.1000;1.1298;1.2326;
77.4000;1.1339;1.2377;
77.7000;1.1323;1.2403;
78.0000;1.1298;1.2276;
78.3000;1.1306;1.2326;
78.6000;1.1315;1.2326;
78.9000;1.1298;1.2200;
79.2000;1.1306;1.2124;
79.5000;1.1323;1.2276;
79.8000;1.1315;1.2326;
80.1000;1.1331;1.2352;
80.4000;1.1306;1.2326;
80.7000;1.1306;1.2301;
81.0000;1.1347;1.2352;
81.3000;1.1315;1.2326;
81.6000;1.1315;1.2326;
81.9000;1.1355;1.2301;
82.2000;1.1315;1.2250;
82.5000;1.1323;1.2377;
82.8000;1.1306;1.2352;
83.1000;1.1323;1.2453;
83.4000;1.1298;1.2453;
83.7000;1.1323;1.2504;
84.0000;1.1331;1.2504;
84.3000;1.1331;1.2453;
84.6000;1.1315;1.2352;
84.9000;1.1323;1.2352;
85.2000;1.1331;1.2326;
85.5000;1.1331;1.2326;
85.8000;1.1331;1.2301;
86.1000;1.1315;1.2453;
86.4000;1.1339;1.2479;
86.7000;1.1339;1.2479;
87.0000;1.1331;1.2453;
87.3000;1.1339;1.2403;
87.6000;1.1347;1.2326;
87.9000;1.1347;1.2326;
88.2000;1.1339;1.2377;
88.5000;1.1347;1.2276;
88.8000;1.1347;1.2377;
89.1000;1.1339;1.2301;
89.4000;1.1339;1.2326;
89.7000;1.1339;1.2276;
90.0000;1.1339;1.2377;
90.3000;1.1339;1.2352;
90.6000;1.1347;1.2403;
90.9000;1.1323;1.2352;
91.2000;1.1331;1.2276;
91.5000;1.1363;1.2352;
91.8000;1.1388;1.2276;
92.1000;1.1331;1.2047;
92.4000;1.1339;1.2022;
92.7000;1.1355;1.2047;
93.0000;1.1363;1.2149;
93.3000;1.1363;1.2124;
93.6000;1.1355;1.2250;
93.9000;1.1363;1.2276;
94.2000;1.1347;1.2250;
94.5000;1.1363;1.2301;
94.8000;1.1355;1.2326;
95.1000;1.1355;1.2403;
95.4000;1.1355;1.2428;
95.7000;1.1323;1.2276;
96.0000;1.1339;1.2326;
96.3000;1.1298;1.2200;
96.6000;1.1363;1.2326;
96.9000;1.1355;1.2326;
97.2000;1.1355;1.2200;
97.5000;1.1363;1.2174;
97.8000;1.1347;1.2149;
98.1000;1.1363;1.2174;
98.4000;1.1339;1.2174;
98.7000;1.1355;1.2174;
99.0000;1.1363;1.2301;
99.3000;1.1363;1.2301;
99.6000;1.1363;1.2200;
99.9000;1.1372;1.2250;
100.2000;1.1355;1.2174;
100.5000;1.1388;1.2250;
100.8000;1.1347;1.2174;
101.1000;1.1331;1.2124;
101.4000;1.1347;1.2276;
101.7000;1.1355;1.2352;
102.0000;1.1380;1.2453;
102.3000;1.1217;1.2073;
102.6000;1.1355;1.2428;
102.9000;1.1363;1.2479;
103.2000;1.1363;1.2479;
103.5000;1.1355;1.2428;
103.8000;1.1363;1.2428;
104.1000;1.1372;1.2352;
104.4000;1.1363;1.2326;
104.7000;1.1363;1.2276;
105.0000;1.1363;1.2250;
105.3000;1.1388;1.2326;
105.6000;1.1331;1.2250;
105.9000;1.1363;1.2377;
106.2000;1.1363;1.2377;
106.5000;1.1380;1.2453;
106.8000;1.1372;1.2428;
107.1000;1.1315;1.2250;
107.4000;1.1380;1.2403;
107.7000;1.1372;1.2377;
108.0000;1.1380;1.2352;
108.3000;1.1355;1.2276;
108.6000;1.1355;1.2326;
108.9000;1.1363;1.2326;
109.2000;1.1372;1.2377;
109.5000;1.1380;1.2352;
109.8000;1.1404;1.2453;
110.1000;1.1372;1.2377;
110.4000;1.1363;1.2352;
110.7000;1.1396;1.2403;
111.0000;1.1380;1.2453;
111.3000;1.1363;1.2377;
111.6000;1.1420;1.2377;
111.9000;1.1372;1.2276;
112.2000;1.1363;1.2250;
112.5000;1.1363;1.2225;
112.8000;1.1363;1.2250;
113.1000;1.1388;1.2276;
113.4000;1.1388;1.2250;
113.7000;1.1372;1.2200;
114.0000;1.1363;1.2326;
114.3000;1.1388;1.2403;
114.6000;1.1380;1.2377;
114.9000;1.1241;1.2073;
115.2000;1.1372;1.2352;
115.5000;1.1429;1.2555;
115.8000;1.1315;1.2250;
116.1000;1.1339;1.2352;
116.4000;1.1363;1.2428;
116.7000;1.1388;1.2326;
117.0000;1.1404;1.2301;
117.3000;1.1363;1.2225;
117.6000;1.1372;1.2276;
117.9000;1.1372;1.2225;
118.2000;1.1372;1.2225;
118.5000;1.1388;1.2326;
118.8000;1.1372;1.2301;
119.1000;1.1396;1.2352;
119.4000;1.1396;1.2352;
119.7000;1.1396;1.2352;
120.0000;1.1372;1.2276;
120.3000;1.1477;1.2580;
120.6000;1.1388;1.2352;
120.9000;1.1380;1.2403;
121.2000;1.1396;1.2504;
121.5000;1.1380;1.2377;
121.8000;1.1396;1.2276;
122.1000;1.1404;1.2326;
122.4000;1.1380;1.2250;
122.7000;1.1396;1.2250;
123.0000;1.1396;1.2301;
123.3000;1.1420;1.2403;
123.6000;1.1388;1.2301;
123.9000;1.1396;1.2352;
124.2000;1.1372;1.2276;
124.5000;1.1355;1.2250;
124.8000;1.1396;1.2377;
125.1000;1.1388;1.2352;
125.4000;1.1388;1.2326;
125.7000;1.1404;1.2326;
126.0000;1.1380;1.2200;
126.3000;1.1355;1.2098;
126.6000;1.1380;1.2225;
126.9000;1.1396;1.2200;
127.2000;1.1339;1.2098;
127.5000;1.1339;1.2098;
127.8000;1.1331;1.2022;
128.1000;1.1380;1.2149;
128.4000;1.1388;1.2174;
128.7000;1.1396;1.2301;
129.0000;1.1388;1.2326;
129.3000;1.1388;1.2352;
129.6000;1.1445;1.2529;
129.9000;1.1388;1.2276;
130.2000;1.1380;1.2149;
130.5000;1.1396;1.2174;
130.8000;1.1396;1.2124;
131.1000;1.1380;1.2149;
131.4000;1.1363;1.2124;
131.7000;1.1372;1.2073;
132.0000;1.1404;1.2174;
132.3000;1.1420;1.2200;
132.6000;1.1429;1.2250;
132.9000;1.1404;1.2225;
133.2000;1.1420;1.2377;
133.5000;1.1412;1.2276;
133.8000;1.1396;1.2200;
134.1000;1.1404;1.2250;
134.4000;1.1420;1.2276;
134.7000;1.1429;1.2326;
135.0000;1.1363;1.2174;
135.3000;1.1396;1.2200;
135.6000;1.1380;1.2022;
135.9000;1.1437;1.2200;
136.2000;1.1404;1.2174;
136.5000;1.1404;1.2174;
136.8000;1.1388;1.2149;
137.1000;1.1396;1.2250;
137.4000;1.1437;1.2326;
137.7000;1.1412;1.2352;
138.0000;1.1420;1.2428;
138.3000;1.1372;1.2149;
138.6000;1.1412;1.2276;
138.9000;1.1363;1.2225;
139.2000;1.1404;1.2403;
139.5000;1.1404;1.2428;
139.8000;1.1404;1.2352;
140.1000;1.1404;1.2352;
140.4000;1.1380;1.2301;
140.7000;1.1396;1.2403;
141.0000;1.1437;1.2529;
141.3000;1.1396;1.2377;
141.6000;1.1396;1.2453;
141.9000;1.1420;1.2403;
142.2000;1.1404;1.2326;
142.5000;1.1437;1.2453;
142.8000;1.1404;1.2403;
143.1000;1.1412;1.2377;
143.4000;1.1396;1.2504;
143.7000;1.1404;1.2529;
144.0000;1.1404;1.2453;
144.3000;1.1388;1.2377;
144.6000;1.1404;1.2326;
144.9000;1.1380;1.2174;
145.2000;1.1388;1.2250;
145.5000;1.1396;1.2250;
145.8000;1.1404;1.2225;
146.1000;1.1396;1.2174;
146.4000;1.1396;1.2174;
146.7000;1.1388;1.2174;
147.0000;1.1396;1.2098;
147.3000;1.1380;1.2073;
147.6000;1.1388;1.2124;
147.9000;1.1396;1.2047;
148.2000;1.1396;1.1997;
148.5000;1.1404;1.2047;
148.8000;1.1420;1.2200;
149.1000;1.1404;1.2200;
149.4000;1.1437;1.2326;
149.7000;1.1420;1.2377;
150.0000;1.1420;1.2377;
150.3000;1.1396;1.2326;
150.6000;1.1347;1.2276;
150.9000;1.1388;1.2301;
151.2000;1.1396;1.2301;
151.5000;1.1453;1.2403;
151.8000;1.1396;1.2174;
152.1000;1.1412;1.2250;
152.4000;1.1420;1.2225;
152.7000;1.1404;1.2174;
153.0000;1.1404;1.2200;
153.3000;1.1396;1.2225;
153.6000;1.1429;1.2352;
153.9000;1.1429;1.2428;
154.2000;1.1404;1.2276;
154.5000;1.1412;1.2301;
154.8000;1.1420;1.2301;
155.1000;1.1412;1.2200;
155.4000;1.1420;1.2174;
155.7000;1.1469;1.2301;
156.0000;1.1404;1.2149;
156.3000;1.1412;1.2250;
156.6000;1.1404;1.2301;
156.9000;1.1396;1.2200;
157.2000;1.1396;1.2225;
157.5000;1.1388;1.2225;
157.8000;1.1429;1.2174;
158.1000;1.1420;1.2124;
158.4000;1.1396;1.2098;
158.7000;1.1404;1.2225;
159.0000;1.1380;1.2200;
159.3000;1.1420;1.2276;
159.6000;1.1404;1.2301;
159.9000;1.1404;1.2225;
160.2000;1.1412;1.2225;
160.5000;1.1429;1.2200;
160.8000;1.1396;1.2174;
161.1000;1.1388;1.2250;
161.4000;1.1404;1.2301;
161.7000;1.1396;1.2301;
162.0000;1.1380;1.2250;
162.3000;1.1412;1.2301;
162.6000;1.1412;1.2352;
162.9000;1.1412;1.2352;
163.2000;1.1404;1.2276;
163.5000;1.1412;1.2326;
163.8000;1.1396;1.2301;
164.1000;1.1420;1.2326;
164.4000;1.1404;1.2276;
164.7000;1.1429;1.2377;
165.0000;1.1412;1.2200;
165.3000;1.1412;1.2276;
165.6000;1.1420;1.2326;
165.9000;1.1404;1.2352;
166.2000;1.1404;1.2352;
166.5000;1.1420;1.2377;
166.8000;1.1412;1.2479;
167.1000;1.1396;1.2403;
167.4000;1.1404;1.2352;
167.7000;1.1412;1.2377;
168.0000;1.1404;1.2377;
168.3000;1.1412;1.2326;
168.6000;1.1404;1.2403;
168.9000;1.1420;1.2428;
169.2000;1.1404;1.2352;
169.5000;1.1396;1.2225;
169.8000;1.1396;1.2225;
170.1000;1.1404;1.2326;
170.4000;1.1404;1.2276;
170.7000;1.1420;1.2276;
171.0000;1.1388;1.2098;
171.3000;1.1412;1.2149;
171.6000;1.1404;1.2124;
171.9000;1.1404;1.2073;
172.2000;1.1404;1.2124;
172.5000;1.1404;1.2225;
172.8000;1.1380;1.2073;
173.1000;1.1404;1.2149;
173.4000;1.1396;1.2124;
173.7000;1.1404;1.2200;
174.0000;1.1412;1.2250;
174.3000;1.1412;1.2250;
174.6000;1.1355;1.2073;
174.9000;1.1388;1.2200;
175.2000;1.1380;1.2149;
175.5000;1.1404;1.2225;
175.8000;1.1331;1.2047;
176.1000;1.1404;1.2124;
176.4000;1.1404;1.2098;
176.7000;1.1388;1.2149;
177.0000;1.1404;1.2149;
177.3000;1.1404;1.2073;
177.6000;1.1412;1.2174;
177.9000;1.1412;1.2149;
178.2000;1.1420;1.2250;
178.5000;1.1477;1.2403;
178.8000;1.1429;1.2326;
179.1000;1.1412;1.2352;
179.4000;1.1420;1.2352;
179.7000;1.1420;1.2225;
180.0000;1.1453;1.2301;
180.3000;1.1404;1.2200;
180.6000;1.1477;1.2453;
180.9000;1.1420;1.2352;
181.2000;1.1404;1.2352;
181.5000;1.1396;1.2225;
181.8000;1.1347;1.2098;
182.1000;1.1388;1.2225;
182.4000;1.1404;1.2250;
182.7000;1.1404;1.2301;
183.0000;1.1412;1.2377;
183.3000;1.1363;1.2200;
183.6000;1.1396;1.2225;
183.9000;1.1355;1.2174;
184.2000;1.1396;1.2250;
184.5000;1.1404;1.2301;
184.8000;1.1372;1.2250;
185.1000;1.1404;1.2326;
185.4000;1.1388;1.2326;
185.7000;1.1429;1.2428;
186.0000;1.1372;1.2301;
186.3000;1.1453;1.2479;
186.6000;1.1445;1.2301;
186.9000;1.1412;1.2225;
187.2000;1.1388;1.2276;
187.5000;1.1412;1.2301;
187.8000;1.1404;1.2276;
188.1000;1.1274;1.2022;
188.4000;1.1412;1.2352;
188.7000;1.1290;1.1997;
189.0000;1.1396;1.2276;
189.3000;1.1388;1.2276;
189.6000;1.1404;1.2276;
189.9000;1.1396;1.2250;
190.2000;1.1404;1.2276;
190.5000;1.1396;1.2250;
190.8000;1.1404;1.2276;
191.1000;1.1420;1.2352;
191.4000;1.1404;1.2250;
191.7000;1.1412;1.2301;
192.0000;1.1420;1.2276;
192.3000;1.1396;1.2200;
192.6000;1.1388;1.2149;
192.9000;1.1388;1.2124;
193.2000;1.1396;1.2149;
193.5000;1.1396;1.2200;
193.8000;1.1380;1.2225;
194.1000;1.1396;1.2301;
194.4000;1.1412;1.2352;
194.7000;1.1363;1.2225;
195.0000;1.1396;1.2301;
195.3000;1.1396;1.2377;
195.6000;1.1445;1.2555;
195.9000;1.1404;1.2428;
196.2000;1.1380;1.2352;
196.5000;1.1372;1.2352;
196.8000;1.1412;1.2326;
197.1000;1.1412;1.2301;
197.4000;1.1404;1.2301;
197.7000;1.1363;1.2149;
198.0000;1.1396;1.2149;
198.3000;1.1420;1.2149;
198.6000;1.1380;1.2047;
198.9000;1.1388;1.1997;
199.2000;1.1404;1.2047;
199.5000;1.1323;1.1870;
199.8000;1.1396;1.2073;
200.1000;1.1323;1.1971;
200.4000;1.1396;1.2250;
200.7000;1.1372;1.2250;
201.0000;1.1404;1.2326;
201.3000;1.1388;1.2301;
201.6000;1.1404;1.2276;
201.9000;1.1396;1.2200;
202.2000;1.1412;1.2200;
202.5000;1.1437;1.2276;
202.8000;1.1347;1.2073;
203.1000;1.1404;1.2250;
203.4000;1.1412;1.2250;
203.7000;1.1412;1.2250;
204.0000;1.1404;1.2326;
204.3000;1.1412;1.2301;
204.6000;1.1323;1.2098;
204.9000;1.1404;1.2301;
205.2000;1.1396;1.2301;
205.5000;1.1404;1.2301;
205.8000;1.1339;1.2200;
206.1000;1.1404;1.2377;
206.4000;1.1372;1.2377;
206.7000;1.1518;1.2783;
207.0000;1.1388;1.2504;
207.3000;1.1363;1.2428;
207.6000;1.1331;1.2352;
207.9000;1.1323;1.2326;
208.2000;1.1388;1.2453;
208.5000;1.1380;1.2453;
208.8000;1.1339;1.2377;
209.1000;1.1380;1.2504;
209.4000;1.1298;1.2326;
209.7000;1.1372;1.2453;
210.0000;1.1461;1.2605;
210.3000;1.1331;1.2326;
210.6000;1.1380;1.2428;
210.9000;1.1404;1.2403;
211.2000;1.1404;1.2377;
211.5000;1.1396;1.2326;
211.8000;1.1404;1.2352;
212.1000;1.1388;1.2377;
212.4000;1.1404;1.2529;
212.7000;1.1388;1.2453;
213.0000;1.1396;1.2453;
213.3000;1.1412;1.2479;
213.6000;1.1404;1.2453;
213.9000;1.1412;1.2479;
214.2000;1.1412;1.2326;
214.5000;1.1396;1.2225;
214.8000;1.1420;1.2326;
215.1000;1.1404;1.2352;
215.4000;1.1420;1.2403;
215.7000;1.1412;1.2403;
216.0000;1.1420;1.2403;
216.3000;1.1404;1.2453;
216.6000;1.1388;1.2403;
216.9000;1.1388;1.2301;
217.2000;1.1372;1.2149;
217.5000;1.1420;1.2250;
217.8000;1.1404;1.2225;
218.1000;1.1396;1.2326;
218.4000;1.1404;1.2428;
218.7000;1.1396;1.2352;
219.0000;1.1380;1.2124;
219.3000;1.1372;1.2098;
219.6000;1.1396;1.2149;
219.9000;1.1396;1.2149;
220.2000;1.1412;1.2250;
220.5000;1.1388;1.2301;
220.8000;1.1388;1.2301;
221.1000;1.1404;1.2428;
221.4000;1.1453;1.2555;
221.7000;1.1298;1.2200;
222.0000;1.1396;1.2479;
222.3000;1.1396;1.2504;
222.6000;1.1412;1.2580;
222.9000;1.1380;1.2529;
223.2000;1.1396;1.2479;
223.5000;1.1396;1.2504;
223.8000;1.1355;1.2301;
224.1000;1.1380;1.2377;
224.4000;1.1388;1.2377;
224.7000;1.1583;1.2859;
225.0000;1.1404;1.2453;
225.3000;1.1372;1.2403;
225.6000;1.1420;1.2453;
225.9000;1.1412;1.2377;
226.2000;1.1412;1.2403;
226.5000;1.1412;1.2479;
226.8000;1.1404;1.2403;
227.1000;1.1388;1.2377;
227.4000;1.1396;1.2453;
227.7000;1.1404;1.2504;
228.0000;1.1363;1.2301;
228.3000;1.1380;1.2377;
228.6000;1.1453;1.2555;
228.9000;1.1404;1.2479;
229.2000;1.1404;1.2504;
229.5000;1.1380;1.2479;
229.8000;1.1347;1.2403;
230.1000;1.1396;1.2555;
230.4000;1.1339;1.2352;
230.7000;1.1380;1.2428;
231.0000;1.1388;1.2479;
231.3000;1.1396;1.2529;
231.6000;1.1388;1.2580;
231.9000;1.1380;1.2555;
232.2000;1.1404;1.2555;
232.5000;1.1380;1.2529;
232.8000;1.1396;1.2504;
233.1000;1.1396;1.2504;
233.4000;1.1396;1.2504;
233.7000;1.1396;1.2453;
234.0000;1.1412;1.2453;
234.3000;1.1396;1.2377;
234.6000;1.1396;1.2377;
234.9000;1.1412;1.2403;
235.2000;1.1404;1.2403;
235.5000;1.1372;1.2377;
235.8000;1.1396;1.2453;
236.1000;1.1380;1.2377;
236.4000;1.1437;1.2580;
236.7000;1.1372;1.2428;
237.0000;1.1396;1.2555;
237.3000;1.1380;1.2504;
237.6000;1.1396;1.2504;
237.9000;1.1372;1.2428;
238.2000;1.1372;1.2453;
238.5000;1.1380;1.2453;
238.8000;1.1388;1.2529;
239.1000;1.1339;1.2377;
239.4000;1.1372;1.2428;
239.7000;1.1363;1.2326;
240.0000;1.1347;1.2326;
240.3000;1.1380;1.2504;
240.6000;1.1429;1.2682;
240.9000;1.1388;1.2555;
241.2000;1.1396;1.2529;
241.5000;1.1372;1.2504;
241.8000;1.1388;1.2504;
242.1000;1.1388;1.2504;
242.4000;1.1396;1.2529;
242.7000;1.1396;1.2504;
243.0000;1.1380;1.2479;
243.3000;1.1429;1.2555;
243.6000;1.1486;1.2707;
243.9000;1.1388;1.2453;
244.2000;1.1404;1.2403;
244.5000;1.1380;1.2301;
244.8000;1.1388;1.2301;
245.1000;1.1404;1.2479;
245.4000;1.1404;1.2555;
245.7000;1.1380;1.2479;
246.0000;1.1355;1.2428;
246.3000;1.1363;1.2453;
246.6000;1.1420;1.2504;
246.9000;1.1363;1.2326;
247.2000;1.1396;1.2428;
247.5000;1.1380;1.2428;
247.8000;1.1372;1.2403;
248.1000;1.1445;1.2656;
248.4000;1.1323;1.2326;
248.7000;1.1453;1.2555;
249.0000;1.1355;1.2352;
249.3000;1.1380;1.2326;
249.6000;1.1372;1.2326;
249.9000;1.1388;1.2377;
250.2000;1.1388;1.2326;
250.5000;1.1396;1.2403;
250.8000;1.1339;1.2225;
251.1000;1.1388;1.2326;
251.4000;1.1404;1.2352;
251.7000;1.1372;1.2326;
252.0000;1.1372;1.2301;
252.3000;1.1372;1.2326;
252.6000;1.1380;1.2352;
252.9000;1.1380;1.2377;
253.2000;1.1233;1.2047;
253.5000;1.1372;1.2403;
253.8000;1.1290;1.2149;
254.1000;1.1363;1.2377;
254.4000;1.1372;1.2403;
254.7000;1.1363;1.2377;
255.0000;1.1363;1.2403;
255.3000;1.1372;1.2479;
255.6000;1.1355;1.2428;
255.9000;1.1347;1.2301;
256.2000;1.1355;1.2301;
256.5000;1.1363;1.2200;
256.8000;1.1363;1.2250;
257.1000;1.1355;1.2352;
257.4000;1.1306;1.2276;
257.7000;1.1355;1.2377;
258.0000;1.1355;1.2377;
258.3000;1.1363;1.2453;
258.6000;1.1372;1.2479;
258.9000;1.1380;1.2479;
259.2000;1.1363;1.2453;
259.5000;1.1372;1.2479;
259.8000;1.1363;1.2428;
260.1000;1.1363;1.2403;
260.4000;1.1412;1.2529;
260.7000;1.1380;1.2453;
261.0000;1.1355;1.2504;
261.3000;1.1363;1.2403;
261.6000;1.1380;1.2377;
261.9000;1.1380;1.2352;
262.2000;1.1372;1.2301;
262.5000;1.1363;1.2250;
262.8000;1.1363;1.2326;
263.1000;1.1372;1.2377;
263.4000;1.1372;1.2453;
263.7000;1.1372;1.2479;
264.0000;1.1372;1.2479;
264.3000;1.1388;1.2479;
264.6000;1.1380;1.2479;
264.9000;1.1363;1.2453;
265.2000;1.1380;1.2403;
265.5000;1.1404;1.2453;
265.8000;1.1380;1.2352;
266.1000;1.1388;1.2326;
266.4000;1.1372;1.2250;
266.7000;1.1363;1.2098;
267.0000;1.1388;1.2098;
267.3000;1.1372;1.2124;
267.6000;1.1323;1.1946;
267.9000;1.1388;1.2149;
268.2000;1.1380;1.2047;
268.5000;1.1372;1.2098;
268.8000;1.1372;1.2174;
269.1000;1.1363;1.2149;
269.4000;1.1380;1.2149;
269.7000;1.1339;1.2073;
270.0000;1.1363;1.2225;
270.3000;1.1355;1.2276;
270.6000;1.1380;1.2377;
270.9000;1.1372;1.2403;
271.2000;1.1355;1.2301;
271.5000;1.1388;1.2326;
271.8000;1.1372;1.2326;
272.1000;1.1372;1.2276;
272.4000;1.1372;1.2225;
272.7000;1.1355;1.2250;
273.0000;1.1363;1.2301;
273.3000;1.1372;1.2352;
273.6000;1.1372;1.2403;
273.9000;1.1363;1.2403;
274.2000;1.1363;1.2276;
274.5000;1.1372;1.2326;
274.8000;1.1380;1.2301;
275.1000;1.1372;1.2301;
275.4000;1.1355;1.2326;
275.7000;1.1380;1.2377;
276.0000;1.1380;1.2377;
276.3000;1.1363;1.2453;
276.6000;1.1363;1.2453;
276.9000;1.1355;1.2352;
277.2000;1.1355;1.2276;
277.5000;1.1355;1.2149;
277.8000;1.1347;1.2200;
278.1000;1.1372;1.2301;
278.4000;1.1372;1.2250;
278.7000;1.1372;1.2200;
279.0000;1.1315;1.2098;
279.3000;1.1404;1.2428;
279.6000;1.1372;1.2326;
279.9000;1.1372;1.2250;
280.2000;1.1363;1.2276;
280.5000;1.1380;1.2200;
280.8000;1.1437;1.2352;
281.1000;1.1372;1.2250;
281.4000;1.1388;1.2377;
281.7000;1.1355;1.2352;
282.0000;1.1339;1.2174;
282.3000;1.1372;1.2276;
282.6000;1.1372;1.2326;
282.9000;1.1363;1.2377;
283.2000;1.1298;1.2250;
283.5000;1.1380;1.2403;
283.8000;1.1363;1.2352;
284.1000;1.1380;1.2403;
284.4000;1.1347;1.2403;
284.7000;1.1380;1.2529;
285.0000;1.1363;1.2428;
285.3000;1.1347;1.2377;
285.6000;1.1380;1.2403;
285.9000;1.1396;1.2377;
286.2000;1.1380;1.2403;
286.5000;1.1355;1.2225;
286.8000;1.1380;1.2174;
287.1000;1.1290;1.1997;
287.4000;1.1355;1.2149;
287.7000;1.1347;1.2174;
288.0000;1.1347;1.2047;
288.3000;1.1347;1.2022;
288.6000;1.1290;1.1946;
288.9000;1.1355;1.2250;
289.2000;1.1282;1.2124;
289.5000;1.1363;1.2301;
289.8000;1.1347;1.2225;
290.1000;1.1445;1.2605;
290.4000;1.1323;1.2276;
290.7000;1.1372;1.2326;
291.0000;1.1372;1.2276;
291.3000;1.1355;1.2326;
291.6000;1.1339;1.2276;
291.9000;1.1355;1.2352;
292.2000;1.1355;1.2352;
292.5000;1.1347;1.2301;
292.8000;1.1372;1.2225;
293.1000;1.1339;1.2098;
293.4000;1.1372;1.2200;
293.7000;1.1355;1.2174;
294.0000;1.1372;1.2174;
294.3000;1.1355;1.2124;
294.6000;1.1372;1.2124;
294.9000;1.1347;1.2174;
295.2000;1.1363;1.2174;
295.5000;1.1347;1.2149;
295.8000;1.1388;1.2352;
296.1000;1.1339;1.2174;
296.4000;1.1355;1.2276;
296.7000;1.1347;1.2174;
297.0000;1.1355;1.2276;
297.3000;1.1363;1.2326;
297.6000;1.1372;1.2377;
297.9000;1.1372;1.2326;
298.2000;1.1363;1.2326;
298.5000;1.1347;1.2301;
298.8000;1.1339;1.2225;
299.1000;1.1355;1.2326;
299.4000;1.1372;1.2377;
299.7000;1.1412;1.2428;
300.0000;1.1396;1.2377;
300.3000;1.1363;1.2403;
300.6000;1.1388;1.2428;
300.9000;1.1355;1.2377;
301.2000;1.1355;1.2403;
301.5000;1.1315;1.2250;
301.8000;1.1306;1.2225;
302.1000;1.1355;1.2377;
302.4000;1.1347;1.2403;
302.7000;1.1363;1.2403;
303.0000;1.1355;1.2453;
303.3000;1.1469;1.2707;
303.6000;1.1347;1.2377;
303.9000;1.1355;1.2377;
304.2000;1.1347;1.2276;
304.5000;1.1347;1.2301;
304.8000;1.1388;1.2504;
305.1000;1.1347;1.2377;
305.4000;1.1323;1.2301;
305.7000;1.1347;1.2225;
306.0000;1.1331;1.2276;
306.3000;1.1355;1.2301;
306.6000;1.1331;1.2276;
306.9000;1.1347;1.2326;
307.2000;1.1306;1.2352;
307.5000;1.1355;1.2504;
307.8000;1.1355;1.2377;
308.1000;1.1323;1.2250;
308.4000;1.1355;1.2250;
308.7000;1.1363;1.2301;
309.0000;1.1347;1.2301;
309.3000;1.1355;1.2276;
309.6000;1.1355;1.2200;
309.9000;1.1355;1.2225;
310.2000;1.1388;1.2326;
310.5000;1.1323;1.2250;
310.8000;1.1347;1.2428;
311.1000;1.1372;1.2504;
311.4000;1.1339;1.2377;
311.7000;1.1331;1.2403;
312.0000;1.1461;1.2783;
312.3000;1.1355;1.2479;
312.6000;1.1282;1.2276;
312.9000;1.1347;1.2326;
313.2000;1.1323;1.2174;
313.5000;1.1315;1.2098;
313.8000;1.1331;1.2098;
314.1000;1.1404;1.2225;
314.4000;1.1339;1.2098;
314.7000;1.1323;1.2073;
315.0000;1.1363;1.2276;
315.3000;1.1355;1.2276;
315.6000;1.1363;1.2276;
315.9000;1.1347;1.2250;
316.2000;1.1347;1.2276;
316.5000;1.1355;1.2326;
316.8000;1.1372;1.2403;
317.1000;1.1266;1.2149;
317.4000;1.1347;1.2377;
317.7000;1.1331;1.2453;
318.0000;1.1339;1.2453;
318.3000;1.1339;1.2504;
318.6000;1.1372;1.2631;
318.9000;1.1363;1.2555;
319.2000;1.1355;1.2631;
319.5000;1.1339;1.2555;
319.8000;1.1331;1.2428;
320.1000;1.1347;1.2529;
320.4000;1.1355;1.2605;
320.7000;1.1315;1.2428;
321.0000;1.1298;1.2403;
321.3000;1.1347;1.2580;
321.6000;1.1339;1.2529;
321.9000;1.1306;1.2529;
322.2000;1.1331;1.2580;
322.5000;1.1331;1.2453;
322.8000;1.1339;1.2479;
323.1000;1.1372;1.2580;
323.4000;1.1420;1.2758;
323.7000;1.1306;1.2504;
324.0000;1.1290;1.2428;
324.3000;1.1339;1.2631;
324.6000;1.1347;1.2605;
324.9000;1.1355;1.2580;
325.2000;1.1347;1.2555;
325.5000;1.1355;1.2555;
325.8000;1.1290;1.2504;
326.1000;1.1331;1.2504;
326.4000;1.1282;1.2225;
326.7000;1.1347;1.2352;
327.0000;1.1323;1.2326;
327.3000;1.1339;1.2301;
327.6000;1.1323;1.2276;
327.9000;1.1347;1.2352;
328.2000;1.1339;1.2403;
328.5000;1.1315;1.2352;
328.8000;1.1315;1.2326;
329.1000;1.1323;1.2428;
329.4000;1.1323;1.2276;
329.7000;1.1339;1.2301;
330.0000;1.1355;1.2301;
330.3000;1.1363;1.2326;
330.6000;1.1380;1.2352;
330.9000;1.1355;1.2428;
331.2000;1.1347;1.2403;
331.5000;1.1355;1.2453;
331.8000;1.1355;1.2479;
332.1000;1.1331;1.2453;
332.4000;1.1331;1.2504;
332.7000;1.1355;1.2504;
333.0000;1.1477;1.2732;
333.3000;1.1331;1.2479;
333.6000;1.1323;1.2403;
333.9000;1.1347;1.2479;
334.2000;1.1331;1.2504;
334.5000;1.1331;1.2529;
334.8000;1.1323;1.2479;
335.1000;1.1339;1.2479;
335.4000;1.1331;1.2453;
335.7000;1.1339;1.2504;
336.0000;1.1331;1.2428;
336.3000;1.1331;1.2479;
336.6000;1.1249;1.2352;
336.9000;1.1331;1.2504;
337.2000;1.1347;1.2605;
337.5000;1.1290;1.2504;
337.8000;1.1331;1.2682;
338.1000;1.1347;1.2783;
338.4000;1.1331;1.2707;
338.7000;1.1290;1.2580;
339.0000;1.1339;1.2707;
339.3000;1.1347;1.2707;
339.6000;1.1461;1.2935;
339.9000;1.1339;1.2605;
340.2000;1.1323;1.2377;
340.5000;1.1347;1.2428;
340.8000;1.1323;1.2403;
341.1000;1.1339;1.2453;
341.4000;1.1331;1.2580;
341.7000;1.1233;1.2301;
342.0000;1.1347;1.2555;
342.3000;1.1331;1.2580;
342.6000;1.1331;1.2529;
342.9000;1.1388;1.2758;
343.2000;1.1266;1.2428;
343.5000;1.1339;1.2555;
343.8000;1.1331;1.2529;
344.1000;1.1258;1.2403;
344.4000;1.1347;1.2555;
344.7000;1.1225;1.2250;
345.0000;1.1331;1.2504;
345.3000;1.1323;1.2504;
345.6000;1.1347;1.2580;
345.9000;1.1331;1.2504;
346.2000;1.1323;1.2504;
346.5000;1.1323;1.2605;
346.8000;1.1396;1.2783;
347.1000;1.1323;1.2580;
347.4000;1.1339;1.2605;
347.7000;1.1339;1.2555;
348.0000;1.1331;1.2529;
348.3000;1.1347;1.2479;
348.6000;1.1331;1.2479;
348.9000;1.1323;1.2555;
349.2000;1.1339;1.2580;
349.5000;1.1323;1.2555;
349.8000;1.1315;1.2453;
350.1000;1.1339;1.2428;
350.4000;1.1404;1.2529;
350.7000;1.1355;1.2403;
351.0000;1.1339;1.2352;
351.3000;1.1315;1.2225;
351.6000;1.1339;1.2326;
351.9000;1.1347;1.2276;
352.2000;1.1347;1.2225;
352.5000;1.1315;1.2276;
352.8000;1.1331;1.2377;
353.1000;1.1339;1.2403;
353.4000;1.1347;1.2479;
353.7000;1.1331;1.2403;
354.0000;1.1274;1.2326;
354.3000;1.1331;1.2504;
354.6000;1.1331;1.2580;
354.9000;1.1339;1.2605;
355.2000;1.1323;1.2605;
355.5000;1.1298;1.2529;
355.8000;1.1347;1.2631;
356.1000;1.1355;1.2605;
356.4000;1.1298;1.2479;
356.7000;1.1331;1.2504;
357.0000;1.1306;1.2453;
357.3000;1.1323;1.2479;
357.6000;1.1315;1.2377;
357.9000;1.1331;1.2428;
358.2000;1.1323;1.2453;
358.5000;1.1347;1.2504;
358.8000;1.1306;1.2428;
359.1000;1.1298;1.2428;
359.4000;1.1339;1.2504;
359.7000;1.1355;1.2479;
360.0000;1.1331;1.2504;
360.3000;1.1331;1.2555;
360.6000;1.1347;1.2605;
360.9000;1.1339;1.2682;
361.2000;1.1331;1.2732;
361.5000;1.1306;1.2682;
361.8000;1.1315;1.2580;
362.1000;1.1331;1.2605;
362.4000;1.1306;1.2529;
362.7000;1.1445;1.2783;
363.0000;1.1339;1.2453;
363.3000;1.1323;1.2403;
363.6000;1.1339;1.2479;
363.9000;1.1355;1.2504;
364.2000;1.1339;1.2529;
364.5000;1.1339;1.2605;
364.8000;1.1347;1.2682;
365.1000;1.1331;1.2783;
365.4000;1.1331;1.2808;
365.7000;1.1315;1.2732;
366.0000;1.1290;1.2631;
366.3000;1.1339;1.2707;
366.6000;1.1396;1.2859;
366.9000;1.1323;1.2758;
367.2000;1.1331;1.2783;
367.5000;1.1323;1.2682;
367.8000;1.1323;1.2682;
368.1000;1.1347;1.2732;
368.4000;1.1339;1.2707;
368.7000;1.1315;1.2605;
369.0000;1.1315;1.2605;
369.3000;1.1323;1.2504;
369.6000;1.1323;1.2504;
369.9000;1.1323;1.2580;
370.2000;1.1323;1.2605;
370.5000;1.1290;1.2504;
370.8000;1.1315;1.2580;
371.1000;1.1323;1.2656;
371.4000;1.1274;1.2403;
371.7000;1.1315;1.2529;
372.0000;1.1315;1.2453;
372.3000;1.1323;1.2580;
372.6000;1.1315;1.2555;
372.9000;1.1298;1.2529;
373.2000;1.1315;1.2529;
373.5000;1.1315;1.2504;
373.8000;1.1323;1.2453;
374.1000;1.1323;1.2453;
374.4000;1.1331;1.2479;
374.7000;1.1331;1.2605;
375.0000;1.1347;1.2631;
375.3000;1.1306;1.2504;
375.6000;1.1339;1.2580;
375.9000;1.1363;1.2631;
376.2000;1.1331;1.2631;
376.5000;1.1339;1.2631;
376.8000;1.1323;1.2580;
377.1000;1.1323;1.2580;
377.4000;1.1306;1.2605;
377.7000;1.1331;1.2605;
378.0000;1.1290;1.2504;
378.3000;1.1315;1.2580;
378.6000;1.1339;1.2504;
378.9000;1.1323;1.2529;
379.2000;1.1315;1.2504;
379.5000;1.1306;1.2555;
379.8000;1.1323;1.2555;
380.1000;1.1323;1.2504;
380.4000;1.1306;1.2479;
380.7000;1.1306;1.2428;
381.0000;1.1274;1.2403;
381.3000;1.1298;1.2529;
381.6000;1.1298;1.2428;
381.9000;1.1347;1.2428;
382.2000;1.1323;1.2479;
382.5000;1.1233;1.2326;
382.8000;1.1306;1.2529;
383.1000;1.1323;1.2504;
383.4000;1.1355;1.2707;
383.7000;1.1282;1.2580;
384.0000;1.1298;1.2580;
384.3000;1.1290;1.2529;
384.6000;1.1315;1.2529;
384.9000;1.1306;1.2529;
385.2000;1.1323;1.2656;
385.5000;1.1306;1.2631;
385.8000;1.1331;1.2682;
386.1000;1.1323;1.2656;
386.4000;1.1315;1.2682;
386.7000;1.1258;1.2555;
387.0000;1.1323;1.2682;
387.3000;1.1323;1.2580;
387.6000;1.1315;1.2504;
387.9000;1.1331;1.2529;
388.2000;1.1315;1.2403;
388.5000;1.1339;1.2479;
388.8000;1.1323;1.2453;
389.1000;1.1315;1.2428;
389.4000;1.1315;1.2403;
389.7000;1.1315;1.2479;
390.0000;1.1306;1.2529;
390.3000;1.1306;1.2555;
390.6000;1.1306;1.2605;
390.9000;1.1323;1.2707;
391.2000;1.1323;1.2732;
391.5000;1.1331;1.2783;
391.8000;1.1323;1.2682;
392.1000;1.1323;1.2656;
392.4000;1.1298;1.2631;
392.7000;1.1315;1.2580;
393.0000;1.1323;1.2656;
393.3000;1.1306;1.2707;
393.6000;1.1298;1.2707;
393.9000;1.1315;1.2732;
394.2000;1.1306;1.2656;
394.5000;1.1274;1.2555;
394.8000;1.1363;1.2682;
395.1000;1.1315;1.2529;
395.4000;1.1339;1.2529;
395.7000;1.1298;1.2479;
396.0000;1.1315;1.2555;
396.3000;1.1298;1.2529;
396.6000;1.1315;1.2555;
396.9000;1.1306;1.2580;
397.2000;1.1306;1.2631;
397.5000;1.1266;1.2605;
397.8000;1.1323;1.2707;
398.1000;1.1315;1.2732;
398.4000;1.1298;1.2605;
398.7000;1.1306;1.2656;
399.0000;1.1331;1.2732;
399.3000;1.1298;1.2631;
399.6000;1.1323;1.2682;
399.9000;1.1315;1.2605;
400.2000;1.1315;1.2529;
400.5000;1.1249;1.2352;
400.8000;1.1315;1.2555;
401.1000;1.1298;1.2555;
401.4000;1.1306;1.2529;
401.7000;1.1306;1.2580;
402.0000;1.1331;1.2605;
402.3000;1.1298;1.2580;
402.6000;1.1331;1.2580;
402.9000;1.1331;1.2529;
403.2000;1.1298;1.2428;
403.5000;1.1290;1.2403;
403.8000;1.1315;1.2529;
404.1000;1.1388;1.2808;
404.4000;1.1306;1.2605;
404.7000;1.1290;1.2555;
405.0000;1.1298;1.2580;
405.3000;1.1323;1.2682;
405.6000;1.1315;1.2732;
405.9000;1.1290;1.2656;
406.2000;1.1258;1.2580;
406.5000;1.1323;1.2758;
406.8000;1.1306;1.2783;
407.1000;1.1315;1.2859;
407.4000;1.1290;1.2682;
407.7000;1.1298;1.2707;
408.0000;1.1315;1.2707;
408.3000;1.1282;1.2656;
408.6000;1.1298;1.2605;
408.9000;1.1306;1.2656;
409.2000;1.1323;1.2656;
409.5000;1.1323;1.2682;
409.8000;1.1306;1.2707;
410.1000;1.1298;1.2732;
410.4000;1.1306;1.2758;
410.7000;1.1315;1.2758;
411.0000;1.1315;1.2732;
411.3000;1.1315;1.2783;
411.6000;1.1184;1.2403;
411.9000;1.1339;1.2758;
412.2000;1.1274;1.2631;
412.5000;1.1298;1.2707;
412.8000;1.1315;1.2758;
413.1000;1.1306;1.2707;
413.4000;1.1323;1.2605;
413.7000;1.1306;1.2605;
414.0000;1.1298;1.2605;
414.3000;1.1290;1.2656;
414.6000;1.1323;1.2631;
414.9000;1.1323;1.2504;
415.2000;1.1315;1.2428;
415.5000;1.1298;1.2428;
415.8000;1.1323;1.2479;
416.1000;1.1274;1.2377;
416.4000;1.1306;1.2453;
416.7000;1.1290;1.2428;
417.0000;1.1274;1.2377;
417.3000;1.1347;1.2682;
417.6000;1.1298;1.2479;
417.9000;1.1290;1.2580;
418.2000;1.1290;1.2580;
418.5000;1.1363;1.2732;
418.8000;1.1306;1.2580;
419.1000;1.1290;1.2605;
419.4000;1.1306;1.2707;
419.7000;1.1306;1.2707;
420.0000;1.1355;1.2707;
420.3000;1.1298;1.2580;
420.6000;1.1306;1.2504;
420.9000;1.1306;1.2656;
421.2000;1.1274;1.2605;
421.5000;1.1315;1.2707;
421.8000;1.1298;1.2682;
422.1000;1.1298;1.2631;
422.4000;1.1290;1.2631;
422.7000;1.1298;1.2631;
423.0000;1.1258;1.2555;
423.3000;1.1306;1.2707;
423.6000;1.1290;1.2707;
423.9000;1.1290;1.2707;
424.2000;1.1306;1.2707;
424.5000;1.1396;1.2935;
424.8000;1.1282;1.2732;
425.1000;1.1290;1.2808;
425.4000;1.1290;1.2884;
425.7000;1.1323;1.2961;
426.0000;1.1315;1.2986;
426.3000;1.1282;1.2935;
426.6000;1.1290;1.2859;
426.9000;1.1290;1.2783;
427.2000;1.1274;1.2783;
427.5000;1.1298;1.2758;
427.8000;1.1298;1.2783;
428.1000;1.1306;1.2834;
428.4000;1.1266;1.2758;
428.7000;1.1290;1.2783;
429.0000;1.1290;1.2732;
429.3000;1.1298;1.2758;
429.6000;1.1290;1.2783;
429.9000;1.1290;1.2884;
430.2000;1.1241;1.2732;
430.5000;1.1298;1.2986;
430.8000;1.1282;1.2884;
431.1000;1.1290;1.2859;
431.4000;1.1298;1.2859;
431.7000;1.1315;1.2935;
432.0000;1.1282;1.2808;
432.3000;1.1290;1.2783;
432.6000;1.1315;1.2859;
432.9000;1.1298;1.2859;
433.2000;1.1315;1.2884;
433.5000;1.1298;1.2884;
433.8000;1.1290;1.2910;
434.1000;1.1298;1.2961;
434.4000;1.1315;1.3037;
434.7000;1.1429;1.3366;
435.0000;1.1298;1.2986;
435.3000;1.1298;1.3011;
435.6000;1.1420;1.3214;
435.9000;1.1306;1.2783;
436.2000;1.1298;1.2758;
436.5000;1.1315;1.2935;
436.8000;1.1298;1.2961;
437.1000;1.1249;1.2758;
437.4000;1.1282;1.2834;
437.7000;1.1258;1.2758;
438.0000;1.1282;1.2732;
438.3000;1.1298;1.2758;
438.6000;1.1266;1.2682;
438.9000;1.1290;1.2656;
439.2000;1.1282;1.2605;
439.5000;1.1282;1.2580;
439.8000;1.1290;1.2631;
440.1000;1.1315;1.2834;
440.4000;1.1282;1.2834;
440.7000;1.1274;1.2834;
441.0000;1.1290;1.2834;
441.3000;1.1274;1.2808;
441.6000;1.1266;1.2783;
441.9000;1.1282;1.2783;
442.2000;1.1290;1.2783;
442.5000;1.1258;1.2682;
442.8000;1.1258;1.2656;
443.1000;1.1201;1.2504;
443.4000;1.1290;1.2783;
443.7000;1.1298;1.2834;
444.0000;1.1290;1.2808;
444.3000;1.1306;1.2808;
444.6000;1.1306;1.2732;
444.9000;1.1233;1.2580;
445.2000;1.1298;1.2758;
445.5000;1.1306;1.2732;
445.8000;1.1363;1.2884;
446.1000;1.1282;1.2631;
446.4000;1.1290;1.2580;
446.7000;1.1298;1.2555;
447.0000;1.1290;1.2580;
447.3000;1.1282;1.2580;
447.6000;1.1290;1.2555;
447.9000;1.1274;1.2605;
448.2000;1.1282;1.2682;
448.5000;1.1258;1.2605;
448.8000;1.1274;1.2580;
449.1000;1.1274;1.2529;
449.4000;1.1290;1.2529;
449.7000;1.1241;1.2403;
450.0000;1.1306;1.2580;
450.3000;1.1290;1.2529;
450.6000;1.1290;1.2580;
450.9000;1.1306;1.2707;
451.2000;1.1217;1.2479;
451.5000;1.1274;1.2682;
451.8000;1.1274;1.2758;
452.1000;1.1266;1.2732;
452.4000;1.1217;1.2529;
452.7000;1.1355;1.2884;
453.0000;1.1274;1.2707;
453.3000;1.1290;1.2732;
453.6000;1.1306;1.2783;
453.9000;1.1258;1.2758;
454.2000;1.1306;1.2935;
454.5000;1.1241;1.2732;
454.8000;1.1282;1.2859;
455.1000;1.1282;1.2783;
455.4000;1.1160;1.2504;
455.7000;1.1233;1.2656;
456.0000;1.1266;1.2783;
456.3000;1.1266;1.2808;
456.6000;1.1282;1.2910;
456.9000;1.1266;1.3037;
457.2000;1.1217;1.2859;
457.5000;1.1233;1.2859;
457.8000;1.1274;1.2910;
458.1000;1.1266;1.2884;
458.4000;1.1274;1.2884;
458.7000;1.1363;1.3062;
459.0000;1.1274;1.2834;
459.3000;1.1274;1.2884;
459.6000;1.1306;1.2961;
459.9000;1.1290;1.2834;
460.2000;1.1290;1.2707;
460.5000;1.1282;1.2682;
460.8000;1.1290;1.2707;
461.1000;1.1274;1.2682;
461.4000;1.1274;1.2656;
461.7000;1.1258;1.2580;
462.0000;1.1249;1.2555;
462.3000;1.1274;1.2656;
462.6000;1.1290;1.2758;
462.9000;1.1282;1.2783;
463.2000;1.1282;1.2656;
463.5000;1.1282;1.2631;
463.8000;1.1290;1.2707;
464.1000;1.1282;1.2707;
464.4000;1.1274;1.2631;
464.7000;1.1282;1.2656;
465.0000;1.1274;1.2555;
465.3000;1.1282;1.2529;
465.6000;1.1290;1.2504;
465.9000;1.1258;1.2580;
466.2000;1.1298;1.2631;
466.5000;1.1298;1.2555;
466.8000;1.1249;1.2453;
467.1000;1.1282;1.2580;
467.4000;1.1290;1.2656;
467.7000;1.1306;1.2758;
468.0000;1.1282;1.2656;
468.3000;1.1274;1.2707;
468.6000;1.1274;1.2707;
468.9000;1.1282;1.2732;
469.2000;1.1266;1.2682;
469.5000;1.1266;1.2707;
469.8000;1.1274;1.2808;
470.1000;1.1290;1.2834;
470.4000;1.1282;1.2808;
470.7000;1.1274;1.2834;
471.0000;1.1282;1.2910;
471.3000;1.1274;1.2808;
471.6000;1.1258;1.2834;
471.9000;1.1282;1.2783;
472.2000;1.1282;1.2808;
472.5000;1.1258;1.2656;
472.8000;1.1274;1.2605;
473.1000;1.1225;1.2529;
473.4000;1.1274;1.2631;
473.7000;1.1258;1.2580;
474.0000;1.1266;1.2529;
474.3000;1.1274;1.2555;
474.6000;1.1241;1.2453;
474.9000;1.1249;1.2555;
475.2000;1.1266;1.2479;
475.5000;1.1298;1.2580;
475.8000;1.1274;1.2555;
476.1000;1.1258;1.2529;
476.4000;1.1274;1.2555;
476.7000;1.1274;1.2656;
477.0000;1.1290;1.2758;
477.3000;1.1266;1.2732;
477.6000;1.1266;1.2732;
477.9000;1.1282;1.2732;
478.2000;1.1266;1.2783;
478.5000;1.1249;1.2707;
478.8000;1.1331;1.2859;
479.1000;1.1266;1.2682;
479.4000;1.1258;1.2707;
479.7000;1.1274;1.2758;
480.0000;1.1282;1.2758;
480.3000;1.1282;1.2808;
480.6000;1.1282;1.2808;
480.9000;1.1225;1.2707;
481.2000;1.1249;1.2808;
481.5000;1.1274;1.2783;
481.8000;1.1249;1.2682;
482.1000;1.1298;1.2783;
482.4000;1.1249;1.2758;
482.7000;1.1347;1.3062;
483.0000;1.1258;1.2808;
483.3000;1.1274;1.2808;
483.6000;1.1258;1.2834;
483.9000;1.1274;1.2884;
484.2000;1.1266;1.2834;
484.5000;1.1258;1.2783;
484.8000;1.1266;1.2808;
485.1000;1.1282;1.2808;
485.4000;1.1290;1.2783;
485.7000;1.1266;1.2783;
486.0000;1.1274;1.2834;
486.3000;1.1266;1.2808;
486.6000;1.1282;1.2859;
486.9000;1.1282;1.2859;
487.2000;1.1258;1.2910;
487.5000;1.1249;1.2910;
487.8000;1.1266;1.2961;
488.1000;1.1282;1.2986;
488.4000;1.1249;1.2935;
488.7000;1.1282;1.2935;
489.0000;1.1258;1.2783;
489.3000;1.1274;1.2783;
489.6000;1.1274;1.2834;
489.9000;1.1274;1.2732;
490.2000;1.1176;1.2631;
490.5000;1.1233;1.2884;
490.8000;1.1274;1.2935;
491.1000;1.1266;1.2783;
491.4000;1.1258;1.2808;
491.7000;1.1282;1.2834;
492.0000;1.1266;1.2808;
492.3000;1.1266;1.2758;
492.6000;1.1258;1.2884;
492.9000;1.1266;1.2808;
493.2000;1.1266;1.2808;
493.5000;1.1258;1.2732;
493.8000;1.1282;1.2758;
494.1000;1.1290;1.2783;
494.4000;1.1282;1.2758;
494.7000;1.1306;1.2808;
495.0000;1.1274;1.2758;
495.3000;1.1274;1.2935;
495.6000;1.1306;1.3011;
495.9000;1.1274;1.2884;
496.2000;1.1274;1.2910;
496.5000;1.1274;1.2884;
496.8000;1.1290;1.2884;
497.1000;1.1266;1.2783;
497.4000;1.1266;1.2707;
497.7000;1.1249;1.2758;
498.0000;1.1282;1.2859;
498.3000;1.1258;1.2834;
498.6000;1.1258;1.2783;
498.9000;1.1282;1.2884;
499.2000;1.1274;1.2986;
499.5000;1.1266;1.2935;
499.8000;1.1274;1.2834;
500.1000;1.1290;1.2808;
500.4000;1.1274;1.2808;
500.7000;1.1282;1.2834;
501.0000;1.1290;1.2732;
501.3000;1.1266;1.2758;
501.6000;1.1266;1.2783;
501.9000;1.1274;1.2834;
502.2000;1.1274;1.2884;
502.5000;1.1298;1.2910;
502.8000;1.1258;1.2834;
503.1000;1.1274;1.2834;
503.4000;1.1274;1.2808;
503.7000;1.1274;1.2732;
504.0000;1.1266;1.2732;
504.3000;1.1266;1.2783;
504.6000;1.1274;1.2783;
504.9000;1.1249;1.2783;
505.2000;1.1249;1.2783;
505.5000;1.1233;1.2758;
505.8000;1.1225;1.2758;
506.1000;1.1290;1.2986;
506.4000;1.1249;1.2808;
506.7000;1.1258;1.2884;
507.0000;1.1249;1.2808;
507.3000;1.1249;1.2758;
507.6000;1.1266;1.2732;
507.9000;1.1258;1.2732;
508.2000;1.1258;1.2707;
508.5000;1.1249;1.2682;
508.8000;1.1258;1.2732;
509.1000;1.1241;1.2758;
509.4000;1.1249;1.2808;
509.7000;1.1249;1.2834;
510.0000;1.1241;1.2884;
510.3000;1.1282;1.2961;
510.6000;1.1258;1.2910;
510.9000;1.1249;1.2884;
511.2000;1.1249;1.2783;
511.5000;1.1241;1.2682;
511.8000;1.1225;1.2605;
512.1000;1.1249;1.2656;
512.4000;1.1258;1.2783;
512.7000;1.1249;1.2808;
513.0000;1.1241;1.2758;
513.3000;1.1323;1.3062;
513.6000;1.1258;1.2884;
513.9000;1.1258;1.2834;
514.2000;1.1258;1.2859;
514.5000;1.1290;1.2961;
514.8000;1.1274;1.2884;
515.1000;1.1331;1.3062;
515.4000;1.1274;1.2783;
515.7000;1.1266;1.2783;
516.0000;1.1258;1.2808;
516.3000;1.1241;1.2859;
516.6000;1.1258;1.2859;
516.9000;1.1258;1.2935;
517.2000;1.1266;1.2884;
517.5000;1.1241;1.2783;
517.8000;1.1233;1.2758;
518.1000;1.1233;1.2707;
518.4000;1.1249;1.2758;
518.7000;1.1274;1.2910;
519.0000;1.1258;1.2935;
519.3000;1.1266;1.2961;
519.6000;1.1290;1.2986;
519.9000;1.1347;1.3087;
520.2000;1.1249;1.2758;
520.5000;1.1298;1.2986;
520.8000;1.1258;1.2884;
521.1000;1.1249;1.2859;
521.4000;1.1258;1.2834;
521.7000;1.1258;1.2910;
522.0000;1.1225;1.2732;
522.3000;1.1258;1.2783;
522.6000;1.1233;1.2682;
522.9000;1.1323;1.2859;
523.2000;1.1339;1.3011;
523.5000;1.1258;1.2808;
523.8000;1.1241;1.2808;
524.1000;1.1217;1.2783;
524.4000;1.1233;1.2758;
524.7000;1.1249;1.2758;
525.0000;1.1258;1.2783;
525.3000;1.1225;1.2758;
525.6000;1.1209;1.2631;
525.9000;1.1233;1.2631;
526.2000;1.1241;1.2682;
526.5000;1.1241;1.2707;
526.8000;1.1152;1.2605;
527.1000;1.1225;1.2783;
527.4000;1.1249;1.2783;
527.7000;1.1241;1.2732;
528.0000;1.1233;1.2732;
528.3000;1.1258;1.2758;
528.6000;1.1258;1.2732;
528.9000;1.1233;1.2656;
529.2000;1.1241;1.2707;
529.5000;1.1258;1.2707;
529.8000;1.1249;1.2758;
530.1000;1.1249;1.2656;
530.4000;1.1217;1.2605;
530.7000;1.1249;1.2631;
531.0000;1.1249;1.2631;
531.3000;1.1258;1.2504;
531.6000;1.1258;1.2580;
531.9000;1.1258;1.2605;
532.2000;1.1266;1.2631;
532.5000;1.1258;1.2605;
532.8000;1.1249;1.2605;
533.1000;1.1241;1.2555;
533.4000;1.1217;1.2605;
533.7000;1.1266;1.2631;
534.0000;1.1266;1.2656;
534.3000;1.1258;1.2707;
534.6000;1.1274;1.2682;
534.9000;1.1225;1.2605;
535.2000;1.1274;1.2682;
535.5000;1.1282;1.2656;
535.8000;1.1266;1.2656;
536.1000;1.1274;1.2758;
536.4000;1.1233;1.2631;
536.7000;1.1266;1.2656;
537.0000;1.1241;1.2631;
537.3000;1.1266;1.2707;
537.6000;1.1249;1.2656;
537.9000;1.1266;1.2605;
538.2000;1.1241;1.2403;
538.5000;1.1258;1.2479;
538.8000;1.1249;1.2479;
539.1000;1.1249;1.2428;
539.4000;1.1258;1.2428;
539.7000;1.1241;1.2352;
540.0000;1.1266;1.2479;
540.3000;1.1306;1.2656;
540.6000;1.1249;1.2479;
540.9000;1.1217;1.2352;
541.2000;1.1249;1.2479;
541.5000;1.1233;1.2479;
541.8000;1.1258;1.2580;
542.1000;1.1209;1.2453;
542.4000;1.1225;1.2504;
542.7000;1.1241;1.2453;
543.0000;1.1241;1.2453;
543.3000;1.1233;1.2403;
543.6000;1.1241;1.2479;
543.9000;1.1241;1.2529;
544.2000;1.1241;1.2529;
544.5000;1.1217;1.2504;
544.8000;1.1241;1.2656;
545.1000;1.1217;1.2605;
545.4000;1.1241;1.2732;
545.7000;1.1225;1.2631;
546.0000;1.1241;1.2732;
546.3000;1.1241;1.2707;
546.6000;1.1241;1.2707;
546.9000;1.1241;1.2580;
547.2000;1.1225;1.2605;
547.5000;1.1209;1.2453;
547.8000;1.1233;1.2504;
548.1000;1.1225;1.2504;
548.4000;1.1225;1.2631;
548.7000;1.1209;1.2605;
549.0000;1.1249;1.2631;
549.3000;1.1241;1.2707;
549.6000;1.1323;1.2935;
549.9000;1.1233;1.2707;
550.2000;1.1249;1.2707;
550.5000;1.1266;1.2808;
550.8000;1.1241;1.2732;
551.1000;1.1241;1.2783;
551.4000;1.1266;1.2758;
551.7000;1.1233;1.2580;
552.0000;1.1233;1.2605;
552.3000;1.1233;1.2631;
552.6000;1.1258;1.2732;
552.9000;1.1233;1.2656;
553.2000;1.1225;1.2555;
553.5000;1.1225;1.2529;
553.8000;1.1233;1.2529;
554.1000;1.1249;1.2631;
554.4000;1.1225;1.2580;
554.7000;1.1241;1.2580;
555.0000;1.1217;1.2479;
555.3000;1.1258;1.2580;
555.6000;1.1249;1.2555;
555.9000;1.1233;1.2580;
556.2000;1.1241;1.2605;
556.5000;1.1241;1.2656;
556.8000;1.1217;1.2656;
557.1000;1.1241;1.2707;
557.4000;1.1217;1.2580;
557.7000;1.1241;1.2580;
558.0000;1.1249;1.2605;
558.3000;1.1233;1.2605;
558.6000;1.1217;1.2631;
558.9000;1.1258;1.2605;
559.2000;1.1217;1.2479;
559.5000;1.1233;1.2580;
559.8000;1.1249;1.2656;
560.1000;1.1241;1.2732;
560.4000;1.1290;1.2859;
560.7000;1.1249;1.2808;
561.0000;1.1233;1.2682;
561.3000;1.1315;1.2884;
561.6000;1.1233;1.2732;
561.9000;1.1225;1.2834;
562.2000;1.1241;1.2758;
562.5000;1.1233;1.2707;
562.8000;1.1249;1.2783;
563.1000;1.1233;1.2758;
563.4000;1.1266;1.2783;
563.7000;1.1290;1.2808;
564.0000;1.1233;1.2707;
564.3000;1.1193;1.2605;
564.6000;1.1249;1.2808;
564.9000;1.1193;1.2682;
565.2000;1.1233;1.2808;
565.5000;1.1249;1.2884;
565.8000;1.1193;1.2758;
566.1000;1.1225;1.2935;
566.4000;1.1233;1.2834;
566.7000;1.1233;1.2808;
567.0000;1.1217;1.2758;
567.3000;1.1241;1.2732;
567.6000;1.1217;1.2656;
567.9000;1.1241;1.2707;
568.2000;1.1266;1.2682;
568.5000;1.1241;1.2605;
568.8000;1.1298;1.2834;
569.1000;1.1241;1.2732;
569.4000;1.1217;1.2656;
569.7000;1.1258;1.2758;
570.0000;1.1233;1.2758;
570.3000;1.1241;1.2834;
570.6000;1.1209;1.2808;
570.9000;1.1274;1.2986;
571.2000;1.1201;1.2808;
571.5000;1.1233;1.2834;
571.8000;1.1225;1.2808;
572.1000;1.1233;1.2758;
572.4000;1.1233;1.2707;
572.7000;1.1233;1.2707;
573.0000;1.1241;1.2783;
573.3000;1.1217;1.2732;
573.6000;1.1249;1.2859;
573.9000;1.1209;1.2834;
574.2000;1.1225;1.2834;
574.5000;1.1241;1.2732;
574.8000;1.1217;1.2758;
575.1000;1.1233;1.2834;
575.4000;1.1233;1.2808;
575.7000;1.1233;1.2884;
576.0000;1.1209;1.2808;
576.3000;1.1225;1.2834;
576.6000;1.1233;1.2935;
576.9000;1.1282;1.3138;
577.2000;1.1241;1.2986;
577.5000;1.1233;1.2986;
577.8000;1.1241;1.2884;
578.1000;1.1249;1.2884;
578.4000;1.1241;1.2859;
578.7000;1.1233;1.2884;
579.0000;1.1225;1.2910;
579.3000;1.1249;1.2961;
579.6000;1.1258;1.3087;
579.9000;1.1249;1.3087;
580.2000;1.1225;1.2961;
580.5000;1.1233;1.2935;
580.8000;1.1225;1.2859;
581.1000;1.1209;1.2758;
581.4000;1.1233;1.2884;
581.7000;1.1217;1.2834;
582.0000;1.1233;1.2859;
582.3000;1.1241;1.2758;
582.6000;1.1225;1.2758;
582.9000;1.1217;1.2808;
583.2000;1.1249;1.2935;
583.5000;1.1209;1.2859;
583.8000;1.1241;1.2986;
584.1000;1.1241;1.2961;
584.4000;1.1266;1.3087;
584.7000;1.1233;1.2935;
585.0000;1.1233;1.2884;
585.3000;1.1225;1.3011;
585.6000;1.1249;1.3062;
585.9000;1.1241;1.3062;
586.2000;1.1233;1.3062;
586.5000;1.1225;1.3037;
586.8000;1.1209;1.2910;
587.1000;1.1225;1.2910;
587.4000;1.1217;1.2986;
587.7000;1.1201;1.2935;
588.0000;1.1233;1.2986;
588.3000;1.1217;1.2961;
588.6000;1.1217;1.2986;
588.9000;1.1217;1.3011;
589.2000;1.1217;1.3011;
589.5000;1.1266;1.3113;
589.8000;1.1241;1.3087;
590.1000;1.1225;1.2986;
590.4000;1.1225;1.2859;
590.7000;1.1225;1.2808;
591.0000;1.1249;1.2808;
591.3000;1.1233;1.2732;
591.6000;1.1193;1.2783;
591.9000;1.1233;1.2910;
592.2000;1.1225;1.2808;
592.5000;1.1258;1.2935;
592.8000;1.1258;1.2986;
593.1000;1.1233;1.2961;
593.4000;1.1233;1.2961;
593.7000;1.1225;1.2834;
594.0000;1.1217;1.2682;
594.3000;1.1233;1.2605;
594.6000;1.1258;1.2707;
594.9000;1.1241;1.2707;
595.2000;1.1233;1.2732;
595.5000;1.1217;1.2656;
595.8000;1.1241;1.2732;
596.1000;1.1233;1.2783;
596.4000;1.1209;1.2732;
596.7000;1.1249;1.2758;
597.0000;1.1233;1.2732;
597.3000;1.1233;1.2783;
597.6000;1.1241;1.2808;
597.9000;1.1209;1.2859;
598.2000;1.1233;1.2935;
598.5000;1.1241;1.2986;
598.8000;1.1233;1.2986;
599.1000;1.1241;1.3011;
599.4000;1.1225;1.2935;
599.7000;1.1225;1.2884;
600.0000;1.1233;1.2986;
600.3000;1.1258;1.2986;
600.6000;1.1249;1.2758;
600.9000;1.1249;1.2682;
601.2000;1.1209;1.2453;
601.5000;1.1176;1.2149;
601.8000;1.1127;1.1921;
602.1000;1.1103;1.1718;
602.4000;1.1070;1.1489;
602.7000;1.0997;1.1312;
603.0000;1.0981;1.1261;
603.3000;1.0948;1.1261;
603.6000;1.0924;1.1160;
603.9000;1.0867;1.0982;
604.2000;1.0842;1.0729;
604.5000;1.0810;1.0576;
604.8000;1.0786;1.0500;
605.1000;1.0737;1.0500;
605.4000;1.0720;1.0323;
605.7000;1.0696;1.0323;
606.0000;1.0663;1.0323;
606.3000;1.0655;1.0348;
606.6000;1.0631;1.0196;
606.9000;1.0606;1.0120;
607.2000;1.0631;1.0196;
607.5000;1.0574;1.0095;
607.8000;1.0541;1.0095;
608.1000;1.0541;1.0272;
608.4000;1.0525;1.0272;
608.7000;1.0517;1.0323;
609.0000;1.0484;1.0221;
609.3000;1.0468;1.0095;
609.6000;1.0476;1.0145;
609.9000;1.0460;1.0196;
610.2000;1.0427;1.0171;
610.5000;1.0435;1.0120;
610.8000;1.0444;1.0018;
611.1000;1.0338;0.9714;
611.4000;1.0419;0.9942;
611.7000;1.0379;0.9917;
612.0000;1.0403;0.9866;
612.3000;1.0403;0.9892;
612.6000;1.0362;0.9841;
612.9000;1.0370;0.9993;
613.2000;1.0370;1.0044;
613.5000;1.0362;0.9968;
613.8000;1.0232;0.9689;
614.1000;1.0338;1.0018;
614.4000;1.0322;0.9968;
614.7000;1.0346;0.9993;
615.0000;1.0330;0.9892;
615.3000;1.0330;0.9892;
615.6000;1.0313;0.9816;
615.9000;1.0232;0.9613;
616.2000;1.0297;0.9816;
616.5000;1.0289;0.9765;
616.8000;1.0289;0.9866;
617.1000;1.0199;0.9638;
617.4000;1.0289;0.9892;
617.7000;1.0256;0.9866;
618.0000;1.0175;0.9638;
618.3000;1.0256;0.9917;
618.6000;1.0273;1.0018;
618.9000;1.0273;1.0095;
619.2000;1.0256;1.0095;
619.5000;1.0256;0.9968;
619.8000;1.0167;0.9816;
620.1000;1.0265;1.0018;
620.4000;1.0240;1.0018;
620.7000;1.0183;0.9892;
621.0000;1.0216;1.0018;
621.3000;1.0240;1.0018;
621.6000;1.0216;1.0018;
621.9000;1.0102;0.9689;
622.2000;1.0216;0.9968;
622.5000;1.0216;0.9942;
622.8000;1.0232;0.9892;
623.1000;1.0208;0.9841;
623.4000;1.0232;0.9816;
623.7000;1.0232;0.9892;
624.0000;1.0216;0.9866;
624.3000;1.0208;0.9841;
624.6000;1.0199;0.9790;
624.9000;1.0199;0.9816;
625.2000;1.0256;0.9968;
625.5000;1.0199;0.9790;
625.8000;1.0183;0.9663;
626.1000;1.0183;0.9765;
626.4000;1.0175;0.9739;
626.7000;1.0175;0.9765;
627.0000;1.0199;0.9790;
627.3000;1.0167;0.9739;
627.6000;1.0167;0.9739;
627.9000;1.0191;0.9816;
628.2000;1.0167;0.9739;
628.5000;1.0151;0.9689;
628.8000;1.0175;0.9689;
629.1000;1.0167;0.9714;
629.4000;1.0167;0.9714;
629.7000;1.0151;0.9790;
630.0000;1.0159;0.9816;
630.3000;1.0142;0.9714;
630.6000;1.0134;0.9816;
630.9000;1.0126;0.9790;
631.2000;1.0167;0.9816;
631.5000;1.0151;0.9765;
631.8000;1.0142;0.9866;
632.1000;1.0142;0.9816;
632.4000;1.0142;0.9892;
632.7000;1.0151;1.0044;
633.0000;1.0175;1.0171;
633.3000;1.0118;0.9942;
633.6000;1.0118;0.9841;
633.9000;1.0102;0.9866;
634.2000;1.0085;0.9765;
634.5000;1.0110;0.9765;
634.8000;1.0094;0.9714;
635.1000;1.0126;0.9739;
635.4000;1.0102;0.9562;
635.7000;1.0134;0.9486;
636.0000;1.0102;0.9460;
636.3000;1.0110;0.9537;
636.6000;1.0118;0.9537;
636.9000;1.0102;0.9511;
637.2000;1.0061;0.9435;
637.5000;1.0110;0.9613;
637.8000;1.0094;0.9638;
638.1000;1.0118;0.9739;
638.4000;1.0061;0.9613;
638.7000;1.0077;0.9689;
639.0000;1.0085;0.9714;
639.3000;1.0077;0.9689;
639.6000;1.0069;0.9638;
639.9000;1.0069;0.9739;
640.2000;1.0077;0.9739;
640.5000;1.0061;0.9587;
640.8000;1.0061;0.9460;
641.1000;1.0069;0.9486;
641.4000;1.0045;0.9562;
641.7000;1.0069;0.9689;
642.0000;1.0028;0.9613;
642.3000;1.0053;0.9714;
642.6000;1.0110;0.9892;
642.9000;1.0069;0.9841;
643.2000;1.0004;0.9714;
643.5000;1.0028;0.9790;
643.8000;1.0045;0.9841;
644.1000;1.0094;0.9816;
644.4000;1.0045;0.9689;
644.7000;1.0028;0.9689;
645.0000;0.9988;0.9714;
645.3000;1.0045;0.9790;
645.6000;1.0142;1.0095;
645.9000;1.0020;0.9739;
646.2000;1.0126;1.0145;
646.5000;1.0020;0.9892;
646.8000;1.0028;0.9892;
647.1000;1.0012;0.9689;
647.4000;1.0004;0.9587;
647.7000;1.0028;0.9689;
648.0000;1.0012;0.9613;
648.3000;1.0012;0.9663;
648.6000;1.0004;0.9689;
648.9000;0.9988;0.9714;
649.2000;0.9988;0.9790;
649.5000;1.0012;0.9892;
649.8000;1.0012;0.9816;
650.1000;0.9996;0.9689;
650.4000;1.0012;0.9765;
650.7000;1.0012;0.9765;
651.0000;1.0004;0.9689;
651.3000;1.0004;0.9790;
651.6000;0.9980;0.9739;
651.9000;0.9980;0.9689;
652.2000;0.9996;0.9714;
652.5000;0.9955;0.9689;
652.8000;0.9972;0.9765;
653.1000;0.9980;0.9739;
653.4000;0.9972;0.9613;
653.7000;0.9963;0.9714;
654.0000;0.9963;0.9638;
654.3000;0.9980;0.9689;
654.6000;0.9972;0.9587;
654.9000;0.9939;0.9435;
655.2000;0.9963;0.9486;
655.5000;0.9947;0.9486;
655.8000;0.9955;0.9537;
656.1000;0.9972;0.9587;
656.4000;0.9955;0.9587;
656.7000;0.9947;0.9613;
657.0000;0.9947;0.9689;
657.3000;0.9939;0.9613;
657.6000;0.9939;0.9587;
657.9000;0.9955;0.9663;
658.2000;0.9931;0.9638;
658.5000;0.9931;0.9663;
658.8000;0.9915;0.9638;
659.1000;0.9963;0.9739;
659.4000;0.9955;0.9714;
659.7000;0.9882;0.9537;
660.0000;0.9955;0.9663;
660.3000;0.9988;0.9841;
660.6000;0.9906;0.9562;
660.9000;0.9923;0.9663;
661.2000;0.9898;0.9663;
661.5000;0.9906;0.9613;
661.8000;0.9931;0.9714;
662.1000;0.9923;0.9689;
662.4000;0.9866;0.9537;
662.7000;0.9898;0.9511;
663.0000;0.9898;0.9511;
663.3000;0.9915;0.9562;
663.6000;0.9906;0.9537;
663.9000;0.9988;0.9714;
664.2000;0.9923;0.9587;
664.5000;0.9898;0.9587;
664.8000;0.9898;0.9562;
665.1000;0.9866;0.9486;
665.4000;0.9972;0.9866;
665.7000;0.9915;0.9714;
666.0000;0.9874;0.9739;
666.3000;0.9882;0.9663;
666.6000;0.9849;0.9689;
666.9000;0.9874;0.9790;
667.2000;0.9915;0.9841;
667.5000;0.9882;0.9739;
667.8000;0.9817;0.9714;
668.1000;0.9858;0.9714;
668.4000;0.9866;0.9714;
668.7000;0.9849;0.9739;
669.0000;0.9841;0.9816;
669.3000;0.9866;0.9917;
669.6000;0.9972;1.0095;
669.9000;0.9898;0.9841;
670.2000;0.9858;0.9765;
670.5000;0.9882;0.9917;
670.8000;0.9866;0.9866;
671.1000;0.9882;0.9942;
671.4000;0.9866;0.9942;
671.7000;0.9841;0.9942;
672.0000;0.9874;1.0044;
672.3000;0.9890;1.0095;
672.6000;0.9849;0.9892;
672.9000;0.9874;0.9892;
673.2000;0.9858;0.9892;
673.5000;0.9841;0.9866;
673.8000;0.9833;0.9917;
674.1000;0.9841;0.9892;
674.4000;0.9849;0.9892;
674.7000;0.9849;0.9942;
675.0000;0.9841;0.9917;
675.3000;0.9817;0.9765;
675.6000;0.9825;0.9841;
675.9000;0.9849;0.9917;
676.2000;0.9841;0.9841;
676.5000;0.9841;0.9816;
676.8000;0.9817;0.9816;
677.1000;0.9825;0.9816;
677.4000;0.9833;0.9841;
677.7000;0.9825;0.9866;
678.0000;0.9817;0.9841;
678.3000;0.9817;0.9841;
678.6000;0.9809;0.9841;
678.9000;0.9817;0.9739;
679.2000;0.9792;0.9739;
679.5000;0.9817;0.9790;
679.8000;0.9784;0.9714;
680.1000;0.9801;0.9714;
680.4000;0.9792;0.9587;
680.7000;0.9792;0.9587;
681.0000;0.9817;0.9562;
681.3000;0.9817;0.9613;
681.6000;0.9760;0.9511;
681.9000;0.9801;0.9587;
682.2000;0.9801;0.9562;
682.5000;0.9784;0.9537;
682.8000;0.9792;0.9638;
683.1000;0.9882;0.9816;
683.4000;0.9801;0.9587;
683.7000;0.9784;0.9562;
684.0000;0.9784;0.9587;
684.3000;0.9727;0.9511;
684.6000;0.9801;0.9663;
684.9000;0.9768;0.9613;
685.2000;0.9809;0.9739;
685.5000;0.9833;0.9765;
685.8000;0.9784;0.9663;
686.1000;0.9784;0.9663;
686.4000;0.9776;0.9638;
686.7000;0.9776;0.9689;
687.0000;0.9768;0.9714;
687.3000;0.9776;0.9689;
687.6000;0.9784;0.9765;
687.9000;0.9744;0.9739;
688.2000;0.9776;0.9841;
688.5000;0.9760;0.9841;
688.8000;0.9744;0.9866;
689.1000;0.9768;0.9993;
689.4000;0.9744;0.9968;
689.7000;0.9752;0.9993;
690.0000;0.9801;1.0069;
690.3000;0.9752;0.9942;
690.6000;0.9744;0.9942;
690.9000;0.9768;1.0044;
691.2000;0.9744;0.9917;
691.5000;0.9744;0.9841;
691.8000;0.9744;0.9892;
692.1000;0.9760;0.9866;
692.4000;0.9744;0.9866;
692.7000;0.9727;0.9816;
693.0000;0.9727;0.9739;
693.3000;0.9727;0.9663;
693.6000;0.9711;0.9613;
693.9000;0.9719;0.9638;
694.2000;0.9735;0.9638;
694.5000;0.9735;0.9663;
694.8000;0.9735;0.9663;
695.1000;0.9735;0.9638;
695.4000;0.9727;0.9638;
695.7000;0.9735;0.9638;
696.0000;0.9744;0.9689;
696.3000;0.9735;0.9739;
696.6000;0.9719;0.9663;
696.9000;0.9727;0.9537;
697.2000;0.9719;0.9537;
697.5000;0.9744;0.9714;
697.8000;0.9727;0.9587;
698.1000;0.9703;0.9511;
698.4000;0.9727;0.9537;
698.7000;0.9719;0.9511;
699.0000;0.9703;0.9435;
699.3000;0.9719;0.9537;
699.6000;0.9727;0.9537;
699.9000;0.9719;0.9460;
700.2000;0.9727;0.9460;
700.5000;0.9719;0.9435;
700.8000;0.9735;0.9435;
701.1000;0.9719;0.9486;
701.4000;0.9711;0.9486;
701.7000;0.9719;0.9537;
702.0000;0.9678;0.9410;
702.3000;0.9711;0.9638;
702.6000;0.9695;0.9587;
702.9000;0.9703;0.9587;
703.2000;0.9703;0.9537;
703.5000;0.9695;0.9511;
703.8000;0.9719;0.9587;
704.1000;0.9703;0.9511;
704.4000;0.9695;0.9587;
704.7000;0.9695;0.9587;
705.0000;0.9727;0.9587;
705.3000;0.9695;0.9689;
705.6000;0.9687;0.9663;
705.9000;0.9695;0.9562;
706.2000;0.9695;0.9486;
706.5000;0.9687;0.9435;
706.8000;0.9678;0.9460;
707.1000;0.9687;0.9435;
707.4000;0.9687;0.9460;
707.7000;0.9695;0.9460;
708.0000;0.9687;0.9359;
708.3000;0.9662;0.9232;
708.6000;0.9687;0.9283;
708.9000;0.9662;0.9207;
709.2000;0.9695;0.9181;
709.5000;0.9687;0.9181;
709.8000;0.9678;0.9131;
710.1000;0.9695;0.9131;
710.4000;0.9687;0.9156;
710.7000;0.9678;0.9105;
711.0000;0.9662;0.9156;
711.3000;0.9687;0.9232;
711.6000;0.9662;0.9283;
711.9000;0.9670;0.9334;
712.2000;0.9670;0.9258;
712.5000;0.9678;0.9258;
712.8000;0.9654;0.9308;
713.1000;0.9670;0.9359;
713.4000;0.9670;0.9410;
713.7000;0.9662;0.9486;
714.0000;0.9654;0.9511;
714.3000;0.9654;0.9410;
714.6000;0.9662;0.9384;
714.9000;0.9678;0.9283;
715.2000;0.9670;0.9308;
715.5000;0.9646;0.9283;
715.8000;0.9662;0.9283;
716.1000;0.9678;0.9410;
716.4000;0.9646;0.9460;
716.7000;0.9687;0.9410;
717.0000;0.9654;0.9359;
717.3000;0.9646;0.9384;
717.6000;0.9638;0.9384;
717.9000;0.9654;0.9334;
718.2000;0.9646;0.9308;
718.5000;0.9638;0.9181;
718.8000;0.9646;0.9283;
719.1000;0.9646;0.9283;
719.4000;0.9670;0.9435;
719.7000;0.9630;0.9384;
720.0000;0.9646;0.9308;
720.3000;0.9638;0.9334;
720.6000;0.9638;0.9232;
720.9000;0.9638;0.9283;
721.2000;0.9646;0.9359;
721.5000;0.9581;0.9232;
721.8000;0.9654;0.9435;
722.1000;0.9630;0.9410;
722.4000;0.9613;0.9308;
722.7000;0.9621;0.9359;
723.0000;0.9638;0.9410;
723.3000;0.9597;0.9258;
723.6000;0.9597;0.9232;
723.9000;0.9581;0.9232;
724.2000;0.9638;0.9435;
724.5000;0.9630;0.9435;
724.8000;0.9638;0.9435;
725.1000;0.9638;0.9435;
725.4000;0.9719;0.9587;
725.7000;0.9597;0.9359;
726.0000;0.9662;0.9486;
726.3000;0.9540;0.9258;
726.6000;0.9630;0.9486;
726.9000;0.9630;0.9486;
727.2000;0.9621;0.9486;
727.5000;0.9597;0.9486;
727.8000;0.9548;0.9308;
728.1000;0.9662;0.9537;
728.4000;0.9638;0.9511;
728.7000;0.9597;0.9384;
729.0000;0.9499;0.9055;
729.3000;0.9621;0.9283;
729.6000;0.9613;0.9207;
729.9000;0.9605;0.9334;
730.2000;0.9621;0.9410;
730.5000;0.9630;0.9460;
730.8000;0.9621;0.9435;
731.1000;0.9597;0.9435;
731.4000;0.9597;0.9460;
731.7000;0.9597;0.9537;
732.0000;0.9630;0.9613;
732.3000;0.9597;0.9511;
732.6000;0.9597;0.9663;
732.9000;0.9605;0.9714;
733.2000;0.9605;0.9613;
733.5000;0.9605;0.9511;
733.8000;0.9597;0.9486;
734.1000;0.9605;0.9537;
734.4000;0.9605;0.9537;
734.7000;0.9597;0.9435;
735.0000;0.9597;0.9486;
735.3000;0.9597;0.9562;
735.6000;0.9613;0.9537;
735.9000;0.9613;0.9460;
736.2000;0.9597;0.9435;
736.5000;0.9573;0.9460;
736.8000;0.9581;0.9486;
737.1000;0.9605;0.9613;
737.4000;0.9581;0.9638;
737.7000;0.9597;0.9638;
738.0000;0.9581;0.9537;
738.3000;0.9589;0.9537;
738.6000;0.9589;0.9537;
738.9000;0.9532;0.9410;
739.2000;0.9597;0.9613;
739.5000;0.9597;0.9663;
739.8000;0.9630;0.9613;
740.1000;0.9589;0.9537;
740.4000;0.9581;0.9486;
740.7000;0.9597;0.9511;
741.0000;0.9573;0.9435;
741.3000;0.9573;0.9460;
741.6000;0.9581;0.9486;
741.9000;0.9597;0.9511;
742.2000;0.9605;0.9435;
742.5000;0.9581;0.9410;
742.8000;0.9556;0.9308;
743.1000;0.9573;0.9460;
743.4000;0.9573;0.9460;
743.7000;0.9581;0.9460;
744.0000;0.9573;0.9486;
744.3000;0.9581;0.9537;
744.6000;0.9581;0.9587;
744.9000;0.9581;0.9537;
745.2000;0.9613;0.9638;
745.5000;0.9573;0.9511;
745.8000;0.9589;0.9562;
746.1000;0.9613;0.9486;
746.4000;0.9556;0.9435;
746.7000;0.9565;0.9537;
747.0000;0.9573;0.9511;
747.3000;0.9573;0.9460;
747.6000;0.9581;0.9410;
747.9000;0.9581;0.9410;
748.2000;0.9540;0.9334;
748.5000;0.9573;0.9486;
748.8000;0.9475;0.9232;
749.1000;0.9540;0.9334;
749.4000;0.9565;0.9410;
749.7000;0.9621;0.9562;
750.0000;0.9556;0.9435;
750.3000;0.9565;0.9384;
750.6000;0.9548;0.9308;
750.9000;0.9581;0.9410;
751.2000;0.9597;0.9486;
751.5000;0.9556;0.9334;
751.8000;0.9524;0.9207;
752.1000;0.9573;0.9334;
752.4000;0.9581;0.9384;
752.7000;0.9565;0.9435;
753.0000;0.9532;0.9410;
753.3000;0.9556;0.9410;
753.6000;0.9556;0.9460;
753.9000;0.9565;0.9486;
754.2000;0.9540;0.9410;
754.5000;0.9532;0.9435;
754.8000;0.9556;0.9511;
755.1000;0.9532;0.9359;
755.4000;0.9556;0.9460;
755.7000;0.9540;0.9486;
756.0000;0.9516;0.9435;
756.3000;0.9556;0.9460;
756.6000;0.9540;0.9486;
756.9000;0.9548;0.9537;
757.2000;0.9605;0.9638;
757.5000;0.9670;0.9739;
757.8000;0.9540;0.9283;
758.1000;0.9605;0.9486;
758.4000;0.9548;0.9308;
758.7000;0.9540;0.9435;
759.0000;0.9524;0.9435;
759.3000;0.9532;0.9511;
759.6000;0.9532;0.9435;
759.9000;0.9532;0.9435;
760.2000;0.9532;0.9435;
760.5000;0.9524;0.9308;
760.8000;0.9524;0.9359;
761.1000;0.9540;0.9410;
761.4000;0.9499;0.9283;
761.7000;0.9532;0.9359;
762.0000;0.9581;0.9537;
762.3000;0.9532;0.9334;
762.6000;0.9548;0.9410;
762.9000;0.9540;0.9359;
763.2000;0.9532;0.9334;
763.5000;0.9540;0.9384;
763.8000;0.9556;0.9410;
764.1000;0.9524;0.9258;
764.4000;0.9499;0.9258;
764.7000;0.9532;0.9334;
765.0000;0.9516;0.9232;
765.3000;0.9532;0.9258;
765.6000;0.9532;0.9258;
765.9000;0.9524;0.9283;
766.2000;0.9565;0.9359;
766.5000;0.9540;0.9334;
766.8000;0.9524;0.9410;
767.1000;0.9532;0.9384;
767.4000;0.9556;0.9410;
767.7000;0.9524;0.9384;
768.0000;0.9508;0.9435;
768.3000;0.9605;0.9765;
768.6000;0.9516;0.9613;
768.9000;0.9524;0.9613;
769.2000;0.9508;0.9562;
769.5000;0.9499;0.9511;
769.8000;0.9540;0.9562;
770.1000;0.9516;0.9587;
770.4000;0.9516;0.9562;
770.7000;0.9516;0.9511;
771.0000;0.9524;0.9486;
771.3000;0.9524;0.9537;
771.6000;0.9508;0.9562;
771.9000;0.9475;0.9460;
772.2000;0.9524;0.9587;
772.5000;0.9532;0.9511;
772.8000;0.9524;0.9486;
773.1000;0.9491;0.9435;
773.4000;0.9491;0.9435;
773.7000;0.9573;0.9638;
774.0000;0.9508;0.9613;
774.3000;0.9483;0.9537;
774.6000;0.9540;0.9765;
774.9000;0.9508;0.9663;
775.2000;0.9508;0.9739;
775.5000;0.9508;0.9689;
775.8000;0.9516;0.9714;
776.1000;0.9516;0.9739;
776.4000;0.9483;0.9663;
776.7000;0.9508;0.9663;
777.0000;0.9499;0.9587;
777.3000;0.9508;0.9562;
777.6000;0.9508;0.9587;
777.9000;0.9483;0.9435;
778.2000;0.9524;0.9511;
778.5000;0.9499;0.9384;
778.8000;0.9508;0.9410;
779.1000;0.9516;0.9410;
779.4000;0.9613;0.9663;
779.7000;0.9508;0.9435;
780.0000;0.9516;0.9486;
780.3000;0.9491;0.9460;
780.6000;0.9491;0.9511;
780.9000;0.9499;0.9511;
781.2000;0.9459;0.9460;
781.5000;0.9475;0.9638;
781.8000;0.9491;0.9663;
782.1000;0.9508;0.9613;
782.4000;0.9613;1.0018;
782.7000;0.9532;0.9739;
783.0000;0.9508;0.9638;
783.3000;0.9499;0.9511;
783.6000;0.9483;0.9384;
783.9000;0.9508;0.9410;
784.2000;0.9467;0.9410;
784.5000;0.9483;0.9460;
784.8000;0.9467;0.9435;
785.1000;0.9491;0.9359;
785.4000;0.9483;0.9308;
785.7000;0.9483;0.9384;
786.0000;0.9402;0.9207;
786.3000;0.9491;0.9511;
786.6000;0.9483;0.9689;
786.9000;0.9491;0.9714;
787.2000;0.9475;0.9663;
787.5000;0.9483;0.9613;
787.8000;0.9483;0.9537;
788.1000;0.9475;0.9562;
788.4000;0.9483;0.9638;
788.7000;0.9467;0.9613;
789.0000;0.9491;0.9613;
789.3000;0.9467;0.9613;
789.6000;0.9475;0.9714;
789.9000;0.9483;0.9689;
790.2000;0.9483;0.9689;
790.5000;0.9499;0.9765;
790.8000;0.9483;0.9739;
791.1000;0.9475;0.9841;
791.4000;0.9475;0.9816;
791.7000;0.9475;0.9866;
792.0000;0.9475;0.9689;
792.3000;0.9483;0.9663;
792.6000;0.9475;0.9689;
792.9000;0.9475;0.9714;
793.2000;0.9475;0.9765;
793.5000;0.9467;0.9841;
793.8000;0.9459;0.9816;
794.1000;0.9442;0.9790;
794.4000;0.9353;0.9511;
794.7000;0.9467;0.9638;
795.0000;0.9459;0.9587;
795.3000;0.9475;0.9562;
795.6000;0.9516;0.9638;
795.9000;0.9451;0.9460;
796.2000;0.9451;0.9486;
796.5000;0.9483;0.9537;
796.8000;0.9459;0.9486;
797.1000;0.9508;0.9587;
797.4000;0.9467;0.9613;
797.7000;0.9328;0.9359;
798.0000;0.9491;0.9816;
798.3000;0.9467;0.9714;
798.6000;0.9508;0.9765;
798.9000;0.9459;0.9689;
799.2000;0.9475;0.9765;
799.5000;0.9475;0.9765;
799.8000;0.9459;0.9739;
800.1000;0.9467;0.9638;
800.4000;0.9467;0.9638;
800.7000;0.9402;0.9537;
801.0000;0.9467;0.9663;
801.3000;0.9369;0.9435;
801.6000;0.9442;0.9587;
801.9000;0.9467;0.9562;
802.2000;0.9451;0.9460;
802.5000;0.9402;0.9384;
802.8000;0.9426;0.9410;
803.1000;0.9467;0.9537;
803.4000;0.9483;0.9562;
803.7000;0.9451;0.9663;
804.0000;0.9467;0.9790;
804.3000;0.9451;0.9866;
804.6000;0.9426;0.9765;
804.9000;0.9442;0.9765;
805.2000;0.9459;0.9866;
805.5000;0.9442;0.9816;
805.8000;0.9459;0.9866;
806.1000;0.9467;0.9765;
806.4000;0.9451;0.9689;
806.7000;0.9467;0.9765;
807.0000;0.9467;0.9739;
807.3000;0.9459;0.9689;
807.6000;0.9442;0.9638;
807.9000;0.9442;0.9689;
808.2000;0.9451;0.9714;
808.5000;0.9442;0.9638;
808.8000;0.9442;0.9689;
809.1000;0.9451;0.9689;
809.4000;0.9459;0.9613;
809.7000;0.9442;0.9587;
810.0000;0.9426;0.9511;
810.3000;0.9459;0.9587;
810.6000;0.9442;0.9511;
810.9000;0.9475;0.9562;
811.2000;0.9451;0.9486;
811.5000;0.9459;0.9486;
811.8000;0.9442;0.9511;
812.1000;0.9459;0.9587;
812.4000;0.9451;0.9562;
812.7000;0.9451;0.9511;
813.0000;0.9442;0.9511;
813.3000;0.9442;0.9562;
813.6000;0.9451;0.9537;
813.9000;0.9434;0.9537;
814.2000;0.9459;0.9663;
814.5000;0.9451;0.9587;
814.8000;0.9442;0.9562;
815.1000;0.9451;0.9562;
815.4000;0.9491;0.9765;
815.7000;0.9451;0.9613;
816.0000;0.9451;0.9587;
816.3000;0.9459;0.9587;
816.6000;0.9426;0.9537;
816.9000;0.9451;0.9638;
817.2000;0.9442;0.9562;
817.5000;0.9312;0.9334;
817.8000;0.9451;0.9689;
818.1000;0.9434;0.9663;
818.4000;0.9442;0.9790;
818.7000;0.9451;0.9714;
819.0000;0.9426;0.9663;
819.3000;0.9434;0.9638;
819.6000;0.9475;0.9613;
819.9000;0.9442;0.9486;
820.2000;0.9402;0.9359;
820.5000;0.9442;0.9410;
820.8000;0.9451;0.9384;
821.1000;0.9516;0.9460;
821.4000;0.9434;0.9258;
821.7000;0.9426;0.9258;
822.0000;0.9451;0.9308;
822.3000;0.9337;0.9181;
822.6000;0.9434;0.9460;
822.9000;0.9434;0.9460;
823.2000;0.9442;0.9511;
823.5000;0.9434;0.9460;
823.8000;0.9442;0.9537;
824.1000;0.9508;0.9638;
824.4000;0.9434;0.9359;
824.7000;0.9426;0.9460;
825.0000;0.9434;0.9486;
825.3000;0.9418;0.9486;
825.6000;0.9442;0.9511;
825.9000;0.9434;0.9435;
826.2000;0.9426;0.9308;
826.5000;0.9418;0.9359;
826.8000;0.9402;0.9334;
827.1000;0.9288;0.9029;
827.4000;0.9410;0.9410;
827.7000;0.9426;0.9334;
828.0000;0.9345;0.9156;
828.3000;0.9418;0.9334;
828.6000;0.9410;0.9308;
828.9000;0.9426;0.9359;
829.2000;0.9410;0.9435;
829.5000;0.9410;0.9435;
829.8000;0.9410;0.9435;
830.1000;0.9426;0.9460;
830.4000;0.9418;0.9460;
830.7000;0.9434;0.9537;
831.0000;0.9475;0.9689;
831.3000;0.9426;0.9613;
831.6000;0.9418;0.9689;
831.9000;0.9402;0.9613;
832.2000;0.9434;0.9587;
832.5000;0.9410;0.9486;
832.8000;0.9418;0.9486;
833.1000;0.9418;0.9511;
833.4000;0.9410;0.9486;
833.7000;0.9377;0.9384;
834.0000;0.9434;0.9587;
834.3000;0.9410;0.9587;
834.6000;0.9442;0.9587;
834.9000;0.9418;0.9587;
835.2000;0.9410;0.9562;
835.5000;0.9418;0.9537;
835.8000;0.9394;0.9511;
836.1000;0.9418;0.9460;
836.4000;0.9402;0.9486;
836.7000;0.9402;0.9537;
837.0000;0.9459;0.9689;
837.3000;0.9353;0.9511;
837.6000;0.9385;0.9613;
837.9000;0.9410;0.9638;
838.2000;0.9410;0.9739;
838.5000;0.9402;0.9714;
838.8000;0.9328;0.9562;
839.1000;0.9410;0.9689;
839.4000;0.9418;0.9765;
839.7000;0.9410;0.9689;
840.0000;0.9296;0.9384;
840.3000;0.9369;0.9486;
840.6000;0.9394;0.9486;
840.9000;0.9385;0.9486;
841.2000;0.9418;0.9638;
841.5000;0.9410;0.9638;
841.8000;0.9418;0.9689;
842.1000;0.9410;0.9587;
842.4000;0.9394;0.9562;
842.7000;0.9402;0.9537;
843.0000;0.9442;0.9587;
843.3000;0.9410;0.9562;
843.6000;0.9353;0.9486;
843.9000;0.9402;0.9613;
844.2000;0.9394;0.9613;
844.5000;0.9483;0.9790;
844.8000;0.9410;0.9587;
845.1000;0.9402;0.9613;
845.4000;0.9410;0.9587;
845.7000;0.9402;0.9537;
846.0000;0.9418;0.9486;
846.3000;0.9410;0.9435;
846.6000;0.9410;0.9460;
846.9000;0.9426;0.9486;
847.2000;0.9394;0.9486;
847.5000;0.9434;0.9613;
847.8000;0.9394;0.9486;
848.1000;0.9394;0.9410;
848.4000;0.9402;0.9359;
848.7000;0.9402;0.9410;
849.0000;0.9394;0.9384;
849.3000;0.9377;0.9410;
849.6000;0.9369;0.9384;
849.9000;0.9402;0.9435;
850.2000;0.9402;0.9435;
850.5000;0.9296;0.9181;
850.8000;0.9394;0.9410;
851.1000;0.9410;0.9435;
851.4000;0.9394;0.9460;
851.7000;0.9410;0.9511;
852.0000;0.9402;0.9486;
852.3000;0.9402;0.9410;
852.6000;0.9385;0.9410;
852.9000;0.9467;0.9537;
853.2000;0.9410;0.9359;
853.5000;0.9402;0.9359;
853.8000;0.9385;0.9308;
854.1000;0.9377;0.9283;
854.4000;0.9402;0.9410;
854.7000;0.9402;0.9460;
855.0000;0.9369;0.9435;
855.3000;0.9385;0.9511;
855.6000;0.9385;0.9486;
855.9000;0.9369;0.9410;
856.2000;0.9385;0.9435;
856.5000;0.9385;0.9460;
856.8000;0.9369;0.9334;
857.1000;0.9385;0.9384;
857.4000;0.9385;0.9460;
857.7000;0.9402;0.9486;
858.0000;0.9394;0.9435;
858.3000;0.9402;0.9435;
858.6000;0.9418;0.9384;
858.9000;0.9410;0.9334;
859.2000;0.9394;0.9308;
859.5000;0.9385;0.9308;
859.8000;0.9410;0.9359;
860.1000;0.9377;0.9435;
860.4000;0.9410;0.9486;
860.7000;0.9410;0.9486;
861.0000;0.9369;0.9334;
861.3000;0.9402;0.9511;
861.6000;0.9385;0.9486;
861.9000;0.9410;0.9511;
862.2000;0.9377;0.9511;
862.5000;0.9369;0.9460;
862.8000;0.9394;0.9460;
863.1000;0.9345;0.9460;
863.4000;0.9377;0.9486;
863.7000;0.9361;0.9384;
864.0000;0.9377;0.9359;
864.3000;0.9337;0.9207;
864.6000;0.9320;0.9029;
864.9000;0.9377;0.9258;
865.2000;0.9385;0.9232;
865.5000;0.9451;0.9359;
865.8000;0.9353;0.9258;
866.1000;0.9385;0.9308;
866.4000;0.9369;0.9232;
866.7000;0.9353;0.9258;
867.0000;0.9451;0.9562;
867.3000;0.9369;0.9410;
867.6000;0.9402;0.9460;
867.9000;0.9394;0.9334;
868.2000;0.9377;0.9283;
868.5000;0.9369;0.9131;
868.8000;0.9345;0.9055;
869.1000;0.9369;0.9080;
869.4000;0.9369;0.9105;
869.7000;0.9402;0.9334;
870.0000;0.9377;0.9283;
870.3000;0.9377;0.9258;
870.6000;0.9280;0.9029;
870.9000;0.9353;0.9334;
871.2000;0.9377;0.9384;
871.5000;0.9345;0.9283;
871.8000;0.9361;0.9384;
872.1000;0.9369;0.9334;
872.4000;0.9353;0.9308;
872.7000;0.9377;0.9359;
873.0000;0.9377;0.9359;
873.3000;0.9369;0.9435;
873.6000;0.9491;0.9841;
873.9000;0.9353;0.9460;
874.2000;0.9369;0.9511;
874.5000;0.9385;0.9460;
874.8000;0.9467;0.9663;
875.1000;0.9369;0.9537;
875.4000;0.9377;0.9714;
875.7000;0.9394;0.9714;
876.0000;0.9369;0.9613;
876.3000;0.9385;0.9613;
876.6000;0.9361;0.9435;
876.9000;0.9304;0.9308;
877.2000;0.9361;0.9359;
877.5000;0.9369;0.9435;
877.8000;0.9361;0.9283;
878.1000;0.9361;0.9359;
878.4000;0.9369;0.9384;
878.7000;0.9361;0.9334;
879.0000;0.9369;0.9435;
879.3000;0.9361;0.9460;
879.6000;0.9361;0.9460;
879.9000;0.9369;0.9460;
880.2000;0.9377;0.9511;
880.5000;0.9353;0.9435;
880.8000;0.9337;0.9384;
881.1000;0.9369;0.9486;
881.4000;0.9508;0.9790;
881.7000;0.9369;0.9511;
882.0000;0.9345;0.9460;
882.3000;0.9369;0.9537;
882.6000;0.9361;0.9511;
882.9000;0.9377;0.9511;
883.2000;0.9369;0.9562;
883.5000;0.9345;0.9460;
883.8000;0.9353;0.9384;
884.1000;0.9369;0.9384;
884.4000;0.9377;0.9435;
884.7000;0.9353;0.9511;
885.0000;0.9369;0.9638;
885.3000;0.9369;0.9638;
885.6000;0.9369;0.9562;
885.9000;0.9385;0.9638;
886.2000;0.9353;0.9435;
886.5000;0.9377;0.9537;
886.8000;0.9377;0.9511;
887.1000;0.9385;0.9511;
887.4000;0.9369;0.9435;
887.7000;0.9369;0.9308;
888.0000;0.9377;0.9334;
888.3000;0.9328;0.9258;
888.6000;0.9345;0.9334;
888.9000;0.9377;0.9511;
889.2000;0.9361;0.9460;
889.5000;0.9377;0.9435;
889.8000;0.9483;0.9816;
890.1000;0.9385;0.9663;
890.4000;0.9377;0.9714;
890.7000;0.9385;0.9739;
891.0000;0.9377;0.9765;
891.3000;0.9353;0.9663;
891.6000;0.9223;0.9384;
891.9000;0.9255;0.9460;
892.2000;0.9369;0.9765;
892.5000;0.9353;0.9765;
892.8000;0.9361;0.9739;
893.1000;0.9369;0.9739;
893.4000;0.9361;0.9714;
893.7000;0.9353;0.9689;
894.0000;0.9353;0.9663;
894.3000;0.9345;0.9638;
894.6000;0.9320;0.9486;
894.9000;0.9337;0.9613;
895.2000;0.9345;0.9663;
895.5000;0.9377;0.9689;
895.8000;0.9361;0.9587;
896.1000;0.9288;0.9435;
896.4000;0.9361;0.9537;
896.7000;0.9410;0.9663;
897.0000;0.9361;0.9511;
897.3000;0.9345;0.9511;
897.6000;0.9361;0.9613;
897.9000;0.9337;0.9562;
898.2000;0.9361;0.9613;
898.5000;0.9337;0.9562;
898.8000;0.9345;0.9562;
899.1000;0.9345;0.9638;
899.4000;0.9328;0.9689;
899.7000;0.9345;0.9714;
900.0000;0.9353;0.9663;
900.3000;0.9345;0.9714;
900.6000;0.9369;0.9663;
900.9000;0.9369;0.9587;
901.2000;0.9353;0.9613;
901.5000;0.9353;0.9689;
901.8000;0.9345;0.9689;
902.1000;0.9377;0.9816;
902.4000;0.9345;0.9689;
902.7000;0.9353;0.9689;
903.0000;0.9361;0.9613;
903.3000;0.9361;0.9638;
903.6000;0.9345;0.9537;
903.9000;0.9345;0.9511;
904.2000;0.9345;0.9435;
904.5000;0.9377;0.9562;
904.8000;0.9394;0.9638;
905.1000;0.9353;0.9587;
905.4000;0.9345;0.9562;
905.7000;0.9361;0.9562;
906.0000;0.9369;0.9638;
906.3000;0.9353;0.9638;
906.6000;0.9353;0.9663;
906.9000;0.9345;0.9663;
907.2000;0.9353;0.9587;
907.5000;0.9353;0.9663;
907.8000;0.9345;0.9714;
908.1000;0.9337;0.9613;
908.4000;0.9345;0.9638;
908.7000;0.9353;0.9587;
909.0000;0.9337;0.9587;
909.3000;0.9345;0.9638;
909.6000;0.9353;0.9562;
909.9000;0.9353;0.9562;
910.2000;0.9361;0.9689;
910.5000;0.9353;0.9689;
910.8000;0.9337;0.9689;
911.1000;0.9361;0.9739;
911.4000;0.9361;0.9739;
911.7000;0.9337;0.9714;
912.0000;0.9353;0.9765;
912.3000;0.9353;0.9790;
912.6000;0.9361;0.9663;
912.9000;0.9377;0.9739;
913.2000;0.9369;0.9663;
913.5000;0.9320;0.9562;
913.8000;0.9345;0.9714;
914.1000;0.9312;0.9663;
914.4000;0.9353;0.9739;
914.7000;0.9337;0.9790;
915.0000;0.9345;0.9765;
915.3000;0.9353;0.9790;
915.6000;0.9345;0.9739;
915.9000;0.9361;0.9765;
916.2000;0.9328;0.9739;
916.5000;0.9337;0.9765;
916.8000;0.9369;0.9816;
917.1000;0.9296;0.9663;
917.4000;0.9353;0.9866;
917.7000;0.9255;0.9486;
918.0000;0.9337;0.9714;
918.3000;0.9345;0.9714;
918.6000;0.9353;0.9816;
918.9000;0.9353;0.9790;
919.2000;0.9353;0.9790;
919.5000;0.9345;0.9739;
919.8000;0.9353;0.9866;
920.1000;0.9353;0.9968;
920.4000;0.9353;0.9968;
920.7000;0.9337;0.9968;
921.0000;0.9345;0.9917;
921.3000;0.9369;0.9942;
921.6000;0.9337;0.9790;
921.9000;0.9337;0.9714;
922.2000;0.9328;0.9663;
922.5000;0.9337;0.9790;
922.8000;0.9320;0.9841;
923.1000;0.9304;0.9765;
923.4000;0.9337;0.9841;
923.7000;0.9353;0.9816;
924.0000;0.9337;0.9663;
924.3000;0.9337;0.9663;
924.6000;0.9353;0.9714;
924.9000;0.9328;0.9739;
925.2000;0.9337;0.9739;
925.5000;0.9345;0.9790;
925.8000;0.9328;0.9816;
926.1000;0.9345;0.9816;
926.4000;0.9353;0.9714;
926.7000;0.9320;0.9714;
927.0000;0.9320;0.9739;
927.3000;0.9337;0.9765;
927.6000;0.9345;0.9841;
927.9000;0.9337;0.9816;
928.2000;0.9328;0.9816;
928.5000;0.9337;0.9892;
928.8000;0.9337;0.9841;
929.1000;0.9328;0.9942;
929.4000;0.9328;0.9866;
929.7000;0.9345;0.9841;
930.0000;0.9328;0.9790;
930.3000;0.9304;0.9739;
930.6000;0.9337;0.9790;
930.9000;0.9353;0.9917;
931.2000;0.9369;0.9993;
931.5000;0.9361;0.9942;
931.8000;0.9328;0.9816;
932.1000;0.9353;0.9841;
932.4000;0.9320;0.9790;
932.7000;0.9385;0.9993;
933.0000;0.9328;0.9790;
933.3000;0.9345;0.9689;
933.6000;0.9337;0.9638;
933.9000;0.9337;0.9739;
934.2000;0.9337;0.9663;
934.5000;0.9296;0.9511;
934.8000;0.9328;0.9537;
935.1000;0.9353;0.9663;
935.4000;0.9345;0.9714;
935.7000;0.9320;0.9739;
936.0000;0.9312;0.9739;
936.3000;0.9247;0.9537;
936.6000;0.9337;0.9765;
936.9000;0.9328;0.9714;
937.2000;0.9328;0.9714;
937.5000;0.9328;0.9765;
937.8000;0.9337;0.9790;
938.1000;0.9304;0.9739;
938.4000;0.9296;0.9739;
938.7000;0.9304;0.9816;
939.0000;0.9345;0.9866;
939.3000;0.9377;0.9841;
939.6000;0.9320;0.9663;
939.9000;0.9328;0.9613;
940.2000;0.9328;0.9689;
940.5000;0.9328;0.9739;
940.8000;0.9328;0.9739;
941.1000;0.9296;0.9689;
941.4000;0.9345;0.9816;
941.7000;0.9337;0.9739;
942.0000;0.9385;0.9942;
942.3000;0.9353;0.9790;
942.6000;0.9337;0.9765;
942.9000;0.9337;0.9816;
943.2000;0.9377;0.9993;
943.5000;0.9337;0.9790;
943.8000;0.9328;0.9739;
944.1000;0.9328;0.9790;
944.4000;0.9320;0.9689;
944.7000;0.9320;0.9739;
945.0000;0.9345;0.9739;
945.3000;0.9337;0.9689;
945.6000;0.9337;0.9765;
945.9000;0.9328;0.9765;
946.2000;0.9320;0.9816;
946.5000;0.9296;0.9739;
946.8000;0.9345;0.9765;
947.1000;0.9320;0.9816;
947.4000;0.9320;0.9942;
947.7000;0.9328;0.9968;
948.0000;0.9320;0.9968;
948.3000;0.9337;0.9892;
948.6000;0.9328;0.9841;
948.9000;0.9312;0.9739;
949.2000;0.9337;0.9866;
949.5000;0.9320;0.9866;
949.8000;0.9345;0.9942;
950.1000;0.9231;0.9587;
950.4000;0.9328;0.9816;
950.7000;0.9328;0.9739;
951.0000;0.9320;0.9714;
951.3000;0.9328;0.9739;
951.6000;0.9328;0.9765;
951.9000;0.9320;0.9917;
952.2000;0.9312;0.9765;
952.5000;0.9320;0.9765;
952.8000;0.9345;0.9765;
953.1000;0.9296;0.9435;
953.4000;0.9328;0.9537;
953.7000;0.9320;0.9537;
954.0000;0.9337;0.9587;
954.3000;0.9337;0.9689;
954.6000;0.9312;0.9689;
954.9000;0.9312;0.9663;
955.2000;0.9320;0.9689;
955.5000;0.9312;0.9638;
955.8000;0.9328;0.9739;
956.1000;0.9320;0.9663;
956.4000;0.9337;0.9613;
956.7000;0.9418;0.9866;
957.0000;0.9337;0.9613;
957.3000;0.9288;0.9511;
957.6000;0.9345;0.9739;
957.9000;0.9451;0.9993;
958.2000;0.9263;0.9587;
958.5000;0.9296;0.9739;
958.8000;0.9320;0.9841;
959.1000;0.9320;0.9866;
959.4000;0.9353;0.9917;
959.7000;0.9328;0.9841;
960.0000;0.9353;0.9942;
960.3000;0.9247;0.9689;
960.6000;0.9328;0.9866;
960.9000;0.9328;0.9917;
961.2000;0.9280;0.9790;
961.5000;0.9247;0.9663;
961.8000;0.9337;0.9790;
962.1000;0.9312;0.9739;
962.4000;0.9312;0.9714;
962.7000;0.9385;0.9892;
963.0000;0.9320;0.9663;
963.3000;0.9320;0.9638;
963.6000;0.9304;0.9638;
963.9000;0.9320;0.9689;
964.2000;0.9304;0.9689;
964.5000;0.9345;0.9816;
964.8000;0.9337;0.9765;
965.1000;0.9320;0.9663;
965.4000;0.9312;0.9714;
965.7000;0.9337;0.9790;
966.0000;0.9328;0.9866;
966.3000;0.9320;0.9816;
966.6000;0.9353;1.0018;
966.9000;0.9345;0.9993;
967.2000;0.9328;0.9993;
967.5000;0.9304;0.9942;
967.8000;0.9255;0.9892;
968.1000;0.9328;1.0095;
968.4000;0.9369;1.0095;
968.7000;0.9296;0.9816;
969.0000;0.9320;0.9841;
969.3000;0.9320;0.9841;
969.6000;0.9442;1.0120;
969.9000;0.9312;0.9714;
970.2000;0.9328;0.9790;
970.5000;0.9312;0.9765;
970.8000;0.9320;0.9816;
971.1000;0.9312;0.9841;
971.4000;0.9328;0.9942;
971.7000;0.9328;0.9917;
972.0000;0.9312;0.9866;
972.3000;0.9320;0.9892;
972.6000;0.9320;1.0044;
972.9000;0.9320;0.9993;
973.2000;0.9312;0.9942;
973.5000;0.9312;1.0018;
973.8000;0.9296;0.9942;
974.1000;0.9304;0.9866;
974.4000;0.9304;0.9892;
974.7000;0.9296;0.9866;
975.0000;0.9304;0.9917;
975.3000;0.9312;0.9892;
975.6000;0.9304;0.9841;
975.9000;0.9312;0.9866;
976.2000;0.9320;0.9942;
976.5000;0.9320;0.9942;
976.8000;0.9288;0.9841;
977.1000;0.9328;0.9841;
977.4000;0.9288;0.9841;
977.7000;0.9304;0.9841;
978.0000;0.9304;0.9841;
978.3000;0.9328;0.9968;
978.6000;0.9296;0.9968;
978.9000;0.9304;0.9993;
979.2000;0.9280;0.9892;
979.5000;0.9320;0.9993;
979.8000;0.9304;0.9942;
980.1000;0.9312;0.9968;
980.4000;0.9312;0.9968;
980.7000;0.9320;0.9917;
981.0000;0.9328;0.9942;
981.3000;0.9312;0.9892;
981.6000;0.9288;0.9866;
981.9000;0.9320;0.9993;
982.2000;0.9320;1.0069;
982.5000;0.9312;0.9993;
982.8000;0.9288;0.9942;
983.1000;0.9304;0.9942;
983.4000;0.9320;0.9942;
983.7000;0.9296;0.9942;
984.0000;0.9328;0.9993;
984.3000;0.9320;0.9968;
984.6000;0.9337;0.9993;
984.9000;0.9296;0.9816;
985.2000;0.9345;0.9841;
985.5000;0.9312;0.9841;
985.8000;0.9353;0.9917;
986.1000;0.9190;0.9537;
986.4000;0.9304;0.9739;
986.7000;0.9320;0.9739;
987.0000;0.9223;0.9511;
987.3000;0.9320;0.9790;
987.6000;0.9451;1.0145;
987.9000;0.9223;0.9613;
988.2000;0.9304;0.9790;
988.5000;0.9312;0.9765;
988.8000;0.9271;0.9714;
989.1000;0.9353;0.9942;
989.4000;0.9263;0.9587;
989.7000;0.9288;0.9663;
990.0000;0.9296;0.9663;
990.3000;0.9296;0.9739;
990.6000;0.9223;0.9562;
990.9000;0.9304;0.9816;
991.2000;0.9320;0.9841;
991.5000;0.9337;0.9892;
991.8000;0.9304;0.9917;
992.1000;0.9328;1.0044;
992.4000;0.9337;1.0069;
992.7000;0.9312;0.9968;
993.0000;0.9312;0.9968;
993.3000;0.9320;1.0018;
993.6000;0.9377;1.0018;
993.9000;0.9304;0.9714;
994.2000;0.9296;0.9663;
994.5000;0.9296;0.9613;
994.8000;0.9337;0.9866;
995.1000;0.9304;0.9866;
995.4000;0.9296;0.9917;
995.7000;0.9312;0.9917;
996.0000;0.9312;0.9841;
996.3000;0.9312;0.9790;
996.6000;0.9312;0.9917;
996.9000;0.9271;0.9841;
997.2000;0.9304;0.9841;
997.5000;0.9320;0.9866;
997.8000;0.9377;0.9968;
998.1000;0.9304;0.9739;
998.4000;0.9296;0.9739;
998.7000;0.9312;0.9739;
999.0000;0.9312;0.9739;
999.3000;0.9304;0.9689;
999.6000;0.9271;0.9663;
999.9000;0.9320;0.9816;
1000.2000;0.9271;0.9714;
1000.5000;0.9296;0.9841;
1000.8000;0.9377;1.0044;
1001.1000;0.9304;0.9968;
1001.4000;0.9296;0.9892;
1001.7000;0.9263;0.9739;
1002.0000;0.9296;0.9816;
1002.3000;0.9312;0.9892;
1002.6000;0.9296;0.9866;
1002.9000;0.9304;0.9739;
1003.2000;0.9345;0.9866;
1003.5000;0.9312;0.9816;
1003.8000;0.9296;0.9917;
1004.1000;0.9312;0.9968;
1004.4000;0.9288;0.9866;
1004.7000;0.9304;0.9739;
1005.0000;0.9312;0.9816;
1005.3000;0.9312;0.9866;
1005.6000;0.9296;0.9841;
1005.9000;0.9296;0.9765;
1006.2000;0.9328;0.9816;
1006.5000;0.9296;0.9739;
1006.8000;0.9320;0.9790;
1007.1000;0.9312;0.9816;
1007.4000;0.9296;0.9866;
1007.7000;0.9337;0.9917;
1008.0000;0.9320;0.9892;
1008.3000;0.9271;0.9841;
1008.6000;0.9280;0.9841;
1008.9000;0.9296;0.9892;
1009.2000;0.9263;0.9866;
1009.5000;0.9296;0.9942;
1009.8000;0.9263;0.9892;
1010.1000;0.9263;0.9892;
1010.4000;0.9296;0.9993;
1010.7000;0.9223;0.9714;
1011.0000;0.9296;0.9816;
1011.3000;0.9304;0.9841;
1011.6000;0.9296;0.9942;
1011.9000;0.9296;0.9993;
1012.2000;0.9288;0.9942;
1012.5000;0.9288;0.9917;
1012.8000;0.9271;0.9866;
1013.1000;0.9288;0.9841;
1013.4000;0.9288;0.9816;
1013.7000;0.9288;0.9790;
1014.0000;0.9296;0.9866;
1014.3000;0.9312;0.9917;
1014.6000;0.9304;0.9917;
1014.9000;0.9345;0.9968;
1015.2000;0.9328;0.9942;
1015.5000;0.9288;0.9892;
1015.8000;0.9296;0.9917;
1016.1000;0.9312;0.9892;
1016.4000;0.9288;0.9790;
1016.7000;0.9328;0.9841;
1017.0000;0.9296;0.9841;
1017.3000;0.9288;0.9790;
1017.6000;0.9320;0.9866;
1017.9000;0.9280;0.9841;
1018.2000;0.9296;0.9866;
1018.5000;0.9280;0.9841;
1018.8000;0.9288;0.9866;
1019.1000;0.9328;0.9968;
1019.4000;0.9288;0.9917;
1019.7000;0.9296;0.9866;
1020.0000;0.9353;1.0018;
1020.3000;0.9304;0.9968;
1020.6000;0.9280;0.9816;
1020.9000;0.9304;0.9892;
1021.2000;0.9304;0.9942;
1021.5000;0.9312;0.9917;
1021.8000;0.9304;0.9942;
1022.1000;0.9296;0.9968;
1022.4000;0.9280;0.9942;
1022.7000;0.9288;0.9892;
1023.0000;0.9206;0.9689;
1023.3000;0.9280;0.9790;
1023.6000;0.9296;0.9765;
1023.9000;0.9296;0.9765;
1024.2000;0.9288;0.9790;
1024.5000;0.9271;0.9714;
1024.8000;0.9402;1.0044;
1025.1000;0.9280;0.9790;
1025.4000;0.9288;0.9790;
1025.7000;0.9247;0.9562;
1026.0000;0.9288;0.9613;
1026.3000;0.9345;0.9816;
1026.6000;0.9312;0.9841;
1026.9000;0.9288;0.9790;
1027.2000;0.9328;0.9841;
1027.5000;0.9214;0.9613;
1027.8000;0.9288;0.9714;
1028.1000;0.9296;0.9689;
1028.4000;0.9288;0.9739;
1028.7000;0.9296;0.9816;
1029.0000;0.9312;0.9866;
1029.3000;0.9296;0.9765;
1029.6000;0.9263;0.9790;
1029.9000;0.9288;0.9892;
1030.2000;0.9288;0.9942;
1030.5000;0.9304;0.9968;
1030.8000;0.9296;0.9892;
1031.1000;0.9296;0.9765;
1031.4000;0.9296;0.9765;
1031.7000;0.9312;0.9841;
1032.0000;0.9280;0.9917;
1032.3000;0.9288;1.0044;
1032.6000;0.9288;1.0069;
1032.9000;0.9337;1.0120;
1033.2000;0.9296;0.9942;
1033.5000;0.9288;0.9866;
1033.8000;0.9288;0.9866;
1034.1000;0.9296;0.9866;
1034.4000;0.9304;0.9841;
1034.7000;0.9288;0.9714;
1035.0000;0.9304;0.9689;
1035.3000;0.9288;0.9613;
1035.6000;0.9304;0.9638;
1035.9000;0.9296;0.9663;
1036.2000;0.9288;0.9714;
1036.5000;0.9312;0.9765;
1036.8000;0.9280;0.9663;
1037.1000;0.9288;0.9714;
1037.4000;0.9288;0.9689;
1037.7000;0.9304;0.9866;
1038.0000;0.9304;0.9892;
1038.3000;0.9296;0.9892;
1038.6000;0.9255;0.9866;
1038.9000;0.9304;0.9816;
1039.2000;0.9296;0.9866;
1039.5000;0.9288;0.9892;
1039.8000;0.9288;0.9892;
1040.1000;0.9296;0.9917;
1040.4000;0.9296;0.9942;
1040.7000;0.9312;0.9917;
1041.0000;0.9304;0.9866;
1041.3000;0.9304;0.9942;
1041.6000;0.9312;0.9993;
1041.9000;0.9296;0.9942;
1042.2000;0.9296;0.9942;
1042.5000;0.9296;0.9942;
1042.8000;0.9320;0.9993;
1043.1000;0.9304;0.9942;
1043.4000;0.9320;0.9942;
1043.7000;0.9288;0.9968;
1044.0000;0.9296;0.9993;
1044.3000;0.9296;0.9993;
1044.6000;0.9271;0.9993;
1044.9000;0.9288;1.0018;
1045.2000;0.9288;1.0069;
1045.5000;0.9312;1.0145;
1045.8000;0.9288;1.0145;
1046.1000;0.9304;1.0196;
1046.4000;0.9296;1.0120;
1046.7000;0.9296;1.0145;
1047.0000;0.9328;1.0095;
1047.3000;0.9288;1.0018;
1047.6000;0.9280;1.0044;
1047.9000;0.9288;1.0120;
1048.2000;0.9328;1.0196;
1048.5000;0.9247;0.9942;
1048.8000;0.9304;1.0069;
1049.1000;0.9280;0.9993;
1049.4000;0.9312;1.0069;
1049.7000;0.9280;1.0044;
1050.0000;0.9247;0.9917;
1050.3000;0.9280;0.9993;
1050.6000;0.9296;1.0018;
1050.9000;0.9288;0.9917;
1051.2000;0.9280;0.9892;
1051.5000;0.9345;1.0018;
1051.8000;0.9304;0.9866;
1052.1000;0.9280;0.9866;
1052.4000;0.9280;0.9816;
1052.7000;0.9288;0.9765;
1053.0000;0.9158;0.9460;
1053.3000;0.9280;0.9790;
1053.6000;0.9280;0.9866;
1053.9000;0.9345;0.9993;
1054.2000;0.9288;0.9866;
1054.5000;0.9271;0.9841;
1054.8000;0.9271;0.9790;
1055.1000;0.9271;0.9790;
1055.4000;0.9263;0.9866;
1055.7000;0.9190;0.9613;
1056.0000;0.9288;0.9841;
1056.3000;0.9288;0.9866;
1056.6000;0.9280;0.9765;
1056.9000;0.9296;0.9841;
1057.2000;0.9296;0.9892;
1057.5000;0.9280;0.9866;
1057.8000;0.9442;1.0297;
1058.1000;0.9271;0.9892;
1058.4000;0.9296;0.9892;
1058.7000;0.9280;0.9942;
1059.0000;0.9280;0.9968;
1059.3000;0.9304;1.0044;
1059.6000;0.9288;1.0095;
1059.9000;0.9288;1.0171;
1060.2000;0.9296;1.0171;
1060.5000;0.9288;1.0120;
1060.8000;0.9296;1.0196;
1061.1000;0.9361;1.0196;
1061.4000;0.9280;0.9993;
1061.7000;0.9304;0.9993;
1062.0000;0.9280;0.9942;
1062.3000;0.9296;1.0095;
1062.6000;0.9288;0.9993;
1062.9000;0.9271;0.9841;
1063.2000;0.9280;0.9917;
1063.5000;0.9312;0.9942;
1063.8000;0.9280;0.9739;
1064.1000;0.9280;0.9816;
1064.4000;0.9288;0.9841;
1064.7000;0.9280;0.9866;
1065.0000;0.9271;0.9892;
1065.3000;0.9263;0.9866;
1065.6000;0.9280;0.9917;
1065.9000;0.9418;1.0348;
1066.2000;0.9304;1.0044;
1066.5000;0.9288;1.0018;
1066.8000;0.9280;0.9942;
1067.1000;0.9271;0.9892;
1067.4000;0.9296;0.9942;
1067.7000;0.9288;1.0069;
1068.0000;0.9288;0.9993;
1068.3000;0.9288;0.9993;
1068.6000;0.9280;1.0069;
1068.9000;0.9271;1.0044;
1069.2000;0.9296;1.0171;
1069.5000;0.9271;1.0069;
1069.8000;0.9271;1.0069;
1070.1000;0.9263;1.0044;
1070.4000;0.9288;1.0069;
1070.7000;0.9280;1.0095;
1071.0000;0.9345;1.0221;
1071.3000;0.9304;1.0145;
1071.6000;0.9271;1.0120;
1071.9000;0.9280;1.0221;
1072.2000;0.9288;1.0272;
1072.5000;0.9271;1.0145;
1072.8000;0.9255;1.0018;
1073.1000;0.9271;0.9968;
1073.4000;0.9280;0.9968;
1073.7000;0.9271;0.9993;
1074.0000;0.9280;1.0069;
1074.3000;0.9263;1.0044;
1074.6000;0.9263;1.0044;
1074.9000;0.9296;1.0145;
1075.2000;0.9141;0.9765;
1075.5000;0.9271;1.0069;
1075.8000;0.9288;1.0069;
1076.1000;0.9296;1.0171;
1076.4000;0.9280;1.0145;
1076.7000;0.9296;1.0145;
1077.0000;0.9312;1.0120;
1077.3000;0.9280;0.9968;
1077.6000;0.9296;1.0069;
1077.9000;0.9271;1.0095;
1078.2000;0.9214;0.9816;
1078.5000;0.9288;1.0018;
1078.8000;0.9312;0.9968;
1079.1000;0.9280;0.9816;
1079.4000;0.9271;0.9714;
1079.7000;0.9337;0.9866;
1080.0000;0.9271;0.9689;
1080.3000;0.9288;0.9663;
1080.6000;0.9296;0.9790;
1080.9000;0.9255;0.9714;
1081.2000;0.9288;0.9841;
1081.5000;0.9288;0.9841;
1081.8000;0.9247;0.9841;
1082.1000;0.9337;0.9968;
1082.4000;0.9280;0.9942;
1082.7000;0.9328;1.0044;
1083.0000;0.9280;0.9866;
1083.3000;0.9280;0.9790;
1083.6000;0.9271;0.9866;
1083.9000;0.9271;0.9892;
1084.2000;0.9247;0.9942;
1084.5000;0.9280;1.0018;
1084.8000;0.9263;0.9942;
1085.1000;0.9263;0.9892;
1085.4000;0.9280;1.0044;
1085.7000;0.9263;0.9968;
1086.0000;0.9255;0.9892;
1086.3000;0.9271;0.9942;
1086.6000;0.9394;1.0297;
1086.9000;0.9263;1.0069;
1087.2000;0.9296;1.0095;
1087.5000;0.9280;0.9993;
1087.8000;0.9271;0.9942;
1088.1000;0.9280;0.9942;
1088.4000;0.9426;1.0348;
1088.7000;0.9288;0.9993;
1089.0000;0.9263;0.9993;
1089.3000;0.9304;1.0018;
1089.6000;0.9280;0.9917;
1089.9000;0.9296;1.0120;
1090.2000;0.9280;1.0069;
1090.5000;0.9280;1.0095;
1090.8000;0.9353;1.0196;
1091.1000;0.9280;1.0069;
1091.4000;0.9288;1.0069;
1091.7000;0.9304;1.0018;
1092.0000;0.9239;0.9790;
1092.3000;0.9280;0.9790;
1092.6000;0.9280;0.9816;
1092.9000;0.9231;0.9689;
1093.2000;0.9288;0.9790;
1093.5000;0.9280;0.9816;
1093.8000;0.9280;0.9892;
1094.1000;0.9271;0.9790;
1094.4000;0.9280;0.9866;
1094.7000;0.9263;0.9917;
1095.0000;0.9280;0.9942;
1095.3000;0.9280;0.9942;
1095.6000;0.9271;0.9993;
1095.9000;0.9255;0.9892;
1096.2000;0.9239;0.9866;
1096.5000;0.9312;0.9993;
1096.8000;0.9288;0.9892;
1097.1000;0.9198;0.9714;
1097.4000;0.9280;0.9942;
1097.7000;0.9288;0.9917;
1098.0000;0.9288;0.9892;
1098.3000;0.9280;0.9841;
1098.6000;0.9385;1.0171;
1098.9000;0.9263;0.9892;
1099.2000;0.9271;0.9790;
1099.5000;0.9214;0.9765;
1099.8000;0.9271;1.0018;
1100.1000;0.9271;0.9968;
1100.4000;0.9288;1.0044;
1100.7000;0.9255;0.9892;
1101.0000;0.9280;0.9866;
1101.3000;0.9288;0.9765;
1101.6000;0.9288;0.9790;
1101.9000;0.9271;0.9765;
1102.2000;0.9320;0.9816;
1102.5000;0.9337;0.9841;
1102.8000;0.9312;0.9739;
1103.1000;0.9353;0.9816;
1103.4000;0.9280;0.9537;
1103.7000;0.9288;0.9613;
1104.0000;0.9271;0.9663;
1104.3000;0.9271;0.9689;
1104.6000;0.9288;0.9765;
1104.9000;0.9271;0.9739;
1105.2000;0.9271;0.9689;
1105.5000;0.9280;0.9663;
1105.8000;0.9271;0.9638;
1106.1000;0.9255;0.9460;
1106.4000;0.9247;0.9537;
1106.7000;0.9288;0.9638;
1107.0000;0.9271;0.9663;
1107.3000;0.9255;0.9689;
1107.6000;0.9280;0.9816;
1107.9000;0.9263;0.9765;
1108.2000;0.9288;0.9841;
1108.5000;0.9280;0.9790;
1108.8000;0.9280;0.9841;
1109.1000;0.9312;0.9917;
1109.4000;0.9280;0.9917;
1109.7000;0.9263;0.9866;
1110.0000;0.9255;0.9841;
1110.3000;0.9271;0.9739;
1110.6000;0.9280;0.9765;
1110.9000;0.9304;0.9765;
1111.2000;0.9271;0.9714;
1111.5000;0.9280;0.9714;
1111.8000;0.9288;0.9841;
1112.1000;0.9271;0.9942;
1112.4000;0.9247;0.9968;
1112.7000;0.9280;0.9993;
1113.0000;0.9263;0.9917;
1113.3000;0.9280;1.0044;
1113.6000;0.9353;1.0272;
1113.9000;0.9271;1.0095;
1114.2000;0.9263;1.0069;
1114.5000;0.9271;1.0044;
1114.8000;0.9231;0.9942;
1115.1000;0.9247;0.9866;
1115.4000;0.9271;0.9841;
1115.7000;0.9263;0.9866;
1116.0000;0.9296;0.9917;
1116.3000;0.9263;0.9917;
1116.6000;0.9271;0.9917;
1116.9000;0.9280;1.0095;
1117.2000;0.9271;1.0069;
1117.5000;0.9239;0.9917;
1117.8000;0.9263;0.9993;
1118.1000;0.9280;1.0044;
1118.4000;0.9288;1.0018;
1118.7000;0.9288;1.0069;
1119.0000;0.9263;1.0018;
1119.3000;0.9263;1.0018;
1119.6000;0.9255;1.0018;
1119.9000;0.9271;1.0018;
1120.2000;0.9296;0.9993;
1120.5000;0.9288;0.9968;
1120.8000;0.9263;0.9968;
1121.1000;0.9271;1.0044;
1121.4000;0.9394;1.0297;
1121.7000;0.9328;1.0171;
1122.0000;0.9288;1.0095;
1122.3000;0.9288;1.0120;
1122.6000;0.9288;1.0145;
1122.9000;0.9280;1.0044;
1123.2000;0.9288;0.9942;
1123.5000;0.9239;0.9816;
1123.8000;0.9280;0.9942;
1124.1000;0.9263;0.9892;
1124.4000;0.9271;0.9942;
1124.7000;0.9271;0.9942;
1125.0000;0.9231;0.9816;
1125.3000;0.9271;0.9866;
1125.6000;0.9296;1.0018;
1125.9000;0.9280;0.9942;
1126.2000;0.9271;0.9816;
1126.5000;0.9280;0.9816;
1126.8000;0.9280;0.9841;
1127.1000;0.9263;0.9816;
1127.4000;0.9263;0.9841;
1127.7000;0.9223;0.9714;
1128.0000;0.9271;0.9866;
1128.3000;0.9263;0.9739;
1128.6000;0.9247;0.9739;
1128.9000;0.9247;0.9790;
1129.2000;0.9247;0.9866;
1129.5000;0.9288;0.9942;
1129.8000;0.9255;0.9841;
1130.1000;0.9255;0.9765;
1130.4000;0.9255;0.9790;
1130.7000;0.9271;0.9968;
1131.0000;0.9280;0.9993;
1131.3000;0.9288;0.9993;
1131.6000;0.9263;0.9942;
1131.9000;0.9271;1.0018;
1132.2000;0.9288;1.0069;
1132.5000;0.9271;0.9942;
1132.8000;0.9247;0.9892;
1133.1000;0.9280;0.9892;
1133.4000;0.9377;1.0196;
1133.7000;0.9223;0.9816;
1134.0000;0.9280;0.9942;
1134.3000;0.9271;0.9917;
1134.6000;0.9320;1.0044;
1134.9000;0.9247;0.9841;
1135.2000;0.9263;0.9739;
1135.5000;0.9255;0.9714;
1135.8000;0.9304;0.9816;
1136.1000;0.9288;0.9841;
1136.4000;0.9288;0.9816;
1136.7000;0.9271;0.9968;
1137.0000;0.9280;0.9892;
1137.3000;0.9271;0.9892;
1137.6000;0.9280;0.9917;
1137.9000;0.9271;0.9866;
1138.2000;0.9288;1.0069;
1138.5000;0.9280;1.0120;
1138.8000;0.9280;1.0095;
1139.1000;0.9263;0.9968;
1139.4000;0.9280;0.9866;
1139.7000;0.9255;0.9816;
1140.0000;0.9271;0.9765;
1140.3000;0.9288;0.9841;
1140.6000;0.9271;0.9790;
1140.9000;0.9271;0.9739;
1141.2000;0.9288;0.9765;
1141.5000;0.9247;0.9587;
1141.8000;0.9263;0.9638;
1142.1000;0.9280;0.9689;
1142.4000;0.9320;0.9714;
1142.7000;0.9247;0.9562;
1143.0000;0.9263;0.9663;
1143.3000;0.9263;0.9638;
1143.6000;0.9247;0.9587;
1143.9000;0.9247;0.9587;
1144.2000;0.9263;0.9511;
1144.5000;0.9263;0.9537;
1144.8000;0.9263;0.9587;
1145.1000;0.9255;0.9638;
1145.4000;0.9263;0.9638;
1145.7000;0.9288;0.9663;
1146.0000;0.9271;0.9689;
1146.3000;0.9263;0.9714;
1146.6000;0.9247;0.9587;
1146.9000;0.9271;0.9689;
1147.2000;0.9263;0.9714;
1147.5000;0.9280;0.9638;
1147.8000;0.9288;0.9613;
1148.1000;0.9255;0.9562;
1148.4000;0.9255;0.9638;
1148.7000;0.9255;0.9714;
1149.0000;0.9263;0.9714;
1149.3000;0.9239;0.9663;
1149.6000;0.9271;0.9739;
1149.9000;0.9280;0.9816;
1150.2000;0.9263;0.9765;
1150.5000;0.9223;0.9663;
1150.8000;0.9263;0.9892;
1151.1000;0.9280;0.9866;
1151.4000;0.9271;0.9739;
1151.7000;0.9271;0.9765;
1152.0000;0.9255;0.9765;
1152.3000;0.9271;0.9816;
1152.6000;0.9263;0.9816;
1152.9000;0.9263;0.9866;
1153.2000;0.9312;1.0069;
1153.5000;0.9263;1.0018;
1153.8000;0.9255;1.0069;
1154.1000;0.9263;1.0044;
1154.4000;0.9239;0.9968;
1154.7000;0.9255;0.9968;
1155.0000;0.9271;1.0018;
1155.3000;0.9255;0.9968;
1155.6000;0.9247;0.9892;
1155.9000;0.9271;0.9892;
1156.2000;0.9288;0.9917;
1156.5000;0.9271;0.9892;
1156.8000;0.9263;0.9841;
1157.1000;0.9231;0.9714;
1157.4000;0.9231;0.9689;
1157.7000;0.9263;0.9714;
1158.0000;0.9280;0.9765;
1158.3000;0.9263;0.9714;
1158.6000;0.9271;0.9714;
1158.9000;0.9280;0.9765;
1159.2000;0.9255;0.9790;
1159.5000;0.9198;0.9765;
1159.8000;0.9255;0.9866;
1160.1000;0.9263;0.9892;
1160.4000;0.9190;0.9663;
1160.7000;0.9263;0.9663;
1161.0000;0.9271;0.9765;
1161.3000;0.9271;0.9866;
1161.6000;0.9263;0.9917;
1161.9000;0.9271;0.9968;
1162.2000;0.9263;0.9942;
1162.5000;0.9280;1.0018;
1162.8000;0.9263;1.0044;
1163.1000;0.9239;0.9942;
1163.4000;0.9255;0.9942;
1163.7000;0.9263;0.9917;
1164.0000;0.9288;0.9892;
1164.3000;0.9247;0.9866;
1164.6000;0.9239;0.9841;
1164.9000;0.9247;0.9942;
1165.2000;0.9247;1.0018;
1165.5000;0.9255;1.0018;
1165.8000;0.9255;0.9993;
1166.1000;0.9263;0.9892;
1166.4000;0.9263;0.9968;
1166.7000;0.9296;0.9993;
1167.0000;0.9288;0.9942;
1167.3000;0.9280;0.9892;
1167.6000;0.9296;0.9866;
1167.9000;0.9263;0.9892;
1168.2000;0.9231;0.9689;
1168.5000;0.9247;0.9739;
1168.8000;0.9263;0.9841;
1169.1000;0.9320;0.9892;
1169.4000;0.9255;0.9739;
1169.7000;0.9255;0.9613;
1170.0000;0.9255;0.9638;
1170.3000;0.9223;0.9638;
1170.6000;0.9166;0.9562;
1170.9000;0.9239;0.9765;
1171.2000;0.9263;0.9942;
1171.5000;0.9288;1.0018;
1171.8000;0.9288;1.0044;
1172.1000;0.9280;0.9993;
1172.4000;0.9255;1.0069;
1172.7000;0.9263;1.0095;
1173.0000;0.9271;1.0095;
1173.3000;0.9263;1.0120;
1173.6000;0.9263;1.0171;
1173.9000;0.9263;1.0120;
1174.2000;0.9288;1.0196;
1174.5000;0.9263;1.0095;
1174.8000;0.9255;1.0095;
1175.1000;0.9255;1.0171;
1175.4000;0.9271;1.0095;
1175.7000;0.9247;0.9993;
1176.0000;0.9263;1.0120;
1176.3000;0.9280;1.0120;
1176.6000;0.9271;1.0145;
1176.9000;0.9280;1.0018;
1177.2000;0.9255;0.9993;
1177.5000;0.9280;1.0120;
1177.8000;0.9255;1.0095;
1178.1000;0.9255;1.0145;
1178.4000;0.9239;0.9993;
1178.7000;0.9255;0.9968;
1179.0000;0.9263;0.9942;
1179.3000;0.9231;0.9942;
1179.6000;0.9206;0.9917;
1179.9000;0.9255;1.0044;
1180.2000;0.9271;1.0095;
1180.5000;0.9288;1.0196;
1180.8000;0.9255;1.0120;
1181.1000;0.9255;1.0196;
1181.4000;0.9247;1.0196;
1181.7000;0.9255;1.0145;
1182.0000;0.9239;1.0120;
1182.3000;0.9247;1.0221;
1182.6000;0.9263;1.0323;
1182.9000;0.9280;1.0247;
1183.2000;0.9271;1.0171;
1183.5000;0.9337;1.0247;
1183.8000;0.9288;1.0095;
1184.1000;0.9263;1.0095;
1184.4000;0.9263;1.0120;
1184.7000;0.9263;1.0069;
1185.0000;0.9271;1.0044;
1185.3000;0.9255;1.0095;
1185.6000;0.9271;1.0120;
1185.9000;0.9239;1.0018;
1186.2000;0.9263;1.0120;
1186.5000;0.9255;1.0120;
1186.8000;0.9255;1.0171;
1187.1000;0.9304;1.0221;
1187.4000;0.9263;1.0069;
1187.7000;0.9263;0.9993;
1188.0000;0.9263;0.9942;
1188.3000;0.9280;0.9968;
1188.6000;0.9255;0.9968;
1188.9000;0.9271;0.9942;
1189.2000;0.9263;0.9993;
1189.5000;0.9255;1.0018;
1189.8000;0.9247;1.0018;
1190.1000;0.9247;0.9993;
1190.4000;0.9312;1.0018;
1190.7000;0.9271;0.9993;
1191.0000;0.9247;0.9942;
1191.3000;0.9255;0.9942;
1191.6000;0.9247;0.9866;
1191.9000;0.9239;0.9816;
1192.2000;0.9312;1.0018;
1192.5000;0.9247;0.9892;
1192.8000;0.9263;0.9841;
1193.1000;0.9263;0.9841;
1193.4000;0.9255;0.9739;
1193.7000;0.9190;0.9613;
1194.0000;0.9255;0.9765;
1194.3000;0.9239;0.9689;
1194.6000;0.9263;0.9790;
1194.9000;0.9247;0.9765;
1195.2000;0.9385;1.0145;
1195.5000;0.9263;0.9892;
1195.8000;0.9271;0.9993;
1196.1000;0.9320;1.0171;
1196.4000;0.9263;0.9993;
1196.7000;0.9263;0.9968;
1197.0000;0.9263;0.9892;
1197.3000;0.9247;0.9790;
1197.6000;0.9280;0.9942;
1197.9000;0.9263;0.9917;
1198.2000;0.9271;0.9968;
1198.5000;0.9271;0.9942;
1198.8000;0.9247;0.9942;
1199.1000;0.9239;0.9866;
1199.4000;0.9280;0.9942;
1199.7000;0.9263;0.9841;
1200.0000;0.9271;0.9892;
1200.3000;0.9263;0.9993;
1200.6000;0.9280;0.9968;
1200.9000;0.9304;0.9942;
1201.2000;0.9247;0.9790;
1201.5000;0.9280;0.9968;
1201.8000;0.9280;1.0018;
1202.1000;0.9255;0.9968;
1202.4000;0.9255;0.9993;
1202.7000;0.9231;0.9968;
1203.0000;0.9271;1.0069;
1203.3000;0.9271;1.0044;
1203.6000;0.9255;0.9942;
1203.9000;0.9190;0.9816;
1204.2000;0.9263;1.0018;
1204.5000;0.9263;0.9968;
1204.8000;0.9255;0.9942;
1205.1000;0.9255;0.9866;
1205.4000;0.9255;0.9816;
1205.7000;0.9271;0.9790;
1206.0000;0.9263;0.9739;
1206.3000;0.9239;0.9689;
1206.6000;0.9223;0.9663;
1206.9000;0.9247;0.9714;
1207.2000;0.9263;0.9765;
1207.5000;0.9263;0.9739;
1207.8000;0.9337;0.9841;
1208.1000;0.9255;0.9689;
1208.4000;0.9263;0.9663;
1208.7000;0.9255;0.9562;
1209.0000;0.9247;0.9638;
1209.3000;0.9255;0.9689;
1209.6000;0.9255;0.9739;
1209.9000;0.9255;0.9739;
1210.2000;0.9255;0.9714;
1210.5000;0.9247;0.9765;
1210.8000;0.9263;0.9942;
1211.1000;0.9304;0.9993;
1211.4000;0.9255;0.9841;
1211.7000;0.9255;0.9892;
1212.0000;0.9255;0.9917;
1212.3000;0.9263;0.9917;
1212.6000;0.9239;0.9968;
1212.9000;0.9288;1.0120;
1213.2000;0.9239;1.0120;
1213.5000;0.9263;1.0171;
1213.8000;0.9255;1.0247;
1214.1000;0.9369;1.0475;
1214.4000;0.9263;1.0221;
1214.7000;0.9247;1.0171;
1215.0000;0.9280;1.0221;
1215.3000;0.9247;1.0120;
1215.6000;0.9247;1.0120;
1215.9000;0.9263;1.0120;
1216.2000;0.9288;1.0145;
1216.5000;0.9239;1.0044;
1216.8000;0.9223;0.9942;
1217.1000;0.9255;0.9917;
1217.4000;0.9255;0.9993;
1217.7000;0.9174;0.9866;
1218.0000;0.9231;0.9942;
1218.3000;0.9263;0.9917;
1218.6000;0.9263;0.9942;
1218.9000;0.9247;0.9892;
1219.2000;0.9231;0.9917;
1219.5000;0.9247;0.9917;
1219.8000;0.9247;0.9942;
1220.1000;0.9231;0.9917;
1220.4000;0.9231;0.9917;
1220.7000;0.9231;0.9942;
1221.0000;0.9280;1.0095;
1221.3000;0.9320;1.0171;
1221.6000;0.9255;0.9968;
1221.9000;0.9280;0.9993;
1222.2000;0.9247;1.0018;
1222.5000;0.9263;1.0069;
1222.8000;0.9271;0.9993;
1223.1000;0.9247;0.9993;
1223.4000;0.9280;1.0044;
1223.7000;0.9271;0.9942;
1224.0000;0.9247;0.9968;
1224.3000;0.9247;0.9968;
1224.6000;0.9255;0.9942;
1224.9000;0.9288;1.0044;
1225.2000;0.9263;1.0018;
1225.5000;0.9263;1.0018;
1225.8000;0.9239;0.9968;
1226.1000;0.9280;1.0069;
1226.4000;0.9271;0.9942;
1226.7000;0.9280;1.0018;
1227.0000;0.9247;0.9942;
1227.3000;0.9288;1.0018;
1227.6000;0.9280;1.0069;
1227.9000;0.9280;1.0095;
1228.2000;0.9271;1.0069;
1228.5000;0.9263;1.0069;
1228.8000;0.9247;1.0018;
1229.1000;0.9247;0.9942;
1229.4000;0.9247;0.9917;
1229.7000;0.9263;0.9968;
1230.0000;0.9247;0.9917;
1230.3000;0.9280;0.9942;
1230.6000;0.9223;0.9790;
1230.9000;0.9320;1.0044;
1231.2000;0.9247;0.9841;
1231.5000;0.9239;0.9841;
1231.8000;0.9231;0.9790;
1232.1000;0.9263;0.9892;
1232.4000;0.9263;0.9968;
1232.7000;0.9271;1.0018;
1233.0000;0.9247;0.9993;
1233.3000;0.9361;1.0323;
1233.6000;0.9255;1.0044;
1233.9000;0.9255;1.0120;
1234.2000;0.9214;1.0018;
1234.5000;0.9149;0.9765;
1234.8000;0.9280;1.0069;
1235.1000;0.9255;0.9993;
1235.4000;0.9271;0.9993;
1235.7000;0.9255;0.9917;
1236.0000;0.9394;1.0171;
1236.3000;0.9247;0.9841;
1236.6000;0.9247;0.9739;
1236.9000;0.9271;0.9790;
1237.2000;0.9328;0.9993;
1237.5000;0.9255;0.9866;
1237.8000;0.9271;1.0018;
1238.1000;0.9255;1.0044;
1238.4000;0.9231;0.9942;
1238.7000;0.9190;0.9892;
1239.0000;0.9255;1.0120;
1239.3000;0.9263;1.0171;
1239.6000;0.9271;1.0221;
1239.9000;0.9239;1.0247;
1240.2000;0.9239;1.0171;
1240.5000;0.9255;1.0196;
1240.8000;0.9255;1.0069;
1241.1000;0.9255;1.0069;
1241.4000;0.9255;1.0095;
1241.7000;0.9247;1.0171;
1242.0000;0.9247;1.0196;
1242.3000;0.9255;1.0221;
1242.6000;0.9320;1.0374;
1242.9000;0.9263;1.0145;
1243.2000;0.9304;1.0272;
1243.5000;0.9247;1.0145;
1243.8000;0.9255;1.0069;
1244.1000;0.9271;1.0018;
1244.4000;0.9231;1.0044;
1244.7000;0.9255;1.0018;
1245.0000;0.9231;0.9917;
1245.3000;0.9247;0.9968;
1245.6000;0.9182;0.9841;
1245.9000;0.9239;0.9942;
1246.2000;0.9247;0.9892;
1246.5000;0.9255;0.9892;
1246.8000;0.9255;0.9968;
1247.1000;0.9255;0.9917;
1247.4000;0.9239;0.9968;
1247.7000;0.9263;1.0044;
1248.0000;0.9255;1.0120;
1248.3000;0.9231;1.0069;
1248.6000;0.9361;1.0399;
1248.9000;0.9231;1.0044;
1249.2000;0.9247;1.0044;
1249.5000;0.9255;1.0069;
1249.8000;0.9223;0.9968;
1250.1000;0.9214;0.9917;
1250.4000;0.9263;1.0095;
1250.7000;0.9280;1.0120;
1251.0000;0.9271;1.0069;
1251.3000;0.9247;1.0069;
1251.6000;0.9263;1.0044;
1251.9000;0.9239;1.0069;
1252.2000;0.9255;1.0095;
1252.5000;0.9255;1.0120;
1252.8000;0.9255;1.0145;
1253.1000;0.9280;1.0171;
1253.4000;0.9271;1.0120;
1253.7000;0.9190;0.9942;
1254.0000;0.9255;1.0095;
1254.3000;0.9271;1.0044;
1254.6000;0.9418;1.0424;
1254.9000;0.9247;1.0069;
1255.2000;0.9239;1.0095;
1255.5000;0.9255;1.0145;
1255.8000;0.9263;1.0196;
1256.1000;0.9255;1.0095;
1256.4000;0.9206;0.9968;
1256.7000;0.9247;0.9968;
1257.0000;0.9280;1.0095;
1257.3000;0.9271;1.0018;
1257.6000;0.9247;0.9942;
1257.9000;0.9280;0.9993;
1258.2000;0.9345;1.0247;
1258.5000;0.9263;0.9993;
1258.8000;0.9263;0.9942;
1259.1000;0.9239;1.0018;
1259.4000;0.9239;1.0044;
1259.7000;0.9255;1.0069;
1260.0000;0.9214;0.9942;
1260.3000;0.9231;1.0069;
1260.6000;0.9255;1.0120;
1260.9000;0.9239;1.0044;
1261.2000;0.9288;1.0272;
1261.5000;0.9231;1.0196;
1261.8000;0.9247;1.0196;
1262.1000;0.9239;1.0196;
1262.4000;0.9239;1.0171;
1262.7000;0.9255;1.0196;
1263.0000;0.9263;1.0196;
1263.3000;0.9182;0.9993;
1263.6000;0.9239;1.0120;
1263.9000;0.9255;1.0196;
1264.2000;0.9255;1.0221;
1264.5000;0.9255;1.0272;
1264.8000;0.9247;1.0221;
1265.1000;0.9255;1.0120;
1265.4000;0.9247;1.0069;
1265.7000;0.9263;1.0069;
1266.0000;0.9174;0.9942;
1266.3000;0.9158;0.9942;
1266.6000;0.9247;1.0145;
1266.9000;0.9247;1.0196;
1267.2000;0.9247;1.0171;
1267.5000;0.9263;1.0272;
1267.8000;0.9263;1.0171;
1268.1000;0.9263;1.0095;
1268.4000;0.9280;1.0221;
1268.7000;0.9239;1.0145;
1269.0000;0.9247;1.0095;
1269.3000;0.9304;1.0145;
1269.6000;0.9247;0.9968;
1269.9000;0.9247;0.9968;
1270.2000;0.9271;1.0069;
1270.5000;0.9263;1.0069;
1270.8000;0.9255;1.0044;
1271.1000;0.9263;1.0095;
1271.4000;0.9255;1.0095;
1271.7000;0.9271;1.0120;
1272.0000;0.9280;1.0095;
1272.3000;0.9255;1.0018;
1272.6000;0.9247;0.9993;
1272.9000;0.9239;0.9993;
1273.2000;0.9255;1.0044;
1273.5000;0.9288;0.9993;
1273.8000;0.9239;0.9790;
1274.1000;0.9239;0.9739;
1274.4000;0.9271;0.9765;
1274.7000;0.9247;0.9689;
1275.0000;0.9239;0.9689;
1275.3000;0.9231;0.9714;
1275.6000;0.9149;0.9537;
1275.9000;0.9255;0.9714;
1276.2000;0.9263;0.9739;
1276.5000;0.9263;0.9841;
1276.8000;0.9239;0.9790;
1277.1000;0.9239;0.9790;
1277.4000;0.9255;0.9816;
1277.7000;0.9231;0.9816;
1278.0000;0.9255;0.9816;
1278.3000;0.9247;0.9841;
1278.6000;0.9263;0.9866;
1278.9000;0.9239;0.9816;
1279.2000;0.9255;0.9892;
1279.5000;0.9263;0.9866;
1279.8000;0.9255;0.9841;
1280.1000;0.9271;0.9866;
1280.4000;0.9239;0.9765;
1280.7000;0.9247;0.9841;
1281.0000;0.9255;0.9866;
1281.3000;0.9223;0.9841;
1281.6000;0.9214;0.9816;
1281.9000;0.9247;0.9841;
1282.2000;0.9271;0.9942;
1282.5000;0.9239;0.9917;
1282.8000;0.9247;0.9866;
1283.1000;0.9239;0.9942;
1283.4000;0.9231;0.9942;
1283.7000;0.9223;1.0044;
1284.0000;0.9231;1.0044;
1284.3000;0.9239;1.0120;
1284.6000;0.9239;1.0171;
1284.9000;0.9247;1.0095;
1285.2000;0.9223;1.0069;
1285.5000;0.9247;1.0095;
1285.8000;0.9255;1.0120;
1286.1000;0.9263;1.0120;
1286.4000;0.9182;0.9917;
1286.7000;0.9280;1.0095;
1287.0000;0.9255;1.0120;
1287.3000;0.9255;1.0044;
1287.6000;0.9239;1.0044;
1287.9000;0.9255;1.0044;
1288.2000;0.9214;0.9942;
1288.5000;0.9247;0.9917;
1288.8000;0.9239;0.9892;
1289.1000;0.9231;0.9866;
1289.4000;0.9239;0.9816;
1289.7000;0.9255;0.9841;
1290.0000;0.9239;0.9892;
1290.3000;0.9247;1.0018;
1290.6000;0.9255;1.0196;
1290.9000;0.9247;1.0171;
1291.2000;0.9239;1.0044;
1291.5000;0.9247;0.9993;
1291.8000;0.9239;0.9942;
1292.1000;0.9239;0.9841;
1292.4000;0.9247;0.9892;
1292.7000;0.9247;0.9917;
1293.0000;0.9263;1.0018;
1293.3000;0.9214;0.9892;
1293.6000;0.9247;1.0018;
1293.9000;0.9239;1.0018;
1294.2000;0.9247;1.0069;
1294.5000;0.9247;0.9993;
1294.8000;0.9263;1.0044;
1295.1000;0.9255;1.0095;
1295.4000;0.9247;1.0095;
1295.7000;0.9247;1.0095;
1296.0000;0.9239;1.0069;
1296.3000;0.9263;0.9968;
1296.6000;0.9271;0.9942;
1296.9000;0.9255;0.9942;
1297.2000;0.9255;1.0018;
1297.5000;0.9304;1.0196;
1297.8000;0.9223;1.0069;
1298.1000;0.9206;1.0018;
1298.4000;0.9288;1.0221;
1298.7000;0.9247;1.0095;
1299.0000;0.9239;1.0069;
1299.3000;0.9263;1.0044;
1299.6000;0.9255;0.9968;
1299.9000;0.9263;1.0018;
1300.2000;0.9247;1.0018;
1300.5000;0.9247;1.0120;
1300.8000;0.9263;1.0145;
1301.1000;0.9239;1.0018;
1301.4000;0.9255;0.9892;
1301.7000;0.9328;1.0069;
1302.0000;0.9214;0.9765;
1302.3000;0.9263;0.9993;
1302.6000;0.9263;1.0044;
1302.9000;0.9247;1.0018;
1303.2000;0.9263;1.0018;
1303.5000;0.9231;0.9968;
1303.8000;0.9255;1.0018;
1304.1000;0.9247;0.9993;
1304.4000;0.9239;1.0069;
1304.7000;0.9247;1.0069;
1305.0000;0.9263;1.0145;
1305.3000;0.9239;1.0044;
1305.6000;0.9239;1.0095;
1305.9000;0.9247;1.0120;
1306.2000;0.9263;1.0145;
1306.5000;0.9247;1.0120;
1306.8000;0.9239;1.0145;
1307.1000;0.9247;1.0145;
1307.4000;0.9263;1.0145;
1307.7000;0.9239;1.0044;
1308.0000;0.9247;1.0069;
1308.3000;0.9247;1.0120;
1308.6000;0.9247;1.0145;
1308.9000;0.9255;1.0095;
1309.2000;0.9255;1.0120;
1309.5000;0.9247;1.0145;
1309.8000;0.9247;1.0196;
1310.1000;0.9247;1.0196;
1310.4000;0.9239;1.0247;
1310.7000;0.9092;0.9841;
1311.0000;0.9271;1.0272;
1311.3000;0.9271;1.0272;
1311.6000;0.9255;1.0221;
1311.9000;0.9247;1.0247;
1312.2000;0.9377;1.0475;
1312.5000;0.9255;1.0120;
1312.8000;0.9255;1.0095;
1313.1000;0.9231;1.0120;
1313.4000;0.9247;1.0120;
1313.7000;0.9377;1.0399;
1314.0000;0.9247;1.0018;
1314.3000;0.9296;1.0272;
1314.6000;0.9231;1.0171;
1314.9000;0.9255;1.0272;
1315.2000;0.9190;1.0196;
1315.5000;0.9255;1.0348;
1315.8000;0.9288;1.0323;
1316.1000;0.9255;1.0247;
1316.4000;0.9247;1.0247;
1316.7000;0.9247;1.0196;
1317.0000;0.9255;1.0171;
1317.3000;0.9133;0.9790;
1317.6000;0.9239;1.0069;
1317.9000;0.9239;1.0095;
1318.2000;0.9247;1.0120;
1318.5000;0.9247;1.0095;
1318.8000;0.9255;1.0018;
1319.1000;0.9247;1.0095;
1319.4000;0.9247;1.0095;
1319.7000;0.9214;1.0095;
1320.0000;0.9255;1.0196;
1320.3000;0.9255;1.0247;
1320.6000;0.9231;1.0221;
1320.9000;0.9255;1.0196;
1321.2000;0.9239;1.0095;
1321.5000;0.9255;1.0145;
1321.8000;0.9247;1.0171;
1322.1000;0.9255;1.0120;
1322.4000;0.9239;1.0044;
1322.7000;0.9247;1.0069;
1323.0000;0.9247;1.0095;
1323.3000;0.9223;0.9993;
1323.6000;0.9239;1.0120;
1323.9000;0.9247;1.0171;
1324.2000;0.9239;1.0095;
1324.5000;0.9255;1.0095;
1324.8000;0.9255;1.0196;
1325.1000;0.9288;1.0323;
1325.4000;0.9247;1.0196;
1325.7000;0.9198;1.0145;
1326.0000;0.9198;1.0145;
1326.3000;0.9223;1.0171;
1326.6000;0.9255;1.0145;
1326.9000;0.9214;1.0069;
1327.2000;0.9239;1.0120;
1327.5000;0.9255;1.0018;
1327.8000;0.9353;1.0247;
1328.1000;0.9231;0.9968;
1328.4000;0.9247;0.9942;
1328.7000;0.9223;0.9866;
1329.0000;0.9280;0.9993;
1329.3000;0.9271;0.9968;
1329.6000;0.9239;0.9841;
1329.9000;0.9206;0.9765;
1330.2000;0.9166;0.9714;
1330.5000;0.9239;0.9866;
1330.8000;0.9304;1.0095;
1331.1000;0.9247;0.9968;
1331.4000;0.9263;1.0044;
1331.7000;0.9231;0.9892;
1332.0000;0.9231;0.9816;
1332.3000;0.9231;0.9816;
1332.6000;0.9223;0.9790;
1332.9000;0.9247;0.9917;
1333.2000;0.9141;0.9816;
1333.5000;0.9206;0.9866;
1333.8000;0.9231;1.0018;
1334.1000;0.9247;1.0171;
1334.4000;0.9247;1.0120;
1334.7000;0.9255;1.0221;
1335.0000;0.9231;1.0120;
1335.3000;0.9247;1.0145;
1335.6000;0.9239;1.0095;
1335.9000;0.9247;1.0044;
1336.2000;0.9149;0.9790;
1336.5000;0.9271;1.0120;
1336.8000;0.9263;1.0069;
1337.1000;0.9231;0.9993;
1337.4000;0.9247;1.0095;
1337.7000;0.9255;1.0069;
1338.0000;0.9247;1.0171;
1338.3000;0.9271;1.0095;
1338.6000;0.9271;1.0145;
1338.9000;0.9255;1.0095;
1339.2000;0.9255;1.0044;
1339.5000;0.9263;1.0069;
1339.8000;0.9255;1.0044;
1340.1000;0.9239;1.0120;
1340.4000;0.9247;1.0120;
1340.7000;0.9255;1.0145;
1341.0000;0.9239;1.0069;
1341.3000;0.9255;1.0120;
1341.6000;0.9255;1.0018;
1341.9000;0.9247;0.9993;
1342.2000;0.9255;1.0018;
1342.5000;0.9263;0.9968;
1342.8000;0.9239;0.9892;
1343.1000;0.9304;1.0171;
1343.4000;0.9263;0.9993;
1343.7000;0.9247;0.9968;
1344.0000;0.9271;0.9968;
1344.3000;0.9247;0.9917;
1344.6000;0.9247;0.9942;
1344.9000;0.9247;0.9892;
1345.2000;0.9223;0.9841;
1345.5000;0.9247;0.9892;
1345.8000;0.9247;0.9968;
1346.1000;0.9214;0.9942;
1346.4000;0.9239;0.9993;
1346.7000;0.9263;1.0120;
1347.0000;0.9263;1.0196;
1347.3000;0.9247;1.0221;
1347.6000;0.9239;1.0171;
1347.9000;0.9263;1.0171;
1348.2000;0.9231;1.0095;
1348.5000;0.9304;1.0221;
1348.8000;0.9288;1.0196;
1349.1000;0.9271;1.0171;
1349.4000;0.9247;0.9942;
1349.7000;0.9239;0.9942;
1350.0000;0.9304;1.0145;
1350.3000;0.9239;0.9917;
1350.6000;0.9255;0.9968;
1350.9000;0.9255;1.0018;
1351.2000;0.9149;0.9663;
1351.5000;0.9263;0.9892;
1351.8000;0.9288;0.9942;
1352.1000;0.9255;0.9942;
1352.4000;0.9255;1.0044;
1352.7000;0.9239;1.0095;
1353.0000;0.9263;1.0171;
1353.3000;0.9263;1.0145;
1353.6000;0.9214;1.0069;
1353.9000;0.9239;1.0069;
1354.2000;0.9288;1.0069;
1354.5000;0.9255;1.0120;
1354.8000;0.9206;1.0095;
1355.1000;0.9247;1.0069;
1355.4000;0.9239;1.0069;
1355.7000;0.9255;1.0044;
1356.0000;0.9239;0.9968;
1356.3000;0.9247;0.9942;
1356.6000;0.9255;1.0018;
1356.9000;0.9231;0.9968;
1357.2000;0.9263;0.9993;
1357.5000;0.9271;1.0145;
1357.8000;0.9239;1.0069;
1358.1000;0.9263;1.0171;
1358.4000;0.9231;1.0145;
1358.7000;0.9239;1.0196;
1359.0000;0.9239;1.0171;
1359.3000;0.9263;1.0272;
1359.6000;0.9369;1.0576;
1359.9000;0.9247;1.0323;
1360.2000;0.9280;1.0374;
1360.5000;0.9247;1.0221;
1360.8000;0.9239;1.0171;
1361.1000;0.9239;1.0247;
1361.4000;0.9247;1.0247;
1361.7000;0.9255;1.0297;
1362.0000;0.9263;1.0424;
1362.3000;0.9158;1.0120;
1362.6000;0.9239;1.0272;
1362.9000;0.9239;1.0323;
1363.2000;0.9255;1.0374;
1363.5000;0.9247;1.0348;
1363.8000;0.9263;1.0348;
1364.1000;0.9247;1.0297;
1364.4000;0.9231;1.0247;
1364.7000;0.9263;1.0348;
1365.0000;0.9247;1.0297;
1365.3000;0.9247;1.0221;
1365.6000;0.9223;1.0171;
1365.9000;0.9304;1.0374;
1366.2000;0.9255;1.0247;
1366.5000;0.9247;1.0272;
1366.8000;0.9255;1.0374;
1367.1000;0.9255;1.0374;
1367.4000;0.9271;1.0450;
1367.7000;0.9247;1.0348;
1368.0000;0.9214;1.0323;
1368.3000;0.9255;1.0323;
1368.6000;0.9231;1.0323;
1368.9000;0.9174;1.0196;
1369.2000;0.9223;1.0297;
1369.5000;0.9231;1.0221;
1369.8000;0.9247;1.0272;
1370.1000;0.9263;1.0196;
1370.4000;0.9255;1.0145;
1370.7000;0.9231;1.0196;
1371.0000;0.9255;1.0272;
1371.3000;0.9247;1.0196;
1371.6000;0.9255;1.0196;
1371.9000;0.9231;1.0069;
1372.2000;0.9247;1.0095;
1372.5000;0.9247;0.9942;
1372.8000;0.9247;0.9892;
1373.1000;0.9280;1.0018;
1373.4000;0.9280;1.0018;
1373.7000;0.9231;0.9866;
1374.0000;0.9239;0.9892;
1374.3000;0.9239;0.9892;
1374.6000;0.9271;0.9993;
1374.9000;0.9337;1.0221;
1375.2000;0.9206;1.0018;
1375.5000;0.9223;1.0018;
1375.8000;0.9247;1.0018;
1376.1000;0.9231;1.0044;
1376.4000;0.9239;1.0018;
1376.7000;0.9239;1.0145;
1377.0000;0.9255;1.0171;
1377.3000;0.9377;1.0475;
1377.6000;0.9255;1.0145;
1377.9000;0.9247;1.0145;
1378.2000;0.9223;1.0018;
1378.5000;0.9255;1.0095;
1378.8000;0.9271;1.0221;
1379.1000;0.9255;1.0221;
1379.4000;0.9231;1.0221;
1379.7000;0.9247;1.0297;
1380.0000;0.9239;1.0272;
1380.3000;0.9280;1.0272;
1380.6000;0.9247;1.0171;
1380.9000;0.9271;1.0196;
1381.2000;0.9247;1.0069;
1381.5000;0.9280;1.0095;
1381.8000;0.9239;1.0044;
1382.1000;0.9174;0.9841;
1382.4000;0.9255;1.0095;
1382.7000;0.9247;1.0145;
1383.0000;0.9231;1.0069;
1383.3000;0.9247;0.9993;
1383.6000;0.9263;0.9993;
1383.9000;0.9223;0.9892;
1384.2000;0.9239;1.0044;
1384.5000;0.9231;1.0145;
1384.8000;0.9247;1.0196;
1385.1000;0.9239;1.0120;
1385.4000;0.9255;1.0247;
1385.7000;0.9231;1.0196;
1386.0000;0.9239;1.0145;
1386.3000;0.9255;1.0069;
1386.6000;0.9231;1.0044;
1386.9000;0.9247;1.0018;
1387.2000;0.9247;1.0095;
1387.5000;0.9255;1.0095;
1387.8000;0.9247;1.0044;
1388.1000;0.9239;1.0095;
1388.4000;0.9239;1.0145;
1388.7000;0.9296;1.0323;
1389.0000;0.9369;1.0576;
1389.3000;0.9239;1.0247;
1389.6000;0.9231;1.0272;
1389.9000;0.9239;1.0348;
1390.2000;0.9231;1.0297;
1390.5000;0.9141;1.0018;
1390.8000;0.9231;1.0145;
1391.1000;0.9239;1.0171;
1391.4000;0.9263;1.0297;
1391.7000;0.9223;1.0221;
1392.0000;0.9141;1.0018;
1392.3000;0.9247;1.0374;
1392.6000;0.9263;1.0450;
1392.9000;0.9247;1.0399;
1393.2000;0.9231;1.0374;
1393.5000;0.9312;1.0450;
1393.8000;0.9255;1.0297;
1394.1000;0.9296;1.0374;
1394.4000;0.9223;1.0221;
1394.7000;0.9247;1.0323;
1395.0000;0.9239;1.0272;
1395.3000;0.9231;1.0221;
1395.6000;0.9231;1.0247;
1395.9000;0.9239;1.0196;
1396.2000;0.9247;1.0221;
1396.5000;0.9247;1.0247;
1396.8000;0.9247;1.0247;
1397.1000;0.9239;1.0247;
1397.4000;0.9255;1.0323;
1397.7000;0.9247;1.0247;
1398.0000;0.9247;1.0171;
1398.3000;0.9239;1.0120;
1398.6000;0.9247;1.0145;
1398.9000;0.9263;1.0221;
1399.2000;0.9247;1.0095;
1399.5000;0.9271;1.0196;
1399.8000;0.9255;1.0171;
