time/ms;Fluo/V;P700 deltaI/I x10³;
-199.8000;0.6634;0.6191;
-199.5000;0.6707;0.6242;
-199.2000;0.6634;0.6089;
-198.9000;0.6626;0.6089;
-198.6000;0.6610;0.5987;
-198.3000;0.6618;0.5987;
-198.0000;0.6634;0.5987;
-197.7000;0.6618;0.6013;
-197.4000;0.6618;0.5987;
-197.1000;0.6593;0.6089;
-196.8000;0.6618;0.6217;
-196.5000;0.6634;0.6166;
-196.2000;0.6618;0.6089;
-195.9000;0.6626;0.5987;
-195.6000;0.6634;0.6038;
-195.3000;0.6650;0.6166;
-195.0000;0.6642;0.6191;
-194.7000;0.6585;0.6191;
-194.4000;0.6618;0.6344;
-194.1000;0.6642;0.6369;
-193.8000;0.6634;0.6344;
-193.5000;0.6618;0.6319;
-193.2000;0.6642;0.6319;
-192.9000;0.6642;0.6344;
-192.6000;0.6602;0.6293;
-192.3000;0.6626;0.6293;
-192.0000;0.6626;0.6268;
-191.7000;0.6585;0.6166;
-191.4000;0.6602;0.6115;
-191.1000;0.6634;0.6191;
-190.8000;0.6650;0.6217;
-190.5000;0.6610;0.6242;
-190.2000;0.6626;0.6293;
-189.9000;0.6634;0.6191;
-189.6000;0.6634;0.6140;
-189.3000;0.6667;0.6242;
-189.0000;0.6634;0.6089;
-188.7000;0.6642;0.6115;
-188.4000;0.6626;0.5911;
-188.1000;0.6626;0.5911;
-187.8000;0.6650;0.6013;
-187.5000;0.6618;0.5962;
-187.2000;0.6618;0.5987;
-186.9000;0.6610;0.6115;
-186.6000;0.6659;0.6115;
-186.3000;0.6610;0.6089;
-186.0000;0.6618;0.6140;
-185.7000;0.6642;0.6191;
-185.4000;0.6618;0.6115;
-185.1000;0.6610;0.6038;
-184.8000;0.6634;0.6089;
-184.5000;0.6634;0.6038;
-184.2000;0.6593;0.5885;
-183.9000;0.6602;0.5911;
-183.6000;0.6610;0.6013;
-183.3000;0.6626;0.6013;
-183.0000;0.6626;0.6115;
-182.7000;0.6618;0.6115;
-182.4000;0.6618;0.6115;
-182.1000;0.6634;0.6115;
-181.8000;0.6626;0.6064;
-181.5000;0.6626;0.6064;
-181.2000;0.6610;0.6013;
-180.9000;0.6618;0.6064;
-180.6000;0.6610;0.6038;
-180.3000;0.6634;0.6191;
-180.0000;0.6610;0.6166;
-179.7000;0.6650;0.6191;
-179.4000;0.6626;0.6140;
-179.1000;0.6585;0.6013;
-178.8000;0.6626;0.6166;
-178.5000;0.6626;0.6038;
-178.2000;0.6626;0.6013;
-177.9000;0.6618;0.5987;
-177.6000;0.6618;0.6013;
-177.3000;0.6618;0.5987;
-177.0000;0.6626;0.5987;
-176.7000;0.6610;0.5987;
-176.4000;0.6618;0.5962;
-176.1000;0.6650;0.6038;
-175.8000;0.6593;0.5885;
-175.5000;0.6618;0.5885;
-175.2000;0.6683;0.5987;
-174.9000;0.6634;0.5962;
-174.6000;0.6650;0.6013;
-174.3000;0.6642;0.6115;
-174.0000;0.6634;0.6064;
-173.7000;0.6642;0.6064;
-173.4000;0.6650;0.6089;
-173.1000;0.6626;0.6115;
-172.8000;0.6650;0.6191;
-172.5000;0.6618;0.6166;
-172.2000;0.6618;0.6217;
-171.9000;0.6634;0.6242;
-171.6000;0.6642;0.6242;
-171.3000;0.6634;0.6293;
-171.0000;0.6610;0.6242;
-170.7000;0.6618;0.6242;
-170.4000;0.6642;0.6344;
-170.1000;0.6642;0.6344;
-169.8000;0.6626;0.6293;
-169.5000;0.6642;0.6319;
-169.2000;0.6626;0.6369;
-168.9000;0.6610;0.6217;
-168.6000;0.6634;0.6217;
-168.3000;0.6650;0.6293;
-168.0000;0.6634;0.6344;
-167.7000;0.6618;0.6293;
-167.4000;0.6610;0.6293;
-167.1000;0.6618;0.6268;
-166.8000;0.6634;0.6319;
-166.5000;0.6610;0.6166;
-166.2000;0.6561;0.5987;
-165.9000;0.6593;0.6166;
-165.6000;0.6610;0.6191;
-165.3000;0.6642;0.6242;
-165.0000;0.6659;0.6293;
-164.7000;0.6602;0.6191;
-164.4000;0.6618;0.6191;
-164.1000;0.6642;0.6268;
-163.8000;0.6618;0.6242;
-163.5000;0.6577;0.6217;
-163.2000;0.6593;0.6319;
-162.9000;0.6634;0.6369;
-162.6000;0.6602;0.6319;
-162.3000;0.6634;0.6268;
-162.0000;0.6642;0.6115;
-161.7000;0.6618;0.6115;
-161.4000;0.6659;0.6166;
-161.1000;0.6659;0.6217;
-160.8000;0.6642;0.6191;
-160.5000;0.6642;0.6166;
-160.2000;0.6634;0.6242;
-159.9000;0.6642;0.6191;
-159.6000;0.6626;0.6115;
-159.3000;0.6634;0.6242;
-159.0000;0.6626;0.6191;
-158.7000;0.6626;0.6217;
-158.4000;0.6618;0.6166;
-158.1000;0.6618;0.6115;
-157.8000;0.6610;0.6038;
-157.5000;0.6618;0.6013;
-157.2000;0.6618;0.6064;
-156.9000;0.6626;0.6013;
-156.6000;0.6618;0.5987;
-156.3000;0.6642;0.6089;
-156.0000;0.6610;0.6089;
-155.7000;0.6610;0.6064;
-155.4000;0.6618;0.6140;
-155.1000;0.6634;0.6166;
-154.8000;0.6626;0.6191;
-154.5000;0.6618;0.6166;
-154.2000;0.6626;0.6166;
-153.9000;0.6642;0.6191;
-153.6000;0.6634;0.6191;
-153.3000;0.6610;0.6140;
-153.0000;0.6626;0.6064;
-152.7000;0.6618;0.5936;
-152.4000;0.6610;0.5936;
-152.1000;0.6667;0.6089;
-151.8000;0.6626;0.6064;
-151.5000;0.6642;0.6140;
-151.2000;0.6659;0.6166;
-150.9000;0.6626;0.6115;
-150.6000;0.6618;0.6089;
-150.3000;0.6642;0.6115;
-150.0000;0.6634;0.6140;
-149.7000;0.6642;0.6191;
-149.4000;0.6626;0.6115;
-149.1000;0.6618;0.6089;
-148.8000;0.6634;0.6115;
-148.5000;0.6650;0.6140;
-148.2000;0.6610;0.6064;
-147.9000;0.6626;0.6166;
-147.6000;0.6618;0.6191;
-147.3000;0.6626;0.6319;
-147.0000;0.6626;0.6369;
-146.7000;0.6618;0.6344;
-146.4000;0.6626;0.6344;
-146.1000;0.6618;0.6344;
-145.8000;0.6634;0.6293;
-145.5000;0.6602;0.6191;
-145.2000;0.6659;0.6268;
-144.9000;0.6602;0.6115;
-144.6000;0.6626;0.6166;
-144.3000;0.6593;0.6089;
-144.0000;0.6585;0.6064;
-143.7000;0.6634;0.6191;
-143.4000;0.6634;0.6166;
-143.1000;0.6610;0.6166;
-142.8000;0.6634;0.6293;
-142.5000;0.6634;0.6319;
-142.2000;0.6650;0.6319;
-141.9000;0.6626;0.6242;
-141.6000;0.6659;0.6395;
-141.3000;0.6585;0.6166;
-141.0000;0.6626;0.6319;
-140.7000;0.6610;0.6293;
-140.4000;0.6610;0.6293;
-140.1000;0.6585;0.6217;
-139.8000;0.6585;0.6217;
-139.5000;0.6602;0.6319;
-139.2000;0.6610;0.6395;
-138.9000;0.6634;0.6369;
-138.6000;0.6634;0.6420;
-138.3000;0.6626;0.6395;
-138.0000;0.6626;0.6319;
-137.7000;0.6618;0.6293;
-137.4000;0.6634;0.6319;
-137.1000;0.6626;0.6217;
-136.8000;0.6659;0.6293;
-136.5000;0.6634;0.6242;
-136.2000;0.6618;0.6089;
-135.9000;0.6626;0.6115;
-135.6000;0.6626;0.6115;
-135.3000;0.6610;0.6089;
-135.0000;0.6626;0.6191;
-134.7000;0.6626;0.6217;
-134.4000;0.6618;0.6217;
-134.1000;0.6626;0.6242;
-133.8000;0.6602;0.6242;
-133.5000;0.6634;0.6293;
-133.2000;0.6650;0.6319;
-132.9000;0.6634;0.6344;
-132.6000;0.6626;0.6319;
-132.3000;0.6634;0.6293;
-132.0000;0.6634;0.6420;
-131.7000;0.6634;0.6369;
-131.4000;0.6610;0.6369;
-131.1000;0.6634;0.6446;
-130.8000;0.6610;0.6395;
-130.5000;0.6618;0.6293;
-130.2000;0.6618;0.6242;
-129.9000;0.6634;0.6319;
-129.6000;0.6618;0.6319;
-129.3000;0.6602;0.6395;
-129.0000;0.6626;0.6522;
-128.7000;0.6618;0.6471;
-128.4000;0.6626;0.6471;
-128.1000;0.6626;0.6599;
-127.8000;0.6642;0.6573;
-127.5000;0.6642;0.6522;
-127.2000;0.6626;0.6446;
-126.9000;0.6618;0.6395;
-126.6000;0.6634;0.6446;
-126.3000;0.6626;0.6497;
-126.0000;0.6642;0.6497;
-125.7000;0.6626;0.6471;
-125.4000;0.6626;0.6446;
-125.1000;0.6618;0.6369;
-124.8000;0.6626;0.6369;
-124.5000;0.6642;0.6369;
-124.2000;0.6610;0.6369;
-123.9000;0.6634;0.6471;
-123.6000;0.6610;0.6420;
-123.3000;0.6659;0.6471;
-123.0000;0.6602;0.6293;
-122.7000;0.6626;0.6369;
-122.4000;0.6618;0.6420;
-122.1000;0.6650;0.6446;
-121.8000;0.6626;0.6369;
-121.5000;0.6577;0.6268;
-121.2000;0.6650;0.6446;
-120.9000;0.6642;0.6344;
-120.6000;0.6634;0.6293;
-120.3000;0.6634;0.6166;
-120.0000;0.6634;0.6242;
-119.7000;0.6659;0.6293;
-119.4000;0.6650;0.6369;
-119.1000;0.6610;0.6217;
-118.8000;0.6618;0.6242;
-118.5000;0.6642;0.6268;
-118.2000;0.6577;0.6140;
-117.9000;0.6642;0.6217;
-117.6000;0.6634;0.6191;
-117.3000;0.6683;0.6395;
-117.0000;0.6610;0.6166;
-116.7000;0.6634;0.6268;
-116.4000;0.6577;0.6089;
-116.1000;0.6602;0.6140;
-115.8000;0.6618;0.6242;
-115.5000;0.6610;0.6166;
-115.2000;0.6626;0.6217;
-114.9000;0.6667;0.6344;
-114.6000;0.6618;0.6344;
-114.3000;0.6626;0.6319;
-114.0000;0.6618;0.6369;
-113.7000;0.6610;0.6268;
-113.4000;0.6626;0.6217;
-113.1000;0.6602;0.6115;
-112.8000;0.6618;0.6115;
-112.5000;0.6602;0.6115;
-112.2000;0.6610;0.6115;
-111.9000;0.6626;0.6166;
-111.6000;0.6618;0.6140;
-111.3000;0.6618;0.6140;
-111.0000;0.6618;0.6217;
-110.7000;0.6610;0.6217;
-110.4000;0.6593;0.6191;
-110.1000;0.6618;0.6242;
-109.8000;0.6618;0.6242;
-109.5000;0.6610;0.6344;
-109.2000;0.6618;0.6369;
-108.9000;0.6593;0.6268;
-108.6000;0.6618;0.6293;
-108.3000;0.6610;0.6293;
-108.0000;0.6626;0.6268;
-107.7000;0.6626;0.6293;
-107.4000;0.6618;0.6217;
-107.1000;0.6618;0.6242;
-106.8000;0.6610;0.6217;
-106.5000;0.6642;0.6242;
-106.2000;0.6618;0.6242;
-105.9000;0.6618;0.6191;
-105.6000;0.6618;0.6191;
-105.3000;0.6642;0.6191;
-105.0000;0.6626;0.6166;
-104.7000;0.6618;0.6217;
-104.4000;0.6626;0.6268;
-104.1000;0.6634;0.6191;
-103.8000;0.6626;0.6140;
-103.5000;0.6642;0.6166;
-103.2000;0.6642;0.6089;
-102.9000;0.6634;0.6064;
-102.6000;0.6634;0.6064;
-102.3000;0.6642;0.6166;
-102.0000;0.6626;0.6242;
-101.7000;0.6634;0.6217;
-101.4000;0.6642;0.6217;
-101.1000;0.6626;0.6217;
-100.8000;0.6626;0.6191;
-100.5000;0.6650;0.6344;
-100.2000;0.6602;0.6293;
-99.9000;0.6634;0.6242;
-99.6000;0.6618;0.6293;
-99.3000;0.6626;0.6344;
-99.0000;0.6618;0.6319;
-98.7000;0.6634;0.6369;
-98.4000;0.6610;0.6369;
-98.1000;0.6618;0.6319;
-97.8000;0.6634;0.6293;
-97.5000;0.6610;0.6191;
-97.2000;0.6626;0.6293;
-96.9000;0.6618;0.6191;
-96.6000;0.6634;0.6140;
-96.3000;0.6667;0.6217;
-96.0000;0.6618;0.6140;
-95.7000;0.6610;0.6242;
-95.4000;0.6610;0.6293;
-95.1000;0.6618;0.6395;
-94.8000;0.6634;0.6319;
-94.5000;0.6602;0.6293;
-94.2000;0.6634;0.6344;
-93.9000;0.6634;0.6395;
-93.6000;0.6626;0.6446;
-93.3000;0.6642;0.6369;
-93.0000;0.6634;0.6319;
-92.7000;0.6626;0.6344;
-92.4000;0.6650;0.6293;
-92.1000;0.6626;0.6369;
-91.8000;0.6650;0.6319;
-91.5000;0.6618;0.6217;
-91.2000;0.6691;0.6420;
-90.9000;0.6610;0.6166;
-90.6000;0.6699;0.6420;
-90.3000;0.6618;0.6319;
-90.0000;0.6626;0.6471;
-89.7000;0.6659;0.6573;
-89.4000;0.6707;0.6650;
-89.1000;0.6626;0.6446;
-88.8000;0.6618;0.6420;
-88.5000;0.6626;0.6471;
-88.2000;0.6634;0.6548;
-87.9000;0.6618;0.6497;
-87.6000;0.6732;0.6701;
-87.3000;0.6642;0.6497;
-87.0000;0.6634;0.6497;
-86.7000;0.6626;0.6369;
-86.4000;0.6626;0.6344;
-86.1000;0.6618;0.6395;
-85.8000;0.6618;0.6395;
-85.5000;0.6602;0.6471;
-85.2000;0.6618;0.6446;
-84.9000;0.6675;0.6548;
-84.6000;0.6618;0.6446;
-84.3000;0.6626;0.6446;
-84.0000;0.6626;0.6446;
-83.7000;0.6545;0.6217;
-83.4000;0.6626;0.6369;
-83.1000;0.6650;0.6369;
-82.8000;0.6659;0.6420;
-82.5000;0.6626;0.6319;
-82.2000;0.6634;0.6369;
-81.9000;0.6691;0.6548;
-81.6000;0.6618;0.6344;
-81.3000;0.6634;0.6344;
-81.0000;0.6634;0.6319;
-80.7000;0.6626;0.6268;
-80.4000;0.6618;0.6166;
-80.1000;0.6659;0.6166;
-79.8000;0.6699;0.6242;
-79.5000;0.6642;0.6038;
-79.2000;0.6618;0.6089;
-78.9000;0.6642;0.6191;
-78.6000;0.6626;0.6191;
-78.3000;0.6626;0.6217;
-78.0000;0.6634;0.6166;
-77.7000;0.6618;0.6217;
-77.4000;0.6642;0.6293;
-77.1000;0.6650;0.6268;
-76.8000;0.6602;0.6217;
-76.5000;0.6602;0.6217;
-76.2000;0.6634;0.6268;
-75.9000;0.6634;0.6217;
-75.6000;0.6618;0.6191;
-75.3000;0.6634;0.6217;
-75.0000;0.6642;0.6217;
-74.7000;0.6618;0.6217;
-74.4000;0.6642;0.6344;
-74.1000;0.6642;0.6293;
-73.8000;0.6626;0.6268;
-73.5000;0.6634;0.6191;
-73.2000;0.6634;0.6268;
-72.9000;0.6634;0.6268;
-72.6000;0.6626;0.6166;
-72.3000;0.6642;0.6217;
-72.0000;0.6626;0.6166;
-71.7000;0.6610;0.6115;
-71.4000;0.6634;0.6115;
-71.1000;0.6626;0.6038;
-70.8000;0.6593;0.5962;
-70.5000;0.6626;0.6013;
-70.2000;0.6618;0.6038;
-69.9000;0.6626;0.6064;
-69.6000;0.6593;0.6038;
-69.3000;0.6602;0.6038;
-69.0000;0.6618;0.5987;
-68.7000;0.6626;0.6064;
-68.4000;0.6626;0.5962;
-68.1000;0.6650;0.5987;
-67.8000;0.6634;0.6064;
-67.5000;0.6618;0.6013;
-67.2000;0.6626;0.6038;
-66.9000;0.6626;0.6013;
-66.6000;0.6618;0.6038;
-66.3000;0.6626;0.6064;
-66.0000;0.6626;0.6140;
-65.7000;0.6610;0.6064;
-65.4000;0.6593;0.6013;
-65.1000;0.6610;0.6038;
-64.8000;0.6593;0.6064;
-64.5000;0.6707;0.6369;
-64.2000;0.6618;0.6140;
-63.9000;0.6610;0.6064;
-63.6000;0.6618;0.6064;
-63.3000;0.6626;0.6166;
-63.0000;0.6642;0.6140;
-62.7000;0.6618;0.6115;
-62.4000;0.6618;0.6166;
-62.1000;0.6642;0.6191;
-61.8000;0.6634;0.6242;
-61.5000;0.6610;0.6217;
-61.2000;0.6618;0.6217;
-60.9000;0.6593;0.6191;
-60.6000;0.6618;0.6166;
-60.3000;0.6602;0.6115;
-60.0000;0.6602;0.6140;
-59.7000;0.6642;0.6115;
-59.4000;0.6610;0.6013;
-59.1000;0.6626;0.6064;
-58.8000;0.6593;0.5987;
-58.5000;0.6602;0.6013;
-58.2000;0.6626;0.6064;
-57.9000;0.6593;0.5962;
-57.6000;0.6626;0.6013;
-57.3000;0.6610;0.6038;
-57.0000;0.6675;0.6217;
-56.7000;0.6618;0.6013;
-56.4000;0.6626;0.6089;
-56.1000;0.6667;0.6191;
-55.8000;0.6610;0.6013;
-55.5000;0.6618;0.6089;
-55.2000;0.6618;0.6064;
-54.9000;0.6626;0.6064;
-54.6000;0.6610;0.6064;
-54.3000;0.6626;0.6064;
-54.0000;0.6618;0.6064;
-53.7000;0.6618;0.6064;
-53.4000;0.6626;0.6140;
-53.1000;0.6610;0.6140;
-52.8000;0.6618;0.6166;
-52.5000;0.6610;0.6089;
-52.2000;0.6618;0.6115;
-51.9000;0.6626;0.6089;
-51.6000;0.6650;0.6140;
-51.3000;0.6626;0.6064;
-51.0000;0.6610;0.6038;
-50.7000;0.6659;0.6166;
-50.4000;0.6618;0.6038;
-50.1000;0.6634;0.6064;
-49.8000;0.6650;0.6166;
-49.5000;0.6610;0.5987;
-49.2000;0.6602;0.5962;
-48.9000;0.6585;0.6013;
-48.6000;0.6602;0.6115;
-48.3000;0.6569;0.5987;
-48.0000;0.6585;0.5987;
-47.7000;0.6610;0.6013;
-47.4000;0.6642;0.6140;
-47.1000;0.6577;0.6038;
-46.8000;0.6618;0.6268;
-46.5000;0.6659;0.6344;
-46.2000;0.6626;0.6140;
-45.9000;0.6610;0.6038;
-45.6000;0.6659;0.6064;
-45.3000;0.6626;0.5962;
-45.0000;0.6634;0.5885;
-44.7000;0.6618;0.5733;
-44.4000;0.6602;0.5580;
-44.1000;0.6593;0.5478;
-43.8000;0.6602;0.5580;
-43.5000;0.6634;0.5682;
-43.2000;0.6642;0.5707;
-42.9000;0.6642;0.5809;
-42.6000;0.6602;0.5783;
-42.3000;0.6626;0.5860;
-42.0000;0.6626;0.5885;
-41.7000;0.6650;0.5936;
-41.4000;0.6634;0.5834;
-41.1000;0.6675;0.5987;
-40.8000;0.6634;0.5962;
-40.5000;0.6634;0.6013;
-40.2000;0.6642;0.5962;
-39.9000;0.6626;0.5911;
-39.6000;0.6602;0.5885;
-39.3000;0.6626;0.5936;
-39.0000;0.6626;0.5962;
-38.7000;0.6618;0.5987;
-38.4000;0.6610;0.5936;
-38.1000;0.6650;0.6013;
-37.8000;0.6634;0.5987;
-37.5000;0.6634;0.6013;
-37.2000;0.6650;0.6013;
-36.9000;0.6650;0.6038;
-36.6000;0.6626;0.5987;
-36.3000;0.6626;0.6013;
-36.0000;0.6618;0.5987;
-35.7000;0.6610;0.5936;
-35.4000;0.6634;0.5987;
-35.1000;0.6569;0.5860;
-34.8000;0.6634;0.6115;
-34.5000;0.6602;0.5987;
-34.2000;0.6618;0.5911;
-33.9000;0.6610;0.5885;
-33.6000;0.6618;0.5911;
-33.3000;0.6634;0.5936;
-33.0000;0.6610;0.5860;
-32.7000;0.6618;0.5962;
-32.4000;0.6618;0.5911;
-32.1000;0.6634;0.5860;
-31.8000;0.6626;0.5783;
-31.5000;0.6634;0.5860;
-31.2000;0.6642;0.5834;
-30.9000;0.6618;0.5783;
-30.6000;0.6650;0.5936;
-30.3000;0.6626;0.5860;
-30.0000;0.6642;0.5809;
-29.7000;0.6626;0.5758;
-29.4000;0.6634;0.5860;
-29.1000;0.6602;0.5758;
-28.8000;0.6626;0.5783;
-28.5000;0.6610;0.5834;
-28.2000;0.6610;0.5885;
-27.9000;0.6634;0.5911;
-27.6000;0.6650;0.6013;
-27.3000;0.6650;0.5962;
-27.0000;0.6618;0.5911;
-26.7000;0.6610;0.5987;
-26.4000;0.6610;0.6038;
-26.1000;0.6610;0.6038;
-25.8000;0.6602;0.6064;
-25.5000;0.6610;0.5987;
-25.2000;0.6610;0.6064;
-24.9000;0.6610;0.6140;
-24.6000;0.6610;0.6166;
-24.3000;0.6642;0.6242;
-24.0000;0.6610;0.6140;
-23.7000;0.6610;0.6166;
-23.4000;0.6732;0.6599;
-23.1000;0.6610;0.6268;
-22.8000;0.6610;0.6191;
-22.5000;0.6618;0.6089;
-22.2000;0.6634;0.6064;
-21.9000;0.6585;0.5936;
-21.6000;0.6610;0.6064;
-21.3000;0.6634;0.6115;
-21.0000;0.6610;0.6115;
-20.7000;0.6602;0.6038;
-20.4000;0.6618;0.6013;
-20.1000;0.6675;0.6140;
-19.8000;0.6626;0.5987;
-19.5000;0.6610;0.5962;
-19.2000;0.6618;0.5987;
-18.9000;0.6642;0.5936;
-18.6000;0.6626;0.5936;
-18.3000;0.6634;0.5860;
-18.0000;0.6626;0.5733;
-17.7000;0.6626;0.5809;
-17.4000;0.6675;0.5911;
-17.1000;0.6618;0.5783;
-16.8000;0.6618;0.5758;
-16.5000;0.6618;0.5758;
-16.2000;0.6626;0.5758;
-15.9000;0.6626;0.5733;
-15.6000;0.6618;0.5631;
-15.3000;0.6610;0.5554;
-15.0000;0.6618;0.5656;
-14.7000;0.6618;0.5605;
-14.4000;0.6626;0.5631;
-14.1000;0.6618;0.5656;
-13.8000;0.6626;0.5656;
-13.5000;0.6610;0.5733;
-13.2000;0.6618;0.5758;
-12.9000;0.6634;0.5733;
-12.6000;0.6618;0.5783;
-12.3000;0.6650;0.5962;
-12.0000;0.6650;0.5936;
-11.7000;0.6650;0.5834;
-11.4000;0.6618;0.5783;
-11.1000;0.6642;0.5885;
-10.8000;0.6610;0.5860;
-10.5000;0.6659;0.5911;
-10.2000;0.6659;0.5962;
-9.9000;0.6683;0.6115;
-9.6000;0.6626;0.6064;
-9.3000;0.6634;0.6064;
-9.0000;0.6634;0.5987;
-8.7000;0.6610;0.5911;
-8.4000;0.6626;0.5962;
-8.1000;0.6626;0.5911;
-7.8000;0.6626;0.5936;
-7.5000;0.6618;0.5936;
-7.2000;0.6618;0.5936;
-6.9000;0.6618;0.5962;
-6.6000;0.6610;0.6038;
-6.3000;0.6618;0.6089;
-6.0000;0.6650;0.6115;
-5.7000;0.6634;0.6166;
-5.4000;0.6634;0.6064;
-5.1000;0.6626;0.6115;
-4.8000;0.6618;0.6115;
-4.5000;0.6659;0.6217;
-4.2000;0.6626;0.6089;
-3.9000;0.6610;0.6038;
-3.6000;0.6569;0.5834;
-3.3000;0.6618;0.5962;
-3.0000;0.6626;0.5936;
-2.7000;0.6602;0.5885;
-2.4000;0.6642;0.5885;
-2.1000;0.6618;0.5885;
-1.8000;0.6626;0.5987;
-1.5000;0.6659;0.6013;
-1.2000;0.6610;0.5860;
-0.9000;0.6618;0.5987;
-0.6000;0.6626;0.5987;
-0.3000;0.6642;0.6115;
0.0000;0.6642;0.6115;
0.3000;0.6813;0.6420;
0.6000;0.7220;0.6981;
0.9000;0.7546;0.7440;
1.2000;0.7790;0.7771;
1.5000;0.7993;0.8026;
1.8000;0.8173;0.8408;
2.1000;0.8262;0.8561;
2.4000;0.8417;0.8917;
2.7000;0.8457;0.8892;
3.0000;0.8514;0.9070;
3.3000;0.8563;0.9096;
3.6000;0.8555;0.9045;
3.9000;0.8653;0.9299;
4.2000;0.8718;0.9503;
4.5000;0.8734;0.9478;
4.8000;0.8759;0.9452;
5.1000;0.8791;0.9427;
5.4000;0.8832;0.9554;
5.7000;0.8840;0.9478;
6.0000;0.8864;0.9554;
6.3000;0.8881;0.9631;
6.6000;0.8897;0.9580;
6.9000;0.8873;0.9452;
7.2000;0.8938;0.9529;
7.5000;0.8954;0.9554;
7.8000;0.9003;0.9529;
8.1000;0.9035;0.9605;
8.4000;0.9027;0.9605;
8.7000;0.9068;0.9631;
9.0000;0.9084;0.9631;
9.3000;0.9101;0.9554;
9.6000;0.9141;0.9503;
9.9000;0.9141;0.9580;
10.2000;0.9158;0.9605;
10.5000;0.9158;0.9580;
10.8000;0.9174;0.9631;
11.1000;0.9206;0.9656;
11.4000;0.9223;0.9682;
11.7000;0.9231;0.9682;
12.0000;0.9263;0.9758;
12.3000;0.9271;0.9758;
12.6000;0.9304;0.9707;
12.9000;0.9312;0.9605;
13.2000;0.9328;0.9554;
13.5000;0.9337;0.9503;
13.8000;0.9345;0.9554;
14.1000;0.9353;0.9605;
14.4000;0.9394;0.9631;
14.7000;0.9394;0.9529;
15.0000;0.9402;0.9631;
15.3000;0.9410;0.9656;
15.6000;0.9426;0.9580;
15.9000;0.9451;0.9503;
16.2000;0.9418;0.9299;
16.5000;0.9434;0.9325;
16.8000;0.9475;0.9427;
17.1000;0.9491;0.9478;
17.4000;0.9483;0.9452;
17.7000;0.9499;0.9401;
18.0000;0.9508;0.9325;
18.3000;0.9524;0.9325;
18.6000;0.9548;0.9401;
18.9000;0.9548;0.9427;
19.2000;0.9565;0.9452;
19.5000;0.9540;0.9427;
19.8000;0.9581;0.9503;
20.1000;0.9589;0.9427;
20.4000;0.9605;0.9503;
20.7000;0.9621;0.9503;
21.0000;0.9654;0.9554;
21.3000;0.9662;0.9478;
21.6000;0.9670;0.9580;
21.9000;0.9654;0.9503;
22.2000;0.9678;0.9452;
22.5000;0.9630;0.9325;
22.8000;0.9678;0.9529;
23.1000;0.9687;0.9580;
23.4000;0.9695;0.9580;
23.7000;0.9711;0.9580;
24.0000;0.9703;0.9452;
24.3000;0.9719;0.9376;
24.6000;0.9719;0.9427;
24.9000;0.9735;0.9503;
25.2000;0.9735;0.9478;
25.5000;0.9752;0.9580;
25.8000;0.9735;0.9529;
26.1000;0.9768;0.9478;
26.4000;0.9833;0.9682;
26.7000;0.9768;0.9503;
27.0000;0.9735;0.9350;
27.3000;0.9776;0.9427;
27.6000;0.9776;0.9350;
27.9000;0.9784;0.9427;
28.2000;0.9768;0.9376;
28.5000;0.9809;0.9401;
28.8000;0.9784;0.9401;
29.1000;0.9801;0.9427;
29.4000;0.9809;0.9427;
29.7000;0.9809;0.9452;
30.0000;0.9809;0.9427;
30.3000;0.9825;0.9401;
30.6000;0.9833;0.9503;
30.9000;0.9825;0.9427;
31.2000;0.9841;0.9503;
31.5000;0.9825;0.9478;
31.8000;0.9825;0.9478;
32.1000;0.9833;0.9529;
32.4000;0.9849;0.9554;
32.7000;0.9841;0.9503;
33.0000;0.9849;0.9580;
33.3000;0.9874;0.9605;
33.6000;0.9866;0.9554;
33.9000;0.9858;0.9605;
34.2000;0.9825;0.9401;
34.5000;0.9882;0.9554;
34.8000;0.9931;0.9682;
35.1000;0.9849;0.9478;
35.4000;0.9906;0.9631;
35.7000;0.9898;0.9529;
36.0000;0.9955;0.9631;
36.3000;0.9939;0.9605;
36.6000;0.9906;0.9580;
36.9000;0.9955;0.9784;
37.2000;0.9906;0.9631;
37.5000;0.9931;0.9580;
37.8000;0.9915;0.9427;
38.1000;0.9923;0.9503;
38.4000;0.9931;0.9452;
38.7000;0.9947;0.9503;
39.0000;0.9939;0.9503;
39.3000;0.9947;0.9427;
39.6000;0.9947;0.9350;
39.9000;0.9931;0.9325;
40.2000;0.9931;0.9274;
40.5000;0.9955;0.9274;
40.8000;0.9931;0.9223;
41.1000;0.9939;0.9198;
41.4000;0.9963;0.9299;
41.7000;0.9955;0.9274;
42.0000;0.9972;0.9274;
42.3000;0.9955;0.9172;
42.6000;0.9980;0.9198;
42.9000;0.9972;0.9121;
43.2000;0.9988;0.9147;
43.5000;0.9947;0.9121;
43.8000;0.9988;0.9223;
44.1000;0.9972;0.9121;
44.4000;1.0004;0.9274;
44.7000;0.9980;0.9198;
45.0000;0.9988;0.9248;
45.3000;1.0045;0.9350;
45.6000;0.9972;0.9223;
45.9000;0.9988;0.9350;
46.2000;1.0012;0.9299;
46.5000;1.0037;0.9350;
46.8000;0.9988;0.9248;
47.1000;1.0004;0.9274;
47.4000;1.0004;0.9274;
47.7000;1.0012;0.9325;
48.0000;0.9972;0.9248;
48.3000;1.0012;0.9376;
48.6000;1.0004;0.9248;
48.9000;1.0020;0.9223;
49.2000;1.0012;0.9172;
49.5000;1.0061;0.9274;
49.8000;1.0012;0.9223;
50.1000;1.0028;0.9325;
50.4000;1.0020;0.9274;
50.7000;1.0037;0.9274;
51.0000;1.0053;0.9350;
51.3000;1.0004;0.9350;
51.6000;1.0012;0.9350;
51.9000;1.0037;0.9503;
52.2000;0.9980;0.9376;
52.5000;1.0045;0.9478;
52.8000;1.0028;0.9478;
53.1000;1.0028;0.9503;
53.4000;1.0020;0.9529;
53.7000;1.0028;0.9554;
54.0000;1.0028;0.9529;
54.3000;1.0061;0.9554;
54.6000;1.0037;0.9503;
54.9000;1.0037;0.9452;
55.2000;1.0061;0.9427;
55.5000;1.0045;0.9376;
55.8000;1.0077;0.9452;
56.1000;1.0045;0.9350;
56.4000;1.0061;0.9427;
56.7000;1.0053;0.9325;
57.0000;1.0061;0.9325;
57.3000;1.0045;0.9248;
57.6000;1.0053;0.9376;
57.9000;1.0069;0.9478;
58.2000;1.0061;0.9503;
58.5000;1.0053;0.9478;
58.8000;1.0085;0.9427;
59.1000;1.0094;0.9401;
59.4000;1.0069;0.9350;
59.7000;1.0069;0.9376;
60.0000;1.0020;0.9248;
60.3000;1.0069;0.9274;
60.6000;1.0094;0.9325;
60.9000;1.0069;0.9325;
61.2000;1.0061;0.9299;
61.5000;1.0061;0.9299;
61.8000;1.0102;0.9325;
62.1000;1.0085;0.9299;
62.4000;1.0045;0.9223;
62.7000;1.0077;0.9350;
63.0000;1.0061;0.9376;
63.3000;1.0069;0.9299;
63.6000;1.0110;0.9299;
63.9000;1.0094;0.9274;
64.2000;1.0069;0.9198;
64.5000;1.0077;0.9223;
64.8000;1.0110;0.9299;
65.1000;1.0077;0.9223;
65.4000;1.0085;0.9248;
65.7000;1.0085;0.9248;
66.0000;1.0134;0.9376;
66.3000;1.0085;0.9274;
66.6000;1.0142;0.9478;
66.9000;1.0085;0.9325;
67.2000;1.0094;0.9350;
67.5000;1.0061;0.9299;
67.8000;1.0094;0.9350;
68.1000;1.0102;0.9376;
68.4000;1.0085;0.9325;
68.7000;1.0102;0.9350;
69.0000;1.0094;0.9325;
69.3000;1.0110;0.9325;
69.6000;1.0085;0.9248;
69.9000;1.0077;0.9223;
70.2000;1.0094;0.9198;
70.5000;1.0045;0.9070;
70.8000;1.0094;0.9198;
71.1000;1.0094;0.9198;
71.4000;1.0102;0.9198;
71.7000;1.0102;0.9248;
72.0000;1.0077;0.9223;
72.3000;1.0094;0.9248;
72.6000;1.0077;0.9198;
72.9000;1.0037;0.8994;
73.2000;1.0094;0.9172;
73.5000;1.0094;0.9096;
73.8000;1.0085;0.9172;
74.1000;1.0175;0.9401;
74.4000;1.0118;0.9198;
74.7000;1.0094;0.9248;
75.0000;1.0085;0.9172;
75.3000;1.0102;0.9223;
75.6000;1.0077;0.9045;
75.9000;1.0110;0.9147;
76.2000;1.0102;0.9147;
76.5000;1.0102;0.9121;
76.8000;1.0102;0.9121;
77.1000;1.0110;0.9223;
77.4000;1.0085;0.9070;
77.7000;1.0102;0.9198;
78.0000;1.0094;0.9172;
78.3000;1.0102;0.9198;
78.6000;1.0110;0.9274;
78.9000;1.0102;0.9299;
79.2000;1.0085;0.9325;
79.5000;1.0118;0.9299;
79.8000;1.0110;0.9248;
80.1000;1.0118;0.9223;
80.4000;1.0110;0.9172;
80.7000;1.0126;0.9198;
81.0000;1.0151;0.9248;
81.3000;1.0110;0.9070;
81.6000;1.0118;0.9045;
81.9000;1.0118;0.9096;
82.2000;1.0134;0.9223;
82.5000;1.0126;0.9096;
82.8000;1.0126;0.9096;
83.1000;1.0102;0.9019;
83.4000;1.0110;0.9019;
83.7000;1.0126;0.9019;
84.0000;1.0110;0.8994;
84.3000;1.0134;0.9121;
84.6000;1.0151;0.9198;
84.9000;1.0126;0.9172;
85.2000;1.0110;0.9121;
85.5000;1.0110;0.9070;
85.8000;1.0118;0.9070;
86.1000;1.0126;0.9019;
86.4000;1.0126;0.8994;
86.7000;1.0126;0.8943;
87.0000;1.0126;0.8994;
87.3000;1.0126;0.8968;
87.6000;1.0151;0.8994;
87.9000;1.0102;0.8892;
88.2000;1.0118;0.8892;
88.5000;1.0102;0.8892;
88.8000;1.0159;0.9096;
89.1000;1.0110;0.8892;
89.4000;1.0151;0.8917;
89.7000;1.0126;0.8994;
90.0000;1.0077;0.8841;
90.3000;1.0134;0.8968;
90.6000;1.0126;0.8841;
90.9000;1.0134;0.8841;
91.2000;1.0134;0.8866;
91.5000;1.0175;0.9045;
91.8000;1.0126;0.8943;
92.1000;1.0142;0.8892;
92.4000;1.0126;0.8866;
92.7000;1.0110;0.8815;
93.0000;1.0167;0.8892;
93.3000;1.0134;0.8764;
93.6000;1.0142;0.8739;
93.9000;1.0134;0.8764;
94.2000;1.0142;0.8764;
94.5000;1.0191;0.8917;
94.8000;1.0142;0.8790;
95.1000;1.0126;0.8866;
95.4000;1.0142;0.8943;
95.7000;1.0151;0.8892;
96.0000;1.0126;0.8917;
96.3000;1.0159;0.8968;
96.6000;1.0142;0.8841;
96.9000;1.0134;0.8790;
97.2000;1.0102;0.8764;
97.5000;1.0134;0.8943;
97.8000;1.0134;0.8943;
98.1000;1.0126;0.8841;
98.4000;1.0151;0.8815;
98.7000;1.0126;0.8739;
99.0000;1.0110;0.8612;
99.3000;1.0126;0.8586;
99.6000;1.0118;0.8662;
99.9000;1.0118;0.8739;
100.2000;1.0134;0.8815;
100.5000;1.0126;0.8790;
100.8000;1.0126;0.8841;
101.1000;1.0134;0.8943;
101.4000;1.0151;0.8943;
101.7000;1.0118;0.8790;
102.0000;1.0142;0.8815;
102.3000;1.0118;0.8815;
102.6000;1.0134;0.8764;
102.9000;1.0134;0.8662;
103.2000;1.0142;0.8637;
103.5000;1.0159;0.8688;
103.8000;1.0142;0.8612;
104.1000;1.0142;0.8739;
104.4000;1.0134;0.8790;
104.7000;1.0134;0.8866;
105.0000;1.0151;0.8892;
105.3000;1.0142;0.8866;
105.6000;1.0151;0.8968;
105.9000;1.0151;0.9019;
106.2000;1.0151;0.9019;
106.5000;1.0159;0.9019;
106.8000;1.0151;0.8943;
107.1000;1.0142;0.8968;
107.4000;1.0134;0.8994;
107.7000;1.0208;0.9223;
108.0000;1.0142;0.9070;
108.3000;1.0134;0.9019;
108.6000;1.0159;0.8994;
108.9000;1.0134;0.8943;
109.2000;1.0134;0.8892;
109.5000;1.0126;0.8994;
109.8000;1.0134;0.9019;
110.1000;1.0142;0.8968;
110.4000;1.0142;0.8866;
110.7000;1.0134;0.8917;
111.0000;1.0134;0.9019;
111.3000;1.0134;0.8943;
111.6000;1.0151;0.9019;
111.9000;1.0142;0.8968;
112.2000;1.0142;0.8943;
112.5000;1.0118;0.8866;
112.8000;1.0151;0.8968;
113.1000;1.0134;0.9045;
113.4000;1.0126;0.8968;
113.7000;1.0134;0.9019;
114.0000;1.0110;0.9045;
114.3000;1.0159;0.9121;
114.6000;1.0142;0.9121;
114.9000;1.0175;0.9045;
115.2000;1.0167;0.9070;
115.5000;1.0110;0.8892;
115.8000;1.0151;0.8892;
116.1000;1.0151;0.8968;
116.4000;1.0159;0.9019;
116.7000;1.0142;0.8917;
117.0000;1.0167;0.8917;
117.3000;1.0159;0.8892;
117.6000;1.0159;0.8815;
117.9000;1.0191;0.8917;
118.2000;1.0159;0.8917;
118.5000;1.0151;0.8866;
118.8000;1.0142;0.8815;
119.1000;1.0159;0.8739;
119.4000;1.0167;0.8764;
119.7000;1.0151;0.8739;
120.0000;1.0159;0.8764;
120.3000;1.0126;0.8790;
120.6000;1.0142;0.8866;
120.9000;1.0151;0.8790;
121.2000;1.0142;0.8662;
121.5000;1.0159;0.8739;
121.8000;1.0159;0.8764;
122.1000;1.0151;0.8790;
122.4000;1.0142;0.8815;
122.7000;1.0167;0.8892;
123.0000;1.0142;0.8866;
123.3000;1.0126;0.8917;
123.6000;1.0118;0.8892;
123.9000;1.0126;0.9045;
124.2000;1.0151;0.9096;
124.5000;1.0126;0.9019;
124.8000;1.0126;0.9045;
125.1000;1.0151;0.8968;
125.4000;1.0151;0.8968;
125.7000;1.0159;0.8943;
126.0000;1.0167;0.8943;
126.3000;1.0142;0.8943;
126.6000;1.0175;0.8943;
126.9000;1.0216;0.8968;
127.2000;1.0159;0.8688;
127.5000;1.0167;0.8612;
127.8000;1.0175;0.8637;
128.1000;1.0167;0.8612;
128.4000;1.0199;0.8662;
128.7000;1.0159;0.8637;
129.0000;1.0151;0.8612;
129.3000;1.0199;0.8790;
129.6000;1.0167;0.8662;
129.9000;1.0167;0.8739;
130.2000;1.0167;0.8739;
130.5000;1.0175;0.8790;
130.8000;1.0159;0.8790;
131.1000;1.0151;0.8764;
131.4000;1.0151;0.8764;
131.7000;1.0167;0.8815;
132.0000;1.0183;0.8713;
132.3000;1.0151;0.8586;
132.6000;1.0151;0.8688;
132.9000;1.0151;0.8637;
133.2000;1.0175;0.8713;
133.5000;1.0142;0.8713;
133.8000;1.0151;0.8790;
134.1000;1.0142;0.8815;
134.4000;1.0159;0.8815;
134.7000;1.0159;0.8815;
135.0000;1.0175;0.8764;
135.3000;1.0175;0.8790;
135.6000;1.0151;0.8790;
135.9000;1.0118;0.8688;
136.2000;1.0126;0.8892;
136.5000;1.0167;0.9019;
136.8000;1.0167;0.8968;
137.1000;1.0183;0.8943;
137.4000;1.0134;0.8866;
137.7000;1.0151;0.8892;
138.0000;1.0151;0.8943;
138.3000;1.0159;0.8943;
138.6000;1.0167;0.8892;
138.9000;1.0159;0.8892;
139.2000;1.0167;0.8917;
139.5000;1.0175;0.8943;
139.8000;1.0208;0.8943;
140.1000;1.0167;0.8892;
140.4000;1.0191;0.8892;
140.7000;1.0159;0.8917;
141.0000;1.0175;0.8866;
141.3000;1.0167;0.8841;
141.6000;1.0159;0.8815;
141.9000;1.0142;0.8815;
142.2000;1.0175;0.8892;
142.5000;1.0167;0.8866;
142.8000;1.0167;0.8841;
143.1000;1.0183;0.8866;
143.4000;1.0175;0.8866;
143.7000;1.0183;0.8866;
144.0000;1.0167;0.8841;
144.3000;1.0151;0.8841;
144.6000;1.0175;0.8790;
144.9000;1.0175;0.8892;
145.2000;1.0175;0.8943;
145.5000;1.0159;0.8892;
145.8000;1.0175;0.8943;
146.1000;1.0159;0.8943;
146.4000;1.0183;0.8943;
146.7000;1.0175;0.8917;
147.0000;1.0175;0.8892;
147.3000;1.0183;0.8943;
147.6000;1.0159;0.8917;
147.9000;1.0167;0.8994;
148.2000;1.0142;0.8917;
148.5000;1.0183;0.8994;
148.8000;1.0175;0.9019;
149.1000;1.0167;0.8994;
149.4000;1.0151;0.8968;
149.7000;1.0175;0.8943;
150.0000;1.0199;0.8994;
150.3000;1.0175;0.8994;
150.6000;1.0159;0.9019;
150.9000;1.0208;0.9121;
151.2000;1.0142;0.8968;
151.5000;1.0167;0.9045;
151.8000;1.0167;0.9045;
152.1000;1.0183;0.9096;
152.4000;1.0183;0.8994;
152.7000;1.0232;0.9045;
153.0000;1.0159;0.8815;
153.3000;1.0167;0.8866;
153.6000;1.0167;0.8790;
153.9000;1.0118;0.8586;
154.2000;1.0110;0.8510;
154.5000;1.0151;0.8586;
154.8000;1.0159;0.8637;
155.1000;1.0159;0.8637;
155.4000;1.0159;0.8662;
155.7000;1.0151;0.8713;
156.0000;1.0159;0.8612;
156.3000;1.0175;0.8612;
156.6000;1.0151;0.8612;
156.9000;1.0142;0.8637;
157.2000;1.0175;0.8713;
157.5000;1.0191;0.8637;
157.8000;1.0175;0.8637;
158.1000;1.0183;0.8688;
158.4000;1.0167;0.8713;
158.7000;1.0167;0.8713;
159.0000;1.0159;0.8612;
159.3000;1.0085;0.8433;
159.6000;1.0191;0.8713;
159.9000;1.0175;0.8713;
160.2000;1.0142;0.8662;
160.5000;1.0110;0.8561;
160.8000;1.0159;0.8662;
161.1000;1.0216;0.8866;
161.4000;1.0175;0.8688;
161.7000;1.0183;0.8637;
162.0000;1.0094;0.8433;
162.3000;1.0142;0.8612;
162.6000;1.0159;0.8713;
162.9000;1.0191;0.8866;
163.2000;1.0159;0.8739;
163.5000;1.0167;0.8790;
163.8000;1.0183;0.8866;
164.1000;1.0175;0.8892;
164.4000;1.0175;0.8892;
164.7000;1.0208;0.8943;
165.0000;1.0183;0.8994;
165.3000;1.0175;0.8917;
165.6000;1.0167;0.8892;
165.9000;1.0175;0.8866;
166.2000;1.0175;0.8917;
166.5000;1.0167;0.8943;
166.8000;1.0175;0.8968;
167.1000;1.0183;0.8968;
167.4000;1.0167;0.8994;
167.7000;1.0183;0.8994;
168.0000;1.0175;0.8866;
168.3000;1.0159;0.8841;
168.6000;1.0191;0.9019;
168.9000;1.0175;0.8892;
169.2000;1.0167;0.8892;
169.5000;1.0208;0.8917;
169.8000;1.0159;0.8815;
170.1000;1.0159;0.8790;
170.4000;1.0159;0.8790;
170.7000;1.0159;0.8764;
171.0000;1.0167;0.8790;
171.3000;1.0175;0.8866;
171.6000;1.0167;0.8841;
171.9000;1.0151;0.8841;
172.2000;1.0159;0.8968;
172.5000;1.0183;0.9096;
172.8000;1.0216;0.9325;
173.1000;1.0167;0.9121;
173.4000;1.0199;0.9172;
173.7000;1.0191;0.9096;
174.0000;1.0167;0.9096;
174.3000;1.0183;0.9070;
174.6000;1.0134;0.8968;
174.9000;1.0159;0.9019;
175.2000;1.0183;0.9045;
175.5000;1.0167;0.8943;
175.8000;1.0175;0.8866;
176.1000;1.0175;0.8968;
176.4000;1.0183;0.9019;
176.7000;1.0175;0.8943;
177.0000;1.0142;0.8739;
177.3000;1.0167;0.8815;
177.6000;1.0167;0.8815;
177.9000;1.0159;0.8815;
178.2000;1.0134;0.8841;
178.5000;1.0167;0.8917;
178.8000;1.0175;0.8968;
179.1000;1.0183;0.9070;
179.4000;1.0183;0.9121;
179.7000;1.0159;0.9019;
180.0000;1.0159;0.9019;
180.3000;1.0151;0.8892;
180.6000;1.0167;0.8892;
180.9000;1.0159;0.8739;
181.2000;1.0167;0.8866;
181.5000;1.0167;0.8841;
181.8000;1.0159;0.8815;
182.1000;1.0175;0.8764;
182.4000;1.0191;0.8866;
182.7000;1.0175;0.8841;
183.0000;1.0208;0.8943;
183.3000;1.0110;0.8764;
183.6000;1.0126;0.8943;
183.9000;1.0199;0.9019;
184.2000;1.0159;0.8943;
184.5000;1.0216;0.9147;
184.8000;1.0159;0.8994;
185.1000;1.0142;0.8917;
185.4000;1.0159;0.8841;
185.7000;1.0183;0.8866;
186.0000;1.0159;0.8764;
186.3000;1.0134;0.8713;
186.6000;1.0134;0.8764;
186.9000;1.0175;0.8866;
187.2000;1.0167;0.8968;
187.5000;1.0175;0.9070;
187.8000;1.0167;0.8968;
188.1000;1.0183;0.9019;
188.4000;1.0167;0.8968;
188.7000;1.0151;0.8917;
189.0000;1.0175;0.8943;
189.3000;1.0175;0.8866;
189.6000;1.0142;0.8815;
189.9000;1.0175;0.9019;
190.2000;1.0175;0.8917;
190.5000;1.0191;0.8866;
190.8000;1.0167;0.8892;
191.1000;1.0175;0.8815;
191.4000;1.0159;0.8764;
191.7000;1.0167;0.8790;
192.0000;1.0175;0.8841;
192.3000;1.0167;0.8764;
192.6000;1.0175;0.8739;
192.9000;1.0159;0.8713;
193.2000;1.0175;0.8764;
193.5000;1.0175;0.8637;
193.8000;1.0159;0.8764;
194.1000;1.0167;0.8815;
194.4000;1.0191;0.8841;
194.7000;1.0175;0.8739;
195.0000;1.0167;0.8764;
195.3000;1.0183;0.8815;
195.6000;1.0175;0.8815;
195.9000;1.0167;0.8764;
196.2000;1.0167;0.8790;
196.5000;1.0159;0.8790;
196.8000;1.0208;0.8841;
197.1000;1.0175;0.8790;
197.4000;1.0175;0.8815;
197.7000;1.0183;0.8790;
198.0000;1.0175;0.8764;
198.3000;1.0167;0.8866;
198.6000;1.0151;0.8815;
198.9000;1.0167;0.8892;
199.2000;1.0134;0.8790;
199.5000;1.0175;0.8841;
199.8000;1.0159;0.8739;
200.1000;1.0175;0.8662;
200.4000;1.0151;0.8586;
200.7000;1.0159;0.8561;
201.0000;1.0167;0.8612;
201.3000;1.0175;0.8612;
201.6000;1.0175;0.8561;
201.9000;1.0159;0.8510;
202.2000;1.0175;0.8561;
202.5000;1.0167;0.8561;
202.8000;1.0167;0.8510;
203.1000;1.0175;0.8535;
203.4000;1.0175;0.8561;
203.7000;1.0175;0.8561;
204.0000;1.0167;0.8612;
204.3000;1.0191;0.8688;
204.6000;1.0183;0.8637;
204.9000;1.0183;0.8612;
205.2000;1.0175;0.8586;
205.5000;1.0167;0.8586;
205.8000;1.0183;0.8688;
206.1000;1.0159;0.8637;
206.4000;1.0151;0.8561;
206.7000;1.0216;0.8739;
207.0000;1.0191;0.8713;
207.3000;1.0167;0.8662;
207.6000;1.0199;0.8739;
207.9000;1.0167;0.8662;
208.2000;1.0175;0.8637;
208.5000;1.0183;0.8662;
208.8000;1.0191;0.8561;
209.1000;1.0175;0.8561;
209.4000;1.0151;0.8484;
209.7000;1.0183;0.8586;
210.0000;1.0142;0.8561;
210.3000;1.0167;0.8637;
210.6000;1.0159;0.8662;
210.9000;1.0183;0.8637;
211.2000;1.0183;0.8637;
211.5000;1.0159;0.8612;
211.8000;1.0167;0.8739;
212.1000;1.0183;0.8790;
212.4000;1.0134;0.8612;
212.7000;1.0175;0.8739;
213.0000;1.0159;0.8739;
213.3000;1.0167;0.8841;
213.6000;1.0175;0.8866;
213.9000;1.0167;0.8764;
214.2000;1.0159;0.8688;
214.5000;1.0159;0.8688;
214.8000;1.0175;0.8662;
215.1000;1.0151;0.8688;
215.4000;1.0110;0.8612;
215.7000;1.0159;0.8739;
216.0000;1.0102;0.8612;
216.3000;1.0159;0.8815;
216.6000;1.0142;0.8739;
216.9000;1.0159;0.8790;
217.2000;1.0175;0.8841;
217.5000;1.0151;0.8688;
217.8000;1.0183;0.8713;
218.1000;1.0159;0.8637;
218.4000;1.0175;0.8637;
218.7000;1.0159;0.8713;
219.0000;1.0191;0.8866;
219.3000;1.0167;0.8994;
219.6000;1.0134;0.8968;
219.9000;1.0175;0.8994;
220.2000;1.0191;0.8968;
220.5000;1.0159;0.8841;
220.8000;1.0240;0.9019;
221.1000;1.0175;0.8815;
221.4000;1.0175;0.8739;
221.7000;1.0167;0.8713;
222.0000;1.0159;0.8713;
222.3000;1.0110;0.8612;
222.6000;1.0175;0.8815;
222.9000;1.0175;0.8866;
223.2000;1.0126;0.8688;
223.5000;1.0167;0.8764;
223.8000;1.0183;0.8739;
224.1000;1.0175;0.8713;
224.4000;1.0159;0.8637;
224.7000;1.0159;0.8713;
225.0000;1.0167;0.8841;
225.3000;1.0167;0.8841;
225.6000;1.0167;0.8764;
225.9000;1.0151;0.8713;
226.2000;1.0167;0.8790;
226.5000;1.0151;0.8866;
226.8000;1.0159;0.8764;
227.1000;1.0151;0.8841;
227.4000;1.0183;0.8943;
227.7000;1.0159;0.8866;
228.0000;1.0240;0.9172;
228.3000;1.0151;0.8943;
228.6000;1.0183;0.8994;
228.9000;1.0159;0.8968;
229.2000;1.0208;0.9045;
229.5000;1.0167;0.9045;
229.8000;1.0183;0.9147;
230.1000;1.0175;0.9045;
230.4000;1.0167;0.8917;
230.7000;1.0159;0.8790;
231.0000;1.0151;0.8841;
231.3000;1.0167;0.8841;
231.6000;1.0159;0.8790;
231.9000;1.0175;0.8764;
232.2000;1.0175;0.8841;
232.5000;1.0159;0.8790;
232.8000;1.0175;0.8815;
233.1000;1.0167;0.8764;
233.4000;1.0183;0.8764;
233.7000;1.0167;0.8815;
234.0000;1.0199;0.8943;
234.3000;1.0175;0.8790;
234.6000;1.0167;0.8790;
234.9000;1.0159;0.8764;
235.2000;1.0191;0.8866;
235.5000;1.0167;0.8866;
235.8000;1.0183;0.8917;
236.1000;1.0167;0.8892;
236.4000;1.0191;0.8994;
236.7000;1.0183;0.9019;
237.0000;1.0175;0.8968;
237.3000;1.0151;0.8866;
237.6000;1.0151;0.8892;
237.9000;1.0183;0.8994;
238.2000;1.0159;0.8943;
238.5000;1.0126;0.8815;
238.8000;1.0167;0.8943;
239.1000;1.0159;0.8968;
239.4000;1.0159;0.9019;
239.7000;1.0134;0.8943;
240.0000;1.0175;0.8943;
240.3000;1.0175;0.8841;
240.6000;1.0159;0.8841;
240.9000;1.0142;0.8866;
241.2000;1.0183;0.9045;
241.5000;1.0167;0.8943;
241.8000;1.0175;0.9019;
242.1000;1.0151;0.8994;
242.4000;1.0167;0.8968;
242.7000;1.0167;0.8917;
243.0000;1.0159;0.8892;
243.3000;1.0167;0.8943;
243.6000;1.0167;0.8968;
243.9000;1.0167;0.9045;
244.2000;1.0175;0.9045;
244.5000;1.0175;0.9019;
244.8000;1.0159;0.8968;
245.1000;1.0224;0.9121;
245.4000;1.0167;0.8943;
245.7000;1.0159;0.8943;
246.0000;1.0175;0.9019;
246.3000;1.0159;0.8943;
246.6000;1.0159;0.8892;
246.9000;1.0167;0.8892;
247.2000;1.0224;0.9019;
247.5000;1.0175;0.8866;
247.8000;1.0183;0.8968;
248.1000;1.0175;0.8943;
248.4000;1.0167;0.8841;
248.7000;1.0159;0.8764;
249.0000;1.0159;0.8764;
249.3000;1.0159;0.8790;
249.6000;1.0175;0.8815;
249.9000;1.0175;0.8764;
250.2000;1.0159;0.8739;
250.5000;1.0175;0.8790;
250.8000;1.0167;0.8790;
251.1000;1.0134;0.8739;
251.4000;1.0159;0.8764;
251.7000;1.0175;0.8892;
252.0000;1.0142;0.8917;
252.3000;1.0085;0.8764;
252.6000;1.0159;0.8892;
252.9000;1.0167;0.9019;
253.2000;1.0159;0.9045;
253.5000;1.0159;0.9019;
253.8000;1.0159;0.9045;
254.1000;1.0151;0.9070;
254.4000;1.0216;0.9299;
254.7000;1.0167;0.9223;
255.0000;1.0151;0.9121;
255.3000;1.0175;0.9274;
255.6000;1.0167;0.9274;
255.9000;1.0183;0.9172;
256.2000;1.0175;0.9147;
256.5000;1.0167;0.9045;
256.8000;1.0183;0.9045;
257.1000;1.0159;0.8866;
257.4000;1.0167;0.8866;
257.7000;1.0142;0.8815;
258.0000;1.0167;0.8815;
258.3000;1.0175;0.8815;
258.6000;1.0183;0.8841;
258.9000;1.0175;0.8790;
259.2000;1.0167;0.8815;
259.5000;1.0183;0.8892;
259.8000;1.0183;0.8943;
260.1000;1.0159;0.8892;
260.4000;1.0159;0.8892;
260.7000;1.0159;0.8892;
261.0000;1.0175;0.8866;
261.3000;1.0159;0.8943;
261.6000;1.0159;0.8917;
261.9000;1.0175;0.8892;
262.2000;1.0142;0.8764;
262.5000;1.0183;0.8841;
262.8000;1.0167;0.8815;
263.1000;1.0183;0.8917;
263.4000;1.0191;0.8917;
263.7000;1.0167;0.8892;
264.0000;1.0167;0.8994;
264.3000;1.0159;0.8994;
264.6000;1.0175;0.8994;
264.9000;1.0151;0.9019;
265.2000;1.0151;0.9045;
265.5000;1.0159;0.9045;
265.8000;1.0175;0.9045;
266.1000;1.0183;0.9147;
266.4000;1.0142;0.9121;
266.7000;1.0151;0.9045;
267.0000;1.0167;0.9070;
267.3000;1.0110;0.8994;
267.6000;1.0151;0.8968;
267.9000;1.0142;0.8968;
268.2000;1.0167;0.9019;
268.5000;1.0167;0.9070;
268.8000;1.0208;0.9223;
269.1000;1.0159;0.9019;
269.4000;1.0175;0.8968;
269.7000;1.0183;0.9070;
270.0000;1.0175;0.9070;
270.3000;1.0216;0.9121;
270.6000;1.0183;0.9019;
270.9000;1.0183;0.9121;
271.2000;1.0159;0.9121;
271.5000;1.0159;0.9019;
271.8000;1.0159;0.9019;
272.1000;1.0167;0.8994;
272.4000;1.0151;0.8917;
272.7000;1.0142;0.8943;
273.0000;1.0159;0.8968;
273.3000;1.0183;0.9045;
273.6000;1.0175;0.8943;
273.9000;1.0167;0.8790;
274.2000;1.0167;0.8739;
274.5000;1.0167;0.8790;
274.8000;1.0183;0.8841;
275.1000;1.0183;0.8841;
275.4000;1.0191;0.8790;
275.7000;1.0183;0.8917;
276.0000;1.0167;0.8866;
276.3000;1.0085;0.8612;
276.6000;1.0151;0.8764;
276.9000;1.0167;0.8892;
277.2000;1.0151;0.8917;
277.5000;1.0151;0.8866;
277.8000;1.0142;0.8841;
278.1000;1.0159;0.8815;
278.4000;1.0102;0.8586;
278.7000;1.0134;0.8790;
279.0000;1.0175;0.8815;
279.3000;1.0167;0.8790;
279.6000;1.0126;0.8586;
279.9000;1.0191;0.8739;
280.2000;1.0175;0.8662;
280.5000;1.0085;0.8459;
280.8000;1.0183;0.8739;
281.1000;1.0183;0.8866;
281.4000;1.0191;0.8968;
281.7000;1.0199;0.8968;
282.0000;1.0159;0.8866;
282.3000;1.0167;0.8917;
282.6000;1.0175;0.9019;
282.9000;1.0142;0.8968;
283.2000;1.0151;0.8994;
283.5000;1.0175;0.8968;
283.8000;1.0175;0.8968;
284.1000;1.0159;0.8892;
284.4000;1.0151;0.8943;
284.7000;1.0175;0.9045;
285.0000;1.0183;0.9045;
285.3000;1.0183;0.8968;
285.6000;1.0167;0.8943;
285.9000;1.0183;0.9045;
286.2000;1.0167;0.9070;
286.5000;1.0175;0.9070;
286.8000;1.0159;0.9019;
287.1000;1.0159;0.8943;
287.4000;1.0167;0.8968;
287.7000;1.0159;0.8892;
288.0000;1.0167;0.8994;
288.3000;1.0159;0.8968;
288.6000;1.0167;0.8968;
288.9000;1.0167;0.9019;
289.2000;1.0175;0.9070;
289.5000;1.0159;0.9019;
289.8000;1.0151;0.9019;
290.1000;1.0208;0.9096;
290.4000;1.0167;0.9019;
290.7000;1.0167;0.8994;
291.0000;1.0183;0.9096;
291.3000;1.0183;0.9045;
291.6000;1.0167;0.8943;
291.9000;1.0167;0.8892;
292.2000;1.0175;0.8866;
292.5000;1.0199;0.8892;
292.8000;1.0167;0.8790;
293.1000;1.0191;0.8892;
293.4000;1.0118;0.8688;
293.7000;1.0175;0.8815;
294.0000;1.0151;0.8764;
294.3000;1.0159;0.8815;
294.6000;1.0167;0.8943;
294.9000;1.0159;0.8994;
295.2000;1.0175;0.9019;
295.5000;1.0183;0.8994;
295.8000;1.0191;0.8917;
296.1000;1.0175;0.8866;
296.4000;1.0142;0.8815;
296.7000;1.0167;0.8815;
297.0000;1.0167;0.8815;
297.3000;1.0159;0.8764;
297.6000;1.0167;0.8841;
297.9000;1.0151;0.8917;
298.2000;1.0151;0.8968;
298.5000;1.0142;0.8917;
298.8000;1.0151;0.8943;
299.1000;1.0159;0.8917;
299.4000;1.0134;0.8917;
299.7000;1.0175;0.8917;
300.0000;1.0175;0.8892;
300.3000;1.0159;0.8968;
300.6000;1.0126;0.8841;
300.9000;1.0167;0.9070;
301.2000;1.0159;0.9070;
301.5000;1.0159;0.9045;
301.8000;1.0151;0.8968;
302.1000;1.0159;0.8943;
302.4000;1.0159;0.8917;
302.7000;1.0118;0.8917;
303.0000;1.0159;0.9019;
303.3000;1.0159;0.9019;
303.6000;1.0175;0.9121;
303.9000;1.0159;0.8994;
304.2000;1.0167;0.8968;
304.5000;1.0159;0.8968;
304.8000;1.0151;0.8943;
305.1000;1.0159;0.9019;
305.4000;1.0167;0.9147;
305.7000;1.0232;0.9172;
306.0000;1.0151;0.9019;
306.3000;1.0175;0.9096;
306.6000;1.0167;0.9121;
306.9000;1.0167;0.9096;
307.2000;1.0159;0.9147;
307.5000;1.0151;0.9147;
307.8000;1.0151;0.9121;
308.1000;1.0167;0.9172;
308.4000;1.0159;0.9019;
308.7000;1.0167;0.8917;
309.0000;1.0167;0.9019;
309.3000;1.0159;0.8994;
309.6000;1.0159;0.9070;
309.9000;1.0151;0.9070;
310.2000;1.0159;0.9045;
310.5000;1.0159;0.9019;
310.8000;1.0167;0.8994;
311.1000;1.0167;0.8968;
311.4000;1.0167;0.9096;
311.7000;1.0175;0.9172;
312.0000;1.0151;0.9096;
312.3000;1.0142;0.8994;
312.6000;1.0159;0.8917;
312.9000;1.0159;0.8892;
313.2000;1.0142;0.8892;
313.5000;1.0167;0.8943;
313.8000;1.0159;0.8917;
314.1000;1.0167;0.8968;
314.4000;1.0134;0.8917;
314.7000;1.0175;0.9045;
315.0000;1.0151;0.8968;
315.3000;1.0151;0.8917;
315.6000;1.0175;0.8994;
315.9000;1.0142;0.8917;
316.2000;1.0151;0.8892;
316.5000;1.0159;0.8892;
316.8000;1.0118;0.8764;
317.1000;1.0159;0.8866;
317.4000;1.0167;0.8841;
317.7000;1.0142;0.8815;
318.0000;1.0151;0.8815;
318.3000;1.0167;0.8841;
318.6000;1.0142;0.8790;
318.9000;1.0167;0.8815;
319.2000;1.0240;0.8968;
319.5000;1.0167;0.8790;
319.8000;1.0159;0.8713;
320.1000;1.0183;0.8815;
320.4000;1.0183;0.8790;
320.7000;1.0167;0.8815;
321.0000;1.0159;0.8790;
321.3000;1.0175;0.8764;
321.6000;1.0151;0.8739;
321.9000;1.0159;0.8713;
322.2000;1.0134;0.8713;
322.5000;1.0159;0.8764;
322.8000;1.0142;0.8662;
323.1000;1.0159;0.8739;
323.4000;1.0159;0.8764;
323.7000;1.0159;0.8790;
324.0000;1.0167;0.8815;
324.3000;1.0167;0.8815;
324.6000;1.0167;0.8739;
324.9000;1.0159;0.8764;
325.2000;1.0134;0.8739;
325.5000;1.0183;0.8892;
325.8000;1.0167;0.8943;
326.1000;1.0134;0.8943;
326.4000;1.0159;0.8943;
326.7000;1.0175;0.9019;
327.0000;1.0151;0.8968;
327.3000;1.0167;0.8968;
327.6000;1.0159;0.8892;
327.9000;1.0151;0.8892;
328.2000;1.0183;0.8968;
328.5000;1.0167;0.8866;
328.8000;1.0159;0.8917;
329.1000;1.0175;0.8943;
329.4000;1.0134;0.8815;
329.7000;1.0151;0.8841;
330.0000;1.0159;0.8892;
330.3000;1.0159;0.8994;
330.6000;1.0167;0.9045;
330.9000;1.0159;0.9096;
331.2000;1.0175;0.9045;
331.5000;1.0126;0.8943;
331.8000;1.0167;0.9019;
332.1000;1.0167;0.9045;
332.4000;1.0102;0.8968;
332.7000;1.0159;0.9019;
333.0000;1.0159;0.9070;
333.3000;1.0167;0.9045;
333.6000;1.0134;0.8994;
333.9000;1.0159;0.9019;
334.2000;1.0142;0.8968;
334.5000;1.0159;0.9045;
334.8000;1.0126;0.8917;
335.1000;1.0175;0.9019;
335.4000;1.0134;0.8866;
335.7000;1.0151;0.8968;
336.0000;1.0208;0.9096;
336.3000;1.0126;0.8917;
336.6000;1.0142;0.8866;
336.9000;1.0134;0.8815;
337.2000;1.0159;0.8866;
337.5000;1.0159;0.8892;
337.8000;1.0159;0.8968;
338.1000;1.0151;0.8968;
338.4000;1.0142;0.8892;
338.7000;1.0151;0.8790;
339.0000;1.0110;0.8790;
339.3000;1.0134;0.8892;
339.6000;1.0151;0.8841;
339.9000;1.0159;0.8841;
340.2000;1.0159;0.8841;
340.5000;1.0134;0.8815;
340.8000;1.0151;0.8815;
341.1000;1.0224;0.9045;
341.4000;1.0159;0.8841;
341.7000;1.0175;0.8841;
342.0000;1.0134;0.8917;
342.3000;1.0151;0.8968;
342.6000;1.0159;0.8968;
342.9000;1.0085;0.8739;
343.2000;1.0167;0.8892;
343.5000;1.0151;0.8892;
343.8000;1.0134;0.8815;
344.1000;1.0134;0.8790;
344.4000;1.0118;0.8790;
344.7000;1.0142;0.8866;
345.0000;1.0159;0.8917;
345.3000;1.0151;0.8892;
345.6000;1.0151;0.8790;
345.9000;1.0151;0.8815;
346.2000;1.0167;0.8866;
346.5000;1.0142;0.8917;
346.8000;1.0151;0.8968;
347.1000;1.0151;0.8994;
347.4000;1.0142;0.8994;
347.7000;1.0159;0.8994;
348.0000;1.0159;0.8968;
348.3000;1.0142;0.9019;
348.6000;1.0151;0.9019;
348.9000;1.0151;0.9019;
349.2000;1.0167;0.8943;
349.5000;1.0142;0.8764;
349.8000;1.0159;0.8764;
350.1000;1.0134;0.8637;
350.4000;1.0159;0.8688;
350.7000;1.0159;0.8764;
351.0000;1.0159;0.8866;
351.3000;1.0167;0.8943;
351.6000;1.0175;0.8943;
351.9000;1.0151;0.8841;
352.2000;1.0110;0.8790;
352.5000;1.0151;0.8866;
352.8000;1.0151;0.8815;
353.1000;1.0151;0.8790;
353.4000;1.0142;0.8790;
353.7000;1.0151;0.8841;
354.0000;1.0151;0.8815;
354.3000;1.0151;0.8790;
354.6000;1.0175;0.8866;
354.9000;1.0159;0.8892;
355.2000;1.0175;0.8943;
355.5000;1.0232;0.9172;
355.8000;1.0159;0.9019;
356.1000;1.0183;0.9147;
356.4000;1.0175;0.9096;
356.7000;1.0151;0.9070;
357.0000;1.0159;0.8968;
357.3000;1.0151;0.8943;
357.6000;1.0167;0.8917;
357.9000;1.0167;0.8994;
358.2000;1.0126;0.8943;
358.5000;1.0134;0.8943;
358.8000;1.0159;0.8968;
359.1000;1.0151;0.8994;
359.4000;1.0191;0.9045;
359.7000;1.0151;0.9019;
360.0000;1.0151;0.9045;
360.3000;1.0175;0.9198;
360.6000;1.0159;0.9147;
360.9000;1.0199;0.9172;
361.2000;1.0159;0.9096;
361.5000;1.0167;0.9045;
361.8000;1.0167;0.9019;
362.1000;1.0167;0.8968;
362.4000;1.0159;0.8968;
362.7000;1.0167;0.9096;
363.0000;1.0126;0.9019;
363.3000;1.0232;0.9325;
363.6000;1.0142;0.9172;
363.9000;1.0151;0.9121;
364.2000;1.0151;0.9070;
364.5000;1.0142;0.8943;
364.8000;1.0142;0.8943;
365.1000;1.0191;0.9121;
365.4000;1.0167;0.9019;
365.7000;1.0159;0.8994;
366.0000;1.0151;0.8943;
366.3000;1.0151;0.8892;
366.6000;1.0175;0.8943;
366.9000;1.0151;0.8994;
367.2000;1.0159;0.9045;
367.5000;1.0167;0.9019;
367.8000;1.0159;0.9096;
368.1000;1.0167;0.9172;
368.4000;1.0142;0.9198;
368.7000;1.0151;0.9198;
369.0000;1.0134;0.9248;
369.3000;1.0159;0.9248;
369.6000;1.0134;0.9147;
369.9000;1.0142;0.9147;
370.2000;1.0151;0.9198;
370.5000;1.0159;0.9350;
370.8000;1.0151;0.9299;
371.1000;1.0118;0.9223;
371.4000;1.0151;0.9325;
371.7000;1.0167;0.9274;
372.0000;1.0110;0.9096;
372.3000;1.0142;0.9147;
372.6000;1.0126;0.9147;
372.9000;1.0248;0.9350;
373.2000;1.0142;0.9172;
373.5000;1.0142;0.9223;
373.8000;1.0134;0.9223;
374.1000;1.0151;0.9223;
374.4000;1.0142;0.9274;
374.7000;1.0142;0.9299;
375.0000;1.0151;0.9299;
375.3000;1.0216;0.9401;
375.6000;1.0159;0.9274;
375.9000;1.0142;0.9096;
376.2000;1.0151;0.9096;
376.5000;1.0167;0.9070;
376.8000;1.0175;0.9019;
377.1000;1.0167;0.8994;
377.4000;1.0159;0.8994;
377.7000;1.0167;0.9045;
378.0000;1.0134;0.9070;
378.3000;1.0159;0.9096;
378.6000;1.0151;0.9121;
378.9000;1.0151;0.9121;
379.2000;1.0151;0.8994;
379.5000;1.0159;0.8994;
379.8000;1.0159;0.8994;
380.1000;1.0159;0.9045;
380.4000;1.0159;0.9096;
380.7000;1.0159;0.9121;
381.0000;1.0159;0.9019;
381.3000;1.0159;0.9121;
381.6000;1.0159;0.9172;
381.9000;1.0151;0.9198;
382.2000;1.0142;0.9172;
382.5000;1.0142;0.9070;
382.8000;1.0142;0.8994;
383.1000;1.0151;0.8892;
383.4000;1.0142;0.8815;
383.7000;1.0142;0.8866;
384.0000;1.0159;0.8866;
384.3000;1.0175;0.8841;
384.6000;1.0167;0.8688;
384.9000;1.0167;0.8688;
385.2000;1.0191;0.8764;
385.5000;1.0167;0.8688;
385.8000;1.0134;0.8739;
386.1000;1.0134;0.8662;
386.4000;1.0159;0.8688;
386.7000;1.0134;0.8637;
387.0000;1.0159;0.8688;
387.3000;1.0167;0.8713;
387.6000;1.0159;0.8764;
387.9000;1.0159;0.8815;
388.2000;1.0151;0.8866;
388.5000;1.0151;0.8866;
388.8000;1.0142;0.8841;
389.1000;1.0151;0.8841;
389.4000;1.0167;0.8892;
389.7000;1.0151;0.8866;
390.0000;1.0151;0.8892;
390.3000;1.0151;0.8892;
390.6000;1.0142;0.8866;
390.9000;1.0151;0.8841;
391.2000;1.0159;0.8815;
391.5000;1.0191;0.8892;
391.8000;1.0159;0.8841;
392.1000;1.0142;0.8764;
392.4000;1.0159;0.8764;
392.7000;1.0134;0.8790;
393.0000;1.0167;0.8943;
393.3000;1.0175;0.9019;
393.6000;1.0151;0.8943;
393.9000;1.0151;0.8968;
394.2000;1.0151;0.8917;
394.5000;1.0134;0.8866;
394.8000;1.0151;0.9019;
395.1000;1.0134;0.8943;
395.4000;1.0151;0.8968;
395.7000;1.0175;0.9070;
396.0000;1.0167;0.9096;
396.3000;1.0134;0.8968;
396.6000;1.0094;0.8815;
396.9000;1.0142;0.8892;
397.2000;1.0159;0.8815;
397.5000;1.0167;0.8841;
397.8000;1.0142;0.8790;
398.1000;1.0142;0.8764;
398.4000;1.0151;0.8764;
398.7000;1.0167;0.8815;
399.0000;1.0069;0.8637;
399.3000;1.0126;0.8815;
399.6000;1.0159;0.8968;
399.9000;1.0159;0.9096;
400.2000;1.0142;0.9096;
400.5000;1.0159;0.9070;
400.8000;1.0142;0.9019;
401.1000;1.0151;0.8994;
401.4000;1.0134;0.9045;
401.7000;1.0151;0.8968;
402.0000;1.0151;0.8866;
402.3000;1.0142;0.8917;
402.6000;1.0208;0.9096;
402.9000;1.0142;0.8968;
403.2000;1.0142;0.9045;
403.5000;1.0134;0.9019;
403.8000;1.0159;0.9045;
404.1000;1.0110;0.8994;
404.4000;1.0175;0.9172;
404.7000;1.0126;0.9045;
405.0000;1.0151;0.9019;
405.3000;1.0134;0.8943;
405.6000;1.0142;0.8994;
405.9000;1.0134;0.9045;
406.2000;1.0151;0.9096;
406.5000;1.0142;0.9045;
406.8000;1.0142;0.8917;
407.1000;1.0159;0.8866;
407.4000;1.0159;0.8968;
407.7000;1.0126;0.8866;
408.0000;1.0208;0.9045;
408.3000;1.0134;0.8994;
408.6000;1.0159;0.9019;
408.9000;1.0159;0.9019;
409.2000;1.0151;0.8943;
409.5000;1.0159;0.8943;
409.8000;1.0159;0.8968;
410.1000;1.0142;0.8994;
410.4000;1.0159;0.9019;
410.7000;1.0142;0.8994;
411.0000;1.0134;0.8841;
411.3000;1.0142;0.8841;
411.6000;1.0134;0.8866;
411.9000;1.0142;0.8892;
412.2000;1.0142;0.8994;
412.5000;1.0167;0.9070;
412.8000;1.0142;0.9096;
413.1000;1.0126;0.9147;
413.4000;1.0142;0.9198;
413.7000;1.0159;0.9198;
414.0000;1.0110;0.9070;
414.3000;1.0134;0.9019;
414.6000;1.0142;0.9045;
414.9000;1.0151;0.9147;
415.2000;1.0134;0.9070;
415.5000;1.0134;0.9045;
415.8000;1.0142;0.8892;
416.1000;1.0134;0.8866;
416.4000;1.0102;0.8790;
416.7000;1.0151;0.8968;
417.0000;1.0142;0.8943;
417.3000;1.0151;0.8917;
417.6000;1.0142;0.8917;
417.9000;1.0142;0.8892;
418.2000;1.0159;0.9019;
418.5000;1.0126;0.8892;
418.8000;1.0142;0.8917;
419.1000;1.0151;0.8943;
419.4000;1.0151;0.8968;
419.7000;1.0151;0.9019;
420.0000;1.0159;0.8943;
420.3000;1.0134;0.9019;
420.6000;1.0102;0.8943;
420.9000;1.0134;0.8968;
421.2000;1.0134;0.9045;
421.5000;1.0167;0.9019;
421.8000;1.0142;0.8994;
422.1000;1.0142;0.8968;
422.4000;1.0118;0.8841;
422.7000;1.0159;0.8917;
423.0000;1.0151;0.8968;
423.3000;1.0118;0.8943;
423.6000;1.0142;0.9070;
423.9000;1.0159;0.9147;
424.2000;1.0142;0.9096;
424.5000;1.0094;0.8968;
424.8000;1.0126;0.9045;
425.1000;1.0126;0.8994;
425.4000;1.0199;0.9045;
425.7000;1.0134;0.8790;
426.0000;1.0134;0.8841;
426.3000;1.0142;0.8943;
426.6000;1.0102;0.8943;
426.9000;1.0134;0.9096;
427.2000;1.0142;0.9070;
427.5000;1.0151;0.9121;
427.8000;1.0159;0.9096;
428.1000;1.0142;0.9045;
428.4000;1.0134;0.9045;
428.7000;1.0159;0.9096;
429.0000;1.0142;0.9070;
429.3000;1.0118;0.9070;
429.6000;1.0159;0.9070;
429.9000;1.0159;0.9070;
430.2000;1.0134;0.9070;
430.5000;1.0151;0.8994;
430.8000;1.0151;0.8994;
431.1000;1.0142;0.9019;
431.4000;1.0199;0.9172;
431.7000;1.0142;0.9045;
432.0000;1.0159;0.8943;
432.3000;1.0159;0.9019;
432.6000;1.0134;0.8943;
432.9000;1.0126;0.8943;
433.2000;1.0151;0.8994;
433.5000;1.0142;0.8994;
433.8000;1.0134;0.8968;
434.1000;1.0208;0.9070;
434.4000;1.0094;0.8892;
434.7000;1.0159;0.9019;
435.0000;1.0151;0.8994;
435.3000;1.0142;0.9019;
435.6000;1.0151;0.9096;
435.9000;1.0142;0.9096;
436.2000;1.0134;0.9070;
436.5000;1.0134;0.9096;
436.8000;1.0134;0.9045;
437.1000;1.0134;0.9045;
437.4000;1.0134;0.8943;
437.7000;1.0126;0.8917;
438.0000;1.0159;0.8943;
438.3000;1.0134;0.8892;
438.6000;1.0134;0.8892;
438.9000;1.0126;0.8866;
439.2000;1.0142;0.8943;
439.5000;1.0126;0.8968;
439.8000;1.0142;0.8994;
440.1000;1.0142;0.8968;
440.4000;1.0216;0.9147;
440.7000;1.0159;0.8968;
441.0000;1.0134;0.8917;
441.3000;1.0167;0.8968;
441.6000;1.0159;0.8866;
441.9000;1.0167;0.8917;
442.2000;1.0142;0.8841;
442.5000;1.0199;0.9019;
442.8000;1.0159;0.8866;
443.1000;1.0159;0.8943;
443.4000;1.0142;0.8892;
443.7000;1.0134;0.8790;
444.0000;1.0142;0.8790;
444.3000;1.0191;0.8943;
444.6000;1.0142;0.8841;
444.9000;1.0151;0.8841;
445.2000;1.0134;0.8764;
445.5000;1.0159;0.8917;
445.8000;1.0159;0.8943;
446.1000;1.0159;0.8917;
446.4000;1.0159;0.8815;
446.7000;1.0151;0.8917;
447.0000;1.0151;0.8892;
447.3000;1.0151;0.8917;
447.6000;1.0094;0.8815;
447.9000;1.0142;0.9045;
448.2000;1.0159;0.9019;
448.5000;1.0134;0.9045;
448.8000;1.0142;0.9070;
449.1000;1.0110;0.9070;
449.4000;1.0118;0.8994;
449.7000;1.0126;0.8968;
450.0000;1.0134;0.8943;
450.3000;1.0134;0.8917;
450.6000;1.0110;0.8943;
450.9000;1.0151;0.8968;
451.2000;1.0167;0.8968;
451.5000;1.0142;0.8917;
451.8000;1.0151;0.8866;
452.1000;1.0134;0.8917;
452.4000;1.0126;0.8917;
452.7000;1.0126;0.8994;
453.0000;1.0142;0.9070;
453.3000;1.0159;0.9070;
453.6000;1.0159;0.9019;
453.9000;1.0159;0.8943;
454.2000;1.0094;0.8892;
454.5000;1.0151;0.9019;
454.8000;1.0134;0.9045;
455.1000;1.0142;0.9045;
455.4000;1.0134;0.8994;
455.7000;1.0191;0.9172;
456.0000;1.0142;0.9198;
456.3000;1.0142;0.9147;
456.6000;1.0142;0.9121;
456.9000;1.0151;0.8994;
457.2000;1.0134;0.9096;
457.5000;1.0151;0.9045;
457.8000;1.0110;0.8968;
458.1000;1.0142;0.9019;
458.4000;1.0151;0.9019;
458.7000;1.0142;0.9096;
459.0000;1.0142;0.9096;
459.3000;1.0126;0.9147;
459.6000;1.0142;0.9070;
459.9000;1.0142;0.8994;
460.2000;1.0134;0.8917;
460.5000;1.0134;0.8790;
460.8000;1.0134;0.8790;
461.1000;1.0118;0.8764;
461.4000;1.0126;0.8815;
461.7000;1.0142;0.8866;
462.0000;1.0134;0.8943;
462.3000;1.0118;0.8994;
462.6000;1.0142;0.8994;
462.9000;1.0134;0.8943;
463.2000;1.0142;0.8968;
463.5000;1.0102;0.8892;
463.8000;1.0142;0.8866;
464.1000;1.0134;0.8866;
464.4000;1.0142;0.8866;
464.7000;1.0151;0.8866;
465.0000;1.0151;0.8815;
465.3000;1.0151;0.8790;
465.6000;1.0126;0.8739;
465.9000;1.0126;0.8739;
466.2000;1.0151;0.8790;
466.5000;1.0159;0.8866;
466.8000;1.0126;0.8739;
467.1000;1.0151;0.8841;
467.4000;1.0134;0.8790;
467.7000;1.0134;0.8764;
468.0000;1.0118;0.8739;
468.3000;1.0142;0.8815;
468.6000;1.0151;0.8841;
468.9000;1.0151;0.8815;
469.2000;1.0134;0.8866;
469.5000;1.0175;0.8968;
469.8000;1.0151;0.8968;
470.1000;1.0159;0.8994;
470.4000;1.0094;0.8790;
470.7000;1.0151;0.8866;
471.0000;1.0142;0.8739;
471.3000;1.0134;0.8688;
471.6000;1.0118;0.8739;
471.9000;1.0151;0.8841;
472.2000;1.0142;0.8815;
472.5000;1.0126;0.8866;
472.8000;1.0134;0.8815;
473.1000;1.0134;0.8866;
473.4000;1.0151;0.8917;
473.7000;1.0159;0.8917;
474.0000;1.0134;0.8968;
474.3000;1.0134;0.8917;
474.6000;1.0151;0.8994;
474.9000;1.0151;0.8917;
475.2000;1.0151;0.8943;
475.5000;1.0134;0.8994;
475.8000;1.0126;0.8994;
476.1000;1.0151;0.9121;
476.4000;1.0142;0.9147;
476.7000;1.0118;0.9070;
477.0000;1.0126;0.9070;
477.3000;1.0110;0.8994;
477.6000;1.0126;0.9019;
477.9000;1.0126;0.8994;
478.2000;1.0126;0.8994;
478.5000;1.0134;0.8968;
478.8000;1.0142;0.8994;
479.1000;1.0126;0.8994;
479.4000;1.0118;0.9070;
479.7000;1.0151;0.9121;
480.0000;1.0151;0.9147;
480.3000;1.0134;0.9070;
480.6000;1.0126;0.9096;
480.9000;1.0134;0.9096;
481.2000;1.0126;0.9198;
481.5000;1.0134;0.9223;
481.8000;1.0126;0.9147;
482.1000;1.0142;0.9223;
482.4000;1.0142;0.9172;
482.7000;1.0126;0.9223;
483.0000;1.0126;0.9172;
483.3000;1.0134;0.9147;
483.6000;1.0142;0.9147;
483.9000;1.0094;0.9019;
484.2000;1.0151;0.9096;
484.5000;1.0159;0.9121;
484.8000;1.0159;0.9121;
485.1000;1.0077;0.8892;
485.4000;1.0151;0.9019;
485.7000;1.0151;0.9070;
486.0000;1.0142;0.9019;
486.3000;1.0142;0.8943;
486.6000;1.0151;0.8943;
486.9000;1.0134;0.8968;
487.2000;1.0134;0.8943;
487.5000;1.0232;0.9121;
487.8000;1.0134;0.8917;
488.1000;1.0151;0.8943;
488.4000;1.0151;0.8917;
488.7000;1.0085;0.8764;
489.0000;1.0151;0.8917;
489.3000;1.0126;0.8968;
489.6000;1.0151;0.8968;
489.9000;1.0134;0.8968;
490.2000;1.0142;0.8917;
490.5000;1.0142;0.8866;
490.8000;1.0151;0.8790;
491.1000;1.0134;0.8790;
491.4000;1.0126;0.8764;
491.7000;1.0142;0.8764;
492.0000;1.0142;0.8790;
492.3000;1.0110;0.8739;
492.6000;1.0167;0.8790;
492.9000;1.0126;0.8713;
493.2000;1.0142;0.8815;
493.5000;1.0183;0.8968;
493.8000;1.0167;0.8943;
494.1000;1.0167;0.8994;
494.4000;1.0118;0.8943;
494.7000;1.0134;0.8917;
495.0000;1.0142;0.9019;
495.3000;1.0167;0.9147;
495.6000;1.0134;0.9096;
495.9000;1.0142;0.8994;
496.2000;1.0191;0.9070;
496.5000;1.0151;0.8943;
496.8000;1.0142;0.8917;
497.1000;1.0142;0.8968;
497.4000;1.0151;0.8943;
497.7000;1.0142;0.9019;
498.0000;1.0142;0.9096;
498.3000;1.0191;0.9248;
498.6000;1.0126;0.9096;
498.9000;1.0134;0.9147;
499.2000;1.0118;0.9045;
499.5000;1.0126;0.8994;
499.8000;1.0151;0.9045;
500.1000;1.0126;0.8968;
500.4000;1.0142;0.9019;
500.7000;1.0159;0.9045;
501.0000;1.0183;0.9019;
501.3000;1.0134;0.8994;
501.6000;1.0134;0.9070;
501.9000;1.0142;0.9096;
502.2000;1.0094;0.9019;
502.5000;1.0142;0.9121;
502.8000;1.0126;0.9070;
503.1000;1.0216;0.9248;
503.4000;1.0142;0.9172;
503.7000;1.0126;0.9121;
504.0000;1.0151;0.9096;
504.3000;1.0134;0.9121;
504.6000;1.0134;0.9172;
504.9000;1.0134;0.9147;
505.2000;1.0134;0.9070;
505.5000;1.0142;0.9121;
505.8000;1.0134;0.9121;
506.1000;1.0126;0.9096;
506.4000;1.0191;0.9070;
506.7000;1.0142;0.8943;
507.0000;1.0159;0.9019;
507.3000;1.0134;0.9045;
507.6000;1.0102;0.8994;
507.9000;1.0134;0.9045;
508.2000;1.0142;0.9045;
508.5000;1.0175;0.9172;
508.8000;1.0126;0.9045;
509.1000;1.0134;0.9019;
509.4000;1.0142;0.8994;
509.7000;1.0142;0.8968;
510.0000;1.0126;0.9019;
510.3000;1.0175;0.9147;
510.6000;1.0167;0.9070;
510.9000;1.0159;0.9045;
511.2000;1.0118;0.8968;
511.5000;1.0134;0.9019;
511.8000;1.0134;0.9045;
512.1000;1.0102;0.8968;
512.4000;1.0118;0.9045;
512.7000;1.0094;0.8968;
513.0000;1.0159;0.9045;
513.3000;1.0134;0.9045;
513.6000;1.0118;0.9096;
513.9000;1.0159;0.9147;
514.2000;1.0118;0.9198;
514.5000;1.0110;0.9172;
514.8000;1.0134;0.9248;
515.1000;1.0126;0.9248;
515.4000;1.0126;0.9248;
515.7000;1.0142;0.9274;
516.0000;1.0142;0.9198;
516.3000;1.0069;0.8892;
516.6000;1.0134;0.9121;
516.9000;1.0126;0.9045;
517.2000;1.0085;0.8968;
517.5000;1.0126;0.9070;
517.8000;1.0126;0.9019;
518.1000;1.0110;0.8994;
518.4000;1.0151;0.9070;
518.7000;1.0134;0.9045;
519.0000;1.0134;0.9121;
519.3000;1.0175;0.9147;
519.6000;1.0151;0.9070;
519.9000;1.0126;0.8994;
520.2000;1.0142;0.9045;
520.5000;1.0142;0.9045;
520.8000;1.0142;0.8917;
521.1000;1.0142;0.8841;
521.4000;1.0126;0.8739;
521.7000;1.0134;0.8815;
522.0000;1.0126;0.8841;
522.3000;1.0118;0.8866;
522.6000;1.0118;0.8790;
522.9000;1.0118;0.8790;
523.2000;1.0232;0.9070;
523.5000;1.0134;0.8790;
523.8000;1.0167;0.8917;
524.1000;1.0151;0.8892;
524.4000;1.0134;0.8815;
524.7000;1.0151;0.8841;
525.0000;1.0126;0.8790;
525.3000;1.0134;0.8968;
525.6000;1.0126;0.9045;
525.9000;1.0134;0.8917;
526.2000;1.0175;0.9045;
526.5000;1.0134;0.8994;
526.8000;1.0110;0.8994;
527.1000;1.0126;0.9172;
527.4000;1.0151;0.9147;
527.7000;1.0142;0.9172;
528.0000;1.0142;0.9172;
528.3000;1.0142;0.9147;
528.6000;1.0134;0.9096;
528.9000;1.0134;0.9019;
529.2000;1.0142;0.8994;
529.5000;1.0151;0.9019;
529.8000;1.0159;0.9096;
530.1000;1.0134;0.8994;
530.4000;1.0126;0.8917;
530.7000;1.0134;0.9019;
531.0000;1.0126;0.9096;
531.3000;1.0126;0.9121;
531.6000;1.0134;0.9019;
531.9000;1.0118;0.8968;
532.2000;1.0126;0.9096;
532.5000;1.0159;0.9147;
532.8000;1.0118;0.9070;
533.1000;1.0126;0.9121;
533.4000;1.0142;0.9198;
533.7000;1.0134;0.9172;
534.0000;1.0134;0.9019;
534.3000;1.0126;0.8943;
534.6000;1.0167;0.9045;
534.9000;1.0126;0.9096;
535.2000;1.0134;0.9121;
535.5000;1.0134;0.9019;
535.8000;1.0126;0.9121;
536.1000;1.0126;0.9147;
536.4000;1.0126;0.9147;
536.7000;1.0126;0.9019;
537.0000;1.0126;0.8994;
537.3000;1.0126;0.9019;
537.6000;1.0142;0.9019;
537.9000;1.0118;0.8968;
538.2000;1.0126;0.9121;
538.5000;1.0110;0.9147;
538.8000;1.0134;0.9223;
539.1000;1.0118;0.9172;
539.4000;1.0126;0.9121;
539.7000;1.0126;0.9147;
540.0000;1.0134;0.9070;
540.3000;1.0126;0.9070;
540.6000;1.0159;0.9121;
540.9000;1.0134;0.9045;
541.2000;1.0191;0.9147;
541.5000;1.0061;0.8917;
541.8000;1.0151;0.9019;
542.1000;1.0126;0.9019;
542.4000;1.0134;0.9019;
542.7000;1.0142;0.9019;
543.0000;1.0118;0.8994;
543.3000;1.0110;0.9019;
543.6000;1.0134;0.9096;
543.9000;1.0134;0.9019;
544.2000;1.0118;0.8892;
544.5000;1.0126;0.9045;
544.8000;1.0118;0.9147;
545.1000;1.0151;0.9121;
545.4000;1.0102;0.9070;
545.7000;1.0134;0.9147;
546.0000;1.0126;0.9274;
546.3000;1.0134;0.9325;
546.6000;1.0118;0.9427;
546.9000;1.0142;0.9452;
547.2000;1.0110;0.9299;
547.5000;1.0134;0.9325;
547.8000;1.0094;0.9350;
548.1000;1.0110;0.9427;
548.4000;1.0118;0.9427;
548.7000;1.0126;0.9401;
549.0000;1.0134;0.9427;
549.3000;1.0118;0.9478;
549.6000;1.0126;0.9478;
549.9000;1.0142;0.9452;
550.2000;1.0134;0.9478;
550.5000;1.0118;0.9376;
550.8000;1.0126;0.9248;
551.1000;1.0134;0.9248;
551.4000;1.0151;0.9350;
551.7000;1.0142;0.9299;
552.0000;1.0134;0.9274;
552.3000;1.0151;0.9350;
552.6000;1.0142;0.9350;
552.9000;1.0134;0.9299;
553.2000;1.0118;0.9325;
553.5000;1.0102;0.9376;
553.8000;1.0142;0.9427;
554.1000;1.0126;0.9529;
554.4000;1.0102;0.9427;
554.7000;1.0126;0.9350;
555.0000;1.0151;0.9376;
555.3000;1.0134;0.9223;
555.6000;1.0126;0.9172;
555.9000;1.0126;0.9198;
556.2000;1.0118;0.9070;
556.5000;1.0142;0.9147;
556.8000;1.0151;0.9172;
557.1000;1.0134;0.9096;
557.4000;1.0134;0.9121;
557.7000;1.0126;0.9172;
558.0000;1.0134;0.9198;
558.3000;1.0142;0.9274;
558.6000;1.0126;0.9172;
558.9000;1.0134;0.9172;
559.2000;1.0134;0.9121;
559.5000;1.0142;0.9070;
559.8000;1.0199;0.9121;
560.1000;1.0126;0.8917;
560.4000;1.0110;0.8866;
560.7000;1.0126;0.8994;
561.0000;1.0134;0.9070;
561.3000;1.0118;0.8994;
561.6000;1.0142;0.9198;
561.9000;1.0118;0.9121;
562.2000;1.0142;0.9096;
562.5000;1.0102;0.8866;
562.8000;1.0118;0.8866;
563.1000;1.0134;0.8866;
563.4000;1.0094;0.8841;
563.7000;1.0110;0.8917;
564.0000;1.0134;0.9019;
564.3000;1.0142;0.9096;
564.6000;1.0126;0.9096;
564.9000;1.0142;0.9198;
565.2000;1.0151;0.9223;
565.5000;1.0142;0.9198;
565.8000;1.0142;0.9198;
566.1000;1.0142;0.9121;
566.4000;1.0142;0.9096;
566.7000;1.0134;0.9070;
567.0000;1.0134;0.9019;
567.3000;1.0142;0.9096;
567.6000;1.0110;0.9019;
567.9000;1.0110;0.8994;
568.2000;1.0142;0.9045;
568.5000;1.0118;0.8943;
568.8000;1.0110;0.8994;
569.1000;1.0134;0.9045;
569.4000;1.0134;0.9172;
569.7000;1.0126;0.9147;
570.0000;1.0118;0.9045;
570.3000;1.0110;0.9096;
570.6000;1.0142;0.9274;
570.9000;1.0134;0.9198;
571.2000;1.0134;0.9045;
571.5000;1.0126;0.9121;
571.8000;1.0126;0.9121;
572.1000;1.0126;0.9121;
572.4000;1.0134;0.9070;
572.7000;1.0134;0.9096;
573.0000;1.0126;0.9019;
573.3000;1.0142;0.9070;
573.6000;1.0126;0.8994;
573.9000;1.0126;0.9019;
574.2000;1.0126;0.9019;
574.5000;1.0151;0.9019;
574.8000;1.0134;0.8943;
575.1000;1.0126;0.8943;
575.4000;1.0126;0.9019;
575.7000;1.0134;0.8943;
576.0000;1.0118;0.8892;
576.3000;1.0126;0.8866;
576.6000;1.0118;0.8815;
576.9000;1.0134;0.8892;
577.2000;1.0134;0.8917;
577.5000;1.0134;0.8892;
577.8000;1.0126;0.8866;
578.1000;1.0118;0.8841;
578.4000;1.0151;0.8892;
578.7000;1.0118;0.8866;
579.0000;1.0126;0.8892;
579.3000;1.0110;0.8841;
579.6000;1.0134;0.8968;
579.9000;1.0126;0.9019;
580.2000;1.0126;0.8968;
580.5000;1.0118;0.8994;
580.8000;1.0142;0.9070;
581.1000;1.0151;0.9019;
581.4000;1.0061;0.8790;
581.7000;1.0110;0.8917;
582.0000;1.0126;0.9019;
582.3000;1.0126;0.9019;
582.6000;1.0126;0.8994;
582.9000;1.0118;0.8917;
583.2000;1.0118;0.8943;
583.5000;1.0118;0.8892;
583.8000;1.0126;0.8866;
584.1000;1.0110;0.8968;
584.4000;1.0126;0.9019;
584.7000;1.0134;0.9019;
585.0000;1.0126;0.8892;
585.3000;1.0134;0.8994;
585.6000;1.0110;0.8994;
585.9000;1.0069;0.8943;
586.2000;1.0102;0.8994;
586.5000;1.0118;0.9070;
586.8000;1.0110;0.9096;
587.1000;1.0134;0.9096;
587.4000;1.0126;0.9019;
587.7000;1.0118;0.9019;
588.0000;1.0118;0.9019;
588.3000;1.0126;0.9096;
588.6000;1.0134;0.9172;
588.9000;1.0126;0.9147;
589.2000;1.0126;0.9172;
589.5000;1.0126;0.9223;
589.8000;1.0118;0.9223;
590.1000;1.0142;0.9274;
590.4000;1.0126;0.9147;
590.7000;1.0126;0.9147;
591.0000;1.0134;0.9198;
591.3000;1.0167;0.9248;
591.6000;1.0142;0.9198;
591.9000;1.0126;0.9172;
592.2000;1.0134;0.9121;
592.5000;1.0126;0.9147;
592.8000;1.0142;0.9147;
593.1000;1.0118;0.9172;
593.4000;1.0110;0.9248;
593.7000;1.0118;0.9223;
594.0000;1.0159;0.9274;
594.3000;1.0126;0.9121;
594.6000;1.0110;0.9096;
594.9000;1.0126;0.9172;
595.2000;1.0118;0.9274;
595.5000;1.0102;0.9223;
595.8000;1.0118;0.9248;
596.1000;1.0118;0.9172;
596.4000;1.0110;0.9121;
596.7000;1.0126;0.9147;
597.0000;1.0118;0.9147;
597.3000;1.0126;0.9147;
597.6000;1.0126;0.9121;
597.9000;1.0118;0.9147;
598.2000;1.0126;0.9147;
598.5000;1.0110;0.9019;
598.8000;1.0134;0.9096;
599.1000;1.0126;0.8994;
599.4000;1.0110;0.8968;
599.7000;1.0134;0.9045;
600.0000;1.0167;0.9121;
600.3000;1.0118;0.8815;
600.6000;1.0102;0.8688;
600.9000;1.0085;0.8586;
601.2000;0.9988;0.8433;
601.5000;0.9939;0.8280;
601.8000;0.9849;0.8026;
602.1000;0.9760;0.7796;
602.4000;0.9695;0.7643;
602.7000;0.9646;0.7567;
603.0000;0.9491;0.7210;
603.3000;0.9459;0.7185;
603.6000;0.9434;0.7032;
603.9000;0.9442;0.7134;
604.2000;0.9304;0.6879;
604.5000;0.9247;0.6624;
604.8000;0.9190;0.6599;
605.1000;0.9158;0.6599;
605.4000;0.9101;0.6573;
605.7000;0.9060;0.6548;
606.0000;0.8995;0.6497;
606.3000;0.8978;0.6446;
606.6000;0.8946;0.6369;
606.9000;0.8889;0.6268;
607.2000;0.8864;0.6293;
607.5000;0.8832;0.6191;
607.8000;0.8807;0.6242;
608.1000;0.8710;0.5987;
608.4000;0.8742;0.6166;
608.7000;0.8694;0.6089;
609.0000;0.8677;0.6115;
609.3000;0.8653;0.6166;
609.6000;0.8620;0.6166;
609.9000;0.8604;0.6242;
610.2000;0.8588;0.6420;
610.5000;0.8539;0.6395;
610.8000;0.8514;0.6369;
611.1000;0.8498;0.6395;
611.4000;0.8490;0.6344;
611.7000;0.8441;0.6242;
612.0000;0.8409;0.6191;
612.3000;0.8400;0.6268;
612.6000;0.8392;0.6242;
612.9000;0.8368;0.6268;
613.2000;0.8335;0.6140;
613.5000;0.8327;0.6191;
613.8000;0.8311;0.6166;
614.1000;0.8270;0.6140;
614.4000;0.8254;0.5987;
614.7000;0.8238;0.6064;
615.0000;0.8221;0.6089;
615.3000;0.8213;0.6217;
615.6000;0.8197;0.6191;
615.9000;0.8164;0.6115;
616.2000;0.8148;0.6089;
616.5000;0.8173;0.6089;
616.8000;0.8132;0.6064;
617.1000;0.8107;0.6089;
617.4000;0.8083;0.6115;
617.7000;0.8091;0.6140;
618.0000;0.8050;0.6064;
618.3000;0.8059;0.6064;
618.6000;0.8042;0.5987;
618.9000;0.8026;0.6013;
619.2000;0.7953;0.5783;
619.5000;0.7993;0.5987;
619.8000;0.7969;0.5987;
620.1000;0.7945;0.5885;
620.4000;0.7985;0.5987;
620.7000;0.7969;0.5962;
621.0000;0.7945;0.5962;
621.3000;0.7953;0.5911;
621.6000;0.7945;0.5885;
621.9000;0.7920;0.5885;
622.2000;0.7904;0.5962;
622.5000;0.7888;0.5936;
622.8000;0.7904;0.5962;
623.1000;0.7863;0.5860;
623.4000;0.7871;0.5834;
623.7000;0.7855;0.5834;
624.0000;0.7814;0.5707;
624.3000;0.7839;0.5809;
624.6000;0.7839;0.5860;
624.9000;0.7790;0.5758;
625.2000;0.7798;0.5834;
625.5000;0.7814;0.5860;
625.8000;0.7790;0.5885;
626.1000;0.7774;0.5783;
626.4000;0.7766;0.5834;
626.7000;0.7806;0.5962;
627.0000;0.7733;0.5758;
627.3000;0.7749;0.5936;
627.6000;0.7725;0.5962;
627.9000;0.7725;0.6064;
628.2000;0.7717;0.6115;
628.5000;0.7700;0.6038;
628.8000;0.7692;0.6038;
629.1000;0.7668;0.6064;
629.4000;0.7684;0.6038;
629.7000;0.7660;0.6089;
630.0000;0.7643;0.5936;
630.3000;0.7635;0.5834;
630.6000;0.7660;0.5860;
630.9000;0.7643;0.5809;
631.2000;0.7627;0.5758;
631.5000;0.7652;0.5783;
631.8000;0.7635;0.5733;
632.1000;0.7578;0.5682;
632.4000;0.7595;0.5783;
632.7000;0.7578;0.5834;
633.0000;0.7586;0.5860;
633.3000;0.7578;0.5885;
633.6000;0.7570;0.5885;
633.9000;0.7578;0.5885;
634.2000;0.7570;0.5860;
634.5000;0.7603;0.6013;
634.8000;0.7546;0.5860;
635.1000;0.7603;0.5936;
635.4000;0.7619;0.6038;
635.7000;0.7521;0.5783;
636.0000;0.7530;0.5783;
636.3000;0.7489;0.5682;
636.6000;0.7489;0.5682;
636.9000;0.7513;0.5783;
637.2000;0.7497;0.5733;
637.5000;0.7497;0.5783;
637.8000;0.7481;0.5783;
638.1000;0.7521;0.5911;
638.4000;0.7464;0.5783;
638.7000;0.7448;0.5809;
639.0000;0.7448;0.5809;
639.3000;0.7448;0.5783;
639.6000;0.7440;0.5682;
639.9000;0.7432;0.5707;
640.2000;0.7416;0.5580;
640.5000;0.7424;0.5733;
640.8000;0.7416;0.5707;
641.1000;0.7416;0.5758;
641.4000;0.7407;0.5783;
641.7000;0.7391;0.5885;
642.0000;0.7399;0.5987;
642.3000;0.7399;0.5987;
642.6000;0.7367;0.6013;
642.9000;0.7367;0.5936;
643.2000;0.7383;0.5987;
643.5000;0.7391;0.5987;
643.8000;0.7359;0.5809;
644.1000;0.7359;0.5758;
644.4000;0.7342;0.5733;
644.7000;0.7383;0.5758;
645.0000;0.7334;0.5707;
645.3000;0.7302;0.5682;
645.6000;0.7342;0.5758;
645.9000;0.7318;0.5707;
646.2000;0.7318;0.5580;
646.5000;0.7302;0.5452;
646.8000;0.7350;0.5682;
647.1000;0.7302;0.5682;
647.4000;0.7318;0.5682;
647.7000;0.7293;0.5605;
648.0000;0.7318;0.5707;
648.3000;0.7367;0.5860;
648.6000;0.7310;0.5733;
648.9000;0.7302;0.5783;
649.2000;0.7277;0.5707;
649.5000;0.7261;0.5758;
649.8000;0.7253;0.5707;
650.1000;0.7269;0.5656;
650.4000;0.7236;0.5580;
650.7000;0.7171;0.5452;
651.0000;0.7245;0.5733;
651.3000;0.7220;0.5631;
651.6000;0.7220;0.5733;
651.9000;0.7245;0.5758;
652.2000;0.7220;0.5605;
652.5000;0.7236;0.5656;
652.8000;0.7212;0.5580;
653.1000;0.7228;0.5605;
653.4000;0.7236;0.5682;
653.7000;0.7220;0.5682;
654.0000;0.7220;0.5809;
654.3000;0.7131;0.5656;
654.6000;0.7179;0.5834;
654.9000;0.7196;0.5911;
655.2000;0.7123;0.5758;
655.5000;0.7131;0.5809;
655.8000;0.7188;0.5962;
656.1000;0.7179;0.5783;
656.4000;0.7204;0.5860;
656.7000;0.7163;0.5783;
657.0000;0.7188;0.5860;
657.3000;0.7171;0.5885;
657.6000;0.7163;0.5860;
657.9000;0.7155;0.5834;
658.2000;0.7155;0.5911;
658.5000;0.7147;0.5860;
658.8000;0.7147;0.5885;
659.1000;0.7171;0.5885;
659.4000;0.7131;0.5707;
659.7000;0.7131;0.5758;
660.0000;0.7123;0.5783;
660.3000;0.7123;0.5682;
660.6000;0.7123;0.5605;
660.9000;0.7131;0.5707;
661.2000;0.7114;0.5733;
661.5000;0.7106;0.5733;
661.8000;0.7098;0.5707;
662.1000;0.7098;0.5733;
662.4000;0.7114;0.5707;
662.7000;0.7106;0.5707;
663.0000;0.7090;0.5580;
663.3000;0.7098;0.5605;
663.6000;0.7090;0.5707;
663.9000;0.7082;0.5758;
664.2000;0.7090;0.5834;
664.5000;0.7082;0.5809;
664.8000;0.7082;0.5834;
665.1000;0.7057;0.5809;
665.4000;0.7057;0.5860;
665.7000;0.7057;0.5783;
666.0000;0.7041;0.5758;
666.3000;0.7041;0.5682;
666.6000;0.7041;0.5682;
666.9000;0.7049;0.5656;
667.2000;0.7041;0.5605;
667.5000;0.7049;0.5656;
667.8000;0.7049;0.5707;
668.1000;0.7033;0.5682;
668.4000;0.7009;0.5707;
668.7000;0.7025;0.5834;
669.0000;0.7017;0.5834;
669.3000;0.7009;0.5936;
669.6000;0.7009;0.5860;
669.9000;0.7041;0.5809;
670.2000;0.7009;0.5733;
670.5000;0.6968;0.5631;
670.8000;0.6992;0.5554;
671.1000;0.7009;0.5682;
671.4000;0.7017;0.5707;
671.7000;0.6976;0.5656;
672.0000;0.6984;0.5707;
672.3000;0.6976;0.5656;
672.6000;0.6976;0.5656;
672.9000;0.6976;0.5554;
673.2000;0.6984;0.5452;
673.5000;0.6911;0.5299;
673.8000;0.6943;0.5350;
674.1000;0.6952;0.5503;
674.4000;0.6960;0.5631;
674.7000;0.6886;0.5478;
675.0000;0.6952;0.5758;
675.3000;0.6960;0.5809;
675.6000;0.6952;0.5783;
675.9000;0.6935;0.5733;
676.2000;0.6943;0.5733;
676.5000;0.6927;0.5733;
676.8000;0.6952;0.5733;
677.1000;0.6927;0.5707;
677.4000;0.6943;0.5656;
677.7000;0.6952;0.5656;
678.0000;0.6927;0.5631;
678.3000;0.6895;0.5631;
678.6000;0.6919;0.5682;
678.9000;0.6911;0.5682;
679.2000;0.6895;0.5503;
679.5000;0.6911;0.5503;
679.8000;0.6903;0.5478;
680.1000;0.6895;0.5452;
680.4000;0.6919;0.5503;
680.7000;0.6895;0.5529;
681.0000;0.6895;0.5631;
681.3000;0.6878;0.5605;
681.6000;0.6862;0.5478;
681.9000;0.6943;0.5707;
682.2000;0.6870;0.5554;
682.5000;0.6903;0.5554;
682.8000;0.6903;0.5656;
683.1000;0.6870;0.5758;
683.4000;0.6870;0.5707;
683.7000;0.6886;0.5809;
684.0000;0.6878;0.5834;
684.3000;0.6870;0.5783;
684.6000;0.6870;0.5809;
684.9000;0.6862;0.5834;
685.2000;0.6829;0.5733;
685.5000;0.6862;0.5783;
685.8000;0.6854;0.5707;
686.1000;0.6854;0.5656;
686.4000;0.6854;0.5605;
686.7000;0.6846;0.5656;
687.0000;0.6895;0.5809;
687.3000;0.6805;0.5605;
687.6000;0.6854;0.5783;
687.9000;0.6862;0.5758;
688.2000;0.6854;0.5783;
688.5000;0.6862;0.5758;
688.8000;0.6854;0.5758;
689.1000;0.6838;0.5733;
689.4000;0.6821;0.5580;
689.7000;0.6838;0.5580;
690.0000;0.6813;0.5529;
690.3000;0.6772;0.5427;
690.6000;0.6821;0.5580;
690.9000;0.6813;0.5605;
691.2000;0.6813;0.5529;
691.5000;0.6846;0.5631;
691.8000;0.6821;0.5631;
692.1000;0.6805;0.5631;
692.4000;0.6797;0.5758;
692.7000;0.6813;0.5834;
693.0000;0.6829;0.5809;
693.3000;0.6789;0.5758;
693.6000;0.6813;0.5783;
693.9000;0.6805;0.5758;
694.2000;0.6797;0.5809;
694.5000;0.6821;0.5783;
694.8000;0.6805;0.5682;
695.1000;0.6789;0.5682;
695.4000;0.6797;0.5631;
695.7000;0.6789;0.5554;
696.0000;0.6772;0.5580;
696.3000;0.6772;0.5503;
696.6000;0.6764;0.5503;
696.9000;0.6781;0.5605;
697.2000;0.6772;0.5656;
697.5000;0.6870;0.5936;
697.8000;0.6772;0.5682;
698.1000;0.6781;0.5605;
698.4000;0.6764;0.5605;
698.7000;0.6756;0.5580;
699.0000;0.6772;0.5580;
699.3000;0.6789;0.5580;
699.6000;0.6781;0.5605;
699.9000;0.6772;0.5529;
700.2000;0.6764;0.5580;
700.5000;0.6781;0.5631;
700.8000;0.6764;0.5580;
701.1000;0.6764;0.5580;
701.4000;0.6740;0.5529;
701.7000;0.6748;0.5554;
702.0000;0.6740;0.5605;
702.3000;0.6740;0.5631;
702.6000;0.6748;0.5656;
702.9000;0.6732;0.5707;
703.2000;0.6756;0.5783;
703.5000;0.6740;0.5682;
703.8000;0.6740;0.5682;
704.1000;0.6724;0.5758;
704.4000;0.6756;0.5834;
704.7000;0.6756;0.5834;
705.0000;0.6716;0.5758;
705.3000;0.6772;0.5885;
705.6000;0.6724;0.5758;
705.9000;0.6716;0.5733;
706.2000;0.6716;0.5580;
706.5000;0.6707;0.5580;
706.8000;0.6716;0.5605;
707.1000;0.6732;0.5631;
707.4000;0.6716;0.5656;
707.7000;0.6707;0.5707;
708.0000;0.6716;0.5733;
708.3000;0.6740;0.5834;
708.6000;0.6707;0.5809;
708.9000;0.6716;0.5758;
709.2000;0.6724;0.5809;
709.5000;0.6691;0.5707;
709.8000;0.6716;0.5834;
710.1000;0.6732;0.5936;
710.4000;0.6707;0.5783;
710.7000;0.6683;0.5758;
711.0000;0.6699;0.5885;
711.3000;0.6618;0.5758;
711.6000;0.6691;0.5885;
711.9000;0.6667;0.5682;
712.2000;0.6691;0.5809;
712.5000;0.6699;0.5834;
712.8000;0.6675;0.5809;
713.1000;0.6699;0.5860;
713.4000;0.6732;0.5962;
713.7000;0.6691;0.5885;
714.0000;0.6691;0.5962;
714.3000;0.6650;0.5783;
714.6000;0.6683;0.5834;
714.9000;0.6683;0.5834;
715.2000;0.6659;0.5834;
715.5000;0.6699;0.6013;
715.8000;0.6675;0.5911;
716.1000;0.6659;0.5911;
716.4000;0.6667;0.5962;
716.7000;0.6659;0.5936;
717.0000;0.6642;0.5936;
717.3000;0.6667;0.6038;
717.6000;0.6675;0.6115;
717.9000;0.6659;0.6064;
718.2000;0.6675;0.6089;
718.5000;0.6667;0.6064;
718.8000;0.6667;0.6013;
719.1000;0.6642;0.6013;
719.4000;0.6659;0.6038;
719.7000;0.6659;0.6089;
720.0000;0.6593;0.5834;
720.3000;0.6634;0.5885;
720.6000;0.6691;0.5962;
720.9000;0.6675;0.5962;
721.2000;0.6642;0.5885;
721.5000;0.6683;0.5936;
721.8000;0.6618;0.5809;
722.1000;0.6650;0.5783;
722.4000;0.6659;0.5783;
722.7000;0.6642;0.5733;
723.0000;0.6642;0.5733;
723.3000;0.6626;0.5733;
723.6000;0.6626;0.5758;
723.9000;0.6626;0.5834;
724.2000;0.6634;0.5834;
724.5000;0.6650;0.5733;
724.8000;0.6642;0.5758;
725.1000;0.6642;0.5707;
725.4000;0.6642;0.5707;
725.7000;0.6634;0.5656;
726.0000;0.6602;0.5605;
726.3000;0.6610;0.5605;
726.6000;0.6618;0.5631;
726.9000;0.6610;0.5605;
727.2000;0.6626;0.5631;
727.5000;0.6618;0.5605;
727.8000;0.6626;0.5656;
728.1000;0.6593;0.5707;
728.4000;0.6634;0.5758;
728.7000;0.6634;0.5733;
729.0000;0.6634;0.5783;
729.3000;0.6610;0.5758;
729.6000;0.6634;0.5809;
729.9000;0.6642;0.5885;
730.2000;0.6610;0.5860;
730.5000;0.6618;0.5834;
730.8000;0.6593;0.5758;
731.1000;0.6610;0.5885;
731.4000;0.6602;0.5860;
731.7000;0.6593;0.5860;
732.0000;0.6602;0.5834;
732.3000;0.6585;0.5783;
732.6000;0.6602;0.5809;
732.9000;0.6577;0.5733;
733.2000;0.6585;0.5758;
733.5000;0.6585;0.5707;
733.8000;0.6593;0.5707;
734.1000;0.6585;0.5707;
734.4000;0.6577;0.5707;
734.7000;0.6593;0.5656;
735.0000;0.6569;0.5682;
735.3000;0.6545;0.5478;
735.6000;0.6585;0.5631;
735.9000;0.6569;0.5631;
736.2000;0.6577;0.5682;
736.5000;0.6585;0.5605;
736.8000;0.6545;0.5452;
737.1000;0.6585;0.5580;
737.4000;0.6561;0.5529;
737.7000;0.6577;0.5656;
738.0000;0.6561;0.5733;
738.3000;0.6585;0.5783;
738.6000;0.6577;0.5682;
738.9000;0.6553;0.5733;
739.2000;0.6634;0.5911;
739.5000;0.6569;0.5834;
739.8000;0.6569;0.5834;
740.1000;0.6545;0.5834;
740.4000;0.6553;0.5860;
740.7000;0.6561;0.5834;
741.0000;0.6536;0.5733;
741.3000;0.6561;0.5682;
741.6000;0.6577;0.5783;
741.9000;0.6561;0.5809;
742.2000;0.6569;0.5834;
742.5000;0.6561;0.5834;
742.8000;0.6569;0.5834;
743.1000;0.6561;0.5860;
743.4000;0.6545;0.5758;
743.7000;0.6561;0.5860;
744.0000;0.6536;0.5809;
744.3000;0.6569;0.5860;
744.6000;0.6642;0.5911;
744.9000;0.6561;0.5733;
745.2000;0.6561;0.5733;
745.5000;0.6569;0.5733;
745.8000;0.6536;0.5707;
746.1000;0.6528;0.5631;
746.4000;0.6553;0.5631;
746.7000;0.6577;0.5733;
747.0000;0.6545;0.5605;
747.3000;0.6545;0.5707;
747.6000;0.6512;0.5682;
747.9000;0.6545;0.5758;
748.2000;0.6536;0.5885;
748.5000;0.6545;0.5834;
748.8000;0.6528;0.5733;
749.1000;0.6545;0.5733;
749.4000;0.6569;0.5860;
749.7000;0.6545;0.5758;
750.0000;0.6520;0.5783;
750.3000;0.6545;0.5834;
750.6000;0.6569;0.5860;
750.9000;0.6512;0.5682;
751.2000;0.6520;0.5733;
751.5000;0.6504;0.5656;
751.8000;0.6512;0.5682;
752.1000;0.6536;0.5707;
752.4000;0.6585;0.5911;
752.7000;0.6536;0.5758;
753.0000;0.6561;0.5783;
753.3000;0.6528;0.5682;
753.6000;0.6536;0.5656;
753.9000;0.6504;0.5554;
754.2000;0.6553;0.5682;
754.5000;0.6528;0.5554;
754.8000;0.6504;0.5554;
755.1000;0.6553;0.5733;
755.4000;0.6512;0.5707;
755.7000;0.6528;0.5783;
756.0000;0.6512;0.5733;
756.3000;0.6496;0.5682;
756.6000;0.6520;0.5707;
756.9000;0.6520;0.5707;
757.2000;0.6504;0.5758;
757.5000;0.6504;0.5758;
757.8000;0.6512;0.5733;
758.1000;0.6496;0.5682;
758.4000;0.6512;0.5733;
758.7000;0.6504;0.5758;
759.0000;0.6488;0.5707;
759.3000;0.6414;0.5478;
759.6000;0.6496;0.5605;
759.9000;0.6471;0.5580;
760.2000;0.6512;0.5783;
760.5000;0.6488;0.5758;
760.8000;0.6488;0.5783;
761.1000;0.6488;0.5758;
761.4000;0.6479;0.5758;
761.7000;0.6488;0.5733;
762.0000;0.6496;0.5733;
762.3000;0.6496;0.5631;
762.6000;0.6504;0.5631;
762.9000;0.6488;0.5605;
763.2000;0.6520;0.5758;
763.5000;0.6471;0.5631;
763.8000;0.6479;0.5707;
764.1000;0.6471;0.5605;
764.4000;0.6512;0.5605;
764.7000;0.6447;0.5452;
765.0000;0.6528;0.5809;
765.3000;0.6504;0.5656;
765.6000;0.6496;0.5682;
765.9000;0.6512;0.5682;
766.2000;0.6471;0.5580;
766.5000;0.6463;0.5580;
766.8000;0.6488;0.5682;
767.1000;0.6488;0.5707;
767.4000;0.6553;0.5783;
767.7000;0.6463;0.5580;
768.0000;0.6455;0.5580;
768.3000;0.6479;0.5707;
768.6000;0.6479;0.5733;
768.9000;0.6431;0.5554;
769.2000;0.6471;0.5783;
769.5000;0.6471;0.5783;
769.8000;0.6479;0.5682;
770.1000;0.6439;0.5452;
770.4000;0.6488;0.5529;
770.7000;0.6488;0.5605;
771.0000;0.6463;0.5580;
771.3000;0.6463;0.5656;
771.6000;0.6471;0.5656;
771.9000;0.6463;0.5682;
772.2000;0.6479;0.5783;
772.5000;0.6471;0.5733;
772.8000;0.6455;0.5631;
773.1000;0.6463;0.5707;
773.4000;0.6447;0.5682;
773.7000;0.6479;0.5656;
774.0000;0.6471;0.5554;
774.3000;0.6488;0.5478;
774.6000;0.6479;0.5503;
774.9000;0.6463;0.5529;
775.2000;0.6382;0.5350;
775.5000;0.6463;0.5605;
775.8000;0.6479;0.5682;
776.1000;0.6479;0.5605;
776.4000;0.6455;0.5580;
776.7000;0.6455;0.5554;
777.0000;0.6455;0.5529;
777.3000;0.6439;0.5427;
777.6000;0.6455;0.5452;
777.9000;0.6447;0.5478;
778.2000;0.6455;0.5529;
778.5000;0.6463;0.5503;
778.8000;0.6463;0.5529;
779.1000;0.6455;0.5656;
779.4000;0.6447;0.5656;
779.7000;0.6447;0.5656;
780.0000;0.6455;0.5605;
780.3000;0.6447;0.5631;
780.6000;0.6455;0.5605;
780.9000;0.6439;0.5631;
781.2000;0.6455;0.5682;
781.5000;0.6431;0.5707;
781.8000;0.6479;0.5936;
782.1000;0.6447;0.5936;
782.4000;0.6439;0.5860;
782.7000;0.6463;0.5911;
783.0000;0.6431;0.5860;
783.3000;0.6471;0.5936;
783.6000;0.6455;0.5809;
783.9000;0.6447;0.5733;
784.2000;0.6431;0.5783;
784.5000;0.6422;0.5860;
784.8000;0.6431;0.5936;
785.1000;0.6439;0.5962;
785.4000;0.6447;0.5885;
785.7000;0.6439;0.5860;
786.0000;0.6455;0.5809;
786.3000;0.6447;0.5758;
786.6000;0.6447;0.5758;
786.9000;0.6447;0.5758;
787.2000;0.6455;0.5809;
787.5000;0.6431;0.5733;
787.8000;0.6439;0.5656;
788.1000;0.6439;0.5605;
788.4000;0.6447;0.5682;
788.7000;0.6431;0.5656;
789.0000;0.6439;0.5554;
789.3000;0.6447;0.5554;
789.6000;0.6447;0.5631;
789.9000;0.6414;0.5554;
790.2000;0.6431;0.5580;
790.5000;0.6439;0.5580;
790.8000;0.6447;0.5733;
791.1000;0.6422;0.5834;
791.4000;0.6422;0.5834;
791.7000;0.6431;0.5834;
792.0000;0.6406;0.5809;
792.3000;0.6439;0.5809;
792.6000;0.6439;0.5783;
792.9000;0.6422;0.5707;
793.2000;0.6406;0.5580;
793.5000;0.6414;0.5682;
793.8000;0.6414;0.5682;
794.1000;0.6447;0.5733;
794.4000;0.6406;0.5682;
794.7000;0.6422;0.5809;
795.0000;0.6414;0.5707;
795.3000;0.6414;0.5834;
795.6000;0.6414;0.5809;
795.9000;0.6422;0.5809;
796.2000;0.6349;0.5656;
796.5000;0.6431;0.5809;
796.8000;0.6406;0.5783;
797.1000;0.6431;0.5834;
797.4000;0.6422;0.5783;
797.7000;0.6406;0.5758;
798.0000;0.6349;0.5580;
798.3000;0.6398;0.5682;
798.6000;0.6406;0.5733;
798.9000;0.6414;0.5733;
799.2000;0.6406;0.5656;
799.5000;0.6374;0.5580;
799.8000;0.6398;0.5656;
800.1000;0.6382;0.5631;
800.4000;0.6406;0.5707;
800.7000;0.6414;0.5707;
801.0000;0.6406;0.5758;
801.3000;0.6414;0.5860;
801.6000;0.6422;0.5834;
801.9000;0.6414;0.5860;
802.2000;0.6422;0.5885;
802.5000;0.6414;0.5809;
802.8000;0.6431;0.5911;
803.1000;0.6390;0.5809;
803.4000;0.6406;0.5860;
803.7000;0.6422;0.5809;
804.0000;0.6422;0.5885;
804.3000;0.6398;0.5834;
804.6000;0.6406;0.5834;
804.9000;0.6398;0.5783;
805.2000;0.6357;0.5834;
805.5000;0.6398;0.5962;
805.8000;0.6406;0.6013;
806.1000;0.6398;0.5962;
806.4000;0.6447;0.6013;
806.7000;0.6406;0.5962;
807.0000;0.6406;0.5936;
807.3000;0.6406;0.5911;
807.6000;0.6398;0.5809;
807.9000;0.6398;0.5911;
808.2000;0.6406;0.5834;
808.5000;0.6406;0.5834;
808.8000;0.6390;0.5834;
809.1000;0.6374;0.5783;
809.4000;0.6382;0.5783;
809.7000;0.6390;0.5783;
810.0000;0.6390;0.5758;
810.3000;0.6414;0.5834;
810.6000;0.6398;0.5911;
810.9000;0.6398;0.5936;
811.2000;0.6398;0.5962;
811.5000;0.6398;0.6013;
811.8000;0.6398;0.6064;
812.1000;0.6398;0.6115;
812.4000;0.6382;0.6140;
812.7000;0.6382;0.6089;
813.0000;0.6406;0.6191;
813.3000;0.6357;0.6038;
813.6000;0.6406;0.6115;
813.9000;0.6422;0.6038;
814.2000;0.6390;0.5962;
814.5000;0.6439;0.5987;
814.8000;0.6374;0.5783;
815.1000;0.6365;0.5783;
815.4000;0.6398;0.5962;
815.7000;0.6390;0.5911;
816.0000;0.6382;0.5885;
816.3000;0.6374;0.5911;
816.6000;0.6390;0.6013;
816.9000;0.6382;0.6038;
817.2000;0.6390;0.6013;
817.5000;0.6374;0.6013;
817.8000;0.6382;0.6064;
818.1000;0.6365;0.6038;
818.4000;0.6390;0.5987;
818.7000;0.6357;0.5962;
819.0000;0.6357;0.5962;
819.3000;0.6325;0.5834;
819.6000;0.6374;0.5962;
819.9000;0.6365;0.5987;
820.2000;0.6341;0.5885;
820.5000;0.6365;0.5987;
820.8000;0.6374;0.6064;
821.1000;0.6382;0.6038;
821.4000;0.6390;0.5987;
821.7000;0.6341;0.5758;
822.0000;0.6374;0.5758;
822.3000;0.6365;0.5783;
822.6000;0.6300;0.5631;
822.9000;0.6390;0.5834;
823.2000;0.6382;0.5834;
823.5000;0.6365;0.5834;
823.8000;0.6357;0.5733;
824.1000;0.6390;0.5834;
824.4000;0.6382;0.5860;
824.7000;0.6374;0.5936;
825.0000;0.6365;0.5962;
825.3000;0.6365;0.5987;
825.6000;0.6382;0.6038;
825.9000;0.6374;0.6013;
826.2000;0.6374;0.5936;
826.5000;0.6365;0.5962;
826.8000;0.6382;0.5987;
827.1000;0.6382;0.5936;
827.4000;0.6365;0.5809;
827.7000;0.6382;0.5809;
828.0000;0.6390;0.5885;
828.3000;0.6365;0.5733;
828.6000;0.6365;0.5783;
828.9000;0.6365;0.5758;
829.2000;0.6447;0.5936;
829.5000;0.6374;0.5809;
829.8000;0.6382;0.5860;
830.1000;0.6292;0.5758;
830.4000;0.6390;0.6038;
830.7000;0.6390;0.6089;
831.0000;0.6357;0.6089;
831.3000;0.6382;0.6064;
831.6000;0.6365;0.5962;
831.9000;0.6374;0.6013;
832.2000;0.6374;0.6038;
832.5000;0.6349;0.6038;
832.8000;0.6349;0.6064;
833.1000;0.6422;0.6268;
833.4000;0.6365;0.6064;
833.7000;0.6374;0.6013;
834.0000;0.6390;0.6013;
834.3000;0.6357;0.5885;
834.6000;0.6341;0.5834;
834.9000;0.6333;0.5758;
835.2000;0.6365;0.5758;
835.5000;0.6349;0.5631;
835.8000;0.6365;0.5758;
836.1000;0.6382;0.5860;
836.4000;0.6349;0.5809;
836.7000;0.6382;0.5809;
837.0000;0.6398;0.5783;
837.3000;0.6374;0.5631;
837.6000;0.6333;0.5580;
837.9000;0.6357;0.5656;
838.2000;0.6357;0.5707;
838.5000;0.6309;0.5605;
838.8000;0.6341;0.5783;
839.1000;0.6284;0.5707;
839.4000;0.6349;0.5885;
839.7000;0.6357;0.5962;
840.0000;0.6349;0.5936;
840.3000;0.6398;0.6089;
840.6000;0.6317;0.5936;
840.9000;0.6374;0.6115;
841.2000;0.6341;0.6089;
841.5000;0.6365;0.6089;
841.8000;0.6357;0.6013;
842.1000;0.6382;0.6064;
842.4000;0.6349;0.5936;
842.7000;0.6333;0.5885;
843.0000;0.6333;0.5962;
843.3000;0.6357;0.5987;
843.6000;0.6325;0.5962;
843.9000;0.6300;0.5885;
844.2000;0.6333;0.5936;
844.5000;0.6398;0.6140;
844.8000;0.6349;0.6089;
845.1000;0.6341;0.6115;
845.4000;0.6406;0.6319;
845.7000;0.6325;0.6115;
846.0000;0.6365;0.6191;
846.3000;0.6341;0.6064;
846.6000;0.6333;0.6089;
846.9000;0.6349;0.6217;
847.2000;0.6382;0.6369;
847.5000;0.6349;0.6217;
847.8000;0.6349;0.6217;
848.1000;0.6341;0.6217;
848.4000;0.6357;0.6217;
848.7000;0.6341;0.6166;
849.0000;0.6325;0.6140;
849.3000;0.6325;0.6115;
849.6000;0.6333;0.6166;
849.9000;0.6382;0.6242;
850.2000;0.6357;0.6242;
850.5000;0.6341;0.6166;
850.8000;0.6398;0.6293;
851.1000;0.6349;0.6191;
851.4000;0.6365;0.6293;
851.7000;0.6349;0.6293;
852.0000;0.6349;0.6242;
852.3000;0.6374;0.6293;
852.6000;0.6333;0.6166;
852.9000;0.6341;0.6140;
853.2000;0.6325;0.6115;
853.5000;0.6341;0.6064;
853.8000;0.6333;0.5962;
854.1000;0.6309;0.5834;
854.4000;0.6300;0.5834;
854.7000;0.6325;0.5911;
855.0000;0.6325;0.5911;
855.3000;0.6333;0.5911;
855.6000;0.6317;0.5885;
855.9000;0.6349;0.5885;
856.2000;0.6341;0.5962;
856.5000;0.6341;0.5911;
856.8000;0.6349;0.5987;
857.1000;0.6333;0.6064;
857.4000;0.6325;0.5911;
857.7000;0.6333;0.5987;
858.0000;0.6325;0.5962;
858.3000;0.6333;0.6013;
858.6000;0.6317;0.6013;
858.9000;0.6325;0.6064;
859.2000;0.6317;0.6038;
859.5000;0.6325;0.5987;
859.8000;0.6341;0.6089;
860.1000;0.6333;0.6089;
860.4000;0.6341;0.6140;
860.7000;0.6284;0.6089;
861.0000;0.6325;0.6242;
861.3000;0.6317;0.6217;
861.6000;0.6365;0.6217;
861.9000;0.6325;0.6166;
862.2000;0.6341;0.6191;
862.5000;0.6325;0.6089;
862.8000;0.6357;0.6166;
863.1000;0.6317;0.6115;
863.4000;0.6341;0.6140;
863.7000;0.6325;0.6115;
864.0000;0.6309;0.6166;
864.3000;0.6325;0.6166;
864.6000;0.6276;0.6115;
864.9000;0.6317;0.6140;
865.2000;0.6317;0.6166;
865.5000;0.6365;0.6217;
865.8000;0.6325;0.6115;
866.1000;0.6276;0.6013;
866.4000;0.6317;0.6038;
866.7000;0.6325;0.5962;
867.0000;0.6276;0.5911;
867.3000;0.6333;0.5987;
867.6000;0.6300;0.5962;
867.9000;0.6317;0.5809;
868.2000;0.6333;0.5834;
868.5000;0.6276;0.5783;
868.8000;0.6333;0.5936;
869.1000;0.6341;0.5936;
869.4000;0.6349;0.5911;
869.7000;0.6309;0.5885;
870.0000;0.6309;0.5936;
870.3000;0.6252;0.5733;
870.6000;0.6341;0.5885;
870.9000;0.6300;0.5885;
871.2000;0.6317;0.5962;
871.5000;0.6333;0.5962;
871.8000;0.6325;0.5962;
872.1000;0.6309;0.5962;
872.4000;0.6300;0.5987;
872.7000;0.6317;0.5987;
873.0000;0.6333;0.5987;
873.3000;0.6341;0.5987;
873.6000;0.6325;0.5962;
873.9000;0.6325;0.5936;
874.2000;0.6325;0.5911;
874.5000;0.6309;0.5860;
874.8000;0.6325;0.5860;
875.1000;0.6309;0.5834;
875.4000;0.6325;0.5936;
875.7000;0.6333;0.5962;
876.0000;0.6333;0.5962;
876.3000;0.6325;0.5962;
876.6000;0.6325;0.5987;
876.9000;0.6325;0.5987;
877.2000;0.6300;0.5936;
877.5000;0.6309;0.6013;
877.8000;0.6292;0.6013;
878.1000;0.6300;0.6064;
878.4000;0.6317;0.6064;
878.7000;0.6268;0.5885;
879.0000;0.6309;0.5936;
879.3000;0.6349;0.6013;
879.6000;0.6276;0.5936;
879.9000;0.6309;0.5962;
880.2000;0.6276;0.5860;
880.5000;0.6325;0.5936;
880.8000;0.6317;0.5885;
881.1000;0.6300;0.5911;
881.4000;0.6309;0.5885;
881.7000;0.6317;0.5860;
882.0000;0.6341;0.5987;
882.3000;0.6309;0.5911;
882.6000;0.6300;0.5962;
882.9000;0.6317;0.5987;
883.2000;0.6325;0.5962;
883.5000;0.6276;0.5758;
883.8000;0.6300;0.5834;
884.1000;0.6268;0.5809;
884.4000;0.6292;0.5783;
884.7000;0.6317;0.5834;
885.0000;0.6292;0.5860;
885.3000;0.6309;0.5936;
885.6000;0.6309;0.5962;
885.9000;0.6292;0.5885;
886.2000;0.6260;0.5707;
886.5000;0.6252;0.5656;
886.8000;0.6292;0.5809;
887.1000;0.6284;0.5809;
887.4000;0.6300;0.5936;
887.7000;0.6276;0.5936;
888.0000;0.6268;0.5860;
888.3000;0.6284;0.5936;
888.6000;0.6300;0.5962;
888.9000;0.6292;0.5987;
889.2000;0.6284;0.5911;
889.5000;0.6317;0.5987;
889.8000;0.6341;0.6089;
890.1000;0.6268;0.5860;
890.4000;0.6300;0.5936;
890.7000;0.6300;0.5911;
891.0000;0.6292;0.5936;
891.3000;0.6300;0.6038;
891.6000;0.6300;0.6013;
891.9000;0.6292;0.5987;
892.2000;0.6317;0.5987;
892.5000;0.6317;0.6064;
892.8000;0.6309;0.6038;
893.1000;0.6300;0.6038;
893.4000;0.6317;0.6089;
893.7000;0.6309;0.6064;
894.0000;0.6300;0.6038;
894.3000;0.6292;0.5987;
894.6000;0.6292;0.6013;
894.9000;0.6284;0.5911;
895.2000;0.6276;0.5885;
895.5000;0.6292;0.5936;
895.8000;0.6284;0.5936;
896.1000;0.6276;0.5885;
896.4000;0.6300;0.5962;
896.7000;0.6292;0.5962;
897.0000;0.6309;0.6038;
897.3000;0.6276;0.6064;
897.6000;0.6284;0.6064;
897.9000;0.6333;0.6038;
898.2000;0.6309;0.5962;
898.5000;0.6276;0.5860;
898.8000;0.6309;0.5962;
899.1000;0.6276;0.6038;
899.4000;0.6276;0.5987;
899.7000;0.6300;0.6089;
900.0000;0.6284;0.6013;
900.3000;0.6284;0.6038;
900.6000;0.6268;0.5962;
900.9000;0.6268;0.6013;
901.2000;0.6276;0.6089;
901.5000;0.6268;0.5962;
901.8000;0.6284;0.6013;
902.1000;0.6268;0.5987;
902.4000;0.6284;0.6013;
902.7000;0.6276;0.6038;
903.0000;0.6276;0.6013;
903.3000;0.6243;0.5936;
903.6000;0.6268;0.5936;
903.9000;0.6284;0.6038;
904.2000;0.6292;0.6038;
904.5000;0.6309;0.6140;
904.8000;0.6276;0.6089;
905.1000;0.6292;0.6089;
905.4000;0.6292;0.5962;
905.7000;0.6276;0.5962;
906.0000;0.6292;0.6038;
906.3000;0.6284;0.6089;
906.6000;0.6284;0.6115;
906.9000;0.6276;0.6089;
907.2000;0.6284;0.6013;
907.5000;0.6276;0.6038;
907.8000;0.6300;0.6115;
908.1000;0.6284;0.6217;
908.4000;0.6300;0.6369;
908.7000;0.6317;0.6242;
909.0000;0.6284;0.6140;
909.3000;0.6309;0.6191;
909.6000;0.6276;0.6217;
909.9000;0.6276;0.6140;
910.2000;0.6276;0.6140;
910.5000;0.6260;0.6115;
910.8000;0.6284;0.6064;
911.1000;0.6268;0.6038;
911.4000;0.6260;0.5987;
911.7000;0.6252;0.5987;
912.0000;0.6252;0.6013;
912.3000;0.6276;0.6013;
912.6000;0.6284;0.6013;
912.9000;0.6268;0.6013;
913.2000;0.6292;0.6038;
913.5000;0.6268;0.6013;
913.8000;0.6276;0.6115;
914.1000;0.6276;0.6140;
914.4000;0.6260;0.6115;
914.7000;0.6300;0.6140;
915.0000;0.6260;0.6089;
915.3000;0.6300;0.6140;
915.6000;0.6260;0.6089;
915.9000;0.6276;0.6089;
916.2000;0.6260;0.6038;
916.5000;0.6260;0.6064;
916.8000;0.6268;0.6140;
917.1000;0.6268;0.6191;
917.4000;0.6268;0.6166;
917.7000;0.6300;0.6217;
918.0000;0.6276;0.6242;
918.3000;0.6276;0.6115;
918.6000;0.6276;0.6115;
918.9000;0.6292;0.6089;
919.2000;0.6243;0.5936;
919.5000;0.6292;0.5911;
919.8000;0.6276;0.5962;
920.1000;0.6292;0.6064;
920.4000;0.6284;0.6089;
920.7000;0.6268;0.6089;
921.0000;0.6260;0.6166;
921.3000;0.6276;0.6191;
921.6000;0.6276;0.6191;
921.9000;0.6284;0.6293;
922.2000;0.6162;0.5936;
922.5000;0.6268;0.6319;
922.8000;0.6292;0.6319;
923.1000;0.6276;0.6268;
923.4000;0.6260;0.6166;
923.7000;0.6284;0.6191;
924.0000;0.6284;0.6217;
924.3000;0.6300;0.6191;
924.6000;0.6260;0.6089;
924.9000;0.6219;0.6064;
925.2000;0.6276;0.6293;
925.5000;0.6268;0.6293;
925.8000;0.6260;0.6268;
926.1000;0.6276;0.6319;
926.4000;0.6268;0.6217;
926.7000;0.6292;0.6369;
927.0000;0.6260;0.6242;
927.3000;0.6260;0.6217;
927.6000;0.6276;0.6319;
927.9000;0.6276;0.6268;
928.2000;0.6260;0.6217;
928.5000;0.6268;0.6166;
928.8000;0.6276;0.6217;
929.1000;0.6260;0.6191;
929.4000;0.6268;0.6166;
929.7000;0.6268;0.6140;
930.0000;0.6333;0.6344;
930.3000;0.6276;0.6242;
930.6000;0.6276;0.6319;
930.9000;0.6260;0.6319;
931.2000;0.6268;0.6293;
931.5000;0.6268;0.6293;
931.8000;0.6268;0.6217;
932.1000;0.6235;0.6166;
932.4000;0.6276;0.6293;
932.7000;0.6252;0.6268;
933.0000;0.6260;0.6242;
933.3000;0.6276;0.6217;
933.6000;0.6252;0.6217;
933.9000;0.6268;0.6242;
934.2000;0.6268;0.6140;
934.5000;0.6260;0.6089;
934.8000;0.6284;0.6089;
935.1000;0.6252;0.6115;
935.4000;0.6284;0.6166;
935.7000;0.6252;0.6140;
936.0000;0.6260;0.6140;
936.3000;0.6235;0.6064;
936.6000;0.6252;0.6013;
936.9000;0.6235;0.6038;
937.2000;0.6195;0.5860;
937.5000;0.6260;0.6013;
937.8000;0.6252;0.6038;
938.1000;0.6309;0.6191;
938.4000;0.6268;0.6038;
938.7000;0.6276;0.6140;
939.0000;0.6292;0.6140;
939.3000;0.6276;0.6140;
939.6000;0.6268;0.6115;
939.9000;0.6268;0.6089;
940.2000;0.6260;0.6217;
940.5000;0.6268;0.6166;
940.8000;0.6252;0.6064;
941.1000;0.6243;0.5962;
941.4000;0.6292;0.6089;
941.7000;0.6260;0.5987;
942.0000;0.6252;0.6013;
942.3000;0.6260;0.6013;
942.6000;0.6268;0.6013;
942.9000;0.6243;0.5987;
943.2000;0.6235;0.6013;
943.5000;0.6260;0.6064;
943.8000;0.6252;0.6038;
944.1000;0.6252;0.6013;
944.4000;0.6195;0.5936;
944.7000;0.6252;0.6038;
945.0000;0.6260;0.6038;
945.3000;0.6260;0.6064;
945.6000;0.6268;0.6038;
945.9000;0.6252;0.5987;
946.2000;0.6284;0.6013;
946.5000;0.6252;0.5936;
946.8000;0.6243;0.6013;
947.1000;0.6276;0.6140;
947.4000;0.6260;0.6140;
947.7000;0.6260;0.6115;
948.0000;0.6252;0.6038;
948.3000;0.6260;0.6038;
948.6000;0.6252;0.5962;
948.9000;0.6276;0.6089;
949.2000;0.6276;0.6089;
949.5000;0.6252;0.6013;
949.8000;0.6260;0.5936;
950.1000;0.6235;0.5885;
950.4000;0.6235;0.5911;
950.7000;0.6252;0.5936;
951.0000;0.6235;0.5962;
951.3000;0.6284;0.6064;
951.6000;0.6252;0.5936;
951.9000;0.6252;0.5962;
952.2000;0.6178;0.5758;
952.5000;0.6227;0.5911;
952.8000;0.6252;0.5936;
953.1000;0.6252;0.6038;
953.4000;0.6260;0.6038;
953.7000;0.6252;0.5987;
954.0000;0.6211;0.5885;
954.3000;0.6260;0.6013;
954.6000;0.6268;0.6013;
954.9000;0.6260;0.6038;
955.2000;0.6243;0.6038;
955.5000;0.6243;0.6115;
955.8000;0.6252;0.6089;
956.1000;0.6317;0.6344;
956.4000;0.6243;0.6140;
956.7000;0.6235;0.6038;
957.0000;0.6268;0.6013;
957.3000;0.6252;0.5987;
957.6000;0.6260;0.6013;
957.9000;0.6243;0.5987;
958.2000;0.6235;0.5936;
958.5000;0.6243;0.6038;
958.8000;0.6235;0.6064;
959.1000;0.6252;0.6064;
959.4000;0.6243;0.6038;
959.7000;0.6252;0.6038;
960.0000;0.6243;0.6064;
960.3000;0.6252;0.6191;
960.6000;0.6243;0.6191;
960.9000;0.6260;0.6268;
961.2000;0.6243;0.6319;
961.5000;0.6243;0.6242;
961.8000;0.6227;0.6166;
962.1000;0.6227;0.6191;
962.4000;0.6268;0.6191;
962.7000;0.6235;0.6166;
963.0000;0.6243;0.6191;
963.3000;0.6268;0.6268;
963.6000;0.6252;0.6191;
963.9000;0.6227;0.6140;
964.2000;0.6268;0.6242;
964.5000;0.6252;0.6166;
964.8000;0.6219;0.6064;
965.1000;0.6252;0.6115;
965.4000;0.6243;0.6089;
965.7000;0.6252;0.6115;
966.0000;0.6252;0.6089;
966.3000;0.6243;0.6089;
966.6000;0.6300;0.6217;
966.9000;0.6235;0.6013;
967.2000;0.6203;0.5911;
967.5000;0.6203;0.5885;
967.8000;0.6252;0.6115;
968.1000;0.6235;0.6089;
968.4000;0.6260;0.6064;
968.7000;0.6219;0.5860;
969.0000;0.6235;0.6013;
969.3000;0.6243;0.6166;
969.6000;0.6260;0.6217;
969.9000;0.6260;0.6369;
970.2000;0.6243;0.6293;
970.5000;0.6252;0.6293;
970.8000;0.6195;0.6089;
971.1000;0.6219;0.6166;
971.4000;0.6219;0.6217;
971.7000;0.6260;0.6268;
972.0000;0.6235;0.6344;
972.3000;0.6235;0.6344;
972.6000;0.6235;0.6369;
972.9000;0.6235;0.6268;
973.2000;0.6243;0.6217;
973.5000;0.6317;0.6471;
973.8000;0.6243;0.6268;
974.1000;0.6203;0.6268;
974.4000;0.6235;0.6369;
974.7000;0.6260;0.6420;
975.0000;0.6252;0.6395;
975.3000;0.6268;0.6344;
975.6000;0.6243;0.6293;
975.9000;0.6252;0.6344;
976.2000;0.6252;0.6293;
976.5000;0.6186;0.5987;
976.8000;0.6211;0.6089;
977.1000;0.6235;0.6166;
977.4000;0.6260;0.6293;
977.7000;0.6211;0.6115;
978.0000;0.6203;0.6242;
978.3000;0.6284;0.6420;
978.6000;0.6252;0.6344;
978.9000;0.6317;0.6497;
979.2000;0.6235;0.6319;
979.5000;0.6227;0.6217;
979.8000;0.6243;0.6268;
980.1000;0.6211;0.6089;
980.4000;0.6235;0.6089;
980.7000;0.6252;0.6140;
981.0000;0.6243;0.6115;
981.3000;0.6243;0.6140;
981.6000;0.6227;0.6166;
981.9000;0.6227;0.6191;
982.2000;0.6219;0.6268;
982.5000;0.6227;0.6293;
982.8000;0.6243;0.6319;
983.1000;0.6235;0.6344;
983.4000;0.6227;0.6268;
983.7000;0.6260;0.6369;
984.0000;0.6227;0.6268;
984.3000;0.6211;0.6268;
984.6000;0.6219;0.6191;
984.9000;0.6219;0.6166;
985.2000;0.6219;0.6140;
985.5000;0.6211;0.6115;
985.8000;0.6219;0.6191;
986.1000;0.6252;0.6166;
986.4000;0.6252;0.6166;
986.7000;0.6325;0.6395;
987.0000;0.6235;0.6140;
987.3000;0.6243;0.6140;
987.6000;0.6252;0.6115;
987.9000;0.6284;0.6293;
988.2000;0.6235;0.6268;
988.5000;0.6243;0.6293;
988.8000;0.6243;0.6242;
989.1000;0.6243;0.6268;
989.4000;0.6260;0.6293;
989.7000;0.6235;0.6166;
990.0000;0.6243;0.6217;
990.3000;0.6235;0.6089;
990.6000;0.6252;0.6038;
990.9000;0.6243;0.6013;
991.2000;0.6227;0.6089;
991.5000;0.6252;0.6166;
991.8000;0.6252;0.6166;
992.1000;0.6235;0.6038;
992.4000;0.6243;0.6140;
992.7000;0.6211;0.6064;
993.0000;0.6211;0.6038;
993.3000;0.6211;0.6064;
993.6000;0.6211;0.6038;
993.9000;0.6227;0.6140;
994.2000;0.6284;0.6293;
994.5000;0.6219;0.6166;
994.8000;0.6227;0.6191;
995.1000;0.6252;0.6166;
995.4000;0.6243;0.6140;
995.7000;0.6227;0.6217;
996.0000;0.6219;0.6191;
996.3000;0.6243;0.6089;
996.6000;0.6243;0.6038;
996.9000;0.6227;0.6064;
997.2000;0.6227;0.6064;
997.5000;0.6252;0.6217;
997.8000;0.6260;0.6268;
998.1000;0.6252;0.6319;
998.4000;0.6252;0.6319;
998.7000;0.6235;0.6395;
999.0000;0.6211;0.6293;
999.3000;0.6235;0.6446;
999.6000;0.6203;0.6344;
999.9000;0.6243;0.6395;
1000.2000;0.6235;0.6268;
1000.5000;0.6300;0.6497;
1000.8000;0.6227;0.6369;
1001.1000;0.6219;0.6369;
1001.4000;0.6243;0.6268;
1001.7000;0.6227;0.6293;
1002.0000;0.6211;0.6166;
1002.3000;0.6219;0.6242;
1002.6000;0.6235;0.6242;
1002.9000;0.6260;0.6395;
1003.2000;0.6227;0.6344;
1003.5000;0.6243;0.6369;
1003.8000;0.6219;0.6293;
1004.1000;0.6227;0.6395;
1004.4000;0.6243;0.6446;
1004.7000;0.6227;0.6420;
1005.0000;0.6203;0.6395;
1005.3000;0.6219;0.6446;
1005.6000;0.6235;0.6471;
1005.9000;0.6211;0.6471;
1006.2000;0.6252;0.6497;
1006.5000;0.6203;0.6268;
1006.8000;0.6227;0.6344;
1007.1000;0.6227;0.6242;
1007.4000;0.6219;0.6115;
1007.7000;0.6219;0.6140;
1008.0000;0.6227;0.6140;
1008.3000;0.6276;0.6217;
1008.6000;0.6219;0.6089;
1008.9000;0.6203;0.6038;
1009.2000;0.6227;0.6166;
1009.5000;0.6227;0.6191;
1009.8000;0.6211;0.6140;
1010.1000;0.6227;0.6319;
1010.4000;0.6211;0.6344;
1010.7000;0.6219;0.6319;
1011.0000;0.6227;0.6319;
1011.3000;0.6227;0.6319;
1011.6000;0.6219;0.6344;
1011.9000;0.6219;0.6344;
1012.2000;0.6219;0.6344;
1012.5000;0.6211;0.6242;
1012.8000;0.6203;0.6191;
1013.1000;0.6219;0.6293;
1013.4000;0.6219;0.6242;
1013.7000;0.6219;0.6344;
1014.0000;0.6195;0.6319;
1014.3000;0.6195;0.6293;
1014.6000;0.6211;0.6217;
1014.9000;0.6219;0.6319;
1015.2000;0.6219;0.6319;
1015.5000;0.6243;0.6319;
1015.8000;0.6219;0.6268;
1016.1000;0.6211;0.6242;
1016.4000;0.6219;0.6115;
1016.7000;0.6227;0.6166;
1017.0000;0.6211;0.6064;
1017.3000;0.6211;0.6115;
1017.6000;0.6219;0.6089;
1017.9000;0.6203;0.6038;
1018.2000;0.6243;0.6089;
1018.5000;0.6235;0.6064;
1018.8000;0.6219;0.6191;
1019.1000;0.6260;0.6344;
1019.4000;0.6227;0.6293;
1019.7000;0.6227;0.6369;
1020.0000;0.6227;0.6268;
1020.3000;0.6211;0.6395;
1020.6000;0.6227;0.6471;
1020.9000;0.6186;0.6217;
1021.2000;0.6252;0.6344;
1021.5000;0.6243;0.6319;
1021.8000;0.6219;0.6191;
1022.1000;0.6219;0.6115;
1022.4000;0.6219;0.6089;
1022.7000;0.6203;0.6013;
1023.0000;0.6170;0.5987;
1023.3000;0.6186;0.6089;
1023.6000;0.6219;0.6217;
1023.9000;0.6227;0.6242;
1024.2000;0.6195;0.6089;
1024.5000;0.6260;0.6242;
1024.8000;0.6219;0.6140;
1025.1000;0.6211;0.6038;
1025.4000;0.6203;0.5936;
1025.7000;0.6203;0.5962;
1026.0000;0.6203;0.5911;
1026.3000;0.6211;0.6013;
1026.6000;0.6219;0.6013;
1026.9000;0.6211;0.5962;
1027.2000;0.6235;0.5987;
1027.5000;0.6227;0.6038;
1027.8000;0.6203;0.6038;
1028.1000;0.6219;0.6038;
1028.4000;0.6227;0.6038;
1028.7000;0.6211;0.6140;
1029.0000;0.6219;0.6089;
1029.3000;0.6195;0.6089;
1029.6000;0.6211;0.6140;
1029.9000;0.6235;0.6166;
1030.2000;0.6203;0.6064;
1030.5000;0.6195;0.5962;
1030.8000;0.6211;0.6038;
1031.1000;0.6195;0.5962;
1031.4000;0.6219;0.6166;
1031.7000;0.6203;0.6140;
1032.0000;0.6211;0.6115;
1032.3000;0.6219;0.6115;
1032.6000;0.6219;0.6115;
1032.9000;0.6211;0.6115;
1033.2000;0.6211;0.6115;
1033.5000;0.6211;0.6140;
1033.8000;0.6211;0.6140;
1034.1000;0.6211;0.6166;
1034.4000;0.6211;0.6191;
1034.7000;0.6211;0.6166;
1035.0000;0.6219;0.6140;
1035.3000;0.6203;0.6064;
1035.6000;0.6162;0.5885;
1035.9000;0.6211;0.6140;
1036.2000;0.6211;0.6166;
1036.5000;0.6195;0.6140;
1036.8000;0.6211;0.6191;
1037.1000;0.6227;0.6140;
1037.4000;0.6195;0.6013;
1037.7000;0.6211;0.6064;
1038.0000;0.6252;0.6242;
1038.3000;0.6219;0.6242;
1038.6000;0.6211;0.6293;
1038.9000;0.6219;0.6242;
1039.2000;0.6227;0.6268;
1039.5000;0.6219;0.6268;
1039.8000;0.6219;0.6242;
1040.1000;0.6227;0.6293;
1040.4000;0.6203;0.6217;
1040.7000;0.6211;0.6191;
1041.0000;0.6227;0.6242;
1041.3000;0.6211;0.6191;
1041.6000;0.6211;0.6191;
1041.9000;0.6195;0.6140;
1042.2000;0.6203;0.6166;
1042.5000;0.6235;0.6319;
1042.8000;0.6211;0.6344;
1043.1000;0.6186;0.6217;
1043.4000;0.6195;0.6089;
1043.7000;0.6211;0.6089;
1044.0000;0.6203;0.6038;
1044.3000;0.6203;0.6115;
1044.6000;0.6203;0.6166;
1044.9000;0.6211;0.6166;
1045.2000;0.6195;0.6064;
1045.5000;0.6203;0.5987;
1045.8000;0.6203;0.5987;
1046.1000;0.6219;0.6064;
1046.4000;0.6219;0.6013;
1046.7000;0.6227;0.6038;
1047.0000;0.6235;0.6013;
1047.3000;0.6243;0.6115;
1047.6000;0.6211;0.6140;
1047.9000;0.6219;0.6217;
1048.2000;0.6203;0.6293;
1048.5000;0.6219;0.6242;
1048.8000;0.6211;0.6191;
1049.1000;0.6211;0.6268;
1049.4000;0.6219;0.6217;
1049.7000;0.6211;0.6140;
1050.0000;0.6195;0.6166;
1050.3000;0.6227;0.6268;
1050.6000;0.6219;0.6140;
1050.9000;0.6260;0.6217;
1051.2000;0.6219;0.6064;
1051.5000;0.6227;0.6115;
1051.8000;0.6162;0.5987;
1052.1000;0.6243;0.6217;
1052.4000;0.6211;0.6140;
1052.7000;0.6211;0.6191;
1053.0000;0.6203;0.6191;
1053.3000;0.6211;0.6268;
1053.6000;0.6186;0.6217;
1053.9000;0.6219;0.6242;
1054.2000;0.6203;0.6166;
1054.5000;0.6195;0.6217;
1054.8000;0.6203;0.6293;
1055.1000;0.6211;0.6319;
1055.4000;0.6211;0.6217;
1055.7000;0.6211;0.6166;
1056.0000;0.6203;0.6242;
1056.3000;0.6219;0.6217;
1056.6000;0.6235;0.6115;
1056.9000;0.6227;0.6115;
1057.2000;0.6227;0.6191;
1057.5000;0.6186;0.6064;
1057.8000;0.6219;0.6089;
1058.1000;0.6203;0.6064;
1058.4000;0.6203;0.6038;
1058.7000;0.6195;0.5987;
1059.0000;0.6227;0.6115;
1059.3000;0.6203;0.5987;
1059.6000;0.6211;0.5962;
1059.9000;0.6203;0.6064;
1060.2000;0.6219;0.6089;
1060.5000;0.6235;0.6115;
1060.8000;0.6219;0.6038;
1061.1000;0.6203;0.6013;
1061.4000;0.6260;0.6242;
1061.7000;0.6219;0.6268;
1062.0000;0.6186;0.6293;
1062.3000;0.6292;0.6522;
1062.6000;0.6195;0.6217;
1062.9000;0.6178;0.6217;
1063.2000;0.6203;0.6217;
1063.5000;0.6178;0.6166;
1063.8000;0.6178;0.6115;
1064.1000;0.6186;0.6115;
1064.4000;0.6195;0.6166;
1064.7000;0.6178;0.6166;
1065.0000;0.6195;0.6191;
1065.3000;0.6195;0.6166;
1065.6000;0.6195;0.6140;
1065.9000;0.6211;0.6089;
1066.2000;0.6186;0.6089;
1066.5000;0.6195;0.6089;
1066.8000;0.6203;0.6115;
1067.1000;0.6203;0.6140;
1067.4000;0.6211;0.6115;
1067.7000;0.6146;0.6038;
1068.0000;0.6186;0.6166;
1068.3000;0.6203;0.6166;
1068.6000;0.6154;0.6089;
1068.9000;0.6203;0.6191;
1069.2000;0.6203;0.6140;
1069.5000;0.6186;0.6115;
1069.8000;0.6211;0.6140;
1070.1000;0.6243;0.6319;
1070.4000;0.6203;0.6242;
1070.7000;0.6227;0.6242;
1071.0000;0.6219;0.6140;
1071.3000;0.6186;0.6140;
1071.6000;0.6211;0.6242;
1071.9000;0.6235;0.6344;
1072.2000;0.6227;0.6293;
1072.5000;0.6211;0.6242;
1072.8000;0.6211;0.6268;
1073.1000;0.6203;0.6242;
1073.4000;0.6211;0.6344;
1073.7000;0.6195;0.6344;
1074.0000;0.6178;0.6242;
1074.3000;0.6203;0.6217;
1074.6000;0.6186;0.6191;
1074.9000;0.6178;0.6217;
1075.2000;0.6195;0.6191;
1075.5000;0.6195;0.6217;
1075.8000;0.6219;0.6268;
1076.1000;0.6186;0.6115;
1076.4000;0.6195;0.6166;
1076.7000;0.6203;0.6191;
1077.0000;0.6203;0.6115;
1077.3000;0.6211;0.6064;
1077.6000;0.6211;0.6089;
1077.9000;0.6219;0.6038;
1078.2000;0.6243;0.6140;
1078.5000;0.6203;0.6064;
1078.8000;0.6203;0.6013;
1079.1000;0.6186;0.5987;
1079.4000;0.6203;0.6013;
1079.7000;0.6203;0.5987;
1080.0000;0.6178;0.5962;
1080.3000;0.6178;0.5962;
1080.6000;0.6186;0.5987;
1080.9000;0.6203;0.6038;
1081.2000;0.6211;0.6140;
1081.5000;0.6211;0.6064;
1081.8000;0.6211;0.6089;
1082.1000;0.6186;0.6038;
1082.4000;0.6211;0.6242;
1082.7000;0.6186;0.6140;
1083.0000;0.6195;0.6115;
1083.3000;0.6186;0.6115;
1083.6000;0.6203;0.6064;
1083.9000;0.6170;0.6013;
1084.2000;0.6195;0.6140;
1084.5000;0.6195;0.6140;
1084.8000;0.6195;0.6089;
1085.1000;0.6203;0.6166;
1085.4000;0.6203;0.6115;
1085.7000;0.6211;0.6242;
1086.0000;0.6195;0.6268;
1086.3000;0.6211;0.6242;
1086.6000;0.6186;0.6166;
1086.9000;0.6195;0.6089;
1087.2000;0.6203;0.6140;
1087.5000;0.6195;0.6242;
1087.8000;0.6195;0.6319;
1088.1000;0.6219;0.6344;
1088.4000;0.6219;0.6293;
1088.7000;0.6203;0.6268;
1089.0000;0.6154;0.6166;
1089.3000;0.6186;0.6191;
1089.6000;0.6203;0.6293;
1089.9000;0.6219;0.6242;
1090.2000;0.6195;0.6268;
1090.5000;0.6219;0.6395;
1090.8000;0.6178;0.6268;
1091.1000;0.6219;0.6344;
1091.4000;0.6219;0.6420;
1091.7000;0.6195;0.6344;
1092.0000;0.6203;0.6369;
1092.3000;0.6219;0.6497;
1092.6000;0.6203;0.6344;
1092.9000;0.6195;0.6369;
1093.2000;0.6162;0.6344;
1093.5000;0.6284;0.6650;
1093.8000;0.6203;0.6395;
1094.1000;0.6203;0.6293;
1094.4000;0.6186;0.6293;
1094.7000;0.6203;0.6217;
1095.0000;0.6186;0.6166;
1095.3000;0.6178;0.6140;
1095.6000;0.6203;0.6191;
1095.9000;0.6219;0.6242;
1096.2000;0.6211;0.6242;
1096.5000;0.6195;0.6268;
1096.8000;0.6219;0.6242;
1097.1000;0.6203;0.6293;
1097.4000;0.6211;0.6293;
1097.7000;0.6186;0.6191;
1098.0000;0.6186;0.6140;
1098.3000;0.6186;0.6064;
1098.6000;0.6203;0.6191;
1098.9000;0.6219;0.6242;
1099.2000;0.6195;0.6166;
1099.5000;0.6170;0.6140;
1099.8000;0.6195;0.6268;
1100.1000;0.6178;0.6217;
1100.4000;0.6162;0.6191;
1100.7000;0.6178;0.6217;
1101.0000;0.6186;0.6268;
1101.3000;0.6178;0.6242;
1101.6000;0.6178;0.6319;
1101.9000;0.6195;0.6395;
1102.2000;0.6138;0.6191;
1102.5000;0.6203;0.6344;
1102.8000;0.6203;0.6344;
1103.1000;0.6195;0.6344;
1103.4000;0.6186;0.6217;
1103.7000;0.6211;0.6191;
1104.0000;0.6219;0.6268;
1104.3000;0.6186;0.6140;
1104.6000;0.6178;0.6166;
1104.9000;0.6186;0.6166;
1105.2000;0.6170;0.6089;
1105.5000;0.6252;0.6319;
1105.8000;0.6178;0.6166;
1106.1000;0.6195;0.6293;
1106.4000;0.6195;0.6268;
1106.7000;0.6195;0.6319;
1107.0000;0.6203;0.6344;
1107.3000;0.6211;0.6446;
1107.6000;0.6195;0.6446;
1107.9000;0.6186;0.6319;
1108.2000;0.6138;0.6089;
1108.5000;0.6195;0.6242;
1108.8000;0.6211;0.6319;
1109.1000;0.6203;0.6242;
1109.4000;0.6203;0.6242;
1109.7000;0.6178;0.6191;
1110.0000;0.6203;0.6293;
1110.3000;0.6195;0.6217;
1110.6000;0.6195;0.6140;
1110.9000;0.6186;0.6038;
1111.2000;0.6203;0.6089;
1111.5000;0.6219;0.6166;
1111.8000;0.6186;0.6064;
1112.1000;0.6186;0.6191;
1112.4000;0.6186;0.6191;
1112.7000;0.6186;0.6191;
1113.0000;0.6146;0.6115;
1113.3000;0.6186;0.6115;
1113.6000;0.6178;0.6115;
1113.9000;0.6195;0.6166;
1114.2000;0.6203;0.6242;
1114.5000;0.6186;0.6319;
1114.8000;0.6186;0.6344;
1115.1000;0.6178;0.6344;
1115.4000;0.6186;0.6395;
1115.7000;0.6186;0.6420;
1116.0000;0.6186;0.6395;
1116.3000;0.6178;0.6446;
1116.6000;0.6219;0.6522;
1116.9000;0.6195;0.6471;
1117.2000;0.6186;0.6420;
1117.5000;0.6186;0.6344;
1117.8000;0.6203;0.6344;
1118.1000;0.6178;0.6369;
1118.4000;0.6178;0.6217;
1118.7000;0.6195;0.6217;
1119.0000;0.6203;0.6242;
1119.3000;0.6195;0.6191;
1119.6000;0.6203;0.6242;
1119.9000;0.6178;0.6166;
1120.2000;0.6146;0.6191;
1120.5000;0.6203;0.6319;
1120.8000;0.6178;0.6319;
1121.1000;0.6203;0.6319;
1121.4000;0.6203;0.6446;
1121.7000;0.6186;0.6446;
1122.0000;0.6178;0.6420;
1122.3000;0.6170;0.6344;
1122.6000;0.6178;0.6446;
1122.9000;0.6178;0.6395;
1123.2000;0.6211;0.6420;
1123.5000;0.6178;0.6395;
1123.8000;0.6186;0.6395;
1124.1000;0.6170;0.6395;
1124.4000;0.6170;0.6395;
1124.7000;0.6186;0.6369;
1125.0000;0.6170;0.6420;
1125.3000;0.6162;0.6420;
1125.6000;0.6162;0.6420;
1125.9000;0.6178;0.6497;
1126.2000;0.6186;0.6573;
1126.5000;0.6162;0.6573;
1126.8000;0.6195;0.6624;
1127.1000;0.6195;0.6624;
1127.4000;0.6154;0.6522;
1127.7000;0.6186;0.6497;
1128.0000;0.6195;0.6446;
1128.3000;0.6203;0.6369;
1128.6000;0.6178;0.6242;
1128.9000;0.6203;0.6293;
1129.2000;0.6227;0.6369;
1129.5000;0.6186;0.6293;
1129.8000;0.6195;0.6344;
1130.1000;0.6195;0.6344;
1130.4000;0.6178;0.6369;
1130.7000;0.6195;0.6369;
1131.0000;0.6170;0.6319;
1131.3000;0.6097;0.6115;
1131.6000;0.6121;0.6140;
1131.9000;0.6195;0.6319;
1132.2000;0.6121;0.6268;
1132.5000;0.6186;0.6497;
1132.8000;0.6186;0.6471;
1133.1000;0.6186;0.6497;
1133.4000;0.6186;0.6522;
1133.7000;0.6195;0.6471;
1134.0000;0.6203;0.6497;
1134.3000;0.6195;0.6573;
1134.6000;0.6195;0.6497;
1134.9000;0.6186;0.6420;
1135.2000;0.6195;0.6369;
1135.5000;0.6186;0.6446;
1135.8000;0.6170;0.6446;
1136.1000;0.6113;0.6242;
1136.4000;0.6195;0.6446;
1136.7000;0.6186;0.6497;
1137.0000;0.6195;0.6497;
1137.3000;0.6186;0.6446;
1137.6000;0.6178;0.6395;
1137.9000;0.6203;0.6522;
1138.2000;0.6203;0.6599;
1138.5000;0.6195;0.6573;
1138.8000;0.6178;0.6548;
1139.1000;0.6195;0.6446;
1139.4000;0.6186;0.6395;
1139.7000;0.6203;0.6446;
1140.0000;0.6170;0.6369;
1140.3000;0.6195;0.6344;
1140.6000;0.6252;0.6573;
1140.9000;0.6195;0.6395;
1141.2000;0.6170;0.6369;
1141.5000;0.6162;0.6319;
1141.8000;0.6219;0.6344;
1142.1000;0.6178;0.6293;
1142.4000;0.6203;0.6395;
1142.7000;0.6178;0.6369;
1143.0000;0.6178;0.6420;
1143.3000;0.6195;0.6471;
1143.6000;0.6178;0.6471;
1143.9000;0.6170;0.6471;
1144.2000;0.6195;0.6471;
1144.5000;0.6195;0.6471;
1144.8000;0.6203;0.6599;
1145.1000;0.6178;0.6573;
1145.4000;0.6162;0.6471;
1145.7000;0.6138;0.6369;
1146.0000;0.6178;0.6471;
1146.3000;0.6195;0.6420;
1146.6000;0.6170;0.6344;
1146.9000;0.6178;0.6420;
1147.2000;0.6260;0.6497;
1147.5000;0.6186;0.6319;
1147.8000;0.6186;0.6344;
1148.1000;0.6178;0.6242;
1148.4000;0.6203;0.6242;
1148.7000;0.6186;0.6191;
1149.0000;0.6178;0.6242;
1149.3000;0.6170;0.6242;
1149.6000;0.6243;0.6395;
1149.9000;0.6186;0.6166;
1150.2000;0.6121;0.5936;
1150.5000;0.6235;0.6191;
1150.8000;0.6195;0.6191;
1151.1000;0.6178;0.6140;
1151.4000;0.6195;0.6191;
1151.7000;0.6186;0.6242;
1152.0000;0.6203;0.6344;
1152.3000;0.6162;0.6268;
1152.6000;0.6203;0.6395;
1152.9000;0.6186;0.6344;
1153.2000;0.6178;0.6395;
1153.5000;0.6203;0.6420;
1153.8000;0.6203;0.6420;
1154.1000;0.6178;0.6344;
1154.4000;0.6146;0.6191;
1154.7000;0.6186;0.6242;
1155.0000;0.6178;0.6217;
1155.3000;0.6178;0.6191;
1155.6000;0.6170;0.6191;
1155.9000;0.6178;0.6191;
1156.2000;0.6195;0.6293;
1156.5000;0.6162;0.6268;
1156.8000;0.6186;0.6395;
1157.1000;0.6162;0.6395;
1157.4000;0.6170;0.6446;
1157.7000;0.6243;0.6471;
1158.0000;0.6178;0.6293;
1158.3000;0.6162;0.6242;
1158.6000;0.6195;0.6344;
1158.9000;0.6162;0.6319;
1159.2000;0.6195;0.6420;
1159.5000;0.6186;0.6395;
1159.8000;0.6178;0.6395;
1160.1000;0.6170;0.6471;
1160.4000;0.6162;0.6446;
1160.7000;0.6178;0.6369;
1161.0000;0.6146;0.6319;
1161.3000;0.6162;0.6395;
1161.6000;0.6170;0.6497;
1161.9000;0.6178;0.6471;
1162.2000;0.6170;0.6319;
1162.5000;0.6186;0.6344;
1162.8000;0.6186;0.6344;
1163.1000;0.6186;0.6344;
1163.4000;0.6195;0.6319;
1163.7000;0.6178;0.6319;
1164.0000;0.6186;0.6369;
1164.3000;0.6203;0.6446;
1164.6000;0.6186;0.6420;
1164.9000;0.6211;0.6446;
1165.2000;0.6186;0.6395;
1165.5000;0.6162;0.6344;
1165.8000;0.6129;0.6191;
1166.1000;0.6138;0.6268;
1166.4000;0.6170;0.6369;
1166.7000;0.6170;0.6395;
1167.0000;0.6129;0.6369;
1167.3000;0.6162;0.6471;
1167.6000;0.6186;0.6471;
1167.9000;0.6235;0.6650;
1168.2000;0.6162;0.6369;
1168.5000;0.6162;0.6344;
1168.8000;0.6162;0.6395;
1169.1000;0.6211;0.6471;
1169.4000;0.6178;0.6395;
1169.7000;0.6170;0.6471;
1170.0000;0.6186;0.6471;
1170.3000;0.6268;0.6624;
1170.6000;0.6170;0.6344;
1170.9000;0.6170;0.6446;
1171.2000;0.6186;0.6471;
1171.5000;0.6186;0.6420;
1171.8000;0.6113;0.6268;
1172.1000;0.6186;0.6395;
1172.4000;0.6170;0.6395;
1172.7000;0.6178;0.6420;
1173.0000;0.6170;0.6420;
1173.3000;0.6170;0.6522;
1173.6000;0.6178;0.6548;
1173.9000;0.6178;0.6573;
1174.2000;0.6178;0.6573;
1174.5000;0.6162;0.6624;
1174.8000;0.6178;0.6650;
1175.1000;0.6178;0.6650;
1175.4000;0.6195;0.6675;
1175.7000;0.6170;0.6573;
1176.0000;0.6162;0.6420;
1176.3000;0.6178;0.6471;
1176.6000;0.6178;0.6471;
1176.9000;0.6195;0.6548;
1177.2000;0.6170;0.6497;
1177.5000;0.6178;0.6446;
1177.8000;0.6195;0.6395;
1178.1000;0.6178;0.6446;
1178.4000;0.6195;0.6522;
1178.7000;0.6178;0.6599;
1179.0000;0.6170;0.6573;
1179.3000;0.6195;0.6573;
1179.6000;0.6260;0.6803;
1179.9000;0.6170;0.6573;
1180.2000;0.6186;0.6573;
1180.5000;0.6186;0.6573;
1180.8000;0.6186;0.6497;
1181.1000;0.6162;0.6420;
1181.4000;0.6186;0.6446;
1181.7000;0.6203;0.6446;
1182.0000;0.6178;0.6446;
1182.3000;0.6170;0.6395;
1182.6000;0.6178;0.6369;
1182.9000;0.6178;0.6395;
1183.2000;0.6203;0.6471;
1183.5000;0.6195;0.6395;
1183.8000;0.6195;0.6395;
1184.1000;0.6129;0.6242;
1184.4000;0.6260;0.6650;
1184.7000;0.6178;0.6471;
1185.0000;0.6138;0.6395;
1185.3000;0.6154;0.6395;
1185.6000;0.6186;0.6420;
1185.9000;0.6178;0.6420;
1186.2000;0.6162;0.6369;
1186.5000;0.6186;0.6293;
1186.8000;0.6186;0.6395;
1187.1000;0.6186;0.6420;
1187.4000;0.6260;0.6752;
1187.7000;0.6162;0.6497;
1188.0000;0.6138;0.6319;
1188.3000;0.6178;0.6446;
1188.6000;0.6178;0.6395;
1188.9000;0.6186;0.6420;
1189.2000;0.6170;0.6395;
1189.5000;0.6186;0.6420;
1189.8000;0.6178;0.6420;
1190.1000;0.6186;0.6420;
1190.4000;0.6178;0.6420;
1190.7000;0.6195;0.6446;
1191.0000;0.6146;0.6242;
1191.3000;0.6154;0.6293;
1191.6000;0.6170;0.6420;
1191.9000;0.6170;0.6369;
1192.2000;0.6203;0.6548;
1192.5000;0.6170;0.6497;
1192.8000;0.6154;0.6420;
1193.1000;0.6186;0.6471;
1193.4000;0.6186;0.6522;
1193.7000;0.6170;0.6548;
1194.0000;0.6186;0.6624;
1194.3000;0.6186;0.6573;
1194.6000;0.6186;0.6599;
1194.9000;0.6186;0.6624;
1195.2000;0.6195;0.6726;
1195.5000;0.6203;0.6675;
1195.8000;0.6146;0.6548;
1196.1000;0.6186;0.6548;
1196.4000;0.6162;0.6497;
1196.7000;0.6203;0.6624;
1197.0000;0.6203;0.6599;
1197.3000;0.6170;0.6522;
1197.6000;0.6154;0.6599;
1197.9000;0.6162;0.6624;
1198.2000;0.6170;0.6726;
1198.5000;0.6162;0.6726;
1198.8000;0.6211;0.6828;
1199.1000;0.6186;0.6752;
1199.4000;0.6105;0.6573;
1199.7000;0.6211;0.6854;
1200.0000;0.6170;0.6752;
1200.3000;0.6186;0.6701;
1200.6000;0.6170;0.6726;
1200.9000;0.6178;0.6624;
1201.2000;0.6129;0.6446;
1201.5000;0.6154;0.6446;
1201.8000;0.6178;0.6497;
1202.1000;0.6211;0.6471;
1202.4000;0.6276;0.6650;
1202.7000;0.6154;0.6497;
1203.0000;0.6146;0.6446;
1203.3000;0.6162;0.6573;
1203.6000;0.6211;0.6650;
1203.9000;0.6162;0.6446;
1204.2000;0.6162;0.6599;
1204.5000;0.6154;0.6548;
1204.8000;0.6170;0.6548;
1205.1000;0.6186;0.6548;
1205.4000;0.6178;0.6548;
1205.7000;0.6162;0.6599;
1206.0000;0.6154;0.6624;
1206.3000;0.6162;0.6624;
1206.6000;0.6146;0.6675;
1206.9000;0.6129;0.6650;
1207.2000;0.6178;0.6701;
1207.5000;0.6170;0.6675;
1207.8000;0.6154;0.6675;
1208.1000;0.6162;0.6726;
1208.4000;0.6203;0.6828;
1208.7000;0.6162;0.6624;
1209.0000;0.6138;0.6599;
1209.3000;0.6170;0.6701;
1209.6000;0.6178;0.6701;
1209.9000;0.6154;0.6650;
1210.2000;0.6178;0.6624;
1210.5000;0.6121;0.6395;
1210.8000;0.6178;0.6446;
1211.1000;0.6170;0.6395;
1211.4000;0.6178;0.6369;
1211.7000;0.6162;0.6369;
1212.0000;0.6162;0.6395;
1212.3000;0.6154;0.6446;
1212.6000;0.6227;0.6599;
1212.9000;0.6195;0.6522;
1213.2000;0.6162;0.6573;
1213.5000;0.6186;0.6573;
1213.8000;0.6186;0.6573;
1214.1000;0.6170;0.6471;
1214.4000;0.6178;0.6471;
1214.7000;0.6178;0.6522;
1215.0000;0.6178;0.6497;
1215.3000;0.6162;0.6573;
1215.6000;0.6162;0.6701;
1215.9000;0.6203;0.6803;
1216.2000;0.6178;0.6726;
1216.5000;0.6170;0.6701;
1216.8000;0.6170;0.6548;
1217.1000;0.6170;0.6497;
1217.4000;0.6170;0.6522;
1217.7000;0.6186;0.6548;
1218.0000;0.6162;0.6471;
1218.3000;0.6162;0.6420;
1218.6000;0.6178;0.6395;
1218.9000;0.6195;0.6522;
1219.2000;0.6162;0.6522;
1219.5000;0.6162;0.6573;
1219.8000;0.6146;0.6624;
1220.1000;0.6162;0.6650;
1220.4000;0.6146;0.6701;
1220.7000;0.6154;0.6675;
1221.0000;0.6186;0.6701;
1221.3000;0.6203;0.6752;
1221.6000;0.6146;0.6548;
1221.9000;0.6162;0.6548;
1222.2000;0.6154;0.6522;
1222.5000;0.6162;0.6548;
1222.8000;0.6178;0.6573;
1223.1000;0.6162;0.6497;
1223.4000;0.6121;0.6446;
1223.7000;0.6211;0.6752;
1224.0000;0.6162;0.6573;
1224.3000;0.6154;0.6497;
1224.6000;0.6170;0.6624;
1224.9000;0.6252;0.6828;
1225.2000;0.6113;0.6522;
1225.5000;0.6170;0.6675;
1225.8000;0.6154;0.6701;
1226.1000;0.6178;0.6726;
1226.4000;0.6186;0.6752;
1226.7000;0.6170;0.6701;
1227.0000;0.6162;0.6599;
1227.3000;0.6178;0.6599;
1227.6000;0.6178;0.6548;
1227.9000;0.6178;0.6522;
1228.2000;0.6178;0.6522;
1228.5000;0.6154;0.6497;
1228.8000;0.6162;0.6522;
1229.1000;0.6129;0.6420;
1229.4000;0.6186;0.6446;
1229.7000;0.6162;0.6293;
1230.0000;0.6195;0.6242;
1230.3000;0.6162;0.6166;
1230.6000;0.6178;0.6191;
1230.9000;0.6162;0.6140;
1231.2000;0.6178;0.6242;
1231.5000;0.6186;0.6242;
1231.8000;0.6170;0.6293;
1232.1000;0.6162;0.6319;
1232.4000;0.6154;0.6344;
1232.7000;0.6186;0.6420;
1233.0000;0.6178;0.6471;
1233.3000;0.6154;0.6420;
1233.6000;0.6154;0.6420;
1233.9000;0.6162;0.6395;
1234.2000;0.6146;0.6319;
1234.5000;0.6105;0.6166;
1234.8000;0.6170;0.6344;
1235.1000;0.6170;0.6369;
1235.4000;0.6146;0.6268;
1235.7000;0.6170;0.6242;
1236.0000;0.6186;0.6268;
1236.3000;0.6178;0.6344;
1236.6000;0.6170;0.6344;
1236.9000;0.6162;0.6395;
1237.2000;0.6178;0.6471;
1237.5000;0.6170;0.6420;
1237.8000;0.6178;0.6471;
1238.1000;0.6178;0.6471;
1238.4000;0.6154;0.6420;
1238.7000;0.6162;0.6420;
1239.0000;0.6154;0.6420;
1239.3000;0.6186;0.6446;
1239.6000;0.6146;0.6395;
1239.9000;0.6162;0.6293;
1240.2000;0.6162;0.6166;
1240.5000;0.6154;0.6115;
1240.8000;0.6170;0.6217;
1241.1000;0.6162;0.6293;
1241.4000;0.6170;0.6395;
1241.7000;0.6081;0.6191;
1242.0000;0.6162;0.6471;
1242.3000;0.6195;0.6573;
1242.6000;0.6146;0.6497;
1242.9000;0.6195;0.6497;
1243.2000;0.6129;0.6420;
1243.5000;0.6154;0.6548;
1243.8000;0.6129;0.6395;
1244.1000;0.6154;0.6420;
1244.4000;0.6105;0.6293;
1244.7000;0.6146;0.6446;
1245.0000;0.6178;0.6446;
1245.3000;0.6170;0.6395;
1245.6000;0.6162;0.6446;
1245.9000;0.6203;0.6522;
1246.2000;0.6170;0.6420;
1246.5000;0.6178;0.6420;
1246.8000;0.6170;0.6420;
1247.1000;0.6162;0.6395;
1247.4000;0.6162;0.6369;
1247.7000;0.6178;0.6420;
1248.0000;0.6154;0.6446;
1248.3000;0.6138;0.6395;
1248.6000;0.6113;0.6293;
1248.9000;0.6170;0.6497;
1249.2000;0.6170;0.6522;
1249.5000;0.6162;0.6650;
1249.8000;0.6129;0.6522;
1250.1000;0.6186;0.6624;
1250.4000;0.6170;0.6573;
1250.7000;0.6154;0.6548;
1251.0000;0.6178;0.6548;
1251.3000;0.6162;0.6471;
1251.6000;0.6146;0.6497;
1251.9000;0.6178;0.6497;
1252.2000;0.6154;0.6471;
1252.5000;0.6162;0.6522;
1252.8000;0.6162;0.6420;
1253.1000;0.6186;0.6395;
1253.4000;0.6170;0.6344;
1253.7000;0.6146;0.6242;
1254.0000;0.6154;0.6242;
1254.3000;0.6162;0.6268;
1254.6000;0.6162;0.6293;
1254.9000;0.6162;0.6191;
1255.2000;0.6154;0.6268;
1255.5000;0.6162;0.6293;
1255.8000;0.6162;0.6344;
1256.1000;0.6178;0.6471;
1256.4000;0.6170;0.6599;
1256.7000;0.6170;0.6624;
1257.0000;0.6170;0.6650;
1257.3000;0.6170;0.6752;
1257.6000;0.6097;0.6599;
1257.9000;0.6170;0.6828;
1258.2000;0.6178;0.6828;
1258.5000;0.6170;0.6803;
1258.8000;0.6162;0.6777;
1259.1000;0.6162;0.6777;
1259.4000;0.6170;0.6624;
1259.7000;0.6178;0.6624;
1260.0000;0.6162;0.6522;
1260.3000;0.6178;0.6599;
1260.6000;0.6186;0.6675;
1260.9000;0.6186;0.6599;
1261.2000;0.6178;0.6522;
1261.5000;0.6170;0.6573;
1261.8000;0.6178;0.6573;
1262.1000;0.6178;0.6548;
1262.4000;0.6178;0.6573;
1262.7000;0.6178;0.6599;
1263.0000;0.6170;0.6522;
1263.3000;0.6154;0.6471;
1263.6000;0.6154;0.6522;
1263.9000;0.6154;0.6395;
1264.2000;0.6154;0.6395;
1264.5000;0.6178;0.6497;
1264.8000;0.6170;0.6471;
1265.1000;0.6154;0.6420;
1265.4000;0.6146;0.6369;
1265.7000;0.6138;0.6369;
1266.0000;0.6170;0.6548;
1266.3000;0.6170;0.6624;
1266.6000;0.6170;0.6624;
1266.9000;0.6170;0.6548;
1267.2000;0.6154;0.6548;
1267.5000;0.6154;0.6701;
1267.8000;0.6154;0.6650;
1268.1000;0.6170;0.6777;
1268.4000;0.6162;0.6777;
1268.7000;0.6138;0.6650;
1269.0000;0.6162;0.6599;
1269.3000;0.6170;0.6573;
1269.6000;0.6146;0.6497;
1269.9000;0.6170;0.6599;
1270.2000;0.6178;0.6548;
1270.5000;0.6170;0.6548;
1270.8000;0.6170;0.6675;
1271.1000;0.6154;0.6624;
1271.4000;0.6170;0.6650;
1271.7000;0.6154;0.6599;
1272.0000;0.6162;0.6624;
1272.3000;0.6170;0.6624;
1272.6000;0.6154;0.6497;
1272.9000;0.6162;0.6548;
1273.2000;0.6170;0.6573;
1273.5000;0.6162;0.6573;
1273.8000;0.6129;0.6522;
1274.1000;0.6146;0.6624;
1274.4000;0.6170;0.6726;
1274.7000;0.6162;0.6726;
1275.0000;0.6121;0.6726;
1275.3000;0.6154;0.6828;
1275.6000;0.6170;0.6777;
1275.9000;0.6170;0.6675;
1276.2000;0.6170;0.6624;
1276.5000;0.6162;0.6573;
1276.8000;0.6170;0.6548;
1277.1000;0.6154;0.6573;
1277.4000;0.6154;0.6624;
1277.7000;0.6138;0.6548;
1278.0000;0.6178;0.6726;
1278.3000;0.6162;0.6599;
1278.6000;0.6170;0.6548;
1278.9000;0.6162;0.6548;
1279.2000;0.6170;0.6650;
1279.5000;0.6154;0.6701;
1279.8000;0.6146;0.6675;
1280.1000;0.6154;0.6650;
1280.4000;0.6154;0.6599;
1280.7000;0.6146;0.6624;
1281.0000;0.6162;0.6624;
1281.3000;0.6162;0.6624;
1281.6000;0.6162;0.6548;
1281.9000;0.6154;0.6573;
1282.2000;0.6252;0.6752;
1282.5000;0.6129;0.6573;
1282.8000;0.6162;0.6599;
1283.1000;0.6146;0.6599;
1283.4000;0.6170;0.6573;
1283.7000;0.6081;0.6217;
1284.0000;0.6162;0.6471;
1284.3000;0.6154;0.6471;
1284.6000;0.6170;0.6522;
1284.9000;0.6154;0.6497;
1285.2000;0.6138;0.6497;
1285.5000;0.6072;0.6293;
1285.8000;0.6146;0.6522;
1286.1000;0.6162;0.6650;
1286.4000;0.6154;0.6752;
1286.7000;0.6146;0.6675;
1287.0000;0.6146;0.6624;
1287.3000;0.6162;0.6599;
1287.6000;0.6170;0.6624;
1287.9000;0.6154;0.6548;
1288.2000;0.6162;0.6497;
1288.5000;0.6162;0.6497;
1288.8000;0.6162;0.6497;
1289.1000;0.6162;0.6522;
1289.4000;0.6154;0.6420;
1289.7000;0.6162;0.6548;
1290.0000;0.6170;0.6573;
1290.3000;0.6154;0.6522;
1290.6000;0.6170;0.6650;
1290.9000;0.6146;0.6573;
1291.2000;0.6170;0.6726;
1291.5000;0.6170;0.6675;
1291.8000;0.6170;0.6726;
1292.1000;0.6146;0.6599;
1292.4000;0.6162;0.6522;
1292.7000;0.6146;0.6522;
1293.0000;0.6170;0.6701;
1293.3000;0.6162;0.6650;
1293.6000;0.6186;0.6599;
1293.9000;0.6178;0.6573;
1294.2000;0.6162;0.6497;
1294.5000;0.6162;0.6446;
1294.8000;0.6162;0.6497;
1295.1000;0.6162;0.6446;
1295.4000;0.6162;0.6395;
1295.7000;0.6154;0.6319;
1296.0000;0.6162;0.6319;
1296.3000;0.6195;0.6395;
1296.6000;0.6235;0.6548;
1296.9000;0.6146;0.6319;
1297.2000;0.6170;0.6344;
1297.5000;0.6154;0.6217;
1297.8000;0.6162;0.6242;
1298.1000;0.6162;0.6217;
1298.4000;0.6154;0.6268;
1298.7000;0.6195;0.6471;
1299.0000;0.6146;0.6319;
1299.3000;0.6154;0.6395;
1299.6000;0.6162;0.6369;
1299.9000;0.6154;0.6471;
1300.2000;0.6138;0.6471;
1300.5000;0.6162;0.6573;
1300.8000;0.6162;0.6522;
1301.1000;0.6219;0.6726;
1301.4000;0.6162;0.6573;
1301.7000;0.6186;0.6573;
1302.0000;0.6170;0.6522;
1302.3000;0.6154;0.6548;
1302.6000;0.6154;0.6624;
1302.9000;0.6162;0.6522;
1303.2000;0.6154;0.6522;
1303.5000;0.6138;0.6497;
1303.8000;0.6146;0.6573;
1304.1000;0.6121;0.6497;
1304.4000;0.6138;0.6420;
1304.7000;0.6154;0.6471;
1305.0000;0.6146;0.6395;
1305.3000;0.6129;0.6369;
1305.6000;0.6170;0.6420;
1305.9000;0.6154;0.6420;
1306.2000;0.6170;0.6446;
1306.5000;0.6162;0.6497;
1306.8000;0.6146;0.6395;
1307.1000;0.6154;0.6369;
1307.4000;0.6170;0.6471;
1307.7000;0.6162;0.6446;
1308.0000;0.6203;0.6548;
1308.3000;0.6178;0.6420;
1308.6000;0.6154;0.6369;
1308.9000;0.6154;0.6395;
1309.2000;0.6162;0.6420;
1309.5000;0.6121;0.6319;
1309.8000;0.6154;0.6395;
1310.1000;0.6162;0.6599;
1310.4000;0.6170;0.6624;
1310.7000;0.6170;0.6548;
1311.0000;0.6146;0.6497;
1311.3000;0.6162;0.6497;
1311.6000;0.6170;0.6548;
1311.9000;0.6154;0.6624;
1312.2000;0.6170;0.6624;
1312.5000;0.6138;0.6497;
1312.8000;0.6219;0.6599;
1313.1000;0.6170;0.6420;
1313.4000;0.6203;0.6471;
1313.7000;0.6154;0.6319;
1314.0000;0.6162;0.6395;
1314.3000;0.6235;0.6675;
1314.6000;0.6170;0.6573;
1314.9000;0.6186;0.6599;
1315.2000;0.6162;0.6573;
1315.5000;0.6154;0.6522;
1315.8000;0.6138;0.6573;
1316.1000;0.6154;0.6701;
1316.4000;0.6154;0.6777;
1316.7000;0.6113;0.6726;
1317.0000;0.6170;0.6879;
1317.3000;0.6186;0.6905;
1317.6000;0.6081;0.6726;
1317.9000;0.6162;0.6803;
1318.2000;0.6138;0.6777;
1318.5000;0.6121;0.6701;
1318.8000;0.6186;0.6879;
1319.1000;0.6170;0.6777;
1319.4000;0.6113;0.6497;
1319.7000;0.6162;0.6573;
1320.0000;0.6219;0.6777;
1320.3000;0.6146;0.6650;
1320.6000;0.6162;0.6701;
1320.9000;0.6211;0.6777;
1321.2000;0.6146;0.6675;
1321.5000;0.6162;0.6650;
1321.8000;0.6162;0.6548;
1322.1000;0.6154;0.6522;
1322.4000;0.6162;0.6497;
1322.7000;0.6162;0.6548;
1323.0000;0.6138;0.6548;
1323.3000;0.6162;0.6573;
1323.6000;0.6235;0.6726;
1323.9000;0.6211;0.6624;
1324.2000;0.6154;0.6420;
1324.5000;0.6162;0.6420;
1324.8000;0.6170;0.6522;
1325.1000;0.6219;0.6650;
1325.4000;0.6154;0.6522;
1325.7000;0.6170;0.6573;
1326.0000;0.6154;0.6522;
1326.3000;0.6170;0.6548;
1326.6000;0.6154;0.6471;
1326.9000;0.6195;0.6522;
1327.2000;0.6170;0.6420;
1327.5000;0.6170;0.6369;
1327.8000;0.6146;0.6344;
1328.1000;0.6170;0.6420;
1328.4000;0.6162;0.6497;
1328.7000;0.6162;0.6420;
1329.0000;0.6138;0.6344;
1329.3000;0.6162;0.6344;
1329.6000;0.6170;0.6395;
1329.9000;0.6162;0.6420;
1330.2000;0.6186;0.6522;
1330.5000;0.6154;0.6497;
1330.8000;0.6146;0.6522;
1331.1000;0.6154;0.6446;
1331.4000;0.6154;0.6446;
1331.7000;0.6170;0.6446;
1332.0000;0.6154;0.6446;
1332.3000;0.6081;0.6319;
1332.6000;0.6138;0.6319;
1332.9000;0.6105;0.6242;
1333.2000;0.6138;0.6369;
1333.5000;0.6178;0.6395;
1333.8000;0.6154;0.6395;
1334.1000;0.6211;0.6471;
1334.4000;0.6162;0.6369;
1334.7000;0.6170;0.6369;
1335.0000;0.6154;0.6395;
1335.3000;0.6138;0.6319;
1335.6000;0.6162;0.6420;
1335.9000;0.6154;0.6471;
1336.2000;0.6154;0.6522;
1336.5000;0.6146;0.6522;
1336.8000;0.6154;0.6599;
1337.1000;0.6162;0.6599;
1337.4000;0.6146;0.6522;
1337.7000;0.6154;0.6624;
1338.0000;0.6146;0.6573;
1338.3000;0.6162;0.6624;
1338.6000;0.6138;0.6471;
1338.9000;0.6121;0.6446;
1339.2000;0.6154;0.6497;
1339.5000;0.6162;0.6497;
1339.8000;0.6154;0.6497;
1340.1000;0.6138;0.6471;
1340.4000;0.6129;0.6471;
1340.7000;0.6162;0.6650;
1341.0000;0.6146;0.6573;
1341.3000;0.6138;0.6471;
1341.6000;0.6162;0.6599;
1341.9000;0.6129;0.6548;
1342.2000;0.6235;0.6701;
1342.5000;0.6146;0.6369;
1342.8000;0.6203;0.6446;
1343.1000;0.6146;0.6293;
1343.4000;0.6154;0.6242;
1343.7000;0.6146;0.6242;
1344.0000;0.6154;0.6166;
1344.3000;0.6154;0.6242;
1344.6000;0.6162;0.6319;
1344.9000;0.6113;0.6242;
1345.2000;0.6162;0.6319;
1345.5000;0.6154;0.6395;
1345.8000;0.6146;0.6497;
1346.1000;0.6129;0.6420;
1346.4000;0.6170;0.6548;
1346.7000;0.6146;0.6446;
1347.0000;0.6138;0.6420;
1347.3000;0.6162;0.6446;
1347.6000;0.6162;0.6420;
1347.9000;0.6154;0.6471;
1348.2000;0.6162;0.6548;
1348.5000;0.6138;0.6573;
1348.8000;0.6154;0.6650;
1349.1000;0.6072;0.6369;
1349.4000;0.6146;0.6497;
1349.7000;0.6138;0.6599;
1350.0000;0.6170;0.6650;
1350.3000;0.6154;0.6650;
1350.6000;0.6146;0.6573;
1350.9000;0.6146;0.6573;
1351.2000;0.6162;0.6573;
1351.5000;0.6162;0.6548;
1351.8000;0.6146;0.6471;
1352.1000;0.6162;0.6548;
1352.4000;0.6146;0.6522;
1352.7000;0.6162;0.6446;
1353.0000;0.6154;0.6522;
1353.3000;0.6154;0.6548;
1353.6000;0.6154;0.6497;
1353.9000;0.6162;0.6522;
1354.2000;0.6162;0.6548;
1354.5000;0.6211;0.6701;
1354.8000;0.6170;0.6573;
1355.1000;0.6170;0.6726;
1355.4000;0.6162;0.6701;
1355.7000;0.6154;0.6675;
1356.0000;0.6162;0.6675;
1356.3000;0.6170;0.6726;
1356.6000;0.6146;0.6752;
1356.9000;0.6162;0.6701;
1357.2000;0.6097;0.6369;
1357.5000;0.6162;0.6548;
1357.8000;0.6162;0.6573;
1358.1000;0.6203;0.6675;
1358.4000;0.6154;0.6624;
1358.7000;0.6154;0.6675;
1359.0000;0.6178;0.6726;
1359.3000;0.6146;0.6599;
1359.6000;0.6146;0.6599;
1359.9000;0.6154;0.6624;
1360.2000;0.6154;0.6650;
1360.5000;0.6146;0.6675;
1360.8000;0.6138;0.6675;
1361.1000;0.6154;0.6599;
1361.4000;0.6138;0.6548;
1361.7000;0.6162;0.6599;
1362.0000;0.6146;0.6522;
1362.3000;0.6162;0.6497;
1362.6000;0.6146;0.6497;
1362.9000;0.6154;0.6573;
1363.2000;0.6154;0.6650;
1363.5000;0.6146;0.6650;
1363.8000;0.6170;0.6701;
1364.1000;0.6170;0.6701;
1364.4000;0.6129;0.6650;
1364.7000;0.6146;0.6624;
1365.0000;0.6138;0.6573;
1365.3000;0.6154;0.6599;
1365.6000;0.6154;0.6548;
1365.9000;0.6089;0.6471;
1366.2000;0.6146;0.6548;
1366.5000;0.6146;0.6573;
1366.8000;0.6146;0.6522;
1367.1000;0.6154;0.6522;
1367.4000;0.6146;0.6650;
1367.7000;0.6178;0.6726;
1368.0000;0.6154;0.6624;
1368.3000;0.6154;0.6548;
1368.6000;0.6162;0.6573;
1368.9000;0.6235;0.6854;
1369.2000;0.6146;0.6675;
1369.5000;0.6146;0.6599;
1369.8000;0.6146;0.6650;
1370.1000;0.6129;0.6548;
1370.4000;0.6154;0.6573;
1370.7000;0.6154;0.6471;
1371.0000;0.6138;0.6420;
1371.3000;0.6129;0.6369;
1371.6000;0.6138;0.6497;
1371.9000;0.6146;0.6497;
1372.2000;0.6097;0.6395;
1372.5000;0.6138;0.6497;
1372.8000;0.6138;0.6497;
1373.1000;0.6162;0.6522;
1373.4000;0.6129;0.6395;
1373.7000;0.6154;0.6497;
1374.0000;0.6170;0.6573;
1374.3000;0.6154;0.6522;
1374.6000;0.6146;0.6497;
1374.9000;0.6121;0.6395;
1375.2000;0.6154;0.6548;
1375.5000;0.6138;0.6497;
1375.8000;0.6162;0.6548;
1376.1000;0.6146;0.6599;
1376.4000;0.6146;0.6522;
1376.7000;0.6146;0.6497;
1377.0000;0.6146;0.6497;
1377.3000;0.6146;0.6446;
1377.6000;0.6154;0.6446;
1377.9000;0.6186;0.6573;
1378.2000;0.6138;0.6344;
1378.5000;0.6129;0.6369;
1378.8000;0.6170;0.6497;
1379.1000;0.6162;0.6497;
1379.4000;0.6154;0.6420;
1379.7000;0.6162;0.6471;
1380.0000;0.6146;0.6497;
1380.3000;0.6129;0.6395;
1380.6000;0.6146;0.6522;
1380.9000;0.6146;0.6420;
1381.2000;0.6154;0.6497;
1381.5000;0.6154;0.6522;
1381.8000;0.6146;0.6446;
1382.1000;0.6154;0.6369;
1382.4000;0.6154;0.6446;
1382.7000;0.6146;0.6395;
1383.0000;0.6154;0.6420;
1383.3000;0.6121;0.6446;
1383.6000;0.6129;0.6573;
1383.9000;0.6162;0.6650;
1384.2000;0.6219;0.6803;
1384.5000;0.6154;0.6573;
1384.8000;0.6243;0.6777;
1385.1000;0.6105;0.6268;
1385.4000;0.6162;0.6446;
1385.7000;0.6154;0.6369;
1386.0000;0.6162;0.6420;
1386.3000;0.6072;0.6293;
1386.6000;0.6146;0.6471;
1386.9000;0.6129;0.6369;
1387.2000;0.6162;0.6497;
1387.5000;0.6162;0.6522;
1387.8000;0.6154;0.6446;
1388.1000;0.6162;0.6420;
1388.4000;0.6170;0.6395;
1388.7000;0.6162;0.6369;
1389.0000;0.6154;0.6268;
1389.3000;0.6178;0.6344;
1389.6000;0.6146;0.6191;
1389.9000;0.6138;0.6217;
1390.2000;0.6154;0.6319;
1390.5000;0.6162;0.6319;
1390.8000;0.6154;0.6293;
1391.1000;0.6146;0.6293;
1391.4000;0.6146;0.6242;
1391.7000;0.6154;0.6293;
1392.0000;0.6186;0.6395;
1392.3000;0.6105;0.6217;
1392.6000;0.6162;0.6319;
1392.9000;0.6162;0.6344;
1393.2000;0.6162;0.6319;
1393.5000;0.6162;0.6369;
1393.8000;0.6146;0.6344;
1394.1000;0.6146;0.6319;
1394.4000;0.6121;0.6191;
1394.7000;0.6178;0.6395;
1395.0000;0.6154;0.6344;
1395.3000;0.6154;0.6293;
1395.6000;0.6138;0.6268;
1395.9000;0.6211;0.6522;
1396.2000;0.6203;0.6573;
1396.5000;0.6089;0.6268;
1396.8000;0.6121;0.6369;
1397.1000;0.6170;0.6573;
1397.4000;0.6154;0.6548;
1397.7000;0.6121;0.6471;
1398.0000;0.6138;0.6395;
1398.3000;0.6138;0.6369;
1398.6000;0.6121;0.6319;
1398.9000;0.6154;0.6344;
1399.2000;0.6154;0.6369;
1399.5000;0.6154;0.6395;
1399.8000;0.6162;0.6446;
