time/ms;Fluo/V;P700 deltaI/I x10³;
-199.8000;0.6439;0.5936;
-199.5000;0.6406;0.5911;
-199.2000;0.6422;0.5911;
-198.9000;0.6447;0.5987;
-198.6000;0.6455;0.5936;
-198.3000;0.6439;0.5936;
-198.0000;0.6447;0.5962;
-197.7000;0.6447;0.5987;
-197.4000;0.6479;0.6013;
-197.1000;0.6447;0.5911;
-196.8000;0.6439;0.5911;
-196.5000;0.6447;0.5911;
-196.2000;0.6439;0.5860;
-195.9000;0.6504;0.6038;
-195.6000;0.6431;0.5860;
-195.3000;0.6447;0.5834;
-195.0000;0.6325;0.5580;
-194.7000;0.6447;0.5936;
-194.4000;0.6398;0.5809;
-194.1000;0.6398;0.5834;
-193.8000;0.6382;0.5758;
-193.5000;0.6447;0.5885;
-193.2000;0.6439;0.5860;
-192.9000;0.6422;0.5809;
-192.6000;0.6439;0.5834;
-192.3000;0.6439;0.5860;
-192.0000;0.6439;0.5860;
-191.7000;0.6374;0.5758;
-191.4000;0.6504;0.6038;
-191.1000;0.6447;0.5987;
-190.8000;0.6431;0.5962;
-190.5000;0.6439;0.5911;
-190.2000;0.6455;0.5962;
-189.9000;0.6431;0.5860;
-189.6000;0.6447;0.5911;
-189.3000;0.6471;0.5962;
-189.0000;0.6292;0.5529;
-188.7000;0.6439;0.5987;
-188.4000;0.6414;0.6013;
-188.1000;0.6471;0.6140;
-187.8000;0.6422;0.5962;
-187.5000;0.6431;0.5911;
-187.2000;0.6455;0.5834;
-186.9000;0.6455;0.5809;
-186.6000;0.6439;0.5860;
-186.3000;0.6439;0.5936;
-186.0000;0.6439;0.5936;
-185.7000;0.6455;0.5911;
-185.4000;0.6439;0.5936;
-185.1000;0.6455;0.5962;
-184.8000;0.6447;0.6038;
-184.5000;0.6455;0.6038;
-184.2000;0.6439;0.6038;
-183.9000;0.6447;0.6038;
-183.6000;0.6447;0.6013;
-183.3000;0.6463;0.5962;
-183.0000;0.6447;0.5962;
-182.7000;0.6439;0.5987;
-182.4000;0.6439;0.6038;
-182.1000;0.6455;0.6064;
-181.8000;0.6447;0.6166;
-181.5000;0.6439;0.6115;
-181.2000;0.6414;0.6089;
-180.9000;0.6398;0.6038;
-180.6000;0.6447;0.6115;
-180.3000;0.6422;0.6140;
-180.0000;0.6382;0.5987;
-179.7000;0.6422;0.6064;
-179.4000;0.6439;0.6089;
-179.1000;0.6431;0.6013;
-178.8000;0.6431;0.6140;
-178.5000;0.6447;0.6166;
-178.2000;0.6431;0.6115;
-177.9000;0.6431;0.6115;
-177.6000;0.6439;0.6064;
-177.3000;0.6439;0.6038;
-177.0000;0.6455;0.6089;
-176.7000;0.6439;0.6038;
-176.4000;0.6431;0.5987;
-176.1000;0.6463;0.6089;
-175.8000;0.6447;0.5962;
-175.5000;0.6431;0.5962;
-175.2000;0.6496;0.6064;
-174.9000;0.6422;0.5860;
-174.6000;0.6431;0.5936;
-174.3000;0.6431;0.5911;
-174.0000;0.6422;0.5860;
-173.7000;0.6439;0.5860;
-173.4000;0.6422;0.5860;
-173.1000;0.6471;0.6013;
-172.8000;0.6488;0.6038;
-172.5000;0.6439;0.5834;
-172.2000;0.6439;0.5758;
-171.9000;0.6455;0.5783;
-171.6000;0.6447;0.5733;
-171.3000;0.6431;0.5682;
-171.0000;0.6406;0.5707;
-170.7000;0.6365;0.5631;
-170.4000;0.6422;0.5758;
-170.1000;0.6439;0.5783;
-169.8000;0.6496;0.5987;
-169.5000;0.6447;0.5911;
-169.2000;0.6439;0.5936;
-168.9000;0.6422;0.6038;
-168.6000;0.6463;0.6089;
-168.3000;0.6406;0.6038;
-168.0000;0.6439;0.6064;
-167.7000;0.6431;0.6013;
-167.4000;0.6439;0.6115;
-167.1000;0.6463;0.6089;
-166.8000;0.6455;0.6089;
-166.5000;0.6447;0.6140;
-166.2000;0.6422;0.6038;
-165.9000;0.6406;0.5987;
-165.6000;0.6422;0.6191;
-165.3000;0.6447;0.6166;
-165.0000;0.6447;0.6166;
-164.7000;0.6398;0.5987;
-164.4000;0.6447;0.6115;
-164.1000;0.6406;0.6013;
-163.8000;0.6398;0.6038;
-163.5000;0.6431;0.6166;
-163.2000;0.6431;0.6166;
-162.9000;0.6439;0.6115;
-162.6000;0.6431;0.6013;
-162.3000;0.6439;0.5962;
-162.0000;0.6439;0.5885;
-161.7000;0.6431;0.5936;
-161.4000;0.6431;0.5962;
-161.1000;0.6414;0.5962;
-160.8000;0.6447;0.6191;
-160.5000;0.6439;0.6191;
-160.2000;0.6431;0.6242;
-159.9000;0.6447;0.6242;
-159.6000;0.6431;0.6166;
-159.3000;0.6431;0.6242;
-159.0000;0.6431;0.6191;
-158.7000;0.6447;0.6191;
-158.4000;0.6439;0.6166;
-158.1000;0.6422;0.6140;
-157.8000;0.6414;0.6166;
-157.5000;0.6439;0.6191;
-157.2000;0.6431;0.6140;
-156.9000;0.6439;0.6089;
-156.6000;0.6447;0.6038;
-156.3000;0.6447;0.6038;
-156.0000;0.6439;0.6038;
-155.7000;0.6447;0.6013;
-155.4000;0.6439;0.5936;
-155.1000;0.6365;0.5733;
-154.8000;0.6447;0.5911;
-154.5000;0.6439;0.5834;
-154.2000;0.6447;0.5936;
-153.9000;0.6455;0.6038;
-153.6000;0.6431;0.5962;
-153.3000;0.6447;0.5962;
-153.0000;0.6488;0.6166;
-152.7000;0.6447;0.6166;
-152.4000;0.6439;0.6166;
-152.1000;0.6390;0.5885;
-151.8000;0.6431;0.5987;
-151.5000;0.6455;0.6013;
-151.2000;0.6439;0.6013;
-150.9000;0.6414;0.5987;
-150.6000;0.6431;0.6064;
-150.3000;0.6479;0.6191;
-150.0000;0.6447;0.6217;
-149.7000;0.6447;0.6191;
-149.4000;0.6406;0.6166;
-149.1000;0.6447;0.6191;
-148.8000;0.6439;0.6191;
-148.5000;0.6422;0.6191;
-148.2000;0.6439;0.6166;
-147.9000;0.6431;0.6089;
-147.6000;0.6447;0.6166;
-147.3000;0.6463;0.6217;
-147.0000;0.6447;0.6089;
-146.7000;0.6439;0.6140;
-146.4000;0.6431;0.6140;
-146.1000;0.6374;0.6038;
-145.8000;0.6422;0.6038;
-145.5000;0.6447;0.6089;
-145.2000;0.6447;0.6064;
-144.9000;0.6447;0.6064;
-144.6000;0.6439;0.6089;
-144.3000;0.6439;0.6038;
-144.0000;0.6463;0.6115;
-143.7000;0.6431;0.6115;
-143.4000;0.6422;0.6140;
-143.1000;0.6422;0.6115;
-142.8000;0.6439;0.6166;
-142.5000;0.6447;0.6166;
-142.2000;0.6455;0.6191;
-141.9000;0.6447;0.6166;
-141.6000;0.6455;0.6115;
-141.3000;0.6447;0.6038;
-141.0000;0.6455;0.5987;
-140.7000;0.6447;0.5962;
-140.4000;0.6447;0.5987;
-140.1000;0.6463;0.6038;
-139.8000;0.6463;0.5987;
-139.5000;0.6479;0.6064;
-139.2000;0.6431;0.5936;
-138.9000;0.6439;0.5911;
-138.6000;0.6398;0.5733;
-138.3000;0.6455;0.5911;
-138.0000;0.6439;0.5860;
-137.7000;0.6422;0.5809;
-137.4000;0.6455;0.5860;
-137.1000;0.6447;0.5936;
-136.8000;0.6439;0.6038;
-136.5000;0.6447;0.6089;
-136.2000;0.6488;0.6140;
-135.9000;0.6455;0.6013;
-135.6000;0.6431;0.5962;
-135.3000;0.6439;0.5936;
-135.0000;0.6447;0.5885;
-134.7000;0.6439;0.5962;
-134.4000;0.6447;0.5936;
-134.1000;0.6422;0.5936;
-133.8000;0.6431;0.5962;
-133.5000;0.6414;0.5911;
-133.2000;0.6431;0.5987;
-132.9000;0.6439;0.6013;
-132.6000;0.6447;0.6038;
-132.3000;0.6447;0.6089;
-132.0000;0.6447;0.6089;
-131.7000;0.6447;0.6038;
-131.4000;0.6431;0.5987;
-131.1000;0.6455;0.6013;
-130.8000;0.6496;0.6140;
-130.5000;0.6439;0.6038;
-130.2000;0.6431;0.5962;
-129.9000;0.6422;0.5911;
-129.6000;0.6439;0.6064;
-129.3000;0.6439;0.6115;
-129.0000;0.6455;0.6166;
-128.7000;0.6439;0.6089;
-128.4000;0.6455;0.6013;
-128.1000;0.6455;0.5962;
-127.8000;0.6471;0.5987;
-127.5000;0.6463;0.6038;
-127.2000;0.6463;0.6038;
-126.9000;0.6471;0.6038;
-126.6000;0.6447;0.5936;
-126.3000;0.6406;0.5834;
-126.0000;0.6455;0.5936;
-125.7000;0.6455;0.5911;
-125.4000;0.6447;0.5936;
-125.1000;0.6414;0.5885;
-124.8000;0.6455;0.5962;
-124.5000;0.6374;0.5783;
-124.2000;0.6431;0.5962;
-123.9000;0.6422;0.5962;
-123.6000;0.6439;0.6064;
-123.3000;0.6439;0.6115;
-123.0000;0.6431;0.6089;
-122.7000;0.6414;0.6140;
-122.4000;0.6431;0.6115;
-122.1000;0.6439;0.6064;
-121.8000;0.6455;0.6115;
-121.5000;0.6422;0.6038;
-121.2000;0.6422;0.6089;
-120.9000;0.6422;0.5987;
-120.6000;0.6431;0.5834;
-120.3000;0.6447;0.5834;
-120.0000;0.6439;0.5885;
-119.7000;0.6431;0.5834;
-119.4000;0.6447;0.5885;
-119.1000;0.6422;0.5911;
-118.8000;0.6439;0.5987;
-118.5000;0.6447;0.6064;
-118.2000;0.6447;0.6038;
-117.9000;0.6471;0.5936;
-117.6000;0.6447;0.5783;
-117.3000;0.6463;0.5809;
-117.0000;0.6463;0.5656;
-116.7000;0.6504;0.5885;
-116.4000;0.6439;0.5707;
-116.1000;0.6455;0.5733;
-115.8000;0.6406;0.5656;
-115.5000;0.6455;0.5758;
-115.2000;0.6414;0.5707;
-114.9000;0.6431;0.5809;
-114.6000;0.6422;0.5758;
-114.3000;0.6422;0.5809;
-114.0000;0.6431;0.5885;
-113.7000;0.6447;0.5962;
-113.4000;0.6431;0.5936;
-113.1000;0.6439;0.6013;
-112.8000;0.6422;0.5911;
-112.5000;0.6431;0.5885;
-112.2000;0.6447;0.5936;
-111.9000;0.6439;0.5987;
-111.6000;0.6455;0.5987;
-111.3000;0.6447;0.5885;
-111.0000;0.6431;0.5962;
-110.7000;0.6512;0.6191;
-110.4000;0.6455;0.6089;
-110.1000;0.6447;0.6115;
-109.8000;0.6471;0.6166;
-109.5000;0.6439;0.5962;
-109.2000;0.6374;0.5834;
-108.9000;0.6431;0.5962;
-108.6000;0.6463;0.6038;
-108.3000;0.6439;0.6013;
-108.0000;0.6431;0.6013;
-107.7000;0.6471;0.6089;
-107.4000;0.6431;0.5962;
-107.1000;0.6447;0.6013;
-106.8000;0.6463;0.6115;
-106.5000;0.6455;0.6115;
-106.2000;0.6447;0.6115;
-105.9000;0.6439;0.6166;
-105.6000;0.6455;0.6140;
-105.3000;0.6455;0.6089;
-105.0000;0.6422;0.6038;
-104.7000;0.6414;0.5962;
-104.4000;0.6414;0.5936;
-104.1000;0.6447;0.6013;
-103.8000;0.6455;0.6038;
-103.5000;0.6431;0.5987;
-103.2000;0.6439;0.6038;
-102.9000;0.6439;0.6038;
-102.6000;0.6422;0.6013;
-102.3000;0.6382;0.5809;
-102.0000;0.6390;0.5885;
-101.7000;0.6447;0.5936;
-101.4000;0.6431;0.5962;
-101.1000;0.6431;0.5987;
-100.8000;0.6431;0.5962;
-100.5000;0.6439;0.6013;
-100.2000;0.6431;0.6115;
-99.9000;0.6431;0.6115;
-99.6000;0.6422;0.6038;
-99.3000;0.6431;0.6089;
-99.0000;0.6431;0.6089;
-98.7000;0.6439;0.6089;
-98.4000;0.6439;0.6089;
-98.1000;0.6447;0.6115;
-97.8000;0.6447;0.6013;
-97.5000;0.6439;0.5962;
-97.2000;0.6447;0.5936;
-96.9000;0.6463;0.6013;
-96.6000;0.6455;0.5987;
-96.3000;0.6463;0.5962;
-96.0000;0.6431;0.5809;
-95.7000;0.6455;0.5911;
-95.4000;0.6463;0.5885;
-95.1000;0.6447;0.5834;
-94.8000;0.6447;0.5911;
-94.5000;0.6439;0.5885;
-94.2000;0.6471;0.6013;
-93.9000;0.6439;0.5962;
-93.6000;0.6447;0.5987;
-93.3000;0.6422;0.5962;
-93.0000;0.6447;0.5987;
-92.7000;0.6439;0.6089;
-92.4000;0.6406;0.6038;
-92.1000;0.6414;0.5987;
-91.8000;0.6414;0.5987;
-91.5000;0.6439;0.6064;
-91.2000;0.6422;0.5911;
-90.9000;0.6504;0.6089;
-90.6000;0.6439;0.5936;
-90.3000;0.6439;0.5962;
-90.0000;0.6447;0.5936;
-89.7000;0.6431;0.5911;
-89.4000;0.6390;0.5860;
-89.1000;0.6439;0.5936;
-88.8000;0.6431;0.5860;
-88.5000;0.6439;0.5911;
-88.2000;0.6439;0.5885;
-87.9000;0.6422;0.5860;
-87.6000;0.6431;0.5962;
-87.3000;0.6463;0.6064;
-87.0000;0.6447;0.6038;
-86.7000;0.6431;0.6013;
-86.4000;0.6455;0.5987;
-86.1000;0.6390;0.5860;
-85.8000;0.6447;0.6013;
-85.5000;0.6439;0.6038;
-85.2000;0.6447;0.6013;
-84.9000;0.6431;0.5936;
-84.6000;0.6414;0.5834;
-84.3000;0.6431;0.5860;
-84.0000;0.6463;0.5987;
-83.7000;0.6431;0.5860;
-83.4000;0.6431;0.5834;
-83.1000;0.6414;0.5707;
-82.8000;0.6422;0.5682;
-82.5000;0.6447;0.5733;
-82.2000;0.6455;0.5758;
-81.9000;0.6447;0.5758;
-81.6000;0.6431;0.5860;
-81.3000;0.6447;0.5885;
-81.0000;0.6439;0.5733;
-80.7000;0.6439;0.5809;
-80.4000;0.6447;0.5783;
-80.1000;0.6447;0.5860;
-79.8000;0.6439;0.5834;
-79.5000;0.6439;0.5809;
-79.2000;0.6414;0.5631;
-78.9000;0.6439;0.5707;
-78.6000;0.6422;0.5758;
-78.3000;0.6406;0.5707;
-78.0000;0.6439;0.5758;
-77.7000;0.6463;0.5758;
-77.4000;0.6455;0.5707;
-77.1000;0.6447;0.5707;
-76.8000;0.6447;0.5783;
-76.5000;0.6455;0.5860;
-76.2000;0.6422;0.5809;
-75.9000;0.6447;0.5911;
-75.6000;0.6447;0.5987;
-75.3000;0.6447;0.6013;
-75.0000;0.6439;0.6013;
-74.7000;0.6447;0.6013;
-74.4000;0.6431;0.5962;
-74.1000;0.6431;0.5987;
-73.8000;0.6447;0.6089;
-73.5000;0.6447;0.6115;
-73.2000;0.6447;0.6089;
-72.9000;0.6528;0.6319;
-72.6000;0.6455;0.6140;
-72.3000;0.6439;0.6115;
-72.0000;0.6471;0.6140;
-71.7000;0.6431;0.6166;
-71.4000;0.6447;0.6140;
-71.1000;0.6455;0.6140;
-70.8000;0.6447;0.6089;
-70.5000;0.6447;0.6089;
-70.2000;0.6439;0.6038;
-69.9000;0.6463;0.6140;
-69.6000;0.6455;0.6038;
-69.3000;0.6439;0.5987;
-69.0000;0.6439;0.6166;
-68.7000;0.6439;0.6140;
-68.4000;0.6431;0.6064;
-68.1000;0.6447;0.6140;
-67.8000;0.6431;0.6089;
-67.5000;0.6439;0.6013;
-67.2000;0.6439;0.6064;
-66.9000;0.6447;0.6013;
-66.6000;0.6431;0.5962;
-66.3000;0.6406;0.5987;
-66.0000;0.6447;0.6191;
-65.7000;0.6455;0.6268;
-65.4000;0.6504;0.6319;
-65.1000;0.6439;0.6191;
-64.8000;0.6447;0.6166;
-64.5000;0.6439;0.6140;
-64.2000;0.6422;0.5987;
-63.9000;0.6414;0.6013;
-63.6000;0.6479;0.6115;
-63.3000;0.6398;0.5860;
-63.0000;0.6431;0.5962;
-62.7000;0.6439;0.5860;
-62.4000;0.6439;0.5783;
-62.1000;0.6439;0.5809;
-61.8000;0.6447;0.5834;
-61.5000;0.6447;0.5783;
-61.2000;0.6439;0.5809;
-60.9000;0.6479;0.5885;
-60.6000;0.6439;0.5783;
-60.3000;0.6414;0.5834;
-60.0000;0.6431;0.5911;
-59.7000;0.6447;0.5962;
-59.4000;0.6447;0.5936;
-59.1000;0.6422;0.5885;
-58.8000;0.6422;0.5911;
-58.5000;0.6439;0.5987;
-58.2000;0.6431;0.5962;
-57.9000;0.6439;0.5962;
-57.6000;0.6431;0.5987;
-57.3000;0.6439;0.5962;
-57.0000;0.6447;0.5962;
-56.7000;0.6431;0.5885;
-56.4000;0.6422;0.5936;
-56.1000;0.6439;0.5962;
-55.8000;0.6439;0.5911;
-55.5000;0.6431;0.5809;
-55.2000;0.6439;0.5860;
-54.9000;0.6439;0.5809;
-54.6000;0.6431;0.5834;
-54.3000;0.6365;0.5631;
-54.0000;0.6479;0.5911;
-53.7000;0.6431;0.5783;
-53.4000;0.6455;0.5783;
-53.1000;0.6439;0.5758;
-52.8000;0.6439;0.5834;
-52.5000;0.6439;0.5936;
-52.2000;0.6488;0.5987;
-51.9000;0.6479;0.5962;
-51.6000;0.6455;0.5936;
-51.3000;0.6455;0.5885;
-51.0000;0.6488;0.6038;
-50.7000;0.6439;0.5911;
-50.4000;0.6439;0.5987;
-50.1000;0.6439;0.6038;
-49.8000;0.6439;0.6013;
-49.5000;0.6431;0.5962;
-49.2000;0.6447;0.6013;
-48.9000;0.6479;0.5962;
-48.6000;0.6431;0.5987;
-48.3000;0.6447;0.5987;
-48.0000;0.6439;0.6089;
-47.7000;0.6439;0.6064;
-47.4000;0.6439;0.6013;
-47.1000;0.6431;0.5987;
-46.8000;0.6463;0.6064;
-46.5000;0.6422;0.5962;
-46.2000;0.6406;0.5936;
-45.9000;0.6422;0.5962;
-45.6000;0.6414;0.5860;
-45.3000;0.6439;0.5987;
-45.0000;0.6455;0.6064;
-44.7000;0.6374;0.5885;
-44.4000;0.6447;0.6089;
-44.1000;0.6455;0.6089;
-43.8000;0.6463;0.6064;
-43.5000;0.6414;0.5962;
-43.2000;0.6439;0.6140;
-42.9000;0.6422;0.6038;
-42.6000;0.6455;0.6064;
-42.3000;0.6431;0.5987;
-42.0000;0.6447;0.5962;
-41.7000;0.6431;0.5936;
-41.4000;0.6455;0.6038;
-41.1000;0.6431;0.6038;
-40.8000;0.6439;0.6013;
-40.5000;0.6422;0.5911;
-40.2000;0.6398;0.5783;
-39.9000;0.6439;0.5987;
-39.6000;0.6390;0.5809;
-39.3000;0.6439;0.5885;
-39.0000;0.6439;0.5885;
-38.7000;0.6447;0.5911;
-38.4000;0.6455;0.5936;
-38.1000;0.6447;0.5885;
-37.8000;0.6455;0.5911;
-37.5000;0.6455;0.5936;
-37.2000;0.6439;0.5911;
-36.9000;0.6447;0.5936;
-36.6000;0.6463;0.5936;
-36.3000;0.6455;0.5834;
-36.0000;0.6447;0.5733;
-35.7000;0.6455;0.5758;
-35.4000;0.6479;0.5783;
-35.1000;0.6439;0.5656;
-34.8000;0.6455;0.5809;
-34.5000;0.6431;0.5860;
-34.2000;0.6447;0.5733;
-33.9000;0.6431;0.5682;
-33.6000;0.6439;0.5707;
-33.3000;0.6455;0.5631;
-33.0000;0.6455;0.5733;
-32.7000;0.6431;0.5682;
-32.4000;0.6431;0.5707;
-32.1000;0.6431;0.5733;
-31.8000;0.6431;0.5783;
-31.5000;0.6439;0.5885;
-31.2000;0.6447;0.6013;
-30.9000;0.6439;0.5911;
-30.6000;0.6447;0.5860;
-30.3000;0.6431;0.5860;
-30.0000;0.6463;0.5885;
-29.7000;0.6422;0.5707;
-29.4000;0.6422;0.5656;
-29.1000;0.6463;0.5733;
-28.8000;0.6439;0.5758;
-28.5000;0.6455;0.5758;
-28.2000;0.6447;0.5809;
-27.9000;0.6447;0.5809;
-27.6000;0.6414;0.5809;
-27.3000;0.6439;0.5834;
-27.0000;0.6422;0.5783;
-26.7000;0.6414;0.5707;
-26.4000;0.6431;0.5809;
-26.1000;0.6439;0.5758;
-25.8000;0.6390;0.5631;
-25.5000;0.6479;0.5860;
-25.2000;0.6455;0.5809;
-24.9000;0.6463;0.5783;
-24.6000;0.6447;0.5783;
-24.3000;0.6431;0.5758;
-24.0000;0.6447;0.5758;
-23.7000;0.6422;0.5809;
-23.4000;0.6439;0.5783;
-23.1000;0.6439;0.5834;
-22.8000;0.6431;0.5758;
-22.5000;0.6447;0.5834;
-22.2000;0.6422;0.5783;
-21.9000;0.6463;0.5936;
-21.6000;0.6414;0.5834;
-21.3000;0.6431;0.5936;
-21.0000;0.6439;0.5962;
-20.7000;0.6463;0.6038;
-20.4000;0.6447;0.5962;
-20.1000;0.6422;0.5936;
-19.8000;0.6439;0.5885;
-19.5000;0.6447;0.5936;
-19.2000;0.6422;0.5911;
-18.9000;0.6414;0.5834;
-18.6000;0.6439;0.5911;
-18.3000;0.6504;0.6064;
-18.0000;0.6439;0.5834;
-17.7000;0.6447;0.5911;
-17.4000;0.6439;0.5834;
-17.1000;0.6455;0.5885;
-16.8000;0.6422;0.5936;
-16.5000;0.6431;0.5987;
-16.2000;0.6439;0.5936;
-15.9000;0.6431;0.6064;
-15.6000;0.6390;0.6089;
-15.3000;0.6422;0.6191;
-15.0000;0.6447;0.6242;
-14.7000;0.6455;0.6217;
-14.4000;0.6414;0.6166;
-14.1000;0.6439;0.6217;
-13.8000;0.6439;0.6166;
-13.5000;0.6447;0.6191;
-13.2000;0.6439;0.6140;
-12.9000;0.6439;0.6166;
-12.6000;0.6447;0.6140;
-12.3000;0.6463;0.6191;
-12.0000;0.6455;0.6140;
-11.7000;0.6447;0.6064;
-11.4000;0.6447;0.6064;
-11.1000;0.6455;0.6038;
-10.8000;0.6455;0.5962;
-10.5000;0.6439;0.5885;
-10.2000;0.6471;0.5962;
-9.9000;0.6479;0.6013;
-9.6000;0.6463;0.5885;
-9.3000;0.6479;0.5962;
-9.0000;0.6447;0.5936;
-8.7000;0.6431;0.5911;
-8.4000;0.6414;0.5911;
-8.1000;0.6422;0.5987;
-7.8000;0.6390;0.5860;
-7.5000;0.6422;0.5860;
-7.2000;0.6422;0.5834;
-6.9000;0.6439;0.5783;
-6.6000;0.6414;0.5733;
-6.3000;0.6422;0.5936;
-6.0000;0.6422;0.6038;
-5.7000;0.6406;0.6013;
-5.4000;0.6431;0.6089;
-5.1000;0.6422;0.6089;
-4.8000;0.6447;0.6064;
-4.5000;0.6439;0.6064;
-4.2000;0.6447;0.6038;
-3.9000;0.6422;0.6013;
-3.6000;0.6431;0.6038;
-3.3000;0.6439;0.6089;
-3.0000;0.6422;0.6038;
-2.7000;0.6431;0.6013;
-2.4000;0.6447;0.6115;
-2.1000;0.6439;0.5987;
-1.8000;0.6439;0.5962;
-1.5000;0.6439;0.5987;
-1.2000;0.6422;0.6013;
-0.9000;0.6447;0.6115;
-0.6000;0.6447;0.6089;
-0.3000;0.6447;0.6038;
0.0000;0.6447;0.6038;
0.3000;0.6691;0.6115;
0.6000;0.7139;0.6599;
0.9000;0.7464;0.7083;
1.2000;0.7709;0.7567;
1.5000;0.7937;0.8026;
1.8000;0.8075;0.8331;
2.1000;0.8189;0.8510;
2.4000;0.8303;0.8637;
2.7000;0.8335;0.8764;
3.0000;0.8466;0.9019;
3.3000;0.8506;0.9121;
3.6000;0.8580;0.9172;
3.9000;0.8604;0.9121;
4.2000;0.8653;0.9198;
4.5000;0.8685;0.9223;
4.8000;0.8710;0.9172;
5.1000;0.8734;0.9147;
5.4000;0.8791;0.9248;
5.7000;0.8816;0.9376;
6.0000;0.8824;0.9401;
6.3000;0.8856;0.9478;
6.6000;0.8881;0.9580;
6.9000;0.8913;0.9605;
7.2000;0.8930;0.9605;
7.5000;0.8938;0.9605;
7.8000;0.8987;0.9580;
8.1000;0.9027;0.9656;
8.4000;0.9011;0.9605;
8.7000;0.9052;0.9554;
9.0000;0.9076;0.9554;
9.3000;0.9076;0.9529;
9.6000;0.9101;0.9427;
9.9000;0.9109;0.9299;
10.2000;0.9133;0.9376;
10.5000;0.9158;0.9478;
10.8000;0.9198;0.9503;
11.1000;0.9223;0.9529;
11.4000;0.9206;0.9478;
11.7000;0.9223;0.9478;
12.0000;0.9206;0.9376;
12.3000;0.9263;0.9580;
12.6000;0.9263;0.9631;
12.9000;0.9312;0.9707;
13.2000;0.9304;0.9656;
13.5000;0.9328;0.9631;
13.8000;0.9337;0.9529;
14.1000;0.9377;0.9503;
14.4000;0.9394;0.9656;
14.7000;0.9402;0.9784;
15.0000;0.9402;0.9707;
15.3000;0.9426;0.9682;
15.6000;0.9418;0.9656;
15.9000;0.9499;0.9707;
16.2000;0.9475;0.9580;
16.5000;0.9491;0.9503;
16.8000;0.9516;0.9452;
17.1000;0.9451;0.9325;
17.4000;0.9516;0.9427;
17.7000;0.9548;0.9376;
18.0000;0.9556;0.9325;
18.3000;0.9565;0.9325;
18.6000;0.9581;0.9274;
18.9000;0.9581;0.9325;
19.2000;0.9589;0.9299;
19.5000;0.9646;0.9274;
19.8000;0.9662;0.9350;
20.1000;0.9646;0.9401;
20.4000;0.9662;0.9478;
20.7000;0.9678;0.9580;
21.0000;0.9678;0.9478;
21.3000;0.9703;0.9478;
21.6000;0.9678;0.9503;
21.9000;0.9678;0.9350;
22.2000;0.9703;0.9350;
22.5000;0.9727;0.9299;
22.8000;0.9727;0.9299;
23.1000;0.9833;0.9580;
23.4000;0.9760;0.9401;
23.7000;0.9752;0.9401;
24.0000;0.9760;0.9452;
24.3000;0.9760;0.9401;
24.6000;0.9784;0.9452;
24.9000;0.9792;0.9350;
25.2000;0.9784;0.9223;
25.5000;0.9809;0.9274;
25.8000;0.9841;0.9325;
26.1000;0.9825;0.9274;
26.4000;0.9849;0.9198;
26.7000;0.9866;0.9248;
27.0000;0.9849;0.9172;
27.3000;0.9849;0.9096;
27.6000;0.9882;0.9147;
27.9000;0.9858;0.9121;
28.2000;0.9874;0.9223;
28.5000;0.9866;0.9223;
28.8000;0.9882;0.9172;
29.1000;0.9874;0.9248;
29.4000;0.9882;0.9172;
29.7000;0.9898;0.9172;
30.0000;0.9882;0.9121;
30.3000;0.9849;0.9019;
30.6000;0.9915;0.9172;
30.9000;0.9923;0.9223;
31.2000;0.9931;0.9248;
31.5000;0.9931;0.9223;
31.8000;0.9931;0.9223;
32.1000;0.9939;0.9299;
32.4000;0.9947;0.9248;
32.7000;0.9947;0.9274;
33.0000;0.9939;0.9172;
33.3000;0.9947;0.9147;
33.6000;0.9972;0.9223;
33.9000;0.9963;0.9147;
34.2000;0.9980;0.9172;
34.5000;0.9963;0.9248;
34.8000;1.0012;0.9376;
35.1000;1.0004;0.9248;
35.4000;0.9988;0.9147;
35.7000;0.9980;0.9070;
36.0000;0.9996;0.9121;
36.3000;1.0004;0.9070;
36.6000;1.0012;0.8994;
36.9000;1.0004;0.8943;
37.2000;1.0004;0.8943;
37.5000;1.0020;0.9019;
37.8000;1.0028;0.8968;
38.1000;1.0020;0.9019;
38.4000;1.0037;0.9121;
38.7000;1.0020;0.9096;
39.0000;1.0045;0.9121;
39.3000;1.0028;0.9096;
39.6000;1.0037;0.9121;
39.9000;1.0045;0.9274;
40.2000;1.0077;0.9376;
40.5000;1.0045;0.9274;
40.8000;1.0028;0.9325;
41.1000;1.0061;0.9325;
41.4000;1.0061;0.9299;
41.7000;1.0045;0.9248;
42.0000;1.0053;0.9376;
42.3000;1.0020;0.9299;
42.6000;1.0053;0.9401;
42.9000;1.0028;0.9248;
43.2000;1.0012;0.9147;
43.5000;1.0061;0.9223;
43.8000;1.0069;0.9172;
44.1000;1.0053;0.9070;
44.4000;1.0069;0.9096;
44.7000;1.0085;0.9172;
45.0000;1.0069;0.9121;
45.3000;1.0094;0.9274;
45.6000;1.0085;0.9299;
45.9000;1.0175;0.9529;
46.2000;1.0077;0.9325;
46.5000;1.0094;0.9350;
46.8000;1.0110;0.9299;
47.1000;1.0110;0.9274;
47.4000;1.0118;0.9274;
47.7000;1.0085;0.9248;
48.0000;1.0110;0.9248;
48.3000;1.0102;0.9248;
48.6000;1.0110;0.9223;
48.9000;1.0110;0.9198;
49.2000;1.0126;0.9172;
49.5000;1.0110;0.9198;
49.8000;1.0102;0.9121;
50.1000;1.0126;0.9096;
50.4000;1.0134;0.9147;
50.7000;1.0085;0.8943;
51.0000;1.0118;0.8892;
51.3000;1.0077;0.8790;
51.6000;1.0134;0.8866;
51.9000;1.0134;0.8917;
52.2000;1.0118;0.8917;
52.5000;1.0142;0.9096;
52.8000;1.0142;0.9172;
53.1000;1.0126;0.9172;
53.4000;1.0134;0.9172;
53.7000;1.0134;0.9223;
54.0000;1.0134;0.9223;
54.3000;1.0175;0.9325;
54.6000;1.0142;0.9248;
54.9000;1.0151;0.9198;
55.2000;1.0142;0.9121;
55.5000;1.0142;0.9172;
55.8000;1.0151;0.9172;
56.1000;1.0199;0.9248;
56.4000;1.0151;0.9198;
56.7000;1.0159;0.9223;
57.0000;1.0102;0.9019;
57.3000;1.0159;0.9121;
57.6000;1.0159;0.9096;
57.9000;1.0167;0.9121;
58.2000;1.0167;0.9172;
58.5000;1.0151;0.9045;
58.8000;1.0175;0.9070;
59.1000;1.0134;0.8968;
59.4000;1.0175;0.8968;
59.7000;1.0175;0.8841;
60.0000;1.0159;0.8790;
60.3000;1.0191;0.8841;
60.6000;1.0183;0.8790;
60.9000;1.0142;0.8790;
61.2000;1.0118;0.8892;
61.5000;1.0167;0.9070;
61.8000;1.0167;0.9070;
62.1000;1.0175;0.9045;
62.4000;1.0191;0.9019;
62.7000;1.0199;0.9045;
63.0000;1.0175;0.8968;
63.3000;1.0167;0.9019;
63.6000;1.0167;0.9070;
63.9000;1.0183;0.9147;
64.2000;1.0208;0.9121;
64.5000;1.0183;0.9096;
64.8000;1.0199;0.9096;
65.1000;1.0167;0.9096;
65.4000;1.0183;0.9172;
65.7000;1.0191;0.9172;
66.0000;1.0183;0.9045;
66.3000;1.0134;0.8815;
66.6000;1.0191;0.9019;
66.9000;1.0183;0.8943;
67.2000;1.0183;0.8968;
67.5000;1.0134;0.8892;
67.8000;1.0183;0.9045;
68.1000;1.0216;0.9147;
68.4000;1.0191;0.9096;
68.7000;1.0199;0.9070;
69.0000;1.0159;0.8994;
69.3000;1.0273;0.9274;
69.6000;1.0208;0.9121;
69.9000;1.0208;0.9070;
70.2000;1.0224;0.9070;
70.5000;1.0216;0.9045;
70.8000;1.0265;0.9274;
71.1000;1.0224;0.9019;
71.4000;1.0216;0.8968;
71.7000;1.0232;0.9045;
72.0000;1.0199;0.9019;
72.3000;1.0224;0.9045;
72.6000;1.0240;0.9172;
72.9000;1.0224;0.9198;
73.2000;1.0240;0.9223;
73.5000;1.0224;0.9198;
73.8000;1.0191;0.8994;
74.1000;1.0232;0.9096;
74.4000;1.0208;0.9045;
74.7000;1.0216;0.8968;
75.0000;1.0208;0.8917;
75.3000;1.0208;0.8866;
75.6000;1.0232;0.8892;
75.9000;1.0232;0.8994;
76.2000;1.0208;0.9019;
76.5000;1.0232;0.9045;
76.8000;1.0216;0.9070;
77.1000;1.0232;0.9045;
77.4000;1.0224;0.9019;
77.7000;1.0232;0.9070;
78.0000;1.0232;0.9121;
78.3000;1.0224;0.9172;
78.6000;1.0248;0.9274;
78.9000;1.0224;0.9198;
79.2000;1.0232;0.9248;
79.5000;1.0232;0.9299;
79.8000;1.0232;0.9248;
80.1000;1.0256;0.9274;
80.4000;1.0232;0.9147;
80.7000;1.0240;0.9070;
81.0000;1.0305;0.9248;
81.3000;1.0232;0.9121;
81.6000;1.0216;0.9096;
81.9000;1.0248;0.9045;
82.2000;1.0240;0.9096;
82.5000;1.0232;0.9096;
82.8000;1.0248;0.9147;
83.1000;1.0232;0.9045;
83.4000;1.0240;0.9019;
83.7000;1.0224;0.8968;
84.0000;1.0216;0.8943;
84.3000;1.0224;0.9019;
84.6000;1.0240;0.8994;
84.9000;1.0183;0.8866;
85.2000;1.0240;0.9019;
85.5000;1.0240;0.8968;
85.8000;1.0232;0.8866;
86.1000;1.0305;0.9019;
86.4000;1.0248;0.8815;
86.7000;1.0248;0.8764;
87.0000;1.0232;0.8764;
87.3000;1.0240;0.8790;
87.6000;1.0232;0.8815;
87.9000;1.0256;0.8790;
88.2000;1.0248;0.8815;
88.5000;1.0224;0.8739;
88.8000;1.0281;0.8815;
89.1000;1.0248;0.8739;
89.4000;1.0248;0.8713;
89.7000;1.0240;0.8739;
90.0000;1.0248;0.8764;
90.3000;1.0265;0.8815;
90.6000;1.0248;0.8713;
90.9000;1.0248;0.8764;
91.2000;1.0265;0.8764;
91.5000;1.0256;0.8688;
91.8000;1.0256;0.8662;
92.1000;1.0248;0.8739;
92.4000;1.0248;0.8841;
92.7000;1.0240;0.8866;
93.0000;1.0256;0.8892;
93.3000;1.0313;0.8968;
93.6000;1.0248;0.8841;
93.9000;1.0256;0.8866;
94.2000;1.0256;0.8866;
94.5000;1.0256;0.8866;
94.8000;1.0273;0.8994;
95.1000;1.0248;0.8943;
95.4000;1.0256;0.8943;
95.7000;1.0265;0.8866;
96.0000;1.0224;0.8713;
96.3000;1.0273;0.8917;
96.6000;1.0256;0.8892;
96.9000;1.0248;0.8892;
97.2000;1.0240;0.8892;
97.5000;1.0248;0.8917;
97.8000;1.0248;0.8943;
98.1000;1.0256;0.8841;
98.4000;1.0232;0.8815;
98.7000;1.0273;0.8917;
99.0000;1.0256;0.8943;
99.3000;1.0248;0.8892;
99.6000;1.0256;0.8892;
99.9000;1.0281;0.8892;
100.2000;1.0265;0.8688;
100.5000;1.0273;0.8662;
100.8000;1.0248;0.8764;
101.1000;1.0265;0.8841;
101.4000;1.0224;0.8790;
101.7000;1.0265;0.8866;
102.0000;1.0289;0.8917;
102.3000;1.0289;0.8917;
102.6000;1.0256;0.8892;
102.9000;1.0273;0.8866;
103.2000;1.0273;0.8841;
103.5000;1.0281;0.8866;
103.8000;1.0281;0.8917;
104.1000;1.0281;0.8943;
104.4000;1.0273;0.8943;
104.7000;1.0297;0.9019;
105.0000;1.0273;0.8968;
105.3000;1.0273;0.8994;
105.6000;1.0265;0.8943;
105.9000;1.0265;0.9019;
106.2000;1.0281;0.9096;
106.5000;1.0305;0.9147;
106.8000;1.0273;0.9019;
107.1000;1.0265;0.9019;
107.4000;1.0289;0.9096;
107.7000;1.0273;0.9045;
108.0000;1.0265;0.9045;
108.3000;1.0273;0.9121;
108.6000;1.0273;0.9096;
108.9000;1.0273;0.9147;
109.2000;1.0297;0.9147;
109.5000;1.0273;0.9096;
109.8000;1.0281;0.8994;
110.1000;1.0281;0.8943;
110.4000;1.0289;0.8892;
110.7000;1.0273;0.8815;
111.0000;1.0281;0.8892;
111.3000;1.0273;0.8866;
111.6000;1.0289;0.8841;
111.9000;1.0273;0.8892;
112.2000;1.0289;0.8943;
112.5000;1.0289;0.8866;
112.8000;1.0281;0.8841;
113.1000;1.0297;0.8815;
113.4000;1.0281;0.8790;
113.7000;1.0273;0.8815;
114.0000;1.0281;0.8892;
114.3000;1.0232;0.8790;
114.6000;1.0265;0.8943;
114.9000;1.0281;0.8917;
115.2000;1.0281;0.8841;
115.5000;1.0305;0.8866;
115.8000;1.0273;0.8764;
116.1000;1.0273;0.8713;
116.4000;1.0289;0.8866;
116.7000;1.0297;0.8866;
117.0000;1.0289;0.8892;
117.3000;1.0289;0.8790;
117.6000;1.0297;0.8764;
117.9000;1.0289;0.8790;
118.2000;1.0289;0.8892;
118.5000;1.0281;0.8866;
118.8000;1.0281;0.8841;
119.1000;1.0297;0.8892;
119.4000;1.0273;0.8866;
119.7000;1.0265;0.8917;
120.0000;1.0265;0.8892;
120.3000;1.0289;0.8892;
120.6000;1.0289;0.8841;
120.9000;1.0208;0.8662;
121.2000;1.0289;0.8943;
121.5000;1.0281;0.8892;
121.8000;1.0265;0.8790;
122.1000;1.0289;0.8764;
122.4000;1.0305;0.8739;
122.7000;1.0313;0.8764;
123.0000;1.0289;0.8815;
123.3000;1.0273;0.8841;
123.6000;1.0289;0.8994;
123.9000;1.0297;0.8994;
124.2000;1.0273;0.8994;
124.5000;1.0289;0.9019;
124.8000;1.0297;0.9019;
125.1000;1.0297;0.9019;
125.4000;1.0297;0.9019;
125.7000;1.0297;0.8968;
126.0000;1.0297;0.8892;
126.3000;1.0297;0.8815;
126.6000;1.0305;0.8892;
126.9000;1.0297;0.8994;
127.2000;1.0297;0.9070;
127.5000;1.0273;0.9019;
127.8000;1.0281;0.9019;
128.1000;1.0281;0.9019;
128.4000;1.0305;0.8994;
128.7000;1.0256;0.8994;
129.0000;1.0281;0.9121;
129.3000;1.0305;0.9198;
129.6000;1.0297;0.9096;
129.9000;1.0281;0.9070;
130.2000;1.0224;0.8943;
130.5000;1.0338;0.9198;
130.8000;1.0281;0.8994;
131.1000;1.0281;0.8917;
131.4000;1.0289;0.8866;
131.7000;1.0297;0.8968;
132.0000;1.0281;0.9045;
132.3000;1.0281;0.9096;
132.6000;1.0322;0.9147;
132.9000;1.0289;0.9045;
133.2000;1.0313;0.9045;
133.5000;1.0281;0.8968;
133.8000;1.0305;0.9070;
134.1000;1.0281;0.8968;
134.4000;1.0297;0.8943;
134.7000;1.0289;0.8968;
135.0000;1.0281;0.8968;
135.3000;1.0281;0.8917;
135.6000;1.0297;0.8866;
135.9000;1.0289;0.8917;
136.2000;1.0289;0.8892;
136.5000;1.0297;0.8943;
136.8000;1.0305;0.8994;
137.1000;1.0346;0.9121;
137.4000;1.0354;0.9147;
137.7000;1.0297;0.9070;
138.0000;1.0297;0.9121;
138.3000;1.0265;0.9096;
138.6000;1.0273;0.9121;
138.9000;1.0281;0.9070;
139.2000;1.0256;0.8968;
139.5000;1.0273;0.9070;
139.8000;1.0289;0.9070;
140.1000;1.0256;0.8994;
140.4000;1.0297;0.9121;
140.7000;1.0281;0.9070;
141.0000;1.0297;0.9147;
141.3000;1.0322;0.9147;
141.6000;1.0289;0.9019;
141.9000;1.0297;0.8968;
142.2000;1.0289;0.8968;
142.5000;1.0281;0.8892;
142.8000;1.0305;0.8943;
143.1000;1.0322;0.8892;
143.4000;1.0313;0.8968;
143.7000;1.0297;0.8943;
144.0000;1.0297;0.8892;
144.3000;1.0273;0.8943;
144.6000;1.0305;0.9019;
144.9000;1.0297;0.8994;
145.2000;1.0281;0.8968;
145.5000;1.0297;0.8968;
145.8000;1.0289;0.8917;
146.1000;1.0281;0.8815;
146.4000;1.0273;0.8866;
146.7000;1.0265;0.8892;
147.0000;1.0281;0.8917;
147.3000;1.0289;0.8943;
147.6000;1.0281;0.8892;
147.9000;1.0289;0.8892;
148.2000;1.0297;0.8968;
148.5000;1.0297;0.9019;
148.8000;1.0281;0.8968;
149.1000;1.0289;0.8943;
149.4000;1.0289;0.8917;
149.7000;1.0297;0.8994;
150.0000;1.0281;0.8943;
150.3000;1.0297;0.8892;
150.6000;1.0297;0.8866;
150.9000;1.0273;0.8790;
151.2000;1.0297;0.8917;
151.5000;1.0289;0.8892;
151.8000;1.0322;0.8892;
152.1000;1.0297;0.8841;
152.4000;1.0305;0.8815;
152.7000;1.0273;0.8790;
153.0000;1.0281;0.8764;
153.3000;1.0297;0.8764;
153.6000;1.0330;0.8866;
153.9000;1.0281;0.8841;
154.2000;1.0297;0.8866;
154.5000;1.0297;0.8866;
154.8000;1.0297;0.8815;
155.1000;1.0273;0.8815;
155.4000;1.0313;0.8943;
155.7000;1.0297;0.8866;
156.0000;1.0313;0.8841;
156.3000;1.0313;0.8815;
156.6000;1.0289;0.8866;
156.9000;1.0297;0.8892;
157.2000;1.0297;0.8892;
157.5000;1.0305;0.8790;
157.8000;1.0313;0.8764;
158.1000;1.0305;0.8713;
158.4000;1.0297;0.8739;
158.7000;1.0297;0.8790;
159.0000;1.0322;0.8790;
159.3000;1.0273;0.8662;
159.6000;1.0313;0.8739;
159.9000;1.0313;0.8790;
160.2000;1.0313;0.8841;
160.5000;1.0248;0.8612;
160.8000;1.0338;0.8841;
161.1000;1.0330;0.8892;
161.4000;1.0305;0.8892;
161.7000;1.0313;0.8968;
162.0000;1.0281;0.8917;
162.3000;1.0297;0.8994;
162.6000;1.0281;0.8917;
162.9000;1.0289;0.8739;
163.2000;1.0289;0.8841;
163.5000;1.0297;0.8790;
163.8000;1.0305;0.8790;
164.1000;1.0305;0.8968;
164.4000;1.0313;0.8943;
164.7000;1.0305;0.8892;
165.0000;1.0322;0.8968;
165.3000;1.0289;0.8815;
165.6000;1.0297;0.8866;
165.9000;1.0322;0.8943;
166.2000;1.0297;0.8968;
166.5000;1.0297;0.8917;
166.8000;1.0248;0.8739;
167.1000;1.0289;0.8790;
167.4000;1.0297;0.8866;
167.7000;1.0289;0.8841;
168.0000;1.0265;0.8739;
168.3000;1.0313;0.8713;
168.6000;1.0297;0.8713;
168.9000;1.0322;0.8739;
169.2000;1.0313;0.8815;
169.5000;1.0297;0.8739;
169.8000;1.0305;0.8713;
170.1000;1.0297;0.8739;
170.4000;1.0305;0.8637;
170.7000;1.0297;0.8662;
171.0000;1.0305;0.8739;
171.3000;1.0305;0.8764;
171.6000;1.0297;0.8662;
171.9000;1.0289;0.8713;
172.2000;1.0281;0.8688;
172.5000;1.0313;0.8764;
172.8000;1.0289;0.8713;
173.1000;1.0289;0.8612;
173.4000;1.0289;0.8688;
173.7000;1.0322;0.8764;
174.0000;1.0297;0.8713;
174.3000;1.0297;0.8764;
174.6000;1.0305;0.8713;
174.9000;1.0289;0.8688;
175.2000;1.0322;0.8764;
175.5000;1.0313;0.8637;
175.8000;1.0330;0.8637;
176.1000;1.0297;0.8612;
176.4000;1.0305;0.8662;
176.7000;1.0313;0.8637;
177.0000;1.0281;0.8535;
177.3000;1.0313;0.8535;
177.6000;1.0305;0.8561;
177.9000;1.0289;0.8637;
178.2000;1.0297;0.8688;
178.5000;1.0305;0.8637;
178.8000;1.0305;0.8688;
179.1000;1.0297;0.8535;
179.4000;1.0305;0.8612;
179.7000;1.0338;0.8637;
180.0000;1.0313;0.8637;
180.3000;1.0313;0.8688;
180.6000;1.0305;0.8739;
180.9000;1.0289;0.8688;
181.2000;1.0289;0.8612;
181.5000;1.0305;0.8662;
181.8000;1.0305;0.8739;
182.1000;1.0289;0.8841;
182.4000;1.0322;0.8917;
182.7000;1.0305;0.8866;
183.0000;1.0281;0.8866;
183.3000;1.0305;0.8994;
183.6000;1.0297;0.8917;
183.9000;1.0362;0.9070;
184.2000;1.0297;0.8866;
184.5000;1.0346;0.8994;
184.8000;1.0305;0.8815;
185.1000;1.0305;0.8790;
185.4000;1.0322;0.8841;
185.7000;1.0322;0.8815;
186.0000;1.0297;0.8739;
186.3000;1.0297;0.8662;
186.6000;1.0289;0.8662;
186.9000;1.0289;0.8637;
187.2000;1.0297;0.8662;
187.5000;1.0379;0.8841;
187.8000;1.0305;0.8637;
188.1000;1.0305;0.8637;
188.4000;1.0297;0.8637;
188.7000;1.0297;0.8637;
189.0000;1.0338;0.8764;
189.3000;1.0338;0.8764;
189.6000;1.0322;0.8815;
189.9000;1.0297;0.8892;
190.2000;1.0330;0.8968;
190.5000;1.0338;0.8892;
190.8000;1.0305;0.8841;
191.1000;1.0313;0.8866;
191.4000;1.0281;0.8866;
191.7000;1.0297;0.8968;
192.0000;1.0297;0.8917;
192.3000;1.0305;0.8892;
192.6000;1.0305;0.8815;
192.9000;1.0313;0.8764;
193.2000;1.0346;0.8815;
193.5000;1.0297;0.8713;
193.8000;1.0313;0.8790;
194.1000;1.0322;0.8815;
194.4000;1.0322;0.8815;
194.7000;1.0289;0.8713;
195.0000;1.0305;0.8841;
195.3000;1.0313;0.8892;
195.6000;1.0289;0.8815;
195.9000;1.0313;0.8815;
196.2000;1.0305;0.8841;
196.5000;1.0305;0.8815;
196.8000;1.0297;0.8917;
197.1000;1.0297;0.8968;
197.4000;1.0305;0.8892;
197.7000;1.0322;0.8866;
198.0000;1.0305;0.8866;
198.3000;1.0297;0.8892;
198.6000;1.0289;0.8892;
198.9000;1.0281;0.8841;
199.2000;1.0281;0.8790;
199.5000;1.0289;0.8815;
199.8000;1.0305;0.8764;
200.1000;1.0313;0.8866;
200.4000;1.0313;0.8866;
200.7000;1.0305;0.8917;
201.0000;1.0313;0.8943;
201.3000;1.0297;0.8866;
201.6000;1.0330;0.8917;
201.9000;1.0265;0.8815;
202.2000;1.0289;0.8943;
202.5000;1.0305;0.8994;
202.8000;1.0232;0.8637;
203.1000;1.0305;0.8790;
203.4000;1.0305;0.8662;
203.7000;1.0305;0.8713;
204.0000;1.0297;0.8688;
204.3000;1.0313;0.8764;
204.6000;1.0313;0.8713;
204.9000;1.0305;0.8739;
205.2000;1.0346;0.8790;
205.5000;1.0313;0.8790;
205.8000;1.0305;0.8841;
206.1000;1.0313;0.8866;
206.4000;1.0305;0.8866;
206.7000;1.0313;0.8892;
207.0000;1.0313;0.8892;
207.3000;1.0322;0.8892;
207.6000;1.0305;0.8841;
207.9000;1.0297;0.8841;
208.2000;1.0297;0.8841;
208.5000;1.0305;0.8892;
208.8000;1.0289;0.8866;
209.1000;1.0297;0.8866;
209.4000;1.0305;0.8866;
209.7000;1.0313;0.8841;
210.0000;1.0330;0.8994;
210.3000;1.0313;0.8943;
210.6000;1.0313;0.8968;
210.9000;1.0313;0.8968;
211.2000;1.0322;0.8968;
211.5000;1.0305;0.8892;
211.8000;1.0322;0.8790;
212.1000;1.0313;0.8917;
212.4000;1.0322;0.8943;
212.7000;1.0379;0.8994;
213.0000;1.0297;0.8764;
213.3000;1.0395;0.9096;
213.6000;1.0297;0.8841;
213.9000;1.0305;0.8815;
214.2000;1.0338;0.8841;
214.5000;1.0313;0.8764;
214.8000;1.0330;0.8688;
215.1000;1.0313;0.8612;
215.4000;1.0273;0.8459;
215.7000;1.0297;0.8612;
216.0000;1.0313;0.8586;
216.3000;1.0297;0.8459;
216.6000;1.0297;0.8535;
216.9000;1.0297;0.8510;
217.2000;1.0330;0.8586;
217.5000;1.0313;0.8561;
217.8000;1.0354;0.8662;
218.1000;1.0297;0.8586;
218.4000;1.0322;0.8688;
218.7000;1.0313;0.8688;
219.0000;1.0313;0.8739;
219.3000;1.0305;0.8713;
219.6000;1.0305;0.8713;
219.9000;1.0305;0.8637;
220.2000;1.0305;0.8637;
220.5000;1.0305;0.8612;
220.8000;1.0305;0.8637;
221.1000;1.0338;0.8713;
221.4000;1.0322;0.8764;
221.7000;1.0330;0.8764;
222.0000;1.0313;0.8739;
222.3000;1.0313;0.8790;
222.6000;1.0313;0.8713;
222.9000;1.0322;0.8713;
223.2000;1.0330;0.8612;
223.5000;1.0305;0.8612;
223.8000;1.0322;0.8739;
224.1000;1.0297;0.8688;
224.4000;1.0330;0.8815;
224.7000;1.0281;0.8815;
225.0000;1.0338;0.8968;
225.3000;1.0313;0.8892;
225.6000;1.0305;0.8841;
225.9000;1.0370;0.8968;
226.2000;1.0313;0.8764;
226.5000;1.0305;0.8866;
226.8000;1.0281;0.8815;
227.1000;1.0313;0.8764;
227.4000;1.0313;0.8739;
227.7000;1.0305;0.8662;
228.0000;1.0370;0.8892;
228.3000;1.0297;0.8764;
228.6000;1.0281;0.8612;
228.9000;1.0313;0.8739;
229.2000;1.0305;0.8713;
229.5000;1.0289;0.8739;
229.8000;1.0313;0.8815;
230.1000;1.0322;0.8866;
230.4000;1.0297;0.8739;
230.7000;1.0305;0.8790;
231.0000;1.0305;0.8790;
231.3000;1.0313;0.8815;
231.6000;1.0313;0.8815;
231.9000;1.0305;0.8790;
232.2000;1.0338;0.8892;
232.5000;1.0313;0.8764;
232.8000;1.0297;0.8739;
233.1000;1.0297;0.8815;
233.4000;1.0224;0.8662;
233.7000;1.0289;0.8841;
234.0000;1.0322;0.8815;
234.3000;1.0313;0.8764;
234.6000;1.0313;0.8637;
234.9000;1.0313;0.8739;
235.2000;1.0305;0.8713;
235.5000;1.0305;0.8662;
235.8000;1.0313;0.8713;
236.1000;1.0305;0.8662;
236.4000;1.0322;0.8662;
236.7000;1.0313;0.8561;
237.0000;1.0305;0.8510;
237.3000;1.0305;0.8637;
237.6000;1.0313;0.8688;
237.9000;1.0313;0.8713;
238.2000;1.0313;0.8790;
238.5000;1.0313;0.8764;
238.8000;1.0313;0.8815;
239.1000;1.0305;0.8764;
239.4000;1.0313;0.8739;
239.7000;1.0305;0.8637;
240.0000;1.0313;0.8790;
240.3000;1.0322;0.8790;
240.6000;1.0305;0.8790;
240.9000;1.0297;0.8841;
241.2000;1.0305;0.8866;
241.5000;1.0313;0.8994;
241.8000;1.0346;0.9019;
242.1000;1.0313;0.8841;
242.4000;1.0265;0.8713;
242.7000;1.0313;0.8815;
243.0000;1.0297;0.8866;
243.3000;1.0305;0.8994;
243.6000;1.0305;0.8866;
243.9000;1.0289;0.8866;
244.2000;1.0305;0.8892;
244.5000;1.0313;0.8994;
244.8000;1.0289;0.8994;
245.1000;1.0313;0.9019;
245.4000;1.0305;0.8943;
245.7000;1.0273;0.8815;
246.0000;1.0297;0.8892;
246.3000;1.0305;0.8866;
246.6000;1.0322;0.8917;
246.9000;1.0313;0.8866;
247.2000;1.0297;0.8790;
247.5000;1.0313;0.8866;
247.8000;1.0265;0.8764;
248.1000;1.0322;0.8866;
248.4000;1.0305;0.8815;
248.7000;1.0297;0.8713;
249.0000;1.0305;0.8764;
249.3000;1.0305;0.8815;
249.6000;1.0313;0.8815;
249.9000;1.0313;0.8892;
250.2000;1.0297;0.8892;
250.5000;1.0313;0.8892;
250.8000;1.0297;0.8866;
251.1000;1.0289;0.8866;
251.4000;1.0297;0.8790;
251.7000;1.0322;0.8892;
252.0000;1.0313;0.8841;
252.3000;1.0297;0.8739;
252.6000;1.0322;0.8866;
252.9000;1.0322;0.8866;
253.2000;1.0313;0.8866;
253.5000;1.0313;0.8815;
253.8000;1.0338;0.8994;
254.1000;1.0313;0.9019;
254.4000;1.0297;0.8968;
254.7000;1.0305;0.8943;
255.0000;1.0297;0.8917;
255.3000;1.0313;0.8917;
255.6000;1.0289;0.8943;
255.9000;1.0313;0.8892;
256.2000;1.0289;0.8815;
256.5000;1.0313;0.8943;
256.8000;1.0322;0.8968;
257.1000;1.0338;0.9019;
257.4000;1.0305;0.8892;
257.7000;1.0297;0.8841;
258.0000;1.0313;0.8866;
258.3000;1.0305;0.8790;
258.6000;1.0354;0.8968;
258.9000;1.0289;0.8790;
259.2000;1.0305;0.8764;
259.5000;1.0330;0.8764;
259.8000;1.0330;0.8790;
260.1000;1.0289;0.8713;
260.4000;1.0313;0.8637;
260.7000;1.0403;0.8815;
261.0000;1.0305;0.8637;
261.3000;1.0305;0.8688;
261.6000;1.0305;0.8790;
261.9000;1.0313;0.8917;
262.2000;1.0305;0.8892;
262.5000;1.0289;0.8841;
262.8000;1.0305;0.8866;
263.1000;1.0289;0.8943;
263.4000;1.0305;0.8968;
263.7000;1.0248;0.8790;
264.0000;1.0273;0.8866;
264.3000;1.0297;0.8892;
264.6000;1.0297;0.8815;
264.9000;1.0297;0.8790;
265.2000;1.0281;0.8790;
265.5000;1.0297;0.8815;
265.8000;1.0305;0.8739;
266.1000;1.0297;0.8790;
266.4000;1.0305;0.8815;
266.7000;1.0289;0.8637;
267.0000;1.0297;0.8637;
267.3000;1.0297;0.8612;
267.6000;1.0305;0.8637;
267.9000;1.0313;0.8688;
268.2000;1.0289;0.8739;
268.5000;1.0297;0.8790;
268.8000;1.0297;0.8739;
269.1000;1.0289;0.8688;
269.4000;1.0297;0.8688;
269.7000;1.0346;0.8764;
270.0000;1.0256;0.8561;
270.3000;1.0281;0.8739;
270.6000;1.0313;0.8764;
270.9000;1.0313;0.8815;
271.2000;1.0297;0.8790;
271.5000;1.0289;0.8739;
271.8000;1.0305;0.8764;
272.1000;1.0216;0.8510;
272.4000;1.0313;0.8662;
272.7000;1.0305;0.8688;
273.0000;1.0281;0.8688;
273.3000;1.0305;0.8662;
273.6000;1.0305;0.8586;
273.9000;1.0313;0.8510;
274.2000;1.0305;0.8510;
274.5000;1.0297;0.8459;
274.8000;1.0297;0.8561;
275.1000;1.0305;0.8561;
275.4000;1.0313;0.8561;
275.7000;1.0305;0.8586;
276.0000;1.0305;0.8484;
276.3000;1.0248;0.8382;
276.6000;1.0313;0.8535;
276.9000;1.0297;0.8484;
277.2000;1.0313;0.8561;
277.5000;1.0313;0.8637;
277.8000;1.0330;0.8688;
278.1000;1.0289;0.8586;
278.4000;1.0281;0.8561;
278.7000;1.0305;0.8586;
279.0000;1.0281;0.8535;
279.3000;1.0248;0.8586;
279.6000;1.0289;0.8662;
279.9000;1.0305;0.8688;
280.2000;1.0297;0.8764;
280.5000;1.0297;0.8739;
280.8000;1.0297;0.8688;
281.1000;1.0305;0.8739;
281.4000;1.0289;0.8688;
281.7000;1.0297;0.8662;
282.0000;1.0322;0.8586;
282.3000;1.0338;0.8586;
282.6000;1.0313;0.8713;
282.9000;1.0313;0.8739;
283.2000;1.0305;0.8739;
283.5000;1.0305;0.8688;
283.8000;1.0305;0.8662;
284.1000;1.0265;0.8535;
284.4000;1.0289;0.8662;
284.7000;1.0297;0.8739;
285.0000;1.0322;0.8841;
285.3000;1.0330;0.8790;
285.6000;1.0297;0.8662;
285.9000;1.0313;0.8739;
286.2000;1.0313;0.8662;
286.5000;1.0305;0.8713;
286.8000;1.0354;0.8917;
287.1000;1.0297;0.8866;
287.4000;1.0313;0.8943;
287.7000;1.0297;0.8841;
288.0000;1.0297;0.8815;
288.3000;1.0305;0.8790;
288.6000;1.0313;0.8739;
288.9000;1.0305;0.8764;
289.2000;1.0281;0.8713;
289.5000;1.0289;0.8637;
289.8000;1.0289;0.8561;
290.1000;1.0322;0.8612;
290.4000;1.0313;0.8764;
290.7000;1.0313;0.8866;
291.0000;1.0297;0.8841;
291.3000;1.0297;0.8790;
291.6000;1.0305;0.8764;
291.9000;1.0281;0.8688;
292.2000;1.0313;0.8713;
292.5000;1.0313;0.8764;
292.8000;1.0265;0.8637;
293.1000;1.0297;0.8713;
293.4000;1.0322;0.8713;
293.7000;1.0289;0.8637;
294.0000;1.0362;0.8866;
294.3000;1.0305;0.8739;
294.6000;1.0305;0.8612;
294.9000;1.0305;0.8637;
295.2000;1.0313;0.8739;
295.5000;1.0297;0.8713;
295.8000;1.0216;0.8484;
296.1000;1.0297;0.8713;
296.4000;1.0297;0.8662;
296.7000;1.0313;0.8713;
297.0000;1.0305;0.8662;
297.3000;1.0289;0.8637;
297.6000;1.0305;0.8662;
297.9000;1.0297;0.8713;
298.2000;1.0305;0.8764;
298.5000;1.0305;0.8866;
298.8000;1.0297;0.8917;
299.1000;1.0313;0.8841;
299.4000;1.0305;0.8841;
299.7000;1.0289;0.8790;
300.0000;1.0297;0.8815;
300.3000;1.0297;0.8790;
300.6000;1.0273;0.8713;
300.9000;1.0289;0.8713;
301.2000;1.0305;0.8713;
301.5000;1.0313;0.8815;
301.8000;1.0379;0.8892;
302.1000;1.0289;0.8688;
302.4000;1.0305;0.8688;
302.7000;1.0330;0.8764;
303.0000;1.0322;0.8790;
303.3000;1.0297;0.8764;
303.6000;1.0305;0.8713;
303.9000;1.0265;0.8612;
304.2000;1.0313;0.8637;
304.5000;1.0297;0.8637;
304.8000;1.0289;0.8586;
305.1000;1.0289;0.8484;
305.4000;1.0305;0.8484;
305.7000;1.0297;0.8535;
306.0000;1.0297;0.8484;
306.3000;1.0289;0.8510;
306.6000;1.0305;0.8586;
306.9000;1.0305;0.8713;
307.2000;1.0330;0.8866;
307.5000;1.0297;0.8739;
307.8000;1.0305;0.8764;
308.1000;1.0305;0.8764;
308.4000;1.0354;0.8866;
308.7000;1.0305;0.8713;
309.0000;1.0305;0.8764;
309.3000;1.0354;0.8739;
309.6000;1.0289;0.8612;
309.9000;1.0354;0.8790;
310.2000;1.0330;0.8739;
310.5000;1.0313;0.8688;
310.8000;1.0297;0.8713;
311.1000;1.0305;0.8688;
311.4000;1.0338;0.8764;
311.7000;1.0313;0.8739;
312.0000;1.0305;0.8739;
312.3000;1.0305;0.8688;
312.6000;1.0297;0.8688;
312.9000;1.0313;0.8866;
313.2000;1.0305;0.8841;
313.5000;1.0313;0.8790;
313.8000;1.0305;0.8688;
314.1000;1.0305;0.8637;
314.4000;1.0313;0.8662;
314.7000;1.0297;0.8637;
315.0000;1.0313;0.8637;
315.3000;1.0313;0.8612;
315.6000;1.0289;0.8459;
315.9000;1.0313;0.8484;
316.2000;1.0305;0.8612;
316.5000;1.0313;0.8637;
316.8000;1.0322;0.8688;
317.1000;1.0297;0.8637;
317.4000;1.0305;0.8586;
317.7000;1.0256;0.8433;
318.0000;1.0289;0.8510;
318.3000;1.0305;0.8662;
318.6000;1.0240;0.8612;
318.9000;1.0297;0.8790;
319.2000;1.0305;0.8815;
319.5000;1.0305;0.8790;
319.8000;1.0322;0.8764;
320.1000;1.0289;0.8662;
320.4000;1.0313;0.8688;
320.7000;1.0289;0.8612;
321.0000;1.0297;0.8586;
321.3000;1.0281;0.8510;
321.6000;1.0297;0.8586;
321.9000;1.0289;0.8561;
322.2000;1.0289;0.8535;
322.5000;1.0297;0.8484;
322.8000;1.0305;0.8561;
323.1000;1.0330;0.8662;
323.4000;1.0313;0.8586;
323.7000;1.0297;0.8586;
324.0000;1.0297;0.8535;
324.3000;1.0297;0.8612;
324.6000;1.0338;0.8688;
324.9000;1.0297;0.8612;
325.2000;1.0330;0.8662;
325.5000;1.0281;0.8612;
325.8000;1.0297;0.8586;
326.1000;1.0330;0.8484;
326.4000;1.0305;0.8408;
326.7000;1.0289;0.8357;
327.0000;1.0313;0.8331;
327.3000;1.0305;0.8357;
327.6000;1.0305;0.8382;
327.9000;1.0265;0.8382;
328.2000;1.0338;0.8612;
328.5000;1.0297;0.8510;
328.8000;1.0289;0.8561;
329.1000;1.0265;0.8433;
329.4000;1.0305;0.8586;
329.7000;1.0289;0.8612;
330.0000;1.0289;0.8561;
330.3000;1.0256;0.8484;
330.6000;1.0289;0.8561;
330.9000;1.0273;0.8459;
331.2000;1.0289;0.8433;
331.5000;1.0265;0.8459;
331.8000;1.0297;0.8510;
332.1000;1.0281;0.8535;
332.4000;1.0322;0.8713;
332.7000;1.0305;0.8790;
333.0000;1.0297;0.8815;
333.3000;1.0281;0.8739;
333.6000;1.0289;0.8790;
333.9000;1.0281;0.8662;
334.2000;1.0313;0.8713;
334.5000;1.0297;0.8739;
334.8000;1.0265;0.8561;
335.1000;1.0297;0.8662;
335.4000;1.0265;0.8535;
335.7000;1.0297;0.8688;
336.0000;1.0289;0.8637;
336.3000;1.0313;0.8561;
336.6000;1.0297;0.8561;
336.9000;1.0289;0.8561;
337.2000;1.0297;0.8662;
337.5000;1.0297;0.8637;
337.8000;1.0297;0.8637;
338.1000;1.0305;0.8612;
338.4000;1.0297;0.8662;
338.7000;1.0297;0.8713;
339.0000;1.0338;0.8790;
339.3000;1.0305;0.8739;
339.6000;1.0330;0.8790;
339.9000;1.0297;0.8662;
340.2000;1.0281;0.8586;
340.5000;1.0297;0.8586;
340.8000;1.0313;0.8612;
341.1000;1.0313;0.8535;
341.4000;1.0297;0.8510;
341.7000;1.0297;0.8433;
342.0000;1.0297;0.8561;
342.3000;1.0305;0.8586;
342.6000;1.0289;0.8535;
342.9000;1.0313;0.8764;
343.2000;1.0305;0.8790;
343.5000;1.0305;0.8739;
343.8000;1.0289;0.8637;
344.1000;1.0305;0.8612;
344.4000;1.0322;0.8688;
344.7000;1.0281;0.8637;
345.0000;1.0305;0.8764;
345.3000;1.0313;0.8892;
345.6000;1.0362;0.9070;
345.9000;1.0297;0.8841;
346.2000;1.0354;0.8968;
346.5000;1.0297;0.8739;
346.8000;1.0273;0.8713;
347.1000;1.0305;0.8790;
347.4000;1.0305;0.8739;
347.7000;1.0305;0.8790;
348.0000;1.0289;0.8739;
348.3000;1.0232;0.8713;
348.6000;1.0289;0.8841;
348.9000;1.0281;0.8815;
349.2000;1.0248;0.8662;
349.5000;1.0240;0.8484;
349.8000;1.0273;0.8510;
350.1000;1.0297;0.8612;
350.4000;1.0289;0.8586;
350.7000;1.0297;0.8662;
351.0000;1.0289;0.8739;
351.3000;1.0297;0.8764;
351.6000;1.0297;0.8713;
351.9000;1.0281;0.8561;
352.2000;1.0289;0.8612;
352.5000;1.0305;0.8612;
352.8000;1.0297;0.8535;
353.1000;1.0297;0.8535;
353.4000;1.0305;0.8561;
353.7000;1.0297;0.8535;
354.0000;1.0289;0.8612;
354.3000;1.0297;0.8739;
354.6000;1.0289;0.8815;
354.9000;1.0305;0.8841;
355.2000;1.0305;0.8815;
355.5000;1.0289;0.8739;
355.8000;1.0297;0.8688;
356.1000;1.0322;0.8815;
356.4000;1.0297;0.8815;
356.7000;1.0305;0.8790;
357.0000;1.0313;0.8688;
357.3000;1.0297;0.8637;
357.6000;1.0297;0.8586;
357.9000;1.0297;0.8637;
358.2000;1.0305;0.8713;
358.5000;1.0289;0.8815;
358.8000;1.0289;0.8815;
359.1000;1.0289;0.8739;
359.4000;1.0289;0.8790;
359.7000;1.0297;0.8790;
360.0000;1.0297;0.8764;
360.3000;1.0289;0.8815;
360.6000;1.0281;0.8815;
360.9000;1.0297;0.8815;
361.2000;1.0281;0.8841;
361.5000;1.0281;0.8841;
361.8000;1.0305;0.8841;
362.1000;1.0281;0.8866;
362.4000;1.0313;0.8866;
362.7000;1.0297;0.8790;
363.0000;1.0313;0.8866;
363.3000;1.0297;0.8892;
363.6000;1.0387;0.9096;
363.9000;1.0297;0.8841;
364.2000;1.0297;0.8713;
364.5000;1.0305;0.8739;
364.8000;1.0297;0.8790;
365.1000;1.0313;0.8739;
365.4000;1.0297;0.8713;
365.7000;1.0289;0.8688;
366.0000;1.0289;0.8612;
366.3000;1.0305;0.8612;
366.6000;1.0305;0.8713;
366.9000;1.0289;0.8739;
367.2000;1.0313;0.8943;
367.5000;1.0281;0.8892;
367.8000;1.0289;0.8892;
368.1000;1.0289;0.8866;
368.4000;1.0289;0.8917;
368.7000;1.0289;0.8968;
369.0000;1.0305;0.9070;
369.3000;1.0305;0.9045;
369.6000;1.0273;0.9019;
369.9000;1.0289;0.9019;
370.2000;1.0232;0.8866;
370.5000;1.0305;0.9019;
370.8000;1.0281;0.8968;
371.1000;1.0297;0.8917;
371.4000;1.0281;0.8917;
371.7000;1.0305;0.9019;
372.0000;1.0281;0.8892;
372.3000;1.0322;0.8866;
372.6000;1.0305;0.8764;
372.9000;1.0297;0.8841;
373.2000;1.0289;0.8866;
373.5000;1.0305;0.8841;
373.8000;1.0313;0.8892;
374.1000;1.0305;0.8841;
374.4000;1.0313;0.8892;
374.7000;1.0305;0.8790;
375.0000;1.0313;0.8764;
375.3000;1.0297;0.8713;
375.6000;1.0313;0.8815;
375.9000;1.0305;0.8815;
376.2000;1.0289;0.8815;
376.5000;1.0305;0.8917;
376.8000;1.0305;0.8892;
377.1000;1.0297;0.8943;
377.4000;1.0297;0.8968;
377.7000;1.0273;0.8994;
378.0000;1.0297;0.9019;
378.3000;1.0305;0.9070;
378.6000;1.0305;0.9045;
378.9000;1.0322;0.9096;
379.2000;1.0297;0.9019;
379.5000;1.0313;0.8994;
379.8000;1.0289;0.8841;
380.1000;1.0346;0.9045;
380.4000;1.0297;0.8943;
380.7000;1.0289;0.8968;
381.0000;1.0281;0.8866;
381.3000;1.0281;0.8917;
381.6000;1.0289;0.9019;
381.9000;1.0281;0.8968;
382.2000;1.0289;0.8968;
382.5000;1.0273;0.8917;
382.8000;1.0281;0.8866;
383.1000;1.0305;0.8790;
383.4000;1.0305;0.8713;
383.7000;1.0297;0.8637;
384.0000;1.0297;0.8535;
384.3000;1.0322;0.8535;
384.6000;1.0305;0.8586;
384.9000;1.0297;0.8637;
385.2000;1.0305;0.8739;
385.5000;1.0265;0.8688;
385.8000;1.0305;0.8739;
386.1000;1.0338;0.8790;
386.4000;1.0305;0.8713;
386.7000;1.0313;0.8739;
387.0000;1.0297;0.8790;
387.3000;1.0273;0.8662;
387.6000;1.0248;0.8612;
387.9000;1.0362;0.8815;
388.2000;1.0330;0.8815;
388.5000;1.0305;0.8764;
388.8000;1.0370;0.8892;
389.1000;1.0322;0.8713;
389.4000;1.0297;0.8688;
389.7000;1.0297;0.8764;
390.0000;1.0273;0.8637;
390.3000;1.0305;0.8662;
390.6000;1.0362;0.8790;
390.9000;1.0305;0.8688;
391.2000;1.0289;0.8688;
391.5000;1.0305;0.8790;
391.8000;1.0313;0.8815;
392.1000;1.0313;0.8917;
392.4000;1.0265;0.8764;
392.7000;1.0297;0.8790;
393.0000;1.0297;0.8739;
393.3000;1.0354;0.8841;
393.6000;1.0346;0.8917;
393.9000;1.0281;0.8739;
394.2000;1.0289;0.8713;
394.5000;1.0281;0.8586;
394.8000;1.0305;0.8688;
395.1000;1.0289;0.8739;
395.4000;1.0273;0.8764;
395.7000;1.0297;0.8764;
396.0000;1.0289;0.8739;
396.3000;1.0289;0.8713;
396.6000;1.0289;0.8713;
396.9000;1.0281;0.8662;
397.2000;1.0313;0.8764;
397.5000;1.0297;0.8739;
397.8000;1.0289;0.8688;
398.1000;1.0297;0.8739;
398.4000;1.0289;0.8790;
398.7000;1.0281;0.8739;
399.0000;1.0305;0.8637;
399.3000;1.0289;0.8561;
399.6000;1.0297;0.8535;
399.9000;1.0297;0.8561;
400.2000;1.0305;0.8535;
400.5000;1.0297;0.8484;
400.8000;1.0305;0.8459;
401.1000;1.0305;0.8586;
401.4000;1.0289;0.8561;
401.7000;1.0281;0.8612;
402.0000;1.0313;0.8688;
402.3000;1.0297;0.8790;
402.6000;1.0273;0.8790;
402.9000;1.0273;0.8764;
403.2000;1.0273;0.8841;
403.5000;1.0273;0.8815;
403.8000;1.0273;0.8688;
404.1000;1.0216;0.8586;
404.4000;1.0289;0.8739;
404.7000;1.0273;0.8713;
405.0000;1.0289;0.8815;
405.3000;1.0281;0.8866;
405.6000;1.0289;0.8917;
405.9000;1.0281;0.8917;
406.2000;1.0289;0.8917;
406.5000;1.0297;0.8841;
406.8000;1.0297;0.8815;
407.1000;1.0305;0.8713;
407.4000;1.0273;0.8713;
407.7000;1.0281;0.8713;
408.0000;1.0273;0.8713;
408.3000;1.0289;0.8713;
408.6000;1.0313;0.8790;
408.9000;1.0305;0.8764;
409.2000;1.0281;0.8662;
409.5000;1.0273;0.8662;
409.8000;1.0305;0.8841;
410.1000;1.0289;0.8739;
410.4000;1.0305;0.8739;
410.7000;1.0313;0.8764;
411.0000;1.0297;0.8662;
411.3000;1.0313;0.8713;
411.6000;1.0273;0.8612;
411.9000;1.0289;0.8662;
412.2000;1.0379;0.8866;
412.5000;1.0297;0.8637;
412.8000;1.0281;0.8612;
413.1000;1.0281;0.8688;
413.4000;1.0256;0.8510;
413.7000;1.0265;0.8535;
414.0000;1.0289;0.8586;
414.3000;1.0305;0.8612;
414.6000;1.0289;0.8561;
414.9000;1.0289;0.8561;
415.2000;1.0313;0.8637;
415.5000;1.0273;0.8612;
415.8000;1.0273;0.8612;
416.1000;1.0289;0.8688;
416.4000;1.0281;0.8662;
416.7000;1.0281;0.8637;
417.0000;1.0289;0.8586;
417.3000;1.0256;0.8561;
417.6000;1.0289;0.8662;
417.9000;1.0297;0.8764;
418.2000;1.0232;0.8510;
418.5000;1.0265;0.8612;
418.8000;1.0297;0.8612;
419.1000;1.0297;0.8713;
419.4000;1.0322;0.8713;
419.7000;1.0281;0.8688;
420.0000;1.0305;0.8739;
420.3000;1.0289;0.8713;
420.6000;1.0281;0.8662;
420.9000;1.0289;0.8662;
421.2000;1.0330;0.8815;
421.5000;1.0297;0.8790;
421.8000;1.0297;0.8815;
422.1000;1.0281;0.8866;
422.4000;1.0281;0.8841;
422.7000;1.0289;0.8790;
423.0000;1.0289;0.8815;
423.3000;1.0289;0.8815;
423.6000;1.0289;0.8764;
423.9000;1.0240;0.8561;
424.2000;1.0305;0.8612;
424.5000;1.0297;0.8688;
424.8000;1.0289;0.8637;
425.1000;1.0265;0.8586;
425.4000;1.0313;0.8739;
425.7000;1.0297;0.8662;
426.0000;1.0305;0.8637;
426.3000;1.0281;0.8739;
426.6000;1.0289;0.8790;
426.9000;1.0297;0.8713;
427.2000;1.0289;0.8688;
427.5000;1.0281;0.8612;
427.8000;1.0281;0.8662;
428.1000;1.0281;0.8586;
428.4000;1.0289;0.8535;
428.7000;1.0289;0.8459;
429.0000;1.0289;0.8408;
429.3000;1.0289;0.8484;
429.6000;1.0281;0.8510;
429.9000;1.0281;0.8612;
430.2000;1.0289;0.8662;
430.5000;1.0297;0.8713;
430.8000;1.0313;0.8790;
431.1000;1.0289;0.8815;
431.4000;1.0297;0.8739;
431.7000;1.0289;0.8764;
432.0000;1.0289;0.8841;
432.3000;1.0289;0.8790;
432.6000;1.0313;0.8841;
432.9000;1.0338;0.8815;
433.2000;1.0297;0.8586;
433.5000;1.0273;0.8586;
433.8000;1.0289;0.8612;
434.1000;1.0297;0.8586;
434.4000;1.0281;0.8586;
434.7000;1.0289;0.8535;
435.0000;1.0224;0.8357;
435.3000;1.0273;0.8535;
435.6000;1.0256;0.8459;
435.9000;1.0273;0.8433;
436.2000;1.0256;0.8357;
436.5000;1.0281;0.8510;
436.8000;1.0289;0.8459;
437.1000;1.0289;0.8484;
437.4000;1.0281;0.8331;
437.7000;1.0289;0.8357;
438.0000;1.0289;0.8331;
438.3000;1.0273;0.8255;
438.6000;1.0281;0.8280;
438.9000;1.0289;0.8280;
439.2000;1.0265;0.8331;
439.5000;1.0313;0.8433;
439.8000;1.0273;0.8331;
440.1000;1.0256;0.8331;
440.4000;1.0289;0.8484;
440.7000;1.0281;0.8510;
441.0000;1.0273;0.8510;
441.3000;1.0281;0.8561;
441.6000;1.0273;0.8688;
441.9000;1.0281;0.8688;
442.2000;1.0224;0.8459;
442.5000;1.0265;0.8586;
442.8000;1.0273;0.8510;
443.1000;1.0297;0.8535;
443.4000;1.0289;0.8586;
443.7000;1.0313;0.8637;
444.0000;1.0305;0.8586;
444.3000;1.0273;0.8459;
444.6000;1.0289;0.8459;
444.9000;1.0281;0.8535;
445.2000;1.0265;0.8561;
445.5000;1.0281;0.8637;
445.8000;1.0289;0.8637;
446.1000;1.0297;0.8561;
446.4000;1.0281;0.8484;
446.7000;1.0305;0.8612;
447.0000;1.0297;0.8662;
447.3000;1.0297;0.8612;
447.6000;1.0281;0.8637;
447.9000;1.0289;0.8637;
448.2000;1.0281;0.8561;
448.5000;1.0289;0.8561;
448.8000;1.0281;0.8510;
449.1000;1.0273;0.8510;
449.4000;1.0305;0.8662;
449.7000;1.0289;0.8637;
450.0000;1.0265;0.8612;
450.3000;1.0289;0.8662;
450.6000;1.0297;0.8739;
450.9000;1.0256;0.8739;
451.2000;1.0322;0.8764;
451.5000;1.0297;0.8688;
451.8000;1.0281;0.8612;
452.1000;1.0289;0.8688;
452.4000;1.0297;0.8790;
452.7000;1.0273;0.8739;
453.0000;1.0265;0.8662;
453.3000;1.0289;0.8790;
453.6000;1.0281;0.8764;
453.9000;1.0273;0.8815;
454.2000;1.0281;0.8892;
454.5000;1.0273;0.8815;
454.8000;1.0265;0.8815;
455.1000;1.0281;0.8892;
455.4000;1.0297;0.8866;
455.7000;1.0289;0.8764;
456.0000;1.0281;0.8815;
456.3000;1.0289;0.8866;
456.6000;1.0265;0.8841;
456.9000;1.0265;0.8815;
457.2000;1.0265;0.8815;
457.5000;1.0273;0.8815;
457.8000;1.0273;0.8713;
458.1000;1.0224;0.8535;
458.4000;1.0256;0.8586;
458.7000;1.0273;0.8637;
459.0000;1.0289;0.8637;
459.3000;1.0297;0.8586;
459.6000;1.0297;0.8612;
459.9000;1.0297;0.8612;
460.2000;1.0289;0.8637;
460.5000;1.0281;0.8662;
460.8000;1.0297;0.8815;
461.1000;1.0297;0.8790;
461.4000;1.0281;0.8764;
461.7000;1.0305;0.8790;
462.0000;1.0297;0.8815;
462.3000;1.0297;0.8841;
462.6000;1.0256;0.8739;
462.9000;1.0289;0.8866;
463.2000;1.0281;0.8815;
463.5000;1.0281;0.8815;
463.8000;1.0289;0.8790;
464.1000;1.0289;0.8815;
464.4000;1.0297;0.8739;
464.7000;1.0305;0.8764;
465.0000;1.0297;0.8637;
465.3000;1.0281;0.8561;
465.6000;1.0289;0.8612;
465.9000;1.0273;0.8510;
466.2000;1.0289;0.8713;
466.5000;1.0281;0.8612;
466.8000;1.0232;0.8459;
467.1000;1.0313;0.8790;
467.4000;1.0305;0.8764;
467.7000;1.0289;0.8688;
468.0000;1.0297;0.8637;
468.3000;1.0379;0.8917;
468.6000;1.0297;0.8713;
468.9000;1.0281;0.8790;
469.2000;1.0289;0.8764;
469.5000;1.0273;0.8764;
469.8000;1.0256;0.8688;
470.1000;1.0273;0.8713;
470.4000;1.0273;0.8612;
470.7000;1.0281;0.8713;
471.0000;1.0305;0.8713;
471.3000;1.0281;0.8637;
471.6000;1.0273;0.8612;
471.9000;1.0248;0.8612;
472.2000;1.0289;0.8739;
472.5000;1.0297;0.8688;
472.8000;1.0281;0.8713;
473.1000;1.0273;0.8713;
473.4000;1.0265;0.8713;
473.7000;1.0297;0.8764;
474.0000;1.0273;0.8662;
474.3000;1.0289;0.8688;
474.6000;1.0281;0.8713;
474.9000;1.0305;0.8688;
475.2000;1.0289;0.8662;
475.5000;1.0281;0.8612;
475.8000;1.0265;0.8637;
476.1000;1.0289;0.8790;
476.4000;1.0289;0.8790;
476.7000;1.0273;0.8790;
477.0000;1.0265;0.8841;
477.3000;1.0265;0.8866;
477.6000;1.0273;0.8841;
477.9000;1.0289;0.8841;
478.2000;1.0281;0.8892;
478.5000;1.0281;0.8917;
478.8000;1.0297;0.8892;
479.1000;1.0240;0.8637;
479.4000;1.0313;0.8764;
479.7000;1.0273;0.8688;
480.0000;1.0265;0.8739;
480.3000;1.0289;0.8790;
480.6000;1.0273;0.8662;
480.9000;1.0273;0.8586;
481.2000;1.0305;0.8637;
481.5000;1.0289;0.8637;
481.8000;1.0289;0.8612;
482.1000;1.0273;0.8586;
482.4000;1.0289;0.8662;
482.7000;1.0313;0.8688;
483.0000;1.0289;0.8612;
483.3000;1.0273;0.8561;
483.6000;1.0256;0.8408;
483.9000;1.0297;0.8561;
484.2000;1.0281;0.8459;
484.5000;1.0273;0.8484;
484.8000;1.0281;0.8484;
485.1000;1.0297;0.8586;
485.4000;1.0313;0.8764;
485.7000;1.0305;0.8764;
486.0000;1.0273;0.8713;
486.3000;1.0289;0.8637;
486.6000;1.0289;0.8662;
486.9000;1.0289;0.8790;
487.2000;1.0313;0.8892;
487.5000;1.0297;0.8841;
487.8000;1.0281;0.8841;
488.1000;1.0281;0.8688;
488.4000;1.0240;0.8535;
488.7000;1.0289;0.8739;
489.0000;1.0281;0.8815;
489.3000;1.0370;0.8968;
489.6000;1.0273;0.8662;
489.9000;1.0265;0.8688;
490.2000;1.0289;0.8866;
490.5000;1.0281;0.8815;
490.8000;1.0289;0.8790;
491.1000;1.0273;0.8815;
491.4000;1.0273;0.8815;
491.7000;1.0240;0.8764;
492.0000;1.0281;0.8815;
492.3000;1.0273;0.8790;
492.6000;1.0289;0.8790;
492.9000;1.0281;0.8917;
493.2000;1.0265;0.8841;
493.5000;1.0281;0.8841;
493.8000;1.0265;0.8892;
494.1000;1.0305;0.8917;
494.4000;1.0289;0.8764;
494.7000;1.0281;0.8637;
495.0000;1.0313;0.8688;
495.3000;1.0281;0.8637;
495.6000;1.0281;0.8790;
495.9000;1.0273;0.8841;
496.2000;1.0273;0.8866;
496.5000;1.0289;0.8815;
496.8000;1.0289;0.8790;
497.1000;1.0273;0.8713;
497.4000;1.0281;0.8739;
497.7000;1.0273;0.8688;
498.0000;1.0289;0.8841;
498.3000;1.0281;0.8790;
498.6000;1.0281;0.8815;
498.9000;1.0297;0.8841;
499.2000;1.0297;0.8764;
499.5000;1.0289;0.8662;
499.8000;1.0256;0.8612;
500.1000;1.0289;0.8764;
500.4000;1.0248;0.8662;
500.7000;1.0281;0.8662;
501.0000;1.0346;0.8764;
501.3000;1.0297;0.8612;
501.6000;1.0297;0.8637;
501.9000;1.0216;0.8433;
502.2000;1.0313;0.8713;
502.5000;1.0265;0.8662;
502.8000;1.0281;0.8739;
503.1000;1.0281;0.8688;
503.4000;1.0256;0.8662;
503.7000;1.0273;0.8586;
504.0000;1.0289;0.8586;
504.3000;1.0289;0.8688;
504.6000;1.0265;0.8713;
504.9000;1.0281;0.8739;
505.2000;1.0354;0.8815;
505.5000;1.0289;0.8662;
505.8000;1.0273;0.8612;
506.1000;1.0313;0.8764;
506.4000;1.0346;0.8866;
506.7000;1.0273;0.8637;
507.0000;1.0273;0.8662;
507.3000;1.0273;0.8612;
507.6000;1.0289;0.8586;
507.9000;1.0338;0.8739;
508.2000;1.0297;0.8688;
508.5000;1.0273;0.8612;
508.8000;1.0281;0.8561;
509.1000;1.0273;0.8561;
509.4000;1.0256;0.8433;
509.7000;1.0273;0.8510;
510.0000;1.0265;0.8459;
510.3000;1.0273;0.8561;
510.6000;1.0281;0.8561;
510.9000;1.0281;0.8561;
511.2000;1.0289;0.8484;
511.5000;1.0273;0.8459;
511.8000;1.0281;0.8510;
512.1000;1.0297;0.8561;
512.4000;1.0281;0.8561;
512.7000;1.0281;0.8510;
513.0000;1.0330;0.8612;
513.3000;1.0305;0.8561;
513.6000;1.0289;0.8510;
513.9000;1.0265;0.8510;
514.2000;1.0281;0.8561;
514.5000;1.0297;0.8688;
514.8000;1.0281;0.8586;
515.1000;1.0281;0.8612;
515.4000;1.0281;0.8612;
515.7000;1.0289;0.8739;
516.0000;1.0289;0.8815;
516.3000;1.0281;0.8764;
516.6000;1.0273;0.8764;
516.9000;1.0265;0.8764;
517.2000;1.0256;0.8688;
517.5000;1.0273;0.8790;
517.8000;1.0248;0.8790;
518.1000;1.0281;0.8943;
518.4000;1.0281;0.8917;
518.7000;1.0281;0.8892;
519.0000;1.0265;0.8841;
519.3000;1.0265;0.8841;
519.6000;1.0265;0.8764;
519.9000;1.0208;0.8586;
520.2000;1.0256;0.8713;
520.5000;1.0256;0.8790;
520.8000;1.0281;0.8866;
521.1000;1.0297;0.8892;
521.4000;1.0273;0.8866;
521.7000;1.0273;0.8892;
522.0000;1.0273;0.8917;
522.3000;1.0289;0.8943;
522.6000;1.0289;0.8892;
522.9000;1.0289;0.8841;
523.2000;1.0273;0.8866;
523.5000;1.0273;0.8917;
523.8000;1.0265;0.8841;
524.1000;1.0265;0.8790;
524.4000;1.0289;0.8739;
524.7000;1.0265;0.8739;
525.0000;1.0256;0.8688;
525.3000;1.0256;0.8662;
525.6000;1.0273;0.8713;
525.9000;1.0265;0.8662;
526.2000;1.0281;0.8764;
526.5000;1.0265;0.8739;
526.8000;1.0256;0.8713;
527.1000;1.0289;0.8764;
527.4000;1.0281;0.8790;
527.7000;1.0289;0.8790;
528.0000;1.0208;0.8612;
528.3000;1.0346;0.8892;
528.6000;1.0297;0.8790;
528.9000;1.0297;0.8790;
529.2000;1.0330;0.9019;
529.5000;1.0281;0.8892;
529.8000;1.0273;0.8968;
530.1000;1.0265;0.8943;
530.4000;1.0256;0.8815;
530.7000;1.0256;0.8790;
531.0000;1.0265;0.8841;
531.3000;1.0265;0.8866;
531.6000;1.0273;0.8892;
531.9000;1.0265;0.8892;
532.2000;1.0265;0.8866;
532.5000;1.0273;0.8917;
532.8000;1.0289;0.8968;
533.1000;1.0281;0.8943;
533.4000;1.0281;0.8866;
533.7000;1.0289;0.8815;
534.0000;1.0273;0.8764;
534.3000;1.0387;0.9096;
534.6000;1.0289;0.8815;
534.9000;1.0281;0.8815;
535.2000;1.0256;0.8662;
535.5000;1.0248;0.8612;
535.8000;1.0248;0.8713;
536.1000;1.0281;0.8815;
536.4000;1.0265;0.8815;
536.7000;1.0273;0.8866;
537.0000;1.0248;0.8790;
537.3000;1.0289;0.8790;
537.6000;1.0281;0.8739;
537.9000;1.0281;0.8637;
538.2000;1.0256;0.8484;
538.5000;1.0273;0.8510;
538.8000;1.0346;0.8688;
539.1000;1.0297;0.8637;
539.4000;1.0256;0.8612;
539.7000;1.0265;0.8662;
540.0000;1.0273;0.8713;
540.3000;1.0265;0.8688;
540.6000;1.0256;0.8662;
540.9000;1.0265;0.8662;
541.2000;1.0313;0.8790;
541.5000;1.0281;0.8662;
541.8000;1.0281;0.8662;
542.1000;1.0281;0.8764;
542.4000;1.0297;0.8764;
542.7000;1.0273;0.8713;
543.0000;1.0248;0.8637;
543.3000;1.0273;0.8688;
543.6000;1.0289;0.8790;
543.9000;1.0256;0.8688;
544.2000;1.0289;0.8739;
544.5000;1.0281;0.8612;
544.8000;1.0313;0.8764;
545.1000;1.0265;0.8688;
545.4000;1.0256;0.8637;
545.7000;1.0256;0.8688;
546.0000;1.0265;0.8764;
546.3000;1.0281;0.8866;
546.6000;1.0322;0.9070;
546.9000;1.0281;0.8866;
547.2000;1.0289;0.8841;
547.5000;1.0273;0.8790;
547.8000;1.0289;0.8790;
548.1000;1.0289;0.8739;
548.4000;1.0265;0.8713;
548.7000;1.0273;0.8764;
549.0000;1.0273;0.8841;
549.3000;1.0273;0.8892;
549.6000;1.0256;0.8943;
549.9000;1.0281;0.8943;
550.2000;1.0289;0.9019;
550.5000;1.0256;0.8994;
550.8000;1.0313;0.9070;
551.1000;1.0273;0.8917;
551.4000;1.0289;0.8815;
551.7000;1.0297;0.8892;
552.0000;1.0273;0.8892;
552.3000;1.0256;0.8892;
552.6000;1.0273;0.8943;
552.9000;1.0273;0.8943;
553.2000;1.0256;0.9019;
553.5000;1.0265;0.8994;
553.8000;1.0265;0.8994;
554.1000;1.0289;0.8943;
554.4000;1.0256;0.8764;
554.7000;1.0265;0.8637;
555.0000;1.0256;0.8586;
555.3000;1.0256;0.8688;
555.6000;1.0265;0.8688;
555.9000;1.0281;0.8790;
556.2000;1.0248;0.8713;
556.5000;1.0273;0.8713;
556.8000;1.0256;0.8739;
557.1000;1.0297;0.8815;
557.4000;1.0273;0.8815;
557.7000;1.0273;0.8892;
558.0000;1.0281;0.8968;
558.3000;1.0289;0.8943;
558.6000;1.0273;0.8815;
558.9000;1.0216;0.8739;
559.2000;1.0208;0.8739;
559.5000;1.0256;0.8892;
559.8000;1.0273;0.8892;
560.1000;1.0281;0.8892;
560.4000;1.0313;0.8994;
560.7000;1.0273;0.8968;
561.0000;1.0248;0.8943;
561.3000;1.0273;0.8994;
561.6000;1.0256;0.8892;
561.9000;1.0289;0.8866;
562.2000;1.0281;0.8790;
562.5000;1.0256;0.8739;
562.8000;1.0273;0.8815;
563.1000;1.0289;0.8943;
563.4000;1.0273;0.8866;
563.7000;1.0273;0.8713;
564.0000;1.0265;0.8739;
564.3000;1.0256;0.8739;
564.6000;1.0256;0.8841;
564.9000;1.0232;0.8790;
565.2000;1.0256;0.8815;
565.5000;1.0248;0.8841;
565.8000;1.0265;0.8892;
566.1000;1.0256;0.8790;
566.4000;1.0273;0.8764;
566.7000;1.0273;0.8790;
567.0000;1.0273;0.8866;
567.3000;1.0273;0.8790;
567.6000;1.0273;0.8713;
567.9000;1.0248;0.8739;
568.2000;1.0273;0.8866;
568.5000;1.0281;0.8943;
568.8000;1.0265;0.8892;
569.1000;1.0273;0.8866;
569.4000;1.0281;0.8866;
569.7000;1.0281;0.8917;
570.0000;1.0281;0.8943;
570.3000;1.0289;0.8866;
570.6000;1.0289;0.8866;
570.9000;1.0273;0.8815;
571.2000;1.0265;0.8790;
571.5000;1.0265;0.8892;
571.8000;1.0273;0.8892;
572.1000;1.0240;0.8815;
572.4000;1.0305;0.8994;
572.7000;1.0265;0.8994;
573.0000;1.0273;0.8994;
573.3000;1.0289;0.9045;
573.6000;1.0273;0.9019;
573.9000;1.0273;0.9019;
574.2000;1.0289;0.9019;
574.5000;1.0273;0.8994;
574.8000;1.0265;0.8968;
575.1000;1.0199;0.8815;
575.4000;1.0265;0.8994;
575.7000;1.0297;0.9019;
576.0000;1.0313;0.8994;
576.3000;1.0256;0.8866;
576.6000;1.0265;0.8994;
576.9000;1.0273;0.9019;
577.2000;1.0305;0.9172;
577.5000;1.0248;0.8892;
577.8000;1.0248;0.8739;
578.1000;1.0265;0.8815;
578.4000;1.0265;0.8892;
578.7000;1.0265;0.8841;
579.0000;1.0265;0.8866;
579.3000;1.0240;0.8790;
579.6000;1.0232;0.8764;
579.9000;1.0322;0.8968;
580.2000;1.0281;0.8841;
580.5000;1.0265;0.8688;
580.8000;1.0265;0.8612;
581.1000;1.0265;0.8561;
581.4000;1.0265;0.8535;
581.7000;1.0281;0.8612;
582.0000;1.0265;0.8561;
582.3000;1.0208;0.8459;
582.6000;1.0305;0.8612;
582.9000;1.0265;0.8612;
583.2000;1.0273;0.8612;
583.5000;1.0265;0.8637;
583.8000;1.0273;0.8612;
584.1000;1.0265;0.8561;
584.4000;1.0273;0.8586;
584.7000;1.0273;0.8612;
585.0000;1.0256;0.8713;
585.3000;1.0281;0.8790;
585.6000;1.0256;0.8841;
585.9000;1.0273;0.8943;
586.2000;1.0273;0.8968;
586.5000;1.0265;0.8892;
586.8000;1.0281;0.8866;
587.1000;1.0273;0.8968;
587.4000;1.0265;0.8994;
587.7000;1.0273;0.8892;
588.0000;1.0273;0.8917;
588.3000;1.0273;0.8892;
588.6000;1.0281;0.8994;
588.9000;1.0248;0.8917;
589.2000;1.0289;0.8943;
589.5000;1.0281;0.8790;
589.8000;1.0273;0.8790;
590.1000;1.0281;0.8841;
590.4000;1.0265;0.8917;
590.7000;1.0273;0.8866;
591.0000;1.0289;0.8841;
591.3000;1.0265;0.8790;
591.6000;1.0265;0.8866;
591.9000;1.0256;0.8866;
592.2000;1.0273;0.8866;
592.5000;1.0256;0.8841;
592.8000;1.0256;0.8815;
593.1000;1.0208;0.8688;
593.4000;1.0273;0.8841;
593.7000;1.0265;0.8866;
594.0000;1.0273;0.8815;
594.3000;1.0273;0.8790;
594.6000;1.0256;0.8841;
594.9000;1.0281;0.8841;
595.2000;1.0289;0.8866;
595.5000;1.0273;0.8790;
595.8000;1.0289;0.8892;
596.1000;1.0322;0.9019;
596.4000;1.0281;0.8892;
596.7000;1.0273;0.8764;
597.0000;1.0265;0.8790;
597.3000;1.0273;0.8790;
597.6000;1.0289;0.8764;
597.9000;1.0305;0.8866;
598.2000;1.0256;0.8764;
598.5000;1.0281;0.8739;
598.8000;1.0387;0.8968;
599.1000;1.0281;0.8739;
599.4000;1.0273;0.8764;
599.7000;1.0322;0.8968;
600.0000;1.0330;0.9070;
600.3000;1.0289;0.8841;
600.6000;1.0232;0.8433;
600.9000;1.0232;0.8357;
601.2000;1.0167;0.8127;
601.5000;1.0028;0.7745;
601.8000;1.0020;0.7771;
602.1000;0.9947;0.7643;
602.4000;0.9841;0.7516;
602.7000;0.9792;0.7414;
603.0000;0.9711;0.7363;
603.3000;0.9646;0.7185;
603.6000;0.9605;0.7057;
603.9000;0.9581;0.7006;
604.2000;0.9499;0.6905;
604.5000;0.9532;0.7032;
604.8000;0.9434;0.6828;
605.1000;0.9369;0.6828;
605.4000;0.9304;0.6650;
605.7000;0.9255;0.6573;
606.0000;0.9206;0.6446;
606.3000;0.9158;0.6522;
606.6000;0.9133;0.6471;
606.9000;0.9084;0.6293;
607.2000;0.9060;0.6293;
607.5000;0.9019;0.6268;
607.8000;0.8995;0.6319;
608.1000;0.8954;0.6268;
608.4000;0.8856;0.6013;
608.7000;0.8889;0.6089;
609.0000;0.8881;0.6064;
609.3000;0.8832;0.6064;
609.6000;0.8807;0.6013;
609.9000;0.8783;0.6064;
610.2000;0.8767;0.6064;
610.5000;0.8742;0.6013;
610.8000;0.8726;0.5987;
611.1000;0.8677;0.5962;
611.4000;0.8669;0.6013;
611.7000;0.8653;0.6064;
612.0000;0.8620;0.6140;
612.3000;0.8604;0.6140;
612.6000;0.8588;0.6115;
612.9000;0.8596;0.6115;
613.2000;0.8539;0.5936;
613.5000;0.8514;0.5962;
613.8000;0.8523;0.5987;
614.1000;0.8498;0.5987;
614.4000;0.8474;0.5987;
614.7000;0.8466;0.5987;
615.0000;0.8409;0.5911;
615.3000;0.8417;0.5962;
615.6000;0.8400;0.5962;
615.9000;0.8368;0.5834;
616.2000;0.8352;0.5860;
616.5000;0.8335;0.5783;
616.8000;0.8335;0.5834;
617.1000;0.8311;0.5733;
617.4000;0.8287;0.5733;
617.7000;0.8262;0.5707;
618.0000;0.8270;0.5733;
618.3000;0.8254;0.5783;
618.6000;0.8221;0.5783;
618.9000;0.8205;0.5758;
619.2000;0.8238;0.5860;
619.5000;0.8197;0.5783;
619.8000;0.8189;0.5834;
620.1000;0.8156;0.5834;
620.4000;0.8156;0.5783;
620.7000;0.8156;0.5809;
621.0000;0.8156;0.5758;
621.3000;0.8124;0.5783;
621.6000;0.8107;0.5783;
621.9000;0.8059;0.5707;
622.2000;0.8091;0.5809;
622.5000;0.8140;0.5987;
622.8000;0.8026;0.5580;
623.1000;0.8059;0.5631;
623.4000;0.7977;0.5503;
623.7000;0.8050;0.5682;
624.0000;0.8042;0.5733;
624.3000;0.8034;0.5758;
624.6000;0.8042;0.5783;
624.9000;0.8010;0.5758;
625.2000;0.8002;0.5783;
625.5000;0.7993;0.5834;
625.8000;0.7904;0.5631;
626.1000;0.7961;0.5758;
626.4000;0.7953;0.5682;
626.7000;0.7969;0.5656;
627.0000;0.7937;0.5605;
627.3000;0.7945;0.5503;
627.6000;0.7904;0.5452;
627.9000;0.7896;0.5452;
628.2000;0.7912;0.5452;
628.5000;0.7896;0.5529;
628.8000;0.7904;0.5503;
629.1000;0.7880;0.5503;
629.4000;0.7888;0.5580;
629.7000;0.7863;0.5478;
630.0000;0.7863;0.5350;
630.3000;0.7855;0.5350;
630.6000;0.7863;0.5452;
630.9000;0.7831;0.5478;
631.2000;0.7814;0.5529;
631.5000;0.7806;0.5605;
631.8000;0.7806;0.5503;
632.1000;0.7798;0.5529;
632.4000;0.7790;0.5605;
632.7000;0.7790;0.5656;
633.0000;0.7782;0.5529;
633.3000;0.7774;0.5503;
633.6000;0.7774;0.5529;
633.9000;0.7741;0.5529;
634.2000;0.7749;0.5529;
634.5000;0.7741;0.5503;
634.8000;0.7733;0.5605;
635.1000;0.7733;0.5631;
635.4000;0.7717;0.5605;
635.7000;0.7733;0.5682;
636.0000;0.7676;0.5580;
636.3000;0.7692;0.5580;
636.6000;0.7684;0.5580;
636.9000;0.7692;0.5682;
637.2000;0.7700;0.5758;
637.5000;0.7676;0.5631;
637.8000;0.7660;0.5554;
638.1000;0.7668;0.5478;
638.4000;0.7660;0.5478;
638.7000;0.7660;0.5401;
639.0000;0.7652;0.5325;
639.3000;0.7635;0.5503;
639.6000;0.7635;0.5452;
639.9000;0.7635;0.5503;
640.2000;0.7627;0.5605;
640.5000;0.7635;0.5707;
640.8000;0.7603;0.5631;
641.1000;0.7619;0.5580;
641.4000;0.7595;0.5554;
641.7000;0.7578;0.5503;
642.0000;0.7586;0.5503;
642.3000;0.7586;0.5452;
642.6000;0.7578;0.5350;
642.9000;0.7578;0.5350;
643.2000;0.7578;0.5427;
643.5000;0.7578;0.5452;
643.8000;0.7554;0.5427;
644.1000;0.7546;0.5401;
644.4000;0.7546;0.5401;
644.7000;0.7538;0.5554;
645.0000;0.7513;0.5529;
645.3000;0.7464;0.5401;
645.6000;0.7554;0.5631;
645.9000;0.7513;0.5656;
646.2000;0.7513;0.5605;
646.5000;0.7489;0.5631;
646.8000;0.7456;0.5580;
647.1000;0.7513;0.5656;
647.4000;0.7521;0.5682;
647.7000;0.7497;0.5605;
648.0000;0.7489;0.5554;
648.3000;0.7464;0.5427;
648.6000;0.7473;0.5452;
648.9000;0.7464;0.5401;
649.2000;0.7513;0.5554;
649.5000;0.7456;0.5478;
649.8000;0.7464;0.5580;
650.1000;0.7416;0.5478;
650.4000;0.7513;0.5758;
650.7000;0.7464;0.5580;
651.0000;0.7448;0.5656;
651.3000;0.7440;0.5631;
651.6000;0.7440;0.5580;
651.9000;0.7407;0.5503;
652.2000;0.7416;0.5452;
652.5000;0.7399;0.5503;
652.8000;0.7391;0.5452;
653.1000;0.7416;0.5503;
653.4000;0.7391;0.5554;
653.7000;0.7416;0.5580;
654.0000;0.7399;0.5529;
654.3000;0.7383;0.5478;
654.6000;0.7383;0.5452;
654.9000;0.7383;0.5478;
655.2000;0.7383;0.5529;
655.5000;0.7359;0.5452;
655.8000;0.7367;0.5529;
656.1000;0.7367;0.5580;
656.4000;0.7383;0.5631;
656.7000;0.7391;0.5631;
657.0000;0.7367;0.5631;
657.3000;0.7350;0.5656;
657.6000;0.7359;0.5682;
657.9000;0.7342;0.5631;
658.2000;0.7326;0.5529;
658.5000;0.7334;0.5554;
658.8000;0.7342;0.5529;
659.1000;0.7293;0.5452;
659.4000;0.7318;0.5529;
659.7000;0.7318;0.5427;
660.0000;0.7407;0.5631;
660.3000;0.7326;0.5478;
660.6000;0.7334;0.5631;
660.9000;0.7302;0.5656;
661.2000;0.7318;0.5605;
661.5000;0.7310;0.5580;
661.8000;0.7302;0.5605;
662.1000;0.7285;0.5580;
662.4000;0.7285;0.5631;
662.7000;0.7293;0.5631;
663.0000;0.7293;0.5580;
663.3000;0.7277;0.5605;
663.6000;0.7285;0.5503;
663.9000;0.7293;0.5503;
664.2000;0.7245;0.5427;
664.5000;0.7261;0.5452;
664.8000;0.7253;0.5478;
665.1000;0.7261;0.5452;
665.4000;0.7253;0.5427;
665.7000;0.7261;0.5427;
666.0000;0.7196;0.5325;
666.3000;0.7293;0.5631;
666.6000;0.7253;0.5503;
666.9000;0.7236;0.5529;
667.2000;0.7179;0.5401;
667.5000;0.7228;0.5529;
667.8000;0.7285;0.5656;
668.1000;0.7236;0.5554;
668.4000;0.7196;0.5478;
668.7000;0.7245;0.5554;
669.0000;0.7236;0.5631;
669.3000;0.7220;0.5580;
669.6000;0.7220;0.5631;
669.9000;0.7204;0.5631;
670.2000;0.7212;0.5682;
670.5000;0.7147;0.5529;
670.8000;0.7188;0.5682;
671.1000;0.7220;0.5783;
671.4000;0.7155;0.5656;
671.7000;0.7188;0.5707;
672.0000;0.7179;0.5580;
672.3000;0.7171;0.5580;
672.6000;0.7204;0.5631;
672.9000;0.7179;0.5707;
673.2000;0.7179;0.5733;
673.5000;0.7155;0.5758;
673.8000;0.7163;0.5758;
674.1000;0.7188;0.5834;
674.4000;0.7179;0.5860;
674.7000;0.7147;0.5809;
675.0000;0.7171;0.5809;
675.3000;0.7114;0.5783;
675.6000;0.7139;0.5783;
675.9000;0.7155;0.5707;
676.2000;0.7114;0.5554;
676.5000;0.7131;0.5631;
676.8000;0.7123;0.5554;
677.1000;0.7171;0.5758;
677.4000;0.7131;0.5682;
677.7000;0.7123;0.5682;
678.0000;0.7139;0.5631;
678.3000;0.7123;0.5580;
678.6000;0.7131;0.5605;
678.9000;0.7123;0.5707;
679.2000;0.7139;0.5783;
679.5000;0.7106;0.5733;
679.8000;0.7106;0.5834;
680.1000;0.7106;0.5733;
680.4000;0.7123;0.5656;
680.7000;0.7106;0.5580;
681.0000;0.7098;0.5529;
681.3000;0.7106;0.5529;
681.6000;0.7090;0.5554;
681.9000;0.7066;0.5427;
682.2000;0.7074;0.5529;
682.5000;0.7082;0.5503;
682.8000;0.7082;0.5554;
683.1000;0.7074;0.5554;
683.4000;0.7074;0.5503;
683.7000;0.7066;0.5478;
684.0000;0.7098;0.5605;
684.3000;0.7098;0.5580;
684.6000;0.7090;0.5580;
684.9000;0.7057;0.5554;
685.2000;0.7074;0.5656;
685.5000;0.7090;0.5758;
685.8000;0.7090;0.5758;
686.1000;0.7066;0.5631;
686.4000;0.7033;0.5554;
686.7000;0.7066;0.5580;
687.0000;0.7057;0.5503;
687.3000;0.7057;0.5554;
687.6000;0.7057;0.5529;
687.9000;0.7049;0.5580;
688.2000;0.7090;0.5682;
688.5000;0.7017;0.5452;
688.8000;0.7033;0.5554;
689.1000;0.7049;0.5656;
689.4000;0.7033;0.5682;
689.7000;0.7033;0.5707;
690.0000;0.7000;0.5707;
690.3000;0.7000;0.5809;
690.6000;0.7017;0.5809;
690.9000;0.7025;0.5834;
691.2000;0.7009;0.5707;
691.5000;0.7017;0.5707;
691.8000;0.7000;0.5682;
692.1000;0.7049;0.5809;
692.4000;0.7049;0.5733;
692.7000;0.7082;0.5758;
693.0000;0.7033;0.5656;
693.3000;0.7000;0.5631;
693.6000;0.6968;0.5529;
693.9000;0.7000;0.5580;
694.2000;0.6984;0.5554;
694.5000;0.7009;0.5580;
694.8000;0.6992;0.5529;
695.1000;0.7009;0.5529;
695.4000;0.6992;0.5580;
695.7000;0.6960;0.5631;
696.0000;0.6984;0.5631;
696.3000;0.7025;0.5682;
696.6000;0.6984;0.5529;
696.9000;0.6976;0.5554;
697.2000;0.6976;0.5529;
697.5000;0.6992;0.5554;
697.8000;0.6976;0.5503;
698.1000;0.6952;0.5401;
698.4000;0.6976;0.5554;
698.7000;0.6976;0.5554;
699.0000;0.6952;0.5503;
699.3000;0.6952;0.5580;
699.6000;0.6935;0.5529;
699.9000;0.6943;0.5580;
700.2000;0.6960;0.5707;
700.5000;0.6960;0.5631;
700.8000;0.6968;0.5554;
701.1000;0.6952;0.5503;
701.4000;0.6968;0.5529;
701.7000;0.6886;0.5274;
702.0000;0.6952;0.5452;
702.3000;0.6943;0.5350;
702.6000;0.6935;0.5299;
702.9000;0.6935;0.5325;
703.2000;0.6952;0.5350;
703.5000;0.6935;0.5274;
703.8000;0.6935;0.5299;
704.1000;0.6878;0.5248;
704.4000;0.6943;0.5376;
704.7000;0.6935;0.5401;
705.0000;0.6935;0.5376;
705.3000;0.6968;0.5452;
705.6000;0.6935;0.5478;
705.9000;0.6935;0.5580;
706.2000;0.6927;0.5580;
706.5000;0.6911;0.5605;
706.8000;0.6919;0.5631;
707.1000;0.6854;0.5478;
707.4000;0.6943;0.5707;
707.7000;0.6903;0.5682;
708.0000;0.6935;0.5885;
708.3000;0.6919;0.5758;
708.6000;0.6903;0.5605;
708.9000;0.6895;0.5503;
709.2000;0.6911;0.5529;
709.5000;0.6895;0.5452;
709.8000;0.6911;0.5503;
710.1000;0.6895;0.5529;
710.4000;0.6895;0.5580;
710.7000;0.6895;0.5605;
711.0000;0.6886;0.5503;
711.3000;0.6952;0.5707;
711.6000;0.6903;0.5554;
711.9000;0.6870;0.5580;
712.2000;0.6919;0.5605;
712.5000;0.6895;0.5580;
712.8000;0.6895;0.5605;
713.1000;0.6870;0.5580;
713.4000;0.6878;0.5605;
713.7000;0.6878;0.5707;
714.0000;0.6846;0.5656;
714.3000;0.6878;0.5733;
714.6000;0.6854;0.5707;
714.9000;0.6862;0.5707;
715.2000;0.6854;0.5580;
715.5000;0.6903;0.5733;
715.8000;0.6870;0.5580;
716.1000;0.6870;0.5478;
716.4000;0.6886;0.5401;
716.7000;0.6862;0.5325;
717.0000;0.6854;0.5376;
717.3000;0.6878;0.5401;
717.6000;0.6878;0.5427;
717.9000;0.6862;0.5503;
718.2000;0.6854;0.5478;
718.5000;0.6854;0.5554;
718.8000;0.6862;0.5682;
719.1000;0.6854;0.5656;
719.4000;0.6813;0.5631;
719.7000;0.6846;0.5707;
720.0000;0.6862;0.5733;
720.3000;0.6846;0.5707;
720.6000;0.6862;0.5682;
720.9000;0.6846;0.5631;
721.2000;0.6846;0.5733;
721.5000;0.6919;0.5936;
721.8000;0.6870;0.5733;
722.1000;0.6829;0.5656;
722.4000;0.6829;0.5707;
722.7000;0.6829;0.5682;
723.0000;0.6854;0.5631;
723.3000;0.6821;0.5554;
723.6000;0.6838;0.5631;
723.9000;0.6813;0.5529;
724.2000;0.6829;0.5631;
724.5000;0.6821;0.5631;
724.8000;0.6838;0.5707;
725.1000;0.6829;0.5758;
725.4000;0.6829;0.5707;
725.7000;0.6829;0.5707;
726.0000;0.6813;0.5682;
726.3000;0.6829;0.5580;
726.6000;0.6838;0.5631;
726.9000;0.6838;0.5707;
727.2000;0.6813;0.5605;
727.5000;0.6838;0.5733;
727.8000;0.6821;0.5733;
728.1000;0.6813;0.5707;
728.4000;0.6813;0.5758;
728.7000;0.6821;0.5758;
729.0000;0.6813;0.5783;
729.3000;0.6805;0.5733;
729.6000;0.6789;0.5733;
729.9000;0.6805;0.5809;
730.2000;0.6805;0.5911;
730.5000;0.6797;0.5911;
730.8000;0.6797;0.5758;
731.1000;0.6862;0.5911;
731.4000;0.6805;0.5809;
731.7000;0.6789;0.5758;
732.0000;0.6797;0.5758;
732.3000;0.6797;0.5783;
732.6000;0.6805;0.5682;
732.9000;0.6789;0.5605;
733.2000;0.6789;0.5580;
733.5000;0.6789;0.5554;
733.8000;0.6781;0.5656;
734.1000;0.6789;0.5580;
734.4000;0.6764;0.5580;
734.7000;0.6764;0.5478;
735.0000;0.6781;0.5580;
735.3000;0.6813;0.5631;
735.6000;0.6781;0.5529;
735.9000;0.6772;0.5605;
736.2000;0.6748;0.5529;
736.5000;0.6805;0.5656;
736.8000;0.6781;0.5605;
737.1000;0.6772;0.5580;
737.4000;0.6764;0.5580;
737.7000;0.6781;0.5605;
738.0000;0.6748;0.5503;
738.3000;0.6772;0.5580;
738.6000;0.6781;0.5580;
738.9000;0.6789;0.5631;
739.2000;0.6740;0.5580;
739.5000;0.6764;0.5656;
739.8000;0.6772;0.5656;
740.1000;0.6756;0.5707;
740.4000;0.6781;0.5783;
740.7000;0.6764;0.5707;
741.0000;0.6764;0.5605;
741.3000;0.6903;0.5987;
741.6000;0.6781;0.5707;
741.9000;0.6764;0.5758;
742.2000;0.6756;0.5707;
742.5000;0.6789;0.5860;
742.8000;0.6772;0.5860;
743.1000;0.6764;0.5758;
743.4000;0.6829;0.5860;
743.7000;0.6748;0.5605;
744.0000;0.6724;0.5631;
744.3000;0.6772;0.5783;
744.6000;0.6748;0.5631;
744.9000;0.6781;0.5733;
745.2000;0.6764;0.5580;
745.5000;0.6772;0.5580;
745.8000;0.6756;0.5529;
746.1000;0.6756;0.5529;
746.4000;0.6748;0.5503;
746.7000;0.6772;0.5529;
747.0000;0.6732;0.5427;
747.3000;0.6740;0.5452;
747.6000;0.6748;0.5478;
747.9000;0.6764;0.5427;
748.2000;0.6748;0.5350;
748.5000;0.6748;0.5401;
748.8000;0.6821;0.5656;
749.1000;0.6748;0.5503;
749.4000;0.6748;0.5478;
749.7000;0.6740;0.5529;
750.0000;0.6724;0.5427;
750.3000;0.6740;0.5376;
750.6000;0.6732;0.5350;
750.9000;0.6740;0.5350;
751.2000;0.6732;0.5248;
751.5000;0.6740;0.5299;
751.8000;0.6748;0.5325;
752.1000;0.6748;0.5350;
752.4000;0.6740;0.5401;
752.7000;0.6756;0.5529;
753.0000;0.6732;0.5503;
753.3000;0.6724;0.5554;
753.6000;0.6740;0.5605;
753.9000;0.6716;0.5580;
754.2000;0.6740;0.5580;
754.5000;0.6732;0.5554;
754.8000;0.6716;0.5580;
755.1000;0.6716;0.5529;
755.4000;0.6724;0.5529;
755.7000;0.6707;0.5452;
756.0000;0.6724;0.5452;
756.3000;0.6724;0.5478;
756.6000;0.6707;0.5452;
756.9000;0.6716;0.5401;
757.2000;0.6716;0.5452;
757.5000;0.6716;0.5478;
757.8000;0.6667;0.5452;
758.1000;0.6716;0.5631;
758.4000;0.6716;0.5631;
758.7000;0.6691;0.5605;
759.0000;0.6716;0.5682;
759.3000;0.6732;0.5707;
759.6000;0.6724;0.5707;
759.9000;0.6699;0.5682;
760.2000;0.6707;0.5707;
760.5000;0.6716;0.5783;
760.8000;0.6707;0.5834;
761.1000;0.6748;0.5987;
761.4000;0.6716;0.5885;
761.7000;0.6716;0.5911;
762.0000;0.6724;0.5860;
762.3000;0.6691;0.5783;
762.6000;0.6716;0.5809;
762.9000;0.6699;0.5783;
763.2000;0.6707;0.5834;
763.5000;0.6699;0.5758;
763.8000;0.6683;0.5809;
764.1000;0.6675;0.5809;
764.4000;0.6699;0.5885;
764.7000;0.6716;0.5936;
765.0000;0.6675;0.5911;
765.3000;0.6683;0.5809;
765.6000;0.6683;0.5834;
765.9000;0.6691;0.5834;
766.2000;0.6683;0.5809;
766.5000;0.6699;0.5783;
766.8000;0.6691;0.5758;
767.1000;0.6707;0.5834;
767.4000;0.6659;0.5707;
767.7000;0.6634;0.5682;
768.0000;0.6683;0.5860;
768.3000;0.6675;0.5911;
768.6000;0.6699;0.5885;
768.9000;0.6675;0.5911;
769.2000;0.6691;0.5962;
769.5000;0.6691;0.5987;
769.8000;0.6667;0.5911;
770.1000;0.6667;0.5885;
770.4000;0.6675;0.5911;
770.7000;0.6683;0.5987;
771.0000;0.6683;0.5987;
771.3000;0.6707;0.6038;
771.6000;0.6675;0.5987;
771.9000;0.6667;0.6038;
772.2000;0.6675;0.6013;
772.5000;0.6675;0.5962;
772.8000;0.6691;0.6013;
773.1000;0.6683;0.6115;
773.4000;0.6675;0.6089;
773.7000;0.6699;0.6115;
774.0000;0.6675;0.6140;
774.3000;0.6683;0.6115;
774.6000;0.6675;0.6089;
774.9000;0.6626;0.5911;
775.2000;0.6683;0.5987;
775.5000;0.6650;0.5911;
775.8000;0.6659;0.5987;
776.1000;0.6667;0.5962;
776.4000;0.6675;0.5987;
776.7000;0.6659;0.5962;
777.0000;0.6675;0.5962;
777.3000;0.6667;0.5987;
777.6000;0.6724;0.6166;
777.9000;0.6650;0.5987;
778.2000;0.6659;0.5936;
778.5000;0.6675;0.5911;
778.8000;0.6642;0.5860;
779.1000;0.6642;0.5860;
779.4000;0.6634;0.5783;
779.7000;0.6650;0.5885;
780.0000;0.6642;0.5809;
780.3000;0.6642;0.5860;
780.6000;0.6650;0.5911;
780.9000;0.6650;0.5911;
781.2000;0.6634;0.5834;
781.5000;0.6659;0.5885;
781.8000;0.6659;0.5783;
782.1000;0.6602;0.5656;
782.4000;0.6659;0.5758;
782.7000;0.6659;0.5809;
783.0000;0.6683;0.5936;
783.3000;0.6634;0.5860;
783.6000;0.6675;0.5885;
783.9000;0.6675;0.5962;
784.2000;0.6642;0.5809;
784.5000;0.6642;0.5733;
784.8000;0.6642;0.5733;
785.1000;0.6642;0.5682;
785.4000;0.6642;0.5631;
785.7000;0.6634;0.5707;
786.0000;0.6667;0.5911;
786.3000;0.6667;0.5860;
786.6000;0.6610;0.5733;
786.9000;0.6650;0.5860;
787.2000;0.6642;0.5758;
787.5000;0.6675;0.5885;
787.8000;0.6659;0.5809;
788.1000;0.6650;0.5860;
788.4000;0.6691;0.5987;
788.7000;0.6610;0.5860;
789.0000;0.6642;0.5911;
789.3000;0.6642;0.5936;
789.6000;0.6650;0.5911;
789.9000;0.6650;0.5987;
790.2000;0.6642;0.5911;
790.5000;0.6634;0.5834;
790.8000;0.6634;0.5834;
791.1000;0.6642;0.5911;
791.4000;0.6634;0.5885;
791.7000;0.6642;0.5936;
792.0000;0.6585;0.5783;
792.3000;0.6626;0.5809;
792.6000;0.6634;0.5809;
792.9000;0.6585;0.5580;
793.2000;0.6634;0.5631;
793.5000;0.6634;0.5682;
793.8000;0.6634;0.5758;
794.1000;0.6634;0.5783;
794.4000;0.6618;0.5733;
794.7000;0.6618;0.5656;
795.0000;0.6642;0.5733;
795.3000;0.6634;0.5834;
795.6000;0.6634;0.5911;
795.9000;0.6618;0.5911;
796.2000;0.6626;0.5936;
796.5000;0.6626;0.5860;
796.8000;0.6610;0.5962;
797.1000;0.6634;0.6064;
797.4000;0.6618;0.6013;
797.7000;0.6707;0.6268;
798.0000;0.6691;0.6268;
798.3000;0.6610;0.6038;
798.6000;0.6618;0.6038;
798.9000;0.6642;0.6115;
799.2000;0.6634;0.6089;
799.5000;0.6618;0.6089;
799.8000;0.6642;0.6115;
800.1000;0.6577;0.6013;
800.4000;0.6602;0.6115;
800.7000;0.6593;0.6089;
801.0000;0.6618;0.6166;
801.3000;0.6626;0.6166;
801.6000;0.6610;0.6140;
801.9000;0.6618;0.6140;
802.2000;0.6618;0.6166;
802.5000;0.6602;0.6191;
802.8000;0.6642;0.6293;
803.1000;0.6618;0.6166;
803.4000;0.6610;0.6140;
803.7000;0.6626;0.6038;
804.0000;0.6602;0.5911;
804.3000;0.6602;0.5936;
804.6000;0.6610;0.5962;
804.9000;0.6626;0.6013;
805.2000;0.6610;0.6089;
805.5000;0.6610;0.5987;
805.8000;0.6618;0.6013;
806.1000;0.6610;0.6038;
806.4000;0.6610;0.6013;
806.7000;0.6585;0.5962;
807.0000;0.6610;0.6013;
807.3000;0.6610;0.5962;
807.6000;0.6585;0.5860;
807.9000;0.6642;0.5987;
808.2000;0.6716;0.6268;
808.5000;0.6593;0.5962;
808.8000;0.6593;0.5936;
809.1000;0.6610;0.5987;
809.4000;0.6610;0.5987;
809.7000;0.6593;0.5885;
810.0000;0.6585;0.5860;
810.3000;0.6610;0.5962;
810.6000;0.6618;0.5962;
810.9000;0.6626;0.5936;
811.2000;0.6569;0.5885;
811.5000;0.6569;0.5987;
811.8000;0.6618;0.6013;
812.1000;0.6593;0.5936;
812.4000;0.6602;0.5962;
812.7000;0.6602;0.5962;
813.0000;0.6610;0.5885;
813.3000;0.6577;0.5809;
813.6000;0.6618;0.5987;
813.9000;0.6602;0.5987;
814.2000;0.6585;0.5936;
814.5000;0.6618;0.6013;
814.8000;0.6593;0.5987;
815.1000;0.6585;0.5860;
815.4000;0.6610;0.5860;
815.7000;0.6602;0.5885;
816.0000;0.6610;0.5962;
816.3000;0.6618;0.6038;
816.6000;0.6593;0.6038;
816.9000;0.6593;0.6013;
817.2000;0.6602;0.6038;
817.5000;0.6610;0.6064;
817.8000;0.6569;0.6013;
818.1000;0.6577;0.6089;
818.4000;0.6593;0.6115;
818.7000;0.6593;0.6064;
819.0000;0.6569;0.6064;
819.3000;0.6593;0.6115;
819.6000;0.6602;0.6115;
819.9000;0.6553;0.5885;
820.2000;0.6577;0.5885;
820.5000;0.6585;0.5809;
820.8000;0.6593;0.5860;
821.1000;0.6593;0.5834;
821.4000;0.6602;0.5936;
821.7000;0.6593;0.5987;
822.0000;0.6585;0.5987;
822.3000;0.6642;0.6089;
822.6000;0.6585;0.5885;
822.9000;0.6585;0.5885;
823.2000;0.6618;0.5911;
823.5000;0.6602;0.5936;
823.8000;0.6626;0.6013;
824.1000;0.6602;0.5987;
824.4000;0.6569;0.5885;
824.7000;0.6520;0.5834;
825.0000;0.6536;0.5885;
825.3000;0.6577;0.5962;
825.6000;0.6593;0.5962;
825.9000;0.6585;0.5936;
826.2000;0.6569;0.5834;
826.5000;0.6585;0.5962;
826.8000;0.6577;0.5860;
827.1000;0.6585;0.5936;
827.4000;0.6561;0.5885;
827.7000;0.6585;0.5936;
828.0000;0.6585;0.5911;
828.3000;0.6593;0.5834;
828.6000;0.6593;0.5860;
828.9000;0.6585;0.5911;
829.2000;0.6569;0.5885;
829.5000;0.6577;0.5911;
829.8000;0.6593;0.5885;
830.1000;0.6602;0.5987;
830.4000;0.6561;0.5885;
830.7000;0.6577;0.5911;
831.0000;0.6577;0.5962;
831.3000;0.6593;0.6089;
831.6000;0.6577;0.6038;
831.9000;0.6593;0.6013;
832.2000;0.6626;0.6140;
832.5000;0.6585;0.5987;
832.8000;0.6577;0.5962;
833.1000;0.6585;0.5885;
833.4000;0.6545;0.5783;
833.7000;0.6577;0.5987;
834.0000;0.6577;0.6013;
834.3000;0.6577;0.6038;
834.6000;0.6577;0.5962;
834.9000;0.6593;0.6013;
835.2000;0.6561;0.5962;
835.5000;0.6569;0.6038;
835.8000;0.6504;0.5911;
836.1000;0.6553;0.6038;
836.4000;0.6569;0.6064;
836.7000;0.6569;0.6089;
837.0000;0.6585;0.6089;
837.3000;0.6569;0.6038;
837.6000;0.6561;0.6013;
837.9000;0.6553;0.5962;
838.2000;0.6561;0.5936;
838.5000;0.6504;0.5783;
838.8000;0.6577;0.5987;
839.1000;0.6561;0.6038;
839.4000;0.6561;0.6115;
839.7000;0.6569;0.6166;
840.0000;0.6593;0.6166;
840.3000;0.6577;0.6089;
840.6000;0.6593;0.5987;
840.9000;0.6561;0.5962;
841.2000;0.6553;0.5962;
841.5000;0.6553;0.5911;
841.8000;0.6545;0.5987;
842.1000;0.6545;0.5987;
842.4000;0.6561;0.6089;
842.7000;0.6545;0.6089;
843.0000;0.6561;0.6115;
843.3000;0.6553;0.6013;
843.6000;0.6561;0.5987;
843.9000;0.6602;0.6140;
844.2000;0.6528;0.5962;
844.5000;0.6553;0.5962;
844.8000;0.6561;0.5936;
845.1000;0.6569;0.6013;
845.4000;0.6553;0.5987;
845.7000;0.6553;0.5987;
846.0000;0.6561;0.5885;
846.3000;0.6569;0.5860;
846.6000;0.6553;0.5834;
846.9000;0.6553;0.5936;
847.2000;0.6545;0.5911;
847.5000;0.6561;0.5987;
847.8000;0.6553;0.5987;
848.1000;0.6536;0.5962;
848.4000;0.6545;0.5962;
848.7000;0.6553;0.5911;
849.0000;0.6545;0.5962;
849.3000;0.6561;0.5962;
849.6000;0.6536;0.5987;
849.9000;0.6545;0.5987;
850.2000;0.6561;0.6013;
850.5000;0.6561;0.5885;
850.8000;0.6545;0.5911;
851.1000;0.6536;0.5783;
851.4000;0.6536;0.5682;
851.7000;0.6553;0.5733;
852.0000;0.6553;0.5758;
852.3000;0.6553;0.5834;
852.6000;0.6561;0.5783;
852.9000;0.6553;0.5911;
853.2000;0.6536;0.5809;
853.5000;0.6553;0.5936;
853.8000;0.6545;0.5962;
854.1000;0.6561;0.5885;
854.4000;0.6536;0.5783;
854.7000;0.6553;0.5809;
855.0000;0.6553;0.5834;
855.3000;0.6553;0.5834;
855.6000;0.6512;0.5656;
855.9000;0.6561;0.5758;
856.2000;0.6618;0.5987;
856.5000;0.6553;0.5860;
856.8000;0.6545;0.5860;
857.1000;0.6585;0.5885;
857.4000;0.6561;0.5860;
857.7000;0.6561;0.5911;
858.0000;0.6553;0.5885;
858.3000;0.6561;0.5860;
858.6000;0.6536;0.5758;
858.9000;0.6561;0.5707;
859.2000;0.6545;0.5758;
859.5000;0.6536;0.5682;
859.8000;0.6577;0.5834;
860.1000;0.6545;0.5733;
860.4000;0.6553;0.5783;
860.7000;0.6553;0.5707;
861.0000;0.6536;0.5605;
861.3000;0.6545;0.5554;
861.6000;0.6536;0.5605;
861.9000;0.6545;0.5605;
862.2000;0.6545;0.5656;
862.5000;0.6553;0.5783;
862.8000;0.6610;0.5936;
863.1000;0.6545;0.5733;
863.4000;0.6545;0.5758;
863.7000;0.6545;0.5834;
864.0000;0.6553;0.5885;
864.3000;0.6545;0.5962;
864.6000;0.6545;0.6013;
864.9000;0.6593;0.6217;
865.2000;0.6545;0.6089;
865.5000;0.6545;0.6064;
865.8000;0.6553;0.6038;
866.1000;0.6536;0.6013;
866.4000;0.6561;0.6166;
866.7000;0.6536;0.6038;
867.0000;0.6536;0.5987;
867.3000;0.6536;0.5962;
867.6000;0.6528;0.5962;
867.9000;0.6561;0.5987;
868.2000;0.6545;0.5962;
868.5000;0.6536;0.5911;
868.8000;0.6536;0.5911;
869.1000;0.6553;0.5936;
869.4000;0.6545;0.5860;
869.7000;0.6528;0.5783;
870.0000;0.6536;0.5885;
870.3000;0.6593;0.6038;
870.6000;0.6512;0.5783;
870.9000;0.6528;0.5834;
871.2000;0.6512;0.5885;
871.5000;0.6561;0.5962;
871.8000;0.6536;0.6013;
872.1000;0.6504;0.5911;
872.4000;0.6520;0.5911;
872.7000;0.6536;0.5911;
873.0000;0.6536;0.5987;
873.3000;0.6536;0.6013;
873.6000;0.6528;0.5936;
873.9000;0.6520;0.5860;
874.2000;0.6528;0.5809;
874.5000;0.6528;0.5809;
874.8000;0.6536;0.5885;
875.1000;0.6520;0.5783;
875.4000;0.6561;0.5860;
875.7000;0.6536;0.5860;
876.0000;0.6536;0.5885;
876.3000;0.6528;0.5936;
876.6000;0.6520;0.5911;
876.9000;0.6545;0.5911;
877.2000;0.6545;0.5962;
877.5000;0.6528;0.5911;
877.8000;0.6536;0.5885;
878.1000;0.6536;0.5834;
878.4000;0.6553;0.5809;
878.7000;0.6545;0.5783;
879.0000;0.6520;0.5733;
879.3000;0.6520;0.5783;
879.6000;0.6520;0.5733;
879.9000;0.6553;0.5783;
880.2000;0.6528;0.5682;
880.5000;0.6520;0.5682;
880.8000;0.6536;0.5733;
881.1000;0.6536;0.5758;
881.4000;0.6528;0.5783;
881.7000;0.6463;0.5758;
882.0000;0.6520;0.5834;
882.3000;0.6520;0.5885;
882.6000;0.6528;0.5834;
882.9000;0.6569;0.5987;
883.2000;0.6536;0.5911;
883.5000;0.6553;0.5936;
883.8000;0.6561;0.5936;
884.1000;0.6528;0.5936;
884.4000;0.6545;0.6013;
884.7000;0.6520;0.5962;
885.0000;0.6512;0.5962;
885.3000;0.6569;0.6064;
885.6000;0.6553;0.6038;
885.9000;0.6528;0.6038;
886.2000;0.6528;0.6140;
886.5000;0.6528;0.6115;
886.8000;0.6520;0.6115;
887.1000;0.6528;0.6166;
887.4000;0.6528;0.6064;
887.7000;0.6512;0.6064;
888.0000;0.6512;0.6013;
888.3000;0.6528;0.5962;
888.6000;0.6520;0.5962;
888.9000;0.6528;0.6089;
889.2000;0.6585;0.6293;
889.5000;0.6545;0.6089;
889.8000;0.6536;0.6038;
890.1000;0.6536;0.5936;
890.4000;0.6512;0.5911;
890.7000;0.6536;0.6013;
891.0000;0.6545;0.6038;
891.3000;0.6545;0.6064;
891.6000;0.6512;0.5962;
891.9000;0.6520;0.6013;
892.2000;0.6536;0.5987;
892.5000;0.6512;0.5911;
892.8000;0.6512;0.5911;
893.1000;0.6585;0.6089;
893.4000;0.6545;0.5962;
893.7000;0.6512;0.6013;
894.0000;0.6528;0.6064;
894.3000;0.6512;0.6064;
894.6000;0.6561;0.6191;
894.9000;0.6528;0.6166;
895.2000;0.6553;0.6268;
895.5000;0.6504;0.6140;
895.8000;0.6528;0.6166;
896.1000;0.6528;0.6064;
896.4000;0.6504;0.6038;
896.7000;0.6512;0.6013;
897.0000;0.6488;0.5987;
897.3000;0.6528;0.6115;
897.6000;0.6528;0.6191;
897.9000;0.6496;0.6038;
898.2000;0.6528;0.6115;
898.5000;0.6536;0.6115;
898.8000;0.6528;0.6089;
899.1000;0.6512;0.6089;
899.4000;0.6520;0.6140;
899.7000;0.6536;0.6166;
900.0000;0.6536;0.6089;
900.3000;0.6504;0.5987;
900.6000;0.6496;0.6064;
900.9000;0.6528;0.6064;
901.2000;0.6504;0.5936;
901.5000;0.6553;0.6140;
901.8000;0.6512;0.6064;
902.1000;0.6536;0.6217;
902.4000;0.6528;0.6242;
902.7000;0.6585;0.6344;
903.0000;0.6520;0.6166;
903.3000;0.6512;0.6089;
903.6000;0.6528;0.6140;
903.9000;0.6504;0.5962;
904.2000;0.6496;0.5936;
904.5000;0.6528;0.6038;
904.8000;0.6528;0.6166;
905.1000;0.6585;0.6344;
905.4000;0.6520;0.6115;
905.7000;0.6463;0.6013;
906.0000;0.6528;0.6191;
906.3000;0.6512;0.6140;
906.6000;0.6504;0.6089;
906.9000;0.6512;0.6064;
907.2000;0.6512;0.6064;
907.5000;0.6512;0.6089;
907.8000;0.6520;0.6166;
908.1000;0.6496;0.6089;
908.4000;0.6504;0.6115;
908.7000;0.6512;0.6115;
909.0000;0.6488;0.5962;
909.3000;0.6504;0.6013;
909.6000;0.6488;0.5987;
909.9000;0.6512;0.5987;
910.2000;0.6528;0.6013;
910.5000;0.6496;0.5860;
910.8000;0.6512;0.5834;
911.1000;0.6496;0.5860;
911.4000;0.6512;0.5936;
911.7000;0.6512;0.5911;
912.0000;0.6504;0.5911;
912.3000;0.6512;0.6013;
912.6000;0.6512;0.6013;
912.9000;0.6512;0.6013;
913.2000;0.6496;0.5936;
913.5000;0.6504;0.5962;
913.8000;0.6504;0.5962;
914.1000;0.6504;0.5987;
914.4000;0.6496;0.6013;
914.7000;0.6488;0.5936;
915.0000;0.6471;0.5885;
915.3000;0.6504;0.5962;
915.6000;0.6496;0.5987;
915.9000;0.6463;0.5860;
916.2000;0.6553;0.6064;
916.5000;0.6512;0.5962;
916.8000;0.6504;0.6013;
917.1000;0.6488;0.5962;
917.4000;0.6496;0.6064;
917.7000;0.6512;0.6089;
918.0000;0.6504;0.5987;
918.3000;0.6496;0.6038;
918.6000;0.6512;0.6038;
918.9000;0.6504;0.6013;
919.2000;0.6479;0.5987;
919.5000;0.6471;0.5987;
919.8000;0.6471;0.6064;
920.1000;0.6488;0.6166;
920.4000;0.6496;0.6064;
920.7000;0.6479;0.6013;
921.0000;0.6504;0.5987;
921.3000;0.6455;0.5860;
921.6000;0.6545;0.6064;
921.9000;0.6504;0.5911;
922.2000;0.6504;0.6013;
922.5000;0.6488;0.5962;
922.8000;0.6504;0.5987;
923.1000;0.6520;0.6038;
923.4000;0.6488;0.5987;
923.7000;0.6455;0.5936;
924.0000;0.6496;0.6064;
924.3000;0.6471;0.6013;
924.6000;0.6488;0.6064;
924.9000;0.6496;0.6217;
925.2000;0.6504;0.6268;
925.5000;0.6536;0.6268;
925.8000;0.6488;0.6191;
926.1000;0.6471;0.6064;
926.4000;0.6520;0.6166;
926.7000;0.6512;0.6242;
927.0000;0.6471;0.6115;
927.3000;0.6496;0.6038;
927.6000;0.6488;0.6038;
927.9000;0.6471;0.5987;
928.2000;0.6488;0.6038;
928.5000;0.6479;0.6013;
928.8000;0.6496;0.6115;
929.1000;0.6488;0.6089;
929.4000;0.6463;0.6038;
929.7000;0.6479;0.6089;
930.0000;0.6488;0.6013;
930.3000;0.6512;0.5987;
930.6000;0.6463;0.5987;
930.9000;0.6422;0.5758;
931.2000;0.6479;0.6013;
931.5000;0.6512;0.6013;
931.8000;0.6545;0.6064;
932.1000;0.6504;0.5834;
932.4000;0.6496;0.5809;
932.7000;0.6496;0.5860;
933.0000;0.6520;0.6038;
933.3000;0.6496;0.5987;
933.6000;0.6479;0.5885;
933.9000;0.6496;0.5987;
934.2000;0.6496;0.5987;
934.5000;0.6496;0.6064;
934.8000;0.6504;0.5987;
935.1000;0.6479;0.5936;
935.4000;0.6504;0.5962;
935.7000;0.6479;0.5911;
936.0000;0.6496;0.5962;
936.3000;0.6479;0.5860;
936.6000;0.6455;0.5783;
936.9000;0.6471;0.5733;
937.2000;0.6479;0.5758;
937.5000;0.6488;0.5733;
937.8000;0.6479;0.5707;
938.1000;0.6488;0.5656;
938.4000;0.6479;0.5733;
938.7000;0.6479;0.5783;
939.0000;0.6479;0.5834;
939.3000;0.6479;0.5860;
939.6000;0.6488;0.5885;
939.9000;0.6536;0.6038;
940.2000;0.6504;0.6089;
940.5000;0.6488;0.6013;
940.8000;0.6496;0.6064;
941.1000;0.6447;0.5962;
941.4000;0.6496;0.6038;
941.7000;0.6488;0.6038;
942.0000;0.6504;0.6064;
942.3000;0.6488;0.5987;
942.6000;0.6496;0.6064;
942.9000;0.6471;0.5962;
943.2000;0.6479;0.6013;
943.5000;0.6471;0.6064;
943.8000;0.6455;0.6064;
944.1000;0.6471;0.6166;
944.4000;0.6471;0.6166;
944.7000;0.6479;0.6217;
945.0000;0.6479;0.6191;
945.3000;0.6479;0.6140;
945.6000;0.6479;0.6140;
945.9000;0.6496;0.6166;
946.2000;0.6553;0.6242;
946.5000;0.6479;0.6013;
946.8000;0.6496;0.6140;
947.1000;0.6479;0.6089;
947.4000;0.6479;0.6115;
947.7000;0.6479;0.6191;
948.0000;0.6479;0.6140;
948.3000;0.6439;0.6038;
948.6000;0.6471;0.6140;
948.9000;0.6569;0.6420;
949.2000;0.6463;0.6166;
949.5000;0.6471;0.6268;
949.8000;0.6471;0.6217;
950.1000;0.6479;0.6242;
950.4000;0.6488;0.6217;
950.7000;0.6455;0.6064;
951.0000;0.6520;0.6242;
951.3000;0.6504;0.6191;
951.6000;0.6479;0.6166;
951.9000;0.6488;0.6166;
952.2000;0.6488;0.6191;
952.5000;0.6488;0.6115;
952.8000;0.6488;0.6140;
953.1000;0.6504;0.6217;
953.4000;0.6496;0.6268;
953.7000;0.6431;0.6089;
954.0000;0.6431;0.6089;
954.3000;0.6479;0.6166;
954.6000;0.6479;0.6115;
954.9000;0.6479;0.6115;
955.2000;0.6471;0.6038;
955.5000;0.6455;0.6013;
955.8000;0.6488;0.6166;
956.1000;0.6488;0.6089;
956.4000;0.6479;0.6115;
956.7000;0.6479;0.6089;
957.0000;0.6422;0.5936;
957.3000;0.6496;0.6140;
957.6000;0.6496;0.6191;
957.9000;0.6471;0.6140;
958.2000;0.6471;0.6191;
958.5000;0.6479;0.6191;
958.8000;0.6455;0.6217;
959.1000;0.6479;0.6217;
959.4000;0.6463;0.6115;
959.7000;0.6471;0.6038;
960.0000;0.6471;0.6089;
960.3000;0.6471;0.5987;
960.6000;0.6471;0.6038;
960.9000;0.6447;0.5962;
961.2000;0.6528;0.6089;
961.5000;0.6463;0.5962;
961.8000;0.6463;0.5962;
962.1000;0.6455;0.5962;
962.4000;0.6488;0.5936;
962.7000;0.6471;0.5834;
963.0000;0.6431;0.5682;
963.3000;0.6463;0.5682;
963.6000;0.6479;0.5758;
963.9000;0.6463;0.5707;
964.2000;0.6471;0.5758;
964.5000;0.6471;0.5682;
964.8000;0.6463;0.5733;
965.1000;0.6455;0.5682;
965.4000;0.6504;0.5783;
965.7000;0.6471;0.5860;
966.0000;0.6471;0.5834;
966.3000;0.6479;0.5834;
966.6000;0.6488;0.5834;
966.9000;0.6496;0.5860;
967.2000;0.6488;0.5834;
967.5000;0.6479;0.5834;
967.8000;0.6496;0.5885;
968.1000;0.6488;0.5834;
968.4000;0.6488;0.5885;
968.7000;0.6520;0.5962;
969.0000;0.6479;0.5885;
969.3000;0.6471;0.5834;
969.6000;0.6479;0.5936;
969.9000;0.6488;0.5987;
970.2000;0.6471;0.5962;
970.5000;0.6463;0.5936;
970.8000;0.6496;0.6038;
971.1000;0.6488;0.6089;
971.4000;0.6488;0.6089;
971.7000;0.6455;0.6038;
972.0000;0.6479;0.6115;
972.3000;0.6463;0.6115;
972.6000;0.6471;0.6115;
972.9000;0.6439;0.5987;
973.2000;0.6463;0.6064;
973.5000;0.6471;0.6166;
973.8000;0.6520;0.6344;
974.1000;0.6455;0.6191;
974.4000;0.6447;0.6089;
974.7000;0.6455;0.6089;
975.0000;0.6431;0.5987;
975.3000;0.6447;0.5936;
975.6000;0.6471;0.5936;
975.9000;0.6439;0.6013;
976.2000;0.6471;0.6166;
976.5000;0.6512;0.6242;
976.8000;0.6479;0.6166;
977.1000;0.6463;0.6166;
977.4000;0.6463;0.6140;
977.7000;0.6463;0.6166;
978.0000;0.6455;0.6140;
978.3000;0.6447;0.6191;
978.6000;0.6455;0.6166;
978.9000;0.6455;0.6217;
979.2000;0.6447;0.6166;
979.5000;0.6447;0.6166;
979.8000;0.6463;0.6217;
980.1000;0.6463;0.6191;
980.4000;0.6455;0.6140;
980.7000;0.6455;0.6115;
981.0000;0.6471;0.6242;
981.3000;0.6463;0.6166;
981.6000;0.6463;0.6140;
981.9000;0.6455;0.6115;
982.2000;0.6463;0.6013;
982.5000;0.6488;0.5987;
982.8000;0.6471;0.6038;
983.1000;0.6463;0.6013;
983.4000;0.6463;0.6038;
983.7000;0.6463;0.6038;
984.0000;0.6463;0.6013;
984.3000;0.6447;0.5860;
984.6000;0.6439;0.5809;
984.9000;0.6447;0.5860;
985.2000;0.6479;0.5962;
985.5000;0.6455;0.5885;
985.8000;0.6463;0.5911;
986.1000;0.6447;0.5962;
986.4000;0.6463;0.5962;
986.7000;0.6463;0.5936;
987.0000;0.6431;0.5783;
987.3000;0.6479;0.5936;
987.6000;0.6471;0.5911;
987.9000;0.6463;0.5911;
988.2000;0.6447;0.5783;
988.5000;0.6447;0.5783;
988.8000;0.6463;0.5834;
989.1000;0.6439;0.5733;
989.4000;0.6455;0.5860;
989.7000;0.6439;0.5860;
990.0000;0.6455;0.5860;
990.3000;0.6479;0.5911;
990.6000;0.6447;0.5885;
990.9000;0.6463;0.5936;
991.2000;0.6463;0.5962;
991.5000;0.6479;0.5911;
991.8000;0.6463;0.5962;
992.1000;0.6496;0.5987;
992.4000;0.6414;0.5783;
992.7000;0.6463;0.6038;
993.0000;0.6447;0.5936;
993.3000;0.6471;0.6013;
993.6000;0.6455;0.5911;
993.9000;0.6463;0.5962;
994.2000;0.6504;0.6089;
994.5000;0.6496;0.5911;
994.8000;0.6447;0.5758;
995.1000;0.6463;0.5809;
995.4000;0.6463;0.5783;
995.7000;0.6439;0.5682;
996.0000;0.6447;0.5733;
996.3000;0.6455;0.5860;
996.6000;0.6455;0.5809;
996.9000;0.6439;0.5860;
997.2000;0.6365;0.5733;
997.5000;0.6479;0.5987;
997.8000;0.6455;0.5962;
998.1000;0.6455;0.5987;
998.4000;0.6447;0.5962;
998.7000;0.6390;0.5885;
999.0000;0.6439;0.5987;
999.3000;0.6496;0.6089;
999.6000;0.6455;0.5987;
999.9000;0.6455;0.5885;
1000.2000;0.6447;0.5809;
1000.5000;0.6455;0.5809;
1000.8000;0.6463;0.5783;
1001.1000;0.6455;0.5860;
1001.4000;0.6431;0.5860;
1001.7000;0.6463;0.5987;
1002.0000;0.6447;0.5987;
1002.3000;0.6455;0.5962;
1002.6000;0.6455;0.5987;
1002.9000;0.6439;0.5962;
1003.2000;0.6447;0.5987;
1003.5000;0.6455;0.6013;
1003.8000;0.6422;0.6013;
1004.1000;0.6455;0.6140;
1004.4000;0.6422;0.6038;
1004.7000;0.6463;0.6140;
1005.0000;0.6382;0.5733;
1005.3000;0.6439;0.5834;
1005.6000;0.6455;0.5911;
1005.9000;0.6439;0.5962;
1006.2000;0.6447;0.5885;
1006.5000;0.6447;0.5860;
1006.8000;0.6447;0.5834;
1007.1000;0.6447;0.5860;
1007.4000;0.6439;0.5809;
1007.7000;0.6447;0.5860;
1008.0000;0.6447;0.5962;
1008.3000;0.6439;0.5885;
1008.6000;0.6447;0.5860;
1008.9000;0.6455;0.5809;
1009.2000;0.6439;0.5783;
1009.5000;0.6471;0.5860;
1009.8000;0.6447;0.5911;
1010.1000;0.6455;0.6013;
1010.4000;0.6447;0.5936;
1010.7000;0.6431;0.5962;
1011.0000;0.6414;0.5936;
1011.3000;0.6447;0.5987;
1011.6000;0.6447;0.5911;
1011.9000;0.6504;0.6064;
1012.2000;0.6439;0.5936;
1012.5000;0.6455;0.5987;
1012.8000;0.6479;0.6166;
1013.1000;0.6455;0.6038;
1013.4000;0.6455;0.5987;
1013.7000;0.6447;0.6013;
1014.0000;0.6455;0.5911;
1014.3000;0.6439;0.5911;
1014.6000;0.6455;0.5911;
1014.9000;0.6447;0.5911;
1015.2000;0.6439;0.5834;
1015.5000;0.6463;0.5911;
1015.8000;0.6447;0.5834;
1016.1000;0.6496;0.5987;
1016.4000;0.6447;0.5911;
1016.7000;0.6439;0.5936;
1017.0000;0.6431;0.5962;
1017.3000;0.6463;0.5987;
1017.6000;0.6447;0.5987;
1017.9000;0.6471;0.6038;
1018.2000;0.6398;0.5911;
1018.5000;0.6455;0.5936;
1018.8000;0.6447;0.5962;
1019.1000;0.6496;0.6038;
1019.4000;0.6431;0.5860;
1019.7000;0.6471;0.6013;
1020.0000;0.6447;0.5987;
1020.3000;0.6455;0.6013;
1020.6000;0.6414;0.5809;
1020.9000;0.6463;0.5987;
1021.2000;0.6447;0.6013;
1021.5000;0.6431;0.6140;
1021.8000;0.6431;0.6166;
1022.1000;0.6431;0.6217;
1022.4000;0.6455;0.6217;
1022.7000;0.6471;0.6217;
1023.0000;0.6447;0.6166;
1023.3000;0.6439;0.6166;
1023.6000;0.6463;0.6115;
1023.9000;0.6455;0.6089;
1024.2000;0.6463;0.6038;
1024.5000;0.6447;0.5962;
1024.8000;0.6471;0.6013;
1025.1000;0.6471;0.5936;
1025.4000;0.6455;0.5911;
1025.7000;0.6455;0.5885;
1026.0000;0.6463;0.5987;
1026.3000;0.6463;0.6064;
1026.6000;0.6504;0.6064;
1026.9000;0.6455;0.5962;
1027.2000;0.6447;0.5962;
1027.5000;0.6520;0.6268;
1027.8000;0.6431;0.6089;
1028.1000;0.6439;0.6140;
1028.4000;0.6455;0.6242;
1028.7000;0.6455;0.6166;
1029.0000;0.6447;0.6089;
1029.3000;0.6447;0.6115;
1029.6000;0.6439;0.6191;
1029.9000;0.6447;0.6268;
1030.2000;0.6439;0.6140;
1030.5000;0.6439;0.6191;
1030.8000;0.6431;0.6268;
1031.1000;0.6431;0.6217;
1031.4000;0.6439;0.6217;
1031.7000;0.6439;0.6140;
1032.0000;0.6439;0.6115;
1032.3000;0.6414;0.6064;
1032.6000;0.6439;0.6115;
1032.9000;0.6439;0.6064;
1033.2000;0.6447;0.6089;
1033.5000;0.6447;0.6089;
1033.8000;0.6455;0.6089;
1034.1000;0.6439;0.6064;
1034.4000;0.6439;0.6064;
1034.7000;0.6496;0.6166;
1035.0000;0.6455;0.6013;
1035.3000;0.6431;0.5885;
1035.6000;0.6447;0.5936;
1035.9000;0.6447;0.6064;
1036.2000;0.6422;0.6089;
1036.5000;0.6447;0.6166;
1036.8000;0.6431;0.6140;
1037.1000;0.6504;0.6293;
1037.4000;0.6447;0.6064;
1037.7000;0.6447;0.5936;
1038.0000;0.6431;0.5834;
1038.3000;0.6431;0.5936;
1038.6000;0.6439;0.6064;
1038.9000;0.6447;0.6166;
1039.2000;0.6455;0.6038;
1039.5000;0.6447;0.6013;
1039.8000;0.6431;0.5936;
1040.1000;0.6447;0.6013;
1040.4000;0.6422;0.5936;
1040.7000;0.6431;0.5911;
1041.0000;0.6439;0.5860;
1041.3000;0.6431;0.5834;
1041.6000;0.6439;0.5860;
1041.9000;0.6439;0.5936;
1042.2000;0.6431;0.5936;
1042.5000;0.6439;0.5911;
1042.8000;0.6455;0.5987;
1043.1000;0.6439;0.5936;
1043.4000;0.6406;0.5860;
1043.7000;0.6431;0.5962;
1044.0000;0.6431;0.5911;
1044.3000;0.6439;0.5962;
1044.6000;0.6374;0.5783;
1044.9000;0.6455;0.5936;
1045.2000;0.6374;0.5733;
1045.5000;0.6439;0.5885;
1045.8000;0.6422;0.5885;
1046.1000;0.6414;0.5809;
1046.4000;0.6447;0.5809;
1046.7000;0.6422;0.5860;
1047.0000;0.6447;0.5987;
1047.3000;0.6390;0.5936;
1047.6000;0.6439;0.6064;
1047.9000;0.6431;0.6038;
1048.2000;0.6422;0.5962;
1048.5000;0.6439;0.5962;
1048.8000;0.6422;0.6013;
1049.1000;0.6447;0.6064;
1049.4000;0.6406;0.6064;
1049.7000;0.6422;0.6166;
1050.0000;0.6447;0.6191;
1050.3000;0.6431;0.6140;
1050.6000;0.6496;0.6319;
1050.9000;0.6455;0.6242;
1051.2000;0.6422;0.6140;
1051.5000;0.6439;0.6089;
1051.8000;0.6431;0.6115;
1052.1000;0.6447;0.6064;
1052.4000;0.6422;0.6038;
1052.7000;0.6431;0.6013;
1053.0000;0.6439;0.5936;
1053.3000;0.6422;0.5809;
1053.6000;0.6447;0.5911;
1053.9000;0.6406;0.5885;
1054.2000;0.6431;0.5962;
1054.5000;0.6447;0.6064;
1054.8000;0.6439;0.6064;
1055.1000;0.6455;0.6089;
1055.4000;0.6447;0.6013;
1055.7000;0.6422;0.5987;
1056.0000;0.6390;0.5936;
1056.3000;0.6439;0.6038;
1056.6000;0.6382;0.6038;
1056.9000;0.6455;0.6191;
1057.2000;0.6455;0.6166;
1057.5000;0.6479;0.6268;
1057.8000;0.6447;0.6166;
1058.1000;0.6439;0.6115;
1058.4000;0.6422;0.6089;
1058.7000;0.6439;0.6191;
1059.0000;0.6455;0.6166;
1059.3000;0.6447;0.6089;
1059.6000;0.6431;0.6089;
1059.9000;0.6431;0.6166;
1060.2000;0.6439;0.6115;
1060.5000;0.6455;0.6115;
1060.8000;0.6439;0.6115;
1061.1000;0.6447;0.6140;
1061.4000;0.6422;0.6115;
1061.7000;0.6455;0.6191;
1062.0000;0.6439;0.6140;
1062.3000;0.6439;0.6064;
1062.6000;0.6431;0.6115;
1062.9000;0.6447;0.6115;
1063.2000;0.6431;0.6013;
1063.5000;0.6439;0.5962;
1063.8000;0.6431;0.6038;
1064.1000;0.6455;0.6115;
1064.4000;0.6455;0.6038;
1064.7000;0.6447;0.5987;
1065.0000;0.6455;0.6166;
1065.3000;0.6447;0.6115;
1065.6000;0.6439;0.6064;
1065.9000;0.6431;0.6013;
1066.2000;0.6414;0.5987;
1066.5000;0.6431;0.6064;
1066.8000;0.6439;0.6191;
1067.1000;0.6447;0.6191;
1067.4000;0.6431;0.6268;
1067.7000;0.6471;0.6446;
1068.0000;0.6447;0.6395;
1068.3000;0.6471;0.6344;
1068.6000;0.6447;0.6242;
1068.9000;0.6455;0.6293;
1069.2000;0.6447;0.6217;
1069.5000;0.6447;0.6344;
1069.8000;0.6431;0.6344;
1070.1000;0.6447;0.6344;
1070.4000;0.6455;0.6319;
1070.7000;0.6439;0.6344;
1071.0000;0.6374;0.6115;
1071.3000;0.6422;0.6242;
1071.6000;0.6431;0.6319;
1071.9000;0.6439;0.6293;
1072.2000;0.6431;0.6319;
1072.5000;0.6422;0.6242;
1072.8000;0.6414;0.6166;
1073.1000;0.6439;0.6089;
1073.4000;0.6431;0.6115;
1073.7000;0.6422;0.6089;
1074.0000;0.6431;0.6140;
1074.3000;0.6447;0.6242;
1074.6000;0.6431;0.6166;
1074.9000;0.6414;0.6191;
1075.2000;0.6422;0.6319;
1075.5000;0.6422;0.6344;
1075.8000;0.6431;0.6369;
1076.1000;0.6422;0.6319;
1076.4000;0.6414;0.6319;
1076.7000;0.6406;0.6344;
1077.0000;0.6431;0.6395;
1077.3000;0.6431;0.6369;
1077.6000;0.6422;0.6344;
1077.9000;0.6431;0.6369;
1078.2000;0.6439;0.6446;
1078.5000;0.6455;0.6446;
1078.8000;0.6447;0.6395;
1079.1000;0.6414;0.6420;
1079.4000;0.6431;0.6522;
1079.7000;0.6414;0.6446;
1080.0000;0.6414;0.6471;
1080.3000;0.6406;0.6395;
1080.6000;0.6422;0.6395;
1080.9000;0.6414;0.6369;
1081.2000;0.6422;0.6217;
1081.5000;0.6431;0.6166;
1081.8000;0.6422;0.6115;
1082.1000;0.6439;0.6115;
1082.4000;0.6431;0.6140;
1082.7000;0.6431;0.6140;
1083.0000;0.6422;0.6115;
1083.3000;0.6431;0.6115;
1083.6000;0.6422;0.6064;
1083.9000;0.6422;0.6115;
1084.2000;0.6406;0.6115;
1084.5000;0.6439;0.6140;
1084.8000;0.6463;0.6268;
1085.1000;0.6431;0.6293;
1085.4000;0.6431;0.6293;
1085.7000;0.6439;0.6344;
1086.0000;0.6463;0.6395;
1086.3000;0.6471;0.6369;
1086.6000;0.6406;0.6268;
1086.9000;0.6431;0.6319;
1087.2000;0.6431;0.6268;
1087.5000;0.6431;0.6166;
1087.8000;0.6414;0.6166;
1088.1000;0.6422;0.6140;
1088.4000;0.6439;0.6268;
1088.7000;0.6479;0.6369;
1089.0000;0.6422;0.6293;
1089.3000;0.6374;0.6064;
1089.6000;0.6414;0.6166;
1089.9000;0.6512;0.6471;
1090.2000;0.6439;0.6319;
1090.5000;0.6431;0.6319;
1090.8000;0.6398;0.6242;
1091.1000;0.6439;0.6217;
1091.4000;0.6447;0.6293;
1091.7000;0.6431;0.6217;
1092.0000;0.6406;0.6191;
1092.3000;0.6439;0.6166;
1092.6000;0.6447;0.6140;
1092.9000;0.6422;0.6013;
1093.2000;0.6382;0.5834;
1093.5000;0.6365;0.5834;
1093.8000;0.6479;0.6013;
1094.1000;0.6439;0.5911;
1094.4000;0.6422;0.6038;
1094.7000;0.6422;0.6064;
1095.0000;0.6357;0.5860;
1095.3000;0.6414;0.6089;
1095.6000;0.6422;0.6038;
1095.9000;0.6488;0.6217;
1096.2000;0.6431;0.6115;
1096.5000;0.6455;0.6191;
1096.8000;0.6431;0.6115;
1097.1000;0.6422;0.6064;
1097.4000;0.6439;0.6038;
1097.7000;0.6431;0.6064;
1098.0000;0.6431;0.6089;
1098.3000;0.6414;0.6140;
1098.6000;0.6422;0.6115;
1098.9000;0.6439;0.6115;
1099.2000;0.6422;0.6064;
1099.5000;0.6422;0.6140;
1099.8000;0.6422;0.6217;
1100.1000;0.6422;0.6140;
1100.4000;0.6414;0.6166;
1100.7000;0.6414;0.6064;
1101.0000;0.6439;0.6115;
1101.3000;0.6414;0.6064;
1101.6000;0.6439;0.6115;
1101.9000;0.6422;0.6038;
1102.2000;0.6431;0.5936;
1102.5000;0.6439;0.5962;
1102.8000;0.6414;0.5860;
1103.1000;0.6414;0.5885;
1103.4000;0.6414;0.5885;
1103.7000;0.6414;0.5962;
1104.0000;0.6414;0.5936;
1104.3000;0.6431;0.5962;
1104.6000;0.6414;0.5936;
1104.9000;0.6422;0.5885;
1105.2000;0.6431;0.5885;
1105.5000;0.6422;0.5860;
1105.8000;0.6431;0.5860;
1106.1000;0.6414;0.5783;
1106.4000;0.6463;0.5911;
1106.7000;0.6414;0.5834;
1107.0000;0.6414;0.5860;
1107.3000;0.6439;0.5962;
1107.6000;0.6431;0.6013;
1107.9000;0.6414;0.6013;
1108.2000;0.6382;0.5860;
1108.5000;0.6422;0.6013;
1108.8000;0.6422;0.6038;
1109.1000;0.6422;0.6089;
1109.4000;0.6431;0.6140;
1109.7000;0.6414;0.6013;
1110.0000;0.6431;0.6089;
1110.3000;0.6414;0.5987;
1110.6000;0.6422;0.5987;
1110.9000;0.6414;0.6064;
1111.2000;0.6431;0.6115;
1111.5000;0.6431;0.6115;
1111.8000;0.6406;0.6038;
1112.1000;0.6431;0.5936;
1112.4000;0.6422;0.5911;
1112.7000;0.6398;0.5809;
1113.0000;0.6406;0.5885;
1113.3000;0.6439;0.5911;
1113.6000;0.6431;0.5911;
1113.9000;0.6414;0.5809;
1114.2000;0.6414;0.5783;
1114.5000;0.6406;0.5834;
1114.8000;0.6390;0.5707;
1115.1000;0.6406;0.5758;
1115.4000;0.6422;0.5733;
1115.7000;0.6422;0.5733;
1116.0000;0.6414;0.5809;
1116.3000;0.6431;0.5885;
1116.6000;0.6406;0.5885;
1116.9000;0.6414;0.5885;
1117.2000;0.6398;0.5834;
1117.5000;0.6365;0.5758;
1117.8000;0.6422;0.5885;
1118.1000;0.6422;0.5885;
1118.4000;0.6431;0.5936;
1118.7000;0.6390;0.5834;
1119.0000;0.6406;0.5885;
1119.3000;0.6422;0.5885;
1119.6000;0.6422;0.5834;
1119.9000;0.6414;0.5809;
1120.2000;0.6414;0.5911;
1120.5000;0.6463;0.6038;
1120.8000;0.6390;0.5834;
1121.1000;0.6414;0.5911;
1121.4000;0.6431;0.6013;
1121.7000;0.6431;0.5936;
1122.0000;0.6422;0.5911;
1122.3000;0.6439;0.5885;
1122.6000;0.6406;0.5834;
1122.9000;0.6422;0.5860;
1123.2000;0.6431;0.5936;
1123.5000;0.6422;0.6013;
1123.8000;0.6414;0.5962;
1124.1000;0.6374;0.5860;
1124.4000;0.6422;0.5987;
1124.7000;0.6422;0.5987;
1125.0000;0.6398;0.5936;
1125.3000;0.6431;0.5987;
1125.6000;0.6431;0.6038;
1125.9000;0.6406;0.6013;
1126.2000;0.6406;0.5860;
1126.5000;0.6414;0.5860;
1126.8000;0.6431;0.5962;
1127.1000;0.6406;0.6013;
1127.4000;0.6422;0.5987;
1127.7000;0.6414;0.6038;
1128.0000;0.6406;0.6064;
1128.3000;0.6406;0.6115;
1128.6000;0.6422;0.6217;
1128.9000;0.6422;0.6217;
1129.2000;0.6414;0.6191;
1129.5000;0.6455;0.6293;
1129.8000;0.6414;0.6268;
1130.1000;0.6406;0.6166;
1130.4000;0.6439;0.6191;
1130.7000;0.6431;0.6140;
1131.0000;0.6431;0.6166;
1131.3000;0.6455;0.6166;
1131.6000;0.6439;0.6115;
1131.9000;0.6431;0.6140;
1132.2000;0.6447;0.6140;
1132.5000;0.6414;0.6115;
1132.8000;0.6439;0.6140;
1133.1000;0.6431;0.6191;
1133.4000;0.6439;0.6217;
1133.7000;0.6398;0.6140;
1134.0000;0.6414;0.6013;
1134.3000;0.6479;0.6166;
1134.6000;0.6414;0.5936;
1134.9000;0.6422;0.6038;
1135.2000;0.6431;0.6038;
1135.5000;0.6422;0.6064;
1135.8000;0.6431;0.6115;
1136.1000;0.6422;0.6140;
1136.4000;0.6422;0.6089;
1136.7000;0.6422;0.6064;
1137.0000;0.6431;0.5962;
1137.3000;0.6447;0.6038;
1137.6000;0.6414;0.5936;
1137.9000;0.6406;0.5936;
1138.2000;0.6406;0.5911;
1138.5000;0.6406;0.5962;
1138.8000;0.6390;0.5885;
1139.1000;0.6406;0.5962;
1139.4000;0.6398;0.5987;
1139.7000;0.6422;0.6013;
1140.0000;0.6496;0.6217;
1140.3000;0.6406;0.5962;
1140.6000;0.6422;0.6064;
1140.9000;0.6431;0.5936;
1141.2000;0.6398;0.5911;
1141.5000;0.6382;0.5860;
1141.8000;0.6431;0.5962;
1142.1000;0.6431;0.5936;
1142.4000;0.6463;0.6013;
1142.7000;0.6431;0.6013;
1143.0000;0.6406;0.6013;
1143.3000;0.6414;0.6064;
1143.6000;0.6463;0.6242;
1143.9000;0.6414;0.6191;
1144.2000;0.6398;0.6191;
1144.5000;0.6414;0.6191;
1144.8000;0.6431;0.6089;
1145.1000;0.6398;0.6038;
1145.4000;0.6414;0.6089;
1145.7000;0.6431;0.6089;
1146.0000;0.6431;0.6140;
1146.3000;0.6422;0.6115;
1146.6000;0.6374;0.5962;
1146.9000;0.6422;0.6038;
1147.2000;0.6390;0.6064;
1147.5000;0.6414;0.6166;
1147.8000;0.6390;0.6013;
1148.1000;0.6398;0.5962;
1148.4000;0.6406;0.6013;
1148.7000;0.6422;0.6089;
1149.0000;0.6382;0.6115;
1149.3000;0.6406;0.6166;
1149.6000;0.6422;0.6191;
1149.9000;0.6398;0.6166;
1150.2000;0.6406;0.6140;
1150.5000;0.6398;0.6115;
1150.8000;0.6414;0.6064;
1151.1000;0.6447;0.6217;
1151.4000;0.6390;0.6038;
1151.7000;0.6406;0.6013;
1152.0000;0.6414;0.6064;
1152.3000;0.6414;0.6064;
1152.6000;0.6431;0.6064;
1152.9000;0.6398;0.5987;
1153.2000;0.6414;0.6013;
1153.5000;0.6398;0.6089;
1153.8000;0.6398;0.6166;
1154.1000;0.6398;0.6089;
1154.4000;0.6406;0.6115;
1154.7000;0.6398;0.6115;
1155.0000;0.6398;0.6013;
1155.3000;0.6414;0.6115;
1155.6000;0.6414;0.6089;
1155.9000;0.6406;0.6166;
1156.2000;0.6422;0.6115;
1156.5000;0.6431;0.6115;
1156.8000;0.6406;0.5987;
1157.1000;0.6406;0.6089;
1157.4000;0.6414;0.6191;
1157.7000;0.6414;0.6191;
1158.0000;0.6422;0.6242;
1158.3000;0.6431;0.6217;
1158.6000;0.6406;0.6064;
1158.9000;0.6422;0.6115;
1159.2000;0.6414;0.6089;
1159.5000;0.6406;0.6166;
1159.8000;0.6398;0.6140;
1160.1000;0.6422;0.6191;
1160.4000;0.6414;0.6191;
1160.7000;0.6406;0.6217;
1161.0000;0.6422;0.6242;
1161.3000;0.6406;0.6166;
1161.6000;0.6422;0.6217;
1161.9000;0.6414;0.6242;
1162.2000;0.6414;0.6242;
1162.5000;0.6414;0.6217;
1162.8000;0.6447;0.6319;
1163.1000;0.6414;0.6268;
1163.4000;0.6398;0.6319;
1163.7000;0.6414;0.6420;
1164.0000;0.6382;0.6344;
1164.3000;0.6414;0.6293;
1164.6000;0.6357;0.6191;
1164.9000;0.6382;0.6242;
1165.2000;0.6431;0.6446;
1165.5000;0.6422;0.6369;
1165.8000;0.6357;0.6242;
1166.1000;0.6431;0.6395;
1166.4000;0.6431;0.6395;
1166.7000;0.6422;0.6369;
1167.0000;0.6431;0.6344;
1167.3000;0.6414;0.6344;
1167.6000;0.6422;0.6319;
1167.9000;0.6406;0.6242;
1168.2000;0.6406;0.6268;
1168.5000;0.6414;0.6369;
1168.8000;0.6414;0.6446;
1169.1000;0.6422;0.6446;
1169.4000;0.6406;0.6420;
1169.7000;0.6406;0.6344;
1170.0000;0.6406;0.6217;
1170.3000;0.6414;0.6293;
1170.6000;0.6398;0.6140;
1170.9000;0.6406;0.6089;
1171.2000;0.6398;0.6115;
1171.5000;0.6414;0.6064;
1171.8000;0.6406;0.6115;
1172.1000;0.6422;0.6166;
1172.4000;0.6406;0.6268;
1172.7000;0.6414;0.6268;
1173.0000;0.6414;0.6293;
1173.3000;0.6447;0.6420;
1173.6000;0.6406;0.6242;
1173.9000;0.6422;0.6344;
1174.2000;0.6414;0.6344;
1174.5000;0.6398;0.6344;
1174.8000;0.6398;0.6268;
1175.1000;0.6406;0.6242;
1175.4000;0.6422;0.6242;
1175.7000;0.6414;0.6140;
1176.0000;0.6414;0.6140;
1176.3000;0.6431;0.6242;
1176.6000;0.6414;0.6166;
1176.9000;0.6398;0.6115;
1177.2000;0.6422;0.6191;
1177.5000;0.6422;0.6191;
1177.8000;0.6431;0.6319;
1178.1000;0.6406;0.6268;
1178.4000;0.6406;0.6319;
1178.7000;0.6414;0.6268;
1179.0000;0.6406;0.6242;
1179.3000;0.6455;0.6293;
1179.6000;0.6406;0.6191;
1179.9000;0.6374;0.6166;
1180.2000;0.6382;0.6191;
1180.5000;0.6406;0.6242;
1180.8000;0.6333;0.6115;
1181.1000;0.6398;0.6293;
1181.4000;0.6414;0.6293;
1181.7000;0.6422;0.6344;
1182.0000;0.6406;0.6242;
1182.3000;0.6431;0.6242;
1182.6000;0.6422;0.6242;
1182.9000;0.6414;0.6268;
1183.2000;0.6414;0.6217;
1183.5000;0.6390;0.6191;
1183.8000;0.6431;0.6268;
1184.1000;0.6414;0.6217;
1184.4000;0.6422;0.6268;
1184.7000;0.6471;0.6395;
1185.0000;0.6406;0.6166;
1185.3000;0.6398;0.6115;
1185.6000;0.6431;0.6293;
1185.9000;0.6357;0.6268;
1186.2000;0.6406;0.6369;
1186.5000;0.6414;0.6344;
1186.8000;0.6422;0.6395;
1187.1000;0.6414;0.6395;
1187.4000;0.6431;0.6395;
1187.7000;0.6414;0.6293;
1188.0000;0.6431;0.6293;
1188.3000;0.6341;0.6038;
1188.6000;0.6398;0.6217;
1188.9000;0.6390;0.6191;
1189.2000;0.6398;0.6217;
1189.5000;0.6406;0.6191;
1189.8000;0.6414;0.6140;
1190.1000;0.6390;0.6038;
1190.4000;0.6414;0.6013;
1190.7000;0.6398;0.6115;
1191.0000;0.6406;0.6140;
1191.3000;0.6382;0.6191;
1191.6000;0.6382;0.6191;
1191.9000;0.6414;0.6217;
1192.2000;0.6414;0.6217;
1192.5000;0.6374;0.6191;
1192.8000;0.6414;0.6268;
1193.1000;0.6406;0.6319;
1193.4000;0.6406;0.6293;
1193.7000;0.6398;0.6319;
1194.0000;0.6422;0.6268;
1194.3000;0.6431;0.6191;
1194.6000;0.6398;0.6140;
1194.9000;0.6398;0.6140;
1195.2000;0.6406;0.6217;
1195.5000;0.6406;0.6166;
1195.8000;0.6398;0.6140;
1196.1000;0.6406;0.6166;
1196.4000;0.6414;0.6115;
1196.7000;0.6406;0.6140;
1197.0000;0.6414;0.6115;
1197.3000;0.6422;0.6064;
1197.6000;0.6414;0.6089;
1197.9000;0.6398;0.6089;
1198.2000;0.6414;0.6089;
1198.5000;0.6398;0.6038;
1198.8000;0.6406;0.6115;
1199.1000;0.6398;0.6064;
1199.4000;0.6390;0.6013;
1199.7000;0.6406;0.6140;
1200.0000;0.6390;0.6140;
1200.3000;0.6382;0.6089;
1200.6000;0.6439;0.6140;
1200.9000;0.6414;0.6115;
1201.2000;0.6390;0.5987;
1201.5000;0.6406;0.5962;
1201.8000;0.6398;0.5885;
1202.1000;0.6406;0.5885;
1202.4000;0.6414;0.5809;
1202.7000;0.6406;0.5911;
1203.0000;0.6414;0.5987;
1203.3000;0.6406;0.5987;
1203.6000;0.6390;0.5962;
1203.9000;0.6398;0.6038;
1204.2000;0.6390;0.6013;
1204.5000;0.6398;0.5885;
1204.8000;0.6422;0.5911;
1205.1000;0.6414;0.5885;
1205.4000;0.6406;0.5911;
1205.7000;0.6422;0.5987;
1206.0000;0.6406;0.5962;
1206.3000;0.6390;0.5987;
1206.6000;0.6414;0.5936;
1206.9000;0.6406;0.5936;
1207.2000;0.6406;0.5962;
1207.5000;0.6398;0.6013;
1207.8000;0.6390;0.6064;
1208.1000;0.6374;0.6064;
1208.4000;0.6398;0.6115;
1208.7000;0.6414;0.6140;
1209.0000;0.6398;0.6166;
1209.3000;0.6406;0.6191;
1209.6000;0.6398;0.6217;
1209.9000;0.6382;0.6166;
1210.2000;0.6398;0.6191;
1210.5000;0.6406;0.6242;
1210.8000;0.6398;0.6242;
1211.1000;0.6390;0.6191;
1211.4000;0.6398;0.6293;
1211.7000;0.6398;0.6319;
1212.0000;0.6390;0.6369;
1212.3000;0.6406;0.6395;
1212.6000;0.6406;0.6344;
1212.9000;0.6398;0.6344;
1213.2000;0.6406;0.6395;
1213.5000;0.6398;0.6446;
1213.8000;0.6406;0.6420;
1214.1000;0.6398;0.6344;
1214.4000;0.6398;0.6268;
1214.7000;0.6406;0.6268;
1215.0000;0.6414;0.6344;
1215.3000;0.6406;0.6344;
1215.6000;0.6406;0.6344;
1215.9000;0.6406;0.6369;
1216.2000;0.6422;0.6446;
1216.5000;0.6414;0.6420;
1216.8000;0.6406;0.6395;
1217.1000;0.6398;0.6369;
1217.4000;0.6414;0.6420;
1217.7000;0.6406;0.6395;
1218.0000;0.6406;0.6369;
1218.3000;0.6398;0.6319;
1218.6000;0.6406;0.6319;
1218.9000;0.6406;0.6293;
1219.2000;0.6333;0.6089;
1219.5000;0.6414;0.6268;
1219.8000;0.6406;0.6395;
1220.1000;0.6365;0.6293;
1220.4000;0.6398;0.6344;
1220.7000;0.6439;0.6420;
1221.0000;0.6422;0.6369;
1221.3000;0.6406;0.6344;
1221.6000;0.6406;0.6395;
1221.9000;0.6398;0.6369;
1222.2000;0.6398;0.6369;
1222.5000;0.6406;0.6369;
1222.8000;0.6406;0.6268;
1223.1000;0.6390;0.6242;
1223.4000;0.6357;0.6191;
1223.7000;0.6390;0.6319;
1224.0000;0.6398;0.6369;
1224.3000;0.6390;0.6293;
1224.6000;0.6479;0.6420;
1224.9000;0.6398;0.6242;
1225.2000;0.6390;0.6268;
1225.5000;0.6398;0.6242;
1225.8000;0.6398;0.6191;
1226.1000;0.6406;0.6242;
1226.4000;0.6463;0.6420;
1226.7000;0.6398;0.6217;
1227.0000;0.6390;0.6140;
1227.3000;0.6471;0.6319;
1227.6000;0.6414;0.6115;
1227.9000;0.6406;0.6140;
1228.2000;0.6390;0.6115;
1228.5000;0.6414;0.6166;
1228.8000;0.6406;0.6242;
1229.1000;0.6382;0.6166;
1229.4000;0.6398;0.6140;
1229.7000;0.6390;0.6038;
1230.0000;0.6398;0.6115;
1230.3000;0.6422;0.6089;
1230.6000;0.6406;0.6038;
1230.9000;0.6341;0.5911;
1231.2000;0.6398;0.6140;
1231.5000;0.6398;0.6191;
1231.8000;0.6390;0.6191;
1232.1000;0.6390;0.6191;
1232.4000;0.6390;0.6140;
1232.7000;0.6398;0.6140;
1233.0000;0.6398;0.6140;
1233.3000;0.6398;0.6191;
1233.6000;0.6398;0.6089;
1233.9000;0.6390;0.6115;
1234.2000;0.6414;0.6191;
1234.5000;0.6390;0.6166;
1234.8000;0.6431;0.6268;
1235.1000;0.6471;0.6420;
1235.4000;0.6398;0.6166;
1235.7000;0.6414;0.6115;
1236.0000;0.6439;0.6319;
1236.3000;0.6398;0.6242;
1236.6000;0.6414;0.6293;
1236.9000;0.6349;0.6166;
1237.2000;0.6398;0.6268;
1237.5000;0.6406;0.6268;
1237.8000;0.6447;0.6369;
1238.1000;0.6406;0.6293;
1238.4000;0.6431;0.6344;
1238.7000;0.6390;0.6293;
1239.0000;0.6406;0.6319;
1239.3000;0.6398;0.6319;
1239.6000;0.6414;0.6217;
1239.9000;0.6431;0.6191;
1240.2000;0.6382;0.6013;
1240.5000;0.6406;0.6089;
1240.8000;0.6398;0.6140;
1241.1000;0.6390;0.6089;
1241.4000;0.6422;0.6166;
1241.7000;0.6414;0.6217;
1242.0000;0.6422;0.6268;
1242.3000;0.6406;0.6217;
1242.6000;0.6414;0.6191;
1242.9000;0.6365;0.6166;
1243.2000;0.6390;0.6293;
1243.5000;0.6406;0.6293;
1243.8000;0.6398;0.6166;
1244.1000;0.6447;0.6217;
1244.4000;0.6406;0.6115;
1244.7000;0.6398;0.5987;
1245.0000;0.6398;0.6064;
1245.3000;0.6390;0.6217;
1245.6000;0.6406;0.6242;
1245.9000;0.6390;0.6217;
1246.2000;0.6398;0.6319;
1246.5000;0.6398;0.6369;
1246.8000;0.6406;0.6446;
1247.1000;0.6406;0.6369;
1247.4000;0.6390;0.6242;
1247.7000;0.6398;0.6242;
1248.0000;0.6398;0.6268;
1248.3000;0.6398;0.6268;
1248.6000;0.6398;0.6268;
1248.9000;0.6398;0.6293;
1249.2000;0.6406;0.6268;
1249.5000;0.6414;0.6293;
1249.8000;0.6406;0.6319;
1250.1000;0.6382;0.6242;
1250.4000;0.6398;0.6293;
1250.7000;0.6414;0.6344;
1251.0000;0.6414;0.6369;
1251.3000;0.6398;0.6395;
1251.6000;0.6398;0.6471;
1251.9000;0.6414;0.6522;
1252.2000;0.6382;0.6293;
1252.5000;0.6390;0.6319;
1252.8000;0.6414;0.6369;
1253.1000;0.6406;0.6369;
1253.4000;0.6374;0.6217;
1253.7000;0.6382;0.6293;
1254.0000;0.6398;0.6369;
1254.3000;0.6463;0.6471;
1254.6000;0.6406;0.6395;
1254.9000;0.6382;0.6344;
1255.2000;0.6398;0.6344;
1255.5000;0.6406;0.6319;
1255.8000;0.6504;0.6650;
1256.1000;0.6398;0.6471;
1256.4000;0.6382;0.6497;
1256.7000;0.6398;0.6573;
1257.0000;0.6439;0.6701;
1257.3000;0.6398;0.6599;
1257.6000;0.6398;0.6573;
1257.9000;0.6398;0.6446;
1258.2000;0.6406;0.6471;
1258.5000;0.6414;0.6420;
1258.8000;0.6325;0.6242;
1259.1000;0.6439;0.6599;
1259.4000;0.6390;0.6497;
1259.7000;0.6406;0.6573;
1260.0000;0.6406;0.6522;
1260.3000;0.6357;0.6369;
1260.6000;0.6406;0.6395;
1260.9000;0.6390;0.6369;
1261.2000;0.6398;0.6369;
1261.5000;0.6390;0.6217;
1261.8000;0.6374;0.6217;
1262.1000;0.6390;0.6217;
1262.4000;0.6390;0.6293;
1262.7000;0.6374;0.6242;
1263.0000;0.6406;0.6344;
1263.3000;0.6422;0.6446;
1263.6000;0.6447;0.6497;
1263.9000;0.6406;0.6395;
1264.2000;0.6447;0.6497;
1264.5000;0.6406;0.6420;
1264.8000;0.6455;0.6548;
1265.1000;0.6414;0.6344;
1265.4000;0.6398;0.6268;
1265.7000;0.6398;0.6293;
1266.0000;0.6349;0.6166;
1266.3000;0.6406;0.6420;
1266.6000;0.6390;0.6522;
1266.9000;0.6406;0.6548;
1267.2000;0.6479;0.6726;
1267.5000;0.6390;0.6395;
1267.8000;0.6398;0.6471;
1268.1000;0.6406;0.6446;
1268.4000;0.6406;0.6471;
1268.7000;0.6414;0.6573;
1269.0000;0.6349;0.6420;
1269.3000;0.6398;0.6420;
1269.6000;0.6390;0.6395;
1269.9000;0.6406;0.6471;
1270.2000;0.6414;0.6522;
1270.5000;0.6406;0.6471;
1270.8000;0.6406;0.6369;
1271.1000;0.6390;0.6319;
1271.4000;0.6398;0.6344;
1271.7000;0.6357;0.6191;
1272.0000;0.6414;0.6369;
1272.3000;0.6406;0.6369;
1272.6000;0.6422;0.6395;
1272.9000;0.6422;0.6344;
1273.2000;0.6422;0.6395;
1273.5000;0.6414;0.6420;
1273.8000;0.6398;0.6344;
1274.1000;0.6390;0.6293;
1274.4000;0.6398;0.6344;
1274.7000;0.6463;0.6548;
1275.0000;0.6414;0.6344;
1275.3000;0.6414;0.6446;
1275.6000;0.6390;0.6497;
1275.9000;0.6398;0.6497;
1276.2000;0.6382;0.6369;
1276.5000;0.6390;0.6395;
1276.8000;0.6439;0.6497;
1277.1000;0.6390;0.6395;
1277.4000;0.6398;0.6420;
1277.7000;0.6374;0.6344;
1278.0000;0.6382;0.6344;
1278.3000;0.6382;0.6268;
1278.6000;0.6406;0.6293;
1278.9000;0.6382;0.6242;
1279.2000;0.6406;0.6242;
1279.5000;0.6414;0.6242;
1279.8000;0.6455;0.6319;
1280.1000;0.6406;0.6115;
1280.4000;0.6382;0.6115;
1280.7000;0.6382;0.6089;
1281.0000;0.6382;0.6089;
1281.3000;0.6390;0.6166;
1281.6000;0.6382;0.6242;
1281.9000;0.6382;0.6268;
1282.2000;0.6390;0.6344;
1282.5000;0.6390;0.6395;
1282.8000;0.6365;0.6369;
1283.1000;0.6406;0.6369;
1283.4000;0.6357;0.6344;
1283.7000;0.6357;0.6344;
1284.0000;0.6390;0.6319;
1284.3000;0.6398;0.6293;
1284.6000;0.6406;0.6369;
1284.9000;0.6398;0.6369;
1285.2000;0.6382;0.6293;
1285.5000;0.6382;0.6293;
1285.8000;0.6390;0.6344;
1286.1000;0.6390;0.6344;
1286.4000;0.6398;0.6344;
1286.7000;0.6365;0.6344;
1287.0000;0.6382;0.6344;
1287.3000;0.6390;0.6420;
1287.6000;0.6390;0.6471;
1287.9000;0.6398;0.6522;
1288.2000;0.6357;0.6369;
1288.5000;0.6406;0.6369;
1288.8000;0.6382;0.6268;
1289.1000;0.6382;0.6268;
1289.4000;0.6398;0.6268;
1289.7000;0.6390;0.6217;
1290.0000;0.6374;0.6166;
1290.3000;0.6382;0.6217;
1290.6000;0.6390;0.6268;
1290.9000;0.6390;0.6369;
1291.2000;0.6374;0.6344;
1291.5000;0.6374;0.6293;
1291.8000;0.6390;0.6369;
1292.1000;0.6390;0.6344;
1292.4000;0.6390;0.6369;
1292.7000;0.6390;0.6319;
1293.0000;0.6382;0.6319;
1293.3000;0.6398;0.6242;
1293.6000;0.6406;0.6293;
1293.9000;0.6406;0.6268;
1294.2000;0.6398;0.6191;
1294.5000;0.6398;0.6115;
1294.8000;0.6414;0.6089;
1295.1000;0.6398;0.6013;
1295.4000;0.6398;0.5936;
1295.7000;0.6390;0.5834;
1296.0000;0.6382;0.5860;
1296.3000;0.6398;0.5936;
1296.6000;0.6414;0.5987;
1296.9000;0.6365;0.5885;
1297.2000;0.6406;0.5987;
1297.5000;0.6382;0.5962;
1297.8000;0.6414;0.6089;
1298.1000;0.6390;0.6038;
1298.4000;0.6455;0.6140;
1298.7000;0.6406;0.6089;
1299.0000;0.6398;0.6089;
1299.3000;0.6398;0.6115;
1299.6000;0.6414;0.6268;
1299.9000;0.6398;0.6319;
1300.2000;0.6398;0.6319;
1300.5000;0.6398;0.6319;
1300.8000;0.6398;0.6217;
1301.1000;0.6398;0.6242;
1301.4000;0.6390;0.6217;
1301.7000;0.6406;0.6319;
1302.0000;0.6398;0.6268;
1302.3000;0.6382;0.6268;
1302.6000;0.6390;0.6191;
1302.9000;0.6406;0.6293;
1303.2000;0.6398;0.6217;
1303.5000;0.6398;0.6242;
1303.8000;0.6406;0.6293;
1304.1000;0.6374;0.6115;
1304.4000;0.6390;0.6140;
1304.7000;0.6406;0.6166;
1305.0000;0.6390;0.6089;
1305.3000;0.6406;0.6217;
1305.6000;0.6382;0.6166;
1305.9000;0.6439;0.6319;
1306.2000;0.6406;0.6268;
1306.5000;0.6390;0.6140;
1306.8000;0.6357;0.6115;
1307.1000;0.6382;0.6089;
1307.4000;0.6390;0.6115;
1307.7000;0.6390;0.6089;
1308.0000;0.6406;0.6140;
1308.3000;0.6406;0.6140;
1308.6000;0.6406;0.6089;
1308.9000;0.6406;0.6166;
1309.2000;0.6390;0.6217;
1309.5000;0.6398;0.6242;
1309.8000;0.6398;0.6242;
1310.1000;0.6390;0.6242;
1310.4000;0.6382;0.6191;
1310.7000;0.6406;0.6191;
1311.0000;0.6390;0.6191;
1311.3000;0.6382;0.6140;
1311.6000;0.6414;0.6166;
1311.9000;0.6382;0.6166;
1312.2000;0.6374;0.6115;
1312.5000;0.6382;0.6115;
1312.8000;0.6365;0.6038;
1313.1000;0.6398;0.6115;
1313.4000;0.6398;0.6115;
1313.7000;0.6398;0.6140;
1314.0000;0.6406;0.6217;
1314.3000;0.6406;0.6242;
1314.6000;0.6382;0.6166;
1314.9000;0.6374;0.6191;
1315.2000;0.6382;0.6140;
1315.5000;0.6325;0.6038;
1315.8000;0.6398;0.6166;
1316.1000;0.6382;0.6115;
1316.4000;0.6382;0.5987;
1316.7000;0.6382;0.5987;
1317.0000;0.6390;0.6013;
1317.3000;0.6390;0.6089;
1317.6000;0.6398;0.6115;
1317.9000;0.6390;0.6191;
1318.2000;0.6390;0.6191;
1318.5000;0.6406;0.6217;
1318.8000;0.6374;0.6166;
1319.1000;0.6382;0.6064;
1319.4000;0.6349;0.5911;
1319.7000;0.6406;0.6013;
1320.0000;0.6390;0.6013;
1320.3000;0.6357;0.5936;
1320.6000;0.6414;0.6089;
1320.9000;0.6422;0.6089;
1321.2000;0.6398;0.6064;
1321.5000;0.6398;0.6038;
1321.8000;0.6398;0.6115;
1322.1000;0.6374;0.6038;
1322.4000;0.6422;0.6013;
1322.7000;0.6390;0.5885;
1323.0000;0.6374;0.5860;
1323.3000;0.6390;0.5885;
1323.6000;0.6390;0.5911;
1323.9000;0.6382;0.5936;
1324.2000;0.6390;0.6064;
1324.5000;0.6398;0.6115;
1324.8000;0.6390;0.6089;
1325.1000;0.6390;0.6089;
1325.4000;0.6398;0.6140;
1325.7000;0.6414;0.6191;
1326.0000;0.6406;0.6217;
1326.3000;0.6390;0.6242;
1326.6000;0.6390;0.6268;
1326.9000;0.6398;0.6319;
1327.2000;0.6390;0.6242;
1327.5000;0.6398;0.6217;
1327.8000;0.6382;0.6166;
1328.1000;0.6447;0.6319;
1328.4000;0.6398;0.6140;
1328.7000;0.6398;0.6064;
1329.0000;0.6398;0.6089;
1329.3000;0.6390;0.6140;
1329.6000;0.6390;0.6089;
1329.9000;0.6406;0.6089;
1330.2000;0.6414;0.6115;
1330.5000;0.6390;0.6115;
1330.8000;0.6390;0.6115;
1331.1000;0.6422;0.6217;
1331.4000;0.6414;0.6293;
1331.7000;0.6390;0.6268;
1332.0000;0.6390;0.6293;
1332.3000;0.6422;0.6420;
1332.6000;0.6390;0.6319;
1332.9000;0.6390;0.6319;
1333.2000;0.6398;0.6293;
1333.5000;0.6422;0.6471;
1333.8000;0.6390;0.6420;
1334.1000;0.6463;0.6650;
1334.4000;0.6414;0.6446;
1334.7000;0.6390;0.6395;
1335.0000;0.6439;0.6497;
1335.3000;0.6398;0.6369;
1335.6000;0.6374;0.6395;
1335.9000;0.6309;0.6191;
1336.2000;0.6398;0.6319;
1336.5000;0.6390;0.6191;
1336.8000;0.6398;0.6191;
1337.1000;0.6398;0.6115;
1337.4000;0.6406;0.6166;
1337.7000;0.6398;0.6166;
1338.0000;0.6390;0.6166;
1338.3000;0.6390;0.6166;
1338.6000;0.6406;0.6191;
1338.9000;0.6406;0.6115;
1339.2000;0.6374;0.6115;
1339.5000;0.6390;0.6166;
1339.8000;0.6406;0.6217;
1340.1000;0.6374;0.6268;
1340.4000;0.6357;0.6115;
1340.7000;0.6333;0.6013;
1341.0000;0.6398;0.6089;
1341.3000;0.6406;0.6140;
1341.6000;0.6447;0.6344;
1341.9000;0.6398;0.6293;
1342.2000;0.6398;0.6293;
1342.5000;0.6349;0.6166;
1342.8000;0.6398;0.6293;
1343.1000;0.6390;0.6217;
1343.4000;0.6382;0.6064;
1343.7000;0.6390;0.6115;
1344.0000;0.6374;0.6140;
1344.3000;0.6390;0.6191;
1344.6000;0.6398;0.6293;
1344.9000;0.6390;0.6344;
1345.2000;0.6390;0.6319;
1345.5000;0.6406;0.6242;
1345.8000;0.6414;0.6268;
1346.1000;0.6374;0.6166;
1346.4000;0.6398;0.6217;
1346.7000;0.6390;0.6191;
1347.0000;0.6390;0.6140;
1347.3000;0.6390;0.6140;
1347.6000;0.6390;0.6191;
1347.9000;0.6374;0.6140;
1348.2000;0.6382;0.6140;
1348.5000;0.6374;0.6115;
1348.8000;0.6398;0.6293;
1349.1000;0.6390;0.6369;
1349.4000;0.6374;0.6293;
1349.7000;0.6382;0.6369;
1350.0000;0.6398;0.6446;
1350.3000;0.6390;0.6420;
1350.6000;0.6406;0.6395;
1350.9000;0.6374;0.6268;
1351.2000;0.6382;0.6242;
1351.5000;0.6398;0.6242;
1351.8000;0.6431;0.6293;
1352.1000;0.6398;0.6293;
1352.4000;0.6398;0.6344;
1352.7000;0.6398;0.6268;
1353.0000;0.6374;0.6242;
1353.3000;0.6390;0.6293;
1353.6000;0.6382;0.6242;
1353.9000;0.6406;0.6242;
1354.2000;0.6390;0.6115;
1354.5000;0.6390;0.6166;
1354.8000;0.6374;0.6166;
1355.1000;0.6398;0.6140;
1355.4000;0.6390;0.6089;
1355.7000;0.6382;0.6115;
1356.0000;0.6365;0.6115;
1356.3000;0.6406;0.6217;
1356.6000;0.6398;0.6191;
1356.9000;0.6374;0.6115;
1357.2000;0.6390;0.6166;
1357.5000;0.6390;0.6089;
1357.8000;0.6398;0.6140;
1358.1000;0.6406;0.6242;
1358.4000;0.6382;0.6115;
1358.7000;0.6374;0.6140;
1359.0000;0.6357;0.6140;
1359.3000;0.6414;0.6242;
1359.6000;0.6365;0.6166;
1359.9000;0.6382;0.6242;
1360.2000;0.6422;0.6344;
1360.5000;0.6374;0.6115;
1360.8000;0.6382;0.6166;
1361.1000;0.6406;0.6217;
1361.4000;0.6382;0.6140;
1361.7000;0.6382;0.6166;
1362.0000;0.6357;0.6064;
1362.3000;0.6349;0.6140;
1362.6000;0.6382;0.6217;
1362.9000;0.6398;0.6140;
1363.2000;0.6374;0.6089;
1363.5000;0.6365;0.6089;
1363.8000;0.6365;0.6089;
1364.1000;0.6382;0.6064;
1364.4000;0.6390;0.6115;
1364.7000;0.6382;0.6064;
1365.0000;0.6398;0.6064;
1365.3000;0.6390;0.6089;
1365.6000;0.6390;0.6191;
1365.9000;0.6422;0.6344;
1366.2000;0.6422;0.6395;
1366.5000;0.6390;0.6242;
1366.8000;0.6398;0.6242;
1367.1000;0.6382;0.6166;
1367.4000;0.6333;0.5936;
1367.7000;0.6390;0.6140;
1368.0000;0.6398;0.6191;
1368.3000;0.6382;0.6191;
1368.6000;0.6374;0.6166;
1368.9000;0.6439;0.6319;
1369.2000;0.6406;0.6191;
1369.5000;0.6390;0.6217;
1369.8000;0.6374;0.6191;
1370.1000;0.6390;0.6217;
1370.4000;0.6390;0.6217;
1370.7000;0.6365;0.6191;
1371.0000;0.6398;0.6293;
1371.3000;0.6390;0.6344;
1371.6000;0.6390;0.6293;
1371.9000;0.6365;0.6268;
1372.2000;0.6374;0.6242;
1372.5000;0.6374;0.6319;
1372.8000;0.6374;0.6319;
1373.1000;0.6349;0.6242;
1373.4000;0.6382;0.6319;
1373.7000;0.6365;0.6344;
1374.0000;0.6374;0.6369;
1374.3000;0.6398;0.6319;
1374.6000;0.6382;0.6268;
1374.9000;0.6431;0.6446;
1375.2000;0.6365;0.6344;
1375.5000;0.6390;0.6395;
1375.8000;0.6431;0.6471;
1376.1000;0.6390;0.6344;
1376.4000;0.6374;0.6268;
1376.7000;0.6365;0.6217;
1377.0000;0.6382;0.6166;
1377.3000;0.6374;0.6166;
1377.6000;0.6374;0.6191;
1377.9000;0.6406;0.6268;
1378.2000;0.6398;0.6242;
1378.5000;0.6382;0.6293;
1378.8000;0.6390;0.6319;
1379.1000;0.6431;0.6446;
1379.4000;0.6382;0.6344;
1379.7000;0.6382;0.6293;
1380.0000;0.6382;0.6369;
1380.3000;0.6382;0.6420;
1380.6000;0.6382;0.6446;
1380.9000;0.6431;0.6599;
1381.2000;0.6382;0.6395;
1381.5000;0.6365;0.6395;
1381.8000;0.6398;0.6344;
1382.1000;0.6390;0.6293;
1382.4000;0.6382;0.6242;
1382.7000;0.6390;0.6191;
1383.0000;0.6398;0.6242;
1383.3000;0.6390;0.6166;
1383.6000;0.6390;0.6089;
1383.9000;0.6382;0.6140;
1384.2000;0.6365;0.6115;
1384.5000;0.6398;0.6140;
1384.8000;0.6374;0.6089;
1385.1000;0.6390;0.6064;
1385.4000;0.6390;0.6038;
1385.7000;0.6390;0.6115;
1386.0000;0.6398;0.6038;
1386.3000;0.6390;0.6089;
1386.6000;0.6398;0.6115;
1386.9000;0.6390;0.6115;
1387.2000;0.6390;0.6140;
1387.5000;0.6374;0.6166;
1387.8000;0.6374;0.6115;
1388.1000;0.6390;0.6140;
1388.4000;0.6390;0.6089;
1388.7000;0.6382;0.5987;
1389.0000;0.6398;0.6089;
1389.3000;0.6382;0.5987;
1389.6000;0.6398;0.5962;
1389.9000;0.6398;0.6115;
1390.2000;0.6382;0.6166;
1390.5000;0.6382;0.6217;
1390.8000;0.6390;0.6268;
1391.1000;0.6398;0.6344;
1391.4000;0.6382;0.6319;
1391.7000;0.6382;0.6369;
1392.0000;0.6398;0.6395;
1392.3000;0.6398;0.6420;
1392.6000;0.6374;0.6344;
1392.9000;0.6390;0.6319;
1393.2000;0.6390;0.6242;
1393.5000;0.6374;0.6293;
1393.8000;0.6374;0.6242;
1394.1000;0.6382;0.6293;
1394.4000;0.6374;0.6217;
1394.7000;0.6398;0.6217;
1395.0000;0.6382;0.6268;
1395.3000;0.6382;0.6268;
1395.6000;0.6365;0.6242;
1395.9000;0.6390;0.6242;
1396.2000;0.6382;0.6242;
1396.5000;0.6382;0.6242;
1396.8000;0.6390;0.6217;
1397.1000;0.6382;0.6166;
1397.4000;0.6390;0.6242;
1397.7000;0.6382;0.6242;
1398.0000;0.6309;0.6115;
1398.3000;0.6398;0.6217;
1398.6000;0.6374;0.6140;
1398.9000;0.6365;0.6140;
1399.2000;0.6357;0.6115;
1399.5000;0.6382;0.6268;
1399.8000;0.6382;0.6344;
