time/ms;Fluo/V;P700 deltaI/I x10³;
-199.8000;0.8645;0.8572;
-199.5000;0.8653;0.8572;
-199.2000;0.8637;0.8495;
-198.9000;0.8637;0.8546;
-198.6000;0.8637;0.8572;
-198.3000;0.8628;0.8520;
-198.0000;0.8645;0.8418;
-197.7000;0.8661;0.8392;
-197.4000;0.8620;0.8290;
-197.1000;0.8645;0.8290;
-196.8000;0.8661;0.8315;
-196.5000;0.8653;0.8418;
-196.2000;0.8620;0.8341;
-195.9000;0.8620;0.8392;
-195.6000;0.8637;0.8367;
-195.3000;0.8637;0.8367;
-195.0000;0.8637;0.8290;
-194.7000;0.8637;0.8315;
-194.4000;0.8645;0.8341;
-194.1000;0.8653;0.8444;
-193.8000;0.8661;0.8392;
-193.5000;0.8661;0.8367;
-193.2000;0.8653;0.8315;
-192.9000;0.8669;0.8290;
-192.6000;0.8653;0.8213;
-192.3000;0.8661;0.8213;
-192.0000;0.8653;0.8213;
-191.7000;0.8669;0.8238;
-191.4000;0.8637;0.8161;
-191.1000;0.8637;0.8136;
-190.8000;0.8628;0.8084;
-190.5000;0.8645;0.8110;
-190.2000;0.8645;0.8084;
-189.9000;0.8645;0.8110;
-189.6000;0.8637;0.8084;
-189.3000;0.8661;0.8161;
-189.0000;0.8653;0.8213;
-188.7000;0.8637;0.8136;
-188.4000;0.8645;0.8110;
-188.1000;0.8645;0.8007;
-187.8000;0.8637;0.7956;
-187.5000;0.8637;0.7956;
-187.2000;0.8669;0.8059;
-186.9000;0.8645;0.8136;
-186.6000;0.8669;0.8161;
-186.3000;0.8645;0.8007;
-186.0000;0.8637;0.8059;
-185.7000;0.8637;0.8084;
-185.4000;0.8637;0.8136;
-185.1000;0.8645;0.8136;
-184.8000;0.8645;0.8059;
-184.5000;0.8653;0.8161;
-184.2000;0.8645;0.8161;
-183.9000;0.8645;0.8161;
-183.6000;0.8653;0.8213;
-183.3000;0.8645;0.8238;
-183.0000;0.8637;0.8315;
-182.7000;0.8653;0.8290;
-182.4000;0.8661;0.8290;
-182.1000;0.8645;0.8213;
-181.8000;0.8661;0.8213;
-181.5000;0.8677;0.8238;
-181.2000;0.8653;0.8238;
-180.9000;0.8645;0.8238;
-180.6000;0.8653;0.8187;
-180.3000;0.8645;0.8161;
-180.0000;0.8637;0.8161;
-179.7000;0.8637;0.8161;
-179.4000;0.8645;0.8136;
-179.1000;0.8645;0.8187;
-178.8000;0.8645;0.8136;
-178.5000;0.8661;0.8187;
-178.2000;0.8637;0.8264;
-177.9000;0.8645;0.8290;
-177.6000;0.8637;0.8238;
-177.3000;0.8628;0.8238;
-177.0000;0.8645;0.8238;
-176.7000;0.8677;0.8341;
-176.4000;0.8645;0.8290;
-176.1000;0.8637;0.8187;
-175.8000;0.8637;0.8161;
-175.5000;0.8637;0.8187;
-175.2000;0.8637;0.8238;
-174.9000;0.8677;0.8392;
-174.6000;0.8628;0.8290;
-174.3000;0.8628;0.8264;
-174.0000;0.8661;0.8315;
-173.7000;0.8645;0.8341;
-173.4000;0.8653;0.8444;
-173.1000;0.8645;0.8392;
-172.8000;0.8661;0.8341;
-172.5000;0.8677;0.8315;
-172.2000;0.8661;0.8238;
-171.9000;0.8637;0.8290;
-171.6000;0.8661;0.8315;
-171.3000;0.8661;0.8341;
-171.0000;0.8645;0.8264;
-170.7000;0.8604;0.8238;
-170.4000;0.8653;0.8341;
-170.1000;0.8645;0.8367;
-169.8000;0.8637;0.8315;
-169.5000;0.8661;0.8367;
-169.2000;0.8628;0.8290;
-168.9000;0.8645;0.8367;
-168.6000;0.8620;0.8290;
-168.3000;0.8661;0.8315;
-168.0000;0.8588;0.8084;
-167.7000;0.8702;0.8341;
-167.4000;0.8645;0.8315;
-167.1000;0.8710;0.8444;
-166.8000;0.8694;0.8315;
-166.5000;0.8645;0.8161;
-166.2000;0.8685;0.8213;
-165.9000;0.8604;0.8033;
-165.6000;0.8628;0.8084;
-165.3000;0.8628;0.8084;
-165.0000;0.8628;0.8084;
-164.7000;0.8645;0.8110;
-164.4000;0.8637;0.8161;
-164.1000;0.8645;0.8187;
-163.8000;0.8653;0.8187;
-163.5000;0.8637;0.8136;
-163.2000;0.8628;0.8187;
-162.9000;0.8637;0.8213;
-162.6000;0.8645;0.8290;
-162.3000;0.8726;0.8418;
-162.0000;0.8645;0.8161;
-161.7000;0.8685;0.8264;
-161.4000;0.8637;0.8290;
-161.1000;0.8661;0.8264;
-160.8000;0.8653;0.8187;
-160.5000;0.8653;0.8213;
-160.2000;0.8661;0.8213;
-159.9000;0.8645;0.8161;
-159.6000;0.8653;0.8084;
-159.3000;0.8653;0.8110;
-159.0000;0.8694;0.8367;
-158.7000;0.8612;0.8238;
-158.4000;0.8653;0.8315;
-158.1000;0.8669;0.8392;
-157.8000;0.8653;0.8444;
-157.5000;0.8555;0.8238;
-157.2000;0.8653;0.8392;
-156.9000;0.8661;0.8341;
-156.6000;0.8637;0.8418;
-156.3000;0.8637;0.8469;
-156.0000;0.8628;0.8469;
-155.7000;0.8628;0.8418;
-155.4000;0.8645;0.8290;
-155.1000;0.8637;0.8290;
-154.8000;0.8620;0.8315;
-154.5000;0.8628;0.8341;
-154.2000;0.8645;0.8341;
-153.9000;0.8653;0.8290;
-153.6000;0.8604;0.8136;
-153.3000;0.8645;0.8238;
-153.0000;0.8628;0.8059;
-152.7000;0.8661;0.8110;
-152.4000;0.8661;0.8007;
-152.1000;0.8653;0.8007;
-151.8000;0.8547;0.7828;
-151.5000;0.8645;0.8187;
-151.2000;0.8685;0.8290;
-150.9000;0.8645;0.8238;
-150.6000;0.8628;0.8213;
-150.3000;0.8645;0.8264;
-150.0000;0.8612;0.8213;
-149.7000;0.8718;0.8469;
-149.4000;0.8604;0.8136;
-149.1000;0.8653;0.8238;
-148.8000;0.8637;0.8290;
-148.5000;0.8645;0.8367;
-148.2000;0.8645;0.8469;
-147.9000;0.8612;0.8290;
-147.6000;0.8588;0.8264;
-147.3000;0.8637;0.8290;
-147.0000;0.8661;0.8367;
-146.7000;0.8620;0.8187;
-146.4000;0.8661;0.8187;
-146.1000;0.8645;0.7982;
-145.8000;0.8661;0.7982;
-145.5000;0.8661;0.8110;
-145.2000;0.8628;0.8136;
-144.9000;0.8628;0.8136;
-144.6000;0.8677;0.8213;
-144.3000;0.8653;0.8213;
-144.0000;0.8588;0.8238;
-143.7000;0.8523;0.8187;
-143.4000;0.8637;0.8495;
-143.1000;0.8637;0.8546;
-142.8000;0.8694;0.8597;
-142.5000;0.8661;0.8546;
-142.2000;0.8759;0.8777;
-141.9000;0.8653;0.8418;
-141.6000;0.8637;0.8341;
-141.3000;0.8645;0.8341;
-141.0000;0.8669;0.8341;
-140.7000;0.8645;0.8315;
-140.4000;0.8653;0.8341;
-140.1000;0.8645;0.8264;
-139.8000;0.8637;0.8264;
-139.5000;0.8661;0.8392;
-139.2000;0.8645;0.8315;
-138.9000;0.8637;0.8264;
-138.6000;0.8637;0.8341;
-138.3000;0.8661;0.8341;
-138.0000;0.8645;0.8315;
-137.7000;0.8669;0.8418;
-137.4000;0.8637;0.8367;
-137.1000;0.8653;0.8495;
-136.8000;0.8637;0.8418;
-136.5000;0.8604;0.8341;
-136.2000;0.8645;0.8418;
-135.9000;0.8620;0.8315;
-135.6000;0.8661;0.8469;
-135.3000;0.8547;0.8136;
-135.0000;0.8637;0.8367;
-134.7000;0.8637;0.8315;
-134.4000;0.8645;0.8392;
-134.1000;0.8645;0.8392;
-133.8000;0.8628;0.8367;
-133.5000;0.8645;0.8469;
-133.2000;0.8645;0.8418;
-132.9000;0.8653;0.8392;
-132.6000;0.8645;0.8392;
-132.3000;0.8645;0.8392;
-132.0000;0.8661;0.8392;
-131.7000;0.8637;0.8341;
-131.4000;0.8645;0.8367;
-131.1000;0.8628;0.8290;
-130.8000;0.8637;0.8290;
-130.5000;0.8653;0.8392;
-130.2000;0.8645;0.8290;
-129.9000;0.8637;0.8418;
-129.6000;0.8612;0.8418;
-129.3000;0.8604;0.8444;
-129.0000;0.8742;0.8674;
-128.7000;0.8628;0.8341;
-128.4000;0.8645;0.8315;
-128.1000;0.8653;0.8290;
-127.8000;0.8645;0.8213;
-127.5000;0.8653;0.8315;
-127.2000;0.8637;0.8367;
-126.9000;0.8645;0.8315;
-126.6000;0.8653;0.8392;
-126.3000;0.8612;0.8264;
-126.0000;0.8653;0.8367;
-125.7000;0.8653;0.8315;
-125.4000;0.8637;0.8290;
-125.1000;0.8645;0.8367;
-124.8000;0.8637;0.8315;
-124.5000;0.8628;0.8290;
-124.2000;0.8645;0.8341;
-123.9000;0.8628;0.8367;
-123.6000;0.8628;0.8213;
-123.3000;0.8645;0.8264;
-123.0000;0.8653;0.8213;
-122.7000;0.8653;0.8290;
-122.4000;0.8645;0.8264;
-122.1000;0.8653;0.8290;
-121.8000;0.8669;0.8290;
-121.5000;0.8645;0.8264;
-121.2000;0.8710;0.8444;
-120.9000;0.8588;0.8213;
-120.6000;0.8645;0.8315;
-120.3000;0.8628;0.8213;
-120.0000;0.8645;0.8341;
-119.7000;0.8628;0.8367;
-119.4000;0.8628;0.8290;
-119.1000;0.8555;0.8033;
-118.8000;0.8637;0.8264;
-118.5000;0.8628;0.8213;
-118.2000;0.8645;0.8238;
-117.9000;0.8694;0.8290;
-117.6000;0.8653;0.8187;
-117.3000;0.8653;0.8110;
-117.0000;0.8645;0.8110;
-116.7000;0.8653;0.8007;
-116.4000;0.8661;0.8033;
-116.1000;0.8637;0.8084;
-115.8000;0.8645;0.8136;
-115.5000;0.8694;0.8341;
-115.2000;0.8645;0.8290;
-114.9000;0.8628;0.8290;
-114.6000;0.8637;0.8315;
-114.3000;0.8620;0.8238;
-114.0000;0.8637;0.8161;
-113.7000;0.8645;0.8187;
-113.4000;0.8637;0.8187;
-113.1000;0.8637;0.8136;
-112.8000;0.8645;0.8264;
-112.5000;0.8637;0.8290;
-112.2000;0.8637;0.8264;
-111.9000;0.8645;0.8238;
-111.6000;0.8653;0.8290;
-111.3000;0.8734;0.8418;
-111.0000;0.8637;0.8059;
-110.7000;0.8669;0.8110;
-110.4000;0.8677;0.8238;
-110.1000;0.8645;0.8238;
-109.8000;0.8653;0.8315;
-109.5000;0.8653;0.8341;
-109.2000;0.8653;0.8444;
-108.9000;0.8653;0.8367;
-108.6000;0.8661;0.8315;
-108.3000;0.8637;0.8187;
-108.0000;0.8645;0.8161;
-107.7000;0.8661;0.8264;
-107.4000;0.8580;0.8187;
-107.1000;0.8637;0.8290;
-106.8000;0.8637;0.8264;
-106.5000;0.8653;0.8367;
-106.2000;0.8637;0.8367;
-105.9000;0.8637;0.8315;
-105.6000;0.8637;0.8238;
-105.3000;0.8645;0.8264;
-105.0000;0.8685;0.8469;
-104.7000;0.8637;0.8315;
-104.4000;0.8645;0.8238;
-104.1000;0.8669;0.8290;
-103.8000;0.8645;0.8187;
-103.5000;0.8637;0.8084;
-103.2000;0.8563;0.8033;
-102.9000;0.8637;0.8161;
-102.6000;0.8637;0.8110;
-102.3000;0.8669;0.8084;
-102.0000;0.8620;0.7982;
-101.7000;0.8710;0.8213;
-101.4000;0.8637;0.7905;
-101.1000;0.8637;0.7853;
-100.8000;0.8645;0.7879;
-100.5000;0.8653;0.7905;
-100.2000;0.8661;0.7982;
-99.9000;0.8637;0.7879;
-99.6000;0.8653;0.7956;
-99.3000;0.8628;0.7982;
-99.0000;0.8653;0.8007;
-98.7000;0.8653;0.8059;
-98.4000;0.8645;0.8059;
-98.1000;0.8653;0.8161;
-97.8000;0.8645;0.8161;
-97.5000;0.8645;0.8136;
-97.2000;0.8620;0.8084;
-96.9000;0.8645;0.8187;
-96.6000;0.8661;0.8187;
-96.3000;0.8661;0.8238;
-96.0000;0.8677;0.8238;
-95.7000;0.8628;0.8084;
-95.4000;0.8645;0.8059;
-95.1000;0.8637;0.8059;
-94.8000;0.8661;0.8059;
-94.5000;0.8637;0.8059;
-94.2000;0.8653;0.8084;
-93.9000;0.8661;0.8264;
-93.6000;0.8596;0.8110;
-93.3000;0.8645;0.8238;
-93.0000;0.8637;0.8161;
-92.7000;0.8653;0.8213;
-92.4000;0.8612;0.8110;
-92.1000;0.8612;0.8161;
-91.8000;0.8628;0.8161;
-91.5000;0.8628;0.8187;
-91.2000;0.8637;0.8290;
-90.9000;0.8645;0.8315;
-90.6000;0.8645;0.8290;
-90.3000;0.8628;0.8264;
-90.0000;0.8645;0.8213;
-89.7000;0.8661;0.8238;
-89.4000;0.8661;0.8161;
-89.1000;0.8645;0.8110;
-88.8000;0.8628;0.8007;
-88.5000;0.8604;0.7982;
-88.2000;0.8637;0.8033;
-87.9000;0.8620;0.8059;
-87.6000;0.8612;0.8007;
-87.3000;0.8742;0.8367;
-87.0000;0.8637;0.8084;
-86.7000;0.8645;0.8084;
-86.4000;0.8653;0.8161;
-86.1000;0.8661;0.8187;
-85.8000;0.8653;0.8110;
-85.5000;0.8637;0.8007;
-85.2000;0.8645;0.8059;
-84.9000;0.8637;0.8084;
-84.6000;0.8661;0.8136;
-84.3000;0.8645;0.8110;
-84.0000;0.8637;0.8110;
-83.7000;0.8628;0.8213;
-83.4000;0.8653;0.8290;
-83.1000;0.8645;0.8290;
-82.8000;0.8637;0.8187;
-82.5000;0.8637;0.8161;
-82.2000;0.8612;0.8161;
-81.9000;0.8653;0.8187;
-81.6000;0.8645;0.8161;
-81.3000;0.8612;0.8187;
-81.0000;0.8702;0.8392;
-80.7000;0.8645;0.8213;
-80.4000;0.8637;0.8187;
-80.1000;0.8653;0.8290;
-79.8000;0.8669;0.8213;
-79.5000;0.8661;0.8213;
-79.2000;0.8645;0.8110;
-78.9000;0.8669;0.8110;
-78.6000;0.8637;0.8059;
-78.3000;0.8604;0.7982;
-78.0000;0.8653;0.8084;
-77.7000;0.8547;0.7853;
-77.4000;0.8645;0.8213;
-77.1000;0.8653;0.8264;
-76.8000;0.8653;0.8187;
-76.5000;0.8645;0.8161;
-76.2000;0.8637;0.8059;
-75.9000;0.8653;0.8033;
-75.6000;0.8669;0.8033;
-75.3000;0.8628;0.8007;
-75.0000;0.8637;0.7956;
-74.7000;0.8661;0.8007;
-74.4000;0.8677;0.8084;
-74.1000;0.8653;0.7982;
-73.8000;0.8710;0.8110;
-73.5000;0.8645;0.7879;
-73.2000;0.8645;0.7905;
-72.9000;0.8645;0.7905;
-72.6000;0.8620;0.7853;
-72.3000;0.8604;0.7828;
-72.0000;0.8653;0.7982;
-71.7000;0.8637;0.7930;
-71.4000;0.8661;0.7930;
-71.1000;0.8661;0.7956;
-70.8000;0.8653;0.7930;
-70.5000;0.8661;0.7828;
-70.2000;0.8653;0.7802;
-69.9000;0.8628;0.7776;
-69.6000;0.8645;0.7802;
-69.3000;0.8628;0.7776;
-69.0000;0.8661;0.7853;
-68.7000;0.8637;0.7802;
-68.4000;0.8604;0.7699;
-68.1000;0.8637;0.7725;
-67.8000;0.8645;0.7853;
-67.5000;0.8653;0.7982;
-67.2000;0.8645;0.7956;
-66.9000;0.8628;0.7956;
-66.6000;0.8612;0.7956;
-66.3000;0.8669;0.8110;
-66.0000;0.8628;0.8084;
-65.7000;0.8645;0.8136;
-65.4000;0.8645;0.8033;
-65.1000;0.8620;0.7956;
-64.8000;0.8637;0.7905;
-64.5000;0.8637;0.7930;
-64.2000;0.8653;0.8033;
-63.9000;0.8645;0.8033;
-63.6000;0.8645;0.8136;
-63.3000;0.8628;0.8136;
-63.0000;0.8653;0.8213;
-62.7000;0.8637;0.8213;
-62.4000;0.8677;0.8264;
-62.1000;0.8637;0.8264;
-61.8000;0.8645;0.8187;
-61.5000;0.8637;0.8161;
-61.2000;0.8637;0.8213;
-60.9000;0.8645;0.8264;
-60.6000;0.8628;0.8264;
-60.3000;0.8661;0.8136;
-60.0000;0.8628;0.8059;
-59.7000;0.8694;0.8136;
-59.4000;0.8628;0.8084;
-59.1000;0.8628;0.8187;
-58.8000;0.8637;0.8213;
-58.5000;0.8645;0.8187;
-58.2000;0.8645;0.8110;
-57.9000;0.8637;0.8084;
-57.6000;0.8645;0.8084;
-57.3000;0.8628;0.8110;
-57.0000;0.8677;0.8341;
-56.7000;0.8653;0.8187;
-56.4000;0.8653;0.8187;
-56.1000;0.8637;0.8161;
-55.8000;0.8628;0.8110;
-55.5000;0.8661;0.8136;
-55.2000;0.8637;0.8033;
-54.9000;0.8653;0.8084;
-54.6000;0.8645;0.8084;
-54.3000;0.8661;0.8238;
-54.0000;0.8653;0.8264;
-53.7000;0.8637;0.8187;
-53.4000;0.8645;0.8136;
-53.1000;0.8628;0.8136;
-52.8000;0.8645;0.8110;
-52.5000;0.8637;0.8110;
-52.2000;0.8628;0.8084;
-51.9000;0.8612;0.8033;
-51.6000;0.8637;0.8110;
-51.3000;0.8628;0.8084;
-51.0000;0.8637;0.8161;
-50.7000;0.8628;0.8136;
-50.4000;0.8628;0.8110;
-50.1000;0.8620;0.8084;
-49.8000;0.8637;0.8213;
-49.5000;0.8620;0.8213;
-49.2000;0.8645;0.8290;
-48.9000;0.8620;0.8315;
-48.6000;0.8637;0.8367;
-48.3000;0.8620;0.8315;
-48.0000;0.8620;0.8392;
-47.7000;0.8620;0.8392;
-47.4000;0.8645;0.8392;
-47.1000;0.8628;0.8392;
-46.8000;0.8628;0.8418;
-46.5000;0.8661;0.8520;
-46.2000;0.8653;0.8546;
-45.9000;0.8645;0.8444;
-45.6000;0.8653;0.8469;
-45.3000;0.8628;0.8392;
-45.0000;0.8628;0.8444;
-44.7000;0.8661;0.8444;
-44.4000;0.8694;0.8495;
-44.1000;0.8645;0.8290;
-43.8000;0.8645;0.8187;
-43.5000;0.8669;0.8315;
-43.2000;0.8645;0.8238;
-42.9000;0.8637;0.8238;
-42.6000;0.8661;0.8315;
-42.3000;0.8669;0.8264;
-42.0000;0.8669;0.8290;
-41.7000;0.8653;0.8290;
-41.4000;0.8555;0.8110;
-41.1000;0.8661;0.8315;
-40.8000;0.8645;0.8290;
-40.5000;0.8645;0.8264;
-40.2000;0.8645;0.8213;
-39.9000;0.8637;0.8264;
-39.6000;0.8620;0.8187;
-39.3000;0.8628;0.8110;
-39.0000;0.8637;0.8084;
-38.7000;0.8645;0.8007;
-38.4000;0.8653;0.7930;
-38.1000;0.8645;0.7905;
-37.8000;0.8653;0.7853;
-37.5000;0.8637;0.7828;
-37.2000;0.8637;0.7905;
-36.9000;0.8628;0.7879;
-36.6000;0.8620;0.7905;
-36.3000;0.8637;0.8033;
-36.0000;0.8661;0.8084;
-35.7000;0.8637;0.8110;
-35.4000;0.8653;0.8110;
-35.1000;0.8669;0.8136;
-34.8000;0.8677;0.8161;
-34.5000;0.8596;0.8007;
-34.2000;0.8645;0.8136;
-33.9000;0.8628;0.8059;
-33.6000;0.8645;0.8136;
-33.3000;0.8637;0.8161;
-33.0000;0.8661;0.8290;
-32.7000;0.8637;0.8264;
-32.4000;0.8653;0.8187;
-32.1000;0.8637;0.8161;
-31.8000;0.8637;0.8136;
-31.5000;0.8637;0.8110;
-31.2000;0.8653;0.8213;
-30.9000;0.8645;0.8213;
-30.6000;0.8637;0.8110;
-30.3000;0.8645;0.8110;
-30.0000;0.8653;0.8213;
-29.7000;0.8653;0.8264;
-29.4000;0.8620;0.8290;
-29.1000;0.8637;0.8392;
-28.8000;0.8637;0.8290;
-28.5000;0.8653;0.8367;
-28.2000;0.8653;0.8367;
-27.9000;0.8637;0.8315;
-27.6000;0.8645;0.8341;
-27.3000;0.8645;0.8341;
-27.0000;0.8734;0.8546;
-26.7000;0.8637;0.8341;
-26.4000;0.8661;0.8444;
-26.1000;0.8653;0.8495;
-25.8000;0.8645;0.8546;
-25.5000;0.8677;0.8623;
-25.2000;0.8645;0.8444;
-24.9000;0.8645;0.8469;
-24.6000;0.8637;0.8546;
-24.3000;0.8645;0.8597;
-24.0000;0.8628;0.8520;
-23.7000;0.8637;0.8418;
-23.4000;0.8653;0.8315;
-23.1000;0.8628;0.8290;
-22.8000;0.8628;0.8341;
-22.5000;0.8645;0.8315;
-22.2000;0.8710;0.8546;
-21.9000;0.8645;0.8341;
-21.6000;0.8620;0.8290;
-21.3000;0.8628;0.8367;
-21.0000;0.8653;0.8315;
-20.7000;0.8661;0.8341;
-20.4000;0.8653;0.8341;
-20.1000;0.8661;0.8392;
-19.8000;0.8669;0.8418;
-19.5000;0.8637;0.8392;
-19.2000;0.8645;0.8444;
-18.9000;0.8628;0.8444;
-18.6000;0.8645;0.8418;
-18.3000;0.8628;0.8469;
-18.0000;0.8661;0.8520;
-17.7000;0.8628;0.8418;
-17.4000;0.8645;0.8444;
-17.1000;0.8645;0.8392;
-16.8000;0.8637;0.8367;
-16.5000;0.8645;0.8341;
-16.2000;0.8661;0.8341;
-15.9000;0.8645;0.8290;
-15.6000;0.8645;0.8367;
-15.3000;0.8645;0.8418;
-15.0000;0.8637;0.8495;
-14.7000;0.8637;0.8597;
-14.4000;0.8669;0.8726;
-14.1000;0.8620;0.8623;
-13.8000;0.8637;0.8546;
-13.5000;0.8628;0.8392;
-13.2000;0.8653;0.8469;
-12.9000;0.8637;0.8341;
-12.6000;0.8628;0.8341;
-12.3000;0.8628;0.8367;
-12.0000;0.8645;0.8341;
-11.7000;0.8645;0.8264;
-11.4000;0.8596;0.8033;
-11.1000;0.8628;0.8161;
-10.8000;0.8628;0.8187;
-10.5000;0.8661;0.8187;
-10.2000;0.8604;0.8110;
-9.9000;0.8637;0.8187;
-9.6000;0.8653;0.8187;
-9.3000;0.8661;0.8213;
-9.0000;0.8645;0.8161;
-8.7000;0.8694;0.8264;
-8.4000;0.8637;0.8213;
-8.1000;0.8628;0.8213;
-7.8000;0.8604;0.8213;
-7.5000;0.8637;0.8290;
-7.2000;0.8637;0.8315;
-6.9000;0.8685;0.8392;
-6.6000;0.8653;0.8341;
-6.3000;0.8555;0.7982;
-6.0000;0.8669;0.8315;
-5.7000;0.8677;0.8392;
-5.4000;0.8710;0.8418;
-5.1000;0.8791;0.8649;
-4.8000;0.8645;0.8367;
-4.5000;0.8653;0.8392;
-4.2000;0.8702;0.8546;
-3.9000;0.8645;0.8444;
-3.6000;0.8661;0.8469;
-3.3000;0.8653;0.8495;
-3.0000;0.8628;0.8418;
-2.7000;0.8612;0.8418;
-2.4000;0.8612;0.8367;
-2.1000;0.8620;0.8367;
-1.8000;0.8604;0.8418;
-1.5000;0.8628;0.8469;
-1.2000;0.8637;0.8597;
-0.9000;0.8604;0.8469;
-0.6000;0.8645;0.8674;
-0.3000;0.8645;0.8700;
0.0000;0.8645;0.8700;
0.3000;0.8694;0.8597;
0.6000;0.8824;0.8854;
0.9000;0.8905;0.9059;
1.2000;0.8970;0.9265;
1.5000;0.9019;0.9470;
1.8000;0.9035;0.9624;
2.1000;0.9092;0.9881;
2.4000;0.9141;1.0189;
2.7000;0.9141;1.0214;
3.0000;0.9182;1.0368;
3.3000;0.9231;1.0445;
3.6000;0.9231;1.0317;
3.9000;0.9231;1.0420;
4.2000;0.9231;1.0471;
4.5000;0.9263;1.0522;
4.8000;0.9280;1.0548;
5.1000;0.9280;1.0522;
5.4000;0.9288;1.0522;
5.7000;0.9304;1.0548;
6.0000;0.9320;1.0599;
6.3000;0.9328;1.0625;
6.6000;0.9345;1.0574;
6.9000;0.9369;1.0599;
7.2000;0.9377;1.0651;
7.5000;0.9369;1.0599;
7.8000;0.9361;1.0574;
8.1000;0.9385;1.0574;
8.4000;0.9394;1.0522;
8.7000;0.9410;1.0574;
9.0000;0.9434;1.0599;
9.3000;0.9394;1.0548;
9.6000;0.9426;1.0548;
9.9000;0.9442;1.0574;
10.2000;0.9442;1.0497;
10.5000;0.9442;1.0548;
10.8000;0.9434;1.0471;
11.1000;0.9475;1.0497;
11.4000;0.9451;1.0394;
11.7000;0.9491;1.0522;
12.0000;0.9475;1.0497;
12.3000;0.9459;1.0445;
12.6000;0.9402;1.0317;
12.9000;0.9451;1.0471;
13.2000;0.9491;1.0522;
13.5000;0.9499;1.0651;
13.8000;0.9483;1.0574;
14.1000;0.9475;1.0599;
14.4000;0.9483;1.0548;
14.7000;0.9475;1.0445;
15.0000;0.9613;1.0805;
15.3000;0.9524;1.0548;
15.6000;0.9491;1.0548;
15.9000;0.9516;1.0651;
16.2000;0.9516;1.0599;
16.5000;0.9516;1.0599;
16.8000;0.9532;1.0676;
17.1000;0.9556;1.0779;
17.4000;0.9524;1.0702;
17.7000;0.9508;1.0574;
18.0000;0.9516;1.0599;
18.3000;0.9532;1.0728;
18.6000;0.9524;1.0702;
18.9000;0.9516;1.0625;
19.2000;0.9532;1.0625;
19.5000;0.9467;1.0497;
19.8000;0.9548;1.0625;
20.1000;0.9573;1.0599;
20.4000;0.9565;1.0445;
20.7000;0.9540;1.0317;
21.0000;0.9638;1.0625;
21.3000;0.9548;1.0445;
21.6000;0.9532;1.0548;
21.9000;0.9516;1.0497;
22.2000;0.9516;1.0548;
22.5000;0.9540;1.0625;
22.8000;0.9573;1.0599;
23.1000;0.9573;1.0599;
23.4000;0.9540;1.0522;
23.7000;0.9573;1.0676;
24.0000;0.9581;1.0651;
24.3000;0.9605;1.0753;
24.6000;0.9573;1.0676;
24.9000;0.9581;1.0702;
25.2000;0.9589;1.0651;
25.5000;0.9573;1.0625;
25.8000;0.9573;1.0702;
26.1000;0.9573;1.0728;
26.4000;0.9565;1.0753;
26.7000;0.9589;1.0702;
27.0000;0.9581;1.0497;
27.3000;0.9630;1.0651;
27.6000;0.9589;1.0445;
27.9000;0.9581;1.0420;
28.2000;0.9581;1.0445;
28.5000;0.9589;1.0522;
28.8000;0.9597;1.0471;
29.1000;0.9605;1.0548;
29.4000;0.9581;1.0548;
29.7000;0.9589;1.0599;
30.0000;0.9581;1.0574;
30.3000;0.9597;1.0522;
30.6000;0.9703;1.0728;
30.9000;0.9621;1.0522;
31.2000;0.9654;1.0625;
31.5000;0.9630;1.0599;
31.8000;0.9589;1.0497;
32.1000;0.9589;1.0445;
32.4000;0.9613;1.0574;
32.7000;0.9581;1.0497;
33.0000;0.9581;1.0445;
33.3000;0.9597;1.0445;
33.6000;0.9589;1.0368;
33.9000;0.9670;1.0574;
34.2000;0.9605;1.0394;
34.5000;0.9589;1.0368;
34.8000;0.9556;1.0214;
35.1000;0.9581;1.0317;
35.4000;0.9581;1.0291;
35.7000;0.9556;1.0214;
36.0000;0.9638;1.0394;
36.3000;0.9621;1.0368;
36.6000;0.9605;1.0266;
36.9000;0.9548;1.0163;
37.2000;0.9613;1.0266;
37.5000;0.9589;1.0291;
37.8000;0.9613;1.0368;
38.1000;0.9573;1.0368;
38.4000;0.9589;1.0445;
38.7000;0.9597;1.0497;
39.0000;0.9621;1.0522;
39.3000;0.9597;1.0548;
39.6000;0.9613;1.0497;
39.9000;0.9581;1.0445;
40.2000;0.9613;1.0497;
40.5000;0.9581;1.0420;
40.8000;0.9613;1.0522;
41.1000;0.9597;1.0471;
41.4000;0.9597;1.0420;
41.7000;0.9573;1.0291;
42.0000;0.9605;1.0497;
42.3000;0.9613;1.0522;
42.6000;0.9613;1.0497;
42.9000;0.9621;1.0522;
43.2000;0.9597;1.0522;
43.5000;0.9597;1.0445;
43.8000;0.9613;1.0420;
44.1000;0.9605;1.0343;
44.4000;0.9638;1.0471;
44.7000;0.9605;1.0497;
45.0000;0.9605;1.0548;
45.3000;0.9597;1.0651;
45.6000;0.9621;1.0676;
45.9000;0.9597;1.0702;
46.2000;0.9581;1.0651;
46.5000;0.9581;1.0728;
46.8000;0.9597;1.0779;
47.1000;0.9597;1.0728;
47.4000;0.9597;1.0702;
47.7000;0.9605;1.0599;
48.0000;0.9605;1.0497;
48.3000;0.9573;1.0420;
48.6000;0.9605;1.0574;
48.9000;0.9597;1.0574;
49.2000;0.9597;1.0625;
49.5000;0.9589;1.0599;
49.8000;0.9589;1.0625;
50.1000;0.9597;1.0497;
50.4000;0.9613;1.0548;
50.7000;0.9662;1.0805;
51.0000;0.9605;1.0625;
51.3000;0.9589;1.0625;
51.6000;0.9573;1.0599;
51.9000;0.9581;1.0599;
52.2000;0.9605;1.0625;
52.5000;0.9638;1.0676;
52.8000;0.9597;1.0651;
53.1000;0.9573;1.0574;
53.4000;0.9589;1.0651;
53.7000;0.9687;1.0805;
54.0000;0.9589;1.0420;
54.3000;0.9597;1.0445;
54.6000;0.9613;1.0574;
54.9000;0.9589;1.0548;
55.2000;0.9581;1.0471;
55.5000;0.9589;1.0445;
55.8000;0.9565;1.0394;
56.1000;0.9605;1.0471;
56.4000;0.9621;1.0522;
56.7000;0.9589;1.0394;
57.0000;0.9646;1.0548;
57.3000;0.9589;1.0471;
57.6000;0.9597;1.0548;
57.9000;0.9589;1.0599;
58.2000;0.9621;1.0676;
58.5000;0.9654;1.0728;
58.8000;0.9613;1.0625;
59.1000;0.9613;1.0522;
59.4000;0.9597;1.0497;
59.7000;0.9581;1.0445;
60.0000;0.9573;1.0522;
60.3000;0.9589;1.0651;
60.6000;0.9589;1.0574;
60.9000;0.9605;1.0625;
61.2000;0.9605;1.0702;
61.5000;0.9638;1.0779;
61.8000;0.9605;1.0702;
62.1000;0.9605;1.0651;
62.4000;0.9613;1.0522;
62.7000;0.9605;1.0394;
63.0000;0.9621;1.0368;
63.3000;0.9621;1.0317;
63.6000;0.9613;1.0317;
63.9000;0.9605;1.0214;
64.2000;0.9589;1.0163;
64.5000;0.9597;1.0163;
64.8000;0.9589;1.0189;
65.1000;0.9646;1.0343;
65.4000;0.9589;1.0266;
65.7000;0.9605;1.0266;
66.0000;0.9589;1.0240;
66.3000;0.9605;1.0317;
66.6000;0.9540;1.0137;
66.9000;0.9573;1.0240;
67.2000;0.9605;1.0522;
67.5000;0.9573;1.0471;
67.8000;0.9597;1.0522;
68.1000;0.9597;1.0471;
68.4000;0.9597;1.0522;
68.7000;0.9597;1.0497;
69.0000;0.9605;1.0651;
69.3000;0.9589;1.0651;
69.6000;0.9581;1.0676;
69.9000;0.9581;1.0676;
70.2000;0.9581;1.0702;
70.5000;0.9573;1.0625;
70.8000;0.9597;1.0753;
71.1000;0.9605;1.0805;
71.4000;0.9589;1.0753;
71.7000;0.9597;1.0779;
72.0000;0.9605;1.0805;
72.3000;0.9605;1.0753;
72.6000;0.9573;1.0702;
72.9000;0.9621;1.0702;
73.2000;0.9605;1.0702;
73.5000;0.9613;1.0651;
73.8000;0.9613;1.0651;
74.1000;0.9597;1.0599;
74.4000;0.9613;1.0574;
74.7000;0.9597;1.0522;
75.0000;0.9597;1.0420;
75.3000;0.9597;1.0420;
75.6000;0.9597;1.0471;
75.9000;0.9597;1.0420;
76.2000;0.9613;1.0497;
76.5000;0.9597;1.0497;
76.8000;0.9581;1.0625;
77.1000;0.9597;1.0676;
77.4000;0.9621;1.0753;
77.7000;0.9638;1.0779;
78.0000;0.9605;1.0702;
78.3000;0.9605;1.0753;
78.6000;0.9605;1.0753;
78.9000;0.9573;1.0599;
79.2000;0.9630;1.0728;
79.5000;0.9630;1.0728;
79.8000;0.9605;1.0625;
80.1000;0.9597;1.0702;
80.4000;0.9581;1.0728;
80.7000;0.9597;1.0728;
81.0000;0.9630;1.0856;
81.3000;0.9597;1.0728;
81.6000;0.9589;1.0676;
81.9000;0.9589;1.0702;
82.2000;0.9605;1.0728;
82.5000;0.9605;1.0728;
82.8000;0.9597;1.0702;
83.1000;0.9605;1.0702;
83.4000;0.9597;1.0753;
83.7000;0.9605;1.0753;
84.0000;0.9678;1.0882;
84.3000;0.9597;1.0676;
84.6000;0.9589;1.0676;
84.9000;0.9613;1.0728;
85.2000;0.9597;1.0676;
85.5000;0.9589;1.0676;
85.8000;0.9573;1.0574;
86.1000;0.9605;1.0625;
86.4000;0.9605;1.0651;
86.7000;0.9605;1.0522;
87.0000;0.9613;1.0574;
87.3000;0.9613;1.0676;
87.6000;0.9621;1.0830;
87.9000;0.9630;1.0728;
88.2000;0.9613;1.0779;
88.5000;0.9581;1.0625;
88.8000;0.9613;1.0676;
89.1000;0.9597;1.0676;
89.4000;0.9597;1.0625;
89.7000;0.9605;1.0676;
90.0000;0.9613;1.0753;
90.3000;0.9597;1.0651;
90.6000;0.9581;1.0651;
90.9000;0.9581;1.0574;
91.2000;0.9532;1.0368;
91.5000;0.9556;1.0394;
91.8000;0.9605;1.0574;
92.1000;0.9597;1.0497;
92.4000;0.9491;1.0291;
92.7000;0.9605;1.0497;
93.0000;0.9621;1.0522;
93.3000;0.9589;1.0445;
93.6000;0.9508;1.0317;
93.9000;0.9597;1.0548;
94.2000;0.9597;1.0420;
94.5000;0.9573;1.0420;
94.8000;0.9573;1.0497;
95.1000;0.9605;1.0676;
95.4000;0.9605;1.0651;
95.7000;0.9573;1.0599;
96.0000;0.9581;1.0651;
96.3000;0.9597;1.0702;
96.6000;0.9597;1.0753;
96.9000;0.9589;1.0702;
97.2000;0.9613;1.0599;
97.5000;0.9613;1.0599;
97.8000;0.9613;1.0625;
98.1000;0.9605;1.0651;
98.4000;0.9548;1.0599;
98.7000;0.9524;1.0548;
99.0000;0.9605;1.0753;
99.3000;0.9605;1.0753;
99.6000;0.9589;1.0676;
99.9000;0.9605;1.0728;
100.2000;0.9589;1.0625;
100.5000;0.9589;1.0625;
100.8000;0.9605;1.0651;
101.1000;0.9597;1.0676;
101.4000;0.9605;1.0728;
101.7000;0.9589;1.0728;
102.0000;0.9589;1.0753;
102.3000;0.9589;1.0651;
102.6000;0.9589;1.0599;
102.9000;0.9605;1.0574;
103.2000;0.9581;1.0548;
103.5000;0.9613;1.0599;
103.8000;0.9597;1.0497;
104.1000;0.9589;1.0445;
104.4000;0.9581;1.0522;
104.7000;0.9589;1.0497;
105.0000;0.9565;1.0266;
105.3000;0.9589;1.0291;
105.6000;0.9581;1.0317;
105.9000;0.9581;1.0214;
106.2000;0.9581;1.0137;
106.5000;0.9605;1.0163;
106.8000;0.9597;1.0214;
107.1000;0.9605;1.0240;
107.4000;0.9597;1.0266;
107.7000;0.9605;1.0266;
108.0000;0.9556;1.0189;
108.3000;0.9589;1.0214;
108.6000;0.9597;1.0266;
108.9000;0.9621;1.0394;
109.2000;0.9597;1.0471;
109.5000;0.9524;1.0317;
109.8000;0.9621;1.0574;
110.1000;0.9556;1.0471;
110.4000;0.9605;1.0445;
110.7000;0.9605;1.0368;
111.0000;0.9605;1.0343;
111.3000;0.9540;1.0189;
111.6000;0.9581;1.0368;
111.9000;0.9597;1.0368;
112.2000;0.9589;1.0291;
112.5000;0.9638;1.0574;
112.8000;0.9589;1.0445;
113.1000;0.9638;1.0599;
113.4000;0.9597;1.0625;
113.7000;0.9589;1.0625;
114.0000;0.9589;1.0599;
114.3000;0.9597;1.0676;
114.6000;0.9581;1.0497;
114.9000;0.9589;1.0497;
115.2000;0.9581;1.0420;
115.5000;0.9597;1.0471;
115.8000;0.9589;1.0394;
116.1000;0.9581;1.0317;
116.4000;0.9589;1.0394;
116.7000;0.9597;1.0497;
117.0000;0.9597;1.0548;
117.3000;0.9695;1.0753;
117.6000;0.9573;1.0445;
117.9000;0.9581;1.0471;
118.2000;0.9581;1.0420;
118.5000;0.9589;1.0522;
118.8000;0.9581;1.0497;
119.1000;0.9589;1.0548;
119.4000;0.9573;1.0522;
119.7000;0.9670;1.0651;
120.0000;0.9589;1.0420;
120.3000;0.9678;1.0625;
120.6000;0.9581;1.0343;
120.9000;0.9589;1.0343;
121.2000;0.9565;1.0291;
121.5000;0.9597;1.0343;
121.8000;0.9573;1.0317;
122.1000;0.9613;1.0445;
122.4000;0.9573;1.0420;
122.7000;0.9605;1.0471;
123.0000;0.9589;1.0394;
123.3000;0.9565;1.0317;
123.6000;0.9605;1.0420;
123.9000;0.9581;1.0420;
124.2000;0.9581;1.0420;
124.5000;0.9597;1.0497;
124.8000;0.9621;1.0625;
125.1000;0.9589;1.0471;
125.4000;0.9630;1.0599;
125.7000;0.9589;1.0445;
126.0000;0.9589;1.0471;
126.3000;0.9565;1.0445;
126.6000;0.9581;1.0599;
126.9000;0.9597;1.0574;
127.2000;0.9581;1.0497;
127.5000;0.9573;1.0368;
127.8000;0.9597;1.0394;
128.1000;0.9573;1.0291;
128.4000;0.9605;1.0317;
128.7000;0.9556;1.0240;
129.0000;0.9573;1.0266;
129.3000;0.9581;1.0266;
129.6000;0.9581;1.0471;
129.9000;0.9597;1.0625;
130.2000;0.9565;1.0574;
130.5000;0.9597;1.0753;
130.8000;0.9540;1.0702;
131.1000;0.9556;1.0676;
131.4000;0.9597;1.0702;
131.7000;0.9565;1.0651;
132.0000;0.9581;1.0574;
132.3000;0.9573;1.0599;
132.6000;0.9589;1.0676;
132.9000;0.9573;1.0728;
133.2000;0.9597;1.0805;
133.5000;0.9597;1.0779;
133.8000;0.9654;1.0907;
134.1000;0.9548;1.0651;
134.4000;0.9589;1.0779;
134.7000;0.9573;1.0728;
135.0000;0.9670;1.1036;
135.3000;0.9565;1.0728;
135.6000;0.9597;1.0779;
135.9000;0.9581;1.0625;
136.2000;0.9589;1.0702;
136.5000;0.9613;1.0753;
136.8000;0.9573;1.0625;
137.1000;0.9573;1.0702;
137.4000;0.9581;1.0728;
137.7000;0.9565;1.0651;
138.0000;0.9581;1.0779;
138.3000;0.9565;1.0676;
138.6000;0.9589;1.0753;
138.9000;0.9581;1.0779;
139.2000;0.9581;1.0728;
139.5000;0.9573;1.0753;
139.8000;0.9605;1.0702;
140.1000;0.9565;1.0651;
140.4000;0.9589;1.0676;
140.7000;0.9581;1.0548;
141.0000;0.9597;1.0574;
141.3000;0.9605;1.0599;
141.6000;0.9516;1.0445;
141.9000;0.9605;1.0625;
142.2000;0.9573;1.0420;
142.5000;0.9581;1.0368;
142.8000;0.9573;1.0420;
143.1000;0.9565;1.0420;
143.4000;0.9565;1.0445;
143.7000;0.9556;1.0445;
144.0000;0.9589;1.0522;
144.3000;0.9597;1.0548;
144.6000;0.9613;1.0599;
144.9000;0.9573;1.0497;
145.2000;0.9573;1.0420;
145.5000;0.9565;1.0548;
145.8000;0.9597;1.0548;
146.1000;0.9638;1.0522;
146.4000;0.9597;1.0368;
146.7000;0.9573;1.0266;
147.0000;0.9573;1.0214;
147.3000;0.9581;1.0317;
147.6000;0.9573;1.0317;
147.9000;0.9556;1.0317;
148.2000;0.9548;1.0420;
148.5000;0.9532;1.0471;
148.8000;0.9589;1.0574;
149.1000;0.9581;1.0625;
149.4000;0.9573;1.0599;
149.7000;0.9752;1.0959;
150.0000;0.9573;1.0574;
150.3000;0.9581;1.0625;
150.6000;0.9548;1.0522;
150.9000;0.9621;1.0676;
151.2000;0.9565;1.0676;
151.5000;0.9581;1.0676;
151.8000;0.9524;1.0599;
152.1000;0.9548;1.0497;
152.4000;0.9605;1.0676;
152.7000;0.9581;1.0625;
153.0000;0.9605;1.0599;
153.3000;0.9565;1.0394;
153.6000;0.9597;1.0394;
153.9000;0.9597;1.0394;
154.2000;0.9556;1.0317;
154.5000;0.9573;1.0394;
154.8000;0.9581;1.0343;
155.1000;0.9589;1.0420;
155.4000;0.9605;1.0445;
155.7000;0.9573;1.0445;
156.0000;0.9597;1.0522;
156.3000;0.9581;1.0420;
156.6000;0.9589;1.0445;
156.9000;0.9589;1.0420;
157.2000;0.9589;1.0420;
157.5000;0.9565;1.0394;
157.8000;0.9646;1.0599;
158.1000;0.9573;1.0471;
158.4000;0.9662;1.0702;
158.7000;0.9573;1.0574;
159.0000;0.9597;1.0599;
159.3000;0.9597;1.0522;
159.6000;0.9581;1.0497;
159.9000;0.9662;1.0676;
160.2000;0.9589;1.0574;
160.5000;0.9581;1.0548;
160.8000;0.9597;1.0548;
161.1000;0.9565;1.0497;
161.4000;0.9573;1.0522;
161.7000;0.9556;1.0471;
162.0000;0.9581;1.0548;
162.3000;0.9581;1.0497;
162.6000;0.9597;1.0574;
162.9000;0.9573;1.0625;
163.2000;0.9597;1.0676;
163.5000;0.9646;1.0805;
163.8000;0.9540;1.0497;
164.1000;0.9581;1.0574;
164.4000;0.9597;1.0548;
164.7000;0.9556;1.0420;
165.0000;0.9573;1.0368;
165.3000;0.9573;1.0317;
165.6000;0.9573;1.0420;
165.9000;0.9556;1.0394;
166.2000;0.9581;1.0394;
166.5000;0.9589;1.0420;
166.8000;0.9508;1.0214;
167.1000;0.9573;1.0394;
167.4000;0.9565;1.0394;
167.7000;0.9475;1.0163;
168.0000;0.9589;1.0497;
168.3000;0.9581;1.0497;
168.6000;0.9630;1.0651;
168.9000;0.9621;1.0625;
169.2000;0.9556;1.0497;
169.5000;0.9556;1.0497;
169.8000;0.9581;1.0548;
170.1000;0.9565;1.0522;
170.4000;0.9499;1.0445;
170.7000;0.9573;1.0625;
171.0000;0.9556;1.0574;
171.3000;0.9581;1.0651;
171.6000;0.9565;1.0574;
171.9000;0.9556;1.0574;
172.2000;0.9581;1.0599;
172.5000;0.9573;1.0574;
172.8000;0.9581;1.0548;
173.1000;0.9581;1.0651;
173.4000;0.9573;1.0574;
173.7000;0.9638;1.0651;
174.0000;0.9573;1.0548;
174.3000;0.9573;1.0497;
174.6000;0.9589;1.0574;
174.9000;0.9573;1.0522;
175.2000;0.9581;1.0522;
175.5000;0.9573;1.0497;
175.8000;0.9532;1.0368;
176.1000;0.9573;1.0599;
176.4000;0.9597;1.0625;
176.7000;0.9565;1.0497;
177.0000;0.9565;1.0420;
177.3000;0.9589;1.0445;
177.6000;0.9556;1.0394;
177.9000;0.9565;1.0497;
178.2000;0.9597;1.0599;
178.5000;0.9540;1.0471;
178.8000;0.9540;1.0368;
179.1000;0.9589;1.0497;
179.4000;0.9581;1.0522;
179.7000;0.9573;1.0548;
180.0000;0.9573;1.0497;
180.3000;0.9581;1.0497;
180.6000;0.9565;1.0394;
180.9000;0.9581;1.0497;
181.2000;0.9573;1.0420;
181.5000;0.9548;1.0343;
181.8000;0.9581;1.0471;
182.1000;0.9589;1.0522;
182.4000;0.9516;1.0266;
182.7000;0.9565;1.0394;
183.0000;0.9589;1.0445;
183.3000;0.9573;1.0420;
183.6000;0.9581;1.0368;
183.9000;0.9597;1.0343;
184.2000;0.9540;1.0240;
184.5000;0.9581;1.0368;
184.8000;0.9556;1.0368;
185.1000;0.9548;1.0291;
185.4000;0.9581;1.0445;
185.7000;0.9573;1.0471;
186.0000;0.9483;1.0317;
186.3000;0.9573;1.0445;
186.6000;0.9540;1.0343;
186.9000;0.9556;1.0471;
187.2000;0.9573;1.0445;
187.5000;0.9581;1.0522;
187.8000;0.9556;1.0368;
188.1000;0.9556;1.0394;
188.4000;0.9556;1.0317;
188.7000;0.9565;1.0317;
189.0000;0.9548;1.0368;
189.3000;0.9565;1.0368;
189.6000;0.9573;1.0317;
189.9000;0.9573;1.0394;
190.2000;0.9573;1.0394;
190.5000;0.9548;1.0291;
190.8000;0.9540;1.0240;
191.1000;0.9548;1.0240;
191.4000;0.9654;1.0497;
191.7000;0.9581;1.0343;
192.0000;0.9573;1.0368;
192.3000;0.9565;1.0394;
192.6000;0.9524;1.0266;
192.9000;0.9532;1.0291;
193.2000;0.9524;1.0291;
193.5000;0.9540;1.0471;
193.8000;0.9556;1.0394;
194.1000;0.9565;1.0368;
194.4000;0.9548;1.0394;
194.7000;0.9581;1.0497;
195.0000;0.9597;1.0522;
195.3000;0.9556;1.0420;
195.6000;0.9556;1.0420;
195.9000;0.9581;1.0599;
196.2000;0.9565;1.0497;
196.5000;0.9565;1.0471;
196.8000;0.9556;1.0497;
197.1000;0.9565;1.0548;
197.4000;0.9556;1.0445;
197.7000;0.9548;1.0394;
198.0000;0.9548;1.0343;
198.3000;0.9565;1.0394;
198.6000;0.9565;1.0522;
198.9000;0.9581;1.0471;
199.2000;0.9565;1.0420;
199.5000;0.9581;1.0471;
199.8000;0.9581;1.0522;
200.1000;0.9565;1.0394;
200.4000;0.9556;1.0420;
200.7000;0.9573;1.0471;
201.0000;0.9491;1.0214;
201.3000;0.9613;1.0522;
201.6000;0.9565;1.0420;
201.9000;0.9565;1.0471;
202.2000;0.9548;1.0497;
202.5000;0.9589;1.0651;
202.8000;0.9581;1.0522;
203.1000;0.9508;1.0343;
203.4000;0.9565;1.0574;
203.7000;0.9581;1.0574;
204.0000;0.9540;1.0497;
204.3000;0.9573;1.0574;
204.6000;0.9573;1.0599;
204.9000;0.9573;1.0599;
205.2000;0.9581;1.0599;
205.5000;0.9605;1.0651;
205.8000;0.9565;1.0522;
206.1000;0.9589;1.0599;
206.4000;0.9548;1.0548;
206.7000;0.9565;1.0599;
207.0000;0.9548;1.0574;
207.3000;0.9565;1.0676;
207.6000;0.9491;1.0548;
207.9000;0.9508;1.0497;
208.2000;0.9565;1.0676;
208.5000;0.9540;1.0574;
208.8000;0.9548;1.0651;
209.1000;0.9499;1.0471;
209.4000;0.9491;1.0368;
209.7000;0.9573;1.0497;
210.0000;0.9548;1.0471;
210.3000;0.9565;1.0497;
210.6000;0.9548;1.0445;
210.9000;0.9540;1.0522;
211.2000;0.9516;1.0445;
211.5000;0.9556;1.0497;
211.8000;0.9573;1.0574;
212.1000;0.9540;1.0420;
212.4000;0.9540;1.0471;
212.7000;0.9540;1.0574;
213.0000;0.9556;1.0522;
213.3000;0.9540;1.0471;
213.6000;0.9548;1.0548;
213.9000;0.9548;1.0522;
214.2000;0.9516;1.0368;
214.5000;0.9581;1.0522;
214.8000;0.9548;1.0394;
215.1000;0.9581;1.0394;
215.4000;0.9556;1.0420;
215.7000;0.9573;1.0497;
216.0000;0.9556;1.0445;
216.3000;0.9565;1.0574;
216.6000;0.9589;1.0676;
216.9000;0.9573;1.0625;
217.2000;0.9556;1.0625;
217.5000;0.9556;1.0599;
217.8000;0.9556;1.0522;
218.1000;0.9556;1.0471;
218.4000;0.9565;1.0574;
218.7000;0.9556;1.0548;
219.0000;0.9548;1.0574;
219.3000;0.9556;1.0548;
219.6000;0.9556;1.0574;
219.9000;0.9540;1.0548;
220.2000;0.9581;1.0522;
220.5000;0.9556;1.0420;
220.8000;0.9556;1.0471;
221.1000;0.9573;1.0497;
221.4000;0.9565;1.0548;
221.7000;0.9565;1.0548;
222.0000;0.9565;1.0599;
222.3000;0.9524;1.0497;
222.6000;0.9573;1.0548;
222.9000;0.9556;1.0548;
223.2000;0.9565;1.0548;
223.5000;0.9556;1.0420;
223.8000;0.9613;1.0497;
224.1000;0.9565;1.0368;
224.4000;0.9556;1.0420;
224.7000;0.9475;1.0214;
225.0000;0.9573;1.0394;
225.3000;0.9459;1.0112;
225.6000;0.9597;1.0522;
225.9000;0.9556;1.0548;
226.2000;0.9565;1.0471;
226.5000;0.9483;1.0163;
226.8000;0.9556;1.0420;
227.1000;0.9548;1.0420;
227.4000;0.9499;1.0317;
227.7000;0.9548;1.0394;
228.0000;0.9548;1.0471;
228.3000;0.9589;1.0497;
228.6000;0.9565;1.0445;
228.9000;0.9573;1.0343;
229.2000;0.9556;1.0317;
229.5000;0.9540;1.0317;
229.8000;0.9565;1.0343;
230.1000;0.9565;1.0445;
230.4000;0.9646;1.0728;
230.7000;0.9581;1.0445;
231.0000;0.9532;1.0317;
231.3000;0.9556;1.0420;
231.6000;0.9581;1.0471;
231.9000;0.9638;1.0625;
232.2000;0.9581;1.0522;
232.5000;0.9565;1.0497;
232.8000;0.9573;1.0471;
233.1000;0.9556;1.0445;
233.4000;0.9556;1.0471;
233.7000;0.9556;1.0497;
234.0000;0.9556;1.0420;
234.3000;0.9548;1.0420;
234.6000;0.9565;1.0497;
234.9000;0.9540;1.0548;
235.2000;0.9565;1.0548;
235.5000;0.9532;1.0445;
235.8000;0.9589;1.0651;
236.1000;0.9548;1.0522;
236.4000;0.9556;1.0522;
236.7000;0.9556;1.0522;
237.0000;0.9556;1.0625;
237.3000;0.9573;1.0728;
237.6000;0.9573;1.0830;
237.9000;0.9548;1.0702;
238.2000;0.9556;1.0676;
238.5000;0.9573;1.0676;
238.8000;0.9540;1.0574;
239.1000;0.9573;1.0651;
239.4000;0.9573;1.0625;
239.7000;0.9467;1.0368;
240.0000;0.9556;1.0625;
240.3000;0.9556;1.0548;
240.6000;0.9565;1.0548;
240.9000;0.9556;1.0599;
241.2000;0.9565;1.0625;
241.5000;0.9556;1.0625;
241.8000;0.9573;1.0805;
242.1000;0.9548;1.0805;
242.4000;0.9573;1.0882;
242.7000;0.9540;1.0830;
243.0000;0.9565;1.0907;
243.3000;0.9589;1.0856;
243.6000;0.9556;1.0805;
243.9000;0.9548;1.0830;
244.2000;0.9499;1.0599;
244.5000;0.9556;1.0651;
244.8000;0.9638;1.0830;
245.1000;0.9581;1.0651;
245.4000;0.9548;1.0574;
245.7000;0.9556;1.0497;
246.0000;0.9565;1.0471;
246.3000;0.9589;1.0522;
246.6000;0.9532;1.0368;
246.9000;0.9540;1.0445;
247.2000;0.9556;1.0625;
247.5000;0.9565;1.0548;
247.8000;0.9410;1.0163;
248.1000;0.9597;1.0625;
248.4000;0.9556;1.0497;
248.7000;0.9540;1.0497;
249.0000;0.9556;1.0471;
249.3000;0.9556;1.0497;
249.6000;0.9556;1.0548;
249.9000;0.9418;1.0214;
250.2000;0.9532;1.0497;
250.5000;0.9556;1.0471;
250.8000;0.9556;1.0497;
251.1000;0.9556;1.0599;
251.4000;0.9516;1.0599;
251.7000;0.9532;1.0625;
252.0000;0.9540;1.0676;
252.3000;0.9589;1.0856;
252.6000;0.9621;1.0933;
252.9000;0.9532;1.0753;
253.2000;0.9540;1.0753;
253.5000;0.9556;1.0805;
253.8000;0.9556;1.0805;
254.1000;0.9540;1.0805;
254.4000;0.9613;1.0984;
254.7000;0.9540;1.0805;
255.0000;0.9540;1.0805;
255.3000;0.9532;1.0702;
255.6000;0.9565;1.0728;
255.9000;0.9581;1.0805;
256.2000;0.9556;1.0753;
256.5000;0.9548;1.0651;
256.8000;0.9548;1.0651;
257.1000;0.9540;1.0651;
257.4000;0.9540;1.0676;
257.7000;0.9548;1.0676;
258.0000;0.9532;1.0574;
258.3000;0.9540;1.0599;
258.6000;0.9540;1.0676;
258.9000;0.9540;1.0625;
259.2000;0.9548;1.0625;
259.5000;0.9524;1.0625;
259.8000;0.9556;1.0702;
260.1000;0.9540;1.0651;
260.4000;0.9540;1.0574;
260.7000;0.9524;1.0548;
261.0000;0.9565;1.0625;
261.3000;0.9556;1.0599;
261.6000;0.9581;1.0702;
261.9000;0.9556;1.0599;
262.2000;0.9565;1.0651;
262.5000;0.9548;1.0625;
262.8000;0.9548;1.0651;
263.1000;0.9540;1.0676;
263.4000;0.9548;1.0676;
263.7000;0.9565;1.0753;
264.0000;0.9556;1.0651;
264.3000;0.9524;1.0548;
264.6000;0.9540;1.0522;
264.9000;0.9540;1.0599;
265.2000;0.9605;1.0702;
265.5000;0.9548;1.0548;
265.8000;0.9556;1.0625;
266.1000;0.9540;1.0599;
266.4000;0.9556;1.0702;
266.7000;0.9532;1.0651;
267.0000;0.9548;1.0805;
267.3000;0.9532;1.0753;
267.6000;0.9565;1.0959;
267.9000;0.9556;1.0856;
268.2000;0.9524;1.0805;
268.5000;0.9556;1.0959;
268.8000;0.9548;1.0856;
269.1000;0.9540;1.0856;
269.4000;0.9556;1.0753;
269.7000;0.9548;1.0753;
270.0000;0.9548;1.0651;
270.3000;0.9516;1.0445;
270.6000;0.9499;1.0471;
270.9000;0.9548;1.0548;
271.2000;0.9516;1.0548;
271.5000;0.9589;1.0779;
271.8000;0.9524;1.0625;
272.1000;0.9524;1.0548;
272.4000;0.9532;1.0599;
272.7000;0.9540;1.0625;
273.0000;0.9524;1.0548;
273.3000;0.9524;1.0471;
273.6000;0.9508;1.0445;
273.9000;0.9532;1.0497;
274.2000;0.9540;1.0548;
274.5000;0.9524;1.0497;
274.8000;0.9548;1.0548;
275.1000;0.9556;1.0599;
275.4000;0.9573;1.0625;
275.7000;0.9548;1.0599;
276.0000;0.9491;1.0522;
276.3000;0.9573;1.0702;
276.6000;0.9556;1.0651;
276.9000;0.9499;1.0522;
277.2000;0.9556;1.0651;
277.5000;0.9540;1.0574;
277.8000;0.9540;1.0625;
278.1000;0.9540;1.0651;
278.4000;0.9532;1.0599;
278.7000;0.9556;1.0599;
279.0000;0.9613;1.0651;
279.3000;0.9605;1.0574;
279.6000;0.9548;1.0522;
279.9000;0.9556;1.0471;
280.2000;0.9573;1.0548;
280.5000;0.9548;1.0574;
280.8000;0.9540;1.0625;
281.1000;0.9540;1.0574;
281.4000;0.9532;1.0574;
281.7000;0.9540;1.0651;
282.0000;0.9548;1.0651;
282.3000;0.9540;1.0651;
282.6000;0.9556;1.0548;
282.9000;0.9499;1.0317;
283.2000;0.9548;1.0420;
283.5000;0.9540;1.0368;
283.8000;0.9532;1.0368;
284.1000;0.9540;1.0343;
284.4000;0.9532;1.0343;
284.7000;0.9581;1.0420;
285.0000;0.9548;1.0368;
285.3000;0.9540;1.0368;
285.6000;0.9548;1.0394;
285.9000;0.9548;1.0368;
286.2000;0.9556;1.0317;
286.5000;0.9630;1.0548;
286.8000;0.9573;1.0445;
287.1000;0.9532;1.0445;
287.4000;0.9540;1.0497;
287.7000;0.9548;1.0599;
288.0000;0.9548;1.0625;
288.3000;0.9540;1.0599;
288.6000;0.9532;1.0625;
288.9000;0.9565;1.0702;
289.2000;0.9556;1.0599;
289.5000;0.9573;1.0625;
289.8000;0.9532;1.0625;
290.1000;0.9556;1.0625;
290.4000;0.9556;1.0676;
290.7000;0.9548;1.0728;
291.0000;0.9532;1.0728;
291.3000;0.9540;1.0676;
291.6000;0.9556;1.0728;
291.9000;0.9573;1.0830;
292.2000;0.9532;1.0805;
292.5000;0.9548;1.0779;
292.8000;0.9556;1.0728;
293.1000;0.9532;1.0625;
293.4000;0.9532;1.0651;
293.7000;0.9540;1.0599;
294.0000;0.9540;1.0574;
294.3000;0.9556;1.0548;
294.6000;0.9540;1.0548;
294.9000;0.9508;1.0445;
295.2000;0.9532;1.0625;
295.5000;0.9524;1.0676;
295.8000;0.9540;1.0728;
296.1000;0.9516;1.0702;
296.4000;0.9565;1.0779;
296.7000;0.9540;1.0805;
297.0000;0.9540;1.0702;
297.3000;0.9540;1.0702;
297.6000;0.9548;1.0702;
297.9000;0.9548;1.0676;
298.2000;0.9548;1.0651;
298.5000;0.9516;1.0548;
298.8000;0.9540;1.0548;
299.1000;0.9548;1.0625;
299.4000;0.9621;1.0805;
299.7000;0.9540;1.0651;
300.0000;0.9524;1.0574;
300.3000;0.9548;1.0548;
300.6000;0.9589;1.0651;
300.9000;0.9540;1.0497;
301.2000;0.9548;1.0548;
301.5000;0.9532;1.0445;
301.8000;0.9556;1.0548;
302.1000;0.9565;1.0599;
302.4000;0.9491;1.0445;
302.7000;0.9516;1.0548;
303.0000;0.9548;1.0548;
303.3000;0.9548;1.0574;
303.6000;0.9524;1.0445;
303.9000;0.9532;1.0522;
304.2000;0.9491;1.0394;
304.5000;0.9556;1.0599;
304.8000;0.9532;1.0574;
305.1000;0.9540;1.0522;
305.4000;0.9516;1.0522;
305.7000;0.9540;1.0574;
306.0000;0.9540;1.0574;
306.3000;0.9540;1.0548;
306.6000;0.9532;1.0574;
306.9000;0.9540;1.0574;
307.2000;0.9540;1.0548;
307.5000;0.9516;1.0497;
307.8000;0.9556;1.0574;
308.1000;0.9540;1.0471;
308.4000;0.9548;1.0445;
308.7000;0.9548;1.0471;
309.0000;0.9532;1.0497;
309.3000;0.9548;1.0497;
309.6000;0.9540;1.0420;
309.9000;0.9540;1.0317;
310.2000;0.9524;1.0214;
310.5000;0.9532;1.0291;
310.8000;0.9508;1.0266;
311.1000;0.9556;1.0394;
311.4000;0.9540;1.0343;
311.7000;0.9540;1.0317;
312.0000;0.9548;1.0368;
312.3000;0.9565;1.0394;
312.6000;0.9556;1.0368;
312.9000;0.9540;1.0420;
313.2000;0.9548;1.0394;
313.5000;0.9548;1.0343;
313.8000;0.9565;1.0394;
314.1000;0.9532;1.0343;
314.4000;0.9548;1.0291;
314.7000;0.9532;1.0343;
315.0000;0.9532;1.0394;
315.3000;0.9524;1.0394;
315.6000;0.9532;1.0497;
315.9000;0.9630;1.0728;
316.2000;0.9532;1.0420;
316.5000;0.9508;1.0317;
316.8000;0.9524;1.0394;
317.1000;0.9532;1.0394;
317.4000;0.9548;1.0522;
317.7000;0.9540;1.0471;
318.0000;0.9548;1.0497;
318.3000;0.9548;1.0651;
318.6000;0.9548;1.0599;
318.9000;0.9540;1.0574;
319.2000;0.9516;1.0522;
319.5000;0.9581;1.0599;
319.8000;0.9524;1.0548;
320.1000;0.9540;1.0651;
320.4000;0.9573;1.0753;
320.7000;0.9516;1.0676;
321.0000;0.9540;1.0651;
321.3000;0.9597;1.0753;
321.6000;0.9621;1.0728;
321.9000;0.9597;1.0728;
322.2000;0.9540;1.0522;
322.5000;0.9556;1.0574;
322.8000;0.9524;1.0522;
323.1000;0.9516;1.0368;
323.4000;0.9540;1.0497;
323.7000;0.9540;1.0522;
324.0000;0.9565;1.0548;
324.3000;0.9540;1.0497;
324.6000;0.9532;1.0420;
324.9000;0.9491;1.0420;
325.2000;0.9516;1.0445;
325.5000;0.9524;1.0522;
325.8000;0.9532;1.0471;
326.1000;0.9556;1.0445;
326.4000;0.9524;1.0368;
326.7000;0.9540;1.0394;
327.0000;0.9532;1.0445;
327.3000;0.9548;1.0445;
327.6000;0.9524;1.0394;
327.9000;0.9540;1.0394;
328.2000;0.9532;1.0368;
328.5000;0.9540;1.0394;
328.8000;0.9532;1.0522;
329.1000;0.9589;1.0702;
329.4000;0.9540;1.0599;
329.7000;0.9540;1.0651;
330.0000;0.9548;1.0753;
330.3000;0.9532;1.0702;
330.6000;0.9524;1.0651;
330.9000;0.9540;1.0702;
331.2000;0.9524;1.0625;
331.5000;0.9532;1.0651;
331.8000;0.9475;1.0497;
332.1000;0.9524;1.0574;
332.4000;0.9565;1.0676;
332.7000;0.9524;1.0651;
333.0000;0.9467;1.0522;
333.3000;0.9524;1.0625;
333.6000;0.9524;1.0625;
333.9000;0.9475;1.0522;
334.2000;0.9524;1.0548;
334.5000;0.9516;1.0574;
334.8000;0.9524;1.0625;
335.1000;0.9540;1.0522;
335.4000;0.9508;1.0445;
335.7000;0.9524;1.0522;
336.0000;0.9516;1.0497;
336.3000;0.9540;1.0599;
336.6000;0.9524;1.0394;
336.9000;0.9524;1.0317;
337.2000;0.9508;1.0394;
337.5000;0.9532;1.0420;
337.8000;0.9524;1.0420;
338.1000;0.9540;1.0394;
338.4000;0.9524;1.0291;
338.7000;0.9548;1.0317;
339.0000;0.9548;1.0266;
339.3000;0.9532;1.0291;
339.6000;0.9516;1.0317;
339.9000;0.9508;1.0394;
340.2000;0.9499;1.0291;
340.5000;0.9516;1.0291;
340.8000;0.9524;1.0343;
341.1000;0.9540;1.0394;
341.4000;0.9491;1.0317;
341.7000;0.9532;1.0368;
342.0000;0.9516;1.0394;
342.3000;0.9565;1.0548;
342.6000;0.9508;1.0471;
342.9000;0.9556;1.0522;
343.2000;0.9491;1.0317;
343.5000;0.9532;1.0471;
343.8000;0.9540;1.0599;
344.1000;0.9540;1.0651;
344.4000;0.9475;1.0522;
344.7000;0.9524;1.0651;
345.0000;0.9540;1.0625;
345.3000;0.9532;1.0625;
345.6000;0.9491;1.0471;
345.9000;0.9516;1.0574;
346.2000;0.9499;1.0471;
346.5000;0.9524;1.0599;
346.8000;0.9556;1.0497;
347.1000;0.9524;1.0368;
347.4000;0.9475;1.0368;
347.7000;0.9540;1.0651;
348.0000;0.9540;1.0625;
348.3000;0.9548;1.0702;
348.6000;0.9483;1.0522;
348.9000;0.9605;1.0805;
349.2000;0.9483;1.0522;
349.5000;0.9532;1.0599;
349.8000;0.9524;1.0625;
350.1000;0.9516;1.0574;
350.4000;0.9548;1.0651;
350.7000;0.9524;1.0625;
351.0000;0.9532;1.0651;
351.3000;0.9532;1.0599;
351.6000;0.9565;1.0728;
351.9000;0.9540;1.0676;
352.2000;0.9524;1.0625;
352.5000;0.9516;1.0574;
352.8000;0.9532;1.0625;
353.1000;0.9532;1.0676;
353.4000;0.9524;1.0625;
353.7000;0.9516;1.0574;
354.0000;0.9524;1.0522;
354.3000;0.9532;1.0599;
354.6000;0.9540;1.0599;
354.9000;0.9491;1.0394;
355.2000;0.9475;1.0343;
355.5000;0.9524;1.0445;
355.8000;0.9516;1.0471;
356.1000;0.9516;1.0548;
356.4000;0.9508;1.0548;
356.7000;0.9467;1.0497;
357.0000;0.9524;1.0574;
357.3000;0.9516;1.0522;
357.6000;0.9605;1.0728;
357.9000;0.9532;1.0522;
358.2000;0.9516;1.0574;
358.5000;0.9491;1.0574;
358.8000;0.9540;1.0676;
359.1000;0.9516;1.0702;
359.4000;0.9524;1.0728;
359.7000;0.9540;1.0856;
360.0000;0.9524;1.0651;
360.3000;0.9524;1.0599;
360.6000;0.9516;1.0574;
360.9000;0.9499;1.0497;
361.2000;0.9516;1.0368;
361.5000;0.9524;1.0420;
361.8000;0.9524;1.0420;
362.1000;0.9524;1.0368;
362.4000;0.9499;1.0368;
362.7000;0.9573;1.0625;
363.0000;0.9540;1.0599;
363.3000;0.9524;1.0651;
363.6000;0.9475;1.0574;
363.9000;0.9499;1.0522;
364.2000;0.9524;1.0625;
364.5000;0.9499;1.0548;
364.8000;0.9475;1.0420;
365.1000;0.9483;1.0445;
365.4000;0.9589;1.0728;
365.7000;0.9524;1.0497;
366.0000;0.9524;1.0445;
366.3000;0.9630;1.0753;
366.6000;0.9524;1.0574;
366.9000;0.9524;1.0702;
367.2000;0.9548;1.0805;
367.5000;0.9516;1.0753;
367.8000;0.9516;1.0728;
368.1000;0.9540;1.0753;
368.4000;0.9516;1.0625;
368.7000;0.9516;1.0574;
369.0000;0.9524;1.0625;
369.3000;0.9524;1.0599;
369.6000;0.9540;1.0625;
369.9000;0.9524;1.0599;
370.2000;0.9524;1.0522;
370.5000;0.9524;1.0548;
370.8000;0.9532;1.0574;
371.1000;0.9532;1.0548;
371.4000;0.9524;1.0548;
371.7000;0.9532;1.0548;
372.0000;0.9548;1.0497;
372.3000;0.9540;1.0445;
372.6000;0.9524;1.0420;
372.9000;0.9532;1.0445;
373.2000;0.9548;1.0574;
373.5000;0.9524;1.0574;
373.8000;0.9540;1.0625;
374.1000;0.9524;1.0651;
374.4000;0.9516;1.0702;
374.7000;0.9548;1.0702;
375.0000;0.9532;1.0651;
375.3000;0.9524;1.0548;
375.6000;0.9524;1.0651;
375.9000;0.9491;1.0574;
376.2000;0.9516;1.0625;
376.5000;0.9516;1.0599;
376.8000;0.9556;1.0676;
377.1000;0.9524;1.0574;
377.4000;0.9516;1.0574;
377.7000;0.9516;1.0574;
378.0000;0.9508;1.0625;
378.3000;0.9524;1.0702;
378.6000;0.9548;1.0830;
378.9000;0.9524;1.0728;
379.2000;0.9508;1.0599;
379.5000;0.9532;1.0625;
379.8000;0.9581;1.0702;
380.1000;0.9524;1.0548;
380.4000;0.9524;1.0497;
380.7000;0.9589;1.0625;
381.0000;0.9540;1.0522;
381.3000;0.9516;1.0445;
381.6000;0.9491;1.0394;
381.9000;0.9524;1.0317;
382.2000;0.9532;1.0368;
382.5000;0.9524;1.0394;
382.8000;0.9516;1.0471;
383.1000;0.9524;1.0599;
383.4000;0.9532;1.0599;
383.7000;0.9532;1.0522;
384.0000;0.9499;1.0420;
384.3000;0.9475;1.0394;
384.6000;0.9516;1.0497;
384.9000;0.9548;1.0548;
385.2000;0.9516;1.0548;
385.5000;0.9532;1.0522;
385.8000;0.9516;1.0548;
386.1000;0.9548;1.0625;
386.4000;0.9540;1.0599;
386.7000;0.9532;1.0651;
387.0000;0.9556;1.0676;
387.3000;0.9516;1.0574;
387.6000;0.9516;1.0574;
387.9000;0.9516;1.0676;
388.2000;0.9548;1.0702;
388.5000;0.9532;1.0574;
388.8000;0.9540;1.0574;
389.1000;0.9516;1.0574;
389.4000;0.9475;1.0420;
389.7000;0.9524;1.0471;
390.0000;0.9532;1.0548;
390.3000;0.9540;1.0497;
390.6000;0.9532;1.0471;
390.9000;0.9524;1.0445;
391.2000;0.9532;1.0445;
391.5000;0.9532;1.0497;
391.8000;0.9508;1.0420;
392.1000;0.9499;1.0420;
392.4000;0.9532;1.0497;
392.7000;0.9516;1.0522;
393.0000;0.9524;1.0548;
393.3000;0.9524;1.0574;
393.6000;0.9540;1.0574;
393.9000;0.9540;1.0651;
394.2000;0.9516;1.0599;
394.5000;0.9508;1.0522;
394.8000;0.9516;1.0471;
395.1000;0.9499;1.0471;
395.4000;0.9532;1.0497;
395.7000;0.9540;1.0445;
396.0000;0.9434;1.0214;
396.3000;0.9516;1.0343;
396.6000;0.9516;1.0291;
396.9000;0.9508;1.0291;
397.2000;0.9565;1.0394;
397.5000;0.9524;1.0343;
397.8000;0.9524;1.0343;
398.1000;0.9524;1.0394;
398.4000;0.9516;1.0394;
398.7000;0.9532;1.0471;
399.0000;0.9516;1.0471;
399.3000;0.9548;1.0574;
399.6000;0.9491;1.0445;
399.9000;0.9524;1.0574;
400.2000;0.9475;1.0471;
400.5000;0.9524;1.0471;
400.8000;0.9516;1.0471;
401.1000;0.9516;1.0497;
401.4000;0.9516;1.0548;
401.7000;0.9532;1.0574;
402.0000;0.9508;1.0522;
402.3000;0.9540;1.0522;
402.6000;0.9516;1.0420;
402.9000;0.9508;1.0471;
403.2000;0.9475;1.0394;
403.5000;0.9524;1.0625;
403.8000;0.9516;1.0599;
404.1000;0.9540;1.0676;
404.4000;0.9516;1.0548;
404.7000;0.9532;1.0651;
405.0000;0.9524;1.0625;
405.3000;0.9524;1.0574;
405.6000;0.9508;1.0599;
405.9000;0.9499;1.0599;
406.2000;0.9516;1.0651;
406.5000;0.9499;1.0497;
406.8000;0.9524;1.0394;
407.1000;0.9516;1.0420;
407.4000;0.9516;1.0394;
407.7000;0.9516;1.0445;
408.0000;0.9516;1.0420;
408.3000;0.9524;1.0445;
408.6000;0.9516;1.0343;
408.9000;0.9508;1.0420;
409.2000;0.9524;1.0471;
409.5000;0.9524;1.0522;
409.8000;0.9516;1.0548;
410.1000;0.9573;1.0753;
410.4000;0.9540;1.0702;
410.7000;0.9548;1.0728;
411.0000;0.9532;1.0676;
411.3000;0.9524;1.0651;
411.6000;0.9524;1.0625;
411.9000;0.9516;1.0574;
412.2000;0.9508;1.0651;
412.5000;0.9491;1.0625;
412.8000;0.9499;1.0625;
413.1000;0.9499;1.0625;
413.4000;0.9516;1.0625;
413.7000;0.9499;1.0599;
414.0000;0.9524;1.0599;
414.3000;0.9516;1.0497;
414.6000;0.9524;1.0599;
414.9000;0.9508;1.0702;
415.2000;0.9524;1.0882;
415.5000;0.9508;1.0805;
415.8000;0.9516;1.0856;
416.1000;0.9532;1.0830;
416.4000;0.9524;1.0728;
416.7000;0.9548;1.0805;
417.0000;0.9532;1.0728;
417.3000;0.9508;1.0702;
417.6000;0.9491;1.0728;
417.9000;0.9540;1.0728;
418.2000;0.9499;1.0522;
418.5000;0.9499;1.0471;
418.8000;0.9508;1.0394;
419.1000;0.9516;1.0445;
419.4000;0.9524;1.0522;
419.7000;0.9532;1.0574;
420.0000;0.9508;1.0574;
420.3000;0.9516;1.0651;
420.6000;0.9540;1.0702;
420.9000;0.9508;1.0702;
421.2000;0.9516;1.0779;
421.5000;0.9467;1.0548;
421.8000;0.9524;1.0779;
422.1000;0.9499;1.0702;
422.4000;0.9483;1.0651;
422.7000;0.9491;1.0651;
423.0000;0.9565;1.0882;
423.3000;0.9508;1.0753;
423.6000;0.9499;1.0753;
423.9000;0.9491;1.0728;
424.2000;0.9499;1.0702;
424.5000;0.9516;1.0676;
424.8000;0.9491;1.0548;
425.1000;0.9516;1.0728;
425.4000;0.9499;1.0702;
425.7000;0.9508;1.0805;
426.0000;0.9508;1.0856;
426.3000;0.9508;1.0830;
426.6000;0.9499;1.0830;
426.9000;0.9483;1.0753;
427.2000;0.9491;1.0728;
427.5000;0.9540;1.0830;
427.8000;0.9524;1.0805;
428.1000;0.9516;1.0830;
428.4000;0.9524;1.0830;
428.7000;0.9548;1.0907;
429.0000;0.9475;1.0805;
429.3000;0.9491;1.0882;
429.6000;0.9516;1.0882;
429.9000;0.9516;1.0856;
430.2000;0.9508;1.0779;
430.5000;0.9524;1.0753;
430.8000;0.9516;1.0728;
431.1000;0.9508;1.0728;
431.4000;0.9508;1.0676;
431.7000;0.9508;1.0625;
432.0000;0.9524;1.0625;
432.3000;0.9475;1.0548;
432.6000;0.9516;1.0753;
432.9000;0.9508;1.0753;
433.2000;0.9548;1.0830;
433.5000;0.9499;1.0779;
433.8000;0.9581;1.0907;
434.1000;0.9499;1.0702;
434.4000;0.9499;1.0599;
434.7000;0.9524;1.0625;
435.0000;0.9475;1.0497;
435.3000;0.9491;1.0471;
435.6000;0.9532;1.0445;
435.9000;0.9565;1.0471;
436.2000;0.9475;1.0343;
436.5000;0.9508;1.0497;
436.8000;0.9516;1.0522;
437.1000;0.9516;1.0471;
437.4000;0.9573;1.0676;
437.7000;0.9491;1.0343;
438.0000;0.9475;1.0394;
438.3000;0.9508;1.0522;
438.6000;0.9508;1.0599;
438.9000;0.9475;1.0574;
439.2000;0.9499;1.0625;
439.5000;0.9434;1.0522;
439.8000;0.9516;1.0753;
440.1000;0.9508;1.0676;
440.4000;0.9540;1.0651;
440.7000;0.9434;1.0343;
441.0000;0.9508;1.0574;
441.3000;0.9516;1.0625;
441.6000;0.9491;1.0676;
441.9000;0.9491;1.0599;
442.2000;0.9499;1.0599;
442.5000;0.9508;1.0548;
442.8000;0.9516;1.0599;
443.1000;0.9516;1.0625;
443.4000;0.9491;1.0574;
443.7000;0.9516;1.0625;
444.0000;0.9524;1.0574;
444.3000;0.9483;1.0471;
444.6000;0.9508;1.0548;
444.9000;0.9524;1.0625;
445.2000;0.9516;1.0625;
445.5000;0.9508;1.0599;
445.8000;0.9418;1.0343;
446.1000;0.9516;1.0599;
446.4000;0.9516;1.0599;
446.7000;0.9516;1.0676;
447.0000;0.9524;1.0753;
447.3000;0.9508;1.0574;
447.6000;0.9516;1.0548;
447.9000;0.9491;1.0394;
448.2000;0.9499;1.0368;
448.5000;0.9508;1.0343;
448.8000;0.9516;1.0420;
449.1000;0.9508;1.0522;
449.4000;0.9499;1.0497;
449.7000;0.9508;1.0497;
450.0000;0.9491;1.0548;
450.3000;0.9491;1.0625;
450.6000;0.9434;1.0445;
450.9000;0.9516;1.0651;
451.2000;0.9524;1.0676;
451.5000;0.9508;1.0651;
451.8000;0.9508;1.0651;
452.1000;0.9508;1.0599;
452.4000;0.9508;1.0625;
452.7000;0.9499;1.0599;
453.0000;0.9516;1.0651;
453.3000;0.9499;1.0625;
453.6000;0.9491;1.0574;
453.9000;0.9524;1.0497;
454.2000;0.9491;1.0471;
454.5000;0.9499;1.0522;
454.8000;0.9508;1.0574;
455.1000;0.9491;1.0445;
455.4000;0.9516;1.0394;
455.7000;0.9499;1.0394;
456.0000;0.9508;1.0420;
456.3000;0.9516;1.0522;
456.6000;0.9508;1.0420;
456.9000;0.9524;1.0548;
457.2000;0.9483;1.0471;
457.5000;0.9483;1.0471;
457.8000;0.9516;1.0445;
458.1000;0.9491;1.0445;
458.4000;0.9483;1.0343;
458.7000;0.9516;1.0445;
459.0000;0.9467;1.0420;
459.3000;0.9491;1.0548;
459.6000;0.9499;1.0625;
459.9000;0.9516;1.0599;
460.2000;0.9491;1.0599;
460.5000;0.9508;1.0728;
460.8000;0.9483;1.0651;
461.1000;0.9434;1.0394;
461.4000;0.9483;1.0548;
461.7000;0.9516;1.0651;
462.0000;0.9499;1.0574;
462.3000;0.9491;1.0522;
462.6000;0.9516;1.0676;
462.9000;0.9499;1.0702;
463.2000;0.9491;1.0702;
463.5000;0.9499;1.0702;
463.8000;0.9499;1.0702;
464.1000;0.9499;1.0779;
464.4000;0.9499;1.0856;
464.7000;0.9475;1.0753;
465.0000;0.9491;1.0779;
465.3000;0.9491;1.0856;
465.6000;0.9516;1.0907;
465.9000;0.9508;1.0805;
466.2000;0.9508;1.0779;
466.5000;0.9516;1.0779;
466.8000;0.9499;1.0753;
467.1000;0.9491;1.0830;
467.4000;0.9499;1.0753;
467.7000;0.9516;1.0702;
468.0000;0.9516;1.0676;
468.3000;0.9491;1.0651;
468.6000;0.9499;1.0676;
468.9000;0.9483;1.0651;
469.2000;0.9508;1.0702;
469.5000;0.9499;1.0625;
469.8000;0.9499;1.0651;
470.1000;0.9499;1.0599;
470.4000;0.9508;1.0574;
470.7000;0.9532;1.0753;
471.0000;0.9524;1.0548;
471.3000;0.9532;1.0522;
471.6000;0.9508;1.0497;
471.9000;0.9459;1.0343;
472.2000;0.9516;1.0497;
472.5000;0.9499;1.0471;
472.8000;0.9483;1.0445;
473.1000;0.9475;1.0497;
473.4000;0.9499;1.0599;
473.7000;0.9451;1.0497;
474.0000;0.9418;1.0445;
474.3000;0.9508;1.0728;
474.6000;0.9499;1.0779;
474.9000;0.9483;1.0779;
475.2000;0.9499;1.0753;
475.5000;0.9508;1.0779;
475.8000;0.9491;1.0702;
476.1000;0.9483;1.0625;
476.4000;0.9491;1.0599;
476.7000;0.9499;1.0599;
477.0000;0.9508;1.0625;
477.3000;0.9491;1.0702;
477.6000;0.9508;1.0728;
477.9000;0.9508;1.0625;
478.2000;0.9499;1.0574;
478.5000;0.9491;1.0548;
478.8000;0.9524;1.0676;
479.1000;0.9499;1.0676;
479.4000;0.9491;1.0625;
479.7000;0.9499;1.0574;
480.0000;0.9475;1.0420;
480.3000;0.9532;1.0599;
480.6000;0.9508;1.0548;
480.9000;0.9434;1.0394;
481.2000;0.9508;1.0548;
481.5000;0.9451;1.0548;
481.8000;0.9491;1.0728;
482.1000;0.9499;1.0702;
482.4000;0.9499;1.0779;
482.7000;0.9508;1.0830;
483.0000;0.9499;1.0830;
483.3000;0.9467;1.0651;
483.6000;0.9451;1.0651;
483.9000;0.9499;1.0805;
484.2000;0.9483;1.0753;
484.5000;0.9483;1.0651;
484.8000;0.9499;1.0676;
485.1000;0.9475;1.0651;
485.4000;0.9483;1.0728;
485.7000;0.9491;1.0728;
486.0000;0.9499;1.0651;
486.3000;0.9491;1.0599;
486.6000;0.9540;1.0676;
486.9000;0.9532;1.0625;
487.2000;0.9516;1.0497;
487.5000;0.9491;1.0471;
487.8000;0.9467;1.0420;
488.1000;0.9483;1.0394;
488.4000;0.9483;1.0445;
488.7000;0.9483;1.0522;
489.0000;0.9508;1.0497;
489.3000;0.9491;1.0522;
489.6000;0.9475;1.0497;
489.9000;0.9491;1.0522;
490.2000;0.9483;1.0497;
490.5000;0.9467;1.0599;
490.8000;0.9491;1.0651;
491.1000;0.9467;1.0651;
491.4000;0.9491;1.0779;
491.7000;0.9508;1.0856;
492.0000;0.9410;1.0548;
492.3000;0.9483;1.0753;
492.6000;0.9467;1.0651;
492.9000;0.9491;1.0702;
493.2000;0.9475;1.0676;
493.5000;0.9499;1.0676;
493.8000;0.9483;1.0625;
494.1000;0.9491;1.0651;
494.4000;0.9467;1.0548;
494.7000;0.9516;1.0574;
495.0000;0.9508;1.0445;
495.3000;0.9475;1.0445;
495.6000;0.9483;1.0548;
495.9000;0.9459;1.0471;
496.2000;0.9499;1.0625;
496.5000;0.9491;1.0625;
496.8000;0.9467;1.0548;
497.1000;0.9491;1.0651;
497.4000;0.9508;1.0574;
497.7000;0.9524;1.0651;
498.0000;0.9491;1.0574;
498.3000;0.9516;1.0676;
498.6000;0.9491;1.0548;
498.9000;0.9499;1.0574;
499.2000;0.9499;1.0471;
499.5000;0.9491;1.0445;
499.8000;0.9491;1.0522;
500.1000;0.9499;1.0574;
500.4000;0.9499;1.0651;
500.7000;0.9499;1.0676;
501.0000;0.9499;1.0702;
501.3000;0.9499;1.0651;
501.6000;0.9491;1.0625;
501.9000;0.9491;1.0676;
502.2000;0.9499;1.0676;
502.5000;0.9499;1.0625;
502.8000;0.9475;1.0574;
503.1000;0.9483;1.0599;
503.4000;0.9475;1.0497;
503.7000;0.9499;1.0497;
504.0000;0.9418;1.0266;
504.3000;0.9467;1.0471;
504.6000;0.9475;1.0599;
504.9000;0.9516;1.0702;
505.2000;0.9467;1.0625;
505.5000;0.9548;1.0933;
505.8000;0.9516;1.0830;
506.1000;0.9467;1.0676;
506.4000;0.9475;1.0779;
506.7000;0.9475;1.0805;
507.0000;0.9467;1.0805;
507.3000;0.9491;1.0805;
507.6000;0.9491;1.0805;
507.9000;0.9499;1.0753;
508.2000;0.9483;1.0702;
508.5000;0.9508;1.0753;
508.8000;0.9491;1.0728;
509.1000;0.9491;1.0625;
509.4000;0.9483;1.0599;
509.7000;0.9475;1.0548;
510.0000;0.9483;1.0599;
510.3000;0.9508;1.0676;
510.6000;0.9451;1.0599;
510.9000;0.9499;1.0599;
511.2000;0.9467;1.0574;
511.5000;0.9467;1.0676;
511.8000;0.9451;1.0625;
512.1000;0.9491;1.0728;
512.4000;0.9499;1.0728;
512.7000;0.9540;1.0830;
513.0000;0.9491;1.0702;
513.3000;0.9483;1.0728;
513.6000;0.9499;1.0779;
513.9000;0.9491;1.0728;
514.2000;0.9467;1.0702;
514.5000;0.9508;1.0805;
514.8000;0.9491;1.0651;
515.1000;0.9483;1.0676;
515.4000;0.9475;1.0779;
515.7000;0.9508;1.0830;
516.0000;0.9475;1.0830;
516.3000;0.9483;1.0830;
516.6000;0.9483;1.0830;
516.9000;0.9442;1.0599;
517.2000;0.9483;1.0676;
517.5000;0.9483;1.0676;
517.8000;0.9491;1.0702;
518.1000;0.9483;1.0728;
518.4000;0.9475;1.0548;
518.7000;0.9540;1.0625;
519.0000;0.9499;1.0522;
519.3000;0.9491;1.0445;
519.6000;0.9483;1.0574;
519.9000;0.9499;1.0599;
520.2000;0.9483;1.0574;
520.5000;0.9467;1.0522;
520.8000;0.9467;1.0522;
521.1000;0.9467;1.0625;
521.4000;0.9483;1.0702;
521.7000;0.9483;1.0676;
522.0000;0.9475;1.0728;
522.3000;0.9475;1.0805;
522.6000;0.9467;1.0830;
522.9000;0.9491;1.0907;
523.2000;0.9491;1.0959;
523.5000;0.9499;1.0882;
523.8000;0.9475;1.0830;
524.1000;0.9491;1.0753;
524.4000;0.9459;1.0625;
524.7000;0.9467;1.0574;
525.0000;0.9491;1.0651;
525.3000;0.9475;1.0599;
525.6000;0.9467;1.0574;
525.9000;0.9475;1.0625;
526.2000;0.9483;1.0728;
526.5000;0.9499;1.0779;
526.8000;0.9475;1.0753;
527.1000;0.9491;1.0779;
527.4000;0.9483;1.0676;
527.7000;0.9483;1.0702;
528.0000;0.9499;1.0728;
528.3000;0.9499;1.0625;
528.6000;0.9491;1.0548;
528.9000;0.9499;1.0522;
529.2000;0.9491;1.0548;
529.5000;0.9442;1.0471;
529.8000;0.9483;1.0625;
530.1000;0.9483;1.0625;
530.4000;0.9508;1.0676;
530.7000;0.9475;1.0728;
531.0000;0.9475;1.0728;
531.3000;0.9467;1.0676;
531.6000;0.9499;1.0753;
531.9000;0.9475;1.0651;
532.2000;0.9434;1.0497;
532.5000;0.9491;1.0548;
532.8000;0.9475;1.0599;
533.1000;0.9491;1.0625;
533.4000;0.9475;1.0574;
533.7000;0.9483;1.0574;
534.0000;0.9434;1.0497;
534.3000;0.9475;1.0599;
534.6000;0.9410;1.0471;
534.9000;0.9475;1.0651;
535.2000;0.9475;1.0702;
535.5000;0.9475;1.0651;
535.8000;0.9451;1.0651;
536.1000;0.9459;1.0728;
536.4000;0.9491;1.0805;
536.7000;0.9459;1.0651;
537.0000;0.9442;1.0599;
537.3000;0.9467;1.0753;
537.6000;0.9483;1.0779;
537.9000;0.9475;1.0651;
538.2000;0.9491;1.0651;
538.5000;0.9475;1.0625;
538.8000;0.9524;1.0651;
539.1000;0.9491;1.0574;
539.4000;0.9483;1.0574;
539.7000;0.9491;1.0625;
540.0000;0.9467;1.0574;
540.3000;0.9483;1.0599;
540.6000;0.9467;1.0574;
540.9000;0.9491;1.0676;
541.2000;0.9516;1.0753;
541.5000;0.9467;1.0651;
541.8000;0.9475;1.0753;
542.1000;0.9459;1.0728;
542.4000;0.9459;1.0753;
542.7000;0.9475;1.0676;
543.0000;0.9508;1.0779;
543.3000;0.9491;1.0728;
543.6000;0.9483;1.0779;
543.9000;0.9459;1.0676;
544.2000;0.9426;1.0548;
544.5000;0.9475;1.0728;
544.8000;0.9524;1.0830;
545.1000;0.9467;1.0933;
545.4000;0.9475;1.0984;
545.7000;0.9491;1.0959;
546.0000;0.9491;1.0984;
546.3000;0.9467;1.0856;
546.6000;0.9459;1.0779;
546.9000;0.9475;1.0753;
547.2000;0.9491;1.0702;
547.5000;0.9483;1.0574;
547.8000;0.9499;1.0599;
548.1000;0.9491;1.0625;
548.4000;0.9491;1.0599;
548.7000;0.9467;1.0548;
549.0000;0.9483;1.0497;
549.3000;0.9499;1.0651;
549.6000;0.9499;1.0728;
549.9000;0.9467;1.0728;
550.2000;0.9467;1.0753;
550.5000;0.9475;1.0830;
550.8000;0.9418;1.0651;
551.1000;0.9467;1.0753;
551.4000;0.9491;1.0805;
551.7000;0.9491;1.0856;
552.0000;0.9475;1.0805;
552.3000;0.9467;1.0805;
552.6000;0.9467;1.0830;
552.9000;0.9483;1.0805;
553.2000;0.9483;1.0779;
553.5000;0.9483;1.0728;
553.8000;0.9475;1.0651;
554.1000;0.9451;1.0548;
554.4000;0.9475;1.0651;
554.7000;0.9483;1.0805;
555.0000;0.9467;1.0907;
555.3000;0.9475;1.0882;
555.6000;0.9467;1.0830;
555.9000;0.9467;1.0753;
556.2000;0.9467;1.0753;
556.5000;0.9467;1.0856;
556.8000;0.9499;1.0933;
557.1000;0.9459;1.0805;
557.4000;0.9483;1.0805;
557.7000;0.9467;1.0599;
558.0000;0.9475;1.0753;
558.3000;0.9451;1.0728;
558.6000;0.9475;1.0753;
558.9000;0.9483;1.0753;
559.2000;0.9385;1.0471;
559.5000;0.9467;1.0728;
559.8000;0.9483;1.0676;
560.1000;0.9467;1.0728;
560.4000;0.9475;1.0651;
560.7000;0.9491;1.0625;
561.0000;0.9491;1.0625;
561.3000;0.9475;1.0599;
561.6000;0.9475;1.0574;
561.9000;0.9483;1.0625;
562.2000;0.9475;1.0599;
562.5000;0.9475;1.0625;
562.8000;0.9483;1.0625;
563.1000;0.9483;1.0702;
563.4000;0.9491;1.0728;
563.7000;0.9467;1.0651;
564.0000;0.9467;1.0676;
564.3000;0.9467;1.0702;
564.6000;0.9524;1.0856;
564.9000;0.9475;1.0728;
565.2000;0.9459;1.0574;
565.5000;0.9483;1.0651;
565.8000;0.9491;1.0625;
566.1000;0.9475;1.0599;
566.4000;0.9459;1.0651;
566.7000;0.9508;1.0882;
567.0000;0.9491;1.0830;
567.3000;0.9467;1.0779;
567.6000;0.9451;1.0856;
567.9000;0.9353;1.0548;
568.2000;0.9475;1.0753;
568.5000;0.9491;1.0779;
568.8000;0.9475;1.0753;
569.1000;0.9451;1.0728;
569.4000;0.9426;1.0702;
569.7000;0.9524;1.0959;
570.0000;0.9475;1.0830;
570.3000;0.9483;1.0805;
570.6000;0.9467;1.0702;
570.9000;0.9475;1.0805;
571.2000;0.9475;1.0830;
571.5000;0.9459;1.0753;
571.8000;0.9467;1.0728;
572.1000;0.9467;1.0805;
572.4000;0.9475;1.0907;
572.7000;0.9459;1.0907;
573.0000;0.9402;1.0728;
573.3000;0.9475;1.0959;
573.6000;0.9491;1.0882;
573.9000;0.9475;1.0856;
574.2000;0.9475;1.0753;
574.5000;0.9459;1.0779;
574.8000;0.9548;1.1036;
575.1000;0.9467;1.0728;
575.4000;0.9483;1.0753;
575.7000;0.9475;1.0651;
576.0000;0.9475;1.0702;
576.3000;0.9459;1.0676;
576.6000;0.9459;1.0651;
576.9000;0.9467;1.0599;
577.2000;0.9459;1.0625;
577.5000;0.9459;1.0702;
577.8000;0.9467;1.0805;
578.1000;0.9467;1.0779;
578.4000;0.9467;1.0753;
578.7000;0.9491;1.0779;
579.0000;0.9467;1.0728;
579.3000;0.9459;1.0702;
579.6000;0.9475;1.0702;
579.9000;0.9483;1.0625;
580.2000;0.9589;1.0907;
580.5000;0.9467;1.0574;
580.8000;0.9532;1.0728;
581.1000;0.9483;1.0625;
581.4000;0.9475;1.0599;
581.7000;0.9475;1.0702;
582.0000;0.9467;1.0728;
582.3000;0.9483;1.0728;
582.6000;0.9499;1.0805;
582.9000;0.9459;1.0651;
583.2000;0.9467;1.0625;
583.5000;0.9483;1.0625;
583.8000;0.9467;1.0548;
584.1000;0.9467;1.0522;
584.4000;0.9540;1.0753;
584.7000;0.9491;1.0651;
585.0000;0.9467;1.0599;
585.3000;0.9467;1.0599;
585.6000;0.9459;1.0625;
585.9000;0.9467;1.0625;
586.2000;0.9475;1.0599;
586.5000;0.9475;1.0574;
586.8000;0.9483;1.0599;
587.1000;0.9475;1.0625;
587.4000;0.9467;1.0625;
587.7000;0.9418;1.0471;
588.0000;0.9459;1.0471;
588.3000;0.9467;1.0445;
588.6000;0.9459;1.0394;
588.9000;0.9483;1.0522;
589.2000;0.9475;1.0291;
589.5000;0.9459;1.0317;
589.8000;0.9434;1.0189;
590.1000;0.9467;1.0291;
590.4000;0.9459;1.0394;
590.7000;0.9402;1.0266;
591.0000;0.9451;1.0497;
591.3000;0.9467;1.0548;
591.6000;0.9418;1.0522;
591.9000;0.9524;1.0779;
592.2000;0.9442;1.0574;
592.5000;0.9491;1.0702;
592.8000;0.9451;1.0548;
593.1000;0.9451;1.0625;
593.4000;0.9467;1.0625;
593.7000;0.9459;1.0574;
594.0000;0.9467;1.0651;
594.3000;0.9467;1.0548;
594.6000;0.9467;1.0599;
594.9000;0.9459;1.0651;
595.2000;0.9467;1.0702;
595.5000;0.9475;1.0676;
595.8000;0.9499;1.0779;
596.1000;0.9467;1.0676;
596.4000;0.9475;1.0728;
596.7000;0.9459;1.0753;
597.0000;0.9467;1.0702;
597.3000;0.9483;1.0676;
597.6000;0.9459;1.0625;
597.9000;0.9475;1.0753;
598.2000;0.9434;1.0676;
598.5000;0.9442;1.0779;
598.8000;0.9459;1.0779;
599.1000;0.9459;1.0753;
599.4000;0.9475;1.0830;
599.7000;0.9475;1.0805;
600.0000;0.9459;1.0651;
600.3000;0.9459;1.0599;
600.6000;0.9459;1.0445;
600.9000;0.9410;1.0266;
601.2000;0.9369;1.0086;
601.5000;0.9271;0.9881;
601.8000;0.9239;0.9881;
602.1000;0.9141;0.9752;
602.4000;0.9101;0.9675;
602.7000;0.8970;0.9316;
603.0000;0.8938;0.9111;
603.3000;0.8848;0.8957;
603.6000;0.8767;0.8777;
603.9000;0.8734;0.8803;
604.2000;0.8588;0.8495;
604.5000;0.8596;0.8572;
604.8000;0.8555;0.8546;
605.1000;0.8482;0.8392;
605.4000;0.8425;0.8238;
605.7000;0.8392;0.8238;
606.0000;0.8352;0.8213;
606.3000;0.8295;0.8238;
606.6000;0.8246;0.8136;
606.9000;0.8287;0.8213;
607.2000;0.8132;0.7879;
607.5000;0.8116;0.7879;
607.8000;0.8075;0.7853;
608.1000;0.8059;0.7776;
608.4000;0.8010;0.7751;
608.7000;0.7945;0.7674;
609.0000;0.7928;0.7648;
609.3000;0.7896;0.7597;
609.6000;0.7863;0.7648;
609.9000;0.7757;0.7417;
610.2000;0.7774;0.7520;
610.5000;0.7741;0.7468;
610.8000;0.7717;0.7494;
611.1000;0.7684;0.7263;
611.4000;0.7627;0.7186;
611.7000;0.7619;0.7186;
612.0000;0.7595;0.7186;
612.3000;0.7554;0.7109;
612.6000;0.7554;0.7135;
612.9000;0.7505;0.7109;
613.2000;0.7481;0.6981;
613.5000;0.7448;0.6904;
613.8000;0.7416;0.7006;
614.1000;0.7399;0.7058;
614.4000;0.7350;0.6955;
614.7000;0.7261;0.6801;
615.0000;0.7302;0.6852;
615.3000;0.7269;0.6827;
615.6000;0.7261;0.6878;
615.9000;0.7277;0.6955;
616.2000;0.7228;0.6852;
616.5000;0.7171;0.6852;
616.8000;0.7179;0.6955;
617.1000;0.7139;0.6904;
617.4000;0.7114;0.6904;
617.7000;0.7041;0.6775;
618.0000;0.7090;0.6955;
618.3000;0.7057;0.6878;
618.6000;0.7041;0.6904;
618.9000;0.7017;0.6904;
619.2000;0.7009;0.6955;
619.5000;0.6984;0.6929;
619.8000;0.6968;0.6878;
620.1000;0.6927;0.6775;
620.4000;0.6927;0.6724;
620.7000;0.6919;0.6724;
621.0000;0.6911;0.6698;
621.3000;0.6870;0.6570;
621.6000;0.6846;0.6442;
621.9000;0.6781;0.6313;
622.2000;0.6781;0.6467;
622.5000;0.6797;0.6621;
622.8000;0.6772;0.6673;
623.1000;0.6748;0.6775;
623.4000;0.6756;0.6852;
623.7000;0.6740;0.6852;
624.0000;0.6707;0.6801;
624.3000;0.6772;0.7083;
624.6000;0.6716;0.6929;
624.9000;0.6667;0.6827;
625.2000;0.6667;0.6878;
625.5000;0.6675;0.6904;
625.8000;0.6634;0.6801;
626.1000;0.6699;0.6981;
626.4000;0.6618;0.6750;
626.7000;0.6569;0.6647;
627.0000;0.6577;0.6775;
627.3000;0.6553;0.6852;
627.6000;0.6569;0.6904;
627.9000;0.6536;0.6852;
628.2000;0.6512;0.6852;
628.5000;0.6536;0.6878;
628.8000;0.6512;0.6750;
629.1000;0.6504;0.6775;
629.4000;0.6504;0.6827;
629.7000;0.6479;0.6827;
630.0000;0.6471;0.6878;
630.3000;0.6455;0.6852;
630.6000;0.6422;0.6878;
630.9000;0.6431;0.6904;
631.2000;0.6431;0.6852;
631.5000;0.6406;0.6904;
631.8000;0.6374;0.6827;
632.1000;0.6390;0.6878;
632.4000;0.6398;0.6801;
632.7000;0.6382;0.6775;
633.0000;0.6382;0.6801;
633.3000;0.6365;0.6801;
633.6000;0.6300;0.6673;
633.9000;0.6333;0.6724;
634.2000;0.6333;0.6801;
634.5000;0.6300;0.6775;
634.8000;0.6357;0.6929;
635.1000;0.6276;0.6827;
635.4000;0.6284;0.6750;
635.7000;0.6276;0.6698;
636.0000;0.6260;0.6647;
636.3000;0.6243;0.6621;
636.6000;0.6227;0.6621;
636.9000;0.6178;0.6544;
637.2000;0.6211;0.6621;
637.5000;0.6195;0.6621;
637.8000;0.6211;0.6647;
638.1000;0.6186;0.6570;
638.4000;0.6203;0.6596;
638.7000;0.6178;0.6596;
639.0000;0.6170;0.6544;
639.3000;0.6154;0.6519;
639.6000;0.6178;0.6544;
639.9000;0.6089;0.6339;
640.2000;0.6146;0.6442;
640.5000;0.6146;0.6442;
640.8000;0.6138;0.6467;
641.1000;0.6138;0.6519;
641.4000;0.6129;0.6570;
641.7000;0.6113;0.6544;
642.0000;0.6089;0.6416;
642.3000;0.6097;0.6467;
642.6000;0.6089;0.6442;
642.9000;0.6113;0.6519;
643.2000;0.6081;0.6519;
643.5000;0.6081;0.6647;
643.8000;0.6024;0.6519;
644.1000;0.6072;0.6621;
644.4000;0.6072;0.6647;
644.7000;0.6064;0.6570;
645.0000;0.6056;0.6621;
645.3000;0.6089;0.6775;
645.6000;0.6032;0.6621;
645.9000;0.6007;0.6544;
646.2000;0.6048;0.6647;
646.5000;0.6024;0.6493;
646.8000;0.5999;0.6339;
647.1000;0.5991;0.6365;
647.4000;0.6015;0.6493;
647.7000;0.5975;0.6365;
648.0000;0.5999;0.6416;
648.3000;0.5983;0.6416;
648.6000;0.5967;0.6339;
648.9000;0.5975;0.6390;
649.2000;0.5967;0.6519;
649.5000;0.5950;0.6519;
649.8000;0.5950;0.6519;
650.1000;0.5958;0.6519;
650.4000;0.5926;0.6493;
650.7000;0.5934;0.6493;
651.0000;0.6015;0.6673;
651.3000;0.5918;0.6467;
651.6000;0.5910;0.6493;
651.9000;0.5893;0.6493;
652.2000;0.5902;0.6519;
652.5000;0.5877;0.6416;
652.8000;0.5853;0.6467;
653.1000;0.5910;0.6596;
653.4000;0.5910;0.6596;
653.7000;0.5877;0.6596;
654.0000;0.5885;0.6596;
654.3000;0.5893;0.6570;
654.6000;0.5893;0.6621;
654.9000;0.5877;0.6621;
655.2000;0.5885;0.6698;
655.5000;0.5869;0.6596;
655.8000;0.5877;0.6544;
656.1000;0.5861;0.6493;
656.4000;0.5877;0.6544;
656.7000;0.5869;0.6596;
657.0000;0.5836;0.6544;
657.3000;0.5836;0.6570;
657.6000;0.5836;0.6596;
657.9000;0.5845;0.6596;
658.2000;0.5861;0.6621;
658.5000;0.5845;0.6570;
658.8000;0.5918;0.6801;
659.1000;0.5820;0.6621;
659.4000;0.5853;0.6750;
659.7000;0.5796;0.6570;
660.0000;0.5796;0.6570;
660.3000;0.5779;0.6519;
660.6000;0.5763;0.6493;
660.9000;0.5779;0.6365;
661.2000;0.5788;0.6467;
661.5000;0.5771;0.6493;
661.8000;0.5804;0.6519;
662.1000;0.5763;0.6467;
662.4000;0.5771;0.6467;
662.7000;0.5820;0.6596;
663.0000;0.5722;0.6416;
663.3000;0.5739;0.6544;
663.6000;0.5739;0.6570;
663.9000;0.5828;0.6878;
664.2000;0.5747;0.6698;
664.5000;0.5755;0.6750;
664.8000;0.5755;0.6827;
665.1000;0.5739;0.6750;
665.4000;0.5731;0.6750;
665.7000;0.5739;0.6775;
666.0000;0.5722;0.6775;
666.3000;0.5731;0.6750;
666.6000;0.5739;0.6775;
666.9000;0.5747;0.6698;
667.2000;0.5714;0.6519;
667.5000;0.5722;0.6570;
667.8000;0.5722;0.6621;
668.1000;0.5731;0.6621;
668.4000;0.5722;0.6596;
668.7000;0.5690;0.6519;
669.0000;0.5641;0.6390;
669.3000;0.5714;0.6596;
669.6000;0.5617;0.6493;
669.9000;0.5682;0.6596;
670.2000;0.5714;0.6647;
670.5000;0.5706;0.6544;
670.8000;0.5690;0.6519;
671.1000;0.5682;0.6519;
671.4000;0.5690;0.6493;
671.7000;0.5682;0.6519;
672.0000;0.5682;0.6570;
672.3000;0.5690;0.6544;
672.6000;0.5698;0.6621;
672.9000;0.5657;0.6621;
673.2000;0.5682;0.6647;
673.5000;0.5641;0.6519;
673.8000;0.5665;0.6570;
674.1000;0.5665;0.6596;
674.4000;0.5739;0.6801;
674.7000;0.5641;0.6519;
675.0000;0.5649;0.6467;
675.3000;0.5649;0.6467;
675.6000;0.5625;0.6467;
675.9000;0.5649;0.6493;
676.2000;0.5649;0.6519;
676.5000;0.5633;0.6467;
676.8000;0.5682;0.6621;
677.1000;0.5625;0.6467;
677.4000;0.5617;0.6365;
677.7000;0.5576;0.6211;
678.0000;0.5608;0.6313;
678.3000;0.5608;0.6288;
678.6000;0.5731;0.6596;
678.9000;0.5608;0.6262;
679.2000;0.5617;0.6313;
679.5000;0.5625;0.6365;
679.8000;0.5633;0.6390;
680.1000;0.5592;0.6313;
680.4000;0.5617;0.6442;
680.7000;0.5608;0.6365;
681.0000;0.5592;0.6442;
681.3000;0.5608;0.6467;
681.6000;0.5592;0.6493;
681.9000;0.5608;0.6544;
682.2000;0.5649;0.6596;
682.5000;0.5698;0.6775;
682.8000;0.5535;0.6416;
683.1000;0.5584;0.6467;
683.4000;0.5592;0.6493;
683.7000;0.5592;0.6467;
684.0000;0.5576;0.6365;
684.3000;0.5576;0.6236;
684.6000;0.5495;0.6031;
684.9000;0.5560;0.6211;
685.2000;0.5568;0.6313;
685.5000;0.5600;0.6519;
685.8000;0.5551;0.6390;
686.1000;0.5568;0.6493;
686.4000;0.5543;0.6390;
686.7000;0.5551;0.6519;
687.0000;0.5576;0.6570;
687.3000;0.5560;0.6621;
687.6000;0.5535;0.6519;
687.9000;0.5551;0.6493;
688.2000;0.5527;0.6442;
688.5000;0.5543;0.6442;
688.8000;0.5543;0.6390;
689.1000;0.5527;0.6365;
689.4000;0.5560;0.6416;
689.7000;0.5527;0.6313;
690.0000;0.5551;0.6416;
690.3000;0.5519;0.6365;
690.6000;0.5535;0.6313;
690.9000;0.5535;0.6339;
691.2000;0.5543;0.6416;
691.5000;0.5543;0.6493;
691.8000;0.5535;0.6544;
692.1000;0.5543;0.6519;
692.4000;0.5527;0.6467;
692.7000;0.5560;0.6544;
693.0000;0.5511;0.6390;
693.3000;0.5519;0.6442;
693.6000;0.5551;0.6390;
693.9000;0.5511;0.6262;
694.2000;0.5519;0.6288;
694.5000;0.5495;0.6313;
694.8000;0.5511;0.6416;
695.1000;0.5503;0.6442;
695.4000;0.5511;0.6416;
695.7000;0.5511;0.6467;
696.0000;0.5511;0.6544;
696.3000;0.5511;0.6493;
696.6000;0.5511;0.6519;
696.9000;0.5503;0.6416;
697.2000;0.5511;0.6467;
697.5000;0.5486;0.6365;
697.8000;0.5486;0.6416;
698.1000;0.5486;0.6416;
698.4000;0.5486;0.6544;
698.7000;0.5486;0.6519;
699.0000;0.5470;0.6416;
699.3000;0.5470;0.6365;
699.6000;0.5438;0.6313;
699.9000;0.5478;0.6390;
700.2000;0.5478;0.6467;
700.5000;0.5478;0.6467;
700.8000;0.5462;0.6467;
701.1000;0.5478;0.6442;
701.4000;0.5462;0.6390;
701.7000;0.5486;0.6570;
702.0000;0.5478;0.6416;
702.3000;0.5462;0.6442;
702.6000;0.5478;0.6493;
702.9000;0.5454;0.6442;
703.2000;0.5454;0.6493;
703.5000;0.5454;0.6416;
703.8000;0.5462;0.6442;
704.1000;0.5438;0.6339;
704.4000;0.5470;0.6493;
704.7000;0.5429;0.6442;
705.0000;0.5470;0.6596;
705.3000;0.5438;0.6544;
705.6000;0.5446;0.6493;
705.9000;0.5446;0.6390;
706.2000;0.5429;0.6390;
706.5000;0.5486;0.6596;
706.8000;0.5413;0.6519;
707.1000;0.5446;0.6544;
707.4000;0.5421;0.6596;
707.7000;0.5421;0.6544;
708.0000;0.5421;0.6621;
708.3000;0.5389;0.6570;
708.6000;0.5462;0.6724;
708.9000;0.5413;0.6673;
709.2000;0.5421;0.6621;
709.5000;0.5421;0.6544;
709.8000;0.5372;0.6493;
710.1000;0.5429;0.6698;
710.4000;0.5429;0.6724;
710.7000;0.5405;0.6647;
711.0000;0.5438;0.6698;
711.3000;0.5446;0.6673;
711.6000;0.5421;0.6544;
711.9000;0.5429;0.6647;
712.2000;0.5413;0.6621;
712.5000;0.5421;0.6673;
712.8000;0.5405;0.6673;
713.1000;0.5397;0.6724;
713.4000;0.5429;0.6750;
713.7000;0.5405;0.6621;
714.0000;0.5438;0.6621;
714.3000;0.5421;0.6519;
714.6000;0.5397;0.6390;
714.9000;0.5421;0.6519;
715.2000;0.5421;0.6544;
715.5000;0.5413;0.6544;
715.8000;0.5429;0.6621;
716.1000;0.5413;0.6673;
716.4000;0.5413;0.6621;
716.7000;0.5389;0.6596;
717.0000;0.5356;0.6621;
717.3000;0.5413;0.6775;
717.6000;0.5397;0.6724;
717.9000;0.5446;0.6852;
718.2000;0.5381;0.6673;
718.5000;0.5372;0.6621;
718.8000;0.5413;0.6750;
719.1000;0.5413;0.6801;
719.4000;0.5340;0.6621;
719.7000;0.5381;0.6596;
720.0000;0.5372;0.6519;
720.3000;0.5446;0.6724;
720.6000;0.5405;0.6596;
720.9000;0.5413;0.6596;
721.2000;0.5389;0.6596;
721.5000;0.5381;0.6647;
721.8000;0.5405;0.6673;
722.1000;0.5389;0.6621;
722.4000;0.5324;0.6467;
722.7000;0.5372;0.6570;
723.0000;0.5372;0.6570;
723.3000;0.5356;0.6570;
723.6000;0.5258;0.6365;
723.9000;0.5389;0.6673;
724.2000;0.5372;0.6596;
724.5000;0.5356;0.6570;
724.8000;0.5372;0.6621;
725.1000;0.5364;0.6519;
725.4000;0.5381;0.6544;
725.7000;0.5381;0.6596;
726.0000;0.5364;0.6519;
726.3000;0.5389;0.6544;
726.6000;0.5356;0.6467;
726.9000;0.5372;0.6493;
727.2000;0.5364;0.6570;
727.5000;0.5389;0.6673;
727.8000;0.5381;0.6724;
728.1000;0.5381;0.6750;
728.4000;0.5364;0.6647;
728.7000;0.5356;0.6673;
729.0000;0.5364;0.6801;
729.3000;0.5356;0.6801;
729.6000;0.5356;0.6724;
729.9000;0.5372;0.6724;
730.2000;0.5356;0.6647;
730.5000;0.5364;0.6750;
730.8000;0.5364;0.6724;
731.1000;0.5356;0.6775;
731.4000;0.5348;0.6775;
731.7000;0.5340;0.6724;
732.0000;0.5348;0.6775;
732.3000;0.5348;0.6775;
732.6000;0.5324;0.6724;
732.9000;0.5340;0.6801;
733.2000;0.5315;0.6647;
733.5000;0.5348;0.6673;
733.8000;0.5332;0.6647;
734.1000;0.5348;0.6698;
734.4000;0.5356;0.6698;
734.7000;0.5348;0.6621;
735.0000;0.5324;0.6698;
735.3000;0.5348;0.6673;
735.6000;0.5348;0.6698;
735.9000;0.5348;0.6724;
736.2000;0.5356;0.6724;
736.5000;0.5348;0.6698;
736.8000;0.5364;0.6750;
737.1000;0.5348;0.6647;
737.4000;0.5356;0.6724;
737.7000;0.5332;0.6698;
738.0000;0.5340;0.6724;
738.3000;0.5348;0.6750;
738.6000;0.5356;0.6827;
738.9000;0.5315;0.6724;
739.2000;0.5348;0.6827;
739.5000;0.5348;0.6750;
739.8000;0.5324;0.6570;
740.1000;0.5332;0.6570;
740.4000;0.5324;0.6390;
740.7000;0.5340;0.6442;
741.0000;0.5307;0.6544;
741.3000;0.5324;0.6596;
741.6000;0.5340;0.6673;
741.9000;0.5250;0.6519;
742.2000;0.5340;0.6724;
742.5000;0.5340;0.6673;
742.8000;0.5315;0.6621;
743.1000;0.5332;0.6647;
743.4000;0.5364;0.6698;
743.7000;0.5258;0.6365;
744.0000;0.5299;0.6544;
744.3000;0.5324;0.6544;
744.6000;0.5389;0.6673;
744.9000;0.5307;0.6493;
745.2000;0.5307;0.6570;
745.5000;0.5315;0.6596;
745.8000;0.5340;0.6673;
746.1000;0.5315;0.6621;
746.4000;0.5307;0.6647;
746.7000;0.5315;0.6673;
747.0000;0.5315;0.6647;
747.3000;0.5315;0.6673;
747.6000;0.5324;0.6698;
747.9000;0.5315;0.6698;
748.2000;0.5307;0.6724;
748.5000;0.5299;0.6724;
748.8000;0.5315;0.6724;
749.1000;0.5307;0.6647;
749.4000;0.5299;0.6673;
749.7000;0.5315;0.6750;
750.0000;0.5315;0.6724;
750.3000;0.5299;0.6673;
750.6000;0.5307;0.6775;
750.9000;0.5291;0.6647;
751.2000;0.5299;0.6724;
751.5000;0.5291;0.6621;
751.8000;0.5307;0.6647;
752.1000;0.5307;0.6621;
752.4000;0.5307;0.6596;
752.7000;0.5299;0.6647;
753.0000;0.5315;0.6750;
753.3000;0.5299;0.6698;
753.6000;0.5315;0.6698;
753.9000;0.5307;0.6673;
754.2000;0.5291;0.6673;
754.5000;0.5315;0.6750;
754.8000;0.5299;0.6775;
755.1000;0.5291;0.6724;
755.4000;0.5250;0.6724;
755.7000;0.5250;0.6698;
756.0000;0.5283;0.6878;
756.3000;0.5291;0.6929;
756.6000;0.5267;0.6955;
756.9000;0.5258;0.6801;
757.2000;0.5283;0.6827;
757.5000;0.5291;0.6904;
757.8000;0.5307;0.6904;
758.1000;0.5299;0.6852;
758.4000;0.5283;0.6904;
758.7000;0.5291;0.7032;
759.0000;0.5275;0.6878;
759.3000;0.5299;0.6904;
759.6000;0.5291;0.6801;
759.9000;0.5324;0.6904;
760.2000;0.5299;0.6801;
760.5000;0.5283;0.6750;
760.8000;0.5291;0.6698;
761.1000;0.5299;0.6801;
761.4000;0.5291;0.6698;
761.7000;0.5299;0.6698;
762.0000;0.5291;0.6673;
762.3000;0.5283;0.6621;
762.6000;0.5283;0.6724;
762.9000;0.5275;0.6698;
763.2000;0.5275;0.6724;
763.5000;0.5267;0.6724;
763.8000;0.5275;0.6724;
764.1000;0.5283;0.6647;
764.4000;0.5315;0.6698;
764.7000;0.5283;0.6621;
765.0000;0.5267;0.6801;
765.3000;0.5258;0.6827;
765.6000;0.5283;0.6852;
765.9000;0.5258;0.6750;
766.2000;0.5275;0.6775;
766.5000;0.5283;0.6775;
766.8000;0.5267;0.6801;
767.1000;0.5291;0.6852;
767.4000;0.5267;0.6775;
767.7000;0.5283;0.6801;
768.0000;0.5275;0.6724;
768.3000;0.5267;0.6724;
768.6000;0.5275;0.6878;
768.9000;0.5258;0.6801;
769.2000;0.5267;0.6750;
769.5000;0.5267;0.6750;
769.8000;0.5258;0.6750;
770.1000;0.5283;0.6775;
770.4000;0.5250;0.6724;
770.7000;0.5275;0.6801;
771.0000;0.5291;0.6827;
771.3000;0.5275;0.6775;
771.6000;0.5267;0.6775;
771.9000;0.5250;0.6750;
772.2000;0.5250;0.6724;
772.5000;0.5275;0.6724;
772.8000;0.5258;0.6621;
773.1000;0.5267;0.6724;
773.4000;0.5275;0.6750;
773.7000;0.5324;0.7032;
774.0000;0.5267;0.6904;
774.3000;0.5250;0.6827;
774.6000;0.5267;0.6827;
774.9000;0.5267;0.6827;
775.2000;0.5275;0.6852;
775.5000;0.5250;0.6775;
775.8000;0.5193;0.6647;
776.1000;0.5242;0.6775;
776.4000;0.5258;0.6724;
776.7000;0.5258;0.6698;
777.0000;0.5258;0.6775;
777.3000;0.5250;0.6698;
777.6000;0.5267;0.6698;
777.9000;0.5275;0.6724;
778.2000;0.5234;0.6673;
778.5000;0.5258;0.6878;
778.8000;0.5242;0.6852;
779.1000;0.5250;0.6878;
779.4000;0.5250;0.6904;
779.7000;0.5250;0.6878;
780.0000;0.5250;0.6852;
780.3000;0.5267;0.6904;
780.6000;0.5218;0.6801;
780.9000;0.5242;0.6698;
781.2000;0.5250;0.6621;
781.5000;0.5250;0.6519;
781.8000;0.5242;0.6596;
782.1000;0.5234;0.6596;
782.4000;0.5234;0.6647;
782.7000;0.5291;0.6827;
783.0000;0.5218;0.6724;
783.3000;0.5250;0.6775;
783.6000;0.5218;0.6647;
783.9000;0.5267;0.6724;
784.2000;0.5258;0.6724;
784.5000;0.5234;0.6596;
784.8000;0.5226;0.6647;
785.1000;0.5242;0.6750;
785.4000;0.5258;0.6775;
785.7000;0.5210;0.6698;
786.0000;0.5218;0.6827;
786.3000;0.5226;0.6852;
786.6000;0.5234;0.6878;
786.9000;0.5210;0.6750;
787.2000;0.5226;0.6775;
787.5000;0.5210;0.6621;
787.8000;0.5234;0.6673;
788.1000;0.5234;0.6698;
788.4000;0.5226;0.6724;
788.7000;0.5210;0.6750;
789.0000;0.5234;0.6698;
789.3000;0.5242;0.6724;
789.6000;0.5226;0.6673;
789.9000;0.5226;0.6621;
790.2000;0.5315;0.6852;
790.5000;0.5242;0.6775;
790.8000;0.5193;0.6698;
791.1000;0.5275;0.6878;
791.4000;0.5226;0.6724;
791.7000;0.5234;0.6775;
792.0000;0.5258;0.6775;
792.3000;0.5226;0.6570;
792.6000;0.5234;0.6647;
792.9000;0.5226;0.6698;
793.2000;0.5234;0.6647;
793.5000;0.5242;0.6724;
793.8000;0.5234;0.6724;
794.1000;0.5242;0.6750;
794.4000;0.5332;0.7006;
794.7000;0.5226;0.6801;
795.0000;0.5234;0.6827;
795.3000;0.5242;0.6852;
795.6000;0.5234;0.6827;
795.9000;0.5218;0.6775;
796.2000;0.5234;0.6801;
796.5000;0.5218;0.6852;
796.8000;0.5242;0.6904;
797.1000;0.5226;0.6852;
797.4000;0.5210;0.6827;
797.7000;0.5234;0.6929;
798.0000;0.5226;0.6904;
798.3000;0.5210;0.6852;
798.6000;0.5226;0.6801;
798.9000;0.5177;0.6621;
799.2000;0.5218;0.6750;
799.5000;0.5193;0.6596;
799.8000;0.5218;0.6698;
800.1000;0.5185;0.6647;
800.4000;0.5218;0.6724;
800.7000;0.5210;0.6724;
801.0000;0.5193;0.6750;
801.3000;0.5218;0.6673;
801.6000;0.5218;0.6698;
801.9000;0.5234;0.6647;
802.2000;0.5218;0.6673;
802.5000;0.5210;0.6673;
802.8000;0.5226;0.6724;
803.1000;0.5234;0.6698;
803.4000;0.5283;0.6981;
803.7000;0.5218;0.6698;
804.0000;0.5218;0.6750;
804.3000;0.5218;0.6827;
804.6000;0.5218;0.6750;
804.9000;0.5210;0.6775;
805.2000;0.5226;0.6775;
805.5000;0.5226;0.6852;
805.8000;0.5234;0.6929;
806.1000;0.5242;0.6904;
806.4000;0.5210;0.6827;
806.7000;0.5201;0.6852;
807.0000;0.5210;0.6878;
807.3000;0.5218;0.6904;
807.6000;0.5210;0.6904;
807.9000;0.5226;0.6852;
808.2000;0.5226;0.6904;
808.5000;0.5193;0.6775;
808.8000;0.5218;0.6904;
809.1000;0.5169;0.6724;
809.4000;0.5242;0.6878;
809.7000;0.5218;0.6698;
810.0000;0.5218;0.6698;
810.3000;0.5210;0.6621;
810.6000;0.5218;0.6698;
810.9000;0.5210;0.6698;
811.2000;0.5226;0.6750;
811.5000;0.5153;0.6544;
811.8000;0.5226;0.6673;
812.1000;0.5210;0.6621;
812.4000;0.5218;0.6621;
812.7000;0.5210;0.6416;
813.0000;0.5218;0.6493;
813.3000;0.5226;0.6467;
813.6000;0.5234;0.6570;
813.9000;0.5210;0.6647;
814.2000;0.5218;0.6724;
814.5000;0.5258;0.6904;
814.8000;0.5201;0.6801;
815.1000;0.5201;0.6852;
815.4000;0.5226;0.6929;
815.7000;0.5193;0.6827;
816.0000;0.5210;0.6775;
816.3000;0.5169;0.6724;
816.6000;0.5177;0.6801;
816.9000;0.5177;0.6724;
817.2000;0.5210;0.6827;
817.5000;0.5161;0.6647;
817.8000;0.5201;0.6750;
818.1000;0.5218;0.6775;
818.4000;0.5210;0.6698;
818.7000;0.5210;0.6750;
819.0000;0.5250;0.6878;
819.3000;0.5218;0.6698;
819.6000;0.5275;0.6827;
819.9000;0.5193;0.6621;
820.2000;0.5193;0.6621;
820.5000;0.5185;0.6647;
820.8000;0.5258;0.6827;
821.1000;0.5201;0.6724;
821.4000;0.5234;0.6698;
821.7000;0.5185;0.6596;
822.0000;0.5193;0.6698;
822.3000;0.5185;0.6750;
822.6000;0.5193;0.6878;
822.9000;0.5226;0.6929;
823.2000;0.5201;0.6878;
823.5000;0.5218;0.6929;
823.8000;0.5201;0.7006;
824.1000;0.5201;0.6981;
824.4000;0.5201;0.7032;
824.7000;0.5193;0.7083;
825.0000;0.5193;0.6955;
825.3000;0.5177;0.6955;
825.6000;0.5201;0.6955;
825.9000;0.5185;0.6929;
826.2000;0.5185;0.6827;
826.5000;0.5177;0.6801;
826.8000;0.5201;0.6852;
827.1000;0.5210;0.6904;
827.4000;0.5201;0.6878;
827.7000;0.5226;0.6955;
828.0000;0.5185;0.6827;
828.3000;0.5201;0.6827;
828.6000;0.5210;0.6827;
828.9000;0.5193;0.6827;
829.2000;0.5193;0.6929;
829.5000;0.5185;0.6981;
829.8000;0.5201;0.7109;
830.1000;0.5201;0.7058;
830.4000;0.5185;0.7058;
830.7000;0.5161;0.6904;
831.0000;0.5193;0.7032;
831.3000;0.5210;0.7032;
831.6000;0.5193;0.6904;
831.9000;0.5210;0.7032;
832.2000;0.5210;0.7083;
832.5000;0.5210;0.7006;
832.8000;0.5201;0.7032;
833.1000;0.5193;0.7006;
833.4000;0.5234;0.7135;
833.7000;0.5193;0.7083;
834.0000;0.5210;0.7058;
834.3000;0.5144;0.6904;
834.6000;0.5185;0.7083;
834.9000;0.5169;0.7135;
835.2000;0.5193;0.7135;
835.5000;0.5234;0.7160;
835.8000;0.5193;0.7058;
836.1000;0.5193;0.7058;
836.4000;0.5201;0.7083;
836.7000;0.5169;0.6929;
837.0000;0.5153;0.6852;
837.3000;0.5193;0.6904;
837.6000;0.5218;0.6955;
837.9000;0.5153;0.6904;
838.2000;0.5169;0.6929;
838.5000;0.5185;0.6955;
838.8000;0.5193;0.6904;
839.1000;0.5177;0.6852;
839.4000;0.5144;0.6775;
839.7000;0.5177;0.6955;
840.0000;0.5201;0.7058;
840.3000;0.5185;0.7032;
840.6000;0.5104;0.6801;
840.9000;0.5177;0.6955;
841.2000;0.5177;0.6929;
841.5000;0.5193;0.7006;
841.8000;0.5201;0.7135;
842.1000;0.5177;0.7058;
842.4000;0.5193;0.7058;
842.7000;0.5193;0.6878;
843.0000;0.5177;0.6775;
843.3000;0.5218;0.6852;
843.6000;0.5210;0.6904;
843.9000;0.5185;0.6904;
844.2000;0.5210;0.6981;
844.5000;0.5193;0.6852;
844.8000;0.5185;0.6878;
845.1000;0.5185;0.6904;
845.4000;0.5201;0.6955;
845.7000;0.5185;0.6852;
846.0000;0.5161;0.6801;
846.3000;0.5193;0.7006;
846.6000;0.5169;0.7006;
846.9000;0.5177;0.6955;
847.2000;0.5177;0.6852;
847.5000;0.5177;0.6827;
847.8000;0.5153;0.6673;
848.1000;0.5161;0.6801;
848.4000;0.5161;0.6801;
848.7000;0.5210;0.7058;
849.0000;0.5161;0.6955;
849.3000;0.5193;0.7032;
849.6000;0.5185;0.6929;
849.9000;0.5169;0.6827;
850.2000;0.5177;0.6852;
850.5000;0.5177;0.6827;
850.8000;0.5193;0.6878;
851.1000;0.5185;0.6852;
851.4000;0.5193;0.6878;
851.7000;0.5169;0.6775;
852.0000;0.5177;0.6827;
852.3000;0.5185;0.6904;
852.6000;0.5161;0.6852;
852.9000;0.5201;0.6929;
853.2000;0.5177;0.6878;
853.5000;0.5169;0.6827;
853.8000;0.5169;0.6852;
854.1000;0.5210;0.7032;
854.4000;0.5177;0.6981;
854.7000;0.5177;0.6981;
855.0000;0.5177;0.6929;
855.3000;0.5177;0.6955;
855.6000;0.5201;0.7058;
855.9000;0.5185;0.7058;
856.2000;0.5185;0.7109;
856.5000;0.5177;0.6929;
856.8000;0.5185;0.7032;
857.1000;0.5177;0.7032;
857.4000;0.5177;0.7006;
857.7000;0.5234;0.7058;
858.0000;0.5193;0.7006;
858.3000;0.5193;0.6929;
858.6000;0.5169;0.6775;
858.9000;0.5193;0.6724;
859.2000;0.5153;0.6673;
859.5000;0.5169;0.6750;
859.8000;0.5177;0.6775;
860.1000;0.5169;0.6724;
860.4000;0.5112;0.6544;
860.7000;0.5177;0.6698;
861.0000;0.5161;0.6698;
861.3000;0.5169;0.6750;
861.6000;0.5185;0.6775;
861.9000;0.5169;0.6827;
862.2000;0.5177;0.6801;
862.5000;0.5161;0.6750;
862.8000;0.5153;0.6801;
863.1000;0.5185;0.6750;
863.4000;0.5161;0.6621;
863.7000;0.5169;0.6596;
864.0000;0.5185;0.6596;
864.3000;0.5169;0.6570;
864.6000;0.5177;0.6596;
864.9000;0.5177;0.6724;
865.2000;0.5161;0.6698;
865.5000;0.5177;0.6827;
865.8000;0.5193;0.6801;
866.1000;0.5161;0.6647;
866.4000;0.5177;0.6698;
866.7000;0.5169;0.6801;
867.0000;0.5153;0.6904;
867.3000;0.5185;0.6955;
867.6000;0.5185;0.6929;
867.9000;0.5169;0.6929;
868.2000;0.5226;0.6981;
868.5000;0.5169;0.6827;
868.8000;0.5161;0.6827;
869.1000;0.5153;0.6878;
869.4000;0.5177;0.6955;
869.7000;0.5169;0.6981;
870.0000;0.5161;0.7083;
870.3000;0.5161;0.7135;
870.6000;0.5177;0.7058;
870.9000;0.5161;0.6929;
871.2000;0.5104;0.6698;
871.5000;0.5169;0.6904;
871.8000;0.5153;0.6878;
872.1000;0.5169;0.6981;
872.4000;0.5079;0.6750;
872.7000;0.5153;0.6878;
873.0000;0.5144;0.6827;
873.3000;0.5161;0.6878;
873.6000;0.5177;0.6929;
873.9000;0.5153;0.6878;
874.2000;0.5153;0.6852;
874.5000;0.5177;0.6955;
874.8000;0.5161;0.7032;
875.1000;0.5161;0.6981;
875.4000;0.5161;0.6981;
875.7000;0.5153;0.7032;
876.0000;0.5169;0.7032;
876.3000;0.5161;0.6929;
876.6000;0.5161;0.6852;
876.9000;0.5193;0.6904;
877.2000;0.5112;0.6698;
877.5000;0.5120;0.6647;
877.8000;0.5161;0.6852;
878.1000;0.5144;0.6775;
878.4000;0.5169;0.6827;
878.7000;0.5169;0.6775;
879.0000;0.5177;0.6801;
879.3000;0.5161;0.6801;
879.6000;0.5169;0.6929;
879.9000;0.5169;0.6878;
880.2000;0.5161;0.6801;
880.5000;0.5169;0.6750;
880.8000;0.5169;0.6801;
881.1000;0.5161;0.6775;
881.4000;0.5169;0.6724;
881.7000;0.5169;0.6673;
882.0000;0.5169;0.6698;
882.3000;0.5177;0.6724;
882.6000;0.5169;0.6673;
882.9000;0.5169;0.6698;
883.2000;0.5128;0.6724;
883.5000;0.5136;0.6750;
883.8000;0.5088;0.6570;
884.1000;0.5128;0.6698;
884.4000;0.5153;0.6775;
884.7000;0.5153;0.6775;
885.0000;0.5161;0.6852;
885.3000;0.5161;0.6801;
885.6000;0.5161;0.6878;
885.9000;0.5185;0.6878;
886.2000;0.5185;0.6827;
886.5000;0.5161;0.6827;
886.8000;0.5136;0.6775;
887.1000;0.5088;0.6621;
887.4000;0.5153;0.6775;
887.7000;0.5153;0.6724;
888.0000;0.5169;0.6827;
888.3000;0.5144;0.6801;
888.6000;0.5153;0.6827;
888.9000;0.5144;0.6801;
889.2000;0.5153;0.6698;
889.5000;0.5128;0.6647;
889.8000;0.5144;0.6647;
890.1000;0.5161;0.6698;
890.4000;0.5144;0.6698;
890.7000;0.5185;0.6750;
891.0000;0.5096;0.6519;
891.3000;0.5144;0.6698;
891.6000;0.5153;0.6698;
891.9000;0.5177;0.6775;
892.2000;0.5096;0.6621;
892.5000;0.5177;0.6801;
892.8000;0.5144;0.6801;
893.1000;0.5136;0.6878;
893.4000;0.5169;0.6929;
893.7000;0.5144;0.6827;
894.0000;0.5128;0.6775;
894.3000;0.5153;0.6955;
894.6000;0.5120;0.6801;
894.9000;0.5153;0.6775;
895.2000;0.5096;0.6570;
895.5000;0.5153;0.6647;
895.8000;0.5136;0.6596;
896.1000;0.5153;0.6698;
896.4000;0.5153;0.6801;
896.7000;0.5136;0.6750;
897.0000;0.5144;0.6750;
897.3000;0.5161;0.6750;
897.6000;0.5153;0.6775;
897.9000;0.5055;0.6467;
898.2000;0.5153;0.6750;
898.5000;0.5144;0.6827;
898.8000;0.5153;0.6852;
899.1000;0.5153;0.6750;
899.4000;0.5153;0.6801;
899.7000;0.5153;0.6852;
900.0000;0.5153;0.6827;
900.3000;0.5161;0.6852;
900.6000;0.5185;0.6878;
900.9000;0.5267;0.7032;
901.2000;0.5136;0.6801;
901.5000;0.5177;0.6955;
901.8000;0.5153;0.6955;
902.1000;0.5177;0.7006;
902.4000;0.5144;0.6929;
902.7000;0.5161;0.6904;
903.0000;0.5128;0.6878;
903.3000;0.5161;0.6904;
903.6000;0.5153;0.6904;
903.9000;0.5144;0.6878;
904.2000;0.5161;0.6852;
904.5000;0.5136;0.6827;
904.8000;0.5153;0.6929;
905.1000;0.5128;0.6929;
905.4000;0.5144;0.6878;
905.7000;0.5161;0.6904;
906.0000;0.5120;0.6750;
906.3000;0.5128;0.6827;
906.6000;0.5153;0.6852;
906.9000;0.5128;0.6878;
907.2000;0.5144;0.6929;
907.5000;0.5177;0.7032;
907.8000;0.5128;0.6750;
908.1000;0.5144;0.6827;
908.4000;0.5112;0.6775;
908.7000;0.5120;0.6801;
909.0000;0.5144;0.6775;
909.3000;0.5161;0.6724;
909.6000;0.5120;0.6596;
909.9000;0.5120;0.6596;
910.2000;0.5136;0.6698;
910.5000;0.5177;0.6801;
910.8000;0.5136;0.6750;
911.1000;0.5153;0.6904;
911.4000;0.5169;0.6929;
911.7000;0.5144;0.6878;
912.0000;0.5136;0.6904;
912.3000;0.5144;0.6929;
912.6000;0.5177;0.6955;
912.9000;0.5161;0.6955;
913.2000;0.5144;0.6929;
913.5000;0.5153;0.6852;
913.8000;0.5120;0.6698;
914.1000;0.5218;0.6904;
914.4000;0.5153;0.6698;
914.7000;0.5112;0.6647;
915.0000;0.5136;0.6724;
915.3000;0.5153;0.6750;
915.6000;0.5144;0.6647;
915.9000;0.5136;0.6647;
916.2000;0.5185;0.6673;
916.5000;0.5161;0.6596;
916.8000;0.5144;0.6673;
917.1000;0.5169;0.6801;
917.4000;0.5144;0.6878;
917.7000;0.5144;0.6827;
918.0000;0.5136;0.6750;
918.3000;0.5144;0.6775;
918.6000;0.5144;0.6827;
918.9000;0.5161;0.6801;
919.2000;0.5218;0.6955;
919.5000;0.5144;0.6724;
919.8000;0.5136;0.6775;
920.1000;0.5144;0.6852;
920.4000;0.5161;0.6904;
920.7000;0.5136;0.6878;
921.0000;0.5193;0.7006;
921.3000;0.5096;0.6698;
921.6000;0.5161;0.6801;
921.9000;0.5136;0.6775;
922.2000;0.5136;0.6750;
922.5000;0.5201;0.6852;
922.8000;0.5161;0.6827;
923.1000;0.5112;0.6827;
923.4000;0.5153;0.6852;
923.7000;0.5161;0.6852;
924.0000;0.5136;0.6750;
924.3000;0.5144;0.6827;
924.6000;0.5120;0.6775;
924.9000;0.5136;0.6801;
925.2000;0.5226;0.6929;
925.5000;0.5144;0.6724;
925.8000;0.5169;0.6852;
926.1000;0.5136;0.6775;
926.4000;0.5136;0.6775;
926.7000;0.5153;0.6904;
927.0000;0.5144;0.6878;
927.3000;0.5120;0.6827;
927.6000;0.5128;0.6904;
927.9000;0.5185;0.7083;
928.2000;0.5153;0.7006;
928.5000;0.5128;0.6981;
928.8000;0.5112;0.6955;
929.1000;0.5112;0.6955;
929.4000;0.5193;0.7160;
929.7000;0.5153;0.7083;
930.0000;0.5128;0.6981;
930.3000;0.5112;0.7032;
930.6000;0.5144;0.7109;
930.9000;0.5144;0.7083;
931.2000;0.5136;0.7006;
931.5000;0.5128;0.6981;
931.8000;0.5153;0.7109;
932.1000;0.5136;0.7006;
932.4000;0.5153;0.7032;
932.7000;0.5128;0.7006;
933.0000;0.5185;0.7109;
933.3000;0.5153;0.7006;
933.6000;0.5128;0.6904;
933.9000;0.5120;0.6878;
934.2000;0.5128;0.6904;
934.5000;0.5104;0.6878;
934.8000;0.5144;0.7032;
935.1000;0.5136;0.7109;
935.4000;0.5144;0.7186;
935.7000;0.5128;0.7109;
936.0000;0.5144;0.7212;
936.3000;0.5144;0.7160;
936.6000;0.5128;0.7032;
936.9000;0.5128;0.7032;
937.2000;0.5128;0.6955;
937.5000;0.5136;0.6981;
937.8000;0.5136;0.7032;
938.1000;0.5144;0.7032;
938.4000;0.5161;0.7058;
938.7000;0.5161;0.7109;
939.0000;0.5136;0.6955;
939.3000;0.5144;0.6929;
939.6000;0.5136;0.6955;
939.9000;0.5128;0.6801;
940.2000;0.5136;0.6878;
940.5000;0.5153;0.6904;
940.8000;0.5153;0.6929;
941.1000;0.5144;0.7006;
941.4000;0.5144;0.6955;
941.7000;0.5177;0.7109;
942.0000;0.5144;0.7058;
942.3000;0.5136;0.6904;
942.6000;0.5128;0.6955;
942.9000;0.5136;0.6981;
943.2000;0.5112;0.6878;
943.5000;0.5136;0.6929;
943.8000;0.5169;0.6955;
944.1000;0.5136;0.6775;
944.4000;0.5161;0.6981;
944.7000;0.5153;0.6981;
945.0000;0.5136;0.6955;
945.3000;0.5161;0.6929;
945.6000;0.5153;0.6852;
945.9000;0.5193;0.6955;
946.2000;0.5144;0.6775;
946.5000;0.5128;0.6801;
946.8000;0.5128;0.6827;
947.1000;0.5153;0.6878;
947.4000;0.5153;0.6929;
947.7000;0.5136;0.6904;
948.0000;0.5144;0.6929;
948.3000;0.5136;0.6904;
948.6000;0.5144;0.6981;
948.9000;0.5128;0.6929;
949.2000;0.5144;0.6801;
949.5000;0.5104;0.6673;
949.8000;0.5144;0.6801;
950.1000;0.5161;0.6827;
950.4000;0.5120;0.6801;
950.7000;0.5193;0.6981;
951.0000;0.5144;0.6801;
951.3000;0.5120;0.6621;
951.6000;0.5161;0.6775;
951.9000;0.5136;0.6673;
952.2000;0.5128;0.6724;
952.5000;0.5136;0.6827;
952.8000;0.5128;0.6827;
953.1000;0.5153;0.6878;
953.4000;0.5144;0.6878;
953.7000;0.5144;0.6827;
954.0000;0.5096;0.6698;
954.3000;0.5112;0.6775;
954.6000;0.5136;0.6904;
954.9000;0.5128;0.6981;
955.2000;0.5136;0.6955;
955.5000;0.5120;0.6955;
955.8000;0.5144;0.6981;
956.1000;0.5136;0.7032;
956.4000;0.5144;0.6981;
956.7000;0.5161;0.6981;
957.0000;0.5144;0.6904;
957.3000;0.5144;0.6955;
957.6000;0.5144;0.6929;
957.9000;0.5144;0.6904;
958.2000;0.5120;0.6827;
958.5000;0.5185;0.7083;
958.8000;0.5120;0.6955;
959.1000;0.5063;0.6775;
959.4000;0.5136;0.6981;
959.7000;0.5136;0.6852;
960.0000;0.5144;0.6827;
960.3000;0.5144;0.6775;
960.6000;0.5120;0.6775;
960.9000;0.5120;0.6775;
961.2000;0.5144;0.6852;
961.5000;0.5128;0.6904;
961.8000;0.5120;0.6904;
962.1000;0.5128;0.6878;
962.4000;0.5136;0.6852;
962.7000;0.5144;0.6981;
963.0000;0.5128;0.7006;
963.3000;0.5128;0.6981;
963.6000;0.5128;0.6929;
963.9000;0.5136;0.6955;
964.2000;0.5144;0.6955;
964.5000;0.5120;0.6852;
964.8000;0.5136;0.6801;
965.1000;0.5144;0.6750;
965.4000;0.5153;0.6750;
965.7000;0.5079;0.6544;
966.0000;0.5136;0.6801;
966.3000;0.5120;0.6827;
966.6000;0.5153;0.6852;
966.9000;0.5128;0.6801;
967.2000;0.5104;0.6724;
967.5000;0.5120;0.6775;
967.8000;0.5144;0.6852;
968.1000;0.5128;0.6878;
968.4000;0.5128;0.6904;
968.7000;0.5136;0.6981;
969.0000;0.5144;0.7083;
969.3000;0.5120;0.7058;
969.6000;0.5136;0.7083;
969.9000;0.5144;0.7032;
970.2000;0.5169;0.7135;
970.5000;0.5169;0.7109;
970.8000;0.5112;0.6981;
971.1000;0.5144;0.7109;
971.4000;0.5153;0.7160;
971.7000;0.5136;0.7212;
972.0000;0.5144;0.7160;
972.3000;0.5144;0.7109;
972.6000;0.5136;0.7032;
972.9000;0.5144;0.7006;
973.2000;0.5153;0.6929;
973.5000;0.5136;0.6801;
973.8000;0.5079;0.6698;
974.1000;0.5136;0.6801;
974.4000;0.5161;0.6852;
974.7000;0.5136;0.6724;
975.0000;0.5136;0.6801;
975.3000;0.5136;0.6775;
975.6000;0.5153;0.6775;
975.9000;0.5153;0.6750;
976.2000;0.5136;0.6750;
976.5000;0.5144;0.6724;
976.8000;0.5161;0.6852;
977.1000;0.5128;0.6852;
977.4000;0.5128;0.6827;
977.7000;0.5153;0.6852;
978.0000;0.5144;0.6852;
978.3000;0.5136;0.6827;
978.6000;0.5112;0.6801;
978.9000;0.5120;0.6878;
979.2000;0.5136;0.6955;
979.5000;0.5120;0.6981;
979.8000;0.5136;0.6981;
980.1000;0.5112;0.6981;
980.4000;0.5120;0.6904;
980.7000;0.5136;0.6981;
981.0000;0.5112;0.6929;
981.3000;0.5120;0.6981;
981.6000;0.5128;0.6981;
981.9000;0.5128;0.6981;
982.2000;0.5128;0.6955;
982.5000;0.5128;0.7058;
982.8000;0.5153;0.7032;
983.1000;0.5136;0.6955;
983.4000;0.5120;0.6981;
983.7000;0.5136;0.6955;
984.0000;0.5128;0.7032;
984.3000;0.5128;0.7083;
984.6000;0.5120;0.7032;
984.9000;0.5120;0.7006;
985.2000;0.5104;0.7058;
985.5000;0.5120;0.6981;
985.8000;0.5071;0.6955;
986.1000;0.5120;0.7109;
986.4000;0.5120;0.7135;
986.7000;0.5112;0.7186;
987.0000;0.5112;0.7263;
987.3000;0.5128;0.7314;
987.6000;0.5112;0.7289;
987.9000;0.5136;0.7314;
988.2000;0.5144;0.7289;
988.5000;0.5120;0.7212;
988.8000;0.5104;0.7186;
989.1000;0.5104;0.7160;
989.4000;0.5128;0.7109;
989.7000;0.5136;0.7058;
990.0000;0.5201;0.7212;
990.3000;0.5120;0.6904;
990.6000;0.5120;0.6955;
990.9000;0.5128;0.7032;
991.2000;0.5120;0.7032;
991.5000;0.5128;0.7032;
991.8000;0.5071;0.6929;
992.1000;0.5104;0.6955;
992.4000;0.5112;0.6955;
992.7000;0.5136;0.7058;
993.0000;0.5128;0.6878;
993.3000;0.5120;0.6852;
993.6000;0.5112;0.6801;
993.9000;0.5136;0.6878;
994.2000;0.5136;0.6955;
994.5000;0.5153;0.7006;
994.8000;0.5136;0.6929;
995.1000;0.5120;0.6929;
995.4000;0.5120;0.6852;
995.7000;0.5136;0.6904;
996.0000;0.5128;0.6904;
996.3000;0.5112;0.6878;
996.6000;0.5112;0.6929;
996.9000;0.5144;0.6981;
997.2000;0.5144;0.7058;
997.5000;0.5136;0.7032;
997.8000;0.5136;0.6981;
998.1000;0.5120;0.6878;
998.4000;0.5144;0.6929;
998.7000;0.5128;0.6827;
999.0000;0.5144;0.6827;
999.3000;0.5169;0.6981;
999.6000;0.5120;0.6878;
999.9000;0.5128;0.6827;
1000.2000;0.5120;0.6827;
1000.5000;0.5112;0.6801;
1000.8000;0.5128;0.6852;
1001.1000;0.5112;0.6904;
1001.4000;0.5120;0.6955;
1001.7000;0.5104;0.6878;
1002.0000;0.5177;0.7006;
1002.3000;0.5136;0.6955;
1002.6000;0.5120;0.6878;
1002.9000;0.5128;0.6878;
1003.2000;0.5120;0.6904;
1003.5000;0.5104;0.6878;
1003.8000;0.5088;0.6827;
1004.1000;0.5112;0.6929;
1004.4000;0.5120;0.6981;
1004.7000;0.5112;0.6929;
1005.0000;0.5144;0.6981;
1005.3000;0.5112;0.6929;
1005.6000;0.5055;0.6698;
1005.9000;0.5120;0.6904;
1006.2000;0.5136;0.6981;
1006.5000;0.5128;0.6929;
1006.8000;0.5169;0.7109;
1007.1000;0.5120;0.6929;
1007.4000;0.5128;0.6981;
1007.7000;0.5112;0.6904;
1008.0000;0.5120;0.6852;
1008.3000;0.5104;0.6904;
1008.6000;0.5169;0.7058;
1008.9000;0.5104;0.6955;
1009.2000;0.5144;0.7006;
1009.5000;0.5136;0.7058;
1009.8000;0.5153;0.7160;
1010.1000;0.5120;0.7186;
1010.4000;0.5055;0.6955;
1010.7000;0.5112;0.7109;
1011.0000;0.5128;0.7083;
1011.3000;0.5120;0.6981;
1011.6000;0.5136;0.7032;
1011.9000;0.5120;0.6955;
1012.2000;0.5112;0.7083;
1012.5000;0.5128;0.7135;
1012.8000;0.5112;0.7058;
1013.1000;0.5120;0.6981;
1013.4000;0.5120;0.6929;
1013.7000;0.5153;0.7006;
1014.0000;0.5136;0.7006;
1014.3000;0.5120;0.6929;
1014.6000;0.5136;0.6852;
1014.9000;0.5120;0.6878;
1015.2000;0.5120;0.6981;
1015.5000;0.5112;0.7058;
1015.8000;0.5136;0.7058;
1016.1000;0.5112;0.6981;
1016.4000;0.5128;0.6981;
1016.7000;0.5144;0.7135;
1017.0000;0.5120;0.7058;
1017.3000;0.5128;0.6955;
1017.6000;0.5104;0.6750;
1017.9000;0.5112;0.6775;
1018.2000;0.5120;0.6852;
1018.5000;0.5039;0.6621;
1018.8000;0.5128;0.6801;
1019.1000;0.5120;0.6750;
1019.4000;0.5112;0.6673;
1019.7000;0.5136;0.6801;
1020.0000;0.5104;0.6827;
1020.3000;0.5153;0.6929;
1020.6000;0.5112;0.6827;
1020.9000;0.5055;0.6827;
1021.2000;0.5104;0.7006;
1021.5000;0.5169;0.7135;
1021.8000;0.5144;0.7083;
1022.1000;0.5120;0.7006;
1022.4000;0.5120;0.6981;
1022.7000;0.5128;0.6981;
1023.0000;0.5128;0.6981;
1023.3000;0.5161;0.7058;
1023.6000;0.5104;0.6981;
1023.9000;0.5063;0.6827;
1024.2000;0.5104;0.7006;
1024.5000;0.5120;0.7083;
1024.8000;0.5128;0.7083;
1025.1000;0.5128;0.7032;
1025.4000;0.5153;0.7083;
1025.7000;0.5088;0.6955;
1026.0000;0.5120;0.7032;
1026.3000;0.5104;0.6981;
1026.6000;0.5144;0.7058;
1026.9000;0.5112;0.6981;
1027.2000;0.5104;0.7006;
1027.5000;0.5055;0.6750;
1027.8000;0.5006;0.6570;
1028.1000;0.5112;0.6852;
1028.4000;0.5120;0.6852;
1028.7000;0.5120;0.6878;
1029.0000;0.5112;0.6852;
1029.3000;0.5104;0.6801;
1029.6000;0.5088;0.6673;
1029.9000;0.5112;0.6775;
1030.2000;0.5120;0.6724;
1030.5000;0.5112;0.6775;
1030.8000;0.5120;0.6827;
1031.1000;0.5120;0.6852;
1031.4000;0.5136;0.6852;
1031.7000;0.5120;0.6775;
1032.0000;0.5193;0.7032;
1032.3000;0.5104;0.6801;
1032.6000;0.5120;0.6904;
1032.9000;0.5120;0.6750;
1033.2000;0.5120;0.6698;
1033.5000;0.5120;0.6801;
1033.8000;0.5136;0.6775;
1034.1000;0.5161;0.6981;
1034.4000;0.5120;0.6750;
1034.7000;0.5104;0.6647;
1035.0000;0.5128;0.6750;
1035.3000;0.5120;0.6801;
1035.6000;0.5104;0.6827;
1035.9000;0.5136;0.6852;
1036.2000;0.5088;0.6852;
1036.5000;0.5120;0.6904;
1036.8000;0.5128;0.6981;
1037.1000;0.5104;0.6929;
1037.4000;0.5112;0.6981;
1037.7000;0.5136;0.6955;
1038.0000;0.5112;0.6878;
1038.3000;0.5096;0.6878;
1038.6000;0.5112;0.6878;
1038.9000;0.5079;0.6801;
1039.2000;0.5128;0.6878;
1039.5000;0.5120;0.6852;
1039.8000;0.5096;0.6750;
1040.1000;0.5136;0.6801;
1040.4000;0.5128;0.6775;
1040.7000;0.5104;0.6750;
1041.0000;0.5112;0.6724;
1041.3000;0.5096;0.6827;
1041.6000;0.5120;0.6955;
1041.9000;0.5112;0.6955;
1042.2000;0.5120;0.6878;
1042.5000;0.5096;0.6827;
1042.8000;0.5112;0.6955;
1043.1000;0.5112;0.6878;
1043.4000;0.5120;0.6955;
1043.7000;0.5104;0.6904;
1044.0000;0.5136;0.6904;
1044.3000;0.5096;0.6852;
1044.6000;0.5096;0.6827;
1044.9000;0.5079;0.6852;
1045.2000;0.5088;0.6852;
1045.5000;0.5088;0.6827;
1045.8000;0.5079;0.6801;
1046.1000;0.5112;0.6827;
1046.4000;0.5153;0.6904;
1046.7000;0.5112;0.6852;
1047.0000;0.5120;0.6929;
1047.3000;0.5112;0.6929;
1047.6000;0.5153;0.6981;
1047.9000;0.5120;0.6929;
1048.2000;0.5128;0.6929;
1048.5000;0.5063;0.6750;
1048.8000;0.5112;0.6852;
1049.1000;0.5128;0.6955;
1049.4000;0.5144;0.6929;
1049.7000;0.5112;0.6878;
1050.0000;0.5104;0.6827;
1050.3000;0.5120;0.6852;
1050.6000;0.5144;0.6929;
1050.9000;0.5144;0.6929;
1051.2000;0.5096;0.6750;
1051.5000;0.5136;0.6775;
1051.8000;0.5128;0.6801;
1052.1000;0.5104;0.6801;
1052.4000;0.5120;0.6878;
1052.7000;0.5120;0.6878;
1053.0000;0.5112;0.6750;
1053.3000;0.5128;0.6852;
1053.6000;0.5153;0.7006;
1053.9000;0.5136;0.7006;
1054.2000;0.5128;0.6827;
1054.5000;0.5136;0.6878;
1054.8000;0.5104;0.6775;
1055.1000;0.5120;0.6801;
1055.4000;0.5104;0.6827;
1055.7000;0.5112;0.6852;
1056.0000;0.5112;0.6852;
1056.3000;0.5120;0.6878;
1056.6000;0.5120;0.6852;
1056.9000;0.5120;0.6878;
1057.2000;0.5136;0.6878;
1057.5000;0.5128;0.6878;
1057.8000;0.5096;0.6801;
1058.1000;0.5128;0.6955;
1058.4000;0.5120;0.6955;
1058.7000;0.5112;0.6929;
1059.0000;0.5177;0.7032;
1059.3000;0.5120;0.7032;
1059.6000;0.5120;0.7006;
1059.9000;0.5112;0.6878;
1060.2000;0.5120;0.6955;
1060.5000;0.5120;0.6904;
1060.8000;0.5144;0.6929;
1061.1000;0.5112;0.6801;
1061.4000;0.5112;0.6878;
1061.7000;0.5104;0.6878;
1062.0000;0.5128;0.6878;
1062.3000;0.5128;0.6852;
1062.6000;0.5128;0.6852;
1062.9000;0.5193;0.7109;
1063.2000;0.5120;0.6955;
1063.5000;0.5128;0.7058;
1063.8000;0.5128;0.7083;
1064.1000;0.5096;0.6955;
1064.4000;0.5136;0.7006;
1064.7000;0.5128;0.7058;
1065.0000;0.5120;0.7058;
1065.3000;0.5104;0.6955;
1065.6000;0.5128;0.6981;
1065.9000;0.5169;0.7083;
1066.2000;0.5104;0.6904;
1066.5000;0.5112;0.6904;
1066.8000;0.5112;0.6904;
1067.1000;0.5112;0.6929;
1067.4000;0.5120;0.7006;
1067.7000;0.5128;0.7006;
1068.0000;0.5120;0.6955;
1068.3000;0.5120;0.7032;
1068.6000;0.5136;0.7058;
1068.9000;0.5112;0.6904;
1069.2000;0.5128;0.6981;
1069.5000;0.5088;0.6955;
1069.8000;0.5144;0.7032;
1070.1000;0.5112;0.7006;
1070.4000;0.5128;0.7032;
1070.7000;0.5096;0.7083;
1071.0000;0.5104;0.7058;
1071.3000;0.5112;0.7058;
1071.6000;0.5128;0.7058;
1071.9000;0.5112;0.7058;
1072.2000;0.5120;0.7058;
1072.5000;0.5210;0.7186;
1072.8000;0.5161;0.7135;
1073.1000;0.5055;0.6801;
1073.4000;0.5120;0.7006;
1073.7000;0.5120;0.7058;
1074.0000;0.5120;0.7006;
1074.3000;0.5112;0.6955;
1074.6000;0.5128;0.6955;
1074.9000;0.5120;0.6827;
1075.2000;0.5120;0.6827;
1075.5000;0.5112;0.6878;
1075.8000;0.5112;0.6981;
1076.1000;0.5071;0.6750;
1076.4000;0.5079;0.6827;
1076.7000;0.5096;0.6852;
1077.0000;0.5153;0.7058;
1077.3000;0.5112;0.7006;
1077.6000;0.5169;0.7186;
1077.9000;0.5112;0.6955;
1078.2000;0.5136;0.7032;
1078.5000;0.5104;0.6981;
1078.8000;0.5120;0.7032;
1079.1000;0.5112;0.6955;
1079.4000;0.5088;0.6878;
1079.7000;0.5112;0.6904;
1080.0000;0.5120;0.6955;
1080.3000;0.5120;0.6929;
1080.6000;0.5120;0.6955;
1080.9000;0.5104;0.6878;
1081.2000;0.5136;0.7032;
1081.5000;0.5096;0.6929;
1081.8000;0.5112;0.6955;
1082.1000;0.5112;0.6904;
1082.4000;0.5177;0.7135;
1082.7000;0.5120;0.6955;
1083.0000;0.5104;0.6878;
1083.3000;0.5201;0.7160;
1083.6000;0.5096;0.6904;
1083.9000;0.5022;0.6673;
1084.2000;0.5104;0.6929;
1084.5000;0.5128;0.6981;
1084.8000;0.5120;0.7032;
1085.1000;0.5120;0.7083;
1085.4000;0.5104;0.7058;
1085.7000;0.5104;0.7006;
1086.0000;0.5112;0.6981;
1086.3000;0.5112;0.7006;
1086.6000;0.5104;0.6955;
1086.9000;0.5104;0.6981;
1087.2000;0.5112;0.7058;
1087.5000;0.5120;0.7135;
1087.8000;0.5128;0.7160;
1088.1000;0.5104;0.7109;
1088.4000;0.5128;0.7109;
1088.7000;0.5201;0.7366;
1089.0000;0.5136;0.7237;
1089.3000;0.5088;0.7083;
1089.6000;0.5120;0.7186;
1089.9000;0.5128;0.7212;
1090.2000;0.5136;0.7237;
1090.5000;0.5161;0.7212;
1090.8000;0.5120;0.7058;
1091.1000;0.5128;0.7109;
1091.4000;0.5153;0.7058;
1091.7000;0.5120;0.6929;
1092.0000;0.5104;0.6929;
1092.3000;0.5112;0.7032;
1092.6000;0.5112;0.7083;
1092.9000;0.5112;0.6981;
1093.2000;0.5104;0.6955;
1093.5000;0.5144;0.7083;
1093.8000;0.5128;0.7083;
1094.1000;0.5104;0.7006;
1094.4000;0.5120;0.7058;
1094.7000;0.5128;0.7083;
1095.0000;0.5104;0.6955;
1095.3000;0.5104;0.6878;
1095.6000;0.5153;0.7109;
1095.9000;0.5112;0.6981;
1096.2000;0.5120;0.7032;
1096.5000;0.5120;0.7058;
1096.8000;0.5047;0.6904;
1097.1000;0.5104;0.7032;
1097.4000;0.5120;0.6981;
1097.7000;0.5144;0.7135;
1098.0000;0.5112;0.7083;
1098.3000;0.5104;0.6981;
1098.6000;0.5112;0.7006;
1098.9000;0.5112;0.6981;
1099.2000;0.5120;0.6929;
1099.5000;0.5144;0.6904;
1099.8000;0.5120;0.6981;
1100.1000;0.5120;0.7083;
1100.4000;0.5104;0.6955;
1100.7000;0.5120;0.6929;
1101.0000;0.5136;0.6981;
1101.3000;0.5104;0.6878;
1101.6000;0.5112;0.6878;
1101.9000;0.5128;0.6878;
1102.2000;0.5096;0.6750;
1102.5000;0.5096;0.6724;
1102.8000;0.5104;0.6775;
1103.1000;0.5112;0.6878;
1103.4000;0.5104;0.6852;
1103.7000;0.5120;0.6827;
1104.0000;0.5112;0.6827;
1104.3000;0.5161;0.6955;
1104.6000;0.5096;0.6878;
1104.9000;0.5112;0.7006;
1105.2000;0.5022;0.6775;
1105.5000;0.5120;0.7083;
1105.8000;0.5112;0.7006;
1106.1000;0.5112;0.6929;
1106.4000;0.5128;0.6955;
1106.7000;0.5128;0.6904;
1107.0000;0.5120;0.6827;
1107.3000;0.5112;0.6827;
1107.6000;0.5112;0.6878;
1107.9000;0.5112;0.6981;
1108.2000;0.5144;0.7006;
1108.5000;0.5104;0.6904;
1108.8000;0.5104;0.6981;
1109.1000;0.5104;0.6955;
1109.4000;0.5096;0.6852;
1109.7000;0.5153;0.6929;
1110.0000;0.5079;0.6750;
1110.3000;0.5104;0.6827;
1110.6000;0.5144;0.6955;
1110.9000;0.5104;0.6904;
1111.2000;0.5096;0.6929;
1111.5000;0.5079;0.6955;
1111.8000;0.5120;0.7006;
1112.1000;0.5104;0.6904;
1112.4000;0.5104;0.6878;
1112.7000;0.5128;0.6801;
1113.0000;0.5112;0.6827;
1113.3000;0.5104;0.6775;
1113.6000;0.5071;0.6775;
1113.9000;0.5096;0.6801;
1114.2000;0.5104;0.6775;
1114.5000;0.5120;0.6981;
1114.8000;0.5104;0.6929;
1115.1000;0.5112;0.6981;
1115.4000;0.5120;0.6981;
1115.7000;0.5120;0.6929;
1116.0000;0.5136;0.7006;
1116.3000;0.5120;0.7058;
1116.6000;0.5112;0.7083;
1116.9000;0.5112;0.7032;
1117.2000;0.5112;0.7083;
1117.5000;0.5104;0.7058;
1117.8000;0.5096;0.7006;
1118.1000;0.5104;0.7006;
1118.4000;0.5104;0.6904;
1118.7000;0.5136;0.6929;
1119.0000;0.5112;0.6878;
1119.3000;0.5128;0.6929;
1119.6000;0.5120;0.6955;
1119.9000;0.5120;0.6827;
1120.2000;0.5112;0.6750;
1120.5000;0.5096;0.6750;
1120.8000;0.5031;0.6621;
1121.1000;0.5112;0.6827;
1121.4000;0.5104;0.6904;
1121.7000;0.5088;0.6801;
1122.0000;0.5112;0.6775;
1122.3000;0.5096;0.6750;
1122.6000;0.5088;0.6724;
1122.9000;0.5104;0.6775;
1123.2000;0.5096;0.6801;
1123.5000;0.5104;0.6827;
1123.8000;0.5112;0.6904;
1124.1000;0.5104;0.6878;
1124.4000;0.5120;0.6827;
1124.7000;0.5112;0.6801;
1125.0000;0.5104;0.6750;
1125.3000;0.5104;0.6801;
1125.6000;0.5112;0.6878;
1125.9000;0.5079;0.6852;
1126.2000;0.5136;0.7006;
1126.5000;0.5120;0.6904;
1126.8000;0.5153;0.7006;
1127.1000;0.5120;0.6852;
1127.4000;0.5055;0.6698;
1127.7000;0.5104;0.6801;
1128.0000;0.5096;0.6775;
1128.3000;0.5096;0.6801;
1128.6000;0.5112;0.6801;
1128.9000;0.5104;0.6827;
1129.2000;0.5088;0.6750;
1129.5000;0.5104;0.6827;
1129.8000;0.5120;0.6878;
1130.1000;0.5112;0.6852;
1130.4000;0.5120;0.6852;
1130.7000;0.5071;0.6724;
1131.0000;0.5112;0.6878;
1131.3000;0.5120;0.6852;
1131.6000;0.5120;0.6750;
1131.9000;0.5128;0.6698;
1132.2000;0.5136;0.6673;
1132.5000;0.5104;0.6673;
1132.8000;0.5120;0.6775;
1133.1000;0.5136;0.6904;
1133.4000;0.5136;0.6929;
1133.7000;0.5128;0.6852;
1134.0000;0.5112;0.6801;
1134.3000;0.5128;0.6750;
1134.6000;0.5120;0.6801;
1134.9000;0.5128;0.6801;
1135.2000;0.5128;0.6698;
1135.5000;0.5096;0.6673;
1135.8000;0.5128;0.6698;
1136.1000;0.5071;0.6570;
1136.4000;0.5120;0.6827;
1136.7000;0.5055;0.6621;
1137.0000;0.5079;0.6673;
1137.3000;0.5136;0.6775;
1137.6000;0.5112;0.6827;
1137.9000;0.5104;0.6955;
1138.2000;0.5112;0.6955;
1138.5000;0.5096;0.6955;
1138.8000;0.5079;0.6955;
1139.1000;0.5136;0.7083;
1139.4000;0.5112;0.7058;
1139.7000;0.5031;0.6878;
1140.0000;0.5112;0.6955;
1140.3000;0.5079;0.6852;
1140.6000;0.5112;0.6904;
1140.9000;0.5120;0.6904;
1141.2000;0.5096;0.6698;
1141.5000;0.5136;0.6878;
1141.8000;0.5112;0.6878;
1142.1000;0.5112;0.6878;
1142.4000;0.5079;0.6801;
1142.7000;0.5128;0.6852;
1143.0000;0.5112;0.6852;
1143.3000;0.5112;0.6775;
1143.6000;0.5014;0.6673;
1143.9000;0.5153;0.7083;
1144.2000;0.5096;0.6904;
1144.5000;0.5096;0.6929;
1144.8000;0.5104;0.6801;
1145.1000;0.5104;0.6775;
1145.4000;0.5112;0.6878;
1145.7000;0.5104;0.6878;
1146.0000;0.5063;0.6750;
1146.3000;0.5120;0.6955;
1146.6000;0.5112;0.6981;
1146.9000;0.5104;0.7058;
1147.2000;0.5120;0.7032;
1147.5000;0.5120;0.7109;
1147.8000;0.5128;0.7160;
1148.1000;0.5112;0.7135;
1148.4000;0.5120;0.7058;
1148.7000;0.5104;0.7083;
1149.0000;0.5120;0.7058;
1149.3000;0.5096;0.6929;
1149.6000;0.5088;0.6878;
1149.9000;0.5128;0.6904;
1150.2000;0.5112;0.6801;
1150.5000;0.5120;0.6750;
1150.8000;0.5104;0.6801;
1151.1000;0.5112;0.6852;
1151.4000;0.5088;0.6827;
1151.7000;0.5144;0.7032;
1152.0000;0.5104;0.6981;
1152.3000;0.5112;0.6955;
1152.6000;0.5112;0.6955;
1152.9000;0.5096;0.6904;
1153.2000;0.5088;0.6827;
1153.5000;0.5096;0.6775;
1153.8000;0.5079;0.6775;
1154.1000;0.5104;0.6750;
1154.4000;0.5096;0.6647;
1154.7000;0.5096;0.6596;
1155.0000;0.5136;0.6750;
1155.3000;0.5104;0.6698;
1155.6000;0.5128;0.6775;
1155.9000;0.5112;0.6750;
1156.2000;0.5136;0.6775;
1156.5000;0.5112;0.6801;
1156.8000;0.5096;0.6827;
1157.1000;0.5136;0.6852;
1157.4000;0.5104;0.6801;
1157.7000;0.5120;0.6852;
1158.0000;0.5120;0.6929;
1158.3000;0.5079;0.6852;
1158.6000;0.5071;0.6852;
1158.9000;0.5014;0.6775;
1159.2000;0.5128;0.7135;
1159.5000;0.5096;0.6981;
1159.8000;0.5120;0.6981;
1160.1000;0.5112;0.6981;
1160.4000;0.5096;0.6878;
1160.7000;0.5120;0.6904;
1161.0000;0.5120;0.6904;
1161.3000;0.5120;0.6904;
1161.6000;0.5112;0.6981;
1161.9000;0.5112;0.7006;
1162.2000;0.5112;0.6981;
1162.5000;0.5104;0.6955;
1162.8000;0.5079;0.6852;
1163.1000;0.5104;0.6878;
1163.4000;0.5161;0.6981;
1163.7000;0.5088;0.6827;
1164.0000;0.5079;0.6775;
1164.3000;0.5088;0.6801;
1164.6000;0.5136;0.6955;
1164.9000;0.5079;0.6852;
1165.2000;0.5104;0.6929;
1165.5000;0.5120;0.6904;
1165.8000;0.5112;0.6955;
1166.1000;0.5112;0.6904;
1166.4000;0.5112;0.6904;
1166.7000;0.5088;0.6827;
1167.0000;0.5104;0.6904;
1167.3000;0.5120;0.6878;
1167.6000;0.5104;0.6929;
1167.9000;0.5120;0.6929;
1168.2000;0.5104;0.6827;
1168.5000;0.5079;0.6827;
1168.8000;0.5096;0.6904;
1169.1000;0.5120;0.7058;
1169.4000;0.5112;0.7109;
1169.7000;0.5104;0.7109;
1170.0000;0.5112;0.7135;
1170.3000;0.5112;0.7212;
1170.6000;0.5096;0.7135;
1170.9000;0.5112;0.7109;
1171.2000;0.5112;0.7032;
1171.5000;0.5104;0.7058;
1171.8000;0.5144;0.7212;
1172.1000;0.5096;0.7160;
1172.4000;0.5104;0.7135;
1172.7000;0.5112;0.7083;
1173.0000;0.5112;0.7135;
1173.3000;0.5120;0.7186;
1173.6000;0.5088;0.7032;
1173.9000;0.5104;0.7006;
1174.2000;0.5128;0.7160;
1174.5000;0.5112;0.7135;
1174.8000;0.5112;0.7135;
1175.1000;0.5096;0.7237;
1175.4000;0.5153;0.7468;
1175.7000;0.5096;0.7263;
1176.0000;0.5136;0.7340;
1176.3000;0.5120;0.7212;
1176.6000;0.5112;0.7160;
1176.9000;0.5112;0.7186;
1177.2000;0.5104;0.7135;
1177.5000;0.5088;0.7006;
1177.8000;0.5112;0.6929;
1178.1000;0.5088;0.6827;
1178.4000;0.5112;0.6852;
1178.7000;0.5088;0.6827;
1179.0000;0.5096;0.6827;
1179.3000;0.5120;0.6852;
1179.6000;0.5088;0.6904;
1179.9000;0.5079;0.6878;
1180.2000;0.5088;0.6904;
1180.5000;0.5047;0.6724;
1180.8000;0.5112;0.6878;
1181.1000;0.5112;0.6929;
1181.4000;0.5112;0.7006;
1181.7000;0.5112;0.6981;
1182.0000;0.5120;0.6955;
1182.3000;0.5104;0.6929;
1182.6000;0.5169;0.7237;
1182.9000;0.5104;0.7058;
1183.2000;0.5104;0.7032;
1183.5000;0.5088;0.6852;
1183.8000;0.5104;0.6878;
1184.1000;0.5079;0.6724;
1184.4000;0.5112;0.6852;
1184.7000;0.5112;0.6801;
1185.0000;0.5088;0.6698;
1185.3000;0.5104;0.6801;
1185.6000;0.5120;0.6904;
1185.9000;0.5120;0.6981;
1186.2000;0.5112;0.6929;
1186.5000;0.5144;0.6955;
1186.8000;0.5120;0.6929;
1187.1000;0.5104;0.6904;
1187.4000;0.5128;0.6981;
1187.7000;0.5088;0.6878;
1188.0000;0.5112;0.6929;
1188.3000;0.5112;0.6981;
1188.6000;0.5120;0.7006;
1188.9000;0.5096;0.6904;
1189.2000;0.5096;0.6981;
1189.5000;0.5104;0.6955;
1189.8000;0.5104;0.6955;
1190.1000;0.5096;0.6904;
1190.4000;0.5120;0.7006;
1190.7000;0.5039;0.6827;
1191.0000;0.5120;0.7083;
1191.3000;0.5112;0.7135;
1191.6000;0.5136;0.7083;
1191.9000;0.5128;0.7006;
1192.2000;0.5120;0.6904;
1192.5000;0.5104;0.6878;
1192.8000;0.5104;0.6878;
1193.1000;0.5104;0.6929;
1193.4000;0.5112;0.7006;
1193.7000;0.5096;0.6904;
1194.0000;0.5104;0.6878;
1194.3000;0.5096;0.6904;
1194.6000;0.5104;0.6852;
1194.9000;0.5112;0.6852;
1195.2000;0.5120;0.6801;
1195.5000;0.5096;0.6750;
1195.8000;0.5112;0.6801;
1196.1000;0.5177;0.6955;
1196.4000;0.5112;0.6750;
1196.7000;0.5112;0.6724;
1197.0000;0.5120;0.6750;
1197.3000;0.5120;0.6698;
1197.6000;0.5104;0.6750;
1197.9000;0.5169;0.6904;
1198.2000;0.5128;0.6852;
1198.5000;0.5112;0.6878;
1198.8000;0.5112;0.6750;
1199.1000;0.5104;0.6698;
1199.4000;0.5104;0.6698;
1199.7000;0.5128;0.6750;
1200.0000;0.5112;0.6724;
1200.3000;0.5153;0.6827;
1200.6000;0.5071;0.6596;
1200.9000;0.5112;0.6750;
1201.2000;0.5112;0.6698;
1201.5000;0.5136;0.6698;
1201.8000;0.5096;0.6596;
1202.1000;0.5104;0.6621;
1202.4000;0.5120;0.6698;
1202.7000;0.5079;0.6647;
1203.0000;0.5096;0.6698;
1203.3000;0.5096;0.6673;
1203.6000;0.5104;0.6724;
1203.9000;0.5088;0.6673;
1204.2000;0.5096;0.6750;
1204.5000;0.5071;0.6596;
1204.8000;0.5112;0.6775;
1205.1000;0.5104;0.6775;
1205.4000;0.5079;0.6775;
1205.7000;0.5096;0.6775;
1206.0000;0.5088;0.6827;
1206.3000;0.5112;0.6878;
1206.6000;0.5120;0.6929;
1206.9000;0.5104;0.6929;
1207.2000;0.5104;0.6929;
1207.5000;0.5104;0.6929;
1207.8000;0.5104;0.6775;
1208.1000;0.5088;0.6775;
1208.4000;0.5104;0.6827;
1208.7000;0.5104;0.6852;
1209.0000;0.5112;0.6904;
1209.3000;0.5022;0.6673;
1209.6000;0.5096;0.6852;
1209.9000;0.5112;0.6852;
1210.2000;0.5112;0.6827;
1210.5000;0.5104;0.6775;
1210.8000;0.5104;0.6775;
1211.1000;0.5112;0.6750;
1211.4000;0.5120;0.6775;
1211.7000;0.5120;0.6750;
1212.0000;0.5079;0.6673;
1212.3000;0.5112;0.6724;
1212.6000;0.5128;0.6801;
1212.9000;0.5112;0.6775;
1213.2000;0.5096;0.6775;
1213.5000;0.5104;0.6827;
1213.8000;0.5104;0.6801;
1214.1000;0.5088;0.6673;
1214.4000;0.5112;0.6647;
1214.7000;0.5104;0.6673;
1215.0000;0.5104;0.6698;
1215.3000;0.5104;0.6621;
1215.6000;0.5104;0.6647;
1215.9000;0.5104;0.6698;
1216.2000;0.5112;0.6724;
1216.5000;0.5096;0.6724;
1216.8000;0.5104;0.6878;
1217.1000;0.5088;0.6827;
1217.4000;0.5096;0.6852;
1217.7000;0.5120;0.6878;
1218.0000;0.5112;0.6827;
1218.3000;0.5104;0.6852;
1218.6000;0.5112;0.6827;
1218.9000;0.5096;0.6775;
1219.2000;0.5120;0.6801;
1219.5000;0.5088;0.6775;
1219.8000;0.5079;0.6698;
1220.1000;0.5112;0.6775;
1220.4000;0.5112;0.6801;
1220.7000;0.5104;0.6775;
1221.0000;0.5112;0.6801;
1221.3000;0.5096;0.6724;
1221.6000;0.5120;0.6724;
1221.9000;0.5104;0.6698;
1222.2000;0.5136;0.6801;
1222.5000;0.5088;0.6724;
1222.8000;0.5112;0.6904;
1223.1000;0.5120;0.6955;
1223.4000;0.5104;0.6775;
1223.7000;0.5104;0.6801;
1224.0000;0.5079;0.6750;
1224.3000;0.5120;0.6827;
1224.6000;0.5128;0.6852;
1224.9000;0.5120;0.6955;
1225.2000;0.5088;0.6929;
1225.5000;0.5128;0.6981;
1225.8000;0.5104;0.6955;
1226.1000;0.5112;0.7006;
1226.4000;0.5096;0.7058;
1226.7000;0.5120;0.7083;
1227.0000;0.5112;0.7032;
1227.3000;0.5112;0.7032;
1227.6000;0.5104;0.6929;
1227.9000;0.5153;0.7058;
1228.2000;0.5120;0.6981;
1228.5000;0.5063;0.6852;
1228.8000;0.5096;0.6929;
1229.1000;0.5112;0.6929;
1229.4000;0.5096;0.6878;
1229.7000;0.5096;0.6878;
1230.0000;0.5063;0.6775;
1230.3000;0.5104;0.6878;
1230.6000;0.5071;0.6801;
1230.9000;0.5112;0.6827;
1231.2000;0.5104;0.6801;
1231.5000;0.5088;0.6827;
1231.8000;0.5161;0.7058;
1232.1000;0.5120;0.6981;
1232.4000;0.5079;0.6955;
1232.7000;0.5096;0.7006;
1233.0000;0.5120;0.7006;
1233.3000;0.5088;0.6878;
1233.6000;0.5096;0.6955;
1233.9000;0.5104;0.7006;
1234.2000;0.5120;0.7083;
1234.5000;0.5104;0.7032;
1234.8000;0.5128;0.7032;
1235.1000;0.5104;0.6955;
1235.4000;0.5210;0.7263;
1235.7000;0.5120;0.6981;
1236.0000;0.5112;0.7032;
1236.3000;0.5112;0.7006;
1236.6000;0.5112;0.7135;
1236.9000;0.5112;0.6955;
1237.2000;0.5120;0.6929;
1237.5000;0.5112;0.6981;
1237.8000;0.5120;0.7032;
1238.1000;0.5120;0.7109;
1238.4000;0.5112;0.7083;
1238.7000;0.5104;0.7032;
1239.0000;0.5144;0.7109;
1239.3000;0.5120;0.7160;
1239.6000;0.5128;0.7083;
1239.9000;0.5112;0.7058;
1240.2000;0.5104;0.6981;
1240.5000;0.5120;0.6929;
1240.8000;0.5128;0.7135;
1241.1000;0.5112;0.7135;
1241.4000;0.5128;0.7109;
1241.7000;0.5144;0.7058;
1242.0000;0.5047;0.6750;
1242.3000;0.5104;0.6904;
1242.6000;0.5104;0.6852;
1242.9000;0.5144;0.6981;
1243.2000;0.5096;0.6775;
1243.5000;0.5120;0.6801;
1243.8000;0.5169;0.6981;
1244.1000;0.5144;0.6955;
1244.4000;0.5120;0.6929;
1244.7000;0.5136;0.7058;
1245.0000;0.5112;0.6929;
1245.3000;0.5088;0.6852;
1245.6000;0.5136;0.7006;
1245.9000;0.5104;0.6929;
1246.2000;0.5104;0.6955;
1246.5000;0.5104;0.6929;
1246.8000;0.5120;0.6981;
1247.1000;0.5104;0.6878;
1247.4000;0.5112;0.6852;
1247.7000;0.5088;0.6929;
1248.0000;0.5104;0.6929;
1248.3000;0.5136;0.7006;
1248.6000;0.5104;0.6929;
1248.9000;0.5112;0.6904;
1249.2000;0.5120;0.7006;
1249.5000;0.5128;0.7058;
1249.8000;0.5104;0.6955;
1250.1000;0.5104;0.6904;
1250.4000;0.5079;0.6878;
1250.7000;0.5169;0.7006;
1251.0000;0.5079;0.6750;
1251.3000;0.5088;0.6827;
1251.6000;0.5088;0.6827;
1251.9000;0.5128;0.6929;
1252.2000;0.5120;0.6981;
1252.5000;0.5144;0.7135;
1252.8000;0.5088;0.7006;
1253.1000;0.5031;0.6904;
1253.4000;0.5112;0.7109;
1253.7000;0.5112;0.7186;
1254.0000;0.5104;0.7186;
1254.3000;0.5136;0.7289;
1254.6000;0.5144;0.7186;
1254.9000;0.5128;0.7186;
1255.2000;0.5161;0.7263;
1255.5000;0.5096;0.7109;
1255.8000;0.5088;0.7083;
1256.1000;0.5104;0.7186;
1256.4000;0.5104;0.7212;
1256.7000;0.5079;0.7109;
1257.0000;0.5104;0.7212;
1257.3000;0.5104;0.7160;
1257.6000;0.5104;0.7083;
1257.9000;0.5088;0.7032;
1258.2000;0.5096;0.7160;
1258.5000;0.5161;0.7366;
1258.8000;0.5088;0.7109;
1259.1000;0.5096;0.7109;
1259.4000;0.5128;0.7186;
1259.7000;0.5177;0.7314;
1260.0000;0.5096;0.7058;
1260.3000;0.5104;0.7006;
1260.6000;0.5088;0.6904;
1260.9000;0.5096;0.6955;
1261.2000;0.5120;0.6929;
1261.5000;0.5096;0.6801;
1261.8000;0.5112;0.6801;
1262.1000;0.5096;0.6750;
1262.4000;0.5120;0.6852;
1262.7000;0.5112;0.6904;
1263.0000;0.5088;0.6852;
1263.3000;0.5096;0.6852;
1263.6000;0.5128;0.6878;
1263.9000;0.5112;0.6955;
1264.2000;0.5104;0.6955;
1264.5000;0.5120;0.7006;
1264.8000;0.5104;0.6929;
1265.1000;0.5128;0.7083;
1265.4000;0.5104;0.7058;
1265.7000;0.5096;0.7032;
1266.0000;0.5104;0.7006;
1266.3000;0.5112;0.7058;
1266.6000;0.5088;0.6878;
1266.9000;0.5096;0.6904;
1267.2000;0.5136;0.7083;
1267.5000;0.5104;0.6878;
1267.8000;0.5136;0.6878;
1268.1000;0.5104;0.6929;
1268.4000;0.5071;0.6775;
1268.7000;0.5112;0.6878;
1269.0000;0.5136;0.7032;
1269.3000;0.5096;0.6981;
1269.6000;0.5088;0.6904;
1269.9000;0.5112;0.6929;
1270.2000;0.5112;0.6955;
1270.5000;0.5112;0.6929;
1270.8000;0.5031;0.6750;
1271.1000;0.5112;0.6981;
1271.4000;0.5128;0.7006;
1271.7000;0.5088;0.6981;
1272.0000;0.5120;0.7109;
1272.3000;0.5112;0.7058;
1272.6000;0.5136;0.7006;
1272.9000;0.5104;0.6955;
1273.2000;0.5112;0.6981;
1273.5000;0.5104;0.6955;
1273.8000;0.5120;0.6981;
1274.1000;0.5120;0.6955;
1274.4000;0.5104;0.6929;
1274.7000;0.5112;0.6955;
1275.0000;0.5104;0.7032;
1275.3000;0.5104;0.6981;
1275.6000;0.5104;0.7006;
1275.9000;0.5104;0.7058;
1276.2000;0.5112;0.7058;
1276.5000;0.5112;0.7006;
1276.8000;0.5096;0.6929;
1277.1000;0.5096;0.7058;
1277.4000;0.5104;0.7083;
1277.7000;0.5112;0.7160;
1278.0000;0.5096;0.7083;
1278.3000;0.5071;0.6929;
1278.6000;0.5104;0.6904;
1278.9000;0.5112;0.7006;
1279.2000;0.5104;0.6981;
1279.5000;0.5112;0.7006;
1279.8000;0.5120;0.6955;
1280.1000;0.5136;0.7006;
1280.4000;0.5104;0.6904;
1280.7000;0.5104;0.6904;
1281.0000;0.5104;0.6852;
1281.3000;0.5104;0.6827;
1281.6000;0.5120;0.6904;
1281.9000;0.5088;0.6852;
1282.2000;0.5096;0.6852;
1282.5000;0.5047;0.6801;
1282.8000;0.5144;0.7058;
1283.1000;0.5104;0.7006;
1283.4000;0.5112;0.7032;
1283.7000;0.5104;0.6981;
1284.0000;0.5112;0.6981;
1284.3000;0.5112;0.6955;
1284.6000;0.5096;0.6981;
1284.9000;0.5063;0.6904;
1285.2000;0.5096;0.7006;
1285.5000;0.5104;0.6955;
1285.8000;0.5104;0.6955;
1286.1000;0.5112;0.6981;
1286.4000;0.5104;0.6929;
1286.7000;0.5112;0.6929;
1287.0000;0.5096;0.6878;
1287.3000;0.5096;0.6929;
1287.6000;0.5104;0.6955;
1287.9000;0.5104;0.7032;
1288.2000;0.5112;0.7083;
1288.5000;0.5120;0.7083;
1288.8000;0.5120;0.7160;
1289.1000;0.5104;0.7160;
1289.4000;0.5112;0.7109;
1289.7000;0.5096;0.7032;
1290.0000;0.5112;0.7135;
1290.3000;0.5079;0.7032;
1290.6000;0.5079;0.7058;
1290.9000;0.5096;0.6981;
1291.2000;0.5096;0.6878;
1291.5000;0.5112;0.6904;
1291.8000;0.5128;0.6929;
1292.1000;0.5088;0.6852;
1292.4000;0.5096;0.6929;
1292.7000;0.5088;0.6981;
1293.0000;0.5112;0.6981;
1293.3000;0.5104;0.6852;
1293.6000;0.5088;0.6878;
1293.9000;0.5104;0.7083;
1294.2000;0.5079;0.7058;
1294.5000;0.5096;0.7109;
1294.8000;0.5104;0.7058;
1295.1000;0.5128;0.7058;
1295.4000;0.5079;0.7006;
1295.7000;0.5104;0.7006;
1296.0000;0.5136;0.7058;
1296.3000;0.5104;0.7083;
1296.6000;0.5104;0.7083;
1296.9000;0.5112;0.7109;
1297.2000;0.5104;0.7058;
1297.5000;0.5063;0.6929;
1297.8000;0.5104;0.7058;
1298.1000;0.5128;0.7135;
1298.4000;0.5112;0.7058;
1298.7000;0.5071;0.6981;
1299.0000;0.5112;0.7109;
1299.3000;0.5112;0.7135;
1299.6000;0.5128;0.7058;
1299.9000;0.5096;0.6981;
1300.2000;0.5104;0.7032;
1300.5000;0.5128;0.7032;
1300.8000;0.5088;0.6929;
1301.1000;0.5071;0.6904;
1301.4000;0.5096;0.6929;
1301.7000;0.5112;0.6929;
1302.0000;0.5177;0.7109;
1302.3000;0.5104;0.7006;
1302.6000;0.5079;0.6852;
1302.9000;0.5120;0.6929;
1303.2000;0.5104;0.6904;
1303.5000;0.5120;0.6981;
1303.8000;0.5079;0.6981;
1304.1000;0.5104;0.7083;
1304.4000;0.5112;0.7186;
1304.7000;0.5136;0.7237;
1305.0000;0.5071;0.7032;
1305.3000;0.5112;0.7083;
1305.6000;0.5128;0.6981;
1305.9000;0.5104;0.6955;
1306.2000;0.5104;0.7032;
1306.5000;0.5104;0.7058;
1306.8000;0.5112;0.7237;
1307.1000;0.5104;0.7160;
1307.4000;0.5096;0.7083;
1307.7000;0.5112;0.7058;
1308.0000;0.5104;0.7058;
1308.3000;0.5096;0.7058;
1308.6000;0.5112;0.7135;
1308.9000;0.5112;0.7058;
1309.2000;0.5096;0.7160;
1309.5000;0.5104;0.7186;
1309.8000;0.5104;0.7083;
1310.1000;0.5096;0.7058;
1310.4000;0.5112;0.7186;
1310.7000;0.5120;0.7160;
1311.0000;0.5104;0.7083;
1311.3000;0.5136;0.7160;
1311.6000;0.5112;0.7058;
1311.9000;0.5104;0.7032;
1312.2000;0.5104;0.6981;
1312.5000;0.5096;0.6904;
1312.8000;0.5088;0.6852;
1313.1000;0.5112;0.6955;
1313.4000;0.5088;0.6904;
1313.7000;0.5112;0.6904;
1314.0000;0.5112;0.6904;
1314.3000;0.5063;0.6801;
1314.6000;0.5096;0.6929;
1314.9000;0.5104;0.6981;
1315.2000;0.5104;0.7032;
1315.5000;0.5104;0.7109;
1315.8000;0.5104;0.7032;
1316.1000;0.5088;0.6929;
1316.4000;0.5104;0.6981;
1316.7000;0.5079;0.6904;
1317.0000;0.5120;0.7006;
1317.3000;0.5112;0.7032;
1317.6000;0.5079;0.6955;
1317.9000;0.5112;0.6981;
1318.2000;0.5128;0.7083;
1318.5000;0.5112;0.7083;
1318.8000;0.5120;0.7058;
1319.1000;0.5088;0.6929;
1319.4000;0.5144;0.7212;
1319.7000;0.5128;0.7186;
1320.0000;0.5112;0.7160;
1320.3000;0.5120;0.7032;
1320.6000;0.5120;0.7083;
1320.9000;0.5104;0.7006;
1321.2000;0.5120;0.7032;
1321.5000;0.5104;0.6981;
1321.8000;0.5104;0.7109;
1322.1000;0.5120;0.7109;
1322.4000;0.5104;0.7160;
1322.7000;0.5096;0.7135;
1323.0000;0.5104;0.7058;
1323.3000;0.5112;0.7032;
1323.6000;0.5104;0.7032;
1323.9000;0.5112;0.7058;
1324.2000;0.5104;0.7058;
1324.5000;0.5104;0.7083;
1324.8000;0.5136;0.7083;
1325.1000;0.5112;0.7058;
1325.4000;0.5144;0.7109;
1325.7000;0.5112;0.6955;
1326.0000;0.5104;0.6955;
1326.3000;0.5112;0.6981;
1326.6000;0.5104;0.6955;
1326.9000;0.5096;0.6929;
1327.2000;0.5104;0.7058;
1327.5000;0.5112;0.7032;
1327.8000;0.5104;0.7006;
1328.1000;0.5096;0.6981;
1328.4000;0.5088;0.6955;
1328.7000;0.5104;0.7083;
1329.0000;0.5120;0.7186;
1329.3000;0.5088;0.7109;
1329.6000;0.5096;0.7083;
1329.9000;0.5120;0.7186;
1330.2000;0.5120;0.7160;
1330.5000;0.5088;0.7109;
1330.8000;0.5088;0.7135;
1331.1000;0.5096;0.7186;
1331.4000;0.5104;0.7263;
1331.7000;0.5088;0.7160;
1332.0000;0.5088;0.7109;
1332.3000;0.5104;0.7058;
1332.6000;0.5112;0.7109;
1332.9000;0.5185;0.7289;
1333.2000;0.5104;0.7058;
1333.5000;0.5088;0.6981;
1333.8000;0.5104;0.7083;
1334.1000;0.5104;0.7160;
1334.4000;0.5104;0.7058;
1334.7000;0.5120;0.7058;
1335.0000;0.5112;0.7058;
1335.3000;0.5104;0.7083;
1335.6000;0.5128;0.7058;
1335.9000;0.5055;0.6827;
1336.2000;0.5112;0.6981;
1336.5000;0.5096;0.6904;
1336.8000;0.5120;0.6852;
1337.1000;0.5104;0.6750;
1337.4000;0.5153;0.6904;
1337.7000;0.5120;0.6750;
1338.0000;0.5104;0.6698;
1338.3000;0.5128;0.6827;
1338.6000;0.5096;0.6801;
1338.9000;0.5047;0.6775;
1339.2000;0.5079;0.7006;
1339.5000;0.5079;0.6981;
1339.8000;0.5104;0.6955;
1340.1000;0.5063;0.6981;
1340.4000;0.5104;0.7109;
1340.7000;0.5120;0.7109;
1341.0000;0.5096;0.7006;
1341.3000;0.5120;0.7058;
1341.6000;0.5096;0.6981;
1341.9000;0.5104;0.6955;
1342.2000;0.5031;0.6852;
1342.5000;0.5039;0.6852;
1342.8000;0.5112;0.6955;
1343.1000;0.5088;0.6827;
1343.4000;0.5144;0.6904;
1343.7000;0.5096;0.6878;
1344.0000;0.5112;0.6929;
1344.3000;0.5088;0.6955;
1344.6000;0.5136;0.6955;
1344.9000;0.5104;0.6904;
1345.2000;0.5096;0.6878;
1345.5000;0.5144;0.6981;
1345.8000;0.5088;0.6801;
1346.1000;0.5120;0.6981;
1346.4000;0.5112;0.6981;
1346.7000;0.5104;0.6981;
1347.0000;0.5079;0.6929;
1347.3000;0.5071;0.6929;
1347.6000;0.5104;0.7032;
1347.9000;0.5104;0.7058;
1348.2000;0.5071;0.6955;
1348.5000;0.5120;0.7058;
1348.8000;0.5047;0.6750;
1349.1000;0.5104;0.6929;
1349.4000;0.5063;0.6878;
1349.7000;0.5071;0.6929;
1350.0000;0.5096;0.6981;
1350.3000;0.5096;0.7058;
1350.6000;0.5104;0.7006;
1350.9000;0.5088;0.6929;
1351.2000;0.5104;0.7006;
1351.5000;0.5022;0.6750;
1351.8000;0.5006;0.6698;
1352.1000;0.5096;0.6904;
1352.4000;0.5177;0.7135;
1352.7000;0.5112;0.6878;
1353.0000;0.5112;0.6878;
1353.3000;0.5063;0.6750;
1353.6000;0.5088;0.6801;
1353.9000;0.5104;0.6775;
1354.2000;0.5104;0.6750;
1354.5000;0.5136;0.6750;
1354.8000;0.5120;0.6621;
1355.1000;0.5120;0.6647;
1355.4000;0.5136;0.6724;
1355.7000;0.5128;0.6698;
1356.0000;0.5096;0.6647;
1356.3000;0.5096;0.6621;
1356.6000;0.5104;0.6698;
1356.9000;0.5096;0.6775;
1357.2000;0.5112;0.6852;
1357.5000;0.5071;0.6724;
1357.8000;0.5120;0.6878;
1358.1000;0.5096;0.6878;
1358.4000;0.5104;0.6929;
1358.7000;0.5096;0.6904;
1359.0000;0.5071;0.6852;
1359.3000;0.5104;0.6981;
1359.6000;0.5112;0.7032;
1359.9000;0.5104;0.6904;
1360.2000;0.5088;0.6955;
1360.5000;0.5104;0.6929;
1360.8000;0.5104;0.6852;
1361.1000;0.5104;0.6827;
1361.4000;0.5112;0.6827;
1361.7000;0.5096;0.6775;
1362.0000;0.5136;0.6827;
1362.3000;0.5112;0.6775;
1362.6000;0.5120;0.6775;
1362.9000;0.5112;0.6775;
1363.2000;0.5112;0.6775;
1363.5000;0.5104;0.6750;
1363.8000;0.5120;0.6904;
1364.1000;0.5128;0.7032;
1364.4000;0.5096;0.7006;
1364.7000;0.5104;0.7006;
1365.0000;0.5112;0.7109;
1365.3000;0.5128;0.7160;
1365.6000;0.5104;0.7135;
1365.9000;0.5136;0.7058;
1366.2000;0.5153;0.7032;
1366.5000;0.5136;0.6981;
1366.8000;0.5104;0.6878;
1367.1000;0.5112;0.6904;
1367.4000;0.5128;0.6955;
1367.7000;0.5112;0.6929;
1368.0000;0.5039;0.6724;
1368.3000;0.5104;0.6929;
1368.6000;0.5136;0.6981;
1368.9000;0.5047;0.6801;
1369.2000;0.5104;0.7032;
1369.5000;0.5112;0.7006;
1369.8000;0.5112;0.6981;
1370.1000;0.5096;0.6904;
1370.4000;0.5096;0.6904;
1370.7000;0.5031;0.6775;
1371.0000;0.5063;0.6904;
1371.3000;0.5096;0.6981;
1371.6000;0.5096;0.6955;
1371.9000;0.5120;0.6981;
1372.2000;0.5088;0.6852;
1372.5000;0.5128;0.6904;
1372.8000;0.5079;0.6878;
1373.1000;0.5088;0.6955;
1373.4000;0.5104;0.7032;
1373.7000;0.5120;0.7032;
1374.0000;0.5071;0.6852;
1374.3000;0.5096;0.6827;
1374.6000;0.5104;0.6852;
1374.9000;0.5112;0.6852;
1375.2000;0.5096;0.6827;
1375.5000;0.5031;0.6621;
1375.8000;0.5104;0.6827;
1376.1000;0.5104;0.6878;
1376.4000;0.5136;0.7006;
1376.7000;0.5112;0.6878;
1377.0000;0.5104;0.6878;
1377.3000;0.5120;0.6955;
1377.6000;0.5104;0.6929;
1377.9000;0.5096;0.6929;
1378.2000;0.5128;0.6981;
1378.5000;0.5088;0.6904;
1378.8000;0.5112;0.6955;
1379.1000;0.5112;0.6904;
1379.4000;0.5096;0.6929;
1379.7000;0.5112;0.6929;
1380.0000;0.5112;0.6955;
1380.3000;0.5088;0.6929;
1380.6000;0.5096;0.6878;
1380.9000;0.5079;0.6801;
1381.2000;0.5096;0.6904;
1381.5000;0.5104;0.6981;
1381.8000;0.5039;0.6801;
1382.1000;0.5104;0.6878;
1382.4000;0.5104;0.6904;
1382.7000;0.5120;0.6981;
1383.0000;0.5047;0.6904;
1383.3000;0.5088;0.7109;
1383.6000;0.5128;0.7135;
1383.9000;0.5112;0.7032;
1384.2000;0.5096;0.6904;
1384.5000;0.5120;0.6981;
1384.8000;0.5104;0.6955;
1385.1000;0.5104;0.6904;
1385.4000;0.5104;0.6981;
1385.7000;0.5088;0.6929;
1386.0000;0.5104;0.7058;
1386.3000;0.5055;0.6929;
1386.6000;0.5112;0.7083;
1386.9000;0.5112;0.7083;
1387.2000;0.5006;0.6775;
1387.5000;0.5104;0.7006;
1387.8000;0.5104;0.6929;
1388.1000;0.5079;0.6801;
1388.4000;0.5104;0.6801;
1388.7000;0.5128;0.6929;
1389.0000;0.5096;0.6852;
1389.3000;0.5104;0.6827;
1389.6000;0.5112;0.6775;
1389.9000;0.5088;0.6827;
1390.2000;0.5104;0.6878;
1390.5000;0.5104;0.6878;
1390.8000;0.5112;0.6878;
1391.1000;0.5128;0.7032;
1391.4000;0.5144;0.7109;
1391.7000;0.5088;0.6981;
1392.0000;0.5096;0.7083;
1392.3000;0.5104;0.7032;
1392.6000;0.5096;0.6955;
1392.9000;0.5120;0.6981;
1393.2000;0.5104;0.6904;
1393.5000;0.5031;0.6852;
1393.8000;0.5088;0.7032;
1394.1000;0.5104;0.7160;
1394.4000;0.5104;0.7135;
1394.7000;0.5112;0.7083;
1395.0000;0.5112;0.6981;
1395.3000;0.5104;0.6955;
1395.6000;0.5112;0.6955;
1395.9000;0.5104;0.6904;
1396.2000;0.5120;0.7006;
1396.5000;0.5112;0.6955;
1396.8000;0.5128;0.7032;
1397.1000;0.5104;0.6981;
1397.4000;0.5120;0.6981;
1397.7000;0.5104;0.6929;
1398.0000;0.5104;0.6929;
1398.3000;0.5039;0.6801;
1398.6000;0.5120;0.7006;
1398.9000;0.5112;0.7006;
1399.2000;0.5071;0.6878;
1399.5000;0.5112;0.6929;
1399.8000;0.5104;0.6904;
