time/ms;Fluo/V;P700 deltaI/I x10³;
-199.8000;1.0859;0.7759;
-199.5000;1.0851;0.7759;
-199.2000;1.0859;0.7809;
-198.9000;1.0842;0.7733;
-198.6000;1.0851;0.7733;
-198.3000;1.0842;0.7759;
-198.0000;1.0842;0.7708;
-197.7000;1.0859;0.7708;
-197.4000;1.0842;0.7759;
-197.1000;1.0859;0.7834;
-196.8000;1.0859;0.7834;
-196.5000;1.0867;0.7960;
-196.2000;1.0859;0.7960;
-195.9000;1.0834;0.7935;
-195.6000;1.0867;0.8111;
-195.3000;1.0859;0.8136;
-195.0000;1.0859;0.8036;
-194.7000;1.0859;0.8036;
-194.4000;1.0867;0.7960;
-194.1000;1.0859;0.7884;
-193.8000;1.0851;0.7784;
-193.5000;1.0851;0.7759;
-193.2000;1.0859;0.7834;
-192.9000;1.0883;0.7859;
-192.6000;1.0859;0.7708;
-192.3000;1.0859;0.7784;
-192.0000;1.0851;0.7784;
-191.7000;1.0867;0.7759;
-191.4000;1.0867;0.7784;
-191.1000;1.0859;0.7834;
-190.8000;1.0875;0.7910;
-190.5000;1.0859;0.7834;
-190.2000;1.0867;0.7859;
-189.9000;1.0859;0.7708;
-189.6000;1.0842;0.7708;
-189.3000;1.0842;0.7683;
-189.0000;1.0859;0.7683;
-188.7000;1.0851;0.7733;
-188.4000;1.0842;0.7658;
-188.1000;1.0842;0.7683;
-187.8000;1.0842;0.7759;
-187.5000;1.0834;0.7784;
-187.2000;1.0834;0.7834;
-186.9000;1.0851;0.7910;
-186.6000;1.0851;0.7910;
-186.3000;1.0867;0.7910;
-186.0000;1.0916;0.8010;
-185.7000;1.0842;0.7859;
-185.4000;1.0859;0.7809;
-185.1000;1.0891;0.7859;
-184.8000;1.0842;0.7759;
-184.5000;1.0842;0.7759;
-184.2000;1.0851;0.7733;
-183.9000;1.0916;0.7935;
-183.6000;1.0867;0.7784;
-183.3000;1.0851;0.7809;
-183.0000;1.0842;0.7784;
-182.7000;1.0851;0.7759;
-182.4000;1.0859;0.7809;
-182.1000;1.0818;0.7884;
-181.8000;1.0859;0.7935;
-181.5000;1.0851;0.7935;
-181.2000;1.0851;0.7935;
-180.9000;1.0859;0.7985;
-180.6000;1.0851;0.7910;
-180.3000;1.0875;0.7985;
-180.0000;1.0899;0.8036;
-179.7000;1.0867;0.7910;
-179.4000;1.0842;0.7859;
-179.1000;1.0842;0.7834;
-178.8000;1.0859;0.7809;
-178.5000;1.0842;0.7733;
-178.2000;1.0851;0.7834;
-177.9000;1.0851;0.7834;
-177.6000;1.0818;0.7784;
-177.3000;1.0842;0.7809;
-177.0000;1.0842;0.7809;
-176.7000;1.0834;0.7784;
-176.4000;1.0826;0.7759;
-176.1000;1.0867;0.7859;
-175.8000;1.0859;0.7910;
-175.5000;1.0851;0.7960;
-175.2000;1.0851;0.8061;
-174.9000;1.0875;0.8061;
-174.6000;1.0851;0.8036;
-174.3000;1.0851;0.8061;
-174.0000;1.0867;0.8036;
-173.7000;1.0818;0.7859;
-173.4000;1.0842;0.7910;
-173.1000;1.0859;0.7935;
-172.8000;1.0851;0.8010;
-172.5000;1.0867;0.8061;
-172.2000;1.0851;0.8036;
-171.9000;1.0859;0.8010;
-171.6000;1.0851;0.8061;
-171.3000;1.0851;0.8036;
-171.0000;1.0859;0.7985;
-170.7000;1.0842;0.7985;
-170.4000;1.0851;0.8010;
-170.1000;1.0859;0.7935;
-169.8000;1.0867;0.7935;
-169.5000;1.0867;0.7884;
-169.2000;1.0826;0.7834;
-168.9000;1.0842;0.7910;
-168.6000;1.0851;0.7935;
-168.3000;1.0851;0.7985;
-168.0000;1.0834;0.8061;
-167.7000;1.0842;0.8136;
-167.4000;1.0867;0.8162;
-167.1000;1.0802;0.7935;
-166.8000;1.0899;0.8212;
-166.5000;1.0842;0.8036;
-166.2000;1.0851;0.7960;
-165.9000;1.0867;0.7985;
-165.6000;1.0842;0.7910;
-165.3000;1.0875;0.7985;
-165.0000;1.0859;0.7960;
-164.7000;1.0851;0.7960;
-164.4000;1.0851;0.8061;
-164.1000;1.0875;0.8061;
-163.8000;1.0859;0.8010;
-163.5000;1.0842;0.7935;
-163.2000;1.0851;0.7884;
-162.9000;1.0851;0.7910;
-162.6000;1.0867;0.8036;
-162.3000;1.0851;0.8086;
-162.0000;1.0842;0.8036;
-161.7000;1.0867;0.8010;
-161.4000;1.0842;0.7935;
-161.1000;1.0859;0.8061;
-160.8000;1.0834;0.7985;
-160.5000;1.0867;0.8086;
-160.2000;1.0859;0.8010;
-159.9000;1.0875;0.8086;
-159.6000;1.0859;0.8086;
-159.3000;1.0867;0.8111;
-159.0000;1.0851;0.8036;
-158.7000;1.0899;0.8136;
-158.4000;1.0867;0.8036;
-158.1000;1.0859;0.8010;
-157.8000;1.0851;0.7935;
-157.5000;1.0826;0.7859;
-157.2000;1.0875;0.7985;
-156.9000;1.0851;0.7910;
-156.6000;1.0851;0.7809;
-156.3000;1.0851;0.7784;
-156.0000;1.0786;0.7633;
-155.7000;1.0875;0.7859;
-155.4000;1.0867;0.7759;
-155.1000;1.0842;0.7733;
-154.8000;1.0867;0.7784;
-154.5000;1.0867;0.7784;
-154.2000;1.0867;0.7834;
-153.9000;1.0794;0.7532;
-153.6000;1.0875;0.7683;
-153.3000;1.0867;0.7658;
-153.0000;1.0875;0.7582;
-152.7000;1.0859;0.7532;
-152.4000;1.0842;0.7557;
-152.1000;1.0867;0.7683;
-151.8000;1.0851;0.7658;
-151.5000;1.0859;0.7633;
-151.2000;1.0834;0.7658;
-150.9000;1.0867;0.7834;
-150.6000;1.0859;0.7834;
-150.3000;1.0842;0.7809;
-150.0000;1.0867;0.7784;
-149.7000;1.0883;0.7859;
-149.4000;1.0875;0.7784;
-149.1000;1.0956;0.8010;
-148.8000;1.0851;0.7784;
-148.5000;1.0867;0.7834;
-148.2000;1.0842;0.7834;
-147.9000;1.0875;0.7834;
-147.6000;1.0867;0.7834;
-147.3000;1.0851;0.7733;
-147.0000;1.0851;0.7708;
-146.7000;1.0802;0.7607;
-146.4000;1.0851;0.7708;
-146.1000;1.0867;0.7683;
-145.8000;1.0875;0.7834;
-145.5000;1.0875;0.7784;
-145.2000;1.0875;0.7809;
-144.9000;1.0859;0.7834;
-144.6000;1.0867;0.7834;
-144.3000;1.0867;0.7733;
-144.0000;1.0867;0.7683;
-143.7000;1.0875;0.7607;
-143.4000;1.0851;0.7557;
-143.1000;1.0859;0.7557;
-142.8000;1.0842;0.7532;
-142.5000;1.0842;0.7507;
-142.2000;1.0818;0.7557;
-141.9000;1.0842;0.7683;
-141.6000;1.0867;0.7759;
-141.3000;1.0851;0.7784;
-141.0000;1.0851;0.7834;
-140.7000;1.0875;0.7884;
-140.4000;1.0859;0.7859;
-140.1000;1.0859;0.7910;
-139.8000;1.0859;0.7834;
-139.5000;1.0867;0.7884;
-139.2000;1.0867;0.7935;
-138.9000;1.0859;0.7935;
-138.6000;1.0851;0.7985;
-138.3000;1.0859;0.7935;
-138.0000;1.0883;0.7859;
-137.7000;1.0859;0.7834;
-137.4000;1.0810;0.7658;
-137.1000;1.0842;0.7708;
-136.8000;1.0826;0.7658;
-136.5000;1.0851;0.7784;
-136.2000;1.0842;0.7708;
-135.9000;1.0867;0.7809;
-135.6000;1.0875;0.7809;
-135.3000;1.0867;0.7733;
-135.0000;1.0859;0.7708;
-134.7000;1.0842;0.7733;
-134.4000;1.0875;0.7759;
-134.1000;1.0826;0.7708;
-133.8000;1.0851;0.7733;
-133.5000;1.0834;0.7708;
-133.2000;1.0851;0.7834;
-132.9000;1.0859;0.7834;
-132.6000;1.0851;0.7784;
-132.3000;1.0859;0.7809;
-132.0000;1.0842;0.7759;
-131.7000;1.0851;0.7759;
-131.4000;1.0851;0.7859;
-131.1000;1.0802;0.7683;
-130.8000;1.0859;0.7809;
-130.5000;1.0859;0.7759;
-130.2000;1.0851;0.7733;
-129.9000;1.0859;0.7809;
-129.6000;1.0891;0.7960;
-129.3000;1.0859;0.7935;
-129.0000;1.0842;0.7985;
-128.7000;1.0859;0.7910;
-128.4000;1.0891;0.7985;
-128.1000;1.0851;0.7759;
-127.8000;1.0851;0.7733;
-127.5000;1.0908;0.7834;
-127.2000;1.0842;0.7809;
-126.9000;1.0859;0.7985;
-126.6000;1.0859;0.7935;
-126.3000;1.0875;0.7884;
-126.0000;1.0842;0.7784;
-125.7000;1.0851;0.7910;
-125.4000;1.0859;0.7960;
-125.1000;1.0908;0.8086;
-124.8000;1.0834;0.7960;
-124.5000;1.0851;0.7910;
-124.2000;1.0891;0.8036;
-123.9000;1.0851;0.7935;
-123.6000;1.0842;0.7884;
-123.3000;1.0826;0.7859;
-123.0000;1.0875;0.8010;
-122.7000;1.0899;0.8010;
-122.4000;1.0867;0.7985;
-122.1000;1.0851;0.7935;
-121.8000;1.0883;0.8061;
-121.5000;1.0859;0.8036;
-121.2000;1.0851;0.7935;
-120.9000;1.0842;0.7910;
-120.6000;1.0818;0.7910;
-120.3000;1.0867;0.7985;
-120.0000;1.0851;0.7935;
-119.7000;1.0842;0.7985;
-119.4000;1.0859;0.8010;
-119.1000;1.0859;0.7985;
-118.8000;1.0851;0.8036;
-118.5000;1.0859;0.8036;
-118.2000;1.0842;0.8010;
-117.9000;1.0859;0.8010;
-117.6000;1.0851;0.7985;
-117.3000;1.0859;0.8010;
-117.0000;1.0826;0.7910;
-116.7000;1.0761;0.7708;
-116.4000;1.0842;0.7910;
-116.1000;1.0842;0.7935;
-115.8000;1.0851;0.7960;
-115.5000;1.0842;0.7859;
-115.2000;1.0867;0.7859;
-114.9000;1.0867;0.7834;
-114.6000;1.0875;0.7859;
-114.3000;1.0851;0.7834;
-114.0000;1.0834;0.7759;
-113.7000;1.0842;0.7683;
-113.4000;1.0851;0.7708;
-113.1000;1.0842;0.7784;
-112.8000;1.0851;0.7708;
-112.5000;1.0875;0.7733;
-112.2000;1.0867;0.7733;
-111.9000;1.0867;0.7784;
-111.6000;1.0826;0.7759;
-111.3000;1.0867;0.7809;
-111.0000;1.0818;0.7733;
-110.7000;1.0842;0.7859;
-110.4000;1.0834;0.7884;
-110.1000;1.0842;0.7759;
-109.8000;1.0859;0.7759;
-109.5000;1.0859;0.7784;
-109.2000;1.0875;0.7809;
-108.9000;1.0859;0.7759;
-108.6000;1.0842;0.7784;
-108.3000;1.0851;0.7708;
-108.0000;1.0867;0.7708;
-107.7000;1.0851;0.7658;
-107.4000;1.0842;0.7733;
-107.1000;1.0851;0.7708;
-106.8000;1.0834;0.7683;
-106.5000;1.0883;0.7759;
-106.2000;1.0842;0.7759;
-105.9000;1.0867;0.7708;
-105.6000;1.0842;0.7658;
-105.3000;1.0851;0.7683;
-105.0000;1.0891;0.7784;
-104.7000;1.0859;0.7708;
-104.4000;1.0818;0.7683;
-104.1000;1.0851;0.7658;
-103.8000;1.0851;0.7733;
-103.5000;1.0932;0.7884;
-103.2000;1.0842;0.7683;
-102.9000;1.0842;0.7658;
-102.6000;1.0834;0.7532;
-102.3000;1.0867;0.7633;
-102.0000;1.0859;0.7683;
-101.7000;1.0818;0.7582;
-101.4000;1.0851;0.7708;
-101.1000;1.0859;0.7658;
-100.8000;1.0826;0.7683;
-100.5000;1.0867;0.7784;
-100.2000;1.0875;0.7759;
-99.9000;1.0867;0.7834;
-99.6000;1.0834;0.7884;
-99.3000;1.0851;0.7935;
-99.0000;1.0867;0.7960;
-98.7000;1.0851;0.7884;
-98.4000;1.0859;0.7960;
-98.1000;1.0867;0.8061;
-97.8000;1.0867;0.7960;
-97.5000;1.0859;0.7910;
-97.2000;1.0851;0.7960;
-96.9000;1.0842;0.7910;
-96.6000;1.0867;0.7960;
-96.3000;1.0851;0.7910;
-96.0000;1.0851;0.7960;
-95.7000;1.0883;0.7985;
-95.4000;1.0851;0.7859;
-95.1000;1.0842;0.7784;
-94.8000;1.0867;0.7809;
-94.5000;1.0859;0.7859;
-94.2000;1.0859;0.7809;
-93.9000;1.0851;0.7809;
-93.6000;1.0842;0.7784;
-93.3000;1.0851;0.7834;
-93.0000;1.0851;0.7733;
-92.7000;1.0834;0.7708;
-92.4000;1.0834;0.7708;
-92.1000;1.0842;0.7784;
-91.8000;1.0859;0.7834;
-91.5000;1.0875;0.7834;
-91.2000;1.0859;0.7733;
-90.9000;1.0859;0.7733;
-90.6000;1.0859;0.7759;
-90.3000;1.0859;0.7759;
-90.0000;1.0867;0.7708;
-89.7000;1.0859;0.7683;
-89.4000;1.0826;0.7633;
-89.1000;1.0859;0.7708;
-88.8000;1.0859;0.7658;
-88.5000;1.0851;0.7708;
-88.2000;1.0899;0.7935;
-87.9000;1.0842;0.7809;
-87.6000;1.0851;0.7859;
-87.3000;1.0891;0.7960;
-87.0000;1.0802;0.7809;
-86.7000;1.0891;0.8036;
-86.4000;1.0818;0.7910;
-86.1000;1.0834;0.7960;
-85.8000;1.0834;0.7985;
-85.5000;1.0851;0.7910;
-85.2000;1.0851;0.7910;
-84.9000;1.0842;0.7884;
-84.6000;1.0859;0.7884;
-84.3000;1.0834;0.7859;
-84.0000;1.0883;0.7935;
-83.7000;1.0851;0.7910;
-83.4000;1.0875;0.7834;
-83.1000;1.0883;0.7910;
-82.8000;1.0867;0.7935;
-82.5000;1.0851;0.7910;
-82.2000;1.0859;0.7884;
-81.9000;1.0859;0.7834;
-81.6000;1.0867;0.7834;
-81.3000;1.0834;0.7784;
-81.0000;1.0859;0.7910;
-80.7000;1.0867;0.7960;
-80.4000;1.0851;0.7960;
-80.1000;1.0842;0.7859;
-79.8000;1.0851;0.7859;
-79.5000;1.0875;0.7884;
-79.2000;1.0851;0.7784;
-78.9000;1.0859;0.7784;
-78.6000;1.0826;0.7733;
-78.3000;1.0842;0.7784;
-78.0000;1.0851;0.7834;
-77.7000;1.0867;0.7910;
-77.4000;1.0851;0.7935;
-77.1000;1.0851;0.7884;
-76.8000;1.0867;0.7960;
-76.5000;1.0842;0.7884;
-76.2000;1.0842;0.7935;
-75.9000;1.0842;0.7985;
-75.6000;1.0908;0.8111;
-75.3000;1.0859;0.8010;
-75.0000;1.0842;0.7910;
-74.7000;1.0769;0.7633;
-74.4000;1.0842;0.7834;
-74.1000;1.0851;0.7884;
-73.8000;1.0916;0.8061;
-73.5000;1.0859;0.7935;
-73.2000;1.0851;0.7884;
-72.9000;1.0859;0.7935;
-72.6000;1.0842;0.7960;
-72.3000;1.0777;0.7910;
-72.0000;1.0851;0.8061;
-71.7000;1.0867;0.7960;
-71.4000;1.0851;0.8010;
-71.1000;1.0834;0.7910;
-70.8000;1.0851;0.7884;
-70.5000;1.0859;0.7985;
-70.2000;1.0859;0.7985;
-69.9000;1.0842;0.7985;
-69.6000;1.0842;0.7884;
-69.3000;1.0883;0.8010;
-69.0000;1.0842;0.7884;
-68.7000;1.0834;0.7884;
-68.4000;1.0842;0.7935;
-68.1000;1.0859;0.7960;
-67.8000;1.0851;0.7884;
-67.5000;1.0786;0.7633;
-67.2000;1.0851;0.7759;
-66.9000;1.0851;0.7759;
-66.6000;1.0851;0.7784;
-66.3000;1.0859;0.7809;
-66.0000;1.0842;0.7708;
-65.7000;1.0842;0.7607;
-65.4000;1.0818;0.7532;
-65.1000;1.0867;0.7658;
-64.8000;1.0859;0.7658;
-64.5000;1.0834;0.7557;
-64.2000;1.0867;0.7733;
-63.9000;1.0859;0.7784;
-63.6000;1.0842;0.7784;
-63.3000;1.0875;0.7708;
-63.0000;1.0883;0.7759;
-62.7000;1.0867;0.7859;
-62.4000;1.0867;0.7784;
-62.1000;1.0851;0.7809;
-61.8000;1.0859;0.7809;
-61.5000;1.0842;0.7759;
-61.2000;1.0859;0.7733;
-60.9000;1.0851;0.7683;
-60.6000;1.0851;0.7658;
-60.3000;1.0859;0.7733;
-60.0000;1.0851;0.7582;
-59.7000;1.0851;0.7607;
-59.4000;1.0842;0.7557;
-59.1000;1.0851;0.7607;
-58.8000;1.0826;0.7532;
-58.5000;1.0851;0.7507;
-58.2000;1.0826;0.7456;
-57.9000;1.0842;0.7557;
-57.6000;1.0842;0.7481;
-57.3000;1.0842;0.7431;
-57.0000;1.0851;0.7507;
-56.7000;1.0842;0.7557;
-56.4000;1.0867;0.7633;
-56.1000;1.0859;0.7481;
-55.8000;1.0859;0.7532;
-55.5000;1.0859;0.7456;
-55.2000;1.0834;0.7381;
-54.9000;1.0851;0.7431;
-54.6000;1.0859;0.7532;
-54.3000;1.0834;0.7481;
-54.0000;1.0851;0.7481;
-53.7000;1.0883;0.7481;
-53.4000;1.0859;0.7481;
-53.1000;1.0859;0.7330;
-52.8000;1.0875;0.7355;
-52.5000;1.0867;0.7330;
-52.2000;1.0859;0.7280;
-51.9000;1.0851;0.7330;
-51.6000;1.0859;0.7330;
-51.3000;1.0867;0.7305;
-51.0000;1.0851;0.7330;
-50.7000;1.0810;0.7255;
-50.4000;1.0842;0.7431;
-50.1000;1.0851;0.7507;
-49.8000;1.0867;0.7532;
-49.5000;1.0842;0.7481;
-49.2000;1.0924;0.7733;
-48.9000;1.0851;0.7507;
-48.6000;1.0867;0.7607;
-48.3000;1.0859;0.7633;
-48.0000;1.0851;0.7532;
-47.7000;1.0842;0.7557;
-47.4000;1.0859;0.7607;
-47.1000;1.0867;0.7708;
-46.8000;1.0834;0.7582;
-46.5000;1.0859;0.7658;
-46.2000;1.0851;0.7607;
-45.9000;1.0851;0.7582;
-45.6000;1.0842;0.7532;
-45.3000;1.0842;0.7557;
-45.0000;1.0867;0.7582;
-44.7000;1.0859;0.7633;
-44.4000;1.0834;0.7582;
-44.1000;1.0859;0.7582;
-43.8000;1.0859;0.7532;
-43.5000;1.0875;0.7633;
-43.2000;1.0867;0.7607;
-42.9000;1.0842;0.7633;
-42.6000;1.0867;0.7683;
-42.3000;1.0859;0.7607;
-42.0000;1.0834;0.7481;
-41.7000;1.0851;0.7532;
-41.4000;1.0859;0.7456;
-41.1000;1.0867;0.7481;
-40.8000;1.0859;0.7532;
-40.5000;1.0834;0.7507;
-40.2000;1.0859;0.7507;
-39.9000;1.0859;0.7607;
-39.6000;1.0867;0.7633;
-39.3000;1.0842;0.7633;
-39.0000;1.0834;0.7633;
-38.7000;1.0875;0.7834;
-38.4000;1.0867;0.7834;
-38.1000;1.0859;0.7733;
-37.8000;1.0867;0.7708;
-37.5000;1.0859;0.7658;
-37.2000;1.0875;0.7708;
-36.9000;1.0859;0.7759;
-36.6000;1.0851;0.7733;
-36.3000;1.0842;0.7683;
-36.0000;1.0851;0.7733;
-35.7000;1.0842;0.7708;
-35.4000;1.0834;0.7658;
-35.1000;1.0842;0.7658;
-34.8000;1.0851;0.7633;
-34.5000;1.0851;0.7582;
-34.2000;1.0834;0.7607;
-33.9000;1.0842;0.7557;
-33.6000;1.0842;0.7582;
-33.3000;1.0859;0.7607;
-33.0000;1.0834;0.7557;
-32.7000;1.0834;0.7557;
-32.4000;1.0851;0.7557;
-32.1000;1.0859;0.7507;
-31.8000;1.0867;0.7557;
-31.5000;1.0851;0.7481;
-31.2000;1.0851;0.7481;
-30.9000;1.0859;0.7507;
-30.6000;1.0842;0.7456;
-30.3000;1.0842;0.7481;
-30.0000;1.0842;0.7507;
-29.7000;1.0842;0.7532;
-29.4000;1.0851;0.7532;
-29.1000;1.0859;0.7532;
-28.8000;1.0851;0.7532;
-28.5000;1.0867;0.7658;
-28.2000;1.0859;0.7557;
-27.9000;1.0867;0.7582;
-27.6000;1.0851;0.7708;
-27.3000;1.0859;0.7607;
-27.0000;1.0842;0.7481;
-26.7000;1.0891;0.7532;
-26.4000;1.0867;0.7481;
-26.1000;1.0867;0.7532;
-25.8000;1.0851;0.7532;
-25.5000;1.0859;0.7481;
-25.2000;1.0851;0.7431;
-24.9000;1.0842;0.7456;
-24.6000;1.0851;0.7431;
-24.3000;1.0842;0.7330;
-24.0000;1.0826;0.7355;
-23.7000;1.0867;0.7481;
-23.4000;1.0842;0.7456;
-23.1000;1.0859;0.7406;
-22.8000;1.0842;0.7381;
-22.5000;1.0834;0.7406;
-22.2000;1.0851;0.7456;
-21.9000;1.0867;0.7481;
-21.6000;1.0859;0.7355;
-21.3000;1.0859;0.7305;
-21.0000;1.0859;0.7330;
-20.7000;1.0851;0.7305;
-20.4000;1.0859;0.7431;
-20.1000;1.0859;0.7507;
-19.8000;1.0859;0.7532;
-19.5000;1.0851;0.7532;
-19.2000;1.0834;0.7381;
-18.9000;1.0875;0.7532;
-18.6000;1.0842;0.7456;
-18.3000;1.0842;0.7431;
-18.0000;1.0867;0.7406;
-17.7000;1.0851;0.7431;
-17.4000;1.0842;0.7330;
-17.1000;1.0851;0.7355;
-16.8000;1.0851;0.7406;
-16.5000;1.0842;0.7330;
-16.2000;1.0859;0.7280;
-15.9000;1.0834;0.7305;
-15.6000;1.0842;0.7330;
-15.3000;1.0859;0.7305;
-15.0000;1.0875;0.7330;
-14.7000;1.0842;0.7255;
-14.4000;1.0826;0.7255;
-14.1000;1.0842;0.7255;
-13.8000;1.0851;0.7230;
-13.5000;1.0842;0.7355;
-13.2000;1.0851;0.7406;
-12.9000;1.0859;0.7431;
-12.6000;1.0834;0.7355;
-12.3000;1.0842;0.7381;
-12.0000;1.0802;0.7280;
-11.7000;1.0859;0.7381;
-11.4000;1.0842;0.7355;
-11.1000;1.0842;0.7305;
-10.8000;1.0834;0.7355;
-10.5000;1.0859;0.7381;
-10.2000;1.0867;0.7431;
-9.9000;1.0851;0.7431;
-9.6000;1.0851;0.7381;
-9.3000;1.0859;0.7431;
-9.0000;1.0859;0.7381;
-8.7000;1.0842;0.7330;
-8.4000;1.0851;0.7406;
-8.1000;1.0842;0.7507;
-7.8000;1.0851;0.7456;
-7.5000;1.0851;0.7481;
-7.2000;1.0851;0.7557;
-6.9000;1.0867;0.7532;
-6.6000;1.0867;0.7532;
-6.3000;1.0867;0.7507;
-6.0000;1.0851;0.7431;
-5.7000;1.0851;0.7406;
-5.4000;1.0851;0.7456;
-5.1000;1.0875;0.7507;
-4.8000;1.0834;0.7355;
-4.5000;1.0851;0.7456;
-4.2000;1.0834;0.7406;
-3.9000;1.0859;0.7507;
-3.6000;1.0834;0.7381;
-3.3000;1.0834;0.7305;
-3.0000;1.0834;0.7255;
-2.7000;1.0859;0.7431;
-2.4000;1.0834;0.7431;
-2.1000;1.0826;0.7330;
-1.8000;1.0842;0.7330;
-1.5000;1.0842;0.7280;
-1.2000;1.0851;0.7381;
-0.9000;1.0851;0.7381;
-0.6000;1.0834;0.7330;
-0.3000;1.0842;0.7330;
0.0000;1.0842;0.7330;
0.3000;1.0948;0.7733;
0.6000;1.1201;0.8111;
0.9000;1.1372;0.8363;
1.2000;1.1486;0.8539;
1.5000;1.1534;0.8565;
1.8000;1.1689;0.8892;
2.1000;1.1762;0.9144;
2.4000;1.1827;0.9345;
2.7000;1.1868;0.9446;
3.0000;1.1901;0.9497;
3.3000;1.1950;0.9597;
3.6000;1.1990;0.9623;
3.9000;1.2007;0.9623;
4.2000;1.2007;0.9648;
4.5000;1.2047;0.9723;
4.8000;1.2072;0.9774;
5.1000;1.2120;0.9925;
5.4000;1.2129;0.9975;
5.7000;1.2161;0.9975;
6.0000;1.2186;1.0000;
6.3000;1.2177;1.0026;
6.6000;1.2202;1.0076;
6.9000;1.2218;1.0101;
7.2000;1.2226;1.0126;
7.5000;1.2243;1.0177;
7.8000;1.2283;1.0202;
8.1000;1.2259;1.0101;
8.4000;1.2283;1.0101;
8.7000;1.2308;1.0051;
9.0000;1.2405;1.0303;
9.3000;1.2316;1.0101;
9.6000;1.2316;1.0026;
9.9000;1.2340;1.0026;
10.2000;1.2348;1.0051;
10.5000;1.2357;1.0051;
10.8000;1.2389;1.0026;
11.1000;1.2373;0.9975;
11.4000;1.2381;1.0026;
11.7000;1.2389;0.9975;
12.0000;1.2397;0.9925;
12.3000;1.2438;1.0000;
12.6000;1.2430;1.0076;
12.9000;1.2422;1.0101;
13.2000;1.2422;1.0177;
13.5000;1.2430;1.0101;
13.8000;1.2462;1.0000;
14.1000;1.2438;0.9874;
14.4000;1.2470;1.0026;
14.7000;1.2470;0.9975;
15.0000;1.2487;1.0000;
15.3000;1.2503;1.0051;
15.6000;1.2479;0.9950;
15.9000;1.2470;0.9900;
16.2000;1.2487;0.9975;
16.5000;1.2495;1.0126;
16.8000;1.2487;1.0152;
17.1000;1.2511;1.0152;
17.4000;1.2511;1.0152;
17.7000;1.2511;1.0252;
18.0000;1.2536;1.0278;
18.3000;1.2527;1.0152;
18.6000;1.2519;1.0152;
18.9000;1.2527;1.0202;
19.2000;1.2503;1.0202;
19.5000;1.2544;1.0353;
19.8000;1.2495;1.0202;
20.1000;1.2544;1.0328;
20.4000;1.2552;1.0252;
20.7000;1.2446;1.0026;
21.0000;1.2544;1.0252;
21.3000;1.2536;1.0252;
21.6000;1.2568;1.0227;
21.9000;1.2560;1.0227;
22.2000;1.2536;1.0202;
22.5000;1.2527;1.0252;
22.8000;1.2593;1.0328;
23.1000;1.2584;1.0303;
23.4000;1.2601;1.0303;
23.7000;1.2576;1.0353;
24.0000;1.2584;1.0429;
24.3000;1.2527;1.0353;
24.6000;1.2584;1.0504;
24.9000;1.2568;1.0504;
25.2000;1.2576;1.0504;
25.5000;1.2625;1.0555;
25.8000;1.2593;1.0454;
26.1000;1.2576;1.0378;
26.4000;1.2576;1.0353;
26.7000;1.2601;1.0378;
27.0000;1.2584;1.0378;
27.3000;1.2560;1.0328;
27.6000;1.2601;1.0303;
27.9000;1.2601;1.0303;
28.2000;1.2601;1.0328;
28.5000;1.2633;1.0378;
28.8000;1.2601;1.0403;
29.1000;1.2617;1.0429;
29.4000;1.2593;1.0328;
29.7000;1.2617;1.0353;
30.0000;1.2609;1.0353;
30.3000;1.2601;1.0328;
30.6000;1.2617;1.0328;
30.9000;1.2568;1.0252;
31.2000;1.2625;1.0353;
31.5000;1.2633;1.0403;
31.8000;1.2625;1.0353;
32.1000;1.2666;1.0378;
32.4000;1.2609;1.0252;
32.7000;1.2617;1.0227;
33.0000;1.2625;1.0252;
33.3000;1.2633;1.0252;
33.6000;1.2633;1.0278;
33.9000;1.2617;1.0328;
34.2000;1.2625;1.0202;
34.5000;1.2625;1.0252;
34.8000;1.2617;1.0152;
35.1000;1.2625;1.0202;
35.4000;1.2633;1.0252;
35.7000;1.2641;1.0303;
36.0000;1.2625;1.0278;
36.3000;1.2650;1.0202;
36.6000;1.2625;1.0101;
36.9000;1.2633;1.0177;
37.2000;1.2633;1.0202;
37.5000;1.2633;1.0202;
37.8000;1.2641;1.0303;
38.1000;1.2641;1.0278;
38.4000;1.2633;1.0252;
38.7000;1.2641;1.0252;
39.0000;1.2641;1.0202;
39.3000;1.2650;1.0303;
39.6000;1.2650;1.0328;
39.9000;1.2674;1.0378;
40.2000;1.2633;1.0252;
40.5000;1.2674;1.0303;
40.8000;1.2641;1.0227;
41.1000;1.2617;1.0252;
41.4000;1.2658;1.0328;
41.7000;1.2641;1.0278;
42.0000;1.2674;1.0328;
42.3000;1.2658;1.0252;
42.6000;1.2625;1.0126;
42.9000;1.2682;1.0353;
43.2000;1.2658;1.0378;
43.5000;1.2641;1.0278;
43.8000;1.2666;1.0278;
44.1000;1.2658;1.0252;
44.4000;1.2690;1.0378;
44.7000;1.2641;1.0202;
45.0000;1.2641;1.0202;
45.3000;1.2650;1.0227;
45.6000;1.2650;1.0227;
45.9000;1.2658;1.0202;
46.2000;1.2633;1.0076;
46.5000;1.2641;1.0101;
46.8000;1.2641;1.0177;
47.1000;1.2739;1.0504;
47.4000;1.2633;1.0303;
47.7000;1.2650;1.0328;
48.0000;1.2633;1.0202;
48.3000;1.2690;1.0403;
48.6000;1.2650;1.0202;
48.9000;1.2641;1.0328;
49.2000;1.2658;1.0378;
49.5000;1.2650;1.0403;
49.8000;1.2658;1.0378;
50.1000;1.2650;1.0353;
50.4000;1.2650;1.0278;
50.7000;1.2658;1.0252;
51.0000;1.2658;1.0152;
51.3000;1.2650;1.0202;
51.6000;1.2650;1.0126;
51.9000;1.2641;1.0126;
52.2000;1.2650;1.0177;
52.5000;1.2641;1.0152;
52.8000;1.2650;1.0152;
53.1000;1.2633;1.0252;
53.4000;1.2650;1.0328;
53.7000;1.2650;1.0278;
54.0000;1.2650;1.0403;
54.3000;1.2650;1.0328;
54.6000;1.2666;1.0429;
54.9000;1.2674;1.0529;
55.2000;1.2666;1.0504;
55.5000;1.2650;1.0529;
55.8000;1.2658;1.0479;
56.1000;1.2674;1.0580;
56.4000;1.2666;1.0504;
56.7000;1.2650;1.0429;
57.0000;1.2666;1.0529;
57.3000;1.2674;1.0529;
57.6000;1.2666;1.0479;
57.9000;1.2658;1.0454;
58.2000;1.2650;1.0454;
58.5000;1.2658;1.0504;
58.8000;1.2650;1.0504;
59.1000;1.2650;1.0429;
59.4000;1.2658;1.0429;
59.7000;1.2641;1.0378;
60.0000;1.2674;1.0504;
60.3000;1.2666;1.0403;
60.6000;1.2650;1.0227;
60.9000;1.2650;1.0252;
61.2000;1.2658;1.0227;
61.5000;1.2666;1.0303;
61.8000;1.2650;1.0303;
62.1000;1.2666;1.0328;
62.4000;1.2658;1.0303;
62.7000;1.2641;1.0328;
63.0000;1.2650;1.0303;
63.3000;1.2674;1.0429;
63.6000;1.2658;1.0353;
63.9000;1.2658;1.0353;
64.2000;1.2674;1.0429;
64.5000;1.2682;1.0403;
64.8000;1.2658;1.0303;
65.1000;1.2682;1.0202;
65.4000;1.2682;1.0227;
65.7000;1.2625;1.0152;
66.0000;1.2658;1.0227;
66.3000;1.2666;1.0328;
66.6000;1.2666;1.0403;
66.9000;1.2650;1.0303;
67.2000;1.2658;1.0252;
67.5000;1.2650;1.0202;
67.8000;1.2650;1.0177;
68.1000;1.2650;1.0152;
68.4000;1.2666;1.0177;
68.7000;1.2658;1.0227;
69.0000;1.2650;1.0202;
69.3000;1.2641;1.0252;
69.6000;1.2674;1.0353;
69.9000;1.2666;1.0454;
70.2000;1.2666;1.0403;
70.5000;1.2682;1.0454;
70.8000;1.2658;1.0252;
71.1000;1.2666;1.0328;
71.4000;1.2666;1.0403;
71.7000;1.2658;1.0378;
72.0000;1.2658;1.0353;
72.3000;1.2658;1.0403;
72.6000;1.2641;1.0403;
72.9000;1.2650;1.0429;
73.2000;1.2674;1.0555;
73.5000;1.2682;1.0479;
73.8000;1.2650;1.0353;
74.1000;1.2658;1.0353;
74.4000;1.2658;1.0278;
74.7000;1.2593;1.0227;
75.0000;1.2690;1.0555;
75.3000;1.2658;1.0504;
75.6000;1.2658;1.0429;
75.9000;1.2641;1.0328;
76.2000;1.2633;1.0278;
76.5000;1.2666;1.0353;
76.8000;1.2650;1.0328;
77.1000;1.2658;1.0378;
77.4000;1.2658;1.0454;
77.7000;1.2650;1.0429;
78.0000;1.2658;1.0353;
78.3000;1.2658;1.0303;
78.6000;1.2658;1.0126;
78.9000;1.2690;1.0101;
79.2000;1.2650;1.0076;
79.5000;1.2658;1.0126;
79.8000;1.2658;1.0126;
80.1000;1.2682;1.0227;
80.4000;1.2682;1.0227;
80.7000;1.2658;1.0278;
81.0000;1.2658;1.0328;
81.3000;1.2658;1.0403;
81.6000;1.2658;1.0429;
81.9000;1.2658;1.0504;
82.2000;1.2584;1.0378;
82.5000;1.2658;1.0555;
82.8000;1.2658;1.0529;
83.1000;1.2658;1.0429;
83.4000;1.2650;1.0353;
83.7000;1.2641;1.0378;
84.0000;1.2658;1.0479;
84.3000;1.2658;1.0504;
84.6000;1.2641;1.0504;
84.9000;1.2650;1.0403;
85.2000;1.2650;1.0429;
85.5000;1.2666;1.0529;
85.8000;1.2650;1.0555;
86.1000;1.2682;1.0504;
86.4000;1.2658;1.0555;
86.7000;1.2650;1.0504;
87.0000;1.2641;1.0479;
87.3000;1.2650;1.0479;
87.6000;1.2658;1.0504;
87.9000;1.2650;1.0429;
88.2000;1.2674;1.0529;
88.5000;1.2641;1.0454;
88.8000;1.2625;1.0454;
89.1000;1.2641;1.0454;
89.4000;1.2609;1.0303;
89.7000;1.2625;1.0328;
90.0000;1.2658;1.0504;
90.3000;1.2666;1.0529;
90.6000;1.2690;1.0605;
90.9000;1.2658;1.0378;
91.2000;1.2650;1.0353;
91.5000;1.2658;1.0429;
91.8000;1.2658;1.0529;
92.1000;1.2641;1.0403;
92.4000;1.2666;1.0403;
92.7000;1.2658;1.0429;
93.0000;1.2650;1.0529;
93.3000;1.2650;1.0504;
93.6000;1.2641;1.0555;
93.9000;1.2674;1.0655;
94.2000;1.2739;1.0807;
94.5000;1.2658;1.0555;
94.8000;1.2650;1.0529;
95.1000;1.2650;1.0479;
95.4000;1.2658;1.0429;
95.7000;1.2658;1.0403;
96.0000;1.2650;1.0378;
96.3000;1.2617;1.0328;
96.6000;1.2650;1.0353;
96.9000;1.2666;1.0378;
97.2000;1.2650;1.0353;
97.5000;1.2584;1.0227;
97.8000;1.2666;1.0479;
98.1000;1.2666;1.0555;
98.4000;1.2690;1.0630;
98.7000;1.2690;1.0580;
99.0000;1.2723;1.0630;
99.3000;1.2650;1.0454;
99.6000;1.2650;1.0378;
99.9000;1.2641;1.0303;
100.2000;1.2658;1.0429;
100.5000;1.2650;1.0429;
100.8000;1.2650;1.0479;
101.1000;1.2641;1.0529;
101.4000;1.2658;1.0605;
101.7000;1.2658;1.0555;
102.0000;1.2658;1.0479;
102.3000;1.2650;1.0529;
102.6000;1.2633;1.0529;
102.9000;1.2707;1.0630;
103.2000;1.2650;1.0378;
103.5000;1.2674;1.0378;
103.8000;1.2650;1.0252;
104.1000;1.2707;1.0429;
104.4000;1.2658;1.0328;
104.7000;1.2666;1.0378;
105.0000;1.2707;1.0454;
105.3000;1.2593;1.0101;
105.6000;1.2658;1.0177;
105.9000;1.2666;1.0126;
106.2000;1.2650;1.0152;
106.5000;1.2650;1.0126;
106.8000;1.2650;1.0177;
107.1000;1.2666;1.0101;
107.4000;1.2625;1.0051;
107.7000;1.2641;1.0026;
108.0000;1.2650;1.0051;
108.3000;1.2641;1.0177;
108.6000;1.2674;1.0252;
108.9000;1.2666;1.0303;
109.2000;1.2650;1.0303;
109.5000;1.2658;1.0353;
109.8000;1.2658;1.0328;
110.1000;1.2650;1.0353;
110.4000;1.2641;1.0378;
110.7000;1.2650;1.0479;
111.0000;1.2658;1.0504;
111.3000;1.2723;1.0605;
111.6000;1.2650;1.0529;
111.9000;1.2650;1.0454;
112.2000;1.2658;1.0454;
112.5000;1.2650;1.0353;
112.8000;1.2641;1.0252;
113.1000;1.2650;1.0252;
113.4000;1.2625;1.0177;
113.7000;1.2650;1.0278;
114.0000;1.2658;1.0303;
114.3000;1.2641;1.0353;
114.6000;1.2584;1.0227;
114.9000;1.2650;1.0378;
115.2000;1.2650;1.0378;
115.5000;1.2633;1.0429;
115.8000;1.2650;1.0403;
116.1000;1.2633;1.0378;
116.4000;1.2658;1.0454;
116.7000;1.2658;1.0378;
117.0000;1.2666;1.0403;
117.3000;1.2641;1.0504;
117.6000;1.2682;1.0580;
117.9000;1.2641;1.0429;
118.2000;1.2650;1.0479;
118.5000;1.2674;1.0529;
118.8000;1.2658;1.0529;
119.1000;1.2658;1.0429;
119.4000;1.2674;1.0429;
119.7000;1.2674;1.0454;
120.0000;1.2747;1.0731;
120.3000;1.2698;1.0555;
120.6000;1.2666;1.0504;
120.9000;1.2658;1.0479;
121.2000;1.2641;1.0403;
121.5000;1.2650;1.0278;
121.8000;1.2641;1.0202;
122.1000;1.2641;1.0177;
122.4000;1.2690;1.0378;
122.7000;1.2650;1.0278;
123.0000;1.2650;1.0227;
123.3000;1.2641;1.0227;
123.6000;1.2650;1.0252;
123.9000;1.2641;1.0278;
124.2000;1.2641;1.0202;
124.5000;1.2641;1.0252;
124.8000;1.2650;1.0278;
125.1000;1.2625;1.0177;
125.4000;1.2658;1.0303;
125.7000;1.2650;1.0328;
126.0000;1.2650;1.0403;
126.3000;1.2658;1.0328;
126.6000;1.2641;1.0252;
126.9000;1.2625;1.0227;
127.2000;1.2593;1.0101;
127.5000;1.2641;1.0278;
127.8000;1.2650;1.0303;
128.1000;1.2625;1.0303;
128.4000;1.2641;1.0303;
128.7000;1.2650;1.0303;
129.0000;1.2641;1.0252;
129.3000;1.2601;1.0101;
129.6000;1.2641;1.0252;
129.9000;1.2650;1.0278;
130.2000;1.2609;1.0202;
130.5000;1.2650;1.0303;
130.8000;1.2641;1.0328;
131.1000;1.2650;1.0303;
131.4000;1.2650;1.0278;
131.7000;1.2617;1.0177;
132.0000;1.2633;1.0303;
132.3000;1.2641;1.0378;
132.6000;1.2650;1.0378;
132.9000;1.2633;1.0403;
133.2000;1.2617;1.0429;
133.5000;1.2650;1.0429;
133.8000;1.2650;1.0353;
134.1000;1.2641;1.0353;
134.4000;1.2641;1.0177;
134.7000;1.2641;1.0177;
135.0000;1.2625;1.0177;
135.3000;1.2658;1.0278;
135.6000;1.2658;1.0328;
135.9000;1.2666;1.0328;
136.2000;1.2625;1.0328;
136.5000;1.2568;1.0152;
136.8000;1.2625;1.0278;
137.1000;1.2650;1.0378;
137.4000;1.2666;1.0454;
137.7000;1.2650;1.0378;
138.0000;1.2650;1.0403;
138.3000;1.2666;1.0454;
138.6000;1.2650;1.0378;
138.9000;1.2658;1.0403;
139.2000;1.2666;1.0403;
139.5000;1.2650;1.0303;
139.8000;1.2650;1.0303;
140.1000;1.2633;1.0278;
140.4000;1.2633;1.0278;
140.7000;1.2633;1.0278;
141.0000;1.2625;1.0328;
141.3000;1.2641;1.0403;
141.6000;1.2650;1.0454;
141.9000;1.2633;1.0403;
142.2000;1.2641;1.0403;
142.5000;1.2625;1.0353;
142.8000;1.2650;1.0328;
143.1000;1.2625;1.0202;
143.4000;1.2625;1.0252;
143.7000;1.2641;1.0328;
144.0000;1.2633;1.0303;
144.3000;1.2625;1.0278;
144.6000;1.2641;1.0328;
144.9000;1.2601;1.0227;
145.2000;1.2641;1.0378;
145.5000;1.2641;1.0403;
145.8000;1.2625;1.0353;
146.1000;1.2625;1.0202;
146.4000;1.2641;1.0126;
146.7000;1.2641;1.0177;
147.0000;1.2650;1.0227;
147.3000;1.2650;1.0202;
147.6000;1.2650;1.0177;
147.9000;1.2641;1.0126;
148.2000;1.2633;1.0126;
148.5000;1.2633;1.0152;
148.8000;1.2641;1.0177;
149.1000;1.2641;1.0177;
149.4000;1.2633;1.0152;
149.7000;1.2641;1.0000;
150.0000;1.2641;1.0026;
150.3000;1.2633;1.0076;
150.6000;1.2641;1.0026;
150.9000;1.2633;1.0026;
151.2000;1.2633;1.0076;
151.5000;1.2633;1.0026;
151.8000;1.2641;1.0076;
152.1000;1.2511;0.9723;
152.4000;1.2625;0.9975;
152.7000;1.2625;1.0000;
153.0000;1.2650;1.0227;
153.3000;1.2633;1.0278;
153.6000;1.2633;1.0303;
153.9000;1.2650;1.0479;
154.2000;1.2617;1.0429;
154.5000;1.2625;1.0479;
154.8000;1.2609;1.0378;
155.1000;1.2641;1.0353;
155.4000;1.2641;1.0403;
155.7000;1.2658;1.0429;
156.0000;1.2633;1.0403;
156.3000;1.2625;1.0378;
156.6000;1.2641;1.0429;
156.9000;1.2650;1.0479;
157.2000;1.2625;1.0403;
157.5000;1.2666;1.0378;
157.8000;1.2641;1.0429;
158.1000;1.2650;1.0429;
158.4000;1.2641;1.0479;
158.7000;1.2617;1.0403;
159.0000;1.2625;1.0504;
159.3000;1.2609;1.0403;
159.6000;1.2641;1.0555;
159.9000;1.2633;1.0605;
160.2000;1.2633;1.0555;
160.5000;1.2658;1.0580;
160.8000;1.2641;1.0529;
161.1000;1.2625;1.0429;
161.4000;1.2682;1.0555;
161.7000;1.2658;1.0555;
162.0000;1.2601;1.0378;
162.3000;1.2641;1.0454;
162.6000;1.2641;1.0479;
162.9000;1.2658;1.0529;
163.2000;1.2641;1.0580;
163.5000;1.2633;1.0429;
163.8000;1.2641;1.0353;
164.1000;1.2625;1.0353;
164.4000;1.2641;1.0378;
164.7000;1.2617;1.0353;
165.0000;1.2617;1.0353;
165.3000;1.2625;1.0429;
165.6000;1.2641;1.0479;
165.9000;1.2633;1.0529;
166.2000;1.2633;1.0479;
166.5000;1.2715;1.0504;
166.8000;1.2633;1.0378;
167.1000;1.2658;1.0529;
167.4000;1.2633;1.0403;
167.7000;1.2609;1.0278;
168.0000;1.2641;1.0303;
168.3000;1.2650;1.0202;
168.6000;1.2641;1.0126;
168.9000;1.2625;1.0051;
169.2000;1.2641;1.0152;
169.5000;1.2650;1.0101;
169.8000;1.2674;1.0328;
170.1000;1.2625;1.0303;
170.4000;1.2617;1.0227;
170.7000;1.2633;1.0227;
171.0000;1.2633;1.0227;
171.3000;1.2633;1.0152;
171.6000;1.2625;1.0126;
171.9000;1.2658;1.0152;
172.2000;1.2650;1.0202;
172.5000;1.2650;1.0177;
172.8000;1.2658;1.0227;
173.1000;1.2617;1.0152;
173.4000;1.2650;1.0278;
173.7000;1.2658;1.0252;
174.0000;1.2625;1.0227;
174.3000;1.2625;1.0227;
174.6000;1.2633;1.0177;
174.9000;1.2625;1.0202;
175.2000;1.2633;1.0177;
175.5000;1.2609;1.0202;
175.8000;1.2625;1.0303;
176.1000;1.2625;1.0328;
176.4000;1.2617;1.0328;
176.7000;1.2633;1.0328;
177.0000;1.2617;1.0278;
177.3000;1.2641;1.0328;
177.6000;1.2641;1.0303;
177.9000;1.2625;1.0328;
178.2000;1.2593;1.0303;
178.5000;1.2633;1.0429;
178.8000;1.2641;1.0403;
179.1000;1.2641;1.0529;
179.4000;1.2674;1.0605;
179.7000;1.2609;1.0378;
180.0000;1.2625;1.0479;
180.3000;1.2609;1.0353;
180.6000;1.2617;1.0353;
180.9000;1.2617;1.0353;
181.2000;1.2641;1.0303;
181.5000;1.2601;1.0202;
181.8000;1.2617;1.0252;
182.1000;1.2625;1.0252;
182.4000;1.2633;1.0252;
182.7000;1.2641;1.0278;
183.0000;1.2617;1.0177;
183.3000;1.2584;1.0126;
183.6000;1.2601;1.0177;
183.9000;1.2536;0.9975;
184.2000;1.2674;1.0278;
184.5000;1.2682;1.0202;
184.8000;1.2674;1.0278;
185.1000;1.2641;1.0278;
185.4000;1.2625;1.0227;
185.7000;1.2633;1.0252;
186.0000;1.2641;1.0252;
186.3000;1.2650;1.0278;
186.6000;1.2650;1.0328;
186.9000;1.2633;1.0303;
187.2000;1.2641;1.0303;
187.5000;1.2633;1.0303;
187.8000;1.2707;1.0454;
188.1000;1.2633;1.0227;
188.4000;1.2633;1.0227;
188.7000;1.2641;1.0177;
189.0000;1.2617;1.0126;
189.3000;1.2641;1.0202;
189.6000;1.2650;1.0227;
189.9000;1.2625;1.0227;
190.2000;1.2633;1.0353;
190.5000;1.2625;1.0378;
190.8000;1.2617;1.0378;
191.1000;1.2617;1.0403;
191.4000;1.2625;1.0378;
191.7000;1.2682;1.0529;
192.0000;1.2617;1.0328;
192.3000;1.2625;1.0328;
192.6000;1.2625;1.0252;
192.9000;1.2633;1.0227;
193.2000;1.2633;1.0126;
193.5000;1.2617;1.0152;
193.8000;1.2633;1.0252;
194.1000;1.2625;1.0252;
194.4000;1.2593;1.0252;
194.7000;1.2625;1.0378;
195.0000;1.2625;1.0403;
195.3000;1.2617;1.0403;
195.6000;1.2625;1.0353;
195.9000;1.2617;1.0328;
196.2000;1.2625;1.0378;
196.5000;1.2617;1.0353;
196.8000;1.2601;1.0328;
197.1000;1.2625;1.0303;
197.4000;1.2625;1.0353;
197.7000;1.2633;1.0328;
198.0000;1.2633;1.0303;
198.3000;1.2625;1.0278;
198.6000;1.2625;1.0303;
198.9000;1.2658;1.0378;
199.2000;1.2641;1.0303;
199.5000;1.2617;1.0177;
199.8000;1.2601;1.0202;
200.1000;1.2625;1.0278;
200.4000;1.2625;1.0278;
200.7000;1.2625;1.0378;
201.0000;1.2609;1.0429;
201.3000;1.2617;1.0403;
201.6000;1.2601;1.0353;
201.9000;1.2617;1.0328;
202.2000;1.2625;1.0328;
202.5000;1.2641;1.0328;
202.8000;1.2633;1.0227;
203.1000;1.2641;1.0177;
203.4000;1.2625;1.0177;
203.7000;1.2625;1.0177;
204.0000;1.2641;1.0328;
204.3000;1.2633;1.0303;
204.6000;1.2633;1.0152;
204.9000;1.2625;1.0152;
205.2000;1.2658;1.0227;
205.5000;1.2625;1.0202;
205.8000;1.2633;1.0303;
206.1000;1.2625;1.0278;
206.4000;1.2625;1.0278;
206.7000;1.2625;1.0328;
207.0000;1.2617;1.0353;
207.3000;1.2617;1.0303;
207.6000;1.2617;1.0328;
207.9000;1.2625;1.0303;
208.2000;1.2617;1.0252;
208.5000;1.2641;1.0278;
208.8000;1.2625;1.0278;
209.1000;1.2633;1.0278;
209.4000;1.2625;1.0278;
209.7000;1.2617;1.0152;
210.0000;1.2617;1.0152;
210.3000;1.2641;1.0227;
210.6000;1.2601;1.0101;
210.9000;1.2609;1.0177;
211.2000;1.2609;1.0202;
211.5000;1.2625;1.0202;
211.8000;1.2633;1.0202;
212.1000;1.2633;1.0152;
212.4000;1.2650;1.0303;
212.7000;1.2601;1.0227;
213.0000;1.2633;1.0252;
213.3000;1.2650;1.0278;
213.6000;1.2601;1.0152;
213.9000;1.2617;1.0202;
214.2000;1.2609;1.0177;
214.5000;1.2552;0.9925;
214.8000;1.2601;1.0076;
215.1000;1.2609;1.0076;
215.4000;1.2674;1.0278;
215.7000;1.2617;1.0051;
216.0000;1.2617;1.0076;
216.3000;1.2617;1.0026;
216.6000;1.2625;1.0026;
216.9000;1.2584;0.9900;
217.2000;1.2617;0.9925;
217.5000;1.2617;0.9900;
217.8000;1.2609;0.9950;
218.1000;1.2625;1.0076;
218.4000;1.2568;0.9975;
218.7000;1.2609;1.0101;
219.0000;1.2625;1.0177;
219.3000;1.2633;1.0252;
219.6000;1.2609;1.0252;
219.9000;1.2617;1.0202;
220.2000;1.2650;1.0328;
220.5000;1.2633;1.0177;
220.8000;1.2617;1.0126;
221.1000;1.2633;1.0152;
221.4000;1.2609;1.0126;
221.7000;1.2609;1.0177;
222.0000;1.2633;1.0303;
222.3000;1.2609;1.0227;
222.6000;1.2593;1.0303;
222.9000;1.2609;1.0278;
223.2000;1.2625;1.0227;
223.5000;1.2601;1.0227;
223.8000;1.2601;1.0177;
224.1000;1.2601;1.0026;
224.4000;1.2617;1.0051;
224.7000;1.2609;1.0101;
225.0000;1.2625;1.0101;
225.3000;1.2617;1.0152;
225.6000;1.2617;1.0202;
225.9000;1.2625;1.0252;
226.2000;1.2625;1.0227;
226.5000;1.2609;1.0152;
226.8000;1.2617;1.0126;
227.1000;1.2601;1.0101;
227.4000;1.2617;1.0152;
227.7000;1.2609;1.0076;
228.0000;1.2617;1.0126;
228.3000;1.2633;1.0101;
228.6000;1.2617;1.0101;
228.9000;1.2633;1.0101;
229.2000;1.2544;0.9874;
229.5000;1.2593;0.9950;
229.8000;1.2633;1.0076;
230.1000;1.2609;0.9950;
230.4000;1.2625;1.0051;
230.7000;1.2609;1.0101;
231.0000;1.2617;1.0227;
231.3000;1.2560;1.0126;
231.6000;1.2625;1.0252;
231.9000;1.2601;1.0252;
232.2000;1.2609;1.0278;
232.5000;1.2617;1.0227;
232.8000;1.2609;1.0303;
233.1000;1.2625;1.0353;
233.4000;1.2625;1.0378;
233.7000;1.2617;1.0378;
234.0000;1.2625;1.0353;
234.3000;1.2625;1.0403;
234.6000;1.2625;1.0353;
234.9000;1.2633;1.0378;
235.2000;1.2609;1.0353;
235.5000;1.2609;1.0378;
235.8000;1.2609;1.0403;
236.1000;1.2601;1.0328;
236.4000;1.2625;1.0328;
236.7000;1.2601;1.0278;
237.0000;1.2609;1.0278;
237.3000;1.2601;1.0252;
237.6000;1.2609;1.0328;
237.9000;1.2601;1.0278;
238.2000;1.2609;1.0303;
238.5000;1.2601;1.0252;
238.8000;1.2609;1.0328;
239.1000;1.2593;1.0252;
239.4000;1.2641;1.0353;
239.7000;1.2625;1.0303;
240.0000;1.2617;1.0252;
240.3000;1.2601;1.0152;
240.6000;1.2617;1.0152;
240.9000;1.2625;1.0227;
241.2000;1.2641;1.0227;
241.5000;1.2617;1.0177;
241.8000;1.2625;1.0202;
242.1000;1.2601;1.0152;
242.4000;1.2609;1.0227;
242.7000;1.2625;1.0252;
243.0000;1.2625;1.0303;
243.3000;1.2609;1.0278;
243.6000;1.2609;1.0227;
243.9000;1.2625;1.0227;
244.2000;1.2601;1.0252;
244.5000;1.2633;1.0303;
244.8000;1.2609;1.0353;
245.1000;1.2609;1.0429;
245.4000;1.2593;1.0454;
245.7000;1.2601;1.0403;
246.0000;1.2609;1.0403;
246.3000;1.2601;1.0353;
246.6000;1.2609;1.0353;
246.9000;1.2617;1.0328;
247.2000;1.2609;1.0328;
247.5000;1.2601;1.0303;
247.8000;1.2593;1.0303;
248.1000;1.2601;1.0353;
248.4000;1.2609;1.0353;
248.7000;1.2625;1.0353;
249.0000;1.2609;1.0278;
249.3000;1.2625;1.0303;
249.6000;1.2617;1.0353;
249.9000;1.2609;1.0328;
250.2000;1.2625;1.0328;
250.5000;1.2617;1.0328;
250.8000;1.2601;1.0252;
251.1000;1.2609;1.0278;
251.4000;1.2650;1.0378;
251.7000;1.2593;1.0278;
252.0000;1.2593;1.0303;
252.3000;1.2593;1.0353;
252.6000;1.2601;1.0328;
252.9000;1.2609;1.0353;
253.2000;1.2568;1.0202;
253.5000;1.2584;1.0177;
253.8000;1.2584;1.0278;
254.1000;1.2601;1.0353;
254.4000;1.2641;1.0429;
254.7000;1.2609;1.0328;
255.0000;1.2625;1.0328;
255.3000;1.2650;1.0328;
255.6000;1.2593;1.0177;
255.9000;1.2568;1.0076;
256.2000;1.2601;1.0177;
256.5000;1.2593;1.0227;
256.8000;1.2536;1.0126;
257.1000;1.2584;1.0177;
257.4000;1.2568;1.0177;
257.7000;1.2601;1.0202;
258.0000;1.2584;1.0126;
258.3000;1.2584;1.0152;
258.6000;1.2601;1.0101;
258.9000;1.2601;1.0101;
259.2000;1.2593;1.0101;
259.5000;1.2601;1.0126;
259.8000;1.2609;1.0126;
260.1000;1.2601;1.0126;
260.4000;1.2609;1.0101;
260.7000;1.2584;1.0051;
261.0000;1.2609;1.0101;
261.3000;1.2617;1.0202;
261.6000;1.2601;1.0202;
261.9000;1.2641;1.0202;
262.2000;1.2601;1.0177;
262.5000;1.2609;1.0227;
262.8000;1.2609;1.0252;
263.1000;1.2617;1.0202;
263.4000;1.2593;1.0101;
263.7000;1.2584;1.0126;
264.0000;1.2617;1.0252;
264.3000;1.2609;1.0328;
264.6000;1.2609;1.0303;
264.9000;1.2593;1.0303;
265.2000;1.2601;1.0227;
265.5000;1.2617;1.0252;
265.8000;1.2609;1.0177;
266.1000;1.2641;1.0227;
266.4000;1.2609;1.0076;
266.7000;1.2601;1.0227;
267.0000;1.2601;1.0252;
267.3000;1.2593;1.0177;
267.6000;1.2601;1.0177;
267.9000;1.2609;1.0152;
268.2000;1.2641;1.0278;
268.5000;1.2593;1.0152;
268.8000;1.2609;1.0202;
269.1000;1.2617;1.0353;
269.4000;1.2593;1.0353;
269.7000;1.2601;1.0353;
270.0000;1.2601;1.0378;
270.3000;1.2536;1.0252;
270.6000;1.2625;1.0429;
270.9000;1.2601;1.0303;
271.2000;1.2633;1.0378;
271.5000;1.2609;1.0303;
271.8000;1.2609;1.0252;
272.1000;1.2601;1.0227;
272.4000;1.2617;1.0252;
272.7000;1.2601;1.0152;
273.0000;1.2609;1.0252;
273.3000;1.2625;1.0303;
273.6000;1.2601;1.0303;
273.9000;1.2601;1.0353;
274.2000;1.2601;1.0328;
274.5000;1.2609;1.0353;
274.8000;1.2625;1.0328;
275.1000;1.2576;1.0278;
275.4000;1.2658;1.0378;
275.7000;1.2609;1.0202;
276.0000;1.2601;1.0177;
276.3000;1.2576;1.0101;
276.6000;1.2576;1.0152;
276.9000;1.2601;1.0227;
277.2000;1.2593;1.0177;
277.5000;1.2601;1.0177;
277.8000;1.2601;1.0177;
278.1000;1.2609;1.0177;
278.4000;1.2560;1.0177;
278.7000;1.2584;1.0202;
279.0000;1.2552;1.0152;
279.3000;1.2601;1.0227;
279.6000;1.2658;1.0278;
279.9000;1.2593;1.0177;
280.2000;1.2593;1.0177;
280.5000;1.2601;1.0227;
280.8000;1.2617;1.0303;
281.1000;1.2593;1.0378;
281.4000;1.2601;1.0429;
281.7000;1.2601;1.0479;
282.0000;1.2593;1.0328;
282.3000;1.2593;1.0252;
282.6000;1.2593;1.0252;
282.9000;1.2609;1.0227;
283.2000;1.2593;1.0227;
283.5000;1.2601;1.0202;
283.8000;1.2601;1.0227;
284.1000;1.2593;1.0227;
284.4000;1.2609;1.0177;
284.7000;1.2625;1.0152;
285.0000;1.2593;0.9975;
285.3000;1.2609;1.0000;
285.6000;1.2601;0.9925;
285.9000;1.2617;0.9950;
286.2000;1.2609;0.9925;
286.5000;1.2609;0.9950;
286.8000;1.2601;0.9900;
287.1000;1.2584;0.9799;
287.4000;1.2601;1.0000;
287.7000;1.2576;1.0051;
288.0000;1.2576;1.0026;
288.3000;1.2601;1.0101;
288.6000;1.2601;1.0202;
288.9000;1.2601;1.0152;
289.2000;1.2584;1.0126;
289.5000;1.2609;1.0126;
289.8000;1.2625;1.0202;
290.1000;1.2601;1.0252;
290.4000;1.2609;1.0252;
290.7000;1.2601;1.0227;
291.0000;1.2601;1.0177;
291.3000;1.2641;1.0278;
291.6000;1.2593;1.0152;
291.9000;1.2584;1.0152;
292.2000;1.2633;1.0227;
292.5000;1.2601;1.0152;
292.8000;1.2593;1.0126;
293.1000;1.2609;1.0177;
293.4000;1.2593;1.0152;
293.7000;1.2601;1.0177;
294.0000;1.2593;1.0076;
294.3000;1.2593;1.0076;
294.6000;1.2601;1.0101;
294.9000;1.2601;1.0101;
295.2000;1.2617;1.0101;
295.5000;1.2584;1.0026;
295.8000;1.2584;1.0101;
296.1000;1.2633;1.0177;
296.4000;1.2601;1.0000;
296.7000;1.2593;0.9925;
297.0000;1.2633;1.0026;
297.3000;1.2584;0.9925;
297.6000;1.2641;1.0101;
297.9000;1.2568;0.9925;
298.2000;1.2625;1.0000;
298.5000;1.2609;1.0000;
298.8000;1.2609;0.9975;
299.1000;1.2593;1.0000;
299.4000;1.2593;1.0101;
299.7000;1.2617;1.0126;
300.0000;1.2617;1.0152;
300.3000;1.2609;1.0076;
300.6000;1.2479;0.9774;
300.9000;1.2617;1.0026;
301.2000;1.2609;1.0101;
301.5000;1.2601;1.0026;
301.8000;1.2633;1.0126;
302.1000;1.2593;1.0076;
302.4000;1.2601;1.0076;
302.7000;1.2601;1.0051;
303.0000;1.2601;1.0152;
303.3000;1.2593;1.0227;
303.6000;1.2576;1.0152;
303.9000;1.2584;1.0177;
304.2000;1.2584;1.0202;
304.5000;1.2601;1.0252;
304.8000;1.2609;1.0303;
305.1000;1.2609;1.0378;
305.4000;1.2601;1.0454;
305.7000;1.2593;1.0378;
306.0000;1.2601;1.0403;
306.3000;1.2601;1.0353;
306.6000;1.2601;1.0328;
306.9000;1.2593;1.0177;
307.2000;1.2609;1.0252;
307.5000;1.2552;1.0101;
307.8000;1.2544;1.0126;
308.1000;1.2593;1.0152;
308.4000;1.2601;1.0101;
308.7000;1.2650;1.0202;
309.0000;1.2584;1.0101;
309.3000;1.2584;1.0152;
309.6000;1.2601;1.0278;
309.9000;1.2609;1.0278;
310.2000;1.2601;1.0252;
310.5000;1.2576;1.0252;
310.8000;1.2625;1.0378;
311.1000;1.2593;1.0252;
311.4000;1.2593;1.0227;
311.7000;1.2593;1.0152;
312.0000;1.2584;1.0227;
312.3000;1.2544;1.0152;
312.6000;1.2584;1.0202;
312.9000;1.2584;1.0227;
313.2000;1.2593;1.0177;
313.5000;1.2584;1.0101;
313.8000;1.2576;1.0152;
314.1000;1.2584;1.0152;
314.4000;1.2584;1.0126;
314.7000;1.2584;1.0076;
315.0000;1.2593;1.0126;
315.3000;1.2601;1.0101;
315.6000;1.2593;1.0126;
315.9000;1.2576;1.0126;
316.2000;1.2584;1.0227;
316.5000;1.2601;1.0303;
316.8000;1.2601;1.0303;
317.1000;1.2576;1.0252;
317.4000;1.2593;1.0278;
317.7000;1.2593;1.0353;
318.0000;1.2568;1.0328;
318.3000;1.2593;1.0303;
318.6000;1.2576;1.0303;
318.9000;1.2584;1.0227;
319.2000;1.2584;1.0152;
319.5000;1.2593;1.0202;
319.8000;1.2593;1.0202;
320.1000;1.2584;1.0252;
320.4000;1.2601;1.0303;
320.7000;1.2584;1.0303;
321.0000;1.2601;1.0252;
321.3000;1.2593;1.0328;
321.6000;1.2601;1.0403;
321.9000;1.2674;1.0555;
322.2000;1.2584;1.0252;
322.5000;1.2584;1.0202;
322.8000;1.2617;1.0328;
323.1000;1.2593;1.0303;
323.4000;1.2560;1.0227;
323.7000;1.2593;1.0252;
324.0000;1.2593;1.0202;
324.3000;1.2584;1.0202;
324.6000;1.2593;1.0278;
324.9000;1.2593;1.0252;
325.2000;1.2609;1.0278;
325.5000;1.2584;1.0278;
325.8000;1.2584;1.0353;
326.1000;1.2568;1.0227;
326.4000;1.2601;1.0202;
326.7000;1.2601;1.0278;
327.0000;1.2593;1.0202;
327.3000;1.2601;1.0227;
327.6000;1.2601;1.0303;
327.9000;1.2609;1.0328;
328.2000;1.2593;1.0328;
328.5000;1.2601;1.0328;
328.8000;1.2584;1.0227;
329.1000;1.2593;1.0353;
329.4000;1.2601;1.0479;
329.7000;1.2584;1.0454;
330.0000;1.2576;1.0378;
330.3000;1.2593;1.0353;
330.6000;1.2584;1.0278;
330.9000;1.2584;1.0177;
331.2000;1.2593;1.0252;
331.5000;1.2609;1.0303;
331.8000;1.2609;1.0328;
332.1000;1.2593;1.0303;
332.4000;1.2584;1.0378;
332.7000;1.2584;1.0403;
333.0000;1.2593;1.0429;
333.3000;1.2576;1.0378;
333.6000;1.2584;1.0403;
333.9000;1.2576;1.0378;
334.2000;1.2601;1.0479;
334.5000;1.2593;1.0555;
334.8000;1.2584;1.0529;
335.1000;1.2593;1.0555;
335.4000;1.2601;1.0529;
335.7000;1.2584;1.0403;
336.0000;1.2609;1.0454;
336.3000;1.2601;1.0479;
336.6000;1.2584;1.0429;
336.9000;1.2584;1.0429;
337.2000;1.2609;1.0555;
337.5000;1.2584;1.0454;
337.8000;1.2593;1.0454;
338.1000;1.2593;1.0403;
338.4000;1.2576;1.0378;
338.7000;1.2593;1.0429;
339.0000;1.2584;1.0429;
339.3000;1.2576;1.0353;
339.6000;1.2576;1.0353;
339.9000;1.2560;1.0353;
340.2000;1.2568;1.0479;
340.5000;1.2593;1.0605;
340.8000;1.2593;1.0555;
341.1000;1.2625;1.0655;
341.4000;1.2584;1.0580;
341.7000;1.2609;1.0655;
342.0000;1.2609;1.0681;
342.3000;1.2536;1.0403;
342.6000;1.2593;1.0555;
342.9000;1.2593;1.0529;
343.2000;1.2601;1.0605;
343.5000;1.2593;1.0605;
343.8000;1.2609;1.0580;
344.1000;1.2584;1.0454;
344.4000;1.2609;1.0504;
344.7000;1.2609;1.0479;
345.0000;1.2593;1.0403;
345.3000;1.2576;1.0303;
345.6000;1.2625;1.0429;
345.9000;1.2576;1.0278;
346.2000;1.2584;1.0252;
346.5000;1.2601;1.0353;
346.8000;1.2593;1.0328;
347.1000;1.2584;1.0378;
347.4000;1.2576;1.0403;
347.7000;1.2560;1.0403;
348.0000;1.2617;1.0529;
348.3000;1.2576;1.0429;
348.6000;1.2593;1.0529;
348.9000;1.2593;1.0555;
349.2000;1.2593;1.0504;
349.5000;1.2625;1.0706;
349.8000;1.2593;1.0605;
350.1000;1.2609;1.0630;
350.4000;1.2560;1.0504;
350.7000;1.2593;1.0454;
351.0000;1.2584;1.0479;
351.3000;1.2593;1.0353;
351.6000;1.2593;1.0378;
351.9000;1.2593;1.0479;
352.2000;1.2576;1.0504;
352.5000;1.2593;1.0580;
352.8000;1.2593;1.0529;
353.1000;1.2593;1.0681;
353.4000;1.2584;1.0655;
353.7000;1.2584;1.0681;
354.0000;1.2584;1.0630;
354.3000;1.2584;1.0580;
354.6000;1.2593;1.0555;
354.9000;1.2568;1.0454;
355.2000;1.2601;1.0630;
355.5000;1.2568;1.0529;
355.8000;1.2584;1.0580;
356.1000;1.2593;1.0580;
356.4000;1.2601;1.0555;
356.7000;1.2593;1.0504;
357.0000;1.2584;1.0353;
357.3000;1.2617;1.0454;
357.6000;1.2601;1.0429;
357.9000;1.2584;1.0378;
358.2000;1.2593;1.0378;
358.5000;1.2609;1.0454;
358.8000;1.2584;1.0454;
359.1000;1.2576;1.0479;
359.4000;1.2584;1.0454;
359.7000;1.2584;1.0454;
360.0000;1.2576;1.0403;
360.3000;1.2552;1.0328;
360.6000;1.2576;1.0378;
360.9000;1.2576;1.0378;
361.2000;1.2576;1.0378;
361.5000;1.2576;1.0479;
361.8000;1.2584;1.0504;
362.1000;1.2593;1.0429;
362.4000;1.2593;1.0403;
362.7000;1.2576;1.0353;
363.0000;1.2560;1.0278;
363.3000;1.2568;1.0353;
363.6000;1.2584;1.0353;
363.9000;1.2584;1.0403;
364.2000;1.2552;1.0353;
364.5000;1.2544;1.0429;
364.8000;1.2568;1.0454;
365.1000;1.2617;1.0580;
365.4000;1.2576;1.0504;
365.7000;1.2560;1.0353;
366.0000;1.2576;1.0353;
366.3000;1.2601;1.0378;
366.6000;1.2584;1.0328;
366.9000;1.2495;1.0101;
367.2000;1.2560;1.0177;
367.5000;1.2593;1.0378;
367.8000;1.2601;1.0328;
368.1000;1.2593;1.0353;
368.4000;1.2609;1.0454;
368.7000;1.2584;1.0353;
369.0000;1.2633;1.0378;
369.3000;1.2560;1.0152;
369.6000;1.2593;1.0303;
369.9000;1.2568;1.0177;
370.2000;1.2560;1.0227;
370.5000;1.2552;1.0227;
370.8000;1.2568;1.0278;
371.1000;1.2576;1.0353;
371.4000;1.2552;1.0227;
371.7000;1.2593;1.0303;
372.0000;1.2584;1.0278;
372.3000;1.2576;1.0328;
372.6000;1.2601;1.0353;
372.9000;1.2584;1.0353;
373.2000;1.2584;1.0303;
373.5000;1.2593;1.0353;
373.8000;1.2552;1.0202;
374.1000;1.2584;1.0252;
374.4000;1.2593;1.0303;
374.7000;1.2584;1.0227;
375.0000;1.2568;1.0278;
375.3000;1.2584;1.0252;
375.6000;1.2584;1.0177;
375.9000;1.2584;1.0076;
376.2000;1.2584;1.0126;
376.5000;1.2552;1.0126;
376.8000;1.2584;1.0202;
377.1000;1.2584;1.0152;
377.4000;1.2584;1.0126;
377.7000;1.2593;1.0152;
378.0000;1.2584;1.0152;
378.3000;1.2568;1.0101;
378.6000;1.2568;1.0177;
378.9000;1.2584;1.0177;
379.2000;1.2576;1.0177;
379.5000;1.2576;1.0177;
379.8000;1.2576;1.0126;
380.1000;1.2584;1.0101;
380.4000;1.2568;1.0076;
380.7000;1.2560;1.0051;
381.0000;1.2593;1.0101;
381.3000;1.2584;1.0152;
381.6000;1.2584;1.0152;
381.9000;1.2576;1.0051;
382.2000;1.2560;0.9950;
382.5000;1.2568;1.0000;
382.8000;1.2584;1.0026;
383.1000;1.2584;1.0101;
383.4000;1.2560;1.0076;
383.7000;1.2593;1.0202;
384.0000;1.2593;1.0152;
384.3000;1.2682;1.0353;
384.6000;1.2568;1.0101;
384.9000;1.2584;1.0177;
385.2000;1.2584;1.0227;
385.5000;1.2576;1.0177;
385.8000;1.2568;1.0227;
386.1000;1.2584;1.0303;
386.4000;1.2568;1.0353;
386.7000;1.2576;1.0403;
387.0000;1.2552;1.0353;
387.3000;1.2544;1.0303;
387.6000;1.2584;1.0378;
387.9000;1.2584;1.0378;
388.2000;1.2584;1.0378;
388.5000;1.2584;1.0303;
388.8000;1.2576;1.0303;
389.1000;1.2625;1.0454;
389.4000;1.2584;1.0378;
389.7000;1.2593;1.0378;
390.0000;1.2584;1.0303;
390.3000;1.2568;1.0177;
390.6000;1.2576;1.0227;
390.9000;1.2552;1.0202;
391.2000;1.2601;1.0378;
391.5000;1.2609;1.0454;
391.8000;1.2576;1.0378;
392.1000;1.2568;1.0378;
392.4000;1.2576;1.0353;
392.7000;1.2625;1.0479;
393.0000;1.2601;1.0403;
393.3000;1.2593;1.0429;
393.6000;1.2609;1.0429;
393.9000;1.2601;1.0454;
394.2000;1.2593;1.0429;
394.5000;1.2584;1.0353;
394.8000;1.2601;1.0403;
395.1000;1.2601;1.0378;
395.4000;1.2641;1.0479;
395.7000;1.2576;1.0303;
396.0000;1.2544;1.0202;
396.3000;1.2568;1.0152;
396.6000;1.2576;1.0202;
396.9000;1.2584;1.0278;
397.2000;1.2544;1.0177;
397.5000;1.2568;1.0202;
397.8000;1.2552;1.0126;
398.1000;1.2560;1.0202;
398.4000;1.2568;1.0227;
398.7000;1.2576;1.0303;
399.0000;1.2576;1.0303;
399.3000;1.2576;1.0303;
399.6000;1.2584;1.0252;
399.9000;1.2625;1.0353;
400.2000;1.2568;1.0278;
400.5000;1.2584;1.0252;
400.8000;1.2568;1.0278;
401.1000;1.2568;1.0202;
401.4000;1.2576;1.0202;
401.7000;1.2609;1.0202;
402.0000;1.2576;1.0177;
402.3000;1.2576;1.0177;
402.6000;1.2576;1.0152;
402.9000;1.2576;1.0126;
403.2000;1.2593;1.0278;
403.5000;1.2584;1.0303;
403.8000;1.2576;1.0278;
404.1000;1.2584;1.0378;
404.4000;1.2593;1.0328;
404.7000;1.2568;1.0303;
405.0000;1.2552;1.0378;
405.3000;1.2560;1.0353;
405.6000;1.2584;1.0504;
405.9000;1.2568;1.0555;
406.2000;1.2650;1.0706;
406.5000;1.2576;1.0555;
406.8000;1.2584;1.0529;
407.1000;1.2576;1.0504;
407.4000;1.2576;1.0403;
407.7000;1.2568;1.0328;
408.0000;1.2576;1.0328;
408.3000;1.2536;1.0202;
408.6000;1.2568;1.0378;
408.9000;1.2560;1.0278;
409.2000;1.2568;1.0252;
409.5000;1.2576;1.0328;
409.8000;1.2584;1.0403;
410.1000;1.2568;1.0353;
410.4000;1.2527;1.0353;
410.7000;1.2568;1.0403;
411.0000;1.2552;1.0278;
411.3000;1.2568;1.0303;
411.6000;1.2593;1.0328;
411.9000;1.2584;1.0303;
412.2000;1.2601;1.0353;
412.5000;1.2593;1.0328;
412.8000;1.2576;1.0278;
413.1000;1.2568;1.0227;
413.4000;1.2584;1.0252;
413.7000;1.2593;1.0177;
414.0000;1.2568;1.0152;
414.3000;1.2568;1.0126;
414.6000;1.2593;1.0177;
414.9000;1.2576;1.0152;
415.2000;1.2536;1.0076;
415.5000;1.2576;1.0177;
415.8000;1.2584;1.0227;
416.1000;1.2576;1.0202;
416.4000;1.2568;1.0303;
416.7000;1.2584;1.0303;
417.0000;1.2576;1.0303;
417.3000;1.2584;1.0278;
417.6000;1.2609;1.0403;
417.9000;1.2584;1.0328;
418.2000;1.2576;1.0328;
418.5000;1.2593;1.0328;
418.8000;1.2576;1.0227;
419.1000;1.2560;1.0202;
419.4000;1.2576;1.0227;
419.7000;1.2584;1.0278;
420.0000;1.2576;1.0353;
420.3000;1.2560;1.0378;
420.6000;1.2568;1.0353;
420.9000;1.2617;1.0479;
421.2000;1.2576;1.0378;
421.5000;1.2584;1.0353;
421.8000;1.2568;1.0303;
422.1000;1.2576;1.0378;
422.4000;1.2568;1.0303;
422.7000;1.2633;1.0403;
423.0000;1.2568;1.0227;
423.3000;1.2584;1.0278;
423.6000;1.2601;1.0378;
423.9000;1.2617;1.0454;
424.2000;1.2568;1.0353;
424.5000;1.2576;1.0328;
424.8000;1.2584;1.0227;
425.1000;1.2584;1.0252;
425.4000;1.2584;1.0303;
425.7000;1.2544;1.0202;
426.0000;1.2576;1.0303;
426.3000;1.2576;1.0328;
426.6000;1.2593;1.0328;
426.9000;1.2584;1.0303;
427.2000;1.2576;1.0328;
427.5000;1.2576;1.0378;
427.8000;1.2584;1.0454;
428.1000;1.2576;1.0479;
428.4000;1.2584;1.0353;
428.7000;1.2576;1.0328;
429.0000;1.2576;1.0152;
429.3000;1.2560;1.0126;
429.6000;1.2576;1.0126;
429.9000;1.2568;1.0177;
430.2000;1.2576;1.0177;
430.5000;1.2568;1.0177;
430.8000;1.2576;1.0202;
431.1000;1.2584;1.0252;
431.4000;1.2576;1.0303;
431.7000;1.2576;1.0353;
432.0000;1.2576;1.0278;
432.3000;1.2544;1.0101;
432.6000;1.2576;1.0202;
432.9000;1.2576;1.0252;
433.2000;1.2552;1.0202;
433.5000;1.2568;1.0177;
433.8000;1.2576;1.0126;
434.1000;1.2560;1.0177;
434.4000;1.2527;1.0126;
434.7000;1.2576;1.0202;
435.0000;1.2576;1.0278;
435.3000;1.2568;1.0303;
435.6000;1.2568;1.0328;
435.9000;1.2568;1.0328;
436.2000;1.2584;1.0278;
436.5000;1.2593;1.0202;
436.8000;1.2576;1.0152;
437.1000;1.2576;1.0152;
437.4000;1.2601;1.0227;
437.7000;1.2593;1.0202;
438.0000;1.2584;1.0202;
438.3000;1.2560;1.0101;
438.6000;1.2576;1.0202;
438.9000;1.2584;1.0252;
439.2000;1.2576;1.0303;
439.5000;1.2527;1.0177;
439.8000;1.2560;1.0202;
440.1000;1.2576;1.0303;
440.4000;1.2560;1.0353;
440.7000;1.2552;1.0303;
441.0000;1.2552;1.0303;
441.3000;1.2479;1.0202;
441.6000;1.2568;1.0403;
441.9000;1.2568;1.0403;
442.2000;1.2519;1.0227;
442.5000;1.2584;1.0454;
442.8000;1.2576;1.0403;
443.1000;1.2552;1.0303;
443.4000;1.2552;1.0353;
443.7000;1.2576;1.0353;
444.0000;1.2568;1.0328;
444.3000;1.2568;1.0303;
444.6000;1.2527;1.0202;
444.9000;1.2568;1.0252;
445.2000;1.2568;1.0227;
445.5000;1.2593;1.0278;
445.8000;1.2576;1.0278;
446.1000;1.2568;1.0328;
446.4000;1.2560;1.0303;
446.7000;1.2576;1.0353;
447.0000;1.2544;1.0202;
447.3000;1.2568;1.0252;
447.6000;1.2576;1.0252;
447.9000;1.2593;1.0303;
448.2000;1.2560;1.0152;
448.5000;1.2544;1.0076;
448.8000;1.2576;1.0177;
449.1000;1.2576;1.0227;
449.4000;1.2568;1.0227;
449.7000;1.2568;1.0227;
450.0000;1.2609;1.0252;
450.3000;1.2576;1.0152;
450.6000;1.2568;1.0101;
450.9000;1.2576;1.0152;
451.2000;1.2560;1.0177;
451.5000;1.2568;1.0227;
451.8000;1.2568;1.0227;
452.1000;1.2568;1.0252;
452.4000;1.2560;1.0252;
452.7000;1.2584;1.0278;
453.0000;1.2576;1.0202;
453.3000;1.2584;1.0303;
453.6000;1.2568;1.0227;
453.9000;1.2560;1.0202;
454.2000;1.2568;1.0303;
454.5000;1.2568;1.0227;
454.8000;1.2552;1.0152;
455.1000;1.2568;1.0152;
455.4000;1.2560;1.0177;
455.7000;1.2568;1.0177;
456.0000;1.2576;1.0252;
456.3000;1.2552;1.0227;
456.6000;1.2560;1.0278;
456.9000;1.2576;1.0353;
457.2000;1.2536;1.0278;
457.5000;1.2544;1.0303;
457.8000;1.2560;1.0378;
458.1000;1.2536;1.0303;
458.4000;1.2552;1.0278;
458.7000;1.2568;1.0328;
459.0000;1.2568;1.0328;
459.3000;1.2601;1.0504;
459.6000;1.2576;1.0378;
459.9000;1.2584;1.0429;
460.2000;1.2584;1.0403;
460.5000;1.2584;1.0403;
460.8000;1.2568;1.0353;
461.1000;1.2568;1.0328;
461.4000;1.2568;1.0303;
461.7000;1.2568;1.0202;
462.0000;1.2568;1.0227;
462.3000;1.2568;1.0252;
462.6000;1.2552;1.0328;
462.9000;1.2625;1.0580;
463.2000;1.2552;1.0403;
463.5000;1.2552;1.0403;
463.8000;1.2552;1.0403;
464.1000;1.2519;1.0278;
464.4000;1.2511;1.0252;
464.7000;1.2560;1.0403;
465.0000;1.2568;1.0378;
465.3000;1.2552;1.0403;
465.6000;1.2633;1.0504;
465.9000;1.2568;1.0353;
466.2000;1.2536;1.0227;
466.5000;1.2560;1.0353;
466.8000;1.2568;1.0378;
467.1000;1.2576;1.0429;
467.4000;1.2552;1.0403;
467.7000;1.2527;1.0378;
468.0000;1.2552;1.0378;
468.3000;1.2568;1.0403;
468.6000;1.2584;1.0328;
468.9000;1.2552;1.0278;
469.2000;1.2560;1.0353;
469.5000;1.2568;1.0328;
469.8000;1.2576;1.0328;
470.1000;1.2560;1.0227;
470.4000;1.2560;1.0227;
470.7000;1.2584;1.0328;
471.0000;1.2601;1.0429;
471.3000;1.2552;1.0303;
471.6000;1.2560;1.0278;
471.9000;1.2560;1.0278;
472.2000;1.2568;1.0353;
472.5000;1.2552;1.0328;
472.8000;1.2560;1.0378;
473.1000;1.2552;1.0328;
473.4000;1.2544;1.0252;
473.7000;1.2560;1.0353;
474.0000;1.2552;1.0353;
474.3000;1.2544;1.0353;
474.6000;1.2560;1.0378;
474.9000;1.2560;1.0378;
475.2000;1.2544;1.0403;
475.5000;1.2544;1.0353;
475.8000;1.2544;1.0353;
476.1000;1.2544;1.0429;
476.4000;1.2560;1.0353;
476.7000;1.2568;1.0353;
477.0000;1.2568;1.0252;
477.3000;1.2633;1.0403;
477.6000;1.2568;1.0152;
477.9000;1.2544;1.0076;
478.2000;1.2576;1.0126;
478.5000;1.2576;1.0051;
478.8000;1.2544;1.0051;
479.1000;1.2544;1.0076;
479.4000;1.2536;1.0126;
479.7000;1.2552;1.0227;
480.0000;1.2544;1.0278;
480.3000;1.2560;1.0177;
480.6000;1.2552;1.0076;
480.9000;1.2576;1.0152;
481.2000;1.2560;1.0101;
481.5000;1.2560;1.0126;
481.8000;1.2552;1.0126;
482.1000;1.2527;1.0051;
482.4000;1.2609;1.0252;
482.7000;1.2576;1.0152;
483.0000;1.2552;1.0076;
483.3000;1.2568;1.0101;
483.6000;1.2576;1.0101;
483.9000;1.2601;1.0177;
484.2000;1.2527;0.9950;
484.5000;1.2584;1.0152;
484.8000;1.2527;1.0076;
485.1000;1.2576;1.0227;
485.4000;1.2593;1.0252;
485.7000;1.2568;1.0177;
486.0000;1.2584;1.0227;
486.3000;1.2552;1.0252;
486.6000;1.2560;1.0278;
486.9000;1.2544;1.0252;
487.2000;1.2552;1.0328;
487.5000;1.2544;1.0278;
487.8000;1.2625;1.0378;
488.1000;1.2552;1.0227;
488.4000;1.2568;1.0278;
488.7000;1.2536;1.0126;
489.0000;1.2552;1.0101;
489.3000;1.2544;1.0152;
489.6000;1.2560;1.0252;
489.9000;1.2568;1.0278;
490.2000;1.2560;1.0303;
490.5000;1.2552;1.0278;
490.8000;1.2527;1.0252;
491.1000;1.2560;1.0328;
491.4000;1.2560;1.0303;
491.7000;1.2560;1.0403;
492.0000;1.2560;1.0429;
492.3000;1.2552;1.0454;
492.6000;1.2593;1.0504;
492.9000;1.2568;1.0429;
493.2000;1.2568;1.0353;
493.5000;1.2568;1.0353;
493.8000;1.2560;1.0403;
494.1000;1.2560;1.0403;
494.4000;1.2544;1.0479;
494.7000;1.2568;1.0479;
495.0000;1.2601;1.0580;
495.3000;1.2560;1.0605;
495.6000;1.2552;1.0605;
495.9000;1.2584;1.0781;
496.2000;1.2560;1.0756;
496.5000;1.2544;1.0655;
496.8000;1.2568;1.0781;
497.1000;1.2527;1.0731;
497.4000;1.2560;1.0681;
497.7000;1.2568;1.0630;
498.0000;1.2544;1.0555;
498.3000;1.2568;1.0630;
498.6000;1.2568;1.0655;
498.9000;1.2568;1.0681;
499.2000;1.2560;1.0630;
499.5000;1.2519;1.0529;
499.8000;1.2576;1.0655;
500.1000;1.2560;1.0605;
500.4000;1.2536;1.0504;
500.7000;1.2552;1.0403;
501.0000;1.2552;1.0353;
501.3000;1.2527;1.0177;
501.6000;1.2552;1.0227;
501.9000;1.2519;1.0051;
502.2000;1.2527;1.0126;
502.5000;1.2495;0.9975;
502.8000;1.2536;1.0076;
503.1000;1.2552;1.0152;
503.4000;1.2552;1.0101;
503.7000;1.2560;1.0076;
504.0000;1.2544;1.0101;
504.3000;1.2625;1.0252;
504.6000;1.2544;1.0051;
504.9000;1.2544;1.0076;
505.2000;1.2560;1.0051;
505.5000;1.2576;1.0076;
505.8000;1.2552;1.0026;
506.1000;1.2568;1.0126;
506.4000;1.2576;1.0227;
506.7000;1.2568;1.0278;
507.0000;1.2568;1.0278;
507.3000;1.2552;1.0227;
507.6000;1.2552;1.0303;
507.9000;1.2568;1.0328;
508.2000;1.2552;1.0328;
508.5000;1.2584;1.0454;
508.8000;1.2560;1.0378;
509.1000;1.2552;1.0353;
509.4000;1.2576;1.0378;
509.7000;1.2560;1.0328;
510.0000;1.2552;1.0353;
510.3000;1.2568;1.0378;
510.6000;1.2568;1.0454;
510.9000;1.2544;1.0328;
511.2000;1.2560;1.0429;
511.5000;1.2552;1.0504;
511.8000;1.2560;1.0504;
512.1000;1.2552;1.0479;
512.4000;1.2544;1.0504;
512.7000;1.2601;1.0655;
513.0000;1.2552;1.0529;
513.3000;1.2560;1.0529;
513.6000;1.2503;1.0328;
513.9000;1.2552;1.0378;
514.2000;1.2552;1.0303;
514.5000;1.2568;1.0353;
514.8000;1.2536;1.0353;
515.1000;1.2552;1.0403;
515.4000;1.2560;1.0328;
515.7000;1.2584;1.0353;
516.0000;1.2536;1.0252;
516.3000;1.2544;1.0278;
516.6000;1.2568;1.0278;
516.9000;1.2568;1.0403;
517.2000;1.2568;1.0479;
517.5000;1.2503;1.0378;
517.8000;1.2560;1.0479;
518.1000;1.2552;1.0454;
518.4000;1.2560;1.0378;
518.7000;1.2527;1.0303;
519.0000;1.2560;1.0378;
519.3000;1.2568;1.0353;
519.6000;1.2568;1.0353;
519.9000;1.2552;1.0378;
520.2000;1.2544;1.0378;
520.5000;1.2568;1.0403;
520.8000;1.2552;1.0353;
521.1000;1.2601;1.0403;
521.4000;1.2568;1.0353;
521.7000;1.2576;1.0328;
522.0000;1.2568;1.0303;
522.3000;1.2568;1.0429;
522.6000;1.2560;1.0378;
522.9000;1.2552;1.0378;
523.2000;1.2560;1.0353;
523.5000;1.2527;1.0328;
523.8000;1.2536;1.0227;
524.1000;1.2527;1.0227;
524.4000;1.2536;1.0202;
524.7000;1.2552;1.0278;
525.0000;1.2536;1.0353;
525.3000;1.2552;1.0429;
525.6000;1.2560;1.0479;
525.9000;1.2560;1.0529;
526.2000;1.2560;1.0479;
526.5000;1.2552;1.0504;
526.8000;1.2560;1.0504;
527.1000;1.2552;1.0403;
527.4000;1.2560;1.0353;
527.7000;1.2544;1.0278;
528.0000;1.2544;1.0328;
528.3000;1.2560;1.0278;
528.6000;1.2544;1.0152;
528.9000;1.2552;1.0126;
529.2000;1.2552;1.0101;
529.5000;1.2568;1.0076;
529.8000;1.2552;1.0076;
530.1000;1.2552;1.0076;
530.4000;1.2601;1.0303;
530.7000;1.2560;1.0252;
531.0000;1.2560;1.0328;
531.3000;1.2544;1.0252;
531.6000;1.2544;1.0227;
531.9000;1.2617;1.0353;
532.2000;1.2568;1.0278;
532.5000;1.2552;1.0378;
532.8000;1.2536;1.0353;
533.1000;1.2552;1.0353;
533.4000;1.2560;1.0378;
533.7000;1.2568;1.0504;
534.0000;1.2536;1.0479;
534.3000;1.2568;1.0580;
534.6000;1.2552;1.0555;
534.9000;1.2552;1.0580;
535.2000;1.2552;1.0479;
535.5000;1.2544;1.0429;
535.8000;1.2544;1.0454;
536.1000;1.2544;1.0479;
536.4000;1.2544;1.0479;
536.7000;1.2552;1.0529;
537.0000;1.2560;1.0529;
537.3000;1.2536;1.0529;
537.6000;1.2544;1.0504;
537.9000;1.2527;1.0555;
538.2000;1.2552;1.0605;
538.5000;1.2544;1.0580;
538.8000;1.2609;1.0681;
539.1000;1.2462;1.0353;
539.4000;1.2536;1.0580;
539.7000;1.2544;1.0605;
540.0000;1.2576;1.0731;
540.3000;1.2536;1.0605;
540.6000;1.2560;1.0681;
540.9000;1.2544;1.0655;
541.2000;1.2560;1.0655;
541.5000;1.2527;1.0605;
541.8000;1.2536;1.0580;
542.1000;1.2544;1.0504;
542.4000;1.2552;1.0504;
542.7000;1.2487;1.0378;
543.0000;1.2487;1.0429;
543.3000;1.2527;1.0555;
543.6000;1.2536;1.0479;
543.9000;1.2584;1.0580;
544.2000;1.2552;1.0479;
544.5000;1.2552;1.0454;
544.8000;1.2495;1.0328;
545.1000;1.2552;1.0479;
545.4000;1.2527;1.0504;
545.7000;1.2519;1.0479;
546.0000;1.2593;1.0605;
546.3000;1.2536;1.0353;
546.6000;1.2552;1.0227;
546.9000;1.2536;1.0177;
547.2000;1.2536;1.0227;
547.5000;1.2568;1.0278;
547.8000;1.2544;1.0202;
548.1000;1.2617;1.0278;
548.4000;1.2552;1.0051;
548.7000;1.2552;1.0126;
549.0000;1.2576;1.0152;
549.3000;1.2536;1.0101;
549.6000;1.2536;1.0202;
549.9000;1.2487;1.0126;
550.2000;1.2544;1.0278;
550.5000;1.2503;1.0278;
550.8000;1.2536;1.0353;
551.1000;1.2552;1.0504;
551.4000;1.2544;1.0555;
551.7000;1.2536;1.0429;
552.0000;1.2536;1.0479;
552.3000;1.2544;1.0479;
552.6000;1.2536;1.0479;
552.9000;1.2519;1.0479;
553.2000;1.2544;1.0504;
553.5000;1.2544;1.0454;
553.8000;1.2527;1.0504;
554.1000;1.2544;1.0403;
554.4000;1.2511;1.0353;
554.7000;1.2552;1.0429;
555.0000;1.2560;1.0429;
555.3000;1.2552;1.0429;
555.6000;1.2527;1.0353;
555.9000;1.2560;1.0403;
556.2000;1.2511;1.0353;
556.5000;1.2536;1.0429;
556.8000;1.2527;1.0278;
557.1000;1.2552;1.0353;
557.4000;1.2527;1.0303;
557.7000;1.2544;1.0353;
558.0000;1.2544;1.0378;
558.3000;1.2568;1.0353;
558.6000;1.2552;1.0177;
558.9000;1.2568;1.0353;
559.2000;1.2544;1.0353;
559.5000;1.2560;1.0403;
559.8000;1.2495;1.0303;
560.1000;1.2527;1.0378;
560.4000;1.2536;1.0454;
560.7000;1.2446;1.0152;
561.0000;1.2527;1.0303;
561.3000;1.2536;1.0328;
561.6000;1.2552;1.0353;
561.9000;1.2536;1.0303;
562.2000;1.2527;1.0353;
562.5000;1.2527;1.0328;
562.8000;1.2527;1.0278;
563.1000;1.2536;1.0353;
563.4000;1.2544;1.0328;
563.7000;1.2536;1.0278;
564.0000;1.2552;1.0429;
564.3000;1.2544;1.0403;
564.6000;1.2544;1.0353;
564.9000;1.2536;1.0303;
565.2000;1.2544;1.0278;
565.5000;1.2552;1.0252;
565.8000;1.2544;1.0177;
566.1000;1.2560;1.0303;
566.4000;1.2568;1.0202;
566.7000;1.2568;1.0202;
567.0000;1.2552;1.0152;
567.3000;1.2527;1.0101;
567.6000;1.2560;1.0202;
567.9000;1.2552;1.0177;
568.2000;1.2544;1.0101;
568.5000;1.2536;1.0051;
568.8000;1.2511;1.0051;
569.1000;1.2544;1.0152;
569.4000;1.2544;1.0101;
569.7000;1.2536;1.0051;
570.0000;1.2536;1.0101;
570.3000;1.2536;1.0126;
570.6000;1.2527;1.0152;
570.9000;1.2536;1.0202;
571.2000;1.2568;1.0278;
571.5000;1.2527;1.0177;
571.8000;1.2552;1.0126;
572.1000;1.2536;1.0227;
572.4000;1.2503;1.0152;
572.7000;1.2536;1.0252;
573.0000;1.2536;1.0177;
573.3000;1.2552;1.0202;
573.6000;1.2536;1.0227;
573.9000;1.2527;1.0252;
574.2000;1.2511;1.0252;
574.5000;1.2560;1.0278;
574.8000;1.2527;1.0152;
575.1000;1.2536;1.0101;
575.4000;1.2519;1.0051;
575.7000;1.2527;1.0126;
576.0000;1.2560;1.0252;
576.3000;1.2552;1.0202;
576.6000;1.2568;1.0303;
576.9000;1.2625;1.0454;
577.2000;1.2503;1.0202;
577.5000;1.2536;1.0252;
577.8000;1.2544;1.0152;
578.1000;1.2536;1.0126;
578.4000;1.2560;1.0202;
578.7000;1.2527;1.0152;
579.0000;1.2544;1.0076;
579.3000;1.2584;1.0152;
579.6000;1.2601;1.0227;
579.9000;1.2552;1.0126;
580.2000;1.2536;1.0177;
580.5000;1.2527;1.0126;
580.8000;1.2495;1.0000;
581.1000;1.2527;1.0177;
581.4000;1.2479;1.0051;
581.7000;1.2527;1.0126;
582.0000;1.2536;1.0152;
582.3000;1.2601;1.0278;
582.6000;1.2544;1.0177;
582.9000;1.2560;1.0227;
583.2000;1.2544;1.0177;
583.5000;1.2536;1.0177;
583.8000;1.2519;1.0126;
584.1000;1.2527;1.0202;
584.4000;1.2527;1.0177;
584.7000;1.2519;1.0177;
585.0000;1.2527;1.0177;
585.3000;1.2519;1.0177;
585.6000;1.2519;1.0177;
585.9000;1.2560;1.0328;
586.2000;1.2527;1.0227;
586.5000;1.2552;1.0252;
586.8000;1.2544;1.0278;
587.1000;1.2544;1.0353;
587.4000;1.2552;1.0378;
587.7000;1.2601;1.0580;
588.0000;1.2536;1.0555;
588.3000;1.2527;1.0605;
588.6000;1.2536;1.0504;
588.9000;1.2536;1.0504;
589.2000;1.2544;1.0504;
589.5000;1.2536;1.0479;
589.8000;1.2519;1.0504;
590.1000;1.2462;1.0252;
590.4000;1.2536;1.0378;
590.7000;1.2576;1.0454;
591.0000;1.2536;1.0328;
591.3000;1.2511;1.0328;
591.6000;1.2511;1.0303;
591.9000;1.2511;1.0227;
592.2000;1.2527;1.0227;
592.5000;1.2536;1.0252;
592.8000;1.2511;1.0252;
593.1000;1.2536;1.0328;
593.4000;1.2544;1.0328;
593.7000;1.2527;1.0252;
594.0000;1.2536;1.0278;
594.3000;1.2552;1.0252;
594.6000;1.2560;1.0353;
594.9000;1.2552;1.0353;
595.2000;1.2568;1.0403;
595.5000;1.2536;1.0353;
595.8000;1.2527;1.0252;
596.1000;1.2568;1.0328;
596.4000;1.2519;1.0303;
596.7000;1.2527;1.0202;
597.0000;1.2536;1.0202;
597.3000;1.2544;1.0101;
597.6000;1.2552;1.0076;
597.9000;1.2560;1.0126;
598.2000;1.2503;1.0177;
598.5000;1.2536;1.0303;
598.8000;1.2519;1.0403;
599.1000;1.2536;1.0378;
599.4000;1.2527;1.0328;
599.7000;1.2560;1.0328;
600.0000;1.2527;1.0303;
600.3000;1.2536;1.0076;
600.6000;1.2527;0.9874;
600.9000;1.2479;0.9648;
601.2000;1.2381;0.9497;
601.5000;1.2267;0.9371;
601.8000;1.2169;0.9220;
602.1000;1.2047;0.8968;
602.4000;1.1950;0.8816;
602.7000;1.1860;0.8691;
603.0000;1.1762;0.8590;
603.3000;1.1681;0.8489;
603.6000;1.1559;0.8338;
603.9000;1.1502;0.8313;
604.2000;1.1420;0.8237;
604.5000;1.1331;0.8036;
604.8000;1.1266;0.8036;
605.1000;1.1184;0.7960;
605.4000;1.1119;0.7960;
605.7000;1.1062;0.7910;
606.0000;1.0989;0.7859;
606.3000;1.0924;0.7784;
606.6000;1.0859;0.7683;
606.9000;1.0818;0.7658;
607.2000;1.0761;0.7708;
607.5000;1.0704;0.7633;
607.8000;1.0639;0.7633;
608.1000;1.0598;0.7633;
608.4000;1.0566;0.7633;
608.7000;1.0492;0.7582;
609.0000;1.0452;0.7557;
609.3000;1.0419;0.7557;
609.6000;1.0354;0.7532;
609.9000;1.0313;0.7557;
610.2000;1.0281;0.7532;
610.5000;1.0216;0.7406;
610.8000;1.0175;0.7381;
611.1000;1.0134;0.7355;
611.4000;1.0085;0.7330;
611.7000;1.0061;0.7230;
612.0000;1.0004;0.7280;
612.3000;0.9988;0.7305;
612.6000;0.9923;0.7129;
612.9000;0.9906;0.7179;
613.2000;0.9890;0.7154;
613.5000;0.9841;0.7129;
613.8000;0.9801;0.7078;
614.1000;0.9776;0.7129;
614.4000;0.9719;0.7154;
614.7000;0.9678;0.7104;
615.0000;0.9654;0.7129;
615.3000;0.9646;0.7129;
615.6000;0.9597;0.7129;
615.9000;0.9581;0.7078;
616.2000;0.9532;0.7053;
616.5000;0.9491;0.6952;
616.8000;0.9491;0.7003;
617.1000;0.9459;0.7003;
617.4000;0.9426;0.6952;
617.7000;0.9385;0.6927;
618.0000;0.9369;0.6952;
618.3000;0.9345;0.6952;
618.6000;0.9320;0.6927;
618.9000;0.9312;0.7003;
619.2000;0.9247;0.6952;
619.5000;0.9158;0.6852;
619.8000;0.9166;0.6902;
620.1000;0.9255;0.7154;
620.4000;0.9141;0.6826;
620.7000;0.9166;0.6952;
621.0000;0.9084;0.6927;
621.3000;0.9092;0.6927;
621.6000;0.9035;0.6826;
621.9000;0.9019;0.6675;
622.2000;0.9003;0.6751;
622.5000;0.8995;0.6801;
622.8000;0.8970;0.6751;
623.1000;0.8938;0.6726;
623.4000;0.8913;0.6650;
623.7000;0.8921;0.6701;
624.0000;0.8905;0.6675;
624.3000;0.8873;0.6650;
624.6000;0.8799;0.6449;
624.9000;0.8824;0.6675;
625.2000;0.8816;0.6726;
625.5000;0.8783;0.6650;
625.8000;0.8751;0.6549;
626.1000;0.8759;0.6625;
626.4000;0.8726;0.6575;
626.7000;0.8694;0.6499;
627.0000;0.8702;0.6499;
627.3000;0.8685;0.6423;
627.6000;0.8669;0.6423;
627.9000;0.8653;0.6323;
628.2000;0.8628;0.6323;
628.5000;0.8620;0.6297;
628.8000;0.8604;0.6398;
629.1000;0.8555;0.6398;
629.4000;0.8563;0.6474;
629.7000;0.8539;0.6499;
630.0000;0.8531;0.6575;
630.3000;0.8514;0.6600;
630.6000;0.8531;0.6625;
630.9000;0.8490;0.6600;
631.2000;0.8466;0.6575;
631.5000;0.8457;0.6575;
631.8000;0.8482;0.6751;
632.1000;0.8392;0.6474;
632.4000;0.8417;0.6398;
632.7000;0.8392;0.6373;
633.0000;0.8417;0.6423;
633.3000;0.8368;0.6549;
633.6000;0.8376;0.6499;
633.9000;0.8335;0.6398;
634.2000;0.8335;0.6348;
634.5000;0.8335;0.6373;
634.8000;0.8303;0.6348;
635.1000;0.8238;0.6172;
635.4000;0.8262;0.6272;
635.7000;0.8213;0.6146;
636.0000;0.8205;0.6272;
636.3000;0.8230;0.6423;
636.6000;0.8270;0.6600;
636.9000;0.8221;0.6449;
637.2000;0.8213;0.6524;
637.5000;0.8197;0.6549;
637.8000;0.8173;0.6499;
638.1000;0.8246;0.6701;
638.4000;0.8148;0.6373;
638.7000;0.8148;0.6348;
639.0000;0.8140;0.6423;
639.3000;0.8124;0.6449;
639.6000;0.8116;0.6423;
639.9000;0.8124;0.6449;
640.2000;0.8116;0.6499;
640.5000;0.8091;0.6449;
640.8000;0.8091;0.6499;
641.1000;0.8059;0.6474;
641.4000;0.7993;0.6373;
641.7000;0.8026;0.6524;
642.0000;0.8026;0.6600;
642.3000;0.8010;0.6625;
642.6000;0.8010;0.6499;
642.9000;0.8002;0.6449;
643.2000;0.7928;0.6297;
643.5000;0.7961;0.6398;
643.8000;0.7969;0.6524;
644.1000;0.7953;0.6499;
644.4000;0.7969;0.6575;
644.7000;0.7961;0.6575;
645.0000;0.7928;0.6524;
645.3000;0.7928;0.6575;
645.6000;0.7937;0.6575;
645.9000;0.7912;0.6474;
646.2000;0.7896;0.6524;
646.5000;0.7896;0.6549;
646.8000;0.7880;0.6625;
647.1000;0.7888;0.6650;
647.4000;0.7871;0.6625;
647.7000;0.7855;0.6600;
648.0000;0.7823;0.6524;
648.3000;0.7839;0.6549;
648.6000;0.7896;0.6726;
648.9000;0.7814;0.6549;
649.2000;0.7823;0.6524;
649.5000;0.7806;0.6524;
649.8000;0.7814;0.6549;
650.1000;0.7806;0.6398;
650.4000;0.7774;0.6373;
650.7000;0.7790;0.6423;
651.0000;0.7782;0.6348;
651.3000;0.7749;0.6247;
651.6000;0.7741;0.6247;
651.9000;0.7757;0.6348;
652.2000;0.7733;0.6297;
652.5000;0.7717;0.6297;
652.8000;0.7725;0.6297;
653.1000;0.7709;0.6297;
653.4000;0.7709;0.6297;
653.7000;0.7700;0.6272;
654.0000;0.7700;0.6297;
654.3000;0.7700;0.6297;
654.6000;0.7668;0.6323;
654.9000;0.7676;0.6423;
655.2000;0.7643;0.6373;
655.5000;0.7652;0.6323;
655.8000;0.7652;0.6323;
656.1000;0.7660;0.6323;
656.4000;0.7627;0.6197;
656.7000;0.7627;0.6272;
657.0000;0.7627;0.6247;
657.3000;0.7627;0.6323;
657.6000;0.7611;0.6297;
657.9000;0.7603;0.6222;
658.2000;0.7603;0.6297;
658.5000;0.7595;0.6247;
658.8000;0.7603;0.6272;
659.1000;0.7554;0.6247;
659.4000;0.7586;0.6197;
659.7000;0.7578;0.6172;
660.0000;0.7619;0.6373;
660.3000;0.7554;0.6272;
660.6000;0.7562;0.6297;
660.9000;0.7586;0.6423;
661.2000;0.7546;0.6323;
661.5000;0.7538;0.6247;
661.8000;0.7538;0.6323;
662.1000;0.7521;0.6423;
662.4000;0.7489;0.6398;
662.7000;0.7521;0.6524;
663.0000;0.7489;0.6575;
663.3000;0.7481;0.6549;
663.6000;0.7497;0.6575;
663.9000;0.7497;0.6549;
664.2000;0.7489;0.6524;
664.5000;0.7464;0.6423;
664.8000;0.7505;0.6524;
665.1000;0.7481;0.6524;
665.4000;0.7497;0.6524;
665.7000;0.7473;0.6423;
666.0000;0.7464;0.6449;
666.3000;0.7473;0.6499;
666.6000;0.7440;0.6449;
666.9000;0.7432;0.6499;
667.2000;0.7448;0.6549;
667.5000;0.7448;0.6499;
667.8000;0.7399;0.6373;
668.1000;0.7416;0.6499;
668.4000;0.7407;0.6549;
668.7000;0.7416;0.6524;
669.0000;0.7399;0.6423;
669.3000;0.7399;0.6449;
669.6000;0.7383;0.6499;
669.9000;0.7383;0.6499;
670.2000;0.7359;0.6449;
670.5000;0.7383;0.6474;
670.8000;0.7375;0.6449;
671.1000;0.7391;0.6524;
671.4000;0.7375;0.6474;
671.7000;0.7350;0.6323;
672.0000;0.7367;0.6323;
672.3000;0.7359;0.6348;
672.6000;0.7359;0.6323;
672.9000;0.7285;0.6222;
673.2000;0.7342;0.6323;
673.5000;0.7310;0.6247;
673.8000;0.7326;0.6272;
674.1000;0.7334;0.6222;
674.4000;0.7326;0.6222;
674.7000;0.7342;0.6272;
675.0000;0.7334;0.6297;
675.3000;0.7310;0.6272;
675.6000;0.7318;0.6247;
675.9000;0.7277;0.6172;
676.2000;0.7310;0.6323;
676.5000;0.7310;0.6348;
676.8000;0.7277;0.6373;
677.1000;0.7293;0.6398;
677.4000;0.7236;0.6297;
677.7000;0.7285;0.6323;
678.0000;0.7302;0.6423;
678.3000;0.7277;0.6373;
678.6000;0.7212;0.6297;
678.9000;0.7245;0.6449;
679.2000;0.7253;0.6449;
679.5000;0.7269;0.6474;
679.8000;0.7253;0.6549;
680.1000;0.7253;0.6600;
680.4000;0.7326;0.6826;
680.7000;0.7245;0.6423;
681.0000;0.7220;0.6323;
681.3000;0.7204;0.6222;
681.6000;0.7236;0.6272;
681.9000;0.7220;0.6272;
682.2000;0.7277;0.6474;
682.5000;0.7236;0.6423;
682.8000;0.7220;0.6423;
683.1000;0.7204;0.6348;
683.4000;0.7204;0.6247;
683.7000;0.7204;0.6272;
684.0000;0.7188;0.6247;
684.3000;0.7204;0.6348;
684.6000;0.7196;0.6272;
684.9000;0.7204;0.6272;
685.2000;0.7204;0.6172;
685.5000;0.7179;0.6146;
685.8000;0.7155;0.6121;
686.1000;0.7179;0.6297;
686.4000;0.7196;0.6323;
686.7000;0.7171;0.6247;
687.0000;0.7196;0.6272;
687.3000;0.7204;0.6247;
687.6000;0.7188;0.6247;
687.9000;0.7171;0.6197;
688.2000;0.7163;0.6046;
688.5000;0.7131;0.5995;
688.8000;0.7147;0.6121;
689.1000;0.7131;0.6121;
689.4000;0.7074;0.5945;
689.7000;0.7139;0.6046;
690.0000;0.7139;0.6046;
690.3000;0.7090;0.5894;
690.6000;0.7139;0.6020;
690.9000;0.7131;0.5995;
691.2000;0.7139;0.6197;
691.5000;0.7147;0.6146;
691.8000;0.7131;0.6121;
692.1000;0.7114;0.6096;
692.4000;0.7155;0.6146;
692.7000;0.7114;0.6172;
693.0000;0.7139;0.6272;
693.3000;0.7106;0.6146;
693.6000;0.7106;0.6172;
693.9000;0.7147;0.6272;
694.2000;0.7179;0.6398;
694.5000;0.7106;0.6172;
694.8000;0.7098;0.6146;
695.1000;0.7090;0.6096;
695.4000;0.7114;0.6172;
695.7000;0.7098;0.6121;
696.0000;0.7106;0.6046;
696.3000;0.7090;0.6046;
696.6000;0.7066;0.6020;
696.9000;0.7074;0.6071;
697.2000;0.7090;0.6071;
697.5000;0.7066;0.6096;
697.8000;0.7066;0.6046;
698.1000;0.7074;0.6071;
698.4000;0.7049;0.5995;
698.7000;0.7049;0.6071;
699.0000;0.7057;0.6071;
699.3000;0.7066;0.6096;
699.6000;0.7066;0.6172;
699.9000;0.7041;0.6121;
700.2000;0.7057;0.6247;
700.5000;0.7049;0.6146;
700.8000;0.7049;0.6197;
701.1000;0.6984;0.6020;
701.4000;0.7049;0.6121;
701.7000;0.7041;0.6146;
702.0000;0.7033;0.6071;
702.3000;0.7025;0.5995;
702.6000;0.7090;0.6096;
702.9000;0.7041;0.6020;
703.2000;0.7090;0.6146;
703.5000;0.6968;0.5970;
703.8000;0.7017;0.6096;
704.1000;0.7025;0.6121;
704.4000;0.7000;0.6071;
704.7000;0.7017;0.6172;
705.0000;0.6984;0.6121;
705.3000;0.7009;0.6096;
705.6000;0.7009;0.6121;
705.9000;0.7009;0.6096;
706.2000;0.7000;0.6197;
706.5000;0.7000;0.6222;
706.8000;0.7000;0.6297;
707.1000;0.6992;0.6197;
707.4000;0.7025;0.6247;
707.7000;0.7009;0.6373;
708.0000;0.6984;0.6373;
708.3000;0.6976;0.6348;
708.6000;0.6960;0.6348;
708.9000;0.6968;0.6373;
709.2000;0.6968;0.6323;
709.5000;0.6976;0.6348;
709.8000;0.6968;0.6297;
710.1000;0.6992;0.6373;
710.4000;0.6968;0.6373;
710.7000;0.6976;0.6449;
711.0000;0.6976;0.6373;
711.3000;0.6903;0.6146;
711.6000;0.6943;0.6297;
711.9000;0.6976;0.6373;
712.2000;0.6911;0.6272;
712.5000;0.6952;0.6348;
712.8000;0.6935;0.6272;
713.1000;0.6935;0.6197;
713.4000;0.6943;0.6096;
713.7000;0.6935;0.6121;
714.0000;0.6927;0.6146;
714.3000;0.6960;0.6247;
714.6000;0.6935;0.6222;
714.9000;0.6935;0.6247;
715.2000;0.6976;0.6423;
715.5000;0.6911;0.6323;
715.8000;0.6927;0.6373;
716.1000;0.6919;0.6297;
716.4000;0.6927;0.6398;
716.7000;0.6903;0.6499;
717.0000;0.6927;0.6499;
717.3000;0.6935;0.6449;
717.6000;0.6919;0.6423;
717.9000;0.6911;0.6449;
718.2000;0.6903;0.6449;
718.5000;0.6895;0.6373;
718.8000;0.6911;0.6423;
719.1000;0.6903;0.6449;
719.4000;0.6919;0.6449;
719.7000;0.6927;0.6323;
720.0000;0.6895;0.6222;
720.3000;0.6903;0.6172;
720.6000;0.6911;0.6323;
720.9000;0.7000;0.6549;
721.2000;0.6903;0.6348;
721.5000;0.6952;0.6524;
721.8000;0.6911;0.6474;
722.1000;0.6903;0.6524;
722.4000;0.6895;0.6474;
722.7000;0.6903;0.6600;
723.0000;0.6878;0.6524;
723.3000;0.6886;0.6549;
723.6000;0.6870;0.6449;
723.9000;0.6886;0.6549;
724.2000;0.6886;0.6449;
724.5000;0.6878;0.6449;
724.8000;0.6886;0.6348;
725.1000;0.6878;0.6297;
725.4000;0.6895;0.6373;
725.7000;0.6895;0.6423;
726.0000;0.6895;0.6398;
726.3000;0.6870;0.6373;
726.6000;0.6878;0.6524;
726.9000;0.6862;0.6549;
727.2000;0.6805;0.6423;
727.5000;0.6854;0.6575;
727.8000;0.6854;0.6575;
728.1000;0.6846;0.6524;
728.4000;0.6862;0.6575;
728.7000;0.6821;0.6524;
729.0000;0.6862;0.6575;
729.3000;0.6829;0.6499;
729.6000;0.6821;0.6524;
729.9000;0.6854;0.6575;
730.2000;0.6846;0.6575;
730.5000;0.6846;0.6549;
730.8000;0.6854;0.6499;
731.1000;0.6862;0.6499;
731.4000;0.6854;0.6499;
731.7000;0.6846;0.6524;
732.0000;0.6838;0.6549;
732.3000;0.6829;0.6625;
732.6000;0.6829;0.6600;
732.9000;0.6821;0.6575;
733.2000;0.6805;0.6423;
733.5000;0.6829;0.6398;
733.8000;0.6878;0.6524;
734.1000;0.6821;0.6449;
734.4000;0.6829;0.6524;
734.7000;0.6813;0.6549;
735.0000;0.6829;0.6549;
735.3000;0.6797;0.6398;
735.6000;0.6821;0.6474;
735.9000;0.6797;0.6423;
736.2000;0.6821;0.6373;
736.5000;0.6821;0.6423;
736.8000;0.6813;0.6423;
737.1000;0.6821;0.6499;
737.4000;0.6821;0.6499;
737.7000;0.6821;0.6575;
738.0000;0.6797;0.6474;
738.3000;0.6781;0.6449;
738.6000;0.6805;0.6423;
738.9000;0.6805;0.6348;
739.2000;0.6789;0.6373;
739.5000;0.6797;0.6398;
739.8000;0.6797;0.6423;
740.1000;0.6805;0.6499;
740.4000;0.6797;0.6600;
740.7000;0.6797;0.6650;
741.0000;0.6789;0.6675;
741.3000;0.6805;0.6701;
741.6000;0.6821;0.6751;
741.9000;0.6789;0.6650;
742.2000;0.6764;0.6625;
742.5000;0.6781;0.6575;
742.8000;0.6764;0.6600;
743.1000;0.6781;0.6650;
743.4000;0.6813;0.6675;
743.7000;0.6781;0.6524;
744.0000;0.6781;0.6474;
744.3000;0.6789;0.6423;
744.6000;0.6772;0.6323;
744.9000;0.6764;0.6222;
745.2000;0.6772;0.6247;
745.5000;0.6772;0.6222;
745.8000;0.6764;0.6297;
746.1000;0.6764;0.6297;
746.4000;0.6772;0.6398;
746.7000;0.6772;0.6348;
747.0000;0.6732;0.6247;
747.3000;0.6748;0.6348;
747.6000;0.6789;0.6398;
747.9000;0.6764;0.6348;
748.2000;0.6764;0.6373;
748.5000;0.6772;0.6449;
748.8000;0.6748;0.6398;
749.1000;0.6748;0.6348;
749.4000;0.6756;0.6297;
749.7000;0.6756;0.6272;
750.0000;0.6748;0.6272;
750.3000;0.6756;0.6297;
750.6000;0.6748;0.6423;
750.9000;0.6756;0.6348;
751.2000;0.6732;0.6297;
751.5000;0.6756;0.6348;
751.8000;0.6756;0.6348;
752.1000;0.6756;0.6323;
752.4000;0.6829;0.6423;
752.7000;0.6756;0.6323;
753.0000;0.6756;0.6348;
753.3000;0.6740;0.6348;
753.6000;0.6764;0.6348;
753.9000;0.6740;0.6222;
754.2000;0.6740;0.6172;
754.5000;0.6740;0.6146;
754.8000;0.6740;0.6247;
755.1000;0.6732;0.6146;
755.4000;0.6748;0.6197;
755.7000;0.6740;0.6247;
756.0000;0.6716;0.6323;
756.3000;0.6748;0.6297;
756.6000;0.6732;0.6272;
756.9000;0.6732;0.6297;
757.2000;0.6740;0.6348;
757.5000;0.6740;0.6323;
757.8000;0.6740;0.6297;
758.1000;0.6756;0.6348;
758.4000;0.6772;0.6474;
758.7000;0.6724;0.6423;
759.0000;0.6724;0.6323;
759.3000;0.6724;0.6348;
759.6000;0.6707;0.6272;
759.9000;0.6724;0.6272;
760.2000;0.6699;0.6121;
760.5000;0.6740;0.6197;
760.8000;0.6699;0.6096;
761.1000;0.6716;0.6146;
761.4000;0.6716;0.6146;
761.7000;0.6724;0.6096;
762.0000;0.6707;0.6096;
762.3000;0.6675;0.6096;
762.6000;0.6724;0.6323;
762.9000;0.6699;0.6222;
763.2000;0.6716;0.6197;
763.5000;0.6716;0.6247;
763.8000;0.6707;0.6348;
764.1000;0.6707;0.6373;
764.4000;0.6716;0.6474;
764.7000;0.6716;0.6423;
765.0000;0.6724;0.6423;
765.3000;0.6691;0.6423;
765.6000;0.6724;0.6449;
765.9000;0.6707;0.6373;
766.2000;0.6707;0.6398;
766.5000;0.6740;0.6524;
766.8000;0.6716;0.6373;
767.1000;0.6699;0.6297;
767.4000;0.6707;0.6348;
767.7000;0.6699;0.6348;
768.0000;0.6691;0.6449;
768.3000;0.6707;0.6549;
768.6000;0.6691;0.6549;
768.9000;0.6699;0.6575;
769.2000;0.6699;0.6549;
769.5000;0.6707;0.6549;
769.8000;0.6699;0.6524;
770.1000;0.6707;0.6499;
770.4000;0.6667;0.6423;
770.7000;0.6707;0.6449;
771.0000;0.6716;0.6499;
771.3000;0.6683;0.6348;
771.6000;0.6691;0.6297;
771.9000;0.6683;0.6297;
772.2000;0.6691;0.6398;
772.5000;0.6675;0.6423;
772.8000;0.6675;0.6499;
773.1000;0.6683;0.6549;
773.4000;0.6675;0.6650;
773.7000;0.6667;0.6726;
774.0000;0.6675;0.6600;
774.3000;0.6675;0.6575;
774.6000;0.6626;0.6373;
774.9000;0.6675;0.6600;
775.2000;0.6675;0.6474;
775.5000;0.6675;0.6348;
775.8000;0.6691;0.6323;
776.1000;0.6675;0.6348;
776.4000;0.6699;0.6398;
776.7000;0.6732;0.6499;
777.0000;0.6675;0.6398;
777.3000;0.6675;0.6373;
777.6000;0.6683;0.6373;
777.9000;0.6683;0.6474;
778.2000;0.6650;0.6323;
778.5000;0.6667;0.6348;
778.8000;0.6650;0.6373;
779.1000;0.6659;0.6423;
779.4000;0.6667;0.6423;
779.7000;0.6667;0.6449;
780.0000;0.6675;0.6373;
780.3000;0.6683;0.6323;
780.6000;0.6667;0.6272;
780.9000;0.6667;0.6272;
781.2000;0.6667;0.6247;
781.5000;0.6732;0.6449;
781.8000;0.6650;0.6197;
782.1000;0.6650;0.6222;
782.4000;0.6667;0.6222;
782.7000;0.6659;0.6121;
783.0000;0.6650;0.6121;
783.3000;0.6659;0.6121;
783.6000;0.6667;0.6222;
783.9000;0.6642;0.6197;
784.2000;0.6634;0.6197;
784.5000;0.6707;0.6373;
784.8000;0.6593;0.6146;
785.1000;0.6626;0.6323;
785.4000;0.6691;0.6373;
785.7000;0.6642;0.6146;
786.0000;0.6659;0.6222;
786.3000;0.6675;0.6272;
786.6000;0.6634;0.6121;
786.9000;0.6634;0.6172;
787.2000;0.6650;0.6247;
787.5000;0.6618;0.6146;
787.8000;0.6642;0.6247;
788.1000;0.6642;0.6272;
788.4000;0.6650;0.6297;
788.7000;0.6650;0.6373;
789.0000;0.6634;0.6323;
789.3000;0.6626;0.6348;
789.6000;0.6602;0.6247;
789.9000;0.6642;0.6423;
790.2000;0.6650;0.6474;
790.5000;0.6626;0.6524;
790.8000;0.6642;0.6600;
791.1000;0.6634;0.6575;
791.4000;0.6634;0.6499;
791.7000;0.6626;0.6449;
792.0000;0.6659;0.6474;
792.3000;0.6650;0.6449;
792.6000;0.6610;0.6373;
792.9000;0.6634;0.6398;
793.2000;0.6626;0.6423;
793.5000;0.6626;0.6423;
793.8000;0.6634;0.6499;
794.1000;0.6593;0.6373;
794.4000;0.6667;0.6625;
794.7000;0.6683;0.6600;
795.0000;0.6610;0.6474;
795.3000;0.6626;0.6524;
795.6000;0.6626;0.6524;
795.9000;0.6610;0.6499;
796.2000;0.6610;0.6449;
796.5000;0.6593;0.6474;
796.8000;0.6602;0.6499;
797.1000;0.6618;0.6575;
797.4000;0.6569;0.6423;
797.7000;0.6618;0.6499;
798.0000;0.6626;0.6524;
798.3000;0.6602;0.6423;
798.6000;0.6683;0.6675;
798.9000;0.6618;0.6499;
799.2000;0.6618;0.6499;
799.5000;0.6610;0.6499;
799.8000;0.6626;0.6499;
800.1000;0.6634;0.6575;
800.4000;0.6618;0.6549;
800.7000;0.6602;0.6499;
801.0000;0.6610;0.6474;
801.3000;0.6626;0.6549;
801.6000;0.6602;0.6499;
801.9000;0.6610;0.6549;
802.2000;0.6585;0.6524;
802.5000;0.6618;0.6524;
802.8000;0.6610;0.6474;
803.1000;0.6593;0.6373;
803.4000;0.6610;0.6247;
803.7000;0.6618;0.6197;
804.0000;0.6618;0.6297;
804.3000;0.6602;0.6272;
804.6000;0.6593;0.6423;
804.9000;0.6610;0.6524;
805.2000;0.6602;0.6575;
805.5000;0.6577;0.6575;
805.8000;0.6602;0.6625;
806.1000;0.6593;0.6675;
806.4000;0.6602;0.6726;
806.7000;0.6610;0.6701;
807.0000;0.6593;0.6650;
807.3000;0.6528;0.6449;
807.6000;0.6593;0.6675;
807.9000;0.6593;0.6600;
808.2000;0.6642;0.6650;
808.5000;0.6593;0.6449;
808.8000;0.6593;0.6449;
809.1000;0.6610;0.6423;
809.4000;0.6593;0.6398;
809.7000;0.6593;0.6373;
810.0000;0.6602;0.6499;
810.3000;0.6569;0.6348;
810.6000;0.6585;0.6449;
810.9000;0.6593;0.6524;
811.2000;0.6593;0.6549;
811.5000;0.6585;0.6549;
811.8000;0.6593;0.6650;
812.1000;0.6569;0.6549;
812.4000;0.6593;0.6600;
812.7000;0.6585;0.6625;
813.0000;0.6602;0.6650;
813.3000;0.6602;0.6600;
813.6000;0.6593;0.6575;
813.9000;0.6585;0.6675;
814.2000;0.6593;0.6650;
814.5000;0.6585;0.6600;
814.8000;0.6577;0.6625;
815.1000;0.6602;0.6701;
815.4000;0.6585;0.6701;
815.7000;0.6585;0.6625;
816.0000;0.6577;0.6575;
816.3000;0.6585;0.6625;
816.6000;0.6569;0.6650;
816.9000;0.6585;0.6549;
817.2000;0.6569;0.6474;
817.5000;0.6577;0.6474;
817.8000;0.6569;0.6524;
818.1000;0.6634;0.6726;
818.4000;0.6569;0.6398;
818.7000;0.6569;0.6348;
819.0000;0.6569;0.6348;
819.3000;0.6577;0.6297;
819.6000;0.6561;0.6373;
819.9000;0.6553;0.6398;
820.2000;0.6626;0.6549;
820.5000;0.6545;0.6222;
820.8000;0.6561;0.6222;
821.1000;0.6602;0.6323;
821.4000;0.6553;0.6348;
821.7000;0.6585;0.6474;
822.0000;0.6593;0.6499;
822.3000;0.6561;0.6474;
822.6000;0.6553;0.6474;
822.9000;0.6585;0.6474;
823.2000;0.6642;0.6751;
823.5000;0.6593;0.6575;
823.8000;0.6561;0.6524;
824.1000;0.6553;0.6524;
824.4000;0.6577;0.6625;
824.7000;0.6585;0.6650;
825.0000;0.6561;0.6600;
825.3000;0.6577;0.6625;
825.6000;0.6569;0.6650;
825.9000;0.6602;0.6701;
826.2000;0.6569;0.6650;
826.5000;0.6569;0.6675;
826.8000;0.6569;0.6575;
827.1000;0.6577;0.6600;
827.4000;0.6610;0.6675;
827.7000;0.6569;0.6600;
828.0000;0.6561;0.6549;
828.3000;0.6602;0.6625;
828.6000;0.6569;0.6625;
828.9000;0.6569;0.6650;
829.2000;0.6577;0.6726;
829.5000;0.6528;0.6625;
829.8000;0.6561;0.6650;
830.1000;0.6569;0.6675;
830.4000;0.6553;0.6650;
830.7000;0.6561;0.6575;
831.0000;0.6569;0.6625;
831.3000;0.6561;0.6449;
831.6000;0.6553;0.6398;
831.9000;0.6569;0.6474;
832.2000;0.6569;0.6474;
832.5000;0.6553;0.6474;
832.8000;0.6553;0.6499;
833.1000;0.6577;0.6600;
833.4000;0.6561;0.6575;
833.7000;0.6545;0.6499;
834.0000;0.6553;0.6474;
834.3000;0.6561;0.6474;
834.6000;0.6536;0.6398;
834.9000;0.6545;0.6398;
835.2000;0.6545;0.6373;
835.5000;0.6504;0.6323;
835.8000;0.6561;0.6474;
836.1000;0.6520;0.6449;
836.4000;0.6561;0.6499;
836.7000;0.6520;0.6423;
837.0000;0.6561;0.6549;
837.3000;0.6545;0.6575;
837.6000;0.6545;0.6474;
837.9000;0.6553;0.6499;
838.2000;0.6545;0.6524;
838.5000;0.6545;0.6524;
838.8000;0.6512;0.6474;
839.1000;0.6561;0.6474;
839.4000;0.6561;0.6474;
839.7000;0.6553;0.6499;
840.0000;0.6545;0.6474;
840.3000;0.6545;0.6423;
840.6000;0.6545;0.6423;
840.9000;0.6545;0.6549;
841.2000;0.6520;0.6474;
841.5000;0.6561;0.6499;
841.8000;0.6545;0.6449;
842.1000;0.6536;0.6474;
842.4000;0.6561;0.6549;
842.7000;0.6520;0.6549;
843.0000;0.6536;0.6650;
843.3000;0.6545;0.6701;
843.6000;0.6553;0.6625;
843.9000;0.6577;0.6625;
844.2000;0.6488;0.6423;
844.5000;0.6528;0.6449;
844.8000;0.6528;0.6423;
845.1000;0.6545;0.6449;
845.4000;0.6528;0.6524;
845.7000;0.6504;0.6474;
846.0000;0.6504;0.6499;
846.3000;0.6512;0.6524;
846.6000;0.6520;0.6474;
846.9000;0.6520;0.6499;
847.2000;0.6536;0.6499;
847.5000;0.6545;0.6373;
847.8000;0.6536;0.6272;
848.1000;0.6512;0.6172;
848.4000;0.6545;0.6222;
848.7000;0.6545;0.6222;
849.0000;0.6520;0.6146;
849.3000;0.6520;0.6222;
849.6000;0.6536;0.6172;
849.9000;0.6545;0.6247;
850.2000;0.6528;0.6297;
850.5000;0.6512;0.6398;
850.8000;0.6536;0.6474;
851.1000;0.6496;0.6474;
851.4000;0.6520;0.6575;
851.7000;0.6520;0.6549;
852.0000;0.6520;0.6600;
852.3000;0.6528;0.6675;
852.6000;0.6536;0.6575;
852.9000;0.6504;0.6499;
853.2000;0.6512;0.6499;
853.5000;0.6528;0.6474;
853.8000;0.6577;0.6575;
854.1000;0.6528;0.6474;
854.4000;0.6536;0.6499;
854.7000;0.6520;0.6449;
855.0000;0.6536;0.6549;
855.3000;0.6520;0.6524;
855.6000;0.6496;0.6449;
855.9000;0.6496;0.6398;
856.2000;0.6504;0.6398;
856.5000;0.6488;0.6398;
856.8000;0.6512;0.6348;
857.1000;0.6536;0.6449;
857.4000;0.6504;0.6398;
857.7000;0.6528;0.6524;
858.0000;0.6512;0.6423;
858.3000;0.6536;0.6600;
858.6000;0.6520;0.6499;
858.9000;0.6520;0.6474;
859.2000;0.6496;0.6423;
859.5000;0.6520;0.6499;
859.8000;0.6536;0.6499;
860.1000;0.6536;0.6499;
860.4000;0.6536;0.6449;
860.7000;0.6512;0.6423;
861.0000;0.6512;0.6474;
861.3000;0.6512;0.6423;
861.6000;0.6536;0.6499;
861.9000;0.6512;0.6474;
862.2000;0.6512;0.6524;
862.5000;0.6602;0.6751;
862.8000;0.6520;0.6524;
863.1000;0.6520;0.6474;
863.4000;0.6512;0.6499;
863.7000;0.6528;0.6549;
864.0000;0.6536;0.6524;
864.3000;0.6528;0.6524;
864.6000;0.6536;0.6650;
864.9000;0.6577;0.6751;
865.2000;0.6512;0.6549;
865.5000;0.6512;0.6499;
865.8000;0.6471;0.6398;
866.1000;0.6504;0.6449;
866.4000;0.6520;0.6524;
866.7000;0.6528;0.6701;
867.0000;0.6488;0.6650;
867.3000;0.6536;0.6801;
867.6000;0.6520;0.6776;
867.9000;0.6496;0.6701;
868.2000;0.6455;0.6575;
868.5000;0.6520;0.6701;
868.8000;0.6512;0.6701;
869.1000;0.6545;0.6751;
869.4000;0.6553;0.6852;
869.7000;0.6496;0.6650;
870.0000;0.6512;0.6751;
870.3000;0.6553;0.6801;
870.6000;0.6504;0.6675;
870.9000;0.6512;0.6625;
871.2000;0.6569;0.6826;
871.5000;0.6504;0.6625;
871.8000;0.6520;0.6600;
872.1000;0.6496;0.6650;
872.4000;0.6488;0.6524;
872.7000;0.6496;0.6549;
873.0000;0.6512;0.6650;
873.3000;0.6496;0.6549;
873.6000;0.6512;0.6575;
873.9000;0.6479;0.6575;
874.2000;0.6488;0.6600;
874.5000;0.6479;0.6625;
874.8000;0.6496;0.6650;
875.1000;0.6496;0.6701;
875.4000;0.6504;0.6726;
875.7000;0.6488;0.6701;
876.0000;0.6471;0.6575;
876.3000;0.6520;0.6675;
876.6000;0.6488;0.6474;
876.9000;0.6488;0.6474;
877.2000;0.6471;0.6449;
877.5000;0.6479;0.6474;
877.8000;0.6488;0.6499;
878.1000;0.6488;0.6474;
878.4000;0.6504;0.6575;
878.7000;0.6528;0.6575;
879.0000;0.6504;0.6423;
879.3000;0.6488;0.6373;
879.6000;0.6488;0.6398;
879.9000;0.6488;0.6348;
880.2000;0.6504;0.6348;
880.5000;0.6488;0.6449;
880.8000;0.6496;0.6575;
881.1000;0.6463;0.6600;
881.4000;0.6488;0.6751;
881.7000;0.6471;0.6625;
882.0000;0.6488;0.6600;
882.3000;0.6488;0.6474;
882.6000;0.6479;0.6549;
882.9000;0.6463;0.6600;
883.2000;0.6496;0.6625;
883.5000;0.6504;0.6549;
883.8000;0.6496;0.6600;
884.1000;0.6512;0.6675;
884.4000;0.6512;0.6650;
884.7000;0.6488;0.6625;
885.0000;0.6488;0.6575;
885.3000;0.6496;0.6650;
885.6000;0.6504;0.6701;
885.9000;0.6488;0.6625;
886.2000;0.6504;0.6524;
886.5000;0.6496;0.6499;
886.8000;0.6496;0.6600;
887.1000;0.6488;0.6625;
887.4000;0.6504;0.6751;
887.7000;0.6488;0.6675;
888.0000;0.6496;0.6600;
888.3000;0.6496;0.6650;
888.6000;0.6496;0.6600;
888.9000;0.6479;0.6499;
889.2000;0.6512;0.6650;
889.5000;0.6479;0.6675;
889.8000;0.6496;0.6701;
890.1000;0.6463;0.6701;
890.4000;0.6496;0.6726;
890.7000;0.6496;0.6675;
891.0000;0.6463;0.6549;
891.3000;0.6414;0.6449;
891.6000;0.6488;0.6625;
891.9000;0.6545;0.6801;
892.2000;0.6479;0.6625;
892.5000;0.6414;0.6499;
892.8000;0.6463;0.6701;
893.1000;0.6463;0.6625;
893.4000;0.6439;0.6575;
893.7000;0.6479;0.6650;
894.0000;0.6447;0.6600;
894.3000;0.6479;0.6701;
894.6000;0.6471;0.6701;
894.9000;0.6471;0.6776;
895.2000;0.6463;0.6751;
895.5000;0.6471;0.6801;
895.8000;0.6479;0.6776;
896.1000;0.6463;0.6852;
896.4000;0.6479;0.6852;
896.7000;0.6479;0.6826;
897.0000;0.6479;0.6826;
897.3000;0.6504;0.6801;
897.6000;0.6455;0.6650;
897.9000;0.6512;0.6751;
898.2000;0.6463;0.6650;
898.5000;0.6471;0.6675;
898.8000;0.6463;0.6701;
899.1000;0.6414;0.6575;
899.4000;0.6455;0.6701;
899.7000;0.6455;0.6600;
900.0000;0.6439;0.6449;
900.3000;0.6439;0.6499;
900.6000;0.6504;0.6625;
900.9000;0.6488;0.6675;
901.2000;0.6422;0.6549;
901.5000;0.6488;0.6675;
901.8000;0.6479;0.6751;
902.1000;0.6455;0.6625;
902.4000;0.6455;0.6650;
902.7000;0.6455;0.6650;
903.0000;0.6439;0.6650;
903.3000;0.6463;0.6701;
903.6000;0.6463;0.6675;
903.9000;0.6455;0.6549;
904.2000;0.6447;0.6625;
904.5000;0.6463;0.6650;
904.8000;0.6439;0.6625;
905.1000;0.6455;0.6650;
905.4000;0.6471;0.6625;
905.7000;0.6471;0.6650;
906.0000;0.6471;0.6625;
906.3000;0.6471;0.6625;
906.6000;0.6455;0.6575;
906.9000;0.6455;0.6575;
907.2000;0.6479;0.6650;
907.5000;0.6463;0.6726;
907.8000;0.6455;0.6625;
908.1000;0.6463;0.6549;
908.4000;0.6455;0.6474;
908.7000;0.6463;0.6524;
909.0000;0.6471;0.6575;
909.3000;0.6463;0.6600;
909.6000;0.6447;0.6499;
909.9000;0.6496;0.6600;
910.2000;0.6455;0.6524;
910.5000;0.6447;0.6449;
910.8000;0.6463;0.6398;
911.1000;0.6496;0.6474;
911.4000;0.6463;0.6474;
911.7000;0.6455;0.6423;
912.0000;0.6471;0.6499;
912.3000;0.6471;0.6524;
912.6000;0.6447;0.6499;
912.9000;0.6406;0.6297;
913.2000;0.6439;0.6373;
913.5000;0.6447;0.6423;
913.8000;0.6463;0.6474;
914.1000;0.6455;0.6398;
914.4000;0.6439;0.6348;
914.7000;0.6455;0.6423;
915.0000;0.6455;0.6373;
915.3000;0.6455;0.6449;
915.6000;0.6398;0.6272;
915.9000;0.6455;0.6373;
916.2000;0.6471;0.6373;
916.5000;0.6414;0.6247;
916.8000;0.6455;0.6348;
917.1000;0.6471;0.6474;
917.4000;0.6471;0.6499;
917.7000;0.6479;0.6549;
918.0000;0.6528;0.6726;
918.3000;0.6463;0.6575;
918.6000;0.6463;0.6549;
918.9000;0.6463;0.6549;
919.2000;0.6463;0.6524;
919.5000;0.6455;0.6524;
919.8000;0.6455;0.6549;
920.1000;0.6431;0.6499;
920.4000;0.6447;0.6524;
920.7000;0.6463;0.6524;
921.0000;0.6455;0.6449;
921.3000;0.6479;0.6499;
921.6000;0.6463;0.6474;
921.9000;0.6463;0.6474;
922.2000;0.6455;0.6524;
922.5000;0.6479;0.6524;
922.8000;0.6463;0.6474;
923.1000;0.6431;0.6474;
923.4000;0.6455;0.6625;
923.7000;0.6447;0.6575;
924.0000;0.6447;0.6524;
924.3000;0.6398;0.6423;
924.6000;0.6447;0.6499;
924.9000;0.6447;0.6449;
925.2000;0.6455;0.6524;
925.5000;0.6431;0.6348;
925.8000;0.6439;0.6398;
926.1000;0.6455;0.6499;
926.4000;0.6447;0.6499;
926.7000;0.6431;0.6474;
927.0000;0.6431;0.6398;
927.3000;0.6439;0.6449;
927.6000;0.6455;0.6499;
927.9000;0.6439;0.6499;
928.2000;0.6455;0.6449;
928.5000;0.6463;0.6499;
928.8000;0.6447;0.6499;
929.1000;0.6447;0.6524;
929.4000;0.6439;0.6449;
929.7000;0.6431;0.6499;
930.0000;0.6455;0.6549;
930.3000;0.6431;0.6524;
930.6000;0.6447;0.6474;
930.9000;0.6439;0.6398;
931.2000;0.6447;0.6449;
931.5000;0.6455;0.6474;
931.8000;0.6463;0.6449;
932.1000;0.6471;0.6549;
932.4000;0.6455;0.6625;
932.7000;0.6455;0.6650;
933.0000;0.6455;0.6600;
933.3000;0.6447;0.6625;
933.6000;0.6431;0.6625;
933.9000;0.6479;0.6801;
934.2000;0.6431;0.6701;
934.5000;0.6439;0.6701;
934.8000;0.6439;0.6675;
935.1000;0.6431;0.6600;
935.4000;0.6455;0.6675;
935.7000;0.6496;0.6852;
936.0000;0.6431;0.6675;
936.3000;0.6439;0.6675;
936.6000;0.6455;0.6726;
936.9000;0.6447;0.6650;
937.2000;0.6422;0.6575;
937.5000;0.6479;0.6675;
937.8000;0.6439;0.6499;
938.1000;0.6406;0.6398;
938.4000;0.6422;0.6423;
938.7000;0.6422;0.6449;
939.0000;0.6479;0.6575;
939.3000;0.6447;0.6474;
939.6000;0.6365;0.6297;
939.9000;0.6422;0.6474;
940.2000;0.6447;0.6524;
940.5000;0.6439;0.6499;
940.8000;0.6455;0.6524;
941.1000;0.6488;0.6650;
941.4000;0.6439;0.6449;
941.7000;0.6439;0.6575;
942.0000;0.6431;0.6575;
942.3000;0.6471;0.6650;
942.6000;0.6431;0.6549;
942.9000;0.6422;0.6600;
943.2000;0.6431;0.6600;
943.5000;0.6414;0.6499;
943.8000;0.6431;0.6524;
944.1000;0.6439;0.6499;
944.4000;0.6439;0.6575;
944.7000;0.6422;0.6549;
945.0000;0.6422;0.6575;
945.3000;0.6439;0.6600;
945.6000;0.6439;0.6600;
945.9000;0.6447;0.6600;
946.2000;0.6431;0.6575;
946.5000;0.6398;0.6474;
946.8000;0.6439;0.6575;
947.1000;0.6431;0.6499;
947.4000;0.6431;0.6423;
947.7000;0.6414;0.6373;
948.0000;0.6439;0.6474;
948.3000;0.6422;0.6474;
948.6000;0.6414;0.6449;
948.9000;0.6431;0.6474;
949.2000;0.6414;0.6449;
949.5000;0.6414;0.6423;
949.8000;0.6406;0.6373;
950.1000;0.6422;0.6348;
950.4000;0.6422;0.6272;
950.7000;0.6431;0.6272;
951.0000;0.6414;0.6272;
951.3000;0.6422;0.6348;
951.6000;0.6406;0.6348;
951.9000;0.6414;0.6398;
952.2000;0.6422;0.6398;
952.5000;0.6422;0.6398;
952.8000;0.6431;0.6524;
953.1000;0.6422;0.6423;
953.4000;0.6398;0.6348;
953.7000;0.6431;0.6423;
954.0000;0.6398;0.6449;
954.3000;0.6439;0.6524;
954.6000;0.6431;0.6575;
954.9000;0.6414;0.6575;
955.2000;0.6431;0.6549;
955.5000;0.6439;0.6600;
955.8000;0.6422;0.6575;
956.1000;0.6447;0.6575;
956.4000;0.6431;0.6524;
956.7000;0.6422;0.6549;
957.0000;0.6422;0.6499;
957.3000;0.6414;0.6499;
957.6000;0.6414;0.6499;
957.9000;0.6406;0.6549;
958.2000;0.6422;0.6675;
958.5000;0.6374;0.6549;
958.8000;0.6398;0.6625;
959.1000;0.6422;0.6701;
959.4000;0.6422;0.6726;
959.7000;0.6455;0.6852;
960.0000;0.6357;0.6600;
960.3000;0.6422;0.6751;
960.6000;0.6455;0.6852;
960.9000;0.6439;0.6776;
961.2000;0.6398;0.6726;
961.5000;0.6382;0.6701;
961.8000;0.6414;0.6701;
962.1000;0.6414;0.6701;
962.4000;0.6398;0.6650;
962.7000;0.6398;0.6625;
963.0000;0.6382;0.6499;
963.3000;0.6431;0.6575;
963.6000;0.6422;0.6549;
963.9000;0.6406;0.6549;
964.2000;0.6414;0.6549;
964.5000;0.6414;0.6524;
964.8000;0.6414;0.6499;
965.1000;0.6414;0.6398;
965.4000;0.6414;0.6449;
965.7000;0.6431;0.6549;
966.0000;0.6431;0.6524;
966.3000;0.6406;0.6499;
966.6000;0.6447;0.6600;
966.9000;0.6422;0.6575;
967.2000;0.6414;0.6600;
967.5000;0.6414;0.6625;
967.8000;0.6414;0.6726;
968.1000;0.6406;0.6751;
968.4000;0.6390;0.6726;
968.7000;0.6414;0.6751;
969.0000;0.6422;0.6751;
969.3000;0.6422;0.6726;
969.6000;0.6406;0.6650;
969.9000;0.6414;0.6650;
970.2000;0.6398;0.6701;
970.5000;0.6431;0.6801;
970.8000;0.6414;0.6701;
971.1000;0.6422;0.6675;
971.4000;0.6422;0.6751;
971.7000;0.6414;0.6701;
972.0000;0.6398;0.6675;
972.3000;0.6414;0.6650;
972.6000;0.6398;0.6625;
972.9000;0.6479;0.6877;
973.2000;0.6406;0.6726;
973.5000;0.6406;0.6726;
973.8000;0.6406;0.6801;
974.1000;0.6414;0.6826;
974.4000;0.6390;0.6726;
974.7000;0.6414;0.6751;
975.0000;0.6422;0.6751;
975.3000;0.6422;0.6726;
975.6000;0.6422;0.6675;
975.9000;0.6431;0.6751;
976.2000;0.6431;0.6751;
976.5000;0.6422;0.6701;
976.8000;0.6414;0.6701;
977.1000;0.6406;0.6650;
977.4000;0.6431;0.6701;
977.7000;0.6422;0.6524;
978.0000;0.6406;0.6474;
978.3000;0.6422;0.6549;
978.6000;0.6382;0.6423;
978.9000;0.6422;0.6575;
979.2000;0.6406;0.6625;
979.5000;0.6422;0.6675;
979.8000;0.6414;0.6625;
980.1000;0.6463;0.6776;
980.4000;0.6439;0.6675;
980.7000;0.6398;0.6625;
981.0000;0.6406;0.6600;
981.3000;0.6422;0.6625;
981.6000;0.6406;0.6474;
981.9000;0.6406;0.6575;
982.2000;0.6406;0.6625;
982.5000;0.6414;0.6524;
982.8000;0.6422;0.6499;
983.1000;0.6422;0.6449;
983.4000;0.6374;0.6348;
983.7000;0.6406;0.6474;
984.0000;0.6422;0.6499;
984.3000;0.6382;0.6423;
984.6000;0.6390;0.6398;
984.9000;0.6414;0.6449;
985.2000;0.6365;0.6524;
985.5000;0.6398;0.6675;
985.8000;0.6398;0.6625;
986.1000;0.6398;0.6625;
986.4000;0.6406;0.6701;
986.7000;0.6406;0.6701;
987.0000;0.6406;0.6751;
987.3000;0.6406;0.6726;
987.6000;0.6414;0.6726;
987.9000;0.6422;0.6701;
988.2000;0.6398;0.6675;
988.5000;0.6406;0.6675;
988.8000;0.6398;0.6675;
989.1000;0.6398;0.6575;
989.4000;0.6390;0.6549;
989.7000;0.6398;0.6600;
990.0000;0.6398;0.6600;
990.3000;0.6398;0.6701;
990.6000;0.6414;0.6575;
990.9000;0.6390;0.6474;
991.2000;0.6406;0.6524;
991.5000;0.6406;0.6549;
991.8000;0.6422;0.6549;
992.1000;0.6406;0.6549;
992.4000;0.6390;0.6575;
992.7000;0.6414;0.6524;
993.0000;0.6390;0.6474;
993.3000;0.6382;0.6474;
993.6000;0.6390;0.6499;
993.9000;0.6398;0.6449;
994.2000;0.6390;0.6449;
994.5000;0.6374;0.6423;
994.8000;0.6455;0.6701;
995.1000;0.6390;0.6474;
995.4000;0.6390;0.6499;
995.7000;0.6390;0.6549;
996.0000;0.6390;0.6549;
996.3000;0.6398;0.6600;
996.6000;0.6406;0.6625;
996.9000;0.6406;0.6625;
997.2000;0.6422;0.6625;
997.5000;0.6382;0.6499;
997.8000;0.6406;0.6449;
998.1000;0.6398;0.6449;
998.4000;0.6390;0.6524;
998.7000;0.6398;0.6474;
999.0000;0.6431;0.6549;
999.3000;0.6390;0.6524;
999.6000;0.6431;0.6600;
999.9000;0.6382;0.6575;
1000.2000;0.6382;0.6650;
1000.5000;0.6398;0.6675;
1000.8000;0.6398;0.6675;
1001.1000;0.6390;0.6650;
1001.4000;0.6390;0.6675;
1001.7000;0.6406;0.6650;
1002.0000;0.6406;0.6600;
1002.3000;0.6422;0.6751;
1002.6000;0.6382;0.6600;
1002.9000;0.6406;0.6575;
1003.2000;0.6398;0.6474;
1003.5000;0.6406;0.6499;
1003.8000;0.6406;0.6499;
1004.1000;0.6406;0.6650;
1004.4000;0.6398;0.6650;
1004.7000;0.6390;0.6625;
1005.0000;0.6382;0.6549;
1005.3000;0.6390;0.6549;
1005.6000;0.6398;0.6625;
1005.9000;0.6382;0.6575;
1006.2000;0.6398;0.6675;
1006.5000;0.6374;0.6625;
1006.8000;0.6390;0.6701;
1007.1000;0.6374;0.6575;
1007.4000;0.6365;0.6575;
1007.7000;0.6398;0.6650;
1008.0000;0.6390;0.6600;
1008.3000;0.6447;0.6826;
1008.6000;0.6374;0.6625;
1008.9000;0.6406;0.6701;
1009.2000;0.6398;0.6726;
1009.5000;0.6406;0.6751;
1009.8000;0.6398;0.6801;
1010.1000;0.6382;0.6826;
1010.4000;0.6463;0.6978;
1010.7000;0.6447;0.6978;
1011.0000;0.6398;0.6776;
1011.3000;0.6382;0.6776;
1011.6000;0.6390;0.6726;
1011.9000;0.6390;0.6675;
1012.2000;0.6398;0.6650;
1012.5000;0.6374;0.6650;
1012.8000;0.6406;0.6852;
1013.1000;0.6398;0.6776;
1013.4000;0.6390;0.6675;
1013.7000;0.6382;0.6675;
1014.0000;0.6365;0.6650;
1014.3000;0.6390;0.6701;
1014.6000;0.6398;0.6650;
1014.9000;0.6398;0.6675;
1015.2000;0.6382;0.6675;
1015.5000;0.6349;0.6625;
1015.8000;0.6406;0.6852;
1016.1000;0.6374;0.6826;
1016.4000;0.6374;0.6701;
1016.7000;0.6382;0.6701;
1017.0000;0.6374;0.6751;
1017.3000;0.6382;0.6751;
1017.6000;0.6382;0.6826;
1017.9000;0.6374;0.6826;
1018.2000;0.6382;0.6801;
1018.5000;0.6390;0.6726;
1018.8000;0.6317;0.6524;
1019.1000;0.6374;0.6675;
1019.4000;0.6374;0.6650;
1019.7000;0.6382;0.6675;
1020.0000;0.6406;0.6726;
1020.3000;0.6414;0.6776;
1020.6000;0.6365;0.6751;
1020.9000;0.6374;0.6701;
1021.2000;0.6365;0.6600;
1021.5000;0.6374;0.6625;
1021.8000;0.6374;0.6650;
1022.1000;0.6374;0.6625;
1022.4000;0.6374;0.6575;
1022.7000;0.6374;0.6625;
1023.0000;0.6390;0.6675;
1023.3000;0.6398;0.6650;
1023.6000;0.6398;0.6675;
1023.9000;0.6382;0.6650;
1024.2000;0.6390;0.6650;
1024.5000;0.6390;0.6701;
1024.8000;0.6382;0.6675;
1025.1000;0.6398;0.6675;
1025.4000;0.6374;0.6675;
1025.7000;0.6382;0.6675;
1026.0000;0.6406;0.6751;
1026.3000;0.6382;0.6675;
1026.6000;0.6341;0.6600;
1026.9000;0.6422;0.6826;
1027.2000;0.6390;0.6776;
1027.5000;0.6382;0.6751;
1027.8000;0.6382;0.6675;
1028.1000;0.6382;0.6625;
1028.4000;0.6365;0.6600;
1028.7000;0.6390;0.6650;
1029.0000;0.6390;0.6650;
1029.3000;0.6365;0.6600;
1029.6000;0.6390;0.6675;
1029.9000;0.6390;0.6549;
1030.2000;0.6365;0.6524;
1030.5000;0.6341;0.6575;
1030.8000;0.6390;0.6675;
1031.1000;0.6333;0.6549;
1031.4000;0.6374;0.6549;
1031.7000;0.6374;0.6575;
1032.0000;0.6357;0.6600;
1032.3000;0.6365;0.6675;
1032.6000;0.6365;0.6600;
1032.9000;0.6374;0.6675;
1033.2000;0.6365;0.6549;
1033.5000;0.6382;0.6575;
1033.8000;0.6390;0.6625;
1034.1000;0.6374;0.6675;
1034.4000;0.6357;0.6575;
1034.7000;0.6390;0.6675;
1035.0000;0.6406;0.6625;
1035.3000;0.6382;0.6549;
1035.6000;0.6382;0.6524;
1035.9000;0.6382;0.6575;
1036.2000;0.6374;0.6499;
1036.5000;0.6341;0.6423;
1036.8000;0.6398;0.6499;
1037.1000;0.6365;0.6474;
1037.4000;0.6357;0.6373;
1037.7000;0.6365;0.6474;
1038.0000;0.6309;0.6348;
1038.3000;0.6357;0.6499;
1038.6000;0.6382;0.6600;
1038.9000;0.6382;0.6549;
1039.2000;0.6374;0.6474;
1039.5000;0.6365;0.6499;
1039.8000;0.6390;0.6499;
1040.1000;0.6374;0.6398;
1040.4000;0.6365;0.6398;
1040.7000;0.6365;0.6398;
1041.0000;0.6357;0.6373;
1041.3000;0.6341;0.6398;
1041.6000;0.6365;0.6373;
1041.9000;0.6357;0.6373;
1042.2000;0.6365;0.6449;
1042.5000;0.6357;0.6398;
1042.8000;0.6398;0.6398;
1043.1000;0.6349;0.6348;
1043.4000;0.6390;0.6449;
1043.7000;0.6382;0.6398;
1044.0000;0.6374;0.6398;
1044.3000;0.6382;0.6423;
1044.6000;0.6382;0.6474;
1044.9000;0.6382;0.6524;
1045.2000;0.6414;0.6650;
1045.5000;0.6365;0.6600;
1045.8000;0.6357;0.6600;
1046.1000;0.6374;0.6650;
1046.4000;0.6382;0.6650;
1046.7000;0.6365;0.6675;
1047.0000;0.6365;0.6650;
1047.3000;0.6406;0.6701;
1047.6000;0.6309;0.6449;
1047.9000;0.6382;0.6524;
1048.2000;0.6357;0.6449;
1048.5000;0.6374;0.6449;
1048.8000;0.6382;0.6524;
1049.1000;0.6382;0.6499;
1049.4000;0.6317;0.6398;
1049.7000;0.6374;0.6524;
1050.0000;0.6374;0.6600;
1050.3000;0.6365;0.6524;
1050.6000;0.6406;0.6575;
1050.9000;0.6365;0.6449;
1051.2000;0.6398;0.6600;
1051.5000;0.6349;0.6549;
1051.8000;0.6365;0.6575;
1052.1000;0.6382;0.6776;
1052.4000;0.6349;0.6726;
1052.7000;0.6382;0.6751;
1053.0000;0.6260;0.6549;
1053.3000;0.6357;0.6751;
1053.6000;0.6374;0.6751;
1053.9000;0.6374;0.6751;
1054.2000;0.6390;0.6776;
1054.5000;0.6365;0.6701;
1054.8000;0.6374;0.6751;
1055.1000;0.6382;0.6826;
1055.4000;0.6365;0.6852;
1055.7000;0.6333;0.6701;
1056.0000;0.6333;0.6726;
1056.3000;0.6374;0.6726;
1056.6000;0.6341;0.6675;
1056.9000;0.6374;0.6625;
1057.2000;0.6333;0.6625;
1057.5000;0.6357;0.6650;
1057.8000;0.6374;0.6675;
1058.1000;0.6374;0.6650;
1058.4000;0.6357;0.6600;
1058.7000;0.6365;0.6575;
1059.0000;0.6382;0.6675;
1059.3000;0.6374;0.6625;
1059.6000;0.6341;0.6625;
1059.9000;0.6357;0.6625;
1060.2000;0.6357;0.6600;
1060.5000;0.6365;0.6524;
1060.8000;0.6382;0.6600;
1061.1000;0.6365;0.6600;
1061.4000;0.6365;0.6575;
1061.7000;0.6349;0.6549;
1062.0000;0.6341;0.6549;
1062.3000;0.6357;0.6549;
1062.6000;0.6406;0.6650;
1062.9000;0.6365;0.6499;
1063.2000;0.6357;0.6524;
1063.5000;0.6365;0.6499;
1063.8000;0.6349;0.6423;
1064.1000;0.6357;0.6423;
1064.4000;0.6374;0.6323;
1064.7000;0.6341;0.6297;
1065.0000;0.6349;0.6323;
1065.3000;0.6365;0.6348;
1065.6000;0.6365;0.6348;
1065.9000;0.6357;0.6348;
1066.2000;0.6365;0.6423;
1066.5000;0.6325;0.6297;
1066.8000;0.6365;0.6449;
1067.1000;0.6365;0.6499;
1067.4000;0.6365;0.6449;
1067.7000;0.6365;0.6423;
1068.0000;0.6349;0.6423;
1068.3000;0.6374;0.6449;
1068.6000;0.6309;0.6348;
1068.9000;0.6349;0.6398;
1069.2000;0.6349;0.6398;
1069.5000;0.6382;0.6474;
1069.8000;0.6357;0.6449;
1070.1000;0.6365;0.6524;
1070.4000;0.6365;0.6575;
1070.7000;0.6365;0.6625;
1071.0000;0.6357;0.6600;
1071.3000;0.6357;0.6650;
1071.6000;0.6349;0.6524;
1071.9000;0.6357;0.6549;
1072.2000;0.6292;0.6398;
1072.5000;0.6341;0.6474;
1072.8000;0.6374;0.6499;
1073.1000;0.6341;0.6398;
1073.4000;0.6374;0.6524;
1073.7000;0.6374;0.6575;
1074.0000;0.6357;0.6650;
1074.3000;0.6357;0.6625;
1074.6000;0.6309;0.6449;
1074.9000;0.6398;0.6625;
1075.2000;0.6365;0.6575;
1075.5000;0.6357;0.6675;
1075.8000;0.6390;0.6726;
1076.1000;0.6317;0.6474;
1076.4000;0.6349;0.6499;
1076.7000;0.6357;0.6524;
1077.0000;0.6341;0.6549;
1077.3000;0.6365;0.6575;
1077.6000;0.6309;0.6499;
1077.9000;0.6349;0.6575;
1078.2000;0.6357;0.6675;
1078.5000;0.6365;0.6650;
1078.8000;0.6374;0.6726;
1079.1000;0.6365;0.6726;
1079.4000;0.6349;0.6650;
1079.7000;0.6325;0.6549;
1080.0000;0.6349;0.6575;
1080.3000;0.6349;0.6549;
1080.6000;0.6357;0.6650;
1080.9000;0.6357;0.6625;
1081.2000;0.6349;0.6650;
1081.5000;0.6349;0.6650;
1081.8000;0.6357;0.6650;
1082.1000;0.6349;0.6650;
1082.4000;0.6349;0.6600;
1082.7000;0.6349;0.6524;
1083.0000;0.6349;0.6575;
1083.3000;0.6357;0.6549;
1083.6000;0.6374;0.6524;
1083.9000;0.6357;0.6575;
1084.2000;0.6349;0.6675;
1084.5000;0.6365;0.6701;
1084.8000;0.6365;0.6726;
1085.1000;0.6374;0.6776;
1085.4000;0.6309;0.6600;
1085.7000;0.6365;0.6751;
1086.0000;0.6374;0.6776;
1086.3000;0.6357;0.6726;
1086.6000;0.6357;0.6776;
1086.9000;0.6349;0.6751;
1087.2000;0.6374;0.6751;
1087.5000;0.6365;0.6650;
1087.8000;0.6341;0.6650;
1088.1000;0.6365;0.6675;
1088.4000;0.6357;0.6600;
1088.7000;0.6374;0.6625;
1089.0000;0.6341;0.6600;
1089.3000;0.6349;0.6675;
1089.6000;0.6349;0.6776;
1089.9000;0.6357;0.6801;
1090.2000;0.6349;0.6751;
1090.5000;0.6341;0.6650;
1090.8000;0.6357;0.6650;
1091.1000;0.6341;0.6600;
1091.4000;0.6349;0.6600;
1091.7000;0.6341;0.6600;
1092.0000;0.6365;0.6549;
1092.3000;0.6349;0.6499;
1092.6000;0.6357;0.6575;
1092.9000;0.6333;0.6499;
1093.2000;0.6406;0.6726;
1093.5000;0.6357;0.6625;
1093.8000;0.6349;0.6625;
1094.1000;0.6365;0.6726;
1094.4000;0.6357;0.6675;
1094.7000;0.6333;0.6600;
1095.0000;0.6382;0.6675;
1095.3000;0.6414;0.6826;
1095.6000;0.6365;0.6650;
1095.9000;0.6357;0.6675;
1096.2000;0.6439;0.7003;
1096.5000;0.6341;0.6776;
1096.8000;0.6349;0.6751;
1097.1000;0.6365;0.6852;
1097.4000;0.6357;0.6726;
1097.7000;0.6317;0.6675;
1098.0000;0.6349;0.6625;
1098.3000;0.6341;0.6575;
1098.6000;0.6333;0.6575;
1098.9000;0.6349;0.6650;
1099.2000;0.6349;0.6575;
1099.5000;0.6349;0.6600;
1099.8000;0.6365;0.6600;
1100.1000;0.6365;0.6625;
1100.4000;0.6341;0.6600;
1100.7000;0.6341;0.6549;
1101.0000;0.6390;0.6726;
1101.3000;0.6349;0.6575;
1101.6000;0.6341;0.6600;
1101.9000;0.6349;0.6575;
1102.2000;0.6349;0.6625;
1102.5000;0.6349;0.6650;
1102.8000;0.6341;0.6575;
1103.1000;0.6341;0.6524;
1103.4000;0.6317;0.6449;
1103.7000;0.6349;0.6423;
1104.0000;0.6349;0.6499;
1104.3000;0.6357;0.6524;
1104.6000;0.6341;0.6499;
1104.9000;0.6349;0.6398;
1105.2000;0.6349;0.6474;
1105.5000;0.6349;0.6449;
1105.8000;0.6374;0.6499;
1106.1000;0.6341;0.6474;
1106.4000;0.6317;0.6474;
1106.7000;0.6365;0.6474;
1107.0000;0.6333;0.6373;
1107.3000;0.6357;0.6423;
1107.6000;0.6341;0.6423;
1107.9000;0.6357;0.6373;
1108.2000;0.6341;0.6323;
1108.5000;0.6333;0.6323;
1108.8000;0.6333;0.6348;
1109.1000;0.6341;0.6398;
1109.4000;0.6357;0.6373;
1109.7000;0.6325;0.6297;
1110.0000;0.6341;0.6348;
1110.3000;0.6349;0.6373;
1110.6000;0.6349;0.6297;
1110.9000;0.6300;0.6222;
1111.2000;0.6341;0.6398;
1111.5000;0.6349;0.6423;
1111.8000;0.6341;0.6449;
1112.1000;0.6341;0.6524;
1112.4000;0.6349;0.6549;
1112.7000;0.6357;0.6575;
1113.0000;0.6325;0.6549;
1113.3000;0.6333;0.6600;
1113.6000;0.6325;0.6625;
1113.9000;0.6349;0.6650;
1114.2000;0.6325;0.6625;
1114.5000;0.6333;0.6701;
1114.8000;0.6349;0.6776;
1115.1000;0.6357;0.6877;
1115.4000;0.6341;0.6927;
1115.7000;0.6341;0.6952;
1116.0000;0.6349;0.6852;
1116.3000;0.6325;0.6852;
1116.6000;0.6325;0.6877;
1116.9000;0.6349;0.6902;
1117.2000;0.6317;0.6776;
1117.5000;0.6325;0.6751;
1117.8000;0.6357;0.6751;
1118.1000;0.6325;0.6675;
1118.4000;0.6300;0.6625;
1118.7000;0.6292;0.6575;
1119.0000;0.6341;0.6650;
1119.3000;0.6357;0.6600;
1119.6000;0.6341;0.6575;
1119.9000;0.6341;0.6650;
1120.2000;0.6341;0.6675;
1120.5000;0.6349;0.6751;
1120.8000;0.6333;0.6701;
1121.1000;0.6333;0.6701;
1121.4000;0.6349;0.6675;
1121.7000;0.6349;0.6776;
1122.0000;0.6284;0.6726;
1122.3000;0.6341;0.6877;
1122.6000;0.6333;0.6852;
1122.9000;0.6349;0.6801;
1123.2000;0.6341;0.6675;
1123.5000;0.6333;0.6701;
1123.8000;0.6341;0.6675;
1124.1000;0.6309;0.6575;
1124.4000;0.6341;0.6675;
1124.7000;0.6276;0.6499;
1125.0000;0.6333;0.6625;
1125.3000;0.6349;0.6726;
1125.6000;0.6341;0.6751;
1125.9000;0.6365;0.6776;
1126.2000;0.6325;0.6701;
1126.5000;0.6341;0.6751;
1126.8000;0.6333;0.6675;
1127.1000;0.6325;0.6625;
1127.4000;0.6235;0.6348;
1127.7000;0.6333;0.6524;
1128.0000;0.6325;0.6575;
1128.3000;0.6349;0.6549;
1128.6000;0.6325;0.6600;
1128.9000;0.6284;0.6499;
1129.2000;0.6341;0.6600;
1129.5000;0.6357;0.6524;
1129.8000;0.6357;0.6474;
1130.1000;0.6268;0.6222;
1130.4000;0.6317;0.6449;
1130.7000;0.6333;0.6524;
1131.0000;0.6341;0.6499;
1131.3000;0.6357;0.6524;
1131.6000;0.6341;0.6499;
1131.9000;0.6341;0.6549;
1132.2000;0.6325;0.6499;
1132.5000;0.6365;0.6423;
1132.8000;0.6333;0.6373;
1133.1000;0.6341;0.6474;
1133.4000;0.6300;0.6474;
1133.7000;0.6317;0.6499;
1134.0000;0.6333;0.6499;
1134.3000;0.6341;0.6499;
1134.6000;0.6333;0.6575;
1134.9000;0.6333;0.6549;
1135.2000;0.6333;0.6474;
1135.5000;0.6284;0.6449;
1135.8000;0.6357;0.6675;
1136.1000;0.6333;0.6625;
1136.4000;0.6341;0.6625;
1136.7000;0.6349;0.6625;
1137.0000;0.6341;0.6701;
1137.3000;0.6341;0.6751;
1137.6000;0.6333;0.6726;
1137.9000;0.6333;0.6650;
1138.2000;0.6365;0.6751;
1138.5000;0.6349;0.6751;
1138.8000;0.6374;0.6776;
1139.1000;0.6325;0.6650;
1139.4000;0.6349;0.6726;
1139.7000;0.6341;0.6600;
1140.0000;0.6325;0.6600;
1140.3000;0.6325;0.6524;
1140.6000;0.6382;0.6675;
1140.9000;0.6333;0.6575;
1141.2000;0.6333;0.6600;
1141.5000;0.6333;0.6650;
1141.8000;0.6300;0.6499;
1142.1000;0.6349;0.6625;
1142.4000;0.6341;0.6650;
1142.7000;0.6325;0.6650;
1143.0000;0.6349;0.6701;
1143.3000;0.6341;0.6726;
1143.6000;0.6317;0.6600;
1143.9000;0.6260;0.6474;
1144.2000;0.6341;0.6701;
1144.5000;0.6317;0.6625;
1144.8000;0.6341;0.6650;
1145.1000;0.6333;0.6499;
1145.4000;0.6333;0.6549;
1145.7000;0.6365;0.6575;
1146.0000;0.6382;0.6776;
1146.3000;0.6341;0.6549;
1146.6000;0.6325;0.6499;
1146.9000;0.6341;0.6650;
1147.2000;0.6325;0.6625;
1147.5000;0.6357;0.6701;
1147.8000;0.6422;0.6902;
1148.1000;0.6243;0.6449;
1148.4000;0.6341;0.6776;
1148.7000;0.6333;0.6826;
1149.0000;0.6309;0.6675;
1149.3000;0.6333;0.6625;
1149.6000;0.6357;0.6776;
1149.9000;0.6260;0.6524;
1150.2000;0.6325;0.6726;
1150.5000;0.6309;0.6625;
1150.8000;0.6333;0.6625;
1151.1000;0.6333;0.6675;
1151.4000;0.6325;0.6549;
1151.7000;0.6374;0.6675;
1152.0000;0.6317;0.6474;
1152.3000;0.6365;0.6650;
1152.6000;0.6333;0.6575;
1152.9000;0.6317;0.6499;
1153.2000;0.6317;0.6549;
1153.5000;0.6333;0.6650;
1153.8000;0.6333;0.6625;
1154.1000;0.6325;0.6650;
1154.4000;0.6325;0.6625;
1154.7000;0.6325;0.6675;
1155.0000;0.6325;0.6625;
1155.3000;0.6333;0.6600;
1155.6000;0.6341;0.6449;
1155.9000;0.6325;0.6398;
1156.2000;0.6333;0.6398;
1156.5000;0.6325;0.6348;
1156.8000;0.6325;0.6373;
1157.1000;0.6341;0.6499;
1157.4000;0.6349;0.6449;
1157.7000;0.6333;0.6373;
1158.0000;0.6357;0.6423;
1158.3000;0.6333;0.6449;
1158.6000;0.6341;0.6474;
1158.9000;0.6325;0.6423;
1159.2000;0.6341;0.6549;
1159.5000;0.6325;0.6575;
1159.8000;0.6325;0.6600;
1160.1000;0.6333;0.6524;
1160.4000;0.6317;0.6474;
1160.7000;0.6317;0.6524;
1161.0000;0.6333;0.6625;
1161.3000;0.6325;0.6625;
1161.6000;0.6317;0.6650;
1161.9000;0.6317;0.6726;
1162.2000;0.6309;0.6726;
1162.5000;0.6341;0.6826;
1162.8000;0.6325;0.6726;
1163.1000;0.6349;0.6726;
1163.4000;0.6333;0.6650;
1163.7000;0.6325;0.6675;
1164.0000;0.6325;0.6600;
1164.3000;0.6300;0.6575;
1164.6000;0.6349;0.6650;
1164.9000;0.6309;0.6600;
1165.2000;0.6325;0.6600;
1165.5000;0.6357;0.6726;
1165.8000;0.6333;0.6726;
1166.1000;0.6374;0.6877;
1166.4000;0.6325;0.6776;
1166.7000;0.6325;0.6726;
1167.0000;0.6309;0.6650;
1167.3000;0.6341;0.6776;
1167.6000;0.6341;0.6701;
1167.9000;0.6333;0.6751;
1168.2000;0.6341;0.6852;
1168.5000;0.6325;0.6776;
1168.8000;0.6317;0.6826;
1169.1000;0.6309;0.6826;
1169.4000;0.6309;0.6801;
1169.7000;0.6317;0.6801;
1170.0000;0.6341;0.6801;
1170.3000;0.6325;0.6751;
1170.6000;0.6382;0.6927;
1170.9000;0.6357;0.6902;
1171.2000;0.6333;0.6877;
1171.5000;0.6341;0.6902;
1171.8000;0.6325;0.6776;
1172.1000;0.6317;0.6675;
1172.4000;0.6365;0.6826;
1172.7000;0.6333;0.6726;
1173.0000;0.6325;0.6675;
1173.3000;0.6300;0.6675;
1173.6000;0.6317;0.6751;
1173.9000;0.6325;0.6751;
1174.2000;0.6309;0.6675;
1174.5000;0.6325;0.6650;
1174.8000;0.6341;0.6625;
1175.1000;0.6333;0.6675;
1175.4000;0.6341;0.6650;
1175.7000;0.6309;0.6701;
1176.0000;0.6309;0.6701;
1176.3000;0.6325;0.6751;
1176.6000;0.6325;0.6726;
1176.9000;0.6341;0.6776;
1177.2000;0.6317;0.6776;
1177.5000;0.6341;0.6952;
1177.8000;0.6341;0.6927;
1178.1000;0.6317;0.6826;
1178.4000;0.6333;0.6902;
1178.7000;0.6325;0.6852;
1179.0000;0.6333;0.6852;
1179.3000;0.6317;0.6751;
1179.6000;0.6325;0.6701;
1179.9000;0.6325;0.6776;
1180.2000;0.6333;0.6826;
1180.5000;0.6325;0.6826;
1180.8000;0.6325;0.6902;
1181.1000;0.6300;0.6902;
1181.4000;0.6300;0.6801;
1181.7000;0.6325;0.6877;
1182.0000;0.6333;0.6902;
1182.3000;0.6325;0.6852;
1182.6000;0.6341;0.6902;
1182.9000;0.6325;0.6902;
1183.2000;0.6333;0.6927;
1183.5000;0.6325;0.6801;
1183.8000;0.6325;0.6801;
1184.1000;0.6309;0.6801;
1184.4000;0.6357;0.6877;
1184.7000;0.6309;0.6776;
1185.0000;0.6309;0.6776;
1185.3000;0.6309;0.6701;
1185.6000;0.6292;0.6600;
1185.9000;0.6365;0.6776;
1186.2000;0.6317;0.6600;
1186.5000;0.6325;0.6625;
1186.8000;0.6317;0.6675;
1187.1000;0.6333;0.6776;
1187.4000;0.6357;0.6877;
1187.7000;0.6341;0.6877;
1188.0000;0.6333;0.6877;
1188.3000;0.6317;0.6751;
1188.6000;0.6300;0.6575;
1188.9000;0.6341;0.6726;
1189.2000;0.6349;0.6701;
1189.5000;0.6317;0.6625;
1189.8000;0.6317;0.6625;
1190.1000;0.6325;0.6801;
1190.4000;0.6333;0.6726;
1190.7000;0.6349;0.6726;
1191.0000;0.6317;0.6600;
1191.3000;0.6325;0.6675;
1191.6000;0.6333;0.6675;
1191.9000;0.6333;0.6751;
1192.2000;0.6333;0.6701;
1192.5000;0.6341;0.6701;
1192.8000;0.6325;0.6701;
1193.1000;0.6325;0.6701;
1193.4000;0.6325;0.6675;
1193.7000;0.6309;0.6650;
1194.0000;0.6317;0.6625;
1194.3000;0.6309;0.6650;
1194.6000;0.6309;0.6600;
1194.9000;0.6317;0.6600;
1195.2000;0.6341;0.6650;
1195.5000;0.6333;0.6600;
1195.8000;0.6309;0.6625;
1196.1000;0.6309;0.6675;
1196.4000;0.6317;0.6826;
1196.7000;0.6325;0.6826;
1197.0000;0.6333;0.6751;
1197.3000;0.6325;0.6726;
1197.6000;0.6317;0.6726;
1197.9000;0.6325;0.6625;
1198.2000;0.6309;0.6625;
1198.5000;0.6325;0.6600;
1198.8000;0.6317;0.6549;
1199.1000;0.6325;0.6524;
1199.4000;0.6325;0.6474;
1199.7000;0.6390;0.6726;
1200.0000;0.6317;0.6600;
1200.3000;0.6325;0.6600;
1200.6000;0.6325;0.6600;
1200.9000;0.6325;0.6650;
1201.2000;0.6325;0.6650;
1201.5000;0.6333;0.6675;
1201.8000;0.6317;0.6650;
1202.1000;0.6341;0.6726;
1202.4000;0.6333;0.6726;
1202.7000;0.6300;0.6726;
1203.0000;0.6309;0.6751;
1203.3000;0.6341;0.6801;
1203.6000;0.6341;0.6826;
1203.9000;0.6317;0.6776;
1204.2000;0.6317;0.6751;
1204.5000;0.6325;0.6751;
1204.8000;0.6300;0.6675;
1205.1000;0.6300;0.6751;
1205.4000;0.6292;0.6726;
1205.7000;0.6317;0.6726;
1206.0000;0.6325;0.6726;
1206.3000;0.6243;0.6524;
1206.6000;0.6300;0.6675;
1206.9000;0.6325;0.6701;
1207.2000;0.6333;0.6726;
1207.5000;0.6341;0.6801;
1207.8000;0.6300;0.6726;
1208.1000;0.6325;0.6751;
1208.4000;0.6325;0.6726;
1208.7000;0.6325;0.6675;
1209.0000;0.6317;0.6701;
1209.3000;0.6300;0.6675;
1209.6000;0.6374;0.7003;
1209.9000;0.6325;0.6852;
1210.2000;0.6317;0.6751;
1210.5000;0.6317;0.6726;
1210.8000;0.6309;0.6776;
1211.1000;0.6317;0.6751;
1211.4000;0.6325;0.6701;
1211.7000;0.6325;0.6776;
1212.0000;0.6325;0.6877;
1212.3000;0.6333;0.6902;
1212.6000;0.6300;0.6826;
1212.9000;0.6317;0.6852;
1213.2000;0.6292;0.6776;
1213.5000;0.6333;0.6776;
1213.8000;0.6317;0.6776;
1214.1000;0.6341;0.6826;
1214.4000;0.6292;0.6675;
1214.7000;0.6309;0.6701;
1215.0000;0.6317;0.6726;
1215.3000;0.6317;0.6776;
1215.6000;0.6292;0.6675;
1215.9000;0.6325;0.6726;
1216.2000;0.6317;0.6701;
1216.5000;0.6325;0.6751;
1216.8000;0.6325;0.6701;
1217.1000;0.6325;0.6650;
1217.4000;0.6333;0.6751;
1217.7000;0.6325;0.6675;
1218.0000;0.6317;0.6701;
1218.3000;0.6333;0.6675;
1218.6000;0.6309;0.6650;
1218.9000;0.6325;0.6650;
1219.2000;0.6300;0.6549;
1219.5000;0.6300;0.6549;
1219.8000;0.6317;0.6625;
1220.1000;0.6309;0.6675;
1220.4000;0.6300;0.6675;
1220.7000;0.6309;0.6751;
1221.0000;0.6317;0.6776;
1221.3000;0.6309;0.6675;
1221.6000;0.6309;0.6650;
1221.9000;0.6309;0.6675;
1222.2000;0.6292;0.6600;
1222.5000;0.6325;0.6776;
1222.8000;0.6292;0.6701;
1223.1000;0.6317;0.6701;
1223.4000;0.6333;0.6826;
1223.7000;0.6317;0.6801;
1224.0000;0.6317;0.6801;
1224.3000;0.6309;0.6877;
1224.6000;0.6300;0.6902;
1224.9000;0.6317;0.6877;
1225.2000;0.6300;0.6751;
1225.5000;0.6357;0.6751;
1225.8000;0.6317;0.6625;
1226.1000;0.6333;0.6625;
1226.4000;0.6325;0.6751;
1226.7000;0.6317;0.6575;
1227.0000;0.6317;0.6650;
1227.3000;0.6349;0.6701;
1227.6000;0.6325;0.6625;
1227.9000;0.6333;0.6701;
1228.2000;0.6317;0.6726;
1228.5000;0.6276;0.6600;
1228.8000;0.6317;0.6751;
1229.1000;0.6300;0.6776;
1229.4000;0.6292;0.6751;
1229.7000;0.6292;0.6701;
1230.0000;0.6317;0.6675;
1230.3000;0.6309;0.6650;
1230.6000;0.6309;0.6625;
1230.9000;0.6317;0.6675;
1231.2000;0.6317;0.6776;
1231.5000;0.6309;0.6877;
1231.8000;0.6309;0.6751;
1232.1000;0.6300;0.6675;
1232.4000;0.6317;0.6701;
1232.7000;0.6309;0.6726;
1233.0000;0.6309;0.6852;
1233.3000;0.6317;0.6726;
1233.6000;0.6300;0.6575;
1233.9000;0.6317;0.6524;
1234.2000;0.6317;0.6549;
1234.5000;0.6284;0.6549;
1234.8000;0.6300;0.6600;
1235.1000;0.6276;0.6524;
1235.4000;0.6309;0.6549;
1235.7000;0.6300;0.6575;
1236.0000;0.6309;0.6549;
1236.3000;0.6406;0.6776;
1236.6000;0.6325;0.6575;
1236.9000;0.6317;0.6549;
1237.2000;0.6300;0.6524;
1237.5000;0.6325;0.6575;
1237.8000;0.6333;0.6549;
1238.1000;0.6365;0.6625;
1238.4000;0.6300;0.6499;
1238.7000;0.6325;0.6524;
1239.0000;0.6317;0.6600;
1239.3000;0.6317;0.6650;
1239.6000;0.6300;0.6726;
1239.9000;0.6300;0.6675;
1240.2000;0.6357;0.6826;
1240.5000;0.6317;0.6751;
1240.8000;0.6325;0.6751;
1241.1000;0.6333;0.6801;
1241.4000;0.6317;0.6852;
1241.7000;0.6317;0.6776;
1242.0000;0.6300;0.6701;
1242.3000;0.6317;0.6726;
1242.6000;0.6365;0.6852;
1242.9000;0.6309;0.6726;
1243.2000;0.6284;0.6575;
1243.5000;0.6292;0.6600;
1243.8000;0.6333;0.6776;
1244.1000;0.6317;0.6826;
1244.4000;0.6325;0.6776;
1244.7000;0.6317;0.6726;
1245.0000;0.6317;0.6751;
1245.3000;0.6365;0.6952;
1245.6000;0.6309;0.6852;
1245.9000;0.6300;0.6852;
1246.2000;0.6309;0.6826;
1246.5000;0.6300;0.6726;
1246.8000;0.6341;0.6776;
1247.1000;0.6300;0.6675;
1247.4000;0.6292;0.6701;
1247.7000;0.6252;0.6625;
1248.0000;0.6309;0.6776;
1248.3000;0.6300;0.6726;
1248.6000;0.6382;0.6877;
1248.9000;0.6317;0.6701;
1249.2000;0.6292;0.6625;
1249.5000;0.6333;0.6801;
1249.8000;0.6309;0.6751;
1250.1000;0.6300;0.6751;
1250.4000;0.6317;0.6776;
1250.7000;0.6309;0.6726;
1251.0000;0.6284;0.6625;
1251.3000;0.6292;0.6625;
1251.6000;0.6317;0.6675;
1251.9000;0.6333;0.6701;
1252.2000;0.6317;0.6575;
1252.5000;0.6309;0.6575;
1252.8000;0.6317;0.6625;
1253.1000;0.6317;0.6726;
1253.4000;0.6309;0.6852;
1253.7000;0.6300;0.6826;
1254.0000;0.6243;0.6726;
1254.3000;0.6317;0.6978;
1254.6000;0.6300;0.6877;
1254.9000;0.6300;0.6877;
1255.2000;0.6292;0.6877;
1255.5000;0.6309;0.6952;
1255.8000;0.6317;0.6902;
1256.1000;0.6309;0.6877;
1256.4000;0.6292;0.6852;
1256.7000;0.6284;0.6776;
1257.0000;0.6325;0.6902;
1257.3000;0.6317;0.6877;
1257.6000;0.6252;0.6801;
1257.9000;0.6292;0.6902;
1258.2000;0.6300;0.6902;
1258.5000;0.6317;0.6877;
1258.8000;0.6309;0.6776;
1259.1000;0.6325;0.6801;
1259.4000;0.6317;0.6751;
1259.7000;0.6325;0.6776;
1260.0000;0.6333;0.6852;
1260.3000;0.6317;0.6726;
1260.6000;0.6325;0.6751;
1260.9000;0.6317;0.6751;
1261.2000;0.6292;0.6625;
1261.5000;0.6300;0.6751;
1261.8000;0.6325;0.6902;
1262.1000;0.6374;0.7028;
1262.4000;0.6276;0.6826;
1262.7000;0.6284;0.6902;
1263.0000;0.6317;0.6952;
1263.3000;0.6300;0.6902;
1263.6000;0.6260;0.6877;
1263.9000;0.6365;0.7053;
1264.2000;0.6325;0.6902;
1264.5000;0.6309;0.6852;
1264.8000;0.6300;0.6902;
1265.1000;0.6349;0.6978;
1265.4000;0.6284;0.6852;
1265.7000;0.6333;0.7003;
1266.0000;0.6276;0.6852;
1266.3000;0.6284;0.6852;
1266.6000;0.6292;0.6902;
1266.9000;0.6292;0.6902;
1267.2000;0.6252;0.6675;
1267.5000;0.6300;0.6726;
1267.8000;0.6300;0.6701;
1268.1000;0.6341;0.6801;
1268.4000;0.6333;0.6801;
1268.7000;0.6325;0.6801;
1269.0000;0.6284;0.6801;
1269.3000;0.6309;0.6927;
1269.6000;0.6325;0.6852;
1269.9000;0.6292;0.6927;
1270.2000;0.6309;0.6902;
1270.5000;0.6300;0.6826;
1270.8000;0.6292;0.6927;
1271.1000;0.6325;0.6952;
1271.4000;0.6292;0.7028;
1271.7000;0.6300;0.6978;
1272.0000;0.6284;0.6952;
1272.3000;0.6309;0.6978;
1272.6000;0.6317;0.7003;
1272.9000;0.6317;0.7003;
1273.2000;0.6292;0.6877;
1273.5000;0.6300;0.6801;
1273.8000;0.6333;0.6902;
1274.1000;0.6292;0.6877;
1274.4000;0.6325;0.6902;
1274.7000;0.6325;0.6902;
1275.0000;0.6325;0.6877;
1275.3000;0.6284;0.6776;
1275.6000;0.6276;0.6776;
1275.9000;0.6292;0.6877;
1276.2000;0.6300;0.6877;
1276.5000;0.6292;0.6826;
1276.8000;0.6284;0.6852;
1277.1000;0.6292;0.6852;
1277.4000;0.6317;0.6902;
1277.7000;0.6292;0.6852;
1278.0000;0.6317;0.6826;
1278.3000;0.6292;0.6751;
1278.6000;0.6333;0.6877;
1278.9000;0.6317;0.6852;
1279.2000;0.6309;0.6776;
1279.5000;0.6292;0.6902;
1279.8000;0.6317;0.6902;
1280.1000;0.6300;0.6852;
1280.4000;0.6300;0.6877;
1280.7000;0.6309;0.6877;
1281.0000;0.6317;0.6852;
1281.3000;0.6309;0.6877;
1281.6000;0.6292;0.6852;
1281.9000;0.6317;0.6826;
1282.2000;0.6325;0.6826;
1282.5000;0.6317;0.6751;
1282.8000;0.6300;0.6701;
1283.1000;0.6333;0.6751;
1283.4000;0.6317;0.6726;
1283.7000;0.6309;0.6751;
1284.0000;0.6309;0.6726;
1284.3000;0.6317;0.6625;
1284.6000;0.6309;0.6575;
1284.9000;0.6300;0.6675;
1285.2000;0.6325;0.6751;
1285.5000;0.6284;0.6776;
1285.8000;0.6317;0.6826;
1286.1000;0.6325;0.6877;
1286.4000;0.6341;0.6927;
1286.7000;0.6300;0.6826;
1287.0000;0.6292;0.6801;
1287.3000;0.6260;0.6701;
1287.6000;0.6292;0.6701;
1287.9000;0.6300;0.6701;
1288.2000;0.6309;0.6726;
1288.5000;0.6309;0.6701;
1288.8000;0.6309;0.6701;
1289.1000;0.6284;0.6650;
1289.4000;0.6276;0.6675;
1289.7000;0.6300;0.6726;
1290.0000;0.6300;0.6751;
1290.3000;0.6357;0.6927;
1290.6000;0.6284;0.6726;
1290.9000;0.6325;0.6751;
1291.2000;0.6284;0.6701;
1291.5000;0.6317;0.6751;
1291.8000;0.6300;0.6751;
1292.1000;0.6300;0.6726;
1292.4000;0.6300;0.6726;
1292.7000;0.6292;0.6675;
1293.0000;0.6349;0.6927;
1293.3000;0.6292;0.6751;
1293.6000;0.6300;0.6826;
1293.9000;0.6300;0.6877;
1294.2000;0.6341;0.7003;
1294.5000;0.6300;0.6927;
1294.8000;0.6300;0.6952;
1295.1000;0.6300;0.7003;
1295.4000;0.6300;0.7028;
1295.7000;0.6276;0.7003;
1296.0000;0.6292;0.7104;
1296.3000;0.6300;0.7129;
1296.6000;0.6309;0.7028;
1296.9000;0.6284;0.7028;
1297.2000;0.6292;0.7003;
1297.5000;0.6284;0.6952;
1297.8000;0.6276;0.6927;
1298.1000;0.6292;0.7028;
1298.4000;0.6284;0.7104;
1298.7000;0.6292;0.7053;
1299.0000;0.6317;0.7104;
1299.3000;0.6292;0.7003;
1299.6000;0.6292;0.6952;
1299.9000;0.6292;0.6927;
1300.2000;0.6333;0.6852;
1300.5000;0.6325;0.6776;
1300.8000;0.6333;0.6751;
1301.1000;0.6333;0.6751;
1301.4000;0.6284;0.6675;
1301.7000;0.6284;0.6625;
1302.0000;0.6284;0.6625;
1302.3000;0.6284;0.6701;
1302.6000;0.6309;0.6877;
1302.9000;0.6317;0.6852;
1303.2000;0.6260;0.6877;
1303.5000;0.6227;0.6852;
1303.8000;0.6325;0.6978;
1304.1000;0.6357;0.7003;
1304.4000;0.6292;0.6902;
1304.7000;0.6268;0.6927;
1305.0000;0.6284;0.6952;
1305.3000;0.6292;0.6927;
1305.6000;0.6268;0.6877;
1305.9000;0.6252;0.6776;
1306.2000;0.6292;0.6852;
1306.5000;0.6341;0.6927;
1306.8000;0.6341;0.6902;
1307.1000;0.6284;0.6801;
1307.4000;0.6300;0.6852;
1307.7000;0.6309;0.6877;
1308.0000;0.6284;0.6751;
1308.3000;0.6317;0.6701;
1308.6000;0.6309;0.6650;
1308.9000;0.6309;0.6675;
1309.2000;0.6317;0.6751;
1309.5000;0.6333;0.6852;
1309.8000;0.6309;0.6801;
1310.1000;0.6300;0.6776;
1310.4000;0.6309;0.6852;
1310.7000;0.6284;0.6776;
1311.0000;0.6276;0.6801;
1311.3000;0.6292;0.6877;
1311.6000;0.6309;0.6852;
1311.9000;0.6300;0.6852;
1312.2000;0.6284;0.6776;
1312.5000;0.6292;0.6801;
1312.8000;0.6341;0.6952;
1313.1000;0.6300;0.6927;
1313.4000;0.6309;0.6877;
1313.7000;0.6292;0.6826;
1314.0000;0.6300;0.6877;
1314.3000;0.6243;0.6826;
1314.6000;0.6325;0.6978;
1314.9000;0.6292;0.6902;
1315.2000;0.6300;0.6852;
1315.5000;0.6260;0.6826;
1315.8000;0.6284;0.6877;
1316.1000;0.6292;0.6877;
1316.4000;0.6276;0.6852;
1316.7000;0.6284;0.6852;
1317.0000;0.6325;0.6978;
1317.3000;0.6268;0.6852;
1317.6000;0.6292;0.6776;
1317.9000;0.6300;0.6776;
1318.2000;0.6284;0.6801;
1318.5000;0.6284;0.6852;
1318.8000;0.6300;0.6902;
1319.1000;0.6292;0.6801;
1319.4000;0.6300;0.6776;
1319.7000;0.6309;0.6776;
1320.0000;0.6243;0.6625;
1320.3000;0.6276;0.6650;
1320.6000;0.6317;0.6751;
1320.9000;0.6300;0.6776;
1321.2000;0.6284;0.6751;
1321.5000;0.6284;0.6751;
1321.8000;0.6292;0.6751;
1322.1000;0.6276;0.6625;
1322.4000;0.6300;0.6625;
1322.7000;0.6292;0.6650;
1323.0000;0.6276;0.6701;
1323.3000;0.6292;0.6776;
1323.6000;0.6284;0.6776;
1323.9000;0.6292;0.6801;
1324.2000;0.6260;0.6650;
1324.5000;0.6292;0.6751;
1324.8000;0.6252;0.6751;
1325.1000;0.6276;0.6801;
1325.4000;0.6292;0.6852;
1325.7000;0.6284;0.6826;
1326.0000;0.6292;0.6877;
1326.3000;0.6284;0.6877;
1326.6000;0.6276;0.6877;
1326.9000;0.6292;0.6877;
1327.2000;0.6309;0.6826;
1327.5000;0.6300;0.6776;
1327.8000;0.6276;0.6801;
1328.1000;0.6292;0.6852;
1328.4000;0.6300;0.6877;
1328.7000;0.6309;0.6826;
1329.0000;0.6300;0.6751;
1329.3000;0.6300;0.6726;
1329.6000;0.6300;0.6852;
1329.9000;0.6317;0.6877;
1330.2000;0.6284;0.6826;
1330.5000;0.6292;0.6978;
1330.8000;0.6292;0.6978;
1331.1000;0.6300;0.6927;
1331.4000;0.6292;0.6776;
1331.7000;0.6284;0.6726;
1332.0000;0.6317;0.6776;
1332.3000;0.6292;0.6625;
1332.6000;0.6374;0.6726;
1332.9000;0.6276;0.6474;
1333.2000;0.6284;0.6449;
1333.5000;0.6300;0.6449;
1333.8000;0.6276;0.6474;
1334.1000;0.6276;0.6549;
1334.4000;0.6260;0.6575;
1334.7000;0.6317;0.6650;
1335.0000;0.6268;0.6701;
1335.3000;0.6276;0.6877;
1335.6000;0.6284;0.6852;
1335.9000;0.6284;0.6877;
1336.2000;0.6252;0.6751;
1336.5000;0.6284;0.6902;
1336.8000;0.6284;0.6952;
1337.1000;0.6284;0.6978;
1337.4000;0.6317;0.6927;
1337.7000;0.6284;0.6826;
1338.0000;0.6284;0.6776;
1338.3000;0.6268;0.6701;
1338.6000;0.6300;0.6726;
1338.9000;0.6284;0.6675;
1339.2000;0.6292;0.6701;
1339.5000;0.6300;0.6675;
1339.8000;0.6284;0.6650;
1340.1000;0.6309;0.6751;
1340.4000;0.6309;0.6726;
1340.7000;0.6284;0.6675;
1341.0000;0.6292;0.6650;
1341.3000;0.6292;0.6625;
1341.6000;0.6292;0.6625;
1341.9000;0.6284;0.6600;
1342.2000;0.6292;0.6575;
1342.5000;0.6309;0.6575;
1342.8000;0.6276;0.6650;
1343.1000;0.6317;0.6675;
1343.4000;0.6292;0.6600;
1343.7000;0.6309;0.6625;
1344.0000;0.6292;0.6549;
1344.3000;0.6300;0.6549;
1344.6000;0.6260;0.6499;
1344.9000;0.6252;0.6499;
1345.2000;0.6300;0.6524;
1345.5000;0.6252;0.6297;
1345.8000;0.6219;0.6222;
1346.1000;0.6284;0.6423;
1346.4000;0.6292;0.6423;
1346.7000;0.6284;0.6474;
1347.0000;0.6268;0.6423;
1347.3000;0.6276;0.6449;
1347.6000;0.6268;0.6423;
1347.9000;0.6276;0.6474;
1348.2000;0.6284;0.6474;
1348.5000;0.6268;0.6474;
1348.8000;0.6292;0.6549;
1349.1000;0.6309;0.6524;
1349.4000;0.6276;0.6423;
1349.7000;0.6276;0.6449;
1350.0000;0.6333;0.6524;
1350.3000;0.6284;0.6499;
1350.6000;0.6365;0.6650;
1350.9000;0.6292;0.6474;
1351.2000;0.6284;0.6398;
1351.5000;0.6300;0.6474;
1351.8000;0.6292;0.6499;
1352.1000;0.6284;0.6474;
1352.4000;0.6309;0.6474;
1352.7000;0.6268;0.6423;
1353.0000;0.6260;0.6524;
1353.3000;0.6349;0.6726;
1353.6000;0.6317;0.6600;
1353.9000;0.6284;0.6549;
1354.2000;0.6243;0.6449;
1354.5000;0.6243;0.6474;
1354.8000;0.6276;0.6524;
1355.1000;0.6284;0.6524;
1355.4000;0.6309;0.6474;
1355.7000;0.6300;0.6449;
1356.0000;0.6292;0.6474;
1356.3000;0.6292;0.6499;
1356.6000;0.6292;0.6499;
1356.9000;0.6309;0.6600;
1357.2000;0.6284;0.6675;
1357.5000;0.6276;0.6575;
1357.8000;0.6292;0.6726;
1358.1000;0.6268;0.6751;
1358.4000;0.6284;0.6776;
1358.7000;0.6284;0.6751;
1359.0000;0.6357;0.6927;
1359.3000;0.6292;0.6826;
1359.6000;0.6333;0.7028;
1359.9000;0.6276;0.6751;
1360.2000;0.6333;0.6927;
1360.5000;0.6268;0.6776;
1360.8000;0.6284;0.6751;
1361.1000;0.6276;0.6801;
1361.4000;0.6341;0.7003;
1361.7000;0.6300;0.6877;
1362.0000;0.6292;0.6826;
1362.3000;0.6268;0.6751;
1362.6000;0.6317;0.6927;
1362.9000;0.6292;0.6801;
1363.2000;0.6284;0.6701;
1363.5000;0.6300;0.6776;
1363.8000;0.6300;0.6852;
1364.1000;0.6300;0.6801;
1364.4000;0.6284;0.6701;
1364.7000;0.6284;0.6801;
1365.0000;0.6284;0.6826;
1365.3000;0.6300;0.6852;
1365.6000;0.6292;0.6852;
1365.9000;0.6284;0.6801;
1366.2000;0.6300;0.6826;
1366.5000;0.6309;0.6877;
1366.8000;0.6317;0.6877;
1367.1000;0.6300;0.6751;
1367.4000;0.6276;0.6751;
1367.7000;0.6300;0.6776;
1368.0000;0.6292;0.6650;
1368.3000;0.6235;0.6423;
1368.6000;0.6292;0.6650;
1368.9000;0.6292;0.6701;
1369.2000;0.6292;0.6701;
1369.5000;0.6268;0.6726;
1369.8000;0.6333;0.6877;
1370.1000;0.6284;0.6826;
1370.4000;0.6292;0.6852;
1370.7000;0.6300;0.6877;
1371.0000;0.6309;0.6852;
1371.3000;0.6300;0.6751;
1371.6000;0.6300;0.6726;
1371.9000;0.6317;0.6701;
1372.2000;0.6243;0.6499;
1372.5000;0.6276;0.6701;
1372.8000;0.6300;0.6751;
1373.1000;0.6309;0.6726;
1373.4000;0.6260;0.6625;
1373.7000;0.6276;0.6625;
1374.0000;0.6276;0.6625;
1374.3000;0.6276;0.6575;
1374.6000;0.6268;0.6625;
1374.9000;0.6276;0.6726;
1375.2000;0.6284;0.6701;
1375.5000;0.6252;0.6625;
1375.8000;0.6284;0.6726;
1376.1000;0.6284;0.6751;
1376.4000;0.6309;0.6902;
1376.7000;0.6292;0.6826;
1377.0000;0.6268;0.6675;
1377.3000;0.6300;0.6726;
1377.6000;0.6284;0.6675;
1377.9000;0.6252;0.6600;
1378.2000;0.6300;0.6701;
1378.5000;0.6243;0.6499;
1378.8000;0.6276;0.6600;
1379.1000;0.6292;0.6600;
1379.4000;0.6276;0.6575;
1379.7000;0.6292;0.6575;
1380.0000;0.6243;0.6499;
1380.3000;0.6268;0.6524;
1380.6000;0.6284;0.6575;
1380.9000;0.6300;0.6650;
1381.2000;0.6243;0.6499;
1381.5000;0.6268;0.6449;
1381.8000;0.6292;0.6499;
1382.1000;0.6252;0.6423;
1382.4000;0.6284;0.6600;
1382.7000;0.6268;0.6625;
1383.0000;0.6284;0.6675;
1383.3000;0.6300;0.6675;
1383.6000;0.6309;0.6726;
1383.9000;0.6276;0.6726;
1384.2000;0.6276;0.6701;
1384.5000;0.6268;0.6600;
1384.8000;0.6292;0.6650;
1385.1000;0.6268;0.6625;
1385.4000;0.6260;0.6524;
1385.7000;0.6260;0.6600;
1386.0000;0.6268;0.6650;
1386.3000;0.6276;0.6726;
1386.6000;0.6268;0.6801;
1386.9000;0.6252;0.6726;
1387.2000;0.6292;0.6726;
1387.5000;0.6292;0.6650;
1387.8000;0.6243;0.6524;
1388.1000;0.6276;0.6625;
1388.4000;0.6300;0.6625;
1388.7000;0.6284;0.6701;
1389.0000;0.6227;0.6549;
1389.3000;0.6284;0.6650;
1389.6000;0.6309;0.6776;
1389.9000;0.6292;0.6726;
1390.2000;0.6260;0.6675;
1390.5000;0.6260;0.6751;
1390.8000;0.6284;0.6776;
1391.1000;0.6292;0.6776;
1391.4000;0.6292;0.6751;
1391.7000;0.6284;0.6751;
1392.0000;0.6300;0.6726;
1392.3000;0.6292;0.6675;
1392.6000;0.6284;0.6575;
1392.9000;0.6300;0.6575;
1393.2000;0.6284;0.6600;
1393.5000;0.6292;0.6600;
1393.8000;0.6292;0.6600;
1394.1000;0.6276;0.6625;
1394.4000;0.6284;0.6625;
1394.7000;0.6292;0.6650;
1395.0000;0.6284;0.6701;
1395.3000;0.6284;0.6726;
1395.6000;0.6268;0.6650;
1395.9000;0.6268;0.6726;
1396.2000;0.6284;0.6726;
1396.5000;0.6292;0.6776;
1396.8000;0.6284;0.6701;
1397.1000;0.6292;0.6776;
1397.4000;0.6284;0.6852;
1397.7000;0.6284;0.6801;
1398.0000;0.6292;0.6701;
1398.3000;0.6276;0.6726;
1398.6000;0.6300;0.6751;
1398.9000;0.6284;0.6801;
1399.2000;0.6292;0.6776;
1399.5000;0.6292;0.6751;
1399.8000;0.6268;0.6675;
