time/ms;Fluo/V;P700 deltaI/I x10³;
-199.8000;0.6756;0.7784;
-199.5000;0.6748;0.7834;
-199.2000;0.6813;0.8036;
-198.9000;0.6732;0.7834;
-198.6000;0.6740;0.7834;
-198.3000;0.6724;0.7733;
-198.0000;0.6740;0.7784;
-197.7000;0.6740;0.7784;
-197.4000;0.6756;0.7884;
-197.1000;0.6764;0.7910;
-196.8000;0.6756;0.7910;
-196.5000;0.6740;0.7859;
-196.2000;0.6748;0.7884;
-195.9000;0.6732;0.7859;
-195.6000;0.6756;0.7884;
-195.3000;0.6724;0.7733;
-195.0000;0.6732;0.7708;
-194.7000;0.6724;0.7633;
-194.4000;0.6740;0.7658;
-194.1000;0.6756;0.7809;
-193.8000;0.6732;0.7759;
-193.5000;0.6732;0.7733;
-193.2000;0.6707;0.7733;
-192.9000;0.6764;0.7834;
-192.6000;0.6748;0.7809;
-192.3000;0.6732;0.7859;
-192.0000;0.6740;0.7809;
-191.7000;0.6805;0.7985;
-191.4000;0.6707;0.7809;
-191.1000;0.6740;0.7834;
-190.8000;0.6732;0.7834;
-190.5000;0.6732;0.7834;
-190.2000;0.6748;0.7884;
-189.9000;0.6748;0.7935;
-189.6000;0.6740;0.7960;
-189.3000;0.6740;0.7935;
-189.0000;0.6716;0.7910;
-188.7000;0.6756;0.7935;
-188.4000;0.6748;0.7910;
-188.1000;0.6748;0.7884;
-187.8000;0.6740;0.7834;
-187.5000;0.6781;0.7884;
-187.2000;0.6764;0.7884;
-186.9000;0.6748;0.7884;
-186.6000;0.6691;0.7733;
-186.3000;0.6748;0.7884;
-186.0000;0.6724;0.7910;
-185.7000;0.6764;0.8086;
-185.4000;0.6756;0.8061;
-185.1000;0.6724;0.8111;
-184.8000;0.6732;0.8086;
-184.5000;0.6756;0.8162;
-184.2000;0.6781;0.8288;
-183.9000;0.6740;0.8136;
-183.6000;0.6740;0.8212;
-183.3000;0.6732;0.8162;
-183.0000;0.6740;0.8187;
-182.7000;0.6732;0.8162;
-182.4000;0.6716;0.8036;
-182.1000;0.6740;0.8010;
-181.8000;0.6781;0.8111;
-181.5000;0.6789;0.8061;
-181.2000;0.6732;0.7910;
-180.9000;0.6756;0.7960;
-180.6000;0.6748;0.7985;
-180.3000;0.6724;0.7935;
-180.0000;0.6724;0.7935;
-179.7000;0.6716;0.7859;
-179.4000;0.6748;0.7985;
-179.1000;0.6748;0.8010;
-178.8000;0.6732;0.8010;
-178.5000;0.6716;0.8010;
-178.2000;0.6748;0.8162;
-177.9000;0.6748;0.8086;
-177.6000;0.6740;0.8061;
-177.3000;0.6732;0.7985;
-177.0000;0.6707;0.7884;
-176.7000;0.6724;0.7960;
-176.4000;0.6732;0.7960;
-176.1000;0.6748;0.7960;
-175.8000;0.6740;0.7960;
-175.5000;0.6732;0.7935;
-175.2000;0.6781;0.8010;
-174.9000;0.6748;0.7884;
-174.6000;0.6756;0.7910;
-174.3000;0.6748;0.7910;
-174.0000;0.6740;0.7985;
-173.7000;0.6772;0.7960;
-173.4000;0.6732;0.7884;
-173.1000;0.6764;0.7985;
-172.8000;0.6732;0.7935;
-172.5000;0.6707;0.7859;
-172.2000;0.6732;0.7884;
-171.9000;0.6740;0.7859;
-171.6000;0.6724;0.7859;
-171.3000;0.6740;0.7809;
-171.0000;0.6699;0.7759;
-170.7000;0.6724;0.7809;
-170.4000;0.6732;0.7859;
-170.1000;0.6732;0.7910;
-169.8000;0.6732;0.7910;
-169.5000;0.6699;0.7809;
-169.2000;0.6740;0.7884;
-168.9000;0.6748;0.7859;
-168.6000;0.6740;0.7910;
-168.3000;0.6716;0.7859;
-168.0000;0.6748;0.7935;
-167.7000;0.6764;0.8010;
-167.4000;0.6732;0.8010;
-167.1000;0.6732;0.7985;
-166.8000;0.6748;0.7910;
-166.5000;0.6748;0.7910;
-166.2000;0.6740;0.7910;
-165.9000;0.6732;0.7910;
-165.6000;0.6716;0.7834;
-165.3000;0.6724;0.7910;
-165.0000;0.6740;0.7935;
-164.7000;0.6716;0.7809;
-164.4000;0.6740;0.7910;
-164.1000;0.6740;0.7859;
-163.8000;0.6756;0.7809;
-163.5000;0.6691;0.7658;
-163.2000;0.6740;0.7683;
-162.9000;0.6724;0.7733;
-162.6000;0.6756;0.7859;
-162.3000;0.6740;0.7884;
-162.0000;0.6756;0.7884;
-161.7000;0.6732;0.7859;
-161.4000;0.6716;0.7935;
-161.1000;0.6756;0.8010;
-160.8000;0.6732;0.7935;
-160.5000;0.6732;0.7910;
-160.2000;0.6732;0.7960;
-159.9000;0.6732;0.7834;
-159.6000;0.6740;0.7859;
-159.3000;0.6740;0.7859;
-159.0000;0.6748;0.7809;
-158.7000;0.6748;0.7809;
-158.4000;0.6732;0.7759;
-158.1000;0.6732;0.7733;
-157.8000;0.6732;0.7809;
-157.5000;0.6740;0.7935;
-157.2000;0.6732;0.7884;
-156.9000;0.6740;0.7935;
-156.6000;0.6740;0.7985;
-156.3000;0.6732;0.8036;
-156.0000;0.6740;0.8010;
-155.7000;0.6724;0.8036;
-155.4000;0.6740;0.8061;
-155.1000;0.6772;0.8111;
-154.8000;0.6748;0.8086;
-154.5000;0.6748;0.8010;
-154.2000;0.6740;0.7960;
-153.9000;0.6740;0.7985;
-153.6000;0.6740;0.7935;
-153.3000;0.6740;0.7960;
-153.0000;0.6764;0.7985;
-152.7000;0.6699;0.7809;
-152.4000;0.6748;0.7834;
-152.1000;0.6748;0.7759;
-151.8000;0.6764;0.7759;
-151.5000;0.6724;0.7708;
-151.2000;0.6732;0.7708;
-150.9000;0.6732;0.7733;
-150.6000;0.6748;0.7809;
-150.3000;0.6732;0.7859;
-150.0000;0.6748;0.7884;
-149.7000;0.6764;0.7935;
-149.4000;0.6732;0.7960;
-149.1000;0.6732;0.8036;
-148.8000;0.6781;0.8036;
-148.5000;0.6740;0.7884;
-148.2000;0.6748;0.7884;
-147.9000;0.6748;0.7884;
-147.6000;0.6732;0.7884;
-147.3000;0.6732;0.8036;
-147.0000;0.6732;0.8136;
-146.7000;0.6683;0.7910;
-146.4000;0.6699;0.7910;
-146.1000;0.6732;0.8061;
-145.8000;0.6724;0.7960;
-145.5000;0.6724;0.7859;
-145.2000;0.6740;0.7784;
-144.9000;0.6756;0.7809;
-144.6000;0.6732;0.7834;
-144.3000;0.6740;0.7834;
-144.0000;0.6740;0.7809;
-143.7000;0.6740;0.7884;
-143.4000;0.6748;0.7910;
-143.1000;0.6740;0.7910;
-142.8000;0.6740;0.8061;
-142.5000;0.6707;0.7910;
-142.2000;0.6724;0.7910;
-141.9000;0.6691;0.7708;
-141.6000;0.6707;0.7759;
-141.3000;0.6724;0.7784;
-141.0000;0.6789;0.7910;
-140.7000;0.6732;0.7834;
-140.4000;0.6732;0.7884;
-140.1000;0.6724;0.7910;
-139.8000;0.6789;0.8036;
-139.5000;0.6740;0.7834;
-139.2000;0.6740;0.7784;
-138.9000;0.6732;0.7759;
-138.6000;0.6740;0.7759;
-138.3000;0.6756;0.7759;
-138.0000;0.6748;0.7683;
-137.7000;0.6740;0.7633;
-137.4000;0.6740;0.7708;
-137.1000;0.6756;0.7658;
-136.8000;0.6724;0.7658;
-136.5000;0.6724;0.7733;
-136.2000;0.6748;0.7834;
-135.9000;0.6732;0.7859;
-135.6000;0.6740;0.7834;
-135.3000;0.6740;0.7859;
-135.0000;0.6740;0.7884;
-134.7000;0.6716;0.7809;
-134.4000;0.6724;0.7834;
-134.1000;0.6732;0.7834;
-133.8000;0.6732;0.7834;
-133.5000;0.6740;0.7834;
-133.2000;0.6748;0.7884;
-132.9000;0.6732;0.7935;
-132.6000;0.6724;0.7910;
-132.3000;0.6732;0.7985;
-132.0000;0.6748;0.8010;
-131.7000;0.6748;0.8036;
-131.4000;0.6756;0.8111;
-131.1000;0.6740;0.8061;
-130.8000;0.6732;0.7985;
-130.5000;0.6732;0.7859;
-130.2000;0.6724;0.7910;
-129.9000;0.6748;0.7985;
-129.6000;0.6740;0.7935;
-129.3000;0.6756;0.7910;
-129.0000;0.6748;0.7759;
-128.7000;0.6740;0.7759;
-128.4000;0.6756;0.7759;
-128.1000;0.6732;0.7733;
-127.8000;0.6756;0.7859;
-127.5000;0.6732;0.7809;
-127.2000;0.6732;0.7834;
-126.9000;0.6740;0.7910;
-126.6000;0.6740;0.7884;
-126.3000;0.6740;0.7910;
-126.0000;0.6724;0.7884;
-125.7000;0.6707;0.7834;
-125.4000;0.6724;0.7809;
-125.1000;0.6740;0.7809;
-124.8000;0.6724;0.7809;
-124.5000;0.6740;0.7960;
-124.2000;0.6732;0.8086;
-123.9000;0.6724;0.7985;
-123.6000;0.6764;0.8086;
-123.3000;0.6748;0.8036;
-123.0000;0.6732;0.7985;
-122.7000;0.6748;0.7985;
-122.4000;0.6740;0.7960;
-122.1000;0.6732;0.7985;
-121.8000;0.6740;0.8061;
-121.5000;0.6732;0.8010;
-121.2000;0.6732;0.7884;
-120.9000;0.6829;0.8061;
-120.6000;0.6740;0.7935;
-120.3000;0.6764;0.7935;
-120.0000;0.6732;0.7884;
-119.7000;0.6724;0.7809;
-119.4000;0.6732;0.7759;
-119.1000;0.6732;0.7708;
-118.8000;0.6724;0.7633;
-118.5000;0.6716;0.7582;
-118.2000;0.6732;0.7633;
-117.9000;0.6732;0.7582;
-117.6000;0.6740;0.7658;
-117.3000;0.6724;0.7658;
-117.0000;0.6724;0.7683;
-116.7000;0.6724;0.7733;
-116.4000;0.6724;0.7759;
-116.1000;0.6724;0.7708;
-115.8000;0.6756;0.7759;
-115.5000;0.6740;0.7784;
-115.2000;0.6732;0.7784;
-114.9000;0.6724;0.7784;
-114.6000;0.6716;0.7708;
-114.3000;0.6732;0.7733;
-114.0000;0.6732;0.7759;
-113.7000;0.6724;0.7784;
-113.4000;0.6716;0.7759;
-113.1000;0.6732;0.7784;
-112.8000;0.6732;0.7784;
-112.5000;0.6732;0.7859;
-112.2000;0.6732;0.7859;
-111.9000;0.6716;0.7809;
-111.6000;0.6716;0.7784;
-111.3000;0.6740;0.7759;
-111.0000;0.6732;0.7809;
-110.7000;0.6748;0.7910;
-110.4000;0.6748;0.7935;
-110.1000;0.6748;0.7884;
-109.8000;0.6740;0.7784;
-109.5000;0.6740;0.7708;
-109.2000;0.6740;0.7759;
-108.9000;0.6748;0.7834;
-108.6000;0.6740;0.7834;
-108.3000;0.6748;0.7834;
-108.0000;0.6748;0.7884;
-107.7000;0.6756;0.7985;
-107.4000;0.6748;0.7985;
-107.1000;0.6748;0.7935;
-106.8000;0.6732;0.7809;
-106.5000;0.6634;0.7582;
-106.2000;0.6732;0.7759;
-105.9000;0.6724;0.7683;
-105.6000;0.6716;0.7658;
-105.3000;0.6716;0.7708;
-105.0000;0.6740;0.7809;
-104.7000;0.6724;0.7809;
-104.4000;0.6716;0.7784;
-104.1000;0.6740;0.7784;
-103.8000;0.6740;0.7809;
-103.5000;0.6724;0.7809;
-103.2000;0.6740;0.7834;
-102.9000;0.6740;0.7834;
-102.6000;0.6748;0.7960;
-102.3000;0.6748;0.8010;
-102.0000;0.6740;0.7935;
-101.7000;0.6740;0.7910;
-101.4000;0.6772;0.8086;
-101.1000;0.6740;0.7985;
-100.8000;0.6716;0.7834;
-100.5000;0.6724;0.7859;
-100.2000;0.6740;0.7935;
-99.9000;0.6764;0.8036;
-99.6000;0.6732;0.8010;
-99.3000;0.6732;0.7985;
-99.0000;0.6740;0.8036;
-98.7000;0.6740;0.7985;
-98.4000;0.6716;0.7960;
-98.1000;0.6707;0.7960;
-97.8000;0.6756;0.8036;
-97.5000;0.6740;0.7935;
-97.2000;0.6740;0.7960;
-96.9000;0.6748;0.7935;
-96.6000;0.6740;0.7935;
-96.3000;0.6740;0.7884;
-96.0000;0.6724;0.7784;
-95.7000;0.6724;0.7759;
-95.4000;0.6724;0.7733;
-95.1000;0.6740;0.7935;
-94.8000;0.6748;0.7935;
-94.5000;0.6732;0.7884;
-94.2000;0.6740;0.7859;
-93.9000;0.6732;0.7784;
-93.6000;0.6732;0.7834;
-93.3000;0.6724;0.7834;
-93.0000;0.6740;0.7834;
-92.7000;0.6732;0.7859;
-92.4000;0.6748;0.7985;
-92.1000;0.6740;0.7985;
-91.8000;0.6748;0.8010;
-91.5000;0.6740;0.7985;
-91.2000;0.6756;0.7935;
-90.9000;0.6740;0.7935;
-90.6000;0.6748;0.7960;
-90.3000;0.6732;0.7784;
-90.0000;0.6748;0.7759;
-89.7000;0.6821;0.8010;
-89.4000;0.6740;0.7784;
-89.1000;0.6724;0.7859;
-88.8000;0.6724;0.7834;
-88.5000;0.6724;0.7809;
-88.2000;0.6756;0.7910;
-87.9000;0.6716;0.7935;
-87.6000;0.6732;0.7960;
-87.3000;0.6699;0.7960;
-87.0000;0.6740;0.8061;
-86.7000;0.6740;0.8061;
-86.4000;0.6716;0.7935;
-86.1000;0.6740;0.7985;
-85.8000;0.6732;0.7910;
-85.5000;0.6724;0.7910;
-85.2000;0.6724;0.7910;
-84.9000;0.6724;0.7859;
-84.6000;0.6740;0.7935;
-84.3000;0.6724;0.7859;
-84.0000;0.6740;0.7834;
-83.7000;0.6740;0.7834;
-83.4000;0.6740;0.7910;
-83.1000;0.6724;0.7910;
-82.8000;0.6748;0.7910;
-82.5000;0.6829;0.8187;
-82.2000;0.6740;0.7985;
-81.9000;0.6740;0.7884;
-81.6000;0.6724;0.7784;
-81.3000;0.6740;0.7759;
-81.0000;0.6756;0.7910;
-80.7000;0.6740;0.7884;
-80.4000;0.6740;0.7708;
-80.1000;0.6740;0.7708;
-79.8000;0.6732;0.7733;
-79.5000;0.6732;0.7784;
-79.2000;0.6740;0.7784;
-78.9000;0.6683;0.7708;
-78.6000;0.6724;0.7809;
-78.3000;0.6740;0.7834;
-78.0000;0.6716;0.7733;
-77.7000;0.6740;0.7809;
-77.4000;0.6683;0.7658;
-77.1000;0.6756;0.7733;
-76.8000;0.6732;0.7708;
-76.5000;0.6740;0.7784;
-76.2000;0.6797;0.8036;
-75.9000;0.6740;0.7935;
-75.6000;0.6748;0.7985;
-75.3000;0.6699;0.7884;
-75.0000;0.6740;0.8010;
-74.7000;0.6732;0.8010;
-74.4000;0.6724;0.7985;
-74.1000;0.6748;0.8111;
-73.8000;0.6740;0.8111;
-73.5000;0.6699;0.8010;
-73.2000;0.6732;0.8036;
-72.9000;0.6732;0.7960;
-72.6000;0.6732;0.8010;
-72.3000;0.6821;0.8212;
-72.0000;0.6740;0.8086;
-71.7000;0.6740;0.8036;
-71.4000;0.6748;0.8061;
-71.1000;0.6748;0.7985;
-70.8000;0.6764;0.8061;
-70.5000;0.6740;0.8061;
-70.2000;0.6732;0.7960;
-69.9000;0.6716;0.7960;
-69.6000;0.6756;0.7960;
-69.3000;0.6748;0.7935;
-69.0000;0.6732;0.7960;
-68.7000;0.6707;0.7859;
-68.4000;0.6732;0.7910;
-68.1000;0.6740;0.8010;
-67.8000;0.6691;0.7784;
-67.5000;0.6732;0.8010;
-67.2000;0.6748;0.8086;
-66.9000;0.6748;0.8136;
-66.6000;0.6732;0.8061;
-66.3000;0.6740;0.8036;
-66.0000;0.6740;0.7985;
-65.7000;0.6740;0.8010;
-65.4000;0.6740;0.7960;
-65.1000;0.6740;0.7859;
-64.8000;0.6732;0.7834;
-64.5000;0.6748;0.7985;
-64.2000;0.6740;0.7935;
-63.9000;0.6732;0.7884;
-63.6000;0.6740;0.7910;
-63.3000;0.6748;0.7960;
-63.0000;0.6748;0.8036;
-62.7000;0.6740;0.8036;
-62.4000;0.6724;0.7935;
-62.1000;0.6732;0.7884;
-61.8000;0.6748;0.7935;
-61.5000;0.6732;0.7935;
-61.2000;0.6732;0.7910;
-60.9000;0.6748;0.7834;
-60.6000;0.6748;0.7884;
-60.3000;0.6740;0.7859;
-60.0000;0.6732;0.7884;
-59.7000;0.6732;0.7935;
-59.4000;0.6691;0.7985;
-59.1000;0.6740;0.8086;
-58.8000;0.6748;0.8086;
-58.5000;0.6740;0.8086;
-58.2000;0.6756;0.8136;
-57.9000;0.6748;0.8162;
-57.6000;0.6756;0.8111;
-57.3000;0.6740;0.8086;
-57.0000;0.6756;0.8162;
-56.7000;0.6756;0.8136;
-56.4000;0.6732;0.8136;
-56.1000;0.6724;0.8111;
-55.8000;0.6716;0.8036;
-55.5000;0.6732;0.8061;
-55.2000;0.6740;0.8136;
-54.9000;0.6732;0.8086;
-54.6000;0.6732;0.8086;
-54.3000;0.6732;0.8111;
-54.0000;0.6748;0.8136;
-53.7000;0.6740;0.8111;
-53.4000;0.6732;0.8061;
-53.1000;0.6716;0.8010;
-52.8000;0.6724;0.7910;
-52.5000;0.6675;0.7733;
-52.2000;0.6756;0.7985;
-51.9000;0.6699;0.7834;
-51.6000;0.6667;0.7759;
-51.3000;0.6748;0.7935;
-51.0000;0.6732;0.7884;
-50.7000;0.6764;0.8010;
-50.4000;0.6805;0.8136;
-50.1000;0.6748;0.8036;
-49.8000;0.6716;0.7960;
-49.5000;0.6756;0.8036;
-49.2000;0.6707;0.7985;
-48.9000;0.6764;0.8136;
-48.6000;0.6716;0.8111;
-48.3000;0.6740;0.8111;
-48.0000;0.6764;0.8288;
-47.7000;0.6724;0.8187;
-47.4000;0.6716;0.8162;
-47.1000;0.6748;0.8162;
-46.8000;0.6732;0.8162;
-46.5000;0.6732;0.8212;
-46.2000;0.6724;0.8262;
-45.9000;0.6740;0.8237;
-45.6000;0.6732;0.8162;
-45.3000;0.6740;0.8162;
-45.0000;0.6732;0.8061;
-44.7000;0.6732;0.8061;
-44.4000;0.6732;0.8111;
-44.1000;0.6748;0.8111;
-43.8000;0.6707;0.8086;
-43.5000;0.6716;0.8086;
-43.2000;0.6732;0.8111;
-42.9000;0.6732;0.8086;
-42.6000;0.6748;0.8136;
-42.3000;0.6740;0.8111;
-42.0000;0.6748;0.8111;
-41.7000;0.6740;0.8111;
-41.4000;0.6724;0.8086;
-41.1000;0.6740;0.8086;
-40.8000;0.6748;0.8111;
-40.5000;0.6740;0.8036;
-40.2000;0.6756;0.8010;
-39.9000;0.6740;0.7910;
-39.6000;0.6740;0.8036;
-39.3000;0.6724;0.7960;
-39.0000;0.6748;0.8111;
-38.7000;0.6732;0.8010;
-38.4000;0.6716;0.8010;
-38.1000;0.6732;0.7960;
-37.8000;0.6732;0.8086;
-37.5000;0.6724;0.7960;
-37.2000;0.6683;0.7859;
-36.9000;0.6732;0.7935;
-36.6000;0.6699;0.7809;
-36.3000;0.6707;0.7809;
-36.0000;0.6740;0.7884;
-35.7000;0.6789;0.7985;
-35.4000;0.6740;0.7935;
-35.1000;0.6740;0.7935;
-34.8000;0.6748;0.7910;
-34.5000;0.6829;0.8111;
-34.2000;0.6740;0.7910;
-33.9000;0.6724;0.7884;
-33.6000;0.6740;0.7884;
-33.3000;0.6764;0.7910;
-33.0000;0.6781;0.7910;
-32.7000;0.6740;0.7935;
-32.4000;0.6772;0.7960;
-32.1000;0.6724;0.7784;
-31.8000;0.6699;0.7834;
-31.5000;0.6716;0.7910;
-31.2000;0.6732;0.7910;
-30.9000;0.6732;0.7859;
-30.6000;0.6740;0.7985;
-30.3000;0.6732;0.8010;
-30.0000;0.6716;0.7960;
-29.7000;0.6740;0.7985;
-29.4000;0.6667;0.7784;
-29.1000;0.6707;0.7960;
-28.8000;0.6740;0.7960;
-28.5000;0.6732;0.8036;
-28.2000;0.6699;0.7985;
-27.9000;0.6659;0.7884;
-27.6000;0.6699;0.7960;
-27.3000;0.6748;0.8010;
-27.0000;0.6691;0.7910;
-26.7000;0.6724;0.7985;
-26.4000;0.6813;0.8111;
-26.1000;0.6732;0.7910;
-25.8000;0.6716;0.7884;
-25.5000;0.6740;0.7960;
-25.2000;0.6724;0.7910;
-24.9000;0.6716;0.7935;
-24.6000;0.6748;0.7960;
-24.3000;0.6740;0.7960;
-24.0000;0.6716;0.7834;
-23.7000;0.6748;0.7809;
-23.4000;0.6740;0.7809;
-23.1000;0.6716;0.7759;
-22.8000;0.6748;0.7809;
-22.5000;0.6716;0.7859;
-22.2000;0.6732;0.7884;
-21.9000;0.6764;0.7960;
-21.6000;0.6740;0.7859;
-21.3000;0.6732;0.7859;
-21.0000;0.6756;0.7935;
-20.7000;0.6732;0.7935;
-20.4000;0.6724;0.7834;
-20.1000;0.6732;0.7935;
-19.8000;0.6740;0.7960;
-19.5000;0.6740;0.7960;
-19.2000;0.6724;0.7985;
-18.9000;0.6724;0.7985;
-18.6000;0.6740;0.8111;
-18.3000;0.6724;0.8010;
-18.0000;0.6740;0.7960;
-17.7000;0.6724;0.7985;
-17.4000;0.6724;0.7935;
-17.1000;0.6764;0.7985;
-16.8000;0.6740;0.7985;
-16.5000;0.6724;0.7935;
-16.2000;0.6724;0.7935;
-15.9000;0.6732;0.7960;
-15.6000;0.6748;0.7935;
-15.3000;0.6748;0.8010;
-15.0000;0.6732;0.8061;
-14.7000;0.6732;0.7985;
-14.4000;0.6740;0.8010;
-14.1000;0.6724;0.7910;
-13.8000;0.6740;0.7859;
-13.5000;0.6756;0.8010;
-13.2000;0.6740;0.7859;
-12.9000;0.6732;0.7935;
-12.6000;0.6650;0.7683;
-12.3000;0.6707;0.7784;
-12.0000;0.6748;0.7884;
-11.7000;0.6732;0.7910;
-11.4000;0.6781;0.7985;
-11.1000;0.6748;0.7935;
-10.8000;0.6748;0.7960;
-10.5000;0.6732;0.7910;
-10.2000;0.6748;0.7935;
-9.9000;0.6748;0.7859;
-9.6000;0.6740;0.7935;
-9.3000;0.6724;0.7859;
-9.0000;0.6740;0.7910;
-8.7000;0.6724;0.7935;
-8.4000;0.6740;0.7985;
-8.1000;0.6740;0.8036;
-7.8000;0.6732;0.8010;
-7.5000;0.6740;0.8036;
-7.2000;0.6724;0.7985;
-6.9000;0.6748;0.8036;
-6.6000;0.6740;0.7985;
-6.3000;0.6732;0.7884;
-6.0000;0.6748;0.7960;
-5.7000;0.6756;0.7985;
-5.4000;0.6740;0.7985;
-5.1000;0.6740;0.7985;
-4.8000;0.6740;0.8086;
-4.5000;0.6756;0.8136;
-4.2000;0.6740;0.7985;
-3.9000;0.6789;0.8061;
-3.6000;0.6732;0.7935;
-3.3000;0.6724;0.7910;
-3.0000;0.6732;0.7960;
-2.7000;0.6724;0.7960;
-2.4000;0.6732;0.7985;
-2.1000;0.6740;0.7985;
-1.8000;0.6732;0.7935;
-1.5000;0.6740;0.7960;
-1.2000;0.6732;0.8036;
-0.9000;0.6740;0.8086;
-0.6000;0.6748;0.8162;
-0.3000;0.6764;0.8237;
0.0000;0.6764;0.8237;
0.3000;0.7179;0.8212;
0.6000;0.7871;0.8791;
0.9000;0.8409;0.9220;
1.2000;0.8824;0.9723;
1.5000;0.9141;1.0051;
1.8000;0.9385;1.0303;
2.1000;0.9613;1.0555;
2.4000;0.9784;1.0731;
2.7000;0.9931;1.0932;
3.0000;1.0102;1.1235;
3.3000;1.0167;1.1210;
3.6000;1.0248;1.1260;
3.9000;1.0338;1.1235;
4.2000;1.0411;1.1310;
4.5000;1.0509;1.1411;
4.8000;1.0574;1.1487;
5.1000;1.0647;1.1587;
5.4000;1.0704;1.1764;
5.7000;1.0786;1.1789;
6.0000;1.0851;1.1789;
6.3000;1.0834;1.1663;
6.6000;1.0965;1.1713;
6.9000;1.1062;1.1764;
7.2000;1.1095;1.1688;
7.5000;1.1144;1.1613;
7.8000;1.1193;1.1587;
8.1000;1.1258;1.1663;
8.4000;1.1347;1.1764;
8.7000;1.1355;1.1663;
9.0000;1.1412;1.1638;
9.3000;1.1461;1.1688;
9.6000;1.1477;1.1537;
9.9000;1.1583;1.1688;
10.2000;1.1616;1.1739;
10.5000;1.1648;1.1789;
10.8000;1.1705;1.1814;
11.1000;1.1738;1.1814;
11.4000;1.1770;1.1739;
11.7000;1.1819;1.1688;
12.0000;1.1860;1.1663;
12.3000;1.1917;1.1688;
12.6000;1.1941;1.1587;
12.9000;1.1982;1.1512;
13.2000;1.2023;1.1562;
13.5000;1.2063;1.1587;
13.8000;1.2104;1.1638;
14.1000;1.2072;1.1512;
14.4000;1.2177;1.1688;
14.7000;1.2226;1.1713;
15.0000;1.2234;1.1613;
15.3000;1.2267;1.1663;
15.6000;1.2308;1.1713;
15.9000;1.2308;1.1663;
16.2000;1.2414;1.1814;
16.5000;1.2381;1.1663;
16.8000;1.2389;1.1663;
17.1000;1.2479;1.1864;
17.4000;1.2470;1.1764;
17.7000;1.2503;1.1864;
18.0000;1.2536;1.1814;
18.3000;1.2552;1.1839;
18.6000;1.2593;1.1890;
18.9000;1.2609;1.1814;
19.2000;1.2617;1.1663;
19.5000;1.2641;1.1688;
19.8000;1.2666;1.1562;
20.1000;1.2674;1.1688;
20.4000;1.2707;1.1638;
20.7000;1.2698;1.1587;
21.0000;1.2747;1.1688;
21.3000;1.2772;1.1562;
21.6000;1.2796;1.1386;
21.9000;1.2804;1.1361;
22.2000;1.2788;1.1310;
22.5000;1.2853;1.1436;
22.8000;1.2853;1.1461;
23.1000;1.2853;1.1285;
23.4000;1.2861;1.1184;
23.7000;1.2894;1.1235;
24.0000;1.2910;1.1210;
24.3000;1.2926;1.1184;
24.6000;1.2943;1.1159;
24.9000;1.2983;1.1285;
25.2000;1.2967;1.1210;
25.5000;1.2991;1.1310;
25.8000;1.3024;1.1335;
26.1000;1.3024;1.1310;
26.4000;1.3048;1.1310;
26.7000;1.3048;1.1335;
27.0000;1.3040;1.1285;
27.3000;1.3032;1.1184;
27.6000;1.3089;1.1260;
27.9000;1.3081;1.1310;
28.2000;1.3081;1.1260;
28.5000;1.3097;1.1235;
28.8000;1.3114;1.1310;
29.1000;1.3138;1.1361;
29.4000;1.3122;1.1310;
29.7000;1.3146;1.1361;
30.0000;1.3162;1.1285;
30.3000;1.3162;1.1235;
30.6000;1.3171;1.1285;
30.9000;1.3187;1.1386;
31.2000;1.3203;1.1436;
31.5000;1.3219;1.1386;
31.8000;1.3211;1.1411;
32.1000;1.3219;1.1411;
32.4000;1.3236;1.1487;
32.7000;1.3244;1.1361;
33.0000;1.3236;1.1386;
33.3000;1.3236;1.1335;
33.6000;1.3252;1.1335;
33.9000;1.3276;1.1436;
34.2000;1.3268;1.1361;
34.5000;1.3268;1.1386;
34.8000;1.3284;1.1436;
35.1000;1.3268;1.1335;
35.4000;1.3301;1.1386;
35.7000;1.3309;1.1335;
36.0000;1.3309;1.1411;
36.3000;1.3301;1.1335;
36.6000;1.3317;1.1361;
36.9000;1.3309;1.1411;
37.2000;1.3301;1.1436;
37.5000;1.3317;1.1386;
37.8000;1.3317;1.1335;
38.1000;1.3333;1.1411;
38.4000;1.3325;1.1386;
38.7000;1.3407;1.1562;
39.0000;1.3415;1.1562;
39.3000;1.3358;1.1487;
39.6000;1.3390;1.1613;
39.9000;1.3358;1.1537;
40.2000;1.3358;1.1562;
40.5000;1.3374;1.1512;
40.8000;1.3382;1.1487;
41.1000;1.3390;1.1562;
41.4000;1.3398;1.1436;
41.7000;1.3390;1.1487;
42.0000;1.3341;1.1335;
42.3000;1.3431;1.1487;
42.6000;1.3358;1.1386;
42.9000;1.3407;1.1537;
43.2000;1.3390;1.1436;
43.5000;1.3415;1.1411;
43.8000;1.3447;1.1411;
44.1000;1.3423;1.1361;
44.4000;1.3415;1.1386;
44.7000;1.3415;1.1386;
45.0000;1.3431;1.1310;
45.3000;1.3464;1.1411;
45.6000;1.3431;1.1386;
45.9000;1.3439;1.1411;
46.2000;1.3455;1.1386;
46.5000;1.3472;1.1386;
46.8000;1.3447;1.1335;
47.1000;1.3464;1.1436;
47.4000;1.3472;1.1537;
47.7000;1.3447;1.1537;
48.0000;1.3472;1.1537;
48.3000;1.3398;1.1386;
48.6000;1.3464;1.1512;
48.9000;1.3480;1.1512;
49.2000;1.3488;1.1411;
49.5000;1.3464;1.1361;
49.8000;1.3488;1.1361;
50.1000;1.3464;1.1310;
50.4000;1.3504;1.1386;
50.7000;1.3488;1.1386;
51.0000;1.3496;1.1386;
51.3000;1.3504;1.1386;
51.6000;1.3504;1.1461;
51.9000;1.3504;1.1461;
52.2000;1.3496;1.1461;
52.5000;1.3496;1.1411;
52.8000;1.3529;1.1512;
53.1000;1.3512;1.1436;
53.4000;1.3512;1.1512;
53.7000;1.3504;1.1537;
54.0000;1.3480;1.1487;
54.3000;1.3553;1.1764;
54.6000;1.3529;1.1638;
54.9000;1.3521;1.1613;
55.2000;1.3512;1.1638;
55.5000;1.3537;1.1814;
55.8000;1.3545;1.1789;
56.1000;1.3553;1.1764;
56.4000;1.3537;1.1739;
56.7000;1.3553;1.1739;
57.0000;1.3537;1.1613;
57.3000;1.3496;1.1537;
57.6000;1.3529;1.1537;
57.9000;1.3553;1.1436;
58.2000;1.3578;1.1461;
58.5000;1.3569;1.1461;
58.8000;1.3561;1.1487;
59.1000;1.3545;1.1411;
59.4000;1.3561;1.1461;
59.7000;1.3569;1.1461;
60.0000;1.3553;1.1386;
60.3000;1.3586;1.1487;
60.6000;1.3569;1.1436;
60.9000;1.3569;1.1335;
61.2000;1.3578;1.1411;
61.5000;1.3594;1.1361;
61.8000;1.3569;1.1285;
62.1000;1.3569;1.1310;
62.4000;1.3578;1.1335;
62.7000;1.3578;1.1361;
63.0000;1.3569;1.1285;
63.3000;1.3602;1.1310;
63.6000;1.3578;1.1310;
63.9000;1.3594;1.1386;
64.2000;1.3586;1.1335;
64.5000;1.3594;1.1411;
64.8000;1.3569;1.1386;
65.1000;1.3586;1.1411;
65.4000;1.3602;1.1411;
65.7000;1.3610;1.1386;
66.0000;1.3610;1.1386;
66.3000;1.3635;1.1487;
66.6000;1.3586;1.1386;
66.9000;1.3610;1.1461;
67.2000;1.3683;1.1562;
67.5000;1.3602;1.1361;
67.8000;1.3602;1.1335;
68.1000;1.3626;1.1512;
68.4000;1.3618;1.1411;
68.7000;1.3643;1.1461;
69.0000;1.3643;1.1487;
69.3000;1.3602;1.1361;
69.6000;1.3618;1.1411;
69.9000;1.3635;1.1411;
70.2000;1.3626;1.1386;
70.5000;1.3635;1.1487;
70.8000;1.3626;1.1562;
71.1000;1.3626;1.1562;
71.4000;1.3610;1.1562;
71.7000;1.3635;1.1537;
72.0000;1.3635;1.1512;
72.3000;1.3626;1.1512;
72.6000;1.3643;1.1461;
72.9000;1.3626;1.1361;
73.2000;1.3643;1.1335;
73.5000;1.3643;1.1335;
73.8000;1.3635;1.1310;
74.1000;1.3626;1.1235;
74.4000;1.3635;1.1335;
74.7000;1.3643;1.1411;
75.0000;1.3651;1.1386;
75.3000;1.3635;1.1411;
75.6000;1.3635;1.1411;
75.9000;1.3643;1.1361;
76.2000;1.3635;1.1260;
76.5000;1.3651;1.1235;
76.8000;1.3626;1.1159;
77.1000;1.3659;1.1260;
77.4000;1.3651;1.1184;
77.7000;1.3667;1.1134;
78.0000;1.3659;1.1109;
78.3000;1.3667;1.1210;
78.6000;1.3659;1.1159;
78.9000;1.3643;1.1159;
79.2000;1.3659;1.1235;
79.5000;1.3659;1.1260;
79.8000;1.3659;1.1310;
80.1000;1.3643;1.1386;
80.4000;1.3667;1.1461;
80.7000;1.3675;1.1512;
81.0000;1.3651;1.1411;
81.3000;1.3667;1.1487;
81.6000;1.3659;1.1411;
81.9000;1.3748;1.1638;
82.2000;1.3724;1.1638;
82.5000;1.3659;1.1562;
82.8000;1.3700;1.1688;
83.1000;1.3683;1.1512;
83.4000;1.3659;1.1411;
83.7000;1.3700;1.1537;
84.0000;1.3700;1.1562;
84.3000;1.3659;1.1487;
84.6000;1.3659;1.1386;
84.9000;1.3659;1.1361;
85.2000;1.3675;1.1386;
85.5000;1.3667;1.1386;
85.8000;1.3667;1.1285;
86.1000;1.3691;1.1335;
86.4000;1.3667;1.1310;
86.7000;1.3667;1.1361;
87.0000;1.3675;1.1335;
87.3000;1.3683;1.1335;
87.6000;1.3724;1.1487;
87.9000;1.3691;1.1386;
88.2000;1.3724;1.1562;
88.5000;1.3683;1.1411;
88.8000;1.3700;1.1386;
89.1000;1.3675;1.1436;
89.4000;1.3675;1.1386;
89.7000;1.3651;1.1310;
90.0000;1.3675;1.1310;
90.3000;1.3635;1.1235;
90.6000;1.3700;1.1411;
90.9000;1.3675;1.1436;
91.2000;1.3691;1.1461;
91.5000;1.3700;1.1461;
91.8000;1.3691;1.1461;
92.1000;1.3708;1.1461;
92.4000;1.3700;1.1411;
92.7000;1.3708;1.1411;
93.0000;1.3700;1.1411;
93.3000;1.3700;1.1411;
93.6000;1.3683;1.1310;
93.9000;1.3700;1.1235;
94.2000;1.3667;1.1210;
94.5000;1.3691;1.1260;
94.8000;1.3708;1.1335;
95.1000;1.3691;1.1335;
95.4000;1.3708;1.1386;
95.7000;1.3700;1.1386;
96.0000;1.3683;1.1436;
96.3000;1.3700;1.1436;
96.6000;1.3691;1.1411;
96.9000;1.3691;1.1335;
97.2000;1.3716;1.1361;
97.5000;1.3700;1.1285;
97.8000;1.3700;1.1235;
98.1000;1.3708;1.1260;
98.4000;1.3757;1.1310;
98.7000;1.3724;1.1285;
99.0000;1.3708;1.1210;
99.3000;1.3716;1.1210;
99.6000;1.3708;1.1310;
99.9000;1.3691;1.1310;
100.2000;1.3708;1.1310;
100.5000;1.3732;1.1260;
100.8000;1.3708;1.1159;
101.1000;1.3708;1.1134;
101.4000;1.3716;1.1084;
101.7000;1.3724;1.0983;
102.0000;1.3708;1.0983;
102.3000;1.3724;1.1058;
102.6000;1.3732;1.1159;
102.9000;1.3708;1.1109;
103.2000;1.3716;1.1084;
103.5000;1.3675;1.1109;
103.8000;1.3724;1.1361;
104.1000;1.3716;1.1285;
104.4000;1.3724;1.1335;
104.7000;1.3740;1.1436;
105.0000;1.3732;1.1411;
105.3000;1.3765;1.1487;
105.6000;1.3724;1.1260;
105.9000;1.3716;1.1260;
106.2000;1.3716;1.1235;
106.5000;1.3724;1.1210;
106.8000;1.3740;1.1184;
107.1000;1.3740;1.1285;
107.4000;1.3732;1.1285;
107.7000;1.3716;1.1386;
108.0000;1.3773;1.1512;
108.3000;1.3708;1.1335;
108.6000;1.3700;1.1310;
108.9000;1.3724;1.1285;
109.2000;1.3732;1.1335;
109.5000;1.3724;1.1235;
109.8000;1.3716;1.1210;
110.1000;1.3724;1.1285;
110.4000;1.3724;1.1235;
110.7000;1.3732;1.1159;
111.0000;1.3724;1.1159;
111.3000;1.3765;1.1235;
111.6000;1.3732;1.1134;
111.9000;1.3814;1.1411;
112.2000;1.3748;1.1210;
112.5000;1.3732;1.1235;
112.8000;1.3740;1.1235;
113.1000;1.3830;1.1411;
113.4000;1.3748;1.1184;
113.7000;1.3700;1.1058;
114.0000;1.3740;1.1210;
114.3000;1.3748;1.1235;
114.6000;1.3822;1.1335;
114.9000;1.3724;1.1134;
115.2000;1.3732;1.1134;
115.5000;1.3732;1.1210;
115.8000;1.3748;1.1210;
116.1000;1.3716;1.1210;
116.4000;1.3708;1.1210;
116.7000;1.3732;1.1235;
117.0000;1.3732;1.1260;
117.3000;1.3724;1.1285;
117.6000;1.3748;1.1260;
117.9000;1.3732;1.1159;
118.2000;1.3740;1.1134;
118.5000;1.3724;1.1109;
118.8000;1.3708;1.1058;
119.1000;1.3748;1.1184;
119.4000;1.3724;1.1109;
119.7000;1.3732;1.1235;
120.0000;1.3716;1.1210;
120.3000;1.3732;1.1285;
120.6000;1.3732;1.1235;
120.9000;1.3748;1.1335;
121.2000;1.3716;1.1285;
121.5000;1.3740;1.1310;
121.8000;1.3740;1.1386;
122.1000;1.3748;1.1285;
122.4000;1.3724;1.1134;
122.7000;1.3716;1.1184;
123.0000;1.3732;1.1184;
123.3000;1.3757;1.1260;
123.6000;1.3724;1.1235;
123.9000;1.3724;1.1285;
124.2000;1.3724;1.1335;
124.5000;1.3732;1.1235;
124.8000;1.3732;1.1285;
125.1000;1.3732;1.1285;
125.4000;1.3732;1.1235;
125.7000;1.3748;1.1235;
126.0000;1.3757;1.1134;
126.3000;1.3748;1.1134;
126.6000;1.3748;1.1109;
126.9000;1.3740;1.1058;
127.2000;1.3757;1.1084;
127.5000;1.3732;1.1008;
127.8000;1.3748;1.1033;
128.1000;1.3716;1.0983;
128.4000;1.3740;1.1008;
128.7000;1.3748;1.1058;
129.0000;1.3748;1.0983;
129.3000;1.3716;1.1058;
129.6000;1.3740;1.1235;
129.9000;1.3716;1.1184;
130.2000;1.3724;1.1210;
130.5000;1.3683;1.1109;
130.8000;1.3748;1.1285;
131.1000;1.3748;1.1184;
131.4000;1.3748;1.1159;
131.7000;1.3740;1.1058;
132.0000;1.3773;1.1084;
132.3000;1.3757;1.1033;
132.6000;1.3740;1.1084;
132.9000;1.3748;1.1109;
133.2000;1.3732;1.0958;
133.5000;1.3765;1.1058;
133.8000;1.3740;1.1008;
134.1000;1.3740;1.0983;
134.4000;1.3748;1.0932;
134.7000;1.3757;1.0882;
135.0000;1.3748;1.0907;
135.3000;1.3757;1.0907;
135.6000;1.3740;1.0882;
135.9000;1.3757;1.0907;
136.2000;1.3757;1.1033;
136.5000;1.3732;1.1008;
136.8000;1.3748;1.1033;
137.1000;1.3773;1.1134;
137.4000;1.3748;1.1134;
137.7000;1.3748;1.1058;
138.0000;1.3757;1.1084;
138.3000;1.3732;1.1008;
138.6000;1.3732;1.1058;
138.9000;1.3740;1.1210;
139.2000;1.3773;1.1310;
139.5000;1.3740;1.1210;
139.8000;1.3757;1.1210;
140.1000;1.3716;1.1159;
140.4000;1.3691;1.1109;
140.7000;1.3740;1.1084;
141.0000;1.3748;1.1084;
141.3000;1.3748;1.1109;
141.6000;1.3757;1.1134;
141.9000;1.3740;1.1109;
142.2000;1.3757;1.1058;
142.5000;1.3740;1.1033;
142.8000;1.3805;1.1159;
143.1000;1.3740;1.0907;
143.4000;1.3748;1.0857;
143.7000;1.3757;1.0857;
144.0000;1.3748;1.0907;
144.3000;1.3773;1.1033;
144.6000;1.3748;1.1008;
144.9000;1.3740;1.0907;
145.2000;1.3716;1.0807;
145.5000;1.3748;1.0882;
145.8000;1.3740;1.1033;
146.1000;1.3757;1.1159;
146.4000;1.3789;1.1184;
146.7000;1.3716;1.1008;
147.0000;1.3740;1.1084;
147.3000;1.3748;1.1184;
147.6000;1.3765;1.1210;
147.9000;1.3748;1.1109;
148.2000;1.3748;1.1109;
148.5000;1.3732;1.1134;
148.8000;1.3757;1.1058;
149.1000;1.3757;1.1084;
149.4000;1.3748;1.1084;
149.7000;1.3732;1.1058;
150.0000;1.3781;1.1109;
150.3000;1.3748;1.1159;
150.6000;1.3740;1.1159;
150.9000;1.3732;1.1184;
151.2000;1.3740;1.1058;
151.5000;1.3732;1.1058;
151.8000;1.3748;1.1084;
152.1000;1.3748;1.0983;
152.4000;1.3757;1.1084;
152.7000;1.3757;1.1058;
153.0000;1.3757;1.1058;
153.3000;1.3748;1.0958;
153.6000;1.3724;1.0907;
153.9000;1.3765;1.1008;
154.2000;1.3757;1.1109;
154.5000;1.3724;1.1058;
154.8000;1.3740;1.1134;
155.1000;1.3748;1.1184;
155.4000;1.3748;1.1235;
155.7000;1.3740;1.1184;
156.0000;1.3732;1.1184;
156.3000;1.3757;1.1260;
156.6000;1.3773;1.1235;
156.9000;1.3757;1.1159;
157.2000;1.3748;1.1159;
157.5000;1.3732;1.1134;
157.8000;1.3797;1.1335;
158.1000;1.3748;1.1235;
158.4000;1.3740;1.1285;
158.7000;1.3789;1.1411;
159.0000;1.3748;1.1210;
159.3000;1.3773;1.1335;
159.6000;1.3732;1.1335;
159.9000;1.3757;1.1285;
160.2000;1.3757;1.1260;
160.5000;1.3748;1.1260;
160.8000;1.3838;1.1487;
161.1000;1.3748;1.1235;
161.4000;1.3773;1.1335;
161.7000;1.3740;1.1285;
162.0000;1.3748;1.1310;
162.3000;1.3732;1.1260;
162.6000;1.3748;1.1159;
162.9000;1.3748;1.1109;
163.2000;1.3740;1.1058;
163.5000;1.3732;1.1058;
163.8000;1.3757;1.1109;
164.1000;1.3748;1.1134;
164.4000;1.3757;1.1235;
164.7000;1.3716;1.1033;
165.0000;1.3748;1.1058;
165.3000;1.3748;1.1084;
165.6000;1.3748;1.1134;
165.9000;1.3724;1.1058;
166.2000;1.3724;1.1109;
166.5000;1.3740;1.1084;
166.8000;1.3765;1.1109;
167.1000;1.3748;1.1109;
167.4000;1.3748;1.1134;
167.7000;1.3765;1.1210;
168.0000;1.3740;1.1184;
168.3000;1.3724;1.1159;
168.6000;1.3757;1.1134;
168.9000;1.3797;1.1184;
169.2000;1.3748;1.1008;
169.5000;1.3765;1.1058;
169.8000;1.3748;1.0983;
170.1000;1.3724;1.1033;
170.4000;1.3773;1.1210;
170.7000;1.3765;1.1084;
171.0000;1.3732;1.1008;
171.3000;1.3748;1.1134;
171.6000;1.3708;1.1033;
171.9000;1.3822;1.1260;
172.2000;1.3740;1.1134;
172.5000;1.3748;1.1184;
172.8000;1.3757;1.1260;
173.1000;1.3757;1.1285;
173.4000;1.3757;1.1184;
173.7000;1.3748;1.1184;
174.0000;1.3765;1.1210;
174.3000;1.3757;1.1310;
174.6000;1.3781;1.1461;
174.9000;1.3716;1.1335;
175.2000;1.3765;1.1411;
175.5000;1.3716;1.1260;
175.8000;1.3757;1.1285;
176.1000;1.3822;1.1487;
176.4000;1.3789;1.1386;
176.7000;1.3757;1.1210;
177.0000;1.3748;1.1159;
177.3000;1.3757;1.1084;
177.6000;1.3740;1.0983;
177.9000;1.3724;1.0958;
178.2000;1.3748;1.0958;
178.5000;1.3773;1.0983;
178.8000;1.3748;1.0983;
179.1000;1.3740;1.0882;
179.4000;1.3748;1.0907;
179.7000;1.3748;1.0958;
180.0000;1.3659;1.0832;
180.3000;1.3797;1.1159;
180.6000;1.3838;1.1260;
180.9000;1.3757;1.1084;
181.2000;1.3748;1.1109;
181.5000;1.3748;1.1058;
181.8000;1.3757;1.1084;
182.1000;1.3748;1.1084;
182.4000;1.3740;1.1084;
182.7000;1.3716;1.1058;
183.0000;1.3748;1.1084;
183.3000;1.3748;1.1058;
183.6000;1.3765;1.1184;
183.9000;1.3781;1.1159;
184.2000;1.3748;1.1058;
184.5000;1.3765;1.1058;
184.8000;1.3757;1.1109;
185.1000;1.3757;1.1058;
185.4000;1.3748;1.1058;
185.7000;1.3773;1.1134;
186.0000;1.3757;1.1084;
186.3000;1.3822;1.1235;
186.6000;1.3757;1.1008;
186.9000;1.3765;1.1058;
187.2000;1.3757;1.1159;
187.5000;1.3765;1.1058;
187.8000;1.3748;1.0983;
188.1000;1.3740;1.0882;
188.4000;1.3757;1.0907;
188.7000;1.3732;1.0832;
189.0000;1.3748;1.0932;
189.3000;1.3708;1.0807;
189.6000;1.3757;1.1084;
189.9000;1.3748;1.1084;
190.2000;1.3748;1.0958;
190.5000;1.3757;1.0983;
190.8000;1.3757;1.0958;
191.1000;1.3740;1.0958;
191.4000;1.3716;1.0932;
191.7000;1.3740;1.1084;
192.0000;1.3732;1.0983;
192.3000;1.3765;1.1058;
192.6000;1.3748;1.1084;
192.9000;1.3757;1.1109;
193.2000;1.3757;1.1134;
193.5000;1.3765;1.1109;
193.8000;1.3757;1.1159;
194.1000;1.3773;1.1109;
194.4000;1.3732;1.1084;
194.7000;1.3748;1.1084;
195.0000;1.3691;1.0932;
195.3000;1.3765;1.1084;
195.6000;1.3724;1.0907;
195.9000;1.3797;1.1084;
196.2000;1.3740;1.0958;
196.5000;1.3757;1.0932;
196.8000;1.3675;1.0781;
197.1000;1.3765;1.0882;
197.4000;1.3740;1.0857;
197.7000;1.3748;1.0882;
198.0000;1.3748;1.0983;
198.3000;1.3765;1.1033;
198.6000;1.3757;1.0958;
198.9000;1.3667;1.0807;
199.2000;1.3748;1.0932;
199.5000;1.3724;1.0983;
199.8000;1.3757;1.1008;
200.1000;1.3748;1.1008;
200.4000;1.3748;1.1008;
200.7000;1.3732;1.0983;
201.0000;1.3757;1.1058;
201.3000;1.3748;1.1058;
201.6000;1.3732;1.1058;
201.9000;1.3716;1.0958;
202.2000;1.3732;1.0983;
202.5000;1.3748;1.0983;
202.8000;1.3748;1.1008;
203.1000;1.3740;1.0932;
203.4000;1.3748;1.0932;
203.7000;1.3757;1.0907;
204.0000;1.3757;1.0932;
204.3000;1.3748;1.0958;
204.6000;1.3797;1.1058;
204.9000;1.3757;1.0983;
205.2000;1.3683;1.0832;
205.5000;1.3757;1.0932;
205.8000;1.3757;1.0958;
206.1000;1.3740;1.0932;
206.4000;1.3765;1.0882;
206.7000;1.3757;1.0907;
207.0000;1.3740;1.0882;
207.3000;1.3732;1.0932;
207.6000;1.3757;1.1033;
207.9000;1.3716;1.1033;
208.2000;1.3732;1.1084;
208.5000;1.3724;1.1109;
208.8000;1.3748;1.1235;
209.1000;1.3740;1.1184;
209.4000;1.3757;1.1184;
209.7000;1.3757;1.1109;
210.0000;1.3740;1.1084;
210.3000;1.3748;1.1159;
210.6000;1.3748;1.1184;
210.9000;1.3765;1.1134;
211.2000;1.3732;1.1084;
211.5000;1.3765;1.1134;
211.8000;1.3757;1.1159;
212.1000;1.3748;1.1184;
212.4000;1.3708;1.1084;
212.7000;1.3773;1.1184;
213.0000;1.3740;1.1134;
213.3000;1.3740;1.1109;
213.6000;1.3740;1.1159;
213.9000;1.3748;1.1184;
214.2000;1.3740;1.1159;
214.5000;1.3765;1.1184;
214.8000;1.3748;1.1184;
215.1000;1.3773;1.1184;
215.4000;1.3732;1.1184;
215.7000;1.3708;1.1210;
216.0000;1.3757;1.1386;
216.3000;1.3757;1.1386;
216.6000;1.3757;1.1487;
216.9000;1.3724;1.1411;
217.2000;1.3757;1.1512;
217.5000;1.3781;1.1487;
217.8000;1.3765;1.1562;
218.1000;1.3748;1.1537;
218.4000;1.3740;1.1512;
218.7000;1.3732;1.1461;
219.0000;1.3773;1.1587;
219.3000;1.3732;1.1386;
219.6000;1.3757;1.1411;
219.9000;1.3724;1.1361;
220.2000;1.3765;1.1386;
220.5000;1.3708;1.1285;
220.8000;1.3757;1.1386;
221.1000;1.3740;1.1335;
221.4000;1.3740;1.1285;
221.7000;1.3748;1.1260;
222.0000;1.3757;1.1335;
222.3000;1.3732;1.1285;
222.6000;1.3716;1.1184;
222.9000;1.3732;1.1285;
223.2000;1.3732;1.1235;
223.5000;1.3716;1.1159;
223.8000;1.3724;1.1134;
224.1000;1.3765;1.1235;
224.4000;1.3757;1.1235;
224.7000;1.3732;1.1159;
225.0000;1.3740;1.1084;
225.3000;1.3748;1.1058;
225.6000;1.3748;1.1109;
225.9000;1.3757;1.1134;
226.2000;1.3748;1.1084;
226.5000;1.3748;1.1084;
226.8000;1.3757;1.1109;
227.1000;1.3814;1.1310;
227.4000;1.3748;1.1109;
227.7000;1.3748;1.1109;
228.0000;1.3716;1.1033;
228.3000;1.3740;1.1084;
228.6000;1.3740;1.1033;
228.9000;1.3748;1.1033;
229.2000;1.3757;1.1033;
229.5000;1.3757;1.1058;
229.8000;1.3757;1.1008;
230.1000;1.3765;1.1008;
230.4000;1.3765;1.1033;
230.7000;1.3838;1.1235;
231.0000;1.3748;1.0958;
231.3000;1.3740;1.0882;
231.6000;1.3757;1.0983;
231.9000;1.3765;1.0932;
232.2000;1.3757;1.0932;
232.5000;1.3732;1.0907;
232.8000;1.3748;1.0958;
233.1000;1.3757;1.1033;
233.4000;1.3781;1.1134;
233.7000;1.3740;1.1058;
234.0000;1.3748;1.1159;
234.3000;1.3757;1.1109;
234.6000;1.3748;1.1084;
234.9000;1.3748;1.1109;
235.2000;1.3757;1.1159;
235.5000;1.3797;1.1386;
235.8000;1.3765;1.1285;
236.1000;1.3740;1.1235;
236.4000;1.3716;1.1134;
236.7000;1.3748;1.1134;
237.0000;1.3748;1.1134;
237.3000;1.3740;1.1134;
237.6000;1.3700;1.1033;
237.9000;1.3724;1.1159;
238.2000;1.3732;1.1058;
238.5000;1.3805;1.1210;
238.8000;1.3732;1.1033;
239.1000;1.3748;1.1084;
239.4000;1.3748;1.1109;
239.7000;1.3748;1.1033;
240.0000;1.3740;1.1033;
240.3000;1.3732;1.0983;
240.6000;1.3740;1.0958;
240.9000;1.3724;1.0907;
241.2000;1.3748;1.0932;
241.5000;1.3748;1.0958;
241.8000;1.3757;1.0857;
242.1000;1.3765;1.0932;
242.4000;1.3748;1.0857;
242.7000;1.3740;1.0882;
243.0000;1.3740;1.0882;
243.3000;1.3740;1.0983;
243.6000;1.3716;1.0832;
243.9000;1.3740;1.0932;
244.2000;1.3724;1.0807;
244.5000;1.3740;1.0882;
244.8000;1.3740;1.0832;
245.1000;1.3748;1.0781;
245.4000;1.3732;1.0781;
245.7000;1.3757;1.0958;
246.0000;1.3773;1.1033;
246.3000;1.3732;1.0932;
246.6000;1.3740;1.0983;
246.9000;1.3732;1.1033;
247.2000;1.3732;1.0983;
247.5000;1.3748;1.1058;
247.8000;1.3740;1.0983;
248.1000;1.3732;1.1008;
248.4000;1.3748;1.1084;
248.7000;1.3740;1.1033;
249.0000;1.3716;1.0907;
249.3000;1.3765;1.1033;
249.6000;1.3740;1.0983;
249.9000;1.3667;1.0807;
250.2000;1.3740;1.0983;
250.5000;1.3716;1.1008;
250.8000;1.3757;1.1008;
251.1000;1.3757;1.0983;
251.4000;1.3748;1.0958;
251.7000;1.3708;1.0958;
252.0000;1.3732;1.0958;
252.3000;1.3683;1.0958;
252.6000;1.3724;1.1159;
252.9000;1.3732;1.1159;
253.2000;1.3724;1.1184;
253.5000;1.3740;1.1210;
253.8000;1.3732;1.1210;
254.1000;1.3757;1.1235;
254.4000;1.3748;1.1184;
254.7000;1.3757;1.1134;
255.0000;1.3748;1.1134;
255.3000;1.3748;1.1210;
255.6000;1.3748;1.1184;
255.9000;1.3740;1.1109;
256.2000;1.3765;1.1159;
256.5000;1.3748;1.1084;
256.8000;1.3732;1.1058;
257.1000;1.3757;1.1109;
257.4000;1.3724;1.1033;
257.7000;1.3724;1.0983;
258.0000;1.3740;1.1033;
258.3000;1.3716;1.1008;
258.6000;1.3724;1.1033;
258.9000;1.3724;1.1033;
259.2000;1.3724;1.1058;
259.5000;1.3740;1.1109;
259.8000;1.3740;1.1134;
260.1000;1.3740;1.1184;
260.4000;1.3683;1.1084;
260.7000;1.3732;1.1159;
261.0000;1.3732;1.1260;
261.3000;1.3740;1.1285;
261.6000;1.3748;1.1260;
261.9000;1.3757;1.1260;
262.2000;1.3740;1.1210;
262.5000;1.3740;1.1210;
262.8000;1.3757;1.1210;
263.1000;1.3732;1.1184;
263.4000;1.3740;1.1184;
263.7000;1.3748;1.1159;
264.0000;1.3748;1.1134;
264.3000;1.3740;1.1134;
264.6000;1.3708;1.1109;
264.9000;1.3732;1.1235;
265.2000;1.3732;1.1210;
265.5000;1.3732;1.1184;
265.8000;1.3740;1.1210;
266.1000;1.3732;1.1159;
266.4000;1.3740;1.1159;
266.7000;1.3740;1.1184;
267.0000;1.3740;1.1159;
267.3000;1.3740;1.1184;
267.6000;1.3748;1.1285;
267.9000;1.3757;1.1260;
268.2000;1.3740;1.1235;
268.5000;1.3740;1.1235;
268.8000;1.3748;1.1285;
269.1000;1.3748;1.1260;
269.4000;1.3724;1.1210;
269.7000;1.3716;1.1260;
270.0000;1.3708;1.1159;
270.3000;1.3765;1.1335;
270.6000;1.3748;1.1310;
270.9000;1.3716;1.1260;
271.2000;1.3740;1.1285;
271.5000;1.3757;1.1310;
271.8000;1.3732;1.1260;
272.1000;1.3789;1.1335;
272.4000;1.3748;1.1285;
272.7000;1.3765;1.1386;
273.0000;1.3822;1.1537;
273.3000;1.3732;1.1335;
273.6000;1.3773;1.1361;
273.9000;1.3757;1.1260;
274.2000;1.3757;1.1134;
274.5000;1.3740;1.1058;
274.8000;1.3748;1.1134;
275.1000;1.3732;1.1235;
275.4000;1.3748;1.1235;
275.7000;1.3732;1.1184;
276.0000;1.3716;1.1184;
276.3000;1.3732;1.1260;
276.6000;1.3765;1.1310;
276.9000;1.3740;1.1285;
277.2000;1.3740;1.1310;
277.5000;1.3740;1.1260;
277.8000;1.3748;1.1210;
278.1000;1.3691;1.1084;
278.4000;1.3724;1.1184;
278.7000;1.3740;1.1310;
279.0000;1.3716;1.1285;
279.3000;1.3724;1.1310;
279.6000;1.3724;1.1260;
279.9000;1.3765;1.1335;
280.2000;1.3732;1.1235;
280.5000;1.3740;1.1159;
280.8000;1.3700;1.1058;
281.1000;1.3740;1.1058;
281.4000;1.3740;1.1109;
281.7000;1.3748;1.1084;
282.0000;1.3740;1.1084;
282.3000;1.3732;1.1109;
282.6000;1.3748;1.1058;
282.9000;1.3740;1.1084;
283.2000;1.3732;1.1084;
283.5000;1.3732;1.1084;
283.8000;1.3724;1.1109;
284.1000;1.3724;1.1109;
284.4000;1.3765;1.1134;
284.7000;1.3724;1.0958;
285.0000;1.3724;1.0958;
285.3000;1.3732;1.0907;
285.6000;1.3732;1.0932;
285.9000;1.3732;1.0932;
286.2000;1.3716;1.0932;
286.5000;1.3716;1.1008;
286.8000;1.3748;1.1235;
287.1000;1.3732;1.1210;
287.4000;1.3724;1.1134;
287.7000;1.3748;1.1184;
288.0000;1.3716;1.0983;
288.3000;1.3757;1.1109;
288.6000;1.3748;1.1134;
288.9000;1.3724;1.1184;
289.2000;1.3724;1.1159;
289.5000;1.3716;1.1134;
289.8000;1.3740;1.1210;
290.1000;1.3708;1.1084;
290.4000;1.3732;1.1184;
290.7000;1.3716;1.1210;
291.0000;1.3724;1.1159;
291.3000;1.3724;1.1109;
291.6000;1.3708;1.0983;
291.9000;1.3724;1.1033;
292.2000;1.3724;1.0983;
292.5000;1.3732;1.0882;
292.8000;1.3765;1.1008;
293.1000;1.3748;1.1008;
293.4000;1.3732;1.0958;
293.7000;1.3708;1.0932;
294.0000;1.3716;1.0932;
294.3000;1.3732;1.0983;
294.6000;1.3740;1.0958;
294.9000;1.3765;1.1058;
295.2000;1.3740;1.1033;
295.5000;1.3740;1.1008;
295.8000;1.3700;1.0907;
296.1000;1.3724;1.1008;
296.4000;1.3708;1.1008;
296.7000;1.3732;1.1109;
297.0000;1.3748;1.1159;
297.3000;1.3740;1.1033;
297.6000;1.3716;1.0983;
297.9000;1.3757;1.1058;
298.2000;1.3740;1.1134;
298.5000;1.3740;1.1134;
298.8000;1.3683;1.0932;
299.1000;1.3748;1.1084;
299.4000;1.3748;1.1109;
299.7000;1.3724;1.1084;
300.0000;1.3724;1.1084;
300.3000;1.3740;1.0983;
300.6000;1.3732;1.0983;
300.9000;1.3724;1.1058;
301.2000;1.3724;1.1134;
301.5000;1.3724;1.1109;
301.8000;1.3732;1.1184;
302.1000;1.3716;1.1084;
302.4000;1.3708;1.1008;
302.7000;1.3773;1.1058;
303.0000;1.3724;1.0983;
303.3000;1.3740;1.1008;
303.6000;1.3740;1.1008;
303.9000;1.3716;1.0983;
304.2000;1.3716;1.0958;
304.5000;1.3740;1.0958;
304.8000;1.3732;1.0907;
305.1000;1.3732;1.0958;
305.4000;1.3691;1.0882;
305.7000;1.3708;1.0958;
306.0000;1.3724;1.0958;
306.3000;1.3724;1.1033;
306.6000;1.3748;1.1184;
306.9000;1.3732;1.0983;
307.2000;1.3708;1.1008;
307.5000;1.3732;1.1159;
307.8000;1.3683;1.0983;
308.1000;1.3757;1.1008;
308.4000;1.3740;1.0907;
308.7000;1.3691;1.0882;
309.0000;1.3732;1.0932;
309.3000;1.3716;1.0983;
309.6000;1.3732;1.1033;
309.9000;1.3724;1.1058;
310.2000;1.3708;1.1084;
310.5000;1.3700;1.1109;
310.8000;1.3757;1.1235;
311.1000;1.3732;1.1184;
311.4000;1.3732;1.1285;
311.7000;1.3740;1.1335;
312.0000;1.3724;1.1310;
312.3000;1.3765;1.1436;
312.6000;1.3724;1.1310;
312.9000;1.3724;1.1260;
313.2000;1.3732;1.1235;
313.5000;1.3765;1.1260;
313.8000;1.3732;1.1159;
314.1000;1.3740;1.1184;
314.4000;1.3732;1.1159;
314.7000;1.3765;1.1235;
315.0000;1.3732;1.1285;
315.3000;1.3683;1.1235;
315.6000;1.3805;1.1537;
315.9000;1.3716;1.1361;
316.2000;1.3700;1.1210;
316.5000;1.3765;1.1310;
316.8000;1.3748;1.1260;
317.1000;1.3748;1.1361;
317.4000;1.3732;1.1285;
317.7000;1.3732;1.1335;
318.0000;1.3716;1.1285;
318.3000;1.3740;1.1310;
318.6000;1.3781;1.1335;
318.9000;1.3740;1.1134;
319.2000;1.3708;1.1109;
319.5000;1.3716;1.1033;
319.8000;1.3724;1.1134;
320.1000;1.3724;1.1134;
320.4000;1.3716;1.1109;
320.7000;1.3708;1.1184;
321.0000;1.3724;1.1184;
321.3000;1.3740;1.1134;
321.6000;1.3732;1.1134;
321.9000;1.3724;1.1008;
322.2000;1.3732;1.1033;
322.5000;1.3732;1.1058;
322.8000;1.3773;1.1159;
323.1000;1.3765;1.1058;
323.4000;1.3748;1.1058;
323.7000;1.3748;1.1159;
324.0000;1.3700;1.1033;
324.3000;1.3732;1.1109;
324.6000;1.3716;1.1210;
324.9000;1.3724;1.1260;
325.2000;1.3740;1.1260;
325.5000;1.3732;1.1210;
325.8000;1.3732;1.1159;
326.1000;1.3789;1.1285;
326.4000;1.3724;1.1109;
326.7000;1.3724;1.1109;
327.0000;1.3732;1.1109;
327.3000;1.3708;1.1008;
327.6000;1.3716;1.1084;
327.9000;1.3708;1.1033;
328.2000;1.3716;1.1033;
328.5000;1.3748;1.1134;
328.8000;1.3732;1.1159;
329.1000;1.3732;1.1134;
329.4000;1.3740;1.1184;
329.7000;1.3716;1.1109;
330.0000;1.3724;1.1159;
330.3000;1.3748;1.1184;
330.6000;1.3708;1.1134;
330.9000;1.3700;1.1184;
331.2000;1.3724;1.1260;
331.5000;1.3740;1.1260;
331.8000;1.3716;1.1109;
332.1000;1.3716;1.1008;
332.4000;1.3724;1.0983;
332.7000;1.3757;1.1084;
333.0000;1.3740;1.1033;
333.3000;1.3740;1.1008;
333.6000;1.3748;1.1084;
333.9000;1.3740;1.1134;
334.2000;1.3732;1.1109;
334.5000;1.3740;1.1159;
334.8000;1.3724;1.1134;
335.1000;1.3732;1.1159;
335.4000;1.3716;1.1109;
335.7000;1.3700;1.1109;
336.0000;1.3691;1.1109;
336.3000;1.3708;1.1058;
336.6000;1.3700;1.1084;
336.9000;1.3716;1.1109;
337.2000;1.3708;1.1159;
337.5000;1.3724;1.1159;
337.8000;1.3724;1.1109;
338.1000;1.3732;1.1159;
338.4000;1.3716;1.1310;
338.7000;1.3740;1.1335;
339.0000;1.3757;1.1411;
339.3000;1.3724;1.1361;
339.6000;1.3732;1.1335;
339.9000;1.3732;1.1310;
340.2000;1.3781;1.1461;
340.5000;1.3732;1.1285;
340.8000;1.3716;1.1159;
341.1000;1.3716;1.1184;
341.4000;1.3716;1.1184;
341.7000;1.3724;1.1184;
342.0000;1.3797;1.1386;
342.3000;1.3708;1.1210;
342.6000;1.3724;1.1159;
342.9000;1.3740;1.1310;
343.2000;1.3700;1.1159;
343.5000;1.3724;1.1235;
343.8000;1.3732;1.1285;
344.1000;1.3797;1.1487;
344.4000;1.3732;1.1335;
344.7000;1.3740;1.1386;
345.0000;1.3724;1.1310;
345.3000;1.3732;1.1361;
345.6000;1.3716;1.1285;
345.9000;1.3716;1.1310;
346.2000;1.3675;1.1310;
346.5000;1.3740;1.1487;
346.8000;1.3724;1.1386;
347.1000;1.3700;1.1285;
347.4000;1.3716;1.1260;
347.7000;1.3732;1.1335;
348.0000;1.3724;1.1361;
348.3000;1.3724;1.1386;
348.6000;1.3708;1.1260;
348.9000;1.3724;1.1210;
349.2000;1.3716;1.1235;
349.5000;1.3732;1.1210;
349.8000;1.3748;1.1235;
350.1000;1.3708;1.1235;
350.4000;1.3724;1.1235;
350.7000;1.3732;1.1260;
351.0000;1.3683;1.1159;
351.3000;1.3675;1.1058;
351.6000;1.3708;1.1159;
351.9000;1.3716;1.1235;
352.2000;1.3716;1.1285;
352.5000;1.3724;1.1285;
352.8000;1.3732;1.1361;
353.1000;1.3716;1.1310;
353.4000;1.3708;1.1310;
353.7000;1.3708;1.1235;
354.0000;1.3708;1.1235;
354.3000;1.3724;1.1335;
354.6000;1.3773;1.1411;
354.9000;1.3748;1.1386;
355.2000;1.3748;1.1386;
355.5000;1.3732;1.1285;
355.8000;1.3716;1.1159;
356.1000;1.3716;1.1210;
356.4000;1.3708;1.1310;
356.7000;1.3732;1.1310;
357.0000;1.3724;1.1285;
357.3000;1.3716;1.1235;
357.6000;1.3700;1.1260;
357.9000;1.3708;1.1210;
358.2000;1.3716;1.1184;
358.5000;1.3732;1.1210;
358.8000;1.3716;1.1159;
359.1000;1.3700;1.1058;
359.4000;1.3708;1.1184;
359.7000;1.3716;1.1235;
360.0000;1.3708;1.1184;
360.3000;1.3716;1.1235;
360.6000;1.3716;1.1184;
360.9000;1.3708;1.1159;
361.2000;1.3700;1.1210;
361.5000;1.3757;1.1335;
361.8000;1.3732;1.1235;
362.1000;1.3667;1.1134;
362.4000;1.3691;1.1260;
362.7000;1.3651;1.1058;
363.0000;1.3716;1.1184;
363.3000;1.3724;1.1260;
363.6000;1.3724;1.1260;
363.9000;1.3700;1.1260;
364.2000;1.3716;1.1260;
364.5000;1.3716;1.1235;
364.8000;1.3740;1.1260;
365.1000;1.3740;1.1310;
365.4000;1.3732;1.1260;
365.7000;1.3700;1.1159;
366.0000;1.3732;1.1159;
366.3000;1.3724;1.1109;
366.6000;1.3773;1.1285;
366.9000;1.3748;1.1260;
367.2000;1.3757;1.1260;
367.5000;1.3708;1.1109;
367.8000;1.3708;1.1109;
368.1000;1.3708;1.1109;
368.4000;1.3732;1.1210;
368.7000;1.3740;1.1335;
369.0000;1.3740;1.1260;
369.3000;1.3765;1.1260;
369.6000;1.3716;1.1210;
369.9000;1.3732;1.1235;
370.2000;1.3748;1.1235;
370.5000;1.3716;1.1210;
370.8000;1.3716;1.1285;
371.1000;1.3708;1.1235;
371.4000;1.3708;1.1210;
371.7000;1.3748;1.1386;
372.0000;1.3716;1.1285;
372.3000;1.3700;1.1335;
372.6000;1.3700;1.1285;
372.9000;1.3740;1.1260;
373.2000;1.3724;1.1210;
373.5000;1.3740;1.1235;
373.8000;1.3724;1.1335;
374.1000;1.3708;1.1361;
374.4000;1.3708;1.1361;
374.7000;1.3708;1.1386;
375.0000;1.3708;1.1386;
375.3000;1.3716;1.1361;
375.6000;1.3708;1.1310;
375.9000;1.3716;1.1310;
376.2000;1.3724;1.1260;
376.5000;1.3708;1.1235;
376.8000;1.3716;1.1235;
377.1000;1.3732;1.1411;
377.4000;1.3716;1.1411;
377.7000;1.3708;1.1386;
378.0000;1.3724;1.1361;
378.3000;1.3797;1.1537;
378.6000;1.3724;1.1235;
378.9000;1.3724;1.1310;
379.2000;1.3716;1.1235;
379.5000;1.3716;1.1285;
379.8000;1.3716;1.1361;
380.1000;1.3716;1.1361;
380.4000;1.3708;1.1361;
380.7000;1.3708;1.1310;
381.0000;1.3700;1.1361;
381.3000;1.3716;1.1386;
381.6000;1.3724;1.1386;
381.9000;1.3700;1.1361;
382.2000;1.3700;1.1386;
382.5000;1.3724;1.1461;
382.8000;1.3724;1.1487;
383.1000;1.3700;1.1487;
383.4000;1.3691;1.1487;
383.7000;1.3748;1.1512;
384.0000;1.3732;1.1436;
384.3000;1.3708;1.1411;
384.6000;1.3708;1.1386;
384.9000;1.3708;1.1386;
385.2000;1.3724;1.1461;
385.5000;1.3691;1.1386;
385.8000;1.3724;1.1411;
386.1000;1.3708;1.1411;
386.4000;1.3740;1.1436;
386.7000;1.3716;1.1285;
387.0000;1.3708;1.1260;
387.3000;1.3716;1.1361;
387.6000;1.3708;1.1386;
387.9000;1.3691;1.1310;
388.2000;1.3700;1.1260;
388.5000;1.3708;1.1310;
388.8000;1.3716;1.1386;
389.1000;1.3708;1.1335;
389.4000;1.3716;1.1310;
389.7000;1.3708;1.1159;
390.0000;1.3700;1.1159;
390.3000;1.3732;1.1285;
390.6000;1.3732;1.1235;
390.9000;1.3724;1.1260;
391.2000;1.3740;1.1310;
391.5000;1.3732;1.1285;
391.8000;1.3724;1.1361;
392.1000;1.3659;1.1184;
392.4000;1.3700;1.1310;
392.7000;1.3732;1.1335;
393.0000;1.3708;1.1285;
393.3000;1.3797;1.1461;
393.6000;1.3724;1.1260;
393.9000;1.3643;1.1109;
394.2000;1.3691;1.1260;
394.5000;1.3700;1.1361;
394.8000;1.3708;1.1436;
395.1000;1.3757;1.1512;
395.4000;1.3732;1.1512;
395.7000;1.3716;1.1562;
396.0000;1.3700;1.1512;
396.3000;1.3724;1.1487;
396.6000;1.3732;1.1436;
396.9000;1.3757;1.1537;
397.2000;1.3708;1.1461;
397.5000;1.3708;1.1411;
397.8000;1.3724;1.1436;
398.1000;1.3732;1.1487;
398.4000;1.3708;1.1436;
398.7000;1.3708;1.1386;
399.0000;1.3732;1.1436;
399.3000;1.3683;1.1285;
399.6000;1.3716;1.1310;
399.9000;1.3716;1.1361;
400.2000;1.3708;1.1386;
400.5000;1.3716;1.1386;
400.8000;1.3708;1.1461;
401.1000;1.3724;1.1537;
401.4000;1.3716;1.1436;
401.7000;1.3724;1.1487;
402.0000;1.3700;1.1386;
402.3000;1.3691;1.1461;
402.6000;1.3700;1.1411;
402.9000;1.3708;1.1361;
403.2000;1.3700;1.1361;
403.5000;1.3691;1.1436;
403.8000;1.3716;1.1512;
404.1000;1.3732;1.1537;
404.4000;1.3732;1.1411;
404.7000;1.3748;1.1487;
405.0000;1.3708;1.1386;
405.3000;1.3724;1.1386;
405.6000;1.3716;1.1386;
405.9000;1.3724;1.1436;
406.2000;1.3708;1.1361;
406.5000;1.3708;1.1335;
406.8000;1.3716;1.1386;
407.1000;1.3716;1.1411;
407.4000;1.3716;1.1361;
407.7000;1.3708;1.1310;
408.0000;1.3724;1.1411;
408.3000;1.3700;1.1436;
408.6000;1.3683;1.1436;
408.9000;1.3708;1.1436;
409.2000;1.3675;1.1335;
409.5000;1.3700;1.1386;
409.8000;1.3700;1.1335;
410.1000;1.3740;1.1386;
410.4000;1.3716;1.1184;
410.7000;1.3716;1.1210;
411.0000;1.3708;1.1260;
411.3000;1.3708;1.1260;
411.6000;1.3716;1.1260;
411.9000;1.3716;1.1285;
412.2000;1.3748;1.1335;
412.5000;1.3700;1.1285;
412.8000;1.3716;1.1361;
413.1000;1.3708;1.1411;
413.4000;1.3691;1.1411;
413.7000;1.3700;1.1436;
414.0000;1.3691;1.1436;
414.3000;1.3691;1.1487;
414.6000;1.3765;1.1537;
414.9000;1.3651;1.1335;
415.2000;1.3708;1.1487;
415.5000;1.3708;1.1487;
415.8000;1.3716;1.1361;
416.1000;1.3724;1.1386;
416.4000;1.3700;1.1411;
416.7000;1.3700;1.1310;
417.0000;1.3724;1.1386;
417.3000;1.3708;1.1361;
417.6000;1.3675;1.1335;
417.9000;1.3700;1.1461;
418.2000;1.3708;1.1537;
418.5000;1.3732;1.1713;
418.8000;1.3691;1.1613;
419.1000;1.3732;1.1663;
419.4000;1.3708;1.1587;
419.7000;1.3724;1.1613;
420.0000;1.3700;1.1613;
420.3000;1.3708;1.1587;
420.6000;1.3708;1.1688;
420.9000;1.3675;1.1537;
421.2000;1.3675;1.1537;
421.5000;1.3691;1.1512;
421.8000;1.3700;1.1461;
422.1000;1.3708;1.1411;
422.4000;1.3700;1.1386;
422.7000;1.3683;1.1310;
423.0000;1.3700;1.1310;
423.3000;1.3708;1.1310;
423.6000;1.3724;1.1386;
423.9000;1.3708;1.1386;
424.2000;1.3757;1.1562;
424.5000;1.3708;1.1386;
424.8000;1.3716;1.1436;
425.1000;1.3708;1.1386;
425.4000;1.3667;1.1184;
425.7000;1.3716;1.1285;
426.0000;1.3724;1.1260;
426.3000;1.3724;1.1285;
426.6000;1.3716;1.1335;
426.9000;1.3716;1.1411;
427.2000;1.3716;1.1335;
427.5000;1.3716;1.1335;
427.8000;1.3716;1.1210;
428.1000;1.3700;1.1159;
428.4000;1.3724;1.1260;
428.7000;1.3691;1.1235;
429.0000;1.3708;1.1285;
429.3000;1.3708;1.1285;
429.6000;1.3700;1.1210;
429.9000;1.3716;1.1210;
430.2000;1.3708;1.1134;
430.5000;1.3700;1.1134;
430.8000;1.3708;1.1210;
431.1000;1.3708;1.1159;
431.4000;1.3700;1.1235;
431.7000;1.3708;1.1285;
432.0000;1.3708;1.1285;
432.3000;1.3708;1.1335;
432.6000;1.3708;1.1235;
432.9000;1.3691;1.1235;
433.2000;1.3700;1.1235;
433.5000;1.3724;1.1260;
433.8000;1.3700;1.1235;
434.1000;1.3716;1.1184;
434.4000;1.3708;1.1260;
434.7000;1.3708;1.1235;
435.0000;1.3716;1.1235;
435.3000;1.3716;1.1159;
435.6000;1.3724;1.1159;
435.9000;1.3716;1.1285;
436.2000;1.3716;1.1285;
436.5000;1.3700;1.1285;
436.8000;1.3691;1.1310;
437.1000;1.3757;1.1487;
437.4000;1.3732;1.1335;
437.7000;1.3691;1.1285;
438.0000;1.3691;1.1235;
438.3000;1.3683;1.1210;
438.6000;1.3716;1.1361;
438.9000;1.3708;1.1411;
439.2000;1.3700;1.1335;
439.5000;1.3691;1.1285;
439.8000;1.3724;1.1361;
440.1000;1.3716;1.1335;
440.4000;1.3708;1.1335;
440.7000;1.3700;1.1310;
441.0000;1.3708;1.1260;
441.3000;1.3765;1.1461;
441.6000;1.3716;1.1335;
441.9000;1.3708;1.1386;
442.2000;1.3716;1.1386;
442.5000;1.3708;1.1335;
442.8000;1.3708;1.1310;
443.1000;1.3675;1.1335;
443.4000;1.3724;1.1461;
443.7000;1.3708;1.1411;
444.0000;1.3691;1.1335;
444.3000;1.3691;1.1285;
444.6000;1.3740;1.1335;
444.9000;1.3716;1.1285;
445.2000;1.3773;1.1436;
445.5000;1.3700;1.1235;
445.8000;1.3691;1.1210;
446.1000;1.3700;1.1210;
446.4000;1.3724;1.1310;
446.7000;1.3683;1.1310;
447.0000;1.3724;1.1386;
447.3000;1.3700;1.1335;
447.6000;1.3708;1.1386;
447.9000;1.3626;1.1159;
448.2000;1.3675;1.1361;
448.5000;1.3675;1.1310;
448.8000;1.3691;1.1361;
449.1000;1.3675;1.1361;
449.4000;1.3691;1.1285;
449.7000;1.3675;1.1235;
450.0000;1.3667;1.1210;
450.3000;1.3643;1.1184;
450.6000;1.3716;1.1310;
450.9000;1.3700;1.1210;
451.2000;1.3700;1.1159;
451.5000;1.3700;1.1184;
451.8000;1.3691;1.1184;
452.1000;1.3700;1.1285;
452.4000;1.3691;1.1260;
452.7000;1.3691;1.1310;
453.0000;1.3700;1.1361;
453.3000;1.3708;1.1335;
453.6000;1.3700;1.1310;
453.9000;1.3716;1.1310;
454.2000;1.3700;1.1260;
454.5000;1.3708;1.1210;
454.8000;1.3683;1.1235;
455.1000;1.3691;1.1285;
455.4000;1.3716;1.1285;
455.7000;1.3708;1.1235;
456.0000;1.3683;1.1285;
456.3000;1.3700;1.1361;
456.6000;1.3708;1.1361;
456.9000;1.3708;1.1386;
457.2000;1.3691;1.1310;
457.5000;1.3700;1.1310;
457.8000;1.3700;1.1260;
458.1000;1.3724;1.1310;
458.4000;1.3700;1.1285;
458.7000;1.3691;1.1285;
459.0000;1.3700;1.1310;
459.3000;1.3691;1.1335;
459.6000;1.3691;1.1335;
459.9000;1.3700;1.1285;
460.2000;1.3683;1.1260;
460.5000;1.3740;1.1461;
460.8000;1.3700;1.1411;
461.1000;1.3651;1.1461;
461.4000;1.3748;1.1688;
461.7000;1.3732;1.1638;
462.0000;1.3716;1.1562;
462.3000;1.3659;1.1361;
462.6000;1.3700;1.1436;
462.9000;1.3732;1.1537;
463.2000;1.3691;1.1487;
463.5000;1.3700;1.1461;
463.8000;1.3651;1.1260;
464.1000;1.3691;1.1361;
464.4000;1.3700;1.1361;
464.7000;1.3700;1.1285;
465.0000;1.3700;1.1260;
465.3000;1.3708;1.1285;
465.6000;1.3716;1.1335;
465.9000;1.3700;1.1361;
466.2000;1.3716;1.1436;
466.5000;1.3691;1.1461;
466.8000;1.3700;1.1461;
467.1000;1.3708;1.1487;
467.4000;1.3691;1.1487;
467.7000;1.3675;1.1411;
468.0000;1.3700;1.1512;
468.3000;1.3708;1.1613;
468.6000;1.3708;1.1613;
468.9000;1.3691;1.1587;
469.2000;1.3700;1.1512;
469.5000;1.3700;1.1512;
469.8000;1.3700;1.1436;
470.1000;1.3691;1.1386;
470.4000;1.3659;1.1260;
470.7000;1.3700;1.1411;
471.0000;1.3683;1.1386;
471.3000;1.3675;1.1436;
471.6000;1.3700;1.1487;
471.9000;1.3708;1.1512;
472.2000;1.3708;1.1537;
472.5000;1.3683;1.1537;
472.8000;1.3700;1.1537;
473.1000;1.3691;1.1512;
473.4000;1.3700;1.1537;
473.7000;1.3691;1.1436;
474.0000;1.3675;1.1461;
474.3000;1.3708;1.1461;
474.6000;1.3700;1.1487;
474.9000;1.3691;1.1436;
475.2000;1.3683;1.1411;
475.5000;1.3700;1.1436;
475.8000;1.3700;1.1436;
476.1000;1.3667;1.1436;
476.4000;1.3683;1.1487;
476.7000;1.3651;1.1436;
477.0000;1.3683;1.1587;
477.3000;1.3683;1.1587;
477.6000;1.3643;1.1487;
477.9000;1.3691;1.1537;
478.2000;1.3691;1.1512;
478.5000;1.3675;1.1335;
478.8000;1.3691;1.1285;
479.1000;1.3691;1.1235;
479.4000;1.3683;1.1134;
479.7000;1.3716;1.1235;
480.0000;1.3675;1.1184;
480.3000;1.3667;1.1235;
480.6000;1.3691;1.1285;
480.9000;1.3700;1.1260;
481.2000;1.3748;1.1386;
481.5000;1.3691;1.1310;
481.8000;1.3700;1.1335;
482.1000;1.3700;1.1335;
482.4000;1.3700;1.1361;
482.7000;1.3732;1.1386;
483.0000;1.3691;1.1310;
483.3000;1.3683;1.1310;
483.6000;1.3700;1.1335;
483.9000;1.3708;1.1386;
484.2000;1.3683;1.1386;
484.5000;1.3691;1.1335;
484.8000;1.3700;1.1260;
485.1000;1.3691;1.1210;
485.4000;1.3700;1.1134;
485.7000;1.3700;1.1210;
486.0000;1.3740;1.1386;
486.3000;1.3732;1.1436;
486.6000;1.3716;1.1461;
486.9000;1.3700;1.1461;
487.2000;1.3691;1.1361;
487.5000;1.3700;1.1361;
487.8000;1.3683;1.1335;
488.1000;1.3757;1.1512;
488.4000;1.3708;1.1285;
488.7000;1.3708;1.1260;
489.0000;1.3691;1.1260;
489.3000;1.3683;1.1310;
489.6000;1.3708;1.1335;
489.9000;1.3700;1.1335;
490.2000;1.3700;1.1361;
490.5000;1.3708;1.1361;
490.8000;1.3667;1.1285;
491.1000;1.3683;1.1335;
491.4000;1.3700;1.1386;
491.7000;1.3602;1.1159;
492.0000;1.3700;1.1411;
492.3000;1.3683;1.1436;
492.6000;1.3691;1.1436;
492.9000;1.3683;1.1411;
493.2000;1.3708;1.1361;
493.5000;1.3708;1.1285;
493.8000;1.3708;1.1260;
494.1000;1.3708;1.1285;
494.4000;1.3659;1.1210;
494.7000;1.3691;1.1260;
495.0000;1.3716;1.1386;
495.3000;1.3691;1.1436;
495.6000;1.3708;1.1461;
495.9000;1.3700;1.1361;
496.2000;1.3691;1.1411;
496.5000;1.3691;1.1411;
496.8000;1.3691;1.1335;
497.1000;1.3691;1.1436;
497.4000;1.3708;1.1361;
497.7000;1.3700;1.1361;
498.0000;1.3691;1.1436;
498.3000;1.3667;1.1436;
498.6000;1.3700;1.1487;
498.9000;1.3691;1.1461;
499.2000;1.3691;1.1411;
499.5000;1.3659;1.1285;
499.8000;1.3691;1.1285;
500.1000;1.3691;1.1235;
500.4000;1.3691;1.1159;
500.7000;1.3724;1.1109;
501.0000;1.3700;1.1084;
501.3000;1.3675;1.1134;
501.6000;1.3626;1.0932;
501.9000;1.3675;1.1109;
502.2000;1.3683;1.1184;
502.5000;1.3691;1.1159;
502.8000;1.3683;1.1084;
503.1000;1.3667;1.1109;
503.4000;1.3667;1.1134;
503.7000;1.3748;1.1285;
504.0000;1.3683;1.1184;
504.3000;1.3675;1.1159;
504.6000;1.3675;1.1084;
504.9000;1.3683;1.1134;
505.2000;1.3691;1.1134;
505.5000;1.3716;1.1210;
505.8000;1.3683;1.1109;
506.1000;1.3748;1.1310;
506.4000;1.3691;1.1159;
506.7000;1.3635;1.1109;
507.0000;1.3683;1.1260;
507.3000;1.3675;1.1260;
507.6000;1.3683;1.1235;
507.9000;1.3683;1.1235;
508.2000;1.3700;1.1159;
508.5000;1.3691;1.1134;
508.8000;1.3708;1.1260;
509.1000;1.3683;1.1260;
509.4000;1.3691;1.1285;
509.7000;1.3683;1.1386;
510.0000;1.3691;1.1487;
510.3000;1.3667;1.1411;
510.6000;1.3659;1.1386;
510.9000;1.3683;1.1411;
511.2000;1.3732;1.1461;
511.5000;1.3691;1.1310;
511.8000;1.3691;1.1184;
512.1000;1.3757;1.1386;
512.4000;1.3667;1.1235;
512.7000;1.3683;1.1285;
513.0000;1.3691;1.1310;
513.3000;1.3683;1.1310;
513.6000;1.3675;1.1386;
513.9000;1.3691;1.1562;
514.2000;1.3683;1.1461;
514.5000;1.3667;1.1335;
514.8000;1.3691;1.1386;
515.1000;1.3683;1.1411;
515.4000;1.3691;1.1335;
515.7000;1.3683;1.1335;
516.0000;1.3691;1.1386;
516.3000;1.3610;1.1184;
516.6000;1.3683;1.1335;
516.9000;1.3675;1.1285;
517.2000;1.3708;1.1361;
517.5000;1.3626;1.1159;
517.8000;1.3691;1.1335;
518.1000;1.3700;1.1335;
518.4000;1.3683;1.1285;
518.7000;1.3683;1.1285;
519.0000;1.3683;1.1310;
519.3000;1.3691;1.1361;
519.6000;1.3675;1.1361;
519.9000;1.3675;1.1310;
520.2000;1.3716;1.1411;
520.5000;1.3683;1.1310;
520.8000;1.3667;1.1235;
521.1000;1.3708;1.1335;
521.4000;1.3683;1.1285;
521.7000;1.3724;1.1310;
522.0000;1.3683;1.1260;
522.3000;1.3691;1.1184;
522.6000;1.3700;1.1260;
522.9000;1.3691;1.1235;
523.2000;1.3691;1.1285;
523.5000;1.3675;1.1184;
523.8000;1.3667;1.1235;
524.1000;1.3667;1.1210;
524.4000;1.3667;1.1235;
524.7000;1.3667;1.1285;
525.0000;1.3683;1.1310;
525.3000;1.3683;1.1210;
525.6000;1.3683;1.1109;
525.9000;1.3675;1.1109;
526.2000;1.3667;1.1109;
526.5000;1.3683;1.1058;
526.8000;1.3691;1.1058;
527.1000;1.3691;1.1058;
527.4000;1.3675;1.1109;
527.7000;1.3691;1.1134;
528.0000;1.3716;1.1134;
528.3000;1.3683;1.1109;
528.6000;1.3700;1.1109;
528.9000;1.3691;1.1159;
529.2000;1.3700;1.1159;
529.5000;1.3675;1.1159;
529.8000;1.3773;1.1386;
530.1000;1.3683;1.1184;
530.4000;1.3683;1.1210;
530.7000;1.3708;1.1310;
531.0000;1.3740;1.1436;
531.3000;1.3651;1.1134;
531.6000;1.3691;1.1159;
531.9000;1.3700;1.1184;
532.2000;1.3667;1.1235;
532.5000;1.3667;1.1260;
532.8000;1.3732;1.1361;
533.1000;1.3708;1.1285;
533.4000;1.3700;1.1260;
533.7000;1.3691;1.1310;
534.0000;1.3708;1.1260;
534.3000;1.3740;1.1285;
534.6000;1.3675;1.1184;
534.9000;1.3659;1.1109;
535.2000;1.3675;1.1184;
535.5000;1.3691;1.1184;
535.8000;1.3675;1.1260;
536.1000;1.3675;1.1210;
536.4000;1.3675;1.1310;
536.7000;1.3675;1.1335;
537.0000;1.3683;1.1310;
537.3000;1.3659;1.1235;
537.6000;1.3691;1.1285;
537.9000;1.3675;1.1184;
538.2000;1.3691;1.1159;
538.5000;1.3675;1.1134;
538.8000;1.3691;1.1210;
539.1000;1.3700;1.1184;
539.4000;1.3724;1.1235;
539.7000;1.3675;1.1159;
540.0000;1.3667;1.1159;
540.3000;1.3643;1.1058;
540.6000;1.3618;1.0857;
540.9000;1.3667;1.0983;
541.2000;1.3594;1.0857;
541.5000;1.3667;1.1008;
541.8000;1.3675;1.1033;
542.1000;1.3675;1.0983;
542.4000;1.3667;1.1084;
542.7000;1.3691;1.1058;
543.0000;1.3691;1.0983;
543.3000;1.3683;1.1058;
543.6000;1.3683;1.1134;
543.9000;1.3700;1.1184;
544.2000;1.3700;1.1159;
544.5000;1.3716;1.1310;
544.8000;1.3708;1.1260;
545.1000;1.3691;1.1184;
545.4000;1.3683;1.1184;
545.7000;1.3635;1.1084;
546.0000;1.3683;1.1134;
546.3000;1.3683;1.1134;
546.6000;1.3683;1.1134;
546.9000;1.3691;1.1210;
547.2000;1.3691;1.1184;
547.5000;1.3691;1.1235;
547.8000;1.3675;1.1210;
548.1000;1.3675;1.1285;
548.4000;1.3691;1.1310;
548.7000;1.3675;1.1184;
549.0000;1.3675;1.1058;
549.3000;1.3683;1.1058;
549.6000;1.3675;1.1033;
549.9000;1.3716;1.1084;
550.2000;1.3708;1.1109;
550.5000;1.3683;1.1084;
550.8000;1.3683;1.1184;
551.1000;1.3683;1.1285;
551.4000;1.3675;1.1310;
551.7000;1.3667;1.1184;
552.0000;1.3667;1.1184;
552.3000;1.3683;1.1210;
552.6000;1.3667;1.1159;
552.9000;1.3635;1.1109;
553.2000;1.3667;1.1159;
553.5000;1.3691;1.1210;
553.8000;1.3683;1.1109;
554.1000;1.3683;1.1084;
554.4000;1.3675;1.1159;
554.7000;1.3683;1.1235;
555.0000;1.3675;1.1260;
555.3000;1.3643;1.1109;
555.6000;1.3675;1.1285;
555.9000;1.3708;1.1235;
556.2000;1.3691;1.1084;
556.5000;1.3691;1.1058;
556.8000;1.3700;1.1008;
557.1000;1.3683;1.1008;
557.4000;1.3700;1.1058;
557.7000;1.3691;1.1058;
558.0000;1.3675;1.1058;
558.3000;1.3691;1.1109;
558.6000;1.3691;1.1159;
558.9000;1.3708;1.1235;
559.2000;1.3683;1.1109;
559.5000;1.3683;1.1033;
559.8000;1.3683;1.1033;
560.1000;1.3700;1.1109;
560.4000;1.3716;1.1084;
560.7000;1.3667;1.0983;
561.0000;1.3675;1.0958;
561.3000;1.3667;1.0857;
561.6000;1.3667;1.0857;
561.9000;1.3651;1.0832;
562.2000;1.3683;1.0882;
562.5000;1.3675;1.0932;
562.8000;1.3675;1.0958;
563.1000;1.3683;1.0932;
563.4000;1.3716;1.1008;
563.7000;1.3732;1.1084;
564.0000;1.3675;1.0932;
564.3000;1.3683;1.0958;
564.6000;1.3683;1.0932;
564.9000;1.3691;1.1033;
565.2000;1.3667;1.0983;
565.5000;1.3732;1.1235;
565.8000;1.3675;1.1134;
566.1000;1.3675;1.1184;
566.4000;1.3651;1.1159;
566.7000;1.3667;1.1310;
567.0000;1.3643;1.1184;
567.3000;1.3683;1.1210;
567.6000;1.3700;1.1184;
567.9000;1.3659;1.1033;
568.2000;1.3683;1.1159;
568.5000;1.3683;1.1184;
568.8000;1.3691;1.1159;
569.1000;1.3683;1.1109;
569.4000;1.3667;1.1109;
569.7000;1.3675;1.1084;
570.0000;1.3675;1.1109;
570.3000;1.3691;1.1184;
570.6000;1.3675;1.1210;
570.9000;1.3691;1.1285;
571.2000;1.3691;1.1285;
571.5000;1.3683;1.1159;
571.8000;1.3683;1.1134;
572.1000;1.3667;1.1235;
572.4000;1.3675;1.1235;
572.7000;1.3683;1.1210;
573.0000;1.3683;1.1134;
573.3000;1.3691;1.1084;
573.6000;1.3651;1.1058;
573.9000;1.3683;1.1134;
574.2000;1.3635;1.1033;
574.5000;1.3683;1.1084;
574.8000;1.3651;1.1033;
575.1000;1.3740;1.1260;
575.4000;1.3691;1.1134;
575.7000;1.3675;1.1058;
576.0000;1.3700;1.1033;
576.3000;1.3708;1.1008;
576.6000;1.3691;1.1033;
576.9000;1.3667;1.1008;
577.2000;1.3659;1.0907;
577.5000;1.3683;1.0983;
577.8000;1.3667;1.1033;
578.1000;1.3683;1.0983;
578.4000;1.3700;1.1109;
578.7000;1.3683;1.1084;
579.0000;1.3716;1.1159;
579.3000;1.3716;1.1134;
579.6000;1.3675;1.1134;
579.9000;1.3667;1.1058;
580.2000;1.3651;1.0958;
580.5000;1.3667;1.1109;
580.8000;1.3683;1.1109;
581.1000;1.3651;1.1033;
581.4000;1.3691;1.1134;
581.7000;1.3667;1.1058;
582.0000;1.3683;1.1134;
582.3000;1.3643;1.1058;
582.6000;1.3659;1.1184;
582.9000;1.3683;1.1310;
583.2000;1.3667;1.1285;
583.5000;1.3667;1.1159;
583.8000;1.3667;1.1159;
584.1000;1.3651;1.1184;
584.4000;1.3683;1.1235;
584.7000;1.3683;1.1184;
585.0000;1.3675;1.1210;
585.3000;1.3683;1.1310;
585.6000;1.3667;1.1361;
585.9000;1.3643;1.1310;
586.2000;1.3675;1.1461;
586.5000;1.3683;1.1537;
586.8000;1.3659;1.1411;
587.1000;1.3651;1.1310;
587.4000;1.3651;1.1285;
587.7000;1.3667;1.1285;
588.0000;1.3683;1.1310;
588.3000;1.3667;1.1260;
588.6000;1.3667;1.1285;
588.9000;1.3675;1.1386;
589.2000;1.3700;1.1386;
589.5000;1.3691;1.1411;
589.8000;1.3691;1.1361;
590.1000;1.3675;1.1361;
590.4000;1.3691;1.1411;
590.7000;1.3675;1.1361;
591.0000;1.3675;1.1361;
591.3000;1.3683;1.1361;
591.6000;1.3691;1.1310;
591.9000;1.3683;1.1335;
592.2000;1.3675;1.1335;
592.5000;1.3683;1.1411;
592.8000;1.3659;1.1487;
593.1000;1.3700;1.1613;
593.4000;1.3683;1.1537;
593.7000;1.3740;1.1663;
594.0000;1.3659;1.1562;
594.3000;1.3691;1.1487;
594.6000;1.3659;1.1386;
594.9000;1.3667;1.1411;
595.2000;1.3659;1.1260;
595.5000;1.3708;1.1310;
595.8000;1.3683;1.1260;
596.1000;1.3691;1.1310;
596.4000;1.3675;1.1335;
596.7000;1.3675;1.1411;
597.0000;1.3691;1.1436;
597.3000;1.3675;1.1260;
597.6000;1.3675;1.1260;
597.9000;1.3691;1.1285;
598.2000;1.3683;1.1310;
598.5000;1.3659;1.1361;
598.8000;1.3748;1.1663;
599.1000;1.3651;1.1411;
599.4000;1.3675;1.1537;
599.7000;1.3683;1.1587;
600.0000;1.3659;1.1461;
600.3000;1.3683;1.1411;
600.6000;1.3691;1.1285;
600.9000;1.3651;1.1210;
601.2000;1.3578;1.1159;
601.5000;1.3439;1.0882;
601.8000;1.3333;1.0781;
602.1000;1.3203;1.0580;
602.4000;1.3089;1.0504;
602.7000;1.2983;1.0353;
603.0000;1.2861;1.0227;
603.3000;1.2764;1.0051;
603.6000;1.2674;0.9975;
603.9000;1.2560;0.9824;
604.2000;1.2470;0.9673;
604.5000;1.2373;0.9497;
604.8000;1.2308;0.9572;
605.1000;1.2218;0.9471;
605.4000;1.2153;0.9396;
605.7000;1.2063;0.9320;
606.0000;1.2015;0.9220;
606.3000;1.1925;0.8993;
606.6000;1.1844;0.8942;
606.9000;1.1803;0.9018;
607.2000;1.1730;0.8993;
607.5000;1.1640;0.8917;
607.8000;1.1583;0.8892;
608.1000;1.1543;0.8968;
608.4000;1.1502;0.8892;
608.7000;1.1429;0.8892;
609.0000;1.1380;0.8942;
609.3000;1.1347;0.8867;
609.6000;1.1290;0.8816;
609.9000;1.1217;0.8816;
610.2000;1.1168;0.8791;
610.5000;1.1119;0.8867;
610.8000;1.1087;0.8766;
611.1000;1.1038;0.8816;
611.4000;1.0997;0.8842;
611.7000;1.0948;0.8816;
612.0000;1.0891;0.8816;
612.3000;1.0851;0.8842;
612.6000;1.0802;0.8766;
612.9000;1.0761;0.8741;
613.2000;1.0729;0.8691;
613.5000;1.0655;0.8590;
613.8000;1.0647;0.8665;
614.1000;1.0590;0.8590;
614.4000;1.0517;0.8338;
614.7000;1.0492;0.8338;
615.0000;1.0501;0.8413;
615.3000;1.0476;0.8489;
615.6000;1.0387;0.8388;
615.9000;1.0395;0.8514;
616.2000;1.0346;0.8539;
616.5000;1.0403;0.8766;
616.8000;1.0281;0.8514;
617.1000;1.0240;0.8464;
617.4000;1.0208;0.8439;
617.7000;1.0134;0.8388;
618.0000;1.0118;0.8388;
618.3000;1.0110;0.8388;
618.6000;1.0085;0.8338;
618.9000;1.0045;0.8338;
619.2000;1.0037;0.8338;
619.5000;1.0037;0.8413;
619.8000;0.9972;0.8388;
620.1000;0.9931;0.8413;
620.4000;0.9898;0.8388;
620.7000;0.9874;0.8313;
621.0000;0.9833;0.8262;
621.3000;0.9833;0.8338;
621.6000;0.9792;0.8288;
621.9000;0.9776;0.8237;
622.2000;0.9752;0.8187;
622.5000;0.9678;0.8036;
622.8000;0.9678;0.7985;
623.1000;0.9654;0.8061;
623.4000;0.9613;0.8010;
623.7000;0.9638;0.8187;
624.0000;0.9581;0.8187;
624.3000;0.9581;0.8237;
624.6000;0.9540;0.8212;
624.9000;0.9540;0.8288;
625.2000;0.9524;0.8262;
625.5000;0.9491;0.8111;
625.8000;0.9459;0.7985;
626.1000;0.9459;0.8010;
626.4000;0.9410;0.7960;
626.7000;0.9410;0.8010;
627.0000;0.9394;0.8036;
627.3000;0.9377;0.8061;
627.6000;0.9345;0.8061;
627.9000;0.9312;0.8036;
628.2000;0.9304;0.8061;
628.5000;0.9280;0.8061;
628.8000;0.9263;0.7985;
629.1000;0.9239;0.7884;
629.4000;0.9231;0.7910;
629.7000;0.9206;0.7910;
630.0000;0.9182;0.7985;
630.3000;0.9223;0.8061;
630.6000;0.9158;0.7960;
630.9000;0.9133;0.8010;
631.2000;0.9117;0.8010;
631.5000;0.9101;0.8010;
631.8000;0.9084;0.7960;
632.1000;0.9060;0.7935;
632.4000;0.9068;0.8036;
632.7000;0.9044;0.7985;
633.0000;0.9011;0.7910;
633.3000;0.8995;0.7910;
633.6000;0.8978;0.7910;
633.9000;0.8970;0.7884;
634.2000;0.8954;0.7935;
634.5000;0.8921;0.7935;
634.8000;0.8921;0.7960;
635.1000;0.8921;0.8036;
635.4000;0.8864;0.7834;
635.7000;0.8864;0.7910;
636.0000;0.8873;0.8010;
636.3000;0.8848;0.7960;
636.6000;0.8840;0.8036;
636.9000;0.8832;0.8010;
637.2000;0.8816;0.7960;
637.5000;0.8791;0.7859;
637.8000;0.8783;0.7910;
638.1000;0.8767;0.7935;
638.4000;0.8775;0.7985;
638.7000;0.8734;0.7910;
639.0000;0.8734;0.7985;
639.3000;0.8726;0.7960;
639.6000;0.8702;0.7884;
639.9000;0.8694;0.7859;
640.2000;0.8702;0.7935;
640.5000;0.8669;0.7859;
640.8000;0.8637;0.7784;
641.1000;0.8661;0.7784;
641.4000;0.8637;0.7784;
641.7000;0.8637;0.7809;
642.0000;0.8620;0.7683;
642.3000;0.8588;0.7658;
642.6000;0.8588;0.7784;
642.9000;0.8580;0.7784;
643.2000;0.8571;0.7759;
643.5000;0.8555;0.7809;
643.8000;0.8514;0.7733;
644.1000;0.8531;0.7884;
644.4000;0.8514;0.7910;
644.7000;0.8498;0.7910;
645.0000;0.8531;0.7960;
645.3000;0.8441;0.7784;
645.6000;0.8457;0.7759;
645.9000;0.8474;0.7759;
646.2000;0.8449;0.7834;
646.5000;0.8449;0.7910;
646.8000;0.8433;0.7935;
647.1000;0.8425;0.7910;
647.4000;0.8409;0.7884;
647.7000;0.8400;0.7884;
648.0000;0.8392;0.7834;
648.3000;0.8482;0.8136;
648.6000;0.8376;0.7809;
648.9000;0.8352;0.7708;
649.2000;0.8311;0.7633;
649.5000;0.8344;0.7733;
649.8000;0.8319;0.7733;
650.1000;0.8319;0.7809;
650.4000;0.8303;0.7683;
650.7000;0.8311;0.7733;
651.0000;0.8303;0.7658;
651.3000;0.8295;0.7607;
651.6000;0.8303;0.7708;
651.9000;0.8287;0.7809;
652.2000;0.8270;0.7809;
652.5000;0.8254;0.7708;
652.8000;0.8254;0.7759;
653.1000;0.8238;0.7834;
653.4000;0.8230;0.7935;
653.7000;0.8213;0.7960;
654.0000;0.8246;0.8086;
654.3000;0.8213;0.8010;
654.6000;0.8197;0.7859;
654.9000;0.8173;0.7834;
655.2000;0.8156;0.7708;
655.5000;0.8164;0.7658;
655.8000;0.8181;0.7708;
656.1000;0.8173;0.7708;
656.4000;0.8189;0.7834;
656.7000;0.8148;0.7859;
657.0000;0.8148;0.7884;
657.3000;0.8107;0.7759;
657.6000;0.8124;0.7759;
657.9000;0.8132;0.7809;
658.2000;0.8116;0.7759;
658.5000;0.8107;0.7809;
658.8000;0.8091;0.7733;
659.1000;0.8067;0.7658;
659.4000;0.8059;0.7658;
659.7000;0.8067;0.7683;
660.0000;0.8059;0.7683;
660.3000;0.8034;0.7582;
660.6000;0.8067;0.7733;
660.9000;0.8042;0.7759;
661.2000;0.8034;0.7784;
661.5000;0.8034;0.7658;
661.8000;0.8042;0.7607;
662.1000;0.8034;0.7607;
662.4000;0.8018;0.7683;
662.7000;0.8010;0.7733;
663.0000;0.8002;0.7733;
663.3000;0.8010;0.7759;
663.6000;0.8010;0.7784;
663.9000;0.7977;0.7759;
664.2000;0.7977;0.7733;
664.5000;0.7977;0.7733;
664.8000;0.7961;0.7683;
665.1000;0.7953;0.7633;
665.4000;0.7945;0.7733;
665.7000;0.7928;0.7683;
666.0000;0.7953;0.7784;
666.3000;0.7928;0.7809;
666.6000;0.7920;0.7708;
666.9000;0.7928;0.7708;
667.2000;0.7928;0.7708;
667.5000;0.7896;0.7759;
667.8000;0.7896;0.7784;
668.1000;0.7904;0.7809;
668.4000;0.7904;0.7733;
668.7000;0.7888;0.7708;
669.0000;0.7880;0.7708;
669.3000;0.7863;0.7733;
669.6000;0.7888;0.7759;
669.9000;0.7871;0.7658;
670.2000;0.7871;0.7683;
670.5000;0.7814;0.7557;
670.8000;0.7855;0.7633;
671.1000;0.7847;0.7633;
671.4000;0.7782;0.7557;
671.7000;0.7855;0.7759;
672.0000;0.7847;0.7809;
672.3000;0.7863;0.7884;
672.6000;0.7806;0.7759;
672.9000;0.7806;0.7809;
673.2000;0.7757;0.7683;
673.5000;0.7766;0.7708;
673.8000;0.7798;0.7834;
674.1000;0.7847;0.7935;
674.4000;0.7782;0.7733;
674.7000;0.7774;0.7708;
675.0000;0.7790;0.7733;
675.3000;0.7757;0.7607;
675.6000;0.7766;0.7582;
675.9000;0.7766;0.7658;
676.2000;0.7766;0.7658;
676.5000;0.7757;0.7733;
676.8000;0.7757;0.7784;
677.1000;0.7749;0.7784;
677.4000;0.7733;0.7834;
677.7000;0.7741;0.7910;
678.0000;0.7733;0.7910;
678.3000;0.7733;0.7935;
678.6000;0.7733;0.7985;
678.9000;0.7725;0.7935;
679.2000;0.7700;0.7884;
679.5000;0.7725;0.7910;
679.8000;0.7700;0.7859;
680.1000;0.7709;0.7910;
680.4000;0.7684;0.7884;
680.7000;0.7692;0.7910;
681.0000;0.7692;0.7935;
681.3000;0.7692;0.7985;
681.6000;0.7684;0.8010;
681.9000;0.7660;0.7910;
682.2000;0.7668;0.7960;
682.5000;0.7692;0.7960;
682.8000;0.7668;0.8010;
683.1000;0.7660;0.8061;
683.4000;0.7668;0.8162;
683.7000;0.7652;0.8086;
684.0000;0.7652;0.8010;
684.3000;0.7635;0.7985;
684.6000;0.7635;0.7935;
684.9000;0.7652;0.7960;
685.2000;0.7643;0.7935;
685.5000;0.7643;0.7884;
685.8000;0.7635;0.7859;
686.1000;0.7619;0.7859;
686.4000;0.7619;0.7809;
686.7000;0.7619;0.7784;
687.0000;0.7611;0.7759;
687.3000;0.7603;0.7683;
687.6000;0.7619;0.7708;
687.9000;0.7603;0.7759;
688.2000;0.7595;0.7733;
688.5000;0.7595;0.7784;
688.8000;0.7586;0.7859;
689.1000;0.7586;0.7859;
689.4000;0.7562;0.7784;
689.7000;0.7570;0.7759;
690.0000;0.7570;0.7658;
690.3000;0.7570;0.7683;
690.6000;0.7546;0.7633;
690.9000;0.7538;0.7633;
691.2000;0.7578;0.7633;
691.5000;0.7554;0.7557;
691.8000;0.7554;0.7607;
692.1000;0.7586;0.7759;
692.4000;0.7530;0.7683;
692.7000;0.7546;0.7683;
693.0000;0.7505;0.7507;
693.3000;0.7546;0.7582;
693.6000;0.7521;0.7607;
693.9000;0.7538;0.7607;
694.2000;0.7513;0.7582;
694.5000;0.7513;0.7507;
694.8000;0.7513;0.7582;
695.1000;0.7505;0.7532;
695.4000;0.7562;0.7759;
695.7000;0.7505;0.7607;
696.0000;0.7505;0.7633;
696.3000;0.7513;0.7633;
696.6000;0.7505;0.7683;
696.9000;0.7497;0.7708;
697.2000;0.7497;0.7658;
697.5000;0.7489;0.7708;
697.8000;0.7497;0.7708;
698.1000;0.7505;0.7708;
698.4000;0.7489;0.7683;
698.7000;0.7473;0.7633;
699.0000;0.7481;0.7708;
699.3000;0.7473;0.7708;
699.6000;0.7464;0.7683;
699.9000;0.7456;0.7658;
700.2000;0.7481;0.7683;
700.5000;0.7481;0.7658;
700.8000;0.7456;0.7683;
701.1000;0.7448;0.7633;
701.4000;0.7448;0.7708;
701.7000;0.7456;0.7733;
702.0000;0.7456;0.7708;
702.3000;0.7456;0.7733;
702.6000;0.7473;0.7759;
702.9000;0.7456;0.7784;
703.2000;0.7440;0.7834;
703.5000;0.7456;0.7834;
703.8000;0.7432;0.7759;
704.1000;0.7432;0.7784;
704.4000;0.7407;0.7708;
704.7000;0.7416;0.7733;
705.0000;0.7432;0.7809;
705.3000;0.7424;0.7784;
705.6000;0.7432;0.7759;
705.9000;0.7432;0.7809;
706.2000;0.7416;0.7759;
706.5000;0.7375;0.7708;
706.8000;0.7416;0.7784;
707.1000;0.7407;0.7834;
707.4000;0.7399;0.7859;
707.7000;0.7399;0.7733;
708.0000;0.7399;0.7658;
708.3000;0.7391;0.7633;
708.6000;0.7391;0.7683;
708.9000;0.7383;0.7708;
709.2000;0.7391;0.7733;
709.5000;0.7407;0.7809;
709.8000;0.7375;0.7708;
710.1000;0.7383;0.7733;
710.4000;0.7375;0.7859;
710.7000;0.7375;0.7834;
711.0000;0.7383;0.7784;
711.3000;0.7375;0.7759;
711.6000;0.7367;0.7834;
711.9000;0.7375;0.7935;
712.2000;0.7367;0.7910;
712.5000;0.7359;0.7834;
712.8000;0.7342;0.7759;
713.1000;0.7367;0.7910;
713.4000;0.7367;0.7859;
713.7000;0.7367;0.7834;
714.0000;0.7350;0.7809;
714.3000;0.7367;0.7884;
714.6000;0.7367;0.7859;
714.9000;0.7350;0.7834;
715.2000;0.7342;0.7859;
715.5000;0.7342;0.7834;
715.8000;0.7326;0.7884;
716.1000;0.7342;0.7809;
716.4000;0.7334;0.7809;
716.7000;0.7318;0.7784;
717.0000;0.7302;0.7733;
717.3000;0.7318;0.7759;
717.6000;0.7318;0.7733;
717.9000;0.7326;0.7759;
718.2000;0.7310;0.7658;
718.5000;0.7326;0.7683;
718.8000;0.7326;0.7683;
719.1000;0.7285;0.7607;
719.4000;0.7310;0.7633;
719.7000;0.7310;0.7708;
720.0000;0.7302;0.7658;
720.3000;0.7359;0.7809;
720.6000;0.7326;0.7809;
720.9000;0.7302;0.7708;
721.2000;0.7277;0.7633;
721.5000;0.7302;0.7658;
721.8000;0.7359;0.7859;
722.1000;0.7293;0.7784;
722.4000;0.7302;0.7784;
722.7000;0.7293;0.7759;
723.0000;0.7293;0.7708;
723.3000;0.7293;0.7834;
723.6000;0.7285;0.7884;
723.9000;0.7277;0.7784;
724.2000;0.7285;0.7759;
724.5000;0.7310;0.7834;
724.8000;0.7277;0.7683;
725.1000;0.7269;0.7683;
725.4000;0.7253;0.7658;
725.7000;0.7261;0.7658;
726.0000;0.7293;0.7683;
726.3000;0.7253;0.7683;
726.6000;0.7253;0.7658;
726.9000;0.7269;0.7708;
727.2000;0.7261;0.7733;
727.5000;0.7245;0.7708;
727.8000;0.7253;0.7759;
728.1000;0.7245;0.7708;
728.4000;0.7188;0.7431;
728.7000;0.7245;0.7582;
729.0000;0.7253;0.7607;
729.3000;0.7269;0.7582;
729.6000;0.7253;0.7683;
729.9000;0.7253;0.7708;
730.2000;0.7245;0.7759;
730.5000;0.7236;0.7708;
730.8000;0.7261;0.7708;
731.1000;0.7236;0.7633;
731.4000;0.7220;0.7532;
731.7000;0.7212;0.7532;
732.0000;0.7220;0.7582;
732.3000;0.7261;0.7683;
732.6000;0.7212;0.7658;
732.9000;0.7228;0.7683;
733.2000;0.7196;0.7607;
733.5000;0.7236;0.7683;
733.8000;0.7236;0.7733;
734.1000;0.7228;0.7708;
734.4000;0.7220;0.7683;
734.7000;0.7228;0.7607;
735.0000;0.7228;0.7557;
735.3000;0.7220;0.7557;
735.6000;0.7171;0.7481;
735.9000;0.7220;0.7658;
736.2000;0.7212;0.7708;
736.5000;0.7196;0.7683;
736.8000;0.7196;0.7708;
737.1000;0.7212;0.7809;
737.4000;0.7212;0.7910;
737.7000;0.7188;0.7884;
738.0000;0.7204;0.7960;
738.3000;0.7196;0.8036;
738.6000;0.7196;0.8010;
738.9000;0.7196;0.8010;
739.2000;0.7204;0.8036;
739.5000;0.7196;0.7960;
739.8000;0.7220;0.8010;
740.1000;0.7196;0.7910;
740.4000;0.7163;0.7809;
740.7000;0.7171;0.7859;
741.0000;0.7179;0.7884;
741.3000;0.7188;0.7884;
741.6000;0.7188;0.7834;
741.9000;0.7179;0.7834;
742.2000;0.7188;0.7834;
742.5000;0.7188;0.7834;
742.8000;0.7204;0.7784;
743.1000;0.7171;0.7859;
743.4000;0.7196;0.7960;
743.7000;0.7188;0.8036;
744.0000;0.7188;0.8036;
744.3000;0.7179;0.7935;
744.6000;0.7188;0.7910;
744.9000;0.7171;0.7834;
745.2000;0.7236;0.7960;
745.5000;0.7163;0.7733;
745.8000;0.7139;0.7784;
746.1000;0.7147;0.7784;
746.4000;0.7171;0.7884;
746.7000;0.7163;0.7784;
747.0000;0.7179;0.7884;
747.3000;0.7163;0.7935;
747.6000;0.7155;0.7910;
747.9000;0.7163;0.7834;
748.2000;0.7147;0.7884;
748.5000;0.7163;0.7884;
748.8000;0.7155;0.7935;
749.1000;0.7155;0.7910;
749.4000;0.7147;0.7809;
749.7000;0.7155;0.7859;
750.0000;0.7155;0.7834;
750.3000;0.7155;0.7884;
750.6000;0.7139;0.7809;
750.9000;0.7114;0.7708;
751.2000;0.7131;0.7759;
751.5000;0.7139;0.7834;
751.8000;0.7131;0.7809;
752.1000;0.7123;0.7784;
752.4000;0.7147;0.7809;
752.7000;0.7131;0.7834;
753.0000;0.7123;0.7809;
753.3000;0.7131;0.7834;
753.6000;0.7139;0.7834;
753.9000;0.7171;0.7884;
754.2000;0.7131;0.7759;
754.5000;0.7131;0.7733;
754.8000;0.7123;0.7658;
755.1000;0.7123;0.7708;
755.4000;0.7155;0.7784;
755.7000;0.7139;0.7759;
756.0000;0.7106;0.7683;
756.3000;0.7131;0.7733;
756.6000;0.7131;0.7708;
756.9000;0.7123;0.7733;
757.2000;0.7114;0.7809;
757.5000;0.7123;0.7759;
757.8000;0.7131;0.7759;
758.1000;0.7123;0.7784;
758.4000;0.7114;0.7784;
758.7000;0.7131;0.7759;
759.0000;0.7114;0.7733;
759.3000;0.7123;0.7582;
759.6000;0.7114;0.7532;
759.9000;0.7131;0.7582;
760.2000;0.7139;0.7733;
760.5000;0.7123;0.7683;
760.8000;0.7106;0.7708;
761.1000;0.7074;0.7708;
761.4000;0.7090;0.7708;
761.7000;0.7139;0.7809;
762.0000;0.7106;0.7733;
762.3000;0.7106;0.7759;
762.6000;0.7114;0.7884;
762.9000;0.7106;0.7884;
763.2000;0.7106;0.7884;
763.5000;0.7106;0.7784;
763.8000;0.7106;0.7759;
764.1000;0.7131;0.7784;
764.4000;0.7106;0.7784;
764.7000;0.7090;0.7733;
765.0000;0.7163;0.7834;
765.3000;0.7131;0.7733;
765.6000;0.7106;0.7683;
765.9000;0.7090;0.7658;
766.2000;0.7123;0.7733;
766.5000;0.7082;0.7658;
766.8000;0.7098;0.7633;
767.1000;0.7066;0.7658;
767.4000;0.7082;0.7708;
767.7000;0.7106;0.7733;
768.0000;0.7090;0.7759;
768.3000;0.7090;0.7910;
768.6000;0.7066;0.7884;
768.9000;0.7090;0.7935;
769.2000;0.7106;0.7859;
769.5000;0.7090;0.7809;
769.8000;0.7082;0.7859;
770.1000;0.7090;0.7859;
770.4000;0.7074;0.7784;
770.7000;0.7163;0.7985;
771.0000;0.7082;0.7859;
771.3000;0.7082;0.7784;
771.6000;0.7074;0.7759;
771.9000;0.7082;0.7834;
772.2000;0.7057;0.7759;
772.5000;0.7066;0.7784;
772.8000;0.7066;0.7759;
773.1000;0.7041;0.7683;
773.4000;0.7066;0.7658;
773.7000;0.7049;0.7633;
774.0000;0.7066;0.7683;
774.3000;0.7074;0.7784;
774.6000;0.7057;0.7784;
774.9000;0.7041;0.7759;
775.2000;0.7057;0.7834;
775.5000;0.7074;0.7784;
775.8000;0.7057;0.7733;
776.1000;0.7057;0.7633;
776.4000;0.7057;0.7658;
776.7000;0.7057;0.7708;
777.0000;0.7033;0.7683;
777.3000;0.7066;0.7733;
777.6000;0.7057;0.7633;
777.9000;0.7082;0.7759;
778.2000;0.7074;0.7759;
778.5000;0.7049;0.7683;
778.8000;0.7057;0.7733;
779.1000;0.7066;0.7683;
779.4000;0.7074;0.7658;
779.7000;0.7074;0.7683;
780.0000;0.7074;0.7759;
780.3000;0.7098;0.7859;
780.6000;0.7066;0.7884;
780.9000;0.7057;0.7910;
781.2000;0.7025;0.7809;
781.5000;0.7017;0.7834;
781.8000;0.7082;0.8036;
782.1000;0.7041;0.7985;
782.4000;0.7049;0.7960;
782.7000;0.7049;0.7884;
783.0000;0.7049;0.7884;
783.3000;0.7033;0.7809;
783.6000;0.7057;0.7859;
783.9000;0.7057;0.7859;
784.2000;0.7049;0.7859;
784.5000;0.7049;0.7910;
784.8000;0.7025;0.7809;
785.1000;0.7033;0.7784;
785.4000;0.7033;0.7809;
785.7000;0.7041;0.7784;
786.0000;0.7017;0.7708;
786.3000;0.7025;0.7733;
786.6000;0.7106;0.7935;
786.9000;0.7025;0.7708;
787.2000;0.7009;0.7633;
787.5000;0.7033;0.7633;
787.8000;0.7033;0.7582;
788.1000;0.7009;0.7582;
788.4000;0.7041;0.7683;
788.7000;0.7025;0.7708;
789.0000;0.7090;0.7859;
789.3000;0.7017;0.7708;
789.6000;0.7033;0.7784;
789.9000;0.7049;0.7733;
790.2000;0.6992;0.7532;
790.5000;0.7009;0.7708;
790.8000;0.7033;0.7733;
791.1000;0.7017;0.7809;
791.4000;0.7025;0.7809;
791.7000;0.7025;0.7784;
792.0000;0.7025;0.7733;
792.3000;0.7025;0.7759;
792.6000;0.7017;0.7759;
792.9000;0.7009;0.7809;
793.2000;0.7000;0.7809;
793.5000;0.7017;0.7859;
793.8000;0.7066;0.8061;
794.1000;0.7017;0.7910;
794.4000;0.7025;0.7859;
794.7000;0.7025;0.7884;
795.0000;0.7009;0.7884;
795.3000;0.7017;0.7910;
795.6000;0.7009;0.7985;
795.9000;0.6960;0.7935;
796.2000;0.7025;0.8162;
796.5000;0.6992;0.8111;
796.8000;0.6976;0.8036;
797.1000;0.7017;0.8162;
797.4000;0.6992;0.8187;
797.7000;0.7033;0.8237;
798.0000;0.6984;0.8061;
798.3000;0.7000;0.8086;
798.6000;0.7000;0.8036;
798.9000;0.7000;0.8061;
799.2000;0.6984;0.8010;
799.5000;0.6992;0.8187;
799.8000;0.6992;0.8162;
800.1000;0.7000;0.8187;
800.4000;0.7000;0.8212;
800.7000;0.6984;0.8111;
801.0000;0.7000;0.8136;
801.3000;0.6992;0.8111;
801.6000;0.6984;0.8086;
801.9000;0.6984;0.8061;
802.2000;0.7000;0.8010;
802.5000;0.7000;0.7985;
802.8000;0.6984;0.7935;
803.1000;0.6984;0.7910;
803.4000;0.6952;0.7759;
803.7000;0.7017;0.7960;
804.0000;0.7000;0.7859;
804.3000;0.6992;0.7784;
804.6000;0.7000;0.7784;
804.9000;0.7009;0.7834;
805.2000;0.7000;0.7834;
805.5000;0.6984;0.7809;
805.8000;0.6984;0.7834;
806.1000;0.7041;0.7910;
806.4000;0.6984;0.7759;
806.7000;0.6952;0.7683;
807.0000;0.6960;0.7733;
807.3000;0.6992;0.7910;
807.6000;0.7049;0.7935;
807.9000;0.6992;0.7784;
808.2000;0.7000;0.7733;
808.5000;0.6992;0.7759;
808.8000;0.6968;0.7683;
809.1000;0.6984;0.7809;
809.4000;0.6992;0.7809;
809.7000;0.6976;0.7884;
810.0000;0.6976;0.7834;
810.3000;0.6976;0.7935;
810.6000;0.7025;0.8036;
810.9000;0.6984;0.7985;
811.2000;0.7025;0.8111;
811.5000;0.7009;0.8136;
811.8000;0.6984;0.8036;
812.1000;0.6960;0.7935;
812.4000;0.6976;0.7935;
812.7000;0.7000;0.8061;
813.0000;0.6984;0.8036;
813.3000;0.6984;0.8036;
813.6000;0.6984;0.7960;
813.9000;0.6976;0.7960;
814.2000;0.6984;0.7935;
814.5000;0.6984;0.7960;
814.8000;0.6984;0.7935;
815.1000;0.6976;0.7834;
815.4000;0.7009;0.7960;
815.7000;0.6984;0.7884;
816.0000;0.6976;0.7834;
816.3000;0.6992;0.7859;
816.6000;0.6960;0.7809;
816.9000;0.6984;0.7985;
817.2000;0.6968;0.7809;
817.5000;0.6984;0.7935;
817.8000;0.7000;0.8036;
818.1000;0.6968;0.7910;
818.4000;0.6960;0.7910;
818.7000;0.6960;0.7809;
819.0000;0.6984;0.7884;
819.3000;0.6960;0.7910;
819.6000;0.6968;0.7910;
819.9000;0.6976;0.7985;
820.2000;0.6976;0.7985;
820.5000;0.6919;0.7784;
820.8000;0.6943;0.7859;
821.1000;0.6952;0.7784;
821.4000;0.6968;0.7859;
821.7000;0.6960;0.7809;
822.0000;0.6952;0.7733;
822.3000;0.6960;0.7708;
822.6000;0.6952;0.7683;
822.9000;0.6903;0.7557;
823.2000;0.6968;0.7784;
823.5000;0.6952;0.7784;
823.8000;0.6903;0.7582;
824.1000;0.6960;0.7733;
824.4000;0.6943;0.7708;
824.7000;0.6960;0.7733;
825.0000;0.6943;0.7759;
825.3000;0.6943;0.7834;
825.6000;0.6943;0.7859;
825.9000;0.6952;0.7784;
826.2000;0.6968;0.7759;
826.5000;0.6960;0.7633;
826.8000;0.6952;0.7658;
827.1000;0.6952;0.7557;
827.4000;0.6952;0.7532;
827.7000;0.6919;0.7481;
828.0000;0.6976;0.7557;
828.3000;0.6919;0.7431;
828.6000;0.6943;0.7481;
828.9000;0.6952;0.7532;
829.2000;0.6960;0.7532;
829.5000;0.6935;0.7481;
829.8000;0.6943;0.7557;
830.1000;0.6935;0.7582;
830.4000;0.6952;0.7733;
830.7000;0.6952;0.7834;
831.0000;0.6935;0.7960;
831.3000;0.6919;0.7910;
831.6000;0.6927;0.8010;
831.9000;0.6935;0.8010;
832.2000;0.6927;0.8010;
832.5000;0.6935;0.7960;
832.8000;0.6935;0.7935;
833.1000;0.6919;0.7910;
833.4000;0.6935;0.7910;
833.7000;0.6935;0.7859;
834.0000;0.6935;0.7809;
834.3000;0.6943;0.7834;
834.6000;0.6976;0.7985;
834.9000;0.6919;0.7910;
835.2000;0.6968;0.8010;
835.5000;0.6943;0.7809;
835.8000;0.6952;0.7809;
836.1000;0.6927;0.7683;
836.4000;0.6935;0.7607;
836.7000;0.6935;0.7658;
837.0000;0.6935;0.7633;
837.3000;0.6992;0.7708;
837.6000;0.6935;0.7633;
837.9000;0.6935;0.7708;
838.2000;0.6943;0.7733;
838.5000;0.6968;0.7784;
838.8000;0.6943;0.7633;
839.1000;0.6952;0.7708;
839.4000;0.6943;0.7708;
839.7000;0.6935;0.7733;
840.0000;0.6919;0.7658;
840.3000;0.6952;0.7708;
840.6000;0.6952;0.7834;
840.9000;0.6935;0.7834;
841.2000;0.6927;0.7859;
841.5000;0.6927;0.7834;
841.8000;0.6935;0.7809;
842.1000;0.6952;0.7859;
842.4000;0.6919;0.7834;
842.7000;0.6935;0.7834;
843.0000;0.6927;0.7809;
843.3000;0.6943;0.7809;
843.6000;0.6927;0.7784;
843.9000;0.6960;0.7859;
844.2000;0.6935;0.7884;
844.5000;0.6927;0.7935;
844.8000;0.6927;0.7834;
845.1000;0.6927;0.7784;
845.4000;0.6919;0.7784;
845.7000;0.6919;0.7759;
846.0000;0.6927;0.7759;
846.3000;0.6919;0.7784;
846.6000;0.6943;0.7884;
846.9000;0.6968;0.7910;
847.2000;0.6943;0.7784;
847.5000;0.6927;0.7834;
847.8000;0.6886;0.7759;
848.1000;0.6935;0.7784;
848.4000;0.6952;0.7759;
848.7000;0.6895;0.7582;
849.0000;0.6911;0.7607;
849.3000;0.6919;0.7582;
849.6000;0.6943;0.7633;
849.9000;0.6927;0.7607;
850.2000;0.6919;0.7633;
850.5000;0.6927;0.7633;
850.8000;0.6943;0.7733;
851.1000;0.6919;0.7759;
851.4000;0.6927;0.7784;
851.7000;0.6829;0.7582;
852.0000;0.6919;0.7708;
852.3000;0.6846;0.7532;
852.6000;0.6903;0.7683;
852.9000;0.6903;0.7784;
853.2000;0.6895;0.7759;
853.5000;0.6919;0.7884;
853.8000;0.6878;0.7784;
854.1000;0.6911;0.7834;
854.4000;0.6935;0.7910;
854.7000;0.6878;0.7784;
855.0000;0.6919;0.7935;
855.3000;0.6911;0.7859;
855.6000;0.6911;0.7784;
855.9000;0.6919;0.7834;
856.2000;0.6919;0.7809;
856.5000;0.6919;0.7784;
856.8000;0.6919;0.7733;
857.1000;0.6919;0.7784;
857.4000;0.6903;0.7733;
857.7000;0.6935;0.7784;
858.0000;0.6911;0.7658;
858.3000;0.6903;0.7658;
858.6000;0.6903;0.7683;
858.9000;0.6903;0.7607;
859.2000;0.6903;0.7582;
859.5000;0.6838;0.7481;
859.8000;0.6903;0.7683;
860.1000;0.6903;0.7683;
860.4000;0.6919;0.7658;
860.7000;0.6854;0.7507;
861.0000;0.6919;0.7708;
861.3000;0.6968;0.7809;
861.6000;0.6903;0.7708;
861.9000;0.6927;0.7733;
862.2000;0.6886;0.7733;
862.5000;0.6895;0.7658;
862.8000;0.6903;0.7582;
863.1000;0.6911;0.7607;
863.4000;0.6911;0.7607;
863.7000;0.6919;0.7658;
864.0000;0.6911;0.7607;
864.3000;0.6911;0.7582;
864.6000;0.6919;0.7582;
864.9000;0.6919;0.7607;
865.2000;0.6895;0.7557;
865.5000;0.6886;0.7456;
865.8000;0.6903;0.7532;
866.1000;0.6886;0.7481;
866.4000;0.6895;0.7532;
866.7000;0.6895;0.7557;
867.0000;0.6903;0.7607;
867.3000;0.6886;0.7532;
867.6000;0.6895;0.7607;
867.9000;0.6870;0.7507;
868.2000;0.6878;0.7532;
868.5000;0.6854;0.7481;
868.8000;0.6878;0.7607;
869.1000;0.6870;0.7633;
869.4000;0.6895;0.7759;
869.7000;0.6895;0.7708;
870.0000;0.6895;0.7683;
870.3000;0.6903;0.7683;
870.6000;0.6943;0.7784;
870.9000;0.6895;0.7708;
871.2000;0.6919;0.7910;
871.5000;0.6895;0.7859;
871.8000;0.6911;0.7859;
872.1000;0.6903;0.7884;
872.4000;0.6886;0.7884;
872.7000;0.6886;0.7910;
873.0000;0.6903;0.7884;
873.3000;0.6895;0.7784;
873.6000;0.6854;0.7733;
873.9000;0.6886;0.7834;
874.2000;0.6911;0.7834;
874.5000;0.6886;0.7733;
874.8000;0.6895;0.7733;
875.1000;0.6895;0.7784;
875.4000;0.6895;0.7733;
875.7000;0.6895;0.7759;
876.0000;0.6903;0.7784;
876.3000;0.6903;0.7733;
876.6000;0.6878;0.7683;
876.9000;0.6878;0.7708;
877.2000;0.6903;0.7859;
877.5000;0.6895;0.7859;
877.8000;0.6878;0.7859;
878.1000;0.6886;0.7834;
878.4000;0.6829;0.7658;
878.7000;0.6895;0.7834;
879.0000;0.6927;0.7960;
879.3000;0.6903;0.7884;
879.6000;0.6903;0.7910;
879.9000;0.6846;0.7759;
880.2000;0.6821;0.7733;
880.5000;0.6895;0.7935;
880.8000;0.6878;0.7960;
881.1000;0.6927;0.8010;
881.4000;0.6886;0.7884;
881.7000;0.6895;0.7935;
882.0000;0.6870;0.7910;
882.3000;0.6886;0.7884;
882.6000;0.6878;0.7809;
882.9000;0.6878;0.7784;
883.2000;0.6862;0.7708;
883.5000;0.6927;0.7759;
883.8000;0.6870;0.7582;
884.1000;0.6862;0.7557;
884.4000;0.6895;0.7683;
884.7000;0.6878;0.7658;
885.0000;0.6886;0.7683;
885.3000;0.6895;0.7658;
885.6000;0.6878;0.7683;
885.9000;0.6886;0.7733;
886.2000;0.6846;0.7683;
886.5000;0.6838;0.7759;
886.8000;0.6911;0.7985;
887.1000;0.6886;0.7935;
887.4000;0.6878;0.7935;
887.7000;0.6895;0.7935;
888.0000;0.6870;0.7884;
888.3000;0.6862;0.7859;
888.6000;0.6862;0.7859;
888.9000;0.6854;0.7859;
889.2000;0.6846;0.7759;
889.5000;0.6862;0.7683;
889.8000;0.6862;0.7582;
890.1000;0.6870;0.7607;
890.4000;0.6870;0.7633;
890.7000;0.6870;0.7834;
891.0000;0.6870;0.7884;
891.3000;0.6854;0.7834;
891.6000;0.6870;0.7910;
891.9000;0.6838;0.7910;
892.2000;0.6870;0.7884;
892.5000;0.6821;0.7759;
892.8000;0.6870;0.7910;
893.1000;0.6870;0.7884;
893.4000;0.6862;0.7884;
893.7000;0.6862;0.7859;
894.0000;0.6886;0.7935;
894.3000;0.6862;0.7884;
894.6000;0.6862;0.7910;
894.9000;0.6862;0.7985;
895.2000;0.6862;0.8036;
895.5000;0.6878;0.8036;
895.8000;0.6862;0.7960;
896.1000;0.6870;0.7910;
896.4000;0.6878;0.7910;
896.7000;0.6878;0.7985;
897.0000;0.6895;0.8061;
897.3000;0.6870;0.8010;
897.6000;0.6870;0.7985;
897.9000;0.6870;0.7859;
898.2000;0.6903;0.7960;
898.5000;0.6862;0.7859;
898.8000;0.6870;0.7935;
899.1000;0.6862;0.7960;
899.4000;0.6878;0.7910;
899.7000;0.6870;0.7834;
900.0000;0.6854;0.7683;
900.3000;0.6854;0.7658;
900.6000;0.6846;0.7658;
900.9000;0.6870;0.7759;
901.2000;0.6911;0.7884;
901.5000;0.6854;0.7784;
901.8000;0.6862;0.7809;
902.1000;0.6870;0.7809;
902.4000;0.6870;0.7809;
902.7000;0.6862;0.7784;
903.0000;0.6854;0.7859;
903.3000;0.6846;0.7910;
903.6000;0.6854;0.7935;
903.9000;0.6854;0.7910;
904.2000;0.6870;0.7884;
904.5000;0.6854;0.7809;
904.8000;0.6862;0.7809;
905.1000;0.6870;0.7784;
905.4000;0.6927;0.7985;
905.7000;0.6854;0.7784;
906.0000;0.6870;0.7910;
906.3000;0.6862;0.7935;
906.6000;0.6846;0.7884;
906.9000;0.6862;0.7809;
907.2000;0.6829;0.7683;
907.5000;0.6862;0.7809;
907.8000;0.6862;0.7834;
908.1000;0.6862;0.7884;
908.4000;0.6927;0.8036;
908.7000;0.6886;0.7884;
909.0000;0.6862;0.7834;
909.3000;0.6838;0.7759;
909.6000;0.6870;0.7834;
909.9000;0.6886;0.7834;
910.2000;0.6854;0.7708;
910.5000;0.6870;0.7733;
910.8000;0.6854;0.7658;
911.1000;0.6854;0.7658;
911.4000;0.6838;0.7658;
911.7000;0.6854;0.7733;
912.0000;0.6854;0.7733;
912.3000;0.6862;0.7809;
912.6000;0.6838;0.7733;
912.9000;0.6846;0.7733;
913.2000;0.6862;0.7809;
913.5000;0.6862;0.7859;
913.8000;0.6854;0.7859;
914.1000;0.6862;0.7910;
914.4000;0.6846;0.8010;
914.7000;0.6870;0.8061;
915.0000;0.6862;0.7985;
915.3000;0.6838;0.7935;
915.6000;0.6781;0.7683;
915.9000;0.6764;0.7658;
916.2000;0.6846;0.7834;
916.5000;0.6838;0.7733;
916.8000;0.6854;0.7809;
917.1000;0.6846;0.7759;
917.4000;0.6838;0.7834;
917.7000;0.6838;0.7834;
918.0000;0.6821;0.7834;
918.3000;0.6838;0.7884;
918.6000;0.6862;0.7884;
918.9000;0.6846;0.7859;
919.2000;0.6829;0.7809;
919.5000;0.6838;0.7910;
919.8000;0.6838;0.7935;
920.1000;0.6838;0.7935;
920.4000;0.6846;0.7935;
920.7000;0.6846;0.7910;
921.0000;0.6854;0.7884;
921.3000;0.6927;0.8111;
921.6000;0.6846;0.7935;
921.9000;0.6846;0.7985;
922.2000;0.6846;0.8010;
922.5000;0.6854;0.8036;
922.8000;0.6838;0.7884;
923.1000;0.6854;0.7884;
923.4000;0.6838;0.7910;
923.7000;0.6821;0.7809;
924.0000;0.6846;0.7910;
924.3000;0.6838;0.7910;
924.6000;0.6813;0.7759;
924.9000;0.6854;0.7784;
925.2000;0.6878;0.7985;
925.5000;0.6829;0.7859;
925.8000;0.6821;0.7884;
926.1000;0.6829;0.7809;
926.4000;0.6789;0.7683;
926.7000;0.6821;0.7759;
927.0000;0.6813;0.7708;
927.3000;0.6838;0.7859;
927.6000;0.6838;0.7884;
927.9000;0.6854;0.7859;
928.2000;0.6829;0.7834;
928.5000;0.6813;0.7759;
928.8000;0.6838;0.7809;
929.1000;0.6854;0.7935;
929.4000;0.6846;0.7935;
929.7000;0.6838;0.7834;
930.0000;0.6862;0.7859;
930.3000;0.6862;0.7910;
930.6000;0.6838;0.7809;
930.9000;0.6838;0.7784;
931.2000;0.6829;0.7809;
931.5000;0.6870;0.7834;
931.8000;0.6838;0.7759;
932.1000;0.6838;0.7784;
932.4000;0.6838;0.7759;
932.7000;0.6846;0.7884;
933.0000;0.6854;0.7960;
933.3000;0.6838;0.7910;
933.6000;0.6854;0.7960;
933.9000;0.6838;0.7960;
934.2000;0.6846;0.7884;
934.5000;0.6838;0.7884;
934.8000;0.6846;0.7960;
935.1000;0.6846;0.8061;
935.4000;0.6846;0.8010;
935.7000;0.6886;0.8136;
936.0000;0.6805;0.7884;
936.3000;0.6862;0.8010;
936.6000;0.6854;0.7960;
936.9000;0.6797;0.7859;
937.2000;0.6829;0.7985;
937.5000;0.6854;0.8086;
937.8000;0.6829;0.8086;
938.1000;0.6821;0.8036;
938.4000;0.6838;0.7985;
938.7000;0.6838;0.7960;
939.0000;0.6846;0.7985;
939.3000;0.6838;0.8010;
939.6000;0.6838;0.7960;
939.9000;0.6821;0.7935;
940.2000;0.6854;0.7985;
940.5000;0.6829;0.7935;
940.8000;0.6821;0.7884;
941.1000;0.6878;0.7910;
941.4000;0.6862;0.7884;
941.7000;0.6854;0.7809;
942.0000;0.6829;0.7708;
942.3000;0.6813;0.7708;
942.6000;0.6821;0.7733;
942.9000;0.6821;0.7759;
943.2000;0.6829;0.7809;
943.5000;0.6821;0.7859;
943.8000;0.6838;0.7935;
944.1000;0.6829;0.7910;
944.4000;0.6846;0.7985;
944.7000;0.6829;0.8010;
945.0000;0.6829;0.8010;
945.3000;0.6838;0.7985;
945.6000;0.6829;0.7935;
945.9000;0.6821;0.7910;
946.2000;0.6838;0.7985;
946.5000;0.6838;0.7960;
946.8000;0.6829;0.7935;
947.1000;0.6829;0.7910;
947.4000;0.6829;0.7935;
947.7000;0.6829;0.7910;
948.0000;0.6838;0.7935;
948.3000;0.6821;0.7910;
948.6000;0.6829;0.7884;
948.9000;0.6829;0.7834;
949.2000;0.6846;0.7759;
949.5000;0.6829;0.7708;
949.8000;0.6838;0.7809;
950.1000;0.6838;0.7859;
950.4000;0.6829;0.7834;
950.7000;0.6813;0.7834;
951.0000;0.6821;0.7935;
951.3000;0.6838;0.7859;
951.6000;0.6838;0.7910;
951.9000;0.6805;0.7935;
952.2000;0.6813;0.7884;
952.5000;0.6829;0.7960;
952.8000;0.6813;0.8036;
953.1000;0.6829;0.7960;
953.4000;0.6854;0.7935;
953.7000;0.6813;0.7884;
954.0000;0.6838;0.7960;
954.3000;0.6838;0.7985;
954.6000;0.6829;0.7910;
954.9000;0.6838;0.7985;
955.2000;0.6829;0.7960;
955.5000;0.6797;0.7884;
955.8000;0.6813;0.7960;
956.1000;0.6813;0.8036;
956.4000;0.6821;0.8061;
956.7000;0.6821;0.8111;
957.0000;0.6821;0.8086;
957.3000;0.6821;0.7985;
957.6000;0.6829;0.7960;
957.9000;0.6821;0.7960;
958.2000;0.6829;0.7910;
958.5000;0.6821;0.7884;
958.8000;0.6829;0.7910;
959.1000;0.6797;0.7784;
959.4000;0.6821;0.7859;
959.7000;0.6805;0.7759;
960.0000;0.6813;0.7935;
960.3000;0.6813;0.7884;
960.6000;0.6821;0.7910;
960.9000;0.6854;0.8086;
961.2000;0.6813;0.7960;
961.5000;0.6813;0.7884;
961.8000;0.6813;0.7960;
962.1000;0.6838;0.8061;
962.4000;0.6813;0.8036;
962.7000;0.6781;0.7960;
963.0000;0.6829;0.8086;
963.3000;0.6829;0.8111;
963.6000;0.6829;0.8086;
963.9000;0.6805;0.8010;
964.2000;0.6821;0.7985;
964.5000;0.6846;0.7910;
964.8000;0.6821;0.7834;
965.1000;0.6829;0.7759;
965.4000;0.6829;0.7759;
965.7000;0.6838;0.7884;
966.0000;0.6821;0.7859;
966.3000;0.6805;0.7759;
966.6000;0.6829;0.7809;
966.9000;0.6821;0.7784;
967.2000;0.6821;0.7784;
967.5000;0.6829;0.7683;
967.8000;0.6805;0.7633;
968.1000;0.6838;0.7708;
968.4000;0.6781;0.7633;
968.7000;0.6797;0.7733;
969.0000;0.6829;0.7859;
969.3000;0.6813;0.7784;
969.6000;0.6756;0.7683;
969.9000;0.6821;0.7859;
970.2000;0.6838;0.7884;
970.5000;0.6805;0.7884;
970.8000;0.6797;0.7884;
971.1000;0.6813;0.7834;
971.4000;0.6789;0.7784;
971.7000;0.6838;0.7884;
972.0000;0.6829;0.7859;
972.3000;0.6789;0.7784;
972.6000;0.6805;0.7809;
972.9000;0.6748;0.7607;
973.2000;0.6813;0.7708;
973.5000;0.6805;0.7733;
973.8000;0.6813;0.7733;
974.1000;0.6781;0.7759;
974.4000;0.6797;0.7784;
974.7000;0.6805;0.7809;
975.0000;0.6821;0.7759;
975.3000;0.6789;0.7633;
975.6000;0.6821;0.7683;
975.9000;0.6805;0.7683;
976.2000;0.6821;0.7733;
976.5000;0.6781;0.7607;
976.8000;0.6813;0.7708;
977.1000;0.6781;0.7633;
977.4000;0.6838;0.7708;
977.7000;0.6862;0.7733;
978.0000;0.6797;0.7658;
978.3000;0.6846;0.7784;
978.6000;0.6838;0.7759;
978.9000;0.6805;0.7683;
979.2000;0.6805;0.7633;
979.5000;0.6838;0.7784;
979.8000;0.6805;0.7759;
980.1000;0.6838;0.7809;
980.4000;0.6821;0.7759;
980.7000;0.6781;0.7683;
981.0000;0.6813;0.7834;
981.3000;0.6813;0.7834;
981.6000;0.6821;0.7784;
981.9000;0.6805;0.7809;
982.2000;0.6797;0.7733;
982.5000;0.6813;0.7708;
982.8000;0.6797;0.7708;
983.1000;0.6805;0.7759;
983.4000;0.6821;0.7759;
983.7000;0.6838;0.7884;
984.0000;0.6829;0.7935;
984.3000;0.6821;0.7960;
984.6000;0.6821;0.7985;
984.9000;0.6821;0.7935;
985.2000;0.6805;0.7935;
985.5000;0.6805;0.7985;
985.8000;0.6797;0.8086;
986.1000;0.6846;0.8136;
986.4000;0.6805;0.8036;
986.7000;0.6813;0.8061;
987.0000;0.6813;0.8086;
987.3000;0.6789;0.8036;
987.6000;0.6805;0.8061;
987.9000;0.6813;0.7960;
988.2000;0.6797;0.7960;
988.5000;0.6797;0.8010;
988.8000;0.6797;0.8061;
989.1000;0.6813;0.8036;
989.4000;0.6797;0.7960;
989.7000;0.6813;0.7935;
990.0000;0.6829;0.7910;
990.3000;0.6805;0.8010;
990.6000;0.6789;0.7960;
990.9000;0.6756;0.7935;
991.2000;0.6805;0.8086;
991.5000;0.6821;0.7985;
991.8000;0.6797;0.7910;
992.1000;0.6797;0.7809;
992.4000;0.6797;0.7834;
992.7000;0.6821;0.7910;
993.0000;0.6797;0.7784;
993.3000;0.6805;0.7784;
993.6000;0.6797;0.7708;
993.9000;0.6805;0.7708;
994.2000;0.6805;0.7733;
994.5000;0.6789;0.7683;
994.8000;0.6805;0.7759;
995.1000;0.6764;0.7683;
995.4000;0.6797;0.7784;
995.7000;0.6805;0.7784;
996.0000;0.6781;0.7759;
996.3000;0.6797;0.7809;
996.6000;0.6789;0.7834;
996.9000;0.6772;0.7607;
997.2000;0.6772;0.7507;
997.5000;0.6789;0.7481;
997.8000;0.6789;0.7532;
998.1000;0.6789;0.7607;
998.4000;0.6789;0.7708;
998.7000;0.6797;0.7733;
999.0000;0.6797;0.7683;
999.3000;0.6862;0.7884;
999.6000;0.6789;0.7784;
999.9000;0.6797;0.7733;
1000.2000;0.6789;0.7733;
1000.5000;0.6797;0.7733;
1000.8000;0.6805;0.7733;
1001.1000;0.6764;0.7683;
1001.4000;0.6789;0.7733;
1001.7000;0.6748;0.7633;
1002.0000;0.6789;0.7733;
1002.3000;0.6789;0.7708;
1002.6000;0.6789;0.7708;
1002.9000;0.6789;0.7708;
1003.2000;0.6789;0.7759;
1003.5000;0.6797;0.7759;
1003.8000;0.6789;0.7859;
1004.1000;0.6789;0.7910;
1004.4000;0.6805;0.7960;
1004.7000;0.6805;0.7960;
1005.0000;0.6789;0.7985;
1005.3000;0.6789;0.7910;
1005.6000;0.6789;0.7884;
1005.9000;0.6781;0.7759;
1006.2000;0.6781;0.7683;
1006.5000;0.6789;0.7633;
1006.8000;0.6797;0.7607;
1007.1000;0.6772;0.7607;
1007.4000;0.6789;0.7607;
1007.7000;0.6781;0.7633;
1008.0000;0.6789;0.7708;
1008.3000;0.6789;0.7784;
1008.6000;0.6789;0.7809;
1008.9000;0.6781;0.7809;
1009.2000;0.6813;0.7809;
1009.5000;0.6797;0.7759;
1009.8000;0.6781;0.7784;
1010.1000;0.6797;0.7759;
1010.4000;0.6789;0.7683;
1010.7000;0.6789;0.7633;
1011.0000;0.6797;0.7658;
1011.3000;0.6772;0.7683;
1011.6000;0.6805;0.7784;
1011.9000;0.6781;0.7809;
1012.2000;0.6789;0.7884;
1012.5000;0.6764;0.7859;
1012.8000;0.6789;0.7859;
1013.1000;0.6797;0.7884;
1013.4000;0.6789;0.7809;
1013.7000;0.6797;0.7859;
1014.0000;0.6764;0.7884;
1014.3000;0.6797;0.7859;
1014.6000;0.6781;0.7784;
1014.9000;0.6789;0.7834;
1015.2000;0.6813;0.7960;
1015.5000;0.6789;0.7884;
1015.8000;0.6789;0.7859;
1016.1000;0.6789;0.7784;
1016.4000;0.6789;0.7834;
1016.7000;0.6781;0.7859;
1017.0000;0.6797;0.7910;
1017.3000;0.6772;0.7809;
1017.6000;0.6772;0.7859;
1017.9000;0.6789;0.7910;
1018.2000;0.6781;0.7884;
1018.5000;0.6789;0.7884;
1018.8000;0.6772;0.7884;
1019.1000;0.6797;0.7834;
1019.4000;0.6789;0.7759;
1019.7000;0.6797;0.7733;
1020.0000;0.6756;0.7683;
1020.3000;0.6797;0.7834;
1020.6000;0.6764;0.7759;
1020.9000;0.6781;0.7784;
1021.2000;0.6756;0.7759;
1021.5000;0.6781;0.7884;
1021.8000;0.6789;0.7884;
1022.1000;0.6789;0.7884;
1022.4000;0.6764;0.7809;
1022.7000;0.6781;0.7834;
1023.0000;0.6781;0.7884;
1023.3000;0.6764;0.7809;
1023.6000;0.6781;0.7834;
1023.9000;0.6764;0.7834;
1024.2000;0.6764;0.7859;
1024.5000;0.6789;0.7985;
1024.8000;0.6805;0.8010;
1025.1000;0.6781;0.7960;
1025.4000;0.6813;0.8036;
1025.7000;0.6789;0.7935;
1026.0000;0.6789;0.7910;
1026.3000;0.6781;0.7935;
1026.6000;0.6781;0.7960;
1026.9000;0.6838;0.8187;
1027.2000;0.6781;0.8086;
1027.5000;0.6781;0.8036;
1027.8000;0.6789;0.8061;
1028.1000;0.6789;0.7960;
1028.4000;0.6772;0.7809;
1028.7000;0.6781;0.7784;
1029.0000;0.6789;0.7759;
1029.3000;0.6772;0.7683;
1029.6000;0.6797;0.7859;
1029.9000;0.6781;0.7935;
1030.2000;0.6789;0.7960;
1030.5000;0.6797;0.8111;
1030.8000;0.6789;0.8136;
1031.1000;0.6821;0.8187;
1031.4000;0.6789;0.8162;
1031.7000;0.6797;0.8212;
1032.0000;0.6797;0.8162;
1032.3000;0.6781;0.8187;
1032.6000;0.6797;0.8162;
1032.9000;0.6805;0.8212;
1033.2000;0.6838;0.8187;
1033.5000;0.6764;0.8036;
1033.8000;0.6789;0.8010;
1034.1000;0.6781;0.8036;
1034.4000;0.6781;0.8061;
1034.7000;0.6772;0.8061;
1035.0000;0.6789;0.8061;
1035.3000;0.6789;0.8061;
1035.6000;0.6789;0.8086;
1035.9000;0.6797;0.8036;
1036.2000;0.6772;0.8010;
1036.5000;0.6789;0.8036;
1036.8000;0.6764;0.7935;
1037.1000;0.6789;0.7935;
1037.4000;0.6805;0.7960;
1037.7000;0.6781;0.7884;
1038.0000;0.6772;0.7910;
1038.3000;0.6732;0.7809;
1038.6000;0.6756;0.7834;
1038.9000;0.6781;0.7859;
1039.2000;0.6756;0.7859;
1039.5000;0.6772;0.7935;
1039.8000;0.6772;0.7935;
1040.1000;0.6789;0.7910;
1040.4000;0.6781;0.7910;
1040.7000;0.6797;0.8036;
1041.0000;0.6772;0.8010;
1041.3000;0.6772;0.8036;
1041.6000;0.6772;0.8036;
1041.9000;0.6764;0.8061;
1042.2000;0.6756;0.8061;
1042.5000;0.6748;0.8036;
1042.8000;0.6764;0.8136;
1043.1000;0.6756;0.8162;
1043.4000;0.6764;0.8212;
1043.7000;0.6707;0.8162;
1044.0000;0.6772;0.8313;
1044.3000;0.6756;0.8288;
1044.6000;0.6756;0.8136;
1044.9000;0.6789;0.8086;
1045.2000;0.6772;0.8086;
1045.5000;0.6764;0.8086;
1045.8000;0.6764;0.7935;
1046.1000;0.6781;0.7935;
1046.4000;0.6756;0.7910;
1046.7000;0.6854;0.8162;
1047.0000;0.6772;0.7960;
1047.3000;0.6772;0.8010;
1047.6000;0.6764;0.7935;
1047.9000;0.6789;0.7859;
1048.2000;0.6772;0.7784;
1048.5000;0.6707;0.7658;
1048.8000;0.6781;0.7935;
1049.1000;0.6764;0.7935;
1049.4000;0.6740;0.7834;
1049.7000;0.6781;0.7910;
1050.0000;0.6764;0.7910;
1050.3000;0.6789;0.7910;
1050.6000;0.6772;0.7809;
1050.9000;0.6764;0.7859;
1051.2000;0.6781;0.7884;
1051.5000;0.6789;0.7960;
1051.8000;0.6772;0.7960;
1052.1000;0.6772;0.8010;
1052.4000;0.6797;0.8086;
1052.7000;0.6772;0.8086;
1053.0000;0.6781;0.8086;
1053.3000;0.6764;0.8061;
1053.6000;0.6813;0.8136;
1053.9000;0.6781;0.8162;
1054.2000;0.6772;0.8086;
1054.5000;0.6764;0.8010;
1054.8000;0.6772;0.8010;
1055.1000;0.6805;0.8061;
1055.4000;0.6772;0.7960;
1055.7000;0.6772;0.7960;
1056.0000;0.6772;0.8010;
1056.3000;0.6772;0.8036;
1056.6000;0.6748;0.7935;
1056.9000;0.6854;0.8212;
1057.2000;0.6756;0.8010;
1057.5000;0.6781;0.8086;
1057.8000;0.6781;0.8061;
1058.1000;0.6748;0.7985;
1058.4000;0.6772;0.7935;
1058.7000;0.6756;0.7910;
1059.0000;0.6756;0.7910;
1059.3000;0.6764;0.7859;
1059.6000;0.6772;0.7859;
1059.9000;0.6764;0.7834;
1060.2000;0.6805;0.7910;
1060.5000;0.6772;0.7834;
1060.8000;0.6772;0.7859;
1061.1000;0.6781;0.7910;
1061.4000;0.6772;0.7985;
1061.7000;0.6781;0.8036;
1062.0000;0.6781;0.8086;
1062.3000;0.6764;0.8036;
1062.6000;0.6789;0.8086;
1062.9000;0.6772;0.8036;
1063.2000;0.6756;0.8010;
1063.5000;0.6764;0.7960;
1063.8000;0.6781;0.7960;
1064.1000;0.6748;0.7985;
1064.4000;0.6781;0.7985;
1064.7000;0.6781;0.8010;
1065.0000;0.6772;0.7960;
1065.3000;0.6772;0.7910;
1065.6000;0.6764;0.7884;
1065.9000;0.6748;0.7809;
1066.2000;0.6764;0.7960;
1066.5000;0.6772;0.8010;
1066.8000;0.6764;0.8010;
1067.1000;0.6756;0.7985;
1067.4000;0.6781;0.7960;
1067.7000;0.6781;0.7935;
1068.0000;0.6797;0.8010;
1068.3000;0.6748;0.7910;
1068.6000;0.6781;0.8010;
1068.9000;0.6764;0.7985;
1069.2000;0.6813;0.8061;
1069.5000;0.6781;0.8010;
1069.8000;0.6772;0.7935;
1070.1000;0.6772;0.7960;
1070.4000;0.6748;0.7910;
1070.7000;0.6756;0.7884;
1071.0000;0.6772;0.7935;
1071.3000;0.6748;0.7859;
1071.6000;0.6772;0.7985;
1071.9000;0.6756;0.8061;
1072.2000;0.6764;0.8086;
1072.5000;0.6748;0.8036;
1072.8000;0.6764;0.8086;
1073.1000;0.6781;0.8136;
1073.4000;0.6756;0.8061;
1073.7000;0.6756;0.8010;
1074.0000;0.6748;0.7985;
1074.3000;0.6756;0.7960;
1074.6000;0.6732;0.7985;
1074.9000;0.6740;0.7960;
1075.2000;0.6748;0.7960;
1075.5000;0.6748;0.7960;
1075.8000;0.6772;0.7985;
1076.1000;0.6740;0.7884;
1076.4000;0.6756;0.7985;
1076.7000;0.6764;0.8036;
1077.0000;0.6789;0.8136;
1077.3000;0.6756;0.8061;
1077.6000;0.6740;0.7985;
1077.9000;0.6764;0.8010;
1078.2000;0.6756;0.7960;
1078.5000;0.6756;0.7935;
1078.8000;0.6748;0.7884;
1079.1000;0.6756;0.7859;
1079.4000;0.6772;0.7859;
1079.7000;0.6756;0.7859;
1080.0000;0.6756;0.7859;
1080.3000;0.6748;0.7935;
1080.6000;0.6756;0.8010;
1080.9000;0.6764;0.7935;
1081.2000;0.6756;0.7834;
1081.5000;0.6764;0.7809;
1081.8000;0.6772;0.7859;
1082.1000;0.6764;0.7910;
1082.4000;0.6764;0.7935;
1082.7000;0.6756;0.7910;
1083.0000;0.6756;0.7935;
1083.3000;0.6756;0.7960;
1083.6000;0.6764;0.7985;
1083.9000;0.6748;0.7985;
1084.2000;0.6781;0.7960;
1084.5000;0.6772;0.7834;
1084.8000;0.6772;0.7784;
1085.1000;0.6764;0.7683;
1085.4000;0.6764;0.7708;
1085.7000;0.6716;0.7557;
1086.0000;0.6764;0.7708;
1086.3000;0.6772;0.7708;
1086.6000;0.6764;0.7708;
1086.9000;0.6764;0.7708;
1087.2000;0.6756;0.7658;
1087.5000;0.6764;0.7708;
1087.8000;0.6772;0.7759;
1088.1000;0.6764;0.7784;
1088.4000;0.6764;0.7784;
1088.7000;0.6781;0.7834;
1089.0000;0.6732;0.7759;
1089.3000;0.6756;0.7759;
1089.6000;0.6756;0.7708;
1089.9000;0.6748;0.7708;
1090.2000;0.6707;0.7607;
1090.5000;0.6756;0.7658;
1090.8000;0.6781;0.7784;
1091.1000;0.6732;0.7607;
1091.4000;0.6740;0.7733;
1091.7000;0.6748;0.7809;
1092.0000;0.6756;0.7809;
1092.3000;0.6716;0.7733;
1092.6000;0.6748;0.7784;
1092.9000;0.6748;0.7683;
1093.2000;0.6756;0.7708;
1093.5000;0.6756;0.7784;
1093.8000;0.6748;0.7834;
1094.1000;0.6748;0.7809;
1094.4000;0.6748;0.7834;
1094.7000;0.6764;0.7733;
1095.0000;0.6740;0.7683;
1095.3000;0.6748;0.7708;
1095.6000;0.6740;0.7683;
1095.9000;0.6756;0.7733;
1096.2000;0.6756;0.7759;
1096.5000;0.6748;0.7683;
1096.8000;0.6748;0.7658;
1097.1000;0.6756;0.7733;
1097.4000;0.6740;0.7759;
1097.7000;0.6740;0.7708;
1098.0000;0.6748;0.7708;
1098.3000;0.6740;0.7733;
1098.6000;0.6756;0.7784;
1098.9000;0.6748;0.7733;
1099.2000;0.6724;0.7683;
1099.5000;0.6748;0.7708;
1099.8000;0.6764;0.7759;
1100.1000;0.6764;0.7809;
1100.4000;0.6748;0.7708;
1100.7000;0.6740;0.7683;
1101.0000;0.6748;0.7708;
1101.3000;0.6748;0.7683;
1101.6000;0.6756;0.7784;
1101.9000;0.6748;0.7784;
1102.2000;0.6772;0.7884;
1102.5000;0.6756;0.7884;
1102.8000;0.6748;0.7935;
1103.1000;0.6764;0.7935;
1103.4000;0.6756;0.7884;
1103.7000;0.6756;0.7935;
1104.0000;0.6748;0.7884;
1104.3000;0.6740;0.7910;
1104.6000;0.6732;0.7884;
1104.9000;0.6764;0.7910;
1105.2000;0.6691;0.7759;
1105.5000;0.6756;0.7935;
1105.8000;0.6740;0.7884;
1106.1000;0.6740;0.7784;
1106.4000;0.6805;0.7884;
1106.7000;0.6748;0.7582;
1107.0000;0.6756;0.7633;
1107.3000;0.6764;0.7759;
1107.6000;0.6756;0.7759;
1107.9000;0.6756;0.7708;
1108.2000;0.6781;0.7658;
1108.5000;0.6797;0.7683;
1108.8000;0.6764;0.7683;
1109.1000;0.6764;0.7759;
1109.4000;0.6650;0.7456;
1109.7000;0.6764;0.7759;
1110.0000;0.6764;0.7733;
1110.3000;0.6748;0.7683;
1110.6000;0.6764;0.7809;
1110.9000;0.6740;0.7759;
1111.2000;0.6732;0.7834;
1111.5000;0.6748;0.7910;
1111.8000;0.6740;0.7910;
1112.1000;0.6764;0.7960;
1112.4000;0.6748;0.7985;
1112.7000;0.6764;0.8036;
1113.0000;0.6716;0.7859;
1113.3000;0.6740;0.7985;
1113.6000;0.6740;0.8036;
1113.9000;0.6764;0.8010;
1114.2000;0.6740;0.7859;
1114.5000;0.6748;0.7809;
1114.8000;0.6748;0.7784;
1115.1000;0.6813;0.7910;
1115.4000;0.6724;0.7733;
1115.7000;0.6748;0.7985;
1116.0000;0.6732;0.7884;
1116.3000;0.6707;0.7910;
1116.6000;0.6756;0.8036;
1116.9000;0.6756;0.8111;
1117.2000;0.6740;0.8036;
1117.5000;0.6756;0.8061;
1117.8000;0.6764;0.8036;
1118.1000;0.6748;0.8036;
1118.4000;0.6740;0.8111;
1118.7000;0.6748;0.8136;
1119.0000;0.6748;0.8036;
1119.3000;0.6748;0.7985;
1119.6000;0.6748;0.8010;
1119.9000;0.6748;0.8061;
1120.2000;0.6732;0.8010;
1120.5000;0.6716;0.7834;
1120.8000;0.6740;0.7834;
1121.1000;0.6732;0.7859;
1121.4000;0.6756;0.7859;
1121.7000;0.6748;0.7859;
1122.0000;0.6740;0.7834;
1122.3000;0.6732;0.7759;
1122.6000;0.6740;0.7834;
1122.9000;0.6748;0.7884;
1123.2000;0.6756;0.7884;
1123.5000;0.6732;0.7884;
1123.8000;0.6748;0.7935;
1124.1000;0.6756;0.7910;
1124.4000;0.6756;0.7859;
1124.7000;0.6740;0.7809;
1125.0000;0.6748;0.7809;
1125.3000;0.6748;0.7759;
1125.6000;0.6732;0.7733;
1125.9000;0.6732;0.7759;
1126.2000;0.6732;0.7834;
1126.5000;0.6724;0.7859;
1126.8000;0.6764;0.8036;
1127.1000;0.6756;0.7960;
1127.4000;0.6748;0.7910;
1127.7000;0.6740;0.7834;
1128.0000;0.6756;0.7910;
1128.3000;0.6789;0.7935;
1128.6000;0.6740;0.7759;
1128.9000;0.6748;0.7809;
1129.2000;0.6748;0.7809;
1129.5000;0.6740;0.7834;
1129.8000;0.6732;0.7834;
1130.1000;0.6732;0.7784;
1130.4000;0.6748;0.7859;
1130.7000;0.6732;0.7859;
1131.0000;0.6716;0.7884;
1131.3000;0.6691;0.7784;
1131.6000;0.6675;0.7759;
1131.9000;0.6740;0.7884;
1132.2000;0.6691;0.7733;
1132.5000;0.6724;0.7784;
1132.8000;0.6716;0.7859;
1133.1000;0.6732;0.7935;
1133.4000;0.6675;0.7784;
1133.7000;0.6748;0.7935;
1134.0000;0.6748;0.7960;
1134.3000;0.6781;0.8086;
1134.6000;0.6756;0.7935;
1134.9000;0.6748;0.7884;
1135.2000;0.6732;0.7859;
1135.5000;0.6740;0.7859;
1135.8000;0.6748;0.7910;
1136.1000;0.6764;0.7960;
1136.4000;0.6740;0.7834;
1136.7000;0.6764;0.7784;
1137.0000;0.6724;0.7683;
1137.3000;0.6716;0.7683;
1137.6000;0.6748;0.7633;
1137.9000;0.6748;0.7658;
1138.2000;0.6732;0.7759;
1138.5000;0.6724;0.7859;
1138.8000;0.6740;0.7935;
1139.1000;0.6805;0.8010;
1139.4000;0.6748;0.7935;
1139.7000;0.6748;0.7884;
1140.0000;0.6740;0.7859;
1140.3000;0.6756;0.7809;
1140.6000;0.6748;0.7759;
1140.9000;0.6732;0.7733;
1141.2000;0.6732;0.7683;
1141.5000;0.6748;0.7809;
1141.8000;0.6748;0.7859;
1142.1000;0.6748;0.7884;
1142.4000;0.6748;0.7884;
1142.7000;0.6732;0.7759;
1143.0000;0.6748;0.7809;
1143.3000;0.6748;0.7809;
1143.6000;0.6748;0.7809;
1143.9000;0.6748;0.7859;
1144.2000;0.6748;0.7859;
1144.5000;0.6764;0.7859;
1144.8000;0.6732;0.7809;
1145.1000;0.6748;0.7834;
1145.4000;0.6740;0.7859;
1145.7000;0.6748;0.7910;
1146.0000;0.6748;0.7884;
1146.3000;0.6732;0.7884;
1146.6000;0.6732;0.7910;
1146.9000;0.6683;0.7759;
1147.2000;0.6732;0.7884;
1147.5000;0.6716;0.7884;
1147.8000;0.6740;0.7910;
1148.1000;0.6699;0.7759;
1148.4000;0.6732;0.7809;
1148.7000;0.6813;0.8010;
1149.0000;0.6740;0.7834;
1149.3000;0.6716;0.7733;
1149.6000;0.6740;0.7784;
1149.9000;0.6740;0.7759;
1150.2000;0.6756;0.7784;
1150.5000;0.6740;0.7683;
1150.8000;0.6732;0.7759;
1151.1000;0.6772;0.7884;
1151.4000;0.6740;0.7809;
1151.7000;0.6732;0.7658;
1152.0000;0.6740;0.7708;
1152.3000;0.6740;0.7834;
1152.6000;0.6724;0.7759;
1152.9000;0.6724;0.7809;
1153.2000;0.6732;0.7759;
1153.5000;0.6756;0.7834;
1153.8000;0.6748;0.7859;
1154.1000;0.6732;0.7834;
1154.4000;0.6748;0.7859;
1154.7000;0.6732;0.7910;
1155.0000;0.6732;0.7935;
1155.3000;0.6683;0.7809;
1155.6000;0.6732;0.7910;
1155.9000;0.6724;0.7884;
1156.2000;0.6683;0.7834;
1156.5000;0.6805;0.8212;
1156.8000;0.6748;0.8061;
1157.1000;0.6732;0.8036;
1157.4000;0.6716;0.8010;
1157.7000;0.6732;0.7960;
1158.0000;0.6724;0.7985;
1158.3000;0.6732;0.7960;
1158.6000;0.6756;0.7910;
1158.9000;0.6748;0.7859;
1159.2000;0.6740;0.7784;
1159.5000;0.6732;0.7759;
1159.8000;0.6740;0.7834;
1160.1000;0.6740;0.7784;
1160.4000;0.6732;0.7834;
1160.7000;0.6740;0.7859;
1161.0000;0.6740;0.7884;
1161.3000;0.6724;0.7809;
1161.6000;0.6699;0.7759;
1161.9000;0.6707;0.7759;
1162.2000;0.6732;0.7834;
1162.5000;0.6724;0.7809;
1162.8000;0.6756;0.7935;
1163.1000;0.6724;0.7859;
1163.4000;0.6732;0.7910;
1163.7000;0.6740;0.7935;
1164.0000;0.6732;0.7935;
1164.3000;0.6732;0.7910;
1164.6000;0.6732;0.7910;
1164.9000;0.6707;0.7935;
1165.2000;0.6748;0.8036;
1165.5000;0.6740;0.7985;
1165.8000;0.6724;0.7935;
1166.1000;0.6732;0.7985;
1166.4000;0.6748;0.8111;
1166.7000;0.6732;0.8086;
1167.0000;0.6716;0.8061;
1167.3000;0.6732;0.8010;
1167.6000;0.6740;0.8061;
1167.9000;0.6748;0.8111;
1168.2000;0.6732;0.8061;
1168.5000;0.6732;0.7985;
1168.8000;0.6740;0.8061;
1169.1000;0.6740;0.8061;
1169.4000;0.6748;0.8061;
1169.7000;0.6740;0.7985;
1170.0000;0.6748;0.8086;
1170.3000;0.6740;0.8086;
1170.6000;0.6740;0.8036;
1170.9000;0.6764;0.8111;
1171.2000;0.6748;0.8036;
1171.5000;0.6724;0.7960;
1171.8000;0.6724;0.7910;
1172.1000;0.6707;0.7859;
1172.4000;0.6732;0.7985;
1172.7000;0.6740;0.8010;
1173.0000;0.6724;0.7884;
1173.3000;0.6699;0.7733;
1173.6000;0.6740;0.7859;
1173.9000;0.6724;0.7809;
1174.2000;0.6724;0.7834;
1174.5000;0.6740;0.7935;
1174.8000;0.6740;0.8010;
1175.1000;0.6764;0.8086;
1175.4000;0.6732;0.7834;
1175.7000;0.6699;0.7733;
1176.0000;0.6740;0.7784;
1176.3000;0.6740;0.7683;
1176.6000;0.6699;0.7582;
1176.9000;0.6724;0.7633;
1177.2000;0.6724;0.7683;
1177.5000;0.6732;0.7809;
1177.8000;0.6732;0.7809;
1178.1000;0.6748;0.7910;
1178.4000;0.6724;0.7935;
1178.7000;0.6724;0.7884;
1179.0000;0.6732;0.7910;
1179.3000;0.6724;0.7809;
1179.6000;0.6724;0.7633;
1179.9000;0.6740;0.7633;
1180.2000;0.6740;0.7582;
1180.5000;0.6740;0.7607;
1180.8000;0.6699;0.7582;
1181.1000;0.6732;0.7708;
1181.4000;0.6732;0.7708;
1181.7000;0.6732;0.7633;
1182.0000;0.6699;0.7607;
1182.3000;0.6724;0.7607;
1182.6000;0.6691;0.7557;
1182.9000;0.6675;0.7582;
1183.2000;0.6724;0.7683;
1183.5000;0.6707;0.7658;
1183.8000;0.6716;0.7582;
1184.1000;0.6781;0.7784;
1184.4000;0.6748;0.7733;
1184.7000;0.6740;0.7683;
1185.0000;0.6724;0.7759;
1185.3000;0.6732;0.7708;
1185.6000;0.6748;0.7784;
1185.9000;0.6732;0.7708;
1186.2000;0.6724;0.7683;
1186.5000;0.6740;0.7733;
1186.8000;0.6724;0.7733;
1187.1000;0.6724;0.7784;
1187.4000;0.6724;0.7733;
1187.7000;0.6716;0.7784;
1188.0000;0.6732;0.7859;
1188.3000;0.6748;0.7859;
1188.6000;0.6732;0.7809;
1188.9000;0.6740;0.7910;
1189.2000;0.6740;0.7985;
1189.5000;0.6724;0.8010;
1189.8000;0.6732;0.8010;
1190.1000;0.6732;0.8061;
1190.4000;0.6732;0.8086;
1190.7000;0.6764;0.8086;
1191.0000;0.6748;0.7884;
1191.3000;0.6724;0.7910;
1191.6000;0.6699;0.7834;
1191.9000;0.6716;0.7960;
1192.2000;0.6724;0.7935;
1192.5000;0.6724;0.8010;
1192.8000;0.6732;0.8036;
1193.1000;0.6691;0.7935;
1193.4000;0.6724;0.8061;
1193.7000;0.6716;0.8061;
1194.0000;0.6748;0.8162;
1194.3000;0.6740;0.8010;
1194.6000;0.6748;0.8061;
1194.9000;0.6740;0.8086;
1195.2000;0.6740;0.8010;
1195.5000;0.6732;0.7960;
1195.8000;0.6716;0.8036;
1196.1000;0.6716;0.7985;
1196.4000;0.6732;0.8010;
1196.7000;0.6732;0.7985;
1197.0000;0.6716;0.7985;
1197.3000;0.6756;0.7935;
1197.6000;0.6756;0.7859;
1197.9000;0.6724;0.7834;
1198.2000;0.6740;0.7834;
1198.5000;0.6724;0.7859;
1198.8000;0.6756;0.7935;
1199.1000;0.6781;0.7985;
1199.4000;0.6732;0.7960;
1199.7000;0.6748;0.7985;
1200.0000;0.6740;0.8036;
1200.3000;0.6732;0.8086;
1200.6000;0.6748;0.8086;
1200.9000;0.6716;0.7960;
1201.2000;0.6691;0.7859;
1201.5000;0.6740;0.7960;
1201.8000;0.6724;0.7910;
1202.1000;0.6707;0.7809;
1202.4000;0.6724;0.7834;
1202.7000;0.6716;0.7859;
1203.0000;0.6732;0.7910;
1203.3000;0.6724;0.7884;
1203.6000;0.6764;0.7985;
1203.9000;0.6748;0.7935;
1204.2000;0.6716;0.7884;
1204.5000;0.6748;0.8036;
1204.8000;0.6740;0.7960;
1205.1000;0.6724;0.7935;
1205.4000;0.6716;0.8036;
1205.7000;0.6740;0.8086;
1206.0000;0.6732;0.8111;
1206.3000;0.6724;0.8061;
1206.6000;0.6748;0.8136;
1206.9000;0.6740;0.8162;
1207.2000;0.6772;0.8162;
1207.5000;0.6716;0.8010;
1207.8000;0.6716;0.7935;
1208.1000;0.6756;0.7960;
1208.4000;0.6724;0.7859;
1208.7000;0.6732;0.7884;
1209.0000;0.6683;0.7708;
1209.3000;0.6732;0.7784;
1209.6000;0.6732;0.7859;
1209.9000;0.6740;0.7859;
1210.2000;0.6740;0.7834;
1210.5000;0.6805;0.7985;
1210.8000;0.6724;0.7859;
1211.1000;0.6716;0.7910;
1211.4000;0.6683;0.7834;
1211.7000;0.6699;0.7910;
1212.0000;0.6724;0.7935;
1212.3000;0.6740;0.8010;
1212.6000;0.6724;0.7834;
1212.9000;0.6732;0.7834;
1213.2000;0.6732;0.7784;
1213.5000;0.6659;0.7658;
1213.8000;0.6756;0.7960;
1214.1000;0.6724;0.7859;
1214.4000;0.6716;0.7784;
1214.7000;0.6732;0.7809;
1215.0000;0.6732;0.7809;
1215.3000;0.6724;0.7809;
1215.6000;0.6716;0.7910;
1215.9000;0.6724;0.7910;
1216.2000;0.6732;0.7910;
1216.5000;0.6724;0.7910;
1216.8000;0.6707;0.7910;
1217.1000;0.6716;0.7985;
1217.4000;0.6699;0.8010;
1217.7000;0.6716;0.7960;
1218.0000;0.6716;0.7759;
1218.3000;0.6724;0.7683;
1218.6000;0.6732;0.7633;
1218.9000;0.6724;0.7633;
1219.2000;0.6724;0.7658;
1219.5000;0.6772;0.7809;
1219.8000;0.6732;0.7733;
1220.1000;0.6716;0.7733;
1220.4000;0.6724;0.7733;
1220.7000;0.6724;0.7859;
1221.0000;0.6732;0.7859;
1221.3000;0.6740;0.7834;
1221.6000;0.6764;0.7910;
1221.9000;0.6707;0.7759;
1222.2000;0.6716;0.7834;
1222.5000;0.6748;0.8010;
1222.8000;0.6707;0.7884;
1223.1000;0.6642;0.7708;
1223.4000;0.6716;0.7935;
1223.7000;0.6732;0.7985;
1224.0000;0.6724;0.7985;
1224.3000;0.6740;0.8036;
1224.6000;0.6740;0.8061;
1224.9000;0.6732;0.7985;
1225.2000;0.6797;0.8136;
1225.5000;0.6724;0.7935;
1225.8000;0.6707;0.7910;
1226.1000;0.6732;0.7910;
1226.4000;0.6683;0.7809;
1226.7000;0.6724;0.7859;
1227.0000;0.6716;0.7809;
1227.3000;0.6724;0.7809;
1227.6000;0.6724;0.7759;
1227.9000;0.6707;0.7759;
1228.2000;0.6724;0.7859;
1228.5000;0.6724;0.7859;
1228.8000;0.6716;0.7809;
1229.1000;0.6756;0.7784;
1229.4000;0.6748;0.7759;
1229.7000;0.6707;0.7658;
1230.0000;0.6732;0.7759;
1230.3000;0.6716;0.7733;
1230.6000;0.6716;0.7683;
1230.9000;0.6716;0.7708;
1231.2000;0.6724;0.7784;
1231.5000;0.6716;0.7784;
1231.8000;0.6707;0.7708;
1232.1000;0.6699;0.7733;
1232.4000;0.6716;0.7733;
1232.7000;0.6716;0.7759;
1233.0000;0.6740;0.7759;
1233.3000;0.6683;0.7683;
1233.6000;0.6716;0.7784;
1233.9000;0.6716;0.7809;
1234.2000;0.6716;0.7759;
1234.5000;0.6732;0.7859;
1234.8000;0.6732;0.7834;
1235.1000;0.6724;0.7884;
1235.4000;0.6716;0.7859;
1235.7000;0.6724;0.7910;
1236.0000;0.6732;0.7935;
1236.3000;0.6707;0.7960;
1236.6000;0.6732;0.8061;
1236.9000;0.6716;0.8010;
1237.2000;0.6699;0.7859;
1237.5000;0.6716;0.7884;
1237.8000;0.6716;0.7759;
1238.1000;0.6732;0.7683;
1238.4000;0.6716;0.7683;
1238.7000;0.6724;0.7784;
1239.0000;0.6724;0.7859;
1239.3000;0.6724;0.7859;
1239.6000;0.6716;0.7859;
1239.9000;0.6675;0.7834;
1240.2000;0.6732;0.7985;
1240.5000;0.6724;0.8086;
1240.8000;0.6716;0.8086;
1241.1000;0.6675;0.7960;
1241.4000;0.6716;0.7935;
1241.7000;0.6724;0.8010;
1242.0000;0.6716;0.7985;
1242.3000;0.6724;0.7935;
1242.6000;0.6724;0.7960;
1242.9000;0.6716;0.7935;
1243.2000;0.6683;0.7759;
1243.5000;0.6732;0.7859;
1243.8000;0.6740;0.7935;
1244.1000;0.6667;0.7759;
1244.4000;0.6724;0.7960;
1244.7000;0.6716;0.7859;
1245.0000;0.6732;0.7884;
1245.3000;0.6716;0.7859;
1245.6000;0.6724;0.7884;
1245.9000;0.6716;0.7910;
1246.2000;0.6699;0.7884;
1246.5000;0.6732;0.7935;
1246.8000;0.6724;0.8010;
1247.1000;0.6716;0.7960;
1247.4000;0.6724;0.7910;
1247.7000;0.6707;0.7910;
1248.0000;0.6716;0.7834;
1248.3000;0.6740;0.7985;
1248.6000;0.6732;0.7935;
1248.9000;0.6707;0.7809;
1249.2000;0.6789;0.8036;
1249.5000;0.6707;0.7834;
1249.8000;0.6781;0.8061;
1250.1000;0.6732;0.7859;
1250.4000;0.6724;0.7884;
1250.7000;0.6732;0.7910;
1251.0000;0.6716;0.7985;
1251.3000;0.6724;0.7960;
1251.6000;0.6724;0.7935;
1251.9000;0.6724;0.7985;
1252.2000;0.6707;0.7960;
1252.5000;0.6707;0.7960;
1252.8000;0.6707;0.7910;
1253.1000;0.6716;0.7809;
1253.4000;0.6724;0.7859;
1253.7000;0.6707;0.7834;
1254.0000;0.6707;0.7834;
1254.3000;0.6716;0.7960;
1254.6000;0.6716;0.7960;
1254.9000;0.6707;0.8010;
1255.2000;0.6707;0.7985;
1255.5000;0.6724;0.7935;
1255.8000;0.6724;0.7910;
1256.1000;0.6724;0.7960;
1256.4000;0.6789;0.8136;
1256.7000;0.6724;0.7859;
1257.0000;0.6724;0.7884;
1257.3000;0.6650;0.7784;
1257.6000;0.6724;0.7935;
1257.9000;0.6724;0.7910;
1258.2000;0.6724;0.7884;
1258.5000;0.6707;0.7784;
1258.8000;0.6707;0.7784;
1259.1000;0.6707;0.7834;
1259.4000;0.6724;0.7834;
1259.7000;0.6707;0.7759;
1260.0000;0.6707;0.7733;
1260.3000;0.6699;0.7809;
1260.6000;0.6724;0.7759;
1260.9000;0.6707;0.7708;
1261.2000;0.6716;0.7809;
1261.5000;0.6716;0.7884;
1261.8000;0.6748;0.7935;
1262.1000;0.6724;0.7859;
1262.4000;0.6716;0.7759;
1262.7000;0.6724;0.7784;
1263.0000;0.6707;0.7809;
1263.3000;0.6724;0.7910;
1263.6000;0.6716;0.7910;
1263.9000;0.6716;0.7960;
1264.2000;0.6691;0.7859;
1264.5000;0.6724;0.7960;
1264.8000;0.6707;0.7859;
1265.1000;0.6732;0.7834;
1265.4000;0.6707;0.7784;
1265.7000;0.6781;0.7884;
1266.0000;0.6732;0.7784;
1266.3000;0.6716;0.7784;
1266.6000;0.6716;0.7834;
1266.9000;0.6659;0.7708;
1267.2000;0.6724;0.7834;
1267.5000;0.6716;0.7834;
1267.8000;0.6707;0.7809;
1268.1000;0.6675;0.7784;
1268.4000;0.6724;0.7859;
1268.7000;0.6683;0.7733;
1269.0000;0.6699;0.7809;
1269.3000;0.6716;0.7960;
1269.6000;0.6724;0.7935;
1269.9000;0.6716;0.7935;
1270.2000;0.6716;0.7960;
1270.5000;0.6724;0.8010;
1270.8000;0.6699;0.7884;
1271.1000;0.6716;0.7960;
1271.4000;0.6699;0.7910;
1271.7000;0.6699;0.7960;
1272.0000;0.6707;0.7935;
1272.3000;0.6756;0.7985;
1272.6000;0.6716;0.7834;
1272.9000;0.6707;0.7834;
1273.2000;0.6716;0.7834;
1273.5000;0.6707;0.7834;
1273.8000;0.6699;0.7809;
1274.1000;0.6707;0.7859;
1274.4000;0.6707;0.7859;
1274.7000;0.6716;0.7960;
1275.0000;0.6724;0.8010;
1275.3000;0.6699;0.7960;
1275.6000;0.6716;0.7985;
1275.9000;0.6732;0.8036;
1276.2000;0.6707;0.7935;
1276.5000;0.6724;0.7935;
1276.8000;0.6707;0.7960;
1277.1000;0.6699;0.8010;
1277.4000;0.6716;0.8036;
1277.7000;0.6724;0.8010;
1278.0000;0.6707;0.7960;
1278.3000;0.6707;0.7960;
1278.6000;0.6716;0.7910;
1278.9000;0.6699;0.7884;
1279.2000;0.6691;0.7910;
1279.5000;0.6724;0.7910;
1279.8000;0.6740;0.7910;
1280.1000;0.6716;0.7935;
1280.4000;0.6716;0.7884;
1280.7000;0.6699;0.7910;
1281.0000;0.6724;0.8010;
1281.3000;0.6716;0.7935;
1281.6000;0.6716;0.7935;
1281.9000;0.6699;0.7910;
1282.2000;0.6740;0.7985;
1282.5000;0.6740;0.8036;
1282.8000;0.6724;0.7935;
1283.1000;0.6724;0.7910;
1283.4000;0.6716;0.7884;
1283.7000;0.6716;0.7884;
1284.0000;0.6699;0.7884;
1284.3000;0.6716;0.7935;
1284.6000;0.6732;0.8010;
1284.9000;0.6716;0.7935;
1285.2000;0.6699;0.7935;
1285.5000;0.6699;0.7884;
1285.8000;0.6716;0.7960;
1286.1000;0.6716;0.8036;
1286.4000;0.6724;0.7985;
1286.7000;0.6716;0.7960;
1287.0000;0.6716;0.7960;
1287.3000;0.6716;0.7985;
1287.6000;0.6716;0.7985;
1287.9000;0.6724;0.7935;
1288.2000;0.6707;0.7884;
1288.5000;0.6756;0.7935;
1288.8000;0.6716;0.7935;
1289.1000;0.6707;0.8061;
1289.4000;0.6699;0.8136;
1289.7000;0.6707;0.8136;
1290.0000;0.6764;0.8288;
1290.3000;0.6699;0.8187;
1290.6000;0.6691;0.8162;
1290.9000;0.6691;0.8086;
1291.2000;0.6707;0.8162;
1291.5000;0.6699;0.8162;
1291.8000;0.6691;0.8086;
1292.1000;0.6667;0.8010;
1292.4000;0.6691;0.8086;
1292.7000;0.6724;0.8136;
1293.0000;0.6740;0.8162;
1293.3000;0.6707;0.8086;
1293.6000;0.6732;0.8086;
1293.9000;0.6707;0.8061;
1294.2000;0.6699;0.8010;
1294.5000;0.6707;0.8010;
1294.8000;0.6699;0.7935;
1295.1000;0.6691;0.7935;
1295.4000;0.6724;0.8010;
1295.7000;0.6716;0.7884;
1296.0000;0.6724;0.7859;
1296.3000;0.6748;0.7935;
1296.6000;0.6764;0.7960;
1296.9000;0.6716;0.7784;
1297.2000;0.6781;0.7910;
1297.5000;0.6707;0.7784;
1297.8000;0.6716;0.7733;
1298.1000;0.6756;0.7884;
1298.4000;0.6707;0.7809;
1298.7000;0.6699;0.7733;
1299.0000;0.6707;0.7759;
1299.3000;0.6707;0.7809;
1299.6000;0.6716;0.7910;
1299.9000;0.6707;0.7884;
1300.2000;0.6675;0.7884;
1300.5000;0.6724;0.7960;
1300.8000;0.6716;0.7910;
1301.1000;0.6740;0.7960;
1301.4000;0.6732;0.7910;
1301.7000;0.6707;0.7834;
1302.0000;0.6691;0.7784;
1302.3000;0.6724;0.7834;
1302.6000;0.6724;0.7784;
1302.9000;0.6716;0.7884;
1303.2000;0.6716;0.7910;
1303.5000;0.6699;0.7859;
1303.8000;0.6707;0.7935;
1304.1000;0.6716;0.7910;
1304.4000;0.6724;0.7910;
1304.7000;0.6716;0.7884;
1305.0000;0.6707;0.7910;
1305.3000;0.6699;0.7884;
1305.6000;0.6716;0.8010;
1305.9000;0.6699;0.8010;
1306.2000;0.6724;0.8036;
1306.5000;0.6724;0.8136;
1306.8000;0.6699;0.8111;
1307.1000;0.6707;0.8086;
1307.4000;0.6691;0.8036;
1307.7000;0.6707;0.8036;
1308.0000;0.6724;0.8036;
1308.3000;0.6716;0.7985;
1308.6000;0.6724;0.7960;
1308.9000;0.6724;0.7985;
1309.2000;0.6675;0.7935;
1309.5000;0.6683;0.7985;
1309.8000;0.6699;0.8036;
1310.1000;0.6691;0.7985;
1310.4000;0.6707;0.8136;
1310.7000;0.6699;0.8086;
1311.0000;0.6707;0.8086;
1311.3000;0.6716;0.8061;
1311.6000;0.6724;0.8061;
1311.9000;0.6716;0.7960;
1312.2000;0.6699;0.7935;
1312.5000;0.6724;0.8010;
1312.8000;0.6691;0.7960;
1313.1000;0.6724;0.7935;
1313.4000;0.6707;0.7884;
1313.7000;0.6732;0.7884;
1314.0000;0.6699;0.7859;
1314.3000;0.6642;0.7683;
1314.6000;0.6707;0.7834;
1314.9000;0.6716;0.7834;
1315.2000;0.6691;0.7859;
1315.5000;0.6724;0.7884;
1315.8000;0.6716;0.7809;
1316.1000;0.6716;0.7834;
1316.4000;0.6699;0.7809;
1316.7000;0.6707;0.7784;
1317.0000;0.6724;0.7784;
1317.3000;0.6716;0.7733;
1317.6000;0.6716;0.7733;
1317.9000;0.6699;0.7708;
1318.2000;0.6699;0.7733;
1318.5000;0.6707;0.7708;
1318.8000;0.6699;0.7708;
1319.1000;0.6707;0.7784;
1319.4000;0.6740;0.7884;
1319.7000;0.6707;0.7708;
1320.0000;0.6707;0.7759;
1320.3000;0.6683;0.7759;
1320.6000;0.6707;0.7960;
1320.9000;0.6699;0.7960;
1321.2000;0.6691;0.8010;
1321.5000;0.6683;0.7985;
1321.8000;0.6707;0.8010;
1322.1000;0.6707;0.8010;
1322.4000;0.6724;0.8010;
1322.7000;0.6667;0.7910;
1323.0000;0.6748;0.8086;
1323.3000;0.6707;0.7910;
1323.6000;0.6699;0.7910;
1323.9000;0.6707;0.7935;
1324.2000;0.6683;0.7859;
1324.5000;0.6699;0.7985;
1324.8000;0.6707;0.8036;
1325.1000;0.6683;0.7985;
1325.4000;0.6724;0.8111;
1325.7000;0.6716;0.8111;
1326.0000;0.6716;0.8036;
1326.3000;0.6699;0.8036;
1326.6000;0.6699;0.8010;
1326.9000;0.6707;0.8010;
1327.2000;0.6716;0.8086;
1327.5000;0.6707;0.8111;
1327.8000;0.6699;0.8111;
1328.1000;0.6724;0.8162;
1328.4000;0.6699;0.8061;
1328.7000;0.6699;0.8061;
1329.0000;0.6699;0.8010;
1329.3000;0.6707;0.7935;
1329.6000;0.6707;0.8036;
1329.9000;0.6707;0.8036;
1330.2000;0.6707;0.8061;
1330.5000;0.6707;0.8111;
1330.8000;0.6699;0.8162;
1331.1000;0.6699;0.8086;
1331.4000;0.6691;0.8086;
1331.7000;0.6699;0.8010;
1332.0000;0.6707;0.7960;
1332.3000;0.6699;0.7935;
1332.6000;0.6699;0.7960;
1332.9000;0.6699;0.7985;
1333.2000;0.6716;0.7935;
1333.5000;0.6732;0.7985;
1333.8000;0.6716;0.7935;
1334.1000;0.6716;0.7884;
1334.4000;0.6748;0.8036;
1334.7000;0.6675;0.7935;
1335.0000;0.6659;0.7859;
1335.3000;0.6699;0.7960;
1335.6000;0.6724;0.7960;
1335.9000;0.6756;0.7985;
1336.2000;0.6716;0.7834;
1336.5000;0.6707;0.7834;
1336.8000;0.6732;0.7910;
1337.1000;0.6732;0.7960;
1337.4000;0.6716;0.7859;
1337.7000;0.6675;0.7834;
1338.0000;0.6699;0.7910;
1338.3000;0.6716;0.8010;
1338.6000;0.6707;0.8036;
1338.9000;0.6691;0.8136;
1339.2000;0.6699;0.8111;
1339.5000;0.6716;0.8136;
1339.8000;0.6732;0.8136;
1340.1000;0.6699;0.8061;
1340.4000;0.6724;0.8010;
1340.7000;0.6691;0.7935;
1341.0000;0.6683;0.7834;
1341.3000;0.6724;0.7859;
1341.6000;0.6699;0.7834;
1341.9000;0.6675;0.7809;
1342.2000;0.6716;0.7859;
1342.5000;0.6707;0.7859;
1342.8000;0.6699;0.7884;
1343.1000;0.6691;0.7834;
1343.4000;0.6732;0.7985;
1343.7000;0.6707;0.7985;
1344.0000;0.6699;0.7935;
1344.3000;0.6707;0.7985;
1344.6000;0.6716;0.8061;
1344.9000;0.6716;0.7985;
1345.2000;0.6707;0.7985;
1345.5000;0.6683;0.7910;
1345.8000;0.6699;0.7935;
1346.1000;0.6716;0.8036;
1346.4000;0.6707;0.7985;
1346.7000;0.6707;0.8010;
1347.0000;0.6707;0.8010;
1347.3000;0.6716;0.8010;
1347.6000;0.6691;0.8010;
1347.9000;0.6716;0.8086;
1348.2000;0.6699;0.8061;
1348.5000;0.6707;0.8010;
1348.8000;0.6716;0.8061;
1349.1000;0.6691;0.7985;
1349.4000;0.6716;0.8111;
1349.7000;0.6716;0.8136;
1350.0000;0.6716;0.8162;
1350.3000;0.6691;0.8111;
1350.6000;0.6707;0.8162;
1350.9000;0.6707;0.8187;
1351.2000;0.6716;0.8136;
1351.5000;0.6716;0.8212;
1351.8000;0.6724;0.8187;
1352.1000;0.6724;0.8162;
1352.4000;0.6724;0.8136;
1352.7000;0.6716;0.8036;
1353.0000;0.6707;0.8061;
1353.3000;0.6716;0.8061;
1353.6000;0.6707;0.8061;
1353.9000;0.6716;0.8111;
1354.2000;0.6707;0.8061;
1354.5000;0.6675;0.8061;
1354.8000;0.6716;0.8162;
1355.1000;0.6707;0.8212;
1355.4000;0.6707;0.8187;
1355.7000;0.6683;0.7985;
1356.0000;0.6699;0.7985;
1356.3000;0.6707;0.8061;
1356.6000;0.6691;0.7910;
1356.9000;0.6691;0.7859;
1357.2000;0.6707;0.7910;
1357.5000;0.6716;0.7910;
1357.8000;0.6707;0.7910;
1358.1000;0.6716;0.7935;
1358.4000;0.6716;0.7935;
1358.7000;0.6699;0.7910;
1359.0000;0.6683;0.7859;
1359.3000;0.6691;0.7960;
1359.6000;0.6699;0.8061;
1359.9000;0.6634;0.7884;
1360.2000;0.6683;0.7985;
1360.5000;0.6691;0.8036;
1360.8000;0.6691;0.7935;
1361.1000;0.6634;0.7859;
1361.4000;0.6699;0.7935;
1361.7000;0.6699;0.7910;
1362.0000;0.6699;0.7834;
1362.3000;0.6699;0.7784;
1362.6000;0.6699;0.7809;
1362.9000;0.6634;0.7633;
1363.2000;0.6707;0.7784;
1363.5000;0.6699;0.7784;
1363.8000;0.6691;0.7809;
1364.1000;0.6699;0.7784;
1364.4000;0.6707;0.7784;
1364.7000;0.6691;0.7759;
1365.0000;0.6699;0.7708;
1365.3000;0.6634;0.7557;
1365.6000;0.6764;0.7859;
1365.9000;0.6699;0.7658;
1366.2000;0.6764;0.7809;
1366.5000;0.6732;0.7784;
1366.8000;0.6667;0.7683;
1367.1000;0.6699;0.7834;
1367.4000;0.6707;0.7910;
1367.7000;0.6707;0.7960;
1368.0000;0.6716;0.8010;
1368.3000;0.6716;0.7960;
1368.6000;0.6707;0.7935;
1368.9000;0.6716;0.7935;
1369.2000;0.6707;0.7884;
1369.5000;0.6732;0.7859;
1369.8000;0.6707;0.7809;
1370.1000;0.6716;0.7859;
1370.4000;0.6716;0.7859;
1370.7000;0.6707;0.7834;
1371.0000;0.6716;0.7884;
1371.3000;0.6691;0.7884;
1371.6000;0.6707;0.7884;
1371.9000;0.6724;0.7834;
1372.2000;0.6699;0.7784;
1372.5000;0.6699;0.7809;
1372.8000;0.6683;0.7733;
1373.1000;0.6716;0.7834;
1373.4000;0.6707;0.7884;
1373.7000;0.6691;0.7910;
1374.0000;0.6716;0.8010;
1374.3000;0.6716;0.8010;
1374.6000;0.6707;0.7910;
1374.9000;0.6699;0.7910;
1375.2000;0.6716;0.7985;
1375.5000;0.6707;0.7935;
1375.8000;0.6716;0.7884;
1376.1000;0.6707;0.7859;
1376.4000;0.6707;0.7784;
1376.7000;0.6707;0.7809;
1377.0000;0.6683;0.7784;
1377.3000;0.6707;0.7784;
1377.6000;0.6707;0.7784;
1377.9000;0.6716;0.7960;
1378.2000;0.6707;0.8010;
1378.5000;0.6707;0.8010;
1378.8000;0.6691;0.8111;
1379.1000;0.6691;0.8162;
1379.4000;0.6707;0.8036;
1379.7000;0.6707;0.8061;
1380.0000;0.6707;0.8010;
1380.3000;0.6707;0.7985;
1380.6000;0.6724;0.7985;
1380.9000;0.6724;0.7985;
1381.2000;0.6699;0.7910;
1381.5000;0.6691;0.8010;
1381.8000;0.6716;0.8010;
1382.1000;0.6716;0.7960;
1382.4000;0.6716;0.8061;
1382.7000;0.6691;0.8036;
1383.0000;0.6716;0.7985;
1383.3000;0.6716;0.7935;
1383.6000;0.6667;0.7784;
1383.9000;0.6699;0.7859;
1384.2000;0.6691;0.7784;
1384.5000;0.6716;0.7834;
1384.8000;0.6675;0.7733;
1385.1000;0.6683;0.7784;
1385.4000;0.6691;0.7884;
1385.7000;0.6732;0.7935;
1386.0000;0.6691;0.7834;
1386.3000;0.6716;0.7910;
1386.6000;0.6691;0.7834;
1386.9000;0.6716;0.7985;
1387.2000;0.6683;0.7910;
1387.5000;0.6699;0.7884;
1387.8000;0.6707;0.7935;
1388.1000;0.6724;0.7960;
1388.4000;0.6716;0.8061;
1388.7000;0.6716;0.8036;
1389.0000;0.6683;0.8086;
1389.3000;0.6691;0.8086;
1389.6000;0.6724;0.8136;
1389.9000;0.6732;0.8111;
1390.2000;0.6691;0.7910;
1390.5000;0.6707;0.7910;
1390.8000;0.6805;0.8187;
1391.1000;0.6724;0.7985;
1391.4000;0.6699;0.7834;
1391.7000;0.6716;0.7834;
1392.0000;0.6691;0.7759;
1392.3000;0.6675;0.7834;
1392.6000;0.6691;0.7834;
1392.9000;0.6683;0.7809;
1393.2000;0.6707;0.7759;
1393.5000;0.6699;0.7733;
1393.8000;0.6724;0.7733;
1394.1000;0.6699;0.7708;
1394.4000;0.6716;0.7759;
1394.7000;0.6699;0.7834;
1395.0000;0.6724;0.7809;
1395.3000;0.6691;0.7683;
1395.6000;0.6716;0.7683;
1395.9000;0.6659;0.7582;
1396.2000;0.6699;0.7658;
1396.5000;0.6716;0.7759;
1396.8000;0.6707;0.7834;
1397.1000;0.6699;0.7784;
1397.4000;0.6691;0.7759;
1397.7000;0.6707;0.7884;
1398.0000;0.6699;0.7859;
1398.3000;0.6699;0.7859;
1398.6000;0.6691;0.7834;
1398.9000;0.6707;0.7834;
1399.2000;0.6683;0.7834;
1399.5000;0.6716;0.7960;
1399.8000;0.6724;0.8111;
