time/ms;Fluo/V;P700 deltaI/I x10³;
-199.8000;1.1315;0.7809;
-199.5000;1.1282;0.7759;
-199.2000;1.1298;0.7809;
-198.9000;1.1290;0.7633;
-198.6000;1.1315;0.7683;
-198.3000;1.1282;0.7633;
-198.0000;1.1249;0.7532;
-197.7000;1.1282;0.7607;
-197.4000;1.1282;0.7658;
-197.1000;1.1298;0.7708;
-196.8000;1.1347;0.7884;
-196.5000;1.1290;0.7784;
-196.2000;1.1298;0.7733;
-195.9000;1.1274;0.7733;
-195.6000;1.1298;0.7759;
-195.3000;1.1298;0.7733;
-195.0000;1.1315;0.7784;
-194.7000;1.1298;0.7708;
-194.4000;1.1306;0.7557;
-194.1000;1.1274;0.7406;
-193.8000;1.1298;0.7481;
-193.5000;1.1282;0.7456;
-193.2000;1.1298;0.7507;
-192.9000;1.1290;0.7481;
-192.6000;1.1331;0.7532;
-192.3000;1.1274;0.7355;
-192.0000;1.1298;0.7406;
-191.7000;1.1315;0.7431;
-191.4000;1.1282;0.7381;
-191.1000;1.1290;0.7406;
-190.8000;1.1298;0.7406;
-190.5000;1.1331;0.7607;
-190.2000;1.1282;0.7532;
-189.9000;1.1290;0.7582;
-189.6000;1.1290;0.7607;
-189.3000;1.1282;0.7607;
-189.0000;1.1282;0.7733;
-188.7000;1.1282;0.7658;
-188.4000;1.1290;0.7557;
-188.1000;1.1290;0.7481;
-187.8000;1.1306;0.7456;
-187.5000;1.1290;0.7431;
-187.2000;1.1298;0.7381;
-186.9000;1.1306;0.7381;
-186.6000;1.1306;0.7481;
-186.3000;1.1282;0.7532;
-186.0000;1.1298;0.7557;
-185.7000;1.1298;0.7633;
-185.4000;1.1290;0.7607;
-185.1000;1.1315;0.7683;
-184.8000;1.1323;0.7683;
-184.5000;1.1315;0.7607;
-184.2000;1.1306;0.7607;
-183.9000;1.1298;0.7607;
-183.6000;1.1298;0.7633;
-183.3000;1.1290;0.7557;
-183.0000;1.1298;0.7607;
-182.7000;1.1298;0.7708;
-182.4000;1.1241;0.7633;
-182.1000;1.1282;0.7733;
-181.8000;1.1306;0.7733;
-181.5000;1.1298;0.7733;
-181.2000;1.1282;0.7582;
-180.9000;1.1306;0.7633;
-180.6000;1.1298;0.7658;
-180.3000;1.1249;0.7532;
-180.0000;1.1298;0.7708;
-179.7000;1.1274;0.7633;
-179.4000;1.1290;0.7633;
-179.1000;1.1282;0.7733;
-178.8000;1.1298;0.7733;
-178.5000;1.1290;0.7683;
-178.2000;1.1306;0.7784;
-177.9000;1.1282;0.7683;
-177.6000;1.1282;0.7683;
-177.3000;1.1233;0.7607;
-177.0000;1.1274;0.7733;
-176.7000;1.1274;0.7658;
-176.4000;1.1290;0.7784;
-176.1000;1.1282;0.7809;
-175.8000;1.1323;0.7935;
-175.5000;1.1298;0.7884;
-175.2000;1.1306;0.7859;
-174.9000;1.1298;0.7834;
-174.6000;1.1306;0.7834;
-174.3000;1.1315;0.7809;
-174.0000;1.1315;0.7859;
-173.7000;1.1258;0.7809;
-173.4000;1.1290;0.7859;
-173.1000;1.1363;0.8111;
-172.8000;1.1258;0.7859;
-172.5000;1.1282;0.7884;
-172.2000;1.1323;0.7960;
-171.9000;1.1339;0.8061;
-171.6000;1.1266;0.8010;
-171.3000;1.1290;0.7985;
-171.0000;1.1274;0.7960;
-170.7000;1.1290;0.8061;
-170.4000;1.1306;0.8010;
-170.1000;1.1315;0.7884;
-169.8000;1.1298;0.7884;
-169.5000;1.1306;0.7985;
-169.2000;1.1298;0.7910;
-168.9000;1.1298;0.7884;
-168.6000;1.1298;0.7910;
-168.3000;1.1298;0.7834;
-168.0000;1.1290;0.7809;
-167.7000;1.1306;0.7859;
-167.4000;1.1315;0.7809;
-167.1000;1.1331;0.7884;
-166.8000;1.1274;0.7859;
-166.5000;1.1298;0.7935;
-166.2000;1.1290;0.7935;
-165.9000;1.1290;0.7859;
-165.6000;1.1315;0.7910;
-165.3000;1.1298;0.7834;
-165.0000;1.1298;0.7859;
-164.7000;1.1306;0.7859;
-164.4000;1.1298;0.7935;
-164.1000;1.1266;0.7784;
-163.8000;1.1290;0.7809;
-163.5000;1.1323;0.7859;
-163.2000;1.1282;0.7910;
-162.9000;1.1290;0.7960;
-162.6000;1.1298;0.8036;
-162.3000;1.1306;0.7985;
-162.0000;1.1290;0.7985;
-161.7000;1.1306;0.8010;
-161.4000;1.1298;0.8136;
-161.1000;1.1266;0.8086;
-160.8000;1.1290;0.8111;
-160.5000;1.1298;0.8111;
-160.2000;1.1315;0.8111;
-159.9000;1.1306;0.8111;
-159.6000;1.1323;0.8086;
-159.3000;1.1298;0.8036;
-159.0000;1.1298;0.8061;
-158.7000;1.1306;0.8036;
-158.4000;1.1306;0.7985;
-158.1000;1.1298;0.7910;
-157.8000;1.1298;0.7985;
-157.5000;1.1266;0.7935;
-157.2000;1.1298;0.7985;
-156.9000;1.1298;0.8036;
-156.6000;1.1298;0.7960;
-156.3000;1.1274;0.7834;
-156.0000;1.1290;0.7809;
-155.7000;1.1282;0.7784;
-155.4000;1.1298;0.7809;
-155.1000;1.1306;0.7859;
-154.8000;1.1266;0.7809;
-154.5000;1.1298;0.7859;
-154.2000;1.1306;0.7910;
-153.9000;1.1290;0.7910;
-153.6000;1.1306;0.7884;
-153.3000;1.1274;0.7910;
-153.0000;1.1290;0.7960;
-152.7000;1.1290;0.7859;
-152.4000;1.1298;0.7859;
-152.1000;1.1290;0.7809;
-151.8000;1.1290;0.7759;
-151.5000;1.1298;0.7759;
-151.2000;1.1290;0.7708;
-150.9000;1.1290;0.7834;
-150.6000;1.1290;0.7910;
-150.3000;1.1290;0.7884;
-150.0000;1.1306;0.7859;
-149.7000;1.1298;0.7884;
-149.4000;1.1298;0.7935;
-149.1000;1.1298;0.7960;
-148.8000;1.1298;0.7910;
-148.5000;1.1315;0.7884;
-148.2000;1.1306;0.7859;
-147.9000;1.1298;0.7884;
-147.6000;1.1298;0.7910;
-147.3000;1.1290;0.7834;
-147.0000;1.1290;0.7784;
-146.7000;1.1306;0.7884;
-146.4000;1.1306;0.7960;
-146.1000;1.1315;0.7910;
-145.8000;1.1298;0.7884;
-145.5000;1.1290;0.7960;
-145.2000;1.1298;0.7935;
-144.9000;1.1274;0.7759;
-144.6000;1.1266;0.7683;
-144.3000;1.1306;0.7759;
-144.0000;1.1298;0.7733;
-143.7000;1.1323;0.7733;
-143.4000;1.1315;0.7733;
-143.1000;1.1290;0.7708;
-142.8000;1.1298;0.7708;
-142.5000;1.1290;0.7633;
-142.2000;1.1315;0.7683;
-141.9000;1.1290;0.7733;
-141.6000;1.1233;0.7708;
-141.3000;1.1306;0.7859;
-141.0000;1.1306;0.7859;
-140.7000;1.1315;0.7935;
-140.4000;1.1249;0.7859;
-140.1000;1.1306;0.8036;
-139.8000;1.1315;0.8086;
-139.5000;1.1331;0.8086;
-139.2000;1.1298;0.7935;
-138.9000;1.1290;0.8010;
-138.6000;1.1258;0.7910;
-138.3000;1.1339;0.8086;
-138.0000;1.1258;0.7834;
-137.7000;1.1266;0.7960;
-137.4000;1.1282;0.8061;
-137.1000;1.1266;0.7884;
-136.8000;1.1282;0.7859;
-136.5000;1.1282;0.7884;
-136.2000;1.1282;0.7809;
-135.9000;1.1306;0.7834;
-135.6000;1.1290;0.7784;
-135.3000;1.1290;0.7859;
-135.0000;1.1282;0.7884;
-134.7000;1.1298;0.7884;
-134.4000;1.1282;0.7784;
-134.1000;1.1282;0.7809;
-133.8000;1.1355;0.7985;
-133.5000;1.1315;0.8036;
-133.2000;1.1323;0.8086;
-132.9000;1.1306;0.8061;
-132.6000;1.1298;0.8061;
-132.3000;1.1298;0.7985;
-132.0000;1.1306;0.7960;
-131.7000;1.1372;0.8111;
-131.4000;1.1306;0.7884;
-131.1000;1.1298;0.7910;
-130.8000;1.1290;0.7960;
-130.5000;1.1225;0.7809;
-130.2000;1.1290;0.7960;
-129.9000;1.1290;0.8036;
-129.6000;1.1306;0.8010;
-129.3000;1.1282;0.7935;
-129.0000;1.1290;0.7859;
-128.7000;1.1306;0.7960;
-128.4000;1.1315;0.7985;
-128.1000;1.1298;0.8061;
-127.8000;1.1298;0.8086;
-127.5000;1.1306;0.8036;
-127.2000;1.1298;0.7960;
-126.9000;1.1306;0.7884;
-126.6000;1.1282;0.7859;
-126.3000;1.1298;0.7910;
-126.0000;1.1217;0.7683;
-125.7000;1.1290;0.7834;
-125.4000;1.1282;0.7809;
-125.1000;1.1290;0.7834;
-124.8000;1.1290;0.7834;
-124.5000;1.1298;0.7884;
-124.2000;1.1306;0.7809;
-123.9000;1.1298;0.7809;
-123.6000;1.1249;0.7683;
-123.3000;1.1225;0.7633;
-123.0000;1.1298;0.7809;
-122.7000;1.1372;0.8061;
-122.4000;1.1282;0.7859;
-122.1000;1.1282;0.7859;
-121.8000;1.1298;0.7809;
-121.5000;1.1290;0.7759;
-121.2000;1.1266;0.7759;
-120.9000;1.1298;0.7809;
-120.6000;1.1298;0.7884;
-120.3000;1.1315;0.7834;
-120.0000;1.1282;0.7809;
-119.7000;1.1306;0.7859;
-119.4000;1.1306;0.7884;
-119.1000;1.1298;0.7784;
-118.8000;1.1290;0.7859;
-118.5000;1.1282;0.7884;
-118.2000;1.1306;0.7935;
-117.9000;1.1290;0.7884;
-117.6000;1.1306;0.7935;
-117.3000;1.1306;0.7910;
-117.0000;1.1331;0.8036;
-116.7000;1.1323;0.7985;
-116.4000;1.1290;0.7910;
-116.1000;1.1298;0.7884;
-115.8000;1.1290;0.7910;
-115.5000;1.1282;0.7910;
-115.2000;1.1290;0.7960;
-114.9000;1.1274;0.7960;
-114.6000;1.1290;0.8036;
-114.3000;1.1315;0.7985;
-114.0000;1.1298;0.7935;
-113.7000;1.1298;0.7935;
-113.4000;1.1282;0.7884;
-113.1000;1.1298;0.7935;
-112.8000;1.1306;0.7985;
-112.5000;1.1290;0.8010;
-112.2000;1.1306;0.7935;
-111.9000;1.1298;0.7960;
-111.6000;1.1315;0.7960;
-111.3000;1.1282;0.7935;
-111.0000;1.1282;0.7910;
-110.7000;1.1282;0.7884;
-110.4000;1.1306;0.7960;
-110.1000;1.1290;0.7985;
-109.8000;1.1306;0.7960;
-109.5000;1.1298;0.7884;
-109.2000;1.1298;0.7809;
-108.9000;1.1249;0.7733;
-108.6000;1.1290;0.7759;
-108.3000;1.1306;0.7859;
-108.0000;1.1306;0.7884;
-107.7000;1.1306;0.7935;
-107.4000;1.1282;0.7809;
-107.1000;1.1315;0.7910;
-106.8000;1.1331;0.7985;
-106.5000;1.1315;0.8036;
-106.2000;1.1282;0.8036;
-105.9000;1.1298;0.7985;
-105.6000;1.1298;0.8010;
-105.3000;1.1290;0.7960;
-105.0000;1.1298;0.7935;
-104.7000;1.1298;0.7834;
-104.4000;1.1282;0.7759;
-104.1000;1.1306;0.7809;
-103.8000;1.1298;0.7809;
-103.5000;1.1282;0.7759;
-103.2000;1.1306;0.7935;
-102.9000;1.1298;0.7985;
-102.6000;1.1298;0.7985;
-102.3000;1.1282;0.7884;
-102.0000;1.1290;0.7834;
-101.7000;1.1363;0.8010;
-101.4000;1.1306;0.7884;
-101.1000;1.1298;0.7910;
-100.8000;1.1217;0.7784;
-100.5000;1.1233;0.7834;
-100.2000;1.1298;0.7960;
-99.9000;1.1323;0.7985;
-99.6000;1.1290;0.7985;
-99.3000;1.1306;0.8010;
-99.0000;1.1290;0.7910;
-98.7000;1.1274;0.7834;
-98.4000;1.1282;0.7809;
-98.1000;1.1282;0.7784;
-97.8000;1.1290;0.7784;
-97.5000;1.1282;0.7859;
-97.2000;1.1298;0.7834;
-96.9000;1.1298;0.7859;
-96.6000;1.1331;0.7910;
-96.3000;1.1298;0.7809;
-96.0000;1.1290;0.7834;
-95.7000;1.1290;0.7834;
-95.4000;1.1290;0.7784;
-95.1000;1.1306;0.7859;
-94.8000;1.1298;0.7834;
-94.5000;1.1290;0.7834;
-94.2000;1.1298;0.7809;
-93.9000;1.1298;0.7733;
-93.6000;1.1306;0.7809;
-93.3000;1.1298;0.7859;
-93.0000;1.1306;0.7960;
-92.7000;1.1290;0.7960;
-92.4000;1.1290;0.7985;
-92.1000;1.1282;0.7935;
-91.8000;1.1282;0.7935;
-91.5000;1.1298;0.7859;
-91.2000;1.1290;0.7859;
-90.9000;1.1282;0.7784;
-90.6000;1.1282;0.7809;
-90.3000;1.1306;0.7884;
-90.0000;1.1323;0.7859;
-89.7000;1.1298;0.7784;
-89.4000;1.1282;0.7759;
-89.1000;1.1290;0.7809;
-88.8000;1.1331;0.7910;
-88.5000;1.1298;0.7859;
-88.2000;1.1290;0.7859;
-87.9000;1.1290;0.7884;
-87.6000;1.1290;0.7960;
-87.3000;1.1290;0.7935;
-87.0000;1.1258;0.7809;
-86.7000;1.1290;0.7960;
-86.4000;1.1290;0.8010;
-86.1000;1.1298;0.8036;
-85.8000;1.1249;0.8010;
-85.5000;1.1282;0.8086;
-85.2000;1.1290;0.8010;
-84.9000;1.1282;0.7960;
-84.6000;1.1290;0.7910;
-84.3000;1.1298;0.7859;
-84.0000;1.1306;0.7960;
-83.7000;1.1306;0.7960;
-83.4000;1.1306;0.7960;
-83.1000;1.1282;0.7935;
-82.8000;1.1323;0.8010;
-82.5000;1.1290;0.7910;
-82.2000;1.1315;0.7910;
-81.9000;1.1347;0.7960;
-81.6000;1.1290;0.7859;
-81.3000;1.1306;0.7884;
-81.0000;1.1315;0.7985;
-80.7000;1.1290;0.8010;
-80.4000;1.1274;0.7935;
-80.1000;1.1290;0.8036;
-79.8000;1.1306;0.8061;
-79.5000;1.1290;0.8061;
-79.2000;1.1282;0.8162;
-78.9000;1.1282;0.8187;
-78.6000;1.1290;0.8086;
-78.3000;1.1306;0.8086;
-78.0000;1.1290;0.8086;
-77.7000;1.1290;0.8010;
-77.4000;1.1298;0.8010;
-77.1000;1.1233;0.7960;
-76.8000;1.1282;0.8111;
-76.5000;1.1372;0.8313;
-76.2000;1.1282;0.8036;
-75.9000;1.1298;0.8111;
-75.6000;1.1282;0.8061;
-75.3000;1.1290;0.8086;
-75.0000;1.1306;0.8136;
-74.7000;1.1306;0.8212;
-74.4000;1.1282;0.8187;
-74.1000;1.1315;0.8086;
-73.8000;1.1298;0.8010;
-73.5000;1.1290;0.7884;
-73.2000;1.1290;0.7935;
-72.9000;1.1298;0.7985;
-72.6000;1.1315;0.7985;
-72.3000;1.1323;0.8010;
-72.0000;1.1306;0.7985;
-71.7000;1.1315;0.7935;
-71.4000;1.1298;0.7859;
-71.1000;1.1298;0.7910;
-70.8000;1.1290;0.7935;
-70.5000;1.1290;0.7834;
-70.2000;1.1290;0.7910;
-69.9000;1.1274;0.7809;
-69.6000;1.1298;0.7759;
-69.3000;1.1298;0.7733;
-69.0000;1.1282;0.7834;
-68.7000;1.1298;0.7859;
-68.4000;1.1347;0.7935;
-68.1000;1.1290;0.7759;
-67.8000;1.1306;0.7834;
-67.5000;1.1323;0.7960;
-67.2000;1.1298;0.7884;
-66.9000;1.1290;0.8010;
-66.6000;1.1290;0.8036;
-66.3000;1.1298;0.8010;
-66.0000;1.1290;0.7985;
-65.7000;1.1315;0.8010;
-65.4000;1.1315;0.7910;
-65.1000;1.1274;0.7834;
-64.8000;1.1282;0.7910;
-64.5000;1.1274;0.7884;
-64.2000;1.1282;0.7910;
-63.9000;1.1282;0.7910;
-63.6000;1.1266;0.7859;
-63.3000;1.1298;0.7935;
-63.0000;1.1282;0.7834;
-62.7000;1.1298;0.7859;
-62.4000;1.1290;0.7759;
-62.1000;1.1290;0.7784;
-61.8000;1.1306;0.7809;
-61.5000;1.1290;0.7809;
-61.2000;1.1290;0.7834;
-60.9000;1.1298;0.7884;
-60.6000;1.1355;0.8061;
-60.3000;1.1290;0.8010;
-60.0000;1.1282;0.8036;
-59.7000;1.1282;0.8111;
-59.4000;1.1282;0.8036;
-59.1000;1.1315;0.8061;
-58.8000;1.1290;0.7935;
-58.5000;1.1290;0.7935;
-58.2000;1.1282;0.7960;
-57.9000;1.1306;0.8086;
-57.6000;1.1282;0.7985;
-57.3000;1.1282;0.7960;
-57.0000;1.1282;0.8036;
-56.7000;1.1298;0.8010;
-56.4000;1.1298;0.8111;
-56.1000;1.1217;0.7910;
-55.8000;1.1290;0.8010;
-55.5000;1.1298;0.8036;
-55.2000;1.1274;0.8010;
-54.9000;1.1274;0.8036;
-54.6000;1.1315;0.8187;
-54.3000;1.1282;0.8136;
-54.0000;1.1282;0.8111;
-53.7000;1.1282;0.8036;
-53.4000;1.1266;0.8061;
-53.1000;1.1282;0.8187;
-52.8000;1.1282;0.8237;
-52.5000;1.1298;0.8237;
-52.2000;1.1274;0.8162;
-51.9000;1.1363;0.8338;
-51.6000;1.1306;0.8187;
-51.3000;1.1282;0.8162;
-51.0000;1.1298;0.8136;
-50.7000;1.1315;0.8162;
-50.4000;1.1290;0.8111;
-50.1000;1.1282;0.8061;
-49.8000;1.1290;0.8061;
-49.5000;1.1306;0.8036;
-49.2000;1.1298;0.7935;
-48.9000;1.1306;0.7960;
-48.6000;1.1315;0.7935;
-48.3000;1.1274;0.7759;
-48.0000;1.1315;0.7834;
-47.7000;1.1282;0.7859;
-47.4000;1.1306;0.7859;
-47.1000;1.1290;0.7859;
-46.8000;1.1298;0.7985;
-46.5000;1.1290;0.8010;
-46.2000;1.1298;0.8111;
-45.9000;1.1323;0.8237;
-45.6000;1.1298;0.8162;
-45.3000;1.1306;0.8262;
-45.0000;1.1282;0.8212;
-44.7000;1.1282;0.8237;
-44.4000;1.1315;0.8363;
-44.1000;1.1298;0.8313;
-43.8000;1.1282;0.8262;
-43.5000;1.1290;0.8262;
-43.2000;1.1298;0.8262;
-42.9000;1.1290;0.8288;
-42.6000;1.1372;0.8489;
-42.3000;1.1298;0.8136;
-42.0000;1.1290;0.8086;
-41.7000;1.1331;0.8187;
-41.4000;1.1306;0.8111;
-41.1000;1.1290;0.8162;
-40.8000;1.1225;0.8061;
-40.5000;1.1290;0.8212;
-40.2000;1.1298;0.8187;
-39.9000;1.1266;0.8111;
-39.6000;1.1282;0.8237;
-39.3000;1.1290;0.8212;
-39.0000;1.1306;0.8212;
-38.7000;1.1290;0.8136;
-38.4000;1.1274;0.8061;
-38.1000;1.1290;0.8086;
-37.8000;1.1249;0.8086;
-37.5000;1.1290;0.8162;
-37.2000;1.1298;0.8212;
-36.9000;1.1282;0.8136;
-36.6000;1.1290;0.8111;
-36.3000;1.1315;0.8136;
-36.0000;1.1290;0.8086;
-35.7000;1.1315;0.8162;
-35.4000;1.1298;0.8136;
-35.1000;1.1306;0.8162;
-34.8000;1.1290;0.8136;
-34.5000;1.1290;0.8187;
-34.2000;1.1298;0.8187;
-33.9000;1.1298;0.8187;
-33.6000;1.1290;0.8187;
-33.3000;1.1258;0.8111;
-33.0000;1.1282;0.8111;
-32.7000;1.1290;0.8212;
-32.4000;1.1290;0.8162;
-32.1000;1.1290;0.8061;
-31.8000;1.1298;0.8061;
-31.5000;1.1315;0.8036;
-31.2000;1.1258;0.7859;
-30.9000;1.1306;0.8010;
-30.6000;1.1298;0.8010;
-30.3000;1.1290;0.8036;
-30.0000;1.1298;0.8111;
-29.7000;1.1241;0.8010;
-29.4000;1.1274;0.8136;
-29.1000;1.1290;0.8162;
-28.8000;1.1282;0.8136;
-28.5000;1.1290;0.8010;
-28.2000;1.1290;0.7985;
-27.9000;1.1282;0.7935;
-27.6000;1.1298;0.7960;
-27.3000;1.1290;0.8036;
-27.0000;1.1282;0.8086;
-26.7000;1.1258;0.8061;
-26.4000;1.1298;0.8061;
-26.1000;1.1323;0.8111;
-25.8000;1.1290;0.8010;
-25.5000;1.1315;0.8086;
-25.2000;1.1290;0.8061;
-24.9000;1.1315;0.8086;
-24.6000;1.1282;0.7985;
-24.3000;1.1201;0.7834;
-24.0000;1.1323;0.8136;
-23.7000;1.1298;0.8036;
-23.4000;1.1331;0.8136;
-23.1000;1.1233;0.7935;
-22.8000;1.1282;0.8061;
-22.5000;1.1339;0.8162;
-22.2000;1.1274;0.8111;
-21.9000;1.1225;0.8036;
-21.6000;1.1266;0.8162;
-21.3000;1.1306;0.8237;
-21.0000;1.1298;0.8313;
-20.7000;1.1282;0.8262;
-20.4000;1.1274;0.8288;
-20.1000;1.1347;0.8464;
-19.8000;1.1298;0.8288;
-19.5000;1.1274;0.8313;
-19.2000;1.1282;0.8288;
-18.9000;1.1298;0.8288;
-18.6000;1.1290;0.8187;
-18.3000;1.1290;0.8162;
-18.0000;1.1282;0.8111;
-17.7000;1.1282;0.8162;
-17.4000;1.1290;0.8262;
-17.1000;1.1298;0.8288;
-16.8000;1.1225;0.8010;
-16.5000;1.1306;0.8187;
-16.2000;1.1290;0.8162;
-15.9000;1.1298;0.8187;
-15.6000;1.1306;0.8187;
-15.3000;1.1290;0.8187;
-15.0000;1.1306;0.8136;
-14.7000;1.1298;0.8111;
-14.4000;1.1290;0.8036;
-14.1000;1.1282;0.8010;
-13.8000;1.1290;0.7960;
-13.5000;1.1290;0.7960;
-13.2000;1.1298;0.7935;
-12.9000;1.1298;0.8010;
-12.6000;1.1274;0.7960;
-12.3000;1.1306;0.8061;
-12.0000;1.1315;0.8061;
-11.7000;1.1298;0.8010;
-11.4000;1.1290;0.8010;
-11.1000;1.1290;0.8111;
-10.8000;1.1298;0.8136;
-10.5000;1.1290;0.8010;
-10.2000;1.1290;0.8061;
-9.9000;1.1306;0.8010;
-9.6000;1.1315;0.8162;
-9.3000;1.1282;0.8061;
-9.0000;1.1290;0.8086;
-8.7000;1.1372;0.8162;
-8.4000;1.1315;0.8086;
-8.1000;1.1298;0.7985;
-7.8000;1.1274;0.8036;
-7.5000;1.1331;0.8162;
-7.2000;1.1315;0.7985;
-6.9000;1.1298;0.7910;
-6.6000;1.1298;0.7884;
-6.3000;1.1282;0.7809;
-6.0000;1.1290;0.7859;
-5.7000;1.1355;0.7985;
-5.4000;1.1306;0.7910;
-5.1000;1.1282;0.7910;
-4.8000;1.1298;0.7834;
-4.5000;1.1290;0.7884;
-4.2000;1.1290;0.7809;
-3.9000;1.1298;0.7834;
-3.6000;1.1306;0.7884;
-3.3000;1.1355;0.8036;
-3.0000;1.1282;0.7910;
-2.7000;1.1290;0.7985;
-2.4000;1.1282;0.8010;
-2.1000;1.1282;0.7985;
-1.8000;1.1290;0.8010;
-1.5000;1.1298;0.8036;
-1.2000;1.1290;0.8036;
-0.9000;1.1315;0.8010;
-0.6000;1.1331;0.8061;
-0.3000;1.1380;0.8162;
0.0000;1.1380;0.8162;
0.3000;1.1372;0.7859;
0.6000;1.1518;0.8237;
0.9000;1.1616;0.8489;
1.2000;1.1689;0.8590;
1.5000;1.1770;0.8867;
1.8000;1.1811;0.9043;
2.1000;1.1844;0.9119;
2.4000;1.1893;0.9270;
2.7000;1.1925;0.9497;
3.0000;1.1958;0.9597;
3.3000;1.1974;0.9749;
3.6000;1.2023;0.9925;
3.9000;1.2031;0.9824;
4.2000;1.2063;0.9975;
4.5000;1.2063;0.9975;
4.8000;1.2080;1.0076;
5.1000;1.2161;1.0252;
5.4000;1.2120;1.0101;
5.7000;1.2129;1.0076;
6.0000;1.2129;1.0126;
6.3000;1.2145;1.0126;
6.6000;1.2161;1.0101;
6.9000;1.2161;1.0126;
7.2000;1.2186;1.0177;
7.5000;1.2194;1.0278;
7.8000;1.2202;1.0252;
8.1000;1.2202;1.0303;
8.4000;1.2186;1.0278;
8.7000;1.2202;1.0227;
9.0000;1.2169;1.0152;
9.3000;1.2251;1.0303;
9.6000;1.2259;1.0303;
9.9000;1.2243;1.0252;
10.2000;1.2251;1.0227;
10.5000;1.2275;1.0303;
10.8000;1.2267;1.0378;
11.1000;1.2267;1.0252;
11.4000;1.2267;1.0252;
11.7000;1.2275;1.0202;
12.0000;1.2226;1.0076;
12.3000;1.2283;1.0252;
12.6000;1.2300;1.0177;
12.9000;1.2291;1.0177;
13.2000;1.2324;1.0101;
13.5000;1.2332;1.0051;
13.8000;1.2316;0.9975;
14.1000;1.2332;1.0026;
14.4000;1.2324;1.0126;
14.7000;1.2324;1.0126;
15.0000;1.2332;1.0177;
15.3000;1.2332;1.0101;
15.6000;1.2332;1.0177;
15.9000;1.2340;1.0126;
16.2000;1.2340;1.0177;
16.5000;1.2357;1.0202;
16.8000;1.2405;1.0429;
17.1000;1.2300;1.0278;
17.4000;1.2357;1.0328;
17.7000;1.2357;1.0202;
18.0000;1.2348;1.0126;
18.3000;1.2348;1.0051;
18.6000;1.2381;1.0303;
18.9000;1.2365;1.0202;
19.2000;1.2381;1.0152;
19.5000;1.2357;1.0076;
19.8000;1.2389;1.0202;
20.1000;1.2381;1.0177;
20.4000;1.2397;1.0227;
20.7000;1.2389;1.0278;
21.0000;1.2389;1.0227;
21.3000;1.2365;1.0177;
21.6000;1.2357;1.0076;
21.9000;1.2397;1.0202;
22.2000;1.2397;1.0202;
22.5000;1.2381;1.0101;
22.8000;1.2397;1.0076;
23.1000;1.2373;1.0076;
23.4000;1.2405;1.0101;
23.7000;1.2405;1.0026;
24.0000;1.2397;1.0000;
24.3000;1.2381;1.0051;
24.6000;1.2414;1.0152;
24.9000;1.2389;1.0227;
25.2000;1.2430;1.0227;
25.5000;1.2405;1.0227;
25.8000;1.2405;1.0252;
26.1000;1.2397;1.0303;
26.4000;1.2430;1.0303;
26.7000;1.2389;1.0177;
27.0000;1.2414;1.0202;
27.3000;1.2405;1.0278;
27.6000;1.2405;1.0278;
27.9000;1.2422;1.0252;
28.2000;1.2405;1.0252;
28.5000;1.2389;1.0126;
28.8000;1.2422;1.0126;
29.1000;1.2414;1.0126;
29.4000;1.2414;1.0126;
29.7000;1.2430;1.0202;
30.0000;1.2438;1.0202;
30.3000;1.2430;1.0177;
30.6000;1.2414;1.0126;
30.9000;1.2430;1.0152;
31.2000;1.2438;1.0227;
31.5000;1.2414;1.0227;
31.8000;1.2430;1.0278;
32.1000;1.2414;1.0177;
32.4000;1.2446;1.0152;
32.7000;1.2422;1.0101;
33.0000;1.2446;1.0227;
33.3000;1.2389;1.0101;
33.6000;1.2438;1.0252;
33.9000;1.2438;1.0278;
34.2000;1.2430;1.0202;
34.5000;1.2438;1.0126;
34.8000;1.2454;1.0076;
35.1000;1.2446;1.0101;
35.4000;1.2462;1.0152;
35.7000;1.2422;1.0152;
36.0000;1.2487;1.0353;
36.3000;1.2430;1.0278;
36.6000;1.2430;1.0227;
36.9000;1.2430;1.0252;
37.2000;1.2414;1.0252;
37.5000;1.2438;1.0303;
37.8000;1.2414;1.0252;
38.1000;1.2405;1.0202;
38.4000;1.2470;1.0353;
38.7000;1.2422;1.0202;
39.0000;1.2414;1.0177;
39.3000;1.2397;1.0076;
39.6000;1.2405;1.0152;
39.9000;1.2422;1.0303;
40.2000;1.2422;1.0353;
40.5000;1.2414;1.0252;
40.8000;1.2430;1.0278;
41.1000;1.2430;1.0252;
41.4000;1.2438;1.0303;
41.7000;1.2397;1.0252;
42.0000;1.2422;1.0278;
42.3000;1.2438;1.0353;
42.6000;1.2414;1.0252;
42.9000;1.2430;1.0202;
43.2000;1.2422;1.0177;
43.5000;1.2438;1.0227;
43.8000;1.2438;1.0152;
44.1000;1.2454;1.0227;
44.4000;1.2438;1.0152;
44.7000;1.2438;1.0101;
45.0000;1.2430;1.0076;
45.3000;1.2438;1.0101;
45.6000;1.2389;1.0051;
45.9000;1.2430;1.0101;
46.2000;1.2430;1.0076;
46.5000;1.2462;1.0126;
46.8000;1.2438;1.0051;
47.1000;1.2405;1.0026;
47.4000;1.2446;1.0152;
47.7000;1.2438;1.0101;
48.0000;1.2446;1.0126;
48.3000;1.2454;1.0152;
48.6000;1.2430;1.0101;
48.9000;1.2438;1.0076;
49.2000;1.2462;1.0126;
49.5000;1.2373;0.9950;
49.8000;1.2438;1.0000;
50.1000;1.2446;1.0000;
50.4000;1.2454;1.0076;
50.7000;1.2454;1.0126;
51.0000;1.2454;1.0177;
51.3000;1.2446;1.0202;
51.6000;1.2446;1.0202;
51.9000;1.2446;1.0202;
52.2000;1.2454;1.0202;
52.5000;1.2430;1.0177;
52.8000;1.2438;1.0177;
53.1000;1.2454;1.0202;
53.4000;1.2430;1.0252;
53.7000;1.2430;1.0303;
54.0000;1.2422;1.0202;
54.3000;1.2454;1.0303;
54.6000;1.2430;1.0252;
54.9000;1.2446;1.0278;
55.2000;1.2454;1.0227;
55.5000;1.2446;1.0101;
55.8000;1.2462;1.0177;
56.1000;1.2430;1.0152;
56.4000;1.2430;1.0177;
56.7000;1.2422;1.0202;
57.0000;1.2438;1.0227;
57.3000;1.2430;1.0252;
57.6000;1.2446;1.0227;
57.9000;1.2438;1.0252;
58.2000;1.2479;1.0303;
58.5000;1.2446;1.0252;
58.8000;1.2446;1.0227;
59.1000;1.2430;1.0177;
59.4000;1.2454;1.0252;
59.7000;1.2462;1.0252;
60.0000;1.2462;1.0202;
60.3000;1.2470;1.0202;
60.6000;1.2438;1.0202;
60.9000;1.2446;1.0227;
61.2000;1.2430;1.0076;
61.5000;1.2454;1.0152;
61.8000;1.2438;1.0202;
62.1000;1.2414;1.0177;
62.4000;1.2430;1.0227;
62.7000;1.2446;1.0177;
63.0000;1.2414;1.0126;
63.3000;1.2430;1.0126;
63.6000;1.2422;1.0126;
63.9000;1.2422;1.0177;
64.2000;1.2422;1.0126;
64.5000;1.2422;1.0202;
64.8000;1.2438;1.0126;
65.1000;1.2422;1.0076;
65.4000;1.2446;1.0076;
65.7000;1.2430;1.0026;
66.0000;1.2430;1.0076;
66.3000;1.2446;1.0076;
66.6000;1.2430;1.0051;
66.9000;1.2438;1.0227;
67.2000;1.2446;1.0227;
67.5000;1.2422;1.0152;
67.8000;1.2422;1.0126;
68.1000;1.2430;1.0202;
68.4000;1.2397;1.0000;
68.7000;1.2430;1.0026;
69.0000;1.2430;1.0026;
69.3000;1.2430;1.0051;
69.6000;1.2389;1.0000;
69.9000;1.2454;1.0202;
70.2000;1.2446;1.0252;
70.5000;1.2446;1.0227;
70.8000;1.2454;1.0278;
71.1000;1.2479;1.0328;
71.4000;1.2495;1.0353;
71.7000;1.2430;1.0227;
72.0000;1.2422;1.0227;
72.3000;1.2414;1.0252;
72.6000;1.2414;1.0152;
72.9000;1.2430;1.0177;
73.2000;1.2430;1.0126;
73.5000;1.2414;1.0101;
73.8000;1.2430;1.0152;
74.1000;1.2446;1.0252;
74.4000;1.2430;1.0126;
74.7000;1.2438;1.0252;
75.0000;1.2438;1.0328;
75.3000;1.2430;1.0328;
75.6000;1.2430;1.0353;
75.9000;1.2446;1.0403;
76.2000;1.2430;1.0353;
76.5000;1.2446;1.0353;
76.8000;1.2422;1.0303;
77.1000;1.2422;1.0303;
77.4000;1.2438;1.0303;
77.7000;1.2373;1.0177;
78.0000;1.2422;1.0353;
78.3000;1.2422;1.0378;
78.6000;1.2430;1.0328;
78.9000;1.2430;1.0227;
79.2000;1.2414;1.0177;
79.5000;1.2438;1.0303;
79.8000;1.2438;1.0202;
80.1000;1.2438;1.0202;
80.4000;1.2430;1.0152;
80.7000;1.2438;1.0202;
81.0000;1.2438;1.0202;
81.3000;1.2446;1.0202;
81.6000;1.2438;1.0177;
81.9000;1.2430;1.0152;
82.2000;1.2446;1.0227;
82.5000;1.2430;1.0227;
82.8000;1.2430;1.0303;
83.1000;1.2422;1.0303;
83.4000;1.2430;1.0328;
83.7000;1.2430;1.0353;
84.0000;1.2438;1.0353;
84.3000;1.2438;1.0403;
84.6000;1.2438;1.0328;
84.9000;1.2446;1.0353;
85.2000;1.2430;1.0252;
85.5000;1.2405;1.0202;
85.8000;1.2430;1.0227;
86.1000;1.2430;1.0252;
86.4000;1.2414;1.0177;
86.7000;1.2430;1.0303;
87.0000;1.2422;1.0378;
87.3000;1.2430;1.0378;
87.6000;1.2446;1.0378;
87.9000;1.2430;1.0353;
88.2000;1.2430;1.0378;
88.5000;1.2422;1.0403;
88.8000;1.2430;1.0328;
89.1000;1.2414;1.0328;
89.4000;1.2405;1.0278;
89.7000;1.2438;1.0403;
90.0000;1.2422;1.0353;
90.3000;1.2422;1.0378;
90.6000;1.2405;1.0378;
90.9000;1.2397;1.0328;
91.2000;1.2438;1.0378;
91.5000;1.2430;1.0303;
91.8000;1.2430;1.0328;
92.1000;1.2462;1.0353;
92.4000;1.2430;1.0328;
92.7000;1.2479;1.0429;
93.0000;1.2430;1.0278;
93.3000;1.2414;1.0252;
93.6000;1.2430;1.0252;
93.9000;1.2430;1.0353;
94.2000;1.2397;1.0252;
94.5000;1.2405;1.0278;
94.8000;1.2389;1.0227;
95.1000;1.2430;1.0378;
95.4000;1.2422;1.0454;
95.7000;1.2430;1.0479;
96.0000;1.2495;1.0731;
96.3000;1.2405;1.0328;
96.6000;1.2430;1.0353;
96.9000;1.2397;1.0252;
97.2000;1.2422;1.0328;
97.5000;1.2438;1.0403;
97.8000;1.2430;1.0353;
98.1000;1.2414;1.0328;
98.4000;1.2389;1.0252;
98.7000;1.2381;1.0076;
99.0000;1.2422;1.0202;
99.3000;1.2422;1.0202;
99.6000;1.2454;1.0227;
99.9000;1.2430;1.0177;
100.2000;1.2430;1.0177;
100.5000;1.2414;1.0152;
100.8000;1.2373;1.0026;
101.1000;1.2397;1.0101;
101.4000;1.2430;1.0202;
101.7000;1.2422;1.0202;
102.0000;1.2414;1.0152;
102.3000;1.2357;1.0051;
102.6000;1.2422;1.0227;
102.9000;1.2430;1.0227;
103.2000;1.2405;1.0202;
103.5000;1.2430;1.0303;
103.8000;1.2487;1.0504;
104.1000;1.2446;1.0403;
104.4000;1.2414;1.0303;
104.7000;1.2405;1.0252;
105.0000;1.2414;1.0303;
105.3000;1.2438;1.0403;
105.6000;1.2470;1.0454;
105.9000;1.2405;1.0353;
106.2000;1.2430;1.0278;
106.5000;1.2438;1.0252;
106.8000;1.2430;1.0303;
107.1000;1.2414;1.0227;
107.4000;1.2414;1.0177;
107.7000;1.2422;1.0227;
108.0000;1.2414;1.0278;
108.3000;1.2414;1.0278;
108.6000;1.2422;1.0403;
108.9000;1.2430;1.0328;
109.2000;1.2422;1.0328;
109.5000;1.2422;1.0252;
109.8000;1.2422;1.0227;
110.1000;1.2430;1.0227;
110.4000;1.2495;1.0454;
110.7000;1.2438;1.0303;
111.0000;1.2430;1.0227;
111.3000;1.2414;1.0202;
111.6000;1.2430;1.0152;
111.9000;1.2373;1.0076;
112.2000;1.2422;1.0202;
112.5000;1.2422;1.0278;
112.8000;1.2422;1.0303;
113.1000;1.2430;1.0303;
113.4000;1.2405;1.0202;
113.7000;1.2422;1.0227;
114.0000;1.2422;1.0227;
114.3000;1.2438;1.0252;
114.6000;1.2389;1.0202;
114.9000;1.2405;1.0278;
115.2000;1.2414;1.0278;
115.5000;1.2438;1.0303;
115.8000;1.2405;1.0252;
116.1000;1.2389;1.0303;
116.4000;1.2414;1.0353;
116.7000;1.2430;1.0353;
117.0000;1.2422;1.0353;
117.3000;1.2422;1.0353;
117.6000;1.2414;1.0303;
117.9000;1.2430;1.0278;
118.2000;1.2414;1.0177;
118.5000;1.2414;1.0152;
118.8000;1.2422;1.0252;
119.1000;1.2422;1.0303;
119.4000;1.2414;1.0227;
119.7000;1.2446;1.0202;
120.0000;1.2405;1.0152;
120.3000;1.2414;1.0278;
120.6000;1.2414;1.0303;
120.9000;1.2405;1.0303;
121.2000;1.2389;1.0252;
121.5000;1.2414;1.0252;
121.8000;1.2414;1.0328;
122.1000;1.2414;1.0328;
122.4000;1.2389;1.0278;
122.7000;1.2414;1.0328;
123.0000;1.2430;1.0328;
123.3000;1.2462;1.0328;
123.6000;1.2414;1.0278;
123.9000;1.2414;1.0378;
124.2000;1.2422;1.0353;
124.5000;1.2414;1.0378;
124.8000;1.2405;1.0378;
125.1000;1.2414;1.0353;
125.4000;1.2405;1.0328;
125.7000;1.2414;1.0429;
126.0000;1.2414;1.0403;
126.3000;1.2414;1.0378;
126.6000;1.2422;1.0378;
126.9000;1.2414;1.0429;
127.2000;1.2405;1.0378;
127.5000;1.2414;1.0429;
127.8000;1.2430;1.0403;
128.1000;1.2454;1.0378;
128.4000;1.2414;1.0303;
128.7000;1.2405;1.0378;
129.0000;1.2381;1.0328;
129.3000;1.2422;1.0353;
129.6000;1.2389;1.0303;
129.9000;1.2397;1.0403;
130.2000;1.2348;1.0177;
130.5000;1.2397;1.0328;
130.8000;1.2405;1.0278;
131.1000;1.2414;1.0303;
131.4000;1.2414;1.0278;
131.7000;1.2414;1.0303;
132.0000;1.2405;1.0328;
132.3000;1.2348;1.0227;
132.6000;1.2397;1.0429;
132.9000;1.2405;1.0479;
133.2000;1.2422;1.0403;
133.5000;1.2487;1.0580;
133.8000;1.2405;1.0278;
134.1000;1.2405;1.0303;
134.4000;1.2430;1.0353;
134.7000;1.2405;1.0303;
135.0000;1.2405;1.0303;
135.3000;1.2422;1.0328;
135.6000;1.2430;1.0303;
135.9000;1.2430;1.0278;
136.2000;1.2405;1.0303;
136.5000;1.2414;1.0303;
136.8000;1.2422;1.0278;
137.1000;1.2430;1.0278;
137.4000;1.2414;1.0177;
137.7000;1.2389;1.0076;
138.0000;1.2438;1.0202;
138.3000;1.2422;1.0126;
138.6000;1.2405;1.0152;
138.9000;1.2414;1.0152;
139.2000;1.2414;1.0152;
139.5000;1.2414;1.0202;
139.8000;1.2405;1.0152;
140.1000;1.2381;1.0101;
140.4000;1.2381;1.0126;
140.7000;1.2414;1.0202;
141.0000;1.2405;1.0202;
141.3000;1.2397;1.0202;
141.6000;1.2397;1.0126;
141.9000;1.2373;1.0126;
142.2000;1.2414;1.0252;
142.5000;1.2405;1.0227;
142.8000;1.2365;1.0026;
143.1000;1.2324;0.9975;
143.4000;1.2414;1.0202;
143.7000;1.2389;1.0177;
144.0000;1.2389;1.0177;
144.3000;1.2414;1.0328;
144.6000;1.2414;1.0353;
144.9000;1.2397;1.0403;
145.2000;1.2405;1.0429;
145.5000;1.2462;1.0555;
145.8000;1.2430;1.0454;
146.1000;1.2422;1.0454;
146.4000;1.2454;1.0454;
146.7000;1.2414;1.0278;
147.0000;1.2414;1.0278;
147.3000;1.2365;1.0152;
147.6000;1.2422;1.0328;
147.9000;1.2397;1.0227;
148.2000;1.2446;1.0353;
148.5000;1.2414;1.0328;
148.8000;1.2438;1.0403;
149.1000;1.2414;1.0278;
149.4000;1.2446;1.0353;
149.7000;1.2405;1.0227;
150.0000;1.2397;1.0126;
150.3000;1.2405;1.0152;
150.6000;1.2422;1.0227;
150.9000;1.2414;1.0252;
151.2000;1.2405;1.0303;
151.5000;1.2414;1.0227;
151.8000;1.2405;1.0101;
152.1000;1.2430;1.0152;
152.4000;1.2430;1.0278;
152.7000;1.2414;1.0202;
153.0000;1.2414;1.0152;
153.3000;1.2414;1.0152;
153.6000;1.2414;1.0152;
153.9000;1.2389;1.0051;
154.2000;1.2405;1.0000;
154.5000;1.2389;0.9975;
154.8000;1.2405;0.9975;
155.1000;1.2397;1.0000;
155.4000;1.2422;1.0076;
155.7000;1.2389;1.0051;
156.0000;1.2405;1.0152;
156.3000;1.2381;1.0202;
156.6000;1.2389;1.0227;
156.9000;1.2397;1.0202;
157.2000;1.2405;1.0252;
157.5000;1.2422;1.0353;
157.8000;1.2422;1.0328;
158.1000;1.2414;1.0227;
158.4000;1.2438;1.0177;
158.7000;1.2414;1.0126;
159.0000;1.2405;1.0051;
159.3000;1.2414;1.0000;
159.6000;1.2405;1.0076;
159.9000;1.2397;1.0101;
160.2000;1.2405;1.0101;
160.5000;1.2397;1.0152;
160.8000;1.2397;1.0177;
161.1000;1.2397;1.0202;
161.4000;1.2381;1.0202;
161.7000;1.2381;1.0252;
162.0000;1.2405;1.0252;
162.3000;1.2397;1.0303;
162.6000;1.2397;1.0328;
162.9000;1.2389;1.0328;
163.2000;1.2414;1.0378;
163.5000;1.2430;1.0429;
163.8000;1.2397;1.0328;
164.1000;1.2405;1.0429;
164.4000;1.2405;1.0353;
164.7000;1.2405;1.0303;
165.0000;1.2381;1.0278;
165.3000;1.2389;1.0252;
165.6000;1.2397;1.0177;
165.9000;1.2381;1.0126;
166.2000;1.2397;1.0076;
166.5000;1.2462;1.0101;
166.8000;1.2389;0.9950;
167.1000;1.2430;1.0000;
167.4000;1.2405;0.9975;
167.7000;1.2405;1.0051;
168.0000;1.2405;1.0101;
168.3000;1.2357;0.9950;
168.6000;1.2389;1.0177;
168.9000;1.2414;1.0152;
169.2000;1.2430;1.0126;
169.5000;1.2357;0.9950;
169.8000;1.2397;0.9975;
170.1000;1.2405;0.9975;
170.4000;1.2381;0.9874;
170.7000;1.2389;0.9925;
171.0000;1.2405;1.0000;
171.3000;1.2373;0.9925;
171.6000;1.2381;1.0076;
171.9000;1.2405;1.0202;
172.2000;1.2381;1.0177;
172.5000;1.2389;1.0252;
172.8000;1.2422;1.0403;
173.1000;1.2389;1.0353;
173.4000;1.2405;1.0353;
173.7000;1.2397;1.0353;
174.0000;1.2405;1.0328;
174.3000;1.2389;1.0303;
174.6000;1.2381;1.0328;
174.9000;1.2381;1.0403;
175.2000;1.2389;1.0353;
175.5000;1.2381;1.0278;
175.8000;1.2381;1.0303;
176.1000;1.2381;1.0252;
176.4000;1.2397;1.0303;
176.7000;1.2405;1.0353;
177.0000;1.2414;1.0353;
177.3000;1.2397;1.0378;
177.6000;1.2414;1.0328;
177.9000;1.2414;1.0403;
178.2000;1.2405;1.0278;
178.5000;1.2397;1.0252;
178.8000;1.2405;1.0227;
179.1000;1.2414;1.0328;
179.4000;1.2397;1.0353;
179.7000;1.2389;1.0403;
180.0000;1.2389;1.0454;
180.3000;1.2405;1.0403;
180.6000;1.2397;1.0353;
180.9000;1.2357;1.0252;
181.2000;1.2373;1.0252;
181.5000;1.2397;1.0303;
181.8000;1.2405;1.0328;
182.1000;1.2381;1.0353;
182.4000;1.2470;1.0605;
182.7000;1.2389;1.0403;
183.0000;1.2414;1.0479;
183.3000;1.2405;1.0479;
183.6000;1.2397;1.0429;
183.9000;1.2422;1.0504;
184.2000;1.2405;1.0479;
184.5000;1.2397;1.0403;
184.8000;1.2397;1.0353;
185.1000;1.2397;1.0303;
185.4000;1.2397;1.0353;
185.7000;1.2397;1.0328;
186.0000;1.2405;1.0403;
186.3000;1.2373;1.0353;
186.6000;1.2381;1.0429;
186.9000;1.2348;1.0328;
187.2000;1.2381;1.0403;
187.5000;1.2381;1.0403;
187.8000;1.2397;1.0353;
188.1000;1.2438;1.0429;
188.4000;1.2389;1.0403;
188.7000;1.2389;1.0278;
189.0000;1.2397;1.0227;
189.3000;1.2389;1.0202;
189.6000;1.2414;1.0202;
189.9000;1.2414;1.0227;
190.2000;1.2389;1.0152;
190.5000;1.2414;1.0227;
190.8000;1.2397;1.0227;
191.1000;1.2389;1.0252;
191.4000;1.2446;1.0353;
191.7000;1.2405;1.0177;
192.0000;1.2397;1.0152;
192.3000;1.2397;1.0303;
192.6000;1.2381;1.0353;
192.9000;1.2381;1.0328;
193.2000;1.2389;1.0303;
193.5000;1.2405;1.0353;
193.8000;1.2438;1.0454;
194.1000;1.2405;1.0479;
194.4000;1.2397;1.0403;
194.7000;1.2422;1.0403;
195.0000;1.2389;1.0278;
195.3000;1.2405;1.0227;
195.6000;1.2397;1.0227;
195.9000;1.2414;1.0227;
196.2000;1.2414;1.0227;
196.5000;1.2381;1.0152;
196.8000;1.2381;1.0152;
197.1000;1.2405;1.0303;
197.4000;1.2348;1.0126;
197.7000;1.2389;1.0202;
198.0000;1.2397;1.0252;
198.3000;1.2381;1.0202;
198.6000;1.2365;1.0177;
198.9000;1.2397;1.0278;
199.2000;1.2389;1.0454;
199.5000;1.2405;1.0454;
199.8000;1.2405;1.0504;
200.1000;1.2389;1.0504;
200.4000;1.2373;1.0429;
200.7000;1.2381;1.0353;
201.0000;1.2324;1.0278;
201.3000;1.2389;1.0403;
201.6000;1.2389;1.0303;
201.9000;1.2381;1.0252;
202.2000;1.2381;1.0328;
202.5000;1.2381;1.0303;
202.8000;1.2414;1.0328;
203.1000;1.2389;1.0328;
203.4000;1.2357;1.0227;
203.7000;1.2397;1.0227;
204.0000;1.2389;1.0278;
204.3000;1.2381;1.0278;
204.6000;1.2405;1.0252;
204.9000;1.2381;1.0278;
205.2000;1.2397;1.0278;
205.5000;1.2389;1.0202;
205.8000;1.2414;1.0227;
206.1000;1.2405;1.0303;
206.4000;1.2397;1.0303;
206.7000;1.2397;1.0227;
207.0000;1.2381;1.0227;
207.3000;1.2389;1.0303;
207.6000;1.2381;1.0252;
207.9000;1.2381;1.0378;
208.2000;1.2381;1.0429;
208.5000;1.2397;1.0479;
208.8000;1.2332;1.0227;
209.1000;1.2389;1.0328;
209.4000;1.2422;1.0378;
209.7000;1.2373;1.0202;
210.0000;1.2389;1.0227;
210.3000;1.2381;1.0202;
210.6000;1.2397;1.0101;
210.9000;1.2397;1.0126;
211.2000;1.2340;1.0026;
211.5000;1.2389;1.0152;
211.8000;1.2381;1.0126;
212.1000;1.2381;1.0252;
212.4000;1.2381;1.0303;
212.7000;1.2373;1.0328;
213.0000;1.2357;1.0328;
213.3000;1.2381;1.0328;
213.6000;1.2373;1.0278;
213.9000;1.2365;1.0177;
214.2000;1.2381;1.0278;
214.5000;1.2381;1.0278;
214.8000;1.2397;1.0202;
215.1000;1.2381;1.0152;
215.4000;1.2389;1.0177;
215.7000;1.2389;1.0126;
216.0000;1.2405;1.0202;
216.3000;1.2422;1.0278;
216.6000;1.2405;1.0152;
216.9000;1.2405;1.0328;
217.2000;1.2381;1.0328;
217.5000;1.2389;1.0353;
217.8000;1.2348;1.0303;
218.1000;1.2357;1.0328;
218.4000;1.2381;1.0353;
218.7000;1.2332;1.0227;
219.0000;1.2373;1.0378;
219.3000;1.2389;1.0479;
219.6000;1.2365;1.0353;
219.9000;1.2381;1.0429;
220.2000;1.2381;1.0504;
220.5000;1.2438;1.0655;
220.8000;1.2373;1.0504;
221.1000;1.2389;1.0555;
221.4000;1.2381;1.0429;
221.7000;1.2389;1.0353;
222.0000;1.2324;1.0202;
222.3000;1.2381;1.0278;
222.6000;1.2381;1.0378;
222.9000;1.2381;1.0353;
223.2000;1.2365;1.0303;
223.5000;1.2397;1.0378;
223.8000;1.2381;1.0328;
224.1000;1.2357;1.0278;
224.4000;1.2373;1.0328;
224.7000;1.2389;1.0403;
225.0000;1.2324;1.0252;
225.3000;1.2389;1.0504;
225.6000;1.2373;1.0403;
225.9000;1.2381;1.0403;
226.2000;1.2381;1.0353;
226.5000;1.2381;1.0328;
226.8000;1.2397;1.0303;
227.1000;1.2381;1.0303;
227.4000;1.2381;1.0303;
227.7000;1.2397;1.0278;
228.0000;1.2348;1.0227;
228.3000;1.2357;1.0227;
228.6000;1.2381;1.0303;
228.9000;1.2381;1.0328;
229.2000;1.2373;1.0227;
229.5000;1.2381;1.0227;
229.8000;1.2373;1.0278;
230.1000;1.2381;1.0303;
230.4000;1.2381;1.0353;
230.7000;1.2381;1.0278;
231.0000;1.2373;1.0252;
231.3000;1.2389;1.0353;
231.6000;1.2462;1.0403;
231.9000;1.2381;1.0126;
232.2000;1.2381;1.0101;
232.5000;1.2381;1.0152;
232.8000;1.2381;1.0177;
233.1000;1.2381;1.0202;
233.4000;1.2373;1.0177;
233.7000;1.2397;1.0303;
234.0000;1.2381;1.0278;
234.3000;1.2397;1.0378;
234.6000;1.2373;1.0328;
234.9000;1.2365;1.0353;
235.2000;1.2381;1.0378;
235.5000;1.2381;1.0353;
235.8000;1.2357;1.0378;
236.1000;1.2373;1.0328;
236.4000;1.2389;1.0403;
236.7000;1.2373;1.0303;
237.0000;1.2381;1.0278;
237.3000;1.2324;1.0126;
237.6000;1.2381;1.0202;
237.9000;1.2397;1.0227;
238.2000;1.2348;1.0126;
238.5000;1.2357;1.0152;
238.8000;1.2340;1.0126;
239.1000;1.2365;1.0152;
239.4000;1.2332;1.0076;
239.7000;1.2381;1.0278;
240.0000;1.2373;1.0303;
240.3000;1.2365;1.0303;
240.6000;1.2340;1.0202;
240.9000;1.2373;1.0303;
241.2000;1.2381;1.0252;
241.5000;1.2381;1.0252;
241.8000;1.2381;1.0252;
242.1000;1.2381;1.0328;
242.4000;1.2373;1.0353;
242.7000;1.2365;1.0303;
243.0000;1.2365;1.0252;
243.3000;1.2357;1.0202;
243.6000;1.2332;1.0126;
243.9000;1.2381;1.0252;
244.2000;1.2381;1.0328;
244.5000;1.2381;1.0278;
244.8000;1.2430;1.0378;
245.1000;1.2357;1.0152;
245.4000;1.2405;1.0328;
245.7000;1.2389;1.0227;
246.0000;1.2397;1.0152;
246.3000;1.2373;1.0126;
246.6000;1.2381;1.0177;
246.9000;1.2373;1.0076;
247.2000;1.2373;1.0126;
247.5000;1.2381;1.0227;
247.8000;1.2397;1.0328;
248.1000;1.2373;1.0227;
248.4000;1.2405;1.0252;
248.7000;1.2357;1.0126;
249.0000;1.2357;1.0202;
249.3000;1.2381;1.0278;
249.6000;1.2405;1.0303;
249.9000;1.2389;1.0303;
250.2000;1.2373;1.0278;
250.5000;1.2365;1.0328;
250.8000;1.2389;1.0353;
251.1000;1.2381;1.0252;
251.4000;1.2381;1.0303;
251.7000;1.2373;1.0328;
252.0000;1.2381;1.0278;
252.3000;1.2373;1.0227;
252.6000;1.2365;1.0278;
252.9000;1.2381;1.0328;
253.2000;1.2381;1.0403;
253.5000;1.2405;1.0378;
253.8000;1.2430;1.0378;
254.1000;1.2381;1.0303;
254.4000;1.2381;1.0328;
254.7000;1.2365;1.0278;
255.0000;1.2381;1.0353;
255.3000;1.2357;1.0378;
255.6000;1.2381;1.0429;
255.9000;1.2438;1.0504;
256.2000;1.2381;1.0278;
256.5000;1.2373;1.0278;
256.8000;1.2397;1.0278;
257.1000;1.2381;1.0252;
257.4000;1.2340;1.0152;
257.7000;1.2365;1.0126;
258.0000;1.2357;1.0126;
258.3000;1.2373;1.0152;
258.6000;1.2373;1.0202;
258.9000;1.2365;1.0252;
259.2000;1.2381;1.0303;
259.5000;1.2373;1.0353;
259.8000;1.2373;1.0353;
260.1000;1.2308;1.0202;
260.4000;1.2373;1.0328;
260.7000;1.2348;1.0227;
261.0000;1.2340;1.0177;
261.3000;1.2373;1.0303;
261.6000;1.2357;1.0278;
261.9000;1.2381;1.0303;
262.2000;1.2389;1.0328;
262.5000;1.2373;1.0278;
262.8000;1.2357;1.0202;
263.1000;1.2365;1.0101;
263.4000;1.2340;1.0076;
263.7000;1.2373;1.0177;
264.0000;1.2357;1.0202;
264.3000;1.2340;1.0076;
264.6000;1.2389;1.0252;
264.9000;1.2365;1.0303;
265.2000;1.2373;1.0227;
265.5000;1.2365;1.0177;
265.8000;1.2381;1.0202;
266.1000;1.2373;1.0303;
266.4000;1.2340;1.0177;
266.7000;1.2300;1.0101;
267.0000;1.2373;1.0353;
267.3000;1.2373;1.0303;
267.6000;1.2373;1.0252;
267.9000;1.2365;1.0252;
268.2000;1.2381;1.0328;
268.5000;1.2373;1.0252;
268.8000;1.2389;1.0126;
269.1000;1.2373;1.0126;
269.4000;1.2373;1.0152;
269.7000;1.2373;1.0152;
270.0000;1.2389;1.0126;
270.3000;1.2397;1.0202;
270.6000;1.2365;1.0202;
270.9000;1.2373;1.0227;
271.2000;1.2373;1.0202;
271.5000;1.2373;1.0152;
271.8000;1.2373;1.0177;
272.1000;1.2373;1.0177;
272.4000;1.2430;1.0278;
272.7000;1.2381;1.0177;
273.0000;1.2381;1.0177;
273.3000;1.2365;1.0101;
273.6000;1.2381;1.0152;
273.9000;1.2381;1.0126;
274.2000;1.2381;1.0126;
274.5000;1.2381;1.0202;
274.8000;1.2381;1.0202;
275.1000;1.2397;1.0152;
275.4000;1.2381;1.0177;
275.7000;1.2365;1.0126;
276.0000;1.2381;1.0126;
276.3000;1.2373;1.0152;
276.6000;1.2405;1.0177;
276.9000;1.2373;1.0101;
277.2000;1.2340;1.0101;
277.5000;1.2365;1.0202;
277.8000;1.2357;1.0177;
278.1000;1.2357;1.0252;
278.4000;1.2381;1.0202;
278.7000;1.2381;1.0177;
279.0000;1.2357;1.0177;
279.3000;1.2357;1.0177;
279.6000;1.2373;1.0202;
279.9000;1.2373;1.0126;
280.2000;1.2365;1.0126;
280.5000;1.2357;1.0152;
280.8000;1.2340;1.0152;
281.1000;1.2316;1.0126;
281.4000;1.2365;1.0202;
281.7000;1.2348;1.0076;
282.0000;1.2373;1.0026;
282.3000;1.2438;1.0126;
282.6000;1.2373;1.0026;
282.9000;1.2332;0.9950;
283.2000;1.2373;1.0177;
283.5000;1.2357;1.0126;
283.8000;1.2389;1.0177;
284.1000;1.2446;1.0278;
284.4000;1.2365;1.0126;
284.7000;1.2373;1.0177;
285.0000;1.2373;1.0278;
285.3000;1.2357;1.0177;
285.6000;1.2373;1.0101;
285.9000;1.2348;1.0076;
286.2000;1.2348;1.0152;
286.5000;1.2373;1.0227;
286.8000;1.2389;1.0252;
287.1000;1.2397;1.0252;
287.4000;1.2365;1.0126;
287.7000;1.2373;1.0126;
288.0000;1.2365;1.0101;
288.3000;1.2373;1.0101;
288.6000;1.2365;1.0101;
288.9000;1.2373;1.0101;
289.2000;1.2381;1.0126;
289.5000;1.2373;1.0126;
289.8000;1.2324;1.0126;
290.1000;1.2381;1.0278;
290.4000;1.2389;1.0303;
290.7000;1.2373;1.0252;
291.0000;1.2365;1.0126;
291.3000;1.2365;1.0202;
291.6000;1.2291;1.0101;
291.9000;1.2373;1.0278;
292.2000;1.2365;1.0177;
292.5000;1.2381;1.0177;
292.8000;1.2373;1.0177;
293.1000;1.2373;1.0202;
293.4000;1.2365;1.0303;
293.7000;1.2373;1.0403;
294.0000;1.2365;1.0378;
294.3000;1.2365;1.0353;
294.6000;1.2348;1.0328;
294.9000;1.2365;1.0328;
295.2000;1.2365;1.0278;
295.5000;1.2340;1.0177;
295.8000;1.2357;1.0177;
296.1000;1.2365;1.0202;
296.4000;1.2365;1.0152;
296.7000;1.2365;1.0177;
297.0000;1.2365;1.0152;
297.3000;1.2340;1.0152;
297.6000;1.2381;1.0378;
297.9000;1.2397;1.0403;
298.2000;1.2389;1.0328;
298.5000;1.2365;1.0227;
298.8000;1.2373;1.0202;
299.1000;1.2381;1.0252;
299.4000;1.2365;1.0202;
299.7000;1.2357;1.0227;
300.0000;1.2381;1.0278;
300.3000;1.2357;1.0177;
300.6000;1.2381;1.0202;
300.9000;1.2340;1.0227;
301.2000;1.2348;1.0202;
301.5000;1.2373;1.0202;
301.8000;1.2381;1.0303;
302.1000;1.2365;1.0202;
302.4000;1.2357;1.0202;
302.7000;1.2357;1.0202;
303.0000;1.2365;1.0227;
303.3000;1.2365;1.0278;
303.6000;1.2348;1.0378;
303.9000;1.2381;1.0454;
304.2000;1.2365;1.0353;
304.5000;1.2373;1.0353;
304.8000;1.2373;1.0278;
305.1000;1.2389;1.0328;
305.4000;1.2365;1.0202;
305.7000;1.2357;1.0152;
306.0000;1.2381;1.0177;
306.3000;1.2357;1.0202;
306.6000;1.2373;1.0126;
306.9000;1.2357;1.0076;
307.2000;1.2332;1.0051;
307.5000;1.2348;1.0126;
307.8000;1.2348;1.0076;
308.1000;1.2357;1.0051;
308.4000;1.2365;0.9950;
308.7000;1.2373;0.9950;
309.0000;1.2348;0.9900;
309.3000;1.2373;0.9975;
309.6000;1.2357;1.0000;
309.9000;1.2357;0.9975;
310.2000;1.2357;0.9975;
310.5000;1.2332;1.0000;
310.8000;1.2348;1.0051;
311.1000;1.2357;1.0202;
311.4000;1.2389;1.0328;
311.7000;1.2300;1.0026;
312.0000;1.2357;1.0227;
312.3000;1.2340;1.0202;
312.6000;1.2348;1.0076;
312.9000;1.2348;1.0126;
313.2000;1.2365;1.0126;
313.5000;1.2365;1.0101;
313.8000;1.2324;1.0076;
314.1000;1.2340;1.0126;
314.4000;1.2348;1.0177;
314.7000;1.2365;1.0152;
315.0000;1.2348;1.0101;
315.3000;1.2365;1.0026;
315.6000;1.2357;1.0051;
315.9000;1.2357;1.0152;
316.2000;1.2357;1.0126;
316.5000;1.2357;1.0126;
316.8000;1.2373;1.0177;
317.1000;1.2365;1.0076;
317.4000;1.2357;1.0101;
317.7000;1.2348;1.0026;
318.0000;1.2357;1.0101;
318.3000;1.2300;0.9950;
318.6000;1.2381;1.0051;
318.9000;1.2357;0.9950;
319.2000;1.2365;0.9925;
319.5000;1.2373;0.9950;
319.8000;1.2365;1.0026;
320.1000;1.2365;0.9975;
320.4000;1.2348;0.9874;
320.7000;1.2365;0.9950;
321.0000;1.2365;1.0000;
321.3000;1.2381;1.0026;
321.6000;1.2357;1.0000;
321.9000;1.2365;1.0000;
322.2000;1.2373;1.0026;
322.5000;1.2373;1.0000;
322.8000;1.2381;1.0000;
323.1000;1.2373;1.0076;
323.4000;1.2381;1.0152;
323.7000;1.2365;1.0076;
324.0000;1.2340;1.0026;
324.3000;1.2365;1.0101;
324.6000;1.2357;1.0152;
324.9000;1.2373;1.0152;
325.2000;1.2348;1.0177;
325.5000;1.2357;1.0202;
325.8000;1.2348;1.0152;
326.1000;1.2348;1.0152;
326.4000;1.2340;1.0101;
326.7000;1.2357;1.0177;
327.0000;1.2332;1.0126;
327.3000;1.2357;1.0126;
327.6000;1.2365;1.0177;
327.9000;1.2357;1.0202;
328.2000;1.2357;1.0177;
328.5000;1.2348;1.0152;
328.8000;1.2365;1.0152;
329.1000;1.2316;1.0076;
329.4000;1.2332;1.0126;
329.7000;1.2357;1.0051;
330.0000;1.2381;1.0101;
330.3000;1.2365;1.0026;
330.6000;1.2405;1.0126;
330.9000;1.2332;0.9975;
331.2000;1.2365;1.0152;
331.5000;1.2365;1.0202;
331.8000;1.2348;1.0076;
332.1000;1.2365;1.0000;
332.4000;1.2381;0.9950;
332.7000;1.2365;0.9975;
333.0000;1.2357;0.9950;
333.3000;1.2389;0.9950;
333.6000;1.2373;0.9975;
333.9000;1.2332;0.9950;
334.2000;1.2348;1.0000;
334.5000;1.2332;1.0000;
334.8000;1.2365;1.0051;
335.1000;1.2332;1.0026;
335.4000;1.2348;1.0126;
335.7000;1.2340;1.0101;
336.0000;1.2357;1.0152;
336.3000;1.2365;1.0152;
336.6000;1.2332;1.0000;
336.9000;1.2316;0.9925;
337.2000;1.2324;0.9900;
337.5000;1.2357;0.9975;
337.8000;1.2340;0.9975;
338.1000;1.2348;1.0026;
338.4000;1.2348;1.0000;
338.7000;1.2357;1.0000;
339.0000;1.2365;0.9925;
339.3000;1.2348;0.9950;
339.6000;1.2357;0.9950;
339.9000;1.2340;0.9900;
340.2000;1.2357;1.0000;
340.5000;1.2316;0.9925;
340.8000;1.2348;1.0026;
341.1000;1.2357;1.0000;
341.4000;1.2373;1.0051;
341.7000;1.2397;1.0076;
342.0000;1.2365;0.9950;
342.3000;1.2397;0.9925;
342.6000;1.2332;0.9799;
342.9000;1.2357;0.9874;
343.2000;1.2365;0.9824;
343.5000;1.2373;0.9874;
343.8000;1.2365;0.9900;
344.1000;1.2357;0.9900;
344.4000;1.2340;0.9824;
344.7000;1.2357;0.9849;
345.0000;1.2348;0.9849;
345.3000;1.2348;0.9749;
345.6000;1.2348;0.9774;
345.9000;1.2340;0.9824;
346.2000;1.2357;0.9849;
346.5000;1.2340;0.9824;
346.8000;1.2365;0.9925;
347.1000;1.2340;0.9900;
347.4000;1.2340;0.9950;
347.7000;1.2373;1.0026;
348.0000;1.2348;0.9925;
348.3000;1.2365;0.9925;
348.6000;1.2422;0.9975;
348.9000;1.2365;0.9874;
349.2000;1.2365;0.9925;
349.5000;1.2365;0.9874;
349.8000;1.2332;0.9774;
350.1000;1.2365;0.9874;
350.4000;1.2348;0.9849;
350.7000;1.2332;0.9849;
351.0000;1.2373;0.9975;
351.3000;1.2332;0.9925;
351.6000;1.2373;0.9975;
351.9000;1.2365;0.9975;
352.2000;1.2340;0.9950;
352.5000;1.2348;0.9925;
352.8000;1.2348;0.9975;
353.1000;1.2348;0.9900;
353.4000;1.2316;0.9874;
353.7000;1.2324;0.9950;
354.0000;1.2348;0.9900;
354.3000;1.2365;0.9849;
354.6000;1.2373;0.9824;
354.9000;1.2340;0.9723;
355.2000;1.2324;0.9673;
355.5000;1.2324;0.9698;
355.8000;1.2267;0.9522;
356.1000;1.2340;0.9849;
356.4000;1.2348;0.9950;
356.7000;1.2308;0.9723;
357.0000;1.2357;0.9824;
357.3000;1.2332;0.9774;
357.6000;1.2348;0.9874;
357.9000;1.2365;0.9950;
358.2000;1.2381;0.9900;
358.5000;1.2357;0.9874;
358.8000;1.2308;0.9824;
359.1000;1.2340;0.9774;
359.4000;1.2332;0.9749;
359.7000;1.2340;0.9799;
360.0000;1.2348;0.9849;
360.3000;1.2324;0.9849;
360.6000;1.2332;0.9900;
360.9000;1.2348;1.0026;
361.2000;1.2332;1.0076;
361.5000;1.2340;1.0101;
361.8000;1.2405;1.0202;
362.1000;1.2332;1.0026;
362.4000;1.2357;1.0000;
362.7000;1.2348;0.9950;
363.0000;1.2357;0.9925;
363.3000;1.2340;0.9849;
363.6000;1.2389;0.9975;
363.9000;1.2332;0.9874;
364.2000;1.2332;0.9849;
364.5000;1.2332;0.9874;
364.8000;1.2332;0.9849;
365.1000;1.2348;0.9799;
365.4000;1.2332;0.9824;
365.7000;1.2340;0.9950;
366.0000;1.2357;1.0026;
366.3000;1.2340;0.9950;
366.6000;1.2340;0.9900;
366.9000;1.2340;0.9849;
367.2000;1.2324;0.9874;
367.5000;1.2348;0.9749;
367.8000;1.2348;0.9799;
368.1000;1.2324;0.9799;
368.4000;1.2348;0.9874;
368.7000;1.2348;0.9824;
369.0000;1.2340;0.9799;
369.3000;1.2438;1.0000;
369.6000;1.2357;0.9698;
369.9000;1.2357;0.9723;
370.2000;1.2348;0.9774;
370.5000;1.2340;0.9774;
370.8000;1.2348;0.9874;
371.1000;1.2365;0.9799;
371.4000;1.2357;0.9749;
371.7000;1.2357;0.9799;
372.0000;1.2357;0.9874;
372.3000;1.2340;0.9849;
372.6000;1.2340;0.9774;
372.9000;1.2348;0.9799;
373.2000;1.2300;0.9774;
373.5000;1.2357;0.9975;
373.8000;1.2340;0.9975;
374.1000;1.2357;0.9975;
374.4000;1.2332;1.0000;
374.7000;1.2340;1.0076;
375.0000;1.2324;1.0101;
375.3000;1.2332;1.0126;
375.6000;1.2348;1.0126;
375.9000;1.2291;0.9900;
376.2000;1.2332;0.9900;
376.5000;1.2340;0.9874;
376.8000;1.2332;0.9900;
377.1000;1.2332;0.9900;
377.4000;1.2332;0.9849;
377.7000;1.2332;0.9925;
378.0000;1.2324;0.9874;
378.3000;1.2357;0.9874;
378.6000;1.2348;0.9900;
378.9000;1.2340;0.9925;
379.2000;1.2422;1.0051;
379.5000;1.2340;0.9849;
379.8000;1.2357;0.9849;
380.1000;1.2316;0.9799;
380.4000;1.2332;0.9774;
380.7000;1.2340;0.9723;
381.0000;1.2324;0.9698;
381.3000;1.2340;0.9774;
381.6000;1.2332;0.9799;
381.9000;1.2373;1.0026;
382.2000;1.2340;0.9950;
382.5000;1.2332;0.9975;
382.8000;1.2316;0.9874;
383.1000;1.2324;0.9799;
383.4000;1.2340;0.9749;
383.7000;1.2340;0.9673;
384.0000;1.2332;0.9698;
384.3000;1.2340;0.9723;
384.6000;1.2332;0.9749;
384.9000;1.2267;0.9522;
385.2000;1.2365;0.9673;
385.5000;1.2324;0.9572;
385.8000;1.2340;0.9698;
386.1000;1.2348;0.9774;
386.4000;1.2340;0.9749;
386.7000;1.2414;0.9925;
387.0000;1.2340;0.9723;
387.3000;1.2340;0.9799;
387.6000;1.2324;0.9749;
387.9000;1.2340;0.9749;
388.2000;1.2348;0.9900;
388.5000;1.2340;0.9900;
388.8000;1.2348;0.9774;
389.1000;1.2332;0.9799;
389.4000;1.2332;0.9874;
389.7000;1.2340;0.9874;
390.0000;1.2300;0.9799;
390.3000;1.2324;0.9950;
390.6000;1.2332;0.9874;
390.9000;1.2316;0.9849;
391.2000;1.2332;0.9824;
391.5000;1.2332;0.9749;
391.8000;1.2324;0.9749;
392.1000;1.2332;0.9774;
392.4000;1.2308;0.9723;
392.7000;1.2332;0.9849;
393.0000;1.2340;0.9849;
393.3000;1.2430;1.0026;
393.6000;1.2332;0.9849;
393.9000;1.2340;0.9824;
394.2000;1.2348;0.9849;
394.5000;1.2340;0.9900;
394.8000;1.2357;0.9849;
395.1000;1.2373;0.9975;
395.4000;1.2340;0.9950;
395.7000;1.2332;0.9900;
396.0000;1.2332;0.9874;
396.3000;1.2332;0.9925;
396.6000;1.2332;0.9874;
396.9000;1.2332;0.9849;
397.2000;1.2332;0.9874;
397.5000;1.2348;0.9975;
397.8000;1.2340;0.9975;
398.1000;1.2357;1.0026;
398.4000;1.2357;0.9925;
398.7000;1.2348;0.9824;
399.0000;1.2340;0.9824;
399.3000;1.2324;0.9874;
399.6000;1.2348;1.0000;
399.9000;1.2332;0.9874;
400.2000;1.2316;0.9824;
400.5000;1.2291;0.9799;
400.8000;1.2332;0.9925;
401.1000;1.2316;0.9874;
401.4000;1.2332;0.9900;
401.7000;1.2308;0.9824;
402.0000;1.2291;0.9774;
402.3000;1.2340;0.9774;
402.6000;1.2324;0.9774;
402.9000;1.2340;0.9824;
403.2000;1.2324;0.9874;
403.5000;1.2316;0.9874;
403.8000;1.2340;0.9925;
404.1000;1.2389;1.0126;
404.4000;1.2324;0.9849;
404.7000;1.2348;0.9950;
405.0000;1.2340;1.0026;
405.3000;1.2332;1.0000;
405.6000;1.2348;0.9950;
405.9000;1.2324;0.9874;
406.2000;1.2357;1.0000;
406.5000;1.2324;0.9849;
406.8000;1.2324;0.9849;
407.1000;1.2324;0.9774;
407.4000;1.2332;0.9849;
407.7000;1.2332;0.9950;
408.0000;1.2340;1.0000;
408.3000;1.2340;1.0101;
408.6000;1.2348;1.0152;
408.9000;1.2348;1.0252;
409.2000;1.2340;1.0252;
409.5000;1.2316;1.0177;
409.8000;1.2357;1.0227;
410.1000;1.2332;1.0051;
410.4000;1.2340;1.0026;
410.7000;1.2332;1.0000;
411.0000;1.2324;1.0051;
411.3000;1.2357;1.0152;
411.6000;1.2324;1.0051;
411.9000;1.2332;1.0126;
412.2000;1.2348;1.0227;
412.5000;1.2324;1.0278;
412.8000;1.2324;1.0353;
413.1000;1.2332;1.0303;
413.4000;1.2389;1.0479;
413.7000;1.2340;1.0403;
414.0000;1.2348;1.0378;
414.3000;1.2340;1.0227;
414.6000;1.2300;1.0177;
414.9000;1.2324;1.0227;
415.2000;1.2332;1.0328;
415.5000;1.2324;1.0278;
415.8000;1.2324;1.0403;
416.1000;1.2357;1.0479;
416.4000;1.2332;1.0353;
416.7000;1.2340;1.0353;
417.0000;1.2348;1.0378;
417.3000;1.2332;1.0328;
417.6000;1.2324;1.0278;
417.9000;1.2332;1.0278;
418.2000;1.2324;1.0353;
418.5000;1.2332;1.0328;
418.8000;1.2340;1.0303;
419.1000;1.2340;1.0378;
419.4000;1.2324;1.0328;
419.7000;1.2373;1.0403;
420.0000;1.2340;1.0378;
420.3000;1.2332;1.0353;
420.6000;1.2340;1.0303;
420.9000;1.2340;1.0202;
421.2000;1.2324;1.0126;
421.5000;1.2332;1.0227;
421.8000;1.2308;1.0227;
422.1000;1.2316;1.0252;
422.4000;1.2340;1.0303;
422.7000;1.2332;1.0353;
423.0000;1.2357;1.0429;
423.3000;1.2324;1.0353;
423.6000;1.2308;1.0303;
423.9000;1.2324;1.0328;
424.2000;1.2348;1.0378;
424.5000;1.2332;1.0353;
424.8000;1.2332;1.0328;
425.1000;1.2332;1.0303;
425.4000;1.2357;1.0328;
425.7000;1.2324;1.0152;
426.0000;1.2332;1.0227;
426.3000;1.2357;1.0252;
426.6000;1.2308;1.0152;
426.9000;1.2275;1.0076;
427.2000;1.2283;1.0051;
427.5000;1.2308;1.0202;
427.8000;1.2316;1.0303;
428.1000;1.2348;1.0378;
428.4000;1.2324;1.0252;
428.7000;1.2365;1.0353;
429.0000;1.2340;1.0278;
429.3000;1.2308;1.0227;
429.6000;1.2316;1.0152;
429.9000;1.2283;1.0076;
430.2000;1.2275;1.0026;
430.5000;1.2332;1.0227;
430.8000;1.2324;1.0227;
431.1000;1.2332;1.0303;
431.4000;1.2414;1.0504;
431.7000;1.2308;1.0252;
432.0000;1.2308;1.0227;
432.3000;1.2324;1.0202;
432.6000;1.2259;1.0026;
432.9000;1.2308;1.0177;
433.2000;1.2324;1.0202;
433.5000;1.2348;1.0278;
433.8000;1.2332;1.0252;
434.1000;1.2324;1.0227;
434.4000;1.2324;1.0152;
434.7000;1.2357;1.0202;
435.0000;1.2332;1.0101;
435.3000;1.2332;1.0126;
435.6000;1.2324;1.0126;
435.9000;1.2316;1.0126;
436.2000;1.2308;1.0101;
436.5000;1.2324;1.0000;
436.8000;1.2332;0.9950;
437.1000;1.2324;0.9925;
437.4000;1.2234;0.9749;
437.7000;1.2316;1.0000;
438.0000;1.2348;1.0126;
438.3000;1.2324;1.0126;
438.6000;1.2348;1.0152;
438.9000;1.2324;1.0051;
439.2000;1.2316;0.9950;
439.5000;1.2357;1.0026;
439.8000;1.2348;1.0101;
440.1000;1.2243;0.9900;
440.4000;1.2267;0.9950;
440.7000;1.2332;1.0051;
441.0000;1.2324;0.9975;
441.3000;1.2316;1.0051;
441.6000;1.2340;1.0076;
441.9000;1.2324;1.0000;
442.2000;1.2324;0.9975;
442.5000;1.2251;0.9824;
442.8000;1.2316;0.9975;
443.1000;1.2324;0.9925;
443.4000;1.2316;0.9950;
443.7000;1.2340;1.0076;
444.0000;1.2324;1.0101;
444.3000;1.2324;1.0051;
444.6000;1.2405;1.0227;
444.9000;1.2340;1.0026;
445.2000;1.2332;1.0076;
445.5000;1.2316;1.0000;
445.8000;1.2340;1.0126;
446.1000;1.2308;0.9975;
446.4000;1.2373;1.0152;
446.7000;1.2332;1.0026;
447.0000;1.2332;1.0026;
447.3000;1.2348;1.0051;
447.6000;1.2332;1.0051;
447.9000;1.2324;1.0026;
448.2000;1.2324;1.0101;
448.5000;1.2340;1.0152;
448.8000;1.2324;1.0126;
449.1000;1.2316;1.0101;
449.4000;1.2275;1.0026;
449.7000;1.2332;1.0227;
450.0000;1.2332;1.0177;
450.3000;1.2291;1.0152;
450.6000;1.2348;1.0278;
450.9000;1.2357;1.0278;
451.2000;1.2405;1.0328;
451.5000;1.2332;1.0152;
451.8000;1.2316;1.0126;
452.1000;1.2332;1.0101;
452.4000;1.2365;1.0152;
452.7000;1.2332;1.0076;
453.0000;1.2308;1.0026;
453.3000;1.2316;1.0076;
453.6000;1.2324;1.0152;
453.9000;1.2291;1.0026;
454.2000;1.2308;1.0101;
454.5000;1.2324;1.0101;
454.8000;1.2373;1.0227;
455.1000;1.2332;1.0126;
455.4000;1.2324;1.0076;
455.7000;1.2300;1.0026;
456.0000;1.2316;1.0076;
456.3000;1.2316;1.0126;
456.6000;1.2291;1.0051;
456.9000;1.2324;1.0126;
457.2000;1.2324;1.0152;
457.5000;1.2316;1.0126;
457.8000;1.2381;1.0278;
458.1000;1.2316;1.0177;
458.4000;1.2332;1.0177;
458.7000;1.2316;1.0126;
459.0000;1.2357;1.0101;
459.3000;1.2300;0.9950;
459.6000;1.2324;1.0076;
459.9000;1.2324;1.0026;
460.2000;1.2340;1.0000;
460.5000;1.2316;0.9950;
460.8000;1.2324;1.0000;
461.1000;1.2332;1.0026;
461.4000;1.2332;1.0026;
461.7000;1.2332;1.0101;
462.0000;1.2308;1.0000;
462.3000;1.2308;1.0000;
462.6000;1.2324;0.9975;
462.9000;1.2324;0.9975;
463.2000;1.2316;1.0000;
463.5000;1.2348;1.0076;
463.8000;1.2332;1.0051;
464.1000;1.2316;1.0051;
464.4000;1.2324;1.0000;
464.7000;1.2316;0.9975;
465.0000;1.2332;1.0000;
465.3000;1.2340;1.0026;
465.6000;1.2340;1.0101;
465.9000;1.2316;1.0152;
466.2000;1.2332;1.0227;
466.5000;1.2332;1.0202;
466.8000;1.2340;1.0202;
467.1000;1.2324;1.0152;
467.4000;1.2324;1.0152;
467.7000;1.2348;1.0202;
468.0000;1.2316;1.0101;
468.3000;1.2324;1.0177;
468.6000;1.2291;1.0152;
468.9000;1.2332;1.0353;
469.2000;1.2324;1.0353;
469.5000;1.2340;1.0403;
469.8000;1.2308;1.0303;
470.1000;1.2316;1.0378;
470.4000;1.2332;1.0353;
470.7000;1.2308;1.0252;
471.0000;1.2332;1.0252;
471.3000;1.2340;1.0177;
471.6000;1.2332;1.0076;
471.9000;1.2324;1.0076;
472.2000;1.2324;1.0076;
472.5000;1.2324;1.0051;
472.8000;1.2291;1.0000;
473.1000;1.2332;1.0101;
473.4000;1.2316;1.0126;
473.7000;1.2324;1.0101;
474.0000;1.2332;1.0227;
474.3000;1.2291;1.0177;
474.6000;1.2308;1.0177;
474.9000;1.2316;1.0177;
475.2000;1.2340;1.0353;
475.5000;1.2324;1.0252;
475.8000;1.2324;1.0101;
476.1000;1.2316;1.0051;
476.4000;1.2283;0.9950;
476.7000;1.2275;0.9975;
477.0000;1.2324;1.0076;
477.3000;1.2324;1.0026;
477.6000;1.2332;1.0101;
477.9000;1.2340;1.0051;
478.2000;1.2332;1.0051;
478.5000;1.2316;1.0000;
478.8000;1.2316;0.9874;
479.1000;1.2308;0.9849;
479.4000;1.2340;1.0026;
479.7000;1.2332;1.0076;
480.0000;1.2332;1.0126;
480.3000;1.2340;1.0152;
480.6000;1.2316;1.0076;
480.9000;1.2300;1.0051;
481.2000;1.2324;1.0101;
481.5000;1.2332;1.0026;
481.8000;1.2332;1.0051;
482.1000;1.2332;0.9975;
482.4000;1.2324;0.9900;
482.7000;1.2324;0.9900;
483.0000;1.2300;0.9950;
483.3000;1.2300;0.9950;
483.6000;1.2300;0.9849;
483.9000;1.2308;0.9874;
484.2000;1.2291;0.9799;
484.5000;1.2324;0.9925;
484.8000;1.2308;0.9849;
485.1000;1.2324;0.9874;
485.4000;1.2275;0.9874;
485.7000;1.2324;1.0026;
486.0000;1.2316;0.9925;
486.3000;1.2324;0.9849;
486.6000;1.2308;0.9849;
486.9000;1.2324;0.9925;
487.2000;1.2324;1.0026;
487.5000;1.2316;1.0000;
487.8000;1.2316;1.0000;
488.1000;1.2381;1.0177;
488.4000;1.2291;1.0101;
488.7000;1.2308;1.0126;
489.0000;1.2316;1.0126;
489.3000;1.2316;1.0026;
489.6000;1.2316;1.0000;
489.9000;1.2348;1.0051;
490.2000;1.2283;0.9824;
490.5000;1.2324;1.0000;
490.8000;1.2340;1.0026;
491.1000;1.2300;1.0000;
491.4000;1.2308;0.9950;
491.7000;1.2308;0.9925;
492.0000;1.2210;0.9623;
492.3000;1.2300;0.9874;
492.6000;1.2340;1.0026;
492.9000;1.2332;0.9925;
493.2000;1.2300;0.9925;
493.5000;1.2316;0.9950;
493.8000;1.2308;0.9874;
494.1000;1.2324;0.9874;
494.4000;1.2308;0.9874;
494.7000;1.2300;0.9824;
495.0000;1.2308;0.9749;
495.3000;1.2308;0.9723;
495.6000;1.2332;0.9849;
495.9000;1.2324;0.9900;
496.2000;1.2316;0.9900;
496.5000;1.2316;0.9975;
496.8000;1.2243;0.9774;
497.1000;1.2308;0.9975;
497.4000;1.2300;0.9950;
497.7000;1.2300;0.9950;
498.0000;1.2316;1.0026;
498.3000;1.2300;1.0000;
498.6000;1.2300;0.9925;
498.9000;1.2283;0.9900;
499.2000;1.2243;0.9824;
499.5000;1.2316;1.0000;
499.8000;1.2300;1.0000;
500.1000;1.2283;0.9900;
500.4000;1.2300;0.9824;
500.7000;1.2332;1.0051;
501.0000;1.2308;0.9975;
501.3000;1.2324;0.9950;
501.6000;1.2283;0.9900;
501.9000;1.2283;0.9950;
502.2000;1.2308;1.0051;
502.5000;1.2316;1.0101;
502.8000;1.2365;1.0177;
503.1000;1.2300;1.0000;
503.4000;1.2324;0.9975;
503.7000;1.2308;0.9900;
504.0000;1.2275;0.9849;
504.3000;1.2291;0.9925;
504.6000;1.2316;0.9925;
504.9000;1.2324;0.9950;
505.2000;1.2308;0.9950;
505.5000;1.2308;0.9975;
505.8000;1.2324;0.9975;
506.1000;1.2300;1.0000;
506.4000;1.2316;0.9975;
506.7000;1.2316;0.9950;
507.0000;1.2324;1.0000;
507.3000;1.2316;0.9950;
507.6000;1.2291;0.9874;
507.9000;1.2300;0.9824;
508.2000;1.2308;0.9900;
508.5000;1.2324;0.9925;
508.8000;1.2308;0.9925;
509.1000;1.2316;0.9925;
509.4000;1.2316;0.9975;
509.7000;1.2316;1.0000;
510.0000;1.2300;0.9950;
510.3000;1.2308;1.0000;
510.6000;1.2300;1.0051;
510.9000;1.2300;1.0101;
511.2000;1.2332;1.0051;
511.5000;1.2324;1.0051;
511.8000;1.2308;1.0026;
512.1000;1.2332;1.0051;
512.4000;1.2308;0.9975;
512.7000;1.2300;0.9975;
513.0000;1.2291;0.9950;
513.3000;1.2300;1.0000;
513.6000;1.2316;1.0051;
513.9000;1.2300;1.0076;
514.2000;1.2291;0.9975;
514.5000;1.2300;1.0051;
514.8000;1.2300;1.0000;
515.1000;1.2308;0.9950;
515.4000;1.2308;1.0000;
515.7000;1.2324;1.0051;
516.0000;1.2308;1.0000;
516.3000;1.2332;0.9975;
516.6000;1.2300;0.9925;
516.9000;1.2340;1.0076;
517.2000;1.2324;1.0126;
517.5000;1.2316;1.0101;
517.8000;1.2316;1.0051;
518.1000;1.2243;0.9874;
518.4000;1.2316;1.0152;
518.7000;1.2300;1.0076;
519.0000;1.2308;1.0076;
519.3000;1.2300;1.0026;
519.6000;1.2291;1.0051;
519.9000;1.2300;1.0026;
520.2000;1.2291;1.0026;
520.5000;1.2308;1.0000;
520.8000;1.2283;0.9849;
521.1000;1.2332;0.9950;
521.4000;1.2283;0.9849;
521.7000;1.2300;0.9874;
522.0000;1.2324;0.9925;
522.3000;1.2332;0.9975;
522.6000;1.2300;0.9900;
522.9000;1.2300;0.9925;
523.2000;1.2300;0.9874;
523.5000;1.2300;0.9925;
523.8000;1.2324;1.0026;
524.1000;1.2308;1.0101;
524.4000;1.2316;1.0101;
524.7000;1.2300;1.0126;
525.0000;1.2300;1.0126;
525.3000;1.2308;1.0101;
525.6000;1.2308;1.0177;
525.9000;1.2316;1.0202;
526.2000;1.2308;1.0177;
526.5000;1.2316;1.0126;
526.8000;1.2300;1.0000;
527.1000;1.2324;1.0076;
527.4000;1.2316;1.0076;
527.7000;1.2316;1.0177;
528.0000;1.2308;1.0227;
528.3000;1.2316;1.0202;
528.6000;1.2324;1.0303;
528.9000;1.2316;1.0252;
529.2000;1.2332;1.0227;
529.5000;1.2308;1.0202;
529.8000;1.2308;1.0202;
530.1000;1.2283;1.0126;
530.4000;1.2316;1.0101;
530.7000;1.2324;1.0076;
531.0000;1.2324;1.0126;
531.3000;1.2316;1.0177;
531.6000;1.2316;1.0126;
531.9000;1.2300;1.0051;
532.2000;1.2300;1.0026;
532.5000;1.2291;1.0051;
532.8000;1.2308;1.0101;
533.1000;1.2283;1.0051;
533.4000;1.2308;1.0076;
533.7000;1.2308;1.0051;
534.0000;1.2324;1.0126;
534.3000;1.2291;1.0177;
534.6000;1.2300;1.0177;
534.9000;1.2300;1.0152;
535.2000;1.2308;1.0126;
535.5000;1.2291;1.0026;
535.8000;1.2283;1.0051;
536.1000;1.2291;1.0076;
536.4000;1.2300;1.0152;
536.7000;1.2308;1.0101;
537.0000;1.2300;1.0177;
537.3000;1.2308;1.0152;
537.6000;1.2291;1.0076;
537.9000;1.2308;1.0101;
538.2000;1.2300;1.0126;
538.5000;1.2324;1.0152;
538.8000;1.2300;1.0202;
539.1000;1.2332;1.0177;
539.4000;1.2300;1.0126;
539.7000;1.2283;1.0202;
540.0000;1.2291;1.0227;
540.3000;1.2300;1.0278;
540.6000;1.2300;1.0303;
540.9000;1.2308;1.0227;
541.2000;1.2283;1.0126;
541.5000;1.2291;1.0101;
541.8000;1.2283;1.0101;
542.1000;1.2226;1.0026;
542.4000;1.2291;1.0227;
542.7000;1.2283;1.0252;
543.0000;1.2308;1.0227;
543.3000;1.2283;1.0026;
543.6000;1.2308;1.0101;
543.9000;1.2316;1.0177;
544.2000;1.2283;1.0126;
544.5000;1.2300;1.0076;
544.8000;1.2251;0.9925;
545.1000;1.2316;1.0076;
545.4000;1.2283;0.9900;
545.7000;1.2340;1.0000;
546.0000;1.2291;0.9925;
546.3000;1.2291;0.9874;
546.6000;1.2308;0.9925;
546.9000;1.2316;0.9975;
547.2000;1.2324;1.0076;
547.5000;1.2308;1.0026;
547.8000;1.2324;1.0126;
548.1000;1.2316;1.0152;
548.4000;1.2316;1.0026;
548.7000;1.2300;0.9975;
549.0000;1.2316;0.9975;
549.3000;1.2381;1.0152;
549.6000;1.2300;1.0026;
549.9000;1.2300;1.0051;
550.2000;1.2291;1.0076;
550.5000;1.2308;1.0126;
550.8000;1.2308;1.0152;
551.1000;1.2300;1.0177;
551.4000;1.2300;1.0227;
551.7000;1.2275;1.0202;
552.0000;1.2316;1.0378;
552.3000;1.2300;1.0278;
552.6000;1.2316;1.0252;
552.9000;1.2308;1.0126;
553.2000;1.2332;1.0202;
553.5000;1.2300;1.0152;
553.8000;1.2300;1.0202;
554.1000;1.2300;1.0303;
554.4000;1.2324;1.0303;
554.7000;1.2308;1.0328;
555.0000;1.2300;1.0278;
555.3000;1.2300;1.0353;
555.6000;1.2324;1.0479;
555.9000;1.2300;1.0353;
556.2000;1.2291;1.0403;
556.5000;1.2291;1.0378;
556.8000;1.2308;1.0403;
557.1000;1.2275;1.0328;
557.4000;1.2300;1.0454;
557.7000;1.2275;1.0353;
558.0000;1.2308;1.0403;
558.3000;1.2316;1.0504;
558.6000;1.2300;1.0429;
558.9000;1.2308;1.0378;
559.2000;1.2300;1.0403;
559.5000;1.2308;1.0454;
559.8000;1.2300;1.0504;
560.1000;1.2300;1.0353;
560.4000;1.2283;1.0353;
560.7000;1.2316;1.0504;
561.0000;1.2291;1.0429;
561.3000;1.2283;1.0278;
561.6000;1.2291;1.0278;
561.9000;1.2308;1.0353;
562.2000;1.2275;1.0303;
562.5000;1.2291;1.0252;
562.8000;1.2308;1.0227;
563.1000;1.2308;1.0202;
563.4000;1.2291;1.0177;
563.7000;1.2291;1.0353;
564.0000;1.2300;1.0328;
564.3000;1.2300;1.0353;
564.6000;1.2267;1.0252;
564.9000;1.2324;1.0403;
565.2000;1.2291;1.0303;
565.5000;1.2283;1.0252;
565.8000;1.2291;1.0328;
566.1000;1.2332;1.0353;
566.4000;1.2300;1.0378;
566.7000;1.2275;1.0303;
567.0000;1.2283;1.0227;
567.3000;1.2259;1.0152;
567.6000;1.2324;1.0227;
567.9000;1.2300;1.0126;
568.2000;1.2291;1.0152;
568.5000;1.2291;1.0152;
568.8000;1.2300;1.0252;
569.1000;1.2308;1.0353;
569.4000;1.2291;1.0252;
569.7000;1.2283;1.0227;
570.0000;1.2291;1.0252;
570.3000;1.2226;1.0051;
570.6000;1.2259;1.0101;
570.9000;1.2300;1.0126;
571.2000;1.2291;1.0152;
571.5000;1.2218;1.0076;
571.8000;1.2291;1.0328;
572.1000;1.2283;1.0252;
572.4000;1.2300;1.0177;
572.7000;1.2291;1.0126;
573.0000;1.2283;1.0252;
573.3000;1.2291;1.0278;
573.6000;1.2291;1.0227;
573.9000;1.2275;1.0227;
574.2000;1.2300;1.0202;
574.5000;1.2291;1.0076;
574.8000;1.2300;1.0177;
575.1000;1.2291;1.0177;
575.4000;1.2340;1.0252;
575.7000;1.2316;1.0152;
576.0000;1.2291;1.0177;
576.3000;1.2300;1.0152;
576.6000;1.2291;1.0101;
576.9000;1.2291;1.0202;
577.2000;1.2291;1.0202;
577.5000;1.2283;1.0101;
577.8000;1.2300;1.0202;
578.1000;1.2300;1.0152;
578.4000;1.2291;1.0000;
578.7000;1.2308;1.0152;
579.0000;1.2300;1.0152;
579.3000;1.2283;1.0177;
579.6000;1.2332;1.0278;
579.9000;1.2300;1.0126;
580.2000;1.2308;1.0152;
580.5000;1.2300;1.0076;
580.8000;1.2291;1.0076;
581.1000;1.2316;1.0076;
581.4000;1.2300;1.0026;
581.7000;1.2300;1.0026;
582.0000;1.2283;1.0000;
582.3000;1.2300;1.0051;
582.6000;1.2324;1.0227;
582.9000;1.2283;1.0101;
583.2000;1.2283;1.0076;
583.5000;1.2308;1.0126;
583.8000;1.2381;1.0278;
584.1000;1.2308;1.0101;
584.4000;1.2308;1.0126;
584.7000;1.2283;1.0126;
585.0000;1.2300;1.0126;
585.3000;1.2291;1.0101;
585.6000;1.2340;1.0177;
585.9000;1.2291;1.0152;
586.2000;1.2316;1.0252;
586.5000;1.2316;1.0278;
586.8000;1.2275;1.0227;
587.1000;1.2316;1.0177;
587.4000;1.2283;1.0076;
587.7000;1.2291;1.0152;
588.0000;1.2308;1.0152;
588.3000;1.2234;1.0000;
588.6000;1.2316;1.0278;
588.9000;1.2316;1.0227;
589.2000;1.2291;1.0152;
589.5000;1.2291;1.0177;
589.8000;1.2291;1.0152;
590.1000;1.2357;1.0278;
590.4000;1.2308;1.0152;
590.7000;1.2275;1.0051;
591.0000;1.2291;1.0076;
591.3000;1.2308;1.0101;
591.6000;1.2308;1.0152;
591.9000;1.2283;1.0101;
592.2000;1.2267;1.0152;
592.5000;1.2291;1.0227;
592.8000;1.2275;1.0252;
593.1000;1.2267;1.0252;
593.4000;1.2332;1.0303;
593.7000;1.2218;1.0101;
594.0000;1.2291;1.0278;
594.3000;1.2308;1.0328;
594.6000;1.2291;1.0303;
594.9000;1.2275;1.0227;
595.2000;1.2300;1.0227;
595.5000;1.2300;1.0252;
595.8000;1.2283;1.0202;
596.1000;1.2283;1.0227;
596.4000;1.2300;1.0227;
596.7000;1.2275;1.0126;
597.0000;1.2291;1.0152;
597.3000;1.2300;1.0202;
597.6000;1.2300;1.0227;
597.9000;1.2308;1.0328;
598.2000;1.2324;1.0378;
598.5000;1.2316;1.0378;
598.8000;1.2283;1.0278;
599.1000;1.2308;1.0328;
599.4000;1.2316;1.0252;
599.7000;1.2300;1.0177;
600.0000;1.2291;1.0152;
600.3000;1.2308;1.0101;
600.6000;1.2283;0.9950;
600.9000;1.2234;0.9698;
601.2000;1.2137;0.9572;
601.5000;1.2047;0.9396;
601.8000;1.1933;0.9295;
602.1000;1.1868;0.9220;
602.4000;1.1713;0.8816;
602.7000;1.1624;0.8741;
603.0000;1.1461;0.8439;
603.3000;1.1445;0.8565;
603.6000;1.1339;0.8413;
603.9000;1.1282;0.8363;
604.2000;1.1201;0.8212;
604.5000;1.1144;0.8086;
604.8000;1.1054;0.7960;
605.1000;1.0973;0.7884;
605.4000;1.0924;0.7834;
605.7000;1.0859;0.7809;
606.0000;1.0786;0.7658;
606.3000;1.0729;0.7582;
606.6000;1.0696;0.7582;
606.9000;1.0615;0.7431;
607.2000;1.0541;0.7431;
607.5000;1.0484;0.7406;
607.8000;1.0435;0.7456;
608.1000;1.0395;0.7355;
608.4000;1.0362;0.7330;
608.7000;1.0330;0.7330;
609.0000;1.0265;0.7280;
609.3000;1.0232;0.7330;
609.6000;1.0167;0.7305;
609.9000;1.0167;0.7431;
610.2000;1.0085;0.7381;
610.5000;1.0037;0.7381;
610.8000;1.0004;0.7305;
611.1000;0.9955;0.7129;
611.4000;0.9923;0.7053;
611.7000;0.9890;0.7129;
612.0000;0.9841;0.7104;
612.3000;0.9809;0.7053;
612.6000;0.9784;0.7078;
612.9000;0.9768;0.7154;
613.2000;0.9703;0.7053;
613.5000;0.9670;0.6927;
613.8000;0.9662;0.6902;
614.1000;0.9613;0.6902;
614.4000;0.9565;0.6952;
614.7000;0.9532;0.6978;
615.0000;0.9491;0.6902;
615.3000;0.9475;0.6902;
615.6000;0.9451;0.6852;
615.9000;0.9410;0.6751;
616.2000;0.9377;0.6675;
616.5000;0.9337;0.6726;
616.8000;0.9320;0.6801;
617.1000;0.9280;0.6776;
617.4000;0.9263;0.6801;
617.7000;0.9223;0.6776;
618.0000;0.9214;0.6776;
618.3000;0.9198;0.6776;
618.6000;0.9141;0.6826;
618.9000;0.9117;0.6726;
619.2000;0.9109;0.6726;
619.5000;0.9076;0.6751;
619.8000;0.9060;0.6826;
620.1000;0.9035;0.6826;
620.4000;0.9011;0.6751;
620.7000;0.9003;0.6801;
621.0000;0.8954;0.6726;
621.3000;0.8938;0.6675;
621.6000;0.8938;0.6801;
621.9000;0.8889;0.6726;
622.2000;0.8881;0.6751;
622.5000;0.8856;0.6751;
622.8000;0.8840;0.6751;
623.1000;0.8848;0.6701;
623.4000;0.8816;0.6600;
623.7000;0.8791;0.6575;
624.0000;0.8734;0.6398;
624.3000;0.8742;0.6474;
624.6000;0.8710;0.6474;
624.9000;0.8694;0.6575;
625.2000;0.8685;0.6524;
625.5000;0.8653;0.6499;
625.8000;0.8653;0.6524;
626.1000;0.8661;0.6499;
626.4000;0.8580;0.6247;
626.7000;0.8571;0.6197;
627.0000;0.8555;0.6247;
627.3000;0.8555;0.6222;
627.6000;0.8498;0.6222;
627.9000;0.8506;0.6323;
628.2000;0.8506;0.6398;
628.5000;0.8498;0.6398;
628.8000;0.8466;0.6398;
629.1000;0.8433;0.6398;
629.4000;0.8417;0.6449;
629.7000;0.8425;0.6449;
630.0000;0.8409;0.6449;
630.3000;0.8392;0.6348;
630.6000;0.8376;0.6297;
630.9000;0.8384;0.6272;
631.2000;0.8344;0.6348;
631.5000;0.8319;0.6297;
631.8000;0.8311;0.6398;
632.1000;0.8295;0.6398;
632.4000;0.8295;0.6323;
632.7000;0.8311;0.6449;
633.0000;0.8254;0.6398;
633.3000;0.8262;0.6449;
633.6000;0.8238;0.6373;
633.9000;0.8238;0.6272;
634.2000;0.8230;0.6297;
634.5000;0.8213;0.6297;
634.8000;0.8213;0.6373;
635.1000;0.8181;0.6323;
635.4000;0.8181;0.6348;
635.7000;0.8156;0.6297;
636.0000;0.8148;0.6247;
636.3000;0.8140;0.6272;
636.6000;0.8107;0.6121;
636.9000;0.8156;0.6323;
637.2000;0.8173;0.6398;
637.5000;0.8099;0.6247;
637.8000;0.8067;0.6197;
638.1000;0.8042;0.6197;
638.4000;0.8059;0.6272;
638.7000;0.8042;0.6348;
639.0000;0.8018;0.6348;
639.3000;0.8026;0.6373;
639.6000;0.8018;0.6423;
639.9000;0.8018;0.6348;
640.2000;0.8026;0.6423;
640.5000;0.7977;0.6323;
640.8000;0.8002;0.6474;
641.1000;0.7953;0.6348;
641.4000;0.7904;0.6172;
641.7000;0.7945;0.6297;
642.0000;0.7912;0.6373;
642.3000;0.7937;0.6474;
642.6000;0.7912;0.6449;
642.9000;0.7912;0.6423;
643.2000;0.7920;0.6474;
643.5000;0.7888;0.6449;
643.8000;0.7888;0.6449;
644.1000;0.7847;0.6373;
644.4000;0.7863;0.6499;
644.7000;0.7863;0.6524;
645.0000;0.7847;0.6524;
645.3000;0.7847;0.6474;
645.6000;0.7831;0.6398;
645.9000;0.7863;0.6423;
646.2000;0.7823;0.6272;
646.5000;0.7814;0.6121;
646.8000;0.7798;0.6121;
647.1000;0.7741;0.6046;
647.4000;0.7766;0.6121;
647.7000;0.7757;0.6172;
648.0000;0.7725;0.6121;
648.3000;0.7733;0.6146;
648.6000;0.7749;0.6222;
648.9000;0.7725;0.6197;
649.2000;0.7717;0.6323;
649.5000;0.7709;0.6373;
649.8000;0.7709;0.6474;
650.1000;0.7709;0.6600;
650.4000;0.7684;0.6499;
650.7000;0.7676;0.6524;
651.0000;0.7660;0.6449;
651.3000;0.7676;0.6398;
651.6000;0.7660;0.6297;
651.9000;0.7652;0.6222;
652.2000;0.7619;0.6146;
652.5000;0.7652;0.6222;
652.8000;0.7611;0.6146;
653.1000;0.7611;0.6121;
653.4000;0.7627;0.6121;
653.7000;0.7635;0.6146;
654.0000;0.7611;0.6121;
654.3000;0.7611;0.6146;
654.6000;0.7611;0.6222;
654.9000;0.7562;0.6146;
655.2000;0.7586;0.6247;
655.5000;0.7586;0.6297;
655.8000;0.7603;0.6222;
656.1000;0.7562;0.6071;
656.4000;0.7578;0.6046;
656.7000;0.7554;0.5945;
657.0000;0.7530;0.5970;
657.3000;0.7521;0.6096;
657.6000;0.7538;0.6071;
657.9000;0.7546;0.6121;
658.2000;0.7546;0.6146;
658.5000;0.7505;0.6071;
658.8000;0.7505;0.6096;
659.1000;0.7513;0.6222;
659.4000;0.7513;0.6323;
659.7000;0.7497;0.6373;
660.0000;0.7489;0.6423;
660.3000;0.7497;0.6474;
660.6000;0.7481;0.6474;
660.9000;0.7473;0.6398;
661.2000;0.7448;0.6323;
661.5000;0.7448;0.6297;
661.8000;0.7473;0.6373;
662.1000;0.7440;0.6247;
662.4000;0.7456;0.6373;
662.7000;0.7383;0.6197;
663.0000;0.7424;0.6297;
663.3000;0.7391;0.6222;
663.6000;0.7407;0.6272;
663.9000;0.7399;0.6323;
664.2000;0.7407;0.6348;
664.5000;0.7399;0.6272;
664.8000;0.7367;0.6247;
665.1000;0.7383;0.6297;
665.4000;0.7383;0.6197;
665.7000;0.7407;0.6373;
666.0000;0.7367;0.6272;
666.3000;0.7367;0.6323;
666.6000;0.7367;0.6373;
666.9000;0.7350;0.6323;
667.2000;0.7334;0.6373;
667.5000;0.7350;0.6449;
667.8000;0.7342;0.6398;
668.1000;0.7342;0.6323;
668.4000;0.7334;0.6272;
668.7000;0.7342;0.6297;
669.0000;0.7342;0.6348;
669.3000;0.7326;0.6373;
669.6000;0.7318;0.6373;
669.9000;0.7310;0.6323;
670.2000;0.7310;0.6323;
670.5000;0.7310;0.6373;
670.8000;0.7302;0.6297;
671.1000;0.7326;0.6323;
671.4000;0.7318;0.6323;
671.7000;0.7293;0.6272;
672.0000;0.7302;0.6348;
672.3000;0.7261;0.6297;
672.6000;0.7261;0.6323;
672.9000;0.7277;0.6398;
673.2000;0.7253;0.6323;
673.5000;0.7253;0.6348;
673.8000;0.7253;0.6247;
674.1000;0.7253;0.6197;
674.4000;0.7245;0.6197;
674.7000;0.7261;0.6272;
675.0000;0.7228;0.6247;
675.3000;0.7245;0.6222;
675.6000;0.7253;0.6297;
675.9000;0.7253;0.6398;
676.2000;0.7245;0.6423;
676.5000;0.7228;0.6373;
676.8000;0.7236;0.6499;
677.1000;0.7220;0.6474;
677.4000;0.7220;0.6449;
677.7000;0.7188;0.6297;
678.0000;0.7212;0.6348;
678.3000;0.7179;0.6247;
678.6000;0.7188;0.6247;
678.9000;0.7179;0.6247;
679.2000;0.7188;0.6297;
679.5000;0.7196;0.6247;
679.8000;0.7220;0.6222;
680.1000;0.7171;0.6096;
680.4000;0.7188;0.6172;
680.7000;0.7196;0.6222;
681.0000;0.7163;0.6146;
681.3000;0.7155;0.6197;
681.6000;0.7163;0.6297;
681.9000;0.7155;0.6398;
682.2000;0.7163;0.6398;
682.5000;0.7179;0.6373;
682.8000;0.7139;0.6297;
683.1000;0.7147;0.6348;
683.4000;0.7147;0.6398;
683.7000;0.7106;0.6348;
684.0000;0.7123;0.6272;
684.3000;0.7131;0.6323;
684.6000;0.7131;0.6323;
684.9000;0.7123;0.6348;
685.2000;0.7098;0.6373;
685.5000;0.7106;0.6297;
685.8000;0.7106;0.6247;
686.1000;0.7114;0.6272;
686.4000;0.7090;0.6348;
686.7000;0.7163;0.6600;
687.0000;0.7123;0.6373;
687.3000;0.7123;0.6474;
687.6000;0.7090;0.6449;
687.9000;0.7171;0.6650;
688.2000;0.7090;0.6398;
688.5000;0.7074;0.6297;
688.8000;0.7082;0.6272;
689.1000;0.7082;0.6348;
689.4000;0.7082;0.6247;
689.7000;0.7090;0.6222;
690.0000;0.7082;0.6222;
690.3000;0.7098;0.6297;
690.6000;0.7082;0.6247;
690.9000;0.7090;0.6146;
691.2000;0.7049;0.6096;
691.5000;0.7000;0.6071;
691.8000;0.7033;0.6172;
692.1000;0.7057;0.6222;
692.4000;0.7009;0.6071;
692.7000;0.7049;0.6172;
693.0000;0.7041;0.6121;
693.3000;0.7033;0.6172;
693.6000;0.7082;0.6222;
693.9000;0.7033;0.6121;
694.2000;0.7090;0.6398;
694.5000;0.7017;0.6323;
694.8000;0.7041;0.6373;
695.1000;0.7017;0.6398;
695.4000;0.6992;0.6272;
695.7000;0.7017;0.6474;
696.0000;0.7009;0.6474;
696.3000;0.7025;0.6499;
696.6000;0.7000;0.6499;
696.9000;0.6984;0.6499;
697.2000;0.6976;0.6373;
697.5000;0.7017;0.6398;
697.8000;0.6992;0.6323;
698.1000;0.6992;0.6348;
698.4000;0.7000;0.6423;
698.7000;0.6984;0.6449;
699.0000;0.6984;0.6398;
699.3000;0.6984;0.6348;
699.6000;0.6984;0.6348;
699.9000;0.6984;0.6272;
700.2000;0.7000;0.6222;
700.5000;0.6984;0.6096;
700.8000;0.6992;0.6071;
701.1000;0.6984;0.6046;
701.4000;0.6984;0.6096;
701.7000;0.6952;0.5995;
702.0000;0.6960;0.6020;
702.3000;0.6960;0.5995;
702.6000;0.6976;0.6146;
702.9000;0.6984;0.6096;
703.2000;0.6952;0.6046;
703.5000;0.6935;0.6020;
703.8000;0.6886;0.5844;
704.1000;0.6952;0.6020;
704.4000;0.6943;0.6071;
704.7000;0.6952;0.6071;
705.0000;0.6960;0.6096;
705.3000;0.6952;0.6121;
705.6000;0.6911;0.6146;
705.9000;0.6903;0.6247;
706.2000;0.6919;0.6272;
706.5000;0.6952;0.6398;
706.8000;0.6927;0.6272;
707.1000;0.6919;0.6272;
707.4000;0.6935;0.6348;
707.7000;0.6927;0.6348;
708.0000;0.6911;0.6272;
708.3000;0.6943;0.6323;
708.6000;0.6911;0.6272;
708.9000;0.6919;0.6222;
709.2000;0.6903;0.6222;
709.5000;0.6903;0.6222;
709.8000;0.6919;0.6297;
710.1000;0.6927;0.6348;
710.4000;0.6911;0.6272;
710.7000;0.6903;0.6323;
711.0000;0.6903;0.6373;
711.3000;0.6911;0.6423;
711.6000;0.6927;0.6373;
711.9000;0.6895;0.6222;
712.2000;0.6895;0.6222;
712.5000;0.6976;0.6449;
712.8000;0.6895;0.6297;
713.1000;0.6895;0.6272;
713.4000;0.6862;0.6222;
713.7000;0.6886;0.6272;
714.0000;0.6870;0.6272;
714.3000;0.6895;0.6297;
714.6000;0.6886;0.6272;
714.9000;0.6878;0.6247;
715.2000;0.6886;0.6247;
715.5000;0.6886;0.6222;
715.8000;0.6878;0.6222;
716.1000;0.6870;0.6247;
716.4000;0.6862;0.6222;
716.7000;0.6870;0.6222;
717.0000;0.6862;0.6096;
717.3000;0.6846;0.6121;
717.6000;0.6854;0.6247;
717.9000;0.6854;0.6222;
718.2000;0.6789;0.6071;
718.5000;0.6854;0.6222;
718.8000;0.6862;0.6247;
719.1000;0.6821;0.6121;
719.4000;0.6846;0.6146;
719.7000;0.6862;0.6121;
720.0000;0.6829;0.6071;
720.3000;0.6862;0.6020;
720.6000;0.6813;0.6046;
720.9000;0.6838;0.6146;
721.2000;0.6838;0.6222;
721.5000;0.6838;0.6348;
721.8000;0.6854;0.6373;
722.1000;0.6838;0.6297;
722.4000;0.6846;0.6222;
722.7000;0.6821;0.6121;
723.0000;0.6813;0.6121;
723.3000;0.6829;0.6247;
723.6000;0.6846;0.6297;
723.9000;0.6813;0.6222;
724.2000;0.6838;0.6297;
724.5000;0.6821;0.6297;
724.8000;0.6838;0.6348;
725.1000;0.6821;0.6348;
725.4000;0.6813;0.6348;
725.7000;0.6805;0.6474;
726.0000;0.6781;0.6474;
726.3000;0.6797;0.6474;
726.6000;0.6813;0.6474;
726.9000;0.6805;0.6398;
727.2000;0.6805;0.6449;
727.5000;0.6797;0.6348;
727.8000;0.6821;0.6449;
728.1000;0.6797;0.6398;
728.4000;0.6789;0.6272;
728.7000;0.6781;0.6247;
729.0000;0.6821;0.6348;
729.3000;0.6805;0.6398;
729.6000;0.6772;0.6297;
729.9000;0.6772;0.6272;
730.2000;0.6772;0.6323;
730.5000;0.6781;0.6348;
730.8000;0.6789;0.6348;
731.1000;0.6772;0.6348;
731.4000;0.6789;0.6348;
731.7000;0.6772;0.6297;
732.0000;0.6789;0.6146;
732.3000;0.6764;0.6272;
732.6000;0.6756;0.6272;
732.9000;0.6805;0.6474;
733.2000;0.6789;0.6297;
733.5000;0.6789;0.6222;
733.8000;0.6781;0.6197;
734.1000;0.6781;0.6272;
734.4000;0.6772;0.6197;
734.7000;0.6772;0.6172;
735.0000;0.6781;0.6172;
735.3000;0.6764;0.6146;
735.6000;0.6764;0.6121;
735.9000;0.6764;0.6172;
736.2000;0.6764;0.6172;
736.5000;0.6764;0.6373;
736.8000;0.6756;0.6373;
737.1000;0.6756;0.6348;
737.4000;0.6764;0.6348;
737.7000;0.6764;0.6474;
738.0000;0.6764;0.6499;
738.3000;0.6756;0.6474;
738.6000;0.6756;0.6499;
738.9000;0.6732;0.6449;
739.2000;0.6748;0.6373;
739.5000;0.6740;0.6373;
739.8000;0.6724;0.6373;
740.1000;0.6724;0.6398;
740.4000;0.6740;0.6398;
740.7000;0.6732;0.6373;
741.0000;0.6716;0.6348;
741.3000;0.6740;0.6449;
741.6000;0.6732;0.6499;
741.9000;0.6740;0.6549;
742.2000;0.6724;0.6474;
742.5000;0.6732;0.6474;
742.8000;0.6716;0.6474;
743.1000;0.6716;0.6449;
743.4000;0.6732;0.6449;
743.7000;0.6699;0.6323;
744.0000;0.6724;0.6398;
744.3000;0.6724;0.6449;
744.6000;0.6732;0.6449;
744.9000;0.6707;0.6423;
745.2000;0.6724;0.6423;
745.5000;0.6716;0.6373;
745.8000;0.6724;0.6348;
746.1000;0.6699;0.6272;
746.4000;0.6732;0.6247;
746.7000;0.6716;0.6222;
747.0000;0.6716;0.6247;
747.3000;0.6732;0.6272;
747.6000;0.6724;0.6348;
747.9000;0.6716;0.6247;
748.2000;0.6732;0.6272;
748.5000;0.6707;0.6272;
748.8000;0.6699;0.6197;
749.1000;0.6699;0.6247;
749.4000;0.6707;0.6297;
749.7000;0.6716;0.6348;
750.0000;0.6707;0.6398;
750.3000;0.6699;0.6423;
750.6000;0.6691;0.6297;
750.9000;0.6716;0.6348;
751.2000;0.6716;0.6348;
751.5000;0.6667;0.6172;
751.8000;0.6683;0.6247;
752.1000;0.6716;0.6373;
752.4000;0.6683;0.6348;
752.7000;0.6683;0.6398;
753.0000;0.6659;0.6323;
753.3000;0.6683;0.6398;
753.6000;0.6675;0.6348;
753.9000;0.6675;0.6348;
754.2000;0.6667;0.6323;
754.5000;0.6667;0.6222;
754.8000;0.6650;0.6197;
755.1000;0.6683;0.6272;
755.4000;0.6675;0.6297;
755.7000;0.6626;0.6222;
756.0000;0.6683;0.6323;
756.3000;0.6675;0.6247;
756.6000;0.6667;0.6297;
756.9000;0.6707;0.6297;
757.2000;0.6675;0.6247;
757.5000;0.6675;0.6348;
757.8000;0.6634;0.6222;
758.1000;0.6659;0.6272;
758.4000;0.6667;0.6297;
758.7000;0.6740;0.6373;
759.0000;0.6675;0.6172;
759.3000;0.6650;0.6222;
759.6000;0.6650;0.6247;
759.9000;0.6659;0.6197;
760.2000;0.6659;0.6121;
760.5000;0.6659;0.6146;
760.8000;0.6642;0.6146;
761.1000;0.6659;0.6297;
761.4000;0.6683;0.6449;
761.7000;0.6650;0.6423;
762.0000;0.6659;0.6474;
762.3000;0.6675;0.6474;
762.6000;0.6667;0.6373;
762.9000;0.6650;0.6373;
763.2000;0.6699;0.6449;
763.5000;0.6650;0.6423;
763.8000;0.6740;0.6675;
764.1000;0.6642;0.6423;
764.4000;0.6577;0.6172;
764.7000;0.6667;0.6373;
765.0000;0.6642;0.6373;
765.3000;0.6650;0.6423;
765.6000;0.6650;0.6373;
765.9000;0.6634;0.6398;
766.2000;0.6634;0.6474;
766.5000;0.6618;0.6449;
766.8000;0.6618;0.6373;
767.1000;0.6626;0.6373;
767.4000;0.6610;0.6398;
767.7000;0.6634;0.6499;
768.0000;0.6642;0.6474;
768.3000;0.6642;0.6499;
768.6000;0.6650;0.6499;
768.9000;0.6642;0.6474;
769.2000;0.6602;0.6398;
769.5000;0.6610;0.6449;
769.8000;0.6626;0.6449;
770.1000;0.6642;0.6474;
770.4000;0.6610;0.6373;
770.7000;0.6569;0.6222;
771.0000;0.6626;0.6247;
771.3000;0.6618;0.6172;
771.6000;0.6561;0.6071;
771.9000;0.6626;0.6197;
772.2000;0.6626;0.6146;
772.5000;0.6593;0.6121;
772.8000;0.6593;0.6272;
773.1000;0.6618;0.6323;
773.4000;0.6667;0.6524;
773.7000;0.6593;0.6348;
774.0000;0.6626;0.6449;
774.3000;0.6618;0.6423;
774.6000;0.6626;0.6549;
774.9000;0.6626;0.6524;
775.2000;0.6634;0.6524;
775.5000;0.6634;0.6549;
775.8000;0.6610;0.6423;
776.1000;0.6602;0.6398;
776.4000;0.6610;0.6449;
776.7000;0.6626;0.6423;
777.0000;0.6602;0.6423;
777.3000;0.6618;0.6449;
777.6000;0.6650;0.6675;
777.9000;0.6618;0.6575;
778.2000;0.6610;0.6600;
778.5000;0.6610;0.6474;
778.8000;0.6610;0.6423;
779.1000;0.6602;0.6449;
779.4000;0.6602;0.6348;
779.7000;0.6618;0.6272;
780.0000;0.6610;0.6373;
780.3000;0.6618;0.6373;
780.6000;0.6585;0.6423;
780.9000;0.6577;0.6373;
781.2000;0.6585;0.6474;
781.5000;0.6585;0.6499;
781.8000;0.6610;0.6524;
782.1000;0.6593;0.6474;
782.4000;0.6626;0.6474;
782.7000;0.6593;0.6398;
783.0000;0.6618;0.6348;
783.3000;0.6642;0.6423;
783.6000;0.6593;0.6398;
783.9000;0.6602;0.6348;
784.2000;0.6610;0.6323;
784.5000;0.6593;0.6297;
784.8000;0.6593;0.6323;
785.1000;0.6602;0.6323;
785.4000;0.6585;0.6247;
785.7000;0.6593;0.6323;
786.0000;0.6593;0.6348;
786.3000;0.6593;0.6348;
786.6000;0.6602;0.6423;
786.9000;0.6593;0.6348;
787.2000;0.6593;0.6373;
787.5000;0.6577;0.6398;
787.8000;0.6585;0.6449;
788.1000;0.6536;0.6323;
788.4000;0.6593;0.6423;
788.7000;0.6561;0.6398;
789.0000;0.6577;0.6499;
789.3000;0.6585;0.6449;
789.6000;0.6585;0.6449;
789.9000;0.6585;0.6524;
790.2000;0.6577;0.6524;
790.5000;0.6602;0.6600;
790.8000;0.6585;0.6524;
791.1000;0.6577;0.6650;
791.4000;0.6569;0.6650;
791.7000;0.6585;0.6575;
792.0000;0.6569;0.6449;
792.3000;0.6577;0.6423;
792.6000;0.6626;0.6600;
792.9000;0.6577;0.6398;
793.2000;0.6585;0.6474;
793.5000;0.6569;0.6474;
793.8000;0.6561;0.6499;
794.1000;0.6585;0.6524;
794.4000;0.6593;0.6524;
794.7000;0.6488;0.6197;
795.0000;0.6569;0.6474;
795.3000;0.6577;0.6600;
795.6000;0.6585;0.6549;
795.9000;0.6577;0.6474;
796.2000;0.6585;0.6499;
796.5000;0.6577;0.6499;
796.8000;0.6634;0.6701;
797.1000;0.6569;0.6575;
797.4000;0.6536;0.6499;
797.7000;0.6618;0.6625;
798.0000;0.6545;0.6474;
798.3000;0.6561;0.6524;
798.6000;0.6553;0.6474;
798.9000;0.6585;0.6575;
799.2000;0.6577;0.6449;
799.5000;0.6528;0.6222;
799.8000;0.6545;0.6297;
800.1000;0.6545;0.6272;
800.4000;0.6545;0.6348;
800.7000;0.6520;0.6222;
801.0000;0.6545;0.6297;
801.3000;0.6593;0.6449;
801.6000;0.6545;0.6373;
801.9000;0.6553;0.6398;
802.2000;0.6561;0.6373;
802.5000;0.6545;0.6373;
802.8000;0.6545;0.6272;
803.1000;0.6569;0.6323;
803.4000;0.6553;0.6373;
803.7000;0.6545;0.6398;
804.0000;0.6545;0.6373;
804.3000;0.6545;0.6474;
804.6000;0.6545;0.6323;
804.9000;0.6610;0.6449;
805.2000;0.6561;0.6297;
805.5000;0.6553;0.6297;
805.8000;0.6553;0.6423;
806.1000;0.6536;0.6373;
806.4000;0.6536;0.6398;
806.7000;0.6553;0.6398;
807.0000;0.6553;0.6423;
807.3000;0.6569;0.6575;
807.6000;0.6545;0.6600;
807.9000;0.6545;0.6600;
808.2000;0.6561;0.6549;
808.5000;0.6553;0.6524;
808.8000;0.6536;0.6499;
809.1000;0.6553;0.6398;
809.4000;0.6561;0.6474;
809.7000;0.6536;0.6373;
810.0000;0.6520;0.6348;
810.3000;0.6553;0.6398;
810.6000;0.6536;0.6449;
810.9000;0.6545;0.6549;
811.2000;0.6528;0.6373;
811.5000;0.6504;0.6323;
811.8000;0.6528;0.6373;
812.1000;0.6528;0.6423;
812.4000;0.6536;0.6499;
812.7000;0.6520;0.6524;
813.0000;0.6520;0.6499;
813.3000;0.6536;0.6549;
813.6000;0.6520;0.6499;
813.9000;0.6520;0.6600;
814.2000;0.6504;0.6600;
814.5000;0.6496;0.6549;
814.8000;0.6488;0.6474;
815.1000;0.6520;0.6474;
815.4000;0.6520;0.6474;
815.7000;0.6536;0.6499;
816.0000;0.6512;0.6524;
816.3000;0.6528;0.6499;
816.6000;0.6577;0.6625;
816.9000;0.6512;0.6423;
817.2000;0.6528;0.6348;
817.5000;0.6520;0.6272;
817.8000;0.6520;0.6272;
818.1000;0.6545;0.6297;
818.4000;0.6536;0.6297;
818.7000;0.6520;0.6272;
819.0000;0.6545;0.6247;
819.3000;0.6520;0.6222;
819.6000;0.6520;0.6272;
819.9000;0.6488;0.6222;
820.2000;0.6520;0.6323;
820.5000;0.6504;0.6297;
820.8000;0.6512;0.6323;
821.1000;0.6512;0.6373;
821.4000;0.6528;0.6423;
821.7000;0.6488;0.6373;
822.0000;0.6447;0.6247;
822.3000;0.6528;0.6373;
822.6000;0.6496;0.6373;
822.9000;0.6536;0.6474;
823.2000;0.6512;0.6398;
823.5000;0.6528;0.6423;
823.8000;0.6545;0.6524;
824.1000;0.6553;0.6549;
824.4000;0.6488;0.6373;
824.7000;0.6512;0.6423;
825.0000;0.6512;0.6449;
825.3000;0.6512;0.6549;
825.6000;0.6504;0.6499;
825.9000;0.6496;0.6499;
826.2000;0.6512;0.6449;
826.5000;0.6504;0.6398;
826.8000;0.6504;0.6449;
827.1000;0.6496;0.6449;
827.4000;0.6520;0.6474;
827.7000;0.6512;0.6549;
828.0000;0.6512;0.6575;
828.3000;0.6504;0.6625;
828.6000;0.6520;0.6701;
828.9000;0.6504;0.6726;
829.2000;0.6520;0.6751;
829.5000;0.6520;0.6701;
829.8000;0.6496;0.6726;
830.1000;0.6520;0.6726;
830.4000;0.6520;0.6625;
830.7000;0.6512;0.6549;
831.0000;0.6520;0.6600;
831.3000;0.6520;0.6524;
831.6000;0.6496;0.6499;
831.9000;0.6496;0.6474;
832.2000;0.6488;0.6348;
832.5000;0.6512;0.6398;
832.8000;0.6512;0.6373;
833.1000;0.6488;0.6323;
833.4000;0.6504;0.6348;
833.7000;0.6512;0.6348;
834.0000;0.6569;0.6549;
834.3000;0.6504;0.6323;
834.6000;0.6463;0.6247;
834.9000;0.6504;0.6449;
835.2000;0.6496;0.6449;
835.5000;0.6488;0.6398;
835.8000;0.6479;0.6323;
836.1000;0.6479;0.6398;
836.4000;0.6479;0.6449;
836.7000;0.6479;0.6373;
837.0000;0.6488;0.6297;
837.3000;0.6496;0.6398;
837.6000;0.6488;0.6449;
837.9000;0.6479;0.6423;
838.2000;0.6488;0.6323;
838.5000;0.6479;0.6373;
838.8000;0.6496;0.6423;
839.1000;0.6512;0.6474;
839.4000;0.6471;0.6474;
839.7000;0.6479;0.6449;
840.0000;0.6463;0.6348;
840.3000;0.6479;0.6524;
840.6000;0.6479;0.6524;
840.9000;0.6471;0.6449;
841.2000;0.6496;0.6449;
841.5000;0.6479;0.6423;
841.8000;0.6471;0.6323;
842.1000;0.6447;0.6323;
842.4000;0.6463;0.6474;
842.7000;0.6496;0.6499;
843.0000;0.6496;0.6499;
843.3000;0.6479;0.6449;
843.6000;0.6479;0.6449;
843.9000;0.6496;0.6549;
844.2000;0.6479;0.6524;
844.5000;0.6479;0.6524;
844.8000;0.6504;0.6575;
845.1000;0.6479;0.6373;
845.4000;0.6479;0.6373;
845.7000;0.6479;0.6323;
846.0000;0.6471;0.6398;
846.3000;0.6463;0.6297;
846.6000;0.6479;0.6272;
846.9000;0.6447;0.6222;
847.2000;0.6447;0.6247;
847.5000;0.6471;0.6297;
847.8000;0.6439;0.6272;
848.1000;0.6536;0.6575;
848.4000;0.6447;0.6297;
848.7000;0.6479;0.6348;
849.0000;0.6471;0.6297;
849.3000;0.6561;0.6423;
849.6000;0.6479;0.6323;
849.9000;0.6431;0.6197;
850.2000;0.6471;0.6297;
850.5000;0.6488;0.6449;
850.8000;0.6463;0.6348;
851.1000;0.6471;0.6323;
851.4000;0.6479;0.6323;
851.7000;0.6471;0.6297;
852.0000;0.6463;0.6348;
852.3000;0.6463;0.6297;
852.6000;0.6455;0.6247;
852.9000;0.6471;0.6297;
853.2000;0.6479;0.6373;
853.5000;0.6471;0.6297;
853.8000;0.6463;0.6272;
854.1000;0.6479;0.6297;
854.4000;0.6463;0.6323;
854.7000;0.6471;0.6348;
855.0000;0.6471;0.6348;
855.3000;0.6463;0.6247;
855.6000;0.6431;0.6172;
855.9000;0.6463;0.6172;
856.2000;0.6455;0.6222;
856.5000;0.6488;0.6272;
856.8000;0.6431;0.6172;
857.1000;0.6439;0.6222;
857.4000;0.6455;0.6272;
857.7000;0.6463;0.6323;
858.0000;0.6471;0.6297;
858.3000;0.6463;0.6297;
858.6000;0.6414;0.6172;
858.9000;0.6455;0.6323;
859.2000;0.6471;0.6323;
859.5000;0.6398;0.6121;
859.8000;0.6447;0.6247;
860.1000;0.6447;0.6247;
860.4000;0.6455;0.6247;
860.7000;0.6431;0.6297;
861.0000;0.6471;0.6398;
861.3000;0.6455;0.6423;
861.6000;0.6520;0.6575;
861.9000;0.6471;0.6449;
862.2000;0.6455;0.6499;
862.5000;0.6447;0.6524;
862.8000;0.6447;0.6549;
863.1000;0.6463;0.6625;
863.4000;0.6471;0.6625;
863.7000;0.6471;0.6575;
864.0000;0.6455;0.6575;
864.3000;0.6471;0.6600;
864.6000;0.6463;0.6474;
864.9000;0.6463;0.6373;
865.2000;0.6479;0.6449;
865.5000;0.6463;0.6423;
865.8000;0.6463;0.6524;
866.1000;0.6455;0.6549;
866.4000;0.6447;0.6575;
866.7000;0.6455;0.6575;
867.0000;0.6439;0.6449;
867.3000;0.6447;0.6549;
867.6000;0.6447;0.6575;
867.9000;0.6455;0.6524;
868.2000;0.6471;0.6600;
868.5000;0.6463;0.6625;
868.8000;0.6463;0.6600;
869.1000;0.6439;0.6575;
869.4000;0.6463;0.6675;
869.7000;0.6447;0.6625;
870.0000;0.6439;0.6549;
870.3000;0.6439;0.6524;
870.6000;0.6447;0.6524;
870.9000;0.6447;0.6474;
871.2000;0.6431;0.6423;
871.5000;0.6479;0.6499;
871.8000;0.6479;0.6474;
872.1000;0.6455;0.6474;
872.4000;0.6431;0.6449;
872.7000;0.6471;0.6373;
873.0000;0.6455;0.6323;
873.3000;0.6455;0.6373;
873.6000;0.6447;0.6348;
873.9000;0.6439;0.6423;
874.2000;0.6422;0.6449;
874.5000;0.6447;0.6524;
874.8000;0.6439;0.6600;
875.1000;0.6447;0.6549;
875.4000;0.6463;0.6600;
875.7000;0.6504;0.6675;
876.0000;0.6455;0.6524;
876.3000;0.6439;0.6449;
876.6000;0.6439;0.6297;
876.9000;0.6431;0.6297;
877.2000;0.6455;0.6373;
877.5000;0.6439;0.6348;
877.8000;0.6439;0.6373;
878.1000;0.6447;0.6423;
878.4000;0.6439;0.6474;
878.7000;0.6431;0.6449;
879.0000;0.6431;0.6499;
879.3000;0.6439;0.6499;
879.6000;0.6431;0.6398;
879.9000;0.6439;0.6373;
880.2000;0.6455;0.6373;
880.5000;0.6447;0.6398;
880.8000;0.6447;0.6449;
881.1000;0.6455;0.6549;
881.4000;0.6382;0.6348;
881.7000;0.6447;0.6650;
882.0000;0.6374;0.6423;
882.3000;0.6422;0.6600;
882.6000;0.6422;0.6600;
882.9000;0.6431;0.6549;
883.2000;0.6422;0.6423;
883.5000;0.6422;0.6449;
883.8000;0.6422;0.6423;
884.1000;0.6422;0.6398;
884.4000;0.6422;0.6423;
884.7000;0.6431;0.6423;
885.0000;0.6422;0.6449;
885.3000;0.6431;0.6474;
885.6000;0.6398;0.6348;
885.9000;0.6422;0.6398;
886.2000;0.6414;0.6323;
886.5000;0.6439;0.6373;
886.8000;0.6414;0.6398;
887.1000;0.6447;0.6449;
887.4000;0.6439;0.6449;
887.7000;0.6439;0.6449;
888.0000;0.6431;0.6423;
888.3000;0.6431;0.6423;
888.6000;0.6455;0.6575;
888.9000;0.6406;0.6524;
889.2000;0.6439;0.6499;
889.5000;0.6504;0.6650;
889.8000;0.6439;0.6449;
890.1000;0.6447;0.6575;
890.4000;0.6431;0.6549;
890.7000;0.6422;0.6575;
891.0000;0.6414;0.6600;
891.3000;0.6422;0.6600;
891.6000;0.6422;0.6549;
891.9000;0.6422;0.6398;
892.2000;0.6422;0.6474;
892.5000;0.6357;0.6247;
892.8000;0.6422;0.6449;
893.1000;0.6479;0.6600;
893.4000;0.6414;0.6449;
893.7000;0.6422;0.6449;
894.0000;0.6422;0.6373;
894.3000;0.6455;0.6474;
894.6000;0.6414;0.6449;
894.9000;0.6431;0.6499;
895.2000;0.6422;0.6499;
895.5000;0.6422;0.6600;
895.8000;0.6406;0.6575;
896.1000;0.6414;0.6650;
896.4000;0.6406;0.6675;
896.7000;0.6431;0.6675;
897.0000;0.6422;0.6600;
897.3000;0.6414;0.6575;
897.6000;0.6422;0.6600;
897.9000;0.6422;0.6600;
898.2000;0.6406;0.6499;
898.5000;0.6414;0.6499;
898.8000;0.6422;0.6524;
899.1000;0.6406;0.6524;
899.4000;0.6414;0.6549;
899.7000;0.6422;0.6524;
900.0000;0.6439;0.6650;
900.3000;0.6422;0.6549;
900.6000;0.6422;0.6600;
900.9000;0.6414;0.6499;
901.2000;0.6414;0.6549;
901.5000;0.6414;0.6499;
901.8000;0.6414;0.6524;
902.1000;0.6422;0.6474;
902.4000;0.6439;0.6549;
902.7000;0.6398;0.6499;
903.0000;0.6414;0.6524;
903.3000;0.6414;0.6499;
903.6000;0.6422;0.6575;
903.9000;0.6414;0.6625;
904.2000;0.6439;0.6751;
904.5000;0.6398;0.6701;
904.8000;0.6414;0.6751;
905.1000;0.6414;0.6776;
905.4000;0.6390;0.6625;
905.7000;0.6365;0.6474;
906.0000;0.6431;0.6650;
906.3000;0.6406;0.6524;
906.6000;0.6390;0.6449;
906.9000;0.6398;0.6449;
907.2000;0.6439;0.6499;
907.5000;0.6479;0.6575;
907.8000;0.6406;0.6348;
908.1000;0.6398;0.6348;
908.4000;0.6439;0.6423;
908.7000;0.6398;0.6348;
909.0000;0.6455;0.6549;
909.3000;0.6406;0.6423;
909.6000;0.6406;0.6423;
909.9000;0.6406;0.6348;
910.2000;0.6414;0.6348;
910.5000;0.6422;0.6373;
910.8000;0.6414;0.6398;
911.1000;0.6398;0.6398;
911.4000;0.6382;0.6398;
911.7000;0.6431;0.6499;
912.0000;0.6390;0.6398;
912.3000;0.6422;0.6474;
912.6000;0.6390;0.6373;
912.9000;0.6406;0.6373;
913.2000;0.6414;0.6449;
913.5000;0.6414;0.6524;
913.8000;0.6414;0.6499;
914.1000;0.6406;0.6373;
914.4000;0.6398;0.6348;
914.7000;0.6382;0.6222;
915.0000;0.6398;0.6297;
915.3000;0.6414;0.6348;
915.6000;0.6398;0.6348;
915.9000;0.6325;0.6222;
916.2000;0.6390;0.6272;
916.5000;0.6390;0.6247;
916.8000;0.6406;0.6247;
917.1000;0.6398;0.6272;
917.4000;0.6382;0.6272;
917.7000;0.6374;0.6222;
918.0000;0.6398;0.6222;
918.3000;0.6357;0.5995;
918.6000;0.6390;0.6096;
918.9000;0.6382;0.6172;
919.2000;0.6382;0.6172;
919.5000;0.6398;0.6146;
919.8000;0.6398;0.6172;
920.1000;0.6398;0.6247;
920.4000;0.6390;0.6197;
920.7000;0.6422;0.6323;
921.0000;0.6406;0.6272;
921.3000;0.6390;0.6121;
921.6000;0.6390;0.6071;
921.9000;0.6398;0.6247;
922.2000;0.6414;0.6297;
922.5000;0.6341;0.6172;
922.8000;0.6390;0.6423;
923.1000;0.6406;0.6524;
923.4000;0.6341;0.6373;
923.7000;0.6382;0.6423;
924.0000;0.6382;0.6474;
924.3000;0.6398;0.6449;
924.6000;0.6406;0.6449;
924.9000;0.6382;0.6423;
925.2000;0.6398;0.6524;
925.5000;0.6414;0.6524;
925.8000;0.6406;0.6499;
926.1000;0.6414;0.6575;
926.4000;0.6382;0.6474;
926.7000;0.6390;0.6575;
927.0000;0.6390;0.6600;
927.3000;0.6390;0.6449;
927.6000;0.6365;0.6373;
927.9000;0.6374;0.6449;
928.2000;0.6390;0.6474;
928.5000;0.6390;0.6398;
928.8000;0.6374;0.6398;
929.1000;0.6382;0.6449;
929.4000;0.6414;0.6474;
929.7000;0.6390;0.6348;
930.0000;0.6398;0.6272;
930.3000;0.6398;0.6297;
930.6000;0.6398;0.6272;
930.9000;0.6390;0.6247;
931.2000;0.6382;0.6272;
931.5000;0.6398;0.6423;
931.8000;0.6398;0.6449;
932.1000;0.6406;0.6449;
932.4000;0.6357;0.6398;
932.7000;0.6390;0.6499;
933.0000;0.6390;0.6499;
933.3000;0.6382;0.6524;
933.6000;0.6390;0.6549;
933.9000;0.6398;0.6625;
934.2000;0.6390;0.6625;
934.5000;0.6390;0.6650;
934.8000;0.6406;0.6650;
935.1000;0.6382;0.6600;
935.4000;0.6365;0.6549;
935.7000;0.6390;0.6701;
936.0000;0.6382;0.6675;
936.3000;0.6414;0.6751;
936.6000;0.6406;0.6625;
936.9000;0.6382;0.6600;
937.2000;0.6398;0.6524;
937.5000;0.6349;0.6423;
937.8000;0.6357;0.6474;
938.1000;0.6382;0.6726;
938.4000;0.6390;0.6801;
938.7000;0.6374;0.6701;
939.0000;0.6349;0.6625;
939.3000;0.6406;0.6701;
939.6000;0.6382;0.6650;
939.9000;0.6374;0.6575;
940.2000;0.6365;0.6549;
940.5000;0.6374;0.6549;
940.8000;0.6382;0.6650;
941.1000;0.6365;0.6675;
941.4000;0.6390;0.6726;
941.7000;0.6349;0.6600;
942.0000;0.6357;0.6650;
942.3000;0.6374;0.6650;
942.6000;0.6374;0.6701;
942.9000;0.6357;0.6726;
943.2000;0.6374;0.6726;
943.5000;0.6349;0.6650;
943.8000;0.6406;0.6751;
944.1000;0.6382;0.6726;
944.4000;0.6382;0.6751;
944.7000;0.6325;0.6575;
945.0000;0.6382;0.6726;
945.3000;0.6390;0.6801;
945.6000;0.6390;0.6726;
945.9000;0.6325;0.6549;
946.2000;0.6382;0.6675;
946.5000;0.6276;0.6449;
946.8000;0.6365;0.6675;
947.1000;0.6365;0.6751;
947.4000;0.6406;0.6826;
947.7000;0.6365;0.6751;
948.0000;0.6374;0.6776;
948.3000;0.6374;0.6726;
948.6000;0.6406;0.6776;
948.9000;0.6374;0.6575;
949.2000;0.6357;0.6549;
949.5000;0.6357;0.6499;
949.8000;0.6374;0.6449;
950.1000;0.6365;0.6423;
950.4000;0.6349;0.6323;
950.7000;0.6414;0.6474;
951.0000;0.6341;0.6373;
951.3000;0.6365;0.6423;
951.6000;0.6349;0.6449;
951.9000;0.6374;0.6449;
952.2000;0.6365;0.6474;
952.5000;0.6374;0.6575;
952.8000;0.6374;0.6600;
953.1000;0.6325;0.6373;
953.4000;0.6357;0.6474;
953.7000;0.6341;0.6449;
954.0000;0.6357;0.6524;
954.3000;0.6357;0.6524;
954.6000;0.6349;0.6524;
954.9000;0.6357;0.6499;
955.2000;0.6365;0.6524;
955.5000;0.6357;0.6575;
955.8000;0.6365;0.6675;
956.1000;0.6374;0.6701;
956.4000;0.6365;0.6650;
956.7000;0.6365;0.6600;
957.0000;0.6357;0.6600;
957.3000;0.6382;0.6675;
957.6000;0.6390;0.6625;
957.9000;0.6365;0.6474;
958.2000;0.6374;0.6499;
958.5000;0.6374;0.6499;
958.8000;0.6382;0.6499;
959.1000;0.6382;0.6575;
959.4000;0.6374;0.6575;
959.7000;0.6341;0.6474;
960.0000;0.6365;0.6524;
960.3000;0.6374;0.6575;
960.6000;0.6382;0.6675;
960.9000;0.6374;0.6675;
961.2000;0.6349;0.6650;
961.5000;0.6341;0.6575;
961.8000;0.6365;0.6726;
962.1000;0.6357;0.6650;
962.4000;0.6365;0.6625;
962.7000;0.6382;0.6650;
963.0000;0.6374;0.6575;
963.3000;0.6349;0.6549;
963.6000;0.6357;0.6600;
963.9000;0.6390;0.6650;
964.2000;0.6357;0.6600;
964.5000;0.6349;0.6499;
964.8000;0.6357;0.6575;
965.1000;0.6349;0.6499;
965.4000;0.6365;0.6600;
965.7000;0.6374;0.6751;
966.0000;0.6341;0.6650;
966.3000;0.6365;0.6726;
966.6000;0.6349;0.6650;
966.9000;0.6365;0.6701;
967.2000;0.6365;0.6650;
967.5000;0.6374;0.6625;
967.8000;0.6341;0.6549;
968.1000;0.6357;0.6600;
968.4000;0.6365;0.6650;
968.7000;0.6349;0.6600;
969.0000;0.6357;0.6650;
969.3000;0.6365;0.6751;
969.6000;0.6365;0.6751;
969.9000;0.6341;0.6701;
970.2000;0.6365;0.6675;
970.5000;0.6365;0.6625;
970.8000;0.6357;0.6600;
971.1000;0.6365;0.6675;
971.4000;0.6365;0.6600;
971.7000;0.6365;0.6600;
972.0000;0.6374;0.6625;
972.3000;0.6374;0.6625;
972.6000;0.6382;0.6650;
972.9000;0.6374;0.6625;
973.2000;0.6357;0.6549;
973.5000;0.6365;0.6600;
973.8000;0.6365;0.6625;
974.1000;0.6357;0.6625;
974.4000;0.6365;0.6650;
974.7000;0.6365;0.6675;
975.0000;0.6365;0.6826;
975.3000;0.6349;0.6877;
975.6000;0.6341;0.6751;
975.9000;0.6341;0.6751;
976.2000;0.6341;0.6701;
976.5000;0.6357;0.6726;
976.8000;0.6357;0.6701;
977.1000;0.6349;0.6650;
977.4000;0.6349;0.6600;
977.7000;0.6300;0.6499;
978.0000;0.6349;0.6600;
978.3000;0.6349;0.6600;
978.6000;0.6431;0.6852;
978.9000;0.6357;0.6701;
979.2000;0.6374;0.6726;
979.5000;0.6357;0.6675;
979.8000;0.6341;0.6675;
980.1000;0.6341;0.6726;
980.4000;0.6357;0.6726;
980.7000;0.6374;0.6726;
981.0000;0.6341;0.6650;
981.3000;0.6341;0.6650;
981.6000;0.6374;0.6801;
981.9000;0.6349;0.6852;
982.2000;0.6349;0.6902;
982.5000;0.6341;0.6902;
982.8000;0.6390;0.6927;
983.1000;0.6357;0.6852;
983.4000;0.6374;0.6927;
983.7000;0.6349;0.6877;
984.0000;0.6349;0.6852;
984.3000;0.6357;0.6826;
984.6000;0.6357;0.6726;
984.9000;0.6349;0.6726;
985.2000;0.6357;0.6751;
985.5000;0.6349;0.6726;
985.8000;0.6349;0.6751;
986.1000;0.6333;0.6852;
986.4000;0.6349;0.6852;
986.7000;0.6341;0.6826;
987.0000;0.6357;0.6877;
987.3000;0.6357;0.6826;
987.6000;0.6357;0.6701;
987.9000;0.6317;0.6575;
988.2000;0.6349;0.6650;
988.5000;0.6349;0.6726;
988.8000;0.6341;0.6726;
989.1000;0.6349;0.6826;
989.4000;0.6357;0.6852;
989.7000;0.6341;0.6826;
990.0000;0.6341;0.6826;
990.3000;0.6398;0.6902;
990.6000;0.6341;0.6726;
990.9000;0.6341;0.6776;
991.2000;0.6349;0.6726;
991.5000;0.6333;0.6776;
991.8000;0.6309;0.6776;
992.1000;0.6349;0.6902;
992.4000;0.6341;0.6902;
992.7000;0.6333;0.6852;
993.0000;0.6357;0.6852;
993.3000;0.6349;0.6826;
993.6000;0.6341;0.6701;
993.9000;0.6341;0.6650;
994.2000;0.6341;0.6524;
994.5000;0.6382;0.6600;
994.8000;0.6349;0.6449;
995.1000;0.6325;0.6348;
995.4000;0.6341;0.6348;
995.7000;0.6357;0.6373;
996.0000;0.6365;0.6297;
996.3000;0.6341;0.6247;
996.6000;0.6333;0.6348;
996.9000;0.6349;0.6398;
997.2000;0.6341;0.6348;
997.5000;0.6333;0.6247;
997.8000;0.6341;0.6297;
998.1000;0.6325;0.6247;
998.4000;0.6341;0.6272;
998.7000;0.6341;0.6247;
999.0000;0.6300;0.6272;
999.3000;0.6333;0.6499;
999.6000;0.6341;0.6575;
999.9000;0.6325;0.6449;
1000.2000;0.6325;0.6499;
1000.5000;0.6317;0.6474;
1000.8000;0.6341;0.6549;
1001.1000;0.6341;0.6549;
1001.4000;0.6325;0.6575;
1001.7000;0.6309;0.6524;
1002.0000;0.6349;0.6524;
1002.3000;0.6341;0.6524;
1002.6000;0.6325;0.6499;
1002.9000;0.6341;0.6423;
1003.2000;0.6341;0.6398;
1003.5000;0.6341;0.6449;
1003.8000;0.6357;0.6423;
1004.1000;0.6325;0.6373;
1004.4000;0.6341;0.6272;
1004.7000;0.6357;0.6348;
1005.0000;0.6317;0.6373;
1005.3000;0.6317;0.6499;
1005.6000;0.6333;0.6650;
1005.9000;0.6333;0.6701;
1006.2000;0.6325;0.6625;
1006.5000;0.6309;0.6625;
1006.8000;0.6309;0.6650;
1007.1000;0.6325;0.6675;
1007.4000;0.6341;0.6575;
1007.7000;0.6349;0.6499;
1008.0000;0.6333;0.6549;
1008.3000;0.6325;0.6524;
1008.6000;0.6325;0.6499;
1008.9000;0.6341;0.6499;
1009.2000;0.6341;0.6600;
1009.5000;0.6333;0.6625;
1009.8000;0.6341;0.6625;
1010.1000;0.6341;0.6499;
1010.4000;0.6341;0.6524;
1010.7000;0.6317;0.6398;
1011.0000;0.6341;0.6474;
1011.3000;0.6341;0.6575;
1011.6000;0.6333;0.6650;
1011.9000;0.6309;0.6575;
1012.2000;0.6309;0.6524;
1012.5000;0.6317;0.6575;
1012.8000;0.6333;0.6524;
1013.1000;0.6309;0.6474;
1013.4000;0.6341;0.6600;
1013.7000;0.6341;0.6701;
1014.0000;0.6333;0.6650;
1014.3000;0.6349;0.6675;
1014.6000;0.6333;0.6600;
1014.9000;0.6341;0.6549;
1015.2000;0.6333;0.6524;
1015.5000;0.6325;0.6524;
1015.8000;0.6325;0.6575;
1016.1000;0.6325;0.6524;
1016.4000;0.6333;0.6675;
1016.7000;0.6341;0.6701;
1017.0000;0.6341;0.6701;
1017.3000;0.6349;0.6726;
1017.6000;0.6349;0.6650;
1017.9000;0.6349;0.6625;
1018.2000;0.6341;0.6625;
1018.5000;0.6333;0.6575;
1018.8000;0.6357;0.6701;
1019.1000;0.6333;0.6701;
1019.4000;0.6325;0.6751;
1019.7000;0.6341;0.6826;
1020.0000;0.6333;0.6751;
1020.3000;0.6325;0.6726;
1020.6000;0.6317;0.6600;
1020.9000;0.6325;0.6600;
1021.2000;0.6333;0.6701;
1021.5000;0.6317;0.6575;
1021.8000;0.6333;0.6650;
1022.1000;0.6341;0.6625;
1022.4000;0.6349;0.6701;
1022.7000;0.6382;0.6776;
1023.0000;0.6349;0.6575;
1023.3000;0.6325;0.6449;
1023.6000;0.6398;0.6600;
1023.9000;0.6333;0.6449;
1024.2000;0.6341;0.6449;
1024.5000;0.6333;0.6297;
1024.8000;0.6309;0.6297;
1025.1000;0.6309;0.6398;
1025.4000;0.6309;0.6398;
1025.7000;0.6390;0.6600;
1026.0000;0.6317;0.6524;
1026.3000;0.6317;0.6575;
1026.6000;0.6317;0.6549;
1026.9000;0.6317;0.6524;
1027.2000;0.6300;0.6449;
1027.5000;0.6317;0.6423;
1027.8000;0.6382;0.6600;
1028.1000;0.6365;0.6499;
1028.4000;0.6317;0.6323;
1028.7000;0.6333;0.6423;
1029.0000;0.6341;0.6423;
1029.3000;0.6349;0.6423;
1029.6000;0.6333;0.6323;
1029.9000;0.6309;0.6247;
1030.2000;0.6341;0.6272;
1030.5000;0.6309;0.6272;
1030.8000;0.6325;0.6197;
1031.1000;0.6333;0.6197;
1031.4000;0.6300;0.6172;
1031.7000;0.6398;0.6524;
1032.0000;0.6333;0.6297;
1032.3000;0.6317;0.6373;
1032.6000;0.6309;0.6348;
1032.9000;0.6325;0.6423;
1033.2000;0.6333;0.6499;
1033.5000;0.6365;0.6625;
1033.8000;0.6317;0.6524;
1034.1000;0.6325;0.6600;
1034.4000;0.6341;0.6675;
1034.7000;0.6292;0.6625;
1035.0000;0.6317;0.6625;
1035.3000;0.6309;0.6625;
1035.6000;0.6317;0.6675;
1035.9000;0.6325;0.6650;
1036.2000;0.6309;0.6575;
1036.5000;0.6292;0.6524;
1036.8000;0.6260;0.6449;
1037.1000;0.6309;0.6575;
1037.4000;0.6325;0.6650;
1037.7000;0.6317;0.6625;
1038.0000;0.6333;0.6575;
1038.3000;0.6325;0.6549;
1038.6000;0.6325;0.6499;
1038.9000;0.6374;0.6625;
1039.2000;0.6333;0.6524;
1039.5000;0.6317;0.6549;
1039.8000;0.6300;0.6549;
1040.1000;0.6300;0.6600;
1040.4000;0.6349;0.6675;
1040.7000;0.6325;0.6575;
1041.0000;0.6317;0.6499;
1041.3000;0.6243;0.6323;
1041.6000;0.6333;0.6474;
1041.9000;0.6325;0.6474;
1042.2000;0.6300;0.6449;
1042.5000;0.6317;0.6499;
1042.8000;0.6309;0.6423;
1043.1000;0.6325;0.6449;
1043.4000;0.6398;0.6675;
1043.7000;0.6252;0.6373;
1044.0000;0.6333;0.6575;
1044.3000;0.6325;0.6373;
1044.6000;0.6300;0.6348;
1044.9000;0.6317;0.6474;
1045.2000;0.6317;0.6575;
1045.5000;0.6317;0.6600;
1045.8000;0.6317;0.6650;
1046.1000;0.6292;0.6701;
1046.4000;0.6292;0.6650;
1046.7000;0.6284;0.6650;
1047.0000;0.6300;0.6650;
1047.3000;0.6309;0.6701;
1047.6000;0.6325;0.6726;
1047.9000;0.6300;0.6701;
1048.2000;0.6317;0.6701;
1048.5000;0.6309;0.6675;
1048.8000;0.6317;0.6600;
1049.1000;0.6317;0.6600;
1049.4000;0.6292;0.6524;
1049.7000;0.6309;0.6524;
1050.0000;0.6325;0.6575;
1050.3000;0.6309;0.6650;
1050.6000;0.6325;0.6675;
1050.9000;0.6317;0.6701;
1051.2000;0.6300;0.6650;
1051.5000;0.6300;0.6675;
1051.8000;0.6317;0.6701;
1052.1000;0.6325;0.6726;
1052.4000;0.6284;0.6675;
1052.7000;0.6292;0.6701;
1053.0000;0.6300;0.6726;
1053.3000;0.6309;0.6650;
1053.6000;0.6300;0.6701;
1053.9000;0.6300;0.6650;
1054.2000;0.6292;0.6474;
1054.5000;0.6300;0.6423;
1054.8000;0.6374;0.6600;
1055.1000;0.6300;0.6474;
1055.4000;0.6284;0.6423;
1055.7000;0.6309;0.6499;
1056.0000;0.6309;0.6449;
1056.3000;0.6357;0.6549;
1056.6000;0.6284;0.6323;
1056.9000;0.6292;0.6297;
1057.2000;0.6300;0.6373;
1057.5000;0.6300;0.6297;
1057.8000;0.6292;0.6373;
1058.1000;0.6300;0.6348;
1058.4000;0.6284;0.6323;
1058.7000;0.6284;0.6272;
1059.0000;0.6317;0.6373;
1059.3000;0.6317;0.6348;
1059.6000;0.6317;0.6398;
1059.9000;0.6365;0.6499;
1060.2000;0.6292;0.6373;
1060.5000;0.6317;0.6423;
1060.8000;0.6325;0.6474;
1061.1000;0.6284;0.6474;
1061.4000;0.6276;0.6398;
1061.7000;0.6292;0.6474;
1062.0000;0.6292;0.6474;
1062.3000;0.6398;0.6675;
1062.6000;0.6268;0.6323;
1062.9000;0.6300;0.6323;
1063.2000;0.6300;0.6423;
1063.5000;0.6309;0.6449;
1063.8000;0.6284;0.6499;
1064.1000;0.6325;0.6524;
1064.4000;0.6309;0.6423;
1064.7000;0.6309;0.6474;
1065.0000;0.6317;0.6474;
1065.3000;0.6309;0.6398;
1065.6000;0.6309;0.6272;
1065.9000;0.6309;0.6373;
1066.2000;0.6325;0.6373;
1066.5000;0.6252;0.6146;
1066.8000;0.6309;0.6297;
1067.1000;0.6309;0.6398;
1067.4000;0.6309;0.6499;
1067.7000;0.6284;0.6449;
1068.0000;0.6292;0.6398;
1068.3000;0.6292;0.6323;
1068.6000;0.6276;0.6348;
1068.9000;0.6292;0.6600;
1069.2000;0.6292;0.6701;
1069.5000;0.6284;0.6701;
1069.8000;0.6292;0.6701;
1070.1000;0.6243;0.6600;
1070.4000;0.6292;0.6625;
1070.7000;0.6309;0.6575;
1071.0000;0.6317;0.6549;
1071.3000;0.6284;0.6499;
1071.6000;0.6292;0.6449;
1071.9000;0.6276;0.6373;
1072.2000;0.6235;0.6272;
1072.5000;0.6300;0.6474;
1072.8000;0.6292;0.6575;
1073.1000;0.6292;0.6575;
1073.4000;0.6325;0.6575;
1073.7000;0.6268;0.6524;
1074.0000;0.6300;0.6625;
1074.3000;0.6292;0.6650;
1074.6000;0.6268;0.6600;
1074.9000;0.6300;0.6650;
1075.2000;0.6284;0.6650;
1075.5000;0.6300;0.6675;
1075.8000;0.6300;0.6726;
1076.1000;0.6309;0.6751;
1076.4000;0.6300;0.6675;
1076.7000;0.6292;0.6650;
1077.0000;0.6260;0.6600;
1077.3000;0.6309;0.6726;
1077.6000;0.6292;0.6650;
1077.9000;0.6268;0.6600;
1078.2000;0.6292;0.6675;
1078.5000;0.6300;0.6675;
1078.8000;0.6284;0.6701;
1079.1000;0.6292;0.6701;
1079.4000;0.6276;0.6701;
1079.7000;0.6300;0.6726;
1080.0000;0.6284;0.6625;
1080.3000;0.6317;0.6701;
1080.6000;0.6292;0.6625;
1080.9000;0.6300;0.6499;
1081.2000;0.6284;0.6625;
1081.5000;0.6211;0.6499;
1081.8000;0.6292;0.6776;
1082.1000;0.6260;0.6675;
1082.4000;0.6292;0.6701;
1082.7000;0.6317;0.6726;
1083.0000;0.6300;0.6726;
1083.3000;0.6292;0.6726;
1083.6000;0.6317;0.6650;
1083.9000;0.6252;0.6499;
1084.2000;0.6284;0.6575;
1084.5000;0.6300;0.6524;
1084.8000;0.6276;0.6449;
1085.1000;0.6300;0.6474;
1085.4000;0.6300;0.6449;
1085.7000;0.6292;0.6499;
1086.0000;0.6292;0.6549;
1086.3000;0.6300;0.6625;
1086.6000;0.6317;0.6726;
1086.9000;0.6292;0.6625;
1087.2000;0.6309;0.6675;
1087.5000;0.6284;0.6650;
1087.8000;0.6300;0.6675;
1088.1000;0.6292;0.6701;
1088.4000;0.6309;0.6776;
1088.7000;0.6309;0.6776;
1089.0000;0.6260;0.6650;
1089.3000;0.6268;0.6650;
1089.6000;0.6284;0.6675;
1089.9000;0.6292;0.6701;
1090.2000;0.6317;0.6751;
1090.5000;0.6284;0.6650;
1090.8000;0.6292;0.6575;
1091.1000;0.6300;0.6575;
1091.4000;0.6300;0.6575;
1091.7000;0.6300;0.6625;
1092.0000;0.6300;0.6600;
1092.3000;0.6276;0.6449;
1092.6000;0.6276;0.6549;
1092.9000;0.6284;0.6625;
1093.2000;0.6252;0.6524;
1093.5000;0.6284;0.6600;
1093.8000;0.6300;0.6625;
1094.1000;0.6292;0.6675;
1094.4000;0.6235;0.6474;
1094.7000;0.6268;0.6549;
1095.0000;0.6300;0.6549;
1095.3000;0.6243;0.6474;
1095.6000;0.6300;0.6675;
1095.9000;0.6292;0.6675;
1096.2000;0.6300;0.6701;
1096.5000;0.6300;0.6726;
1096.8000;0.6276;0.6701;
1097.1000;0.6292;0.6675;
1097.4000;0.6292;0.6625;
1097.7000;0.6292;0.6549;
1098.0000;0.6284;0.6600;
1098.3000;0.6276;0.6701;
1098.6000;0.6235;0.6524;
1098.9000;0.6284;0.6701;
1099.2000;0.6276;0.6701;
1099.5000;0.6284;0.6675;
1099.8000;0.6260;0.6575;
1100.1000;0.6284;0.6650;
1100.4000;0.6292;0.6650;
1100.7000;0.6260;0.6625;
1101.0000;0.6300;0.6675;
1101.3000;0.6252;0.6524;
1101.6000;0.6300;0.6625;
1101.9000;0.6211;0.6373;
1102.2000;0.6292;0.6600;
1102.5000;0.6211;0.6549;
1102.8000;0.6268;0.6675;
1103.1000;0.6284;0.6600;
1103.4000;0.6276;0.6575;
1103.7000;0.6268;0.6549;
1104.0000;0.6276;0.6575;
1104.3000;0.6300;0.6524;
1104.6000;0.6292;0.6549;
1104.9000;0.6300;0.6499;
1105.2000;0.6284;0.6524;
1105.5000;0.6325;0.6600;
1105.8000;0.6284;0.6449;
1106.1000;0.6309;0.6499;
1106.4000;0.6309;0.6524;
1106.7000;0.6300;0.6524;
1107.0000;0.6300;0.6575;
1107.3000;0.6292;0.6549;
1107.6000;0.6284;0.6549;
1107.9000;0.6284;0.6524;
1108.2000;0.6300;0.6524;
1108.5000;0.6309;0.6449;
1108.8000;0.6284;0.6323;
1109.1000;0.6284;0.6348;
1109.4000;0.6268;0.6348;
1109.7000;0.6292;0.6449;
1110.0000;0.6300;0.6449;
1110.3000;0.6292;0.6373;
1110.6000;0.6309;0.6373;
1110.9000;0.6284;0.6323;
1111.2000;0.6292;0.6423;
1111.5000;0.6309;0.6474;
1111.8000;0.6309;0.6524;
1112.1000;0.6276;0.6524;
1112.4000;0.6284;0.6600;
1112.7000;0.6284;0.6625;
1113.0000;0.6260;0.6625;
1113.3000;0.6300;0.6726;
1113.6000;0.6260;0.6650;
1113.9000;0.6276;0.6625;
1114.2000;0.6276;0.6625;
1114.5000;0.6260;0.6650;
1114.8000;0.6292;0.6600;
1115.1000;0.6292;0.6625;
1115.4000;0.6276;0.6650;
1115.7000;0.6276;0.6726;
1116.0000;0.6292;0.6776;
1116.3000;0.6276;0.6650;
1116.6000;0.6292;0.6701;
1116.9000;0.6300;0.6726;
1117.2000;0.6276;0.6650;
1117.5000;0.6252;0.6499;
1117.8000;0.6284;0.6600;
1118.1000;0.6292;0.6575;
1118.4000;0.6284;0.6549;
1118.7000;0.6284;0.6549;
1119.0000;0.6284;0.6524;
1119.3000;0.6284;0.6625;
1119.6000;0.6284;0.6675;
1119.9000;0.6235;0.6474;
1120.2000;0.6284;0.6650;
1120.5000;0.6284;0.6701;
1120.8000;0.6309;0.6801;
1121.1000;0.6276;0.6625;
1121.4000;0.6292;0.6650;
1121.7000;0.6276;0.6650;
1122.0000;0.6309;0.6751;
1122.3000;0.6357;0.6801;
1122.6000;0.6309;0.6726;
1122.9000;0.6292;0.6751;
1123.2000;0.6268;0.6701;
1123.5000;0.6284;0.6726;
1123.8000;0.6292;0.6801;
1124.1000;0.6260;0.6776;
1124.4000;0.6300;0.6927;
1124.7000;0.6292;0.6952;
1125.0000;0.6284;0.6927;
1125.3000;0.6284;0.6852;
1125.6000;0.6276;0.6877;
1125.9000;0.6268;0.6852;
1126.2000;0.6284;0.6852;
1126.5000;0.6276;0.6801;
1126.8000;0.6276;0.6801;
1127.1000;0.6276;0.6726;
1127.4000;0.6268;0.6701;
1127.7000;0.6276;0.6701;
1128.0000;0.6276;0.6701;
1128.3000;0.6268;0.6726;
1128.6000;0.6276;0.6751;
1128.9000;0.6260;0.6701;
1129.2000;0.6268;0.6726;
1129.5000;0.6268;0.6650;
1129.8000;0.6268;0.6600;
1130.1000;0.6260;0.6575;
1130.4000;0.6276;0.6600;
1130.7000;0.6260;0.6625;
1131.0000;0.6276;0.6701;
1131.3000;0.6276;0.6726;
1131.6000;0.6284;0.6751;
1131.9000;0.6252;0.6751;
1132.2000;0.6284;0.6852;
1132.5000;0.6268;0.6877;
1132.8000;0.6268;0.6877;
1133.1000;0.6260;0.6650;
1133.4000;0.6284;0.6675;
1133.7000;0.6276;0.6625;
1134.0000;0.6276;0.6726;
1134.3000;0.6268;0.6675;
1134.6000;0.6276;0.6726;
1134.9000;0.6284;0.6701;
1135.2000;0.6276;0.6701;
1135.5000;0.6252;0.6625;
1135.8000;0.6260;0.6625;
1136.1000;0.6260;0.6575;
1136.4000;0.6268;0.6474;
1136.7000;0.6235;0.6323;
1137.0000;0.6276;0.6423;
1137.3000;0.6317;0.6625;
1137.6000;0.6276;0.6549;
1137.9000;0.6268;0.6600;
1138.2000;0.6260;0.6575;
1138.5000;0.6284;0.6600;
1138.8000;0.6276;0.6575;
1139.1000;0.6276;0.6549;
1139.4000;0.6260;0.6474;
1139.7000;0.6325;0.6701;
1140.0000;0.6243;0.6423;
1140.3000;0.6292;0.6474;
1140.6000;0.6276;0.6423;
1140.9000;0.6268;0.6373;
1141.2000;0.6276;0.6423;
1141.5000;0.6284;0.6524;
1141.8000;0.6268;0.6449;
1142.1000;0.6276;0.6449;
1142.4000;0.6292;0.6423;
1142.7000;0.6268;0.6499;
1143.0000;0.6268;0.6650;
1143.3000;0.6292;0.6650;
1143.6000;0.6276;0.6625;
1143.9000;0.6268;0.6549;
1144.2000;0.6211;0.6373;
1144.5000;0.6260;0.6474;
1144.8000;0.6268;0.6423;
1145.1000;0.6268;0.6398;
1145.4000;0.6276;0.6398;
1145.7000;0.6276;0.6423;
1146.0000;0.6268;0.6524;
1146.3000;0.6284;0.6701;
1146.6000;0.6268;0.6701;
1146.9000;0.6268;0.6675;
1147.2000;0.6325;0.6852;
1147.5000;0.6268;0.6726;
1147.8000;0.6325;0.6927;
1148.1000;0.6268;0.6826;
1148.4000;0.6333;0.6952;
1148.7000;0.6300;0.6801;
1149.0000;0.6292;0.6852;
1149.3000;0.6260;0.6826;
1149.6000;0.6268;0.6852;
1149.9000;0.6292;0.6852;
1150.2000;0.6252;0.6776;
1150.5000;0.6276;0.6801;
1150.8000;0.6268;0.6801;
1151.1000;0.6284;0.6701;
1151.4000;0.6276;0.6650;
1151.7000;0.6300;0.6751;
1152.0000;0.6276;0.6675;
1152.3000;0.6268;0.6675;
1152.6000;0.6211;0.6549;
1152.9000;0.6276;0.6701;
1153.2000;0.6268;0.6701;
1153.5000;0.6268;0.6650;
1153.8000;0.6284;0.6726;
1154.1000;0.6276;0.6675;
1154.4000;0.6276;0.6575;
1154.7000;0.6268;0.6499;
1155.0000;0.6284;0.6549;
1155.3000;0.6260;0.6449;
1155.6000;0.6268;0.6373;
1155.9000;0.6374;0.6625;
1156.2000;0.6268;0.6297;
1156.5000;0.6268;0.6423;
1156.8000;0.6276;0.6524;
1157.1000;0.6276;0.6575;
1157.4000;0.6268;0.6524;
1157.7000;0.6276;0.6524;
1158.0000;0.6276;0.6575;
1158.3000;0.6276;0.6600;
1158.6000;0.6268;0.6625;
1158.9000;0.6276;0.6625;
1159.2000;0.6268;0.6701;
1159.5000;0.6235;0.6575;
1159.8000;0.6260;0.6625;
1160.1000;0.6292;0.6776;
1160.4000;0.6284;0.6751;
1160.7000;0.6268;0.6726;
1161.0000;0.6300;0.6751;
1161.3000;0.6252;0.6625;
1161.6000;0.6268;0.6701;
1161.9000;0.6268;0.6726;
1162.2000;0.6284;0.6751;
1162.5000;0.6227;0.6600;
1162.8000;0.6235;0.6701;
1163.1000;0.6276;0.6776;
1163.4000;0.6268;0.6726;
1163.7000;0.6268;0.6675;
1164.0000;0.6252;0.6726;
1164.3000;0.6243;0.6701;
1164.6000;0.6243;0.6675;
1164.9000;0.6252;0.6625;
1165.2000;0.6252;0.6600;
1165.5000;0.6268;0.6675;
1165.8000;0.6252;0.6600;
1166.1000;0.6260;0.6600;
1166.4000;0.6219;0.6499;
1166.7000;0.6268;0.6675;
1167.0000;0.6268;0.6600;
1167.3000;0.6260;0.6625;
1167.6000;0.6260;0.6625;
1167.9000;0.6260;0.6776;
1168.2000;0.6260;0.6701;
1168.5000;0.6252;0.6675;
1168.8000;0.6325;0.6927;
1169.1000;0.6195;0.6575;
1169.4000;0.6276;0.6675;
1169.7000;0.6276;0.6701;
1170.0000;0.6211;0.6600;
1170.3000;0.6260;0.6751;
1170.6000;0.6268;0.6751;
1170.9000;0.6235;0.6701;
1171.2000;0.6260;0.6751;
1171.5000;0.6268;0.6726;
1171.8000;0.6276;0.6801;
1172.1000;0.6268;0.6801;
1172.4000;0.6284;0.6852;
1172.7000;0.6260;0.6826;
1173.0000;0.6260;0.6751;
1173.3000;0.6276;0.6776;
1173.6000;0.6268;0.6726;
1173.9000;0.6260;0.6726;
1174.2000;0.6268;0.6801;
1174.5000;0.6227;0.6751;
1174.8000;0.6268;0.6751;
1175.1000;0.6268;0.6751;
1175.4000;0.6268;0.6751;
1175.7000;0.6317;0.6826;
1176.0000;0.6260;0.6650;
1176.3000;0.6252;0.6675;
1176.6000;0.6276;0.6801;
1176.9000;0.6300;0.6852;
1177.2000;0.6292;0.6776;
1177.5000;0.6268;0.6801;
1177.8000;0.6300;0.6826;
1178.1000;0.6268;0.6726;
1178.4000;0.6292;0.6776;
1178.7000;0.6292;0.6675;
1179.0000;0.6276;0.6650;
1179.3000;0.6268;0.6650;
1179.6000;0.6268;0.6675;
1179.9000;0.6276;0.6600;
1180.2000;0.6260;0.6499;
1180.5000;0.6276;0.6524;
1180.8000;0.6268;0.6474;
1181.1000;0.6276;0.6449;
1181.4000;0.6252;0.6474;
1181.7000;0.6235;0.6423;
1182.0000;0.6268;0.6373;
1182.3000;0.6276;0.6474;
1182.6000;0.6260;0.6449;
1182.9000;0.6260;0.6423;
1183.2000;0.6276;0.6398;
1183.5000;0.6268;0.6398;
1183.8000;0.6276;0.6398;
1184.1000;0.6260;0.6423;
1184.4000;0.6260;0.6449;
1184.7000;0.6268;0.6449;
1185.0000;0.6268;0.6449;
1185.3000;0.6260;0.6423;
1185.6000;0.6252;0.6474;
1185.9000;0.6276;0.6499;
1186.2000;0.6252;0.6449;
1186.5000;0.6276;0.6499;
1186.8000;0.6284;0.6575;
1187.1000;0.6260;0.6600;
1187.4000;0.6276;0.6675;
1187.7000;0.6268;0.6701;
1188.0000;0.6252;0.6701;
1188.3000;0.6268;0.6650;
1188.6000;0.6284;0.6600;
1188.9000;0.6252;0.6474;
1189.2000;0.6284;0.6524;
1189.5000;0.6268;0.6524;
1189.8000;0.6268;0.6549;
1190.1000;0.6260;0.6524;
1190.4000;0.6268;0.6499;
1190.7000;0.6211;0.6297;
1191.0000;0.6268;0.6398;
1191.3000;0.6276;0.6348;
1191.6000;0.6260;0.6323;
1191.9000;0.6268;0.6398;
1192.2000;0.6260;0.6398;
1192.5000;0.6260;0.6398;
1192.8000;0.6252;0.6524;
1193.1000;0.6268;0.6625;
1193.4000;0.6268;0.6625;
1193.7000;0.6284;0.6575;
1194.0000;0.6268;0.6575;
1194.3000;0.6252;0.6701;
1194.6000;0.6243;0.6650;
1194.9000;0.6292;0.6650;
1195.2000;0.6268;0.6625;
1195.5000;0.6235;0.6575;
1195.8000;0.6260;0.6650;
1196.1000;0.6260;0.6575;
1196.4000;0.6260;0.6600;
1196.7000;0.6260;0.6575;
1197.0000;0.6260;0.6524;
1197.3000;0.6252;0.6524;
1197.6000;0.6292;0.6625;
1197.9000;0.6260;0.6474;
1198.2000;0.6260;0.6398;
1198.5000;0.6268;0.6449;
1198.8000;0.6260;0.6423;
1199.1000;0.6252;0.6398;
1199.4000;0.6243;0.6423;
1199.7000;0.6276;0.6474;
1200.0000;0.6252;0.6499;
1200.3000;0.6260;0.6474;
1200.6000;0.6252;0.6449;
1200.9000;0.6235;0.6449;
1201.2000;0.6260;0.6474;
1201.5000;0.6243;0.6474;
1201.8000;0.6260;0.6549;
1202.1000;0.6243;0.6524;
1202.4000;0.6252;0.6625;
1202.7000;0.6309;0.6751;
1203.0000;0.6252;0.6650;
1203.3000;0.6276;0.6650;
1203.6000;0.6260;0.6600;
1203.9000;0.6260;0.6600;
1204.2000;0.6252;0.6600;
1204.5000;0.6260;0.6650;
1204.8000;0.6235;0.6524;
1205.1000;0.6243;0.6549;
1205.4000;0.6252;0.6575;
1205.7000;0.6243;0.6575;
1206.0000;0.6243;0.6524;
1206.3000;0.6252;0.6701;
1206.6000;0.6276;0.6701;
1206.9000;0.6243;0.6650;
1207.2000;0.6219;0.6650;
1207.5000;0.6243;0.6675;
1207.8000;0.6268;0.6701;
1208.1000;0.6268;0.6701;
1208.4000;0.6252;0.6650;
1208.7000;0.6276;0.6726;
1209.0000;0.6268;0.6650;
1209.3000;0.6252;0.6625;
1209.6000;0.6252;0.6650;
1209.9000;0.6252;0.6625;
1210.2000;0.6284;0.6701;
1210.5000;0.6333;0.6826;
1210.8000;0.6252;0.6575;
1211.1000;0.6276;0.6726;
1211.4000;0.6252;0.6675;
1211.7000;0.6252;0.6701;
1212.0000;0.6260;0.6726;
1212.3000;0.6243;0.6625;
1212.6000;0.6243;0.6625;
1212.9000;0.6260;0.6600;
1213.2000;0.6211;0.6474;
1213.5000;0.6243;0.6600;
1213.8000;0.6268;0.6575;
1214.1000;0.6276;0.6650;
1214.4000;0.6252;0.6575;
1214.7000;0.6260;0.6524;
1215.0000;0.6260;0.6600;
1215.3000;0.6252;0.6600;
1215.6000;0.6284;0.6751;
1215.9000;0.6227;0.6625;
1216.2000;0.6252;0.6625;
1216.5000;0.6252;0.6650;
1216.8000;0.6260;0.6701;
1217.1000;0.6243;0.6726;
1217.4000;0.6252;0.6701;
1217.7000;0.6260;0.6726;
1218.0000;0.6260;0.6701;
1218.3000;0.6243;0.6575;
1218.6000;0.6252;0.6499;
1218.9000;0.6268;0.6549;
1219.2000;0.6260;0.6499;
1219.5000;0.6276;0.6549;
1219.8000;0.6243;0.6575;
1220.1000;0.6260;0.6600;
1220.4000;0.6243;0.6575;
1220.7000;0.6252;0.6524;
1221.0000;0.6243;0.6524;
1221.3000;0.6243;0.6549;
1221.6000;0.6252;0.6575;
1221.9000;0.6243;0.6499;
1222.2000;0.6260;0.6600;
1222.5000;0.6260;0.6575;
1222.8000;0.6260;0.6549;
1223.1000;0.6252;0.6524;
1223.4000;0.6235;0.6549;
1223.7000;0.6268;0.6600;
1224.0000;0.6268;0.6600;
1224.3000;0.6252;0.6625;
1224.6000;0.6252;0.6726;
1224.9000;0.6243;0.6751;
1225.2000;0.6243;0.6650;
1225.5000;0.6252;0.6650;
1225.8000;0.6260;0.6549;
1226.1000;0.6235;0.6575;
1226.4000;0.6252;0.6600;
1226.7000;0.6235;0.6549;
1227.0000;0.6252;0.6600;
1227.3000;0.6235;0.6524;
1227.6000;0.6260;0.6524;
1227.9000;0.6243;0.6499;
1228.2000;0.6260;0.6524;
1228.5000;0.6276;0.6625;
1228.8000;0.6252;0.6625;
1229.1000;0.6252;0.6625;
1229.4000;0.6252;0.6575;
1229.7000;0.6243;0.6600;
1230.0000;0.6235;0.6549;
1230.3000;0.6252;0.6575;
1230.6000;0.6260;0.6675;
1230.9000;0.6252;0.6650;
1231.2000;0.6203;0.6600;
1231.5000;0.6243;0.6801;
1231.8000;0.6243;0.6826;
1232.1000;0.6243;0.6826;
1232.4000;0.6292;0.6852;
1232.7000;0.6252;0.6726;
1233.0000;0.6276;0.6701;
1233.3000;0.6260;0.6675;
1233.6000;0.6268;0.6675;
1233.9000;0.6260;0.6625;
1234.2000;0.6211;0.6423;
1234.5000;0.6252;0.6499;
1234.8000;0.6260;0.6423;
1235.1000;0.6252;0.6499;
1235.4000;0.6252;0.6524;
1235.7000;0.6260;0.6650;
1236.0000;0.6235;0.6650;
1236.3000;0.6227;0.6575;
1236.6000;0.6243;0.6625;
1236.9000;0.6260;0.6675;
1237.2000;0.6252;0.6726;
1237.5000;0.6203;0.6650;
1237.8000;0.6211;0.6625;
1238.1000;0.6260;0.6625;
1238.4000;0.6260;0.6650;
1238.7000;0.6252;0.6726;
1239.0000;0.6252;0.6701;
1239.3000;0.6243;0.6701;
1239.6000;0.6252;0.6701;
1239.9000;0.6252;0.6675;
1240.2000;0.6252;0.6701;
1240.5000;0.6252;0.6701;
1240.8000;0.6252;0.6701;
1241.1000;0.6260;0.6675;
1241.4000;0.6243;0.6625;
1241.7000;0.6260;0.6600;
1242.0000;0.6260;0.6625;
1242.3000;0.6260;0.6701;
1242.6000;0.6235;0.6701;
1242.9000;0.6252;0.6751;
1243.2000;0.6260;0.6801;
1243.5000;0.6284;0.6826;
1243.8000;0.6252;0.6801;
1244.1000;0.6260;0.6852;
1244.4000;0.6252;0.6877;
1244.7000;0.6268;0.6877;
1245.0000;0.6243;0.6776;
1245.3000;0.6243;0.6776;
1245.6000;0.6235;0.6701;
1245.9000;0.6252;0.6751;
1246.2000;0.6243;0.6701;
1246.5000;0.6227;0.6625;
1246.8000;0.6243;0.6675;
1247.1000;0.6252;0.6701;
1247.4000;0.6260;0.6726;
1247.7000;0.6243;0.6751;
1248.0000;0.6227;0.6726;
1248.3000;0.6235;0.6675;
1248.6000;0.6227;0.6650;
1248.9000;0.6243;0.6701;
1249.2000;0.6243;0.6726;
1249.5000;0.6235;0.6852;
1249.8000;0.6178;0.6625;
1250.1000;0.6268;0.6877;
1250.4000;0.6243;0.6776;
1250.7000;0.6243;0.6852;
1251.0000;0.6227;0.6852;
1251.3000;0.6260;0.6902;
1251.6000;0.6260;0.6877;
1251.9000;0.6243;0.6852;
1252.2000;0.6284;0.6852;
1252.5000;0.6268;0.6776;
1252.8000;0.6243;0.6675;
1253.1000;0.6252;0.6701;
1253.4000;0.6243;0.6701;
1253.7000;0.6243;0.6826;
1254.0000;0.6252;0.6826;
1254.3000;0.6243;0.6776;
1254.6000;0.6276;0.6877;
1254.9000;0.6243;0.6826;
1255.2000;0.6268;0.6927;
1255.5000;0.6252;0.6877;
1255.8000;0.6243;0.6801;
1256.1000;0.6243;0.6751;
1256.4000;0.6252;0.6726;
1256.7000;0.6227;0.6726;
1257.0000;0.6260;0.6776;
1257.3000;0.6186;0.6499;
1257.6000;0.6227;0.6625;
1257.9000;0.6243;0.6675;
1258.2000;0.6300;0.6776;
1258.5000;0.6243;0.6650;
1258.8000;0.6260;0.6675;
1259.1000;0.6252;0.6701;
1259.4000;0.6243;0.6650;
1259.7000;0.6260;0.6726;
1260.0000;0.6260;0.6726;
1260.3000;0.6243;0.6675;
1260.6000;0.6235;0.6625;
1260.9000;0.6235;0.6675;
1261.2000;0.6252;0.6726;
1261.5000;0.6252;0.6726;
1261.8000;0.6235;0.6701;
1262.1000;0.6227;0.6600;
1262.4000;0.6235;0.6575;
1262.7000;0.6252;0.6776;
1263.0000;0.6260;0.6852;
1263.3000;0.6211;0.6625;
1263.6000;0.6243;0.6726;
1263.9000;0.6268;0.6852;
1264.2000;0.6203;0.6726;
1264.5000;0.6235;0.6852;
1264.8000;0.6252;0.6952;
1265.1000;0.6252;0.7003;
1265.4000;0.6235;0.6852;
1265.7000;0.6243;0.6927;
1266.0000;0.6243;0.6978;
1266.3000;0.6260;0.7053;
1266.6000;0.6235;0.6978;
1266.9000;0.6252;0.6927;
1267.2000;0.6260;0.6877;
1267.5000;0.6243;0.6801;
1267.8000;0.6252;0.6826;
1268.1000;0.6268;0.6826;
1268.4000;0.6252;0.6801;
1268.7000;0.6260;0.6826;
1269.0000;0.6268;0.6902;
1269.3000;0.6243;0.6877;
1269.6000;0.6276;0.6952;
1269.9000;0.6252;0.6927;
1270.2000;0.6268;0.6852;
1270.5000;0.6260;0.6877;
1270.8000;0.6211;0.6776;
1271.1000;0.6243;0.6826;
1271.4000;0.6300;0.6902;
1271.7000;0.6317;0.6902;
1272.0000;0.6235;0.6650;
1272.3000;0.6219;0.6625;
1272.6000;0.6268;0.6877;
1272.9000;0.6219;0.6776;
1273.2000;0.6252;0.6826;
1273.5000;0.6243;0.6801;
1273.8000;0.6235;0.6801;
1274.1000;0.6243;0.6852;
1274.4000;0.6243;0.6852;
1274.7000;0.6243;0.6852;
1275.0000;0.6235;0.6902;
1275.3000;0.6227;0.6852;
1275.6000;0.6211;0.6852;
1275.9000;0.6235;0.6952;
1276.2000;0.6227;0.6877;
1276.5000;0.6235;0.6701;
1276.8000;0.6252;0.6625;
1277.1000;0.6243;0.6575;
1277.4000;0.6252;0.6625;
1277.7000;0.6260;0.6675;
1278.0000;0.6235;0.6650;
1278.3000;0.6219;0.6675;
1278.6000;0.6243;0.6701;
1278.9000;0.6252;0.6600;
1279.2000;0.6195;0.6575;
1279.5000;0.6219;0.6650;
1279.8000;0.6235;0.6701;
1280.1000;0.6260;0.6701;
1280.4000;0.6227;0.6701;
1280.7000;0.6268;0.6650;
1281.0000;0.6252;0.6675;
1281.3000;0.6300;0.6675;
1281.6000;0.6243;0.6524;
1281.9000;0.6252;0.6499;
1282.2000;0.6243;0.6524;
1282.5000;0.6243;0.6549;
1282.8000;0.6252;0.6524;
1283.1000;0.6227;0.6625;
1283.4000;0.6235;0.6650;
1283.7000;0.6219;0.6650;
1284.0000;0.6227;0.6776;
1284.3000;0.6252;0.6801;
1284.6000;0.6243;0.6801;
1284.9000;0.6178;0.6575;
1285.2000;0.6235;0.6877;
1285.5000;0.6243;0.6902;
1285.8000;0.6243;0.6902;
1286.1000;0.6252;0.6978;
1286.4000;0.6219;0.6927;
1286.7000;0.6162;0.6826;
1287.0000;0.6252;0.7003;
1287.3000;0.6268;0.6952;
1287.6000;0.6243;0.6801;
1287.9000;0.6252;0.6751;
1288.2000;0.6235;0.6600;
1288.5000;0.6235;0.6549;
1288.8000;0.6243;0.6549;
1289.1000;0.6252;0.6625;
1289.4000;0.6252;0.6600;
1289.7000;0.6243;0.6600;
1290.0000;0.6243;0.6524;
1290.3000;0.6227;0.6449;
1290.6000;0.6260;0.6474;
1290.9000;0.6260;0.6474;
1291.2000;0.6252;0.6423;
1291.5000;0.6235;0.6449;
1291.8000;0.6227;0.6423;
1292.1000;0.6235;0.6323;
1292.4000;0.6235;0.6373;
1292.7000;0.6243;0.6373;
1293.0000;0.6235;0.6373;
1293.3000;0.6243;0.6348;
1293.6000;0.6243;0.6247;
1293.9000;0.6219;0.6247;
1294.2000;0.6227;0.6297;
1294.5000;0.6243;0.6373;
1294.8000;0.6211;0.6373;
1295.1000;0.6219;0.6474;
1295.4000;0.6235;0.6423;
1295.7000;0.6268;0.6449;
1296.0000;0.6243;0.6474;
1296.3000;0.6211;0.6499;
1296.6000;0.6235;0.6600;
1296.9000;0.6243;0.6600;
1297.2000;0.6235;0.6701;
1297.5000;0.6186;0.6650;
1297.8000;0.6235;0.6701;
1298.1000;0.6227;0.6751;
1298.4000;0.6235;0.6751;
1298.7000;0.6243;0.6751;
1299.0000;0.6235;0.6701;
1299.3000;0.6260;0.6751;
1299.6000;0.6252;0.6701;
1299.9000;0.6252;0.6675;
1300.2000;0.6219;0.6600;
1300.5000;0.6235;0.6600;
1300.8000;0.6235;0.6575;
1301.1000;0.6252;0.6549;
1301.4000;0.6243;0.6474;
1301.7000;0.6243;0.6499;
1302.0000;0.6235;0.6549;
1302.3000;0.6235;0.6549;
1302.6000;0.6243;0.6625;
1302.9000;0.6235;0.6600;
1303.2000;0.6325;0.6852;
1303.5000;0.6252;0.6726;
1303.8000;0.6252;0.6701;
1304.1000;0.6243;0.6675;
1304.4000;0.6235;0.6600;
1304.7000;0.6227;0.6524;
1305.0000;0.6260;0.6575;
1305.3000;0.6252;0.6549;
1305.6000;0.6235;0.6499;
1305.9000;0.6235;0.6625;
1306.2000;0.6252;0.6575;
1306.5000;0.6162;0.6373;
1306.8000;0.6260;0.6625;
1307.1000;0.6235;0.6625;
1307.4000;0.6260;0.6675;
1307.7000;0.6211;0.6625;
1308.0000;0.6227;0.6701;
1308.3000;0.6203;0.6701;
1308.6000;0.6203;0.6625;
1308.9000;0.6235;0.6701;
1309.2000;0.6227;0.6675;
1309.5000;0.6268;0.6650;
1309.8000;0.6243;0.6701;
1310.1000;0.6243;0.6726;
1310.4000;0.6235;0.6625;
1310.7000;0.6243;0.6650;
1311.0000;0.6252;0.6675;
1311.3000;0.6260;0.6701;
1311.6000;0.6235;0.6650;
1311.9000;0.6243;0.6625;
1312.2000;0.6243;0.6675;
1312.5000;0.6252;0.6650;
1312.8000;0.6243;0.6625;
1313.1000;0.6260;0.6625;
1313.4000;0.6227;0.6625;
1313.7000;0.6211;0.6625;
1314.0000;0.6235;0.6650;
1314.3000;0.6252;0.6726;
1314.6000;0.6243;0.6726;
1314.9000;0.6260;0.6776;
1315.2000;0.6243;0.6776;
1315.5000;0.6235;0.6726;
1315.8000;0.6235;0.6701;
1316.1000;0.6252;0.6776;
1316.4000;0.6252;0.6852;
1316.7000;0.6227;0.6852;
1317.0000;0.6235;0.6826;
1317.3000;0.6235;0.6701;
1317.6000;0.6243;0.6776;
1317.9000;0.6227;0.6826;
1318.2000;0.6260;0.6952;
1318.5000;0.6121;0.6625;
1318.8000;0.6219;0.6877;
1319.1000;0.6227;0.6826;
1319.4000;0.6227;0.6801;
1319.7000;0.6235;0.6776;
1320.0000;0.6227;0.6701;
1320.3000;0.6227;0.6701;
1320.6000;0.6243;0.6675;
1320.9000;0.6252;0.6675;
1321.2000;0.6252;0.6625;
1321.5000;0.6235;0.6549;
1321.8000;0.6235;0.6549;
1322.1000;0.6186;0.6449;
1322.4000;0.6219;0.6600;
1322.7000;0.6260;0.6701;
1323.0000;0.6235;0.6726;
1323.3000;0.6219;0.6600;
1323.6000;0.6227;0.6625;
1323.9000;0.6227;0.6549;
1324.2000;0.6235;0.6575;
1324.5000;0.6235;0.6524;
1324.8000;0.6235;0.6625;
1325.1000;0.6243;0.6701;
1325.4000;0.6235;0.6675;
1325.7000;0.6268;0.6751;
1326.0000;0.6252;0.6801;
1326.3000;0.6243;0.6675;
1326.6000;0.6260;0.6575;
1326.9000;0.6235;0.6524;
1327.2000;0.6235;0.6575;
1327.5000;0.6260;0.6726;
1327.8000;0.6243;0.6650;
1328.1000;0.6243;0.6549;
1328.4000;0.6227;0.6600;
1328.7000;0.6235;0.6751;
1329.0000;0.6252;0.6801;
1329.3000;0.6235;0.6801;
1329.6000;0.6317;0.6927;
1329.9000;0.6252;0.6751;
1330.2000;0.6260;0.6852;
1330.5000;0.6260;0.6826;
1330.8000;0.6227;0.6751;
1331.1000;0.6243;0.6776;
1331.4000;0.6243;0.6776;
1331.7000;0.6243;0.6726;
1332.0000;0.6268;0.6776;
1332.3000;0.6243;0.6650;
1332.6000;0.6219;0.6600;
1332.9000;0.6235;0.6701;
1333.2000;0.6211;0.6650;
1333.5000;0.6211;0.6600;
1333.8000;0.6260;0.6675;
1334.1000;0.6227;0.6549;
1334.4000;0.6235;0.6524;
1334.7000;0.6243;0.6600;
1335.0000;0.6227;0.6575;
1335.3000;0.6243;0.6575;
1335.6000;0.6243;0.6600;
1335.9000;0.6243;0.6600;
1336.2000;0.6235;0.6600;
1336.5000;0.6276;0.6675;
1336.8000;0.6235;0.6625;
1337.1000;0.6252;0.6625;
1337.4000;0.6243;0.6499;
1337.7000;0.6227;0.6625;
1338.0000;0.6235;0.6726;
1338.3000;0.6211;0.6650;
1338.6000;0.6235;0.6675;
1338.9000;0.6235;0.6600;
1339.2000;0.6227;0.6625;
1339.5000;0.6235;0.6650;
1339.8000;0.6211;0.6650;
1340.1000;0.6227;0.6675;
1340.4000;0.6235;0.6650;
1340.7000;0.6243;0.6575;
1341.0000;0.6252;0.6474;
1341.3000;0.6227;0.6373;
1341.6000;0.6260;0.6499;
1341.9000;0.6235;0.6499;
1342.2000;0.6227;0.6499;
1342.5000;0.6235;0.6499;
1342.8000;0.6252;0.6524;
1343.1000;0.6243;0.6499;
1343.4000;0.6235;0.6499;
1343.7000;0.6219;0.6575;
1344.0000;0.6235;0.6675;
1344.3000;0.6243;0.6675;
1344.6000;0.6243;0.6625;
1344.9000;0.6219;0.6575;
1345.2000;0.6219;0.6524;
1345.5000;0.6243;0.6675;
1345.8000;0.6227;0.6625;
1346.1000;0.6227;0.6600;
1346.4000;0.6235;0.6499;
1346.7000;0.6211;0.6549;
1347.0000;0.6243;0.6600;
1347.3000;0.6219;0.6575;
1347.6000;0.6227;0.6726;
1347.9000;0.6227;0.6701;
1348.2000;0.6227;0.6701;
1348.5000;0.6203;0.6650;
1348.8000;0.6211;0.6751;
1349.1000;0.6227;0.6826;
1349.4000;0.6227;0.6826;
1349.7000;0.6227;0.6826;
1350.0000;0.6227;0.6801;
1350.3000;0.6227;0.6801;
1350.6000;0.6252;0.6852;
1350.9000;0.6243;0.6877;
1351.2000;0.6252;0.6877;
1351.5000;0.6260;0.6826;
1351.8000;0.6260;0.6826;
1352.1000;0.6235;0.6726;
1352.4000;0.6252;0.6801;
1352.7000;0.6227;0.6726;
1353.0000;0.6227;0.6701;
1353.3000;0.6235;0.6650;
1353.6000;0.6243;0.6549;
1353.9000;0.6243;0.6625;
1354.2000;0.6235;0.6675;
1354.5000;0.6235;0.6726;
1354.8000;0.6195;0.6549;
1355.1000;0.6186;0.6575;
1355.4000;0.6227;0.6701;
1355.7000;0.6227;0.6776;
1356.0000;0.6276;0.6801;
1356.3000;0.6219;0.6675;
1356.6000;0.6235;0.6776;
1356.9000;0.6227;0.6801;
1357.2000;0.6227;0.6776;
1357.5000;0.6243;0.6701;
1357.8000;0.6227;0.6625;
1358.1000;0.6235;0.6549;
1358.4000;0.6235;0.6474;
1358.7000;0.6227;0.6449;
1359.0000;0.6219;0.6398;
1359.3000;0.6227;0.6449;
1359.6000;0.6227;0.6524;
1359.9000;0.6227;0.6524;
1360.2000;0.6227;0.6549;
1360.5000;0.6235;0.6575;
1360.8000;0.6235;0.6575;
1361.1000;0.6227;0.6524;
1361.4000;0.6203;0.6575;
1361.7000;0.6276;0.6826;
1362.0000;0.6227;0.6650;
1362.3000;0.6227;0.6600;
1362.6000;0.6211;0.6449;
1362.9000;0.6243;0.6499;
1363.2000;0.6243;0.6474;
1363.5000;0.6260;0.6549;
1363.8000;0.6227;0.6499;
1364.1000;0.6219;0.6524;
1364.4000;0.6243;0.6549;
1364.7000;0.6235;0.6575;
1365.0000;0.6235;0.6650;
1365.3000;0.6227;0.6751;
1365.6000;0.6227;0.6726;
1365.9000;0.6227;0.6675;
1366.2000;0.6227;0.6701;
1366.5000;0.6243;0.6726;
1366.8000;0.6252;0.6751;
1367.1000;0.6252;0.6701;
1367.4000;0.6219;0.6701;
1367.7000;0.6243;0.6751;
1368.0000;0.6227;0.6726;
1368.3000;0.6235;0.6726;
1368.6000;0.6235;0.6701;
1368.9000;0.6211;0.6575;
1369.2000;0.6235;0.6575;
1369.5000;0.6243;0.6650;
1369.8000;0.6235;0.6600;
1370.1000;0.6235;0.6650;
1370.4000;0.6227;0.6650;
1370.7000;0.6227;0.6675;
1371.0000;0.6235;0.6801;
1371.3000;0.6235;0.6701;
1371.6000;0.6227;0.6701;
1371.9000;0.6178;0.6449;
1372.2000;0.6260;0.6625;
1372.5000;0.6235;0.6474;
1372.8000;0.6235;0.6524;
1373.1000;0.6227;0.6650;
1373.4000;0.6243;0.6675;
1373.7000;0.6235;0.6625;
1374.0000;0.6227;0.6625;
1374.3000;0.6211;0.6675;
1374.6000;0.6243;0.6675;
1374.9000;0.6219;0.6675;
1375.2000;0.6219;0.6600;
1375.5000;0.6243;0.6726;
1375.8000;0.6243;0.6701;
1376.1000;0.6235;0.6726;
1376.4000;0.6227;0.6625;
1376.7000;0.6227;0.6625;
1377.0000;0.6252;0.6575;
1377.3000;0.6243;0.6499;
1377.6000;0.6243;0.6499;
1377.9000;0.6235;0.6423;
1378.2000;0.6235;0.6423;
1378.5000;0.6235;0.6373;
1378.8000;0.6219;0.6398;
1379.1000;0.6227;0.6524;
1379.4000;0.6219;0.6398;
1379.7000;0.6243;0.6398;
1380.0000;0.6243;0.6373;
1380.3000;0.6235;0.6398;
1380.6000;0.6243;0.6398;
1380.9000;0.6227;0.6499;
1381.2000;0.6227;0.6600;
1381.5000;0.6219;0.6549;
1381.8000;0.6227;0.6524;
1382.1000;0.6211;0.6625;
1382.4000;0.6219;0.6675;
1382.7000;0.6235;0.6701;
1383.0000;0.6227;0.6625;
1383.3000;0.6227;0.6625;
1383.6000;0.6227;0.6625;
1383.9000;0.6235;0.6625;
1384.2000;0.6219;0.6600;
1384.5000;0.6195;0.6575;
1384.8000;0.6203;0.6650;
1385.1000;0.6211;0.6650;
1385.4000;0.6227;0.6625;
1385.7000;0.6195;0.6549;
1386.0000;0.6211;0.6600;
1386.3000;0.6227;0.6600;
1386.6000;0.6252;0.6575;
1386.9000;0.6211;0.6524;
1387.2000;0.6219;0.6549;
1387.5000;0.6211;0.6549;
1387.8000;0.6227;0.6650;
1388.1000;0.6227;0.6701;
1388.4000;0.6235;0.6726;
1388.7000;0.6211;0.6776;
1389.0000;0.6227;0.6826;
1389.3000;0.6211;0.6776;
1389.6000;0.6276;0.6902;
1389.9000;0.6235;0.6726;
1390.2000;0.6219;0.6650;
1390.5000;0.6219;0.6675;
1390.8000;0.6211;0.6650;
1391.1000;0.6219;0.6575;
1391.4000;0.6227;0.6625;
1391.7000;0.6227;0.6675;
1392.0000;0.6219;0.6675;
1392.3000;0.6227;0.6726;
1392.6000;0.6203;0.6701;
1392.9000;0.6227;0.6751;
1393.2000;0.6219;0.6776;
1393.5000;0.6227;0.6751;
1393.8000;0.6227;0.6625;
1394.1000;0.6227;0.6575;
1394.4000;0.6211;0.6625;
1394.7000;0.6203;0.6625;
1395.0000;0.6227;0.6600;
1395.3000;0.6227;0.6625;
1395.6000;0.6195;0.6600;
1395.9000;0.6227;0.6726;
1396.2000;0.6227;0.6675;
1396.5000;0.6235;0.6675;
1396.8000;0.6235;0.6600;
1397.1000;0.6219;0.6625;
1397.4000;0.6203;0.6524;
1397.7000;0.6243;0.6650;
1398.0000;0.6227;0.6600;
1398.3000;0.6235;0.6600;
1398.6000;0.6252;0.6650;
1398.9000;0.6227;0.6575;
1399.2000;0.6227;0.6575;
1399.5000;0.6227;0.6600;
1399.8000;0.6219;0.6625;
