time/ms;Fluo/V;P700 deltaI/I x10³;
-199.8000;0.9630;0.7809;
-199.5000;0.9678;0.7985;
-199.2000;0.9670;0.7985;
-198.9000;0.9695;0.7935;
-198.6000;0.9678;0.7884;
-198.3000;0.9670;0.7910;
-198.0000;0.9678;0.7935;
-197.7000;0.9678;0.7985;
-197.4000;0.9678;0.8036;
-197.1000;0.9670;0.8061;
-196.8000;0.9678;0.7985;
-196.5000;0.9670;0.7935;
-196.2000;0.9678;0.7935;
-195.9000;0.9687;0.7859;
-195.6000;0.9670;0.7733;
-195.3000;0.9662;0.7658;
-195.0000;0.9678;0.7733;
-194.7000;0.9670;0.7683;
-194.4000;0.9695;0.7607;
-194.1000;0.9687;0.7557;
-193.8000;0.9687;0.7557;
-193.5000;0.9695;0.7683;
-193.2000;0.9678;0.7809;
-192.9000;0.9703;0.7910;
-192.6000;0.9678;0.7859;
-192.3000;0.9695;0.7884;
-192.0000;0.9678;0.7759;
-191.7000;0.9678;0.7708;
-191.4000;0.9670;0.7784;
-191.1000;0.9687;0.7784;
-190.8000;0.9670;0.7784;
-190.5000;0.9678;0.7859;
-190.2000;0.9678;0.7859;
-189.9000;0.9687;0.7985;
-189.6000;0.9670;0.8010;
-189.3000;0.9687;0.8061;
-189.0000;0.9687;0.7985;
-188.7000;0.9687;0.8010;
-188.4000;0.9687;0.8010;
-188.1000;0.9662;0.8111;
-187.8000;0.9678;0.8212;
-187.5000;0.9695;0.8212;
-187.2000;0.9662;0.8212;
-186.9000;0.9662;0.8036;
-186.6000;0.9678;0.7935;
-186.3000;0.9662;0.7910;
-186.0000;0.9670;0.8010;
-185.7000;0.9687;0.8061;
-185.4000;0.9662;0.7960;
-185.1000;0.9670;0.7935;
-184.8000;0.9670;0.7985;
-184.5000;0.9678;0.7960;
-184.2000;0.9662;0.7884;
-183.9000;0.9687;0.7935;
-183.6000;0.9670;0.7935;
-183.3000;0.9678;0.7910;
-183.0000;0.9678;0.7910;
-182.7000;0.9678;0.8010;
-182.4000;0.9687;0.8010;
-182.1000;0.9678;0.8061;
-181.8000;0.9687;0.7960;
-181.5000;0.9670;0.7910;
-181.2000;0.9670;0.7910;
-180.9000;0.9703;0.7960;
-180.6000;0.9654;0.7809;
-180.3000;0.9670;0.7834;
-180.0000;0.9670;0.7884;
-179.7000;0.9687;0.8010;
-179.4000;0.9670;0.8061;
-179.1000;0.9687;0.8111;
-178.8000;0.9687;0.8162;
-178.5000;0.9695;0.8187;
-178.2000;0.9678;0.8237;
-177.9000;0.9670;0.8187;
-177.6000;0.9678;0.8162;
-177.3000;0.9687;0.8136;
-177.0000;0.9687;0.8086;
-176.7000;0.9695;0.8136;
-176.4000;0.9662;0.8086;
-176.1000;0.9654;0.7910;
-175.8000;0.9670;0.7834;
-175.5000;0.9727;0.7985;
-175.2000;0.9678;0.7910;
-174.9000;0.9670;0.7859;
-174.6000;0.9678;0.7834;
-174.3000;0.9678;0.7834;
-174.0000;0.9670;0.7784;
-173.7000;0.9670;0.7809;
-173.4000;0.9687;0.7834;
-173.1000;0.9687;0.7910;
-172.8000;0.9678;0.7884;
-172.5000;0.9670;0.7935;
-172.2000;0.9687;0.7834;
-171.9000;0.9670;0.7809;
-171.6000;0.9678;0.7834;
-171.3000;0.9670;0.7784;
-171.0000;0.9670;0.7809;
-170.7000;0.9630;0.7759;
-170.4000;0.9687;0.7884;
-170.1000;0.9670;0.7910;
-169.8000;0.9670;0.7960;
-169.5000;0.9605;0.7733;
-169.2000;0.9678;0.7910;
-168.9000;0.9678;0.7910;
-168.6000;0.9646;0.7834;
-168.3000;0.9687;0.7935;
-168.0000;0.9695;0.8086;
-167.7000;0.9687;0.8036;
-167.4000;0.9752;0.8111;
-167.1000;0.9711;0.7960;
-166.8000;0.9719;0.8010;
-166.5000;0.9703;0.7960;
-166.2000;0.9670;0.8010;
-165.9000;0.9678;0.8061;
-165.6000;0.9638;0.8061;
-165.3000;0.9687;0.8187;
-165.0000;0.9678;0.8237;
-164.7000;0.9678;0.8212;
-164.4000;0.9670;0.8187;
-164.1000;0.9670;0.8187;
-163.8000;0.9670;0.8136;
-163.5000;0.9678;0.8212;
-163.2000;0.9670;0.8212;
-162.9000;0.9662;0.8187;
-162.6000;0.9654;0.8136;
-162.3000;0.9662;0.8111;
-162.0000;0.9654;0.8136;
-161.7000;0.9678;0.8036;
-161.4000;0.9678;0.8061;
-161.1000;0.9662;0.7935;
-160.8000;0.9678;0.7884;
-160.5000;0.9670;0.7960;
-160.2000;0.9678;0.7935;
-159.9000;0.9630;0.7859;
-159.6000;0.9670;0.7910;
-159.3000;0.9678;0.7985;
-159.0000;0.9695;0.8036;
-158.7000;0.9670;0.8010;
-158.4000;0.9687;0.8010;
-158.1000;0.9695;0.8036;
-157.8000;0.9687;0.8036;
-157.5000;0.9654;0.8010;
-157.2000;0.9695;0.8036;
-156.9000;0.9687;0.8061;
-156.6000;0.9670;0.8061;
-156.3000;0.9695;0.8061;
-156.0000;0.9662;0.7960;
-155.7000;0.9678;0.8111;
-155.4000;0.9687;0.8187;
-155.1000;0.9687;0.8136;
-154.8000;0.9662;0.8086;
-154.5000;0.9662;0.8010;
-154.2000;0.9687;0.8162;
-153.9000;0.9678;0.8187;
-153.6000;0.9678;0.8111;
-153.3000;0.9670;0.8086;
-153.0000;0.9670;0.8010;
-152.7000;0.9662;0.7960;
-152.4000;0.9678;0.7985;
-152.1000;0.9678;0.8010;
-151.8000;0.9703;0.8111;
-151.5000;0.9687;0.8136;
-151.2000;0.9670;0.8111;
-150.9000;0.9678;0.8136;
-150.6000;0.9670;0.8162;
-150.3000;0.9678;0.8086;
-150.0000;0.9670;0.8086;
-149.7000;0.9662;0.8162;
-149.4000;0.9670;0.8212;
-149.1000;0.9678;0.8162;
-148.8000;0.9670;0.8162;
-148.5000;0.9662;0.8162;
-148.2000;0.9678;0.8212;
-147.9000;0.9687;0.8237;
-147.6000;0.9662;0.8187;
-147.3000;0.9678;0.8136;
-147.0000;0.9687;0.8162;
-146.7000;0.9703;0.8111;
-146.4000;0.9670;0.8086;
-146.1000;0.9678;0.8061;
-145.8000;0.9654;0.8111;
-145.5000;0.9678;0.8212;
-145.2000;0.9678;0.8212;
-144.9000;0.9678;0.8162;
-144.6000;0.9678;0.8162;
-144.3000;0.9670;0.8162;
-144.0000;0.9678;0.8187;
-143.7000;0.9678;0.8111;
-143.4000;0.9670;0.8036;
-143.1000;0.9670;0.8061;
-142.8000;0.9678;0.7960;
-142.5000;0.9678;0.7960;
-142.2000;0.9670;0.7985;
-141.9000;0.9678;0.8010;
-141.6000;0.9678;0.7960;
-141.3000;0.9678;0.8010;
-141.0000;0.9654;0.7985;
-140.7000;0.9678;0.8036;
-140.4000;0.9687;0.8061;
-140.1000;0.9695;0.8061;
-139.8000;0.9654;0.7935;
-139.5000;0.9678;0.7985;
-139.2000;0.9678;0.7985;
-138.9000;0.9678;0.7985;
-138.6000;0.9654;0.7960;
-138.3000;0.9678;0.7985;
-138.0000;0.9687;0.7935;
-137.7000;0.9678;0.7859;
-137.4000;0.9687;0.7834;
-137.1000;0.9727;0.8010;
-136.8000;0.9670;0.7834;
-136.5000;0.9695;0.7859;
-136.2000;0.9695;0.7884;
-135.9000;0.9678;0.7859;
-135.6000;0.9695;0.7784;
-135.3000;0.9687;0.7759;
-135.0000;0.9687;0.7759;
-134.7000;0.9638;0.7683;
-134.4000;0.9662;0.7784;
-134.1000;0.9687;0.7784;
-133.8000;0.9678;0.7809;
-133.5000;0.9670;0.7784;
-133.2000;0.9687;0.7809;
-132.9000;0.9670;0.7910;
-132.6000;0.9687;0.8010;
-132.3000;0.9654;0.7884;
-132.0000;0.9678;0.7960;
-131.7000;0.9678;0.8036;
-131.4000;0.9662;0.8061;
-131.1000;0.9695;0.8136;
-130.8000;0.9638;0.8061;
-130.5000;0.9670;0.8036;
-130.2000;0.9678;0.7935;
-129.9000;0.9703;0.7960;
-129.6000;0.9662;0.7884;
-129.3000;0.9703;0.7884;
-129.0000;0.9687;0.7784;
-128.7000;0.9662;0.7708;
-128.4000;0.9670;0.7759;
-128.1000;0.9662;0.7733;
-127.8000;0.9662;0.7859;
-127.5000;0.9678;0.7935;
-127.2000;0.9678;0.7935;
-126.9000;0.9670;0.7985;
-126.6000;0.9670;0.8036;
-126.3000;0.9687;0.8111;
-126.0000;0.9687;0.8111;
-125.7000;0.9670;0.8036;
-125.4000;0.9703;0.8061;
-125.1000;0.9678;0.8036;
-124.8000;0.9687;0.8036;
-124.5000;0.9670;0.8036;
-124.2000;0.9654;0.7960;
-123.9000;0.9711;0.8010;
-123.6000;0.9678;0.7985;
-123.3000;0.9695;0.8036;
-123.0000;0.9654;0.8010;
-122.7000;0.9662;0.8061;
-122.4000;0.9695;0.8086;
-122.1000;0.9687;0.8061;
-121.8000;0.9695;0.8136;
-121.5000;0.9687;0.8162;
-121.2000;0.9695;0.8111;
-120.9000;0.9687;0.8036;
-120.6000;0.9687;0.8061;
-120.3000;0.9678;0.8036;
-120.0000;0.9678;0.7985;
-119.7000;0.9687;0.8061;
-119.4000;0.9678;0.8061;
-119.1000;0.9678;0.8086;
-118.8000;0.9687;0.8086;
-118.5000;0.9687;0.8086;
-118.2000;0.9719;0.8162;
-117.9000;0.9662;0.8086;
-117.6000;0.9662;0.8111;
-117.3000;0.9678;0.8212;
-117.0000;0.9678;0.8237;
-116.7000;0.9662;0.8212;
-116.4000;0.9670;0.8187;
-116.1000;0.9678;0.8212;
-115.8000;0.9670;0.8086;
-115.5000;0.9695;0.8111;
-115.2000;0.9670;0.7985;
-114.9000;0.9670;0.8036;
-114.6000;0.9678;0.8061;
-114.3000;0.9687;0.8061;
-114.0000;0.9695;0.8136;
-113.7000;0.9687;0.8111;
-113.4000;0.9670;0.8111;
-113.1000;0.9670;0.8162;
-112.8000;0.9662;0.8136;
-112.5000;0.9678;0.8061;
-112.2000;0.9695;0.8086;
-111.9000;0.9670;0.8086;
-111.6000;0.9678;0.8162;
-111.3000;0.9687;0.8162;
-111.0000;0.9646;0.8061;
-110.7000;0.9687;0.8187;
-110.4000;0.9695;0.8262;
-110.1000;0.9695;0.8237;
-109.8000;0.9678;0.8187;
-109.5000;0.9621;0.7935;
-109.2000;0.9695;0.8111;
-108.9000;0.9670;0.8061;
-108.6000;0.9654;0.8036;
-108.3000;0.9670;0.8111;
-108.0000;0.9744;0.8338;
-107.7000;0.9654;0.8136;
-107.4000;0.9662;0.8111;
-107.1000;0.9678;0.8237;
-106.8000;0.9678;0.8237;
-106.5000;0.9662;0.8237;
-106.2000;0.9678;0.8262;
-105.9000;0.9687;0.8212;
-105.6000;0.9687;0.8288;
-105.3000;0.9687;0.8237;
-105.0000;0.9678;0.8212;
-104.7000;0.9678;0.8187;
-104.4000;0.9654;0.8136;
-104.1000;0.9638;0.8111;
-103.8000;0.9646;0.8086;
-103.5000;0.9597;0.7910;
-103.2000;0.9687;0.8212;
-102.9000;0.9613;0.7960;
-102.6000;0.9654;0.8086;
-102.3000;0.9662;0.8111;
-102.0000;0.9613;0.7985;
-101.7000;0.9678;0.8136;
-101.4000;0.9646;0.8111;
-101.1000;0.9670;0.8187;
-100.8000;0.9678;0.8212;
-100.5000;0.9678;0.8212;
-100.2000;0.9678;0.8187;
-99.9000;0.9670;0.8162;
-99.6000;0.9670;0.8288;
-99.3000;0.9670;0.8187;
-99.0000;0.9670;0.8212;
-98.7000;0.9687;0.8212;
-98.4000;0.9654;0.8162;
-98.1000;0.9687;0.8187;
-97.8000;0.9678;0.8212;
-97.5000;0.9678;0.8288;
-97.2000;0.9670;0.8288;
-96.9000;0.9687;0.8262;
-96.6000;0.9678;0.8288;
-96.3000;0.9703;0.8363;
-96.0000;0.9687;0.8288;
-95.7000;0.9687;0.8237;
-95.4000;0.9695;0.8288;
-95.1000;0.9678;0.8237;
-94.8000;0.9687;0.8288;
-94.5000;0.9670;0.8212;
-94.2000;0.9687;0.8212;
-93.9000;0.9760;0.8439;
-93.6000;0.9662;0.8111;
-93.3000;0.9670;0.8136;
-93.0000;0.9678;0.8262;
-92.7000;0.9719;0.8439;
-92.4000;0.9678;0.8313;
-92.1000;0.9662;0.8262;
-91.8000;0.9695;0.8338;
-91.5000;0.9678;0.8288;
-91.2000;0.9678;0.8237;
-90.9000;0.9638;0.8061;
-90.6000;0.9678;0.8136;
-90.3000;0.9687;0.8187;
-90.0000;0.9670;0.8212;
-89.7000;0.9662;0.8136;
-89.4000;0.9695;0.8162;
-89.1000;0.9687;0.8162;
-88.8000;0.9678;0.8111;
-88.5000;0.9687;0.8061;
-88.2000;0.9670;0.7935;
-87.9000;0.9678;0.7884;
-87.6000;0.9670;0.7884;
-87.3000;0.9662;0.7935;
-87.0000;0.9687;0.8010;
-86.7000;0.9678;0.8010;
-86.4000;0.9695;0.7985;
-86.1000;0.9687;0.7935;
-85.8000;0.9703;0.7960;
-85.5000;0.9621;0.7784;
-85.2000;0.9687;0.8036;
-84.9000;0.9678;0.7985;
-84.6000;0.9654;0.7960;
-84.3000;0.9630;0.7935;
-84.0000;0.9678;0.8061;
-83.7000;0.9670;0.8111;
-83.4000;0.9621;0.8010;
-83.1000;0.9662;0.8111;
-82.8000;0.9695;0.8237;
-82.5000;0.9670;0.8262;
-82.2000;0.9662;0.8162;
-81.9000;0.9678;0.8187;
-81.6000;0.9662;0.8136;
-81.3000;0.9670;0.8111;
-81.0000;0.9687;0.8086;
-80.7000;0.9695;0.8036;
-80.4000;0.9695;0.8136;
-80.1000;0.9678;0.8237;
-79.8000;0.9678;0.8237;
-79.5000;0.9670;0.8136;
-79.2000;0.9678;0.8086;
-78.9000;0.9719;0.8187;
-78.6000;0.9662;0.8010;
-78.3000;0.9687;0.8010;
-78.0000;0.9687;0.8061;
-77.7000;0.9662;0.8086;
-77.4000;0.9678;0.8086;
-77.1000;0.9678;0.8010;
-76.8000;0.9687;0.8010;
-76.5000;0.9662;0.8010;
-76.2000;0.9670;0.8086;
-75.9000;0.9678;0.8086;
-75.6000;0.9687;0.8136;
-75.3000;0.9695;0.8162;
-75.0000;0.9687;0.8111;
-74.7000;0.9695;0.8136;
-74.4000;0.9654;0.7985;
-74.1000;0.9678;0.7960;
-73.8000;0.9670;0.8061;
-73.5000;0.9687;0.8036;
-73.2000;0.9678;0.7960;
-72.9000;0.9678;0.8036;
-72.6000;0.9670;0.8086;
-72.3000;0.9678;0.8061;
-72.0000;0.9662;0.7985;
-71.7000;0.9687;0.8061;
-71.4000;0.9670;0.8036;
-71.1000;0.9638;0.7935;
-70.8000;0.9695;0.8086;
-70.5000;0.9670;0.8086;
-70.2000;0.9678;0.8162;
-69.9000;0.9687;0.8061;
-69.6000;0.9662;0.8061;
-69.3000;0.9670;0.8036;
-69.0000;0.9662;0.7960;
-68.7000;0.9670;0.8010;
-68.4000;0.9703;0.8111;
-68.1000;0.9670;0.7935;
-67.8000;0.9678;0.7884;
-67.5000;0.9670;0.7859;
-67.2000;0.9727;0.8010;
-66.9000;0.9638;0.7733;
-66.6000;0.9695;0.7910;
-66.3000;0.9670;0.7910;
-66.0000;0.9695;0.7935;
-65.7000;0.9687;0.7935;
-65.4000;0.9695;0.7935;
-65.1000;0.9670;0.7859;
-64.8000;0.9678;0.7910;
-64.5000;0.9703;0.7960;
-64.2000;0.9687;0.7935;
-63.9000;0.9678;0.8010;
-63.6000;0.9678;0.8086;
-63.3000;0.9678;0.8086;
-63.0000;0.9687;0.8162;
-62.7000;0.9678;0.8086;
-62.4000;0.9711;0.8136;
-62.1000;0.9678;0.8036;
-61.8000;0.9735;0.8237;
-61.5000;0.9621;0.7960;
-61.2000;0.9638;0.8086;
-60.9000;0.9711;0.8262;
-60.6000;0.9638;0.8136;
-60.3000;0.9654;0.8237;
-60.0000;0.9678;0.8288;
-59.7000;0.9687;0.8338;
-59.4000;0.9687;0.8288;
-59.1000;0.9670;0.8262;
-58.8000;0.9678;0.8338;
-58.5000;0.9678;0.8313;
-58.2000;0.9678;0.8162;
-57.9000;0.9687;0.8136;
-57.6000;0.9670;0.8061;
-57.3000;0.9670;0.8086;
-57.0000;0.9638;0.7985;
-56.7000;0.9678;0.8086;
-56.4000;0.9678;0.8111;
-56.1000;0.9670;0.8162;
-55.8000;0.9695;0.8187;
-55.5000;0.9654;0.8086;
-55.2000;0.9678;0.8086;
-54.9000;0.9695;0.8262;
-54.6000;0.9695;0.8262;
-54.3000;0.9687;0.8313;
-54.0000;0.9678;0.8338;
-53.7000;0.9687;0.8288;
-53.4000;0.9687;0.8288;
-53.1000;0.9687;0.8237;
-52.8000;0.9662;0.8111;
-52.5000;0.9670;0.8212;
-52.2000;0.9678;0.8237;
-51.9000;0.9654;0.8086;
-51.6000;0.9646;0.8136;
-51.3000;0.9613;0.8036;
-51.0000;0.9638;0.8111;
-50.7000;0.9670;0.8262;
-50.4000;0.9670;0.8162;
-50.1000;0.9687;0.8212;
-49.8000;0.9670;0.8162;
-49.5000;0.9687;0.8187;
-49.2000;0.9678;0.8086;
-48.9000;0.9654;0.8036;
-48.6000;0.9662;0.8061;
-48.3000;0.9670;0.8036;
-48.0000;0.9687;0.8111;
-47.7000;0.9678;0.8061;
-47.4000;0.9678;0.8036;
-47.1000;0.9687;0.8036;
-46.8000;0.9654;0.8036;
-46.5000;0.9670;0.8010;
-46.2000;0.9662;0.7960;
-45.9000;0.9678;0.8036;
-45.6000;0.9687;0.8111;
-45.3000;0.9678;0.8061;
-45.0000;0.9646;0.8010;
-44.7000;0.9678;0.8010;
-44.4000;0.9678;0.8061;
-44.1000;0.9678;0.7985;
-43.8000;0.9678;0.7935;
-43.5000;0.9678;0.8010;
-43.2000;0.9760;0.8288;
-42.9000;0.9678;0.7985;
-42.6000;0.9662;0.7910;
-42.3000;0.9678;0.7935;
-42.0000;0.9670;0.7985;
-41.7000;0.9678;0.7960;
-41.4000;0.9670;0.8036;
-41.1000;0.9687;0.8111;
-40.8000;0.9662;0.8111;
-40.5000;0.9678;0.8086;
-40.2000;0.9670;0.8111;
-39.9000;0.9678;0.8162;
-39.6000;0.9678;0.8136;
-39.3000;0.9695;0.8212;
-39.0000;0.9670;0.8162;
-38.7000;0.9678;0.8187;
-38.4000;0.9670;0.8162;
-38.1000;0.9687;0.8136;
-37.8000;0.9613;0.8086;
-37.5000;0.9670;0.8237;
-37.2000;0.9662;0.8237;
-36.9000;0.9670;0.8237;
-36.6000;0.9670;0.8162;
-36.3000;0.9662;0.8086;
-36.0000;0.9654;0.8111;
-35.7000;0.9670;0.8061;
-35.4000;0.9687;0.8162;
-35.1000;0.9670;0.8136;
-34.8000;0.9678;0.8212;
-34.5000;0.9687;0.8288;
-34.2000;0.9687;0.8237;
-33.9000;0.9687;0.8288;
-33.6000;0.9670;0.8187;
-33.3000;0.9678;0.8162;
-33.0000;0.9638;0.8010;
-32.7000;0.9662;0.8036;
-32.4000;0.9662;0.8086;
-32.1000;0.9646;0.8010;
-31.8000;0.9654;0.8036;
-31.5000;0.9662;0.7960;
-31.2000;0.9678;0.7960;
-30.9000;0.9678;0.7985;
-30.6000;0.9613;0.7960;
-30.3000;0.9687;0.8136;
-30.0000;0.9670;0.8086;
-29.7000;0.9678;0.8061;
-29.4000;0.9727;0.8212;
-29.1000;0.9678;0.8086;
-28.8000;0.9678;0.8036;
-28.5000;0.9670;0.7935;
-28.2000;0.9687;0.7960;
-27.9000;0.9678;0.8061;
-27.6000;0.9678;0.8061;
-27.3000;0.9760;0.8237;
-27.0000;0.9687;0.8036;
-26.7000;0.9719;0.8086;
-26.4000;0.9695;0.8061;
-26.1000;0.9695;0.8162;
-25.8000;0.9670;0.8111;
-25.5000;0.9687;0.8061;
-25.2000;0.9670;0.8010;
-24.9000;0.9670;0.7985;
-24.6000;0.9687;0.8111;
-24.3000;0.9695;0.7985;
-24.0000;0.9678;0.8036;
-23.7000;0.9670;0.8111;
-23.4000;0.9695;0.8262;
-23.1000;0.9670;0.8212;
-22.8000;0.9678;0.8187;
-22.5000;0.9654;0.8187;
-22.2000;0.9670;0.8212;
-21.9000;0.9670;0.8237;
-21.6000;0.9695;0.8338;
-21.3000;0.9670;0.8262;
-21.0000;0.9670;0.8237;
-20.7000;0.9678;0.8212;
-20.4000;0.9678;0.8237;
-20.1000;0.9687;0.8288;
-19.8000;0.9744;0.8464;
-19.5000;0.9695;0.8363;
-19.2000;0.9678;0.8363;
-18.9000;0.9695;0.8363;
-18.6000;0.9678;0.8288;
-18.3000;0.9687;0.8212;
-18.0000;0.9670;0.8136;
-17.7000;0.9687;0.8212;
-17.4000;0.9670;0.8288;
-17.1000;0.9678;0.8363;
-16.8000;0.9695;0.8388;
-16.5000;0.9687;0.8413;
-16.2000;0.9711;0.8514;
-15.9000;0.9695;0.8464;
-15.6000;0.9670;0.8413;
-15.3000;0.9670;0.8439;
-15.0000;0.9687;0.8388;
-14.7000;0.9687;0.8338;
-14.4000;0.9630;0.8162;
-14.1000;0.9678;0.8187;
-13.8000;0.9695;0.8111;
-13.5000;0.9654;0.7985;
-13.2000;0.9670;0.8086;
-12.9000;0.9695;0.8111;
-12.6000;0.9662;0.8111;
-12.3000;0.9695;0.8288;
-12.0000;0.9711;0.8338;
-11.7000;0.9662;0.8212;
-11.4000;0.9695;0.8262;
-11.1000;0.9687;0.8187;
-10.8000;0.9687;0.8111;
-10.5000;0.9695;0.8086;
-10.2000;0.9678;0.8061;
-9.9000;0.9687;0.7960;
-9.6000;0.9678;0.7960;
-9.3000;0.9687;0.7960;
-9.0000;0.9678;0.7910;
-8.7000;0.9703;0.7985;
-8.4000;0.9678;0.7985;
-8.1000;0.9662;0.7884;
-7.8000;0.9695;0.7985;
-7.5000;0.9711;0.8036;
-7.2000;0.9695;0.7985;
-6.9000;0.9678;0.7910;
-6.6000;0.9678;0.7859;
-6.3000;0.9613;0.7708;
-6.0000;0.9695;0.7884;
-5.7000;0.9678;0.7859;
-5.4000;0.9670;0.7834;
-5.1000;0.9662;0.7809;
-4.8000;0.9589;0.7683;
-4.5000;0.9695;0.7910;
-4.2000;0.9670;0.7834;
-3.9000;0.9703;0.7884;
-3.6000;0.9687;0.7809;
-3.3000;0.9670;0.7784;
-3.0000;0.9662;0.7809;
-2.7000;0.9670;0.7834;
-2.4000;0.9678;0.7834;
-2.1000;0.9687;0.7784;
-1.8000;0.9654;0.7733;
-1.5000;0.9670;0.7784;
-1.2000;0.9678;0.7834;
-0.9000;0.9687;0.7910;
-0.6000;0.9678;0.7985;
-0.3000;0.9695;0.8086;
0.0000;0.9695;0.8086;
0.3000;0.9906;0.8212;
0.6000;1.0305;0.8615;
0.9000;1.0606;0.8892;
1.2000;1.0842;0.9144;
1.5000;1.1013;0.9396;
1.8000;1.1168;0.9648;
2.1000;1.1274;0.9824;
2.4000;1.1380;1.0000;
2.7000;1.1494;1.0202;
3.0000;1.1543;1.0278;
3.3000;1.1608;1.0353;
3.6000;1.1656;1.0378;
3.9000;1.1746;1.0555;
4.2000;1.1795;1.0555;
4.5000;1.1819;1.0580;
4.8000;1.1860;1.0580;
5.1000;1.1933;1.0630;
5.4000;1.1941;1.0655;
5.7000;1.1966;1.0681;
6.0000;1.2023;1.0807;
6.3000;1.2007;1.0756;
6.6000;1.2080;1.0832;
6.9000;1.2096;1.0807;
7.2000;1.2112;1.0756;
7.5000;1.2104;1.0706;
7.8000;1.2210;1.0958;
8.1000;1.2202;1.0907;
8.4000;1.2218;1.0832;
8.7000;1.2251;1.0832;
9.0000;1.2275;1.0781;
9.3000;1.2308;1.0882;
9.6000;1.2283;1.0781;
9.9000;1.2316;1.0882;
10.2000;1.2357;1.0983;
10.5000;1.2381;1.0958;
10.8000;1.2405;1.0958;
11.1000;1.2405;1.0958;
11.4000;1.2405;1.0857;
11.7000;1.2446;1.0958;
12.0000;1.2470;1.0983;
12.3000;1.2487;1.1058;
12.6000;1.2470;1.0983;
12.9000;1.2511;1.1084;
13.2000;1.2511;1.1033;
13.5000;1.2560;1.1008;
13.8000;1.2552;1.0983;
14.1000;1.2568;1.0958;
14.4000;1.2568;1.0958;
14.7000;1.2576;1.0932;
15.0000;1.2584;1.0882;
15.3000;1.2625;1.0932;
15.6000;1.2641;1.0958;
15.9000;1.2641;1.0907;
16.2000;1.2641;1.0932;
16.5000;1.2658;1.0857;
16.8000;1.2666;1.0756;
17.1000;1.2674;1.0731;
17.4000;1.2674;1.0781;
17.7000;1.2698;1.0807;
18.0000;1.2690;1.0857;
18.3000;1.2698;1.0932;
18.6000;1.2755;1.1033;
18.9000;1.2715;1.0882;
19.2000;1.2739;1.0857;
19.5000;1.2731;1.0832;
19.8000;1.2739;1.0807;
20.1000;1.2747;1.0756;
20.4000;1.2747;1.0807;
20.7000;1.2755;1.0857;
21.0000;1.2772;1.0882;
21.3000;1.2772;1.0857;
21.6000;1.2804;1.0832;
21.9000;1.2821;1.0932;
22.2000;1.2804;1.0983;
22.5000;1.2788;1.0958;
22.8000;1.2796;1.0907;
23.1000;1.2821;1.0807;
23.4000;1.2829;1.0756;
23.7000;1.2821;1.0756;
24.0000;1.2821;1.0781;
24.3000;1.2829;1.0781;
24.6000;1.2821;1.0756;
24.9000;1.2861;1.0807;
25.2000;1.2829;1.0630;
25.5000;1.2853;1.0681;
25.8000;1.2861;1.0655;
26.1000;1.2869;1.0681;
26.4000;1.2853;1.0580;
26.7000;1.2861;1.0605;
27.0000;1.2869;1.0630;
27.3000;1.2926;1.0857;
27.6000;1.2877;1.0731;
27.9000;1.2861;1.0807;
28.2000;1.2869;1.0832;
28.5000;1.2951;1.0958;
28.8000;1.2886;1.0807;
29.1000;1.2886;1.0731;
29.4000;1.2910;1.0832;
29.7000;1.2902;1.0807;
30.0000;1.2910;1.0932;
30.3000;1.2894;1.0907;
30.6000;1.2894;1.0907;
30.9000;1.2910;1.0958;
31.2000;1.2926;1.0983;
31.5000;1.2918;1.0882;
31.8000;1.2926;1.0807;
32.1000;1.2926;1.0882;
32.4000;1.2869;1.0781;
32.7000;1.2918;1.0781;
33.0000;1.2918;1.0807;
33.3000;1.2934;1.0807;
33.6000;1.2918;1.0832;
33.9000;1.2886;1.0706;
34.2000;1.2926;1.0882;
34.5000;1.2951;1.0932;
34.8000;1.2918;1.0882;
35.1000;1.2926;1.0958;
35.4000;1.2934;1.1109;
35.7000;1.2934;1.1058;
36.0000;1.2959;1.1058;
36.3000;1.2951;1.1033;
36.6000;1.2910;1.0932;
36.9000;1.2959;1.0907;
37.2000;1.2983;1.0907;
37.5000;1.2943;1.0781;
37.8000;1.2934;1.0832;
38.1000;1.2910;1.0857;
38.4000;1.2951;1.0983;
38.7000;1.2951;1.0882;
39.0000;1.2934;1.0958;
39.3000;1.2959;1.0932;
39.6000;1.2959;1.0907;
39.9000;1.2943;1.0958;
40.2000;1.2959;1.0958;
40.5000;1.2926;1.0882;
40.8000;1.2959;1.0983;
41.1000;1.2926;1.0857;
41.4000;1.2975;1.0983;
41.7000;1.2975;1.0983;
42.0000;1.2975;1.0983;
42.3000;1.2975;1.1109;
42.6000;1.2967;1.1008;
42.9000;1.2983;1.1033;
43.2000;1.2975;1.0958;
43.5000;1.2991;1.0958;
43.8000;1.2983;1.0958;
44.1000;1.2975;1.0958;
44.4000;1.2975;1.0907;
44.7000;1.2991;1.0882;
45.0000;1.2983;1.0832;
45.3000;1.2991;1.0832;
45.6000;1.2983;1.0832;
45.9000;1.2951;1.0731;
46.2000;1.2991;1.0706;
46.5000;1.2983;1.0655;
46.8000;1.3008;1.0681;
47.1000;1.2983;1.0731;
47.4000;1.3008;1.0807;
47.7000;1.2991;1.0781;
48.0000;1.2991;1.0807;
48.3000;1.2991;1.0807;
48.6000;1.3008;1.0832;
48.9000;1.3008;1.0832;
49.2000;1.2967;1.0756;
49.5000;1.2983;1.0731;
49.8000;1.2991;1.0882;
50.1000;1.3016;1.0857;
50.4000;1.3000;1.0882;
50.7000;1.3000;1.0882;
51.0000;1.2983;1.0907;
51.3000;1.3008;1.1008;
51.6000;1.3008;1.0983;
51.9000;1.2983;1.0932;
52.2000;1.3000;1.0932;
52.5000;1.3016;1.0932;
52.8000;1.3016;1.1058;
53.1000;1.3040;1.1210;
53.4000;1.3016;1.1109;
53.7000;1.3024;1.1058;
54.0000;1.3016;1.1058;
54.3000;1.3008;1.1109;
54.6000;1.3016;1.1084;
54.9000;1.3016;1.1008;
55.2000;1.2975;1.0907;
55.5000;1.3000;1.0958;
55.8000;1.3000;1.0882;
56.1000;1.3000;1.0958;
56.4000;1.2967;1.0832;
56.7000;1.3008;1.0932;
57.0000;1.2983;1.0781;
57.3000;1.3032;1.0882;
57.6000;1.3024;1.0857;
57.9000;1.3000;1.0832;
58.2000;1.3000;1.0857;
58.5000;1.3016;1.0832;
58.8000;1.3032;1.0807;
59.1000;1.3024;1.0832;
59.4000;1.3016;1.0807;
59.7000;1.3008;1.0781;
60.0000;1.3008;1.0681;
60.3000;1.3016;1.0756;
60.6000;1.3016;1.0807;
60.9000;1.3016;1.0907;
61.2000;1.3008;1.0932;
61.5000;1.3016;1.0958;
61.8000;1.3024;1.0958;
62.1000;1.3008;1.0857;
62.4000;1.3024;1.0832;
62.7000;1.3024;1.0832;
63.0000;1.2983;1.0781;
63.3000;1.3032;1.0882;
63.6000;1.3016;1.0832;
63.9000;1.3024;1.0857;
64.2000;1.3040;1.0857;
64.5000;1.3008;1.0781;
64.8000;1.3016;1.0807;
65.1000;1.3000;1.0756;
65.4000;1.3040;1.0882;
65.7000;1.3000;1.0832;
66.0000;1.2943;1.0706;
66.3000;1.3032;1.0882;
66.6000;1.3024;1.0882;
66.9000;1.3024;1.0807;
67.2000;1.3008;1.0756;
67.5000;1.3008;1.0731;
67.8000;1.3008;1.0706;
68.1000;1.3040;1.0807;
68.4000;1.3016;1.0807;
68.7000;1.3000;1.0832;
69.0000;1.3000;1.0857;
69.3000;1.3048;1.1008;
69.6000;1.3008;1.0882;
69.9000;1.3032;1.0781;
70.2000;1.3016;1.0756;
70.5000;1.3040;1.0781;
70.8000;1.3057;1.0807;
71.1000;1.3032;1.0731;
71.4000;1.3024;1.0781;
71.7000;1.3024;1.0857;
72.0000;1.3016;1.0832;
72.3000;1.3016;1.0781;
72.6000;1.3016;1.0731;
72.9000;1.3032;1.0681;
73.2000;1.3032;1.0756;
73.5000;1.3032;1.0731;
73.8000;1.3008;1.0681;
74.1000;1.3024;1.0655;
74.4000;1.3057;1.0655;
74.7000;1.3032;1.0706;
75.0000;1.3032;1.0681;
75.3000;1.3040;1.0756;
75.6000;1.3040;1.0756;
75.9000;1.3032;1.0781;
76.2000;1.3032;1.0807;
76.5000;1.3089;1.0857;
76.8000;1.3032;1.0756;
77.1000;1.3040;1.0731;
77.4000;1.3032;1.0706;
77.7000;1.3032;1.0655;
78.0000;1.3040;1.0655;
78.3000;1.3016;1.0681;
78.6000;1.3040;1.0731;
78.9000;1.3040;1.0655;
79.2000;1.3048;1.0731;
79.5000;1.3040;1.0756;
79.8000;1.3024;1.0781;
80.1000;1.3024;1.0832;
80.4000;1.3008;1.0781;
80.7000;1.2983;1.0706;
81.0000;1.3016;1.0731;
81.3000;1.3024;1.0756;
81.6000;1.3040;1.0832;
81.9000;1.3008;1.0756;
82.2000;1.3016;1.0781;
82.5000;1.3016;1.0882;
82.8000;1.3024;1.0807;
83.1000;1.2943;1.0630;
83.4000;1.3008;1.0781;
83.7000;1.3024;1.0731;
84.0000;1.3016;1.0756;
84.3000;1.3016;1.0832;
84.6000;1.3008;1.0882;
84.9000;1.3057;1.1058;
85.2000;1.3032;1.0983;
85.5000;1.3114;1.1184;
85.8000;1.3024;1.0983;
86.1000;1.3000;1.0932;
86.4000;1.3040;1.1058;
86.7000;1.3016;1.0882;
87.0000;1.3057;1.0958;
87.3000;1.3048;1.0983;
87.6000;1.2975;1.0832;
87.9000;1.3032;1.1033;
88.2000;1.2991;1.0882;
88.5000;1.3008;1.1008;
88.8000;1.3040;1.1058;
89.1000;1.2991;1.0907;
89.4000;1.3032;1.0983;
89.7000;1.3040;1.1008;
90.0000;1.3024;1.1109;
90.3000;1.3024;1.1134;
90.6000;1.3032;1.1134;
90.9000;1.3040;1.1109;
91.2000;1.3016;1.1058;
91.5000;1.3024;1.1084;
91.8000;1.3016;1.0932;
92.1000;1.3024;1.0907;
92.4000;1.3032;1.0932;
92.7000;1.3024;1.0958;
93.0000;1.3032;1.0932;
93.3000;1.3040;1.0958;
93.6000;1.3040;1.0983;
93.9000;1.3057;1.1084;
94.2000;1.3040;1.1084;
94.5000;1.3040;1.1058;
94.8000;1.3105;1.1310;
95.1000;1.3057;1.1134;
95.4000;1.3048;1.1109;
95.7000;1.3040;1.1109;
96.0000;1.3032;1.1058;
96.3000;1.2991;1.0958;
96.6000;1.3032;1.1008;
96.9000;1.3032;1.0983;
97.2000;1.3024;1.0958;
97.5000;1.3032;1.0882;
97.8000;1.3032;1.0807;
98.1000;1.3032;1.0706;
98.4000;1.3073;1.0832;
98.7000;1.3048;1.0781;
99.0000;1.3048;1.0807;
99.3000;1.3040;1.0681;
99.6000;1.3073;1.0756;
99.9000;1.2967;1.0479;
100.2000;1.3032;1.0655;
100.5000;1.3024;1.0756;
100.8000;1.3024;1.0706;
101.1000;1.3048;1.0731;
101.4000;1.3040;1.0781;
101.7000;1.3032;1.0731;
102.0000;1.3024;1.0756;
102.3000;1.3032;1.0781;
102.6000;1.3000;1.0756;
102.9000;1.3008;1.0731;
103.2000;1.3032;1.0756;
103.5000;1.3057;1.0882;
103.8000;1.3040;1.0807;
104.1000;1.3073;1.0932;
104.4000;1.3032;1.0932;
104.7000;1.3016;1.0958;
105.0000;1.3065;1.1058;
105.3000;1.3040;1.0932;
105.6000;1.3040;1.1008;
105.9000;1.3040;1.1058;
106.2000;1.3032;1.1084;
106.5000;1.3057;1.1134;
106.8000;1.3032;1.1084;
107.1000;1.2991;1.0983;
107.4000;1.3032;1.1109;
107.7000;1.3008;1.0958;
108.0000;1.3024;1.0983;
108.3000;1.3024;1.1008;
108.6000;1.3016;1.0907;
108.9000;1.3081;1.0958;
109.2000;1.3081;1.0983;
109.5000;1.3073;1.0907;
109.8000;1.3048;1.0882;
110.1000;1.3032;1.0857;
110.4000;1.3065;1.0857;
110.7000;1.3000;1.0681;
111.0000;1.3024;1.0655;
111.3000;1.3016;1.0605;
111.6000;1.3048;1.0731;
111.9000;1.3032;1.0731;
112.2000;1.3032;1.0731;
112.5000;1.3057;1.0932;
112.8000;1.3032;1.0907;
113.1000;1.3048;1.1008;
113.4000;1.3032;1.0958;
113.7000;1.3048;1.0958;
114.0000;1.3032;1.0882;
114.3000;1.3032;1.0882;
114.6000;1.3016;1.0983;
114.9000;1.3040;1.1008;
115.2000;1.3040;1.0983;
115.5000;1.3081;1.0983;
115.8000;1.3032;1.0832;
116.1000;1.3032;1.0731;
116.4000;1.3024;1.0706;
116.7000;1.3024;1.0681;
117.0000;1.3032;1.0655;
117.3000;1.3024;1.0605;
117.6000;1.3032;1.0580;
117.9000;1.3040;1.0655;
118.2000;1.3024;1.0706;
118.5000;1.3032;1.0731;
118.8000;1.3024;1.0756;
119.1000;1.3048;1.0832;
119.4000;1.3040;1.0807;
119.7000;1.3048;1.0781;
120.0000;1.3032;1.0731;
120.3000;1.3048;1.0781;
120.6000;1.3040;1.0781;
120.9000;1.3032;1.0781;
121.2000;1.3024;1.0807;
121.5000;1.3040;1.0807;
121.8000;1.3024;1.0857;
122.1000;1.3016;1.0781;
122.4000;1.3032;1.0731;
122.7000;1.3032;1.0807;
123.0000;1.3048;1.0832;
123.3000;1.3040;1.0706;
123.6000;1.3032;1.0681;
123.9000;1.3040;1.0756;
124.2000;1.3032;1.0756;
124.5000;1.3048;1.0781;
124.8000;1.3040;1.0756;
125.1000;1.3024;1.0781;
125.4000;1.3057;1.0907;
125.7000;1.3040;1.0932;
126.0000;1.3048;1.0958;
126.3000;1.3040;1.0857;
126.6000;1.3097;1.0983;
126.9000;1.3024;1.0756;
127.2000;1.3008;1.0731;
127.5000;1.3048;1.0756;
127.8000;1.3016;1.0731;
128.1000;1.3040;1.0807;
128.4000;1.3016;1.0781;
128.7000;1.3032;1.0731;
129.0000;1.3057;1.0731;
129.3000;1.3057;1.0807;
129.6000;1.3040;1.0781;
129.9000;1.3065;1.0857;
130.2000;1.3057;1.0832;
130.5000;1.3057;1.0807;
130.8000;1.3024;1.0807;
131.1000;1.2991;1.0681;
131.4000;1.3024;1.0807;
131.7000;1.3024;1.0706;
132.0000;1.3000;1.0630;
132.3000;1.3008;1.0655;
132.6000;1.3024;1.0655;
132.9000;1.3048;1.0630;
133.2000;1.3040;1.0630;
133.5000;1.3016;1.0580;
133.8000;1.3032;1.0605;
134.1000;1.3040;1.0706;
134.4000;1.3024;1.0731;
134.7000;1.3032;1.0655;
135.0000;1.3024;1.0681;
135.3000;1.3032;1.0681;
135.6000;1.3024;1.0655;
135.9000;1.3016;1.0630;
136.2000;1.3024;1.0681;
136.5000;1.3016;1.0605;
136.8000;1.3024;1.0681;
137.1000;1.3032;1.0731;
137.4000;1.3024;1.0655;
137.7000;1.3032;1.0681;
138.0000;1.3032;1.0731;
138.3000;1.3065;1.0832;
138.6000;1.3040;1.0832;
138.9000;1.3032;1.0807;
139.2000;1.3057;1.0857;
139.5000;1.3048;1.0907;
139.8000;1.3032;1.0857;
140.1000;1.3040;1.0832;
140.4000;1.3057;1.0857;
140.7000;1.3040;1.0907;
141.0000;1.3040;1.0882;
141.3000;1.3032;1.0781;
141.6000;1.3048;1.0807;
141.9000;1.3048;1.0832;
142.2000;1.3032;1.0907;
142.5000;1.3024;1.0857;
142.8000;1.3032;1.0882;
143.1000;1.3040;1.0832;
143.4000;1.3040;1.0706;
143.7000;1.3024;1.0630;
144.0000;1.3040;1.0655;
144.3000;1.3057;1.0857;
144.6000;1.3040;1.0857;
144.9000;1.3040;1.0907;
145.2000;1.3008;1.0756;
145.5000;1.3024;1.0756;
145.8000;1.3057;1.0706;
146.1000;1.3032;1.0655;
146.4000;1.3048;1.0731;
146.7000;1.3000;1.0655;
147.0000;1.3032;1.0706;
147.3000;1.3032;1.0756;
147.6000;1.2991;1.0655;
147.9000;1.3024;1.0781;
148.2000;1.3024;1.0807;
148.5000;1.3032;1.0807;
148.8000;1.3008;1.0832;
149.1000;1.3016;1.0857;
149.4000;1.3008;1.0857;
149.7000;1.3024;1.0832;
150.0000;1.3032;1.0832;
150.3000;1.2983;1.0781;
150.6000;1.3032;1.0958;
150.9000;1.3032;1.0932;
151.2000;1.3024;1.0907;
151.5000;1.3008;1.0832;
151.8000;1.3032;1.0807;
152.1000;1.3032;1.0832;
152.4000;1.3024;1.0781;
152.7000;1.3024;1.0832;
153.0000;1.3008;1.0807;
153.3000;1.3032;1.0882;
153.6000;1.3032;1.0882;
153.9000;1.3016;1.0832;
154.2000;1.3016;1.0731;
154.5000;1.3024;1.0731;
154.8000;1.3016;1.0731;
155.1000;1.3040;1.0706;
155.4000;1.3024;1.0731;
155.7000;1.3040;1.0731;
156.0000;1.3008;1.0781;
156.3000;1.3032;1.0907;
156.6000;1.3008;1.0882;
156.9000;1.3016;1.0932;
157.2000;1.3024;1.0932;
157.5000;1.3016;1.0807;
157.8000;1.3032;1.0781;
158.1000;1.3048;1.0907;
158.4000;1.3032;1.0832;
158.7000;1.3032;1.0807;
159.0000;1.3032;1.0781;
159.3000;1.3008;1.0731;
159.6000;1.3024;1.0781;
159.9000;1.3024;1.0807;
160.2000;1.3040;1.0832;
160.5000;1.3024;1.0781;
160.8000;1.3040;1.0681;
161.1000;1.3048;1.0706;
161.4000;1.3016;1.0681;
161.7000;1.3016;1.0731;
162.0000;1.3032;1.0832;
162.3000;1.2991;1.0706;
162.6000;1.3024;1.0756;
162.9000;1.2991;1.0756;
163.2000;1.3040;1.0807;
163.5000;1.3073;1.0907;
163.8000;1.3048;1.0781;
164.1000;1.3024;1.0756;
164.4000;1.3032;1.0756;
164.7000;1.3024;1.0756;
165.0000;1.3024;1.0756;
165.3000;1.3024;1.0706;
165.6000;1.3032;1.0807;
165.9000;1.3008;1.0681;
166.2000;1.3040;1.0706;
166.5000;1.3048;1.0857;
166.8000;1.3008;1.0731;
167.1000;1.3024;1.0756;
167.4000;1.3016;1.0731;
167.7000;1.3032;1.0731;
168.0000;1.3032;1.0655;
168.3000;1.3016;1.0706;
168.6000;1.3040;1.0756;
168.9000;1.3024;1.0756;
169.2000;1.3040;1.0756;
169.5000;1.3040;1.0781;
169.8000;1.3032;1.0832;
170.1000;1.3040;1.0882;
170.4000;1.3032;1.0882;
170.7000;1.3065;1.0857;
171.0000;1.3024;1.0706;
171.3000;1.3024;1.0630;
171.6000;1.3024;1.0580;
171.9000;1.3008;1.0630;
172.2000;1.3032;1.0655;
172.5000;1.3032;1.0555;
172.8000;1.3024;1.0655;
173.1000;1.3024;1.0706;
173.4000;1.3024;1.0630;
173.7000;1.3040;1.0655;
174.0000;1.3024;1.0681;
174.3000;1.3016;1.0655;
174.6000;1.3016;1.0605;
174.9000;1.3016;1.0555;
175.2000;1.2975;1.0353;
175.5000;1.3016;1.0454;
175.8000;1.3000;1.0454;
176.1000;1.3016;1.0454;
176.4000;1.3024;1.0605;
176.7000;1.3000;1.0630;
177.0000;1.2991;1.0655;
177.3000;1.3057;1.0832;
177.6000;1.3016;1.0756;
177.9000;1.3024;1.0781;
178.2000;1.3016;1.0781;
178.5000;1.3016;1.0807;
178.8000;1.3016;1.0731;
179.1000;1.3032;1.0781;
179.4000;1.3000;1.0756;
179.7000;1.3016;1.0756;
180.0000;1.3024;1.0781;
180.3000;1.3032;1.0731;
180.6000;1.3024;1.0756;
180.9000;1.3016;1.0706;
181.2000;1.3032;1.0731;
181.5000;1.3032;1.0756;
181.8000;1.3040;1.0731;
182.1000;1.3032;1.0756;
182.4000;1.3016;1.0781;
182.7000;1.3040;1.0832;
183.0000;1.3016;1.0706;
183.3000;1.2991;1.0605;
183.6000;1.3024;1.0781;
183.9000;1.3032;1.0781;
184.2000;1.3024;1.0756;
184.5000;1.3032;1.0756;
184.8000;1.3024;1.0655;
185.1000;1.3032;1.0655;
185.4000;1.3024;1.0605;
185.7000;1.3024;1.0630;
186.0000;1.3016;1.0681;
186.3000;1.2967;1.0529;
186.6000;1.3040;1.0781;
186.9000;1.3073;1.0807;
187.2000;1.3032;1.0655;
187.5000;1.3065;1.0681;
187.8000;1.3040;1.0630;
188.1000;1.3024;1.0630;
188.4000;1.3016;1.0605;
188.7000;1.3016;1.0655;
189.0000;1.3008;1.0655;
189.3000;1.3008;1.0580;
189.6000;1.3024;1.0580;
189.9000;1.3016;1.0580;
190.2000;1.3024;1.0529;
190.5000;1.3032;1.0504;
190.8000;1.3008;1.0454;
191.1000;1.3000;1.0429;
191.4000;1.3008;1.0429;
191.7000;1.3024;1.0429;
192.0000;1.3008;1.0353;
192.3000;1.3032;1.0403;
192.6000;1.3032;1.0403;
192.9000;1.3040;1.0479;
193.2000;1.3024;1.0580;
193.5000;1.3040;1.0630;
193.8000;1.3016;1.0504;
194.1000;1.3016;1.0529;
194.4000;1.3032;1.0555;
194.7000;1.3008;1.0580;
195.0000;1.3008;1.0630;
195.3000;1.3016;1.0731;
195.6000;1.3016;1.0655;
195.9000;1.2983;1.0555;
196.2000;1.3024;1.0605;
196.5000;1.3008;1.0630;
196.8000;1.3016;1.0655;
197.1000;1.3032;1.0655;
197.4000;1.3000;1.0555;
197.7000;1.3032;1.0555;
198.0000;1.3040;1.0605;
198.3000;1.3016;1.0655;
198.6000;1.3000;1.0655;
198.9000;1.3000;1.0655;
199.2000;1.3024;1.0630;
199.5000;1.3008;1.0630;
199.8000;1.3000;1.0731;
200.1000;1.3024;1.0781;
200.4000;1.3008;1.0731;
200.7000;1.3008;1.0655;
201.0000;1.3024;1.0681;
201.3000;1.3008;1.0655;
201.6000;1.3032;1.0756;
201.9000;1.3016;1.0681;
202.2000;1.3040;1.0706;
202.5000;1.3024;1.0781;
202.8000;1.3024;1.0756;
203.1000;1.3016;1.0832;
203.4000;1.3032;1.0907;
203.7000;1.3008;1.0907;
204.0000;1.3000;1.0857;
204.3000;1.3048;1.0932;
204.6000;1.3016;1.0781;
204.9000;1.3000;1.0681;
205.2000;1.3024;1.0731;
205.5000;1.3024;1.0731;
205.8000;1.3024;1.0781;
206.1000;1.3073;1.0958;
206.4000;1.3008;1.0857;
206.7000;1.3032;1.0832;
207.0000;1.3024;1.0857;
207.3000;1.3016;1.0932;
207.6000;1.3008;1.0983;
207.9000;1.3016;1.1033;
208.2000;1.3016;1.1008;
208.5000;1.3024;1.1033;
208.8000;1.3024;1.1033;
209.1000;1.3000;1.0958;
209.4000;1.2991;1.0907;
209.7000;1.3016;1.0832;
210.0000;1.3024;1.0756;
210.3000;1.3016;1.0681;
210.6000;1.3024;1.0681;
210.9000;1.3065;1.0832;
211.2000;1.3016;1.0706;
211.5000;1.3032;1.0781;
211.8000;1.3024;1.0882;
212.1000;1.2983;1.0781;
212.4000;1.3008;1.0932;
212.7000;1.3000;1.0907;
213.0000;1.3008;1.0832;
213.3000;1.3000;1.0756;
213.6000;1.3000;1.0756;
213.9000;1.2991;1.0731;
214.2000;1.3008;1.0731;
214.5000;1.3008;1.0756;
214.8000;1.3016;1.0706;
215.1000;1.3008;1.0681;
215.4000;1.3000;1.0681;
215.7000;1.3008;1.0731;
216.0000;1.2983;1.0655;
216.3000;1.3000;1.0706;
216.6000;1.3040;1.0781;
216.9000;1.3024;1.0907;
217.2000;1.2991;1.0807;
217.5000;1.3024;1.0882;
217.8000;1.2959;1.0706;
218.1000;1.3032;1.0932;
218.4000;1.3024;1.0882;
218.7000;1.3040;1.0958;
219.0000;1.3000;1.0781;
219.3000;1.2991;1.0706;
219.6000;1.2983;1.0681;
219.9000;1.3024;1.0832;
220.2000;1.3000;1.0882;
220.5000;1.2975;1.0932;
220.8000;1.3000;1.0932;
221.1000;1.3000;1.0983;
221.4000;1.3000;1.0932;
221.7000;1.3008;1.0907;
222.0000;1.3016;1.0907;
222.3000;1.3016;1.0882;
222.6000;1.3016;1.0857;
222.9000;1.3000;1.0807;
223.2000;1.3016;1.0857;
223.5000;1.3008;1.0781;
223.8000;1.3008;1.0681;
224.1000;1.3008;1.0706;
224.4000;1.3040;1.0781;
224.7000;1.3008;1.0731;
225.0000;1.3016;1.0731;
225.3000;1.3000;1.0781;
225.6000;1.2991;1.0807;
225.9000;1.3000;1.0882;
226.2000;1.3000;1.0932;
226.5000;1.3008;1.0857;
226.8000;1.3008;1.0857;
227.1000;1.3008;1.0857;
227.4000;1.3000;1.0907;
227.7000;1.3008;1.0907;
228.0000;1.3008;1.0832;
228.3000;1.3089;1.0958;
228.6000;1.3024;1.0756;
228.9000;1.2975;1.0655;
229.2000;1.2959;1.0655;
229.5000;1.3000;1.0857;
229.8000;1.3000;1.0958;
230.1000;1.3016;1.1033;
230.4000;1.3000;1.0932;
230.7000;1.3024;1.0882;
231.0000;1.3016;1.0781;
231.3000;1.3016;1.0907;
231.6000;1.3024;1.1008;
231.9000;1.3008;1.0807;
232.2000;1.3008;1.0781;
232.5000;1.3024;1.0807;
232.8000;1.3008;1.0832;
233.1000;1.3016;1.0857;
233.4000;1.3016;1.0907;
233.7000;1.3032;1.0907;
234.0000;1.3000;1.0832;
234.3000;1.3000;1.0781;
234.6000;1.2983;1.0756;
234.9000;1.2991;1.0807;
235.2000;1.2991;1.0756;
235.5000;1.2951;1.0655;
235.8000;1.3000;1.0807;
236.1000;1.2967;1.0681;
236.4000;1.3008;1.0807;
236.7000;1.3065;1.0958;
237.0000;1.2991;1.0756;
237.3000;1.2991;1.0756;
237.6000;1.3008;1.0731;
237.9000;1.3000;1.0706;
238.2000;1.3008;1.0655;
238.5000;1.3024;1.0731;
238.8000;1.3000;1.0655;
239.1000;1.2983;1.0731;
239.4000;1.2991;1.0731;
239.7000;1.3016;1.0832;
240.0000;1.3016;1.0832;
240.3000;1.3008;1.0781;
240.6000;1.3016;1.0781;
240.9000;1.3000;1.0807;
241.2000;1.3000;1.0781;
241.5000;1.3016;1.0781;
241.8000;1.3024;1.0731;
242.1000;1.3008;1.0756;
242.4000;1.3008;1.0832;
242.7000;1.3000;1.0882;
243.0000;1.3000;1.0882;
243.3000;1.2983;1.0882;
243.6000;1.3016;1.0832;
243.9000;1.3008;1.0706;
244.2000;1.3040;1.0781;
244.5000;1.3040;1.0781;
244.8000;1.3000;1.0681;
245.1000;1.3000;1.0807;
245.4000;1.3000;1.0756;
245.7000;1.3000;1.0781;
246.0000;1.2991;1.0731;
246.3000;1.3000;1.0731;
246.6000;1.3008;1.0706;
246.9000;1.2991;1.0681;
247.2000;1.2991;1.0731;
247.5000;1.3008;1.0781;
247.8000;1.3008;1.0781;
248.1000;1.3000;1.0706;
248.4000;1.3024;1.0756;
248.7000;1.3024;1.0731;
249.0000;1.3008;1.0706;
249.3000;1.3008;1.0580;
249.6000;1.2991;1.0504;
249.9000;1.3008;1.0605;
250.2000;1.3000;1.0681;
250.5000;1.2991;1.0681;
250.8000;1.2991;1.0706;
251.1000;1.3032;1.0681;
251.4000;1.3008;1.0706;
251.7000;1.3000;1.0807;
252.0000;1.3016;1.0907;
252.3000;1.3008;1.0907;
252.6000;1.3000;1.0882;
252.9000;1.3008;1.0857;
253.2000;1.2975;1.0832;
253.5000;1.2975;1.0781;
253.8000;1.2991;1.0932;
254.1000;1.3040;1.1058;
254.4000;1.3000;1.1008;
254.7000;1.3016;1.1008;
255.0000;1.3024;1.1134;
255.3000;1.3016;1.1134;
255.6000;1.2991;1.1033;
255.9000;1.3000;1.1058;
256.2000;1.2991;1.0983;
256.5000;1.3024;1.1008;
256.8000;1.3000;1.0857;
257.1000;1.3000;1.0807;
257.4000;1.3000;1.0706;
257.7000;1.3016;1.0605;
258.0000;1.3089;1.0857;
258.3000;1.2991;1.0580;
258.6000;1.2943;1.0403;
258.9000;1.2975;1.0479;
259.2000;1.3024;1.0655;
259.5000;1.2991;1.0555;
259.8000;1.3008;1.0605;
260.1000;1.2991;1.0529;
260.4000;1.3024;1.0605;
260.7000;1.2991;1.0580;
261.0000;1.2975;1.0529;
261.3000;1.3008;1.0529;
261.6000;1.3008;1.0555;
261.9000;1.3032;1.0731;
262.2000;1.3016;1.0756;
262.5000;1.3000;1.0781;
262.8000;1.3016;1.0857;
263.1000;1.3016;1.0781;
263.4000;1.3016;1.0932;
263.7000;1.2991;1.0958;
264.0000;1.3008;1.0958;
264.3000;1.3008;1.0983;
264.6000;1.3000;1.0983;
264.9000;1.3000;1.1008;
265.2000;1.2934;1.0932;
265.5000;1.2967;1.0932;
265.8000;1.2983;1.0958;
266.1000;1.2991;1.0958;
266.4000;1.2983;1.0983;
266.7000;1.3016;1.0958;
267.0000;1.2991;1.0756;
267.3000;1.2991;1.0832;
267.6000;1.3032;1.1008;
267.9000;1.2991;1.0932;
268.2000;1.2991;1.0832;
268.5000;1.3000;1.0756;
268.8000;1.3000;1.0706;
269.1000;1.2991;1.0681;
269.4000;1.3016;1.0655;
269.7000;1.3016;1.0681;
270.0000;1.3000;1.0681;
270.3000;1.2991;1.0706;
270.6000;1.2991;1.0731;
270.9000;1.3000;1.0731;
271.2000;1.2991;1.0731;
271.5000;1.2975;1.0681;
271.8000;1.3008;1.0781;
272.1000;1.3000;1.0781;
272.4000;1.3008;1.0832;
272.7000;1.2991;1.0807;
273.0000;1.3008;1.0781;
273.3000;1.2991;1.0882;
273.6000;1.2991;1.0958;
273.9000;1.3040;1.1058;
274.2000;1.3040;1.0983;
274.5000;1.3008;1.0882;
274.8000;1.2991;1.0857;
275.1000;1.3000;1.0857;
275.4000;1.3016;1.0832;
275.7000;1.3008;1.0832;
276.0000;1.3008;1.0882;
276.3000;1.3081;1.1008;
276.6000;1.3000;1.0832;
276.9000;1.3008;1.0857;
277.2000;1.3008;1.0781;
277.5000;1.3000;1.0781;
277.8000;1.2991;1.0807;
278.1000;1.2983;1.0731;
278.4000;1.2991;1.0731;
278.7000;1.2975;1.0655;
279.0000;1.2991;1.0681;
279.3000;1.2967;1.0630;
279.6000;1.3000;1.0781;
279.9000;1.3016;1.0832;
280.2000;1.2991;1.0731;
280.5000;1.3008;1.0857;
280.8000;1.2991;1.0857;
281.1000;1.3000;1.0857;
281.4000;1.2934;1.0630;
281.7000;1.3000;1.0731;
282.0000;1.2951;1.0655;
282.3000;1.3024;1.0857;
282.6000;1.2983;1.0781;
282.9000;1.3024;1.0882;
283.2000;1.2991;1.0832;
283.5000;1.3000;1.0807;
283.8000;1.2991;1.0756;
284.1000;1.2983;1.0706;
284.4000;1.3000;1.0756;
284.7000;1.2983;1.0807;
285.0000;1.3000;1.0832;
285.3000;1.2975;1.0857;
285.6000;1.2991;1.0807;
285.9000;1.3008;1.0832;
286.2000;1.2991;1.0756;
286.5000;1.2983;1.0807;
286.8000;1.2991;1.0731;
287.1000;1.2991;1.0731;
287.4000;1.2983;1.0681;
287.7000;1.2983;1.0605;
288.0000;1.2967;1.0580;
288.3000;1.2983;1.0605;
288.6000;1.3016;1.0605;
288.9000;1.3008;1.0655;
289.2000;1.2983;1.0655;
289.5000;1.3000;1.0681;
289.8000;1.3008;1.0681;
290.1000;1.2991;1.0681;
290.4000;1.2991;1.0781;
290.7000;1.2983;1.0756;
291.0000;1.2967;1.0630;
291.3000;1.3008;1.0655;
291.6000;1.2983;1.0605;
291.9000;1.2983;1.0580;
292.2000;1.2991;1.0655;
292.5000;1.2991;1.0756;
292.8000;1.2983;1.0832;
293.1000;1.2991;1.0807;
293.4000;1.2983;1.0706;
293.7000;1.2991;1.0807;
294.0000;1.3008;1.0807;
294.3000;1.2983;1.0756;
294.6000;1.3000;1.0681;
294.9000;1.3008;1.0756;
295.2000;1.2991;1.0781;
295.5000;1.2967;1.0731;
295.8000;1.2975;1.0731;
296.1000;1.3000;1.0706;
296.4000;1.2975;1.0655;
296.7000;1.2991;1.0681;
297.0000;1.3000;1.0731;
297.3000;1.2991;1.0832;
297.6000;1.3008;1.0832;
297.9000;1.3000;1.0832;
298.2000;1.2991;1.0756;
298.5000;1.3016;1.0781;
298.8000;1.3008;1.0781;
299.1000;1.3024;1.0731;
299.4000;1.3000;1.0706;
299.7000;1.3008;1.0681;
300.0000;1.3008;1.0681;
300.3000;1.2959;1.0605;
300.6000;1.2975;1.0655;
300.9000;1.2991;1.0807;
301.2000;1.3024;1.0857;
301.5000;1.3016;1.0882;
301.8000;1.3008;1.0781;
302.1000;1.2975;1.0857;
302.4000;1.3008;1.0932;
302.7000;1.3000;1.0832;
303.0000;1.2991;1.0731;
303.3000;1.3000;1.0932;
303.6000;1.3000;1.0882;
303.9000;1.3016;1.1033;
304.2000;1.3008;1.1109;
304.5000;1.2975;1.1008;
304.8000;1.2991;1.0958;
305.1000;1.3008;1.1008;
305.4000;1.3000;1.0958;
305.7000;1.3008;1.0958;
306.0000;1.2967;1.0857;
306.3000;1.2983;1.0857;
306.6000;1.2991;1.0958;
306.9000;1.2975;1.0958;
307.2000;1.3016;1.0983;
307.5000;1.2983;1.0932;
307.8000;1.3000;1.0907;
308.1000;1.2983;1.0882;
308.4000;1.2967;1.0832;
308.7000;1.2991;1.0832;
309.0000;1.3000;1.0907;
309.3000;1.3008;1.0907;
309.6000;1.3016;1.0932;
309.9000;1.3000;1.0907;
310.2000;1.3016;1.1008;
310.5000;1.3000;1.1008;
310.8000;1.2991;1.0907;
311.1000;1.2991;1.0832;
311.4000;1.2967;1.0781;
311.7000;1.3000;1.0807;
312.0000;1.2991;1.0807;
312.3000;1.2991;1.0857;
312.6000;1.2991;1.0932;
312.9000;1.2983;1.0907;
313.2000;1.2991;1.0882;
313.5000;1.3032;1.1008;
313.8000;1.2918;1.0681;
314.1000;1.3032;1.0983;
314.4000;1.3008;1.0958;
314.7000;1.3016;1.1008;
315.0000;1.3008;1.1084;
315.3000;1.3000;1.1058;
315.6000;1.3008;1.1109;
315.9000;1.2991;1.1008;
316.2000;1.2975;1.1033;
316.5000;1.2951;1.1058;
316.8000;1.2991;1.1134;
317.1000;1.2991;1.1184;
317.4000;1.2991;1.1084;
317.7000;1.2983;1.1008;
318.0000;1.2983;1.0958;
318.3000;1.3065;1.1109;
318.6000;1.3008;1.0932;
318.9000;1.3000;1.0882;
319.2000;1.2959;1.0807;
319.5000;1.3000;1.0781;
319.8000;1.2975;1.0781;
320.1000;1.2991;1.0857;
320.4000;1.2991;1.0857;
320.7000;1.2991;1.0882;
321.0000;1.2975;1.0882;
321.3000;1.2975;1.0857;
321.6000;1.2991;1.0907;
321.9000;1.2991;1.0932;
322.2000;1.2983;1.0907;
322.5000;1.3000;1.0907;
322.8000;1.2991;1.0932;
323.1000;1.3000;1.0907;
323.4000;1.2991;1.0983;
323.7000;1.2991;1.0983;
324.0000;1.2967;1.0882;
324.3000;1.2991;1.0958;
324.6000;1.2991;1.1008;
324.9000;1.2991;1.1033;
325.2000;1.2983;1.0983;
325.5000;1.2983;1.1033;
325.8000;1.2991;1.0983;
326.1000;1.2991;1.0882;
326.4000;1.2983;1.0832;
326.7000;1.3000;1.0907;
327.0000;1.3000;1.0857;
327.3000;1.2991;1.0857;
327.6000;1.3024;1.0983;
327.9000;1.2991;1.0882;
328.2000;1.3000;1.0857;
328.5000;1.2983;1.0781;
328.8000;1.2991;1.0832;
329.1000;1.3008;1.0907;
329.4000;1.3000;1.0932;
329.7000;1.2951;1.0781;
330.0000;1.2951;1.0781;
330.3000;1.2991;1.0882;
330.6000;1.3016;1.0882;
330.9000;1.2991;1.0807;
331.2000;1.2991;1.0756;
331.5000;1.2983;1.0807;
331.8000;1.2975;1.0781;
332.1000;1.2983;1.0882;
332.4000;1.3089;1.1033;
332.7000;1.2983;1.0756;
333.0000;1.2975;1.0731;
333.3000;1.2983;1.0731;
333.6000;1.3008;1.0756;
333.9000;1.2983;1.0706;
334.2000;1.2975;1.0731;
334.5000;1.3008;1.0781;
334.8000;1.3024;1.0807;
335.1000;1.2983;1.0706;
335.4000;1.3032;1.0832;
335.7000;1.2975;1.0731;
336.0000;1.3000;1.0857;
336.3000;1.2983;1.0832;
336.6000;1.2934;1.0655;
336.9000;1.2991;1.0832;
337.2000;1.3008;1.0983;
337.5000;1.3065;1.1109;
337.8000;1.2959;1.0882;
338.1000;1.2983;1.0958;
338.4000;1.2991;1.0958;
338.7000;1.2983;1.1058;
339.0000;1.2991;1.1159;
339.3000;1.2991;1.1109;
339.6000;1.3000;1.1134;
339.9000;1.3008;1.1134;
340.2000;1.2975;1.1008;
340.5000;1.2983;1.1058;
340.8000;1.3000;1.1058;
341.1000;1.2975;1.0907;
341.4000;1.2991;1.0882;
341.7000;1.3000;1.0958;
342.0000;1.2975;1.0958;
342.3000;1.3024;1.0983;
342.6000;1.2991;1.0832;
342.9000;1.2983;1.0756;
343.2000;1.2991;1.0781;
343.5000;1.2983;1.0781;
343.8000;1.3000;1.0932;
344.1000;1.2967;1.0857;
344.4000;1.2975;1.0882;
344.7000;1.2991;1.1033;
345.0000;1.3008;1.1058;
345.3000;1.3040;1.1210;
345.6000;1.3000;1.1084;
345.9000;1.3000;1.1058;
346.2000;1.2975;1.1008;
346.5000;1.2959;1.1058;
346.8000;1.2991;1.1058;
347.1000;1.3000;1.1033;
347.4000;1.2983;1.1058;
347.7000;1.2967;1.0958;
348.0000;1.2983;1.0958;
348.3000;1.2926;1.0857;
348.6000;1.3000;1.0958;
348.9000;1.3008;1.0983;
349.2000;1.2991;1.0932;
349.5000;1.2983;1.0932;
349.8000;1.2983;1.0958;
350.1000;1.3000;1.0932;
350.4000;1.2983;1.0857;
350.7000;1.3008;1.0932;
351.0000;1.2983;1.0857;
351.3000;1.2991;1.0832;
351.6000;1.2991;1.0857;
351.9000;1.2975;1.0807;
352.2000;1.2983;1.0857;
352.5000;1.2951;1.0781;
352.8000;1.3008;1.1008;
353.1000;1.2951;1.0882;
353.4000;1.2975;1.0907;
353.7000;1.2991;1.0857;
354.0000;1.2926;1.0681;
354.3000;1.2983;1.0857;
354.6000;1.2959;1.0807;
354.9000;1.2991;1.0807;
355.2000;1.2991;1.0781;
355.5000;1.2983;1.0807;
355.8000;1.2983;1.0781;
356.1000;1.2991;1.0932;
356.4000;1.2991;1.1008;
356.7000;1.2910;1.0781;
357.0000;1.2975;1.0857;
357.3000;1.3000;1.0958;
357.6000;1.2983;1.0882;
357.9000;1.2983;1.0807;
358.2000;1.2943;1.0781;
358.5000;1.2983;1.0807;
358.8000;1.3000;1.0832;
359.1000;1.2934;1.0731;
359.4000;1.2983;1.0857;
359.7000;1.3032;1.1109;
360.0000;1.2967;1.0932;
360.3000;1.3000;1.1033;
360.6000;1.2975;1.1058;
360.9000;1.2983;1.1084;
361.2000;1.2975;1.1033;
361.5000;1.2975;1.1008;
361.8000;1.2991;1.1058;
362.1000;1.2967;1.1058;
362.4000;1.3000;1.1109;
362.7000;1.2991;1.1084;
363.0000;1.2983;1.0983;
363.3000;1.2983;1.1008;
363.6000;1.2991;1.1008;
363.9000;1.2991;1.1033;
364.2000;1.2991;1.1033;
364.5000;1.2983;1.0983;
364.8000;1.2983;1.0932;
365.1000;1.3008;1.1058;
365.4000;1.2943;1.0882;
365.7000;1.3000;1.1033;
366.0000;1.2975;1.1008;
366.3000;1.2983;1.1134;
366.6000;1.2983;1.1109;
366.9000;1.2983;1.1134;
367.2000;1.2975;1.1084;
367.5000;1.2975;1.1058;
367.8000;1.2983;1.1058;
368.1000;1.2983;1.0958;
368.4000;1.2991;1.1033;
368.7000;1.2983;1.1058;
369.0000;1.2991;1.1058;
369.3000;1.2983;1.1008;
369.6000;1.2983;1.0958;
369.9000;1.3000;1.0983;
370.2000;1.2975;1.0907;
370.5000;1.3000;1.1033;
370.8000;1.2983;1.1033;
371.1000;1.2959;1.1008;
371.4000;1.2975;1.1033;
371.7000;1.2991;1.1033;
372.0000;1.2983;1.0983;
372.3000;1.2967;1.0958;
372.6000;1.2983;1.1033;
372.9000;1.2975;1.0983;
373.2000;1.2983;1.0932;
373.5000;1.2983;1.0857;
373.8000;1.2983;1.0882;
374.1000;1.2967;1.0882;
374.4000;1.2983;1.0932;
374.7000;1.2975;1.0807;
375.0000;1.2975;1.0832;
375.3000;1.2877;1.0504;
375.6000;1.2934;1.0731;
375.9000;1.3000;1.0958;
376.2000;1.2967;1.0907;
376.5000;1.2991;1.0882;
376.8000;1.3000;1.0907;
377.1000;1.2983;1.0832;
377.4000;1.2975;1.0857;
377.7000;1.2991;1.0907;
378.0000;1.2975;1.0983;
378.3000;1.2975;1.1033;
378.6000;1.2975;1.1134;
378.9000;1.3024;1.1285;
379.2000;1.2983;1.1184;
379.5000;1.2983;1.1184;
379.8000;1.3000;1.1184;
380.1000;1.2991;1.1184;
380.4000;1.2991;1.1210;
380.7000;1.2991;1.1235;
381.0000;1.2975;1.1184;
381.3000;1.2983;1.1159;
381.6000;1.2991;1.1159;
381.9000;1.2991;1.1134;
382.2000;1.2991;1.1159;
382.5000;1.2975;1.1058;
382.8000;1.2967;1.1033;
383.1000;1.2983;1.1084;
383.4000;1.2967;1.1084;
383.7000;1.3016;1.1184;
384.0000;1.2983;1.1109;
384.3000;1.2967;1.1033;
384.6000;1.2991;1.1033;
384.9000;1.2991;1.0932;
385.2000;1.3000;1.0983;
385.5000;1.2975;1.0882;
385.8000;1.2975;1.0932;
386.1000;1.2967;1.0958;
386.4000;1.2943;1.0857;
386.7000;1.2975;1.0857;
387.0000;1.3008;1.0983;
387.3000;1.2967;1.0882;
387.6000;1.2983;1.0958;
387.9000;1.2983;1.0857;
388.2000;1.2967;1.0857;
388.5000;1.2967;1.0882;
388.8000;1.2967;1.0857;
389.1000;1.2975;1.0807;
389.4000;1.2926;1.0731;
389.7000;1.2991;1.0882;
390.0000;1.2967;1.0781;
390.3000;1.2926;1.0630;
390.6000;1.2991;1.0731;
390.9000;1.2991;1.0756;
391.2000;1.2886;1.0529;
391.5000;1.2991;1.0857;
391.8000;1.2975;1.0832;
392.1000;1.2983;1.0882;
392.4000;1.2983;1.0958;
392.7000;1.2975;1.0882;
393.0000;1.2959;1.0983;
393.3000;1.2991;1.1084;
393.6000;1.2983;1.1084;
393.9000;1.2967;1.0983;
394.2000;1.2991;1.0958;
394.5000;1.2975;1.1008;
394.8000;1.2991;1.0958;
395.1000;1.2991;1.0907;
395.4000;1.2975;1.0857;
395.7000;1.2983;1.0781;
396.0000;1.2983;1.0781;
396.3000;1.2967;1.0807;
396.6000;1.2975;1.0857;
396.9000;1.2991;1.0932;
397.2000;1.2975;1.0932;
397.5000;1.2983;1.0958;
397.8000;1.2991;1.0958;
398.1000;1.2975;1.0907;
398.4000;1.2959;1.0857;
398.7000;1.3008;1.0983;
399.0000;1.2975;1.0857;
399.3000;1.2991;1.1033;
399.6000;1.2959;1.1008;
399.9000;1.3000;1.1084;
400.2000;1.2983;1.1109;
400.5000;1.2975;1.1084;
400.8000;1.2975;1.1058;
401.1000;1.2991;1.1134;
401.4000;1.2967;1.1058;
401.7000;1.2983;1.1058;
402.0000;1.3016;1.1184;
402.3000;1.2991;1.1184;
402.6000;1.3000;1.1184;
402.9000;1.2967;1.1084;
403.2000;1.2967;1.1159;
403.5000;1.2983;1.1184;
403.8000;1.2975;1.1084;
404.1000;1.2951;1.0932;
404.4000;1.2959;1.0882;
404.7000;1.2983;1.1033;
405.0000;1.2959;1.1033;
405.3000;1.2975;1.1109;
405.6000;1.2959;1.1058;
405.9000;1.2975;1.1159;
406.2000;1.2983;1.1109;
406.5000;1.2959;1.1033;
406.8000;1.2967;1.0983;
407.1000;1.2975;1.1033;
407.4000;1.2975;1.0907;
407.7000;1.2975;1.0932;
408.0000;1.2934;1.0857;
408.3000;1.2967;1.0907;
408.6000;1.3057;1.1134;
408.9000;1.2967;1.0932;
409.2000;1.2967;1.0907;
409.5000;1.2967;1.0958;
409.8000;1.2975;1.0932;
410.1000;1.2983;1.0807;
410.4000;1.2975;1.0807;
410.7000;1.2991;1.0807;
411.0000;1.3000;1.0756;
411.3000;1.2975;1.0681;
411.6000;1.2975;1.0655;
411.9000;1.2967;1.0731;
412.2000;1.2967;1.0706;
412.5000;1.2983;1.0781;
412.8000;1.2991;1.0832;
413.1000;1.2959;1.0857;
413.4000;1.2926;1.0907;
413.7000;1.2975;1.1084;
414.0000;1.2975;1.1008;
414.3000;1.2967;1.0983;
414.6000;1.2951;1.1008;
414.9000;1.2975;1.1084;
415.2000;1.2967;1.1109;
415.5000;1.2951;1.1058;
415.8000;1.2951;1.1008;
416.1000;1.2959;1.1008;
416.4000;1.2951;1.0983;
416.7000;1.2967;1.0983;
417.0000;1.2959;1.1008;
417.3000;1.2967;1.0983;
417.6000;1.2959;1.0932;
417.9000;1.2959;1.0832;
418.2000;1.2983;1.0857;
418.5000;1.2959;1.0807;
418.8000;1.2967;1.0832;
419.1000;1.2975;1.0857;
419.4000;1.2967;1.0807;
419.7000;1.2983;1.0983;
420.0000;1.2983;1.0907;
420.3000;1.2983;1.0932;
420.6000;1.2975;1.0907;
420.9000;1.2959;1.0857;
421.2000;1.2975;1.0807;
421.5000;1.2983;1.0731;
421.8000;1.2983;1.0756;
422.1000;1.2967;1.0781;
422.4000;1.2983;1.0731;
422.7000;1.3008;1.0807;
423.0000;1.2967;1.0756;
423.3000;1.2991;1.0832;
423.6000;1.2967;1.0857;
423.9000;1.2983;1.0832;
424.2000;1.2975;1.0857;
424.5000;1.2991;1.0882;
424.8000;1.2959;1.0807;
425.1000;1.2967;1.0882;
425.4000;1.2967;1.0781;
425.7000;1.2959;1.0832;
426.0000;1.2959;1.0907;
426.3000;1.2967;1.0958;
426.6000;1.2967;1.1008;
426.9000;1.2959;1.0932;
427.2000;1.2983;1.0907;
427.5000;1.3008;1.0958;
427.8000;1.3040;1.1033;
428.1000;1.2975;1.0932;
428.4000;1.2975;1.0907;
428.7000;1.2959;1.0932;
429.0000;1.2991;1.0932;
429.3000;1.2975;1.0882;
429.6000;1.2926;1.0781;
429.9000;1.2967;1.0882;
430.2000;1.2959;1.0932;
430.5000;1.2991;1.1084;
430.8000;1.2975;1.1084;
431.1000;1.2967;1.0983;
431.4000;1.2967;1.0882;
431.7000;1.2967;1.0907;
432.0000;1.2975;1.0932;
432.3000;1.2967;1.0907;
432.6000;1.3016;1.1008;
432.9000;1.2959;1.0882;
433.2000;1.2983;1.0958;
433.5000;1.2983;1.0932;
433.8000;1.2975;1.0958;
434.1000;1.2983;1.0882;
434.4000;1.2975;1.0857;
434.7000;1.2967;1.0781;
435.0000;1.2967;1.0781;
435.3000;1.2975;1.0807;
435.6000;1.2991;1.0857;
435.9000;1.2975;1.0882;
436.2000;1.2967;1.0832;
436.5000;1.2983;1.0983;
436.8000;1.2991;1.1033;
437.1000;1.2967;1.0958;
437.4000;1.3024;1.1210;
437.7000;1.2967;1.1109;
438.0000;1.2983;1.1109;
438.3000;1.2918;1.1008;
438.6000;1.2975;1.1109;
438.9000;1.2983;1.1084;
439.2000;1.2975;1.1109;
439.5000;1.2991;1.1109;
439.8000;1.2967;1.1084;
440.1000;1.2967;1.1084;
440.4000;1.2975;1.1109;
440.7000;1.2959;1.1033;
441.0000;1.2975;1.1033;
441.3000;1.2975;1.1033;
441.6000;1.2975;1.0958;
441.9000;1.2975;1.1058;
442.2000;1.2975;1.1084;
442.5000;1.3000;1.1058;
442.8000;1.2975;1.1008;
443.1000;1.2951;1.0907;
443.4000;1.2983;1.0907;
443.7000;1.2975;1.0882;
444.0000;1.2967;1.0832;
444.3000;1.3048;1.1008;
444.6000;1.2975;1.0882;
444.9000;1.2959;1.0907;
445.2000;1.2975;1.0907;
445.5000;1.3024;1.1008;
445.8000;1.2991;1.0907;
446.1000;1.2967;1.0857;
446.4000;1.2967;1.0932;
446.7000;1.2975;1.0932;
447.0000;1.2975;1.0932;
447.3000;1.2975;1.0907;
447.6000;1.2959;1.0882;
447.9000;1.2951;1.0932;
448.2000;1.2959;1.0958;
448.5000;1.2926;1.0832;
448.8000;1.2967;1.0983;
449.1000;1.2959;1.1033;
449.4000;1.2991;1.1109;
449.7000;1.2967;1.1033;
450.0000;1.2967;1.1008;
450.3000;1.2951;1.1008;
450.6000;1.2943;1.0958;
450.9000;1.2975;1.1008;
451.2000;1.2959;1.1008;
451.5000;1.2991;1.1084;
451.8000;1.2975;1.0983;
452.1000;1.2975;1.1084;
452.4000;1.2975;1.1084;
452.7000;1.2943;1.0932;
453.0000;1.2959;1.0958;
453.3000;1.2967;1.0907;
453.6000;1.2943;1.0832;
453.9000;1.2967;1.0907;
454.2000;1.2975;1.0882;
454.5000;1.2951;1.0756;
454.8000;1.2951;1.0756;
455.1000;1.2959;1.0807;
455.4000;1.2951;1.0781;
455.7000;1.2967;1.0832;
456.0000;1.2959;1.0781;
456.3000;1.2967;1.0781;
456.6000;1.2959;1.0832;
456.9000;1.2975;1.0958;
457.2000;1.2975;1.0907;
457.5000;1.2975;1.0882;
457.8000;1.2975;1.0857;
458.1000;1.2975;1.0781;
458.4000;1.2975;1.0857;
458.7000;1.2975;1.0832;
459.0000;1.2967;1.0882;
459.3000;1.2934;1.0832;
459.6000;1.2967;1.0958;
459.9000;1.2959;1.0983;
460.2000;1.2967;1.0958;
460.5000;1.2959;1.0907;
460.8000;1.2967;1.0932;
461.1000;1.2951;1.0907;
461.4000;1.2975;1.0958;
461.7000;1.2967;1.1033;
462.0000;1.2967;1.1033;
462.3000;1.2975;1.1084;
462.6000;1.2967;1.1109;
462.9000;1.2975;1.1058;
463.2000;1.2959;1.1058;
463.5000;1.2967;1.1008;
463.8000;1.2951;1.0932;
464.1000;1.2975;1.0983;
464.4000;1.2959;1.0958;
464.7000;1.2959;1.0958;
465.0000;1.2975;1.1008;
465.3000;1.2951;1.1033;
465.6000;1.3000;1.1159;
465.9000;1.2959;1.1033;
466.2000;1.2951;1.1008;
466.5000;1.2975;1.1008;
466.8000;1.2951;1.1008;
467.1000;1.2959;1.0983;
467.4000;1.2959;1.0983;
467.7000;1.2934;1.1008;
468.0000;1.2967;1.1084;
468.3000;1.2959;1.1008;
468.6000;1.3000;1.1058;
468.9000;1.2967;1.0958;
469.2000;1.2975;1.1008;
469.5000;1.2910;1.0882;
469.8000;1.2967;1.1033;
470.1000;1.2967;1.1033;
470.4000;1.2959;1.1033;
470.7000;1.2983;1.1058;
471.0000;1.2959;1.1084;
471.3000;1.2967;1.1084;
471.6000;1.2959;1.1084;
471.9000;1.2967;1.1008;
472.2000;1.2967;1.0983;
472.5000;1.2918;1.0857;
472.8000;1.2975;1.0983;
473.1000;1.2959;1.0958;
473.4000;1.2983;1.0958;
473.7000;1.2910;1.0832;
474.0000;1.2983;1.0983;
474.3000;1.2959;1.0932;
474.6000;1.3000;1.1008;
474.9000;1.2967;1.0932;
475.2000;1.2975;1.1033;
475.5000;1.2959;1.1008;
475.8000;1.2951;1.0882;
476.1000;1.2951;1.0882;
476.4000;1.2951;1.0907;
476.7000;1.3008;1.1058;
477.0000;1.2959;1.0983;
477.3000;1.2951;1.0882;
477.6000;1.2975;1.0932;
477.9000;1.2951;1.0857;
478.2000;1.2959;1.0932;
478.5000;1.2951;1.0932;
478.8000;1.2951;1.0832;
479.1000;1.2959;1.0807;
479.4000;1.2959;1.0832;
479.7000;1.2967;1.0882;
480.0000;1.2975;1.0907;
480.3000;1.2983;1.0832;
480.6000;1.2951;1.0807;
480.9000;1.2959;1.0832;
481.2000;1.2918;1.0706;
481.5000;1.2983;1.0882;
481.8000;1.2967;1.0807;
482.1000;1.2926;1.0807;
482.4000;1.2959;1.0882;
482.7000;1.2975;1.0907;
483.0000;1.2967;1.0907;
483.3000;1.3016;1.0958;
483.6000;1.2951;1.0781;
483.9000;1.2959;1.0882;
484.2000;1.2991;1.1058;
484.5000;1.2959;1.0958;
484.8000;1.2934;1.0958;
485.1000;1.2967;1.0983;
485.4000;1.2967;1.0958;
485.7000;1.2967;1.0832;
486.0000;1.2967;1.0781;
486.3000;1.2991;1.0832;
486.6000;1.2959;1.0882;
486.9000;1.3032;1.1008;
487.2000;1.2951;1.0832;
487.5000;1.2967;1.0932;
487.8000;1.2975;1.0958;
488.1000;1.2959;1.0907;
488.4000;1.2959;1.0932;
488.7000;1.2975;1.0857;
489.0000;1.2983;1.0857;
489.3000;1.2967;1.0857;
489.6000;1.2991;1.0958;
489.9000;1.2959;1.0882;
490.2000;1.2991;1.0907;
490.5000;1.3016;1.1033;
490.8000;1.2959;1.0907;
491.1000;1.2926;1.0857;
491.4000;1.2934;1.0807;
491.7000;1.2967;1.0882;
492.0000;1.2943;1.0807;
492.3000;1.2959;1.0807;
492.6000;1.2943;1.0807;
492.9000;1.2991;1.0882;
493.2000;1.2967;1.0807;
493.5000;1.2975;1.0907;
493.8000;1.2886;1.0681;
494.1000;1.2975;1.0932;
494.4000;1.2967;1.0932;
494.7000;1.2975;1.1008;
495.0000;1.2975;1.1033;
495.3000;1.2951;1.0907;
495.6000;1.2967;1.0882;
495.9000;1.2959;1.0932;
496.2000;1.2967;1.0958;
496.5000;1.2959;1.1033;
496.8000;1.2967;1.1058;
497.1000;1.2959;1.0983;
497.4000;1.2943;1.0983;
497.7000;1.2951;1.0983;
498.0000;1.2975;1.0983;
498.3000;1.2934;1.0958;
498.6000;1.2959;1.0907;
498.9000;1.2951;1.0882;
499.2000;1.2951;1.0781;
499.5000;1.2959;1.0756;
499.8000;1.2967;1.0756;
500.1000;1.2943;1.0756;
500.4000;1.2959;1.0756;
500.7000;1.2959;1.0756;
501.0000;1.2943;1.0857;
501.3000;1.2951;1.0857;
501.6000;1.2983;1.0958;
501.9000;1.2975;1.0958;
502.2000;1.2951;1.0958;
502.5000;1.2967;1.0907;
502.8000;1.2967;1.0857;
503.1000;1.2967;1.0882;
503.4000;1.2967;1.0907;
503.7000;1.2975;1.0932;
504.0000;1.2959;1.0907;
504.3000;1.2967;1.0932;
504.6000;1.2951;1.0983;
504.9000;1.2943;1.0983;
505.2000;1.2934;1.1033;
505.5000;1.2951;1.1109;
505.8000;1.2951;1.1184;
506.1000;1.2943;1.1184;
506.4000;1.2934;1.1109;
506.7000;1.2943;1.1084;
507.0000;1.2943;1.1134;
507.3000;1.2926;1.1008;
507.6000;1.2951;1.1084;
507.9000;1.2951;1.1033;
508.2000;1.2967;1.1033;
508.5000;1.2967;1.1033;
508.8000;1.2934;1.0932;
509.1000;1.2951;1.0907;
509.4000;1.2926;1.0832;
509.7000;1.2959;1.0932;
510.0000;1.2959;1.1008;
510.3000;1.2943;1.0958;
510.6000;1.2967;1.1033;
510.9000;1.2951;1.1008;
511.2000;1.2934;1.0958;
511.5000;1.2934;1.0932;
511.8000;1.2959;1.0958;
512.1000;1.2959;1.0958;
512.4000;1.2926;1.0932;
512.7000;1.2959;1.0983;
513.0000;1.2959;1.0958;
513.3000;1.2975;1.0983;
513.6000;1.2967;1.1008;
513.9000;1.2959;1.1033;
514.2000;1.2959;1.1109;
514.5000;1.2975;1.1109;
514.8000;1.2943;1.1008;
515.1000;1.2967;1.1109;
515.4000;1.2926;1.0983;
515.7000;1.2951;1.0983;
516.0000;1.2959;1.0983;
516.3000;1.2926;1.0958;
516.6000;1.2943;1.1008;
516.9000;1.2991;1.1033;
517.2000;1.2951;1.0958;
517.5000;1.2943;1.0932;
517.8000;1.3008;1.1109;
518.1000;1.2959;1.1008;
518.4000;1.2951;1.1008;
518.7000;1.3057;1.1260;
519.0000;1.2951;1.0932;
519.3000;1.2959;1.0958;
519.6000;1.2951;1.1033;
519.9000;1.2967;1.1084;
520.2000;1.2959;1.1084;
520.5000;1.2926;1.0983;
520.8000;1.2959;1.0932;
521.1000;1.2934;1.0857;
521.4000;1.2934;1.0932;
521.7000;1.2951;1.0958;
522.0000;1.2959;1.0932;
522.3000;1.2975;1.0958;
522.6000;1.2902;1.0807;
522.9000;1.2943;1.0907;
523.2000;1.2934;1.0907;
523.5000;1.2967;1.0932;
523.8000;1.2967;1.0983;
524.1000;1.2951;1.0983;
524.4000;1.2959;1.0983;
524.7000;1.2951;1.0958;
525.0000;1.2959;1.0882;
525.3000;1.2967;1.0807;
525.6000;1.2861;1.0630;
525.9000;1.2951;1.0882;
526.2000;1.2983;1.0958;
526.5000;1.2951;1.0907;
526.8000;1.2943;1.0958;
527.1000;1.2967;1.1084;
527.4000;1.2934;1.1033;
527.7000;1.2943;1.1109;
528.0000;1.2959;1.1159;
528.3000;1.2934;1.1033;
528.6000;1.2959;1.1058;
528.9000;1.2959;1.1109;
529.2000;1.2951;1.1033;
529.5000;1.2951;1.0958;
529.8000;1.2959;1.0932;
530.1000;1.2967;1.0882;
530.4000;1.2943;1.0907;
530.7000;1.2967;1.0907;
531.0000;1.2959;1.0857;
531.3000;1.2934;1.0781;
531.6000;1.2967;1.0857;
531.9000;1.2951;1.0857;
532.2000;1.2934;1.0907;
532.5000;1.2959;1.0983;
532.8000;1.2926;1.0958;
533.1000;1.2934;1.0958;
533.4000;1.2951;1.0932;
533.7000;1.2951;1.0958;
534.0000;1.2967;1.1008;
534.3000;1.2943;1.0907;
534.6000;1.2959;1.0932;
534.9000;1.2967;1.0907;
535.2000;1.2975;1.0907;
535.5000;1.2951;1.0882;
535.8000;1.2983;1.0958;
536.1000;1.2943;1.0983;
536.4000;1.2959;1.1058;
536.7000;1.2959;1.0983;
537.0000;1.2951;1.1033;
537.3000;1.2943;1.1033;
537.6000;1.2959;1.1058;
537.9000;1.2934;1.0907;
538.2000;1.2951;1.0807;
538.5000;1.2943;1.0781;
538.8000;1.2967;1.0781;
539.1000;1.2951;1.0731;
539.4000;1.2943;1.0857;
539.7000;1.2959;1.0958;
540.0000;1.2959;1.1033;
540.3000;1.2991;1.1184;
540.6000;1.2967;1.1109;
540.9000;1.2991;1.1109;
541.2000;1.2967;1.1008;
541.5000;1.2975;1.1033;
541.8000;1.2967;1.1008;
542.1000;1.2943;1.0882;
542.4000;1.2959;1.0907;
542.7000;1.2959;1.0932;
543.0000;1.2943;1.1008;
543.3000;1.2943;1.1008;
543.6000;1.2951;1.0958;
543.9000;1.2951;1.1008;
544.2000;1.2967;1.1084;
544.5000;1.2967;1.1008;
544.8000;1.2943;1.0958;
545.1000;1.2959;1.1008;
545.4000;1.2975;1.1008;
545.7000;1.2910;1.0807;
546.0000;1.2959;1.0932;
546.3000;1.2959;1.0932;
546.6000;1.2910;1.0857;
546.9000;1.2943;1.0932;
547.2000;1.2943;1.0958;
547.5000;1.2943;1.0932;
547.8000;1.3016;1.1134;
548.1000;1.2959;1.0958;
548.4000;1.2943;1.0958;
548.7000;1.2943;1.0983;
549.0000;1.2951;1.1008;
549.3000;1.2934;1.1058;
549.6000;1.2951;1.0983;
549.9000;1.2951;1.1008;
550.2000;1.2951;1.1084;
550.5000;1.2951;1.1109;
550.8000;1.2943;1.0958;
551.1000;1.2943;1.0983;
551.4000;1.2975;1.1134;
551.7000;1.2959;1.1033;
552.0000;1.2959;1.1058;
552.3000;1.2967;1.1134;
552.6000;1.2951;1.1134;
552.9000;1.2943;1.1084;
553.2000;1.2934;1.1134;
553.5000;1.2934;1.1084;
553.8000;1.2943;1.0983;
554.1000;1.2959;1.1008;
554.4000;1.2918;1.0907;
554.7000;1.2943;1.0882;
555.0000;1.2943;1.0907;
555.3000;1.2918;1.0756;
555.6000;1.2951;1.0882;
555.9000;1.2943;1.0983;
556.2000;1.2959;1.0958;
556.5000;1.2943;1.0932;
556.8000;1.2943;1.1033;
557.1000;1.2934;1.1008;
557.4000;1.2975;1.1008;
557.7000;1.2943;1.0907;
558.0000;1.2951;1.0857;
558.3000;1.2943;1.0807;
558.6000;1.2934;1.0857;
558.9000;1.2959;1.0907;
559.2000;1.2959;1.0932;
559.5000;1.2951;1.0882;
559.8000;1.2943;1.0882;
560.1000;1.2951;1.0882;
560.4000;1.2975;1.0983;
560.7000;1.2943;1.0958;
561.0000;1.2951;1.1008;
561.3000;1.2894;1.0907;
561.6000;1.2943;1.0958;
561.9000;1.2951;1.0907;
562.2000;1.2934;1.0882;
562.5000;1.2918;1.0882;
562.8000;1.2959;1.0907;
563.1000;1.2951;1.0907;
563.4000;1.2869;1.0731;
563.7000;1.2934;1.0907;
564.0000;1.2926;1.0932;
564.3000;1.2943;1.1058;
564.6000;1.2951;1.1084;
564.9000;1.2934;1.0958;
565.2000;1.2959;1.1058;
565.5000;1.2951;1.1134;
565.8000;1.2951;1.1159;
566.1000;1.2943;1.1084;
566.4000;1.2959;1.1109;
566.7000;1.2934;1.1033;
567.0000;1.2951;1.1033;
567.3000;1.2926;1.0958;
567.6000;1.2926;1.0932;
567.9000;1.2926;1.0958;
568.2000;1.2926;1.0932;
568.5000;1.2943;1.0932;
568.8000;1.2951;1.0932;
569.1000;1.2926;1.0932;
569.4000;1.2943;1.0882;
569.7000;1.2943;1.0857;
570.0000;1.2943;1.0832;
570.3000;1.2951;1.0832;
570.6000;1.2918;1.0907;
570.9000;1.2959;1.0958;
571.2000;1.2918;1.0907;
571.5000;1.2934;1.0983;
571.8000;1.2934;1.0882;
572.1000;1.2959;1.0907;
572.4000;1.2951;1.0882;
572.7000;1.2959;1.0907;
573.0000;1.2943;1.0807;
573.3000;1.2943;1.0781;
573.6000;1.2959;1.0756;
573.9000;1.2943;1.0756;
574.2000;1.2959;1.0807;
574.5000;1.2967;1.0832;
574.8000;1.2959;1.0832;
575.1000;1.2926;1.0681;
575.4000;1.2951;1.0781;
575.7000;1.2943;1.0731;
576.0000;1.2951;1.0706;
576.3000;1.2959;1.0882;
576.6000;1.2967;1.0857;
576.9000;1.2934;1.0731;
577.2000;1.3008;1.0882;
577.5000;1.2918;1.0781;
577.8000;1.2926;1.0857;
578.1000;1.2943;1.0932;
578.4000;1.2934;1.1033;
578.7000;1.2943;1.1084;
579.0000;1.2943;1.1109;
579.3000;1.2902;1.1058;
579.6000;1.2951;1.1134;
579.9000;1.2943;1.1109;
580.2000;1.2894;1.0958;
580.5000;1.2983;1.1109;
580.8000;1.2951;1.1033;
581.1000;1.2951;1.1033;
581.4000;1.2934;1.1008;
581.7000;1.2943;1.0958;
582.0000;1.2934;1.0907;
582.3000;1.2926;1.0807;
582.6000;1.2926;1.0807;
582.9000;1.2910;1.0781;
583.2000;1.2934;1.0857;
583.5000;1.2983;1.1008;
583.8000;1.2943;1.0882;
584.1000;1.2926;1.0857;
584.4000;1.2943;1.0882;
584.7000;1.2951;1.0857;
585.0000;1.2943;1.0932;
585.3000;1.2902;1.0907;
585.6000;1.2934;1.0983;
585.9000;1.2926;1.0932;
586.2000;1.2951;1.0932;
586.5000;1.2934;1.0958;
586.8000;1.2934;1.0958;
587.1000;1.2934;1.0932;
587.4000;1.2918;1.0857;
587.7000;1.2926;1.0832;
588.0000;1.2926;1.0882;
588.3000;1.2886;1.0832;
588.6000;1.2934;1.0958;
588.9000;1.2951;1.0932;
589.2000;1.2983;1.1033;
589.5000;1.2918;1.0882;
589.8000;1.2943;1.0932;
590.1000;1.2934;1.0907;
590.4000;1.2951;1.0907;
590.7000;1.2951;1.0932;
591.0000;1.2951;1.0857;
591.3000;1.2951;1.0857;
591.6000;1.2951;1.0857;
591.9000;1.2926;1.0958;
592.2000;1.2934;1.1084;
592.5000;1.2943;1.1084;
592.8000;1.2951;1.1109;
593.1000;1.2910;1.1058;
593.4000;1.2926;1.1084;
593.7000;1.2926;1.1058;
594.0000;1.2951;1.1033;
594.3000;1.2951;1.0958;
594.6000;1.2926;1.0958;
594.9000;1.2934;1.0958;
595.2000;1.2959;1.1033;
595.5000;1.2943;1.1084;
595.8000;1.2943;1.1134;
596.1000;1.2918;1.1084;
596.4000;1.2959;1.1210;
596.7000;1.2926;1.1084;
597.0000;1.2918;1.0983;
597.3000;1.2959;1.1058;
597.6000;1.2934;1.0983;
597.9000;1.2934;1.0958;
598.2000;1.2910;1.0907;
598.5000;1.2918;1.0857;
598.8000;1.2926;1.0932;
599.1000;1.2934;1.0958;
599.4000;1.2910;1.0932;
599.7000;1.2918;1.0983;
600.0000;1.2918;1.0983;
600.3000;1.2926;1.0907;
600.6000;1.2943;1.0781;
600.9000;1.2886;1.0731;
601.2000;1.2788;1.0555;
601.5000;1.2690;1.0303;
601.8000;1.2576;1.0126;
602.1000;1.2454;0.9950;
602.4000;1.2283;0.9623;
602.7000;1.2259;0.9723;
603.0000;1.2145;0.9597;
603.3000;1.2055;0.9446;
603.6000;1.1958;0.9320;
603.9000;1.1868;0.9169;
604.2000;1.1779;0.8968;
604.5000;1.1713;0.8968;
604.8000;1.1632;0.8842;
605.1000;1.1575;0.8942;
605.4000;1.1494;0.8816;
605.7000;1.1404;0.8766;
606.0000;1.1347;0.8842;
606.3000;1.1290;0.8716;
606.6000;1.1241;0.8741;
606.9000;1.1176;0.8615;
607.2000;1.1103;0.8464;
607.5000;1.1054;0.8388;
607.8000;1.0997;0.8363;
608.1000;1.0956;0.8363;
608.4000;1.0891;0.8212;
608.7000;1.0818;0.8136;
609.0000;1.0769;0.8187;
609.3000;1.0729;0.8212;
609.6000;1.0663;0.8212;
609.9000;1.0631;0.8111;
610.2000;1.0598;0.8086;
610.5000;1.0541;0.8086;
610.8000;1.0501;0.7960;
611.1000;1.0452;0.7884;
611.4000;1.0403;0.7884;
611.7000;1.0379;0.7935;
612.0000;1.0322;0.7985;
612.3000;1.0297;0.8061;
612.6000;1.0216;0.7985;
612.9000;1.0159;0.7884;
613.2000;1.0191;0.7960;
613.5000;1.0134;0.7910;
613.8000;1.0142;0.7859;
614.1000;1.0085;0.7733;
614.4000;1.0020;0.7683;
614.7000;0.9980;0.7582;
615.0000;0.9915;0.7532;
615.3000;0.9915;0.7683;
615.6000;0.9882;0.7708;
615.9000;0.9841;0.7759;
616.2000;0.9817;0.7733;
616.5000;0.9792;0.7683;
616.8000;0.9703;0.7607;
617.1000;0.9719;0.7708;
617.4000;0.9687;0.7708;
617.7000;0.9678;0.7759;
618.0000;0.9630;0.7784;
618.3000;0.9597;0.7708;
618.6000;0.9548;0.7557;
618.9000;0.9540;0.7582;
619.2000;0.9524;0.7557;
619.5000;0.9475;0.7532;
619.8000;0.9467;0.7607;
620.1000;0.9434;0.7532;
620.4000;0.9426;0.7607;
620.7000;0.9410;0.7633;
621.0000;0.9361;0.7582;
621.3000;0.9320;0.7633;
621.6000;0.9312;0.7658;
621.9000;0.9271;0.7658;
622.2000;0.9247;0.7607;
622.5000;0.9239;0.7658;
622.8000;0.9223;0.7633;
623.1000;0.9214;0.7607;
623.4000;0.9198;0.7607;
623.7000;0.9149;0.7481;
624.0000;0.9101;0.7381;
624.3000;0.9076;0.7481;
624.6000;0.9068;0.7481;
624.9000;0.9052;0.7456;
625.2000;0.9027;0.7532;
625.5000;0.9076;0.7759;
625.8000;0.9003;0.7532;
626.1000;0.8995;0.7532;
626.4000;0.9011;0.7582;
626.7000;0.8938;0.7330;
627.0000;0.8921;0.7406;
627.3000;0.8905;0.7330;
627.6000;0.8905;0.7305;
627.9000;0.8864;0.7305;
628.2000;0.8864;0.7381;
628.5000;0.8824;0.7330;
628.8000;0.8807;0.7280;
629.1000;0.8775;0.7280;
629.4000;0.8791;0.7305;
629.7000;0.8751;0.7305;
630.0000;0.8742;0.7355;
630.3000;0.8718;0.7381;
630.6000;0.8702;0.7381;
630.9000;0.8718;0.7406;
631.2000;0.8677;0.7330;
631.5000;0.8661;0.7255;
631.8000;0.8645;0.7255;
632.1000;0.8637;0.7255;
632.4000;0.8620;0.7204;
632.7000;0.8588;0.7204;
633.0000;0.8580;0.7179;
633.3000;0.8580;0.7280;
633.6000;0.8563;0.7230;
633.9000;0.8563;0.7230;
634.2000;0.8523;0.7280;
634.5000;0.8514;0.7280;
634.8000;0.8498;0.7230;
635.1000;0.8482;0.7230;
635.4000;0.8466;0.7230;
635.7000;0.8474;0.7280;
636.0000;0.8441;0.7255;
636.3000;0.8425;0.7255;
636.6000;0.8409;0.7330;
636.9000;0.8449;0.7481;
637.2000;0.8417;0.7481;
637.5000;0.8392;0.7355;
637.8000;0.8368;0.7305;
638.1000;0.8344;0.7330;
638.4000;0.8360;0.7456;
638.7000;0.8327;0.7305;
639.0000;0.8335;0.7305;
639.3000;0.8327;0.7305;
639.6000;0.8319;0.7330;
639.9000;0.8278;0.7255;
640.2000;0.8278;0.7305;
640.5000;0.8270;0.7355;
640.8000;0.8254;0.7255;
641.1000;0.8295;0.7305;
641.4000;0.8230;0.7179;
641.7000;0.8221;0.7305;
642.0000;0.8181;0.7230;
642.3000;0.8205;0.7355;
642.6000;0.8189;0.7431;
642.9000;0.8181;0.7381;
643.2000;0.8181;0.7456;
643.5000;0.8156;0.7381;
643.8000;0.8156;0.7406;
644.1000;0.8132;0.7355;
644.4000;0.8132;0.7355;
644.7000;0.8099;0.7355;
645.0000;0.8099;0.7305;
645.3000;0.8091;0.7280;
645.6000;0.8059;0.7179;
645.9000;0.8083;0.7255;
646.2000;0.8059;0.7280;
646.5000;0.8059;0.7230;
646.8000;0.8067;0.7255;
647.1000;0.8042;0.7204;
647.4000;0.8042;0.7280;
647.7000;0.8026;0.7255;
648.0000;0.8026;0.7330;
648.3000;0.8059;0.7456;
648.6000;0.8002;0.7355;
648.9000;0.8026;0.7406;
649.2000;0.7969;0.7305;
649.5000;0.7985;0.7431;
649.8000;0.7969;0.7255;
650.1000;0.7985;0.7305;
650.4000;0.7937;0.7230;
650.7000;0.7904;0.7179;
651.0000;0.7920;0.7230;
651.3000;0.7912;0.7078;
651.6000;0.7904;0.6978;
651.9000;0.7904;0.6952;
652.2000;0.7896;0.7003;
652.5000;0.7888;0.7028;
652.8000;0.7880;0.7028;
653.1000;0.7880;0.7028;
653.4000;0.7863;0.7078;
653.7000;0.7855;0.7179;
654.0000;0.7839;0.7230;
654.3000;0.7823;0.7255;
654.6000;0.7814;0.7230;
654.9000;0.7831;0.7305;
655.2000;0.7863;0.7456;
655.5000;0.7725;0.7053;
655.8000;0.7790;0.7255;
656.1000;0.7774;0.7255;
656.4000;0.7766;0.7230;
656.7000;0.7774;0.7381;
657.0000;0.7766;0.7406;
657.3000;0.7790;0.7456;
657.6000;0.7757;0.7355;
657.9000;0.7757;0.7305;
658.2000;0.7733;0.7230;
658.5000;0.7741;0.7230;
658.8000;0.7741;0.7154;
659.1000;0.7660;0.6902;
659.4000;0.7725;0.7053;
659.7000;0.7717;0.7204;
660.0000;0.7709;0.7230;
660.3000;0.7700;0.7255;
660.6000;0.7717;0.7305;
660.9000;0.7709;0.7255;
661.2000;0.7725;0.7330;
661.5000;0.7700;0.7204;
661.8000;0.7692;0.7255;
662.1000;0.7676;0.7230;
662.4000;0.7660;0.7154;
662.7000;0.7652;0.7179;
663.0000;0.7643;0.7179;
663.3000;0.7635;0.7280;
663.6000;0.7643;0.7255;
663.9000;0.7627;0.7179;
664.2000;0.7627;0.7179;
664.5000;0.7619;0.7104;
664.8000;0.7611;0.7053;
665.1000;0.7611;0.7078;
665.4000;0.7603;0.7154;
665.7000;0.7586;0.7078;
666.0000;0.7578;0.7129;
666.3000;0.7586;0.7179;
666.6000;0.7578;0.7129;
666.9000;0.7562;0.7028;
667.2000;0.7546;0.6978;
667.5000;0.7570;0.7053;
667.8000;0.7586;0.7154;
668.1000;0.7570;0.7179;
668.4000;0.7546;0.7078;
668.7000;0.7530;0.7104;
669.0000;0.7538;0.7204;
669.3000;0.7530;0.7204;
669.6000;0.7505;0.7154;
669.9000;0.7521;0.7280;
670.2000;0.7513;0.7204;
670.5000;0.7513;0.7305;
670.8000;0.7505;0.7280;
671.1000;0.7513;0.7255;
671.4000;0.7473;0.7154;
671.7000;0.7513;0.7255;
672.0000;0.7489;0.7255;
672.3000;0.7473;0.7129;
672.6000;0.7497;0.7230;
672.9000;0.7505;0.7280;
673.2000;0.7497;0.7204;
673.5000;0.7464;0.7179;
673.8000;0.7456;0.7129;
674.1000;0.7448;0.7104;
674.4000;0.7456;0.7104;
674.7000;0.7440;0.7104;
675.0000;0.7440;0.7129;
675.3000;0.7440;0.7204;
675.6000;0.7407;0.7204;
675.9000;0.7440;0.7230;
676.2000;0.7407;0.7154;
676.5000;0.7432;0.7154;
676.8000;0.7521;0.7230;
677.1000;0.7407;0.7154;
677.4000;0.7416;0.7204;
677.7000;0.7432;0.7255;
678.0000;0.7342;0.7028;
678.3000;0.7399;0.7280;
678.6000;0.7391;0.7280;
678.9000;0.7326;0.7154;
679.2000;0.7375;0.7230;
679.5000;0.7350;0.7104;
679.8000;0.7375;0.7280;
680.1000;0.7383;0.7330;
680.4000;0.7399;0.7330;
680.7000;0.7375;0.7230;
681.0000;0.7350;0.7204;
681.3000;0.7334;0.7230;
681.6000;0.7342;0.7204;
681.9000;0.7350;0.7204;
682.2000;0.7334;0.7255;
682.5000;0.7326;0.7255;
682.8000;0.7342;0.7230;
683.1000;0.7350;0.7255;
683.4000;0.7334;0.7154;
683.7000;0.7342;0.7280;
684.0000;0.7342;0.7280;
684.3000;0.7334;0.7255;
684.6000;0.7318;0.7230;
684.9000;0.7326;0.7230;
685.2000;0.7334;0.7381;
685.5000;0.7310;0.7305;
685.8000;0.7318;0.7305;
686.1000;0.7293;0.7280;
686.4000;0.7293;0.7280;
686.7000;0.7302;0.7330;
687.0000;0.7293;0.7355;
687.3000;0.7277;0.7355;
687.6000;0.7269;0.7305;
687.9000;0.7277;0.7330;
688.2000;0.7269;0.7330;
688.5000;0.7269;0.7255;
688.8000;0.7269;0.7154;
689.1000;0.7269;0.7280;
689.4000;0.7261;0.7330;
689.7000;0.7253;0.7305;
690.0000;0.7253;0.7305;
690.3000;0.7228;0.7204;
690.6000;0.7253;0.7280;
690.9000;0.7236;0.7230;
691.2000;0.7245;0.7255;
691.5000;0.7245;0.7255;
691.8000;0.7228;0.7280;
692.1000;0.7253;0.7381;
692.4000;0.7245;0.7406;
692.7000;0.7236;0.7456;
693.0000;0.7228;0.7381;
693.3000;0.7245;0.7431;
693.6000;0.7245;0.7481;
693.9000;0.7204;0.7305;
694.2000;0.7236;0.7431;
694.5000;0.7163;0.7204;
694.8000;0.7204;0.7330;
695.1000;0.7204;0.7280;
695.4000;0.7179;0.7078;
695.7000;0.7212;0.7179;
696.0000;0.7179;0.7028;
696.3000;0.7171;0.6978;
696.6000;0.7179;0.7028;
696.9000;0.7196;0.7129;
697.2000;0.7179;0.7129;
697.5000;0.7179;0.7179;
697.8000;0.7188;0.7255;
698.1000;0.7228;0.7330;
698.4000;0.7179;0.7129;
698.7000;0.7163;0.7154;
699.0000;0.7155;0.7154;
699.3000;0.7163;0.7129;
699.6000;0.7163;0.7104;
699.9000;0.7179;0.7129;
700.2000;0.7147;0.7154;
700.5000;0.7147;0.7179;
700.8000;0.7155;0.7330;
701.1000;0.7139;0.7305;
701.4000;0.7131;0.7330;
701.7000;0.7123;0.7330;
702.0000;0.7163;0.7330;
702.3000;0.7147;0.7204;
702.6000;0.7123;0.7230;
702.9000;0.7106;0.7204;
703.2000;0.7123;0.7305;
703.5000;0.7139;0.7381;
703.8000;0.7139;0.7456;
704.1000;0.7123;0.7431;
704.4000;0.7114;0.7456;
704.7000;0.7123;0.7330;
705.0000;0.7171;0.7406;
705.3000;0.7114;0.7255;
705.6000;0.7106;0.7179;
705.9000;0.7090;0.7129;
706.2000;0.7123;0.7204;
706.5000;0.7106;0.7204;
706.8000;0.7106;0.7154;
707.1000;0.7090;0.7179;
707.4000;0.7106;0.7154;
707.7000;0.7114;0.7154;
708.0000;0.7082;0.7053;
708.3000;0.7066;0.7078;
708.6000;0.7098;0.7028;
708.9000;0.7106;0.7104;
709.2000;0.7082;0.7104;
709.5000;0.7082;0.7204;
709.8000;0.7066;0.7078;
710.1000;0.7074;0.7230;
710.4000;0.7057;0.7179;
710.7000;0.7049;0.7104;
711.0000;0.7057;0.7179;
711.3000;0.7066;0.7179;
711.6000;0.7066;0.7255;
711.9000;0.7041;0.7204;
712.2000;0.6992;0.7053;
712.5000;0.7082;0.7230;
712.8000;0.7066;0.7230;
713.1000;0.7057;0.7179;
713.4000;0.7074;0.7255;
713.7000;0.7049;0.7204;
714.0000;0.7041;0.7204;
714.3000;0.7066;0.7255;
714.6000;0.7033;0.7204;
714.9000;0.7049;0.7280;
715.2000;0.7033;0.7280;
715.5000;0.7017;0.7255;
715.8000;0.7041;0.7305;
716.1000;0.7041;0.7406;
716.4000;0.7033;0.7381;
716.7000;0.7041;0.7406;
717.0000;0.7017;0.7305;
717.3000;0.7025;0.7330;
717.6000;0.7000;0.7381;
717.9000;0.7009;0.7431;
718.2000;0.6992;0.7406;
718.5000;0.7025;0.7557;
718.8000;0.7009;0.7557;
719.1000;0.7009;0.7557;
719.4000;0.7009;0.7532;
719.7000;0.6992;0.7481;
720.0000;0.7025;0.7431;
720.3000;0.6992;0.7330;
720.6000;0.6992;0.7305;
720.9000;0.6992;0.7330;
721.2000;0.6976;0.7381;
721.5000;0.6976;0.7456;
721.8000;0.6976;0.7381;
722.1000;0.6984;0.7406;
722.4000;0.6968;0.7406;
722.7000;0.6992;0.7355;
723.0000;0.6976;0.7280;
723.3000;0.6984;0.7330;
723.6000;0.6992;0.7355;
723.9000;0.6976;0.7330;
724.2000;0.6968;0.7330;
724.5000;0.6976;0.7355;
724.8000;0.6968;0.7305;
725.1000;0.6960;0.7230;
725.4000;0.6984;0.7280;
725.7000;0.6952;0.7255;
726.0000;0.6960;0.7230;
726.3000;0.6952;0.7230;
726.6000;0.6984;0.7280;
726.9000;0.6960;0.7255;
727.2000;0.6960;0.7305;
727.5000;0.7017;0.7431;
727.8000;0.6976;0.7355;
728.1000;0.6960;0.7305;
728.4000;0.6968;0.7330;
728.7000;0.6919;0.7381;
729.0000;0.6952;0.7456;
729.3000;0.6943;0.7381;
729.6000;0.6935;0.7355;
729.9000;0.6952;0.7355;
730.2000;0.6960;0.7381;
730.5000;0.6960;0.7431;
730.8000;0.6960;0.7431;
731.1000;0.6935;0.7481;
731.4000;0.6935;0.7456;
731.7000;0.6886;0.7280;
732.0000;0.6943;0.7381;
732.3000;0.6927;0.7305;
732.6000;0.6952;0.7381;
732.9000;0.6935;0.7355;
733.2000;0.6927;0.7381;
733.5000;0.6935;0.7406;
733.8000;0.6935;0.7381;
734.1000;0.6919;0.7431;
734.4000;0.6919;0.7431;
734.7000;0.6919;0.7406;
735.0000;0.6927;0.7330;
735.3000;0.6943;0.7330;
735.6000;0.6919;0.7255;
735.9000;0.6919;0.7129;
736.2000;0.6927;0.7129;
736.5000;0.6927;0.7154;
736.8000;0.6919;0.7204;
737.1000;0.6911;0.7280;
737.4000;0.6935;0.7255;
737.7000;0.6935;0.7280;
738.0000;0.6919;0.7255;
738.3000;0.6911;0.7204;
738.6000;0.6838;0.6902;
738.9000;0.6846;0.6927;
739.2000;0.6919;0.7154;
739.5000;0.6911;0.7154;
739.8000;0.6903;0.7230;
740.1000;0.6895;0.7179;
740.4000;0.6911;0.7179;
740.7000;0.6911;0.7179;
741.0000;0.6886;0.7104;
741.3000;0.6895;0.7129;
741.6000;0.6886;0.7154;
741.9000;0.6895;0.7204;
742.2000;0.6895;0.7179;
742.5000;0.6862;0.7053;
742.8000;0.6886;0.7104;
743.1000;0.6895;0.7104;
743.4000;0.6886;0.7104;
743.7000;0.6878;0.7154;
744.0000;0.6886;0.7179;
744.3000;0.6903;0.7003;
744.6000;0.6870;0.6952;
744.9000;0.6878;0.7104;
745.2000;0.6886;0.7179;
745.5000;0.6911;0.7154;
745.8000;0.6878;0.7230;
746.1000;0.6870;0.7204;
746.4000;0.6870;0.7129;
746.7000;0.6886;0.7154;
747.0000;0.6821;0.7003;
747.3000;0.6862;0.7154;
747.6000;0.6862;0.7230;
747.9000;0.6862;0.7255;
748.2000;0.6870;0.7255;
748.5000;0.6862;0.7230;
748.8000;0.6854;0.7104;
749.1000;0.6878;0.7179;
749.4000;0.6854;0.7129;
749.7000;0.6854;0.7129;
750.0000;0.6870;0.7028;
750.3000;0.6862;0.7179;
750.6000;0.6854;0.7204;
750.9000;0.6870;0.7230;
751.2000;0.6854;0.7230;
751.5000;0.6846;0.7154;
751.8000;0.6878;0.7204;
752.1000;0.6854;0.7104;
752.4000;0.6878;0.7179;
752.7000;0.6846;0.7104;
753.0000;0.6854;0.7129;
753.3000;0.6838;0.7230;
753.6000;0.6886;0.7355;
753.9000;0.6862;0.7355;
754.2000;0.6854;0.7305;
754.5000;0.6854;0.7230;
754.8000;0.6846;0.7255;
755.1000;0.6838;0.7204;
755.4000;0.6838;0.7154;
755.7000;0.6829;0.7179;
756.0000;0.6846;0.7255;
756.3000;0.6829;0.7154;
756.6000;0.6805;0.7104;
756.9000;0.6829;0.7204;
757.2000;0.6797;0.7179;
757.5000;0.6805;0.7230;
757.8000;0.6756;0.7104;
758.1000;0.6748;0.7053;
758.4000;0.6829;0.7230;
758.7000;0.6813;0.7179;
759.0000;0.6821;0.7204;
759.3000;0.6838;0.7230;
759.6000;0.6821;0.7204;
759.9000;0.6821;0.7230;
760.2000;0.6813;0.7255;
760.5000;0.6805;0.7204;
760.8000;0.6805;0.7179;
761.1000;0.6813;0.7305;
761.4000;0.6805;0.7255;
761.7000;0.6805;0.7381;
762.0000;0.6805;0.7355;
762.3000;0.6797;0.7355;
762.6000;0.6789;0.7230;
762.9000;0.6813;0.7255;
763.2000;0.6805;0.7255;
763.5000;0.6772;0.7230;
763.8000;0.6821;0.7381;
764.1000;0.6821;0.7330;
764.4000;0.6838;0.7355;
764.7000;0.6821;0.7355;
765.0000;0.6813;0.7381;
765.3000;0.6805;0.7355;
765.6000;0.6797;0.7456;
765.9000;0.6813;0.7481;
766.2000;0.6805;0.7481;
766.5000;0.6870;0.7557;
766.8000;0.6789;0.7406;
767.1000;0.6805;0.7456;
767.4000;0.6781;0.7355;
767.7000;0.6805;0.7381;
768.0000;0.6781;0.7305;
768.3000;0.6789;0.7255;
768.6000;0.6772;0.7154;
768.9000;0.6781;0.7179;
769.2000;0.6797;0.7129;
769.5000;0.6781;0.7129;
769.8000;0.6781;0.7078;
770.1000;0.6781;0.7179;
770.4000;0.6789;0.7280;
770.7000;0.6797;0.7305;
771.0000;0.6797;0.7355;
771.3000;0.6846;0.7532;
771.6000;0.6764;0.7305;
771.9000;0.6764;0.7330;
772.2000;0.6764;0.7280;
772.5000;0.6756;0.7179;
772.8000;0.6740;0.7179;
773.1000;0.6756;0.7255;
773.4000;0.6829;0.7381;
773.7000;0.6772;0.7355;
774.0000;0.6797;0.7381;
774.3000;0.6732;0.7280;
774.6000;0.6756;0.7280;
774.9000;0.6797;0.7330;
775.2000;0.6781;0.7355;
775.5000;0.6781;0.7456;
775.8000;0.6781;0.7431;
776.1000;0.6789;0.7532;
776.4000;0.6732;0.7456;
776.7000;0.6813;0.7532;
777.0000;0.6748;0.7355;
777.3000;0.6748;0.7381;
777.6000;0.6748;0.7406;
777.9000;0.6748;0.7406;
778.2000;0.6732;0.7355;
778.5000;0.6756;0.7330;
778.8000;0.6756;0.7305;
779.1000;0.6748;0.7230;
779.4000;0.6748;0.7255;
779.7000;0.6789;0.7280;
780.0000;0.6838;0.7532;
780.3000;0.6748;0.7280;
780.6000;0.6764;0.7280;
780.9000;0.6732;0.7255;
781.2000;0.6740;0.7280;
781.5000;0.6740;0.7255;
781.8000;0.6740;0.7330;
782.1000;0.6740;0.7381;
782.4000;0.6756;0.7330;
782.7000;0.6748;0.7305;
783.0000;0.6772;0.7355;
783.3000;0.6732;0.7204;
783.6000;0.6740;0.7230;
783.9000;0.6732;0.7330;
784.2000;0.6748;0.7406;
784.5000;0.6732;0.7406;
784.8000;0.6740;0.7381;
785.1000;0.6772;0.7456;
785.4000;0.6748;0.7355;
785.7000;0.6748;0.7355;
786.0000;0.6781;0.7431;
786.3000;0.6724;0.7355;
786.6000;0.6740;0.7431;
786.9000;0.6732;0.7355;
787.2000;0.6707;0.7355;
787.5000;0.6732;0.7431;
787.8000;0.6716;0.7355;
788.1000;0.6732;0.7355;
788.4000;0.6748;0.7406;
788.7000;0.6732;0.7305;
789.0000;0.6740;0.7381;
789.3000;0.6724;0.7355;
789.6000;0.6756;0.7406;
789.9000;0.6716;0.7255;
790.2000;0.6756;0.7355;
790.5000;0.6732;0.7381;
790.8000;0.6748;0.7406;
791.1000;0.6716;0.7355;
791.4000;0.6732;0.7355;
791.7000;0.6740;0.7381;
792.0000;0.6659;0.7154;
792.3000;0.6732;0.7280;
792.6000;0.6732;0.7204;
792.9000;0.6707;0.7204;
793.2000;0.6716;0.7330;
793.5000;0.6716;0.7305;
793.8000;0.6716;0.7305;
794.1000;0.6716;0.7381;
794.4000;0.6716;0.7406;
794.7000;0.6675;0.7230;
795.0000;0.6707;0.7330;
795.3000;0.6740;0.7406;
795.6000;0.6691;0.7305;
795.9000;0.6699;0.7330;
796.2000;0.6691;0.7381;
796.5000;0.6732;0.7355;
796.8000;0.6724;0.7305;
797.1000;0.6659;0.7255;
797.4000;0.6732;0.7507;
797.7000;0.6716;0.7406;
798.0000;0.6699;0.7406;
798.3000;0.6756;0.7532;
798.6000;0.6699;0.7381;
798.9000;0.6716;0.7381;
799.2000;0.6707;0.7381;
799.5000;0.6691;0.7330;
799.8000;0.6659;0.7255;
800.1000;0.6699;0.7355;
800.4000;0.6699;0.7255;
800.7000;0.6667;0.7179;
801.0000;0.6716;0.7330;
801.3000;0.6691;0.7305;
801.6000;0.6716;0.7355;
801.9000;0.6699;0.7355;
802.2000;0.6724;0.7355;
802.5000;0.6707;0.7305;
802.8000;0.6699;0.7355;
803.1000;0.6691;0.7456;
803.4000;0.6707;0.7481;
803.7000;0.6691;0.7507;
804.0000;0.6699;0.7532;
804.3000;0.6691;0.7532;
804.6000;0.6642;0.7330;
804.9000;0.6683;0.7381;
805.2000;0.6707;0.7381;
805.5000;0.6691;0.7406;
805.8000;0.6707;0.7481;
806.1000;0.6683;0.7481;
806.4000;0.6675;0.7507;
806.7000;0.6699;0.7582;
807.0000;0.6724;0.7633;
807.3000;0.6707;0.7532;
807.6000;0.6683;0.7456;
807.9000;0.6602;0.7204;
808.2000;0.6691;0.7330;
808.5000;0.6691;0.7305;
808.8000;0.6683;0.7305;
809.1000;0.6675;0.7305;
809.4000;0.6667;0.7355;
809.7000;0.6675;0.7381;
810.0000;0.6683;0.7406;
810.3000;0.6683;0.7481;
810.6000;0.6699;0.7507;
810.9000;0.6683;0.7456;
811.2000;0.6691;0.7406;
811.5000;0.6667;0.7381;
811.8000;0.6699;0.7381;
812.1000;0.6691;0.7456;
812.4000;0.6732;0.7431;
812.7000;0.6667;0.7204;
813.0000;0.6683;0.7280;
813.3000;0.6683;0.7305;
813.6000;0.6716;0.7355;
813.9000;0.6675;0.7255;
814.2000;0.6683;0.7305;
814.5000;0.6724;0.7355;
814.8000;0.6675;0.7255;
815.1000;0.6699;0.7305;
815.4000;0.6683;0.7330;
815.7000;0.6716;0.7431;
816.0000;0.6683;0.7431;
816.3000;0.6691;0.7406;
816.6000;0.6667;0.7406;
816.9000;0.6683;0.7330;
817.2000;0.6716;0.7431;
817.5000;0.6667;0.7355;
817.8000;0.6659;0.7305;
818.1000;0.6642;0.7280;
818.4000;0.6659;0.7355;
818.7000;0.6724;0.7507;
819.0000;0.6667;0.7204;
819.3000;0.6667;0.7230;
819.6000;0.6675;0.7230;
819.9000;0.6675;0.7154;
820.2000;0.6659;0.7179;
820.5000;0.6667;0.7255;
820.8000;0.6675;0.7305;
821.1000;0.6659;0.7204;
821.4000;0.6667;0.7179;
821.7000;0.6667;0.7204;
822.0000;0.6667;0.7154;
822.3000;0.6675;0.7230;
822.6000;0.6650;0.7230;
822.9000;0.6650;0.7280;
823.2000;0.6675;0.7305;
823.5000;0.6675;0.7305;
823.8000;0.6659;0.7280;
824.1000;0.6642;0.7255;
824.4000;0.6716;0.7507;
824.7000;0.6642;0.7255;
825.0000;0.6659;0.7280;
825.3000;0.6667;0.7280;
825.6000;0.6642;0.7305;
825.9000;0.6650;0.7355;
826.2000;0.6650;0.7355;
826.5000;0.6642;0.7330;
826.8000;0.6650;0.7330;
827.1000;0.6642;0.7406;
827.4000;0.6667;0.7406;
827.7000;0.6577;0.7230;
828.0000;0.6626;0.7406;
828.3000;0.6683;0.7557;
828.6000;0.6675;0.7481;
828.9000;0.6650;0.7406;
829.2000;0.6683;0.7431;
829.5000;0.6650;0.7381;
829.8000;0.6707;0.7507;
830.1000;0.6650;0.7406;
830.4000;0.6675;0.7481;
830.7000;0.6650;0.7456;
831.0000;0.6659;0.7481;
831.3000;0.6659;0.7507;
831.6000;0.6667;0.7532;
831.9000;0.6618;0.7381;
832.2000;0.6650;0.7456;
832.5000;0.6642;0.7456;
832.8000;0.6642;0.7481;
833.1000;0.6634;0.7456;
833.4000;0.6691;0.7658;
833.7000;0.6650;0.7582;
834.0000;0.6675;0.7557;
834.3000;0.6626;0.7481;
834.6000;0.6716;0.7683;
834.9000;0.6618;0.7406;
835.2000;0.6642;0.7507;
835.5000;0.6585;0.7355;
835.8000;0.6610;0.7355;
836.1000;0.6642;0.7507;
836.4000;0.6634;0.7532;
836.7000;0.6626;0.7557;
837.0000;0.6626;0.7658;
837.3000;0.6634;0.7607;
837.6000;0.6650;0.7607;
837.9000;0.6618;0.7507;
838.2000;0.6634;0.7481;
838.5000;0.6634;0.7481;
838.8000;0.6634;0.7557;
839.1000;0.6626;0.7507;
839.4000;0.6626;0.7607;
839.7000;0.6634;0.7658;
840.0000;0.6634;0.7633;
840.3000;0.6650;0.7607;
840.6000;0.6634;0.7507;
840.9000;0.6642;0.7507;
841.2000;0.6650;0.7456;
841.5000;0.6667;0.7355;
841.8000;0.6626;0.7330;
842.1000;0.6634;0.7406;
842.4000;0.6626;0.7456;
842.7000;0.6642;0.7431;
843.0000;0.6642;0.7431;
843.3000;0.6626;0.7456;
843.6000;0.6650;0.7557;
843.9000;0.6650;0.7557;
844.2000;0.6724;0.7784;
844.5000;0.6569;0.7381;
844.8000;0.6634;0.7507;
845.1000;0.6650;0.7431;
845.4000;0.6634;0.7355;
845.7000;0.6610;0.7355;
846.0000;0.6610;0.7355;
846.3000;0.6626;0.7381;
846.6000;0.6634;0.7431;
846.9000;0.6634;0.7456;
847.2000;0.6618;0.7481;
847.5000;0.6642;0.7532;
847.8000;0.6634;0.7507;
848.1000;0.6626;0.7431;
848.4000;0.6626;0.7431;
848.7000;0.6626;0.7481;
849.0000;0.6626;0.7381;
849.3000;0.6667;0.7381;
849.6000;0.6634;0.7255;
849.9000;0.6618;0.7255;
850.2000;0.6650;0.7280;
850.5000;0.6626;0.7255;
850.8000;0.6634;0.7305;
851.1000;0.6610;0.7230;
851.4000;0.6650;0.7305;
851.7000;0.6593;0.7280;
852.0000;0.6634;0.7355;
852.3000;0.6634;0.7381;
852.6000;0.6626;0.7330;
852.9000;0.6683;0.7406;
853.2000;0.6618;0.7355;
853.5000;0.6634;0.7355;
853.8000;0.6626;0.7381;
854.1000;0.6626;0.7406;
854.4000;0.6610;0.7381;
854.7000;0.6618;0.7330;
855.0000;0.6610;0.7355;
855.3000;0.6618;0.7456;
855.6000;0.6626;0.7481;
855.9000;0.6626;0.7507;
856.2000;0.6626;0.7532;
856.5000;0.6634;0.7532;
856.8000;0.6593;0.7381;
857.1000;0.6610;0.7431;
857.4000;0.6618;0.7481;
857.7000;0.6626;0.7431;
858.0000;0.6610;0.7456;
858.3000;0.6626;0.7481;
858.6000;0.6528;0.7179;
858.9000;0.6610;0.7406;
859.2000;0.6618;0.7507;
859.5000;0.6610;0.7481;
859.8000;0.6593;0.7507;
860.1000;0.6602;0.7557;
860.4000;0.6618;0.7582;
860.7000;0.6610;0.7532;
861.0000;0.6618;0.7507;
861.3000;0.6610;0.7557;
861.6000;0.6618;0.7582;
861.9000;0.6610;0.7582;
862.2000;0.6610;0.7532;
862.5000;0.6602;0.7582;
862.8000;0.6602;0.7507;
863.1000;0.6610;0.7481;
863.4000;0.6610;0.7507;
863.7000;0.6602;0.7557;
864.0000;0.6602;0.7557;
864.3000;0.6602;0.7507;
864.6000;0.6610;0.7481;
864.9000;0.6593;0.7431;
865.2000;0.6593;0.7431;
865.5000;0.6602;0.7456;
865.8000;0.6561;0.7406;
866.1000;0.6602;0.7557;
866.4000;0.6618;0.7557;
866.7000;0.6593;0.7557;
867.0000;0.6553;0.7507;
867.3000;0.6602;0.7683;
867.6000;0.6593;0.7607;
867.9000;0.6610;0.7532;
868.2000;0.6618;0.7582;
868.5000;0.6593;0.7507;
868.8000;0.6585;0.7355;
869.1000;0.6642;0.7481;
869.4000;0.6602;0.7355;
869.7000;0.6569;0.7280;
870.0000;0.6528;0.7104;
870.3000;0.6585;0.7355;
870.6000;0.6593;0.7406;
870.9000;0.6626;0.7456;
871.2000;0.6585;0.7481;
871.5000;0.6602;0.7507;
871.8000;0.6593;0.7481;
872.1000;0.6585;0.7355;
872.4000;0.6593;0.7305;
872.7000;0.6585;0.7381;
873.0000;0.6593;0.7381;
873.3000;0.6593;0.7381;
873.6000;0.6585;0.7305;
873.9000;0.6585;0.7406;
874.2000;0.6577;0.7381;
874.5000;0.6602;0.7456;
874.8000;0.6593;0.7381;
875.1000;0.6602;0.7355;
875.4000;0.6585;0.7330;
875.7000;0.6602;0.7355;
876.0000;0.6593;0.7280;
876.3000;0.6602;0.7381;
876.6000;0.6577;0.7330;
876.9000;0.6593;0.7381;
877.2000;0.6585;0.7330;
877.5000;0.6593;0.7305;
877.8000;0.6585;0.7305;
878.1000;0.6593;0.7330;
878.4000;0.6593;0.7355;
878.7000;0.6585;0.7330;
879.0000;0.6577;0.7255;
879.3000;0.6585;0.7280;
879.6000;0.6602;0.7355;
879.9000;0.6593;0.7305;
880.2000;0.6585;0.7280;
880.5000;0.6602;0.7431;
880.8000;0.6602;0.7431;
881.1000;0.6602;0.7532;
881.4000;0.6577;0.7607;
881.7000;0.6585;0.7557;
882.0000;0.6602;0.7658;
882.3000;0.6577;0.7633;
882.6000;0.6593;0.7658;
882.9000;0.6593;0.7633;
883.2000;0.6593;0.7532;
883.5000;0.6585;0.7456;
883.8000;0.6593;0.7406;
884.1000;0.6577;0.7330;
884.4000;0.6602;0.7381;
884.7000;0.6585;0.7280;
885.0000;0.6577;0.7280;
885.3000;0.6569;0.7255;
885.6000;0.6577;0.7381;
885.9000;0.6585;0.7381;
886.2000;0.6569;0.7381;
886.5000;0.6577;0.7355;
886.8000;0.6577;0.7330;
887.1000;0.6593;0.7406;
887.4000;0.6577;0.7406;
887.7000;0.6585;0.7431;
888.0000;0.6577;0.7456;
888.3000;0.6569;0.7456;
888.6000;0.6569;0.7355;
888.9000;0.6577;0.7355;
889.2000;0.6569;0.7330;
889.5000;0.6593;0.7381;
889.8000;0.6577;0.7280;
890.1000;0.6577;0.7305;
890.4000;0.6585;0.7230;
890.7000;0.6577;0.7230;
891.0000;0.6561;0.7305;
891.3000;0.6561;0.7255;
891.6000;0.6577;0.7280;
891.9000;0.6577;0.7381;
892.2000;0.6569;0.7330;
892.5000;0.6577;0.7381;
892.8000;0.6569;0.7406;
893.1000;0.6585;0.7431;
893.4000;0.6553;0.7431;
893.7000;0.6577;0.7355;
894.0000;0.6577;0.7456;
894.3000;0.6569;0.7381;
894.6000;0.6569;0.7481;
894.9000;0.6577;0.7381;
895.2000;0.6610;0.7456;
895.5000;0.6569;0.7355;
895.8000;0.6545;0.7280;
896.1000;0.6553;0.7255;
896.4000;0.6585;0.7255;
896.7000;0.6561;0.7230;
897.0000;0.6561;0.7330;
897.3000;0.6577;0.7280;
897.6000;0.6577;0.7204;
897.9000;0.6553;0.7154;
898.2000;0.6569;0.7230;
898.5000;0.6561;0.7305;
898.8000;0.6569;0.7330;
899.1000;0.6561;0.7305;
899.4000;0.6569;0.7280;
899.7000;0.6561;0.7330;
900.0000;0.6553;0.7255;
900.3000;0.6553;0.7330;
900.6000;0.6545;0.7305;
900.9000;0.6553;0.7280;
901.2000;0.6536;0.7179;
901.5000;0.6545;0.7179;
901.8000;0.6545;0.7129;
902.1000;0.6561;0.7179;
902.4000;0.6569;0.7230;
902.7000;0.6561;0.7230;
903.0000;0.6569;0.7255;
903.3000;0.6585;0.7255;
903.6000;0.6561;0.7179;
903.9000;0.6577;0.7230;
904.2000;0.6569;0.7230;
904.5000;0.6585;0.7330;
904.8000;0.6577;0.7330;
905.1000;0.6561;0.7330;
905.4000;0.6561;0.7431;
905.7000;0.6569;0.7381;
906.0000;0.6553;0.7280;
906.3000;0.6561;0.7305;
906.6000;0.6561;0.7280;
906.9000;0.6545;0.7305;
907.2000;0.6545;0.7255;
907.5000;0.6561;0.7179;
907.8000;0.6553;0.7129;
908.1000;0.6561;0.7129;
908.4000;0.6553;0.7179;
908.7000;0.6561;0.7204;
909.0000;0.6561;0.7280;
909.3000;0.6561;0.7381;
909.6000;0.6561;0.7481;
909.9000;0.6569;0.7456;
910.2000;0.6569;0.7431;
910.5000;0.6545;0.7381;
910.8000;0.6545;0.7355;
911.1000;0.6553;0.7355;
911.4000;0.6561;0.7305;
911.7000;0.6577;0.7330;
912.0000;0.6536;0.7204;
912.3000;0.6561;0.7204;
912.6000;0.6545;0.7204;
912.9000;0.6569;0.7406;
913.2000;0.6545;0.7406;
913.5000;0.6561;0.7406;
913.8000;0.6536;0.7204;
914.1000;0.6561;0.7280;
914.4000;0.6553;0.7305;
914.7000;0.6536;0.7280;
915.0000;0.6561;0.7355;
915.3000;0.6528;0.7280;
915.6000;0.6545;0.7305;
915.9000;0.6553;0.7305;
916.2000;0.6545;0.7230;
916.5000;0.6561;0.7255;
916.8000;0.6553;0.7305;
917.1000;0.6545;0.7280;
917.4000;0.6545;0.7406;
917.7000;0.6553;0.7507;
918.0000;0.6545;0.7406;
918.3000;0.6553;0.7406;
918.6000;0.6545;0.7330;
918.9000;0.6536;0.7330;
919.2000;0.6593;0.7355;
919.5000;0.6553;0.7230;
919.8000;0.6553;0.7255;
920.1000;0.6561;0.7355;
920.4000;0.6569;0.7456;
920.7000;0.6553;0.7431;
921.0000;0.6561;0.7456;
921.3000;0.6536;0.7456;
921.6000;0.6545;0.7481;
921.9000;0.6553;0.7431;
922.2000;0.6545;0.7406;
922.5000;0.6528;0.7431;
922.8000;0.6545;0.7532;
923.1000;0.6528;0.7507;
923.4000;0.6512;0.7532;
923.7000;0.6496;0.7607;
924.0000;0.6545;0.7633;
924.3000;0.6463;0.7456;
924.6000;0.6545;0.7733;
924.9000;0.6504;0.7633;
925.2000;0.6520;0.7708;
925.5000;0.6545;0.7683;
925.8000;0.6528;0.7658;
926.1000;0.6536;0.7683;
926.4000;0.6553;0.7708;
926.7000;0.6545;0.7708;
927.0000;0.6528;0.7633;
927.3000;0.6528;0.7633;
927.6000;0.6528;0.7557;
927.9000;0.6536;0.7557;
928.2000;0.6512;0.7481;
928.5000;0.6536;0.7431;
928.8000;0.6536;0.7456;
929.1000;0.6545;0.7481;
929.4000;0.6496;0.7330;
929.7000;0.6536;0.7406;
930.0000;0.6553;0.7456;
930.3000;0.6553;0.7456;
930.6000;0.6561;0.7456;
930.9000;0.6545;0.7305;
931.2000;0.6536;0.7355;
931.5000;0.6553;0.7355;
931.8000;0.6553;0.7305;
932.1000;0.6528;0.7280;
932.4000;0.6545;0.7381;
932.7000;0.6536;0.7381;
933.0000;0.6545;0.7532;
933.3000;0.6528;0.7507;
933.6000;0.6536;0.7481;
933.9000;0.6520;0.7431;
934.2000;0.6536;0.7481;
934.5000;0.6553;0.7481;
934.8000;0.6553;0.7481;
935.1000;0.6528;0.7532;
935.4000;0.6536;0.7532;
935.7000;0.6528;0.7481;
936.0000;0.6545;0.7507;
936.3000;0.6536;0.7456;
936.6000;0.6536;0.7481;
936.9000;0.6561;0.7507;
937.2000;0.6520;0.7355;
937.5000;0.6569;0.7381;
937.8000;0.6553;0.7330;
938.1000;0.6528;0.7381;
938.4000;0.6528;0.7330;
938.7000;0.6536;0.7406;
939.0000;0.6512;0.7406;
939.3000;0.6528;0.7406;
939.6000;0.6553;0.7406;
939.9000;0.6536;0.7330;
940.2000;0.6553;0.7305;
940.5000;0.6520;0.7305;
940.8000;0.6553;0.7456;
941.1000;0.6512;0.7381;
941.4000;0.6512;0.7330;
941.7000;0.6520;0.7230;
942.0000;0.6479;0.7129;
942.3000;0.6585;0.7381;
942.6000;0.6520;0.7230;
942.9000;0.6528;0.7305;
943.2000;0.6528;0.7280;
943.5000;0.6528;0.7204;
943.8000;0.6528;0.7204;
944.1000;0.6488;0.7179;
944.4000;0.6528;0.7305;
944.7000;0.6536;0.7355;
945.0000;0.6528;0.7280;
945.3000;0.6455;0.7129;
945.6000;0.6512;0.7280;
945.9000;0.6545;0.7305;
946.2000;0.6536;0.7305;
946.5000;0.6528;0.7255;
946.8000;0.6528;0.7330;
947.1000;0.6528;0.7406;
947.4000;0.6545;0.7481;
947.7000;0.6536;0.7456;
948.0000;0.6536;0.7532;
948.3000;0.6504;0.7330;
948.6000;0.6528;0.7406;
948.9000;0.6528;0.7355;
949.2000;0.6528;0.7280;
949.5000;0.6545;0.7280;
949.8000;0.6528;0.7255;
950.1000;0.6536;0.7305;
950.4000;0.6536;0.7280;
950.7000;0.6528;0.7255;
951.0000;0.6528;0.7280;
951.3000;0.6528;0.7305;
951.6000;0.6488;0.7230;
951.9000;0.6520;0.7330;
952.2000;0.6520;0.7355;
952.5000;0.6528;0.7330;
952.8000;0.6528;0.7255;
953.1000;0.6536;0.7355;
953.4000;0.6520;0.7431;
953.7000;0.6488;0.7431;
954.0000;0.6512;0.7431;
954.3000;0.6496;0.7305;
954.6000;0.6528;0.7305;
954.9000;0.6528;0.7280;
955.2000;0.6496;0.7154;
955.5000;0.6520;0.7255;
955.8000;0.6528;0.7204;
956.1000;0.6512;0.7179;
956.4000;0.6569;0.7330;
956.7000;0.6512;0.7280;
957.0000;0.6504;0.7204;
957.3000;0.6512;0.7230;
957.6000;0.6512;0.7280;
957.9000;0.6512;0.7330;
958.2000;0.6520;0.7507;
958.5000;0.6512;0.7456;
958.8000;0.6520;0.7456;
959.1000;0.6496;0.7330;
959.4000;0.6528;0.7330;
959.7000;0.6561;0.7507;
960.0000;0.6553;0.7481;
960.3000;0.6520;0.7355;
960.6000;0.6504;0.7355;
960.9000;0.6512;0.7255;
961.2000;0.6520;0.7330;
961.5000;0.6504;0.7330;
961.8000;0.6520;0.7381;
962.1000;0.6504;0.7330;
962.4000;0.6520;0.7381;
962.7000;0.6520;0.7355;
963.0000;0.6520;0.7330;
963.3000;0.6504;0.7330;
963.6000;0.6512;0.7381;
963.9000;0.6504;0.7406;
964.2000;0.6504;0.7481;
964.5000;0.6536;0.7431;
964.8000;0.6479;0.7280;
965.1000;0.6536;0.7532;
965.4000;0.6512;0.7507;
965.7000;0.6512;0.7406;
966.0000;0.6479;0.7355;
966.3000;0.6471;0.7255;
966.6000;0.6553;0.7456;
966.9000;0.6471;0.7381;
967.2000;0.6504;0.7633;
967.5000;0.6512;0.7759;
967.8000;0.6471;0.7708;
968.1000;0.6504;0.7708;
968.4000;0.6504;0.7708;
968.7000;0.6520;0.7683;
969.0000;0.6512;0.7683;
969.3000;0.6504;0.7658;
969.6000;0.6512;0.7507;
969.9000;0.6520;0.7507;
970.2000;0.6528;0.7481;
970.5000;0.6520;0.7406;
970.8000;0.6504;0.7381;
971.1000;0.6504;0.7431;
971.4000;0.6520;0.7507;
971.7000;0.6520;0.7582;
972.0000;0.6504;0.7557;
972.3000;0.6496;0.7582;
972.6000;0.6504;0.7507;
972.9000;0.6504;0.7456;
973.2000;0.6504;0.7456;
973.5000;0.6488;0.7406;
973.8000;0.6496;0.7381;
974.1000;0.6512;0.7481;
974.4000;0.6504;0.7532;
974.7000;0.6504;0.7582;
975.0000;0.6520;0.7557;
975.3000;0.6512;0.7481;
975.6000;0.6471;0.7381;
975.9000;0.6512;0.7456;
976.2000;0.6512;0.7507;
976.5000;0.6471;0.7532;
976.8000;0.6512;0.7683;
977.1000;0.6528;0.7633;
977.4000;0.6496;0.7507;
977.7000;0.6504;0.7532;
978.0000;0.6504;0.7481;
978.3000;0.6479;0.7456;
978.6000;0.6504;0.7431;
978.9000;0.6512;0.7456;
979.2000;0.6520;0.7456;
979.5000;0.6504;0.7507;
979.8000;0.6512;0.7507;
980.1000;0.6504;0.7406;
980.4000;0.6520;0.7431;
980.7000;0.6512;0.7381;
981.0000;0.6512;0.7355;
981.3000;0.6496;0.7355;
981.6000;0.6553;0.7507;
981.9000;0.6512;0.7456;
982.2000;0.6520;0.7456;
982.5000;0.6512;0.7381;
982.8000;0.6512;0.7355;
983.1000;0.6520;0.7431;
983.4000;0.6504;0.7431;
983.7000;0.6479;0.7431;
984.0000;0.6463;0.7355;
984.3000;0.6496;0.7431;
984.6000;0.6496;0.7456;
984.9000;0.6520;0.7532;
985.2000;0.6512;0.7607;
985.5000;0.6504;0.7507;
985.8000;0.6520;0.7481;
986.1000;0.6504;0.7481;
986.4000;0.6520;0.7557;
986.7000;0.6512;0.7582;
987.0000;0.6488;0.7456;
987.3000;0.6496;0.7406;
987.6000;0.6496;0.7406;
987.9000;0.6504;0.7456;
988.2000;0.6512;0.7532;
988.5000;0.6479;0.7481;
988.8000;0.6496;0.7481;
989.1000;0.6520;0.7633;
989.4000;0.6496;0.7557;
989.7000;0.6496;0.7607;
990.0000;0.6496;0.7557;
990.3000;0.6496;0.7532;
990.6000;0.6488;0.7557;
990.9000;0.6512;0.7557;
991.2000;0.6496;0.7481;
991.5000;0.6479;0.7507;
991.8000;0.6447;0.7507;
992.1000;0.6496;0.7708;
992.4000;0.6496;0.7708;
992.7000;0.6512;0.7759;
993.0000;0.6512;0.7733;
993.3000;0.6536;0.7733;
993.6000;0.6496;0.7557;
993.9000;0.6496;0.7633;
994.2000;0.6496;0.7633;
994.5000;0.6512;0.7633;
994.8000;0.6496;0.7633;
995.1000;0.6504;0.7658;
995.4000;0.6496;0.7633;
995.7000;0.6496;0.7658;
996.0000;0.6488;0.7683;
996.3000;0.6496;0.7633;
996.6000;0.6504;0.7582;
996.9000;0.6496;0.7532;
997.2000;0.6504;0.7507;
997.5000;0.6577;0.7834;
997.8000;0.6479;0.7532;
998.1000;0.6504;0.7557;
998.4000;0.6496;0.7532;
998.7000;0.6471;0.7456;
999.0000;0.6488;0.7456;
999.3000;0.6553;0.7582;
999.6000;0.6463;0.7355;
999.9000;0.6479;0.7305;
1000.2000;0.6520;0.7330;
1000.5000;0.6496;0.7381;
1000.8000;0.6504;0.7406;
1001.1000;0.6496;0.7406;
1001.4000;0.6520;0.7431;
1001.7000;0.6520;0.7381;
1002.0000;0.6488;0.7305;
1002.3000;0.6496;0.7406;
1002.6000;0.6512;0.7431;
1002.9000;0.6447;0.7255;
1003.2000;0.6479;0.7305;
1003.5000;0.6496;0.7255;
1003.8000;0.6496;0.7255;
1004.1000;0.6488;0.7204;
1004.4000;0.6504;0.7280;
1004.7000;0.6520;0.7330;
1005.0000;0.6512;0.7330;
1005.3000;0.6496;0.7230;
1005.6000;0.6520;0.7204;
1005.9000;0.6520;0.7154;
1006.2000;0.6496;0.7078;
1006.5000;0.6545;0.7355;
1006.8000;0.6504;0.7330;
1007.1000;0.6512;0.7381;
1007.4000;0.6512;0.7280;
1007.7000;0.6496;0.7330;
1008.0000;0.6488;0.7355;
1008.3000;0.6488;0.7305;
1008.6000;0.6520;0.7330;
1008.9000;0.6479;0.7280;
1009.2000;0.6488;0.7305;
1009.5000;0.6496;0.7305;
1009.8000;0.6504;0.7431;
1010.1000;0.6488;0.7280;
1010.4000;0.6504;0.7330;
1010.7000;0.6496;0.7431;
1011.0000;0.6479;0.7507;
1011.3000;0.6536;0.7658;
1011.6000;0.6479;0.7507;
1011.9000;0.6488;0.7456;
1012.2000;0.6488;0.7456;
1012.5000;0.6496;0.7406;
1012.8000;0.6488;0.7406;
1013.1000;0.6406;0.7255;
1013.4000;0.6479;0.7431;
1013.7000;0.6553;0.7582;
1014.0000;0.6471;0.7431;
1014.3000;0.6488;0.7456;
1014.6000;0.6479;0.7406;
1014.9000;0.6496;0.7431;
1015.2000;0.6488;0.7456;
1015.5000;0.6479;0.7481;
1015.8000;0.6488;0.7406;
1016.1000;0.6439;0.7330;
1016.4000;0.6463;0.7381;
1016.7000;0.6471;0.7355;
1017.0000;0.6496;0.7305;
1017.3000;0.6488;0.7355;
1017.6000;0.6504;0.7330;
1017.9000;0.6496;0.7355;
1018.2000;0.6496;0.7255;
1018.5000;0.6496;0.7305;
1018.8000;0.6471;0.7381;
1019.1000;0.6479;0.7330;
1019.4000;0.6479;0.7330;
1019.7000;0.6488;0.7355;
1020.0000;0.6496;0.7355;
1020.3000;0.6479;0.7305;
1020.6000;0.6479;0.7204;
1020.9000;0.6488;0.7204;
1021.2000;0.6512;0.7330;
1021.5000;0.6471;0.7255;
1021.8000;0.6471;0.7305;
1022.1000;0.6512;0.7431;
1022.4000;0.6479;0.7355;
1022.7000;0.6479;0.7406;
1023.0000;0.6504;0.7456;
1023.3000;0.6479;0.7406;
1023.6000;0.6471;0.7355;
1023.9000;0.6479;0.7507;
1024.2000;0.6488;0.7532;
1024.5000;0.6471;0.7406;
1024.8000;0.6479;0.7355;
1025.1000;0.6463;0.7330;
1025.4000;0.6455;0.7230;
1025.7000;0.6479;0.7255;
1026.0000;0.6455;0.7305;
1026.3000;0.6471;0.7481;
1026.6000;0.6471;0.7507;
1026.9000;0.6463;0.7481;
1027.2000;0.6479;0.7507;
1027.5000;0.6488;0.7532;
1027.8000;0.6479;0.7532;
1028.1000;0.6471;0.7481;
1028.4000;0.6471;0.7481;
1028.7000;0.6455;0.7355;
1029.0000;0.6471;0.7305;
1029.3000;0.6479;0.7330;
1029.6000;0.6455;0.7330;
1029.9000;0.6488;0.7406;
1030.2000;0.6479;0.7431;
1030.5000;0.6471;0.7532;
1030.8000;0.6471;0.7532;
1031.1000;0.6463;0.7557;
1031.4000;0.6479;0.7582;
1031.7000;0.6479;0.7607;
1032.0000;0.6463;0.7532;
1032.3000;0.6471;0.7532;
1032.6000;0.6447;0.7431;
1032.9000;0.6488;0.7481;
1033.2000;0.6471;0.7456;
1033.5000;0.6479;0.7355;
1033.8000;0.6463;0.7330;
1034.1000;0.6463;0.7431;
1034.4000;0.6479;0.7481;
1034.7000;0.6463;0.7305;
1035.0000;0.6479;0.7255;
1035.3000;0.6439;0.7104;
1035.6000;0.6471;0.7204;
1035.9000;0.6439;0.7154;
1036.2000;0.6471;0.7381;
1036.5000;0.6496;0.7456;
1036.8000;0.6455;0.7406;
1037.1000;0.6488;0.7456;
1037.4000;0.6471;0.7406;
1037.7000;0.6512;0.7456;
1038.0000;0.6488;0.7456;
1038.3000;0.6439;0.7255;
1038.6000;0.6512;0.7481;
1038.9000;0.6496;0.7381;
1039.2000;0.6479;0.7305;
1039.5000;0.6471;0.7381;
1039.8000;0.6479;0.7381;
1040.1000;0.6471;0.7381;
1040.4000;0.6479;0.7330;
1040.7000;0.6471;0.7330;
1041.0000;0.6463;0.7280;
1041.3000;0.6496;0.7456;
1041.6000;0.6488;0.7406;
1041.9000;0.6463;0.7355;
1042.2000;0.6463;0.7381;
1042.5000;0.6471;0.7431;
1042.8000;0.6471;0.7481;
1043.1000;0.6463;0.7406;
1043.4000;0.6496;0.7355;
1043.7000;0.6455;0.7204;
1044.0000;0.6463;0.7280;
1044.3000;0.6463;0.7330;
1044.6000;0.6479;0.7456;
1044.9000;0.6455;0.7406;
1045.2000;0.6471;0.7582;
1045.5000;0.6455;0.7481;
1045.8000;0.6455;0.7481;
1046.1000;0.6471;0.7532;
1046.4000;0.6471;0.7481;
1046.7000;0.6488;0.7507;
1047.0000;0.6488;0.7406;
1047.3000;0.6463;0.7305;
1047.6000;0.6455;0.7280;
1047.9000;0.6488;0.7305;
1048.2000;0.6488;0.7280;
1048.5000;0.6422;0.7078;
1048.8000;0.6488;0.7280;
1049.1000;0.6455;0.7255;
1049.4000;0.6488;0.7255;
1049.7000;0.6447;0.7179;
1050.0000;0.6479;0.7129;
1050.3000;0.6471;0.7104;
1050.6000;0.6471;0.7204;
1050.9000;0.6447;0.7204;
1051.2000;0.6471;0.7255;
1051.5000;0.6471;0.7280;
1051.8000;0.6479;0.7305;
1052.1000;0.6488;0.7280;
1052.4000;0.6479;0.7330;
1052.7000;0.6512;0.7481;
1053.0000;0.6479;0.7330;
1053.3000;0.6471;0.7355;
1053.6000;0.6471;0.7456;
1053.9000;0.6447;0.7456;
1054.2000;0.6463;0.7481;
1054.5000;0.6471;0.7532;
1054.8000;0.6471;0.7507;
1055.1000;0.6455;0.7456;
1055.4000;0.6471;0.7381;
1055.7000;0.6463;0.7381;
1056.0000;0.6463;0.7305;
1056.3000;0.6479;0.7230;
1056.6000;0.6447;0.7078;
1056.9000;0.6471;0.7104;
1057.2000;0.6463;0.7028;
1057.5000;0.6471;0.7154;
1057.8000;0.6455;0.7154;
1058.1000;0.6414;0.7078;
1058.4000;0.6488;0.7305;
1058.7000;0.6471;0.7305;
1059.0000;0.6496;0.7355;
1059.3000;0.6455;0.7355;
1059.6000;0.6447;0.7381;
1059.9000;0.6447;0.7280;
1060.2000;0.6431;0.7255;
1060.5000;0.6455;0.7280;
1060.8000;0.6463;0.7305;
1061.1000;0.6398;0.7154;
1061.4000;0.6422;0.7280;
1061.7000;0.6471;0.7355;
1062.0000;0.6455;0.7230;
1062.3000;0.6447;0.7330;
1062.6000;0.6455;0.7355;
1062.9000;0.6471;0.7406;
1063.2000;0.6479;0.7355;
1063.5000;0.6488;0.7355;
1063.8000;0.6471;0.7280;
1064.1000;0.6422;0.7179;
1064.4000;0.6463;0.7330;
1064.7000;0.6455;0.7355;
1065.0000;0.6455;0.7381;
1065.3000;0.6447;0.7355;
1065.6000;0.6447;0.7355;
1065.9000;0.6471;0.7330;
1066.2000;0.6463;0.7305;
1066.5000;0.6447;0.7255;
1066.8000;0.6447;0.7230;
1067.1000;0.6455;0.7255;
1067.4000;0.6463;0.7255;
1067.7000;0.6447;0.7230;
1068.0000;0.6471;0.7179;
1068.3000;0.6471;0.7230;
1068.6000;0.6471;0.7204;
1068.9000;0.6463;0.7230;
1069.2000;0.6439;0.7179;
1069.5000;0.6463;0.7255;
1069.8000;0.6463;0.7330;
1070.1000;0.6479;0.7381;
1070.4000;0.6463;0.7355;
1070.7000;0.6471;0.7381;
1071.0000;0.6439;0.7431;
1071.3000;0.6455;0.7481;
1071.6000;0.6455;0.7481;
1071.9000;0.6455;0.7305;
1072.2000;0.6479;0.7305;
1072.5000;0.6463;0.7280;
1072.8000;0.6455;0.7230;
1073.1000;0.6520;0.7532;
1073.4000;0.6471;0.7381;
1073.7000;0.6455;0.7456;
1074.0000;0.6447;0.7481;
1074.3000;0.6455;0.7507;
1074.6000;0.6447;0.7532;
1074.9000;0.6455;0.7532;
1075.2000;0.6447;0.7481;
1075.5000;0.6471;0.7507;
1075.8000;0.6447;0.7456;
1076.1000;0.6455;0.7507;
1076.4000;0.6455;0.7507;
1076.7000;0.6455;0.7406;
1077.0000;0.6455;0.7406;
1077.3000;0.6455;0.7507;
1077.6000;0.6431;0.7431;
1077.9000;0.6447;0.7381;
1078.2000;0.6455;0.7456;
1078.5000;0.6455;0.7481;
1078.8000;0.6439;0.7557;
1079.1000;0.6463;0.7557;
1079.4000;0.6431;0.7507;
1079.7000;0.6455;0.7507;
1080.0000;0.6488;0.7633;
1080.3000;0.6447;0.7557;
1080.6000;0.6431;0.7456;
1080.9000;0.6455;0.7607;
1081.2000;0.6455;0.7607;
1081.5000;0.6447;0.7507;
1081.8000;0.6455;0.7532;
1082.1000;0.6471;0.7507;
1082.4000;0.6463;0.7532;
1082.7000;0.6455;0.7481;
1083.0000;0.6479;0.7507;
1083.3000;0.6479;0.7481;
1083.6000;0.6455;0.7481;
1083.9000;0.6447;0.7481;
1084.2000;0.6406;0.7305;
1084.5000;0.6463;0.7507;
1084.8000;0.6447;0.7582;
1085.1000;0.6479;0.7683;
1085.4000;0.6447;0.7557;
1085.7000;0.6447;0.7431;
1086.0000;0.6447;0.7406;
1086.3000;0.6471;0.7381;
1086.6000;0.6463;0.7305;
1086.9000;0.6455;0.7431;
1087.2000;0.6504;0.7507;
1087.5000;0.6455;0.7381;
1087.8000;0.6471;0.7431;
1088.1000;0.6439;0.7431;
1088.4000;0.6471;0.7431;
1088.7000;0.6463;0.7381;
1089.0000;0.6455;0.7330;
1089.3000;0.6463;0.7381;
1089.6000;0.6447;0.7381;
1089.9000;0.6431;0.7330;
1090.2000;0.6463;0.7381;
1090.5000;0.6439;0.7305;
1090.8000;0.6439;0.7330;
1091.1000;0.6431;0.7330;
1091.4000;0.6382;0.7154;
1091.7000;0.6447;0.7305;
1092.0000;0.6447;0.7330;
1092.3000;0.6447;0.7355;
1092.6000;0.6455;0.7507;
1092.9000;0.6463;0.7507;
1093.2000;0.6463;0.7582;
1093.5000;0.6406;0.7532;
1093.8000;0.6455;0.7683;
1094.1000;0.6439;0.7658;
1094.4000;0.6447;0.7633;
1094.7000;0.6455;0.7708;
1095.0000;0.6447;0.7607;
1095.3000;0.6447;0.7532;
1095.6000;0.6439;0.7532;
1095.9000;0.6463;0.7582;
1096.2000;0.6447;0.7557;
1096.5000;0.6463;0.7607;
1096.8000;0.6447;0.7607;
1097.1000;0.6431;0.7633;
1097.4000;0.6455;0.7708;
1097.7000;0.6447;0.7658;
1098.0000;0.6455;0.7708;
1098.3000;0.6447;0.7582;
1098.6000;0.6479;0.7683;
1098.9000;0.6463;0.7683;
1099.2000;0.6463;0.7633;
1099.5000;0.6479;0.7607;
1099.8000;0.6439;0.7507;
1100.1000;0.6463;0.7481;
1100.4000;0.6455;0.7431;
1100.7000;0.6463;0.7456;
1101.0000;0.6455;0.7431;
1101.3000;0.6447;0.7456;
1101.6000;0.6455;0.7532;
1101.9000;0.6439;0.7582;
1102.2000;0.6447;0.7633;
1102.5000;0.6439;0.7557;
1102.8000;0.6447;0.7557;
1103.1000;0.6455;0.7557;
1103.4000;0.6447;0.7557;
1103.7000;0.6431;0.7507;
1104.0000;0.6447;0.7507;
1104.3000;0.6447;0.7481;
1104.6000;0.6439;0.7431;
1104.9000;0.6439;0.7431;
1105.2000;0.6455;0.7456;
1105.5000;0.6479;0.7481;
1105.8000;0.6439;0.7355;
1106.1000;0.6431;0.7330;
1106.4000;0.6414;0.7280;
1106.7000;0.6455;0.7381;
1107.0000;0.6439;0.7456;
1107.3000;0.6422;0.7355;
1107.6000;0.6447;0.7330;
1107.9000;0.6455;0.7330;
1108.2000;0.6471;0.7280;
1108.5000;0.6447;0.7280;
1108.8000;0.6447;0.7381;
1109.1000;0.6455;0.7330;
1109.4000;0.6447;0.7280;
1109.7000;0.6455;0.7255;
1110.0000;0.6455;0.7230;
1110.3000;0.6447;0.7204;
1110.6000;0.6463;0.7255;
1110.9000;0.6455;0.7330;
1111.2000;0.6439;0.7305;
1111.5000;0.6463;0.7330;
1111.8000;0.6447;0.7355;
1112.1000;0.6455;0.7381;
1112.4000;0.6463;0.7406;
1112.7000;0.6455;0.7381;
1113.0000;0.6463;0.7355;
1113.3000;0.6455;0.7305;
1113.6000;0.6447;0.7255;
1113.9000;0.6439;0.7255;
1114.2000;0.6512;0.7406;
1114.5000;0.6463;0.7305;
1114.8000;0.6414;0.7204;
1115.1000;0.6422;0.7154;
1115.4000;0.6463;0.7230;
1115.7000;0.6431;0.7204;
1116.0000;0.6439;0.7230;
1116.3000;0.6463;0.7381;
1116.6000;0.6414;0.7305;
1116.9000;0.6439;0.7330;
1117.2000;0.6520;0.7557;
1117.5000;0.6439;0.7305;
1117.8000;0.6439;0.7280;
1118.1000;0.6447;0.7330;
1118.4000;0.6463;0.7305;
1118.7000;0.6471;0.7355;
1119.0000;0.6439;0.7305;
1119.3000;0.6447;0.7255;
1119.6000;0.6447;0.7255;
1119.9000;0.6447;0.7330;
1120.2000;0.6488;0.7532;
1120.5000;0.6431;0.7406;
1120.8000;0.6447;0.7381;
1121.1000;0.6447;0.7355;
1121.4000;0.6422;0.7305;
1121.7000;0.6447;0.7330;
1122.0000;0.6439;0.7204;
1122.3000;0.6422;0.7154;
1122.6000;0.6447;0.7154;
1122.9000;0.6439;0.7179;
1123.2000;0.6463;0.7204;
1123.5000;0.6422;0.7078;
1123.8000;0.6439;0.7179;
1124.1000;0.6422;0.7129;
1124.4000;0.6439;0.7230;
1124.7000;0.6447;0.7255;
1125.0000;0.6414;0.7154;
1125.3000;0.6455;0.7204;
1125.6000;0.6422;0.7204;
1125.9000;0.6431;0.7280;
1126.2000;0.6422;0.7255;
1126.5000;0.6414;0.7204;
1126.8000;0.6422;0.7179;
1127.1000;0.6422;0.7154;
1127.4000;0.6455;0.7179;
1127.7000;0.6439;0.7204;
1128.0000;0.6422;0.7230;
1128.3000;0.6439;0.7230;
1128.6000;0.6439;0.7280;
1128.9000;0.6447;0.7280;
1129.2000;0.6414;0.7204;
1129.5000;0.6447;0.7280;
1129.8000;0.6431;0.7305;
1130.1000;0.6439;0.7330;
1130.4000;0.6431;0.7305;
1130.7000;0.6439;0.7305;
1131.0000;0.6439;0.7330;
1131.3000;0.6414;0.7204;
1131.6000;0.6422;0.7280;
1131.9000;0.6439;0.7381;
1132.2000;0.6382;0.7255;
1132.5000;0.6447;0.7507;
1132.8000;0.6374;0.7255;
1133.1000;0.6463;0.7406;
1133.4000;0.6455;0.7406;
1133.7000;0.6439;0.7355;
1134.0000;0.6447;0.7355;
1134.3000;0.6414;0.7355;
1134.6000;0.6439;0.7406;
1134.9000;0.6439;0.7355;
1135.2000;0.6463;0.7355;
1135.5000;0.6431;0.7204;
1135.8000;0.6439;0.7280;
1136.1000;0.6455;0.7355;
1136.4000;0.6431;0.7330;
1136.7000;0.6431;0.7280;
1137.0000;0.6414;0.7230;
1137.3000;0.6431;0.7280;
1137.6000;0.6455;0.7355;
1137.9000;0.6431;0.7280;
1138.2000;0.6463;0.7330;
1138.5000;0.6439;0.7255;
1138.8000;0.6455;0.7179;
1139.1000;0.6382;0.7053;
1139.4000;0.6447;0.7280;
1139.7000;0.6447;0.7230;
1140.0000;0.6431;0.7204;
1140.3000;0.6439;0.7204;
1140.6000;0.6447;0.7280;
1140.9000;0.6422;0.7330;
1141.2000;0.6447;0.7381;
1141.5000;0.6422;0.7406;
1141.8000;0.6431;0.7406;
1142.1000;0.6439;0.7431;
1142.4000;0.6431;0.7481;
1142.7000;0.6431;0.7431;
1143.0000;0.6431;0.7406;
1143.3000;0.6447;0.7456;
1143.6000;0.6447;0.7456;
1143.9000;0.6447;0.7431;
1144.2000;0.6422;0.7330;
1144.5000;0.6439;0.7305;
1144.8000;0.6447;0.7431;
1145.1000;0.6455;0.7481;
1145.4000;0.6431;0.7381;
1145.7000;0.6431;0.7255;
1146.0000;0.6439;0.7255;
1146.3000;0.6439;0.7280;
1146.6000;0.6431;0.7305;
1146.9000;0.6431;0.7305;
1147.2000;0.6414;0.7255;
1147.5000;0.6431;0.7330;
1147.8000;0.6422;0.7381;
1148.1000;0.6439;0.7481;
1148.4000;0.6439;0.7532;
1148.7000;0.6463;0.7582;
1149.0000;0.6422;0.7582;
1149.3000;0.6431;0.7607;
1149.6000;0.6422;0.7507;
1149.9000;0.6439;0.7481;
1150.2000;0.6431;0.7406;
1150.5000;0.6414;0.7431;
1150.8000;0.6414;0.7582;
1151.1000;0.6414;0.7557;
1151.4000;0.6431;0.7557;
1151.7000;0.6431;0.7557;
1152.0000;0.6422;0.7507;
1152.3000;0.6422;0.7481;
1152.6000;0.6439;0.7431;
1152.9000;0.6439;0.7355;
1153.2000;0.6349;0.7078;
1153.5000;0.6455;0.7406;
1153.8000;0.6439;0.7330;
1154.1000;0.6414;0.7204;
1154.4000;0.6390;0.7129;
1154.7000;0.6447;0.7230;
1155.0000;0.6406;0.7230;
1155.3000;0.6398;0.7230;
1155.6000;0.6496;0.7557;
1155.9000;0.6431;0.7355;
1156.2000;0.6447;0.7481;
1156.5000;0.6439;0.7456;
1156.8000;0.6455;0.7456;
1157.1000;0.6414;0.7330;
1157.4000;0.6439;0.7431;
1157.7000;0.6422;0.7431;
1158.0000;0.6431;0.7532;
1158.3000;0.6422;0.7481;
1158.6000;0.6431;0.7381;
1158.9000;0.6439;0.7330;
1159.2000;0.6463;0.7280;
1159.5000;0.6422;0.7204;
1159.8000;0.6422;0.7230;
1160.1000;0.6431;0.7305;
1160.4000;0.6439;0.7305;
1160.7000;0.6431;0.7330;
1161.0000;0.6414;0.7305;
1161.3000;0.6422;0.7305;
1161.6000;0.6463;0.7355;
1161.9000;0.6414;0.7255;
1162.2000;0.6431;0.7381;
1162.5000;0.6471;0.7456;
1162.8000;0.6406;0.7330;
1163.1000;0.6431;0.7381;
1163.4000;0.6414;0.7355;
1163.7000;0.6422;0.7330;
1164.0000;0.6414;0.7330;
1164.3000;0.6431;0.7406;
1164.6000;0.6414;0.7431;
1164.9000;0.6479;0.7633;
1165.2000;0.6422;0.7431;
1165.5000;0.6431;0.7456;
1165.8000;0.6431;0.7305;
1166.1000;0.6439;0.7355;
1166.4000;0.6414;0.7305;
1166.7000;0.6422;0.7355;
1167.0000;0.6398;0.7255;
1167.3000;0.6431;0.7305;
1167.6000;0.6422;0.7305;
1167.9000;0.6414;0.7330;
1168.2000;0.6431;0.7280;
1168.5000;0.6422;0.7154;
1168.8000;0.6431;0.7104;
1169.1000;0.6439;0.7003;
1169.4000;0.6455;0.6978;
1169.7000;0.6447;0.6902;
1170.0000;0.6414;0.6826;
1170.3000;0.6431;0.6902;
1170.6000;0.6455;0.6978;
1170.9000;0.6439;0.6927;
1171.2000;0.6414;0.7078;
1171.5000;0.6422;0.7028;
1171.8000;0.6439;0.7154;
1172.1000;0.6422;0.7154;
1172.4000;0.6414;0.7078;
1172.7000;0.6471;0.7179;
1173.0000;0.6439;0.7104;
1173.3000;0.6463;0.7154;
1173.6000;0.6447;0.7179;
1173.9000;0.6431;0.7129;
1174.2000;0.6479;0.7179;
1174.5000;0.6414;0.7053;
1174.8000;0.6398;0.6978;
1175.1000;0.6398;0.7003;
1175.4000;0.6439;0.7028;
1175.7000;0.6398;0.6877;
1176.0000;0.6431;0.7028;
1176.3000;0.6414;0.7003;
1176.6000;0.6414;0.6952;
1176.9000;0.6422;0.6877;
1177.2000;0.6447;0.6978;
1177.5000;0.6447;0.7028;
1177.8000;0.6349;0.6877;
1178.1000;0.6406;0.7078;
1178.4000;0.6439;0.7053;
1178.7000;0.6422;0.7028;
1179.0000;0.6414;0.7078;
1179.3000;0.6406;0.7129;
1179.6000;0.6431;0.7179;
1179.9000;0.6414;0.7230;
1180.2000;0.6406;0.7255;
1180.5000;0.6431;0.7204;
1180.8000;0.6431;0.7179;
1181.1000;0.6414;0.7204;
1181.4000;0.6422;0.7204;
1181.7000;0.6422;0.7179;
1182.0000;0.6447;0.7305;
1182.3000;0.6439;0.7255;
1182.6000;0.6406;0.7204;
1182.9000;0.6422;0.7255;
1183.2000;0.6431;0.7204;
1183.5000;0.6414;0.7230;
1183.8000;0.6431;0.7280;
1184.1000;0.6406;0.7330;
1184.4000;0.6414;0.7381;
1184.7000;0.6414;0.7355;
1185.0000;0.6431;0.7381;
1185.3000;0.6422;0.7330;
1185.6000;0.6414;0.7305;
1185.9000;0.6406;0.7330;
1186.2000;0.6398;0.7280;
1186.5000;0.6422;0.7280;
1186.8000;0.6414;0.7280;
1187.1000;0.6414;0.7330;
1187.4000;0.6414;0.7355;
1187.7000;0.6414;0.7381;
1188.0000;0.6406;0.7431;
1188.3000;0.6414;0.7456;
1188.6000;0.6455;0.7557;
1188.9000;0.6398;0.7330;
1189.2000;0.6422;0.7355;
1189.5000;0.6382;0.7280;
1189.8000;0.6406;0.7330;
1190.1000;0.6431;0.7355;
1190.4000;0.6414;0.7355;
1190.7000;0.6414;0.7305;
1191.0000;0.6414;0.7381;
1191.3000;0.6422;0.7355;
1191.6000;0.6431;0.7330;
1191.9000;0.6431;0.7280;
1192.2000;0.6439;0.7305;
1192.5000;0.6422;0.7355;
1192.8000;0.6406;0.7280;
1193.1000;0.6406;0.7230;
1193.4000;0.6422;0.7255;
1193.7000;0.6414;0.7204;
1194.0000;0.6431;0.7179;
1194.3000;0.6406;0.7154;
1194.6000;0.6390;0.7204;
1194.9000;0.6431;0.7280;
1195.2000;0.6414;0.7305;
1195.5000;0.6431;0.7330;
1195.8000;0.6431;0.7381;
1196.1000;0.6422;0.7481;
1196.4000;0.6414;0.7456;
1196.7000;0.6422;0.7381;
1197.0000;0.6390;0.7330;
1197.3000;0.6414;0.7406;
1197.6000;0.6406;0.7330;
1197.9000;0.6398;0.7305;
1198.2000;0.6431;0.7381;
1198.5000;0.6414;0.7280;
1198.8000;0.6406;0.7230;
1199.1000;0.6406;0.7204;
1199.4000;0.6422;0.7154;
1199.7000;0.6422;0.7204;
1200.0000;0.6422;0.7204;
1200.3000;0.6414;0.7179;
1200.6000;0.6406;0.7129;
1200.9000;0.6414;0.7179;
1201.2000;0.6431;0.7230;
1201.5000;0.6422;0.7230;
1201.8000;0.6414;0.7179;
1202.1000;0.6414;0.7280;
1202.4000;0.6439;0.7406;
1202.7000;0.6422;0.7481;
1203.0000;0.6406;0.7431;
1203.3000;0.6439;0.7532;
1203.6000;0.6414;0.7431;
1203.9000;0.6422;0.7406;
1204.2000;0.6414;0.7330;
1204.5000;0.6382;0.7255;
1204.8000;0.6414;0.7280;
1205.1000;0.6431;0.7330;
1205.4000;0.6406;0.7330;
1205.7000;0.6431;0.7431;
1206.0000;0.6414;0.7456;
1206.3000;0.6422;0.7381;
1206.6000;0.6431;0.7381;
1206.9000;0.6406;0.7406;
1207.2000;0.6398;0.7406;
1207.5000;0.6414;0.7381;
1207.8000;0.6431;0.7456;
1208.1000;0.6398;0.7406;
1208.4000;0.6414;0.7381;
1208.7000;0.6406;0.7381;
1209.0000;0.6406;0.7431;
1209.3000;0.6398;0.7431;
1209.6000;0.6398;0.7456;
1209.9000;0.6455;0.7633;
1210.2000;0.6414;0.7507;
1210.5000;0.6406;0.7507;
1210.8000;0.6365;0.7406;
1211.1000;0.6398;0.7456;
1211.4000;0.6414;0.7507;
1211.7000;0.6406;0.7456;
1212.0000;0.6406;0.7431;
1212.3000;0.6398;0.7330;
1212.6000;0.6406;0.7280;
1212.9000;0.6357;0.7129;
1213.2000;0.6341;0.7078;
1213.5000;0.6390;0.7104;
1213.8000;0.6414;0.7154;
1214.1000;0.6414;0.7179;
1214.4000;0.6357;0.7028;
1214.7000;0.6398;0.7230;
1215.0000;0.6390;0.7255;
1215.3000;0.6414;0.7330;
1215.6000;0.6406;0.7280;
1215.9000;0.6406;0.7305;
1216.2000;0.6406;0.7355;
1216.5000;0.6447;0.7431;
1216.8000;0.6414;0.7305;
1217.1000;0.6406;0.7255;
1217.4000;0.6398;0.7204;
1217.7000;0.6406;0.7255;
1218.0000;0.6414;0.7255;
1218.3000;0.6406;0.7230;
1218.6000;0.6471;0.7406;
1218.9000;0.6406;0.7330;
1219.2000;0.6414;0.7355;
1219.5000;0.6431;0.7507;
1219.8000;0.6406;0.7481;
1220.1000;0.6341;0.7355;
1220.4000;0.6439;0.7507;
1220.7000;0.6431;0.7456;
1221.0000;0.6390;0.7381;
1221.3000;0.6414;0.7330;
1221.6000;0.6431;0.7330;
1221.9000;0.6422;0.7204;
1222.2000;0.6414;0.7179;
1222.5000;0.6390;0.7204;
1222.8000;0.6447;0.7381;
1223.1000;0.6455;0.7355;
1223.4000;0.6414;0.7154;
1223.7000;0.6406;0.7104;
1224.0000;0.6398;0.7154;
1224.3000;0.6390;0.7230;
1224.6000;0.6414;0.7230;
1224.9000;0.6422;0.7179;
1225.2000;0.6414;0.7255;
1225.5000;0.6431;0.7330;
1225.8000;0.6414;0.7406;
1226.1000;0.6398;0.7305;
1226.4000;0.6422;0.7355;
1226.7000;0.6414;0.7330;
1227.0000;0.6406;0.7381;
1227.3000;0.6431;0.7330;
1227.6000;0.6414;0.7305;
1227.9000;0.6414;0.7255;
1228.2000;0.6422;0.7330;
1228.5000;0.6406;0.7204;
1228.8000;0.6398;0.7154;
1229.1000;0.6422;0.7204;
1229.4000;0.6422;0.7230;
1229.7000;0.6406;0.7230;
1230.0000;0.6406;0.7154;
1230.3000;0.6398;0.7230;
1230.6000;0.6406;0.7280;
1230.9000;0.6406;0.7255;
1231.2000;0.6406;0.7230;
1231.5000;0.6406;0.7204;
1231.8000;0.6406;0.7230;
1232.1000;0.6414;0.7280;
1232.4000;0.6414;0.7305;
1232.7000;0.6398;0.7280;
1233.0000;0.6414;0.7305;
1233.3000;0.6406;0.7255;
1233.6000;0.6398;0.7280;
1233.9000;0.6374;0.7154;
1234.2000;0.6406;0.7280;
1234.5000;0.6406;0.7204;
1234.8000;0.6406;0.7179;
1235.1000;0.6390;0.7154;
1235.4000;0.6398;0.7154;
1235.7000;0.6422;0.7280;
1236.0000;0.6414;0.7230;
1236.3000;0.6414;0.7204;
1236.6000;0.6406;0.7154;
1236.9000;0.6414;0.7255;
1237.2000;0.6422;0.7330;
1237.5000;0.6414;0.7230;
1237.8000;0.6431;0.7104;
1238.1000;0.6414;0.7104;
1238.4000;0.6455;0.7204;
1238.7000;0.6398;0.7129;
1239.0000;0.6406;0.7078;
1239.3000;0.6406;0.7078;
1239.6000;0.6414;0.7078;
1239.9000;0.6398;0.7104;
1240.2000;0.6406;0.7129;
1240.5000;0.6398;0.7179;
1240.8000;0.6422;0.7355;
1241.1000;0.6422;0.7355;
1241.4000;0.6341;0.7078;
1241.7000;0.6414;0.7305;
1242.0000;0.6414;0.7305;
1242.3000;0.6398;0.7280;
1242.6000;0.6406;0.7355;
1242.9000;0.6406;0.7330;
1243.2000;0.6382;0.7230;
1243.5000;0.6422;0.7305;
1243.8000;0.6390;0.7204;
1244.1000;0.6406;0.7104;
1244.4000;0.6382;0.7053;
1244.7000;0.6406;0.7179;
1245.0000;0.6382;0.7204;
1245.3000;0.6382;0.7230;
1245.6000;0.6390;0.7230;
1245.9000;0.6422;0.7330;
1246.2000;0.6390;0.7230;
1246.5000;0.6422;0.7305;
1246.8000;0.6488;0.7481;
1247.1000;0.6406;0.7330;
1247.4000;0.6414;0.7355;
1247.7000;0.6374;0.7204;
1248.0000;0.6390;0.7179;
1248.3000;0.6455;0.7330;
1248.6000;0.6431;0.7330;
1248.9000;0.6455;0.7456;
1249.2000;0.6382;0.7305;
1249.5000;0.6406;0.7305;
1249.8000;0.6390;0.7179;
1250.1000;0.6414;0.7330;
1250.4000;0.6414;0.7305;
1250.7000;0.6422;0.7280;
1251.0000;0.6422;0.7280;
1251.3000;0.6390;0.7280;
1251.6000;0.6431;0.7381;
1251.9000;0.6414;0.7381;
1252.2000;0.6422;0.7456;
1252.5000;0.6398;0.7355;
1252.8000;0.6398;0.7280;
1253.1000;0.6406;0.7255;
1253.4000;0.6398;0.7255;
1253.7000;0.6414;0.7204;
1254.0000;0.6390;0.7053;
1254.3000;0.6406;0.7053;
1254.6000;0.6447;0.7179;
1254.9000;0.6406;0.7053;
1255.2000;0.6414;0.7028;
1255.5000;0.6390;0.6927;
1255.8000;0.6406;0.7003;
1256.1000;0.6390;0.7053;
1256.4000;0.6357;0.6978;
1256.7000;0.6390;0.7053;
1257.0000;0.6447;0.7129;
1257.3000;0.6422;0.7028;
1257.6000;0.6406;0.7028;
1257.9000;0.6406;0.7003;
1258.2000;0.6406;0.6978;
1258.5000;0.6398;0.7003;
1258.8000;0.6390;0.7003;
1259.1000;0.6414;0.7104;
1259.4000;0.6406;0.7154;
1259.7000;0.6422;0.7204;
1260.0000;0.6447;0.7280;
1260.3000;0.6414;0.7255;
1260.6000;0.6431;0.7280;
1260.9000;0.6406;0.7280;
1261.2000;0.6455;0.7355;
1261.5000;0.6390;0.7179;
1261.8000;0.6390;0.7204;
1262.1000;0.6414;0.7255;
1262.4000;0.6422;0.7355;
1262.7000;0.6406;0.7305;
1263.0000;0.6414;0.7305;
1263.3000;0.6398;0.7230;
1263.6000;0.6414;0.7255;
1263.9000;0.6398;0.7204;
1264.2000;0.6439;0.7230;
1264.5000;0.6406;0.7280;
1264.8000;0.6374;0.7230;
1265.1000;0.6414;0.7280;
1265.4000;0.6414;0.7179;
1265.7000;0.6390;0.7154;
1266.0000;0.6390;0.7179;
1266.3000;0.6406;0.7179;
1266.6000;0.6398;0.7179;
1266.9000;0.6398;0.7179;
1267.2000;0.6479;0.7406;
1267.5000;0.6414;0.7204;
1267.8000;0.6439;0.7230;
1268.1000;0.6414;0.7204;
1268.4000;0.6406;0.7255;
1268.7000;0.6406;0.7305;
1269.0000;0.6357;0.7230;
1269.3000;0.6520;0.7582;
1269.6000;0.6406;0.7305;
1269.9000;0.6406;0.7330;
1270.2000;0.6341;0.7078;
1270.5000;0.6431;0.7381;
1270.8000;0.6422;0.7305;
1271.1000;0.6382;0.7179;
1271.4000;0.6390;0.7179;
1271.7000;0.6414;0.7230;
1272.0000;0.6414;0.7204;
1272.3000;0.6398;0.7078;
1272.6000;0.6414;0.7204;
1272.9000;0.6414;0.7154;
1273.2000;0.6406;0.7104;
1273.5000;0.6406;0.7104;
1273.8000;0.6479;0.7255;
1274.1000;0.6422;0.7003;
1274.4000;0.6398;0.6978;
1274.7000;0.6406;0.7053;
1275.0000;0.6406;0.7028;
1275.3000;0.6414;0.7129;
1275.6000;0.6406;0.7255;
1275.9000;0.6341;0.7129;
1276.2000;0.6398;0.7230;
1276.5000;0.6406;0.7255;
1276.8000;0.6398;0.7330;
1277.1000;0.6406;0.7330;
1277.4000;0.6398;0.7280;
1277.7000;0.6406;0.7280;
1278.0000;0.6406;0.7255;
1278.3000;0.6406;0.7204;
1278.6000;0.6390;0.7230;
1278.9000;0.6398;0.7154;
1279.2000;0.6414;0.7154;
1279.5000;0.6390;0.7053;
1279.8000;0.6398;0.7129;
1280.1000;0.6349;0.7104;
1280.4000;0.6390;0.7305;
1280.7000;0.6390;0.7381;
1281.0000;0.6398;0.7406;
1281.3000;0.6382;0.7481;
1281.6000;0.6398;0.7507;
1281.9000;0.6374;0.7481;
1282.2000;0.6390;0.7532;
1282.5000;0.6398;0.7607;
1282.8000;0.6398;0.7557;
1283.1000;0.6398;0.7481;
1283.4000;0.6390;0.7532;
1283.7000;0.6406;0.7557;
1284.0000;0.6398;0.7456;
1284.3000;0.6406;0.7355;
1284.6000;0.6390;0.7305;
1284.9000;0.6398;0.7305;
1285.2000;0.6422;0.7456;
1285.5000;0.6398;0.7481;
1285.8000;0.6431;0.7456;
1286.1000;0.6406;0.7431;
1286.4000;0.6471;0.7557;
1286.7000;0.6398;0.7431;
1287.0000;0.6398;0.7330;
1287.3000;0.6357;0.7154;
1287.6000;0.6463;0.7431;
1287.9000;0.6422;0.7305;
1288.2000;0.6406;0.7154;
1288.5000;0.6406;0.7078;
1288.8000;0.6390;0.7053;
1289.1000;0.6374;0.7078;
1289.4000;0.6414;0.7179;
1289.7000;0.6414;0.7179;
1290.0000;0.6382;0.7255;
1290.3000;0.6406;0.7280;
1290.6000;0.6431;0.7355;
1290.9000;0.6406;0.7355;
1291.2000;0.6365;0.7305;
1291.5000;0.6406;0.7456;
1291.8000;0.6398;0.7557;
1292.1000;0.6398;0.7582;
1292.4000;0.6398;0.7557;
1292.7000;0.6406;0.7582;
1293.0000;0.6431;0.7633;
1293.3000;0.6390;0.7456;
1293.6000;0.6406;0.7381;
1293.9000;0.6390;0.7330;
1294.2000;0.6398;0.7305;
1294.5000;0.6406;0.7330;
1294.8000;0.6406;0.7330;
1295.1000;0.6390;0.7355;
1295.4000;0.6398;0.7456;
1295.7000;0.6414;0.7431;
1296.0000;0.6382;0.7381;
1296.3000;0.6382;0.7330;
1296.6000;0.6333;0.7204;
1296.9000;0.6406;0.7330;
1297.2000;0.6398;0.7204;
1297.5000;0.6398;0.7204;
1297.8000;0.6398;0.7230;
1298.1000;0.6414;0.7280;
1298.4000;0.6406;0.7230;
1298.7000;0.6406;0.7204;
1299.0000;0.6414;0.7230;
1299.3000;0.6414;0.7280;
1299.6000;0.6398;0.7255;
1299.9000;0.6398;0.7280;
1300.2000;0.6398;0.7406;
1300.5000;0.6406;0.7481;
1300.8000;0.6349;0.7330;
1301.1000;0.6406;0.7431;
1301.4000;0.6398;0.7481;
1301.7000;0.6390;0.7431;
1302.0000;0.6390;0.7431;
1302.3000;0.6398;0.7456;
1302.6000;0.6365;0.7381;
1302.9000;0.6374;0.7456;
1303.2000;0.6406;0.7507;
1303.5000;0.6414;0.7532;
1303.8000;0.6398;0.7507;
1304.1000;0.6390;0.7507;
1304.4000;0.6414;0.7633;
1304.7000;0.6406;0.7683;
1305.0000;0.6325;0.7456;
1305.3000;0.6365;0.7532;
1305.6000;0.6406;0.7507;
1305.9000;0.6406;0.7532;
1306.2000;0.6390;0.7532;
1306.5000;0.6390;0.7481;
1306.8000;0.6390;0.7481;
1307.1000;0.6406;0.7507;
1307.4000;0.6414;0.7406;
1307.7000;0.6398;0.7381;
1308.0000;0.6406;0.7381;
1308.3000;0.6398;0.7355;
1308.6000;0.6398;0.7305;
1308.9000;0.6398;0.7355;
1309.2000;0.6390;0.7330;
1309.5000;0.6414;0.7381;
1309.8000;0.6406;0.7305;
1310.1000;0.6374;0.7230;
1310.4000;0.6390;0.7280;
1310.7000;0.6398;0.7255;
1311.0000;0.6398;0.7330;
1311.3000;0.6398;0.7381;
1311.6000;0.6439;0.7557;
1311.9000;0.6390;0.7406;
1312.2000;0.6398;0.7381;
1312.5000;0.6406;0.7381;
1312.8000;0.6398;0.7330;
1313.1000;0.6414;0.7406;
1313.4000;0.6398;0.7330;
1313.7000;0.6390;0.7280;
1314.0000;0.6406;0.7305;
1314.3000;0.6398;0.7280;
1314.6000;0.6406;0.7305;
1314.9000;0.6390;0.7255;
1315.2000;0.6390;0.7280;
1315.5000;0.6398;0.7255;
1315.8000;0.6382;0.7204;
1316.1000;0.6398;0.7179;
1316.4000;0.6398;0.7179;
1316.7000;0.6390;0.7154;
1317.0000;0.6406;0.7230;
1317.3000;0.6406;0.7204;
1317.6000;0.6406;0.7129;
1317.9000;0.6398;0.7104;
1318.2000;0.6374;0.7028;
1318.5000;0.6422;0.6978;
1318.8000;0.6398;0.7129;
1319.1000;0.6398;0.7179;
1319.4000;0.6365;0.7053;
1319.7000;0.6406;0.7230;
1320.0000;0.6406;0.7129;
1320.3000;0.6365;0.7078;
1320.6000;0.6455;0.7280;
1320.9000;0.6406;0.7179;
1321.2000;0.6398;0.7204;
1321.5000;0.6390;0.7204;
1321.8000;0.6390;0.7280;
1322.1000;0.6406;0.7280;
1322.4000;0.6398;0.7255;
1322.7000;0.6406;0.7330;
1323.0000;0.6365;0.7230;
1323.3000;0.6390;0.7280;
1323.6000;0.6422;0.7355;
1323.9000;0.6398;0.7406;
1324.2000;0.6414;0.7456;
1324.5000;0.6382;0.7381;
1324.8000;0.6398;0.7557;
1325.1000;0.6398;0.7507;
1325.4000;0.6398;0.7481;
1325.7000;0.6390;0.7456;
1326.0000;0.6390;0.7456;
1326.3000;0.6390;0.7431;
1326.6000;0.6439;0.7633;
1326.9000;0.6398;0.7456;
1327.2000;0.6390;0.7431;
1327.5000;0.6398;0.7381;
1327.8000;0.6406;0.7305;
1328.1000;0.6414;0.7431;
1328.4000;0.6406;0.7431;
1328.7000;0.6431;0.7481;
1329.0000;0.6398;0.7406;
1329.3000;0.6398;0.7406;
1329.6000;0.6406;0.7406;
1329.9000;0.6398;0.7381;
1330.2000;0.6365;0.7406;
1330.5000;0.6390;0.7456;
1330.8000;0.6390;0.7481;
1331.1000;0.6398;0.7381;
1331.4000;0.6406;0.7381;
1331.7000;0.6398;0.7355;
1332.0000;0.6357;0.7230;
1332.3000;0.6390;0.7330;
1332.6000;0.6390;0.7305;
1332.9000;0.6406;0.7381;
1333.2000;0.6382;0.7280;
1333.5000;0.6398;0.7381;
1333.8000;0.6398;0.7431;
1334.1000;0.6398;0.7481;
1334.4000;0.6398;0.7481;
1334.7000;0.6398;0.7456;
1335.0000;0.6414;0.7557;
1335.3000;0.6390;0.7481;
1335.6000;0.6390;0.7532;
1335.9000;0.6365;0.7431;
1336.2000;0.6398;0.7431;
1336.5000;0.6374;0.7305;
1336.8000;0.6382;0.7230;
1337.1000;0.6398;0.7204;
1337.4000;0.6382;0.7204;
1337.7000;0.6382;0.7179;
1338.0000;0.6390;0.7305;
1338.3000;0.6374;0.7280;
1338.6000;0.6390;0.7330;
1338.9000;0.6390;0.7355;
1339.2000;0.6431;0.7431;
1339.5000;0.6341;0.7381;
1339.8000;0.6398;0.7507;
1340.1000;0.6382;0.7582;
1340.4000;0.6398;0.7582;
1340.7000;0.6406;0.7683;
1341.0000;0.6382;0.7557;
1341.3000;0.6349;0.7507;
1341.6000;0.6374;0.7532;
1341.9000;0.6382;0.7582;
1342.2000;0.6390;0.7557;
1342.5000;0.6341;0.7481;
1342.8000;0.6471;0.7708;
1343.1000;0.6382;0.7431;
1343.4000;0.6406;0.7507;
1343.7000;0.6382;0.7355;
1344.0000;0.6398;0.7481;
1344.3000;0.6292;0.7204;
1344.6000;0.6382;0.7381;
1344.9000;0.6398;0.7381;
1345.2000;0.6390;0.7456;
1345.5000;0.6382;0.7456;
1345.8000;0.6398;0.7431;
1346.1000;0.6390;0.7406;
1346.4000;0.6414;0.7507;
1346.7000;0.6406;0.7431;
1347.0000;0.6398;0.7431;
1347.3000;0.6406;0.7481;
1347.6000;0.6374;0.7431;
1347.9000;0.6406;0.7532;
1348.2000;0.6406;0.7507;
1348.5000;0.6398;0.7481;
1348.8000;0.6390;0.7381;
1349.1000;0.6398;0.7330;
1349.4000;0.6431;0.7481;
1349.7000;0.6382;0.7406;
1350.0000;0.6390;0.7456;
1350.3000;0.6398;0.7456;
1350.6000;0.6414;0.7481;
1350.9000;0.6406;0.7481;
1351.2000;0.6398;0.7381;
1351.5000;0.6406;0.7431;
1351.8000;0.6398;0.7481;
1352.1000;0.6390;0.7507;
1352.4000;0.6349;0.7456;
1352.7000;0.6463;0.7759;
1353.0000;0.6406;0.7582;
1353.3000;0.6398;0.7582;
1353.6000;0.6398;0.7557;
1353.9000;0.6398;0.7607;
1354.2000;0.6414;0.7532;
1354.5000;0.6414;0.7532;
1354.8000;0.6390;0.7557;
1355.1000;0.6390;0.7607;
1355.4000;0.6406;0.7582;
1355.7000;0.6398;0.7582;
1356.0000;0.6390;0.7532;
1356.3000;0.6349;0.7381;
1356.6000;0.6390;0.7557;
1356.9000;0.6390;0.7507;
1357.2000;0.6398;0.7481;
1357.5000;0.6398;0.7381;
1357.8000;0.6382;0.7330;
1358.1000;0.6390;0.7381;
1358.4000;0.6349;0.7305;
1358.7000;0.6398;0.7481;
1359.0000;0.6390;0.7507;
1359.3000;0.6398;0.7456;
1359.6000;0.6365;0.7381;
1359.9000;0.6382;0.7431;
1360.2000;0.6390;0.7481;
1360.5000;0.6382;0.7532;
1360.8000;0.6398;0.7633;
1361.1000;0.6365;0.7557;
1361.4000;0.6390;0.7582;
1361.7000;0.6390;0.7532;
1362.0000;0.6365;0.7406;
1362.3000;0.6390;0.7507;
1362.6000;0.6398;0.7305;
1362.9000;0.6382;0.7179;
1363.2000;0.6317;0.7003;
1363.5000;0.6422;0.7330;
1363.8000;0.6439;0.7406;
1364.1000;0.6406;0.7355;
1364.4000;0.6382;0.7355;
1364.7000;0.6406;0.7431;
1365.0000;0.6390;0.7431;
1365.3000;0.6431;0.7481;
1365.6000;0.6341;0.7230;
1365.9000;0.6414;0.7456;
1366.2000;0.6390;0.7406;
1366.5000;0.6365;0.7179;
1366.8000;0.6390;0.7255;
1367.1000;0.6390;0.7355;
1367.4000;0.6382;0.7381;
1367.7000;0.6382;0.7431;
1368.0000;0.6390;0.7305;
1368.3000;0.6398;0.7330;
1368.6000;0.6390;0.7204;
1368.9000;0.6390;0.7230;
1369.2000;0.6398;0.7406;
1369.5000;0.6398;0.7431;
1369.8000;0.6398;0.7355;
1370.1000;0.6398;0.7255;
1370.4000;0.6341;0.7053;
1370.7000;0.6390;0.7280;
1371.0000;0.6390;0.7280;
1371.3000;0.6390;0.7280;
1371.6000;0.6390;0.7280;
1371.9000;0.6382;0.7280;
1372.2000;0.6398;0.7280;
1372.5000;0.6447;0.7456;
1372.8000;0.6374;0.7355;
1373.1000;0.6365;0.7330;
1373.4000;0.6382;0.7280;
1373.7000;0.6390;0.7330;
1374.0000;0.6382;0.7355;
1374.3000;0.6374;0.7355;
1374.6000;0.6390;0.7330;
1374.9000;0.6390;0.7381;
1375.2000;0.6390;0.7330;
1375.5000;0.6374;0.7280;
1375.8000;0.6365;0.7255;
1376.1000;0.6390;0.7305;
1376.4000;0.6406;0.7431;
1376.7000;0.6382;0.7355;
1377.0000;0.6374;0.7330;
1377.3000;0.6398;0.7456;
1377.6000;0.6398;0.7355;
1377.9000;0.6382;0.7330;
1378.2000;0.6374;0.7406;
1378.5000;0.6398;0.7532;
1378.8000;0.6398;0.7507;
1379.1000;0.6382;0.7557;
1379.4000;0.6382;0.7532;
1379.7000;0.6374;0.7532;
1380.0000;0.6390;0.7557;
1380.3000;0.6390;0.7582;
1380.6000;0.6382;0.7507;
1380.9000;0.6349;0.7481;
1381.2000;0.6341;0.7456;
1381.5000;0.6349;0.7406;
1381.8000;0.6390;0.7557;
1382.1000;0.6333;0.7431;
1382.4000;0.6398;0.7456;
1382.7000;0.6374;0.7481;
1383.0000;0.6382;0.7507;
1383.3000;0.6374;0.7431;
1383.6000;0.6414;0.7582;
1383.9000;0.6398;0.7532;
1384.2000;0.6333;0.7456;
1384.5000;0.6300;0.7280;
1384.8000;0.6398;0.7507;
1385.1000;0.6422;0.7607;
1385.4000;0.6390;0.7532;
1385.7000;0.6325;0.7330;
1386.0000;0.6382;0.7507;
1386.3000;0.6390;0.7507;
1386.6000;0.6422;0.7481;
1386.9000;0.6382;0.7456;
1387.2000;0.6471;0.7683;
1387.5000;0.6398;0.7507;
1387.8000;0.6365;0.7431;
1388.1000;0.6382;0.7456;
1388.4000;0.6439;0.7582;
1388.7000;0.6382;0.7481;
1389.0000;0.6398;0.7456;
1389.3000;0.6341;0.7305;
1389.6000;0.6374;0.7406;
1389.9000;0.6374;0.7456;
1390.2000;0.6398;0.7557;
1390.5000;0.6390;0.7582;
1390.8000;0.6390;0.7507;
1391.1000;0.6365;0.7406;
1391.4000;0.6382;0.7481;
1391.7000;0.6365;0.7406;
1392.0000;0.6382;0.7456;
1392.3000;0.6390;0.7481;
1392.6000;0.6390;0.7481;
1392.9000;0.6390;0.7532;
1393.2000;0.6390;0.7582;
1393.5000;0.6382;0.7431;
1393.8000;0.6382;0.7431;
1394.1000;0.6390;0.7481;
1394.4000;0.6374;0.7456;
1394.7000;0.6398;0.7456;
1395.0000;0.6398;0.7456;
1395.3000;0.6374;0.7557;
1395.6000;0.6390;0.7532;
1395.9000;0.6390;0.7456;
1396.2000;0.6390;0.7557;
1396.5000;0.6390;0.7557;
1396.8000;0.6382;0.7557;
1397.1000;0.6390;0.7532;
1397.4000;0.6382;0.7532;
1397.7000;0.6374;0.7507;
1398.0000;0.6374;0.7507;
1398.3000;0.6374;0.7507;
1398.6000;0.6374;0.7532;
1398.9000;0.6374;0.7507;
1399.2000;0.6447;0.7683;
1399.5000;0.6374;0.7507;
1399.8000;0.6390;0.7582;
