time/ms;Fluo/V;P700 deltaI/I x10³;
-199.8000;0.7269;0.8162;
-199.5000;0.7285;0.8136;
-199.2000;0.7277;0.8212;
-198.9000;0.7277;0.8288;
-198.6000;0.7245;0.8086;
-198.3000;0.7261;0.8162;
-198.0000;0.7261;0.8288;
-197.7000;0.7269;0.8237;
-197.4000;0.7261;0.8162;
-197.1000;0.7245;0.8036;
-196.8000;0.7277;0.8111;
-196.5000;0.7277;0.8111;
-196.2000;0.7293;0.8162;
-195.9000;0.7302;0.8136;
-195.6000;0.7302;0.8036;
-195.3000;0.7285;0.8010;
-195.0000;0.7261;0.7985;
-194.7000;0.7269;0.7935;
-194.4000;0.7269;0.7985;
-194.1000;0.7236;0.7935;
-193.8000;0.7277;0.8036;
-193.5000;0.7277;0.7985;
-193.2000;0.7334;0.8212;
-192.9000;0.7285;0.8136;
-192.6000;0.7269;0.8111;
-192.3000;0.7196;0.7859;
-192.0000;0.7285;0.8061;
-191.7000;0.7285;0.8086;
-191.4000;0.7285;0.8086;
-191.1000;0.7253;0.7960;
-190.8000;0.7277;0.7960;
-190.5000;0.7277;0.8010;
-190.2000;0.7261;0.8010;
-189.9000;0.7261;0.7960;
-189.6000;0.7269;0.8086;
-189.3000;0.7253;0.8010;
-189.0000;0.7277;0.8111;
-188.7000;0.7253;0.8111;
-188.4000;0.7245;0.8086;
-188.1000;0.7277;0.8136;
-187.8000;0.7261;0.8187;
-187.5000;0.7269;0.8212;
-187.2000;0.7261;0.8212;
-186.9000;0.7253;0.8288;
-186.6000;0.7245;0.8313;
-186.3000;0.7269;0.8313;
-186.0000;0.7293;0.8464;
-185.7000;0.7350;0.8615;
-185.4000;0.7261;0.8413;
-185.1000;0.7277;0.8514;
-184.8000;0.7261;0.8363;
-184.5000;0.7269;0.8338;
-184.2000;0.7293;0.8413;
-183.9000;0.7277;0.8262;
-183.6000;0.7253;0.8212;
-183.3000;0.7245;0.8187;
-183.0000;0.7302;0.8162;
-182.7000;0.7261;0.8111;
-182.4000;0.7261;0.8111;
-182.1000;0.7277;0.8212;
-181.8000;0.7269;0.8086;
-181.5000;0.7293;0.8111;
-181.2000;0.7269;0.8086;
-180.9000;0.7269;0.8187;
-180.6000;0.7293;0.8212;
-180.3000;0.7277;0.8187;
-180.0000;0.7277;0.8262;
-179.7000;0.7261;0.8237;
-179.4000;0.7293;0.8288;
-179.1000;0.7269;0.8212;
-178.8000;0.7261;0.8212;
-178.5000;0.7285;0.8288;
-178.2000;0.7253;0.8162;
-177.9000;0.7253;0.8162;
-177.6000;0.7293;0.8338;
-177.3000;0.7253;0.8313;
-177.0000;0.7269;0.8338;
-176.7000;0.7261;0.8388;
-176.4000;0.7269;0.8439;
-176.1000;0.7277;0.8388;
-175.8000;0.7228;0.8212;
-175.5000;0.7261;0.8237;
-175.2000;0.7277;0.8262;
-174.9000;0.7293;0.8288;
-174.6000;0.7269;0.8162;
-174.3000;0.7253;0.8162;
-174.0000;0.7277;0.8187;
-173.7000;0.7269;0.8212;
-173.4000;0.7253;0.8136;
-173.1000;0.7261;0.8136;
-172.8000;0.7285;0.8162;
-172.5000;0.7261;0.8136;
-172.2000;0.7277;0.8136;
-171.9000;0.7269;0.8187;
-171.6000;0.7269;0.8162;
-171.3000;0.7269;0.8162;
-171.0000;0.7293;0.8187;
-170.7000;0.7245;0.8136;
-170.4000;0.7269;0.8237;
-170.1000;0.7269;0.8212;
-169.8000;0.7277;0.8313;
-169.5000;0.7269;0.8162;
-169.2000;0.7261;0.8136;
-168.9000;0.7269;0.8237;
-168.6000;0.7261;0.8162;
-168.3000;0.7277;0.8338;
-168.0000;0.7269;0.8313;
-167.7000;0.7269;0.8288;
-167.4000;0.7245;0.8262;
-167.1000;0.7261;0.8288;
-166.8000;0.7261;0.8212;
-166.5000;0.7228;0.8136;
-166.2000;0.7277;0.8262;
-165.9000;0.7285;0.8313;
-165.6000;0.7220;0.8136;
-165.3000;0.7261;0.8212;
-165.0000;0.7253;0.8162;
-164.7000;0.7236;0.8136;
-164.4000;0.7326;0.8237;
-164.1000;0.7253;0.8036;
-163.8000;0.7277;0.8086;
-163.5000;0.7196;0.7884;
-163.2000;0.7261;0.8162;
-162.9000;0.7253;0.8086;
-162.6000;0.7236;0.8086;
-162.3000;0.7277;0.8136;
-162.0000;0.7277;0.8136;
-161.7000;0.7269;0.8136;
-161.4000;0.7261;0.8187;
-161.1000;0.7277;0.8212;
-160.8000;0.7285;0.8237;
-160.5000;0.7269;0.8136;
-160.2000;0.7261;0.8086;
-159.9000;0.7261;0.8086;
-159.6000;0.7285;0.8111;
-159.3000;0.7245;0.8061;
-159.0000;0.7269;0.8262;
-158.7000;0.7285;0.8212;
-158.4000;0.7261;0.8187;
-158.1000;0.7261;0.8111;
-157.8000;0.7245;0.8086;
-157.5000;0.7293;0.8187;
-157.2000;0.7261;0.8136;
-156.9000;0.7277;0.8187;
-156.6000;0.7277;0.8162;
-156.3000;0.7269;0.8111;
-156.0000;0.7269;0.8061;
-155.7000;0.7269;0.7960;
-155.4000;0.7285;0.8036;
-155.1000;0.7277;0.7985;
-154.8000;0.7277;0.8061;
-154.5000;0.7302;0.8187;
-154.2000;0.7269;0.8136;
-153.9000;0.7285;0.8212;
-153.6000;0.7261;0.8212;
-153.3000;0.7261;0.8237;
-153.0000;0.7261;0.8212;
-152.7000;0.7261;0.8162;
-152.4000;0.7245;0.8136;
-152.1000;0.7269;0.8262;
-151.8000;0.7285;0.8237;
-151.5000;0.7269;0.8288;
-151.2000;0.7269;0.8237;
-150.9000;0.7261;0.8262;
-150.6000;0.7261;0.8288;
-150.3000;0.7261;0.8338;
-150.0000;0.7245;0.8262;
-149.7000;0.7310;0.8388;
-149.4000;0.7269;0.8313;
-149.1000;0.7261;0.8212;
-148.8000;0.7277;0.8212;
-148.5000;0.7269;0.8237;
-148.2000;0.7253;0.8187;
-147.9000;0.7261;0.8162;
-147.6000;0.7253;0.8111;
-147.3000;0.7253;0.8086;
-147.0000;0.7220;0.7985;
-146.7000;0.7261;0.8111;
-146.4000;0.7285;0.8136;
-146.1000;0.7253;0.8010;
-145.8000;0.7253;0.8086;
-145.5000;0.7261;0.8162;
-145.2000;0.7269;0.8237;
-144.9000;0.7261;0.8262;
-144.6000;0.7285;0.8313;
-144.3000;0.7285;0.8288;
-144.0000;0.7269;0.8212;
-143.7000;0.7285;0.8212;
-143.4000;0.7277;0.8187;
-143.1000;0.7269;0.8288;
-142.8000;0.7261;0.8313;
-142.5000;0.7236;0.8237;
-142.2000;0.7261;0.8288;
-141.9000;0.7261;0.8288;
-141.6000;0.7277;0.8262;
-141.3000;0.7261;0.8187;
-141.0000;0.7245;0.8086;
-140.7000;0.7277;0.8162;
-140.4000;0.7277;0.8111;
-140.1000;0.7277;0.8086;
-139.8000;0.7269;0.8036;
-139.5000;0.7253;0.7985;
-139.2000;0.7285;0.8061;
-138.9000;0.7277;0.8136;
-138.6000;0.7277;0.8187;
-138.3000;0.7253;0.8162;
-138.0000;0.7269;0.8086;
-137.7000;0.7261;0.8061;
-137.4000;0.7261;0.8010;
-137.1000;0.7236;0.8061;
-136.8000;0.7269;0.8136;
-136.5000;0.7277;0.8111;
-136.2000;0.7261;0.8086;
-135.9000;0.7261;0.8111;
-135.6000;0.7269;0.8086;
-135.3000;0.7285;0.8111;
-135.0000;0.7269;0.8036;
-134.7000;0.7318;0.8111;
-134.4000;0.7261;0.8036;
-134.1000;0.7269;0.8162;
-133.8000;0.7261;0.8212;
-133.5000;0.7269;0.8262;
-133.2000;0.7253;0.8162;
-132.9000;0.7277;0.8136;
-132.6000;0.7261;0.8086;
-132.3000;0.7261;0.8212;
-132.0000;0.7253;0.8162;
-131.7000;0.7277;0.8237;
-131.4000;0.7261;0.8111;
-131.1000;0.7261;0.8061;
-130.8000;0.7261;0.8010;
-130.5000;0.7269;0.8010;
-130.2000;0.7277;0.8136;
-129.9000;0.7277;0.8111;
-129.6000;0.7253;0.8036;
-129.3000;0.7269;0.8111;
-129.0000;0.7277;0.8162;
-128.7000;0.7310;0.8262;
-128.4000;0.7261;0.8212;
-128.1000;0.7261;0.8212;
-127.8000;0.7310;0.8237;
-127.5000;0.7269;0.8162;
-127.2000;0.7269;0.8212;
-126.9000;0.7261;0.8162;
-126.6000;0.7293;0.8162;
-126.3000;0.7269;0.8086;
-126.0000;0.7245;0.8010;
-125.7000;0.7269;0.8036;
-125.4000;0.7269;0.8111;
-125.1000;0.7310;0.8212;
-124.8000;0.7269;0.8162;
-124.5000;0.7261;0.8162;
-124.2000;0.7261;0.8111;
-123.9000;0.7269;0.8010;
-123.6000;0.7277;0.8061;
-123.3000;0.7269;0.8111;
-123.0000;0.7285;0.8187;
-122.7000;0.7293;0.8187;
-122.4000;0.7269;0.8262;
-122.1000;0.7212;0.8111;
-121.8000;0.7261;0.8111;
-121.5000;0.7277;0.8212;
-121.2000;0.7277;0.8162;
-120.9000;0.7269;0.7960;
-120.6000;0.7285;0.7935;
-120.3000;0.7269;0.7884;
-120.0000;0.7285;0.7884;
-119.7000;0.7285;0.7910;
-119.4000;0.7293;0.7935;
-119.1000;0.7245;0.7985;
-118.8000;0.7253;0.7985;
-118.5000;0.7285;0.8061;
-118.2000;0.7269;0.8061;
-117.9000;0.7261;0.8111;
-117.6000;0.7245;0.8086;
-117.3000;0.7212;0.7935;
-117.0000;0.7236;0.8036;
-116.7000;0.7253;0.8111;
-116.4000;0.7269;0.8111;
-116.1000;0.7285;0.8136;
-115.8000;0.7293;0.8136;
-115.5000;0.7277;0.8111;
-115.2000;0.7261;0.8010;
-114.9000;0.7277;0.8136;
-114.6000;0.7285;0.8136;
-114.3000;0.7293;0.8212;
-114.0000;0.7285;0.8136;
-113.7000;0.7293;0.8212;
-113.4000;0.7285;0.8187;
-113.1000;0.7269;0.8086;
-112.8000;0.7277;0.8111;
-112.5000;0.7261;0.8111;
-112.2000;0.7285;0.8111;
-111.9000;0.7253;0.8061;
-111.6000;0.7293;0.8111;
-111.3000;0.7269;0.8010;
-111.0000;0.7253;0.7910;
-110.7000;0.7277;0.8010;
-110.4000;0.7277;0.8010;
-110.1000;0.7261;0.8036;
-109.8000;0.7277;0.8086;
-109.5000;0.7277;0.8111;
-109.2000;0.7277;0.8061;
-108.9000;0.7277;0.8010;
-108.6000;0.7245;0.8036;
-108.3000;0.7277;0.8036;
-108.0000;0.7269;0.8061;
-107.7000;0.7269;0.8136;
-107.4000;0.7261;0.8061;
-107.1000;0.7253;0.8111;
-106.8000;0.7236;0.8136;
-106.5000;0.7236;0.8010;
-106.2000;0.7261;0.8010;
-105.9000;0.7261;0.8086;
-105.6000;0.7245;0.8010;
-105.3000;0.7245;0.7910;
-105.0000;0.7269;0.7960;
-104.7000;0.7236;0.7960;
-104.4000;0.7269;0.8136;
-104.1000;0.7253;0.8187;
-103.8000;0.7310;0.8363;
-103.5000;0.7285;0.8262;
-103.2000;0.7253;0.8212;
-102.9000;0.7261;0.8187;
-102.6000;0.7253;0.8061;
-102.3000;0.7277;0.8086;
-102.0000;0.7261;0.8036;
-101.7000;0.7261;0.8061;
-101.4000;0.7253;0.8010;
-101.1000;0.7269;0.8136;
-100.8000;0.7261;0.8111;
-100.5000;0.7261;0.8136;
-100.2000;0.7253;0.8086;
-99.9000;0.7285;0.8187;
-99.6000;0.7277;0.8262;
-99.3000;0.7269;0.8187;
-99.0000;0.7285;0.8237;
-98.7000;0.7253;0.8162;
-98.4000;0.7253;0.8187;
-98.1000;0.7277;0.8212;
-97.8000;0.7342;0.8338;
-97.5000;0.7269;0.8036;
-97.2000;0.7261;0.7910;
-96.9000;0.7269;0.7985;
-96.6000;0.7269;0.7910;
-96.3000;0.7261;0.7910;
-96.0000;0.7285;0.8036;
-95.7000;0.7261;0.8036;
-95.4000;0.7261;0.8086;
-95.1000;0.7261;0.8187;
-94.8000;0.7285;0.8162;
-94.5000;0.7277;0.8187;
-94.2000;0.7269;0.8136;
-93.9000;0.7261;0.8162;
-93.6000;0.7269;0.8212;
-93.3000;0.7285;0.8313;
-93.0000;0.7277;0.8313;
-92.7000;0.7245;0.8162;
-92.4000;0.7318;0.8262;
-92.1000;0.7293;0.8212;
-91.8000;0.7253;0.8136;
-91.5000;0.7253;0.8086;
-91.2000;0.7253;0.8086;
-90.9000;0.7285;0.8212;
-90.6000;0.7269;0.8136;
-90.3000;0.7269;0.8086;
-90.0000;0.7253;0.8086;
-89.7000;0.7269;0.8237;
-89.4000;0.7269;0.8111;
-89.1000;0.7277;0.8136;
-88.8000;0.7253;0.8136;
-88.5000;0.7269;0.8187;
-88.2000;0.7285;0.8187;
-87.9000;0.7285;0.8162;
-87.6000;0.7277;0.8111;
-87.3000;0.7261;0.8036;
-87.0000;0.7285;0.8061;
-86.7000;0.7285;0.8086;
-86.4000;0.7285;0.8111;
-86.1000;0.7277;0.8010;
-85.8000;0.7261;0.7985;
-85.5000;0.7277;0.7985;
-85.2000;0.7261;0.7960;
-84.9000;0.7261;0.8061;
-84.6000;0.7269;0.8111;
-84.3000;0.7277;0.8036;
-84.0000;0.7285;0.8010;
-83.7000;0.7261;0.7960;
-83.4000;0.7293;0.8162;
-83.1000;0.7285;0.8212;
-82.8000;0.7261;0.8061;
-82.5000;0.7269;0.8036;
-82.2000;0.7261;0.7935;
-81.9000;0.7261;0.7935;
-81.6000;0.7285;0.8061;
-81.3000;0.7269;0.7910;
-81.0000;0.7179;0.7759;
-80.7000;0.7261;0.7985;
-80.4000;0.7253;0.8010;
-80.1000;0.7245;0.8036;
-79.8000;0.7277;0.8187;
-79.5000;0.7269;0.8187;
-79.2000;0.7285;0.8187;
-78.9000;0.7269;0.8111;
-78.6000;0.7269;0.8061;
-78.3000;0.7269;0.8086;
-78.0000;0.7277;0.8036;
-77.7000;0.7277;0.8010;
-77.4000;0.7277;0.8010;
-77.1000;0.7261;0.8010;
-76.8000;0.7269;0.7960;
-76.5000;0.7285;0.7985;
-76.2000;0.7277;0.7985;
-75.9000;0.7269;0.7935;
-75.6000;0.7261;0.7935;
-75.3000;0.7269;0.7960;
-75.0000;0.7277;0.8036;
-74.7000;0.7277;0.8086;
-74.4000;0.7277;0.8061;
-74.1000;0.7269;0.8036;
-73.8000;0.7269;0.8061;
-73.5000;0.7285;0.8061;
-73.2000;0.7269;0.7985;
-72.9000;0.7269;0.7985;
-72.6000;0.7245;0.7859;
-72.3000;0.7253;0.7859;
-72.0000;0.7269;0.7935;
-71.7000;0.7269;0.8061;
-71.4000;0.7228;0.7910;
-71.1000;0.7285;0.8010;
-70.8000;0.7277;0.7884;
-70.5000;0.7261;0.7809;
-70.2000;0.7261;0.7935;
-69.9000;0.7302;0.8061;
-69.6000;0.7245;0.8010;
-69.3000;0.7269;0.8111;
-69.0000;0.7277;0.8136;
-68.7000;0.7277;0.8136;
-68.4000;0.7261;0.8111;
-68.1000;0.7269;0.8187;
-67.8000;0.7269;0.8262;
-67.5000;0.7391;0.8539;
-67.2000;0.7253;0.8262;
-66.9000;0.7245;0.8162;
-66.6000;0.7261;0.8136;
-66.3000;0.7269;0.8136;
-66.0000;0.7253;0.8036;
-65.7000;0.7253;0.7935;
-65.4000;0.7277;0.7884;
-65.1000;0.7277;0.7884;
-64.8000;0.7269;0.7910;
-64.5000;0.7261;0.7910;
-64.2000;0.7269;0.7960;
-63.9000;0.7261;0.7935;
-63.6000;0.7253;0.7809;
-63.3000;0.7261;0.7809;
-63.0000;0.7277;0.7884;
-62.7000;0.7261;0.7910;
-62.4000;0.7277;0.7935;
-62.1000;0.7245;0.7910;
-61.8000;0.7277;0.8061;
-61.5000;0.7261;0.8086;
-61.2000;0.7269;0.8036;
-60.9000;0.7269;0.8061;
-60.6000;0.7285;0.8162;
-60.3000;0.7285;0.8187;
-60.0000;0.7261;0.8162;
-59.7000;0.7269;0.8162;
-59.4000;0.7269;0.8136;
-59.1000;0.7269;0.8086;
-58.8000;0.7269;0.8086;
-58.5000;0.7277;0.8136;
-58.2000;0.7285;0.8136;
-57.9000;0.7277;0.8136;
-57.6000;0.7277;0.8111;
-57.3000;0.7261;0.8061;
-57.0000;0.7261;0.7960;
-56.7000;0.7269;0.7960;
-56.4000;0.7285;0.7960;
-56.1000;0.7261;0.7910;
-55.8000;0.7285;0.7985;
-55.5000;0.7261;0.8010;
-55.2000;0.7253;0.8061;
-54.9000;0.7334;0.8338;
-54.6000;0.7261;0.8162;
-54.3000;0.7253;0.8086;
-54.0000;0.7269;0.8061;
-53.7000;0.7293;0.8036;
-53.4000;0.7261;0.8010;
-53.1000;0.7277;0.8086;
-52.8000;0.7261;0.8036;
-52.5000;0.7269;0.8061;
-52.2000;0.7261;0.8162;
-51.9000;0.7269;0.8212;
-51.6000;0.7277;0.8288;
-51.3000;0.7285;0.8338;
-51.0000;0.7293;0.8363;
-50.7000;0.7269;0.8288;
-50.4000;0.7285;0.8262;
-50.1000;0.7293;0.8338;
-49.8000;0.7269;0.8313;
-49.5000;0.7269;0.8338;
-49.2000;0.7334;0.8439;
-48.9000;0.7269;0.8288;
-48.6000;0.7277;0.8262;
-48.3000;0.7277;0.8212;
-48.0000;0.7285;0.8212;
-47.7000;0.7277;0.8162;
-47.4000;0.7228;0.8036;
-47.1000;0.7277;0.8136;
-46.8000;0.7220;0.7960;
-46.5000;0.7228;0.8061;
-46.2000;0.7277;0.8111;
-45.9000;0.7269;0.7985;
-45.6000;0.7269;0.8036;
-45.3000;0.7293;0.8162;
-45.0000;0.7253;0.8162;
-44.7000;0.7269;0.8111;
-44.4000;0.7261;0.8111;
-44.1000;0.7236;0.8111;
-43.8000;0.7269;0.8111;
-43.5000;0.7302;0.8187;
-43.2000;0.7269;0.8111;
-42.9000;0.7277;0.8111;
-42.6000;0.7302;0.8187;
-42.3000;0.7277;0.8111;
-42.0000;0.7269;0.8187;
-41.7000;0.7261;0.8036;
-41.4000;0.7253;0.8061;
-41.1000;0.7310;0.8061;
-40.8000;0.7293;0.8086;
-40.5000;0.7253;0.8061;
-40.2000;0.7269;0.8010;
-39.9000;0.7277;0.7985;
-39.6000;0.7277;0.8036;
-39.3000;0.7261;0.8086;
-39.0000;0.7261;0.8036;
-38.7000;0.7269;0.8111;
-38.4000;0.7277;0.8136;
-38.1000;0.7269;0.8086;
-37.8000;0.7277;0.8187;
-37.5000;0.7269;0.8212;
-37.2000;0.7285;0.8288;
-36.9000;0.7293;0.8313;
-36.6000;0.7261;0.8136;
-36.3000;0.7261;0.8162;
-36.0000;0.7285;0.8187;
-35.7000;0.7261;0.8187;
-35.4000;0.7253;0.8111;
-35.1000;0.7269;0.8111;
-34.8000;0.7261;0.8086;
-34.5000;0.7293;0.8136;
-34.2000;0.7261;0.8111;
-33.9000;0.7261;0.8212;
-33.6000;0.7293;0.8313;
-33.3000;0.7269;0.8237;
-33.0000;0.7261;0.8212;
-32.7000;0.7326;0.8288;
-32.4000;0.7261;0.8111;
-32.1000;0.7277;0.8086;
-31.8000;0.7285;0.8061;
-31.5000;0.7269;0.7935;
-31.2000;0.7269;0.8010;
-30.9000;0.7269;0.8010;
-30.6000;0.7236;0.8111;
-30.3000;0.7253;0.8136;
-30.0000;0.7204;0.8036;
-29.7000;0.7269;0.8237;
-29.4000;0.7277;0.8212;
-29.1000;0.7261;0.8187;
-28.8000;0.7220;0.8036;
-28.5000;0.7277;0.8111;
-28.2000;0.7277;0.8136;
-27.9000;0.7277;0.8162;
-27.6000;0.7293;0.8237;
-27.3000;0.7293;0.8237;
-27.0000;0.7277;0.8212;
-26.7000;0.7269;0.8136;
-26.4000;0.7253;0.8111;
-26.1000;0.7269;0.8136;
-25.8000;0.7261;0.8111;
-25.5000;0.7269;0.8036;
-25.2000;0.7277;0.8086;
-24.9000;0.7261;0.8061;
-24.6000;0.7253;0.8061;
-24.3000;0.7228;0.7960;
-24.0000;0.7228;0.8010;
-23.7000;0.7261;0.8111;
-23.4000;0.7285;0.8086;
-23.1000;0.7261;0.8036;
-22.8000;0.7293;0.8111;
-22.5000;0.7245;0.8036;
-22.2000;0.7245;0.8036;
-21.9000;0.7277;0.8111;
-21.6000;0.7261;0.8111;
-21.3000;0.7269;0.8136;
-21.0000;0.7269;0.8086;
-20.7000;0.7261;0.8036;
-20.4000;0.7277;0.8111;
-20.1000;0.7285;0.8111;
-19.8000;0.7261;0.8061;
-19.5000;0.7318;0.8237;
-19.2000;0.7269;0.8162;
-18.9000;0.7269;0.8086;
-18.6000;0.7277;0.8136;
-18.3000;0.7277;0.8162;
-18.0000;0.7285;0.8262;
-17.7000;0.7269;0.8237;
-17.4000;0.7285;0.8237;
-17.1000;0.7269;0.8187;
-16.8000;0.7228;0.8187;
-16.5000;0.7261;0.8237;
-16.2000;0.7269;0.8162;
-15.9000;0.7277;0.8136;
-15.6000;0.7261;0.8036;
-15.3000;0.7285;0.7985;
-15.0000;0.7269;0.7960;
-14.7000;0.7277;0.8010;
-14.4000;0.7261;0.8010;
-14.1000;0.7269;0.7960;
-13.8000;0.7253;0.7834;
-13.5000;0.7261;0.7809;
-13.2000;0.7245;0.7784;
-12.9000;0.7253;0.7784;
-12.6000;0.7269;0.7834;
-12.3000;0.7269;0.7910;
-12.0000;0.7269;0.7960;
-11.7000;0.7253;0.7935;
-11.4000;0.7269;0.7910;
-11.1000;0.7269;0.7884;
-10.8000;0.7245;0.7859;
-10.5000;0.7293;0.7985;
-10.2000;0.7277;0.8010;
-9.9000;0.7277;0.8086;
-9.6000;0.7285;0.8010;
-9.3000;0.7277;0.8061;
-9.0000;0.7261;0.7960;
-8.7000;0.7261;0.7985;
-8.4000;0.7253;0.8010;
-8.1000;0.7269;0.8111;
-7.8000;0.7277;0.8136;
-7.5000;0.7269;0.8061;
-7.2000;0.7269;0.8036;
-6.9000;0.7334;0.8237;
-6.6000;0.7269;0.8010;
-6.3000;0.7261;0.8010;
-6.0000;0.7253;0.7960;
-5.7000;0.7269;0.8010;
-5.4000;0.7277;0.8036;
-5.1000;0.7269;0.8036;
-4.8000;0.7253;0.7985;
-4.5000;0.7261;0.8010;
-4.2000;0.7261;0.8086;
-3.9000;0.7261;0.8111;
-3.6000;0.7261;0.8061;
-3.3000;0.7277;0.8136;
-3.0000;0.7253;0.8061;
-2.7000;0.7269;0.8061;
-2.4000;0.7277;0.8010;
-2.1000;0.7253;0.8010;
-1.8000;0.7285;0.8010;
-1.5000;0.7269;0.7960;
-1.2000;0.7293;0.8036;
-0.9000;0.7269;0.7884;
-0.6000;0.7253;0.7834;
-0.3000;0.7253;0.7859;
0.0000;0.7253;0.7859;
0.3000;0.7684;0.7481;
0.6000;0.8303;0.8010;
0.9000;0.8791;0.8539;
1.2000;0.9223;0.9119;
1.5000;0.9491;0.9471;
1.8000;0.9744;0.9824;
2.1000;0.9923;1.0101;
2.4000;1.0094;1.0303;
2.7000;1.0224;1.0529;
3.0000;1.0387;1.0807;
3.3000;1.0460;1.0907;
3.6000;1.0533;1.0932;
3.9000;1.0631;1.1008;
4.2000;1.0688;1.1058;
4.5000;1.0737;1.1008;
4.8000;1.0851;1.1184;
5.1000;1.0899;1.1235;
5.4000;1.0981;1.1310;
5.7000;1.1038;1.1335;
6.0000;1.1079;1.1310;
6.3000;1.1119;1.1235;
6.6000;1.1168;1.1285;
6.9000;1.1241;1.1386;
7.2000;1.1315;1.1361;
7.5000;1.1372;1.1361;
7.8000;1.1429;1.1411;
8.1000;1.1461;1.1335;
8.4000;1.1486;1.1310;
8.7000;1.1543;1.1310;
9.0000;1.1575;1.1310;
9.3000;1.1640;1.1361;
9.6000;1.1673;1.1310;
9.9000;1.1730;1.1335;
10.2000;1.1779;1.1386;
10.5000;1.1803;1.1361;
10.8000;1.1844;1.1310;
11.1000;1.1868;1.1361;
11.4000;1.1925;1.1386;
11.7000;1.1950;1.1436;
12.0000;1.1990;1.1411;
12.3000;1.2023;1.1512;
12.6000;1.2055;1.1461;
12.9000;1.2104;1.1487;
13.2000;1.2120;1.1386;
13.5000;1.2153;1.1436;
13.8000;1.2194;1.1411;
14.1000;1.2202;1.1386;
14.4000;1.2234;1.1335;
14.7000;1.2275;1.1260;
15.0000;1.2308;1.1335;
15.3000;1.2332;1.1335;
15.6000;1.2348;1.1285;
15.9000;1.2397;1.1285;
16.2000;1.2422;1.1310;
16.5000;1.2422;1.1335;
16.8000;1.2462;1.1361;
17.1000;1.2503;1.1436;
17.4000;1.2511;1.1411;
17.7000;1.2527;1.1436;
18.0000;1.2536;1.1386;
18.3000;1.2593;1.1411;
18.6000;1.2593;1.1361;
18.9000;1.2641;1.1436;
19.2000;1.2682;1.1638;
19.5000;1.2658;1.1562;
19.8000;1.2682;1.1512;
20.1000;1.2698;1.1411;
20.4000;1.2723;1.1310;
20.7000;1.2723;1.1335;
21.0000;1.2764;1.1386;
21.3000;1.2772;1.1411;
21.6000;1.2788;1.1335;
21.9000;1.2804;1.1310;
22.2000;1.2796;1.1184;
22.5000;1.2829;1.1210;
22.8000;1.2845;1.1210;
23.1000;1.2869;1.1260;
23.4000;1.2861;1.1310;
23.7000;1.2910;1.1386;
24.0000;1.2926;1.1436;
24.3000;1.2902;1.1436;
24.6000;1.2902;1.1386;
24.9000;1.2902;1.1386;
25.2000;1.2926;1.1386;
25.5000;1.2934;1.1310;
25.8000;1.2975;1.1335;
26.1000;1.2934;1.1184;
26.4000;1.2983;1.1184;
26.7000;1.2991;1.1184;
27.0000;1.3057;1.1285;
27.3000;1.3008;1.1159;
27.6000;1.3040;1.1310;
27.9000;1.3040;1.1335;
28.2000;1.3040;1.1310;
28.5000;1.3065;1.1361;
28.8000;1.3048;1.1184;
29.1000;1.3073;1.1210;
29.4000;1.3089;1.1335;
29.7000;1.3065;1.1335;
30.0000;1.3081;1.1260;
30.3000;1.3114;1.1310;
30.6000;1.3105;1.1260;
30.9000;1.3105;1.1235;
31.2000;1.3105;1.1260;
31.5000;1.3105;1.1159;
31.8000;1.3122;1.1210;
32.1000;1.3171;1.1285;
32.4000;1.3122;1.1159;
32.7000;1.3138;1.1134;
33.0000;1.3146;1.1210;
33.3000;1.3162;1.1184;
33.6000;1.3154;1.1235;
33.9000;1.3179;1.1260;
34.2000;1.3187;1.1235;
34.5000;1.3171;1.1235;
34.8000;1.3179;1.1235;
35.1000;1.3187;1.1235;
35.4000;1.3187;1.1184;
35.7000;1.3219;1.1285;
36.0000;1.3211;1.1260;
36.3000;1.3195;1.1184;
36.6000;1.3203;1.1159;
36.9000;1.3179;1.1134;
37.2000;1.3211;1.1159;
37.5000;1.3203;1.1159;
37.8000;1.3260;1.1361;
38.1000;1.3236;1.1310;
38.4000;1.3228;1.1235;
38.7000;1.3244;1.1285;
39.0000;1.3268;1.1335;
39.3000;1.3236;1.1285;
39.6000;1.3244;1.1335;
39.9000;1.3252;1.1260;
40.2000;1.3252;1.1285;
40.5000;1.3260;1.1335;
40.8000;1.3276;1.1361;
41.1000;1.3260;1.1386;
41.4000;1.3276;1.1361;
41.7000;1.3276;1.1411;
42.0000;1.3276;1.1386;
42.3000;1.3293;1.1411;
42.6000;1.3284;1.1335;
42.9000;1.3309;1.1386;
43.2000;1.3317;1.1386;
43.5000;1.3284;1.1235;
43.8000;1.3293;1.1260;
44.1000;1.3293;1.1210;
44.4000;1.3317;1.1285;
44.7000;1.3317;1.1335;
45.0000;1.3309;1.1335;
45.3000;1.3398;1.1386;
45.6000;1.3317;1.1235;
45.9000;1.3333;1.1184;
46.2000;1.3252;1.1008;
46.5000;1.3350;1.1210;
46.8000;1.3333;1.1210;
47.1000;1.3341;1.1310;
47.4000;1.3333;1.1361;
47.7000;1.3333;1.1310;
48.0000;1.3333;1.1285;
48.3000;1.3407;1.1487;
48.6000;1.3333;1.1235;
48.9000;1.3341;1.1210;
49.2000;1.3325;1.1260;
49.5000;1.3366;1.1361;
49.8000;1.3358;1.1310;
50.1000;1.3350;1.1361;
50.4000;1.3358;1.1487;
50.7000;1.3374;1.1461;
51.0000;1.3366;1.1361;
51.3000;1.3374;1.1285;
51.6000;1.3366;1.1260;
51.9000;1.3382;1.1235;
52.2000;1.3382;1.1134;
52.5000;1.3366;1.1159;
52.8000;1.3374;1.1109;
53.1000;1.3382;1.1109;
53.4000;1.3415;1.1210;
53.7000;1.3407;1.1184;
54.0000;1.3382;1.1184;
54.3000;1.3407;1.1184;
54.6000;1.3407;1.1184;
54.9000;1.3366;1.1109;
55.2000;1.3382;1.1134;
55.5000;1.3390;1.1134;
55.8000;1.3382;1.1159;
56.1000;1.3415;1.1260;
56.4000;1.3390;1.1210;
56.7000;1.3407;1.1260;
57.0000;1.3398;1.1310;
57.3000;1.3398;1.1285;
57.6000;1.3407;1.1285;
57.9000;1.3423;1.1361;
58.2000;1.3415;1.1310;
58.5000;1.3423;1.1310;
58.8000;1.3398;1.1260;
59.1000;1.3407;1.1260;
59.4000;1.3407;1.1184;
59.7000;1.3415;1.1084;
60.0000;1.3415;1.1134;
60.3000;1.3423;1.1184;
60.6000;1.3407;1.1134;
60.9000;1.3464;1.1184;
61.2000;1.3455;1.1134;
61.5000;1.3423;1.1033;
61.8000;1.3415;1.1008;
62.1000;1.3423;1.1058;
62.4000;1.3415;1.1109;
62.7000;1.3423;1.1184;
63.0000;1.3431;1.1235;
63.3000;1.3423;1.1235;
63.6000;1.3431;1.1285;
63.9000;1.3439;1.1260;
64.2000;1.3382;1.1084;
64.5000;1.3431;1.1210;
64.8000;1.3447;1.1184;
65.1000;1.3447;1.1159;
65.4000;1.3464;1.1109;
65.7000;1.3439;1.1058;
66.0000;1.3472;1.1109;
66.3000;1.3447;1.0983;
66.6000;1.3439;1.0857;
66.9000;1.3447;1.0882;
67.2000;1.3464;1.0958;
67.5000;1.3512;1.1159;
67.8000;1.3455;1.0958;
68.1000;1.3447;1.0983;
68.4000;1.3431;1.1008;
68.7000;1.3455;1.1033;
69.0000;1.3464;1.1058;
69.3000;1.3439;1.0983;
69.6000;1.3374;1.0807;
69.9000;1.3447;1.1033;
70.2000;1.3464;1.1058;
70.5000;1.3423;1.1008;
70.8000;1.3423;1.0983;
71.1000;1.3431;1.1008;
71.4000;1.3431;1.0932;
71.7000;1.3447;1.0832;
72.0000;1.3431;1.0882;
72.3000;1.3447;1.1033;
72.6000;1.3439;1.0983;
72.9000;1.3447;1.1008;
73.2000;1.3464;1.1008;
73.5000;1.3464;1.0983;
73.8000;1.3472;1.1008;
74.1000;1.3472;1.0983;
74.4000;1.3472;1.0983;
74.7000;1.3480;1.0958;
75.0000;1.3472;1.0907;
75.3000;1.3464;1.0882;
75.6000;1.3472;1.0832;
75.9000;1.3480;1.0907;
76.2000;1.3488;1.0932;
76.5000;1.3480;1.0983;
76.8000;1.3480;1.1008;
77.1000;1.3480;1.0983;
77.4000;1.3488;1.1109;
77.7000;1.3504;1.1033;
78.0000;1.3569;1.1260;
78.3000;1.3480;1.1033;
78.6000;1.3496;1.1084;
78.9000;1.3488;1.1159;
79.2000;1.3480;1.1159;
79.5000;1.3488;1.1184;
79.8000;1.3480;1.1260;
80.1000;1.3480;1.1260;
80.4000;1.3488;1.1310;
80.7000;1.3480;1.1235;
81.0000;1.3472;1.1260;
81.3000;1.3480;1.1184;
81.6000;1.3488;1.1210;
81.9000;1.3480;1.1310;
82.2000;1.3464;1.1235;
82.5000;1.3488;1.1235;
82.8000;1.3512;1.1134;
83.1000;1.3488;1.1084;
83.4000;1.3488;1.1084;
83.7000;1.3480;1.1084;
84.0000;1.3504;1.1134;
84.3000;1.3496;1.1184;
84.6000;1.3488;1.1210;
84.9000;1.3480;1.1210;
85.2000;1.3521;1.1260;
85.5000;1.3504;1.1235;
85.8000;1.3496;1.1159;
86.1000;1.3504;1.1159;
86.4000;1.3512;1.1134;
86.7000;1.3504;1.1008;
87.0000;1.3496;1.1084;
87.3000;1.3561;1.1361;
87.6000;1.3488;1.1084;
87.9000;1.3512;1.1159;
88.2000;1.3488;1.1109;
88.5000;1.3496;1.1159;
88.8000;1.3512;1.1235;
89.1000;1.3423;1.1109;
89.4000;1.3504;1.1285;
89.7000;1.3496;1.1210;
90.0000;1.3488;1.1159;
90.3000;1.3512;1.1210;
90.6000;1.3569;1.1285;
90.9000;1.3504;1.1159;
91.2000;1.3504;1.1159;
91.5000;1.3512;1.1109;
91.8000;1.3504;1.1033;
92.1000;1.3504;1.0932;
92.4000;1.3512;1.0882;
92.7000;1.3521;1.0907;
93.0000;1.3512;1.0882;
93.3000;1.3512;1.0857;
93.6000;1.3504;1.0857;
93.9000;1.3512;1.0882;
94.2000;1.3496;1.0882;
94.5000;1.3529;1.0958;
94.8000;1.3521;1.0983;
95.1000;1.3512;1.1008;
95.4000;1.3504;1.0983;
95.7000;1.3529;1.0932;
96.0000;1.3521;1.0907;
96.3000;1.3521;1.0932;
96.6000;1.3529;1.0932;
96.9000;1.3529;1.0907;
97.2000;1.3521;1.0958;
97.5000;1.3512;1.0983;
97.8000;1.3512;1.0932;
98.1000;1.3496;1.0958;
98.4000;1.3512;1.1033;
98.7000;1.3521;1.0932;
99.0000;1.3512;1.0932;
99.3000;1.3537;1.1008;
99.6000;1.3529;1.0983;
99.9000;1.3529;1.1008;
100.2000;1.3545;1.1033;
100.5000;1.3545;1.0958;
100.8000;1.3537;1.0932;
101.1000;1.3569;1.0983;
101.4000;1.3561;1.0983;
101.7000;1.3537;1.1008;
102.0000;1.3488;1.0857;
102.3000;1.3529;1.0857;
102.6000;1.3521;1.0932;
102.9000;1.3521;1.0832;
103.2000;1.3553;1.0907;
103.5000;1.3521;1.0832;
103.8000;1.3504;1.0882;
104.1000;1.3529;1.1033;
104.4000;1.3521;1.0983;
104.7000;1.3529;1.1084;
105.0000;1.3594;1.1335;
105.3000;1.3521;1.1184;
105.6000;1.3512;1.1210;
105.9000;1.3521;1.1184;
106.2000;1.3504;1.1184;
106.5000;1.3561;1.1310;
106.8000;1.3512;1.1159;
107.1000;1.3521;1.1184;
107.4000;1.3504;1.1184;
107.7000;1.3512;1.1159;
108.0000;1.3504;1.1109;
108.3000;1.3521;1.1008;
108.6000;1.3521;1.0932;
108.9000;1.3512;1.0958;
109.2000;1.3512;1.1084;
109.5000;1.3545;1.1084;
109.8000;1.3545;1.1084;
110.1000;1.3545;1.1084;
110.4000;1.3610;1.1285;
110.7000;1.3545;1.1210;
111.0000;1.3545;1.1210;
111.3000;1.3529;1.1235;
111.6000;1.3537;1.1310;
111.9000;1.3545;1.1260;
112.2000;1.3561;1.1335;
112.5000;1.3545;1.1260;
112.8000;1.3521;1.1184;
113.1000;1.3545;1.1210;
113.4000;1.3537;1.1184;
113.7000;1.3529;1.1184;
114.0000;1.3521;1.1210;
114.3000;1.3529;1.1235;
114.6000;1.3521;1.1235;
114.9000;1.3545;1.1260;
115.2000;1.3521;1.1159;
115.5000;1.3521;1.1184;
115.8000;1.3537;1.1285;
116.1000;1.3545;1.1235;
116.4000;1.3545;1.1159;
116.7000;1.3537;1.1109;
117.0000;1.3553;1.1159;
117.3000;1.3553;1.1260;
117.6000;1.3512;1.1210;
117.9000;1.3561;1.1310;
118.2000;1.3537;1.1335;
118.5000;1.3545;1.1310;
118.8000;1.3537;1.1285;
119.1000;1.3512;1.1235;
119.4000;1.3537;1.1210;
119.7000;1.3545;1.1310;
120.0000;1.3537;1.1260;
120.3000;1.3504;1.1210;
120.6000;1.3537;1.1260;
120.9000;1.3537;1.1310;
121.2000;1.3561;1.1361;
121.5000;1.3553;1.1335;
121.8000;1.3553;1.1260;
122.1000;1.3561;1.1310;
122.4000;1.3545;1.1285;
122.7000;1.3561;1.1285;
123.0000;1.3537;1.1210;
123.3000;1.3545;1.1361;
123.6000;1.3545;1.1285;
123.9000;1.3553;1.1285;
124.2000;1.3553;1.1310;
124.5000;1.3537;1.1260;
124.8000;1.3545;1.1210;
125.1000;1.3529;1.1159;
125.4000;1.3553;1.1184;
125.7000;1.3537;1.1210;
126.0000;1.3529;1.1184;
126.3000;1.3594;1.1361;
126.6000;1.3545;1.1285;
126.9000;1.3545;1.1285;
127.2000;1.3561;1.1235;
127.5000;1.3537;1.1210;
127.8000;1.3529;1.1184;
128.1000;1.3545;1.1210;
128.4000;1.3561;1.1210;
128.7000;1.3537;1.1184;
129.0000;1.3545;1.1210;
129.3000;1.3537;1.1159;
129.6000;1.3553;1.1260;
129.9000;1.3594;1.1361;
130.2000;1.3553;1.1210;
130.5000;1.3553;1.1184;
130.8000;1.3553;1.1285;
131.1000;1.3553;1.1260;
131.4000;1.3561;1.1210;
131.7000;1.3553;1.1184;
132.0000;1.3512;1.1058;
132.3000;1.3553;1.1159;
132.6000;1.3569;1.1210;
132.9000;1.3561;1.1134;
133.2000;1.3553;1.1084;
133.5000;1.3561;1.1134;
133.8000;1.3561;1.1134;
134.1000;1.3553;1.1134;
134.4000;1.3545;1.1159;
134.7000;1.3545;1.1109;
135.0000;1.3529;1.1109;
135.3000;1.3553;1.1184;
135.6000;1.3529;1.1159;
135.9000;1.3545;1.1335;
136.2000;1.3553;1.1361;
136.5000;1.3512;1.1310;
136.8000;1.3553;1.1310;
137.1000;1.3553;1.1361;
137.4000;1.3545;1.1260;
137.7000;1.3569;1.1285;
138.0000;1.3545;1.1260;
138.3000;1.3529;1.1159;
138.6000;1.3521;1.1109;
138.9000;1.3545;1.1235;
139.2000;1.3545;1.1235;
139.5000;1.3521;1.1210;
139.8000;1.3529;1.1235;
140.1000;1.3545;1.1184;
140.4000;1.3561;1.1335;
140.7000;1.3545;1.1260;
141.0000;1.3537;1.1184;
141.3000;1.3553;1.1260;
141.6000;1.3561;1.1260;
141.9000;1.3537;1.1310;
142.2000;1.3553;1.1335;
142.5000;1.3569;1.1361;
142.8000;1.3512;1.1210;
143.1000;1.3553;1.1335;
143.4000;1.3545;1.1335;
143.7000;1.3553;1.1285;
144.0000;1.3553;1.1235;
144.3000;1.3545;1.1260;
144.6000;1.3537;1.1210;
144.9000;1.3529;1.1159;
145.2000;1.3545;1.1159;
145.5000;1.3529;1.1134;
145.8000;1.3537;1.1134;
146.1000;1.3578;1.1184;
146.4000;1.3553;1.1134;
146.7000;1.3561;1.1159;
147.0000;1.3545;1.1134;
147.3000;1.3602;1.1285;
147.6000;1.3553;1.1184;
147.9000;1.3496;1.1084;
148.2000;1.3553;1.1361;
148.5000;1.3553;1.1235;
148.8000;1.3553;1.1210;
149.1000;1.3537;1.1210;
149.4000;1.3553;1.1235;
149.7000;1.3545;1.1260;
150.0000;1.3529;1.1285;
150.3000;1.3545;1.1310;
150.6000;1.3545;1.1235;
150.9000;1.3512;1.1109;
151.2000;1.3529;1.1184;
151.5000;1.3537;1.1159;
151.8000;1.3602;1.1411;
152.1000;1.3569;1.1310;
152.4000;1.3545;1.1159;
152.7000;1.3545;1.1084;
153.0000;1.3553;1.1084;
153.3000;1.3545;1.1033;
153.6000;1.3553;1.1084;
153.9000;1.3553;1.1134;
154.2000;1.3553;1.1109;
154.5000;1.3553;1.1184;
154.8000;1.3529;1.1109;
155.1000;1.3537;1.1159;
155.4000;1.3496;1.1184;
155.7000;1.3545;1.1210;
156.0000;1.3569;1.1285;
156.3000;1.3537;1.1235;
156.6000;1.3569;1.1386;
156.9000;1.3553;1.1361;
157.2000;1.3667;1.1663;
157.5000;1.3545;1.1310;
157.8000;1.3545;1.1310;
158.1000;1.3545;1.1210;
158.4000;1.3586;1.1310;
158.7000;1.3537;1.1260;
159.0000;1.3553;1.1260;
159.3000;1.3561;1.1285;
159.6000;1.3537;1.1210;
159.9000;1.3545;1.1260;
160.2000;1.3545;1.1210;
160.5000;1.3561;1.1184;
160.8000;1.3537;1.1184;
161.1000;1.3545;1.1210;
161.4000;1.3545;1.1134;
161.7000;1.3545;1.1058;
162.0000;1.3578;1.1134;
162.3000;1.3569;1.1084;
162.6000;1.3512;1.0932;
162.9000;1.3553;1.1084;
163.2000;1.3553;1.1109;
163.5000;1.3537;1.1008;
163.8000;1.3529;1.0958;
164.1000;1.3545;1.1008;
164.4000;1.3545;1.1058;
164.7000;1.3529;1.1008;
165.0000;1.3569;1.1134;
165.3000;1.3537;1.1109;
165.6000;1.3521;1.0983;
165.9000;1.3545;1.0983;
166.2000;1.3529;1.0958;
166.5000;1.3553;1.1058;
166.8000;1.3545;1.1008;
167.1000;1.3537;1.1033;
167.4000;1.3561;1.1084;
167.7000;1.3553;1.1184;
168.0000;1.3529;1.1109;
168.3000;1.3569;1.1184;
168.6000;1.3545;1.1184;
168.9000;1.3545;1.1084;
169.2000;1.3553;1.1134;
169.5000;1.3561;1.1184;
169.8000;1.3553;1.1084;
170.1000;1.3529;1.0983;
170.4000;1.3561;1.0932;
170.7000;1.3553;1.0907;
171.0000;1.3569;1.0958;
171.3000;1.3561;1.0857;
171.6000;1.3586;1.0857;
171.9000;1.3553;1.0882;
172.2000;1.3561;1.0983;
172.5000;1.3561;1.0983;
172.8000;1.3529;1.0932;
173.1000;1.3537;1.1058;
173.4000;1.3553;1.1109;
173.7000;1.3553;1.1084;
174.0000;1.3545;1.1134;
174.3000;1.3537;1.1084;
174.6000;1.3537;1.1084;
174.9000;1.3561;1.1134;
175.2000;1.3537;1.1058;
175.5000;1.3521;1.1008;
175.8000;1.3553;1.0983;
176.1000;1.3561;1.1033;
176.4000;1.3529;1.1008;
176.7000;1.3545;1.1033;
177.0000;1.3561;1.1084;
177.3000;1.3496;1.0857;
177.6000;1.3561;1.1084;
177.9000;1.3561;1.1084;
178.2000;1.3545;1.1134;
178.5000;1.3561;1.1184;
178.8000;1.3569;1.1159;
179.1000;1.3553;1.1159;
179.4000;1.3521;1.1033;
179.7000;1.3545;1.1058;
180.0000;1.3561;1.1058;
180.3000;1.3553;1.1084;
180.6000;1.3488;1.0832;
180.9000;1.3545;1.0958;
181.2000;1.3537;1.0958;
181.5000;1.3569;1.0932;
181.8000;1.3545;1.0932;
182.1000;1.3488;1.0781;
182.4000;1.3553;1.0932;
182.7000;1.3545;1.0932;
183.0000;1.3545;1.1033;
183.3000;1.3537;1.1008;
183.6000;1.3529;1.1084;
183.9000;1.3553;1.1159;
184.2000;1.3537;1.1109;
184.5000;1.3529;1.1159;
184.8000;1.3569;1.1210;
185.1000;1.3553;1.1134;
185.4000;1.3529;1.1109;
185.7000;1.3537;1.1033;
186.0000;1.3537;1.1033;
186.3000;1.3545;1.1008;
186.6000;1.3537;1.0932;
186.9000;1.3529;1.0907;
187.2000;1.3504;1.0832;
187.5000;1.3529;1.0907;
187.8000;1.3537;1.0932;
188.1000;1.3553;1.0857;
188.4000;1.3553;1.0932;
188.7000;1.3545;1.0932;
189.0000;1.3561;1.0983;
189.3000;1.3545;1.0882;
189.6000;1.3529;1.0857;
189.9000;1.3561;1.0958;
190.2000;1.3553;1.0958;
190.5000;1.3553;1.0882;
190.8000;1.3553;1.0907;
191.1000;1.3561;1.0907;
191.4000;1.3553;1.0958;
191.7000;1.3537;1.0958;
192.0000;1.3529;1.1008;
192.3000;1.3545;1.1058;
192.6000;1.3537;1.1033;
192.9000;1.3529;1.1008;
193.2000;1.3512;1.1008;
193.5000;1.3553;1.0983;
193.8000;1.3561;1.1084;
194.1000;1.3537;1.0983;
194.4000;1.3537;1.1033;
194.7000;1.3545;1.1058;
195.0000;1.3545;1.0983;
195.3000;1.3553;1.1058;
195.6000;1.3537;1.1033;
195.9000;1.3521;1.0983;
196.2000;1.3521;1.1058;
196.5000;1.3553;1.1134;
196.8000;1.3529;1.1084;
197.1000;1.3537;1.1109;
197.4000;1.3521;1.0958;
197.7000;1.3553;1.1084;
198.0000;1.3561;1.1134;
198.3000;1.3569;1.1184;
198.6000;1.3553;1.1134;
198.9000;1.3553;1.1109;
199.2000;1.3545;1.1210;
199.5000;1.3553;1.1235;
199.8000;1.3545;1.1159;
200.1000;1.3529;1.1210;
200.4000;1.3529;1.1210;
200.7000;1.3529;1.1210;
201.0000;1.3521;1.1159;
201.3000;1.3545;1.1184;
201.6000;1.3553;1.1184;
201.9000;1.3537;1.1134;
202.2000;1.3521;1.1109;
202.5000;1.3553;1.1134;
202.8000;1.3553;1.1134;
203.1000;1.3553;1.1134;
203.4000;1.3618;1.1285;
203.7000;1.3553;1.1109;
204.0000;1.3561;1.1033;
204.3000;1.3537;1.1058;
204.6000;1.3504;1.1008;
204.9000;1.3537;1.1058;
205.2000;1.3529;1.1008;
205.5000;1.3537;1.1134;
205.8000;1.3521;1.1033;
206.1000;1.3545;1.1033;
206.4000;1.3545;1.1058;
206.7000;1.3545;1.0958;
207.0000;1.3529;1.0983;
207.3000;1.3521;1.0983;
207.6000;1.3545;1.0932;
207.9000;1.3553;1.1008;
208.2000;1.3545;1.1084;
208.5000;1.3602;1.1260;
208.8000;1.3553;1.1159;
209.1000;1.3569;1.1159;
209.4000;1.3561;1.1184;
209.7000;1.3553;1.1159;
210.0000;1.3529;1.1159;
210.3000;1.3537;1.1235;
210.6000;1.3521;1.1184;
210.9000;1.3529;1.1159;
211.2000;1.3521;1.1285;
211.5000;1.3504;1.1260;
211.8000;1.3553;1.1210;
212.1000;1.3561;1.1235;
212.4000;1.3586;1.1285;
212.7000;1.3537;1.1184;
213.0000;1.3561;1.1235;
213.3000;1.3553;1.1159;
213.6000;1.3553;1.1084;
213.9000;1.3553;1.1159;
214.2000;1.3569;1.1235;
214.5000;1.3537;1.1159;
214.8000;1.3545;1.1134;
215.1000;1.3545;1.1084;
215.4000;1.3521;1.1008;
215.7000;1.3529;1.1058;
216.0000;1.3529;1.1109;
216.3000;1.3521;1.1084;
216.6000;1.3537;1.1159;
216.9000;1.3512;1.1134;
217.2000;1.3561;1.1159;
217.5000;1.3521;1.1008;
217.8000;1.3529;1.1033;
218.1000;1.3553;1.1134;
218.4000;1.3529;1.1159;
218.7000;1.3545;1.1109;
219.0000;1.3553;1.1134;
219.3000;1.3537;1.1008;
219.6000;1.3561;1.1159;
219.9000;1.3545;1.1109;
220.2000;1.3504;1.1033;
220.5000;1.3545;1.1134;
220.8000;1.3537;1.1084;
221.1000;1.3504;1.1033;
221.4000;1.3504;1.1008;
221.7000;1.3537;1.1058;
222.0000;1.3537;1.1008;
222.3000;1.3537;1.1033;
222.6000;1.3512;1.0983;
222.9000;1.3553;1.1058;
223.2000;1.3537;1.0958;
223.5000;1.3545;1.0983;
223.8000;1.3529;1.0907;
224.1000;1.3553;1.0958;
224.4000;1.3537;1.1033;
224.7000;1.3618;1.1235;
225.0000;1.3545;1.1033;
225.3000;1.3529;1.1008;
225.6000;1.3529;1.1084;
225.9000;1.3537;1.1058;
226.2000;1.3537;1.1008;
226.5000;1.3537;1.0932;
226.8000;1.3545;1.0958;
227.1000;1.3545;1.1033;
227.4000;1.3545;1.1033;
227.7000;1.3529;1.1008;
228.0000;1.3521;1.1084;
228.3000;1.3529;1.1159;
228.6000;1.3537;1.1184;
228.9000;1.3512;1.1109;
229.2000;1.3537;1.1084;
229.5000;1.3537;1.1134;
229.8000;1.3545;1.1134;
230.1000;1.3521;1.1159;
230.4000;1.3537;1.1134;
230.7000;1.3537;1.1134;
231.0000;1.3586;1.1310;
231.3000;1.3529;1.1210;
231.6000;1.3569;1.1310;
231.9000;1.3537;1.1285;
232.2000;1.3545;1.1285;
232.5000;1.3529;1.1285;
232.8000;1.3537;1.1260;
233.1000;1.3545;1.1285;
233.4000;1.3537;1.1134;
233.7000;1.3545;1.1109;
234.0000;1.3594;1.1260;
234.3000;1.3545;1.1109;
234.6000;1.3464;1.0882;
234.9000;1.3553;1.1109;
235.2000;1.3545;1.1159;
235.5000;1.3537;1.1159;
235.8000;1.3529;1.1210;
236.1000;1.3529;1.1109;
236.4000;1.3504;1.1033;
236.7000;1.3521;1.1033;
237.0000;1.3537;1.1084;
237.3000;1.3553;1.1159;
237.6000;1.3537;1.1159;
237.9000;1.3521;1.1109;
238.2000;1.3512;1.1058;
238.5000;1.3529;1.1058;
238.8000;1.3529;1.1033;
239.1000;1.3537;1.1134;
239.4000;1.3529;1.1109;
239.7000;1.3529;1.1134;
240.0000;1.3512;1.1109;
240.3000;1.3537;1.1159;
240.6000;1.3521;1.1084;
240.9000;1.3512;1.1008;
241.2000;1.3521;1.1008;
241.5000;1.3529;1.0932;
241.8000;1.3521;1.0958;
242.1000;1.3537;1.0932;
242.4000;1.3545;1.0958;
242.7000;1.3545;1.0907;
243.0000;1.3521;1.0882;
243.3000;1.3529;1.0983;
243.6000;1.3561;1.1084;
243.9000;1.3512;1.0932;
244.2000;1.3545;1.1058;
244.5000;1.3529;1.1109;
244.8000;1.3553;1.1184;
245.1000;1.3553;1.1235;
245.4000;1.3545;1.1235;
245.7000;1.3537;1.1235;
246.0000;1.3521;1.1210;
246.3000;1.3529;1.1235;
246.6000;1.3529;1.1210;
246.9000;1.3529;1.1159;
247.2000;1.3545;1.1058;
247.5000;1.3504;1.1033;
247.8000;1.3521;1.1134;
248.1000;1.3529;1.1184;
248.4000;1.3537;1.1235;
248.7000;1.3529;1.1235;
249.0000;1.3537;1.1285;
249.3000;1.3569;1.1335;
249.6000;1.3529;1.1285;
249.9000;1.3529;1.1335;
250.2000;1.3529;1.1310;
250.5000;1.3521;1.1210;
250.8000;1.3537;1.1210;
251.1000;1.3521;1.1159;
251.4000;1.3537;1.1235;
251.7000;1.3521;1.1109;
252.0000;1.3521;1.0958;
252.3000;1.3512;1.0932;
252.6000;1.3529;1.0907;
252.9000;1.3545;1.0907;
253.2000;1.3529;1.0832;
253.5000;1.3512;1.0857;
253.8000;1.3545;1.0907;
254.1000;1.3537;1.0958;
254.4000;1.3512;1.0932;
254.7000;1.3545;1.1084;
255.0000;1.3512;1.0958;
255.3000;1.3537;1.1008;
255.6000;1.3521;1.1033;
255.9000;1.3529;1.1058;
256.2000;1.3529;1.1084;
256.5000;1.3512;1.1109;
256.8000;1.3529;1.1109;
257.1000;1.3504;1.1033;
257.4000;1.3488;1.0983;
257.7000;1.3553;1.1109;
258.0000;1.3569;1.1134;
258.3000;1.3635;1.1285;
258.6000;1.3521;1.1109;
258.9000;1.3578;1.1235;
259.2000;1.3496;1.1008;
259.5000;1.3586;1.1159;
259.8000;1.3537;1.0958;
260.1000;1.3464;1.0807;
260.4000;1.3545;1.0958;
260.7000;1.3618;1.1084;
261.0000;1.3521;1.0882;
261.3000;1.3537;1.0958;
261.6000;1.3537;1.0983;
261.9000;1.3521;1.1033;
262.2000;1.3537;1.1184;
262.5000;1.3529;1.1285;
262.8000;1.3529;1.1335;
263.1000;1.3529;1.1310;
263.4000;1.3529;1.1361;
263.7000;1.3529;1.1335;
264.0000;1.3529;1.1310;
264.3000;1.3545;1.1260;
264.6000;1.3537;1.1159;
264.9000;1.3569;1.1210;
265.2000;1.3578;1.1310;
265.5000;1.3545;1.1235;
265.8000;1.3537;1.1210;
266.1000;1.3529;1.1184;
266.4000;1.3521;1.1109;
266.7000;1.3529;1.1109;
267.0000;1.3521;1.1134;
267.3000;1.3529;1.1109;
267.6000;1.3521;1.1109;
267.9000;1.3537;1.1235;
268.2000;1.3537;1.1260;
268.5000;1.3545;1.1184;
268.8000;1.3529;1.1159;
269.1000;1.3553;1.1184;
269.4000;1.3529;1.1184;
269.7000;1.3553;1.1310;
270.0000;1.3537;1.1310;
270.3000;1.3545;1.1335;
270.6000;1.3537;1.1310;
270.9000;1.3545;1.1361;
271.2000;1.3512;1.1235;
271.5000;1.3529;1.1159;
271.8000;1.3537;1.1210;
272.1000;1.3521;1.1285;
272.4000;1.3553;1.1436;
272.7000;1.3529;1.1436;
273.0000;1.3529;1.1335;
273.3000;1.3488;1.1210;
273.6000;1.3521;1.1184;
273.9000;1.3521;1.1159;
274.2000;1.3529;1.1084;
274.5000;1.3529;1.1134;
274.8000;1.3586;1.1184;
275.1000;1.3545;1.1033;
275.4000;1.3537;1.1109;
275.7000;1.3545;1.1159;
276.0000;1.3521;1.1033;
276.3000;1.3504;1.1058;
276.6000;1.3480;1.0932;
276.9000;1.3537;1.1058;
277.2000;1.3512;1.1033;
277.5000;1.3529;1.1159;
277.8000;1.3496;1.1084;
278.1000;1.3512;1.1159;
278.4000;1.3504;1.1184;
278.7000;1.3529;1.1210;
279.0000;1.3512;1.1285;
279.3000;1.3553;1.1310;
279.6000;1.3521;1.1109;
279.9000;1.3578;1.1260;
280.2000;1.3504;1.1084;
280.5000;1.3537;1.1084;
280.8000;1.3529;1.1109;
281.1000;1.3521;1.1109;
281.4000;1.3504;1.1084;
281.7000;1.3504;1.1058;
282.0000;1.3537;1.1033;
282.3000;1.3512;1.1008;
282.6000;1.3521;1.0983;
282.9000;1.3545;1.1134;
283.2000;1.3537;1.1084;
283.5000;1.3521;1.0983;
283.8000;1.3537;1.1058;
284.1000;1.3521;1.0983;
284.4000;1.3537;1.1109;
284.7000;1.3537;1.1109;
285.0000;1.3512;1.1109;
285.3000;1.3545;1.1235;
285.6000;1.3529;1.1210;
285.9000;1.3504;1.1159;
286.2000;1.3521;1.1033;
286.5000;1.3512;1.1058;
286.8000;1.3529;1.1109;
287.1000;1.3529;1.1134;
287.4000;1.3529;1.1109;
287.7000;1.3512;1.1058;
288.0000;1.3529;1.1058;
288.3000;1.3521;1.1033;
288.6000;1.3512;1.0958;
288.9000;1.3512;1.0983;
289.2000;1.3521;1.1058;
289.5000;1.3529;1.1084;
289.8000;1.3521;1.0983;
290.1000;1.3537;1.1084;
290.4000;1.3512;1.1033;
290.7000;1.3537;1.1058;
291.0000;1.3537;1.0907;
291.3000;1.3537;1.0832;
291.6000;1.3537;1.0882;
291.9000;1.3529;1.1033;
292.2000;1.3537;1.1084;
292.5000;1.3537;1.1084;
292.8000;1.3521;1.1109;
293.1000;1.3512;1.1134;
293.4000;1.3488;1.1058;
293.7000;1.3521;1.1159;
294.0000;1.3537;1.1109;
294.3000;1.3521;1.0983;
294.6000;1.3521;1.1008;
294.9000;1.3529;1.1084;
295.2000;1.3529;1.1084;
295.5000;1.3529;1.1033;
295.8000;1.3512;1.1033;
296.1000;1.3512;1.0958;
296.4000;1.3537;1.0983;
296.7000;1.3521;1.0958;
297.0000;1.3521;1.0983;
297.3000;1.3545;1.1058;
297.6000;1.3521;1.1033;
297.9000;1.3521;1.0958;
298.2000;1.3512;1.1033;
298.5000;1.3512;1.1084;
298.8000;1.3496;1.1109;
299.1000;1.3496;1.1109;
299.4000;1.3496;1.1109;
299.7000;1.3537;1.1235;
300.0000;1.3529;1.1310;
300.3000;1.3521;1.1285;
300.6000;1.3504;1.1335;
300.9000;1.3439;1.1134;
301.2000;1.3521;1.1335;
301.5000;1.3521;1.1361;
301.8000;1.3521;1.1361;
302.1000;1.3537;1.1386;
302.4000;1.3529;1.1386;
302.7000;1.3496;1.1310;
303.0000;1.3512;1.1335;
303.3000;1.3521;1.1335;
303.6000;1.3512;1.1310;
303.9000;1.3537;1.1335;
304.2000;1.3504;1.1210;
304.5000;1.3521;1.1285;
304.8000;1.3529;1.1260;
305.1000;1.3537;1.1361;
305.4000;1.3521;1.1285;
305.7000;1.3529;1.1285;
306.0000;1.3529;1.1335;
306.3000;1.3529;1.1310;
306.6000;1.3529;1.1335;
306.9000;1.3529;1.1285;
307.2000;1.3529;1.1235;
307.5000;1.3537;1.1260;
307.8000;1.3512;1.1235;
308.1000;1.3512;1.1184;
308.4000;1.3529;1.1159;
308.7000;1.3553;1.1134;
309.0000;1.3512;1.1058;
309.3000;1.3504;1.0983;
309.6000;1.3521;1.1008;
309.9000;1.3521;1.1033;
310.2000;1.3504;1.1033;
310.5000;1.3529;1.1058;
310.8000;1.3512;1.1109;
311.1000;1.3521;1.1159;
311.4000;1.3496;1.1058;
311.7000;1.3545;1.1033;
312.0000;1.3521;1.1058;
312.3000;1.3529;1.1109;
312.6000;1.3521;1.1159;
312.9000;1.3521;1.1058;
313.2000;1.3512;1.1084;
313.5000;1.3521;1.1033;
313.8000;1.3521;1.1058;
314.1000;1.3529;1.0983;
314.4000;1.3512;1.0932;
314.7000;1.3521;1.1008;
315.0000;1.3537;1.1008;
315.3000;1.3561;1.1109;
315.6000;1.3521;1.0983;
315.9000;1.3521;1.0983;
316.2000;1.3537;1.1008;
316.5000;1.3529;1.0958;
316.8000;1.3512;1.0958;
317.1000;1.3521;1.1058;
317.4000;1.3521;1.1084;
317.7000;1.3512;1.1058;
318.0000;1.3512;1.1084;
318.3000;1.3529;1.1134;
318.6000;1.3464;1.0983;
318.9000;1.3545;1.1159;
319.2000;1.3496;1.1134;
319.5000;1.3472;1.1109;
319.8000;1.3545;1.1235;
320.1000;1.3545;1.1235;
320.4000;1.3431;1.0857;
320.7000;1.3512;1.1084;
321.0000;1.3512;1.1109;
321.3000;1.3529;1.1184;
321.6000;1.3537;1.1260;
321.9000;1.3521;1.1285;
322.2000;1.3496;1.1260;
322.5000;1.3521;1.1285;
322.8000;1.3504;1.1210;
323.1000;1.3529;1.1235;
323.4000;1.3512;1.1184;
323.7000;1.3504;1.1210;
324.0000;1.3488;1.1235;
324.3000;1.3521;1.1285;
324.6000;1.3504;1.1058;
324.9000;1.3464;1.1008;
325.2000;1.3537;1.1109;
325.5000;1.3537;1.1109;
325.8000;1.3512;1.1008;
326.1000;1.3512;1.1008;
326.4000;1.3537;1.1084;
326.7000;1.3537;1.1109;
327.0000;1.3472;1.0907;
327.3000;1.3529;1.1058;
327.6000;1.3537;1.1084;
327.9000;1.3529;1.1058;
328.2000;1.3512;1.1109;
328.5000;1.3553;1.1184;
328.8000;1.3529;1.1159;
329.1000;1.3521;1.1084;
329.4000;1.3537;1.1033;
329.7000;1.3504;1.1008;
330.0000;1.3512;1.1008;
330.3000;1.3512;1.1008;
330.6000;1.3512;1.1109;
330.9000;1.3504;1.1109;
331.2000;1.3496;1.1134;
331.5000;1.3537;1.1210;
331.8000;1.3512;1.1058;
332.1000;1.3512;1.1134;
332.4000;1.3504;1.1084;
332.7000;1.3512;1.1184;
333.0000;1.3512;1.1235;
333.3000;1.3529;1.1210;
333.6000;1.3496;1.1210;
333.9000;1.3512;1.1109;
334.2000;1.3488;1.1008;
334.5000;1.3512;1.1084;
334.8000;1.3504;1.1134;
335.1000;1.3431;1.1033;
335.4000;1.3504;1.1184;
335.7000;1.3521;1.1184;
336.0000;1.3504;1.1084;
336.3000;1.3553;1.1159;
336.6000;1.3529;1.1184;
336.9000;1.3521;1.1210;
337.2000;1.3537;1.1210;
337.5000;1.3512;1.1084;
337.8000;1.3512;1.1109;
338.1000;1.3512;1.1109;
338.4000;1.3512;1.1159;
338.7000;1.3512;1.1109;
339.0000;1.3529;1.0983;
339.3000;1.3504;1.1084;
339.6000;1.3521;1.1084;
339.9000;1.3504;1.0958;
340.2000;1.3512;1.0882;
340.5000;1.3545;1.0958;
340.8000;1.3521;1.0958;
341.1000;1.3521;1.0958;
341.4000;1.3504;1.0958;
341.7000;1.3521;1.1033;
342.0000;1.3512;1.1008;
342.3000;1.3488;1.0958;
342.6000;1.3529;1.1058;
342.9000;1.3512;1.0983;
343.2000;1.3512;1.1033;
343.5000;1.3529;1.1210;
343.8000;1.3512;1.1159;
344.1000;1.3521;1.1210;
344.4000;1.3569;1.1386;
344.7000;1.3512;1.1184;
345.0000;1.3464;1.1058;
345.3000;1.3496;1.1109;
345.6000;1.3512;1.1210;
345.9000;1.3488;1.1109;
346.2000;1.3521;1.1184;
346.5000;1.3496;1.1159;
346.8000;1.3504;1.1260;
347.1000;1.3504;1.1260;
347.4000;1.3496;1.1159;
347.7000;1.3504;1.1134;
348.0000;1.3504;1.1134;
348.3000;1.3488;1.1033;
348.6000;1.3586;1.1210;
348.9000;1.3537;1.1084;
349.2000;1.3504;1.1033;
349.5000;1.3488;1.0907;
349.8000;1.3496;1.0983;
350.1000;1.3521;1.1134;
350.4000;1.3464;1.0983;
350.7000;1.3521;1.1084;
351.0000;1.3472;1.1033;
351.3000;1.3504;1.1109;
351.6000;1.3512;1.1109;
351.9000;1.3537;1.1109;
352.2000;1.3537;1.1159;
352.5000;1.3521;1.1033;
352.8000;1.3529;1.1008;
353.1000;1.3512;1.0932;
353.4000;1.3504;1.1008;
353.7000;1.3561;1.1210;
354.0000;1.3586;1.1285;
354.3000;1.3529;1.1134;
354.6000;1.3504;1.1084;
354.9000;1.3472;1.1008;
355.2000;1.3521;1.1184;
355.5000;1.3521;1.1109;
355.8000;1.3512;1.1084;
356.1000;1.3504;1.1084;
356.4000;1.3561;1.1210;
356.7000;1.3512;1.1033;
357.0000;1.3521;1.1134;
357.3000;1.3521;1.1134;
357.6000;1.3496;1.1109;
357.9000;1.3504;1.1235;
358.2000;1.3512;1.1285;
358.5000;1.3496;1.1260;
358.8000;1.3504;1.1210;
359.1000;1.3504;1.1260;
359.4000;1.3504;1.1084;
359.7000;1.3512;1.1134;
360.0000;1.3512;1.1184;
360.3000;1.3504;1.1159;
360.6000;1.3512;1.1235;
360.9000;1.3512;1.1285;
361.2000;1.3529;1.1184;
361.5000;1.3529;1.1260;
361.8000;1.3521;1.1260;
362.1000;1.3537;1.1310;
362.4000;1.3529;1.1386;
362.7000;1.3512;1.1361;
363.0000;1.3504;1.1235;
363.3000;1.3521;1.1260;
363.6000;1.3496;1.1109;
363.9000;1.3496;1.1109;
364.2000;1.3504;1.1109;
364.5000;1.3488;1.0983;
364.8000;1.3512;1.1109;
365.1000;1.3521;1.1159;
365.4000;1.3529;1.1210;
365.7000;1.3512;1.1159;
366.0000;1.3521;1.1109;
366.3000;1.3521;1.1109;
366.6000;1.3447;1.0832;
366.9000;1.3504;1.0983;
367.2000;1.3512;1.1058;
367.5000;1.3504;1.0983;
367.8000;1.3504;1.1008;
368.1000;1.3496;1.0983;
368.4000;1.3529;1.1159;
368.7000;1.3512;1.1134;
369.0000;1.3504;1.1159;
369.3000;1.3496;1.1184;
369.6000;1.3496;1.1084;
369.9000;1.3512;1.1210;
370.2000;1.3512;1.1210;
370.5000;1.3512;1.1235;
370.8000;1.3504;1.1235;
371.1000;1.3488;1.1210;
371.4000;1.3512;1.1285;
371.7000;1.3512;1.1285;
372.0000;1.3512;1.1159;
372.3000;1.3512;1.1210;
372.6000;1.3512;1.1260;
372.9000;1.3496;1.1210;
373.2000;1.3504;1.1235;
373.5000;1.3561;1.1335;
373.8000;1.3545;1.1386;
374.1000;1.3521;1.1310;
374.4000;1.3472;1.1210;
374.7000;1.3529;1.1260;
375.0000;1.3512;1.1184;
375.3000;1.3521;1.1210;
375.6000;1.3521;1.1184;
375.9000;1.3504;1.1084;
376.2000;1.3504;1.1109;
376.5000;1.3521;1.1109;
376.8000;1.3521;1.1109;
377.1000;1.3512;1.1084;
377.4000;1.3512;1.1134;
377.7000;1.3504;1.1109;
378.0000;1.3504;1.1134;
378.3000;1.3512;1.1184;
378.6000;1.3504;1.1109;
378.9000;1.3480;1.0958;
379.2000;1.3496;1.0932;
379.5000;1.3512;1.0958;
379.8000;1.3496;1.0958;
380.1000;1.3504;1.1084;
380.4000;1.3496;1.1084;
380.7000;1.3496;1.1084;
381.0000;1.3488;1.1109;
381.3000;1.3521;1.1184;
381.6000;1.3512;1.1210;
381.9000;1.3504;1.1159;
382.2000;1.3512;1.1210;
382.5000;1.3504;1.1310;
382.8000;1.3529;1.1335;
383.1000;1.3496;1.1184;
383.4000;1.3512;1.1184;
383.7000;1.3504;1.1235;
384.0000;1.3521;1.1134;
384.3000;1.3504;1.1109;
384.6000;1.3504;1.1134;
384.9000;1.3504;1.1210;
385.2000;1.3537;1.1335;
385.5000;1.3521;1.1260;
385.8000;1.3512;1.1184;
386.1000;1.3488;1.1159;
386.4000;1.3504;1.1184;
386.7000;1.3521;1.1310;
387.0000;1.3529;1.1335;
387.3000;1.3504;1.1210;
387.6000;1.3504;1.1184;
387.9000;1.3553;1.1310;
388.2000;1.3496;1.1235;
388.5000;1.3496;1.1159;
388.8000;1.3504;1.1184;
389.1000;1.3529;1.1361;
389.4000;1.3529;1.1310;
389.7000;1.3496;1.1134;
390.0000;1.3504;1.1184;
390.3000;1.3512;1.1184;
390.6000;1.3512;1.1159;
390.9000;1.3488;1.1033;
391.2000;1.3512;1.1109;
391.5000;1.3496;1.1084;
391.8000;1.3504;1.1210;
392.1000;1.3512;1.1210;
392.4000;1.3553;1.1210;
392.7000;1.3521;1.1109;
393.0000;1.3545;1.1260;
393.3000;1.3496;1.1235;
393.6000;1.3512;1.1285;
393.9000;1.3529;1.1361;
394.2000;1.3488;1.1235;
394.5000;1.3512;1.1335;
394.8000;1.3504;1.1335;
395.1000;1.3496;1.1260;
395.4000;1.3512;1.1310;
395.7000;1.3504;1.1285;
396.0000;1.3496;1.1335;
396.3000;1.3496;1.1285;
396.6000;1.3464;1.1184;
396.9000;1.3504;1.1235;
397.2000;1.3521;1.1235;
397.5000;1.3488;1.1159;
397.8000;1.3521;1.1184;
398.1000;1.3512;1.1109;
398.4000;1.3529;1.1109;
398.7000;1.3504;1.1058;
399.0000;1.3496;1.1058;
399.3000;1.3504;1.0958;
399.6000;1.3488;1.0983;
399.9000;1.3488;1.0958;
400.2000;1.3496;1.1033;
400.5000;1.3504;1.1134;
400.8000;1.3504;1.1210;
401.1000;1.3496;1.1210;
401.4000;1.3488;1.1210;
401.7000;1.3496;1.1235;
402.0000;1.3496;1.1260;
402.3000;1.3488;1.1260;
402.6000;1.3496;1.1361;
402.9000;1.3496;1.1335;
403.2000;1.3496;1.1411;
403.5000;1.3496;1.1361;
403.8000;1.3496;1.1310;
404.1000;1.3464;1.1235;
404.4000;1.3504;1.1184;
404.7000;1.3512;1.1260;
405.0000;1.3488;1.1210;
405.3000;1.3504;1.1134;
405.6000;1.3496;1.1184;
405.9000;1.3488;1.1033;
406.2000;1.3537;1.1210;
406.5000;1.3504;1.1184;
406.8000;1.3496;1.1109;
407.1000;1.3521;1.0983;
407.4000;1.3496;1.0932;
407.7000;1.3496;1.0983;
408.0000;1.3504;1.0983;
408.3000;1.3504;1.0907;
408.6000;1.3504;1.0958;
408.9000;1.3529;1.0932;
409.2000;1.3504;1.0907;
409.5000;1.3488;1.0807;
409.8000;1.3521;1.0882;
410.1000;1.3504;1.0907;
410.4000;1.3602;1.1159;
410.7000;1.3496;1.0983;
411.0000;1.3496;1.0958;
411.3000;1.3545;1.1109;
411.6000;1.3537;1.1058;
411.9000;1.3488;1.0958;
412.2000;1.3504;1.1058;
412.5000;1.3488;1.1134;
412.8000;1.3488;1.1084;
413.1000;1.3496;1.1210;
413.4000;1.3586;1.1386;
413.7000;1.3504;1.1159;
414.0000;1.3504;1.1134;
414.3000;1.3529;1.1285;
414.6000;1.3504;1.1184;
414.9000;1.3504;1.1235;
415.2000;1.3504;1.1184;
415.5000;1.3496;1.1184;
415.8000;1.3504;1.1084;
416.1000;1.3504;1.1084;
416.4000;1.3569;1.1285;
416.7000;1.3496;1.1184;
417.0000;1.3504;1.1184;
417.3000;1.3504;1.1184;
417.6000;1.3512;1.1184;
417.9000;1.3480;1.1134;
418.2000;1.3496;1.1134;
418.5000;1.3504;1.1184;
418.8000;1.3504;1.1159;
419.1000;1.3512;1.1184;
419.4000;1.3488;1.1184;
419.7000;1.3496;1.1184;
420.0000;1.3504;1.1109;
420.3000;1.3512;1.1058;
420.6000;1.3496;1.0983;
420.9000;1.3496;1.0932;
421.2000;1.3496;1.0958;
421.5000;1.3504;1.1008;
421.8000;1.3488;1.1008;
422.1000;1.3496;1.1033;
422.4000;1.3512;1.1033;
422.7000;1.3431;1.0781;
423.0000;1.3488;1.1033;
423.3000;1.3504;1.1134;
423.6000;1.3512;1.1134;
423.9000;1.3504;1.1184;
424.2000;1.3521;1.1109;
424.5000;1.3521;1.1033;
424.8000;1.3504;1.1008;
425.1000;1.3504;1.0983;
425.4000;1.3488;1.0958;
425.7000;1.3512;1.0983;
426.0000;1.3504;1.0983;
426.3000;1.3496;1.0958;
426.6000;1.3496;1.0882;
426.9000;1.3504;1.0882;
427.2000;1.3545;1.0983;
427.5000;1.3521;1.0958;
427.8000;1.3512;1.0958;
428.1000;1.3496;1.0932;
428.4000;1.3512;1.0932;
428.7000;1.3521;1.0756;
429.0000;1.3496;1.0605;
429.3000;1.3512;1.0605;
429.6000;1.3512;1.0681;
429.9000;1.3504;1.0857;
430.2000;1.3521;1.0932;
430.5000;1.3504;1.0907;
430.8000;1.3504;1.0882;
431.1000;1.3496;1.0781;
431.4000;1.3504;1.0907;
431.7000;1.3512;1.0958;
432.0000;1.3504;1.0958;
432.3000;1.3512;1.1033;
432.6000;1.3504;1.1008;
432.9000;1.3488;1.0983;
433.2000;1.3496;1.1084;
433.5000;1.3488;1.1033;
433.8000;1.3504;1.1008;
434.1000;1.3504;1.1008;
434.4000;1.3504;1.0932;
434.7000;1.3496;1.0932;
435.0000;1.3504;1.0958;
435.3000;1.3504;1.0958;
435.6000;1.3602;1.1235;
435.9000;1.3472;1.0882;
436.2000;1.3504;1.0958;
436.5000;1.3496;1.0882;
436.8000;1.3496;1.0832;
437.1000;1.3496;1.0832;
437.4000;1.3496;1.0781;
437.7000;1.3496;1.0907;
438.0000;1.3488;1.0882;
438.3000;1.3488;1.0907;
438.6000;1.3496;1.0882;
438.9000;1.3512;1.0882;
439.2000;1.3496;1.0958;
439.5000;1.3504;1.0932;
439.8000;1.3512;1.1033;
440.1000;1.3480;1.0932;
440.4000;1.3504;1.1008;
440.7000;1.3504;1.0932;
441.0000;1.3496;1.0832;
441.3000;1.3496;1.0882;
441.6000;1.3464;1.0907;
441.9000;1.3521;1.1058;
442.2000;1.3472;1.0857;
442.5000;1.3512;1.0932;
442.8000;1.3512;1.0932;
443.1000;1.3521;1.0857;
443.4000;1.3512;1.0882;
443.7000;1.3504;1.0857;
444.0000;1.3512;1.0932;
444.3000;1.3521;1.1008;
444.6000;1.3512;1.0983;
444.9000;1.3488;1.1033;
445.2000;1.3472;1.0932;
445.5000;1.3545;1.1084;
445.8000;1.3480;1.0958;
446.1000;1.3496;1.0958;
446.4000;1.3496;1.0932;
446.7000;1.3504;1.0958;
447.0000;1.3496;1.0958;
447.3000;1.3521;1.1033;
447.6000;1.3569;1.1134;
447.9000;1.3496;1.1008;
448.2000;1.3480;1.0983;
448.5000;1.3488;1.0983;
448.8000;1.3496;1.0958;
449.1000;1.3455;1.0882;
449.4000;1.3480;1.0932;
449.7000;1.3455;1.0907;
450.0000;1.3488;1.0983;
450.3000;1.3496;1.0983;
450.6000;1.3496;1.0932;
450.9000;1.3480;1.0857;
451.2000;1.3480;1.0932;
451.5000;1.3496;1.0932;
451.8000;1.3496;1.0832;
452.1000;1.3488;1.0756;
452.4000;1.3488;1.0781;
452.7000;1.3496;1.0756;
453.0000;1.3512;1.0857;
453.3000;1.3496;1.0832;
453.6000;1.3488;1.0882;
453.9000;1.3496;1.0882;
454.2000;1.3553;1.0983;
454.5000;1.3496;1.0958;
454.8000;1.3496;1.0882;
455.1000;1.3496;1.0907;
455.4000;1.3504;1.0958;
455.7000;1.3521;1.0983;
456.0000;1.3480;1.0857;
456.3000;1.3480;1.0857;
456.6000;1.3496;1.0932;
456.9000;1.3480;1.0983;
457.2000;1.3488;1.1058;
457.5000;1.3545;1.1159;
457.8000;1.3488;1.0983;
458.1000;1.3504;1.1084;
458.4000;1.3480;1.1008;
458.7000;1.3480;1.1058;
459.0000;1.3480;1.1058;
459.3000;1.3504;1.1058;
459.6000;1.3488;1.1058;
459.9000;1.3480;1.1008;
460.2000;1.3439;1.0882;
460.5000;1.3521;1.1184;
460.8000;1.3480;1.1184;
461.1000;1.3480;1.1184;
461.4000;1.3480;1.1235;
461.7000;1.3447;1.1184;
462.0000;1.3472;1.1260;
462.3000;1.3472;1.1210;
462.6000;1.3480;1.1235;
462.9000;1.3480;1.1210;
463.2000;1.3480;1.1159;
463.5000;1.3488;1.1109;
463.8000;1.3496;1.1109;
464.1000;1.3464;1.1008;
464.4000;1.3496;1.1084;
464.7000;1.3496;1.1109;
465.0000;1.3488;1.1109;
465.3000;1.3496;1.1033;
465.6000;1.3504;1.1058;
465.9000;1.3521;1.1109;
466.2000;1.3504;1.1058;
466.5000;1.3504;1.1058;
466.8000;1.3504;1.1033;
467.1000;1.3512;1.1134;
467.4000;1.3496;1.1084;
467.7000;1.3529;1.1184;
468.0000;1.3545;1.1260;
468.3000;1.3504;1.1310;
468.6000;1.3488;1.1260;
468.9000;1.3480;1.1235;
469.2000;1.3496;1.1159;
469.5000;1.3504;1.1159;
469.8000;1.3480;1.1084;
470.1000;1.3504;1.1184;
470.4000;1.3488;1.1134;
470.7000;1.3504;1.1134;
471.0000;1.3488;1.1134;
471.3000;1.3504;1.1109;
471.6000;1.3480;1.1109;
471.9000;1.3496;1.1084;
472.2000;1.3480;1.1008;
472.5000;1.3496;1.1033;
472.8000;1.3488;1.1033;
473.1000;1.3496;1.1033;
473.4000;1.3504;1.1033;
473.7000;1.3496;1.1058;
474.0000;1.3464;1.0958;
474.3000;1.3488;1.1008;
474.6000;1.3480;1.1033;
474.9000;1.3529;1.1109;
475.2000;1.3504;1.1058;
475.5000;1.3488;1.0983;
475.8000;1.3480;1.0907;
476.1000;1.3504;1.0983;
476.4000;1.3472;1.0958;
476.7000;1.3480;1.0958;
477.0000;1.3504;1.1008;
477.3000;1.3496;1.0983;
477.6000;1.3472;1.0958;
477.9000;1.3480;1.1033;
478.2000;1.3496;1.0958;
478.5000;1.3496;1.0932;
478.8000;1.3439;1.0857;
479.1000;1.3488;1.0932;
479.4000;1.3472;1.0882;
479.7000;1.3480;1.0907;
480.0000;1.3488;1.0857;
480.3000;1.3561;1.1084;
480.6000;1.3488;1.0932;
480.9000;1.3488;1.0882;
481.2000;1.3504;1.0857;
481.5000;1.3529;1.0882;
481.8000;1.3504;1.0832;
482.1000;1.3496;1.0907;
482.4000;1.3464;1.0781;
482.7000;1.3488;1.0756;
483.0000;1.3480;1.0681;
483.3000;1.3431;1.0580;
483.6000;1.3537;1.0781;
483.9000;1.3480;1.0731;
484.2000;1.3480;1.0731;
484.5000;1.3480;1.0781;
484.8000;1.3439;1.0756;
485.1000;1.3488;1.0781;
485.4000;1.3504;1.0807;
485.7000;1.3496;1.0756;
486.0000;1.3504;1.0781;
486.3000;1.3496;1.0706;
486.6000;1.3480;1.0681;
486.9000;1.3480;1.0655;
487.2000;1.3496;1.0731;
487.5000;1.3521;1.0857;
487.8000;1.3464;1.0857;
488.1000;1.3496;1.0932;
488.4000;1.3545;1.1008;
488.7000;1.3496;1.0857;
489.0000;1.3512;1.0932;
489.3000;1.3488;1.0857;
489.6000;1.3496;1.1008;
489.9000;1.3472;1.1033;
490.2000;1.3415;1.0882;
490.5000;1.3455;1.1008;
490.8000;1.3496;1.0958;
491.1000;1.3496;1.1008;
491.4000;1.3504;1.1109;
491.7000;1.3480;1.1134;
492.0000;1.3464;1.1084;
492.3000;1.3488;1.1184;
492.6000;1.3480;1.1184;
492.9000;1.3464;1.1235;
493.2000;1.3472;1.1210;
493.5000;1.3464;1.1159;
493.8000;1.3472;1.1159;
494.1000;1.3472;1.1184;
494.4000;1.3496;1.1210;
494.7000;1.3488;1.1210;
495.0000;1.3561;1.1386;
495.3000;1.3521;1.1285;
495.6000;1.3480;1.1159;
495.9000;1.3472;1.1134;
496.2000;1.3496;1.1159;
496.5000;1.3504;1.1235;
496.8000;1.3496;1.1260;
497.1000;1.3472;1.1285;
497.4000;1.3504;1.1285;
497.7000;1.3488;1.1235;
498.0000;1.3521;1.1235;
498.3000;1.3472;1.1184;
498.6000;1.3472;1.1159;
498.9000;1.3464;1.1134;
499.2000;1.3464;1.1159;
499.5000;1.3480;1.1184;
499.8000;1.3472;1.1210;
500.1000;1.3464;1.1134;
500.4000;1.3472;1.1109;
500.7000;1.3480;1.1058;
501.0000;1.3521;1.1134;
501.3000;1.3488;1.0983;
501.6000;1.3496;1.1033;
501.9000;1.3488;1.0932;
502.2000;1.3488;1.0932;
502.5000;1.3512;1.1033;
502.8000;1.3480;1.0958;
503.1000;1.3488;1.0907;
503.4000;1.3496;1.1008;
503.7000;1.3480;1.0882;
504.0000;1.3488;1.0857;
504.3000;1.3488;1.0857;
504.6000;1.3496;1.0882;
504.9000;1.3464;1.0832;
505.2000;1.3464;1.0832;
505.5000;1.3488;1.0882;
505.8000;1.3504;1.1008;
506.1000;1.3480;1.0983;
506.4000;1.3447;1.0958;
506.7000;1.3496;1.1134;
507.0000;1.3521;1.1184;
507.3000;1.3447;1.0882;
507.6000;1.3480;1.0983;
507.9000;1.3488;1.1033;
508.2000;1.3472;1.0958;
508.5000;1.3472;1.0958;
508.8000;1.3423;1.0857;
509.1000;1.3561;1.1134;
509.4000;1.3480;1.0932;
509.7000;1.3447;1.0832;
510.0000;1.3488;1.0932;
510.3000;1.3504;1.0983;
510.6000;1.3488;1.0958;
510.9000;1.3496;1.0958;
511.2000;1.3480;1.0983;
511.5000;1.3496;1.1058;
511.8000;1.3512;1.1084;
512.1000;1.3529;1.1184;
512.4000;1.3480;1.1084;
512.7000;1.3488;1.1134;
513.0000;1.3488;1.1084;
513.3000;1.3512;1.1134;
513.6000;1.3504;1.1109;
513.9000;1.3488;1.1084;
514.2000;1.3472;1.1033;
514.5000;1.3496;1.1134;
514.8000;1.3480;1.1159;
515.1000;1.3488;1.1260;
515.4000;1.3496;1.1184;
515.7000;1.3488;1.1134;
516.0000;1.3447;1.1084;
516.3000;1.3488;1.1235;
516.6000;1.3447;1.1109;
516.9000;1.3496;1.1310;
517.2000;1.3472;1.1210;
517.5000;1.3480;1.1335;
517.8000;1.3464;1.1260;
518.1000;1.3464;1.1235;
518.4000;1.3464;1.1235;
518.7000;1.3464;1.1184;
519.0000;1.3455;1.1109;
519.3000;1.3488;1.1210;
519.6000;1.3472;1.1210;
519.9000;1.3464;1.1184;
520.2000;1.3488;1.1235;
520.5000;1.3496;1.1260;
520.8000;1.3512;1.1260;
521.1000;1.3464;1.1159;
521.4000;1.3480;1.1210;
521.7000;1.3464;1.1159;
522.0000;1.3504;1.1260;
522.3000;1.3488;1.1159;
522.6000;1.3488;1.1184;
522.9000;1.3504;1.1285;
523.2000;1.3512;1.1335;
523.5000;1.3480;1.1285;
523.8000;1.3488;1.1285;
524.1000;1.3496;1.1210;
524.4000;1.3488;1.1159;
524.7000;1.3496;1.1260;
525.0000;1.3472;1.1184;
525.3000;1.3488;1.1184;
525.6000;1.3488;1.1184;
525.9000;1.3455;1.1109;
526.2000;1.3480;1.1210;
526.5000;1.3504;1.1210;
526.8000;1.3480;1.1134;
527.1000;1.3488;1.1084;
527.4000;1.3488;1.1008;
527.7000;1.3464;1.0857;
528.0000;1.3496;1.0958;
528.3000;1.3480;1.0932;
528.6000;1.3545;1.1109;
528.9000;1.3480;1.0907;
529.2000;1.3472;1.0807;
529.5000;1.3488;1.0857;
529.8000;1.3480;1.0882;
530.1000;1.3472;1.0932;
530.4000;1.3455;1.0932;
530.7000;1.3488;1.0983;
531.0000;1.3480;1.1058;
531.3000;1.3472;1.1084;
531.6000;1.3480;1.1058;
531.9000;1.3496;1.1235;
532.2000;1.3496;1.1210;
532.5000;1.3480;1.1184;
532.8000;1.3472;1.1134;
533.1000;1.3472;1.1159;
533.4000;1.3472;1.1109;
533.7000;1.3480;1.1159;
534.0000;1.3480;1.1159;
534.3000;1.3472;1.1109;
534.6000;1.3488;1.1159;
534.9000;1.3504;1.1159;
535.2000;1.3472;1.1058;
535.5000;1.3472;1.1033;
535.8000;1.3480;1.1109;
536.1000;1.3488;1.1235;
536.4000;1.3472;1.1159;
536.7000;1.3480;1.1109;
537.0000;1.3464;1.1084;
537.3000;1.3488;1.1134;
537.6000;1.3480;1.1134;
537.9000;1.3472;1.1184;
538.2000;1.3472;1.1184;
538.5000;1.3488;1.1310;
538.8000;1.3472;1.1361;
539.1000;1.3464;1.1285;
539.4000;1.3464;1.1184;
539.7000;1.3488;1.1235;
540.0000;1.3537;1.1361;
540.3000;1.3447;1.1134;
540.6000;1.3455;1.1109;
540.9000;1.3480;1.1159;
541.2000;1.3488;1.1134;
541.5000;1.3488;1.1109;
541.8000;1.3488;1.1084;
542.1000;1.3464;1.1058;
542.4000;1.3504;1.1058;
542.7000;1.3496;1.1033;
543.0000;1.3504;1.1058;
543.3000;1.3496;1.1058;
543.6000;1.3496;1.1109;
543.9000;1.3480;1.1058;
544.2000;1.3472;1.0958;
544.5000;1.3488;1.0882;
544.8000;1.3472;1.0907;
545.1000;1.3488;1.0983;
545.4000;1.3504;1.1058;
545.7000;1.3480;1.0932;
546.0000;1.3480;1.0932;
546.3000;1.3431;1.0882;
546.6000;1.3480;1.1033;
546.9000;1.3488;1.0983;
547.2000;1.3504;1.1033;
547.5000;1.3521;1.1058;
547.8000;1.3496;1.1033;
548.1000;1.3464;1.1109;
548.4000;1.3480;1.1184;
548.7000;1.3464;1.1134;
549.0000;1.3472;1.1084;
549.3000;1.3464;1.1084;
549.6000;1.3472;1.1134;
549.9000;1.3472;1.1134;
550.2000;1.3496;1.1109;
550.5000;1.3480;1.1084;
550.8000;1.3464;1.0958;
551.1000;1.3496;1.1159;
551.4000;1.3480;1.1159;
551.7000;1.3480;1.1134;
552.0000;1.3472;1.1184;
552.3000;1.3480;1.1210;
552.6000;1.3480;1.1260;
552.9000;1.3488;1.1361;
553.2000;1.3472;1.1310;
553.5000;1.3455;1.1310;
553.8000;1.3480;1.1386;
554.1000;1.3455;1.1335;
554.4000;1.3464;1.1285;
554.7000;1.3455;1.1210;
555.0000;1.3480;1.1184;
555.3000;1.3480;1.1134;
555.6000;1.3464;1.1109;
555.9000;1.3439;1.0958;
556.2000;1.3472;1.1084;
556.5000;1.3480;1.1134;
556.8000;1.3464;1.1159;
557.1000;1.3488;1.1210;
557.4000;1.3455;1.1184;
557.7000;1.3464;1.1184;
558.0000;1.3447;1.1134;
558.3000;1.3472;1.1159;
558.6000;1.3455;1.1134;
558.9000;1.3480;1.1184;
559.2000;1.3480;1.1134;
559.5000;1.3480;1.1159;
559.8000;1.3455;1.1084;
560.1000;1.3447;1.1084;
560.4000;1.3472;1.1109;
560.7000;1.3472;1.1058;
561.0000;1.3464;1.1033;
561.3000;1.3472;1.1109;
561.6000;1.3472;1.1084;
561.9000;1.3553;1.1361;
562.2000;1.3480;1.1109;
562.5000;1.3472;1.1109;
562.8000;1.3488;1.1159;
563.1000;1.3472;1.1159;
563.4000;1.3464;1.1134;
563.7000;1.3472;1.1134;
564.0000;1.3472;1.1134;
564.3000;1.3464;1.1109;
564.6000;1.3464;1.1159;
564.9000;1.3472;1.1260;
565.2000;1.3464;1.1260;
565.5000;1.3488;1.1260;
565.8000;1.3447;1.1260;
566.1000;1.3464;1.1285;
566.4000;1.3464;1.1310;
566.7000;1.3464;1.1386;
567.0000;1.3464;1.1361;
567.3000;1.3472;1.1310;
567.6000;1.3464;1.1310;
567.9000;1.3488;1.1335;
568.2000;1.3488;1.1361;
568.5000;1.3480;1.1285;
568.8000;1.3496;1.1335;
569.1000;1.3488;1.1285;
569.4000;1.3472;1.1335;
569.7000;1.3488;1.1285;
570.0000;1.3464;1.1159;
570.3000;1.3472;1.1184;
570.6000;1.3464;1.1084;
570.9000;1.3464;1.1058;
571.2000;1.3472;1.1134;
571.5000;1.3464;1.1184;
571.8000;1.3472;1.1184;
572.1000;1.3488;1.1285;
572.4000;1.3480;1.1260;
572.7000;1.3464;1.1184;
573.0000;1.3464;1.1184;
573.3000;1.3464;1.1210;
573.6000;1.3464;1.1310;
573.9000;1.3488;1.1512;
574.2000;1.3472;1.1335;
574.5000;1.3496;1.1411;
574.8000;1.3488;1.1310;
575.1000;1.3472;1.1184;
575.4000;1.3439;1.1084;
575.7000;1.3480;1.1084;
576.0000;1.3464;1.1033;
576.3000;1.3496;1.0983;
576.6000;1.3472;1.0932;
576.9000;1.3496;1.0983;
577.2000;1.3488;1.1033;
577.5000;1.3472;1.1084;
577.8000;1.3472;1.1159;
578.1000;1.3472;1.1285;
578.4000;1.3480;1.1335;
578.7000;1.3464;1.1235;
579.0000;1.3529;1.1461;
579.3000;1.3480;1.1361;
579.6000;1.3496;1.1386;
579.9000;1.3472;1.1310;
580.2000;1.3464;1.1260;
580.5000;1.3398;1.1058;
580.8000;1.3472;1.1210;
581.1000;1.3464;1.1134;
581.4000;1.3480;1.1109;
581.7000;1.3488;1.1184;
582.0000;1.3464;1.1134;
582.3000;1.3480;1.1184;
582.6000;1.3447;1.1210;
582.9000;1.3472;1.1285;
583.2000;1.3447;1.1235;
583.5000;1.3496;1.1159;
583.8000;1.3455;1.1008;
584.1000;1.3464;1.1033;
584.4000;1.3480;1.1109;
584.7000;1.3472;1.1159;
585.0000;1.3472;1.1109;
585.3000;1.3464;1.1084;
585.6000;1.3488;1.1084;
585.9000;1.3464;1.1084;
586.2000;1.3464;1.0983;
586.5000;1.3464;1.1084;
586.8000;1.3464;1.1235;
587.1000;1.3472;1.1260;
587.4000;1.3472;1.1260;
587.7000;1.3455;1.1235;
588.0000;1.3464;1.1159;
588.3000;1.3488;1.1033;
588.6000;1.3472;1.0983;
588.9000;1.3472;1.0983;
589.2000;1.3488;1.1033;
589.5000;1.3488;1.1084;
589.8000;1.3464;1.0882;
590.1000;1.3480;1.0882;
590.4000;1.3439;1.0907;
590.7000;1.3472;1.1033;
591.0000;1.3464;1.1058;
591.3000;1.3464;1.1008;
591.6000;1.3455;1.0958;
591.9000;1.3472;1.1084;
592.2000;1.3472;1.1084;
592.5000;1.3464;1.1058;
592.8000;1.3464;1.1058;
593.1000;1.3472;1.1109;
593.4000;1.3472;1.1210;
593.7000;1.3472;1.1285;
594.0000;1.3447;1.1210;
594.3000;1.3472;1.1134;
594.6000;1.3472;1.1134;
594.9000;1.3464;1.1184;
595.2000;1.3431;1.1109;
595.5000;1.3464;1.1184;
595.8000;1.3472;1.1210;
596.1000;1.3488;1.1184;
596.4000;1.3431;1.1109;
596.7000;1.3480;1.1210;
597.0000;1.3455;1.1134;
597.3000;1.3480;1.1134;
597.6000;1.3464;1.1210;
597.9000;1.3439;1.1084;
598.2000;1.3439;1.1084;
598.5000;1.3464;1.1084;
598.8000;1.3455;1.0932;
599.1000;1.3464;1.0958;
599.4000;1.3480;1.1033;
599.7000;1.3472;1.0958;
600.0000;1.3464;1.0932;
600.3000;1.3521;1.0807;
600.6000;1.3488;1.0630;
600.9000;1.3415;1.0378;
601.2000;1.3293;1.0202;
601.5000;1.3228;1.0126;
601.8000;1.3203;1.0227;
602.1000;1.3024;1.0051;
602.4000;1.2894;0.9849;
602.7000;1.2796;0.9749;
603.0000;1.2666;0.9471;
603.3000;1.2560;0.9371;
603.6000;1.2487;0.9320;
603.9000;1.2381;0.9220;
604.2000;1.2308;0.9169;
604.5000;1.2202;0.9043;
604.8000;1.2129;0.9068;
605.1000;1.2039;0.9043;
605.4000;1.1966;0.8968;
605.7000;1.1901;0.9018;
606.0000;1.1819;0.8917;
606.3000;1.1762;0.8917;
606.6000;1.1673;0.8766;
606.9000;1.1656;0.8867;
607.2000;1.1559;0.8716;
607.5000;1.1510;0.8741;
607.8000;1.1412;0.8665;
608.1000;1.1372;0.8665;
608.4000;1.1315;0.8590;
608.7000;1.1347;0.8691;
609.0000;1.1217;0.8489;
609.3000;1.1176;0.8464;
609.6000;1.1127;0.8338;
609.9000;1.1054;0.8262;
610.2000;1.1013;0.8313;
610.5000;1.0965;0.8212;
610.8000;1.0908;0.8086;
611.1000;1.0859;0.8010;
611.4000;1.0826;0.8061;
611.7000;1.0769;0.8061;
612.0000;1.0712;0.8010;
612.3000;1.0704;0.8036;
612.6000;1.0663;0.8086;
612.9000;1.0639;0.8111;
613.2000;1.0566;0.8086;
613.5000;1.0533;0.8136;
613.8000;1.0492;0.8136;
614.1000;1.0468;0.8136;
614.4000;1.0411;0.8036;
614.7000;1.0387;0.8086;
615.0000;1.0330;0.8061;
615.3000;1.0256;0.7985;
615.6000;1.0256;0.8086;
615.9000;1.0216;0.8111;
616.2000;1.0191;0.8187;
616.5000;1.0167;0.8237;
616.8000;1.0126;0.8212;
617.1000;1.0159;0.8338;
617.4000;1.0053;0.8086;
617.7000;1.0028;0.8086;
618.0000;0.9980;0.8086;
618.3000;0.9963;0.8136;
618.6000;0.9955;0.8162;
618.9000;0.9955;0.8187;
619.2000;0.9890;0.8010;
619.5000;0.9841;0.7859;
619.8000;0.9817;0.7910;
620.1000;0.9784;0.7935;
620.4000;0.9752;0.7935;
620.7000;0.9703;0.7910;
621.0000;0.9695;0.8010;
621.3000;0.9695;0.8061;
621.6000;0.9630;0.7884;
621.9000;0.9556;0.7759;
622.2000;0.9589;0.7834;
622.5000;0.9556;0.7784;
622.8000;0.9524;0.7759;
623.1000;0.9516;0.7759;
623.4000;0.9508;0.7708;
623.7000;0.9483;0.7784;
624.0000;0.9451;0.7708;
624.3000;0.9442;0.7759;
624.6000;0.9377;0.7683;
624.9000;0.9361;0.7733;
625.2000;0.9426;0.8010;
625.5000;0.9345;0.7759;
625.8000;0.9337;0.7759;
626.1000;0.9296;0.7759;
626.4000;0.9255;0.7658;
626.7000;0.9280;0.7733;
627.0000;0.9247;0.7633;
627.3000;0.9214;0.7532;
627.6000;0.9198;0.7456;
627.9000;0.9166;0.7355;
628.2000;0.9158;0.7355;
628.5000;0.9133;0.7305;
628.8000;0.9133;0.7330;
629.1000;0.9125;0.7355;
629.4000;0.9068;0.7280;
629.7000;0.9060;0.7305;
630.0000;0.9052;0.7355;
630.3000;0.9035;0.7431;
630.6000;0.9027;0.7481;
630.9000;0.8995;0.7381;
631.2000;0.8978;0.7305;
631.5000;0.8987;0.7381;
631.8000;0.8938;0.7305;
632.1000;0.8930;0.7330;
632.4000;0.8889;0.7305;
632.7000;0.8807;0.7104;
633.0000;0.8889;0.7330;
633.3000;0.8873;0.7330;
633.6000;0.8840;0.7381;
633.9000;0.8807;0.7406;
634.2000;0.8807;0.7431;
634.5000;0.8799;0.7355;
634.8000;0.8775;0.7305;
635.1000;0.8767;0.7230;
635.4000;0.8775;0.7280;
635.7000;0.8751;0.7305;
636.0000;0.8751;0.7355;
636.3000;0.8694;0.7330;
636.6000;0.8702;0.7431;
636.9000;0.8751;0.7658;
637.2000;0.8669;0.7557;
637.5000;0.8653;0.7507;
637.8000;0.8637;0.7582;
638.1000;0.8628;0.7582;
638.4000;0.8612;0.7532;
638.7000;0.8604;0.7456;
639.0000;0.8588;0.7507;
639.3000;0.8539;0.7431;
639.6000;0.8571;0.7633;
639.9000;0.8563;0.7607;
640.2000;0.8547;0.7658;
640.5000;0.8539;0.7733;
640.8000;0.8514;0.7607;
641.1000;0.8490;0.7507;
641.4000;0.8490;0.7481;
641.7000;0.8498;0.7481;
642.0000;0.8474;0.7456;
642.3000;0.8474;0.7355;
642.6000;0.8457;0.7305;
642.9000;0.8433;0.7179;
643.2000;0.8417;0.7305;
643.5000;0.8417;0.7381;
643.8000;0.8409;0.7481;
644.1000;0.8409;0.7507;
644.4000;0.8400;0.7507;
644.7000;0.8384;0.7481;
645.0000;0.8368;0.7582;
645.3000;0.8344;0.7532;
645.6000;0.8392;0.7658;
645.9000;0.8327;0.7431;
646.2000;0.8319;0.7431;
646.5000;0.8303;0.7330;
646.8000;0.8287;0.7305;
647.1000;0.8287;0.7305;
647.4000;0.8278;0.7280;
647.7000;0.8270;0.7255;
648.0000;0.8254;0.7305;
648.3000;0.8278;0.7305;
648.6000;0.8238;0.7179;
648.9000;0.8238;0.7179;
649.2000;0.8230;0.7230;
649.5000;0.8205;0.7230;
649.8000;0.8213;0.7280;
650.1000;0.8181;0.7204;
650.4000;0.8197;0.7255;
650.7000;0.8181;0.7104;
651.0000;0.8181;0.7053;
651.3000;0.8148;0.6952;
651.6000;0.8140;0.6978;
651.9000;0.8197;0.7053;
652.2000;0.8140;0.7028;
652.5000;0.8124;0.7053;
652.8000;0.8124;0.7028;
653.1000;0.8107;0.7078;
653.4000;0.8124;0.7078;
653.7000;0.8156;0.7204;
654.0000;0.8042;0.6877;
654.3000;0.8083;0.7028;
654.6000;0.8050;0.7053;
654.9000;0.8067;0.7028;
655.2000;0.8002;0.6877;
655.5000;0.8042;0.6952;
655.8000;0.8042;0.6978;
656.1000;0.8042;0.7003;
656.4000;0.8002;0.6877;
656.7000;0.7961;0.6877;
657.0000;0.8002;0.7003;
657.3000;0.7977;0.6952;
657.6000;0.7993;0.7078;
657.9000;0.7961;0.6978;
658.2000;0.7969;0.7028;
658.5000;0.7969;0.7179;
658.8000;0.7993;0.7255;
659.1000;0.7961;0.7280;
659.4000;0.7945;0.7230;
659.7000;0.7937;0.7104;
660.0000;0.7928;0.7104;
660.3000;0.7945;0.7204;
660.6000;0.7920;0.7280;
660.9000;0.7904;0.7230;
661.2000;0.7896;0.7179;
661.5000;0.7896;0.7104;
661.8000;0.7896;0.7028;
662.1000;0.7888;0.7028;
662.4000;0.7880;0.7154;
662.7000;0.7871;0.7154;
663.0000;0.7904;0.7230;
663.3000;0.7880;0.7230;
663.6000;0.7871;0.7330;
663.9000;0.7880;0.7381;
664.2000;0.7855;0.7406;
664.5000;0.7855;0.7355;
664.8000;0.7847;0.7355;
665.1000;0.7847;0.7280;
665.4000;0.7814;0.7255;
665.7000;0.7814;0.7305;
666.0000;0.7814;0.7330;
666.3000;0.7798;0.7255;
666.6000;0.7774;0.7204;
666.9000;0.7798;0.7330;
667.2000;0.7766;0.7179;
667.5000;0.7798;0.7230;
667.8000;0.7749;0.7053;
668.1000;0.7757;0.7078;
668.4000;0.7741;0.7053;
668.7000;0.7757;0.7129;
669.0000;0.7749;0.7204;
669.3000;0.7741;0.7129;
669.6000;0.7749;0.7154;
669.9000;0.7749;0.7154;
670.2000;0.7741;0.7154;
670.5000;0.7652;0.6927;
670.8000;0.7725;0.7154;
671.1000;0.7725;0.7179;
671.4000;0.7725;0.7154;
671.7000;0.7709;0.7078;
672.0000;0.7700;0.7028;
672.3000;0.7692;0.7129;
672.6000;0.7717;0.7305;
672.9000;0.7684;0.7230;
673.2000;0.7676;0.7204;
673.5000;0.7684;0.7280;
673.8000;0.7684;0.7230;
674.1000;0.7668;0.7204;
674.4000;0.7676;0.7154;
674.7000;0.7660;0.7129;
675.0000;0.7668;0.7053;
675.3000;0.7668;0.7129;
675.6000;0.7684;0.7154;
675.9000;0.7643;0.7078;
676.2000;0.7627;0.7028;
676.5000;0.7619;0.7028;
676.8000;0.7611;0.7003;
677.1000;0.7586;0.6902;
677.4000;0.7619;0.7104;
677.7000;0.7570;0.7028;
678.0000;0.7530;0.6852;
678.3000;0.7586;0.7028;
678.6000;0.7586;0.7078;
678.9000;0.7595;0.7053;
679.2000;0.7562;0.7104;
679.5000;0.7586;0.7204;
679.8000;0.7570;0.7230;
680.1000;0.7586;0.7204;
680.4000;0.7554;0.7104;
680.7000;0.7554;0.7078;
681.0000;0.7546;0.7154;
681.3000;0.7554;0.7179;
681.6000;0.7513;0.7104;
681.9000;0.7562;0.7154;
682.2000;0.7538;0.7078;
682.5000;0.7538;0.7003;
682.8000;0.7538;0.7003;
683.1000;0.7538;0.7053;
683.4000;0.7521;0.6978;
683.7000;0.7530;0.7028;
684.0000;0.7521;0.7078;
684.3000;0.7521;0.7129;
684.6000;0.7530;0.7154;
684.9000;0.7546;0.7330;
685.2000;0.7505;0.7305;
685.5000;0.7513;0.7330;
685.8000;0.7505;0.7305;
686.1000;0.7505;0.7330;
686.4000;0.7489;0.7280;
686.7000;0.7505;0.7255;
687.0000;0.7505;0.7204;
687.3000;0.7481;0.7154;
687.6000;0.7473;0.7204;
687.9000;0.7489;0.7204;
688.2000;0.7464;0.7230;
688.5000;0.7448;0.7230;
688.8000;0.7456;0.7330;
689.1000;0.7481;0.7355;
689.4000;0.7473;0.7330;
689.7000;0.7456;0.7280;
690.0000;0.7505;0.7431;
690.3000;0.7456;0.7305;
690.6000;0.7473;0.7280;
690.9000;0.7424;0.7003;
691.2000;0.7432;0.7104;
691.5000;0.7432;0.7053;
691.8000;0.7407;0.6978;
692.1000;0.7407;0.6952;
692.4000;0.7432;0.7028;
692.7000;0.7399;0.6927;
693.0000;0.7407;0.7028;
693.3000;0.7407;0.6927;
693.6000;0.7359;0.6852;
693.9000;0.7383;0.6927;
694.2000;0.7375;0.6852;
694.5000;0.7359;0.6826;
694.8000;0.7432;0.7028;
695.1000;0.7383;0.6902;
695.4000;0.7342;0.6877;
695.7000;0.7359;0.6852;
696.0000;0.7383;0.6978;
696.3000;0.7391;0.7078;
696.6000;0.7375;0.7053;
696.9000;0.7440;0.7230;
697.2000;0.7383;0.7104;
697.5000;0.7342;0.7053;
697.8000;0.7375;0.7179;
698.1000;0.7350;0.7154;
698.4000;0.7367;0.7230;
698.7000;0.7350;0.7078;
699.0000;0.7350;0.7204;
699.3000;0.7350;0.7129;
699.6000;0.7367;0.7129;
699.9000;0.7350;0.7078;
700.2000;0.7342;0.7078;
700.5000;0.7342;0.7078;
700.8000;0.7342;0.7104;
701.1000;0.7350;0.7078;
701.4000;0.7342;0.7053;
701.7000;0.7334;0.7104;
702.0000;0.7326;0.7179;
702.3000;0.7326;0.7028;
702.6000;0.7310;0.7053;
702.9000;0.7310;0.7028;
703.2000;0.7318;0.7104;
703.5000;0.7318;0.6978;
703.8000;0.7334;0.7078;
704.1000;0.7310;0.7003;
704.4000;0.7318;0.7028;
704.7000;0.7285;0.7078;
705.0000;0.7302;0.7179;
705.3000;0.7302;0.7204;
705.6000;0.7359;0.7330;
705.9000;0.7293;0.7230;
706.2000;0.7269;0.7204;
706.5000;0.7269;0.7154;
706.8000;0.7269;0.7078;
707.1000;0.7245;0.7003;
707.4000;0.7302;0.7078;
707.7000;0.7269;0.7053;
708.0000;0.7277;0.7104;
708.3000;0.7285;0.7104;
708.6000;0.7253;0.7003;
708.9000;0.7269;0.7129;
709.2000;0.7253;0.7053;
709.5000;0.7285;0.7305;
709.8000;0.7245;0.7179;
710.1000;0.7188;0.6952;
710.4000;0.7236;0.6978;
710.7000;0.7293;0.7179;
711.0000;0.7253;0.7028;
711.3000;0.7212;0.7028;
711.6000;0.7253;0.7179;
711.9000;0.7277;0.7406;
712.2000;0.7236;0.7280;
712.5000;0.7253;0.7280;
712.8000;0.7228;0.7204;
713.1000;0.7236;0.7255;
713.4000;0.7269;0.7280;
713.7000;0.7228;0.7204;
714.0000;0.7212;0.7154;
714.3000;0.7204;0.7104;
714.6000;0.7253;0.7280;
714.9000;0.7204;0.7154;
715.2000;0.7228;0.7280;
715.5000;0.7220;0.7204;
715.8000;0.7220;0.7204;
716.1000;0.7212;0.7255;
716.4000;0.7196;0.7280;
716.7000;0.7204;0.7255;
717.0000;0.7188;0.7305;
717.3000;0.7188;0.7305;
717.6000;0.7228;0.7406;
717.9000;0.7196;0.7330;
718.2000;0.7196;0.7456;
718.5000;0.7236;0.7607;
718.8000;0.7188;0.7481;
719.1000;0.7171;0.7456;
719.4000;0.7179;0.7481;
719.7000;0.7179;0.7507;
720.0000;0.7179;0.7456;
720.3000;0.7188;0.7456;
720.6000;0.7179;0.7406;
720.9000;0.7139;0.7330;
721.2000;0.7196;0.7431;
721.5000;0.7188;0.7355;
721.8000;0.7179;0.7355;
722.1000;0.7196;0.7406;
722.4000;0.7179;0.7431;
722.7000;0.7163;0.7431;
723.0000;0.7163;0.7507;
723.3000;0.7163;0.7507;
723.6000;0.7171;0.7481;
723.9000;0.7163;0.7431;
724.2000;0.7155;0.7355;
724.5000;0.7147;0.7330;
724.8000;0.7139;0.7355;
725.1000;0.7155;0.7355;
725.4000;0.7163;0.7330;
725.7000;0.7147;0.7280;
726.0000;0.7155;0.7280;
726.3000;0.7147;0.7179;
726.6000;0.7147;0.7204;
726.9000;0.7139;0.7179;
727.2000;0.7147;0.7179;
727.5000;0.7123;0.7078;
727.8000;0.7139;0.7179;
728.1000;0.7098;0.7230;
728.4000;0.7131;0.7330;
728.7000;0.7139;0.7381;
729.0000;0.7123;0.7406;
729.3000;0.7090;0.7381;
729.6000;0.7123;0.7406;
729.9000;0.7114;0.7330;
730.2000;0.7123;0.7305;
730.5000;0.7106;0.7280;
730.8000;0.7114;0.7305;
731.1000;0.7188;0.7507;
731.4000;0.7123;0.7431;
731.7000;0.7090;0.7481;
732.0000;0.7123;0.7557;
732.3000;0.7106;0.7507;
732.6000;0.7123;0.7456;
732.9000;0.7131;0.7456;
733.2000;0.7106;0.7456;
733.5000;0.7114;0.7481;
733.8000;0.7098;0.7481;
734.1000;0.7171;0.7633;
734.4000;0.7106;0.7507;
734.7000;0.7123;0.7456;
735.0000;0.7106;0.7280;
735.3000;0.7098;0.7305;
735.6000;0.7114;0.7280;
735.9000;0.7098;0.7305;
736.2000;0.7098;0.7255;
736.5000;0.7106;0.7230;
736.8000;0.7106;0.7280;
737.1000;0.7098;0.7255;
737.4000;0.7090;0.7255;
737.7000;0.7114;0.7355;
738.0000;0.7098;0.7355;
738.3000;0.7082;0.7330;
738.6000;0.7114;0.7431;
738.9000;0.7090;0.7355;
739.2000;0.7082;0.7305;
739.5000;0.7074;0.7230;
739.8000;0.7074;0.7255;
740.1000;0.7090;0.7230;
740.4000;0.7074;0.7255;
740.7000;0.7074;0.7280;
741.0000;0.7066;0.7330;
741.3000;0.7066;0.7330;
741.6000;0.7057;0.7355;
741.9000;0.7066;0.7330;
742.2000;0.7057;0.7255;
742.5000;0.7066;0.7255;
742.8000;0.7082;0.7280;
743.1000;0.7066;0.7330;
743.4000;0.7049;0.7305;
743.7000;0.7041;0.7204;
744.0000;0.7049;0.7230;
744.3000;0.7049;0.7204;
744.6000;0.7074;0.7381;
744.9000;0.7041;0.7280;
745.2000;0.7066;0.7255;
745.5000;0.7049;0.7305;
745.8000;0.7049;0.7305;
746.1000;0.7049;0.7381;
746.4000;0.7041;0.7305;
746.7000;0.7041;0.7431;
747.0000;0.6992;0.7305;
747.3000;0.7074;0.7456;
747.6000;0.7057;0.7431;
747.9000;0.7049;0.7406;
748.2000;0.7017;0.7355;
748.5000;0.7033;0.7431;
748.8000;0.7009;0.7406;
749.1000;0.7025;0.7481;
749.4000;0.7033;0.7481;
749.7000;0.7009;0.7456;
750.0000;0.7017;0.7456;
750.3000;0.7033;0.7381;
750.6000;0.7041;0.7507;
750.9000;0.7033;0.7481;
751.2000;0.7017;0.7481;
751.5000;0.7025;0.7456;
751.8000;0.7025;0.7456;
752.1000;0.7017;0.7507;
752.4000;0.7009;0.7406;
752.7000;0.7025;0.7456;
753.0000;0.7033;0.7456;
753.3000;0.7025;0.7481;
753.6000;0.6992;0.7456;
753.9000;0.7041;0.7532;
754.2000;0.7009;0.7532;
754.5000;0.7000;0.7507;
754.8000;0.7000;0.7431;
755.1000;0.7009;0.7481;
755.4000;0.7000;0.7456;
755.7000;0.7009;0.7431;
756.0000;0.7017;0.7406;
756.3000;0.7017;0.7431;
756.6000;0.6992;0.7481;
756.9000;0.6952;0.7355;
757.2000;0.7000;0.7481;
757.5000;0.7017;0.7557;
757.8000;0.7049;0.7683;
758.1000;0.6992;0.7532;
758.4000;0.6992;0.7431;
758.7000;0.7000;0.7557;
759.0000;0.6992;0.7507;
759.3000;0.7000;0.7431;
759.6000;0.6992;0.7481;
759.9000;0.7000;0.7557;
760.2000;0.6984;0.7582;
760.5000;0.6984;0.7532;
760.8000;0.6984;0.7557;
761.1000;0.6976;0.7481;
761.4000;0.6992;0.7456;
761.7000;0.7000;0.7431;
762.0000;0.6992;0.7431;
762.3000;0.6992;0.7456;
762.6000;0.7041;0.7582;
762.9000;0.6984;0.7381;
763.2000;0.6984;0.7330;
763.5000;0.6984;0.7431;
763.8000;0.6976;0.7381;
764.1000;0.6976;0.7355;
764.4000;0.6968;0.7330;
764.7000;0.6976;0.7355;
765.0000;0.6976;0.7456;
765.3000;0.6976;0.7456;
765.6000;0.6968;0.7355;
765.9000;0.6976;0.7381;
766.2000;0.6976;0.7355;
766.5000;0.6976;0.7355;
766.8000;0.7009;0.7456;
767.1000;0.6992;0.7456;
767.4000;0.6976;0.7481;
767.7000;0.6968;0.7381;
768.0000;0.6952;0.7406;
768.3000;0.6952;0.7456;
768.6000;0.6968;0.7406;
768.9000;0.6968;0.7355;
769.2000;0.6976;0.7330;
769.5000;0.6968;0.7230;
769.8000;0.6968;0.7305;
770.1000;0.6960;0.7230;
770.4000;0.6943;0.7204;
770.7000;0.6943;0.7179;
771.0000;0.6960;0.7230;
771.3000;0.6943;0.7280;
771.6000;0.6943;0.7255;
771.9000;0.6895;0.7078;
772.2000;0.6952;0.7305;
772.5000;0.6968;0.7431;
772.8000;0.6952;0.7406;
773.1000;0.6976;0.7481;
773.4000;0.6943;0.7481;
773.7000;0.6943;0.7406;
774.0000;0.6943;0.7330;
774.3000;0.6968;0.7355;
774.6000;0.7000;0.7481;
774.9000;0.6952;0.7406;
775.2000;0.6927;0.7280;
775.5000;0.6919;0.7204;
775.8000;0.6943;0.7280;
776.1000;0.7000;0.7381;
776.4000;0.6943;0.7280;
776.7000;0.6943;0.7330;
777.0000;0.6935;0.7355;
777.3000;0.6952;0.7431;
777.6000;0.6952;0.7507;
777.9000;0.6943;0.7507;
778.2000;0.6952;0.7532;
778.5000;0.7000;0.7658;
778.8000;0.6935;0.7507;
779.1000;0.6919;0.7481;
779.4000;0.6919;0.7481;
779.7000;0.6919;0.7607;
780.0000;0.6911;0.7532;
780.3000;0.6927;0.7557;
780.6000;0.6911;0.7582;
780.9000;0.6919;0.7507;
781.2000;0.6935;0.7481;
781.5000;0.6911;0.7456;
781.8000;0.6935;0.7481;
782.1000;0.6927;0.7431;
782.4000;0.6927;0.7481;
782.7000;0.6935;0.7456;
783.0000;0.6935;0.7406;
783.3000;0.6927;0.7355;
783.6000;0.6927;0.7305;
783.9000;0.6935;0.7280;
784.2000;0.6919;0.7355;
784.5000;0.6911;0.7280;
784.8000;0.6919;0.7355;
785.1000;0.6895;0.7230;
785.4000;0.6952;0.7406;
785.7000;0.6927;0.7330;
786.0000;0.6919;0.7355;
786.3000;0.6927;0.7381;
786.6000;0.6919;0.7381;
786.9000;0.6903;0.7381;
787.2000;0.6919;0.7431;
787.5000;0.6919;0.7456;
787.8000;0.6919;0.7481;
788.1000;0.6919;0.7582;
788.4000;0.6911;0.7481;
788.7000;0.6935;0.7456;
789.0000;0.6895;0.7355;
789.3000;0.6911;0.7305;
789.6000;0.6911;0.7255;
789.9000;0.6927;0.7330;
790.2000;0.6895;0.7355;
790.5000;0.6903;0.7330;
790.8000;0.6952;0.7481;
791.1000;0.6919;0.7532;
791.4000;0.6895;0.7330;
791.7000;0.6895;0.7330;
792.0000;0.6976;0.7582;
792.3000;0.6903;0.7381;
792.6000;0.6903;0.7481;
792.9000;0.6895;0.7406;
793.2000;0.6870;0.7406;
793.5000;0.6895;0.7456;
793.8000;0.6878;0.7481;
794.1000;0.6903;0.7607;
794.4000;0.6895;0.7582;
794.7000;0.6895;0.7633;
795.0000;0.6911;0.7582;
795.3000;0.6903;0.7456;
795.6000;0.6903;0.7456;
795.9000;0.6895;0.7481;
796.2000;0.6895;0.7532;
796.5000;0.6886;0.7507;
796.8000;0.6878;0.7507;
797.1000;0.6846;0.7406;
797.4000;0.6886;0.7456;
797.7000;0.6895;0.7431;
798.0000;0.6895;0.7481;
798.3000;0.6886;0.7431;
798.6000;0.6886;0.7456;
798.9000;0.6903;0.7481;
799.2000;0.6895;0.7481;
799.5000;0.6870;0.7456;
799.8000;0.6886;0.7431;
800.1000;0.6886;0.7406;
800.4000;0.6886;0.7456;
800.7000;0.6878;0.7431;
801.0000;0.6911;0.7481;
801.3000;0.6895;0.7431;
801.6000;0.6854;0.7381;
801.9000;0.6886;0.7557;
802.2000;0.6878;0.7507;
802.5000;0.6854;0.7355;
802.8000;0.6878;0.7406;
803.1000;0.6878;0.7381;
803.4000;0.6878;0.7355;
803.7000;0.6862;0.7305;
804.0000;0.6886;0.7305;
804.3000;0.6870;0.7355;
804.6000;0.6813;0.7230;
804.9000;0.6862;0.7305;
805.2000;0.6895;0.7305;
805.5000;0.6862;0.7230;
805.8000;0.6862;0.7230;
806.1000;0.6878;0.7230;
806.4000;0.6870;0.7129;
806.7000;0.6870;0.7104;
807.0000;0.6846;0.7104;
807.3000;0.6862;0.7154;
807.6000;0.6846;0.7230;
807.9000;0.6862;0.7255;
808.2000;0.6854;0.7179;
808.5000;0.6838;0.7280;
808.8000;0.6854;0.7255;
809.1000;0.6854;0.7305;
809.4000;0.6813;0.7028;
809.7000;0.6854;0.7154;
810.0000;0.6878;0.7280;
810.3000;0.6862;0.7230;
810.6000;0.6813;0.7179;
810.9000;0.6862;0.7305;
811.2000;0.6862;0.7330;
811.5000;0.6838;0.7280;
811.8000;0.6870;0.7280;
812.1000;0.6854;0.7280;
812.4000;0.6846;0.7330;
812.7000;0.6854;0.7330;
813.0000;0.6895;0.7355;
813.3000;0.6854;0.7280;
813.6000;0.6878;0.7431;
813.9000;0.6854;0.7456;
814.2000;0.6895;0.7481;
814.5000;0.6854;0.7406;
814.8000;0.6870;0.7355;
815.1000;0.6846;0.7406;
815.4000;0.6846;0.7381;
815.7000;0.6854;0.7355;
816.0000;0.6838;0.7355;
816.3000;0.6838;0.7431;
816.6000;0.6813;0.7355;
816.9000;0.6854;0.7481;
817.2000;0.6846;0.7406;
817.5000;0.6854;0.7381;
817.8000;0.6846;0.7330;
818.1000;0.6846;0.7305;
818.4000;0.6838;0.7255;
818.7000;0.6829;0.7305;
819.0000;0.6846;0.7255;
819.3000;0.6927;0.7406;
819.6000;0.6854;0.7230;
819.9000;0.6838;0.7154;
820.2000;0.6846;0.7179;
820.5000;0.6838;0.7305;
820.8000;0.6838;0.7280;
821.1000;0.6838;0.7230;
821.4000;0.6854;0.7230;
821.7000;0.6838;0.7129;
822.0000;0.6838;0.7204;
822.3000;0.6821;0.7280;
822.6000;0.6829;0.7431;
822.9000;0.6829;0.7481;
823.2000;0.6854;0.7507;
823.5000;0.6854;0.7431;
823.8000;0.6846;0.7431;
824.1000;0.6838;0.7355;
824.4000;0.6838;0.7355;
824.7000;0.6821;0.7280;
825.0000;0.6829;0.7355;
825.3000;0.6838;0.7330;
825.6000;0.6829;0.7255;
825.9000;0.6821;0.7330;
826.2000;0.6829;0.7280;
826.5000;0.6805;0.7230;
826.8000;0.6829;0.7330;
827.1000;0.6895;0.7481;
827.4000;0.6838;0.7355;
827.7000;0.6838;0.7280;
828.0000;0.6821;0.7280;
828.3000;0.6813;0.7305;
828.6000;0.6829;0.7355;
828.9000;0.6838;0.7381;
829.2000;0.6829;0.7305;
829.5000;0.6846;0.7406;
829.8000;0.6829;0.7406;
830.1000;0.6838;0.7280;
830.4000;0.6829;0.7255;
830.7000;0.6829;0.7305;
831.0000;0.6829;0.7305;
831.3000;0.6829;0.7230;
831.6000;0.6821;0.7204;
831.9000;0.6797;0.7204;
832.2000;0.6805;0.7230;
832.5000;0.6748;0.7129;
832.8000;0.6821;0.7330;
833.1000;0.6821;0.7330;
833.4000;0.6854;0.7355;
833.7000;0.6943;0.7532;
834.0000;0.6829;0.7305;
834.3000;0.6846;0.7305;
834.6000;0.6846;0.7381;
834.9000;0.6805;0.7305;
835.2000;0.6829;0.7305;
835.5000;0.6829;0.7230;
835.8000;0.6813;0.7230;
836.1000;0.6813;0.7255;
836.4000;0.6813;0.7179;
836.7000;0.6797;0.7154;
837.0000;0.6813;0.7179;
837.3000;0.6805;0.7154;
837.6000;0.6821;0.7179;
837.9000;0.6862;0.7355;
838.2000;0.6821;0.7230;
838.5000;0.6813;0.7230;
838.8000;0.6870;0.7305;
839.1000;0.6805;0.7129;
839.4000;0.6813;0.7053;
839.7000;0.6838;0.7053;
840.0000;0.6829;0.7053;
840.3000;0.6838;0.7179;
840.6000;0.6764;0.7078;
840.9000;0.6805;0.7104;
841.2000;0.6781;0.7028;
841.5000;0.6829;0.7179;
841.8000;0.6789;0.7179;
842.1000;0.6789;0.7230;
842.4000;0.6821;0.7179;
842.7000;0.6805;0.7104;
843.0000;0.6805;0.7154;
843.3000;0.6805;0.7179;
843.6000;0.6829;0.7255;
843.9000;0.6821;0.7255;
844.2000;0.6797;0.7230;
844.5000;0.6821;0.7230;
844.8000;0.6838;0.7406;
845.1000;0.6797;0.7355;
845.4000;0.6789;0.7355;
845.7000;0.6813;0.7305;
846.0000;0.6732;0.7078;
846.3000;0.6797;0.7230;
846.6000;0.6789;0.7230;
846.9000;0.6805;0.7280;
847.2000;0.6781;0.7330;
847.5000;0.6813;0.7355;
847.8000;0.6813;0.7280;
848.1000;0.6789;0.7204;
848.4000;0.6797;0.7204;
848.7000;0.6821;0.7305;
849.0000;0.6797;0.7179;
849.3000;0.6789;0.7078;
849.6000;0.6797;0.7179;
849.9000;0.6805;0.7255;
850.2000;0.6789;0.7330;
850.5000;0.6797;0.7330;
850.8000;0.6781;0.7330;
851.1000;0.6805;0.7280;
851.4000;0.6854;0.7481;
851.7000;0.6821;0.7381;
852.0000;0.6797;0.7355;
852.3000;0.6756;0.7330;
852.6000;0.6764;0.7431;
852.9000;0.6797;0.7481;
853.2000;0.6781;0.7381;
853.5000;0.6797;0.7431;
853.8000;0.6805;0.7431;
854.1000;0.6805;0.7355;
854.4000;0.6781;0.7330;
854.7000;0.6805;0.7355;
855.0000;0.6797;0.7330;
855.3000;0.6805;0.7381;
855.6000;0.6789;0.7355;
855.9000;0.6789;0.7305;
856.2000;0.6797;0.7330;
856.5000;0.6781;0.7381;
856.8000;0.6772;0.7381;
857.1000;0.6789;0.7406;
857.4000;0.6797;0.7431;
857.7000;0.6805;0.7456;
858.0000;0.6781;0.7355;
858.3000;0.6813;0.7330;
858.6000;0.6797;0.7355;
858.9000;0.6805;0.7532;
859.2000;0.6789;0.7456;
859.5000;0.6797;0.7532;
859.8000;0.6748;0.7406;
860.1000;0.6854;0.7607;
860.4000;0.6813;0.7431;
860.7000;0.6781;0.7355;
861.0000;0.6789;0.7431;
861.3000;0.6789;0.7431;
861.6000;0.6789;0.7431;
861.9000;0.6724;0.7255;
862.2000;0.6764;0.7305;
862.5000;0.6797;0.7406;
862.8000;0.6797;0.7381;
863.1000;0.6821;0.7431;
863.4000;0.6797;0.7330;
863.7000;0.6797;0.7305;
864.0000;0.6797;0.7305;
864.3000;0.6805;0.7381;
864.6000;0.6764;0.7305;
864.9000;0.6805;0.7381;
865.2000;0.6772;0.7230;
865.5000;0.6781;0.7330;
865.8000;0.6772;0.7381;
866.1000;0.6805;0.7456;
866.4000;0.6781;0.7406;
866.7000;0.6781;0.7431;
867.0000;0.6805;0.7481;
867.3000;0.6797;0.7381;
867.6000;0.6772;0.7431;
867.9000;0.6781;0.7381;
868.2000;0.6813;0.7507;
868.5000;0.6781;0.7381;
868.8000;0.6789;0.7456;
869.1000;0.6781;0.7406;
869.4000;0.6789;0.7456;
869.7000;0.6772;0.7381;
870.0000;0.6772;0.7507;
870.3000;0.6805;0.7532;
870.6000;0.6781;0.7456;
870.9000;0.6781;0.7381;
871.2000;0.6781;0.7355;
871.5000;0.6772;0.7305;
871.8000;0.6781;0.7305;
872.1000;0.6772;0.7381;
872.4000;0.6756;0.7280;
872.7000;0.6772;0.7230;
873.0000;0.6756;0.7204;
873.3000;0.6781;0.7255;
873.6000;0.6748;0.7179;
873.9000;0.6764;0.7104;
874.2000;0.6756;0.7129;
874.5000;0.6764;0.7230;
874.8000;0.6756;0.7204;
875.1000;0.6781;0.7355;
875.4000;0.6781;0.7406;
875.7000;0.6764;0.7406;
876.0000;0.6740;0.7406;
876.3000;0.6756;0.7355;
876.6000;0.6789;0.7355;
876.9000;0.6764;0.7255;
877.2000;0.6756;0.7154;
877.5000;0.6748;0.7154;
877.8000;0.6756;0.7179;
878.1000;0.6772;0.7255;
878.4000;0.6756;0.7179;
878.7000;0.6772;0.7179;
879.0000;0.6772;0.7204;
879.3000;0.6772;0.7280;
879.6000;0.6764;0.7305;
879.9000;0.6756;0.7255;
880.2000;0.6764;0.7255;
880.5000;0.6781;0.7355;
880.8000;0.6772;0.7381;
881.1000;0.6772;0.7431;
881.4000;0.6748;0.7305;
881.7000;0.6748;0.7431;
882.0000;0.6740;0.7330;
882.3000;0.6748;0.7280;
882.6000;0.6781;0.7355;
882.9000;0.6756;0.7305;
883.2000;0.6740;0.7204;
883.5000;0.6740;0.7305;
883.8000;0.6764;0.7355;
884.1000;0.6756;0.7330;
884.4000;0.6781;0.7481;
884.7000;0.6764;0.7431;
885.0000;0.6740;0.7330;
885.3000;0.6789;0.7481;
885.6000;0.6756;0.7481;
885.9000;0.6732;0.7431;
886.2000;0.6772;0.7633;
886.5000;0.6748;0.7507;
886.8000;0.6756;0.7507;
887.1000;0.6781;0.7557;
887.4000;0.6764;0.7532;
887.7000;0.6707;0.7406;
888.0000;0.6764;0.7507;
888.3000;0.6716;0.7355;
888.6000;0.6756;0.7431;
888.9000;0.6748;0.7330;
889.2000;0.6724;0.7305;
889.5000;0.6764;0.7381;
889.8000;0.6772;0.7355;
890.1000;0.6748;0.7305;
890.4000;0.6748;0.7355;
890.7000;0.6748;0.7481;
891.0000;0.6764;0.7607;
891.3000;0.6740;0.7708;
891.6000;0.6707;0.7633;
891.9000;0.6740;0.7658;
892.2000;0.6740;0.7557;
892.5000;0.6707;0.7456;
892.8000;0.6732;0.7557;
893.1000;0.6756;0.7607;
893.4000;0.6756;0.7607;
893.7000;0.6764;0.7456;
894.0000;0.6740;0.7481;
894.3000;0.6707;0.7355;
894.6000;0.6756;0.7431;
894.9000;0.6764;0.7406;
895.2000;0.6748;0.7406;
895.5000;0.6707;0.7305;
895.8000;0.6764;0.7431;
896.1000;0.6748;0.7431;
896.4000;0.6740;0.7406;
896.7000;0.6748;0.7406;
897.0000;0.6740;0.7431;
897.3000;0.6740;0.7431;
897.6000;0.6724;0.7355;
897.9000;0.6740;0.7355;
898.2000;0.6740;0.7381;
898.5000;0.6781;0.7481;
898.8000;0.6756;0.7406;
899.1000;0.6748;0.7381;
899.4000;0.6756;0.7381;
899.7000;0.6764;0.7456;
900.0000;0.6756;0.7481;
900.3000;0.6699;0.7330;
900.6000;0.6756;0.7507;
900.9000;0.6748;0.7582;
901.2000;0.6748;0.7658;
901.5000;0.6764;0.7708;
901.8000;0.6740;0.7633;
902.1000;0.6748;0.7607;
902.4000;0.6699;0.7406;
902.7000;0.6764;0.7532;
903.0000;0.6732;0.7481;
903.3000;0.6740;0.7582;
903.6000;0.6724;0.7481;
903.9000;0.6797;0.7658;
904.2000;0.6740;0.7532;
904.5000;0.6732;0.7532;
904.8000;0.6740;0.7557;
905.1000;0.6756;0.7532;
905.4000;0.6732;0.7406;
905.7000;0.6732;0.7456;
906.0000;0.6764;0.7532;
906.3000;0.6732;0.7507;
906.6000;0.6756;0.7683;
906.9000;0.6740;0.7607;
907.2000;0.6732;0.7557;
907.5000;0.6740;0.7582;
907.8000;0.6724;0.7607;
908.1000;0.6732;0.7658;
908.4000;0.6740;0.7633;
908.7000;0.6748;0.7708;
909.0000;0.6691;0.7582;
909.3000;0.6724;0.7708;
909.6000;0.6740;0.7708;
909.9000;0.6748;0.7683;
910.2000;0.6756;0.7708;
910.5000;0.6716;0.7607;
910.8000;0.6732;0.7708;
911.1000;0.6740;0.7759;
911.4000;0.6764;0.7884;
911.7000;0.6724;0.7759;
912.0000;0.6724;0.7708;
912.3000;0.6732;0.7759;
912.6000;0.6732;0.7733;
912.9000;0.6740;0.7708;
913.2000;0.6716;0.7683;
913.5000;0.6724;0.7658;
913.8000;0.6732;0.7607;
914.1000;0.6724;0.7607;
914.4000;0.6732;0.7733;
914.7000;0.6724;0.7759;
915.0000;0.6732;0.7658;
915.3000;0.6748;0.7708;
915.6000;0.6716;0.7507;
915.9000;0.6732;0.7507;
916.2000;0.6724;0.7507;
916.5000;0.6732;0.7557;
916.8000;0.6716;0.7557;
917.1000;0.6716;0.7582;
917.4000;0.6732;0.7633;
917.7000;0.6683;0.7507;
918.0000;0.6732;0.7607;
918.3000;0.6691;0.7456;
918.6000;0.6764;0.7633;
918.9000;0.6740;0.7507;
919.2000;0.6716;0.7456;
919.5000;0.6724;0.7481;
919.8000;0.6707;0.7431;
920.1000;0.6699;0.7507;
920.4000;0.6724;0.7557;
920.7000;0.6724;0.7557;
921.0000;0.6716;0.7532;
921.3000;0.6707;0.7507;
921.6000;0.6699;0.7456;
921.9000;0.6740;0.7607;
922.2000;0.6732;0.7557;
922.5000;0.6740;0.7481;
922.8000;0.6724;0.7507;
923.1000;0.6724;0.7532;
923.4000;0.6716;0.7507;
923.7000;0.6699;0.7406;
924.0000;0.6724;0.7557;
924.3000;0.6691;0.7481;
924.6000;0.6716;0.7557;
924.9000;0.6716;0.7557;
925.2000;0.6716;0.7582;
925.5000;0.6691;0.7456;
925.8000;0.6707;0.7481;
926.1000;0.6699;0.7431;
926.4000;0.6716;0.7633;
926.7000;0.6716;0.7733;
927.0000;0.6707;0.7683;
927.3000;0.6716;0.7683;
927.6000;0.6724;0.7683;
927.9000;0.6724;0.7607;
928.2000;0.6716;0.7557;
928.5000;0.6716;0.7481;
928.8000;0.6724;0.7456;
929.1000;0.6716;0.7532;
929.4000;0.6716;0.7532;
929.7000;0.6724;0.7532;
930.0000;0.6732;0.7607;
930.3000;0.6699;0.7557;
930.6000;0.6724;0.7607;
930.9000;0.6772;0.7733;
931.2000;0.6724;0.7633;
931.5000;0.6716;0.7607;
931.8000;0.6724;0.7658;
932.1000;0.6716;0.7557;
932.4000;0.6740;0.7607;
932.7000;0.6724;0.7557;
933.0000;0.6659;0.7406;
933.3000;0.6707;0.7507;
933.6000;0.6716;0.7582;
933.9000;0.6716;0.7532;
934.2000;0.6724;0.7582;
934.5000;0.6716;0.7481;
934.8000;0.6707;0.7406;
935.1000;0.6691;0.7330;
935.4000;0.6740;0.7532;
935.7000;0.6707;0.7557;
936.0000;0.6650;0.7456;
936.3000;0.6724;0.7633;
936.6000;0.6707;0.7708;
936.9000;0.6748;0.7759;
937.2000;0.6748;0.7759;
937.5000;0.6716;0.7683;
937.8000;0.6707;0.7733;
938.1000;0.6732;0.7784;
938.4000;0.6707;0.7708;
938.7000;0.6699;0.7582;
939.0000;0.6716;0.7557;
939.3000;0.6699;0.7481;
939.6000;0.6683;0.7557;
939.9000;0.6699;0.7658;
940.2000;0.6699;0.7683;
940.5000;0.6699;0.7683;
940.8000;0.6724;0.7784;
941.1000;0.6724;0.7733;
941.4000;0.6675;0.7733;
941.7000;0.6724;0.7784;
942.0000;0.6707;0.7809;
942.3000;0.6650;0.7683;
942.6000;0.6707;0.7809;
942.9000;0.6740;0.7809;
943.2000;0.6699;0.7733;
943.5000;0.6699;0.7658;
943.8000;0.6699;0.7532;
944.1000;0.6748;0.7683;
944.4000;0.6707;0.7557;
944.7000;0.6683;0.7481;
945.0000;0.6691;0.7507;
945.3000;0.6707;0.7557;
945.6000;0.6716;0.7582;
945.9000;0.6716;0.7532;
946.2000;0.6699;0.7456;
946.5000;0.6699;0.7557;
946.8000;0.6707;0.7557;
947.1000;0.6707;0.7532;
947.4000;0.6691;0.7431;
947.7000;0.6724;0.7507;
948.0000;0.6691;0.7507;
948.3000;0.6724;0.7582;
948.6000;0.6699;0.7532;
948.9000;0.6707;0.7481;
949.2000;0.6724;0.7557;
949.5000;0.6699;0.7557;
949.8000;0.6699;0.7557;
950.1000;0.6699;0.7456;
950.4000;0.6716;0.7431;
950.7000;0.6691;0.7355;
951.0000;0.6691;0.7406;
951.3000;0.6683;0.7381;
951.6000;0.6691;0.7406;
951.9000;0.6707;0.7481;
952.2000;0.6716;0.7355;
952.5000;0.6699;0.7330;
952.8000;0.6707;0.7381;
953.1000;0.6716;0.7381;
953.4000;0.6707;0.7330;
953.7000;0.6691;0.7330;
954.0000;0.6699;0.7305;
954.3000;0.6699;0.7355;
954.6000;0.6772;0.7481;
954.9000;0.6716;0.7330;
955.2000;0.6716;0.7381;
955.5000;0.6691;0.7406;
955.8000;0.6691;0.7456;
956.1000;0.6707;0.7532;
956.4000;0.6691;0.7532;
956.7000;0.6626;0.7381;
957.0000;0.6724;0.7633;
957.3000;0.6707;0.7607;
957.6000;0.6699;0.7607;
957.9000;0.6699;0.7658;
958.2000;0.6707;0.7708;
958.5000;0.6707;0.7658;
958.8000;0.6667;0.7582;
959.1000;0.6683;0.7507;
959.4000;0.6634;0.7330;
959.7000;0.6683;0.7381;
960.0000;0.6699;0.7381;
960.3000;0.6691;0.7381;
960.6000;0.6707;0.7431;
960.9000;0.6667;0.7330;
961.2000;0.6667;0.7330;
961.5000;0.6691;0.7381;
961.8000;0.6691;0.7532;
962.1000;0.6699;0.7607;
962.4000;0.6716;0.7633;
962.7000;0.6683;0.7607;
963.0000;0.6675;0.7633;
963.3000;0.6691;0.7759;
963.6000;0.6675;0.7633;
963.9000;0.6675;0.7557;
964.2000;0.6691;0.7507;
964.5000;0.6699;0.7557;
964.8000;0.6732;0.7607;
965.1000;0.6683;0.7456;
965.4000;0.6683;0.7456;
965.7000;0.6691;0.7532;
966.0000;0.6699;0.7633;
966.3000;0.6683;0.7708;
966.6000;0.6691;0.7708;
966.9000;0.6675;0.7633;
967.2000;0.6675;0.7633;
967.5000;0.6699;0.7582;
967.8000;0.6691;0.7507;
968.1000;0.6716;0.7507;
968.4000;0.6691;0.7431;
968.7000;0.6716;0.7431;
969.0000;0.6707;0.7431;
969.3000;0.6667;0.7406;
969.6000;0.6683;0.7481;
969.9000;0.6691;0.7481;
970.2000;0.6683;0.7406;
970.5000;0.6675;0.7381;
970.8000;0.6699;0.7406;
971.1000;0.6683;0.7532;
971.4000;0.6683;0.7557;
971.7000;0.6699;0.7582;
972.0000;0.6626;0.7507;
972.3000;0.6691;0.7607;
972.6000;0.6683;0.7582;
972.9000;0.6691;0.7683;
973.2000;0.6675;0.7633;
973.5000;0.6683;0.7683;
973.8000;0.6699;0.7708;
974.1000;0.6683;0.7683;
974.4000;0.6642;0.7708;
974.7000;0.6675;0.7683;
975.0000;0.6659;0.7633;
975.3000;0.6683;0.7633;
975.6000;0.6667;0.7582;
975.9000;0.6683;0.7633;
976.2000;0.6667;0.7733;
976.5000;0.6691;0.7708;
976.8000;0.6675;0.7708;
977.1000;0.6667;0.7708;
977.4000;0.6675;0.7708;
977.7000;0.6675;0.7658;
978.0000;0.6691;0.7607;
978.3000;0.6675;0.7557;
978.6000;0.6675;0.7582;
978.9000;0.6707;0.7607;
979.2000;0.6659;0.7532;
979.5000;0.6675;0.7582;
979.8000;0.6699;0.7683;
980.1000;0.6707;0.7633;
980.4000;0.6675;0.7607;
980.7000;0.6699;0.7557;
981.0000;0.6659;0.7305;
981.3000;0.6699;0.7431;
981.6000;0.6707;0.7431;
981.9000;0.6683;0.7305;
982.2000;0.6716;0.7507;
982.5000;0.6691;0.7507;
982.8000;0.6707;0.7532;
983.1000;0.6699;0.7532;
983.4000;0.6691;0.7532;
983.7000;0.6691;0.7507;
984.0000;0.6699;0.7532;
984.3000;0.6683;0.7406;
984.6000;0.6675;0.7406;
984.9000;0.6691;0.7381;
985.2000;0.6667;0.7355;
985.5000;0.6699;0.7481;
985.8000;0.6683;0.7431;
986.1000;0.6667;0.7456;
986.4000;0.6659;0.7431;
986.7000;0.6667;0.7481;
987.0000;0.6667;0.7381;
987.3000;0.6667;0.7305;
987.6000;0.6667;0.7280;
987.9000;0.6699;0.7431;
988.2000;0.6691;0.7456;
988.5000;0.6683;0.7431;
988.8000;0.6667;0.7431;
989.1000;0.6691;0.7481;
989.4000;0.6675;0.7557;
989.7000;0.6667;0.7607;
990.0000;0.6650;0.7658;
990.3000;0.6675;0.7733;
990.6000;0.6667;0.7708;
990.9000;0.6667;0.7607;
991.2000;0.6675;0.7633;
991.5000;0.6699;0.7733;
991.8000;0.6634;0.7481;
992.1000;0.6683;0.7532;
992.4000;0.6667;0.7481;
992.7000;0.6667;0.7607;
993.0000;0.6675;0.7607;
993.3000;0.6683;0.7557;
993.6000;0.6683;0.7507;
993.9000;0.6675;0.7406;
994.2000;0.6683;0.7305;
994.5000;0.6675;0.7355;
994.8000;0.6667;0.7305;
995.1000;0.6691;0.7355;
995.4000;0.6699;0.7456;
995.7000;0.6667;0.7431;
996.0000;0.6748;0.7733;
996.3000;0.6659;0.7481;
996.6000;0.6691;0.7557;
996.9000;0.6659;0.7481;
997.2000;0.6667;0.7532;
997.5000;0.6675;0.7557;
997.8000;0.6675;0.7507;
998.1000;0.6675;0.7481;
998.4000;0.6683;0.7406;
998.7000;0.6675;0.7456;
999.0000;0.6667;0.7456;
999.3000;0.6675;0.7456;
999.6000;0.6675;0.7406;
999.9000;0.6667;0.7481;
1000.2000;0.6683;0.7557;
1000.5000;0.6642;0.7456;
1000.8000;0.6667;0.7532;
1001.1000;0.6610;0.7280;
1001.4000;0.6756;0.7582;
1001.7000;0.6683;0.7431;
1002.0000;0.6683;0.7431;
1002.3000;0.6650;0.7330;
1002.6000;0.6667;0.7456;
1002.9000;0.6602;0.7305;
1003.2000;0.6675;0.7557;
1003.5000;0.6602;0.7355;
1003.8000;0.6675;0.7532;
1004.1000;0.6667;0.7431;
1004.4000;0.6675;0.7481;
1004.7000;0.6659;0.7481;
1005.0000;0.6642;0.7481;
1005.3000;0.6716;0.7607;
1005.6000;0.6626;0.7431;
1005.9000;0.6642;0.7557;
1006.2000;0.6642;0.7456;
1006.5000;0.6650;0.7431;
1006.8000;0.6667;0.7507;
1007.1000;0.6683;0.7557;
1007.4000;0.6659;0.7456;
1007.7000;0.6667;0.7507;
1008.0000;0.6667;0.7532;
1008.3000;0.6675;0.7507;
1008.6000;0.6659;0.7481;
1008.9000;0.6675;0.7532;
1009.2000;0.6659;0.7507;
1009.5000;0.6642;0.7532;
1009.8000;0.6659;0.7633;
1010.1000;0.6675;0.7658;
1010.4000;0.6634;0.7607;
1010.7000;0.6650;0.7582;
1011.0000;0.6667;0.7607;
1011.3000;0.6659;0.7607;
1011.6000;0.6659;0.7708;
1011.9000;0.6675;0.7733;
1012.2000;0.6683;0.7708;
1012.5000;0.6667;0.7633;
1012.8000;0.6650;0.7582;
1013.1000;0.6659;0.7607;
1013.4000;0.6683;0.7658;
1013.7000;0.6650;0.7607;
1014.0000;0.6642;0.7582;
1014.3000;0.6659;0.7582;
1014.6000;0.6667;0.7658;
1014.9000;0.6675;0.7658;
1015.2000;0.6650;0.7658;
1015.5000;0.6650;0.7557;
1015.8000;0.6634;0.7507;
1016.1000;0.6724;0.7784;
1016.4000;0.6667;0.7683;
1016.7000;0.6610;0.7658;
1017.0000;0.6667;0.7784;
1017.3000;0.6667;0.7733;
1017.6000;0.6634;0.7607;
1017.9000;0.6659;0.7708;
1018.2000;0.6659;0.7633;
1018.5000;0.6626;0.7633;
1018.8000;0.6683;0.7910;
1019.1000;0.6683;0.7834;
1019.4000;0.6667;0.7784;
1019.7000;0.6659;0.7784;
1020.0000;0.6659;0.7759;
1020.3000;0.6667;0.7733;
1020.6000;0.6667;0.7784;
1020.9000;0.6659;0.7834;
1021.2000;0.6667;0.7759;
1021.5000;0.6659;0.7759;
1021.8000;0.6659;0.7708;
1022.1000;0.6675;0.7834;
1022.4000;0.6659;0.7859;
1022.7000;0.6642;0.7784;
1023.0000;0.6659;0.7809;
1023.3000;0.6675;0.7733;
1023.6000;0.6659;0.7784;
1023.9000;0.6659;0.7809;
1024.2000;0.6642;0.7658;
1024.5000;0.6618;0.7607;
1024.8000;0.6667;0.7759;
1025.1000;0.6659;0.7733;
1025.4000;0.6667;0.7733;
1025.7000;0.6659;0.7733;
1026.0000;0.6610;0.7683;
1026.3000;0.6650;0.7759;
1026.6000;0.6650;0.7683;
1026.9000;0.6707;0.7784;
1027.2000;0.6634;0.7607;
1027.5000;0.6659;0.7733;
1027.8000;0.6650;0.7759;
1028.1000;0.6634;0.7658;
1028.4000;0.6659;0.7733;
1028.7000;0.6667;0.7809;
1029.0000;0.6642;0.7809;
1029.3000;0.6650;0.7859;
1029.6000;0.6659;0.7935;
1029.9000;0.6642;0.7884;
1030.2000;0.6650;0.7834;
1030.5000;0.6642;0.7733;
1030.8000;0.6634;0.7759;
1031.1000;0.6650;0.7834;
1031.4000;0.6642;0.7809;
1031.7000;0.6642;0.7784;
1032.0000;0.6634;0.7809;
1032.3000;0.6667;0.7859;
1032.6000;0.6626;0.7784;
1032.9000;0.6634;0.7733;
1033.2000;0.6659;0.7784;
1033.5000;0.6642;0.7784;
1033.8000;0.6659;0.7784;
1034.1000;0.6699;0.7884;
1034.4000;0.6675;0.7759;
1034.7000;0.6650;0.7633;
1035.0000;0.6683;0.7759;
1035.3000;0.6569;0.7507;
1035.6000;0.6642;0.7683;
1035.9000;0.6642;0.7683;
1036.2000;0.6650;0.7557;
1036.5000;0.6659;0.7633;
1036.8000;0.6683;0.7759;
1037.1000;0.6569;0.7532;
1037.4000;0.6732;0.7884;
1037.7000;0.6659;0.7683;
1038.0000;0.6659;0.7708;
1038.3000;0.6642;0.7683;
1038.6000;0.6675;0.7784;
1038.9000;0.6667;0.7708;
1039.2000;0.6667;0.7759;
1039.5000;0.6642;0.7683;
1039.8000;0.6667;0.7733;
1040.1000;0.6618;0.7633;
1040.4000;0.6642;0.7633;
1040.7000;0.6642;0.7557;
1041.0000;0.6634;0.7607;
1041.3000;0.6642;0.7683;
1041.6000;0.6602;0.7683;
1041.9000;0.6634;0.7759;
1042.2000;0.6610;0.7658;
1042.5000;0.6659;0.7708;
1042.8000;0.6699;0.7859;
1043.1000;0.6650;0.7683;
1043.4000;0.6659;0.7708;
1043.7000;0.6642;0.7708;
1044.0000;0.6667;0.7708;
1044.3000;0.6650;0.7607;
1044.6000;0.6650;0.7607;
1044.9000;0.6634;0.7633;
1045.2000;0.6650;0.7633;
1045.5000;0.6667;0.7633;
1045.8000;0.6634;0.7582;
1046.1000;0.6634;0.7607;
1046.4000;0.6667;0.7607;
1046.7000;0.6650;0.7582;
1047.0000;0.6642;0.7582;
1047.3000;0.6626;0.7633;
1047.6000;0.6650;0.7658;
1047.9000;0.6642;0.7607;
1048.2000;0.6650;0.7683;
1048.5000;0.6634;0.7708;
1048.8000;0.6650;0.7633;
1049.1000;0.6650;0.7582;
1049.4000;0.6626;0.7582;
1049.7000;0.6650;0.7708;
1050.0000;0.6650;0.7683;
1050.3000;0.6650;0.7683;
1050.6000;0.6667;0.7759;
1050.9000;0.6650;0.7733;
1051.2000;0.6667;0.7733;
1051.5000;0.6659;0.7607;
1051.8000;0.6634;0.7557;
1052.1000;0.6659;0.7582;
1052.4000;0.6618;0.7532;
1052.7000;0.6634;0.7582;
1053.0000;0.6642;0.7658;
1053.3000;0.6634;0.7658;
1053.6000;0.6634;0.7683;
1053.9000;0.6642;0.7683;
1054.2000;0.6642;0.7759;
1054.5000;0.6642;0.7859;
1054.8000;0.6626;0.7935;
1055.1000;0.6650;0.7935;
1055.4000;0.6650;0.7859;
1055.7000;0.6626;0.7809;
1056.0000;0.6650;0.7733;
1056.3000;0.6618;0.7633;
1056.6000;0.6626;0.7733;
1056.9000;0.6634;0.7834;
1057.2000;0.6626;0.7759;
1057.5000;0.6634;0.7759;
1057.8000;0.6618;0.7759;
1058.1000;0.6634;0.7759;
1058.4000;0.6634;0.7759;
1058.7000;0.6634;0.7834;
1059.0000;0.6626;0.7834;
1059.3000;0.6659;0.7935;
1059.6000;0.6650;0.7884;
1059.9000;0.6642;0.7910;
1060.2000;0.6626;0.7960;
1060.5000;0.6618;0.7884;
1060.8000;0.6642;0.7935;
1061.1000;0.6650;0.7985;
1061.4000;0.6634;0.7935;
1061.7000;0.6634;0.7884;
1062.0000;0.6618;0.7859;
1062.3000;0.6642;0.7834;
1062.6000;0.6618;0.7759;
1062.9000;0.6642;0.7733;
1063.2000;0.6659;0.7658;
1063.5000;0.6626;0.7532;
1063.8000;0.6618;0.7532;
1064.1000;0.6642;0.7557;
1064.4000;0.6642;0.7658;
1064.7000;0.6642;0.7532;
1065.0000;0.6642;0.7507;
1065.3000;0.6634;0.7507;
1065.6000;0.6659;0.7507;
1065.9000;0.6642;0.7456;
1066.2000;0.6642;0.7406;
1066.5000;0.6593;0.7280;
1066.8000;0.6642;0.7507;
1067.1000;0.6642;0.7532;
1067.4000;0.6618;0.7431;
1067.7000;0.6634;0.7406;
1068.0000;0.6626;0.7406;
1068.3000;0.6634;0.7481;
1068.6000;0.6650;0.7582;
1068.9000;0.6659;0.7633;
1069.2000;0.6650;0.7607;
1069.5000;0.6650;0.7532;
1069.8000;0.6642;0.7557;
1070.1000;0.6650;0.7607;
1070.4000;0.6659;0.7633;
1070.7000;0.6650;0.7683;
1071.0000;0.6642;0.7658;
1071.3000;0.6659;0.7733;
1071.6000;0.6618;0.7607;
1071.9000;0.6626;0.7607;
1072.2000;0.6650;0.7557;
1072.5000;0.6634;0.7481;
1072.8000;0.6618;0.7481;
1073.1000;0.6634;0.7633;
1073.4000;0.6650;0.7658;
1073.7000;0.6659;0.7633;
1074.0000;0.6528;0.7280;
1074.3000;0.6626;0.7582;
1074.6000;0.6618;0.7532;
1074.9000;0.6642;0.7633;
1075.2000;0.6610;0.7532;
1075.5000;0.6650;0.7582;
1075.8000;0.6659;0.7607;
1076.1000;0.6650;0.7633;
1076.4000;0.6634;0.7582;
1076.7000;0.6634;0.7683;
1077.0000;0.6634;0.7708;
1077.3000;0.6650;0.7708;
1077.6000;0.6642;0.7733;
1077.9000;0.6610;0.7708;
1078.2000;0.6650;0.7683;
1078.5000;0.6634;0.7683;
1078.8000;0.6642;0.7683;
1079.1000;0.6634;0.7557;
1079.4000;0.6659;0.7582;
1079.7000;0.6626;0.7456;
1080.0000;0.6642;0.7532;
1080.3000;0.6642;0.7557;
1080.6000;0.6626;0.7532;
1080.9000;0.6634;0.7532;
1081.2000;0.6626;0.7557;
1081.5000;0.6618;0.7582;
1081.8000;0.6618;0.7557;
1082.1000;0.6634;0.7507;
1082.4000;0.6650;0.7607;
1082.7000;0.6634;0.7557;
1083.0000;0.6634;0.7481;
1083.3000;0.6650;0.7557;
1083.6000;0.6642;0.7557;
1083.9000;0.6626;0.7607;
1084.2000;0.6610;0.7557;
1084.5000;0.6626;0.7481;
1084.8000;0.6642;0.7481;
1085.1000;0.6650;0.7557;
1085.4000;0.6626;0.7481;
1085.7000;0.6634;0.7507;
1086.0000;0.6667;0.7582;
1086.3000;0.6626;0.7507;
1086.6000;0.6634;0.7582;
1086.9000;0.6626;0.7582;
1087.2000;0.6650;0.7683;
1087.5000;0.6642;0.7557;
1087.8000;0.6626;0.7582;
1088.1000;0.6610;0.7532;
1088.4000;0.6618;0.7557;
1088.7000;0.6634;0.7582;
1089.0000;0.6634;0.7582;
1089.3000;0.6626;0.7607;
1089.6000;0.6626;0.7607;
1089.9000;0.6634;0.7658;
1090.2000;0.6634;0.7658;
1090.5000;0.6634;0.7557;
1090.8000;0.6634;0.7607;
1091.1000;0.6618;0.7633;
1091.4000;0.6634;0.7658;
1091.7000;0.6626;0.7607;
1092.0000;0.6626;0.7683;
1092.3000;0.6618;0.7607;
1092.6000;0.6667;0.7733;
1092.9000;0.6618;0.7683;
1093.2000;0.6634;0.7633;
1093.5000;0.6626;0.7658;
1093.8000;0.6642;0.7683;
1094.1000;0.6634;0.7607;
1094.4000;0.6626;0.7532;
1094.7000;0.6642;0.7582;
1095.0000;0.6626;0.7607;
1095.3000;0.6626;0.7633;
1095.6000;0.6618;0.7582;
1095.9000;0.6634;0.7683;
1096.2000;0.6626;0.7633;
1096.5000;0.6626;0.7633;
1096.8000;0.6610;0.7582;
1097.1000;0.6618;0.7633;
1097.4000;0.6593;0.7582;
1097.7000;0.6626;0.7658;
1098.0000;0.6593;0.7456;
1098.3000;0.6602;0.7431;
1098.6000;0.6642;0.7507;
1098.9000;0.6650;0.7557;
1099.2000;0.6618;0.7481;
1099.5000;0.6626;0.7557;
1099.8000;0.6634;0.7683;
1100.1000;0.6626;0.7708;
1100.4000;0.6642;0.7784;
1100.7000;0.6634;0.7733;
1101.0000;0.6642;0.7733;
1101.3000;0.6626;0.7708;
1101.6000;0.6626;0.7759;
1101.9000;0.6626;0.7784;
1102.2000;0.6618;0.7733;
1102.5000;0.6618;0.7759;
1102.8000;0.6610;0.7733;
1103.1000;0.6602;0.7708;
1103.4000;0.6610;0.7607;
1103.7000;0.6626;0.7708;
1104.0000;0.6618;0.7708;
1104.3000;0.6626;0.7708;
1104.6000;0.6618;0.7683;
1104.9000;0.6618;0.7658;
1105.2000;0.6618;0.7607;
1105.5000;0.6642;0.7658;
1105.8000;0.6626;0.7607;
1106.1000;0.6618;0.7633;
1106.4000;0.6618;0.7683;
1106.7000;0.6626;0.7607;
1107.0000;0.6626;0.7607;
1107.3000;0.6602;0.7557;
1107.6000;0.6618;0.7607;
1107.9000;0.6618;0.7607;
1108.2000;0.6618;0.7633;
1108.5000;0.6610;0.7582;
1108.8000;0.6618;0.7582;
1109.1000;0.6618;0.7607;
1109.4000;0.6626;0.7582;
1109.7000;0.6610;0.7557;
1110.0000;0.6618;0.7607;
1110.3000;0.6642;0.7633;
1110.6000;0.6626;0.7708;
1110.9000;0.6618;0.7733;
1111.2000;0.6626;0.7809;
1111.5000;0.6634;0.7759;
1111.8000;0.6618;0.7683;
1112.1000;0.6626;0.7708;
1112.4000;0.6602;0.7759;
1112.7000;0.6610;0.7708;
1113.0000;0.6618;0.7582;
1113.3000;0.6593;0.7557;
1113.6000;0.6610;0.7607;
1113.9000;0.6618;0.7683;
1114.2000;0.6626;0.7733;
1114.5000;0.6634;0.7733;
1114.8000;0.6618;0.7733;
1115.1000;0.6626;0.7733;
1115.4000;0.6634;0.7683;
1115.7000;0.6626;0.7733;
1116.0000;0.6626;0.7733;
1116.3000;0.6618;0.7658;
1116.6000;0.6610;0.7708;
1116.9000;0.6618;0.7683;
1117.2000;0.6610;0.7683;
1117.5000;0.6634;0.7708;
1117.8000;0.6610;0.7607;
1118.1000;0.6618;0.7658;
1118.4000;0.6626;0.7633;
1118.7000;0.6593;0.7532;
1119.0000;0.6602;0.7532;
1119.3000;0.6618;0.7507;
1119.6000;0.6610;0.7431;
1119.9000;0.6610;0.7406;
1120.2000;0.6618;0.7507;
1120.5000;0.6626;0.7582;
1120.8000;0.6610;0.7582;
1121.1000;0.6610;0.7683;
1121.4000;0.6618;0.7658;
1121.7000;0.6618;0.7658;
1122.0000;0.6618;0.7708;
1122.3000;0.6545;0.7456;
1122.6000;0.6634;0.7683;
1122.9000;0.6618;0.7633;
1123.2000;0.6650;0.7708;
1123.5000;0.6569;0.7557;
1123.8000;0.6610;0.7557;
1124.1000;0.6626;0.7557;
1124.4000;0.6626;0.7582;
1124.7000;0.6610;0.7481;
1125.0000;0.6610;0.7456;
1125.3000;0.6634;0.7532;
1125.6000;0.6659;0.7607;
1125.9000;0.6618;0.7507;
1126.2000;0.6626;0.7507;
1126.5000;0.6610;0.7481;
1126.8000;0.6610;0.7532;
1127.1000;0.6593;0.7532;
1127.4000;0.6561;0.7330;
1127.7000;0.6618;0.7507;
1128.0000;0.6618;0.7431;
1128.3000;0.6610;0.7456;
1128.6000;0.6610;0.7431;
1128.9000;0.6610;0.7481;
1129.2000;0.6602;0.7532;
1129.5000;0.6634;0.7607;
1129.8000;0.6610;0.7481;
1130.1000;0.6593;0.7381;
1130.4000;0.6618;0.7481;
1130.7000;0.6634;0.7532;
1131.0000;0.6634;0.7481;
1131.3000;0.6610;0.7456;
1131.6000;0.6626;0.7456;
1131.9000;0.6618;0.7481;
1132.2000;0.6634;0.7582;
1132.5000;0.6634;0.7532;
1132.8000;0.6618;0.7481;
1133.1000;0.6634;0.7481;
1133.4000;0.6626;0.7557;
1133.7000;0.6610;0.7582;
1134.0000;0.6626;0.7658;
1134.3000;0.6610;0.7582;
1134.6000;0.6610;0.7633;
1134.9000;0.6626;0.7633;
1135.2000;0.6618;0.7582;
1135.5000;0.6618;0.7633;
1135.8000;0.6626;0.7683;
1136.1000;0.6618;0.7683;
1136.4000;0.6618;0.7658;
1136.7000;0.6618;0.7532;
1137.0000;0.6618;0.7507;
1137.3000;0.6634;0.7633;
1137.6000;0.6626;0.7507;
1137.9000;0.6634;0.7532;
1138.2000;0.6610;0.7507;
1138.5000;0.6618;0.7481;
1138.8000;0.6602;0.7481;
1139.1000;0.6602;0.7532;
1139.4000;0.6602;0.7607;
1139.7000;0.6593;0.7557;
1140.0000;0.6626;0.7658;
1140.3000;0.6610;0.7683;
1140.6000;0.6602;0.7633;
1140.9000;0.6618;0.7733;
1141.2000;0.6618;0.7759;
1141.5000;0.6610;0.7733;
1141.8000;0.6593;0.7683;
1142.1000;0.6593;0.7658;
1142.4000;0.6602;0.7708;
1142.7000;0.6602;0.7708;
1143.0000;0.6610;0.7784;
1143.3000;0.6593;0.7733;
1143.6000;0.6610;0.7708;
1143.9000;0.6593;0.7733;
1144.2000;0.6569;0.7733;
1144.5000;0.6602;0.7784;
1144.8000;0.6577;0.7784;
1145.1000;0.6602;0.7910;
1145.4000;0.6585;0.7935;
1145.7000;0.6610;0.7935;
1146.0000;0.6602;0.7884;
1146.3000;0.6618;0.7960;
1146.6000;0.6610;0.7859;
1146.9000;0.6618;0.7759;
1147.2000;0.6675;0.7884;
1147.5000;0.6642;0.7708;
1147.8000;0.6618;0.7607;
1148.1000;0.6650;0.7708;
1148.4000;0.6610;0.7683;
1148.7000;0.6610;0.7658;
1149.0000;0.6593;0.7633;
1149.3000;0.6602;0.7557;
1149.6000;0.6602;0.7532;
1149.9000;0.6618;0.7532;
1150.2000;0.6610;0.7582;
1150.5000;0.6626;0.7683;
1150.8000;0.6602;0.7633;
1151.1000;0.6602;0.7607;
1151.4000;0.6569;0.7481;
1151.7000;0.6610;0.7557;
1152.0000;0.6585;0.7481;
1152.3000;0.6585;0.7582;
1152.6000;0.6577;0.7557;
1152.9000;0.6593;0.7633;
1153.2000;0.6618;0.7658;
1153.5000;0.6626;0.7633;
1153.8000;0.6585;0.7658;
1154.1000;0.6626;0.7658;
1154.4000;0.6626;0.7708;
1154.7000;0.6618;0.7633;
1155.0000;0.6618;0.7633;
1155.3000;0.6593;0.7532;
1155.6000;0.6626;0.7607;
1155.9000;0.6618;0.7658;
1156.2000;0.6602;0.7658;
1156.5000;0.6626;0.7733;
1156.8000;0.6618;0.7683;
1157.1000;0.6634;0.7683;
1157.4000;0.6626;0.7557;
1157.7000;0.6634;0.7582;
1158.0000;0.6618;0.7582;
1158.3000;0.6602;0.7481;
1158.6000;0.6602;0.7456;
1158.9000;0.6610;0.7557;
1159.2000;0.6602;0.7532;
1159.5000;0.6602;0.7557;
1159.8000;0.6593;0.7658;
1160.1000;0.6610;0.7658;
1160.4000;0.6593;0.7633;
1160.7000;0.6610;0.7658;
1161.0000;0.6585;0.7658;
1161.3000;0.6602;0.7633;
1161.6000;0.6626;0.7557;
1161.9000;0.6610;0.7532;
1162.2000;0.6593;0.7633;
1162.5000;0.6610;0.7658;
1162.8000;0.6626;0.7582;
1163.1000;0.6610;0.7507;
1163.4000;0.6585;0.7507;
1163.7000;0.6602;0.7557;
1164.0000;0.6585;0.7658;
1164.3000;0.6610;0.7708;
1164.6000;0.6593;0.7633;
1164.9000;0.6585;0.7633;
1165.2000;0.6602;0.7733;
1165.5000;0.6626;0.7809;
1165.8000;0.6593;0.7733;
1166.1000;0.6626;0.7708;
1166.4000;0.6602;0.7633;
1166.7000;0.6602;0.7658;
1167.0000;0.6602;0.7633;
1167.3000;0.6602;0.7582;
1167.6000;0.6634;0.7582;
1167.9000;0.6618;0.7582;
1168.2000;0.6602;0.7507;
1168.5000;0.6585;0.7557;
1168.8000;0.6602;0.7557;
1169.1000;0.6667;0.7658;
1169.4000;0.6585;0.7481;
1169.7000;0.6602;0.7557;
1170.0000;0.6691;0.7784;
1170.3000;0.6610;0.7582;
1170.6000;0.6610;0.7633;
1170.9000;0.6618;0.7658;
1171.2000;0.6610;0.7658;
1171.5000;0.6618;0.7658;
1171.8000;0.6593;0.7633;
1172.1000;0.6512;0.7355;
1172.4000;0.6602;0.7658;
1172.7000;0.6602;0.7683;
1173.0000;0.6618;0.7683;
1173.3000;0.6585;0.7658;
1173.6000;0.6585;0.7633;
1173.9000;0.6618;0.7733;
1174.2000;0.6593;0.7708;
1174.5000;0.6610;0.7784;
1174.8000;0.6585;0.7733;
1175.1000;0.6593;0.7834;
1175.4000;0.6634;0.7884;
1175.7000;0.6618;0.7733;
1176.0000;0.6577;0.7633;
1176.3000;0.6610;0.7633;
1176.6000;0.6602;0.7582;
1176.9000;0.6585;0.7507;
1177.2000;0.6585;0.7507;
1177.5000;0.6602;0.7481;
1177.8000;0.6593;0.7532;
1178.1000;0.6618;0.7582;
1178.4000;0.6610;0.7557;
1178.7000;0.6602;0.7683;
1179.0000;0.6610;0.7683;
1179.3000;0.6602;0.7683;
1179.6000;0.6618;0.7759;
1179.9000;0.6585;0.7708;
1180.2000;0.6569;0.7708;
1180.5000;0.6610;0.7759;
1180.8000;0.6593;0.7708;
1181.1000;0.6593;0.7708;
1181.4000;0.6602;0.7733;
1181.7000;0.6593;0.7759;
1182.0000;0.6585;0.7733;
1182.3000;0.6528;0.7507;
1182.6000;0.6585;0.7658;
1182.9000;0.6602;0.7633;
1183.2000;0.6593;0.7607;
1183.5000;0.6585;0.7658;
1183.8000;0.6585;0.7633;
1184.1000;0.6585;0.7683;
1184.4000;0.6602;0.7658;
1184.7000;0.6593;0.7658;
1185.0000;0.6602;0.7708;
1185.3000;0.6593;0.7658;
1185.6000;0.6626;0.7683;
1185.9000;0.6626;0.7683;
1186.2000;0.6593;0.7658;
1186.5000;0.6602;0.7759;
1186.8000;0.6610;0.7784;
1187.1000;0.6618;0.7834;
1187.4000;0.6593;0.7733;
1187.7000;0.6536;0.7582;
1188.0000;0.6626;0.7809;
1188.3000;0.6610;0.7784;
1188.6000;0.6585;0.7708;
1188.9000;0.6577;0.7683;
1189.2000;0.6593;0.7733;
1189.5000;0.6593;0.7658;
1189.8000;0.6602;0.7658;
1190.1000;0.6610;0.7708;
1190.4000;0.6585;0.7759;
1190.7000;0.6593;0.7784;
1191.0000;0.6618;0.7784;
1191.3000;0.6577;0.7582;
1191.6000;0.6593;0.7557;
1191.9000;0.6618;0.7557;
1192.2000;0.6618;0.7658;
1192.5000;0.6593;0.7733;
1192.8000;0.6602;0.7859;
1193.1000;0.6610;0.7884;
1193.4000;0.6667;0.7935;
1193.7000;0.6569;0.7759;
1194.0000;0.6602;0.7834;
1194.3000;0.6634;0.7884;
1194.6000;0.6536;0.7607;
1194.9000;0.6593;0.7708;
1195.2000;0.6585;0.7683;
1195.5000;0.6618;0.7683;
1195.8000;0.6602;0.7582;
1196.1000;0.6593;0.7557;
1196.4000;0.6626;0.7633;
1196.7000;0.6593;0.7557;
1197.0000;0.6602;0.7532;
1197.3000;0.6610;0.7507;
1197.6000;0.6593;0.7582;
1197.9000;0.6585;0.7658;
1198.2000;0.6610;0.7708;
1198.5000;0.6602;0.7683;
1198.8000;0.6602;0.7733;
1199.1000;0.6602;0.7784;
1199.4000;0.6602;0.7910;
1199.7000;0.6610;0.7834;
1200.0000;0.6593;0.7809;
1200.3000;0.6585;0.7759;
1200.6000;0.6593;0.7834;
1200.9000;0.6602;0.7834;
1201.2000;0.6593;0.7784;
1201.5000;0.6667;0.7985;
1201.8000;0.6553;0.7759;
1202.1000;0.6602;0.7809;
1202.4000;0.6602;0.7809;
1202.7000;0.6618;0.7859;
1203.0000;0.6610;0.7834;
1203.3000;0.6593;0.7809;
1203.6000;0.6585;0.7784;
1203.9000;0.6618;0.7809;
1204.2000;0.6610;0.7708;
1204.5000;0.6626;0.7733;
1204.8000;0.6602;0.7607;
1205.1000;0.6569;0.7532;
1205.4000;0.6593;0.7557;
1205.7000;0.6593;0.7607;
1206.0000;0.6569;0.7481;
1206.3000;0.6593;0.7532;
1206.6000;0.6577;0.7507;
1206.9000;0.6577;0.7557;
1207.2000;0.6577;0.7582;
1207.5000;0.6602;0.7582;
1207.8000;0.6593;0.7557;
1208.1000;0.6569;0.7481;
1208.4000;0.6585;0.7633;
1208.7000;0.6650;0.7809;
1209.0000;0.6569;0.7658;
1209.3000;0.6577;0.7683;
1209.6000;0.6585;0.7683;
1209.9000;0.6593;0.7683;
1210.2000;0.6577;0.7733;
1210.5000;0.6569;0.7733;
1210.8000;0.6593;0.7759;
1211.1000;0.6569;0.7708;
1211.4000;0.6602;0.7834;
1211.7000;0.6593;0.7809;
1212.0000;0.6585;0.7859;
1212.3000;0.6602;0.7834;
1212.6000;0.6593;0.7834;
1212.9000;0.6585;0.7733;
1213.2000;0.6593;0.7733;
1213.5000;0.6610;0.7759;
1213.8000;0.6602;0.7733;
1214.1000;0.6610;0.7809;
1214.4000;0.6585;0.7834;
1214.7000;0.6610;0.7910;
1215.0000;0.6577;0.7834;
1215.3000;0.6593;0.7960;
1215.6000;0.6593;0.7960;
1215.9000;0.6585;0.7859;
1216.2000;0.6593;0.7834;
1216.5000;0.6593;0.7859;
1216.8000;0.6593;0.7809;
1217.1000;0.6569;0.7683;
1217.4000;0.6602;0.7633;
1217.7000;0.6602;0.7683;
1218.0000;0.6585;0.7708;
1218.3000;0.6585;0.7708;
1218.6000;0.6602;0.7759;
1218.9000;0.6593;0.7759;
1219.2000;0.6585;0.7784;
1219.5000;0.6593;0.7708;
1219.8000;0.6577;0.7708;
1220.1000;0.6593;0.7809;
1220.4000;0.6577;0.7683;
1220.7000;0.6577;0.7683;
1221.0000;0.6577;0.7658;
1221.3000;0.6585;0.7708;
1221.6000;0.6585;0.7658;
1221.9000;0.6593;0.7633;
1222.2000;0.6585;0.7633;
1222.5000;0.6569;0.7582;
1222.8000;0.6553;0.7456;
1223.1000;0.6602;0.7708;
1223.4000;0.6593;0.7582;
1223.7000;0.6593;0.7607;
1224.0000;0.6602;0.7633;
1224.3000;0.6585;0.7633;
1224.6000;0.6585;0.7683;
1224.9000;0.6593;0.7708;
1225.2000;0.6593;0.7733;
1225.5000;0.6593;0.7708;
1225.8000;0.6585;0.7733;
1226.1000;0.6602;0.7733;
1226.4000;0.6602;0.7784;
1226.7000;0.6593;0.7759;
1227.0000;0.6593;0.7784;
1227.3000;0.6569;0.7708;
1227.6000;0.6593;0.7708;
1227.9000;0.6602;0.7733;
1228.2000;0.6593;0.7784;
1228.5000;0.6585;0.7759;
1228.8000;0.6602;0.7834;
1229.1000;0.6593;0.7759;
1229.4000;0.6602;0.7784;
1229.7000;0.6593;0.7708;
1230.0000;0.6577;0.7784;
1230.3000;0.6593;0.7759;
1230.6000;0.6585;0.7733;
1230.9000;0.6569;0.7708;
1231.2000;0.6577;0.7759;
1231.5000;0.6553;0.7708;
1231.8000;0.6593;0.7733;
1232.1000;0.6610;0.7834;
1232.4000;0.6585;0.7859;
1232.7000;0.6602;0.7859;
1233.0000;0.6593;0.7834;
1233.3000;0.6602;0.7884;
1233.6000;0.6602;0.7884;
1233.9000;0.6610;0.7935;
1234.2000;0.6610;0.7960;
1234.5000;0.6593;0.7960;
1234.8000;0.6602;0.7935;
1235.1000;0.6593;0.7910;
1235.4000;0.6602;0.7859;
1235.7000;0.6602;0.7910;
1236.0000;0.6585;0.7809;
1236.3000;0.6585;0.7733;
1236.6000;0.6593;0.7884;
1236.9000;0.6593;0.7834;
1237.2000;0.6610;0.7784;
1237.5000;0.6593;0.7733;
1237.8000;0.6602;0.7733;
1238.1000;0.6585;0.7708;
1238.4000;0.6585;0.7733;
1238.7000;0.6593;0.7784;
1239.0000;0.6593;0.7759;
1239.3000;0.6610;0.7809;
1239.6000;0.6593;0.7784;
1239.9000;0.6585;0.7759;
1240.2000;0.6585;0.7784;
1240.5000;0.6585;0.7784;
1240.8000;0.6577;0.7834;
1241.1000;0.6585;0.7834;
1241.4000;0.6602;0.7884;
1241.7000;0.6593;0.7834;
1242.0000;0.6585;0.7910;
1242.3000;0.6585;0.7985;
1242.6000;0.6569;0.7960;
1242.9000;0.6585;0.8010;
1243.2000;0.6577;0.7935;
1243.5000;0.6577;0.8036;
1243.8000;0.6585;0.8010;
1244.1000;0.6593;0.7960;
1244.4000;0.6610;0.8036;
1244.7000;0.6545;0.7910;
1245.0000;0.6602;0.8010;
1245.3000;0.6585;0.7884;
1245.6000;0.6602;0.8010;
1245.9000;0.6569;0.7859;
1246.2000;0.6602;0.7985;
1246.5000;0.6626;0.8036;
1246.8000;0.6593;0.7834;
1247.1000;0.6602;0.7884;
1247.4000;0.6618;0.7884;
1247.7000;0.6585;0.7834;
1248.0000;0.6577;0.7759;
1248.3000;0.6593;0.7683;
1248.6000;0.6585;0.7658;
1248.9000;0.6585;0.7708;
1249.2000;0.6585;0.7658;
1249.5000;0.6593;0.7683;
1249.8000;0.6585;0.7633;
1250.1000;0.6593;0.7708;
1250.4000;0.6585;0.7733;
1250.7000;0.6585;0.7607;
1251.0000;0.6602;0.7658;
1251.3000;0.6593;0.7683;
1251.6000;0.6561;0.7607;
1251.9000;0.6602;0.7708;
1252.2000;0.6593;0.7683;
1252.5000;0.6569;0.7582;
1252.8000;0.6585;0.7633;
1253.1000;0.6577;0.7607;
1253.4000;0.6585;0.7557;
1253.7000;0.6610;0.7683;
1254.0000;0.6585;0.7658;
1254.3000;0.6593;0.7784;
1254.6000;0.6659;0.7935;
1254.9000;0.6593;0.7784;
1255.2000;0.6602;0.7708;
1255.5000;0.6528;0.7507;
1255.8000;0.6610;0.7658;
1256.1000;0.6602;0.7633;
1256.4000;0.6593;0.7607;
1256.7000;0.6593;0.7683;
1257.0000;0.6577;0.7607;
1257.3000;0.6602;0.7683;
1257.6000;0.6585;0.7683;
1257.9000;0.6577;0.7759;
1258.2000;0.6585;0.7683;
1258.5000;0.6618;0.7708;
1258.8000;0.6577;0.7658;
1259.1000;0.6585;0.7658;
1259.4000;0.6585;0.7633;
1259.7000;0.6602;0.7759;
1260.0000;0.6626;0.7809;
1260.3000;0.6593;0.7809;
1260.6000;0.6585;0.7733;
1260.9000;0.6593;0.7759;
1261.2000;0.6675;0.7960;
1261.5000;0.6634;0.7834;
1261.8000;0.6602;0.7759;
1262.1000;0.6626;0.7884;
1262.4000;0.6553;0.7733;
1262.7000;0.6585;0.7759;
1263.0000;0.6585;0.7708;
1263.3000;0.6536;0.7607;
1263.6000;0.6585;0.7733;
1263.9000;0.6585;0.7759;
1264.2000;0.6577;0.7733;
1264.5000;0.6593;0.7708;
1264.8000;0.6569;0.7683;
1265.1000;0.6593;0.7809;
1265.4000;0.6585;0.7733;
1265.7000;0.6585;0.7834;
1266.0000;0.6593;0.7910;
1266.3000;0.6561;0.7834;
1266.6000;0.6593;0.7784;
1266.9000;0.6569;0.7633;
1267.2000;0.6569;0.7633;
1267.5000;0.6536;0.7507;
1267.8000;0.6569;0.7582;
1268.1000;0.6577;0.7607;
1268.4000;0.6610;0.7708;
1268.7000;0.6569;0.7607;
1269.0000;0.6545;0.7633;
1269.3000;0.6577;0.7708;
1269.6000;0.6569;0.7809;
1269.9000;0.6593;0.7759;
1270.2000;0.6593;0.7809;
1270.5000;0.6585;0.7733;
1270.8000;0.6585;0.7834;
1271.1000;0.6610;0.7859;
1271.4000;0.6585;0.7784;
1271.7000;0.6585;0.7859;
1272.0000;0.6602;0.7910;
1272.3000;0.6569;0.7759;
1272.6000;0.6610;0.7809;
1272.9000;0.6577;0.7708;
1273.2000;0.6577;0.7759;
1273.5000;0.6593;0.7708;
1273.8000;0.6569;0.7683;
1274.1000;0.6602;0.7733;
1274.4000;0.6610;0.7859;
1274.7000;0.6602;0.7935;
1275.0000;0.6602;0.7859;
1275.3000;0.6585;0.7859;
1275.6000;0.6593;0.7809;
1275.9000;0.6659;0.7910;
1276.2000;0.6602;0.7809;
1276.5000;0.6602;0.7708;
1276.8000;0.6569;0.7507;
1277.1000;0.6585;0.7481;
1277.4000;0.6585;0.7481;
1277.7000;0.6577;0.7431;
1278.0000;0.6585;0.7456;
1278.3000;0.6585;0.7557;
1278.6000;0.6585;0.7582;
1278.9000;0.6569;0.7607;
1279.2000;0.6593;0.7658;
1279.5000;0.6561;0.7607;
1279.8000;0.6577;0.7683;
1280.1000;0.6577;0.7633;
1280.4000;0.6585;0.7607;
1280.7000;0.6593;0.7557;
1281.0000;0.6626;0.7633;
1281.3000;0.6585;0.7582;
1281.6000;0.6585;0.7582;
1281.9000;0.6561;0.7507;
1282.2000;0.6569;0.7532;
1282.5000;0.6577;0.7532;
1282.8000;0.6569;0.7607;
1283.1000;0.6569;0.7557;
1283.4000;0.6577;0.7658;
1283.7000;0.6650;0.7884;
1284.0000;0.6593;0.7809;
1284.3000;0.6602;0.7884;
1284.6000;0.6577;0.7759;
1284.9000;0.6593;0.7759;
1285.2000;0.6634;0.7884;
1285.5000;0.6593;0.7834;
1285.8000;0.6585;0.7759;
1286.1000;0.6585;0.7759;
1286.4000;0.6602;0.7733;
1286.7000;0.6593;0.7733;
1287.0000;0.6602;0.7759;
1287.3000;0.6593;0.7708;
1287.6000;0.6585;0.7759;
1287.9000;0.6585;0.7733;
1288.2000;0.6569;0.7607;
1288.5000;0.6561;0.7658;
1288.8000;0.6577;0.7733;
1289.1000;0.6577;0.7759;
1289.4000;0.6585;0.7784;
1289.7000;0.6577;0.7784;
1290.0000;0.6585;0.7784;
1290.3000;0.6577;0.7884;
1290.6000;0.6577;0.7809;
1290.9000;0.6577;0.7884;
1291.2000;0.6577;0.7935;
1291.5000;0.6577;0.7985;
1291.8000;0.6577;0.7935;
1292.1000;0.6569;0.7834;
1292.4000;0.6610;0.7960;
1292.7000;0.6577;0.7834;
1293.0000;0.6569;0.7733;
1293.3000;0.6553;0.7733;
1293.6000;0.6561;0.7708;
1293.9000;0.6577;0.7708;
1294.2000;0.6585;0.7658;
1294.5000;0.6593;0.7683;
1294.8000;0.6561;0.7633;
1295.1000;0.6569;0.7708;
1295.4000;0.6602;0.7784;
1295.7000;0.6593;0.7784;
1296.0000;0.6610;0.7859;
1296.3000;0.6577;0.7809;
1296.6000;0.6569;0.7784;
1296.9000;0.6569;0.7834;
1297.2000;0.6585;0.7834;
1297.5000;0.6593;0.7859;
1297.8000;0.6593;0.7935;
1298.1000;0.6577;0.7960;
1298.4000;0.6569;0.7910;
1298.7000;0.6569;0.7884;
1299.0000;0.6602;0.7985;
1299.3000;0.6585;0.7910;
1299.6000;0.6585;0.7910;
1299.9000;0.6618;0.8061;
1300.2000;0.6593;0.7935;
1300.5000;0.6585;0.7910;
1300.8000;0.6626;0.8036;
1301.1000;0.6545;0.7809;
1301.4000;0.6569;0.7834;
1301.7000;0.6585;0.7910;
1302.0000;0.6593;0.7884;
1302.3000;0.6626;0.7960;
1302.6000;0.6553;0.7733;
1302.9000;0.6561;0.7633;
1303.2000;0.6577;0.7633;
1303.5000;0.6577;0.7607;
1303.8000;0.6569;0.7633;
1304.1000;0.6569;0.7733;
1304.4000;0.6593;0.7784;
1304.7000;0.6577;0.7859;
1305.0000;0.6536;0.7733;
1305.3000;0.6618;0.7910;
1305.6000;0.6593;0.7834;
1305.9000;0.6577;0.7859;
1306.2000;0.6561;0.7733;
1306.5000;0.6577;0.7683;
1306.8000;0.6577;0.7708;
1307.1000;0.6610;0.7733;
1307.4000;0.6585;0.7658;
1307.7000;0.6577;0.7708;
1308.0000;0.6577;0.7633;
1308.3000;0.6585;0.7683;
1308.6000;0.6585;0.7708;
1308.9000;0.6561;0.7658;
1309.2000;0.6569;0.7708;
1309.5000;0.6577;0.7733;
1309.8000;0.6642;0.7960;
1310.1000;0.6585;0.7733;
1310.4000;0.6610;0.7859;
1310.7000;0.6585;0.7809;
1311.0000;0.6618;0.7759;
1311.3000;0.6577;0.7658;
1311.6000;0.6561;0.7708;
1311.9000;0.6577;0.7733;
1312.2000;0.6569;0.7683;
1312.5000;0.6577;0.7683;
1312.8000;0.6569;0.7683;
1313.1000;0.6585;0.7784;
1313.4000;0.6569;0.7733;
1313.7000;0.6569;0.7683;
1314.0000;0.6561;0.7683;
1314.3000;0.6569;0.7708;
1314.6000;0.6561;0.7683;
1314.9000;0.6577;0.7759;
1315.2000;0.6569;0.7784;
1315.5000;0.6569;0.7759;
1315.8000;0.6577;0.7784;
1316.1000;0.6577;0.7733;
1316.4000;0.6577;0.7809;
1316.7000;0.6553;0.7759;
1317.0000;0.6585;0.7910;
1317.3000;0.6585;0.7935;
1317.6000;0.6577;0.7784;
1317.9000;0.6577;0.7708;
1318.2000;0.6577;0.7708;
1318.5000;0.6585;0.7557;
1318.8000;0.6488;0.7330;
1319.1000;0.6553;0.7557;
1319.4000;0.6569;0.7658;
1319.7000;0.6593;0.7759;
1320.0000;0.6577;0.7759;
1320.3000;0.6569;0.7708;
1320.6000;0.6577;0.7708;
1320.9000;0.6593;0.7683;
1321.2000;0.6593;0.7557;
1321.5000;0.6577;0.7532;
1321.8000;0.6577;0.7708;
1322.1000;0.6577;0.7733;
1322.4000;0.6577;0.7733;
1322.7000;0.6593;0.7683;
1323.0000;0.6577;0.7658;
1323.3000;0.6569;0.7582;
1323.6000;0.6577;0.7557;
1323.9000;0.6561;0.7532;
1324.2000;0.6545;0.7431;
1324.5000;0.6593;0.7507;
1324.8000;0.6577;0.7481;
1325.1000;0.6650;0.7733;
1325.4000;0.6569;0.7481;
1325.7000;0.6561;0.7431;
1326.0000;0.6610;0.7481;
1326.3000;0.6585;0.7481;
1326.6000;0.6610;0.7683;
1326.9000;0.6602;0.7759;
1327.2000;0.6585;0.7708;
1327.5000;0.6561;0.7607;
1327.8000;0.6577;0.7633;
1328.1000;0.6528;0.7481;
1328.4000;0.6577;0.7607;
1328.7000;0.6585;0.7658;
1329.0000;0.6593;0.7708;
1329.3000;0.6569;0.7607;
1329.6000;0.6593;0.7633;
1329.9000;0.6553;0.7607;
1330.2000;0.6577;0.7607;
1330.5000;0.6585;0.7607;
1330.8000;0.6593;0.7557;
1331.1000;0.6585;0.7633;
1331.4000;0.6585;0.7683;
1331.7000;0.6585;0.7733;
1332.0000;0.6561;0.7633;
1332.3000;0.6585;0.7633;
1332.6000;0.6577;0.7658;
1332.9000;0.6585;0.7708;
1333.2000;0.6577;0.7683;
1333.5000;0.6602;0.7759;
1333.8000;0.6593;0.7733;
1334.1000;0.6577;0.7708;
1334.4000;0.6545;0.7582;
1334.7000;0.6569;0.7759;
1335.0000;0.6585;0.7708;
1335.3000;0.6577;0.7658;
1335.6000;0.6585;0.7683;
1335.9000;0.6569;0.7658;
1336.2000;0.6585;0.7733;
1336.5000;0.6577;0.7683;
1336.8000;0.6585;0.7683;
1337.1000;0.6593;0.7683;
1337.4000;0.6593;0.7708;
1337.7000;0.6577;0.7708;
1338.0000;0.6569;0.7784;
1338.3000;0.6512;0.7658;
1338.6000;0.6577;0.7759;
1338.9000;0.6585;0.7809;
1339.2000;0.6553;0.7733;
1339.5000;0.6585;0.7859;
1339.8000;0.6561;0.7834;
1340.1000;0.6569;0.7910;
1340.4000;0.6577;0.7910;
1340.7000;0.6569;0.7809;
1341.0000;0.6536;0.7834;
1341.3000;0.6585;0.7935;
1341.6000;0.6577;0.7935;
1341.9000;0.6634;0.8036;
1342.2000;0.6577;0.7809;
1342.5000;0.6577;0.7859;
1342.8000;0.6577;0.7759;
1343.1000;0.6569;0.7708;
1343.4000;0.6577;0.7633;
1343.7000;0.6553;0.7607;
1344.0000;0.6577;0.7633;
1344.3000;0.6585;0.7708;
1344.6000;0.6569;0.7708;
1344.9000;0.6569;0.7658;
1345.2000;0.6577;0.7683;
1345.5000;0.6618;0.7809;
1345.8000;0.6585;0.7708;
1346.1000;0.6577;0.7683;
1346.4000;0.6602;0.7658;
1346.7000;0.6585;0.7557;
1347.0000;0.6577;0.7582;
1347.3000;0.6512;0.7481;
1347.6000;0.6561;0.7658;
1347.9000;0.6585;0.7733;
1348.2000;0.6561;0.7683;
1348.5000;0.6569;0.7633;
1348.8000;0.6561;0.7582;
1349.1000;0.6561;0.7607;
1349.4000;0.6577;0.7708;
1349.7000;0.6569;0.7683;
1350.0000;0.6577;0.7582;
1350.3000;0.6569;0.7633;
1350.6000;0.6561;0.7658;
1350.9000;0.6569;0.7658;
1351.2000;0.6569;0.7607;
1351.5000;0.6520;0.7481;
1351.8000;0.6553;0.7532;
1352.1000;0.6528;0.7557;
1352.4000;0.6561;0.7708;
1352.7000;0.6569;0.7809;
1353.0000;0.6585;0.7910;
1353.3000;0.6569;0.7859;
1353.6000;0.6569;0.7733;
1353.9000;0.6585;0.7733;
1354.2000;0.6577;0.7733;
1354.5000;0.6577;0.7733;
1354.8000;0.6569;0.7683;
1355.1000;0.6585;0.7658;
1355.4000;0.6585;0.7708;
1355.7000;0.6577;0.7784;
1356.0000;0.6545;0.7809;
1356.3000;0.6528;0.7733;
1356.6000;0.6577;0.7859;
1356.9000;0.6577;0.7834;
1357.2000;0.6577;0.7834;
1357.5000;0.6577;0.7809;
1357.8000;0.6577;0.7759;
1358.1000;0.6561;0.7708;
1358.4000;0.6569;0.7708;
1358.7000;0.6569;0.7658;
1359.0000;0.6569;0.7708;
1359.3000;0.6577;0.7708;
1359.6000;0.6593;0.7784;
1359.9000;0.6561;0.7759;
1360.2000;0.6577;0.7784;
1360.5000;0.6553;0.7784;
1360.8000;0.6553;0.7884;
1361.1000;0.6561;0.7910;
1361.4000;0.6561;0.7985;
1361.7000;0.6569;0.7935;
1362.0000;0.6593;0.8036;
1362.3000;0.6561;0.7985;
1362.6000;0.6536;0.7859;
1362.9000;0.6536;0.7784;
1363.2000;0.6585;0.7884;
1363.5000;0.6593;0.7859;
1363.8000;0.6577;0.7884;
1364.1000;0.6569;0.7834;
1364.4000;0.6585;0.7834;
1364.7000;0.6577;0.7759;
1365.0000;0.6585;0.7884;
1365.3000;0.6650;0.8036;
1365.6000;0.6577;0.7784;
1365.9000;0.6569;0.7708;
1366.2000;0.6585;0.7784;
1366.5000;0.6626;0.7935;
1366.8000;0.6585;0.7784;
1367.1000;0.6593;0.7834;
1367.4000;0.6569;0.7658;
1367.7000;0.6577;0.7708;
1368.0000;0.6577;0.7683;
1368.3000;0.6585;0.7658;
1368.6000;0.6569;0.7607;
1368.9000;0.6569;0.7683;
1369.2000;0.6585;0.7859;
1369.5000;0.6553;0.7784;
1369.8000;0.6569;0.7834;
1370.1000;0.6626;0.7985;
1370.4000;0.6569;0.7759;
1370.7000;0.6569;0.7759;
1371.0000;0.6577;0.7784;
1371.3000;0.6569;0.7784;
1371.6000;0.6569;0.7809;
1371.9000;0.6593;0.7809;
1372.2000;0.6585;0.7809;
1372.5000;0.6569;0.7784;
1372.8000;0.6577;0.7809;
1373.1000;0.6577;0.7859;
1373.4000;0.6593;0.7784;
1373.7000;0.6618;0.7859;
1374.0000;0.6585;0.7809;
1374.3000;0.6569;0.7809;
1374.6000;0.6528;0.7759;
1374.9000;0.6569;0.7859;
1375.2000;0.6561;0.7809;
1375.5000;0.6577;0.7759;
1375.8000;0.6569;0.7733;
1376.1000;0.6561;0.7708;
1376.4000;0.6585;0.7759;
1376.7000;0.6561;0.7733;
1377.0000;0.6528;0.7607;
1377.3000;0.6602;0.7784;
1377.6000;0.6561;0.7708;
1377.9000;0.6577;0.7784;
1378.2000;0.6553;0.7633;
1378.5000;0.6577;0.7784;
1378.8000;0.6585;0.7759;
1379.1000;0.6561;0.7658;
1379.4000;0.6585;0.7658;
1379.7000;0.6561;0.7557;
1380.0000;0.6545;0.7557;
1380.3000;0.6569;0.7532;
1380.6000;0.6569;0.7481;
1380.9000;0.6561;0.7532;
1381.2000;0.6561;0.7557;
1381.5000;0.6569;0.7582;
1381.8000;0.6569;0.7532;
1382.1000;0.6593;0.7607;
1382.4000;0.6569;0.7582;
1382.7000;0.6577;0.7582;
1383.0000;0.6545;0.7532;
1383.3000;0.6569;0.7633;
1383.6000;0.6585;0.7708;
1383.9000;0.6577;0.7683;
1384.2000;0.6545;0.7607;
1384.5000;0.6553;0.7683;
1384.8000;0.6577;0.7759;
1385.1000;0.6569;0.7834;
1385.4000;0.6569;0.7859;
1385.7000;0.6585;0.7884;
1386.0000;0.6602;0.7935;
1386.3000;0.6569;0.7834;
1386.6000;0.6553;0.7759;
1386.9000;0.6585;0.7733;
1387.2000;0.6577;0.7759;
1387.5000;0.6585;0.7784;
1387.8000;0.6553;0.7759;
1388.1000;0.6577;0.7708;
1388.4000;0.6577;0.7708;
1388.7000;0.6504;0.7557;
1389.0000;0.6553;0.7733;
1389.3000;0.6569;0.7759;
1389.6000;0.6593;0.7784;
1389.9000;0.6577;0.7733;
1390.2000;0.6585;0.7607;
1390.5000;0.6561;0.7633;
1390.8000;0.6593;0.7683;
1391.1000;0.6602;0.7733;
1391.4000;0.6610;0.7834;
1391.7000;0.6585;0.7884;
1392.0000;0.6585;0.7935;
1392.3000;0.6593;0.7935;
1392.6000;0.6569;0.7834;
1392.9000;0.6577;0.7834;
1393.2000;0.6569;0.7784;
1393.5000;0.6577;0.7809;
1393.8000;0.6553;0.7733;
1394.1000;0.6553;0.7708;
1394.4000;0.6561;0.7633;
1394.7000;0.6577;0.7557;
1395.0000;0.6561;0.7582;
1395.3000;0.6569;0.7532;
1395.6000;0.6593;0.7633;
1395.9000;0.6520;0.7431;
1396.2000;0.6553;0.7582;
1396.5000;0.6561;0.7607;
1396.8000;0.6577;0.7683;
1397.1000;0.6561;0.7708;
1397.4000;0.6577;0.7759;
1397.7000;0.6593;0.7759;
1398.0000;0.6642;0.7859;
1398.3000;0.6569;0.7683;
1398.6000;0.6569;0.7733;
1398.9000;0.6577;0.7759;
1399.2000;0.6569;0.7784;
1399.5000;0.6545;0.7708;
1399.8000;0.6561;0.7633;
