time/ms;Fluo/V;P700 deltaI/I x10³;
-199.8000;1.1445;0.7532;
-199.5000;1.1437;0.7507;
-199.2000;1.1420;0.7557;
-198.9000;1.1437;0.7507;
-198.6000;1.1429;0.7481;
-198.3000;1.1461;0.7557;
-198.0000;1.1429;0.7507;
-197.7000;1.1445;0.7582;
-197.4000;1.1461;0.7607;
-197.1000;1.1453;0.7456;
-196.8000;1.1429;0.7456;
-196.5000;1.1412;0.7456;
-196.2000;1.1445;0.7507;
-195.9000;1.1437;0.7481;
-195.6000;1.1412;0.7456;
-195.3000;1.1445;0.7582;
-195.0000;1.1445;0.7582;
-194.7000;1.1453;0.7658;
-194.4000;1.1510;0.7809;
-194.1000;1.1437;0.7633;
-193.8000;1.1453;0.7683;
-193.5000;1.1396;0.7532;
-193.2000;1.1437;0.7683;
-192.9000;1.1420;0.7658;
-192.6000;1.1461;0.7708;
-192.3000;1.1510;0.7884;
-192.0000;1.1469;0.7708;
-191.7000;1.1445;0.7633;
-191.4000;1.1437;0.7607;
-191.1000;1.1437;0.7607;
-190.8000;1.1486;0.7708;
-190.5000;1.1429;0.7633;
-190.2000;1.1404;0.7481;
-189.9000;1.1420;0.7582;
-189.6000;1.1461;0.7658;
-189.3000;1.1461;0.7582;
-189.0000;1.1445;0.7456;
-188.7000;1.1461;0.7481;
-188.4000;1.1420;0.7456;
-188.1000;1.1445;0.7607;
-187.8000;1.1437;0.7633;
-187.5000;1.1461;0.7607;
-187.2000;1.1461;0.7633;
-186.9000;1.1461;0.7633;
-186.6000;1.1453;0.7607;
-186.3000;1.1461;0.7532;
-186.0000;1.1445;0.7507;
-185.7000;1.1518;0.7708;
-185.4000;1.1461;0.7532;
-185.1000;1.1453;0.7431;
-184.8000;1.1445;0.7507;
-184.5000;1.1445;0.7607;
-184.2000;1.1437;0.7633;
-183.9000;1.1461;0.7633;
-183.6000;1.1461;0.7658;
-183.3000;1.1453;0.7708;
-183.0000;1.1461;0.7708;
-182.7000;1.1461;0.7658;
-182.4000;1.1445;0.7633;
-182.1000;1.1469;0.7683;
-181.8000;1.1477;0.7708;
-181.5000;1.1420;0.7582;
-181.2000;1.1461;0.7733;
-180.9000;1.1453;0.7784;
-180.6000;1.1420;0.7733;
-180.3000;1.1445;0.7784;
-180.0000;1.1445;0.7658;
-179.7000;1.1461;0.7607;
-179.4000;1.1469;0.7683;
-179.1000;1.1453;0.7708;
-178.8000;1.1453;0.7708;
-178.5000;1.1445;0.7759;
-178.2000;1.1461;0.7834;
-177.9000;1.1445;0.7809;
-177.6000;1.1461;0.7809;
-177.3000;1.1469;0.7834;
-177.0000;1.1461;0.7809;
-176.7000;1.1453;0.7834;
-176.4000;1.1453;0.7960;
-176.1000;1.1445;0.8010;
-175.8000;1.1453;0.8010;
-175.5000;1.1445;0.7910;
-175.2000;1.1445;0.7784;
-174.9000;1.1437;0.7733;
-174.6000;1.1453;0.7759;
-174.3000;1.1429;0.7683;
-174.0000;1.1437;0.7683;
-173.7000;1.1437;0.7784;
-173.4000;1.1445;0.7809;
-173.1000;1.1469;0.7859;
-172.8000;1.1453;0.7834;
-172.5000;1.1461;0.7859;
-172.2000;1.1453;0.7809;
-171.9000;1.1404;0.7633;
-171.6000;1.1477;0.7809;
-171.3000;1.1453;0.7759;
-171.0000;1.1453;0.7683;
-170.7000;1.1453;0.7633;
-170.4000;1.1461;0.7683;
-170.1000;1.1453;0.7658;
-169.8000;1.1437;0.7633;
-169.5000;1.1445;0.7658;
-169.2000;1.1453;0.7708;
-168.9000;1.1453;0.7708;
-168.6000;1.1437;0.7683;
-168.3000;1.1453;0.7784;
-168.0000;1.1396;0.7759;
-167.7000;1.1461;0.7859;
-167.4000;1.1453;0.7884;
-167.1000;1.1494;0.7960;
-166.8000;1.1461;0.7884;
-166.5000;1.1453;0.7960;
-166.2000;1.1461;0.8061;
-165.9000;1.1469;0.7960;
-165.6000;1.1445;0.7910;
-165.3000;1.1477;0.8010;
-165.0000;1.1494;0.8036;
-164.7000;1.1445;0.7910;
-164.4000;1.1453;0.7935;
-164.1000;1.1453;0.7985;
-163.8000;1.1437;0.7985;
-163.5000;1.1420;0.7935;
-163.2000;1.1445;0.7910;
-162.9000;1.1429;0.7884;
-162.6000;1.1445;0.7708;
-162.3000;1.1461;0.7708;
-162.0000;1.1461;0.7708;
-161.7000;1.1445;0.7683;
-161.4000;1.1437;0.7582;
-161.1000;1.1437;0.7708;
-160.8000;1.1437;0.7759;
-160.5000;1.1429;0.7884;
-160.2000;1.1445;0.7884;
-159.9000;1.1445;0.7884;
-159.6000;1.1420;0.7834;
-159.3000;1.1445;0.7884;
-159.0000;1.1437;0.7834;
-158.7000;1.1445;0.7910;
-158.4000;1.1445;0.7910;
-158.1000;1.1445;0.7834;
-157.8000;1.1453;0.7884;
-157.5000;1.1453;0.7834;
-157.2000;1.1453;0.7834;
-156.9000;1.1437;0.7784;
-156.6000;1.1453;0.7834;
-156.3000;1.1437;0.7859;
-156.0000;1.1437;0.7784;
-155.7000;1.1445;0.7834;
-155.4000;1.1437;0.7859;
-155.1000;1.1453;0.7935;
-154.8000;1.1437;0.7935;
-154.5000;1.1445;0.7985;
-154.2000;1.1429;0.7985;
-153.9000;1.1404;0.7884;
-153.6000;1.1445;0.7859;
-153.3000;1.1437;0.7733;
-153.0000;1.1404;0.7607;
-152.7000;1.1445;0.7658;
-152.4000;1.1453;0.7607;
-152.1000;1.1453;0.7582;
-151.8000;1.1429;0.7582;
-151.5000;1.1445;0.7633;
-151.2000;1.1445;0.7683;
-150.9000;1.1396;0.7582;
-150.6000;1.1461;0.7834;
-150.3000;1.1445;0.7859;
-150.0000;1.1453;0.7884;
-149.7000;1.1429;0.7759;
-149.4000;1.1502;0.7910;
-149.1000;1.1461;0.7809;
-148.8000;1.1486;0.7935;
-148.5000;1.1388;0.7683;
-148.2000;1.1437;0.7784;
-147.9000;1.1477;0.7859;
-147.6000;1.1469;0.7809;
-147.3000;1.1445;0.7809;
-147.0000;1.1469;0.7809;
-146.7000;1.1445;0.7708;
-146.4000;1.1453;0.7683;
-146.1000;1.1445;0.7607;
-145.8000;1.1453;0.7532;
-145.5000;1.1453;0.7557;
-145.2000;1.1437;0.7507;
-144.9000;1.1437;0.7532;
-144.6000;1.1445;0.7607;
-144.3000;1.1404;0.7557;
-144.0000;1.1420;0.7633;
-143.7000;1.1445;0.7658;
-143.4000;1.1453;0.7708;
-143.1000;1.1453;0.7658;
-142.8000;1.1437;0.7759;
-142.5000;1.1461;0.7834;
-142.2000;1.1437;0.7708;
-141.9000;1.1445;0.7733;
-141.6000;1.1486;0.7809;
-141.3000;1.1461;0.7759;
-141.0000;1.1461;0.7683;
-140.7000;1.1477;0.7708;
-140.4000;1.1461;0.7607;
-140.1000;1.1453;0.7607;
-139.8000;1.1461;0.7809;
-139.5000;1.1429;0.7784;
-139.2000;1.1494;0.7935;
-138.9000;1.1437;0.7809;
-138.6000;1.1461;0.7859;
-138.3000;1.1453;0.7859;
-138.0000;1.1453;0.7859;
-137.7000;1.1445;0.7935;
-137.4000;1.1453;0.7859;
-137.1000;1.1461;0.7834;
-136.8000;1.1453;0.7759;
-136.5000;1.1453;0.7784;
-136.2000;1.1453;0.7859;
-135.9000;1.1453;0.7884;
-135.6000;1.1437;0.7859;
-135.3000;1.1453;0.7834;
-135.0000;1.1453;0.7935;
-134.7000;1.1453;0.7910;
-134.4000;1.1445;0.7935;
-134.1000;1.1453;0.8010;
-133.8000;1.1453;0.8061;
-133.5000;1.1453;0.7985;
-133.2000;1.1445;0.7935;
-132.9000;1.1437;0.7960;
-132.6000;1.1437;0.7960;
-132.3000;1.1445;0.7935;
-132.0000;1.1445;0.7910;
-131.7000;1.1494;0.7985;
-131.4000;1.1437;0.7884;
-131.1000;1.1445;0.7884;
-130.8000;1.1461;0.7884;
-130.5000;1.1429;0.7683;
-130.2000;1.1445;0.7683;
-129.9000;1.1453;0.7759;
-129.6000;1.1477;0.7809;
-129.3000;1.1429;0.7683;
-129.0000;1.1437;0.7607;
-128.7000;1.1429;0.7607;
-128.4000;1.1461;0.7658;
-128.1000;1.1404;0.7582;
-127.8000;1.1437;0.7733;
-127.5000;1.1445;0.7733;
-127.2000;1.1461;0.7784;
-126.9000;1.1453;0.7759;
-126.6000;1.1412;0.7658;
-126.3000;1.1461;0.7834;
-126.0000;1.1469;0.7733;
-125.7000;1.1469;0.7784;
-125.4000;1.1453;0.7834;
-125.1000;1.1445;0.7784;
-124.8000;1.1453;0.7759;
-124.5000;1.1543;0.8036;
-124.2000;1.1453;0.7784;
-123.9000;1.1445;0.7733;
-123.6000;1.1461;0.7784;
-123.3000;1.1486;0.7910;
-123.0000;1.1453;0.7809;
-122.7000;1.1420;0.7708;
-122.4000;1.1437;0.7809;
-122.1000;1.1477;0.7910;
-121.8000;1.1445;0.7834;
-121.5000;1.1437;0.7834;
-121.2000;1.1437;0.7809;
-120.9000;1.1445;0.7910;
-120.6000;1.1445;0.7859;
-120.3000;1.1453;0.7910;
-120.0000;1.1429;0.7910;
-119.7000;1.1477;0.7884;
-119.4000;1.1461;0.7809;
-119.1000;1.1469;0.7784;
-118.8000;1.1518;0.7859;
-118.5000;1.1453;0.7759;
-118.2000;1.1453;0.7759;
-117.9000;1.1445;0.7733;
-117.6000;1.1404;0.7658;
-117.3000;1.1445;0.7784;
-117.0000;1.1461;0.7809;
-116.7000;1.1502;0.7935;
-116.4000;1.1453;0.7834;
-116.1000;1.1453;0.7834;
-115.8000;1.1469;0.7884;
-115.5000;1.1453;0.7935;
-115.2000;1.1396;0.7733;
-114.9000;1.1445;0.7733;
-114.6000;1.1461;0.7708;
-114.3000;1.1453;0.7658;
-114.0000;1.1453;0.7683;
-113.7000;1.1445;0.7708;
-113.4000;1.1453;0.7708;
-113.1000;1.1461;0.7658;
-112.8000;1.1437;0.7582;
-112.5000;1.1404;0.7507;
-112.2000;1.1429;0.7532;
-111.9000;1.1445;0.7582;
-111.6000;1.1437;0.7633;
-111.3000;1.1453;0.7658;
-111.0000;1.1453;0.7784;
-110.7000;1.1429;0.7784;
-110.4000;1.1461;0.7859;
-110.1000;1.1437;0.7834;
-109.8000;1.1453;0.7960;
-109.5000;1.1502;0.8086;
-109.2000;1.1461;0.8036;
-108.9000;1.1453;0.8010;
-108.6000;1.1420;0.7910;
-108.3000;1.1453;0.7960;
-108.0000;1.1453;0.7910;
-107.7000;1.1469;0.7985;
-107.4000;1.1429;0.7910;
-107.1000;1.1445;0.7910;
-106.8000;1.1469;0.7834;
-106.5000;1.1445;0.7759;
-106.2000;1.1445;0.7809;
-105.9000;1.1453;0.7733;
-105.6000;1.1453;0.7633;
-105.3000;1.1469;0.7633;
-105.0000;1.1445;0.7658;
-104.7000;1.1445;0.7683;
-104.4000;1.1453;0.7708;
-104.1000;1.1445;0.7834;
-103.8000;1.1461;0.7834;
-103.5000;1.1437;0.7708;
-103.2000;1.1437;0.7633;
-102.9000;1.1445;0.7784;
-102.6000;1.1461;0.7784;
-102.3000;1.1420;0.7658;
-102.0000;1.1437;0.7708;
-101.7000;1.1445;0.7708;
-101.4000;1.1437;0.7683;
-101.1000;1.1445;0.7759;
-100.8000;1.1445;0.7784;
-100.5000;1.1461;0.7834;
-100.2000;1.1518;0.7960;
-99.9000;1.1453;0.7708;
-99.6000;1.1412;0.7658;
-99.3000;1.1461;0.7759;
-99.0000;1.1437;0.7759;
-98.7000;1.1445;0.7708;
-98.4000;1.1461;0.7708;
-98.1000;1.1461;0.7784;
-97.8000;1.1453;0.7784;
-97.5000;1.1461;0.7859;
-97.2000;1.1429;0.7708;
-96.9000;1.1420;0.7633;
-96.6000;1.1477;0.7809;
-96.3000;1.1453;0.7809;
-96.0000;1.1437;0.7733;
-95.7000;1.1445;0.7784;
-95.4000;1.1469;0.7784;
-95.1000;1.1404;0.7683;
-94.8000;1.1429;0.7759;
-94.5000;1.1445;0.7784;
-94.2000;1.1445;0.7859;
-93.9000;1.1420;0.7784;
-93.6000;1.1437;0.7733;
-93.3000;1.1453;0.7759;
-93.0000;1.1461;0.7784;
-92.7000;1.1469;0.7809;
-92.4000;1.1461;0.7809;
-92.1000;1.1437;0.7809;
-91.8000;1.1429;0.7759;
-91.5000;1.1453;0.7784;
-91.2000;1.1453;0.7784;
-90.9000;1.1453;0.7784;
-90.6000;1.1437;0.7708;
-90.3000;1.1453;0.7784;
-90.0000;1.1469;0.7759;
-89.7000;1.1445;0.7708;
-89.4000;1.1445;0.7658;
-89.1000;1.1461;0.7708;
-88.8000;1.1437;0.7658;
-88.5000;1.1429;0.7582;
-88.2000;1.1469;0.7733;
-87.9000;1.1453;0.7809;
-87.6000;1.1461;0.7859;
-87.3000;1.1429;0.7784;
-87.0000;1.1437;0.7910;
-86.7000;1.1453;0.7960;
-86.4000;1.1453;0.7935;
-86.1000;1.1453;0.7910;
-85.8000;1.1453;0.7884;
-85.5000;1.1396;0.7658;
-85.2000;1.1453;0.7733;
-84.9000;1.1445;0.7683;
-84.6000;1.1445;0.7683;
-84.3000;1.1445;0.7683;
-84.0000;1.1437;0.7633;
-83.7000;1.1469;0.7658;
-83.4000;1.1469;0.7708;
-83.1000;1.1453;0.7708;
-82.8000;1.1461;0.7784;
-82.5000;1.1453;0.7834;
-82.2000;1.1445;0.7884;
-81.9000;1.1453;0.7859;
-81.6000;1.1469;0.7910;
-81.3000;1.1437;0.7910;
-81.0000;1.1437;0.7884;
-80.7000;1.1453;0.7960;
-80.4000;1.1486;0.8036;
-80.1000;1.1461;0.7859;
-79.8000;1.1461;0.7884;
-79.5000;1.1445;0.7784;
-79.2000;1.1453;0.7784;
-78.9000;1.1477;0.7910;
-78.6000;1.1461;0.7910;
-78.3000;1.1486;0.7910;
-78.0000;1.1445;0.7834;
-77.7000;1.1469;0.7859;
-77.4000;1.1510;0.7985;
-77.1000;1.1445;0.7834;
-76.8000;1.1445;0.7834;
-76.5000;1.1477;0.7809;
-76.2000;1.1453;0.7809;
-75.9000;1.1461;0.7859;
-75.6000;1.1445;0.7809;
-75.3000;1.1453;0.7784;
-75.0000;1.1445;0.7708;
-74.7000;1.1445;0.7733;
-74.4000;1.1437;0.7834;
-74.1000;1.1469;0.7834;
-73.8000;1.1494;0.7884;
-73.5000;1.1469;0.7834;
-73.2000;1.1412;0.7633;
-72.9000;1.1429;0.7582;
-72.6000;1.1534;0.7859;
-72.3000;1.1420;0.7633;
-72.0000;1.1445;0.7658;
-71.7000;1.1437;0.7683;
-71.4000;1.1453;0.7759;
-71.1000;1.1388;0.7607;
-70.8000;1.1412;0.7683;
-70.5000;1.1502;0.7935;
-70.2000;1.1445;0.7784;
-69.9000;1.1437;0.7733;
-69.6000;1.1453;0.7784;
-69.3000;1.1518;0.7935;
-69.0000;1.1453;0.7784;
-68.7000;1.1388;0.7557;
-68.4000;1.1453;0.7834;
-68.1000;1.1437;0.7784;
-67.8000;1.1429;0.7759;
-67.5000;1.1445;0.7809;
-67.2000;1.1445;0.7884;
-66.9000;1.1477;0.7935;
-66.6000;1.1437;0.7884;
-66.3000;1.1429;0.7834;
-66.0000;1.1461;0.7935;
-65.7000;1.1461;0.7884;
-65.4000;1.1437;0.7708;
-65.1000;1.1445;0.7809;
-64.8000;1.1429;0.7708;
-64.5000;1.1486;0.7834;
-64.2000;1.1453;0.7759;
-63.9000;1.1461;0.7784;
-63.6000;1.1461;0.7784;
-63.3000;1.1469;0.7784;
-63.0000;1.1461;0.7834;
-62.7000;1.1445;0.7708;
-62.4000;1.1453;0.7683;
-62.1000;1.1445;0.7607;
-61.8000;1.1461;0.7658;
-61.5000;1.1445;0.7633;
-61.2000;1.1445;0.7582;
-60.9000;1.1445;0.7607;
-60.6000;1.1445;0.7633;
-60.3000;1.1445;0.7733;
-60.0000;1.1445;0.7759;
-59.7000;1.1445;0.7708;
-59.4000;1.1445;0.7658;
-59.1000;1.1437;0.7708;
-58.8000;1.1437;0.7658;
-58.5000;1.1437;0.7708;
-58.2000;1.1429;0.7633;
-57.9000;1.1445;0.7658;
-57.6000;1.1445;0.7658;
-57.3000;1.1486;0.7708;
-57.0000;1.1445;0.7633;
-56.7000;1.1445;0.7633;
-56.4000;1.1429;0.7633;
-56.1000;1.1437;0.7708;
-55.8000;1.1445;0.7658;
-55.5000;1.1412;0.7607;
-55.2000;1.1461;0.7683;
-54.9000;1.1469;0.7784;
-54.6000;1.1388;0.7557;
-54.3000;1.1396;0.7633;
-54.0000;1.1445;0.7834;
-53.7000;1.1453;0.7859;
-53.4000;1.1453;0.7834;
-53.1000;1.1453;0.7859;
-52.8000;1.1461;0.7809;
-52.5000;1.1445;0.7759;
-52.2000;1.1453;0.7784;
-51.9000;1.1461;0.7759;
-51.6000;1.1502;0.7884;
-51.3000;1.1453;0.7708;
-51.0000;1.1445;0.7759;
-50.7000;1.1445;0.7784;
-50.4000;1.1461;0.7759;
-50.1000;1.1461;0.7733;
-49.8000;1.1445;0.7733;
-49.5000;1.1429;0.7708;
-49.2000;1.1461;0.7784;
-48.9000;1.1363;0.7532;
-48.6000;1.1461;0.7784;
-48.3000;1.1494;0.7834;
-48.0000;1.1437;0.7733;
-47.7000;1.1461;0.7809;
-47.4000;1.1437;0.7708;
-47.1000;1.1437;0.7733;
-46.8000;1.1404;0.7658;
-46.5000;1.1388;0.7658;
-46.2000;1.1420;0.7708;
-45.9000;1.1420;0.7759;
-45.6000;1.1453;0.7859;
-45.3000;1.1445;0.7834;
-45.0000;1.1372;0.7658;
-44.7000;1.1453;0.7784;
-44.4000;1.1453;0.7733;
-44.1000;1.1461;0.7633;
-43.8000;1.1445;0.7708;
-43.5000;1.1437;0.7708;
-43.2000;1.1469;0.7708;
-42.9000;1.1477;0.7708;
-42.6000;1.1469;0.7658;
-42.3000;1.1453;0.7633;
-42.0000;1.1461;0.7733;
-41.7000;1.1469;0.7759;
-41.4000;1.1486;0.7809;
-41.1000;1.1445;0.7784;
-40.8000;1.1461;0.7859;
-40.5000;1.1461;0.7784;
-40.2000;1.1453;0.7708;
-39.9000;1.1445;0.7733;
-39.6000;1.1445;0.7708;
-39.3000;1.1453;0.7708;
-39.0000;1.1461;0.7733;
-38.7000;1.1380;0.7507;
-38.4000;1.1453;0.7683;
-38.1000;1.1453;0.7607;
-37.8000;1.1469;0.7759;
-37.5000;1.1445;0.7784;
-37.2000;1.1477;0.7910;
-36.9000;1.1445;0.7859;
-36.6000;1.1429;0.7834;
-36.3000;1.1429;0.7935;
-36.0000;1.1420;0.8010;
-35.7000;1.1453;0.8036;
-35.4000;1.1437;0.7884;
-35.1000;1.1420;0.7784;
-34.8000;1.1453;0.7834;
-34.5000;1.1420;0.7733;
-34.2000;1.1461;0.7733;
-33.9000;1.1461;0.7834;
-33.6000;1.1445;0.7733;
-33.3000;1.1486;0.7759;
-33.0000;1.1461;0.7759;
-32.7000;1.1453;0.7607;
-32.4000;1.1477;0.7683;
-32.1000;1.1437;0.7708;
-31.8000;1.1453;0.7683;
-31.5000;1.1469;0.7658;
-31.2000;1.1453;0.7557;
-30.9000;1.1486;0.7733;
-30.6000;1.1396;0.7532;
-30.3000;1.1412;0.7481;
-30.0000;1.1469;0.7582;
-29.7000;1.1437;0.7507;
-29.4000;1.1486;0.7633;
-29.1000;1.1445;0.7481;
-28.8000;1.1477;0.7582;
-28.5000;1.1437;0.7532;
-28.2000;1.1445;0.7532;
-27.9000;1.1477;0.7532;
-27.6000;1.1445;0.7456;
-27.3000;1.1461;0.7532;
-27.0000;1.1437;0.7582;
-26.7000;1.1437;0.7607;
-26.4000;1.1437;0.7607;
-26.1000;1.1437;0.7658;
-25.8000;1.1461;0.7683;
-25.5000;1.1445;0.7582;
-25.2000;1.1429;0.7481;
-24.9000;1.1453;0.7557;
-24.6000;1.1429;0.7406;
-24.3000;1.1445;0.7456;
-24.0000;1.1461;0.7406;
-23.7000;1.1445;0.7431;
-23.4000;1.1445;0.7406;
-23.1000;1.1429;0.7355;
-22.8000;1.1445;0.7456;
-22.5000;1.1437;0.7557;
-22.2000;1.1437;0.7557;
-21.9000;1.1429;0.7507;
-21.6000;1.1445;0.7557;
-21.3000;1.1445;0.7633;
-21.0000;1.1437;0.7683;
-20.7000;1.1502;0.7859;
-20.4000;1.1445;0.7683;
-20.1000;1.1461;0.7759;
-19.8000;1.1453;0.7683;
-19.5000;1.1437;0.7759;
-19.2000;1.1502;0.8086;
-18.9000;1.1453;0.7859;
-18.6000;1.1445;0.7834;
-18.3000;1.1445;0.7784;
-18.0000;1.1445;0.7733;
-17.7000;1.1461;0.7784;
-17.4000;1.1445;0.7834;
-17.1000;1.1461;0.7859;
-16.8000;1.1445;0.7784;
-16.5000;1.1453;0.7733;
-16.2000;1.1437;0.7784;
-15.9000;1.1469;0.7859;
-15.6000;1.1453;0.7910;
-15.3000;1.1445;0.7985;
-15.0000;1.1461;0.8061;
-14.7000;1.1461;0.8036;
-14.4000;1.1445;0.7935;
-14.1000;1.1445;0.7910;
-13.8000;1.1453;0.7960;
-13.5000;1.1469;0.7985;
-13.2000;1.1461;0.7910;
-12.9000;1.1437;0.7859;
-12.6000;1.1453;0.7859;
-12.3000;1.1477;0.7834;
-12.0000;1.1461;0.7784;
-11.7000;1.1445;0.7834;
-11.4000;1.1453;0.7859;
-11.1000;1.1453;0.7834;
-10.8000;1.1437;0.7809;
-10.5000;1.1534;0.8010;
-10.2000;1.1477;0.7859;
-9.9000;1.1469;0.7809;
-9.6000;1.1494;0.7884;
-9.3000;1.1469;0.7784;
-9.0000;1.1429;0.7784;
-8.7000;1.1445;0.7733;
-8.4000;1.1445;0.7683;
-8.1000;1.1453;0.7658;
-7.8000;1.1420;0.7557;
-7.5000;1.1437;0.7607;
-7.2000;1.1453;0.7633;
-6.9000;1.1453;0.7633;
-6.6000;1.1445;0.7658;
-6.3000;1.1453;0.7683;
-6.0000;1.1453;0.7658;
-5.7000;1.1437;0.7582;
-5.4000;1.1429;0.7607;
-5.1000;1.1445;0.7683;
-4.8000;1.1420;0.7607;
-4.5000;1.1445;0.7683;
-4.2000;1.1445;0.7683;
-3.9000;1.1437;0.7633;
-3.6000;1.1445;0.7607;
-3.3000;1.1429;0.7607;
-3.0000;1.1437;0.7582;
-2.7000;1.1445;0.7683;
-2.4000;1.1437;0.7708;
-2.1000;1.1461;0.7809;
-1.8000;1.1502;0.7834;
-1.5000;1.1445;0.7633;
-1.2000;1.1437;0.7607;
-0.9000;1.1445;0.7582;
-0.6000;1.1437;0.7582;
-0.3000;1.1429;0.7557;
0.0000;1.1429;0.7557;
0.3000;1.1494;0.7582;
0.6000;1.1534;0.7884;
0.9000;1.1559;0.8162;
1.2000;1.1608;0.8439;
1.5000;1.1600;0.8565;
1.8000;1.1632;0.8766;
2.1000;1.1648;0.8842;
2.4000;1.1648;0.8917;
2.7000;1.1665;0.8942;
3.0000;1.1697;0.9018;
3.3000;1.1722;0.9119;
3.6000;1.1697;0.9169;
3.9000;1.1722;0.9220;
4.2000;1.1713;0.9220;
4.5000;1.1705;0.9295;
4.8000;1.1705;0.9371;
5.1000;1.1722;0.9396;
5.4000;1.1762;0.9421;
5.7000;1.1754;0.9497;
6.0000;1.1738;0.9446;
6.3000;1.1746;0.9497;
6.6000;1.1746;0.9497;
6.9000;1.1770;0.9623;
7.2000;1.1770;0.9648;
7.5000;1.1762;0.9597;
7.8000;1.1762;0.9547;
8.1000;1.1746;0.9572;
8.4000;1.1803;0.9623;
8.7000;1.1770;0.9522;
9.0000;1.1795;0.9522;
9.3000;1.1795;0.9522;
9.6000;1.1803;0.9471;
9.9000;1.1787;0.9421;
10.2000;1.1770;0.9295;
10.5000;1.1803;0.9471;
10.8000;1.1803;0.9497;
11.1000;1.1795;0.9471;
11.4000;1.1795;0.9522;
11.7000;1.1811;0.9572;
12.0000;1.1827;0.9572;
12.3000;1.1762;0.9421;
12.6000;1.1811;0.9547;
12.9000;1.1803;0.9547;
13.2000;1.1811;0.9673;
13.5000;1.1819;0.9597;
13.8000;1.1819;0.9673;
14.1000;1.1819;0.9673;
14.4000;1.1836;0.9698;
14.7000;1.1836;0.9673;
15.0000;1.1819;0.9623;
15.3000;1.1836;0.9673;
15.6000;1.1803;0.9572;
15.9000;1.1868;0.9673;
16.2000;1.1836;0.9597;
16.5000;1.1844;0.9547;
16.8000;1.1860;0.9623;
17.1000;1.1860;0.9623;
17.4000;1.1844;0.9597;
17.7000;1.1844;0.9597;
18.0000;1.1844;0.9597;
18.3000;1.1852;0.9572;
18.6000;1.1844;0.9572;
18.9000;1.1844;0.9522;
19.2000;1.1860;0.9522;
19.5000;1.1852;0.9522;
19.8000;1.1836;0.9421;
20.1000;1.1787;0.9396;
20.4000;1.1827;0.9396;
20.7000;1.1836;0.9471;
21.0000;1.1836;0.9396;
21.3000;1.1852;0.9547;
21.6000;1.1852;0.9648;
21.9000;1.1860;0.9547;
22.2000;1.1893;0.9648;
22.5000;1.1852;0.9547;
22.8000;1.1779;0.9396;
23.1000;1.1860;0.9547;
23.4000;1.1860;0.9547;
23.7000;1.1827;0.9446;
24.0000;1.1860;0.9522;
24.3000;1.1868;0.9547;
24.6000;1.1860;0.9522;
24.9000;1.1860;0.9522;
25.2000;1.1852;0.9522;
25.5000;1.1844;0.9547;
25.8000;1.1852;0.9522;
26.1000;1.1844;0.9446;
26.4000;1.1844;0.9572;
26.7000;1.1844;0.9547;
27.0000;1.1852;0.9522;
27.3000;1.1827;0.9471;
27.6000;1.1860;0.9522;
27.9000;1.1852;0.9522;
28.2000;1.1852;0.9522;
28.5000;1.1868;0.9597;
28.8000;1.1876;0.9648;
29.1000;1.1803;0.9421;
29.4000;1.1852;0.9446;
29.7000;1.1860;0.9371;
30.0000;1.1860;0.9295;
30.3000;1.1819;0.9194;
30.6000;1.1852;0.9345;
30.9000;1.1860;0.9497;
31.2000;1.1852;0.9522;
31.5000;1.1811;0.9421;
31.8000;1.1844;0.9597;
32.1000;1.1852;0.9623;
32.4000;1.1836;0.9497;
32.7000;1.1852;0.9497;
33.0000;1.1852;0.9471;
33.3000;1.1852;0.9446;
33.6000;1.1852;0.9421;
33.9000;1.1852;0.9371;
34.2000;1.1836;0.9421;
34.5000;1.1852;0.9421;
34.8000;1.1860;0.9497;
35.1000;1.1860;0.9421;
35.4000;1.1844;0.9396;
35.7000;1.1852;0.9446;
36.0000;1.1844;0.9446;
36.3000;1.1860;0.9471;
36.6000;1.1860;0.9522;
36.9000;1.1844;0.9497;
37.2000;1.1860;0.9547;
37.5000;1.1876;0.9648;
37.8000;1.1860;0.9648;
38.1000;1.1884;0.9723;
38.4000;1.1876;0.9723;
38.7000;1.1893;0.9698;
39.0000;1.1893;0.9648;
39.3000;1.1868;0.9597;
39.6000;1.1819;0.9522;
39.9000;1.1868;0.9623;
40.2000;1.1893;0.9648;
40.5000;1.1893;0.9623;
40.8000;1.1868;0.9547;
41.1000;1.1868;0.9723;
41.4000;1.1852;0.9723;
41.7000;1.1844;0.9723;
42.0000;1.1868;0.9774;
42.3000;1.1844;0.9673;
42.6000;1.1876;0.9749;
42.9000;1.1868;0.9774;
43.2000;1.1876;0.9723;
43.5000;1.1860;0.9698;
43.8000;1.1860;0.9648;
44.1000;1.1868;0.9623;
44.4000;1.1852;0.9698;
44.7000;1.1844;0.9774;
45.0000;1.1795;0.9623;
45.3000;1.1868;0.9799;
45.6000;1.1844;0.9749;
45.9000;1.1827;0.9698;
46.2000;1.1860;0.9749;
46.5000;1.1852;0.9648;
46.8000;1.1836;0.9597;
47.1000;1.1860;0.9572;
47.4000;1.1852;0.9572;
47.7000;1.1909;0.9673;
48.0000;1.1868;0.9522;
48.3000;1.1844;0.9396;
48.6000;1.1868;0.9396;
48.9000;1.1860;0.9421;
49.2000;1.1852;0.9421;
49.5000;1.1860;0.9371;
49.8000;1.1852;0.9446;
50.1000;1.1852;0.9522;
50.4000;1.1893;0.9623;
50.7000;1.1836;0.9597;
51.0000;1.1827;0.9597;
51.3000;1.1860;0.9623;
51.6000;1.1844;0.9547;
51.9000;1.1852;0.9547;
52.2000;1.1876;0.9597;
52.5000;1.1844;0.9522;
52.8000;1.1803;0.9345;
53.1000;1.1893;0.9497;
53.4000;1.1868;0.9421;
53.7000;1.1868;0.9471;
54.0000;1.1860;0.9497;
54.3000;1.1868;0.9497;
54.6000;1.1860;0.9421;
54.9000;1.1941;0.9623;
55.2000;1.1852;0.9522;
55.5000;1.1901;0.9572;
55.8000;1.1836;0.9421;
56.1000;1.1844;0.9471;
56.4000;1.1844;0.9547;
56.7000;1.1827;0.9572;
57.0000;1.1827;0.9547;
57.3000;1.1844;0.9597;
57.6000;1.1860;0.9648;
57.9000;1.1901;0.9874;
58.2000;1.1860;0.9749;
58.5000;1.1860;0.9723;
58.8000;1.1844;0.9572;
59.1000;1.1852;0.9572;
59.4000;1.1876;0.9623;
59.7000;1.1860;0.9648;
60.0000;1.1852;0.9648;
60.3000;1.1852;0.9623;
60.6000;1.1844;0.9471;
60.9000;1.1844;0.9471;
61.2000;1.1836;0.9497;
61.5000;1.1836;0.9522;
61.8000;1.1827;0.9396;
62.1000;1.1844;0.9497;
62.4000;1.1827;0.9497;
62.7000;1.1844;0.9522;
63.0000;1.1836;0.9497;
63.3000;1.1852;0.9522;
63.6000;1.1852;0.9522;
63.9000;1.1852;0.9572;
64.2000;1.1868;0.9698;
64.5000;1.1811;0.9572;
64.8000;1.1836;0.9673;
65.1000;1.1852;0.9623;
65.4000;1.1844;0.9597;
65.7000;1.1852;0.9572;
66.0000;1.1819;0.9421;
66.3000;1.1811;0.9446;
66.6000;1.1844;0.9471;
66.9000;1.1933;0.9698;
67.2000;1.1860;0.9446;
67.5000;1.1827;0.9345;
67.8000;1.1876;0.9446;
68.1000;1.1852;0.9396;
68.4000;1.1844;0.9471;
68.7000;1.1836;0.9396;
69.0000;1.1852;0.9320;
69.3000;1.1819;0.9371;
69.6000;1.1844;0.9497;
69.9000;1.1852;0.9471;
70.2000;1.1852;0.9522;
70.5000;1.1844;0.9471;
70.8000;1.1819;0.9371;
71.1000;1.1844;0.9497;
71.4000;1.1844;0.9471;
71.7000;1.1852;0.9446;
72.0000;1.1852;0.9446;
72.3000;1.1876;0.9446;
72.6000;1.1868;0.9421;
72.9000;1.1852;0.9446;
73.2000;1.1852;0.9497;
73.5000;1.1860;0.9446;
73.8000;1.1852;0.9471;
74.1000;1.1844;0.9522;
74.4000;1.1852;0.9597;
74.7000;1.1852;0.9623;
75.0000;1.1852;0.9648;
75.3000;1.1844;0.9723;
75.6000;1.1836;0.9799;
75.9000;1.1844;0.9723;
76.2000;1.1852;0.9749;
76.5000;1.1827;0.9698;
76.8000;1.1819;0.9723;
77.1000;1.1844;0.9749;
77.4000;1.1844;0.9673;
77.7000;1.1893;0.9774;
78.0000;1.1844;0.9648;
78.3000;1.1852;0.9597;
78.6000;1.1852;0.9572;
78.9000;1.1844;0.9497;
79.2000;1.1852;0.9471;
79.5000;1.1811;0.9446;
79.8000;1.1844;0.9572;
80.1000;1.1844;0.9547;
80.4000;1.1827;0.9471;
80.7000;1.1827;0.9497;
81.0000;1.1827;0.9446;
81.3000;1.1819;0.9446;
81.6000;1.1827;0.9497;
81.9000;1.1819;0.9522;
82.2000;1.1836;0.9572;
82.5000;1.1844;0.9623;
82.8000;1.1803;0.9597;
83.1000;1.1844;0.9547;
83.4000;1.1893;0.9648;
83.7000;1.1893;0.9597;
84.0000;1.1852;0.9446;
84.3000;1.1844;0.9396;
84.6000;1.1852;0.9446;
84.9000;1.1852;0.9446;
85.2000;1.1844;0.9446;
85.5000;1.1836;0.9471;
85.8000;1.1844;0.9522;
86.1000;1.1827;0.9446;
86.4000;1.1836;0.9446;
86.7000;1.1827;0.9497;
87.0000;1.1836;0.9522;
87.3000;1.1852;0.9522;
87.6000;1.1844;0.9471;
87.9000;1.1836;0.9471;
88.2000;1.1836;0.9446;
88.5000;1.1803;0.9345;
88.8000;1.1811;0.9270;
89.1000;1.1827;0.9295;
89.4000;1.1852;0.9245;
89.7000;1.1844;0.9169;
90.0000;1.1827;0.9194;
90.3000;1.1860;0.9320;
90.6000;1.1827;0.9220;
90.9000;1.1827;0.9295;
91.2000;1.1836;0.9345;
91.5000;1.1836;0.9497;
91.8000;1.1836;0.9623;
92.1000;1.1852;0.9673;
92.4000;1.1819;0.9648;
92.7000;1.1836;0.9648;
93.0000;1.1836;0.9572;
93.3000;1.1836;0.9547;
93.6000;1.1844;0.9547;
93.9000;1.1844;0.9597;
94.2000;1.1827;0.9572;
94.5000;1.1852;0.9522;
94.8000;1.1844;0.9547;
95.1000;1.1852;0.9597;
95.4000;1.1819;0.9497;
95.7000;1.1836;0.9597;
96.0000;1.1852;0.9547;
96.3000;1.1836;0.9497;
96.6000;1.1852;0.9497;
96.9000;1.1844;0.9471;
97.2000;1.1836;0.9446;
97.5000;1.1852;0.9522;
97.8000;1.1852;0.9497;
98.1000;1.1876;0.9623;
98.4000;1.1868;0.9673;
98.7000;1.1852;0.9749;
99.0000;1.1852;0.9648;
99.3000;1.1852;0.9698;
99.6000;1.1803;0.9572;
99.9000;1.1844;0.9673;
100.2000;1.1827;0.9623;
100.5000;1.1836;0.9597;
100.8000;1.1819;0.9673;
101.1000;1.1827;0.9698;
101.4000;1.1827;0.9749;
101.7000;1.1827;0.9749;
102.0000;1.1819;0.9723;
102.3000;1.1852;0.9774;
102.6000;1.1827;0.9723;
102.9000;1.1827;0.9723;
103.2000;1.1836;0.9799;
103.5000;1.1827;0.9799;
103.8000;1.1852;0.9799;
104.1000;1.1836;0.9749;
104.4000;1.1860;0.9723;
104.7000;1.1819;0.9774;
105.0000;1.1844;0.9824;
105.3000;1.1836;0.9673;
105.6000;1.1827;0.9673;
105.9000;1.1827;0.9698;
106.2000;1.1803;0.9648;
106.5000;1.1827;0.9597;
106.8000;1.1868;0.9723;
107.1000;1.1836;0.9572;
107.4000;1.1827;0.9522;
107.7000;1.1836;0.9597;
108.0000;1.1836;0.9673;
108.3000;1.1836;0.9774;
108.6000;1.1836;0.9849;
108.9000;1.1827;0.9925;
109.2000;1.1819;0.9849;
109.5000;1.1787;0.9673;
109.8000;1.1819;0.9673;
110.1000;1.1852;0.9774;
110.4000;1.1827;0.9698;
110.7000;1.1836;0.9723;
111.0000;1.1819;0.9547;
111.3000;1.1836;0.9597;
111.6000;1.1819;0.9648;
111.9000;1.1811;0.9623;
112.2000;1.1803;0.9597;
112.5000;1.1819;0.9648;
112.8000;1.1811;0.9648;
113.1000;1.1819;0.9673;
113.4000;1.1811;0.9597;
113.7000;1.1819;0.9648;
114.0000;1.1827;0.9648;
114.3000;1.1844;0.9698;
114.6000;1.1836;0.9723;
114.9000;1.1836;0.9749;
115.2000;1.1836;0.9673;
115.5000;1.1844;0.9698;
115.8000;1.1852;0.9723;
116.1000;1.1819;0.9723;
116.4000;1.1852;0.9824;
116.7000;1.1819;0.9824;
117.0000;1.1819;0.9774;
117.3000;1.1803;0.9723;
117.6000;1.1803;0.9698;
117.9000;1.1811;0.9698;
118.2000;1.1827;0.9749;
118.5000;1.1819;0.9723;
118.8000;1.1803;0.9723;
119.1000;1.1836;0.9874;
119.4000;1.1827;0.9900;
119.7000;1.1819;0.9900;
120.0000;1.1819;0.9925;
120.3000;1.1844;1.0000;
120.6000;1.1836;0.9950;
120.9000;1.1819;0.9925;
121.2000;1.1844;0.9975;
121.5000;1.1836;0.9975;
121.8000;1.1827;0.9925;
122.1000;1.1819;0.9849;
122.4000;1.1787;0.9673;
122.7000;1.1852;0.9749;
123.0000;1.1836;0.9799;
123.3000;1.1819;0.9723;
123.6000;1.1787;0.9673;
123.9000;1.1827;0.9849;
124.2000;1.1844;0.9900;
124.5000;1.1795;0.9723;
124.8000;1.1819;0.9774;
125.1000;1.1819;0.9723;
125.4000;1.1819;0.9723;
125.7000;1.1819;0.9673;
126.0000;1.1827;0.9648;
126.3000;1.1827;0.9673;
126.6000;1.1811;0.9673;
126.9000;1.1827;0.9648;
127.2000;1.1836;0.9648;
127.5000;1.1819;0.9623;
127.8000;1.1827;0.9547;
128.1000;1.1819;0.9497;
128.4000;1.1819;0.9547;
128.7000;1.1819;0.9673;
129.0000;1.1827;0.9572;
129.3000;1.1819;0.9597;
129.6000;1.1819;0.9623;
129.9000;1.1811;0.9572;
130.2000;1.1811;0.9623;
130.5000;1.1836;0.9648;
130.8000;1.1836;0.9572;
131.1000;1.1827;0.9547;
131.4000;1.1819;0.9572;
131.7000;1.1819;0.9547;
132.0000;1.1836;0.9522;
132.3000;1.1795;0.9471;
132.6000;1.1844;0.9547;
132.9000;1.1827;0.9547;
133.2000;1.1836;0.9572;
133.5000;1.1819;0.9497;
133.8000;1.1811;0.9522;
134.1000;1.1803;0.9522;
134.4000;1.1803;0.9547;
134.7000;1.1819;0.9648;
135.0000;1.1803;0.9723;
135.3000;1.1827;0.9698;
135.6000;1.1811;0.9597;
135.9000;1.1787;0.9572;
136.2000;1.1819;0.9698;
136.5000;1.1811;0.9597;
136.8000;1.1811;0.9572;
137.1000;1.1901;0.9774;
137.4000;1.1811;0.9623;
137.7000;1.1811;0.9623;
138.0000;1.1811;0.9572;
138.3000;1.1819;0.9597;
138.6000;1.1819;0.9597;
138.9000;1.1827;0.9648;
139.2000;1.1762;0.9421;
139.5000;1.1803;0.9597;
139.8000;1.1819;0.9648;
140.1000;1.1730;0.9371;
140.4000;1.1811;0.9572;
140.7000;1.1827;0.9572;
141.0000;1.1836;0.9547;
141.3000;1.1844;0.9673;
141.6000;1.1803;0.9547;
141.9000;1.1819;0.9572;
142.2000;1.1836;0.9648;
142.5000;1.1819;0.9723;
142.8000;1.1811;0.9723;
143.1000;1.1803;0.9673;
143.4000;1.1819;0.9673;
143.7000;1.1819;0.9648;
144.0000;1.1803;0.9698;
144.3000;1.1795;0.9623;
144.6000;1.1811;0.9698;
144.9000;1.1762;0.9497;
145.2000;1.1819;0.9673;
145.5000;1.1787;0.9597;
145.8000;1.1811;0.9698;
146.1000;1.1827;0.9723;
146.4000;1.1836;0.9824;
146.7000;1.1819;0.9774;
147.0000;1.1811;0.9849;
147.3000;1.1819;0.9900;
147.6000;1.1779;0.9749;
147.9000;1.1803;0.9749;
148.2000;1.1795;0.9698;
148.5000;1.1795;0.9597;
148.8000;1.1811;0.9597;
149.1000;1.1827;0.9648;
149.4000;1.1819;0.9648;
149.7000;1.1827;0.9648;
150.0000;1.1811;0.9572;
150.3000;1.1803;0.9572;
150.6000;1.1787;0.9522;
150.9000;1.1811;0.9572;
151.2000;1.1811;0.9547;
151.5000;1.1819;0.9471;
151.8000;1.1811;0.9396;
152.1000;1.1819;0.9522;
152.4000;1.1811;0.9623;
152.7000;1.1819;0.9673;
153.0000;1.1803;0.9673;
153.3000;1.1811;0.9698;
153.6000;1.1803;0.9799;
153.9000;1.1795;0.9874;
154.2000;1.1811;0.9849;
154.5000;1.1754;0.9774;
154.8000;1.1795;0.9824;
155.1000;1.1811;0.9900;
155.4000;1.1803;0.9874;
155.7000;1.1746;0.9749;
156.0000;1.1827;0.9950;
156.3000;1.1803;0.9824;
156.6000;1.1852;0.9900;
156.9000;1.1827;0.9799;
157.2000;1.1819;0.9774;
157.5000;1.1827;0.9824;
157.8000;1.1811;0.9824;
158.1000;1.1811;0.9874;
158.4000;1.1803;0.9874;
158.7000;1.1811;0.9900;
159.0000;1.1803;0.9849;
159.3000;1.1827;0.9874;
159.6000;1.1803;0.9824;
159.9000;1.1795;0.9874;
160.2000;1.1762;0.9824;
160.5000;1.1803;0.9950;
160.8000;1.1811;0.9849;
161.1000;1.1819;0.9849;
161.4000;1.1836;0.9950;
161.7000;1.1803;0.9799;
162.0000;1.1819;0.9900;
162.3000;1.1819;0.9874;
162.6000;1.1811;0.9900;
162.9000;1.1795;0.9874;
163.2000;1.1754;0.9799;
163.5000;1.1803;0.9874;
163.8000;1.1819;0.9925;
164.1000;1.1795;0.9874;
164.4000;1.1803;0.9900;
164.7000;1.1795;0.9824;
165.0000;1.1803;0.9900;
165.3000;1.1803;0.9824;
165.6000;1.1795;0.9774;
165.9000;1.1811;0.9799;
166.2000;1.1811;0.9824;
166.5000;1.1803;0.9849;
166.8000;1.1811;0.9950;
167.1000;1.1811;0.9925;
167.4000;1.1803;0.9950;
167.7000;1.1819;1.0051;
168.0000;1.1819;0.9975;
168.3000;1.1803;0.9925;
168.6000;1.1803;0.9925;
168.9000;1.1819;0.9874;
169.2000;1.1803;0.9849;
169.5000;1.1803;0.9874;
169.8000;1.1803;0.9900;
170.1000;1.1803;0.9975;
170.4000;1.1795;0.9975;
170.7000;1.1803;0.9925;
171.0000;1.1811;0.9950;
171.3000;1.1803;0.9925;
171.6000;1.1819;1.0051;
171.9000;1.1819;0.9975;
172.2000;1.1795;0.9975;
172.5000;1.1787;0.9849;
172.8000;1.1803;0.9975;
173.1000;1.1811;1.0026;
173.4000;1.1811;1.0026;
173.7000;1.1795;0.9975;
174.0000;1.1811;1.0000;
174.3000;1.1819;0.9874;
174.6000;1.1787;0.9824;
174.9000;1.1779;0.9824;
175.2000;1.1811;0.9849;
175.5000;1.1803;0.9774;
175.8000;1.1762;0.9648;
176.1000;1.1819;0.9774;
176.4000;1.1803;0.9774;
176.7000;1.1795;0.9749;
177.0000;1.1819;0.9774;
177.3000;1.1803;0.9799;
177.6000;1.1836;0.9824;
177.9000;1.1860;0.9900;
178.2000;1.1819;0.9900;
178.5000;1.1779;0.9774;
178.8000;1.1827;0.9925;
179.1000;1.1811;0.9774;
179.4000;1.1754;0.9572;
179.7000;1.1819;0.9749;
180.0000;1.1795;0.9723;
180.3000;1.1803;0.9723;
180.6000;1.1827;0.9723;
180.9000;1.1795;0.9623;
181.2000;1.1836;0.9723;
181.5000;1.1819;0.9698;
181.8000;1.1819;0.9648;
182.1000;1.1836;0.9698;
182.4000;1.1803;0.9623;
182.7000;1.1819;0.9648;
183.0000;1.1811;0.9698;
183.3000;1.1811;0.9673;
183.6000;1.1811;0.9698;
183.9000;1.1795;0.9698;
184.2000;1.1770;0.9673;
184.5000;1.1803;0.9774;
184.8000;1.1803;0.9799;
185.1000;1.1811;0.9900;
185.4000;1.1811;0.9925;
185.7000;1.1770;0.9799;
186.0000;1.1803;0.9799;
186.3000;1.1779;0.9749;
186.6000;1.1827;0.9824;
186.9000;1.1819;0.9900;
187.2000;1.1811;0.9749;
187.5000;1.1803;0.9749;
187.8000;1.1836;0.9774;
188.1000;1.1811;0.9698;
188.4000;1.1803;0.9723;
188.7000;1.1803;0.9723;
189.0000;1.1803;0.9849;
189.3000;1.1803;0.9874;
189.6000;1.1803;0.9874;
189.9000;1.1779;0.9799;
190.2000;1.1770;0.9749;
190.5000;1.1795;0.9749;
190.8000;1.1795;0.9673;
191.1000;1.1795;0.9597;
191.4000;1.1795;0.9547;
191.7000;1.1746;0.9396;
192.0000;1.1803;0.9522;
192.3000;1.1811;0.9547;
192.6000;1.1795;0.9446;
192.9000;1.1803;0.9522;
193.2000;1.1795;0.9522;
193.5000;1.1803;0.9522;
193.8000;1.1795;0.9522;
194.1000;1.1795;0.9547;
194.4000;1.1754;0.9497;
194.7000;1.1876;0.9824;
195.0000;1.1795;0.9648;
195.3000;1.1844;0.9799;
195.6000;1.1819;0.9698;
195.9000;1.1811;0.9774;
196.2000;1.1811;0.9824;
196.5000;1.1836;0.9925;
196.8000;1.1827;0.9874;
197.1000;1.1803;0.9900;
197.4000;1.1795;0.9799;
197.7000;1.1770;0.9749;
198.0000;1.1836;0.9874;
198.3000;1.1803;0.9849;
198.6000;1.1836;0.9874;
198.9000;1.1787;0.9799;
199.2000;1.1795;0.9799;
199.5000;1.1770;0.9673;
199.8000;1.1795;0.9673;
200.1000;1.1738;0.9572;
200.4000;1.1795;0.9723;
200.7000;1.1787;0.9698;
201.0000;1.1795;0.9648;
201.3000;1.1811;0.9648;
201.6000;1.1795;0.9673;
201.9000;1.1770;0.9572;
202.2000;1.1795;0.9749;
202.5000;1.1795;0.9673;
202.8000;1.1819;0.9824;
203.1000;1.1770;0.9698;
203.4000;1.1787;0.9799;
203.7000;1.1795;0.9749;
204.0000;1.1787;0.9774;
204.3000;1.1779;0.9749;
204.6000;1.1787;0.9774;
204.9000;1.1795;0.9799;
205.2000;1.1754;0.9723;
205.5000;1.1787;0.9874;
205.8000;1.1795;0.9874;
206.1000;1.1787;0.9824;
206.4000;1.1787;0.9799;
206.7000;1.1762;0.9925;
207.0000;1.1787;0.9950;
207.3000;1.1787;0.9975;
207.6000;1.1779;0.9975;
207.9000;1.1827;1.0076;
208.2000;1.1811;1.0000;
208.5000;1.1803;1.0000;
208.8000;1.1795;0.9950;
209.1000;1.1787;0.9975;
209.4000;1.1787;0.9925;
209.7000;1.1803;0.9950;
210.0000;1.1795;0.9950;
210.3000;1.1795;1.0000;
210.6000;1.1779;0.9925;
210.9000;1.1787;0.9925;
211.2000;1.1803;1.0026;
211.5000;1.1787;0.9925;
211.8000;1.1795;0.9900;
212.1000;1.1811;1.0051;
212.4000;1.1795;1.0026;
212.7000;1.1811;1.0000;
213.0000;1.1795;1.0026;
213.3000;1.1803;1.0051;
213.6000;1.1787;0.9975;
213.9000;1.1803;0.9975;
214.2000;1.1787;0.9925;
214.5000;1.1819;1.0126;
214.8000;1.1787;1.0076;
215.1000;1.1795;1.0076;
215.4000;1.1795;0.9975;
215.7000;1.1795;1.0000;
216.0000;1.1795;0.9975;
216.3000;1.1795;0.9925;
216.6000;1.1787;0.9874;
216.9000;1.1811;0.9925;
217.2000;1.1779;0.9874;
217.5000;1.1836;1.0000;
217.8000;1.1803;0.9925;
218.1000;1.1787;0.9849;
218.4000;1.1722;0.9698;
218.7000;1.1868;1.0101;
219.0000;1.1787;0.9900;
219.3000;1.1836;0.9975;
219.6000;1.1787;0.9874;
219.9000;1.1795;0.9874;
220.2000;1.1795;0.9900;
220.5000;1.1787;0.9925;
220.8000;1.1779;0.9925;
221.1000;1.1819;1.0026;
221.4000;1.1787;0.9975;
221.7000;1.1754;0.9925;
222.0000;1.1795;1.0000;
222.3000;1.1779;0.9900;
222.6000;1.1844;0.9950;
222.9000;1.1795;0.9774;
223.2000;1.1787;0.9749;
223.5000;1.1787;0.9749;
223.8000;1.1795;0.9799;
224.1000;1.1803;0.9950;
224.4000;1.1779;0.9900;
224.7000;1.1795;0.9925;
225.0000;1.1795;0.9925;
225.3000;1.1779;0.9950;
225.6000;1.1787;0.9950;
225.9000;1.1779;0.9925;
226.2000;1.1787;0.9849;
226.5000;1.1795;0.9849;
226.8000;1.1819;0.9900;
227.1000;1.1803;0.9874;
227.4000;1.1795;0.9900;
227.7000;1.1803;0.9874;
228.0000;1.1795;0.9900;
228.3000;1.1803;0.9849;
228.6000;1.1795;0.9774;
228.9000;1.1787;0.9774;
229.2000;1.1795;0.9673;
229.5000;1.1803;0.9597;
229.8000;1.1803;0.9572;
230.1000;1.1770;0.9497;
230.4000;1.1795;0.9572;
230.7000;1.1770;0.9547;
231.0000;1.1779;0.9623;
231.3000;1.1803;0.9698;
231.6000;1.1803;0.9698;
231.9000;1.1795;0.9673;
232.2000;1.1811;0.9749;
232.5000;1.1787;0.9698;
232.8000;1.1770;0.9774;
233.1000;1.1795;0.9799;
233.4000;1.1811;0.9925;
233.7000;1.1795;0.9925;
234.0000;1.1795;0.9950;
234.3000;1.1787;0.9849;
234.6000;1.1787;0.9749;
234.9000;1.1770;0.9698;
235.2000;1.1787;0.9749;
235.5000;1.1787;0.9849;
235.8000;1.1787;0.9849;
236.1000;1.1795;0.9824;
236.4000;1.1787;0.9849;
236.7000;1.1787;0.9950;
237.0000;1.1779;0.9975;
237.3000;1.1803;1.0026;
237.6000;1.1770;0.9925;
237.9000;1.1787;1.0000;
238.2000;1.1787;0.9925;
238.5000;1.1787;0.9925;
238.8000;1.1787;0.9900;
239.1000;1.1787;0.9824;
239.4000;1.1787;0.9774;
239.7000;1.1779;0.9749;
240.0000;1.1787;0.9849;
240.3000;1.1795;0.9849;
240.6000;1.1787;0.9925;
240.9000;1.1779;0.9874;
241.2000;1.1779;0.9950;
241.5000;1.1779;1.0101;
241.8000;1.1803;1.0152;
242.1000;1.1811;1.0126;
242.4000;1.1754;1.0026;
242.7000;1.1811;1.0051;
243.0000;1.1795;1.0026;
243.3000;1.1787;1.0101;
243.6000;1.1795;1.0177;
243.9000;1.1762;1.0026;
244.2000;1.1803;1.0252;
244.5000;1.1779;1.0227;
244.8000;1.1787;1.0126;
245.1000;1.1787;1.0076;
245.4000;1.1787;1.0152;
245.7000;1.1770;1.0126;
246.0000;1.1722;1.0000;
246.3000;1.1795;1.0202;
246.6000;1.1795;1.0126;
246.9000;1.1803;1.0126;
247.2000;1.1795;1.0126;
247.5000;1.1787;1.0126;
247.8000;1.1779;1.0076;
248.1000;1.1770;1.0026;
248.4000;1.1787;0.9950;
248.7000;1.1770;0.9900;
249.0000;1.1762;0.9950;
249.3000;1.1787;0.9975;
249.6000;1.1762;0.9975;
249.9000;1.1770;1.0076;
250.2000;1.1746;1.0000;
250.5000;1.1787;1.0101;
250.8000;1.1779;0.9950;
251.1000;1.1770;0.9900;
251.4000;1.1762;1.0000;
251.7000;1.1770;0.9975;
252.0000;1.1779;0.9975;
252.3000;1.1746;0.9900;
252.6000;1.1762;0.9950;
252.9000;1.1787;1.0076;
253.2000;1.1787;1.0126;
253.5000;1.1779;1.0177;
253.8000;1.1779;1.0126;
254.1000;1.1738;0.9925;
254.4000;1.1779;1.0126;
254.7000;1.1779;1.0051;
255.0000;1.1787;1.0026;
255.3000;1.1836;1.0177;
255.6000;1.1779;0.9950;
255.9000;1.1779;0.9975;
256.2000;1.1770;0.9950;
256.5000;1.1762;0.9975;
256.8000;1.1779;1.0026;
257.1000;1.1787;1.0076;
257.4000;1.1762;1.0026;
257.7000;1.1705;0.9874;
258.0000;1.1754;0.9925;
258.3000;1.1754;0.9900;
258.6000;1.1779;0.9950;
258.9000;1.1779;1.0026;
259.2000;1.1762;1.0051;
259.5000;1.1779;1.0076;
259.8000;1.1770;1.0000;
260.1000;1.1770;0.9950;
260.4000;1.1787;0.9950;
260.7000;1.1770;0.9824;
261.0000;1.1787;0.9900;
261.3000;1.1770;0.9950;
261.6000;1.1730;0.9874;
261.9000;1.1779;0.9950;
262.2000;1.1787;0.9925;
262.5000;1.1827;0.9975;
262.8000;1.1738;0.9824;
263.1000;1.1779;0.9925;
263.4000;1.1787;0.9900;
263.7000;1.1779;0.9975;
264.0000;1.1787;0.9950;
264.3000;1.1762;0.9925;
264.6000;1.1803;1.0000;
264.9000;1.1787;0.9900;
265.2000;1.1795;0.9925;
265.5000;1.1762;0.9874;
265.8000;1.1746;0.9849;
266.1000;1.1738;0.9900;
266.4000;1.1746;0.9900;
266.7000;1.1779;0.9950;
267.0000;1.1746;0.9874;
267.3000;1.1787;1.0000;
267.6000;1.1779;0.9900;
267.9000;1.1787;0.9950;
268.2000;1.1779;0.9950;
268.5000;1.1754;0.9975;
268.8000;1.1779;1.0026;
269.1000;1.1754;0.9925;
269.4000;1.1787;1.0026;
269.7000;1.1738;0.9900;
270.0000;1.1779;1.0026;
270.3000;1.1779;1.0026;
270.6000;1.1697;0.9849;
270.9000;1.1787;1.0051;
271.2000;1.1779;1.0076;
271.5000;1.1738;0.9925;
271.8000;1.1770;0.9950;
272.1000;1.1754;0.9950;
272.4000;1.1746;0.9900;
272.7000;1.1754;0.9874;
273.0000;1.1762;0.9824;
273.3000;1.1762;0.9874;
273.6000;1.1681;0.9749;
273.9000;1.1787;0.9975;
274.2000;1.1762;1.0000;
274.5000;1.1779;1.0101;
274.8000;1.1779;1.0076;
275.1000;1.1803;1.0101;
275.4000;1.1746;0.9950;
275.7000;1.1770;0.9975;
276.0000;1.1770;0.9975;
276.3000;1.1746;0.9824;
276.6000;1.1754;0.9799;
276.9000;1.1730;0.9749;
277.2000;1.1762;0.9849;
277.5000;1.1770;0.9874;
277.8000;1.1795;0.9950;
278.1000;1.1860;1.0152;
278.4000;1.1811;1.0051;
278.7000;1.1787;1.0076;
279.0000;1.1787;1.0101;
279.3000;1.1754;0.9925;
279.6000;1.1779;0.9975;
279.9000;1.1779;1.0000;
280.2000;1.1827;1.0101;
280.5000;1.1762;0.9950;
280.8000;1.1787;1.0026;
281.1000;1.1827;1.0126;
281.4000;1.1770;1.0051;
281.7000;1.1779;0.9975;
282.0000;1.1762;0.9925;
282.3000;1.1770;0.9874;
282.6000;1.1730;0.9723;
282.9000;1.1811;0.9874;
283.2000;1.1803;0.9799;
283.5000;1.1795;0.9824;
283.8000;1.1787;0.9799;
284.1000;1.1803;0.9799;
284.4000;1.1754;0.9698;
284.7000;1.1787;0.9723;
285.0000;1.1795;0.9824;
285.3000;1.1787;0.9900;
285.6000;1.1754;0.9824;
285.9000;1.1762;0.9824;
286.2000;1.1779;0.9925;
286.5000;1.1779;1.0000;
286.8000;1.1754;0.9900;
287.1000;1.1762;0.9799;
287.4000;1.1746;0.9774;
287.7000;1.1787;0.9849;
288.0000;1.1754;0.9623;
288.3000;1.1705;0.9497;
288.6000;1.1738;0.9572;
288.9000;1.1746;0.9648;
289.2000;1.1754;0.9723;
289.5000;1.1779;0.9849;
289.8000;1.1754;0.9749;
290.1000;1.1754;0.9673;
290.4000;1.1770;0.9723;
290.7000;1.1762;0.9698;
291.0000;1.1819;0.9749;
291.3000;1.1762;0.9572;
291.6000;1.1803;0.9723;
291.9000;1.1754;0.9648;
292.2000;1.1754;0.9673;
292.5000;1.1803;0.9723;
292.8000;1.1779;0.9648;
293.1000;1.1770;0.9623;
293.4000;1.1787;0.9623;
293.7000;1.1779;0.9572;
294.0000;1.1779;0.9597;
294.3000;1.1787;0.9749;
294.6000;1.1762;0.9749;
294.9000;1.1762;0.9698;
295.2000;1.1787;0.9774;
295.5000;1.1762;0.9698;
295.8000;1.1730;0.9597;
296.1000;1.1770;0.9698;
296.4000;1.1762;0.9723;
296.7000;1.1779;0.9799;
297.0000;1.1762;0.9749;
297.3000;1.1770;0.9749;
297.6000;1.1827;0.9849;
297.9000;1.1770;0.9749;
298.2000;1.1770;0.9799;
298.5000;1.1754;0.9749;
298.8000;1.1754;0.9723;
299.1000;1.1754;0.9673;
299.4000;1.1762;0.9673;
299.7000;1.1770;0.9749;
300.0000;1.1754;0.9723;
300.3000;1.1746;0.9698;
300.6000;1.1770;0.9774;
300.9000;1.1787;0.9698;
301.2000;1.1754;0.9698;
301.5000;1.1762;0.9799;
301.8000;1.1754;0.9799;
302.1000;1.1754;0.9874;
302.4000;1.1754;0.9824;
302.7000;1.1746;0.9723;
303.0000;1.1770;0.9774;
303.3000;1.1787;0.9824;
303.6000;1.1754;0.9824;
303.9000;1.1754;0.9874;
304.2000;1.1803;0.9975;
304.5000;1.1787;0.9874;
304.8000;1.1746;0.9673;
305.1000;1.1722;0.9648;
305.4000;1.1795;0.9900;
305.7000;1.1770;0.9874;
306.0000;1.1762;0.9900;
306.3000;1.1844;1.0076;
306.6000;1.1754;0.9849;
306.9000;1.1770;0.9849;
307.2000;1.1770;0.9824;
307.5000;1.1746;0.9698;
307.8000;1.1754;0.9698;
308.1000;1.1754;0.9673;
308.4000;1.1770;0.9648;
308.7000;1.1754;0.9723;
309.0000;1.1770;0.9749;
309.3000;1.1836;0.9950;
309.6000;1.1762;0.9900;
309.9000;1.1779;1.0026;
310.2000;1.1754;0.9975;
310.5000;1.1779;0.9975;
310.8000;1.1722;0.9925;
311.1000;1.1762;0.9975;
311.4000;1.1754;0.9975;
311.7000;1.1787;1.0051;
312.0000;1.1770;0.9975;
312.3000;1.1779;1.0000;
312.6000;1.1722;0.9799;
312.9000;1.1795;0.9975;
313.2000;1.1762;0.9925;
313.5000;1.1779;0.9925;
313.8000;1.1754;0.9925;
314.1000;1.1762;0.9900;
314.4000;1.1770;0.9824;
314.7000;1.1762;0.9874;
315.0000;1.1762;0.9925;
315.3000;1.1754;0.9925;
315.6000;1.1787;0.9975;
315.9000;1.1754;1.0000;
316.2000;1.1762;1.0026;
316.5000;1.1730;1.0000;
316.8000;1.1779;1.0051;
317.1000;1.1762;0.9975;
317.4000;1.1754;0.9925;
317.7000;1.1713;0.9774;
318.0000;1.1746;0.9849;
318.3000;1.1762;0.9950;
318.6000;1.1722;0.9849;
318.9000;1.1754;0.9874;
319.2000;1.1754;0.9925;
319.5000;1.1746;0.9950;
319.8000;1.1746;0.9950;
320.1000;1.1746;0.9950;
320.4000;1.1746;0.9900;
320.7000;1.1738;0.9824;
321.0000;1.1754;0.9900;
321.3000;1.1738;0.9950;
321.6000;1.1738;1.0000;
321.9000;1.1738;0.9950;
322.2000;1.1770;0.9975;
322.5000;1.1746;0.9975;
322.8000;1.1754;0.9824;
323.1000;1.1746;0.9824;
323.4000;1.1754;0.9874;
323.7000;1.1754;0.9874;
324.0000;1.1746;0.9849;
324.3000;1.1746;0.9824;
324.6000;1.1754;0.9950;
324.9000;1.1770;0.9925;
325.2000;1.1762;0.9874;
325.5000;1.1770;0.9925;
325.8000;1.1779;0.9900;
326.1000;1.1762;0.9824;
326.4000;1.1754;0.9799;
326.7000;1.1713;0.9673;
327.0000;1.1770;0.9849;
327.3000;1.1762;1.0000;
327.6000;1.1746;1.0026;
327.9000;1.1762;1.0076;
328.2000;1.1738;1.0126;
328.5000;1.1762;1.0101;
328.8000;1.1713;0.9975;
329.1000;1.1746;1.0000;
329.4000;1.1746;1.0000;
329.7000;1.1762;0.9975;
330.0000;1.1746;0.9975;
330.3000;1.1738;0.9950;
330.6000;1.1738;1.0026;
330.9000;1.1722;0.9900;
331.2000;1.1754;1.0026;
331.5000;1.1762;1.0126;
331.8000;1.1730;1.0101;
332.1000;1.1730;1.0076;
332.4000;1.1746;1.0126;
332.7000;1.1762;1.0177;
333.0000;1.1754;1.0076;
333.3000;1.1779;1.0076;
333.6000;1.1746;1.0026;
333.9000;1.1770;1.0000;
334.2000;1.1746;0.9925;
334.5000;1.1722;0.9849;
334.8000;1.1746;0.9849;
335.1000;1.1730;0.9799;
335.4000;1.1673;0.9648;
335.7000;1.1746;0.9874;
336.0000;1.1787;1.0000;
336.3000;1.1770;0.9900;
336.6000;1.1762;0.9849;
336.9000;1.1738;0.9723;
337.2000;1.1770;0.9723;
337.5000;1.1770;0.9749;
337.8000;1.1754;0.9774;
338.1000;1.1754;0.9799;
338.4000;1.1762;0.9824;
338.7000;1.1754;0.9749;
339.0000;1.1762;0.9925;
339.3000;1.1754;0.9874;
339.6000;1.1746;0.9925;
339.9000;1.1754;0.9975;
340.2000;1.1762;0.9900;
340.5000;1.1754;0.9950;
340.8000;1.1754;0.9874;
341.1000;1.1754;0.9774;
341.4000;1.1762;0.9749;
341.7000;1.1754;0.9673;
342.0000;1.1762;0.9623;
342.3000;1.1770;0.9572;
342.6000;1.1754;0.9623;
342.9000;1.1779;0.9698;
343.2000;1.1730;0.9623;
343.5000;1.1754;0.9749;
343.8000;1.1860;1.0026;
344.1000;1.1779;0.9824;
344.4000;1.1746;0.9774;
344.7000;1.1754;0.9900;
345.0000;1.1762;1.0000;
345.3000;1.1705;0.9900;
345.6000;1.1730;0.9925;
345.9000;1.1746;0.9925;
346.2000;1.1762;0.9950;
346.5000;1.1754;1.0000;
346.8000;1.1770;1.0076;
347.1000;1.1705;0.9925;
347.4000;1.1762;1.0026;
347.7000;1.1779;0.9900;
348.0000;1.1754;0.9900;
348.3000;1.1738;0.9874;
348.6000;1.1754;0.9824;
348.9000;1.1746;0.9874;
349.2000;1.1762;0.9900;
349.5000;1.1746;0.9950;
349.8000;1.1697;0.9824;
350.1000;1.1722;0.9925;
350.4000;1.1770;1.0051;
350.7000;1.1722;0.9950;
351.0000;1.1770;1.0126;
351.3000;1.1762;1.0126;
351.6000;1.1754;1.0101;
351.9000;1.1705;0.9925;
352.2000;1.1713;0.9900;
352.5000;1.1746;0.9950;
352.8000;1.1746;0.9975;
353.1000;1.1730;1.0000;
353.4000;1.1738;1.0000;
353.7000;1.1746;1.0076;
354.0000;1.1738;1.0126;
354.3000;1.1746;1.0051;
354.6000;1.1730;1.0026;
354.9000;1.1730;1.0000;
355.2000;1.1754;1.0026;
355.5000;1.1762;1.0000;
355.8000;1.1746;0.9975;
356.1000;1.1770;0.9975;
356.4000;1.1738;1.0000;
356.7000;1.1754;1.0026;
357.0000;1.1746;0.9975;
357.3000;1.1738;0.9950;
357.6000;1.1705;0.9824;
357.9000;1.1770;1.0026;
358.2000;1.1754;0.9950;
358.5000;1.1730;0.9900;
358.8000;1.1746;0.9900;
359.1000;1.1746;0.9874;
359.4000;1.1738;0.9925;
359.7000;1.1730;0.9849;
360.0000;1.1754;0.9925;
360.3000;1.1746;0.9975;
360.6000;1.1738;0.9874;
360.9000;1.1746;0.9874;
361.2000;1.1754;0.9900;
361.5000;1.1746;0.9849;
361.8000;1.1746;0.9799;
362.1000;1.1746;0.9673;
362.4000;1.1730;0.9673;
362.7000;1.1730;0.9648;
363.0000;1.1738;0.9749;
363.3000;1.1730;0.9673;
363.6000;1.1730;0.9673;
363.9000;1.1722;0.9749;
364.2000;1.1746;0.9824;
364.5000;1.1738;0.9874;
364.8000;1.1738;0.9950;
365.1000;1.1738;0.9975;
365.4000;1.1746;0.9975;
365.7000;1.1746;0.9975;
366.0000;1.1738;0.9925;
366.3000;1.1754;1.0000;
366.6000;1.1746;1.0026;
366.9000;1.1770;1.0051;
367.2000;1.1746;1.0000;
367.5000;1.1762;1.0026;
367.8000;1.1762;1.0051;
368.1000;1.1762;1.0026;
368.4000;1.1762;0.9950;
368.7000;1.1738;0.9849;
369.0000;1.1762;0.9900;
369.3000;1.1754;0.9824;
369.6000;1.1754;0.9799;
369.9000;1.1754;0.9849;
370.2000;1.1754;0.9774;
370.5000;1.1762;0.9824;
370.8000;1.1730;0.9723;
371.1000;1.1738;0.9774;
371.4000;1.1730;0.9723;
371.7000;1.1754;0.9900;
372.0000;1.1779;1.0026;
372.3000;1.1738;0.9950;
372.6000;1.1738;0.9950;
372.9000;1.1746;0.9925;
373.2000;1.1722;0.9824;
373.5000;1.1754;0.9975;
373.8000;1.1795;1.0000;
374.1000;1.1746;0.9849;
374.4000;1.1738;0.9925;
374.7000;1.1746;0.9874;
375.0000;1.1738;0.9849;
375.3000;1.1754;0.9849;
375.6000;1.1746;0.9925;
375.9000;1.1738;0.9925;
376.2000;1.1754;0.9849;
376.5000;1.1746;0.9774;
376.8000;1.1738;0.9698;
377.1000;1.1770;0.9749;
377.4000;1.1762;0.9749;
377.7000;1.1746;0.9749;
378.0000;1.1665;0.9698;
378.3000;1.1746;0.9975;
378.6000;1.1730;0.9925;
378.9000;1.1730;0.9874;
379.2000;1.1722;0.9849;
379.5000;1.1722;0.9925;
379.8000;1.1738;0.9950;
380.1000;1.1754;0.9950;
380.4000;1.1722;0.9799;
380.7000;1.1762;0.9975;
381.0000;1.1762;1.0000;
381.3000;1.1738;1.0026;
381.6000;1.1762;1.0177;
381.9000;1.1746;1.0101;
382.2000;1.1730;1.0051;
382.5000;1.1746;1.0026;
382.8000;1.1754;1.0000;
383.1000;1.1689;0.9849;
383.4000;1.1770;1.0076;
383.7000;1.1770;1.0101;
384.0000;1.1746;0.9950;
384.3000;1.1803;1.0076;
384.6000;1.1762;0.9900;
384.9000;1.1738;0.9900;
385.2000;1.1730;0.9874;
385.5000;1.1730;0.9900;
385.8000;1.1738;0.9874;
386.1000;1.1754;0.9925;
386.4000;1.1754;1.0000;
386.7000;1.1705;0.9950;
387.0000;1.1746;0.9975;
387.3000;1.1746;1.0000;
387.6000;1.1754;1.0051;
387.9000;1.1730;0.9925;
388.2000;1.1762;0.9925;
388.5000;1.1754;0.9950;
388.8000;1.1730;0.9950;
389.1000;1.1730;0.9975;
389.4000;1.1738;0.9925;
389.7000;1.1722;0.9975;
390.0000;1.1746;0.9950;
390.3000;1.1730;0.9900;
390.6000;1.1730;0.9874;
390.9000;1.1722;0.9849;
391.2000;1.1713;0.9824;
391.5000;1.1746;0.9900;
391.8000;1.1738;0.9925;
392.1000;1.1689;0.9824;
392.4000;1.1754;0.9925;
392.7000;1.1746;0.9874;
393.0000;1.1754;0.9925;
393.3000;1.1746;0.9925;
393.6000;1.1746;1.0000;
393.9000;1.1722;0.9975;
394.2000;1.1738;0.9975;
394.5000;1.1722;0.9950;
394.8000;1.1738;0.9925;
395.1000;1.1746;0.9774;
395.4000;1.1730;0.9749;
395.7000;1.1730;0.9749;
396.0000;1.1738;0.9698;
396.3000;1.1705;0.9623;
396.6000;1.1730;0.9698;
396.9000;1.1738;0.9698;
397.2000;1.1673;0.9597;
397.5000;1.1770;0.9925;
397.8000;1.1738;0.9799;
398.1000;1.1738;0.9799;
398.4000;1.1787;0.9925;
398.7000;1.1738;0.9799;
399.0000;1.1730;0.9723;
399.3000;1.1738;0.9749;
399.6000;1.1738;0.9673;
399.9000;1.1746;0.9723;
400.2000;1.1746;0.9799;
400.5000;1.1811;0.9975;
400.8000;1.1738;0.9749;
401.1000;1.1746;0.9723;
401.4000;1.1730;0.9673;
401.7000;1.1738;0.9774;
402.0000;1.1738;0.9799;
402.3000;1.1746;0.9900;
402.6000;1.1746;0.9799;
402.9000;1.1746;0.9799;
403.2000;1.1738;0.9623;
403.5000;1.1754;0.9673;
403.8000;1.1746;0.9572;
404.1000;1.1730;0.9623;
404.4000;1.1722;0.9597;
404.7000;1.1713;0.9547;
405.0000;1.1746;0.9597;
405.3000;1.1746;0.9623;
405.6000;1.1746;0.9623;
405.9000;1.1697;0.9572;
406.2000;1.1689;0.9572;
406.5000;1.1746;0.9698;
406.8000;1.1762;0.9723;
407.1000;1.1738;0.9673;
407.4000;1.1746;0.9723;
407.7000;1.1746;0.9749;
408.0000;1.1746;0.9749;
408.3000;1.1722;0.9698;
408.6000;1.1738;0.9774;
408.9000;1.1697;0.9749;
409.2000;1.1730;0.9950;
409.5000;1.1730;0.9975;
409.8000;1.1681;0.9849;
410.1000;1.1738;0.9900;
410.4000;1.1754;0.9799;
410.7000;1.1722;0.9749;
411.0000;1.1738;0.9824;
411.3000;1.1746;0.9849;
411.6000;1.1738;0.9799;
411.9000;1.1730;0.9824;
412.2000;1.1738;0.9849;
412.5000;1.1722;0.9874;
412.8000;1.1722;0.9824;
413.1000;1.1730;0.9874;
413.4000;1.1722;0.9874;
413.7000;1.1722;0.9925;
414.0000;1.1738;1.0051;
414.3000;1.1730;1.0026;
414.6000;1.1779;1.0101;
414.9000;1.1722;0.9900;
415.2000;1.1713;0.9774;
415.5000;1.1730;0.9774;
415.8000;1.1705;0.9723;
416.1000;1.1705;0.9723;
416.4000;1.1705;0.9774;
416.7000;1.1713;0.9874;
417.0000;1.1713;0.9799;
417.3000;1.1730;0.9900;
417.6000;1.1738;0.9950;
417.9000;1.1738;0.9874;
418.2000;1.1795;0.9950;
418.5000;1.1730;0.9824;
418.8000;1.1722;0.9799;
419.1000;1.1730;0.9774;
419.4000;1.1746;0.9749;
419.7000;1.1730;0.9673;
420.0000;1.1713;0.9673;
420.3000;1.1738;0.9749;
420.6000;1.1762;0.9849;
420.9000;1.1730;0.9774;
421.2000;1.1738;0.9723;
421.5000;1.1689;0.9572;
421.8000;1.1738;0.9723;
422.1000;1.1738;0.9774;
422.4000;1.1738;0.9824;
422.7000;1.1722;0.9774;
423.0000;1.1779;0.9900;
423.3000;1.1738;0.9799;
423.6000;1.1730;0.9799;
423.9000;1.1730;0.9925;
424.2000;1.1795;1.0152;
424.5000;1.1730;0.9950;
424.8000;1.1730;0.9925;
425.1000;1.1713;0.9849;
425.4000;1.1713;0.9874;
425.7000;1.1722;0.9723;
426.0000;1.1738;0.9749;
426.3000;1.1713;0.9774;
426.6000;1.1681;0.9723;
426.9000;1.1738;0.9849;
427.2000;1.1738;0.9774;
427.5000;1.1673;0.9799;
427.8000;1.1730;0.9900;
428.1000;1.1722;0.9950;
428.4000;1.1746;0.9975;
428.7000;1.1746;1.0000;
429.0000;1.1705;0.9975;
429.3000;1.1795;1.0278;
429.6000;1.1730;1.0101;
429.9000;1.1730;1.0152;
430.2000;1.1697;0.9975;
430.5000;1.1730;0.9975;
430.8000;1.1730;0.9874;
431.1000;1.1713;0.9799;
431.4000;1.1730;0.9874;
431.7000;1.1738;0.9900;
432.0000;1.1730;0.9849;
432.3000;1.1730;0.9799;
432.6000;1.1730;0.9799;
432.9000;1.1770;0.9824;
433.2000;1.1738;0.9824;
433.5000;1.1738;0.9799;
433.8000;1.1730;0.9799;
434.1000;1.1730;0.9799;
434.4000;1.1754;0.9774;
434.7000;1.1819;0.9849;
435.0000;1.1730;0.9749;
435.3000;1.1730;0.9824;
435.6000;1.1681;0.9749;
435.9000;1.1713;0.9874;
436.2000;1.1689;0.9723;
436.5000;1.1722;0.9824;
436.8000;1.1705;0.9799;
437.1000;1.1730;0.9900;
437.4000;1.1705;0.9849;
437.7000;1.1713;0.9824;
438.0000;1.1722;0.9950;
438.3000;1.1770;1.0000;
438.6000;1.1730;0.9975;
438.9000;1.1746;0.9900;
439.2000;1.1803;1.0076;
439.5000;1.1722;0.9799;
439.8000;1.1730;0.9849;
440.1000;1.1713;0.9900;
440.4000;1.1705;0.9925;
440.7000;1.1681;0.9874;
441.0000;1.1811;1.0152;
441.3000;1.1705;0.9950;
441.6000;1.1689;0.9925;
441.9000;1.1722;0.9925;
442.2000;1.1738;0.9925;
442.5000;1.1713;0.9824;
442.8000;1.1722;0.9874;
443.1000;1.1722;0.9874;
443.4000;1.1616;0.9572;
443.7000;1.1730;0.9874;
444.0000;1.1705;0.9849;
444.3000;1.1722;0.9849;
444.6000;1.1762;0.9950;
444.9000;1.1746;0.9900;
445.2000;1.1730;0.9774;
445.5000;1.1730;0.9900;
445.8000;1.1722;0.9925;
446.1000;1.1738;0.9975;
446.4000;1.1730;0.9925;
446.7000;1.1722;0.9900;
447.0000;1.1746;0.9950;
447.3000;1.1730;1.0000;
447.6000;1.1722;1.0000;
447.9000;1.1722;1.0000;
448.2000;1.1722;0.9950;
448.5000;1.1730;0.9950;
448.8000;1.1730;0.9874;
449.1000;1.1722;0.9849;
449.4000;1.1722;0.9849;
449.7000;1.1730;0.9925;
450.0000;1.1697;0.9975;
450.3000;1.1730;1.0126;
450.6000;1.1713;1.0152;
450.9000;1.1713;1.0177;
451.2000;1.1722;1.0177;
451.5000;1.1681;1.0000;
451.8000;1.1713;1.0026;
452.1000;1.1713;1.0101;
452.4000;1.1713;1.0101;
452.7000;1.1722;1.0126;
453.0000;1.1713;1.0026;
453.3000;1.1713;0.9975;
453.6000;1.1730;1.0000;
453.9000;1.1738;0.9975;
454.2000;1.1730;0.9950;
454.5000;1.1722;0.9874;
454.8000;1.1730;0.9950;
455.1000;1.1738;0.9950;
455.4000;1.1738;0.9950;
455.7000;1.1738;0.9874;
456.0000;1.1722;0.9900;
456.3000;1.1705;0.9874;
456.6000;1.1705;0.9925;
456.9000;1.1722;0.9849;
457.2000;1.1730;0.9950;
457.5000;1.1746;0.9950;
457.8000;1.1705;0.9849;
458.1000;1.1713;0.9925;
458.4000;1.1730;0.9950;
458.7000;1.1730;0.9849;
459.0000;1.1730;0.9900;
459.3000;1.1722;0.9925;
459.6000;1.1746;0.9925;
459.9000;1.1738;0.9799;
460.2000;1.1779;0.9925;
460.5000;1.1722;0.9723;
460.8000;1.1713;0.9723;
461.1000;1.1722;0.9774;
461.4000;1.1697;0.9749;
461.7000;1.1713;0.9824;
462.0000;1.1697;0.9824;
462.3000;1.1770;1.0051;
462.6000;1.1730;1.0076;
462.9000;1.1705;1.0000;
463.2000;1.1705;1.0000;
463.5000;1.1713;0.9874;
463.8000;1.1722;0.9874;
464.1000;1.1722;0.9900;
464.4000;1.1705;0.9950;
464.7000;1.1705;0.9975;
465.0000;1.1730;1.0000;
465.3000;1.1689;0.9900;
465.6000;1.1722;0.9900;
465.9000;1.1730;0.9874;
466.2000;1.1705;0.9874;
466.5000;1.1722;0.9950;
466.8000;1.1681;0.9799;
467.1000;1.1705;0.9874;
467.4000;1.1754;1.0000;
467.7000;1.1713;0.9900;
468.0000;1.1746;1.0000;
468.3000;1.1713;0.9900;
468.6000;1.1713;0.9900;
468.9000;1.1722;0.9874;
469.2000;1.1730;0.9900;
469.5000;1.1738;0.9925;
469.8000;1.1738;0.9975;
470.1000;1.1730;0.9900;
470.4000;1.1722;0.9925;
470.7000;1.1705;0.9824;
471.0000;1.1713;0.9824;
471.3000;1.1705;0.9950;
471.6000;1.1713;1.0076;
471.9000;1.1713;1.0051;
472.2000;1.1697;0.9975;
472.5000;1.1697;1.0000;
472.8000;1.1705;0.9925;
473.1000;1.1689;0.9975;
473.4000;1.1713;1.0051;
473.7000;1.1746;1.0177;
474.0000;1.1705;1.0051;
474.3000;1.1722;1.0026;
474.6000;1.1722;1.0101;
474.9000;1.1730;1.0152;
475.2000;1.1730;1.0051;
475.5000;1.1713;1.0026;
475.8000;1.1787;1.0152;
476.1000;1.1697;0.9900;
476.4000;1.1722;0.9874;
476.7000;1.1738;0.9975;
477.0000;1.1705;0.9925;
477.3000;1.1705;0.9925;
477.6000;1.1689;0.9824;
477.9000;1.1713;0.9849;
478.2000;1.1689;0.9799;
478.5000;1.1713;0.9849;
478.8000;1.1713;0.9849;
479.1000;1.1730;0.9874;
479.4000;1.1722;0.9849;
479.7000;1.1738;0.9900;
480.0000;1.1705;0.9874;
480.3000;1.1705;0.9950;
480.6000;1.1722;1.0000;
480.9000;1.1722;0.9950;
481.2000;1.1697;0.9925;
481.5000;1.1697;1.0026;
481.8000;1.1738;1.0076;
482.1000;1.1730;1.0076;
482.4000;1.1697;1.0026;
482.7000;1.1665;0.9849;
483.0000;1.1713;1.0000;
483.3000;1.1730;0.9950;
483.6000;1.1730;1.0101;
483.9000;1.1730;1.0076;
484.2000;1.1746;1.0126;
484.5000;1.1730;1.0101;
484.8000;1.1713;1.0152;
485.1000;1.1722;1.0152;
485.4000;1.1713;1.0126;
485.7000;1.1738;1.0202;
486.0000;1.1713;1.0101;
486.3000;1.1730;1.0152;
486.6000;1.1713;1.0101;
486.9000;1.1722;1.0152;
487.2000;1.1713;1.0026;
487.5000;1.1713;1.0000;
487.8000;1.1705;0.9900;
488.1000;1.1713;0.9900;
488.4000;1.1697;0.9874;
488.7000;1.1713;0.9950;
489.0000;1.1697;1.0000;
489.3000;1.1730;1.0000;
489.6000;1.1665;0.9824;
489.9000;1.1713;0.9900;
490.2000;1.1705;0.9925;
490.5000;1.1722;1.0026;
490.8000;1.1713;0.9925;
491.1000;1.1697;0.9900;
491.4000;1.1697;0.9900;
491.7000;1.1705;0.9975;
492.0000;1.1705;0.9975;
492.3000;1.1705;1.0000;
492.6000;1.1705;0.9950;
492.9000;1.1705;1.0000;
493.2000;1.1713;1.0026;
493.5000;1.1722;1.0101;
493.8000;1.1681;0.9975;
494.1000;1.1697;1.0051;
494.4000;1.1689;1.0101;
494.7000;1.1673;1.0051;
495.0000;1.1697;1.0152;
495.3000;1.1697;1.0126;
495.6000;1.1713;1.0051;
495.9000;1.1705;0.9975;
496.2000;1.1705;0.9900;
496.5000;1.1697;0.9900;
496.8000;1.1730;1.0026;
497.1000;1.1730;1.0000;
497.4000;1.1705;1.0051;
497.7000;1.1697;0.9975;
498.0000;1.1705;1.0000;
498.3000;1.1713;1.0000;
498.6000;1.1722;1.0026;
498.9000;1.1713;1.0000;
499.2000;1.1705;0.9950;
499.5000;1.1730;1.0101;
499.8000;1.1705;1.0126;
500.1000;1.1705;1.0101;
500.4000;1.1730;1.0126;
500.7000;1.1730;1.0101;
501.0000;1.1713;1.0076;
501.3000;1.1697;1.0026;
501.6000;1.1705;1.0000;
501.9000;1.1746;1.0026;
502.2000;1.1722;0.9975;
502.5000;1.1722;1.0126;
502.8000;1.1713;1.0126;
503.1000;1.1697;1.0051;
503.4000;1.1713;1.0101;
503.7000;1.1722;1.0152;
504.0000;1.1697;1.0076;
504.3000;1.1681;1.0177;
504.6000;1.1713;1.0252;
504.9000;1.1722;1.0152;
505.2000;1.1730;1.0076;
505.5000;1.1722;1.0026;
505.8000;1.1697;0.9900;
506.1000;1.1722;0.9925;
506.4000;1.1689;0.9849;
506.7000;1.1656;0.9673;
507.0000;1.1705;0.9799;
507.3000;1.1713;0.9874;
507.6000;1.1689;0.9874;
507.9000;1.1697;0.9824;
508.2000;1.1697;0.9749;
508.5000;1.1722;0.9824;
508.8000;1.1722;0.9900;
509.1000;1.1746;1.0026;
509.4000;1.1713;1.0000;
509.7000;1.1730;0.9975;
510.0000;1.1722;1.0026;
510.3000;1.1713;1.0026;
510.6000;1.1713;1.0000;
510.9000;1.1713;0.9950;
511.2000;1.1730;1.0000;
511.5000;1.1689;0.9925;
511.8000;1.1697;1.0000;
512.1000;1.1713;1.0126;
512.4000;1.1746;1.0202;
512.7000;1.1705;1.0101;
513.0000;1.1713;1.0051;
513.3000;1.1705;1.0051;
513.6000;1.1713;0.9950;
513.9000;1.1697;0.9900;
514.2000;1.1746;0.9975;
514.5000;1.1730;0.9900;
514.8000;1.1722;0.9874;
515.1000;1.1722;0.9925;
515.4000;1.1713;0.9950;
515.7000;1.1730;0.9975;
516.0000;1.1713;0.9925;
516.3000;1.1697;0.9925;
516.6000;1.1705;1.0000;
516.9000;1.1681;1.0000;
517.2000;1.1713;1.0076;
517.5000;1.1689;1.0026;
517.8000;1.1713;1.0126;
518.1000;1.1640;0.9975;
518.4000;1.1722;1.0026;
518.7000;1.1722;0.9950;
519.0000;1.1697;1.0000;
519.3000;1.1738;1.0076;
519.6000;1.1697;1.0026;
519.9000;1.1713;1.0101;
520.2000;1.1697;1.0101;
520.5000;1.1738;1.0177;
520.8000;1.1697;1.0051;
521.1000;1.1713;1.0076;
521.4000;1.1705;1.0227;
521.7000;1.1673;1.0177;
522.0000;1.1770;1.0353;
522.3000;1.1697;1.0126;
522.6000;1.1713;1.0177;
522.9000;1.1673;1.0076;
523.2000;1.1689;1.0126;
523.5000;1.1673;1.0152;
523.8000;1.1762;1.0378;
524.1000;1.1705;1.0227;
524.4000;1.1689;1.0101;
524.7000;1.1689;1.0076;
525.0000;1.1697;1.0101;
525.3000;1.1722;1.0126;
525.6000;1.1705;1.0101;
525.9000;1.1681;1.0026;
526.2000;1.1713;1.0051;
526.5000;1.1713;1.0101;
526.8000;1.1689;1.0126;
527.1000;1.1689;1.0152;
527.4000;1.1697;1.0126;
527.7000;1.1746;1.0227;
528.0000;1.1697;1.0026;
528.3000;1.1697;1.0026;
528.6000;1.1705;1.0101;
528.9000;1.1713;1.0076;
529.2000;1.1705;1.0051;
529.5000;1.1705;1.0026;
529.8000;1.1697;0.9950;
530.1000;1.1722;1.0000;
530.4000;1.1722;1.0000;
530.7000;1.1705;1.0000;
531.0000;1.1713;1.0026;
531.3000;1.1705;1.0101;
531.6000;1.1697;1.0051;
531.9000;1.1689;1.0026;
532.2000;1.1697;1.0101;
532.5000;1.1713;1.0000;
532.8000;1.1722;1.0051;
533.1000;1.1713;1.0101;
533.4000;1.1689;1.0076;
533.7000;1.1673;1.0076;
534.0000;1.1689;1.0051;
534.3000;1.1697;1.0051;
534.6000;1.1697;1.0101;
534.9000;1.1697;1.0101;
535.2000;1.1705;1.0101;
535.5000;1.1738;1.0126;
535.8000;1.1689;1.0000;
536.1000;1.1689;1.0000;
536.4000;1.1713;0.9975;
536.7000;1.1697;0.9874;
537.0000;1.1705;0.9975;
537.3000;1.1697;0.9950;
537.6000;1.1624;0.9723;
537.9000;1.1713;0.9900;
538.2000;1.1656;0.9774;
538.5000;1.1665;0.9824;
538.8000;1.1697;0.9975;
539.1000;1.1713;1.0000;
539.4000;1.1762;1.0152;
539.7000;1.1697;1.0026;
540.0000;1.1697;1.0076;
540.3000;1.1697;1.0051;
540.6000;1.1689;1.0051;
540.9000;1.1689;1.0000;
541.2000;1.1697;1.0000;
541.5000;1.1681;0.9950;
541.8000;1.1705;1.0000;
542.1000;1.1697;0.9975;
542.4000;1.1665;0.9925;
542.7000;1.1681;1.0000;
543.0000;1.1689;0.9975;
543.3000;1.1689;1.0000;
543.6000;1.1705;1.0000;
543.9000;1.1697;0.9975;
544.2000;1.1697;0.9975;
544.5000;1.1689;0.9874;
544.8000;1.1705;0.9900;
545.1000;1.1689;0.9950;
545.4000;1.1689;1.0051;
545.7000;1.1697;1.0076;
546.0000;1.1697;0.9975;
546.3000;1.1665;0.9950;
546.6000;1.1697;0.9975;
546.9000;1.1738;1.0051;
547.2000;1.1697;1.0000;
547.5000;1.1681;0.9925;
547.8000;1.1697;0.9925;
548.1000;1.1697;0.9799;
548.4000;1.1705;0.9824;
548.7000;1.1689;0.9824;
549.0000;1.1689;0.9900;
549.3000;1.1713;0.9975;
549.6000;1.1689;0.9975;
549.9000;1.1689;0.9900;
550.2000;1.1689;0.9874;
550.5000;1.1705;0.9950;
550.8000;1.1705;0.9975;
551.1000;1.1673;0.9950;
551.4000;1.1697;0.9950;
551.7000;1.1738;1.0051;
552.0000;1.1673;1.0000;
552.3000;1.1689;1.0026;
552.6000;1.1673;0.9950;
552.9000;1.1689;1.0051;
553.2000;1.1697;1.0126;
553.5000;1.1681;1.0202;
553.8000;1.1681;1.0202;
554.1000;1.1689;1.0152;
554.4000;1.1705;1.0202;
554.7000;1.1689;1.0152;
555.0000;1.1689;1.0076;
555.3000;1.1648;0.9975;
555.6000;1.1673;1.0101;
555.9000;1.1697;1.0177;
556.2000;1.1705;1.0202;
556.5000;1.1697;1.0177;
556.8000;1.1632;1.0051;
557.1000;1.1656;1.0026;
557.4000;1.1697;1.0000;
557.7000;1.1713;1.0076;
558.0000;1.1722;1.0126;
558.3000;1.1697;1.0126;
558.6000;1.1697;1.0202;
558.9000;1.1689;1.0126;
559.2000;1.1689;1.0076;
559.5000;1.1713;1.0126;
559.8000;1.1705;1.0227;
560.1000;1.1730;1.0303;
560.4000;1.1705;1.0328;
560.7000;1.1697;1.0353;
561.0000;1.1697;1.0328;
561.3000;1.1705;1.0278;
561.6000;1.1673;1.0177;
561.9000;1.1705;1.0227;
562.2000;1.1713;1.0202;
562.5000;1.1689;1.0076;
562.8000;1.1689;1.0051;
563.1000;1.1689;1.0076;
563.4000;1.1697;1.0126;
563.7000;1.1697;1.0126;
564.0000;1.1640;1.0026;
564.3000;1.1681;1.0152;
564.6000;1.1705;1.0227;
564.9000;1.1648;1.0152;
565.2000;1.1681;1.0378;
565.5000;1.1697;1.0403;
565.8000;1.1689;1.0378;
566.1000;1.1689;1.0353;
566.4000;1.1681;1.0252;
566.7000;1.1713;1.0353;
567.0000;1.1689;1.0252;
567.3000;1.1689;1.0202;
567.6000;1.1689;1.0177;
567.9000;1.1689;1.0126;
568.2000;1.1689;1.0152;
568.5000;1.1697;1.0126;
568.8000;1.1697;1.0101;
569.1000;1.1681;1.0076;
569.4000;1.1673;1.0152;
569.7000;1.1697;1.0202;
570.0000;1.1689;1.0177;
570.3000;1.1697;1.0126;
570.6000;1.1681;1.0126;
570.9000;1.1697;1.0126;
571.2000;1.1722;1.0252;
571.5000;1.1681;1.0152;
571.8000;1.1697;1.0252;
572.1000;1.1705;1.0378;
572.4000;1.1705;1.0278;
572.7000;1.1632;1.0000;
573.0000;1.1681;1.0252;
573.3000;1.1713;1.0202;
573.6000;1.1705;1.0152;
573.9000;1.1705;1.0252;
574.2000;1.1681;1.0202;
574.5000;1.1681;1.0177;
574.8000;1.1713;1.0278;
575.1000;1.1697;1.0303;
575.4000;1.1697;1.0378;
575.7000;1.1689;1.0328;
576.0000;1.1697;1.0252;
576.3000;1.1705;1.0278;
576.6000;1.1689;1.0303;
576.9000;1.1681;1.0252;
577.2000;1.1697;1.0152;
577.5000;1.1681;1.0152;
577.8000;1.1689;1.0000;
578.1000;1.1705;0.9975;
578.4000;1.1681;0.9950;
578.7000;1.1697;0.9975;
579.0000;1.1697;1.0000;
579.3000;1.1697;1.0000;
579.6000;1.1673;0.9950;
579.9000;1.1681;1.0000;
580.2000;1.1713;1.0101;
580.5000;1.1673;1.0051;
580.8000;1.1746;1.0177;
581.1000;1.1656;0.9975;
581.4000;1.1673;1.0051;
581.7000;1.1689;1.0000;
582.0000;1.1689;1.0076;
582.3000;1.1738;1.0202;
582.6000;1.1689;1.0051;
582.9000;1.1689;0.9950;
583.2000;1.1681;1.0000;
583.5000;1.1697;1.0051;
583.8000;1.1705;1.0101;
584.1000;1.1681;1.0051;
584.4000;1.1673;1.0026;
584.7000;1.1673;0.9975;
585.0000;1.1697;0.9975;
585.3000;1.1689;1.0000;
585.6000;1.1673;0.9975;
585.9000;1.1681;1.0101;
586.2000;1.1681;1.0126;
586.5000;1.1689;1.0152;
586.8000;1.1689;1.0101;
587.1000;1.1681;1.0051;
587.4000;1.1689;1.0076;
587.7000;1.1705;1.0101;
588.0000;1.1770;1.0227;
588.3000;1.1624;0.9849;
588.6000;1.1689;1.0126;
588.9000;1.1697;1.0177;
589.2000;1.1697;1.0252;
589.5000;1.1713;1.0378;
589.8000;1.1656;1.0227;
590.1000;1.1673;1.0227;
590.4000;1.1681;1.0252;
590.7000;1.1673;1.0177;
591.0000;1.1673;1.0101;
591.3000;1.1681;1.0152;
591.6000;1.1697;1.0152;
591.9000;1.1689;1.0051;
592.2000;1.1681;1.0026;
592.5000;1.1705;1.0076;
592.8000;1.1689;0.9975;
593.1000;1.1673;0.9975;
593.4000;1.1665;0.9900;
593.7000;1.1681;1.0026;
594.0000;1.1656;1.0026;
594.3000;1.1665;0.9975;
594.6000;1.1665;1.0000;
594.9000;1.1673;1.0076;
595.2000;1.1779;1.0328;
595.5000;1.1681;1.0126;
595.8000;1.1673;1.0177;
596.1000;1.1665;1.0126;
596.4000;1.1697;1.0227;
596.7000;1.1697;1.0202;
597.0000;1.1697;1.0202;
597.3000;1.1689;1.0177;
597.6000;1.1705;1.0126;
597.9000;1.1681;1.0051;
598.2000;1.1697;1.0177;
598.5000;1.1697;1.0152;
598.8000;1.1705;1.0101;
599.1000;1.1697;1.0101;
599.4000;1.1689;1.0202;
599.7000;1.1689;1.0202;
600.0000;1.1673;1.0227;
600.3000;1.1689;1.0177;
600.6000;1.1697;1.0076;
600.9000;1.1624;0.9849;
601.2000;1.1551;0.9673;
601.5000;1.1453;0.9522;
601.8000;1.1388;0.9371;
602.1000;1.1290;0.9194;
602.4000;1.1152;0.8942;
602.7000;1.1079;0.8741;
603.0000;1.0981;0.8514;
603.3000;1.0883;0.8363;
603.6000;1.0802;0.8237;
603.9000;1.0729;0.8086;
604.2000;1.0639;0.7884;
604.5000;1.0582;0.7784;
604.8000;1.0501;0.7633;
605.1000;1.0427;0.7633;
605.4000;1.0387;0.7708;
605.7000;1.0322;0.7708;
606.0000;1.0273;0.7633;
606.3000;1.0208;0.7481;
606.6000;1.0118;0.7280;
606.9000;1.0126;0.7406;
607.2000;1.0077;0.7381;
607.5000;1.0004;0.7406;
607.8000;0.9980;0.7456;
608.1000;0.9963;0.7557;
608.4000;0.9923;0.7532;
608.7000;0.9833;0.7406;
609.0000;0.9792;0.7381;
609.3000;0.9752;0.7355;
609.6000;0.9695;0.7330;
609.9000;0.9646;0.7255;
610.2000;0.9630;0.7280;
610.5000;0.9589;0.7255;
610.8000;0.9540;0.7179;
611.1000;0.9499;0.7179;
611.4000;0.9459;0.7154;
611.7000;0.9426;0.7154;
612.0000;0.9418;0.7154;
612.3000;0.9345;0.7078;
612.6000;0.9337;0.7204;
612.9000;0.9320;0.7179;
613.2000;0.9255;0.7129;
613.5000;0.9255;0.7078;
613.8000;0.9198;0.6978;
614.1000;0.9166;0.6952;
614.4000;0.9125;0.6927;
614.7000;0.9084;0.6927;
615.0000;0.9060;0.6877;
615.3000;0.9035;0.6902;
615.6000;0.9019;0.6877;
615.9000;0.8995;0.6776;
616.2000;0.8970;0.6701;
616.5000;0.8987;0.6726;
616.8000;0.8913;0.6575;
617.1000;0.8881;0.6650;
617.4000;0.8873;0.6675;
617.7000;0.8848;0.6751;
618.0000;0.8832;0.6751;
618.3000;0.8816;0.6751;
618.6000;0.8767;0.6675;
618.9000;0.8751;0.6625;
619.2000;0.8726;0.6600;
619.5000;0.8702;0.6650;
619.8000;0.8694;0.6726;
620.1000;0.8661;0.6751;
620.4000;0.8604;0.6625;
620.7000;0.8628;0.6726;
621.0000;0.8588;0.6675;
621.3000;0.8580;0.6751;
621.6000;0.8555;0.6726;
621.9000;0.8523;0.6726;
622.2000;0.8531;0.6726;
622.5000;0.8498;0.6675;
622.8000;0.8490;0.6675;
623.1000;0.8474;0.6600;
623.4000;0.8449;0.6575;
623.7000;0.8409;0.6524;
624.0000;0.8409;0.6474;
624.3000;0.8368;0.6348;
624.6000;0.8392;0.6423;
624.9000;0.8335;0.6373;
625.2000;0.8344;0.6398;
625.5000;0.8327;0.6398;
625.8000;0.8319;0.6449;
626.1000;0.8303;0.6449;
626.4000;0.8278;0.6398;
626.7000;0.8254;0.6348;
627.0000;0.8254;0.6373;
627.3000;0.8270;0.6449;
627.6000;0.8221;0.6398;
627.9000;0.8221;0.6524;
628.2000;0.8189;0.6499;
628.5000;0.8181;0.6474;
628.8000;0.8164;0.6474;
629.1000;0.8140;0.6398;
629.4000;0.8173;0.6423;
629.7000;0.8124;0.6398;
630.0000;0.8099;0.6323;
630.3000;0.8083;0.6373;
630.6000;0.8107;0.6449;
630.9000;0.8083;0.6423;
631.2000;0.8107;0.6549;
631.5000;0.8132;0.6600;
631.8000;0.8026;0.6423;
632.1000;0.8034;0.6499;
632.4000;0.8099;0.6675;
632.7000;0.8002;0.6398;
633.0000;0.7985;0.6423;
633.3000;0.7953;0.6398;
633.6000;0.7961;0.6524;
633.9000;0.7985;0.6650;
634.2000;0.7953;0.6524;
634.5000;0.7945;0.6449;
634.8000;0.7912;0.6373;
635.1000;0.7880;0.6323;
635.4000;0.7863;0.6323;
635.7000;0.7880;0.6373;
636.0000;0.7880;0.6373;
636.3000;0.7855;0.6323;
636.6000;0.7839;0.6272;
636.9000;0.7831;0.6297;
637.2000;0.7814;0.6323;
637.5000;0.7855;0.6524;
637.8000;0.7798;0.6524;
638.1000;0.7790;0.6449;
638.4000;0.7733;0.6398;
638.7000;0.7757;0.6499;
639.0000;0.7757;0.6449;
639.3000;0.7717;0.6398;
639.6000;0.7741;0.6549;
639.9000;0.7749;0.6524;
640.2000;0.7749;0.6549;
640.5000;0.7717;0.6524;
640.8000;0.7717;0.6600;
641.1000;0.7700;0.6575;
641.4000;0.7700;0.6524;
641.7000;0.7700;0.6575;
642.0000;0.7643;0.6499;
642.3000;0.7676;0.6549;
642.6000;0.7676;0.6575;
642.9000;0.7643;0.6575;
643.2000;0.7635;0.6600;
643.5000;0.7635;0.6675;
643.8000;0.7619;0.6650;
644.1000;0.7611;0.6549;
644.4000;0.7611;0.6524;
644.7000;0.7603;0.6449;
645.0000;0.7611;0.6474;
645.3000;0.7603;0.6474;
645.6000;0.7586;0.6449;
645.9000;0.7586;0.6474;
646.2000;0.7554;0.6398;
646.5000;0.7570;0.6348;
646.8000;0.7562;0.6297;
647.1000;0.7562;0.6272;
647.4000;0.7538;0.6247;
647.7000;0.7562;0.6323;
648.0000;0.7538;0.6323;
648.3000;0.7538;0.6423;
648.6000;0.7578;0.6600;
648.9000;0.7530;0.6549;
649.2000;0.7513;0.6423;
649.5000;0.7489;0.6297;
649.8000;0.7440;0.6172;
650.1000;0.7464;0.6197;
650.4000;0.7464;0.6247;
650.7000;0.7448;0.6323;
651.0000;0.7440;0.6348;
651.3000;0.7464;0.6575;
651.6000;0.7440;0.6524;
651.9000;0.7432;0.6423;
652.2000;0.7383;0.6272;
652.5000;0.7391;0.6348;
652.8000;0.7416;0.6398;
653.1000;0.7407;0.6449;
653.4000;0.7432;0.6499;
653.7000;0.7391;0.6373;
654.0000;0.7416;0.6449;
654.3000;0.7399;0.6474;
654.6000;0.7399;0.6549;
654.9000;0.7383;0.6625;
655.2000;0.7375;0.6549;
655.5000;0.7375;0.6423;
655.8000;0.7367;0.6323;
656.1000;0.7383;0.6423;
656.4000;0.7342;0.6348;
656.7000;0.7350;0.6373;
657.0000;0.7350;0.6423;
657.3000;0.7318;0.6423;
657.6000;0.7342;0.6499;
657.9000;0.7334;0.6499;
658.2000;0.7318;0.6474;
658.5000;0.7310;0.6398;
658.8000;0.7310;0.6348;
659.1000;0.7285;0.6272;
659.4000;0.7302;0.6297;
659.7000;0.7285;0.6272;
660.0000;0.7285;0.6197;
660.3000;0.7269;0.6146;
660.6000;0.7261;0.6222;
660.9000;0.7269;0.6172;
661.2000;0.7261;0.6121;
661.5000;0.7277;0.6121;
661.8000;0.7261;0.6096;
662.1000;0.7253;0.6197;
662.4000;0.7245;0.6172;
662.7000;0.7228;0.6146;
663.0000;0.7228;0.6197;
663.3000;0.7228;0.6172;
663.6000;0.7220;0.6121;
663.9000;0.7212;0.6121;
664.2000;0.7212;0.6020;
664.5000;0.7220;0.6071;
664.8000;0.7212;0.5945;
665.1000;0.7171;0.5894;
665.4000;0.7204;0.6096;
665.7000;0.7204;0.6096;
666.0000;0.7179;0.6046;
666.3000;0.7179;0.6121;
666.6000;0.7204;0.6172;
666.9000;0.7171;0.6121;
667.2000;0.7171;0.6172;
667.5000;0.7163;0.6247;
667.8000;0.7163;0.6222;
668.1000;0.7163;0.6222;
668.4000;0.7179;0.6272;
668.7000;0.7139;0.6272;
669.0000;0.7155;0.6348;
669.3000;0.7155;0.6373;
669.6000;0.7147;0.6323;
669.9000;0.7147;0.6348;
670.2000;0.7123;0.6297;
670.5000;0.7131;0.6222;
670.8000;0.7139;0.6297;
671.1000;0.7098;0.6146;
671.4000;0.7106;0.6197;
671.7000;0.7114;0.6247;
672.0000;0.7106;0.6247;
672.3000;0.7025;0.6096;
672.6000;0.7090;0.6247;
672.9000;0.7090;0.6297;
673.2000;0.7098;0.6247;
673.5000;0.7082;0.6247;
673.8000;0.7066;0.6272;
674.1000;0.7098;0.6323;
674.4000;0.7066;0.6197;
674.7000;0.7074;0.6172;
675.0000;0.7057;0.6222;
675.3000;0.7139;0.6549;
675.6000;0.7049;0.6297;
675.9000;0.7049;0.6297;
676.2000;0.7041;0.6247;
676.5000;0.7049;0.6272;
676.8000;0.7041;0.6272;
677.1000;0.7033;0.6323;
677.4000;0.6960;0.6172;
677.7000;0.7025;0.6272;
678.0000;0.7033;0.6272;
678.3000;0.7033;0.6247;
678.6000;0.7017;0.6197;
678.9000;0.7017;0.6272;
679.2000;0.7041;0.6323;
679.5000;0.7025;0.6323;
679.8000;0.7017;0.6323;
680.1000;0.7009;0.6323;
680.4000;0.7000;0.6348;
680.7000;0.7000;0.6348;
681.0000;0.7009;0.6373;
681.3000;0.6984;0.6373;
681.6000;0.6968;0.6323;
681.9000;0.6968;0.6272;
682.2000;0.6960;0.6247;
682.5000;0.6960;0.6197;
682.8000;0.6968;0.6272;
683.1000;0.6952;0.6222;
683.4000;0.6968;0.6247;
683.7000;0.6911;0.6071;
684.0000;0.6952;0.6247;
684.3000;0.6968;0.6146;
684.6000;0.6960;0.6172;
684.9000;0.6968;0.6222;
685.2000;0.6952;0.6222;
685.5000;0.6943;0.6197;
685.8000;0.6960;0.6323;
686.1000;0.6935;0.6323;
686.4000;0.6911;0.6272;
686.7000;0.6886;0.6172;
687.0000;0.7000;0.6524;
687.3000;0.6919;0.6247;
687.6000;0.6984;0.6373;
687.9000;0.6903;0.6172;
688.2000;0.6911;0.6121;
688.5000;0.6911;0.6146;
688.8000;0.6919;0.6172;
689.1000;0.6911;0.6121;
689.4000;0.6919;0.6146;
689.7000;0.6935;0.6096;
690.0000;0.6919;0.6222;
690.3000;0.6895;0.6172;
690.6000;0.6911;0.6247;
690.9000;0.6895;0.6197;
691.2000;0.6927;0.6247;
691.5000;0.6903;0.6197;
691.8000;0.6870;0.6121;
692.1000;0.6870;0.6071;
692.4000;0.6878;0.6146;
692.7000;0.6878;0.6222;
693.0000;0.6878;0.6297;
693.3000;0.6886;0.6247;
693.6000;0.6854;0.6222;
693.9000;0.6862;0.6172;
694.2000;0.6862;0.6146;
694.5000;0.6862;0.6172;
694.8000;0.6789;0.5894;
695.1000;0.6870;0.6121;
695.4000;0.6870;0.6096;
695.7000;0.6870;0.6046;
696.0000;0.6846;0.6121;
696.3000;0.6846;0.6172;
696.6000;0.6846;0.6197;
696.9000;0.6838;0.6197;
697.2000;0.6870;0.6222;
697.5000;0.6838;0.6146;
697.8000;0.6854;0.6272;
698.1000;0.6838;0.6222;
698.4000;0.6821;0.6222;
698.7000;0.6854;0.6222;
699.0000;0.6846;0.6121;
699.3000;0.6878;0.6222;
699.6000;0.6829;0.6071;
699.9000;0.6846;0.6046;
700.2000;0.6846;0.6121;
700.5000;0.6821;0.6071;
700.8000;0.6829;0.6146;
701.1000;0.6821;0.6222;
701.4000;0.6838;0.6247;
701.7000;0.6813;0.6121;
702.0000;0.6805;0.6020;
702.3000;0.6813;0.6121;
702.6000;0.6821;0.6172;
702.9000;0.6813;0.6197;
703.2000;0.6797;0.6121;
703.5000;0.6813;0.6247;
703.8000;0.6813;0.6272;
704.1000;0.6797;0.6172;
704.4000;0.6797;0.6121;
704.7000;0.6797;0.6096;
705.0000;0.6813;0.6197;
705.3000;0.6797;0.6197;
705.6000;0.6789;0.6272;
705.9000;0.6797;0.6272;
706.2000;0.6772;0.6197;
706.5000;0.6789;0.6197;
706.8000;0.6781;0.6197;
707.1000;0.6772;0.6172;
707.4000;0.6764;0.6146;
707.7000;0.6772;0.6197;
708.0000;0.6764;0.6172;
708.3000;0.6740;0.6121;
708.6000;0.6756;0.5995;
708.9000;0.6764;0.5945;
709.2000;0.6764;0.5945;
709.5000;0.6724;0.5794;
709.8000;0.6764;0.5869;
710.1000;0.6781;0.5970;
710.4000;0.6764;0.6020;
710.7000;0.6740;0.5995;
711.0000;0.6797;0.6172;
711.3000;0.6764;0.6071;
711.6000;0.6756;0.6172;
711.9000;0.6740;0.6121;
712.2000;0.6740;0.6146;
712.5000;0.6707;0.6071;
712.8000;0.6756;0.6172;
713.1000;0.6732;0.6121;
713.4000;0.6740;0.6071;
713.7000;0.6675;0.5920;
714.0000;0.6732;0.6197;
714.3000;0.6740;0.6121;
714.6000;0.6756;0.6197;
714.9000;0.6724;0.6096;
715.2000;0.6707;0.6096;
715.5000;0.6724;0.6096;
715.8000;0.6748;0.6172;
716.1000;0.6724;0.6121;
716.4000;0.6683;0.6071;
716.7000;0.6724;0.6222;
717.0000;0.6724;0.6172;
717.3000;0.6716;0.6121;
717.6000;0.6716;0.6172;
717.9000;0.6659;0.6071;
718.2000;0.6707;0.6222;
718.5000;0.6707;0.6172;
718.8000;0.6691;0.6071;
719.1000;0.6699;0.6121;
719.4000;0.6675;0.6096;
719.7000;0.6683;0.6172;
720.0000;0.6683;0.6222;
720.3000;0.6699;0.6222;
720.6000;0.6699;0.6197;
720.9000;0.6683;0.6197;
721.2000;0.6683;0.6096;
721.5000;0.6691;0.6071;
721.8000;0.6683;0.6046;
722.1000;0.6675;0.6020;
722.4000;0.6707;0.6121;
722.7000;0.6683;0.6020;
723.0000;0.6675;0.5945;
723.3000;0.6675;0.5970;
723.6000;0.6634;0.5920;
723.9000;0.6667;0.5920;
724.2000;0.6675;0.5970;
724.5000;0.6683;0.6071;
724.8000;0.6667;0.6020;
725.1000;0.6675;0.5970;
725.4000;0.6642;0.5920;
725.7000;0.6675;0.6020;
726.0000;0.6659;0.6096;
726.3000;0.6659;0.6096;
726.6000;0.6650;0.6071;
726.9000;0.6659;0.6096;
727.2000;0.6642;0.6096;
727.5000;0.6659;0.6121;
727.8000;0.6659;0.6146;
728.1000;0.6634;0.6020;
728.4000;0.6634;0.5945;
728.7000;0.6642;0.5945;
729.0000;0.6650;0.5920;
729.3000;0.6650;0.5945;
729.6000;0.6642;0.5945;
729.9000;0.6626;0.5970;
730.2000;0.6634;0.6020;
730.5000;0.6675;0.6121;
730.8000;0.6650;0.6046;
731.1000;0.6650;0.6071;
731.4000;0.6634;0.6096;
731.7000;0.6626;0.6096;
732.0000;0.6642;0.6071;
732.3000;0.6626;0.6020;
732.6000;0.6626;0.5995;
732.9000;0.6642;0.6046;
733.2000;0.6626;0.6046;
733.5000;0.6610;0.5995;
733.8000;0.6602;0.5945;
734.1000;0.6602;0.5970;
734.4000;0.6618;0.6020;
734.7000;0.6618;0.5869;
735.0000;0.6610;0.5894;
735.3000;0.6634;0.5869;
735.6000;0.6626;0.5920;
735.9000;0.6667;0.6146;
736.2000;0.6626;0.5970;
736.5000;0.6593;0.5970;
736.8000;0.6626;0.5995;
737.1000;0.6610;0.5920;
737.4000;0.6650;0.6121;
737.7000;0.6634;0.6071;
738.0000;0.6602;0.6046;
738.3000;0.6618;0.6096;
738.6000;0.6618;0.6172;
738.9000;0.6585;0.6071;
739.2000;0.6593;0.6096;
739.5000;0.6602;0.6096;
739.8000;0.6602;0.6020;
740.1000;0.6602;0.5995;
740.4000;0.6593;0.6071;
740.7000;0.6585;0.6121;
741.0000;0.6602;0.6197;
741.3000;0.6569;0.6046;
741.6000;0.6593;0.6121;
741.9000;0.6618;0.6222;
742.2000;0.6602;0.6222;
742.5000;0.6561;0.6071;
742.8000;0.6577;0.6096;
743.1000;0.6585;0.6020;
743.4000;0.6585;0.6096;
743.7000;0.6569;0.6020;
744.0000;0.6577;0.6020;
744.3000;0.6504;0.5718;
744.6000;0.6577;0.5945;
744.9000;0.6585;0.5945;
745.2000;0.6569;0.5970;
745.5000;0.6569;0.5869;
745.8000;0.6569;0.5894;
746.1000;0.6585;0.5970;
746.4000;0.6561;0.5920;
746.7000;0.6561;0.5945;
747.0000;0.6577;0.5920;
747.3000;0.6577;0.5920;
747.6000;0.6577;0.5894;
747.9000;0.6545;0.5819;
748.2000;0.6553;0.5743;
748.5000;0.6593;0.5869;
748.8000;0.6569;0.5844;
749.1000;0.6561;0.5819;
749.4000;0.6569;0.5819;
749.7000;0.6553;0.5844;
750.0000;0.6577;0.5869;
750.3000;0.6561;0.5894;
750.6000;0.6536;0.5945;
750.9000;0.6593;0.5995;
751.2000;0.6561;0.5920;
751.5000;0.6545;0.5869;
751.8000;0.6577;0.6020;
752.1000;0.6553;0.5995;
752.4000;0.6545;0.6096;
752.7000;0.6536;0.6071;
753.0000;0.6545;0.5995;
753.3000;0.6536;0.5970;
753.6000;0.6545;0.5920;
753.9000;0.6520;0.5869;
754.2000;0.6520;0.5920;
754.5000;0.6528;0.5920;
754.8000;0.6545;0.5945;
755.1000;0.6488;0.5869;
755.4000;0.6545;0.6020;
755.7000;0.6512;0.6020;
756.0000;0.6545;0.6071;
756.3000;0.6536;0.6121;
756.6000;0.6512;0.6096;
756.9000;0.6463;0.5869;
757.2000;0.6536;0.6071;
757.5000;0.6528;0.5995;
757.8000;0.6536;0.5995;
758.1000;0.6512;0.5995;
758.4000;0.6545;0.6071;
758.7000;0.6536;0.6020;
759.0000;0.6512;0.5920;
759.3000;0.6520;0.5920;
759.6000;0.6512;0.5920;
759.9000;0.6528;0.6020;
760.2000;0.6528;0.5970;
760.5000;0.6520;0.6020;
760.8000;0.6520;0.6071;
761.1000;0.6545;0.6172;
761.4000;0.6528;0.6046;
761.7000;0.6528;0.5995;
762.0000;0.6520;0.5970;
762.3000;0.6520;0.5970;
762.6000;0.6545;0.5945;
762.9000;0.6528;0.5894;
763.2000;0.6528;0.5970;
763.5000;0.6520;0.5945;
763.8000;0.6512;0.5894;
764.1000;0.6504;0.5970;
764.4000;0.6504;0.6046;
764.7000;0.6504;0.6046;
765.0000;0.6504;0.6146;
765.3000;0.6512;0.6197;
765.6000;0.6504;0.6146;
765.9000;0.6512;0.6096;
766.2000;0.6528;0.6146;
766.5000;0.6512;0.6172;
766.8000;0.6504;0.6071;
767.1000;0.6455;0.5945;
767.4000;0.6496;0.5920;
767.7000;0.6496;0.5995;
768.0000;0.6447;0.5794;
768.3000;0.6488;0.5869;
768.6000;0.6488;0.5869;
768.9000;0.6504;0.5819;
769.2000;0.6463;0.5794;
769.5000;0.6528;0.5970;
769.8000;0.6512;0.5920;
770.1000;0.6545;0.5995;
770.4000;0.6496;0.5844;
770.7000;0.6479;0.5894;
771.0000;0.6479;0.5970;
771.3000;0.6504;0.6071;
771.6000;0.6528;0.6096;
771.9000;0.6488;0.5869;
772.2000;0.6488;0.5819;
772.5000;0.6504;0.5819;
772.8000;0.6496;0.5794;
773.1000;0.6504;0.5869;
773.4000;0.6545;0.5970;
773.7000;0.6488;0.5894;
774.0000;0.6488;0.5920;
774.3000;0.6479;0.5945;
774.6000;0.6479;0.5945;
774.9000;0.6471;0.5995;
775.2000;0.6488;0.5970;
775.5000;0.6496;0.5970;
775.8000;0.6479;0.5970;
776.1000;0.6471;0.5920;
776.4000;0.6488;0.5920;
776.7000;0.6479;0.5970;
777.0000;0.6496;0.6020;
777.3000;0.6463;0.5920;
777.6000;0.6447;0.5869;
777.9000;0.6471;0.5894;
778.2000;0.6471;0.5894;
778.5000;0.6455;0.5819;
778.8000;0.6455;0.5869;
779.1000;0.6463;0.5869;
779.4000;0.6463;0.5844;
779.7000;0.6496;0.5894;
780.0000;0.6471;0.5844;
780.3000;0.6496;0.5945;
780.6000;0.6471;0.5894;
780.9000;0.6422;0.5794;
781.2000;0.6463;0.5970;
781.5000;0.6463;0.5995;
781.8000;0.6455;0.6046;
782.1000;0.6471;0.6046;
782.4000;0.6431;0.5920;
782.7000;0.6455;0.5945;
783.0000;0.6463;0.5995;
783.3000;0.6479;0.5995;
783.6000;0.6439;0.5894;
783.9000;0.6512;0.5995;
784.2000;0.6471;0.5920;
784.5000;0.6455;0.5894;
784.8000;0.6463;0.5844;
785.1000;0.6447;0.5844;
785.4000;0.6455;0.5769;
785.7000;0.6431;0.5794;
786.0000;0.6439;0.5869;
786.3000;0.6431;0.5794;
786.6000;0.6455;0.5844;
786.9000;0.6455;0.5869;
787.2000;0.6439;0.5894;
787.5000;0.6414;0.5794;
787.8000;0.6447;0.5844;
788.1000;0.6471;0.5945;
788.4000;0.6447;0.5970;
788.7000;0.6406;0.5894;
789.0000;0.6455;0.5894;
789.3000;0.6439;0.5920;
789.6000;0.6431;0.5920;
789.9000;0.6439;0.5970;
790.2000;0.6414;0.5945;
790.5000;0.6431;0.5894;
790.8000;0.6431;0.5995;
791.1000;0.6431;0.5995;
791.4000;0.6447;0.6020;
791.7000;0.6447;0.5970;
792.0000;0.6447;0.5970;
792.3000;0.6439;0.5794;
792.6000;0.6422;0.5693;
792.9000;0.6422;0.5718;
793.2000;0.6422;0.5693;
793.5000;0.6439;0.5643;
793.8000;0.6439;0.5617;
794.1000;0.6431;0.5643;
794.4000;0.6528;0.5920;
794.7000;0.6431;0.5819;
795.0000;0.6414;0.5920;
795.3000;0.6357;0.5743;
795.6000;0.6431;0.5970;
795.9000;0.6455;0.6096;
796.2000;0.6422;0.6020;
796.5000;0.6463;0.6172;
796.8000;0.6431;0.6020;
797.1000;0.6431;0.6046;
797.4000;0.6406;0.6020;
797.7000;0.6414;0.6222;
798.0000;0.6439;0.6348;
798.3000;0.6422;0.6297;
798.6000;0.6414;0.6222;
798.9000;0.6414;0.6197;
799.2000;0.6431;0.6146;
799.5000;0.6398;0.6020;
799.8000;0.6390;0.5995;
800.1000;0.6406;0.6096;
800.4000;0.6414;0.6121;
800.7000;0.6414;0.6146;
801.0000;0.6414;0.6272;
801.3000;0.6422;0.6398;
801.6000;0.6398;0.6272;
801.9000;0.6414;0.6247;
802.2000;0.6422;0.6247;
802.5000;0.6406;0.6172;
802.8000;0.6398;0.6046;
803.1000;0.6398;0.6071;
803.4000;0.6414;0.6146;
803.7000;0.6422;0.6247;
804.0000;0.6406;0.6222;
804.3000;0.6414;0.6272;
804.6000;0.6398;0.6222;
804.9000;0.6414;0.6222;
805.2000;0.6447;0.6247;
805.5000;0.6406;0.6096;
805.8000;0.6398;0.6096;
806.1000;0.6406;0.6172;
806.4000;0.6422;0.6197;
806.7000;0.6406;0.6146;
807.0000;0.6398;0.6121;
807.3000;0.6414;0.6046;
807.6000;0.6431;0.6020;
807.9000;0.6390;0.5995;
808.2000;0.6398;0.6096;
808.5000;0.6414;0.6172;
808.8000;0.6374;0.6096;
809.1000;0.6374;0.6071;
809.4000;0.6390;0.6046;
809.7000;0.6382;0.6046;
810.0000;0.6390;0.5970;
810.3000;0.6382;0.5869;
810.6000;0.6382;0.5794;
810.9000;0.6406;0.5869;
811.2000;0.6390;0.5869;
811.5000;0.6398;0.5945;
811.8000;0.6414;0.5995;
812.1000;0.6398;0.5920;
812.4000;0.6390;0.5970;
812.7000;0.6390;0.5995;
813.0000;0.6382;0.6020;
813.3000;0.6390;0.6172;
813.6000;0.6357;0.6146;
813.9000;0.6398;0.6222;
814.2000;0.6365;0.6096;
814.5000;0.6374;0.6197;
814.8000;0.6382;0.6247;
815.1000;0.6382;0.6172;
815.4000;0.6374;0.6121;
815.7000;0.6382;0.6071;
816.0000;0.6398;0.6071;
816.3000;0.6382;0.6046;
816.6000;0.6374;0.6020;
816.9000;0.6374;0.6046;
817.2000;0.6406;0.6121;
817.5000;0.6406;0.6172;
817.8000;0.6390;0.6096;
818.1000;0.6374;0.6046;
818.4000;0.6390;0.6071;
818.7000;0.6398;0.6121;
819.0000;0.6390;0.6046;
819.3000;0.6374;0.5995;
819.6000;0.6365;0.5995;
819.9000;0.6382;0.5920;
820.2000;0.6374;0.5945;
820.5000;0.6374;0.6020;
820.8000;0.6390;0.6096;
821.1000;0.6374;0.6096;
821.4000;0.6382;0.6197;
821.7000;0.6398;0.6197;
822.0000;0.6374;0.6096;
822.3000;0.6382;0.6096;
822.6000;0.6374;0.6046;
822.9000;0.6390;0.6020;
823.2000;0.6357;0.5920;
823.5000;0.6374;0.5945;
823.8000;0.6365;0.5945;
824.1000;0.6357;0.5995;
824.4000;0.6365;0.6071;
824.7000;0.6374;0.6071;
825.0000;0.6406;0.6096;
825.3000;0.6357;0.6046;
825.6000;0.6317;0.5920;
825.9000;0.6357;0.6071;
826.2000;0.6357;0.6020;
826.5000;0.6374;0.6071;
826.8000;0.6374;0.6121;
827.1000;0.6349;0.6071;
827.4000;0.6357;0.6096;
827.7000;0.6406;0.6172;
828.0000;0.6365;0.6096;
828.3000;0.6349;0.6121;
828.6000;0.6365;0.6121;
828.9000;0.6374;0.6272;
829.2000;0.6357;0.6247;
829.5000;0.6333;0.6096;
829.8000;0.6349;0.6071;
830.1000;0.6382;0.6172;
830.4000;0.6431;0.6398;
830.7000;0.6357;0.6172;
831.0000;0.6374;0.6146;
831.3000;0.6398;0.6272;
831.6000;0.6382;0.6247;
831.9000;0.6365;0.6222;
832.2000;0.6374;0.6222;
832.5000;0.6390;0.6247;
832.8000;0.6382;0.6222;
833.1000;0.6382;0.6197;
833.4000;0.6382;0.6222;
833.7000;0.6357;0.6172;
834.0000;0.6357;0.6222;
834.3000;0.6357;0.6197;
834.6000;0.6341;0.6146;
834.9000;0.6357;0.6121;
835.2000;0.6357;0.6046;
835.5000;0.6349;0.5970;
835.8000;0.6333;0.6020;
836.1000;0.6333;0.5995;
836.4000;0.6292;0.5894;
836.7000;0.6357;0.6046;
837.0000;0.6357;0.6121;
837.3000;0.6357;0.6071;
837.6000;0.6357;0.6020;
837.9000;0.6349;0.6071;
838.2000;0.6398;0.6096;
838.5000;0.6333;0.6046;
838.8000;0.6333;0.6071;
839.1000;0.6349;0.6146;
839.4000;0.6349;0.6121;
839.7000;0.6333;0.6096;
840.0000;0.6349;0.6071;
840.3000;0.6341;0.6020;
840.6000;0.6357;0.6096;
840.9000;0.6333;0.5995;
841.2000;0.6333;0.5995;
841.5000;0.6341;0.5970;
841.8000;0.6341;0.5970;
842.1000;0.6317;0.5920;
842.4000;0.6374;0.6071;
842.7000;0.6333;0.5945;
843.0000;0.6357;0.5995;
843.3000;0.6333;0.5995;
843.6000;0.6349;0.5995;
843.9000;0.6333;0.6071;
844.2000;0.6333;0.6121;
844.5000;0.6382;0.6348;
844.8000;0.6325;0.6247;
845.1000;0.6341;0.6247;
845.4000;0.6333;0.6247;
845.7000;0.6325;0.6272;
846.0000;0.6333;0.6146;
846.3000;0.6300;0.6071;
846.6000;0.6325;0.6096;
846.9000;0.6300;0.6020;
847.2000;0.6341;0.6146;
847.5000;0.6349;0.6222;
847.8000;0.6325;0.6121;
848.1000;0.6341;0.6146;
848.4000;0.6341;0.6121;
848.7000;0.6292;0.6146;
849.0000;0.6325;0.6272;
849.3000;0.6333;0.6272;
849.6000;0.6317;0.6096;
849.9000;0.6309;0.5970;
850.2000;0.6284;0.6046;
850.5000;0.6317;0.6121;
850.8000;0.6341;0.6146;
851.1000;0.6317;0.6146;
851.4000;0.6341;0.6197;
851.7000;0.6341;0.6323;
852.0000;0.6333;0.6297;
852.3000;0.6333;0.6222;
852.6000;0.6325;0.6197;
852.9000;0.6317;0.6172;
853.2000;0.6333;0.6172;
853.5000;0.6325;0.6172;
853.8000;0.6325;0.6121;
854.1000;0.6325;0.6247;
854.4000;0.6341;0.6272;
854.7000;0.6317;0.6222;
855.0000;0.6325;0.6197;
855.3000;0.6325;0.6172;
855.6000;0.6325;0.6146;
855.9000;0.6317;0.6222;
856.2000;0.6300;0.6146;
856.5000;0.6309;0.6121;
856.8000;0.6374;0.6272;
857.1000;0.6325;0.6121;
857.4000;0.6333;0.6121;
857.7000;0.6317;0.5970;
858.0000;0.6325;0.6096;
858.3000;0.6317;0.6020;
858.6000;0.6309;0.5945;
858.9000;0.6300;0.5945;
859.2000;0.6300;0.6020;
859.5000;0.6317;0.6096;
859.8000;0.6309;0.6146;
860.1000;0.6292;0.6121;
860.4000;0.6300;0.6096;
860.7000;0.6309;0.5995;
861.0000;0.6325;0.5995;
861.3000;0.6292;0.5945;
861.6000;0.6309;0.5945;
861.9000;0.6333;0.6046;
862.2000;0.6292;0.5995;
862.5000;0.6284;0.5945;
862.8000;0.6300;0.5920;
863.1000;0.6300;0.5995;
863.4000;0.6300;0.5920;
863.7000;0.6309;0.6020;
864.0000;0.6317;0.5995;
864.3000;0.6309;0.6071;
864.6000;0.6309;0.6020;
864.9000;0.6292;0.5945;
865.2000;0.6300;0.5769;
865.5000;0.6300;0.5668;
865.8000;0.6292;0.5617;
866.1000;0.6309;0.5693;
866.4000;0.6292;0.5617;
866.7000;0.6309;0.5718;
867.0000;0.6309;0.5668;
867.3000;0.6317;0.5542;
867.6000;0.6292;0.5491;
867.9000;0.6284;0.5567;
868.2000;0.6300;0.5668;
868.5000;0.6365;0.5894;
868.8000;0.6292;0.5819;
869.1000;0.6300;0.5869;
869.4000;0.6292;0.5945;
869.7000;0.6309;0.5995;
870.0000;0.6292;0.5970;
870.3000;0.6292;0.5920;
870.6000;0.6300;0.5869;
870.9000;0.6325;0.5920;
871.2000;0.6292;0.5819;
871.5000;0.6284;0.5844;
871.8000;0.6260;0.5869;
872.1000;0.6276;0.5945;
872.4000;0.6300;0.5920;
872.7000;0.6292;0.5945;
873.0000;0.6284;0.5894;
873.3000;0.6284;0.5894;
873.6000;0.6219;0.5693;
873.9000;0.6284;0.5819;
874.2000;0.6276;0.5769;
874.5000;0.6292;0.5894;
874.8000;0.6300;0.5995;
875.1000;0.6276;0.5894;
875.4000;0.6268;0.5894;
875.7000;0.6300;0.5945;
876.0000;0.6284;0.5894;
876.3000;0.6292;0.5945;
876.6000;0.6309;0.5995;
876.9000;0.6276;0.5920;
877.2000;0.6276;0.5869;
877.5000;0.6284;0.5894;
877.8000;0.6268;0.5920;
878.1000;0.6300;0.5970;
878.4000;0.6309;0.6020;
878.7000;0.6252;0.5869;
879.0000;0.6292;0.6071;
879.3000;0.6268;0.5995;
879.6000;0.6284;0.5995;
879.9000;0.6292;0.5995;
880.2000;0.6292;0.5995;
880.5000;0.6284;0.5995;
880.8000;0.6276;0.5970;
881.1000;0.6309;0.6020;
881.4000;0.6300;0.6096;
881.7000;0.6268;0.6020;
882.0000;0.6276;0.5970;
882.3000;0.6260;0.5920;
882.6000;0.6276;0.6020;
882.9000;0.6268;0.6046;
883.2000;0.6292;0.6020;
883.5000;0.6292;0.5995;
883.8000;0.6292;0.6020;
884.1000;0.6276;0.5970;
884.4000;0.6284;0.6071;
884.7000;0.6276;0.5995;
885.0000;0.6284;0.5970;
885.3000;0.6268;0.5920;
885.6000;0.6292;0.5970;
885.9000;0.6284;0.5945;
886.2000;0.6276;0.5995;
886.5000;0.6276;0.5970;
886.8000;0.6268;0.5945;
887.1000;0.6276;0.5945;
887.4000;0.6252;0.5945;
887.7000;0.6300;0.6096;
888.0000;0.6276;0.6121;
888.3000;0.6284;0.6121;
888.6000;0.6276;0.6096;
888.9000;0.6276;0.6172;
889.2000;0.6268;0.6121;
889.5000;0.6268;0.6222;
889.8000;0.6292;0.6247;
890.1000;0.6276;0.6222;
890.4000;0.6276;0.6247;
890.7000;0.6268;0.6121;
891.0000;0.6276;0.6146;
891.3000;0.6268;0.6146;
891.6000;0.6284;0.6197;
891.9000;0.6333;0.6398;
892.2000;0.6268;0.6172;
892.5000;0.6252;0.6121;
892.8000;0.6268;0.6146;
893.1000;0.6260;0.6146;
893.4000;0.6260;0.6247;
893.7000;0.6252;0.6297;
894.0000;0.6268;0.6398;
894.3000;0.6276;0.6423;
894.6000;0.6260;0.6499;
894.9000;0.6317;0.6675;
895.2000;0.6268;0.6474;
895.5000;0.6243;0.6373;
895.8000;0.6252;0.6373;
896.1000;0.6252;0.6272;
896.4000;0.6235;0.6247;
896.7000;0.6211;0.6146;
897.0000;0.6284;0.6247;
897.3000;0.6276;0.6222;
897.6000;0.6219;0.6096;
897.9000;0.6268;0.6172;
898.2000;0.6260;0.6172;
898.5000;0.6268;0.6222;
898.8000;0.6260;0.6272;
899.1000;0.6276;0.6272;
899.4000;0.6268;0.6297;
899.7000;0.6252;0.6222;
900.0000;0.6284;0.6272;
900.3000;0.6276;0.6247;
900.6000;0.6268;0.6172;
900.9000;0.6260;0.6121;
901.2000;0.6243;0.6096;
901.5000;0.6243;0.6046;
901.8000;0.6260;0.6096;
902.1000;0.6276;0.6197;
902.4000;0.6252;0.6146;
902.7000;0.6260;0.6197;
903.0000;0.6268;0.6323;
903.3000;0.6276;0.6348;
903.6000;0.6268;0.6297;
903.9000;0.6292;0.6398;
904.2000;0.6235;0.6297;
904.5000;0.6309;0.6524;
904.8000;0.6252;0.6348;
905.1000;0.6243;0.6474;
905.4000;0.6243;0.6499;
905.7000;0.6268;0.6474;
906.0000;0.6235;0.6423;
906.3000;0.6243;0.6499;
906.6000;0.6243;0.6297;
906.9000;0.6252;0.6222;
907.2000;0.6252;0.6172;
907.5000;0.6243;0.6020;
907.8000;0.6235;0.5970;
908.1000;0.6260;0.6020;
908.4000;0.6252;0.6121;
908.7000;0.6243;0.6172;
909.0000;0.6252;0.6247;
909.3000;0.6268;0.6323;
909.6000;0.6252;0.6272;
909.9000;0.6260;0.6172;
910.2000;0.6243;0.6146;
910.5000;0.6219;0.6096;
910.8000;0.6276;0.6222;
911.1000;0.6243;0.6121;
911.4000;0.6309;0.6247;
911.7000;0.6235;0.6071;
912.0000;0.6260;0.6096;
912.3000;0.6260;0.6096;
912.6000;0.6252;0.6197;
912.9000;0.6260;0.6272;
913.2000;0.6260;0.6323;
913.5000;0.6243;0.6247;
913.8000;0.6252;0.6247;
914.1000;0.6252;0.6297;
914.4000;0.6268;0.6272;
914.7000;0.6268;0.6222;
915.0000;0.6292;0.6247;
915.3000;0.6268;0.6146;
915.6000;0.6276;0.6172;
915.9000;0.6243;0.6096;
916.2000;0.6243;0.6172;
916.5000;0.6219;0.6146;
916.8000;0.6235;0.6172;
917.1000;0.6243;0.6247;
917.4000;0.6252;0.6247;
917.7000;0.6260;0.6323;
918.0000;0.6260;0.6297;
918.3000;0.6252;0.6197;
918.6000;0.6260;0.6247;
918.9000;0.6227;0.6071;
919.2000;0.6268;0.6121;
919.5000;0.6260;0.6096;
919.8000;0.6252;0.6020;
920.1000;0.6243;0.5995;
920.4000;0.6243;0.6096;
920.7000;0.6276;0.6146;
921.0000;0.6243;0.6146;
921.3000;0.6227;0.6020;
921.6000;0.6219;0.5894;
921.9000;0.6243;0.6046;
922.2000;0.6252;0.6096;
922.5000;0.6227;0.5970;
922.8000;0.6227;0.6020;
923.1000;0.6227;0.6046;
923.4000;0.6227;0.6096;
923.7000;0.6235;0.6121;
924.0000;0.6252;0.6121;
924.3000;0.6252;0.6172;
924.6000;0.6235;0.6172;
924.9000;0.6243;0.6247;
925.2000;0.6243;0.6272;
925.5000;0.6235;0.6247;
925.8000;0.6252;0.6197;
926.1000;0.6235;0.6172;
926.4000;0.6211;0.6172;
926.7000;0.6235;0.6272;
927.0000;0.6235;0.6272;
927.3000;0.6219;0.6197;
927.6000;0.6227;0.6197;
927.9000;0.6211;0.6121;
928.2000;0.6178;0.6020;
928.5000;0.6195;0.6071;
928.8000;0.6211;0.6172;
929.1000;0.6227;0.6121;
929.4000;0.6235;0.6121;
929.7000;0.6219;0.6121;
930.0000;0.6227;0.6046;
930.3000;0.6219;0.6071;
930.6000;0.6211;0.6046;
930.9000;0.6235;0.6146;
931.2000;0.6227;0.6121;
931.5000;0.6219;0.6121;
931.8000;0.6227;0.6096;
932.1000;0.6227;0.6096;
932.4000;0.6219;0.6096;
932.7000;0.6252;0.6222;
933.0000;0.6219;0.6121;
933.3000;0.6260;0.6121;
933.6000;0.6219;0.6046;
933.9000;0.6227;0.6046;
934.2000;0.6235;0.6096;
934.5000;0.6235;0.6121;
934.8000;0.6195;0.6121;
935.1000;0.6235;0.6247;
935.4000;0.6227;0.6146;
935.7000;0.6211;0.6046;
936.0000;0.6235;0.6121;
936.3000;0.6203;0.5995;
936.6000;0.6243;0.6096;
936.9000;0.6219;0.5945;
937.2000;0.6227;0.5920;
937.5000;0.6219;0.5894;
937.8000;0.6219;0.5844;
938.1000;0.6211;0.5769;
938.4000;0.6211;0.5844;
938.7000;0.6219;0.5894;
939.0000;0.6219;0.5869;
939.3000;0.6211;0.5844;
939.6000;0.6219;0.5894;
939.9000;0.6211;0.5844;
940.2000;0.6227;0.5894;
940.5000;0.6219;0.5920;
940.8000;0.6211;0.5920;
941.1000;0.6243;0.6096;
941.4000;0.6219;0.6046;
941.7000;0.6211;0.6046;
942.0000;0.6219;0.5995;
942.3000;0.6211;0.5995;
942.6000;0.6227;0.6096;
942.9000;0.6227;0.6121;
943.2000;0.6203;0.6096;
943.5000;0.6219;0.6197;
943.8000;0.6211;0.6222;
944.1000;0.6227;0.6272;
944.4000;0.6235;0.6272;
944.7000;0.6309;0.6474;
945.0000;0.6227;0.6272;
945.3000;0.6219;0.6272;
945.6000;0.6227;0.6146;
945.9000;0.6195;0.6071;
946.2000;0.6260;0.6172;
946.5000;0.6227;0.6096;
946.8000;0.6219;0.6020;
947.1000;0.6219;0.6096;
947.4000;0.6235;0.6046;
947.7000;0.6235;0.6096;
948.0000;0.6219;0.6146;
948.3000;0.6203;0.6096;
948.6000;0.6195;0.6121;
948.9000;0.6178;0.5995;
949.2000;0.6211;0.5970;
949.5000;0.6227;0.6020;
949.8000;0.6227;0.6071;
950.1000;0.6227;0.6046;
950.4000;0.6219;0.6071;
950.7000;0.6219;0.6020;
951.0000;0.6203;0.5920;
951.3000;0.6203;0.5794;
951.6000;0.6219;0.5844;
951.9000;0.6195;0.5769;
952.2000;0.6211;0.5794;
952.5000;0.6211;0.5869;
952.8000;0.6195;0.5869;
953.1000;0.6219;0.5945;
953.4000;0.6211;0.5970;
953.7000;0.6178;0.5945;
954.0000;0.6195;0.5970;
954.3000;0.6195;0.6046;
954.6000;0.6186;0.6020;
954.9000;0.6203;0.6071;
955.2000;0.6219;0.6020;
955.5000;0.6211;0.5945;
955.8000;0.6227;0.6096;
956.1000;0.6211;0.6046;
956.4000;0.6227;0.6046;
956.7000;0.6235;0.6096;
957.0000;0.6211;0.6121;
957.3000;0.6170;0.6020;
957.6000;0.6219;0.6172;
957.9000;0.6227;0.6222;
958.2000;0.6203;0.6096;
958.5000;0.6186;0.6096;
958.8000;0.6178;0.5995;
959.1000;0.6219;0.6096;
959.4000;0.6243;0.6247;
959.7000;0.6219;0.6172;
960.0000;0.6203;0.6146;
960.3000;0.6211;0.6146;
960.6000;0.6203;0.6172;
960.9000;0.6219;0.6197;
961.2000;0.6211;0.6172;
961.5000;0.6219;0.6197;
961.8000;0.6219;0.6222;
962.1000;0.6211;0.6146;
962.4000;0.6203;0.6071;
962.7000;0.6203;0.6096;
963.0000;0.6211;0.6096;
963.3000;0.6203;0.6121;
963.6000;0.6195;0.6071;
963.9000;0.6195;0.6121;
964.2000;0.6203;0.6197;
964.5000;0.6219;0.6222;
964.8000;0.6195;0.6247;
965.1000;0.6219;0.6272;
965.4000;0.6211;0.6247;
965.7000;0.6211;0.6297;
966.0000;0.6260;0.6449;
966.3000;0.6211;0.6373;
966.6000;0.6211;0.6272;
966.9000;0.6211;0.6297;
967.2000;0.6186;0.6197;
967.5000;0.6211;0.6222;
967.8000;0.6260;0.6348;
968.1000;0.6186;0.6197;
968.4000;0.6195;0.6146;
968.7000;0.6186;0.6096;
969.0000;0.6211;0.6247;
969.3000;0.6203;0.6297;
969.6000;0.6211;0.6348;
969.9000;0.6203;0.6323;
970.2000;0.6195;0.6373;
970.5000;0.6227;0.6449;
970.8000;0.6195;0.6499;
971.1000;0.6195;0.6449;
971.4000;0.6195;0.6398;
971.7000;0.6219;0.6373;
972.0000;0.6203;0.6398;
972.3000;0.6219;0.6423;
972.6000;0.6211;0.6423;
972.9000;0.6203;0.6373;
973.2000;0.6195;0.6373;
973.5000;0.6203;0.6323;
973.8000;0.6195;0.6197;
974.1000;0.6203;0.6222;
974.4000;0.6211;0.6247;
974.7000;0.6203;0.6272;
975.0000;0.6203;0.6297;
975.3000;0.6203;0.6398;
975.6000;0.6178;0.6373;
975.9000;0.6178;0.6323;
976.2000;0.6195;0.6323;
976.5000;0.6129;0.6146;
976.8000;0.6178;0.6222;
977.1000;0.6227;0.6323;
977.4000;0.6203;0.6222;
977.7000;0.6186;0.6121;
978.0000;0.6211;0.6197;
978.3000;0.6219;0.6348;
978.6000;0.6186;0.6247;
978.9000;0.6203;0.6172;
979.2000;0.6186;0.6197;
979.5000;0.6195;0.6172;
979.8000;0.6195;0.6121;
980.1000;0.6195;0.6121;
980.4000;0.6203;0.6121;
980.7000;0.6203;0.6096;
981.0000;0.6195;0.6121;
981.3000;0.6203;0.6172;
981.6000;0.6154;0.6071;
981.9000;0.6186;0.6197;
982.2000;0.6252;0.6348;
982.5000;0.6203;0.6121;
982.8000;0.6203;0.6020;
983.1000;0.6195;0.6046;
983.4000;0.6195;0.6071;
983.7000;0.6219;0.6197;
984.0000;0.6121;0.6046;
984.3000;0.6203;0.6247;
984.6000;0.6211;0.6222;
984.9000;0.6186;0.6247;
985.2000;0.6195;0.6222;
985.5000;0.6186;0.6222;
985.8000;0.6170;0.6172;
986.1000;0.6195;0.6222;
986.4000;0.6178;0.6071;
986.7000;0.6195;0.6071;
987.0000;0.6195;0.6046;
987.3000;0.6178;0.6071;
987.6000;0.6211;0.6096;
987.9000;0.6195;0.5995;
988.2000;0.6195;0.6046;
988.5000;0.6162;0.5920;
988.8000;0.6195;0.5995;
989.1000;0.6138;0.5869;
989.4000;0.6186;0.5970;
989.7000;0.6203;0.6071;
990.0000;0.6186;0.6046;
990.3000;0.6186;0.5995;
990.6000;0.6203;0.6121;
990.9000;0.6195;0.6096;
991.2000;0.6178;0.6071;
991.5000;0.6186;0.6020;
991.8000;0.6186;0.6046;
992.1000;0.6170;0.5970;
992.4000;0.6186;0.6020;
992.7000;0.6195;0.5920;
993.0000;0.6186;0.5920;
993.3000;0.6195;0.5945;
993.6000;0.6186;0.5995;
993.9000;0.6178;0.5995;
994.2000;0.6186;0.6071;
994.5000;0.6203;0.6071;
994.8000;0.6186;0.5995;
995.1000;0.6186;0.5995;
995.4000;0.6146;0.5894;
995.7000;0.6195;0.6046;
996.0000;0.6195;0.6046;
996.3000;0.6219;0.6146;
996.6000;0.6186;0.6121;
996.9000;0.6195;0.6071;
997.2000;0.6162;0.5970;
997.5000;0.6195;0.5970;
997.8000;0.6178;0.5995;
998.1000;0.6154;0.5995;
998.4000;0.6170;0.6020;
998.7000;0.6170;0.6071;
999.0000;0.6178;0.6146;
999.3000;0.6178;0.6172;
999.6000;0.6178;0.6172;
999.9000;0.6170;0.6222;
1000.2000;0.6170;0.6096;
1000.5000;0.6170;0.6121;
1000.8000;0.6154;0.6096;
1001.1000;0.6186;0.6121;
1001.4000;0.6170;0.6071;
1001.7000;0.6170;0.6096;
1002.0000;0.6170;0.6096;
1002.3000;0.6178;0.6197;
1002.6000;0.6162;0.6172;
1002.9000;0.6178;0.6146;
1003.2000;0.6178;0.6272;
1003.5000;0.6178;0.6272;
1003.8000;0.6195;0.6272;
1004.1000;0.6178;0.6222;
1004.4000;0.6170;0.6247;
1004.7000;0.6186;0.6247;
1005.0000;0.6170;0.6247;
1005.3000;0.6178;0.6197;
1005.6000;0.6170;0.6096;
1005.9000;0.6178;0.6197;
1006.2000;0.6178;0.6222;
1006.5000;0.6170;0.6197;
1006.8000;0.6178;0.6222;
1007.1000;0.6178;0.6272;
1007.4000;0.6186;0.6172;
1007.7000;0.6195;0.6272;
1008.0000;0.6186;0.6222;
1008.3000;0.6178;0.6172;
1008.6000;0.6195;0.6197;
1008.9000;0.6186;0.6146;
1009.2000;0.6186;0.6096;
1009.5000;0.6186;0.6146;
1009.8000;0.6162;0.6146;
1010.1000;0.6178;0.6172;
1010.4000;0.6162;0.6046;
1010.7000;0.6186;0.6071;
1011.0000;0.6186;0.6096;
1011.3000;0.6195;0.6096;
1011.6000;0.6186;0.6096;
1011.9000;0.6178;0.6046;
1012.2000;0.6186;0.6096;
1012.5000;0.6203;0.6121;
1012.8000;0.6170;0.6046;
1013.1000;0.6178;0.6020;
1013.4000;0.6178;0.6046;
1013.7000;0.6178;0.6046;
1014.0000;0.6186;0.6096;
1014.3000;0.6178;0.6146;
1014.6000;0.6170;0.6121;
1014.9000;0.6154;0.6096;
1015.2000;0.6162;0.6071;
1015.5000;0.6170;0.6096;
1015.8000;0.6178;0.6046;
1016.1000;0.6178;0.6096;
1016.4000;0.6186;0.6046;
1016.7000;0.6186;0.5995;
1017.0000;0.6178;0.5920;
1017.3000;0.6186;0.5945;
1017.6000;0.6186;0.5995;
1017.9000;0.6186;0.6146;
1018.2000;0.6170;0.6071;
1018.5000;0.6178;0.6096;
1018.8000;0.6170;0.6146;
1019.1000;0.6154;0.6197;
1019.4000;0.6178;0.6121;
1019.7000;0.6170;0.6096;
1020.0000;0.6186;0.6096;
1020.3000;0.6186;0.6197;
1020.6000;0.6186;0.6222;
1020.9000;0.6178;0.6247;
1021.2000;0.6186;0.6297;
1021.5000;0.6178;0.6323;
1021.8000;0.6186;0.6297;
1022.1000;0.6195;0.6297;
1022.4000;0.6154;0.6323;
1022.7000;0.6178;0.6348;
1023.0000;0.6170;0.6297;
1023.3000;0.6162;0.6172;
1023.6000;0.6170;0.6146;
1023.9000;0.6162;0.6071;
1024.2000;0.6170;0.5970;
1024.5000;0.6186;0.6071;
1024.8000;0.6170;0.6096;
1025.1000;0.6178;0.6197;
1025.4000;0.6170;0.6172;
1025.7000;0.6162;0.6096;
1026.0000;0.6162;0.6071;
1026.3000;0.6178;0.6096;
1026.6000;0.6154;0.6172;
1026.9000;0.6170;0.6197;
1027.2000;0.6162;0.6121;
1027.5000;0.6162;0.6197;
1027.8000;0.6162;0.6222;
1028.1000;0.6178;0.6121;
1028.4000;0.6162;0.6046;
1028.7000;0.6178;0.5995;
1029.0000;0.6195;0.6020;
1029.3000;0.6178;0.6020;
1029.6000;0.6178;0.6020;
1029.9000;0.6170;0.5894;
1030.2000;0.6162;0.5894;
1030.5000;0.6162;0.5995;
1030.8000;0.6162;0.6020;
1031.1000;0.6154;0.6071;
1031.4000;0.6162;0.6096;
1031.7000;0.6170;0.6146;
1032.0000;0.6170;0.6197;
1032.3000;0.6146;0.6222;
1032.6000;0.6162;0.6247;
1032.9000;0.6178;0.6272;
1033.2000;0.6162;0.6222;
1033.5000;0.6162;0.6197;
1033.8000;0.6162;0.6172;
1034.1000;0.6170;0.6146;
1034.4000;0.6170;0.6172;
1034.7000;0.6170;0.6146;
1035.0000;0.6170;0.6172;
1035.3000;0.6162;0.6121;
1035.6000;0.6154;0.6121;
1035.9000;0.6162;0.6071;
1036.2000;0.6154;0.6096;
1036.5000;0.6170;0.6146;
1036.8000;0.6170;0.6272;
1037.1000;0.6154;0.6297;
1037.4000;0.6178;0.6348;
1037.7000;0.6162;0.6172;
1038.0000;0.6121;0.6172;
1038.3000;0.6162;0.6146;
1038.6000;0.6154;0.6071;
1038.9000;0.6154;0.6121;
1039.2000;0.6154;0.6172;
1039.5000;0.6146;0.6172;
1039.8000;0.6162;0.6197;
1040.1000;0.6162;0.6172;
1040.4000;0.6154;0.6172;
1040.7000;0.6129;0.6222;
1041.0000;0.6154;0.6348;
1041.3000;0.6146;0.6373;
1041.6000;0.6154;0.6423;
1041.9000;0.6162;0.6449;
1042.2000;0.6162;0.6499;
1042.5000;0.6154;0.6398;
1042.8000;0.6154;0.6373;
1043.1000;0.6162;0.6423;
1043.4000;0.6146;0.6323;
1043.7000;0.6146;0.6323;
1044.0000;0.6138;0.6247;
1044.3000;0.6154;0.6297;
1044.6000;0.6162;0.6272;
1044.9000;0.6162;0.6247;
1045.2000;0.6146;0.6297;
1045.5000;0.6154;0.6247;
1045.8000;0.6170;0.6272;
1046.1000;0.6162;0.6247;
1046.4000;0.6154;0.6247;
1046.7000;0.6154;0.6272;
1047.0000;0.6154;0.6297;
1047.3000;0.6146;0.6297;
1047.6000;0.6154;0.6272;
1047.9000;0.6154;0.6297;
1048.2000;0.6170;0.6373;
1048.5000;0.6154;0.6323;
1048.8000;0.6138;0.6323;
1049.1000;0.6162;0.6348;
1049.4000;0.6186;0.6323;
1049.7000;0.6154;0.6172;
1050.0000;0.6154;0.6096;
1050.3000;0.6154;0.6121;
1050.6000;0.6170;0.6121;
1050.9000;0.6154;0.6096;
1051.2000;0.6146;0.6121;
1051.5000;0.6162;0.6197;
1051.8000;0.6154;0.6197;
1052.1000;0.6170;0.6272;
1052.4000;0.6162;0.6247;
1052.7000;0.6162;0.6222;
1053.0000;0.6162;0.6272;
1053.3000;0.6162;0.6323;
1053.6000;0.6186;0.6373;
1053.9000;0.6162;0.6247;
1054.2000;0.6154;0.6172;
1054.5000;0.6162;0.6222;
1054.8000;0.6170;0.6222;
1055.1000;0.6162;0.6172;
1055.4000;0.6146;0.6046;
1055.7000;0.6154;0.6121;
1056.0000;0.6170;0.6146;
1056.3000;0.6170;0.6247;
1056.6000;0.6154;0.6146;
1056.9000;0.6170;0.6222;
1057.2000;0.6162;0.6272;
1057.5000;0.6162;0.6297;
1057.8000;0.6154;0.6348;
1058.1000;0.6154;0.6348;
1058.4000;0.6162;0.6373;
1058.7000;0.6138;0.6247;
1059.0000;0.6186;0.6297;
1059.3000;0.6146;0.6096;
1059.6000;0.6146;0.6197;
1059.9000;0.6154;0.6197;
1060.2000;0.6146;0.6197;
1060.5000;0.6138;0.6096;
1060.8000;0.6138;0.6020;
1061.1000;0.6154;0.6020;
1061.4000;0.6162;0.5995;
1061.7000;0.6186;0.6096;
1062.0000;0.6154;0.6121;
1062.3000;0.6162;0.6146;
1062.6000;0.6211;0.6323;
1062.9000;0.6178;0.6121;
1063.2000;0.6154;0.6121;
1063.5000;0.6186;0.6197;
1063.8000;0.6170;0.6272;
1064.1000;0.6146;0.6222;
1064.4000;0.6138;0.6323;
1064.7000;0.6154;0.6373;
1065.0000;0.6154;0.6348;
1065.3000;0.6129;0.6323;
1065.6000;0.6162;0.6323;
1065.9000;0.6146;0.6297;
1066.2000;0.6162;0.6373;
1066.5000;0.6162;0.6348;
1066.8000;0.6154;0.6348;
1067.1000;0.6154;0.6423;
1067.4000;0.6186;0.6499;
1067.7000;0.6178;0.6499;
1068.0000;0.6138;0.6423;
1068.3000;0.6105;0.6247;
1068.6000;0.6154;0.6373;
1068.9000;0.6162;0.6398;
1069.2000;0.6162;0.6423;
1069.5000;0.6146;0.6423;
1069.8000;0.6154;0.6449;
1070.1000;0.6154;0.6474;
1070.4000;0.6129;0.6474;
1070.7000;0.6138;0.6474;
1071.0000;0.6146;0.6449;
1071.3000;0.6138;0.6474;
1071.6000;0.6138;0.6423;
1071.9000;0.6154;0.6449;
1072.2000;0.6154;0.6423;
1072.5000;0.6154;0.6398;
1072.8000;0.6162;0.6398;
1073.1000;0.6138;0.6297;
1073.4000;0.6138;0.6247;
1073.7000;0.6162;0.6222;
1074.0000;0.6146;0.6222;
1074.3000;0.6154;0.6197;
1074.6000;0.6146;0.6172;
1074.9000;0.6154;0.6172;
1075.2000;0.6154;0.6247;
1075.5000;0.6113;0.6172;
1075.8000;0.6162;0.6197;
1076.1000;0.6129;0.6146;
1076.4000;0.6129;0.6146;
1076.7000;0.6138;0.6247;
1077.0000;0.6154;0.6373;
1077.3000;0.6154;0.6398;
1077.6000;0.6154;0.6449;
1077.9000;0.6138;0.6398;
1078.2000;0.6154;0.6373;
1078.5000;0.6146;0.6373;
1078.8000;0.6154;0.6297;
1079.1000;0.6162;0.6247;
1079.4000;0.6138;0.6222;
1079.7000;0.6105;0.6222;
1080.0000;0.6154;0.6373;
1080.3000;0.6146;0.6348;
1080.6000;0.6146;0.6272;
1080.9000;0.6146;0.6197;
1081.2000;0.6146;0.6297;
1081.5000;0.6138;0.6297;
1081.8000;0.6146;0.6348;
1082.1000;0.6138;0.6247;
1082.4000;0.6138;0.6272;
1082.7000;0.6129;0.6247;
1083.0000;0.6154;0.6247;
1083.3000;0.6146;0.6197;
1083.6000;0.6154;0.6172;
1083.9000;0.6154;0.6146;
1084.2000;0.6138;0.6121;
1084.5000;0.6146;0.6071;
1084.8000;0.6138;0.6121;
1085.1000;0.6146;0.6247;
1085.4000;0.6154;0.6272;
1085.7000;0.6146;0.6172;
1086.0000;0.6146;0.6197;
1086.3000;0.6154;0.6247;
1086.6000;0.6146;0.6272;
1086.9000;0.6154;0.6247;
1087.2000;0.6154;0.6222;
1087.5000;0.6154;0.6272;
1087.8000;0.6162;0.6348;
1088.1000;0.6129;0.6272;
1088.4000;0.6154;0.6323;
1088.7000;0.6129;0.6423;
1089.0000;0.6146;0.6423;
1089.3000;0.6154;0.6398;
1089.6000;0.6129;0.6297;
1089.9000;0.6146;0.6272;
1090.2000;0.6129;0.6222;
1090.5000;0.6138;0.6172;
1090.8000;0.6146;0.6297;
1091.1000;0.6138;0.6323;
1091.4000;0.6195;0.6348;
1091.7000;0.6154;0.6247;
1092.0000;0.6146;0.6222;
1092.3000;0.6138;0.6197;
1092.6000;0.6113;0.6172;
1092.9000;0.6154;0.6272;
1093.2000;0.6129;0.6297;
1093.5000;0.6146;0.6398;
1093.8000;0.6138;0.6323;
1094.1000;0.6113;0.6272;
1094.4000;0.6129;0.6348;
1094.7000;0.6146;0.6297;
1095.0000;0.6138;0.6272;
1095.3000;0.6129;0.6272;
1095.6000;0.6129;0.6272;
1095.9000;0.6138;0.6272;
1096.2000;0.6146;0.6323;
1096.5000;0.6154;0.6272;
1096.8000;0.6129;0.6272;
1097.1000;0.6154;0.6272;
1097.4000;0.6121;0.6272;
1097.7000;0.6129;0.6297;
1098.0000;0.6138;0.6297;
1098.3000;0.6154;0.6197;
1098.6000;0.6154;0.6197;
1098.9000;0.6138;0.6197;
1099.2000;0.6146;0.6197;
1099.5000;0.6138;0.6172;
1099.8000;0.6154;0.6222;
1100.1000;0.6146;0.6272;
1100.4000;0.6154;0.6247;
1100.7000;0.6154;0.6121;
1101.0000;0.6138;0.6146;
1101.3000;0.6129;0.6197;
1101.6000;0.6129;0.6297;
1101.9000;0.6146;0.6272;
1102.2000;0.6146;0.6272;
1102.5000;0.6129;0.6197;
1102.8000;0.6129;0.6121;
1103.1000;0.6129;0.6146;
1103.4000;0.6146;0.6222;
1103.7000;0.6129;0.6272;
1104.0000;0.6129;0.6272;
1104.3000;0.6146;0.6373;
1104.6000;0.6203;0.6449;
1104.9000;0.6129;0.6323;
1105.2000;0.6162;0.6499;
1105.5000;0.6146;0.6499;
1105.8000;0.6154;0.6524;
1106.1000;0.6154;0.6423;
1106.4000;0.6170;0.6449;
1106.7000;0.6146;0.6272;
1107.0000;0.6089;0.6121;
1107.3000;0.6146;0.6348;
1107.6000;0.6121;0.6297;
1107.9000;0.6138;0.6398;
1108.2000;0.6121;0.6323;
1108.5000;0.6138;0.6373;
1108.8000;0.6097;0.6121;
1109.1000;0.6129;0.6247;
1109.4000;0.6129;0.6272;
1109.7000;0.6129;0.6222;
1110.0000;0.6146;0.6197;
1110.3000;0.6056;0.5995;
1110.6000;0.6129;0.6121;
1110.9000;0.6138;0.6146;
1111.2000;0.6089;0.6071;
1111.5000;0.6154;0.6297;
1111.8000;0.6113;0.6197;
1112.1000;0.6129;0.6297;
1112.4000;0.6129;0.6348;
1112.7000;0.6129;0.6297;
1113.0000;0.6129;0.6197;
1113.3000;0.6146;0.6121;
1113.6000;0.6121;0.6096;
1113.9000;0.6089;0.6020;
1114.2000;0.6121;0.6071;
1114.5000;0.6129;0.6096;
1114.8000;0.6154;0.6146;
1115.1000;0.6138;0.6172;
1115.4000;0.6113;0.6247;
1115.7000;0.6129;0.6247;
1116.0000;0.6121;0.6197;
1116.3000;0.6081;0.6071;
1116.6000;0.6121;0.6071;
1116.9000;0.6121;0.6020;
1117.2000;0.6146;0.6046;
1117.5000;0.6138;0.6046;
1117.8000;0.6138;0.6071;
1118.1000;0.6129;0.6146;
1118.4000;0.6129;0.6247;
1118.7000;0.6048;0.5995;
1119.0000;0.6138;0.6172;
1119.3000;0.6129;0.6172;
1119.6000;0.6105;0.6046;
1119.9000;0.6138;0.6046;
1120.2000;0.6138;0.6096;
1120.5000;0.6211;0.6272;
1120.8000;0.6162;0.6096;
1121.1000;0.6121;0.5945;
1121.4000;0.6113;0.6020;
1121.7000;0.6146;0.6121;
1122.0000;0.6129;0.6096;
1122.3000;0.6146;0.6146;
1122.6000;0.6138;0.6197;
1122.9000;0.6138;0.6096;
1123.2000;0.6129;0.6071;
1123.5000;0.6162;0.6096;
1123.8000;0.6097;0.5945;
1124.1000;0.6138;0.6071;
1124.4000;0.6146;0.6020;
1124.7000;0.6138;0.6046;
1125.0000;0.6154;0.5995;
1125.3000;0.6138;0.5995;
1125.6000;0.6121;0.5970;
1125.9000;0.6129;0.5894;
1126.2000;0.6146;0.6046;
1126.5000;0.6138;0.6046;
1126.8000;0.6162;0.6096;
1127.1000;0.6129;0.6046;
1127.4000;0.6146;0.6121;
1127.7000;0.6129;0.6071;
1128.0000;0.6121;0.6096;
1128.3000;0.6138;0.6096;
1128.6000;0.6129;0.6071;
1128.9000;0.6129;0.5970;
1129.2000;0.6154;0.5970;
1129.5000;0.6129;0.5920;
1129.8000;0.6105;0.5894;
1130.1000;0.6138;0.5945;
1130.4000;0.6105;0.5844;
1130.7000;0.6129;0.5819;
1131.0000;0.6064;0.5668;
1131.3000;0.6105;0.5869;
1131.6000;0.6129;0.5945;
1131.9000;0.6121;0.5894;
1132.2000;0.6097;0.5869;
1132.5000;0.6121;0.5995;
1132.8000;0.6105;0.5970;
1133.1000;0.6121;0.5945;
1133.4000;0.6056;0.5920;
1133.7000;0.6121;0.6071;
1134.0000;0.6138;0.6146;
1134.3000;0.6129;0.6096;
1134.6000;0.6121;0.6121;
1134.9000;0.6121;0.6172;
1135.2000;0.6138;0.6172;
1135.5000;0.6113;0.6146;
1135.8000;0.6113;0.6071;
1136.1000;0.6121;0.6121;
1136.4000;0.6089;0.6121;
1136.7000;0.6121;0.6172;
1137.0000;0.6113;0.6172;
1137.3000;0.6129;0.6247;
1137.6000;0.6121;0.6222;
1137.9000;0.6089;0.6197;
1138.2000;0.6097;0.6297;
1138.5000;0.6105;0.6297;
1138.8000;0.6129;0.6323;
1139.1000;0.6121;0.6272;
1139.4000;0.6097;0.6172;
1139.7000;0.6113;0.6172;
1140.0000;0.6121;0.6121;
1140.3000;0.6129;0.6172;
1140.6000;0.6129;0.6121;
1140.9000;0.6154;0.6172;
1141.2000;0.6121;0.6096;
1141.5000;0.6121;0.6096;
1141.8000;0.6113;0.6121;
1142.1000;0.6121;0.6172;
1142.4000;0.6113;0.6197;
1142.7000;0.6121;0.6272;
1143.0000;0.6121;0.6272;
1143.3000;0.6113;0.6146;
1143.6000;0.6129;0.6096;
1143.9000;0.6105;0.6096;
1144.2000;0.6113;0.6121;
1144.5000;0.6113;0.6121;
1144.8000;0.6121;0.6046;
1145.1000;0.6146;0.6096;
1145.4000;0.6146;0.6146;
1145.7000;0.6121;0.6121;
1146.0000;0.6138;0.6297;
1146.3000;0.6138;0.6398;
1146.6000;0.6129;0.6423;
1146.9000;0.6129;0.6348;
1147.2000;0.6129;0.6373;
1147.5000;0.6121;0.6323;
1147.8000;0.6129;0.6272;
1148.1000;0.6121;0.6272;
1148.4000;0.6129;0.6247;
1148.7000;0.6129;0.6272;
1149.0000;0.6146;0.6272;
1149.3000;0.6121;0.6172;
1149.6000;0.6121;0.6272;
1149.9000;0.6113;0.6222;
1150.2000;0.6129;0.6197;
1150.5000;0.6113;0.6172;
1150.8000;0.6121;0.6121;
1151.1000;0.6121;0.6121;
1151.4000;0.6129;0.6146;
1151.7000;0.6121;0.6071;
1152.0000;0.6129;0.6146;
1152.3000;0.6113;0.6146;
1152.6000;0.6113;0.6222;
1152.9000;0.6121;0.6297;
1153.2000;0.6146;0.6323;
1153.5000;0.6121;0.6247;
1153.8000;0.6089;0.6172;
1154.1000;0.6121;0.6348;
1154.4000;0.6113;0.6272;
1154.7000;0.6113;0.6272;
1155.0000;0.6105;0.6172;
1155.3000;0.6129;0.6172;
1155.6000;0.6121;0.6197;
1155.9000;0.6113;0.6222;
1156.2000;0.6113;0.6323;
1156.5000;0.6105;0.6297;
1156.8000;0.6129;0.6348;
1157.1000;0.6113;0.6247;
1157.4000;0.6113;0.6197;
1157.7000;0.6121;0.6272;
1158.0000;0.6121;0.6297;
1158.3000;0.6072;0.6323;
1158.6000;0.6129;0.6373;
1158.9000;0.6113;0.6323;
1159.2000;0.6121;0.6247;
1159.5000;0.6113;0.6197;
1159.8000;0.6081;0.6096;
1160.1000;0.6113;0.6222;
1160.4000;0.6129;0.6247;
1160.7000;0.6138;0.6272;
1161.0000;0.6121;0.6272;
1161.3000;0.6121;0.6297;
1161.6000;0.6121;0.6323;
1161.9000;0.6121;0.6297;
1162.2000;0.6121;0.6323;
1162.5000;0.6105;0.6323;
1162.8000;0.6113;0.6247;
1163.1000;0.6113;0.6297;
1163.4000;0.6121;0.6297;
1163.7000;0.6129;0.6172;
1164.0000;0.6121;0.6172;
1164.3000;0.6129;0.6197;
1164.6000;0.6129;0.6172;
1164.9000;0.6097;0.6071;
1165.2000;0.6097;0.6222;
1165.5000;0.6121;0.6247;
1165.8000;0.6113;0.6373;
1166.1000;0.6113;0.6423;
1166.4000;0.6121;0.6247;
1166.7000;0.6113;0.6222;
1167.0000;0.6138;0.6272;
1167.3000;0.6138;0.6272;
1167.6000;0.6105;0.6197;
1167.9000;0.6121;0.6222;
1168.2000;0.6113;0.6197;
1168.5000;0.6129;0.6197;
1168.8000;0.6113;0.6096;
1169.1000;0.6113;0.6096;
1169.4000;0.6113;0.6046;
1169.7000;0.6129;0.6046;
1170.0000;0.6121;0.6071;
1170.3000;0.6121;0.6071;
1170.6000;0.6162;0.5995;
1170.9000;0.6121;0.5920;
1171.2000;0.6129;0.5995;
1171.5000;0.6105;0.5970;
1171.8000;0.6121;0.5995;
1172.1000;0.6113;0.5970;
1172.4000;0.6105;0.5970;
1172.7000;0.6129;0.5995;
1173.0000;0.6138;0.6046;
1173.3000;0.6105;0.5894;
1173.6000;0.6105;0.5945;
1173.9000;0.6121;0.5995;
1174.2000;0.6089;0.5920;
1174.5000;0.6097;0.5970;
1174.8000;0.6195;0.6197;
1175.1000;0.6089;0.5894;
1175.4000;0.6097;0.6046;
1175.7000;0.6097;0.5995;
1176.0000;0.6121;0.6020;
1176.3000;0.6105;0.6121;
1176.6000;0.6113;0.6096;
1176.9000;0.6105;0.6046;
1177.2000;0.6113;0.6046;
1177.5000;0.6105;0.6121;
1177.8000;0.6121;0.6146;
1178.1000;0.6105;0.5995;
1178.4000;0.6113;0.6071;
1178.7000;0.6089;0.5995;
1179.0000;0.6113;0.6071;
1179.3000;0.6081;0.6020;
1179.6000;0.6129;0.6146;
1179.9000;0.6121;0.6146;
1180.2000;0.6138;0.6146;
1180.5000;0.6105;0.6046;
1180.8000;0.6113;0.6020;
1181.1000;0.6113;0.6020;
1181.4000;0.6121;0.6020;
1181.7000;0.6121;0.5920;
1182.0000;0.6121;0.5920;
1182.3000;0.6146;0.5995;
1182.6000;0.6113;0.6071;
1182.9000;0.6113;0.6146;
1183.2000;0.6081;0.6172;
1183.5000;0.6113;0.6222;
1183.8000;0.6121;0.6197;
1184.1000;0.6105;0.6172;
1184.4000;0.6186;0.6373;
1184.7000;0.6105;0.6172;
1185.0000;0.6146;0.6297;
1185.3000;0.6097;0.6121;
1185.6000;0.6113;0.6096;
1185.9000;0.6113;0.6071;
1186.2000;0.6129;0.6121;
1186.5000;0.6121;0.6121;
1186.8000;0.6203;0.6373;
1187.1000;0.6105;0.6172;
1187.4000;0.6129;0.6247;
1187.7000;0.6129;0.6247;
1188.0000;0.6138;0.6197;
1188.3000;0.6113;0.6222;
1188.6000;0.6121;0.6197;
1188.9000;0.6113;0.6272;
1189.2000;0.6089;0.6323;
1189.5000;0.6040;0.6247;
1189.8000;0.6138;0.6474;
1190.1000;0.6162;0.6449;
1190.4000;0.6097;0.6323;
1190.7000;0.6113;0.6373;
1191.0000;0.6129;0.6449;
1191.3000;0.6121;0.6524;
1191.6000;0.6113;0.6474;
1191.9000;0.6113;0.6449;
1192.2000;0.6097;0.6348;
1192.5000;0.6162;0.6423;
1192.8000;0.6113;0.6373;
1193.1000;0.6097;0.6272;
1193.4000;0.6081;0.6272;
1193.7000;0.6105;0.6297;
1194.0000;0.6121;0.6348;
1194.3000;0.6097;0.6423;
1194.6000;0.6113;0.6474;
1194.9000;0.6121;0.6499;
1195.2000;0.6113;0.6423;
1195.5000;0.6121;0.6373;
1195.8000;0.6113;0.6373;
1196.1000;0.6121;0.6348;
1196.4000;0.6138;0.6373;
1196.7000;0.6129;0.6373;
1197.0000;0.6105;0.6323;
1197.3000;0.6113;0.6348;
1197.6000;0.6105;0.6297;
1197.9000;0.6129;0.6323;
1198.2000;0.6121;0.6373;
1198.5000;0.6113;0.6449;
1198.8000;0.6040;0.6323;
1199.1000;0.6113;0.6423;
1199.4000;0.6097;0.6373;
1199.7000;0.6113;0.6373;
1200.0000;0.6113;0.6423;
1200.3000;0.6097;0.6323;
1200.6000;0.6113;0.6423;
1200.9000;0.6097;0.6373;
1201.2000;0.6121;0.6423;
1201.5000;0.6121;0.6449;
1201.8000;0.6113;0.6373;
1202.1000;0.6056;0.6323;
1202.4000;0.6113;0.6524;
1202.7000;0.6105;0.6449;
1203.0000;0.6113;0.6423;
1203.3000;0.6146;0.6449;
1203.6000;0.6121;0.6373;
1203.9000;0.6113;0.6348;
1204.2000;0.6105;0.6348;
1204.5000;0.6097;0.6348;
1204.8000;0.6097;0.6373;
1205.1000;0.6089;0.6474;
1205.4000;0.6089;0.6423;
1205.7000;0.6113;0.6449;
1206.0000;0.6105;0.6348;
1206.3000;0.6113;0.6373;
1206.6000;0.6113;0.6323;
1206.9000;0.6105;0.6373;
1207.2000;0.6105;0.6373;
1207.5000;0.6113;0.6449;
1207.8000;0.6121;0.6449;
1208.1000;0.6121;0.6449;
1208.4000;0.6064;0.6222;
1208.7000;0.6113;0.6373;
1209.0000;0.6105;0.6297;
1209.3000;0.6121;0.6348;
1209.6000;0.6097;0.6348;
1209.9000;0.6097;0.6449;
1210.2000;0.6113;0.6524;
1210.5000;0.6129;0.6575;
1210.8000;0.6162;0.6675;
1211.1000;0.6113;0.6524;
1211.4000;0.6113;0.6524;
1211.7000;0.6121;0.6499;
1212.0000;0.6121;0.6398;
1212.3000;0.6113;0.6323;
1212.6000;0.6121;0.6297;
1212.9000;0.6113;0.6323;
1213.2000;0.6081;0.6222;
1213.5000;0.6097;0.6247;
1213.8000;0.6121;0.6172;
1214.1000;0.6089;0.6172;
1214.4000;0.6129;0.6323;
1214.7000;0.6089;0.6222;
1215.0000;0.6097;0.6272;
1215.3000;0.6105;0.6272;
1215.6000;0.6113;0.6222;
1215.9000;0.6097;0.6272;
1216.2000;0.6089;0.6297;
1216.5000;0.6064;0.6146;
1216.8000;0.6113;0.6272;
1217.1000;0.6105;0.6323;
1217.4000;0.6105;0.6373;
1217.7000;0.6121;0.6549;
1218.0000;0.6105;0.6549;
1218.3000;0.6121;0.6549;
1218.6000;0.6089;0.6499;
1218.9000;0.6113;0.6449;
1219.2000;0.6129;0.6449;
1219.5000;0.6113;0.6449;
1219.8000;0.6113;0.6474;
1220.1000;0.6089;0.6398;
1220.4000;0.6097;0.6449;
1220.7000;0.6113;0.6423;
1221.0000;0.6113;0.6373;
1221.3000;0.6097;0.6297;
1221.6000;0.6121;0.6323;
1221.9000;0.6121;0.6323;
1222.2000;0.6129;0.6297;
1222.5000;0.6121;0.6222;
1222.8000;0.6121;0.6323;
1223.1000;0.6129;0.6348;
1223.4000;0.6105;0.6348;
1223.7000;0.6113;0.6373;
1224.0000;0.6113;0.6398;
1224.3000;0.6097;0.6423;
1224.6000;0.6097;0.6323;
1224.9000;0.6097;0.6323;
1225.2000;0.6040;0.6222;
1225.5000;0.6081;0.6323;
1225.8000;0.6097;0.6323;
1226.1000;0.6105;0.6323;
1226.4000;0.6072;0.6222;
1226.7000;0.6105;0.6247;
1227.0000;0.6113;0.6121;
1227.3000;0.6121;0.6172;
1227.6000;0.6097;0.6096;
1227.9000;0.6097;0.6071;
1228.2000;0.6113;0.6071;
1228.5000;0.6113;0.6071;
1228.8000;0.6105;0.6020;
1229.1000;0.6105;0.6020;
1229.4000;0.6113;0.5995;
1229.7000;0.6138;0.6020;
1230.0000;0.6105;0.5920;
1230.3000;0.6097;0.5920;
1230.6000;0.6097;0.5970;
1230.9000;0.6121;0.6071;
1231.2000;0.6113;0.6046;
1231.5000;0.6105;0.6020;
1231.8000;0.6146;0.6197;
1232.1000;0.6121;0.6121;
1232.4000;0.6113;0.6121;
1232.7000;0.6097;0.6096;
1233.0000;0.6105;0.6096;
1233.3000;0.6081;0.6096;
1233.6000;0.6081;0.6046;
1233.9000;0.6089;0.6146;
1234.2000;0.6105;0.6172;
1234.5000;0.6097;0.6222;
1234.8000;0.6097;0.6197;
1235.1000;0.6089;0.6121;
1235.4000;0.6072;0.6046;
1235.7000;0.6072;0.6071;
1236.0000;0.6089;0.6121;
1236.3000;0.6081;0.6121;
1236.6000;0.6113;0.6096;
1236.9000;0.6089;0.6046;
1237.2000;0.6121;0.6071;
1237.5000;0.6113;0.6146;
1237.8000;0.6040;0.6046;
1238.1000;0.6105;0.6247;
1238.4000;0.6121;0.6197;
1238.7000;0.6081;0.6046;
1239.0000;0.6089;0.5995;
1239.3000;0.6089;0.6071;
1239.6000;0.6105;0.6121;
1239.9000;0.6113;0.6222;
1240.2000;0.6113;0.6121;
1240.5000;0.6105;0.6172;
1240.8000;0.6097;0.6172;
1241.1000;0.6097;0.6272;
1241.4000;0.6097;0.6222;
1241.7000;0.6089;0.6222;
1242.0000;0.6105;0.6272;
1242.3000;0.6113;0.6348;
1242.6000;0.6097;0.6323;
1242.9000;0.6097;0.6323;
1243.2000;0.6105;0.6297;
1243.5000;0.6113;0.6297;
1243.8000;0.6129;0.6222;
1244.1000;0.6121;0.6121;
1244.4000;0.6113;0.6096;
1244.7000;0.6113;0.6146;
1245.0000;0.6121;0.6297;
1245.3000;0.6105;0.6247;
1245.6000;0.6097;0.6272;
1245.9000;0.6121;0.6398;
1246.2000;0.6129;0.6323;
1246.5000;0.6097;0.6197;
1246.8000;0.6097;0.6272;
1247.1000;0.6032;0.6071;
1247.4000;0.6089;0.6323;
1247.7000;0.6081;0.6398;
1248.0000;0.6089;0.6474;
1248.3000;0.6097;0.6474;
1248.6000;0.6105;0.6423;
1248.9000;0.6048;0.6247;
1249.2000;0.6089;0.6348;
1249.5000;0.6081;0.6348;
1249.8000;0.6097;0.6398;
1250.1000;0.6056;0.6272;
1250.4000;0.6113;0.6423;
1250.7000;0.6113;0.6449;
1251.0000;0.6113;0.6449;
1251.3000;0.6121;0.6549;
1251.6000;0.6097;0.6423;
1251.9000;0.6113;0.6474;
1252.2000;0.6081;0.6373;
1252.5000;0.6097;0.6423;
1252.8000;0.6048;0.6398;
1253.1000;0.6081;0.6549;
1253.4000;0.6146;0.6600;
1253.7000;0.6097;0.6549;
1254.0000;0.6129;0.6600;
1254.3000;0.6121;0.6549;
1254.6000;0.6113;0.6499;
1254.9000;0.6105;0.6524;
1255.2000;0.6113;0.6600;
1255.5000;0.6154;0.6625;
1255.8000;0.6105;0.6474;
1256.1000;0.6048;0.6348;
1256.4000;0.6129;0.6524;
1256.7000;0.6089;0.6499;
1257.0000;0.6089;0.6524;
1257.3000;0.6089;0.6474;
1257.6000;0.6089;0.6474;
1257.9000;0.6097;0.6373;
1258.2000;0.6113;0.6423;
1258.5000;0.6105;0.6423;
1258.8000;0.6113;0.6474;
1259.1000;0.6113;0.6499;
1259.4000;0.6097;0.6373;
1259.7000;0.6113;0.6423;
1260.0000;0.6105;0.6373;
1260.3000;0.6121;0.6373;
1260.6000;0.6105;0.6373;
1260.9000;0.6097;0.6423;
1261.2000;0.6105;0.6474;
1261.5000;0.6121;0.6499;
1261.8000;0.6113;0.6474;
1262.1000;0.6072;0.6449;
1262.4000;0.6097;0.6474;
1262.7000;0.6121;0.6474;
1263.0000;0.6113;0.6373;
1263.3000;0.6089;0.6297;
1263.6000;0.6154;0.6474;
1263.9000;0.6105;0.6348;
1264.2000;0.6113;0.6348;
1264.5000;0.6089;0.6272;
1264.8000;0.6089;0.6272;
1265.1000;0.6089;0.6247;
1265.4000;0.6105;0.6247;
1265.7000;0.6097;0.6247;
1266.0000;0.6081;0.6247;
1266.3000;0.6105;0.6348;
1266.6000;0.6089;0.6373;
1266.9000;0.6089;0.6398;
1267.2000;0.6097;0.6499;
1267.5000;0.6097;0.6423;
1267.8000;0.6097;0.6423;
1268.1000;0.6105;0.6423;
1268.4000;0.6113;0.6449;
1268.7000;0.6105;0.6449;
1269.0000;0.6097;0.6423;
1269.3000;0.6089;0.6398;
1269.6000;0.6097;0.6323;
1269.9000;0.6081;0.6348;
1270.2000;0.6097;0.6373;
1270.5000;0.6089;0.6348;
1270.8000;0.6089;0.6398;
1271.1000;0.6089;0.6398;
1271.4000;0.6113;0.6423;
1271.7000;0.6105;0.6323;
1272.0000;0.6089;0.6297;
1272.3000;0.6089;0.6172;
1272.6000;0.6105;0.6121;
1272.9000;0.6040;0.5995;
1273.2000;0.6113;0.6121;
1273.5000;0.6089;0.6096;
1273.8000;0.6089;0.6096;
1274.1000;0.6097;0.6121;
1274.4000;0.6113;0.6172;
1274.7000;0.6089;0.6222;
1275.0000;0.6089;0.6247;
1275.3000;0.6089;0.6247;
1275.6000;0.6097;0.6348;
1275.9000;0.6113;0.6398;
1276.2000;0.6081;0.6272;
1276.5000;0.6121;0.6398;
1276.8000;0.6113;0.6373;
1277.1000;0.6105;0.6323;
1277.4000;0.6097;0.6272;
1277.7000;0.6089;0.6172;
1278.0000;0.6113;0.6222;
1278.3000;0.6064;0.6096;
1278.6000;0.6089;0.6071;
1278.9000;0.6121;0.6096;
1279.2000;0.6089;0.6121;
1279.5000;0.6113;0.6247;
1279.8000;0.6081;0.6197;
1280.1000;0.6097;0.6172;
1280.4000;0.6154;0.6222;
1280.7000;0.6056;0.5945;
1281.0000;0.6081;0.5995;
1281.3000;0.6089;0.6071;
1281.6000;0.6072;0.6121;
1281.9000;0.6072;0.6071;
1282.2000;0.6089;0.6046;
1282.5000;0.6097;0.6121;
1282.8000;0.6089;0.6121;
1283.1000;0.6089;0.6146;
1283.4000;0.6138;0.6272;
1283.7000;0.6081;0.6247;
1284.0000;0.6081;0.6297;
1284.3000;0.6113;0.6449;
1284.6000;0.6170;0.6600;
1284.9000;0.6097;0.6449;
1285.2000;0.6081;0.6373;
1285.5000;0.6089;0.6423;
1285.8000;0.6089;0.6348;
1286.1000;0.6097;0.6348;
1286.4000;0.6097;0.6348;
1286.7000;0.6097;0.6423;
1287.0000;0.6089;0.6398;
1287.3000;0.6105;0.6398;
1287.6000;0.6121;0.6373;
1287.9000;0.6089;0.6247;
1288.2000;0.6097;0.6247;
1288.5000;0.6097;0.6197;
1288.8000;0.6081;0.6046;
1289.1000;0.6089;0.6096;
1289.4000;0.6121;0.6247;
1289.7000;0.6089;0.6197;
1290.0000;0.6089;0.6172;
1290.3000;0.6072;0.6096;
1290.6000;0.6105;0.6323;
1290.9000;0.6097;0.6297;
1291.2000;0.6081;0.6247;
1291.5000;0.6072;0.6247;
1291.8000;0.6072;0.6247;
1292.1000;0.6113;0.6348;
1292.4000;0.6089;0.6297;
1292.7000;0.6138;0.6423;
1293.0000;0.6097;0.6323;
1293.3000;0.6121;0.6323;
1293.6000;0.6129;0.6373;
1293.9000;0.6097;0.6222;
1294.2000;0.6113;0.6297;
1294.5000;0.6089;0.6247;
1294.8000;0.6072;0.6247;
1295.1000;0.6105;0.6348;
1295.4000;0.6097;0.6423;
1295.7000;0.6121;0.6423;
1296.0000;0.6081;0.6373;
1296.3000;0.6105;0.6474;
1296.6000;0.6113;0.6449;
1296.9000;0.6113;0.6373;
1297.2000;0.6089;0.6297;
1297.5000;0.6097;0.6222;
1297.8000;0.6081;0.6222;
1298.1000;0.6097;0.6197;
1298.4000;0.6097;0.6146;
1298.7000;0.6089;0.6197;
1299.0000;0.6064;0.6247;
1299.3000;0.6089;0.6373;
1299.6000;0.6056;0.6348;
1299.9000;0.6089;0.6474;
1300.2000;0.6089;0.6499;
1300.5000;0.6081;0.6398;
1300.8000;0.6138;0.6474;
1301.1000;0.6121;0.6474;
1301.4000;0.6081;0.6398;
1301.7000;0.6089;0.6423;
1302.0000;0.6097;0.6499;
1302.3000;0.6154;0.6600;
1302.6000;0.6072;0.6423;
1302.9000;0.6064;0.6398;
1303.2000;0.6113;0.6524;
1303.5000;0.6097;0.6449;
1303.8000;0.6081;0.6449;
1304.1000;0.6081;0.6373;
1304.4000;0.6081;0.6449;
1304.7000;0.6089;0.6449;
1305.0000;0.6097;0.6323;
1305.3000;0.6097;0.6423;
1305.6000;0.6064;0.6423;
1305.9000;0.6089;0.6499;
1306.2000;0.6121;0.6575;
1306.5000;0.6138;0.6549;
1306.8000;0.6105;0.6373;
1307.1000;0.6097;0.6423;
1307.4000;0.6097;0.6373;
1307.7000;0.6089;0.6247;
1308.0000;0.6089;0.6323;
1308.3000;0.6089;0.6398;
1308.6000;0.6113;0.6373;
1308.9000;0.6113;0.6398;
1309.2000;0.6097;0.6348;
1309.5000;0.6105;0.6373;
1309.8000;0.6081;0.6373;
1310.1000;0.6121;0.6449;
1310.4000;0.6097;0.6398;
1310.7000;0.6032;0.6197;
1311.0000;0.6089;0.6348;
1311.3000;0.6089;0.6323;
1311.6000;0.6105;0.6323;
1311.9000;0.6089;0.6222;
1312.2000;0.6097;0.6247;
1312.5000;0.6089;0.6222;
1312.8000;0.6105;0.6222;
1313.1000;0.6089;0.6197;
1313.4000;0.6105;0.6172;
1313.7000;0.6097;0.6172;
1314.0000;0.6089;0.6096;
1314.3000;0.6089;0.6121;
1314.6000;0.6105;0.6096;
1314.9000;0.6105;0.6121;
1315.2000;0.6105;0.6172;
1315.5000;0.6097;0.6146;
1315.8000;0.6024;0.5945;
1316.1000;0.6081;0.6071;
1316.4000;0.6032;0.5894;
1316.7000;0.6056;0.5995;
1317.0000;0.6072;0.6096;
1317.3000;0.6089;0.6096;
1317.6000;0.6129;0.6146;
1317.9000;0.6089;0.6096;
1318.2000;0.6081;0.6121;
1318.5000;0.6089;0.6146;
1318.8000;0.6097;0.6197;
1319.1000;0.6064;0.6172;
1319.4000;0.6081;0.6172;
1319.7000;0.6048;0.6046;
1320.0000;0.6072;0.6172;
1320.3000;0.6121;0.6323;
1320.6000;0.6081;0.6197;
1320.9000;0.6072;0.6121;
1321.2000;0.6113;0.6172;
1321.5000;0.6081;0.6096;
1321.8000;0.6081;0.6197;
1322.1000;0.6072;0.6172;
1322.4000;0.6081;0.6247;
1322.7000;0.6121;0.6373;
1323.0000;0.6081;0.6348;
1323.3000;0.6064;0.6272;
1323.6000;0.6089;0.6373;
1323.9000;0.6113;0.6449;
1324.2000;0.6097;0.6423;
1324.5000;0.6081;0.6398;
1324.8000;0.6081;0.6373;
1325.1000;0.6072;0.6474;
1325.4000;0.6064;0.6474;
1325.7000;0.6064;0.6549;
1326.0000;0.6081;0.6575;
1326.3000;0.6089;0.6575;
1326.6000;0.6097;0.6524;
1326.9000;0.6072;0.6575;
1327.2000;0.6081;0.6549;
1327.5000;0.6064;0.6549;
1327.8000;0.6089;0.6600;
1328.1000;0.6097;0.6549;
1328.4000;0.6081;0.6499;
1328.7000;0.6081;0.6524;
1329.0000;0.6089;0.6474;
1329.3000;0.6097;0.6474;
1329.6000;0.6081;0.6373;
1329.9000;0.6089;0.6449;
1330.2000;0.6097;0.6575;
1330.5000;0.6081;0.6549;
1330.8000;0.6097;0.6600;
1331.1000;0.6081;0.6600;
1331.4000;0.6089;0.6625;
1331.7000;0.6097;0.6549;
1332.0000;0.6089;0.6499;
1332.3000;0.6097;0.6524;
1332.6000;0.6081;0.6474;
1332.9000;0.6081;0.6423;
1333.2000;0.6072;0.6348;
1333.5000;0.6081;0.6398;
1333.8000;0.6089;0.6499;
1334.1000;0.6097;0.6549;
1334.4000;0.6072;0.6549;
1334.7000;0.6097;0.6549;
1335.0000;0.6081;0.6549;
1335.3000;0.6105;0.6549;
1335.6000;0.6097;0.6499;
1335.9000;0.6089;0.6549;
1336.2000;0.6097;0.6625;
1336.5000;0.6097;0.6625;
1336.8000;0.6089;0.6549;
1337.1000;0.6064;0.6474;
1337.4000;0.6097;0.6499;
1337.7000;0.6081;0.6499;
1338.0000;0.6072;0.6524;
1338.3000;0.6081;0.6524;
1338.6000;0.6081;0.6423;
1338.9000;0.6097;0.6474;
1339.2000;0.6089;0.6524;
1339.5000;0.6097;0.6549;
1339.8000;0.6072;0.6449;
1340.1000;0.6056;0.6423;
1340.4000;0.6097;0.6423;
1340.7000;0.6129;0.6499;
1341.0000;0.6072;0.6423;
1341.3000;0.6064;0.6423;
1341.6000;0.6089;0.6423;
1341.9000;0.6089;0.6499;
1342.2000;0.6081;0.6524;
1342.5000;0.6097;0.6600;
1342.8000;0.6064;0.6549;
1343.1000;0.6072;0.6474;
1343.4000;0.6064;0.6323;
1343.7000;0.6064;0.6373;
1344.0000;0.6081;0.6423;
1344.3000;0.6081;0.6499;
1344.6000;0.6089;0.6499;
1344.9000;0.6081;0.6449;
1345.2000;0.6040;0.6373;
1345.5000;0.6081;0.6524;
1345.8000;0.6097;0.6499;
1346.1000;0.6089;0.6449;
1346.4000;0.6097;0.6524;
1346.7000;0.6081;0.6423;
1347.0000;0.6105;0.6423;
1347.3000;0.6056;0.6297;
1347.6000;0.6081;0.6373;
1347.9000;0.6081;0.6373;
1348.2000;0.6081;0.6449;
1348.5000;0.6081;0.6398;
1348.8000;0.6024;0.6197;
1349.1000;0.6081;0.6323;
1349.4000;0.6121;0.6449;
1349.7000;0.6121;0.6449;
1350.0000;0.6089;0.6323;
1350.3000;0.6081;0.6323;
1350.6000;0.6105;0.6348;
1350.9000;0.6105;0.6398;
1351.2000;0.6081;0.6423;
1351.5000;0.6072;0.6398;
1351.8000;0.6089;0.6423;
1352.1000;0.6081;0.6373;
1352.4000;0.6089;0.6373;
1352.7000;0.6081;0.6373;
1353.0000;0.6089;0.6323;
1353.3000;0.6089;0.6272;
1353.6000;0.6081;0.6323;
1353.9000;0.6081;0.6373;
1354.2000;0.6072;0.6373;
1354.5000;0.6056;0.6348;
1354.8000;0.6072;0.6373;
1355.1000;0.6064;0.6474;
1355.4000;0.6081;0.6575;
1355.7000;0.6089;0.6625;
1356.0000;0.6113;0.6701;
1356.3000;0.6081;0.6600;
1356.6000;0.6064;0.6499;
1356.9000;0.6097;0.6549;
1357.2000;0.6089;0.6549;
1357.5000;0.6081;0.6474;
1357.8000;0.6081;0.6499;
1358.1000;0.6089;0.6575;
1358.4000;0.6081;0.6650;
1358.7000;0.6097;0.6726;
1359.0000;0.6072;0.6751;
1359.3000;0.6089;0.6675;
1359.6000;0.6089;0.6751;
1359.9000;0.6089;0.6625;
1360.2000;0.6081;0.6549;
1360.5000;0.6072;0.6474;
1360.8000;0.6105;0.6575;
1361.1000;0.6097;0.6600;
1361.4000;0.6072;0.6600;
1361.7000;0.6081;0.6600;
1362.0000;0.6081;0.6625;
1362.3000;0.6072;0.6575;
1362.6000;0.6072;0.6600;
1362.9000;0.6072;0.6549;
1363.2000;0.6064;0.6499;
1363.5000;0.6081;0.6499;
1363.8000;0.6072;0.6600;
1364.1000;0.6081;0.6600;
1364.4000;0.6089;0.6549;
1364.7000;0.6056;0.6549;
1365.0000;0.6089;0.6625;
1365.3000;0.6170;0.6902;
1365.6000;0.6089;0.6650;
1365.9000;0.6129;0.6701;
1366.2000;0.6089;0.6675;
1366.5000;0.6064;0.6650;
1366.8000;0.6064;0.6650;
1367.1000;0.6064;0.6575;
1367.4000;0.6072;0.6650;
1367.7000;0.6072;0.6701;
1368.0000;0.6081;0.6650;
1368.3000;0.6081;0.6600;
1368.6000;0.6081;0.6575;
1368.9000;0.6081;0.6499;
1369.2000;0.6089;0.6499;
1369.5000;0.6072;0.6474;
1369.8000;0.6089;0.6499;
1370.1000;0.6089;0.6423;
1370.4000;0.6081;0.6348;
1370.7000;0.6081;0.6348;
1371.0000;0.6105;0.6474;
1371.3000;0.6081;0.6348;
1371.6000;0.6081;0.6348;
1371.9000;0.6064;0.6323;
1372.2000;0.6089;0.6373;
1372.5000;0.6081;0.6449;
1372.8000;0.6072;0.6499;
1373.1000;0.6089;0.6499;
1373.4000;0.6072;0.6524;
1373.7000;0.6089;0.6549;
1374.0000;0.6072;0.6449;
1374.3000;0.6081;0.6549;
1374.6000;0.6072;0.6575;
1374.9000;0.6089;0.6675;
1375.2000;0.6081;0.6549;
1375.5000;0.6072;0.6499;
1375.8000;0.6089;0.6398;
1376.1000;0.6081;0.6423;
1376.4000;0.6097;0.6474;
1376.7000;0.6097;0.6423;
1377.0000;0.6081;0.6449;
1377.3000;0.6081;0.6423;
1377.6000;0.6056;0.6297;
1377.9000;0.6105;0.6348;
1378.2000;0.6072;0.6297;
1378.5000;0.6089;0.6398;
1378.8000;0.6097;0.6423;
1379.1000;0.6089;0.6398;
1379.4000;0.6081;0.6323;
1379.7000;0.6089;0.6247;
1380.0000;0.6105;0.6297;
1380.3000;0.6113;0.6297;
1380.6000;0.6081;0.6197;
1380.9000;0.6015;0.6071;
1381.2000;0.6097;0.6297;
1381.5000;0.6097;0.6297;
1381.8000;0.6072;0.6297;
1382.1000;0.6072;0.6272;
1382.4000;0.6089;0.6323;
1382.7000;0.6072;0.6297;
1383.0000;0.6138;0.6423;
1383.3000;0.6072;0.6222;
1383.6000;0.6081;0.6247;
1383.9000;0.6121;0.6348;
1384.2000;0.6105;0.6323;
1384.5000;0.6081;0.6247;
1384.8000;0.6081;0.6247;
1385.1000;0.6089;0.6272;
1385.4000;0.6072;0.6172;
1385.7000;0.6089;0.6172;
1386.0000;0.6072;0.6172;
1386.3000;0.6081;0.6272;
1386.6000;0.6072;0.6247;
1386.9000;0.6081;0.6272;
1387.2000;0.6064;0.6272;
1387.5000;0.6040;0.6222;
1387.8000;0.6072;0.6348;
1388.1000;0.6081;0.6423;
1388.4000;0.6097;0.6499;
1388.7000;0.6072;0.6449;
1389.0000;0.6081;0.6449;
1389.3000;0.6081;0.6524;
1389.6000;0.6064;0.6474;
1389.9000;0.6081;0.6549;
1390.2000;0.6081;0.6474;
1390.5000;0.6089;0.6499;
1390.8000;0.6097;0.6474;
1391.1000;0.6064;0.6449;
1391.4000;0.6089;0.6524;
1391.7000;0.6121;0.6600;
1392.0000;0.6113;0.6600;
1392.3000;0.6072;0.6474;
1392.6000;0.6048;0.6323;
1392.9000;0.6072;0.6449;
1393.2000;0.6032;0.6297;
1393.5000;0.6105;0.6449;
1393.8000;0.6089;0.6373;
1394.1000;0.6097;0.6398;
1394.4000;0.6081;0.6323;
1394.7000;0.6064;0.6297;
1395.0000;0.6097;0.6373;
1395.3000;0.6056;0.6348;
1395.6000;0.6081;0.6449;
1395.9000;0.6146;0.6600;
1396.2000;0.6081;0.6449;
1396.5000;0.6064;0.6398;
1396.8000;0.6081;0.6499;
1397.1000;0.6056;0.6373;
1397.4000;0.6064;0.6474;
1397.7000;0.6089;0.6549;
1398.0000;0.6105;0.6701;
1398.3000;0.6072;0.6625;
1398.6000;0.5999;0.6474;
1398.9000;0.6089;0.6675;
1399.2000;0.6072;0.6625;
1399.5000;0.6072;0.6549;
1399.8000;0.6089;0.6524;
