time/ms;Fluo/V;P700 deltaI/I x10³;
-199.8000;0.1123;1.2608;
-199.5000;0.1140;1.2703;
-199.2000;0.1123;1.2679;
-198.9000;0.1115;1.2656;
-198.6000;0.1131;1.2750;
-198.3000;0.1172;1.2915;
-198.0000;0.1123;1.2844;
-197.7000;0.1131;1.2797;
-197.4000;0.1148;1.2750;
-197.1000;0.1123;1.2844;
-196.8000;0.1148;1.2821;
-196.5000;0.1115;1.2750;
-196.2000;0.1115;1.2821;
-195.9000;0.1115;1.2750;
-195.6000;0.1107;1.2750;
-195.3000;0.1140;1.2797;
-195.0000;0.1123;1.2797;
-194.7000;0.1050;1.2632;
-194.4000;0.1099;1.2703;
-194.1000;0.1099;1.2632;
-193.8000;0.1099;1.2585;
-193.5000;0.1148;1.2656;
-193.2000;0.1091;1.2538;
-192.9000;0.1156;1.2726;
-192.6000;0.1123;1.2632;
-192.3000;0.1164;1.2821;
-192.0000;0.1123;1.2679;
-191.7000;0.1123;1.2632;
-191.4000;0.1140;1.2750;
-191.1000;0.1131;1.2726;
-190.8000;0.1123;1.2750;
-190.5000;0.1123;1.2821;
-190.2000;0.1123;1.2797;
-189.9000;0.1107;1.2726;
-189.6000;0.1115;1.2750;
-189.3000;0.1131;1.2797;
-189.0000;0.1099;1.2703;
-188.7000;0.1123;1.2797;
-188.4000;0.1140;1.2844;
-188.1000;0.1107;1.2750;
-187.8000;0.1115;1.2703;
-187.5000;0.1131;1.2703;
-187.2000;0.1123;1.2703;
-186.9000;0.1156;1.2844;
-186.6000;0.1115;1.2844;
-186.3000;0.1140;1.2844;
-186.0000;0.1123;1.2844;
-185.7000;0.1123;1.2797;
-185.4000;0.1115;1.2726;
-185.1000;0.1099;1.2632;
-184.8000;0.1123;1.2703;
-184.5000;0.1123;1.2679;
-184.2000;0.1115;1.2656;
-183.9000;0.1107;1.2632;
-183.6000;0.1131;1.2703;
-183.3000;0.1148;1.2679;
-183.0000;0.1131;1.2608;
-182.7000;0.1115;1.2679;
-182.4000;0.1123;1.2679;
-182.1000;0.1115;1.2703;
-181.8000;0.1131;1.2750;
-181.5000;0.1131;1.2773;
-181.2000;0.1131;1.2821;
-180.9000;0.1164;1.2915;
-180.6000;0.1131;1.2844;
-180.3000;0.1131;1.2891;
-180.0000;0.1123;1.2891;
-179.7000;0.1156;1.2986;
-179.4000;0.1140;1.2891;
-179.1000;0.1131;1.2891;
-178.8000;0.1123;1.2844;
-178.5000;0.1123;1.2844;
-178.2000;0.1156;1.2915;
-177.9000;0.1115;1.2915;
-177.6000;0.1140;1.2938;
-177.3000;0.1115;1.2891;
-177.0000;0.1140;1.3056;
-176.7000;0.1140;1.3009;
-176.4000;0.1123;1.3033;
-176.1000;0.1107;1.2938;
-175.8000;0.1131;1.2915;
-175.5000;0.1123;1.2868;
-175.2000;0.1115;1.2868;
-174.9000;0.1099;1.2821;
-174.6000;0.1123;1.2868;
-174.3000;0.1140;1.2844;
-174.0000;0.1115;1.2679;
-173.7000;0.1074;1.2656;
-173.4000;0.1107;1.2797;
-173.1000;0.1123;1.2797;
-172.8000;0.1115;1.2773;
-172.5000;0.1140;1.2844;
-172.2000;0.1115;1.2750;
-171.9000;0.1131;1.2656;
-171.6000;0.1123;1.2632;
-171.3000;0.1115;1.2561;
-171.0000;0.1107;1.2514;
-170.7000;0.1140;1.2632;
-170.4000;0.1099;1.2561;
-170.1000;0.1115;1.2679;
-169.8000;0.1123;1.2726;
-169.5000;0.1131;1.2797;
-169.2000;0.1123;1.2797;
-168.9000;0.1115;1.2821;
-168.6000;0.1123;1.2797;
-168.3000;0.1131;1.2844;
-168.0000;0.1123;1.2891;
-167.7000;0.1115;1.2821;
-167.4000;0.1123;1.2821;
-167.1000;0.1164;1.2915;
-166.8000;0.1131;1.2844;
-166.5000;0.1148;1.2868;
-166.2000;0.1123;1.2868;
-165.9000;0.1107;1.2844;
-165.6000;0.1131;1.2844;
-165.3000;0.1123;1.2773;
-165.0000;0.1131;1.2679;
-164.7000;0.1123;1.2679;
-164.4000;0.1131;1.2656;
-164.1000;0.1131;1.2703;
-163.8000;0.1099;1.2679;
-163.5000;0.1066;1.2585;
-163.2000;0.1140;1.2844;
-162.9000;0.1107;1.2773;
-162.6000;0.1180;1.2891;
-162.3000;0.1123;1.2703;
-162.0000;0.1131;1.2703;
-161.7000;0.1099;1.2679;
-161.4000;0.1107;1.2632;
-161.1000;0.1123;1.2608;
-160.8000;0.1123;1.2608;
-160.5000;0.1140;1.2632;
-160.2000;0.1115;1.2561;
-159.9000;0.1123;1.2632;
-159.6000;0.1107;1.2585;
-159.3000;0.1115;1.2656;
-159.0000;0.1164;1.2797;
-158.7000;0.1140;1.2773;
-158.4000;0.1131;1.2679;
-158.1000;0.1156;1.2726;
-157.8000;0.1172;1.2750;
-157.5000;0.1131;1.2750;
-157.2000;0.1107;1.2797;
-156.9000;0.1172;1.2962;
-156.6000;0.1083;1.2821;
-156.3000;0.1140;1.2868;
-156.0000;0.1107;1.2773;
-155.7000;0.1131;1.2750;
-155.4000;0.1140;1.2773;
-155.1000;0.1123;1.2679;
-154.8000;0.1099;1.2608;
-154.5000;0.1123;1.2608;
-154.2000;0.1156;1.2773;
-153.9000;0.1131;1.2656;
-153.6000;0.1107;1.2561;
-153.3000;0.1066;1.2443;
-153.0000;0.1123;1.2656;
-152.7000;0.1140;1.2679;
-152.4000;0.1107;1.2561;
-152.1000;0.1107;1.2491;
-151.8000;0.1123;1.2467;
-151.5000;0.1140;1.2467;
-151.2000;0.1091;1.2491;
-150.9000;0.1131;1.2514;
-150.6000;0.1140;1.2608;
-150.3000;0.1123;1.2585;
-150.0000;0.1107;1.2491;
-149.7000;0.1115;1.2561;
-149.4000;0.1123;1.2538;
-149.1000;0.1140;1.2585;
-148.8000;0.1107;1.2585;
-148.5000;0.1123;1.2561;
-148.2000;0.1091;1.2608;
-147.9000;0.1140;1.2726;
-147.6000;0.1148;1.2797;
-147.3000;0.1140;1.2844;
-147.0000;0.1131;1.2844;
-146.7000;0.1140;1.2868;
-146.4000;0.1131;1.2750;
-146.1000;0.1091;1.2773;
-145.8000;0.1131;1.2797;
-145.5000;0.1123;1.2773;
-145.2000;0.1148;1.2773;
-144.9000;0.1115;1.2703;
-144.6000;0.1115;1.2679;
-144.3000;0.1107;1.2821;
-144.0000;0.1254;1.3198;
-143.7000;0.1140;1.2868;
-143.4000;0.1099;1.2703;
-143.1000;0.1123;1.2679;
-142.8000;0.1131;1.2726;
-142.5000;0.1107;1.2703;
-142.2000;0.1262;1.3033;
-141.9000;0.1107;1.2703;
-141.6000;0.1131;1.2750;
-141.3000;0.1172;1.2868;
-141.0000;0.1115;1.2679;
-140.7000;0.1115;1.2703;
-140.4000;0.1123;1.2703;
-140.1000;0.1131;1.2703;
-139.8000;0.1099;1.2632;
-139.5000;0.1131;1.2703;
-139.2000;0.1140;1.2726;
-138.9000;0.1123;1.2656;
-138.6000;0.1115;1.2656;
-138.3000;0.1115;1.2656;
-138.0000;0.1115;1.2726;
-137.7000;0.1123;1.2703;
-137.4000;0.1131;1.2656;
-137.1000;0.1148;1.2656;
-136.8000;0.1050;1.2349;
-136.5000;0.1131;1.2491;
-136.2000;0.1123;1.2443;
-135.9000;0.1107;1.2467;
-135.6000;0.1115;1.2467;
-135.3000;0.1115;1.2467;
-135.0000;0.1156;1.2561;
-134.7000;0.1140;1.2656;
-134.4000;0.1107;1.2656;
-134.1000;0.1156;1.2821;
-133.8000;0.1131;1.2844;
-133.5000;0.1188;1.2915;
-133.2000;0.1131;1.2821;
-132.9000;0.1123;1.2868;
-132.6000;0.1107;1.2773;
-132.3000;0.1131;1.2938;
-132.0000;0.1123;1.2844;
-131.7000;0.1131;1.2868;
-131.4000;0.1131;1.2773;
-131.1000;0.1115;1.2821;
-130.8000;0.1131;1.2868;
-130.5000;0.1164;1.2891;
-130.2000;0.1148;1.2868;
-129.9000;0.1115;1.2797;
-129.6000;0.1099;1.2703;
-129.3000;0.1107;1.2726;
-129.0000;0.1083;1.2608;
-128.7000;0.1123;1.2679;
-128.4000;0.1221;1.2844;
-128.1000;0.1115;1.2608;
-127.8000;0.1131;1.2726;
-127.5000;0.1140;1.2750;
-127.2000;0.1131;1.2632;
-126.9000;0.1148;1.2679;
-126.6000;0.1115;1.2679;
-126.3000;0.1148;1.2726;
-126.0000;0.1148;1.2773;
-125.7000;0.1131;1.2726;
-125.4000;0.1270;1.3080;
-125.1000;0.1123;1.2679;
-124.8000;0.1148;1.2750;
-124.5000;0.1123;1.2679;
-124.2000;0.1140;1.2750;
-123.9000;0.1131;1.2750;
-123.6000;0.1123;1.2797;
-123.3000;0.1123;1.2773;
-123.0000;0.1115;1.2703;
-122.7000;0.1131;1.2608;
-122.4000;0.1148;1.2679;
-122.1000;0.1123;1.2561;
-121.8000;0.1115;1.2585;
-121.5000;0.1131;1.2632;
-121.2000;0.1131;1.2632;
-120.9000;0.1140;1.2703;
-120.6000;0.1140;1.2679;
-120.3000;0.1140;1.2656;
-120.0000;0.1131;1.2561;
-119.7000;0.1131;1.2514;
-119.4000;0.1131;1.2608;
-119.1000;0.1140;1.2561;
-118.8000;0.1115;1.2514;
-118.5000;0.1107;1.2443;
-118.2000;0.1115;1.2420;
-117.9000;0.1123;1.2420;
-117.6000;0.1148;1.2514;
-117.3000;0.1131;1.2608;
-117.0000;0.1148;1.2679;
-116.7000;0.1131;1.2679;
-116.4000;0.1123;1.2561;
-116.1000;0.1140;1.2632;
-115.8000;0.1131;1.2585;
-115.5000;0.1123;1.2514;
-115.2000;0.1001;1.2184;
-114.9000;0.1131;1.2561;
-114.6000;0.1131;1.2585;
-114.3000;0.1115;1.2585;
-114.0000;0.1107;1.2585;
-113.7000;0.1131;1.2608;
-113.4000;0.1131;1.2585;
-113.1000;0.1156;1.2679;
-112.8000;0.1123;1.2656;
-112.5000;0.1172;1.2868;
-112.2000;0.1123;1.2679;
-111.9000;0.1140;1.2632;
-111.6000;0.1099;1.2561;
-111.3000;0.1123;1.2703;
-111.0000;0.1115;1.2773;
-110.7000;0.1091;1.2679;
-110.4000;0.1148;1.2726;
-110.1000;0.1294;1.3103;
-109.8000;0.1115;1.2632;
-109.5000;0.1148;1.2703;
-109.2000;0.1237;1.2938;
-108.9000;0.1140;1.2679;
-108.6000;0.1107;1.2656;
-108.3000;0.1115;1.2608;
-108.0000;0.1123;1.2561;
-107.7000;0.1099;1.2279;
-107.4000;0.1115;1.2302;
-107.1000;0.1074;1.2255;
-106.8000;0.1164;1.2467;
-106.5000;0.1123;1.2349;
-106.2000;0.1148;1.2467;
-105.9000;0.1148;1.2514;
-105.6000;0.1131;1.2467;
-105.3000;0.1156;1.2514;
-105.0000;0.1123;1.2420;
-104.7000;0.1026;1.2255;
-104.4000;0.1148;1.2656;
-104.1000;0.1140;1.2561;
-103.8000;0.1115;1.2514;
-103.5000;0.1115;1.2467;
-103.2000;0.1107;1.2467;
-102.9000;0.1131;1.2561;
-102.6000;0.1123;1.2491;
-102.3000;0.1099;1.2396;
-102.0000;0.1115;1.2491;
-101.7000;0.1140;1.2608;
-101.4000;0.1115;1.2679;
-101.1000;0.1140;1.2726;
-100.8000;0.1123;1.2703;
-100.5000;0.1131;1.2750;
-100.2000;0.1148;1.2773;
-99.9000;0.1156;1.2797;
-99.6000;0.1123;1.2608;
-99.3000;0.1115;1.2467;
-99.0000;0.1172;1.2514;
-98.7000;0.1115;1.2467;
-98.4000;0.1042;1.2279;
-98.1000;0.1131;1.2679;
-97.8000;0.1123;1.2656;
-97.5000;0.1123;1.2679;
-97.2000;0.1107;1.2679;
-96.9000;0.1131;1.2726;
-96.6000;0.1123;1.2679;
-96.3000;0.1140;1.2703;
-96.0000;0.1131;1.2703;
-95.7000;0.1131;1.2726;
-95.4000;0.1115;1.2726;
-95.1000;0.1099;1.2726;
-94.8000;0.1131;1.2750;
-94.5000;0.1115;1.2726;
-94.2000;0.1107;1.2679;
-93.9000;0.1140;1.2726;
-93.6000;0.1083;1.2561;
-93.3000;0.1099;1.2632;
-93.0000;0.1107;1.2656;
-92.7000;0.1091;1.2585;
-92.4000;0.1115;1.2679;
-92.1000;0.1140;1.2773;
-91.8000;0.1131;1.2750;
-91.5000;0.1131;1.2797;
-91.2000;0.1115;1.2703;
-90.9000;0.1123;1.2703;
-90.6000;0.1131;1.2703;
-90.3000;0.1083;1.2538;
-90.0000;0.1131;1.2585;
-89.7000;0.1058;1.2420;
-89.4000;0.1107;1.2538;
-89.1000;0.1026;1.2279;
-88.8000;0.1131;1.2491;
-88.5000;0.1115;1.2491;
-88.2000;0.1091;1.2467;
-87.9000;0.1131;1.2561;
-87.6000;0.1115;1.2561;
-87.3000;0.1115;1.2561;
-87.0000;0.1099;1.2514;
-86.7000;0.1131;1.2656;
-86.4000;0.1083;1.2561;
-86.1000;0.1058;1.2514;
-85.8000;0.1131;1.2561;
-85.5000;0.1164;1.2585;
-85.2000;0.1115;1.2420;
-84.9000;0.1099;1.2491;
-84.6000;0.1115;1.2561;
-84.3000;0.1131;1.2656;
-84.0000;0.1115;1.2656;
-83.7000;0.1131;1.2585;
-83.4000;0.1115;1.2632;
-83.1000;0.1180;1.2797;
-82.8000;0.1123;1.2703;
-82.5000;0.1140;1.2726;
-82.2000;0.1115;1.2585;
-81.9000;0.1131;1.2585;
-81.6000;0.1197;1.2773;
-81.3000;0.1245;1.3033;
-81.0000;0.1123;1.2632;
-80.7000;0.1131;1.2656;
-80.4000;0.1123;1.2632;
-80.1000;0.1107;1.2656;
-79.8000;0.1140;1.2726;
-79.5000;0.1148;1.2703;
-79.2000;0.1107;1.2656;
-78.9000;0.1123;1.2726;
-78.6000;0.1205;1.2891;
-78.3000;0.1131;1.2726;
-78.0000;0.1131;1.2726;
-77.7000;0.1140;1.2679;
-77.4000;0.1107;1.2679;
-77.1000;0.1123;1.2773;
-76.8000;0.1115;1.2726;
-76.5000;0.1115;1.2773;
-76.2000;0.1140;1.2750;
-75.9000;0.1131;1.2608;
-75.6000;0.1172;1.2797;
-75.3000;0.1099;1.2656;
-75.0000;0.1156;1.2750;
-74.7000;0.1156;1.2703;
-74.4000;0.1123;1.2703;
-74.1000;0.1107;1.2679;
-73.8000;0.1074;1.2585;
-73.5000;0.1083;1.2538;
-73.2000;0.1188;1.2797;
-72.9000;0.1123;1.2632;
-72.6000;0.1180;1.2797;
-72.3000;0.1197;1.2962;
-72.0000;0.1148;1.2844;
-71.7000;0.1140;1.2844;
-71.4000;0.1099;1.2750;
-71.1000;0.1148;1.2868;
-70.8000;0.1099;1.2797;
-70.5000;0.1123;1.2868;
-70.2000;0.1074;1.2703;
-69.9000;0.1123;1.2891;
-69.6000;0.1205;1.3198;
-69.3000;0.1107;1.2915;
-69.0000;0.1140;1.2938;
-68.7000;0.1148;1.3009;
-68.4000;0.1115;1.2915;
-68.1000;0.1099;1.2891;
-67.8000;0.1123;1.2868;
-67.5000;0.1156;1.2962;
-67.2000;0.1058;1.2726;
-66.9000;0.1188;1.2962;
-66.6000;0.1107;1.2821;
-66.3000;0.1172;1.3009;
-66.0000;0.1148;1.2938;
-65.7000;0.1123;1.2891;
-65.4000;0.1123;1.2797;
-65.1000;0.1066;1.2608;
-64.8000;0.1123;1.2773;
-64.5000;0.1278;1.3174;
-64.2000;0.1131;1.2844;
-63.9000;0.1083;1.2656;
-63.6000;0.1115;1.2797;
-63.3000;0.1099;1.2750;
-63.0000;0.1123;1.2773;
-62.7000;0.1148;1.2797;
-62.4000;0.1140;1.2750;
-62.1000;0.1156;1.2773;
-61.8000;0.1131;1.2821;
-61.5000;0.1107;1.2726;
-61.2000;0.1123;1.2773;
-60.9000;0.1156;1.2938;
-60.6000;0.1131;1.2915;
-60.3000;0.1131;1.2868;
-60.0000;0.1140;1.2915;
-59.7000;0.1099;1.2797;
-59.4000;0.1213;1.3080;
-59.1000;0.1115;1.2773;
-58.8000;0.1099;1.2821;
-58.5000;0.1123;1.2891;
-58.2000;0.1123;1.2915;
-57.9000;0.1099;1.2821;
-57.6000;0.1140;1.2844;
-57.3000;0.1140;1.2844;
-57.0000;0.1140;1.2915;
-56.7000;0.1050;1.2679;
-56.4000;0.1123;1.2821;
-56.1000;0.1123;1.2797;
-55.8000;0.1131;1.2773;
-55.5000;0.1148;1.2797;
-55.2000;0.1140;1.2703;
-54.9000;0.1140;1.2821;
-54.6000;0.1131;1.2773;
-54.3000;0.1123;1.2797;
-54.0000;0.1131;1.2773;
-53.7000;0.1148;1.2868;
-53.4000;0.1140;1.2844;
-53.1000;0.1107;1.2797;
-52.8000;0.1123;1.2797;
-52.5000;0.1148;1.2891;
-52.2000;0.1123;1.2891;
-51.9000;0.1131;1.2938;
-51.6000;0.1245;1.3245;
-51.3000;0.1221;1.3268;
-51.0000;0.1123;1.3033;
-50.7000;0.1115;1.3009;
-50.4000;0.1164;1.3080;
-50.1000;0.1148;1.3009;
-49.8000;0.1123;1.2938;
-49.5000;0.1123;1.2915;
-49.2000;0.1066;1.2773;
-48.9000;0.1140;1.2915;
-48.6000;0.1123;1.2868;
-48.3000;0.1009;1.2679;
-48.0000;0.1034;1.2656;
-47.7000;0.1123;1.2986;
-47.4000;0.1148;1.2986;
-47.1000;0.1099;1.2915;
-46.8000;0.1254;1.3268;
-46.5000;0.1099;1.2797;
-46.2000;0.1066;1.2726;
-45.9000;0.1131;1.2938;
-45.6000;0.1099;1.2797;
-45.3000;0.1131;1.2891;
-45.0000;0.1140;1.2962;
-44.7000;0.1123;1.2844;
-44.4000;0.1099;1.2844;
-44.1000;0.1123;1.2962;
-43.8000;0.1229;1.3174;
-43.5000;0.1164;1.3009;
-43.2000;0.1123;1.2868;
-42.9000;0.1156;1.2938;
-42.6000;0.1131;1.2891;
-42.3000;0.1115;1.2844;
-42.0000;0.1140;1.2891;
-41.7000;0.1123;1.2891;
-41.4000;0.1123;1.2821;
-41.1000;0.1140;1.2938;
-40.8000;0.1140;1.2891;
-40.5000;0.1197;1.3033;
-40.2000;0.1123;1.2891;
-39.9000;0.1123;1.2844;
-39.6000;0.1148;1.2868;
-39.3000;0.1156;1.2915;
-39.0000;0.1115;1.2844;
-38.7000;0.1115;1.2821;
-38.4000;0.1148;1.2891;
-38.1000;0.1123;1.2821;
-37.8000;0.1131;1.2844;
-37.5000;0.1140;1.2938;
-37.2000;0.1123;1.2938;
-36.9000;0.1099;1.2821;
-36.6000;0.1066;1.2703;
-36.3000;0.1156;1.2915;
-36.0000;0.1115;1.2773;
-35.7000;0.1148;1.2915;
-35.4000;0.1131;1.2891;
-35.1000;0.1123;1.2844;
-34.8000;0.1140;1.2844;
-34.5000;0.1123;1.2891;
-34.2000;0.1140;1.2938;
-33.9000;0.1148;1.2962;
-33.6000;0.1140;1.2962;
-33.3000;0.1099;1.2821;
-33.0000;0.1140;1.2915;
-32.7000;0.1107;1.2750;
-32.4000;0.1197;1.3009;
-32.1000;0.1156;1.2821;
-31.8000;0.1156;1.2868;
-31.5000;0.1091;1.2726;
-31.2000;0.1123;1.2915;
-30.9000;0.1131;1.3080;
-30.6000;0.1156;1.3127;
-30.3000;0.1131;1.3056;
-30.0000;0.1099;1.2844;
-29.7000;0.1115;1.2821;
-29.4000;0.1099;1.2797;
-29.1000;0.1115;1.2726;
-28.8000;0.1099;1.2632;
-28.5000;0.1107;1.2608;
-28.2000;0.1107;1.2608;
-27.9000;0.1156;1.2750;
-27.6000;0.1099;1.2632;
-27.3000;0.1115;1.2750;
-27.0000;0.1148;1.2773;
-26.7000;0.1107;1.2679;
-26.4000;0.1180;1.2821;
-26.1000;0.1172;1.2821;
-25.8000;0.1140;1.2703;
-25.5000;0.1123;1.2656;
-25.2000;0.1140;1.2679;
-24.9000;0.1164;1.2915;
-24.6000;0.1140;1.2868;
-24.3000;0.1140;1.2891;
-24.0000;0.1115;1.2844;
-23.7000;0.1107;1.2773;
-23.4000;0.1074;1.2703;
-23.1000;0.1123;1.2868;
-22.8000;0.1140;1.2915;
-22.5000;0.1131;1.2868;
-22.2000;0.1107;1.2938;
-21.9000;0.1148;1.3033;
-21.6000;0.1140;1.3056;
-21.3000;0.1148;1.3009;
-21.0000;0.1131;1.2962;
-20.7000;0.1131;1.3033;
-20.4000;0.1156;1.3056;
-20.1000;0.1140;1.3009;
-19.8000;0.1083;1.2844;
-19.5000;0.1140;1.2986;
-19.2000;0.1164;1.3033;
-18.9000;0.1164;1.2986;
-18.6000;0.1131;1.3009;
-18.3000;0.1131;1.3056;
-18.0000;0.1131;1.3056;
-17.7000;0.1107;1.2891;
-17.4000;0.1115;1.2938;
-17.1000;0.1123;1.2938;
-16.8000;0.1140;1.2986;
-16.5000;0.1131;1.3033;
-16.2000;0.1083;1.2962;
-15.9000;0.1180;1.3056;
-15.6000;0.1148;1.3009;
-15.3000;0.1180;1.2986;
-15.0000;0.1131;1.2844;
-14.7000;0.1148;1.2868;
-14.4000;0.1156;1.2844;
-14.1000;0.1148;1.2891;
-13.8000;0.1140;1.2891;
-13.5000;0.1123;1.2821;
-13.2000;0.1140;1.2915;
-12.9000;0.1115;1.2821;
-12.6000;0.1099;1.2703;
-12.3000;0.1115;1.2821;
-12.0000;0.1123;1.2938;
-11.7000;0.1140;1.2938;
-11.4000;0.1107;1.2844;
-11.1000;0.1115;1.2868;
-10.8000;0.1131;1.2797;
-10.5000;0.1123;1.2750;
-10.2000;0.1131;1.2821;
-9.9000;0.1115;1.2797;
-9.6000;0.1099;1.2821;
-9.3000;0.1115;1.2868;
-9.0000;0.1148;1.2821;
-8.7000;0.1123;1.2773;
-8.4000;0.1172;1.2868;
-8.1000;0.1099;1.2703;
-7.8000;0.1131;1.2797;
-7.5000;0.1148;1.2868;
-7.2000;0.1131;1.2962;
-6.9000;0.1131;1.2962;
-6.6000;0.1123;1.2915;
-6.3000;0.1115;1.2891;
-6.0000;0.1131;1.2891;
-5.7000;0.1091;1.2821;
-5.4000;0.1107;1.2868;
-5.1000;0.1091;1.2891;
-4.8000;0.1131;1.2844;
-4.5000;0.1148;1.2821;
-4.2000;0.1115;1.2844;
-3.9000;0.1091;1.2821;
-3.6000;0.1205;1.3033;
-3.3000;0.1083;1.2750;
-3.0000;0.1115;1.2938;
-2.7000;0.1115;1.2868;
-2.4000;0.1115;1.2938;
-2.1000;0.1115;1.2844;
-1.8000;0.1205;1.3033;
-1.5000;0.1074;1.2726;
-1.2000;0.1115;1.2750;
-0.9000;0.1140;1.2821;
-0.6000;0.1131;1.2868;
-0.3000;0.1074;1.2726;
0.0000;0.1074;1.2726;
0.3000;0.1156;1.2608;
0.6000;0.1123;1.2679;
0.9000;0.1115;1.2773;
1.2000;0.1131;1.2986;
1.5000;0.1107;1.3009;
1.8000;0.1140;1.3127;
2.1000;0.1140;1.3221;
2.4000;0.1140;1.3245;
2.7000;0.1164;1.3268;
3.0000;0.1131;1.3339;
3.3000;0.1205;1.3551;
3.6000;0.1140;1.3292;
3.9000;0.1123;1.3363;
4.2000;0.1131;1.3457;
4.5000;0.1131;1.3457;
4.8000;0.1164;1.3575;
5.1000;0.1245;1.3858;
5.4000;0.1172;1.3598;
5.7000;0.1107;1.3480;
6.0000;0.1180;1.3693;
6.3000;0.1123;1.3622;
6.6000;0.1164;1.3763;
6.9000;0.1197;1.3905;
7.2000;0.1164;1.3763;
7.5000;0.1180;1.3810;
7.8000;0.1156;1.3740;
8.1000;0.1156;1.3716;
8.4000;0.1115;1.3693;
8.7000;0.1107;1.3716;
9.0000;0.1172;1.3810;
9.3000;0.1164;1.3693;
9.6000;0.1148;1.3622;
9.9000;0.1164;1.3645;
10.2000;0.1156;1.3669;
10.5000;0.1197;1.3740;
10.8000;0.1188;1.3669;
11.1000;0.1172;1.3645;
11.4000;0.1180;1.3810;
11.7000;0.1156;1.3740;
12.0000;0.1172;1.3787;
12.3000;0.1123;1.3622;
12.6000;0.1188;1.3810;
12.9000;0.1140;1.3669;
13.2000;0.1148;1.3716;
13.5000;0.1302;1.4070;
13.8000;0.1172;1.3645;
14.1000;0.1188;1.3669;
14.4000;0.1245;1.3858;
14.7000;0.1131;1.3528;
15.0000;0.1164;1.3693;
15.3000;0.1164;1.3669;
15.6000;0.1197;1.3716;
15.9000;0.1156;1.3622;
16.2000;0.1180;1.3810;
16.5000;0.1180;1.3787;
16.8000;0.1164;1.3669;
17.1000;0.1156;1.3598;
17.4000;0.1123;1.3575;
17.7000;0.1148;1.3740;
18.0000;0.1148;1.3740;
18.3000;0.1172;1.3810;
18.6000;0.1172;1.3787;
18.9000;0.1099;1.3598;
19.2000;0.1172;1.3763;
19.5000;0.1164;1.3740;
19.8000;0.1172;1.3716;
20.1000;0.1140;1.3669;
20.4000;0.1221;1.3999;
20.7000;0.1205;1.3952;
21.0000;0.1180;1.3905;
21.3000;0.1148;1.3905;
21.6000;0.1188;1.3975;
21.9000;0.1172;1.3928;
22.2000;0.1156;1.3858;
22.5000;0.1172;1.3881;
22.8000;0.1107;1.3693;
23.1000;0.1156;1.3740;
23.4000;0.1172;1.3810;
23.7000;0.1140;1.3645;
24.0000;0.1229;1.3858;
24.3000;0.1197;1.3787;
24.6000;0.1099;1.3528;
24.9000;0.1197;1.3716;
25.2000;0.1172;1.3669;
25.5000;0.1164;1.3645;
25.8000;0.1164;1.3598;
26.1000;0.1164;1.3504;
26.4000;0.1115;1.3433;
26.7000;0.1188;1.3669;
27.0000;0.1156;1.3622;
27.3000;0.1164;1.3740;
27.6000;0.1197;1.3787;
27.9000;0.1205;1.3740;
28.2000;0.1156;1.3693;
28.5000;0.1205;1.3858;
28.8000;0.1164;1.3740;
29.1000;0.1229;1.3952;
29.4000;0.1197;1.3763;
29.7000;0.1115;1.3622;
30.0000;0.1205;1.3810;
30.3000;0.1148;1.3740;
30.6000;0.1180;1.3858;
30.9000;0.1245;1.4140;
31.2000;0.1164;1.3881;
31.5000;0.1172;1.3834;
31.8000;0.1115;1.3622;
32.1000;0.1164;1.3787;
32.4000;0.1156;1.3810;
32.7000;0.1156;1.3834;
33.0000;0.1156;1.3834;
33.3000;0.1172;1.3905;
33.6000;0.1140;1.3928;
33.9000;0.1197;1.4046;
34.2000;0.1164;1.3928;
34.5000;0.1180;1.3952;
34.8000;0.1156;1.3810;
35.1000;0.1172;1.3810;
35.4000;0.1115;1.3622;
35.7000;0.1180;1.3810;
36.0000;0.1164;1.3716;
36.3000;0.1172;1.3787;
36.6000;0.1164;1.3858;
36.9000;0.1148;1.3810;
37.2000;0.1172;1.3763;
37.5000;0.1131;1.3645;
37.8000;0.1205;1.3810;
38.1000;0.1148;1.3693;
38.4000;0.1164;1.3716;
38.7000;0.1197;1.3763;
39.0000;0.1156;1.3622;
39.3000;0.1188;1.3740;
39.6000;0.1180;1.3763;
39.9000;0.1180;1.3763;
40.2000;0.1172;1.3693;
40.5000;0.1188;1.3763;
40.8000;0.1156;1.3740;
41.1000;0.1197;1.3881;
41.4000;0.1164;1.3810;
41.7000;0.1156;1.3810;
42.0000;0.1164;1.3740;
42.3000;0.1148;1.3622;
42.6000;0.1180;1.3763;
42.9000;0.1099;1.3575;
43.2000;0.1164;1.3693;
43.5000;0.1156;1.3693;
43.8000;0.1099;1.3504;
44.1000;0.1156;1.3693;
44.4000;0.1172;1.3763;
44.7000;0.1180;1.3763;
45.0000;0.1140;1.3763;
45.3000;0.1197;1.3740;
45.6000;0.1091;1.3504;
45.9000;0.1180;1.3645;
46.2000;0.1237;1.3858;
46.5000;0.1172;1.3716;
46.8000;0.1164;1.3622;
47.1000;0.1213;1.3834;
47.4000;0.1172;1.3787;
47.7000;0.1188;1.3763;
48.0000;0.1164;1.3787;
48.3000;0.1148;1.3810;
48.6000;0.1197;1.3905;
48.9000;0.1140;1.3763;
49.2000;0.1131;1.3740;
49.5000;0.1107;1.3716;
49.8000;0.1180;1.3905;
50.1000;0.1205;1.3952;
50.4000;0.1180;1.3952;
50.7000;0.1213;1.3975;
51.0000;0.1180;1.3905;
51.3000;0.1156;1.3905;
51.6000;0.1140;1.3881;
51.9000;0.1172;1.3952;
52.2000;0.1058;1.3645;
52.5000;0.1123;1.3763;
52.8000;0.1148;1.3834;
53.1000;0.1164;1.3881;
53.4000;0.1099;1.3740;
53.7000;0.1180;1.3975;
54.0000;0.1180;1.3999;
54.3000;0.1172;1.3999;
54.6000;0.1156;1.3858;
54.9000;0.1164;1.3858;
55.2000;0.1172;1.3810;
55.5000;0.1140;1.3693;
55.8000;0.1180;1.3834;
56.1000;0.1164;1.3881;
56.4000;0.1172;1.3905;
56.7000;0.1164;1.3763;
57.0000;0.1213;1.3834;
57.3000;0.1107;1.3669;
57.6000;0.1172;1.3716;
57.9000;0.1172;1.3669;
58.2000;0.1197;1.3740;
58.5000;0.1270;1.3952;
58.8000;0.1205;1.3787;
59.1000;0.1164;1.3740;
59.4000;0.1180;1.3881;
59.7000;0.1099;1.3693;
60.0000;0.1164;1.3952;
60.3000;0.1107;1.3763;
60.6000;0.1148;1.3787;
60.9000;0.1197;1.3881;
61.2000;0.1164;1.3834;
61.5000;0.1148;1.3787;
61.8000;0.1140;1.3787;
62.1000;0.1156;1.3763;
62.4000;0.1180;1.3763;
62.7000;0.1164;1.3787;
63.0000;0.1188;1.3881;
63.3000;0.1164;1.3763;
63.6000;0.1164;1.3787;
63.9000;0.1164;1.3740;
64.2000;0.1180;1.3716;
64.5000;0.1123;1.3528;
64.8000;0.1156;1.3598;
65.1000;0.1180;1.3645;
65.4000;0.1172;1.3763;
65.7000;0.1172;1.3810;
66.0000;0.1164;1.3693;
66.3000;0.1188;1.3693;
66.6000;0.1245;1.3810;
66.9000;0.1074;1.3339;
67.2000;0.1164;1.3598;
67.5000;0.1148;1.3645;
67.8000;0.1148;1.3716;
68.1000;0.1148;1.3716;
68.4000;0.1180;1.3787;
68.7000;0.1148;1.3787;
69.0000;0.1123;1.3669;
69.3000;0.1156;1.3834;
69.6000;0.1164;1.3834;
69.9000;0.1156;1.3810;
70.2000;0.1131;1.3740;
70.5000;0.1156;1.3858;
70.8000;0.1164;1.3810;
71.1000;0.1115;1.3598;
71.4000;0.1180;1.3693;
71.7000;0.1164;1.3645;
72.0000;0.1180;1.3645;
72.3000;0.1180;1.3716;
72.6000;0.1205;1.3763;
72.9000;0.1172;1.3598;
73.2000;0.1115;1.3457;
73.5000;0.1156;1.3645;
73.8000;0.1180;1.3740;
74.1000;0.1164;1.3787;
74.4000;0.1188;1.3905;
74.7000;0.1172;1.3905;
75.0000;0.1197;1.3928;
75.3000;0.1148;1.3834;
75.6000;0.1164;1.3787;
75.9000;0.1180;1.3834;
76.2000;0.1197;1.3787;
76.5000;0.1221;1.3952;
76.8000;0.1180;1.3905;
77.1000;0.1164;1.3881;
77.4000;0.1115;1.3787;
77.7000;0.1197;1.3952;
78.0000;0.1123;1.3763;
78.3000;0.1180;1.3881;
78.6000;0.1148;1.3834;
78.9000;0.1156;1.3810;
79.2000;0.1156;1.3834;
79.5000;0.1172;1.3858;
79.8000;0.1131;1.3834;
80.1000;0.1172;1.3905;
80.4000;0.1197;1.3905;
80.7000;0.1172;1.3787;
81.0000;0.1172;1.3834;
81.3000;0.1180;1.3881;
81.6000;0.1123;1.3693;
81.9000;0.1180;1.3763;
82.2000;0.1172;1.3716;
82.5000;0.1131;1.3693;
82.8000;0.1164;1.3787;
83.1000;0.1180;1.3763;
83.4000;0.1148;1.3740;
83.7000;0.1107;1.3622;
84.0000;0.1188;1.3787;
84.3000;0.1164;1.3740;
84.6000;0.1188;1.3669;
84.9000;0.1156;1.3575;
85.2000;0.1188;1.3716;
85.5000;0.1254;1.3858;
85.8000;0.1156;1.3693;
86.1000;0.1164;1.3622;
86.4000;0.1164;1.3693;
86.7000;0.1164;1.3763;
87.0000;0.1172;1.3763;
87.3000;0.1107;1.3598;
87.6000;0.1180;1.3834;
87.9000;0.1213;1.3787;
88.2000;0.1156;1.3645;
88.5000;0.1148;1.3669;
88.8000;0.1156;1.3834;
89.1000;0.1148;1.3787;
89.4000;0.1164;1.3834;
89.7000;0.1156;1.3740;
90.0000;0.1205;1.3810;
90.3000;0.1172;1.3810;
90.6000;0.1197;1.3834;
90.9000;0.1188;1.3834;
91.2000;0.1156;1.3787;
91.5000;0.1197;1.3787;
91.8000;0.1164;1.3669;
92.1000;0.1123;1.3480;
92.4000;0.1050;1.3315;
92.7000;0.1140;1.3528;
93.0000;0.1172;1.3551;
93.3000;0.1180;1.3528;
93.6000;0.1148;1.3433;
93.9000;0.1172;1.3457;
94.2000;0.1140;1.3386;
94.5000;0.1205;1.3528;
94.8000;0.1156;1.3433;
95.1000;0.1156;1.3457;
95.4000;0.1156;1.3528;
95.7000;0.1172;1.3575;
96.0000;0.1180;1.3716;
96.3000;0.1164;1.3740;
96.6000;0.1172;1.3740;
96.9000;0.1180;1.3716;
97.2000;0.1180;1.3740;
97.5000;0.1205;1.3763;
97.8000;0.1172;1.3693;
98.1000;0.1180;1.3669;
98.4000;0.1107;1.3528;
98.7000;0.1156;1.3693;
99.0000;0.1172;1.3740;
99.3000;0.1172;1.3716;
99.6000;0.1188;1.3740;
99.9000;0.1245;1.3810;
100.2000;0.1180;1.3716;
100.5000;0.1229;1.3858;
100.8000;0.1156;1.3763;
101.1000;0.1197;1.3858;
101.4000;0.1156;1.3622;
101.7000;0.1180;1.3693;
102.0000;0.1107;1.3504;
102.3000;0.1164;1.3716;
102.6000;0.1156;1.3716;
102.9000;0.1164;1.3740;
103.2000;0.1270;1.4046;
103.5000;0.1156;1.3858;
103.8000;0.1123;1.3810;
104.1000;0.1164;1.3881;
104.4000;0.1115;1.3645;
104.7000;0.1156;1.3740;
105.0000;0.1148;1.3740;
105.3000;0.1302;1.4046;
105.6000;0.1172;1.3763;
105.9000;0.1197;1.3763;
106.2000;0.1164;1.3787;
106.5000;0.1172;1.3787;
106.8000;0.1188;1.3810;
107.1000;0.1197;1.3810;
107.4000;0.1164;1.3834;
107.7000;0.1164;1.3787;
108.0000;0.1156;1.3787;
108.3000;0.1140;1.3763;
108.6000;0.1164;1.3881;
108.9000;0.1156;1.3834;
109.2000;0.1156;1.3810;
109.5000;0.1172;1.3763;
109.8000;0.1148;1.3716;
110.1000;0.1148;1.3693;
110.4000;0.1156;1.3693;
110.7000;0.1205;1.3763;
111.0000;0.1172;1.3669;
111.3000;0.1164;1.3622;
111.6000;0.1205;1.3716;
111.9000;0.1172;1.3716;
112.2000;0.1172;1.3740;
112.5000;0.1172;1.3716;
112.8000;0.1156;1.3622;
113.1000;0.1156;1.3575;
113.4000;0.1205;1.3693;
113.7000;0.1156;1.3528;
114.0000;0.1180;1.3575;
114.3000;0.1172;1.3622;
114.6000;0.1115;1.3457;
114.9000;0.1156;1.3645;
115.2000;0.1123;1.3575;
115.5000;0.1172;1.3669;
115.8000;0.1262;1.3881;
116.1000;0.1188;1.3740;
116.4000;0.1156;1.3693;
116.7000;0.1172;1.3693;
117.0000;0.1180;1.3763;
117.3000;0.1172;1.3740;
117.6000;0.1148;1.3669;
117.9000;0.1148;1.3693;
118.2000;0.1172;1.3763;
118.5000;0.1164;1.3716;
118.8000;0.1237;1.3952;
119.1000;0.1131;1.3598;
119.4000;0.1237;1.3834;
119.7000;0.1164;1.3598;
120.0000;0.1156;1.3598;
120.3000;0.1245;1.3716;
120.6000;0.1237;1.3622;
120.9000;0.1164;1.3457;
121.2000;0.1156;1.3480;
121.5000;0.1221;1.3622;
121.8000;0.1188;1.3598;
122.1000;0.1172;1.3693;
122.4000;0.1188;1.3810;
122.7000;0.1164;1.3763;
123.0000;0.1099;1.3528;
123.3000;0.1148;1.3716;
123.6000;0.1172;1.3810;
123.9000;0.1164;1.3787;
124.2000;0.1229;1.3999;
124.5000;0.1197;1.3905;
124.8000;0.1188;1.3858;
125.1000;0.1148;1.3834;
125.4000;0.1180;1.3881;
125.7000;0.1172;1.3881;
126.0000;0.1156;1.3787;
126.3000;0.1213;1.3858;
126.6000;0.1172;1.3716;
126.9000;0.1148;1.3693;
127.2000;0.1156;1.3787;
127.5000;0.1156;1.3740;
127.8000;0.1172;1.3834;
128.1000;0.1140;1.3740;
128.4000;0.1140;1.3693;
128.7000;0.1148;1.3787;
129.0000;0.1164;1.3740;
129.3000;0.1131;1.3622;
129.6000;0.1164;1.3575;
129.9000;0.1107;1.3433;
130.2000;0.1180;1.3504;
130.5000;0.1131;1.3339;
130.8000;0.1148;1.3433;
131.1000;0.1131;1.3528;
131.4000;0.1115;1.3551;
131.7000;0.1172;1.3787;
132.0000;0.1188;1.3787;
132.3000;0.1188;1.3763;
132.6000;0.1172;1.3810;
132.9000;0.1140;1.3763;
133.2000;0.1311;1.4282;
133.5000;0.1197;1.3881;
133.8000;0.1172;1.3740;
134.1000;0.1180;1.3693;
134.4000;0.1164;1.3693;
134.7000;0.1180;1.3693;
135.0000;0.1188;1.3551;
135.3000;0.1221;1.3551;
135.6000;0.1164;1.3457;
135.9000;0.1148;1.3480;
136.2000;0.1180;1.3598;
136.5000;0.1164;1.3575;
136.8000;0.1180;1.3575;
137.1000;0.1180;1.3598;
137.4000;0.1156;1.3622;
137.7000;0.1115;1.3528;
138.0000;0.1066;1.3386;
138.3000;0.1172;1.3598;
138.6000;0.1172;1.3716;
138.9000;0.1262;1.3952;
139.2000;0.1083;1.3433;
139.5000;0.1180;1.3598;
139.8000;0.1156;1.3551;
140.1000;0.1172;1.3598;
140.4000;0.1302;1.3905;
140.7000;0.1115;1.3363;
141.0000;0.1164;1.3433;
141.3000;0.1148;1.3410;
141.6000;0.1180;1.3480;
141.9000;0.1172;1.3480;
142.2000;0.1188;1.3575;
142.5000;0.1091;1.3339;
142.8000;0.1213;1.3622;
143.1000;0.1197;1.3622;
143.4000;0.1164;1.3480;
143.7000;0.1148;1.3433;
144.0000;0.1148;1.3410;
144.3000;0.1254;1.3669;
144.6000;0.1172;1.3433;
144.9000;0.1164;1.3457;
145.2000;0.1148;1.3480;
145.5000;0.1172;1.3504;
145.8000;0.1164;1.3480;
146.1000;0.1083;1.3292;
146.4000;0.1180;1.3551;
146.7000;0.1164;1.3504;
147.0000;0.1156;1.3551;
147.3000;0.1180;1.3622;
147.6000;0.1221;1.3645;
147.9000;0.1172;1.3480;
148.2000;0.1164;1.3480;
148.5000;0.1172;1.3528;
148.8000;0.1156;1.3528;
149.1000;0.1188;1.3504;
149.4000;0.1042;1.3127;
149.7000;0.1107;1.3363;
150.0000;0.1172;1.3504;
150.3000;0.1188;1.3575;
150.6000;0.1180;1.3551;
150.9000;0.1131;1.3457;
151.2000;0.1172;1.3645;
151.5000;0.1156;1.3669;
151.8000;0.1156;1.3645;
152.1000;0.1172;1.3716;
152.4000;0.1115;1.3504;
152.7000;0.1156;1.3645;
153.0000;0.1180;1.3645;
153.3000;0.1156;1.3598;
153.6000;0.1172;1.3693;
153.9000;0.1131;1.3551;
154.2000;0.1172;1.3763;
154.5000;0.1099;1.3480;
154.8000;0.1140;1.3528;
155.1000;0.1180;1.3598;
155.4000;0.1172;1.3669;
155.7000;0.1180;1.3763;
156.0000;0.1164;1.3740;
156.3000;0.1140;1.3645;
156.6000;0.1213;1.3834;
156.9000;0.1262;1.3999;
157.2000;0.1156;1.3693;
157.5000;0.1156;1.3740;
157.8000;0.1188;1.3763;
158.1000;0.1164;1.3693;
158.4000;0.1156;1.3693;
158.7000;0.1188;1.3787;
159.0000;0.1156;1.3716;
159.3000;0.1164;1.3622;
159.6000;0.1140;1.3504;
159.9000;0.1123;1.3504;
160.2000;0.1180;1.3693;
160.5000;0.1164;1.3763;
160.8000;0.1180;1.3810;
161.1000;0.1164;1.3834;
161.4000;0.1188;1.3905;
161.7000;0.1188;1.3905;
162.0000;0.1131;1.3740;
162.3000;0.1172;1.3858;
162.6000;0.1180;1.3787;
162.9000;0.1213;1.3975;
163.2000;0.1172;1.3881;
163.5000;0.1164;1.3810;
163.8000;0.1188;1.3905;
164.1000;0.1188;1.3881;
164.4000;0.1197;1.3858;
164.7000;0.1156;1.3810;
165.0000;0.1164;1.3763;
165.3000;0.1156;1.3716;
165.6000;0.1156;1.3763;
165.9000;0.1180;1.3763;
166.2000;0.1164;1.3716;
166.5000;0.1180;1.3693;
166.8000;0.1180;1.3740;
167.1000;0.1172;1.3787;
167.4000;0.1164;1.3787;
167.7000;0.1172;1.3834;
168.0000;0.1156;1.3834;
168.3000;0.1164;1.3834;
168.6000;0.1164;1.3693;
168.9000;0.1107;1.3528;
169.2000;0.1156;1.3693;
169.5000;0.1188;1.3740;
169.8000;0.1140;1.3598;
170.1000;0.1164;1.3716;
170.4000;0.1180;1.3858;
170.7000;0.1156;1.3763;
171.0000;0.1164;1.3787;
171.3000;0.1188;1.3834;
171.6000;0.1188;1.3858;
171.9000;0.1164;1.3787;
172.2000;0.1180;1.3810;
172.5000;0.1123;1.3669;
172.8000;0.1164;1.3740;
173.1000;0.1164;1.3693;
173.4000;0.1172;1.3693;
173.7000;0.1156;1.3645;
174.0000;0.1164;1.3622;
174.3000;0.1180;1.3622;
174.6000;0.1074;1.3410;
174.9000;0.1131;1.3504;
175.2000;0.1156;1.3504;
175.5000;0.1172;1.3575;
175.8000;0.1180;1.3575;
176.1000;0.1172;1.3410;
176.4000;0.1172;1.3433;
176.7000;0.1148;1.3433;
177.0000;0.1180;1.3528;
177.3000;0.1172;1.3575;
177.6000;0.1099;1.3480;
177.9000;0.1091;1.3575;
178.2000;0.1123;1.3669;
178.5000;0.1245;1.3952;
178.8000;0.1164;1.3763;
179.1000;0.1172;1.3716;
179.4000;0.1148;1.3787;
179.7000;0.1156;1.3810;
180.0000;0.1123;1.3787;
180.3000;0.1319;1.4211;
180.6000;0.1115;1.3669;
180.9000;0.1156;1.3834;
181.2000;0.1164;1.3810;
181.5000;0.1148;1.3787;
181.8000;0.1172;1.3928;
182.1000;0.1180;1.4022;
182.4000;0.1164;1.4046;
182.7000;0.1164;1.4070;
183.0000;0.1180;1.4046;
183.3000;0.1180;1.4070;
183.6000;0.1180;1.4046;
183.9000;0.1091;1.3740;
184.2000;0.1140;1.3905;
184.5000;0.1172;1.3952;
184.8000;0.1172;1.3834;
185.1000;0.1164;1.3810;
185.4000;0.1156;1.3858;
185.7000;0.1164;1.3787;
186.0000;0.1188;1.3928;
186.3000;0.1164;1.3834;
186.6000;0.1099;1.3598;
186.9000;0.1164;1.3740;
187.2000;0.1172;1.3645;
187.5000;0.1140;1.3669;
187.8000;0.1180;1.3810;
188.1000;0.1180;1.3740;
188.4000;0.1156;1.3693;
188.7000;0.1164;1.3740;
189.0000;0.1131;1.3575;
189.3000;0.1172;1.3716;
189.6000;0.1172;1.3787;
189.9000;0.1180;1.3787;
190.2000;0.1180;1.3810;
190.5000;0.1140;1.3740;
190.8000;0.1164;1.3763;
191.1000;0.1156;1.3669;
191.4000;0.1172;1.3763;
191.7000;0.1148;1.3787;
192.0000;0.1164;1.3834;
192.3000;0.1205;1.3928;
192.6000;0.1156;1.3881;
192.9000;0.1156;1.3763;
193.2000;0.1164;1.3716;
193.5000;0.1156;1.3669;
193.8000;0.1148;1.3622;
194.1000;0.1172;1.3598;
194.4000;0.1180;1.3740;
194.7000;0.1156;1.3528;
195.0000;0.1180;1.3598;
195.3000;0.1172;1.3669;
195.6000;0.1164;1.3645;
195.9000;0.1172;1.3669;
196.2000;0.1188;1.3740;
196.5000;0.1123;1.3575;
196.8000;0.1172;1.3716;
197.1000;0.1197;1.3834;
197.4000;0.1172;1.3810;
197.7000;0.1140;1.3787;
198.0000;0.1237;1.3975;
198.3000;0.1148;1.3716;
198.6000;0.1115;1.3645;
198.9000;0.1123;1.3598;
199.2000;0.1180;1.3716;
199.5000;0.1148;1.3716;
199.8000;0.1099;1.3669;
200.1000;0.1091;1.3693;
200.4000;0.1205;1.3975;
200.7000;0.1164;1.3858;
201.0000;0.1180;1.3834;
201.3000;0.1180;1.3928;
201.6000;0.1172;1.3928;
201.9000;0.1148;1.3928;
202.2000;0.1156;1.3952;
202.5000;0.1294;1.4282;
202.8000;0.1164;1.3881;
203.1000;0.1148;1.3787;
203.4000;0.1164;1.3905;
203.7000;0.1172;1.3905;
204.0000;0.1213;1.3905;
204.3000;0.1091;1.3457;
204.6000;0.1115;1.3504;
204.9000;0.1205;1.3810;
205.2000;0.1156;1.3693;
205.5000;0.1205;1.3834;
205.8000;0.1164;1.3645;
206.1000;0.1156;1.3622;
206.4000;0.1197;1.3716;
206.7000;0.1164;1.3669;
207.0000;0.1156;1.3669;
207.3000;0.1156;1.3787;
207.6000;0.1172;1.3810;
207.9000;0.1156;1.3740;
208.2000;0.1164;1.3787;
208.5000;0.1180;1.3881;
208.8000;0.1140;1.3740;
209.1000;0.1091;1.3480;
209.4000;0.1164;1.3622;
209.7000;0.1148;1.3645;
210.0000;0.1140;1.3693;
210.3000;0.1180;1.3763;
210.6000;0.1156;1.3740;
210.9000;0.1164;1.3693;
211.2000;0.1164;1.3763;
211.5000;0.1172;1.3858;
211.8000;0.1164;1.3740;
212.1000;0.1188;1.3740;
212.4000;0.1123;1.3551;
212.7000;0.1172;1.3740;
213.0000;0.1156;1.3810;
213.3000;0.1156;1.3763;
213.6000;0.1213;1.3905;
213.9000;0.1156;1.3763;
214.2000;0.1205;1.3834;
214.5000;0.1278;1.4140;
214.8000;0.1164;1.3787;
215.1000;0.1164;1.3834;
215.4000;0.1148;1.3716;
215.7000;0.1164;1.3740;
216.0000;0.1091;1.3575;
216.3000;0.1156;1.3716;
216.6000;0.1188;1.3787;
216.9000;0.1270;1.3952;
217.2000;0.1172;1.3645;
217.5000;0.1172;1.3669;
217.8000;0.1221;1.3834;
218.1000;0.1099;1.3575;
218.4000;0.1164;1.3645;
218.7000;0.1172;1.3575;
219.0000;0.1180;1.3622;
219.3000;0.1188;1.3669;
219.6000;0.1180;1.3598;
219.9000;0.1164;1.3504;
220.2000;0.1172;1.3598;
220.5000;0.1099;1.3551;
220.8000;0.1188;1.3669;
221.1000;0.1148;1.3504;
221.4000;0.1156;1.3551;
221.7000;0.1180;1.3598;
222.0000;0.1148;1.3457;
222.3000;0.1164;1.3551;
222.6000;0.1164;1.3622;
222.9000;0.1164;1.3551;
223.2000;0.1140;1.3528;
223.5000;0.1156;1.3622;
223.8000;0.1164;1.3598;
224.1000;0.1188;1.3575;
224.4000;0.1164;1.3645;
224.7000;0.1148;1.3622;
225.0000;0.1115;1.3457;
225.3000;0.1156;1.3622;
225.6000;0.1172;1.3740;
225.9000;0.1148;1.3716;
226.2000;0.1172;1.3740;
226.5000;0.1164;1.3763;
226.8000;0.1156;1.3716;
227.1000;0.1172;1.3763;
227.4000;0.1205;1.3881;
227.7000;0.1180;1.3881;
228.0000;0.1172;1.3858;
228.3000;0.1034;1.3457;
228.6000;0.1140;1.3763;
228.9000;0.1123;1.3834;
229.2000;0.1172;1.3952;
229.5000;0.1172;1.3928;
229.8000;0.1197;1.3905;
230.1000;0.1131;1.3810;
230.4000;0.1172;1.3881;
230.7000;0.1302;1.4070;
231.0000;0.1156;1.3740;
231.3000;0.1188;1.3763;
231.6000;0.1156;1.3693;
231.9000;0.1156;1.3763;
232.2000;0.1180;1.3834;
232.5000;0.1172;1.3763;
232.8000;0.1188;1.3740;
233.1000;0.1180;1.3858;
233.4000;0.1172;1.3810;
233.7000;0.1148;1.3810;
234.0000;0.1140;1.3740;
234.3000;0.1188;1.3834;
234.6000;0.1172;1.3740;
234.9000;0.1180;1.3716;
235.2000;0.1156;1.3693;
235.5000;0.1140;1.3645;
235.8000;0.1180;1.3834;
236.1000;0.1156;1.3763;
236.4000;0.1156;1.3834;
236.7000;0.1188;1.4046;
237.0000;0.1164;1.3905;
237.3000;0.1156;1.3810;
237.6000;0.1188;1.3905;
237.9000;0.1172;1.3905;
238.2000;0.1188;1.3834;
238.5000;0.1156;1.3693;
238.8000;0.1164;1.3669;
239.1000;0.1172;1.3740;
239.4000;0.1180;1.3810;
239.7000;0.1164;1.3740;
240.0000;0.1050;1.3433;
240.3000;0.1156;1.3810;
240.6000;0.1180;1.3787;
240.9000;0.1172;1.3716;
241.2000;0.1188;1.3716;
241.5000;0.1245;1.3858;
241.8000;0.1180;1.3716;
242.1000;0.1164;1.3622;
242.4000;0.1205;1.3716;
242.7000;0.1164;1.3645;
243.0000;0.1172;1.3669;
243.3000;0.1245;1.3928;
243.6000;0.1156;1.3716;
243.9000;0.1140;1.3669;
244.2000;0.1188;1.3834;
244.5000;0.1180;1.3881;
244.8000;0.1180;1.3858;
245.1000;0.1164;1.3905;
245.4000;0.1148;1.3905;
245.7000;0.1197;1.3999;
246.0000;0.1156;1.3928;
246.3000;0.1164;1.3975;
246.6000;0.1148;1.3928;
246.9000;0.1180;1.3881;
247.2000;0.1180;1.3905;
247.5000;0.1172;1.3881;
247.8000;0.1156;1.3881;
248.1000;0.1172;1.3905;
248.4000;0.1164;1.3834;
248.7000;0.1213;1.3928;
249.0000;0.1172;1.3763;
249.3000;0.1188;1.3810;
249.6000;0.1164;1.3763;
249.9000;0.1164;1.3834;
250.2000;0.1188;1.3905;
250.5000;0.1156;1.3834;
250.8000;0.1180;1.3810;
251.1000;0.1188;1.3881;
251.4000;0.1156;1.3834;
251.7000;0.1156;1.3810;
252.0000;0.1148;1.3858;
252.3000;0.1172;1.3905;
252.6000;0.1172;1.3952;
252.9000;0.1164;1.3952;
253.2000;0.1294;1.4352;
253.5000;0.1172;1.3999;
253.8000;0.1140;1.3928;
254.1000;0.1123;1.3834;
254.4000;0.1140;1.3834;
254.7000;0.1107;1.3716;
255.0000;0.1091;1.3622;
255.3000;0.1123;1.3834;
255.6000;0.1148;1.3858;
255.9000;0.1172;1.3881;
256.2000;0.1156;1.3881;
256.5000;0.1156;1.3787;
256.8000;0.1188;1.3810;
257.1000;0.1172;1.3787;
257.4000;0.1172;1.3834;
257.7000;0.1229;1.4022;
258.0000;0.1188;1.3999;
258.3000;0.1180;1.3881;
258.6000;0.1164;1.3858;
258.9000;0.1140;1.3740;
259.2000;0.1140;1.3716;
259.5000;0.1115;1.3645;
259.8000;0.1172;1.3763;
260.1000;0.1172;1.3763;
260.4000;0.1164;1.3716;
260.7000;0.1172;1.3787;
261.0000;0.1188;1.3858;
261.3000;0.1140;1.3693;
261.6000;0.1148;1.3716;
261.9000;0.1164;1.3810;
262.2000;0.1180;1.3810;
262.5000;0.1091;1.3598;
262.8000;0.1180;1.3787;
263.1000;0.1197;1.3810;
263.4000;0.1197;1.3787;
263.7000;0.1156;1.3763;
264.0000;0.1188;1.3928;
264.3000;0.1172;1.3905;
264.6000;0.1180;1.3881;
264.9000;0.1188;1.3952;
265.2000;0.1156;1.3928;
265.5000;0.1172;1.3975;
265.8000;0.1148;1.3928;
266.1000;0.1131;1.3858;
266.4000;0.1148;1.3858;
266.7000;0.1140;1.3881;
267.0000;0.1172;1.3881;
267.3000;0.1164;1.3787;
267.6000;0.1197;1.3928;
267.9000;0.1164;1.3928;
268.2000;0.1229;1.4022;
268.5000;0.1164;1.3810;
268.8000;0.1156;1.3787;
269.1000;0.1148;1.3740;
269.4000;0.1164;1.3810;
269.7000;0.1164;1.3740;
270.0000;0.1180;1.3810;
270.3000;0.1205;1.3716;
270.6000;0.1180;1.3716;
270.9000;0.1115;1.3480;
271.2000;0.1180;1.3645;
271.5000;0.1205;1.3740;
271.8000;0.1164;1.3575;
272.1000;0.1188;1.3716;
272.4000;0.1156;1.3645;
272.7000;0.1197;1.3834;
273.0000;0.1156;1.3740;
273.3000;0.1237;1.3928;
273.6000;0.1164;1.3716;
273.9000;0.1180;1.3716;
274.2000;0.1205;1.3787;
274.5000;0.1140;1.3622;
274.8000;0.1180;1.3716;
275.1000;0.1131;1.3693;
275.4000;0.1164;1.3716;
275.7000;0.1156;1.3740;
276.0000;0.1188;1.3740;
276.3000;0.1205;1.3787;
276.6000;0.1180;1.3693;
276.9000;0.1197;1.3810;
277.2000;0.1131;1.3645;
277.5000;0.1156;1.3716;
277.8000;0.1262;1.3999;
278.1000;0.1099;1.3528;
278.4000;0.1115;1.3551;
278.7000;0.1164;1.3740;
279.0000;0.1156;1.3810;
279.3000;0.1156;1.3763;
279.6000;0.1156;1.3834;
279.9000;0.1131;1.3810;
280.2000;0.1164;1.3810;
280.5000;0.1066;1.3575;
280.8000;0.1148;1.3763;
281.1000;0.1148;1.3763;
281.4000;0.1115;1.3645;
281.7000;0.1164;1.3810;
282.0000;0.1140;1.3669;
282.3000;0.1197;1.3858;
282.6000;0.1148;1.3763;
282.9000;0.1140;1.3787;
283.2000;0.1156;1.3834;
283.5000;0.1262;1.4046;
283.8000;0.1164;1.3858;
284.1000;0.1156;1.3858;
284.4000;0.1172;1.3834;
284.7000;0.1180;1.3905;
285.0000;0.1164;1.3905;
285.3000;0.1164;1.3834;
285.6000;0.1164;1.3928;
285.9000;0.1164;1.3881;
286.2000;0.1156;1.3928;
286.5000;0.1172;1.3881;
286.8000;0.1148;1.3740;
287.1000;0.1172;1.3716;
287.4000;0.1156;1.3669;
287.7000;0.1188;1.3763;
288.0000;0.1180;1.3693;
288.3000;0.1205;1.3693;
288.6000;0.1099;1.3575;
288.9000;0.1188;1.3834;
289.2000;0.1188;1.3881;
289.5000;0.1172;1.3834;
289.8000;0.1156;1.3787;
290.1000;0.1156;1.3905;
290.4000;0.1172;1.3834;
290.7000;0.1123;1.3810;
291.0000;0.1140;1.3810;
291.3000;0.1131;1.3645;
291.6000;0.1156;1.3787;
291.9000;0.1131;1.3787;
292.2000;0.1164;1.3881;
292.5000;0.1156;1.3881;
292.8000;0.1180;1.3881;
293.1000;0.1156;1.3810;
293.4000;0.1164;1.3858;
293.7000;0.1221;1.4022;
294.0000;0.1180;1.3952;
294.3000;0.1180;1.3928;
294.6000;0.1180;1.3999;
294.9000;0.1213;1.4117;
295.2000;0.1294;1.4305;
295.5000;0.1148;1.3858;
295.8000;0.1115;1.3693;
296.1000;0.1172;1.3693;
296.4000;0.1188;1.3740;
296.7000;0.1156;1.3740;
297.0000;0.1148;1.3716;
297.3000;0.1156;1.3763;
297.6000;0.1164;1.3763;
297.9000;0.1180;1.3810;
298.2000;0.1156;1.3763;
298.5000;0.1164;1.3740;
298.8000;0.1164;1.3763;
299.1000;0.1164;1.3834;
299.4000;0.1197;1.3881;
299.7000;0.1164;1.3810;
300.0000;0.1180;1.3763;
300.3000;0.1156;1.3716;
300.6000;0.1188;1.3740;
300.9000;0.1197;1.3810;
301.2000;0.1180;1.3858;
301.5000;0.1205;1.3952;
301.8000;0.1286;1.4187;
302.1000;0.1197;1.3881;
302.4000;0.1156;1.3716;
302.7000;0.1156;1.3669;
303.0000;0.1164;1.3716;
303.3000;0.1123;1.3645;
303.6000;0.1188;1.3787;
303.9000;0.1148;1.3787;
304.2000;0.1164;1.3928;
304.5000;0.1221;1.4093;
304.8000;0.1229;1.4093;
305.1000;0.1148;1.3834;
305.4000;0.1140;1.3763;
305.7000;0.1140;1.3858;
306.0000;0.1156;1.3858;
306.3000;0.1131;1.3763;
306.6000;0.1180;1.3858;
306.9000;0.1148;1.3740;
307.2000;0.1164;1.3787;
307.5000;0.1091;1.3575;
307.8000;0.1156;1.3858;
308.1000;0.1302;1.4187;
308.4000;0.1148;1.3716;
308.7000;0.1164;1.3716;
309.0000;0.1156;1.3669;
309.3000;0.1180;1.3645;
309.6000;0.1245;1.3858;
309.9000;0.1180;1.3858;
310.2000;0.1164;1.3834;
310.5000;0.1164;1.3787;
310.8000;0.1172;1.3834;
311.1000;0.1156;1.3881;
311.4000;0.1197;1.3999;
311.7000;0.1148;1.3905;
312.0000;0.1148;1.3881;
312.3000;0.1156;1.3881;
312.6000;0.1099;1.3693;
312.9000;0.1156;1.3810;
313.2000;0.1205;1.3975;
313.5000;0.1172;1.3999;
313.8000;0.1180;1.3952;
314.1000;0.1172;1.3999;
314.4000;0.1180;1.3952;
314.7000;0.1180;1.3905;
315.0000;0.1164;1.3858;
315.3000;0.1156;1.3834;
315.6000;0.1262;1.4070;
315.9000;0.1066;1.3504;
316.2000;0.1172;1.3834;
316.5000;0.1172;1.3763;
316.8000;0.1245;1.3881;
317.1000;0.1164;1.3645;
317.4000;0.1197;1.3740;
317.7000;0.1156;1.3622;
318.0000;0.1188;1.3858;
318.3000;0.1164;1.3905;
318.6000;0.1197;1.3999;
318.9000;0.1172;1.3858;
319.2000;0.1164;1.3905;
319.5000;0.1197;1.3928;
319.8000;0.1123;1.3693;
320.1000;0.1164;1.3716;
320.4000;0.1197;1.3834;
320.7000;0.1164;1.3763;
321.0000;0.1172;1.3881;
321.3000;0.1164;1.3881;
321.6000;0.1164;1.4046;
321.9000;0.1156;1.3975;
322.2000;0.1180;1.3881;
322.5000;0.1164;1.3952;
322.8000;0.1180;1.4093;
323.1000;0.1156;1.3928;
323.4000;0.1172;1.3952;
323.7000;0.1188;1.3881;
324.0000;0.1237;1.3999;
324.3000;0.1197;1.3952;
324.6000;0.1172;1.3905;
324.9000;0.1164;1.3928;
325.2000;0.1164;1.3999;
325.5000;0.1164;1.4022;
325.8000;0.1115;1.3858;
326.1000;0.1164;1.3975;
326.4000;0.1140;1.3928;
326.7000;0.1164;1.3928;
327.0000;0.1172;1.3975;
327.3000;0.1107;1.3834;
327.6000;0.1172;1.3999;
327.9000;0.1156;1.3975;
328.2000;0.1172;1.4022;
328.5000;0.1188;1.3952;
328.8000;0.1172;1.3952;
329.1000;0.1156;1.3975;
329.4000;0.1172;1.4070;
329.7000;0.1221;1.4093;
330.0000;0.1148;1.4046;
330.3000;0.1213;1.4187;
330.6000;0.1205;1.4070;
330.9000;0.1156;1.4022;
331.2000;0.1164;1.4022;
331.5000;0.1148;1.4022;
331.8000;0.1172;1.3928;
332.1000;0.1180;1.4070;
332.4000;0.1164;1.4070;
332.7000;0.1164;1.4140;
333.0000;0.1156;1.4070;
333.3000;0.1156;1.4070;
333.6000;0.1172;1.4070;
333.9000;0.1123;1.3905;
334.2000;0.1172;1.4046;
334.5000;0.1131;1.3975;
334.8000;0.1188;1.4187;
335.1000;0.1172;1.4117;
335.4000;0.1148;1.4022;
335.7000;0.1156;1.4046;
336.0000;0.1107;1.3905;
336.3000;0.1172;1.4046;
336.6000;0.1140;1.3928;
336.9000;0.1156;1.3881;
337.2000;0.1148;1.3858;
337.5000;0.1172;1.3905;
337.8000;0.1237;1.4164;
338.1000;0.1180;1.4022;
338.4000;0.1180;1.4022;
338.7000;0.1123;1.3905;
339.0000;0.1172;1.4046;
339.3000;0.1172;1.4070;
339.6000;0.1164;1.3999;
339.9000;0.1148;1.3928;
340.2000;0.1164;1.3999;
340.5000;0.1180;1.4070;
340.8000;0.1188;1.4093;
341.1000;0.1205;1.4022;
341.4000;0.1270;1.4187;
341.7000;0.1107;1.3810;
342.0000;0.1180;1.3975;
342.3000;0.1172;1.3975;
342.6000;0.1107;1.3834;
342.9000;0.1164;1.3999;
343.2000;0.1140;1.3928;
343.5000;0.1180;1.3975;
343.8000;0.1221;1.4093;
344.1000;0.1099;1.3787;
344.4000;0.1180;1.4022;
344.7000;0.1172;1.3975;
345.0000;0.1205;1.4117;
345.3000;0.1172;1.4046;
345.6000;0.1172;1.3952;
345.9000;0.1164;1.3928;
346.2000;0.1156;1.3834;
346.5000;0.1172;1.3810;
346.8000;0.1107;1.3575;
347.1000;0.1180;1.3810;
347.4000;0.1140;1.3787;
347.7000;0.1131;1.3716;
348.0000;0.1066;1.3528;
348.3000;0.1188;1.3858;
348.6000;0.1197;1.3858;
348.9000;0.1172;1.3763;
349.2000;0.1229;1.4022;
349.5000;0.1148;1.3858;
349.8000;0.1115;1.3834;
350.1000;0.1123;1.3834;
350.4000;0.1180;1.3975;
350.7000;0.1188;1.3881;
351.0000;0.1197;1.3905;
351.3000;0.1213;1.3881;
351.6000;0.1180;1.3716;
351.9000;0.1156;1.3645;
352.2000;0.1148;1.3669;
352.5000;0.1164;1.3716;
352.8000;0.1205;1.3858;
353.1000;0.1254;1.4070;
353.4000;0.1205;1.3952;
353.7000;0.1180;1.3881;
354.0000;0.1123;1.3716;
354.3000;0.1188;1.3763;
354.6000;0.1140;1.3693;
354.9000;0.1156;1.3810;
355.2000;0.1164;1.3858;
355.5000;0.1188;1.3905;
355.8000;0.1140;1.3787;
356.1000;0.1205;1.3952;
356.4000;0.1188;1.3952;
356.7000;0.1180;1.3881;
357.0000;0.1213;1.4046;
357.3000;0.1148;1.3834;
357.6000;0.1099;1.3669;
357.9000;0.1172;1.3858;
358.2000;0.1156;1.3834;
358.5000;0.1148;1.3834;
358.8000;0.1148;1.3928;
359.1000;0.1180;1.4046;
359.4000;0.1148;1.3975;
359.7000;0.1172;1.4046;
360.0000;0.1148;1.4046;
360.3000;0.1205;1.4211;
360.6000;0.1311;1.4376;
360.9000;0.1180;1.3905;
361.2000;0.1148;1.3881;
361.5000;0.1180;1.3999;
361.8000;0.1083;1.3881;
362.1000;0.1164;1.4164;
362.4000;0.1164;1.4140;
362.7000;0.1180;1.4093;
363.0000;0.1156;1.3952;
363.3000;0.1164;1.3858;
363.6000;0.1197;1.3881;
363.9000;0.1131;1.3810;
364.2000;0.1197;1.3999;
364.5000;0.1188;1.3999;
364.8000;0.1237;1.4187;
365.1000;0.1180;1.3999;
365.4000;0.1180;1.3952;
365.7000;0.1188;1.3928;
366.0000;0.1140;1.3810;
366.3000;0.1197;1.3952;
366.6000;0.1140;1.3858;
366.9000;0.1270;1.4305;
367.2000;0.1140;1.4022;
367.5000;0.1148;1.3999;
367.8000;0.1188;1.4117;
368.1000;0.1188;1.4164;
368.4000;0.1188;1.4046;
368.7000;0.1156;1.3928;
369.0000;0.1066;1.3763;
369.3000;0.1172;1.3975;
369.6000;0.1156;1.3928;
369.9000;0.1140;1.3881;
370.2000;0.1107;1.3834;
370.5000;0.1164;1.3905;
370.8000;0.1131;1.3905;
371.1000;0.1156;1.3810;
371.4000;0.1205;1.3975;
371.7000;0.1188;1.3999;
372.0000;0.1091;1.3693;
372.3000;0.1164;1.3834;
372.6000;0.1164;1.3834;
372.9000;0.1140;1.3810;
373.2000;0.1164;1.3834;
373.5000;0.1164;1.3810;
373.8000;0.1074;1.3622;
374.1000;0.1172;1.3763;
374.4000;0.1156;1.3740;
374.7000;0.1180;1.3787;
375.0000;0.1180;1.3810;
375.3000;0.1131;1.3693;
375.6000;0.1156;1.3834;
375.9000;0.1156;1.3763;
376.2000;0.1156;1.3763;
376.5000;0.1083;1.3622;
376.8000;0.1148;1.3787;
377.1000;0.1164;1.3881;
377.4000;0.1164;1.3858;
377.7000;0.1205;1.3952;
378.0000;0.1164;1.3810;
378.3000;0.1164;1.3810;
378.6000;0.1172;1.3763;
378.9000;0.1140;1.3716;
379.2000;0.1156;1.3740;
379.5000;0.1164;1.3763;
379.8000;0.1205;1.3858;
380.1000;0.1180;1.3858;
380.4000;0.1197;1.3928;
380.7000;0.1188;1.3858;
381.0000;0.1083;1.3669;
381.3000;0.1131;1.3834;
381.6000;0.1180;1.3952;
381.9000;0.1188;1.3952;
382.2000;0.1164;1.3905;
382.5000;0.1156;1.3928;
382.8000;0.1140;1.4046;
383.1000;0.1140;1.4093;
383.4000;0.1197;1.4235;
383.7000;0.1188;1.4211;
384.0000;0.1180;1.4164;
384.3000;0.1180;1.4140;
384.6000;0.1180;1.4140;
384.9000;0.1221;1.4211;
385.2000;0.1197;1.4093;
385.5000;0.1188;1.4070;
385.8000;0.1164;1.3999;
386.1000;0.1172;1.4093;
386.4000;0.1123;1.3928;
386.7000;0.1156;1.4046;
387.0000;0.1188;1.4022;
387.3000;0.1156;1.3975;
387.6000;0.1091;1.3834;
387.9000;0.1148;1.3999;
388.2000;0.1140;1.3905;
388.5000;0.1188;1.3999;
388.8000;0.1140;1.3952;
389.1000;0.1197;1.3975;
389.4000;0.1188;1.3975;
389.7000;0.1188;1.3975;
390.0000;0.1180;1.4022;
390.3000;0.1156;1.4022;
390.6000;0.1083;1.3858;
390.9000;0.1164;1.4046;
391.2000;0.1172;1.4046;
391.5000;0.1164;1.3928;
391.8000;0.1123;1.3810;
392.1000;0.1188;1.3975;
392.4000;0.1164;1.3905;
392.7000;0.1050;1.3645;
393.0000;0.1156;1.3834;
393.3000;0.1156;1.3905;
393.6000;0.1164;1.3999;
393.9000;0.1188;1.3999;
394.2000;0.1156;1.3834;
394.5000;0.1197;1.3952;
394.8000;0.1180;1.3928;
395.1000;0.1164;1.3905;
395.4000;0.1164;1.3810;
395.7000;0.1172;1.3787;
396.0000;0.1172;1.3763;
396.3000;0.1164;1.3693;
396.6000;0.1164;1.3693;
396.9000;0.1180;1.3740;
397.2000;0.1164;1.3693;
397.5000;0.1148;1.3622;
397.8000;0.1180;1.3693;
398.1000;0.1164;1.3669;
398.4000;0.1148;1.3693;
398.7000;0.1164;1.3834;
399.0000;0.1156;1.3858;
399.3000;0.1172;1.3928;
399.6000;0.1180;1.3952;
399.9000;0.1172;1.3975;
400.2000;0.1172;1.3999;
400.5000;0.1197;1.3975;
400.8000;0.1164;1.3952;
401.1000;0.1188;1.3905;
401.4000;0.1148;1.3928;
401.7000;0.1156;1.3999;
402.0000;0.1164;1.3999;
402.3000;0.1180;1.3999;
402.6000;0.1156;1.3905;
402.9000;0.1164;1.3881;
403.2000;0.1148;1.3928;
403.5000;0.1156;1.3975;
403.8000;0.1140;1.3975;
404.1000;0.1156;1.4046;
404.4000;0.1107;1.3905;
404.7000;0.1172;1.4022;
405.0000;0.1164;1.4070;
405.3000;0.1172;1.4022;
405.6000;0.1148;1.3952;
405.9000;0.1164;1.3905;
406.2000;0.1172;1.3928;
406.5000;0.1156;1.3952;
406.8000;0.1197;1.4117;
407.1000;0.1156;1.4022;
407.4000;0.1205;1.4046;
407.7000;0.1131;1.3928;
408.0000;0.1148;1.3999;
408.3000;0.1131;1.3975;
408.6000;0.1172;1.4070;
408.9000;0.1156;1.4046;
409.2000;0.1197;1.4093;
409.5000;0.1221;1.4187;
409.8000;0.1180;1.4093;
410.1000;0.1140;1.3975;
410.4000;0.1164;1.3999;
410.7000;0.1140;1.3928;
411.0000;0.1148;1.3928;
411.3000;0.1245;1.4140;
411.6000;0.1188;1.3881;
411.9000;0.1172;1.3858;
412.2000;0.1164;1.3858;
412.5000;0.1180;1.3858;
412.8000;0.1213;1.3999;
413.1000;0.1156;1.3834;
413.4000;0.1156;1.3763;
413.7000;0.1148;1.3763;
414.0000;0.1164;1.3787;
414.3000;0.1123;1.3669;
414.6000;0.1148;1.3787;
414.9000;0.1172;1.3787;
415.2000;0.1172;1.3834;
415.5000;0.1172;1.3810;
415.8000;0.1156;1.3787;
416.1000;0.1164;1.3787;
416.4000;0.1156;1.3763;
416.7000;0.1107;1.3740;
417.0000;0.1140;1.3834;
417.3000;0.1148;1.3834;
417.6000;0.1156;1.3952;
417.9000;0.1164;1.3952;
418.2000;0.1164;1.3928;
418.5000;0.1148;1.3834;
418.8000;0.1148;1.3881;
419.1000;0.1156;1.3858;
419.4000;0.1140;1.3905;
419.7000;0.1180;1.4022;
420.0000;0.1172;1.3881;
420.3000;0.1302;1.4211;
420.6000;0.1156;1.3810;
420.9000;0.1164;1.3763;
421.2000;0.1164;1.3693;
421.5000;0.1164;1.3669;
421.8000;0.1156;1.3740;
422.1000;0.1172;1.3716;
422.4000;0.1172;1.3716;
422.7000;0.1180;1.3693;
423.0000;0.1164;1.3740;
423.3000;0.1156;1.3787;
423.6000;0.1180;1.3858;
423.9000;0.1172;1.3905;
424.2000;0.1188;1.3952;
424.5000;0.1172;1.3905;
424.8000;0.1172;1.3928;
425.1000;0.1172;1.3928;
425.4000;0.1115;1.3645;
425.7000;0.1148;1.3763;
426.0000;0.1245;1.3952;
426.3000;0.1254;1.3999;
426.6000;0.1197;1.3952;
426.9000;0.1050;1.3622;
427.2000;0.1156;1.3905;
427.5000;0.1042;1.3575;
427.8000;0.1188;1.3881;
428.1000;0.1180;1.3952;
428.4000;0.1164;1.3905;
428.7000;0.1172;1.3952;
429.0000;0.1156;1.3881;
429.3000;0.1188;1.3881;
429.6000;0.1156;1.3858;
429.9000;0.1148;1.3834;
430.2000;0.1197;1.3905;
430.5000;0.1164;1.3928;
430.8000;0.1197;1.3975;
431.1000;0.1164;1.3881;
431.4000;0.1156;1.3834;
431.7000;0.1180;1.3881;
432.0000;0.1148;1.3787;
432.3000;0.1172;1.3787;
432.6000;0.1180;1.3834;
432.9000;0.1180;1.3928;
433.2000;0.1156;1.3858;
433.5000;0.1156;1.3810;
433.8000;0.1156;1.3810;
434.1000;0.1164;1.3787;
434.4000;0.1148;1.3763;
434.7000;0.1140;1.3622;
435.0000;0.1188;1.3810;
435.3000;0.1148;1.3693;
435.6000;0.1156;1.3622;
435.9000;0.1164;1.3787;
436.2000;0.1188;1.3787;
436.5000;0.1164;1.3763;
436.8000;0.1148;1.3716;
437.1000;0.1164;1.3810;
437.4000;0.1156;1.3740;
437.7000;0.1140;1.3763;
438.0000;0.1172;1.3905;
438.3000;0.1140;1.3858;
438.6000;0.1172;1.3952;
438.9000;0.1180;1.3952;
439.2000;0.1156;1.3905;
439.5000;0.1180;1.3999;
439.8000;0.1172;1.3999;
440.1000;0.1140;1.3975;
440.4000;0.1148;1.3999;
440.7000;0.1180;1.4164;
441.0000;0.1172;1.4164;
441.3000;0.1156;1.4117;
441.6000;0.1172;1.4140;
441.9000;0.1172;1.4093;
442.2000;0.1148;1.3999;
442.5000;0.1148;1.4022;
442.8000;0.1164;1.3999;
443.1000;0.1164;1.4022;
443.4000;0.1131;1.3928;
443.7000;0.1180;1.3928;
444.0000;0.1164;1.3834;
444.3000;0.1172;1.3834;
444.6000;0.1172;1.3881;
444.9000;0.1270;1.4187;
445.2000;0.1164;1.4022;
445.5000;0.1140;1.3928;
445.8000;0.1148;1.3952;
446.1000;0.1148;1.3999;
446.4000;0.1221;1.4211;
446.7000;0.1286;1.4352;
447.0000;0.1156;1.4070;
447.3000;0.1156;1.4022;
447.6000;0.1188;1.4046;
447.9000;0.1164;1.3999;
448.2000;0.1205;1.4046;
448.5000;0.1156;1.3881;
448.8000;0.1156;1.3740;
449.1000;0.1180;1.3858;
449.4000;0.1172;1.3834;
449.7000;0.1180;1.3858;
450.0000;0.1156;1.3834;
450.3000;0.1172;1.3952;
450.6000;0.1115;1.3858;
450.9000;0.1148;1.3881;
451.2000;0.1172;1.3858;
451.5000;0.1172;1.3952;
451.8000;0.1164;1.3905;
452.1000;0.1245;1.4093;
452.4000;0.1172;1.3928;
452.7000;0.1180;1.3928;
453.0000;0.1164;1.3787;
453.3000;0.1172;1.3810;
453.6000;0.1172;1.3834;
453.9000;0.1164;1.3905;
454.2000;0.1164;1.3952;
454.5000;0.1197;1.4022;
454.8000;0.1172;1.3999;
455.1000;0.1131;1.3881;
455.4000;0.1164;1.3928;
455.7000;0.1164;1.3881;
456.0000;0.1164;1.3881;
456.3000;0.1172;1.3999;
456.6000;0.1180;1.4022;
456.9000;0.1164;1.3881;
457.2000;0.1172;1.3881;
457.5000;0.1148;1.3740;
457.8000;0.1115;1.3551;
458.1000;0.1172;1.3645;
458.4000;0.1164;1.3716;
458.7000;0.1148;1.3834;
459.0000;0.1188;1.3928;
459.3000;0.1172;1.3905;
459.6000;0.1188;1.3975;
459.9000;0.1188;1.4046;
460.2000;0.1140;1.3905;
460.5000;0.1188;1.3999;
460.8000;0.1180;1.3975;
461.1000;0.1123;1.3740;
461.4000;0.1188;1.3905;
461.7000;0.1180;1.3834;
462.0000;0.1058;1.3504;
462.3000;0.1164;1.3810;
462.6000;0.1180;1.3881;
462.9000;0.1156;1.3740;
463.2000;0.1229;1.3905;
463.5000;0.1164;1.3716;
463.8000;0.1180;1.3763;
464.1000;0.1148;1.3693;
464.4000;0.1205;1.3858;
464.7000;0.1164;1.3716;
465.0000;0.1188;1.3693;
465.3000;0.1180;1.3645;
465.6000;0.1172;1.3575;
465.9000;0.1148;1.3622;
466.2000;0.1164;1.3693;
466.5000;0.1131;1.3740;
466.8000;0.1148;1.3834;
467.1000;0.1164;1.3905;
467.4000;0.1188;1.3928;
467.7000;0.1172;1.3905;
468.0000;0.1140;1.3881;
468.3000;0.1148;1.3834;
468.6000;0.1188;1.3858;
468.9000;0.1197;1.3905;
469.2000;0.1156;1.3763;
469.5000;0.1091;1.3622;
469.8000;0.1164;1.3810;
470.1000;0.1140;1.3740;
470.4000;0.1172;1.3810;
470.7000;0.1254;1.4070;
471.0000;0.1188;1.3952;
471.3000;0.1107;1.3763;
471.6000;0.1180;1.3928;
471.9000;0.1172;1.3810;
472.2000;0.1180;1.3740;
472.5000;0.1197;1.3787;
472.8000;0.1180;1.3810;
473.1000;0.1164;1.3787;
473.4000;0.1172;1.3834;
473.7000;0.1262;1.4070;
474.0000;0.1213;1.3952;
474.3000;0.1131;1.3881;
474.6000;0.1123;1.3834;
474.9000;0.1172;1.3905;
475.2000;0.1156;1.3881;
475.5000;0.1172;1.3881;
475.8000;0.1197;1.3858;
476.1000;0.1156;1.3858;
476.4000;0.1180;1.3881;
476.7000;0.1148;1.3763;
477.0000;0.1213;1.3881;
477.3000;0.1148;1.3834;
477.6000;0.1172;1.3928;
477.9000;0.1172;1.3881;
478.2000;0.1131;1.3763;
478.5000;0.1180;1.3881;
478.8000;0.1302;1.4258;
479.1000;0.1172;1.3928;
479.4000;0.1148;1.3834;
479.7000;0.1156;1.3905;
480.0000;0.1229;1.3999;
480.3000;0.1164;1.3928;
480.6000;0.1172;1.3881;
480.9000;0.1156;1.3787;
481.2000;0.1164;1.3858;
481.5000;0.1091;1.3622;
481.8000;0.1180;1.3810;
482.1000;0.1164;1.3858;
482.4000;0.1148;1.3810;
482.7000;0.1140;1.3810;
483.0000;0.1172;1.3905;
483.3000;0.1172;1.3858;
483.6000;0.1172;1.3928;
483.9000;0.1205;1.3999;
484.2000;0.1180;1.3975;
484.5000;0.1164;1.3881;
484.8000;0.1172;1.3905;
485.1000;0.1188;1.3858;
485.4000;0.1245;1.3905;
485.7000;0.1131;1.3669;
486.0000;0.1131;1.3740;
486.3000;0.1172;1.3787;
486.6000;0.1164;1.3834;
486.9000;0.1131;1.3763;
487.2000;0.1156;1.3858;
487.5000;0.1172;1.3952;
487.8000;0.1164;1.3858;
488.1000;0.1164;1.3810;
488.4000;0.1148;1.3740;
488.7000;0.1131;1.3622;
489.0000;0.1197;1.3787;
489.3000;0.1205;1.3881;
489.6000;0.1156;1.3787;
489.9000;0.1156;1.3787;
490.2000;0.1188;1.3858;
490.5000;0.1140;1.3693;
490.8000;0.1156;1.3763;
491.1000;0.1172;1.3763;
491.4000;0.1148;1.3858;
491.7000;0.1172;1.3881;
492.0000;0.1164;1.3810;
492.3000;0.1156;1.3740;
492.6000;0.1164;1.3763;
492.9000;0.1172;1.3716;
493.2000;0.1172;1.3669;
493.5000;0.1164;1.3740;
493.8000;0.1164;1.3740;
494.1000;0.1180;1.3787;
494.4000;0.1180;1.3787;
494.7000;0.1180;1.3763;
495.0000;0.1172;1.3740;
495.3000;0.1172;1.3810;
495.6000;0.1123;1.3669;
495.9000;0.1319;1.4117;
496.2000;0.1148;1.3740;
496.5000;0.1172;1.3763;
496.8000;0.1156;1.3669;
497.1000;0.1221;1.3834;
497.4000;0.1140;1.3575;
497.7000;0.1156;1.3504;
498.0000;0.1115;1.3433;
498.3000;0.1156;1.3528;
498.6000;0.1156;1.3528;
498.9000;0.1188;1.3622;
499.2000;0.1172;1.3551;
499.5000;0.1197;1.3622;
499.8000;0.1205;1.3716;
500.1000;0.1148;1.3693;
500.4000;0.1254;1.4046;
500.7000;0.1180;1.3787;
501.0000;0.1034;1.3457;
501.3000;0.1172;1.3810;
501.6000;0.1148;1.3763;
501.9000;0.1172;1.3834;
502.2000;0.1172;1.3881;
502.5000;0.1197;1.4140;
502.8000;0.1131;1.3975;
503.1000;0.1180;1.4093;
503.4000;0.1188;1.4070;
503.7000;0.1107;1.3952;
504.0000;0.1172;1.4046;
504.3000;0.1164;1.4022;
504.6000;0.1188;1.4046;
504.9000;0.1123;1.3881;
505.2000;0.1107;1.3810;
505.5000;0.1188;1.3975;
505.8000;0.1188;1.3881;
506.1000;0.1172;1.3834;
506.4000;0.1180;1.3810;
506.7000;0.1164;1.3763;
507.0000;0.1164;1.3787;
507.3000;0.1123;1.3622;
507.6000;0.1180;1.3763;
507.9000;0.1172;1.3834;
508.2000;0.1180;1.3905;
508.5000;0.1115;1.3787;
508.8000;0.1156;1.3858;
509.1000;0.1188;1.3905;
509.4000;0.1164;1.3834;
509.7000;0.1188;1.3905;
510.0000;0.1205;1.3928;
510.3000;0.1148;1.3858;
510.6000;0.1205;1.3975;
510.9000;0.1213;1.3928;
511.2000;0.1148;1.3740;
511.5000;0.1164;1.3787;
511.8000;0.1107;1.3598;
512.1000;0.1172;1.3716;
512.4000;0.1066;1.3363;
512.7000;0.1156;1.3598;
513.0000;0.1164;1.3693;
513.3000;0.1172;1.3787;
513.6000;0.1156;1.3740;
513.9000;0.1188;1.3787;
514.2000;0.1164;1.3669;
514.5000;0.1107;1.3575;
514.8000;0.1164;1.3810;
515.1000;0.1148;1.3834;
515.4000;0.1140;1.3763;
515.7000;0.1172;1.3905;
516.0000;0.1172;1.3975;
516.3000;0.1131;1.3787;
516.6000;0.1156;1.3716;
516.9000;0.1188;1.3740;
517.2000;0.1188;1.3740;
517.5000;0.1221;1.3834;
517.8000;0.1123;1.3551;
518.1000;0.1254;1.3999;
518.4000;0.1172;1.3810;
518.7000;0.1172;1.3858;
519.0000;0.1229;1.3928;
519.3000;0.1156;1.3740;
519.6000;0.1148;1.3787;
519.9000;0.1042;1.3575;
520.2000;0.1156;1.3810;
520.5000;0.1140;1.3787;
520.8000;0.1172;1.3810;
521.1000;0.1180;1.3787;
521.4000;0.1172;1.3787;
521.7000;0.1180;1.3810;
522.0000;0.1188;1.3810;
522.3000;0.1172;1.3763;
522.6000;0.1237;1.3928;
522.9000;0.1140;1.3669;
523.2000;0.1188;1.3834;
523.5000;0.1156;1.3834;
523.8000;0.1156;1.3740;
524.1000;0.1140;1.3598;
524.4000;0.1164;1.3716;
524.7000;0.1172;1.3787;
525.0000;0.1164;1.3622;
525.3000;0.1164;1.3551;
525.6000;0.1140;1.3504;
525.9000;0.1188;1.3645;
526.2000;0.1180;1.3575;
526.5000;0.1164;1.3551;
526.8000;0.1180;1.3693;
527.1000;0.1180;1.3669;
527.4000;0.1172;1.3693;
527.7000;0.1148;1.3669;
528.0000;0.1156;1.3669;
528.3000;0.1180;1.3787;
528.6000;0.1188;1.3740;
528.9000;0.1140;1.3622;
529.2000;0.1148;1.3575;
529.5000;0.1164;1.3622;
529.8000;0.1156;1.3645;
530.1000;0.1172;1.3622;
530.4000;0.1131;1.3551;
530.7000;0.1164;1.3575;
531.0000;0.1180;1.3716;
531.3000;0.1164;1.3740;
531.6000;0.1164;1.3763;
531.9000;0.1156;1.3693;
532.2000;0.1156;1.3716;
532.5000;0.1197;1.3834;
532.8000;0.1148;1.3693;
533.1000;0.1172;1.3787;
533.4000;0.1164;1.3763;
533.7000;0.1172;1.3834;
534.0000;0.1180;1.3858;
534.3000;0.1172;1.3905;
534.6000;0.1164;1.3975;
534.9000;0.1140;1.3952;
535.2000;0.1148;1.3975;
535.5000;0.1140;1.3999;
535.8000;0.1115;1.3858;
536.1000;0.1156;1.3905;
536.4000;0.1172;1.4070;
536.7000;0.1180;1.4070;
537.0000;0.1180;1.4093;
537.3000;0.1156;1.3999;
537.6000;0.1180;1.4022;
537.9000;0.1164;1.3975;
538.2000;0.1180;1.3975;
538.5000;0.1074;1.3669;
538.8000;0.1188;1.3905;
539.1000;0.1156;1.3905;
539.4000;0.1205;1.4022;
539.7000;0.1140;1.3858;
540.0000;0.1180;1.3975;
540.3000;0.1156;1.3834;
540.6000;0.1156;1.3787;
540.9000;0.1229;1.3952;
541.2000;0.1205;1.3834;
541.5000;0.1180;1.3787;
541.8000;0.1140;1.3693;
542.1000;0.1229;1.3858;
542.4000;0.1188;1.3858;
542.7000;0.1286;1.4022;
543.0000;0.1156;1.3622;
543.3000;0.1172;1.3622;
543.6000;0.1172;1.3598;
543.9000;0.1148;1.3598;
544.2000;0.1148;1.3598;
544.5000;0.1164;1.3716;
544.8000;0.1172;1.3740;
545.1000;0.1164;1.3669;
545.4000;0.1091;1.3480;
545.7000;0.1164;1.3598;
546.0000;0.1156;1.3575;
546.3000;0.1148;1.3551;
546.6000;0.1148;1.3528;
546.9000;0.1148;1.3528;
547.2000;0.1148;1.3575;
547.5000;0.1172;1.3598;
547.8000;0.1172;1.3575;
548.1000;0.1156;1.3528;
548.4000;0.1172;1.3598;
548.7000;0.1164;1.3622;
549.0000;0.1197;1.3669;
549.3000;0.1197;1.3645;
549.6000;0.1164;1.3528;
549.9000;0.1229;1.3622;
550.2000;0.1164;1.3575;
550.5000;0.1172;1.3575;
550.8000;0.1172;1.3645;
551.1000;0.1034;1.3292;
551.4000;0.1172;1.3763;
551.7000;0.1180;1.3645;
552.0000;0.1148;1.3598;
552.3000;0.1156;1.3622;
552.6000;0.1180;1.3693;
552.9000;0.1172;1.3645;
553.2000;0.1131;1.3575;
553.5000;0.1172;1.3693;
553.8000;0.1156;1.3645;
554.1000;0.1164;1.3716;
554.4000;0.1172;1.3763;
554.7000;0.1131;1.3598;
555.0000;0.1188;1.3716;
555.3000;0.1164;1.3645;
555.6000;0.1148;1.3598;
555.9000;0.1172;1.3693;
556.2000;0.1172;1.3645;
556.5000;0.1188;1.3645;
556.8000;0.1156;1.3575;
557.1000;0.1172;1.3598;
557.4000;0.1172;1.3645;
557.7000;0.1197;1.3740;
558.0000;0.1131;1.3622;
558.3000;0.1180;1.3810;
558.6000;0.1140;1.3645;
558.9000;0.1229;1.3952;
559.2000;0.1164;1.3881;
559.5000;0.1188;1.3905;
559.8000;0.1302;1.4164;
560.1000;0.1050;1.3480;
560.4000;0.1180;1.3858;
560.7000;0.1205;1.3858;
561.0000;0.1205;1.3834;
561.3000;0.1205;1.3858;
561.6000;0.1156;1.3740;
561.9000;0.1156;1.3645;
562.2000;0.1164;1.3575;
562.5000;0.1156;1.3528;
562.8000;0.1172;1.3551;
563.1000;0.1213;1.3598;
563.4000;0.1221;1.3693;
563.7000;0.1164;1.3551;
564.0000;0.1205;1.3645;
564.3000;0.1286;1.3858;
564.6000;0.1172;1.3575;
564.9000;0.1172;1.3480;
565.2000;0.1180;1.3480;
565.5000;0.1123;1.3339;
565.8000;0.1172;1.3551;
566.1000;0.1148;1.3504;
566.4000;0.1148;1.3528;
566.7000;0.1221;1.3669;
567.0000;0.1172;1.3575;
567.3000;0.1172;1.3551;
567.6000;0.1294;1.3787;
567.9000;0.1164;1.3433;
568.2000;0.1156;1.3363;
568.5000;0.1164;1.3386;
568.8000;0.1066;1.3127;
569.1000;0.1221;1.3598;
569.4000;0.1172;1.3551;
569.7000;0.1164;1.3410;
570.0000;0.1140;1.3410;
570.3000;0.1180;1.3457;
570.6000;0.1148;1.3551;
570.9000;0.1156;1.3528;
571.2000;0.1123;1.3457;
571.5000;0.1156;1.3504;
571.8000;0.1164;1.3504;
572.1000;0.1172;1.3480;
572.4000;0.1180;1.3457;
572.7000;0.1172;1.3433;
573.0000;0.1164;1.3457;
573.3000;0.1172;1.3480;
573.6000;0.1050;1.3174;
573.9000;0.1188;1.3528;
574.2000;0.1205;1.3575;
574.5000;0.1107;1.3457;
574.8000;0.1172;1.3598;
575.1000;0.1140;1.3504;
575.4000;0.1172;1.3693;
575.7000;0.1262;1.3810;
576.0000;0.1131;1.3528;
576.3000;0.1156;1.3598;
576.6000;0.1156;1.3480;
576.9000;0.1180;1.3575;
577.2000;0.1172;1.3575;
577.5000;0.1172;1.3551;
577.8000;0.1172;1.3669;
578.1000;0.1180;1.3763;
578.4000;0.1156;1.3716;
578.7000;0.1188;1.3810;
579.0000;0.1148;1.3740;
579.3000;0.1172;1.3834;
579.6000;0.1164;1.3810;
579.9000;0.1180;1.3881;
580.2000;0.1180;1.3810;
580.5000;0.1148;1.3834;
580.8000;0.1140;1.3763;
581.1000;0.1148;1.3645;
581.4000;0.1156;1.3575;
581.7000;0.1164;1.3669;
582.0000;0.1156;1.3693;
582.3000;0.1164;1.3598;
582.6000;0.1197;1.3622;
582.9000;0.1156;1.3551;
583.2000;0.1188;1.3622;
583.5000;0.1164;1.3645;
583.8000;0.1188;1.3669;
584.1000;0.1156;1.3645;
584.4000;0.1115;1.3551;
584.7000;0.1156;1.3716;
585.0000;0.1197;1.3858;
585.3000;0.1107;1.3693;
585.6000;0.1164;1.3810;
585.9000;0.1140;1.3763;
586.2000;0.1180;1.3834;
586.5000;0.1156;1.3834;
586.8000;0.1156;1.3810;
587.1000;0.1164;1.3787;
587.4000;0.1164;1.3763;
587.7000;0.1221;1.4022;
588.0000;0.1140;1.3858;
588.3000;0.1172;1.3905;
588.6000;0.1172;1.3905;
588.9000;0.1156;1.3858;
589.2000;0.1164;1.3928;
589.5000;0.1180;1.3975;
589.8000;0.1180;1.4022;
590.1000;0.1156;1.3858;
590.4000;0.1156;1.3810;
590.7000;0.1156;1.3905;
591.0000;0.1188;1.4022;
591.3000;0.1156;1.3952;
591.6000;0.1172;1.3881;
591.9000;0.1148;1.3834;
592.2000;0.1180;1.3952;
592.5000;0.1197;1.3999;
592.8000;0.1164;1.3881;
593.1000;0.1180;1.3905;
593.4000;0.1156;1.3763;
593.7000;0.1180;1.3810;
594.0000;0.1164;1.3858;
594.3000;0.1188;1.3928;
594.6000;0.1172;1.3928;
594.9000;0.1188;1.3975;
595.2000;0.1156;1.3834;
595.5000;0.1107;1.3645;
595.8000;0.1188;1.3716;
596.1000;0.1148;1.3551;
596.4000;0.1164;1.3598;
596.7000;0.1180;1.3645;
597.0000;0.1148;1.3669;
597.3000;0.1180;1.3787;
597.6000;0.1221;1.3763;
597.9000;0.1140;1.3528;
598.2000;0.1156;1.3693;
598.5000;0.1254;1.3928;
598.8000;0.1156;1.3645;
599.1000;0.1172;1.3787;
599.4000;0.1197;1.3858;
599.7000;0.1262;1.4046;
600.0000;0.1156;1.3645;
600.3000;0.1156;1.3622;
600.6000;0.1164;1.3551;
600.9000;0.1229;1.3645;
601.2000;0.1148;1.3480;
601.5000;0.1172;1.3457;
601.8000;0.1148;1.3363;
602.1000;0.1156;1.3363;
602.4000;0.1009;1.2986;
602.7000;0.1172;1.3363;
603.0000;0.1123;1.3127;
603.3000;0.1115;1.3080;
603.6000;0.1131;1.3033;
603.9000;0.1131;1.3033;
604.2000;0.1131;1.3080;
604.5000;0.1107;1.3033;
604.8000;0.1099;1.2938;
605.1000;0.1115;1.2821;
605.4000;0.1115;1.2773;
605.7000;0.1091;1.2656;
606.0000;0.0977;1.2184;
606.3000;0.1091;1.2396;
606.6000;0.1074;1.2279;
606.9000;0.1066;1.2279;
607.2000;0.1099;1.2279;
607.5000;0.1058;1.2279;
607.8000;0.1083;1.2373;
608.1000;0.1099;1.2373;
608.4000;0.1083;1.2255;
608.7000;0.1091;1.2302;
609.0000;0.1172;1.2608;
609.3000;0.1074;1.2279;
609.6000;0.1083;1.2302;
609.9000;0.1083;1.2420;
610.2000;0.1074;1.2467;
610.5000;0.1050;1.2373;
610.8000;0.1058;1.2420;
611.1000;0.1066;1.2467;
611.4000;0.1074;1.2443;
611.7000;0.1026;1.2326;
612.0000;0.1083;1.2467;
612.3000;0.1026;1.2279;
612.6000;0.1042;1.2208;
612.9000;0.1042;1.2184;
613.2000;0.1050;1.2279;
613.5000;0.0944;1.2114;
613.8000;0.1042;1.2255;
614.1000;0.1156;1.2467;
614.4000;0.0985;1.2114;
614.7000;0.0993;1.2161;
615.0000;0.1074;1.2302;
615.3000;0.1050;1.2302;
615.6000;0.0985;1.2161;
615.9000;0.1026;1.2255;
616.2000;0.1066;1.2373;
616.5000;0.0993;1.2161;
616.8000;0.1042;1.2231;
617.1000;0.0985;1.2066;
617.4000;0.1042;1.2279;
617.7000;0.1066;1.2302;
618.0000;0.1026;1.2231;
618.3000;0.1042;1.2184;
618.6000;0.1050;1.2184;
618.9000;0.1034;1.2184;
619.2000;0.1034;1.2137;
619.5000;0.1009;1.2114;
619.8000;0.1026;1.2137;
620.1000;0.1026;1.2231;
620.4000;0.1050;1.2279;
620.7000;0.1018;1.2231;
621.0000;0.1058;1.2349;
621.3000;0.1042;1.2326;
621.6000;0.1058;1.2420;
621.9000;0.1018;1.2231;
622.2000;0.1018;1.2231;
622.5000;0.1042;1.2302;
622.8000;0.1034;1.2231;
623.1000;0.1050;1.2279;
623.4000;0.1074;1.2302;
623.7000;0.0969;1.2114;
624.0000;0.1074;1.2373;
624.3000;0.1042;1.2349;
624.6000;0.1026;1.2396;
624.9000;0.1018;1.2443;
625.2000;0.0952;1.2302;
625.5000;0.1018;1.2349;
625.8000;0.1026;1.2373;
626.1000;0.1018;1.2302;
626.4000;0.1034;1.2373;
626.7000;0.1018;1.2420;
627.0000;0.0993;1.2373;
627.3000;0.1034;1.2420;
627.6000;0.1009;1.2373;
627.9000;0.1009;1.2396;
628.2000;0.1001;1.2302;
628.5000;0.1009;1.2302;
628.8000;0.1026;1.2302;
629.1000;0.1066;1.2302;
629.4000;0.0977;1.2066;
629.7000;0.1042;1.2349;
630.0000;0.1009;1.2255;
630.3000;0.0993;1.2161;
630.6000;0.1034;1.2184;
630.9000;0.1009;1.2161;
631.2000;0.0993;1.2066;
631.5000;0.1034;1.2161;
631.8000;0.1026;1.2184;
632.1000;0.0969;1.2043;
632.4000;0.1074;1.2279;
632.7000;0.0985;1.2019;
633.0000;0.0993;1.2090;
633.3000;0.1009;1.2090;
633.6000;0.1050;1.2208;
633.9000;0.0977;1.2019;
634.2000;0.1009;1.2184;
634.5000;0.1091;1.2349;
634.8000;0.0985;1.2090;
635.1000;0.0969;1.2043;
635.4000;0.1034;1.2279;
635.7000;0.0969;1.2137;
636.0000;0.1066;1.2443;
636.3000;0.1026;1.2349;
636.6000;0.1026;1.2491;
636.9000;0.1026;1.2561;
637.2000;0.1018;1.2561;
637.5000;0.0985;1.2373;
637.8000;0.1050;1.2514;
638.1000;0.1034;1.2467;
638.4000;0.1001;1.2349;
638.7000;0.1018;1.2349;
639.0000;0.1009;1.2349;
639.3000;0.1034;1.2443;
639.6000;0.1018;1.2420;
639.9000;0.0961;1.2349;
640.2000;0.0985;1.2373;
640.5000;0.1026;1.2467;
640.8000;0.1018;1.2443;
641.1000;0.1001;1.2373;
641.4000;0.1009;1.2491;
641.7000;0.1034;1.2585;
642.0000;0.1026;1.2585;
642.3000;0.1034;1.2561;
642.6000;0.0993;1.2467;
642.9000;0.0985;1.2396;
643.2000;0.1026;1.2443;
643.5000;0.1009;1.2443;
643.8000;0.1018;1.2467;
644.1000;0.1018;1.2373;
644.4000;0.1026;1.2420;
644.7000;0.1009;1.2349;
645.0000;0.1001;1.2420;
645.3000;0.0993;1.2396;
645.6000;0.0993;1.2396;
645.9000;0.0985;1.2467;
646.2000;0.0912;1.2184;
646.5000;0.0993;1.2420;
646.8000;0.0977;1.2326;
647.1000;0.1018;1.2373;
647.4000;0.1018;1.2373;
647.7000;0.0969;1.2302;
648.0000;0.0985;1.2373;
648.3000;0.1001;1.2302;
648.6000;0.1018;1.2279;
648.9000;0.0871;1.2043;
649.2000;0.1001;1.2443;
649.5000;0.1001;1.2443;
649.8000;0.0977;1.2302;
650.1000;0.1009;1.2396;
650.4000;0.0977;1.2373;
650.7000;0.1001;1.2373;
651.0000;0.1099;1.2632;
651.3000;0.0985;1.2396;
651.6000;0.0993;1.2443;
651.9000;0.0993;1.2467;
652.2000;0.1018;1.2443;
652.5000;0.1026;1.2396;
652.8000;0.0985;1.2231;
653.1000;0.1009;1.2255;
653.4000;0.0985;1.2279;
653.7000;0.1018;1.2279;
654.0000;0.1074;1.2467;
654.3000;0.1001;1.2279;
654.6000;0.1001;1.2255;
654.9000;0.1009;1.2208;
655.2000;0.0993;1.2208;
655.5000;0.1050;1.2279;
655.8000;0.1009;1.2208;
656.1000;0.1001;1.2161;
656.4000;0.1091;1.2396;
656.7000;0.0977;1.2019;
657.0000;0.1001;1.1996;
657.3000;0.1099;1.2302;
657.6000;0.0985;1.2066;
657.9000;0.0985;1.1925;
658.2000;0.0993;1.1901;
658.5000;0.0895;1.1736;
658.8000;0.0993;1.2019;
659.1000;0.1009;1.2114;
659.4000;0.0993;1.2090;
659.7000;0.1099;1.2373;
660.0000;0.1009;1.2161;
660.3000;0.1001;1.2208;
660.6000;0.1001;1.2231;
660.9000;0.1001;1.2279;
661.2000;0.0993;1.2255;
661.5000;0.0961;1.2114;
661.8000;0.0985;1.2090;
662.1000;0.0993;1.2090;
662.4000;0.0977;1.2090;
662.7000;0.1001;1.2255;
663.0000;0.1001;1.2255;
663.3000;0.1009;1.2326;
663.6000;0.1018;1.2326;
663.9000;0.1018;1.2396;
664.2000;0.0895;1.2090;
664.5000;0.0985;1.2326;
664.8000;0.1026;1.2349;
665.1000;0.1001;1.2326;
665.4000;0.1001;1.2373;
665.7000;0.1009;1.2420;
666.0000;0.1034;1.2585;
666.3000;0.0993;1.2443;
666.6000;0.0993;1.2443;
666.9000;0.1026;1.2373;
667.2000;0.0993;1.2302;
667.5000;0.1001;1.2302;
667.8000;0.0920;1.1949;
668.1000;0.0977;1.2137;
668.4000;0.0977;1.2161;
668.7000;0.1018;1.2279;
669.0000;0.0993;1.2255;
669.3000;0.0977;1.2255;
669.6000;0.0993;1.2279;
669.9000;0.1042;1.2302;
670.2000;0.0993;1.2231;
670.5000;0.0993;1.2161;
670.8000;0.1083;1.2443;
671.1000;0.1009;1.2279;
671.4000;0.1034;1.2326;
671.7000;0.0961;1.2184;
672.0000;0.0969;1.2326;
672.3000;0.1001;1.2467;
672.6000;0.1115;1.2656;
672.9000;0.0993;1.2302;
673.2000;0.0993;1.2279;
673.5000;0.0969;1.2161;
673.8000;0.1066;1.2420;
674.1000;0.1001;1.2279;
674.4000;0.1018;1.2443;
674.7000;0.0993;1.2279;
675.0000;0.0944;1.2137;
675.3000;0.0985;1.2326;
675.6000;0.0985;1.2349;
675.9000;0.1042;1.2608;
676.2000;0.1001;1.2420;
676.5000;0.1001;1.2514;
676.8000;0.0936;1.2302;
677.1000;0.0977;1.2396;
677.4000;0.0961;1.2302;
677.7000;0.0993;1.2326;
678.0000;0.0993;1.2373;
678.3000;0.0993;1.2326;
678.6000;0.0961;1.2279;
678.9000;0.0993;1.2420;
679.2000;0.1026;1.2491;
679.5000;0.1058;1.2514;
679.8000;0.1026;1.2561;
680.1000;0.1026;1.2585;
680.4000;0.1001;1.2491;
680.7000;0.1026;1.2538;
681.0000;0.0985;1.2443;
681.3000;0.0993;1.2467;
681.6000;0.0985;1.2467;
681.9000;0.0920;1.2208;
682.2000;0.0993;1.2420;
682.5000;0.0985;1.2302;
682.8000;0.1018;1.2373;
683.1000;0.1050;1.2443;
683.4000;0.0936;1.2208;
683.7000;0.1001;1.2396;
684.0000;0.1009;1.2349;
684.3000;0.1018;1.2349;
684.6000;0.1001;1.2373;
684.9000;0.0993;1.2255;
685.2000;0.0993;1.2255;
685.5000;0.0985;1.2255;
685.8000;0.1026;1.2396;
686.1000;0.1001;1.2231;
686.4000;0.1050;1.2561;
686.7000;0.1009;1.2491;
687.0000;0.0993;1.2420;
687.3000;0.0993;1.2467;
687.6000;0.0977;1.2443;
687.9000;0.1001;1.2443;
688.2000;0.0993;1.2349;
688.5000;0.0977;1.2326;
688.8000;0.1018;1.2420;
689.1000;0.1009;1.2349;
689.4000;0.0993;1.2349;
689.7000;0.0806;1.1878;
690.0000;0.1026;1.2491;
690.3000;0.1026;1.2538;
690.6000;0.1009;1.2561;
690.9000;0.1018;1.2561;
691.2000;0.1042;1.2608;
691.5000;0.0879;1.2231;
691.8000;0.0961;1.2491;
692.1000;0.0977;1.2491;
692.4000;0.0961;1.2373;
692.7000;0.0912;1.2255;
693.0000;0.1018;1.2538;
693.3000;0.0944;1.2396;
693.6000;0.1009;1.2514;
693.9000;0.1009;1.2491;
694.2000;0.1018;1.2514;
694.5000;0.1026;1.2514;
694.8000;0.0961;1.2349;
695.1000;0.1001;1.2420;
695.4000;0.1066;1.2467;
695.7000;0.0985;1.2255;
696.0000;0.0993;1.2396;
696.3000;0.1026;1.2467;
696.6000;0.1091;1.2585;
696.9000;0.1018;1.2467;
697.2000;0.0985;1.2373;
697.5000;0.1001;1.2467;
697.8000;0.1042;1.2538;
698.1000;0.0977;1.2373;
698.4000;0.0969;1.2279;
698.7000;0.1001;1.2373;
699.0000;0.1001;1.2302;
699.3000;0.0985;1.2373;
699.6000;0.0985;1.2420;
699.9000;0.0977;1.2514;
700.2000;0.0993;1.2561;
700.5000;0.0944;1.2443;
700.8000;0.1009;1.2632;
701.1000;0.0969;1.2538;
701.4000;0.0985;1.2585;
701.7000;0.0985;1.2467;
702.0000;0.1074;1.2632;
702.3000;0.1058;1.2632;
702.6000;0.0993;1.2373;
702.9000;0.1042;1.2467;
703.2000;0.0928;1.2231;
703.5000;0.1001;1.2467;
703.8000;0.0993;1.2585;
704.1000;0.1001;1.2608;
704.4000;0.1018;1.2561;
704.7000;0.0944;1.2420;
705.0000;0.0977;1.2420;
705.3000;0.0904;1.2302;
705.6000;0.1001;1.2679;
705.9000;0.0993;1.2608;
706.2000;0.0985;1.2656;
706.5000;0.0993;1.2608;
706.8000;0.0961;1.2396;
707.1000;0.0993;1.2443;
707.4000;0.0871;1.2161;
707.7000;0.0977;1.2561;
708.0000;0.1009;1.2679;
708.3000;0.0952;1.2467;
708.6000;0.0961;1.2538;
708.9000;0.1042;1.2797;
709.2000;0.0993;1.2561;
709.5000;0.1018;1.2561;
709.8000;0.0993;1.2467;
710.1000;0.0993;1.2443;
710.4000;0.1009;1.2561;
710.7000;0.0961;1.2491;
711.0000;0.0969;1.2514;
711.3000;0.1009;1.2656;
711.6000;0.0969;1.2656;
711.9000;0.1001;1.2726;
712.2000;0.0993;1.2726;
712.5000;0.0993;1.2726;
712.8000;0.1001;1.2750;
713.1000;0.0985;1.2679;
713.4000;0.0985;1.2656;
713.7000;0.0895;1.2467;
714.0000;0.1001;1.2750;
714.3000;0.1009;1.2773;
714.6000;0.0944;1.2538;
714.9000;0.0969;1.2656;
715.2000;0.0993;1.2608;
715.5000;0.0912;1.2349;
715.8000;0.1001;1.2514;
716.1000;0.0993;1.2491;
716.4000;0.1001;1.2491;
716.7000;0.0969;1.2396;
717.0000;0.1042;1.2561;
717.3000;0.1009;1.2491;
717.6000;0.0977;1.2396;
717.9000;0.0961;1.2349;
718.2000;0.1074;1.2632;
718.5000;0.1009;1.2443;
718.8000;0.1001;1.2373;
719.1000;0.0993;1.2279;
719.4000;0.1001;1.2373;
719.7000;0.1009;1.2373;
720.0000;0.0977;1.2255;
720.3000;0.1001;1.2373;
720.6000;0.0952;1.2231;
720.9000;0.0961;1.2255;
721.2000;0.0977;1.2279;
721.5000;0.1001;1.2326;
721.8000;0.0993;1.2326;
722.1000;0.1001;1.2349;
722.4000;0.0977;1.2302;
722.7000;0.0985;1.2255;
723.0000;0.1001;1.2373;
723.3000;0.0985;1.2420;
723.6000;0.0961;1.2373;
723.9000;0.0993;1.2561;
724.2000;0.0985;1.2561;
724.5000;0.0993;1.2538;
724.8000;0.1009;1.2632;
725.1000;0.0985;1.2561;
725.4000;0.1026;1.2656;
725.7000;0.1026;1.2561;
726.0000;0.1009;1.2514;
726.3000;0.1066;1.2656;
726.6000;0.0993;1.2491;
726.9000;0.0985;1.2514;
727.2000;0.0985;1.2467;
727.5000;0.0985;1.2514;
727.8000;0.0936;1.2349;
728.1000;0.0993;1.2467;
728.4000;0.1001;1.2538;
728.7000;0.0985;1.2538;
729.0000;0.1001;1.2561;
729.3000;0.0985;1.2538;
729.6000;0.0936;1.2443;
729.9000;0.0969;1.2561;
730.2000;0.0985;1.2538;
730.5000;0.0871;1.2326;
730.8000;0.1042;1.2726;
731.1000;0.0969;1.2632;
731.4000;0.0977;1.2585;
731.7000;0.0985;1.2608;
732.0000;0.1001;1.2632;
732.3000;0.1009;1.2632;
732.6000;0.1009;1.2585;
732.9000;0.0985;1.2585;
733.2000;0.0993;1.2585;
733.5000;0.0977;1.2491;
733.8000;0.0985;1.2467;
734.1000;0.0985;1.2491;
734.4000;0.0977;1.2467;
734.7000;0.1009;1.2632;
735.0000;0.1009;1.2561;
735.3000;0.1001;1.2443;
735.6000;0.1001;1.2373;
735.9000;0.0993;1.2396;
736.2000;0.0985;1.2467;
736.5000;0.0993;1.2326;
736.8000;0.0993;1.2279;
737.1000;0.0993;1.2279;
737.4000;0.1018;1.2420;
737.7000;0.0985;1.2302;
738.0000;0.0952;1.2208;
738.3000;0.0969;1.2302;
738.6000;0.1042;1.2467;
738.9000;0.1034;1.2443;
739.2000;0.0993;1.2443;
739.5000;0.0985;1.2443;
739.8000;0.1083;1.2703;
740.1000;0.0985;1.2396;
740.4000;0.1009;1.2420;
740.7000;0.1018;1.2538;
741.0000;0.1001;1.2491;
741.3000;0.1009;1.2491;
741.6000;0.0952;1.2396;
741.9000;0.0977;1.2491;
742.2000;0.0993;1.2443;
742.5000;0.1018;1.2561;
742.8000;0.0985;1.2443;
743.1000;0.1001;1.2443;
743.4000;0.1018;1.2467;
743.7000;0.0993;1.2467;
744.0000;0.0993;1.2467;
744.3000;0.0985;1.2443;
744.6000;0.0985;1.2514;
744.9000;0.1018;1.2561;
745.2000;0.1001;1.2491;
745.5000;0.0985;1.2373;
745.8000;0.0928;1.2184;
746.1000;0.0985;1.2302;
746.4000;0.1001;1.2467;
746.7000;0.1018;1.2491;
747.0000;0.0985;1.2349;
747.3000;0.0977;1.2443;
747.6000;0.0961;1.2208;
747.9000;0.1018;1.2279;
748.2000;0.0977;1.2137;
748.5000;0.0993;1.2184;
748.8000;0.0985;1.2114;
749.1000;0.1001;1.2184;
749.4000;0.0985;1.2231;
749.7000;0.1050;1.2373;
750.0000;0.0993;1.2231;
750.3000;0.1001;1.2326;
750.6000;0.1026;1.2326;
750.9000;0.0985;1.2326;
751.2000;0.1009;1.2396;
751.5000;0.1091;1.2561;
751.8000;0.1058;1.2491;
752.1000;0.0993;1.2279;
752.4000;0.0961;1.2184;
752.7000;0.0977;1.2326;
753.0000;0.1001;1.2443;
753.3000;0.0977;1.2420;
753.6000;0.0993;1.2443;
753.9000;0.1018;1.2491;
754.2000;0.1009;1.2443;
754.5000;0.1001;1.2467;
754.8000;0.0985;1.2396;
755.1000;0.0993;1.2514;
755.4000;0.1074;1.2679;
755.7000;0.1001;1.2373;
756.0000;0.0985;1.2302;
756.3000;0.1009;1.2302;
756.6000;0.1009;1.2302;
756.9000;0.1009;1.2443;
757.2000;0.0993;1.2396;
757.5000;0.0985;1.2443;
757.8000;0.1001;1.2491;
758.1000;0.0985;1.2349;
758.4000;0.0985;1.2349;
758.7000;0.0993;1.2396;
759.0000;0.0993;1.2373;
759.3000;0.0952;1.2302;
759.6000;0.0985;1.2396;
759.9000;0.1026;1.2538;
760.2000;0.1018;1.2585;
760.5000;0.0993;1.2538;
760.8000;0.1001;1.2491;
761.1000;0.1018;1.2467;
761.4000;0.1034;1.2420;
761.7000;0.1001;1.2255;
762.0000;0.1034;1.2326;
762.3000;0.0977;1.2208;
762.6000;0.0985;1.2208;
762.9000;0.0961;1.2114;
763.2000;0.0993;1.2184;
763.5000;0.0985;1.2137;
763.8000;0.1009;1.2184;
764.1000;0.0993;1.2208;
764.4000;0.1001;1.2326;
764.7000;0.0985;1.2373;
765.0000;0.0855;1.2090;
765.3000;0.1001;1.2443;
765.6000;0.0993;1.2373;
765.9000;0.1009;1.2373;
766.2000;0.1018;1.2420;
766.5000;0.1001;1.2373;
766.8000;0.0977;1.2326;
767.1000;0.0985;1.2349;
767.4000;0.0944;1.2302;
767.7000;0.1001;1.2396;
768.0000;0.0977;1.2255;
768.3000;0.1009;1.2326;
768.6000;0.0985;1.2302;
768.9000;0.0993;1.2373;
769.2000;0.0977;1.2302;
769.5000;0.0969;1.2302;
769.8000;0.0944;1.2184;
770.1000;0.0993;1.2443;
770.4000;0.0977;1.2443;
770.7000;0.0961;1.2467;
771.0000;0.0977;1.2467;
771.3000;0.0985;1.2538;
771.6000;0.1009;1.2585;
771.9000;0.0985;1.2467;
772.2000;0.0993;1.2420;
772.5000;0.0993;1.2420;
772.8000;0.1009;1.2443;
773.1000;0.1001;1.2443;
773.4000;0.0920;1.2161;
773.7000;0.0920;1.2231;
774.0000;0.1026;1.2491;
774.3000;0.0969;1.2373;
774.6000;0.0952;1.2279;
774.9000;0.0977;1.2326;
775.2000;0.1009;1.2443;
775.5000;0.0944;1.2255;
775.8000;0.0985;1.2420;
776.1000;0.1001;1.2491;
776.4000;0.0985;1.2491;
776.7000;0.0985;1.2514;
777.0000;0.0993;1.2514;
777.3000;0.1001;1.2585;
777.6000;0.1026;1.2608;
777.9000;0.0969;1.2538;
778.2000;0.1001;1.2538;
778.5000;0.0985;1.2443;
778.8000;0.1009;1.2467;
779.1000;0.0993;1.2349;
779.4000;0.0977;1.2349;
779.7000;0.0977;1.2326;
780.0000;0.0920;1.2114;
780.3000;0.1001;1.2349;
780.6000;0.1034;1.2373;
780.9000;0.0985;1.2255;
781.2000;0.0969;1.2302;
781.5000;0.0993;1.2349;
781.8000;0.0985;1.2349;
782.1000;0.0985;1.2349;
782.4000;0.0969;1.2302;
782.7000;0.0985;1.2302;
783.0000;0.0985;1.2349;
783.3000;0.0985;1.2231;
783.6000;0.0985;1.2326;
783.9000;0.0944;1.2255;
784.2000;0.0993;1.2443;
784.5000;0.0969;1.2349;
784.8000;0.0993;1.2396;
785.1000;0.1009;1.2443;
785.4000;0.1001;1.2420;
785.7000;0.1034;1.2538;
786.0000;0.0993;1.2396;
786.3000;0.0977;1.2231;
786.6000;0.1001;1.2326;
786.9000;0.0977;1.2231;
787.2000;0.0952;1.2161;
787.5000;0.0961;1.2208;
787.8000;0.0977;1.2231;
788.1000;0.0993;1.2231;
788.4000;0.1050;1.2396;
788.7000;0.0904;1.2114;
789.0000;0.0977;1.2349;
789.3000;0.0985;1.2467;
789.6000;0.0993;1.2420;
789.9000;0.0969;1.2373;
790.2000;0.0985;1.2373;
790.5000;0.0969;1.2326;
790.8000;0.0977;1.2279;
791.1000;0.1001;1.2326;
791.4000;0.0969;1.2279;
791.7000;0.1066;1.2561;
792.0000;0.1107;1.2561;
792.3000;0.1009;1.2349;
792.6000;0.0993;1.2326;
792.9000;0.0993;1.2349;
793.2000;0.0985;1.2279;
793.5000;0.0952;1.2208;
793.8000;0.1050;1.2420;
794.1000;0.0969;1.2161;
794.4000;0.0985;1.2208;
794.7000;0.0977;1.2137;
795.0000;0.1009;1.2255;
795.3000;0.1009;1.2208;
795.6000;0.1018;1.2231;
795.9000;0.1026;1.2184;
796.2000;0.1001;1.2184;
796.5000;0.1009;1.2208;
796.8000;0.1001;1.2208;
797.1000;0.1001;1.2255;
797.4000;0.1001;1.2302;
797.7000;0.0993;1.2208;
798.0000;0.0977;1.2184;
798.3000;0.0993;1.2184;
798.6000;0.1009;1.2279;
798.9000;0.0985;1.2255;
799.2000;0.1001;1.2255;
799.5000;0.1001;1.2184;
799.8000;0.0977;1.2066;
800.1000;0.0993;1.2279;
800.4000;0.1009;1.2326;
800.7000;0.1009;1.2326;
801.0000;0.0985;1.2279;
801.3000;0.0985;1.2255;
801.6000;0.0993;1.2231;
801.9000;0.0977;1.2208;
802.2000;0.0985;1.2302;
802.5000;0.0977;1.2373;
802.8000;0.0977;1.2396;
803.1000;0.0977;1.2443;
803.4000;0.0961;1.2349;
803.7000;0.0985;1.2326;
804.0000;0.0977;1.2255;
804.3000;0.0993;1.2302;
804.6000;0.1074;1.2514;
804.9000;0.0985;1.2326;
805.2000;0.0969;1.2349;
805.5000;0.0977;1.2420;
805.8000;0.1009;1.2467;
806.1000;0.1001;1.2443;
806.4000;0.0969;1.2326;
806.7000;0.1018;1.2396;
807.0000;0.0952;1.2208;
807.3000;0.1026;1.2467;
807.6000;0.0985;1.2349;
807.9000;0.1001;1.2396;
808.2000;0.0977;1.2326;
808.5000;0.0985;1.2302;
808.8000;0.0961;1.2208;
809.1000;0.0985;1.2279;
809.4000;0.0928;1.2184;
809.7000;0.0977;1.2349;
810.0000;0.0993;1.2373;
810.3000;0.1001;1.2443;
810.6000;0.0993;1.2396;
810.9000;0.0985;1.2302;
811.2000;0.1001;1.2467;
811.5000;0.0985;1.2443;
811.8000;0.1001;1.2349;
812.1000;0.0985;1.2373;
812.4000;0.1001;1.2443;
812.7000;0.1083;1.2679;
813.0000;0.0985;1.2373;
813.3000;0.0985;1.2396;
813.6000;0.0969;1.2396;
813.9000;0.0985;1.2467;
814.2000;0.0920;1.2231;
814.5000;0.1001;1.2420;
814.8000;0.0985;1.2420;
815.1000;0.0993;1.2420;
815.4000;0.0985;1.2373;
815.7000;0.1026;1.2373;
816.0000;0.0985;1.2208;
816.3000;0.1009;1.2279;
816.6000;0.0985;1.2208;
816.9000;0.0977;1.2231;
817.2000;0.0993;1.2231;
817.5000;0.1001;1.2326;
817.8000;0.0985;1.2326;
818.1000;0.0993;1.2373;
818.4000;0.0928;1.2161;
818.7000;0.0969;1.2396;
819.0000;0.0993;1.2373;
819.3000;0.1131;1.2773;
819.6000;0.0977;1.2326;
819.9000;0.0985;1.2373;
820.2000;0.0985;1.2349;
820.5000;0.1018;1.2514;
820.8000;0.0985;1.2561;
821.1000;0.0985;1.2514;
821.4000;0.0895;1.2255;
821.7000;0.1001;1.2538;
822.0000;0.0985;1.2491;
822.3000;0.0985;1.2443;
822.6000;0.1091;1.2797;
822.9000;0.1009;1.2561;
823.2000;0.0993;1.2467;
823.5000;0.0944;1.2373;
823.8000;0.0985;1.2514;
824.1000;0.1066;1.2726;
824.4000;0.0961;1.2349;
824.7000;0.0969;1.2349;
825.0000;0.1026;1.2491;
825.3000;0.0969;1.2279;
825.6000;0.0993;1.2326;
825.9000;0.1009;1.2326;
826.2000;0.0985;1.2255;
826.5000;0.1018;1.2326;
826.8000;0.0993;1.2302;
827.1000;0.0993;1.2255;
827.4000;0.0993;1.2302;
827.7000;0.0993;1.2326;
828.0000;0.0985;1.2373;
828.3000;0.0944;1.2137;
828.6000;0.1083;1.2514;
828.9000;0.0969;1.2279;
829.2000;0.0985;1.2279;
829.5000;0.0977;1.2231;
829.8000;0.1074;1.2538;
830.1000;0.0993;1.2420;
830.4000;0.1001;1.2302;
830.7000;0.0969;1.2231;
831.0000;0.0969;1.2161;
831.3000;0.0879;1.1901;
831.6000;0.1001;1.2255;
831.9000;0.1001;1.2349;
832.2000;0.0985;1.2279;
832.5000;0.0993;1.2231;
832.8000;0.0985;1.2279;
833.1000;0.0985;1.2349;
833.4000;0.0969;1.2231;
833.7000;0.0985;1.2231;
834.0000;0.0920;1.2043;
834.3000;0.0985;1.2161;
834.6000;0.0985;1.2231;
834.9000;0.1066;1.2373;
835.2000;0.0993;1.2114;
835.5000;0.0993;1.2090;
835.8000;0.0985;1.2043;
836.1000;0.1042;1.2279;
836.4000;0.0977;1.2137;
836.7000;0.0969;1.2137;
837.0000;0.0944;1.1925;
837.3000;0.0985;1.2114;
837.6000;0.1001;1.2161;
837.9000;0.0969;1.2114;
838.2000;0.0977;1.2090;
838.5000;0.0912;1.1925;
838.8000;0.0993;1.2090;
839.1000;0.1050;1.2255;
839.4000;0.0961;1.1996;
839.7000;0.0977;1.2019;
840.0000;0.0944;1.1854;
840.3000;0.0985;1.1925;
840.6000;0.0993;1.1878;
840.9000;0.0912;1.1666;
841.2000;0.0977;1.1760;
841.5000;0.0969;1.1713;
841.8000;0.1026;1.1831;
842.1000;0.1009;1.1784;
842.4000;0.1123;1.2208;
842.7000;0.0969;1.1807;
843.0000;0.0969;1.1901;
843.3000;0.1001;1.1996;
843.6000;0.0977;1.1925;
843.9000;0.0977;1.1996;
844.2000;0.0961;1.2043;
844.5000;0.1034;1.2231;
844.8000;0.0977;1.2019;
845.1000;0.0961;1.1996;
845.4000;0.1066;1.2279;
845.7000;0.0993;1.2137;
846.0000;0.1001;1.2184;
846.3000;0.0993;1.2066;
846.6000;0.0936;1.1972;
846.9000;0.0993;1.2066;
847.2000;0.1001;1.2066;
847.5000;0.0920;1.1878;
847.8000;0.0985;1.2019;
848.1000;0.0993;1.2019;
848.4000;0.0895;1.1760;
848.7000;0.0952;1.1831;
849.0000;0.0993;1.1901;
849.3000;0.0993;1.1925;
849.6000;0.0985;1.1925;
849.9000;0.0969;1.1878;
850.2000;0.0977;1.1901;
850.5000;0.0985;1.1901;
850.8000;0.0985;1.1878;
851.1000;0.0993;1.1878;
851.4000;0.0985;1.1925;
851.7000;0.1034;1.2137;
852.0000;0.0993;1.2066;
852.3000;0.0985;1.1972;
852.6000;0.0936;1.1949;
852.9000;0.0977;1.2019;
853.2000;0.0944;1.2019;
853.5000;0.0977;1.2114;
853.8000;0.0993;1.2114;
854.1000;0.1058;1.2231;
854.4000;0.0961;1.2019;
854.7000;0.0944;1.2019;
855.0000;0.0961;1.2019;
855.3000;0.1001;1.2161;
855.6000;0.0993;1.2137;
855.9000;0.1058;1.2279;
856.2000;0.0993;1.2114;
856.5000;0.0993;1.1996;
856.8000;0.0952;1.1996;
857.1000;0.0985;1.2255;
857.4000;0.0920;1.2114;
857.7000;0.0952;1.2043;
858.0000;0.1066;1.2255;
858.3000;0.0993;1.2090;
858.6000;0.0993;1.2114;
858.9000;0.0993;1.2114;
859.2000;0.0993;1.2137;
859.5000;0.0985;1.2137;
859.8000;0.0952;1.2066;
860.1000;0.0985;1.2231;
860.4000;0.1009;1.2208;
860.7000;0.1009;1.2161;
861.0000;0.0977;1.2114;
861.3000;0.0961;1.1972;
861.6000;0.0961;1.1925;
861.9000;0.0985;1.2066;
862.2000;0.1009;1.2161;
862.5000;0.0969;1.2090;
862.8000;0.1050;1.2231;
863.1000;0.0969;1.2066;
863.4000;0.1009;1.2137;
863.7000;0.0961;1.2043;
864.0000;0.1050;1.2302;
864.3000;0.0993;1.2114;
864.6000;0.1018;1.2231;
864.9000;0.0977;1.2114;
865.2000;0.0977;1.2114;
865.5000;0.1042;1.2231;
865.8000;0.0977;1.2114;
866.1000;0.0993;1.2255;
866.4000;0.1018;1.2255;
866.7000;0.0993;1.2137;
867.0000;0.0977;1.2066;
867.3000;0.0961;1.1901;
867.6000;0.0977;1.1901;
867.9000;0.0993;1.1901;
868.2000;0.1026;1.1996;
868.5000;0.0977;1.1854;
868.8000;0.0977;1.1854;
869.1000;0.0985;1.1854;
869.4000;0.1034;1.1996;
869.7000;0.0969;1.1760;
870.0000;0.1001;1.1901;
870.3000;0.1001;1.1901;
870.6000;0.0969;1.1854;
870.9000;0.0977;1.1949;
871.2000;0.1009;1.2043;
871.5000;0.1034;1.2161;
871.8000;0.0961;1.1996;
872.1000;0.0977;1.1972;
872.4000;0.1009;1.2114;
872.7000;0.1066;1.2349;
873.0000;0.0985;1.2043;
873.3000;0.1018;1.2043;
873.6000;0.0985;1.1949;
873.9000;0.0993;1.1949;
874.2000;0.0977;1.1878;
874.5000;0.0969;1.1878;
874.8000;0.1009;1.1996;
875.1000;0.1001;1.1925;
875.4000;0.1001;1.1949;
875.7000;0.1009;1.1901;
876.0000;0.0985;1.1925;
876.3000;0.0993;1.1854;
876.6000;0.1001;1.1878;
876.9000;0.0977;1.1925;
877.2000;0.0993;1.1996;
877.5000;0.1001;1.1925;
877.8000;0.0961;1.1925;
878.1000;0.0985;1.1972;
878.4000;0.0969;1.1901;
878.7000;0.1009;1.1972;
879.0000;0.1009;1.2019;
879.3000;0.0985;1.2066;
879.6000;0.0985;1.2090;
879.9000;0.0993;1.2114;
880.2000;0.0985;1.2043;
880.5000;0.0969;1.2019;
880.8000;0.0952;1.1925;
881.1000;0.0977;1.2019;
881.4000;0.0993;1.2090;
881.7000;0.1026;1.2137;
882.0000;0.0993;1.2066;
882.3000;0.1001;1.2114;
882.6000;0.1001;1.2161;
882.9000;0.1001;1.2208;
883.2000;0.0993;1.2137;
883.5000;0.0993;1.2137;
883.8000;0.1009;1.2161;
884.1000;0.0985;1.2090;
884.4000;0.1001;1.2208;
884.7000;0.0961;1.2137;
885.0000;0.0985;1.2137;
885.3000;0.0985;1.2137;
885.6000;0.0961;1.2184;
885.9000;0.0847;1.1854;
886.2000;0.1001;1.2231;
886.5000;0.1001;1.2255;
886.8000;0.0993;1.2090;
887.1000;0.0961;1.1972;
887.4000;0.0993;1.1996;
887.7000;0.1034;1.2043;
888.0000;0.1009;1.1972;
888.3000;0.0969;1.1901;
888.6000;0.0961;1.1831;
888.9000;0.0985;1.1925;
889.2000;0.0993;1.2043;
889.5000;0.0961;1.2019;
889.8000;0.0985;1.2066;
890.1000;0.0985;1.2137;
890.4000;0.0977;1.2019;
890.7000;0.0985;1.1996;
891.0000;0.1009;1.1925;
891.3000;0.1034;1.2019;
891.6000;0.0969;1.1949;
891.9000;0.0977;1.2043;
892.2000;0.0985;1.1996;
892.5000;0.0993;1.1996;
892.8000;0.1034;1.2043;
893.1000;0.1026;1.2066;
893.4000;0.0952;1.1901;
893.7000;0.0977;1.1972;
894.0000;0.0993;1.2066;
894.3000;0.0993;1.2090;
894.6000;0.0985;1.2137;
894.9000;0.0952;1.2114;
895.2000;0.0985;1.2255;
895.5000;0.0977;1.2090;
895.8000;0.0993;1.2137;
896.1000;0.0993;1.2137;
896.4000;0.0969;1.2090;
896.7000;0.0863;1.1901;
897.0000;0.0993;1.2161;
897.3000;0.0977;1.2137;
897.6000;0.1026;1.2208;
897.9000;0.1009;1.2114;
898.2000;0.0944;1.1972;
898.5000;0.0993;1.2043;
898.8000;0.0969;1.1972;
899.1000;0.0985;1.2019;
899.4000;0.1001;1.1996;
899.7000;0.0977;1.1949;
900.0000;0.0993;1.2019;
900.3000;0.1001;1.2019;
900.6000;0.0985;1.1949;
900.9000;0.0977;1.2043;
901.2000;0.0985;1.1925;
901.5000;0.1018;1.2043;
901.8000;0.0985;1.1901;
902.1000;0.0977;1.1878;
902.4000;0.0969;1.1854;
902.7000;0.0977;1.1878;
903.0000;0.1001;1.1972;
903.3000;0.0977;1.1901;
903.6000;0.0969;1.1901;
903.9000;0.0969;1.1854;
904.2000;0.0985;1.2019;
904.5000;0.1009;1.1996;
904.8000;0.0977;1.1925;
905.1000;0.0985;1.2043;
905.4000;0.0847;1.1713;
905.7000;0.0985;1.2114;
906.0000;0.0993;1.2066;
906.3000;0.0993;1.2066;
906.6000;0.1066;1.2279;
906.9000;0.1009;1.2043;
907.2000;0.0969;1.1996;
907.5000;0.0977;1.1996;
907.8000;0.0993;1.2066;
908.1000;0.0863;1.1736;
908.4000;0.0993;1.2066;
908.7000;0.0985;1.1972;
909.0000;0.0977;1.1972;
909.3000;0.0993;1.2043;
909.6000;0.0985;1.2066;
909.9000;0.0830;1.1713;
910.2000;0.0985;1.2137;
910.5000;0.0993;1.2161;
910.8000;0.1001;1.2161;
911.1000;0.0895;1.1949;
911.4000;0.0993;1.2255;
911.7000;0.0985;1.2231;
912.0000;0.1026;1.2373;
912.3000;0.0993;1.2302;
912.6000;0.0985;1.2255;
912.9000;0.1034;1.2326;
913.2000;0.0977;1.2161;
913.5000;0.0977;1.2161;
913.8000;0.1001;1.2161;
914.1000;0.1001;1.2114;
914.4000;0.0977;1.2090;
914.7000;0.0985;1.2161;
915.0000;0.0936;1.2019;
915.3000;0.1091;1.2396;
915.6000;0.1034;1.2208;
915.9000;0.0977;1.2161;
916.2000;0.0985;1.2255;
916.5000;0.0993;1.2302;
916.8000;0.1009;1.2349;
917.1000;0.0977;1.2255;
917.4000;0.0952;1.2208;
917.7000;0.0993;1.2326;
918.0000;0.0961;1.2231;
918.3000;0.1009;1.2326;
918.6000;0.1009;1.2302;
918.9000;0.0952;1.2137;
919.2000;0.0977;1.2231;
919.5000;0.0969;1.2255;
919.8000;0.0993;1.2349;
920.1000;0.0977;1.2231;
920.4000;0.0912;1.2043;
920.7000;0.0863;1.1854;
921.0000;0.1042;1.2326;
921.3000;0.1001;1.2137;
921.6000;0.0977;1.2019;
921.9000;0.1058;1.2279;
922.2000;0.0977;1.2114;
922.5000;0.0977;1.2161;
922.8000;0.1091;1.2467;
923.1000;0.0985;1.2279;
923.4000;0.0993;1.2279;
923.7000;0.0985;1.2161;
924.0000;0.0969;1.2043;
924.3000;0.0993;1.2137;
924.6000;0.1009;1.2137;
924.9000;0.0969;1.2184;
925.2000;0.0904;1.2019;
925.5000;0.0961;1.2255;
925.8000;0.1001;1.2443;
926.1000;0.0977;1.2467;
926.4000;0.0871;1.2184;
926.7000;0.1009;1.2491;
927.0000;0.0961;1.2255;
927.3000;0.1009;1.2396;
927.6000;0.0985;1.2231;
927.9000;0.0985;1.2184;
928.2000;0.0993;1.2137;
928.5000;0.0961;1.2137;
928.8000;0.1001;1.2161;
929.1000;0.0993;1.2019;
929.4000;0.0993;1.2043;
929.7000;0.1001;1.1972;
930.0000;0.0961;1.1878;
930.3000;0.0985;1.1901;
930.6000;0.0969;1.1925;
930.9000;0.0928;1.1831;
931.2000;0.0993;1.1925;
931.5000;0.0993;1.1949;
931.8000;0.0969;1.1972;
932.1000;0.0993;1.2043;
932.4000;0.0985;1.2043;
932.7000;0.1034;1.2255;
933.0000;0.0969;1.2114;
933.3000;0.0969;1.2090;
933.6000;0.1001;1.2184;
933.9000;0.0904;1.1901;
934.2000;0.0969;1.2114;
934.5000;0.0993;1.2184;
934.8000;0.1001;1.2184;
935.1000;0.1042;1.2255;
935.4000;0.0904;1.1831;
935.7000;0.1001;1.2208;
936.0000;0.1001;1.2231;
936.3000;0.0920;1.1996;
936.6000;0.0993;1.2208;
936.9000;0.0944;1.2019;
937.2000;0.1001;1.2161;
937.5000;0.0944;1.2043;
937.8000;0.0977;1.2114;
938.1000;0.0985;1.2090;
938.4000;0.0920;1.1972;
938.7000;0.0969;1.2043;
939.0000;0.0985;1.2066;
939.3000;0.0985;1.2066;
939.6000;0.1050;1.2255;
939.9000;0.0985;1.2043;
940.2000;0.0993;1.1972;
940.5000;0.0969;1.1925;
940.8000;0.0977;1.1996;
941.1000;0.0969;1.2090;
941.4000;0.0977;1.2090;
941.7000;0.1001;1.2137;
942.0000;0.0985;1.2184;
942.3000;0.0985;1.2114;
942.6000;0.0985;1.2184;
942.9000;0.0969;1.2184;
943.2000;0.0993;1.2231;
943.5000;0.0977;1.2184;
943.8000;0.0952;1.2137;
944.1000;0.0969;1.2184;
944.4000;0.1050;1.2443;
944.7000;0.0961;1.2114;
945.0000;0.0993;1.2231;
945.3000;0.0977;1.2161;
945.6000;0.1001;1.2161;
945.9000;0.1034;1.2231;
946.2000;0.0993;1.1949;
946.5000;0.0985;1.1854;
946.8000;0.0985;1.1878;
947.1000;0.1009;1.1854;
947.4000;0.0993;1.1854;
947.7000;0.0928;1.1807;
948.0000;0.0993;1.1925;
948.3000;0.1018;1.1996;
948.6000;0.1009;1.1996;
948.9000;0.0985;1.1972;
949.2000;0.0969;1.1949;
949.5000;0.0961;1.1949;
949.8000;0.1018;1.2137;
950.1000;0.0993;1.2184;
950.4000;0.1074;1.2514;
950.7000;0.0993;1.2231;
951.0000;0.0969;1.2161;
951.3000;0.0985;1.2184;
951.6000;0.0993;1.2231;
951.9000;0.0993;1.2302;
952.2000;0.1034;1.2396;
952.5000;0.1001;1.2302;
952.8000;0.1083;1.2514;
953.1000;0.0969;1.2255;
953.4000;0.0985;1.2302;
953.7000;0.0985;1.2302;
954.0000;0.0985;1.2255;
954.3000;0.0993;1.2302;
954.6000;0.0985;1.2184;
954.9000;0.0920;1.2114;
955.2000;0.1001;1.2326;
955.5000;0.0985;1.2184;
955.8000;0.1050;1.2373;
956.1000;0.0961;1.2161;
956.4000;0.0985;1.2231;
956.7000;0.1050;1.2443;
957.0000;0.0985;1.2231;
957.3000;0.0977;1.2114;
957.6000;0.0977;1.2114;
957.9000;0.1009;1.2231;
958.2000;0.0993;1.2326;
958.5000;0.0928;1.2137;
958.8000;0.0985;1.2255;
959.1000;0.0985;1.2255;
959.4000;0.1091;1.2467;
959.7000;0.0993;1.2231;
960.0000;0.0977;1.2114;
960.3000;0.0952;1.2066;
960.6000;0.1001;1.2161;
960.9000;0.1009;1.2255;
961.2000;0.1001;1.2279;
961.5000;0.1001;1.2326;
961.8000;0.1050;1.2420;
962.1000;0.0952;1.2043;
962.4000;0.0985;1.2208;
962.7000;0.1018;1.2255;
963.0000;0.1083;1.2538;
963.3000;0.0985;1.2302;
963.6000;0.1050;1.2514;
963.9000;0.0977;1.2302;
964.2000;0.0993;1.2373;
964.5000;0.0977;1.2373;
964.8000;0.1026;1.2491;
965.1000;0.1001;1.2396;
965.4000;0.0977;1.2396;
965.7000;0.1026;1.2443;
966.0000;0.0952;1.2184;
966.3000;0.0985;1.2255;
966.6000;0.0977;1.2184;
966.9000;0.0993;1.2231;
967.2000;0.0977;1.2208;
967.5000;0.0969;1.2161;
967.8000;0.1001;1.2231;
968.1000;0.0977;1.2161;
968.4000;0.0977;1.2208;
968.7000;0.1001;1.2208;
969.0000;0.0969;1.2161;
969.3000;0.1001;1.2231;
969.6000;0.1001;1.2231;
969.9000;0.0985;1.2184;
970.2000;0.0928;1.2066;
970.5000;0.1001;1.2184;
970.8000;0.1018;1.2255;
971.1000;0.1009;1.2231;
971.4000;0.1009;1.2279;
971.7000;0.0993;1.2302;
972.0000;0.0969;1.2326;
972.3000;0.1009;1.2349;
972.6000;0.0993;1.2349;
972.9000;0.1026;1.2373;
973.2000;0.1001;1.2326;
973.5000;0.1001;1.2208;
973.8000;0.0993;1.2184;
974.1000;0.0985;1.2255;
974.4000;0.0993;1.2208;
974.7000;0.1026;1.2231;
975.0000;0.0993;1.2090;
975.3000;0.1001;1.2161;
975.6000;0.0993;1.2090;
975.9000;0.1018;1.2208;
976.2000;0.0961;1.2090;
976.5000;0.1001;1.2255;
976.8000;0.0985;1.2231;
977.1000;0.0969;1.2114;
977.4000;0.0952;1.2161;
977.7000;0.0944;1.2019;
978.0000;0.0977;1.2161;
978.3000;0.0985;1.2231;
978.6000;0.0993;1.2208;
978.9000;0.0952;1.2090;
979.2000;0.0993;1.2184;
979.5000;0.1009;1.2302;
979.8000;0.0879;1.2114;
980.1000;0.0871;1.2090;
980.4000;0.1009;1.2373;
980.7000;0.1091;1.2491;
981.0000;0.0985;1.2326;
981.3000;0.1001;1.2396;
981.6000;0.0985;1.2302;
981.9000;0.0952;1.2255;
982.2000;0.0969;1.2373;
982.5000;0.0977;1.2349;
982.8000;0.0952;1.2302;
983.1000;0.1026;1.2491;
983.4000;0.1066;1.2632;
983.7000;0.0993;1.2396;
984.0000;0.0993;1.2420;
984.3000;0.0993;1.2326;
984.6000;0.1001;1.2231;
984.9000;0.0993;1.2255;
985.2000;0.0977;1.2184;
985.5000;0.0985;1.2255;
985.8000;0.0977;1.2231;
986.1000;0.1001;1.2208;
986.4000;0.0985;1.2208;
986.7000;0.0993;1.2302;
987.0000;0.1018;1.2420;
987.3000;0.1001;1.2467;
987.6000;0.0961;1.2349;
987.9000;0.0977;1.2396;
988.2000;0.0985;1.2467;
988.5000;0.0993;1.2514;
988.8000;0.0977;1.2420;
989.1000;0.0977;1.2373;
989.4000;0.0969;1.2420;
989.7000;0.0985;1.2514;
990.0000;0.1034;1.2420;
990.3000;0.0969;1.2208;
990.6000;0.0944;1.2090;
990.9000;0.0993;1.2137;
991.2000;0.0985;1.2137;
991.5000;0.0969;1.2043;
991.8000;0.1001;1.2184;
992.1000;0.1034;1.2208;
992.4000;0.0952;1.2043;
992.7000;0.0985;1.2161;
993.0000;0.0985;1.2231;
993.3000;0.1009;1.2161;
993.6000;0.1001;1.2184;
993.9000;0.0993;1.2137;
994.2000;0.0985;1.2066;
994.5000;0.1001;1.2114;
994.8000;0.0985;1.2066;
995.1000;0.0977;1.1996;
995.4000;0.1066;1.2231;
995.7000;0.1001;1.2019;
996.0000;0.0993;1.1996;
996.3000;0.0969;1.1949;
996.6000;0.0993;1.1996;
996.9000;0.0928;1.1854;
997.2000;0.1018;1.2066;
997.5000;0.0977;1.1996;
997.8000;0.0993;1.1996;
998.1000;0.0993;1.1972;
998.4000;0.0952;1.1878;
998.7000;0.0993;1.1949;
999.0000;0.0969;1.1901;
999.3000;0.0985;1.1901;
999.6000;0.0993;1.1996;
999.9000;0.0993;1.2066;
1000.2000;0.0977;1.2066;
1000.5000;0.0969;1.1972;
1000.8000;0.0904;1.1784;
1001.1000;0.1026;1.2066;
1001.4000;0.0985;1.1878;
1001.7000;0.1001;1.1925;
1002.0000;0.0985;1.1972;
1002.3000;0.0985;1.1901;
1002.6000;0.1042;1.2114;
1002.9000;0.0985;1.1972;
1003.2000;0.0993;1.1996;
1003.5000;0.1009;1.1949;
1003.8000;0.1001;1.1996;
1004.1000;0.1001;1.1996;
1004.4000;0.0985;1.1972;
1004.7000;0.1058;1.2255;
1005.0000;0.1001;1.2279;
1005.3000;0.0977;1.2279;
1005.6000;0.1001;1.2373;
1005.9000;0.0985;1.2349;
1006.2000;0.0920;1.2231;
1006.5000;0.1001;1.2420;
1006.8000;0.0952;1.2279;
1007.1000;0.1050;1.2467;
1007.4000;0.0985;1.2349;
1007.7000;0.0936;1.2255;
1008.0000;0.1050;1.2514;
1008.3000;0.1001;1.2302;
1008.6000;0.0936;1.2066;
1008.9000;0.0871;1.1807;
1009.2000;0.0977;1.2114;
1009.5000;0.0985;1.2114;
1009.8000;0.1066;1.2349;
1010.1000;0.0993;1.2279;
1010.4000;0.0977;1.2231;
1010.7000;0.1009;1.2302;
1011.0000;0.1001;1.2349;
1011.3000;0.0985;1.2326;
1011.6000;0.0961;1.2255;
1011.9000;0.0969;1.2231;
1012.2000;0.0985;1.2420;
1012.5000;0.0961;1.2373;
1012.8000;0.0985;1.2467;
1013.1000;0.0985;1.2373;
1013.4000;0.0985;1.2302;
1013.7000;0.0985;1.2373;
1014.0000;0.1001;1.2420;
1014.3000;0.0985;1.2326;
1014.6000;0.0977;1.2161;
1014.9000;0.0985;1.2161;
1015.2000;0.1009;1.2302;
1015.5000;0.0952;1.2231;
1015.8000;0.0969;1.2279;
1016.1000;0.1001;1.2255;
1016.4000;0.1074;1.2467;
1016.7000;0.1001;1.2326;
1017.0000;0.0944;1.2137;
1017.3000;0.0977;1.2114;
1017.6000;0.1001;1.2255;
1017.9000;0.0936;1.2090;
1018.2000;0.0928;1.2090;
1018.5000;0.0993;1.2326;
1018.8000;0.1026;1.2302;
1019.1000;0.1009;1.2255;
1019.4000;0.0912;1.2043;
1019.7000;0.0944;1.2066;
1020.0000;0.0952;1.2114;
1020.3000;0.1050;1.2373;
1020.6000;0.1009;1.2279;
1020.9000;0.0993;1.2231;
1021.2000;0.0985;1.2279;
1021.5000;0.0977;1.2231;
1021.8000;0.0977;1.2161;
1022.1000;0.0985;1.2114;
1022.4000;0.0969;1.2137;
1022.7000;0.1001;1.2279;
1023.0000;0.0944;1.2161;
1023.3000;0.1009;1.2326;
1023.6000;0.0977;1.2255;
1023.9000;0.1001;1.2279;
1024.2000;0.1009;1.2349;
1024.5000;0.0993;1.2208;
1024.8000;0.0985;1.2231;
1025.1000;0.1001;1.2255;
1025.4000;0.0993;1.2208;
1025.7000;0.1009;1.2231;
1026.0000;0.0969;1.2114;
1026.3000;0.1001;1.2208;
1026.6000;0.0985;1.2208;
1026.9000;0.1026;1.2279;
1027.2000;0.0977;1.2184;
1027.5000;0.0993;1.2326;
1027.8000;0.0985;1.2255;
1028.1000;0.0985;1.2161;
1028.4000;0.1001;1.2279;
1028.7000;0.0895;1.1996;
1029.0000;0.0985;1.2208;
1029.3000;0.0952;1.2114;
1029.6000;0.1026;1.2326;
1029.9000;0.0977;1.2184;
1030.2000;0.0993;1.2231;
1030.5000;0.0977;1.2279;
1030.8000;0.0969;1.2231;
1031.1000;0.0969;1.2184;
1031.4000;0.0920;1.2114;
1031.7000;0.0977;1.2161;
1032.0000;0.1026;1.2279;
1032.3000;0.0977;1.2090;
1032.6000;0.0969;1.2137;
1032.9000;0.0993;1.2231;
1033.2000;0.0977;1.2090;
1033.5000;0.0993;1.2043;
1033.8000;0.1058;1.2090;
1034.1000;0.0993;1.2019;
1034.4000;0.1009;1.2137;
1034.7000;0.0985;1.2137;
1035.0000;0.1058;1.2420;
1035.3000;0.1001;1.2231;
1035.6000;0.1123;1.2585;
1035.9000;0.0961;1.2231;
1036.2000;0.0985;1.2349;
1036.5000;0.1026;1.2467;
1036.8000;0.0985;1.2255;
1037.1000;0.0977;1.2279;
1037.4000;0.0977;1.2279;
1037.7000;0.0993;1.2279;
1038.0000;0.0993;1.2302;
1038.3000;0.0993;1.2279;
1038.6000;0.0977;1.2279;
1038.9000;0.0952;1.2184;
1039.2000;0.0985;1.2208;
1039.5000;0.0969;1.2161;
1039.8000;0.0993;1.2184;
1040.1000;0.0993;1.2208;
1040.4000;0.1001;1.2231;
1040.7000;0.0961;1.2208;
1041.0000;0.1034;1.2396;
1041.3000;0.0977;1.2184;
1041.6000;0.0985;1.2114;
1041.9000;0.0993;1.2114;
1042.2000;0.0985;1.2114;
1042.5000;0.0985;1.2114;
1042.8000;0.0961;1.2066;
1043.1000;0.0977;1.1996;
1043.4000;0.0944;1.1972;
1043.7000;0.0969;1.2090;
1044.0000;0.0985;1.2161;
1044.3000;0.1042;1.2349;
1044.6000;0.1009;1.2255;
1044.9000;0.0977;1.2161;
1045.2000;0.1001;1.2161;
1045.5000;0.1001;1.2208;
1045.8000;0.0993;1.2137;
1046.1000;0.0985;1.2090;
1046.4000;0.0985;1.2066;
1046.7000;0.0952;1.2019;
1047.0000;0.0936;1.1996;
1047.3000;0.0985;1.2137;
1047.6000;0.0912;1.1972;
1047.9000;0.0985;1.2137;
1048.2000;0.0977;1.2137;
1048.5000;0.0985;1.2208;
1048.8000;0.0977;1.2208;
1049.1000;0.1001;1.2279;
1049.4000;0.0993;1.2255;
1049.7000;0.1058;1.2326;
1050.0000;0.0985;1.2043;
1050.3000;0.0952;1.1996;
1050.6000;0.1001;1.2208;
1050.9000;0.0977;1.2066;
1051.2000;0.0985;1.2090;
1051.5000;0.1001;1.2090;
1051.8000;0.0969;1.2137;
1052.1000;0.0993;1.2279;
1052.4000;0.0912;1.2114;
1052.7000;0.1034;1.2326;
1053.0000;0.0993;1.2184;
1053.3000;0.1018;1.2302;
1053.6000;0.0985;1.2161;
1053.9000;0.0993;1.2184;
1054.2000;0.1001;1.2231;
1054.5000;0.1123;1.2491;
1054.8000;0.0969;1.2114;
1055.1000;0.1001;1.2184;
1055.4000;0.0961;1.2090;
1055.7000;0.0993;1.2114;
1056.0000;0.0928;1.1878;
1056.3000;0.0993;1.2090;
1056.6000;0.1009;1.2090;
1056.9000;0.0993;1.2043;
1057.2000;0.0969;1.2066;
1057.5000;0.0920;1.1972;
1057.8000;0.1001;1.2114;
1058.1000;0.0985;1.2066;
1058.4000;0.1009;1.2161;
1058.7000;0.0985;1.2161;
1059.0000;0.0977;1.2231;
1059.3000;0.1009;1.2373;
1059.6000;0.1042;1.2420;
1059.9000;0.1001;1.2420;
1060.2000;0.1001;1.2373;
1060.5000;0.0993;1.2349;
1060.8000;0.0977;1.2302;
1061.1000;0.1001;1.2349;
1061.4000;0.0952;1.2161;
1061.7000;0.0952;1.2137;
1062.0000;0.0977;1.2043;
1062.3000;0.0952;1.1996;
1062.6000;0.0944;1.2043;
1062.9000;0.1009;1.2231;
1063.2000;0.1001;1.2231;
1063.5000;0.0969;1.2114;
1063.8000;0.1001;1.2137;
1064.1000;0.1009;1.2231;
1064.4000;0.0993;1.2255;
1064.7000;0.0993;1.2208;
1065.0000;0.0977;1.2184;
1065.3000;0.0961;1.2114;
1065.6000;0.0985;1.2137;
1065.9000;0.0985;1.2161;
1066.2000;0.0969;1.2090;
1066.5000;0.1009;1.2090;
1066.8000;0.1018;1.2066;
1067.1000;0.1001;1.2090;
1067.4000;0.0977;1.2137;
1067.7000;0.1001;1.2255;
1068.0000;0.0961;1.2114;
1068.3000;0.0961;1.2066;
1068.6000;0.0969;1.2231;
1068.9000;0.0993;1.2396;
1069.2000;0.0952;1.2184;
1069.5000;0.0985;1.2255;
1069.8000;0.1034;1.2373;
1070.1000;0.0969;1.2184;
1070.4000;0.0961;1.2090;
1070.7000;0.1042;1.2255;
1071.0000;0.0985;1.2137;
1071.3000;0.0985;1.2137;
1071.6000;0.0977;1.2161;
1071.9000;0.1001;1.2184;
1072.2000;0.1074;1.2396;
1072.5000;0.0977;1.2231;
1072.8000;0.0961;1.2114;
1073.1000;0.0863;1.1807;
1073.4000;0.1018;1.2114;
1073.7000;0.1042;1.2208;
1074.0000;0.0961;1.2043;
1074.3000;0.0993;1.2137;
1074.6000;0.0993;1.2114;
1074.9000;0.1009;1.2137;
1075.2000;0.0993;1.2090;
1075.5000;0.1091;1.2349;
1075.8000;0.0993;1.2019;
1076.1000;0.0985;1.2019;
1076.4000;0.1042;1.2231;
1076.7000;0.0993;1.2066;
1077.0000;0.1042;1.2161;
1077.3000;0.0993;1.2090;
1077.6000;0.0985;1.2090;
1077.9000;0.1018;1.2184;
1078.2000;0.0969;1.2043;
1078.5000;0.0993;1.2066;
1078.8000;0.0936;1.1949;
1079.1000;0.0977;1.2137;
1079.4000;0.0977;1.2114;
1079.7000;0.0985;1.2255;
1080.0000;0.1001;1.2161;
1080.3000;0.1001;1.2137;
1080.6000;0.0993;1.2090;
1080.9000;0.0993;1.2137;
1081.2000;0.1001;1.2137;
1081.5000;0.1018;1.2326;
1081.8000;0.1034;1.2373;
1082.1000;0.0985;1.2231;
1082.4000;0.1058;1.2396;
1082.7000;0.0985;1.2184;
1083.0000;0.0977;1.2137;
1083.3000;0.0977;1.2066;
1083.6000;0.0969;1.2043;
1083.9000;0.1001;1.2161;
1084.2000;0.1001;1.2161;
1084.5000;0.0977;1.2090;
1084.8000;0.1058;1.2279;
1085.1000;0.0985;1.2043;
1085.4000;0.0977;1.1996;
1085.7000;0.0912;1.1949;
1086.0000;0.1099;1.2396;
1086.3000;0.1001;1.2255;
1086.6000;0.0969;1.2161;
1086.9000;0.0985;1.2161;
1087.2000;0.0985;1.2090;
1087.5000;0.1034;1.2184;
1087.8000;0.0993;1.2137;
1088.1000;0.0961;1.2043;
1088.4000;0.0977;1.2019;
1088.7000;0.0985;1.2043;
1089.0000;0.1001;1.2114;
1089.3000;0.0985;1.2137;
1089.6000;0.1018;1.2302;
1089.9000;0.1001;1.2255;
1090.2000;0.0993;1.2184;
1090.5000;0.0969;1.2090;
1090.8000;0.1001;1.2043;
1091.1000;0.0993;1.2090;
1091.4000;0.1026;1.2137;
1091.7000;0.1009;1.2066;
1092.0000;0.0985;1.1972;
1092.3000;0.0993;1.1925;
1092.6000;0.0977;1.1925;
1092.9000;0.1001;1.1949;
1093.2000;0.0993;1.1925;
1093.5000;0.0977;1.1854;
1093.8000;0.0985;1.1901;
1094.1000;0.1099;1.2208;
1094.4000;0.0952;1.1878;
1094.7000;0.1042;1.2161;
1095.0000;0.0920;1.1901;
1095.3000;0.1001;1.2137;
1095.6000;0.1026;1.2231;
1095.9000;0.0985;1.2090;
1096.2000;0.0993;1.2066;
1096.5000;0.1058;1.2279;
1096.8000;0.0944;1.1925;
1097.1000;0.0977;1.2066;
1097.4000;0.0969;1.2066;
1097.7000;0.0952;1.2090;
1098.0000;0.0985;1.2066;
1098.3000;0.0969;1.2066;
1098.6000;0.0993;1.2161;
1098.9000;0.0977;1.2161;
1099.2000;0.1009;1.2114;
1099.5000;0.0993;1.2114;
1099.8000;0.0977;1.2043;
1100.1000;0.1001;1.2019;
1100.4000;0.0993;1.1996;
1100.7000;0.0961;1.1949;
1101.0000;0.0977;1.1996;
1101.3000;0.0985;1.2090;
1101.6000;0.0993;1.2090;
1101.9000;0.0985;1.2137;
1102.2000;0.0969;1.2090;
1102.5000;0.0977;1.2090;
1102.8000;0.0985;1.2066;
1103.1000;0.0977;1.2066;
1103.4000;0.0969;1.2043;
1103.7000;0.0985;1.1972;
1104.0000;0.0985;1.1878;
1104.3000;0.0985;1.1854;
1104.6000;0.0969;1.1784;
1104.9000;0.0977;1.1854;
1105.2000;0.0944;1.1784;
1105.5000;0.0985;1.1901;
1105.8000;0.0993;1.1949;
1106.1000;0.0985;1.1972;
1106.4000;0.0977;1.1972;
1106.7000;0.0977;1.2043;
1107.0000;0.0985;1.2043;
1107.3000;0.1001;1.2090;
1107.6000;0.0944;1.1972;
1107.9000;0.0985;1.2043;
1108.2000;0.0993;1.2137;
1108.5000;0.0969;1.2019;
1108.8000;0.0977;1.2090;
1109.1000;0.0985;1.2066;
1109.4000;0.0961;1.1996;
1109.7000;0.1001;1.2231;
1110.0000;0.1001;1.2231;
1110.3000;0.1009;1.2302;
1110.6000;0.1001;1.2255;
1110.9000;0.0985;1.2231;
1111.2000;0.0977;1.2161;
1111.5000;0.0993;1.2114;
1111.8000;0.1009;1.2137;
1112.1000;0.0993;1.2114;
1112.4000;0.0985;1.2066;
1112.7000;0.0977;1.1949;
1113.0000;0.0977;1.1949;
1113.3000;0.0993;1.2066;
1113.6000;0.0993;1.2066;
1113.9000;0.1001;1.2090;
1114.2000;0.1074;1.2302;
1114.5000;0.1001;1.2184;
1114.8000;0.1001;1.2161;
1115.1000;0.0993;1.2161;
1115.4000;0.0993;1.2208;
1115.7000;0.0961;1.2090;
1116.0000;0.1001;1.2137;
1116.3000;0.0977;1.2137;
1116.6000;0.0969;1.2114;
1116.9000;0.1001;1.2184;
1117.2000;0.0969;1.2114;
1117.5000;0.0904;1.1949;
1117.8000;0.1115;1.2443;
1118.1000;0.0985;1.2066;
1118.4000;0.0985;1.2184;
1118.7000;0.0985;1.2255;
1119.0000;0.0855;1.1901;
1119.3000;0.0993;1.2231;
1119.6000;0.1001;1.2161;
1119.9000;0.0977;1.2043;
1120.2000;0.0985;1.2137;
1120.5000;0.1123;1.2467;
1120.8000;0.1018;1.2066;
1121.1000;0.0985;1.1949;
1121.4000;0.0993;1.1949;
1121.7000;0.0985;1.1901;
1122.0000;0.0993;1.1972;
1122.3000;0.1034;1.2161;
1122.6000;0.0961;1.2066;
1122.9000;0.0993;1.2231;
1123.2000;0.0985;1.2279;
1123.5000;0.0985;1.2326;
1123.8000;0.0977;1.2231;
1124.1000;0.0977;1.2279;
1124.4000;0.1001;1.2326;
1124.7000;0.0993;1.2255;
1125.0000;0.0961;1.2208;
1125.3000;0.1074;1.2538;
1125.6000;0.1099;1.2585;
1125.9000;0.1009;1.2373;
1126.2000;0.0993;1.2279;
1126.5000;0.0993;1.2231;
1126.8000;0.0969;1.2255;
1127.1000;0.0993;1.2349;
1127.4000;0.0969;1.2302;
1127.7000;0.0961;1.2255;
1128.0000;0.1066;1.2420;
1128.3000;0.0985;1.2161;
1128.6000;0.0969;1.2137;
1128.9000;0.0977;1.2208;
1129.2000;0.1042;1.2420;
1129.5000;0.1018;1.2279;
1129.8000;0.0969;1.2066;
1130.1000;0.0985;1.2090;
1130.4000;0.0985;1.2090;
1130.7000;0.0977;1.2019;
1131.0000;0.0985;1.2161;
1131.3000;0.1001;1.2161;
1131.6000;0.0977;1.2114;
1131.9000;0.0977;1.2066;
1132.2000;0.0985;1.2090;
1132.5000;0.0961;1.2090;
1132.8000;0.1018;1.2208;
1133.1000;0.0985;1.2090;
1133.4000;0.1042;1.2302;
1133.7000;0.0985;1.2161;
1134.0000;0.0993;1.2302;
1134.3000;0.0944;1.2231;
1134.6000;0.1026;1.2349;
1134.9000;0.0887;1.1996;
1135.2000;0.1001;1.2184;
1135.5000;0.0993;1.2137;
1135.8000;0.0847;1.1784;
1136.1000;0.1001;1.2161;
1136.4000;0.1131;1.2514;
1136.7000;0.0985;1.2231;
1137.0000;0.0985;1.2279;
1137.3000;0.0985;1.2279;
1137.6000;0.0985;1.2326;
1137.9000;0.1001;1.2349;
1138.2000;0.0985;1.2396;
1138.5000;0.1001;1.2396;
1138.8000;0.1018;1.2467;
1139.1000;0.0977;1.2396;
1139.4000;0.0985;1.2302;
1139.7000;0.0977;1.2184;
1140.0000;0.0977;1.2161;
1140.3000;0.1066;1.2326;
1140.6000;0.0969;1.2184;
1140.9000;0.0985;1.2255;
1141.2000;0.0985;1.2208;
1141.5000;0.1001;1.2302;
1141.8000;0.1001;1.2231;
1142.1000;0.0985;1.2161;
1142.4000;0.1026;1.2255;
1142.7000;0.0977;1.2161;
1143.0000;0.0977;1.2184;
1143.3000;0.0985;1.2231;
1143.6000;0.0977;1.2255;
1143.9000;0.1034;1.2420;
1144.2000;0.0895;1.2043;
1144.5000;0.0936;1.2184;
1144.8000;0.1001;1.2396;
1145.1000;0.0977;1.2349;
1145.4000;0.0993;1.2255;
1145.7000;0.0993;1.2208;
1146.0000;0.0969;1.2114;
1146.3000;0.0985;1.2137;
1146.6000;0.0993;1.2184;
1146.9000;0.1001;1.2184;
1147.2000;0.0985;1.2208;
1147.5000;0.1018;1.2326;
1147.8000;0.1009;1.2279;
1148.1000;0.0985;1.2208;
1148.4000;0.0993;1.2326;
1148.7000;0.1009;1.2326;
1149.0000;0.0961;1.2231;
1149.3000;0.0952;1.2161;
1149.6000;0.1026;1.2396;
1149.9000;0.0969;1.2279;
1150.2000;0.1001;1.2396;
1150.5000;0.0977;1.2349;
1150.8000;0.0993;1.2349;
1151.1000;0.1009;1.2373;
1151.4000;0.0969;1.2326;
1151.7000;0.0993;1.2349;
1152.0000;0.0977;1.2302;
1152.3000;0.0952;1.2184;
1152.6000;0.0993;1.2255;
1152.9000;0.0985;1.2231;
1153.2000;0.1001;1.2302;
1153.5000;0.0985;1.2349;
1153.8000;0.1001;1.2420;
1154.1000;0.0977;1.2396;
1154.4000;0.0977;1.2373;
1154.7000;0.1018;1.2443;
1155.0000;0.0969;1.2302;
1155.3000;0.1001;1.2420;
1155.6000;0.0977;1.2396;
1155.9000;0.0961;1.2349;
1156.2000;0.0993;1.2396;
1156.5000;0.0977;1.2349;
1156.8000;0.0977;1.2373;
1157.1000;0.0985;1.2326;
1157.4000;0.0969;1.2255;
1157.7000;0.0977;1.2208;
1158.0000;0.1001;1.2373;
1158.3000;0.0977;1.2349;
1158.6000;0.1009;1.2420;
1158.9000;0.0985;1.2349;
1159.2000;0.0961;1.2326;
1159.5000;0.0993;1.2443;
1159.8000;0.0985;1.2467;
1160.1000;0.1001;1.2561;
1160.4000;0.1058;1.2773;
1160.7000;0.1018;1.2561;
1161.0000;0.1009;1.2443;
1161.3000;0.1018;1.2420;
1161.6000;0.1050;1.2491;
1161.9000;0.0977;1.2302;
1162.2000;0.1001;1.2443;
1162.5000;0.0912;1.2184;
1162.8000;0.0993;1.2420;
1163.1000;0.0969;1.2443;
1163.4000;0.1026;1.2585;
1163.7000;0.0952;1.2396;
1164.0000;0.0993;1.2420;
1164.3000;0.0985;1.2467;
1164.6000;0.0985;1.2514;
1164.9000;0.0985;1.2491;
1165.2000;0.1009;1.2561;
1165.5000;0.0952;1.2443;
1165.8000;0.1001;1.2679;
1166.1000;0.0993;1.2656;
1166.4000;0.1018;1.2773;
1166.7000;0.0993;1.2632;
1167.0000;0.0993;1.2608;
1167.3000;0.0969;1.2561;
1167.6000;0.1107;1.2844;
1167.9000;0.0985;1.2326;
1168.2000;0.0977;1.2302;
1168.5000;0.1018;1.2420;
1168.8000;0.0985;1.2396;
1169.1000;0.0993;1.2279;
1169.4000;0.1026;1.2302;
1169.7000;0.0969;1.2161;
1170.0000;0.0993;1.2279;
1170.3000;0.0977;1.2184;
1170.6000;0.1001;1.2302;
1170.9000;0.1001;1.2279;
1171.2000;0.1001;1.2326;
1171.5000;0.0977;1.2231;
1171.8000;0.0969;1.2208;
1172.1000;0.0961;1.2184;
1172.4000;0.1009;1.2161;
1172.7000;0.0969;1.2137;
1173.0000;0.1026;1.2255;
1173.3000;0.1009;1.2208;
1173.6000;0.1018;1.2279;
1173.9000;0.0961;1.2114;
1174.2000;0.0977;1.2137;
1174.5000;0.0985;1.2137;
1174.8000;0.1018;1.2161;
1175.1000;0.0977;1.2066;
1175.4000;0.1009;1.2114;
1175.7000;0.1009;1.2090;
1176.0000;0.0912;1.1925;
1176.3000;0.1001;1.2231;
1176.6000;0.0977;1.2114;
1176.9000;0.0985;1.2137;
1177.2000;0.0993;1.2184;
1177.5000;0.0993;1.2208;
1177.8000;0.1009;1.2420;
1178.1000;0.1034;1.2491;
1178.4000;0.1009;1.2443;
1178.7000;0.0985;1.2420;
1179.0000;0.0993;1.2373;
1179.3000;0.0969;1.2302;
1179.6000;0.0977;1.2349;
1179.9000;0.1009;1.2349;
1180.2000;0.0977;1.2184;
1180.5000;0.0993;1.2184;
1180.8000;0.0993;1.2184;
1181.1000;0.1009;1.2208;
1181.4000;0.1026;1.2231;
1181.7000;0.1042;1.2279;
1182.0000;0.0863;1.1854;
1182.3000;0.0993;1.2161;
1182.6000;0.1001;1.2208;
1182.9000;0.0920;1.2019;
1183.2000;0.0993;1.2255;
1183.5000;0.0985;1.2302;
1183.8000;0.0977;1.2255;
1184.1000;0.1001;1.2231;
1184.4000;0.1066;1.2443;
1184.7000;0.1042;1.2326;
1185.0000;0.1001;1.2302;
1185.3000;0.0977;1.2137;
1185.6000;0.1001;1.2161;
1185.9000;0.0993;1.2184;
1186.2000;0.0985;1.2161;
1186.5000;0.1018;1.2279;
1186.8000;0.1026;1.2349;
1187.1000;0.0993;1.2231;
1187.4000;0.0977;1.2302;
1187.7000;0.0993;1.2326;
1188.0000;0.0985;1.2326;
1188.3000;0.0952;1.2326;
1188.6000;0.1009;1.2467;
1188.9000;0.0985;1.2302;
1189.2000;0.0969;1.2161;
1189.5000;0.0944;1.2137;
1189.8000;0.0985;1.2137;
1190.1000;0.0969;1.2114;
1190.4000;0.1009;1.2302;
1190.7000;0.0969;1.2184;
1191.0000;0.1066;1.2514;
1191.3000;0.0969;1.2279;
1191.6000;0.1009;1.2443;
1191.9000;0.1001;1.2467;
1192.2000;0.1001;1.2514;
1192.5000;0.1074;1.2726;
1192.8000;0.1001;1.2561;
1193.1000;0.0985;1.2420;
1193.4000;0.0961;1.2373;
1193.7000;0.0985;1.2373;
1194.0000;0.0961;1.2279;
1194.3000;0.1034;1.2467;
1194.6000;0.0977;1.2279;
1194.9000;0.1001;1.2184;
1195.2000;0.0985;1.2208;
1195.5000;0.1026;1.2373;
1195.8000;0.1058;1.2514;
1196.1000;0.0977;1.2349;
1196.4000;0.0961;1.2373;
1196.7000;0.0977;1.2326;
1197.0000;0.1018;1.2467;
1197.3000;0.0993;1.2467;
1197.6000;0.0977;1.2420;
1197.9000;0.0985;1.2443;
1198.2000;0.0985;1.2396;
1198.5000;0.0993;1.2279;
1198.8000;0.0977;1.2302;
1199.1000;0.0977;1.2231;
1199.4000;0.1009;1.2326;
1199.7000;0.0977;1.2302;
1200.0000;0.1026;1.2514;
1200.3000;0.1001;1.2443;
1200.6000;0.1001;1.2467;
1200.9000;0.1009;1.2443;
1201.2000;0.0993;1.2349;
1201.5000;0.0969;1.2279;
1201.8000;0.0977;1.2326;
1202.1000;0.0977;1.2326;
1202.4000;0.0977;1.2349;
1202.7000;0.0904;1.2066;
1203.0000;0.0977;1.2302;
1203.3000;0.0944;1.2255;
1203.6000;0.0985;1.2302;
1203.9000;0.0985;1.2349;
1204.2000;0.0952;1.2279;
1204.5000;0.1009;1.2373;
1204.8000;0.0985;1.2302;
1205.1000;0.0985;1.2373;
1205.4000;0.0985;1.2302;
1205.7000;0.1099;1.2585;
1206.0000;0.0961;1.2255;
1206.3000;0.1074;1.2561;
1206.6000;0.0993;1.2467;
1206.9000;0.0985;1.2538;
1207.2000;0.1115;1.2868;
1207.5000;0.0977;1.2538;
1207.8000;0.0977;1.2467;
1208.1000;0.0977;1.2467;
1208.4000;0.0969;1.2349;
1208.7000;0.1009;1.2443;
1209.0000;0.0969;1.2396;
1209.3000;0.0952;1.2349;
1209.6000;0.0961;1.2231;
1209.9000;0.0985;1.2231;
1210.2000;0.0969;1.2255;
1210.5000;0.0969;1.2231;
1210.8000;0.0985;1.2373;
1211.1000;0.0977;1.2373;
1211.4000;0.0985;1.2396;
1211.7000;0.0985;1.2373;
1212.0000;0.0985;1.2326;
1212.3000;0.0993;1.2302;
1212.6000;0.0969;1.2326;
1212.9000;0.0928;1.2231;
1213.2000;0.0977;1.2279;
1213.5000;0.0944;1.2231;
1213.8000;0.0993;1.2326;
1214.1000;0.0961;1.2326;
1214.4000;0.0969;1.2420;
1214.7000;0.0993;1.2443;
1215.0000;0.0993;1.2491;
1215.3000;0.0993;1.2491;
1215.6000;0.1001;1.2561;
1215.9000;0.0977;1.2514;
1216.2000;0.0993;1.2538;
1216.5000;0.1001;1.2585;
1216.8000;0.1001;1.2561;
1217.1000;0.0977;1.2467;
1217.4000;0.1009;1.2373;
1217.7000;0.1009;1.2255;
1218.0000;0.0969;1.2090;
1218.3000;0.0985;1.2114;
1218.6000;0.0985;1.2066;
1218.9000;0.0944;1.1972;
1219.2000;0.1001;1.2231;
1219.5000;0.0977;1.2326;
1219.8000;0.1034;1.2491;
1220.1000;0.1018;1.2561;
1220.4000;0.1001;1.2585;
1220.7000;0.1001;1.2632;
1221.0000;0.0928;1.2420;
1221.3000;0.1009;1.2679;
1221.6000;0.0879;1.2326;
1221.9000;0.0993;1.2656;
1222.2000;0.0961;1.2467;
1222.5000;0.0985;1.2491;
1222.8000;0.0961;1.2514;
1223.1000;0.1001;1.2514;
1223.4000;0.0952;1.2373;
1223.7000;0.1018;1.2467;
1224.0000;0.0977;1.2420;
1224.3000;0.0993;1.2467;
1224.6000;0.0985;1.2420;
1224.9000;0.1001;1.2491;
1225.2000;0.1001;1.2538;
1225.5000;0.0969;1.2373;
1225.8000;0.0887;1.2255;
1226.1000;0.0944;1.2420;
1226.4000;0.1018;1.2656;
1226.7000;0.1026;1.2585;
1227.0000;0.0952;1.2396;
1227.3000;0.0969;1.2396;
1227.6000;0.1018;1.2467;
1227.9000;0.0985;1.2326;
1228.2000;0.0993;1.2302;
1228.5000;0.0952;1.2279;
1228.8000;0.1018;1.2467;
1229.1000;0.0977;1.2302;
1229.4000;0.1074;1.2538;
1229.7000;0.0985;1.2349;
1230.0000;0.0977;1.2326;
1230.3000;0.1066;1.2538;
1230.6000;0.0969;1.2255;
1230.9000;0.0985;1.2279;
1231.2000;0.1042;1.2467;
1231.5000;0.1026;1.2420;
1231.8000;0.0977;1.2373;
1232.1000;0.0961;1.2326;
1232.4000;0.0993;1.2420;
1232.7000;0.0993;1.2396;
1233.0000;0.0961;1.2302;
1233.3000;0.0969;1.2231;
1233.6000;0.1018;1.2396;
1233.9000;0.1001;1.2349;
1234.2000;0.0969;1.2302;
1234.5000;0.0920;1.2066;
1234.8000;0.0961;1.2161;
1235.1000;0.0961;1.2090;
1235.4000;0.0977;1.2208;
1235.7000;0.0977;1.2208;
1236.0000;0.0944;1.2137;
1236.3000;0.0985;1.2302;
1236.6000;0.0920;1.2137;
1236.9000;0.0985;1.2255;
1237.2000;0.1009;1.2326;
1237.5000;0.0985;1.2279;
1237.8000;0.1001;1.2491;
1238.1000;0.0977;1.2373;
1238.4000;0.1009;1.2443;
1238.7000;0.0985;1.2420;
1239.0000;0.0969;1.2302;
1239.3000;0.0977;1.2302;
1239.6000;0.0961;1.2396;
1239.9000;0.1042;1.2632;
1240.2000;0.0993;1.2443;
1240.5000;0.0912;1.2326;
1240.8000;0.0977;1.2467;
1241.1000;0.0969;1.2420;
1241.4000;0.1018;1.2561;
1241.7000;0.0936;1.2326;
1242.0000;0.0985;1.2396;
1242.3000;0.0993;1.2443;
1242.6000;0.0985;1.2443;
1242.9000;0.1001;1.2443;
1243.2000;0.1001;1.2396;
1243.5000;0.0969;1.2326;
1243.8000;0.1026;1.2514;
1244.1000;0.0985;1.2373;
1244.4000;0.0993;1.2420;
1244.7000;0.1009;1.2349;
1245.0000;0.0993;1.2231;
1245.3000;0.0977;1.2231;
1245.6000;0.1018;1.2326;
1245.9000;0.1001;1.2302;
1246.2000;0.0993;1.2302;
1246.5000;0.1009;1.2373;
1246.8000;0.0985;1.2279;
1247.1000;0.0977;1.2373;
1247.4000;0.1009;1.2538;
1247.7000;0.0969;1.2467;
1248.0000;0.1018;1.2632;
1248.3000;0.0977;1.2467;
1248.6000;0.0895;1.2279;
1248.9000;0.0977;1.2443;
1249.2000;0.1001;1.2538;
1249.5000;0.1001;1.2561;
1249.8000;0.0985;1.2467;
1250.1000;0.0977;1.2467;
1250.4000;0.0969;1.2349;
1250.7000;0.0985;1.2420;
1251.0000;0.1001;1.2396;
1251.3000;0.0969;1.2396;
1251.6000;0.1018;1.2467;
1251.9000;0.0993;1.2514;
1252.2000;0.0993;1.2538;
1252.5000;0.0985;1.2632;
1252.8000;0.1009;1.2632;
1253.1000;0.1034;1.2608;
1253.4000;0.0977;1.2373;
1253.7000;0.0993;1.2302;
1254.0000;0.0936;1.2114;
1254.3000;0.0977;1.2326;
1254.6000;0.0985;1.2373;
1254.9000;0.0985;1.2443;
1255.2000;0.0961;1.2396;
1255.5000;0.1042;1.2561;
1255.8000;0.1026;1.2514;
1256.1000;0.0961;1.2349;
1256.4000;0.0969;1.2443;
1256.7000;0.1001;1.2443;
1257.0000;0.1009;1.2443;
1257.3000;0.1001;1.2491;
1257.6000;0.0993;1.2538;
1257.9000;0.0985;1.2538;
1258.2000;0.0977;1.2467;
1258.5000;0.1018;1.2443;
1258.8000;0.0985;1.2349;
1259.1000;0.0985;1.2326;
1259.4000;0.1009;1.2420;
1259.7000;0.0969;1.2255;
1260.0000;0.0961;1.2302;
1260.3000;0.0993;1.2279;
1260.6000;0.1034;1.2443;
1260.9000;0.1034;1.2467;
1261.2000;0.1009;1.2491;
1261.5000;0.0961;1.2396;
1261.8000;0.0969;1.2349;
1262.1000;0.0985;1.2420;
1262.4000;0.0993;1.2279;
1262.7000;0.1001;1.2396;
1263.0000;0.1099;1.2703;
1263.3000;0.1042;1.2632;
1263.6000;0.0985;1.2443;
1263.9000;0.0969;1.2420;
1264.2000;0.0961;1.2396;
1264.5000;0.1050;1.2632;
1264.8000;0.0985;1.2467;
1265.1000;0.0977;1.2443;
1265.4000;0.1034;1.2585;
1265.7000;0.0912;1.2231;
1266.0000;0.0969;1.2420;
1266.3000;0.1050;1.2726;
1266.6000;0.0879;1.2161;
1266.9000;0.0969;1.2349;
1267.2000;0.0977;1.2396;
1267.5000;0.0993;1.2538;
1267.8000;0.0936;1.2349;
1268.1000;0.1066;1.2703;
1268.4000;0.0977;1.2443;
1268.7000;0.0985;1.2443;
1269.0000;0.0977;1.2396;
1269.3000;0.0952;1.2302;
1269.6000;0.0993;1.2326;
1269.9000;0.0977;1.2279;
1270.2000;0.0969;1.2231;
1270.5000;0.0993;1.2326;
1270.8000;0.0952;1.2255;
1271.1000;0.0977;1.2279;
1271.4000;0.0977;1.2349;
1271.7000;0.0993;1.2396;
1272.0000;0.0985;1.2349;
1272.3000;0.0969;1.2326;
1272.6000;0.0969;1.2302;
1272.9000;0.0985;1.2255;
1273.2000;0.1001;1.2349;
1273.5000;0.1026;1.2538;
1273.8000;0.0993;1.2514;
1274.1000;0.0977;1.2538;
1274.4000;0.0985;1.2561;
1274.7000;0.0977;1.2514;
1275.0000;0.0985;1.2491;
1275.3000;0.1018;1.2585;
1275.6000;0.0969;1.2420;
1275.9000;0.1009;1.2467;
1276.2000;0.1009;1.2420;
1276.5000;0.0847;1.2090;
1276.8000;0.1026;1.2561;
1277.1000;0.1009;1.2491;
1277.4000;0.1131;1.2891;
1277.7000;0.0993;1.2585;
1278.0000;0.0952;1.2538;
1278.3000;0.0969;1.2608;
1278.6000;0.0985;1.2656;
1278.9000;0.1009;1.2608;
1279.2000;0.0993;1.2608;
1279.5000;0.1058;1.2703;
1279.8000;0.0952;1.2302;
1280.1000;0.0985;1.2326;
1280.4000;0.0977;1.2302;
1280.7000;0.1018;1.2491;
1281.0000;0.0952;1.2514;
1281.3000;0.0977;1.2679;
1281.6000;0.0904;1.2585;
1281.9000;0.1042;1.2844;
1282.2000;0.0993;1.2726;
1282.5000;0.0952;1.2585;
1282.8000;0.0977;1.2656;
1283.1000;0.0961;1.2632;
1283.4000;0.0977;1.2632;
1283.7000;0.0985;1.2561;
1284.0000;0.0969;1.2443;
1284.3000;0.0952;1.2443;
1284.6000;0.0944;1.2373;
1284.9000;0.0969;1.2538;
1285.2000;0.0993;1.2538;
1285.5000;0.0961;1.2396;
1285.8000;0.0952;1.2491;
1286.1000;0.0977;1.2585;
1286.4000;0.1026;1.2656;
1286.7000;0.1001;1.2656;
1287.0000;0.1026;1.2703;
1287.3000;0.1042;1.2868;
1287.6000;0.1018;1.2797;
1287.9000;0.1009;1.2773;
1288.2000;0.0993;1.2632;
1288.5000;0.0993;1.2656;
1288.8000;0.0936;1.2491;
1289.1000;0.0977;1.2514;
1289.4000;0.1018;1.2679;
1289.7000;0.1001;1.2632;
1290.0000;0.0977;1.2467;
1290.3000;0.0985;1.2491;
1290.6000;0.0993;1.2538;
1290.9000;0.1009;1.2585;
1291.2000;0.1001;1.2585;
1291.5000;0.0993;1.2608;
1291.8000;0.0969;1.2608;
1292.1000;0.0969;1.2656;
1292.4000;0.0993;1.2632;
1292.7000;0.0985;1.2514;
1293.0000;0.1034;1.2585;
1293.3000;0.0969;1.2443;
1293.6000;0.1009;1.2491;
1293.9000;0.0977;1.2326;
1294.2000;0.0977;1.2255;
1294.5000;0.1001;1.2279;
1294.8000;0.0985;1.2302;
1295.1000;0.0928;1.2114;
1295.4000;0.1009;1.2326;
1295.7000;0.0993;1.2326;
1296.0000;0.0985;1.2208;
1296.3000;0.1001;1.2279;
1296.6000;0.0985;1.2326;
1296.9000;0.0977;1.2373;
1297.2000;0.1001;1.2349;
1297.5000;0.0961;1.2326;
1297.8000;0.0993;1.2514;
1298.1000;0.0985;1.2491;
1298.4000;0.1042;1.2656;
1298.7000;0.0985;1.2467;
1299.0000;0.1001;1.2491;
1299.3000;0.0977;1.2491;
1299.6000;0.0977;1.2538;
1299.9000;0.0993;1.2608;
1300.2000;0.1009;1.2608;
1300.5000;0.1001;1.2585;
1300.8000;0.0977;1.2443;
1301.1000;0.0969;1.2443;
1301.4000;0.0961;1.2396;
1301.7000;0.0977;1.2491;
1302.0000;0.0977;1.2467;
1302.3000;0.1009;1.2632;
1302.6000;0.0977;1.2514;
1302.9000;0.0961;1.2491;
1303.2000;0.1001;1.2585;
1303.5000;0.1107;1.2915;
1303.8000;0.0952;1.2585;
1304.1000;0.0993;1.2726;
1304.4000;0.0985;1.2656;
1304.7000;0.0977;1.2608;
1305.0000;0.1050;1.2632;
1305.3000;0.0985;1.2538;
1305.6000;0.1001;1.2585;
1305.9000;0.0969;1.2561;
1306.2000;0.0985;1.2585;
1306.5000;0.0969;1.2538;
1306.8000;0.0985;1.2585;
1307.1000;0.0961;1.2561;
1307.4000;0.0993;1.2632;
1307.7000;0.0993;1.2632;
1308.0000;0.1001;1.2561;
1308.3000;0.0985;1.2538;
1308.6000;0.0977;1.2514;
1308.9000;0.1001;1.2585;
1309.2000;0.0993;1.2467;
1309.5000;0.0961;1.2443;
1309.8000;0.0985;1.2561;
1310.1000;0.1009;1.2585;
1310.4000;0.0993;1.2561;
1310.7000;0.1009;1.2561;
1311.0000;0.1018;1.2585;
1311.3000;0.0993;1.2585;
1311.6000;0.1001;1.2608;
1311.9000;0.1009;1.2561;
1312.2000;0.0993;1.2514;
1312.5000;0.0993;1.2538;
1312.8000;0.0985;1.2538;
1313.1000;0.0985;1.2538;
1313.4000;0.0969;1.2491;
1313.7000;0.1018;1.2585;
1314.0000;0.0993;1.2608;
1314.3000;0.0977;1.2514;
1314.6000;0.0977;1.2608;
1314.9000;0.0993;1.2491;
1315.2000;0.0977;1.2491;
1315.5000;0.0977;1.2420;
1315.8000;0.0961;1.2491;
1316.1000;0.0928;1.2396;
1316.4000;0.0993;1.2514;
1316.7000;0.1018;1.2608;
1317.0000;0.1058;1.2703;
1317.3000;0.0985;1.2491;
1317.6000;0.0993;1.2467;
1317.9000;0.0969;1.2396;
1318.2000;0.0993;1.2467;
1318.5000;0.1018;1.2561;
1318.8000;0.0985;1.2420;
1319.1000;0.0985;1.2420;
1319.4000;0.0993;1.2349;
1319.7000;0.1001;1.2443;
1320.0000;0.0920;1.2279;
1320.3000;0.1001;1.2420;
1320.6000;0.0961;1.2302;
1320.9000;0.0993;1.2443;
1321.2000;0.0952;1.2349;
1321.5000;0.1001;1.2373;
1321.8000;0.0993;1.2443;
1322.1000;0.0985;1.2467;
1322.4000;0.1034;1.2585;
1322.7000;0.0969;1.2349;
1323.0000;0.0993;1.2420;
1323.3000;0.0993;1.2443;
1323.6000;0.0993;1.2420;
1323.9000;0.1018;1.2396;
1324.2000;0.0985;1.2302;
1324.5000;0.0985;1.2373;
1324.8000;0.1001;1.2326;
1325.1000;0.1042;1.2491;
1325.4000;0.0912;1.2184;
1325.7000;0.0993;1.2420;
1326.0000;0.1018;1.2373;
1326.3000;0.0847;1.1901;
1326.6000;0.0985;1.2279;
1326.9000;0.1009;1.2420;
1327.2000;0.1009;1.2491;
1327.5000;0.0993;1.2443;
1327.8000;0.0977;1.2420;
1328.1000;0.0920;1.2231;
1328.4000;0.1001;1.2491;
1328.7000;0.0985;1.2491;
1329.0000;0.0993;1.2373;
1329.3000;0.0985;1.2467;
1329.6000;0.1009;1.2538;
1329.9000;0.0993;1.2514;
1330.2000;0.0993;1.2443;
1330.5000;0.0985;1.2349;
1330.8000;0.0977;1.2279;
1331.1000;0.0863;1.1878;
1331.4000;0.1018;1.2231;
1331.7000;0.0985;1.2137;
1332.0000;0.0993;1.2137;
1332.3000;0.1026;1.2090;
1332.6000;0.1018;1.2114;
1332.9000;0.1001;1.2231;
1333.2000;0.0993;1.2279;
1333.5000;0.0993;1.2349;
1333.8000;0.0977;1.2255;
1334.1000;0.1099;1.2491;
1334.4000;0.0985;1.2208;
1334.7000;0.0952;1.2114;
1335.0000;0.0961;1.2161;
1335.3000;0.0985;1.2208;
1335.6000;0.0993;1.2208;
1335.9000;0.1001;1.2302;
1336.2000;0.0985;1.2255;
1336.5000;0.0993;1.2255;
1336.8000;0.0993;1.2349;
1337.1000;0.0961;1.2255;
1337.4000;0.1001;1.2373;
1337.7000;0.0887;1.2043;
1338.0000;0.0936;1.2137;
1338.3000;0.0977;1.2349;
1338.6000;0.0952;1.2326;
1338.9000;0.0977;1.2420;
1339.2000;0.0993;1.2443;
1339.5000;0.1001;1.2467;
1339.8000;0.0985;1.2420;
1340.1000;0.1026;1.2443;
1340.4000;0.0993;1.2255;
1340.7000;0.0969;1.2161;
1341.0000;0.0977;1.2255;
1341.3000;0.0969;1.2231;
1341.6000;0.0977;1.2302;
1341.9000;0.0961;1.2326;
1342.2000;0.0969;1.2231;
1342.5000;0.0969;1.2255;
1342.8000;0.1001;1.2349;
1343.1000;0.0969;1.2279;
1343.4000;0.0993;1.2349;
1343.7000;0.0977;1.2302;
1344.0000;0.0977;1.2373;
1344.3000;0.0977;1.2349;
1344.6000;0.0977;1.2279;
1344.9000;0.0952;1.2161;
1345.2000;0.0985;1.2114;
1345.5000;0.1001;1.2302;
1345.8000;0.0969;1.2302;
1346.1000;0.0993;1.2373;
1346.4000;0.0977;1.2279;
1346.7000;0.0977;1.2255;
1347.0000;0.1001;1.2279;
1347.3000;0.1034;1.2349;
1347.6000;0.0961;1.2090;
1347.9000;0.0985;1.2231;
1348.2000;0.1026;1.2396;
1348.5000;0.0952;1.2161;
1348.8000;0.0969;1.2255;
1349.1000;0.0985;1.2302;
1349.4000;0.0961;1.2184;
1349.7000;0.1001;1.2349;
1350.0000;0.1001;1.2420;
1350.3000;0.0952;1.2255;
1350.6000;0.0977;1.2302;
1350.9000;0.0977;1.2279;
1351.2000;0.0961;1.2184;
1351.5000;0.0977;1.2184;
1351.8000;0.0985;1.2255;
1352.1000;0.0985;1.2279;
1352.4000;0.1001;1.2231;
1352.7000;0.1009;1.2279;
1353.0000;0.0969;1.2302;
1353.3000;0.0985;1.2349;
1353.6000;0.0993;1.2420;
1353.9000;0.0961;1.2208;
1354.2000;0.0944;1.2208;
1354.5000;0.0961;1.2255;
1354.8000;0.0871;1.1949;
1355.1000;0.1001;1.2255;
1355.4000;0.1018;1.2373;
1355.7000;0.0977;1.2396;
1356.0000;0.0985;1.2373;
1356.3000;0.1099;1.2656;
1356.6000;0.1066;1.2679;
1356.9000;0.1034;1.2561;
1357.2000;0.0985;1.2491;
1357.5000;0.0928;1.2373;
1357.8000;0.1009;1.2632;
1358.1000;0.0952;1.2467;
1358.4000;0.1091;1.2703;
1358.7000;0.1034;1.2561;
1359.0000;0.0952;1.2302;
1359.3000;0.0977;1.2420;
1359.6000;0.1001;1.2538;
1359.9000;0.1001;1.2420;
1360.2000;0.1018;1.2349;
1360.5000;0.1001;1.2255;
1360.8000;0.1009;1.2231;
1361.1000;0.0969;1.2208;
1361.4000;0.0969;1.2208;
1361.7000;0.0985;1.2326;
1362.0000;0.0985;1.2255;
1362.3000;0.0985;1.2231;
1362.6000;0.0961;1.2208;
1362.9000;0.0993;1.2326;
1363.2000;0.0985;1.2302;
1363.5000;0.0985;1.2302;
1363.8000;0.0977;1.2208;
1364.1000;0.0977;1.2279;
1364.4000;0.1001;1.2373;
1364.7000;0.0961;1.2184;
1365.0000;0.0993;1.2349;
1365.3000;0.0952;1.2255;
1365.6000;0.1009;1.2420;
1365.9000;0.0993;1.2349;
1366.2000;0.0993;1.2279;
1366.5000;0.0977;1.2349;
1366.8000;0.0977;1.2373;
1367.1000;0.0961;1.2326;
1367.4000;0.1001;1.2326;
1367.7000;0.0993;1.2396;
1368.0000;0.0985;1.2326;
1368.3000;0.0961;1.2231;
1368.6000;0.0993;1.2279;
1368.9000;0.0993;1.2302;
1369.2000;0.0969;1.2255;
1369.5000;0.0985;1.2231;
1369.8000;0.1018;1.2208;
1370.1000;0.0985;1.2090;
1370.4000;0.0952;1.1996;
1370.7000;0.0961;1.2019;
1371.0000;0.0969;1.2090;
1371.3000;0.1001;1.2255;
1371.6000;0.0920;1.2137;
1371.9000;0.0969;1.2255;
1372.2000;0.0985;1.2373;
1372.5000;0.1099;1.2750;
1372.8000;0.0985;1.2538;
1373.1000;0.0985;1.2514;
1373.4000;0.0993;1.2585;
1373.7000;0.0969;1.2467;
1374.0000;0.1001;1.2538;
1374.3000;0.1001;1.2561;
1374.6000;0.0985;1.2538;
1374.9000;0.0912;1.2349;
1375.2000;0.0969;1.2467;
1375.5000;0.0969;1.2491;
1375.8000;0.1034;1.2773;
1376.1000;0.0944;1.2538;
1376.4000;0.0985;1.2679;
1376.7000;0.0985;1.2608;
1377.0000;0.0969;1.2514;
1377.3000;0.0985;1.2514;
1377.6000;0.0944;1.2302;
1377.9000;0.1001;1.2443;
1378.2000;0.1009;1.2443;
1378.5000;0.0985;1.2467;
1378.8000;0.0936;1.2373;
1379.1000;0.0977;1.2443;
1379.4000;0.0977;1.2491;
1379.7000;0.0961;1.2396;
1380.0000;0.0985;1.2491;
1380.3000;0.0928;1.2420;
1380.6000;0.0977;1.2514;
1380.9000;0.0993;1.2585;
1381.2000;0.1058;1.2679;
1381.5000;0.0961;1.2420;
1381.8000;0.1009;1.2656;
1382.1000;0.0969;1.2585;
1382.4000;0.0961;1.2514;
1382.7000;0.0936;1.2514;
1383.0000;0.0969;1.2608;
1383.3000;0.0944;1.2561;
1383.6000;0.0969;1.2703;
1383.9000;0.0961;1.2679;
1384.2000;0.1001;1.2773;
1384.5000;0.1034;1.2797;
1384.8000;0.0944;1.2608;
1385.1000;0.0952;1.2703;
1385.4000;0.0985;1.2750;
1385.7000;0.0928;1.2514;
1386.0000;0.1018;1.2632;
1386.3000;0.0993;1.2443;
1386.6000;0.0993;1.2396;
1386.9000;0.1018;1.2538;
1387.2000;0.0993;1.2514;
1387.5000;0.0977;1.2443;
1387.8000;0.0985;1.2491;
1388.1000;0.1009;1.2491;
1388.4000;0.0969;1.2396;
1388.7000;0.0993;1.2420;
1389.0000;0.0977;1.2420;
1389.3000;0.1009;1.2420;
1389.6000;0.0985;1.2396;
1389.9000;0.0969;1.2349;
1390.2000;0.1001;1.2467;
1390.5000;0.0993;1.2491;
1390.8000;0.1066;1.2585;
1391.1000;0.1001;1.2491;
1391.4000;0.0961;1.2349;
1391.7000;0.1001;1.2420;
1392.0000;0.0936;1.2279;
1392.3000;0.0920;1.2279;
1392.6000;0.0936;1.2349;
1392.9000;0.1009;1.2443;
1393.2000;0.0985;1.2231;
1393.5000;0.0993;1.2255;
1393.8000;0.1018;1.2349;
1394.1000;0.0944;1.2184;
1394.4000;0.1009;1.2420;
1394.7000;0.0993;1.2467;
1395.0000;0.1066;1.2679;
1395.3000;0.0969;1.2396;
1395.6000;0.1009;1.2514;
1395.9000;0.0952;1.2396;
1396.2000;0.0993;1.2561;
1396.5000;0.0969;1.2467;
1396.8000;0.0993;1.2373;
1397.1000;0.1001;1.2326;
1397.4000;0.0985;1.2302;
1397.7000;0.0993;1.2255;
1398.0000;0.0993;1.2184;
1398.3000;0.0993;1.2279;
1398.6000;0.0977;1.2302;
1398.9000;0.0985;1.2255;
1399.2000;0.0969;1.2279;
1399.5000;0.1026;1.2467;
1399.8000;0.0985;1.2373;
