time/ms;Fluo/V;P700 deltaI/I x10³;
-199.8000;0.3915;0.8241;
-199.5000;0.3923;0.8336;
-199.2000;0.3875;0.8289;
-198.9000;0.3867;0.8241;
-198.6000;0.3834;0.8099;
-198.3000;0.3826;0.8028;
-198.0000;0.3883;0.8123;
-197.7000;0.3883;0.8052;
-197.4000;0.3883;0.8004;
-197.1000;0.3858;0.7957;
-196.8000;0.3875;0.8052;
-196.5000;0.3858;0.8004;
-196.2000;0.3842;0.7981;
-195.9000;0.3883;0.8146;
-195.6000;0.3899;0.8241;
-195.3000;0.3891;0.8265;
-195.0000;0.3891;0.8265;
-194.7000;0.3883;0.8217;
-194.4000;0.3899;0.8265;
-194.1000;0.3899;0.8289;
-193.8000;0.3875;0.8312;
-193.5000;0.3891;0.8360;
-193.2000;0.3891;0.8407;
-192.9000;0.3923;0.8525;
-192.6000;0.3883;0.8383;
-192.3000;0.3899;0.8383;
-192.0000;0.3875;0.8336;
-191.7000;0.3883;0.8265;
-191.4000;0.3899;0.8312;
-191.1000;0.3867;0.8312;
-190.8000;0.3956;0.8431;
-190.5000;0.3867;0.8146;
-190.2000;0.3875;0.8217;
-189.9000;0.3883;0.8312;
-189.6000;0.3883;0.8265;
-189.3000;0.3891;0.8312;
-189.0000;0.3875;0.8289;
-188.7000;0.3875;0.8336;
-188.4000;0.3907;0.8431;
-188.1000;0.3875;0.8289;
-187.8000;0.3915;0.8383;
-187.5000;0.4013;0.8644;
-187.2000;0.3883;0.8312;
-186.9000;0.3891;0.8312;
-186.6000;0.3826;0.8123;
-186.3000;0.3891;0.8312;
-186.0000;0.3883;0.8454;
-185.7000;0.3883;0.8407;
-185.4000;0.3883;0.8383;
-185.1000;0.3875;0.8289;
-184.8000;0.3891;0.8383;
-184.5000;0.3850;0.8383;
-184.2000;0.3867;0.8360;
-183.9000;0.3850;0.8336;
-183.6000;0.3858;0.8336;
-183.3000;0.3858;0.8312;
-183.0000;0.3875;0.8407;
-182.7000;0.3842;0.8241;
-182.4000;0.3875;0.8265;
-182.1000;0.3891;0.8312;
-181.8000;0.3875;0.8431;
-181.5000;0.3875;0.8360;
-181.2000;0.3875;0.8265;
-180.9000;0.3867;0.8170;
-180.6000;0.3785;0.8028;
-180.3000;0.3891;0.8289;
-180.0000;0.3891;0.8241;
-179.7000;0.3875;0.8217;
-179.4000;0.3875;0.8289;
-179.1000;0.3883;0.8265;
-178.8000;0.3883;0.8241;
-178.5000;0.3883;0.8217;
-178.2000;0.3883;0.8265;
-177.9000;0.3875;0.8312;
-177.6000;0.3899;0.8383;
-177.3000;0.3858;0.8217;
-177.0000;0.3867;0.8241;
-176.7000;0.3883;0.8289;
-176.4000;0.3923;0.8383;
-176.1000;0.3899;0.8265;
-175.8000;0.3858;0.8099;
-175.5000;0.3867;0.8052;
-175.2000;0.3883;0.8194;
-174.9000;0.3907;0.8336;
-174.6000;0.3891;0.8289;
-174.3000;0.3867;0.8312;
-174.0000;0.3867;0.8360;
-173.7000;0.3932;0.8407;
-173.4000;0.3858;0.8170;
-173.1000;0.3883;0.8217;
-172.8000;0.3875;0.8289;
-172.5000;0.3867;0.8383;
-172.2000;0.3867;0.8360;
-171.9000;0.3923;0.8525;
-171.6000;0.3793;0.8170;
-171.3000;0.3867;0.8360;
-171.0000;0.3875;0.8265;
-170.7000;0.3875;0.8336;
-170.4000;0.3875;0.8289;
-170.1000;0.3891;0.8265;
-169.8000;0.3997;0.8525;
-169.5000;0.3875;0.8194;
-169.2000;0.3867;0.8075;
-168.9000;0.3875;0.8004;
-168.6000;0.3964;0.8194;
-168.3000;0.3850;0.7933;
-168.0000;0.3989;0.8289;
-167.7000;0.3867;0.8028;
-167.4000;0.3899;0.8028;
-167.1000;0.3891;0.7957;
-166.8000;0.3875;0.8075;
-166.5000;0.3867;0.8028;
-166.2000;0.3891;0.8004;
-165.9000;0.3899;0.8028;
-165.6000;0.3883;0.8004;
-165.3000;0.3891;0.8028;
-165.0000;0.3883;0.8028;
-164.7000;0.3875;0.8028;
-164.4000;0.3818;0.7933;
-164.1000;0.3834;0.7933;
-163.8000;0.3867;0.7957;
-163.5000;0.3867;0.7910;
-163.2000;0.3883;0.7957;
-162.9000;0.3858;0.8004;
-162.6000;0.3891;0.8241;
-162.3000;0.3891;0.8241;
-162.0000;0.3883;0.8217;
-161.7000;0.3875;0.8217;
-161.4000;0.3891;0.8265;
-161.1000;0.3875;0.8170;
-160.8000;0.3883;0.8217;
-160.5000;0.3867;0.8099;
-160.2000;0.3858;0.8170;
-159.9000;0.3875;0.8217;
-159.6000;0.3867;0.8194;
-159.3000;0.3907;0.8265;
-159.0000;0.3891;0.8170;
-158.7000;0.3867;0.8123;
-158.4000;0.3891;0.8123;
-158.1000;0.3891;0.8123;
-157.8000;0.3875;0.8099;
-157.5000;0.3883;0.8289;
-157.2000;0.3785;0.8194;
-156.9000;0.3891;0.8431;
-156.6000;0.3867;0.8312;
-156.3000;0.3850;0.8194;
-156.0000;0.3867;0.8194;
-155.7000;0.3875;0.8217;
-155.4000;0.3875;0.8075;
-155.1000;0.3891;0.8123;
-154.8000;0.3891;0.8194;
-154.5000;0.3891;0.8123;
-154.2000;0.3891;0.8146;
-153.9000;0.3875;0.8099;
-153.6000;0.3867;0.8123;
-153.3000;0.3875;0.8123;
-153.0000;0.3891;0.8099;
-152.7000;0.3867;0.8099;
-152.4000;0.3867;0.8123;
-152.1000;0.3883;0.8146;
-151.8000;0.3883;0.8099;
-151.5000;0.3850;0.8146;
-151.2000;0.3875;0.8217;
-150.9000;0.3899;0.8289;
-150.6000;0.3867;0.8217;
-150.3000;0.3891;0.8312;
-150.0000;0.3940;0.8407;
-149.7000;0.3932;0.8431;
-149.4000;0.3899;0.8336;
-149.1000;0.3891;0.8360;
-148.8000;0.3867;0.8312;
-148.5000;0.3842;0.8217;
-148.2000;0.3875;0.8312;
-147.9000;0.3883;0.8454;
-147.6000;0.3875;0.8431;
-147.3000;0.3875;0.8312;
-147.0000;0.3940;0.8454;
-146.7000;0.3867;0.8217;
-146.4000;0.3883;0.8312;
-146.1000;0.3867;0.8241;
-145.8000;0.3858;0.8028;
-145.5000;0.3915;0.8123;
-145.2000;0.3907;0.8265;
-144.9000;0.3875;0.8241;
-144.6000;0.3915;0.8241;
-144.3000;0.3891;0.8123;
-144.0000;0.3915;0.8075;
-143.7000;0.3907;0.8099;
-143.4000;0.3899;0.8123;
-143.1000;0.3989;0.8383;
-142.8000;0.3858;0.8075;
-142.5000;0.3883;0.8194;
-142.2000;0.3899;0.8265;
-141.9000;0.3923;0.8241;
-141.6000;0.3867;0.8194;
-141.3000;0.3899;0.8289;
-141.0000;0.3801;0.8123;
-140.7000;0.3875;0.8383;
-140.4000;0.3883;0.8312;
-140.1000;0.3883;0.8265;
-139.8000;0.3875;0.8312;
-139.5000;0.3948;0.8407;
-139.2000;0.3940;0.8454;
-138.9000;0.3867;0.8289;
-138.6000;0.3875;0.8312;
-138.3000;0.3858;0.8265;
-138.0000;0.3907;0.8383;
-137.7000;0.3867;0.8336;
-137.4000;0.3883;0.8360;
-137.1000;0.3883;0.8312;
-136.8000;0.3875;0.8312;
-136.5000;0.3858;0.8217;
-136.2000;0.3891;0.8312;
-135.9000;0.3883;0.8241;
-135.6000;0.3915;0.8360;
-135.3000;0.3875;0.8289;
-135.0000;0.3867;0.8194;
-134.7000;0.3891;0.8194;
-134.4000;0.3915;0.8312;
-134.1000;0.3883;0.8146;
-133.8000;0.3883;0.8194;
-133.5000;0.3875;0.8217;
-133.2000;0.3867;0.8194;
-132.9000;0.3891;0.8194;
-132.6000;0.3883;0.8217;
-132.3000;0.3834;0.8028;
-132.0000;0.3883;0.8170;
-131.7000;0.3891;0.8241;
-131.4000;0.3891;0.8146;
-131.1000;0.3842;0.8052;
-130.8000;0.3875;0.8052;
-130.5000;0.3883;0.8052;
-130.2000;0.3867;0.7981;
-129.9000;0.3899;0.8052;
-129.6000;0.3883;0.8170;
-129.3000;0.3899;0.8265;
-129.0000;0.3867;0.8123;
-128.7000;0.3891;0.8241;
-128.4000;0.3989;0.8596;
-128.1000;0.3867;0.8289;
-127.8000;0.3883;0.8336;
-127.5000;0.3907;0.8312;
-127.2000;0.3875;0.8336;
-126.9000;0.3875;0.8360;
-126.6000;0.3867;0.8360;
-126.3000;0.3801;0.8289;
-126.0000;0.3777;0.8075;
-125.7000;0.3883;0.8289;
-125.4000;0.3867;0.8146;
-125.1000;0.3899;0.8217;
-124.8000;0.3883;0.8075;
-124.5000;0.3891;0.8146;
-124.2000;0.3891;0.8289;
-123.9000;0.3826;0.8194;
-123.6000;0.3867;0.8194;
-123.3000;0.3834;0.8004;
-123.0000;0.3867;0.8099;
-122.7000;0.3891;0.8194;
-122.4000;0.3867;0.8170;
-122.1000;0.3883;0.8170;
-121.8000;0.3842;0.8004;
-121.5000;0.3907;0.8146;
-121.2000;0.3891;0.8052;
-120.9000;0.3891;0.8004;
-120.6000;0.3867;0.8028;
-120.3000;0.3875;0.8075;
-120.0000;0.3891;0.8146;
-119.7000;0.3899;0.8123;
-119.4000;0.3867;0.8123;
-119.1000;0.3891;0.8170;
-118.8000;0.3858;0.8123;
-118.5000;0.3875;0.8099;
-118.2000;0.3842;0.8004;
-117.9000;0.3858;0.8075;
-117.6000;0.3842;0.8004;
-117.3000;0.3891;0.8123;
-117.0000;0.3826;0.7981;
-116.7000;0.3867;0.8099;
-116.4000;0.3891;0.8217;
-116.1000;0.3867;0.8194;
-115.8000;0.3899;0.8123;
-115.5000;0.3858;0.7981;
-115.2000;0.3883;0.8052;
-114.9000;0.3891;0.8123;
-114.6000;0.3891;0.8099;
-114.3000;0.3875;0.8004;
-114.0000;0.3875;0.8052;
-113.7000;0.3883;0.8052;
-113.4000;0.3891;0.8075;
-113.1000;0.3875;0.8028;
-112.8000;0.3867;0.8004;
-112.5000;0.3899;0.8052;
-112.2000;0.3810;0.7910;
-111.9000;0.3883;0.8028;
-111.6000;0.3875;0.8099;
-111.3000;0.3867;0.8075;
-111.0000;0.3883;0.8099;
-110.7000;0.3810;0.7886;
-110.4000;0.3793;0.7768;
-110.1000;0.3891;0.8075;
-109.8000;0.3883;0.8052;
-109.5000;0.3923;0.8123;
-109.2000;0.3948;0.8241;
-108.9000;0.3883;0.8099;
-108.6000;0.3915;0.8194;
-108.3000;0.3899;0.8170;
-108.0000;0.3899;0.8099;
-107.7000;0.3883;0.8099;
-107.4000;0.3858;0.8123;
-107.1000;0.3907;0.8194;
-106.8000;0.3891;0.8075;
-106.5000;0.3867;0.7957;
-106.2000;0.3891;0.7933;
-105.9000;0.3875;0.7886;
-105.6000;0.3875;0.7981;
-105.3000;0.3891;0.8099;
-105.0000;0.3891;0.8146;
-104.7000;0.3850;0.8099;
-104.4000;0.3858;0.8146;
-104.1000;0.3858;0.8123;
-103.8000;0.3818;0.7910;
-103.5000;0.3891;0.8265;
-103.2000;0.3867;0.8170;
-102.9000;0.3875;0.8099;
-102.6000;0.3858;0.8123;
-102.3000;0.3850;0.8123;
-102.0000;0.3867;0.8075;
-101.7000;0.3850;0.7981;
-101.4000;0.3850;0.7957;
-101.1000;0.3858;0.8004;
-100.8000;0.3899;0.8052;
-100.5000;0.3858;0.8004;
-100.2000;0.3883;0.8170;
-99.9000;0.3810;0.7981;
-99.6000;0.3858;0.8146;
-99.3000;0.3867;0.8170;
-99.0000;0.3867;0.8099;
-98.7000;0.3940;0.8217;
-98.4000;0.3923;0.8099;
-98.1000;0.3883;0.8075;
-97.8000;0.3883;0.8099;
-97.5000;0.3867;0.8099;
-97.2000;0.3883;0.8123;
-96.9000;0.3867;0.8146;
-96.6000;0.3899;0.8194;
-96.3000;0.3907;0.8170;
-96.0000;0.3883;0.8075;
-95.7000;0.3875;0.8052;
-95.4000;0.3867;0.7981;
-95.1000;0.3875;0.7981;
-94.8000;0.3891;0.7957;
-94.5000;0.3891;0.8028;
-94.2000;0.3891;0.8004;
-93.9000;0.3875;0.7981;
-93.6000;0.3980;0.8312;
-93.3000;0.3891;0.8052;
-93.0000;0.3883;0.8052;
-92.7000;0.3883;0.7981;
-92.4000;0.3883;0.7957;
-92.1000;0.3875;0.7957;
-91.8000;0.3883;0.7839;
-91.5000;0.3891;0.7933;
-91.2000;0.3867;0.7815;
-90.9000;0.3867;0.7768;
-90.6000;0.3875;0.7791;
-90.3000;0.3875;0.7791;
-90.0000;0.3867;0.7744;
-89.7000;0.3867;0.7768;
-89.4000;0.3867;0.7886;
-89.1000;0.3883;0.7862;
-88.8000;0.3883;0.7862;
-88.5000;0.3875;0.7815;
-88.2000;0.3875;0.7815;
-87.9000;0.3891;0.7862;
-87.6000;0.3899;0.7862;
-87.3000;0.3932;0.7886;
-87.0000;0.3899;0.7839;
-86.7000;0.3867;0.7839;
-86.4000;0.3858;0.7886;
-86.1000;0.3850;0.7791;
-85.8000;0.3850;0.7815;
-85.5000;0.3883;0.7768;
-85.2000;0.3867;0.7768;
-84.9000;0.3858;0.7696;
-84.6000;0.3875;0.7696;
-84.3000;0.3834;0.7602;
-84.0000;0.3883;0.7768;
-83.7000;0.3923;0.7815;
-83.4000;0.3867;0.7744;
-83.1000;0.3867;0.7768;
-82.8000;0.3850;0.7720;
-82.5000;0.3875;0.7815;
-82.2000;0.3883;0.7957;
-81.9000;0.3891;0.7957;
-81.6000;0.3875;0.7957;
-81.3000;0.3883;0.7862;
-81.0000;0.3883;0.7815;
-80.7000;0.3842;0.7791;
-80.4000;0.3875;0.7791;
-80.1000;0.3858;0.7815;
-79.8000;0.3891;0.7862;
-79.5000;0.3875;0.7862;
-79.2000;0.3858;0.7839;
-78.9000;0.3769;0.7673;
-78.6000;0.3867;0.7886;
-78.3000;0.3810;0.7720;
-78.0000;0.3867;0.7862;
-77.7000;0.3858;0.7839;
-77.4000;0.3883;0.7933;
-77.1000;0.3883;0.7862;
-76.8000;0.3867;0.7886;
-76.5000;0.3883;0.7910;
-76.2000;0.3858;0.7862;
-75.9000;0.3899;0.7957;
-75.6000;0.3883;0.7910;
-75.3000;0.3875;0.7886;
-75.0000;0.3883;0.7791;
-74.7000;0.3875;0.7696;
-74.4000;0.3875;0.7720;
-74.1000;0.3875;0.7768;
-73.8000;0.3891;0.7862;
-73.5000;0.3875;0.7791;
-73.2000;0.3883;0.7862;
-72.9000;0.3972;0.8146;
-72.6000;0.3867;0.7839;
-72.3000;0.3883;0.7910;
-72.0000;0.3923;0.8028;
-71.7000;0.3883;0.7862;
-71.4000;0.3948;0.8075;
-71.1000;0.3867;0.7839;
-70.8000;0.3850;0.7815;
-70.5000;0.3867;0.7839;
-70.2000;0.3867;0.7839;
-69.9000;0.3875;0.7886;
-69.6000;0.3875;0.7957;
-69.3000;0.3850;0.8004;
-69.0000;0.3883;0.7957;
-68.7000;0.3883;0.8028;
-68.4000;0.3875;0.8028;
-68.1000;0.3875;0.7910;
-67.8000;0.3883;0.7957;
-67.5000;0.3883;0.7886;
-67.2000;0.3883;0.7791;
-66.9000;0.3850;0.7791;
-66.6000;0.3891;0.7862;
-66.3000;0.3891;0.7815;
-66.0000;0.3867;0.7815;
-65.7000;0.3883;0.7886;
-65.4000;0.3883;0.7815;
-65.1000;0.3883;0.7839;
-64.8000;0.3867;0.7815;
-64.5000;0.3907;0.7957;
-64.2000;0.3875;0.7839;
-63.9000;0.3883;0.7886;
-63.6000;0.3899;0.7957;
-63.3000;0.3842;0.7768;
-63.0000;0.3875;0.7791;
-62.7000;0.3875;0.7791;
-62.4000;0.3891;0.7791;
-62.1000;0.3875;0.7768;
-61.8000;0.3875;0.7862;
-61.5000;0.3867;0.7886;
-61.2000;0.3875;0.7933;
-60.9000;0.3875;0.7886;
-60.6000;0.3810;0.7744;
-60.3000;0.3875;0.7815;
-60.0000;0.3875;0.7791;
-59.7000;0.3850;0.7673;
-59.4000;0.3899;0.7839;
-59.1000;0.3858;0.7720;
-58.8000;0.3891;0.7791;
-58.5000;0.3875;0.7839;
-58.2000;0.3858;0.7815;
-57.9000;0.3875;0.7862;
-57.6000;0.3940;0.8052;
-57.3000;0.3867;0.7862;
-57.0000;0.3891;0.7957;
-56.7000;0.3850;0.7933;
-56.4000;0.3875;0.8004;
-56.1000;0.3907;0.8004;
-55.8000;0.3899;0.8004;
-55.5000;0.3850;0.7933;
-55.2000;0.3867;0.7981;
-54.9000;0.3834;0.7815;
-54.6000;0.3875;0.7957;
-54.3000;0.3858;0.7862;
-54.0000;0.3883;0.7933;
-53.7000;0.3891;0.7981;
-53.4000;0.3891;0.7886;
-53.1000;0.3867;0.7886;
-52.8000;0.3875;0.7910;
-52.5000;0.3875;0.7933;
-52.2000;0.3891;0.7933;
-51.9000;0.3875;0.7839;
-51.6000;0.3875;0.7862;
-51.3000;0.3883;0.8004;
-51.0000;0.3883;0.8028;
-50.7000;0.3858;0.7981;
-50.4000;0.3850;0.7910;
-50.1000;0.3867;0.7981;
-49.8000;0.3867;0.8028;
-49.5000;0.3915;0.8099;
-49.2000;0.3818;0.7862;
-48.9000;0.3891;0.8028;
-48.6000;0.3907;0.8028;
-48.3000;0.3907;0.7886;
-48.0000;0.3875;0.7862;
-47.7000;0.3834;0.7720;
-47.4000;0.3867;0.7862;
-47.1000;0.3785;0.7696;
-46.8000;0.3850;0.7862;
-46.5000;0.3761;0.7602;
-46.2000;0.3972;0.8099;
-45.9000;0.3883;0.7933;
-45.6000;0.3858;0.7768;
-45.3000;0.3875;0.7791;
-45.0000;0.3875;0.7839;
-44.7000;0.3915;0.8004;
-44.4000;0.3867;0.7910;
-44.1000;0.3883;0.7910;
-43.8000;0.3867;0.7957;
-43.5000;0.3875;0.8004;
-43.2000;0.3858;0.7910;
-42.9000;0.3875;0.7933;
-42.6000;0.3883;0.8028;
-42.3000;0.3875;0.8099;
-42.0000;0.3867;0.8004;
-41.7000;0.3818;0.7862;
-41.4000;0.3932;0.8146;
-41.1000;0.3883;0.8052;
-40.8000;0.3915;0.8052;
-40.5000;0.3891;0.7981;
-40.2000;0.3891;0.7886;
-39.9000;0.3915;0.7957;
-39.6000;0.3875;0.7933;
-39.3000;0.3940;0.8099;
-39.0000;0.3875;0.7862;
-38.7000;0.3932;0.7957;
-38.4000;0.3899;0.7839;
-38.1000;0.3915;0.7957;
-37.8000;0.3923;0.7910;
-37.5000;0.3875;0.7791;
-37.2000;0.3883;0.7839;
-36.9000;0.3891;0.7933;
-36.6000;0.3883;0.7933;
-36.3000;0.3867;0.7933;
-36.0000;0.3875;0.7862;
-35.7000;0.3899;0.7910;
-35.4000;0.3891;0.7957;
-35.1000;0.3907;0.8004;
-34.8000;0.3875;0.7933;
-34.5000;0.3867;0.7933;
-34.2000;0.3858;0.8028;
-33.9000;0.3858;0.7886;
-33.6000;0.3850;0.7839;
-33.3000;0.3858;0.7910;
-33.0000;0.3980;0.8146;
-32.7000;0.3923;0.8028;
-32.4000;0.3915;0.8004;
-32.1000;0.3850;0.7744;
-31.8000;0.3875;0.7839;
-31.5000;0.3785;0.7578;
-31.2000;0.3932;0.7933;
-30.9000;0.3801;0.7673;
-30.6000;0.3899;0.8052;
-30.3000;0.4005;0.8407;
-30.0000;0.3899;0.8123;
-29.7000;0.3834;0.8004;
-29.4000;0.3883;0.8099;
-29.1000;0.3850;0.8004;
-28.8000;0.3867;0.8170;
-28.5000;0.3883;0.8194;
-28.2000;0.3883;0.8004;
-27.9000;0.3883;0.7862;
-27.6000;0.3899;0.7862;
-27.3000;0.3858;0.7839;
-27.0000;0.3891;0.7886;
-26.7000;0.3883;0.7862;
-26.4000;0.3899;0.8004;
-26.1000;0.3818;0.7839;
-25.8000;0.3867;0.7910;
-25.5000;0.3867;0.8028;
-25.2000;0.3899;0.8028;
-24.9000;0.3858;0.8004;
-24.6000;0.3899;0.8075;
-24.3000;0.3891;0.8052;
-24.0000;0.3858;0.8052;
-23.7000;0.3891;0.8194;
-23.4000;0.3850;0.8146;
-23.1000;0.3858;0.8217;
-22.8000;0.3891;0.8241;
-22.5000;0.3801;0.8123;
-22.2000;0.3858;0.8383;
-21.9000;0.3883;0.8431;
-21.6000;0.3964;0.8667;
-21.3000;0.3875;0.8454;
-21.0000;0.3883;0.8383;
-20.7000;0.3858;0.8336;
-20.4000;0.3867;0.8336;
-20.1000;0.3891;0.8360;
-19.8000;0.3883;0.8336;
-19.5000;0.3891;0.8383;
-19.2000;0.3883;0.8407;
-18.9000;0.3867;0.8289;
-18.6000;0.3907;0.8360;
-18.3000;0.3867;0.8217;
-18.0000;0.3867;0.8123;
-17.7000;0.3850;0.8099;
-17.4000;0.3867;0.8146;
-17.1000;0.3867;0.8075;
-16.8000;0.3891;0.8099;
-16.5000;0.3899;0.8099;
-16.2000;0.3883;0.8075;
-15.9000;0.3867;0.8075;
-15.6000;0.3875;0.8217;
-15.3000;0.3818;0.8052;
-15.0000;0.3875;0.8217;
-14.7000;0.3875;0.8194;
-14.4000;0.3883;0.8312;
-14.1000;0.3883;0.8312;
-13.8000;0.3867;0.8170;
-13.5000;0.3867;0.8146;
-13.2000;0.3850;0.8004;
-12.9000;0.3883;0.8170;
-12.6000;0.3858;0.8146;
-12.3000;0.3834;0.8028;
-12.0000;0.3867;0.8099;
-11.7000;0.3883;0.8123;
-11.4000;0.3867;0.8123;
-11.1000;0.3810;0.8099;
-10.8000;0.3883;0.8170;
-10.5000;0.3875;0.8194;
-10.2000;0.3899;0.8265;
-9.9000;0.3867;0.8194;
-9.6000;0.3923;0.8383;
-9.3000;0.3883;0.8360;
-9.0000;0.3899;0.8312;
-8.7000;0.3875;0.8289;
-8.4000;0.3850;0.8241;
-8.1000;0.3875;0.8265;
-7.8000;0.3867;0.8194;
-7.5000;0.3875;0.8289;
-7.2000;0.3810;0.8075;
-6.9000;0.3867;0.8241;
-6.6000;0.3899;0.8312;
-6.3000;0.3899;0.8217;
-6.0000;0.3883;0.8265;
-5.7000;0.3891;0.8383;
-5.4000;0.3875;0.8289;
-5.1000;0.3899;0.8312;
-4.8000;0.3867;0.8265;
-4.5000;0.3956;0.8525;
-4.2000;0.3883;0.8360;
-3.9000;0.3867;0.8312;
-3.6000;0.3875;0.8383;
-3.3000;0.3858;0.8312;
-3.0000;0.3858;0.8312;
-2.7000;0.3858;0.8360;
-2.4000;0.3899;0.8431;
-2.1000;0.3867;0.8360;
-1.8000;0.3875;0.8407;
-1.5000;0.3915;0.8596;
-1.2000;0.3867;0.8383;
-0.9000;0.3891;0.8407;
-0.6000;0.3867;0.8407;
-0.3000;0.3834;0.8312;
0.0000;0.3834;0.8312;
0.3000;0.3972;0.8573;
0.6000;0.4208;0.8596;
0.9000;0.4363;0.8738;
1.2000;0.4518;0.8881;
1.5000;0.4599;0.8952;
1.8000;0.4689;0.9023;
2.1000;0.4762;0.9094;
2.4000;0.4811;0.9188;
2.7000;0.4843;0.9236;
3.0000;0.4892;0.9283;
3.3000;0.4925;0.9449;
3.6000;0.4933;0.9378;
3.9000;0.4965;0.9378;
4.2000;0.4974;0.9402;
4.5000;0.4965;0.9449;
4.8000;0.4990;0.9496;
5.1000;0.4998;0.9567;
5.4000;0.5006;0.9544;
5.7000;0.4998;0.9496;
6.0000;0.5006;0.9544;
6.3000;0.5031;0.9638;
6.6000;0.5031;0.9496;
6.9000;0.5055;0.9544;
7.2000;0.4998;0.9378;
7.5000;0.5047;0.9638;
7.8000;0.5079;0.9686;
8.1000;0.5055;0.9686;
8.4000;0.5063;0.9780;
8.7000;0.5096;0.9946;
9.0000;0.5096;0.9875;
9.3000;0.5104;0.9946;
9.6000;0.5096;0.9828;
9.9000;0.5120;0.9852;
10.2000;0.5136;0.9899;
10.5000;0.5161;0.9923;
10.8000;0.5144;0.9899;
11.1000;0.5136;0.9828;
11.4000;0.5144;0.9780;
11.7000;0.5169;0.9828;
12.0000;0.5161;0.9828;
12.3000;0.5177;0.9804;
12.6000;0.5177;0.9757;
12.9000;0.5161;0.9709;
13.2000;0.5185;0.9875;
13.5000;0.5185;0.9875;
13.8000;0.5161;0.9733;
14.1000;0.5210;0.9757;
14.4000;0.5242;0.9828;
14.7000;0.5226;0.9733;
15.0000;0.5234;0.9757;
15.3000;0.5242;0.9709;
15.6000;0.5283;0.9780;
15.9000;0.5234;0.9686;
16.2000;0.5242;0.9709;
16.5000;0.5210;0.9709;
16.8000;0.5275;0.9923;
17.1000;0.5291;0.9946;
17.4000;0.5275;0.9875;
17.7000;0.5307;0.9852;
18.0000;0.5307;0.9875;
18.3000;0.5315;0.9875;
18.6000;0.5307;0.9780;
18.9000;0.5340;0.9875;
19.2000;0.5364;0.9923;
19.5000;0.5356;0.9923;
19.8000;0.5332;0.9828;
20.1000;0.5348;0.9757;
20.4000;0.5340;0.9757;
20.7000;0.5348;0.9733;
21.0000;0.5381;0.9757;
21.3000;0.5364;0.9709;
21.6000;0.5372;0.9709;
21.9000;0.5381;0.9686;
22.2000;0.5397;0.9757;
22.5000;0.5372;0.9875;
22.8000;0.5405;0.9923;
23.1000;0.5405;0.9875;
23.4000;0.5397;0.9804;
23.7000;0.5405;0.9780;
24.0000;0.5413;0.9875;
24.3000;0.5421;0.9946;
24.6000;0.5413;0.9923;
24.9000;0.5421;0.9970;
25.2000;0.5438;0.9946;
25.5000;0.5429;0.9899;
25.8000;0.5413;0.9757;
26.1000;0.5429;0.9804;
26.4000;0.5438;0.9780;
26.7000;0.5446;0.9757;
27.0000;0.5454;0.9757;
27.3000;0.5454;0.9757;
27.6000;0.5405;0.9733;
27.9000;0.5454;0.9852;
28.2000;0.5470;0.9970;
28.5000;0.5462;0.9899;
28.8000;0.5413;0.9828;
29.1000;0.5454;0.9923;
29.4000;0.5495;0.9899;
29.7000;0.5470;0.9733;
30.0000;0.5495;0.9709;
30.3000;0.5495;0.9662;
30.6000;0.5511;0.9733;
30.9000;0.5511;0.9686;
31.2000;0.5503;0.9615;
31.5000;0.5503;0.9686;
31.8000;0.5503;0.9757;
32.1000;0.5511;0.9757;
32.4000;0.5519;0.9686;
32.7000;0.5462;0.9567;
33.0000;0.5519;0.9686;
33.3000;0.5527;0.9733;
33.6000;0.5519;0.9686;
33.9000;0.5519;0.9638;
34.2000;0.5470;0.9496;
34.5000;0.5535;0.9686;
34.8000;0.5527;0.9709;
35.1000;0.5519;0.9662;
35.4000;0.5535;0.9686;
35.7000;0.5535;0.9662;
36.0000;0.5560;0.9686;
36.3000;0.5543;0.9615;
36.6000;0.5560;0.9615;
36.9000;0.5560;0.9615;
37.2000;0.5568;0.9567;
37.5000;0.5551;0.9591;
37.8000;0.5576;0.9686;
38.1000;0.5568;0.9638;
38.4000;0.5576;0.9709;
38.7000;0.5535;0.9567;
39.0000;0.5560;0.9496;
39.3000;0.5551;0.9544;
39.6000;0.5576;0.9733;
39.9000;0.5584;0.9733;
40.2000;0.5584;0.9733;
40.5000;0.5600;0.9875;
40.8000;0.5625;0.9946;
41.1000;0.5592;0.9828;
41.4000;0.5592;0.9875;
41.7000;0.5592;0.9899;
42.0000;0.5608;0.9923;
42.3000;0.5617;0.9946;
42.6000;0.5608;0.9899;
42.9000;0.5592;0.9804;
43.2000;0.5617;0.9875;
43.5000;0.5617;0.9923;
43.8000;0.5608;0.9923;
44.1000;0.5592;0.9852;
44.4000;0.5625;0.9852;
44.7000;0.5600;0.9804;
45.0000;0.5625;0.9804;
45.3000;0.5625;0.9804;
45.6000;0.5657;0.9946;
45.9000;0.5633;0.9923;
46.2000;0.5649;0.9875;
46.5000;0.5560;0.9662;
46.8000;0.5608;0.9804;
47.1000;0.5625;0.9828;
47.4000;0.5625;0.9899;
47.7000;0.5641;0.9875;
48.0000;0.5633;0.9946;
48.3000;0.5641;1.0017;
48.6000;0.5649;0.9994;
48.9000;0.5641;0.9970;
49.2000;0.5657;0.9899;
49.5000;0.5657;0.9852;
49.8000;0.5657;0.9828;
50.1000;0.5657;0.9899;
50.4000;0.5657;0.9899;
50.7000;0.5657;0.9946;
51.0000;0.5665;0.9994;
51.3000;0.5665;0.9899;
51.6000;0.5641;0.9780;
51.9000;0.5633;0.9638;
52.2000;0.5649;0.9686;
52.5000;0.5665;0.9686;
52.8000;0.5788;0.9923;
53.1000;0.5674;0.9662;
53.4000;0.5657;0.9709;
53.7000;0.5698;0.9804;
54.0000;0.5731;0.9852;
54.3000;0.5657;0.9780;
54.6000;0.5665;0.9828;
54.9000;0.5674;0.9875;
55.2000;0.5682;0.9828;
55.5000;0.5665;0.9828;
55.8000;0.5674;0.9828;
56.1000;0.5682;0.9875;
56.4000;0.5674;0.9875;
56.7000;0.5665;0.9923;
57.0000;0.5682;0.9994;
57.3000;0.5674;1.0065;
57.6000;0.5714;1.0112;
57.9000;0.5698;0.9970;
58.2000;0.5739;1.0041;
58.5000;0.5690;0.9852;
58.8000;0.5706;0.9804;
59.1000;0.5706;0.9923;
59.4000;0.5682;0.9923;
59.7000;0.5690;0.9970;
60.0000;0.5698;0.9970;
60.3000;0.5731;0.9994;
60.6000;0.5706;0.9970;
60.9000;0.5706;0.9994;
61.2000;0.5714;0.9994;
61.5000;0.5722;0.9970;
61.8000;0.5706;0.9923;
62.1000;0.5706;0.9899;
62.4000;0.5657;0.9780;
62.7000;0.5714;0.9875;
63.0000;0.5698;0.9875;
63.3000;0.5698;0.9946;
63.6000;0.5714;0.9970;
63.9000;0.5706;0.9923;
64.2000;0.5706;0.9899;
64.5000;0.5706;0.9946;
64.8000;0.5714;0.9994;
65.1000;0.5706;0.9994;
65.4000;0.5747;1.0088;
65.7000;0.5722;1.0065;
66.0000;0.5714;0.9994;
66.3000;0.5714;1.0065;
66.6000;0.5722;1.0065;
66.9000;0.5739;1.0136;
67.2000;0.5731;1.0041;
67.5000;0.5747;1.0041;
67.8000;0.5714;0.9923;
68.1000;0.5747;1.0017;
68.4000;0.5714;0.9899;
68.7000;0.5722;0.9970;
69.0000;0.5722;0.9946;
69.3000;0.5731;0.9875;
69.6000;0.5714;0.9757;
69.9000;0.5722;0.9733;
70.2000;0.5739;0.9804;
70.5000;0.5714;0.9709;
70.8000;0.5722;0.9804;
71.1000;0.5731;0.9804;
71.4000;0.5747;0.9757;
71.7000;0.5657;0.9544;
72.0000;0.5739;0.9709;
72.3000;0.5747;0.9757;
72.6000;0.5763;0.9757;
72.9000;0.5722;0.9709;
73.2000;0.5763;0.9757;
73.5000;0.5755;0.9804;
73.8000;0.5755;0.9780;
74.1000;0.5755;0.9757;
74.4000;0.5755;0.9804;
74.7000;0.5706;0.9709;
75.0000;0.5690;0.9567;
75.3000;0.5739;0.9709;
75.6000;0.5739;0.9733;
75.9000;0.5755;0.9828;
76.2000;0.5853;1.0136;
76.5000;0.5747;0.9852;
76.8000;0.5755;0.9923;
77.1000;0.5747;0.9875;
77.4000;0.5722;0.9780;
77.7000;0.5747;0.9899;
78.0000;0.5714;0.9970;
78.3000;0.5739;0.9946;
78.6000;0.5665;0.9757;
78.9000;0.5779;0.9923;
79.2000;0.5755;0.9757;
79.5000;0.5739;0.9733;
79.8000;0.5804;0.9994;
80.1000;0.5755;0.9875;
80.4000;0.5731;0.9875;
80.7000;0.5755;0.9899;
81.0000;0.5714;0.9923;
81.3000;0.5788;1.0017;
81.6000;0.5739;0.9899;
81.9000;0.5763;0.9899;
82.2000;0.5747;0.9923;
82.5000;0.5804;1.0041;
82.8000;0.5739;0.9899;
83.1000;0.5771;0.9946;
83.4000;0.5747;0.9899;
83.7000;0.5755;0.9804;
84.0000;0.5755;0.9804;
84.3000;0.5788;0.9828;
84.6000;0.5747;0.9757;
84.9000;0.5747;0.9780;
85.2000;0.5779;0.9852;
85.5000;0.5836;0.9970;
85.8000;0.5763;0.9780;
86.1000;0.5755;0.9757;
86.4000;0.5739;0.9686;
86.7000;0.5747;0.9804;
87.0000;0.5788;0.9875;
87.3000;0.5763;0.9804;
87.6000;0.5771;0.9946;
87.9000;0.5739;0.9875;
88.2000;0.5771;1.0041;
88.5000;0.5771;0.9946;
88.8000;0.5771;0.9946;
89.1000;0.5755;0.9828;
89.4000;0.5714;0.9615;
89.7000;0.5755;0.9757;
90.0000;0.5747;0.9733;
90.3000;0.5739;0.9686;
90.6000;0.5706;0.9544;
90.9000;0.5763;0.9686;
91.2000;0.5755;0.9686;
91.5000;0.5747;0.9638;
91.8000;0.5771;0.9709;
92.1000;0.5788;0.9709;
92.4000;0.5796;0.9709;
92.7000;0.5788;0.9662;
93.0000;0.5779;0.9686;
93.3000;0.5820;0.9804;
93.6000;0.5771;0.9709;
93.9000;0.5788;0.9757;
94.2000;0.5755;0.9709;
94.5000;0.5771;0.9757;
94.8000;0.5788;0.9804;
95.1000;0.5739;0.9709;
95.4000;0.5755;0.9709;
95.7000;0.5763;0.9709;
96.0000;0.5779;0.9686;
96.3000;0.5771;0.9544;
96.6000;0.5779;0.9591;
96.9000;0.5763;0.9544;
97.2000;0.5739;0.9496;
97.5000;0.5788;0.9567;
97.8000;0.5779;0.9544;
98.1000;0.5796;0.9544;
98.4000;0.5788;0.9615;
98.7000;0.5763;0.9591;
99.0000;0.5771;0.9591;
99.3000;0.5763;0.9544;
99.6000;0.5763;0.9544;
99.9000;0.5763;0.9496;
100.2000;0.5755;0.9496;
100.5000;0.5771;0.9520;
100.8000;0.5763;0.9544;
101.1000;0.5763;0.9567;
101.4000;0.5771;0.9709;
101.7000;0.5771;0.9804;
102.0000;0.5771;0.9709;
102.3000;0.5820;0.9923;
102.6000;0.5771;0.9757;
102.9000;0.5845;0.9923;
103.2000;0.5804;0.9852;
103.5000;0.5804;0.9828;
103.8000;0.5820;0.9899;
104.1000;0.5788;0.9804;
104.4000;0.5771;0.9780;
104.7000;0.5788;0.9828;
105.0000;0.5796;0.9852;
105.3000;0.5779;0.9852;
105.6000;0.5771;0.9804;
105.9000;0.5804;0.9875;
106.2000;0.5771;0.9709;
106.5000;0.5804;0.9780;
106.8000;0.5828;0.9804;
107.1000;0.5763;0.9780;
107.4000;0.5771;0.9733;
107.7000;0.5747;0.9662;
108.0000;0.5788;0.9662;
108.3000;0.5779;0.9662;
108.6000;0.5804;0.9828;
108.9000;0.5853;1.0017;
109.2000;0.5779;0.9804;
109.5000;0.5755;0.9780;
109.8000;0.5796;0.9923;
110.1000;0.5796;0.9923;
110.4000;0.5731;0.9804;
110.7000;0.5877;1.0230;
111.0000;0.5771;0.9852;
111.3000;0.5796;0.9852;
111.6000;0.5788;0.9828;
111.9000;0.5918;1.0183;
112.2000;0.5788;0.9852;
112.5000;0.5788;0.9923;
112.8000;0.5779;0.9923;
113.1000;0.5771;0.9946;
113.4000;0.5804;0.9946;
113.7000;0.5788;0.9899;
114.0000;0.5796;0.9970;
114.3000;0.5796;0.9994;
114.6000;0.5779;0.9946;
114.9000;0.5755;0.9875;
115.2000;0.5731;0.9828;
115.5000;0.5779;0.9923;
115.8000;0.5779;0.9899;
116.1000;0.5788;0.9804;
116.4000;0.5788;0.9709;
116.7000;0.5788;0.9757;
117.0000;0.5779;0.9852;
117.3000;0.5796;0.9875;
117.6000;0.5779;0.9994;
117.9000;0.5788;0.9994;
118.2000;0.5788;1.0041;
118.5000;0.5836;1.0088;
118.8000;0.5796;0.9946;
119.1000;0.5788;0.9875;
119.4000;0.5779;0.9828;
119.7000;0.5779;0.9757;
120.0000;0.5747;0.9780;
120.3000;0.5771;0.9899;
120.6000;0.5771;0.9946;
120.9000;0.5796;0.9923;
121.2000;0.5788;0.9828;
121.5000;0.5771;0.9733;
121.8000;0.5796;0.9686;
122.1000;0.5804;0.9709;
122.4000;0.5731;0.9638;
122.7000;0.5804;0.9852;
123.0000;0.5796;0.9804;
123.3000;0.5779;0.9899;
123.6000;0.5820;1.0017;
123.9000;0.5804;1.0017;
124.2000;0.5796;1.0017;
124.5000;0.5779;0.9994;
124.8000;0.5820;1.0136;
125.1000;0.5779;1.0041;
125.4000;0.5771;1.0041;
125.7000;0.5779;1.0041;
126.0000;0.5779;0.9970;
126.3000;0.5779;0.9946;
126.6000;0.5771;0.9946;
126.9000;0.5771;0.9923;
127.2000;0.5779;0.9828;
127.5000;0.5796;0.9828;
127.8000;0.5836;0.9923;
128.1000;0.5763;0.9757;
128.4000;0.5763;0.9757;
128.7000;0.5779;0.9780;
129.0000;0.5779;0.9780;
129.3000;0.5796;0.9852;
129.6000;0.5739;0.9733;
129.9000;0.5763;0.9780;
130.2000;0.5788;0.9733;
130.5000;0.5836;0.9852;
130.8000;0.5779;0.9780;
131.1000;0.5788;0.9709;
131.4000;0.5771;0.9662;
131.7000;0.5788;0.9733;
132.0000;0.5796;0.9757;
132.3000;0.5771;0.9638;
132.6000;0.5779;0.9615;
132.9000;0.5731;0.9544;
133.2000;0.5804;0.9780;
133.5000;0.5788;0.9709;
133.8000;0.5788;0.9852;
134.1000;0.5788;0.9875;
134.4000;0.5763;0.9709;
134.7000;0.5796;0.9733;
135.0000;0.5796;0.9780;
135.3000;0.5796;0.9875;
135.6000;0.5804;0.9852;
135.9000;0.5763;0.9662;
136.2000;0.5779;0.9733;
136.5000;0.5796;0.9780;
136.8000;0.5788;0.9757;
137.1000;0.5779;0.9804;
137.4000;0.5796;0.9875;
137.7000;0.5788;0.9852;
138.0000;0.5796;0.9970;
138.3000;0.5788;1.0017;
138.6000;0.5820;1.0065;
138.9000;0.5796;0.9923;
139.2000;0.5771;0.9852;
139.5000;0.5828;0.9994;
139.8000;0.5804;0.9970;
140.1000;0.5796;0.9923;
140.4000;0.5788;0.9946;
140.7000;0.5788;0.9923;
141.0000;0.5788;0.9828;
141.3000;0.5796;0.9828;
141.6000;0.5812;0.9757;
141.9000;0.5771;0.9615;
142.2000;0.5788;0.9733;
142.5000;0.5796;0.9828;
142.8000;0.5779;0.9733;
143.1000;0.5788;0.9733;
143.4000;0.5820;0.9733;
143.7000;0.5771;0.9757;
144.0000;0.5788;0.9970;
144.3000;0.5820;1.0017;
144.6000;0.5812;0.9946;
144.9000;0.5779;0.9946;
145.2000;0.5788;0.9899;
145.5000;0.5771;0.9852;
145.8000;0.5788;0.9923;
146.1000;0.5771;0.9828;
146.4000;0.5788;0.9828;
146.7000;0.5747;0.9780;
147.0000;0.5796;0.9946;
147.3000;0.5796;0.9923;
147.6000;0.5755;0.9757;
147.9000;0.5771;0.9899;
148.2000;0.5804;0.9875;
148.5000;0.5820;0.9852;
148.8000;0.5779;0.9757;
149.1000;0.5812;0.9804;
149.4000;0.5804;0.9780;
149.7000;0.5796;0.9923;
150.0000;0.5779;0.9899;
150.3000;0.5861;1.0065;
150.6000;0.5812;0.9875;
150.9000;0.5804;0.9828;
151.2000;0.5804;0.9757;
151.5000;0.5788;0.9615;
151.8000;0.5706;0.9449;
152.1000;0.5788;0.9638;
152.4000;0.5796;0.9615;
152.7000;0.5771;0.9615;
153.0000;0.5804;0.9709;
153.3000;0.5771;0.9733;
153.6000;0.5804;0.9899;
153.9000;0.5853;0.9994;
154.2000;0.5804;0.9875;
154.5000;0.5682;0.9567;
154.8000;0.5804;0.9804;
155.1000;0.5796;0.9733;
155.4000;0.5796;0.9757;
155.7000;0.5796;0.9804;
156.0000;0.5804;0.9828;
156.3000;0.5804;0.9828;
156.6000;0.5804;0.9804;
156.9000;0.5788;0.9923;
157.2000;0.5804;0.9899;
157.5000;0.5796;0.9923;
157.8000;0.5779;0.9899;
158.1000;0.5747;0.9828;
158.4000;0.5788;0.9946;
158.7000;0.5779;0.9923;
159.0000;0.5812;0.9923;
159.3000;0.5747;0.9828;
159.6000;0.5739;0.9804;
159.9000;0.5788;0.9946;
160.2000;0.5714;0.9733;
160.5000;0.5771;0.9804;
160.8000;0.5788;0.9852;
161.1000;0.5796;0.9828;
161.4000;0.5812;0.9852;
161.7000;0.5788;0.9804;
162.0000;0.5779;0.9757;
162.3000;0.5722;0.9662;
162.6000;0.5845;0.9946;
162.9000;0.5788;0.9875;
163.2000;0.5763;0.9828;
163.5000;0.5788;0.9970;
163.8000;0.5804;0.9899;
164.1000;0.5804;0.9852;
164.4000;0.5796;0.9852;
164.7000;0.5747;0.9709;
165.0000;0.5779;0.9709;
165.3000;0.5788;0.9828;
165.6000;0.5779;0.9804;
165.9000;0.5804;0.9804;
166.2000;0.5812;0.9804;
166.5000;0.5804;0.9852;
166.8000;0.5812;0.9946;
167.1000;0.5788;0.9946;
167.4000;0.5779;0.9804;
167.7000;0.5714;0.9615;
168.0000;0.5788;0.9804;
168.3000;0.5796;0.9852;
168.6000;0.5804;0.9852;
168.9000;0.5820;0.9852;
169.2000;0.5820;0.9757;
169.5000;0.5804;0.9686;
169.8000;0.5836;0.9875;
170.1000;0.5796;0.9780;
170.4000;0.5804;0.9804;
170.7000;0.5796;0.9780;
171.0000;0.5820;0.9828;
171.3000;0.5812;0.9804;
171.6000;0.5796;0.9757;
171.9000;0.5731;0.9496;
172.2000;0.5788;0.9662;
172.5000;0.5812;0.9828;
172.8000;0.5836;0.9923;
173.1000;0.5788;0.9899;
173.4000;0.5804;0.9923;
173.7000;0.5828;0.9946;
174.0000;0.5804;0.9852;
174.3000;0.5812;0.9828;
174.6000;0.5812;0.9780;
174.9000;0.5804;0.9733;
175.2000;0.5812;0.9709;
175.5000;0.5674;0.9354;
175.8000;0.5755;0.9496;
176.1000;0.5812;0.9757;
176.4000;0.5804;0.9686;
176.7000;0.5804;0.9733;
177.0000;0.5796;0.9733;
177.3000;0.5804;0.9662;
177.6000;0.5804;0.9733;
177.9000;0.5820;0.9757;
178.2000;0.5812;0.9780;
178.5000;0.5714;0.9544;
178.8000;0.5804;0.9757;
179.1000;0.5804;0.9780;
179.4000;0.5771;0.9638;
179.7000;0.5820;0.9733;
180.0000;0.5902;0.9946;
180.3000;0.5804;0.9709;
180.6000;0.5788;0.9662;
180.9000;0.5722;0.9496;
181.2000;0.5788;0.9686;
181.5000;0.5820;0.9780;
181.8000;0.5788;0.9757;
182.1000;0.5796;0.9733;
182.4000;0.5796;0.9733;
182.7000;0.5820;0.9828;
183.0000;0.5788;0.9852;
183.3000;0.5796;0.9923;
183.6000;0.5763;0.9780;
183.9000;0.5747;0.9686;
184.2000;0.5836;0.9970;
184.5000;0.5771;0.9804;
184.8000;0.5779;0.9852;
185.1000;0.5771;0.9780;
185.4000;0.5804;0.9899;
185.7000;0.5804;0.9757;
186.0000;0.5796;0.9780;
186.3000;0.5796;0.9804;
186.6000;0.5796;0.9757;
186.9000;0.5804;0.9709;
187.2000;0.5796;0.9662;
187.5000;0.5804;0.9733;
187.8000;0.5739;0.9662;
188.1000;0.5796;0.9852;
188.4000;0.5763;0.9757;
188.7000;0.5796;0.9875;
189.0000;0.5812;0.9923;
189.3000;0.5828;0.9970;
189.6000;0.5796;0.9780;
189.9000;0.5812;0.9780;
190.2000;0.5820;0.9804;
190.5000;0.5796;0.9804;
190.8000;0.5796;0.9828;
191.1000;0.5812;0.9804;
191.4000;0.5779;0.9733;
191.7000;0.5820;0.9804;
192.0000;0.5812;0.9852;
192.3000;0.5812;0.9828;
192.6000;0.5796;0.9852;
192.9000;0.5804;0.9852;
193.2000;0.5796;0.9875;
193.5000;0.5788;0.9852;
193.8000;0.5796;0.9828;
194.1000;0.5796;0.9852;
194.4000;0.5804;0.9875;
194.7000;0.5788;0.9852;
195.0000;0.5788;0.9828;
195.3000;0.5714;0.9686;
195.6000;0.5804;0.9828;
195.9000;0.5804;0.9780;
196.2000;0.5804;0.9662;
196.5000;0.5804;0.9638;
196.8000;0.5804;0.9567;
197.1000;0.5812;0.9591;
197.4000;0.5804;0.9686;
197.7000;0.5820;0.9828;
198.0000;0.5755;0.9709;
198.3000;0.5836;0.9875;
198.6000;0.5779;0.9733;
198.9000;0.5812;0.9780;
199.2000;0.5796;0.9757;
199.5000;0.5853;0.9852;
199.8000;0.5804;0.9615;
200.1000;0.5788;0.9520;
200.4000;0.5804;0.9567;
200.7000;0.5804;0.9591;
201.0000;0.5812;0.9591;
201.3000;0.5804;0.9591;
201.6000;0.5812;0.9591;
201.9000;0.5861;0.9638;
202.2000;0.5788;0.9544;
202.5000;0.5747;0.9544;
202.8000;0.5853;0.9828;
203.1000;0.5812;0.9757;
203.4000;0.5788;0.9757;
203.7000;0.5788;0.9757;
204.0000;0.5812;0.9757;
204.3000;0.5804;0.9828;
204.6000;0.5812;0.9804;
204.9000;0.5731;0.9757;
205.2000;0.5788;0.9852;
205.5000;0.5804;0.9780;
205.8000;0.5877;1.0017;
206.1000;0.5812;0.9946;
206.4000;0.5820;0.9946;
206.7000;0.5788;0.9804;
207.0000;0.5796;0.9899;
207.3000;0.5804;0.9875;
207.6000;0.5779;0.9852;
207.9000;0.5796;1.0017;
208.2000;0.5788;0.9994;
208.5000;0.5788;0.9970;
208.8000;0.5820;1.0065;
209.1000;0.5779;1.0041;
209.4000;0.5779;1.0041;
209.7000;0.5812;1.0159;
210.0000;0.5779;0.9994;
210.3000;0.5836;1.0065;
210.6000;0.5812;0.9923;
210.9000;0.5812;0.9875;
211.2000;0.5788;0.9852;
211.5000;0.5804;0.9946;
211.8000;0.5804;0.9946;
212.1000;0.5812;0.9828;
212.4000;0.5804;0.9852;
212.7000;0.5861;0.9994;
213.0000;0.5796;0.9899;
213.3000;0.5804;0.9875;
213.6000;0.5804;0.9970;
213.9000;0.5779;0.9852;
214.2000;0.5796;0.9923;
214.5000;0.5788;0.9875;
214.8000;0.5812;0.9970;
215.1000;0.5796;1.0041;
215.4000;0.5804;1.0065;
215.7000;0.5796;1.0088;
216.0000;0.5820;1.0159;
216.3000;0.5820;1.0136;
216.6000;0.5804;0.9852;
216.9000;0.5804;0.9852;
217.2000;0.5804;0.9899;
217.5000;0.5820;0.9994;
217.8000;0.5739;0.9875;
218.1000;0.5812;1.0041;
218.4000;0.5804;1.0065;
218.7000;0.5861;1.0183;
219.0000;0.5779;0.9970;
219.3000;0.5788;0.9970;
219.6000;0.5804;0.9946;
219.9000;0.5804;0.9875;
220.2000;0.5788;0.9828;
220.5000;0.5779;0.9757;
220.8000;0.5779;0.9686;
221.1000;0.5763;0.9591;
221.4000;0.5877;0.9899;
221.7000;0.5755;0.9567;
222.0000;0.5828;0.9733;
222.3000;0.5804;0.9804;
222.6000;0.5812;0.9757;
222.9000;0.5804;0.9733;
223.2000;0.5796;0.9733;
223.5000;0.5804;0.9804;
223.8000;0.5861;0.9899;
224.1000;0.5804;0.9757;
224.4000;0.5731;0.9567;
224.7000;0.5796;0.9733;
225.0000;0.5788;0.9733;
225.3000;0.5804;0.9757;
225.6000;0.5788;0.9804;
225.9000;0.5861;0.9970;
226.2000;0.5796;0.9899;
226.5000;0.5755;0.9780;
226.8000;0.5796;0.9946;
227.1000;0.5853;1.0088;
227.4000;0.5812;1.0017;
227.7000;0.5820;1.0041;
228.0000;0.5763;0.9923;
228.3000;0.5788;0.9923;
228.6000;0.5796;0.9875;
228.9000;0.5853;0.9923;
229.2000;0.5788;0.9733;
229.5000;0.5796;0.9804;
229.8000;0.5804;0.9733;
230.1000;0.5820;0.9757;
230.4000;0.5812;0.9733;
230.7000;0.5796;0.9662;
231.0000;0.5812;0.9686;
231.3000;0.5796;0.9686;
231.6000;0.5796;0.9686;
231.9000;0.5804;0.9686;
232.2000;0.5812;0.9638;
232.5000;0.5812;0.9709;
232.8000;0.5796;0.9709;
233.1000;0.5804;0.9662;
233.4000;0.5820;0.9757;
233.7000;0.5804;0.9638;
234.0000;0.5804;0.9686;
234.3000;0.5804;0.9591;
234.6000;0.5812;0.9757;
234.9000;0.5771;0.9662;
235.2000;0.5812;0.9733;
235.5000;0.5747;0.9733;
235.8000;0.5828;0.9875;
236.1000;0.5804;0.9733;
236.4000;0.5788;0.9686;
236.7000;0.5804;0.9804;
237.0000;0.5804;0.9804;
237.3000;0.5796;0.9852;
237.6000;0.5820;0.9970;
237.9000;0.5804;0.9899;
238.2000;0.5804;0.9828;
238.5000;0.5788;0.9733;
238.8000;0.5804;0.9780;
239.1000;0.5796;0.9733;
239.4000;0.5804;0.9828;
239.7000;0.5763;0.9686;
240.0000;0.5788;0.9780;
240.3000;0.5779;0.9828;
240.6000;0.5812;0.9875;
240.9000;0.5779;0.9733;
241.2000;0.5796;0.9686;
241.5000;0.5820;0.9709;
241.8000;0.5836;0.9662;
242.1000;0.5779;0.9615;
242.4000;0.5779;0.9686;
242.7000;0.5796;0.9709;
243.0000;0.5812;0.9733;
243.3000;0.5796;0.9615;
243.6000;0.5796;0.9496;
243.9000;0.5804;0.9544;
244.2000;0.5828;0.9591;
244.5000;0.5788;0.9520;
244.8000;0.5788;0.9496;
245.1000;0.5788;0.9449;
245.4000;0.5755;0.9402;
245.7000;0.5788;0.9473;
246.0000;0.5796;0.9496;
246.3000;0.5812;0.9496;
246.6000;0.5788;0.9449;
246.9000;0.5820;0.9544;
247.2000;0.5804;0.9496;
247.5000;0.5763;0.9473;
247.8000;0.5812;0.9638;
248.1000;0.5812;0.9709;
248.4000;0.5845;0.9733;
248.7000;0.5796;0.9638;
249.0000;0.5804;0.9662;
249.3000;0.5812;0.9757;
249.6000;0.5812;0.9662;
249.9000;0.5796;0.9662;
250.2000;0.5804;0.9662;
250.5000;0.5820;0.9733;
250.8000;0.5804;0.9757;
251.1000;0.5804;0.9780;
251.4000;0.5804;0.9780;
251.7000;0.5796;0.9804;
252.0000;0.5812;0.9780;
252.3000;0.5804;0.9780;
252.6000;0.5804;0.9804;
252.9000;0.5812;0.9757;
253.2000;0.5820;0.9780;
253.5000;0.5836;0.9804;
253.8000;0.5812;0.9733;
254.1000;0.5804;0.9662;
254.4000;0.5804;0.9757;
254.7000;0.5804;0.9733;
255.0000;0.5804;0.9757;
255.3000;0.5796;0.9804;
255.6000;0.5812;0.9804;
255.9000;0.5812;0.9804;
256.2000;0.5804;0.9709;
256.5000;0.5869;0.9875;
256.8000;0.5796;0.9686;
257.1000;0.5812;0.9733;
257.4000;0.5796;0.9709;
257.7000;0.5771;0.9638;
258.0000;0.5796;0.9733;
258.3000;0.5804;0.9780;
258.6000;0.5820;0.9709;
258.9000;0.5779;0.9662;
259.2000;0.5804;0.9686;
259.5000;0.5820;0.9804;
259.8000;0.5788;0.9875;
260.1000;0.5853;1.0017;
260.4000;0.5820;0.9946;
260.7000;0.5788;0.9828;
261.0000;0.5812;0.9875;
261.3000;0.5820;0.9828;
261.6000;0.5796;0.9852;
261.9000;0.5804;0.9852;
262.2000;0.5804;0.9923;
262.5000;0.5788;0.9923;
262.8000;0.5788;0.9899;
263.1000;0.5812;0.9828;
263.4000;0.5836;0.9875;
263.7000;0.5828;0.9804;
264.0000;0.5755;0.9780;
264.3000;0.5779;0.9828;
264.6000;0.5861;0.9970;
264.9000;0.5804;0.9970;
265.2000;0.5804;0.9923;
265.5000;0.5804;0.9828;
265.8000;0.5796;0.9757;
266.1000;0.5804;0.9804;
266.4000;0.5796;0.9733;
266.7000;0.5788;0.9686;
267.0000;0.5812;0.9757;
267.3000;0.5796;0.9757;
267.6000;0.5804;0.9875;
267.9000;0.5788;0.9875;
268.2000;0.5796;0.9852;
268.5000;0.5739;0.9757;
268.8000;0.5796;0.9923;
269.1000;0.5804;0.9946;
269.4000;0.5796;1.0017;
269.7000;0.5796;0.9828;
270.0000;0.5804;0.9804;
270.3000;0.5788;0.9733;
270.6000;0.5779;0.9638;
270.9000;0.5804;0.9757;
271.2000;0.5796;0.9804;
271.5000;0.5804;0.9780;
271.8000;0.5796;0.9757;
272.1000;0.5820;0.9780;
272.4000;0.5812;0.9804;
272.7000;0.5812;0.9780;
273.0000;0.5804;0.9780;
273.3000;0.5804;0.9804;
273.6000;0.5812;0.9804;
273.9000;0.5771;0.9780;
274.2000;0.5804;0.9970;
274.5000;0.5812;0.9970;
274.8000;0.5788;0.9923;
275.1000;0.5796;0.9875;
275.4000;0.5812;0.9899;
275.7000;0.5690;0.9520;
276.0000;0.5779;0.9780;
276.3000;0.5812;0.9804;
276.6000;0.5796;0.9780;
276.9000;0.5796;0.9804;
277.2000;0.5788;0.9757;
277.5000;0.5779;0.9686;
277.8000;0.5828;0.9757;
278.1000;0.5804;0.9686;
278.4000;0.5771;0.9591;
278.7000;0.5788;0.9686;
279.0000;0.5853;0.9923;
279.3000;0.5820;0.9804;
279.6000;0.5812;0.9875;
279.9000;0.5869;0.9970;
280.2000;0.5804;0.9780;
280.5000;0.5796;0.9757;
280.8000;0.5804;0.9709;
281.1000;0.5812;0.9662;
281.4000;0.5812;0.9780;
281.7000;0.5796;0.9757;
282.0000;0.5804;0.9780;
282.3000;0.5804;0.9923;
282.6000;0.5804;0.9970;
282.9000;0.5804;0.9946;
283.2000;0.5788;0.9994;
283.5000;0.5804;1.0041;
283.8000;0.5812;0.9875;
284.1000;0.5796;0.9852;
284.4000;0.5820;0.9994;
284.7000;0.5796;0.9946;
285.0000;0.5796;0.9923;
285.3000;0.5796;0.9899;
285.6000;0.5804;0.9970;
285.9000;0.5731;0.9709;
286.2000;0.5804;0.9875;
286.5000;0.5820;0.9923;
286.8000;0.5820;0.9852;
287.1000;0.5804;0.9780;
287.4000;0.5804;0.9804;
287.7000;0.5812;0.9852;
288.0000;0.5682;0.9544;
288.3000;0.5804;0.9852;
288.6000;0.5812;0.9923;
288.9000;0.5796;0.9899;
289.2000;0.5796;0.9994;
289.5000;0.5779;0.9899;
289.8000;0.5812;0.9970;
290.1000;0.5820;0.9994;
290.4000;0.5804;0.9970;
290.7000;0.5796;0.9946;
291.0000;0.5779;0.9946;
291.3000;0.5771;0.9946;
291.6000;0.5788;0.9946;
291.9000;0.5853;1.0065;
292.2000;0.5804;1.0017;
292.5000;0.5812;1.0065;
292.8000;0.5804;1.0017;
293.1000;0.5812;0.9923;
293.4000;0.5828;0.9899;
293.7000;0.5820;0.9875;
294.0000;0.5820;0.9899;
294.3000;0.5771;0.9875;
294.6000;0.5788;0.9828;
294.9000;0.5804;0.9804;
295.2000;0.5820;0.9733;
295.5000;0.5788;0.9686;
295.8000;0.5869;0.9946;
296.1000;0.5804;0.9709;
296.4000;0.5788;0.9733;
296.7000;0.5910;1.0159;
297.0000;0.5812;0.9923;
297.3000;0.5763;0.9828;
297.6000;0.5861;1.0041;
297.9000;0.5869;1.0159;
298.2000;0.5820;1.0041;
298.5000;0.5763;0.9899;
298.8000;0.5690;0.9733;
299.1000;0.5788;1.0017;
299.4000;0.5804;1.0041;
299.7000;0.5812;0.9970;
300.0000;0.5796;0.9923;
300.3000;0.5820;0.9970;
300.6000;0.5804;0.9875;
300.9000;0.5820;0.9946;
301.2000;0.5861;1.0065;
301.5000;0.5828;1.0017;
301.8000;0.5804;0.9994;
302.1000;0.5779;1.0017;
302.4000;0.5755;0.9875;
302.7000;0.5796;1.0017;
303.0000;0.5820;1.0112;
303.3000;0.5804;1.0136;
303.6000;0.5812;1.0136;
303.9000;0.5796;1.0065;
304.2000;0.5828;1.0159;
304.5000;0.5845;1.0065;
304.8000;0.5812;0.9875;
305.1000;0.5796;0.9875;
305.4000;0.5788;0.9852;
305.7000;0.5820;0.9899;
306.0000;0.5812;0.9780;
306.3000;0.5885;0.9994;
306.6000;0.5779;0.9852;
306.9000;0.5812;0.9970;
307.2000;0.5804;1.0017;
307.5000;0.5771;0.9899;
307.8000;0.5796;0.9970;
308.1000;0.5869;1.0136;
308.4000;0.5812;0.9970;
308.7000;0.5796;0.9970;
309.0000;0.5812;1.0017;
309.3000;0.5836;0.9970;
309.6000;0.5820;0.9875;
309.9000;0.5796;0.9780;
310.2000;0.5853;0.9875;
310.5000;0.5836;0.9804;
310.8000;0.5958;1.0112;
311.1000;0.5796;0.9780;
311.4000;0.5771;0.9804;
311.7000;0.5804;0.9946;
312.0000;0.5812;0.9899;
312.3000;0.5682;0.9615;
312.6000;0.5714;0.9615;
312.9000;0.5779;0.9780;
313.2000;0.5804;0.9828;
313.5000;0.5836;0.9923;
313.8000;0.5755;0.9733;
314.1000;0.5812;0.9828;
314.4000;0.5804;0.9852;
314.7000;0.5820;0.9804;
315.0000;0.5869;0.9923;
315.3000;0.5804;0.9804;
315.6000;0.5771;0.9828;
315.9000;0.5820;0.9875;
316.2000;0.5788;0.9875;
316.5000;0.5828;0.9970;
316.8000;0.5828;0.9946;
317.1000;0.5804;0.9828;
317.4000;0.5836;0.9828;
317.7000;0.5812;0.9899;
318.0000;0.5836;0.9875;
318.3000;0.5739;0.9615;
318.6000;0.5804;0.9709;
318.9000;0.5755;0.9662;
319.2000;0.5804;0.9757;
319.5000;0.5853;0.9852;
319.8000;0.5804;0.9757;
320.1000;0.5804;0.9852;
320.4000;0.5804;0.9946;
320.7000;0.5788;0.9970;
321.0000;0.5836;1.0041;
321.3000;0.5828;1.0041;
321.6000;0.5804;0.9923;
321.9000;0.5771;0.9875;
322.2000;0.5779;0.9852;
322.5000;0.5812;0.9923;
322.8000;0.5788;0.9804;
323.1000;0.5796;0.9946;
323.4000;0.5804;0.9970;
323.7000;0.5853;1.0065;
324.0000;0.5788;0.9875;
324.3000;0.5804;0.9875;
324.6000;0.5820;0.9852;
324.9000;0.5812;0.9804;
325.2000;0.5812;0.9780;
325.5000;0.5796;0.9780;
325.8000;0.5804;0.9875;
326.1000;0.5779;0.9899;
326.4000;0.5788;0.9828;
326.7000;0.5788;0.9828;
327.0000;0.5845;0.9946;
327.3000;0.5804;0.9852;
327.6000;0.5804;0.9780;
327.9000;0.5853;0.9804;
328.2000;0.5804;0.9804;
328.5000;0.5804;0.9780;
328.8000;0.5796;0.9757;
329.1000;0.5812;0.9686;
329.4000;0.5804;0.9686;
329.7000;0.5812;0.9709;
330.0000;0.5804;0.9733;
330.3000;0.5812;0.9828;
330.6000;0.5812;0.9828;
330.9000;0.5820;0.9757;
331.2000;0.5812;0.9709;
331.5000;0.5861;0.9780;
331.8000;0.5804;0.9757;
332.1000;0.5706;0.9591;
332.4000;0.5788;0.9852;
332.7000;0.5796;0.9828;
333.0000;0.5836;0.9804;
333.3000;0.5788;0.9733;
333.6000;0.5788;0.9733;
333.9000;0.5779;0.9733;
334.2000;0.5812;0.9733;
334.5000;0.5812;0.9804;
334.8000;0.5779;0.9709;
335.1000;0.5828;0.9733;
335.4000;0.5804;0.9709;
335.7000;0.5828;0.9852;
336.0000;0.5812;0.9852;
336.3000;0.5779;0.9804;
336.6000;0.5869;0.9994;
336.9000;0.5885;1.0112;
337.2000;0.5731;0.9709;
337.5000;0.5796;0.9899;
337.8000;0.5779;0.9875;
338.1000;0.5779;0.9899;
338.4000;0.5796;0.9757;
338.7000;0.5828;0.9757;
339.0000;0.5812;0.9662;
339.3000;0.5796;0.9591;
339.6000;0.5836;0.9780;
339.9000;0.5820;0.9757;
340.2000;0.5836;0.9780;
340.5000;0.5828;0.9780;
340.8000;0.5820;0.9804;
341.1000;0.5804;0.9757;
341.4000;0.5796;0.9780;
341.7000;0.5812;0.9780;
342.0000;0.5788;0.9828;
342.3000;0.5779;0.9828;
342.6000;0.5812;0.9875;
342.9000;0.5788;0.9852;
343.2000;0.5788;0.9804;
343.5000;0.5820;0.9828;
343.8000;0.5796;0.9757;
344.1000;0.5804;0.9733;
344.4000;0.5771;0.9520;
344.7000;0.5820;0.9662;
345.0000;0.5804;0.9757;
345.3000;0.5796;0.9780;
345.6000;0.5796;0.9709;
345.9000;0.5796;0.9828;
346.2000;0.5828;0.9946;
346.5000;0.5812;0.9899;
346.8000;0.5779;0.9875;
347.1000;0.5788;0.9899;
347.4000;0.5804;0.9899;
347.7000;0.5796;0.9852;
348.0000;0.5812;0.9828;
348.3000;0.5812;0.9733;
348.6000;0.5804;0.9686;
348.9000;0.5804;0.9733;
349.2000;0.5812;0.9733;
349.5000;0.5796;0.9662;
349.8000;0.5820;0.9686;
350.1000;0.5812;0.9638;
350.4000;0.5828;0.9804;
350.7000;0.5812;0.9780;
351.0000;0.5788;0.9709;
351.3000;0.5779;0.9591;
351.6000;0.5812;0.9615;
351.9000;0.5877;0.9780;
352.2000;0.5796;0.9638;
352.5000;0.5796;0.9662;
352.8000;0.5796;0.9615;
353.1000;0.5804;0.9686;
353.4000;0.5820;0.9757;
353.7000;0.5861;0.9828;
354.0000;0.5731;0.9449;
354.3000;0.5796;0.9662;
354.6000;0.5796;0.9709;
354.9000;0.5812;0.9757;
355.2000;0.5804;0.9757;
355.5000;0.5812;0.9757;
355.8000;0.5804;0.9638;
356.1000;0.5812;0.9709;
356.4000;0.5828;0.9757;
356.7000;0.5828;0.9780;
357.0000;0.5812;0.9686;
357.3000;0.5804;0.9591;
357.6000;0.5747;0.9449;
357.9000;0.5796;0.9591;
358.2000;0.5788;0.9638;
358.5000;0.5796;0.9757;
358.8000;0.5804;0.9733;
359.1000;0.5796;0.9780;
359.4000;0.5804;0.9875;
359.7000;0.5804;0.9923;
360.0000;0.5812;0.9780;
360.3000;0.5804;0.9804;
360.6000;0.5812;0.9804;
360.9000;0.5812;0.9733;
361.2000;0.5804;0.9733;
361.5000;0.5836;0.9828;
361.8000;0.5796;0.9567;
362.1000;0.5804;0.9544;
362.4000;0.5796;0.9544;
362.7000;0.5779;0.9378;
363.0000;0.5820;0.9496;
363.3000;0.5755;0.9354;
363.6000;0.5788;0.9378;
363.9000;0.5804;0.9496;
364.2000;0.5804;0.9496;
364.5000;0.5796;0.9520;
364.8000;0.5804;0.9520;
365.1000;0.5804;0.9567;
365.4000;0.5771;0.9544;
365.7000;0.5820;0.9615;
366.0000;0.5820;0.9662;
366.3000;0.5714;0.9473;
366.6000;0.5804;0.9709;
366.9000;0.5820;0.9780;
367.2000;0.5788;0.9757;
367.5000;0.5796;0.9828;
367.8000;0.5804;0.9852;
368.1000;0.5828;0.9899;
368.4000;0.5804;0.9828;
368.7000;0.5796;0.9804;
369.0000;0.5804;0.9804;
369.3000;0.5804;0.9804;
369.6000;0.5812;0.9875;
369.9000;0.5812;0.9733;
370.2000;0.5820;0.9686;
370.5000;0.5804;0.9686;
370.8000;0.5836;0.9757;
371.1000;0.5796;0.9709;
371.4000;0.5771;0.9544;
371.7000;0.5836;0.9733;
372.0000;0.5796;0.9709;
372.3000;0.5796;0.9709;
372.6000;0.5828;0.9757;
372.9000;0.5804;0.9780;
373.2000;0.5804;0.9780;
373.5000;0.5796;0.9780;
373.8000;0.5796;0.9733;
374.1000;0.5779;0.9733;
374.4000;0.5812;0.9780;
374.7000;0.5788;0.9686;
375.0000;0.5812;0.9686;
375.3000;0.5804;0.9662;
375.6000;0.5812;0.9615;
375.9000;0.5812;0.9709;
376.2000;0.5804;0.9662;
376.5000;0.5845;0.9780;
376.8000;0.5796;0.9733;
377.1000;0.5788;0.9804;
377.4000;0.5812;0.9875;
377.7000;0.5885;0.9994;
378.0000;0.5812;0.9780;
378.3000;0.5828;0.9804;
378.6000;0.5771;0.9638;
378.9000;0.5804;0.9686;
379.2000;0.5804;0.9733;
379.5000;0.5820;0.9780;
379.8000;0.5828;0.9804;
380.1000;0.5812;0.9686;
380.4000;0.5796;0.9709;
380.7000;0.5820;0.9804;
381.0000;0.5853;0.9994;
381.3000;0.5804;0.9899;
381.6000;0.5804;0.9923;
381.9000;0.5820;0.9946;
382.2000;0.5796;0.9946;
382.5000;0.5828;0.9946;
382.8000;0.5779;0.9757;
383.1000;0.5796;0.9804;
383.4000;0.5820;0.9828;
383.7000;0.5804;0.9875;
384.0000;0.5788;0.9828;
384.3000;0.5804;0.9875;
384.6000;0.5804;0.9970;
384.9000;0.5820;1.0065;
385.2000;0.5796;0.9946;
385.5000;0.5820;1.0017;
385.8000;0.5812;0.9994;
386.1000;0.5796;1.0017;
386.4000;0.5755;0.9946;
386.7000;0.5804;1.0041;
387.0000;0.5804;1.0017;
387.3000;0.5788;0.9946;
387.6000;0.5812;1.0041;
387.9000;0.5804;1.0041;
388.2000;0.5796;0.9946;
388.5000;0.5804;0.9970;
388.8000;0.5820;1.0017;
389.1000;0.5820;0.9946;
389.4000;0.5812;0.9946;
389.7000;0.5788;0.9875;
390.0000;0.5804;0.9899;
390.3000;0.5796;0.9875;
390.6000;0.5771;0.9780;
390.9000;0.5788;0.9852;
391.2000;0.5820;0.9875;
391.5000;0.5828;0.9923;
391.8000;0.5804;0.9970;
392.1000;0.5788;0.9899;
392.4000;0.5804;1.0088;
392.7000;0.5804;0.9994;
393.0000;0.5861;1.0041;
393.3000;0.5804;0.9946;
393.6000;0.5779;0.9994;
393.9000;0.5804;1.0112;
394.2000;0.5796;1.0136;
394.5000;0.5796;1.0088;
394.8000;0.5804;0.9994;
395.1000;0.5804;0.9994;
395.4000;0.5796;0.9946;
395.7000;0.5804;0.9899;
396.0000;0.5804;0.9899;
396.3000;0.5796;0.9899;
396.6000;0.5747;0.9686;
396.9000;0.5796;0.9757;
397.2000;0.5820;0.9804;
397.5000;0.5812;0.9852;
397.8000;0.5771;0.9686;
398.1000;0.5812;0.9828;
398.4000;0.5804;0.9852;
398.7000;0.5869;0.9899;
399.0000;0.5836;0.9780;
399.3000;0.5812;0.9733;
399.6000;0.5828;0.9875;
399.9000;0.5804;0.9780;
400.2000;0.5812;0.9780;
400.5000;0.5804;0.9852;
400.8000;0.5763;0.9804;
401.1000;0.5796;0.9899;
401.4000;0.5820;0.9852;
401.7000;0.5788;0.9733;
402.0000;0.5796;0.9757;
402.3000;0.5804;0.9709;
402.6000;0.5812;0.9709;
402.9000;0.5845;0.9804;
403.2000;0.5836;0.9733;
403.5000;0.5812;0.9662;
403.8000;0.5812;0.9615;
404.1000;0.5820;0.9662;
404.4000;0.5820;0.9662;
404.7000;0.5812;0.9733;
405.0000;0.5812;0.9899;
405.3000;0.5804;0.9970;
405.6000;0.5812;0.9970;
405.9000;0.5796;0.9899;
406.2000;0.5804;0.9875;
406.5000;0.5812;0.9852;
406.8000;0.5812;0.9899;
407.1000;0.5820;0.9828;
407.4000;0.5820;0.9780;
407.7000;0.5788;0.9709;
408.0000;0.5804;0.9780;
408.3000;0.5845;0.9923;
408.6000;0.5779;0.9946;
408.9000;0.5804;0.9994;
409.2000;0.5812;1.0065;
409.5000;0.5788;0.9946;
409.8000;0.5812;1.0041;
410.1000;0.5820;0.9970;
410.4000;0.5796;0.9852;
410.7000;0.5804;0.9946;
411.0000;0.5722;0.9733;
411.3000;0.5804;0.9899;
411.6000;0.5845;0.9875;
411.9000;0.5812;0.9804;
412.2000;0.5812;0.9757;
412.5000;0.5739;0.9520;
412.8000;0.5812;0.9638;
413.1000;0.5804;0.9662;
413.4000;0.5779;0.9638;
413.7000;0.5804;0.9828;
414.0000;0.5796;0.9828;
414.3000;0.5804;0.9946;
414.6000;0.5779;0.9923;
414.9000;0.5812;0.9994;
415.2000;0.5820;1.0017;
415.5000;0.5828;1.0065;
415.8000;0.5812;1.0041;
416.1000;0.5796;0.9994;
416.4000;0.5804;1.0088;
416.7000;0.5820;1.0088;
417.0000;0.5853;1.0207;
417.3000;0.5796;1.0112;
417.6000;0.5796;1.0065;
417.9000;0.5755;0.9994;
418.2000;0.5812;1.0017;
418.5000;0.5820;1.0065;
418.8000;0.5812;1.0112;
419.1000;0.5812;1.0159;
419.4000;0.5796;1.0159;
419.7000;0.5804;1.0183;
420.0000;0.5779;1.0088;
420.3000;0.5804;1.0136;
420.6000;0.5788;1.0112;
420.9000;0.5828;1.0159;
421.2000;0.5804;0.9994;
421.5000;0.5812;0.9970;
421.8000;0.5779;0.9875;
422.1000;0.5869;1.0065;
422.4000;0.5820;0.9946;
422.7000;0.5804;1.0017;
423.0000;0.5820;1.0041;
423.3000;0.5836;0.9994;
423.6000;0.5820;0.9923;
423.9000;0.5820;0.9970;
424.2000;0.5812;1.0041;
424.5000;0.5812;1.0017;
424.8000;0.5828;1.0112;
425.1000;0.5836;1.0230;
425.4000;0.5788;1.0065;
425.7000;0.5812;1.0017;
426.0000;0.5812;0.9970;
426.3000;0.5804;0.9899;
426.6000;0.5796;0.9899;
426.9000;0.5820;0.9946;
427.2000;0.5812;0.9852;
427.5000;0.5796;0.9923;
427.8000;0.5804;0.9923;
428.1000;0.5820;0.9994;
428.4000;0.5804;0.9875;
428.7000;0.5812;0.9804;
429.0000;0.5804;0.9733;
429.3000;0.5747;0.9662;
429.6000;0.5877;0.9946;
429.9000;0.5812;0.9828;
430.2000;0.5877;0.9875;
430.5000;0.5861;0.9804;
430.8000;0.5820;0.9757;
431.1000;0.5804;0.9733;
431.4000;0.5796;0.9780;
431.7000;0.5796;0.9757;
432.0000;0.5796;0.9852;
432.3000;0.5812;0.9970;
432.6000;0.5804;0.9923;
432.9000;0.5820;0.9970;
433.2000;0.5845;0.9970;
433.5000;0.5804;0.9875;
433.8000;0.5812;0.9923;
434.1000;0.5820;0.9828;
434.4000;0.5812;0.9733;
434.7000;0.5804;0.9638;
435.0000;0.5796;0.9780;
435.3000;0.5796;0.9757;
435.6000;0.5804;0.9733;
435.9000;0.5804;0.9733;
436.2000;0.5885;0.9946;
436.5000;0.5771;0.9662;
436.8000;0.5804;0.9875;
437.1000;0.5910;1.0065;
437.4000;0.5747;0.9709;
437.7000;0.5812;0.9970;
438.0000;0.5747;0.9875;
438.3000;0.5861;1.0136;
438.6000;0.5812;1.0041;
438.9000;0.5755;0.9780;
439.2000;0.5869;1.0088;
439.5000;0.5812;0.9923;
439.8000;0.5820;0.9875;
440.1000;0.5869;0.9923;
440.4000;0.5755;0.9709;
440.7000;0.5812;0.9804;
441.0000;0.5796;0.9804;
441.3000;0.5812;0.9757;
441.6000;0.5812;0.9780;
441.9000;0.5788;0.9709;
442.2000;0.5820;0.9757;
442.5000;0.5845;0.9804;
442.8000;0.5812;0.9780;
443.1000;0.5796;0.9828;
443.4000;0.5820;0.9923;
443.7000;0.5812;0.9852;
444.0000;0.5820;0.9780;
444.3000;0.5820;0.9852;
444.6000;0.5796;0.9852;
444.9000;0.5820;0.9899;
445.2000;0.5804;0.9875;
445.5000;0.5820;0.9852;
445.8000;0.5788;0.9828;
446.1000;0.5804;0.9828;
446.4000;0.5804;0.9852;
446.7000;0.5796;0.9852;
447.0000;0.5796;0.9852;
447.3000;0.5836;0.9923;
447.6000;0.5820;0.9923;
447.9000;0.5796;0.9828;
448.2000;0.5804;0.9828;
448.5000;0.5804;0.9852;
448.8000;0.5804;0.9852;
449.1000;0.5788;0.9828;
449.4000;0.5804;0.9875;
449.7000;0.5812;0.9923;
450.0000;0.5828;1.0017;
450.3000;0.5828;0.9994;
450.6000;0.5804;0.9923;
450.9000;0.5771;0.9923;
451.2000;0.5796;0.9970;
451.5000;0.5902;1.0112;
451.8000;0.5812;0.9828;
452.1000;0.5861;1.0017;
452.4000;0.5820;0.9852;
452.7000;0.5877;0.9946;
453.0000;0.5804;0.9757;
453.3000;0.5763;0.9733;
453.6000;0.5771;0.9828;
453.9000;0.5714;0.9733;
454.2000;0.5747;0.9804;
454.5000;0.5788;0.9923;
454.8000;0.5812;0.9923;
455.1000;0.5804;0.9970;
455.4000;0.5804;1.0065;
455.7000;0.5747;0.9875;
456.0000;0.5828;1.0017;
456.3000;0.5779;0.9946;
456.6000;0.5885;1.0088;
456.9000;0.5796;0.9828;
457.2000;0.5755;0.9828;
457.5000;0.5779;0.9804;
457.8000;0.5796;0.9780;
458.1000;0.5763;0.9709;
458.4000;0.5804;0.9757;
458.7000;0.5788;0.9686;
459.0000;0.5820;0.9780;
459.3000;0.5869;0.9923;
459.6000;0.5796;0.9804;
459.9000;0.5836;0.9828;
460.2000;0.5812;0.9780;
460.5000;0.5788;0.9709;
460.8000;0.5788;0.9733;
461.1000;0.5812;0.9757;
461.4000;0.5877;0.9970;
461.7000;0.5820;0.9828;
462.0000;0.5779;0.9709;
462.3000;0.5812;0.9709;
462.6000;0.5796;0.9686;
462.9000;0.5812;0.9804;
463.2000;0.5796;0.9733;
463.5000;0.5804;0.9780;
463.8000;0.5796;0.9780;
464.1000;0.5804;0.9757;
464.4000;0.5812;0.9686;
464.7000;0.5812;0.9615;
465.0000;0.5804;0.9615;
465.3000;0.5820;0.9638;
465.6000;0.5820;0.9615;
465.9000;0.5828;0.9686;
466.2000;0.5820;0.9662;
466.5000;0.5804;0.9638;
466.8000;0.5804;0.9615;
467.1000;0.5796;0.9662;
467.4000;0.5820;0.9638;
467.7000;0.5796;0.9615;
468.0000;0.5812;0.9591;
468.3000;0.5788;0.9638;
468.6000;0.5804;0.9709;
468.9000;0.5804;0.9686;
469.2000;0.5804;0.9709;
469.5000;0.5796;0.9686;
469.8000;0.5804;0.9638;
470.1000;0.5820;0.9709;
470.4000;0.5836;0.9780;
470.7000;0.5820;0.9780;
471.0000;0.5812;0.9923;
471.3000;0.5796;0.9875;
471.6000;0.5788;0.9899;
471.9000;0.5788;0.9828;
472.2000;0.5804;0.9899;
472.5000;0.5796;0.9899;
472.8000;0.5812;0.9875;
473.1000;0.5820;0.9946;
473.4000;0.5812;0.9899;
473.7000;0.5820;0.9923;
474.0000;0.5820;0.9828;
474.3000;0.5812;0.9875;
474.6000;0.5779;0.9780;
474.9000;0.5812;0.9828;
475.2000;0.5804;0.9875;
475.5000;0.5869;0.9994;
475.8000;0.5804;0.9852;
476.1000;0.5796;0.9828;
476.4000;0.5804;0.9828;
476.7000;0.5845;0.9970;
477.0000;0.5812;0.9875;
477.3000;0.5804;0.9875;
477.6000;0.5804;0.9852;
477.9000;0.5812;0.9923;
478.2000;0.5828;1.0041;
478.5000;0.5804;0.9994;
478.8000;0.5828;1.0088;
479.1000;0.5812;1.0088;
479.4000;0.5804;1.0065;
479.7000;0.5812;1.0136;
480.0000;0.5845;1.0207;
480.3000;0.5804;1.0041;
480.6000;0.5796;0.9899;
480.9000;0.5828;0.9994;
481.2000;0.5812;0.9875;
481.5000;0.5812;0.9899;
481.8000;0.5812;0.9923;
482.1000;0.5804;0.9994;
482.4000;0.5796;0.9899;
482.7000;0.5828;0.9923;
483.0000;0.5812;0.9899;
483.3000;0.5820;0.9899;
483.6000;0.5812;0.9875;
483.9000;0.5926;1.0207;
484.2000;0.5796;0.9970;
484.5000;0.5812;0.9970;
484.8000;0.5804;0.9875;
485.1000;0.5812;0.9828;
485.4000;0.5812;0.9875;
485.7000;0.5820;0.9970;
486.0000;0.5804;0.9946;
486.3000;0.5804;0.9946;
486.6000;0.5828;0.9970;
486.9000;0.5796;0.9970;
487.2000;0.5812;0.9994;
487.5000;0.5755;0.9804;
487.8000;0.5804;0.9994;
488.1000;0.5796;0.9994;
488.4000;0.5788;0.9946;
488.7000;0.5779;0.9923;
489.0000;0.5771;0.9875;
489.3000;0.5804;0.9875;
489.6000;0.5804;0.9780;
489.9000;0.5779;0.9733;
490.2000;0.5812;0.9709;
490.5000;0.5828;0.9804;
490.8000;0.5788;0.9804;
491.1000;0.5796;0.9828;
491.4000;0.5796;0.9875;
491.7000;0.5788;0.9852;
492.0000;0.5690;0.9638;
492.3000;0.5796;0.9923;
492.6000;0.5739;0.9757;
492.9000;0.5779;0.9875;
493.2000;0.5804;0.9946;
493.5000;0.5796;0.9923;
493.8000;0.5763;0.9709;
494.1000;0.5796;0.9780;
494.4000;0.5812;0.9804;
494.7000;0.5755;0.9662;
495.0000;0.5804;0.9804;
495.3000;0.5804;0.9780;
495.6000;0.5845;0.9994;
495.9000;0.5869;1.0112;
496.2000;0.5812;0.9899;
496.5000;0.5812;0.9804;
496.8000;0.5804;0.9899;
497.1000;0.5820;0.9899;
497.4000;0.5820;0.9946;
497.7000;0.5812;0.9946;
498.0000;0.5812;0.9828;
498.3000;0.5812;0.9709;
498.6000;0.5812;0.9804;
498.9000;0.5820;0.9828;
499.2000;0.5796;0.9709;
499.5000;0.5812;0.9780;
499.8000;0.5820;0.9923;
500.1000;0.5804;1.0017;
500.4000;0.5820;1.0017;
500.7000;0.5812;1.0088;
501.0000;0.5828;1.0112;
501.3000;0.5820;1.0065;
501.6000;0.5804;0.9946;
501.9000;0.5836;0.9946;
502.2000;0.5804;0.9899;
502.5000;0.5804;0.9946;
502.8000;0.5804;0.9899;
503.1000;0.5796;0.9828;
503.4000;0.5788;0.9852;
503.7000;0.5828;0.9852;
504.0000;0.5788;0.9757;
504.3000;0.5731;0.9544;
504.6000;0.5804;0.9733;
504.9000;0.5788;0.9638;
505.2000;0.5828;0.9638;
505.5000;0.5836;0.9686;
505.8000;0.5779;0.9567;
506.1000;0.5804;0.9615;
506.4000;0.5804;0.9686;
506.7000;0.5788;0.9591;
507.0000;0.5804;0.9662;
507.3000;0.5796;0.9662;
507.6000;0.5804;0.9709;
507.9000;0.5796;0.9780;
508.2000;0.5820;0.9923;
508.5000;0.5804;0.9852;
508.8000;0.5820;0.9994;
509.1000;0.5812;0.9970;
509.4000;0.5877;1.0088;
509.7000;0.5796;0.9899;
510.0000;0.5877;1.0088;
510.3000;0.5812;0.9970;
510.6000;0.5812;1.0017;
510.9000;0.5812;0.9994;
511.2000;0.5796;0.9946;
511.5000;0.5836;0.9970;
511.8000;0.5804;0.9852;
512.1000;0.5804;0.9852;
512.4000;0.5845;0.9946;
512.7000;0.5845;0.9923;
513.0000;0.5812;0.9828;
513.3000;0.5788;0.9662;
513.6000;0.5779;0.9733;
513.9000;0.5804;0.9804;
514.2000;0.5788;0.9852;
514.5000;0.5796;0.9875;
514.8000;0.5820;1.0017;
515.1000;0.5796;0.9923;
515.4000;0.5804;0.9923;
515.7000;0.5812;0.9899;
516.0000;0.5796;0.9852;
516.3000;0.5812;0.9946;
516.6000;0.5812;0.9970;
516.9000;0.5820;1.0088;
517.2000;0.5804;0.9994;
517.5000;0.5812;0.9946;
517.8000;0.5747;0.9875;
518.1000;0.5804;0.9970;
518.4000;0.5804;1.0041;
518.7000;0.5804;1.0041;
519.0000;0.5804;1.0017;
519.3000;0.5804;0.9946;
519.6000;0.5812;0.9923;
519.9000;0.5788;0.9852;
520.2000;0.5820;0.9852;
520.5000;0.5804;0.9828;
520.8000;0.5812;0.9852;
521.1000;0.5804;0.9757;
521.4000;0.5820;0.9828;
521.7000;0.5804;0.9757;
522.0000;0.5779;0.9662;
522.3000;0.5820;0.9852;
522.6000;0.5804;0.9899;
522.9000;0.5820;0.9899;
523.2000;0.5796;0.9923;
523.5000;0.5812;1.0017;
523.8000;0.5763;0.9946;
524.1000;0.5804;1.0136;
524.4000;0.5804;1.0136;
524.7000;0.5763;1.0041;
525.0000;0.5845;1.0254;
525.3000;0.5788;1.0065;
525.6000;0.5877;1.0230;
525.9000;0.5812;1.0065;
526.2000;0.5845;1.0207;
526.5000;0.5836;1.0112;
526.8000;0.5804;0.9875;
527.1000;0.5853;0.9875;
527.4000;0.5836;0.9780;
527.7000;0.5788;0.9686;
528.0000;0.5934;1.0017;
528.3000;0.5885;0.9946;
528.6000;0.5804;0.9780;
528.9000;0.5796;0.9804;
529.2000;0.5804;0.9780;
529.5000;0.5812;0.9852;
529.8000;0.5788;0.9875;
530.1000;0.5796;0.9899;
530.4000;0.5804;0.9923;
530.7000;0.5788;0.9899;
531.0000;0.5747;0.9757;
531.3000;0.5788;0.9828;
531.6000;0.5779;0.9757;
531.9000;0.5788;0.9757;
532.2000;0.5812;0.9804;
532.5000;0.5788;0.9662;
532.8000;0.5804;0.9780;
533.1000;0.5804;0.9757;
533.4000;0.5812;0.9686;
533.7000;0.5796;0.9662;
534.0000;0.5812;0.9615;
534.3000;0.5812;0.9662;
534.6000;0.5796;0.9567;
534.9000;0.5812;0.9567;
535.2000;0.5804;0.9662;
535.5000;0.5788;0.9638;
535.8000;0.5836;0.9709;
536.1000;0.5812;0.9686;
536.4000;0.5796;0.9638;
536.7000;0.5804;0.9757;
537.0000;0.5828;0.9852;
537.3000;0.5836;0.9780;
537.6000;0.5812;0.9709;
537.9000;0.5796;0.9662;
538.2000;0.5812;0.9709;
538.5000;0.5812;0.9638;
538.8000;0.5820;0.9709;
539.1000;0.5796;0.9733;
539.4000;0.5804;0.9780;
539.7000;0.5812;0.9804;
540.0000;0.5804;0.9780;
540.3000;0.5804;0.9709;
540.6000;0.5796;0.9804;
540.9000;0.5820;0.9852;
541.2000;0.5788;0.9733;
541.5000;0.5820;0.9757;
541.8000;0.5804;0.9709;
542.1000;0.5885;0.9804;
542.4000;0.5812;0.9615;
542.7000;0.5812;0.9686;
543.0000;0.5804;0.9733;
543.3000;0.5796;0.9733;
543.6000;0.5763;0.9662;
543.9000;0.5804;0.9780;
544.2000;0.5788;0.9828;
544.5000;0.5812;0.9970;
544.8000;0.5812;1.0088;
545.1000;0.5763;0.9899;
545.4000;0.5836;1.0041;
545.7000;0.5812;0.9946;
546.0000;0.5845;1.0017;
546.3000;0.5747;0.9804;
546.6000;0.5788;0.9970;
546.9000;0.5877;1.0136;
547.2000;0.5820;1.0041;
547.5000;0.5828;1.0017;
547.8000;0.5828;1.0017;
548.1000;0.5755;0.9780;
548.4000;0.5845;0.9994;
548.7000;0.5779;0.9899;
549.0000;0.5836;1.0065;
549.3000;0.5861;1.0088;
549.6000;0.5812;1.0017;
549.9000;0.5812;1.0065;
550.2000;0.5796;0.9970;
550.5000;0.5845;1.0183;
550.8000;0.5747;0.9852;
551.1000;0.5804;0.9946;
551.4000;0.5747;0.9686;
551.7000;0.5763;0.9662;
552.0000;0.5714;0.9544;
552.3000;0.5812;0.9709;
552.6000;0.5804;0.9638;
552.9000;0.5812;0.9709;
553.2000;0.5796;0.9733;
553.5000;0.5771;0.9733;
553.8000;0.5804;0.9970;
554.1000;0.5804;0.9994;
554.4000;0.5796;1.0065;
554.7000;0.5788;1.0041;
555.0000;0.5731;0.9899;
555.3000;0.5779;0.9970;
555.6000;0.5779;0.9923;
555.9000;0.5804;0.9946;
556.2000;0.5674;0.9662;
556.5000;0.5788;0.9923;
556.8000;0.5804;0.9899;
557.1000;0.5812;0.9828;
557.4000;0.5812;0.9852;
557.7000;0.5836;0.9875;
558.0000;0.5796;0.9757;
558.3000;0.5804;0.9828;
558.6000;0.5820;0.9804;
558.9000;0.5788;0.9757;
559.2000;0.5788;0.9780;
559.5000;0.5796;0.9875;
559.8000;0.5796;0.9852;
560.1000;0.5796;0.9828;
560.4000;0.5812;0.9852;
560.7000;0.5812;0.9828;
561.0000;0.5812;0.9923;
561.3000;0.5812;0.9923;
561.6000;0.5788;0.9852;
561.9000;0.5796;0.9804;
562.2000;0.5820;0.9875;
562.5000;0.5877;1.0017;
562.8000;0.5796;0.9804;
563.1000;0.5779;0.9828;
563.4000;0.5788;0.9875;
563.7000;0.5788;0.9780;
564.0000;0.5804;0.9733;
564.3000;0.5820;0.9757;
564.6000;0.5861;0.9875;
564.9000;0.5812;0.9733;
565.2000;0.5788;0.9733;
565.5000;0.5845;0.9875;
565.8000;0.5771;0.9662;
566.1000;0.5828;0.9852;
566.4000;0.5763;0.9709;
566.7000;0.5796;0.9804;
567.0000;0.5820;0.9970;
567.3000;0.5812;0.9899;
567.6000;0.5779;0.9946;
567.9000;0.5804;1.0041;
568.2000;0.5722;0.9733;
568.5000;0.5812;0.9923;
568.8000;0.5779;0.9828;
569.1000;0.5779;0.9923;
569.4000;0.5804;0.9946;
569.7000;0.5804;0.9828;
570.0000;0.5763;0.9662;
570.3000;0.5812;0.9804;
570.6000;0.5853;0.9852;
570.9000;0.5836;0.9852;
571.2000;0.5755;0.9615;
571.5000;0.5796;0.9757;
571.8000;0.5788;0.9780;
572.1000;0.5788;0.9686;
572.4000;0.5828;0.9828;
572.7000;0.5804;0.9828;
573.0000;0.5796;0.9804;
573.3000;0.5861;0.9994;
573.6000;0.5747;0.9757;
573.9000;0.5796;0.9780;
574.2000;0.5788;0.9804;
574.5000;0.5804;0.9970;
574.8000;0.5853;0.9994;
575.1000;0.5804;0.9875;
575.4000;0.5722;0.9615;
575.7000;0.5812;0.9804;
576.0000;0.5804;0.9780;
576.3000;0.5812;0.9757;
576.6000;0.5804;0.9804;
576.9000;0.5804;0.9828;
577.2000;0.5820;0.9852;
577.5000;0.5828;0.9970;
577.8000;0.5804;0.9899;
578.1000;0.5828;0.9970;
578.4000;0.5739;0.9757;
578.7000;0.5796;0.9946;
579.0000;0.5812;0.9923;
579.3000;0.5812;0.9923;
579.6000;0.5804;0.9946;
579.9000;0.5796;0.9804;
580.2000;0.5812;0.9875;
580.5000;0.5820;0.9757;
580.8000;0.5812;0.9804;
581.1000;0.5853;1.0017;
581.4000;0.5812;0.9946;
581.7000;0.5820;0.9994;
582.0000;0.5804;0.9946;
582.3000;0.5812;0.9923;
582.6000;0.5804;0.9828;
582.9000;0.5836;0.9899;
583.2000;0.5820;0.9899;
583.5000;0.5796;0.9899;
583.8000;0.5796;0.9875;
584.1000;0.5812;0.9946;
584.4000;0.5812;0.9946;
584.7000;0.5779;0.9899;
585.0000;0.5788;0.9852;
585.3000;0.5812;0.9970;
585.6000;0.5796;0.9946;
585.9000;0.5796;0.9923;
586.2000;0.5788;0.9828;
586.5000;0.5788;0.9875;
586.8000;0.5796;1.0017;
587.1000;0.5771;0.9899;
587.4000;0.5706;0.9662;
587.7000;0.5804;0.9733;
588.0000;0.5845;0.9852;
588.3000;0.5788;0.9709;
588.6000;0.5804;0.9733;
588.9000;0.5788;0.9615;
589.2000;0.5804;0.9638;
589.5000;0.5804;0.9709;
589.8000;0.5796;0.9733;
590.1000;0.5804;0.9686;
590.4000;0.5828;0.9780;
590.7000;0.5804;0.9780;
591.0000;0.5706;0.9591;
591.3000;0.5796;0.9852;
591.6000;0.5869;1.0041;
591.9000;0.5771;0.9709;
592.2000;0.5812;0.9828;
592.5000;0.5788;0.9780;
592.8000;0.5804;0.9757;
593.1000;0.5812;0.9757;
593.4000;0.5828;0.9804;
593.7000;0.5788;0.9757;
594.0000;0.5820;0.9828;
594.3000;0.5804;0.9852;
594.6000;0.5812;0.9946;
594.9000;0.5722;0.9686;
595.2000;0.5796;0.9899;
595.5000;0.5804;0.9946;
595.8000;0.5804;0.9875;
596.1000;0.5796;0.9875;
596.4000;0.5788;0.9875;
596.7000;0.5812;0.9970;
597.0000;0.5812;0.9970;
597.3000;0.5804;0.9923;
597.6000;0.5804;0.9970;
597.9000;0.5820;1.0112;
598.2000;0.5812;1.0088;
598.5000;0.5820;1.0136;
598.8000;0.5788;1.0041;
599.1000;0.5788;0.9946;
599.4000;0.5804;0.9994;
599.7000;0.5796;1.0017;
600.0000;0.5796;0.9970;
600.3000;0.5763;0.9828;
600.6000;0.5820;0.9970;
600.9000;0.5820;0.9780;
601.2000;0.5747;0.9520;
601.5000;0.5747;0.9520;
601.8000;0.5731;0.9473;
602.1000;0.5698;0.9425;
602.4000;0.5600;0.9188;
602.7000;0.5649;0.9188;
603.0000;0.5600;0.9094;
603.3000;0.5625;0.9117;
603.6000;0.5608;0.9046;
603.9000;0.5503;0.8881;
604.2000;0.5511;0.8904;
604.5000;0.5503;0.8881;
604.8000;0.5495;0.8857;
605.1000;0.5454;0.8786;
605.4000;0.5535;0.8928;
605.7000;0.5446;0.8667;
606.0000;0.5438;0.8715;
606.3000;0.5397;0.8691;
606.6000;0.5389;0.8667;
606.9000;0.5356;0.8738;
607.2000;0.5364;0.8762;
607.5000;0.5364;0.8786;
607.8000;0.5291;0.8596;
608.1000;0.5324;0.8810;
608.4000;0.5324;0.8833;
608.7000;0.5397;0.8952;
609.0000;0.5283;0.8644;
609.3000;0.5299;0.8620;
609.6000;0.5291;0.8502;
609.9000;0.5340;0.8620;
610.2000;0.5267;0.8525;
610.5000;0.5234;0.8407;
610.8000;0.5169;0.8265;
611.1000;0.5234;0.8407;
611.4000;0.5218;0.8383;
611.7000;0.5210;0.8336;
612.0000;0.5218;0.8360;
612.3000;0.5201;0.8312;
612.6000;0.5185;0.8312;
612.9000;0.5210;0.8383;
613.2000;0.5169;0.8360;
613.5000;0.5161;0.8502;
613.8000;0.5153;0.8454;
614.1000;0.5144;0.8502;
614.4000;0.5144;0.8478;
614.7000;0.5144;0.8502;
615.0000;0.5161;0.8502;
615.3000;0.5169;0.8478;
615.6000;0.5128;0.8407;
615.9000;0.5079;0.8289;
616.2000;0.5096;0.8336;
616.5000;0.5112;0.8407;
616.8000;0.5063;0.8265;
617.1000;0.5071;0.8265;
617.4000;0.5071;0.8312;
617.7000;0.5063;0.8454;
618.0000;0.5128;0.8715;
618.3000;0.5047;0.8502;
618.6000;0.5071;0.8620;
618.9000;0.5063;0.8667;
619.2000;0.5031;0.8644;
619.5000;0.5031;0.8596;
619.8000;0.5031;0.8525;
620.1000;0.5006;0.8573;
620.4000;0.5047;0.8691;
620.7000;0.5014;0.8667;
621.0000;0.4990;0.8573;
621.3000;0.4998;0.8667;
621.6000;0.4982;0.8596;
621.9000;0.4990;0.8525;
622.2000;0.4957;0.8525;
622.5000;0.4990;0.8525;
622.8000;0.4949;0.8502;
623.1000;0.4949;0.8502;
623.4000;0.4925;0.8573;
623.7000;0.5031;0.8810;
624.0000;0.4900;0.8454;
624.3000;0.4974;0.8596;
624.6000;0.4876;0.8241;
624.9000;0.4917;0.8312;
625.2000;0.4827;0.8217;
625.5000;0.4957;0.8596;
625.8000;0.4884;0.8407;
626.1000;0.4884;0.8407;
626.4000;0.4851;0.8289;
626.7000;0.4876;0.8383;
627.0000;0.4876;0.8360;
627.3000;0.4868;0.8312;
627.6000;0.4860;0.8265;
627.9000;0.4860;0.8217;
628.2000;0.4851;0.8123;
628.5000;0.4843;0.8123;
628.8000;0.4868;0.8194;
629.1000;0.4835;0.8028;
629.4000;0.4860;0.8170;
629.7000;0.4827;0.8123;
630.0000;0.4819;0.8241;
630.3000;0.4827;0.8360;
630.6000;0.4819;0.8312;
630.9000;0.4819;0.8289;
631.2000;0.4819;0.8170;
631.5000;0.4803;0.8170;
631.8000;0.4811;0.8194;
632.1000;0.4770;0.8099;
632.4000;0.4803;0.8146;
632.7000;0.4835;0.8241;
633.0000;0.4754;0.8099;
633.3000;0.4729;0.8004;
633.6000;0.4754;0.8170;
633.9000;0.4778;0.8099;
634.2000;0.4762;0.8146;
634.5000;0.4729;0.8194;
634.8000;0.4884;0.8549;
635.1000;0.4762;0.8312;
635.4000;0.4737;0.8217;
635.7000;0.4737;0.8146;
636.0000;0.4721;0.8099;
636.3000;0.4705;0.8123;
636.6000;0.4729;0.8004;
636.9000;0.4721;0.7981;
637.2000;0.4737;0.7981;
637.5000;0.4705;0.8028;
637.8000;0.4729;0.8099;
638.1000;0.4705;0.8075;
638.4000;0.4689;0.8123;
638.7000;0.4705;0.8170;
639.0000;0.4713;0.8194;
639.3000;0.4689;0.8170;
639.6000;0.4786;0.8407;
639.9000;0.4672;0.8123;
640.2000;0.4729;0.8194;
640.5000;0.4689;0.8099;
640.8000;0.4672;0.8075;
641.1000;0.4656;0.8004;
641.4000;0.4664;0.8052;
641.7000;0.4656;0.8099;
642.0000;0.4632;0.8004;
642.3000;0.4615;0.7957;
642.6000;0.4615;0.8075;
642.9000;0.4534;0.7791;
643.2000;0.4615;0.8052;
643.5000;0.4624;0.8123;
643.8000;0.4567;0.8004;
644.1000;0.4640;0.8099;
644.4000;0.4697;0.8217;
644.7000;0.4583;0.7933;
645.0000;0.4672;0.8146;
645.3000;0.4640;0.8099;
645.6000;0.4624;0.8123;
645.9000;0.4615;0.8123;
646.2000;0.4583;0.8075;
646.5000;0.4599;0.8028;
646.8000;0.4624;0.8194;
647.1000;0.4615;0.8123;
647.4000;0.4599;0.8123;
647.7000;0.4583;0.8146;
648.0000;0.4591;0.8241;
648.3000;0.4607;0.8265;
648.6000;0.4583;0.8146;
648.9000;0.4607;0.8265;
649.2000;0.4591;0.8217;
649.5000;0.4607;0.8265;
649.8000;0.4591;0.8241;
650.1000;0.4567;0.8265;
650.4000;0.4534;0.8146;
650.7000;0.4567;0.8265;
651.0000;0.4567;0.8241;
651.3000;0.4558;0.8194;
651.6000;0.4526;0.8099;
651.9000;0.4615;0.8431;
652.2000;0.4542;0.8407;
652.5000;0.4526;0.8431;
652.8000;0.4534;0.8502;
653.1000;0.4567;0.8573;
653.4000;0.4526;0.8383;
653.7000;0.4534;0.8407;
654.0000;0.4550;0.8360;
654.3000;0.4526;0.8241;
654.6000;0.4534;0.8289;
654.9000;0.4469;0.8099;
655.2000;0.4526;0.8217;
655.5000;0.4575;0.8383;
655.8000;0.4526;0.8265;
656.1000;0.4518;0.8312;
656.4000;0.4518;0.8336;
656.7000;0.4518;0.8407;
657.0000;0.4510;0.8454;
657.3000;0.4501;0.8407;
657.6000;0.4550;0.8525;
657.9000;0.4461;0.8478;
658.2000;0.4485;0.8502;
658.5000;0.4526;0.8478;
658.8000;0.4444;0.8194;
659.1000;0.4461;0.8265;
659.4000;0.4461;0.8289;
659.7000;0.4477;0.8360;
660.0000;0.4461;0.8360;
660.3000;0.4469;0.8383;
660.6000;0.4444;0.8360;
660.9000;0.4510;0.8502;
661.2000;0.4453;0.8241;
661.5000;0.4444;0.8241;
661.8000;0.4469;0.8265;
662.1000;0.4444;0.8170;
662.4000;0.4444;0.8241;
662.7000;0.4461;0.8265;
663.0000;0.4493;0.8265;
663.3000;0.4477;0.8312;
663.6000;0.4453;0.8312;
663.9000;0.4453;0.8217;
664.2000;0.4420;0.8194;
664.5000;0.4453;0.8360;
664.8000;0.4510;0.8431;
665.1000;0.4428;0.8241;
665.4000;0.4453;0.8241;
665.7000;0.4501;0.8360;
666.0000;0.4412;0.8170;
666.3000;0.4428;0.8170;
666.6000;0.4322;0.7910;
666.9000;0.4371;0.8052;
667.2000;0.4477;0.8194;
667.5000;0.4396;0.8004;
667.8000;0.4404;0.8004;
668.1000;0.4420;0.8004;
668.4000;0.4404;0.7910;
668.7000;0.4396;0.7981;
669.0000;0.4404;0.8099;
669.3000;0.4396;0.8099;
669.6000;0.4387;0.8075;
669.9000;0.4420;0.8217;
670.2000;0.4387;0.8194;
670.5000;0.4485;0.8478;
670.8000;0.4404;0.8312;
671.1000;0.4412;0.8265;
671.4000;0.4387;0.8123;
671.7000;0.4379;0.8099;
672.0000;0.4355;0.8099;
672.3000;0.4379;0.8217;
672.6000;0.4412;0.8360;
672.9000;0.4363;0.8265;
673.2000;0.4379;0.8336;
673.5000;0.4322;0.8217;
673.8000;0.4363;0.8336;
674.1000;0.4339;0.8265;
674.4000;0.4355;0.8241;
674.7000;0.4330;0.8099;
675.0000;0.4347;0.8146;
675.3000;0.4363;0.8217;
675.6000;0.4322;0.8170;
675.9000;0.4241;0.8028;
676.2000;0.4347;0.8217;
676.5000;0.4363;0.8146;
676.8000;0.4355;0.8099;
677.1000;0.4355;0.8170;
677.4000;0.4371;0.8241;
677.7000;0.4371;0.8289;
678.0000;0.4298;0.8170;
678.3000;0.4355;0.8383;
678.6000;0.4371;0.8431;
678.9000;0.4322;0.8265;
679.2000;0.4322;0.8170;
679.5000;0.4330;0.8099;
679.8000;0.4322;0.8075;
680.1000;0.4347;0.8099;
680.4000;0.4322;0.8052;
680.7000;0.4322;0.8028;
681.0000;0.4306;0.8075;
681.3000;0.4339;0.8146;
681.6000;0.4282;0.8052;
681.9000;0.4314;0.8170;
682.2000;0.4314;0.8146;
682.5000;0.4363;0.8265;
682.8000;0.4330;0.8099;
683.1000;0.4298;0.8099;
683.4000;0.4298;0.8075;
683.7000;0.4298;0.8028;
684.0000;0.4274;0.8004;
684.3000;0.4363;0.8241;
684.6000;0.4322;0.8146;
684.9000;0.4306;0.8075;
685.2000;0.4290;0.8028;
685.5000;0.4290;0.8099;
685.8000;0.4249;0.7910;
686.1000;0.4314;0.8075;
686.4000;0.4314;0.8052;
686.7000;0.4290;0.7933;
687.0000;0.4274;0.7815;
687.3000;0.4290;0.7957;
687.6000;0.4306;0.8004;
687.9000;0.4274;0.8028;
688.2000;0.4265;0.8052;
688.5000;0.4290;0.8099;
688.8000;0.4298;0.8146;
689.1000;0.4282;0.8052;
689.4000;0.4298;0.8099;
689.7000;0.4282;0.8099;
690.0000;0.4249;0.8099;
690.3000;0.4282;0.8289;
690.6000;0.4265;0.8312;
690.9000;0.4265;0.8360;
691.2000;0.4257;0.8336;
691.5000;0.4265;0.8360;
691.8000;0.4249;0.8265;
692.1000;0.4274;0.8241;
692.4000;0.4274;0.8170;
692.7000;0.4265;0.8123;
693.0000;0.4265;0.8146;
693.3000;0.4257;0.8052;
693.6000;0.4233;0.8004;
693.9000;0.4241;0.8075;
694.2000;0.4298;0.8194;
694.5000;0.4241;0.8052;
694.8000;0.4249;0.8146;
695.1000;0.4249;0.8075;
695.4000;0.4249;0.8099;
695.7000;0.4241;0.8099;
696.0000;0.4257;0.8217;
696.3000;0.4249;0.8241;
696.6000;0.4241;0.8146;
696.9000;0.4233;0.8099;
697.2000;0.4184;0.8004;
697.5000;0.4192;0.8146;
697.8000;0.4225;0.8194;
698.1000;0.4257;0.8170;
698.4000;0.4192;0.7981;
698.7000;0.4225;0.8146;
699.0000;0.4217;0.8075;
699.3000;0.4225;0.8123;
699.6000;0.4282;0.8241;
699.9000;0.4225;0.8146;
700.2000;0.4217;0.8146;
700.5000;0.4233;0.8241;
700.8000;0.4217;0.8075;
701.1000;0.4233;0.8146;
701.4000;0.4225;0.8170;
701.7000;0.4233;0.8170;
702.0000;0.4241;0.8217;
702.3000;0.4217;0.8099;
702.6000;0.4225;0.8004;
702.9000;0.4225;0.8004;
703.2000;0.4208;0.7957;
703.5000;0.4208;0.7981;
703.8000;0.4176;0.7910;
704.1000;0.4249;0.8146;
704.4000;0.4192;0.8004;
704.7000;0.4176;0.7957;
705.0000;0.4200;0.7957;
705.3000;0.4192;0.7933;
705.6000;0.4225;0.8170;
705.9000;0.4200;0.8028;
706.2000;0.4274;0.8265;
706.5000;0.4192;0.8146;
706.8000;0.4192;0.8170;
707.1000;0.4233;0.8312;
707.4000;0.4208;0.8241;
707.7000;0.4160;0.8099;
708.0000;0.4184;0.8217;
708.3000;0.4192;0.8241;
708.6000;0.4176;0.8194;
708.9000;0.4184;0.8146;
709.2000;0.4208;0.8194;
709.5000;0.4217;0.8170;
709.8000;0.4217;0.8099;
710.1000;0.4200;0.8099;
710.4000;0.4208;0.8123;
710.7000;0.4192;0.8146;
711.0000;0.4192;0.8123;
711.3000;0.4184;0.8217;
711.6000;0.4184;0.8146;
711.9000;0.4184;0.8123;
712.2000;0.4184;0.8194;
712.5000;0.4208;0.8217;
712.8000;0.4160;0.8052;
713.1000;0.4208;0.8241;
713.4000;0.4200;0.8241;
713.7000;0.4184;0.8170;
714.0000;0.4119;0.8004;
714.3000;0.4200;0.8194;
714.6000;0.4184;0.8123;
714.9000;0.4168;0.8146;
715.2000;0.4151;0.8146;
715.5000;0.4168;0.8265;
715.8000;0.4151;0.8312;
716.1000;0.4168;0.8407;
716.4000;0.4143;0.8289;
716.7000;0.4168;0.8336;
717.0000;0.4168;0.8289;
717.3000;0.4176;0.8241;
717.6000;0.4160;0.8170;
717.9000;0.4151;0.8146;
718.2000;0.4151;0.8241;
718.5000;0.4037;0.7957;
718.8000;0.4135;0.8265;
719.1000;0.4135;0.8265;
719.4000;0.4143;0.8265;
719.7000;0.4151;0.8241;
720.0000;0.4151;0.8217;
720.3000;0.4151;0.8241;
720.6000;0.4200;0.8383;
720.9000;0.4160;0.8312;
721.2000;0.4151;0.8336;
721.5000;0.4111;0.8265;
721.8000;0.4135;0.8241;
722.1000;0.4160;0.8241;
722.4000;0.4168;0.8241;
722.7000;0.4143;0.8170;
723.0000;0.4135;0.8075;
723.3000;0.4086;0.7886;
723.6000;0.4192;0.8146;
723.9000;0.4135;0.8028;
724.2000;0.4143;0.8146;
724.5000;0.4151;0.8217;
724.8000;0.4160;0.8360;
725.1000;0.4160;0.8336;
725.4000;0.4151;0.8265;
725.7000;0.4168;0.8360;
726.0000;0.4168;0.8336;
726.3000;0.4143;0.8360;
726.6000;0.4135;0.8454;
726.9000;0.4127;0.8502;
727.2000;0.4119;0.8525;
727.5000;0.4127;0.8454;
727.8000;0.4111;0.8241;
728.1000;0.4127;0.8265;
728.4000;0.4208;0.8502;
728.7000;0.4135;0.8289;
729.0000;0.4127;0.8194;
729.3000;0.4119;0.8241;
729.6000;0.4127;0.8336;
729.9000;0.4094;0.8312;
730.2000;0.4119;0.8431;
730.5000;0.4217;0.8620;
730.8000;0.4111;0.8336;
731.1000;0.4143;0.8431;
731.4000;0.4127;0.8383;
731.7000;0.4135;0.8478;
732.0000;0.4094;0.8454;
732.3000;0.4127;0.8573;
732.6000;0.4119;0.8549;
732.9000;0.4160;0.8573;
733.2000;0.4127;0.8502;
733.5000;0.4127;0.8454;
733.8000;0.4111;0.8407;
734.1000;0.4111;0.8312;
734.4000;0.4127;0.8289;
734.7000;0.4119;0.8241;
735.0000;0.4086;0.8289;
735.3000;0.4111;0.8383;
735.6000;0.4111;0.8383;
735.9000;0.4111;0.8241;
736.2000;0.4127;0.8360;
736.5000;0.4094;0.8289;
736.8000;0.4103;0.8312;
737.1000;0.4103;0.8241;
737.4000;0.4094;0.8241;
737.7000;0.4103;0.8289;
738.0000;0.4111;0.8289;
738.3000;0.4094;0.8265;
738.6000;0.4111;0.8265;
738.9000;0.4217;0.8596;
739.2000;0.4111;0.8383;
739.5000;0.4111;0.8360;
739.8000;0.4086;0.8289;
740.1000;0.4111;0.8431;
740.4000;0.4078;0.8312;
740.7000;0.4103;0.8407;
741.0000;0.4070;0.8217;
741.3000;0.4160;0.8478;
741.6000;0.4103;0.8431;
741.9000;0.4111;0.8407;
742.2000;0.4094;0.8360;
742.5000;0.4086;0.8217;
742.8000;0.4111;0.8336;
743.1000;0.4119;0.8312;
743.4000;0.4086;0.8217;
743.7000;0.4086;0.8146;
744.0000;0.4111;0.8241;
744.3000;0.4094;0.8052;
744.6000;0.4070;0.8075;
744.9000;0.4103;0.8099;
745.2000;0.4070;0.8052;
745.5000;0.4111;0.8075;
745.8000;0.4094;0.8075;
746.1000;0.4062;0.7933;
746.4000;0.4192;0.8194;
746.7000;0.4111;0.8004;
747.0000;0.4086;0.7981;
747.3000;0.4086;0.7933;
747.6000;0.4078;0.8004;
747.9000;0.4078;0.8052;
748.2000;0.4111;0.8194;
748.5000;0.4119;0.8241;
748.8000;0.4078;0.8146;
749.1000;0.4103;0.8265;
749.4000;0.4062;0.8241;
749.7000;0.4103;0.8241;
750.0000;0.4086;0.8146;
750.3000;0.4070;0.8123;
750.6000;0.4070;0.8099;
750.9000;0.4070;0.8123;
751.2000;0.4054;0.8099;
751.5000;0.4086;0.8170;
751.8000;0.4086;0.8241;
752.1000;0.4119;0.8241;
752.4000;0.3989;0.7886;
752.7000;0.4119;0.8265;
753.0000;0.4054;0.8217;
753.3000;0.4070;0.8312;
753.6000;0.4054;0.8289;
753.9000;0.4143;0.8502;
754.2000;0.4062;0.8360;
754.5000;0.4070;0.8241;
754.8000;0.4078;0.8146;
755.1000;0.4086;0.8194;
755.4000;0.4062;0.8146;
755.7000;0.4103;0.8170;
756.0000;0.4062;0.8146;
756.3000;0.4046;0.8170;
756.6000;0.4046;0.8146;
756.9000;0.4086;0.8170;
757.2000;0.4046;0.8052;
757.5000;0.4046;0.8099;
757.8000;0.4086;0.8241;
758.1000;0.4070;0.8217;
758.4000;0.4046;0.8123;
758.7000;0.4062;0.8265;
759.0000;0.4078;0.8289;
759.3000;0.4062;0.8289;
759.6000;0.4054;0.8289;
759.9000;0.4054;0.8265;
760.2000;0.4046;0.8241;
760.5000;0.4103;0.8336;
760.8000;0.4119;0.8525;
761.1000;0.4062;0.8289;
761.4000;0.4046;0.8312;
761.7000;0.4078;0.8336;
762.0000;0.4078;0.8383;
762.3000;0.4054;0.8289;
762.6000;0.4046;0.8241;
762.9000;0.4062;0.8217;
763.2000;0.4037;0.8146;
763.5000;0.4062;0.8217;
763.8000;0.4046;0.8146;
764.1000;0.4054;0.8146;
764.4000;0.4037;0.8099;
764.7000;0.4013;0.8052;
765.0000;0.4037;0.8099;
765.3000;0.4054;0.8146;
765.6000;0.4046;0.8217;
765.9000;0.4054;0.8265;
766.2000;0.4046;0.8217;
766.5000;0.4029;0.8170;
766.8000;0.4062;0.8289;
767.1000;0.3964;0.8052;
767.4000;0.4037;0.8289;
767.7000;0.4029;0.8146;
768.0000;0.4046;0.8170;
768.3000;0.4046;0.8123;
768.6000;0.4046;0.8052;
768.9000;0.4054;0.8146;
769.2000;0.4062;0.8217;
769.5000;0.4054;0.8312;
769.8000;0.4037;0.8217;
770.1000;0.4037;0.8241;
770.4000;0.4037;0.8099;
770.7000;0.4086;0.8289;
771.0000;0.4054;0.8265;
771.3000;0.4037;0.8265;
771.6000;0.3989;0.8146;
771.9000;0.4046;0.8265;
772.2000;0.4078;0.8383;
772.5000;0.4054;0.8312;
772.8000;0.4005;0.8146;
773.1000;0.4046;0.8217;
773.4000;0.4054;0.8241;
773.7000;0.4046;0.8241;
774.0000;0.4078;0.8217;
774.3000;0.4062;0.8170;
774.6000;0.3980;0.7933;
774.9000;0.4013;0.8075;
775.2000;0.4046;0.8170;
775.5000;0.4021;0.8146;
775.8000;0.4029;0.8241;
776.1000;0.4029;0.8241;
776.4000;0.4013;0.8170;
776.7000;0.4013;0.8099;
777.0000;0.4029;0.8099;
777.3000;0.4054;0.8170;
777.6000;0.4021;0.8004;
777.9000;0.4070;0.8123;
778.2000;0.4029;0.8146;
778.5000;0.4021;0.8146;
778.8000;0.4046;0.8265;
779.1000;0.4054;0.8194;
779.4000;0.4005;0.8075;
779.7000;0.3989;0.8028;
780.0000;0.4046;0.8217;
780.3000;0.4029;0.8052;
780.6000;0.4037;0.8075;
780.9000;0.4037;0.8099;
781.2000;0.4021;0.8028;
781.5000;0.4029;0.8028;
781.8000;0.4013;0.8075;
782.1000;0.4013;0.8146;
782.4000;0.4029;0.8217;
782.7000;0.4029;0.8146;
783.0000;0.4005;0.8170;
783.3000;0.4013;0.8241;
783.6000;0.4021;0.8170;
783.9000;0.4029;0.8194;
784.2000;0.4054;0.8194;
784.5000;0.4037;0.8170;
784.8000;0.4103;0.8431;
785.1000;0.4021;0.8241;
785.4000;0.3997;0.8194;
785.7000;0.4021;0.8194;
786.0000;0.4013;0.8194;
786.3000;0.4021;0.8170;
786.6000;0.4029;0.8265;
786.9000;0.4046;0.8289;
787.2000;0.3989;0.8170;
787.5000;0.4013;0.8217;
787.8000;0.4021;0.8170;
788.1000;0.4021;0.8075;
788.4000;0.4021;0.8099;
788.7000;0.3956;0.7910;
789.0000;0.4029;0.8099;
789.3000;0.4013;0.8028;
789.6000;0.4029;0.8075;
789.9000;0.4029;0.8075;
790.2000;0.4013;0.8052;
790.5000;0.4013;0.8099;
790.8000;0.4013;0.8194;
791.1000;0.4029;0.8312;
791.4000;0.4005;0.8312;
791.7000;0.3997;0.8194;
792.0000;0.4021;0.8241;
792.3000;0.3997;0.8289;
792.6000;0.4029;0.8265;
792.9000;0.3989;0.8265;
793.2000;0.4005;0.8241;
793.5000;0.4021;0.8217;
793.8000;0.4013;0.8170;
794.1000;0.4029;0.8194;
794.4000;0.4021;0.8146;
794.7000;0.4029;0.8241;
795.0000;0.4029;0.8217;
795.3000;0.4013;0.8194;
795.6000;0.3997;0.8028;
795.9000;0.4005;0.8028;
796.2000;0.4013;0.8075;
796.5000;0.3997;0.8123;
796.8000;0.4021;0.8123;
797.1000;0.4005;0.8075;
797.4000;0.3980;0.8004;
797.7000;0.4013;0.8099;
798.0000;0.4029;0.8146;
798.3000;0.3932;0.7957;
798.6000;0.4013;0.8099;
798.9000;0.4021;0.8146;
799.2000;0.4021;0.8146;
799.5000;0.3980;0.8217;
799.8000;0.4029;0.8336;
800.1000;0.4021;0.8289;
800.4000;0.3915;0.7933;
800.7000;0.4168;0.8549;
801.0000;0.4021;0.8099;
801.3000;0.4021;0.8075;
801.6000;0.4021;0.8146;
801.9000;0.4013;0.8170;
802.2000;0.3989;0.8146;
802.5000;0.4005;0.8146;
802.8000;0.4013;0.8123;
803.1000;0.4005;0.8075;
803.4000;0.3980;0.8146;
803.7000;0.4070;0.8360;
804.0000;0.3997;0.8265;
804.3000;0.4021;0.8312;
804.6000;0.4029;0.8407;
804.9000;0.3980;0.8170;
805.2000;0.4013;0.8312;
805.5000;0.4013;0.8407;
805.8000;0.4013;0.8360;
806.1000;0.3997;0.8289;
806.4000;0.4005;0.8241;
806.7000;0.3997;0.8217;
807.0000;0.3923;0.8004;
807.3000;0.3972;0.8146;
807.6000;0.3980;0.8146;
807.9000;0.3997;0.8099;
808.2000;0.3980;0.8052;
808.5000;0.3997;0.8004;
808.8000;0.4005;0.7981;
809.1000;0.4005;0.7981;
809.4000;0.4005;0.8028;
809.7000;0.4013;0.8052;
810.0000;0.3997;0.8004;
810.3000;0.4013;0.8075;
810.6000;0.3980;0.8028;
810.9000;0.3997;0.7981;
811.2000;0.4013;0.8194;
811.5000;0.3989;0.8170;
811.8000;0.3989;0.8241;
812.1000;0.3989;0.8241;
812.4000;0.3891;0.7910;
812.7000;0.3989;0.8170;
813.0000;0.3989;0.8123;
813.3000;0.3980;0.8123;
813.6000;0.4086;0.8383;
813.9000;0.4013;0.8146;
814.2000;0.4013;0.8123;
814.5000;0.4103;0.8312;
814.8000;0.4005;0.8004;
815.1000;0.3980;0.7886;
815.4000;0.3948;0.7886;
815.7000;0.3989;0.7910;
816.0000;0.3989;0.7981;
816.3000;0.3989;0.7981;
816.6000;0.3948;0.7862;
816.9000;0.4013;0.8075;
817.2000;0.3972;0.8052;
817.5000;0.3997;0.8146;
817.8000;0.4013;0.8170;
818.1000;0.3997;0.8170;
818.4000;0.3980;0.8217;
818.7000;0.3980;0.8217;
819.0000;0.3980;0.8241;
819.3000;0.3980;0.8170;
819.6000;0.3989;0.8028;
819.9000;0.3997;0.8028;
820.2000;0.3997;0.8146;
820.5000;0.3989;0.8146;
820.8000;0.3989;0.8217;
821.1000;0.3980;0.8217;
821.4000;0.3980;0.8217;
821.7000;0.3997;0.8170;
822.0000;0.3980;0.8146;
822.3000;0.4005;0.8099;
822.6000;0.3972;0.8099;
822.9000;0.3956;0.8146;
823.2000;0.4005;0.8312;
823.5000;0.3972;0.8194;
823.8000;0.3972;0.8265;
824.1000;0.3956;0.8336;
824.4000;0.4062;0.8620;
824.7000;0.3907;0.8217;
825.0000;0.3989;0.8407;
825.3000;0.3989;0.8383;
825.6000;0.3972;0.8360;
825.9000;0.3980;0.8407;
826.2000;0.3964;0.8336;
826.5000;0.3980;0.8289;
826.8000;0.4013;0.8336;
827.1000;0.3989;0.8289;
827.4000;0.3964;0.8241;
827.7000;0.3972;0.8265;
828.0000;0.3972;0.8265;
828.3000;0.3972;0.8217;
828.6000;0.3972;0.8146;
828.9000;0.3915;0.8052;
829.2000;0.3980;0.8123;
829.5000;0.3964;0.8170;
829.8000;0.3997;0.8217;
830.1000;0.4029;0.8312;
830.4000;0.3972;0.8265;
830.7000;0.3989;0.8289;
831.0000;0.3989;0.8289;
831.3000;0.3923;0.8146;
831.6000;0.3940;0.8217;
831.9000;0.3989;0.8241;
832.2000;0.3989;0.8194;
832.5000;0.4013;0.8241;
832.8000;0.3980;0.8146;
833.1000;0.3989;0.8289;
833.4000;0.3956;0.8336;
833.7000;0.3980;0.8454;
834.0000;0.3980;0.8454;
834.3000;0.3923;0.8312;
834.6000;0.3956;0.8312;
834.9000;0.3980;0.8312;
835.2000;0.3972;0.8312;
835.5000;0.3972;0.8289;
835.8000;0.3940;0.8028;
836.1000;0.3980;0.8123;
836.4000;0.3948;0.8170;
836.7000;0.3972;0.8217;
837.0000;0.3964;0.8217;
837.3000;0.3980;0.8241;
837.6000;0.4013;0.8383;
837.9000;0.3956;0.8289;
838.2000;0.3964;0.8289;
838.5000;0.3980;0.8265;
838.8000;0.3915;0.8099;
839.1000;0.3989;0.8289;
839.4000;0.3989;0.8312;
839.7000;0.3972;0.8241;
840.0000;0.3980;0.8265;
840.3000;0.3964;0.8360;
840.6000;0.4046;0.8549;
840.9000;0.3964;0.8431;
841.2000;0.3980;0.8431;
841.5000;0.3972;0.8454;
841.8000;0.3997;0.8407;
842.1000;0.3997;0.8407;
842.4000;0.4005;0.8312;
842.7000;0.3989;0.8146;
843.0000;0.3972;0.8123;
843.3000;0.3956;0.8004;
843.6000;0.3972;0.8075;
843.9000;0.3989;0.8099;
844.2000;0.3891;0.7791;
844.5000;0.3964;0.7886;
844.8000;0.3989;0.7981;
845.1000;0.3997;0.8052;
845.4000;0.3980;0.8075;
845.7000;0.3972;0.8052;
846.0000;0.3997;0.8004;
846.3000;0.3972;0.8052;
846.6000;0.3956;0.8099;
846.9000;0.3964;0.8146;
847.2000;0.3964;0.8123;
847.5000;0.3956;0.8170;
847.8000;0.3956;0.8217;
848.1000;0.3948;0.8217;
848.4000;0.4062;0.8573;
848.7000;0.3972;0.8407;
849.0000;0.4037;0.8644;
849.3000;0.3956;0.8336;
849.6000;0.3940;0.8360;
849.9000;0.3948;0.8360;
850.2000;0.3989;0.8454;
850.5000;0.4005;0.8454;
850.8000;0.3948;0.8312;
851.1000;0.3956;0.8289;
851.4000;0.3972;0.8383;
851.7000;0.3956;0.8289;
852.0000;0.3972;0.8289;
852.3000;0.3972;0.8289;
852.6000;0.3956;0.8265;
852.9000;0.3948;0.8241;
853.2000;0.3948;0.8241;
853.5000;0.3940;0.8241;
853.8000;0.3964;0.8194;
854.1000;0.3932;0.8194;
854.4000;0.3940;0.8241;
854.7000;0.3989;0.8336;
855.0000;0.3964;0.8265;
855.3000;0.3972;0.8312;
855.6000;0.3948;0.8383;
855.9000;0.3956;0.8336;
856.2000;0.3972;0.8336;
856.5000;0.3980;0.8336;
856.8000;0.3964;0.8241;
857.1000;0.3989;0.8336;
857.4000;0.3972;0.8407;
857.7000;0.3980;0.8383;
858.0000;0.3972;0.8360;
858.3000;0.3972;0.8265;
858.6000;0.3948;0.8312;
858.9000;0.3932;0.8289;
859.2000;0.3940;0.8360;
859.5000;0.3956;0.8312;
859.8000;0.3915;0.8265;
860.1000;0.3956;0.8407;
860.4000;0.3948;0.8289;
860.7000;0.3948;0.8289;
861.0000;0.3948;0.8336;
861.3000;0.3940;0.8265;
861.6000;0.3907;0.8146;
861.9000;0.3940;0.8099;
862.2000;0.3948;0.8028;
862.5000;0.3956;0.8052;
862.8000;0.3948;0.8099;
863.1000;0.3923;0.8075;
863.4000;0.3948;0.8194;
863.7000;0.3956;0.8241;
864.0000;0.3940;0.8289;
864.3000;0.3972;0.8312;
864.6000;0.3997;0.8312;
864.9000;0.3972;0.8336;
865.2000;0.3980;0.8431;
865.5000;0.3972;0.8312;
865.8000;0.4005;0.8312;
866.1000;0.3972;0.8170;
866.4000;0.3964;0.8194;
866.7000;0.3980;0.8194;
867.0000;0.3972;0.8217;
867.3000;0.3972;0.8241;
867.6000;0.3989;0.8312;
867.9000;0.3915;0.8123;
868.2000;0.3956;0.8170;
868.5000;0.3956;0.8099;
868.8000;0.3972;0.8170;
869.1000;0.3972;0.8123;
869.4000;0.3980;0.8194;
869.7000;0.3932;0.8123;
870.0000;0.3997;0.8265;
870.3000;0.3989;0.8241;
870.6000;0.3932;0.8123;
870.9000;0.3948;0.8194;
871.2000;0.3923;0.8170;
871.5000;0.4013;0.8312;
871.8000;0.3964;0.8146;
872.1000;0.3923;0.8052;
872.4000;0.3940;0.8123;
872.7000;0.3948;0.8099;
873.0000;0.3923;0.8099;
873.3000;0.3956;0.8146;
873.6000;0.3964;0.8241;
873.9000;0.3948;0.8217;
874.2000;0.3875;0.8004;
874.5000;0.3956;0.8170;
874.8000;0.3923;0.8170;
875.1000;0.3932;0.8289;
875.4000;0.3932;0.8217;
875.7000;0.3964;0.8194;
876.0000;0.3980;0.8289;
876.3000;0.3948;0.8265;
876.6000;0.3972;0.8312;
876.9000;0.3956;0.8217;
877.2000;0.3948;0.8194;
877.5000;0.3948;0.8099;
877.8000;0.3956;0.8075;
878.1000;0.3956;0.8052;
878.4000;0.3972;0.8123;
878.7000;0.3972;0.8170;
879.0000;0.3956;0.8052;
879.3000;0.3972;0.8099;
879.6000;0.3956;0.8146;
879.9000;0.3940;0.8099;
880.2000;0.3891;0.7886;
880.5000;0.3964;0.8099;
880.8000;0.3940;0.8099;
881.1000;0.3972;0.8194;
881.4000;0.3940;0.8194;
881.7000;0.3940;0.8146;
882.0000;0.4037;0.8360;
882.3000;0.3899;0.8028;
882.6000;0.3989;0.8454;
882.9000;0.3940;0.8407;
883.2000;0.3932;0.8383;
883.5000;0.3923;0.8431;
883.8000;0.3891;0.8289;
884.1000;0.3915;0.8336;
884.4000;0.3948;0.8383;
884.7000;0.3932;0.8383;
885.0000;0.3956;0.8360;
885.3000;0.3940;0.8265;
885.6000;0.3915;0.8170;
885.9000;0.3948;0.8123;
886.2000;0.3948;0.8099;
886.5000;0.4005;0.8289;
886.8000;0.3956;0.8028;
887.1000;0.3964;0.8075;
887.4000;0.4005;0.8146;
887.7000;0.3883;0.7910;
888.0000;0.3923;0.8028;
888.3000;0.3923;0.8028;
888.6000;0.3956;0.8052;
888.9000;0.3956;0.8004;
889.2000;0.3940;0.8028;
889.5000;0.3940;0.8075;
889.8000;0.3915;0.8099;
890.1000;0.3923;0.8075;
890.4000;0.3932;0.8146;
890.7000;0.3948;0.8170;
891.0000;0.3964;0.8099;
891.3000;0.3956;0.8099;
891.6000;0.3915;0.8004;
891.9000;0.3980;0.8146;
892.2000;0.3907;0.8052;
892.5000;0.4013;0.8360;
892.8000;0.3940;0.8170;
893.1000;0.3932;0.8123;
893.4000;0.3948;0.8146;
893.7000;0.3850;0.7862;
894.0000;0.3964;0.8217;
894.3000;0.3964;0.8265;
894.6000;0.3907;0.8099;
894.9000;0.3923;0.8170;
895.2000;0.3907;0.8170;
895.5000;0.3891;0.8170;
895.8000;0.3932;0.8336;
896.1000;0.3907;0.8265;
896.4000;0.3940;0.8265;
896.7000;0.3940;0.8265;
897.0000;0.3940;0.8217;
897.3000;0.3940;0.8217;
897.6000;0.3915;0.8241;
897.9000;0.3907;0.8217;
898.2000;0.3923;0.8289;
898.5000;0.3923;0.8289;
898.8000;0.3956;0.8431;
899.1000;0.3940;0.8383;
899.4000;0.3923;0.8383;
899.7000;0.3923;0.8383;
900.0000;0.3948;0.8431;
900.3000;0.3940;0.8265;
900.6000;0.3964;0.8217;
900.9000;0.3948;0.8217;
901.2000;0.3964;0.8170;
901.5000;0.3907;0.8028;
901.8000;0.3948;0.8123;
902.1000;0.3948;0.8241;
902.4000;0.3956;0.8123;
902.7000;0.3940;0.8217;
903.0000;0.3899;0.8170;
903.3000;0.3940;0.8289;
903.6000;0.3964;0.8217;
903.9000;0.3891;0.8052;
904.2000;0.3932;0.8170;
904.5000;0.3948;0.8241;
904.8000;0.3932;0.8146;
905.1000;0.3940;0.8099;
905.4000;0.3932;0.8028;
905.7000;0.3948;0.8052;
906.0000;0.3923;0.8028;
906.3000;0.3932;0.7981;
906.6000;0.3932;0.7957;
906.9000;0.3932;0.8028;
907.2000;0.3989;0.8170;
907.5000;0.3915;0.8004;
907.8000;0.3932;0.8075;
908.1000;0.3915;0.8123;
908.4000;0.3972;0.8289;
908.7000;0.3940;0.8217;
909.0000;0.3948;0.8289;
909.3000;0.3923;0.8194;
909.6000;0.3997;0.8383;
909.9000;0.3915;0.8123;
910.2000;0.3948;0.8170;
910.5000;0.3915;0.8123;
910.8000;0.3915;0.8099;
911.1000;0.3940;0.8099;
911.4000;0.3915;0.8052;
911.7000;0.3940;0.8265;
912.0000;0.3915;0.8194;
912.3000;0.3923;0.8241;
912.6000;0.3940;0.8241;
912.9000;0.3956;0.8360;
913.2000;0.3948;0.8312;
913.5000;0.3875;0.8146;
913.8000;0.3932;0.8265;
914.1000;0.3923;0.8241;
914.4000;0.3932;0.8217;
914.7000;0.3932;0.8194;
915.0000;0.3948;0.8265;
915.3000;0.3923;0.8123;
915.6000;0.3940;0.8075;
915.9000;0.3940;0.8146;
916.2000;0.3956;0.8241;
916.5000;0.3923;0.8075;
916.8000;0.3923;0.8052;
917.1000;0.3940;0.8146;
917.4000;0.3964;0.8170;
917.7000;0.3867;0.8004;
918.0000;0.3915;0.8194;
918.3000;0.3907;0.8241;
918.6000;0.3891;0.8194;
918.9000;0.3923;0.8336;
919.2000;0.3923;0.8289;
919.5000;0.3923;0.8265;
919.8000;0.3907;0.8170;
920.1000;0.3915;0.8123;
920.4000;0.3956;0.8194;
920.7000;0.3883;0.8075;
921.0000;0.3907;0.8146;
921.3000;0.3923;0.8289;
921.6000;0.3907;0.8265;
921.9000;0.3907;0.8194;
922.2000;0.3907;0.8217;
922.5000;0.3923;0.8194;
922.8000;0.3899;0.8146;
923.1000;0.3923;0.8170;
923.4000;0.3989;0.8360;
923.7000;0.3923;0.8241;
924.0000;0.3923;0.8241;
924.3000;0.3932;0.8265;
924.6000;0.3940;0.8241;
924.9000;0.3915;0.8075;
925.2000;0.3923;0.8123;
925.5000;0.3915;0.7981;
925.8000;0.3923;0.8004;
926.1000;0.3932;0.7981;
926.4000;0.3907;0.7957;
926.7000;0.3940;0.8170;
927.0000;0.3932;0.8241;
927.3000;0.3875;0.8123;
927.6000;0.3899;0.8217;
927.9000;0.3932;0.8289;
928.2000;0.3932;0.8289;
928.5000;0.3980;0.8407;
928.8000;0.3891;0.8170;
929.1000;0.3915;0.8289;
929.4000;0.3923;0.8289;
929.7000;0.3940;0.8241;
930.0000;0.3915;0.8194;
930.3000;0.3915;0.8217;
930.6000;0.3907;0.8123;
930.9000;0.3899;0.8075;
931.2000;0.3891;0.8004;
931.5000;0.3940;0.8123;
931.8000;0.3932;0.8146;
932.1000;0.3907;0.8052;
932.4000;0.3932;0.8146;
932.7000;0.3907;0.8123;
933.0000;0.3923;0.8075;
933.3000;0.3923;0.8170;
933.6000;0.3883;0.8028;
933.9000;0.3907;0.8241;
934.2000;0.3891;0.8289;
934.5000;0.3915;0.8312;
934.8000;0.3907;0.8241;
935.1000;0.3907;0.8170;
935.4000;0.3932;0.8312;
935.7000;0.3850;0.8194;
936.0000;0.3915;0.8289;
936.3000;0.3899;0.8336;
936.6000;0.3915;0.8383;
936.9000;0.3907;0.8336;
937.2000;0.3932;0.8407;
937.5000;0.3915;0.8407;
937.8000;0.3915;0.8360;
938.1000;0.3923;0.8478;
938.4000;0.3915;0.8407;
938.7000;0.3915;0.8336;
939.0000;0.3940;0.8336;
939.3000;0.3940;0.8360;
939.6000;0.3923;0.8265;
939.9000;0.3956;0.8360;
940.2000;0.3964;0.8431;
940.5000;0.3923;0.8265;
940.8000;0.3940;0.8312;
941.1000;0.3932;0.8217;
941.4000;0.3907;0.8170;
941.7000;0.3923;0.8194;
942.0000;0.3923;0.8241;
942.3000;0.3907;0.8289;
942.6000;0.3907;0.8217;
942.9000;0.3915;0.8217;
943.2000;0.3891;0.8194;
943.5000;0.3940;0.8265;
943.8000;0.3923;0.8289;
944.1000;0.3915;0.8312;
944.4000;0.3915;0.8383;
944.7000;0.3932;0.8336;
945.0000;0.3907;0.8241;
945.3000;0.3899;0.8194;
945.6000;0.3907;0.8099;
945.9000;0.3923;0.8194;
946.2000;0.3899;0.8217;
946.5000;0.3923;0.8265;
946.8000;0.3932;0.8289;
947.1000;0.3907;0.8265;
947.4000;0.3891;0.8170;
947.7000;0.3923;0.8241;
948.0000;0.3915;0.8289;
948.3000;0.3940;0.8265;
948.6000;0.3940;0.8217;
948.9000;0.3923;0.8265;
949.2000;0.3907;0.8265;
949.5000;0.3948;0.8289;
949.8000;0.3923;0.8217;
950.1000;0.3940;0.8194;
950.4000;0.3932;0.8217;
950.7000;0.3899;0.8170;
951.0000;0.3875;0.8194;
951.3000;0.3883;0.8265;
951.6000;0.3923;0.8265;
951.9000;0.3907;0.8289;
952.2000;0.3923;0.8407;
952.5000;0.3915;0.8383;
952.8000;0.3964;0.8431;
953.1000;0.3899;0.8241;
953.4000;0.3932;0.8383;
953.7000;0.3907;0.8407;
954.0000;0.3899;0.8383;
954.3000;0.3940;0.8407;
954.6000;0.3899;0.8336;
954.9000;0.3932;0.8383;
955.2000;0.3907;0.8217;
955.5000;0.3907;0.8289;
955.8000;0.3915;0.8312;
956.1000;0.3915;0.8360;
956.4000;0.3907;0.8360;
956.7000;0.3899;0.8336;
957.0000;0.3907;0.8289;
957.3000;0.3899;0.8336;
957.6000;0.3915;0.8312;
957.9000;0.3907;0.8265;
958.2000;0.3899;0.8265;
958.5000;0.3915;0.8265;
958.8000;0.3915;0.8289;
959.1000;0.3915;0.8312;
959.4000;0.3899;0.8336;
959.7000;0.3915;0.8383;
960.0000;0.3932;0.8312;
960.3000;0.3907;0.8241;
960.6000;0.3915;0.8265;
960.9000;0.3907;0.8265;
961.2000;0.3948;0.8336;
961.5000;0.3907;0.8336;
961.8000;0.3891;0.8360;
962.1000;0.3915;0.8383;
962.4000;0.3923;0.8383;
962.7000;0.4013;0.8596;
963.0000;0.3907;0.8217;
963.3000;0.3907;0.8123;
963.6000;0.3940;0.8146;
963.9000;0.3915;0.8123;
964.2000;0.3923;0.8241;
964.5000;0.3907;0.8241;
964.8000;0.3826;0.8028;
965.1000;0.3915;0.8194;
965.4000;0.3923;0.8265;
965.7000;0.3932;0.8265;
966.0000;0.3964;0.8454;
966.3000;0.3899;0.8265;
966.6000;0.3891;0.8265;
966.9000;0.3915;0.8360;
967.2000;0.3899;0.8360;
967.5000;0.3834;0.8075;
967.8000;0.3867;0.8099;
968.1000;0.3956;0.8383;
968.4000;0.3891;0.8289;
968.7000;0.3891;0.8265;
969.0000;0.3867;0.8265;
969.3000;0.3899;0.8336;
969.6000;0.3907;0.8407;
969.9000;0.3915;0.8383;
970.2000;0.3907;0.8360;
970.5000;0.3899;0.8265;
970.8000;0.3915;0.8241;
971.1000;0.3915;0.8217;
971.4000;0.3923;0.8146;
971.7000;0.3883;0.8075;
972.0000;0.3923;0.8170;
972.3000;0.3907;0.8123;
972.6000;0.3915;0.8123;
972.9000;0.3850;0.8146;
973.2000;0.3907;0.8312;
973.5000;0.3899;0.8336;
973.8000;0.3923;0.8312;
974.1000;0.3948;0.8360;
974.4000;0.3923;0.8265;
974.7000;0.3907;0.8146;
975.0000;0.3826;0.7981;
975.3000;0.3907;0.8170;
975.6000;0.3923;0.8170;
975.9000;0.3891;0.8099;
976.2000;0.3907;0.8123;
976.5000;0.3972;0.8336;
976.8000;0.3940;0.8336;
977.1000;0.3883;0.8194;
977.4000;0.3907;0.8312;
977.7000;0.3867;0.8123;
978.0000;0.3907;0.8170;
978.3000;0.3891;0.8099;
978.6000;0.3899;0.8217;
978.9000;0.3891;0.8123;
979.2000;0.3907;0.8123;
979.5000;0.3915;0.8099;
979.8000;0.3858;0.8004;
980.1000;0.3907;0.8123;
980.4000;0.3899;0.8123;
980.7000;0.3899;0.8217;
981.0000;0.3932;0.8312;
981.3000;0.3915;0.8241;
981.6000;0.3899;0.8099;
981.9000;0.3907;0.8099;
982.2000;0.3915;0.8146;
982.5000;0.3907;0.8170;
982.8000;0.3899;0.8075;
983.1000;0.3899;0.8099;
983.4000;0.3899;0.8099;
983.7000;0.3923;0.8146;
984.0000;0.3907;0.8075;
984.3000;0.3932;0.8099;
984.6000;0.3883;0.8075;
984.9000;0.3891;0.8170;
985.2000;0.3923;0.8217;
985.5000;0.3858;0.8028;
985.8000;0.3907;0.8170;
986.1000;0.3915;0.8146;
986.4000;0.3907;0.8170;
986.7000;0.3842;0.8075;
987.0000;0.3899;0.8289;
987.3000;0.3907;0.8336;
987.6000;0.3875;0.8194;
987.9000;0.3923;0.8241;
988.2000;0.3923;0.8265;
988.5000;0.3777;0.8004;
988.8000;0.3883;0.8170;
989.1000;0.3875;0.8241;
989.4000;0.3923;0.8312;
989.7000;0.3883;0.8170;
990.0000;0.3801;0.7981;
990.3000;0.3980;0.8383;
990.6000;0.3883;0.8217;
990.9000;0.3907;0.8265;
991.2000;0.3883;0.8170;
991.5000;0.3842;0.8099;
991.8000;0.3940;0.8360;
992.1000;0.3818;0.8028;
992.4000;0.3915;0.8265;
992.7000;0.3907;0.8170;
993.0000;0.3899;0.8289;
993.3000;0.3891;0.8289;
993.6000;0.3907;0.8360;
993.9000;0.3907;0.8383;
994.2000;0.3915;0.8502;
994.5000;0.3923;0.8502;
994.8000;0.3899;0.8360;
995.1000;0.3915;0.8454;
995.4000;0.3915;0.8431;
995.7000;0.3923;0.8360;
996.0000;0.3899;0.8265;
996.3000;0.3891;0.8289;
996.6000;0.3875;0.8217;
996.9000;0.3915;0.8289;
997.2000;0.3923;0.8336;
997.5000;0.3899;0.8170;
997.8000;0.3875;0.8123;
998.1000;0.3915;0.8146;
998.4000;0.3923;0.8194;
998.7000;0.3891;0.8217;
999.0000;0.3891;0.8241;
999.3000;0.3899;0.8265;
999.6000;0.3899;0.8241;
999.9000;0.3948;0.8217;
1000.2000;0.3899;0.8004;
1000.5000;0.3899;0.8052;
1000.8000;0.3907;0.8217;
1001.1000;0.3915;0.8241;
1001.4000;0.3891;0.8265;
1001.7000;0.3891;0.8241;
1002.0000;0.3923;0.8407;
1002.3000;0.3883;0.8360;
1002.6000;0.3850;0.8289;
1002.9000;0.3915;0.8360;
1003.2000;0.3883;0.8312;
1003.5000;0.3867;0.8289;
1003.8000;0.3932;0.8360;
1004.1000;0.3907;0.8217;
1004.4000;0.3907;0.8289;
1004.7000;0.3956;0.8407;
1005.0000;0.3899;0.8312;
1005.3000;0.3907;0.8360;
1005.6000;0.3915;0.8360;
1005.9000;0.3899;0.8289;
1006.2000;0.3907;0.8336;
1006.5000;0.3932;0.8431;
1006.8000;0.3891;0.8383;
1007.1000;0.3915;0.8407;
1007.4000;0.3923;0.8525;
1007.7000;0.3989;0.8715;
1008.0000;0.3883;0.8596;
1008.3000;0.3891;0.8573;
1008.6000;0.3891;0.8454;
1008.9000;0.3891;0.8454;
1009.2000;0.3940;0.8549;
1009.5000;0.3964;0.8573;
1009.8000;0.3964;0.8644;
1010.1000;0.3915;0.8478;
1010.4000;0.3899;0.8407;
1010.7000;0.3940;0.8502;
1011.0000;0.3899;0.8336;
1011.3000;0.3867;0.8336;
1011.6000;0.3915;0.8502;
1011.9000;0.3932;0.8525;
1012.2000;0.3867;0.8431;
1012.5000;0.3899;0.8525;
1012.8000;0.3891;0.8502;
1013.1000;0.3891;0.8431;
1013.4000;0.3875;0.8478;
1013.7000;0.3891;0.8478;
1014.0000;0.3858;0.8360;
1014.3000;0.3883;0.8312;
1014.6000;0.3907;0.8312;
1014.9000;0.3915;0.8265;
1015.2000;0.3891;0.8194;
1015.5000;0.3867;0.8194;
1015.8000;0.3907;0.8265;
1016.1000;0.3899;0.8194;
1016.4000;0.3875;0.8217;
1016.7000;0.3915;0.8312;
1017.0000;0.3883;0.8146;
1017.3000;0.3899;0.8146;
1017.6000;0.3923;0.8265;
1017.9000;0.3891;0.8170;
1018.2000;0.3915;0.8146;
1018.5000;0.3907;0.8194;
1018.8000;0.3915;0.8241;
1019.1000;0.3875;0.8170;
1019.4000;0.3915;0.8170;
1019.7000;0.3899;0.8123;
1020.0000;0.3891;0.8052;
1020.3000;0.3875;0.8075;
1020.6000;0.3915;0.8170;
1020.9000;0.3899;0.8241;
1021.2000;0.3915;0.8360;
1021.5000;0.3923;0.8383;
1021.8000;0.3907;0.8360;
1022.1000;0.3915;0.8360;
1022.4000;0.3875;0.8146;
1022.7000;0.3923;0.8265;
1023.0000;0.3899;0.8265;
1023.3000;0.3899;0.8265;
1023.6000;0.3915;0.8217;
1023.9000;0.3915;0.8241;
1024.2000;0.3899;0.8312;
1024.5000;0.3858;0.8217;
1024.8000;0.3923;0.8360;
1025.1000;0.3915;0.8312;
1025.4000;0.3891;0.8360;
1025.7000;0.3932;0.8431;
1026.0000;0.3875;0.8360;
1026.3000;0.3891;0.8431;
1026.6000;0.3899;0.8336;
1026.9000;0.3891;0.8241;
1027.2000;0.3907;0.8289;
1027.5000;0.3842;0.8265;
1027.8000;0.3883;0.8289;
1028.1000;0.3915;0.8289;
1028.4000;0.3883;0.8123;
1028.7000;0.3972;0.8265;
1029.0000;0.3932;0.8146;
1029.3000;0.3899;0.8146;
1029.6000;0.3907;0.8194;
1029.9000;0.3923;0.8383;
1030.2000;0.3899;0.8336;
1030.5000;0.3891;0.8312;
1030.8000;0.3891;0.8407;
1031.1000;0.3907;0.8431;
1031.4000;0.3891;0.8454;
1031.7000;0.3923;0.8502;
1032.0000;0.3899;0.8454;
1032.3000;0.3907;0.8407;
1032.6000;0.3923;0.8360;
1032.9000;0.3899;0.8265;
1033.2000;0.3891;0.8241;
1033.5000;0.3907;0.8383;
1033.8000;0.3907;0.8383;
1034.1000;0.3899;0.8383;
1034.4000;0.3907;0.8383;
1034.7000;0.3899;0.8383;
1035.0000;0.3907;0.8336;
1035.3000;0.3899;0.8336;
1035.6000;0.3915;0.8312;
1035.9000;0.3883;0.8312;
1036.2000;0.3826;0.8146;
1036.5000;0.3923;0.8383;
1036.8000;0.3899;0.8360;
1037.1000;0.3875;0.8407;
1037.4000;0.3891;0.8525;
1037.7000;0.3875;0.8454;
1038.0000;0.3899;0.8502;
1038.3000;0.3883;0.8478;
1038.6000;0.3867;0.8502;
1038.9000;0.3891;0.8454;
1039.2000;0.3923;0.8549;
1039.5000;0.3899;0.8525;
1039.8000;0.3891;0.8525;
1040.1000;0.3891;0.8502;
1040.4000;0.3907;0.8620;
1040.7000;0.3883;0.8596;
1041.0000;0.3907;0.8549;
1041.3000;0.3923;0.8596;
1041.6000;0.3932;0.8596;
1041.9000;0.3915;0.8454;
1042.2000;0.3915;0.8454;
1042.5000;0.3891;0.8525;
1042.8000;0.3915;0.8549;
1043.1000;0.3899;0.8478;
1043.4000;0.3891;0.8502;
1043.7000;0.3899;0.8407;
1044.0000;0.3883;0.8502;
1044.3000;0.3907;0.8502;
1044.6000;0.3883;0.8431;
1044.9000;0.3907;0.8478;
1045.2000;0.3883;0.8549;
1045.5000;0.3875;0.8596;
1045.8000;0.3932;0.8667;
1046.1000;0.3899;0.8573;
1046.4000;0.3842;0.8454;
1046.7000;0.3891;0.8644;
1047.0000;0.3907;0.8596;
1047.3000;0.3956;0.8644;
1047.6000;0.3899;0.8549;
1047.9000;0.3891;0.8478;
1048.2000;0.3883;0.8502;
1048.5000;0.3850;0.8431;
1048.8000;0.3899;0.8478;
1049.1000;0.3891;0.8289;
1049.4000;0.3940;0.8407;
1049.7000;0.3899;0.8454;
1050.0000;0.3875;0.8383;
1050.3000;0.3915;0.8407;
1050.6000;0.3785;0.8052;
1050.9000;0.3883;0.8454;
1051.2000;0.3899;0.8525;
1051.5000;0.3891;0.8431;
1051.8000;0.3883;0.8360;
1052.1000;0.3891;0.8360;
1052.4000;0.3891;0.8407;
1052.7000;0.3891;0.8431;
1053.0000;0.3891;0.8336;
1053.3000;0.3923;0.8407;
1053.6000;0.3891;0.8360;
1053.9000;0.3899;0.8360;
1054.2000;0.3899;0.8407;
1054.5000;0.3899;0.8360;
1054.8000;0.3883;0.8360;
1055.1000;0.3891;0.8360;
1055.4000;0.3899;0.8431;
1055.7000;0.3883;0.8312;
1056.0000;0.3875;0.8289;
1056.3000;0.3891;0.8312;
1056.6000;0.3867;0.8217;
1056.9000;0.3907;0.8241;
1057.2000;0.3907;0.8241;
1057.5000;0.3907;0.8217;
1057.8000;0.3891;0.8146;
1058.1000;0.3899;0.8217;
1058.4000;0.3899;0.8170;
1058.7000;0.3891;0.8170;
1059.0000;0.3891;0.8170;
1059.3000;0.3899;0.8241;
1059.6000;0.3891;0.8241;
1059.9000;0.3883;0.8194;
1060.2000;0.3883;0.8217;
1060.5000;0.3875;0.8217;
1060.8000;0.3891;0.8194;
1061.1000;0.3875;0.8123;
1061.4000;0.3891;0.8146;
1061.7000;0.3883;0.8099;
1062.0000;0.3899;0.8123;
1062.3000;0.3899;0.8241;
1062.6000;0.3883;0.8312;
1062.9000;0.3907;0.8360;
1063.2000;0.3875;0.8312;
1063.5000;0.3867;0.8265;
1063.8000;0.3899;0.8312;
1064.1000;0.3883;0.8312;
1064.4000;0.3899;0.8312;
1064.7000;0.3883;0.8217;
1065.0000;0.3883;0.8217;
1065.3000;0.3858;0.8194;
1065.6000;0.3875;0.8217;
1065.9000;0.3915;0.8265;
1066.2000;0.3907;0.8194;
1066.5000;0.3940;0.8265;
1066.8000;0.3883;0.8241;
1067.1000;0.3899;0.8360;
1067.4000;0.3907;0.8360;
1067.7000;0.3899;0.8265;
1068.0000;0.3899;0.8241;
1068.3000;0.3899;0.8383;
1068.6000;0.3915;0.8454;
1068.9000;0.3899;0.8336;
1069.2000;0.3875;0.8265;
1069.5000;0.4037;0.8644;
1069.8000;0.3980;0.8407;
1070.1000;0.3891;0.8194;
1070.4000;0.3850;0.8028;
1070.7000;0.3883;0.8146;
1071.0000;0.3891;0.8099;
1071.3000;0.3875;0.8028;
1071.6000;0.3875;0.8099;
1071.9000;0.3883;0.8217;
1072.2000;0.3891;0.8265;
1072.5000;0.3956;0.8431;
1072.8000;0.3875;0.8289;
1073.1000;0.3891;0.8289;
1073.4000;0.3883;0.8336;
1073.7000;0.3883;0.8360;
1074.0000;0.3899;0.8478;
1074.3000;0.3875;0.8407;
1074.6000;0.3875;0.8360;
1074.9000;0.3891;0.8407;
1075.2000;0.3875;0.8312;
1075.5000;0.3891;0.8289;
1075.8000;0.3858;0.8265;
1076.1000;0.3875;0.8336;
1076.4000;0.3850;0.8241;
1076.7000;0.3875;0.8265;
1077.0000;0.3826;0.8146;
1077.3000;0.3899;0.8336;
1077.6000;0.3891;0.8241;
1077.9000;0.3891;0.8194;
1078.2000;0.3907;0.8265;
1078.5000;0.3891;0.8217;
1078.8000;0.3980;0.8336;
1079.1000;0.3899;0.8265;
1079.4000;0.3891;0.8265;
1079.7000;0.3907;0.8289;
1080.0000;0.3875;0.8194;
1080.3000;0.3867;0.8123;
1080.6000;0.3891;0.8265;
1080.9000;0.3867;0.8146;
1081.2000;0.3891;0.8265;
1081.5000;0.3891;0.8289;
1081.8000;0.3875;0.8241;
1082.1000;0.3899;0.8289;
1082.4000;0.3899;0.8336;
1082.7000;0.3883;0.8241;
1083.0000;0.3883;0.8289;
1083.3000;0.3883;0.8289;
1083.6000;0.3891;0.8336;
1083.9000;0.3915;0.8454;
1084.2000;0.3842;0.8312;
1084.5000;0.3850;0.8265;
1084.8000;0.3915;0.8383;
1085.1000;0.3891;0.8312;
1085.4000;0.3891;0.8194;
1085.7000;0.3875;0.8099;
1086.0000;0.3891;0.8241;
1086.3000;0.3891;0.8194;
1086.6000;0.3907;0.8217;
1086.9000;0.3907;0.8217;
1087.2000;0.3899;0.8146;
1087.5000;0.3907;0.8146;
1087.8000;0.3875;0.8146;
1088.1000;0.3899;0.8265;
1088.4000;0.3891;0.8241;
1088.7000;0.3907;0.8360;
1089.0000;0.3883;0.8312;
1089.3000;0.3891;0.8431;
1089.6000;0.3793;0.8170;
1089.9000;0.3810;0.8289;
1090.2000;0.3891;0.8407;
1090.5000;0.3915;0.8407;
1090.8000;0.3940;0.8454;
1091.1000;0.3997;0.8596;
1091.4000;0.3867;0.8241;
1091.7000;0.3842;0.8146;
1092.0000;0.3907;0.8265;
1092.3000;0.3956;0.8454;
1092.6000;0.3899;0.8336;
1092.9000;0.3899;0.8360;
1093.2000;0.3891;0.8336;
1093.5000;0.3883;0.8265;
1093.8000;0.3850;0.8265;
1094.1000;0.3899;0.8336;
1094.4000;0.3948;0.8431;
1094.7000;0.3891;0.8383;
1095.0000;0.3858;0.8383;
1095.3000;0.3883;0.8454;
1095.6000;0.3858;0.8360;
1095.9000;0.3883;0.8478;
1096.2000;0.3883;0.8478;
1096.5000;0.3899;0.8525;
1096.8000;0.3907;0.8478;
1097.1000;0.3899;0.8454;
1097.4000;0.3883;0.8454;
1097.7000;0.3842;0.8336;
1098.0000;0.3899;0.8502;
1098.3000;0.3891;0.8336;
1098.6000;0.3907;0.8407;
1098.9000;0.3891;0.8478;
1099.2000;0.3899;0.8407;
1099.5000;0.3891;0.8360;
1099.8000;0.3875;0.8265;
1100.1000;0.3940;0.8407;
1100.4000;0.3875;0.8312;
1100.7000;0.3907;0.8336;
1101.0000;0.3891;0.8265;
1101.3000;0.3883;0.8312;
1101.6000;0.3923;0.8360;
1101.9000;0.3940;0.8312;
1102.2000;0.3867;0.8217;
1102.5000;0.3891;0.8289;
1102.8000;0.3964;0.8502;
1103.1000;0.3883;0.8241;
1103.4000;0.3891;0.8265;
1103.7000;0.3907;0.8241;
1104.0000;0.3858;0.8194;
1104.3000;0.3948;0.8454;
1104.6000;0.3883;0.8194;
1104.9000;0.3883;0.8099;
1105.2000;0.3875;0.8052;
1105.5000;0.3883;0.8099;
1105.8000;0.3810;0.7957;
1106.1000;0.3867;0.8052;
1106.4000;0.3883;0.8099;
1106.7000;0.3891;0.8052;
1107.0000;0.3867;0.8052;
1107.3000;0.3875;0.7981;
1107.6000;0.3891;0.8075;
1107.9000;0.3883;0.8028;
1108.2000;0.3891;0.7957;
1108.5000;0.3883;0.7886;
1108.8000;0.3883;0.7862;
1109.1000;0.3858;0.7886;
1109.4000;0.3907;0.8004;
1109.7000;0.3899;0.8028;
1110.0000;0.3923;0.8217;
1110.3000;0.3891;0.8170;
1110.6000;0.3883;0.8217;
1110.9000;0.3883;0.8289;
1111.2000;0.3875;0.8312;
1111.5000;0.3883;0.8123;
1111.8000;0.3883;0.8075;
1112.1000;0.3907;0.8170;
1112.4000;0.3867;0.8194;
1112.7000;0.3850;0.8217;
1113.0000;0.3883;0.8312;
1113.3000;0.3907;0.8525;
1113.6000;0.3891;0.8549;
1113.9000;0.3899;0.8596;
1114.2000;0.3907;0.8596;
1114.5000;0.3899;0.8573;
1114.8000;0.3883;0.8573;
1115.1000;0.3875;0.8525;
1115.4000;0.3777;0.8241;
1115.7000;0.3899;0.8383;
1116.0000;0.3875;0.8289;
1116.3000;0.3883;0.8312;
1116.6000;0.3891;0.8336;
1116.9000;0.3883;0.8194;
1117.2000;0.3891;0.8217;
1117.5000;0.3810;0.8123;
1117.8000;0.3883;0.8241;
1118.1000;0.3891;0.8194;
1118.4000;0.3891;0.8265;
1118.7000;0.3818;0.8075;
1119.0000;0.3891;0.8289;
1119.3000;0.3883;0.8217;
1119.6000;0.3899;0.8383;
1119.9000;0.3899;0.8383;
1120.2000;0.3891;0.8336;
1120.5000;0.3899;0.8454;
1120.8000;0.3940;0.8644;
1121.1000;0.3883;0.8454;
1121.4000;0.3932;0.8549;
1121.7000;0.3875;0.8360;
1122.0000;0.3883;0.8383;
1122.3000;0.3923;0.8383;
1122.6000;0.3899;0.8289;
1122.9000;0.3891;0.8289;
1123.2000;0.3899;0.8336;
1123.5000;0.3948;0.8549;
1123.8000;0.3883;0.8502;
1124.1000;0.3891;0.8478;
1124.4000;0.3883;0.8525;
1124.7000;0.3907;0.8502;
1125.0000;0.3899;0.8454;
1125.3000;0.3891;0.8431;
1125.6000;0.3875;0.8360;
1125.9000;0.3899;0.8383;
1126.2000;0.3883;0.8431;
1126.5000;0.3883;0.8431;
1126.8000;0.3858;0.8383;
1127.1000;0.3867;0.8454;
1127.4000;0.3915;0.8502;
1127.7000;0.3867;0.8383;
1128.0000;0.3899;0.8454;
1128.3000;0.3899;0.8336;
1128.6000;0.3891;0.8289;
1128.9000;0.3867;0.8265;
1129.2000;0.3891;0.8289;
1129.5000;0.3875;0.8265;
1129.8000;0.3867;0.8336;
1130.1000;0.3883;0.8383;
1130.4000;0.3875;0.8336;
1130.7000;0.3891;0.8407;
1131.0000;0.3891;0.8383;
1131.3000;0.3923;0.8383;
1131.6000;0.3875;0.8312;
1131.9000;0.3883;0.8407;
1132.2000;0.3867;0.8312;
1132.5000;0.3891;0.8360;
1132.8000;0.3915;0.8407;
1133.1000;0.3867;0.8312;
1133.4000;0.3875;0.8360;
1133.7000;0.3875;0.8383;
1134.0000;0.3883;0.8454;
1134.3000;0.3891;0.8454;
1134.6000;0.3907;0.8336;
1134.9000;0.3891;0.8383;
1135.2000;0.3907;0.8549;
1135.5000;0.3875;0.8596;
1135.8000;0.3891;0.8644;
1136.1000;0.3891;0.8620;
1136.4000;0.3883;0.8596;
1136.7000;0.3875;0.8525;
1137.0000;0.3875;0.8478;
1137.3000;0.3891;0.8454;
1137.6000;0.3875;0.8454;
1137.9000;0.3834;0.8265;
1138.2000;0.3891;0.8407;
1138.5000;0.3964;0.8620;
1138.8000;0.3891;0.8383;
1139.1000;0.3907;0.8360;
1139.4000;0.3875;0.8336;
1139.7000;0.3907;0.8407;
1140.0000;0.3867;0.8336;
1140.3000;0.3932;0.8549;
1140.6000;0.3858;0.8383;
1140.9000;0.3899;0.8454;
1141.2000;0.3915;0.8407;
1141.5000;0.3736;0.8099;
1141.8000;0.3867;0.8431;
1142.1000;0.3858;0.8312;
1142.4000;0.3915;0.8383;
1142.7000;0.3907;0.8360;
1143.0000;0.3867;0.8265;
1143.3000;0.3842;0.8241;
1143.6000;0.3842;0.8241;
1143.9000;0.3875;0.8336;
1144.2000;0.3883;0.8407;
1144.5000;0.3915;0.8502;
1144.8000;0.3801;0.8265;
1145.1000;0.3875;0.8525;
1145.4000;0.3875;0.8525;
1145.7000;0.3850;0.8383;
1146.0000;0.3875;0.8265;
1146.3000;0.3883;0.8241;
1146.6000;0.3875;0.8265;
1146.9000;0.3867;0.8217;
1147.2000;0.3867;0.8265;
1147.5000;0.3867;0.8312;
1147.8000;0.3858;0.8194;
1148.1000;0.3883;0.8146;
1148.4000;0.3883;0.8217;
1148.7000;0.3891;0.8265;
1149.0000;0.3891;0.8170;
1149.3000;0.3875;0.8099;
1149.6000;0.3883;0.8075;
1149.9000;0.3875;0.8099;
1150.2000;0.3940;0.8336;
1150.5000;0.3899;0.8265;
1150.8000;0.3883;0.8289;
1151.1000;0.3891;0.8336;
1151.4000;0.3915;0.8360;
1151.7000;0.3899;0.8383;
1152.0000;0.3867;0.8336;
1152.3000;0.3875;0.8336;
1152.6000;0.3875;0.8312;
1152.9000;0.3891;0.8336;
1153.2000;0.3867;0.8383;
1153.5000;0.3883;0.8312;
1153.8000;0.3891;0.8454;
1154.1000;0.3875;0.8478;
1154.4000;0.3867;0.8431;
1154.7000;0.3867;0.8383;
1155.0000;0.3875;0.8407;
1155.3000;0.3883;0.8336;
1155.6000;0.3883;0.8265;
1155.9000;0.3867;0.8312;
1156.2000;0.3875;0.8312;
1156.5000;0.3834;0.8217;
1156.8000;0.3883;0.8265;
1157.1000;0.3875;0.8146;
1157.4000;0.3875;0.8052;
1157.7000;0.3867;0.8028;
1158.0000;0.3875;0.8146;
1158.3000;0.3875;0.8075;
1158.6000;0.3850;0.8052;
1158.9000;0.3883;0.8028;
1159.2000;0.3826;0.7791;
1159.5000;0.3940;0.8052;
1159.8000;0.3875;0.7910;
1160.1000;0.3883;0.7933;
1160.4000;0.3899;0.7981;
1160.7000;0.3858;0.7910;
1161.0000;0.3883;0.8099;
1161.3000;0.3858;0.8075;
1161.6000;0.3907;0.8146;
1161.9000;0.3875;0.7981;
1162.2000;0.3899;0.8123;
1162.5000;0.3891;0.8004;
1162.8000;0.3899;0.8052;
1163.1000;0.3883;0.8028;
1163.4000;0.3810;0.7910;
1163.7000;0.3850;0.8028;
1164.0000;0.3875;0.8170;
1164.3000;0.3875;0.8146;
1164.6000;0.3883;0.8123;
1164.9000;0.3867;0.8028;
1165.2000;0.3858;0.7910;
1165.5000;0.3883;0.7933;
1165.8000;0.3932;0.8099;
1166.1000;0.3883;0.8028;
1166.4000;0.3923;0.8289;
1166.7000;0.3867;0.8194;
1167.0000;0.3875;0.8194;
1167.3000;0.3883;0.8217;
1167.6000;0.3867;0.8194;
1167.9000;0.3867;0.8265;
1168.2000;0.3875;0.8217;
1168.5000;0.3810;0.8075;
1168.8000;0.3875;0.8194;
1169.1000;0.3875;0.8289;
1169.4000;0.3891;0.8454;
1169.7000;0.3875;0.8502;
1170.0000;0.3883;0.8502;
1170.3000;0.3858;0.8360;
1170.6000;0.3891;0.8478;
1170.9000;0.3875;0.8549;
1171.2000;0.3883;0.8525;
1171.5000;0.3875;0.8478;
1171.8000;0.3867;0.8431;
1172.1000;0.3883;0.8407;
1172.4000;0.3875;0.8289;
1172.7000;0.3875;0.8194;
1173.0000;0.3875;0.8123;
1173.3000;0.3867;0.8123;
1173.6000;0.3875;0.8146;
1173.9000;0.3883;0.8194;
1174.2000;0.3891;0.8146;
1174.5000;0.3907;0.8217;
1174.8000;0.3915;0.8360;
1175.1000;0.3875;0.8312;
1175.4000;0.3867;0.8217;
1175.7000;0.3899;0.8289;
1176.0000;0.3899;0.8146;
1176.3000;0.3883;0.8099;
1176.6000;0.3899;0.8123;
1176.9000;0.3867;0.8052;
1177.2000;0.3883;0.8075;
1177.5000;0.3867;0.8170;
1177.8000;0.3810;0.8004;
1178.1000;0.3858;0.8217;
1178.4000;0.3915;0.8336;
1178.7000;0.3858;0.8312;
1179.0000;0.3867;0.8265;
1179.3000;0.3883;0.8336;
1179.6000;0.3891;0.8336;
1179.9000;0.3883;0.8383;
1180.2000;0.3875;0.8383;
1180.5000;0.3883;0.8383;
1180.8000;0.3899;0.8478;
1181.1000;0.3875;0.8336;
1181.4000;0.3883;0.8289;
1181.7000;0.3842;0.8217;
1182.0000;0.3867;0.8312;
1182.3000;0.3867;0.8241;
1182.6000;0.3907;0.8265;
1182.9000;0.3940;0.8407;
1183.2000;0.3834;0.8146;
1183.5000;0.3858;0.8170;
1183.8000;0.3867;0.8099;
1184.1000;0.3858;0.8146;
1184.4000;0.3858;0.8099;
1184.7000;0.3875;0.8099;
1185.0000;0.3907;0.8217;
1185.3000;0.3875;0.8217;
1185.6000;0.3875;0.8194;
1185.9000;0.3883;0.8194;
1186.2000;0.3883;0.8217;
1186.5000;0.3867;0.8194;
1186.8000;0.3932;0.8312;
1187.1000;0.3891;0.8289;
1187.4000;0.3899;0.8217;
1187.7000;0.3883;0.8099;
1188.0000;0.3972;0.8265;
1188.3000;0.3875;0.7981;
1188.6000;0.3883;0.8004;
1188.9000;0.3867;0.8004;
1189.2000;0.3932;0.8075;
1189.5000;0.3867;0.7957;
1189.8000;0.3883;0.7933;
1190.1000;0.3858;0.7933;
1190.4000;0.3875;0.7933;
1190.7000;0.3867;0.8052;
1191.0000;0.3907;0.8194;
1191.3000;0.3899;0.8217;
1191.6000;0.3850;0.8146;
1191.9000;0.3883;0.8146;
1192.2000;0.3875;0.8146;
1192.5000;0.3891;0.8170;
1192.8000;0.3883;0.8170;
1193.1000;0.3891;0.8146;
1193.4000;0.3940;0.8289;
1193.7000;0.3793;0.8075;
1194.0000;0.3858;0.8265;
1194.3000;0.3891;0.8360;
1194.6000;0.3867;0.8383;
1194.9000;0.3867;0.8407;
1195.2000;0.3875;0.8502;
1195.5000;0.3801;0.8336;
1195.8000;0.3826;0.8336;
1196.1000;0.3875;0.8383;
1196.4000;0.3899;0.8431;
1196.7000;0.3875;0.8336;
1197.0000;0.3964;0.8502;
1197.3000;0.3883;0.8265;
1197.6000;0.3899;0.8289;
1197.9000;0.3883;0.8194;
1198.2000;0.3875;0.8170;
1198.5000;0.3883;0.8217;
1198.8000;0.3883;0.8265;
1199.1000;0.3883;0.8289;
1199.4000;0.3875;0.8312;
1199.7000;0.3867;0.8289;
1200.0000;0.3883;0.8360;
1200.3000;0.3883;0.8265;
1200.6000;0.3875;0.8241;
1200.9000;0.3883;0.8217;
1201.2000;0.3891;0.8289;
1201.5000;0.3923;0.8289;
1201.8000;0.3883;0.8265;
1202.1000;0.3883;0.8241;
1202.4000;0.3867;0.8146;
1202.7000;0.3842;0.8123;
1203.0000;0.3899;0.8217;
1203.3000;0.3842;0.8099;
1203.6000;0.3883;0.8194;
1203.9000;0.3883;0.8170;
1204.2000;0.3875;0.8099;
1204.5000;0.3867;0.8146;
1204.8000;0.3867;0.8146;
1205.1000;0.3858;0.8075;
1205.4000;0.3899;0.8265;
1205.7000;0.3915;0.8407;
1206.0000;0.3915;0.8407;
1206.3000;0.3875;0.8383;
1206.6000;0.3875;0.8431;
1206.9000;0.3883;0.8360;
1207.2000;0.3875;0.8289;
1207.5000;0.3826;0.8099;
1207.8000;0.3875;0.8099;
1208.1000;0.3867;0.8052;
1208.4000;0.3883;0.7981;
1208.7000;0.3899;0.8028;
1209.0000;0.3899;0.8123;
1209.3000;0.3891;0.8052;
1209.6000;0.3858;0.8004;
1209.9000;0.3907;0.8123;
1210.2000;0.3883;0.8099;
1210.5000;0.3875;0.8123;
1210.8000;0.3891;0.8170;
1211.1000;0.3875;0.8099;
1211.4000;0.3989;0.8383;
1211.7000;0.3793;0.7933;
1212.0000;0.3867;0.8194;
1212.3000;0.3867;0.8146;
1212.6000;0.3875;0.8170;
1212.9000;0.3891;0.8194;
1213.2000;0.3883;0.8217;
1213.5000;0.3989;0.8454;
1213.8000;0.3801;0.7910;
1214.1000;0.3883;0.8099;
1214.4000;0.3891;0.8004;
1214.7000;0.3850;0.7910;
1215.0000;0.3883;0.7981;
1215.3000;0.3875;0.7981;
1215.6000;0.3850;0.7933;
1215.9000;0.3891;0.8075;
1216.2000;0.3883;0.8052;
1216.5000;0.3867;0.8028;
1216.8000;0.3875;0.8123;
1217.1000;0.3793;0.7957;
1217.4000;0.3883;0.8146;
1217.7000;0.3891;0.8265;
1218.0000;0.3907;0.8312;
1218.3000;0.3883;0.8289;
1218.6000;0.3915;0.8312;
1218.9000;0.3883;0.8312;
1219.2000;0.3867;0.8194;
1219.5000;0.3883;0.8194;
1219.8000;0.4005;0.8360;
1220.1000;0.3875;0.8052;
1220.4000;0.3875;0.8241;
1220.7000;0.3867;0.8265;
1221.0000;0.3867;0.8217;
1221.3000;0.3875;0.8194;
1221.6000;0.3883;0.8241;
1221.9000;0.3891;0.8265;
1222.2000;0.3883;0.8289;
1222.5000;0.3875;0.8146;
1222.8000;0.3875;0.8217;
1223.1000;0.3867;0.8217;
1223.4000;0.3883;0.8265;
1223.7000;0.3818;0.8194;
1224.0000;0.3891;0.8383;
1224.3000;0.3875;0.8312;
1224.6000;0.3883;0.8360;
1224.9000;0.3891;0.8265;
1225.2000;0.3883;0.8241;
1225.5000;0.3875;0.8312;
1225.8000;0.3867;0.8312;
1226.1000;0.3867;0.8241;
1226.4000;0.3883;0.8289;
1226.7000;0.3867;0.8241;
1227.0000;0.3793;0.8075;
1227.3000;0.3850;0.8217;
1227.6000;0.3932;0.8407;
1227.9000;0.3883;0.8241;
1228.2000;0.3875;0.8289;
1228.5000;0.3948;0.8431;
1228.8000;0.3867;0.8312;
1229.1000;0.3867;0.8170;
1229.4000;0.3867;0.8123;
1229.7000;0.3801;0.8028;
1230.0000;0.3834;0.8004;
1230.3000;0.3867;0.8028;
1230.6000;0.3850;0.7981;
1230.9000;0.3915;0.8170;
1231.2000;0.3875;0.8146;
1231.5000;0.3875;0.8194;
1231.8000;0.3850;0.8052;
1232.1000;0.3891;0.8217;
1232.4000;0.3867;0.8170;
1232.7000;0.3867;0.8146;
1233.0000;0.3867;0.8146;
1233.3000;0.3834;0.8004;
1233.6000;0.3850;0.8052;
1233.9000;0.3867;0.8099;
1234.2000;0.3899;0.8146;
1234.5000;0.3867;0.8194;
1234.8000;0.3875;0.8241;
1235.1000;0.3875;0.8241;
1235.4000;0.3875;0.8241;
1235.7000;0.3907;0.8241;
1236.0000;0.3858;0.8099;
1236.3000;0.3850;0.8146;
1236.6000;0.3850;0.8146;
1236.9000;0.3875;0.8312;
1237.2000;0.3850;0.8194;
1237.5000;0.3883;0.8217;
1237.8000;0.3858;0.8146;
1238.1000;0.3891;0.8312;
1238.4000;0.3915;0.8383;
1238.7000;0.3875;0.8312;
1239.0000;0.3867;0.8312;
1239.3000;0.3842;0.8312;
1239.6000;0.3867;0.8360;
1239.9000;0.3867;0.8407;
1240.2000;0.3891;0.8502;
1240.5000;0.3875;0.8502;
1240.8000;0.3899;0.8454;
1241.1000;0.3883;0.8360;
1241.4000;0.3867;0.8360;
1241.7000;0.3850;0.8336;
1242.0000;0.3858;0.8383;
1242.3000;0.3883;0.8336;
1242.6000;0.3883;0.8360;
1242.9000;0.3883;0.8360;
1243.2000;0.3891;0.8407;
1243.5000;0.3972;0.8620;
1243.8000;0.3923;0.8525;
1244.1000;0.3875;0.8383;
1244.4000;0.3883;0.8431;
1244.7000;0.3867;0.8360;
1245.0000;0.3883;0.8289;
1245.3000;0.3875;0.8123;
1245.6000;0.3875;0.8146;
1245.9000;0.3891;0.8241;
1246.2000;0.3891;0.8170;
1246.5000;0.3858;0.8004;
1246.8000;0.3858;0.8004;
1247.1000;0.3883;0.8146;
1247.4000;0.3907;0.8241;
1247.7000;0.3899;0.8217;
1248.0000;0.3956;0.8431;
1248.3000;0.3883;0.8265;
1248.6000;0.3883;0.8289;
1248.9000;0.3867;0.8217;
1249.2000;0.3867;0.8241;
1249.5000;0.3915;0.8265;
1249.8000;0.3883;0.8265;
1250.1000;0.3883;0.8289;
1250.4000;0.3867;0.8265;
1250.7000;0.3875;0.8312;
1251.0000;0.3875;0.8360;
1251.3000;0.3891;0.8312;
1251.6000;0.3858;0.8289;
1251.9000;0.3875;0.8360;
1252.2000;0.3875;0.8312;
1252.5000;0.3891;0.8312;
1252.8000;0.3818;0.8217;
1253.1000;0.3875;0.8360;
1253.4000;0.3867;0.8265;
1253.7000;0.3850;0.8099;
1254.0000;0.3858;0.8217;
1254.3000;0.3883;0.8312;
1254.6000;0.3899;0.8312;
1254.9000;0.3858;0.8241;
1255.2000;0.3867;0.8312;
1255.5000;0.3858;0.8265;
1255.8000;0.3834;0.8241;
1256.1000;0.3875;0.8312;
1256.4000;0.3850;0.8241;
1256.7000;0.3834;0.8146;
1257.0000;0.3899;0.8217;
1257.3000;0.3810;0.8004;
1257.6000;0.3891;0.8146;
1257.9000;0.3867;0.8146;
1258.2000;0.3875;0.8146;
1258.5000;0.3875;0.8146;
1258.8000;0.3883;0.8170;
1259.1000;0.3883;0.8099;
1259.4000;0.3891;0.8217;
1259.7000;0.3875;0.8312;
1260.0000;0.3875;0.8407;
1260.3000;0.3875;0.8336;
1260.6000;0.3875;0.8360;
1260.9000;0.3875;0.8289;
1261.2000;0.3875;0.8360;
1261.5000;0.3891;0.8360;
1261.8000;0.3875;0.8289;
1262.1000;0.3867;0.8241;
1262.4000;0.3875;0.8336;
1262.7000;0.3875;0.8289;
1263.0000;0.3858;0.8217;
1263.3000;0.3875;0.8241;
1263.6000;0.3940;0.8383;
1263.9000;0.3875;0.8194;
1264.2000;0.3867;0.8241;
1264.5000;0.3875;0.8265;
1264.8000;0.3858;0.8289;
1265.1000;0.3875;0.8289;
1265.4000;0.3875;0.8312;
1265.7000;0.3858;0.8265;
1266.0000;0.3842;0.8241;
1266.3000;0.3891;0.8360;
1266.6000;0.3875;0.8360;
1266.9000;0.3858;0.8265;
1267.2000;0.3875;0.8241;
1267.5000;0.3858;0.8170;
1267.8000;0.3883;0.8217;
1268.1000;0.3891;0.8241;
1268.4000;0.3875;0.8170;
1268.7000;0.3891;0.8265;
1269.0000;0.3875;0.8289;
1269.3000;0.3907;0.8407;
1269.6000;0.3875;0.8383;
1269.9000;0.3867;0.8407;
1270.2000;0.3867;0.8549;
1270.5000;0.3875;0.8478;
1270.8000;0.3907;0.8383;
1271.1000;0.3875;0.8336;
1271.4000;0.3891;0.8383;
1271.7000;0.3858;0.8383;
1272.0000;0.3883;0.8312;
1272.3000;0.3907;0.8407;
1272.6000;0.3875;0.8289;
1272.9000;0.3875;0.8360;
1273.2000;0.3899;0.8289;
1273.5000;0.3883;0.8360;
1273.8000;0.3891;0.8383;
1274.1000;0.3972;0.8478;
1274.4000;0.3891;0.8289;
1274.7000;0.3867;0.8289;
1275.0000;0.3867;0.8265;
1275.3000;0.3867;0.8265;
1275.6000;0.3867;0.8312;
1275.9000;0.3875;0.8360;
1276.2000;0.3834;0.8194;
1276.5000;0.3899;0.8407;
1276.8000;0.3891;0.8407;
1277.1000;0.3875;0.8289;
1277.4000;0.3875;0.8336;
1277.7000;0.3834;0.8123;
1278.0000;0.3858;0.8241;
1278.3000;0.3875;0.8312;
1278.6000;0.3891;0.8431;
1278.9000;0.3883;0.8431;
1279.2000;0.3899;0.8525;
1279.5000;0.3923;0.8596;
1279.8000;0.3867;0.8478;
1280.1000;0.3858;0.8360;
1280.4000;0.3858;0.8289;
1280.7000;0.3875;0.8265;
1281.0000;0.3883;0.8194;
1281.3000;0.3883;0.8217;
1281.6000;0.3850;0.8217;
1281.9000;0.3883;0.8289;
1282.2000;0.3858;0.8289;
1282.5000;0.3923;0.8454;
1282.8000;0.3858;0.8241;
1283.1000;0.3867;0.8194;
1283.4000;0.3899;0.8241;
1283.7000;0.3867;0.8194;
1284.0000;0.3883;0.8241;
1284.3000;0.3899;0.8360;
1284.6000;0.3883;0.8265;
1284.9000;0.3883;0.8289;
1285.2000;0.3867;0.8241;
1285.5000;0.3875;0.8312;
1285.8000;0.3883;0.8360;
1286.1000;0.3867;0.8312;
1286.4000;0.3858;0.8336;
1286.7000;0.3875;0.8502;
1287.0000;0.3875;0.8360;
1287.3000;0.3867;0.8289;
1287.6000;0.3867;0.8265;
1287.9000;0.3940;0.8360;
1288.2000;0.3867;0.8146;
1288.5000;0.3883;0.8265;
1288.8000;0.3883;0.8289;
1289.1000;0.3875;0.8312;
1289.4000;0.3883;0.8336;
1289.7000;0.3883;0.8336;
1290.0000;0.3883;0.8312;
1290.3000;0.3858;0.8217;
1290.6000;0.3875;0.8383;
1290.9000;0.3867;0.8360;
1291.2000;0.3744;0.8099;
1291.5000;0.3858;0.8360;
1291.8000;0.3875;0.8336;
1292.1000;0.3875;0.8336;
1292.4000;0.3834;0.8194;
1292.7000;0.3883;0.8289;
1293.0000;0.3858;0.8312;
1293.3000;0.3810;0.8146;
1293.6000;0.3875;0.8336;
1293.9000;0.3850;0.8383;
1294.2000;0.3875;0.8336;
1294.5000;0.3875;0.8312;
1294.8000;0.3867;0.8360;
1295.1000;0.3842;0.8265;
1295.4000;0.3883;0.8383;
1295.7000;0.3883;0.8431;
1296.0000;0.3891;0.8573;
1296.3000;0.3948;0.8644;
1296.6000;0.3883;0.8431;
1296.9000;0.3907;0.8431;
1297.2000;0.3980;0.8549;
1297.5000;0.3899;0.8360;
1297.8000;0.3867;0.8312;
1298.1000;0.3883;0.8312;
1298.4000;0.3899;0.8336;
1298.7000;0.3883;0.8360;
1299.0000;0.3867;0.8431;
1299.3000;0.3858;0.8549;
1299.6000;0.3883;0.8715;
1299.9000;0.3858;0.8644;
1300.2000;0.3875;0.8667;
1300.5000;0.3875;0.8620;
1300.8000;0.3899;0.8762;
1301.1000;0.3891;0.8715;
1301.4000;0.3883;0.8502;
1301.7000;0.3907;0.8502;
1302.0000;0.3883;0.8407;
1302.3000;0.3867;0.8265;
1302.6000;0.3858;0.8217;
1302.9000;0.3867;0.8312;
1303.2000;0.3875;0.8336;
1303.5000;0.3818;0.8265;
1303.8000;0.3842;0.8360;
1304.1000;0.3867;0.8431;
1304.4000;0.3915;0.8478;
1304.7000;0.3875;0.8289;
1305.0000;0.3899;0.8407;
1305.3000;0.3891;0.8336;
1305.6000;0.3867;0.8265;
1305.9000;0.3875;0.8383;
1306.2000;0.3883;0.8431;
1306.5000;0.3899;0.8454;
1306.8000;0.3883;0.8431;
1307.1000;0.3818;0.8217;
1307.4000;0.3858;0.8360;
1307.7000;0.3850;0.8360;
1308.0000;0.3883;0.8360;
1308.3000;0.3875;0.8336;
1308.6000;0.3883;0.8360;
1308.9000;0.3867;0.8241;
1309.2000;0.3875;0.8265;
1309.5000;0.3850;0.8194;
1309.8000;0.3883;0.8194;
1310.1000;0.3883;0.8194;
1310.4000;0.3875;0.8194;
1310.7000;0.3850;0.8075;
1311.0000;0.3915;0.8360;
1311.3000;0.3875;0.8217;
1311.6000;0.3818;0.8170;
1311.9000;0.3875;0.8265;
1312.2000;0.3883;0.8241;
1312.5000;0.3883;0.8265;
1312.8000;0.3858;0.8146;
1313.1000;0.3867;0.8146;
1313.4000;0.3883;0.8289;
1313.7000;0.3858;0.8146;
1314.0000;0.3964;0.8454;
1314.3000;0.3858;0.8170;
1314.6000;0.3899;0.8312;
1314.9000;0.3883;0.8336;
1315.2000;0.3891;0.8241;
1315.5000;0.3891;0.8241;
1315.8000;0.3834;0.7981;
1316.1000;0.3867;0.8075;
1316.4000;0.3867;0.8075;
1316.7000;0.3858;0.8146;
1317.0000;0.3850;0.8075;
1317.3000;0.3891;0.8052;
1317.6000;0.3875;0.7981;
1317.9000;0.3883;0.8004;
1318.2000;0.3858;0.8052;
1318.5000;0.3875;0.8028;
1318.8000;0.3875;0.7981;
1319.1000;0.3891;0.7957;
1319.4000;0.3891;0.7957;
1319.7000;0.3875;0.7910;
1320.0000;0.3899;0.8028;
1320.3000;0.3891;0.7981;
1320.6000;0.3867;0.8004;
1320.9000;0.3875;0.8004;
1321.2000;0.3867;0.8004;
1321.5000;0.3883;0.8099;
1321.8000;0.3875;0.8075;
1322.1000;0.3923;0.8123;
1322.4000;0.3867;0.8099;
1322.7000;0.3858;0.8194;
1323.0000;0.3875;0.8265;
1323.3000;0.3899;0.8241;
1323.6000;0.3850;0.8123;
1323.9000;0.3883;0.8194;
1324.2000;0.3915;0.8241;
1324.5000;0.3875;0.8217;
1324.8000;0.3850;0.8123;
1325.1000;0.3858;0.8217;
1325.4000;0.3883;0.8265;
1325.7000;0.3883;0.8217;
1326.0000;0.3867;0.8146;
1326.3000;0.3899;0.8146;
1326.6000;0.3948;0.8194;
1326.9000;0.3842;0.8052;
1327.2000;0.3867;0.8123;
1327.5000;0.3850;0.8146;
1327.8000;0.3899;0.8360;
1328.1000;0.3883;0.8312;
1328.4000;0.3915;0.8312;
1328.7000;0.3867;0.8194;
1329.0000;0.3875;0.8099;
1329.3000;0.3899;0.8146;
1329.6000;0.3907;0.8075;
1329.9000;0.3875;0.8028;
1330.2000;0.3883;0.8004;
1330.5000;0.3907;0.8075;
1330.8000;0.3867;0.7957;
1331.1000;0.3997;0.8265;
1331.4000;0.3875;0.7886;
1331.7000;0.3850;0.7862;
1332.0000;0.3899;0.8052;
1332.3000;0.3883;0.8004;
1332.6000;0.3761;0.7673;
1332.9000;0.3728;0.7578;
1333.2000;0.3842;0.7981;
1333.5000;0.3989;0.8312;
1333.8000;0.3761;0.7862;
1334.1000;0.3948;0.8265;
1334.4000;0.3883;0.8170;
1334.7000;0.3867;0.8194;
1335.0000;0.3842;0.8146;
1335.3000;0.3867;0.8265;
1335.6000;0.3883;0.8241;
1335.9000;0.3883;0.8146;
1336.2000;0.3867;0.8052;
1336.5000;0.3858;0.8075;
1336.8000;0.3891;0.8265;
1337.1000;0.3883;0.8265;
1337.4000;0.3842;0.8170;
1337.7000;0.3891;0.8289;
1338.0000;0.3883;0.8289;
1338.3000;0.3858;0.8194;
1338.6000;0.3875;0.8123;
1338.9000;0.3834;0.8004;
1339.2000;0.3875;0.8052;
1339.5000;0.3867;0.8052;
1339.8000;0.3915;0.8217;
1340.1000;0.3891;0.8146;
1340.4000;0.3867;0.8099;
1340.7000;0.3875;0.8028;
1341.0000;0.3891;0.8075;
1341.3000;0.3923;0.8194;
1341.6000;0.3867;0.8099;
1341.9000;0.3899;0.8194;
1342.2000;0.3891;0.8123;
1342.5000;0.3826;0.7886;
1342.8000;0.3858;0.8075;
1343.1000;0.3850;0.8028;
1343.4000;0.3875;0.8052;
1343.7000;0.3850;0.8075;
1344.0000;0.3834;0.8004;
1344.3000;0.3858;0.8075;
1344.6000;0.3875;0.8217;
1344.9000;0.3875;0.8194;
1345.2000;0.3891;0.8194;
1345.5000;0.3867;0.8170;
1345.8000;0.3867;0.8241;
1346.1000;0.3883;0.8217;
1346.4000;0.3891;0.8289;
1346.7000;0.3867;0.8360;
1347.0000;0.3867;0.8289;
1347.3000;0.3875;0.8265;
1347.6000;0.3867;0.8217;
1347.9000;0.3883;0.8217;
1348.2000;0.3858;0.8170;
1348.5000;0.3858;0.8265;
1348.8000;0.3858;0.8241;
1349.1000;0.3997;0.8715;
1349.4000;0.3858;0.8360;
1349.7000;0.3883;0.8336;
1350.0000;0.3899;0.8407;
1350.3000;0.3850;0.8360;
1350.6000;0.3850;0.8289;
1350.9000;0.3883;0.8289;
1351.2000;0.3899;0.8265;
1351.5000;0.3875;0.8123;
1351.8000;0.3883;0.8028;
1352.1000;0.3875;0.8028;
1352.4000;0.3858;0.7910;
1352.7000;0.3875;0.7933;
1353.0000;0.3867;0.8004;
1353.3000;0.3907;0.8123;
1353.6000;0.3818;0.7933;
1353.9000;0.3850;0.8004;
1354.2000;0.3867;0.7981;
1354.5000;0.3891;0.8004;
1354.8000;0.3867;0.8004;
1355.1000;0.3932;0.8194;
1355.4000;0.3858;0.7957;
1355.7000;0.3867;0.7981;
1356.0000;0.3875;0.7957;
1356.3000;0.3891;0.8052;
1356.6000;0.3850;0.8004;
1356.9000;0.3826;0.7933;
1357.2000;0.3875;0.7981;
1357.5000;0.3850;0.7862;
1357.8000;0.3858;0.7933;
1358.1000;0.3858;0.7933;
1358.4000;0.3867;0.7910;
1358.7000;0.3867;0.7886;
1359.0000;0.3875;0.7957;
1359.3000;0.3858;0.8004;
1359.6000;0.3875;0.8028;
1359.9000;0.3858;0.8004;
1360.2000;0.3858;0.8028;
1360.5000;0.3875;0.8075;
1360.8000;0.3883;0.8217;
1361.1000;0.3883;0.8265;
1361.4000;0.3891;0.8194;
1361.7000;0.3867;0.8146;
1362.0000;0.3867;0.8123;
1362.3000;0.3883;0.8217;
1362.6000;0.3867;0.8146;
1362.9000;0.3883;0.8146;
1363.2000;0.3834;0.8123;
1363.5000;0.3883;0.8289;
1363.8000;0.3867;0.8265;
1364.1000;0.3883;0.8289;
1364.4000;0.3875;0.8146;
1364.7000;0.3875;0.8217;
1365.0000;0.3875;0.8241;
1365.3000;0.3883;0.8289;
1365.6000;0.3875;0.8312;
1365.9000;0.3891;0.8312;
1366.2000;0.3883;0.8289;
1366.5000;0.3875;0.8194;
1366.8000;0.3867;0.8217;
1367.1000;0.3850;0.8194;
1367.4000;0.3867;0.8241;
1367.7000;0.3875;0.8241;
1368.0000;0.3850;0.8146;
1368.3000;0.3867;0.8123;
1368.6000;0.3858;0.8123;
1368.9000;0.3858;0.8099;
1369.2000;0.3875;0.8123;
1369.5000;0.3875;0.8123;
1369.8000;0.3867;0.8052;
1370.1000;0.3867;0.8028;
1370.4000;0.3875;0.8004;
1370.7000;0.3769;0.7720;
1371.0000;0.3850;0.7933;
1371.3000;0.3858;0.7981;
1371.6000;0.3850;0.8052;
1371.9000;0.3858;0.8123;
1372.2000;0.3834;0.8052;
1372.5000;0.3842;0.8123;
1372.8000;0.3883;0.8170;
1373.1000;0.3948;0.8265;
1373.4000;0.3899;0.8265;
1373.7000;0.3867;0.8217;
1374.0000;0.3875;0.8170;
1374.3000;0.3948;0.8407;
1374.6000;0.3858;0.8194;
1374.9000;0.3891;0.8241;
1375.2000;0.3875;0.8217;
1375.5000;0.3875;0.8265;
1375.8000;0.3850;0.8241;
1376.1000;0.3858;0.8289;
1376.4000;0.3875;0.8312;
1376.7000;0.3875;0.8241;
1377.0000;0.3883;0.8336;
1377.3000;0.3810;0.8217;
1377.6000;0.3907;0.8407;
1377.9000;0.3875;0.8336;
1378.2000;0.3867;0.8265;
1378.5000;0.3875;0.8217;
1378.8000;0.3753;0.7886;
1379.1000;0.3875;0.8241;
1379.4000;0.3850;0.8146;
1379.7000;0.3858;0.8146;
1380.0000;0.3858;0.8099;
1380.3000;0.3883;0.8099;
1380.6000;0.3867;0.8075;
1380.9000;0.3858;0.8052;
1381.2000;0.3883;0.8099;
1381.5000;0.3875;0.8028;
1381.8000;0.3883;0.8052;
1382.1000;0.3867;0.8004;
1382.4000;0.3858;0.8075;
1382.7000;0.3858;0.8099;
1383.0000;0.3883;0.8028;
1383.3000;0.3891;0.8075;
1383.6000;0.3875;0.8028;
1383.9000;0.3883;0.8028;
1384.2000;0.3883;0.7981;
1384.5000;0.3867;0.8028;
1384.8000;0.3875;0.8052;
1385.1000;0.3875;0.8004;
1385.4000;0.3899;0.8075;
1385.7000;0.3875;0.7933;
1386.0000;0.3867;0.7957;
1386.3000;0.3867;0.7933;
1386.6000;0.3875;0.8028;
1386.9000;0.3867;0.7933;
1387.2000;0.3801;0.7696;
1387.5000;0.3858;0.7981;
1387.8000;0.3867;0.8028;
1388.1000;0.3867;0.7981;
1388.4000;0.3867;0.7886;
1388.7000;0.3867;0.8004;
1389.0000;0.3932;0.8194;
1389.3000;0.3850;0.8052;
1389.6000;0.3867;0.8123;
1389.9000;0.3867;0.8123;
1390.2000;0.3858;0.8123;
1390.5000;0.3956;0.8454;
1390.8000;0.3858;0.8194;
1391.1000;0.3850;0.8099;
1391.4000;0.3875;0.8146;
1391.7000;0.3956;0.8360;
1392.0000;0.3875;0.8146;
1392.3000;0.3883;0.8170;
1392.6000;0.3875;0.8123;
1392.9000;0.3875;0.8075;
1393.2000;0.3883;0.8123;
1393.5000;0.3883;0.8146;
1393.8000;0.3932;0.8217;
1394.1000;0.3850;0.8052;
1394.4000;0.3875;0.8052;
1394.7000;0.3875;0.8217;
1395.0000;0.3883;0.8312;
1395.3000;0.3818;0.8075;
1395.6000;0.3867;0.8241;
1395.9000;0.3858;0.8265;
1396.2000;0.3875;0.8312;
1396.5000;0.3875;0.8265;
1396.8000;0.3842;0.8146;
1397.1000;0.3867;0.8170;
1397.4000;0.3867;0.8099;
1397.7000;0.3818;0.7981;
1398.0000;0.3891;0.8265;
1398.3000;0.3883;0.8265;
1398.6000;0.3883;0.8194;
1398.9000;0.3858;0.8217;
1399.2000;0.3875;0.8265;
1399.5000;0.3858;0.8170;
1399.8000;0.3858;0.8241;
