time/ms;Fluo/V;P700 deltaI/I x10³;
-199.8000;0.4160;0.8028;
-199.5000;0.4143;0.7957;
-199.2000;0.4119;0.7839;
-198.9000;0.4119;0.7768;
-198.6000;0.4111;0.7815;
-198.3000;0.4094;0.7791;
-198.0000;0.4111;0.7839;
-197.7000;0.4127;0.7957;
-197.4000;0.4200;0.8170;
-197.1000;0.4127;0.8052;
-196.8000;0.4086;0.8028;
-196.5000;0.4103;0.8170;
-196.2000;0.4103;0.8099;
-195.9000;0.4119;0.8170;
-195.6000;0.4119;0.8123;
-195.3000;0.4054;0.7981;
-195.0000;0.4135;0.8123;
-194.7000;0.4119;0.8123;
-194.4000;0.4151;0.8194;
-194.1000;0.4062;0.8075;
-193.8000;0.3997;0.7886;
-193.5000;0.4119;0.8170;
-193.2000;0.4119;0.8217;
-192.9000;0.4094;0.8075;
-192.6000;0.4119;0.8075;
-192.3000;0.4111;0.8075;
-192.0000;0.4151;0.8099;
-191.7000;0.4094;0.7910;
-191.4000;0.4127;0.7981;
-191.1000;0.4135;0.7933;
-190.8000;0.4119;0.7886;
-190.5000;0.4184;0.8075;
-190.2000;0.4127;0.7957;
-189.9000;0.4135;0.7910;
-189.6000;0.4160;0.8004;
-189.3000;0.4078;0.7862;
-189.0000;0.4070;0.7839;
-188.7000;0.4119;0.7957;
-188.4000;0.4094;0.7886;
-188.1000;0.4119;0.8028;
-187.8000;0.4135;0.8004;
-187.5000;0.4135;0.8052;
-187.2000;0.4241;0.8407;
-186.9000;0.4160;0.8265;
-186.6000;0.4103;0.8170;
-186.3000;0.4143;0.8146;
-186.0000;0.4135;0.8099;
-185.7000;0.4127;0.7981;
-185.4000;0.4143;0.7933;
-185.1000;0.4103;0.7815;
-184.8000;0.4135;0.7910;
-184.5000;0.4103;0.7815;
-184.2000;0.4135;0.7933;
-183.9000;0.4135;0.8075;
-183.6000;0.4127;0.8052;
-183.3000;0.4151;0.8123;
-183.0000;0.4086;0.8004;
-182.7000;0.4094;0.8028;
-182.4000;0.4127;0.8099;
-182.1000;0.4119;0.8075;
-181.8000;0.4086;0.8075;
-181.5000;0.4111;0.8004;
-181.2000;0.4127;0.7981;
-180.9000;0.4037;0.7768;
-180.6000;0.4127;0.8004;
-180.3000;0.4119;0.7910;
-180.0000;0.4111;0.7957;
-179.7000;0.4143;0.8052;
-179.4000;0.4103;0.7886;
-179.1000;0.4127;0.7910;
-178.8000;0.4143;0.7981;
-178.5000;0.4078;0.7862;
-178.2000;0.4111;0.7886;
-177.9000;0.4119;0.8052;
-177.6000;0.4143;0.8075;
-177.3000;0.4103;0.8028;
-177.0000;0.4127;0.7957;
-176.7000;0.4062;0.7815;
-176.4000;0.4054;0.7839;
-176.1000;0.4070;0.7791;
-175.8000;0.4005;0.7602;
-175.5000;0.4119;0.7886;
-175.2000;0.4094;0.7862;
-174.9000;0.4135;0.7957;
-174.6000;0.4062;0.7886;
-174.3000;0.4249;0.8312;
-174.0000;0.4111;0.7981;
-173.7000;0.4094;0.7910;
-173.4000;0.4127;0.7957;
-173.1000;0.4111;0.7862;
-172.8000;0.4086;0.7815;
-172.5000;0.4143;0.7933;
-172.2000;0.4111;0.7886;
-171.9000;0.4135;0.8004;
-171.6000;0.4111;0.7862;
-171.3000;0.4127;0.7815;
-171.0000;0.4111;0.7862;
-170.7000;0.4111;0.7791;
-170.4000;0.4143;0.7862;
-170.1000;0.4111;0.7886;
-169.8000;0.4103;0.7839;
-169.5000;0.4021;0.7625;
-169.2000;0.4135;0.7910;
-168.9000;0.4127;0.7957;
-168.6000;0.4111;0.7886;
-168.3000;0.4119;0.7839;
-168.0000;0.4111;0.7768;
-167.7000;0.4111;0.7768;
-167.4000;0.4103;0.7744;
-167.1000;0.4119;0.7768;
-166.8000;0.4127;0.7839;
-166.5000;0.4119;0.7862;
-166.2000;0.4151;0.8004;
-165.9000;0.4119;0.7957;
-165.6000;0.4135;0.7981;
-165.3000;0.4127;0.7957;
-165.0000;0.4135;0.7862;
-164.7000;0.4127;0.7910;
-164.4000;0.4135;0.8004;
-164.1000;0.4127;0.8004;
-163.8000;0.4225;0.8217;
-163.5000;0.4135;0.8028;
-163.2000;0.4111;0.7886;
-162.9000;0.4119;0.7839;
-162.6000;0.4119;0.7862;
-162.3000;0.4103;0.7791;
-162.0000;0.4127;0.7791;
-161.7000;0.4135;0.7791;
-161.4000;0.4127;0.7791;
-161.1000;0.4143;0.7815;
-160.8000;0.4119;0.7768;
-160.5000;0.4119;0.7839;
-160.2000;0.4143;0.7957;
-159.9000;0.4078;0.7839;
-159.6000;0.4094;0.7957;
-159.3000;0.4127;0.8099;
-159.0000;0.4135;0.8241;
-158.7000;0.4143;0.8217;
-158.4000;0.4119;0.8099;
-158.1000;0.4135;0.8075;
-157.8000;0.4062;0.7839;
-157.5000;0.4111;0.7886;
-157.2000;0.4135;0.7933;
-156.9000;0.4127;0.7933;
-156.6000;0.4151;0.8004;
-156.3000;0.4119;0.8028;
-156.0000;0.4127;0.8075;
-155.7000;0.4168;0.8146;
-155.4000;0.4143;0.8146;
-155.1000;0.4094;0.8170;
-154.8000;0.4070;0.8146;
-154.5000;0.4127;0.8241;
-154.2000;0.4094;0.8123;
-153.9000;0.4119;0.8099;
-153.6000;0.4070;0.7981;
-153.3000;0.4078;0.8052;
-153.0000;0.4111;0.8099;
-152.7000;0.4143;0.8123;
-152.4000;0.4094;0.8004;
-152.1000;0.4103;0.8028;
-151.8000;0.4111;0.8028;
-151.5000;0.4127;0.8052;
-151.2000;0.4135;0.8004;
-150.9000;0.4111;0.8004;
-150.6000;0.4086;0.7933;
-150.3000;0.4070;0.7815;
-150.0000;0.4135;0.8052;
-149.7000;0.4094;0.7933;
-149.4000;0.4127;0.8052;
-149.1000;0.4151;0.8123;
-148.8000;0.4151;0.8075;
-148.5000;0.4143;0.8052;
-148.2000;0.4111;0.8004;
-147.9000;0.4151;0.8170;
-147.6000;0.4135;0.7981;
-147.3000;0.4119;0.7981;
-147.0000;0.4111;0.7957;
-146.7000;0.4119;0.8075;
-146.4000;0.4135;0.8099;
-146.1000;0.4143;0.8028;
-145.8000;0.4029;0.7744;
-145.5000;0.4135;0.8075;
-145.2000;0.4135;0.8099;
-144.9000;0.4143;0.8099;
-144.6000;0.4127;0.8028;
-144.3000;0.4111;0.7981;
-144.0000;0.4135;0.8075;
-143.7000;0.4111;0.7910;
-143.4000;0.4135;0.7957;
-143.1000;0.4078;0.7815;
-142.8000;0.4111;0.7839;
-142.5000;0.4127;0.7933;
-142.2000;0.4119;0.7933;
-141.9000;0.4127;0.8028;
-141.6000;0.4037;0.7815;
-141.3000;0.4119;0.8052;
-141.0000;0.4119;0.8052;
-140.7000;0.4127;0.8052;
-140.4000;0.4111;0.8099;
-140.1000;0.4135;0.8217;
-139.8000;0.4135;0.8170;
-139.5000;0.4111;0.8123;
-139.2000;0.4119;0.8170;
-138.9000;0.4143;0.8170;
-138.6000;0.4111;0.7981;
-138.3000;0.4143;0.8075;
-138.0000;0.4103;0.8028;
-137.7000;0.4119;0.7981;
-137.4000;0.4119;0.8028;
-137.1000;0.4127;0.8075;
-136.8000;0.4119;0.8052;
-136.5000;0.4127;0.7981;
-136.2000;0.4127;0.7957;
-135.9000;0.4119;0.7957;
-135.6000;0.4127;0.8004;
-135.3000;0.4119;0.7981;
-135.0000;0.4143;0.8052;
-134.7000;0.4127;0.8123;
-134.4000;0.4119;0.8099;
-134.1000;0.4143;0.8170;
-133.8000;0.4135;0.8217;
-133.5000;0.4127;0.8099;
-133.2000;0.4135;0.8099;
-132.9000;0.4151;0.8028;
-132.6000;0.4135;0.7981;
-132.3000;0.4151;0.8004;
-132.0000;0.4127;0.7957;
-131.7000;0.4151;0.7957;
-131.4000;0.4094;0.7744;
-131.1000;0.4111;0.7768;
-130.8000;0.4078;0.7744;
-130.5000;0.4119;0.7839;
-130.2000;0.4200;0.8052;
-129.9000;0.4127;0.7862;
-129.6000;0.4127;0.7910;
-129.3000;0.4135;0.7933;
-129.0000;0.4160;0.7886;
-128.7000;0.4143;0.7768;
-128.4000;0.4119;0.7696;
-128.1000;0.4111;0.7768;
-127.8000;0.4103;0.7768;
-127.5000;0.4111;0.7696;
-127.2000;0.4127;0.7886;
-126.9000;0.4078;0.7862;
-126.6000;0.4119;0.8004;
-126.3000;0.4119;0.7910;
-126.0000;0.4119;0.8004;
-125.7000;0.4143;0.8099;
-125.4000;0.4135;0.8099;
-125.1000;0.4111;0.8146;
-124.8000;0.4111;0.8099;
-124.5000;0.4160;0.8194;
-124.2000;0.4119;0.8123;
-123.9000;0.4094;0.8028;
-123.6000;0.4119;0.8123;
-123.3000;0.4094;0.8170;
-123.0000;0.4111;0.8146;
-122.7000;0.4094;0.8028;
-122.4000;0.4103;0.8028;
-122.1000;0.4119;0.8052;
-121.8000;0.4119;0.8004;
-121.5000;0.4070;0.8004;
-121.2000;0.4111;0.8146;
-120.9000;0.4119;0.8241;
-120.6000;0.4127;0.8241;
-120.3000;0.4119;0.8217;
-120.0000;0.4127;0.8194;
-119.7000;0.4111;0.8217;
-119.4000;0.4127;0.8075;
-119.1000;0.4127;0.8075;
-118.8000;0.4135;0.8099;
-118.5000;0.4135;0.8123;
-118.2000;0.4127;0.8123;
-117.9000;0.4078;0.7933;
-117.6000;0.4135;0.8146;
-117.3000;0.4119;0.8123;
-117.0000;0.4119;0.8075;
-116.7000;0.4127;0.8028;
-116.4000;0.4103;0.8075;
-116.1000;0.4127;0.8099;
-115.8000;0.4111;0.8028;
-115.5000;0.4127;0.8170;
-115.2000;0.4127;0.8194;
-114.9000;0.4103;0.8075;
-114.6000;0.4135;0.8217;
-114.3000;0.4143;0.8194;
-114.0000;0.4127;0.8217;
-113.7000;0.4111;0.8194;
-113.4000;0.4127;0.8123;
-113.1000;0.4135;0.8170;
-112.8000;0.4119;0.8099;
-112.5000;0.4119;0.8052;
-112.2000;0.4127;0.7981;
-111.9000;0.4119;0.7933;
-111.6000;0.4127;0.7910;
-111.3000;0.4111;0.7957;
-111.0000;0.4111;0.7981;
-110.7000;0.4127;0.7839;
-110.4000;0.4168;0.7815;
-110.1000;0.4119;0.7768;
-109.8000;0.4127;0.7720;
-109.5000;0.4151;0.7862;
-109.2000;0.4135;0.7933;
-108.9000;0.4127;0.7910;
-108.6000;0.4111;0.7886;
-108.3000;0.4135;0.7933;
-108.0000;0.4151;0.7957;
-107.7000;0.4127;0.7910;
-107.4000;0.4160;0.7957;
-107.1000;0.4135;0.7910;
-106.8000;0.4127;0.7933;
-106.5000;0.4094;0.7910;
-106.2000;0.4086;0.7839;
-105.9000;0.4029;0.7696;
-105.6000;0.4119;0.7957;
-105.3000;0.4094;0.8028;
-105.0000;0.4111;0.8075;
-104.7000;0.4111;0.8052;
-104.4000;0.4054;0.7886;
-104.1000;0.4119;0.7981;
-103.8000;0.4127;0.8004;
-103.5000;0.4135;0.8123;
-103.2000;0.4135;0.8170;
-102.9000;0.4127;0.8194;
-102.6000;0.4111;0.8194;
-102.3000;0.4127;0.8146;
-102.0000;0.4094;0.7981;
-101.7000;0.4111;0.8004;
-101.4000;0.4094;0.8004;
-101.1000;0.4168;0.8265;
-100.8000;0.4119;0.8075;
-100.5000;0.4111;0.8052;
-100.2000;0.4111;0.8099;
-99.9000;0.4086;0.8028;
-99.6000;0.4054;0.7933;
-99.3000;0.4135;0.8052;
-99.0000;0.4103;0.8028;
-98.7000;0.4111;0.8004;
-98.4000;0.4111;0.8028;
-98.1000;0.4135;0.8004;
-97.8000;0.4127;0.7981;
-97.5000;0.4127;0.8075;
-97.2000;0.4103;0.8052;
-96.9000;0.4103;0.8052;
-96.6000;0.4127;0.8194;
-96.3000;0.4135;0.8170;
-96.0000;0.4119;0.8170;
-95.7000;0.4103;0.8028;
-95.4000;0.4103;0.8075;
-95.1000;0.4119;0.8123;
-94.8000;0.4029;0.8052;
-94.5000;0.4151;0.8312;
-94.2000;0.4119;0.8170;
-93.9000;0.4127;0.8170;
-93.6000;0.4094;0.8052;
-93.3000;0.4119;0.7957;
-93.0000;0.4127;0.7981;
-92.7000;0.4127;0.8004;
-92.4000;0.4103;0.7957;
-92.1000;0.4119;0.7886;
-91.8000;0.4103;0.7886;
-91.5000;0.4086;0.7815;
-91.2000;0.4119;0.7957;
-90.9000;0.4111;0.7886;
-90.6000;0.4103;0.7933;
-90.3000;0.4111;0.8028;
-90.0000;0.4135;0.8028;
-89.7000;0.4111;0.8028;
-89.4000;0.4119;0.8052;
-89.1000;0.4127;0.8146;
-88.8000;0.4127;0.8217;
-88.5000;0.4111;0.8123;
-88.2000;0.4119;0.8146;
-87.9000;0.4103;0.8170;
-87.6000;0.4111;0.8123;
-87.3000;0.4127;0.8123;
-87.0000;0.4094;0.8170;
-86.7000;0.4127;0.8289;
-86.4000;0.4135;0.8312;
-86.1000;0.4127;0.8217;
-85.8000;0.4119;0.8170;
-85.5000;0.4127;0.8123;
-85.2000;0.4119;0.8146;
-84.9000;0.4111;0.8099;
-84.6000;0.4103;0.8052;
-84.3000;0.4103;0.8099;
-84.0000;0.4078;0.7933;
-83.7000;0.4127;0.8004;
-83.4000;0.4119;0.8052;
-83.1000;0.4103;0.8052;
-82.8000;0.4119;0.8052;
-82.5000;0.4176;0.8146;
-82.2000;0.4127;0.8123;
-81.9000;0.4086;0.8075;
-81.6000;0.4111;0.8075;
-81.3000;0.4160;0.8099;
-81.0000;0.4094;0.7933;
-80.7000;0.4127;0.8052;
-80.4000;0.4119;0.8146;
-80.1000;0.4119;0.8123;
-79.8000;0.4119;0.8146;
-79.5000;0.4184;0.8241;
-79.2000;0.4086;0.8099;
-78.9000;0.4103;0.8099;
-78.6000;0.4111;0.8052;
-78.3000;0.4103;0.8052;
-78.0000;0.4078;0.7839;
-77.7000;0.4111;0.7933;
-77.4000;0.4046;0.7815;
-77.1000;0.4127;0.7981;
-76.8000;0.4119;0.7957;
-76.5000;0.4070;0.7933;
-76.2000;0.4111;0.8028;
-75.9000;0.4111;0.8075;
-75.6000;0.4119;0.8123;
-75.3000;0.4103;0.8099;
-75.0000;0.4127;0.8146;
-74.7000;0.4135;0.8052;
-74.4000;0.4094;0.8028;
-74.1000;0.4200;0.8289;
-73.8000;0.4127;0.8028;
-73.5000;0.4143;0.8052;
-73.2000;0.4127;0.7981;
-72.9000;0.4111;0.7957;
-72.6000;0.4127;0.8004;
-72.3000;0.4078;0.7862;
-72.0000;0.4127;0.7933;
-71.7000;0.4143;0.7981;
-71.4000;0.4119;0.8004;
-71.1000;0.4241;0.8241;
-70.8000;0.4127;0.7933;
-70.5000;0.4086;0.7910;
-70.2000;0.4103;0.7886;
-69.9000;0.4111;0.7910;
-69.6000;0.4127;0.7981;
-69.3000;0.4111;0.8028;
-69.0000;0.4103;0.7957;
-68.7000;0.4103;0.7910;
-68.4000;0.4127;0.7933;
-68.1000;0.4094;0.7791;
-67.8000;0.4111;0.7886;
-67.5000;0.4119;0.7933;
-67.2000;0.4119;0.7933;
-66.9000;0.4127;0.7957;
-66.6000;0.4111;0.8004;
-66.3000;0.4119;0.8004;
-66.0000;0.4143;0.8052;
-65.7000;0.4103;0.7957;
-65.4000;0.4111;0.8004;
-65.1000;0.4127;0.8028;
-64.8000;0.4127;0.8075;
-64.5000;0.4119;0.8028;
-64.2000;0.4135;0.8075;
-63.9000;0.4127;0.8099;
-63.6000;0.4135;0.8028;
-63.3000;0.4143;0.8004;
-63.0000;0.4127;0.8004;
-62.7000;0.4127;0.8028;
-62.4000;0.4111;0.8075;
-62.1000;0.4119;0.8099;
-61.8000;0.4127;0.8170;
-61.5000;0.4111;0.8075;
-61.2000;0.4208;0.8383;
-60.9000;0.4111;0.8241;
-60.6000;0.4078;0.8075;
-60.3000;0.4168;0.8217;
-60.0000;0.4160;0.8194;
-59.7000;0.4119;0.8099;
-59.4000;0.4103;0.8075;
-59.1000;0.4160;0.8170;
-58.8000;0.4135;0.8217;
-58.5000;0.4119;0.8123;
-58.2000;0.4094;0.8123;
-57.9000;0.4094;0.8099;
-57.6000;0.4143;0.8194;
-57.3000;0.4119;0.8075;
-57.0000;0.4021;0.7815;
-56.7000;0.4119;0.8028;
-56.4000;0.4160;0.8146;
-56.1000;0.4078;0.7957;
-55.8000;0.4103;0.8004;
-55.5000;0.4103;0.8052;
-55.2000;0.4103;0.8099;
-54.9000;0.4168;0.8170;
-54.6000;0.4086;0.7957;
-54.3000;0.4119;0.8028;
-54.0000;0.4103;0.8075;
-53.7000;0.4127;0.8123;
-53.4000;0.4111;0.8170;
-53.1000;0.4111;0.8194;
-52.8000;0.4062;0.8123;
-52.5000;0.4119;0.8217;
-52.2000;0.4135;0.8241;
-51.9000;0.4143;0.8241;
-51.6000;0.4135;0.8217;
-51.3000;0.4119;0.8099;
-51.0000;0.4103;0.8099;
-50.7000;0.4111;0.8099;
-50.4000;0.4127;0.8052;
-50.1000;0.4135;0.8004;
-49.8000;0.4094;0.7933;
-49.5000;0.4119;0.8004;
-49.2000;0.4111;0.8075;
-48.9000;0.4119;0.8146;
-48.6000;0.4127;0.8170;
-48.3000;0.4151;0.8146;
-48.0000;0.4127;0.8075;
-47.7000;0.4127;0.8075;
-47.4000;0.4111;0.8028;
-47.1000;0.4143;0.8052;
-46.8000;0.4127;0.8099;
-46.5000;0.4143;0.8170;
-46.2000;0.4168;0.8289;
-45.9000;0.4103;0.8170;
-45.6000;0.4127;0.8289;
-45.3000;0.4143;0.8336;
-45.0000;0.4094;0.8265;
-44.7000;0.4103;0.8265;
-44.4000;0.4127;0.8312;
-44.1000;0.4111;0.8241;
-43.8000;0.4184;0.8312;
-43.5000;0.4119;0.8194;
-43.2000;0.4127;0.8217;
-42.9000;0.4103;0.8217;
-42.6000;0.4119;0.8265;
-42.3000;0.4119;0.8217;
-42.0000;0.4119;0.8123;
-41.7000;0.4127;0.8265;
-41.4000;0.4103;0.8075;
-41.1000;0.4127;0.8194;
-40.8000;0.4135;0.8241;
-40.5000;0.4127;0.8241;
-40.2000;0.4143;0.8312;
-39.9000;0.4103;0.8099;
-39.6000;0.4119;0.8123;
-39.3000;0.4111;0.8123;
-39.0000;0.4168;0.8241;
-38.7000;0.4127;0.8123;
-38.4000;0.4111;0.7981;
-38.1000;0.4143;0.8075;
-37.8000;0.4111;0.8075;
-37.5000;0.4119;0.8052;
-37.2000;0.4103;0.8028;
-36.9000;0.4127;0.8052;
-36.6000;0.4119;0.8099;
-36.3000;0.4111;0.8123;
-36.0000;0.4127;0.8146;
-35.7000;0.4168;0.8289;
-35.4000;0.4184;0.8312;
-35.1000;0.4143;0.8265;
-34.8000;0.4103;0.8146;
-34.5000;0.4086;0.8028;
-34.2000;0.4111;0.8123;
-33.9000;0.4103;0.8146;
-33.6000;0.4135;0.8194;
-33.3000;0.4111;0.8241;
-33.0000;0.4176;0.8454;
-32.7000;0.4119;0.8312;
-32.4000;0.4103;0.8336;
-32.1000;0.4103;0.8265;
-31.8000;0.4127;0.8289;
-31.5000;0.4111;0.8265;
-31.2000;0.4103;0.8265;
-30.9000;0.4135;0.8360;
-30.6000;0.4151;0.8312;
-30.3000;0.4111;0.8194;
-30.0000;0.4119;0.8289;
-29.7000;0.4119;0.8289;
-29.4000;0.4078;0.8265;
-29.1000;0.4135;0.8289;
-28.8000;0.4103;0.8194;
-28.5000;0.4021;0.8028;
-28.2000;0.4111;0.8194;
-27.9000;0.4217;0.8383;
-27.6000;0.4143;0.8146;
-27.3000;0.4111;0.8146;
-27.0000;0.4119;0.8170;
-26.7000;0.4094;0.8075;
-26.4000;0.4127;0.8146;
-26.1000;0.4119;0.8099;
-25.8000;0.4111;0.8099;
-25.5000;0.4119;0.8028;
-25.2000;0.4127;0.8075;
-24.9000;0.4143;0.8099;
-24.6000;0.4176;0.8146;
-24.3000;0.4160;0.8123;
-24.0000;0.4176;0.8146;
-23.7000;0.4127;0.8028;
-23.4000;0.4111;0.8052;
-23.1000;0.4119;0.8028;
-22.8000;0.4135;0.8075;
-22.5000;0.4160;0.8170;
-22.2000;0.4103;0.8123;
-21.9000;0.4119;0.8075;
-21.6000;0.4176;0.8265;
-21.3000;0.4168;0.8336;
-21.0000;0.4135;0.8360;
-20.7000;0.4127;0.8431;
-20.4000;0.4111;0.8383;
-20.1000;0.4127;0.8312;
-19.8000;0.4127;0.8241;
-19.5000;0.4119;0.8123;
-19.2000;0.4111;0.8170;
-18.9000;0.4127;0.8170;
-18.6000;0.4103;0.8241;
-18.3000;0.4127;0.8265;
-18.0000;0.4143;0.8336;
-17.7000;0.4119;0.8336;
-17.4000;0.4119;0.8407;
-17.1000;0.4119;0.8383;
-16.8000;0.4135;0.8312;
-16.5000;0.4119;0.8123;
-16.2000;0.4151;0.8146;
-15.9000;0.4127;0.8170;
-15.6000;0.4127;0.8217;
-15.3000;0.4119;0.8194;
-15.0000;0.4127;0.8146;
-14.7000;0.4111;0.8170;
-14.4000;0.4135;0.8194;
-14.1000;0.4111;0.8146;
-13.8000;0.4127;0.8146;
-13.5000;0.4054;0.7933;
-13.2000;0.4192;0.8289;
-12.9000;0.4119;0.8170;
-12.6000;0.4111;0.8217;
-12.3000;0.4119;0.8241;
-12.0000;0.4119;0.8241;
-11.7000;0.4184;0.8454;
-11.4000;0.4103;0.8289;
-11.1000;0.4151;0.8360;
-10.8000;0.4135;0.8336;
-10.5000;0.4062;0.8075;
-10.2000;0.4151;0.8241;
-9.9000;0.4103;0.8170;
-9.6000;0.4119;0.8217;
-9.3000;0.4168;0.8265;
-9.0000;0.4225;0.8454;
-8.7000;0.4119;0.8170;
-8.4000;0.4127;0.8123;
-8.1000;0.4119;0.8075;
-7.8000;0.4135;0.8075;
-7.5000;0.4111;0.8194;
-7.2000;0.4119;0.8217;
-6.9000;0.4103;0.8265;
-6.6000;0.4046;0.8123;
-6.3000;0.4094;0.8241;
-6.0000;0.4127;0.8217;
-5.7000;0.4111;0.8123;
-5.4000;0.4103;0.8170;
-5.1000;0.4119;0.8217;
-4.8000;0.4135;0.8289;
-4.5000;0.4103;0.8383;
-4.2000;0.4111;0.8336;
-3.9000;0.4103;0.8265;
-3.6000;0.4111;0.8241;
-3.3000;0.4119;0.8217;
-3.0000;0.4119;0.8123;
-2.7000;0.4119;0.8123;
-2.4000;0.4119;0.8146;
-2.1000;0.4119;0.8146;
-1.8000;0.4135;0.8123;
-1.5000;0.4111;0.8052;
-1.2000;0.4151;0.8241;
-0.9000;0.4119;0.8194;
-0.6000;0.4111;0.8265;
-0.3000;0.4103;0.8312;
0.0000;0.4103;0.8312;
0.3000;0.4176;0.8241;
0.6000;0.4355;0.8407;
0.9000;0.4510;0.8596;
1.2000;0.4607;0.8691;
1.5000;0.4713;0.8833;
1.8000;0.4754;0.8904;
2.1000;0.4811;0.9070;
2.4000;0.4803;0.9046;
2.7000;0.4892;0.9259;
3.0000;0.4908;0.9212;
3.3000;0.4884;0.9236;
3.6000;0.4917;0.9331;
3.9000;0.5022;0.9567;
4.2000;0.4982;0.9544;
4.5000;0.4974;0.9591;
4.8000;0.4990;0.9567;
5.1000;0.4982;0.9473;
5.4000;0.5022;0.9520;
5.7000;0.5014;0.9520;
6.0000;0.5039;0.9473;
6.3000;0.5014;0.9354;
6.6000;0.5031;0.9425;
6.9000;0.5039;0.9496;
7.2000;0.5055;0.9544;
7.5000;0.5039;0.9544;
7.8000;0.5039;0.9591;
8.1000;0.5071;0.9733;
8.4000;0.5079;0.9733;
8.7000;0.5088;0.9757;
9.0000;0.5104;0.9757;
9.3000;0.5088;0.9709;
9.6000;0.5104;0.9804;
9.9000;0.5112;0.9828;
10.2000;0.5120;0.9757;
10.5000;0.5112;0.9733;
10.8000;0.5144;0.9780;
11.1000;0.5153;0.9804;
11.4000;0.5128;0.9757;
11.7000;0.5169;0.9899;
12.0000;0.5169;0.9852;
12.3000;0.5169;0.9780;
12.6000;0.5177;0.9733;
12.9000;0.5161;0.9709;
13.2000;0.5201;0.9780;
13.5000;0.5169;0.9615;
13.8000;0.5169;0.9638;
14.1000;0.5193;0.9544;
14.4000;0.5201;0.9591;
14.7000;0.5283;0.9662;
15.0000;0.5193;0.9473;
15.3000;0.5218;0.9544;
15.6000;0.5242;0.9615;
15.9000;0.5242;0.9757;
16.2000;0.5242;0.9804;
16.5000;0.5250;0.9757;
16.8000;0.5242;0.9780;
17.1000;0.5250;0.9852;
17.4000;0.5267;0.9828;
17.7000;0.5283;0.9780;
18.0000;0.5258;0.9733;
18.3000;0.5267;0.9662;
18.6000;0.5283;0.9662;
18.9000;0.5283;0.9662;
19.2000;0.5291;0.9733;
19.5000;0.5234;0.9520;
19.8000;0.5283;0.9686;
20.1000;0.5307;0.9733;
20.4000;0.5299;0.9686;
20.7000;0.5315;0.9638;
21.0000;0.5250;0.9520;
21.3000;0.5315;0.9757;
21.6000;0.5299;0.9686;
21.9000;0.5348;0.9875;
22.2000;0.5340;0.9946;
22.5000;0.5324;0.9899;
22.8000;0.5340;0.9875;
23.1000;0.5340;0.9780;
23.4000;0.5340;0.9757;
23.7000;0.5381;0.9757;
24.0000;0.5283;0.9591;
24.3000;0.5340;0.9757;
24.6000;0.5332;0.9733;
24.9000;0.5389;0.9733;
25.2000;0.5356;0.9591;
25.5000;0.5348;0.9544;
25.8000;0.5381;0.9662;
26.1000;0.5397;0.9852;
26.4000;0.5397;0.9852;
26.7000;0.5389;0.9804;
27.0000;0.5389;0.9804;
27.3000;0.5364;0.9686;
27.6000;0.5381;0.9662;
27.9000;0.5372;0.9520;
28.2000;0.5389;0.9544;
28.5000;0.5389;0.9615;
28.8000;0.5405;0.9591;
29.1000;0.5397;0.9567;
29.4000;0.5397;0.9662;
29.7000;0.5413;0.9638;
30.0000;0.5389;0.9709;
30.3000;0.5397;0.9709;
30.6000;0.5429;0.9780;
30.9000;0.5429;0.9804;
31.2000;0.5413;0.9757;
31.5000;0.5429;0.9852;
31.8000;0.5438;0.9828;
32.1000;0.5438;0.9828;
32.4000;0.5470;0.9946;
32.7000;0.5421;0.9875;
33.0000;0.5438;0.9875;
33.3000;0.5438;0.9780;
33.6000;0.5446;0.9780;
33.9000;0.5470;0.9875;
34.2000;0.5438;0.9828;
34.5000;0.5438;0.9780;
34.8000;0.5421;0.9733;
35.1000;0.5462;0.9804;
35.4000;0.5462;0.9804;
35.7000;0.5454;0.9804;
36.0000;0.5446;0.9757;
36.3000;0.5478;0.9852;
36.6000;0.5462;0.9757;
36.9000;0.5462;0.9828;
37.2000;0.5470;0.9852;
37.5000;0.5486;0.9852;
37.8000;0.5519;0.9923;
38.1000;0.5462;0.9875;
38.4000;0.5438;0.9804;
38.7000;0.5486;0.9923;
39.0000;0.5495;0.9923;
39.3000;0.5486;0.9899;
39.6000;0.5478;0.9875;
39.9000;0.5535;0.9946;
40.2000;0.5478;0.9757;
40.5000;0.5478;0.9638;
40.8000;0.5486;0.9638;
41.1000;0.5495;0.9662;
41.4000;0.5397;0.9544;
41.7000;0.5495;0.9804;
42.0000;0.5495;0.9852;
42.3000;0.5486;0.9828;
42.6000;0.5495;0.9899;
42.9000;0.5495;0.9804;
43.2000;0.5486;0.9875;
43.5000;0.5503;0.9828;
43.8000;0.5503;0.9733;
44.1000;0.5519;0.9828;
44.4000;0.5503;0.9686;
44.7000;0.5519;0.9686;
45.0000;0.5535;0.9804;
45.3000;0.5486;0.9662;
45.6000;0.5527;0.9686;
45.9000;0.5503;0.9662;
46.2000;0.5511;0.9733;
46.5000;0.5511;0.9852;
46.8000;0.5519;0.9875;
47.1000;0.5543;0.9899;
47.4000;0.5535;0.9852;
47.7000;0.5519;0.9828;
48.0000;0.5543;0.9875;
48.3000;0.5535;0.9780;
48.6000;0.5527;0.9757;
48.9000;0.5535;0.9804;
49.2000;0.5535;0.9733;
49.5000;0.5535;0.9662;
49.8000;0.5527;0.9615;
50.1000;0.5446;0.9378;
50.4000;0.5560;0.9662;
50.7000;0.5535;0.9615;
51.0000;0.5503;0.9638;
51.3000;0.5551;0.9875;
51.6000;0.5568;0.9899;
51.9000;0.5535;0.9780;
52.2000;0.5608;1.0017;
52.5000;0.5543;0.9804;
52.8000;0.5543;0.9733;
53.1000;0.5560;0.9757;
53.4000;0.5478;0.9567;
53.7000;0.5543;0.9638;
54.0000;0.5535;0.9686;
54.3000;0.5519;0.9638;
54.6000;0.5551;0.9638;
54.9000;0.5560;0.9780;
55.2000;0.5495;0.9638;
55.5000;0.5551;0.9852;
55.8000;0.5551;0.9828;
56.1000;0.5543;0.9757;
56.4000;0.5551;0.9804;
56.7000;0.5568;0.9804;
57.0000;0.5568;0.9828;
57.3000;0.5511;0.9804;
57.6000;0.5551;0.9875;
57.9000;0.5560;0.9875;
58.2000;0.5551;0.9686;
58.5000;0.5584;0.9662;
58.8000;0.5560;0.9544;
59.1000;0.5543;0.9496;
59.4000;0.5576;0.9567;
59.7000;0.5600;0.9709;
60.0000;0.5625;0.9804;
60.3000;0.5608;0.9804;
60.6000;0.5584;0.9757;
60.9000;0.5592;0.9875;
61.2000;0.5535;0.9757;
61.5000;0.5551;0.9780;
61.8000;0.5600;0.9780;
62.1000;0.5568;0.9757;
62.4000;0.5584;0.9852;
62.7000;0.5560;0.9780;
63.0000;0.5495;0.9544;
63.3000;0.5568;0.9662;
63.6000;0.5551;0.9591;
63.9000;0.5503;0.9402;
64.2000;0.5592;0.9615;
64.5000;0.5576;0.9709;
64.8000;0.5568;0.9591;
65.1000;0.5584;0.9686;
65.4000;0.5576;0.9638;
65.7000;0.5584;0.9757;
66.0000;0.5576;0.9757;
66.3000;0.5600;0.9780;
66.6000;0.5576;0.9638;
66.9000;0.5584;0.9662;
67.2000;0.5674;0.9899;
67.5000;0.5543;0.9567;
67.8000;0.5576;0.9662;
68.1000;0.5576;0.9615;
68.4000;0.5584;0.9709;
68.7000;0.5551;0.9780;
69.0000;0.5560;0.9757;
69.3000;0.5600;0.9899;
69.6000;0.5543;0.9709;
69.9000;0.5592;0.9828;
70.2000;0.5617;0.9828;
70.5000;0.5560;0.9733;
70.8000;0.5576;0.9733;
71.1000;0.5633;0.9899;
71.4000;0.5592;0.9899;
71.7000;0.5592;0.9923;
72.0000;0.5584;0.9875;
72.3000;0.5682;1.0017;
72.6000;0.5576;0.9875;
72.9000;0.5568;0.9804;
73.2000;0.5543;0.9828;
73.5000;0.5576;0.9852;
73.8000;0.5592;0.9852;
74.1000;0.5608;0.9804;
74.4000;0.5592;0.9780;
74.7000;0.5551;0.9686;
75.0000;0.5495;0.9591;
75.3000;0.5584;0.9804;
75.6000;0.5592;0.9828;
75.9000;0.5568;0.9733;
76.2000;0.5584;0.9757;
76.5000;0.5576;0.9662;
76.8000;0.5592;0.9638;
77.1000;0.5551;0.9615;
77.4000;0.5600;0.9733;
77.7000;0.5633;0.9828;
78.0000;0.5592;0.9709;
78.3000;0.5600;0.9804;
78.6000;0.5600;0.9852;
78.9000;0.5584;0.9733;
79.2000;0.5592;0.9733;
79.5000;0.5592;0.9709;
79.8000;0.5592;0.9686;
80.1000;0.5584;0.9780;
80.4000;0.5576;0.9780;
80.7000;0.5657;0.9970;
81.0000;0.5600;0.9828;
81.3000;0.5608;0.9875;
81.6000;0.5617;0.9994;
81.9000;0.5592;0.9899;
82.2000;0.5600;0.9970;
82.5000;0.5633;1.0017;
82.8000;0.5584;0.9828;
83.1000;0.5592;0.9757;
83.4000;0.5625;0.9804;
83.7000;0.5625;0.9828;
84.0000;0.5608;0.9709;
84.3000;0.5657;0.9875;
84.6000;0.5568;0.9544;
84.9000;0.5608;0.9638;
85.2000;0.5535;0.9567;
85.5000;0.5698;1.0017;
85.8000;0.5617;0.9780;
86.1000;0.5592;0.9828;
86.4000;0.5608;0.9923;
86.7000;0.5592;0.9970;
87.0000;0.5592;0.9899;
87.3000;0.5592;0.9946;
87.6000;0.5592;0.9946;
87.9000;0.5600;0.9923;
88.2000;0.5551;0.9804;
88.5000;0.5641;0.9970;
88.8000;0.5592;0.9757;
89.1000;0.5608;0.9780;
89.4000;0.5519;0.9567;
89.7000;0.5592;0.9733;
90.0000;0.5600;0.9828;
90.3000;0.5617;0.9852;
90.6000;0.5584;0.9757;
90.9000;0.5592;0.9852;
91.2000;0.5600;0.9828;
91.5000;0.5617;0.9757;
91.8000;0.5641;0.9875;
92.1000;0.5617;0.9875;
92.4000;0.5608;0.9923;
92.7000;0.5633;1.0041;
93.0000;0.5600;1.0041;
93.3000;0.5600;1.0041;
93.6000;0.5608;1.0159;
93.9000;0.5600;1.0088;
94.2000;0.5633;1.0112;
94.5000;0.5600;1.0065;
94.8000;0.5568;0.9970;
95.1000;0.5617;1.0041;
95.4000;0.5592;1.0088;
95.7000;0.5568;1.0041;
96.0000;0.5608;1.0159;
96.3000;0.5617;1.0183;
96.6000;0.5625;1.0159;
96.9000;0.5600;0.9994;
97.2000;0.5608;0.9923;
97.5000;0.5600;0.9923;
97.8000;0.5527;0.9733;
98.1000;0.5600;0.9875;
98.4000;0.5543;0.9686;
98.7000;0.5560;0.9709;
99.0000;0.5617;0.9780;
99.3000;0.5617;0.9875;
99.6000;0.5584;0.9780;
99.9000;0.5592;0.9804;
100.2000;0.5617;0.9780;
100.5000;0.5625;0.9899;
100.8000;0.5584;0.9828;
101.1000;0.5576;0.9733;
101.4000;0.5592;0.9757;
101.7000;0.5584;0.9757;
102.0000;0.5608;0.9828;
102.3000;0.5576;0.9733;
102.6000;0.5592;0.9757;
102.9000;0.5608;0.9780;
103.2000;0.5608;0.9686;
103.5000;0.5584;0.9567;
103.8000;0.5600;0.9520;
104.1000;0.5576;0.9425;
104.4000;0.5600;0.9591;
104.7000;0.5592;0.9591;
105.0000;0.5617;0.9638;
105.3000;0.5633;0.9733;
105.6000;0.5714;1.0041;
105.9000;0.5608;0.9662;
106.2000;0.5625;0.9591;
106.5000;0.5657;0.9567;
106.8000;0.5600;0.9425;
107.1000;0.5625;0.9496;
107.4000;0.5608;0.9449;
107.7000;0.5600;0.9449;
108.0000;0.5731;0.9923;
108.3000;0.5584;0.9591;
108.6000;0.5625;0.9686;
108.9000;0.5600;0.9638;
109.2000;0.5617;0.9733;
109.5000;0.5608;0.9899;
109.8000;0.5560;0.9780;
110.1000;0.5625;0.9899;
110.4000;0.5649;0.9828;
110.7000;0.5625;0.9709;
111.0000;0.5592;0.9686;
111.3000;0.5584;0.9709;
111.6000;0.5617;0.9757;
111.9000;0.5592;0.9709;
112.2000;0.5608;0.9828;
112.5000;0.5600;0.9780;
112.8000;0.5633;0.9804;
113.1000;0.5625;0.9733;
113.4000;0.5608;0.9757;
113.7000;0.5600;0.9804;
114.0000;0.5617;0.9828;
114.3000;0.5600;0.9804;
114.6000;0.5617;0.9852;
114.9000;0.5633;0.9875;
115.2000;0.5617;0.9828;
115.5000;0.5608;0.9804;
115.8000;0.5584;0.9757;
116.1000;0.5568;0.9709;
116.4000;0.5600;0.9757;
116.7000;0.5600;0.9804;
117.0000;0.5608;0.9828;
117.3000;0.5617;0.9828;
117.6000;0.5608;0.9780;
117.9000;0.5568;0.9662;
118.2000;0.5625;0.9804;
118.5000;0.5608;0.9828;
118.8000;0.5592;0.9804;
119.1000;0.5617;0.9875;
119.4000;0.5608;0.9804;
119.7000;0.5706;0.9946;
120.0000;0.5608;0.9875;
120.3000;0.5617;0.9923;
120.6000;0.5617;0.9946;
120.9000;0.5568;0.9804;
121.2000;0.5568;0.9709;
121.5000;0.5617;0.9875;
121.8000;0.5503;0.9496;
122.1000;0.5617;0.9686;
122.4000;0.5608;0.9662;
122.7000;0.5584;0.9662;
123.0000;0.5600;0.9709;
123.3000;0.5625;0.9804;
123.6000;0.5600;0.9804;
123.9000;0.5665;0.9946;
124.2000;0.5625;0.9899;
124.5000;0.5608;0.9757;
124.8000;0.5641;0.9828;
125.1000;0.5625;0.9780;
125.4000;0.5584;0.9780;
125.7000;0.5600;0.9780;
126.0000;0.5600;0.9757;
126.3000;0.5625;0.9780;
126.6000;0.5600;0.9757;
126.9000;0.5608;0.9757;
127.2000;0.5600;0.9780;
127.5000;0.5600;0.9875;
127.8000;0.5592;0.9804;
128.1000;0.5608;0.9780;
128.4000;0.5633;0.9852;
128.7000;0.5600;0.9804;
129.0000;0.5600;0.9757;
129.3000;0.5617;0.9804;
129.6000;0.5617;0.9875;
129.9000;0.5551;0.9780;
130.2000;0.5608;0.9804;
130.5000;0.5535;0.9638;
130.8000;0.5617;0.9852;
131.1000;0.5592;0.9852;
131.4000;0.5584;0.9780;
131.7000;0.5584;0.9709;
132.0000;0.5600;0.9709;
132.3000;0.5608;0.9780;
132.6000;0.5608;0.9780;
132.9000;0.5625;0.9662;
133.2000;0.5617;0.9662;
133.5000;0.5641;0.9804;
133.8000;0.5608;0.9686;
134.1000;0.5600;0.9686;
134.4000;0.5682;0.9852;
134.7000;0.5592;0.9662;
135.0000;0.5608;0.9733;
135.3000;0.5608;0.9686;
135.6000;0.5592;0.9757;
135.9000;0.5600;0.9709;
136.2000;0.5600;0.9686;
136.5000;0.5568;0.9544;
136.8000;0.5600;0.9638;
137.1000;0.5617;0.9591;
137.4000;0.5584;0.9520;
137.7000;0.5608;0.9544;
138.0000;0.5641;0.9591;
138.3000;0.5608;0.9425;
138.6000;0.5608;0.9520;
138.9000;0.5665;0.9567;
139.2000;0.5608;0.9425;
139.5000;0.5608;0.9591;
139.8000;0.5608;0.9686;
140.1000;0.5608;0.9733;
140.4000;0.5600;0.9733;
140.7000;0.5617;0.9757;
141.0000;0.5608;0.9686;
141.3000;0.5592;0.9780;
141.6000;0.5592;0.9757;
141.9000;0.5608;0.9686;
142.2000;0.5608;0.9567;
142.5000;0.5608;0.9638;
142.8000;0.5617;0.9709;
143.1000;0.5608;0.9638;
143.4000;0.5608;0.9709;
143.7000;0.5657;0.9899;
144.0000;0.5617;0.9828;
144.3000;0.5600;0.9828;
144.6000;0.5617;0.9875;
144.9000;0.5633;0.9828;
145.2000;0.5560;0.9662;
145.5000;0.5625;0.9780;
145.8000;0.5617;0.9804;
146.1000;0.5617;0.9828;
146.4000;0.5592;0.9852;
146.7000;0.5608;0.9899;
147.0000;0.5608;0.9923;
147.3000;0.5560;0.9733;
147.6000;0.5617;0.9828;
147.9000;0.5625;0.9804;
148.2000;0.5568;0.9757;
148.5000;0.5600;0.9828;
148.8000;0.5625;0.9780;
149.1000;0.5625;0.9875;
149.4000;0.5633;1.0041;
149.7000;0.5608;0.9994;
150.0000;0.5617;0.9946;
150.3000;0.5608;0.9899;
150.6000;0.5608;0.9804;
150.9000;0.5608;0.9804;
151.2000;0.5682;1.0041;
151.5000;0.5617;0.9875;
151.8000;0.5731;1.0017;
152.1000;0.5608;0.9709;
152.4000;0.5592;0.9686;
152.7000;0.5608;0.9733;
153.0000;0.5608;0.9686;
153.3000;0.5600;0.9638;
153.6000;0.5608;0.9638;
153.9000;0.5560;0.9686;
154.2000;0.5608;0.9828;
154.5000;0.5535;0.9686;
154.8000;0.5608;0.9875;
155.1000;0.5617;0.9875;
155.4000;0.5592;0.9852;
155.7000;0.5608;0.9970;
156.0000;0.5576;0.9875;
156.3000;0.5608;0.9923;
156.6000;0.5584;0.9828;
156.9000;0.5535;0.9686;
157.2000;0.5584;0.9757;
157.5000;0.5584;0.9852;
157.8000;0.5608;0.9923;
158.1000;0.5568;0.9828;
158.4000;0.5649;0.9970;
158.7000;0.5576;0.9828;
159.0000;0.5576;0.9828;
159.3000;0.5608;0.9899;
159.6000;0.5600;0.9946;
159.9000;0.5576;0.9899;
160.2000;0.5608;0.9899;
160.5000;0.5608;0.9875;
160.8000;0.5608;0.9804;
161.1000;0.5600;0.9780;
161.4000;0.5600;0.9780;
161.7000;0.5617;0.9828;
162.0000;0.5600;0.9780;
162.3000;0.5600;0.9828;
162.6000;0.5608;0.9923;
162.9000;0.5617;0.9828;
163.2000;0.5641;0.9946;
163.5000;0.5641;0.9923;
163.8000;0.5633;0.9923;
164.1000;0.5625;0.9970;
164.4000;0.5617;0.9946;
164.7000;0.5617;1.0041;
165.0000;0.5617;1.0088;
165.3000;0.5625;1.0088;
165.6000;0.5617;1.0041;
165.9000;0.5625;1.0088;
166.2000;0.5641;1.0041;
166.5000;0.5625;0.9923;
166.8000;0.5617;0.9970;
167.1000;0.5600;0.9946;
167.4000;0.5617;1.0041;
167.7000;0.5560;0.9970;
168.0000;0.5592;0.9970;
168.3000;0.5592;0.9899;
168.6000;0.5600;0.9852;
168.9000;0.5592;0.9852;
169.2000;0.5592;0.9923;
169.5000;0.5633;0.9970;
169.8000;0.5600;0.9946;
170.1000;0.5617;0.9970;
170.4000;0.5617;0.9970;
170.7000;0.5633;1.0041;
171.0000;0.5551;0.9899;
171.3000;0.5568;0.9875;
171.6000;0.5600;0.9923;
171.9000;0.5617;0.9828;
172.2000;0.5617;0.9804;
172.5000;0.5600;0.9780;
172.8000;0.5633;0.9757;
173.1000;0.5568;0.9544;
173.4000;0.5625;0.9615;
173.7000;0.5633;0.9686;
174.0000;0.5592;0.9615;
174.3000;0.5665;0.9828;
174.6000;0.5592;0.9638;
174.9000;0.5608;0.9780;
175.2000;0.5625;0.9899;
175.5000;0.5625;0.9780;
175.8000;0.5600;0.9757;
176.1000;0.5608;0.9828;
176.4000;0.5568;0.9709;
176.7000;0.5617;0.9804;
177.0000;0.5608;0.9733;
177.3000;0.5617;0.9804;
177.6000;0.5592;0.9662;
177.9000;0.5543;0.9496;
178.2000;0.5617;0.9662;
178.5000;0.5592;0.9615;
178.8000;0.5617;0.9709;
179.1000;0.5608;0.9662;
179.4000;0.5600;0.9638;
179.7000;0.5600;0.9591;
180.0000;0.5617;0.9591;
180.3000;0.5617;0.9686;
180.6000;0.5608;0.9686;
180.9000;0.5608;0.9757;
181.2000;0.5600;0.9828;
181.5000;0.5600;0.9828;
181.8000;0.5608;0.9709;
182.1000;0.5608;0.9638;
182.4000;0.5617;0.9709;
182.7000;0.5600;0.9780;
183.0000;0.5617;0.9804;
183.3000;0.5608;0.9828;
183.6000;0.5592;0.9757;
183.9000;0.5625;0.9804;
184.2000;0.5617;0.9757;
184.5000;0.5600;0.9709;
184.8000;0.5592;0.9780;
185.1000;0.5568;0.9757;
185.4000;0.5617;0.9923;
185.7000;0.5633;1.0017;
186.0000;0.5608;0.9970;
186.3000;0.5617;0.9946;
186.6000;0.5600;0.9994;
186.9000;0.5617;1.0041;
187.2000;0.5657;1.0088;
187.5000;0.5617;0.9970;
187.8000;0.5519;0.9780;
188.1000;0.5617;0.9946;
188.4000;0.5568;0.9780;
188.7000;0.5584;0.9804;
189.0000;0.5600;0.9852;
189.3000;0.5608;0.9994;
189.6000;0.5625;1.0088;
189.9000;0.5600;1.0065;
190.2000;0.5551;0.9804;
190.5000;0.5608;0.9946;
190.8000;0.5568;0.9852;
191.1000;0.5600;0.9899;
191.4000;0.5608;0.9875;
191.7000;0.5617;0.9899;
192.0000;0.5608;0.9923;
192.3000;0.5674;1.0065;
192.6000;0.5608;0.9970;
192.9000;0.5682;1.0017;
193.2000;0.5592;0.9757;
193.5000;0.5600;0.9804;
193.8000;0.5592;0.9757;
194.1000;0.5625;0.9852;
194.4000;0.5608;0.9757;
194.7000;0.5625;0.9662;
195.0000;0.5633;0.9733;
195.3000;0.5568;0.9520;
195.6000;0.5617;0.9638;
195.9000;0.5625;0.9686;
196.2000;0.5617;0.9780;
196.5000;0.5617;0.9733;
196.8000;0.5608;0.9733;
197.1000;0.5600;0.9733;
197.4000;0.5608;0.9733;
197.7000;0.5641;0.9875;
198.0000;0.5600;0.9757;
198.3000;0.5568;0.9709;
198.6000;0.5608;0.9733;
198.9000;0.5633;0.9828;
199.2000;0.5600;0.9780;
199.5000;0.5665;0.9828;
199.8000;0.5617;0.9686;
200.1000;0.5608;0.9615;
200.4000;0.5608;0.9615;
200.7000;0.5617;0.9709;
201.0000;0.5608;0.9686;
201.3000;0.5608;0.9638;
201.6000;0.5625;0.9638;
201.9000;0.5617;0.9638;
202.2000;0.5633;0.9686;
202.5000;0.5649;0.9733;
202.8000;0.5608;0.9638;
203.1000;0.5608;0.9638;
203.4000;0.5608;0.9780;
203.7000;0.5551;0.9591;
204.0000;0.5665;0.9828;
204.3000;0.5608;0.9591;
204.6000;0.5576;0.9544;
204.9000;0.5600;0.9615;
205.2000;0.5617;0.9662;
205.5000;0.5625;0.9662;
205.8000;0.5608;0.9591;
206.1000;0.5608;0.9615;
206.4000;0.5625;0.9544;
206.7000;0.5600;0.9496;
207.0000;0.5592;0.9473;
207.3000;0.5608;0.9520;
207.6000;0.5625;0.9496;
207.9000;0.5608;0.9496;
208.2000;0.5600;0.9473;
208.5000;0.5641;0.9662;
208.8000;0.5617;0.9544;
209.1000;0.5617;0.9591;
209.4000;0.5608;0.9615;
209.7000;0.5633;0.9638;
210.0000;0.5682;0.9899;
210.3000;0.5657;0.9875;
210.6000;0.5641;0.9780;
210.9000;0.5657;0.9828;
211.2000;0.5617;0.9686;
211.5000;0.5617;0.9638;
211.8000;0.5617;0.9591;
212.1000;0.5641;0.9638;
212.4000;0.5633;0.9615;
212.7000;0.5625;0.9567;
213.0000;0.5633;0.9591;
213.3000;0.5657;0.9686;
213.6000;0.5617;0.9638;
213.9000;0.5617;0.9638;
214.2000;0.5600;0.9520;
214.5000;0.5608;0.9567;
214.8000;0.5625;0.9520;
215.1000;0.5617;0.9520;
215.4000;0.5625;0.9662;
215.7000;0.5600;0.9591;
216.0000;0.5584;0.9544;
216.3000;0.5600;0.9638;
216.6000;0.5608;0.9686;
216.9000;0.5617;0.9686;
217.2000;0.5576;0.9496;
217.5000;0.5608;0.9520;
217.8000;0.5617;0.9520;
218.1000;0.5617;0.9520;
218.4000;0.5608;0.9520;
218.7000;0.5600;0.9591;
219.0000;0.5617;0.9567;
219.3000;0.5535;0.9402;
219.6000;0.5633;0.9615;
219.9000;0.5617;0.9615;
220.2000;0.5608;0.9615;
220.5000;0.5625;0.9520;
220.8000;0.5617;0.9544;
221.1000;0.5617;0.9496;
221.4000;0.5576;0.9473;
221.7000;0.5625;0.9662;
222.0000;0.5633;0.9686;
222.3000;0.5592;0.9615;
222.6000;0.5608;0.9662;
222.9000;0.5625;0.9638;
223.2000;0.5625;0.9638;
223.5000;0.5633;0.9709;
223.8000;0.5617;0.9733;
224.1000;0.5633;0.9686;
224.4000;0.5617;0.9662;
224.7000;0.5584;0.9662;
225.0000;0.5600;0.9686;
225.3000;0.5600;0.9686;
225.6000;0.5608;0.9733;
225.9000;0.5674;0.9923;
226.2000;0.5608;0.9686;
226.5000;0.5592;0.9709;
226.8000;0.5617;0.9662;
227.1000;0.5625;0.9615;
227.4000;0.5617;0.9686;
227.7000;0.5608;0.9591;
228.0000;0.5608;0.9567;
228.3000;0.5592;0.9520;
228.6000;0.5608;0.9638;
228.9000;0.5617;0.9638;
229.2000;0.5617;0.9544;
229.5000;0.5617;0.9520;
229.8000;0.5608;0.9567;
230.1000;0.5608;0.9544;
230.4000;0.5600;0.9520;
230.7000;0.5600;0.9591;
231.0000;0.5625;0.9638;
231.3000;0.5617;0.9804;
231.6000;0.5600;0.9899;
231.9000;0.5625;0.9923;
232.2000;0.5608;0.9828;
232.5000;0.5608;0.9875;
232.8000;0.5584;0.9899;
233.1000;0.5600;0.9946;
233.4000;0.5592;0.9899;
233.7000;0.5633;1.0017;
234.0000;0.5608;0.9946;
234.3000;0.5625;0.9899;
234.6000;0.5600;0.9757;
234.9000;0.5600;0.9757;
235.2000;0.5625;0.9804;
235.5000;0.5576;0.9544;
235.8000;0.5625;0.9638;
236.1000;0.5617;0.9591;
236.4000;0.5625;0.9520;
236.7000;0.5657;0.9733;
237.0000;0.5617;0.9662;
237.3000;0.5625;0.9686;
237.6000;0.5625;0.9804;
237.9000;0.5633;0.9780;
238.2000;0.5633;0.9804;
238.5000;0.5617;0.9757;
238.8000;0.5543;0.9567;
239.1000;0.5625;0.9733;
239.4000;0.5649;0.9757;
239.7000;0.5665;0.9757;
240.0000;0.5617;0.9591;
240.3000;0.5617;0.9544;
240.6000;0.5625;0.9638;
240.9000;0.5625;0.9780;
241.2000;0.5617;0.9757;
241.5000;0.5617;0.9662;
241.8000;0.5617;0.9638;
242.1000;0.5633;0.9638;
242.4000;0.5625;0.9638;
242.7000;0.5617;0.9662;
243.0000;0.5617;0.9662;
243.3000;0.5641;0.9733;
243.6000;0.5584;0.9686;
243.9000;0.5592;0.9757;
244.2000;0.5608;0.9733;
244.5000;0.5608;0.9733;
244.8000;0.5608;0.9733;
245.1000;0.5617;0.9733;
245.4000;0.5649;0.9733;
245.7000;0.5617;0.9615;
246.0000;0.5649;0.9662;
246.3000;0.5600;0.9591;
246.6000;0.5625;0.9615;
246.9000;0.5682;0.9662;
247.2000;0.5617;0.9473;
247.5000;0.5633;0.9544;
247.8000;0.5584;0.9449;
248.1000;0.5617;0.9473;
248.4000;0.5608;0.9402;
248.7000;0.5608;0.9402;
249.0000;0.5608;0.9425;
249.3000;0.5617;0.9520;
249.6000;0.5625;0.9662;
249.9000;0.5625;0.9662;
250.2000;0.5608;0.9591;
250.5000;0.5592;0.9520;
250.8000;0.5560;0.9402;
251.1000;0.5617;0.9544;
251.4000;0.5592;0.9591;
251.7000;0.5608;0.9615;
252.0000;0.5600;0.9638;
252.3000;0.5608;0.9804;
252.6000;0.5617;0.9804;
252.9000;0.5608;0.9875;
253.2000;0.5608;0.9709;
253.5000;0.5617;0.9780;
253.8000;0.5608;0.9757;
254.1000;0.5608;0.9804;
254.4000;0.5657;0.9899;
254.7000;0.5600;0.9686;
255.0000;0.5608;0.9733;
255.3000;0.5608;0.9804;
255.6000;0.5600;0.9733;
255.9000;0.5608;0.9780;
256.2000;0.5633;0.9780;
256.5000;0.5600;0.9733;
256.8000;0.5600;0.9780;
257.1000;0.5608;0.9899;
257.4000;0.5576;0.9733;
257.7000;0.5617;0.9757;
258.0000;0.5617;0.9804;
258.3000;0.5576;0.9757;
258.6000;0.5625;0.9923;
258.9000;0.5608;0.9852;
259.2000;0.5731;0.9994;
259.5000;0.5608;0.9780;
259.8000;0.5633;0.9780;
260.1000;0.5617;0.9804;
260.4000;0.5617;0.9875;
260.7000;0.5617;0.9804;
261.0000;0.5625;0.9804;
261.3000;0.5584;0.9780;
261.6000;0.5617;0.9804;
261.9000;0.5625;0.9852;
262.2000;0.5617;0.9804;
262.5000;0.5633;0.9804;
262.8000;0.5625;0.9804;
263.1000;0.5600;0.9686;
263.4000;0.5551;0.9591;
263.7000;0.5608;0.9662;
264.0000;0.5625;0.9638;
264.3000;0.5649;0.9733;
264.6000;0.5617;0.9709;
264.9000;0.5608;0.9780;
265.2000;0.5633;0.9804;
265.5000;0.5665;0.9875;
265.8000;0.5617;0.9804;
266.1000;0.5657;0.9994;
266.4000;0.5617;0.9899;
266.7000;0.5608;0.9852;
267.0000;0.5600;0.9899;
267.3000;0.5617;0.9970;
267.6000;0.5617;0.9923;
267.9000;0.5617;0.9804;
268.2000;0.5608;0.9804;
268.5000;0.5608;0.9852;
268.8000;0.5617;0.9899;
269.1000;0.5617;0.9852;
269.4000;0.5649;0.9875;
269.7000;0.5600;0.9733;
270.0000;0.5649;0.9899;
270.3000;0.5608;0.9828;
270.6000;0.5625;0.9828;
270.9000;0.5649;0.9804;
271.2000;0.5600;0.9686;
271.5000;0.5625;0.9686;
271.8000;0.5617;0.9733;
272.1000;0.5617;0.9828;
272.4000;0.5560;0.9686;
272.7000;0.5625;0.9852;
273.0000;0.5657;0.9946;
273.3000;0.5617;0.9828;
273.6000;0.5633;0.9875;
273.9000;0.5608;0.9780;
274.2000;0.5633;0.9804;
274.5000;0.5584;0.9615;
274.8000;0.5568;0.9544;
275.1000;0.5665;0.9757;
275.4000;0.5625;0.9757;
275.7000;0.5608;0.9709;
276.0000;0.5608;0.9757;
276.3000;0.5625;0.9828;
276.6000;0.5608;0.9804;
276.9000;0.5617;0.9804;
277.2000;0.5608;0.9780;
277.5000;0.5625;0.9780;
277.8000;0.5617;0.9757;
278.1000;0.5625;0.9733;
278.4000;0.5633;0.9804;
278.7000;0.5617;0.9804;
279.0000;0.5633;0.9828;
279.3000;0.5600;0.9875;
279.6000;0.5617;0.9875;
279.9000;0.5617;0.9828;
280.2000;0.5649;1.0041;
280.5000;0.5633;1.0041;
280.8000;0.5617;1.0017;
281.1000;0.5600;0.9899;
281.4000;0.5690;0.9994;
281.7000;0.5617;0.9828;
282.0000;0.5625;0.9757;
282.3000;0.5617;0.9828;
282.6000;0.5608;0.9828;
282.9000;0.5592;0.9780;
283.2000;0.5649;0.9852;
283.5000;0.5600;0.9757;
283.8000;0.5592;0.9686;
284.1000;0.5584;0.9638;
284.4000;0.5617;0.9852;
284.7000;0.5568;0.9709;
285.0000;0.5584;0.9638;
285.3000;0.5576;0.9686;
285.6000;0.5617;0.9804;
285.9000;0.5617;0.9852;
286.2000;0.5592;0.9828;
286.5000;0.5617;0.9923;
286.8000;0.5617;0.9899;
287.1000;0.5608;0.9804;
287.4000;0.5608;0.9852;
287.7000;0.5592;0.9852;
288.0000;0.5608;0.9970;
288.3000;0.5576;0.9852;
288.6000;0.5608;0.9923;
288.9000;0.5600;0.9875;
289.2000;0.5543;0.9662;
289.5000;0.5625;0.9923;
289.8000;0.5625;0.9875;
290.1000;0.5608;0.9946;
290.4000;0.5608;1.0017;
290.7000;0.5633;1.0017;
291.0000;0.5633;0.9946;
291.3000;0.5608;0.9946;
291.6000;0.5625;0.9875;
291.9000;0.5625;0.9946;
292.2000;0.5568;0.9852;
292.5000;0.5617;0.9875;
292.8000;0.5633;0.9828;
293.1000;0.5625;0.9828;
293.4000;0.5633;0.9804;
293.7000;0.5551;0.9615;
294.0000;0.5592;0.9780;
294.3000;0.5706;1.0112;
294.6000;0.5665;0.9970;
294.9000;0.5608;0.9757;
295.2000;0.5600;0.9828;
295.5000;0.5551;0.9709;
295.8000;0.5617;0.9852;
296.1000;0.5633;0.9852;
296.4000;0.5576;0.9757;
296.7000;0.5641;0.9970;
297.0000;0.5649;0.9923;
297.3000;0.5625;0.9828;
297.6000;0.5674;0.9946;
297.9000;0.5584;0.9804;
298.2000;0.5592;0.9923;
298.5000;0.5617;1.0017;
298.8000;0.5617;1.0065;
299.1000;0.5649;1.0136;
299.4000;0.5600;1.0041;
299.7000;0.5625;1.0088;
300.0000;0.5608;1.0112;
300.3000;0.5617;1.0136;
300.6000;0.5625;1.0112;
300.9000;0.5625;0.9994;
301.2000;0.5600;0.9946;
301.5000;0.5560;0.9852;
301.8000;0.5633;0.9994;
302.1000;0.5633;0.9946;
302.4000;0.5592;0.9780;
302.7000;0.5608;0.9899;
303.0000;0.5633;0.9923;
303.3000;0.5617;0.9899;
303.6000;0.5625;0.9828;
303.9000;0.5625;0.9757;
304.2000;0.5617;0.9852;
304.5000;0.5608;0.9946;
304.8000;0.5617;0.9946;
305.1000;0.5625;0.9875;
305.4000;0.5608;0.9780;
305.7000;0.5608;0.9852;
306.0000;0.5633;0.9923;
306.3000;0.5617;0.9946;
306.6000;0.5608;0.9875;
306.9000;0.5617;0.9804;
307.2000;0.5633;0.9852;
307.5000;0.5641;0.9852;
307.8000;0.5641;0.9875;
308.1000;0.5625;0.9899;
308.4000;0.5576;0.9828;
308.7000;0.5633;0.9970;
309.0000;0.5690;1.0065;
309.3000;0.5617;0.9828;
309.6000;0.5633;0.9946;
309.9000;0.5568;0.9852;
310.2000;0.5649;0.9970;
310.5000;0.5617;0.9875;
310.8000;0.5665;1.0088;
311.1000;0.5625;0.9875;
311.4000;0.5592;0.9828;
311.7000;0.5617;0.9828;
312.0000;0.5617;0.9899;
312.3000;0.5608;0.9875;
312.6000;0.5592;0.9899;
312.9000;0.5625;0.9946;
313.2000;0.5625;0.9875;
313.5000;0.5657;0.9970;
313.8000;0.5649;0.9994;
314.1000;0.5592;0.9970;
314.4000;0.5617;0.9994;
314.7000;0.5641;1.0041;
315.0000;0.5617;1.0041;
315.3000;0.5625;1.0041;
315.6000;0.5633;0.9899;
315.9000;0.5617;0.9923;
316.2000;0.5625;0.9946;
316.5000;0.5576;0.9852;
316.8000;0.5608;0.9923;
317.1000;0.5600;0.9875;
317.4000;0.5560;0.9804;
317.7000;0.5608;0.9804;
318.0000;0.5625;0.9828;
318.3000;0.5665;0.9923;
318.6000;0.5543;0.9662;
318.9000;0.5608;0.9852;
319.2000;0.5633;0.9899;
319.5000;0.5617;0.9757;
319.8000;0.5617;0.9733;
320.1000;0.5633;0.9686;
320.4000;0.5617;0.9757;
320.7000;0.5608;0.9828;
321.0000;0.5625;0.9804;
321.3000;0.5617;0.9804;
321.6000;0.5592;0.9757;
321.9000;0.5641;0.9828;
322.2000;0.5617;0.9757;
322.5000;0.5600;0.9757;
322.8000;0.5608;0.9757;
323.1000;0.5600;0.9662;
323.4000;0.5617;0.9686;
323.7000;0.5608;0.9638;
324.0000;0.5592;0.9638;
324.3000;0.5617;0.9686;
324.6000;0.5584;0.9615;
324.9000;0.5649;0.9757;
325.2000;0.5641;0.9709;
325.5000;0.5608;0.9686;
325.8000;0.5600;0.9662;
326.1000;0.5617;0.9757;
326.4000;0.5617;0.9709;
326.7000;0.5608;0.9662;
327.0000;0.5617;0.9662;
327.3000;0.5649;0.9615;
327.6000;0.5625;0.9686;
327.9000;0.5592;0.9544;
328.2000;0.5608;0.9615;
328.5000;0.5617;0.9733;
328.8000;0.5657;0.9852;
329.1000;0.5625;0.9804;
329.4000;0.5633;0.9733;
329.7000;0.5608;0.9709;
330.0000;0.5625;0.9780;
330.3000;0.5560;0.9733;
330.6000;0.5617;0.9923;
330.9000;0.5600;0.9804;
331.2000;0.5625;0.9828;
331.5000;0.5608;0.9757;
331.8000;0.5617;0.9757;
332.1000;0.5608;0.9709;
332.4000;0.5617;0.9757;
332.7000;0.5633;0.9875;
333.0000;0.5625;0.9875;
333.3000;0.5722;1.0041;
333.6000;0.5625;0.9709;
333.9000;0.5617;0.9852;
334.2000;0.5633;0.9875;
334.5000;0.5641;0.9804;
334.8000;0.5625;0.9875;
335.1000;0.5625;0.9875;
335.4000;0.5633;0.9828;
335.7000;0.5617;0.9733;
336.0000;0.5625;0.9780;
336.3000;0.5625;0.9804;
336.6000;0.5592;0.9733;
336.9000;0.5633;0.9828;
337.2000;0.5600;0.9686;
337.5000;0.5617;0.9709;
337.8000;0.5600;0.9686;
338.1000;0.5625;0.9757;
338.4000;0.5617;0.9709;
338.7000;0.5633;0.9709;
339.0000;0.5584;0.9733;
339.3000;0.5698;0.9923;
339.6000;0.5608;0.9733;
339.9000;0.5617;0.9757;
340.2000;0.5617;0.9709;
340.5000;0.5617;0.9709;
340.8000;0.5608;0.9733;
341.1000;0.5698;0.9923;
341.4000;0.5625;0.9709;
341.7000;0.5649;0.9804;
342.0000;0.5633;0.9733;
342.3000;0.5617;0.9780;
342.6000;0.5617;0.9828;
342.9000;0.5633;0.9804;
343.2000;0.5625;0.9757;
343.5000;0.5608;0.9709;
343.8000;0.5600;0.9686;
344.1000;0.5617;0.9686;
344.4000;0.5633;0.9662;
344.7000;0.5625;0.9662;
345.0000;0.5633;0.9662;
345.3000;0.5608;0.9591;
345.6000;0.5625;0.9638;
345.9000;0.5617;0.9686;
346.2000;0.5617;0.9709;
346.5000;0.5625;0.9852;
346.8000;0.5608;0.9899;
347.1000;0.5600;0.9970;
347.4000;0.5657;1.0017;
347.7000;0.5608;0.9662;
348.0000;0.5608;0.9638;
348.3000;0.5625;0.9662;
348.6000;0.5617;0.9615;
348.9000;0.5617;0.9686;
349.2000;0.5633;0.9709;
349.5000;0.5657;0.9686;
349.8000;0.5600;0.9591;
350.1000;0.5592;0.9615;
350.4000;0.5584;0.9686;
350.7000;0.5600;0.9757;
351.0000;0.5617;0.9709;
351.3000;0.5633;0.9780;
351.6000;0.5584;0.9638;
351.9000;0.5633;0.9686;
352.2000;0.5633;0.9662;
352.5000;0.5608;0.9520;
352.8000;0.5600;0.9544;
353.1000;0.5617;0.9638;
353.4000;0.5608;0.9662;
353.7000;0.5584;0.9591;
354.0000;0.5600;0.9662;
354.3000;0.5617;0.9733;
354.6000;0.5617;0.9733;
354.9000;0.5731;0.9970;
355.2000;0.5633;0.9591;
355.5000;0.5625;0.9567;
355.8000;0.5633;0.9686;
356.1000;0.5625;0.9686;
356.4000;0.5600;0.9567;
356.7000;0.5625;0.9638;
357.0000;0.5625;0.9591;
357.3000;0.5617;0.9496;
357.6000;0.5617;0.9496;
357.9000;0.5592;0.9449;
358.2000;0.5608;0.9473;
358.5000;0.5617;0.9567;
358.8000;0.5657;0.9733;
359.1000;0.5625;0.9733;
359.4000;0.5608;0.9662;
359.7000;0.5617;0.9591;
360.0000;0.5608;0.9615;
360.3000;0.5592;0.9591;
360.6000;0.5608;0.9709;
360.9000;0.5617;0.9757;
361.2000;0.5617;0.9757;
361.5000;0.5617;0.9757;
361.8000;0.5625;0.9804;
362.1000;0.5600;0.9709;
362.4000;0.5625;0.9662;
362.7000;0.5633;0.9686;
363.0000;0.5600;0.9733;
363.3000;0.5617;0.9804;
363.6000;0.5633;0.9780;
363.9000;0.5641;0.9733;
364.2000;0.5617;0.9638;
364.5000;0.5617;0.9591;
364.8000;0.5608;0.9686;
365.1000;0.5617;0.9757;
365.4000;0.5592;0.9662;
365.7000;0.5608;0.9662;
366.0000;0.5641;0.9757;
366.3000;0.5633;0.9709;
366.6000;0.5600;0.9638;
366.9000;0.5608;0.9733;
367.2000;0.5625;0.9828;
367.5000;0.5625;0.9733;
367.8000;0.5608;0.9686;
368.1000;0.5608;0.9638;
368.4000;0.5633;0.9686;
368.7000;0.5617;0.9686;
369.0000;0.5617;0.9638;
369.3000;0.5617;0.9780;
369.6000;0.5617;0.9757;
369.9000;0.5714;1.0017;
370.2000;0.5608;0.9757;
370.5000;0.5657;0.9780;
370.8000;0.5608;0.9591;
371.1000;0.5625;0.9709;
371.4000;0.5682;0.9899;
371.7000;0.5617;0.9757;
372.0000;0.5625;0.9780;
372.3000;0.5625;0.9757;
372.6000;0.5617;0.9852;
372.9000;0.5641;0.9923;
373.2000;0.5608;0.9804;
373.5000;0.5608;0.9686;
373.8000;0.5617;0.9709;
374.1000;0.5617;0.9733;
374.4000;0.5617;0.9662;
374.7000;0.5608;0.9733;
375.0000;0.5617;0.9709;
375.3000;0.5608;0.9662;
375.6000;0.5633;0.9686;
375.9000;0.5608;0.9615;
376.2000;0.5633;0.9686;
376.5000;0.5617;0.9686;
376.8000;0.5617;0.9591;
377.1000;0.5617;0.9544;
377.4000;0.5608;0.9686;
377.7000;0.5617;0.9709;
378.0000;0.5608;0.9686;
378.3000;0.5633;0.9638;
378.6000;0.5608;0.9638;
378.9000;0.5617;0.9686;
379.2000;0.5600;0.9615;
379.5000;0.5625;0.9638;
379.8000;0.5608;0.9638;
380.1000;0.5617;0.9591;
380.4000;0.5625;0.9638;
380.7000;0.5608;0.9544;
381.0000;0.5608;0.9567;
381.3000;0.5584;0.9520;
381.6000;0.5592;0.9591;
381.9000;0.5600;0.9591;
382.2000;0.5617;0.9662;
382.5000;0.5633;0.9804;
382.8000;0.5633;0.9804;
383.1000;0.5608;0.9757;
383.4000;0.5600;0.9733;
383.7000;0.5617;0.9733;
384.0000;0.5625;0.9709;
384.3000;0.5633;0.9686;
384.6000;0.5625;0.9709;
384.9000;0.5600;0.9709;
385.2000;0.5608;0.9780;
385.5000;0.5714;0.9946;
385.8000;0.5608;0.9638;
386.1000;0.5592;0.9615;
386.4000;0.5592;0.9544;
386.7000;0.5617;0.9709;
387.0000;0.5608;0.9709;
387.3000;0.5584;0.9615;
387.6000;0.5617;0.9662;
387.9000;0.5608;0.9567;
388.2000;0.5592;0.9496;
388.5000;0.5633;0.9638;
388.8000;0.5633;0.9615;
389.1000;0.5600;0.9615;
389.4000;0.5600;0.9567;
389.7000;0.5560;0.9496;
390.0000;0.5649;0.9638;
390.3000;0.5592;0.9662;
390.6000;0.5674;0.9852;
390.9000;0.5600;0.9662;
391.2000;0.5608;0.9686;
391.5000;0.5568;0.9662;
391.8000;0.5633;0.9780;
392.1000;0.5633;0.9852;
392.4000;0.5608;0.9852;
392.7000;0.5625;0.9923;
393.0000;0.5600;0.9899;
393.3000;0.5608;0.9970;
393.6000;0.5625;0.9970;
393.9000;0.5608;0.9923;
394.2000;0.5625;0.9923;
394.5000;0.5608;0.9946;
394.8000;0.5608;0.9946;
395.1000;0.5576;0.9875;
395.4000;0.5625;1.0017;
395.7000;0.5617;0.9946;
396.0000;0.5608;0.9970;
396.3000;0.5608;0.9899;
396.6000;0.5625;0.9946;
396.9000;0.5641;0.9970;
397.2000;0.5633;0.9970;
397.5000;0.5608;0.9852;
397.8000;0.5617;0.9780;
398.1000;0.5641;0.9804;
398.4000;0.5592;0.9709;
398.7000;0.5600;0.9662;
399.0000;0.5633;0.9780;
399.3000;0.5641;0.9828;
399.6000;0.5608;0.9780;
399.9000;0.5617;0.9709;
400.2000;0.5592;0.9662;
400.5000;0.5608;0.9615;
400.8000;0.5617;0.9686;
401.1000;0.5625;0.9709;
401.4000;0.5608;0.9662;
401.7000;0.5625;0.9662;
402.0000;0.5641;0.9780;
402.3000;0.5568;0.9662;
402.6000;0.5608;0.9709;
402.9000;0.5568;0.9615;
403.2000;0.5731;0.9923;
403.5000;0.5633;0.9686;
403.8000;0.5608;0.9638;
404.1000;0.5625;0.9733;
404.4000;0.5560;0.9638;
404.7000;0.5608;0.9757;
405.0000;0.5592;0.9638;
405.3000;0.5600;0.9638;
405.6000;0.5608;0.9662;
405.9000;0.5617;0.9544;
406.2000;0.5584;0.9425;
406.5000;0.5633;0.9520;
406.8000;0.5617;0.9544;
407.1000;0.5608;0.9591;
407.4000;0.5617;0.9638;
407.7000;0.5617;0.9591;
408.0000;0.5608;0.9544;
408.3000;0.5560;0.9354;
408.6000;0.5600;0.9544;
408.9000;0.5551;0.9402;
409.2000;0.5600;0.9496;
409.5000;0.5584;0.9473;
409.8000;0.5617;0.9473;
410.1000;0.5625;0.9496;
410.4000;0.5617;0.9544;
410.7000;0.5633;0.9567;
411.0000;0.5592;0.9496;
411.3000;0.5633;0.9638;
411.6000;0.5665;0.9757;
411.9000;0.5608;0.9591;
412.2000;0.5617;0.9709;
412.5000;0.5657;0.9828;
412.8000;0.5608;0.9709;
413.1000;0.5617;0.9709;
413.4000;0.5665;0.9709;
413.7000;0.5600;0.9615;
414.0000;0.5592;0.9567;
414.3000;0.5617;0.9780;
414.6000;0.5592;0.9733;
414.9000;0.5617;0.9804;
415.2000;0.5535;0.9709;
415.5000;0.5592;0.9804;
415.8000;0.5600;0.9852;
416.1000;0.5592;0.9828;
416.4000;0.5600;0.9875;
416.7000;0.5608;0.9923;
417.0000;0.5633;1.0041;
417.3000;0.5633;1.0088;
417.6000;0.5617;1.0017;
417.9000;0.5608;0.9946;
418.2000;0.5617;0.9923;
418.5000;0.5633;0.9899;
418.8000;0.5641;0.9852;
419.1000;0.5600;0.9733;
419.4000;0.5763;1.0112;
419.7000;0.5633;0.9899;
420.0000;0.5617;0.9828;
420.3000;0.5608;0.9899;
420.6000;0.5617;0.9923;
420.9000;0.5600;0.9804;
421.2000;0.5625;0.9923;
421.5000;0.5625;0.9946;
421.8000;0.5641;1.0017;
422.1000;0.5617;1.0017;
422.4000;0.5592;0.9970;
422.7000;0.5641;1.0088;
423.0000;0.5608;0.9970;
423.3000;0.5682;1.0088;
423.6000;0.5617;0.9923;
423.9000;0.5641;0.9970;
424.2000;0.5600;0.9994;
424.5000;0.5617;0.9875;
424.8000;0.5649;0.9923;
425.1000;0.5625;0.9780;
425.4000;0.5592;0.9733;
425.7000;0.5608;0.9780;
426.0000;0.5617;0.9804;
426.3000;0.5625;0.9899;
426.6000;0.5608;0.9875;
426.9000;0.5641;0.9946;
427.2000;0.5608;0.9875;
427.5000;0.5584;0.9852;
427.8000;0.5625;0.9875;
428.1000;0.5633;0.9828;
428.4000;0.5633;0.9875;
428.7000;0.5633;0.9875;
429.0000;0.5617;0.9875;
429.3000;0.5617;1.0017;
429.6000;0.5617;1.0041;
429.9000;0.5625;1.0041;
430.2000;0.5617;0.9946;
430.5000;0.5551;0.9733;
430.8000;0.5633;0.9828;
431.1000;0.5608;0.9804;
431.4000;0.5608;0.9804;
431.7000;0.5608;0.9804;
432.0000;0.5592;0.9899;
432.3000;0.5608;0.9852;
432.6000;0.5608;0.9852;
432.9000;0.5641;0.9946;
433.2000;0.5633;0.9875;
433.5000;0.5649;0.9852;
433.8000;0.5633;0.9804;
434.1000;0.5633;0.9733;
434.4000;0.5625;0.9662;
434.7000;0.5625;0.9662;
435.0000;0.5617;0.9757;
435.3000;0.5625;0.9804;
435.6000;0.5617;0.9804;
435.9000;0.5617;0.9852;
436.2000;0.5617;0.9899;
436.5000;0.5617;0.9757;
436.8000;0.5608;0.9780;
437.1000;0.5600;0.9852;
437.4000;0.5608;0.9875;
437.7000;0.5625;0.9899;
438.0000;0.5617;0.9828;
438.3000;0.5625;0.9733;
438.6000;0.5600;0.9591;
438.9000;0.5625;0.9615;
439.2000;0.5625;0.9591;
439.5000;0.5649;0.9638;
439.8000;0.5608;0.9591;
440.1000;0.5608;0.9733;
440.4000;0.5625;0.9804;
440.7000;0.5592;0.9638;
441.0000;0.5600;0.9733;
441.3000;0.5617;0.9686;
441.6000;0.5625;0.9686;
441.9000;0.5657;0.9804;
442.2000;0.5608;0.9709;
442.5000;0.5625;0.9804;
442.8000;0.5625;0.9852;
443.1000;0.5625;0.9852;
443.4000;0.5625;0.9780;
443.7000;0.5625;0.9780;
444.0000;0.5633;0.9828;
444.3000;0.5625;0.9804;
444.6000;0.5633;0.9780;
444.9000;0.5633;0.9804;
445.2000;0.5584;0.9638;
445.5000;0.5617;0.9733;
445.8000;0.5617;0.9804;
446.1000;0.5625;0.9780;
446.4000;0.5665;0.9852;
446.7000;0.5641;0.9780;
447.0000;0.5682;0.9852;
447.3000;0.5617;0.9709;
447.6000;0.5617;0.9615;
447.9000;0.5633;0.9615;
448.2000;0.5617;0.9520;
448.5000;0.5633;0.9662;
448.8000;0.5665;0.9852;
449.1000;0.5617;0.9757;
449.4000;0.5625;0.9709;
449.7000;0.5625;0.9662;
450.0000;0.5584;0.9662;
450.3000;0.5641;0.9828;
450.6000;0.5617;0.9780;
450.9000;0.5592;0.9757;
451.2000;0.5600;0.9686;
451.5000;0.5641;0.9662;
451.8000;0.5657;0.9780;
452.1000;0.5608;0.9709;
452.4000;0.5608;0.9733;
452.7000;0.5608;0.9686;
453.0000;0.5617;0.9662;
453.3000;0.5617;0.9757;
453.6000;0.5617;0.9780;
453.9000;0.5617;0.9875;
454.2000;0.5633;0.9946;
454.5000;0.5608;0.9875;
454.8000;0.5617;0.9828;
455.1000;0.5625;0.9780;
455.4000;0.5625;0.9780;
455.7000;0.5633;0.9804;
456.0000;0.5649;0.9899;
456.3000;0.5625;0.9852;
456.6000;0.5600;0.9780;
456.9000;0.5584;0.9804;
457.2000;0.5633;0.9899;
457.5000;0.5657;0.9946;
457.8000;0.5617;0.9852;
458.1000;0.5617;0.9875;
458.4000;0.5682;1.0065;
458.7000;0.5617;0.9875;
459.0000;0.5633;0.9875;
459.3000;0.5625;0.9923;
459.6000;0.5608;0.9875;
459.9000;0.5633;0.9946;
460.2000;0.5600;0.9899;
460.5000;0.5617;0.9852;
460.8000;0.5625;0.9757;
461.1000;0.5665;0.9804;
461.4000;0.5641;0.9804;
461.7000;0.5617;0.9709;
462.0000;0.5625;0.9757;
462.3000;0.5608;0.9686;
462.6000;0.5592;0.9615;
462.9000;0.5608;0.9686;
463.2000;0.5617;0.9591;
463.5000;0.5665;0.9662;
463.8000;0.5608;0.9591;
464.1000;0.5633;0.9615;
464.4000;0.5617;0.9638;
464.7000;0.5649;0.9733;
465.0000;0.5617;0.9638;
465.3000;0.5608;0.9615;
465.6000;0.5633;0.9709;
465.9000;0.5608;0.9662;
466.2000;0.5600;0.9686;
466.5000;0.5625;0.9757;
466.8000;0.5617;0.9780;
467.1000;0.5617;0.9828;
467.4000;0.5625;0.9852;
467.7000;0.5617;0.9828;
468.0000;0.5543;0.9662;
468.3000;0.5600;0.9852;
468.6000;0.5608;0.9852;
468.9000;0.5617;0.9828;
469.2000;0.5608;0.9804;
469.5000;0.5625;0.9828;
469.8000;0.5617;0.9780;
470.1000;0.5633;0.9804;
470.4000;0.5617;0.9709;
470.7000;0.5617;0.9757;
471.0000;0.5633;0.9804;
471.3000;0.5665;0.9899;
471.6000;0.5592;0.9709;
471.9000;0.5576;0.9662;
472.2000;0.5608;0.9733;
472.5000;0.5592;0.9615;
472.8000;0.5617;0.9686;
473.1000;0.5617;0.9686;
473.4000;0.5625;0.9686;
473.7000;0.5625;0.9804;
474.0000;0.5625;0.9923;
474.3000;0.5608;0.9946;
474.6000;0.5625;1.0017;
474.9000;0.5633;1.0088;
475.2000;0.5617;1.0065;
475.5000;0.5617;1.0041;
475.8000;0.5560;0.9852;
476.1000;0.5625;0.9899;
476.4000;0.5649;0.9970;
476.7000;0.5625;0.9852;
477.0000;0.5608;0.9804;
477.3000;0.5551;0.9638;
477.6000;0.5633;0.9804;
477.9000;0.5625;0.9757;
478.2000;0.5592;0.9757;
478.5000;0.5617;0.9828;
478.8000;0.5625;0.9780;
479.1000;0.5600;0.9804;
479.4000;0.5584;0.9733;
479.7000;0.5617;0.9923;
480.0000;0.5617;0.9875;
480.3000;0.5600;0.9804;
480.6000;0.5617;0.9804;
480.9000;0.5625;0.9780;
481.2000;0.5617;0.9686;
481.5000;0.5617;0.9638;
481.8000;0.5608;0.9615;
482.1000;0.5617;0.9615;
482.4000;0.5608;0.9662;
482.7000;0.5608;0.9638;
483.0000;0.5633;0.9662;
483.3000;0.5600;0.9591;
483.6000;0.5625;0.9638;
483.9000;0.5617;0.9638;
484.2000;0.5608;0.9686;
484.5000;0.5608;0.9780;
484.8000;0.5608;0.9780;
485.1000;0.5649;0.9899;
485.4000;0.5617;0.9757;
485.7000;0.5625;0.9828;
486.0000;0.5608;0.9733;
486.3000;0.5625;0.9733;
486.6000;0.5625;0.9780;
486.9000;0.5625;0.9757;
487.2000;0.5633;0.9709;
487.5000;0.5608;0.9686;
487.8000;0.5592;0.9804;
488.1000;0.5608;0.9852;
488.4000;0.5608;0.9899;
488.7000;0.5608;0.9994;
489.0000;0.5600;0.9970;
489.3000;0.5625;0.9970;
489.6000;0.5608;0.9875;
489.9000;0.5600;0.9923;
490.2000;0.5600;0.9852;
490.5000;0.5682;1.0041;
490.8000;0.5608;0.9804;
491.1000;0.5600;0.9828;
491.4000;0.5617;0.9804;
491.7000;0.5625;0.9733;
492.0000;0.5551;0.9686;
492.3000;0.5617;0.9709;
492.6000;0.5617;0.9709;
492.9000;0.5633;0.9875;
493.2000;0.5633;0.9804;
493.5000;0.5608;0.9757;
493.8000;0.5633;0.9780;
494.1000;0.5617;0.9662;
494.4000;0.5608;0.9638;
494.7000;0.5608;0.9733;
495.0000;0.5617;0.9733;
495.3000;0.5625;0.9852;
495.6000;0.5608;0.9828;
495.9000;0.5592;0.9733;
496.2000;0.5511;0.9686;
496.5000;0.5633;0.9946;
496.8000;0.5592;0.9899;
497.1000;0.5600;0.9994;
497.4000;0.5625;1.0017;
497.7000;0.5551;0.9828;
498.0000;0.5617;0.9923;
498.3000;0.5560;0.9875;
498.6000;0.5600;0.9923;
498.9000;0.5722;1.0207;
499.2000;0.5608;0.9946;
499.5000;0.5608;0.9970;
499.8000;0.5568;0.9923;
500.1000;0.5665;1.0088;
500.4000;0.5617;0.9946;
500.7000;0.5608;0.9923;
501.0000;0.5584;0.9852;
501.3000;0.5608;0.9875;
501.6000;0.5633;0.9828;
501.9000;0.5600;0.9757;
502.2000;0.5600;0.9757;
502.5000;0.5617;0.9828;
502.8000;0.5617;0.9875;
503.1000;0.5608;0.9804;
503.4000;0.5584;0.9828;
503.7000;0.5608;0.9899;
504.0000;0.5568;0.9757;
504.3000;0.5625;0.9852;
504.6000;0.5617;0.9946;
504.9000;0.5592;0.9852;
505.2000;0.5682;1.0112;
505.5000;0.5608;0.9899;
505.8000;0.5625;0.9994;
506.1000;0.5633;0.9946;
506.4000;0.5600;0.9757;
506.7000;0.5592;0.9780;
507.0000;0.5584;0.9662;
507.3000;0.5608;0.9804;
507.6000;0.5625;0.9923;
507.9000;0.5608;0.9804;
508.2000;0.5617;0.9852;
508.5000;0.5519;0.9520;
508.8000;0.5617;0.9780;
509.1000;0.5617;0.9757;
509.4000;0.5641;0.9852;
509.7000;0.5625;0.9686;
510.0000;0.5649;0.9638;
510.3000;0.5625;0.9638;
510.6000;0.5617;0.9662;
510.9000;0.5617;0.9591;
511.2000;0.5641;0.9757;
511.5000;0.5617;0.9638;
511.8000;0.5568;0.9496;
512.1000;0.5625;0.9615;
512.4000;0.5600;0.9615;
512.7000;0.5600;0.9615;
513.0000;0.5649;0.9709;
513.3000;0.5584;0.9591;
513.6000;0.5600;0.9733;
513.9000;0.5608;0.9757;
514.2000;0.5608;0.9733;
514.5000;0.5617;0.9686;
514.8000;0.5625;0.9686;
515.1000;0.5633;0.9662;
515.4000;0.5617;0.9591;
515.7000;0.5608;0.9544;
516.0000;0.5592;0.9520;
516.3000;0.5625;0.9615;
516.6000;0.5600;0.9591;
516.9000;0.5674;0.9662;
517.2000;0.5592;0.9354;
517.5000;0.5617;0.9378;
517.8000;0.5592;0.9354;
518.1000;0.5600;0.9449;
518.4000;0.5625;0.9591;
518.7000;0.5608;0.9686;
519.0000;0.5576;0.9638;
519.3000;0.5617;0.9780;
519.6000;0.5625;0.9709;
519.9000;0.5608;0.9662;
520.2000;0.5682;0.9780;
520.5000;0.5608;0.9638;
520.8000;0.5551;0.9544;
521.1000;0.5527;0.9496;
521.4000;0.5657;0.9804;
521.7000;0.5633;0.9733;
522.0000;0.5690;0.9970;
522.3000;0.5625;0.9780;
522.6000;0.5576;0.9709;
522.9000;0.5633;0.9686;
523.2000;0.5600;0.9733;
523.5000;0.5600;0.9733;
523.8000;0.5600;0.9686;
524.1000;0.5641;0.9875;
524.4000;0.5617;0.9757;
524.7000;0.5600;0.9709;
525.0000;0.5617;0.9686;
525.3000;0.5608;0.9615;
525.6000;0.5584;0.9591;
525.9000;0.5527;0.9591;
526.2000;0.5617;0.9804;
526.5000;0.5633;0.9852;
526.8000;0.5617;0.9780;
527.1000;0.5617;0.9662;
527.4000;0.5608;0.9638;
527.7000;0.5600;0.9686;
528.0000;0.5608;0.9709;
528.3000;0.5617;0.9757;
528.6000;0.5608;0.9709;
528.9000;0.5584;0.9662;
529.2000;0.5608;0.9733;
529.5000;0.5633;0.9828;
529.8000;0.5608;0.9828;
530.1000;0.5608;0.9757;
530.4000;0.5584;0.9709;
530.7000;0.5600;0.9733;
531.0000;0.5625;0.9780;
531.3000;0.5617;0.9733;
531.6000;0.5608;0.9780;
531.9000;0.5608;0.9828;
532.2000;0.5608;0.9733;
532.5000;0.5617;0.9662;
532.8000;0.5617;0.9709;
533.1000;0.5617;0.9733;
533.4000;0.5592;0.9662;
533.7000;0.5608;0.9709;
534.0000;0.5600;0.9686;
534.3000;0.5592;0.9686;
534.6000;0.5617;0.9709;
534.9000;0.5617;0.9662;
535.2000;0.5592;0.9638;
535.5000;0.5592;0.9615;
535.8000;0.5617;0.9615;
536.1000;0.5617;0.9591;
536.4000;0.5617;0.9709;
536.7000;0.5600;0.9686;
537.0000;0.5617;0.9709;
537.3000;0.5600;0.9733;
537.6000;0.5592;0.9757;
537.9000;0.5608;0.9852;
538.2000;0.5600;0.9757;
538.5000;0.5617;0.9709;
538.8000;0.5617;0.9709;
539.1000;0.5625;0.9852;
539.4000;0.5592;0.9804;
539.7000;0.5608;0.9946;
540.0000;0.5641;1.0017;
540.3000;0.5617;0.9923;
540.6000;0.5617;0.9970;
540.9000;0.5665;1.0088;
541.2000;0.5617;0.9923;
541.5000;0.5600;0.9780;
541.8000;0.5617;0.9875;
542.1000;0.5641;0.9946;
542.4000;0.5657;0.9946;
542.7000;0.5649;0.9804;
543.0000;0.5641;0.9828;
543.3000;0.5584;0.9757;
543.6000;0.5608;0.9852;
543.9000;0.5633;0.9923;
544.2000;0.5665;0.9923;
544.5000;0.5584;0.9709;
544.8000;0.5543;0.9662;
545.1000;0.5633;0.9970;
545.4000;0.5608;0.9780;
545.7000;0.5600;0.9875;
546.0000;0.5633;0.9923;
546.3000;0.5608;0.9852;
546.6000;0.5633;0.9899;
546.9000;0.5608;0.9970;
547.2000;0.5617;0.9970;
547.5000;0.5625;0.9970;
547.8000;0.5665;1.0136;
548.1000;0.5576;0.9994;
548.4000;0.5617;1.0112;
548.7000;0.5617;1.0088;
549.0000;0.5608;1.0065;
549.3000;0.5617;1.0136;
549.6000;0.5617;1.0136;
549.9000;0.5617;1.0088;
550.2000;0.5617;0.9994;
550.5000;0.5608;0.9970;
550.8000;0.5625;0.9875;
551.1000;0.5625;0.9828;
551.4000;0.5608;0.9852;
551.7000;0.5608;0.9828;
552.0000;0.5617;0.9757;
552.3000;0.5617;0.9686;
552.6000;0.5617;0.9615;
552.9000;0.5600;0.9544;
553.2000;0.5625;0.9591;
553.5000;0.5584;0.9544;
553.8000;0.5625;0.9686;
554.1000;0.5617;0.9828;
554.4000;0.5568;0.9780;
554.7000;0.5608;0.9852;
555.0000;0.5617;0.9852;
555.3000;0.5617;0.9757;
555.6000;0.5600;0.9757;
555.9000;0.5608;0.9804;
556.2000;0.5617;0.9875;
556.5000;0.5690;1.0041;
556.8000;0.5608;0.9875;
557.1000;0.5592;0.9852;
557.4000;0.5592;0.9828;
557.7000;0.5617;0.9923;
558.0000;0.5641;0.9970;
558.3000;0.5674;1.0088;
558.6000;0.5657;1.0065;
558.9000;0.5617;0.9970;
559.2000;0.5592;0.9970;
559.5000;0.5568;0.9970;
559.8000;0.5625;1.0183;
560.1000;0.5584;1.0017;
560.4000;0.5584;0.9946;
560.7000;0.5617;0.9875;
561.0000;0.5617;0.9899;
561.3000;0.5665;0.9923;
561.6000;0.5617;0.9709;
561.9000;0.5625;0.9852;
562.2000;0.5625;0.9875;
562.5000;0.5617;0.9804;
562.8000;0.5617;0.9899;
563.1000;0.5608;0.9923;
563.4000;0.5617;0.9946;
563.7000;0.5633;1.0017;
564.0000;0.5617;1.0041;
564.3000;0.5625;1.0088;
564.6000;0.5608;1.0041;
564.9000;0.5617;1.0041;
565.2000;0.5641;1.0065;
565.5000;0.5633;0.9994;
565.8000;0.5617;1.0017;
566.1000;0.5592;0.9970;
566.4000;0.5625;0.9946;
566.7000;0.5608;0.9994;
567.0000;0.5584;0.9994;
567.3000;0.5560;0.9946;
567.6000;0.5608;1.0041;
567.9000;0.5600;1.0088;
568.2000;0.5674;1.0207;
568.5000;0.5592;0.9946;
568.8000;0.5608;0.9970;
569.1000;0.5600;0.9852;
569.4000;0.5617;0.9923;
569.7000;0.5600;0.9946;
570.0000;0.5600;0.9970;
570.3000;0.5625;1.0065;
570.6000;0.5600;1.0065;
570.9000;0.5600;1.0065;
571.2000;0.5600;0.9994;
571.5000;0.5600;0.9970;
571.8000;0.5625;1.0041;
572.1000;0.5617;0.9923;
572.4000;0.5600;0.9923;
572.7000;0.5608;0.9923;
573.0000;0.5625;0.9970;
573.3000;0.5608;0.9946;
573.6000;0.5600;0.9923;
573.9000;0.5633;0.9946;
574.2000;0.5625;0.9923;
574.5000;0.5608;0.9852;
574.8000;0.5608;0.9946;
575.1000;0.5625;0.9994;
575.4000;0.5600;0.9899;
575.7000;0.5617;1.0017;
576.0000;0.5617;0.9852;
576.3000;0.5592;0.9733;
576.6000;0.5625;0.9852;
576.9000;0.5625;0.9923;
577.2000;0.5608;0.9899;
577.5000;0.5576;0.9852;
577.8000;0.5617;0.9946;
578.1000;0.5608;0.9946;
578.4000;0.5633;0.9946;
578.7000;0.5625;0.9852;
579.0000;0.5617;0.9852;
579.3000;0.5641;1.0017;
579.6000;0.5592;0.9923;
579.9000;0.5584;0.9828;
580.2000;0.5600;0.9828;
580.5000;0.5600;0.9757;
580.8000;0.5600;0.9709;
581.1000;0.5592;0.9757;
581.4000;0.5633;0.9875;
581.7000;0.5608;0.9899;
582.0000;0.5600;0.9946;
582.3000;0.5617;0.9946;
582.6000;0.5576;0.9804;
582.9000;0.5617;0.9875;
583.2000;0.5617;0.9875;
583.5000;0.5584;0.9828;
583.8000;0.5608;0.9899;
584.1000;0.5592;0.9899;
584.4000;0.5625;0.9899;
584.7000;0.5617;0.9875;
585.0000;0.5592;0.9899;
585.3000;0.5608;0.9875;
585.6000;0.5617;0.9828;
585.9000;0.5657;0.9875;
586.2000;0.5600;0.9733;
586.5000;0.5608;0.9780;
586.8000;0.5641;0.9875;
587.1000;0.5633;0.9852;
587.4000;0.5584;0.9757;
587.7000;0.5625;0.9804;
588.0000;0.5617;0.9852;
588.3000;0.5641;1.0017;
588.6000;0.5617;1.0017;
588.9000;0.5649;1.0017;
589.2000;0.5608;0.9828;
589.5000;0.5617;0.9899;
589.8000;0.5560;0.9780;
590.1000;0.5617;0.9946;
590.4000;0.5600;0.9946;
590.7000;0.5657;1.0183;
591.0000;0.5617;1.0041;
591.3000;0.5649;1.0112;
591.6000;0.5608;1.0065;
591.9000;0.5608;1.0088;
592.2000;0.5617;1.0136;
592.5000;0.5600;1.0112;
592.8000;0.5608;1.0112;
593.1000;0.5592;1.0065;
593.4000;0.5617;0.9970;
593.7000;0.5600;0.9946;
594.0000;0.5617;0.9946;
594.3000;0.5617;0.9946;
594.6000;0.5617;0.9994;
594.9000;0.5649;1.0065;
595.2000;0.5608;0.9875;
595.5000;0.5633;0.9899;
595.8000;0.5543;0.9709;
596.1000;0.5625;0.9946;
596.4000;0.5674;1.0017;
596.7000;0.5617;0.9733;
597.0000;0.5608;0.9804;
597.3000;0.5617;0.9946;
597.6000;0.5625;0.9946;
597.9000;0.5608;0.9899;
598.2000;0.5600;0.9828;
598.5000;0.5625;0.9852;
598.8000;0.5625;0.9852;
599.1000;0.5543;0.9709;
599.4000;0.5617;0.9946;
599.7000;0.5608;0.9994;
600.0000;0.5600;0.9994;
600.3000;0.5617;0.9828;
600.6000;0.5608;0.9662;
600.9000;0.5568;0.9662;
601.2000;0.5592;0.9686;
601.5000;0.5568;0.9615;
601.8000;0.5535;0.9473;
602.1000;0.5551;0.9496;
602.4000;0.5478;0.9378;
602.7000;0.5446;0.9354;
603.0000;0.5405;0.9236;
603.3000;0.5340;0.9094;
603.6000;0.5356;0.9094;
603.9000;0.5332;0.9094;
604.2000;0.5307;0.8952;
604.5000;0.5242;0.8810;
604.8000;0.5267;0.8833;
605.1000;0.5267;0.8786;
605.4000;0.5250;0.8738;
605.7000;0.5210;0.8620;
606.0000;0.5185;0.8667;
606.3000;0.5144;0.8620;
606.6000;0.5169;0.8644;
606.9000;0.5161;0.8573;
607.2000;0.5144;0.8478;
607.5000;0.5112;0.8407;
607.8000;0.5112;0.8431;
608.1000;0.5210;0.8691;
608.4000;0.5079;0.8312;
608.7000;0.5071;0.8383;
609.0000;0.5055;0.8360;
609.3000;0.5055;0.8525;
609.6000;0.5039;0.8478;
609.9000;0.5014;0.8573;
610.2000;0.5022;0.8596;
610.5000;0.4998;0.8573;
610.8000;0.4998;0.8596;
611.1000;0.4974;0.8407;
611.4000;0.4957;0.8383;
611.7000;0.4957;0.8360;
612.0000;0.4941;0.8289;
612.3000;0.4957;0.8289;
612.6000;0.4925;0.8241;
612.9000;0.4925;0.8170;
613.2000;0.4917;0.8075;
613.5000;0.4892;0.8028;
613.8000;0.4900;0.8004;
614.1000;0.4892;0.8004;
614.4000;0.4933;0.8123;
614.7000;0.4868;0.8075;
615.0000;0.4876;0.8028;
615.3000;0.4933;0.8265;
615.6000;0.4827;0.8099;
615.9000;0.4868;0.8146;
616.2000;0.4819;0.8146;
616.5000;0.4811;0.8099;
616.8000;0.4794;0.8123;
617.1000;0.4811;0.8075;
617.4000;0.4803;0.8099;
617.7000;0.4803;0.8075;
618.0000;0.4794;0.7957;
618.3000;0.4778;0.7981;
618.6000;0.4762;0.8004;
618.9000;0.4762;0.8004;
619.2000;0.4762;0.7981;
619.5000;0.4713;0.7839;
619.8000;0.4737;0.7910;
620.1000;0.4713;0.7957;
620.4000;0.4737;0.7957;
620.7000;0.4713;0.8028;
621.0000;0.4672;0.8004;
621.3000;0.4615;0.7910;
621.6000;0.4705;0.8170;
621.9000;0.4689;0.8146;
622.2000;0.4672;0.8194;
622.5000;0.4681;0.8241;
622.8000;0.4656;0.8194;
623.1000;0.4575;0.7957;
623.4000;0.4656;0.8170;
623.7000;0.4640;0.8170;
624.0000;0.4624;0.8099;
624.3000;0.4672;0.8170;
624.6000;0.4648;0.8146;
624.9000;0.4607;0.8099;
625.2000;0.4632;0.8217;
625.5000;0.4607;0.8075;
625.8000;0.4607;0.8004;
626.1000;0.4591;0.7957;
626.4000;0.4607;0.8028;
626.7000;0.4607;0.8004;
627.0000;0.4583;0.7981;
627.3000;0.4575;0.7981;
627.6000;0.4575;0.8028;
627.9000;0.4567;0.8123;
628.2000;0.4534;0.8123;
628.5000;0.4550;0.8123;
628.8000;0.4526;0.8052;
629.1000;0.4526;0.8052;
629.4000;0.4510;0.8004;
629.7000;0.4526;0.7981;
630.0000;0.4453;0.7910;
630.3000;0.4518;0.8099;
630.6000;0.4534;0.8217;
630.9000;0.4534;0.8241;
631.2000;0.4526;0.8241;
631.5000;0.4501;0.8170;
631.8000;0.4501;0.8194;
632.1000;0.4461;0.8004;
632.4000;0.4485;0.8052;
632.7000;0.4485;0.8052;
633.0000;0.4461;0.8123;
633.3000;0.4485;0.8241;
633.6000;0.4453;0.8289;
633.9000;0.4469;0.8265;
634.2000;0.4461;0.8360;
634.5000;0.4436;0.8289;
634.8000;0.4469;0.8336;
635.1000;0.4436;0.8289;
635.4000;0.4428;0.8194;
635.7000;0.4436;0.8217;
636.0000;0.4477;0.8360;
636.3000;0.4428;0.8241;
636.6000;0.4420;0.8289;
636.9000;0.4404;0.8265;
637.2000;0.4583;0.8644;
637.5000;0.4404;0.8194;
637.8000;0.4420;0.8241;
638.1000;0.4396;0.8241;
638.4000;0.4363;0.8170;
638.7000;0.4396;0.8241;
639.0000;0.4387;0.8312;
639.3000;0.4363;0.8194;
639.6000;0.4396;0.8241;
639.9000;0.4371;0.8289;
640.2000;0.4379;0.8431;
640.5000;0.4412;0.8454;
640.8000;0.4290;0.8099;
641.1000;0.4379;0.8312;
641.4000;0.4387;0.8454;
641.7000;0.4330;0.8312;
642.0000;0.4347;0.8383;
642.3000;0.4347;0.8336;
642.6000;0.4306;0.8217;
642.9000;0.4363;0.8360;
643.2000;0.4322;0.8241;
643.5000;0.4396;0.8431;
643.8000;0.4322;0.8241;
644.1000;0.4404;0.8431;
644.4000;0.4290;0.8194;
644.7000;0.4314;0.8265;
645.0000;0.4322;0.8217;
645.3000;0.4241;0.7981;
645.6000;0.4298;0.8099;
645.9000;0.4306;0.8146;
646.2000;0.4298;0.8099;
646.5000;0.4249;0.7981;
646.8000;0.4290;0.8123;
647.1000;0.4274;0.8146;
647.4000;0.4290;0.8099;
647.7000;0.4274;0.7981;
648.0000;0.4249;0.7886;
648.3000;0.4257;0.7933;
648.6000;0.4257;0.7957;
648.9000;0.4265;0.7981;
649.2000;0.4265;0.8123;
649.5000;0.4265;0.8146;
649.8000;0.4265;0.8217;
650.1000;0.4274;0.8194;
650.4000;0.4249;0.8170;
650.7000;0.4249;0.8194;
651.0000;0.4233;0.8028;
651.3000;0.4241;0.7957;
651.6000;0.4306;0.8075;
651.9000;0.4249;0.8052;
652.2000;0.4249;0.8052;
652.5000;0.4249;0.8123;
652.8000;0.4168;0.7910;
653.1000;0.4200;0.7957;
653.4000;0.4282;0.8099;
653.7000;0.4217;0.8028;
654.0000;0.4265;0.8217;
654.3000;0.4208;0.8052;
654.6000;0.4217;0.8170;
654.9000;0.4200;0.8194;
655.2000;0.4208;0.8146;
655.5000;0.4208;0.8028;
655.8000;0.4200;0.8052;
656.1000;0.4208;0.8075;
656.4000;0.4200;0.8028;
656.7000;0.4184;0.7981;
657.0000;0.4168;0.7862;
657.3000;0.4192;0.7886;
657.6000;0.4160;0.7815;
657.9000;0.4168;0.7791;
658.2000;0.4225;0.8028;
658.5000;0.4168;0.7933;
658.8000;0.4176;0.7957;
659.1000;0.4184;0.7957;
659.4000;0.4168;0.8004;
659.7000;0.4176;0.8099;
660.0000;0.4184;0.8075;
660.3000;0.4176;0.8004;
660.6000;0.4143;0.7886;
660.9000;0.4168;0.7862;
661.2000;0.4168;0.7862;
661.5000;0.4127;0.7768;
661.8000;0.4160;0.7910;
662.1000;0.4119;0.7862;
662.4000;0.4111;0.7933;
662.7000;0.4143;0.7910;
663.0000;0.4062;0.7673;
663.3000;0.4135;0.7933;
663.6000;0.4151;0.8052;
663.9000;0.4103;0.7981;
664.2000;0.4103;0.8004;
664.5000;0.4127;0.8123;
664.8000;0.4119;0.8052;
665.1000;0.4119;0.8075;
665.4000;0.4151;0.8123;
665.7000;0.4119;0.8075;
666.0000;0.4094;0.8146;
666.3000;0.4111;0.8123;
666.6000;0.4094;0.8004;
666.9000;0.4086;0.8004;
667.2000;0.4078;0.8028;
667.5000;0.4119;0.8028;
667.8000;0.4029;0.7791;
668.1000;0.4029;0.7839;
668.4000;0.4111;0.8028;
668.7000;0.4070;0.7981;
669.0000;0.4119;0.8146;
669.3000;0.4086;0.8123;
669.6000;0.4070;0.7933;
669.9000;0.4119;0.8075;
670.2000;0.4078;0.8052;
670.5000;0.4070;0.8004;
670.8000;0.4054;0.7910;
671.1000;0.4078;0.7933;
671.4000;0.4070;0.8028;
671.7000;0.4037;0.7957;
672.0000;0.4054;0.8052;
672.3000;0.4037;0.8004;
672.6000;0.4086;0.8052;
672.9000;0.4054;0.7981;
673.2000;0.4078;0.8075;
673.5000;0.4054;0.7981;
673.8000;0.4046;0.8004;
674.1000;0.4054;0.7910;
674.4000;0.3997;0.7839;
674.7000;0.4054;0.7933;
675.0000;0.4103;0.8028;
675.3000;0.4086;0.8052;
675.6000;0.4143;0.8217;
675.9000;0.4046;0.7981;
676.2000;0.4062;0.8075;
676.5000;0.4037;0.7933;
676.8000;0.4046;0.7933;
677.1000;0.4029;0.7933;
677.4000;0.4005;0.7862;
677.7000;0.3997;0.7933;
678.0000;0.4062;0.8075;
678.3000;0.4013;0.7933;
678.6000;0.4029;0.8052;
678.9000;0.4021;0.8075;
679.2000;0.4005;0.7981;
679.5000;0.4078;0.8099;
679.8000;0.4046;0.8004;
680.1000;0.4029;0.8004;
680.4000;0.4046;0.8004;
680.7000;0.3932;0.7791;
681.0000;0.3989;0.7862;
681.3000;0.4005;0.7862;
681.6000;0.4005;0.7839;
681.9000;0.4013;0.7957;
682.2000;0.3972;0.7981;
682.5000;0.3989;0.8052;
682.8000;0.4005;0.8123;
683.1000;0.3989;0.8052;
683.4000;0.4005;0.8099;
683.7000;0.4005;0.8075;
684.0000;0.4005;0.8052;
684.3000;0.4005;0.8146;
684.6000;0.3980;0.8099;
684.9000;0.3980;0.8099;
685.2000;0.4029;0.8194;
685.5000;0.4021;0.8170;
685.8000;0.4005;0.8099;
686.1000;0.3989;0.8052;
686.4000;0.4005;0.8028;
686.7000;0.3997;0.8004;
687.0000;0.3989;0.7957;
687.3000;0.4005;0.8075;
687.6000;0.3972;0.8075;
687.9000;0.3972;0.8052;
688.2000;0.3980;0.8028;
688.5000;0.3989;0.7910;
688.8000;0.3964;0.7744;
689.1000;0.3964;0.7839;
689.4000;0.3972;0.7862;
689.7000;0.4013;0.7981;
690.0000;0.3964;0.7862;
690.3000;0.3980;0.7886;
690.6000;0.3915;0.7839;
690.9000;0.3956;0.7933;
691.2000;0.3964;0.7957;
691.5000;0.3980;0.7957;
691.8000;0.3948;0.7815;
692.1000;0.3940;0.7886;
692.4000;0.3989;0.7957;
692.7000;0.3972;0.7910;
693.0000;0.3940;0.7839;
693.3000;0.3940;0.7839;
693.6000;0.3940;0.7910;
693.9000;0.3940;0.7862;
694.2000;0.3932;0.7886;
694.5000;0.3915;0.7791;
694.8000;0.3932;0.7886;
695.1000;0.3932;0.7981;
695.4000;0.3940;0.8004;
695.7000;0.3964;0.8099;
696.0000;0.3948;0.8099;
696.3000;0.3907;0.7957;
696.6000;0.3940;0.7933;
696.9000;0.3964;0.7910;
697.2000;0.3907;0.7839;
697.5000;0.3964;0.7910;
697.8000;0.3932;0.7886;
698.1000;0.3923;0.7910;
698.4000;0.3964;0.8004;
698.7000;0.3923;0.7886;
699.0000;0.3932;0.7839;
699.3000;0.3923;0.7839;
699.6000;0.3932;0.7768;
699.9000;0.3907;0.7696;
700.2000;0.3940;0.7768;
700.5000;0.3915;0.7720;
700.8000;0.3923;0.7815;
701.1000;0.3834;0.7602;
701.4000;0.3915;0.7815;
701.7000;0.3899;0.7768;
702.0000;0.3956;0.7839;
702.3000;0.3915;0.7696;
702.6000;0.3923;0.7720;
702.9000;0.3907;0.7839;
703.2000;0.3915;0.7886;
703.5000;0.3883;0.7791;
703.8000;0.3915;0.7815;
704.1000;0.3923;0.7815;
704.4000;0.3907;0.7768;
704.7000;0.3907;0.7839;
705.0000;0.3899;0.7815;
705.3000;0.3907;0.7815;
705.6000;0.3907;0.7862;
705.9000;0.3915;0.7815;
706.2000;0.3923;0.7744;
706.5000;0.3867;0.7602;
706.8000;0.3907;0.7768;
707.1000;0.3867;0.7744;
707.4000;0.3875;0.7791;
707.7000;0.3891;0.7768;
708.0000;0.3891;0.7720;
708.3000;0.3891;0.7815;
708.6000;0.3891;0.7744;
708.9000;0.3891;0.7768;
709.2000;0.3883;0.7815;
709.5000;0.3891;0.7886;
709.8000;0.3883;0.7886;
710.1000;0.3875;0.7862;
710.4000;0.3867;0.7862;
710.7000;0.3858;0.7910;
711.0000;0.3883;0.7933;
711.3000;0.3907;0.7886;
711.6000;0.3875;0.7768;
711.9000;0.3883;0.7862;
712.2000;0.3810;0.7602;
712.5000;0.3883;0.7839;
712.8000;0.3867;0.7886;
713.1000;0.3875;0.7933;
713.4000;0.3858;0.7815;
713.7000;0.3883;0.7839;
714.0000;0.3932;0.8004;
714.3000;0.3940;0.8028;
714.6000;0.3875;0.7886;
714.9000;0.3875;0.7862;
715.2000;0.3858;0.7815;
715.5000;0.3810;0.7673;
715.8000;0.3858;0.7768;
716.1000;0.3875;0.7862;
716.4000;0.3867;0.7910;
716.7000;0.3858;0.7886;
717.0000;0.3867;0.7886;
717.3000;0.3932;0.7957;
717.6000;0.3858;0.7768;
717.9000;0.3834;0.7649;
718.2000;0.3867;0.7744;
718.5000;0.3867;0.7744;
718.8000;0.3858;0.7744;
719.1000;0.3850;0.7768;
719.4000;0.3842;0.7768;
719.7000;0.3867;0.7839;
720.0000;0.3818;0.7578;
720.3000;0.3834;0.7649;
720.6000;0.3867;0.7768;
720.9000;0.3842;0.7720;
721.2000;0.3850;0.7839;
721.5000;0.3850;0.7933;
721.8000;0.3858;0.8028;
722.1000;0.3867;0.8004;
722.4000;0.3858;0.7957;
722.7000;0.3858;0.7957;
723.0000;0.3842;0.7933;
723.3000;0.3858;0.7933;
723.6000;0.3858;0.7933;
723.9000;0.3850;0.7981;
724.2000;0.3834;0.7957;
724.5000;0.3834;0.8028;
724.8000;0.3842;0.8028;
725.1000;0.3850;0.8004;
725.4000;0.3842;0.8028;
725.7000;0.3834;0.7862;
726.0000;0.3818;0.7768;
726.3000;0.3842;0.7791;
726.6000;0.3842;0.7862;
726.9000;0.3769;0.7649;
727.2000;0.3810;0.7696;
727.5000;0.3850;0.7791;
727.8000;0.3818;0.7791;
728.1000;0.3834;0.7839;
728.4000;0.3834;0.7862;
728.7000;0.3842;0.8052;
729.0000;0.3826;0.8099;
729.3000;0.3842;0.8123;
729.6000;0.3810;0.7957;
729.9000;0.3826;0.7933;
730.2000;0.3834;0.8004;
730.5000;0.3834;0.8052;
730.8000;0.3834;0.8004;
731.1000;0.3818;0.7886;
731.4000;0.3842;0.7933;
731.7000;0.3834;0.7981;
732.0000;0.3744;0.7720;
732.3000;0.3785;0.7768;
732.6000;0.3818;0.7791;
732.9000;0.3842;0.7886;
733.2000;0.3810;0.7839;
733.5000;0.3826;0.7933;
733.8000;0.3818;0.7886;
734.1000;0.3801;0.7791;
734.4000;0.3810;0.7720;
734.7000;0.3842;0.7839;
735.0000;0.3785;0.7839;
735.3000;0.3810;0.8052;
735.6000;0.3850;0.8146;
735.9000;0.3801;0.8075;
736.2000;0.3883;0.8217;
736.5000;0.3834;0.8052;
736.8000;0.3867;0.8123;
737.1000;0.3801;0.7933;
737.4000;0.3810;0.8004;
737.7000;0.3818;0.8075;
738.0000;0.3810;0.8075;
738.3000;0.3842;0.8075;
738.6000;0.3818;0.7981;
738.9000;0.3875;0.8146;
739.2000;0.3842;0.8099;
739.5000;0.3720;0.7815;
739.8000;0.3785;0.7957;
740.1000;0.3810;0.7886;
740.4000;0.3810;0.7862;
740.7000;0.3818;0.7910;
741.0000;0.3687;0.7649;
741.3000;0.3818;0.7862;
741.6000;0.3818;0.7933;
741.9000;0.3818;0.7981;
742.2000;0.3785;0.7815;
742.5000;0.3810;0.7886;
742.8000;0.3793;0.7910;
743.1000;0.3810;0.8052;
743.4000;0.3785;0.8004;
743.7000;0.3810;0.7957;
744.0000;0.3793;0.7862;
744.3000;0.3793;0.7839;
744.6000;0.3793;0.7862;
744.9000;0.3769;0.7886;
745.2000;0.3785;0.7886;
745.5000;0.3785;0.7933;
745.8000;0.3785;0.7933;
746.1000;0.3834;0.8028;
746.4000;0.3785;0.7886;
746.7000;0.3801;0.7839;
747.0000;0.3777;0.7744;
747.3000;0.3785;0.7768;
747.6000;0.3834;0.7910;
747.9000;0.3801;0.7933;
748.2000;0.3810;0.7910;
748.5000;0.3793;0.7839;
748.8000;0.3793;0.7886;
749.1000;0.3785;0.7933;
749.4000;0.3923;0.8312;
749.7000;0.3801;0.7933;
750.0000;0.3793;0.7981;
750.3000;0.3810;0.8123;
750.6000;0.3793;0.7957;
750.9000;0.3777;0.7886;
751.2000;0.3777;0.7933;
751.5000;0.3801;0.7981;
751.8000;0.3801;0.8075;
752.1000;0.3753;0.8075;
752.4000;0.3793;0.8004;
752.7000;0.3785;0.8052;
753.0000;0.3777;0.8075;
753.3000;0.3793;0.8052;
753.6000;0.3801;0.8099;
753.9000;0.3753;0.7933;
754.2000;0.3785;0.7981;
754.5000;0.3785;0.8004;
754.8000;0.3785;0.8075;
755.1000;0.3777;0.8028;
755.4000;0.3785;0.8028;
755.7000;0.3777;0.8075;
756.0000;0.3712;0.7910;
756.3000;0.3777;0.7981;
756.6000;0.3761;0.7886;
756.9000;0.3810;0.8028;
757.2000;0.3810;0.8075;
757.5000;0.3769;0.8075;
757.8000;0.3777;0.8194;
758.1000;0.3793;0.8312;
758.4000;0.3769;0.8265;
758.7000;0.3769;0.8289;
759.0000;0.3704;0.8146;
759.3000;0.3777;0.8146;
759.6000;0.3793;0.8099;
759.9000;0.3753;0.8004;
760.2000;0.3777;0.8099;
760.5000;0.3777;0.8146;
760.8000;0.3785;0.8123;
761.1000;0.3777;0.8099;
761.4000;0.3769;0.8241;
761.7000;0.3753;0.8241;
762.0000;0.3818;0.8383;
762.3000;0.3793;0.8241;
762.6000;0.3753;0.8123;
762.9000;0.3753;0.8123;
763.2000;0.3761;0.8265;
763.5000;0.3761;0.8241;
763.8000;0.3753;0.8265;
764.1000;0.3793;0.8407;
764.4000;0.3769;0.8360;
764.7000;0.3777;0.8407;
765.0000;0.3736;0.8170;
765.3000;0.3728;0.8194;
765.6000;0.3753;0.8265;
765.9000;0.3736;0.8170;
766.2000;0.3744;0.8170;
766.5000;0.3777;0.8289;
766.8000;0.3785;0.8336;
767.1000;0.3777;0.8312;
767.4000;0.3777;0.8265;
767.7000;0.3769;0.8241;
768.0000;0.3753;0.8123;
768.3000;0.3736;0.8075;
768.6000;0.3761;0.8194;
768.9000;0.3793;0.8194;
769.2000;0.3712;0.8004;
769.5000;0.3891;0.8407;
769.8000;0.3793;0.8194;
770.1000;0.3818;0.8217;
770.4000;0.3785;0.8217;
770.7000;0.3728;0.8075;
771.0000;0.3720;0.8052;
771.3000;0.3744;0.8028;
771.6000;0.3704;0.7933;
771.9000;0.3720;0.7910;
772.2000;0.3818;0.8146;
772.5000;0.3818;0.8194;
772.8000;0.3744;0.8028;
773.1000;0.3761;0.8123;
773.4000;0.3785;0.8146;
773.7000;0.3753;0.8052;
774.0000;0.3769;0.8123;
774.3000;0.3736;0.8004;
774.6000;0.3753;0.8028;
774.9000;0.3753;0.8052;
775.2000;0.3769;0.7981;
775.5000;0.3736;0.7910;
775.8000;0.3753;0.7862;
776.1000;0.3769;0.7910;
776.4000;0.3753;0.7886;
776.7000;0.3769;0.7910;
777.0000;0.3728;0.7957;
777.3000;0.3736;0.7933;
777.6000;0.3736;0.7910;
777.9000;0.3753;0.7886;
778.2000;0.3761;0.7839;
778.5000;0.3744;0.7839;
778.8000;0.3744;0.7791;
779.1000;0.3753;0.7720;
779.4000;0.3647;0.7507;
779.7000;0.3744;0.7815;
780.0000;0.3704;0.7744;
780.3000;0.3761;0.7910;
780.6000;0.3736;0.7933;
780.9000;0.3720;0.7910;
781.2000;0.3753;0.7981;
781.5000;0.3744;0.8004;
781.8000;0.3720;0.7886;
782.1000;0.3744;0.7933;
782.4000;0.3753;0.7933;
782.7000;0.3728;0.8075;
783.0000;0.3753;0.8123;
783.3000;0.3728;0.8052;
783.6000;0.3736;0.8075;
783.9000;0.3744;0.8028;
784.2000;0.3761;0.8052;
784.5000;0.3696;0.7910;
784.8000;0.3736;0.7981;
785.1000;0.3753;0.8170;
785.4000;0.3761;0.8194;
785.7000;0.3736;0.8075;
786.0000;0.3736;0.8123;
786.3000;0.3736;0.8194;
786.6000;0.3720;0.8146;
786.9000;0.3728;0.8241;
787.2000;0.3728;0.8123;
787.5000;0.3712;0.8146;
787.8000;0.3736;0.8170;
788.1000;0.3753;0.8123;
788.4000;0.3704;0.8052;
788.7000;0.3639;0.7981;
789.0000;0.3728;0.8170;
789.3000;0.3736;0.8241;
789.6000;0.3728;0.8075;
789.9000;0.3720;0.7957;
790.2000;0.3712;0.7957;
790.5000;0.3728;0.8004;
790.8000;0.3720;0.7981;
791.1000;0.3736;0.8052;
791.4000;0.3712;0.8028;
791.7000;0.3720;0.8004;
792.0000;0.3720;0.8004;
792.3000;0.3744;0.8052;
792.6000;0.3720;0.7886;
792.9000;0.3712;0.7957;
793.2000;0.3720;0.8028;
793.5000;0.3753;0.8075;
793.8000;0.3728;0.8004;
794.1000;0.3712;0.8004;
794.4000;0.3744;0.8028;
794.7000;0.3728;0.7933;
795.0000;0.3696;0.7862;
795.3000;0.3696;0.7957;
795.6000;0.3655;0.7886;
795.9000;0.3696;0.8052;
796.2000;0.3728;0.8075;
796.5000;0.3720;0.8075;
796.8000;0.3712;0.8099;
797.1000;0.3712;0.8075;
797.4000;0.3736;0.8123;
797.7000;0.3696;0.8146;
798.0000;0.3704;0.8099;
798.3000;0.3736;0.8194;
798.6000;0.3720;0.8146;
798.9000;0.3736;0.8265;
799.2000;0.3728;0.8194;
799.5000;0.3720;0.8265;
799.8000;0.3712;0.8265;
800.1000;0.3720;0.8336;
800.4000;0.3704;0.8265;
800.7000;0.3736;0.8241;
801.0000;0.3712;0.8265;
801.3000;0.3720;0.8265;
801.6000;0.3696;0.8170;
801.9000;0.3801;0.8383;
802.2000;0.3704;0.8170;
802.5000;0.3704;0.8194;
802.8000;0.3720;0.8241;
803.1000;0.3744;0.8336;
803.4000;0.3679;0.8217;
803.7000;0.3712;0.8217;
804.0000;0.3720;0.8312;
804.3000;0.3687;0.8241;
804.6000;0.3720;0.8265;
804.9000;0.3720;0.8360;
805.2000;0.3712;0.8312;
805.5000;0.3744;0.8336;
805.8000;0.3712;0.8360;
806.1000;0.3728;0.8383;
806.4000;0.3712;0.8312;
806.7000;0.3761;0.8360;
807.0000;0.3728;0.8336;
807.3000;0.3720;0.8194;
807.6000;0.3712;0.8170;
807.9000;0.3712;0.8194;
808.2000;0.3736;0.8336;
808.5000;0.3728;0.8241;
808.8000;0.3720;0.8241;
809.1000;0.3736;0.8241;
809.4000;0.3777;0.8383;
809.7000;0.3728;0.8217;
810.0000;0.3712;0.8241;
810.3000;0.3720;0.8194;
810.6000;0.3720;0.8217;
810.9000;0.3728;0.8289;
811.2000;0.3712;0.8289;
811.5000;0.3712;0.8289;
811.8000;0.3736;0.8383;
812.1000;0.3728;0.8383;
812.4000;0.3720;0.8336;
812.7000;0.3630;0.8052;
813.0000;0.3687;0.8194;
813.3000;0.3704;0.8170;
813.6000;0.3712;0.8217;
813.9000;0.3712;0.8217;
814.2000;0.3728;0.8312;
814.5000;0.3712;0.8289;
814.8000;0.3712;0.8360;
815.1000;0.3696;0.8265;
815.4000;0.3687;0.8265;
815.7000;0.3704;0.8360;
816.0000;0.3704;0.8360;
816.3000;0.3704;0.8265;
816.6000;0.3696;0.8217;
816.9000;0.3720;0.8289;
817.2000;0.3704;0.8289;
817.5000;0.3712;0.8289;
817.8000;0.3696;0.8170;
818.1000;0.3614;0.7957;
818.4000;0.3712;0.8217;
818.7000;0.3712;0.8265;
819.0000;0.3696;0.8194;
819.3000;0.3679;0.8289;
819.6000;0.3704;0.8289;
819.9000;0.3704;0.8194;
820.2000;0.3696;0.8170;
820.5000;0.3704;0.8170;
820.8000;0.3704;0.8146;
821.1000;0.3728;0.8170;
821.4000;0.3696;0.8146;
821.7000;0.3696;0.8217;
822.0000;0.3712;0.8265;
822.3000;0.3671;0.8194;
822.6000;0.3720;0.8170;
822.9000;0.3704;0.8146;
823.2000;0.3720;0.8241;
823.5000;0.3679;0.8170;
823.8000;0.3704;0.8289;
824.1000;0.3696;0.8336;
824.4000;0.3687;0.8336;
824.7000;0.3696;0.8265;
825.0000;0.3696;0.8194;
825.3000;0.3687;0.8123;
825.6000;0.3704;0.8170;
825.9000;0.3712;0.8146;
826.2000;0.3590;0.7815;
826.5000;0.3704;0.8052;
826.8000;0.3696;0.8028;
827.1000;0.3671;0.8028;
827.4000;0.3720;0.8099;
827.7000;0.3663;0.7957;
828.0000;0.3704;0.8123;
828.3000;0.3736;0.8217;
828.6000;0.3728;0.8217;
828.9000;0.3777;0.8360;
829.2000;0.3687;0.8146;
829.5000;0.3696;0.8099;
829.8000;0.3704;0.8052;
830.1000;0.3696;0.8099;
830.4000;0.3704;0.8170;
830.7000;0.3704;0.8194;
831.0000;0.3696;0.8217;
831.3000;0.3639;0.8099;
831.6000;0.3679;0.8265;
831.9000;0.3687;0.8312;
832.2000;0.3696;0.8360;
832.5000;0.3622;0.8194;
832.8000;0.3687;0.8383;
833.1000;0.3687;0.8383;
833.4000;0.3655;0.8217;
833.7000;0.3785;0.8478;
834.0000;0.3696;0.8289;
834.3000;0.3598;0.8146;
834.6000;0.3679;0.8407;
834.9000;0.3679;0.8383;
835.2000;0.3679;0.8407;
835.5000;0.3728;0.8573;
835.8000;0.3687;0.8407;
836.1000;0.3622;0.8241;
836.4000;0.3720;0.8454;
836.7000;0.3704;0.8431;
837.0000;0.3679;0.8407;
837.3000;0.3671;0.8265;
837.6000;0.3679;0.8265;
837.9000;0.3704;0.8170;
838.2000;0.3728;0.8336;
838.5000;0.3712;0.8289;
838.8000;0.3744;0.8360;
839.1000;0.3753;0.8360;
839.4000;0.3687;0.8289;
839.7000;0.3687;0.8360;
840.0000;0.3687;0.8289;
840.3000;0.3687;0.8360;
840.6000;0.3728;0.8454;
840.9000;0.3696;0.8454;
841.2000;0.3663;0.8383;
841.5000;0.3696;0.8549;
841.8000;0.3679;0.8502;
842.1000;0.3712;0.8502;
842.4000;0.3687;0.8407;
842.7000;0.3704;0.8383;
843.0000;0.3712;0.8383;
843.3000;0.3712;0.8383;
843.6000;0.3679;0.8265;
843.9000;0.3696;0.8265;
844.2000;0.3744;0.8360;
844.5000;0.3696;0.8265;
844.8000;0.3728;0.8336;
845.1000;0.3696;0.8289;
845.4000;0.3679;0.8360;
845.7000;0.3687;0.8478;
846.0000;0.3655;0.8383;
846.3000;0.3663;0.8383;
846.6000;0.3663;0.8431;
846.9000;0.3720;0.8573;
847.2000;0.3687;0.8502;
847.5000;0.3671;0.8360;
847.8000;0.3671;0.8265;
848.1000;0.3687;0.8312;
848.4000;0.3679;0.8265;
848.7000;0.3663;0.8194;
849.0000;0.3679;0.8217;
849.3000;0.3565;0.7933;
849.6000;0.3679;0.8217;
849.9000;0.3679;0.8265;
850.2000;0.3736;0.8336;
850.5000;0.3687;0.8099;
850.8000;0.3696;0.8194;
851.1000;0.3679;0.8146;
851.4000;0.3679;0.8099;
851.7000;0.3679;0.8099;
852.0000;0.3671;0.8028;
852.3000;0.3687;0.8075;
852.6000;0.3663;0.8004;
852.9000;0.3696;0.8075;
853.2000;0.3663;0.8099;
853.5000;0.3687;0.8170;
853.8000;0.3663;0.8004;
854.1000;0.3712;0.8217;
854.4000;0.3671;0.8123;
854.7000;0.3647;0.8170;
855.0000;0.3696;0.8312;
855.3000;0.3696;0.8383;
855.6000;0.3761;0.8502;
855.9000;0.3663;0.8170;
856.2000;0.3679;0.8217;
856.5000;0.3647;0.8075;
856.8000;0.3663;0.8099;
857.1000;0.3647;0.7957;
857.4000;0.3679;0.8170;
857.7000;0.3655;0.8146;
858.0000;0.3671;0.8241;
858.3000;0.3671;0.8217;
858.6000;0.3671;0.8265;
858.9000;0.3704;0.8312;
859.2000;0.3663;0.8217;
859.5000;0.3663;0.8194;
859.8000;0.3639;0.8241;
860.1000;0.3606;0.8123;
860.4000;0.3663;0.8170;
860.7000;0.3630;0.8052;
861.0000;0.3639;0.8075;
861.3000;0.3671;0.8146;
861.6000;0.3655;0.8099;
861.9000;0.3671;0.8004;
862.2000;0.3696;0.8075;
862.5000;0.3696;0.8052;
862.8000;0.3679;0.8028;
863.1000;0.3720;0.8170;
863.4000;0.3687;0.8099;
863.7000;0.3671;0.8052;
864.0000;0.3671;0.8123;
864.3000;0.3696;0.8170;
864.6000;0.3728;0.8289;
864.9000;0.3679;0.8146;
865.2000;0.3655;0.8146;
865.5000;0.3728;0.8312;
865.8000;0.3687;0.8241;
866.1000;0.3630;0.8170;
866.4000;0.3785;0.8525;
866.7000;0.3687;0.8241;
867.0000;0.3647;0.8123;
867.3000;0.3630;0.8123;
867.6000;0.3671;0.8170;
867.9000;0.3630;0.8099;
868.2000;0.3679;0.8217;
868.5000;0.3671;0.8217;
868.8000;0.3655;0.8146;
869.1000;0.3663;0.8194;
869.4000;0.3655;0.8217;
869.7000;0.3671;0.8265;
870.0000;0.3655;0.8265;
870.3000;0.3663;0.8217;
870.6000;0.3663;0.8289;
870.9000;0.3655;0.8265;
871.2000;0.3712;0.8360;
871.5000;0.3687;0.8265;
871.8000;0.3663;0.8312;
872.1000;0.3720;0.8431;
872.4000;0.3671;0.8289;
872.7000;0.3671;0.8241;
873.0000;0.3679;0.8241;
873.3000;0.3655;0.8146;
873.6000;0.3663;0.8170;
873.9000;0.3663;0.8241;
874.2000;0.3614;0.8146;
874.5000;0.3679;0.8289;
874.8000;0.3720;0.8431;
875.1000;0.3639;0.8265;
875.4000;0.3639;0.8312;
875.7000;0.3647;0.8407;
876.0000;0.3704;0.8525;
876.3000;0.3663;0.8407;
876.6000;0.3671;0.8407;
876.9000;0.3679;0.8454;
877.2000;0.3671;0.8360;
877.5000;0.3687;0.8383;
877.8000;0.3679;0.8360;
878.1000;0.3696;0.8383;
878.4000;0.3720;0.8454;
878.7000;0.3663;0.8383;
879.0000;0.3655;0.8360;
879.3000;0.3679;0.8383;
879.6000;0.3679;0.8431;
879.9000;0.3687;0.8454;
880.2000;0.3663;0.8478;
880.5000;0.3671;0.8525;
880.8000;0.3663;0.8478;
881.1000;0.3720;0.8573;
881.4000;0.3671;0.8478;
881.7000;0.3671;0.8407;
882.0000;0.3647;0.8407;
882.3000;0.3663;0.8525;
882.6000;0.3663;0.8502;
882.9000;0.3647;0.8360;
883.2000;0.3687;0.8454;
883.5000;0.3639;0.8265;
883.8000;0.3647;0.8289;
884.1000;0.3647;0.8289;
884.4000;0.3647;0.8289;
884.7000;0.3655;0.8265;
885.0000;0.3679;0.8265;
885.3000;0.3679;0.8360;
885.6000;0.3639;0.8312;
885.9000;0.3647;0.8312;
886.2000;0.3720;0.8431;
886.5000;0.3655;0.8336;
886.8000;0.3679;0.8383;
887.1000;0.3655;0.8312;
887.4000;0.3679;0.8360;
887.7000;0.3639;0.8265;
888.0000;0.3647;0.8170;
888.3000;0.3663;0.8170;
888.6000;0.3720;0.8265;
888.9000;0.3663;0.8146;
889.2000;0.3639;0.8099;
889.5000;0.3590;0.8004;
889.8000;0.3655;0.8289;
890.1000;0.3639;0.8217;
890.4000;0.3663;0.8312;
890.7000;0.3655;0.8194;
891.0000;0.3655;0.8217;
891.3000;0.3663;0.8146;
891.6000;0.3663;0.8099;
891.9000;0.3663;0.8146;
892.2000;0.3590;0.8004;
892.5000;0.3679;0.8194;
892.8000;0.3663;0.8217;
893.1000;0.3663;0.8146;
893.4000;0.3663;0.8194;
893.7000;0.3679;0.8241;
894.0000;0.3655;0.8194;
894.3000;0.3622;0.8146;
894.6000;0.3647;0.8194;
894.9000;0.3647;0.8194;
895.2000;0.3663;0.8241;
895.5000;0.3671;0.8241;
895.8000;0.3639;0.8170;
896.1000;0.3655;0.8194;
896.4000;0.3679;0.8217;
896.7000;0.3671;0.8194;
897.0000;0.3639;0.8123;
897.3000;0.3655;0.8075;
897.6000;0.3696;0.8170;
897.9000;0.3647;0.8123;
898.2000;0.3639;0.8146;
898.5000;0.3614;0.8099;
898.8000;0.3647;0.8194;
899.1000;0.3679;0.8241;
899.4000;0.3655;0.8194;
899.7000;0.3728;0.8360;
900.0000;0.3744;0.8383;
900.3000;0.3663;0.8194;
900.6000;0.3655;0.8146;
900.9000;0.3655;0.8099;
901.2000;0.3663;0.8146;
901.5000;0.3671;0.8170;
901.8000;0.3712;0.8289;
902.1000;0.3655;0.8217;
902.4000;0.3663;0.8312;
902.7000;0.3712;0.8431;
903.0000;0.3687;0.8407;
903.3000;0.3671;0.8336;
903.6000;0.3557;0.8052;
903.9000;0.3679;0.8241;
904.2000;0.3671;0.8217;
904.5000;0.3647;0.8099;
904.8000;0.3630;0.8075;
905.1000;0.3655;0.8075;
905.4000;0.3614;0.8028;
905.7000;0.3647;0.8170;
906.0000;0.3606;0.8123;
906.3000;0.3655;0.8194;
906.6000;0.3663;0.8217;
906.9000;0.3655;0.8289;
907.2000;0.3655;0.8241;
907.5000;0.3671;0.8194;
907.8000;0.3663;0.8217;
908.1000;0.3647;0.8241;
908.4000;0.3565;0.8099;
908.7000;0.3663;0.8241;
909.0000;0.3639;0.8170;
909.3000;0.3655;0.8170;
909.6000;0.3630;0.8170;
909.9000;0.3622;0.8170;
910.2000;0.3639;0.8241;
910.5000;0.3639;0.8312;
910.8000;0.3639;0.8241;
911.1000;0.3712;0.8478;
911.4000;0.3639;0.8360;
911.7000;0.3663;0.8312;
912.0000;0.3647;0.8265;
912.3000;0.3614;0.8170;
912.6000;0.3639;0.8194;
912.9000;0.3663;0.8336;
913.2000;0.3712;0.8454;
913.5000;0.3630;0.8289;
913.8000;0.3630;0.8217;
914.1000;0.3582;0.8052;
914.4000;0.3639;0.8241;
914.7000;0.3647;0.8265;
915.0000;0.3630;0.8170;
915.3000;0.3639;0.8146;
915.6000;0.3639;0.8194;
915.9000;0.3647;0.8289;
916.2000;0.3582;0.8123;
916.5000;0.3630;0.8217;
916.8000;0.3582;0.8170;
917.1000;0.3622;0.8336;
917.4000;0.3655;0.8336;
917.7000;0.3639;0.8217;
918.0000;0.3687;0.8336;
918.3000;0.3598;0.8146;
918.6000;0.3655;0.8312;
918.9000;0.3639;0.8265;
919.2000;0.3647;0.8265;
919.5000;0.3647;0.8146;
919.8000;0.3622;0.8123;
920.1000;0.3622;0.8170;
920.4000;0.3614;0.8217;
920.7000;0.3639;0.8265;
921.0000;0.3655;0.8289;
921.3000;0.3630;0.8265;
921.6000;0.3639;0.8217;
921.9000;0.3744;0.8454;
922.2000;0.3565;0.8004;
922.5000;0.3630;0.8194;
922.8000;0.3655;0.8146;
923.1000;0.3647;0.8123;
923.4000;0.3655;0.8099;
923.7000;0.3663;0.8146;
924.0000;0.3630;0.8123;
924.3000;0.3647;0.8075;
924.6000;0.3655;0.8028;
924.9000;0.3630;0.7910;
925.2000;0.3663;0.8028;
925.5000;0.3671;0.8052;
925.8000;0.3712;0.8146;
926.1000;0.3647;0.8028;
926.4000;0.3696;0.8217;
926.7000;0.3655;0.8052;
927.0000;0.3647;0.8075;
927.3000;0.3655;0.8170;
927.6000;0.3663;0.8146;
927.9000;0.3663;0.8241;
928.2000;0.3647;0.8241;
928.5000;0.3647;0.8265;
928.8000;0.3647;0.8170;
929.1000;0.3614;0.8194;
929.4000;0.3687;0.8336;
929.7000;0.3655;0.8289;
930.0000;0.3647;0.8265;
930.3000;0.3639;0.8289;
930.6000;0.3647;0.8289;
930.9000;0.3639;0.8241;
931.2000;0.3655;0.8265;
931.5000;0.3630;0.8170;
931.8000;0.3630;0.8194;
932.1000;0.3655;0.8170;
932.4000;0.3639;0.8146;
932.7000;0.3639;0.8123;
933.0000;0.3647;0.8123;
933.3000;0.3655;0.8170;
933.6000;0.3639;0.8265;
933.9000;0.3639;0.8289;
934.2000;0.3590;0.8170;
934.5000;0.3647;0.8312;
934.8000;0.3647;0.8265;
935.1000;0.3614;0.8217;
935.4000;0.3630;0.8241;
935.7000;0.3639;0.8312;
936.0000;0.3630;0.8360;
936.3000;0.3639;0.8265;
936.6000;0.3622;0.8170;
936.9000;0.3639;0.8265;
937.2000;0.3630;0.8217;
937.5000;0.3647;0.8265;
937.8000;0.3647;0.8265;
938.1000;0.3639;0.8312;
938.4000;0.3639;0.8431;
938.7000;0.3647;0.8525;
939.0000;0.3582;0.8360;
939.3000;0.3622;0.8383;
939.6000;0.3639;0.8336;
939.9000;0.3647;0.8312;
940.2000;0.3655;0.8312;
940.5000;0.3647;0.8289;
940.8000;0.3630;0.8217;
941.1000;0.3630;0.8170;
941.4000;0.3639;0.8217;
941.7000;0.3622;0.8146;
942.0000;0.3647;0.8123;
942.3000;0.3655;0.8146;
942.6000;0.3647;0.8217;
942.9000;0.3598;0.8099;
943.2000;0.3630;0.8099;
943.5000;0.3655;0.8123;
943.8000;0.3647;0.8099;
944.1000;0.3639;0.8075;
944.4000;0.3630;0.8099;
944.7000;0.3647;0.8123;
945.0000;0.3655;0.8241;
945.3000;0.3639;0.8170;
945.6000;0.3630;0.8099;
945.9000;0.3639;0.8170;
946.2000;0.3639;0.8075;
946.5000;0.3622;0.8028;
946.8000;0.3622;0.8052;
947.1000;0.3630;0.8099;
947.4000;0.3630;0.8075;
947.7000;0.3630;0.8052;
948.0000;0.3639;0.8028;
948.3000;0.3630;0.8004;
948.6000;0.3655;0.8028;
948.9000;0.3671;0.8099;
949.2000;0.3630;0.8004;
949.5000;0.3630;0.7910;
949.8000;0.3639;0.7957;
950.1000;0.3736;0.8265;
950.4000;0.3639;0.8004;
950.7000;0.3606;0.8004;
951.0000;0.3630;0.8099;
951.3000;0.3614;0.8194;
951.6000;0.3639;0.8217;
951.9000;0.3671;0.8289;
952.2000;0.3614;0.8146;
952.5000;0.3614;0.8265;
952.8000;0.3639;0.8336;
953.1000;0.3630;0.8336;
953.4000;0.3639;0.8431;
953.7000;0.3639;0.8454;
954.0000;0.3639;0.8336;
954.3000;0.3622;0.8217;
954.6000;0.3655;0.8336;
954.9000;0.3639;0.8312;
955.2000;0.3639;0.8336;
955.5000;0.3647;0.8289;
955.8000;0.3622;0.8194;
956.1000;0.3614;0.8123;
956.4000;0.3696;0.8289;
956.7000;0.3630;0.8052;
957.0000;0.3639;0.8075;
957.3000;0.3647;0.8075;
957.6000;0.3630;0.8075;
957.9000;0.3647;0.8099;
958.2000;0.3663;0.8123;
958.5000;0.3639;0.8052;
958.8000;0.3647;0.8075;
959.1000;0.3557;0.7910;
959.4000;0.3630;0.8075;
959.7000;0.3639;0.8123;
960.0000;0.3630;0.8052;
960.3000;0.3639;0.8075;
960.6000;0.3647;0.8217;
960.9000;0.3622;0.8265;
961.2000;0.3647;0.8289;
961.5000;0.3630;0.8146;
961.8000;0.3639;0.8241;
962.1000;0.3614;0.8146;
962.4000;0.3614;0.8146;
962.7000;0.3622;0.8170;
963.0000;0.3647;0.8146;
963.3000;0.3630;0.8075;
963.6000;0.3630;0.8123;
963.9000;0.3639;0.8170;
964.2000;0.3622;0.8123;
964.5000;0.3647;0.8146;
964.8000;0.3647;0.8241;
965.1000;0.3630;0.8241;
965.4000;0.3647;0.8289;
965.7000;0.3622;0.8194;
966.0000;0.3639;0.8265;
966.3000;0.3622;0.8194;
966.6000;0.3655;0.8265;
966.9000;0.3671;0.8217;
967.2000;0.3704;0.8360;
967.5000;0.3630;0.8146;
967.8000;0.3606;0.8123;
968.1000;0.3622;0.8123;
968.4000;0.3647;0.8052;
968.7000;0.3622;0.8004;
969.0000;0.3630;0.8028;
969.3000;0.3647;0.8075;
969.6000;0.3647;0.8052;
969.9000;0.3630;0.8052;
970.2000;0.3630;0.8075;
970.5000;0.3647;0.8146;
970.8000;0.3606;0.8052;
971.1000;0.3573;0.8004;
971.4000;0.3639;0.8217;
971.7000;0.3622;0.8217;
972.0000;0.3622;0.8194;
972.3000;0.3712;0.8407;
972.6000;0.3606;0.8170;
972.9000;0.3630;0.8217;
973.2000;0.3647;0.8289;
973.5000;0.3622;0.8265;
973.8000;0.3647;0.8241;
974.1000;0.3630;0.8170;
974.4000;0.3639;0.8265;
974.7000;0.3573;0.8123;
975.0000;0.3663;0.8289;
975.3000;0.3630;0.8217;
975.6000;0.3614;0.8123;
975.9000;0.3630;0.8099;
976.2000;0.3639;0.8075;
976.5000;0.3630;0.8099;
976.8000;0.3639;0.8146;
977.1000;0.3671;0.8217;
977.4000;0.3606;0.8052;
977.7000;0.3630;0.8075;
978.0000;0.3647;0.8075;
978.3000;0.3663;0.8146;
978.6000;0.3622;0.8194;
978.9000;0.3647;0.8194;
979.2000;0.3614;0.8170;
979.5000;0.3647;0.8312;
979.8000;0.3639;0.8336;
980.1000;0.3639;0.8383;
980.4000;0.3630;0.8312;
980.7000;0.3565;0.8052;
981.0000;0.3590;0.8146;
981.3000;0.3630;0.8241;
981.6000;0.3630;0.8265;
981.9000;0.3687;0.8454;
982.2000;0.3639;0.8289;
982.5000;0.3655;0.8241;
982.8000;0.3622;0.8265;
983.1000;0.3639;0.8194;
983.4000;0.3630;0.8170;
983.7000;0.3630;0.8265;
984.0000;0.3639;0.8241;
984.3000;0.3679;0.8383;
984.6000;0.3647;0.8360;
984.9000;0.3614;0.8217;
985.2000;0.3663;0.8360;
985.5000;0.3630;0.8360;
985.8000;0.3639;0.8454;
986.1000;0.3720;0.8667;
986.4000;0.3630;0.8336;
986.7000;0.3639;0.8265;
987.0000;0.3630;0.8360;
987.3000;0.3590;0.8194;
987.6000;0.3614;0.8241;
987.9000;0.3647;0.8217;
988.2000;0.3639;0.8336;
988.5000;0.3622;0.8312;
988.8000;0.3614;0.8265;
989.1000;0.3639;0.8289;
989.4000;0.3614;0.8241;
989.7000;0.3614;0.8241;
990.0000;0.3630;0.8241;
990.3000;0.3622;0.8217;
990.6000;0.3614;0.8146;
990.9000;0.3630;0.8123;
991.2000;0.3630;0.8146;
991.5000;0.3622;0.8052;
991.8000;0.3630;0.8075;
992.1000;0.3647;0.8194;
992.4000;0.3606;0.8170;
992.7000;0.3622;0.8217;
993.0000;0.3622;0.8217;
993.3000;0.3622;0.8265;
993.6000;0.3614;0.8312;
993.9000;0.3622;0.8312;
994.2000;0.3630;0.8312;
994.5000;0.3630;0.8336;
994.8000;0.3630;0.8336;
995.1000;0.3639;0.8265;
995.4000;0.3622;0.8217;
995.7000;0.3647;0.8312;
996.0000;0.3647;0.8360;
996.3000;0.3606;0.8312;
996.6000;0.3622;0.8265;
996.9000;0.3622;0.8170;
997.2000;0.3696;0.8289;
997.5000;0.3679;0.8265;
997.8000;0.3630;0.8217;
998.1000;0.3630;0.8194;
998.4000;0.3590;0.8146;
998.7000;0.3630;0.8265;
999.0000;0.3630;0.8336;
999.3000;0.3533;0.8170;
999.6000;0.3614;0.8217;
999.9000;0.3630;0.8312;
1000.2000;0.3622;0.8289;
1000.5000;0.3777;0.8620;
1000.8000;0.3614;0.8241;
1001.1000;0.3647;0.8289;
1001.4000;0.3630;0.8289;
1001.7000;0.3557;0.8123;
1002.0000;0.3622;0.8170;
1002.3000;0.3630;0.8170;
1002.6000;0.3614;0.8123;
1002.9000;0.3614;0.8099;
1003.2000;0.3630;0.8241;
1003.5000;0.3614;0.8383;
1003.8000;0.3622;0.8454;
1004.1000;0.3622;0.8407;
1004.4000;0.3622;0.8478;
1004.7000;0.3622;0.8431;
1005.0000;0.3639;0.8478;
1005.3000;0.3639;0.8525;
1005.6000;0.3622;0.8502;
1005.9000;0.3598;0.8336;
1006.2000;0.3557;0.8241;
1006.5000;0.3639;0.8383;
1006.8000;0.3639;0.8383;
1007.1000;0.3573;0.8312;
1007.4000;0.3630;0.8502;
1007.7000;0.3622;0.8525;
1008.0000;0.3614;0.8454;
1008.3000;0.3622;0.8478;
1008.6000;0.3622;0.8383;
1008.9000;0.3630;0.8383;
1009.2000;0.3614;0.8312;
1009.5000;0.3606;0.8241;
1009.8000;0.3630;0.8265;
1010.1000;0.3614;0.8289;
1010.4000;0.3655;0.8431;
1010.7000;0.3639;0.8312;
1011.0000;0.3614;0.8336;
1011.3000;0.3622;0.8312;
1011.6000;0.3647;0.8360;
1011.9000;0.3639;0.8407;
1012.2000;0.3614;0.8336;
1012.5000;0.3622;0.8336;
1012.8000;0.3582;0.8289;
1013.1000;0.3606;0.8265;
1013.4000;0.3622;0.8336;
1013.7000;0.3622;0.8360;
1014.0000;0.3614;0.8265;
1014.3000;0.3630;0.8360;
1014.6000;0.3622;0.8265;
1014.9000;0.3598;0.8146;
1015.2000;0.3639;0.8265;
1015.5000;0.3630;0.8194;
1015.8000;0.3622;0.8146;
1016.1000;0.3606;0.8099;
1016.4000;0.3614;0.8099;
1016.7000;0.3639;0.8123;
1017.0000;0.3614;0.8075;
1017.3000;0.3647;0.8170;
1017.6000;0.3598;0.8146;
1017.9000;0.3647;0.8312;
1018.2000;0.3598;0.8194;
1018.5000;0.3590;0.8075;
1018.8000;0.3630;0.8170;
1019.1000;0.3639;0.8217;
1019.4000;0.3622;0.8312;
1019.7000;0.3622;0.8502;
1020.0000;0.3622;0.8407;
1020.3000;0.3622;0.8360;
1020.6000;0.3639;0.8336;
1020.9000;0.3614;0.8360;
1021.2000;0.3614;0.8360;
1021.5000;0.3655;0.8549;
1021.8000;0.3622;0.8454;
1022.1000;0.3516;0.8123;
1022.4000;0.3541;0.8289;
1022.7000;0.3630;0.8431;
1023.0000;0.3622;0.8431;
1023.3000;0.3614;0.8431;
1023.6000;0.3606;0.8431;
1023.9000;0.3598;0.8407;
1024.2000;0.3679;0.8596;
1024.5000;0.3630;0.8454;
1024.8000;0.3639;0.8525;
1025.1000;0.3590;0.8454;
1025.4000;0.3622;0.8549;
1025.7000;0.3639;0.8667;
1026.0000;0.3647;0.8738;
1026.3000;0.3639;0.8644;
1026.6000;0.3639;0.8644;
1026.9000;0.3630;0.8596;
1027.2000;0.3630;0.8549;
1027.5000;0.3622;0.8336;
1027.8000;0.3614;0.8360;
1028.1000;0.3598;0.8360;
1028.4000;0.3582;0.8289;
1028.7000;0.3606;0.8336;
1029.0000;0.3606;0.8336;
1029.3000;0.3582;0.8383;
1029.6000;0.3598;0.8312;
1029.9000;0.3614;0.8360;
1030.2000;0.3671;0.8502;
1030.5000;0.3630;0.8312;
1030.8000;0.3630;0.8360;
1031.1000;0.3630;0.8336;
1031.4000;0.3639;0.8289;
1031.7000;0.3606;0.8241;
1032.0000;0.3630;0.8217;
1032.3000;0.3630;0.8241;
1032.6000;0.3704;0.8525;
1032.9000;0.3606;0.8312;
1033.2000;0.3614;0.8383;
1033.5000;0.3614;0.8407;
1033.8000;0.3622;0.8407;
1034.1000;0.3606;0.8289;
1034.4000;0.3549;0.8146;
1034.7000;0.3598;0.8265;
1035.0000;0.3606;0.8360;
1035.3000;0.3590;0.8407;
1035.6000;0.3622;0.8620;
1035.9000;0.3614;0.8620;
1036.2000;0.3590;0.8502;
1036.5000;0.3614;0.8596;
1036.8000;0.3614;0.8573;
1037.1000;0.3590;0.8407;
1037.4000;0.3614;0.8502;
1037.7000;0.3622;0.8525;
1038.0000;0.3663;0.8715;
1038.3000;0.3565;0.8407;
1038.6000;0.3622;0.8525;
1038.9000;0.3598;0.8454;
1039.2000;0.3614;0.8454;
1039.5000;0.3647;0.8431;
1039.8000;0.3614;0.8454;
1040.1000;0.3606;0.8478;
1040.4000;0.3606;0.8478;
1040.7000;0.3606;0.8454;
1041.0000;0.3614;0.8454;
1041.3000;0.3622;0.8454;
1041.6000;0.3614;0.8454;
1041.9000;0.3639;0.8454;
1042.2000;0.3557;0.8265;
1042.5000;0.3614;0.8454;
1042.8000;0.3606;0.8360;
1043.1000;0.3614;0.8383;
1043.4000;0.3598;0.8336;
1043.7000;0.3622;0.8360;
1044.0000;0.3630;0.8407;
1044.3000;0.3630;0.8312;
1044.6000;0.3639;0.8289;
1044.9000;0.3622;0.8265;
1045.2000;0.3639;0.8289;
1045.5000;0.3598;0.8123;
1045.8000;0.3622;0.8194;
1046.1000;0.3744;0.8525;
1046.4000;0.3614;0.8265;
1046.7000;0.3614;0.8241;
1047.0000;0.3622;0.8336;
1047.3000;0.3663;0.8431;
1047.6000;0.3606;0.8265;
1047.9000;0.3500;0.8099;
1048.2000;0.3598;0.8336;
1048.5000;0.3614;0.8360;
1048.8000;0.3606;0.8360;
1049.1000;0.3598;0.8407;
1049.4000;0.3630;0.8336;
1049.7000;0.3622;0.8360;
1050.0000;0.3622;0.8407;
1050.3000;0.3573;0.8265;
1050.6000;0.3614;0.8383;
1050.9000;0.3622;0.8360;
1051.2000;0.3582;0.8289;
1051.5000;0.3606;0.8312;
1051.8000;0.3614;0.8360;
1052.1000;0.3630;0.8502;
1052.4000;0.3582;0.8454;
1052.7000;0.3614;0.8502;
1053.0000;0.3614;0.8454;
1053.3000;0.3622;0.8383;
1053.6000;0.3614;0.8336;
1053.9000;0.3606;0.8360;
1054.2000;0.3598;0.8336;
1054.5000;0.3622;0.8336;
1054.8000;0.3606;0.8312;
1055.1000;0.3728;0.8691;
1055.4000;0.3639;0.8407;
1055.7000;0.3622;0.8383;
1056.0000;0.3622;0.8360;
1056.3000;0.3614;0.8360;
1056.6000;0.3614;0.8336;
1056.9000;0.3622;0.8383;
1057.2000;0.3622;0.8431;
1057.5000;0.3630;0.8431;
1057.8000;0.3614;0.8478;
1058.1000;0.3549;0.8336;
1058.4000;0.3671;0.8549;
1058.7000;0.3622;0.8549;
1059.0000;0.3598;0.8478;
1059.3000;0.3614;0.8383;
1059.6000;0.3630;0.8407;
1059.9000;0.3598;0.8454;
1060.2000;0.3606;0.8407;
1060.5000;0.3598;0.8383;
1060.8000;0.3598;0.8289;
1061.1000;0.3598;0.8194;
1061.4000;0.3582;0.8241;
1061.7000;0.3606;0.8336;
1062.0000;0.3614;0.8407;
1062.3000;0.3614;0.8502;
1062.6000;0.3630;0.8596;
1062.9000;0.3630;0.8478;
1063.2000;0.3606;0.8407;
1063.5000;0.3614;0.8383;
1063.8000;0.3622;0.8383;
1064.1000;0.3614;0.8360;
1064.4000;0.3622;0.8383;
1064.7000;0.3614;0.8431;
1065.0000;0.3516;0.8217;
1065.3000;0.3606;0.8431;
1065.6000;0.3630;0.8478;
1065.9000;0.3598;0.8336;
1066.2000;0.3606;0.8312;
1066.5000;0.3573;0.8241;
1066.8000;0.3622;0.8336;
1067.1000;0.3606;0.8312;
1067.4000;0.3630;0.8383;
1067.7000;0.3606;0.8312;
1068.0000;0.3614;0.8407;
1068.3000;0.3630;0.8454;
1068.6000;0.3614;0.8407;
1068.9000;0.3598;0.8407;
1069.2000;0.3630;0.8549;
1069.5000;0.3614;0.8454;
1069.8000;0.3606;0.8407;
1070.1000;0.3622;0.8502;
1070.4000;0.3590;0.8431;
1070.7000;0.3541;0.8241;
1071.0000;0.3606;0.8478;
1071.3000;0.3630;0.8549;
1071.6000;0.3606;0.8573;
1071.9000;0.3655;0.8786;
1072.2000;0.3573;0.8596;
1072.5000;0.3614;0.8620;
1072.8000;0.3622;0.8644;
1073.1000;0.3598;0.8667;
1073.4000;0.3614;0.8667;
1073.7000;0.3606;0.8573;
1074.0000;0.3598;0.8549;
1074.3000;0.3606;0.8478;
1074.6000;0.3614;0.8478;
1074.9000;0.3614;0.8454;
1075.2000;0.3590;0.8289;
1075.5000;0.3606;0.8336;
1075.8000;0.3614;0.8360;
1076.1000;0.3639;0.8431;
1076.4000;0.3622;0.8431;
1076.7000;0.3622;0.8383;
1077.0000;0.3622;0.8241;
1077.3000;0.3549;0.8075;
1077.6000;0.3639;0.8336;
1077.9000;0.3590;0.8265;
1078.2000;0.3614;0.8336;
1078.5000;0.3614;0.8312;
1078.8000;0.3614;0.8265;
1079.1000;0.3655;0.8431;
1079.4000;0.3606;0.8383;
1079.7000;0.3614;0.8454;
1080.0000;0.3622;0.8454;
1080.3000;0.3614;0.8360;
1080.6000;0.3622;0.8289;
1080.9000;0.3639;0.8312;
1081.2000;0.3533;0.8052;
1081.5000;0.3582;0.8217;
1081.8000;0.3639;0.8360;
1082.1000;0.3614;0.8265;
1082.4000;0.3606;0.8312;
1082.7000;0.3614;0.8454;
1083.0000;0.3622;0.8502;
1083.3000;0.3663;0.8478;
1083.6000;0.3582;0.8289;
1083.9000;0.3606;0.8360;
1084.2000;0.3630;0.8478;
1084.5000;0.3614;0.8383;
1084.8000;0.3622;0.8360;
1085.1000;0.3606;0.8194;
1085.4000;0.3606;0.8123;
1085.7000;0.3606;0.8170;
1086.0000;0.3663;0.8265;
1086.3000;0.3606;0.8099;
1086.6000;0.3598;0.8123;
1086.9000;0.3630;0.8123;
1087.2000;0.3590;0.8004;
1087.5000;0.3630;0.8194;
1087.8000;0.3606;0.8217;
1088.1000;0.3630;0.8289;
1088.4000;0.3606;0.8146;
1088.7000;0.3622;0.8265;
1089.0000;0.3614;0.8241;
1089.3000;0.3606;0.8194;
1089.6000;0.3614;0.8146;
1089.9000;0.3671;0.8217;
1090.2000;0.3639;0.8194;
1090.5000;0.3614;0.8146;
1090.8000;0.3582;0.8170;
1091.1000;0.3655;0.8383;
1091.4000;0.3541;0.8052;
1091.7000;0.3606;0.8194;
1092.0000;0.3614;0.8217;
1092.3000;0.3590;0.8241;
1092.6000;0.3606;0.8312;
1092.9000;0.3630;0.8289;
1093.2000;0.3647;0.8289;
1093.5000;0.3606;0.8241;
1093.8000;0.3622;0.8194;
1094.1000;0.3606;0.8123;
1094.4000;0.3606;0.8170;
1094.7000;0.3630;0.8241;
1095.0000;0.3598;0.8194;
1095.3000;0.3598;0.8194;
1095.6000;0.3614;0.8123;
1095.9000;0.3606;0.8028;
1096.2000;0.3541;0.7886;
1096.5000;0.3622;0.8099;
1096.8000;0.3606;0.8194;
1097.1000;0.3614;0.8217;
1097.4000;0.3614;0.8099;
1097.7000;0.3598;0.8028;
1098.0000;0.3655;0.8170;
1098.3000;0.3663;0.8194;
1098.6000;0.3630;0.8194;
1098.9000;0.3606;0.8146;
1099.2000;0.3639;0.8170;
1099.5000;0.3614;0.8028;
1099.8000;0.3614;0.7981;
1100.1000;0.3630;0.8004;
1100.4000;0.3598;0.8004;
1100.7000;0.3622;0.8028;
1101.0000;0.3598;0.8123;
1101.3000;0.3606;0.8194;
1101.6000;0.3614;0.8217;
1101.9000;0.3590;0.8170;
1102.2000;0.3614;0.8194;
1102.5000;0.3614;0.8194;
1102.8000;0.3598;0.8217;
1103.1000;0.3614;0.8312;
1103.4000;0.3598;0.8265;
1103.7000;0.3614;0.8265;
1104.0000;0.3598;0.8241;
1104.3000;0.3606;0.8265;
1104.6000;0.3630;0.8312;
1104.9000;0.3630;0.8312;
1105.2000;0.3590;0.8217;
1105.5000;0.3655;0.8265;
1105.8000;0.3606;0.8217;
1106.1000;0.3679;0.8454;
1106.4000;0.3582;0.8312;
1106.7000;0.3590;0.8383;
1107.0000;0.3573;0.8336;
1107.3000;0.3614;0.8502;
1107.6000;0.3573;0.8312;
1107.9000;0.3606;0.8336;
1108.2000;0.3598;0.8241;
1108.5000;0.3622;0.8289;
1108.8000;0.3614;0.8312;
1109.1000;0.3606;0.8360;
1109.4000;0.3541;0.8170;
1109.7000;0.3622;0.8431;
1110.0000;0.3590;0.8312;
1110.3000;0.3573;0.8289;
1110.6000;0.3590;0.8454;
1110.9000;0.3606;0.8431;
1111.2000;0.3590;0.8360;
1111.5000;0.3590;0.8312;
1111.8000;0.3582;0.8289;
1112.1000;0.3614;0.8289;
1112.4000;0.3622;0.8383;
1112.7000;0.3598;0.8383;
1113.0000;0.3598;0.8431;
1113.3000;0.3622;0.8383;
1113.6000;0.3622;0.8217;
1113.9000;0.3630;0.8241;
1114.2000;0.3671;0.8289;
1114.5000;0.3639;0.8146;
1114.8000;0.3614;0.8099;
1115.1000;0.3663;0.8336;
1115.4000;0.3565;0.8123;
1115.7000;0.3606;0.8241;
1116.0000;0.3590;0.8336;
1116.3000;0.3614;0.8407;
1116.6000;0.3590;0.8454;
1116.9000;0.3630;0.8549;
1117.2000;0.3614;0.8454;
1117.5000;0.3663;0.8620;
1117.8000;0.3598;0.8336;
1118.1000;0.3614;0.8431;
1118.4000;0.3614;0.8431;
1118.7000;0.3606;0.8407;
1119.0000;0.3541;0.8265;
1119.3000;0.3590;0.8407;
1119.6000;0.3598;0.8454;
1119.9000;0.3606;0.8454;
1120.2000;0.3598;0.8360;
1120.5000;0.3525;0.8075;
1120.8000;0.3614;0.8265;
1121.1000;0.3598;0.8194;
1121.4000;0.3598;0.8194;
1121.7000;0.3614;0.8289;
1122.0000;0.3614;0.8360;
1122.3000;0.3614;0.8312;
1122.6000;0.3630;0.8360;
1122.9000;0.3630;0.8336;
1123.2000;0.3533;0.8217;
1123.5000;0.3614;0.8336;
1123.8000;0.3622;0.8336;
1124.1000;0.3606;0.8289;
1124.4000;0.3614;0.8312;
1124.7000;0.3614;0.8336;
1125.0000;0.3590;0.8241;
1125.3000;0.3630;0.8383;
1125.6000;0.3606;0.8383;
1125.9000;0.3630;0.8431;
1126.2000;0.3598;0.8383;
1126.5000;0.3598;0.8289;
1126.8000;0.3541;0.8170;
1127.1000;0.3590;0.8241;
1127.4000;0.3622;0.8312;
1127.7000;0.3606;0.8217;
1128.0000;0.3614;0.8217;
1128.3000;0.3598;0.8265;
1128.6000;0.3639;0.8312;
1128.9000;0.3598;0.8146;
1129.2000;0.3622;0.8360;
1129.5000;0.3655;0.8383;
1129.8000;0.3639;0.8360;
1130.1000;0.3606;0.8241;
1130.4000;0.3655;0.8431;
1130.7000;0.3565;0.8170;
1131.0000;0.3614;0.8312;
1131.3000;0.3614;0.8289;
1131.6000;0.3525;0.8123;
1131.9000;0.3598;0.8312;
1132.2000;0.3630;0.8336;
1132.5000;0.3590;0.8146;
1132.8000;0.3606;0.8194;
1133.1000;0.3606;0.8123;
1133.4000;0.3606;0.8194;
1133.7000;0.3598;0.8217;
1134.0000;0.3639;0.8431;
1134.3000;0.3606;0.8312;
1134.6000;0.3590;0.8336;
1134.9000;0.3614;0.8478;
1135.2000;0.3598;0.8407;
1135.5000;0.3639;0.8407;
1135.8000;0.3614;0.8312;
1136.1000;0.3598;0.8265;
1136.4000;0.3606;0.8289;
1136.7000;0.3614;0.8360;
1137.0000;0.3565;0.8265;
1137.3000;0.3582;0.8241;
1137.6000;0.3679;0.8431;
1137.9000;0.3614;0.8194;
1138.2000;0.3573;0.8146;
1138.5000;0.3614;0.8170;
1138.8000;0.3614;0.8217;
1139.1000;0.3622;0.8336;
1139.4000;0.3622;0.8383;
1139.7000;0.3614;0.8312;
1140.0000;0.3598;0.8360;
1140.3000;0.3622;0.8360;
1140.6000;0.3614;0.8360;
1140.9000;0.3598;0.8289;
1141.2000;0.3679;0.8502;
1141.5000;0.3590;0.8336;
1141.8000;0.3606;0.8360;
1142.1000;0.3598;0.8360;
1142.4000;0.3598;0.8289;
1142.7000;0.3590;0.8241;
1143.0000;0.3598;0.8289;
1143.3000;0.3573;0.8265;
1143.6000;0.3598;0.8336;
1143.9000;0.3606;0.8360;
1144.2000;0.3630;0.8407;
1144.5000;0.3614;0.8454;
1144.8000;0.3606;0.8431;
1145.1000;0.3598;0.8431;
1145.4000;0.3614;0.8407;
1145.7000;0.3630;0.8454;
1146.0000;0.3606;0.8525;
1146.3000;0.3606;0.8573;
1146.6000;0.3614;0.8549;
1146.9000;0.3606;0.8525;
1147.2000;0.3541;0.8360;
1147.5000;0.3590;0.8454;
1147.8000;0.3614;0.8407;
1148.1000;0.3671;0.8525;
1148.4000;0.3622;0.8383;
1148.7000;0.3614;0.8336;
1149.0000;0.3614;0.8383;
1149.3000;0.3590;0.8241;
1149.6000;0.3622;0.8312;
1149.9000;0.3606;0.8241;
1150.2000;0.3647;0.8289;
1150.5000;0.3582;0.8241;
1150.8000;0.3622;0.8383;
1151.1000;0.3598;0.8360;
1151.4000;0.3582;0.8312;
1151.7000;0.3590;0.8312;
1152.0000;0.3606;0.8312;
1152.3000;0.3606;0.8312;
1152.6000;0.3630;0.8312;
1152.9000;0.3598;0.8194;
1153.2000;0.3630;0.8217;
1153.5000;0.3590;0.8217;
1153.8000;0.3606;0.8336;
1154.1000;0.3622;0.8431;
1154.4000;0.3557;0.8312;
1154.7000;0.3630;0.8407;
1155.0000;0.3590;0.8336;
1155.3000;0.3573;0.8360;
1155.6000;0.3614;0.8431;
1155.9000;0.3614;0.8360;
1156.2000;0.3565;0.8217;
1156.5000;0.3614;0.8360;
1156.8000;0.3598;0.8265;
1157.1000;0.3606;0.8241;
1157.4000;0.3614;0.8336;
1157.7000;0.3598;0.8312;
1158.0000;0.3598;0.8454;
1158.3000;0.3630;0.8549;
1158.6000;0.3582;0.8431;
1158.9000;0.3614;0.8478;
1159.2000;0.3598;0.8502;
1159.5000;0.3606;0.8336;
1159.8000;0.3598;0.8407;
1160.1000;0.3622;0.8478;
1160.4000;0.3606;0.8502;
1160.7000;0.3622;0.8573;
1161.0000;0.3590;0.8478;
1161.3000;0.3598;0.8478;
1161.6000;0.3606;0.8478;
1161.9000;0.3606;0.8478;
1162.2000;0.3606;0.8478;
1162.5000;0.3582;0.8312;
1162.8000;0.3696;0.8525;
1163.1000;0.3582;0.8312;
1163.4000;0.3582;0.8360;
1163.7000;0.3598;0.8454;
1164.0000;0.3541;0.8336;
1164.3000;0.3590;0.8431;
1164.6000;0.3590;0.8431;
1164.9000;0.3598;0.8360;
1165.2000;0.3590;0.8289;
1165.5000;0.3598;0.8289;
1165.8000;0.3606;0.8312;
1166.1000;0.3622;0.8336;
1166.4000;0.3598;0.8265;
1166.7000;0.3590;0.8194;
1167.0000;0.3614;0.8217;
1167.3000;0.3590;0.8194;
1167.6000;0.3598;0.8194;
1167.9000;0.3598;0.8217;
1168.2000;0.3590;0.8194;
1168.5000;0.3630;0.8383;
1168.8000;0.3614;0.8383;
1169.1000;0.3582;0.8289;
1169.4000;0.3630;0.8360;
1169.7000;0.3598;0.8265;
1170.0000;0.3598;0.8241;
1170.3000;0.3639;0.8383;
1170.6000;0.3606;0.8265;
1170.9000;0.3606;0.8312;
1171.2000;0.3639;0.8312;
1171.5000;0.3630;0.8360;
1171.8000;0.3598;0.8336;
1172.1000;0.3614;0.8360;
1172.4000;0.3590;0.8336;
1172.7000;0.3590;0.8194;
1173.0000;0.3614;0.8241;
1173.3000;0.3590;0.8123;
1173.6000;0.3630;0.8123;
1173.9000;0.3590;0.8123;
1174.2000;0.3606;0.8194;
1174.5000;0.3590;0.8265;
1174.8000;0.3606;0.8360;
1175.1000;0.3606;0.8454;
1175.4000;0.3573;0.8336;
1175.7000;0.3533;0.8194;
1176.0000;0.3614;0.8407;
1176.3000;0.3622;0.8360;
1176.6000;0.3606;0.8336;
1176.9000;0.3598;0.8312;
1177.2000;0.3606;0.8336;
1177.5000;0.3598;0.8312;
1177.8000;0.3590;0.8289;
1178.1000;0.3598;0.8312;
1178.4000;0.3565;0.8123;
1178.7000;0.3606;0.8241;
1179.0000;0.3614;0.8265;
1179.3000;0.3468;0.7886;
1179.6000;0.3598;0.8241;
1179.9000;0.3606;0.8312;
1180.2000;0.3598;0.8265;
1180.5000;0.3573;0.8241;
1180.8000;0.3590;0.8217;
1181.1000;0.3565;0.8241;
1181.4000;0.3606;0.8336;
1181.7000;0.3598;0.8312;
1182.0000;0.3590;0.8431;
1182.3000;0.3590;0.8383;
1182.6000;0.3622;0.8478;
1182.9000;0.3590;0.8360;
1183.2000;0.3590;0.8431;
1183.5000;0.3606;0.8431;
1183.8000;0.3590;0.8383;
1184.1000;0.3573;0.8407;
1184.4000;0.3606;0.8454;
1184.7000;0.3598;0.8407;
1185.0000;0.3598;0.8502;
1185.3000;0.3606;0.8454;
1185.6000;0.3598;0.8502;
1185.9000;0.3598;0.8620;
1186.2000;0.3533;0.8502;
1186.5000;0.3598;0.8715;
1186.8000;0.3606;0.8596;
1187.1000;0.3606;0.8502;
1187.4000;0.3614;0.8573;
1187.7000;0.3622;0.8596;
1188.0000;0.3655;0.8667;
1188.3000;0.3614;0.8549;
1188.6000;0.3622;0.8502;
1188.9000;0.3606;0.8502;
1189.2000;0.3614;0.8383;
1189.5000;0.3606;0.8502;
1189.8000;0.3565;0.8431;
1190.1000;0.3598;0.8525;
1190.4000;0.3606;0.8573;
1190.7000;0.3606;0.8478;
1191.0000;0.3630;0.8478;
1191.3000;0.3606;0.8407;
1191.6000;0.3663;0.8549;
1191.9000;0.3622;0.8407;
1192.2000;0.3598;0.8312;
1192.5000;0.3598;0.8289;
1192.8000;0.3573;0.8217;
1193.1000;0.3663;0.8454;
1193.4000;0.3606;0.8336;
1193.7000;0.3606;0.8312;
1194.0000;0.3598;0.8312;
1194.3000;0.3590;0.8336;
1194.6000;0.3590;0.8360;
1194.9000;0.3590;0.8478;
1195.2000;0.3622;0.8596;
1195.5000;0.3606;0.8549;
1195.8000;0.3614;0.8573;
1196.1000;0.3614;0.8525;
1196.4000;0.3606;0.8431;
1196.7000;0.3622;0.8454;
1197.0000;0.3590;0.8431;
1197.3000;0.3614;0.8431;
1197.6000;0.3614;0.8383;
1197.9000;0.3606;0.8407;
1198.2000;0.3606;0.8383;
1198.5000;0.3614;0.8336;
1198.8000;0.3598;0.8312;
1199.1000;0.3525;0.8123;
1199.4000;0.3614;0.8336;
1199.7000;0.3598;0.8217;
1200.0000;0.3598;0.8146;
1200.3000;0.3573;0.8194;
1200.6000;0.3614;0.8241;
1200.9000;0.3606;0.8312;
1201.2000;0.3606;0.8383;
1201.5000;0.3671;0.8502;
1201.8000;0.3622;0.8454;
1202.1000;0.3606;0.8383;
1202.4000;0.3720;0.8644;
1202.7000;0.3622;0.8383;
1203.0000;0.3622;0.8336;
1203.3000;0.3614;0.8336;
1203.6000;0.3606;0.8383;
1203.9000;0.3622;0.8431;
1204.2000;0.3639;0.8478;
1204.5000;0.3606;0.8549;
1204.8000;0.3598;0.8644;
1205.1000;0.3549;0.8525;
1205.4000;0.3598;0.8644;
1205.7000;0.3622;0.8667;
1206.0000;0.3630;0.8738;
1206.3000;0.3573;0.8644;
1206.6000;0.3598;0.8667;
1206.9000;0.3582;0.8715;
1207.2000;0.3598;0.8667;
1207.5000;0.3573;0.8667;
1207.8000;0.3622;0.8691;
1208.1000;0.3598;0.8620;
1208.4000;0.3622;0.8596;
1208.7000;0.3598;0.8549;
1209.0000;0.3582;0.8573;
1209.3000;0.3557;0.8573;
1209.6000;0.3598;0.8573;
1209.9000;0.3590;0.8549;
1210.2000;0.3590;0.8383;
1210.5000;0.3663;0.8667;
1210.8000;0.3639;0.8573;
1211.1000;0.3598;0.8478;
1211.4000;0.3582;0.8502;
1211.7000;0.3598;0.8502;
1212.0000;0.3606;0.8502;
1212.3000;0.3655;0.8573;
1212.6000;0.3606;0.8502;
1212.9000;0.3647;0.8549;
1213.2000;0.3614;0.8454;
1213.5000;0.3614;0.8431;
1213.8000;0.3630;0.8525;
1214.1000;0.3598;0.8431;
1214.4000;0.3630;0.8454;
1214.7000;0.3598;0.8407;
1215.0000;0.3582;0.8383;
1215.3000;0.3598;0.8478;
1215.6000;0.3598;0.8407;
1215.9000;0.3598;0.8407;
1216.2000;0.3590;0.8360;
1216.5000;0.3590;0.8289;
1216.8000;0.3565;0.8217;
1217.1000;0.3614;0.8265;
1217.4000;0.3606;0.8170;
1217.7000;0.3573;0.8146;
1218.0000;0.3606;0.8146;
1218.3000;0.3712;0.8502;
1218.6000;0.3598;0.8170;
1218.9000;0.3606;0.8265;
1219.2000;0.3573;0.8217;
1219.5000;0.3606;0.8360;
1219.8000;0.3614;0.8454;
1220.1000;0.3598;0.8431;
1220.4000;0.3606;0.8336;
1220.7000;0.3598;0.8170;
1221.0000;0.3606;0.8217;
1221.3000;0.3606;0.8265;
1221.6000;0.3614;0.8241;
1221.9000;0.3606;0.8217;
1222.2000;0.3630;0.8336;
1222.5000;0.3622;0.8289;
1222.8000;0.3598;0.8194;
1223.1000;0.3606;0.8312;
1223.4000;0.3582;0.8217;
1223.7000;0.3606;0.8289;
1224.0000;0.3614;0.8431;
1224.3000;0.3582;0.8265;
1224.6000;0.3590;0.8241;
1224.9000;0.3687;0.8431;
1225.2000;0.3565;0.8052;
1225.5000;0.3590;0.8099;
1225.8000;0.3533;0.7933;
1226.1000;0.3598;0.8123;
1226.4000;0.3630;0.8194;
1226.7000;0.3598;0.8146;
1227.0000;0.3598;0.8170;
1227.3000;0.3606;0.8146;
1227.6000;0.3614;0.8241;
1227.9000;0.3590;0.8194;
1228.2000;0.3655;0.8265;
1228.5000;0.3622;0.8099;
1228.8000;0.3492;0.7839;
1229.1000;0.3598;0.8099;
1229.4000;0.3606;0.8170;
1229.7000;0.3582;0.8123;
1230.0000;0.3598;0.8194;
1230.3000;0.3573;0.8194;
1230.6000;0.3598;0.8312;
1230.9000;0.3606;0.8336;
1231.2000;0.3565;0.8170;
1231.5000;0.3598;0.8241;
1231.8000;0.3598;0.8265;
1232.1000;0.3606;0.8383;
1232.4000;0.3582;0.8312;
1232.7000;0.3614;0.8383;
1233.0000;0.3541;0.8146;
1233.3000;0.3606;0.8265;
1233.6000;0.3549;0.8289;
1233.9000;0.3622;0.8573;
1234.2000;0.3573;0.8478;
1234.5000;0.3582;0.8478;
1234.8000;0.3582;0.8407;
1235.1000;0.3598;0.8265;
1235.4000;0.3655;0.8407;
1235.7000;0.3598;0.8217;
1236.0000;0.3614;0.8241;
1236.3000;0.3598;0.8217;
1236.6000;0.3582;0.8217;
1236.9000;0.3606;0.8312;
1237.2000;0.3598;0.8217;
1237.5000;0.3614;0.8217;
1237.8000;0.3598;0.8265;
1238.1000;0.3614;0.8289;
1238.4000;0.3614;0.8289;
1238.7000;0.3639;0.8454;
1239.0000;0.3582;0.8312;
1239.3000;0.3590;0.8265;
1239.6000;0.3614;0.8312;
1239.9000;0.3606;0.8265;
1240.2000;0.3614;0.8383;
1240.5000;0.3679;0.8525;
1240.8000;0.3573;0.8336;
1241.1000;0.3614;0.8407;
1241.4000;0.3582;0.8312;
1241.7000;0.3630;0.8336;
1242.0000;0.3590;0.8217;
1242.3000;0.3622;0.8360;
1242.6000;0.3614;0.8383;
1242.9000;0.3606;0.8360;
1243.2000;0.3606;0.8407;
1243.5000;0.3622;0.8431;
1243.8000;0.3606;0.8407;
1244.1000;0.3565;0.8241;
1244.4000;0.3606;0.8289;
1244.7000;0.3582;0.8217;
1245.0000;0.3606;0.8241;
1245.3000;0.3582;0.8265;
1245.6000;0.3606;0.8336;
1245.9000;0.3590;0.8289;
1246.2000;0.3622;0.8454;
1246.5000;0.3614;0.8431;
1246.8000;0.3573;0.8336;
1247.1000;0.3598;0.8407;
1247.4000;0.3639;0.8407;
1247.7000;0.3614;0.8383;
1248.0000;0.3606;0.8383;
1248.3000;0.3606;0.8360;
1248.6000;0.3606;0.8407;
1248.9000;0.3687;0.8573;
1249.2000;0.3614;0.8289;
1249.5000;0.3647;0.8312;
1249.8000;0.3606;0.8289;
1250.1000;0.3655;0.8454;
1250.4000;0.3606;0.8383;
1250.7000;0.3598;0.8289;
1251.0000;0.3590;0.8217;
1251.3000;0.3622;0.8241;
1251.6000;0.3630;0.8170;
1251.9000;0.3525;0.7957;
1252.2000;0.3598;0.8146;
1252.5000;0.3598;0.8052;
1252.8000;0.3606;0.8146;
1253.1000;0.3614;0.8194;
1253.4000;0.3614;0.8146;
1253.7000;0.3598;0.8075;
1254.0000;0.3590;0.8170;
1254.3000;0.3598;0.8265;
1254.6000;0.3598;0.8241;
1254.9000;0.3582;0.8217;
1255.2000;0.3598;0.8312;
1255.5000;0.3598;0.8265;
1255.8000;0.3598;0.8194;
1256.1000;0.3590;0.8170;
1256.4000;0.3598;0.8289;
1256.7000;0.3622;0.8454;
1257.0000;0.3590;0.8312;
1257.3000;0.3598;0.8312;
1257.6000;0.3590;0.8265;
1257.9000;0.3614;0.8289;
1258.2000;0.3630;0.8383;
1258.5000;0.3606;0.8407;
1258.8000;0.3598;0.8312;
1259.1000;0.3598;0.8241;
1259.4000;0.3598;0.8312;
1259.7000;0.3606;0.8289;
1260.0000;0.3573;0.8170;
1260.3000;0.3598;0.8194;
1260.6000;0.3606;0.8099;
1260.9000;0.3606;0.8170;
1261.2000;0.3606;0.8194;
1261.5000;0.3614;0.8217;
1261.8000;0.3606;0.8265;
1262.1000;0.3533;0.8146;
1262.4000;0.3590;0.8336;
1262.7000;0.3606;0.8336;
1263.0000;0.3630;0.8383;
1263.3000;0.3647;0.8407;
1263.6000;0.3606;0.8360;
1263.9000;0.3614;0.8383;
1264.2000;0.3671;0.8525;
1264.5000;0.3622;0.8336;
1264.8000;0.3614;0.8265;
1265.1000;0.3606;0.8289;
1265.4000;0.3614;0.8383;
1265.7000;0.3606;0.8431;
1266.0000;0.3598;0.8454;
1266.3000;0.3598;0.8454;
1266.6000;0.3606;0.8478;
1266.9000;0.3639;0.8525;
1267.2000;0.3598;0.8454;
1267.5000;0.3590;0.8407;
1267.8000;0.3647;0.8502;
1268.1000;0.3598;0.8502;
1268.4000;0.3614;0.8478;
1268.7000;0.3606;0.8573;
1269.0000;0.3492;0.8312;
1269.3000;0.3598;0.8525;
1269.6000;0.3622;0.8573;
1269.9000;0.3598;0.8502;
1270.2000;0.3622;0.8431;
1270.5000;0.3622;0.8454;
1270.8000;0.3590;0.8454;
1271.1000;0.3590;0.8407;
1271.4000;0.3671;0.8573;
1271.7000;0.3712;0.8644;
1272.0000;0.3590;0.8383;
1272.3000;0.3598;0.8336;
1272.6000;0.3598;0.8336;
1272.9000;0.3606;0.8336;
1273.2000;0.3622;0.8383;
1273.5000;0.3598;0.8336;
1273.8000;0.3614;0.8312;
1274.1000;0.3630;0.8312;
1274.4000;0.3598;0.8265;
1274.7000;0.3606;0.8241;
1275.0000;0.3606;0.8265;
1275.3000;0.3606;0.8312;
1275.6000;0.3614;0.8336;
1275.9000;0.3622;0.8360;
1276.2000;0.3614;0.8289;
1276.5000;0.3598;0.8312;
1276.8000;0.3606;0.8431;
1277.1000;0.3533;0.8336;
1277.4000;0.3598;0.8454;
1277.7000;0.3598;0.8502;
1278.0000;0.3606;0.8454;
1278.3000;0.3614;0.8431;
1278.6000;0.3590;0.8407;
1278.9000;0.3606;0.8431;
1279.2000;0.3582;0.8383;
1279.5000;0.3614;0.8383;
1279.8000;0.3622;0.8454;
1280.1000;0.3606;0.8478;
1280.4000;0.3598;0.8454;
1280.7000;0.3606;0.8478;
1281.0000;0.3606;0.8407;
1281.3000;0.3590;0.8454;
1281.6000;0.3671;0.8573;
1281.9000;0.3622;0.8383;
1282.2000;0.3614;0.8407;
1282.5000;0.3590;0.8407;
1282.8000;0.3598;0.8336;
1283.1000;0.3598;0.8336;
1283.4000;0.3606;0.8431;
1283.7000;0.3606;0.8383;
1284.0000;0.3573;0.8170;
1284.3000;0.3598;0.8194;
1284.6000;0.3614;0.8265;
1284.9000;0.3598;0.8289;
1285.2000;0.3614;0.8336;
1285.5000;0.3606;0.8336;
1285.8000;0.3590;0.8360;
1286.1000;0.3614;0.8454;
1286.4000;0.3606;0.8454;
1286.7000;0.3606;0.8502;
1287.0000;0.3590;0.8502;
1287.3000;0.3606;0.8454;
1287.6000;0.3557;0.8407;
1287.9000;0.3614;0.8573;
1288.2000;0.3614;0.8525;
1288.5000;0.3606;0.8478;
1288.8000;0.3606;0.8454;
1289.1000;0.3614;0.8431;
1289.4000;0.3590;0.8454;
1289.7000;0.3606;0.8549;
1290.0000;0.3614;0.8525;
1290.3000;0.3630;0.8502;
1290.6000;0.3598;0.8407;
1290.9000;0.3590;0.8431;
1291.2000;0.3614;0.8454;
1291.5000;0.3598;0.8431;
1291.8000;0.3582;0.8383;
1292.1000;0.3606;0.8407;
1292.4000;0.3606;0.8312;
1292.7000;0.3598;0.8265;
1293.0000;0.3573;0.8099;
1293.3000;0.3582;0.8052;
1293.6000;0.3582;0.8075;
1293.9000;0.3622;0.8217;
1294.2000;0.3598;0.8241;
1294.5000;0.3622;0.8336;
1294.8000;0.3622;0.8336;
1295.1000;0.3606;0.8360;
1295.4000;0.3533;0.8170;
1295.7000;0.3671;0.8525;
1296.0000;0.3590;0.8360;
1296.3000;0.3598;0.8312;
1296.6000;0.3606;0.8336;
1296.9000;0.3590;0.8360;
1297.2000;0.3598;0.8383;
1297.5000;0.3598;0.8407;
1297.8000;0.3590;0.8431;
1298.1000;0.3573;0.8454;
1298.4000;0.3606;0.8502;
1298.7000;0.3590;0.8573;
1299.0000;0.3647;0.8715;
1299.3000;0.3598;0.8620;
1299.6000;0.3598;0.8596;
1299.9000;0.3573;0.8525;
1300.2000;0.3565;0.8573;
1300.5000;0.3606;0.8667;
1300.8000;0.3647;0.8762;
1301.1000;0.3630;0.8644;
1301.4000;0.3606;0.8525;
1301.7000;0.3573;0.8525;
1302.0000;0.3720;0.8857;
1302.3000;0.3598;0.8525;
1302.6000;0.3606;0.8525;
1302.9000;0.3679;0.8620;
1303.2000;0.3614;0.8407;
1303.5000;0.3565;0.8312;
1303.8000;0.3614;0.8431;
1304.1000;0.3598;0.8383;
1304.4000;0.3598;0.8383;
1304.7000;0.3639;0.8383;
1305.0000;0.3614;0.8336;
1305.3000;0.3614;0.8312;
1305.6000;0.3606;0.8312;
1305.9000;0.3590;0.8241;
1306.2000;0.3606;0.8217;
1306.5000;0.3598;0.8217;
1306.8000;0.3590;0.8265;
1307.1000;0.3582;0.8217;
1307.4000;0.3614;0.8336;
1307.7000;0.3598;0.8336;
1308.0000;0.3639;0.8478;
1308.3000;0.3606;0.8525;
1308.6000;0.3622;0.8573;
1308.9000;0.3606;0.8454;
1309.2000;0.3557;0.8289;
1309.5000;0.3606;0.8383;
1309.8000;0.3598;0.8383;
1310.1000;0.3582;0.8217;
1310.4000;0.3598;0.8146;
1310.7000;0.3549;0.8004;
1311.0000;0.3606;0.8312;
1311.3000;0.3565;0.8217;
1311.6000;0.3598;0.8360;
1311.9000;0.3712;0.8691;
1312.2000;0.3565;0.8383;
1312.5000;0.3614;0.8525;
1312.8000;0.3606;0.8431;
1313.1000;0.3639;0.8478;
1313.4000;0.3606;0.8407;
1313.7000;0.3606;0.8407;
1314.0000;0.3606;0.8454;
1314.3000;0.3606;0.8478;
1314.6000;0.3606;0.8525;
1314.9000;0.3590;0.8573;
1315.2000;0.3614;0.8762;
1315.5000;0.3622;0.8620;
1315.8000;0.3598;0.8549;
1316.1000;0.3598;0.8431;
1316.4000;0.3622;0.8383;
1316.7000;0.3606;0.8265;
1317.0000;0.3614;0.8407;
1317.3000;0.3582;0.8407;
1317.6000;0.3639;0.8525;
1317.9000;0.3590;0.8289;
1318.2000;0.3598;0.8289;
1318.5000;0.3647;0.8407;
1318.8000;0.3598;0.8312;
1319.1000;0.3614;0.8383;
1319.4000;0.3606;0.8431;
1319.7000;0.3598;0.8383;
1320.0000;0.3525;0.8217;
1320.3000;0.3590;0.8360;
1320.6000;0.3598;0.8502;
1320.9000;0.3606;0.8573;
1321.2000;0.3606;0.8620;
1321.5000;0.3582;0.8573;
1321.8000;0.3606;0.8573;
1322.1000;0.3590;0.8431;
1322.4000;0.3573;0.8502;
1322.7000;0.3590;0.8525;
1323.0000;0.3565;0.8454;
1323.3000;0.3590;0.8502;
1323.6000;0.3679;0.8738;
1323.9000;0.3590;0.8360;
1324.2000;0.3582;0.8312;
1324.5000;0.3606;0.8360;
1324.8000;0.3582;0.8336;
1325.1000;0.3598;0.8360;
1325.4000;0.3582;0.8217;
1325.7000;0.3614;0.8289;
1326.0000;0.3598;0.8265;
1326.3000;0.3598;0.8194;
1326.6000;0.3590;0.8123;
1326.9000;0.3598;0.8146;
1327.2000;0.3590;0.8217;
1327.5000;0.3582;0.8265;
1327.8000;0.3582;0.8289;
1328.1000;0.3671;0.8573;
1328.4000;0.3606;0.8478;
1328.7000;0.3590;0.8407;
1329.0000;0.3590;0.8454;
1329.3000;0.3614;0.8431;
1329.6000;0.3606;0.8431;
1329.9000;0.3606;0.8407;
1330.2000;0.3639;0.8478;
1330.5000;0.3598;0.8525;
1330.8000;0.3614;0.8667;
1331.1000;0.3598;0.8644;
1331.4000;0.3598;0.8549;
1331.7000;0.3573;0.8478;
1332.0000;0.3598;0.8383;
1332.3000;0.3606;0.8312;
1332.6000;0.3598;0.8241;
1332.9000;0.3590;0.8336;
1333.2000;0.3590;0.8454;
1333.5000;0.3614;0.8502;
1333.8000;0.3500;0.8383;
1334.1000;0.3598;0.8667;
1334.4000;0.3606;0.8644;
1334.7000;0.3484;0.8336;
1335.0000;0.3606;0.8620;
1335.3000;0.3557;0.8478;
1335.6000;0.3606;0.8525;
1335.9000;0.3622;0.8644;
1336.2000;0.3590;0.8644;
1336.5000;0.3704;0.8810;
1336.8000;0.3582;0.8431;
1337.1000;0.3590;0.8383;
1337.4000;0.3590;0.8383;
1337.7000;0.3704;0.8667;
1338.0000;0.3582;0.8407;
1338.3000;0.3590;0.8407;
1338.6000;0.3614;0.8502;
1338.9000;0.3565;0.8312;
1339.2000;0.3622;0.8454;
1339.5000;0.3622;0.8383;
1339.8000;0.3622;0.8383;
1340.1000;0.3590;0.8360;
1340.4000;0.3590;0.8289;
1340.7000;0.3712;0.8549;
1341.0000;0.3598;0.8360;
1341.3000;0.3622;0.8407;
1341.6000;0.3533;0.8265;
1341.9000;0.3606;0.8549;
1342.2000;0.3573;0.8407;
1342.5000;0.3622;0.8454;
1342.8000;0.3573;0.8241;
1343.1000;0.3614;0.8454;
1343.4000;0.3614;0.8525;
1343.7000;0.3606;0.8478;
1344.0000;0.3647;0.8573;
1344.3000;0.3639;0.8478;
1344.6000;0.3598;0.8454;
1344.9000;0.3606;0.8454;
1345.2000;0.3606;0.8431;
1345.5000;0.3606;0.8407;
1345.8000;0.3614;0.8502;
1346.1000;0.3671;0.8667;
1346.4000;0.3606;0.8525;
1346.7000;0.3590;0.8549;
1347.0000;0.3614;0.8667;
1347.3000;0.3590;0.8620;
1347.6000;0.3606;0.8431;
1347.9000;0.3590;0.8454;
1348.2000;0.3614;0.8431;
1348.5000;0.3606;0.8336;
1348.8000;0.3590;0.8360;
1349.1000;0.3598;0.8407;
1349.4000;0.3598;0.8478;
1349.7000;0.3606;0.8407;
1350.0000;0.3606;0.8478;
1350.3000;0.3598;0.8360;
1350.6000;0.3606;0.8312;
1350.9000;0.3630;0.8431;
1351.2000;0.3557;0.8217;
1351.5000;0.3598;0.8336;
1351.8000;0.3598;0.8407;
1352.1000;0.3614;0.8431;
1352.4000;0.3598;0.8360;
1352.7000;0.3606;0.8407;
1353.0000;0.3598;0.8265;
1353.3000;0.3630;0.8360;
1353.6000;0.3614;0.8383;
1353.9000;0.3606;0.8383;
1354.2000;0.3590;0.8407;
1354.5000;0.3590;0.8407;
1354.8000;0.3598;0.8407;
1355.1000;0.3614;0.8620;
1355.4000;0.3614;0.8691;
1355.7000;0.3598;0.8738;
1356.0000;0.3582;0.8644;
1356.3000;0.3590;0.8549;
1356.6000;0.3614;0.8620;
1356.9000;0.3614;0.8620;
1357.2000;0.3590;0.8573;
1357.5000;0.3639;0.8644;
1357.8000;0.3557;0.8431;
1358.1000;0.3614;0.8502;
1358.4000;0.3598;0.8502;
1358.7000;0.3598;0.8525;
1359.0000;0.3647;0.8525;
1359.3000;0.3622;0.8431;
1359.6000;0.3606;0.8383;
1359.9000;0.3573;0.8336;
1360.2000;0.3582;0.8360;
1360.5000;0.3598;0.8454;
1360.8000;0.3598;0.8454;
1361.1000;0.3598;0.8525;
1361.4000;0.3598;0.8573;
1361.7000;0.3590;0.8620;
1362.0000;0.3622;0.8691;
1362.3000;0.3606;0.8667;
1362.6000;0.3598;0.8596;
1362.9000;0.3630;0.8667;
1363.2000;0.3598;0.8644;
1363.5000;0.3557;0.8525;
1363.8000;0.3606;0.8502;
1364.1000;0.3622;0.8549;
1364.4000;0.3590;0.8478;
1364.7000;0.3630;0.8573;
1365.0000;0.3582;0.8525;
1365.3000;0.3663;0.8691;
1365.6000;0.3606;0.8525;
1365.9000;0.3525;0.8336;
1366.2000;0.3606;0.8573;
1366.5000;0.3606;0.8620;
1366.8000;0.3679;0.8786;
1367.1000;0.3598;0.8573;
1367.4000;0.3541;0.8478;
1367.7000;0.3598;0.8691;
1368.0000;0.3606;0.8715;
1368.3000;0.3598;0.8644;
1368.6000;0.3582;0.8644;
1368.9000;0.3598;0.8644;
1369.2000;0.3614;0.8691;
1369.5000;0.3598;0.8762;
1369.8000;0.3598;0.8786;
1370.1000;0.3573;0.8691;
1370.4000;0.3614;0.8715;
1370.7000;0.3614;0.8691;
1371.0000;0.3606;0.8715;
1371.3000;0.3606;0.8667;
1371.6000;0.3590;0.8644;
1371.9000;0.3598;0.8454;
1372.2000;0.3590;0.8454;
1372.5000;0.3573;0.8336;
1372.8000;0.3500;0.8146;
1373.1000;0.3647;0.8525;
1373.4000;0.3590;0.8407;
1373.7000;0.3590;0.8454;
1374.0000;0.3630;0.8549;
1374.3000;0.3606;0.8502;
1374.6000;0.3590;0.8383;
1374.9000;0.3598;0.8383;
1375.2000;0.3582;0.8383;
1375.5000;0.3590;0.8336;
1375.8000;0.3582;0.8360;
1376.1000;0.3614;0.8525;
1376.4000;0.3598;0.8502;
1376.7000;0.3598;0.8478;
1377.0000;0.3614;0.8502;
1377.3000;0.3614;0.8596;
1377.6000;0.3614;0.8644;
1377.9000;0.3598;0.8573;
1378.2000;0.3590;0.8502;
1378.5000;0.3590;0.8407;
1378.8000;0.3606;0.8478;
1379.1000;0.3622;0.8478;
1379.4000;0.3679;0.8667;
1379.7000;0.3614;0.8407;
1380.0000;0.3590;0.8383;
1380.3000;0.3606;0.8431;
1380.6000;0.3573;0.8312;
1380.9000;0.3614;0.8454;
1381.2000;0.3590;0.8312;
1381.5000;0.3516;0.8075;
1381.8000;0.3598;0.8265;
1382.1000;0.3598;0.8217;
1382.4000;0.3639;0.8407;
1382.7000;0.3622;0.8431;
1383.0000;0.3606;0.8478;
1383.3000;0.3614;0.8525;
1383.6000;0.3565;0.8478;
1383.9000;0.3639;0.8644;
1384.2000;0.3606;0.8525;
1384.5000;0.3590;0.8573;
1384.8000;0.3598;0.8525;
1385.1000;0.3606;0.8549;
1385.4000;0.3549;0.8383;
1385.7000;0.3590;0.8502;
1386.0000;0.3598;0.8478;
1386.3000;0.3622;0.8360;
1386.6000;0.3573;0.8312;
1386.9000;0.3614;0.8407;
1387.2000;0.3606;0.8383;
1387.5000;0.3655;0.8502;
1387.8000;0.3598;0.8431;
1388.1000;0.3598;0.8383;
1388.4000;0.3598;0.8312;
1388.7000;0.3606;0.8289;
1389.0000;0.3573;0.8241;
1389.3000;0.3606;0.8431;
1389.6000;0.3606;0.8383;
1389.9000;0.3573;0.8360;
1390.2000;0.3582;0.8431;
1390.5000;0.3484;0.8217;
1390.8000;0.3598;0.8407;
1391.1000;0.3598;0.8312;
1391.4000;0.3647;0.8454;
1391.7000;0.3590;0.8336;
1392.0000;0.3606;0.8383;
1392.3000;0.3590;0.8289;
1392.6000;0.3655;0.8407;
1392.9000;0.3606;0.8289;
1393.2000;0.3598;0.8407;
1393.5000;0.3582;0.8289;
1393.8000;0.3606;0.8265;
1394.1000;0.3598;0.8265;
1394.4000;0.3590;0.8241;
1394.7000;0.3606;0.8383;
1395.0000;0.3590;0.8360;
1395.3000;0.3582;0.8407;
1395.6000;0.3606;0.8431;
1395.9000;0.3598;0.8336;
1396.2000;0.3606;0.8194;
1396.5000;0.3614;0.8146;
1396.8000;0.3598;0.8099;
1397.1000;0.3590;0.8170;
1397.4000;0.3598;0.8241;
1397.7000;0.3614;0.8241;
1398.0000;0.3614;0.8289;
1398.3000;0.3614;0.8289;
1398.6000;0.3598;0.8312;
1398.9000;0.3598;0.8336;
1399.2000;0.3598;0.8312;
1399.5000;0.3598;0.8360;
1399.8000;0.3614;0.8360;
