time/ms;Fluo/V;P700 deltaI/I x10³;
-199.8000;0.4624;0.8644;
-199.5000;0.4632;0.8644;
-199.2000;0.4640;0.8596;
-198.9000;0.4672;0.8667;
-198.6000;0.4624;0.8525;
-198.3000;0.4640;0.8502;
-198.0000;0.4656;0.8525;
-197.7000;0.4640;0.8502;
-197.4000;0.4599;0.8336;
-197.1000;0.4640;0.8478;
-196.8000;0.4648;0.8525;
-196.5000;0.4681;0.8620;
-196.2000;0.4640;0.8620;
-195.9000;0.4648;0.8667;
-195.6000;0.4672;0.8833;
-195.3000;0.4648;0.8857;
-195.0000;0.4681;0.8857;
-194.7000;0.4648;0.8715;
-194.4000;0.4624;0.8644;
-194.1000;0.4624;0.8691;
-193.8000;0.4648;0.8762;
-193.5000;0.4640;0.8738;
-193.2000;0.4664;0.8833;
-192.9000;0.4632;0.8738;
-192.6000;0.4640;0.8738;
-192.3000;0.4648;0.8715;
-192.0000;0.4632;0.8667;
-191.7000;0.4648;0.8667;
-191.4000;0.4648;0.8596;
-191.1000;0.4591;0.8478;
-190.8000;0.4656;0.8620;
-190.5000;0.4632;0.8573;
-190.2000;0.4624;0.8407;
-189.9000;0.4632;0.8407;
-189.6000;0.4615;0.8407;
-189.3000;0.4632;0.8502;
-189.0000;0.4648;0.8549;
-188.7000;0.4640;0.8431;
-188.4000;0.4632;0.8454;
-188.1000;0.4632;0.8431;
-187.8000;0.4672;0.8431;
-187.5000;0.4648;0.8478;
-187.2000;0.4632;0.8596;
-186.9000;0.4640;0.8644;
-186.6000;0.4591;0.8549;
-186.3000;0.4640;0.8667;
-186.0000;0.4648;0.8667;
-185.7000;0.4648;0.8786;
-185.4000;0.4648;0.8762;
-185.1000;0.4624;0.8810;
-184.8000;0.4624;0.8833;
-184.5000;0.4615;0.8691;
-184.2000;0.4632;0.8762;
-183.9000;0.4640;0.8833;
-183.6000;0.4640;0.8904;
-183.3000;0.4648;0.8904;
-183.0000;0.4664;0.8810;
-182.7000;0.4664;0.8762;
-182.4000;0.4640;0.8620;
-182.1000;0.4648;0.8667;
-181.8000;0.4656;0.8738;
-181.5000;0.4656;0.8762;
-181.2000;0.4624;0.8525;
-180.9000;0.4640;0.8549;
-180.6000;0.4640;0.8549;
-180.3000;0.4648;0.8596;
-180.0000;0.4640;0.8573;
-179.7000;0.4640;0.8691;
-179.4000;0.4632;0.8691;
-179.1000;0.4640;0.8715;
-178.8000;0.4615;0.8738;
-178.5000;0.4632;0.8762;
-178.2000;0.4664;0.8810;
-177.9000;0.4632;0.8620;
-177.6000;0.4607;0.8502;
-177.3000;0.4656;0.8573;
-177.0000;0.4640;0.8525;
-176.7000;0.4656;0.8644;
-176.4000;0.4640;0.8596;
-176.1000;0.4640;0.8502;
-175.8000;0.4632;0.8549;
-175.5000;0.4648;0.8620;
-175.2000;0.4648;0.8549;
-174.9000;0.4624;0.8478;
-174.6000;0.4632;0.8478;
-174.3000;0.4640;0.8573;
-174.0000;0.4648;0.8644;
-173.7000;0.4648;0.8620;
-173.4000;0.4648;0.8715;
-173.1000;0.4656;0.8833;
-172.8000;0.4640;0.8904;
-172.5000;0.4656;0.8928;
-172.2000;0.4632;0.8833;
-171.9000;0.4632;0.8786;
-171.6000;0.4640;0.8715;
-171.3000;0.4640;0.8667;
-171.0000;0.4632;0.8620;
-170.7000;0.4632;0.8667;
-170.4000;0.4632;0.8620;
-170.1000;0.4648;0.8644;
-169.8000;0.4640;0.8620;
-169.5000;0.4640;0.8596;
-169.2000;0.4648;0.8596;
-168.9000;0.4640;0.8596;
-168.6000;0.4640;0.8691;
-168.3000;0.4599;0.8573;
-168.0000;0.4648;0.8691;
-167.7000;0.4656;0.8715;
-167.4000;0.4632;0.8738;
-167.1000;0.4640;0.8786;
-166.8000;0.4640;0.8762;
-166.5000;0.4681;0.8786;
-166.2000;0.4632;0.8715;
-165.9000;0.4648;0.8691;
-165.6000;0.4615;0.8715;
-165.3000;0.4656;0.8715;
-165.0000;0.4656;0.8762;
-164.7000;0.4672;0.8786;
-164.4000;0.4648;0.8738;
-164.1000;0.4705;0.8833;
-163.8000;0.4648;0.8573;
-163.5000;0.4681;0.8644;
-163.2000;0.4640;0.8549;
-162.9000;0.4648;0.8502;
-162.6000;0.4632;0.8502;
-162.3000;0.4672;0.8667;
-162.0000;0.4640;0.8549;
-161.7000;0.4656;0.8549;
-161.4000;0.4640;0.8549;
-161.1000;0.4591;0.8478;
-160.8000;0.4624;0.8620;
-160.5000;0.4648;0.8644;
-160.2000;0.4615;0.8620;
-159.9000;0.4632;0.8644;
-159.6000;0.4607;0.8573;
-159.3000;0.4624;0.8620;
-159.0000;0.4632;0.8691;
-158.7000;0.4656;0.8715;
-158.4000;0.4672;0.8715;
-158.1000;0.4640;0.8691;
-157.8000;0.4632;0.8667;
-157.5000;0.4632;0.8810;
-157.2000;0.4656;0.8857;
-156.9000;0.4640;0.8762;
-156.6000;0.4648;0.8715;
-156.3000;0.4656;0.8715;
-156.0000;0.4632;0.8667;
-155.7000;0.4656;0.8691;
-155.4000;0.4640;0.8596;
-155.1000;0.4672;0.8596;
-154.8000;0.4648;0.8549;
-154.5000;0.4648;0.8502;
-154.2000;0.4648;0.8596;
-153.9000;0.4672;0.8667;
-153.6000;0.4648;0.8454;
-153.3000;0.4640;0.8454;
-153.0000;0.4624;0.8502;
-152.7000;0.4632;0.8644;
-152.4000;0.4632;0.8667;
-152.1000;0.4632;0.8738;
-151.8000;0.4632;0.8715;
-151.5000;0.4632;0.8691;
-151.2000;0.4632;0.8667;
-150.9000;0.4656;0.8667;
-150.6000;0.4648;0.8667;
-150.3000;0.4632;0.8644;
-150.0000;0.4607;0.8549;
-149.7000;0.4640;0.8620;
-149.4000;0.4632;0.8596;
-149.1000;0.4640;0.8667;
-148.8000;0.4681;0.8715;
-148.5000;0.4640;0.8596;
-148.2000;0.4648;0.8644;
-147.9000;0.4624;0.8644;
-147.6000;0.4640;0.8715;
-147.3000;0.4648;0.8644;
-147.0000;0.4640;0.8738;
-146.7000;0.4656;0.8667;
-146.4000;0.4632;0.8620;
-146.1000;0.4632;0.8691;
-145.8000;0.4648;0.8644;
-145.5000;0.4624;0.8691;
-145.2000;0.4632;0.8667;
-144.9000;0.4648;0.8620;
-144.6000;0.4664;0.8620;
-144.3000;0.4632;0.8525;
-144.0000;0.4632;0.8431;
-143.7000;0.4648;0.8549;
-143.4000;0.4632;0.8596;
-143.1000;0.4648;0.8573;
-142.8000;0.4656;0.8667;
-142.5000;0.4656;0.8596;
-142.2000;0.4632;0.8525;
-141.9000;0.4640;0.8502;
-141.6000;0.4632;0.8502;
-141.3000;0.4624;0.8573;
-141.0000;0.4664;0.8620;
-140.7000;0.4681;0.8667;
-140.4000;0.4632;0.8502;
-140.1000;0.4632;0.8596;
-139.8000;0.4632;0.8573;
-139.5000;0.4681;0.8715;
-139.2000;0.4615;0.8596;
-138.9000;0.4624;0.8525;
-138.6000;0.4632;0.8431;
-138.3000;0.4648;0.8431;
-138.0000;0.4624;0.8407;
-137.7000;0.4632;0.8502;
-137.4000;0.4632;0.8549;
-137.1000;0.4648;0.8644;
-136.8000;0.4624;0.8620;
-136.5000;0.4640;0.8691;
-136.2000;0.4632;0.8691;
-135.9000;0.4664;0.8810;
-135.6000;0.4656;0.8762;
-135.3000;0.4656;0.8810;
-135.0000;0.4640;0.8691;
-134.7000;0.4632;0.8573;
-134.4000;0.4648;0.8596;
-134.1000;0.4648;0.8525;
-133.8000;0.4640;0.8525;
-133.5000;0.4640;0.8525;
-133.2000;0.4640;0.8502;
-132.9000;0.4640;0.8596;
-132.6000;0.4672;0.8596;
-132.3000;0.4640;0.8478;
-132.0000;0.4624;0.8502;
-131.7000;0.4632;0.8549;
-131.4000;0.4648;0.8667;
-131.1000;0.4640;0.8596;
-130.8000;0.4656;0.8573;
-130.5000;0.4632;0.8502;
-130.2000;0.4632;0.8573;
-129.9000;0.4624;0.8549;
-129.6000;0.4624;0.8502;
-129.3000;0.4648;0.8549;
-129.0000;0.4648;0.8478;
-128.7000;0.4640;0.8431;
-128.4000;0.4640;0.8478;
-128.1000;0.4648;0.8502;
-127.8000;0.4648;0.8478;
-127.5000;0.4632;0.8454;
-127.2000;0.4672;0.8525;
-126.9000;0.4656;0.8667;
-126.6000;0.4615;0.8620;
-126.3000;0.4689;0.8857;
-126.0000;0.4640;0.8762;
-125.7000;0.4664;0.8810;
-125.4000;0.4640;0.8762;
-125.1000;0.4558;0.8573;
-124.8000;0.4632;0.8691;
-124.5000;0.4624;0.8691;
-124.2000;0.4648;0.8667;
-123.9000;0.4648;0.8478;
-123.6000;0.4640;0.8478;
-123.3000;0.4640;0.8549;
-123.0000;0.4648;0.8667;
-122.7000;0.4632;0.8644;
-122.4000;0.4656;0.8738;
-122.1000;0.4640;0.8691;
-121.8000;0.4534;0.8407;
-121.5000;0.4615;0.8620;
-121.2000;0.4640;0.8644;
-120.9000;0.4640;0.8644;
-120.6000;0.4640;0.8667;
-120.3000;0.4640;0.8667;
-120.0000;0.4624;0.8596;
-119.7000;0.4624;0.8596;
-119.4000;0.4632;0.8738;
-119.1000;0.4640;0.8810;
-118.8000;0.4632;0.8691;
-118.5000;0.4615;0.8667;
-118.2000;0.4664;0.8833;
-117.9000;0.4632;0.8691;
-117.6000;0.4632;0.8620;
-117.3000;0.4681;0.8691;
-117.0000;0.4632;0.8644;
-116.7000;0.4640;0.8596;
-116.4000;0.4656;0.8691;
-116.1000;0.4583;0.8549;
-115.8000;0.4640;0.8644;
-115.5000;0.4713;0.8904;
-115.2000;0.4648;0.8691;
-114.9000;0.4656;0.8667;
-114.6000;0.4648;0.8549;
-114.3000;0.4624;0.8525;
-114.0000;0.4648;0.8549;
-113.7000;0.4664;0.8738;
-113.4000;0.4640;0.8644;
-113.1000;0.4632;0.8573;
-112.8000;0.4656;0.8691;
-112.5000;0.4656;0.8691;
-112.2000;0.4648;0.8667;
-111.9000;0.4632;0.8667;
-111.6000;0.4689;0.8691;
-111.3000;0.4664;0.8620;
-111.0000;0.4689;0.8596;
-110.7000;0.4640;0.8407;
-110.4000;0.4640;0.8478;
-110.1000;0.4632;0.8525;
-109.8000;0.4640;0.8620;
-109.5000;0.4664;0.8644;
-109.2000;0.4656;0.8644;
-108.9000;0.4640;0.8715;
-108.6000;0.4632;0.8762;
-108.3000;0.4624;0.8691;
-108.0000;0.4632;0.8667;
-107.7000;0.4632;0.8691;
-107.4000;0.4632;0.8786;
-107.1000;0.4640;0.8786;
-106.8000;0.4624;0.8691;
-106.5000;0.4656;0.8833;
-106.2000;0.4656;0.8833;
-105.9000;0.4640;0.8810;
-105.6000;0.4632;0.8715;
-105.3000;0.4632;0.8762;
-105.0000;0.4656;0.8833;
-104.7000;0.4689;0.8999;
-104.4000;0.4656;0.8904;
-104.1000;0.4664;0.8833;
-103.8000;0.4656;0.8810;
-103.5000;0.4648;0.8667;
-103.2000;0.4656;0.8738;
-102.9000;0.4648;0.8691;
-102.6000;0.4640;0.8667;
-102.3000;0.4672;0.8810;
-102.0000;0.4624;0.8667;
-101.7000;0.4607;0.8620;
-101.4000;0.4632;0.8667;
-101.1000;0.4558;0.8431;
-100.8000;0.4681;0.8738;
-100.5000;0.4632;0.8596;
-100.2000;0.4607;0.8502;
-99.9000;0.4648;0.8549;
-99.6000;0.4648;0.8502;
-99.3000;0.4640;0.8454;
-99.0000;0.4624;0.8525;
-98.7000;0.4624;0.8620;
-98.4000;0.4632;0.8738;
-98.1000;0.4607;0.8810;
-97.8000;0.4624;0.8857;
-97.5000;0.4615;0.8786;
-97.2000;0.4640;0.8810;
-96.9000;0.4664;0.8715;
-96.6000;0.4632;0.8620;
-96.3000;0.4615;0.8644;
-96.0000;0.4632;0.8762;
-95.7000;0.4648;0.8762;
-95.4000;0.4640;0.8715;
-95.1000;0.4664;0.8715;
-94.8000;0.4632;0.8525;
-94.5000;0.4632;0.8596;
-94.2000;0.4648;0.8573;
-93.9000;0.4632;0.8407;
-93.6000;0.4640;0.8431;
-93.3000;0.4672;0.8502;
-93.0000;0.4624;0.8336;
-92.7000;0.4640;0.8454;
-92.4000;0.4648;0.8525;
-92.1000;0.4664;0.8525;
-91.8000;0.4607;0.8407;
-91.5000;0.4599;0.8431;
-91.2000;0.4624;0.8620;
-90.9000;0.4656;0.8715;
-90.6000;0.4656;0.8715;
-90.3000;0.4640;0.8762;
-90.0000;0.4632;0.8762;
-89.7000;0.4648;0.8786;
-89.4000;0.4640;0.8762;
-89.1000;0.4648;0.8762;
-88.8000;0.4656;0.8667;
-88.5000;0.4689;0.8833;
-88.2000;0.4648;0.8786;
-87.9000;0.4624;0.8715;
-87.6000;0.4697;0.8857;
-87.3000;0.4640;0.8667;
-87.0000;0.4632;0.8525;
-86.7000;0.4672;0.8667;
-86.4000;0.4656;0.8644;
-86.1000;0.4648;0.8525;
-85.8000;0.4656;0.8454;
-85.5000;0.4729;0.8715;
-85.2000;0.4624;0.8478;
-84.9000;0.4640;0.8525;
-84.6000;0.4656;0.8549;
-84.3000;0.4656;0.8549;
-84.0000;0.4640;0.8549;
-83.7000;0.4648;0.8596;
-83.4000;0.4640;0.8573;
-83.1000;0.4640;0.8620;
-82.8000;0.4640;0.8596;
-82.5000;0.4648;0.8667;
-82.2000;0.4632;0.8620;
-81.9000;0.4632;0.8525;
-81.6000;0.4607;0.8454;
-81.3000;0.4583;0.8478;
-81.0000;0.4640;0.8644;
-80.7000;0.4648;0.8644;
-80.4000;0.4648;0.8667;
-80.1000;0.4648;0.8691;
-79.8000;0.4624;0.8596;
-79.5000;0.4640;0.8620;
-79.2000;0.4632;0.8715;
-78.9000;0.4640;0.8762;
-78.6000;0.4632;0.8762;
-78.3000;0.4640;0.8833;
-78.0000;0.4640;0.8952;
-77.7000;0.4624;0.8952;
-77.4000;0.4632;0.8928;
-77.1000;0.4624;0.8857;
-76.8000;0.4624;0.8762;
-76.5000;0.4632;0.8833;
-76.2000;0.4640;0.8928;
-75.9000;0.4534;0.8644;
-75.6000;0.4632;0.8857;
-75.3000;0.4599;0.8786;
-75.0000;0.4640;0.8904;
-74.7000;0.4632;0.8928;
-74.4000;0.4615;0.8738;
-74.1000;0.4648;0.8833;
-73.8000;0.4648;0.8810;
-73.5000;0.4640;0.8786;
-73.2000;0.4632;0.8786;
-72.9000;0.4632;0.8762;
-72.6000;0.4656;0.8738;
-72.3000;0.4624;0.8596;
-72.0000;0.4624;0.8596;
-71.7000;0.4624;0.8620;
-71.4000;0.4648;0.8667;
-71.1000;0.4632;0.8738;
-70.8000;0.4632;0.8762;
-70.5000;0.4648;0.8715;
-70.2000;0.4640;0.8644;
-69.9000;0.4615;0.8667;
-69.6000;0.4648;0.8644;
-69.3000;0.4746;0.8928;
-69.0000;0.4640;0.8762;
-68.7000;0.4640;0.8810;
-68.4000;0.4632;0.8833;
-68.1000;0.4632;0.8881;
-67.8000;0.4672;0.8952;
-67.5000;0.4640;0.8857;
-67.2000;0.4632;0.8881;
-66.9000;0.4689;0.9046;
-66.6000;0.4648;0.8999;
-66.3000;0.4632;0.8857;
-66.0000;0.4632;0.8881;
-65.7000;0.4640;0.8857;
-65.4000;0.4640;0.8952;
-65.1000;0.4640;0.8975;
-64.8000;0.4624;0.8881;
-64.5000;0.4656;0.8881;
-64.2000;0.4648;0.8810;
-63.9000;0.4599;0.8715;
-63.6000;0.4632;0.8881;
-63.3000;0.4640;0.8881;
-63.0000;0.4632;0.8928;
-62.7000;0.4640;0.8952;
-62.4000;0.4583;0.8833;
-62.1000;0.4591;0.8786;
-61.8000;0.4624;0.8904;
-61.5000;0.4713;0.9070;
-61.2000;0.4632;0.8833;
-60.9000;0.4640;0.8762;
-60.6000;0.4632;0.8691;
-60.3000;0.4640;0.8691;
-60.0000;0.4656;0.8644;
-59.7000;0.4640;0.8691;
-59.4000;0.4632;0.8644;
-59.1000;0.4656;0.8667;
-58.8000;0.4648;0.8620;
-58.5000;0.4632;0.8596;
-58.2000;0.4632;0.8549;
-57.9000;0.4648;0.8738;
-57.6000;0.4648;0.8715;
-57.3000;0.4664;0.8762;
-57.0000;0.4640;0.8691;
-56.7000;0.4664;0.8715;
-56.4000;0.4632;0.8738;
-56.1000;0.4697;0.8928;
-55.8000;0.4681;0.8833;
-55.5000;0.4648;0.8786;
-55.2000;0.4656;0.8857;
-54.9000;0.4648;0.8904;
-54.6000;0.4624;0.8881;
-54.3000;0.4615;0.8833;
-54.0000;0.4624;0.8810;
-53.7000;0.4615;0.8786;
-53.4000;0.4632;0.8762;
-53.1000;0.4648;0.8738;
-52.8000;0.4632;0.8691;
-52.5000;0.4632;0.8691;
-52.2000;0.4648;0.8786;
-51.9000;0.4640;0.8786;
-51.6000;0.4640;0.8786;
-51.3000;0.4624;0.8667;
-51.0000;0.4640;0.8573;
-50.7000;0.4615;0.8573;
-50.4000;0.4599;0.8596;
-50.1000;0.4672;0.8762;
-49.8000;0.4656;0.8738;
-49.5000;0.4664;0.8715;
-49.2000;0.4632;0.8715;
-48.9000;0.4648;0.8786;
-48.6000;0.4648;0.8762;
-48.3000;0.4624;0.8691;
-48.0000;0.4615;0.8644;
-47.7000;0.4615;0.8573;
-47.4000;0.4648;0.8691;
-47.1000;0.4632;0.8691;
-46.8000;0.4624;0.8620;
-46.5000;0.4713;0.8928;
-46.2000;0.4640;0.8810;
-45.9000;0.4648;0.8810;
-45.6000;0.4656;0.8786;
-45.3000;0.4640;0.8762;
-45.0000;0.4656;0.8644;
-44.7000;0.4672;0.8786;
-44.4000;0.4640;0.8715;
-44.1000;0.4624;0.8738;
-43.8000;0.4648;0.8833;
-43.5000;0.4648;0.8810;
-43.2000;0.4656;0.8786;
-42.9000;0.4640;0.8644;
-42.6000;0.4640;0.8715;
-42.3000;0.4640;0.8810;
-42.0000;0.4640;0.8715;
-41.7000;0.4624;0.8667;
-41.4000;0.4615;0.8620;
-41.1000;0.4640;0.8715;
-40.8000;0.4640;0.8762;
-40.5000;0.4640;0.8715;
-40.2000;0.4632;0.8667;
-39.9000;0.4632;0.8691;
-39.6000;0.4632;0.8667;
-39.3000;0.4632;0.8644;
-39.0000;0.4648;0.8786;
-38.7000;0.4640;0.8691;
-38.4000;0.4648;0.8691;
-38.1000;0.4664;0.8786;
-37.8000;0.4648;0.8738;
-37.5000;0.4640;0.8644;
-37.2000;0.4664;0.8620;
-36.9000;0.4648;0.8549;
-36.6000;0.4656;0.8596;
-36.3000;0.4640;0.8596;
-36.0000;0.4640;0.8549;
-35.7000;0.4681;0.8691;
-35.4000;0.4640;0.8620;
-35.1000;0.4624;0.8620;
-34.8000;0.4656;0.8810;
-34.5000;0.4640;0.8644;
-34.2000;0.4632;0.8596;
-33.9000;0.4689;0.8620;
-33.6000;0.4640;0.8525;
-33.3000;0.4615;0.8360;
-33.0000;0.4648;0.8431;
-32.7000;0.4640;0.8383;
-32.4000;0.4624;0.8336;
-32.1000;0.4656;0.8431;
-31.8000;0.4640;0.8407;
-31.5000;0.4640;0.8383;
-31.2000;0.4640;0.8383;
-30.9000;0.4648;0.8549;
-30.6000;0.4672;0.8596;
-30.3000;0.4542;0.8265;
-30.0000;0.4632;0.8478;
-29.7000;0.4640;0.8502;
-29.4000;0.4640;0.8549;
-29.1000;0.4640;0.8667;
-28.8000;0.4632;0.8620;
-28.5000;0.4689;0.8810;
-28.2000;0.4648;0.8738;
-27.9000;0.4624;0.8691;
-27.6000;0.4681;0.8738;
-27.3000;0.4640;0.8738;
-27.0000;0.4624;0.8786;
-26.7000;0.4640;0.8786;
-26.4000;0.4640;0.8786;
-26.1000;0.4632;0.8786;
-25.8000;0.4681;0.8857;
-25.5000;0.4681;0.8786;
-25.2000;0.4640;0.8810;
-24.9000;0.4656;0.8786;
-24.6000;0.4664;0.8810;
-24.3000;0.4591;0.8549;
-24.0000;0.4632;0.8620;
-23.7000;0.4607;0.8573;
-23.4000;0.4640;0.8667;
-23.1000;0.4640;0.8549;
-22.8000;0.4615;0.8454;
-22.5000;0.4640;0.8525;
-22.2000;0.4648;0.8620;
-21.9000;0.4656;0.8620;
-21.6000;0.4648;0.8738;
-21.3000;0.4632;0.8667;
-21.0000;0.4640;0.8691;
-20.7000;0.4632;0.8715;
-20.4000;0.4632;0.8715;
-20.1000;0.4640;0.8644;
-19.8000;0.4640;0.8644;
-19.5000;0.4624;0.8738;
-19.2000;0.4640;0.8786;
-18.9000;0.4632;0.8810;
-18.6000;0.4648;0.8833;
-18.3000;0.4648;0.8833;
-18.0000;0.4640;0.8833;
-17.7000;0.4632;0.8786;
-17.4000;0.4640;0.8786;
-17.1000;0.4640;0.8810;
-16.8000;0.4656;0.8857;
-16.5000;0.4640;0.8833;
-16.2000;0.4648;0.8810;
-15.9000;0.4624;0.8810;
-15.6000;0.4656;0.8833;
-15.3000;0.4648;0.8857;
-15.0000;0.4632;0.8857;
-14.7000;0.4656;0.8833;
-14.4000;0.4632;0.8738;
-14.1000;0.4640;0.8667;
-13.8000;0.4656;0.8738;
-13.5000;0.4624;0.8786;
-13.2000;0.4656;0.8833;
-12.9000;0.4656;0.8881;
-12.6000;0.4656;0.8904;
-12.3000;0.4640;0.8881;
-12.0000;0.4648;0.8810;
-11.7000;0.4656;0.8833;
-11.4000;0.4648;0.8810;
-11.1000;0.4640;0.8738;
-10.8000;0.4640;0.8738;
-10.5000;0.4632;0.8833;
-10.2000;0.4599;0.8691;
-9.9000;0.4729;0.8928;
-9.6000;0.4656;0.8786;
-9.3000;0.4632;0.8786;
-9.0000;0.4640;0.8762;
-8.7000;0.4624;0.8644;
-8.4000;0.4640;0.8715;
-8.1000;0.4656;0.8738;
-7.8000;0.4640;0.8857;
-7.5000;0.4640;0.8833;
-7.2000;0.4705;0.8952;
-6.9000;0.4632;0.8810;
-6.6000;0.4681;0.8975;
-6.3000;0.4648;0.8952;
-6.0000;0.4640;0.8904;
-5.7000;0.4640;0.8857;
-5.4000;0.4632;0.8786;
-5.1000;0.4640;0.8857;
-4.8000;0.4542;0.8596;
-4.5000;0.4615;0.8881;
-4.2000;0.4615;0.8857;
-3.9000;0.4624;0.8881;
-3.6000;0.4705;0.8999;
-3.3000;0.4656;0.8857;
-3.0000;0.4624;0.8786;
-2.7000;0.4648;0.8857;
-2.4000;0.4640;0.8952;
-2.1000;0.4632;0.8952;
-1.8000;0.4648;0.8881;
-1.5000;0.4648;0.8833;
-1.2000;0.4648;0.8810;
-0.9000;0.4632;0.8738;
-0.6000;0.4640;0.8738;
-0.3000;0.4664;0.8810;
0.0000;0.4664;0.8810;
0.3000;0.4697;0.8573;
0.6000;0.4786;0.8786;
0.9000;0.4851;0.8952;
1.2000;0.4941;0.9165;
1.5000;0.4965;0.9212;
1.8000;0.5006;0.9378;
2.1000;0.5039;0.9520;
2.4000;0.5055;0.9567;
2.7000;0.5071;0.9638;
3.0000;0.5120;0.9899;
3.3000;0.5079;0.9733;
3.6000;0.5096;0.9757;
3.9000;0.5112;0.9852;
4.2000;0.5112;0.9923;
4.5000;0.5112;0.9946;
4.8000;0.5144;1.0017;
5.1000;0.5136;0.9994;
5.4000;0.5136;0.9970;
5.7000;0.5136;1.0041;
6.0000;0.5104;0.9994;
6.3000;0.5153;1.0159;
6.6000;0.5169;1.0159;
6.9000;0.5161;1.0088;
7.2000;0.5153;1.0112;
7.5000;0.5169;1.0230;
7.8000;0.5177;1.0159;
8.1000;0.5267;1.0444;
8.4000;0.5201;1.0372;
8.7000;0.5210;1.0349;
9.0000;0.5193;1.0278;
9.3000;0.5218;1.0183;
9.6000;0.5210;1.0183;
9.9000;0.5210;1.0136;
10.2000;0.5250;1.0207;
10.5000;0.5226;1.0230;
10.8000;0.5226;1.0349;
11.1000;0.5226;1.0254;
11.4000;0.5242;1.0349;
11.7000;0.5250;1.0420;
12.0000;0.5242;1.0254;
12.3000;0.5218;1.0112;
12.6000;0.5258;1.0207;
12.9000;0.5218;1.0041;
13.2000;0.5275;1.0183;
13.5000;0.5267;1.0183;
13.8000;0.5267;1.0088;
14.1000;0.5275;1.0041;
14.4000;0.5267;1.0041;
14.7000;0.5267;0.9994;
15.0000;0.5283;0.9970;
15.3000;0.5291;1.0017;
15.6000;0.5315;1.0088;
15.9000;0.5299;1.0088;
16.2000;0.5283;1.0112;
16.5000;0.5324;1.0230;
16.8000;0.5299;1.0159;
17.1000;0.5315;1.0159;
17.4000;0.5307;1.0159;
17.7000;0.5315;1.0207;
18.0000;0.5315;1.0159;
18.3000;0.5315;1.0088;
18.6000;0.5315;1.0041;
18.9000;0.5348;1.0136;
19.2000;0.5340;1.0136;
19.5000;0.5332;1.0088;
19.8000;0.5332;1.0159;
20.1000;0.5324;1.0230;
20.4000;0.5332;1.0325;
20.7000;0.5332;1.0325;
21.0000;0.5340;1.0278;
21.3000;0.5348;1.0349;
21.6000;0.5356;1.0278;
21.9000;0.5405;1.0467;
22.2000;0.5356;1.0349;
22.5000;0.5332;1.0207;
22.8000;0.5372;1.0207;
23.1000;0.5364;1.0183;
23.4000;0.5397;1.0230;
23.7000;0.5332;1.0041;
24.0000;0.5364;1.0136;
24.3000;0.5372;1.0207;
24.6000;0.5381;1.0230;
24.9000;0.5372;1.0230;
25.2000;0.5364;1.0301;
25.5000;0.5364;1.0254;
25.8000;0.5364;1.0207;
26.1000;0.5356;1.0207;
26.4000;0.5381;1.0183;
26.7000;0.5405;1.0278;
27.0000;0.5389;1.0254;
27.3000;0.5364;1.0230;
27.6000;0.5397;1.0230;
27.9000;0.5397;1.0278;
28.2000;0.5397;1.0183;
28.5000;0.5389;1.0207;
28.8000;0.5397;1.0207;
29.1000;0.5470;1.0420;
29.4000;0.5397;1.0325;
29.7000;0.5389;1.0349;
30.0000;0.5315;1.0230;
30.3000;0.5389;1.0444;
30.6000;0.5413;1.0515;
30.9000;0.5413;1.0562;
31.2000;0.5413;1.0538;
31.5000;0.5405;1.0515;
31.8000;0.5413;1.0609;
32.1000;0.5413;1.0515;
32.4000;0.5413;1.0491;
32.7000;0.5421;1.0491;
33.0000;0.5438;1.0538;
33.3000;0.5421;1.0538;
33.6000;0.5429;1.0467;
33.9000;0.5397;1.0278;
34.2000;0.5454;1.0396;
34.5000;0.5446;1.0420;
34.8000;0.5438;1.0396;
35.1000;0.5429;1.0278;
35.4000;0.5421;1.0325;
35.7000;0.5421;1.0278;
36.0000;0.5413;1.0159;
36.3000;0.5421;1.0183;
36.6000;0.5421;1.0349;
36.9000;0.5421;1.0372;
37.2000;0.5421;1.0372;
37.5000;0.5421;1.0444;
37.8000;0.5429;1.0467;
38.1000;0.5438;1.0349;
38.4000;0.5429;1.0301;
38.7000;0.5503;1.0444;
39.0000;0.5438;1.0301;
39.3000;0.5470;1.0301;
39.6000;0.5454;1.0230;
39.9000;0.5429;1.0159;
40.2000;0.5421;1.0088;
40.5000;0.5470;1.0230;
40.8000;0.5429;1.0159;
41.1000;0.5429;1.0183;
41.4000;0.5454;1.0183;
41.7000;0.5470;1.0278;
42.0000;0.5405;1.0183;
42.3000;0.5462;1.0325;
42.6000;0.5429;1.0207;
42.9000;0.5527;1.0444;
43.2000;0.5470;1.0278;
43.5000;0.5438;1.0207;
43.8000;0.5462;1.0230;
44.1000;0.5446;1.0230;
44.4000;0.5454;1.0325;
44.7000;0.5462;1.0372;
45.0000;0.5470;1.0325;
45.3000;0.5462;1.0278;
45.6000;0.5486;1.0372;
45.9000;0.5495;1.0278;
46.2000;0.5486;1.0112;
46.5000;0.5389;0.9875;
46.8000;0.5511;1.0112;
47.1000;0.5470;0.9970;
47.4000;0.5535;1.0159;
47.7000;0.5470;0.9994;
48.0000;0.5560;1.0278;
48.3000;0.5478;1.0112;
48.6000;0.5470;1.0088;
48.9000;0.5503;1.0136;
49.2000;0.5495;1.0136;
49.5000;0.5495;1.0207;
49.8000;0.5486;1.0207;
50.1000;0.5486;1.0183;
50.4000;0.5446;1.0041;
50.7000;0.5478;1.0159;
51.0000;0.5478;1.0136;
51.3000;0.5454;1.0088;
51.6000;0.5470;1.0183;
51.9000;0.5486;1.0254;
52.2000;0.5454;1.0230;
52.5000;0.5470;1.0254;
52.8000;0.5454;1.0207;
53.1000;0.5470;1.0136;
53.4000;0.5495;1.0183;
53.7000;0.5486;1.0254;
54.0000;0.5478;1.0254;
54.3000;0.5454;1.0183;
54.6000;0.5478;1.0207;
54.9000;0.5486;1.0230;
55.2000;0.5478;1.0230;
55.5000;0.5470;1.0183;
55.8000;0.5478;1.0159;
56.1000;0.5470;1.0136;
56.4000;0.5478;0.9970;
56.7000;0.5462;0.9946;
57.0000;0.5462;0.9946;
57.3000;0.5486;0.9970;
57.6000;0.5495;1.0017;
57.9000;0.5462;1.0088;
58.2000;0.5470;1.0254;
58.5000;0.5478;1.0325;
58.8000;0.5478;1.0230;
59.1000;0.5486;1.0349;
59.4000;0.5495;1.0372;
59.7000;0.5486;1.0278;
60.0000;0.5495;1.0349;
60.3000;0.5511;1.0372;
60.6000;0.5495;1.0301;
60.9000;0.5503;1.0301;
61.2000;0.5503;1.0254;
61.5000;0.5429;1.0207;
61.8000;0.5592;1.0633;
62.1000;0.5495;1.0372;
62.4000;0.5503;1.0444;
62.7000;0.5421;1.0254;
63.0000;0.5478;1.0467;
63.3000;0.5470;1.0420;
63.6000;0.5478;1.0444;
63.9000;0.5470;1.0325;
64.2000;0.5495;1.0349;
64.5000;0.5462;1.0325;
64.8000;0.5495;1.0444;
65.1000;0.5495;1.0349;
65.4000;0.5511;1.0396;
65.7000;0.5495;1.0278;
66.0000;0.5503;1.0301;
66.3000;0.5543;1.0420;
66.6000;0.5462;1.0230;
66.9000;0.5462;1.0278;
67.2000;0.5503;1.0396;
67.5000;0.5438;1.0254;
67.8000;0.5535;1.0349;
68.1000;0.5486;1.0254;
68.4000;0.5486;1.0230;
68.7000;0.5503;1.0301;
69.0000;0.5503;1.0254;
69.3000;0.5413;1.0088;
69.6000;0.5421;1.0159;
69.9000;0.5486;1.0254;
70.2000;0.5478;1.0207;
70.5000;0.5511;1.0254;
70.8000;0.5486;1.0301;
71.1000;0.5486;1.0254;
71.4000;0.5478;1.0349;
71.7000;0.5495;1.0420;
72.0000;0.5503;1.0372;
72.3000;0.5503;1.0444;
72.6000;0.5511;1.0444;
72.9000;0.5503;1.0420;
73.2000;0.5470;1.0396;
73.5000;0.5478;1.0396;
73.8000;0.5511;1.0372;
74.1000;0.5486;1.0278;
74.4000;0.5511;1.0254;
74.7000;0.5495;1.0230;
75.0000;0.5495;1.0230;
75.3000;0.5486;1.0278;
75.6000;0.5495;1.0301;
75.9000;0.5503;1.0230;
76.2000;0.5486;1.0159;
76.5000;0.5503;1.0065;
76.8000;0.5511;1.0088;
77.1000;0.5519;1.0065;
77.4000;0.5495;0.9994;
77.7000;0.5486;1.0017;
78.0000;0.5486;0.9970;
78.3000;0.5486;1.0017;
78.6000;0.5511;1.0112;
78.9000;0.5519;1.0112;
79.2000;0.5495;1.0017;
79.5000;0.5486;0.9946;
79.8000;0.5503;0.9994;
80.1000;0.5486;0.9923;
80.4000;0.5511;1.0017;
80.7000;0.5462;0.9970;
81.0000;0.5486;1.0065;
81.3000;0.5503;1.0088;
81.6000;0.5495;1.0136;
81.9000;0.5503;1.0230;
82.2000;0.5486;1.0183;
82.5000;0.5478;1.0136;
82.8000;0.5527;1.0254;
83.1000;0.5486;1.0112;
83.4000;0.5511;1.0112;
83.7000;0.5478;1.0017;
84.0000;0.5511;1.0041;
84.3000;0.5527;1.0088;
84.6000;0.5503;1.0017;
84.9000;0.5568;1.0207;
85.2000;0.5527;1.0159;
85.5000;0.5560;1.0207;
85.8000;0.5503;1.0065;
86.1000;0.5478;1.0017;
86.4000;0.5608;1.0325;
86.7000;0.5560;1.0254;
87.0000;0.5486;0.9946;
87.3000;0.5511;0.9923;
87.6000;0.5495;0.9899;
87.9000;0.5446;0.9828;
88.2000;0.5511;0.9970;
88.5000;0.5495;0.9970;
88.8000;0.5519;1.0136;
89.1000;0.5486;1.0088;
89.4000;0.5503;1.0207;
89.7000;0.5495;1.0230;
90.0000;0.5446;1.0112;
90.3000;0.5486;1.0278;
90.6000;0.5527;1.0278;
90.9000;0.5527;1.0254;
91.2000;0.5495;1.0207;
91.5000;0.5551;1.0301;
91.8000;0.5527;1.0183;
92.1000;0.5535;1.0112;
92.4000;0.5486;0.9899;
92.7000;0.5503;0.9899;
93.0000;0.5486;0.9804;
93.3000;0.5486;0.9923;
93.6000;0.5503;1.0017;
93.9000;0.5511;1.0017;
94.2000;0.5495;0.9946;
94.5000;0.5495;1.0041;
94.8000;0.5519;1.0136;
95.1000;0.5503;1.0065;
95.4000;0.5511;1.0088;
95.7000;0.5519;1.0088;
96.0000;0.5503;1.0112;
96.3000;0.5486;1.0088;
96.6000;0.5503;1.0017;
96.9000;0.5503;0.9994;
97.2000;0.5527;1.0088;
97.5000;0.5495;1.0065;
97.8000;0.5478;1.0065;
98.1000;0.5503;1.0136;
98.4000;0.5503;1.0230;
98.7000;0.5495;1.0254;
99.0000;0.5486;1.0230;
99.3000;0.5429;1.0041;
99.6000;0.5503;1.0159;
99.9000;0.5503;1.0159;
100.2000;0.5495;1.0088;
100.5000;0.5519;1.0088;
100.8000;0.5495;1.0017;
101.1000;0.5421;0.9970;
101.4000;0.5503;1.0230;
101.7000;0.5486;1.0254;
102.0000;0.5511;1.0372;
102.3000;0.5641;1.0728;
102.6000;0.5495;1.0254;
102.9000;0.5470;1.0136;
103.2000;0.5551;1.0349;
103.5000;0.5495;1.0159;
103.8000;0.5495;1.0183;
104.1000;0.5495;1.0159;
104.4000;0.5519;1.0207;
104.7000;0.5454;1.0065;
105.0000;0.5519;1.0112;
105.3000;0.5511;1.0136;
105.6000;0.5503;1.0183;
105.9000;0.5511;1.0136;
106.2000;0.5503;1.0088;
106.5000;0.5503;1.0112;
106.8000;0.5511;1.0112;
107.1000;0.5503;1.0112;
107.4000;0.5470;0.9994;
107.7000;0.5470;0.9994;
108.0000;0.5470;0.9828;
108.3000;0.5495;0.9828;
108.6000;0.5495;0.9946;
108.9000;0.5478;0.9899;
109.2000;0.5381;0.9686;
109.5000;0.5495;0.9946;
109.8000;0.5511;1.0017;
110.1000;0.5503;0.9923;
110.4000;0.5495;0.9946;
110.7000;0.5535;1.0017;
111.0000;0.5527;0.9994;
111.3000;0.5519;0.9970;
111.6000;0.5519;1.0088;
111.9000;0.5511;1.0159;
112.2000;0.5592;1.0325;
112.5000;0.5511;1.0183;
112.8000;0.5495;1.0325;
113.1000;0.5519;1.0325;
113.4000;0.5511;1.0325;
113.7000;0.5535;1.0349;
114.0000;0.5503;1.0349;
114.3000;0.5527;1.0444;
114.6000;0.5503;1.0444;
114.9000;0.5503;1.0349;
115.2000;0.5503;1.0301;
115.5000;0.5503;1.0207;
115.8000;0.5495;1.0159;
116.1000;0.5511;1.0183;
116.4000;0.5511;1.0088;
116.7000;0.5551;1.0278;
117.0000;0.5486;1.0183;
117.3000;0.5495;1.0183;
117.6000;0.5495;1.0230;
117.9000;0.5511;1.0230;
118.2000;0.5495;1.0183;
118.5000;0.5503;1.0207;
118.8000;0.5519;1.0230;
119.1000;0.5495;1.0278;
119.4000;0.5495;1.0254;
119.7000;0.5503;1.0230;
120.0000;0.5527;1.0278;
120.3000;0.5511;1.0301;
120.6000;0.5503;1.0254;
120.9000;0.5495;1.0254;
121.2000;0.5519;1.0207;
121.5000;0.5535;1.0183;
121.8000;0.5527;1.0065;
122.1000;0.5527;1.0112;
122.4000;0.5543;1.0159;
122.7000;0.5519;1.0136;
123.0000;0.5527;1.0136;
123.3000;0.5495;1.0041;
123.6000;0.5503;1.0112;
123.9000;0.5535;1.0159;
124.2000;0.5470;1.0065;
124.5000;0.5478;1.0136;
124.8000;0.5503;1.0159;
125.1000;0.5470;1.0136;
125.4000;0.5511;1.0230;
125.7000;0.5503;1.0159;
126.0000;0.5486;1.0112;
126.3000;0.5511;1.0183;
126.6000;0.5527;1.0136;
126.9000;0.5495;1.0136;
127.2000;0.5519;1.0254;
127.5000;0.5511;1.0207;
127.8000;0.5511;1.0159;
128.1000;0.5462;1.0017;
128.4000;0.5527;1.0230;
128.7000;0.5486;1.0183;
129.0000;0.5608;1.0396;
129.3000;0.5486;1.0183;
129.6000;0.5486;1.0088;
129.9000;0.5495;1.0136;
130.2000;0.5486;1.0041;
130.5000;0.5535;1.0183;
130.8000;0.5495;1.0183;
131.1000;0.5503;1.0230;
131.4000;0.5495;1.0159;
131.7000;0.5446;1.0065;
132.0000;0.5446;0.9994;
132.3000;0.5560;1.0278;
132.6000;0.5470;1.0112;
132.9000;0.5511;1.0301;
133.2000;0.5511;1.0254;
133.5000;0.5478;1.0278;
133.8000;0.5495;1.0278;
134.1000;0.5527;1.0254;
134.4000;0.5503;1.0230;
134.7000;0.5503;1.0301;
135.0000;0.5511;1.0278;
135.3000;0.5503;1.0278;
135.6000;0.5519;1.0349;
135.9000;0.5511;1.0420;
136.2000;0.5478;1.0325;
136.5000;0.5511;1.0301;
136.8000;0.5511;1.0325;
137.1000;0.5527;1.0372;
137.4000;0.5519;1.0325;
137.7000;0.5519;1.0301;
138.0000;0.5511;1.0325;
138.3000;0.5486;1.0254;
138.6000;0.5503;1.0301;
138.9000;0.5495;1.0254;
139.2000;0.5486;1.0301;
139.5000;0.5495;1.0278;
139.8000;0.5503;1.0278;
140.1000;0.5478;1.0278;
140.4000;0.5527;1.0396;
140.7000;0.5543;1.0444;
141.0000;0.5503;1.0301;
141.3000;0.5397;1.0065;
141.6000;0.5503;1.0396;
141.9000;0.5495;1.0325;
142.2000;0.5495;1.0420;
142.5000;0.5495;1.0396;
142.8000;0.5503;1.0444;
143.1000;0.5495;1.0372;
143.4000;0.5438;1.0254;
143.7000;0.5503;1.0372;
144.0000;0.5486;1.0396;
144.3000;0.5470;1.0396;
144.6000;0.5486;1.0444;
144.9000;0.5495;1.0444;
145.2000;0.5511;1.0396;
145.5000;0.5503;1.0325;
145.8000;0.5503;1.0278;
146.1000;0.5446;1.0183;
146.4000;0.5527;1.0325;
146.7000;0.5511;1.0183;
147.0000;0.5478;1.0041;
147.3000;0.5511;1.0112;
147.6000;0.5511;1.0207;
147.9000;0.5511;1.0207;
148.2000;0.5625;1.0633;
148.5000;0.5519;1.0420;
148.8000;0.5503;1.0396;
149.1000;0.5511;1.0278;
149.4000;0.5503;1.0301;
149.7000;0.5495;1.0278;
150.0000;0.5478;1.0278;
150.3000;0.5503;1.0349;
150.6000;0.5527;1.0372;
150.9000;0.5503;1.0372;
151.2000;0.5495;1.0396;
151.5000;0.5511;1.0420;
151.8000;0.5503;1.0420;
152.1000;0.5511;1.0396;
152.4000;0.5495;1.0254;
152.7000;0.5495;1.0230;
153.0000;0.5429;1.0112;
153.3000;0.5503;1.0301;
153.6000;0.5503;1.0254;
153.9000;0.5503;1.0230;
154.2000;0.5511;1.0325;
154.5000;0.5503;1.0278;
154.8000;0.5478;1.0230;
155.1000;0.5519;1.0420;
155.4000;0.5486;1.0325;
155.7000;0.5503;1.0325;
156.0000;0.5486;1.0207;
156.3000;0.5519;1.0254;
156.6000;0.5511;1.0278;
156.9000;0.5543;1.0349;
157.2000;0.5527;1.0301;
157.5000;0.5519;1.0420;
157.8000;0.5503;1.0372;
158.1000;0.5454;1.0349;
158.4000;0.5486;1.0420;
158.7000;0.5519;1.0515;
159.0000;0.5511;1.0467;
159.3000;0.5535;1.0515;
159.6000;0.5486;1.0491;
159.9000;0.5470;1.0515;
160.2000;0.5503;1.0609;
160.5000;0.5503;1.0586;
160.8000;0.5503;1.0562;
161.1000;0.5527;1.0538;
161.4000;0.5446;1.0396;
161.7000;0.5503;1.0467;
162.0000;0.5503;1.0420;
162.3000;0.5568;1.0562;
162.6000;0.5486;1.0349;
162.9000;0.5503;1.0420;
163.2000;0.5503;1.0515;
163.5000;0.5527;1.0562;
163.8000;0.5495;1.0538;
164.1000;0.5486;1.0515;
164.4000;0.5462;1.0396;
164.7000;0.5503;1.0444;
165.0000;0.5486;1.0467;
165.3000;0.5478;1.0420;
165.6000;0.5503;1.0420;
165.9000;0.5511;1.0444;
166.2000;0.5495;1.0420;
166.5000;0.5503;1.0372;
166.8000;0.5511;1.0396;
167.1000;0.5495;1.0444;
167.4000;0.5503;1.0491;
167.7000;0.5519;1.0396;
168.0000;0.5495;1.0301;
168.3000;0.5413;1.0136;
168.6000;0.5511;1.0372;
168.9000;0.5511;1.0325;
169.2000;0.5503;1.0325;
169.5000;0.5495;1.0372;
169.8000;0.5486;1.0278;
170.1000;0.5348;0.9875;
170.4000;0.5503;1.0159;
170.7000;0.5503;1.0136;
171.0000;0.5486;1.0112;
171.3000;0.5511;1.0183;
171.6000;0.5511;1.0301;
171.9000;0.5495;1.0301;
172.2000;0.5543;1.0467;
172.5000;0.5535;1.0420;
172.8000;0.5486;1.0325;
173.1000;0.5495;1.0372;
173.4000;0.5503;1.0396;
173.7000;0.5527;1.0444;
174.0000;0.5551;1.0420;
174.3000;0.5511;1.0372;
174.6000;0.5495;1.0467;
174.9000;0.5495;1.0444;
175.2000;0.5495;1.0420;
175.5000;0.5470;1.0467;
175.8000;0.5486;1.0491;
176.1000;0.5478;1.0538;
176.4000;0.5503;1.0633;
176.7000;0.5495;1.0680;
177.0000;0.5511;1.0609;
177.3000;0.5486;1.0562;
177.6000;0.5495;1.0562;
177.9000;0.5462;1.0372;
178.2000;0.5511;1.0420;
178.5000;0.5560;1.0491;
178.8000;0.5519;1.0325;
179.1000;0.5495;1.0230;
179.4000;0.5576;1.0396;
179.7000;0.5495;1.0230;
180.0000;0.5560;1.0159;
180.3000;0.5511;1.0017;
180.6000;0.5560;1.0136;
180.9000;0.5503;0.9994;
181.2000;0.5495;0.9994;
181.5000;0.5495;0.9875;
181.8000;0.5486;0.9970;
182.1000;0.5478;0.9899;
182.4000;0.5486;0.9970;
182.7000;0.5478;1.0041;
183.0000;0.5495;1.0065;
183.3000;0.5519;1.0065;
183.6000;0.5535;1.0065;
183.9000;0.5486;0.9923;
184.2000;0.5462;0.9733;
184.5000;0.5568;0.9994;
184.8000;0.5495;0.9757;
185.1000;0.5511;0.9804;
185.4000;0.5503;0.9757;
185.7000;0.5503;0.9780;
186.0000;0.5486;0.9709;
186.3000;0.5551;0.9875;
186.6000;0.5503;0.9804;
186.9000;0.5511;0.9875;
187.2000;0.5486;0.9875;
187.5000;0.5470;0.9875;
187.8000;0.5495;0.9923;
188.1000;0.5503;0.9994;
188.4000;0.5503;1.0065;
188.7000;0.5495;1.0183;
189.0000;0.5511;1.0230;
189.3000;0.5511;1.0254;
189.6000;0.5486;1.0254;
189.9000;0.5503;1.0372;
190.2000;0.5535;1.0444;
190.5000;0.5503;1.0301;
190.8000;0.5470;1.0136;
191.1000;0.5503;1.0112;
191.4000;0.5495;1.0065;
191.7000;0.5503;1.0136;
192.0000;0.5495;1.0112;
192.3000;0.5462;0.9970;
192.6000;0.5495;1.0017;
192.9000;0.5495;0.9970;
193.2000;0.5495;0.9852;
193.5000;0.5503;0.9875;
193.8000;0.5495;0.9852;
194.1000;0.5478;0.9780;
194.4000;0.5511;0.9828;
194.7000;0.5519;0.9946;
195.0000;0.5495;0.9923;
195.3000;0.5495;0.9780;
195.6000;0.5495;0.9828;
195.9000;0.5478;0.9780;
196.2000;0.5470;0.9804;
196.5000;0.5511;0.9899;
196.8000;0.5503;0.9828;
197.1000;0.5543;0.9946;
197.4000;0.5486;0.9852;
197.7000;0.5503;0.9970;
198.0000;0.5511;0.9994;
198.3000;0.5511;1.0065;
198.6000;0.5495;0.9970;
198.9000;0.5511;0.9946;
199.2000;0.5470;0.9852;
199.5000;0.5519;0.9994;
199.8000;0.5495;0.9923;
200.1000;0.5438;0.9852;
200.4000;0.5511;1.0065;
200.7000;0.5503;0.9994;
201.0000;0.5486;0.9994;
201.3000;0.5584;1.0254;
201.6000;0.5503;1.0017;
201.9000;0.5486;0.9923;
202.2000;0.5519;0.9946;
202.5000;0.5511;0.9852;
202.8000;0.5486;0.9828;
203.1000;0.5527;0.9970;
203.4000;0.5486;0.9852;
203.7000;0.5511;0.9923;
204.0000;0.5527;0.9899;
204.3000;0.5527;0.9899;
204.6000;0.5478;0.9828;
204.9000;0.5519;0.9899;
205.2000;0.5527;0.9923;
205.5000;0.5519;0.9899;
205.8000;0.5511;0.9946;
206.1000;0.5454;0.9804;
206.4000;0.5495;0.9946;
206.7000;0.5495;1.0088;
207.0000;0.5478;1.0041;
207.3000;0.5486;1.0017;
207.6000;0.5495;0.9994;
207.9000;0.5503;1.0041;
208.2000;0.5527;1.0065;
208.5000;0.5511;1.0088;
208.8000;0.5503;1.0041;
209.1000;0.5503;1.0065;
209.4000;0.5495;1.0088;
209.7000;0.5503;1.0136;
210.0000;0.5470;1.0065;
210.3000;0.5503;1.0159;
210.6000;0.5519;1.0136;
210.9000;0.5511;1.0136;
211.2000;0.5503;1.0065;
211.5000;0.5511;0.9994;
211.8000;0.5503;0.9875;
212.1000;0.5511;0.9899;
212.4000;0.5503;0.9875;
212.7000;0.5503;0.9923;
213.0000;0.5495;0.9899;
213.3000;0.5519;0.9970;
213.6000;0.5527;1.0017;
213.9000;0.5511;1.0041;
214.2000;0.5511;1.0017;
214.5000;0.5503;0.9970;
214.8000;0.5519;1.0041;
215.1000;0.5470;0.9970;
215.4000;0.5519;1.0159;
215.7000;0.5495;1.0159;
216.0000;0.5486;1.0136;
216.3000;0.5486;1.0041;
216.6000;0.5503;0.9994;
216.9000;0.5503;1.0017;
217.2000;0.5454;0.9970;
217.5000;0.5503;1.0159;
217.8000;0.5503;1.0136;
218.1000;0.5413;0.9923;
218.4000;0.5527;1.0230;
218.7000;0.5511;1.0088;
219.0000;0.5503;1.0088;
219.3000;0.5454;0.9875;
219.6000;0.5519;1.0136;
219.9000;0.5527;1.0136;
220.2000;0.5560;1.0278;
220.5000;0.5503;1.0159;
220.8000;0.5519;1.0159;
221.1000;0.5519;1.0183;
221.4000;0.5511;1.0136;
221.7000;0.5519;1.0183;
222.0000;0.5519;1.0136;
222.3000;0.5535;1.0230;
222.6000;0.5527;1.0230;
222.9000;0.5486;1.0112;
223.2000;0.5503;1.0112;
223.5000;0.5503;1.0112;
223.8000;0.5503;1.0183;
224.1000;0.5511;1.0183;
224.4000;0.5511;1.0159;
224.7000;0.5495;1.0112;
225.0000;0.5495;1.0207;
225.3000;0.5519;1.0301;
225.6000;0.5560;1.0444;
225.9000;0.5511;1.0325;
226.2000;0.5503;1.0349;
226.5000;0.5470;1.0372;
226.8000;0.5584;1.0680;
227.1000;0.5503;1.0467;
227.4000;0.5519;1.0372;
227.7000;0.5503;1.0372;
228.0000;0.5503;1.0349;
228.3000;0.5503;1.0396;
228.6000;0.5478;1.0301;
228.9000;0.5503;1.0349;
229.2000;0.5486;1.0301;
229.5000;0.5503;1.0278;
229.8000;0.5503;1.0207;
230.1000;0.5495;1.0254;
230.4000;0.5503;1.0349;
230.7000;0.5495;1.0254;
231.0000;0.5511;1.0372;
231.3000;0.5511;1.0325;
231.6000;0.5438;1.0159;
231.9000;0.5486;1.0278;
232.2000;0.5495;1.0396;
232.5000;0.5486;1.0467;
232.8000;0.5486;1.0420;
233.1000;0.5478;1.0325;
233.4000;0.5503;1.0396;
233.7000;0.5495;1.0349;
234.0000;0.5495;1.0325;
234.3000;0.5503;1.0207;
234.6000;0.5486;1.0159;
234.9000;0.5495;1.0136;
235.2000;0.5535;1.0183;
235.5000;0.5486;1.0065;
235.8000;0.5511;1.0017;
236.1000;0.5478;0.9946;
236.4000;0.5503;0.9970;
236.7000;0.5486;0.9852;
237.0000;0.5486;0.9899;
237.3000;0.5470;0.9970;
237.6000;0.5503;1.0041;
237.9000;0.5478;1.0065;
238.2000;0.5478;1.0065;
238.5000;0.5495;1.0088;
238.8000;0.5495;1.0065;
239.1000;0.5503;0.9994;
239.4000;0.5503;1.0017;
239.7000;0.5519;1.0065;
240.0000;0.5527;1.0088;
240.3000;0.5495;1.0088;
240.6000;0.5527;1.0136;
240.9000;0.5503;1.0088;
241.2000;0.5503;1.0088;
241.5000;0.5503;1.0159;
241.8000;0.5503;1.0183;
242.1000;0.5527;1.0230;
242.4000;0.5519;1.0159;
242.7000;0.5511;1.0088;
243.0000;0.5486;1.0136;
243.3000;0.5486;0.9970;
243.6000;0.5503;0.9994;
243.9000;0.5503;1.0065;
244.2000;0.5608;1.0349;
244.5000;0.5503;0.9946;
244.8000;0.5519;0.9946;
245.1000;0.5413;0.9757;
245.4000;0.5511;1.0065;
245.7000;0.5503;1.0017;
246.0000;0.5511;1.0041;
246.3000;0.5511;1.0136;
246.6000;0.5503;1.0065;
246.9000;0.5503;1.0041;
247.2000;0.5519;1.0088;
247.5000;0.5617;1.0325;
247.8000;0.5495;1.0041;
248.1000;0.5503;1.0088;
248.4000;0.5511;1.0136;
248.7000;0.5486;1.0065;
249.0000;0.5511;1.0065;
249.3000;0.5503;1.0088;
249.6000;0.5446;0.9923;
249.9000;0.5503;1.0041;
250.2000;0.5446;0.9899;
250.5000;0.5511;0.9994;
250.8000;0.5511;0.9970;
251.1000;0.5503;0.9899;
251.4000;0.5495;0.9852;
251.7000;0.5503;0.9946;
252.0000;0.5478;0.9852;
252.3000;0.5495;0.9946;
252.6000;0.5438;0.9804;
252.9000;0.5560;1.0065;
253.2000;0.5495;0.9994;
253.5000;0.5527;1.0088;
253.8000;0.5495;0.9994;
254.1000;0.5429;0.9780;
254.4000;0.5486;0.9994;
254.7000;0.5495;0.9994;
255.0000;0.5429;0.9899;
255.3000;0.5503;1.0088;
255.6000;0.5462;0.9946;
255.9000;0.5503;1.0136;
256.2000;0.5495;1.0159;
256.5000;0.5478;1.0112;
256.8000;0.5503;1.0112;
257.1000;0.5486;1.0088;
257.4000;0.5527;1.0112;
257.7000;0.5495;1.0088;
258.0000;0.5519;1.0183;
258.3000;0.5568;1.0325;
258.6000;0.5454;1.0065;
258.9000;0.5486;1.0159;
259.2000;0.5495;1.0183;
259.5000;0.5462;0.9970;
259.8000;0.5527;1.0112;
260.1000;0.5486;0.9946;
260.4000;0.5568;1.0088;
260.7000;0.5568;1.0112;
261.0000;0.5503;1.0017;
261.3000;0.5478;0.9899;
261.6000;0.5503;0.9946;
261.9000;0.5511;0.9899;
262.2000;0.5511;0.9946;
262.5000;0.5462;0.9804;
262.8000;0.5503;0.9923;
263.1000;0.5315;0.9473;
263.4000;0.5495;0.9946;
263.7000;0.5495;0.9946;
264.0000;0.5535;0.9970;
264.3000;0.5486;0.9828;
264.6000;0.5527;0.9875;
264.9000;0.5495;0.9875;
265.2000;0.5495;0.9875;
265.5000;0.5511;0.9970;
265.8000;0.5527;0.9875;
266.1000;0.5543;0.9923;
266.4000;0.5495;0.9875;
266.7000;0.5495;0.9946;
267.0000;0.5511;0.9923;
267.3000;0.5486;0.9852;
267.6000;0.5486;0.9875;
267.9000;0.5486;0.9970;
268.2000;0.5527;1.0088;
268.5000;0.5535;1.0041;
268.8000;0.5519;0.9994;
269.1000;0.5503;0.9946;
269.4000;0.5486;1.0017;
269.7000;0.5503;1.0088;
270.0000;0.5405;0.9923;
270.3000;0.5503;1.0112;
270.6000;0.5543;1.0207;
270.9000;0.5519;1.0136;
271.2000;0.5519;1.0088;
271.5000;0.5486;1.0041;
271.8000;0.5495;1.0183;
272.1000;0.5511;1.0112;
272.4000;0.5503;1.0088;
272.7000;0.5486;1.0112;
273.0000;0.5511;1.0136;
273.3000;0.5454;1.0041;
273.6000;0.5511;1.0136;
273.9000;0.5486;1.0112;
274.2000;0.5608;1.0467;
274.5000;0.5519;1.0112;
274.8000;0.5503;1.0065;
275.1000;0.5568;1.0254;
275.4000;0.5486;1.0088;
275.7000;0.5486;1.0159;
276.0000;0.5495;1.0183;
276.3000;0.5511;1.0183;
276.6000;0.5438;0.9994;
276.9000;0.5486;1.0136;
277.2000;0.5511;1.0254;
277.5000;0.5495;1.0183;
277.8000;0.5478;1.0230;
278.1000;0.5503;1.0207;
278.4000;0.5462;1.0183;
278.7000;0.5446;1.0041;
279.0000;0.5584;1.0325;
279.3000;0.5495;1.0230;
279.6000;0.5535;1.0349;
279.9000;0.5511;1.0254;
280.2000;0.5495;1.0183;
280.5000;0.5495;1.0325;
280.8000;0.5470;1.0230;
281.1000;0.5503;1.0301;
281.4000;0.5462;1.0230;
281.7000;0.5551;1.0420;
282.0000;0.5519;1.0254;
282.3000;0.5446;1.0065;
282.6000;0.5495;1.0278;
282.9000;0.5495;1.0207;
283.2000;0.5495;1.0230;
283.5000;0.5568;1.0396;
283.8000;0.5470;1.0230;
284.1000;0.5454;1.0254;
284.4000;0.5503;1.0349;
284.7000;0.5478;1.0230;
285.0000;0.5478;1.0349;
285.3000;0.5495;1.0372;
285.6000;0.5495;1.0278;
285.9000;0.5454;1.0112;
286.2000;0.5511;1.0183;
286.5000;0.5503;1.0254;
286.8000;0.5503;1.0301;
287.1000;0.5503;1.0230;
287.4000;0.5478;1.0136;
287.7000;0.5478;1.0112;
288.0000;0.5511;1.0183;
288.3000;0.5519;1.0183;
288.6000;0.5495;1.0159;
288.9000;0.5486;1.0159;
289.2000;0.5486;1.0159;
289.5000;0.5503;1.0159;
289.8000;0.5511;1.0112;
290.1000;0.5568;1.0278;
290.4000;0.5486;1.0183;
290.7000;0.5511;1.0112;
291.0000;0.5519;1.0183;
291.3000;0.5478;1.0159;
291.6000;0.5495;1.0278;
291.9000;0.5495;1.0278;
292.2000;0.5454;1.0159;
292.5000;0.5503;1.0278;
292.8000;0.5503;1.0183;
293.1000;0.5495;1.0159;
293.4000;0.5511;1.0136;
293.7000;0.5527;1.0136;
294.0000;0.5486;1.0017;
294.3000;0.5462;0.9946;
294.6000;0.5495;1.0065;
294.9000;0.5511;1.0159;
295.2000;0.5519;1.0230;
295.5000;0.5551;1.0325;
295.8000;0.5543;1.0254;
296.1000;0.5486;1.0041;
296.4000;0.5551;1.0088;
296.7000;0.5503;0.9970;
297.0000;0.5511;0.9946;
297.3000;0.5503;1.0041;
297.6000;0.5503;1.0065;
297.9000;0.5576;1.0183;
298.2000;0.5486;0.9923;
298.5000;0.5503;0.9875;
298.8000;0.5454;0.9638;
299.1000;0.5486;0.9828;
299.4000;0.5495;0.9733;
299.7000;0.5486;0.9709;
300.0000;0.5527;0.9852;
300.3000;0.5495;0.9780;
300.6000;0.5429;0.9638;
300.9000;0.5495;0.9852;
301.2000;0.5495;0.9852;
301.5000;0.5470;0.9828;
301.8000;0.5495;0.9994;
302.1000;0.5486;1.0088;
302.4000;0.5486;1.0136;
302.7000;0.5503;1.0183;
303.0000;0.5503;1.0183;
303.3000;0.5503;1.0065;
303.6000;0.5527;1.0017;
303.9000;0.5495;1.0017;
304.2000;0.5438;0.9923;
304.5000;0.5495;1.0041;
304.8000;0.5478;1.0065;
305.1000;0.5519;1.0136;
305.4000;0.5495;1.0088;
305.7000;0.5495;1.0041;
306.0000;0.5503;1.0065;
306.3000;0.5503;1.0017;
306.6000;0.5486;1.0065;
306.9000;0.5486;1.0017;
307.2000;0.5511;1.0159;
307.5000;0.5478;1.0065;
307.8000;0.5478;1.0065;
308.1000;0.5511;1.0207;
308.4000;0.5495;1.0159;
308.7000;0.5495;1.0254;
309.0000;0.5495;1.0230;
309.3000;0.5503;1.0183;
309.6000;0.5478;1.0159;
309.9000;0.5486;1.0088;
310.2000;0.5413;0.9946;
310.5000;0.5511;1.0301;
310.8000;0.5495;1.0254;
311.1000;0.5446;1.0136;
311.4000;0.5519;1.0372;
311.7000;0.5608;1.0491;
312.0000;0.5511;1.0230;
312.3000;0.5511;1.0254;
312.6000;0.5495;1.0230;
312.9000;0.5543;1.0349;
313.2000;0.5519;1.0254;
313.5000;0.5503;1.0136;
313.8000;0.5519;1.0159;
314.1000;0.5299;0.9473;
314.4000;0.5486;0.9852;
314.7000;0.5470;0.9733;
315.0000;0.5470;0.9780;
315.3000;0.5470;0.9638;
315.6000;0.5527;0.9828;
315.9000;0.5511;0.9780;
316.2000;0.5511;0.9946;
316.5000;0.5535;1.0159;
316.8000;0.5511;1.0088;
317.1000;0.5503;1.0088;
317.4000;0.5454;1.0183;
317.7000;0.5519;1.0278;
318.0000;0.5511;1.0230;
318.3000;0.5503;1.0159;
318.6000;0.5511;1.0183;
318.9000;0.5527;1.0230;
319.2000;0.5608;1.0467;
319.5000;0.5511;1.0183;
319.8000;0.5486;1.0207;
320.1000;0.5470;1.0254;
320.4000;0.5519;1.0372;
320.7000;0.5438;1.0065;
321.0000;0.5495;1.0159;
321.3000;0.5486;1.0159;
321.6000;0.5584;1.0372;
321.9000;0.5519;1.0396;
322.2000;0.5495;1.0325;
322.5000;0.5543;1.0372;
322.8000;0.5405;1.0041;
323.1000;0.5495;1.0325;
323.4000;0.5495;1.0230;
323.7000;0.5503;1.0159;
324.0000;0.5462;0.9946;
324.3000;0.5478;1.0017;
324.6000;0.5478;1.0017;
324.9000;0.5495;1.0088;
325.2000;0.5470;1.0088;
325.5000;0.5486;1.0159;
325.8000;0.5551;1.0396;
326.1000;0.5486;1.0301;
326.4000;0.5486;1.0183;
326.7000;0.5495;1.0183;
327.0000;0.5495;1.0183;
327.3000;0.5503;1.0159;
327.6000;0.5486;1.0136;
327.9000;0.5495;1.0088;
328.2000;0.5495;1.0183;
328.5000;0.5495;1.0088;
328.8000;0.5495;1.0112;
329.1000;0.5519;1.0207;
329.4000;0.5495;1.0136;
329.7000;0.5503;1.0159;
330.0000;0.5486;1.0159;
330.3000;0.5495;0.9994;
330.6000;0.5495;0.9946;
330.9000;0.5462;0.9875;
331.2000;0.5429;0.9828;
331.5000;0.5503;1.0041;
331.8000;0.5495;0.9946;
332.1000;0.5527;1.0017;
332.4000;0.5503;1.0017;
332.7000;0.5511;1.0112;
333.0000;0.5495;1.0065;
333.3000;0.5519;1.0136;
333.6000;0.5511;1.0112;
333.9000;0.5503;1.0088;
334.2000;0.5454;0.9994;
334.5000;0.5511;1.0136;
334.8000;0.5495;1.0088;
335.1000;0.5608;1.0325;
335.4000;0.5495;1.0065;
335.7000;0.5503;1.0088;
336.0000;0.5503;1.0112;
336.3000;0.5486;1.0088;
336.6000;0.5495;1.0065;
336.9000;0.5511;1.0136;
337.2000;0.5397;0.9852;
337.5000;0.5503;1.0207;
337.8000;0.5486;1.0230;
338.1000;0.5576;1.0349;
338.4000;0.5503;1.0183;
338.7000;0.5495;1.0088;
339.0000;0.5527;1.0230;
339.3000;0.5519;1.0254;
339.6000;0.5511;1.0207;
339.9000;0.5486;1.0159;
340.2000;0.5495;1.0207;
340.5000;0.5495;1.0136;
340.8000;0.5462;1.0065;
341.1000;0.5511;1.0159;
341.4000;0.5446;0.9946;
341.7000;0.5495;1.0065;
342.0000;0.5495;1.0112;
342.3000;0.5495;1.0112;
342.6000;0.5446;0.9946;
342.9000;0.5454;0.9923;
343.2000;0.5470;1.0017;
343.5000;0.5462;0.9946;
343.8000;0.5503;0.9923;
344.1000;0.5511;1.0088;
344.4000;0.5478;1.0088;
344.7000;0.5568;1.0207;
345.0000;0.5511;1.0183;
345.3000;0.5503;1.0230;
345.6000;0.5421;1.0112;
345.9000;0.5495;1.0301;
346.2000;0.5527;1.0349;
346.5000;0.5503;1.0207;
346.8000;0.5446;1.0065;
347.1000;0.5462;1.0136;
347.4000;0.5503;1.0207;
347.7000;0.5446;1.0159;
348.0000;0.5495;1.0349;
348.3000;0.5503;1.0396;
348.6000;0.5519;1.0325;
348.9000;0.5511;1.0207;
349.2000;0.5495;1.0159;
349.5000;0.5551;1.0254;
349.8000;0.5503;1.0136;
350.1000;0.5495;1.0207;
350.4000;0.5495;1.0183;
350.7000;0.5486;1.0136;
351.0000;0.5486;1.0112;
351.3000;0.5495;1.0088;
351.6000;0.5511;1.0136;
351.9000;0.5503;1.0041;
352.2000;0.5495;1.0065;
352.5000;0.5503;1.0112;
352.8000;0.5503;1.0159;
353.1000;0.5519;1.0230;
353.4000;0.5503;1.0278;
353.7000;0.5617;1.0538;
354.0000;0.5503;1.0301;
354.3000;0.5486;1.0254;
354.6000;0.5503;1.0230;
354.9000;0.5576;1.0467;
355.2000;0.5511;1.0325;
355.5000;0.5511;1.0325;
355.8000;0.5495;1.0254;
356.1000;0.5495;1.0159;
356.4000;0.5511;1.0278;
356.7000;0.5478;1.0278;
357.0000;0.5478;1.0325;
357.3000;0.5527;1.0420;
357.6000;0.5503;1.0372;
357.9000;0.5478;1.0325;
358.2000;0.5495;1.0349;
358.5000;0.5486;1.0325;
358.8000;0.5527;1.0349;
359.1000;0.5543;1.0396;
359.4000;0.5519;1.0278;
359.7000;0.5519;1.0325;
360.0000;0.5503;1.0301;
360.3000;0.5519;1.0396;
360.6000;0.5511;1.0491;
360.9000;0.5486;1.0325;
361.2000;0.5421;1.0254;
361.5000;0.5495;1.0444;
361.8000;0.5495;1.0467;
362.1000;0.5486;1.0420;
362.4000;0.5519;1.0538;
362.7000;0.5511;1.0467;
363.0000;0.5511;1.0491;
363.3000;0.5478;1.0396;
363.6000;0.5503;1.0396;
363.9000;0.5495;1.0396;
364.2000;0.5511;1.0444;
364.5000;0.5486;1.0372;
364.8000;0.5503;1.0349;
365.1000;0.5519;1.0372;
365.4000;0.5543;1.0278;
365.7000;0.5535;1.0207;
366.0000;0.5576;1.0254;
366.3000;0.5503;1.0159;
366.6000;0.5470;1.0136;
366.9000;0.5503;1.0183;
367.2000;0.5527;1.0230;
367.5000;0.5446;1.0136;
367.8000;0.5511;1.0278;
368.1000;0.5495;1.0230;
368.4000;0.5495;1.0183;
368.7000;0.5519;1.0183;
369.0000;0.5551;1.0349;
369.3000;0.5446;1.0207;
369.6000;0.5560;1.0444;
369.9000;0.5503;1.0372;
370.2000;0.5478;1.0396;
370.5000;0.5503;1.0396;
370.8000;0.5511;1.0325;
371.1000;0.5454;1.0159;
371.4000;0.5486;1.0278;
371.7000;0.5478;1.0230;
372.0000;0.5486;1.0207;
372.3000;0.5519;1.0230;
372.6000;0.5527;1.0278;
372.9000;0.5519;1.0207;
373.2000;0.5495;1.0183;
373.5000;0.5495;1.0136;
373.8000;0.5486;1.0065;
374.1000;0.5511;1.0136;
374.4000;0.5519;1.0207;
374.7000;0.5503;1.0159;
375.0000;0.5503;1.0159;
375.3000;0.5511;1.0183;
375.6000;0.5397;0.9970;
375.9000;0.5503;1.0254;
376.2000;0.5446;1.0136;
376.5000;0.5543;1.0301;
376.8000;0.5519;1.0136;
377.1000;0.5421;0.9923;
377.4000;0.5495;1.0088;
377.7000;0.5462;1.0088;
378.0000;0.5568;1.0372;
378.3000;0.5503;1.0112;
378.6000;0.5495;1.0065;
378.9000;0.5551;1.0230;
379.2000;0.5486;1.0136;
379.5000;0.5495;1.0207;
379.8000;0.5478;1.0230;
380.1000;0.5535;1.0301;
380.4000;0.5527;1.0254;
380.7000;0.5503;1.0183;
381.0000;0.5454;1.0041;
381.3000;0.5429;0.9994;
381.6000;0.5503;1.0207;
381.9000;0.5519;1.0230;
382.2000;0.5486;1.0159;
382.5000;0.5568;1.0254;
382.8000;0.5495;1.0041;
383.1000;0.5519;1.0136;
383.4000;0.5503;0.9970;
383.7000;0.5503;0.9946;
384.0000;0.5527;0.9994;
384.3000;0.5568;1.0088;
384.6000;0.5511;1.0017;
384.9000;0.5503;1.0065;
385.2000;0.5592;1.0278;
385.5000;0.5519;1.0136;
385.8000;0.5495;1.0112;
386.1000;0.5495;1.0017;
386.4000;0.5503;0.9994;
386.7000;0.5486;0.9923;
387.0000;0.5470;1.0065;
387.3000;0.5478;1.0017;
387.6000;0.5519;1.0041;
387.9000;0.5511;1.0041;
388.2000;0.5600;1.0301;
388.5000;0.5486;0.9970;
388.8000;0.5503;1.0017;
389.1000;0.5486;0.9970;
389.4000;0.5495;0.9899;
389.7000;0.5503;0.9852;
390.0000;0.5478;0.9899;
390.3000;0.5495;0.9994;
390.6000;0.5486;1.0041;
390.9000;0.5495;1.0041;
391.2000;0.5503;1.0183;
391.5000;0.5486;1.0136;
391.8000;0.5470;1.0112;
392.1000;0.5503;1.0159;
392.4000;0.5495;1.0183;
392.7000;0.5478;1.0136;
393.0000;0.5527;1.0207;
393.3000;0.5495;1.0207;
393.6000;0.5495;1.0207;
393.9000;0.5495;1.0230;
394.2000;0.5495;1.0278;
394.5000;0.5495;1.0372;
394.8000;0.5503;1.0420;
395.1000;0.5495;1.0396;
395.4000;0.5503;1.0301;
395.7000;0.5511;1.0349;
396.0000;0.5495;1.0230;
396.3000;0.5511;1.0207;
396.6000;0.5486;1.0136;
396.9000;0.5486;1.0159;
397.2000;0.5486;1.0088;
397.5000;0.5503;1.0088;
397.8000;0.5495;1.0136;
398.1000;0.5511;1.0136;
398.4000;0.5503;1.0230;
398.7000;0.5511;1.0207;
399.0000;0.5495;1.0159;
399.3000;0.5519;1.0230;
399.6000;0.5438;1.0230;
399.9000;0.5503;1.0396;
400.2000;0.5535;1.0420;
400.5000;0.5495;1.0230;
400.8000;0.5519;1.0278;
401.1000;0.5478;1.0183;
401.4000;0.5511;1.0183;
401.7000;0.5560;1.0301;
402.0000;0.5478;1.0136;
402.3000;0.5495;1.0112;
402.6000;0.5478;1.0088;
402.9000;0.5486;1.0183;
403.2000;0.5495;1.0254;
403.5000;0.5495;1.0254;
403.8000;0.5511;1.0183;
404.1000;0.5503;1.0159;
404.4000;0.5495;1.0325;
404.7000;0.5486;1.0230;
405.0000;0.5511;1.0278;
405.3000;0.5462;1.0230;
405.6000;0.5511;1.0230;
405.9000;0.5495;1.0207;
406.2000;0.5511;1.0301;
406.5000;0.5486;1.0254;
406.8000;0.5495;1.0183;
407.1000;0.5429;1.0065;
407.4000;0.5495;1.0230;
407.7000;0.5486;1.0159;
408.0000;0.5478;1.0065;
408.3000;0.5543;1.0301;
408.6000;0.5478;1.0088;
408.9000;0.5527;1.0183;
409.2000;0.5519;1.0136;
409.5000;0.5470;0.9946;
409.8000;0.5478;1.0041;
410.1000;0.5511;1.0136;
410.4000;0.5527;1.0254;
410.7000;0.5470;1.0041;
411.0000;0.5503;1.0065;
411.3000;0.5511;1.0065;
411.6000;0.5470;0.9923;
411.9000;0.5527;1.0065;
412.2000;0.5478;1.0041;
412.5000;0.5486;1.0088;
412.8000;0.5543;1.0301;
413.1000;0.5495;1.0136;
413.4000;0.5495;1.0136;
413.7000;0.5486;1.0136;
414.0000;0.5486;1.0065;
414.3000;0.5446;0.9923;
414.6000;0.5511;1.0065;
414.9000;0.5503;1.0041;
415.2000;0.5470;1.0017;
415.5000;0.5511;1.0088;
415.8000;0.5486;1.0088;
416.1000;0.5503;1.0230;
416.4000;0.5551;1.0372;
416.7000;0.5527;1.0278;
417.0000;0.5503;1.0230;
417.3000;0.5478;1.0112;
417.6000;0.5495;1.0112;
417.9000;0.5527;1.0183;
418.2000;0.5511;1.0112;
418.5000;0.5486;1.0017;
418.8000;0.5495;1.0017;
419.1000;0.5503;1.0041;
419.4000;0.5527;1.0112;
419.7000;0.5584;1.0325;
420.0000;0.5503;1.0159;
420.3000;0.5503;1.0017;
420.6000;0.5543;1.0183;
420.9000;0.5495;1.0065;
421.2000;0.5495;1.0088;
421.5000;0.5478;1.0041;
421.8000;0.5470;0.9994;
422.1000;0.5470;0.9899;
422.4000;0.5486;0.9899;
422.7000;0.5527;1.0041;
423.0000;0.5503;0.9923;
423.3000;0.5495;0.9875;
423.6000;0.5503;0.9899;
423.9000;0.5503;0.9923;
424.2000;0.5486;0.9970;
424.5000;0.5503;0.9970;
424.8000;0.5495;0.9970;
425.1000;0.5486;0.9946;
425.4000;0.5511;1.0041;
425.7000;0.5486;0.9994;
426.0000;0.5486;1.0017;
426.3000;0.5446;0.9994;
426.6000;0.5495;1.0065;
426.9000;0.5519;1.0017;
427.2000;0.5495;1.0041;
427.5000;0.5486;1.0088;
427.8000;0.5576;1.0301;
428.1000;0.5495;1.0230;
428.4000;0.5495;1.0207;
428.7000;0.5495;1.0088;
429.0000;0.5495;1.0088;
429.3000;0.5551;1.0207;
429.6000;0.5495;1.0065;
429.9000;0.5495;1.0017;
430.2000;0.5486;1.0017;
430.5000;0.5560;1.0230;
430.8000;0.5486;1.0112;
431.1000;0.5495;1.0112;
431.4000;0.5503;1.0183;
431.7000;0.5495;1.0183;
432.0000;0.5495;1.0159;
432.3000;0.5543;1.0278;
432.6000;0.5495;1.0041;
432.9000;0.5495;0.9970;
433.2000;0.5503;1.0017;
433.5000;0.5478;0.9970;
433.8000;0.5486;0.9946;
434.1000;0.5486;1.0017;
434.4000;0.5519;1.0136;
434.7000;0.5486;1.0088;
435.0000;0.5503;1.0136;
435.3000;0.5478;1.0065;
435.6000;0.5462;1.0159;
435.9000;0.5478;1.0325;
436.2000;0.5470;1.0183;
436.5000;0.5486;1.0065;
436.8000;0.5503;1.0041;
437.1000;0.5503;0.9994;
437.4000;0.5486;0.9946;
437.7000;0.5429;0.9923;
438.0000;0.5495;1.0112;
438.3000;0.5511;1.0136;
438.6000;0.5454;1.0065;
438.9000;0.5495;1.0159;
439.2000;0.5503;1.0230;
439.5000;0.5543;1.0372;
439.8000;0.5495;1.0207;
440.1000;0.5519;1.0159;
440.4000;0.5576;1.0325;
440.7000;0.5560;1.0207;
441.0000;0.5495;1.0136;
441.3000;0.5478;1.0112;
441.6000;0.5470;1.0159;
441.9000;0.5495;1.0159;
442.2000;0.5495;1.0159;
442.5000;0.5486;1.0065;
442.8000;0.5495;1.0017;
443.1000;0.5503;1.0017;
443.4000;0.5503;1.0088;
443.7000;0.5478;1.0017;
444.0000;0.5495;0.9994;
444.3000;0.5503;1.0017;
444.6000;0.5527;1.0017;
444.9000;0.5486;0.9970;
445.2000;0.5511;1.0017;
445.5000;0.5503;1.0041;
445.8000;0.5511;1.0112;
446.1000;0.5511;1.0183;
446.4000;0.5519;1.0183;
446.7000;0.5560;1.0230;
447.0000;0.5446;0.9970;
447.3000;0.5470;1.0017;
447.6000;0.5478;1.0065;
447.9000;0.5486;1.0017;
448.2000;0.5454;0.9923;
448.5000;0.5495;0.9970;
448.8000;0.5486;0.9946;
449.1000;0.5503;1.0088;
449.4000;0.5478;1.0065;
449.7000;0.5478;0.9994;
450.0000;0.5446;0.9970;
450.3000;0.5486;1.0041;
450.6000;0.5429;0.9970;
450.9000;0.5495;1.0159;
451.2000;0.5495;1.0136;
451.5000;0.5535;1.0278;
451.8000;0.5535;1.0301;
452.1000;0.5495;1.0159;
452.4000;0.5486;1.0183;
452.7000;0.5633;1.0538;
453.0000;0.5495;1.0183;
453.3000;0.5495;1.0278;
453.6000;0.5495;1.0207;
453.9000;0.5511;1.0207;
454.2000;0.5478;1.0088;
454.5000;0.5511;1.0159;
454.8000;0.5495;1.0159;
455.1000;0.5519;1.0183;
455.4000;0.5503;1.0183;
455.7000;0.5486;1.0207;
456.0000;0.5503;1.0254;
456.3000;0.5511;1.0207;
456.6000;0.5519;1.0136;
456.9000;0.5608;1.0396;
457.2000;0.5495;1.0136;
457.5000;0.5495;1.0088;
457.8000;0.5511;1.0207;
458.1000;0.5495;1.0088;
458.4000;0.5576;1.0325;
458.7000;0.5486;1.0207;
459.0000;0.5495;1.0230;
459.3000;0.5478;1.0136;
459.6000;0.5478;1.0112;
459.9000;0.5486;1.0088;
460.2000;0.5495;1.0017;
460.5000;0.5486;0.9994;
460.8000;0.5486;1.0065;
461.1000;0.5495;1.0088;
461.4000;0.5503;1.0065;
461.7000;0.5495;1.0017;
462.0000;0.5535;1.0136;
462.3000;0.5519;1.0065;
462.6000;0.5503;0.9970;
462.9000;0.5495;0.9923;
463.2000;0.5438;0.9828;
463.5000;0.5495;1.0041;
463.8000;0.5486;0.9970;
464.1000;0.5543;1.0136;
464.4000;0.5486;0.9946;
464.7000;0.5486;0.9946;
465.0000;0.5543;1.0088;
465.3000;0.5503;1.0088;
465.6000;0.5503;1.0136;
465.9000;0.5495;1.0112;
466.2000;0.5495;1.0041;
466.5000;0.5454;0.9970;
466.8000;0.5486;1.0041;
467.1000;0.5503;1.0041;
467.4000;0.5511;1.0088;
467.7000;0.5535;1.0159;
468.0000;0.5527;1.0159;
468.3000;0.5495;1.0088;
468.6000;0.5584;1.0278;
468.9000;0.5503;0.9970;
469.2000;0.5519;0.9946;
469.5000;0.5470;0.9875;
469.8000;0.5478;0.9875;
470.1000;0.5478;0.9923;
470.4000;0.5462;0.9946;
470.7000;0.5421;0.9875;
471.0000;0.5421;0.9828;
471.3000;0.5470;1.0041;
471.6000;0.5560;1.0254;
471.9000;0.5478;1.0112;
472.2000;0.5462;0.9994;
472.5000;0.5486;0.9970;
472.8000;0.5503;1.0041;
473.1000;0.5486;1.0041;
473.4000;0.5454;1.0041;
473.7000;0.5495;1.0159;
474.0000;0.5511;1.0230;
474.3000;0.5446;1.0183;
474.6000;0.5470;1.0254;
474.9000;0.5478;1.0183;
475.2000;0.5478;0.9994;
475.5000;0.5495;1.0041;
475.8000;0.5495;1.0041;
476.1000;0.5511;1.0017;
476.4000;0.5495;1.0017;
476.7000;0.5495;1.0017;
477.0000;0.5511;1.0088;
477.3000;0.5527;1.0159;
477.6000;0.5495;1.0136;
477.9000;0.5470;1.0017;
478.2000;0.5495;1.0136;
478.5000;0.5486;1.0159;
478.8000;0.5503;1.0159;
479.1000;0.5511;1.0136;
479.4000;0.5486;1.0088;
479.7000;0.5511;1.0088;
480.0000;0.5486;0.9970;
480.3000;0.5454;0.9899;
480.6000;0.5495;1.0065;
480.9000;0.5503;1.0112;
481.2000;0.5486;1.0041;
481.5000;0.5462;1.0041;
481.8000;0.5511;1.0278;
482.1000;0.5503;1.0254;
482.4000;0.5478;1.0278;
482.7000;0.5503;1.0325;
483.0000;0.5519;1.0301;
483.3000;0.5543;1.0349;
483.6000;0.5495;1.0183;
483.9000;0.5511;1.0207;
484.2000;0.5519;1.0254;
484.5000;0.5511;1.0230;
484.8000;0.5503;1.0183;
485.1000;0.5495;1.0088;
485.4000;0.5503;1.0112;
485.7000;0.5486;1.0136;
486.0000;0.5519;1.0207;
486.3000;0.5503;1.0159;
486.6000;0.5503;1.0230;
486.9000;0.5454;1.0183;
487.2000;0.5486;1.0230;
487.5000;0.5486;1.0136;
487.8000;0.5495;1.0041;
488.1000;0.5486;1.0017;
488.4000;0.5519;1.0088;
488.7000;0.5486;0.9946;
489.0000;0.5470;0.9970;
489.3000;0.5495;1.0017;
489.6000;0.5495;1.0041;
489.9000;0.5478;0.9946;
490.2000;0.5470;0.9970;
490.5000;0.5446;0.9875;
490.8000;0.5486;1.0017;
491.1000;0.5486;1.0088;
491.4000;0.5486;1.0112;
491.7000;0.5478;1.0065;
492.0000;0.5486;1.0136;
492.3000;0.5495;1.0065;
492.6000;0.5421;0.9875;
492.9000;0.5486;0.9994;
493.2000;0.5486;1.0041;
493.5000;0.5470;1.0088;
493.8000;0.5421;0.9852;
494.1000;0.5503;1.0041;
494.4000;0.5503;0.9994;
494.7000;0.5495;0.9946;
495.0000;0.5543;0.9994;
495.3000;0.5486;0.9923;
495.6000;0.5454;0.9828;
495.9000;0.5462;0.9875;
496.2000;0.5486;0.9946;
496.5000;0.5543;1.0159;
496.8000;0.5503;1.0065;
497.1000;0.5535;1.0183;
497.4000;0.5495;1.0136;
497.7000;0.5495;1.0278;
498.0000;0.5495;1.0230;
498.3000;0.5495;1.0183;
498.6000;0.5486;1.0136;
498.9000;0.5478;0.9994;
499.2000;0.5503;1.0041;
499.5000;0.5495;1.0041;
499.8000;0.5495;1.0136;
500.1000;0.5486;1.0017;
500.4000;0.5503;1.0041;
500.7000;0.5503;0.9994;
501.0000;0.5478;0.9994;
501.3000;0.5495;1.0017;
501.6000;0.5495;1.0183;
501.9000;0.5486;1.0136;
502.2000;0.5495;1.0136;
502.5000;0.5495;1.0183;
502.8000;0.5454;1.0065;
503.1000;0.5495;1.0136;
503.4000;0.5486;1.0159;
503.7000;0.5495;1.0136;
504.0000;0.5454;0.9970;
504.3000;0.5470;1.0017;
504.6000;0.5478;1.0041;
504.9000;0.5503;1.0065;
505.2000;0.5470;0.9994;
505.5000;0.5478;1.0017;
505.8000;0.5429;0.9946;
506.1000;0.5462;0.9994;
506.4000;0.5535;1.0136;
506.7000;0.5454;0.9946;
507.0000;0.5462;0.9875;
507.3000;0.5438;0.9828;
507.6000;0.5438;0.9875;
507.9000;0.5364;0.9662;
508.2000;0.5503;1.0017;
508.5000;0.5470;1.0088;
508.8000;0.5511;1.0183;
509.1000;0.5495;1.0136;
509.4000;0.5438;1.0041;
509.7000;0.5462;1.0088;
510.0000;0.5503;1.0183;
510.3000;0.5470;1.0159;
510.6000;0.5470;1.0088;
510.9000;0.5511;1.0136;
511.2000;0.5495;1.0065;
511.5000;0.5486;0.9970;
511.8000;0.5470;0.9875;
512.1000;0.5495;0.9970;
512.4000;0.5478;0.9946;
512.7000;0.5495;0.9994;
513.0000;0.5454;0.9923;
513.3000;0.5495;1.0041;
513.6000;0.5503;1.0136;
513.9000;0.5486;0.9970;
514.2000;0.5486;0.9970;
514.5000;0.5478;0.9994;
514.8000;0.5495;1.0041;
515.1000;0.5495;0.9970;
515.4000;0.5478;0.9899;
515.7000;0.5486;0.9852;
516.0000;0.5462;0.9875;
516.3000;0.5495;0.9946;
516.6000;0.5478;0.9946;
516.9000;0.5438;0.9923;
517.2000;0.5446;0.9970;
517.5000;0.5503;1.0065;
517.8000;0.5478;1.0017;
518.1000;0.5486;1.0159;
518.4000;0.5495;1.0159;
518.7000;0.5503;1.0159;
519.0000;0.5486;1.0088;
519.3000;0.5511;1.0112;
519.6000;0.5478;1.0041;
519.9000;0.5495;1.0065;
520.2000;0.5495;1.0159;
520.5000;0.5486;1.0088;
520.8000;0.5478;1.0136;
521.1000;0.5462;1.0041;
521.4000;0.5478;1.0041;
521.7000;0.5470;1.0088;
522.0000;0.5503;1.0136;
522.3000;0.5478;1.0088;
522.6000;0.5503;1.0183;
522.9000;0.5462;1.0065;
523.2000;0.5486;1.0207;
523.5000;0.5503;1.0301;
523.8000;0.5454;1.0207;
524.1000;0.5486;1.0183;
524.4000;0.5519;1.0278;
524.7000;0.5495;1.0207;
525.0000;0.5511;1.0254;
525.3000;0.5503;1.0207;
525.6000;0.5503;1.0136;
525.9000;0.5503;1.0136;
526.2000;0.5478;1.0159;
526.5000;0.5503;1.0136;
526.8000;0.5478;1.0017;
527.1000;0.5503;1.0065;
527.4000;0.5486;1.0017;
527.7000;0.5478;1.0017;
528.0000;0.5478;1.0017;
528.3000;0.5503;1.0065;
528.6000;0.5486;1.0041;
528.9000;0.5576;1.0301;
529.2000;0.5454;0.9994;
529.5000;0.5446;0.9923;
529.8000;0.5511;1.0088;
530.1000;0.5519;1.0088;
530.4000;0.5511;0.9970;
530.7000;0.5486;1.0017;
531.0000;0.5486;1.0088;
531.3000;0.5495;1.0088;
531.6000;0.5486;0.9994;
531.9000;0.5503;0.9946;
532.2000;0.5486;1.0041;
532.5000;0.5511;1.0136;
532.8000;0.5429;0.9946;
533.1000;0.5486;1.0159;
533.4000;0.5503;1.0254;
533.7000;0.5478;1.0230;
534.0000;0.5495;1.0230;
534.3000;0.5511;1.0183;
534.6000;0.5495;1.0136;
534.9000;0.5511;1.0207;
535.2000;0.5486;1.0230;
535.5000;0.5503;1.0136;
535.8000;0.5503;1.0136;
536.1000;0.5503;1.0112;
536.4000;0.5519;1.0112;
536.7000;0.5495;1.0112;
537.0000;0.5486;1.0207;
537.3000;0.5478;1.0183;
537.6000;0.5495;1.0207;
537.9000;0.5495;1.0325;
538.2000;0.5486;1.0278;
538.5000;0.5519;1.0444;
538.8000;0.5486;1.0254;
539.1000;0.5503;1.0254;
539.4000;0.5478;1.0159;
539.7000;0.5495;1.0088;
540.0000;0.5495;1.0088;
540.3000;0.5478;1.0065;
540.6000;0.5511;1.0112;
540.9000;0.5519;1.0088;
541.2000;0.5503;1.0136;
541.5000;0.5503;1.0183;
541.8000;0.5438;0.9994;
542.1000;0.5551;1.0325;
542.4000;0.5486;1.0065;
542.7000;0.5551;1.0183;
543.0000;0.5495;1.0065;
543.3000;0.5478;1.0065;
543.6000;0.5470;1.0041;
543.9000;0.5486;1.0041;
544.2000;0.5397;0.9875;
544.5000;0.5495;1.0017;
544.8000;0.5470;0.9994;
545.1000;0.5486;0.9994;
545.4000;0.5478;0.9970;
545.7000;0.5511;1.0041;
546.0000;0.5495;1.0041;
546.3000;0.5535;1.0088;
546.6000;0.5478;0.9946;
546.9000;0.5503;0.9970;
547.2000;0.5535;1.0088;
547.5000;0.5519;1.0136;
547.8000;0.5486;1.0041;
548.1000;0.5462;0.9970;
548.4000;0.5576;1.0254;
548.7000;0.5470;1.0017;
549.0000;0.5486;1.0017;
549.3000;0.5470;0.9970;
549.6000;0.5511;1.0088;
549.9000;0.5495;1.0136;
550.2000;0.5478;1.0041;
550.5000;0.5519;1.0207;
550.8000;0.5495;1.0183;
551.1000;0.5495;1.0207;
551.4000;0.5478;1.0159;
551.7000;0.5486;1.0136;
552.0000;0.5495;1.0136;
552.3000;0.5478;1.0041;
552.6000;0.5486;1.0088;
552.9000;0.5486;1.0112;
553.2000;0.5478;1.0088;
553.5000;0.5503;1.0230;
553.8000;0.5470;1.0183;
554.1000;0.5470;1.0112;
554.4000;0.5446;0.9946;
554.7000;0.5486;1.0041;
555.0000;0.5470;1.0065;
555.3000;0.5470;1.0088;
555.6000;0.5495;1.0088;
555.9000;0.5495;1.0041;
556.2000;0.5470;1.0017;
556.5000;0.5486;1.0041;
556.8000;0.5511;1.0136;
557.1000;0.5495;1.0136;
557.4000;0.5486;1.0159;
557.7000;0.5486;1.0159;
558.0000;0.5470;1.0065;
558.3000;0.5503;1.0088;
558.6000;0.5486;1.0041;
558.9000;0.5486;1.0017;
559.2000;0.5495;1.0088;
559.5000;0.5503;1.0207;
559.8000;0.5495;1.0183;
560.1000;0.5438;1.0041;
560.4000;0.5495;1.0065;
560.7000;0.5503;1.0041;
561.0000;0.5495;1.0041;
561.3000;0.5495;1.0041;
561.6000;0.5478;0.9994;
561.9000;0.5486;1.0017;
562.2000;0.5519;1.0088;
562.5000;0.5527;1.0136;
562.8000;0.5495;1.0017;
563.1000;0.5446;0.9970;
563.4000;0.5495;1.0017;
563.7000;0.5486;1.0041;
564.0000;0.5503;1.0088;
564.3000;0.5486;0.9946;
564.6000;0.5486;0.9994;
564.9000;0.5495;1.0088;
565.2000;0.5511;1.0159;
565.5000;0.5421;0.9852;
565.8000;0.5503;1.0088;
566.1000;0.5486;1.0088;
566.4000;0.5495;1.0088;
566.7000;0.5495;1.0159;
567.0000;0.5495;0.9994;
567.3000;0.5478;0.9923;
567.6000;0.5486;0.9946;
567.9000;0.5470;0.9946;
568.2000;0.5486;1.0017;
568.5000;0.5470;1.0041;
568.8000;0.5486;1.0065;
569.1000;0.5478;1.0065;
569.4000;0.5486;1.0088;
569.7000;0.5495;1.0088;
570.0000;0.5470;1.0017;
570.3000;0.5535;1.0065;
570.6000;0.5511;1.0041;
570.9000;0.5478;0.9994;
571.2000;0.5527;1.0065;
571.5000;0.5503;1.0017;
571.8000;0.5503;1.0065;
572.1000;0.5478;1.0065;
572.4000;0.5543;1.0207;
572.7000;0.5478;1.0112;
573.0000;0.5486;1.0159;
573.3000;0.5486;1.0159;
573.6000;0.5503;1.0183;
573.9000;0.5495;1.0159;
574.2000;0.5495;1.0159;
574.5000;0.5486;1.0183;
574.8000;0.5462;1.0159;
575.1000;0.5486;1.0207;
575.4000;0.5503;1.0136;
575.7000;0.5503;1.0065;
576.0000;0.5486;1.0017;
576.3000;0.5503;1.0088;
576.6000;0.5503;1.0136;
576.9000;0.5486;1.0088;
577.2000;0.5486;1.0065;
577.5000;0.5454;1.0017;
577.8000;0.5478;0.9994;
578.1000;0.5495;0.9970;
578.4000;0.5495;0.9946;
578.7000;0.5478;0.9946;
579.0000;0.5470;1.0017;
579.3000;0.5478;1.0017;
579.6000;0.5454;1.0065;
579.9000;0.5486;1.0065;
580.2000;0.5486;1.0159;
580.5000;0.5478;1.0159;
580.8000;0.5495;1.0183;
581.1000;0.5478;1.0088;
581.4000;0.5478;1.0065;
581.7000;0.5486;1.0159;
582.0000;0.5478;1.0112;
582.3000;0.5486;1.0088;
582.6000;0.5495;1.0017;
582.9000;0.5486;1.0065;
583.2000;0.5511;1.0112;
583.5000;0.5454;1.0017;
583.8000;0.5495;1.0088;
584.1000;0.5478;1.0088;
584.4000;0.5397;0.9875;
584.7000;0.5478;1.0017;
585.0000;0.5584;1.0301;
585.3000;0.5495;0.9994;
585.6000;0.5495;0.9899;
585.9000;0.5486;0.9946;
586.2000;0.5535;1.0041;
586.5000;0.5495;0.9923;
586.8000;0.5495;0.9923;
587.1000;0.5486;0.9899;
587.4000;0.5470;0.9994;
587.7000;0.5478;1.0065;
588.0000;0.5438;1.0112;
588.3000;0.5486;1.0183;
588.6000;0.5470;1.0088;
588.9000;0.5470;1.0017;
589.2000;0.5503;1.0065;
589.5000;0.5486;1.0112;
589.8000;0.5592;1.0372;
590.1000;0.5486;1.0136;
590.4000;0.5511;1.0230;
590.7000;0.5462;1.0088;
591.0000;0.5462;1.0112;
591.3000;0.5495;1.0017;
591.6000;0.5576;1.0325;
591.9000;0.5519;1.0207;
592.2000;0.5478;1.0088;
592.5000;0.5486;1.0112;
592.8000;0.5535;1.0230;
593.1000;0.5478;1.0065;
593.4000;0.5478;1.0041;
593.7000;0.5462;0.9970;
594.0000;0.5503;1.0041;
594.3000;0.5568;1.0301;
594.6000;0.5503;1.0207;
594.9000;0.5495;1.0183;
595.2000;0.5495;1.0230;
595.5000;0.5478;1.0112;
595.8000;0.5503;1.0159;
596.1000;0.5495;1.0183;
596.4000;0.5511;1.0159;
596.7000;0.5470;1.0065;
597.0000;0.5486;1.0088;
597.3000;0.5470;0.9994;
597.6000;0.5495;1.0065;
597.9000;0.5478;0.9994;
598.2000;0.5470;0.9875;
598.5000;0.5478;0.9946;
598.8000;0.5438;0.9994;
599.1000;0.5470;0.9970;
599.4000;0.5454;0.9970;
599.7000;0.5462;0.9994;
600.0000;0.5486;1.0017;
600.3000;0.5503;1.0017;
600.6000;0.5511;0.9923;
600.9000;0.5470;0.9780;
601.2000;0.5551;0.9994;
601.5000;0.5454;0.9615;
601.8000;0.5446;0.9591;
602.1000;0.5397;0.9615;
602.4000;0.5283;0.9331;
602.7000;0.5283;0.9402;
603.0000;0.5340;0.9591;
603.3000;0.5291;0.9473;
603.6000;0.5226;0.9259;
603.9000;0.5283;0.9425;
604.2000;0.5193;0.9283;
604.5000;0.5169;0.9236;
604.8000;0.5088;0.9070;
605.1000;0.5169;0.9165;
605.4000;0.5120;0.8999;
605.7000;0.5088;0.8904;
606.0000;0.5104;0.8881;
606.3000;0.5088;0.8857;
606.6000;0.5022;0.8715;
606.9000;0.5022;0.8667;
607.2000;0.5014;0.8620;
607.5000;0.4998;0.8573;
607.8000;0.4990;0.8573;
608.1000;0.4982;0.8549;
608.4000;0.5031;0.8620;
608.7000;0.4925;0.8360;
609.0000;0.4925;0.8312;
609.3000;0.4941;0.8265;
609.6000;0.4917;0.8099;
609.9000;0.4908;0.8146;
610.2000;0.4908;0.8360;
610.5000;0.4851;0.8194;
610.8000;0.4949;0.8454;
611.1000;0.4876;0.8289;
611.4000;0.4851;0.8241;
611.7000;0.4933;0.8478;
612.0000;0.4843;0.8336;
612.3000;0.4811;0.8312;
612.6000;0.4827;0.8454;
612.9000;0.4713;0.8312;
613.2000;0.4803;0.8525;
613.5000;0.4770;0.8407;
613.8000;0.4827;0.8407;
614.1000;0.4786;0.8146;
614.4000;0.4754;0.7957;
614.7000;0.4762;0.7886;
615.0000;0.4721;0.7815;
615.3000;0.4746;0.7957;
615.6000;0.4713;0.8004;
615.9000;0.4713;0.8170;
616.2000;0.4681;0.8099;
616.5000;0.4681;0.8123;
616.8000;0.4689;0.8028;
617.1000;0.4778;0.8312;
617.4000;0.4697;0.8123;
617.7000;0.4664;0.8052;
618.0000;0.4762;0.8194;
618.3000;0.4624;0.7910;
618.6000;0.4615;0.7862;
618.9000;0.4656;0.7981;
619.2000;0.4632;0.7981;
619.5000;0.4599;0.7886;
619.8000;0.4640;0.8004;
620.1000;0.4672;0.8217;
620.4000;0.4624;0.8123;
620.7000;0.4599;0.8241;
621.0000;0.4575;0.8146;
621.3000;0.4567;0.8170;
621.6000;0.4591;0.8265;
621.9000;0.4583;0.8289;
622.2000;0.4575;0.8312;
622.5000;0.4567;0.8431;
622.8000;0.4575;0.8312;
623.1000;0.4542;0.8241;
623.4000;0.4477;0.8075;
623.7000;0.4501;0.8052;
624.0000;0.4558;0.8194;
624.3000;0.4534;0.8146;
624.6000;0.4510;0.8075;
624.9000;0.4534;0.8099;
625.2000;0.4526;0.8075;
625.5000;0.4461;0.8004;
625.8000;0.4501;0.8146;
626.1000;0.4510;0.8194;
626.4000;0.4469;0.8265;
626.7000;0.4477;0.8312;
627.0000;0.4485;0.8383;
627.3000;0.4420;0.8241;
627.6000;0.4518;0.8549;
627.9000;0.4453;0.8383;
628.2000;0.4436;0.8289;
628.5000;0.4444;0.8383;
628.8000;0.4396;0.8194;
629.1000;0.4412;0.8123;
629.4000;0.4404;0.8052;
629.7000;0.4428;0.8123;
630.0000;0.4428;0.8123;
630.3000;0.4404;0.8123;
630.6000;0.4387;0.8146;
630.9000;0.4363;0.8170;
631.2000;0.4404;0.8312;
631.5000;0.4363;0.8170;
631.8000;0.4371;0.8265;
632.1000;0.4363;0.8289;
632.4000;0.4363;0.8360;
632.7000;0.4387;0.8360;
633.0000;0.4477;0.8549;
633.3000;0.4363;0.8312;
633.6000;0.4355;0.8312;
633.9000;0.4371;0.8407;
634.2000;0.4330;0.8336;
634.5000;0.4330;0.8289;
634.8000;0.4298;0.8289;
635.1000;0.4339;0.8454;
635.4000;0.4339;0.8478;
635.7000;0.4314;0.8431;
636.0000;0.4322;0.8431;
636.3000;0.4314;0.8454;
636.6000;0.4322;0.8502;
636.9000;0.4290;0.8431;
637.2000;0.4298;0.8336;
637.5000;0.4306;0.8312;
637.8000;0.4306;0.8336;
638.1000;0.4322;0.8431;
638.4000;0.4274;0.8383;
638.7000;0.4306;0.8549;
639.0000;0.4249;0.8360;
639.3000;0.4208;0.8217;
639.6000;0.4265;0.8336;
639.9000;0.4241;0.8265;
640.2000;0.4241;0.8289;
640.5000;0.4233;0.8146;
640.8000;0.4257;0.8217;
641.1000;0.4274;0.8265;
641.4000;0.4233;0.8170;
641.7000;0.4233;0.8241;
642.0000;0.4225;0.8265;
642.3000;0.4103;0.7910;
642.6000;0.4208;0.8052;
642.9000;0.4225;0.8099;
643.2000;0.4225;0.8123;
643.5000;0.4160;0.7981;
643.8000;0.4208;0.8099;
644.1000;0.4208;0.8123;
644.4000;0.4184;0.8052;
644.7000;0.4217;0.8099;
645.0000;0.4184;0.8052;
645.3000;0.4192;0.8052;
645.6000;0.4184;0.8028;
645.9000;0.4184;0.8052;
646.2000;0.4176;0.7981;
646.5000;0.4184;0.7981;
646.8000;0.4184;0.8099;
647.1000;0.4168;0.8075;
647.4000;0.4151;0.8170;
647.7000;0.4168;0.8241;
648.0000;0.4192;0.8194;
648.3000;0.4135;0.8170;
648.6000;0.4135;0.8241;
648.9000;0.4143;0.8217;
649.2000;0.4151;0.8265;
649.5000;0.4094;0.8099;
649.8000;0.4119;0.8217;
650.1000;0.4103;0.8146;
650.4000;0.4151;0.8241;
650.7000;0.4127;0.8170;
651.0000;0.4111;0.8170;
651.3000;0.4127;0.8312;
651.6000;0.4111;0.8241;
651.9000;0.4119;0.8241;
652.2000;0.4103;0.8241;
652.5000;0.4070;0.8289;
652.8000;0.4111;0.8265;
653.1000;0.4208;0.8478;
653.4000;0.4103;0.8194;
653.7000;0.4119;0.8170;
654.0000;0.4111;0.8123;
654.3000;0.4103;0.8099;
654.6000;0.4119;0.8099;
654.9000;0.4160;0.8194;
655.2000;0.4070;0.8028;
655.5000;0.4078;0.8075;
655.8000;0.4070;0.8099;
656.1000;0.4046;0.8075;
656.4000;0.4078;0.8241;
656.7000;0.4078;0.8170;
657.0000;0.4070;0.8123;
657.3000;0.4062;0.8194;
657.6000;0.4078;0.8289;
657.9000;0.4070;0.8241;
658.2000;0.4062;0.8289;
658.5000;0.4046;0.8217;
658.8000;0.4103;0.8407;
659.1000;0.3997;0.8194;
659.4000;0.4054;0.8431;
659.7000;0.4037;0.8241;
660.0000;0.4046;0.8217;
660.3000;0.4013;0.8099;
660.6000;0.4054;0.8170;
660.9000;0.4021;0.8028;
661.2000;0.4013;0.7910;
661.5000;0.4054;0.7910;
661.8000;0.4070;0.7886;
662.1000;0.4029;0.7815;
662.4000;0.4013;0.7886;
662.7000;0.3956;0.7791;
663.0000;0.3997;0.7862;
663.3000;0.4021;0.7981;
663.6000;0.4005;0.8004;
663.9000;0.4013;0.8028;
664.2000;0.4037;0.8170;
664.5000;0.4029;0.8099;
664.8000;0.4062;0.8241;
665.1000;0.3997;0.8075;
665.4000;0.3980;0.8075;
665.7000;0.3972;0.8028;
666.0000;0.3989;0.8194;
666.3000;0.3940;0.8075;
666.6000;0.3956;0.8123;
666.9000;0.3997;0.8099;
667.2000;0.3972;0.8028;
667.5000;0.3989;0.7981;
667.8000;0.3964;0.7886;
668.1000;0.3989;0.8028;
668.4000;0.3980;0.8004;
668.7000;0.3997;0.8099;
669.0000;0.3948;0.7886;
669.3000;0.3980;0.7957;
669.6000;0.3989;0.8028;
669.9000;0.3964;0.7933;
670.2000;0.3964;0.8004;
670.5000;0.3948;0.7957;
670.8000;0.3980;0.8075;
671.1000;0.3956;0.8099;
671.4000;0.3948;0.8028;
671.7000;0.3948;0.8170;
672.0000;0.3956;0.8146;
672.3000;0.3948;0.8146;
672.6000;0.3940;0.8099;
672.9000;0.3932;0.8028;
673.2000;0.3932;0.8028;
673.5000;0.4029;0.8194;
673.8000;0.3972;0.8099;
674.1000;0.3948;0.8099;
674.4000;0.3948;0.8123;
674.7000;0.3948;0.8123;
675.0000;0.3940;0.8052;
675.3000;0.3940;0.7933;
675.6000;0.3948;0.7981;
675.9000;0.3940;0.8004;
676.2000;0.3907;0.8004;
676.5000;0.3940;0.8123;
676.8000;0.3923;0.8075;
677.1000;0.3891;0.7957;
677.4000;0.3915;0.8052;
677.7000;0.3915;0.8075;
678.0000;0.3956;0.8099;
678.3000;0.3923;0.8052;
678.6000;0.3883;0.7957;
678.9000;0.4021;0.8289;
679.2000;0.3883;0.7933;
679.5000;0.3850;0.7862;
679.8000;0.3883;0.8075;
680.1000;0.3923;0.8170;
680.4000;0.3891;0.8146;
680.7000;0.3883;0.8123;
681.0000;0.3899;0.8217;
681.3000;0.3883;0.8123;
681.6000;0.3899;0.8123;
681.9000;0.3883;0.8028;
682.2000;0.3883;0.8099;
682.5000;0.3883;0.8075;
682.8000;0.3875;0.8028;
683.1000;0.3842;0.7910;
683.4000;0.3883;0.8028;
683.7000;0.3899;0.8075;
684.0000;0.3907;0.8075;
684.3000;0.3891;0.8052;
684.6000;0.3907;0.8170;
684.9000;0.3891;0.8194;
685.2000;0.3883;0.8123;
685.5000;0.3875;0.8123;
685.8000;0.3875;0.8123;
686.1000;0.3875;0.8123;
686.4000;0.3850;0.8052;
686.7000;0.3956;0.8431;
687.0000;0.3858;0.8146;
687.3000;0.3915;0.8336;
687.6000;0.3867;0.8170;
687.9000;0.3867;0.8146;
688.2000;0.3858;0.8217;
688.5000;0.3826;0.8028;
688.8000;0.3875;0.8170;
689.1000;0.3834;0.8052;
689.4000;0.3818;0.8028;
689.7000;0.3826;0.7981;
690.0000;0.3842;0.7910;
690.3000;0.3785;0.7791;
690.6000;0.3858;0.8028;
690.9000;0.3891;0.8194;
691.2000;0.3842;0.8028;
691.5000;0.3842;0.8004;
691.8000;0.3834;0.7910;
692.1000;0.3842;0.7981;
692.4000;0.3842;0.7981;
692.7000;0.3834;0.8028;
693.0000;0.3842;0.8123;
693.3000;0.3826;0.8052;
693.6000;0.3834;0.8146;
693.9000;0.3826;0.8099;
694.2000;0.3842;0.8217;
694.5000;0.3875;0.8241;
694.8000;0.3818;0.8028;
695.1000;0.3850;0.7981;
695.4000;0.3834;0.7933;
695.7000;0.3834;0.7981;
696.0000;0.3801;0.7839;
696.3000;0.3834;0.7910;
696.6000;0.3834;0.7886;
696.9000;0.3842;0.7957;
697.2000;0.3858;0.8004;
697.5000;0.3818;0.7886;
697.8000;0.3818;0.7886;
698.1000;0.3867;0.7957;
698.4000;0.3753;0.7649;
698.7000;0.3818;0.7839;
699.0000;0.3834;0.7791;
699.3000;0.3826;0.7862;
699.6000;0.3818;0.7862;
699.9000;0.3744;0.7791;
700.2000;0.3810;0.8028;
700.5000;0.3801;0.8028;
700.8000;0.3793;0.8075;
701.1000;0.3769;0.8004;
701.4000;0.3801;0.8004;
701.7000;0.3785;0.7981;
702.0000;0.3769;0.7981;
702.3000;0.3769;0.7933;
702.6000;0.3826;0.8123;
702.9000;0.3712;0.7791;
703.2000;0.3785;0.7910;
703.5000;0.3793;0.7886;
703.8000;0.3818;0.7862;
704.1000;0.3810;0.7933;
704.4000;0.3801;0.7957;
704.7000;0.3801;0.7957;
705.0000;0.3793;0.8028;
705.3000;0.3818;0.8099;
705.6000;0.3785;0.8099;
705.9000;0.3777;0.8052;
706.2000;0.3720;0.7839;
706.5000;0.3826;0.8004;
706.8000;0.3777;0.7933;
707.1000;0.3761;0.8028;
707.4000;0.3818;0.8146;
707.7000;0.3777;0.8028;
708.0000;0.3769;0.8004;
708.3000;0.3785;0.8075;
708.6000;0.3810;0.8075;
708.9000;0.3785;0.7981;
709.2000;0.3810;0.8004;
709.5000;0.3761;0.7886;
709.8000;0.3753;0.7839;
710.1000;0.3769;0.7839;
710.4000;0.3777;0.7862;
710.7000;0.3769;0.7791;
711.0000;0.3793;0.7839;
711.3000;0.3712;0.7744;
711.6000;0.3753;0.7862;
711.9000;0.3769;0.7862;
712.2000;0.3777;0.7910;
712.5000;0.3753;0.7933;
712.8000;0.3777;0.8052;
713.1000;0.3769;0.8075;
713.4000;0.3769;0.8099;
713.7000;0.3785;0.8146;
714.0000;0.3785;0.8146;
714.3000;0.3769;0.8194;
714.6000;0.3801;0.8312;
714.9000;0.3761;0.8289;
715.2000;0.3753;0.8312;
715.5000;0.3753;0.8194;
715.8000;0.3753;0.8217;
716.1000;0.3736;0.8241;
716.4000;0.3842;0.8360;
716.7000;0.3761;0.8099;
717.0000;0.3785;0.7957;
717.3000;0.3728;0.7791;
717.6000;0.3696;0.7720;
717.9000;0.3761;0.7957;
718.2000;0.3736;0.7886;
718.5000;0.3826;0.8194;
718.8000;0.3736;0.8075;
719.1000;0.3736;0.8004;
719.4000;0.3704;0.7910;
719.7000;0.3769;0.8146;
720.0000;0.3712;0.8123;
720.3000;0.3753;0.8170;
720.6000;0.3761;0.8170;
720.9000;0.3736;0.8099;
721.2000;0.3728;0.8004;
721.5000;0.3712;0.8099;
721.8000;0.3769;0.8336;
722.1000;0.3753;0.8265;
722.4000;0.3744;0.8194;
722.7000;0.3736;0.8170;
723.0000;0.3761;0.8217;
723.3000;0.3753;0.8170;
723.6000;0.3761;0.8146;
723.9000;0.3712;0.8052;
724.2000;0.3736;0.8028;
724.5000;0.3744;0.8052;
724.8000;0.3720;0.7981;
725.1000;0.3639;0.7744;
725.4000;0.3753;0.8194;
725.7000;0.3720;0.8217;
726.0000;0.3736;0.8170;
726.3000;0.3761;0.8170;
726.6000;0.3720;0.8075;
726.9000;0.3753;0.8170;
727.2000;0.3761;0.8241;
727.5000;0.3728;0.8194;
727.8000;0.3704;0.8194;
728.1000;0.3720;0.8312;
728.4000;0.3720;0.8336;
728.7000;0.3720;0.8312;
729.0000;0.3793;0.8478;
729.3000;0.3712;0.8217;
729.6000;0.3687;0.8194;
729.9000;0.3728;0.8312;
730.2000;0.3704;0.8265;
730.5000;0.3712;0.8454;
730.8000;0.3720;0.8502;
731.1000;0.3826;0.8762;
731.4000;0.3687;0.8336;
731.7000;0.3712;0.8360;
732.0000;0.3687;0.8265;
732.3000;0.3818;0.8573;
732.6000;0.3687;0.8289;
732.9000;0.3704;0.8336;
733.2000;0.3712;0.8383;
733.5000;0.3712;0.8336;
733.8000;0.3712;0.8241;
734.1000;0.3696;0.8241;
734.4000;0.3696;0.8194;
734.7000;0.3712;0.8194;
735.0000;0.3720;0.8123;
735.3000;0.3696;0.7957;
735.6000;0.3720;0.7981;
735.9000;0.3696;0.8028;
736.2000;0.3744;0.8146;
736.5000;0.3720;0.8123;
736.8000;0.3728;0.8123;
737.1000;0.3614;0.7839;
737.4000;0.3622;0.7957;
737.7000;0.3704;0.8170;
738.0000;0.3679;0.8194;
738.3000;0.3720;0.8289;
738.6000;0.3720;0.8241;
738.9000;0.3728;0.8217;
739.2000;0.3696;0.8170;
739.5000;0.3696;0.8146;
739.8000;0.3720;0.8146;
740.1000;0.3712;0.8170;
740.4000;0.3728;0.8170;
740.7000;0.3712;0.8123;
741.0000;0.3704;0.8241;
741.3000;0.3704;0.8336;
741.6000;0.3712;0.8336;
741.9000;0.3712;0.8383;
742.2000;0.3712;0.8312;
742.5000;0.3655;0.8099;
742.8000;0.3671;0.8123;
743.1000;0.3696;0.8099;
743.4000;0.3687;0.8170;
743.7000;0.3696;0.8146;
744.0000;0.3687;0.8194;
744.3000;0.3687;0.8217;
744.6000;0.3663;0.8217;
744.9000;0.3696;0.8383;
745.2000;0.3687;0.8454;
745.5000;0.3687;0.8454;
745.8000;0.3712;0.8454;
746.1000;0.3679;0.8431;
746.4000;0.3687;0.8478;
746.7000;0.3704;0.8502;
747.0000;0.3655;0.8360;
747.3000;0.3687;0.8383;
747.6000;0.3712;0.8289;
747.9000;0.3687;0.8265;
748.2000;0.3704;0.8312;
748.5000;0.3630;0.8004;
748.8000;0.3696;0.8194;
749.1000;0.3663;0.8217;
749.4000;0.3736;0.8407;
749.7000;0.3712;0.8431;
750.0000;0.3696;0.8454;
750.3000;0.3679;0.8431;
750.6000;0.3679;0.8383;
750.9000;0.3687;0.8289;
751.2000;0.3687;0.8312;
751.5000;0.3696;0.8383;
751.8000;0.3679;0.8431;
752.1000;0.3696;0.8478;
752.4000;0.3663;0.8407;
752.7000;0.3679;0.8454;
753.0000;0.3671;0.8383;
753.3000;0.3663;0.8360;
753.6000;0.3785;0.8596;
753.9000;0.3687;0.8431;
754.2000;0.3696;0.8454;
754.5000;0.3655;0.8336;
754.8000;0.3696;0.8525;
755.1000;0.3696;0.8502;
755.4000;0.3679;0.8431;
755.7000;0.3663;0.8336;
756.0000;0.3598;0.8123;
756.3000;0.3671;0.8312;
756.6000;0.3679;0.8336;
756.9000;0.3663;0.8289;
757.2000;0.3622;0.8194;
757.5000;0.3655;0.8360;
757.8000;0.3647;0.8241;
758.1000;0.3720;0.8360;
758.4000;0.3622;0.8170;
758.7000;0.3671;0.8265;
759.0000;0.3663;0.8360;
759.3000;0.3647;0.8360;
759.6000;0.3671;0.8502;
759.9000;0.3655;0.8502;
760.2000;0.3663;0.8502;
760.5000;0.3663;0.8502;
760.8000;0.3639;0.8407;
761.1000;0.3712;0.8478;
761.4000;0.3655;0.8383;
761.7000;0.3663;0.8336;
762.0000;0.3647;0.8336;
762.3000;0.3655;0.8194;
762.6000;0.3655;0.8217;
762.9000;0.3663;0.8217;
763.2000;0.3696;0.8265;
763.5000;0.3663;0.8241;
763.8000;0.3655;0.8241;
764.1000;0.3647;0.8146;
764.4000;0.3704;0.8360;
764.7000;0.3663;0.8383;
765.0000;0.3647;0.8312;
765.3000;0.3663;0.8312;
765.6000;0.3582;0.8099;
765.9000;0.3647;0.8360;
766.2000;0.3671;0.8407;
766.5000;0.3655;0.8336;
766.8000;0.3655;0.8360;
767.1000;0.3647;0.8336;
767.4000;0.3655;0.8312;
767.7000;0.3655;0.8217;
768.0000;0.3671;0.8312;
768.3000;0.3655;0.8407;
768.6000;0.3614;0.8289;
768.9000;0.3663;0.8431;
769.2000;0.3671;0.8502;
769.5000;0.3647;0.8312;
769.8000;0.3663;0.8312;
770.1000;0.3622;0.8336;
770.4000;0.3647;0.8407;
770.7000;0.3639;0.8407;
771.0000;0.3671;0.8407;
771.3000;0.3647;0.8431;
771.6000;0.3647;0.8407;
771.9000;0.3720;0.8573;
772.2000;0.3671;0.8454;
772.5000;0.3663;0.8478;
772.8000;0.3671;0.8573;
773.1000;0.3614;0.8407;
773.4000;0.3639;0.8383;
773.7000;0.3630;0.8431;
774.0000;0.3639;0.8336;
774.3000;0.3639;0.8241;
774.6000;0.3647;0.8146;
774.9000;0.3679;0.8336;
775.2000;0.3704;0.8383;
775.5000;0.3647;0.8265;
775.8000;0.3647;0.8312;
776.1000;0.3639;0.8289;
776.4000;0.3630;0.8241;
776.7000;0.3663;0.8289;
777.0000;0.3647;0.8146;
777.3000;0.3655;0.8170;
777.6000;0.3639;0.8123;
777.9000;0.3639;0.8146;
778.2000;0.3655;0.8170;
778.5000;0.3639;0.8241;
778.8000;0.3614;0.8217;
779.1000;0.3687;0.8336;
779.4000;0.3630;0.8265;
779.7000;0.3622;0.8170;
780.0000;0.3622;0.8194;
780.3000;0.3630;0.8241;
780.6000;0.3590;0.8170;
780.9000;0.3639;0.8312;
781.2000;0.3622;0.8289;
781.5000;0.3630;0.8289;
781.8000;0.3622;0.8336;
782.1000;0.3679;0.8431;
782.4000;0.3647;0.8360;
782.7000;0.3639;0.8312;
783.0000;0.3647;0.8312;
783.3000;0.3761;0.8620;
783.6000;0.3630;0.8431;
783.9000;0.3647;0.8431;
784.2000;0.3630;0.8407;
784.5000;0.3647;0.8431;
784.8000;0.3614;0.8407;
785.1000;0.3622;0.8383;
785.4000;0.3639;0.8454;
785.7000;0.3655;0.8407;
786.0000;0.3647;0.8336;
786.3000;0.3614;0.8312;
786.6000;0.3622;0.8360;
786.9000;0.3639;0.8431;
787.2000;0.3606;0.8312;
787.5000;0.3598;0.8312;
787.8000;0.3622;0.8289;
788.1000;0.3639;0.8383;
788.4000;0.3639;0.8383;
788.7000;0.3598;0.8336;
789.0000;0.3622;0.8407;
789.3000;0.3622;0.8407;
789.6000;0.3712;0.8715;
789.9000;0.3614;0.8454;
790.2000;0.3639;0.8431;
790.5000;0.3565;0.8289;
790.8000;0.3606;0.8312;
791.1000;0.3614;0.8289;
791.4000;0.3622;0.8336;
791.7000;0.3630;0.8312;
792.0000;0.3630;0.8265;
792.3000;0.3630;0.8312;
792.6000;0.3606;0.8312;
792.9000;0.3663;0.8407;
793.2000;0.3639;0.8383;
793.5000;0.3671;0.8478;
793.8000;0.3516;0.8123;
794.1000;0.3614;0.8360;
794.4000;0.3606;0.8336;
794.7000;0.3647;0.8431;
795.0000;0.3614;0.8360;
795.3000;0.3679;0.8454;
795.6000;0.3606;0.8217;
795.9000;0.3606;0.8194;
796.2000;0.3639;0.8265;
796.5000;0.3606;0.8146;
796.8000;0.3614;0.8099;
797.1000;0.3622;0.8265;
797.4000;0.3598;0.8194;
797.7000;0.3614;0.8289;
798.0000;0.3728;0.8620;
798.3000;0.3590;0.8265;
798.6000;0.3655;0.8383;
798.9000;0.3639;0.8289;
799.2000;0.3582;0.8099;
799.5000;0.3614;0.8241;
799.8000;0.3614;0.8241;
800.1000;0.3639;0.8360;
800.4000;0.3671;0.8454;
800.7000;0.3590;0.8289;
801.0000;0.3606;0.8431;
801.3000;0.3590;0.8360;
801.6000;0.3590;0.8336;
801.9000;0.3606;0.8431;
802.2000;0.3614;0.8525;
802.5000;0.3614;0.8454;
802.8000;0.3606;0.8407;
803.1000;0.3614;0.8454;
803.4000;0.3598;0.8383;
803.7000;0.3630;0.8383;
804.0000;0.3598;0.8312;
804.3000;0.3598;0.8289;
804.6000;0.3622;0.8265;
804.9000;0.3606;0.8241;
805.2000;0.3606;0.8241;
805.5000;0.3679;0.8431;
805.8000;0.3598;0.8217;
806.1000;0.3614;0.8289;
806.4000;0.3614;0.8265;
806.7000;0.3590;0.8146;
807.0000;0.3598;0.8217;
807.3000;0.3622;0.8241;
807.6000;0.3598;0.8312;
807.9000;0.3630;0.8502;
808.2000;0.3606;0.8478;
808.5000;0.3590;0.8478;
808.8000;0.3614;0.8478;
809.1000;0.3606;0.8478;
809.4000;0.3614;0.8431;
809.7000;0.3598;0.8383;
810.0000;0.3606;0.8431;
810.3000;0.3606;0.8407;
810.6000;0.3582;0.8289;
810.9000;0.3590;0.8217;
811.2000;0.3598;0.8217;
811.5000;0.3614;0.8123;
811.8000;0.3582;0.7957;
812.1000;0.3606;0.7981;
812.4000;0.3614;0.7981;
812.7000;0.3606;0.8028;
813.0000;0.3606;0.7981;
813.3000;0.3598;0.8075;
813.6000;0.3630;0.8194;
813.9000;0.3598;0.8170;
814.2000;0.3590;0.8241;
814.5000;0.3590;0.8265;
814.8000;0.3598;0.8265;
815.1000;0.3630;0.8360;
815.4000;0.3573;0.8170;
815.7000;0.3606;0.8312;
816.0000;0.3655;0.8478;
816.3000;0.3598;0.8312;
816.6000;0.3712;0.8549;
816.9000;0.3573;0.8170;
817.2000;0.3549;0.8146;
817.5000;0.3614;0.8265;
817.8000;0.3606;0.8123;
818.1000;0.3606;0.8028;
818.4000;0.3606;0.8099;
818.7000;0.3606;0.8099;
819.0000;0.3582;0.8099;
819.3000;0.3598;0.8146;
819.6000;0.3590;0.8170;
819.9000;0.3590;0.8194;
820.2000;0.3622;0.8312;
820.5000;0.3598;0.8241;
820.8000;0.3590;0.8241;
821.1000;0.3590;0.8312;
821.4000;0.3573;0.8289;
821.7000;0.3606;0.8454;
822.0000;0.3565;0.8336;
822.3000;0.3590;0.8360;
822.6000;0.3549;0.8265;
822.9000;0.3606;0.8454;
823.2000;0.3557;0.8360;
823.5000;0.3590;0.8360;
823.8000;0.3582;0.8360;
824.1000;0.3630;0.8454;
824.4000;0.3598;0.8360;
824.7000;0.3582;0.8360;
825.0000;0.3573;0.8478;
825.3000;0.3614;0.8573;
825.6000;0.3590;0.8502;
825.9000;0.3590;0.8502;
826.2000;0.3590;0.8431;
826.5000;0.3582;0.8336;
826.8000;0.3606;0.8336;
827.1000;0.3590;0.8289;
827.4000;0.3598;0.8265;
827.7000;0.3614;0.8241;
828.0000;0.3606;0.8383;
828.3000;0.3565;0.8241;
828.6000;0.3590;0.8241;
828.9000;0.3590;0.8265;
829.2000;0.3541;0.8075;
829.5000;0.3598;0.8289;
829.8000;0.3573;0.8289;
830.1000;0.3630;0.8454;
830.4000;0.3647;0.8454;
830.7000;0.3582;0.8289;
831.0000;0.3573;0.8241;
831.3000;0.3614;0.8383;
831.6000;0.3557;0.8289;
831.9000;0.3590;0.8383;
832.2000;0.3598;0.8336;
832.5000;0.3630;0.8454;
832.8000;0.3598;0.8454;
833.1000;0.3582;0.8525;
833.4000;0.3598;0.8525;
833.7000;0.3590;0.8431;
834.0000;0.3565;0.8360;
834.3000;0.3565;0.8360;
834.6000;0.3565;0.8360;
834.9000;0.3573;0.8454;
835.2000;0.3590;0.8549;
835.5000;0.3630;0.8715;
835.8000;0.3549;0.8525;
836.1000;0.3582;0.8549;
836.4000;0.3476;0.8289;
836.7000;0.3590;0.8525;
837.0000;0.3614;0.8525;
837.3000;0.3590;0.8407;
837.6000;0.3541;0.8241;
837.9000;0.3582;0.8289;
838.2000;0.3590;0.8383;
838.5000;0.3573;0.8336;
838.8000;0.3582;0.8336;
839.1000;0.3573;0.8360;
839.4000;0.3590;0.8407;
839.7000;0.3582;0.8525;
840.0000;0.3582;0.8573;
840.3000;0.3565;0.8667;
840.6000;0.3565;0.8786;
840.9000;0.3549;0.8715;
841.2000;0.3582;0.8715;
841.5000;0.3565;0.8525;
841.8000;0.3573;0.8549;
842.1000;0.3582;0.8596;
842.4000;0.3598;0.8596;
842.7000;0.3639;0.8691;
843.0000;0.3655;0.8667;
843.3000;0.3614;0.8549;
843.6000;0.3590;0.8454;
843.9000;0.3573;0.8454;
844.2000;0.3590;0.8454;
844.5000;0.3598;0.8407;
844.8000;0.3590;0.8407;
845.1000;0.3582;0.8312;
845.4000;0.3557;0.8217;
845.7000;0.3582;0.8289;
846.0000;0.3573;0.8407;
846.3000;0.3590;0.8454;
846.6000;0.3573;0.8336;
846.9000;0.3573;0.8312;
847.2000;0.3533;0.8241;
847.5000;0.3582;0.8383;
847.8000;0.3557;0.8336;
848.1000;0.3565;0.8289;
848.4000;0.3549;0.8312;
848.7000;0.3492;0.8217;
849.0000;0.3557;0.8241;
849.3000;0.3549;0.8217;
849.6000;0.3565;0.8241;
849.9000;0.3573;0.8265;
850.2000;0.3598;0.8383;
850.5000;0.3590;0.8241;
850.8000;0.3598;0.8265;
851.1000;0.3573;0.8289;
851.4000;0.3541;0.8217;
851.7000;0.3565;0.8241;
852.0000;0.3541;0.8170;
852.3000;0.3582;0.8265;
852.6000;0.3541;0.8289;
852.9000;0.3573;0.8336;
853.2000;0.3582;0.8360;
853.5000;0.3557;0.8289;
853.8000;0.3582;0.8407;
854.1000;0.3639;0.8549;
854.4000;0.3500;0.8194;
854.7000;0.3573;0.8454;
855.0000;0.3582;0.8454;
855.3000;0.3655;0.8644;
855.6000;0.3590;0.8454;
855.9000;0.3582;0.8407;
856.2000;0.3582;0.8360;
856.5000;0.3622;0.8525;
856.8000;0.3565;0.8336;
857.1000;0.3549;0.8336;
857.4000;0.3573;0.8360;
857.7000;0.3573;0.8454;
858.0000;0.3557;0.8454;
858.3000;0.3573;0.8454;
858.6000;0.3598;0.8478;
858.9000;0.3557;0.8360;
859.2000;0.3565;0.8265;
859.5000;0.3565;0.8289;
859.8000;0.3557;0.8194;
860.1000;0.3590;0.8312;
860.4000;0.3565;0.8265;
860.7000;0.3565;0.8360;
861.0000;0.3573;0.8360;
861.3000;0.3549;0.8336;
861.6000;0.3565;0.8383;
861.9000;0.3500;0.8265;
862.2000;0.3582;0.8454;
862.5000;0.3516;0.8241;
862.8000;0.3582;0.8312;
863.1000;0.3565;0.8407;
863.4000;0.3557;0.8312;
863.7000;0.3565;0.8336;
864.0000;0.3573;0.8431;
864.3000;0.3573;0.8478;
864.6000;0.3582;0.8573;
864.9000;0.3590;0.8596;
865.2000;0.3565;0.8667;
865.5000;0.3549;0.8596;
865.8000;0.3573;0.8573;
866.1000;0.3573;0.8573;
866.4000;0.3582;0.8596;
866.7000;0.3582;0.8596;
867.0000;0.3492;0.8360;
867.3000;0.3565;0.8573;
867.6000;0.3516;0.8454;
867.9000;0.3573;0.8549;
868.2000;0.3582;0.8502;
868.5000;0.3582;0.8549;
868.8000;0.3582;0.8431;
869.1000;0.3622;0.8502;
869.4000;0.3508;0.8241;
869.7000;0.3614;0.8478;
870.0000;0.3557;0.8383;
870.3000;0.3598;0.8407;
870.6000;0.3573;0.8360;
870.9000;0.3573;0.8312;
871.2000;0.3590;0.8454;
871.5000;0.3590;0.8525;
871.8000;0.3639;0.8596;
872.1000;0.3557;0.8502;
872.4000;0.3565;0.8454;
872.7000;0.3573;0.8383;
873.0000;0.3557;0.8289;
873.3000;0.3573;0.8241;
873.6000;0.3573;0.8289;
873.9000;0.3582;0.8407;
874.2000;0.3557;0.8525;
874.5000;0.3573;0.8407;
874.8000;0.3541;0.8312;
875.1000;0.3606;0.8478;
875.4000;0.3598;0.8478;
875.7000;0.3565;0.8407;
876.0000;0.3549;0.8360;
876.3000;0.3541;0.8360;
876.6000;0.3598;0.8478;
876.9000;0.3549;0.8336;
877.2000;0.3549;0.8383;
877.5000;0.3557;0.8454;
877.8000;0.3549;0.8596;
878.1000;0.3565;0.8620;
878.4000;0.3549;0.8620;
878.7000;0.3541;0.8478;
879.0000;0.3573;0.8525;
879.3000;0.3655;0.8644;
879.6000;0.3541;0.8407;
879.9000;0.3549;0.8454;
880.2000;0.3582;0.8431;
880.5000;0.3533;0.8407;
880.8000;0.3541;0.8407;
881.1000;0.3582;0.8336;
881.4000;0.3549;0.8360;
881.7000;0.3565;0.8383;
882.0000;0.3533;0.8360;
882.3000;0.3557;0.8383;
882.6000;0.3541;0.8312;
882.9000;0.3573;0.8336;
883.2000;0.3590;0.8360;
883.5000;0.3565;0.8289;
883.8000;0.3549;0.8360;
884.1000;0.3573;0.8431;
884.4000;0.3549;0.8454;
884.7000;0.3549;0.8360;
885.0000;0.3606;0.8502;
885.3000;0.3573;0.8454;
885.6000;0.3573;0.8383;
885.9000;0.3557;0.8383;
886.2000;0.3549;0.8383;
886.5000;0.3565;0.8360;
886.8000;0.3590;0.8454;
887.1000;0.3541;0.8525;
887.4000;0.3533;0.8525;
887.7000;0.3549;0.8454;
888.0000;0.3533;0.8360;
888.3000;0.3549;0.8478;
888.6000;0.3573;0.8431;
888.9000;0.3525;0.8312;
889.2000;0.3525;0.8383;
889.5000;0.3533;0.8431;
889.8000;0.3549;0.8525;
890.1000;0.3516;0.8525;
890.4000;0.3565;0.8667;
890.7000;0.3549;0.8573;
891.0000;0.3598;0.8715;
891.3000;0.3516;0.8478;
891.6000;0.3614;0.8596;
891.9000;0.3533;0.8383;
892.2000;0.3508;0.8360;
892.5000;0.3525;0.8265;
892.8000;0.3541;0.8383;
893.1000;0.3541;0.8383;
893.4000;0.3573;0.8360;
893.7000;0.3508;0.8146;
894.0000;0.3598;0.8407;
894.3000;0.3557;0.8383;
894.6000;0.3639;0.8549;
894.9000;0.3549;0.8454;
895.2000;0.3549;0.8478;
895.5000;0.3549;0.8383;
895.8000;0.3549;0.8431;
896.1000;0.3565;0.8431;
896.4000;0.3549;0.8336;
896.7000;0.3557;0.8407;
897.0000;0.3541;0.8407;
897.3000;0.3508;0.8194;
897.6000;0.3541;0.8170;
897.9000;0.3541;0.8123;
898.2000;0.3541;0.8170;
898.5000;0.3541;0.8194;
898.8000;0.3525;0.8123;
899.1000;0.3541;0.8146;
899.4000;0.3451;0.7886;
899.7000;0.3533;0.8170;
900.0000;0.3549;0.8123;
900.3000;0.3549;0.8170;
900.6000;0.3573;0.8289;
900.9000;0.3565;0.8312;
901.2000;0.3549;0.8194;
901.5000;0.3541;0.8241;
901.8000;0.3573;0.8312;
902.1000;0.3549;0.8265;
902.4000;0.3557;0.8360;
902.7000;0.3533;0.8407;
903.0000;0.3508;0.8383;
903.3000;0.3557;0.8478;
903.6000;0.3541;0.8407;
903.9000;0.3557;0.8407;
904.2000;0.3549;0.8360;
904.5000;0.3557;0.8312;
904.8000;0.3549;0.8360;
905.1000;0.3533;0.8407;
905.4000;0.3549;0.8478;
905.7000;0.3533;0.8431;
906.0000;0.3516;0.8383;
906.3000;0.3549;0.8478;
906.6000;0.3508;0.8383;
906.9000;0.3533;0.8360;
907.2000;0.3549;0.8336;
907.5000;0.3590;0.8431;
907.8000;0.3533;0.8407;
908.1000;0.3549;0.8478;
908.4000;0.3582;0.8549;
908.7000;0.3549;0.8525;
909.0000;0.3525;0.8620;
909.3000;0.3525;0.8573;
909.6000;0.3647;0.8833;
909.9000;0.3557;0.8644;
910.2000;0.3549;0.8549;
910.5000;0.3655;0.8715;
910.8000;0.3557;0.8573;
911.1000;0.3565;0.8596;
911.4000;0.3573;0.8573;
911.7000;0.3573;0.8596;
912.0000;0.3508;0.8454;
912.3000;0.3525;0.8478;
912.6000;0.3533;0.8478;
912.9000;0.3516;0.8407;
913.2000;0.3500;0.8360;
913.5000;0.3541;0.8478;
913.8000;0.3541;0.8525;
914.1000;0.3533;0.8407;
914.4000;0.3533;0.8407;
914.7000;0.3541;0.8407;
915.0000;0.3606;0.8573;
915.3000;0.3565;0.8549;
915.6000;0.3549;0.8502;
915.9000;0.3557;0.8478;
916.2000;0.3557;0.8502;
916.5000;0.3541;0.8478;
916.8000;0.3508;0.8336;
917.1000;0.3533;0.8360;
917.4000;0.3541;0.8407;
917.7000;0.3541;0.8454;
918.0000;0.3614;0.8691;
918.3000;0.3557;0.8620;
918.6000;0.3565;0.8620;
918.9000;0.3549;0.8596;
919.2000;0.3533;0.8620;
919.5000;0.3549;0.8620;
919.8000;0.3557;0.8596;
920.1000;0.3573;0.8620;
920.4000;0.3565;0.8667;
920.7000;0.3541;0.8691;
921.0000;0.3541;0.8644;
921.3000;0.3557;0.8644;
921.6000;0.3541;0.8525;
921.9000;0.3549;0.8478;
922.2000;0.3565;0.8454;
922.5000;0.3549;0.8478;
922.8000;0.3541;0.8478;
923.1000;0.3525;0.8502;
923.4000;0.3443;0.8360;
923.7000;0.3541;0.8620;
924.0000;0.3557;0.8691;
924.3000;0.3533;0.8573;
924.6000;0.3533;0.8573;
924.9000;0.3541;0.8478;
925.2000;0.3549;0.8525;
925.5000;0.3492;0.8502;
925.8000;0.3525;0.8525;
926.1000;0.3557;0.8573;
926.4000;0.3549;0.8549;
926.7000;0.3541;0.8525;
927.0000;0.3533;0.8478;
927.3000;0.3541;0.8478;
927.6000;0.3549;0.8407;
927.9000;0.3541;0.8478;
928.2000;0.3557;0.8644;
928.5000;0.3525;0.8573;
928.8000;0.3451;0.8383;
929.1000;0.3533;0.8620;
929.4000;0.3533;0.8596;
929.7000;0.3533;0.8573;
930.0000;0.3508;0.8502;
930.3000;0.3541;0.8502;
930.6000;0.3525;0.8454;
930.9000;0.3533;0.8549;
931.2000;0.3541;0.8620;
931.5000;0.3508;0.8573;
931.8000;0.3541;0.8762;
932.1000;0.3541;0.8762;
932.4000;0.3484;0.8549;
932.7000;0.3508;0.8620;
933.0000;0.3525;0.8549;
933.3000;0.3549;0.8573;
933.6000;0.3525;0.8454;
933.9000;0.3541;0.8502;
934.2000;0.3541;0.8644;
934.5000;0.3533;0.8644;
934.8000;0.3492;0.8502;
935.1000;0.3573;0.8691;
935.4000;0.3541;0.8478;
935.7000;0.3533;0.8360;
936.0000;0.3549;0.8312;
936.3000;0.3549;0.8360;
936.6000;0.3557;0.8431;
936.9000;0.3484;0.8289;
937.2000;0.3541;0.8431;
937.5000;0.3516;0.8360;
937.8000;0.3516;0.8360;
938.1000;0.3557;0.8407;
938.4000;0.3525;0.8502;
938.7000;0.3525;0.8431;
939.0000;0.3533;0.8502;
939.3000;0.3573;0.8596;
939.6000;0.3525;0.8478;
939.9000;0.3541;0.8549;
940.2000;0.3533;0.8431;
940.5000;0.3549;0.8478;
940.8000;0.3533;0.8431;
941.1000;0.3541;0.8525;
941.4000;0.3541;0.8502;
941.7000;0.3533;0.8502;
942.0000;0.3565;0.8525;
942.3000;0.3525;0.8525;
942.6000;0.3541;0.8596;
942.9000;0.3541;0.8525;
943.2000;0.3655;0.8810;
943.5000;0.3525;0.8620;
943.8000;0.3516;0.8596;
944.1000;0.3549;0.8691;
944.4000;0.3443;0.8336;
944.7000;0.3541;0.8525;
945.0000;0.3549;0.8525;
945.3000;0.3606;0.8596;
945.6000;0.3541;0.8596;
945.9000;0.3614;0.8738;
946.2000;0.3655;0.8857;
946.5000;0.3541;0.8549;
946.8000;0.3549;0.8596;
947.1000;0.3516;0.8502;
947.4000;0.3443;0.8289;
947.7000;0.3533;0.8596;
948.0000;0.3533;0.8620;
948.3000;0.3500;0.8573;
948.6000;0.3541;0.8644;
948.9000;0.3516;0.8620;
949.2000;0.3500;0.8502;
949.5000;0.3557;0.8667;
949.8000;0.3525;0.8620;
950.1000;0.3525;0.8596;
950.4000;0.3533;0.8644;
950.7000;0.3549;0.8644;
951.0000;0.3525;0.8620;
951.3000;0.3541;0.8715;
951.6000;0.3533;0.8715;
951.9000;0.3541;0.8644;
952.2000;0.3549;0.8715;
952.5000;0.3525;0.8549;
952.8000;0.3525;0.8596;
953.1000;0.3549;0.8573;
953.4000;0.3541;0.8502;
953.7000;0.3533;0.8454;
954.0000;0.3508;0.8383;
954.3000;0.3525;0.8407;
954.6000;0.3525;0.8431;
954.9000;0.3573;0.8525;
955.2000;0.3541;0.8407;
955.5000;0.3533;0.8383;
955.8000;0.3533;0.8407;
956.1000;0.3525;0.8360;
956.4000;0.3508;0.8336;
956.7000;0.3525;0.8336;
957.0000;0.3492;0.8194;
957.3000;0.3549;0.8312;
957.6000;0.3492;0.8146;
957.9000;0.3525;0.8123;
958.2000;0.3516;0.8170;
958.5000;0.3533;0.8217;
958.8000;0.3516;0.8241;
959.1000;0.3516;0.8194;
959.4000;0.3533;0.8241;
959.7000;0.3549;0.8289;
960.0000;0.3476;0.8170;
960.3000;0.3508;0.8289;
960.6000;0.3549;0.8265;
960.9000;0.3525;0.8170;
961.2000;0.3549;0.8312;
961.5000;0.3606;0.8573;
961.8000;0.3525;0.8336;
962.1000;0.3557;0.8407;
962.4000;0.3533;0.8360;
962.7000;0.3516;0.8336;
963.0000;0.3508;0.8312;
963.3000;0.3533;0.8241;
963.6000;0.3525;0.8170;
963.9000;0.3525;0.8123;
964.2000;0.3557;0.8265;
964.5000;0.3590;0.8336;
964.8000;0.3525;0.8075;
965.1000;0.3516;0.8217;
965.4000;0.3533;0.8217;
965.7000;0.3508;0.8217;
966.0000;0.3541;0.8336;
966.3000;0.3557;0.8407;
966.6000;0.3549;0.8241;
966.9000;0.3516;0.8170;
967.2000;0.3533;0.8194;
967.5000;0.3525;0.8217;
967.8000;0.3516;0.8265;
968.1000;0.3533;0.8265;
968.4000;0.3565;0.8312;
968.7000;0.3533;0.8194;
969.0000;0.3525;0.8241;
969.3000;0.3484;0.8052;
969.6000;0.3533;0.8241;
969.9000;0.3541;0.8241;
970.2000;0.3630;0.8478;
970.5000;0.3606;0.8383;
970.8000;0.3541;0.8265;
971.1000;0.3508;0.8241;
971.4000;0.3508;0.8289;
971.7000;0.3525;0.8312;
972.0000;0.3500;0.8312;
972.3000;0.3516;0.8336;
972.6000;0.3557;0.8336;
972.9000;0.3533;0.8217;
973.2000;0.3541;0.8217;
973.5000;0.3525;0.8123;
973.8000;0.3533;0.8170;
974.1000;0.3492;0.8194;
974.4000;0.3492;0.8194;
974.7000;0.3533;0.8336;
975.0000;0.3525;0.8241;
975.3000;0.3516;0.8241;
975.6000;0.3541;0.8241;
975.9000;0.3525;0.8194;
976.2000;0.3533;0.8146;
976.5000;0.3525;0.8123;
976.8000;0.3516;0.8170;
977.1000;0.3525;0.8170;
977.4000;0.3533;0.8217;
977.7000;0.3549;0.8265;
978.0000;0.3492;0.8194;
978.3000;0.3533;0.8265;
978.6000;0.3541;0.8360;
978.9000;0.3533;0.8431;
979.2000;0.3525;0.8360;
979.5000;0.3565;0.8383;
979.8000;0.3525;0.8289;
980.1000;0.3484;0.8194;
980.4000;0.3516;0.8241;
980.7000;0.3516;0.8241;
981.0000;0.3549;0.8265;
981.3000;0.3533;0.8241;
981.6000;0.3508;0.8241;
981.9000;0.3525;0.8265;
982.2000;0.3508;0.8170;
982.5000;0.3606;0.8502;
982.8000;0.3419;0.8052;
983.1000;0.3606;0.8596;
983.4000;0.3533;0.8383;
983.7000;0.3533;0.8407;
984.0000;0.3508;0.8407;
984.3000;0.3533;0.8407;
984.6000;0.3492;0.8312;
984.9000;0.3508;0.8312;
985.2000;0.3508;0.8217;
985.5000;0.3508;0.8194;
985.8000;0.3533;0.8241;
986.1000;0.3565;0.8360;
986.4000;0.3500;0.8170;
986.7000;0.3525;0.8312;
987.0000;0.3516;0.8431;
987.3000;0.3516;0.8360;
987.6000;0.3500;0.8289;
987.9000;0.3541;0.8431;
988.2000;0.3484;0.8170;
988.5000;0.3525;0.8265;
988.8000;0.3533;0.8241;
989.1000;0.3614;0.8431;
989.4000;0.3541;0.8289;
989.7000;0.3516;0.8170;
990.0000;0.3525;0.8217;
990.3000;0.3533;0.8194;
990.6000;0.3525;0.8241;
990.9000;0.3508;0.8123;
991.2000;0.3525;0.8146;
991.5000;0.3516;0.8217;
991.8000;0.3508;0.8099;
992.1000;0.3500;0.8075;
992.4000;0.3533;0.8194;
992.7000;0.3516;0.8217;
993.0000;0.3516;0.8217;
993.3000;0.3590;0.8336;
993.6000;0.3525;0.8241;
993.9000;0.3508;0.8265;
994.2000;0.3533;0.8241;
994.5000;0.3533;0.8336;
994.8000;0.3516;0.8336;
995.1000;0.3525;0.8336;
995.4000;0.3541;0.8407;
995.7000;0.3525;0.8312;
996.0000;0.3533;0.8360;
996.3000;0.3573;0.8525;
996.6000;0.3508;0.8360;
996.9000;0.3516;0.8336;
997.2000;0.3508;0.8312;
997.5000;0.3508;0.8289;
997.8000;0.3492;0.8407;
998.1000;0.3516;0.8312;
998.4000;0.3525;0.8289;
998.7000;0.3508;0.8217;
999.0000;0.3492;0.8123;
999.3000;0.3525;0.8194;
999.6000;0.3525;0.8194;
999.9000;0.3500;0.8099;
1000.2000;0.3533;0.8241;
1000.5000;0.3565;0.8383;
1000.8000;0.3533;0.8241;
1001.1000;0.3516;0.8241;
1001.4000;0.3541;0.8312;
1001.7000;0.3525;0.8241;
1002.0000;0.3541;0.8194;
1002.3000;0.3533;0.8170;
1002.6000;0.3516;0.8170;
1002.9000;0.3500;0.8241;
1003.2000;0.3516;0.8265;
1003.5000;0.3525;0.8312;
1003.8000;0.3525;0.8217;
1004.1000;0.3516;0.8194;
1004.4000;0.3533;0.8265;
1004.7000;0.3549;0.8265;
1005.0000;0.3508;0.8241;
1005.3000;0.3500;0.8241;
1005.6000;0.3508;0.8241;
1005.9000;0.3443;0.8146;
1006.2000;0.3508;0.8360;
1006.5000;0.3533;0.8431;
1006.8000;0.3500;0.8312;
1007.1000;0.3476;0.8217;
1007.4000;0.3508;0.8360;
1007.7000;0.3516;0.8360;
1008.0000;0.3525;0.8431;
1008.3000;0.3500;0.8431;
1008.6000;0.3525;0.8431;
1008.9000;0.3516;0.8502;
1009.2000;0.3525;0.8431;
1009.5000;0.3533;0.8407;
1009.8000;0.3508;0.8360;
1010.1000;0.3492;0.8336;
1010.4000;0.3492;0.8336;
1010.7000;0.3516;0.8383;
1011.0000;0.3484;0.8312;
1011.3000;0.3508;0.8336;
1011.6000;0.3516;0.8312;
1011.9000;0.3500;0.8241;
1012.2000;0.3630;0.8573;
1012.5000;0.3516;0.8312;
1012.8000;0.3525;0.8289;
1013.1000;0.3508;0.8241;
1013.4000;0.3516;0.8289;
1013.7000;0.3508;0.8265;
1014.0000;0.3508;0.8289;
1014.3000;0.3508;0.8336;
1014.6000;0.3460;0.8194;
1014.9000;0.3508;0.8217;
1015.2000;0.3525;0.8241;
1015.5000;0.3541;0.8289;
1015.8000;0.3525;0.8194;
1016.1000;0.3500;0.8217;
1016.4000;0.3516;0.8194;
1016.7000;0.3508;0.8194;
1017.0000;0.3525;0.8265;
1017.3000;0.3516;0.8265;
1017.6000;0.3533;0.8289;
1017.9000;0.3484;0.8170;
1018.2000;0.3516;0.8289;
1018.5000;0.3484;0.8241;
1018.8000;0.3525;0.8407;
1019.1000;0.3508;0.8360;
1019.4000;0.3508;0.8360;
1019.7000;0.3516;0.8336;
1020.0000;0.3508;0.8360;
1020.3000;0.3516;0.8383;
1020.6000;0.3516;0.8312;
1020.9000;0.3525;0.8360;
1021.2000;0.3500;0.8360;
1021.5000;0.3516;0.8478;
1021.8000;0.3508;0.8454;
1022.1000;0.3508;0.8454;
1022.4000;0.3516;0.8454;
1022.7000;0.3516;0.8336;
1023.0000;0.3516;0.8289;
1023.3000;0.3500;0.8312;
1023.6000;0.3549;0.8407;
1023.9000;0.3508;0.8431;
1024.2000;0.3525;0.8525;
1024.5000;0.3508;0.8549;
1024.8000;0.3508;0.8502;
1025.1000;0.3525;0.8502;
1025.4000;0.3533;0.8478;
1025.7000;0.3516;0.8502;
1026.0000;0.3516;0.8478;
1026.3000;0.3525;0.8407;
1026.6000;0.3500;0.8407;
1026.9000;0.3516;0.8289;
1027.2000;0.3508;0.8360;
1027.5000;0.3525;0.8336;
1027.8000;0.3508;0.8336;
1028.1000;0.3492;0.8265;
1028.4000;0.3525;0.8360;
1028.7000;0.3525;0.8241;
1029.0000;0.3516;0.8265;
1029.3000;0.3516;0.8289;
1029.6000;0.3516;0.8241;
1029.9000;0.3508;0.8312;
1030.2000;0.3508;0.8312;
1030.5000;0.3500;0.8336;
1030.8000;0.3500;0.8383;
1031.1000;0.3451;0.8241;
1031.4000;0.3484;0.8383;
1031.7000;0.3516;0.8573;
1032.0000;0.3533;0.8573;
1032.3000;0.3516;0.8454;
1032.6000;0.3541;0.8431;
1032.9000;0.3598;0.8667;
1033.2000;0.3508;0.8573;
1033.5000;0.3525;0.8549;
1033.8000;0.3500;0.8502;
1034.1000;0.3460;0.8383;
1034.4000;0.3516;0.8407;
1034.7000;0.3516;0.8431;
1035.0000;0.3533;0.8502;
1035.3000;0.3508;0.8454;
1035.6000;0.3525;0.8478;
1035.9000;0.3533;0.8454;
1036.2000;0.3557;0.8620;
1036.5000;0.3533;0.8620;
1036.8000;0.3516;0.8478;
1037.1000;0.3508;0.8478;
1037.4000;0.3508;0.8644;
1037.7000;0.3500;0.8644;
1038.0000;0.3500;0.8667;
1038.3000;0.3516;0.8715;
1038.6000;0.3533;0.8881;
1038.9000;0.3508;0.8786;
1039.2000;0.3516;0.8738;
1039.5000;0.3492;0.8620;
1039.8000;0.3508;0.8738;
1040.1000;0.3516;0.8762;
1040.4000;0.3525;0.8738;
1040.7000;0.3500;0.8596;
1041.0000;0.3508;0.8644;
1041.3000;0.3508;0.8667;
1041.6000;0.3614;0.8881;
1041.9000;0.3508;0.8715;
1042.2000;0.3492;0.8644;
1042.5000;0.3492;0.8644;
1042.8000;0.3516;0.8786;
1043.1000;0.3508;0.8810;
1043.4000;0.3508;0.8715;
1043.7000;0.3516;0.8691;
1044.0000;0.3533;0.8738;
1044.3000;0.3427;0.8431;
1044.6000;0.3516;0.8667;
1044.9000;0.3525;0.8667;
1045.2000;0.3516;0.8691;
1045.5000;0.3533;0.8596;
1045.8000;0.3492;0.8478;
1046.1000;0.3500;0.8478;
1046.4000;0.3500;0.8502;
1046.7000;0.3525;0.8478;
1047.0000;0.3500;0.8431;
1047.3000;0.3451;0.8312;
1047.6000;0.3508;0.8454;
1047.9000;0.3492;0.8525;
1048.2000;0.3500;0.8596;
1048.5000;0.3492;0.8596;
1048.8000;0.3492;0.8596;
1049.1000;0.3516;0.8667;
1049.4000;0.3508;0.8644;
1049.7000;0.3500;0.8644;
1050.0000;0.3516;0.8596;
1050.3000;0.3525;0.8549;
1050.6000;0.3516;0.8502;
1050.9000;0.3492;0.8549;
1051.2000;0.3516;0.8596;
1051.5000;0.3500;0.8454;
1051.8000;0.3508;0.8454;
1052.1000;0.3492;0.8478;
1052.4000;0.3500;0.8478;
1052.7000;0.3500;0.8454;
1053.0000;0.3435;0.8217;
1053.3000;0.3541;0.8407;
1053.6000;0.3525;0.8383;
1053.9000;0.3516;0.8431;
1054.2000;0.3533;0.8502;
1054.5000;0.3508;0.8454;
1054.8000;0.3508;0.8454;
1055.1000;0.3500;0.8431;
1055.4000;0.3516;0.8431;
1055.7000;0.3516;0.8383;
1056.0000;0.3508;0.8454;
1056.3000;0.3484;0.8360;
1056.6000;0.3508;0.8383;
1056.9000;0.3516;0.8383;
1057.2000;0.3468;0.8194;
1057.5000;0.3492;0.8431;
1057.8000;0.3516;0.8431;
1058.1000;0.3468;0.8265;
1058.4000;0.3468;0.8312;
1058.7000;0.3525;0.8407;
1059.0000;0.3508;0.8454;
1059.3000;0.3516;0.8407;
1059.6000;0.3500;0.8383;
1059.9000;0.3516;0.8407;
1060.2000;0.3435;0.8265;
1060.5000;0.3516;0.8454;
1060.8000;0.3516;0.8454;
1061.1000;0.3508;0.8360;
1061.4000;0.3508;0.8360;
1061.7000;0.3492;0.8383;
1062.0000;0.3492;0.8431;
1062.3000;0.3525;0.8549;
1062.6000;0.3508;0.8525;
1062.9000;0.3508;0.8502;
1063.2000;0.3500;0.8478;
1063.5000;0.3508;0.8478;
1063.8000;0.3492;0.8478;
1064.1000;0.3492;0.8407;
1064.4000;0.3500;0.8478;
1064.7000;0.3508;0.8596;
1065.0000;0.3484;0.8549;
1065.3000;0.3419;0.8336;
1065.6000;0.3549;0.8715;
1065.9000;0.3508;0.8573;
1066.2000;0.3500;0.8549;
1066.5000;0.3500;0.8525;
1066.8000;0.3500;0.8525;
1067.1000;0.3500;0.8644;
1067.4000;0.3500;0.8525;
1067.7000;0.3484;0.8549;
1068.0000;0.3525;0.8667;
1068.3000;0.3492;0.8644;
1068.6000;0.3549;0.8691;
1068.9000;0.3500;0.8596;
1069.2000;0.3492;0.8596;
1069.5000;0.3508;0.8596;
1069.8000;0.3541;0.8620;
1070.1000;0.3492;0.8549;
1070.4000;0.3533;0.8691;
1070.7000;0.3508;0.8667;
1071.0000;0.3541;0.8738;
1071.3000;0.3435;0.8454;
1071.6000;0.3500;0.8573;
1071.9000;0.3500;0.8549;
1072.2000;0.3516;0.8549;
1072.5000;0.3508;0.8573;
1072.8000;0.3492;0.8525;
1073.1000;0.3484;0.8549;
1073.4000;0.3533;0.8573;
1073.7000;0.3516;0.8478;
1074.0000;0.3516;0.8336;
1074.3000;0.3516;0.8336;
1074.6000;0.3508;0.8502;
1074.9000;0.3500;0.8431;
1075.2000;0.3500;0.8407;
1075.5000;0.3500;0.8502;
1075.8000;0.3508;0.8454;
1076.1000;0.3443;0.8407;
1076.4000;0.3525;0.8596;
1076.7000;0.3500;0.8549;
1077.0000;0.3516;0.8525;
1077.3000;0.3516;0.8502;
1077.6000;0.3500;0.8383;
1077.9000;0.3533;0.8502;
1078.2000;0.3500;0.8573;
1078.5000;0.3500;0.8596;
1078.8000;0.3508;0.8573;
1079.1000;0.3427;0.8312;
1079.4000;0.3443;0.8336;
1079.7000;0.3516;0.8478;
1080.0000;0.3492;0.8383;
1080.3000;0.3516;0.8431;
1080.6000;0.3500;0.8360;
1080.9000;0.3508;0.8407;
1081.2000;0.3516;0.8454;
1081.5000;0.3533;0.8431;
1081.8000;0.3476;0.8217;
1082.1000;0.3500;0.8265;
1082.4000;0.3476;0.8194;
1082.7000;0.3500;0.8194;
1083.0000;0.3508;0.8265;
1083.3000;0.3451;0.8265;
1083.6000;0.3484;0.8360;
1083.9000;0.3492;0.8312;
1084.2000;0.3460;0.8194;
1084.5000;0.3516;0.8312;
1084.8000;0.3525;0.8383;
1085.1000;0.3508;0.8431;
1085.4000;0.3492;0.8383;
1085.7000;0.3525;0.8454;
1086.0000;0.3508;0.8478;
1086.3000;0.3508;0.8502;
1086.6000;0.3508;0.8502;
1086.9000;0.3500;0.8525;
1087.2000;0.3492;0.8431;
1087.5000;0.3557;0.8596;
1087.8000;0.3516;0.8454;
1088.1000;0.3492;0.8360;
1088.4000;0.3516;0.8454;
1088.7000;0.3516;0.8431;
1089.0000;0.3516;0.8525;
1089.3000;0.3443;0.8289;
1089.6000;0.3516;0.8478;
1089.9000;0.3525;0.8383;
1090.2000;0.3525;0.8336;
1090.5000;0.3516;0.8360;
1090.8000;0.3500;0.8407;
1091.1000;0.3516;0.8502;
1091.4000;0.3500;0.8502;
1091.7000;0.3508;0.8407;
1092.0000;0.3516;0.8549;
1092.3000;0.3476;0.8549;
1092.6000;0.3476;0.8454;
1092.9000;0.3476;0.8407;
1093.2000;0.3508;0.8454;
1093.5000;0.3435;0.8360;
1093.8000;0.3500;0.8478;
1094.1000;0.3565;0.8644;
1094.4000;0.3492;0.8407;
1094.7000;0.3582;0.8644;
1095.0000;0.3492;0.8431;
1095.3000;0.3508;0.8407;
1095.6000;0.3411;0.8146;
1095.9000;0.3451;0.8265;
1096.2000;0.3525;0.8312;
1096.5000;0.3500;0.8241;
1096.8000;0.3508;0.8265;
1097.1000;0.3460;0.8241;
1097.4000;0.3533;0.8383;
1097.7000;0.3525;0.8431;
1098.0000;0.3525;0.8431;
1098.3000;0.3500;0.8502;
1098.6000;0.3492;0.8667;
1098.9000;0.3484;0.8596;
1099.2000;0.3508;0.8644;
1099.5000;0.3508;0.8644;
1099.8000;0.3614;0.8975;
1100.1000;0.3541;0.8738;
1100.4000;0.3516;0.8525;
1100.7000;0.3516;0.8478;
1101.0000;0.3460;0.8312;
1101.3000;0.3500;0.8312;
1101.6000;0.3476;0.8217;
1101.9000;0.3451;0.8146;
1102.2000;0.3573;0.8431;
1102.5000;0.3533;0.8454;
1102.8000;0.3516;0.8478;
1103.1000;0.3508;0.8478;
1103.4000;0.3573;0.8620;
1103.7000;0.3508;0.8502;
1104.0000;0.3533;0.8573;
1104.3000;0.3500;0.8525;
1104.6000;0.3500;0.8691;
1104.9000;0.3508;0.8738;
1105.2000;0.3403;0.8549;
1105.5000;0.3492;0.8762;
1105.8000;0.3508;0.8762;
1106.1000;0.3525;0.8833;
1106.4000;0.3606;0.8952;
1106.7000;0.3460;0.8620;
1107.0000;0.3500;0.8738;
1107.3000;0.3500;0.8762;
1107.6000;0.3500;0.8786;
1107.9000;0.3525;0.8715;
1108.2000;0.3525;0.8738;
1108.5000;0.3500;0.8738;
1108.8000;0.3516;0.8810;
1109.1000;0.3516;0.8833;
1109.4000;0.3508;0.8667;
1109.7000;0.3500;0.8620;
1110.0000;0.3492;0.8549;
1110.3000;0.3525;0.8620;
1110.6000;0.3516;0.8667;
1110.9000;0.3508;0.8549;
1111.2000;0.3525;0.8596;
1111.5000;0.3533;0.8525;
1111.8000;0.3460;0.8312;
1112.1000;0.3516;0.8431;
1112.4000;0.3508;0.8454;
1112.7000;0.3484;0.8478;
1113.0000;0.3516;0.8644;
1113.3000;0.3492;0.8478;
1113.6000;0.3451;0.8289;
1113.9000;0.3508;0.8407;
1114.2000;0.3500;0.8478;
1114.5000;0.3565;0.8691;
1114.8000;0.3516;0.8549;
1115.1000;0.3492;0.8502;
1115.4000;0.3500;0.8549;
1115.7000;0.3451;0.8478;
1116.0000;0.3525;0.8620;
1116.3000;0.3508;0.8573;
1116.6000;0.3598;0.8833;
1116.9000;0.3516;0.8667;
1117.2000;0.3516;0.8715;
1117.5000;0.3476;0.8573;
1117.8000;0.3508;0.8691;
1118.1000;0.3419;0.8431;
1118.4000;0.3500;0.8715;
1118.7000;0.3492;0.8738;
1119.0000;0.3500;0.8644;
1119.3000;0.3492;0.8691;
1119.6000;0.3427;0.8478;
1119.9000;0.3484;0.8573;
1120.2000;0.3468;0.8525;
1120.5000;0.3492;0.8573;
1120.8000;0.3516;0.8644;
1121.1000;0.3500;0.8596;
1121.4000;0.3492;0.8644;
1121.7000;0.3516;0.8691;
1122.0000;0.3525;0.8620;
1122.3000;0.3500;0.8596;
1122.6000;0.3508;0.8667;
1122.9000;0.3525;0.8691;
1123.2000;0.3557;0.8762;
1123.5000;0.3492;0.8596;
1123.8000;0.3492;0.8596;
1124.1000;0.3525;0.8691;
1124.4000;0.3500;0.8596;
1124.7000;0.3492;0.8620;
1125.0000;0.3451;0.8502;
1125.3000;0.3492;0.8502;
1125.6000;0.3525;0.8620;
1125.9000;0.3573;0.8715;
1126.2000;0.3476;0.8525;
1126.5000;0.3516;0.8596;
1126.8000;0.3516;0.8620;
1127.1000;0.3508;0.8596;
1127.4000;0.3508;0.8549;
1127.7000;0.3492;0.8596;
1128.0000;0.3500;0.8620;
1128.3000;0.3500;0.8525;
1128.6000;0.3500;0.8431;
1128.9000;0.3500;0.8312;
1129.2000;0.3484;0.8383;
1129.5000;0.3516;0.8431;
1129.8000;0.3492;0.8407;
1130.1000;0.3500;0.8383;
1130.4000;0.3508;0.8454;
1130.7000;0.3516;0.8525;
1131.0000;0.3516;0.8549;
1131.3000;0.3500;0.8596;
1131.6000;0.3500;0.8573;
1131.9000;0.3516;0.8620;
1132.2000;0.3427;0.8431;
1132.5000;0.3508;0.8549;
1132.8000;0.3516;0.8549;
1133.1000;0.3500;0.8525;
1133.4000;0.3541;0.8620;
1133.7000;0.3492;0.8596;
1134.0000;0.3500;0.8691;
1134.3000;0.3508;0.8644;
1134.6000;0.3492;0.8667;
1134.9000;0.3500;0.8644;
1135.2000;0.3492;0.8573;
1135.5000;0.3516;0.8620;
1135.8000;0.3476;0.8573;
1136.1000;0.3500;0.8620;
1136.4000;0.3492;0.8596;
1136.7000;0.3484;0.8549;
1137.0000;0.3516;0.8573;
1137.3000;0.3541;0.8810;
1137.6000;0.3516;0.8786;
1137.9000;0.3500;0.8738;
1138.2000;0.3516;0.8596;
1138.5000;0.3508;0.8502;
1138.8000;0.3525;0.8573;
1139.1000;0.3508;0.8573;
1139.4000;0.3492;0.8478;
1139.7000;0.3476;0.8454;
1140.0000;0.3500;0.8502;
1140.3000;0.3508;0.8454;
1140.6000;0.3500;0.8431;
1140.9000;0.3500;0.8478;
1141.2000;0.3525;0.8549;
1141.5000;0.3500;0.8549;
1141.8000;0.3500;0.8525;
1142.1000;0.3573;0.8691;
1142.4000;0.3525;0.8573;
1142.7000;0.3492;0.8525;
1143.0000;0.3516;0.8549;
1143.3000;0.3500;0.8478;
1143.6000;0.3492;0.8312;
1143.9000;0.3525;0.8407;
1144.2000;0.3484;0.8336;
1144.5000;0.3500;0.8431;
1144.8000;0.3492;0.8360;
1145.1000;0.3516;0.8289;
1145.4000;0.3492;0.8217;
1145.7000;0.3484;0.8265;
1146.0000;0.3476;0.8289;
1146.3000;0.3516;0.8383;
1146.6000;0.3492;0.8407;
1146.9000;0.3598;0.8691;
1147.2000;0.3541;0.8620;
1147.5000;0.3492;0.8502;
1147.8000;0.3516;0.8573;
1148.1000;0.3476;0.8525;
1148.4000;0.3492;0.8502;
1148.7000;0.3492;0.8596;
1149.0000;0.3476;0.8573;
1149.3000;0.3476;0.8549;
1149.6000;0.3484;0.8478;
1149.9000;0.3476;0.8431;
1150.2000;0.3500;0.8525;
1150.5000;0.3492;0.8478;
1150.8000;0.3500;0.8407;
1151.1000;0.3476;0.8336;
1151.4000;0.3500;0.8383;
1151.7000;0.3500;0.8360;
1152.0000;0.3484;0.8383;
1152.3000;0.3508;0.8431;
1152.6000;0.3525;0.8525;
1152.9000;0.3508;0.8502;
1153.2000;0.3516;0.8478;
1153.5000;0.3508;0.8454;
1153.8000;0.3508;0.8478;
1154.1000;0.3508;0.8502;
1154.4000;0.3492;0.8431;
1154.7000;0.3492;0.8454;
1155.0000;0.3492;0.8454;
1155.3000;0.3508;0.8502;
1155.6000;0.3492;0.8360;
1155.9000;0.3508;0.8336;
1156.2000;0.3573;0.8691;
1156.5000;0.3508;0.8573;
1156.8000;0.3508;0.8478;
1157.1000;0.3500;0.8407;
1157.4000;0.3468;0.8383;
1157.7000;0.3525;0.8525;
1158.0000;0.3516;0.8620;
1158.3000;0.3484;0.8620;
1158.6000;0.3549;0.8762;
1158.9000;0.3565;0.8810;
1159.2000;0.3508;0.8691;
1159.5000;0.3516;0.8667;
1159.8000;0.3500;0.8644;
1160.1000;0.3492;0.8667;
1160.4000;0.3500;0.8644;
1160.7000;0.3582;0.8762;
1161.0000;0.3476;0.8549;
1161.3000;0.3484;0.8454;
1161.6000;0.3516;0.8525;
1161.9000;0.3484;0.8454;
1162.2000;0.3508;0.8502;
1162.5000;0.3508;0.8596;
1162.8000;0.3508;0.8573;
1163.1000;0.3525;0.8596;
1163.4000;0.3500;0.8525;
1163.7000;0.3476;0.8360;
1164.0000;0.3500;0.8431;
1164.3000;0.3500;0.8407;
1164.6000;0.3451;0.8312;
1164.9000;0.3500;0.8431;
1165.2000;0.3508;0.8383;
1165.5000;0.3492;0.8360;
1165.8000;0.3508;0.8360;
1166.1000;0.3492;0.8407;
1166.4000;0.3533;0.8431;
1166.7000;0.3492;0.8312;
1167.0000;0.3508;0.8289;
1167.3000;0.3500;0.8289;
1167.6000;0.3460;0.8289;
1167.9000;0.3492;0.8383;
1168.2000;0.3582;0.8644;
1168.5000;0.3508;0.8478;
1168.8000;0.3435;0.8265;
1169.1000;0.3516;0.8525;
1169.4000;0.3476;0.8502;
1169.7000;0.3508;0.8620;
1170.0000;0.3508;0.8644;
1170.3000;0.3557;0.8738;
1170.6000;0.3508;0.8620;
1170.9000;0.3500;0.8596;
1171.2000;0.3508;0.8596;
1171.5000;0.3508;0.8620;
1171.8000;0.3500;0.8525;
1172.1000;0.3508;0.8454;
1172.4000;0.3484;0.8265;
1172.7000;0.3525;0.8360;
1173.0000;0.3516;0.8312;
1173.3000;0.3565;0.8525;
1173.6000;0.3508;0.8454;
1173.9000;0.3516;0.8478;
1174.2000;0.3460;0.8383;
1174.5000;0.3476;0.8431;
1174.8000;0.3525;0.8525;
1175.1000;0.3394;0.8217;
1175.4000;0.3492;0.8478;
1175.7000;0.3533;0.8549;
1176.0000;0.3451;0.8312;
1176.3000;0.3525;0.8478;
1176.6000;0.3500;0.8502;
1176.9000;0.3533;0.8596;
1177.2000;0.3500;0.8525;
1177.5000;0.3476;0.8407;
1177.8000;0.3451;0.8525;
1178.1000;0.3492;0.8644;
1178.4000;0.3549;0.8762;
1178.7000;0.3500;0.8715;
1179.0000;0.3525;0.8715;
1179.3000;0.3516;0.8620;
1179.6000;0.3500;0.8620;
1179.9000;0.3484;0.8573;
1180.2000;0.3500;0.8573;
1180.5000;0.3500;0.8525;
1180.8000;0.3590;0.8667;
1181.1000;0.3500;0.8431;
1181.4000;0.3492;0.8454;
1181.7000;0.3500;0.8478;
1182.0000;0.3622;0.8786;
1182.3000;0.3508;0.8478;
1182.6000;0.3500;0.8478;
1182.9000;0.3484;0.8525;
1183.2000;0.3500;0.8620;
1183.5000;0.3484;0.8620;
1183.8000;0.3484;0.8644;
1184.1000;0.3476;0.8549;
1184.4000;0.3492;0.8573;
1184.7000;0.3500;0.8715;
1185.0000;0.3492;0.8596;
1185.3000;0.3516;0.8691;
1185.6000;0.3533;0.8691;
1185.9000;0.3500;0.8525;
1186.2000;0.3484;0.8478;
1186.5000;0.3500;0.8431;
1186.8000;0.3492;0.8336;
1187.1000;0.3533;0.8407;
1187.4000;0.3492;0.8336;
1187.7000;0.3484;0.8360;
1188.0000;0.3492;0.8454;
1188.3000;0.3508;0.8502;
1188.6000;0.3468;0.8454;
1188.9000;0.3500;0.8383;
1189.2000;0.3508;0.8407;
1189.5000;0.3508;0.8407;
1189.8000;0.3541;0.8502;
1190.1000;0.3484;0.8312;
1190.4000;0.3492;0.8336;
1190.7000;0.3492;0.8407;
1191.0000;0.3516;0.8502;
1191.3000;0.3492;0.8431;
1191.6000;0.3508;0.8431;
1191.9000;0.3557;0.8596;
1192.2000;0.3541;0.8596;
1192.5000;0.3492;0.8549;
1192.8000;0.3476;0.8573;
1193.1000;0.3533;0.8667;
1193.4000;0.3508;0.8620;
1193.7000;0.3508;0.8573;
1194.0000;0.3484;0.8431;
1194.3000;0.3500;0.8407;
1194.6000;0.3508;0.8407;
1194.9000;0.3549;0.8478;
1195.2000;0.3451;0.8265;
1195.5000;0.3508;0.8525;
1195.8000;0.3525;0.8596;
1196.1000;0.3525;0.8738;
1196.4000;0.3525;0.8738;
1196.7000;0.3484;0.8644;
1197.0000;0.3419;0.8478;
1197.3000;0.3500;0.8667;
1197.6000;0.3508;0.8667;
1197.9000;0.3573;0.8810;
1198.2000;0.3460;0.8549;
1198.5000;0.3492;0.8786;
1198.8000;0.3492;0.8857;
1199.1000;0.3386;0.8620;
1199.4000;0.3443;0.8715;
1199.7000;0.3476;0.8857;
1200.0000;0.3508;0.8952;
1200.3000;0.3516;0.8881;
1200.6000;0.3549;0.8952;
1200.9000;0.3516;0.8857;
1201.2000;0.3533;0.8928;
1201.5000;0.3533;0.8881;
1201.8000;0.3500;0.8833;
1202.1000;0.3492;0.8762;
1202.4000;0.3508;0.8762;
1202.7000;0.3508;0.8762;
1203.0000;0.3541;0.8786;
1203.3000;0.3516;0.8762;
1203.6000;0.3525;0.8715;
1203.9000;0.3492;0.8715;
1204.2000;0.3492;0.8667;
1204.5000;0.3492;0.8667;
1204.8000;0.3508;0.8691;
1205.1000;0.3508;0.8691;
1205.4000;0.3500;0.8691;
1205.7000;0.3500;0.8691;
1206.0000;0.3500;0.8738;
1206.3000;0.3500;0.8738;
1206.6000;0.3525;0.8738;
1206.9000;0.3508;0.8644;
1207.2000;0.3492;0.8525;
1207.5000;0.3468;0.8525;
1207.8000;0.3460;0.8525;
1208.1000;0.3500;0.8620;
1208.4000;0.3525;0.8691;
1208.7000;0.3500;0.8620;
1209.0000;0.3533;0.8691;
1209.3000;0.3476;0.8525;
1209.6000;0.3500;0.8644;
1209.9000;0.3508;0.8620;
1210.2000;0.3500;0.8644;
1210.5000;0.3500;0.8549;
1210.8000;0.3492;0.8407;
1211.1000;0.3476;0.8265;
1211.4000;0.3484;0.8383;
1211.7000;0.3492;0.8336;
1212.0000;0.3516;0.8431;
1212.3000;0.3484;0.8360;
1212.6000;0.3500;0.8407;
1212.9000;0.3500;0.8383;
1213.2000;0.3492;0.8431;
1213.5000;0.3500;0.8502;
1213.8000;0.3516;0.8502;
1214.1000;0.3573;0.8620;
1214.4000;0.3500;0.8549;
1214.7000;0.3484;0.8644;
1215.0000;0.3516;0.8691;
1215.3000;0.3476;0.8573;
1215.6000;0.3484;0.8573;
1215.9000;0.3525;0.8691;
1216.2000;0.3582;0.8904;
1216.5000;0.3549;0.8904;
1216.8000;0.3484;0.8762;
1217.1000;0.3435;0.8620;
1217.4000;0.3516;0.8738;
1217.7000;0.3516;0.8691;
1218.0000;0.3533;0.8620;
1218.3000;0.3484;0.8478;
1218.6000;0.3508;0.8502;
1218.9000;0.3557;0.8596;
1219.2000;0.3443;0.8407;
1219.5000;0.3484;0.8549;
1219.8000;0.3516;0.8573;
1220.1000;0.3500;0.8549;
1220.4000;0.3500;0.8525;
1220.7000;0.3427;0.8360;
1221.0000;0.3460;0.8478;
1221.3000;0.3476;0.8431;
1221.6000;0.3484;0.8549;
1221.9000;0.3492;0.8525;
1222.2000;0.3533;0.8715;
1222.5000;0.3500;0.8478;
1222.8000;0.3492;0.8454;
1223.1000;0.3484;0.8383;
1223.4000;0.3500;0.8360;
1223.7000;0.3476;0.8289;
1224.0000;0.3492;0.8312;
1224.3000;0.3500;0.8312;
1224.6000;0.3492;0.8360;
1224.9000;0.3484;0.8407;
1225.2000;0.3492;0.8383;
1225.5000;0.3549;0.8525;
1225.8000;0.3476;0.8454;
1226.1000;0.3500;0.8431;
1226.4000;0.3525;0.8431;
1226.7000;0.3590;0.8644;
1227.0000;0.3484;0.8454;
1227.3000;0.3516;0.8478;
1227.6000;0.3508;0.8454;
1227.9000;0.3500;0.8502;
1228.2000;0.3484;0.8525;
1228.5000;0.3492;0.8573;
1228.8000;0.3508;0.8644;
1229.1000;0.3484;0.8644;
1229.4000;0.3492;0.8644;
1229.7000;0.3500;0.8644;
1230.0000;0.3492;0.8596;
1230.3000;0.3492;0.8549;
1230.6000;0.3500;0.8596;
1230.9000;0.3582;0.8762;
1231.2000;0.3484;0.8596;
1231.5000;0.3541;0.8762;
1231.8000;0.3492;0.8573;
1232.1000;0.3500;0.8573;
1232.4000;0.3533;0.8715;
1232.7000;0.3484;0.8549;
1233.0000;0.3468;0.8478;
1233.3000;0.3468;0.8407;
1233.6000;0.3508;0.8454;
1233.9000;0.3476;0.8431;
1234.2000;0.3508;0.8431;
1234.5000;0.3492;0.8407;
1234.8000;0.3484;0.8360;
1235.1000;0.3492;0.8431;
1235.4000;0.3508;0.8502;
1235.7000;0.3500;0.8454;
1236.0000;0.3500;0.8431;
1236.3000;0.3492;0.8431;
1236.6000;0.3500;0.8431;
1236.9000;0.3500;0.8383;
1237.2000;0.3541;0.8525;
1237.5000;0.3500;0.8478;
1237.8000;0.3500;0.8407;
1238.1000;0.3525;0.8383;
1238.4000;0.3500;0.8241;
1238.7000;0.3468;0.8194;
1239.0000;0.3525;0.8312;
1239.3000;0.3516;0.8289;
1239.6000;0.3516;0.8265;
1239.9000;0.3525;0.8265;
1240.2000;0.3484;0.8146;
1240.5000;0.3500;0.8265;
1240.8000;0.3500;0.8289;
1241.1000;0.3492;0.8312;
1241.4000;0.3492;0.8265;
1241.7000;0.3484;0.8217;
1242.0000;0.3484;0.8265;
1242.3000;0.3508;0.8289;
1242.6000;0.3516;0.8289;
1242.9000;0.3508;0.8336;
1243.2000;0.3500;0.8312;
1243.5000;0.3492;0.8312;
1243.8000;0.3427;0.8052;
1244.1000;0.3492;0.8241;
1244.4000;0.3508;0.8265;
1244.7000;0.3484;0.8146;
1245.0000;0.3500;0.8217;
1245.3000;0.3451;0.8028;
1245.6000;0.3492;0.8217;
1245.9000;0.3508;0.8217;
1246.2000;0.3557;0.8265;
1246.5000;0.3508;0.8123;
1246.8000;0.3573;0.8383;
1247.1000;0.3492;0.8170;
1247.4000;0.3508;0.8289;
1247.7000;0.3500;0.8289;
1248.0000;0.3476;0.8265;
1248.3000;0.3476;0.8312;
1248.6000;0.3516;0.8336;
1248.9000;0.3500;0.8289;
1249.2000;0.3500;0.8170;
1249.5000;0.3508;0.8217;
1249.8000;0.3484;0.8170;
1250.1000;0.3484;0.8170;
1250.4000;0.3516;0.8241;
1250.7000;0.3500;0.8146;
1251.0000;0.3516;0.8052;
1251.3000;0.3573;0.8194;
1251.6000;0.3508;0.8099;
1251.9000;0.3492;0.8052;
1252.2000;0.3500;0.8123;
1252.5000;0.3484;0.8099;
1252.8000;0.3484;0.8194;
1253.1000;0.3468;0.8217;
1253.4000;0.3492;0.8336;
1253.7000;0.3492;0.8383;
1254.0000;0.3500;0.8336;
1254.3000;0.3492;0.8312;
1254.6000;0.3492;0.8265;
1254.9000;0.3492;0.8146;
1255.2000;0.3525;0.8289;
1255.5000;0.3500;0.8217;
1255.8000;0.3500;0.8217;
1256.1000;0.3500;0.8241;
1256.4000;0.3516;0.8265;
1256.7000;0.3500;0.8241;
1257.0000;0.3492;0.8241;
1257.3000;0.3492;0.8312;
1257.6000;0.3508;0.8383;
1257.9000;0.3492;0.8407;
1258.2000;0.3484;0.8336;
1258.5000;0.3435;0.8241;
1258.8000;0.3492;0.8360;
1259.1000;0.3516;0.8336;
1259.4000;0.3500;0.8265;
1259.7000;0.3508;0.8336;
1260.0000;0.3508;0.8454;
1260.3000;0.3468;0.8454;
1260.6000;0.3516;0.8549;
1260.9000;0.3533;0.8525;
1261.2000;0.3419;0.8289;
1261.5000;0.3492;0.8454;
1261.8000;0.3492;0.8478;
1262.1000;0.3508;0.8431;
1262.4000;0.3525;0.8478;
1262.7000;0.3476;0.8383;
1263.0000;0.3500;0.8502;
1263.3000;0.3492;0.8502;
1263.6000;0.3492;0.8454;
1263.9000;0.3484;0.8360;
1264.2000;0.3492;0.8336;
1264.5000;0.3492;0.8312;
1264.8000;0.3492;0.8407;
1265.1000;0.3516;0.8478;
1265.4000;0.3468;0.8431;
1265.7000;0.3516;0.8525;
1266.0000;0.3508;0.8454;
1266.3000;0.3508;0.8596;
1266.6000;0.3525;0.8644;
1266.9000;0.3500;0.8667;
1267.2000;0.3508;0.8715;
1267.5000;0.3533;0.8833;
1267.8000;0.3492;0.8620;
1268.1000;0.3484;0.8644;
1268.4000;0.3508;0.8573;
1268.7000;0.3500;0.8644;
1269.0000;0.3492;0.8620;
1269.3000;0.3451;0.8454;
1269.6000;0.3533;0.8667;
1269.9000;0.3468;0.8549;
1270.2000;0.3590;0.8928;
1270.5000;0.3533;0.8738;
1270.8000;0.3500;0.8573;
1271.1000;0.3492;0.8573;
1271.4000;0.3516;0.8620;
1271.7000;0.3533;0.8573;
1272.0000;0.3525;0.8596;
1272.3000;0.3500;0.8502;
1272.6000;0.3484;0.8502;
1272.9000;0.3500;0.8620;
1273.2000;0.3468;0.8478;
1273.5000;0.3476;0.8478;
1273.8000;0.3492;0.8596;
1274.1000;0.3468;0.8549;
1274.4000;0.3476;0.8431;
1274.7000;0.3484;0.8431;
1275.0000;0.3492;0.8478;
1275.3000;0.3500;0.8549;
1275.6000;0.3541;0.8596;
1275.9000;0.3500;0.8573;
1276.2000;0.3476;0.8573;
1276.5000;0.3484;0.8644;
1276.8000;0.3549;0.8881;
1277.1000;0.3484;0.8667;
1277.4000;0.3378;0.8431;
1277.7000;0.3500;0.8667;
1278.0000;0.3484;0.8573;
1278.3000;0.3468;0.8478;
1278.6000;0.3492;0.8525;
1278.9000;0.3492;0.8525;
1279.2000;0.3476;0.8478;
1279.5000;0.3484;0.8478;
1279.8000;0.3484;0.8525;
1280.1000;0.3468;0.8502;
1280.4000;0.3500;0.8620;
1280.7000;0.3500;0.8667;
1281.0000;0.3500;0.8573;
1281.3000;0.3492;0.8454;
1281.6000;0.3435;0.8312;
1281.9000;0.3508;0.8502;
1282.2000;0.3484;0.8525;
1282.5000;0.3500;0.8596;
1282.8000;0.3451;0.8407;
1283.1000;0.3508;0.8525;
1283.4000;0.3492;0.8549;
1283.7000;0.3460;0.8454;
1284.0000;0.3476;0.8360;
1284.3000;0.3468;0.8312;
1284.6000;0.3468;0.8217;
1284.9000;0.3508;0.8336;
1285.2000;0.3427;0.8170;
1285.5000;0.3492;0.8407;
1285.8000;0.3484;0.8478;
1286.1000;0.3508;0.8478;
1286.4000;0.3492;0.8383;
1286.7000;0.3557;0.8549;
1287.0000;0.3516;0.8431;
1287.3000;0.3533;0.8360;
1287.6000;0.3516;0.8478;
1287.9000;0.3492;0.8407;
1288.2000;0.3492;0.8478;
1288.5000;0.3411;0.8265;
1288.8000;0.3508;0.8431;
1289.1000;0.3484;0.8360;
1289.4000;0.3476;0.8289;
1289.7000;0.3484;0.8312;
1290.0000;0.3557;0.8596;
1290.3000;0.3484;0.8454;
1290.6000;0.3525;0.8502;
1290.9000;0.3443;0.8312;
1291.2000;0.3549;0.8502;
1291.5000;0.3500;0.8407;
1291.8000;0.3508;0.8454;
1292.1000;0.3500;0.8383;
1292.4000;0.3500;0.8431;
1292.7000;0.3508;0.8383;
1293.0000;0.3573;0.8596;
1293.3000;0.3508;0.8431;
1293.6000;0.3508;0.8502;
1293.9000;0.3492;0.8478;
1294.2000;0.3476;0.8383;
1294.5000;0.3533;0.8383;
1294.8000;0.3492;0.8360;
1295.1000;0.3492;0.8407;
1295.4000;0.3476;0.8431;
1295.7000;0.3484;0.8525;
1296.0000;0.3468;0.8431;
1296.3000;0.3508;0.8549;
1296.6000;0.3484;0.8478;
1296.9000;0.3533;0.8525;
1297.2000;0.3516;0.8502;
1297.5000;0.3500;0.8478;
1297.8000;0.3500;0.8502;
1298.1000;0.3492;0.8478;
1298.4000;0.3525;0.8525;
1298.7000;0.3500;0.8502;
1299.0000;0.3484;0.8383;
1299.3000;0.3508;0.8431;
1299.6000;0.3508;0.8454;
1299.9000;0.3525;0.8454;
1300.2000;0.3500;0.8454;
1300.5000;0.3516;0.8549;
1300.8000;0.3468;0.8478;
1301.1000;0.3508;0.8502;
1301.4000;0.3500;0.8478;
1301.7000;0.3484;0.8478;
1302.0000;0.3516;0.8573;
1302.3000;0.3557;0.8644;
1302.6000;0.3484;0.8525;
1302.9000;0.3508;0.8478;
1303.2000;0.3508;0.8383;
1303.5000;0.3508;0.8289;
1303.8000;0.3565;0.8454;
1304.1000;0.3492;0.8217;
1304.4000;0.3484;0.8170;
1304.7000;0.3508;0.8265;
1305.0000;0.3516;0.8312;
1305.3000;0.3484;0.8312;
1305.6000;0.3500;0.8265;
1305.9000;0.3500;0.8312;
1306.2000;0.3500;0.8407;
1306.5000;0.3516;0.8383;
1306.8000;0.3500;0.8360;
1307.1000;0.3573;0.8549;
1307.4000;0.3492;0.8336;
1307.7000;0.3492;0.8265;
1308.0000;0.3516;0.8407;
1308.3000;0.3573;0.8573;
1308.6000;0.3468;0.8312;
1308.9000;0.3500;0.8289;
1309.2000;0.3508;0.8217;
1309.5000;0.3500;0.8241;
1309.8000;0.3500;0.8289;
1310.1000;0.3492;0.8241;
1310.4000;0.3508;0.8289;
1310.7000;0.3492;0.8289;
1311.0000;0.3468;0.8241;
1311.3000;0.3484;0.8312;
1311.6000;0.3492;0.8431;
1311.9000;0.3435;0.8289;
1312.2000;0.3500;0.8383;
1312.5000;0.3386;0.8123;
1312.8000;0.3500;0.8454;
1313.1000;0.3468;0.8383;
1313.4000;0.3500;0.8502;
1313.7000;0.3516;0.8525;
1314.0000;0.3590;0.8667;
1314.3000;0.3508;0.8502;
1314.6000;0.3500;0.8620;
1314.9000;0.3573;0.8715;
1315.2000;0.3557;0.8573;
1315.5000;0.3476;0.8383;
1315.8000;0.3492;0.8502;
1316.1000;0.3484;0.8360;
1316.4000;0.3492;0.8336;
1316.7000;0.3500;0.8360;
1317.0000;0.3435;0.8194;
1317.3000;0.3492;0.8431;
1317.6000;0.3500;0.8549;
1317.9000;0.3484;0.8525;
1318.2000;0.3492;0.8525;
1318.5000;0.3492;0.8573;
1318.8000;0.3500;0.8549;
1319.1000;0.3460;0.8407;
1319.4000;0.3492;0.8407;
1319.7000;0.3460;0.8431;
1320.0000;0.3516;0.8549;
1320.3000;0.3427;0.8336;
1320.6000;0.3492;0.8502;
1320.9000;0.3460;0.8478;
1321.2000;0.3492;0.8383;
1321.5000;0.3492;0.8383;
1321.8000;0.3492;0.8383;
1322.1000;0.3492;0.8289;
1322.4000;0.3500;0.8383;
1322.7000;0.3492;0.8336;
1323.0000;0.3508;0.8336;
1323.3000;0.3492;0.8336;
1323.6000;0.3484;0.8383;
1323.9000;0.3484;0.8360;
1324.2000;0.3525;0.8431;
1324.5000;0.3468;0.8265;
1324.8000;0.3492;0.8360;
1325.1000;0.3508;0.8454;
1325.4000;0.3476;0.8383;
1325.7000;0.3484;0.8454;
1326.0000;0.3508;0.8383;
1326.3000;0.3468;0.8265;
1326.6000;0.3476;0.8383;
1326.9000;0.3508;0.8454;
1327.2000;0.3492;0.8407;
1327.5000;0.3508;0.8454;
1327.8000;0.3468;0.8336;
1328.1000;0.3516;0.8454;
1328.4000;0.3508;0.8407;
1328.7000;0.3500;0.8431;
1329.0000;0.3516;0.8407;
1329.3000;0.3484;0.8312;
1329.6000;0.3500;0.8336;
1329.9000;0.3500;0.8265;
1330.2000;0.3525;0.8289;
1330.5000;0.3484;0.8194;
1330.8000;0.3492;0.8217;
1331.1000;0.3500;0.8217;
1331.4000;0.3525;0.8360;
1331.7000;0.3508;0.8383;
1332.0000;0.3484;0.8312;
1332.3000;0.3460;0.8241;
1332.6000;0.3525;0.8431;
1332.9000;0.3484;0.8241;
1333.2000;0.3516;0.8241;
1333.5000;0.3492;0.8241;
1333.8000;0.3484;0.8194;
1334.1000;0.3516;0.8265;
1334.4000;0.3508;0.8312;
1334.7000;0.3516;0.8336;
1335.0000;0.3476;0.8217;
1335.3000;0.3516;0.8312;
1335.6000;0.3484;0.8336;
1335.9000;0.3492;0.8431;
1336.2000;0.3557;0.8502;
1336.5000;0.3508;0.8383;
1336.8000;0.3508;0.8407;
1337.1000;0.3354;0.8052;
1337.4000;0.3557;0.8573;
1337.7000;0.3500;0.8407;
1338.0000;0.3565;0.8573;
1338.3000;0.3492;0.8360;
1338.6000;0.3525;0.8360;
1338.9000;0.3492;0.8336;
1339.2000;0.3484;0.8360;
1339.5000;0.3500;0.8217;
1339.8000;0.3492;0.8217;
1340.1000;0.3476;0.8312;
1340.4000;0.3500;0.8383;
1340.7000;0.3484;0.8289;
1341.0000;0.3492;0.8289;
1341.3000;0.3484;0.8265;
1341.6000;0.3508;0.8407;
1341.9000;0.3476;0.8383;
1342.2000;0.3516;0.8454;
1342.5000;0.3484;0.8360;
1342.8000;0.3500;0.8407;
1343.1000;0.3525;0.8525;
1343.4000;0.3590;0.8596;
1343.7000;0.3500;0.8360;
1344.0000;0.3508;0.8407;
1344.3000;0.3500;0.8360;
1344.6000;0.3508;0.8431;
1344.9000;0.3460;0.8407;
1345.2000;0.3484;0.8478;
1345.5000;0.3516;0.8596;
1345.8000;0.3516;0.8620;
1346.1000;0.3484;0.8573;
1346.4000;0.3614;0.8786;
1346.7000;0.3614;0.8738;
1347.0000;0.3492;0.8407;
1347.3000;0.3492;0.8360;
1347.6000;0.3500;0.8312;
1347.9000;0.3500;0.8336;
1348.2000;0.3508;0.8312;
1348.5000;0.3492;0.8241;
1348.8000;0.3525;0.8407;
1349.1000;0.3508;0.8407;
1349.4000;0.3500;0.8265;
1349.7000;0.3443;0.8028;
1350.0000;0.3500;0.8170;
1350.3000;0.3484;0.8170;
1350.6000;0.3476;0.8099;
1350.9000;0.3476;0.8123;
1351.2000;0.3492;0.8194;
1351.5000;0.3484;0.8312;
1351.8000;0.3411;0.8194;
1352.1000;0.3484;0.8360;
1352.4000;0.3451;0.8336;
1352.7000;0.3484;0.8360;
1353.0000;0.3500;0.8407;
1353.3000;0.3508;0.8431;
1353.6000;0.3549;0.8478;
1353.9000;0.3484;0.8360;
1354.2000;0.3500;0.8431;
1354.5000;0.3500;0.8454;
1354.8000;0.3460;0.8478;
1355.1000;0.3476;0.8525;
1355.4000;0.3468;0.8596;
1355.7000;0.3500;0.8596;
1356.0000;0.3500;0.8525;
1356.3000;0.3443;0.8407;
1356.6000;0.3492;0.8573;
1356.9000;0.3492;0.8573;
1357.2000;0.3525;0.8596;
1357.5000;0.3516;0.8596;
1357.8000;0.3492;0.8549;
1358.1000;0.3500;0.8549;
1358.4000;0.3525;0.8573;
1358.7000;0.3427;0.8360;
1359.0000;0.3508;0.8478;
1359.3000;0.3484;0.8407;
1359.6000;0.3533;0.8573;
1359.9000;0.3614;0.8762;
1360.2000;0.3476;0.8407;
1360.5000;0.3468;0.8407;
1360.8000;0.3500;0.8454;
1361.1000;0.3435;0.8265;
1361.4000;0.3573;0.8620;
1361.7000;0.3484;0.8360;
1362.0000;0.3476;0.8383;
1362.3000;0.3476;0.8312;
1362.6000;0.3451;0.8265;
1362.9000;0.3492;0.8383;
1363.2000;0.3476;0.8407;
1363.5000;0.3508;0.8502;
1363.8000;0.3476;0.8478;
1364.1000;0.3484;0.8431;
1364.4000;0.3541;0.8691;
1364.7000;0.3508;0.8644;
1365.0000;0.3476;0.8502;
1365.3000;0.3525;0.8549;
1365.6000;0.3533;0.8573;
1365.9000;0.3508;0.8620;
1366.2000;0.3500;0.8644;
1366.5000;0.3492;0.8620;
1366.8000;0.3492;0.8644;
1367.1000;0.3516;0.8573;
1367.4000;0.3500;0.8573;
1367.7000;0.3492;0.8620;
1368.0000;0.3492;0.8573;
1368.3000;0.3500;0.8454;
1368.6000;0.3516;0.8454;
1368.9000;0.3468;0.8383;
1369.2000;0.3492;0.8336;
1369.5000;0.3549;0.8525;
1369.8000;0.3386;0.8146;
1370.1000;0.3516;0.8478;
1370.4000;0.3541;0.8596;
1370.7000;0.3492;0.8549;
1371.0000;0.3500;0.8573;
1371.3000;0.3533;0.8644;
1371.6000;0.3468;0.8454;
1371.9000;0.3508;0.8549;
1372.2000;0.3500;0.8549;
1372.5000;0.3476;0.8549;
1372.8000;0.3500;0.8644;
1373.1000;0.3484;0.8667;
1373.4000;0.3492;0.8549;
1373.7000;0.3500;0.8596;
1374.0000;0.3508;0.8644;
1374.3000;0.3500;0.8620;
1374.6000;0.3492;0.8620;
1374.9000;0.3500;0.8549;
1375.2000;0.3492;0.8596;
1375.5000;0.3476;0.8525;
1375.8000;0.3476;0.8525;
1376.1000;0.3492;0.8549;
1376.4000;0.3516;0.8573;
1376.7000;0.3484;0.8549;
1377.0000;0.3500;0.8620;
1377.3000;0.3484;0.8573;
1377.6000;0.3508;0.8549;
1377.9000;0.3484;0.8478;
1378.2000;0.3492;0.8431;
1378.5000;0.3500;0.8478;
1378.8000;0.3516;0.8620;
1379.1000;0.3500;0.8596;
1379.4000;0.3516;0.8644;
1379.7000;0.3525;0.8667;
1380.0000;0.3516;0.8620;
1380.3000;0.3468;0.8478;
1380.6000;0.3516;0.8620;
1380.9000;0.3492;0.8596;
1381.2000;0.3492;0.8549;
1381.5000;0.3508;0.8549;
1381.8000;0.3500;0.8525;
1382.1000;0.3492;0.8431;
1382.4000;0.3492;0.8407;
1382.7000;0.3484;0.8431;
1383.0000;0.3500;0.8502;
1383.3000;0.3573;0.8620;
1383.6000;0.3500;0.8549;
1383.9000;0.3508;0.8573;
1384.2000;0.3508;0.8573;
1384.5000;0.3476;0.8502;
1384.8000;0.3492;0.8478;
1385.1000;0.3525;0.8620;
1385.4000;0.3508;0.8596;
1385.7000;0.3500;0.8596;
1386.0000;0.3500;0.8620;
1386.3000;0.3468;0.8573;
1386.6000;0.3476;0.8525;
1386.9000;0.3500;0.8596;
1387.2000;0.3476;0.8502;
1387.5000;0.3516;0.8502;
1387.8000;0.3500;0.8502;
1388.1000;0.3500;0.8502;
1388.4000;0.3508;0.8525;
1388.7000;0.3500;0.8407;
1389.0000;0.3516;0.8360;
1389.3000;0.3508;0.8431;
1389.6000;0.3508;0.8573;
1389.9000;0.3508;0.8454;
1390.2000;0.3468;0.8312;
1390.5000;0.3525;0.8360;
1390.8000;0.3500;0.8312;
1391.1000;0.3492;0.8336;
1391.4000;0.3500;0.8383;
1391.7000;0.3508;0.8502;
1392.0000;0.3500;0.8454;
1392.3000;0.3516;0.8478;
1392.6000;0.3484;0.8454;
1392.9000;0.3500;0.8383;
1393.2000;0.3500;0.8431;
1393.5000;0.3500;0.8478;
1393.8000;0.3484;0.8502;
1394.1000;0.3476;0.8502;
1394.4000;0.3516;0.8573;
1394.7000;0.3508;0.8454;
1395.0000;0.3516;0.8454;
1395.3000;0.3533;0.8549;
1395.6000;0.3500;0.8620;
1395.9000;0.3484;0.8525;
1396.2000;0.3508;0.8596;
1396.5000;0.3492;0.8549;
1396.8000;0.3508;0.8549;
1397.1000;0.3500;0.8502;
1397.4000;0.3460;0.8360;
1397.7000;0.3525;0.8431;
1398.0000;0.3557;0.8431;
1398.3000;0.3468;0.8194;
1398.6000;0.3484;0.8312;
1398.9000;0.3500;0.8407;
1399.2000;0.3500;0.8454;
1399.5000;0.3500;0.8454;
1399.8000;0.3549;0.8454;
