time/ms;Fluo/V;P700 deltaI/I x10³;
-199.8000;0.4811;0.6820;
-199.5000;0.4811;0.6868;
-199.2000;0.4786;0.6797;
-198.9000;0.4827;0.6891;
-198.6000;0.4778;0.6820;
-198.3000;0.4803;0.6868;
-198.0000;0.4803;0.6797;
-197.7000;0.4803;0.6844;
-197.4000;0.4794;0.6820;
-197.1000;0.4794;0.6891;
-196.8000;0.4786;0.6820;
-196.5000;0.4794;0.6891;
-196.2000;0.4786;0.6868;
-195.9000;0.4803;0.6915;
-195.6000;0.4803;0.6868;
-195.3000;0.4811;0.6820;
-195.0000;0.4819;0.6797;
-194.7000;0.4803;0.6726;
-194.4000;0.4811;0.6655;
-194.1000;0.4794;0.6678;
-193.8000;0.4778;0.6631;
-193.5000;0.4811;0.6655;
-193.2000;0.4794;0.6631;
-192.9000;0.4778;0.6583;
-192.6000;0.4786;0.6702;
-192.3000;0.4786;0.6702;
-192.0000;0.4843;0.6820;
-191.7000;0.4721;0.6465;
-191.4000;0.4803;0.6631;
-191.1000;0.4786;0.6655;
-190.8000;0.4803;0.6631;
-190.5000;0.4794;0.6678;
-190.2000;0.4786;0.6726;
-189.9000;0.4770;0.6678;
-189.6000;0.4794;0.6773;
-189.3000;0.4900;0.7152;
-189.0000;0.4762;0.6749;
-188.7000;0.4778;0.6702;
-188.4000;0.4778;0.6726;
-188.1000;0.4794;0.6726;
-187.8000;0.4803;0.6607;
-187.5000;0.4794;0.6583;
-187.2000;0.4770;0.6512;
-186.9000;0.4778;0.6678;
-186.6000;0.4803;0.6844;
-186.3000;0.4803;0.6915;
-186.0000;0.4786;0.6820;
-185.7000;0.4778;0.6868;
-185.4000;0.4786;0.6915;
-185.1000;0.4770;0.6820;
-184.8000;0.4794;0.6844;
-184.5000;0.4770;0.6844;
-184.2000;0.4786;0.6868;
-183.9000;0.4811;0.6820;
-183.6000;0.4803;0.6749;
-183.3000;0.4851;0.6844;
-183.0000;0.4778;0.6655;
-182.7000;0.4786;0.6749;
-182.4000;0.4762;0.6726;
-182.1000;0.4754;0.6678;
-181.8000;0.4786;0.6820;
-181.5000;0.4794;0.6915;
-181.2000;0.4827;0.7010;
-180.9000;0.4786;0.6844;
-180.6000;0.4762;0.6773;
-180.3000;0.4778;0.6797;
-180.0000;0.4713;0.6726;
-179.7000;0.4786;0.6868;
-179.4000;0.4729;0.6797;
-179.1000;0.4762;0.6868;
-178.8000;0.4762;0.6797;
-178.5000;0.4770;0.6844;
-178.2000;0.4819;0.7010;
-177.9000;0.4778;0.6915;
-177.6000;0.4794;0.6915;
-177.3000;0.4762;0.6939;
-177.0000;0.4746;0.6868;
-176.7000;0.4754;0.6773;
-176.4000;0.4770;0.6773;
-176.1000;0.4737;0.6678;
-175.8000;0.4770;0.6749;
-175.5000;0.4786;0.6773;
-175.2000;0.4794;0.6749;
-174.9000;0.4786;0.6749;
-174.6000;0.4754;0.6655;
-174.3000;0.4770;0.6607;
-174.0000;0.4770;0.6631;
-173.7000;0.4746;0.6726;
-173.4000;0.4794;0.6844;
-173.1000;0.4770;0.6820;
-172.8000;0.4778;0.6868;
-172.5000;0.4697;0.6678;
-172.2000;0.4770;0.6891;
-171.9000;0.4754;0.6820;
-171.6000;0.4762;0.6749;
-171.3000;0.4770;0.6868;
-171.0000;0.4762;0.6820;
-170.7000;0.4721;0.6773;
-170.4000;0.4762;0.6915;
-170.1000;0.4762;0.6962;
-169.8000;0.4737;0.6986;
-169.5000;0.4746;0.7010;
-169.2000;0.4737;0.6891;
-168.9000;0.4754;0.6939;
-168.6000;0.4737;0.6797;
-168.3000;0.4754;0.6891;
-168.0000;0.4770;0.6868;
-167.7000;0.4754;0.6844;
-167.4000;0.4737;0.6986;
-167.1000;0.4778;0.7033;
-166.8000;0.4762;0.7057;
-166.5000;0.4746;0.7104;
-166.2000;0.4762;0.7081;
-165.9000;0.4737;0.6939;
-165.6000;0.4754;0.6915;
-165.3000;0.4721;0.6915;
-165.0000;0.4778;0.7057;
-164.7000;0.4737;0.6915;
-164.4000;0.4770;0.7010;
-164.1000;0.4729;0.6891;
-163.8000;0.4754;0.6915;
-163.5000;0.4762;0.6939;
-163.2000;0.4737;0.6915;
-162.9000;0.4746;0.6891;
-162.6000;0.4729;0.6868;
-162.3000;0.4705;0.6773;
-162.0000;0.4754;0.6962;
-161.7000;0.4729;0.6891;
-161.4000;0.4754;0.6891;
-161.1000;0.4754;0.6773;
-160.8000;0.4737;0.6702;
-160.5000;0.4737;0.6749;
-160.2000;0.4729;0.6797;
-159.9000;0.4746;0.6891;
-159.6000;0.4770;0.7010;
-159.3000;0.4754;0.7057;
-159.0000;0.4729;0.6962;
-158.7000;0.4754;0.7010;
-158.4000;0.4770;0.7033;
-158.1000;0.4746;0.7010;
-157.8000;0.4729;0.7033;
-157.5000;0.4746;0.7033;
-157.2000;0.4746;0.6986;
-156.9000;0.4713;0.6986;
-156.6000;0.4713;0.6915;
-156.3000;0.4729;0.6844;
-156.0000;0.4754;0.7033;
-155.7000;0.4705;0.6797;
-155.4000;0.4746;0.6844;
-155.1000;0.4754;0.6915;
-154.8000;0.4754;0.6797;
-154.5000;0.4729;0.6797;
-154.2000;0.4746;0.6962;
-153.9000;0.4746;0.7057;
-153.6000;0.4721;0.6962;
-153.3000;0.4746;0.6844;
-153.0000;0.4705;0.6797;
-152.7000;0.4746;0.6915;
-152.4000;0.4737;0.6939;
-152.1000;0.4729;0.6868;
-151.8000;0.4721;0.6868;
-151.5000;0.4721;0.6915;
-151.2000;0.4754;0.6962;
-150.9000;0.4762;0.7033;
-150.6000;0.4697;0.6891;
-150.3000;0.4770;0.6986;
-150.0000;0.4746;0.6915;
-149.7000;0.4729;0.6797;
-149.4000;0.4729;0.6749;
-149.1000;0.4729;0.6749;
-148.8000;0.4664;0.6702;
-148.5000;0.4729;0.6939;
-148.2000;0.4721;0.6915;
-147.9000;0.4721;0.6891;
-147.6000;0.4721;0.6986;
-147.3000;0.4737;0.6986;
-147.0000;0.4770;0.7081;
-146.7000;0.4729;0.6986;
-146.4000;0.4705;0.6868;
-146.1000;0.4737;0.6962;
-145.8000;0.4737;0.6962;
-145.5000;0.4746;0.6962;
-145.2000;0.4729;0.6962;
-144.9000;0.4737;0.6962;
-144.6000;0.4746;0.6962;
-144.3000;0.4713;0.6891;
-144.0000;0.4713;0.7010;
-143.7000;0.4729;0.7010;
-143.4000;0.4705;0.6986;
-143.1000;0.4713;0.6986;
-142.8000;0.4705;0.6939;
-142.5000;0.4721;0.6891;
-142.2000;0.4721;0.6868;
-141.9000;0.4721;0.6820;
-141.6000;0.4729;0.6915;
-141.3000;0.4697;0.6844;
-141.0000;0.4721;0.6891;
-140.7000;0.4770;0.6915;
-140.4000;0.4737;0.6820;
-140.1000;0.4835;0.7057;
-139.8000;0.4754;0.6844;
-139.5000;0.4737;0.6868;
-139.2000;0.4705;0.6797;
-138.9000;0.4713;0.6773;
-138.6000;0.4713;0.6797;
-138.3000;0.4697;0.6749;
-138.0000;0.4729;0.6915;
-137.7000;0.4713;0.6891;
-137.4000;0.4713;0.6820;
-137.1000;0.4737;0.6797;
-136.8000;0.4729;0.6726;
-136.5000;0.4737;0.6726;
-136.2000;0.4697;0.6583;
-135.9000;0.4729;0.6678;
-135.6000;0.4737;0.6749;
-135.3000;0.4656;0.6536;
-135.0000;0.4721;0.6820;
-134.7000;0.4721;0.6844;
-134.4000;0.4713;0.6939;
-134.1000;0.4729;0.6915;
-133.8000;0.4697;0.6891;
-133.5000;0.4689;0.6962;
-133.2000;0.4689;0.7033;
-132.9000;0.4697;0.7128;
-132.6000;0.4705;0.7081;
-132.3000;0.4672;0.6939;
-132.0000;0.4721;0.7152;
-131.7000;0.4697;0.7128;
-131.4000;0.4713;0.7223;
-131.1000;0.4721;0.7199;
-130.8000;0.4713;0.7081;
-130.5000;0.4746;0.7128;
-130.2000;0.4705;0.7057;
-129.9000;0.4713;0.7104;
-129.6000;0.4721;0.7104;
-129.3000;0.4729;0.7152;
-129.0000;0.4713;0.7152;
-128.7000;0.4713;0.7152;
-128.4000;0.4705;0.7033;
-128.1000;0.4689;0.7033;
-127.8000;0.4713;0.7033;
-127.5000;0.4664;0.6939;
-127.2000;0.4697;0.7057;
-126.9000;0.4697;0.7128;
-126.6000;0.4713;0.7223;
-126.3000;0.4681;0.7128;
-126.0000;0.4697;0.7199;
-125.7000;0.4721;0.7270;
-125.4000;0.4672;0.7033;
-125.1000;0.4721;0.7033;
-124.8000;0.4705;0.7010;
-124.5000;0.4656;0.6797;
-124.2000;0.4705;0.7081;
-123.9000;0.4803;0.7483;
-123.6000;0.4737;0.7199;
-123.3000;0.4705;0.7081;
-123.0000;0.4762;0.7199;
-122.7000;0.4754;0.7152;
-122.4000;0.4746;0.7104;
-122.1000;0.4615;0.6726;
-121.8000;0.4697;0.6891;
-121.5000;0.4811;0.7152;
-121.2000;0.4762;0.7033;
-120.9000;0.4681;0.6820;
-120.6000;0.4697;0.6939;
-120.3000;0.4729;0.7033;
-120.0000;0.4697;0.6962;
-119.7000;0.4697;0.7033;
-119.4000;0.4689;0.7010;
-119.1000;0.4681;0.6986;
-118.8000;0.4729;0.7010;
-118.5000;0.4689;0.6939;
-118.2000;0.4681;0.6891;
-117.9000;0.4689;0.6844;
-117.6000;0.4697;0.6678;
-117.3000;0.4689;0.6678;
-117.0000;0.4762;0.6891;
-116.7000;0.4697;0.6726;
-116.4000;0.4705;0.6820;
-116.1000;0.4656;0.6607;
-115.8000;0.4705;0.6678;
-115.5000;0.4713;0.6726;
-115.2000;0.4681;0.6749;
-114.9000;0.4697;0.6844;
-114.6000;0.4705;0.6891;
-114.3000;0.4656;0.6749;
-114.0000;0.4697;0.6868;
-113.7000;0.4681;0.6891;
-113.4000;0.4681;0.6915;
-113.1000;0.4705;0.6986;
-112.8000;0.4689;0.6820;
-112.5000;0.4640;0.6702;
-112.2000;0.4664;0.6868;
-111.9000;0.4672;0.6773;
-111.6000;0.4697;0.6868;
-111.3000;0.4681;0.6891;
-111.0000;0.4713;0.6939;
-110.7000;0.4697;0.6915;
-110.4000;0.4681;0.6868;
-110.1000;0.4689;0.6797;
-109.8000;0.4705;0.6844;
-109.5000;0.4713;0.6820;
-109.2000;0.4697;0.6820;
-108.9000;0.4705;0.6820;
-108.6000;0.4697;0.6773;
-108.3000;0.4697;0.6820;
-108.0000;0.4656;0.6844;
-107.7000;0.4656;0.6986;
-107.4000;0.4681;0.6986;
-107.1000;0.4672;0.6939;
-106.8000;0.4689;0.6962;
-106.5000;0.4681;0.6939;
-106.2000;0.4672;0.6844;
-105.9000;0.4721;0.7010;
-105.6000;0.4681;0.6868;
-105.3000;0.4689;0.6844;
-105.0000;0.4697;0.6820;
-104.7000;0.4689;0.6844;
-104.4000;0.4689;0.6868;
-104.1000;0.4713;0.6891;
-103.8000;0.4689;0.6844;
-103.5000;0.4591;0.6418;
-103.2000;0.4648;0.6631;
-102.9000;0.4689;0.6726;
-102.6000;0.4762;0.6962;
-102.3000;0.4681;0.6773;
-102.0000;0.4664;0.6726;
-101.7000;0.4681;0.6820;
-101.4000;0.4681;0.6773;
-101.1000;0.4672;0.6773;
-100.8000;0.4713;0.6915;
-100.5000;0.4705;0.6891;
-100.2000;0.4713;0.6868;
-99.9000;0.4713;0.6868;
-99.6000;0.4697;0.6844;
-99.3000;0.4656;0.6820;
-99.0000;0.4681;0.6939;
-98.7000;0.4746;0.7033;
-98.4000;0.4615;0.6749;
-98.1000;0.4681;0.6844;
-97.8000;0.4664;0.6631;
-97.5000;0.4672;0.6702;
-97.2000;0.4672;0.6655;
-96.9000;0.4746;0.6868;
-96.6000;0.4672;0.6726;
-96.3000;0.4640;0.6726;
-96.0000;0.4656;0.6726;
-95.7000;0.4640;0.6678;
-95.4000;0.4672;0.6726;
-95.1000;0.4640;0.6655;
-94.8000;0.4664;0.6702;
-94.5000;0.4681;0.6726;
-94.2000;0.4697;0.6820;
-93.9000;0.4689;0.6773;
-93.6000;0.4664;0.6797;
-93.3000;0.4672;0.6891;
-93.0000;0.4664;0.6868;
-92.7000;0.4640;0.6844;
-92.4000;0.4689;0.6915;
-92.1000;0.4672;0.6820;
-91.8000;0.4672;0.6749;
-91.5000;0.4664;0.6749;
-91.2000;0.4656;0.6749;
-90.9000;0.4689;0.6820;
-90.6000;0.4689;0.6844;
-90.3000;0.4656;0.6749;
-90.0000;0.4672;0.6939;
-89.7000;0.4664;0.7033;
-89.4000;0.4640;0.6986;
-89.1000;0.4656;0.6962;
-88.8000;0.4689;0.7010;
-88.5000;0.4664;0.7057;
-88.2000;0.4689;0.7104;
-87.9000;0.4656;0.6986;
-87.6000;0.4656;0.6891;
-87.3000;0.4713;0.6986;
-87.0000;0.4656;0.6820;
-86.7000;0.4624;0.6844;
-86.4000;0.4681;0.6891;
-86.1000;0.4689;0.6868;
-85.8000;0.4656;0.6797;
-85.5000;0.4697;0.6915;
-85.2000;0.4648;0.6868;
-84.9000;0.4648;0.6844;
-84.6000;0.4697;0.7010;
-84.3000;0.4664;0.6962;
-84.0000;0.4664;0.7033;
-83.7000;0.4615;0.6868;
-83.4000;0.4656;0.6962;
-83.1000;0.4640;0.6939;
-82.8000;0.4656;0.7010;
-82.5000;0.4640;0.6868;
-82.2000;0.4681;0.6962;
-81.9000;0.4656;0.6820;
-81.6000;0.4591;0.6631;
-81.3000;0.4624;0.6678;
-81.0000;0.4664;0.6702;
-80.7000;0.4664;0.6820;
-80.4000;0.4624;0.6773;
-80.1000;0.4632;0.6797;
-79.8000;0.4664;0.6868;
-79.5000;0.4656;0.6915;
-79.2000;0.4607;0.6820;
-78.9000;0.4656;0.6962;
-78.6000;0.4640;0.6986;
-78.3000;0.4664;0.7057;
-78.0000;0.4656;0.6962;
-77.7000;0.4705;0.7033;
-77.4000;0.4640;0.6820;
-77.1000;0.4640;0.6891;
-76.8000;0.4648;0.6891;
-76.5000;0.4632;0.6844;
-76.2000;0.4648;0.6962;
-75.9000;0.4648;0.7033;
-75.6000;0.4656;0.7081;
-75.3000;0.4624;0.6986;
-75.0000;0.4648;0.7033;
-74.7000;0.4632;0.7104;
-74.4000;0.4640;0.7081;
-74.1000;0.4648;0.7104;
-73.8000;0.4648;0.7081;
-73.5000;0.4648;0.7104;
-73.2000;0.4640;0.7128;
-72.9000;0.4664;0.7033;
-72.6000;0.4624;0.6915;
-72.3000;0.4664;0.7033;
-72.0000;0.4632;0.6939;
-71.7000;0.4648;0.6986;
-71.4000;0.4607;0.6749;
-71.1000;0.4632;0.6891;
-70.8000;0.4689;0.6962;
-70.5000;0.4640;0.6891;
-70.2000;0.4648;0.6844;
-69.9000;0.4648;0.6678;
-69.6000;0.4664;0.6868;
-69.3000;0.4648;0.6915;
-69.0000;0.4632;0.6939;
-68.7000;0.4624;0.6939;
-68.4000;0.4640;0.6986;
-68.1000;0.4624;0.7010;
-67.8000;0.4624;0.7033;
-67.5000;0.4640;0.7057;
-67.2000;0.4632;0.6962;
-66.9000;0.4632;0.6962;
-66.6000;0.4648;0.7010;
-66.3000;0.4632;0.6986;
-66.0000;0.4664;0.7199;
-65.7000;0.4615;0.7010;
-65.4000;0.4640;0.7128;
-65.1000;0.4624;0.7152;
-64.8000;0.4640;0.7199;
-64.5000;0.4656;0.7152;
-64.2000;0.4632;0.7104;
-63.9000;0.4640;0.7104;
-63.6000;0.4624;0.7104;
-63.3000;0.4681;0.7223;
-63.0000;0.4632;0.7057;
-62.7000;0.4640;0.7033;
-62.4000;0.4640;0.7104;
-62.1000;0.4624;0.7033;
-61.8000;0.4624;0.7057;
-61.5000;0.4648;0.7128;
-61.2000;0.4632;0.7010;
-60.9000;0.4624;0.6891;
-60.6000;0.4640;0.6986;
-60.3000;0.4640;0.6939;
-60.0000;0.4615;0.6891;
-59.7000;0.4632;0.6962;
-59.4000;0.4632;0.6962;
-59.1000;0.4632;0.6820;
-58.8000;0.4624;0.6726;
-58.5000;0.4632;0.6820;
-58.2000;0.4632;0.6797;
-57.9000;0.4689;0.7033;
-57.6000;0.4632;0.6939;
-57.3000;0.4615;0.6962;
-57.0000;0.4615;0.6939;
-56.7000;0.4632;0.6962;
-56.4000;0.4640;0.6939;
-56.1000;0.4624;0.6915;
-55.8000;0.4632;0.6891;
-55.5000;0.4632;0.6962;
-55.2000;0.4632;0.6844;
-54.9000;0.4632;0.6868;
-54.6000;0.4477;0.6441;
-54.3000;0.4599;0.6868;
-54.0000;0.4599;0.6820;
-53.7000;0.4713;0.7033;
-53.4000;0.4624;0.6726;
-53.1000;0.4607;0.6702;
-52.8000;0.4640;0.6820;
-52.5000;0.4615;0.6749;
-52.2000;0.4583;0.6583;
-51.9000;0.4632;0.6702;
-51.6000;0.4624;0.6844;
-51.3000;0.4599;0.6915;
-51.0000;0.4624;0.6986;
-50.7000;0.4615;0.6868;
-50.4000;0.4624;0.6915;
-50.1000;0.4624;0.6891;
-49.8000;0.4624;0.6797;
-49.5000;0.4624;0.6797;
-49.2000;0.4632;0.6939;
-48.9000;0.4615;0.6962;
-48.6000;0.4624;0.7057;
-48.3000;0.4656;0.7104;
-48.0000;0.4615;0.7010;
-47.7000;0.4632;0.6962;
-47.4000;0.4624;0.6844;
-47.1000;0.4624;0.6939;
-46.8000;0.4615;0.6939;
-46.5000;0.4615;0.7033;
-46.2000;0.4640;0.7104;
-45.9000;0.4624;0.7081;
-45.6000;0.4624;0.7057;
-45.3000;0.4615;0.7010;
-45.0000;0.4591;0.6915;
-44.7000;0.4599;0.7033;
-44.4000;0.4583;0.6962;
-44.1000;0.4575;0.6868;
-43.8000;0.4624;0.6962;
-43.5000;0.4640;0.6986;
-43.2000;0.4599;0.6797;
-42.9000;0.4624;0.6797;
-42.6000;0.4615;0.6820;
-42.3000;0.4624;0.6868;
-42.0000;0.4615;0.6726;
-41.7000;0.4615;0.6749;
-41.4000;0.4591;0.6702;
-41.1000;0.4615;0.6844;
-40.8000;0.4607;0.6773;
-40.5000;0.4599;0.6749;
-40.2000;0.4607;0.6749;
-39.9000;0.4615;0.6773;
-39.6000;0.4615;0.6726;
-39.3000;0.4672;0.6820;
-39.0000;0.4615;0.6702;
-38.7000;0.4615;0.6773;
-38.4000;0.4615;0.6820;
-38.1000;0.4607;0.6820;
-37.8000;0.4624;0.6797;
-37.5000;0.4607;0.6726;
-37.2000;0.4615;0.6773;
-36.9000;0.4615;0.6726;
-36.6000;0.4607;0.6797;
-36.3000;0.4624;0.6726;
-36.0000;0.4615;0.6773;
-35.7000;0.4550;0.6607;
-35.4000;0.4664;0.6986;
-35.1000;0.4615;0.6820;
-34.8000;0.4640;0.6915;
-34.5000;0.4697;0.7057;
-34.2000;0.4599;0.6773;
-33.9000;0.4615;0.6915;
-33.6000;0.4656;0.6915;
-33.3000;0.4624;0.6844;
-33.0000;0.4575;0.6655;
-32.7000;0.4591;0.6655;
-32.4000;0.4607;0.6749;
-32.1000;0.4615;0.6868;
-31.8000;0.4599;0.6820;
-31.5000;0.4648;0.6844;
-31.2000;0.4599;0.6678;
-30.9000;0.4615;0.6749;
-30.6000;0.4591;0.6773;
-30.3000;0.4591;0.6773;
-30.0000;0.4575;0.6773;
-29.7000;0.4591;0.6820;
-29.4000;0.4615;0.6797;
-29.1000;0.4591;0.6773;
-28.8000;0.4583;0.6820;
-28.5000;0.4591;0.6749;
-28.2000;0.4510;0.6536;
-27.9000;0.4583;0.6678;
-27.6000;0.4607;0.6749;
-27.3000;0.4632;0.6868;
-27.0000;0.4599;0.6702;
-26.7000;0.4615;0.6749;
-26.4000;0.4607;0.6702;
-26.1000;0.4615;0.6773;
-25.8000;0.4599;0.6820;
-25.5000;0.4607;0.6868;
-25.2000;0.4615;0.6939;
-24.9000;0.4591;0.6891;
-24.6000;0.4599;0.6962;
-24.3000;0.4591;0.6915;
-24.0000;0.4599;0.6915;
-23.7000;0.4591;0.6939;
-23.4000;0.4599;0.7010;
-23.1000;0.4599;0.6986;
-22.8000;0.4607;0.6962;
-22.5000;0.4607;0.7104;
-22.2000;0.4615;0.7223;
-21.9000;0.4591;0.7033;
-21.6000;0.4599;0.6915;
-21.3000;0.4607;0.7010;
-21.0000;0.4607;0.6986;
-20.7000;0.4599;0.6868;
-20.4000;0.4599;0.6726;
-20.1000;0.4591;0.6631;
-19.8000;0.4591;0.6631;
-19.5000;0.4583;0.6655;
-19.2000;0.4583;0.6749;
-18.9000;0.4591;0.6749;
-18.6000;0.4550;0.6560;
-18.3000;0.4591;0.6631;
-18.0000;0.4567;0.6631;
-17.7000;0.4591;0.6702;
-17.4000;0.4591;0.6655;
-17.1000;0.4591;0.6655;
-16.8000;0.4542;0.6370;
-16.5000;0.4591;0.6536;
-16.2000;0.4591;0.6655;
-15.9000;0.4583;0.6631;
-15.6000;0.4624;0.6702;
-15.3000;0.4607;0.6655;
-15.0000;0.4591;0.6631;
-14.7000;0.4591;0.6560;
-14.4000;0.4591;0.6560;
-14.1000;0.4591;0.6655;
-13.8000;0.4599;0.6631;
-13.5000;0.4534;0.6583;
-13.2000;0.4583;0.6773;
-12.9000;0.4583;0.6773;
-12.6000;0.4558;0.6797;
-12.3000;0.4477;0.6512;
-12.0000;0.4591;0.6844;
-11.7000;0.4526;0.6583;
-11.4000;0.4583;0.6749;
-11.1000;0.4575;0.6797;
-10.8000;0.4583;0.6915;
-10.5000;0.4583;0.6962;
-10.2000;0.4583;0.6986;
-9.9000;0.4567;0.6962;
-9.6000;0.4583;0.7057;
-9.3000;0.4558;0.7104;
-9.0000;0.4567;0.7128;
-8.7000;0.4615;0.7175;
-8.4000;0.4542;0.7033;
-8.1000;0.4567;0.7081;
-7.8000;0.4583;0.7128;
-7.5000;0.4550;0.7128;
-7.2000;0.4550;0.7104;
-6.9000;0.4583;0.7152;
-6.6000;0.4591;0.7152;
-6.3000;0.4542;0.7104;
-6.0000;0.4583;0.7175;
-5.7000;0.4575;0.7104;
-5.4000;0.4615;0.7341;
-5.1000;0.4575;0.7318;
-4.8000;0.4558;0.7199;
-4.5000;0.4550;0.7081;
-4.2000;0.4550;0.7104;
-3.9000;0.4607;0.7081;
-3.6000;0.4583;0.6939;
-3.3000;0.4550;0.6868;
-3.0000;0.4599;0.6915;
-2.7000;0.4583;0.6844;
-2.4000;0.4599;0.6962;
-2.1000;0.4567;0.6915;
-1.8000;0.4567;0.6962;
-1.5000;0.4575;0.6962;
-1.2000;0.4567;0.6962;
-0.9000;0.4542;0.6939;
-0.6000;0.4583;0.7175;
-0.3000;0.4567;0.7175;
0.0000;0.4567;0.7175;
0.3000;0.4632;0.7294;
0.6000;0.4835;0.7412;
0.9000;0.4982;0.7483;
1.2000;0.5128;0.7602;
1.5000;0.5226;0.7720;
1.8000;0.5332;0.7791;
2.1000;0.5389;0.8028;
2.4000;0.5429;0.8028;
2.7000;0.5462;0.8075;
3.0000;0.5535;0.8217;
3.3000;0.5511;0.8146;
3.6000;0.5543;0.8194;
3.9000;0.5551;0.8265;
4.2000;0.5576;0.8407;
4.5000;0.5527;0.8383;
4.8000;0.5560;0.8549;
5.1000;0.5584;0.8620;
5.4000;0.5592;0.8573;
5.7000;0.5592;0.8502;
6.0000;0.5617;0.8454;
6.3000;0.5592;0.8454;
6.6000;0.5641;0.8549;
6.9000;0.5617;0.8502;
7.2000;0.5633;0.8502;
7.5000;0.5649;0.8478;
7.8000;0.5641;0.8454;
8.1000;0.5665;0.8478;
8.4000;0.5698;0.8644;
8.7000;0.5690;0.8691;
9.0000;0.5674;0.8738;
9.3000;0.5690;0.8738;
9.6000;0.5682;0.8667;
9.9000;0.5657;0.8525;
10.2000;0.5665;0.8549;
10.5000;0.5755;0.8881;
10.8000;0.5641;0.8620;
11.1000;0.5698;0.8833;
11.4000;0.5731;0.8857;
11.7000;0.5722;0.8786;
12.0000;0.5722;0.8691;
12.3000;0.5755;0.8738;
12.6000;0.5763;0.8644;
12.9000;0.5812;0.8691;
13.2000;0.5739;0.8525;
13.5000;0.5755;0.8454;
13.8000;0.5771;0.8620;
14.1000;0.5779;0.8667;
14.4000;0.5739;0.8502;
14.7000;0.5788;0.8573;
15.0000;0.5763;0.8502;
15.3000;0.5747;0.8454;
15.6000;0.5779;0.8454;
15.9000;0.5796;0.8383;
16.2000;0.5788;0.8407;
16.5000;0.5796;0.8454;
16.8000;0.5804;0.8454;
17.1000;0.5804;0.8478;
17.4000;0.5845;0.8573;
17.7000;0.5845;0.8502;
18.0000;0.5796;0.8360;
18.3000;0.5812;0.8431;
18.6000;0.5755;0.8383;
18.9000;0.5845;0.8644;
19.2000;0.5836;0.8691;
19.5000;0.5820;0.8691;
19.8000;0.5820;0.8667;
20.1000;0.5853;0.8762;
20.4000;0.5845;0.8738;
20.7000;0.5845;0.8691;
21.0000;0.5934;0.8833;
21.3000;0.5853;0.8644;
21.6000;0.5869;0.8715;
21.9000;0.5869;0.8738;
22.2000;0.5861;0.8644;
22.5000;0.5877;0.8596;
22.8000;0.5869;0.8502;
23.1000;0.5877;0.8478;
23.4000;0.5877;0.8478;
23.7000;0.5885;0.8525;
24.0000;0.5869;0.8549;
24.3000;0.5893;0.8644;
24.6000;0.5893;0.8667;
24.9000;0.5902;0.8644;
25.2000;0.5910;0.8620;
25.5000;0.5893;0.8525;
25.8000;0.5910;0.8478;
26.1000;0.5950;0.8667;
26.4000;0.5877;0.8549;
26.7000;0.5910;0.8525;
27.0000;0.5893;0.8573;
27.3000;0.5902;0.8644;
27.6000;0.5926;0.8573;
27.9000;0.5958;0.8644;
28.2000;0.5942;0.8573;
28.5000;0.5934;0.8525;
28.8000;0.5910;0.8549;
29.1000;0.5869;0.8407;
29.4000;0.5926;0.8549;
29.7000;0.5910;0.8502;
30.0000;0.5950;0.8525;
30.3000;0.5942;0.8502;
30.6000;0.5869;0.8478;
30.9000;0.5918;0.8667;
31.2000;0.5926;0.8715;
31.5000;0.5845;0.8549;
31.8000;0.5926;0.8644;
32.1000;0.5942;0.8573;
32.4000;0.5934;0.8620;
32.7000;0.5967;0.8738;
33.0000;0.5926;0.8596;
33.3000;0.5958;0.8549;
33.6000;0.5942;0.8596;
33.9000;0.5942;0.8620;
34.2000;0.5975;0.8667;
34.5000;0.5958;0.8762;
34.8000;0.5918;0.8667;
35.1000;0.5942;0.8596;
35.4000;0.5958;0.8596;
35.7000;0.5967;0.8667;
36.0000;0.5934;0.8573;
36.3000;0.5942;0.8620;
36.6000;0.5910;0.8644;
36.9000;0.6024;0.8786;
37.2000;0.5958;0.8667;
37.5000;0.5950;0.8644;
37.8000;0.5958;0.8644;
38.1000;0.5958;0.8620;
38.4000;0.5975;0.8549;
38.7000;0.5991;0.8573;
39.0000;0.5910;0.8383;
39.3000;0.5967;0.8549;
39.6000;0.5967;0.8573;
39.9000;0.5975;0.8549;
40.2000;0.5958;0.8478;
40.5000;0.5983;0.8502;
40.8000;0.5983;0.8502;
41.1000;0.5950;0.8478;
41.4000;0.5975;0.8549;
41.7000;0.5967;0.8525;
42.0000;0.5975;0.8454;
42.3000;0.5958;0.8478;
42.6000;0.5958;0.8573;
42.9000;0.5983;0.8478;
43.2000;0.5983;0.8502;
43.5000;0.5999;0.8620;
43.8000;0.5975;0.8644;
44.1000;0.5975;0.8715;
44.4000;0.5975;0.8691;
44.7000;0.5958;0.8596;
45.0000;0.5983;0.8620;
45.3000;0.5991;0.8620;
45.6000;0.5991;0.8667;
45.9000;0.5983;0.8620;
46.2000;0.5999;0.8667;
46.5000;0.5958;0.8502;
46.8000;0.5983;0.8478;
47.1000;0.6007;0.8573;
47.4000;0.6007;0.8549;
47.7000;0.6007;0.8644;
48.0000;0.6105;0.8833;
48.3000;0.6007;0.8596;
48.6000;0.5991;0.8573;
48.9000;0.5991;0.8525;
49.2000;0.6007;0.8478;
49.5000;0.5991;0.8454;
49.8000;0.5999;0.8454;
50.1000;0.5991;0.8549;
50.4000;0.5983;0.8573;
50.7000;0.5893;0.8360;
51.0000;0.5991;0.8573;
51.3000;0.6007;0.8715;
51.6000;0.5991;0.8738;
51.9000;0.6015;0.8715;
52.2000;0.6015;0.8691;
52.5000;0.5991;0.8644;
52.8000;0.5967;0.8691;
53.1000;0.5999;0.8715;
53.4000;0.6048;0.8738;
53.7000;0.5991;0.8620;
54.0000;0.5999;0.8667;
54.3000;0.5991;0.8667;
54.6000;0.6007;0.8596;
54.9000;0.6007;0.8502;
55.2000;0.6007;0.8549;
55.5000;0.6048;0.8738;
55.8000;0.5999;0.8644;
56.1000;0.6007;0.8644;
56.4000;0.6007;0.8596;
56.7000;0.5999;0.8667;
57.0000;0.5991;0.8620;
57.3000;0.6007;0.8667;
57.6000;0.5910;0.8549;
57.9000;0.5999;0.8738;
58.2000;0.6007;0.8857;
58.5000;0.6105;0.9165;
58.8000;0.6015;0.8928;
59.1000;0.5999;0.8810;
59.4000;0.6015;0.8904;
59.7000;0.5999;0.8857;
60.0000;0.6015;0.8881;
60.3000;0.6064;0.8975;
60.6000;0.5999;0.8786;
60.9000;0.6015;0.8786;
61.2000;0.6032;0.8952;
61.5000;0.6007;0.8928;
61.8000;0.5975;0.8762;
62.1000;0.6032;0.8857;
62.4000;0.6007;0.8833;
62.7000;0.5934;0.8691;
63.0000;0.5999;0.8904;
63.3000;0.6007;0.8975;
63.6000;0.6007;0.8952;
63.9000;0.6015;0.8999;
64.2000;0.6015;0.8999;
64.5000;0.5999;0.8975;
64.8000;0.5999;0.8952;
65.1000;0.5926;0.8786;
65.4000;0.5999;0.9046;
65.7000;0.6032;0.9070;
66.0000;0.5983;0.8904;
66.3000;0.6007;0.8999;
66.6000;0.5991;0.8975;
66.9000;0.5983;0.8928;
67.2000;0.6015;0.8952;
67.5000;0.6024;0.8904;
67.8000;0.5999;0.8881;
68.1000;0.5999;0.8810;
68.4000;0.6024;0.8857;
68.7000;0.6007;0.8810;
69.0000;0.6015;0.8904;
69.3000;0.5999;0.8833;
69.6000;0.6032;0.8857;
69.9000;0.6007;0.8667;
70.2000;0.6032;0.8691;
70.5000;0.6040;0.8691;
70.8000;0.5991;0.8525;
71.1000;0.6015;0.8620;
71.4000;0.6032;0.8644;
71.7000;0.6015;0.8691;
72.0000;0.6056;0.8857;
72.3000;0.6024;0.8786;
72.6000;0.6040;0.8762;
72.9000;0.6032;0.8691;
73.2000;0.6056;0.8691;
73.5000;0.6015;0.8644;
73.8000;0.6024;0.8715;
74.1000;0.6024;0.8620;
74.4000;0.6015;0.8644;
74.7000;0.6015;0.8644;
75.0000;0.6032;0.8644;
75.3000;0.6024;0.8667;
75.6000;0.6024;0.8738;
75.9000;0.6032;0.8691;
76.2000;0.6015;0.8667;
76.5000;0.6007;0.8644;
76.8000;0.6024;0.8762;
77.1000;0.6032;0.8810;
77.4000;0.6024;0.8738;
77.7000;0.6015;0.8715;
78.0000;0.6040;0.8762;
78.3000;0.6040;0.8786;
78.6000;0.6015;0.8762;
78.9000;0.6032;0.8644;
79.2000;0.6032;0.8596;
79.5000;0.5942;0.8431;
79.8000;0.6015;0.8691;
80.1000;0.6024;0.8833;
80.4000;0.5999;0.8833;
80.7000;0.6015;0.8904;
81.0000;0.6032;0.8904;
81.3000;0.6040;0.8928;
81.6000;0.5934;0.8715;
81.9000;0.5967;0.8620;
82.2000;0.6024;0.8667;
82.5000;0.5999;0.8549;
82.8000;0.6015;0.8596;
83.1000;0.6032;0.8573;
83.4000;0.6024;0.8525;
83.7000;0.6032;0.8525;
84.0000;0.6024;0.8573;
84.3000;0.6081;0.8667;
84.6000;0.6032;0.8549;
84.9000;0.6040;0.8549;
85.2000;0.6032;0.8620;
85.5000;0.6007;0.8573;
85.8000;0.6032;0.8620;
86.1000;0.6007;0.8596;
86.4000;0.6032;0.8691;
86.7000;0.6007;0.8644;
87.0000;0.6015;0.8644;
87.3000;0.5983;0.8596;
87.6000;0.6032;0.8715;
87.9000;0.6015;0.8715;
88.2000;0.6032;0.8738;
88.5000;0.6024;0.8738;
88.8000;0.6007;0.8786;
89.1000;0.6032;0.8786;
89.4000;0.6032;0.8762;
89.7000;0.5999;0.8691;
90.0000;0.5991;0.8620;
90.3000;0.6032;0.8762;
90.6000;0.6024;0.8715;
90.9000;0.5999;0.8644;
91.2000;0.6024;0.8715;
91.5000;0.6015;0.8762;
91.8000;0.6048;0.8857;
92.1000;0.6032;0.8810;
92.4000;0.6015;0.8786;
92.7000;0.6032;0.8810;
93.0000;0.6064;0.8810;
93.3000;0.6040;0.8857;
93.6000;0.6048;0.8857;
93.9000;0.6015;0.8715;
94.2000;0.6040;0.8738;
94.5000;0.6048;0.8786;
94.8000;0.6048;0.8833;
95.1000;0.6015;0.8786;
95.4000;0.6048;0.8786;
95.7000;0.6056;0.8810;
96.0000;0.6032;0.8715;
96.3000;0.6032;0.8762;
96.6000;0.6048;0.8857;
96.9000;0.6024;0.8833;
97.2000;0.6007;0.8833;
97.5000;0.6007;0.8833;
97.8000;0.6032;0.8928;
98.1000;0.6032;0.8928;
98.4000;0.6064;0.8928;
98.7000;0.6015;0.8786;
99.0000;0.6032;0.8881;
99.3000;0.6032;0.8881;
99.6000;0.6040;0.8857;
99.9000;0.6024;0.8786;
100.2000;0.6024;0.8786;
100.5000;0.6056;0.8833;
100.8000;0.6064;0.8833;
101.1000;0.6032;0.8715;
101.4000;0.6024;0.8738;
101.7000;0.6032;0.8738;
102.0000;0.6048;0.8691;
102.3000;0.6015;0.8644;
102.6000;0.6048;0.8715;
102.9000;0.6032;0.8786;
103.2000;0.6048;0.8786;
103.5000;0.5983;0.8715;
103.8000;0.6015;0.8715;
104.1000;0.6040;0.8762;
104.4000;0.6032;0.8691;
104.7000;0.6040;0.8667;
105.0000;0.6015;0.8573;
105.3000;0.6024;0.8549;
105.6000;0.6015;0.8620;
105.9000;0.6024;0.8833;
106.2000;0.6040;0.8857;
106.5000;0.6032;0.8762;
106.8000;0.6032;0.8691;
107.1000;0.6056;0.8833;
107.4000;0.6040;0.8904;
107.7000;0.6032;0.8810;
108.0000;0.6048;0.8833;
108.3000;0.5967;0.8573;
108.6000;0.6007;0.8786;
108.9000;0.6032;0.8881;
109.2000;0.6024;0.8904;
109.5000;0.6007;0.8857;
109.8000;0.6040;0.8833;
110.1000;0.6007;0.8786;
110.4000;0.6146;0.9117;
110.7000;0.6040;0.8881;
111.0000;0.6024;0.8833;
111.3000;0.6048;0.8952;
111.6000;0.6048;0.8952;
111.9000;0.6024;0.8810;
112.2000;0.6040;0.8928;
112.5000;0.6056;0.8928;
112.8000;0.6007;0.8786;
113.1000;0.6032;0.8833;
113.4000;0.6032;0.8810;
113.7000;0.6064;0.8928;
114.0000;0.6024;0.8881;
114.3000;0.6040;0.8833;
114.6000;0.6097;0.8952;
114.9000;0.6048;0.8881;
115.2000;0.6032;0.8810;
115.5000;0.6032;0.8881;
115.8000;0.6040;0.8928;
116.1000;0.6024;0.8857;
116.4000;0.6024;0.8857;
116.7000;0.6064;0.8952;
117.0000;0.6056;0.8881;
117.3000;0.6048;0.8810;
117.6000;0.6015;0.8691;
117.9000;0.6032;0.8762;
118.2000;0.6032;0.8810;
118.5000;0.6024;0.8738;
118.8000;0.6048;0.8904;
119.1000;0.6121;0.8975;
119.4000;0.6024;0.8810;
119.7000;0.6015;0.8762;
120.0000;0.6040;0.8833;
120.3000;0.6040;0.8762;
120.6000;0.5983;0.8644;
120.9000;0.6032;0.8881;
121.2000;0.6056;0.8857;
121.5000;0.6040;0.8833;
121.8000;0.6032;0.8810;
122.1000;0.6024;0.8928;
122.4000;0.5958;0.8762;
122.7000;0.6032;0.8904;
123.0000;0.5983;0.8833;
123.3000;0.6032;0.8904;
123.6000;0.6097;0.8999;
123.9000;0.6048;0.8904;
124.2000;0.5999;0.8857;
124.5000;0.6032;0.8810;
124.8000;0.6032;0.8786;
125.1000;0.5999;0.8715;
125.4000;0.5991;0.8762;
125.7000;0.6048;0.8952;
126.0000;0.6032;0.8928;
126.3000;0.6056;0.8999;
126.6000;0.6032;0.8928;
126.9000;0.6064;0.9046;
127.2000;0.6024;0.8999;
127.5000;0.6105;0.9141;
127.8000;0.6056;0.9023;
128.1000;0.6032;0.8999;
128.4000;0.6024;0.8952;
128.7000;0.6032;0.8857;
129.0000;0.6032;0.8881;
129.3000;0.6032;0.8881;
129.6000;0.6048;0.8881;
129.9000;0.6032;0.8810;
130.2000;0.6048;0.8833;
130.5000;0.6032;0.8810;
130.8000;0.6048;0.8881;
131.1000;0.6024;0.8833;
131.4000;0.6089;0.8904;
131.7000;0.6024;0.8810;
132.0000;0.6048;0.8881;
132.3000;0.6040;0.8904;
132.6000;0.6048;0.8904;
132.9000;0.6048;0.8904;
133.2000;0.5991;0.8715;
133.5000;0.5967;0.8691;
133.8000;0.6032;0.8833;
134.1000;0.6113;0.9188;
134.4000;0.6024;0.8904;
134.7000;0.6040;0.8904;
135.0000;0.6032;0.8738;
135.3000;0.6032;0.8786;
135.6000;0.5975;0.8786;
135.9000;0.6032;0.9023;
136.2000;0.6032;0.9046;
136.5000;0.6032;0.9094;
136.8000;0.6040;0.9094;
137.1000;0.6032;0.9117;
137.4000;0.6032;0.9141;
137.7000;0.6040;0.9141;
138.0000;0.6032;0.9117;
138.3000;0.6024;0.9046;
138.6000;0.6015;0.8904;
138.9000;0.6032;0.8952;
139.2000;0.6113;0.9141;
139.5000;0.6024;0.8999;
139.8000;0.6048;0.9070;
140.1000;0.6007;0.9023;
140.4000;0.6032;0.9023;
140.7000;0.6024;0.8952;
141.0000;0.6048;0.9023;
141.3000;0.6024;0.9023;
141.6000;0.6072;0.9094;
141.9000;0.6048;0.9070;
142.2000;0.5942;0.8881;
142.5000;0.6056;0.9165;
142.8000;0.6015;0.9070;
143.1000;0.6032;0.9212;
143.4000;0.6040;0.9236;
143.7000;0.5991;0.8999;
144.0000;0.6007;0.8975;
144.3000;0.6032;0.8999;
144.6000;0.6032;0.8999;
144.9000;0.6024;0.8904;
145.2000;0.6032;0.8904;
145.5000;0.6015;0.8881;
145.8000;0.5983;0.8833;
146.1000;0.6097;0.9070;
146.4000;0.6015;0.8857;
146.7000;0.6024;0.8857;
147.0000;0.5983;0.8833;
147.3000;0.6040;0.8952;
147.6000;0.6048;0.9023;
147.9000;0.6007;0.8999;
148.2000;0.6040;0.9046;
148.5000;0.6007;0.8952;
148.8000;0.6121;0.9094;
149.1000;0.6048;0.8810;
149.4000;0.6040;0.8857;
149.7000;0.6032;0.8857;
150.0000;0.6032;0.8762;
150.3000;0.6040;0.8810;
150.6000;0.6105;0.8904;
150.9000;0.6081;0.8833;
151.2000;0.6032;0.8857;
151.5000;0.6024;0.8881;
151.8000;0.6064;0.9023;
152.1000;0.5983;0.8975;
152.4000;0.6032;0.9117;
152.7000;0.5983;0.8975;
153.0000;0.6032;0.9117;
153.3000;0.6015;0.9070;
153.6000;0.6040;0.9117;
153.9000;0.6024;0.9046;
154.2000;0.6015;0.9023;
154.5000;0.6040;0.9117;
154.8000;0.6015;0.9046;
155.1000;0.6015;0.9046;
155.4000;0.6015;0.9141;
155.7000;0.6015;0.9046;
156.0000;0.6024;0.9046;
156.3000;0.6015;0.8952;
156.6000;0.5999;0.8904;
156.9000;0.6032;0.8975;
157.2000;0.6032;0.8999;
157.5000;0.6032;0.9023;
157.8000;0.6015;0.9117;
158.1000;0.6040;0.9117;
158.4000;0.6040;0.9046;
158.7000;0.6032;0.9117;
159.0000;0.6032;0.9165;
159.3000;0.6056;0.9259;
159.6000;0.6048;0.9236;
159.9000;0.6048;0.9165;
160.2000;0.6032;0.9070;
160.5000;0.6032;0.9046;
160.8000;0.6040;0.9141;
161.1000;0.6154;0.9402;
161.4000;0.6064;0.9070;
161.7000;0.6072;0.9070;
162.0000;0.6048;0.9023;
162.3000;0.6048;0.9070;
162.6000;0.6064;0.9141;
162.9000;0.6048;0.9141;
163.2000;0.6048;0.9141;
163.5000;0.6048;0.9141;
163.8000;0.6081;0.9331;
164.1000;0.6040;0.9259;
164.4000;0.6072;0.9425;
164.7000;0.6024;0.9283;
165.0000;0.6040;0.9307;
165.3000;0.6024;0.9236;
165.6000;0.6032;0.9236;
165.9000;0.6081;0.9307;
166.2000;0.6007;0.9094;
166.5000;0.6024;0.9188;
166.8000;0.5967;0.8999;
167.1000;0.6024;0.8999;
167.4000;0.6064;0.9165;
167.7000;0.6048;0.9117;
168.0000;0.6097;0.9259;
168.3000;0.6032;0.9070;
168.6000;0.6048;0.9023;
168.9000;0.6072;0.9094;
169.2000;0.5918;0.8644;
169.5000;0.6089;0.9283;
169.8000;0.6032;0.9165;
170.1000;0.6024;0.9117;
170.4000;0.6048;0.9188;
170.7000;0.6064;0.9259;
171.0000;0.6040;0.9236;
171.3000;0.6015;0.9165;
171.6000;0.6032;0.9236;
171.9000;0.6040;0.9283;
172.2000;0.6024;0.9236;
172.5000;0.6032;0.9165;
172.8000;0.6024;0.9141;
173.1000;0.6040;0.9094;
173.4000;0.6040;0.9094;
173.7000;0.6040;0.9117;
174.0000;0.6024;0.9094;
174.3000;0.6040;0.9188;
174.6000;0.6081;0.9354;
174.9000;0.6040;0.9236;
175.2000;0.6032;0.9165;
175.5000;0.6040;0.9165;
175.8000;0.6040;0.9141;
176.1000;0.6040;0.9236;
176.4000;0.5991;0.9046;
176.7000;0.6081;0.9331;
177.0000;0.6040;0.9283;
177.3000;0.5975;0.9046;
177.6000;0.6024;0.9094;
177.9000;0.6015;0.9023;
178.2000;0.6007;0.8928;
178.5000;0.6024;0.8975;
178.8000;0.6048;0.8952;
179.1000;0.6121;0.9188;
179.4000;0.6015;0.8833;
179.7000;0.6056;0.8904;
180.0000;0.6064;0.8975;
180.3000;0.6048;0.8975;
180.6000;0.6015;0.8952;
180.9000;0.6048;0.9094;
181.2000;0.6113;0.9307;
181.5000;0.6032;0.9212;
181.8000;0.6024;0.9236;
182.1000;0.6040;0.9236;
182.4000;0.6024;0.9165;
182.7000;0.6040;0.9188;
183.0000;0.6048;0.9141;
183.3000;0.6032;0.9188;
183.6000;0.5950;0.8952;
183.9000;0.6056;0.9188;
184.2000;0.6048;0.9165;
184.5000;0.6040;0.9236;
184.8000;0.6056;0.9236;
185.1000;0.6048;0.9141;
185.4000;0.6032;0.9046;
185.7000;0.6048;0.9117;
186.0000;0.6032;0.9070;
186.3000;0.6048;0.9283;
186.6000;0.6024;0.9212;
186.9000;0.6024;0.9259;
187.2000;0.6015;0.9259;
187.5000;0.6032;0.9378;
187.8000;0.6032;0.9331;
188.1000;0.6007;0.9259;
188.4000;0.6040;0.9331;
188.7000;0.6015;0.9378;
189.0000;0.6032;0.9402;
189.3000;0.5983;0.9212;
189.6000;0.6032;0.9283;
189.9000;0.6048;0.9331;
190.2000;0.6015;0.9283;
190.5000;0.6024;0.9283;
190.8000;0.6024;0.9331;
191.1000;0.6024;0.9259;
191.4000;0.6048;0.9236;
191.7000;0.6007;0.9117;
192.0000;0.6032;0.9070;
192.3000;0.6081;0.9212;
192.6000;0.6024;0.9070;
192.9000;0.6015;0.9094;
193.2000;0.6105;0.9259;
193.5000;0.6072;0.9188;
193.8000;0.6015;0.9070;
194.1000;0.6040;0.9165;
194.4000;0.6032;0.9046;
194.7000;0.6015;0.9046;
195.0000;0.6048;0.9117;
195.3000;0.6015;0.9046;
195.6000;0.6015;0.8928;
195.9000;0.6015;0.8975;
196.2000;0.5991;0.8999;
196.5000;0.6015;0.9212;
196.8000;0.6024;0.9259;
197.1000;0.6048;0.9259;
197.4000;0.6024;0.9212;
197.7000;0.6072;0.9259;
198.0000;0.6015;0.9117;
198.3000;0.6040;0.9141;
198.6000;0.6032;0.9307;
198.9000;0.6048;0.9378;
199.2000;0.6040;0.9402;
199.5000;0.6056;0.9425;
199.8000;0.6015;0.9307;
200.1000;0.6015;0.9307;
200.4000;0.6105;0.9496;
200.7000;0.6048;0.9331;
201.0000;0.6056;0.9307;
201.3000;0.6056;0.9236;
201.6000;0.6056;0.9141;
201.9000;0.6024;0.9070;
202.2000;0.6015;0.9070;
202.5000;0.5958;0.8857;
202.8000;0.6048;0.8975;
203.1000;0.6024;0.8904;
203.4000;0.6064;0.8999;
203.7000;0.6015;0.8928;
204.0000;0.6089;0.9094;
204.3000;0.6048;0.9023;
204.6000;0.6032;0.9023;
204.9000;0.6032;0.9046;
205.2000;0.6040;0.9117;
205.5000;0.6040;0.9141;
205.8000;0.6024;0.9094;
206.1000;0.6032;0.9117;
206.4000;0.6040;0.9117;
206.7000;0.5958;0.8975;
207.0000;0.6040;0.9212;
207.3000;0.6024;0.9165;
207.6000;0.6032;0.9236;
207.9000;0.6040;0.9212;
208.2000;0.6032;0.9094;
208.5000;0.6024;0.9094;
208.8000;0.6064;0.9165;
209.1000;0.6032;0.9117;
209.4000;0.6032;0.9165;
209.7000;0.6048;0.9188;
210.0000;0.6032;0.9117;
210.3000;0.6024;0.9141;
210.6000;0.6040;0.9141;
210.9000;0.6040;0.9188;
211.2000;0.6032;0.9236;
211.5000;0.6040;0.9165;
211.8000;0.6040;0.9165;
212.1000;0.6089;0.9165;
212.4000;0.6024;0.9094;
212.7000;0.6040;0.9236;
213.0000;0.6040;0.9236;
213.3000;0.5999;0.9141;
213.6000;0.6040;0.9236;
213.9000;0.5975;0.9070;
214.2000;0.6032;0.9141;
214.5000;0.6040;0.9165;
214.8000;0.6040;0.9165;
215.1000;0.6015;0.9117;
215.4000;0.6081;0.9354;
215.7000;0.6048;0.9259;
216.0000;0.6040;0.9212;
216.3000;0.6032;0.9165;
216.6000;0.6007;0.9141;
216.9000;0.6040;0.9212;
217.2000;0.6040;0.9094;
217.5000;0.6089;0.9283;
217.8000;0.6032;0.9141;
218.1000;0.6015;0.9023;
218.4000;0.6032;0.8952;
218.7000;0.6024;0.9023;
219.0000;0.5999;0.8975;
219.3000;0.6032;0.8975;
219.6000;0.5958;0.8762;
219.9000;0.6024;0.8975;
220.2000;0.6032;0.9046;
220.5000;0.6040;0.9188;
220.8000;0.6032;0.9259;
221.1000;0.6040;0.9283;
221.4000;0.5999;0.9117;
221.7000;0.5942;0.8881;
222.0000;0.6024;0.9165;
222.3000;0.6040;0.9165;
222.6000;0.6024;0.9094;
222.9000;0.6089;0.9188;
223.2000;0.6024;0.9046;
223.5000;0.6032;0.9094;
223.8000;0.6048;0.9046;
224.1000;0.6040;0.9046;
224.4000;0.6040;0.9046;
224.7000;0.6056;0.9046;
225.0000;0.6089;0.9188;
225.3000;0.6097;0.9236;
225.6000;0.6032;0.9117;
225.9000;0.6040;0.9070;
226.2000;0.6024;0.9046;
226.5000;0.6072;0.9117;
226.8000;0.6048;0.9070;
227.1000;0.6048;0.9165;
227.4000;0.5999;0.9094;
227.7000;0.6040;0.9165;
228.0000;0.6015;0.9094;
228.3000;0.6007;0.9046;
228.6000;0.6040;0.8952;
228.9000;0.6015;0.8904;
229.2000;0.6024;0.8999;
229.5000;0.6040;0.9117;
229.8000;0.6056;0.9212;
230.1000;0.6024;0.9165;
230.4000;0.6048;0.9141;
230.7000;0.6040;0.9117;
231.0000;0.5999;0.9070;
231.3000;0.6048;0.9212;
231.6000;0.5999;0.9094;
231.9000;0.6015;0.9141;
232.2000;0.6040;0.9117;
232.5000;0.6032;0.9141;
232.8000;0.6024;0.9070;
233.1000;0.6024;0.9070;
233.4000;0.6040;0.9117;
233.7000;0.6048;0.9094;
234.0000;0.6024;0.8999;
234.3000;0.6048;0.9023;
234.6000;0.6032;0.9046;
234.9000;0.6015;0.9046;
235.2000;0.5999;0.9046;
235.5000;0.6032;0.9165;
235.8000;0.6007;0.9188;
236.1000;0.5983;0.9236;
236.4000;0.6024;0.9307;
236.7000;0.6032;0.9331;
237.0000;0.6015;0.9236;
237.3000;0.6007;0.9236;
237.6000;0.6040;0.9259;
237.9000;0.5991;0.9117;
238.2000;0.6015;0.9188;
238.5000;0.6015;0.9188;
238.8000;0.5983;0.9094;
239.1000;0.6024;0.9212;
239.4000;0.6024;0.9188;
239.7000;0.6146;0.9449;
240.0000;0.6024;0.9094;
240.3000;0.6024;0.8999;
240.6000;0.6032;0.8999;
240.9000;0.6040;0.8904;
241.2000;0.6040;0.8904;
241.5000;0.5942;0.8667;
241.8000;0.6072;0.9117;
242.1000;0.6040;0.9212;
242.4000;0.6064;0.9212;
242.7000;0.6040;0.9117;
243.0000;0.5991;0.8975;
243.3000;0.6056;0.9188;
243.6000;0.6105;0.9236;
243.9000;0.6056;0.9046;
244.2000;0.6032;0.9070;
244.5000;0.6032;0.9023;
244.8000;0.6040;0.9117;
245.1000;0.6048;0.9165;
245.4000;0.6121;0.9354;
245.7000;0.6064;0.9165;
246.0000;0.6007;0.9023;
246.3000;0.6040;0.9165;
246.6000;0.6024;0.9094;
246.9000;0.6032;0.9236;
247.2000;0.6032;0.9212;
247.5000;0.6024;0.9236;
247.8000;0.6097;0.9378;
248.1000;0.6024;0.9188;
248.4000;0.6015;0.9165;
248.7000;0.5999;0.9165;
249.0000;0.6024;0.9165;
249.3000;0.6081;0.9236;
249.6000;0.6024;0.8952;
249.9000;0.6015;0.8952;
250.2000;0.6056;0.9117;
250.5000;0.6032;0.8999;
250.8000;0.6024;0.8952;
251.1000;0.6015;0.8999;
251.4000;0.6024;0.9023;
251.7000;0.6048;0.9023;
252.0000;0.6024;0.8928;
252.3000;0.6007;0.8999;
252.6000;0.6040;0.9070;
252.9000;0.6040;0.9165;
253.2000;0.6064;0.9283;
253.5000;0.6040;0.9188;
253.8000;0.6024;0.9188;
254.1000;0.6032;0.9259;
254.4000;0.6032;0.9236;
254.7000;0.6064;0.9496;
255.0000;0.6032;0.9236;
255.3000;0.6032;0.9188;
255.6000;0.6024;0.9117;
255.9000;0.6015;0.9094;
256.2000;0.5967;0.8999;
256.5000;0.6032;0.9165;
256.8000;0.6056;0.9141;
257.1000;0.5975;0.8928;
257.4000;0.6048;0.9094;
257.7000;0.6064;0.9188;
258.0000;0.6048;0.9188;
258.3000;0.5975;0.9117;
258.6000;0.6032;0.9212;
258.9000;0.6048;0.9188;
259.2000;0.6024;0.9165;
259.5000;0.6048;0.9212;
259.8000;0.5983;0.9070;
260.1000;0.6032;0.9212;
260.4000;0.6032;0.9188;
260.7000;0.5999;0.9070;
261.0000;0.6024;0.9070;
261.3000;0.6007;0.8975;
261.6000;0.6040;0.9141;
261.9000;0.6097;0.9307;
262.2000;0.5999;0.9141;
262.5000;0.5975;0.9070;
262.8000;0.5942;0.8999;
263.1000;0.6032;0.9141;
263.4000;0.5975;0.8952;
263.7000;0.6015;0.9023;
264.0000;0.6007;0.9023;
264.3000;0.5975;0.8999;
264.6000;0.6024;0.9094;
264.9000;0.6032;0.9094;
265.2000;0.6105;0.9307;
265.5000;0.6048;0.9259;
265.8000;0.6024;0.9236;
266.1000;0.6048;0.9307;
266.4000;0.5983;0.9165;
266.7000;0.6040;0.9259;
267.0000;0.6032;0.9331;
267.3000;0.6032;0.9354;
267.6000;0.6015;0.9331;
267.9000;0.6024;0.9236;
268.2000;0.6040;0.9212;
268.5000;0.6007;0.9070;
268.8000;0.6024;0.9117;
269.1000;0.6024;0.9070;
269.4000;0.6040;0.9117;
269.7000;0.6032;0.9094;
270.0000;0.6015;0.9094;
270.3000;0.6032;0.9117;
270.6000;0.6032;0.9236;
270.9000;0.6032;0.9259;
271.2000;0.6040;0.9212;
271.5000;0.6032;0.9212;
271.8000;0.6032;0.9307;
272.1000;0.6032;0.9307;
272.4000;0.6024;0.9236;
272.7000;0.6040;0.9188;
273.0000;0.6024;0.9212;
273.3000;0.6007;0.9236;
273.6000;0.5999;0.9259;
273.9000;0.5999;0.9236;
274.2000;0.6032;0.9283;
274.5000;0.6032;0.9331;
274.8000;0.6015;0.9354;
275.1000;0.6032;0.9378;
275.4000;0.6032;0.9354;
275.7000;0.6032;0.9283;
276.0000;0.6040;0.9331;
276.3000;0.6040;0.9307;
276.6000;0.5991;0.9283;
276.9000;0.6032;0.9425;
277.2000;0.6024;0.9449;
277.5000;0.6024;0.9402;
277.8000;0.6007;0.9259;
278.1000;0.6048;0.9307;
278.4000;0.6032;0.9165;
278.7000;0.6024;0.9094;
279.0000;0.6097;0.9307;
279.3000;0.6024;0.9188;
279.6000;0.6040;0.9331;
279.9000;0.6024;0.9259;
280.2000;0.6040;0.9402;
280.5000;0.5999;0.9307;
280.8000;0.6007;0.9283;
281.1000;0.6024;0.9259;
281.4000;0.5999;0.9141;
281.7000;0.6024;0.9117;
282.0000;0.6040;0.9070;
282.3000;0.6032;0.9023;
282.6000;0.6024;0.8952;
282.9000;0.6032;0.8975;
283.2000;0.6024;0.8975;
283.5000;0.6056;0.9141;
283.8000;0.6032;0.9165;
284.1000;0.6007;0.9117;
284.4000;0.6024;0.9165;
284.7000;0.6032;0.9212;
285.0000;0.6024;0.9141;
285.3000;0.6007;0.9188;
285.6000;0.5999;0.9117;
285.9000;0.5967;0.8999;
286.2000;0.6007;0.9094;
286.5000;0.6024;0.9094;
286.8000;0.6089;0.9307;
287.1000;0.6040;0.9236;
287.4000;0.6048;0.9236;
287.7000;0.6040;0.9141;
288.0000;0.6015;0.9070;
288.3000;0.6032;0.9046;
288.6000;0.6024;0.8999;
288.9000;0.6015;0.9023;
289.2000;0.6040;0.8999;
289.5000;0.6040;0.8928;
289.8000;0.6032;0.8881;
290.1000;0.6048;0.8975;
290.4000;0.6040;0.8904;
290.7000;0.6032;0.8904;
291.0000;0.6113;0.9141;
291.3000;0.6056;0.8952;
291.6000;0.6048;0.8952;
291.9000;0.6040;0.9046;
292.2000;0.6032;0.9094;
292.5000;0.5999;0.9046;
292.8000;0.6048;0.9094;
293.1000;0.6048;0.9046;
293.4000;0.6015;0.9094;
293.7000;0.6048;0.9165;
294.0000;0.6032;0.9212;
294.3000;0.6024;0.9188;
294.6000;0.6040;0.9141;
294.9000;0.6056;0.9212;
295.2000;0.6032;0.9165;
295.5000;0.6024;0.9141;
295.8000;0.6024;0.9165;
296.1000;0.6040;0.9165;
296.4000;0.6015;0.9165;
296.7000;0.5958;0.9094;
297.0000;0.6024;0.9331;
297.3000;0.6064;0.9402;
297.6000;0.6032;0.9307;
297.9000;0.6024;0.9331;
298.2000;0.6007;0.9283;
298.5000;0.6032;0.9212;
298.8000;0.6032;0.9236;
299.1000;0.6040;0.9236;
299.4000;0.6024;0.9212;
299.7000;0.5983;0.9165;
300.0000;0.6024;0.9331;
300.3000;0.6048;0.9425;
300.6000;0.5991;0.9259;
300.9000;0.6015;0.9188;
301.2000;0.6015;0.9165;
301.5000;0.6032;0.9165;
301.8000;0.6024;0.9236;
302.1000;0.6024;0.9378;
302.4000;0.6032;0.9449;
302.7000;0.6040;0.9449;
303.0000;0.6015;0.9402;
303.3000;0.6032;0.9402;
303.6000;0.6024;0.9402;
303.9000;0.5958;0.9259;
304.2000;0.6024;0.9449;
304.5000;0.6040;0.9473;
304.8000;0.6015;0.9449;
305.1000;0.6024;0.9354;
305.4000;0.6040;0.9402;
305.7000;0.6024;0.9283;
306.0000;0.6121;0.9544;
306.3000;0.6032;0.9212;
306.6000;0.6048;0.9212;
306.9000;0.6048;0.9188;
307.2000;0.6015;0.9236;
307.5000;0.6024;0.9307;
307.8000;0.6032;0.9212;
308.1000;0.6040;0.9165;
308.4000;0.6064;0.9283;
308.7000;0.6024;0.9259;
309.0000;0.6032;0.9259;
309.3000;0.6040;0.9212;
309.6000;0.5991;0.9188;
309.9000;0.6032;0.9259;
310.2000;0.6015;0.9283;
310.5000;0.5999;0.9283;
310.8000;0.6007;0.9236;
311.1000;0.6007;0.9188;
311.4000;0.6024;0.9307;
311.7000;0.6040;0.9354;
312.0000;0.6015;0.9212;
312.3000;0.6007;0.9236;
312.6000;0.6040;0.9283;
312.9000;0.6040;0.9283;
313.2000;0.6040;0.9378;
313.5000;0.6024;0.9331;
313.8000;0.6048;0.9378;
314.1000;0.6032;0.9425;
314.4000;0.6048;0.9425;
314.7000;0.6040;0.9331;
315.0000;0.6024;0.9283;
315.3000;0.6015;0.9283;
315.6000;0.5999;0.9212;
315.9000;0.6024;0.9354;
316.2000;0.6024;0.9402;
316.5000;0.6024;0.9449;
316.8000;0.6048;0.9425;
317.1000;0.6040;0.9402;
317.4000;0.6015;0.9307;
317.7000;0.6024;0.9307;
318.0000;0.6032;0.9212;
318.3000;0.6056;0.9283;
318.6000;0.5999;0.9165;
318.9000;0.6024;0.9259;
319.2000;0.6048;0.9354;
319.5000;0.6032;0.9283;
319.8000;0.6032;0.9236;
320.1000;0.6064;0.9236;
320.4000;0.6024;0.9188;
320.7000;0.6081;0.9307;
321.0000;0.6024;0.9188;
321.3000;0.5983;0.9165;
321.6000;0.5991;0.9236;
321.9000;0.6032;0.9259;
322.2000;0.5999;0.9236;
322.5000;0.6015;0.9236;
322.8000;0.6024;0.9188;
323.1000;0.6007;0.9117;
323.4000;0.5967;0.9117;
323.7000;0.6032;0.9236;
324.0000;0.5950;0.9117;
324.3000;0.6024;0.9307;
324.6000;0.6032;0.9259;
324.9000;0.6015;0.9188;
325.2000;0.5958;0.9117;
325.5000;0.6015;0.9212;
325.8000;0.6024;0.9212;
326.1000;0.6007;0.9188;
326.4000;0.6015;0.9188;
326.7000;0.6032;0.9283;
327.0000;0.6024;0.9259;
327.3000;0.6064;0.9354;
327.6000;0.6032;0.9307;
327.9000;0.6015;0.9236;
328.2000;0.6032;0.9236;
328.5000;0.6032;0.9212;
328.8000;0.6081;0.9378;
329.1000;0.6024;0.9354;
329.4000;0.6040;0.9425;
329.7000;0.6015;0.9307;
330.0000;0.6015;0.9283;
330.3000;0.5975;0.9212;
330.6000;0.6024;0.9378;
330.9000;0.6040;0.9402;
331.2000;0.5999;0.9331;
331.5000;0.5999;0.9354;
331.8000;0.6007;0.9378;
332.1000;0.6040;0.9331;
332.4000;0.6015;0.9259;
332.7000;0.6007;0.9165;
333.0000;0.6024;0.9165;
333.3000;0.6040;0.9141;
333.6000;0.6056;0.9307;
333.9000;0.6024;0.9188;
334.2000;0.6032;0.9212;
334.5000;0.6040;0.9212;
334.8000;0.6024;0.9236;
335.1000;0.6007;0.9165;
335.4000;0.6129;0.9544;
335.7000;0.6040;0.9212;
336.0000;0.6007;0.9094;
336.3000;0.6015;0.9212;
336.6000;0.5999;0.8999;
336.9000;0.6040;0.8999;
337.2000;0.6032;0.9046;
337.5000;0.6007;0.9141;
337.8000;0.6024;0.9188;
338.1000;0.6015;0.9283;
338.4000;0.6032;0.9307;
338.7000;0.6032;0.9331;
339.0000;0.6040;0.9378;
339.3000;0.6015;0.9378;
339.6000;0.6040;0.9449;
339.9000;0.6024;0.9496;
340.2000;0.6032;0.9591;
340.5000;0.6015;0.9544;
340.8000;0.6032;0.9425;
341.1000;0.5950;0.9141;
341.4000;0.6007;0.9259;
341.7000;0.6007;0.9331;
342.0000;0.5991;0.9236;
342.3000;0.6048;0.9283;
342.6000;0.6064;0.9473;
342.9000;0.6007;0.9354;
343.2000;0.6015;0.9354;
343.5000;0.6032;0.9354;
343.8000;0.6040;0.9378;
344.1000;0.6048;0.9425;
344.4000;0.6032;0.9378;
344.7000;0.6113;0.9591;
345.0000;0.6024;0.9378;
345.3000;0.5991;0.9354;
345.6000;0.6007;0.9331;
345.9000;0.6048;0.9354;
346.2000;0.6032;0.9354;
346.5000;0.6024;0.9331;
346.8000;0.5975;0.9188;
347.1000;0.6024;0.9354;
347.4000;0.6024;0.9402;
347.7000;0.6024;0.9425;
348.0000;0.6064;0.9567;
348.3000;0.6040;0.9496;
348.6000;0.6032;0.9567;
348.9000;0.6089;0.9686;
349.2000;0.6015;0.9567;
349.5000;0.6032;0.9449;
349.8000;0.6032;0.9496;
350.1000;0.6032;0.9496;
350.4000;0.6032;0.9449;
350.7000;0.6015;0.9331;
351.0000;0.6032;0.9236;
351.3000;0.6024;0.9165;
351.6000;0.6007;0.9141;
351.9000;0.6040;0.9165;
352.2000;0.6024;0.9188;
352.5000;0.6064;0.9212;
352.8000;0.5999;0.9117;
353.1000;0.6081;0.9283;
353.4000;0.5999;0.9188;
353.7000;0.6138;0.9520;
354.0000;0.6040;0.9165;
354.3000;0.5999;0.9165;
354.6000;0.6024;0.9331;
354.9000;0.6032;0.9236;
355.2000;0.5991;0.9165;
355.5000;0.6007;0.9188;
355.8000;0.6015;0.9283;
356.1000;0.6024;0.9307;
356.4000;0.6015;0.9307;
356.7000;0.6032;0.9236;
357.0000;0.6015;0.9165;
357.3000;0.5902;0.8904;
357.6000;0.5975;0.9165;
357.9000;0.6007;0.9259;
358.2000;0.5926;0.9023;
358.5000;0.6105;0.9378;
358.8000;0.6015;0.9188;
359.1000;0.6015;0.9236;
359.4000;0.6072;0.9425;
359.7000;0.6007;0.9236;
360.0000;0.6007;0.9283;
360.3000;0.6048;0.9354;
360.6000;0.6024;0.9236;
360.9000;0.5999;0.9188;
361.2000;0.6089;0.9307;
361.5000;0.6081;0.9212;
361.8000;0.5999;0.8999;
362.1000;0.6015;0.9023;
362.4000;0.6032;0.9046;
362.7000;0.6032;0.9094;
363.0000;0.6032;0.9070;
363.3000;0.6032;0.9046;
363.6000;0.6024;0.9070;
363.9000;0.6040;0.9141;
364.2000;0.6040;0.9046;
364.5000;0.6040;0.9094;
364.8000;0.6048;0.8975;
365.1000;0.6024;0.8881;
365.4000;0.6032;0.8928;
365.7000;0.6015;0.8975;
366.0000;0.6032;0.8999;
366.3000;0.6032;0.8999;
366.6000;0.5999;0.8999;
366.9000;0.6032;0.9023;
367.2000;0.6032;0.9046;
367.5000;0.6015;0.9070;
367.8000;0.6024;0.9141;
368.1000;0.6048;0.9259;
368.4000;0.6024;0.9212;
368.7000;0.6024;0.9141;
369.0000;0.6032;0.9188;
369.3000;0.6007;0.9188;
369.6000;0.6024;0.9212;
369.9000;0.6089;0.9402;
370.2000;0.6048;0.9283;
370.5000;0.6024;0.9188;
370.8000;0.6040;0.9212;
371.1000;0.6064;0.9331;
371.4000;0.6015;0.9165;
371.7000;0.6048;0.9307;
372.0000;0.6015;0.9212;
372.3000;0.6007;0.9188;
372.6000;0.6015;0.9236;
372.9000;0.6048;0.9259;
373.2000;0.6048;0.9236;
373.5000;0.6032;0.9141;
373.8000;0.5991;0.9070;
374.1000;0.6081;0.9331;
374.4000;0.6056;0.9236;
374.7000;0.6032;0.9236;
375.0000;0.6007;0.9259;
375.3000;0.6024;0.9212;
375.6000;0.6024;0.9023;
375.9000;0.5983;0.8857;
376.2000;0.6007;0.8833;
376.5000;0.6081;0.9023;
376.8000;0.6032;0.8857;
377.1000;0.6064;0.9023;
377.4000;0.6007;0.8952;
377.7000;0.5967;0.8904;
378.0000;0.6032;0.9165;
378.3000;0.6024;0.9236;
378.6000;0.6032;0.9259;
378.9000;0.5942;0.9046;
379.2000;0.6081;0.9425;
379.5000;0.5999;0.9283;
379.8000;0.6032;0.9331;
380.1000;0.6040;0.9283;
380.4000;0.6032;0.9236;
380.7000;0.6024;0.9307;
381.0000;0.6015;0.9165;
381.3000;0.6024;0.9165;
381.6000;0.6064;0.9331;
381.9000;0.6032;0.9259;
382.2000;0.6015;0.9283;
382.5000;0.6015;0.9212;
382.8000;0.6015;0.9188;
383.1000;0.5991;0.9141;
383.4000;0.6015;0.9188;
383.7000;0.6007;0.9188;
384.0000;0.6032;0.9283;
384.3000;0.6015;0.9259;
384.6000;0.6032;0.9259;
384.9000;0.6015;0.9283;
385.2000;0.6015;0.9212;
385.5000;0.6040;0.9307;
385.8000;0.6040;0.9307;
386.1000;0.5991;0.9331;
386.4000;0.6024;0.9331;
386.7000;0.5958;0.9212;
387.0000;0.6024;0.9259;
387.3000;0.6015;0.9259;
387.6000;0.6024;0.9283;
387.9000;0.6032;0.9307;
388.2000;0.6032;0.9354;
388.5000;0.6146;0.9662;
388.8000;0.5983;0.9354;
389.1000;0.5991;0.9378;
389.4000;0.6024;0.9402;
389.7000;0.5967;0.9236;
390.0000;0.6024;0.9402;
390.3000;0.6007;0.9425;
390.6000;0.6015;0.9378;
390.9000;0.6048;0.9449;
391.2000;0.6015;0.9307;
391.5000;0.6007;0.9354;
391.8000;0.6015;0.9259;
392.1000;0.6024;0.9212;
392.4000;0.6024;0.9236;
392.7000;0.5991;0.9141;
393.0000;0.6040;0.9236;
393.3000;0.5991;0.9117;
393.6000;0.5991;0.9070;
393.9000;0.5999;0.9141;
394.2000;0.6032;0.9212;
394.5000;0.6015;0.9165;
394.8000;0.6015;0.9236;
395.1000;0.5958;0.9117;
395.4000;0.6007;0.9259;
395.7000;0.5983;0.9212;
396.0000;0.6081;0.9449;
396.3000;0.5942;0.9117;
396.6000;0.6032;0.9283;
396.9000;0.6040;0.9236;
397.2000;0.6048;0.9188;
397.5000;0.6040;0.9188;
397.8000;0.6048;0.9236;
398.1000;0.6032;0.9283;
398.4000;0.6024;0.9188;
398.7000;0.6015;0.9117;
399.0000;0.6007;0.9070;
399.3000;0.6015;0.8999;
399.6000;0.5999;0.8952;
399.9000;0.5999;0.9023;
400.2000;0.6024;0.9023;
400.5000;0.6015;0.9141;
400.8000;0.6007;0.9236;
401.1000;0.6032;0.9283;
401.4000;0.6024;0.9307;
401.7000;0.6015;0.9307;
402.0000;0.6007;0.9259;
402.3000;0.6024;0.9307;
402.6000;0.6048;0.9259;
402.9000;0.6015;0.9165;
403.2000;0.6032;0.9236;
403.5000;0.6015;0.9212;
403.8000;0.6015;0.9212;
404.1000;0.6015;0.9212;
404.4000;0.6024;0.9331;
404.7000;0.5999;0.9354;
405.0000;0.6040;0.9449;
405.3000;0.6007;0.9425;
405.6000;0.6015;0.9496;
405.9000;0.6032;0.9496;
406.2000;0.6032;0.9378;
406.5000;0.6007;0.9188;
406.8000;0.5999;0.9094;
407.1000;0.6024;0.9259;
407.4000;0.6015;0.9212;
407.7000;0.6015;0.9212;
408.0000;0.6024;0.9141;
408.3000;0.6024;0.9117;
408.6000;0.6032;0.9212;
408.9000;0.6040;0.9283;
409.2000;0.6015;0.9354;
409.5000;0.5958;0.9212;
409.8000;0.6032;0.9378;
410.1000;0.6015;0.9307;
410.4000;0.6024;0.9354;
410.7000;0.5975;0.9188;
411.0000;0.6007;0.9212;
411.3000;0.6032;0.9331;
411.6000;0.6024;0.9259;
411.9000;0.6024;0.9331;
412.2000;0.6048;0.9378;
412.5000;0.6064;0.9354;
412.8000;0.6024;0.9259;
413.1000;0.6007;0.9331;
413.4000;0.6015;0.9283;
413.7000;0.6032;0.9402;
414.0000;0.5999;0.9188;
414.3000;0.6048;0.9331;
414.6000;0.5983;0.9188;
414.9000;0.6024;0.9283;
415.2000;0.6113;0.9520;
415.5000;0.6024;0.9307;
415.8000;0.6081;0.9520;
416.1000;0.6024;0.9402;
416.4000;0.6024;0.9449;
416.7000;0.6024;0.9473;
417.0000;0.6007;0.9354;
417.3000;0.6072;0.9473;
417.6000;0.6064;0.9378;
417.9000;0.5999;0.9188;
418.2000;0.6007;0.9331;
418.5000;0.6015;0.9307;
418.8000;0.6024;0.9354;
419.1000;0.6015;0.9283;
419.4000;0.6007;0.9236;
419.7000;0.6007;0.9188;
420.0000;0.6015;0.9188;
420.3000;0.6007;0.9141;
420.6000;0.6048;0.9283;
420.9000;0.6032;0.9212;
421.2000;0.5991;0.9094;
421.5000;0.6032;0.9283;
421.8000;0.6024;0.9236;
422.1000;0.6048;0.9259;
422.4000;0.6024;0.9307;
422.7000;0.6024;0.9307;
423.0000;0.5999;0.9236;
423.3000;0.6007;0.9283;
423.6000;0.6015;0.9236;
423.9000;0.6007;0.9141;
424.2000;0.5926;0.8928;
424.5000;0.6015;0.9117;
424.8000;0.6007;0.9046;
425.1000;0.5975;0.8999;
425.4000;0.5999;0.9046;
425.7000;0.5999;0.9046;
426.0000;0.6048;0.9141;
426.3000;0.5999;0.9212;
426.6000;0.6048;0.9354;
426.9000;0.6015;0.9283;
427.2000;0.6040;0.9354;
427.5000;0.6032;0.9259;
427.8000;0.6032;0.9307;
428.1000;0.6024;0.9259;
428.4000;0.5975;0.9117;
428.7000;0.6015;0.9188;
429.0000;0.6015;0.9141;
429.3000;0.6040;0.9236;
429.6000;0.6007;0.9283;
429.9000;0.5983;0.9283;
430.2000;0.6007;0.9283;
430.5000;0.5975;0.9283;
430.8000;0.6015;0.9283;
431.1000;0.6024;0.9212;
431.4000;0.6015;0.9188;
431.7000;0.6024;0.9236;
432.0000;0.6015;0.9141;
432.3000;0.6024;0.9188;
432.6000;0.5999;0.9188;
432.9000;0.5975;0.9141;
433.2000;0.6015;0.9354;
433.5000;0.6024;0.9402;
433.8000;0.6007;0.9354;
434.1000;0.5999;0.9259;
434.4000;0.6032;0.9259;
434.7000;0.6024;0.9165;
435.0000;0.6015;0.9141;
435.3000;0.6040;0.9141;
435.6000;0.6040;0.9117;
435.9000;0.6048;0.9117;
436.2000;0.6024;0.9094;
436.5000;0.6081;0.9331;
436.8000;0.6007;0.9236;
437.1000;0.6015;0.9259;
437.4000;0.6015;0.9307;
437.7000;0.6040;0.9283;
438.0000;0.6024;0.9259;
438.3000;0.5967;0.9117;
438.6000;0.6015;0.9331;
438.9000;0.5983;0.9354;
439.2000;0.6024;0.9402;
439.5000;0.5991;0.9402;
439.8000;0.5999;0.9378;
440.1000;0.5999;0.9331;
440.4000;0.5999;0.9331;
440.7000;0.6007;0.9354;
441.0000;0.5958;0.9236;
441.3000;0.6032;0.9449;
441.6000;0.6007;0.9331;
441.9000;0.6040;0.9425;
442.2000;0.6007;0.9354;
442.5000;0.6015;0.9354;
442.8000;0.6007;0.9331;
443.1000;0.6007;0.9307;
443.4000;0.6032;0.9283;
443.7000;0.6121;0.9496;
444.0000;0.6015;0.9236;
444.3000;0.6024;0.9188;
444.6000;0.5999;0.9117;
444.9000;0.5991;0.9117;
445.2000;0.6015;0.9212;
445.5000;0.6007;0.9141;
445.8000;0.6015;0.9259;
446.1000;0.6121;0.9473;
446.4000;0.5991;0.9212;
446.7000;0.6007;0.9236;
447.0000;0.6007;0.9236;
447.3000;0.6015;0.9141;
447.6000;0.6007;0.9236;
447.9000;0.6089;0.9496;
448.2000;0.5999;0.9307;
448.5000;0.6015;0.9236;
448.8000;0.5999;0.9188;
449.1000;0.5983;0.9141;
449.4000;0.6015;0.9212;
449.7000;0.5902;0.8904;
450.0000;0.5983;0.9046;
450.3000;0.5991;0.9141;
450.6000;0.5991;0.9188;
450.9000;0.5999;0.9283;
451.2000;0.6024;0.9354;
451.5000;0.5983;0.9259;
451.8000;0.6007;0.9236;
452.1000;0.6024;0.9259;
452.4000;0.5991;0.9188;
452.7000;0.5999;0.9236;
453.0000;0.5975;0.9141;
453.3000;0.6015;0.9259;
453.6000;0.5975;0.9165;
453.9000;0.6015;0.9307;
454.2000;0.5999;0.9236;
454.5000;0.5991;0.9212;
454.8000;0.6015;0.9283;
455.1000;0.6007;0.9188;
455.4000;0.6015;0.9165;
455.7000;0.5999;0.9212;
456.0000;0.6015;0.9212;
456.3000;0.6024;0.9259;
456.6000;0.6024;0.9236;
456.9000;0.6024;0.9212;
457.2000;0.6015;0.9283;
457.5000;0.5918;0.8975;
457.8000;0.6015;0.9236;
458.1000;0.5999;0.9283;
458.4000;0.6015;0.9307;
458.7000;0.6032;0.9354;
459.0000;0.6007;0.9165;
459.3000;0.6007;0.9331;
459.6000;0.6024;0.9283;
459.9000;0.6024;0.9236;
460.2000;0.6015;0.9212;
460.5000;0.6007;0.9188;
460.8000;0.6040;0.9354;
461.1000;0.6032;0.9378;
461.4000;0.6024;0.9425;
461.7000;0.6015;0.9331;
462.0000;0.5999;0.9307;
462.3000;0.6015;0.9331;
462.6000;0.6040;0.9283;
462.9000;0.6032;0.9259;
463.2000;0.6024;0.9236;
463.5000;0.6015;0.9212;
463.8000;0.6129;0.9496;
464.1000;0.6024;0.9070;
464.4000;0.6024;0.9165;
464.7000;0.6015;0.9165;
465.0000;0.6024;0.9236;
465.3000;0.5967;0.9046;
465.6000;0.6007;0.9141;
465.9000;0.5885;0.8786;
466.2000;0.6024;0.9141;
466.5000;0.6056;0.9236;
466.8000;0.6007;0.9165;
467.1000;0.5999;0.9141;
467.4000;0.6007;0.9188;
467.7000;0.6015;0.9212;
468.0000;0.6007;0.9188;
468.3000;0.6048;0.9283;
468.6000;0.5999;0.9307;
468.9000;0.5926;0.9141;
469.2000;0.6007;0.9402;
469.5000;0.5999;0.9402;
469.8000;0.5999;0.9354;
470.1000;0.5999;0.9331;
470.4000;0.5999;0.9283;
470.7000;0.5967;0.9117;
471.0000;0.6015;0.9354;
471.3000;0.5999;0.9331;
471.6000;0.6024;0.9449;
471.9000;0.5991;0.9402;
472.2000;0.6007;0.9425;
472.5000;0.5991;0.9449;
472.8000;0.6007;0.9567;
473.1000;0.5975;0.9520;
473.4000;0.6089;0.9662;
473.7000;0.5958;0.9354;
474.0000;0.6015;0.9473;
474.3000;0.5999;0.9402;
474.6000;0.6040;0.9449;
474.9000;0.6007;0.9402;
475.2000;0.6015;0.9378;
475.5000;0.6007;0.9402;
475.8000;0.6015;0.9378;
476.1000;0.5999;0.9236;
476.4000;0.6007;0.9259;
476.7000;0.5991;0.9165;
477.0000;0.6015;0.9188;
477.3000;0.5991;0.9188;
477.6000;0.5926;0.9117;
477.9000;0.6032;0.9331;
478.2000;0.6024;0.9283;
478.5000;0.6097;0.9567;
478.8000;0.6007;0.9354;
479.1000;0.5999;0.9307;
479.4000;0.5983;0.9259;
479.7000;0.6015;0.9259;
480.0000;0.6024;0.9307;
480.3000;0.6007;0.9331;
480.6000;0.6007;0.9283;
480.9000;0.5950;0.9117;
481.2000;0.6032;0.9354;
481.5000;0.6089;0.9473;
481.8000;0.6015;0.9212;
482.1000;0.6007;0.9236;
482.4000;0.5999;0.9188;
482.7000;0.6007;0.9141;
483.0000;0.6024;0.9141;
483.3000;0.6024;0.9141;
483.6000;0.6024;0.9141;
483.9000;0.6040;0.9141;
484.2000;0.6015;0.9165;
484.5000;0.6032;0.9259;
484.8000;0.6024;0.9212;
485.1000;0.6007;0.9259;
485.4000;0.6032;0.9331;
485.7000;0.6032;0.9283;
486.0000;0.6007;0.9212;
486.3000;0.5999;0.9165;
486.6000;0.6032;0.9283;
486.9000;0.6015;0.9188;
487.2000;0.6024;0.9307;
487.5000;0.6024;0.9354;
487.8000;0.6138;0.9638;
488.1000;0.6015;0.9307;
488.4000;0.6015;0.9283;
488.7000;0.6024;0.9259;
489.0000;0.6024;0.9236;
489.3000;0.6072;0.9283;
489.6000;0.5967;0.9094;
489.9000;0.6024;0.9236;
490.2000;0.6015;0.9165;
490.5000;0.6024;0.9212;
490.8000;0.5942;0.8975;
491.1000;0.5991;0.9117;
491.4000;0.6064;0.9259;
491.7000;0.6015;0.9212;
492.0000;0.6015;0.9236;
492.3000;0.6040;0.9354;
492.6000;0.6015;0.9283;
492.9000;0.6024;0.9331;
493.2000;0.5958;0.9188;
493.5000;0.6007;0.9354;
493.8000;0.5983;0.9425;
494.1000;0.6040;0.9615;
494.4000;0.6064;0.9615;
494.7000;0.6015;0.9449;
495.0000;0.6007;0.9425;
495.3000;0.6097;0.9567;
495.6000;0.6024;0.9402;
495.9000;0.6162;0.9709;
496.2000;0.6007;0.9354;
496.5000;0.5967;0.9283;
496.8000;0.6015;0.9402;
497.1000;0.6007;0.9402;
497.4000;0.5999;0.9331;
497.7000;0.6015;0.9378;
498.0000;0.6015;0.9425;
498.3000;0.6040;0.9544;
498.6000;0.6040;0.9544;
498.9000;0.6015;0.9544;
499.2000;0.6015;0.9567;
499.5000;0.6015;0.9402;
499.8000;0.6007;0.9425;
500.1000;0.6007;0.9520;
500.4000;0.6015;0.9496;
500.7000;0.6032;0.9473;
501.0000;0.6015;0.9591;
501.3000;0.5999;0.9567;
501.6000;0.5999;0.9520;
501.9000;0.6015;0.9473;
502.2000;0.6007;0.9496;
502.5000;0.5999;0.9449;
502.8000;0.6024;0.9544;
503.1000;0.5991;0.9425;
503.4000;0.6007;0.9520;
503.7000;0.6024;0.9567;
504.0000;0.6007;0.9473;
504.3000;0.6024;0.9425;
504.6000;0.6024;0.9378;
504.9000;0.5999;0.9378;
505.2000;0.6032;0.9354;
505.5000;0.6007;0.9307;
505.8000;0.6015;0.9331;
506.1000;0.6015;0.9425;
506.4000;0.6007;0.9378;
506.7000;0.5967;0.9283;
507.0000;0.6015;0.9354;
507.3000;0.6032;0.9378;
507.6000;0.6040;0.9378;
507.9000;0.5999;0.9283;
508.2000;0.6007;0.9307;
508.5000;0.6007;0.9307;
508.8000;0.6048;0.9378;
509.1000;0.6015;0.9331;
509.4000;0.5999;0.9331;
509.7000;0.6015;0.9354;
510.0000;0.6015;0.9331;
510.3000;0.6024;0.9425;
510.6000;0.6007;0.9425;
510.9000;0.6015;0.9378;
511.2000;0.6024;0.9402;
511.5000;0.5999;0.9283;
511.8000;0.6015;0.9402;
512.1000;0.6015;0.9283;
512.4000;0.5999;0.9212;
512.7000;0.5999;0.9212;
513.0000;0.6015;0.9283;
513.3000;0.5999;0.9402;
513.6000;0.6154;0.9757;
513.9000;0.6024;0.9473;
514.2000;0.5975;0.9402;
514.5000;0.6007;0.9449;
514.8000;0.6024;0.9378;
515.1000;0.6097;0.9638;
515.4000;0.6024;0.9449;
515.7000;0.5999;0.9354;
516.0000;0.6015;0.9378;
516.3000;0.6015;0.9307;
516.6000;0.6024;0.9378;
516.9000;0.6024;0.9331;
517.2000;0.6007;0.9283;
517.5000;0.5983;0.9307;
517.8000;0.6032;0.9402;
518.1000;0.6007;0.9354;
518.4000;0.6032;0.9354;
518.7000;0.6024;0.9402;
519.0000;0.6024;0.9354;
519.3000;0.6015;0.9236;
519.6000;0.5999;0.9283;
519.9000;0.5999;0.9283;
520.2000;0.6015;0.9331;
520.5000;0.5999;0.9259;
520.8000;0.6007;0.9259;
521.1000;0.6056;0.9402;
521.4000;0.6015;0.9354;
521.7000;0.6007;0.9354;
522.0000;0.6007;0.9402;
522.3000;0.5983;0.9354;
522.6000;0.6048;0.9473;
522.9000;0.6007;0.9402;
523.2000;0.5934;0.9307;
523.5000;0.6007;0.9425;
523.8000;0.6007;0.9496;
524.1000;0.6015;0.9473;
524.4000;0.5967;0.9259;
524.7000;0.6024;0.9378;
525.0000;0.6007;0.9425;
525.3000;0.6015;0.9496;
525.6000;0.6048;0.9544;
525.9000;0.6064;0.9544;
526.2000;0.6032;0.9425;
526.5000;0.6024;0.9378;
526.8000;0.6015;0.9449;
527.1000;0.6007;0.9520;
527.4000;0.6007;0.9591;
527.7000;0.5983;0.9567;
528.0000;0.5983;0.9591;
528.3000;0.5918;0.9402;
528.6000;0.5999;0.9496;
528.9000;0.6064;0.9638;
529.2000;0.5999;0.9473;
529.5000;0.6024;0.9496;
529.8000;0.6015;0.9425;
530.1000;0.6015;0.9402;
530.4000;0.6015;0.9378;
530.7000;0.6032;0.9402;
531.0000;0.6024;0.9425;
531.3000;0.6032;0.9402;
531.6000;0.6032;0.9378;
531.9000;0.6015;0.9307;
532.2000;0.6024;0.9378;
532.5000;0.5991;0.9307;
532.8000;0.6024;0.9449;
533.1000;0.5999;0.9378;
533.4000;0.6007;0.9425;
533.7000;0.6007;0.9473;
534.0000;0.6040;0.9544;
534.3000;0.6007;0.9496;
534.6000;0.6064;0.9567;
534.9000;0.6007;0.9425;
535.2000;0.6024;0.9520;
535.5000;0.6007;0.9520;
535.8000;0.6015;0.9496;
536.1000;0.6032;0.9473;
536.4000;0.6015;0.9378;
536.7000;0.6007;0.9425;
537.0000;0.6007;0.9402;
537.3000;0.6007;0.9354;
537.6000;0.6015;0.9236;
537.9000;0.5999;0.9188;
538.2000;0.6007;0.9212;
538.5000;0.6015;0.9259;
538.8000;0.6024;0.9449;
539.1000;0.6032;0.9544;
539.4000;0.6015;0.9567;
539.7000;0.5999;0.9567;
540.0000;0.5999;0.9567;
540.3000;0.5958;0.9378;
540.6000;0.5991;0.9496;
540.9000;0.6007;0.9567;
541.2000;0.6007;0.9567;
541.5000;0.5999;0.9615;
541.8000;0.6024;0.9567;
542.1000;0.5983;0.9473;
542.4000;0.5999;0.9520;
542.7000;0.5999;0.9544;
543.0000;0.6007;0.9520;
543.3000;0.5983;0.9449;
543.6000;0.5999;0.9544;
543.9000;0.5991;0.9520;
544.2000;0.5999;0.9425;
544.5000;0.6121;0.9686;
544.8000;0.5991;0.9449;
545.1000;0.6007;0.9520;
545.4000;0.6040;0.9544;
545.7000;0.6007;0.9402;
546.0000;0.6007;0.9331;
546.3000;0.6015;0.9378;
546.6000;0.6040;0.9449;
546.9000;0.6056;0.9402;
547.2000;0.6007;0.9307;
547.5000;0.5999;0.9354;
547.8000;0.6015;0.9378;
548.1000;0.6015;0.9449;
548.4000;0.5942;0.9331;
548.7000;0.5983;0.9473;
549.0000;0.5999;0.9496;
549.3000;0.6015;0.9473;
549.6000;0.5983;0.9283;
549.9000;0.6015;0.9425;
550.2000;0.6007;0.9402;
550.5000;0.6032;0.9402;
550.8000;0.6024;0.9449;
551.1000;0.6024;0.9496;
551.4000;0.6040;0.9496;
551.7000;0.6007;0.9425;
552.0000;0.6015;0.9473;
552.3000;0.6007;0.9378;
552.6000;0.6007;0.9331;
552.9000;0.6032;0.9496;
553.2000;0.6032;0.9496;
553.5000;0.5967;0.9259;
553.8000;0.6007;0.9354;
554.1000;0.5999;0.9473;
554.4000;0.6007;0.9449;
554.7000;0.6015;0.9473;
555.0000;0.5991;0.9473;
555.3000;0.5999;0.9449;
555.6000;0.5991;0.9473;
555.9000;0.6015;0.9473;
556.2000;0.6040;0.9473;
556.5000;0.6024;0.9425;
556.8000;0.6040;0.9496;
557.1000;0.6007;0.9449;
557.4000;0.6024;0.9449;
557.7000;0.6007;0.9425;
558.0000;0.6015;0.9520;
558.3000;0.6015;0.9496;
558.6000;0.6007;0.9425;
558.9000;0.6007;0.9473;
559.2000;0.6015;0.9615;
559.5000;0.5975;0.9544;
559.8000;0.5942;0.9378;
560.1000;0.5975;0.9473;
560.4000;0.5983;0.9544;
560.7000;0.6032;0.9615;
561.0000;0.6015;0.9615;
561.3000;0.6015;0.9567;
561.6000;0.6007;0.9567;
561.9000;0.5983;0.9544;
562.2000;0.6040;0.9638;
562.5000;0.6007;0.9544;
562.8000;0.5983;0.9425;
563.1000;0.6056;0.9544;
563.4000;0.6024;0.9591;
563.7000;0.5983;0.9544;
564.0000;0.6007;0.9591;
564.3000;0.5999;0.9544;
564.6000;0.5983;0.9425;
564.9000;0.5999;0.9449;
565.2000;0.6032;0.9615;
565.5000;0.5999;0.9520;
565.8000;0.6024;0.9567;
566.1000;0.6024;0.9615;
566.4000;0.5983;0.9425;
566.7000;0.5967;0.9449;
567.0000;0.6015;0.9615;
567.3000;0.5991;0.9544;
567.6000;0.5991;0.9473;
567.9000;0.6007;0.9496;
568.2000;0.5958;0.9378;
568.5000;0.5991;0.9449;
568.8000;0.5991;0.9473;
569.1000;0.6024;0.9496;
569.4000;0.5942;0.9283;
569.7000;0.6024;0.9449;
570.0000;0.6024;0.9378;
570.3000;0.5975;0.9259;
570.6000;0.5999;0.9354;
570.9000;0.6024;0.9402;
571.2000;0.6007;0.9378;
571.5000;0.6015;0.9425;
571.8000;0.5999;0.9402;
572.1000;0.6032;0.9449;
572.4000;0.6040;0.9449;
572.7000;0.6032;0.9425;
573.0000;0.6024;0.9378;
573.3000;0.5999;0.9331;
573.6000;0.5975;0.9283;
573.9000;0.6015;0.9331;
574.2000;0.6007;0.9354;
574.5000;0.6015;0.9425;
574.8000;0.6007;0.9449;
575.1000;0.5999;0.9473;
575.4000;0.6007;0.9473;
575.7000;0.5975;0.9473;
576.0000;0.6024;0.9591;
576.3000;0.6024;0.9638;
576.6000;0.6072;0.9780;
576.9000;0.6007;0.9686;
577.2000;0.6007;0.9709;
577.5000;0.6024;0.9780;
577.8000;0.6015;0.9757;
578.1000;0.5991;0.9709;
578.4000;0.6007;0.9591;
578.7000;0.6007;0.9638;
579.0000;0.5999;0.9567;
579.3000;0.5983;0.9496;
579.6000;0.5999;0.9473;
579.9000;0.6056;0.9615;
580.2000;0.6015;0.9520;
580.5000;0.6007;0.9520;
580.8000;0.6007;0.9473;
581.1000;0.6007;0.9544;
581.4000;0.5999;0.9449;
581.7000;0.6015;0.9520;
582.0000;0.6015;0.9473;
582.3000;0.6007;0.9449;
582.6000;0.6007;0.9567;
582.9000;0.6007;0.9567;
583.2000;0.6015;0.9567;
583.5000;0.6056;0.9662;
583.8000;0.6032;0.9638;
584.1000;0.6007;0.9662;
584.4000;0.6024;0.9757;
584.7000;0.6064;0.9780;
585.0000;0.6024;0.9638;
585.3000;0.5991;0.9591;
585.6000;0.5991;0.9615;
585.9000;0.6015;0.9638;
586.2000;0.6089;0.9828;
586.5000;0.5999;0.9709;
586.8000;0.6024;0.9757;
587.1000;0.6007;0.9638;
587.4000;0.5999;0.9591;
587.7000;0.5975;0.9615;
588.0000;0.5967;0.9496;
588.3000;0.5983;0.9496;
588.6000;0.6032;0.9615;
588.9000;0.6024;0.9638;
589.2000;0.6007;0.9686;
589.5000;0.6015;0.9709;
589.8000;0.6032;0.9709;
590.1000;0.5983;0.9615;
590.4000;0.6007;0.9662;
590.7000;0.5967;0.9449;
591.0000;0.5999;0.9567;
591.3000;0.5983;0.9449;
591.6000;0.5983;0.9425;
591.9000;0.5967;0.9307;
592.2000;0.6007;0.9378;
592.5000;0.5942;0.9283;
592.8000;0.6007;0.9520;
593.1000;0.6015;0.9496;
593.4000;0.6048;0.9591;
593.7000;0.6007;0.9473;
594.0000;0.5999;0.9544;
594.3000;0.6048;0.9638;
594.6000;0.5999;0.9449;
594.9000;0.5983;0.9425;
595.2000;0.6007;0.9591;
595.5000;0.5950;0.9473;
595.8000;0.5991;0.9449;
596.1000;0.6007;0.9473;
596.4000;0.6007;0.9473;
596.7000;0.6007;0.9449;
597.0000;0.5967;0.9331;
597.3000;0.6015;0.9425;
597.6000;0.6007;0.9402;
597.9000;0.6015;0.9402;
598.2000;0.6007;0.9354;
598.5000;0.5999;0.9449;
598.8000;0.6015;0.9544;
599.1000;0.6007;0.9591;
599.4000;0.6007;0.9709;
599.7000;0.6024;0.9733;
600.0000;0.5999;0.9662;
600.3000;0.6015;0.9567;
600.6000;0.6007;0.9425;
600.9000;0.6007;0.9354;
601.2000;0.5967;0.9259;
601.5000;0.5926;0.9070;
601.8000;0.5893;0.8999;
602.1000;0.5877;0.8904;
602.4000;0.5836;0.8904;
602.7000;0.5828;0.8952;
603.0000;0.5796;0.8857;
603.3000;0.5755;0.8738;
603.6000;0.5739;0.8644;
603.9000;0.5722;0.8549;
604.2000;0.5739;0.8715;
604.5000;0.5665;0.8596;
604.8000;0.5617;0.8549;
605.1000;0.5617;0.8478;
605.4000;0.5617;0.8407;
605.7000;0.5649;0.8407;
606.0000;0.5560;0.8194;
606.3000;0.5543;0.8194;
606.6000;0.5560;0.8289;
606.9000;0.5551;0.8360;
607.2000;0.5519;0.8336;
607.5000;0.5478;0.8265;
607.8000;0.5454;0.8217;
608.1000;0.5511;0.8336;
608.4000;0.5486;0.8241;
608.7000;0.5478;0.8170;
609.0000;0.5462;0.8194;
609.3000;0.5454;0.8217;
609.6000;0.5438;0.8194;
609.9000;0.5429;0.8194;
610.2000;0.5413;0.8194;
610.5000;0.5421;0.8217;
610.8000;0.5413;0.8099;
611.1000;0.5381;0.8052;
611.4000;0.5389;0.8123;
611.7000;0.5364;0.8099;
612.0000;0.5356;0.8170;
612.3000;0.5372;0.8170;
612.6000;0.5324;0.8099;
612.9000;0.5340;0.8170;
613.2000;0.5324;0.8075;
613.5000;0.5332;0.8052;
613.8000;0.5324;0.7981;
614.1000;0.5267;0.7886;
614.4000;0.5283;0.7933;
614.7000;0.5299;0.7981;
615.0000;0.5291;0.8028;
615.3000;0.5332;0.8123;
615.6000;0.5275;0.8028;
615.9000;0.5267;0.7910;
616.2000;0.5242;0.7886;
616.5000;0.5193;0.7720;
616.8000;0.5242;0.7957;
617.1000;0.5226;0.7957;
617.4000;0.5234;0.7933;
617.7000;0.5218;0.7981;
618.0000;0.5201;0.7886;
618.3000;0.5210;0.7981;
618.6000;0.5185;0.7910;
618.9000;0.5185;0.7981;
619.2000;0.5185;0.7981;
619.5000;0.5226;0.8146;
619.8000;0.5177;0.8123;
620.1000;0.5177;0.8028;
620.4000;0.5153;0.8004;
620.7000;0.5161;0.8004;
621.0000;0.5161;0.8028;
621.3000;0.5120;0.7957;
621.6000;0.5063;0.7862;
621.9000;0.5136;0.8075;
622.2000;0.5136;0.8004;
622.5000;0.5144;0.8004;
622.8000;0.5128;0.8004;
623.1000;0.5120;0.8004;
623.4000;0.5144;0.8099;
623.7000;0.5120;0.8099;
624.0000;0.5104;0.8146;
624.3000;0.5071;0.8099;
624.6000;0.5096;0.8123;
624.9000;0.5079;0.8099;
625.2000;0.5079;0.8028;
625.5000;0.5047;0.8028;
625.8000;0.5063;0.8099;
626.1000;0.5071;0.8099;
626.4000;0.5071;0.8004;
626.7000;0.5079;0.8194;
627.0000;0.4965;0.7957;
627.3000;0.5088;0.8289;
627.6000;0.5022;0.8075;
627.9000;0.5039;0.8052;
628.2000;0.4933;0.7815;
628.5000;0.5014;0.7933;
628.8000;0.5014;0.7910;
629.1000;0.4908;0.7649;
629.4000;0.5055;0.8099;
629.7000;0.5014;0.7957;
630.0000;0.4990;0.7791;
630.3000;0.4982;0.7815;
630.6000;0.4933;0.7744;
630.9000;0.4957;0.7791;
631.2000;0.4998;0.7886;
631.5000;0.5039;0.7933;
631.8000;0.4974;0.7791;
632.1000;0.4982;0.7815;
632.4000;0.4908;0.7602;
632.7000;0.4949;0.7815;
633.0000;0.4957;0.7815;
633.3000;0.4949;0.7720;
633.6000;0.4957;0.7720;
633.9000;0.4949;0.7815;
634.2000;0.4933;0.7862;
634.5000;0.4933;0.7910;
634.8000;0.4925;0.8004;
635.1000;0.4917;0.8004;
635.4000;0.4925;0.7886;
635.7000;0.4917;0.7768;
636.0000;0.4917;0.7815;
636.3000;0.4892;0.7791;
636.6000;0.4917;0.7768;
636.9000;0.4876;0.7720;
637.2000;0.4908;0.7791;
637.5000;0.4892;0.7744;
637.8000;0.4876;0.7768;
638.1000;0.4892;0.7791;
638.4000;0.4876;0.7649;
638.7000;0.4900;0.7673;
639.0000;0.4876;0.7673;
639.3000;0.4868;0.7673;
639.6000;0.4851;0.7673;
639.9000;0.4884;0.7791;
640.2000;0.4860;0.7768;
640.5000;0.4835;0.7791;
640.8000;0.4851;0.7768;
641.1000;0.4811;0.7649;
641.4000;0.4851;0.7720;
641.7000;0.4835;0.7720;
642.0000;0.4843;0.7673;
642.3000;0.4827;0.7673;
642.6000;0.4827;0.7720;
642.9000;0.4843;0.7696;
643.2000;0.4835;0.7507;
643.5000;0.4811;0.7578;
643.8000;0.4811;0.7649;
644.1000;0.4827;0.7602;
644.4000;0.4778;0.7625;
644.7000;0.4803;0.7649;
645.0000;0.4770;0.7673;
645.3000;0.4803;0.7744;
645.6000;0.4794;0.7791;
645.9000;0.4770;0.7673;
646.2000;0.4778;0.7791;
646.5000;0.4778;0.7910;
646.8000;0.4794;0.7886;
647.1000;0.4778;0.7839;
647.4000;0.4770;0.7910;
647.7000;0.4762;0.7839;
648.0000;0.4746;0.7744;
648.3000;0.4754;0.7744;
648.6000;0.4754;0.7815;
648.9000;0.4729;0.7815;
649.2000;0.4705;0.7744;
649.5000;0.4729;0.7839;
649.8000;0.4746;0.7839;
650.1000;0.4827;0.7981;
650.4000;0.4737;0.7696;
650.7000;0.4729;0.7696;
651.0000;0.4689;0.7720;
651.3000;0.4697;0.7744;
651.6000;0.4737;0.7791;
651.9000;0.4713;0.7791;
652.2000;0.4746;0.7791;
652.5000;0.4713;0.7649;
652.8000;0.4713;0.7649;
653.1000;0.4713;0.7673;
653.4000;0.4746;0.7744;
653.7000;0.4681;0.7625;
654.0000;0.4721;0.7720;
654.3000;0.4697;0.7720;
654.6000;0.4689;0.7791;
654.9000;0.4689;0.7839;
655.2000;0.4689;0.7815;
655.5000;0.4705;0.7839;
655.8000;0.4681;0.7886;
656.1000;0.4656;0.7839;
656.4000;0.4672;0.7862;
656.7000;0.4729;0.7957;
657.0000;0.4664;0.7886;
657.3000;0.4648;0.7862;
657.6000;0.4672;0.7862;
657.9000;0.4672;0.7886;
658.2000;0.4664;0.7862;
658.5000;0.4681;0.7910;
658.8000;0.4656;0.7815;
659.1000;0.4656;0.7815;
659.4000;0.4648;0.7720;
659.7000;0.4640;0.7744;
660.0000;0.4615;0.7696;
660.3000;0.4689;0.7791;
660.6000;0.4689;0.7744;
660.9000;0.4648;0.7720;
661.2000;0.4615;0.7720;
661.5000;0.4640;0.7744;
661.8000;0.4640;0.7744;
662.1000;0.4624;0.7744;
662.4000;0.4615;0.7673;
662.7000;0.4632;0.7720;
663.0000;0.4624;0.7649;
663.3000;0.4615;0.7768;
663.6000;0.4575;0.7720;
663.9000;0.4624;0.7768;
664.2000;0.4607;0.7744;
664.5000;0.4615;0.7744;
664.8000;0.4607;0.7815;
665.1000;0.4599;0.7791;
665.4000;0.4664;0.7981;
665.7000;0.4591;0.7768;
666.0000;0.4607;0.7720;
666.3000;0.4664;0.7815;
666.6000;0.4615;0.7791;
666.9000;0.4599;0.7839;
667.2000;0.4591;0.7791;
667.5000;0.4550;0.7673;
667.8000;0.4599;0.7791;
668.1000;0.4607;0.7886;
668.4000;0.4599;0.7862;
668.7000;0.4575;0.7862;
669.0000;0.4615;0.7981;
669.3000;0.4591;0.7886;
669.6000;0.4493;0.7673;
669.9000;0.4575;0.7886;
670.2000;0.4583;0.7862;
670.5000;0.4550;0.7768;
670.8000;0.4567;0.7768;
671.1000;0.4583;0.7696;
671.4000;0.4567;0.7649;
671.7000;0.4599;0.7744;
672.0000;0.4567;0.7720;
672.3000;0.4575;0.7673;
672.6000;0.4558;0.7578;
672.9000;0.4567;0.7625;
673.2000;0.4575;0.7578;
673.5000;0.4518;0.7341;
673.8000;0.4558;0.7460;
674.1000;0.4534;0.7460;
674.4000;0.4591;0.7602;
674.7000;0.4550;0.7483;
675.0000;0.4469;0.7294;
675.3000;0.4534;0.7483;
675.6000;0.4542;0.7460;
675.9000;0.4534;0.7507;
676.2000;0.4510;0.7483;
676.5000;0.4526;0.7507;
676.8000;0.4534;0.7578;
677.1000;0.4518;0.7507;
677.4000;0.4485;0.7460;
677.7000;0.4485;0.7436;
678.0000;0.4518;0.7460;
678.3000;0.4493;0.7389;
678.6000;0.4534;0.7696;
678.9000;0.4510;0.7673;
679.2000;0.4575;0.7815;
679.5000;0.4518;0.7720;
679.8000;0.4526;0.7720;
680.1000;0.4575;0.7768;
680.4000;0.4510;0.7436;
680.7000;0.4518;0.7436;
681.0000;0.4526;0.7483;
681.3000;0.4518;0.7507;
681.6000;0.4501;0.7412;
681.9000;0.4542;0.7483;
682.2000;0.4534;0.7436;
682.5000;0.4518;0.7436;
682.8000;0.4501;0.7507;
683.1000;0.4518;0.7554;
683.4000;0.4510;0.7602;
683.7000;0.4510;0.7554;
684.0000;0.4526;0.7554;
684.3000;0.4501;0.7483;
684.6000;0.4518;0.7554;
684.9000;0.4510;0.7602;
685.2000;0.4485;0.7602;
685.5000;0.4485;0.7602;
685.8000;0.4469;0.7578;
686.1000;0.4469;0.7602;
686.4000;0.4477;0.7602;
686.7000;0.4477;0.7460;
687.0000;0.4469;0.7483;
687.3000;0.4461;0.7507;
687.6000;0.4501;0.7578;
687.9000;0.4461;0.7602;
688.2000;0.4510;0.7862;
688.5000;0.4444;0.7673;
688.8000;0.4469;0.7673;
689.1000;0.4444;0.7578;
689.4000;0.4453;0.7673;
689.7000;0.4453;0.7673;
690.0000;0.4461;0.7602;
690.3000;0.4461;0.7696;
690.6000;0.4453;0.7768;
690.9000;0.4453;0.7839;
691.2000;0.4436;0.7839;
691.5000;0.4420;0.7673;
691.8000;0.4444;0.7720;
692.1000;0.4444;0.7720;
692.4000;0.4477;0.7791;
692.7000;0.4444;0.7720;
693.0000;0.4436;0.7791;
693.3000;0.4444;0.7839;
693.6000;0.4453;0.7768;
693.9000;0.4444;0.7839;
694.2000;0.4469;0.7910;
694.5000;0.4436;0.7815;
694.8000;0.4436;0.7862;
695.1000;0.4428;0.7839;
695.4000;0.4461;0.7791;
695.7000;0.4461;0.7839;
696.0000;0.4461;0.7815;
696.3000;0.4501;0.7910;
696.6000;0.4428;0.7696;
696.9000;0.4420;0.7720;
697.2000;0.4436;0.7720;
697.5000;0.4412;0.7696;
697.8000;0.4428;0.7673;
698.1000;0.4436;0.7768;
698.4000;0.4412;0.7815;
698.7000;0.4396;0.7768;
699.0000;0.4453;0.7862;
699.3000;0.4485;0.7839;
699.6000;0.4453;0.7649;
699.9000;0.4420;0.7554;
700.2000;0.4526;0.7957;
700.5000;0.4396;0.7554;
700.8000;0.4412;0.7460;
701.1000;0.4428;0.7578;
701.4000;0.4339;0.7531;
701.7000;0.4477;0.7791;
702.0000;0.4404;0.7578;
702.3000;0.4412;0.7602;
702.6000;0.4420;0.7649;
702.9000;0.4396;0.7578;
703.2000;0.4404;0.7554;
703.5000;0.4420;0.7531;
703.8000;0.4412;0.7625;
704.1000;0.4396;0.7554;
704.4000;0.4412;0.7554;
704.7000;0.4396;0.7507;
705.0000;0.4387;0.7483;
705.3000;0.4387;0.7531;
705.6000;0.4404;0.7507;
705.9000;0.4444;0.7744;
706.2000;0.4412;0.7720;
706.5000;0.4396;0.7673;
706.8000;0.4387;0.7696;
707.1000;0.4363;0.7673;
707.4000;0.4396;0.7815;
707.7000;0.4387;0.7839;
708.0000;0.4387;0.7791;
708.3000;0.4355;0.7768;
708.6000;0.4387;0.7791;
708.9000;0.4387;0.7720;
709.2000;0.4387;0.7673;
709.5000;0.4379;0.7602;
709.8000;0.4379;0.7625;
710.1000;0.4387;0.7649;
710.4000;0.4387;0.7673;
710.7000;0.4347;0.7554;
711.0000;0.4371;0.7602;
711.3000;0.4355;0.7649;
711.6000;0.4461;0.7910;
711.9000;0.4355;0.7554;
712.2000;0.4363;0.7507;
712.5000;0.4363;0.7531;
712.8000;0.4363;0.7507;
713.1000;0.4347;0.7389;
713.4000;0.4306;0.7318;
713.7000;0.4363;0.7460;
714.0000;0.4347;0.7389;
714.3000;0.4371;0.7389;
714.6000;0.4444;0.7602;
714.9000;0.4363;0.7436;
715.2000;0.4363;0.7460;
715.5000;0.4347;0.7460;
715.8000;0.4298;0.7365;
716.1000;0.4379;0.7673;
716.4000;0.4379;0.7744;
716.7000;0.4420;0.7815;
717.0000;0.4412;0.7768;
717.3000;0.4347;0.7744;
717.6000;0.4379;0.7815;
717.9000;0.4363;0.7768;
718.2000;0.4347;0.7862;
718.5000;0.4347;0.7768;
718.8000;0.4347;0.7649;
719.1000;0.4355;0.7673;
719.4000;0.4339;0.7673;
719.7000;0.4330;0.7625;
720.0000;0.4339;0.7720;
720.3000;0.4444;0.7957;
720.6000;0.4347;0.7744;
720.9000;0.4347;0.7720;
721.2000;0.4347;0.7625;
721.5000;0.4347;0.7578;
721.8000;0.4265;0.7365;
722.1000;0.4347;0.7578;
722.4000;0.4330;0.7602;
722.7000;0.4298;0.7625;
723.0000;0.4322;0.7602;
723.3000;0.4371;0.7720;
723.6000;0.4282;0.7554;
723.9000;0.4322;0.7602;
724.2000;0.4330;0.7625;
724.5000;0.4347;0.7625;
724.8000;0.4290;0.7507;
725.1000;0.4339;0.7696;
725.4000;0.4322;0.7720;
725.7000;0.4314;0.7791;
726.0000;0.4314;0.7791;
726.3000;0.4306;0.7720;
726.6000;0.4306;0.7673;
726.9000;0.4330;0.7768;
727.2000;0.4330;0.7791;
727.5000;0.4322;0.7791;
727.8000;0.4314;0.7839;
728.1000;0.4322;0.7886;
728.4000;0.4347;0.7957;
728.7000;0.4306;0.7744;
729.0000;0.4314;0.7696;
729.3000;0.4322;0.7673;
729.6000;0.4314;0.7578;
729.9000;0.4322;0.7673;
730.2000;0.4314;0.7673;
730.5000;0.4290;0.7649;
730.8000;0.4330;0.7720;
731.1000;0.4330;0.7768;
731.4000;0.4314;0.7744;
731.7000;0.4322;0.7696;
732.0000;0.4306;0.7696;
732.3000;0.4314;0.7649;
732.6000;0.4274;0.7531;
732.9000;0.4282;0.7554;
733.2000;0.4298;0.7554;
733.5000;0.4282;0.7602;
733.8000;0.4306;0.7554;
734.1000;0.4314;0.7720;
734.4000;0.4298;0.7673;
734.7000;0.4282;0.7578;
735.0000;0.4282;0.7625;
735.3000;0.4249;0.7554;
735.6000;0.4265;0.7649;
735.9000;0.4282;0.7625;
736.2000;0.4298;0.7696;
736.5000;0.4298;0.7744;
736.8000;0.4298;0.7744;
737.1000;0.4314;0.7791;
737.4000;0.4306;0.7768;
737.7000;0.4306;0.7696;
738.0000;0.4290;0.7696;
738.3000;0.4290;0.7673;
738.6000;0.4217;0.7483;
738.9000;0.4371;0.7933;
739.2000;0.4290;0.7791;
739.5000;0.4265;0.7839;
739.8000;0.4274;0.7696;
740.1000;0.4282;0.7744;
740.4000;0.4306;0.7768;
740.7000;0.4184;0.7483;
741.0000;0.4314;0.7673;
741.3000;0.4298;0.7602;
741.6000;0.4282;0.7483;
741.9000;0.4306;0.7483;
742.2000;0.4298;0.7531;
742.5000;0.4290;0.7436;
742.8000;0.4257;0.7460;
743.1000;0.4274;0.7412;
743.4000;0.4257;0.7412;
743.7000;0.4298;0.7483;
744.0000;0.4290;0.7412;
744.3000;0.4282;0.7507;
744.6000;0.4339;0.7696;
744.9000;0.4290;0.7531;
745.2000;0.4257;0.7507;
745.5000;0.4274;0.7578;
745.8000;0.4274;0.7720;
746.1000;0.4282;0.7625;
746.4000;0.4257;0.7578;
746.7000;0.4314;0.7602;
747.0000;0.4265;0.7483;
747.3000;0.4274;0.7602;
747.6000;0.4257;0.7531;
747.9000;0.4257;0.7554;
748.2000;0.4282;0.7625;
748.5000;0.4233;0.7531;
748.8000;0.4265;0.7554;
749.1000;0.4249;0.7531;
749.4000;0.4257;0.7554;
749.7000;0.4274;0.7768;
750.0000;0.4274;0.7720;
750.3000;0.4257;0.7791;
750.6000;0.4257;0.7720;
750.9000;0.4265;0.7791;
751.2000;0.4265;0.7862;
751.5000;0.4257;0.7720;
751.8000;0.4274;0.7673;
752.1000;0.4143;0.7389;
752.4000;0.4265;0.7554;
752.7000;0.4241;0.7554;
753.0000;0.4265;0.7602;
753.3000;0.4257;0.7531;
753.6000;0.4265;0.7625;
753.9000;0.4298;0.7815;
754.2000;0.4241;0.7673;
754.5000;0.4233;0.7673;
754.8000;0.4249;0.7791;
755.1000;0.4274;0.7862;
755.4000;0.4257;0.7744;
755.7000;0.4208;0.7578;
756.0000;0.4257;0.7696;
756.3000;0.4249;0.7696;
756.6000;0.4233;0.7696;
756.9000;0.4257;0.7625;
757.2000;0.4249;0.7507;
757.5000;0.4217;0.7531;
757.8000;0.4265;0.7531;
758.1000;0.4249;0.7531;
758.4000;0.4225;0.7412;
758.7000;0.4241;0.7460;
759.0000;0.4192;0.7270;
759.3000;0.4257;0.7365;
759.6000;0.4274;0.7578;
759.9000;0.4257;0.7578;
760.2000;0.4241;0.7531;
760.5000;0.4184;0.7412;
760.8000;0.4257;0.7554;
761.1000;0.4176;0.7483;
761.4000;0.4217;0.7649;
761.7000;0.4347;0.7910;
762.0000;0.4233;0.7554;
762.3000;0.4225;0.7436;
762.6000;0.4151;0.7199;
762.9000;0.4249;0.7389;
763.2000;0.4233;0.7318;
763.5000;0.4217;0.7270;
763.8000;0.4217;0.7247;
764.1000;0.4322;0.7412;
764.4000;0.4225;0.7152;
764.7000;0.4225;0.7223;
765.0000;0.4249;0.7318;
765.3000;0.4249;0.7318;
765.6000;0.4249;0.7341;
765.9000;0.4249;0.7270;
766.2000;0.4241;0.7294;
766.5000;0.4241;0.7365;
766.8000;0.4241;0.7341;
767.1000;0.4241;0.7436;
767.4000;0.4249;0.7507;
767.7000;0.4241;0.7507;
768.0000;0.4241;0.7483;
768.3000;0.4241;0.7460;
768.6000;0.4200;0.7318;
768.9000;0.4241;0.7436;
769.2000;0.4225;0.7389;
769.5000;0.4241;0.7436;
769.8000;0.4225;0.7365;
770.1000;0.4241;0.7389;
770.4000;0.4208;0.7341;
770.7000;0.4208;0.7483;
771.0000;0.4225;0.7554;
771.3000;0.4184;0.7602;
771.6000;0.4225;0.7720;
771.9000;0.4298;0.8028;
772.2000;0.4192;0.7815;
772.5000;0.4217;0.7933;
772.8000;0.4168;0.7791;
773.1000;0.4225;0.7862;
773.4000;0.4192;0.7554;
773.7000;0.4249;0.7649;
774.0000;0.4217;0.7554;
774.3000;0.4208;0.7673;
774.6000;0.4233;0.7673;
774.9000;0.4217;0.7578;
775.2000;0.4208;0.7507;
775.5000;0.4233;0.7507;
775.8000;0.4225;0.7460;
776.1000;0.4265;0.7578;
776.4000;0.4168;0.7412;
776.7000;0.4225;0.7531;
777.0000;0.4176;0.7460;
777.3000;0.4225;0.7531;
777.6000;0.4208;0.7554;
777.9000;0.4160;0.7578;
778.2000;0.4208;0.7768;
778.5000;0.4208;0.7649;
778.8000;0.4208;0.7625;
779.1000;0.4274;0.7696;
779.4000;0.4217;0.7531;
779.7000;0.4208;0.7578;
780.0000;0.4176;0.7436;
780.3000;0.4192;0.7483;
780.6000;0.4314;0.7791;
780.9000;0.4208;0.7507;
781.2000;0.4208;0.7531;
781.5000;0.4217;0.7578;
781.8000;0.4192;0.7412;
782.1000;0.4241;0.7554;
782.4000;0.4192;0.7460;
782.7000;0.4208;0.7436;
783.0000;0.4192;0.7507;
783.3000;0.4192;0.7625;
783.6000;0.4306;0.7886;
783.9000;0.4200;0.7578;
784.2000;0.4200;0.7531;
784.5000;0.4192;0.7554;
784.8000;0.4184;0.7625;
785.1000;0.4200;0.7578;
785.4000;0.4192;0.7531;
785.7000;0.4208;0.7649;
786.0000;0.4241;0.7744;
786.3000;0.4208;0.7696;
786.6000;0.4217;0.7649;
786.9000;0.4233;0.7649;
787.2000;0.4208;0.7602;
787.5000;0.4208;0.7649;
787.8000;0.4200;0.7625;
788.1000;0.4208;0.7649;
788.4000;0.4200;0.7625;
788.7000;0.4225;0.7696;
789.0000;0.4184;0.7696;
789.3000;0.4208;0.7696;
789.6000;0.4217;0.7696;
789.9000;0.4200;0.7578;
790.2000;0.4184;0.7554;
790.5000;0.4176;0.7507;
790.8000;0.4192;0.7554;
791.1000;0.4192;0.7507;
791.4000;0.4176;0.7507;
791.7000;0.4225;0.7460;
792.0000;0.4119;0.7270;
792.3000;0.4225;0.7531;
792.6000;0.4176;0.7412;
792.9000;0.4184;0.7318;
793.2000;0.4200;0.7412;
793.5000;0.4217;0.7460;
793.8000;0.4192;0.7412;
794.1000;0.4208;0.7412;
794.4000;0.4241;0.7531;
794.7000;0.4176;0.7531;
795.0000;0.4135;0.7483;
795.3000;0.4111;0.7389;
795.6000;0.4192;0.7625;
795.9000;0.4200;0.7578;
796.2000;0.4192;0.7554;
796.5000;0.4184;0.7483;
796.8000;0.4086;0.7199;
797.1000;0.4160;0.7412;
797.4000;0.4094;0.7270;
797.7000;0.4192;0.7460;
798.0000;0.4192;0.7436;
798.3000;0.4217;0.7483;
798.6000;0.4192;0.7507;
798.9000;0.4192;0.7531;
799.2000;0.4119;0.7365;
799.5000;0.4151;0.7341;
799.8000;0.4200;0.7483;
800.1000;0.4151;0.7341;
800.4000;0.4184;0.7365;
800.7000;0.4184;0.7365;
801.0000;0.4184;0.7389;
801.3000;0.4184;0.7389;
801.6000;0.4208;0.7389;
801.9000;0.4192;0.7507;
802.2000;0.4168;0.7412;
802.5000;0.4184;0.7365;
802.8000;0.4176;0.7365;
803.1000;0.4241;0.7483;
803.4000;0.4192;0.7412;
803.7000;0.4184;0.7389;
804.0000;0.4168;0.7412;
804.3000;0.4192;0.7460;
804.6000;0.4111;0.7341;
804.9000;0.4200;0.7554;
805.2000;0.4119;0.7341;
805.5000;0.4160;0.7436;
805.8000;0.4168;0.7554;
806.1000;0.4143;0.7578;
806.4000;0.4143;0.7531;
806.7000;0.4160;0.7578;
807.0000;0.4151;0.7554;
807.3000;0.4184;0.7625;
807.6000;0.4168;0.7649;
807.9000;0.4168;0.7602;
808.2000;0.4184;0.7483;
808.5000;0.4143;0.7365;
808.8000;0.4168;0.7602;
809.1000;0.4225;0.7910;
809.4000;0.4184;0.7720;
809.7000;0.4119;0.7554;
810.0000;0.4176;0.7578;
810.3000;0.4168;0.7602;
810.6000;0.4086;0.7389;
810.9000;0.4160;0.7460;
811.2000;0.4176;0.7602;
811.5000;0.4176;0.7625;
811.8000;0.4176;0.7649;
812.1000;0.4168;0.7768;
812.4000;0.4184;0.7768;
812.7000;0.4143;0.7673;
813.0000;0.4151;0.7815;
813.3000;0.4168;0.7744;
813.6000;0.4200;0.7744;
813.9000;0.4184;0.7696;
814.2000;0.4168;0.7625;
814.5000;0.4168;0.7625;
814.8000;0.4176;0.7673;
815.1000;0.4192;0.7625;
815.4000;0.4135;0.7483;
815.7000;0.4151;0.7507;
816.0000;0.4111;0.7436;
816.3000;0.4070;0.7365;
816.6000;0.4160;0.7578;
816.9000;0.4127;0.7436;
817.2000;0.4151;0.7554;
817.5000;0.4168;0.7483;
817.8000;0.4192;0.7389;
818.1000;0.4151;0.7318;
818.4000;0.4127;0.7318;
818.7000;0.4094;0.7318;
819.0000;0.4135;0.7436;
819.3000;0.4160;0.7507;
819.6000;0.4241;0.7578;
819.9000;0.4119;0.7365;
820.2000;0.4168;0.7673;
820.5000;0.4151;0.7649;
820.8000;0.4200;0.7839;
821.1000;0.4160;0.7791;
821.4000;0.4160;0.7696;
821.7000;0.4143;0.7720;
822.0000;0.4127;0.7673;
822.3000;0.4168;0.7720;
822.6000;0.4160;0.7554;
822.9000;0.4168;0.7531;
823.2000;0.4160;0.7460;
823.5000;0.4151;0.7389;
823.8000;0.4176;0.7412;
824.1000;0.4135;0.7341;
824.4000;0.4208;0.7436;
824.7000;0.4168;0.7341;
825.0000;0.4160;0.7365;
825.3000;0.4127;0.7389;
825.6000;0.4151;0.7436;
825.9000;0.4151;0.7436;
826.2000;0.4127;0.7365;
826.5000;0.4168;0.7412;
826.8000;0.4168;0.7460;
827.1000;0.4217;0.7578;
827.4000;0.4135;0.7507;
827.7000;0.4160;0.7578;
828.0000;0.4151;0.7625;
828.3000;0.4168;0.7720;
828.6000;0.4192;0.7744;
828.9000;0.4160;0.7720;
829.2000;0.4135;0.7673;
829.5000;0.4160;0.7744;
829.8000;0.4168;0.7696;
830.1000;0.4135;0.7531;
830.4000;0.4168;0.7649;
830.7000;0.4143;0.7554;
831.0000;0.4160;0.7602;
831.3000;0.4151;0.7625;
831.6000;0.4200;0.7696;
831.9000;0.4160;0.7625;
832.2000;0.4151;0.7578;
832.5000;0.4160;0.7578;
832.8000;0.4135;0.7531;
833.1000;0.4094;0.7318;
833.4000;0.4160;0.7460;
833.7000;0.4160;0.7460;
834.0000;0.4135;0.7412;
834.3000;0.4151;0.7460;
834.6000;0.4176;0.7507;
834.9000;0.4168;0.7531;
835.2000;0.4143;0.7554;
835.5000;0.4119;0.7507;
835.8000;0.4143;0.7483;
836.1000;0.4143;0.7436;
836.4000;0.4143;0.7531;
836.7000;0.4135;0.7507;
837.0000;0.4135;0.7483;
837.3000;0.4168;0.7602;
837.6000;0.4127;0.7531;
837.9000;0.4119;0.7602;
838.2000;0.4151;0.7720;
838.5000;0.4103;0.7696;
838.8000;0.4151;0.7696;
839.1000;0.4192;0.7862;
839.4000;0.4119;0.7554;
839.7000;0.4151;0.7744;
840.0000;0.4143;0.7720;
840.3000;0.4151;0.7768;
840.6000;0.4151;0.7815;
840.9000;0.4119;0.7815;
841.2000;0.4119;0.7791;
841.5000;0.4119;0.7768;
841.8000;0.4086;0.7673;
842.1000;0.4135;0.7791;
842.4000;0.4054;0.7649;
842.7000;0.4135;0.7815;
843.0000;0.4127;0.7768;
843.3000;0.4160;0.7815;
843.6000;0.4135;0.7815;
843.9000;0.4127;0.7815;
844.2000;0.4151;0.7815;
844.5000;0.4143;0.7768;
844.8000;0.4135;0.7720;
845.1000;0.4119;0.7696;
845.4000;0.4143;0.7791;
845.7000;0.4168;0.7839;
846.0000;0.4151;0.7862;
846.3000;0.4127;0.7768;
846.6000;0.4111;0.7602;
846.9000;0.4037;0.7483;
847.2000;0.4135;0.7696;
847.5000;0.4151;0.7720;
847.8000;0.4086;0.7531;
848.1000;0.4176;0.7768;
848.4000;0.4151;0.7720;
848.7000;0.4151;0.7744;
849.0000;0.4135;0.7673;
849.3000;0.4143;0.7625;
849.6000;0.4160;0.7602;
849.9000;0.4257;0.7910;
850.2000;0.4151;0.7696;
850.5000;0.4143;0.7602;
850.8000;0.4127;0.7578;
851.1000;0.4127;0.7649;
851.4000;0.4062;0.7436;
851.7000;0.4119;0.7602;
852.0000;0.4103;0.7578;
852.3000;0.4143;0.7696;
852.6000;0.4200;0.7862;
852.9000;0.4111;0.7554;
853.2000;0.4103;0.7602;
853.5000;0.4119;0.7791;
853.8000;0.4127;0.7791;
854.1000;0.4119;0.7673;
854.4000;0.4111;0.7625;
854.7000;0.4135;0.7744;
855.0000;0.4176;0.7839;
855.3000;0.4127;0.7720;
855.6000;0.4029;0.7507;
855.9000;0.4119;0.7744;
856.2000;0.4119;0.7744;
856.5000;0.4127;0.7720;
856.8000;0.4111;0.7768;
857.1000;0.4143;0.7768;
857.4000;0.4135;0.7720;
857.7000;0.4062;0.7554;
858.0000;0.4119;0.7696;
858.3000;0.4151;0.7768;
858.6000;0.4217;0.7957;
858.9000;0.4127;0.7578;
859.2000;0.4135;0.7507;
859.5000;0.4127;0.7554;
859.8000;0.4143;0.7696;
860.1000;0.4151;0.7625;
860.4000;0.4151;0.7602;
860.7000;0.4127;0.7602;
861.0000;0.4151;0.7602;
861.3000;0.4103;0.7554;
861.6000;0.4119;0.7625;
861.9000;0.4111;0.7673;
862.2000;0.4135;0.7791;
862.5000;0.4127;0.7862;
862.8000;0.4127;0.7910;
863.1000;0.4111;0.7744;
863.4000;0.4119;0.7744;
863.7000;0.4127;0.7791;
864.0000;0.4078;0.7578;
864.3000;0.4094;0.7625;
864.6000;0.4127;0.7649;
864.9000;0.4103;0.7673;
865.2000;0.4135;0.7744;
865.5000;0.4127;0.7744;
865.8000;0.4135;0.7839;
866.1000;0.4111;0.7815;
866.4000;0.4127;0.7815;
866.7000;0.4127;0.7768;
867.0000;0.4086;0.7696;
867.3000;0.4127;0.7720;
867.6000;0.4094;0.7649;
867.9000;0.4021;0.7436;
868.2000;0.4111;0.7649;
868.5000;0.4127;0.7696;
868.8000;0.4111;0.7673;
869.1000;0.4119;0.7673;
869.4000;0.4119;0.7768;
869.7000;0.4135;0.7791;
870.0000;0.4151;0.7862;
870.3000;0.4135;0.7720;
870.6000;0.4151;0.7696;
870.9000;0.4127;0.7625;
871.2000;0.4127;0.7625;
871.5000;0.4119;0.7649;
871.8000;0.4135;0.7696;
872.1000;0.4143;0.7696;
872.4000;0.4127;0.7673;
872.7000;0.4111;0.7673;
873.0000;0.4111;0.7602;
873.3000;0.4103;0.7696;
873.6000;0.4119;0.7815;
873.9000;0.4119;0.7791;
874.2000;0.4103;0.7720;
874.5000;0.4119;0.7744;
874.8000;0.4094;0.7673;
875.1000;0.4127;0.7744;
875.4000;0.4208;0.7862;
875.7000;0.4119;0.7673;
876.0000;0.4119;0.7602;
876.3000;0.4111;0.7578;
876.6000;0.4233;0.7815;
876.9000;0.4119;0.7507;
877.2000;0.4127;0.7554;
877.5000;0.4127;0.7554;
877.8000;0.4094;0.7531;
878.1000;0.4094;0.7625;
878.4000;0.4119;0.7768;
878.7000;0.4217;0.7957;
879.0000;0.4054;0.7483;
879.3000;0.4119;0.7649;
879.6000;0.4054;0.7483;
879.9000;0.4103;0.7554;
880.2000;0.4094;0.7436;
880.5000;0.4176;0.7578;
880.8000;0.4103;0.7341;
881.1000;0.4119;0.7247;
881.4000;0.4119;0.7294;
881.7000;0.4127;0.7389;
882.0000;0.4143;0.7412;
882.3000;0.4119;0.7412;
882.6000;0.4119;0.7412;
882.9000;0.4208;0.7578;
883.2000;0.4103;0.7412;
883.5000;0.4103;0.7460;
883.8000;0.4086;0.7389;
884.1000;0.4119;0.7483;
884.4000;0.4111;0.7507;
884.7000;0.4119;0.7507;
885.0000;0.4062;0.7412;
885.3000;0.4111;0.7673;
885.6000;0.4103;0.7625;
885.9000;0.4111;0.7649;
886.2000;0.4094;0.7602;
886.5000;0.4094;0.7673;
886.8000;0.4192;0.7933;
887.1000;0.4103;0.7649;
887.4000;0.4078;0.7554;
887.7000;0.4111;0.7744;
888.0000;0.4103;0.7815;
888.3000;0.4103;0.7839;
888.6000;0.4046;0.7744;
888.9000;0.4086;0.8004;
889.2000;0.4119;0.7957;
889.5000;0.4119;0.7886;
889.8000;0.4119;0.7839;
890.1000;0.4135;0.7791;
890.4000;0.4111;0.7673;
890.7000;0.4111;0.7696;
891.0000;0.4103;0.7744;
891.3000;0.4103;0.7649;
891.6000;0.4135;0.7720;
891.9000;0.4103;0.7768;
892.2000;0.4094;0.7791;
892.5000;0.4094;0.7768;
892.8000;0.4111;0.7886;
893.1000;0.4103;0.7649;
893.4000;0.4111;0.7602;
893.7000;0.4094;0.7625;
894.0000;0.4168;0.7815;
894.3000;0.4135;0.7720;
894.6000;0.4103;0.7673;
894.9000;0.4111;0.7673;
895.2000;0.4111;0.7720;
895.5000;0.4111;0.7720;
895.8000;0.4135;0.7862;
896.1000;0.4103;0.7839;
896.4000;0.4086;0.7768;
896.7000;0.4168;0.7933;
897.0000;0.4111;0.7815;
897.3000;0.4135;0.7791;
897.6000;0.4127;0.7744;
897.9000;0.4086;0.7673;
898.2000;0.4054;0.7507;
898.5000;0.4094;0.7602;
898.8000;0.4094;0.7578;
899.1000;0.4062;0.7483;
899.4000;0.4111;0.7578;
899.7000;0.4094;0.7531;
900.0000;0.4086;0.7554;
900.3000;0.4094;0.7554;
900.6000;0.4021;0.7365;
900.9000;0.4143;0.7602;
901.2000;0.4111;0.7483;
901.5000;0.4127;0.7578;
901.8000;0.4143;0.7578;
902.1000;0.4103;0.7531;
902.4000;0.4184;0.7791;
902.7000;0.4086;0.7625;
903.0000;0.4062;0.7554;
903.3000;0.4103;0.7554;
903.6000;0.4070;0.7389;
903.9000;0.4086;0.7460;
904.2000;0.4103;0.7436;
904.5000;0.4094;0.7365;
904.8000;0.4119;0.7389;
905.1000;0.4013;0.7199;
905.4000;0.4086;0.7412;
905.7000;0.4086;0.7412;
906.0000;0.4086;0.7436;
906.3000;0.4094;0.7460;
906.6000;0.4103;0.7483;
906.9000;0.4111;0.7436;
907.2000;0.4111;0.7483;
907.5000;0.4094;0.7531;
907.8000;0.4119;0.7625;
908.1000;0.4119;0.7602;
908.4000;0.4078;0.7531;
908.7000;0.4111;0.7673;
909.0000;0.4103;0.7673;
909.3000;0.4078;0.7673;
909.6000;0.4094;0.7673;
909.9000;0.4103;0.7720;
910.2000;0.4070;0.7649;
910.5000;0.4094;0.7673;
910.8000;0.4151;0.7696;
911.1000;0.4111;0.7554;
911.4000;0.4029;0.7389;
911.7000;0.4078;0.7602;
912.0000;0.4078;0.7602;
912.3000;0.4103;0.7602;
912.6000;0.4070;0.7507;
912.9000;0.4094;0.7507;
913.2000;0.4094;0.7554;
913.5000;0.4103;0.7625;
913.8000;0.4135;0.7696;
914.1000;0.4086;0.7744;
914.4000;0.4062;0.7720;
914.7000;0.4054;0.7768;
915.0000;0.4151;0.7981;
915.3000;0.4078;0.7744;
915.6000;0.4070;0.7815;
915.9000;0.4111;0.8004;
916.2000;0.4078;0.8004;
916.5000;0.4078;0.7862;
916.8000;0.4103;0.7910;
917.1000;0.4062;0.7768;
917.4000;0.4103;0.7910;
917.7000;0.4160;0.8075;
918.0000;0.4094;0.7886;
918.3000;0.4111;0.7910;
918.6000;0.4103;0.7839;
918.9000;0.4143;0.7839;
919.2000;0.4086;0.7768;
919.5000;0.4111;0.7768;
919.8000;0.4111;0.7744;
920.1000;0.4103;0.7744;
920.4000;0.4094;0.7720;
920.7000;0.4086;0.7720;
921.0000;0.4103;0.7673;
921.3000;0.4143;0.7791;
921.6000;0.4094;0.7696;
921.9000;0.4119;0.7768;
922.2000;0.4078;0.7649;
922.5000;0.4176;0.7910;
922.8000;0.4086;0.7744;
923.1000;0.4103;0.7720;
923.4000;0.4094;0.7673;
923.7000;0.4086;0.7744;
924.0000;0.4086;0.7768;
924.3000;0.4070;0.7791;
924.6000;0.4078;0.7839;
924.9000;0.4078;0.7839;
925.2000;0.4054;0.7862;
925.5000;0.4046;0.7839;
925.8000;0.4062;0.7815;
926.1000;0.4078;0.7933;
926.4000;0.4094;0.7886;
926.7000;0.4094;0.8004;
927.0000;0.4029;0.7839;
927.3000;0.4111;0.7957;
927.6000;0.4086;0.7886;
927.9000;0.4062;0.7862;
928.2000;0.4046;0.7720;
928.5000;0.4103;0.7839;
928.8000;0.4078;0.7910;
929.1000;0.4054;0.7744;
929.4000;0.4078;0.7791;
929.7000;0.4078;0.7815;
930.0000;0.4103;0.7910;
930.3000;0.4086;0.7886;
930.6000;0.4070;0.7886;
930.9000;0.4078;0.7910;
931.2000;0.4094;0.7957;
931.5000;0.4086;0.7933;
931.8000;0.4111;0.7910;
932.1000;0.4086;0.7815;
932.4000;0.4094;0.7839;
932.7000;0.4078;0.7696;
933.0000;0.4094;0.7720;
933.3000;0.4070;0.7625;
933.6000;0.4094;0.7649;
933.9000;0.4103;0.7768;
934.2000;0.4086;0.7768;
934.5000;0.4070;0.7791;
934.8000;0.4119;0.7862;
935.1000;0.4086;0.7862;
935.4000;0.4151;0.8004;
935.7000;0.4070;0.7744;
936.0000;0.3997;0.7578;
936.3000;0.4078;0.7625;
936.6000;0.4103;0.7673;
936.9000;0.4070;0.7625;
937.2000;0.4094;0.7744;
937.5000;0.4094;0.7744;
937.8000;0.4168;0.8004;
938.1000;0.4078;0.7815;
938.4000;0.4078;0.7862;
938.7000;0.4078;0.7791;
939.0000;0.4062;0.7815;
939.3000;0.4078;0.7886;
939.6000;0.4078;0.7839;
939.9000;0.4078;0.7815;
940.2000;0.4086;0.7862;
940.5000;0.4111;0.7862;
940.8000;0.4086;0.7696;
941.1000;0.4111;0.7791;
941.4000;0.4103;0.7744;
941.7000;0.4135;0.7839;
942.0000;0.4103;0.7720;
942.3000;0.4078;0.7649;
942.6000;0.4103;0.7673;
942.9000;0.4111;0.7696;
943.2000;0.4103;0.7768;
943.5000;0.4086;0.7768;
943.8000;0.4070;0.7625;
944.1000;0.4070;0.7649;
944.4000;0.4078;0.7696;
944.7000;0.4062;0.7578;
945.0000;0.4078;0.7602;
945.3000;0.4094;0.7673;
945.6000;0.4078;0.7673;
945.9000;0.4070;0.7696;
946.2000;0.4054;0.7531;
946.5000;0.4086;0.7649;
946.8000;0.4062;0.7554;
947.1000;0.4078;0.7649;
947.4000;0.4054;0.7744;
947.7000;0.4070;0.7744;
948.0000;0.4046;0.7673;
948.3000;0.4054;0.7744;
948.6000;0.4086;0.7744;
948.9000;0.4054;0.7720;
949.2000;0.4078;0.7744;
949.5000;0.4103;0.7839;
949.8000;0.4062;0.7744;
950.1000;0.4005;0.7578;
950.4000;0.4078;0.7815;
950.7000;0.4070;0.7910;
951.0000;0.4119;0.8028;
951.3000;0.4054;0.7839;
951.6000;0.3980;0.7625;
951.9000;0.4070;0.7886;
952.2000;0.3948;0.7578;
952.5000;0.4054;0.7815;
952.8000;0.4078;0.7886;
953.1000;0.4021;0.7815;
953.4000;0.4103;0.7981;
953.7000;0.4094;0.7981;
954.0000;0.4078;0.7981;
954.3000;0.4070;0.8052;
954.6000;0.4078;0.8028;
954.9000;0.4054;0.8052;
955.2000;0.4062;0.7910;
955.5000;0.4046;0.7957;
955.8000;0.4078;0.8004;
956.1000;0.4094;0.7933;
956.4000;0.4078;0.7957;
956.7000;0.4086;0.8028;
957.0000;0.4103;0.8099;
957.3000;0.4086;0.7981;
957.6000;0.4054;0.7933;
957.9000;0.4151;0.8170;
958.2000;0.4086;0.8075;
958.5000;0.4070;0.8004;
958.8000;0.4086;0.8004;
959.1000;0.4070;0.7981;
959.4000;0.4054;0.7910;
959.7000;0.4070;0.7957;
960.0000;0.4054;0.7957;
960.3000;0.4094;0.8004;
960.6000;0.4062;0.7933;
960.9000;0.4062;0.7981;
961.2000;0.4070;0.7981;
961.5000;0.4078;0.8052;
961.8000;0.4078;0.8146;
962.1000;0.4062;0.8028;
962.4000;0.4086;0.8123;
962.7000;0.4062;0.8052;
963.0000;0.4078;0.7981;
963.3000;0.4078;0.7862;
963.6000;0.4086;0.7815;
963.9000;0.4078;0.7744;
964.2000;0.4078;0.7720;
964.5000;0.4070;0.7720;
964.8000;0.4078;0.7673;
965.1000;0.4070;0.7696;
965.4000;0.4078;0.7768;
965.7000;0.4078;0.7744;
966.0000;0.4094;0.7910;
966.3000;0.4086;0.7886;
966.6000;0.4086;0.7933;
966.9000;0.4070;0.7981;
967.2000;0.4094;0.7886;
967.5000;0.4070;0.7839;
967.8000;0.4054;0.7815;
968.1000;0.4078;0.7815;
968.4000;0.4078;0.7862;
968.7000;0.4086;0.7862;
969.0000;0.4062;0.7862;
969.3000;0.4078;0.7886;
969.6000;0.4046;0.7791;
969.9000;0.4062;0.7768;
970.2000;0.4054;0.7768;
970.5000;0.4046;0.7720;
970.8000;0.4062;0.7839;
971.1000;0.4086;0.7839;
971.4000;0.4111;0.7933;
971.7000;0.4046;0.7791;
972.0000;0.4029;0.7649;
972.3000;0.4078;0.7839;
972.6000;0.4070;0.7839;
972.9000;0.4062;0.7815;
973.2000;0.4054;0.7910;
973.5000;0.4062;0.7886;
973.8000;0.4062;0.7815;
974.1000;0.4054;0.7815;
974.4000;0.4054;0.7768;
974.7000;0.4046;0.7720;
975.0000;0.4062;0.7744;
975.3000;0.4054;0.7649;
975.6000;0.4062;0.7649;
975.9000;0.4070;0.7791;
976.2000;0.4111;0.7862;
976.5000;0.4021;0.7673;
976.8000;0.4046;0.7815;
977.1000;0.4046;0.7815;
977.4000;0.4078;0.7815;
977.7000;0.4070;0.7768;
978.0000;0.4054;0.7744;
978.3000;0.4062;0.7862;
978.6000;0.4070;0.7862;
978.9000;0.4103;0.8004;
979.2000;0.4062;0.7862;
979.5000;0.4070;0.7862;
979.8000;0.4086;0.7981;
980.1000;0.4070;0.7933;
980.4000;0.4054;0.7910;
980.7000;0.4046;0.7862;
981.0000;0.4062;0.7910;
981.3000;0.4054;0.8004;
981.6000;0.4070;0.8146;
981.9000;0.4062;0.8146;
982.2000;0.4062;0.8075;
982.5000;0.4078;0.8028;
982.8000;0.4062;0.8004;
983.1000;0.4062;0.8028;
983.4000;0.3997;0.7886;
983.7000;0.4070;0.8004;
984.0000;0.4078;0.7910;
984.3000;0.4062;0.7791;
984.6000;0.4086;0.7839;
984.9000;0.4086;0.7815;
985.2000;0.4127;0.7957;
985.5000;0.4078;0.7886;
985.8000;0.4029;0.7720;
986.1000;0.4070;0.7744;
986.4000;0.4078;0.7696;
986.7000;0.4054;0.7673;
987.0000;0.4037;0.7625;
987.3000;0.4062;0.7791;
987.6000;0.4086;0.7839;
987.9000;0.4021;0.7578;
988.2000;0.4078;0.7696;
988.5000;0.4070;0.7720;
988.8000;0.4086;0.7815;
989.1000;0.4103;0.7957;
989.4000;0.4054;0.7933;
989.7000;0.4070;0.7933;
990.0000;0.4021;0.7673;
990.3000;0.4062;0.7768;
990.6000;0.4062;0.7791;
990.9000;0.4021;0.7673;
991.2000;0.4054;0.7791;
991.5000;0.4070;0.7910;
991.8000;0.4070;0.7957;
992.1000;0.4119;0.8075;
992.4000;0.4054;0.7886;
992.7000;0.4046;0.7910;
993.0000;0.4054;0.7862;
993.3000;0.4046;0.7933;
993.6000;0.4046;0.7862;
993.9000;0.4119;0.7957;
994.2000;0.4111;0.7910;
994.5000;0.4046;0.7720;
994.8000;0.4046;0.7720;
995.1000;0.4005;0.7696;
995.4000;0.4070;0.7839;
995.7000;0.4037;0.7625;
996.0000;0.4062;0.7625;
996.3000;0.4046;0.7625;
996.6000;0.4054;0.7602;
996.9000;0.4054;0.7720;
997.2000;0.4037;0.7768;
997.5000;0.4062;0.7957;
997.8000;0.4037;0.7886;
998.1000;0.4078;0.7910;
998.4000;0.4070;0.7933;
998.7000;0.4062;0.7886;
999.0000;0.4046;0.7862;
999.3000;0.4062;0.7815;
999.6000;0.4135;0.7933;
999.9000;0.4037;0.7625;
1000.2000;0.4078;0.7768;
1000.5000;0.4086;0.7768;
1000.8000;0.4078;0.7839;
1001.1000;0.4054;0.7768;
1001.4000;0.4054;0.7696;
1001.7000;0.4054;0.7815;
1002.0000;0.4111;0.7957;
1002.3000;0.4037;0.7768;
1002.6000;0.4062;0.7815;
1002.9000;0.4062;0.7768;
1003.2000;0.4054;0.7744;
1003.5000;0.4070;0.7886;
1003.8000;0.4054;0.7862;
1004.1000;0.4070;0.7839;
1004.4000;0.4046;0.7886;
1004.7000;0.4046;0.7886;
1005.0000;0.4029;0.7910;
1005.3000;0.4046;0.7910;
1005.6000;0.4070;0.7910;
1005.9000;0.3997;0.7791;
1006.2000;0.4046;0.7744;
1006.5000;0.4021;0.7696;
1006.8000;0.4029;0.7768;
1007.1000;0.4086;0.7744;
1007.4000;0.4062;0.7696;
1007.7000;0.4062;0.7673;
1008.0000;0.4037;0.7696;
1008.3000;0.4054;0.7791;
1008.6000;0.4054;0.7862;
1008.9000;0.4054;0.7862;
1009.2000;0.4054;0.7862;
1009.5000;0.4046;0.7815;
1009.8000;0.4029;0.7744;
1010.1000;0.4037;0.7839;
1010.4000;0.4054;0.7839;
1010.7000;0.4054;0.7839;
1011.0000;0.4062;0.7862;
1011.3000;0.4054;0.7839;
1011.6000;0.4046;0.7815;
1011.9000;0.4062;0.7815;
1012.2000;0.4054;0.7791;
1012.5000;0.4062;0.7862;
1012.8000;0.4168;0.8099;
1013.1000;0.4054;0.7862;
1013.4000;0.4037;0.7957;
1013.7000;0.4062;0.8099;
1014.0000;0.4013;0.7933;
1014.3000;0.3989;0.7744;
1014.6000;0.4054;0.7933;
1014.9000;0.4062;0.7862;
1015.2000;0.4046;0.7839;
1015.5000;0.4046;0.7933;
1015.8000;0.4062;0.7862;
1016.1000;0.4070;0.7815;
1016.4000;0.4054;0.7839;
1016.7000;0.4078;0.7910;
1017.0000;0.4046;0.7886;
1017.3000;0.4046;0.7886;
1017.6000;0.4029;0.7839;
1017.9000;0.4062;0.7933;
1018.2000;0.4054;0.8004;
1018.5000;0.4054;0.8052;
1018.8000;0.4062;0.7981;
1019.1000;0.4037;0.7933;
1019.4000;0.4046;0.7886;
1019.7000;0.4062;0.7933;
1020.0000;0.4046;0.7886;
1020.3000;0.4021;0.7886;
1020.6000;0.4037;0.7981;
1020.9000;0.4062;0.7910;
1021.2000;0.4046;0.7862;
1021.5000;0.4037;0.7910;
1021.8000;0.4029;0.7862;
1022.1000;0.4046;0.7957;
1022.4000;0.4046;0.7957;
1022.7000;0.4037;0.7910;
1023.0000;0.3948;0.7720;
1023.3000;0.4046;0.8028;
1023.6000;0.4062;0.8052;
1023.9000;0.4013;0.7933;
1024.2000;0.4062;0.8004;
1024.5000;0.4054;0.7957;
1024.8000;0.4086;0.7933;
1025.1000;0.4054;0.7862;
1025.4000;0.4046;0.7815;
1025.7000;0.4062;0.7910;
1026.0000;0.4054;0.7933;
1026.3000;0.4062;0.8052;
1026.6000;0.4070;0.8099;
1026.9000;0.4086;0.8075;
1027.2000;0.4070;0.8099;
1027.5000;0.4029;0.8004;
1027.8000;0.4062;0.8146;
1028.1000;0.4062;0.8146;
1028.4000;0.4062;0.8123;
1028.7000;0.4021;0.7933;
1029.0000;0.4054;0.8052;
1029.3000;0.4086;0.8123;
1029.6000;0.4054;0.8052;
1029.9000;0.4078;0.8004;
1030.2000;0.4046;0.7933;
1030.5000;0.4054;0.7981;
1030.8000;0.4054;0.7981;
1031.1000;0.4046;0.7981;
1031.4000;0.3989;0.7839;
1031.7000;0.4037;0.8004;
1032.0000;0.4037;0.7957;
1032.3000;0.4046;0.8004;
1032.6000;0.4013;0.7862;
1032.9000;0.4054;0.7886;
1033.2000;0.4037;0.7886;
1033.5000;0.4062;0.7862;
1033.8000;0.4111;0.8028;
1034.1000;0.4037;0.7862;
1034.4000;0.4037;0.7886;
1034.7000;0.4029;0.7886;
1035.0000;0.4054;0.7957;
1035.3000;0.4054;0.7910;
1035.6000;0.4062;0.7886;
1035.9000;0.4119;0.8004;
1036.2000;0.4046;0.7957;
1036.5000;0.4054;0.7933;
1036.8000;0.4037;0.7981;
1037.1000;0.4037;0.7910;
1037.4000;0.4062;0.7910;
1037.7000;0.4046;0.7957;
1038.0000;0.4046;0.7957;
1038.3000;0.4046;0.7957;
1038.6000;0.4070;0.7910;
1038.9000;0.4054;0.7862;
1039.2000;0.4046;0.7862;
1039.5000;0.4005;0.7578;
1039.8000;0.4037;0.7625;
1040.1000;0.4046;0.7625;
1040.4000;0.4078;0.7815;
1040.7000;0.4046;0.7768;
1041.0000;0.4078;0.7886;
1041.3000;0.4037;0.7839;
1041.6000;0.4029;0.7839;
1041.9000;0.4037;0.7768;
1042.2000;0.4046;0.7886;
1042.5000;0.3989;0.7791;
1042.8000;0.4037;0.7910;
1043.1000;0.4013;0.7791;
1043.4000;0.4029;0.7910;
1043.7000;0.4046;0.7886;
1044.0000;0.4005;0.7696;
1044.3000;0.4013;0.7720;
1044.6000;0.3997;0.7768;
1044.9000;0.4037;0.7839;
1045.2000;0.4078;0.7957;
1045.5000;0.4046;0.7933;
1045.8000;0.4013;0.7933;
1046.1000;0.3956;0.7791;
1046.4000;0.4046;0.7957;
1046.7000;0.3989;0.7791;
1047.0000;0.4037;0.7981;
1047.3000;0.4029;0.8052;
1047.6000;0.4054;0.8123;
1047.9000;0.4054;0.8099;
1048.2000;0.4046;0.8052;
1048.5000;0.4070;0.8004;
1048.8000;0.4046;0.7910;
1049.1000;0.4054;0.7886;
1049.4000;0.4054;0.7957;
1049.7000;0.4054;0.7957;
1050.0000;0.4046;0.8028;
1050.3000;0.4054;0.8028;
1050.6000;0.4037;0.7981;
1050.9000;0.4062;0.7957;
1051.2000;0.4037;0.8004;
1051.5000;0.4054;0.8028;
1051.8000;0.4029;0.7910;
1052.1000;0.4046;0.7981;
1052.4000;0.4054;0.7933;
1052.7000;0.4054;0.8004;
1053.0000;0.4021;0.7886;
1053.3000;0.4029;0.7744;
1053.6000;0.4111;0.8004;
1053.9000;0.4029;0.7791;
1054.2000;0.4029;0.7744;
1054.5000;0.4054;0.7768;
1054.8000;0.4021;0.7673;
1055.1000;0.4046;0.7815;
1055.4000;0.4046;0.7886;
1055.7000;0.4029;0.7815;
1056.0000;0.4054;0.7815;
1056.3000;0.4046;0.7815;
1056.6000;0.4062;0.7839;
1056.9000;0.4062;0.7791;
1057.2000;0.4046;0.7791;
1057.5000;0.4029;0.7768;
1057.8000;0.4046;0.7673;
1058.1000;0.4037;0.7602;
1058.4000;0.4037;0.7507;
1058.7000;0.4037;0.7602;
1059.0000;0.4029;0.7720;
1059.3000;0.4070;0.7886;
1059.6000;0.4037;0.7862;
1059.9000;0.4054;0.7886;
1060.2000;0.4037;0.7886;
1060.5000;0.4078;0.7910;
1060.8000;0.4046;0.7933;
1061.1000;0.4086;0.8052;
1061.4000;0.4054;0.7862;
1061.7000;0.4029;0.7815;
1062.0000;0.4021;0.7815;
1062.3000;0.4151;0.8123;
1062.6000;0.4037;0.7696;
1062.9000;0.4029;0.7625;
1063.2000;0.4029;0.7768;
1063.5000;0.4094;0.7981;
1063.8000;0.4037;0.7839;
1064.1000;0.4070;0.7981;
1064.4000;0.4062;0.8004;
1064.7000;0.4021;0.8004;
1065.0000;0.4078;0.8052;
1065.3000;0.4037;0.7886;
1065.6000;0.4005;0.7791;
1065.9000;0.4029;0.7768;
1066.2000;0.4013;0.7720;
1066.5000;0.3891;0.7412;
1066.8000;0.3972;0.7602;
1067.1000;0.4037;0.7696;
1067.4000;0.4054;0.7696;
1067.7000;0.4078;0.7768;
1068.0000;0.4046;0.7768;
1068.3000;0.4054;0.7791;
1068.6000;0.4029;0.7625;
1068.9000;0.4013;0.7578;
1069.2000;0.4021;0.7625;
1069.5000;0.4111;0.7957;
1069.8000;0.4021;0.7791;
1070.1000;0.4151;0.8146;
1070.4000;0.4037;0.7910;
1070.7000;0.4111;0.8028;
1071.0000;0.4078;0.7933;
1071.3000;0.4062;0.7791;
1071.6000;0.4054;0.7744;
1071.9000;0.4070;0.7815;
1072.2000;0.4037;0.7744;
1072.5000;0.4062;0.7720;
1072.8000;0.4046;0.7602;
1073.1000;0.4054;0.7720;
1073.4000;0.4054;0.7744;
1073.7000;0.4054;0.7768;
1074.0000;0.4046;0.7791;
1074.3000;0.4046;0.7744;
1074.6000;0.4037;0.7768;
1074.9000;0.4021;0.7720;
1075.2000;0.4037;0.7696;
1075.5000;0.4086;0.7886;
1075.8000;0.4062;0.7910;
1076.1000;0.4046;0.7910;
1076.4000;0.4103;0.7933;
1076.7000;0.4054;0.7815;
1077.0000;0.4062;0.7910;
1077.3000;0.4029;0.7768;
1077.6000;0.4078;0.7791;
1077.9000;0.3964;0.7483;
1078.2000;0.4054;0.7649;
1078.5000;0.4037;0.7507;
1078.8000;0.4021;0.7507;
1079.1000;0.4021;0.7507;
1079.4000;0.4037;0.7696;
1079.7000;0.4013;0.7649;
1080.0000;0.4021;0.7696;
1080.3000;0.3997;0.7649;
1080.6000;0.4005;0.7554;
1080.9000;0.4046;0.7578;
1081.2000;0.4054;0.7696;
1081.5000;0.4037;0.7625;
1081.8000;0.4086;0.7886;
1082.1000;0.4029;0.7673;
1082.4000;0.4046;0.7696;
1082.7000;0.4119;0.7910;
1083.0000;0.4029;0.7720;
1083.3000;0.4094;0.7862;
1083.6000;0.4054;0.7791;
1083.9000;0.4111;0.7981;
1084.2000;0.4029;0.7815;
1084.5000;0.4046;0.7791;
1084.8000;0.4037;0.7673;
1085.1000;0.4078;0.7696;
1085.4000;0.4029;0.7578;
1085.7000;0.4037;0.7578;
1086.0000;0.4135;0.7815;
1086.3000;0.4037;0.7696;
1086.6000;0.4094;0.7768;
1086.9000;0.4021;0.7554;
1087.2000;0.4037;0.7696;
1087.5000;0.4062;0.7696;
1087.8000;0.4037;0.7696;
1088.1000;0.4013;0.7696;
1088.4000;0.4046;0.7744;
1088.7000;0.4046;0.7791;
1089.0000;0.4037;0.7791;
1089.3000;0.4037;0.7720;
1089.6000;0.4046;0.7839;
1089.9000;0.4029;0.7815;
1090.2000;0.4029;0.7862;
1090.5000;0.4029;0.7815;
1090.8000;0.4029;0.7768;
1091.1000;0.4103;0.7886;
1091.4000;0.4046;0.7720;
1091.7000;0.4078;0.7791;
1092.0000;0.4054;0.7839;
1092.3000;0.4037;0.7886;
1092.6000;0.4046;0.7910;
1092.9000;0.4029;0.7839;
1093.2000;0.4029;0.7839;
1093.5000;0.4029;0.7933;
1093.8000;0.4046;0.7933;
1094.1000;0.4029;0.7815;
1094.4000;0.4037;0.7862;
1094.7000;0.4046;0.7791;
1095.0000;0.4054;0.7862;
1095.3000;0.4037;0.7815;
1095.6000;0.4029;0.7862;
1095.9000;0.4046;0.7910;
1096.2000;0.4054;0.7910;
1096.5000;0.4046;0.7933;
1096.8000;0.4054;0.7862;
1097.1000;0.4037;0.7862;
1097.4000;0.4029;0.7744;
1097.7000;0.4037;0.7696;
1098.0000;0.4029;0.7720;
1098.3000;0.4046;0.7744;
1098.6000;0.4037;0.7744;
1098.9000;0.4070;0.7862;
1099.2000;0.4013;0.7768;
1099.5000;0.4078;0.7981;
1099.8000;0.4021;0.7768;
1100.1000;0.4037;0.7815;
1100.4000;0.4013;0.7791;
1100.7000;0.4013;0.7815;
1101.0000;0.4037;0.7862;
1101.3000;0.3972;0.7673;
1101.6000;0.4046;0.7886;
1101.9000;0.4029;0.7744;
1102.2000;0.4029;0.7744;
1102.5000;0.3989;0.7602;
1102.8000;0.4029;0.7649;
1103.1000;0.4029;0.7625;
1103.4000;0.4005;0.7673;
1103.7000;0.4037;0.7839;
1104.0000;0.4037;0.7839;
1104.3000;0.4013;0.7744;
1104.6000;0.4029;0.7744;
1104.9000;0.4054;0.7862;
1105.2000;0.4029;0.7791;
1105.5000;0.4013;0.7744;
1105.8000;0.4021;0.7839;
1106.1000;0.4046;0.7862;
1106.4000;0.4005;0.7791;
1106.7000;0.4062;0.7839;
1107.0000;0.3997;0.7554;
1107.3000;0.4021;0.7649;
1107.6000;0.4029;0.7696;
1107.9000;0.3972;0.7673;
1108.2000;0.4029;0.7862;
1108.5000;0.4127;0.8099;
1108.8000;0.3964;0.7625;
1109.1000;0.3997;0.7815;
1109.4000;0.4029;0.7933;
1109.7000;0.4021;0.7981;
1110.0000;0.4037;0.7933;
1110.3000;0.4029;0.7910;
1110.6000;0.4013;0.7862;
1110.9000;0.4070;0.7910;
1111.2000;0.4029;0.7839;
1111.5000;0.4021;0.7910;
1111.8000;0.3972;0.7933;
1112.1000;0.4021;0.7981;
1112.4000;0.4029;0.7933;
1112.7000;0.4021;0.7981;
1113.0000;0.4021;0.7981;
1113.3000;0.4029;0.7957;
1113.6000;0.4005;0.7910;
1113.9000;0.4029;0.7886;
1114.2000;0.4029;0.7815;
1114.5000;0.4013;0.7720;
1114.8000;0.4037;0.7744;
1115.1000;0.4021;0.7720;
1115.4000;0.4021;0.7696;
1115.7000;0.4021;0.7649;
1116.0000;0.4013;0.7649;
1116.3000;0.4021;0.7649;
1116.6000;0.3997;0.7625;
1116.9000;0.4013;0.7744;
1117.2000;0.3932;0.7602;
1117.5000;0.4111;0.8052;
1117.8000;0.4005;0.7768;
1118.1000;0.4029;0.7744;
1118.4000;0.4021;0.7768;
1118.7000;0.4021;0.7839;
1119.0000;0.4037;0.7933;
1119.3000;0.4029;0.7839;
1119.6000;0.4037;0.7768;
1119.9000;0.4029;0.7673;
1120.2000;0.4037;0.7649;
1120.5000;0.4046;0.7815;
1120.8000;0.4013;0.7720;
1121.1000;0.4037;0.7720;
1121.4000;0.4013;0.7673;
1121.7000;0.4029;0.7744;
1122.0000;0.4013;0.7791;
1122.3000;0.3997;0.7862;
1122.6000;0.4037;0.8028;
1122.9000;0.4054;0.8004;
1123.2000;0.4037;0.8075;
1123.5000;0.4013;0.7910;
1123.8000;0.4046;0.7910;
1124.1000;0.4029;0.7910;
1124.4000;0.4037;0.7957;
1124.7000;0.4013;0.7910;
1125.0000;0.4046;0.7957;
1125.3000;0.4037;0.7910;
1125.6000;0.4029;0.7815;
1125.9000;0.4037;0.7768;
1126.2000;0.4021;0.7720;
1126.5000;0.4029;0.7862;
1126.8000;0.4135;0.8194;
1127.1000;0.4005;0.7957;
1127.4000;0.4029;0.7957;
1127.7000;0.4062;0.8052;
1128.0000;0.4046;0.7981;
1128.3000;0.4029;0.7910;
1128.6000;0.4021;0.7981;
1128.9000;0.3989;0.7862;
1129.2000;0.4086;0.8075;
1129.5000;0.4021;0.7910;
1129.8000;0.4013;0.7910;
1130.1000;0.4005;0.7910;
1130.4000;0.4021;0.7910;
1130.7000;0.4013;0.7910;
1131.0000;0.4021;0.7957;
1131.3000;0.4013;0.7933;
1131.6000;0.4046;0.8052;
1131.9000;0.4029;0.8075;
1132.2000;0.4021;0.8004;
1132.5000;0.4005;0.7933;
1132.8000;0.4013;0.7981;
1133.1000;0.3883;0.7625;
1133.4000;0.4029;0.7910;
1133.7000;0.4021;0.7910;
1134.0000;0.4119;0.8170;
1134.3000;0.4029;0.7933;
1134.6000;0.4037;0.8146;
1134.9000;0.4005;0.8099;
1135.2000;0.4021;0.8146;
1135.5000;0.4054;0.8241;
1135.8000;0.3956;0.7957;
1136.1000;0.4021;0.8028;
1136.4000;0.4029;0.7957;
1136.7000;0.4029;0.8052;
1137.0000;0.4062;0.8146;
1137.3000;0.4021;0.8170;
1137.6000;0.3980;0.8028;
1137.9000;0.4029;0.7981;
1138.2000;0.4037;0.8004;
1138.5000;0.4029;0.8004;
1138.8000;0.4029;0.8075;
1139.1000;0.4029;0.8052;
1139.4000;0.4037;0.8028;
1139.7000;0.4021;0.7910;
1140.0000;0.4021;0.7981;
1140.3000;0.4021;0.7981;
1140.6000;0.3964;0.7673;
1140.9000;0.4037;0.7791;
1141.2000;0.4037;0.7744;
1141.5000;0.3997;0.7673;
1141.8000;0.4029;0.7791;
1142.1000;0.4046;0.7886;
1142.4000;0.4029;0.7910;
1142.7000;0.4021;0.7815;
1143.0000;0.4046;0.7768;
1143.3000;0.4054;0.7768;
1143.6000;0.4029;0.7696;
1143.9000;0.4037;0.7649;
1144.2000;0.4021;0.7578;
1144.5000;0.4021;0.7625;
1144.8000;0.4005;0.7602;
1145.1000;0.4013;0.7625;
1145.4000;0.3997;0.7578;
1145.7000;0.4029;0.7673;
1146.0000;0.4037;0.7696;
1146.3000;0.4029;0.7720;
1146.6000;0.3997;0.7602;
1146.9000;0.4013;0.7649;
1147.2000;0.4029;0.7696;
1147.5000;0.4054;0.7720;
1147.8000;0.4037;0.7815;
1148.1000;0.4037;0.7791;
1148.4000;0.4046;0.7744;
1148.7000;0.4021;0.7768;
1149.0000;0.4054;0.7862;
1149.3000;0.4021;0.7791;
1149.6000;0.4037;0.7791;
1149.9000;0.4046;0.7886;
1150.2000;0.4029;0.7744;
1150.5000;0.4029;0.7625;
1150.8000;0.4062;0.7673;
1151.1000;0.4013;0.7649;
1151.4000;0.4013;0.7531;
1151.7000;0.4029;0.7531;
1152.0000;0.4013;0.7554;
1152.3000;0.4046;0.7625;
1152.6000;0.4037;0.7696;
1152.9000;0.4029;0.7649;
1153.2000;0.4021;0.7720;
1153.5000;0.4021;0.7744;
1153.8000;0.4054;0.7815;
1154.1000;0.4046;0.7744;
1154.4000;0.4037;0.7720;
1154.7000;0.4029;0.7696;
1155.0000;0.4037;0.7696;
1155.3000;0.4021;0.7625;
1155.6000;0.3980;0.7649;
1155.9000;0.4013;0.7768;
1156.2000;0.4046;0.7910;
1156.5000;0.4021;0.7673;
1156.8000;0.4029;0.7554;
1157.1000;0.4037;0.7531;
1157.4000;0.4021;0.7460;
1157.7000;0.4013;0.7412;
1158.0000;0.3989;0.7460;
1158.3000;0.4005;0.7554;
1158.6000;0.3989;0.7483;
1158.9000;0.4005;0.7625;
1159.2000;0.4062;0.7696;
1159.5000;0.4013;0.7625;
1159.8000;0.3956;0.7578;
1160.1000;0.3980;0.7554;
1160.4000;0.4021;0.7602;
1160.7000;0.4029;0.7720;
1161.0000;0.4013;0.7673;
1161.3000;0.4021;0.7625;
1161.6000;0.3997;0.7673;
1161.9000;0.4029;0.7720;
1162.2000;0.4054;0.7815;
1162.5000;0.4086;0.7933;
1162.8000;0.4054;0.7839;
1163.1000;0.4021;0.7791;
1163.4000;0.4021;0.7768;
1163.7000;0.3964;0.7673;
1164.0000;0.4005;0.7791;
1164.3000;0.4037;0.7886;
1164.6000;0.4037;0.7815;
1164.9000;0.4029;0.7744;
1165.2000;0.4046;0.7862;
1165.5000;0.4021;0.7862;
1165.8000;0.4029;0.7815;
1166.1000;0.3980;0.7696;
1166.4000;0.4046;0.7791;
1166.7000;0.4005;0.7554;
1167.0000;0.4021;0.7602;
1167.3000;0.4029;0.7578;
1167.6000;0.4005;0.7602;
1167.9000;0.3940;0.7483;
1168.2000;0.4005;0.7744;
1168.5000;0.4029;0.7791;
1168.8000;0.3972;0.7720;
1169.1000;0.4029;0.7933;
1169.4000;0.4021;0.7933;
1169.7000;0.4021;0.7957;
1170.0000;0.4005;0.7815;
1170.3000;0.4029;0.7791;
1170.6000;0.4005;0.7696;
1170.9000;0.4037;0.7744;
1171.2000;0.4037;0.7744;
1171.5000;0.4037;0.7768;
1171.8000;0.4005;0.7625;
1172.1000;0.4013;0.7649;
1172.4000;0.3989;0.7578;
1172.7000;0.4029;0.7744;
1173.0000;0.4037;0.7862;
1173.3000;0.4013;0.7862;
1173.6000;0.3989;0.7791;
1173.9000;0.4046;0.7815;
1174.2000;0.4037;0.7744;
1174.5000;0.4037;0.7673;
1174.8000;0.4029;0.7720;
1175.1000;0.3997;0.7673;
1175.4000;0.4037;0.7744;
1175.7000;0.4029;0.7720;
1176.0000;0.3997;0.7649;
1176.3000;0.3956;0.7578;
1176.6000;0.4021;0.7791;
1176.9000;0.4005;0.7720;
1177.2000;0.4037;0.7862;
1177.5000;0.4037;0.7862;
1177.8000;0.4029;0.7768;
1178.1000;0.3989;0.7673;
1178.4000;0.3989;0.7673;
1178.7000;0.4029;0.7744;
1179.0000;0.3956;0.7578;
1179.3000;0.4029;0.7791;
1179.6000;0.4054;0.7839;
1179.9000;0.4005;0.7673;
1180.2000;0.4021;0.7696;
1180.5000;0.4021;0.7720;
1180.8000;0.4029;0.7933;
1181.1000;0.4013;0.7910;
1181.4000;0.4005;0.7815;
1181.7000;0.4005;0.7720;
1182.0000;0.4013;0.7649;
1182.3000;0.4005;0.7649;
1182.6000;0.4005;0.7649;
1182.9000;0.4005;0.7720;
1183.2000;0.4021;0.7768;
1183.5000;0.3940;0.7531;
1183.8000;0.4005;0.7696;
1184.1000;0.4021;0.7744;
1184.4000;0.4005;0.7649;
1184.7000;0.4013;0.7768;
1185.0000;0.4029;0.7791;
1185.3000;0.4013;0.7720;
1185.6000;0.4029;0.7815;
1185.9000;0.4021;0.7791;
1186.2000;0.4005;0.7720;
1186.5000;0.4021;0.7744;
1186.8000;0.4062;0.7815;
1187.1000;0.4013;0.7696;
1187.4000;0.4005;0.7673;
1187.7000;0.4013;0.7720;
1188.0000;0.4086;0.7933;
1188.3000;0.4029;0.7768;
1188.6000;0.4005;0.7768;
1188.9000;0.4021;0.7839;
1189.2000;0.4054;0.7862;
1189.5000;0.4013;0.7673;
1189.8000;0.4037;0.7839;
1190.1000;0.4046;0.7862;
1190.4000;0.4021;0.7862;
1190.7000;0.4013;0.7933;
1191.0000;0.4029;0.7957;
1191.3000;0.4029;0.8004;
1191.6000;0.4029;0.7981;
1191.9000;0.4013;0.7933;
1192.2000;0.4013;0.8004;
1192.5000;0.4054;0.7981;
1192.8000;0.4013;0.7886;
1193.1000;0.4029;0.7839;
1193.4000;0.4037;0.7815;
1193.7000;0.4013;0.7815;
1194.0000;0.4021;0.7720;
1194.3000;0.3940;0.7507;
1194.6000;0.4037;0.7815;
1194.9000;0.4005;0.7862;
1195.2000;0.4013;0.7981;
1195.5000;0.4005;0.8052;
1195.8000;0.4005;0.7981;
1196.1000;0.4021;0.8123;
1196.4000;0.4021;0.8052;
1196.7000;0.4013;0.8028;
1197.0000;0.4005;0.8052;
1197.3000;0.4013;0.8052;
1197.6000;0.4013;0.8075;
1197.9000;0.4013;0.8123;
1198.2000;0.4013;0.8170;
1198.5000;0.4005;0.8217;
1198.8000;0.4005;0.8170;
1199.1000;0.3997;0.8052;
1199.4000;0.4037;0.8170;
1199.7000;0.3907;0.7886;
1200.0000;0.3948;0.8028;
1200.3000;0.4086;0.8265;
1200.6000;0.4013;0.8052;
1200.9000;0.4013;0.8099;
1201.2000;0.4070;0.8241;
1201.5000;0.4013;0.8028;
1201.8000;0.4062;0.8123;
1202.1000;0.3964;0.7910;
1202.4000;0.4029;0.8075;
1202.7000;0.4013;0.8028;
1203.0000;0.4062;0.8146;
1203.3000;0.3989;0.7886;
1203.6000;0.4021;0.7886;
1203.9000;0.4029;0.7886;
1204.2000;0.4029;0.7933;
1204.5000;0.4021;0.7910;
1204.8000;0.4037;0.7981;
1205.1000;0.4037;0.8028;
1205.4000;0.4070;0.8099;
1205.7000;0.4013;0.7933;
1206.0000;0.4013;0.7933;
1206.3000;0.4013;0.7910;
1206.6000;0.4021;0.7815;
1206.9000;0.4013;0.7886;
1207.2000;0.4005;0.7862;
1207.5000;0.4005;0.7815;
1207.8000;0.3997;0.7839;
1208.1000;0.3980;0.7910;
1208.4000;0.4005;0.7981;
1208.7000;0.4005;0.8052;
1209.0000;0.4021;0.8123;
1209.3000;0.3997;0.8004;
1209.6000;0.4005;0.8004;
1209.9000;0.4013;0.7981;
1210.2000;0.4021;0.7933;
1210.5000;0.3989;0.7839;
1210.8000;0.4062;0.8052;
1211.1000;0.4013;0.7886;
1211.4000;0.3997;0.7886;
1211.7000;0.3980;0.7791;
1212.0000;0.4005;0.7839;
1212.3000;0.4021;0.7886;
1212.6000;0.4013;0.7839;
1212.9000;0.4005;0.7815;
1213.2000;0.4005;0.7744;
1213.5000;0.3997;0.7649;
1213.8000;0.4021;0.7673;
1214.1000;0.4013;0.7673;
1214.4000;0.4013;0.7720;
1214.7000;0.3997;0.7483;
1215.0000;0.4021;0.7625;
1215.3000;0.4029;0.7602;
1215.6000;0.3997;0.7554;
1215.9000;0.4021;0.7625;
1216.2000;0.4013;0.7696;
1216.5000;0.4103;0.8028;
1216.8000;0.4013;0.7791;
1217.1000;0.4021;0.7862;
1217.4000;0.4013;0.7862;
1217.7000;0.4029;0.7815;
1218.0000;0.4005;0.7720;
1218.3000;0.3997;0.7720;
1218.6000;0.4013;0.7720;
1218.9000;0.4005;0.7768;
1219.2000;0.4021;0.7839;
1219.5000;0.4013;0.7862;
1219.8000;0.4111;0.8028;
1220.1000;0.4005;0.7815;
1220.4000;0.4021;0.7744;
1220.7000;0.4021;0.7815;
1221.0000;0.4005;0.7791;
1221.3000;0.4013;0.7768;
1221.6000;0.4013;0.7791;
1221.9000;0.4013;0.7791;
1222.2000;0.3964;0.7625;
1222.5000;0.4013;0.7744;
1222.8000;0.4021;0.7839;
1223.1000;0.3997;0.7933;
1223.4000;0.4013;0.7933;
1223.7000;0.4013;0.7910;
1224.0000;0.3997;0.7839;
1224.3000;0.4013;0.7886;
1224.6000;0.4013;0.7839;
1224.9000;0.4062;0.7957;
1225.2000;0.4013;0.7862;
1225.5000;0.3997;0.7862;
1225.8000;0.4005;0.7886;
1226.1000;0.3964;0.7744;
1226.4000;0.4013;0.7839;
1226.7000;0.3989;0.7815;
1227.0000;0.4005;0.7886;
1227.3000;0.3980;0.7981;
1227.6000;0.4005;0.7981;
1227.9000;0.3964;0.7910;
1228.2000;0.4005;0.8004;
1228.5000;0.4013;0.8028;
1228.8000;0.4005;0.8052;
1229.1000;0.4029;0.8123;
1229.4000;0.4021;0.8146;
1229.7000;0.4005;0.8194;
1230.0000;0.4021;0.8170;
1230.3000;0.4021;0.8146;
1230.6000;0.4013;0.8170;
1230.9000;0.4005;0.8146;
1231.2000;0.4013;0.8028;
1231.5000;0.4013;0.8099;
1231.8000;0.3964;0.8028;
1232.1000;0.4005;0.8099;
1232.4000;0.3997;0.8123;
1232.7000;0.3948;0.7933;
1233.0000;0.4094;0.8336;
1233.3000;0.3997;0.8099;
1233.6000;0.3972;0.7957;
1233.9000;0.4005;0.8028;
1234.2000;0.4021;0.7933;
1234.5000;0.4021;0.7862;
1234.8000;0.4037;0.7768;
1235.1000;0.4029;0.7744;
1235.4000;0.4021;0.7696;
1235.7000;0.4062;0.7744;
1236.0000;0.4005;0.7696;
1236.3000;0.4005;0.7768;
1236.6000;0.4021;0.7744;
1236.9000;0.4013;0.7768;
1237.2000;0.4013;0.7744;
1237.5000;0.3997;0.7720;
1237.8000;0.3891;0.7554;
1238.1000;0.4021;0.7862;
1238.4000;0.4037;0.7839;
1238.7000;0.4111;0.8052;
1239.0000;0.4013;0.7815;
1239.3000;0.4111;0.8028;
1239.6000;0.4029;0.7839;
1239.9000;0.4021;0.7744;
1240.2000;0.4029;0.7791;
1240.5000;0.4037;0.7815;
1240.8000;0.4046;0.7839;
1241.1000;0.4046;0.7768;
1241.4000;0.4021;0.7720;
1241.7000;0.4054;0.7744;
1242.0000;0.4005;0.7744;
1242.3000;0.4029;0.7791;
1242.6000;0.3997;0.7744;
1242.9000;0.4021;0.7791;
1243.2000;0.4013;0.7957;
1243.5000;0.3940;0.7815;
1243.8000;0.4005;0.7933;
1244.1000;0.4013;0.7839;
1244.4000;0.4062;0.7910;
1244.7000;0.4005;0.7791;
1245.0000;0.3989;0.7791;
1245.3000;0.3997;0.7886;
1245.6000;0.4029;0.7957;
1245.9000;0.4029;0.7933;
1246.2000;0.4013;0.7862;
1246.5000;0.4013;0.7886;
1246.8000;0.4029;0.7862;
1247.1000;0.3980;0.7720;
1247.4000;0.4005;0.7815;
1247.7000;0.4013;0.7839;
1248.0000;0.4029;0.7981;
1248.3000;0.4013;0.7910;
1248.6000;0.4005;0.7815;
1248.9000;0.4021;0.7886;
1249.2000;0.4021;0.7910;
1249.5000;0.4013;0.7839;
1249.8000;0.3989;0.7744;
1250.1000;0.3997;0.7791;
1250.4000;0.4021;0.7768;
1250.7000;0.4021;0.7839;
1251.0000;0.4013;0.7839;
1251.3000;0.4029;0.7886;
1251.6000;0.4005;0.7839;
1251.9000;0.4013;0.7815;
1252.2000;0.4013;0.7768;
1252.5000;0.3972;0.7602;
1252.8000;0.4037;0.7768;
1253.1000;0.4021;0.7720;
1253.4000;0.4013;0.7578;
1253.7000;0.3980;0.7554;
1254.0000;0.3989;0.7602;
1254.3000;0.4029;0.7673;
1254.6000;0.4054;0.7839;
1254.9000;0.4054;0.7862;
1255.2000;0.3956;0.7531;
1255.5000;0.4111;0.7981;
1255.8000;0.4013;0.7696;
1256.1000;0.4013;0.7649;
1256.4000;0.4005;0.7649;
1256.7000;0.4037;0.7720;
1257.0000;0.4046;0.7744;
1257.3000;0.4029;0.7815;
1257.6000;0.4086;0.8004;
1257.9000;0.4013;0.7768;
1258.2000;0.4078;0.7933;
1258.5000;0.3964;0.7602;
1258.8000;0.4029;0.7744;
1259.1000;0.4013;0.7696;
1259.4000;0.3980;0.7507;
1259.7000;0.4037;0.7673;
1260.0000;0.4029;0.7862;
1260.3000;0.3997;0.7862;
1260.6000;0.4005;0.7957;
1260.9000;0.4005;0.8004;
1261.2000;0.3997;0.7862;
1261.5000;0.4005;0.7862;
1261.8000;0.3972;0.7862;
1262.1000;0.4013;0.8052;
1262.4000;0.3940;0.7862;
1262.7000;0.4005;0.7957;
1263.0000;0.3964;0.7815;
1263.3000;0.4005;0.7910;
1263.6000;0.3972;0.7933;
1263.9000;0.3989;0.7981;
1264.2000;0.4013;0.8028;
1264.5000;0.3997;0.8052;
1264.8000;0.4037;0.8052;
1265.1000;0.3997;0.7886;
1265.4000;0.4005;0.7981;
1265.7000;0.3980;0.7981;
1266.0000;0.4029;0.8099;
1266.3000;0.4005;0.8123;
1266.6000;0.4013;0.8146;
1266.9000;0.3997;0.8004;
1267.2000;0.3997;0.8075;
1267.5000;0.3997;0.7981;
1267.8000;0.4021;0.8052;
1268.1000;0.4013;0.8099;
1268.4000;0.4029;0.8099;
1268.7000;0.4005;0.8028;
1269.0000;0.4029;0.8028;
1269.3000;0.4013;0.8028;
1269.6000;0.4029;0.8075;
1269.9000;0.4054;0.8146;
1270.2000;0.3997;0.7933;
1270.5000;0.3989;0.7886;
1270.8000;0.4005;0.7910;
1271.1000;0.4029;0.8004;
1271.4000;0.4005;0.7886;
1271.7000;0.4021;0.7910;
1272.0000;0.4013;0.8028;
1272.3000;0.4013;0.8028;
1272.6000;0.4078;0.8123;
1272.9000;0.4021;0.8004;
1273.2000;0.4005;0.7886;
1273.5000;0.4062;0.7981;
1273.8000;0.4005;0.7862;
1274.1000;0.4037;0.7981;
1274.4000;0.4021;0.7910;
1274.7000;0.3997;0.7957;
1275.0000;0.3989;0.7981;
1275.3000;0.3997;0.8004;
1275.6000;0.3923;0.7815;
1275.9000;0.4029;0.8004;
1276.2000;0.4021;0.8028;
1276.5000;0.4029;0.7910;
1276.8000;0.3956;0.7696;
1277.1000;0.3867;0.7531;
1277.4000;0.4046;0.8028;
1277.7000;0.3997;0.7910;
1278.0000;0.3956;0.7791;
1278.3000;0.3989;0.7957;
1278.6000;0.3907;0.7696;
1278.9000;0.4013;0.8075;
1279.2000;0.4046;0.8099;
1279.5000;0.4054;0.8123;
1279.8000;0.4021;0.8004;
1280.1000;0.3997;0.7862;
1280.4000;0.3980;0.7910;
1280.7000;0.3989;0.7839;
1281.0000;0.4021;0.7933;
1281.3000;0.3980;0.7862;
1281.6000;0.3923;0.7791;
1281.9000;0.3989;0.7981;
1282.2000;0.3989;0.7886;
1282.5000;0.4013;0.7886;
1282.8000;0.4029;0.7791;
1283.1000;0.3997;0.7720;
1283.4000;0.4013;0.7791;
1283.7000;0.4005;0.7649;
1284.0000;0.4021;0.7649;
1284.3000;0.4029;0.7531;
1284.6000;0.3997;0.7412;
1284.9000;0.3997;0.7436;
1285.2000;0.3997;0.7460;
1285.5000;0.4013;0.7602;
1285.8000;0.4119;0.7933;
1286.1000;0.3980;0.7554;
1286.4000;0.4005;0.7649;
1286.7000;0.3997;0.7625;
1287.0000;0.4021;0.7649;
1287.3000;0.3997;0.7602;
1287.6000;0.4037;0.7696;
1287.9000;0.4013;0.7673;
1288.2000;0.4005;0.7625;
1288.5000;0.4029;0.7625;
1288.8000;0.4021;0.7744;
1289.1000;0.4029;0.7720;
1289.4000;0.3997;0.7744;
1289.7000;0.3923;0.7625;
1290.0000;0.3997;0.7791;
1290.3000;0.4005;0.7815;
1290.6000;0.3989;0.7768;
1290.9000;0.4005;0.7791;
1291.2000;0.4005;0.7862;
1291.5000;0.3997;0.7768;
1291.8000;0.4021;0.7862;
1292.1000;0.3980;0.7862;
1292.4000;0.4021;0.7981;
1292.7000;0.3997;0.7933;
1293.0000;0.4054;0.7933;
1293.3000;0.3989;0.7744;
1293.6000;0.3997;0.7673;
1293.9000;0.4013;0.7625;
1294.2000;0.4005;0.7602;
1294.5000;0.4005;0.7531;
1294.8000;0.3989;0.7507;
1295.1000;0.4037;0.7673;
1295.4000;0.4013;0.7602;
1295.7000;0.4005;0.7673;
1296.0000;0.4046;0.7791;
1296.3000;0.4005;0.7839;
1296.6000;0.4013;0.7862;
1296.9000;0.3997;0.7862;
1297.2000;0.4013;0.7815;
1297.5000;0.4005;0.7791;
1297.8000;0.4013;0.7862;
1298.1000;0.4037;0.7933;
1298.4000;0.3940;0.7720;
1298.7000;0.3980;0.7720;
1299.0000;0.4029;0.7791;
1299.3000;0.4013;0.7720;
1299.6000;0.4078;0.7886;
1299.9000;0.4005;0.7649;
1300.2000;0.3980;0.7696;
1300.5000;0.4013;0.7791;
1300.8000;0.3989;0.7720;
1301.1000;0.3989;0.7720;
1301.4000;0.3923;0.7602;
1301.7000;0.4005;0.7862;
1302.0000;0.4005;0.7862;
1302.3000;0.4021;0.7957;
1302.6000;0.4013;0.7933;
1302.9000;0.4021;0.8004;
1303.2000;0.4029;0.8004;
1303.5000;0.4054;0.8217;
1303.8000;0.3989;0.7981;
1304.1000;0.4013;0.7933;
1304.4000;0.4013;0.7862;
1304.7000;0.4013;0.7815;
1305.0000;0.4013;0.7839;
1305.3000;0.3989;0.7839;
1305.6000;0.4005;0.7815;
1305.9000;0.4005;0.7791;
1306.2000;0.3989;0.7839;
1306.5000;0.4029;0.8028;
1306.8000;0.3997;0.7910;
1307.1000;0.4005;0.7886;
1307.4000;0.3972;0.7815;
1307.7000;0.3997;0.7862;
1308.0000;0.3989;0.7886;
1308.3000;0.4021;0.8028;
1308.6000;0.4013;0.8146;
1308.9000;0.4005;0.8075;
1309.2000;0.4013;0.8075;
1309.5000;0.4013;0.8123;
1309.8000;0.3989;0.8028;
1310.1000;0.4029;0.8075;
1310.4000;0.4021;0.8099;
1310.7000;0.3989;0.7981;
1311.0000;0.4078;0.8170;
1311.3000;0.4005;0.7981;
1311.6000;0.3997;0.8004;
1311.9000;0.3948;0.7886;
1312.2000;0.4021;0.8146;
1312.5000;0.4021;0.8146;
1312.8000;0.4021;0.8241;
1313.1000;0.4005;0.8265;
1313.4000;0.4005;0.8312;
1313.7000;0.3997;0.8312;
1314.0000;0.3972;0.8194;
1314.3000;0.4029;0.8336;
1314.6000;0.3980;0.8123;
1314.9000;0.4005;0.8241;
1315.2000;0.4021;0.8217;
1315.5000;0.3997;0.8075;
1315.8000;0.3997;0.8099;
1316.1000;0.3997;0.8075;
1316.4000;0.3997;0.8004;
1316.7000;0.3932;0.7910;
1317.0000;0.4021;0.8123;
1317.3000;0.4005;0.8004;
1317.6000;0.3997;0.7933;
1317.9000;0.4013;0.7933;
1318.2000;0.3972;0.7886;
1318.5000;0.3972;0.7933;
1318.8000;0.3972;0.7910;
1319.1000;0.3980;0.7886;
1319.4000;0.4021;0.7981;
1319.7000;0.4013;0.7910;
1320.0000;0.4005;0.7839;
1320.3000;0.4013;0.7886;
1320.6000;0.3997;0.7886;
1320.9000;0.3972;0.7839;
1321.2000;0.4005;0.7910;
1321.5000;0.3997;0.7910;
1321.8000;0.4021;0.8004;
1322.1000;0.3997;0.7886;
1322.4000;0.4005;0.7862;
1322.7000;0.3989;0.7839;
1323.0000;0.3997;0.7768;
1323.3000;0.4005;0.7791;
1323.6000;0.3989;0.7768;
1323.9000;0.4021;0.7862;
1324.2000;0.4005;0.7815;
1324.5000;0.4013;0.7815;
1324.8000;0.3997;0.7791;
1325.1000;0.4070;0.8004;
1325.4000;0.4013;0.7815;
1325.7000;0.4005;0.7768;
1326.0000;0.4021;0.7744;
1326.3000;0.4005;0.7720;
1326.6000;0.3980;0.7696;
1326.9000;0.3980;0.7720;
1327.2000;0.3989;0.7768;
1327.5000;0.3997;0.7696;
1327.8000;0.3997;0.7744;
1328.1000;0.4021;0.7791;
1328.4000;0.4013;0.7910;
1328.7000;0.3972;0.7862;
1329.0000;0.4005;0.7981;
1329.3000;0.3997;0.7957;
1329.6000;0.4005;0.7910;
1329.9000;0.4013;0.7910;
1330.2000;0.4005;0.7886;
1330.5000;0.3980;0.7768;
1330.8000;0.4005;0.7933;
1331.1000;0.3989;0.7910;
1331.4000;0.3997;0.8028;
1331.7000;0.4005;0.8052;
1332.0000;0.3980;0.7957;
1332.3000;0.3989;0.7862;
1332.6000;0.4013;0.7957;
1332.9000;0.3989;0.7933;
1333.2000;0.3997;0.7910;
1333.5000;0.3956;0.7791;
1333.8000;0.3997;0.7886;
1334.1000;0.3997;0.7957;
1334.4000;0.3948;0.7744;
1334.7000;0.4029;0.8028;
1335.0000;0.4005;0.7933;
1335.3000;0.4005;0.7886;
1335.6000;0.3997;0.7910;
1335.9000;0.3980;0.7815;
1336.2000;0.3989;0.7886;
1336.5000;0.3989;0.7981;
1336.8000;0.3989;0.8028;
1337.1000;0.3989;0.8004;
1337.4000;0.3997;0.8123;
1337.7000;0.3956;0.8146;
1338.0000;0.3997;0.8194;
1338.3000;0.3989;0.8194;
1338.6000;0.3989;0.8146;
1338.9000;0.4005;0.8170;
1339.2000;0.3980;0.8123;
1339.5000;0.3997;0.8075;
1339.8000;0.3964;0.8052;
1340.1000;0.4005;0.8099;
1340.4000;0.3997;0.8075;
1340.7000;0.3997;0.8004;
1341.0000;0.3989;0.7957;
1341.3000;0.4005;0.8004;
1341.6000;0.4005;0.8028;
1341.9000;0.3997;0.8028;
1342.2000;0.3997;0.7957;
1342.5000;0.3989;0.7981;
1342.8000;0.3972;0.7957;
1343.1000;0.4005;0.7933;
1343.4000;0.3997;0.7886;
1343.7000;0.3997;0.7886;
1344.0000;0.3980;0.8028;
1344.3000;0.3997;0.8052;
1344.6000;0.3989;0.8004;
1344.9000;0.3972;0.7957;
1345.2000;0.3964;0.7886;
1345.5000;0.4005;0.8004;
1345.8000;0.3997;0.7839;
1346.1000;0.3980;0.7768;
1346.4000;0.3972;0.7768;
1346.7000;0.3907;0.7602;
1347.0000;0.4005;0.7886;
1347.3000;0.3980;0.7862;
1347.6000;0.4021;0.7981;
1347.9000;0.3989;0.7933;
1348.2000;0.3997;0.7910;
1348.5000;0.3997;0.7886;
1348.8000;0.3972;0.7815;
1349.1000;0.4013;0.7933;
1349.4000;0.4005;0.8028;
1349.7000;0.3997;0.8028;
1350.0000;0.4013;0.8099;
1350.3000;0.4029;0.8170;
1350.6000;0.3997;0.8004;
1350.9000;0.3972;0.7933;
1351.2000;0.3980;0.7957;
1351.5000;0.3980;0.7862;
1351.8000;0.3997;0.7886;
1352.1000;0.3997;0.7910;
1352.4000;0.4005;0.7957;
1352.7000;0.4013;0.7957;
1353.0000;0.4021;0.8028;
1353.3000;0.3997;0.7981;
1353.6000;0.4013;0.8052;
1353.9000;0.4005;0.8004;
1354.2000;0.4029;0.8194;
1354.5000;0.4005;0.8217;
1354.8000;0.3997;0.8123;
1355.1000;0.4005;0.8052;
1355.4000;0.4005;0.8004;
1355.7000;0.3989;0.8004;
1356.0000;0.4005;0.8004;
1356.3000;0.4013;0.8052;
1356.6000;0.4013;0.8004;
1356.9000;0.4013;0.8028;
1357.2000;0.4005;0.8028;
1357.5000;0.3997;0.7933;
1357.8000;0.3997;0.7933;
1358.1000;0.3989;0.7886;
1358.4000;0.4005;0.8004;
1358.7000;0.3980;0.8004;
1359.0000;0.4005;0.8052;
1359.3000;0.4005;0.8123;
1359.6000;0.4013;0.8075;
1359.9000;0.4005;0.8052;
1360.2000;0.3997;0.8028;
1360.5000;0.4013;0.8099;
1360.8000;0.4013;0.8146;
1361.1000;0.3997;0.8146;
1361.4000;0.4005;0.8052;
1361.7000;0.4013;0.8123;
1362.0000;0.4013;0.8123;
1362.3000;0.3989;0.8028;
1362.6000;0.3989;0.7910;
1362.9000;0.3980;0.7886;
1363.2000;0.4021;0.7839;
1363.5000;0.4021;0.7696;
1363.8000;0.4021;0.7720;
1364.1000;0.3989;0.7625;
1364.4000;0.4021;0.7673;
1364.7000;0.3956;0.7602;
1365.0000;0.3997;0.7744;
1365.3000;0.4005;0.7839;
1365.6000;0.4029;0.7862;
1365.9000;0.4013;0.7744;
1366.2000;0.4005;0.7839;
1366.5000;0.4005;0.7933;
1366.8000;0.3989;0.7839;
1367.1000;0.3989;0.7744;
1367.4000;0.4005;0.7768;
1367.7000;0.4013;0.7791;
1368.0000;0.3997;0.7744;
1368.3000;0.4005;0.7649;
1368.6000;0.4005;0.7768;
1368.9000;0.4119;0.8123;
1369.2000;0.4013;0.7910;
1369.5000;0.3923;0.7862;
1369.8000;0.3989;0.8028;
1370.1000;0.4005;0.8004;
1370.4000;0.4037;0.7981;
1370.7000;0.3989;0.7957;
1371.0000;0.3972;0.7839;
1371.3000;0.3989;0.7862;
1371.6000;0.3989;0.7957;
1371.9000;0.4013;0.7933;
1372.2000;0.4013;0.7957;
1372.5000;0.3980;0.7981;
1372.8000;0.3980;0.7933;
1373.1000;0.3980;0.7910;
1373.4000;0.3980;0.7933;
1373.7000;0.3940;0.7886;
1374.0000;0.3989;0.7981;
1374.3000;0.3956;0.7910;
1374.6000;0.3997;0.8052;
1374.9000;0.3980;0.8004;
1375.2000;0.3997;0.8028;
1375.5000;0.3989;0.8052;
1375.8000;0.3989;0.7957;
1376.1000;0.3989;0.7839;
1376.4000;0.3997;0.7839;
1376.7000;0.3972;0.7696;
1377.0000;0.4021;0.7839;
1377.3000;0.4005;0.7839;
1377.6000;0.3997;0.7815;
1377.9000;0.3989;0.7815;
1378.2000;0.4005;0.7933;
1378.5000;0.4013;0.7957;
1378.8000;0.4005;0.7957;
1379.1000;0.3997;0.7981;
1379.4000;0.3964;0.7981;
1379.7000;0.3989;0.8004;
1380.0000;0.4005;0.7981;
1380.3000;0.3997;0.7886;
1380.6000;0.3989;0.7768;
1380.9000;0.3997;0.7696;
1381.2000;0.3997;0.7649;
1381.5000;0.3956;0.7602;
1381.8000;0.4021;0.7720;
1382.1000;0.3980;0.7625;
1382.4000;0.4021;0.7744;
1382.7000;0.3997;0.7791;
1383.0000;0.3972;0.7602;
1383.3000;0.3980;0.7625;
1383.6000;0.4005;0.7554;
1383.9000;0.3997;0.7554;
1384.2000;0.4005;0.7554;
1384.5000;0.3997;0.7578;
1384.8000;0.3997;0.7531;
1385.1000;0.4005;0.7531;
1385.4000;0.4005;0.7554;
1385.7000;0.3948;0.7460;
1386.0000;0.3980;0.7507;
1386.3000;0.4013;0.7625;
1386.6000;0.4054;0.7862;
1386.9000;0.3997;0.7815;
1387.2000;0.4013;0.7910;
1387.5000;0.3907;0.7602;
1387.8000;0.3997;0.7839;
1388.1000;0.3989;0.7791;
1388.4000;0.3989;0.7696;
1388.7000;0.3997;0.7720;
1389.0000;0.3989;0.7744;
1389.3000;0.3989;0.7815;
1389.6000;0.3915;0.7696;
1389.9000;0.3989;0.7886;
1390.2000;0.4005;0.7910;
1390.5000;0.3972;0.7768;
1390.8000;0.4005;0.7886;
1391.1000;0.3997;0.7862;
1391.4000;0.3997;0.7768;
1391.7000;0.4021;0.7815;
1392.0000;0.4005;0.7768;
1392.3000;0.3980;0.7791;
1392.6000;0.3989;0.7839;
1392.9000;0.3997;0.7862;
1393.2000;0.3989;0.7839;
1393.5000;0.4037;0.7957;
1393.8000;0.3989;0.7839;
1394.1000;0.3989;0.7815;
1394.4000;0.3964;0.7720;
1394.7000;0.3964;0.7649;
1395.0000;0.3997;0.7720;
1395.3000;0.3989;0.7625;
1395.6000;0.4005;0.7649;
1395.9000;0.3997;0.7625;
1396.2000;0.4005;0.7649;
1396.5000;0.4005;0.7696;
1396.8000;0.4021;0.7815;
1397.1000;0.3989;0.7696;
1397.4000;0.4013;0.7720;
1397.7000;0.4013;0.7815;
1398.0000;0.4046;0.7910;
1398.3000;0.3980;0.7886;
1398.6000;0.3980;0.7886;
1398.9000;0.3989;0.7957;
1399.2000;0.3980;0.7957;
1399.5000;0.3964;0.7862;
1399.8000;0.3980;0.7815;
