time/ms;Fluo/V;P700 deltaI/I x10³;
-199.8000;0.3761;0.8312;
-199.5000;0.3687;0.8028;
-199.2000;0.3720;0.8099;
-198.9000;0.3736;0.8241;
-198.6000;0.3728;0.8336;
-198.3000;0.3704;0.8360;
-198.0000;0.3736;0.8407;
-197.7000;0.3753;0.8431;
-197.4000;0.3761;0.8502;
-197.1000;0.3720;0.8289;
-196.8000;0.3753;0.8312;
-196.5000;0.3696;0.8194;
-196.2000;0.3785;0.8454;
-195.9000;0.3720;0.8289;
-195.6000;0.3720;0.8383;
-195.3000;0.3736;0.8454;
-195.0000;0.3793;0.8596;
-194.7000;0.3736;0.8502;
-194.4000;0.3744;0.8407;
-194.1000;0.3704;0.8289;
-193.8000;0.3744;0.8407;
-193.5000;0.3728;0.8431;
-193.2000;0.3720;0.8431;
-192.9000;0.3712;0.8312;
-192.6000;0.3753;0.8383;
-192.3000;0.3736;0.8407;
-192.0000;0.3728;0.8312;
-191.7000;0.3687;0.8099;
-191.4000;0.3744;0.8289;
-191.1000;0.3720;0.8194;
-190.8000;0.3744;0.8265;
-190.5000;0.3753;0.8265;
-190.2000;0.3663;0.8099;
-189.9000;0.3728;0.8265;
-189.6000;0.3736;0.8289;
-189.3000;0.3736;0.8312;
-189.0000;0.3655;0.8146;
-188.7000;0.3687;0.8241;
-188.4000;0.3704;0.8336;
-188.1000;0.3728;0.8265;
-187.8000;0.3728;0.8289;
-187.5000;0.3728;0.8241;
-187.2000;0.3728;0.8241;
-186.9000;0.3720;0.8265;
-186.6000;0.3712;0.8289;
-186.3000;0.3744;0.8454;
-186.0000;0.3736;0.8360;
-185.7000;0.3720;0.8241;
-185.4000;0.3687;0.8217;
-185.1000;0.3777;0.8407;
-184.8000;0.3728;0.8217;
-184.5000;0.3720;0.8170;
-184.2000;0.3744;0.8217;
-183.9000;0.3753;0.8265;
-183.6000;0.3753;0.8217;
-183.3000;0.3728;0.8123;
-183.0000;0.3736;0.8170;
-182.7000;0.3744;0.8217;
-182.4000;0.3720;0.8217;
-182.1000;0.3655;0.8004;
-181.8000;0.3753;0.8241;
-181.5000;0.3720;0.8265;
-181.2000;0.3736;0.8336;
-180.9000;0.3728;0.8360;
-180.6000;0.3704;0.8312;
-180.3000;0.3720;0.8336;
-180.0000;0.3736;0.8336;
-179.7000;0.3736;0.8241;
-179.4000;0.3744;0.8241;
-179.1000;0.3785;0.8407;
-178.8000;0.3704;0.8194;
-178.5000;0.3736;0.8265;
-178.2000;0.3728;0.8241;
-177.9000;0.3736;0.8265;
-177.6000;0.3712;0.8265;
-177.3000;0.3728;0.8194;
-177.0000;0.3728;0.8170;
-176.7000;0.3736;0.8217;
-176.4000;0.3696;0.8075;
-176.1000;0.3728;0.8194;
-175.8000;0.3753;0.8217;
-175.5000;0.3720;0.8241;
-175.2000;0.3712;0.8194;
-174.9000;0.3712;0.8217;
-174.6000;0.3687;0.8170;
-174.3000;0.3720;0.8336;
-174.0000;0.3753;0.8336;
-173.7000;0.3728;0.8289;
-173.4000;0.3728;0.8241;
-173.1000;0.3785;0.8383;
-172.8000;0.3744;0.8265;
-172.5000;0.3842;0.8454;
-172.2000;0.3761;0.8146;
-171.9000;0.3704;0.7981;
-171.6000;0.3736;0.8123;
-171.3000;0.3679;0.7886;
-171.0000;0.3728;0.7957;
-170.7000;0.3720;0.7957;
-170.4000;0.3712;0.8028;
-170.1000;0.3753;0.8052;
-169.8000;0.3744;0.8028;
-169.5000;0.3744;0.8123;
-169.2000;0.3679;0.7981;
-168.9000;0.3769;0.8217;
-168.6000;0.3744;0.8217;
-168.3000;0.3744;0.8289;
-168.0000;0.3720;0.8289;
-167.7000;0.3744;0.8407;
-167.4000;0.3753;0.8360;
-167.1000;0.3744;0.8265;
-166.8000;0.3679;0.8099;
-166.5000;0.3744;0.8194;
-166.2000;0.3736;0.8241;
-165.9000;0.3793;0.8431;
-165.6000;0.3720;0.8336;
-165.3000;0.3744;0.8241;
-165.0000;0.3728;0.8241;
-164.7000;0.3753;0.8241;
-164.4000;0.3761;0.8336;
-164.1000;0.3736;0.8194;
-163.8000;0.3720;0.8170;
-163.5000;0.3736;0.8194;
-163.2000;0.3736;0.8194;
-162.9000;0.3728;0.8194;
-162.6000;0.3704;0.8217;
-162.3000;0.3728;0.8312;
-162.0000;0.3720;0.8312;
-161.7000;0.3728;0.8289;
-161.4000;0.3720;0.8170;
-161.1000;0.3744;0.8265;
-160.8000;0.3777;0.8407;
-160.5000;0.3769;0.8360;
-160.2000;0.3720;0.8194;
-159.9000;0.3728;0.8123;
-159.6000;0.3728;0.8099;
-159.3000;0.3728;0.8146;
-159.0000;0.3712;0.8194;
-158.7000;0.3712;0.8217;
-158.4000;0.3712;0.8123;
-158.1000;0.3687;0.7933;
-157.8000;0.3744;0.8075;
-157.5000;0.3728;0.8075;
-157.2000;0.3761;0.8099;
-156.9000;0.3728;0.8052;
-156.6000;0.3696;0.7981;
-156.3000;0.3728;0.7957;
-156.0000;0.3858;0.8431;
-155.7000;0.3728;0.8123;
-155.4000;0.3696;0.8075;
-155.1000;0.3728;0.8146;
-154.8000;0.3728;0.8241;
-154.5000;0.3712;0.8265;
-154.2000;0.3744;0.8383;
-153.9000;0.3720;0.8383;
-153.6000;0.3761;0.8407;
-153.3000;0.3769;0.8383;
-153.0000;0.3777;0.8360;
-152.7000;0.3736;0.8265;
-152.4000;0.3753;0.8265;
-152.1000;0.3744;0.8146;
-151.8000;0.3728;0.8099;
-151.5000;0.3753;0.8194;
-151.2000;0.3736;0.8217;
-150.9000;0.3720;0.8194;
-150.6000;0.3834;0.8502;
-150.3000;0.3753;0.8360;
-150.0000;0.3720;0.8241;
-149.7000;0.3704;0.8217;
-149.4000;0.3736;0.8360;
-149.1000;0.3647;0.8099;
-148.8000;0.3728;0.8265;
-148.5000;0.3769;0.8431;
-148.2000;0.3753;0.8431;
-147.9000;0.3736;0.8289;
-147.6000;0.3744;0.8312;
-147.3000;0.3728;0.8312;
-147.0000;0.3736;0.8217;
-146.7000;0.3663;0.8052;
-146.4000;0.3810;0.8478;
-146.1000;0.3712;0.8312;
-145.8000;0.3753;0.8360;
-145.5000;0.3663;0.8099;
-145.2000;0.3801;0.8431;
-144.9000;0.3728;0.8241;
-144.6000;0.3728;0.8312;
-144.3000;0.3744;0.8431;
-144.0000;0.3736;0.8431;
-143.7000;0.3712;0.8383;
-143.4000;0.3736;0.8431;
-143.1000;0.3761;0.8454;
-142.8000;0.3753;0.8454;
-142.5000;0.3753;0.8454;
-142.2000;0.3712;0.8431;
-141.9000;0.3736;0.8383;
-141.6000;0.3728;0.8289;
-141.3000;0.3728;0.8217;
-141.0000;0.3744;0.8289;
-140.7000;0.3728;0.8265;
-140.4000;0.3744;0.8241;
-140.1000;0.3736;0.8146;
-139.8000;0.3736;0.8194;
-139.5000;0.3704;0.8217;
-139.2000;0.3785;0.8360;
-138.9000;0.3720;0.8217;
-138.6000;0.3720;0.8146;
-138.3000;0.3728;0.8075;
-138.0000;0.3720;0.7933;
-137.7000;0.3736;0.8004;
-137.4000;0.3704;0.7981;
-137.1000;0.3712;0.8004;
-136.8000;0.3720;0.7910;
-136.5000;0.3720;0.7933;
-136.2000;0.3736;0.8004;
-135.9000;0.3769;0.8170;
-135.6000;0.3704;0.8099;
-135.3000;0.3720;0.8194;
-135.0000;0.3704;0.8170;
-134.7000;0.3728;0.8194;
-134.4000;0.3712;0.8217;
-134.1000;0.3720;0.8146;
-133.8000;0.3736;0.8028;
-133.5000;0.3744;0.8075;
-133.2000;0.3696;0.7839;
-132.9000;0.3704;0.7886;
-132.6000;0.3753;0.8099;
-132.3000;0.3728;0.8123;
-132.0000;0.3728;0.8052;
-131.7000;0.3744;0.8028;
-131.4000;0.3736;0.7981;
-131.1000;0.3728;0.7910;
-130.8000;0.3728;0.8028;
-130.5000;0.3728;0.8004;
-130.2000;0.3753;0.8052;
-129.9000;0.3777;0.8052;
-129.6000;0.3736;0.7933;
-129.3000;0.3736;0.7981;
-129.0000;0.3769;0.8052;
-128.7000;0.3728;0.8075;
-128.4000;0.3728;0.8170;
-128.1000;0.3736;0.8170;
-127.8000;0.3744;0.8265;
-127.5000;0.3720;0.8241;
-127.2000;0.3712;0.8265;
-126.9000;0.3720;0.8265;
-126.6000;0.3712;0.8170;
-126.3000;0.3728;0.8170;
-126.0000;0.3761;0.8312;
-125.7000;0.3663;0.8052;
-125.4000;0.3712;0.8170;
-125.1000;0.3728;0.8170;
-124.8000;0.3736;0.8241;
-124.5000;0.3744;0.8194;
-124.2000;0.3744;0.8265;
-123.9000;0.3696;0.8146;
-123.6000;0.3720;0.8265;
-123.3000;0.3728;0.8194;
-123.0000;0.3736;0.8146;
-122.7000;0.3663;0.7791;
-122.4000;0.3818;0.8099;
-122.1000;0.3761;0.7886;
-121.8000;0.3720;0.7791;
-121.5000;0.3744;0.7815;
-121.2000;0.3753;0.7768;
-120.9000;0.3728;0.7720;
-120.6000;0.3744;0.7744;
-120.3000;0.3728;0.7696;
-120.0000;0.3744;0.7696;
-119.7000;0.3744;0.7720;
-119.4000;0.3744;0.7744;
-119.1000;0.3744;0.7768;
-118.8000;0.3744;0.7839;
-118.5000;0.3696;0.7791;
-118.2000;0.3736;0.7886;
-117.9000;0.3679;0.7791;
-117.6000;0.3728;0.7933;
-117.3000;0.3696;0.7981;
-117.0000;0.3728;0.8075;
-116.7000;0.3753;0.8099;
-116.4000;0.3712;0.8075;
-116.1000;0.3712;0.8146;
-115.8000;0.3753;0.8265;
-115.5000;0.3712;0.8146;
-115.2000;0.3736;0.8289;
-114.9000;0.3753;0.8336;
-114.6000;0.3720;0.8170;
-114.3000;0.3712;0.8194;
-114.0000;0.3728;0.8123;
-113.7000;0.3744;0.8146;
-113.4000;0.3720;0.8146;
-113.1000;0.3712;0.8099;
-112.8000;0.3720;0.8146;
-112.5000;0.3728;0.8146;
-112.2000;0.3720;0.8123;
-111.9000;0.3720;0.8146;
-111.6000;0.3671;0.7981;
-111.3000;0.3744;0.8052;
-111.0000;0.3744;0.8099;
-110.7000;0.3744;0.8170;
-110.4000;0.3761;0.8241;
-110.1000;0.3744;0.8289;
-109.8000;0.3744;0.8217;
-109.5000;0.3753;0.8170;
-109.2000;0.3753;0.8194;
-108.9000;0.3728;0.8146;
-108.6000;0.3728;0.8170;
-108.3000;0.3679;0.8004;
-108.0000;0.3736;0.8217;
-107.7000;0.3753;0.8265;
-107.4000;0.3720;0.8194;
-107.1000;0.3736;0.8146;
-106.8000;0.3720;0.8028;
-106.5000;0.3736;0.8099;
-106.2000;0.3728;0.8123;
-105.9000;0.3753;0.8217;
-105.6000;0.3753;0.8241;
-105.3000;0.3720;0.8194;
-105.0000;0.3744;0.8170;
-104.7000;0.3761;0.8146;
-104.4000;0.3761;0.8194;
-104.1000;0.3736;0.8146;
-103.8000;0.3728;0.8194;
-103.5000;0.3761;0.8217;
-103.2000;0.3777;0.8217;
-102.9000;0.3728;0.8123;
-102.6000;0.3728;0.7957;
-102.3000;0.3761;0.8052;
-102.0000;0.3736;0.8075;
-101.7000;0.3777;0.8241;
-101.4000;0.3744;0.8217;
-101.1000;0.3736;0.8170;
-100.8000;0.3736;0.8123;
-100.5000;0.3728;0.8146;
-100.2000;0.3720;0.8170;
-99.9000;0.3728;0.8099;
-99.6000;0.3728;0.8194;
-99.3000;0.3712;0.8146;
-99.0000;0.3712;0.8004;
-98.7000;0.3720;0.7862;
-98.4000;0.3712;0.7886;
-98.1000;0.3761;0.7981;
-97.8000;0.3720;0.7981;
-97.5000;0.3704;0.7933;
-97.2000;0.3753;0.7981;
-96.9000;0.3744;0.7957;
-96.6000;0.3736;0.7910;
-96.3000;0.3753;0.7981;
-96.0000;0.3744;0.8052;
-95.7000;0.3736;0.8075;
-95.4000;0.3744;0.8052;
-95.1000;0.3736;0.8123;
-94.8000;0.3777;0.8170;
-94.5000;0.3736;0.7981;
-94.2000;0.3728;0.7933;
-93.9000;0.3728;0.7933;
-93.6000;0.3720;0.7862;
-93.3000;0.3761;0.7957;
-93.0000;0.3728;0.7910;
-92.7000;0.3728;0.8004;
-92.4000;0.3753;0.8123;
-92.1000;0.3720;0.7981;
-91.8000;0.3736;0.7981;
-91.5000;0.3736;0.8052;
-91.2000;0.3720;0.7981;
-90.9000;0.3720;0.8004;
-90.6000;0.3753;0.8217;
-90.3000;0.3712;0.8170;
-90.0000;0.3728;0.8123;
-89.7000;0.3769;0.8194;
-89.4000;0.3744;0.8099;
-89.1000;0.3736;0.8123;
-88.8000;0.3647;0.7815;
-88.5000;0.3720;0.7862;
-88.2000;0.3753;0.7910;
-87.9000;0.3728;0.7886;
-87.6000;0.3720;0.7862;
-87.3000;0.3704;0.7862;
-87.0000;0.3753;0.7910;
-86.7000;0.3761;0.7933;
-86.4000;0.3712;0.7910;
-86.1000;0.3728;0.7981;
-85.8000;0.3728;0.8004;
-85.5000;0.3793;0.8170;
-85.2000;0.3744;0.8075;
-84.9000;0.3736;0.8123;
-84.6000;0.3728;0.8099;
-84.3000;0.3720;0.8099;
-84.0000;0.3777;0.8289;
-83.7000;0.3728;0.8123;
-83.4000;0.3736;0.8123;
-83.1000;0.3769;0.8170;
-82.8000;0.3712;0.8052;
-82.5000;0.3720;0.8075;
-82.2000;0.3728;0.8146;
-81.9000;0.3712;0.8099;
-81.6000;0.3761;0.8241;
-81.3000;0.3753;0.8217;
-81.0000;0.3785;0.8217;
-80.7000;0.3736;0.8194;
-80.4000;0.3753;0.8265;
-80.1000;0.3712;0.8004;
-79.8000;0.3728;0.8052;
-79.5000;0.3728;0.8099;
-79.2000;0.3736;0.8146;
-78.9000;0.3736;0.8241;
-78.6000;0.3655;0.7981;
-78.3000;0.3720;0.8289;
-78.0000;0.3630;0.8004;
-77.7000;0.3720;0.8217;
-77.4000;0.3736;0.8241;
-77.1000;0.3712;0.8123;
-76.8000;0.3712;0.8123;
-76.5000;0.3712;0.8123;
-76.2000;0.3736;0.8075;
-75.9000;0.3720;0.8099;
-75.6000;0.3671;0.8123;
-75.3000;0.3769;0.8360;
-75.0000;0.3696;0.8217;
-74.7000;0.3704;0.8170;
-74.4000;0.3720;0.8265;
-74.1000;0.3728;0.8241;
-73.8000;0.3744;0.8312;
-73.5000;0.3728;0.8289;
-73.2000;0.3687;0.8194;
-72.9000;0.3728;0.8265;
-72.6000;0.3712;0.8217;
-72.3000;0.3736;0.8217;
-72.0000;0.3728;0.8170;
-71.7000;0.3728;0.8146;
-71.4000;0.3720;0.8146;
-71.1000;0.3704;0.8217;
-70.8000;0.3712;0.8312;
-70.5000;0.3728;0.8336;
-70.2000;0.3736;0.8289;
-69.9000;0.3793;0.8383;
-69.6000;0.3720;0.8383;
-69.3000;0.3728;0.8360;
-69.0000;0.3704;0.8312;
-68.7000;0.3753;0.8383;
-68.4000;0.3720;0.8265;
-68.1000;0.3712;0.8170;
-67.8000;0.3696;0.8099;
-67.5000;0.3720;0.8123;
-67.2000;0.3753;0.8265;
-66.9000;0.3696;0.8170;
-66.6000;0.3736;0.8217;
-66.3000;0.3720;0.8075;
-66.0000;0.3720;0.8170;
-65.7000;0.3712;0.8123;
-65.4000;0.3728;0.8170;
-65.1000;0.3753;0.8217;
-64.8000;0.3720;0.8170;
-64.5000;0.3704;0.8146;
-64.2000;0.3736;0.8241;
-63.9000;0.3720;0.8146;
-63.6000;0.3728;0.8123;
-63.3000;0.3728;0.8146;
-63.0000;0.3728;0.8170;
-62.7000;0.3761;0.8312;
-62.4000;0.3728;0.8336;
-62.1000;0.3753;0.8478;
-61.8000;0.3720;0.8336;
-61.5000;0.3647;0.8099;
-61.2000;0.3720;0.8289;
-60.9000;0.3704;0.8194;
-60.6000;0.3728;0.8265;
-60.3000;0.3720;0.8241;
-60.0000;0.3744;0.8265;
-59.7000;0.3728;0.8241;
-59.4000;0.3753;0.8312;
-59.1000;0.3712;0.8265;
-58.8000;0.3736;0.8431;
-58.5000;0.3761;0.8549;
-58.2000;0.3761;0.8431;
-57.9000;0.3687;0.8217;
-57.6000;0.3736;0.8170;
-57.3000;0.3720;0.8123;
-57.0000;0.3761;0.8217;
-56.7000;0.3728;0.8099;
-56.4000;0.3712;0.8052;
-56.1000;0.3761;0.8241;
-55.8000;0.3753;0.8265;
-55.5000;0.3728;0.8217;
-55.2000;0.3712;0.8241;
-54.9000;0.3744;0.8241;
-54.6000;0.3777;0.8289;
-54.3000;0.3728;0.8075;
-54.0000;0.3761;0.8170;
-53.7000;0.3712;0.8052;
-53.4000;0.3761;0.8099;
-53.1000;0.3761;0.8217;
-52.8000;0.3728;0.8146;
-52.5000;0.3736;0.8194;
-52.2000;0.3720;0.8217;
-51.9000;0.3728;0.8241;
-51.6000;0.3761;0.8312;
-51.3000;0.3720;0.8241;
-51.0000;0.3720;0.8312;
-50.7000;0.3761;0.8431;
-50.4000;0.3728;0.8265;
-50.1000;0.3736;0.8217;
-49.8000;0.3728;0.8217;
-49.5000;0.3753;0.8289;
-49.2000;0.3744;0.8360;
-48.9000;0.3753;0.8336;
-48.6000;0.3736;0.8217;
-48.3000;0.3761;0.8289;
-48.0000;0.3736;0.8170;
-47.7000;0.3687;0.8028;
-47.4000;0.3728;0.8146;
-47.1000;0.3744;0.8099;
-46.8000;0.3728;0.8146;
-46.5000;0.3720;0.8241;
-46.2000;0.3712;0.8194;
-45.9000;0.3736;0.8336;
-45.6000;0.3744;0.8312;
-45.3000;0.3728;0.8217;
-45.0000;0.3704;0.8241;
-44.7000;0.3728;0.8265;
-44.4000;0.3728;0.8217;
-44.1000;0.3744;0.8265;
-43.8000;0.3720;0.8336;
-43.5000;0.3777;0.8383;
-43.2000;0.3712;0.8265;
-42.9000;0.3744;0.8360;
-42.6000;0.3744;0.8431;
-42.3000;0.3728;0.8478;
-42.0000;0.3679;0.8407;
-41.7000;0.3736;0.8454;
-41.4000;0.3704;0.8383;
-41.1000;0.3712;0.8360;
-40.8000;0.3736;0.8454;
-40.5000;0.3769;0.8502;
-40.2000;0.3704;0.8383;
-39.9000;0.3744;0.8431;
-39.6000;0.3728;0.8336;
-39.3000;0.3712;0.8312;
-39.0000;0.3712;0.8194;
-38.7000;0.3720;0.8265;
-38.4000;0.3647;0.8146;
-38.1000;0.3728;0.8336;
-37.8000;0.3736;0.8312;
-37.5000;0.3826;0.8478;
-37.2000;0.3728;0.8265;
-36.9000;0.3736;0.8265;
-36.6000;0.3728;0.8265;
-36.3000;0.3728;0.8241;
-36.0000;0.3736;0.8336;
-35.7000;0.3736;0.8241;
-35.4000;0.3744;0.8194;
-35.1000;0.3736;0.8099;
-34.8000;0.3728;0.8099;
-34.5000;0.3761;0.8123;
-34.2000;0.3744;0.8099;
-33.9000;0.3728;0.8170;
-33.6000;0.3769;0.8360;
-33.3000;0.3720;0.8265;
-33.0000;0.3736;0.8289;
-32.7000;0.3720;0.8217;
-32.4000;0.3728;0.8241;
-32.1000;0.3744;0.8265;
-31.8000;0.3744;0.8265;
-31.5000;0.3736;0.8170;
-31.2000;0.3720;0.8052;
-30.9000;0.3736;0.8099;
-30.6000;0.3777;0.8170;
-30.3000;0.3712;0.8052;
-30.0000;0.3736;0.8099;
-29.7000;0.3622;0.7910;
-29.4000;0.3793;0.8336;
-29.1000;0.3728;0.8217;
-28.8000;0.3712;0.8312;
-28.5000;0.3647;0.8123;
-28.2000;0.3728;0.8336;
-27.9000;0.3712;0.8336;
-27.6000;0.3728;0.8241;
-27.3000;0.3744;0.8146;
-27.0000;0.3736;0.8004;
-26.7000;0.3736;0.7957;
-26.4000;0.3696;0.7933;
-26.1000;0.3753;0.8028;
-25.8000;0.3728;0.7957;
-25.5000;0.3728;0.8028;
-25.2000;0.3744;0.8170;
-24.9000;0.3720;0.8170;
-24.6000;0.3663;0.7981;
-24.3000;0.3736;0.8194;
-24.0000;0.3679;0.8099;
-23.7000;0.3712;0.8241;
-23.4000;0.3744;0.8217;
-23.1000;0.3728;0.8123;
-22.8000;0.3728;0.8194;
-22.5000;0.3728;0.8146;
-22.2000;0.3728;0.8052;
-21.9000;0.3753;0.8052;
-21.6000;0.3712;0.7957;
-21.3000;0.3744;0.8004;
-21.0000;0.3712;0.7910;
-20.7000;0.3720;0.7933;
-20.4000;0.3720;0.7981;
-20.1000;0.3761;0.8004;
-19.8000;0.3704;0.7839;
-19.5000;0.3736;0.7981;
-19.2000;0.3842;0.8265;
-18.9000;0.3728;0.8075;
-18.6000;0.3712;0.8052;
-18.3000;0.3712;0.8028;
-18.0000;0.3704;0.8028;
-17.7000;0.3720;0.8146;
-17.4000;0.3736;0.8289;
-17.1000;0.3744;0.8217;
-16.8000;0.3720;0.8170;
-16.5000;0.3704;0.8099;
-16.2000;0.3728;0.8217;
-15.9000;0.3728;0.8289;
-15.6000;0.3663;0.8123;
-15.3000;0.3720;0.8217;
-15.0000;0.3736;0.8123;
-14.7000;0.3744;0.8146;
-14.4000;0.3753;0.8289;
-14.1000;0.3728;0.8170;
-13.8000;0.3736;0.8123;
-13.5000;0.3728;0.8170;
-13.2000;0.3728;0.8217;
-12.9000;0.3728;0.8217;
-12.6000;0.3744;0.8265;
-12.3000;0.3744;0.8360;
-12.0000;0.3753;0.8289;
-11.7000;0.3736;0.8241;
-11.4000;0.3736;0.8265;
-11.1000;0.3753;0.8312;
-10.8000;0.3720;0.8241;
-10.5000;0.3736;0.8217;
-10.2000;0.3769;0.8312;
-9.9000;0.3744;0.8289;
-9.6000;0.3777;0.8241;
-9.3000;0.3753;0.8099;
-9.0000;0.3736;0.8028;
-8.7000;0.3728;0.8099;
-8.4000;0.3736;0.8170;
-8.1000;0.3728;0.8004;
-7.8000;0.3736;0.7981;
-7.5000;0.3761;0.8075;
-7.2000;0.3744;0.8146;
-6.9000;0.3728;0.8241;
-6.6000;0.3712;0.8241;
-6.3000;0.3744;0.8217;
-6.0000;0.3736;0.8146;
-5.7000;0.3728;0.8146;
-5.4000;0.3728;0.8170;
-5.1000;0.3753;0.8217;
-4.8000;0.3736;0.8146;
-4.5000;0.3728;0.8170;
-4.2000;0.3720;0.8194;
-3.9000;0.3720;0.8194;
-3.6000;0.3744;0.8241;
-3.3000;0.3728;0.8146;
-3.0000;0.3720;0.8194;
-2.7000;0.3753;0.8194;
-2.4000;0.3753;0.8241;
-2.1000;0.3785;0.8336;
-1.8000;0.3736;0.8265;
-1.5000;0.3736;0.8217;
-1.2000;0.3761;0.8407;
-0.9000;0.3728;0.8312;
-0.6000;0.3720;0.8360;
-0.3000;0.3736;0.8454;
0.0000;0.3736;0.8454;
0.3000;0.3867;0.8383;
0.6000;0.4078;0.8454;
0.9000;0.4298;0.8715;
1.2000;0.4396;0.8762;
1.5000;0.4518;0.8904;
1.8000;0.4591;0.9070;
2.1000;0.4697;0.9188;
2.4000;0.4681;0.9165;
2.7000;0.4770;0.9378;
3.0000;0.4729;0.9425;
3.3000;0.4778;0.9496;
3.6000;0.4827;0.9544;
3.9000;0.4835;0.9449;
4.2000;0.4819;0.9473;
4.5000;0.4819;0.9473;
4.8000;0.4835;0.9473;
5.1000;0.4819;0.9567;
5.4000;0.4851;0.9638;
5.7000;0.4933;0.9757;
6.0000;0.4892;0.9686;
6.3000;0.4900;0.9686;
6.6000;0.4974;0.9780;
6.9000;0.4884;0.9567;
7.2000;0.4851;0.9473;
7.5000;0.4917;0.9638;
7.8000;0.4868;0.9496;
8.1000;0.4998;0.9804;
8.4000;0.4941;0.9709;
8.7000;0.4965;0.9757;
9.0000;0.4933;0.9686;
9.3000;0.4982;0.9780;
9.6000;0.4974;0.9757;
9.9000;0.4974;0.9804;
10.2000;0.4998;0.9852;
10.5000;0.5014;0.9946;
10.8000;0.4998;0.9970;
11.1000;0.5047;1.0112;
11.4000;0.5031;0.9970;
11.7000;0.5039;0.9899;
12.0000;0.5039;0.9875;
12.3000;0.5022;0.9899;
12.6000;0.5031;0.9899;
12.9000;0.4965;0.9686;
13.2000;0.5088;1.0017;
13.5000;0.5063;0.9899;
13.8000;0.5088;0.9875;
14.1000;0.5088;0.9994;
14.4000;0.5120;0.9923;
14.7000;0.5096;0.9875;
15.0000;0.5039;0.9615;
15.3000;0.5071;0.9709;
15.6000;0.5136;0.9899;
15.9000;0.5161;0.9946;
16.2000;0.5144;0.9804;
16.5000;0.5144;0.9899;
16.8000;0.5161;1.0017;
17.1000;0.5201;1.0112;
17.4000;0.5161;0.9946;
17.7000;0.5169;0.9994;
18.0000;0.5169;0.9875;
18.3000;0.5169;0.9804;
18.6000;0.5169;0.9757;
18.9000;0.5177;0.9709;
19.2000;0.5201;0.9757;
19.5000;0.5226;0.9780;
19.8000;0.5234;0.9780;
20.1000;0.5234;0.9733;
20.4000;0.5177;0.9709;
20.7000;0.5250;0.9804;
21.0000;0.5234;0.9780;
21.3000;0.5242;0.9804;
21.6000;0.5234;0.9828;
21.9000;0.5291;1.0041;
22.2000;0.5210;0.9828;
22.5000;0.5234;0.9970;
22.8000;0.5226;0.9875;
23.1000;0.5275;0.9970;
23.4000;0.5210;0.9804;
23.7000;0.5315;1.0041;
24.0000;0.5299;1.0065;
24.3000;0.5299;1.0088;
24.6000;0.5299;1.0112;
24.9000;0.5299;1.0088;
25.2000;0.5340;1.0088;
25.5000;0.5315;1.0065;
25.8000;0.5324;1.0088;
26.1000;0.5340;1.0183;
26.4000;0.5307;1.0065;
26.7000;0.5340;1.0041;
27.0000;0.5332;0.9994;
27.3000;0.5332;0.9946;
27.6000;0.5348;0.9970;
27.9000;0.5340;0.9970;
28.2000;0.5421;1.0159;
28.5000;0.5356;0.9946;
28.8000;0.5356;0.9946;
29.1000;0.5332;0.9828;
29.4000;0.5364;0.9875;
29.7000;0.5372;0.9875;
30.0000;0.5364;0.9923;
30.3000;0.5356;0.9828;
30.6000;0.5275;0.9638;
30.9000;0.5372;0.9923;
31.2000;0.5364;0.9923;
31.5000;0.5356;0.9875;
31.8000;0.5275;0.9662;
32.1000;0.5389;0.9899;
32.4000;0.5372;0.9923;
32.7000;0.5429;1.0017;
33.0000;0.5389;0.9875;
33.3000;0.5405;0.9923;
33.6000;0.5413;0.9970;
33.9000;0.5405;0.9994;
34.2000;0.5413;0.9946;
34.5000;0.5421;0.9946;
34.8000;0.5446;0.9994;
35.1000;0.5397;0.9875;
35.4000;0.5405;0.9780;
35.7000;0.5446;0.9804;
36.0000;0.5438;0.9686;
36.3000;0.5446;0.9709;
36.6000;0.5446;0.9733;
36.9000;0.5446;0.9780;
37.2000;0.5478;0.9875;
37.5000;0.5462;0.9757;
37.8000;0.5454;0.9852;
38.1000;0.5462;0.9946;
38.4000;0.5462;0.9970;
38.7000;0.5470;1.0017;
39.0000;0.5438;0.9923;
39.3000;0.5462;0.9923;
39.6000;0.5470;0.9899;
39.9000;0.5462;0.9875;
40.2000;0.5446;0.9899;
40.5000;0.5527;1.0065;
40.8000;0.5429;0.9852;
41.1000;0.5486;0.9923;
41.4000;0.5527;0.9946;
41.7000;0.5519;0.9899;
42.0000;0.5478;0.9780;
42.3000;0.5389;0.9520;
42.6000;0.5495;0.9804;
42.9000;0.5495;0.9780;
43.2000;0.5503;0.9828;
43.5000;0.5478;0.9757;
43.8000;0.5486;0.9946;
44.1000;0.5511;0.9970;
44.4000;0.5495;0.9923;
44.7000;0.5527;0.9946;
45.0000;0.5495;0.9852;
45.3000;0.5503;0.9946;
45.6000;0.5511;0.9946;
45.9000;0.5486;0.9828;
46.2000;0.5519;0.9946;
46.5000;0.5519;0.9994;
46.8000;0.5511;0.9970;
47.1000;0.5535;0.9899;
47.4000;0.5527;0.9923;
47.7000;0.5551;0.9946;
48.0000;0.5543;0.9875;
48.3000;0.5543;0.9946;
48.6000;0.5543;1.0041;
48.9000;0.5543;1.0088;
49.2000;0.5551;1.0088;
49.5000;0.5519;1.0088;
49.8000;0.5560;1.0065;
50.1000;0.5535;1.0065;
50.4000;0.5543;0.9970;
50.7000;0.5535;1.0017;
51.0000;0.5519;0.9875;
51.3000;0.5527;0.9946;
51.6000;0.5584;1.0065;
51.9000;0.5519;0.9923;
52.2000;0.5543;1.0017;
52.5000;0.5527;0.9923;
52.8000;0.5495;0.9923;
53.1000;0.5543;1.0017;
53.4000;0.5568;1.0041;
53.7000;0.5535;0.9994;
54.0000;0.5568;0.9994;
54.3000;0.5551;0.9923;
54.6000;0.5543;0.9875;
54.9000;0.5568;0.9970;
55.2000;0.5551;0.9970;
55.5000;0.5551;0.9923;
55.8000;0.5543;0.9852;
56.1000;0.5568;0.9946;
56.4000;0.5576;0.9994;
56.7000;0.5576;0.9946;
57.0000;0.5568;0.9875;
57.3000;0.5576;0.9946;
57.6000;0.5568;0.9875;
57.9000;0.5568;0.9852;
58.2000;0.5576;0.9852;
58.5000;0.5568;0.9852;
58.8000;0.5584;0.9899;
59.1000;0.5592;0.9899;
59.4000;0.5543;0.9757;
59.7000;0.5576;0.9804;
60.0000;0.5625;0.9875;
60.3000;0.5608;0.9757;
60.6000;0.5608;0.9662;
60.9000;0.5617;0.9686;
61.2000;0.5608;0.9615;
61.5000;0.5617;0.9709;
61.8000;0.5649;0.9828;
62.1000;0.5584;0.9780;
62.4000;0.5657;0.9946;
62.7000;0.5633;0.9946;
63.0000;0.5600;0.9923;
63.3000;0.5600;0.9899;
63.6000;0.5608;0.9875;
63.9000;0.5600;0.9899;
64.2000;0.5625;0.9899;
64.5000;0.5714;1.0112;
64.8000;0.5617;0.9828;
65.1000;0.5568;0.9709;
65.4000;0.5535;0.9638;
65.7000;0.5600;0.9828;
66.0000;0.5592;0.9686;
66.3000;0.5551;0.9662;
66.6000;0.5600;0.9733;
66.9000;0.5617;0.9709;
67.2000;0.5608;0.9709;
67.5000;0.5617;0.9662;
67.8000;0.5674;0.9804;
68.1000;0.5633;0.9757;
68.4000;0.5633;0.9662;
68.7000;0.5608;0.9686;
69.0000;0.5608;0.9757;
69.3000;0.5649;0.9780;
69.6000;0.5641;0.9852;
69.9000;0.5608;0.9852;
70.2000;0.5649;0.9923;
70.5000;0.5641;0.9923;
70.8000;0.5690;1.0136;
71.1000;0.5617;0.9946;
71.4000;0.5633;1.0017;
71.7000;0.5633;1.0017;
72.0000;0.5633;0.9994;
72.3000;0.5641;1.0041;
72.6000;0.5649;1.0088;
72.9000;0.5617;0.9946;
73.2000;0.5633;0.9946;
73.5000;0.5625;0.9923;
73.8000;0.5608;0.9923;
74.1000;0.5641;1.0065;
74.4000;0.5633;1.0041;
74.7000;0.5625;1.0017;
75.0000;0.5617;1.0017;
75.3000;0.5657;1.0041;
75.6000;0.5625;0.9994;
75.9000;0.5633;1.0017;
76.2000;0.5625;1.0017;
76.5000;0.5633;0.9970;
76.8000;0.5543;0.9852;
77.1000;0.5617;0.9970;
77.4000;0.5625;0.9923;
77.7000;0.5625;0.9923;
78.0000;0.5641;0.9946;
78.3000;0.5608;0.9875;
78.6000;0.5625;0.9994;
78.9000;0.5739;1.0159;
79.2000;0.5641;0.9875;
79.5000;0.5633;0.9946;
79.8000;0.5682;1.0041;
80.1000;0.5608;0.9946;
80.4000;0.5633;1.0017;
80.7000;0.5641;1.0112;
81.0000;0.5722;1.0325;
81.3000;0.5641;1.0041;
81.6000;0.5649;1.0041;
81.9000;0.5649;1.0065;
82.2000;0.5649;1.0112;
82.5000;0.5633;1.0136;
82.8000;0.5657;1.0136;
83.1000;0.5657;1.0088;
83.4000;0.5649;0.9946;
83.7000;0.5625;0.9899;
84.0000;0.5617;0.9899;
84.3000;0.5649;0.9946;
84.6000;0.5674;0.9994;
84.9000;0.5657;0.9923;
85.2000;0.5649;0.9899;
85.5000;0.5665;0.9994;
85.8000;0.5665;0.9923;
86.1000;0.5674;0.9899;
86.4000;0.5657;0.9828;
86.7000;0.5657;0.9875;
87.0000;0.5698;0.9946;
87.3000;0.5665;0.9923;
87.6000;0.5649;1.0017;
87.9000;0.5657;1.0017;
88.2000;0.5641;0.9970;
88.5000;0.5641;0.9899;
88.8000;0.5633;0.9828;
89.1000;0.5625;0.9709;
89.4000;0.5641;0.9780;
89.7000;0.5625;0.9757;
90.0000;0.5657;0.9852;
90.3000;0.5665;0.9875;
90.6000;0.5568;0.9686;
90.9000;0.5608;0.9804;
91.2000;0.5625;0.9780;
91.5000;0.5641;0.9780;
91.8000;0.5649;0.9686;
92.1000;0.5665;0.9828;
92.4000;0.5682;0.9899;
92.7000;0.5665;0.9875;
93.0000;0.5665;0.9899;
93.3000;0.5649;0.9804;
93.6000;0.5674;0.9852;
93.9000;0.5665;0.9946;
94.2000;0.5649;0.9970;
94.5000;0.5665;0.9970;
94.8000;0.5682;0.9970;
95.1000;0.5657;0.9875;
95.4000;0.5665;0.9899;
95.7000;0.5714;1.0017;
96.0000;0.5665;0.9994;
96.3000;0.5682;0.9946;
96.6000;0.5665;0.9946;
96.9000;0.5674;0.9946;
97.2000;0.5747;1.0088;
97.5000;0.5690;0.9875;
97.8000;0.5641;0.9804;
98.1000;0.5682;0.9994;
98.4000;0.5674;0.9875;
98.7000;0.5665;0.9804;
99.0000;0.5649;0.9780;
99.3000;0.5665;0.9757;
99.6000;0.5649;0.9757;
99.9000;0.5739;0.9875;
100.2000;0.5649;0.9615;
100.5000;0.5665;0.9662;
100.8000;0.5665;0.9709;
101.1000;0.5608;0.9567;
101.4000;0.5674;0.9686;
101.7000;0.5674;0.9709;
102.0000;0.5698;0.9804;
102.3000;0.5674;0.9709;
102.6000;0.5600;0.9567;
102.9000;0.5665;0.9804;
103.2000;0.5657;0.9828;
103.5000;0.5665;0.9875;
103.8000;0.5665;0.9828;
104.1000;0.5739;1.0017;
104.4000;0.5674;0.9875;
104.7000;0.5682;0.9875;
105.0000;0.5682;0.9804;
105.3000;0.5674;0.9875;
105.6000;0.5674;0.9899;
105.9000;0.5706;0.9946;
106.2000;0.5682;0.9923;
106.5000;0.5706;1.0017;
106.8000;0.5690;0.9946;
107.1000;0.5674;1.0017;
107.4000;0.5657;0.9994;
107.7000;0.5657;1.0041;
108.0000;0.5641;0.9970;
108.3000;0.5674;1.0017;
108.6000;0.5649;1.0041;
108.9000;0.5674;1.0112;
109.2000;0.5649;1.0017;
109.5000;0.5657;0.9994;
109.8000;0.5674;1.0017;
110.1000;0.5657;0.9994;
110.4000;0.5674;0.9994;
110.7000;0.5657;0.9970;
111.0000;0.5657;0.9923;
111.3000;0.5665;0.9899;
111.6000;0.5674;0.9923;
111.9000;0.5633;0.9875;
112.2000;0.5674;1.0017;
112.5000;0.5674;0.9994;
112.8000;0.5568;0.9780;
113.1000;0.5665;1.0041;
113.4000;0.5657;1.0041;
113.7000;0.5665;1.0017;
114.0000;0.5608;0.9899;
114.3000;0.5731;1.0136;
114.6000;0.5641;0.9875;
114.9000;0.5665;0.9923;
115.2000;0.5665;0.9970;
115.5000;0.5657;0.9923;
115.8000;0.5722;0.9923;
116.1000;0.5674;0.9852;
116.4000;0.5682;0.9780;
116.7000;0.5665;0.9686;
117.0000;0.5665;0.9615;
117.3000;0.5665;0.9615;
117.6000;0.5657;0.9686;
117.9000;0.5649;0.9686;
118.2000;0.5576;0.9615;
118.5000;0.5665;0.9804;
118.8000;0.5674;0.9828;
119.1000;0.5747;0.9923;
119.4000;0.5731;0.9923;
119.7000;0.5665;0.9875;
120.0000;0.5674;0.9804;
120.3000;0.5690;0.9852;
120.6000;0.5682;0.9875;
120.9000;0.5665;0.9804;
121.2000;0.5665;0.9733;
121.5000;0.5682;0.9686;
121.8000;0.5657;0.9615;
122.1000;0.5665;0.9804;
122.4000;0.5649;0.9804;
122.7000;0.5674;0.9899;
123.0000;0.5633;0.9780;
123.3000;0.5665;0.9828;
123.6000;0.5657;0.9757;
123.9000;0.5657;0.9875;
124.2000;0.5682;0.9899;
124.5000;0.5657;0.9852;
124.8000;0.5690;0.9828;
125.1000;0.5682;0.9780;
125.4000;0.5674;0.9828;
125.7000;0.5674;0.9804;
126.0000;0.5665;0.9757;
126.3000;0.5698;0.9899;
126.6000;0.5641;0.9875;
126.9000;0.5755;1.0088;
127.2000;0.5665;0.9828;
127.5000;0.5649;0.9757;
127.8000;0.5690;0.9804;
128.1000;0.5657;0.9757;
128.4000;0.5657;0.9733;
128.7000;0.5649;0.9686;
129.0000;0.5625;0.9733;
129.3000;0.5690;0.9899;
129.6000;0.5665;0.9828;
129.9000;0.5682;0.9828;
130.2000;0.5674;0.9780;
130.5000;0.5682;0.9780;
130.8000;0.5690;0.9923;
131.1000;0.5698;0.9970;
131.4000;0.5682;1.0041;
131.7000;0.5674;1.0017;
132.0000;0.5690;0.9970;
132.3000;0.5665;0.9923;
132.6000;0.5674;0.9946;
132.9000;0.5674;1.0065;
133.2000;0.5665;1.0041;
133.5000;0.5674;0.9994;
133.8000;0.5674;1.0017;
134.1000;0.5739;1.0159;
134.4000;0.5608;0.9899;
134.7000;0.5665;0.9994;
135.0000;0.5698;1.0065;
135.3000;0.5714;1.0041;
135.6000;0.5690;0.9946;
135.9000;0.5657;0.9970;
136.2000;0.5690;1.0017;
136.5000;0.5674;0.9970;
136.8000;0.5674;0.9946;
137.1000;0.5649;0.9899;
137.4000;0.5690;0.9899;
137.7000;0.5641;0.9709;
138.0000;0.5682;0.9780;
138.3000;0.5690;0.9733;
138.6000;0.5665;0.9686;
138.9000;0.5682;0.9757;
139.2000;0.5682;0.9852;
139.5000;0.5682;0.9946;
139.8000;0.5674;0.9970;
140.1000;0.5706;0.9946;
140.4000;0.5690;0.9946;
140.7000;0.5674;0.9852;
141.0000;0.5698;0.9875;
141.3000;0.5690;0.9852;
141.6000;0.5682;0.9780;
141.9000;0.5600;0.9544;
142.2000;0.5714;0.9804;
142.5000;0.5690;0.9875;
142.8000;0.5682;0.9923;
143.1000;0.5706;1.0017;
143.4000;0.5698;0.9970;
143.7000;0.5706;0.9994;
144.0000;0.5731;1.0065;
144.3000;0.5698;1.0041;
144.6000;0.5690;0.9994;
144.9000;0.5657;0.9875;
145.2000;0.5682;0.9946;
145.5000;0.5674;0.9970;
145.8000;0.5682;0.9970;
146.1000;0.5674;0.9899;
146.4000;0.5682;0.9899;
146.7000;0.5690;0.9946;
147.0000;0.5690;1.0065;
147.3000;0.5706;1.0112;
147.6000;0.5682;1.0136;
147.9000;0.5682;1.0159;
148.2000;0.5649;1.0088;
148.5000;0.5682;1.0112;
148.8000;0.5665;1.0017;
149.1000;0.5649;0.9970;
149.4000;0.5665;1.0065;
149.7000;0.5682;1.0041;
150.0000;0.5788;1.0349;
150.3000;0.5788;1.0325;
150.6000;0.5674;0.9923;
150.9000;0.5682;0.9852;
151.2000;0.5682;0.9875;
151.5000;0.5682;0.9828;
151.8000;0.5682;0.9946;
152.1000;0.5690;1.0088;
152.4000;0.5690;1.0183;
152.7000;0.5690;1.0112;
153.0000;0.5690;1.0207;
153.3000;0.5779;1.0515;
153.6000;0.5674;1.0278;
153.9000;0.5674;1.0183;
154.2000;0.5682;1.0159;
154.5000;0.5682;1.0041;
154.8000;0.5674;1.0088;
155.1000;0.5747;1.0207;
155.4000;0.5698;1.0112;
155.7000;0.5682;1.0088;
156.0000;0.5674;1.0041;
156.3000;0.5690;1.0017;
156.6000;0.5690;1.0041;
156.9000;0.5682;1.0041;
157.2000;0.5706;1.0065;
157.5000;0.5698;0.9994;
157.8000;0.5690;0.9946;
158.1000;0.5706;0.9946;
158.4000;0.5665;0.9733;
158.7000;0.5690;0.9804;
159.0000;0.5698;0.9733;
159.3000;0.5747;0.9804;
159.6000;0.5657;0.9567;
159.9000;0.5665;0.9686;
160.2000;0.5674;0.9804;
160.5000;0.5674;0.9804;
160.8000;0.5706;0.9923;
161.1000;0.5682;0.9923;
161.4000;0.5722;0.9899;
161.7000;0.5665;0.9709;
162.0000;0.5682;0.9733;
162.3000;0.5682;0.9662;
162.6000;0.5731;0.9733;
162.9000;0.5706;0.9686;
163.2000;0.5690;0.9544;
163.5000;0.5698;0.9615;
163.8000;0.5706;0.9662;
164.1000;0.5706;0.9662;
164.4000;0.5674;0.9567;
164.7000;0.5690;0.9638;
165.0000;0.5682;0.9520;
165.3000;0.5698;0.9520;
165.6000;0.5682;0.9544;
165.9000;0.5625;0.9496;
166.2000;0.5682;0.9733;
166.5000;0.5698;0.9828;
166.8000;0.5649;0.9638;
167.1000;0.5641;0.9638;
167.4000;0.5682;0.9757;
167.7000;0.5674;0.9780;
168.0000;0.5698;0.9828;
168.3000;0.5682;0.9757;
168.6000;0.5674;0.9638;
168.9000;0.5665;0.9591;
169.2000;0.5698;0.9733;
169.5000;0.5674;0.9638;
169.8000;0.5690;0.9686;
170.1000;0.5690;0.9733;
170.4000;0.5682;0.9828;
170.7000;0.5633;0.9709;
171.0000;0.5608;0.9733;
171.3000;0.5706;1.0088;
171.6000;0.5747;1.0088;
171.9000;0.5698;0.9899;
172.2000;0.5682;0.9804;
172.5000;0.5682;0.9875;
172.8000;0.5690;0.9875;
173.1000;0.5665;0.9875;
173.4000;0.5690;0.9923;
173.7000;0.5665;0.9757;
174.0000;0.5706;0.9804;
174.3000;0.5674;0.9757;
174.6000;0.5674;0.9757;
174.9000;0.5682;0.9804;
175.2000;0.5690;0.9875;
175.5000;0.5698;0.9804;
175.8000;0.5690;0.9733;
176.1000;0.5674;0.9828;
176.4000;0.5698;0.9875;
176.7000;0.5698;0.9852;
177.0000;0.5682;0.9899;
177.3000;0.5682;0.9828;
177.6000;0.5698;0.9780;
177.9000;0.5698;0.9875;
178.2000;0.5698;0.9899;
178.5000;0.5690;0.9946;
178.8000;0.5665;0.9899;
179.1000;0.5674;0.9970;
179.4000;0.5674;0.9994;
179.7000;0.5698;1.0065;
180.0000;0.5674;0.9946;
180.3000;0.5682;0.9994;
180.6000;0.5698;0.9970;
180.9000;0.5674;0.9970;
181.2000;0.5682;0.9899;
181.5000;0.5722;1.0041;
181.8000;0.5665;0.9970;
182.1000;0.5682;1.0017;
182.4000;0.5649;0.9899;
182.7000;0.5682;1.0017;
183.0000;0.5747;1.0088;
183.3000;0.5674;0.9946;
183.6000;0.5674;0.9923;
183.9000;0.5625;0.9780;
184.2000;0.5600;0.9615;
184.5000;0.5617;0.9615;
184.8000;0.5706;0.9780;
185.1000;0.5674;0.9733;
185.4000;0.5641;0.9662;
185.7000;0.5649;0.9638;
186.0000;0.5698;0.9804;
186.3000;0.5714;0.9946;
186.6000;0.5665;0.9804;
186.9000;0.5788;1.0065;
187.2000;0.5674;0.9709;
187.5000;0.5690;0.9662;
187.8000;0.5625;0.9520;
188.1000;0.5698;0.9733;
188.4000;0.5706;0.9709;
188.7000;0.5690;0.9615;
189.0000;0.5690;0.9686;
189.3000;0.5576;0.9425;
189.6000;0.5674;0.9780;
189.9000;0.5682;0.9804;
190.2000;0.5698;0.9780;
190.5000;0.5690;0.9780;
190.8000;0.5722;0.9899;
191.1000;0.5739;0.9923;
191.4000;0.5682;0.9804;
191.7000;0.5698;0.9804;
192.0000;0.5674;0.9709;
192.3000;0.5690;0.9709;
192.6000;0.5665;0.9686;
192.9000;0.5649;0.9804;
193.2000;0.5665;0.9875;
193.5000;0.5690;0.9899;
193.8000;0.5690;0.9852;
194.1000;0.5682;0.9757;
194.4000;0.5690;0.9757;
194.7000;0.5617;0.9544;
195.0000;0.5698;0.9733;
195.3000;0.5698;0.9804;
195.6000;0.5690;0.9852;
195.9000;0.5617;0.9662;
196.2000;0.5674;0.9780;
196.5000;0.5641;0.9686;
196.8000;0.5665;0.9686;
197.1000;0.5674;0.9709;
197.4000;0.5714;0.9780;
197.7000;0.5682;0.9757;
198.0000;0.5682;0.9780;
198.3000;0.5698;0.9780;
198.6000;0.5690;0.9757;
198.9000;0.5682;0.9757;
199.2000;0.5714;0.9852;
199.5000;0.5698;0.9828;
199.8000;0.5714;0.9780;
200.1000;0.5714;0.9780;
200.4000;0.5690;0.9780;
200.7000;0.5665;0.9709;
201.0000;0.5690;0.9780;
201.3000;0.5690;0.9709;
201.6000;0.5682;0.9780;
201.9000;0.5682;0.9638;
202.2000;0.5706;0.9733;
202.5000;0.5682;0.9686;
202.8000;0.5665;0.9662;
203.1000;0.5690;0.9780;
203.4000;0.5698;0.9923;
203.7000;0.5698;0.9899;
204.0000;0.5690;0.9852;
204.3000;0.5690;0.9923;
204.6000;0.5706;0.9828;
204.9000;0.5690;0.9733;
205.2000;0.5698;0.9662;
205.5000;0.5665;0.9615;
205.8000;0.5625;0.9615;
206.1000;0.5690;0.9780;
206.4000;0.5698;0.9804;
206.7000;0.5706;0.9899;
207.0000;0.5682;0.9852;
207.3000;0.5641;0.9875;
207.6000;0.5690;0.9828;
207.9000;0.5657;0.9828;
208.2000;0.5682;0.9946;
208.5000;0.5690;0.9852;
208.8000;0.5682;0.9852;
209.1000;0.5682;0.9875;
209.4000;0.5690;0.9852;
209.7000;0.5698;0.9852;
210.0000;0.5649;0.9686;
210.3000;0.5722;0.9828;
210.6000;0.5674;0.9780;
210.9000;0.5714;0.9780;
211.2000;0.5682;0.9615;
211.5000;0.5690;0.9662;
211.8000;0.5617;0.9378;
212.1000;0.5698;0.9638;
212.4000;0.5698;0.9709;
212.7000;0.5625;0.9544;
213.0000;0.5682;0.9638;
213.3000;0.5690;0.9615;
213.6000;0.5690;0.9638;
213.9000;0.5698;0.9780;
214.2000;0.5722;0.9828;
214.5000;0.5690;0.9757;
214.8000;0.5690;0.9662;
215.1000;0.5657;0.9591;
215.4000;0.5698;0.9709;
215.7000;0.5665;0.9615;
216.0000;0.5674;0.9544;
216.3000;0.5682;0.9544;
216.6000;0.5706;0.9686;
216.9000;0.5690;0.9638;
217.2000;0.5706;0.9662;
217.5000;0.5682;0.9686;
217.8000;0.5698;0.9733;
218.1000;0.5771;0.9804;
218.4000;0.5682;0.9449;
218.7000;0.5682;0.9425;
219.0000;0.5674;0.9449;
219.3000;0.5665;0.9378;
219.6000;0.5641;0.9378;
219.9000;0.5706;0.9520;
220.2000;0.5657;0.9473;
220.5000;0.5641;0.9378;
220.8000;0.5690;0.9520;
221.1000;0.5682;0.9520;
221.4000;0.5706;0.9591;
221.7000;0.5698;0.9591;
222.0000;0.5674;0.9544;
222.3000;0.5690;0.9449;
222.6000;0.5698;0.9473;
222.9000;0.5682;0.9473;
223.2000;0.5665;0.9425;
223.5000;0.5674;0.9567;
223.8000;0.5698;0.9733;
224.1000;0.5755;1.0017;
224.4000;0.5690;0.9852;
224.7000;0.5698;0.9923;
225.0000;0.5682;0.9923;
225.3000;0.5690;0.9899;
225.6000;0.5682;0.9899;
225.9000;0.5690;0.9828;
226.2000;0.5706;0.9899;
226.5000;0.5690;0.9875;
226.8000;0.5690;0.9875;
227.1000;0.5690;0.9875;
227.4000;0.5690;0.9828;
227.7000;0.5698;0.9899;
228.0000;0.5698;0.9852;
228.3000;0.5682;0.9875;
228.6000;0.5665;0.9852;
228.9000;0.5714;1.0017;
229.2000;0.5698;1.0017;
229.5000;0.5690;1.0041;
229.8000;0.5682;0.9970;
230.1000;0.5690;0.9852;
230.4000;0.5690;0.9780;
230.7000;0.5698;0.9852;
231.0000;0.5698;0.9923;
231.3000;0.5649;0.9757;
231.6000;0.5698;0.9780;
231.9000;0.5682;0.9780;
232.2000;0.5649;0.9709;
232.5000;0.5682;0.9757;
232.8000;0.5706;0.9780;
233.1000;0.5698;0.9828;
233.4000;0.5690;0.9804;
233.7000;0.5731;0.9923;
234.0000;0.5690;0.9970;
234.3000;0.5698;0.9994;
234.6000;0.5674;0.9923;
234.9000;0.5739;1.0112;
235.2000;0.5690;0.9970;
235.5000;0.5682;0.9946;
235.8000;0.5682;0.9946;
236.1000;0.5788;1.0136;
236.4000;0.5755;1.0088;
236.7000;0.5706;0.9946;
237.0000;0.5698;0.9923;
237.3000;0.5706;0.9852;
237.6000;0.5698;0.9899;
237.9000;0.5706;0.9899;
238.2000;0.5690;0.9804;
238.5000;0.5731;0.9994;
238.8000;0.5706;0.9923;
239.1000;0.5698;0.9946;
239.4000;0.5714;0.9946;
239.7000;0.5698;0.9828;
240.0000;0.5690;0.9733;
240.3000;0.5698;0.9709;
240.6000;0.5755;0.9757;
240.9000;0.5690;0.9638;
241.2000;0.5690;0.9662;
241.5000;0.5706;0.9780;
241.8000;0.5690;0.9804;
242.1000;0.5690;0.9686;
242.4000;0.5674;0.9638;
242.7000;0.5682;0.9662;
243.0000;0.5771;0.9875;
243.3000;0.5706;0.9638;
243.6000;0.5706;0.9662;
243.9000;0.5690;0.9709;
244.2000;0.5698;0.9686;
244.5000;0.5690;0.9638;
244.8000;0.5755;0.9804;
245.1000;0.5722;0.9686;
245.4000;0.5698;0.9615;
245.7000;0.5698;0.9662;
246.0000;0.5682;0.9686;
246.3000;0.5674;0.9733;
246.6000;0.5690;0.9828;
246.9000;0.5690;0.9828;
247.2000;0.5682;0.9804;
247.5000;0.5674;0.9757;
247.8000;0.5714;0.9733;
248.1000;0.5731;0.9757;
248.4000;0.5690;0.9686;
248.7000;0.5690;0.9662;
249.0000;0.5682;0.9615;
249.3000;0.5665;0.9638;
249.6000;0.5706;0.9686;
249.9000;0.5698;0.9662;
250.2000;0.5682;0.9686;
250.5000;0.5698;0.9780;
250.8000;0.5706;0.9923;
251.1000;0.5731;0.9899;
251.4000;0.5633;0.9662;
251.7000;0.5698;0.9875;
252.0000;0.5779;1.0041;
252.3000;0.5698;0.9852;
252.6000;0.5690;0.9852;
252.9000;0.5690;0.9757;
253.2000;0.5690;0.9804;
253.5000;0.5608;0.9591;
253.8000;0.5690;0.9733;
254.1000;0.5690;0.9804;
254.4000;0.5608;0.9709;
254.7000;0.5674;0.9780;
255.0000;0.5690;0.9852;
255.3000;0.5714;0.9875;
255.6000;0.5617;0.9662;
255.9000;0.5698;0.9899;
256.2000;0.5682;0.9852;
256.5000;0.5682;0.9709;
256.8000;0.5690;0.9638;
257.1000;0.5682;0.9686;
257.4000;0.5698;0.9828;
257.7000;0.5690;0.9662;
258.0000;0.5682;0.9638;
258.3000;0.5706;0.9757;
258.6000;0.5698;0.9686;
258.9000;0.5739;0.9780;
259.2000;0.5698;0.9733;
259.5000;0.5698;0.9828;
259.8000;0.5698;0.9804;
260.1000;0.5690;0.9757;
260.4000;0.5674;0.9638;
260.7000;0.5812;1.0088;
261.0000;0.5722;0.9828;
261.3000;0.5706;0.9757;
261.6000;0.5698;0.9733;
261.9000;0.5739;0.9828;
262.2000;0.5698;0.9828;
262.5000;0.5698;0.9804;
262.8000;0.5682;0.9733;
263.1000;0.5657;0.9709;
263.4000;0.5674;0.9828;
263.7000;0.5698;0.9923;
264.0000;0.5739;1.0041;
264.3000;0.5649;0.9733;
264.6000;0.5698;0.9899;
264.9000;0.5722;0.9923;
265.2000;0.5706;0.9875;
265.5000;0.5714;0.9899;
265.8000;0.5665;0.9780;
266.1000;0.5698;0.9852;
266.4000;0.5690;0.9875;
266.7000;0.5698;0.9875;
267.0000;0.5706;0.9923;
267.3000;0.5649;0.9828;
267.6000;0.5690;0.9946;
267.9000;0.5706;1.0065;
268.2000;0.5706;1.0041;
268.5000;0.5698;0.9923;
268.8000;0.5731;1.0017;
269.1000;0.5665;0.9804;
269.4000;0.5722;0.9923;
269.7000;0.5722;0.9852;
270.0000;0.5682;0.9662;
270.3000;0.5714;0.9828;
270.6000;0.5690;0.9804;
270.9000;0.5690;0.9757;
271.2000;0.5722;0.9804;
271.5000;0.5665;0.9733;
271.8000;0.5706;0.9899;
272.1000;0.5706;0.9923;
272.4000;0.5706;0.9970;
272.7000;0.5698;0.9946;
273.0000;0.5706;1.0088;
273.3000;0.5706;1.0136;
273.6000;0.5682;1.0041;
273.9000;0.5698;1.0041;
274.2000;0.5682;1.0065;
274.5000;0.5657;1.0041;
274.8000;0.5682;1.0065;
275.1000;0.5690;1.0065;
275.4000;0.5739;1.0112;
275.7000;0.5690;1.0017;
276.0000;0.5690;1.0088;
276.3000;0.5690;1.0065;
276.6000;0.5690;1.0041;
276.9000;0.5706;1.0041;
277.2000;0.5690;1.0041;
277.5000;0.5674;1.0041;
277.8000;0.5649;0.9970;
278.1000;0.5690;1.0065;
278.4000;0.5657;1.0041;
278.7000;0.5690;1.0065;
279.0000;0.5682;1.0065;
279.3000;0.5682;1.0112;
279.6000;0.5682;1.0136;
279.9000;0.5706;1.0136;
280.2000;0.5788;1.0301;
280.5000;0.5690;0.9923;
280.8000;0.5731;0.9994;
281.1000;0.5698;0.9852;
281.4000;0.5722;0.9899;
281.7000;0.5698;0.9899;
282.0000;0.5674;0.9804;
282.3000;0.5649;0.9709;
282.6000;0.5706;0.9875;
282.9000;0.5641;0.9875;
283.2000;0.5698;1.0041;
283.5000;0.5698;0.9994;
283.8000;0.5665;0.9875;
284.1000;0.5706;0.9946;
284.4000;0.5690;0.9923;
284.7000;0.5682;0.9852;
285.0000;0.5706;0.9923;
285.3000;0.5706;0.9899;
285.6000;0.5722;0.9804;
285.9000;0.5722;0.9828;
286.2000;0.5714;0.9804;
286.5000;0.5722;0.9875;
286.8000;0.5706;0.9757;
287.1000;0.5714;0.9780;
287.4000;0.5698;0.9709;
287.7000;0.5698;0.9757;
288.0000;0.5682;0.9638;
288.3000;0.5682;0.9709;
288.6000;0.5690;0.9804;
288.9000;0.5641;0.9709;
289.2000;0.5722;0.9899;
289.5000;0.5665;0.9757;
289.8000;0.5706;0.9852;
290.1000;0.5714;0.9852;
290.4000;0.5690;0.9780;
290.7000;0.5674;0.9757;
291.0000;0.5641;0.9733;
291.3000;0.5690;0.9875;
291.6000;0.5706;0.9828;
291.9000;0.5690;0.9733;
292.2000;0.5682;0.9852;
292.5000;0.5690;0.9828;
292.8000;0.5722;0.9875;
293.1000;0.5706;0.9875;
293.4000;0.5674;0.9875;
293.7000;0.5682;0.9828;
294.0000;0.5674;0.9757;
294.3000;0.5690;0.9780;
294.6000;0.5682;0.9757;
294.9000;0.5690;0.9686;
295.2000;0.5690;0.9733;
295.5000;0.5706;0.9828;
295.8000;0.5698;0.9828;
296.1000;0.5706;0.9875;
296.4000;0.5690;0.9780;
296.7000;0.5665;0.9804;
297.0000;0.5706;0.9899;
297.3000;0.5706;0.9804;
297.6000;0.5698;0.9804;
297.9000;0.5682;0.9709;
298.2000;0.5690;0.9780;
298.5000;0.5674;0.9780;
298.8000;0.5665;0.9804;
299.1000;0.5665;0.9804;
299.4000;0.5690;0.9970;
299.7000;0.5682;0.9899;
300.0000;0.5674;0.9899;
300.3000;0.5714;0.9923;
300.6000;0.5690;0.9780;
300.9000;0.5674;0.9780;
301.2000;0.5682;0.9780;
301.5000;0.5706;0.9804;
301.8000;0.5600;0.9615;
302.1000;0.5722;0.9828;
302.4000;0.5698;0.9757;
302.7000;0.5560;0.9378;
303.0000;0.5698;0.9757;
303.3000;0.5665;0.9709;
303.6000;0.5690;0.9733;
303.9000;0.5706;0.9780;
304.2000;0.5722;0.9852;
304.5000;0.5690;0.9757;
304.8000;0.5682;0.9804;
305.1000;0.5682;0.9852;
305.4000;0.5698;0.9875;
305.7000;0.5763;0.9970;
306.0000;0.5714;0.9804;
306.3000;0.5731;0.9899;
306.6000;0.5706;0.9875;
306.9000;0.5706;0.9923;
307.2000;0.5698;0.9828;
307.5000;0.5731;0.9828;
307.8000;0.5706;0.9757;
308.1000;0.5706;0.9709;
308.4000;0.5722;0.9804;
308.7000;0.5731;0.9875;
309.0000;0.5698;0.9970;
309.3000;0.5722;0.9970;
309.6000;0.5714;0.9875;
309.9000;0.5706;0.9852;
310.2000;0.5698;0.9757;
310.5000;0.5698;0.9757;
310.8000;0.5706;0.9757;
311.1000;0.5690;0.9733;
311.4000;0.5698;0.9804;
311.7000;0.5698;0.9780;
312.0000;0.5698;0.9852;
312.3000;0.5714;0.9852;
312.6000;0.5698;0.9757;
312.9000;0.5698;0.9780;
313.2000;0.5706;0.9852;
313.5000;0.5682;0.9875;
313.8000;0.5682;0.9899;
314.1000;0.5698;0.9852;
314.4000;0.5722;0.9923;
314.7000;0.5714;0.9804;
315.0000;0.5682;0.9733;
315.3000;0.5714;0.9780;
315.6000;0.5682;0.9757;
315.9000;0.5722;0.9899;
316.2000;0.5722;0.9923;
316.5000;0.5706;0.9899;
316.8000;0.5674;0.9733;
317.1000;0.5706;0.9828;
317.4000;0.5714;0.9804;
317.7000;0.5690;0.9757;
318.0000;0.5714;0.9804;
318.3000;0.5706;0.9733;
318.6000;0.5698;0.9757;
318.9000;0.5698;0.9804;
319.2000;0.5690;0.9780;
319.5000;0.5698;0.9804;
319.8000;0.5722;0.9804;
320.1000;0.5698;0.9804;
320.4000;0.5674;0.9804;
320.7000;0.5682;0.9828;
321.0000;0.5698;0.9875;
321.3000;0.5690;0.9828;
321.6000;0.5698;0.9852;
321.9000;0.5714;0.9923;
322.2000;0.5731;0.9946;
322.5000;0.5698;0.9852;
322.8000;0.5706;0.9804;
323.1000;0.5714;0.9852;
323.4000;0.5698;0.9828;
323.7000;0.5714;0.9780;
324.0000;0.5698;0.9804;
324.3000;0.5690;0.9757;
324.6000;0.5633;0.9638;
324.9000;0.5690;0.9804;
325.2000;0.5698;0.9733;
325.5000;0.5682;0.9709;
325.8000;0.5657;0.9662;
326.1000;0.5690;0.9733;
326.4000;0.5690;0.9780;
326.7000;0.5665;0.9686;
327.0000;0.5714;0.9757;
327.3000;0.5755;0.9923;
327.6000;0.5731;0.9946;
327.9000;0.5731;0.9899;
328.2000;0.5747;0.9923;
328.5000;0.5714;0.9828;
328.8000;0.5690;0.9852;
329.1000;0.5608;0.9615;
329.4000;0.5690;0.9852;
329.7000;0.5731;0.9899;
330.0000;0.5698;0.9780;
330.3000;0.5674;0.9828;
330.6000;0.5690;0.9994;
330.9000;0.5706;0.9970;
331.2000;0.5665;0.9852;
331.5000;0.5690;0.9875;
331.8000;0.5690;0.9946;
332.1000;0.5706;0.9923;
332.4000;0.5706;0.9923;
332.7000;0.5698;0.9899;
333.0000;0.5714;0.9852;
333.3000;0.5698;0.9828;
333.6000;0.5698;0.9828;
333.9000;0.5714;0.9923;
334.2000;0.5706;0.9970;
334.5000;0.5657;0.9804;
334.8000;0.5690;0.9899;
335.1000;0.5714;0.9994;
335.4000;0.5706;0.9970;
335.7000;0.5682;0.9899;
336.0000;0.5568;0.9520;
336.3000;0.5690;0.9804;
336.6000;0.5674;0.9780;
336.9000;0.5706;0.9757;
337.2000;0.5690;0.9733;
337.5000;0.5706;0.9804;
337.8000;0.5722;0.9828;
338.1000;0.5698;0.9828;
338.4000;0.5682;0.9852;
338.7000;0.5714;0.9994;
339.0000;0.5706;0.9970;
339.3000;0.5665;0.9852;
339.6000;0.5698;0.9899;
339.9000;0.5690;0.9828;
340.2000;0.5714;0.9852;
340.5000;0.5698;0.9780;
340.8000;0.5682;0.9733;
341.1000;0.5682;0.9709;
341.4000;0.5698;0.9757;
341.7000;0.5698;0.9804;
342.0000;0.5722;0.9733;
342.3000;0.5706;0.9638;
342.6000;0.5706;0.9638;
342.9000;0.5714;0.9638;
343.2000;0.5617;0.9283;
343.5000;0.5698;0.9520;
343.8000;0.5698;0.9638;
344.1000;0.5657;0.9496;
344.4000;0.5706;0.9662;
344.7000;0.5682;0.9709;
345.0000;0.5665;0.9591;
345.3000;0.5714;0.9733;
345.6000;0.5698;0.9709;
345.9000;0.5682;0.9709;
346.2000;0.5698;0.9828;
346.5000;0.5698;0.9875;
346.8000;0.5698;0.9852;
347.1000;0.5731;0.9923;
347.4000;0.5690;0.9852;
347.7000;0.5706;0.9828;
348.0000;0.5698;0.9946;
348.3000;0.5714;0.9970;
348.6000;0.5665;0.9875;
348.9000;0.5714;1.0159;
349.2000;0.5674;1.0088;
349.5000;0.5706;1.0183;
349.8000;0.5649;1.0017;
350.1000;0.5706;1.0207;
350.4000;0.5698;1.0136;
350.7000;0.5706;1.0088;
351.0000;0.5649;0.9970;
351.3000;0.5706;1.0088;
351.6000;0.5722;1.0112;
351.9000;0.5690;0.9946;
352.2000;0.5690;0.9994;
352.5000;0.5698;0.9994;
352.8000;0.5682;0.9946;
353.1000;0.5674;0.9946;
353.4000;0.5698;0.9804;
353.7000;0.5690;0.9780;
354.0000;0.5706;0.9804;
354.3000;0.5714;0.9828;
354.6000;0.5706;0.9899;
354.9000;0.5706;0.9899;
355.2000;0.5698;0.9804;
355.5000;0.5706;0.9852;
355.8000;0.5690;0.9852;
356.1000;0.5706;0.9946;
356.4000;0.5722;0.9994;
356.7000;0.5706;1.0041;
357.0000;0.5722;1.0136;
357.3000;0.5698;1.0041;
357.6000;0.5690;1.0065;
357.9000;0.5698;0.9994;
358.2000;0.5706;1.0065;
358.5000;0.5706;1.0017;
358.8000;0.5722;1.0017;
359.1000;0.5690;0.9970;
359.4000;0.5714;0.9994;
359.7000;0.5641;0.9780;
360.0000;0.5690;0.9970;
360.3000;0.5690;1.0088;
360.6000;0.5714;1.0112;
360.9000;0.5690;1.0065;
361.2000;0.5714;1.0041;
361.5000;0.5665;0.9923;
361.8000;0.5690;0.9923;
362.1000;0.5690;0.9946;
362.4000;0.5698;0.9757;
362.7000;0.5698;0.9780;
363.0000;0.5690;0.9780;
363.3000;0.5690;0.9804;
363.6000;0.5690;0.9899;
363.9000;0.5698;1.0017;
364.2000;0.5747;1.0088;
364.5000;0.5706;0.9994;
364.8000;0.5690;0.9970;
365.1000;0.5674;0.9875;
365.4000;0.5698;0.9994;
365.7000;0.5706;1.0065;
366.0000;0.5698;1.0017;
366.3000;0.5698;1.0041;
366.6000;0.5698;1.0065;
366.9000;0.5706;0.9946;
367.2000;0.5731;1.0041;
367.5000;0.5747;1.0088;
367.8000;0.5722;0.9994;
368.1000;0.5698;0.9994;
368.4000;0.5706;0.9994;
368.7000;0.5714;0.9946;
369.0000;0.5714;0.9994;
369.3000;0.5641;0.9757;
369.6000;0.5722;0.9923;
369.9000;0.5714;1.0065;
370.2000;0.5649;0.9994;
370.5000;0.5698;0.9994;
370.8000;0.5763;1.0065;
371.1000;0.5682;0.9899;
371.4000;0.5698;0.9875;
371.7000;0.5674;0.9804;
372.0000;0.5698;0.9875;
372.3000;0.5722;0.9994;
372.6000;0.5731;1.0041;
372.9000;0.5722;1.0041;
373.2000;0.5690;1.0017;
373.5000;0.5706;1.0136;
373.8000;0.5706;1.0065;
374.1000;0.5690;0.9946;
374.4000;0.5690;1.0041;
374.7000;0.5755;1.0207;
375.0000;0.5706;1.0065;
375.3000;0.5706;1.0017;
375.6000;0.5698;1.0065;
375.9000;0.5722;1.0112;
376.2000;0.5682;0.9994;
376.5000;0.5690;0.9970;
376.8000;0.5690;1.0065;
377.1000;0.5706;1.0065;
377.4000;0.5706;1.0041;
377.7000;0.5706;0.9970;
378.0000;0.5682;0.9923;
378.3000;0.5698;0.9946;
378.6000;0.5706;0.9946;
378.9000;0.5706;0.9899;
379.2000;0.5698;0.9994;
379.5000;0.5706;0.9970;
379.8000;0.5706;0.9994;
380.1000;0.5698;0.9970;
380.4000;0.5698;0.9994;
380.7000;0.5698;0.9923;
381.0000;0.5690;0.9994;
381.3000;0.5690;0.9946;
381.6000;0.5682;0.9970;
381.9000;0.5690;1.0088;
382.2000;0.5690;1.0088;
382.5000;0.5682;1.0041;
382.8000;0.5682;0.9875;
383.1000;0.5682;0.9852;
383.4000;0.5698;0.9946;
383.7000;0.5657;0.9875;
384.0000;0.5690;0.9970;
384.3000;0.5714;0.9970;
384.6000;0.5674;0.9899;
384.9000;0.5706;0.9994;
385.2000;0.5698;0.9970;
385.5000;0.5698;1.0017;
385.8000;0.5714;1.0136;
386.1000;0.5665;0.9923;
386.4000;0.5706;1.0065;
386.7000;0.5698;1.0017;
387.0000;0.5649;0.9852;
387.3000;0.5682;0.9970;
387.6000;0.5690;0.9994;
387.9000;0.5706;1.0017;
388.2000;0.5706;1.0065;
388.5000;0.5698;0.9994;
388.8000;0.5690;1.0017;
389.1000;0.5674;0.9899;
389.4000;0.5714;0.9946;
389.7000;0.5706;0.9970;
390.0000;0.5714;1.0041;
390.3000;0.5690;0.9994;
390.6000;0.5682;1.0041;
390.9000;0.5731;1.0088;
391.2000;0.5649;0.9828;
391.5000;0.5722;0.9994;
391.8000;0.5714;0.9804;
392.1000;0.5641;0.9638;
392.4000;0.5690;0.9828;
392.7000;0.5714;0.9804;
393.0000;0.5731;0.9923;
393.3000;0.5698;0.9899;
393.6000;0.5763;1.0088;
393.9000;0.5714;1.0041;
394.2000;0.5698;1.0041;
394.5000;0.5698;1.0041;
394.8000;0.5706;1.0112;
395.1000;0.5665;1.0065;
395.4000;0.5722;1.0230;
395.7000;0.5722;1.0207;
396.0000;0.5682;1.0136;
396.3000;0.5722;1.0136;
396.6000;0.5690;1.0112;
396.9000;0.5706;1.0065;
397.2000;0.5682;1.0112;
397.5000;0.5698;1.0088;
397.8000;0.5698;0.9946;
398.1000;0.5706;0.9923;
398.4000;0.5665;0.9899;
398.7000;0.5674;0.9852;
399.0000;0.5731;0.9994;
399.3000;0.5706;0.9899;
399.6000;0.5682;0.9875;
399.9000;0.5657;0.9923;
400.2000;0.5788;1.0254;
400.5000;0.5698;0.9946;
400.8000;0.5788;1.0136;
401.1000;0.5763;1.0041;
401.4000;0.5698;0.9994;
401.7000;0.5714;1.0017;
402.0000;0.5690;0.9899;
402.3000;0.5706;0.9946;
402.6000;0.5690;0.9994;
402.9000;0.5706;1.0017;
403.2000;0.5706;0.9994;
403.5000;0.5706;0.9946;
403.8000;0.5698;0.9970;
404.1000;0.5706;0.9970;
404.4000;0.5714;1.0041;
404.7000;0.5706;0.9946;
405.0000;0.5731;1.0041;
405.3000;0.5731;1.0041;
405.6000;0.5698;0.9946;
405.9000;0.5722;0.9923;
406.2000;0.5698;0.9875;
406.5000;0.5763;1.0041;
406.8000;0.5714;0.9923;
407.1000;0.5698;0.9970;
407.4000;0.5698;0.9923;
407.7000;0.5747;0.9994;
408.0000;0.5682;0.9852;
408.3000;0.5698;0.9899;
408.6000;0.5706;0.9828;
408.9000;0.5698;0.9875;
409.2000;0.5690;0.9852;
409.5000;0.5714;0.9946;
409.8000;0.5714;1.0159;
410.1000;0.5698;1.0136;
410.4000;0.5698;1.0136;
410.7000;0.5731;1.0159;
411.0000;0.5714;1.0183;
411.3000;0.5706;1.0065;
411.6000;0.5722;1.0017;
411.9000;0.5698;0.9923;
412.2000;0.5739;0.9946;
412.5000;0.5674;0.9923;
412.8000;0.5674;1.0017;
413.1000;0.5698;0.9946;
413.4000;0.5731;0.9875;
413.7000;0.5682;0.9733;
414.0000;0.5714;0.9828;
414.3000;0.5698;0.9828;
414.6000;0.5714;0.9899;
414.9000;0.5698;0.9923;
415.2000;0.5722;0.9994;
415.5000;0.5739;0.9994;
415.8000;0.5722;0.9946;
416.1000;0.5714;0.9970;
416.4000;0.5698;0.9994;
416.7000;0.5698;0.9994;
417.0000;0.5633;0.9899;
417.3000;0.5722;1.0136;
417.6000;0.5706;1.0041;
417.9000;0.5706;1.0183;
418.2000;0.5706;1.0159;
418.5000;0.5706;1.0136;
418.8000;0.5771;1.0254;
419.1000;0.5698;0.9970;
419.4000;0.5722;0.9970;
419.7000;0.5657;0.9852;
420.0000;0.5698;0.9923;
420.3000;0.5763;1.0017;
420.6000;0.5706;0.9923;
420.9000;0.5722;0.9875;
421.2000;0.5649;0.9780;
421.5000;0.5706;0.9852;
421.8000;0.5755;0.9994;
422.1000;0.5722;0.9923;
422.4000;0.5706;0.9899;
422.7000;0.5739;1.0041;
423.0000;0.5649;0.9852;
423.3000;0.5657;0.9828;
423.6000;0.5690;0.9946;
423.9000;0.5706;1.0041;
424.2000;0.5714;1.0088;
424.5000;0.5722;1.0017;
424.8000;0.5560;0.9638;
425.1000;0.5690;1.0041;
425.4000;0.5698;0.9970;
425.7000;0.5714;0.9994;
426.0000;0.5706;1.0017;
426.3000;0.5706;1.0041;
426.6000;0.5731;0.9970;
426.9000;0.5714;0.9970;
427.2000;0.5714;0.9946;
427.5000;0.5690;0.9970;
427.8000;0.5698;0.9994;
428.1000;0.5706;0.9946;
428.4000;0.5714;1.0017;
428.7000;0.5698;0.9994;
429.0000;0.5706;0.9994;
429.3000;0.5682;0.9994;
429.6000;0.5706;1.0065;
429.9000;0.5682;1.0136;
430.2000;0.5682;1.0112;
430.5000;0.5682;1.0112;
430.8000;0.5682;1.0088;
431.1000;0.5698;1.0088;
431.4000;0.5665;0.9970;
431.7000;0.5706;0.9994;
432.0000;0.5698;0.9946;
432.3000;0.5706;0.9875;
432.6000;0.5698;0.9875;
432.9000;0.5706;0.9946;
433.2000;0.5698;0.9970;
433.5000;0.5665;0.9899;
433.8000;0.5706;0.9970;
434.1000;0.5682;0.9946;
434.4000;0.5714;1.0065;
434.7000;0.5722;1.0088;
435.0000;0.5706;1.0017;
435.3000;0.5731;1.0136;
435.6000;0.5706;1.0017;
435.9000;0.5722;1.0112;
436.2000;0.5722;1.0112;
436.5000;0.5657;0.9994;
436.8000;0.5698;1.0112;
437.1000;0.5722;1.0207;
437.4000;0.5706;1.0088;
437.7000;0.5682;1.0041;
438.0000;0.5682;0.9946;
438.3000;0.5625;0.9804;
438.6000;0.5714;1.0017;
438.9000;0.5690;1.0041;
439.2000;0.5747;1.0207;
439.5000;0.5706;1.0159;
439.8000;0.5674;1.0112;
440.1000;0.5617;0.9970;
440.4000;0.5682;1.0136;
440.7000;0.5706;1.0207;
441.0000;0.5690;1.0159;
441.3000;0.5682;1.0112;
441.6000;0.5747;1.0088;
441.9000;0.5820;1.0325;
442.2000;0.5706;0.9923;
442.5000;0.5706;0.9875;
442.8000;0.5706;0.9899;
443.1000;0.5690;0.9970;
443.4000;0.5665;0.9804;
443.7000;0.5690;0.9804;
444.0000;0.5714;0.9828;
444.3000;0.5698;0.9852;
444.6000;0.5722;1.0041;
444.9000;0.5682;0.9994;
445.2000;0.5714;1.0017;
445.5000;0.5690;1.0017;
445.8000;0.5698;1.0136;
446.1000;0.5690;1.0112;
446.4000;0.5674;1.0088;
446.7000;0.5649;1.0041;
447.0000;0.5706;1.0088;
447.3000;0.5739;1.0088;
447.6000;0.5714;1.0017;
447.9000;0.5714;1.0017;
448.2000;0.5698;1.0088;
448.5000;0.5682;1.0065;
448.8000;0.5722;1.0112;
449.1000;0.5690;1.0112;
449.4000;0.5682;1.0017;
449.7000;0.5682;1.0112;
450.0000;0.5698;1.0136;
450.3000;0.5698;1.0065;
450.6000;0.5698;1.0065;
450.9000;0.5706;1.0041;
451.2000;0.5731;1.0017;
451.5000;0.5706;0.9946;
451.8000;0.5706;0.9923;
452.1000;0.5690;0.9804;
452.4000;0.5706;0.9946;
452.7000;0.5722;0.9946;
453.0000;0.5698;0.9970;
453.3000;0.5682;0.9970;
453.6000;0.5755;1.0207;
453.9000;0.5714;1.0041;
454.2000;0.5690;0.9946;
454.5000;0.5698;0.9923;
454.8000;0.5690;0.9923;
455.1000;0.5706;0.9970;
455.4000;0.5698;0.9946;
455.7000;0.5698;0.9875;
456.0000;0.5706;0.9946;
456.3000;0.5722;0.9970;
456.6000;0.5698;0.9994;
456.9000;0.5665;0.9994;
457.2000;0.5690;1.0065;
457.5000;0.5682;1.0017;
457.8000;0.5714;1.0065;
458.1000;0.5722;1.0088;
458.4000;0.5690;0.9994;
458.7000;0.5722;1.0088;
459.0000;0.5698;1.0136;
459.3000;0.5690;1.0112;
459.6000;0.5690;1.0136;
459.9000;0.5674;0.9994;
460.2000;0.5690;0.9970;
460.5000;0.5698;0.9994;
460.8000;0.5706;1.0041;
461.1000;0.5747;1.0065;
461.4000;0.5674;0.9899;
461.7000;0.5714;1.0017;
462.0000;0.5674;0.9970;
462.3000;0.5706;1.0065;
462.6000;0.5714;1.0088;
462.9000;0.5698;1.0112;
463.2000;0.5706;0.9970;
463.5000;0.5698;0.9946;
463.8000;0.5722;1.0088;
464.1000;0.5722;0.9994;
464.4000;0.5698;0.9923;
464.7000;0.5698;1.0017;
465.0000;0.5706;1.0065;
465.3000;0.5690;1.0088;
465.6000;0.5706;1.0112;
465.9000;0.5788;1.0325;
466.2000;0.5698;1.0207;
466.5000;0.5674;1.0159;
466.8000;0.5698;1.0254;
467.1000;0.5633;1.0112;
467.4000;0.5698;1.0230;
467.7000;0.5665;1.0183;
468.0000;0.5714;1.0207;
468.3000;0.5690;1.0183;
468.6000;0.5690;1.0136;
468.9000;0.5698;1.0112;
469.2000;0.5690;1.0136;
469.5000;0.5698;1.0112;
469.8000;0.5698;0.9970;
470.1000;0.5690;1.0041;
470.4000;0.5706;1.0112;
470.7000;0.5698;1.0159;
471.0000;0.5682;1.0136;
471.3000;0.5722;1.0207;
471.6000;0.5714;1.0065;
471.9000;0.5714;0.9946;
472.2000;0.5714;0.9994;
472.5000;0.5706;0.9946;
472.8000;0.5722;0.9970;
473.1000;0.5698;0.9946;
473.4000;0.5706;1.0017;
473.7000;0.5682;0.9970;
474.0000;0.5698;0.9994;
474.3000;0.5690;0.9946;
474.6000;0.5690;0.9970;
474.9000;0.5714;1.0041;
475.2000;0.5690;1.0065;
475.5000;0.5722;1.0065;
475.8000;0.5698;1.0017;
476.1000;0.5706;0.9970;
476.4000;0.5698;0.9946;
476.7000;0.5682;0.9875;
477.0000;0.5714;0.9994;
477.3000;0.5714;1.0088;
477.6000;0.5755;1.0088;
477.9000;0.5706;0.9970;
478.2000;0.5731;0.9994;
478.5000;0.5739;0.9994;
478.8000;0.5731;1.0065;
479.1000;0.5714;0.9946;
479.4000;0.5706;1.0041;
479.7000;0.5674;0.9970;
480.0000;0.5706;1.0017;
480.3000;0.5690;0.9970;
480.6000;0.5722;1.0041;
480.9000;0.5755;1.0183;
481.2000;0.5698;0.9994;
481.5000;0.5698;0.9994;
481.8000;0.5722;1.0088;
482.1000;0.5698;0.9994;
482.4000;0.5714;0.9923;
482.7000;0.5706;0.9875;
483.0000;0.5706;0.9923;
483.3000;0.5722;0.9994;
483.6000;0.5731;1.0041;
483.9000;0.5747;1.0136;
484.2000;0.5706;1.0088;
484.5000;0.5714;1.0207;
484.8000;0.5731;1.0325;
485.1000;0.5698;1.0301;
485.4000;0.5690;1.0207;
485.7000;0.5698;1.0230;
486.0000;0.5706;1.0254;
486.3000;0.5682;1.0230;
486.6000;0.5698;1.0230;
486.9000;0.5788;1.0420;
487.2000;0.5722;1.0207;
487.5000;0.5722;1.0183;
487.8000;0.5698;1.0065;
488.1000;0.5714;1.0065;
488.4000;0.5722;1.0112;
488.7000;0.5714;1.0041;
489.0000;0.5739;1.0017;
489.3000;0.5690;0.9899;
489.6000;0.5690;0.9970;
489.9000;0.5698;0.9946;
490.2000;0.5706;0.9899;
490.5000;0.5698;0.9923;
490.8000;0.5698;0.9899;
491.1000;0.5722;0.9804;
491.4000;0.5698;0.9780;
491.7000;0.5698;0.9757;
492.0000;0.5665;0.9662;
492.3000;0.5649;0.9567;
492.6000;0.5690;0.9709;
492.9000;0.5665;0.9686;
493.2000;0.5722;0.9780;
493.5000;0.5706;0.9733;
493.8000;0.5706;0.9780;
494.1000;0.5698;0.9757;
494.4000;0.5690;0.9780;
494.7000;0.5731;0.9828;
495.0000;0.5706;0.9733;
495.3000;0.5690;0.9733;
495.6000;0.5698;0.9757;
495.9000;0.5706;0.9780;
496.2000;0.5706;0.9804;
496.5000;0.5706;0.9780;
496.8000;0.5698;0.9780;
497.1000;0.5714;0.9828;
497.4000;0.5690;0.9733;
497.7000;0.5706;0.9757;
498.0000;0.5682;0.9686;
498.3000;0.5714;0.9686;
498.6000;0.5731;0.9780;
498.9000;0.5714;0.9780;
499.2000;0.5698;0.9804;
499.5000;0.5690;0.9780;
499.8000;0.5690;0.9709;
500.1000;0.5714;0.9804;
500.4000;0.5714;0.9780;
500.7000;0.5739;0.9923;
501.0000;0.5698;0.9804;
501.3000;0.5698;0.9804;
501.6000;0.5690;0.9804;
501.9000;0.5674;0.9852;
502.2000;0.5682;0.9946;
502.5000;0.5674;0.9923;
502.8000;0.5674;0.9852;
503.1000;0.5698;0.9828;
503.4000;0.5706;0.9828;
503.7000;0.5698;0.9828;
504.0000;0.5690;0.9804;
504.3000;0.5706;0.9852;
504.6000;0.5804;1.0159;
504.9000;0.5682;0.9875;
505.2000;0.5714;0.9923;
505.5000;0.5690;0.9828;
505.8000;0.5690;0.9733;
506.1000;0.5714;0.9875;
506.4000;0.5698;0.9923;
506.7000;0.5706;0.9946;
507.0000;0.5714;0.9923;
507.3000;0.5674;0.9828;
507.6000;0.5698;0.9994;
507.9000;0.5706;0.9994;
508.2000;0.5665;0.9899;
508.5000;0.5682;0.9946;
508.8000;0.5698;0.9923;
509.1000;0.5698;0.9946;
509.4000;0.5739;0.9946;
509.7000;0.5682;0.9709;
510.0000;0.5714;0.9852;
510.3000;0.5731;0.9899;
510.6000;0.5690;0.9852;
510.9000;0.5698;0.9828;
511.2000;0.5698;0.9852;
511.5000;0.5731;0.9852;
511.8000;0.5706;0.9780;
512.1000;0.5706;0.9780;
512.4000;0.5706;0.9757;
512.7000;0.5714;0.9780;
513.0000;0.5698;0.9709;
513.3000;0.5706;0.9709;
513.6000;0.5771;0.9875;
513.9000;0.5739;0.9780;
514.2000;0.5739;0.9757;
514.5000;0.5731;0.9852;
514.8000;0.5731;0.9899;
515.1000;0.5641;0.9662;
515.4000;0.5682;0.9780;
515.7000;0.5657;0.9662;
516.0000;0.5714;0.9946;
516.3000;0.5731;0.9994;
516.6000;0.5722;0.9970;
516.9000;0.5796;1.0254;
517.2000;0.5698;1.0017;
517.5000;0.5690;0.9923;
517.8000;0.5576;0.9496;
518.1000;0.5714;0.9875;
518.4000;0.5812;1.0159;
518.7000;0.5690;0.9994;
519.0000;0.5706;0.9994;
519.3000;0.5779;1.0136;
519.6000;0.5706;0.9899;
519.9000;0.5731;0.9852;
520.2000;0.5698;0.9804;
520.5000;0.5706;0.9828;
520.8000;0.5714;0.9852;
521.1000;0.5763;0.9875;
521.4000;0.5690;0.9709;
521.7000;0.5682;0.9733;
522.0000;0.5698;0.9780;
522.3000;0.5722;0.9804;
522.6000;0.5706;0.9875;
522.9000;0.5714;0.9899;
523.2000;0.5698;0.9733;
523.5000;0.5731;0.9899;
523.8000;0.5722;0.9852;
524.1000;0.5690;0.9780;
524.4000;0.5706;0.9804;
524.7000;0.5739;0.9923;
525.0000;0.5731;0.9970;
525.3000;0.5698;0.9875;
525.6000;0.5706;0.9899;
525.9000;0.5690;0.9828;
526.2000;0.5714;0.9899;
526.5000;0.5731;1.0017;
526.8000;0.5714;0.9946;
527.1000;0.5698;0.9828;
527.4000;0.5706;0.9828;
527.7000;0.5690;0.9757;
528.0000;0.5706;0.9828;
528.3000;0.5714;0.9875;
528.6000;0.5739;1.0017;
528.9000;0.5690;0.9828;
529.2000;0.5698;0.9852;
529.5000;0.5722;1.0017;
529.8000;0.5714;0.9923;
530.1000;0.5739;0.9970;
530.4000;0.5706;0.9946;
530.7000;0.5714;0.9994;
531.0000;0.5714;0.9994;
531.3000;0.5747;1.0088;
531.6000;0.5722;0.9970;
531.9000;0.5698;0.9923;
532.2000;0.5657;0.9804;
532.5000;0.5690;0.9852;
532.8000;0.5706;0.9970;
533.1000;0.5698;1.0017;
533.4000;0.5674;0.9875;
533.7000;0.5698;0.9946;
534.0000;0.5706;0.9875;
534.3000;0.5747;0.9923;
534.6000;0.5722;0.9804;
534.9000;0.5690;0.9757;
535.2000;0.5820;1.0065;
535.5000;0.5706;0.9780;
535.8000;0.5665;0.9686;
536.1000;0.5690;0.9733;
536.4000;0.5698;0.9709;
536.7000;0.5731;0.9828;
537.0000;0.5698;0.9804;
537.3000;0.5649;0.9757;
537.6000;0.5690;0.9923;
537.9000;0.5657;0.9780;
538.2000;0.5722;0.9852;
538.5000;0.5714;0.9828;
538.8000;0.5747;0.9970;
539.1000;0.5698;0.9828;
539.4000;0.5714;0.9852;
539.7000;0.5739;0.9875;
540.0000;0.5698;0.9804;
540.3000;0.5674;0.9733;
540.6000;0.5731;0.9828;
540.9000;0.5739;0.9804;
541.2000;0.5714;0.9757;
541.5000;0.5714;0.9852;
541.8000;0.5633;0.9638;
542.1000;0.5714;0.9757;
542.4000;0.5706;0.9686;
542.7000;0.5706;0.9709;
543.0000;0.5714;0.9757;
543.3000;0.5714;0.9804;
543.6000;0.5698;0.9875;
543.9000;0.5706;0.9757;
544.2000;0.5698;0.9804;
544.5000;0.5698;0.9828;
544.8000;0.5706;0.9923;
545.1000;0.5706;0.9923;
545.4000;0.5706;0.9899;
545.7000;0.5698;0.9899;
546.0000;0.5722;1.0041;
546.3000;0.5690;1.0041;
546.6000;0.5714;1.0112;
546.9000;0.5657;0.9828;
547.2000;0.5714;0.9946;
547.5000;0.5682;0.9804;
547.8000;0.5674;0.9757;
548.1000;0.5763;0.9875;
548.4000;0.5682;0.9757;
548.7000;0.5682;0.9875;
549.0000;0.5690;0.9970;
549.3000;0.5690;0.9994;
549.6000;0.5698;0.9923;
549.9000;0.5706;0.9923;
550.2000;0.5706;0.9994;
550.5000;0.5763;1.0159;
550.8000;0.5682;0.9970;
551.1000;0.5698;1.0065;
551.4000;0.5706;1.0065;
551.7000;0.5706;1.0065;
552.0000;0.5698;1.0041;
552.3000;0.5690;1.0159;
552.6000;0.5657;1.0041;
552.9000;0.5706;1.0065;
553.2000;0.5731;1.0136;
553.5000;0.5722;1.0159;
553.8000;0.5706;1.0159;
554.1000;0.5706;1.0183;
554.4000;0.5739;1.0183;
554.7000;0.5698;1.0041;
555.0000;0.5706;1.0112;
555.3000;0.5836;1.0420;
555.6000;0.5698;1.0017;
555.9000;0.5690;1.0041;
556.2000;0.5690;0.9994;
556.5000;0.5682;0.9946;
556.8000;0.5690;0.9899;
557.1000;0.5665;0.9733;
557.4000;0.5722;0.9804;
557.7000;0.5706;0.9780;
558.0000;0.5698;0.9780;
558.3000;0.5665;0.9733;
558.6000;0.5698;0.9875;
558.9000;0.5674;0.9804;
559.2000;0.5682;0.9946;
559.5000;0.5682;0.9923;
559.8000;0.5682;0.9923;
560.1000;0.5706;0.9946;
560.4000;0.5698;0.9923;
560.7000;0.5698;0.9946;
561.0000;0.5714;0.9970;
561.3000;0.5722;0.9994;
561.6000;0.5698;0.9970;
561.9000;0.5682;0.9923;
562.2000;0.5690;0.9899;
562.5000;0.5706;0.9875;
562.8000;0.5706;0.9780;
563.1000;0.5682;0.9662;
563.4000;0.5690;0.9591;
563.7000;0.5698;0.9662;
564.0000;0.5771;0.9946;
564.3000;0.5690;0.9828;
564.6000;0.5739;0.9923;
564.9000;0.5690;0.9757;
565.2000;0.5698;0.9733;
565.5000;0.5722;0.9780;
565.8000;0.5690;0.9804;
566.1000;0.5706;0.9804;
566.4000;0.5698;0.9828;
566.7000;0.5706;0.9828;
567.0000;0.5690;0.9946;
567.3000;0.5698;0.9899;
567.6000;0.5706;0.9875;
567.9000;0.5706;0.9899;
568.2000;0.5674;0.9852;
568.5000;0.5690;0.9923;
568.8000;0.5714;0.9923;
569.1000;0.5690;0.9923;
569.4000;0.5706;0.9946;
569.7000;0.5690;0.9923;
570.0000;0.5690;0.9923;
570.3000;0.5682;0.9899;
570.6000;0.5706;0.9970;
570.9000;0.5698;1.0065;
571.2000;0.5722;1.0159;
571.5000;0.5682;1.0112;
571.8000;0.5690;1.0136;
572.1000;0.5698;1.0041;
572.4000;0.5706;1.0112;
572.7000;0.5731;1.0183;
573.0000;0.5706;1.0088;
573.3000;0.5690;1.0017;
573.6000;0.5698;1.0088;
573.9000;0.5771;1.0207;
574.2000;0.5714;1.0065;
574.5000;0.5698;0.9946;
574.8000;0.5690;0.9923;
575.1000;0.5779;1.0017;
575.4000;0.5755;0.9970;
575.7000;0.5779;1.0041;
576.0000;0.5714;0.9875;
576.3000;0.5722;0.9946;
576.6000;0.5714;0.9923;
576.9000;0.5698;0.9899;
577.2000;0.5706;0.9875;
577.5000;0.5690;0.9804;
577.8000;0.5698;0.9875;
578.1000;0.5739;0.9946;
578.4000;0.5706;0.9828;
578.7000;0.5706;0.9946;
579.0000;0.5714;0.9852;
579.3000;0.5714;0.9804;
579.6000;0.5706;0.9828;
579.9000;0.5690;0.9804;
580.2000;0.5682;0.9828;
580.5000;0.5714;0.9899;
580.8000;0.5706;1.0017;
581.1000;0.5706;0.9994;
581.4000;0.5698;1.0017;
581.7000;0.5714;1.0065;
582.0000;0.5698;0.9899;
582.3000;0.5706;0.9923;
582.6000;0.5722;1.0041;
582.9000;0.5706;1.0017;
583.2000;0.5706;0.9946;
583.5000;0.5706;1.0017;
583.8000;0.5722;1.0065;
584.1000;0.5649;0.9899;
584.4000;0.5722;0.9970;
584.7000;0.5722;0.9899;
585.0000;0.5690;0.9804;
585.3000;0.5690;0.9923;
585.6000;0.5698;1.0041;
585.9000;0.5690;1.0017;
586.2000;0.5706;0.9970;
586.5000;0.5706;1.0041;
586.8000;0.5698;0.9994;
587.1000;0.5722;0.9994;
587.4000;0.5714;0.9946;
587.7000;0.5682;0.9923;
588.0000;0.5698;0.9946;
588.3000;0.5690;0.9970;
588.6000;0.5690;0.9946;
588.9000;0.5714;0.9994;
589.2000;0.5698;1.0017;
589.5000;0.5690;1.0017;
589.8000;0.5739;1.0112;
590.1000;0.5722;0.9994;
590.4000;0.5690;0.9899;
590.7000;0.5690;0.9899;
591.0000;0.5698;0.9852;
591.3000;0.5698;0.9780;
591.6000;0.5665;0.9780;
591.9000;0.5698;0.9923;
592.2000;0.5698;0.9828;
592.5000;0.5690;0.9828;
592.8000;0.5706;0.9899;
593.1000;0.5674;0.9899;
593.4000;0.5698;0.9994;
593.7000;0.5706;1.0017;
594.0000;0.5714;1.0041;
594.3000;0.5706;1.0017;
594.6000;0.5779;1.0183;
594.9000;0.5714;1.0088;
595.2000;0.5698;1.0136;
595.5000;0.5747;1.0207;
595.8000;0.5804;1.0301;
596.1000;0.5706;0.9946;
596.4000;0.5690;0.9852;
596.7000;0.5755;1.0017;
597.0000;0.5722;0.9970;
597.3000;0.5706;0.9946;
597.6000;0.5698;0.9994;
597.9000;0.5690;1.0065;
598.2000;0.5665;1.0065;
598.5000;0.5788;1.0372;
598.8000;0.5706;1.0183;
599.1000;0.5690;1.0112;
599.4000;0.5706;1.0112;
599.7000;0.5698;1.0041;
600.0000;0.5706;0.9970;
600.3000;0.5706;0.9852;
600.6000;0.5747;0.9828;
600.9000;0.5706;0.9686;
601.2000;0.5690;0.9567;
601.5000;0.5649;0.9449;
601.8000;0.5649;0.9402;
602.1000;0.5608;0.9331;
602.4000;0.5584;0.9236;
602.7000;0.5535;0.9188;
603.0000;0.5486;0.9094;
603.3000;0.5470;0.8952;
603.6000;0.5470;0.9023;
603.9000;0.5462;0.9094;
604.2000;0.5405;0.8999;
604.5000;0.5405;0.8975;
604.8000;0.5511;0.9165;
605.1000;0.5381;0.8928;
605.4000;0.5340;0.8904;
605.7000;0.5324;0.8738;
606.0000;0.5307;0.8738;
606.3000;0.5291;0.8715;
606.6000;0.5275;0.8691;
606.9000;0.5283;0.8596;
607.2000;0.5250;0.8525;
607.5000;0.5218;0.8431;
607.8000;0.5210;0.8502;
608.1000;0.5185;0.8478;
608.4000;0.5218;0.8596;
608.7000;0.5161;0.8549;
609.0000;0.5153;0.8549;
609.3000;0.5136;0.8502;
609.6000;0.5144;0.8454;
609.9000;0.5136;0.8502;
610.2000;0.5055;0.8407;
610.5000;0.5104;0.8596;
610.8000;0.5104;0.8620;
611.1000;0.5112;0.8644;
611.4000;0.4974;0.8383;
611.7000;0.5079;0.8549;
612.0000;0.5047;0.8525;
612.3000;0.5128;0.8810;
612.6000;0.5055;0.8644;
612.9000;0.5104;0.8644;
613.2000;0.5039;0.8502;
613.5000;0.5022;0.8407;
613.8000;0.5014;0.8431;
614.1000;0.5014;0.8454;
614.4000;0.4998;0.8454;
614.7000;0.5006;0.8407;
615.0000;0.4990;0.8431;
615.3000;0.4990;0.8478;
615.6000;0.4990;0.8502;
615.9000;0.4957;0.8407;
616.2000;0.4965;0.8502;
616.5000;0.4974;0.8596;
616.8000;0.4949;0.8573;
617.1000;0.4941;0.8620;
617.4000;0.4925;0.8620;
617.7000;0.4892;0.8549;
618.0000;0.4884;0.8549;
618.3000;0.4900;0.8620;
618.6000;0.4892;0.8596;
618.9000;0.4860;0.8525;
619.2000;0.4835;0.8502;
619.5000;0.4860;0.8525;
619.8000;0.4851;0.8549;
620.1000;0.4884;0.8573;
620.4000;0.4835;0.8431;
620.7000;0.4729;0.8170;
621.0000;0.4762;0.8360;
621.3000;0.4860;0.8596;
621.6000;0.4827;0.8549;
621.9000;0.4827;0.8644;
622.2000;0.4803;0.8573;
622.5000;0.4803;0.8596;
622.8000;0.4811;0.8644;
623.1000;0.4819;0.8667;
623.4000;0.4803;0.8549;
623.7000;0.4762;0.8407;
624.0000;0.4811;0.8549;
624.3000;0.4754;0.8478;
624.6000;0.4770;0.8502;
624.9000;0.4786;0.8525;
625.2000;0.4754;0.8478;
625.5000;0.4746;0.8549;
625.8000;0.4754;0.8549;
626.1000;0.4729;0.8573;
626.4000;0.4737;0.8573;
626.7000;0.4721;0.8431;
627.0000;0.4721;0.8407;
627.3000;0.4705;0.8407;
627.6000;0.4713;0.8525;
627.9000;0.4729;0.8620;
628.2000;0.4729;0.8644;
628.5000;0.4705;0.8573;
628.8000;0.4664;0.8525;
629.1000;0.4656;0.8525;
629.4000;0.4664;0.8525;
629.7000;0.4591;0.8217;
630.0000;0.4664;0.8407;
630.3000;0.4672;0.8360;
630.6000;0.4632;0.8312;
630.9000;0.4656;0.8383;
631.2000;0.4672;0.8312;
631.5000;0.4624;0.8312;
631.8000;0.4640;0.8289;
632.1000;0.4632;0.8241;
632.4000;0.4591;0.8146;
632.7000;0.4591;0.8194;
633.0000;0.4648;0.8241;
633.3000;0.4615;0.8123;
633.6000;0.4599;0.8028;
633.9000;0.4599;0.8170;
634.2000;0.4591;0.8217;
634.5000;0.4583;0.8170;
634.8000;0.4607;0.8241;
635.1000;0.4607;0.8312;
635.4000;0.4534;0.8217;
635.7000;0.4575;0.8407;
636.0000;0.4550;0.8241;
636.3000;0.4583;0.8241;
636.6000;0.4550;0.8241;
636.9000;0.4583;0.8289;
637.2000;0.4550;0.8241;
637.5000;0.4558;0.8289;
637.8000;0.4542;0.8336;
638.1000;0.4542;0.8360;
638.4000;0.4526;0.8360;
638.7000;0.4542;0.8336;
639.0000;0.4550;0.8312;
639.3000;0.4534;0.8383;
639.6000;0.4526;0.8241;
639.9000;0.4542;0.8146;
640.2000;0.4510;0.8075;
640.5000;0.4501;0.8075;
640.8000;0.4510;0.8194;
641.1000;0.4485;0.8099;
641.4000;0.4477;0.7957;
641.7000;0.4493;0.8004;
642.0000;0.4477;0.8004;
642.3000;0.4453;0.8052;
642.6000;0.4567;0.8407;
642.9000;0.4477;0.8170;
643.2000;0.4461;0.8217;
643.5000;0.4469;0.8336;
643.8000;0.4444;0.8217;
644.1000;0.4461;0.8217;
644.4000;0.4477;0.8241;
644.7000;0.4436;0.8123;
645.0000;0.4453;0.8194;
645.3000;0.4444;0.8217;
645.6000;0.4453;0.8217;
645.9000;0.4404;0.8052;
646.2000;0.4444;0.8146;
646.5000;0.4420;0.8099;
646.8000;0.4453;0.8241;
647.1000;0.4444;0.8289;
647.4000;0.4469;0.8336;
647.7000;0.4444;0.8217;
648.0000;0.4428;0.8146;
648.3000;0.4412;0.8146;
648.6000;0.4420;0.8194;
648.9000;0.4404;0.8265;
649.2000;0.4404;0.8289;
649.5000;0.4412;0.8265;
649.8000;0.4469;0.8478;
650.1000;0.4428;0.8407;
650.4000;0.4339;0.8217;
650.7000;0.4420;0.8265;
651.0000;0.4444;0.8312;
651.3000;0.4330;0.8099;
651.6000;0.4420;0.8360;
651.9000;0.4412;0.8383;
652.2000;0.4387;0.8265;
652.5000;0.4347;0.8194;
652.8000;0.4347;0.8170;
653.1000;0.4322;0.8052;
653.4000;0.4387;0.8241;
653.7000;0.4396;0.8383;
654.0000;0.4371;0.8360;
654.3000;0.4330;0.8217;
654.6000;0.4404;0.8360;
654.9000;0.4298;0.8099;
655.2000;0.4371;0.8289;
655.5000;0.4347;0.8289;
655.8000;0.4355;0.8289;
656.1000;0.4412;0.8360;
656.4000;0.4322;0.8099;
656.7000;0.4314;0.8194;
657.0000;0.4322;0.8289;
657.3000;0.4306;0.8194;
657.6000;0.4306;0.8170;
657.9000;0.4330;0.8170;
658.2000;0.4314;0.8217;
658.5000;0.4314;0.8241;
658.8000;0.4306;0.8146;
659.1000;0.4314;0.8075;
659.4000;0.4298;0.8004;
659.7000;0.4314;0.8028;
660.0000;0.4282;0.8028;
660.3000;0.4298;0.8123;
660.6000;0.4282;0.8194;
660.9000;0.4176;0.7886;
661.2000;0.4265;0.8146;
661.5000;0.4265;0.8099;
661.8000;0.4282;0.8123;
662.1000;0.4233;0.8146;
662.4000;0.4265;0.8265;
662.7000;0.4249;0.8289;
663.0000;0.4274;0.8289;
663.3000;0.4274;0.8241;
663.6000;0.4282;0.8217;
663.9000;0.4225;0.8123;
664.2000;0.4249;0.8170;
664.5000;0.4274;0.8146;
664.8000;0.4282;0.8217;
665.1000;0.4257;0.8217;
665.4000;0.4249;0.8146;
665.7000;0.4249;0.8123;
666.0000;0.4249;0.8075;
666.3000;0.4233;0.8075;
666.6000;0.4208;0.7957;
666.9000;0.4233;0.8028;
667.2000;0.4249;0.8170;
667.5000;0.4225;0.8170;
667.8000;0.4241;0.8170;
668.1000;0.4314;0.8360;
668.4000;0.4274;0.8241;
668.7000;0.4257;0.8241;
669.0000;0.4265;0.8407;
669.3000;0.4233;0.8336;
669.6000;0.4282;0.8478;
669.9000;0.4200;0.8217;
670.2000;0.4192;0.8289;
670.5000;0.4225;0.8407;
670.8000;0.4208;0.8289;
671.1000;0.4241;0.8383;
671.4000;0.4208;0.8312;
671.7000;0.4200;0.8289;
672.0000;0.4192;0.8289;
672.3000;0.4208;0.8360;
672.6000;0.4208;0.8265;
672.9000;0.4192;0.8360;
673.2000;0.4200;0.8336;
673.5000;0.4208;0.8289;
673.8000;0.4192;0.8265;
674.1000;0.4192;0.8360;
674.4000;0.4168;0.8289;
674.7000;0.4192;0.8360;
675.0000;0.4208;0.8478;
675.3000;0.4208;0.8525;
675.6000;0.4192;0.8573;
675.9000;0.4176;0.8407;
676.2000;0.4168;0.8312;
676.5000;0.4176;0.8360;
676.8000;0.4176;0.8312;
677.1000;0.4176;0.8360;
677.4000;0.4176;0.8336;
677.7000;0.4192;0.8265;
678.0000;0.4176;0.8265;
678.3000;0.4176;0.8360;
678.6000;0.4176;0.8360;
678.9000;0.4176;0.8407;
679.2000;0.4160;0.8383;
679.5000;0.4151;0.8336;
679.8000;0.4160;0.8217;
680.1000;0.4151;0.8194;
680.4000;0.4160;0.8312;
680.7000;0.4143;0.8217;
681.0000;0.4119;0.8099;
681.3000;0.4119;0.8075;
681.6000;0.4135;0.8123;
681.9000;0.4151;0.8241;
682.2000;0.4119;0.8123;
682.5000;0.4135;0.8194;
682.8000;0.4160;0.8265;
683.1000;0.4143;0.8146;
683.4000;0.4151;0.8194;
683.7000;0.4160;0.8146;
684.0000;0.4103;0.8075;
684.3000;0.4119;0.8099;
684.6000;0.4127;0.8146;
684.9000;0.4143;0.8146;
685.2000;0.4135;0.8170;
685.5000;0.4127;0.8146;
685.8000;0.4160;0.8312;
686.1000;0.4078;0.8028;
686.4000;0.4127;0.8217;
686.7000;0.4160;0.8312;
687.0000;0.4094;0.8217;
687.3000;0.4111;0.8265;
687.6000;0.4127;0.8360;
687.9000;0.4103;0.8383;
688.2000;0.4111;0.8360;
688.5000;0.4119;0.8336;
688.8000;0.4111;0.8360;
689.1000;0.4119;0.8383;
689.4000;0.4094;0.8312;
689.7000;0.4094;0.8241;
690.0000;0.4046;0.8146;
690.3000;0.4119;0.8312;
690.6000;0.4103;0.8241;
690.9000;0.4086;0.8170;
691.2000;0.4184;0.8454;
691.5000;0.4103;0.8241;
691.8000;0.4086;0.8194;
692.1000;0.4103;0.8241;
692.4000;0.4086;0.8241;
692.7000;0.4078;0.8241;
693.0000;0.4070;0.8217;
693.3000;0.4078;0.8312;
693.6000;0.4078;0.8454;
693.9000;0.4086;0.8549;
694.2000;0.4078;0.8596;
694.5000;0.4094;0.8596;
694.8000;0.4070;0.8478;
695.1000;0.4054;0.8336;
695.4000;0.4054;0.8336;
695.7000;0.4046;0.8383;
696.0000;0.4078;0.8454;
696.3000;0.4070;0.8407;
696.6000;0.4086;0.8454;
696.9000;0.4094;0.8431;
697.2000;0.4054;0.8241;
697.5000;0.4070;0.8336;
697.8000;0.4070;0.8336;
698.1000;0.4062;0.8336;
698.4000;0.4070;0.8383;
698.7000;0.4062;0.8336;
699.0000;0.4070;0.8407;
699.3000;0.4078;0.8431;
699.6000;0.4070;0.8336;
699.9000;0.4054;0.8265;
700.2000;0.4062;0.8312;
700.5000;0.4078;0.8289;
700.8000;0.4029;0.8146;
701.1000;0.4054;0.8241;
701.4000;0.4054;0.8265;
701.7000;0.4046;0.8336;
702.0000;0.4037;0.8289;
702.3000;0.4029;0.8312;
702.6000;0.4037;0.8241;
702.9000;0.3940;0.7981;
703.2000;0.4046;0.8217;
703.5000;0.4054;0.8241;
703.8000;0.4046;0.8289;
704.1000;0.4054;0.8312;
704.4000;0.4046;0.8360;
704.7000;0.4021;0.8265;
705.0000;0.4037;0.8289;
705.3000;0.4037;0.8289;
705.6000;0.4054;0.8312;
705.9000;0.4054;0.8217;
706.2000;0.4062;0.8170;
706.5000;0.4046;0.8241;
706.8000;0.4062;0.8265;
707.1000;0.4029;0.8289;
707.4000;0.4037;0.8289;
707.7000;0.4029;0.8241;
708.0000;0.4029;0.8217;
708.3000;0.4046;0.8289;
708.6000;0.4005;0.8289;
708.9000;0.4029;0.8289;
709.2000;0.4062;0.8454;
709.5000;0.4037;0.8525;
709.8000;0.4046;0.8478;
710.1000;0.3972;0.8289;
710.4000;0.4029;0.8431;
710.7000;0.4070;0.8502;
711.0000;0.3972;0.8170;
711.3000;0.4005;0.8265;
711.6000;0.4029;0.8217;
711.9000;0.4021;0.8146;
712.2000;0.3989;0.8099;
712.5000;0.4013;0.8146;
712.8000;0.3989;0.8217;
713.1000;0.3997;0.8312;
713.4000;0.4029;0.8431;
713.7000;0.4021;0.8454;
714.0000;0.3997;0.8312;
714.3000;0.4029;0.8360;
714.6000;0.3948;0.8217;
714.9000;0.3915;0.8123;
715.2000;0.3989;0.8241;
715.5000;0.3980;0.8194;
715.8000;0.4005;0.8241;
716.1000;0.4005;0.8146;
716.4000;0.4013;0.8194;
716.7000;0.4005;0.8241;
717.0000;0.4005;0.8312;
717.3000;0.4029;0.8360;
717.6000;0.4005;0.8360;
717.9000;0.3989;0.8289;
718.2000;0.3997;0.8312;
718.5000;0.3997;0.8407;
718.8000;0.3989;0.8407;
719.1000;0.3923;0.8170;
719.4000;0.4103;0.8596;
719.7000;0.3997;0.8336;
720.0000;0.4013;0.8312;
720.3000;0.3940;0.8170;
720.6000;0.3989;0.8407;
720.9000;0.3899;0.8265;
721.2000;0.3964;0.8407;
721.5000;0.4046;0.8691;
721.8000;0.3907;0.8360;
722.1000;0.3997;0.8573;
722.4000;0.3989;0.8549;
722.7000;0.3997;0.8407;
723.0000;0.3964;0.8383;
723.3000;0.3980;0.8431;
723.6000;0.3964;0.8312;
723.9000;0.3997;0.8431;
724.2000;0.3972;0.8289;
724.5000;0.3980;0.8312;
724.8000;0.4013;0.8407;
725.1000;0.3980;0.8289;
725.4000;0.3972;0.8289;
725.7000;0.4021;0.8454;
726.0000;0.3972;0.8336;
726.3000;0.3989;0.8336;
726.6000;0.3891;0.8170;
726.9000;0.3989;0.8478;
727.2000;0.3980;0.8525;
727.5000;0.3948;0.8431;
727.8000;0.3972;0.8525;
728.1000;0.3948;0.8431;
728.4000;0.3964;0.8502;
728.7000;0.3980;0.8620;
729.0000;0.3972;0.8525;
729.3000;0.3980;0.8525;
729.6000;0.3980;0.8502;
729.9000;0.3964;0.8478;
730.2000;0.3940;0.8265;
730.5000;0.3956;0.8289;
730.8000;0.3956;0.8336;
731.1000;0.3956;0.8336;
731.4000;0.3980;0.8383;
731.7000;0.3899;0.8217;
732.0000;0.3989;0.8431;
732.3000;0.3956;0.8383;
732.6000;0.3980;0.8383;
732.9000;0.3972;0.8360;
733.2000;0.3956;0.8241;
733.5000;0.3948;0.8217;
733.8000;0.3980;0.8289;
734.1000;0.3964;0.8265;
734.4000;0.3948;0.8217;
734.7000;0.3964;0.8265;
735.0000;0.4013;0.8454;
735.3000;0.3964;0.8360;
735.6000;0.3956;0.8336;
735.9000;0.3948;0.8383;
736.2000;0.3964;0.8525;
736.5000;0.3940;0.8431;
736.8000;0.3980;0.8525;
737.1000;0.3932;0.8454;
737.4000;0.3956;0.8454;
737.7000;0.3948;0.8431;
738.0000;0.3940;0.8360;
738.3000;0.3923;0.8289;
738.6000;0.3923;0.8289;
738.9000;0.3989;0.8431;
739.2000;0.3907;0.8146;
739.5000;0.3948;0.8265;
739.8000;0.3956;0.8265;
740.1000;0.3932;0.8217;
740.4000;0.3932;0.8289;
740.7000;0.4013;0.8478;
741.0000;0.3932;0.8217;
741.3000;0.3956;0.8336;
741.6000;0.3923;0.8312;
741.9000;0.3932;0.8265;
742.2000;0.3915;0.8241;
742.5000;0.3932;0.8241;
742.8000;0.3932;0.8241;
743.1000;0.3989;0.8312;
743.4000;0.3940;0.8289;
743.7000;0.3956;0.8241;
744.0000;0.3956;0.8217;
744.3000;0.3923;0.8170;
744.6000;0.3989;0.8312;
744.9000;0.3923;0.8217;
745.2000;0.3956;0.8265;
745.5000;0.3980;0.8360;
745.8000;0.3940;0.8336;
746.1000;0.3932;0.8312;
746.4000;0.3923;0.8289;
746.7000;0.3948;0.8265;
747.0000;0.3907;0.8146;
747.3000;0.3923;0.8194;
747.6000;0.3923;0.8217;
747.9000;0.3932;0.8217;
748.2000;0.3907;0.8194;
748.5000;0.3923;0.8241;
748.8000;0.3915;0.8241;
749.1000;0.3907;0.8194;
749.4000;0.3923;0.8194;
749.7000;0.3801;0.7886;
750.0000;0.3932;0.8265;
750.3000;0.3932;0.8241;
750.6000;0.3915;0.8146;
750.9000;0.3940;0.8170;
751.2000;0.3923;0.8146;
751.5000;0.3940;0.8123;
751.8000;0.3915;0.8052;
752.1000;0.3956;0.8146;
752.4000;0.3915;0.8146;
752.7000;0.3907;0.8099;
753.0000;0.3948;0.8217;
753.3000;0.3907;0.8146;
753.6000;0.3940;0.8241;
753.9000;0.3907;0.8099;
754.2000;0.3948;0.8289;
754.5000;0.3923;0.8265;
754.8000;0.3915;0.8241;
755.1000;0.3923;0.8241;
755.4000;0.3923;0.8265;
755.7000;0.3940;0.8312;
756.0000;0.3932;0.8217;
756.3000;0.3940;0.8217;
756.6000;0.3948;0.8241;
756.9000;0.3899;0.8099;
757.2000;0.3907;0.8241;
757.5000;0.3883;0.8194;
757.8000;0.3940;0.8312;
758.1000;0.3891;0.8194;
758.4000;0.3891;0.8265;
758.7000;0.3915;0.8431;
759.0000;0.3842;0.8194;
759.3000;0.3948;0.8502;
759.6000;0.3915;0.8407;
759.9000;0.3915;0.8383;
760.2000;0.3883;0.8241;
760.5000;0.3899;0.8265;
760.8000;0.3883;0.8217;
761.1000;0.3891;0.8146;
761.4000;0.3907;0.8241;
761.7000;0.3826;0.8004;
762.0000;0.3915;0.8241;
762.3000;0.3899;0.8194;
762.6000;0.3883;0.8241;
762.9000;0.3858;0.8217;
763.2000;0.3883;0.8217;
763.5000;0.3907;0.8312;
763.8000;0.3883;0.8360;
764.1000;0.3875;0.8336;
764.4000;0.3899;0.8525;
764.7000;0.3891;0.8478;
765.0000;0.3899;0.8407;
765.3000;0.3875;0.8312;
765.6000;0.3932;0.8431;
765.9000;0.3899;0.8454;
766.2000;0.3989;0.8667;
766.5000;0.3891;0.8478;
766.8000;0.3891;0.8478;
767.1000;0.3948;0.8644;
767.4000;0.3899;0.8478;
767.7000;0.3899;0.8454;
768.0000;0.3923;0.8502;
768.3000;0.3834;0.8265;
768.6000;0.3891;0.8431;
768.9000;0.3883;0.8383;
769.2000;0.3891;0.8383;
769.5000;0.3891;0.8383;
769.8000;0.3883;0.8360;
770.1000;0.3883;0.8360;
770.4000;0.3875;0.8383;
770.7000;0.3891;0.8431;
771.0000;0.3907;0.8383;
771.3000;0.3899;0.8360;
771.6000;0.3915;0.8360;
771.9000;0.3891;0.8312;
772.2000;0.3899;0.8360;
772.5000;0.3867;0.8336;
772.8000;0.3850;0.8241;
773.1000;0.3867;0.8336;
773.4000;0.3875;0.8360;
773.7000;0.3883;0.8360;
774.0000;0.3891;0.8383;
774.3000;0.3875;0.8241;
774.6000;0.3883;0.8146;
774.9000;0.3867;0.8170;
775.2000;0.3858;0.8241;
775.5000;0.3867;0.8336;
775.8000;0.3883;0.8383;
776.1000;0.3867;0.8383;
776.4000;0.3883;0.8360;
776.7000;0.3875;0.8241;
777.0000;0.3899;0.8289;
777.3000;0.3891;0.8360;
777.6000;0.3858;0.8312;
777.9000;0.3858;0.8336;
778.2000;0.3842;0.8360;
778.5000;0.3867;0.8431;
778.8000;0.3850;0.8454;
779.1000;0.3858;0.8431;
779.4000;0.3842;0.8383;
779.7000;0.3867;0.8383;
780.0000;0.3801;0.8217;
780.3000;0.3834;0.8312;
780.6000;0.3875;0.8407;
780.9000;0.3826;0.8312;
781.2000;0.3883;0.8360;
781.5000;0.3883;0.8383;
781.8000;0.3867;0.8360;
782.1000;0.3891;0.8360;
782.4000;0.3891;0.8431;
782.7000;0.3842;0.8265;
783.0000;0.3875;0.8360;
783.3000;0.3826;0.8265;
783.6000;0.3891;0.8454;
783.9000;0.3883;0.8502;
784.2000;0.3842;0.8407;
784.5000;0.3850;0.8407;
784.8000;0.3818;0.8312;
785.1000;0.3875;0.8454;
785.4000;0.3948;0.8620;
785.7000;0.3842;0.8289;
786.0000;0.3883;0.8454;
786.3000;0.3867;0.8360;
786.6000;0.3867;0.8265;
786.9000;0.3867;0.8360;
787.2000;0.3915;0.8454;
787.5000;0.3842;0.8383;
787.8000;0.3858;0.8454;
788.1000;0.3883;0.8454;
788.4000;0.3899;0.8502;
788.7000;0.3858;0.8549;
789.0000;0.3875;0.8525;
789.3000;0.3891;0.8478;
789.6000;0.3875;0.8478;
789.9000;0.3875;0.8478;
790.2000;0.3875;0.8478;
790.5000;0.3858;0.8454;
790.8000;0.3867;0.8454;
791.1000;0.3875;0.8431;
791.4000;0.3850;0.8312;
791.7000;0.3867;0.8360;
792.0000;0.3842;0.8289;
792.3000;0.3834;0.8360;
792.6000;0.3883;0.8454;
792.9000;0.3883;0.8454;
793.2000;0.3858;0.8383;
793.5000;0.3858;0.8383;
793.8000;0.3858;0.8360;
794.1000;0.3842;0.8336;
794.4000;0.3850;0.8336;
794.7000;0.3850;0.8431;
795.0000;0.3858;0.8431;
795.3000;0.3867;0.8502;
795.6000;0.3867;0.8454;
795.9000;0.3858;0.8454;
796.2000;0.3858;0.8336;
796.5000;0.3850;0.8289;
796.8000;0.3867;0.8265;
797.1000;0.3858;0.8217;
797.4000;0.3842;0.8170;
797.7000;0.3858;0.8170;
798.0000;0.3883;0.8194;
798.3000;0.3834;0.8241;
798.6000;0.3858;0.8241;
798.9000;0.3842;0.8265;
799.2000;0.3867;0.8336;
799.5000;0.3858;0.8312;
799.8000;0.3858;0.8312;
800.1000;0.3858;0.8360;
800.4000;0.3858;0.8383;
800.7000;0.3891;0.8383;
801.0000;0.3867;0.8407;
801.3000;0.3867;0.8312;
801.6000;0.3850;0.8312;
801.9000;0.3883;0.8431;
802.2000;0.3834;0.8312;
802.5000;0.3891;0.8431;
802.8000;0.3858;0.8454;
803.1000;0.3850;0.8478;
803.4000;0.3826;0.8383;
803.7000;0.3793;0.8194;
804.0000;0.3842;0.8336;
804.3000;0.3867;0.8336;
804.6000;0.3834;0.8194;
804.9000;0.3875;0.8194;
805.2000;0.3867;0.8217;
805.5000;0.3875;0.8336;
805.8000;0.3850;0.8289;
806.1000;0.3915;0.8478;
806.4000;0.3850;0.8360;
806.7000;0.3850;0.8336;
807.0000;0.3858;0.8336;
807.3000;0.3826;0.8194;
807.6000;0.3850;0.8336;
807.9000;0.3875;0.8407;
808.2000;0.3834;0.8360;
808.5000;0.3834;0.8336;
808.8000;0.3842;0.8383;
809.1000;0.3858;0.8431;
809.4000;0.3948;0.8667;
809.7000;0.3842;0.8360;
810.0000;0.3956;0.8644;
810.3000;0.3842;0.8265;
810.6000;0.3850;0.8383;
810.9000;0.3842;0.8431;
811.2000;0.3834;0.8383;
811.5000;0.3850;0.8336;
811.8000;0.3858;0.8312;
812.1000;0.3850;0.8289;
812.4000;0.3826;0.8217;
812.7000;0.3818;0.8146;
813.0000;0.3867;0.8336;
813.3000;0.3867;0.8241;
813.6000;0.3842;0.8217;
813.9000;0.3923;0.8360;
814.2000;0.3850;0.8194;
814.5000;0.3842;0.8289;
814.8000;0.3850;0.8360;
815.1000;0.3818;0.8289;
815.4000;0.3834;0.8265;
815.7000;0.3883;0.8336;
816.0000;0.3826;0.8217;
816.3000;0.3850;0.8241;
816.6000;0.3818;0.8170;
816.9000;0.3842;0.8194;
817.2000;0.3777;0.8194;
817.5000;0.3834;0.8360;
817.8000;0.3858;0.8360;
818.1000;0.3858;0.8289;
818.4000;0.3858;0.8265;
818.7000;0.3834;0.8241;
819.0000;0.3867;0.8289;
819.3000;0.3858;0.8217;
819.6000;0.3769;0.8028;
819.9000;0.3834;0.8146;
820.2000;0.3801;0.8099;
820.5000;0.3826;0.8194;
820.8000;0.3834;0.8146;
821.1000;0.3818;0.8217;
821.4000;0.3826;0.8336;
821.7000;0.3948;0.8691;
822.0000;0.3826;0.8360;
822.3000;0.3834;0.8360;
822.6000;0.3850;0.8336;
822.9000;0.3826;0.8241;
823.2000;0.3826;0.8241;
823.5000;0.3834;0.8336;
823.8000;0.3818;0.8312;
824.1000;0.3801;0.8312;
824.4000;0.3850;0.8431;
824.7000;0.3867;0.8454;
825.0000;0.3850;0.8336;
825.3000;0.3818;0.8360;
825.6000;0.3810;0.8431;
825.9000;0.3842;0.8502;
826.2000;0.3834;0.8431;
826.5000;0.3858;0.8478;
826.8000;0.3834;0.8478;
827.1000;0.3793;0.8431;
827.4000;0.3891;0.8667;
827.7000;0.3793;0.8549;
828.0000;0.3834;0.8667;
828.3000;0.3842;0.8738;
828.6000;0.3818;0.8762;
828.9000;0.3785;0.8596;
829.2000;0.3801;0.8407;
829.5000;0.3842;0.8549;
829.8000;0.3826;0.8620;
830.1000;0.3753;0.8431;
830.4000;0.3834;0.8644;
830.7000;0.3842;0.8620;
831.0000;0.3826;0.8667;
831.3000;0.3850;0.8691;
831.6000;0.3818;0.8478;
831.9000;0.3769;0.8336;
832.2000;0.3801;0.8454;
832.5000;0.3818;0.8478;
832.8000;0.3818;0.8431;
833.1000;0.3818;0.8407;
833.4000;0.3842;0.8454;
833.7000;0.3842;0.8478;
834.0000;0.3826;0.8407;
834.3000;0.3810;0.8383;
834.6000;0.3818;0.8360;
834.9000;0.3818;0.8383;
835.2000;0.3842;0.8360;
835.5000;0.3810;0.8289;
835.8000;0.3834;0.8289;
836.1000;0.3858;0.8289;
836.4000;0.3826;0.8170;
836.7000;0.3826;0.8099;
837.0000;0.3818;0.8099;
837.3000;0.3818;0.8170;
837.6000;0.3834;0.8217;
837.9000;0.3818;0.8146;
838.2000;0.3858;0.8265;
838.5000;0.3842;0.8170;
838.8000;0.3818;0.8194;
839.1000;0.3736;0.8075;
839.4000;0.3818;0.8265;
839.7000;0.3810;0.8312;
840.0000;0.3834;0.8336;
840.3000;0.3834;0.8360;
840.6000;0.3826;0.8336;
840.9000;0.3818;0.8289;
841.2000;0.3753;0.8004;
841.5000;0.3801;0.8099;
841.8000;0.3810;0.8099;
842.1000;0.3810;0.8170;
842.4000;0.3810;0.8170;
842.7000;0.3826;0.8289;
843.0000;0.3818;0.8289;
843.3000;0.3818;0.8289;
843.6000;0.3818;0.8241;
843.9000;0.3834;0.8241;
844.2000;0.3826;0.8194;
844.5000;0.3810;0.8146;
844.8000;0.3826;0.8241;
845.1000;0.3801;0.8241;
845.4000;0.3834;0.8383;
845.7000;0.3834;0.8431;
846.0000;0.3818;0.8454;
846.3000;0.3842;0.8478;
846.6000;0.3818;0.8454;
846.9000;0.3818;0.8407;
847.2000;0.3818;0.8241;
847.5000;0.3842;0.8217;
847.8000;0.3834;0.8194;
848.1000;0.3834;0.8194;
848.4000;0.3810;0.8170;
848.7000;0.3753;0.8099;
849.0000;0.3810;0.8217;
849.3000;0.3826;0.8170;
849.6000;0.3818;0.8265;
849.9000;0.3818;0.8312;
850.2000;0.3810;0.8289;
850.5000;0.3810;0.8312;
850.8000;0.3777;0.8312;
851.1000;0.3842;0.8478;
851.4000;0.3810;0.8336;
851.7000;0.3801;0.8336;
852.0000;0.3801;0.8407;
852.3000;0.3818;0.8336;
852.6000;0.3826;0.8289;
852.9000;0.3915;0.8573;
853.2000;0.3793;0.8217;
853.5000;0.3834;0.8265;
853.8000;0.3818;0.8217;
854.1000;0.3826;0.8146;
854.4000;0.3858;0.8241;
854.7000;0.3793;0.8052;
855.0000;0.3777;0.7933;
855.3000;0.3810;0.8052;
855.6000;0.3818;0.8075;
855.9000;0.3793;0.8052;
856.2000;0.3793;0.8028;
856.5000;0.3810;0.8052;
856.8000;0.3810;0.7981;
857.1000;0.3777;0.7933;
857.4000;0.3810;0.8028;
857.7000;0.3818;0.8028;
858.0000;0.3810;0.8028;
858.3000;0.3826;0.8194;
858.6000;0.3810;0.8241;
858.9000;0.3769;0.8146;
859.2000;0.3785;0.8241;
859.5000;0.3858;0.8336;
859.8000;0.3801;0.8241;
860.1000;0.3761;0.8146;
860.4000;0.3793;0.8170;
860.7000;0.3810;0.8146;
861.0000;0.3793;0.8075;
861.3000;0.3842;0.8217;
861.6000;0.3826;0.8146;
861.9000;0.3671;0.7673;
862.2000;0.3875;0.8289;
862.5000;0.3744;0.8075;
862.8000;0.3793;0.8217;
863.1000;0.3769;0.8194;
863.4000;0.3810;0.8312;
863.7000;0.3769;0.8170;
864.0000;0.3785;0.8146;
864.3000;0.3810;0.8217;
864.6000;0.3777;0.8123;
864.9000;0.3826;0.8170;
865.2000;0.3793;0.8146;
865.5000;0.3810;0.8170;
865.8000;0.3793;0.8170;
866.1000;0.3777;0.8265;
866.4000;0.3793;0.8336;
866.7000;0.3761;0.8217;
867.0000;0.3801;0.8289;
867.3000;0.3810;0.8289;
867.6000;0.3793;0.8289;
867.9000;0.3818;0.8336;
868.2000;0.3810;0.8383;
868.5000;0.3810;0.8336;
868.8000;0.3842;0.8383;
869.1000;0.3785;0.8265;
869.4000;0.3793;0.8217;
869.7000;0.3785;0.8146;
870.0000;0.3810;0.8241;
870.3000;0.3793;0.8265;
870.6000;0.3818;0.8265;
870.9000;0.3801;0.8289;
871.2000;0.3801;0.8289;
871.5000;0.3801;0.8431;
871.8000;0.3923;0.8738;
872.1000;0.3777;0.8360;
872.4000;0.3801;0.8454;
872.7000;0.3818;0.8407;
873.0000;0.3801;0.8336;
873.3000;0.3810;0.8383;
873.6000;0.3728;0.8289;
873.9000;0.3785;0.8431;
874.2000;0.3793;0.8478;
874.5000;0.3793;0.8502;
874.8000;0.3810;0.8431;
875.1000;0.3777;0.8289;
875.4000;0.3818;0.8383;
875.7000;0.3858;0.8525;
876.0000;0.3736;0.8289;
876.3000;0.3818;0.8478;
876.6000;0.3785;0.8336;
876.9000;0.3785;0.8383;
877.2000;0.3777;0.8383;
877.5000;0.3834;0.8454;
877.8000;0.3753;0.8194;
878.1000;0.3818;0.8431;
878.4000;0.3834;0.8525;
878.7000;0.3850;0.8573;
879.0000;0.3801;0.8407;
879.3000;0.3850;0.8502;
879.6000;0.3834;0.8478;
879.9000;0.3818;0.8431;
880.2000;0.3769;0.8360;
880.5000;0.3818;0.8525;
880.8000;0.3793;0.8407;
881.1000;0.3753;0.8383;
881.4000;0.3842;0.8596;
881.7000;0.3793;0.8525;
882.0000;0.3793;0.8596;
882.3000;0.3785;0.8478;
882.6000;0.3801;0.8431;
882.9000;0.3810;0.8383;
883.2000;0.3801;0.8383;
883.5000;0.3793;0.8336;
883.8000;0.3793;0.8336;
884.1000;0.3777;0.8336;
884.4000;0.3801;0.8431;
884.7000;0.3785;0.8336;
885.0000;0.3793;0.8289;
885.3000;0.3842;0.8431;
885.6000;0.3801;0.8265;
885.9000;0.3793;0.8336;
886.2000;0.3744;0.8170;
886.5000;0.3801;0.8383;
886.8000;0.3810;0.8478;
887.1000;0.3793;0.8502;
887.4000;0.3801;0.8454;
887.7000;0.3753;0.8217;
888.0000;0.3744;0.8217;
888.3000;0.3785;0.8217;
888.6000;0.3785;0.8194;
888.9000;0.3777;0.8146;
889.2000;0.3777;0.8241;
889.5000;0.3793;0.8265;
889.8000;0.3818;0.8241;
890.1000;0.3801;0.8123;
890.4000;0.3801;0.8099;
890.7000;0.3793;0.8123;
891.0000;0.3826;0.8289;
891.3000;0.3777;0.8312;
891.6000;0.3793;0.8360;
891.9000;0.3793;0.8383;
892.2000;0.3818;0.8407;
892.5000;0.3810;0.8312;
892.8000;0.3858;0.8407;
893.1000;0.3793;0.8336;
893.4000;0.3793;0.8383;
893.7000;0.3793;0.8383;
894.0000;0.3793;0.8312;
894.3000;0.3793;0.8312;
894.6000;0.3785;0.8217;
894.9000;0.3810;0.8289;
895.2000;0.3777;0.8241;
895.5000;0.3793;0.8265;
895.8000;0.3801;0.8336;
896.1000;0.3761;0.8265;
896.4000;0.3801;0.8431;
896.7000;0.3793;0.8431;
897.0000;0.3834;0.8454;
897.3000;0.3785;0.8407;
897.6000;0.3801;0.8336;
897.9000;0.3842;0.8454;
898.2000;0.3696;0.8052;
898.5000;0.3769;0.8146;
898.8000;0.3761;0.8028;
899.1000;0.3753;0.7862;
899.4000;0.3720;0.7696;
899.7000;0.3744;0.7862;
900.0000;0.3785;0.8075;
900.3000;0.3769;0.8028;
900.6000;0.3826;0.8360;
900.9000;0.3769;0.8194;
901.2000;0.3793;0.8170;
901.5000;0.3761;0.8004;
901.8000;0.3785;0.8028;
902.1000;0.3793;0.7981;
902.4000;0.3842;0.8170;
902.7000;0.3785;0.8052;
903.0000;0.3826;0.8170;
903.3000;0.3793;0.8170;
903.6000;0.3801;0.8265;
903.9000;0.3793;0.8265;
904.2000;0.3801;0.8265;
904.5000;0.3793;0.8217;
904.8000;0.3753;0.8170;
905.1000;0.3753;0.8217;
905.4000;0.3801;0.8312;
905.7000;0.3777;0.8217;
906.0000;0.3793;0.8360;
906.3000;0.3785;0.8336;
906.6000;0.3777;0.8265;
906.9000;0.3785;0.8241;
907.2000;0.3769;0.8217;
907.5000;0.3769;0.8194;
907.8000;0.3793;0.8265;
908.1000;0.3785;0.8194;
908.4000;0.3761;0.8194;
908.7000;0.3785;0.8170;
909.0000;0.3826;0.8265;
909.3000;0.3744;0.8075;
909.6000;0.3801;0.8241;
909.9000;0.3793;0.8241;
910.2000;0.3793;0.8194;
910.5000;0.3858;0.8383;
910.8000;0.3744;0.8146;
911.1000;0.3753;0.8123;
911.4000;0.3728;0.8004;
911.7000;0.3769;0.8146;
912.0000;0.3777;0.8123;
912.3000;0.3769;0.8123;
912.6000;0.3785;0.8146;
912.9000;0.3777;0.8099;
913.2000;0.3777;0.8170;
913.5000;0.3769;0.8123;
913.8000;0.3769;0.8099;
914.1000;0.3753;0.8028;
914.4000;0.3793;0.8052;
914.7000;0.3761;0.7981;
915.0000;0.3793;0.8028;
915.3000;0.3769;0.8052;
915.6000;0.3753;0.7981;
915.9000;0.3777;0.7957;
916.2000;0.3785;0.8075;
916.5000;0.3801;0.8146;
916.8000;0.3744;0.8075;
917.1000;0.3744;0.8123;
917.4000;0.3761;0.8194;
917.7000;0.3801;0.8360;
918.0000;0.3777;0.8312;
918.3000;0.3785;0.8336;
918.6000;0.3769;0.8265;
918.9000;0.3777;0.8217;
919.2000;0.3785;0.8170;
919.5000;0.3793;0.8194;
919.8000;0.3785;0.8360;
920.1000;0.3801;0.8431;
920.4000;0.3801;0.8383;
920.7000;0.3761;0.8312;
921.0000;0.3785;0.8241;
921.3000;0.3793;0.8289;
921.6000;0.3801;0.8289;
921.9000;0.3793;0.8265;
922.2000;0.3736;0.8099;
922.5000;0.3801;0.8265;
922.8000;0.3777;0.8170;
923.1000;0.3793;0.8170;
923.4000;0.3753;0.8099;
923.7000;0.3761;0.8170;
924.0000;0.3793;0.8217;
924.3000;0.3785;0.8170;
924.6000;0.3826;0.8360;
924.9000;0.3769;0.8241;
925.2000;0.3785;0.8241;
925.5000;0.3785;0.8265;
925.8000;0.3834;0.8360;
926.1000;0.3785;0.8336;
926.4000;0.3875;0.8478;
926.7000;0.3793;0.8265;
927.0000;0.3761;0.8265;
927.3000;0.3769;0.8217;
927.6000;0.3777;0.8217;
927.9000;0.3785;0.8194;
928.2000;0.3761;0.8170;
928.5000;0.3785;0.8265;
928.8000;0.3753;0.8265;
929.1000;0.3777;0.8241;
929.4000;0.3736;0.8028;
929.7000;0.3891;0.8360;
930.0000;0.3761;0.8004;
930.3000;0.3744;0.7910;
930.6000;0.3769;0.8028;
930.9000;0.3785;0.8123;
931.2000;0.3769;0.8123;
931.5000;0.3793;0.8194;
931.8000;0.3769;0.8146;
932.1000;0.3769;0.8052;
932.4000;0.3785;0.8075;
932.7000;0.3761;0.7957;
933.0000;0.3777;0.8004;
933.3000;0.3777;0.8052;
933.6000;0.3761;0.8123;
933.9000;0.3761;0.8170;
934.2000;0.3777;0.8194;
934.5000;0.3777;0.8170;
934.8000;0.3769;0.8170;
935.1000;0.3761;0.8052;
935.4000;0.3769;0.8099;
935.7000;0.3793;0.8194;
936.0000;0.3785;0.8170;
936.3000;0.3769;0.8170;
936.6000;0.3785;0.8170;
936.9000;0.3785;0.8170;
937.2000;0.3826;0.8312;
937.5000;0.3753;0.8075;
937.8000;0.3777;0.8170;
938.1000;0.3777;0.8241;
938.4000;0.3777;0.8241;
938.7000;0.3761;0.8289;
939.0000;0.3793;0.8360;
939.3000;0.3777;0.8289;
939.6000;0.3785;0.8194;
939.9000;0.3769;0.8146;
940.2000;0.3777;0.8241;
940.5000;0.3785;0.8289;
940.8000;0.3785;0.8265;
941.1000;0.3785;0.8265;
941.4000;0.3769;0.8265;
941.7000;0.3761;0.8265;
942.0000;0.3842;0.8407;
942.3000;0.3761;0.8217;
942.6000;0.3769;0.8336;
942.9000;0.3785;0.8407;
943.2000;0.3785;0.8336;
943.5000;0.3712;0.8052;
943.8000;0.3753;0.8170;
944.1000;0.3753;0.8170;
944.4000;0.3696;0.7957;
944.7000;0.3777;0.8194;
945.0000;0.3753;0.8099;
945.3000;0.3769;0.8241;
945.6000;0.3793;0.8360;
945.9000;0.3785;0.8383;
946.2000;0.3777;0.8312;
946.5000;0.3818;0.8407;
946.8000;0.3761;0.8312;
947.1000;0.3777;0.8265;
947.4000;0.3785;0.8170;
947.7000;0.3777;0.8123;
948.0000;0.3744;0.8123;
948.3000;0.3744;0.8028;
948.6000;0.3818;0.8241;
948.9000;0.3785;0.8170;
949.2000;0.3793;0.8241;
949.5000;0.3850;0.8454;
949.8000;0.3712;0.8146;
950.1000;0.3785;0.8407;
950.4000;0.3712;0.8217;
950.7000;0.3777;0.8336;
951.0000;0.3810;0.8383;
951.3000;0.3801;0.8336;
951.6000;0.3753;0.8217;
951.9000;0.3801;0.8336;
952.2000;0.3785;0.8217;
952.5000;0.3753;0.8241;
952.8000;0.3761;0.8241;
953.1000;0.3850;0.8431;
953.4000;0.3867;0.8383;
953.7000;0.3744;0.8170;
954.0000;0.3785;0.8360;
954.3000;0.3712;0.8217;
954.6000;0.3769;0.8454;
954.9000;0.3785;0.8525;
955.2000;0.3712;0.8265;
955.5000;0.3736;0.8265;
955.8000;0.3687;0.8146;
956.1000;0.3793;0.8383;
956.4000;0.3777;0.8336;
956.7000;0.3785;0.8336;
957.0000;0.3769;0.8360;
957.3000;0.3655;0.8099;
957.6000;0.3761;0.8383;
957.9000;0.3753;0.8336;
958.2000;0.3777;0.8312;
958.5000;0.3785;0.8312;
958.8000;0.3818;0.8502;
959.1000;0.3777;0.8383;
959.4000;0.3769;0.8289;
959.7000;0.3810;0.8454;
960.0000;0.3777;0.8478;
960.3000;0.3753;0.8360;
960.6000;0.3777;0.8360;
960.9000;0.3769;0.8454;
961.2000;0.3777;0.8383;
961.5000;0.3761;0.8360;
961.8000;0.3736;0.8407;
962.1000;0.3769;0.8502;
962.4000;0.3761;0.8549;
962.7000;0.3785;0.8549;
963.0000;0.3769;0.8454;
963.3000;0.3785;0.8431;
963.6000;0.3753;0.8289;
963.9000;0.3761;0.8265;
964.2000;0.3769;0.8217;
964.5000;0.3753;0.8217;
964.8000;0.3801;0.8336;
965.1000;0.3801;0.8265;
965.4000;0.3753;0.8075;
965.7000;0.3777;0.8099;
966.0000;0.3769;0.8123;
966.3000;0.3736;0.8099;
966.6000;0.3777;0.8170;
966.9000;0.3761;0.8146;
967.2000;0.3785;0.8241;
967.5000;0.3753;0.8075;
967.8000;0.3793;0.8123;
968.1000;0.3793;0.8099;
968.4000;0.3712;0.7862;
968.7000;0.3785;0.8099;
969.0000;0.3687;0.7981;
969.3000;0.3728;0.8123;
969.6000;0.3753;0.8099;
969.9000;0.3785;0.8123;
970.2000;0.3720;0.8028;
970.5000;0.3842;0.8336;
970.8000;0.3761;0.8194;
971.1000;0.3704;0.8075;
971.4000;0.3769;0.8194;
971.7000;0.3744;0.8146;
972.0000;0.3850;0.8383;
972.3000;0.3736;0.8194;
972.6000;0.3785;0.8265;
972.9000;0.3769;0.8289;
973.2000;0.3736;0.8241;
973.5000;0.3753;0.8217;
973.8000;0.3769;0.8241;
974.1000;0.3761;0.8241;
974.4000;0.3834;0.8407;
974.7000;0.3769;0.8241;
975.0000;0.3769;0.8170;
975.3000;0.3801;0.8170;
975.6000;0.3793;0.8170;
975.9000;0.3761;0.8241;
976.2000;0.3744;0.8123;
976.5000;0.3769;0.8146;
976.8000;0.3785;0.8170;
977.1000;0.3753;0.8170;
977.4000;0.3761;0.8241;
977.7000;0.3769;0.8265;
978.0000;0.3769;0.8241;
978.3000;0.3858;0.8431;
978.6000;0.3744;0.8289;
978.9000;0.3761;0.8289;
979.2000;0.3753;0.8265;
979.5000;0.3769;0.8289;
979.8000;0.3769;0.8241;
980.1000;0.3712;0.8075;
980.4000;0.3785;0.8194;
980.7000;0.3761;0.8170;
981.0000;0.3744;0.8170;
981.3000;0.3761;0.8265;
981.6000;0.3769;0.8241;
981.9000;0.3777;0.8194;
982.2000;0.3769;0.8123;
982.5000;0.3761;0.8170;
982.8000;0.3785;0.8289;
983.1000;0.3769;0.8241;
983.4000;0.3769;0.8217;
983.7000;0.3761;0.8289;
984.0000;0.3777;0.8360;
984.3000;0.3777;0.8265;
984.6000;0.3761;0.8170;
984.9000;0.3761;0.8146;
985.2000;0.3761;0.8170;
985.5000;0.3753;0.8146;
985.8000;0.3712;0.8028;
986.1000;0.3777;0.8194;
986.4000;0.3761;0.8217;
986.7000;0.3744;0.8194;
987.0000;0.3761;0.8075;
987.3000;0.3761;0.8004;
987.6000;0.3761;0.8004;
987.9000;0.3777;0.8099;
988.2000;0.3793;0.8170;
988.5000;0.3712;0.8052;
988.8000;0.3769;0.8265;
989.1000;0.3744;0.8217;
989.4000;0.3793;0.8289;
989.7000;0.3761;0.8146;
990.0000;0.3769;0.8194;
990.3000;0.3736;0.8194;
990.6000;0.3753;0.8241;
990.9000;0.3744;0.8217;
991.2000;0.3769;0.8265;
991.5000;0.3736;0.8241;
991.8000;0.3753;0.8289;
992.1000;0.3761;0.8265;
992.4000;0.3826;0.8454;
992.7000;0.3785;0.8312;
993.0000;0.3728;0.8217;
993.3000;0.3744;0.8265;
993.6000;0.3761;0.8217;
993.9000;0.3736;0.8099;
994.2000;0.3630;0.7862;
994.5000;0.3769;0.8194;
994.8000;0.3647;0.7839;
995.1000;0.3728;0.7933;
995.4000;0.3736;0.7933;
995.7000;0.3679;0.7815;
996.0000;0.3671;0.7791;
996.3000;0.3736;0.8052;
996.6000;0.3761;0.8052;
996.9000;0.3761;0.7981;
997.2000;0.3744;0.7981;
997.5000;0.3712;0.7981;
997.8000;0.3753;0.8123;
998.1000;0.3769;0.8170;
998.4000;0.3744;0.8123;
998.7000;0.3744;0.8170;
999.0000;0.3753;0.8170;
999.3000;0.3769;0.8170;
999.6000;0.3769;0.8099;
999.9000;0.3761;0.8146;
1000.2000;0.3753;0.8194;
1000.5000;0.3753;0.8194;
1000.8000;0.3761;0.8194;
1001.1000;0.3728;0.8170;
1001.4000;0.3744;0.8265;
1001.7000;0.3769;0.8289;
1002.0000;0.3744;0.8265;
1002.3000;0.3744;0.8312;
1002.6000;0.3769;0.8360;
1002.9000;0.3744;0.8336;
1003.2000;0.3744;0.8431;
1003.5000;0.3744;0.8383;
1003.8000;0.3753;0.8265;
1004.1000;0.3753;0.8336;
1004.4000;0.3744;0.8336;
1004.7000;0.3744;0.8336;
1005.0000;0.3744;0.8217;
1005.3000;0.3728;0.8241;
1005.6000;0.3761;0.8265;
1005.9000;0.3753;0.8289;
1006.2000;0.3753;0.8265;
1006.5000;0.3753;0.8217;
1006.8000;0.3728;0.8289;
1007.1000;0.3736;0.8289;
1007.4000;0.3761;0.8289;
1007.7000;0.3736;0.8123;
1008.0000;0.3744;0.8265;
1008.3000;0.3761;0.8217;
1008.6000;0.3736;0.8170;
1008.9000;0.3777;0.8241;
1009.2000;0.3728;0.8170;
1009.5000;0.3736;0.8146;
1009.8000;0.3761;0.8217;
1010.1000;0.3753;0.8123;
1010.4000;0.3744;0.8075;
1010.7000;0.3761;0.8099;
1011.0000;0.3761;0.8146;
1011.3000;0.3736;0.8099;
1011.6000;0.3744;0.8123;
1011.9000;0.3753;0.8170;
1012.2000;0.3769;0.8265;
1012.5000;0.3769;0.8217;
1012.8000;0.3753;0.8217;
1013.1000;0.3761;0.8289;
1013.4000;0.3769;0.8289;
1013.7000;0.3769;0.8312;
1014.0000;0.3761;0.8217;
1014.3000;0.3761;0.8123;
1014.6000;0.3777;0.8194;
1014.9000;0.3785;0.8241;
1015.2000;0.3728;0.8241;
1015.5000;0.3777;0.8289;
1015.8000;0.3736;0.8217;
1016.1000;0.3744;0.8241;
1016.4000;0.3744;0.8289;
1016.7000;0.3761;0.8407;
1017.0000;0.3761;0.8454;
1017.3000;0.3769;0.8502;
1017.6000;0.3753;0.8431;
1017.9000;0.3826;0.8596;
1018.2000;0.3753;0.8336;
1018.5000;0.3793;0.8525;
1018.8000;0.3769;0.8407;
1019.1000;0.3761;0.8360;
1019.4000;0.3720;0.8170;
1019.7000;0.3769;0.8265;
1020.0000;0.3769;0.8289;
1020.3000;0.3769;0.8265;
1020.6000;0.3769;0.8170;
1020.9000;0.3785;0.8194;
1021.2000;0.3785;0.8265;
1021.5000;0.3761;0.8194;
1021.8000;0.3744;0.8194;
1022.1000;0.3777;0.8146;
1022.4000;0.3769;0.8194;
1022.7000;0.3761;0.8241;
1023.0000;0.3769;0.8265;
1023.3000;0.3761;0.8241;
1023.6000;0.3761;0.8336;
1023.9000;0.3736;0.8265;
1024.2000;0.3761;0.8336;
1024.5000;0.3793;0.8478;
1024.8000;0.3744;0.8407;
1025.1000;0.3744;0.8407;
1025.4000;0.3736;0.8431;
1025.7000;0.3736;0.8454;
1026.0000;0.3736;0.8336;
1026.3000;0.3753;0.8312;
1026.6000;0.3753;0.8312;
1026.9000;0.3744;0.8383;
1027.2000;0.3753;0.8336;
1027.5000;0.3753;0.8383;
1027.8000;0.3761;0.8360;
1028.1000;0.3761;0.8265;
1028.4000;0.3842;0.8360;
1028.7000;0.3761;0.8217;
1029.0000;0.3728;0.8170;
1029.3000;0.3769;0.8289;
1029.6000;0.3753;0.8194;
1029.9000;0.3777;0.8217;
1030.2000;0.3753;0.8099;
1030.5000;0.3744;0.8170;
1030.8000;0.3736;0.8075;
1031.1000;0.3736;0.8123;
1031.4000;0.3753;0.8194;
1031.7000;0.3753;0.8194;
1032.0000;0.3761;0.8146;
1032.3000;0.3769;0.8146;
1032.6000;0.3810;0.8289;
1032.9000;0.3777;0.8170;
1033.2000;0.3769;0.8052;
1033.5000;0.3769;0.8099;
1033.8000;0.3744;0.8241;
1034.1000;0.3728;0.8265;
1034.4000;0.3761;0.8478;
1034.7000;0.3785;0.8573;
1035.0000;0.3761;0.8454;
1035.3000;0.3761;0.8431;
1035.6000;0.3753;0.8407;
1035.9000;0.3728;0.8360;
1036.2000;0.3744;0.8336;
1036.5000;0.3769;0.8360;
1036.8000;0.3753;0.8217;
1037.1000;0.3663;0.8028;
1037.4000;0.3761;0.8312;
1037.7000;0.3736;0.8336;
1038.0000;0.3826;0.8549;
1038.3000;0.3744;0.8360;
1038.6000;0.3744;0.8383;
1038.9000;0.3728;0.8336;
1039.2000;0.3736;0.8241;
1039.5000;0.3744;0.8194;
1039.8000;0.3744;0.8241;
1040.1000;0.3728;0.8289;
1040.4000;0.3769;0.8312;
1040.7000;0.3769;0.8383;
1041.0000;0.3744;0.8289;
1041.3000;0.3753;0.8217;
1041.6000;0.3769;0.8265;
1041.9000;0.3858;0.8644;
1042.2000;0.3744;0.8312;
1042.5000;0.3769;0.8194;
1042.8000;0.3810;0.8289;
1043.1000;0.3785;0.8312;
1043.4000;0.3728;0.8217;
1043.7000;0.3842;0.8549;
1044.0000;0.3728;0.8312;
1044.3000;0.3753;0.8336;
1044.6000;0.3761;0.8383;
1044.9000;0.3744;0.8336;
1045.2000;0.3744;0.8312;
1045.5000;0.3704;0.8123;
1045.8000;0.3761;0.8217;
1046.1000;0.3761;0.8146;
1046.4000;0.3801;0.8265;
1046.7000;0.3744;0.8075;
1047.0000;0.3753;0.8052;
1047.3000;0.3744;0.8052;
1047.6000;0.3736;0.8052;
1047.9000;0.3744;0.8146;
1048.2000;0.3753;0.8289;
1048.5000;0.3761;0.8336;
1048.8000;0.3753;0.8312;
1049.1000;0.3769;0.8336;
1049.4000;0.3704;0.8217;
1049.7000;0.3769;0.8312;
1050.0000;0.3761;0.8241;
1050.3000;0.3712;0.8194;
1050.6000;0.3744;0.8289;
1050.9000;0.3769;0.8217;
1051.2000;0.3761;0.8146;
1051.5000;0.3850;0.8407;
1051.8000;0.3744;0.8146;
1052.1000;0.3761;0.8099;
1052.4000;0.3761;0.8170;
1052.7000;0.3736;0.8194;
1053.0000;0.3736;0.8146;
1053.3000;0.3728;0.8217;
1053.6000;0.3753;0.8265;
1053.9000;0.3777;0.8241;
1054.2000;0.3744;0.8217;
1054.5000;0.3753;0.8217;
1054.8000;0.3728;0.8241;
1055.1000;0.3736;0.8146;
1055.4000;0.3736;0.8028;
1055.7000;0.3777;0.8123;
1056.0000;0.3744;0.8146;
1056.3000;0.3712;0.8052;
1056.6000;0.3704;0.8052;
1056.9000;0.3736;0.8170;
1057.2000;0.3744;0.8194;
1057.5000;0.3744;0.8241;
1057.8000;0.3744;0.8217;
1058.1000;0.3736;0.8170;
1058.4000;0.3753;0.8123;
1058.7000;0.3744;0.8170;
1059.0000;0.3736;0.8194;
1059.3000;0.3728;0.8217;
1059.6000;0.3753;0.8265;
1059.9000;0.3736;0.8241;
1060.2000;0.3720;0.8194;
1060.5000;0.3728;0.8146;
1060.8000;0.3728;0.8170;
1061.1000;0.3785;0.8241;
1061.4000;0.3744;0.8241;
1061.7000;0.3744;0.8312;
1062.0000;0.3769;0.8336;
1062.3000;0.3720;0.8265;
1062.6000;0.3744;0.8312;
1062.9000;0.3744;0.8289;
1063.2000;0.3744;0.8312;
1063.5000;0.3753;0.8360;
1063.8000;0.3744;0.8336;
1064.1000;0.3736;0.8312;
1064.4000;0.3761;0.8241;
1064.7000;0.3736;0.8123;
1065.0000;0.3744;0.8194;
1065.3000;0.3753;0.8099;
1065.6000;0.3728;0.8123;
1065.9000;0.3753;0.8146;
1066.2000;0.3818;0.8360;
1066.5000;0.3753;0.8217;
1066.8000;0.3753;0.8336;
1067.1000;0.3736;0.8265;
1067.4000;0.3777;0.8360;
1067.7000;0.3687;0.8099;
1068.0000;0.3753;0.8383;
1068.3000;0.3753;0.8289;
1068.6000;0.3875;0.8596;
1068.9000;0.3736;0.8312;
1069.2000;0.3728;0.8217;
1069.5000;0.3761;0.8217;
1069.8000;0.3761;0.8170;
1070.1000;0.3753;0.8146;
1070.4000;0.3736;0.8123;
1070.7000;0.3761;0.8265;
1071.0000;0.3769;0.8289;
1071.3000;0.3687;0.8170;
1071.6000;0.3810;0.8502;
1071.9000;0.3744;0.8407;
1072.2000;0.3753;0.8454;
1072.5000;0.3744;0.8431;
1072.8000;0.3671;0.8170;
1073.1000;0.3753;0.8383;
1073.4000;0.3736;0.8312;
1073.7000;0.3736;0.8289;
1074.0000;0.3736;0.8241;
1074.3000;0.3753;0.8383;
1074.6000;0.3753;0.8312;
1074.9000;0.3720;0.8217;
1075.2000;0.3753;0.8194;
1075.5000;0.3736;0.8099;
1075.8000;0.3744;0.8170;
1076.1000;0.3761;0.8265;
1076.4000;0.3736;0.8241;
1076.7000;0.3679;0.8052;
1077.0000;0.3753;0.8265;
1077.3000;0.3744;0.8336;
1077.6000;0.3744;0.8312;
1077.9000;0.3744;0.8312;
1078.2000;0.3753;0.8383;
1078.5000;0.3728;0.8312;
1078.8000;0.3728;0.8217;
1079.1000;0.3777;0.8289;
1079.4000;0.3728;0.8194;
1079.7000;0.3736;0.8241;
1080.0000;0.3801;0.8502;
1080.3000;0.3736;0.8383;
1080.6000;0.3687;0.8217;
1080.9000;0.3736;0.8312;
1081.2000;0.3753;0.8431;
1081.5000;0.3736;0.8502;
1081.8000;0.3728;0.8525;
1082.1000;0.3753;0.8478;
1082.4000;0.3736;0.8407;
1082.7000;0.3761;0.8407;
1083.0000;0.3753;0.8383;
1083.3000;0.3769;0.8360;
1083.6000;0.3753;0.8289;
1083.9000;0.3712;0.8146;
1084.2000;0.3801;0.8217;
1084.5000;0.3744;0.8099;
1084.8000;0.3744;0.8146;
1085.1000;0.3720;0.8075;
1085.4000;0.3744;0.8146;
1085.7000;0.3744;0.8194;
1086.0000;0.3761;0.8312;
1086.3000;0.3696;0.8099;
1086.6000;0.3761;0.8241;
1086.9000;0.3761;0.8289;
1087.2000;0.3720;0.8194;
1087.5000;0.3785;0.8360;
1087.8000;0.3728;0.8217;
1088.1000;0.3744;0.8265;
1088.4000;0.3793;0.8312;
1088.7000;0.3777;0.8265;
1089.0000;0.3753;0.8194;
1089.3000;0.3744;0.8146;
1089.6000;0.3785;0.8336;
1089.9000;0.3753;0.8383;
1090.2000;0.3761;0.8360;
1090.5000;0.3679;0.8194;
1090.8000;0.3744;0.8407;
1091.1000;0.3744;0.8431;
1091.4000;0.3704;0.8478;
1091.7000;0.3753;0.8620;
1092.0000;0.3744;0.8502;
1092.3000;0.3753;0.8502;
1092.6000;0.3761;0.8478;
1092.9000;0.3736;0.8502;
1093.2000;0.3785;0.8667;
1093.5000;0.3728;0.8525;
1093.8000;0.3728;0.8525;
1094.1000;0.3753;0.8549;
1094.4000;0.3761;0.8525;
1094.7000;0.3712;0.8383;
1095.0000;0.3728;0.8454;
1095.3000;0.3777;0.8525;
1095.6000;0.3744;0.8407;
1095.9000;0.3753;0.8407;
1096.2000;0.3769;0.8383;
1096.5000;0.3777;0.8383;
1096.8000;0.3753;0.8265;
1097.1000;0.3736;0.8289;
1097.4000;0.3736;0.8336;
1097.7000;0.3753;0.8265;
1098.0000;0.3744;0.8289;
1098.3000;0.3736;0.8312;
1098.6000;0.3736;0.8265;
1098.9000;0.3712;0.8336;
1099.2000;0.3736;0.8407;
1099.5000;0.3736;0.8454;
1099.8000;0.3744;0.8454;
1100.1000;0.3744;0.8383;
1100.4000;0.3744;0.8383;
1100.7000;0.3753;0.8289;
1101.0000;0.3744;0.8265;
1101.3000;0.3744;0.8336;
1101.6000;0.3753;0.8431;
1101.9000;0.3761;0.8407;
1102.2000;0.3744;0.8383;
1102.5000;0.3736;0.8383;
1102.8000;0.3753;0.8360;
1103.1000;0.3785;0.8525;
1103.4000;0.3736;0.8431;
1103.7000;0.3728;0.8336;
1104.0000;0.3728;0.8407;
1104.3000;0.3761;0.8407;
1104.6000;0.3753;0.8360;
1104.9000;0.3720;0.8312;
1105.2000;0.3761;0.8289;
1105.5000;0.3720;0.8194;
1105.8000;0.3769;0.8336;
1106.1000;0.3769;0.8383;
1106.4000;0.3712;0.8265;
1106.7000;0.3744;0.8383;
1107.0000;0.3834;0.8596;
1107.3000;0.3728;0.8360;
1107.6000;0.3712;0.8265;
1107.9000;0.3671;0.8194;
1108.2000;0.3761;0.8407;
1108.5000;0.3753;0.8360;
1108.8000;0.3818;0.8478;
1109.1000;0.3728;0.8265;
1109.4000;0.3744;0.8312;
1109.7000;0.3769;0.8241;
1110.0000;0.3761;0.8194;
1110.3000;0.3744;0.8217;
1110.6000;0.3769;0.8289;
1110.9000;0.3744;0.8312;
1111.2000;0.3785;0.8431;
1111.5000;0.3720;0.8265;
1111.8000;0.3769;0.8478;
1112.1000;0.3769;0.8525;
1112.4000;0.3720;0.8383;
1112.7000;0.3769;0.8478;
1113.0000;0.3679;0.8289;
1113.3000;0.3720;0.8360;
1113.6000;0.3704;0.8289;
1113.9000;0.3736;0.8336;
1114.2000;0.3736;0.8336;
1114.5000;0.3761;0.8478;
1114.8000;0.3728;0.8360;
1115.1000;0.3704;0.8312;
1115.4000;0.3712;0.8360;
1115.7000;0.3736;0.8407;
1116.0000;0.3736;0.8454;
1116.3000;0.3671;0.8383;
1116.6000;0.3736;0.8407;
1116.9000;0.3720;0.8360;
1117.2000;0.3744;0.8407;
1117.5000;0.3753;0.8312;
1117.8000;0.3818;0.8454;
1118.1000;0.3728;0.8146;
1118.4000;0.3720;0.8217;
1118.7000;0.3728;0.8194;
1119.0000;0.3736;0.8194;
1119.3000;0.3744;0.8217;
1119.6000;0.3704;0.8123;
1119.9000;0.3753;0.8217;
1120.2000;0.3720;0.8170;
1120.5000;0.3736;0.8265;
1120.8000;0.3720;0.8336;
1121.1000;0.3744;0.8407;
1121.4000;0.3728;0.8336;
1121.7000;0.3744;0.8360;
1122.0000;0.3753;0.8525;
1122.3000;0.3761;0.8573;
1122.6000;0.3736;0.8502;
1122.9000;0.3720;0.8525;
1123.2000;0.3736;0.8478;
1123.5000;0.3728;0.8431;
1123.8000;0.3728;0.8383;
1124.1000;0.3753;0.8431;
1124.4000;0.3712;0.8312;
1124.7000;0.3728;0.8312;
1125.0000;0.3826;0.8525;
1125.3000;0.3753;0.8265;
1125.6000;0.3744;0.8265;
1125.9000;0.3744;0.8289;
1126.2000;0.3753;0.8289;
1126.5000;0.3744;0.8265;
1126.8000;0.3736;0.8241;
1127.1000;0.3801;0.8360;
1127.4000;0.3753;0.8336;
1127.7000;0.3720;0.8146;
1128.0000;0.3728;0.8123;
1128.3000;0.3777;0.8383;
1128.6000;0.3753;0.8289;
1128.9000;0.3736;0.8217;
1129.2000;0.3736;0.8194;
1129.5000;0.3720;0.8123;
1129.8000;0.3728;0.8170;
1130.1000;0.3696;0.8123;
1130.4000;0.3728;0.8265;
1130.7000;0.3728;0.8265;
1131.0000;0.3744;0.8241;
1131.3000;0.3736;0.8123;
1131.6000;0.3736;0.8099;
1131.9000;0.3720;0.8052;
1132.2000;0.3753;0.8194;
1132.5000;0.3761;0.8146;
1132.8000;0.3744;0.8146;
1133.1000;0.3810;0.8289;
1133.4000;0.3769;0.8123;
1133.7000;0.3761;0.8099;
1134.0000;0.3728;0.8052;
1134.3000;0.3785;0.8170;
1134.6000;0.3728;0.8052;
1134.9000;0.3744;0.8052;
1135.2000;0.3761;0.8052;
1135.5000;0.3744;0.8075;
1135.8000;0.3744;0.8123;
1136.1000;0.3753;0.8146;
1136.4000;0.3744;0.8217;
1136.7000;0.3744;0.8194;
1137.0000;0.3736;0.8099;
1137.3000;0.3769;0.8170;
1137.6000;0.3720;0.8052;
1137.9000;0.3744;0.8170;
1138.2000;0.3696;0.8028;
1138.5000;0.3582;0.7673;
1138.8000;0.3753;0.8004;
1139.1000;0.3753;0.7910;
1139.4000;0.3744;0.7957;
1139.7000;0.3728;0.7933;
1140.0000;0.3736;0.7957;
1140.3000;0.3744;0.7933;
1140.6000;0.3744;0.7910;
1140.9000;0.3736;0.7886;
1141.2000;0.3736;0.7910;
1141.5000;0.3777;0.8004;
1141.8000;0.3744;0.7981;
1142.1000;0.3761;0.8146;
1142.4000;0.3753;0.8241;
1142.7000;0.3736;0.8194;
1143.0000;0.3753;0.8217;
1143.3000;0.3704;0.8194;
1143.6000;0.3744;0.8241;
1143.9000;0.3712;0.8075;
1144.2000;0.3744;0.8052;
1144.5000;0.3753;0.8146;
1144.8000;0.3639;0.7957;
1145.1000;0.3720;0.8217;
1145.4000;0.3663;0.8052;
1145.7000;0.3736;0.8123;
1146.0000;0.3736;0.8241;
1146.3000;0.3744;0.8241;
1146.6000;0.3720;0.8217;
1146.9000;0.3687;0.8170;
1147.2000;0.3736;0.8289;
1147.5000;0.3736;0.8194;
1147.8000;0.3736;0.8265;
1148.1000;0.3753;0.8241;
1148.4000;0.3720;0.8123;
1148.7000;0.3744;0.8146;
1149.0000;0.3744;0.8075;
1149.3000;0.3728;0.8075;
1149.6000;0.3744;0.8123;
1149.9000;0.3704;0.8004;
1150.2000;0.3720;0.8052;
1150.5000;0.3720;0.8052;
1150.8000;0.3704;0.8052;
1151.1000;0.3704;0.8099;
1151.4000;0.3720;0.8241;
1151.7000;0.3720;0.8241;
1152.0000;0.3639;0.7981;
1152.3000;0.3728;0.8194;
1152.6000;0.3728;0.8170;
1152.9000;0.3736;0.8217;
1153.2000;0.3777;0.8241;
1153.5000;0.3761;0.8146;
1153.8000;0.3744;0.8099;
1154.1000;0.3720;0.8075;
1154.4000;0.3736;0.8146;
1154.7000;0.3712;0.8170;
1155.0000;0.3769;0.8265;
1155.3000;0.3744;0.8123;
1155.6000;0.3761;0.8289;
1155.9000;0.3647;0.8075;
1156.2000;0.3736;0.8289;
1156.5000;0.3753;0.8241;
1156.8000;0.3744;0.8123;
1157.1000;0.3728;0.8052;
1157.4000;0.3744;0.8052;
1157.7000;0.3720;0.8028;
1158.0000;0.3753;0.8170;
1158.3000;0.3736;0.8123;
1158.6000;0.3753;0.8170;
1158.9000;0.3728;0.8194;
1159.2000;0.3753;0.8265;
1159.5000;0.3736;0.8123;
1159.8000;0.3753;0.8170;
1160.1000;0.3736;0.8099;
1160.4000;0.3728;0.8052;
1160.7000;0.3744;0.8123;
1161.0000;0.3728;0.8052;
1161.3000;0.3687;0.7839;
1161.6000;0.3728;0.8004;
1161.9000;0.3728;0.7933;
1162.2000;0.3720;0.7933;
1162.5000;0.3761;0.8052;
1162.8000;0.3728;0.8028;
1163.1000;0.3728;0.8099;
1163.4000;0.3744;0.8123;
1163.7000;0.3712;0.8028;
1164.0000;0.3736;0.8146;
1164.3000;0.3728;0.8099;
1164.6000;0.3753;0.8170;
1164.9000;0.3655;0.7933;
1165.2000;0.3728;0.8123;
1165.5000;0.3712;0.8099;
1165.8000;0.3744;0.8241;
1166.1000;0.3744;0.8194;
1166.4000;0.3720;0.8217;
1166.7000;0.3785;0.8360;
1167.0000;0.3720;0.8241;
1167.3000;0.3736;0.8265;
1167.6000;0.3647;0.8028;
1167.9000;0.3720;0.8217;
1168.2000;0.3720;0.8265;
1168.5000;0.3639;0.8004;
1168.8000;0.3744;0.8265;
1169.1000;0.3761;0.8194;
1169.4000;0.3704;0.8075;
1169.7000;0.3663;0.8004;
1170.0000;0.3728;0.8146;
1170.3000;0.3728;0.8075;
1170.6000;0.3744;0.8075;
1170.9000;0.3761;0.8170;
1171.2000;0.3736;0.8217;
1171.5000;0.3728;0.8099;
1171.8000;0.3736;0.8028;
1172.1000;0.3736;0.8052;
1172.4000;0.3712;0.8004;
1172.7000;0.3728;0.8099;
1173.0000;0.3728;0.8170;
1173.3000;0.3761;0.8170;
1173.6000;0.3736;0.8170;
1173.9000;0.3736;0.8194;
1174.2000;0.3720;0.8194;
1174.5000;0.3761;0.8241;
1174.8000;0.3736;0.8265;
1175.1000;0.3753;0.8265;
1175.4000;0.3736;0.8265;
1175.7000;0.3728;0.8170;
1176.0000;0.3728;0.8241;
1176.3000;0.3720;0.8146;
1176.6000;0.3736;0.8075;
1176.9000;0.3728;0.8099;
1177.2000;0.3679;0.8004;
1177.5000;0.3728;0.8075;
1177.8000;0.3728;0.8099;
1178.1000;0.3744;0.8075;
1178.4000;0.3777;0.8170;
1178.7000;0.3728;0.8146;
1179.0000;0.3753;0.8312;
1179.3000;0.3736;0.8265;
1179.6000;0.3761;0.8360;
1179.9000;0.3736;0.8241;
1180.2000;0.3704;0.8194;
1180.5000;0.3728;0.8241;
1180.8000;0.3744;0.8241;
1181.1000;0.3769;0.8217;
1181.4000;0.3712;0.8052;
1181.7000;0.3728;0.8028;
1182.0000;0.3753;0.8099;
1182.3000;0.3736;0.8052;
1182.6000;0.3736;0.8052;
1182.9000;0.3761;0.7981;
1183.2000;0.3728;0.7910;
1183.5000;0.3728;0.7862;
1183.8000;0.3753;0.7933;
1184.1000;0.3728;0.7839;
1184.4000;0.3696;0.7768;
1184.7000;0.3744;0.7839;
1185.0000;0.3850;0.8123;
1185.3000;0.3736;0.7791;
1185.6000;0.3736;0.7839;
1185.9000;0.3744;0.7862;
1186.2000;0.3728;0.7862;
1186.5000;0.3712;0.7815;
1186.8000;0.3753;0.7933;
1187.1000;0.3736;0.7933;
1187.4000;0.3744;0.8004;
1187.7000;0.3736;0.7957;
1188.0000;0.3736;0.7839;
1188.3000;0.3728;0.7839;
1188.6000;0.3744;0.8004;
1188.9000;0.3720;0.7981;
1189.2000;0.3736;0.8075;
1189.5000;0.3679;0.7933;
1189.8000;0.3736;0.8075;
1190.1000;0.3736;0.8075;
1190.4000;0.3785;0.8123;
1190.7000;0.3704;0.7933;
1191.0000;0.3744;0.8004;
1191.3000;0.3753;0.7981;
1191.6000;0.3736;0.7957;
1191.9000;0.3720;0.7957;
1192.2000;0.3744;0.8004;
1192.5000;0.3736;0.7933;
1192.8000;0.3818;0.8146;
1193.1000;0.3753;0.8004;
1193.4000;0.3720;0.7957;
1193.7000;0.3744;0.8052;
1194.0000;0.3728;0.7910;
1194.3000;0.3761;0.7910;
1194.6000;0.3769;0.7886;
1194.9000;0.3753;0.7886;
1195.2000;0.3850;0.8241;
1195.5000;0.3712;0.8052;
1195.8000;0.3712;0.8075;
1196.1000;0.3736;0.8146;
1196.4000;0.3744;0.8170;
1196.7000;0.3769;0.8146;
1197.0000;0.3769;0.8146;
1197.3000;0.3736;0.7981;
1197.6000;0.3696;0.7933;
1197.9000;0.3728;0.8052;
1198.2000;0.3720;0.8123;
1198.5000;0.3720;0.8146;
1198.8000;0.3728;0.8194;
1199.1000;0.3671;0.8099;
1199.4000;0.3728;0.8194;
1199.7000;0.3728;0.8217;
1200.0000;0.3728;0.8241;
1200.3000;0.3761;0.8241;
1200.6000;0.3736;0.8194;
1200.9000;0.3671;0.8028;
1201.2000;0.3801;0.8407;
1201.5000;0.3753;0.8241;
1201.8000;0.3744;0.8052;
1202.1000;0.3753;0.8052;
1202.4000;0.3744;0.8028;
1202.7000;0.3720;0.7981;
1203.0000;0.3712;0.8075;
1203.3000;0.3744;0.8241;
1203.6000;0.3761;0.8170;
1203.9000;0.3769;0.8146;
1204.2000;0.3753;0.8075;
1204.5000;0.3744;0.8123;
1204.8000;0.3736;0.8052;
1205.1000;0.3744;0.8028;
1205.4000;0.3744;0.8052;
1205.7000;0.3728;0.8052;
1206.0000;0.3744;0.8123;
1206.3000;0.3744;0.8146;
1206.6000;0.3744;0.8146;
1206.9000;0.3736;0.8146;
1207.2000;0.3720;0.8099;
1207.5000;0.3736;0.8028;
1207.8000;0.3728;0.8004;
1208.1000;0.3712;0.8028;
1208.4000;0.3785;0.8194;
1208.7000;0.3720;0.8004;
1209.0000;0.3753;0.8099;
1209.3000;0.3769;0.8146;
1209.6000;0.3744;0.8217;
1209.9000;0.3736;0.8217;
1210.2000;0.3736;0.8146;
1210.5000;0.3850;0.8336;
1210.8000;0.3720;0.7910;
1211.1000;0.3712;0.7910;
1211.4000;0.3720;0.7981;
1211.7000;0.3736;0.8004;
1212.0000;0.3728;0.8004;
1212.3000;0.3704;0.7981;
1212.6000;0.3753;0.8075;
1212.9000;0.3744;0.8123;
1213.2000;0.3736;0.8052;
1213.5000;0.3793;0.8217;
1213.8000;0.3728;0.8123;
1214.1000;0.3728;0.8099;
1214.4000;0.3728;0.7981;
1214.7000;0.3728;0.8052;
1215.0000;0.3720;0.7957;
1215.3000;0.3793;0.8146;
1215.6000;0.3736;0.8052;
1215.9000;0.3744;0.8099;
1216.2000;0.3736;0.8146;
1216.5000;0.3736;0.8075;
1216.8000;0.3736;0.8075;
1217.1000;0.3720;0.8099;
1217.4000;0.3744;0.8146;
1217.7000;0.3720;0.8217;
1218.0000;0.3728;0.8194;
1218.3000;0.3736;0.8194;
1218.6000;0.3744;0.8241;
1218.9000;0.3712;0.8217;
1219.2000;0.3720;0.8099;
1219.5000;0.3712;0.8004;
1219.8000;0.3736;0.8052;
1220.1000;0.3728;0.7957;
1220.4000;0.3679;0.7957;
1220.7000;0.3728;0.8004;
1221.0000;0.3720;0.7981;
1221.3000;0.3704;0.7933;
1221.6000;0.3744;0.7933;
1221.9000;0.3720;0.7933;
1222.2000;0.3720;0.7862;
1222.5000;0.3712;0.7815;
1222.8000;0.3744;0.7839;
1223.1000;0.3736;0.7839;
1223.4000;0.3761;0.7862;
1223.7000;0.3736;0.7839;
1224.0000;0.3777;0.8052;
1224.3000;0.3728;0.8004;
1224.6000;0.3761;0.8075;
1224.9000;0.3801;0.8217;
1225.2000;0.3736;0.8028;
1225.5000;0.3704;0.7910;
1225.8000;0.3744;0.8004;
1226.1000;0.3761;0.8217;
1226.4000;0.3712;0.8052;
1226.7000;0.3704;0.8004;
1227.0000;0.3744;0.8123;
1227.3000;0.3704;0.8028;
1227.6000;0.3744;0.8099;
1227.9000;0.3744;0.8123;
1228.2000;0.3728;0.8075;
1228.5000;0.3704;0.8052;
1228.8000;0.3744;0.8028;
1229.1000;0.3736;0.8146;
1229.4000;0.3736;0.8146;
1229.7000;0.3761;0.8194;
1230.0000;0.3744;0.8123;
1230.3000;0.3736;0.8099;
1230.6000;0.3655;0.7768;
1230.9000;0.3744;0.8004;
1231.2000;0.3753;0.7933;
1231.5000;0.3704;0.7815;
1231.8000;0.3712;0.7981;
1232.1000;0.3744;0.8146;
1232.4000;0.3736;0.8170;
1232.7000;0.3728;0.8194;
1233.0000;0.3769;0.8312;
1233.3000;0.3720;0.8217;
1233.6000;0.3744;0.8312;
1233.9000;0.3704;0.8075;
1234.2000;0.3761;0.8265;
1234.5000;0.3761;0.8336;
1234.8000;0.3761;0.8360;
1235.1000;0.3736;0.8431;
1235.4000;0.3736;0.8431;
1235.7000;0.3744;0.8407;
1236.0000;0.3761;0.8383;
1236.3000;0.3753;0.8383;
1236.6000;0.3736;0.8336;
1236.9000;0.3712;0.8265;
1237.2000;0.3753;0.8265;
1237.5000;0.3744;0.8217;
1237.8000;0.3736;0.8289;
1238.1000;0.3728;0.8265;
1238.4000;0.3744;0.8312;
1238.7000;0.3728;0.8336;
1239.0000;0.3744;0.8431;
1239.3000;0.3720;0.8407;
1239.6000;0.3744;0.8407;
1239.9000;0.3728;0.8454;
1240.2000;0.3744;0.8478;
1240.5000;0.3744;0.8502;
1240.8000;0.3720;0.8478;
1241.1000;0.3728;0.8478;
1241.4000;0.3687;0.8383;
1241.7000;0.3712;0.8312;
1242.0000;0.3769;0.8407;
1242.3000;0.3728;0.8360;
1242.6000;0.3728;0.8336;
1242.9000;0.3704;0.8289;
1243.2000;0.3712;0.8312;
1243.5000;0.3736;0.8360;
1243.8000;0.3736;0.8360;
1244.1000;0.3728;0.8312;
1244.4000;0.3753;0.8265;
1244.7000;0.3744;0.8312;
1245.0000;0.3736;0.8241;
1245.3000;0.3728;0.8312;
1245.6000;0.3728;0.8265;
1245.9000;0.3639;0.7957;
1246.2000;0.3744;0.8289;
1246.5000;0.3761;0.8336;
1246.8000;0.3704;0.8146;
1247.1000;0.3744;0.8194;
1247.4000;0.3744;0.8170;
1247.7000;0.3720;0.8123;
1248.0000;0.3728;0.8146;
1248.3000;0.3728;0.8241;
1248.6000;0.3736;0.8241;
1248.9000;0.3720;0.8217;
1249.2000;0.3736;0.8336;
1249.5000;0.3728;0.8383;
1249.8000;0.3720;0.8360;
1250.1000;0.3744;0.8360;
1250.4000;0.3744;0.8360;
1250.7000;0.3720;0.8383;
1251.0000;0.3744;0.8431;
1251.3000;0.3728;0.8407;
1251.6000;0.3720;0.8502;
1251.9000;0.3736;0.8431;
1252.2000;0.3801;0.8596;
1252.5000;0.3712;0.8383;
1252.8000;0.3761;0.8478;
1253.1000;0.3744;0.8431;
1253.4000;0.3696;0.8312;
1253.7000;0.3753;0.8431;
1254.0000;0.3720;0.8502;
1254.3000;0.3801;0.8644;
1254.6000;0.3753;0.8360;
1254.9000;0.3736;0.8289;
1255.2000;0.3720;0.8360;
1255.5000;0.3712;0.8360;
1255.8000;0.3704;0.8289;
1256.1000;0.3720;0.8289;
1256.4000;0.3744;0.8336;
1256.7000;0.3744;0.8289;
1257.0000;0.3704;0.8123;
1257.3000;0.3687;0.8146;
1257.6000;0.3744;0.8360;
1257.9000;0.3744;0.8407;
1258.2000;0.3712;0.8360;
1258.5000;0.3777;0.8478;
1258.8000;0.3744;0.8407;
1259.1000;0.3728;0.8289;
1259.4000;0.3736;0.8289;
1259.7000;0.3728;0.8265;
1260.0000;0.3753;0.8360;
1260.3000;0.3744;0.8360;
1260.6000;0.3728;0.8289;
1260.9000;0.3761;0.8407;
1261.2000;0.3744;0.8407;
1261.5000;0.3736;0.8407;
1261.8000;0.3744;0.8478;
1262.1000;0.3744;0.8407;
1262.4000;0.3744;0.8431;
1262.7000;0.3712;0.8383;
1263.0000;0.3744;0.8454;
1263.3000;0.3736;0.8383;
1263.6000;0.3720;0.8312;
1263.9000;0.3744;0.8336;
1264.2000;0.3761;0.8407;
1264.5000;0.3753;0.8360;
1264.8000;0.3704;0.8289;
1265.1000;0.3736;0.8312;
1265.4000;0.3720;0.8312;
1265.7000;0.3720;0.8289;
1266.0000;0.3728;0.8407;
1266.3000;0.3753;0.8502;
1266.6000;0.3744;0.8454;
1266.9000;0.3736;0.8502;
1267.2000;0.3744;0.8478;
1267.5000;0.3720;0.8454;
1267.8000;0.3744;0.8431;
1268.1000;0.3696;0.8336;
1268.4000;0.3736;0.8407;
1268.7000;0.3720;0.8312;
1269.0000;0.3696;0.8217;
1269.3000;0.3736;0.8360;
1269.6000;0.3720;0.8312;
1269.9000;0.3549;0.7933;
1270.2000;0.3720;0.8502;
1270.5000;0.3736;0.8431;
1270.8000;0.3720;0.8312;
1271.1000;0.3744;0.8383;
1271.4000;0.3736;0.8360;
1271.7000;0.3761;0.8383;
1272.0000;0.3736;0.8312;
1272.3000;0.3720;0.8312;
1272.6000;0.3761;0.8478;
1272.9000;0.3720;0.8336;
1273.2000;0.3761;0.8383;
1273.5000;0.3736;0.8407;
1273.8000;0.3728;0.8360;
1274.1000;0.3736;0.8383;
1274.4000;0.3736;0.8431;
1274.7000;0.3736;0.8454;
1275.0000;0.3736;0.8525;
1275.3000;0.3736;0.8431;
1275.6000;0.3761;0.8431;
1275.9000;0.3720;0.8289;
1276.2000;0.3736;0.8265;
1276.5000;0.3744;0.8217;
1276.8000;0.3736;0.8241;
1277.1000;0.3728;0.8265;
1277.4000;0.3728;0.8312;
1277.7000;0.3639;0.8170;
1278.0000;0.3736;0.8336;
1278.3000;0.3720;0.8336;
1278.6000;0.3720;0.8312;
1278.9000;0.3720;0.8360;
1279.2000;0.3728;0.8383;
1279.5000;0.3736;0.8431;
1279.8000;0.3744;0.8431;
1280.1000;0.3728;0.8336;
1280.4000;0.3720;0.8360;
1280.7000;0.3736;0.8336;
1281.0000;0.3785;0.8478;
1281.3000;0.3728;0.8360;
1281.6000;0.3728;0.8336;
1281.9000;0.3728;0.8336;
1282.2000;0.3736;0.8407;
1282.5000;0.3671;0.8170;
1282.8000;0.3720;0.8312;
1283.1000;0.3736;0.8312;
1283.4000;0.3744;0.8289;
1283.7000;0.3736;0.8265;
1284.0000;0.3769;0.8336;
1284.3000;0.3728;0.8360;
1284.6000;0.3736;0.8360;
1284.9000;0.3728;0.8383;
1285.2000;0.3744;0.8407;
1285.5000;0.3728;0.8289;
1285.8000;0.3736;0.8194;
1286.1000;0.3736;0.8265;
1286.4000;0.3785;0.8431;
1286.7000;0.3736;0.8336;
1287.0000;0.3720;0.8312;
1287.3000;0.3720;0.8336;
1287.6000;0.3720;0.8360;
1287.9000;0.3712;0.8336;
1288.2000;0.3728;0.8407;
1288.5000;0.3736;0.8407;
1288.8000;0.3728;0.8336;
1289.1000;0.3728;0.8478;
1289.4000;0.3744;0.8549;
1289.7000;0.3720;0.8431;
1290.0000;0.3704;0.8431;
1290.3000;0.3720;0.8478;
1290.6000;0.3736;0.8431;
1290.9000;0.3736;0.8336;
1291.2000;0.3671;0.8146;
1291.5000;0.3744;0.8312;
1291.8000;0.3720;0.8312;
1292.1000;0.3728;0.8289;
1292.4000;0.3728;0.8312;
1292.7000;0.3720;0.8312;
1293.0000;0.3761;0.8407;
1293.3000;0.3728;0.8360;
1293.6000;0.3744;0.8383;
1293.9000;0.3728;0.8336;
1294.2000;0.3810;0.8454;
1294.5000;0.3744;0.8289;
1294.8000;0.3728;0.8217;
1295.1000;0.3736;0.8194;
1295.4000;0.3712;0.8194;
1295.7000;0.3728;0.8241;
1296.0000;0.3728;0.8241;
1296.3000;0.3720;0.8407;
1296.6000;0.3728;0.8525;
1296.9000;0.3753;0.8620;
1297.2000;0.3736;0.8620;
1297.5000;0.3720;0.8549;
1297.8000;0.3704;0.8525;
1298.1000;0.3728;0.8478;
1298.4000;0.3761;0.8431;
1298.7000;0.3769;0.8431;
1299.0000;0.3696;0.8265;
1299.3000;0.3777;0.8478;
1299.6000;0.3728;0.8312;
1299.9000;0.3736;0.8336;
1300.2000;0.3687;0.8170;
1300.5000;0.3728;0.8217;
1300.8000;0.3704;0.8217;
1301.1000;0.3720;0.8194;
1301.4000;0.3736;0.8289;
1301.7000;0.3761;0.8383;
1302.0000;0.3826;0.8596;
1302.3000;0.3744;0.8289;
1302.6000;0.3720;0.8170;
1302.9000;0.3736;0.8265;
1303.2000;0.3736;0.8336;
1303.5000;0.3720;0.8312;
1303.8000;0.3736;0.8360;
1304.1000;0.3728;0.8336;
1304.4000;0.3720;0.8289;
1304.7000;0.3728;0.8312;
1305.0000;0.3671;0.8123;
1305.3000;0.3761;0.8336;
1305.6000;0.3728;0.8217;
1305.9000;0.3720;0.8312;
1306.2000;0.3728;0.8360;
1306.5000;0.3736;0.8454;
1306.8000;0.3696;0.8217;
1307.1000;0.3744;0.8383;
1307.4000;0.3744;0.8383;
1307.7000;0.3736;0.8336;
1308.0000;0.3753;0.8265;
1308.3000;0.3655;0.8052;
1308.6000;0.3777;0.8336;
1308.9000;0.3728;0.8146;
1309.2000;0.3712;0.8099;
1309.5000;0.3720;0.8099;
1309.8000;0.3744;0.8146;
1310.1000;0.3728;0.8217;
1310.4000;0.3728;0.8312;
1310.7000;0.3728;0.8241;
1311.0000;0.3744;0.8241;
1311.3000;0.3720;0.8194;
1311.6000;0.3728;0.8194;
1311.9000;0.3736;0.8194;
1312.2000;0.3687;0.8028;
1312.5000;0.3736;0.8123;
1312.8000;0.3728;0.8075;
1313.1000;0.3753;0.8123;
1313.4000;0.3761;0.8099;
1313.7000;0.3687;0.8028;
1314.0000;0.3736;0.8123;
1314.3000;0.3704;0.8241;
1314.6000;0.3736;0.8265;
1314.9000;0.3761;0.8336;
1315.2000;0.3736;0.8265;
1315.5000;0.3744;0.8217;
1315.8000;0.3728;0.8194;
1316.1000;0.3712;0.8194;
1316.4000;0.3850;0.8525;
1316.7000;0.3769;0.8289;
1317.0000;0.3704;0.8217;
1317.3000;0.3712;0.8265;
1317.6000;0.3728;0.8265;
1317.9000;0.3647;0.8004;
1318.2000;0.3663;0.8099;
1318.5000;0.3736;0.8217;
1318.8000;0.3801;0.8383;
1319.1000;0.3736;0.8265;
1319.4000;0.3753;0.8336;
1319.7000;0.3728;0.8217;
1320.0000;0.3761;0.8289;
1320.3000;0.3728;0.8265;
1320.6000;0.3728;0.8383;
1320.9000;0.3679;0.8312;
1321.2000;0.3744;0.8431;
1321.5000;0.3720;0.8265;
1321.8000;0.3712;0.8217;
1322.1000;0.3712;0.8217;
1322.4000;0.3793;0.8407;
1322.7000;0.3744;0.8312;
1323.0000;0.3785;0.8383;
1323.3000;0.3720;0.8217;
1323.6000;0.3712;0.8099;
1323.9000;0.3728;0.8170;
1324.2000;0.3720;0.8194;
1324.5000;0.3753;0.8289;
1324.8000;0.3704;0.8289;
1325.1000;0.3728;0.8312;
1325.4000;0.3728;0.8265;
1325.7000;0.3712;0.8194;
1326.0000;0.3801;0.8454;
1326.3000;0.3785;0.8336;
1326.6000;0.3728;0.8194;
1326.9000;0.3744;0.8170;
1327.2000;0.3712;0.8170;
1327.5000;0.3712;0.8146;
1327.8000;0.3728;0.8170;
1328.1000;0.3736;0.8099;
1328.4000;0.3663;0.7981;
1328.7000;0.3720;0.8004;
1329.0000;0.3736;0.7981;
1329.3000;0.3744;0.7981;
1329.6000;0.3720;0.7910;
1329.9000;0.3712;0.7981;
1330.2000;0.3728;0.8146;
1330.5000;0.3736;0.8170;
1330.8000;0.3720;0.8170;
1331.1000;0.3753;0.8265;
1331.4000;0.3728;0.8265;
1331.7000;0.3744;0.8289;
1332.0000;0.3712;0.8312;
1332.3000;0.3687;0.8241;
1332.6000;0.3736;0.8336;
1332.9000;0.3728;0.8312;
1333.2000;0.3720;0.8360;
1333.5000;0.3744;0.8360;
1333.8000;0.3744;0.8312;
1334.1000;0.3744;0.8407;
1334.4000;0.3736;0.8478;
1334.7000;0.3720;0.8454;
1335.0000;0.3712;0.8478;
1335.3000;0.3744;0.8596;
1335.6000;0.3712;0.8502;
1335.9000;0.3761;0.8573;
1336.2000;0.3720;0.8502;
1336.5000;0.3834;0.8810;
1336.8000;0.3736;0.8454;
1337.1000;0.3753;0.8525;
1337.4000;0.3736;0.8478;
1337.7000;0.3736;0.8502;
1338.0000;0.3704;0.8265;
1338.3000;0.3793;0.8407;
1338.6000;0.3769;0.8383;
1338.9000;0.3736;0.8336;
1339.2000;0.3728;0.8312;
1339.5000;0.3712;0.8194;
1339.8000;0.3679;0.8146;
1340.1000;0.3590;0.7886;
1340.4000;0.3753;0.8289;
1340.7000;0.3736;0.8312;
1341.0000;0.3679;0.8099;
1341.3000;0.3728;0.8265;
1341.6000;0.3712;0.8194;
1341.9000;0.3728;0.8289;
1342.2000;0.3736;0.8312;
1342.5000;0.3736;0.8383;
1342.8000;0.3704;0.8265;
1343.1000;0.3728;0.8336;
1343.4000;0.3728;0.8336;
1343.7000;0.3736;0.8454;
1344.0000;0.3736;0.8431;
1344.3000;0.3728;0.8407;
1344.6000;0.3736;0.8407;
1344.9000;0.3728;0.8360;
1345.2000;0.3712;0.8336;
1345.5000;0.3728;0.8407;
1345.8000;0.3736;0.8454;
1346.1000;0.3728;0.8431;
1346.4000;0.3785;0.8596;
1346.7000;0.3728;0.8478;
1347.0000;0.3736;0.8525;
1347.3000;0.3744;0.8549;
1347.6000;0.3736;0.8525;
1347.9000;0.3728;0.8478;
1348.2000;0.3614;0.8217;
1348.5000;0.3720;0.8549;
1348.8000;0.3736;0.8502;
1349.1000;0.3736;0.8454;
1349.4000;0.3736;0.8502;
1349.7000;0.3720;0.8478;
1350.0000;0.3744;0.8431;
1350.3000;0.3696;0.8336;
1350.6000;0.3720;0.8431;
1350.9000;0.3712;0.8407;
1351.2000;0.3736;0.8431;
1351.5000;0.3671;0.8265;
1351.8000;0.3736;0.8360;
1352.1000;0.3736;0.8336;
1352.4000;0.3744;0.8360;
1352.7000;0.3736;0.8336;
1353.0000;0.3728;0.8383;
1353.3000;0.3728;0.8431;
1353.6000;0.3736;0.8431;
1353.9000;0.3704;0.8383;
1354.2000;0.3744;0.8431;
1354.5000;0.3842;0.8715;
1354.8000;0.3761;0.8549;
1355.1000;0.3728;0.8525;
1355.4000;0.3728;0.8431;
1355.7000;0.3753;0.8454;
1356.0000;0.3712;0.8478;
1356.3000;0.3720;0.8502;
1356.6000;0.3720;0.8383;
1356.9000;0.3785;0.8525;
1357.2000;0.3712;0.8454;
1357.5000;0.3720;0.8502;
1357.8000;0.3736;0.8478;
1358.1000;0.3712;0.8312;
1358.4000;0.3728;0.8431;
1358.7000;0.3769;0.8525;
1359.0000;0.3720;0.8431;
1359.3000;0.3728;0.8502;
1359.6000;0.3761;0.8525;
1359.9000;0.3744;0.8383;
1360.2000;0.3655;0.8170;
1360.5000;0.3647;0.8170;
1360.8000;0.3736;0.8336;
1361.1000;0.3712;0.8383;
1361.4000;0.3744;0.8502;
1361.7000;0.3696;0.8360;
1362.0000;0.3720;0.8360;
1362.3000;0.3736;0.8431;
1362.6000;0.3736;0.8431;
1362.9000;0.3753;0.8407;
1363.2000;0.3728;0.8360;
1363.5000;0.3704;0.8383;
1363.8000;0.3736;0.8478;
1364.1000;0.3704;0.8454;
1364.4000;0.3744;0.8596;
1364.7000;0.3720;0.8525;
1365.0000;0.3753;0.8573;
1365.3000;0.3753;0.8620;
1365.6000;0.3712;0.8573;
1365.9000;0.3736;0.8478;
1366.2000;0.3720;0.8360;
1366.5000;0.3712;0.8383;
1366.8000;0.3720;0.8407;
1367.1000;0.3728;0.8383;
1367.4000;0.3712;0.8407;
1367.7000;0.3720;0.8383;
1368.0000;0.3728;0.8383;
1368.3000;0.3704;0.8407;
1368.6000;0.3728;0.8502;
1368.9000;0.3728;0.8502;
1369.2000;0.3728;0.8431;
1369.5000;0.3744;0.8525;
1369.8000;0.3769;0.8596;
1370.1000;0.3744;0.8525;
1370.4000;0.3736;0.8525;
1370.7000;0.3736;0.8502;
1371.0000;0.3728;0.8454;
1371.3000;0.3736;0.8454;
1371.6000;0.3736;0.8383;
1371.9000;0.3728;0.8336;
1372.2000;0.3622;0.8028;
1372.5000;0.3728;0.8265;
1372.8000;0.3761;0.8360;
1373.1000;0.3720;0.8241;
1373.4000;0.3712;0.8217;
1373.7000;0.3736;0.8289;
1374.0000;0.3704;0.8217;
1374.3000;0.3728;0.8241;
1374.6000;0.3761;0.8289;
1374.9000;0.3728;0.8170;
1375.2000;0.3728;0.8075;
1375.5000;0.3753;0.8123;
1375.8000;0.3696;0.8123;
1376.1000;0.3744;0.8146;
1376.4000;0.3736;0.8217;
1376.7000;0.3736;0.8241;
1377.0000;0.3728;0.8217;
1377.3000;0.3728;0.8241;
1377.6000;0.3736;0.8407;
1377.9000;0.3761;0.8478;
1378.2000;0.3712;0.8312;
1378.5000;0.3704;0.8312;
1378.8000;0.3761;0.8431;
1379.1000;0.3728;0.8289;
1379.4000;0.3777;0.8454;
1379.7000;0.3720;0.8383;
1380.0000;0.3728;0.8478;
1380.3000;0.3712;0.8407;
1380.6000;0.3728;0.8360;
1380.9000;0.3744;0.8241;
1381.2000;0.3744;0.8217;
1381.5000;0.3769;0.8336;
1381.8000;0.3744;0.8146;
1382.1000;0.3728;0.8075;
1382.4000;0.3728;0.8004;
1382.7000;0.3736;0.8004;
1383.0000;0.3753;0.8028;
1383.3000;0.3720;0.8004;
1383.6000;0.3728;0.8004;
1383.9000;0.3728;0.8052;
1384.2000;0.3655;0.7957;
1384.5000;0.3728;0.8146;
1384.8000;0.3753;0.8289;
1385.1000;0.3736;0.8265;
1385.4000;0.3712;0.8241;
1385.7000;0.3720;0.8289;
1386.0000;0.3793;0.8454;
1386.3000;0.3744;0.8336;
1386.6000;0.3720;0.8312;
1386.9000;0.3744;0.8336;
1387.2000;0.3712;0.8194;
1387.5000;0.3720;0.8217;
1387.8000;0.3720;0.8241;
1388.1000;0.3801;0.8431;
1388.4000;0.3744;0.8289;
1388.7000;0.3728;0.8241;
1389.0000;0.3753;0.8336;
1389.3000;0.3704;0.8312;
1389.6000;0.3728;0.8407;
1389.9000;0.3744;0.8431;
1390.2000;0.3744;0.8549;
1390.5000;0.3655;0.8265;
1390.8000;0.3663;0.8265;
1391.1000;0.3728;0.8383;
1391.4000;0.3777;0.8596;
1391.7000;0.3655;0.8312;
1392.0000;0.3663;0.8289;
1392.3000;0.3720;0.8478;
1392.6000;0.3728;0.8478;
1392.9000;0.3720;0.8573;
1393.2000;0.3720;0.8431;
1393.5000;0.3728;0.8525;
1393.8000;0.3647;0.8289;
1394.1000;0.3736;0.8549;
1394.4000;0.3736;0.8573;
1394.7000;0.3761;0.8525;
1395.0000;0.3736;0.8478;
1395.3000;0.3785;0.8596;
1395.6000;0.3744;0.8312;
1395.9000;0.3761;0.8170;
1396.2000;0.3736;0.8170;
1396.5000;0.3736;0.8146;
1396.8000;0.3704;0.8099;
1397.1000;0.3736;0.8217;
1397.4000;0.3687;0.8052;
1397.7000;0.3712;0.8028;
1398.0000;0.3720;0.8075;
1398.3000;0.3720;0.8028;
1398.6000;0.3728;0.8075;
1398.9000;0.3712;0.8028;
1399.2000;0.3704;0.8099;
1399.5000;0.3704;0.8170;
1399.8000;0.3720;0.8194;
