time/ms;Fluo/V;P700 deltaI/I x10³;
-199.8000;0.3850;0.7957;
-199.5000;0.3907;0.8123;
-199.2000;0.3875;0.7933;
-198.9000;0.3932;0.8099;
-198.6000;0.3923;0.8146;
-198.3000;0.3948;0.8123;
-198.0000;0.3964;0.8194;
-197.7000;0.3932;0.8194;
-197.4000;0.3956;0.8170;
-197.1000;0.3948;0.8194;
-196.8000;0.3964;0.8194;
-196.5000;0.3948;0.8075;
-196.2000;0.3956;0.8099;
-195.9000;0.3964;0.8123;
-195.6000;0.3980;0.8241;
-195.3000;0.3891;0.8028;
-195.0000;0.3956;0.8075;
-194.7000;0.3956;0.7957;
-194.4000;0.3956;0.7981;
-194.1000;0.3956;0.7981;
-193.8000;0.3891;0.7744;
-193.5000;0.3923;0.7862;
-193.2000;0.3956;0.8028;
-192.9000;0.3972;0.8028;
-192.6000;0.4086;0.8360;
-192.3000;0.3940;0.7957;
-192.0000;0.3932;0.7981;
-191.7000;0.3875;0.7815;
-191.4000;0.3972;0.8004;
-191.1000;0.3956;0.7957;
-190.8000;0.3948;0.8004;
-190.5000;0.3940;0.7981;
-190.2000;0.3940;0.7981;
-189.9000;0.3956;0.7957;
-189.6000;0.3940;0.7957;
-189.3000;0.3964;0.7981;
-189.0000;0.3932;0.7886;
-188.7000;0.3948;0.7886;
-188.4000;0.3923;0.7957;
-188.1000;0.3989;0.8170;
-187.8000;0.3907;0.8004;
-187.5000;0.3940;0.8123;
-187.2000;0.3907;0.7957;
-186.9000;0.3940;0.8028;
-186.6000;0.3964;0.8028;
-186.3000;0.3956;0.8099;
-186.0000;0.3972;0.8123;
-185.7000;0.3948;0.8052;
-185.4000;0.3956;0.8123;
-185.1000;0.3932;0.7981;
-184.8000;0.3948;0.7862;
-184.5000;0.3948;0.7957;
-184.2000;0.3915;0.7933;
-183.9000;0.3948;0.8028;
-183.6000;0.3948;0.8099;
-183.3000;0.3940;0.8123;
-183.0000;0.3940;0.8123;
-182.7000;0.3948;0.8241;
-182.4000;0.3964;0.8289;
-182.1000;0.3907;0.8241;
-181.8000;0.3956;0.8336;
-181.5000;0.3940;0.8265;
-181.2000;0.3972;0.8383;
-180.9000;0.3923;0.8241;
-180.6000;0.3940;0.8265;
-180.3000;0.3956;0.8336;
-180.0000;0.3989;0.8431;
-179.7000;0.3923;0.8454;
-179.4000;0.3989;0.8644;
-179.1000;0.3940;0.8596;
-178.8000;0.3980;0.8573;
-178.5000;0.3940;0.8478;
-178.2000;0.3948;0.8431;
-177.9000;0.3948;0.8336;
-177.6000;0.3948;0.8336;
-177.3000;0.3932;0.8336;
-177.0000;0.3850;0.8099;
-176.7000;0.3956;0.8336;
-176.4000;0.3956;0.8360;
-176.1000;0.4005;0.8454;
-175.8000;0.3940;0.8289;
-175.5000;0.3956;0.8360;
-175.2000;0.3948;0.8289;
-174.9000;0.3948;0.8241;
-174.6000;0.3948;0.8312;
-174.3000;0.3948;0.8289;
-174.0000;0.3923;0.8336;
-173.7000;0.3972;0.8478;
-173.4000;0.3932;0.8454;
-173.1000;0.3980;0.8502;
-172.8000;0.3948;0.8289;
-172.5000;0.3932;0.8289;
-172.2000;0.3956;0.8360;
-171.9000;0.3956;0.8336;
-171.6000;0.3972;0.8336;
-171.3000;0.3956;0.8383;
-171.0000;0.3940;0.8360;
-170.7000;0.3956;0.8454;
-170.4000;0.3956;0.8478;
-170.1000;0.3964;0.8525;
-169.8000;0.3948;0.8478;
-169.5000;0.3972;0.8502;
-169.2000;0.3891;0.8265;
-168.9000;0.3948;0.8431;
-168.6000;0.4005;0.8596;
-168.3000;0.3997;0.8549;
-168.0000;0.3940;0.8383;
-167.7000;0.4029;0.8525;
-167.4000;0.3989;0.8312;
-167.1000;0.3964;0.8265;
-166.8000;0.3932;0.8312;
-166.5000;0.3980;0.8431;
-166.2000;0.3956;0.8336;
-165.9000;0.3923;0.8265;
-165.6000;0.3940;0.8289;
-165.3000;0.3932;0.8289;
-165.0000;0.3940;0.8360;
-164.7000;0.3956;0.8454;
-164.4000;0.3948;0.8454;
-164.1000;0.3956;0.8312;
-163.8000;0.3964;0.8360;
-163.5000;0.3964;0.8336;
-163.2000;0.3932;0.8265;
-162.9000;0.3940;0.8146;
-162.6000;0.3932;0.8170;
-162.3000;0.3972;0.8336;
-162.0000;0.3948;0.8312;
-161.7000;0.3972;0.8336;
-161.4000;0.3956;0.8336;
-161.1000;0.3956;0.8289;
-160.8000;0.3940;0.8241;
-160.5000;0.3948;0.8241;
-160.2000;0.3956;0.8241;
-159.9000;0.3948;0.8194;
-159.6000;0.3940;0.8241;
-159.3000;0.3940;0.8146;
-159.0000;0.3948;0.8099;
-158.7000;0.3948;0.8194;
-158.4000;0.3940;0.8075;
-158.1000;0.3940;0.8075;
-157.8000;0.3932;0.8099;
-157.5000;0.3948;0.8194;
-157.2000;0.3948;0.8217;
-156.9000;0.3932;0.8217;
-156.6000;0.3964;0.8241;
-156.3000;0.3940;0.8146;
-156.0000;0.3989;0.8289;
-155.7000;0.3940;0.8170;
-155.4000;0.3940;0.8265;
-155.1000;0.3964;0.8289;
-154.8000;0.3980;0.8407;
-154.5000;0.3940;0.8265;
-154.2000;0.3932;0.8265;
-153.9000;0.3989;0.8336;
-153.6000;0.3964;0.8241;
-153.3000;0.3964;0.8241;
-153.0000;0.3940;0.8265;
-152.7000;0.3940;0.8265;
-152.4000;0.3964;0.8336;
-152.1000;0.3940;0.8336;
-151.8000;0.3923;0.8312;
-151.5000;0.3948;0.8407;
-151.2000;0.3972;0.8383;
-150.9000;0.3972;0.8312;
-150.6000;0.4029;0.8454;
-150.3000;0.3964;0.8170;
-150.0000;0.3972;0.8075;
-149.7000;0.3915;0.7862;
-149.4000;0.3964;0.8028;
-149.1000;0.3948;0.8052;
-148.8000;0.3980;0.8123;
-148.5000;0.3948;0.8146;
-148.2000;0.3980;0.8217;
-147.9000;0.3956;0.8099;
-147.6000;0.3956;0.8052;
-147.3000;0.3948;0.8075;
-147.0000;0.3972;0.8099;
-146.7000;0.3932;0.7933;
-146.4000;0.3948;0.7910;
-146.1000;0.3932;0.7933;
-145.8000;0.3964;0.8123;
-145.5000;0.3964;0.8123;
-145.2000;0.3932;0.8075;
-144.9000;0.3932;0.8028;
-144.6000;0.3940;0.8075;
-144.3000;0.3964;0.8123;
-144.0000;0.3956;0.8075;
-143.7000;0.3972;0.8146;
-143.4000;0.3956;0.8146;
-143.1000;0.3940;0.8146;
-142.8000;0.3940;0.8099;
-142.5000;0.3923;0.8052;
-142.2000;0.3964;0.8146;
-141.9000;0.3948;0.8052;
-141.6000;0.3948;0.8004;
-141.3000;0.3956;0.7957;
-141.0000;0.3940;0.7886;
-140.7000;0.3956;0.7933;
-140.4000;0.3956;0.8004;
-140.1000;0.3956;0.8028;
-139.8000;0.3940;0.8099;
-139.5000;0.3980;0.8241;
-139.2000;0.3948;0.8123;
-138.9000;0.3932;0.8004;
-138.6000;0.3948;0.8004;
-138.3000;0.3956;0.8075;
-138.0000;0.3940;0.8028;
-137.7000;0.3997;0.8146;
-137.4000;0.3956;0.8028;
-137.1000;0.3932;0.7933;
-136.8000;0.3932;0.7886;
-136.5000;0.3932;0.7957;
-136.2000;0.3915;0.7981;
-135.9000;0.3948;0.8146;
-135.6000;0.3972;0.8241;
-135.3000;0.3923;0.8146;
-135.0000;0.3940;0.8146;
-134.7000;0.3940;0.8217;
-134.4000;0.4029;0.8360;
-134.1000;0.3940;0.8075;
-133.8000;0.3915;0.7933;
-133.5000;0.3956;0.8075;
-133.2000;0.3883;0.8052;
-132.9000;0.3915;0.8075;
-132.6000;0.3932;0.8123;
-132.3000;0.3915;0.8123;
-132.0000;0.3923;0.8217;
-131.7000;0.3948;0.8289;
-131.4000;0.3940;0.8289;
-131.1000;0.3842;0.8099;
-130.8000;0.3980;0.8383;
-130.5000;0.3972;0.8360;
-130.2000;0.3940;0.8312;
-129.9000;0.3956;0.8312;
-129.6000;0.3964;0.8265;
-129.3000;0.3940;0.8217;
-129.0000;0.3940;0.8099;
-128.7000;0.3940;0.8123;
-128.4000;0.3964;0.8217;
-128.1000;0.3964;0.8241;
-127.8000;0.3932;0.8217;
-127.5000;0.3940;0.8312;
-127.2000;0.3907;0.8170;
-126.9000;0.3964;0.8146;
-126.6000;0.4005;0.8217;
-126.3000;0.3940;0.8099;
-126.0000;0.3964;0.8170;
-125.7000;0.3923;0.8123;
-125.4000;0.3932;0.8123;
-125.1000;0.3948;0.8146;
-124.8000;0.3948;0.8123;
-124.5000;0.4005;0.8265;
-124.2000;0.3980;0.8241;
-123.9000;0.3948;0.8217;
-123.6000;0.3956;0.8123;
-123.3000;0.3980;0.8194;
-123.0000;0.3867;0.7981;
-122.7000;0.3956;0.8217;
-122.4000;0.3956;0.8170;
-122.1000;0.3948;0.8170;
-121.8000;0.3940;0.8217;
-121.5000;0.3932;0.8146;
-121.2000;0.3899;0.8075;
-120.9000;0.3923;0.8099;
-120.6000;0.3956;0.8123;
-120.3000;0.4013;0.8289;
-120.0000;0.3940;0.8099;
-119.7000;0.3948;0.8170;
-119.4000;0.3932;0.8241;
-119.1000;0.3932;0.8312;
-118.8000;0.3956;0.8289;
-118.5000;0.3948;0.8265;
-118.2000;0.3948;0.8289;
-117.9000;0.3972;0.8289;
-117.6000;0.3989;0.8360;
-117.3000;0.3948;0.8383;
-117.0000;0.3932;0.8312;
-116.7000;0.3940;0.8289;
-116.4000;0.3932;0.8217;
-116.1000;0.3956;0.8336;
-115.8000;0.3940;0.8265;
-115.5000;0.3956;0.8312;
-115.2000;0.3932;0.8265;
-114.9000;0.3972;0.8241;
-114.6000;0.3964;0.8265;
-114.3000;0.3964;0.8265;
-114.0000;0.3964;0.8217;
-113.7000;0.3932;0.8099;
-113.4000;0.3956;0.8194;
-113.1000;0.3964;0.8217;
-112.8000;0.3956;0.8194;
-112.5000;0.3948;0.8170;
-112.2000;0.3923;0.8123;
-111.9000;0.3915;0.8265;
-111.6000;0.3956;0.8336;
-111.3000;0.3940;0.8289;
-111.0000;0.3940;0.8265;
-110.7000;0.3940;0.8241;
-110.4000;0.3948;0.8265;
-110.1000;0.3956;0.8241;
-109.8000;0.3915;0.8170;
-109.5000;0.3940;0.8217;
-109.2000;0.3948;0.8146;
-108.9000;0.3956;0.8194;
-108.6000;0.3940;0.8099;
-108.3000;0.3842;0.7862;
-108.0000;0.3972;0.8170;
-107.7000;0.3932;0.8123;
-107.4000;0.3932;0.8170;
-107.1000;0.3997;0.8360;
-106.8000;0.3923;0.8194;
-106.5000;0.3923;0.8217;
-106.2000;0.3980;0.8407;
-105.9000;0.3956;0.8407;
-105.6000;0.3940;0.8454;
-105.3000;0.3940;0.8431;
-105.0000;0.3948;0.8431;
-104.7000;0.3948;0.8454;
-104.4000;0.3932;0.8431;
-104.1000;0.3915;0.8360;
-103.8000;0.3956;0.8431;
-103.5000;0.3956;0.8312;
-103.2000;0.3956;0.8265;
-102.9000;0.3956;0.8289;
-102.6000;0.3956;0.8336;
-102.3000;0.3940;0.8217;
-102.0000;0.3907;0.8052;
-101.7000;0.3932;0.8004;
-101.4000;0.3972;0.8123;
-101.1000;0.3980;0.8146;
-100.8000;0.3948;0.8146;
-100.5000;0.3948;0.8052;
-100.2000;0.3948;0.8004;
-99.9000;0.3964;0.8028;
-99.6000;0.3940;0.7981;
-99.3000;0.3964;0.8170;
-99.0000;0.3940;0.8146;
-98.7000;0.3932;0.8004;
-98.4000;0.3940;0.7957;
-98.1000;0.3923;0.8004;
-97.8000;0.3932;0.8075;
-97.5000;0.3932;0.8123;
-97.2000;0.3956;0.8241;
-96.9000;0.3932;0.8336;
-96.6000;0.3891;0.8217;
-96.3000;0.3940;0.8407;
-96.0000;0.3948;0.8478;
-95.7000;0.3923;0.8336;
-95.4000;0.3932;0.8312;
-95.1000;0.3923;0.8360;
-94.8000;0.3923;0.8360;
-94.5000;0.3940;0.8312;
-94.2000;0.3948;0.8289;
-93.9000;0.3940;0.8289;
-93.6000;0.3940;0.8360;
-93.3000;0.3956;0.8407;
-93.0000;0.3940;0.8407;
-92.7000;0.3940;0.8336;
-92.4000;0.3956;0.8336;
-92.1000;0.3923;0.8265;
-91.8000;0.3964;0.8360;
-91.5000;0.3948;0.8289;
-91.2000;0.3964;0.8289;
-90.9000;0.3956;0.8336;
-90.6000;0.3948;0.8360;
-90.3000;0.3940;0.8241;
-90.0000;0.3948;0.8217;
-89.7000;0.3997;0.8383;
-89.4000;0.3980;0.8336;
-89.1000;0.3915;0.8265;
-88.8000;0.3940;0.8336;
-88.5000;0.3948;0.8360;
-88.2000;0.3948;0.8383;
-87.9000;0.3899;0.8265;
-87.6000;0.3948;0.8383;
-87.3000;0.3899;0.8383;
-87.0000;0.3940;0.8454;
-86.7000;0.3940;0.8454;
-86.4000;0.3948;0.8478;
-86.1000;0.3948;0.8360;
-85.8000;0.3940;0.8360;
-85.5000;0.3923;0.8407;
-85.2000;0.3964;0.8431;
-84.9000;0.3948;0.8336;
-84.6000;0.3948;0.8312;
-84.3000;0.3907;0.8289;
-84.0000;0.3932;0.8336;
-83.7000;0.3932;0.8360;
-83.4000;0.3956;0.8383;
-83.1000;0.3948;0.8312;
-82.8000;0.3964;0.8289;
-82.5000;0.3972;0.8407;
-82.2000;0.3948;0.8336;
-81.9000;0.3964;0.8312;
-81.6000;0.3940;0.8289;
-81.3000;0.3964;0.8383;
-81.0000;0.3956;0.8360;
-80.7000;0.3964;0.8383;
-80.4000;0.3964;0.8336;
-80.1000;0.3989;0.8407;
-79.8000;0.3956;0.8336;
-79.5000;0.3956;0.8360;
-79.2000;0.3964;0.8289;
-78.9000;0.3956;0.8336;
-78.6000;0.3964;0.8336;
-78.3000;0.3956;0.8265;
-78.0000;0.3940;0.8265;
-77.7000;0.3948;0.8289;
-77.4000;0.4005;0.8431;
-77.1000;0.3948;0.8312;
-76.8000;0.3948;0.8312;
-76.5000;0.3956;0.8336;
-76.2000;0.3907;0.8241;
-75.9000;0.3989;0.8383;
-75.6000;0.3948;0.8265;
-75.3000;0.3948;0.8146;
-75.0000;0.3915;0.8099;
-74.7000;0.3956;0.8241;
-74.4000;0.3940;0.8217;
-74.1000;0.3972;0.8431;
-73.8000;0.3923;0.8383;
-73.5000;0.3940;0.8360;
-73.2000;0.3948;0.8407;
-72.9000;0.3948;0.8336;
-72.6000;0.3923;0.8312;
-72.3000;0.3964;0.8289;
-72.0000;0.3956;0.8289;
-71.7000;0.3956;0.8312;
-71.4000;0.3923;0.8241;
-71.1000;0.3940;0.8241;
-70.8000;0.4062;0.8573;
-70.5000;0.3923;0.8312;
-70.2000;0.4021;0.8549;
-69.9000;0.3948;0.8407;
-69.6000;0.3932;0.8360;
-69.3000;0.3948;0.8407;
-69.0000;0.3932;0.8407;
-68.7000;0.3956;0.8454;
-68.4000;0.3989;0.8525;
-68.1000;0.3956;0.8407;
-67.8000;0.3972;0.8454;
-67.5000;0.3948;0.8525;
-67.2000;0.3956;0.8454;
-66.9000;0.3948;0.8549;
-66.6000;0.3940;0.8478;
-66.3000;0.4054;0.8738;
-66.0000;0.3956;0.8525;
-65.7000;0.3980;0.8596;
-65.4000;0.3956;0.8596;
-65.1000;0.3915;0.8502;
-64.8000;0.3956;0.8525;
-64.5000;0.3964;0.8478;
-64.2000;0.3923;0.8407;
-63.9000;0.3956;0.8407;
-63.6000;0.3923;0.8289;
-63.3000;0.3899;0.8289;
-63.0000;0.3940;0.8336;
-62.7000;0.3940;0.8289;
-62.4000;0.3940;0.8241;
-62.1000;0.3997;0.8407;
-61.8000;0.3940;0.8289;
-61.5000;0.3923;0.8312;
-61.2000;0.3899;0.8170;
-60.9000;0.3948;0.8265;
-60.6000;0.3956;0.8312;
-60.3000;0.3940;0.8312;
-60.0000;0.3932;0.8289;
-59.7000;0.3923;0.8217;
-59.4000;0.3940;0.8289;
-59.1000;0.3980;0.8407;
-58.8000;0.3956;0.8312;
-58.5000;0.3972;0.8289;
-58.2000;0.3923;0.8241;
-57.9000;0.3964;0.8407;
-57.6000;0.3956;0.8336;
-57.3000;0.3940;0.8312;
-57.0000;0.3948;0.8360;
-56.7000;0.3948;0.8407;
-56.4000;0.3915;0.8360;
-56.1000;0.3932;0.8360;
-55.8000;0.3940;0.8312;
-55.5000;0.3940;0.8336;
-55.2000;0.3940;0.8312;
-54.9000;0.3948;0.8383;
-54.6000;0.3932;0.8336;
-54.3000;0.3923;0.8336;
-54.0000;0.3923;0.8312;
-53.7000;0.3948;0.8360;
-53.4000;0.3948;0.8312;
-53.1000;0.3891;0.8217;
-52.8000;0.3997;0.8454;
-52.5000;0.3940;0.8336;
-52.2000;0.3883;0.8170;
-51.9000;0.3948;0.8265;
-51.6000;0.3940;0.8265;
-51.3000;0.3948;0.8194;
-51.0000;0.3940;0.8075;
-50.7000;0.3940;0.8075;
-50.4000;0.3915;0.8123;
-50.1000;0.4005;0.8383;
-49.8000;0.3923;0.8123;
-49.5000;0.3940;0.8241;
-49.2000;0.3932;0.8241;
-48.9000;0.3875;0.8123;
-48.6000;0.3932;0.8217;
-48.3000;0.3940;0.8194;
-48.0000;0.3940;0.8170;
-47.7000;0.3940;0.8170;
-47.4000;0.3940;0.8194;
-47.1000;0.3956;0.8194;
-46.8000;0.3989;0.8241;
-46.5000;0.3940;0.8194;
-46.2000;0.3948;0.8265;
-45.9000;0.3964;0.8265;
-45.6000;0.3932;0.8265;
-45.3000;0.3940;0.8265;
-45.0000;0.3948;0.8336;
-44.7000;0.3923;0.8170;
-44.4000;0.3948;0.8146;
-44.1000;0.3980;0.8312;
-43.8000;0.3964;0.8383;
-43.5000;0.3989;0.8454;
-43.2000;0.3932;0.8312;
-42.9000;0.3956;0.8312;
-42.6000;0.3932;0.8312;
-42.3000;0.3940;0.8312;
-42.0000;0.3948;0.8241;
-41.7000;0.4005;0.8360;
-41.4000;0.4005;0.8289;
-41.1000;0.3964;0.8360;
-40.8000;0.3948;0.8265;
-40.5000;0.3989;0.8360;
-40.2000;0.3956;0.8289;
-39.9000;0.3923;0.8194;
-39.6000;0.3932;0.8312;
-39.3000;0.3883;0.8241;
-39.0000;0.3948;0.8502;
-38.7000;0.3923;0.8454;
-38.4000;0.3923;0.8407;
-38.1000;0.4021;0.8691;
-37.8000;0.3891;0.8336;
-37.5000;0.3932;0.8454;
-37.2000;0.3883;0.8360;
-36.9000;0.3940;0.8478;
-36.6000;0.4005;0.8667;
-36.3000;0.3964;0.8478;
-36.0000;0.3932;0.8454;
-35.7000;0.3940;0.8478;
-35.4000;0.3940;0.8502;
-35.1000;0.3948;0.8596;
-34.8000;0.3867;0.8312;
-34.5000;0.3940;0.8431;
-34.2000;0.3923;0.8265;
-33.9000;0.3923;0.8194;
-33.6000;0.3956;0.8170;
-33.3000;0.3932;0.8075;
-33.0000;0.3956;0.8194;
-32.7000;0.3948;0.8241;
-32.4000;0.3948;0.8241;
-32.1000;0.3940;0.8265;
-31.8000;0.3956;0.8336;
-31.5000;0.3940;0.8241;
-31.2000;0.3972;0.8217;
-30.9000;0.3972;0.8217;
-30.6000;0.3948;0.8170;
-30.3000;0.3842;0.7981;
-30.0000;0.3964;0.8265;
-29.7000;0.3964;0.8241;
-29.4000;0.3915;0.8170;
-29.1000;0.3940;0.8241;
-28.8000;0.3923;0.8241;
-28.5000;0.3932;0.8265;
-28.2000;0.3915;0.8289;
-27.9000;0.3948;0.8360;
-27.6000;0.3940;0.8336;
-27.3000;0.3932;0.8312;
-27.0000;0.3940;0.8383;
-26.7000;0.3923;0.8360;
-26.4000;0.3940;0.8360;
-26.1000;0.3956;0.8383;
-25.8000;0.3972;0.8478;
-25.5000;0.3932;0.8431;
-25.2000;0.3940;0.8431;
-24.9000;0.3923;0.8454;
-24.6000;0.3915;0.8383;
-24.3000;0.3964;0.8383;
-24.0000;0.3932;0.8217;
-23.7000;0.3956;0.8241;
-23.4000;0.3980;0.8360;
-23.1000;0.3956;0.8336;
-22.8000;0.3932;0.8265;
-22.5000;0.3932;0.8312;
-22.2000;0.3989;0.8383;
-21.9000;0.3972;0.8431;
-21.6000;0.3948;0.8289;
-21.3000;0.3964;0.8336;
-21.0000;0.3875;0.8194;
-20.7000;0.4005;0.8525;
-20.4000;0.3964;0.8383;
-20.1000;0.3956;0.8289;
-19.8000;0.3948;0.8265;
-19.5000;0.3964;0.8265;
-19.2000;0.3923;0.8265;
-18.9000;0.3932;0.8265;
-18.6000;0.3940;0.8217;
-18.3000;0.3940;0.8289;
-18.0000;0.3932;0.8217;
-17.7000;0.3940;0.8241;
-17.4000;0.4005;0.8407;
-17.1000;0.3940;0.8170;
-16.8000;0.3948;0.8194;
-16.5000;0.3964;0.8241;
-16.2000;0.3883;0.8004;
-15.9000;0.3956;0.8170;
-15.6000;0.3940;0.8241;
-15.3000;0.3940;0.8194;
-15.0000;0.3940;0.8099;
-14.7000;0.3940;0.8217;
-14.4000;0.3923;0.8360;
-14.1000;0.3932;0.8312;
-13.8000;0.3932;0.8360;
-13.5000;0.3907;0.8289;
-13.2000;0.3940;0.8431;
-12.9000;0.3956;0.8431;
-12.6000;0.3948;0.8265;
-12.3000;0.3940;0.8217;
-12.0000;0.3964;0.8312;
-11.7000;0.3940;0.8383;
-11.4000;0.3932;0.8431;
-11.1000;0.3964;0.8478;
-10.8000;0.3956;0.8502;
-10.5000;0.3932;0.8454;
-10.2000;0.3964;0.8478;
-9.9000;0.3948;0.8407;
-9.6000;0.3956;0.8502;
-9.3000;0.3940;0.8549;
-9.0000;0.3875;0.8407;
-8.7000;0.3948;0.8549;
-8.4000;0.3956;0.8620;
-8.1000;0.3948;0.8549;
-7.8000;0.3948;0.8478;
-7.5000;0.3972;0.8573;
-7.2000;0.3932;0.8478;
-6.9000;0.3932;0.8454;
-6.6000;0.3972;0.8549;
-6.3000;0.3923;0.8431;
-6.0000;0.3923;0.8407;
-5.7000;0.3956;0.8573;
-5.4000;0.3972;0.8620;
-5.1000;0.3907;0.8525;
-4.8000;0.3956;0.8573;
-4.5000;0.3940;0.8525;
-4.2000;0.3932;0.8549;
-3.9000;0.3940;0.8573;
-3.6000;0.3948;0.8431;
-3.3000;0.3923;0.8360;
-3.0000;0.3932;0.8312;
-2.7000;0.3956;0.8312;
-2.4000;0.3956;0.8289;
-2.1000;0.3923;0.8289;
-1.8000;0.3940;0.8431;
-1.5000;0.3940;0.8431;
-1.2000;0.3923;0.8383;
-0.9000;0.3940;0.8407;
-0.6000;0.3948;0.8407;
-0.3000;0.3956;0.8383;
0.0000;0.3956;0.8383;
0.3000;0.4029;0.8312;
0.6000;0.4241;0.8502;
0.9000;0.4436;0.8715;
1.2000;0.4575;0.8810;
1.5000;0.4615;0.8786;
1.8000;0.4713;0.8881;
2.1000;0.4762;0.8881;
2.4000;0.4794;0.8999;
2.7000;0.4827;0.9165;
3.0000;0.4843;0.9236;
3.3000;0.4876;0.9283;
3.6000;0.4900;0.9402;
3.9000;0.4900;0.9473;
4.2000;0.4925;0.9591;
4.5000;0.4941;0.9615;
4.8000;0.4965;0.9662;
5.1000;0.4941;0.9591;
5.4000;0.4965;0.9780;
5.7000;0.4941;0.9709;
6.0000;0.4990;0.9828;
6.3000;0.4998;0.9780;
6.6000;0.4998;0.9852;
6.9000;0.5055;0.9946;
7.2000;0.4998;0.9804;
7.5000;0.5031;0.9804;
7.8000;0.5006;0.9757;
8.1000;0.5031;0.9780;
8.4000;0.4982;0.9686;
8.7000;0.5063;0.9780;
9.0000;0.5055;0.9733;
9.3000;0.5055;0.9709;
9.6000;0.5071;0.9757;
9.9000;0.5079;0.9804;
10.2000;0.5088;0.9733;
10.5000;0.5096;0.9615;
10.8000;0.5071;0.9638;
11.1000;0.5071;0.9662;
11.4000;0.5120;0.9780;
11.7000;0.5185;0.9828;
12.0000;0.5144;0.9686;
12.3000;0.5144;0.9709;
12.6000;0.5144;0.9662;
12.9000;0.5161;0.9686;
13.2000;0.5153;0.9638;
13.5000;0.5185;0.9709;
13.8000;0.5193;0.9709;
14.1000;0.5185;0.9709;
14.4000;0.5185;0.9709;
14.7000;0.5218;0.9638;
15.0000;0.5201;0.9544;
15.3000;0.5201;0.9496;
15.6000;0.5177;0.9449;
15.9000;0.5242;0.9615;
16.2000;0.5201;0.9544;
16.5000;0.5201;0.9567;
16.8000;0.5226;0.9591;
17.1000;0.5218;0.9496;
17.4000;0.5210;0.9449;
17.7000;0.5267;0.9425;
18.0000;0.5250;0.9425;
18.3000;0.5242;0.9449;
18.6000;0.5258;0.9473;
18.9000;0.5267;0.9473;
19.2000;0.5267;0.9449;
19.5000;0.5275;0.9425;
19.8000;0.5283;0.9425;
20.1000;0.5258;0.9331;
20.4000;0.5267;0.9307;
20.7000;0.5283;0.9425;
21.0000;0.5348;0.9496;
21.3000;0.5315;0.9307;
21.6000;0.5307;0.9283;
21.9000;0.5299;0.9331;
22.2000;0.5299;0.9331;
22.5000;0.5307;0.9402;
22.8000;0.5340;0.9425;
23.1000;0.5291;0.9307;
23.4000;0.5340;0.9496;
23.7000;0.5348;0.9473;
24.0000;0.5315;0.9449;
24.3000;0.5364;0.9591;
24.6000;0.5340;0.9544;
24.9000;0.5356;0.9544;
25.2000;0.5372;0.9615;
25.5000;0.5332;0.9449;
25.8000;0.5356;0.9496;
26.1000;0.5397;0.9520;
26.4000;0.5372;0.9449;
26.7000;0.5372;0.9425;
27.0000;0.5389;0.9402;
27.3000;0.5381;0.9496;
27.6000;0.5389;0.9473;
27.9000;0.5397;0.9496;
28.2000;0.5405;0.9449;
28.5000;0.5405;0.9449;
28.8000;0.5429;0.9449;
29.1000;0.5413;0.9425;
29.4000;0.5429;0.9473;
29.7000;0.5429;0.9496;
30.0000;0.5429;0.9544;
30.3000;0.5405;0.9567;
30.6000;0.5413;0.9567;
30.9000;0.5372;0.9449;
31.2000;0.5486;0.9662;
31.5000;0.5429;0.9496;
31.8000;0.5478;0.9615;
32.1000;0.5413;0.9378;
32.4000;0.5454;0.9473;
32.7000;0.5511;0.9591;
33.0000;0.5446;0.9425;
33.3000;0.5381;0.9354;
33.6000;0.5462;0.9425;
33.9000;0.5462;0.9378;
34.2000;0.5446;0.9236;
34.5000;0.5470;0.9259;
34.8000;0.5446;0.9283;
35.1000;0.5470;0.9354;
35.4000;0.5462;0.9402;
35.7000;0.5470;0.9354;
36.0000;0.5462;0.9425;
36.3000;0.5470;0.9402;
36.6000;0.5470;0.9378;
36.9000;0.5478;0.9425;
37.2000;0.5478;0.9449;
37.5000;0.5462;0.9449;
37.8000;0.5503;0.9496;
38.1000;0.5478;0.9425;
38.4000;0.5486;0.9354;
38.7000;0.5454;0.9212;
39.0000;0.5478;0.9283;
39.3000;0.5511;0.9402;
39.6000;0.5478;0.9307;
39.9000;0.5478;0.9354;
40.2000;0.5511;0.9449;
40.5000;0.5495;0.9402;
40.8000;0.5503;0.9425;
41.1000;0.5495;0.9378;
41.4000;0.5511;0.9331;
41.7000;0.5495;0.9307;
42.0000;0.5511;0.9378;
42.3000;0.5438;0.9259;
42.6000;0.5511;0.9402;
42.9000;0.5495;0.9378;
43.2000;0.5495;0.9378;
43.5000;0.5503;0.9402;
43.8000;0.5503;0.9425;
44.1000;0.5503;0.9354;
44.4000;0.5543;0.9425;
44.7000;0.5535;0.9425;
45.0000;0.5535;0.9449;
45.3000;0.5543;0.9496;
45.6000;0.5543;0.9449;
45.9000;0.5543;0.9402;
46.2000;0.5543;0.9425;
46.5000;0.5527;0.9425;
46.8000;0.5543;0.9402;
47.1000;0.5600;0.9520;
47.4000;0.5519;0.9283;
47.7000;0.5543;0.9354;
48.0000;0.5551;0.9378;
48.3000;0.5535;0.9378;
48.6000;0.5551;0.9354;
48.9000;0.5543;0.9425;
49.2000;0.5535;0.9378;
49.5000;0.5560;0.9449;
49.8000;0.5551;0.9378;
50.1000;0.5551;0.9331;
50.4000;0.5527;0.9283;
50.7000;0.5608;0.9425;
51.0000;0.5568;0.9307;
51.3000;0.5592;0.9378;
51.6000;0.5568;0.9331;
51.9000;0.5560;0.9259;
52.2000;0.5560;0.9307;
52.5000;0.5495;0.9188;
52.8000;0.5527;0.9283;
53.1000;0.5584;0.9473;
53.4000;0.5584;0.9662;
53.7000;0.5584;0.9686;
54.0000;0.5568;0.9567;
54.3000;0.5568;0.9591;
54.6000;0.5584;0.9686;
54.9000;0.5568;0.9686;
55.2000;0.5584;0.9733;
55.5000;0.5584;0.9615;
55.8000;0.5584;0.9662;
56.1000;0.5584;0.9591;
56.4000;0.5560;0.9520;
56.7000;0.5568;0.9520;
57.0000;0.5576;0.9496;
57.3000;0.5592;0.9496;
57.6000;0.5576;0.9402;
57.9000;0.5576;0.9425;
58.2000;0.5576;0.9402;
58.5000;0.5576;0.9473;
58.8000;0.5576;0.9567;
59.1000;0.5560;0.9520;
59.4000;0.5584;0.9567;
59.7000;0.5600;0.9591;
60.0000;0.5584;0.9662;
60.3000;0.5592;0.9615;
60.6000;0.5608;0.9638;
60.9000;0.5600;0.9638;
61.2000;0.5592;0.9544;
61.5000;0.5592;0.9520;
61.8000;0.5600;0.9425;
62.1000;0.5576;0.9354;
62.4000;0.5600;0.9544;
62.7000;0.5543;0.9402;
63.0000;0.5519;0.9496;
63.3000;0.5592;0.9757;
63.6000;0.5535;0.9638;
63.9000;0.5608;0.9686;
64.2000;0.5608;0.9615;
64.5000;0.5600;0.9473;
64.8000;0.5682;0.9686;
65.1000;0.5633;0.9615;
65.4000;0.5625;0.9591;
65.7000;0.5617;0.9615;
66.0000;0.5576;0.9638;
66.3000;0.5576;0.9662;
66.6000;0.5608;0.9638;
66.9000;0.5625;0.9686;
67.2000;0.5617;0.9638;
67.5000;0.5584;0.9544;
67.8000;0.5625;0.9638;
68.1000;0.5608;0.9591;
68.4000;0.5633;0.9615;
68.7000;0.5617;0.9567;
69.0000;0.5592;0.9591;
69.3000;0.5633;0.9733;
69.6000;0.5617;0.9733;
69.9000;0.5641;0.9709;
70.2000;0.5633;0.9544;
70.5000;0.5641;0.9662;
70.8000;0.5625;0.9638;
71.1000;0.5682;0.9804;
71.4000;0.5657;0.9662;
71.7000;0.5617;0.9662;
72.0000;0.5633;0.9638;
72.3000;0.5584;0.9638;
72.6000;0.5641;0.9709;
72.9000;0.5633;0.9686;
73.2000;0.5568;0.9496;
73.5000;0.5625;0.9686;
73.8000;0.5633;0.9709;
74.1000;0.5617;0.9686;
74.4000;0.5657;0.9733;
74.7000;0.5600;0.9686;
75.0000;0.5641;0.9757;
75.3000;0.5617;0.9567;
75.6000;0.5625;0.9638;
75.9000;0.5617;0.9662;
76.2000;0.5633;0.9638;
76.5000;0.5625;0.9662;
76.8000;0.5576;0.9591;
77.1000;0.5625;0.9757;
77.4000;0.5633;0.9733;
77.7000;0.5641;0.9780;
78.0000;0.5641;0.9733;
78.3000;0.5625;0.9733;
78.6000;0.5641;0.9804;
78.9000;0.5649;0.9804;
79.2000;0.5649;0.9757;
79.5000;0.5625;0.9757;
79.8000;0.5674;0.9923;
80.1000;0.5600;0.9780;
80.4000;0.5617;0.9804;
80.7000;0.5625;0.9828;
81.0000;0.5649;0.9828;
81.3000;0.5641;0.9733;
81.6000;0.5641;0.9757;
81.9000;0.5608;0.9662;
82.2000;0.5584;0.9567;
82.5000;0.5641;0.9686;
82.8000;0.5698;0.9804;
83.1000;0.5617;0.9615;
83.4000;0.5633;0.9662;
83.7000;0.5649;0.9638;
84.0000;0.5641;0.9615;
84.3000;0.5649;0.9638;
84.6000;0.5617;0.9567;
84.9000;0.5625;0.9591;
85.2000;0.5584;0.9496;
85.5000;0.5641;0.9686;
85.8000;0.5633;0.9615;
86.1000;0.5633;0.9520;
86.4000;0.5633;0.9473;
86.7000;0.5560;0.9283;
87.0000;0.5674;0.9496;
87.3000;0.5633;0.9473;
87.6000;0.5682;0.9591;
87.9000;0.5617;0.9425;
88.2000;0.5633;0.9520;
88.5000;0.5617;0.9449;
88.8000;0.5584;0.9283;
89.1000;0.5625;0.9520;
89.4000;0.5625;0.9496;
89.7000;0.5731;0.9780;
90.0000;0.5625;0.9544;
90.3000;0.5649;0.9591;
90.6000;0.5641;0.9544;
90.9000;0.5633;0.9615;
91.2000;0.5690;0.9780;
91.5000;0.5633;0.9615;
91.8000;0.5657;0.9591;
92.1000;0.5649;0.9615;
92.4000;0.5625;0.9615;
92.7000;0.5633;0.9615;
93.0000;0.5649;0.9757;
93.3000;0.5657;0.9780;
93.6000;0.5657;0.9828;
93.9000;0.5617;0.9733;
94.2000;0.5641;0.9686;
94.5000;0.5633;0.9686;
94.8000;0.5633;0.9686;
95.1000;0.5608;0.9544;
95.4000;0.5633;0.9591;
95.7000;0.5641;0.9662;
96.0000;0.5617;0.9638;
96.3000;0.5649;0.9615;
96.6000;0.5665;0.9638;
96.9000;0.5665;0.9662;
97.2000;0.5641;0.9615;
97.5000;0.5641;0.9615;
97.8000;0.5625;0.9638;
98.1000;0.5674;0.9804;
98.4000;0.5641;0.9709;
98.7000;0.5641;0.9662;
99.0000;0.5674;0.9780;
99.3000;0.5665;0.9804;
99.6000;0.5674;0.9780;
99.9000;0.5657;0.9828;
100.2000;0.5641;0.9780;
100.5000;0.5657;0.9875;
100.8000;0.5657;0.9899;
101.1000;0.5641;0.9828;
101.4000;0.5641;0.9804;
101.7000;0.5657;0.9780;
102.0000;0.5633;0.9709;
102.3000;0.5641;0.9709;
102.6000;0.5625;0.9567;
102.9000;0.5608;0.9402;
103.2000;0.5657;0.9544;
103.5000;0.5641;0.9591;
103.8000;0.5690;0.9780;
104.1000;0.5649;0.9686;
104.4000;0.5543;0.9354;
104.7000;0.5657;0.9638;
105.0000;0.5657;0.9591;
105.3000;0.5641;0.9638;
105.6000;0.5657;0.9780;
105.9000;0.5641;0.9662;
106.2000;0.5657;0.9615;
106.5000;0.5649;0.9591;
106.8000;0.5665;0.9591;
107.1000;0.5665;0.9615;
107.4000;0.5657;0.9615;
107.7000;0.5665;0.9615;
108.0000;0.5657;0.9591;
108.3000;0.5657;0.9662;
108.6000;0.5674;0.9733;
108.9000;0.5674;0.9757;
109.2000;0.5674;0.9757;
109.5000;0.5698;0.9804;
109.8000;0.5657;0.9709;
110.1000;0.5657;0.9709;
110.4000;0.5657;0.9709;
110.7000;0.5641;0.9662;
111.0000;0.5674;0.9686;
111.3000;0.5649;0.9615;
111.6000;0.5617;0.9544;
111.9000;0.5649;0.9615;
112.2000;0.5657;0.9686;
112.5000;0.5690;0.9733;
112.8000;0.5641;0.9662;
113.1000;0.5641;0.9709;
113.4000;0.5657;0.9757;
113.7000;0.5649;0.9733;
114.0000;0.5641;0.9804;
114.3000;0.5649;0.9852;
114.6000;0.5641;0.9899;
114.9000;0.5682;0.9994;
115.2000;0.5625;0.9946;
115.5000;0.5649;0.9923;
115.8000;0.5649;0.9946;
116.1000;0.5665;0.9994;
116.4000;0.5649;0.9970;
116.7000;0.5641;0.9994;
117.0000;0.5657;1.0041;
117.3000;0.5625;1.0017;
117.6000;0.5633;1.0017;
117.9000;0.5665;1.0017;
118.2000;0.5617;0.9828;
118.5000;0.5657;0.9946;
118.8000;0.5665;0.9994;
119.1000;0.5674;0.9994;
119.4000;0.5649;1.0041;
119.7000;0.5674;1.0041;
120.0000;0.5649;0.9970;
120.3000;0.5657;1.0017;
120.6000;0.5649;0.9970;
120.9000;0.5649;0.9970;
121.2000;0.5665;1.0065;
121.5000;0.5641;1.0017;
121.8000;0.5657;1.0088;
122.1000;0.5714;1.0183;
122.4000;0.5665;0.9899;
122.7000;0.5633;0.9757;
123.0000;0.5649;0.9733;
123.3000;0.5665;0.9780;
123.6000;0.5665;0.9875;
123.9000;0.5641;0.9804;
124.2000;0.5674;0.9875;
124.5000;0.5657;0.9852;
124.8000;0.5617;0.9899;
125.1000;0.5641;0.9923;
125.4000;0.5714;1.0136;
125.7000;0.5641;0.9970;
126.0000;0.5665;1.0041;
126.3000;0.5649;0.9970;
126.6000;0.5657;0.9946;
126.9000;0.5617;0.9875;
127.2000;0.5600;0.9923;
127.5000;0.5657;0.9994;
127.8000;0.5657;1.0017;
128.1000;0.5665;0.9923;
128.4000;0.5665;0.9946;
128.7000;0.5625;0.9875;
129.0000;0.5674;0.9923;
129.3000;0.5657;0.9852;
129.6000;0.5641;0.9899;
129.9000;0.5657;0.9923;
130.2000;0.5657;0.9828;
130.5000;0.5657;0.9828;
130.8000;0.5649;0.9757;
131.1000;0.5657;0.9780;
131.4000;0.5657;0.9852;
131.7000;0.5649;0.9780;
132.0000;0.5682;0.9875;
132.3000;0.5657;0.9780;
132.6000;0.5657;0.9804;
132.9000;0.5674;0.9852;
133.2000;0.5608;0.9686;
133.5000;0.5649;0.9780;
133.8000;0.5682;0.9852;
134.1000;0.5625;0.9733;
134.4000;0.5641;0.9757;
134.7000;0.5641;0.9804;
135.0000;0.5625;0.9780;
135.3000;0.5665;0.9828;
135.6000;0.5657;0.9780;
135.9000;0.5641;0.9757;
136.2000;0.5657;0.9804;
136.5000;0.5657;0.9733;
136.8000;0.5649;0.9662;
137.1000;0.5649;0.9591;
137.4000;0.5657;0.9662;
137.7000;0.5641;0.9591;
138.0000;0.5674;0.9662;
138.3000;0.5674;0.9757;
138.6000;0.5665;0.9780;
138.9000;0.5665;0.9733;
139.2000;0.5690;0.9828;
139.5000;0.5649;0.9804;
139.8000;0.5657;0.9804;
140.1000;0.5665;0.9875;
140.4000;0.5657;0.9923;
140.7000;0.5665;0.9970;
141.0000;0.5657;0.9970;
141.3000;0.5665;1.0088;
141.6000;0.5649;1.0088;
141.9000;0.5641;1.0041;
142.2000;0.5674;1.0041;
142.5000;0.5665;1.0017;
142.8000;0.5690;1.0088;
143.1000;0.5617;1.0017;
143.4000;0.5633;1.0065;
143.7000;0.5674;1.0136;
144.0000;0.5665;1.0065;
144.3000;0.5682;1.0065;
144.6000;0.5649;1.0017;
144.9000;0.5665;0.9899;
145.2000;0.5608;0.9662;
145.5000;0.5649;0.9804;
145.8000;0.5665;0.9804;
146.1000;0.5657;0.9780;
146.4000;0.5641;0.9733;
146.7000;0.5584;0.9591;
147.0000;0.5625;0.9615;
147.3000;0.5657;0.9686;
147.6000;0.5665;0.9662;
147.9000;0.5600;0.9615;
148.2000;0.5649;0.9662;
148.5000;0.5665;0.9686;
148.8000;0.5690;0.9733;
149.1000;0.5633;0.9638;
149.4000;0.5641;0.9686;
149.7000;0.5633;0.9591;
150.0000;0.5641;0.9662;
150.3000;0.5804;0.9994;
150.6000;0.5657;0.9615;
150.9000;0.5649;0.9591;
151.2000;0.5625;0.9567;
151.5000;0.5657;0.9638;
151.8000;0.5665;0.9662;
152.1000;0.5665;0.9733;
152.4000;0.5649;0.9662;
152.7000;0.5682;0.9804;
153.0000;0.5657;0.9804;
153.3000;0.5674;0.9780;
153.6000;0.5665;0.9686;
153.9000;0.5682;0.9709;
154.2000;0.5657;0.9686;
154.5000;0.5665;0.9686;
154.8000;0.5665;0.9709;
155.1000;0.5690;0.9757;
155.4000;0.5690;0.9709;
155.7000;0.5665;0.9591;
156.0000;0.5665;0.9591;
156.3000;0.5665;0.9638;
156.6000;0.5698;0.9757;
156.9000;0.5674;0.9733;
157.2000;0.5665;0.9757;
157.5000;0.5649;0.9686;
157.8000;0.5641;0.9662;
158.1000;0.5682;0.9757;
158.4000;0.5665;0.9804;
158.7000;0.5682;0.9804;
159.0000;0.5690;0.9804;
159.3000;0.5657;0.9757;
159.6000;0.5665;0.9662;
159.9000;0.5674;0.9662;
160.2000;0.5657;0.9733;
160.5000;0.5649;0.9780;
160.8000;0.5665;0.9733;
161.1000;0.5665;0.9733;
161.4000;0.5649;0.9638;
161.7000;0.5665;0.9709;
162.0000;0.5657;0.9662;
162.3000;0.5649;0.9757;
162.6000;0.5657;0.9828;
162.9000;0.5665;0.9852;
163.2000;0.5649;0.9780;
163.5000;0.5665;0.9875;
163.8000;0.5649;0.9852;
164.1000;0.5665;0.9852;
164.4000;0.5665;0.9899;
164.7000;0.5690;0.9946;
165.0000;0.5657;0.9852;
165.3000;0.5657;0.9875;
165.6000;0.5665;0.9899;
165.9000;0.5649;0.9828;
166.2000;0.5657;0.9733;
166.5000;0.5665;0.9780;
166.8000;0.5665;0.9804;
167.1000;0.5625;0.9828;
167.4000;0.5649;0.9828;
167.7000;0.5641;0.9899;
168.0000;0.5657;0.9994;
168.3000;0.5665;0.9946;
168.6000;0.5722;1.0017;
168.9000;0.5657;0.9899;
169.2000;0.5665;0.9946;
169.5000;0.5657;0.9946;
169.8000;0.5592;0.9828;
170.1000;0.5674;1.0065;
170.4000;0.5657;1.0088;
170.7000;0.5625;0.9923;
171.0000;0.5649;0.9994;
171.3000;0.5657;1.0041;
171.6000;0.5649;0.9994;
171.9000;0.5649;0.9899;
172.2000;0.5657;0.9852;
172.5000;0.5657;0.9852;
172.8000;0.5641;0.9709;
173.1000;0.5649;0.9615;
173.4000;0.5657;0.9662;
173.7000;0.5657;0.9662;
174.0000;0.5649;0.9638;
174.3000;0.5592;0.9496;
174.6000;0.5674;0.9757;
174.9000;0.5657;0.9686;
175.2000;0.5657;0.9709;
175.5000;0.5657;0.9591;
175.8000;0.5657;0.9638;
176.1000;0.5698;0.9804;
176.4000;0.5657;0.9804;
176.7000;0.5649;0.9733;
177.0000;0.5665;0.9733;
177.3000;0.5665;0.9709;
177.6000;0.5649;0.9709;
177.9000;0.5674;0.9757;
178.2000;0.5665;0.9757;
178.5000;0.5698;0.9828;
178.8000;0.5657;0.9709;
179.1000;0.5665;0.9686;
179.4000;0.5649;0.9638;
179.7000;0.5657;0.9615;
180.0000;0.5649;0.9615;
180.3000;0.5657;0.9567;
180.6000;0.5649;0.9544;
180.9000;0.5665;0.9520;
181.2000;0.5625;0.9354;
181.5000;0.5690;0.9473;
181.8000;0.5641;0.9402;
182.1000;0.5657;0.9425;
182.4000;0.5657;0.9402;
182.7000;0.5568;0.9165;
183.0000;0.5625;0.9425;
183.3000;0.5657;0.9496;
183.6000;0.5665;0.9615;
183.9000;0.5665;0.9709;
184.2000;0.5641;0.9686;
184.5000;0.5657;0.9686;
184.8000;0.5674;0.9780;
185.1000;0.5649;0.9757;
185.4000;0.5657;0.9662;
185.7000;0.5657;0.9638;
186.0000;0.5649;0.9591;
186.3000;0.5674;0.9615;
186.6000;0.5649;0.9662;
186.9000;0.5657;0.9757;
187.2000;0.5649;0.9662;
187.5000;0.5657;0.9709;
187.8000;0.5665;0.9852;
188.1000;0.5682;0.9875;
188.4000;0.5665;0.9780;
188.7000;0.5665;0.9804;
189.0000;0.5674;0.9804;
189.3000;0.5657;0.9662;
189.6000;0.5649;0.9709;
189.9000;0.5674;0.9686;
190.2000;0.5682;0.9638;
190.5000;0.5649;0.9567;
190.8000;0.5674;0.9615;
191.1000;0.5674;0.9544;
191.4000;0.5682;0.9567;
191.7000;0.5665;0.9496;
192.0000;0.5657;0.9425;
192.3000;0.5625;0.9449;
192.6000;0.5706;0.9662;
192.9000;0.5665;0.9638;
193.2000;0.5649;0.9520;
193.5000;0.5657;0.9567;
193.8000;0.5665;0.9567;
194.1000;0.5747;0.9709;
194.4000;0.5682;0.9615;
194.7000;0.5682;0.9638;
195.0000;0.5690;0.9615;
195.3000;0.5649;0.9449;
195.6000;0.5682;0.9591;
195.9000;0.5788;0.9875;
196.2000;0.5682;0.9591;
196.5000;0.5665;0.9615;
196.8000;0.5674;0.9591;
197.1000;0.5665;0.9638;
197.4000;0.5600;0.9496;
197.7000;0.5657;0.9733;
198.0000;0.5674;0.9638;
198.3000;0.5657;0.9544;
198.6000;0.5657;0.9520;
198.9000;0.5600;0.9378;
199.2000;0.5657;0.9544;
199.5000;0.5674;0.9662;
199.8000;0.5674;0.9638;
200.1000;0.5674;0.9733;
200.4000;0.5674;0.9709;
200.7000;0.5633;0.9615;
201.0000;0.5682;0.9804;
201.3000;0.5674;0.9780;
201.6000;0.5682;0.9828;
201.9000;0.5657;0.9804;
202.2000;0.5649;0.9780;
202.5000;0.5665;0.9804;
202.8000;0.5674;0.9638;
203.1000;0.5690;0.9686;
203.4000;0.5641;0.9615;
203.7000;0.5674;0.9662;
204.0000;0.5674;0.9686;
204.3000;0.5674;0.9757;
204.6000;0.5731;0.9828;
204.9000;0.5608;0.9591;
205.2000;0.5682;0.9780;
205.5000;0.5657;0.9804;
205.8000;0.5657;0.9757;
206.1000;0.5641;0.9733;
206.4000;0.5665;0.9733;
206.7000;0.5674;0.9757;
207.0000;0.5665;0.9757;
207.3000;0.5665;0.9780;
207.6000;0.5682;0.9757;
207.9000;0.5690;0.9662;
208.2000;0.5690;0.9638;
208.5000;0.5657;0.9591;
208.8000;0.5641;0.9520;
209.1000;0.5674;0.9591;
209.4000;0.5674;0.9591;
209.7000;0.5600;0.9307;
210.0000;0.5665;0.9354;
210.3000;0.5665;0.9354;
210.6000;0.5665;0.9283;
210.9000;0.5674;0.9354;
211.2000;0.5674;0.9354;
211.5000;0.5665;0.9402;
211.8000;0.5665;0.9473;
212.1000;0.5657;0.9520;
212.4000;0.5665;0.9591;
212.7000;0.5657;0.9591;
213.0000;0.5625;0.9520;
213.3000;0.5665;0.9709;
213.6000;0.5641;0.9733;
213.9000;0.5649;0.9733;
214.2000;0.5641;0.9591;
214.5000;0.5665;0.9591;
214.8000;0.5690;0.9520;
215.1000;0.5665;0.9473;
215.4000;0.5657;0.9425;
215.7000;0.5674;0.9425;
216.0000;0.5608;0.9236;
216.3000;0.5657;0.9378;
216.6000;0.5690;0.9425;
216.9000;0.5690;0.9378;
217.2000;0.5657;0.9212;
217.5000;0.5657;0.9259;
217.8000;0.5665;0.9331;
218.1000;0.5625;0.9402;
218.4000;0.5682;0.9449;
218.7000;0.5657;0.9425;
219.0000;0.5665;0.9449;
219.3000;0.5690;0.9567;
219.6000;0.5674;0.9520;
219.9000;0.5674;0.9686;
220.2000;0.5682;0.9662;
220.5000;0.5698;0.9828;
220.8000;0.5747;0.9899;
221.1000;0.5682;0.9757;
221.4000;0.5674;0.9733;
221.7000;0.5665;0.9686;
222.0000;0.5665;0.9662;
222.3000;0.5665;0.9662;
222.6000;0.5665;0.9544;
222.9000;0.5657;0.9496;
223.2000;0.5665;0.9449;
223.5000;0.5674;0.9425;
223.8000;0.5674;0.9378;
224.1000;0.5665;0.9236;
224.4000;0.5674;0.9165;
224.7000;0.5674;0.9117;
225.0000;0.5674;0.9165;
225.3000;0.5657;0.9094;
225.6000;0.5674;0.9236;
225.9000;0.5649;0.9165;
226.2000;0.5649;0.9188;
226.5000;0.5665;0.9188;
226.8000;0.5657;0.9259;
227.1000;0.5657;0.9402;
227.4000;0.5641;0.9402;
227.7000;0.5657;0.9378;
228.0000;0.5665;0.9496;
228.3000;0.5665;0.9449;
228.6000;0.5625;0.9402;
228.9000;0.5657;0.9520;
229.2000;0.5674;0.9544;
229.5000;0.5617;0.9425;
229.8000;0.5657;0.9567;
230.1000;0.5665;0.9496;
230.4000;0.5649;0.9425;
230.7000;0.5625;0.9402;
231.0000;0.5674;0.9473;
231.3000;0.5649;0.9496;
231.6000;0.5649;0.9520;
231.9000;0.5665;0.9496;
232.2000;0.5657;0.9520;
232.5000;0.5665;0.9567;
232.8000;0.5674;0.9567;
233.1000;0.5649;0.9449;
233.4000;0.5649;0.9449;
233.7000;0.5633;0.9425;
234.0000;0.5674;0.9520;
234.3000;0.5633;0.9402;
234.6000;0.5657;0.9402;
234.9000;0.5649;0.9354;
235.2000;0.5576;0.9165;
235.5000;0.5657;0.9402;
235.8000;0.5641;0.9473;
236.1000;0.5625;0.9402;
236.4000;0.5600;0.9449;
236.7000;0.5665;0.9544;
237.0000;0.5674;0.9615;
237.3000;0.5665;0.9567;
237.6000;0.5698;0.9662;
237.9000;0.5665;0.9709;
238.2000;0.5665;0.9615;
238.5000;0.5665;0.9591;
238.8000;0.5625;0.9449;
239.1000;0.5836;0.9899;
239.4000;0.5674;0.9591;
239.7000;0.5690;0.9615;
240.0000;0.5657;0.9638;
240.3000;0.5657;0.9638;
240.6000;0.5698;0.9757;
240.9000;0.5625;0.9544;
241.2000;0.5674;0.9686;
241.5000;0.5665;0.9638;
241.8000;0.5657;0.9686;
242.1000;0.5665;0.9757;
242.4000;0.5682;0.9709;
242.7000;0.5690;0.9662;
243.0000;0.5690;0.9638;
243.3000;0.5665;0.9615;
243.6000;0.5682;0.9686;
243.9000;0.5600;0.9615;
244.2000;0.5551;0.9615;
244.5000;0.5641;0.9828;
244.8000;0.5649;0.9804;
245.1000;0.5657;0.9757;
245.4000;0.5608;0.9638;
245.7000;0.5665;0.9804;
246.0000;0.5665;0.9757;
246.3000;0.5665;0.9804;
246.6000;0.5674;0.9757;
246.9000;0.5657;0.9709;
247.2000;0.5674;0.9686;
247.5000;0.5665;0.9638;
247.8000;0.5665;0.9780;
248.1000;0.5665;0.9757;
248.4000;0.5649;0.9757;
248.7000;0.5690;0.9828;
249.0000;0.5690;0.9852;
249.3000;0.5657;0.9757;
249.6000;0.5633;0.9733;
249.9000;0.5665;0.9828;
250.2000;0.5682;0.9733;
250.5000;0.5698;0.9757;
250.8000;0.5674;0.9709;
251.1000;0.5674;0.9662;
251.4000;0.5674;0.9615;
251.7000;0.5617;0.9473;
252.0000;0.5665;0.9591;
252.3000;0.5674;0.9567;
252.6000;0.5682;0.9615;
252.9000;0.5657;0.9544;
253.2000;0.5649;0.9496;
253.5000;0.5657;0.9638;
253.8000;0.5665;0.9638;
254.1000;0.5641;0.9638;
254.4000;0.5649;0.9638;
254.7000;0.5633;0.9591;
255.0000;0.5649;0.9615;
255.3000;0.5657;0.9591;
255.6000;0.5665;0.9567;
255.9000;0.5617;0.9449;
256.2000;0.5657;0.9544;
256.5000;0.5674;0.9567;
256.8000;0.5674;0.9544;
257.1000;0.5617;0.9473;
257.4000;0.5674;0.9615;
257.7000;0.5665;0.9567;
258.0000;0.5665;0.9591;
258.3000;0.5674;0.9615;
258.6000;0.5657;0.9615;
258.9000;0.5698;0.9638;
259.2000;0.5722;0.9757;
259.5000;0.5665;0.9591;
259.8000;0.5649;0.9567;
260.1000;0.5698;0.9638;
260.4000;0.5625;0.9496;
260.7000;0.5633;0.9544;
261.0000;0.5657;0.9567;
261.3000;0.5649;0.9567;
261.6000;0.5674;0.9686;
261.9000;0.5674;0.9733;
262.2000;0.5657;0.9686;
262.5000;0.5674;0.9757;
262.8000;0.5674;0.9804;
263.1000;0.5698;0.9757;
263.4000;0.5674;0.9709;
263.7000;0.5698;0.9686;
264.0000;0.5682;0.9615;
264.3000;0.5674;0.9662;
264.6000;0.5690;0.9733;
264.9000;0.5625;0.9591;
265.2000;0.5682;0.9780;
265.5000;0.5682;0.9686;
265.8000;0.5682;0.9686;
266.1000;0.5779;0.9899;
266.4000;0.5682;0.9638;
266.7000;0.5820;0.9970;
267.0000;0.5674;0.9780;
267.3000;0.5665;0.9780;
267.6000;0.5682;0.9733;
267.9000;0.5665;0.9804;
268.2000;0.5682;0.9828;
268.5000;0.5706;0.9780;
268.8000;0.5657;0.9615;
269.1000;0.5674;0.9638;
269.4000;0.5698;0.9591;
269.7000;0.5706;0.9591;
270.0000;0.5657;0.9567;
270.3000;0.5665;0.9496;
270.6000;0.5674;0.9520;
270.9000;0.5674;0.9591;
271.2000;0.5674;0.9544;
271.5000;0.5649;0.9544;
271.8000;0.5674;0.9638;
272.1000;0.5747;0.9852;
272.4000;0.5657;0.9520;
272.7000;0.5657;0.9520;
273.0000;0.5674;0.9567;
273.3000;0.5657;0.9591;
273.6000;0.5657;0.9544;
273.9000;0.5592;0.9473;
274.2000;0.5690;0.9733;
274.5000;0.5665;0.9615;
274.8000;0.5698;0.9757;
275.1000;0.5657;0.9662;
275.4000;0.5649;0.9615;
275.7000;0.5698;0.9662;
276.0000;0.5690;0.9709;
276.3000;0.5682;0.9686;
276.6000;0.5674;0.9709;
276.9000;0.5682;0.9638;
277.2000;0.5674;0.9638;
277.5000;0.5674;0.9615;
277.8000;0.5665;0.9544;
278.1000;0.5706;0.9615;
278.4000;0.5665;0.9496;
278.7000;0.5657;0.9473;
279.0000;0.5617;0.9307;
279.3000;0.5649;0.9449;
279.6000;0.5674;0.9473;
279.9000;0.5665;0.9473;
280.2000;0.5657;0.9425;
280.5000;0.5657;0.9520;
280.8000;0.5657;0.9496;
281.1000;0.5649;0.9425;
281.4000;0.5674;0.9496;
281.7000;0.5665;0.9520;
282.0000;0.5665;0.9473;
282.3000;0.5657;0.9425;
282.6000;0.5649;0.9449;
282.9000;0.5641;0.9354;
283.2000;0.5665;0.9354;
283.5000;0.5674;0.9354;
283.8000;0.5665;0.9307;
284.1000;0.5657;0.9378;
284.4000;0.5682;0.9520;
284.7000;0.5674;0.9544;
285.0000;0.5665;0.9615;
285.3000;0.5649;0.9662;
285.6000;0.5657;0.9804;
285.9000;0.5690;0.9804;
286.2000;0.5665;0.9709;
286.5000;0.5657;0.9662;
286.8000;0.5657;0.9686;
287.1000;0.5690;0.9709;
287.4000;0.5665;0.9662;
287.7000;0.5665;0.9686;
288.0000;0.5682;0.9709;
288.3000;0.5665;0.9757;
288.6000;0.5649;0.9780;
288.9000;0.5641;0.9686;
289.2000;0.5649;0.9686;
289.5000;0.5690;0.9733;
289.8000;0.5674;0.9662;
290.1000;0.5682;0.9638;
290.4000;0.5633;0.9402;
290.7000;0.5731;0.9638;
291.0000;0.5649;0.9520;
291.3000;0.5641;0.9520;
291.6000;0.5665;0.9567;
291.9000;0.5665;0.9638;
292.2000;0.5649;0.9662;
292.5000;0.5682;0.9780;
292.8000;0.5657;0.9709;
293.1000;0.5633;0.9757;
293.4000;0.5674;0.9828;
293.7000;0.5722;0.9852;
294.0000;0.5665;0.9662;
294.3000;0.5625;0.9567;
294.6000;0.5682;0.9709;
294.9000;0.5682;0.9709;
295.2000;0.5682;0.9520;
295.5000;0.5665;0.9473;
295.8000;0.5674;0.9449;
296.1000;0.5665;0.9449;
296.4000;0.5649;0.9473;
296.7000;0.5674;0.9473;
297.0000;0.5608;0.9236;
297.3000;0.5641;0.9354;
297.6000;0.5665;0.9473;
297.9000;0.5657;0.9402;
298.2000;0.5657;0.9449;
298.5000;0.5665;0.9567;
298.8000;0.5665;0.9567;
299.1000;0.5657;0.9567;
299.4000;0.5649;0.9615;
299.7000;0.5649;0.9473;
300.0000;0.5674;0.9496;
300.3000;0.5657;0.9425;
300.6000;0.5657;0.9354;
300.9000;0.5665;0.9354;
301.2000;0.5665;0.9331;
301.5000;0.5600;0.9236;
301.8000;0.5641;0.9283;
302.1000;0.5698;0.9496;
302.4000;0.5665;0.9473;
302.7000;0.5698;0.9496;
303.0000;0.5674;0.9449;
303.3000;0.5682;0.9496;
303.6000;0.5682;0.9473;
303.9000;0.5665;0.9449;
304.2000;0.5682;0.9449;
304.5000;0.5674;0.9378;
304.8000;0.5657;0.9378;
305.1000;0.5649;0.9520;
305.4000;0.5657;0.9567;
305.7000;0.5674;0.9638;
306.0000;0.5657;0.9638;
306.3000;0.5665;0.9709;
306.6000;0.5665;0.9733;
306.9000;0.5657;0.9638;
307.2000;0.5649;0.9591;
307.5000;0.5674;0.9638;
307.8000;0.5674;0.9544;
308.1000;0.5706;0.9662;
308.4000;0.5657;0.9520;
308.7000;0.5665;0.9449;
309.0000;0.5665;0.9425;
309.3000;0.5633;0.9378;
309.6000;0.5674;0.9425;
309.9000;0.5674;0.9449;
310.2000;0.5657;0.9520;
310.5000;0.5674;0.9567;
310.8000;0.5747;0.9804;
311.1000;0.5657;0.9709;
311.4000;0.5665;0.9686;
311.7000;0.5665;0.9709;
312.0000;0.5674;0.9662;
312.3000;0.5641;0.9544;
312.6000;0.5674;0.9567;
312.9000;0.5665;0.9591;
313.2000;0.5690;0.9615;
313.5000;0.5674;0.9686;
313.8000;0.5641;0.9591;
314.1000;0.5665;0.9686;
314.4000;0.5682;0.9757;
314.7000;0.5633;0.9638;
315.0000;0.5674;0.9709;
315.3000;0.5722;0.9686;
315.6000;0.5657;0.9638;
315.9000;0.5682;0.9709;
316.2000;0.5568;0.9283;
316.5000;0.5657;0.9473;
316.8000;0.5592;0.9354;
317.1000;0.5657;0.9591;
317.4000;0.5763;0.9970;
317.7000;0.5674;0.9733;
318.0000;0.5674;0.9638;
318.3000;0.5690;0.9567;
318.6000;0.5665;0.9473;
318.9000;0.5682;0.9496;
319.2000;0.5665;0.9544;
319.5000;0.5657;0.9544;
319.8000;0.5657;0.9473;
320.1000;0.5665;0.9449;
320.4000;0.5657;0.9473;
320.7000;0.5674;0.9567;
321.0000;0.5649;0.9615;
321.3000;0.5649;0.9591;
321.6000;0.5633;0.9638;
321.9000;0.5657;0.9591;
322.2000;0.5649;0.9591;
322.5000;0.5649;0.9638;
322.8000;0.5682;0.9709;
323.1000;0.5682;0.9733;
323.4000;0.5665;0.9662;
323.7000;0.5674;0.9757;
324.0000;0.5674;0.9757;
324.3000;0.5665;0.9757;
324.6000;0.5706;0.9923;
324.9000;0.5657;0.9828;
325.2000;0.5641;0.9709;
325.5000;0.5698;0.9828;
325.8000;0.5657;0.9638;
326.1000;0.5633;0.9591;
326.4000;0.5665;0.9662;
326.7000;0.5649;0.9615;
327.0000;0.5633;0.9615;
327.3000;0.5665;0.9591;
327.6000;0.5649;0.9591;
327.9000;0.5665;0.9591;
328.2000;0.5665;0.9544;
328.5000;0.5682;0.9615;
328.8000;0.5674;0.9662;
329.1000;0.5690;0.9662;
329.4000;0.5698;0.9662;
329.7000;0.5665;0.9615;
330.0000;0.5682;0.9520;
330.3000;0.5690;0.9567;
330.6000;0.5665;0.9473;
330.9000;0.5674;0.9520;
331.2000;0.5657;0.9520;
331.5000;0.5665;0.9496;
331.8000;0.5682;0.9496;
332.1000;0.5641;0.9544;
332.4000;0.5584;0.9307;
332.7000;0.5674;0.9496;
333.0000;0.5690;0.9520;
333.3000;0.5755;0.9757;
333.6000;0.5674;0.9544;
333.9000;0.5690;0.9567;
334.2000;0.5657;0.9544;
334.5000;0.5682;0.9496;
334.8000;0.5674;0.9520;
335.1000;0.5665;0.9520;
335.4000;0.5657;0.9496;
335.7000;0.5641;0.9449;
336.0000;0.5657;0.9449;
336.3000;0.5600;0.9354;
336.6000;0.5617;0.9354;
336.9000;0.5625;0.9259;
337.2000;0.5690;0.9402;
337.5000;0.5665;0.9425;
337.8000;0.5657;0.9402;
338.1000;0.5674;0.9402;
338.4000;0.5682;0.9378;
338.7000;0.5674;0.9378;
339.0000;0.5657;0.9259;
339.3000;0.5633;0.9236;
339.6000;0.5665;0.9307;
339.9000;0.5665;0.9354;
340.2000;0.5714;0.9473;
340.5000;0.5665;0.9354;
340.8000;0.5665;0.9378;
341.1000;0.5649;0.9449;
341.4000;0.5657;0.9496;
341.7000;0.5641;0.9354;
342.0000;0.5665;0.9425;
342.3000;0.5674;0.9544;
342.6000;0.5674;0.9473;
342.9000;0.5657;0.9425;
343.2000;0.5665;0.9520;
343.5000;0.5657;0.9567;
343.8000;0.5649;0.9567;
344.1000;0.5657;0.9520;
344.4000;0.5665;0.9567;
344.7000;0.5665;0.9662;
345.0000;0.5722;0.9852;
345.3000;0.5657;0.9780;
345.6000;0.5674;0.9875;
345.9000;0.5690;0.9899;
346.2000;0.5682;0.9852;
346.5000;0.5665;0.9804;
346.8000;0.5633;0.9780;
347.1000;0.5665;0.9828;
347.4000;0.5657;0.9757;
347.7000;0.5665;0.9733;
348.0000;0.5665;0.9662;
348.3000;0.5665;0.9709;
348.6000;0.5690;0.9709;
348.9000;0.5657;0.9615;
349.2000;0.5649;0.9544;
349.5000;0.5674;0.9591;
349.8000;0.5682;0.9638;
350.1000;0.5665;0.9520;
350.4000;0.5665;0.9567;
350.7000;0.5674;0.9567;
351.0000;0.5674;0.9638;
351.3000;0.5608;0.9520;
351.6000;0.5649;0.9615;
351.9000;0.5665;0.9662;
352.2000;0.5674;0.9638;
352.5000;0.5665;0.9733;
352.8000;0.5665;0.9662;
353.1000;0.5698;0.9804;
353.4000;0.5706;0.9852;
353.7000;0.5698;0.9875;
354.0000;0.5674;0.9828;
354.3000;0.5698;0.9970;
354.6000;0.5682;0.9946;
354.9000;0.5674;0.9875;
355.2000;0.5722;1.0017;
355.5000;0.5674;0.9780;
355.8000;0.5665;0.9780;
356.1000;0.5674;0.9733;
356.4000;0.5682;0.9804;
356.7000;0.5649;0.9757;
357.0000;0.5674;0.9804;
357.3000;0.5682;0.9709;
357.6000;0.5674;0.9733;
357.9000;0.5674;0.9709;
358.2000;0.5722;0.9852;
358.5000;0.5690;0.9875;
358.8000;0.5682;0.9804;
359.1000;0.5682;0.9852;
359.4000;0.5682;0.9946;
359.7000;0.5665;0.9899;
360.0000;0.5674;0.9899;
360.3000;0.5674;0.9852;
360.6000;0.5690;0.9923;
360.9000;0.5690;0.9946;
361.2000;0.5665;0.9804;
361.5000;0.5665;0.9804;
361.8000;0.5617;0.9686;
362.1000;0.5641;0.9662;
362.4000;0.5641;0.9709;
362.7000;0.5657;0.9804;
363.0000;0.5641;0.9828;
363.3000;0.5625;0.9709;
363.6000;0.5657;0.9828;
363.9000;0.5625;0.9828;
364.2000;0.5641;0.9946;
364.5000;0.5633;0.9970;
364.8000;0.5641;0.9946;
365.1000;0.5665;0.9946;
365.4000;0.5665;0.9970;
365.7000;0.5657;0.9899;
366.0000;0.5698;0.9946;
366.3000;0.5657;0.9733;
366.6000;0.5674;0.9780;
366.9000;0.5682;0.9757;
367.2000;0.5682;0.9923;
367.5000;0.5682;0.9852;
367.8000;0.5674;0.9828;
368.1000;0.5755;1.0017;
368.4000;0.5649;0.9828;
368.7000;0.5665;0.9780;
369.0000;0.5665;0.9686;
369.3000;0.5649;0.9686;
369.6000;0.5649;0.9662;
369.9000;0.5657;0.9757;
370.2000;0.5674;0.9757;
370.5000;0.5674;0.9828;
370.8000;0.5674;0.9733;
371.1000;0.5657;0.9709;
371.4000;0.5674;0.9686;
371.7000;0.5674;0.9686;
372.0000;0.5665;0.9662;
372.3000;0.5649;0.9733;
372.6000;0.5682;0.9733;
372.9000;0.5674;0.9757;
373.2000;0.5665;0.9828;
373.5000;0.5674;0.9804;
373.8000;0.5657;0.9804;
374.1000;0.5698;0.9804;
374.4000;0.5665;0.9662;
374.7000;0.5674;0.9591;
375.0000;0.5731;0.9804;
375.3000;0.5560;0.9402;
375.6000;0.5674;0.9544;
375.9000;0.5682;0.9591;
376.2000;0.5665;0.9662;
376.5000;0.5682;0.9638;
376.8000;0.5665;0.9544;
377.1000;0.5608;0.9520;
377.4000;0.5600;0.9496;
377.7000;0.5657;0.9567;
378.0000;0.5665;0.9662;
378.3000;0.5665;0.9709;
378.6000;0.5665;0.9638;
378.9000;0.5665;0.9544;
379.2000;0.5682;0.9686;
379.5000;0.5657;0.9638;
379.8000;0.5633;0.9567;
380.1000;0.5682;0.9638;
380.4000;0.5682;0.9638;
380.7000;0.5747;0.9828;
381.0000;0.5722;0.9780;
381.3000;0.5690;0.9686;
381.6000;0.5690;0.9686;
381.9000;0.5690;0.9686;
382.2000;0.5682;0.9733;
382.5000;0.5665;0.9757;
382.8000;0.5682;0.9804;
383.1000;0.5649;0.9757;
383.4000;0.5674;0.9899;
383.7000;0.5674;0.9852;
384.0000;0.5722;0.9923;
384.3000;0.5665;0.9757;
384.6000;0.5649;0.9757;
384.9000;0.5722;0.9994;
385.2000;0.5674;0.9852;
385.5000;0.5682;0.9804;
385.8000;0.5617;0.9662;
386.1000;0.5690;0.9875;
386.4000;0.5617;0.9686;
386.7000;0.5674;0.9852;
387.0000;0.5657;0.9757;
387.3000;0.5674;0.9828;
387.6000;0.5657;0.9780;
387.9000;0.5674;0.9852;
388.2000;0.5657;0.9899;
388.5000;0.5665;0.9994;
388.8000;0.5657;1.0041;
389.1000;0.5665;0.9994;
389.4000;0.5674;0.9923;
389.7000;0.5674;0.9970;
390.0000;0.5674;0.9970;
390.3000;0.5690;0.9923;
390.6000;0.5682;0.9852;
390.9000;0.5690;0.9899;
391.2000;0.5674;0.9946;
391.5000;0.5731;1.0088;
391.8000;0.5674;0.9875;
392.1000;0.5682;0.9875;
392.4000;0.5657;0.9757;
392.7000;0.5682;0.9852;
393.0000;0.5665;0.9757;
393.3000;0.5690;0.9757;
393.6000;0.5682;0.9686;
393.9000;0.5682;0.9686;
394.2000;0.5690;0.9780;
394.5000;0.5657;0.9828;
394.8000;0.5665;0.9970;
395.1000;0.5665;0.9946;
395.4000;0.5665;0.9946;
395.7000;0.5665;0.9923;
396.0000;0.5674;0.9828;
396.3000;0.5706;0.9852;
396.6000;0.5674;0.9780;
396.9000;0.5665;0.9804;
397.2000;0.5682;0.9733;
397.5000;0.5657;0.9757;
397.8000;0.5674;0.9804;
398.1000;0.5657;0.9757;
398.4000;0.5665;0.9804;
398.7000;0.5649;0.9780;
399.0000;0.5714;0.9923;
399.3000;0.5657;0.9780;
399.6000;0.5649;0.9804;
399.9000;0.5714;0.9994;
400.2000;0.5674;0.9852;
400.5000;0.5625;0.9780;
400.8000;0.5665;0.9828;
401.1000;0.5674;0.9828;
401.4000;0.5657;0.9875;
401.7000;0.5665;0.9852;
402.0000;0.5674;0.9780;
402.3000;0.5657;0.9780;
402.6000;0.5657;0.9804;
402.9000;0.5649;0.9828;
403.2000;0.5665;0.9852;
403.5000;0.5649;0.9852;
403.8000;0.5649;0.9780;
404.1000;0.5690;0.9852;
404.4000;0.5657;0.9804;
404.7000;0.5665;0.9780;
405.0000;0.5674;0.9733;
405.3000;0.5674;0.9804;
405.6000;0.5665;0.9852;
405.9000;0.5674;0.9852;
406.2000;0.5690;0.9804;
406.5000;0.5682;0.9852;
406.8000;0.5665;0.9780;
407.1000;0.5633;0.9686;
407.4000;0.5731;0.9852;
407.7000;0.5600;0.9591;
408.0000;0.5665;0.9709;
408.3000;0.5763;0.9923;
408.6000;0.5649;0.9591;
408.9000;0.5617;0.9544;
409.2000;0.5665;0.9733;
409.5000;0.5657;0.9709;
409.8000;0.5731;0.9875;
410.1000;0.5633;0.9638;
410.4000;0.5625;0.9544;
410.7000;0.5706;0.9662;
411.0000;0.5641;0.9496;
411.3000;0.5657;0.9449;
411.6000;0.5674;0.9473;
411.9000;0.5674;0.9520;
412.2000;0.5657;0.9544;
412.5000;0.5682;0.9567;
412.8000;0.5665;0.9496;
413.1000;0.5682;0.9544;
413.4000;0.5674;0.9520;
413.7000;0.5682;0.9615;
414.0000;0.5682;0.9709;
414.3000;0.5674;0.9733;
414.6000;0.5657;0.9544;
414.9000;0.5682;0.9615;
415.2000;0.5649;0.9520;
415.5000;0.5657;0.9615;
415.8000;0.5674;0.9686;
416.1000;0.5674;0.9709;
416.4000;0.5690;0.9757;
416.7000;0.5698;0.9804;
417.0000;0.5698;0.9780;
417.3000;0.5682;0.9780;
417.6000;0.5682;0.9757;
417.9000;0.5674;0.9662;
418.2000;0.5682;0.9662;
418.5000;0.5649;0.9591;
418.8000;0.5682;0.9567;
419.1000;0.5665;0.9591;
419.4000;0.5657;0.9544;
419.7000;0.5682;0.9567;
420.0000;0.5665;0.9473;
420.3000;0.5665;0.9473;
420.6000;0.5665;0.9544;
420.9000;0.5674;0.9686;
421.2000;0.5690;0.9733;
421.5000;0.5690;0.9757;
421.8000;0.5690;0.9780;
422.1000;0.5706;0.9804;
422.4000;0.5657;0.9638;
422.7000;0.5665;0.9638;
423.0000;0.5633;0.9662;
423.3000;0.5714;0.9899;
423.6000;0.5657;0.9804;
423.9000;0.5674;0.9780;
424.2000;0.5657;0.9733;
424.5000;0.5657;0.9662;
424.8000;0.5649;0.9686;
425.1000;0.5690;0.9804;
425.4000;0.5665;0.9733;
425.7000;0.5731;0.9852;
426.0000;0.5698;0.9709;
426.3000;0.5641;0.9449;
426.6000;0.5698;0.9662;
426.9000;0.5657;0.9591;
427.2000;0.5641;0.9567;
427.5000;0.5682;0.9567;
427.8000;0.5576;0.9402;
428.1000;0.5682;0.9638;
428.4000;0.5682;0.9686;
428.7000;0.5682;0.9757;
429.0000;0.5608;0.9544;
429.3000;0.5682;0.9733;
429.6000;0.5674;0.9709;
429.9000;0.5665;0.9686;
430.2000;0.5682;0.9686;
430.5000;0.5682;0.9662;
430.8000;0.5731;0.9733;
431.1000;0.5674;0.9520;
431.4000;0.5690;0.9567;
431.7000;0.5706;0.9615;
432.0000;0.5551;0.9307;
432.3000;0.5731;0.9733;
432.6000;0.5698;0.9638;
432.9000;0.5641;0.9591;
433.2000;0.5682;0.9686;
433.5000;0.5649;0.9591;
433.8000;0.5698;0.9638;
434.1000;0.5665;0.9567;
434.4000;0.5665;0.9567;
434.7000;0.5641;0.9520;
435.0000;0.5665;0.9544;
435.3000;0.5739;0.9638;
435.6000;0.5657;0.9473;
435.9000;0.5657;0.9520;
436.2000;0.5649;0.9449;
436.5000;0.5665;0.9473;
436.8000;0.5674;0.9425;
437.1000;0.5674;0.9425;
437.4000;0.5665;0.9473;
437.7000;0.5674;0.9449;
438.0000;0.5682;0.9378;
438.3000;0.5698;0.9378;
438.6000;0.5698;0.9378;
438.9000;0.5682;0.9354;
439.2000;0.5755;0.9567;
439.5000;0.5674;0.9354;
439.8000;0.5682;0.9354;
440.1000;0.5633;0.9283;
440.4000;0.5690;0.9378;
440.7000;0.5649;0.9283;
441.0000;0.5682;0.9331;
441.3000;0.5657;0.9236;
441.6000;0.5674;0.9378;
441.9000;0.5682;0.9425;
442.2000;0.5682;0.9425;
442.5000;0.5682;0.9425;
442.8000;0.5674;0.9425;
443.1000;0.5657;0.9307;
443.4000;0.5665;0.9425;
443.7000;0.5649;0.9425;
444.0000;0.5690;0.9544;
444.3000;0.5674;0.9591;
444.6000;0.5665;0.9544;
444.9000;0.5706;0.9615;
445.2000;0.5657;0.9567;
445.5000;0.5706;0.9567;
445.8000;0.5682;0.9496;
446.1000;0.5657;0.9378;
446.4000;0.5665;0.9449;
446.7000;0.5665;0.9425;
447.0000;0.5674;0.9496;
447.3000;0.5845;0.9970;
447.6000;0.5682;0.9544;
447.9000;0.5674;0.9496;
448.2000;0.5690;0.9473;
448.5000;0.5674;0.9567;
448.8000;0.5665;0.9567;
449.1000;0.5682;0.9733;
449.4000;0.5674;0.9662;
449.7000;0.5755;0.9899;
450.0000;0.5690;0.9709;
450.3000;0.5674;0.9686;
450.6000;0.5690;0.9709;
450.9000;0.5682;0.9733;
451.2000;0.5657;0.9662;
451.5000;0.5674;0.9709;
451.8000;0.5788;0.9946;
452.1000;0.5649;0.9686;
452.4000;0.5674;0.9638;
452.7000;0.5714;0.9615;
453.0000;0.5657;0.9567;
453.3000;0.5649;0.9473;
453.6000;0.5682;0.9591;
453.9000;0.5665;0.9520;
454.2000;0.5665;0.9496;
454.5000;0.5674;0.9496;
454.8000;0.5674;0.9544;
455.1000;0.5657;0.9520;
455.4000;0.5674;0.9567;
455.7000;0.5698;0.9591;
456.0000;0.5682;0.9496;
456.3000;0.5674;0.9496;
456.6000;0.5674;0.9449;
456.9000;0.5682;0.9449;
457.2000;0.5674;0.9520;
457.5000;0.5665;0.9449;
457.8000;0.5674;0.9449;
458.1000;0.5665;0.9520;
458.4000;0.5682;0.9638;
458.7000;0.5690;0.9567;
459.0000;0.5633;0.9331;
459.3000;0.5682;0.9520;
459.6000;0.5674;0.9473;
459.9000;0.5657;0.9425;
460.2000;0.5674;0.9520;
460.5000;0.5649;0.9473;
460.8000;0.5665;0.9473;
461.1000;0.5682;0.9473;
461.4000;0.5649;0.9378;
461.7000;0.5649;0.9402;
462.0000;0.5722;0.9662;
462.3000;0.5674;0.9544;
462.6000;0.5706;0.9567;
462.9000;0.5608;0.9212;
463.2000;0.5690;0.9449;
463.5000;0.5682;0.9402;
463.8000;0.5690;0.9378;
464.1000;0.5674;0.9354;
464.4000;0.5665;0.9283;
464.7000;0.5682;0.9402;
465.0000;0.5649;0.9259;
465.3000;0.5682;0.9354;
465.6000;0.5625;0.9307;
465.9000;0.5657;0.9473;
466.2000;0.5665;0.9449;
466.5000;0.5657;0.9449;
466.8000;0.5665;0.9402;
467.1000;0.5649;0.9331;
467.4000;0.5665;0.9402;
467.7000;0.5657;0.9331;
468.0000;0.5665;0.9402;
468.3000;0.5698;0.9449;
468.6000;0.5665;0.9425;
468.9000;0.5674;0.9449;
469.2000;0.5674;0.9449;
469.5000;0.5714;0.9496;
469.8000;0.5706;0.9425;
470.1000;0.5625;0.9259;
470.4000;0.5674;0.9354;
470.7000;0.5665;0.9331;
471.0000;0.5665;0.9378;
471.3000;0.5706;0.9449;
471.6000;0.5665;0.9378;
471.9000;0.5633;0.9331;
472.2000;0.5682;0.9567;
472.5000;0.5682;0.9544;
472.8000;0.5649;0.9473;
473.1000;0.5674;0.9449;
473.4000;0.5682;0.9496;
473.7000;0.5682;0.9591;
474.0000;0.5665;0.9567;
474.3000;0.5665;0.9615;
474.6000;0.5665;0.9591;
474.9000;0.5665;0.9662;
475.2000;0.5739;0.9923;
475.5000;0.5649;0.9662;
475.8000;0.5649;0.9615;
476.1000;0.5755;0.9780;
476.4000;0.5690;0.9567;
476.7000;0.5674;0.9496;
477.0000;0.5665;0.9520;
477.3000;0.5649;0.9520;
477.6000;0.5665;0.9473;
477.9000;0.5665;0.9449;
478.2000;0.5690;0.9615;
478.5000;0.5641;0.9496;
478.8000;0.5731;0.9733;
479.1000;0.5657;0.9615;
479.4000;0.5649;0.9496;
479.7000;0.5657;0.9591;
480.0000;0.5690;0.9638;
480.3000;0.5657;0.9591;
480.6000;0.5674;0.9544;
480.9000;0.5665;0.9544;
481.2000;0.5665;0.9591;
481.5000;0.5682;0.9591;
481.8000;0.5665;0.9473;
482.1000;0.5674;0.9520;
482.4000;0.5665;0.9402;
482.7000;0.5674;0.9425;
483.0000;0.5674;0.9591;
483.3000;0.5706;0.9757;
483.6000;0.5690;0.9686;
483.9000;0.5674;0.9638;
484.2000;0.5690;0.9733;
484.5000;0.5698;0.9709;
484.8000;0.5657;0.9567;
485.1000;0.5674;0.9520;
485.4000;0.5690;0.9496;
485.7000;0.5674;0.9449;
486.0000;0.5674;0.9425;
486.3000;0.5657;0.9425;
486.6000;0.5625;0.9378;
486.9000;0.5657;0.9496;
487.2000;0.5714;0.9686;
487.5000;0.5600;0.9496;
487.8000;0.5674;0.9662;
488.1000;0.5617;0.9615;
488.4000;0.5657;0.9780;
488.7000;0.5568;0.9496;
489.0000;0.5657;0.9686;
489.3000;0.5674;0.9662;
489.6000;0.5665;0.9615;
489.9000;0.5633;0.9615;
490.2000;0.5706;0.9780;
490.5000;0.5617;0.9591;
490.8000;0.5674;0.9709;
491.1000;0.5633;0.9615;
491.4000;0.5657;0.9662;
491.7000;0.5665;0.9662;
492.0000;0.5674;0.9733;
492.3000;0.5665;0.9709;
492.6000;0.5657;0.9638;
492.9000;0.5674;0.9544;
493.2000;0.5657;0.9496;
493.5000;0.5674;0.9544;
493.8000;0.5674;0.9544;
494.1000;0.5674;0.9496;
494.4000;0.5657;0.9615;
494.7000;0.5568;0.9378;
495.0000;0.5690;0.9638;
495.3000;0.5633;0.9496;
495.6000;0.5657;0.9496;
495.9000;0.5657;0.9473;
496.2000;0.5649;0.9520;
496.5000;0.5665;0.9496;
496.8000;0.5690;0.9544;
497.1000;0.5674;0.9425;
497.4000;0.5665;0.9378;
497.7000;0.5779;0.9591;
498.0000;0.5682;0.9331;
498.3000;0.5665;0.9378;
498.6000;0.5682;0.9544;
498.9000;0.5657;0.9449;
499.2000;0.5690;0.9449;
499.5000;0.5682;0.9449;
499.8000;0.5690;0.9520;
500.1000;0.5665;0.9425;
500.4000;0.5682;0.9496;
500.7000;0.5674;0.9520;
501.0000;0.5649;0.9331;
501.3000;0.5657;0.9331;
501.6000;0.5665;0.9378;
501.9000;0.5665;0.9378;
502.2000;0.5665;0.9402;
502.5000;0.5665;0.9378;
502.8000;0.5747;0.9473;
503.1000;0.5674;0.9307;
503.4000;0.5649;0.9425;
503.7000;0.5657;0.9449;
504.0000;0.5649;0.9378;
504.3000;0.5682;0.9378;
504.6000;0.5657;0.9354;
504.9000;0.5665;0.9402;
505.2000;0.5657;0.9473;
505.5000;0.5674;0.9638;
505.8000;0.5674;0.9638;
506.1000;0.5665;0.9473;
506.4000;0.5674;0.9402;
506.7000;0.5641;0.9307;
507.0000;0.5682;0.9425;
507.3000;0.5690;0.9425;
507.6000;0.5665;0.9331;
507.9000;0.5674;0.9354;
508.2000;0.5706;0.9449;
508.5000;0.5665;0.9354;
508.8000;0.5665;0.9283;
509.1000;0.5665;0.9283;
509.4000;0.5674;0.9402;
509.7000;0.5665;0.9425;
510.0000;0.5690;0.9425;
510.3000;0.5674;0.9378;
510.6000;0.5674;0.9402;
510.9000;0.5674;0.9236;
511.2000;0.5649;0.9236;
511.5000;0.5674;0.9378;
511.8000;0.5665;0.9283;
512.1000;0.5665;0.9307;
512.4000;0.5674;0.9378;
512.7000;0.5657;0.9425;
513.0000;0.5657;0.9402;
513.3000;0.5657;0.9473;
513.6000;0.5649;0.9473;
513.9000;0.5641;0.9520;
514.2000;0.5665;0.9615;
514.5000;0.5657;0.9638;
514.8000;0.5674;0.9709;
515.1000;0.5665;0.9591;
515.4000;0.5674;0.9615;
515.7000;0.5674;0.9591;
516.0000;0.5641;0.9520;
516.3000;0.5674;0.9591;
516.6000;0.5641;0.9615;
516.9000;0.5657;0.9544;
517.2000;0.5674;0.9638;
517.5000;0.5674;0.9615;
517.8000;0.5698;0.9615;
518.1000;0.5657;0.9544;
518.4000;0.5674;0.9615;
518.7000;0.5657;0.9615;
519.0000;0.5665;0.9615;
519.3000;0.5608;0.9449;
519.6000;0.5690;0.9709;
519.9000;0.5665;0.9709;
520.2000;0.5674;0.9733;
520.5000;0.5657;0.9615;
520.8000;0.5682;0.9591;
521.1000;0.5682;0.9709;
521.4000;0.5682;0.9638;
521.7000;0.5625;0.9496;
522.0000;0.5665;0.9591;
522.3000;0.5674;0.9662;
522.6000;0.5674;0.9638;
522.9000;0.5665;0.9591;
523.2000;0.5674;0.9591;
523.5000;0.5665;0.9591;
523.8000;0.5690;0.9615;
524.1000;0.5657;0.9544;
524.4000;0.5649;0.9473;
524.7000;0.5682;0.9520;
525.0000;0.5657;0.9520;
525.3000;0.5649;0.9544;
525.6000;0.5665;0.9615;
525.9000;0.5665;0.9662;
526.2000;0.5657;0.9638;
526.5000;0.5657;0.9638;
526.8000;0.5649;0.9638;
527.1000;0.5665;0.9709;
527.4000;0.5674;0.9709;
527.7000;0.5665;0.9615;
528.0000;0.5657;0.9591;
528.3000;0.5657;0.9638;
528.6000;0.5674;0.9733;
528.9000;0.5649;0.9709;
529.2000;0.5682;0.9638;
529.5000;0.5657;0.9662;
529.8000;0.5698;0.9709;
530.1000;0.5690;0.9662;
530.4000;0.5665;0.9686;
530.7000;0.5665;0.9638;
531.0000;0.5674;0.9591;
531.3000;0.5665;0.9544;
531.6000;0.5657;0.9567;
531.9000;0.5633;0.9520;
532.2000;0.5625;0.9544;
532.5000;0.5674;0.9709;
532.8000;0.5682;0.9686;
533.1000;0.5657;0.9567;
533.4000;0.5657;0.9591;
533.7000;0.5665;0.9544;
534.0000;0.5665;0.9662;
534.3000;0.5649;0.9567;
534.6000;0.5665;0.9567;
534.9000;0.5722;0.9709;
535.2000;0.5714;0.9615;
535.5000;0.5657;0.9544;
535.8000;0.5674;0.9544;
536.1000;0.5674;0.9544;
536.4000;0.5641;0.9520;
536.7000;0.5682;0.9615;
537.0000;0.5657;0.9473;
537.3000;0.5657;0.9496;
537.6000;0.5682;0.9591;
537.9000;0.5747;0.9733;
538.2000;0.5657;0.9591;
538.5000;0.5665;0.9496;
538.8000;0.5665;0.9425;
539.1000;0.5690;0.9496;
539.4000;0.5690;0.9544;
539.7000;0.5625;0.9354;
540.0000;0.5665;0.9520;
540.3000;0.5633;0.9378;
540.6000;0.5706;0.9544;
540.9000;0.5665;0.9449;
541.2000;0.5698;0.9520;
541.5000;0.5674;0.9473;
541.8000;0.5674;0.9449;
542.1000;0.5665;0.9520;
542.4000;0.5625;0.9354;
542.7000;0.5657;0.9425;
543.0000;0.5657;0.9449;
543.3000;0.5674;0.9449;
543.6000;0.5633;0.9259;
543.9000;0.5649;0.9331;
544.2000;0.5682;0.9331;
544.5000;0.5665;0.9354;
544.8000;0.5665;0.9402;
545.1000;0.5665;0.9473;
545.4000;0.5682;0.9520;
545.7000;0.5674;0.9449;
546.0000;0.5690;0.9496;
546.3000;0.5674;0.9378;
546.6000;0.5706;0.9425;
546.9000;0.5657;0.9354;
547.2000;0.5641;0.9331;
547.5000;0.5657;0.9425;
547.8000;0.5649;0.9473;
548.1000;0.5657;0.9544;
548.4000;0.5657;0.9544;
548.7000;0.5649;0.9425;
549.0000;0.5674;0.9473;
549.3000;0.5657;0.9331;
549.6000;0.5657;0.9331;
549.9000;0.5657;0.9425;
550.2000;0.5674;0.9449;
550.5000;0.5665;0.9520;
550.8000;0.5674;0.9473;
551.1000;0.5674;0.9520;
551.4000;0.5665;0.9567;
551.7000;0.5682;0.9567;
552.0000;0.5665;0.9520;
552.3000;0.5649;0.9425;
552.6000;0.5665;0.9402;
552.9000;0.5674;0.9520;
553.2000;0.5665;0.9473;
553.5000;0.5665;0.9449;
553.8000;0.5657;0.9449;
554.1000;0.5633;0.9473;
554.4000;0.5665;0.9473;
554.7000;0.5682;0.9567;
555.0000;0.5649;0.9473;
555.3000;0.5617;0.9307;
555.6000;0.5657;0.9354;
555.9000;0.5698;0.9520;
556.2000;0.5674;0.9449;
556.5000;0.5682;0.9331;
556.8000;0.5665;0.9307;
557.1000;0.5625;0.9188;
557.4000;0.5641;0.9354;
557.7000;0.5649;0.9425;
558.0000;0.5698;0.9520;
558.3000;0.5674;0.9544;
558.6000;0.5576;0.9307;
558.9000;0.5674;0.9638;
559.2000;0.5584;0.9425;
559.5000;0.5576;0.9259;
559.8000;0.5665;0.9473;
560.1000;0.5682;0.9473;
560.4000;0.5690;0.9544;
560.7000;0.5714;0.9615;
561.0000;0.5665;0.9615;
561.3000;0.5714;0.9662;
561.6000;0.5665;0.9520;
561.9000;0.5674;0.9473;
562.2000;0.5625;0.9354;
562.5000;0.5690;0.9473;
562.8000;0.5674;0.9473;
563.1000;0.5649;0.9378;
563.4000;0.5657;0.9378;
563.7000;0.5657;0.9307;
564.0000;0.5690;0.9354;
564.3000;0.5706;0.9496;
564.6000;0.5665;0.9473;
564.9000;0.5674;0.9402;
565.2000;0.5698;0.9544;
565.5000;0.5665;0.9520;
565.8000;0.5674;0.9638;
566.1000;0.5706;0.9686;
566.4000;0.5657;0.9591;
566.7000;0.5665;0.9591;
567.0000;0.5665;0.9520;
567.3000;0.5657;0.9496;
567.6000;0.5682;0.9686;
567.9000;0.5674;0.9733;
568.2000;0.5771;0.9923;
568.5000;0.5674;0.9591;
568.8000;0.5641;0.9544;
569.1000;0.5657;0.9496;
569.4000;0.5665;0.9591;
569.7000;0.5665;0.9544;
570.0000;0.5649;0.9567;
570.3000;0.5657;0.9520;
570.6000;0.5649;0.9496;
570.9000;0.5682;0.9473;
571.2000;0.5682;0.9402;
571.5000;0.5665;0.9402;
571.8000;0.5600;0.9283;
572.1000;0.5592;0.9283;
572.4000;0.5665;0.9402;
572.7000;0.5657;0.9425;
573.0000;0.5649;0.9425;
573.3000;0.5657;0.9473;
573.6000;0.5657;0.9544;
573.9000;0.5665;0.9591;
574.2000;0.5674;0.9567;
574.5000;0.5657;0.9638;
574.8000;0.5657;0.9733;
575.1000;0.5698;0.9875;
575.4000;0.5665;0.9804;
575.7000;0.5674;0.9804;
576.0000;0.5665;0.9828;
576.3000;0.5682;0.9780;
576.6000;0.5682;0.9757;
576.9000;0.5665;0.9733;
577.2000;0.5706;0.9780;
577.5000;0.5674;0.9804;
577.8000;0.5674;0.9709;
578.1000;0.5657;0.9544;
578.4000;0.5674;0.9449;
578.7000;0.5682;0.9591;
579.0000;0.5633;0.9473;
579.3000;0.5657;0.9638;
579.6000;0.5657;0.9638;
579.9000;0.5674;0.9709;
580.2000;0.5682;0.9733;
580.5000;0.5617;0.9591;
580.8000;0.5682;0.9804;
581.1000;0.5665;0.9709;
581.4000;0.5674;0.9591;
581.7000;0.5649;0.9544;
582.0000;0.5649;0.9591;
582.3000;0.5665;0.9496;
582.6000;0.5722;0.9591;
582.9000;0.5665;0.9402;
583.2000;0.5617;0.9283;
583.5000;0.5665;0.9402;
583.8000;0.5682;0.9425;
584.1000;0.5625;0.9354;
584.4000;0.5665;0.9520;
584.7000;0.5674;0.9567;
585.0000;0.5649;0.9520;
585.3000;0.5641;0.9496;
585.6000;0.5665;0.9567;
585.9000;0.5665;0.9591;
586.2000;0.5682;0.9638;
586.5000;0.5706;0.9709;
586.8000;0.5682;0.9757;
587.1000;0.5657;0.9615;
587.4000;0.5690;0.9686;
587.7000;0.5665;0.9757;
588.0000;0.5674;0.9662;
588.3000;0.5657;0.9615;
588.6000;0.5657;0.9615;
588.9000;0.5665;0.9709;
589.2000;0.5665;0.9662;
589.5000;0.5649;0.9686;
589.8000;0.5665;0.9709;
590.1000;0.5674;0.9852;
590.4000;0.5665;0.9757;
590.7000;0.5665;0.9804;
591.0000;0.5698;0.9828;
591.3000;0.5665;0.9757;
591.6000;0.5665;0.9804;
591.9000;0.5665;0.9828;
592.2000;0.5665;0.9828;
592.5000;0.5665;0.9852;
592.8000;0.5649;0.9780;
593.1000;0.5665;0.9804;
593.4000;0.5649;0.9780;
593.7000;0.5779;1.0065;
594.0000;0.5633;0.9686;
594.3000;0.5674;0.9615;
594.6000;0.5665;0.9544;
594.9000;0.5665;0.9520;
595.2000;0.5649;0.9473;
595.5000;0.5674;0.9520;
595.8000;0.5674;0.9544;
596.1000;0.5665;0.9638;
596.4000;0.5649;0.9757;
596.7000;0.5682;0.9804;
597.0000;0.5649;0.9638;
597.3000;0.5649;0.9496;
597.6000;0.5690;0.9567;
597.9000;0.5665;0.9473;
598.2000;0.5657;0.9425;
598.5000;0.5657;0.9425;
598.8000;0.5608;0.9307;
599.1000;0.5674;0.9473;
599.4000;0.5682;0.9544;
599.7000;0.5682;0.9591;
600.0000;0.5649;0.9567;
600.3000;0.5657;0.9473;
600.6000;0.5674;0.9425;
600.9000;0.5682;0.9520;
601.2000;0.5649;0.9449;
601.5000;0.5617;0.9378;
601.8000;0.5584;0.9307;
602.1000;0.5568;0.9236;
602.4000;0.5543;0.9165;
602.7000;0.5535;0.9188;
603.0000;0.5462;0.8975;
603.3000;0.5438;0.8904;
603.6000;0.5397;0.8833;
603.9000;0.5389;0.8857;
604.2000;0.5429;0.8904;
604.5000;0.5397;0.8881;
604.8000;0.5340;0.8596;
605.1000;0.5348;0.8573;
605.4000;0.5283;0.8431;
605.7000;0.5283;0.8431;
606.0000;0.5234;0.8431;
606.3000;0.5226;0.8431;
606.6000;0.5234;0.8312;
606.9000;0.5210;0.8289;
607.2000;0.5169;0.8146;
607.5000;0.5242;0.8336;
607.8000;0.5177;0.8289;
608.1000;0.5193;0.8383;
608.4000;0.5128;0.8217;
608.7000;0.5112;0.8170;
609.0000;0.5201;0.8289;
609.3000;0.5136;0.8217;
609.6000;0.5112;0.8170;
609.9000;0.5079;0.8170;
610.2000;0.5022;0.7981;
610.5000;0.5071;0.8075;
610.8000;0.5055;0.8075;
611.1000;0.5055;0.8123;
611.4000;0.5031;0.8123;
611.7000;0.5022;0.8146;
612.0000;0.5031;0.8170;
612.3000;0.5006;0.8146;
612.6000;0.4982;0.8170;
612.9000;0.4974;0.8170;
613.2000;0.4965;0.8170;
613.5000;0.4965;0.8099;
613.8000;0.5014;0.8146;
614.1000;0.4957;0.8028;
614.4000;0.4998;0.8170;
614.7000;0.4941;0.8004;
615.0000;0.4933;0.8028;
615.3000;0.4917;0.8004;
615.6000;0.4917;0.7981;
615.9000;0.4998;0.8217;
616.2000;0.4892;0.7981;
616.5000;0.4860;0.7933;
616.8000;0.4860;0.7933;
617.1000;0.4851;0.8028;
617.4000;0.4843;0.8004;
617.7000;0.4819;0.7981;
618.0000;0.4835;0.8099;
618.3000;0.4827;0.8123;
618.6000;0.4868;0.8194;
618.9000;0.4835;0.8052;
619.2000;0.4819;0.7981;
619.5000;0.4794;0.7933;
619.8000;0.4794;0.7933;
620.1000;0.4803;0.7933;
620.4000;0.4778;0.7957;
620.7000;0.4770;0.7981;
621.0000;0.4746;0.8004;
621.3000;0.4770;0.8099;
621.6000;0.4729;0.8004;
621.9000;0.4754;0.7981;
622.2000;0.4754;0.8004;
622.5000;0.4754;0.8028;
622.8000;0.4713;0.7981;
623.1000;0.4729;0.8075;
623.4000;0.4721;0.8052;
623.7000;0.4721;0.7981;
624.0000;0.4705;0.7933;
624.3000;0.4705;0.7933;
624.6000;0.4729;0.7933;
624.9000;0.4672;0.7791;
625.2000;0.4664;0.7862;
625.5000;0.4689;0.7957;
625.8000;0.4689;0.7957;
626.1000;0.4567;0.7673;
626.4000;0.4672;0.7933;
626.7000;0.4640;0.7839;
627.0000;0.4697;0.7957;
627.3000;0.4640;0.7910;
627.6000;0.4648;0.7886;
627.9000;0.4648;0.7933;
628.2000;0.4607;0.7839;
628.5000;0.4664;0.7981;
628.8000;0.4624;0.7815;
629.1000;0.4599;0.7768;
629.4000;0.4615;0.7649;
629.7000;0.4575;0.7602;
630.0000;0.4624;0.7791;
630.3000;0.4615;0.7768;
630.6000;0.4575;0.7768;
630.9000;0.4583;0.7815;
631.2000;0.4567;0.7862;
631.5000;0.4542;0.7862;
631.8000;0.4526;0.7839;
632.1000;0.4583;0.7933;
632.4000;0.4558;0.7839;
632.7000;0.4542;0.7791;
633.0000;0.4510;0.7768;
633.3000;0.4575;0.7886;
633.6000;0.4534;0.7933;
633.9000;0.4542;0.7910;
634.2000;0.4542;0.7981;
634.5000;0.4526;0.7862;
634.8000;0.4534;0.7839;
635.1000;0.4526;0.7839;
635.4000;0.4510;0.7910;
635.7000;0.4510;0.7910;
636.0000;0.4518;0.7862;
636.3000;0.4607;0.7981;
636.6000;0.4501;0.7839;
636.9000;0.4469;0.7744;
637.2000;0.4477;0.7815;
637.5000;0.4387;0.7602;
637.8000;0.4428;0.7673;
638.1000;0.4461;0.7791;
638.4000;0.4469;0.7791;
638.7000;0.4453;0.7791;
639.0000;0.4469;0.7862;
639.3000;0.4436;0.7862;
639.6000;0.4444;0.8004;
639.9000;0.4444;0.7981;
640.2000;0.4428;0.7815;
640.5000;0.4428;0.7815;
640.8000;0.4347;0.7554;
641.1000;0.4420;0.7696;
641.4000;0.4412;0.7673;
641.7000;0.4396;0.7649;
642.0000;0.4387;0.7696;
642.3000;0.4501;0.7910;
642.6000;0.4339;0.7578;
642.9000;0.4363;0.7649;
643.2000;0.4371;0.7602;
643.5000;0.4404;0.7696;
643.8000;0.4265;0.7483;
644.1000;0.4371;0.7791;
644.4000;0.4379;0.7720;
644.7000;0.4387;0.7791;
645.0000;0.4371;0.7910;
645.3000;0.4371;0.7815;
645.6000;0.4371;0.7649;
645.9000;0.4355;0.7625;
646.2000;0.4355;0.7625;
646.5000;0.4355;0.7673;
646.8000;0.4339;0.7720;
647.1000;0.4355;0.7673;
647.4000;0.4347;0.7673;
647.7000;0.4330;0.7696;
648.0000;0.4339;0.7768;
648.3000;0.4322;0.7673;
648.6000;0.4355;0.7649;
648.9000;0.4322;0.7744;
649.2000;0.4347;0.7744;
649.5000;0.4339;0.7649;
649.8000;0.4322;0.7625;
650.1000;0.4363;0.7839;
650.4000;0.4322;0.7744;
650.7000;0.4282;0.7696;
651.0000;0.4339;0.7768;
651.3000;0.4306;0.7649;
651.6000;0.4282;0.7483;
651.9000;0.4347;0.7696;
652.2000;0.4330;0.7649;
652.5000;0.4274;0.7649;
652.8000;0.4265;0.7673;
653.1000;0.4257;0.7673;
653.4000;0.4322;0.7744;
653.7000;0.4274;0.7649;
654.0000;0.4233;0.7602;
654.3000;0.4225;0.7554;
654.6000;0.4257;0.7673;
654.9000;0.4274;0.7673;
655.2000;0.4355;0.7886;
655.5000;0.4274;0.7602;
655.8000;0.4265;0.7507;
656.1000;0.4265;0.7554;
656.4000;0.4249;0.7531;
656.7000;0.4249;0.7625;
657.0000;0.4225;0.7625;
657.3000;0.4225;0.7602;
657.6000;0.4249;0.7625;
657.9000;0.4241;0.7625;
658.2000;0.4225;0.7578;
658.5000;0.4241;0.7673;
658.8000;0.4249;0.7649;
659.1000;0.4282;0.7768;
659.4000;0.4225;0.7625;
659.7000;0.4184;0.7625;
660.0000;0.4217;0.7696;
660.3000;0.4241;0.7720;
660.6000;0.4225;0.7815;
660.9000;0.4217;0.7696;
661.2000;0.4184;0.7649;
661.5000;0.4225;0.7791;
661.8000;0.4282;0.7933;
662.1000;0.4192;0.7744;
662.4000;0.4306;0.7933;
662.7000;0.4168;0.7554;
663.0000;0.4257;0.7744;
663.3000;0.4233;0.7720;
663.6000;0.4168;0.7649;
663.9000;0.4200;0.7696;
664.2000;0.4184;0.7673;
664.5000;0.4192;0.7649;
664.8000;0.4160;0.7578;
665.1000;0.4168;0.7625;
665.4000;0.4168;0.7673;
665.7000;0.4168;0.7744;
666.0000;0.4143;0.7720;
666.3000;0.4151;0.7744;
666.6000;0.4135;0.7625;
666.9000;0.4160;0.7696;
667.2000;0.4143;0.7744;
667.5000;0.4135;0.7791;
667.8000;0.4151;0.7768;
668.1000;0.4151;0.7673;
668.4000;0.4143;0.7578;
668.7000;0.4143;0.7554;
669.0000;0.4135;0.7554;
669.3000;0.4143;0.7625;
669.6000;0.4135;0.7602;
669.9000;0.4094;0.7531;
670.2000;0.4127;0.7673;
670.5000;0.4143;0.7839;
670.8000;0.4135;0.7791;
671.1000;0.4078;0.7649;
671.4000;0.4135;0.7791;
671.7000;0.4143;0.7839;
672.0000;0.4127;0.7862;
672.3000;0.4135;0.7933;
672.6000;0.4135;0.7839;
672.9000;0.4127;0.7791;
673.2000;0.4135;0.7744;
673.5000;0.4119;0.7744;
673.8000;0.4127;0.7791;
674.1000;0.4094;0.7720;
674.4000;0.4127;0.7744;
674.7000;0.4184;0.7862;
675.0000;0.4103;0.7673;
675.3000;0.4094;0.7649;
675.6000;0.4127;0.7696;
675.9000;0.4086;0.7625;
676.2000;0.4086;0.7673;
676.5000;0.4070;0.7696;
676.8000;0.4086;0.7744;
677.1000;0.4086;0.7649;
677.4000;0.4086;0.7744;
677.7000;0.4078;0.7673;
678.0000;0.4135;0.7862;
678.3000;0.4037;0.7578;
678.6000;0.4013;0.7483;
678.9000;0.4078;0.7673;
679.2000;0.4062;0.7768;
679.5000;0.4111;0.7815;
679.8000;0.4086;0.7768;
680.1000;0.4070;0.7720;
680.4000;0.4070;0.7673;
680.7000;0.4078;0.7720;
681.0000;0.4094;0.7696;
681.3000;0.4070;0.7696;
681.6000;0.4070;0.7720;
681.9000;0.4070;0.7744;
682.2000;0.4070;0.7696;
682.5000;0.4062;0.7744;
682.8000;0.4037;0.7673;
683.1000;0.4111;0.7815;
683.4000;0.4013;0.7649;
683.7000;0.4054;0.7744;
684.0000;0.4046;0.7720;
684.3000;0.4037;0.7649;
684.6000;0.4070;0.7720;
684.9000;0.4078;0.7744;
685.2000;0.4029;0.7696;
685.5000;0.4054;0.7791;
685.8000;0.4054;0.7744;
686.1000;0.4062;0.7744;
686.4000;0.4046;0.7720;
686.7000;0.4046;0.7696;
687.0000;0.4037;0.7744;
687.3000;0.4021;0.7744;
687.6000;0.4046;0.7768;
687.9000;0.4143;0.8099;
688.2000;0.4054;0.7886;
688.5000;0.4021;0.7839;
688.8000;0.4021;0.7862;
689.1000;0.4029;0.7815;
689.4000;0.4021;0.7886;
689.7000;0.4127;0.8052;
690.0000;0.4013;0.7649;
690.3000;0.4021;0.7744;
690.6000;0.4021;0.7768;
690.9000;0.4037;0.7933;
691.2000;0.4054;0.7910;
691.5000;0.4029;0.7815;
691.8000;0.4005;0.7815;
692.1000;0.4005;0.7744;
692.4000;0.4005;0.7720;
692.7000;0.4013;0.7649;
693.0000;0.4013;0.7720;
693.3000;0.3997;0.7791;
693.6000;0.4013;0.7815;
693.9000;0.4013;0.7720;
694.2000;0.4005;0.7696;
694.5000;0.3997;0.7673;
694.8000;0.4013;0.7696;
695.1000;0.4005;0.7673;
695.4000;0.3972;0.7649;
695.7000;0.4013;0.7696;
696.0000;0.4070;0.7744;
696.3000;0.3980;0.7602;
696.6000;0.3997;0.7696;
696.9000;0.3989;0.7768;
697.2000;0.3972;0.7768;
697.5000;0.3989;0.7839;
697.8000;0.3989;0.7910;
698.1000;0.4005;0.7981;
698.4000;0.3980;0.7933;
698.7000;0.3997;0.7933;
699.0000;0.3997;0.7886;
699.3000;0.3980;0.7839;
699.6000;0.4046;0.7933;
699.9000;0.3972;0.7862;
700.2000;0.3980;0.7839;
700.5000;0.3989;0.7815;
700.8000;0.3997;0.7815;
701.1000;0.3972;0.7720;
701.4000;0.3997;0.7720;
701.7000;0.3964;0.7768;
702.0000;0.3907;0.7554;
702.3000;0.3964;0.7791;
702.6000;0.4021;0.7981;
702.9000;0.4086;0.8241;
703.2000;0.3989;0.7933;
703.5000;0.4054;0.8075;
703.8000;0.3980;0.7933;
704.1000;0.3989;0.7933;
704.4000;0.3980;0.7768;
704.7000;0.3964;0.7791;
705.0000;0.3980;0.7839;
705.3000;0.3980;0.7768;
705.6000;0.3964;0.7791;
705.9000;0.3964;0.7815;
706.2000;0.3980;0.7815;
706.5000;0.3956;0.7720;
706.8000;0.3956;0.7791;
707.1000;0.3940;0.7744;
707.4000;0.3932;0.7649;
707.7000;0.3948;0.7744;
708.0000;0.3940;0.7720;
708.3000;0.3940;0.7791;
708.6000;0.3956;0.7791;
708.9000;0.3964;0.7815;
709.2000;0.3940;0.7791;
709.5000;0.3948;0.7862;
709.8000;0.4005;0.8028;
710.1000;0.3972;0.7886;
710.4000;0.3948;0.7933;
710.7000;0.3956;0.7886;
711.0000;0.3956;0.7957;
711.3000;0.3915;0.7862;
711.6000;0.3940;0.7910;
711.9000;0.3923;0.7886;
712.2000;0.3932;0.7815;
712.5000;0.3923;0.7839;
712.8000;0.3989;0.8004;
713.1000;0.3940;0.7957;
713.4000;0.3940;0.7910;
713.7000;0.3915;0.7839;
714.0000;0.3907;0.7791;
714.3000;0.3923;0.7815;
714.6000;0.3907;0.7768;
714.9000;0.3932;0.7791;
715.2000;0.3907;0.7673;
715.5000;0.3948;0.7744;
715.8000;0.3940;0.7744;
716.1000;0.3932;0.7768;
716.4000;0.3940;0.7839;
716.7000;0.3923;0.7839;
717.0000;0.3923;0.7768;
717.3000;0.3932;0.7839;
717.6000;0.3932;0.7744;
717.9000;0.3915;0.7744;
718.2000;0.3923;0.7815;
718.5000;0.3932;0.7862;
718.8000;0.3923;0.7839;
719.1000;0.3948;0.7886;
719.4000;0.3923;0.7791;
719.7000;0.3891;0.7815;
720.0000;0.3891;0.7862;
720.3000;0.3883;0.7744;
720.6000;0.3923;0.7839;
720.9000;0.3899;0.7839;
721.2000;0.3907;0.7957;
721.5000;0.3891;0.7957;
721.8000;0.3915;0.8028;
722.1000;0.3923;0.8004;
722.4000;0.3915;0.7981;
722.7000;0.3899;0.7933;
723.0000;0.3875;0.7791;
723.3000;0.3891;0.7791;
723.6000;0.3867;0.7791;
723.9000;0.3907;0.7886;
724.2000;0.3899;0.7957;
724.5000;0.3875;0.8075;
724.8000;0.3940;0.8217;
725.1000;0.3883;0.8004;
725.4000;0.3972;0.8217;
725.7000;0.3850;0.7886;
726.0000;0.3907;0.7957;
726.3000;0.3883;0.8028;
726.6000;0.3875;0.7981;
726.9000;0.3940;0.8146;
727.2000;0.3899;0.8170;
727.5000;0.3842;0.8052;
727.8000;0.3899;0.8241;
728.1000;0.3875;0.8052;
728.4000;0.3891;0.8004;
728.7000;0.3915;0.8004;
729.0000;0.3915;0.7981;
729.3000;0.3923;0.8052;
729.6000;0.3899;0.7981;
729.9000;0.3875;0.7862;
730.2000;0.3883;0.7862;
730.5000;0.3899;0.7910;
730.8000;0.3867;0.7886;
731.1000;0.3867;0.7862;
731.4000;0.3915;0.7981;
731.7000;0.3875;0.7862;
732.0000;0.3883;0.7886;
732.3000;0.3891;0.7886;
732.6000;0.3875;0.7933;
732.9000;0.3883;0.8028;
733.2000;0.3899;0.8028;
733.5000;0.3875;0.8004;
733.8000;0.3842;0.7957;
734.1000;0.3842;0.8004;
734.4000;0.3883;0.8099;
734.7000;0.3883;0.8075;
735.0000;0.3883;0.8028;
735.3000;0.3875;0.8028;
735.6000;0.3875;0.7957;
735.9000;0.3875;0.7957;
736.2000;0.3850;0.7910;
736.5000;0.3858;0.7933;
736.8000;0.3867;0.7981;
737.1000;0.3883;0.7981;
737.4000;0.3850;0.7862;
737.7000;0.3867;0.7886;
738.0000;0.3875;0.7910;
738.3000;0.3867;0.7862;
738.6000;0.3867;0.7815;
738.9000;0.3834;0.7768;
739.2000;0.3915;0.7933;
739.5000;0.3867;0.7768;
739.8000;0.3891;0.7815;
740.1000;0.3875;0.7768;
740.4000;0.3875;0.7791;
740.7000;0.3867;0.7768;
741.0000;0.3858;0.7815;
741.3000;0.3867;0.7815;
741.6000;0.3891;0.7862;
741.9000;0.3891;0.7815;
742.2000;0.3883;0.7839;
742.5000;0.3850;0.7768;
742.8000;0.3850;0.7768;
743.1000;0.3858;0.7768;
743.4000;0.3858;0.7768;
743.7000;0.3850;0.7791;
744.0000;0.3842;0.7768;
744.3000;0.3883;0.7839;
744.6000;0.3850;0.7720;
744.9000;0.3785;0.7578;
745.2000;0.3810;0.7673;
745.5000;0.3810;0.7625;
745.8000;0.3850;0.7696;
746.1000;0.3842;0.7649;
746.4000;0.3826;0.7791;
746.7000;0.3858;0.7815;
747.0000;0.3793;0.7720;
747.3000;0.3923;0.8099;
747.6000;0.3858;0.7862;
747.9000;0.3867;0.7815;
748.2000;0.3883;0.7791;
748.5000;0.3858;0.7768;
748.8000;0.3818;0.7720;
749.1000;0.3850;0.7696;
749.4000;0.3834;0.7720;
749.7000;0.3850;0.7768;
750.0000;0.3948;0.8099;
750.3000;0.3842;0.7744;
750.6000;0.3858;0.7791;
750.9000;0.3891;0.7933;
751.2000;0.3850;0.7862;
751.5000;0.3842;0.7768;
751.8000;0.3834;0.7791;
752.1000;0.3883;0.7981;
752.4000;0.3850;0.7862;
752.7000;0.3883;0.7910;
753.0000;0.3867;0.7791;
753.3000;0.3842;0.7720;
753.6000;0.3875;0.7839;
753.9000;0.3858;0.7886;
754.2000;0.3850;0.7815;
754.5000;0.3850;0.7839;
754.8000;0.3891;0.7981;
755.1000;0.3899;0.8028;
755.4000;0.3858;0.7815;
755.7000;0.3883;0.7933;
756.0000;0.3858;0.7910;
756.3000;0.3932;0.8075;
756.6000;0.3842;0.7839;
756.9000;0.3826;0.7815;
757.2000;0.3818;0.7744;
757.5000;0.3867;0.7791;
757.8000;0.3834;0.7744;
758.1000;0.3842;0.7625;
758.4000;0.3834;0.7673;
758.7000;0.3875;0.7720;
759.0000;0.3826;0.7578;
759.3000;0.3810;0.7602;
759.6000;0.3801;0.7649;
759.9000;0.3818;0.7720;
760.2000;0.3810;0.7696;
760.5000;0.3818;0.7720;
760.8000;0.3810;0.7791;
761.1000;0.3818;0.7815;
761.4000;0.3818;0.7768;
761.7000;0.3834;0.7815;
762.0000;0.3883;0.7981;
762.3000;0.3834;0.7910;
762.6000;0.3834;0.7768;
762.9000;0.3834;0.7744;
763.2000;0.3826;0.7791;
763.5000;0.3826;0.7815;
763.8000;0.3826;0.7839;
764.1000;0.3834;0.7815;
764.4000;0.3834;0.7886;
764.7000;0.3818;0.7910;
765.0000;0.3842;0.7886;
765.3000;0.3850;0.7791;
765.6000;0.3801;0.7696;
765.9000;0.3842;0.7862;
766.2000;0.3810;0.7720;
766.5000;0.3826;0.7768;
766.8000;0.3834;0.7768;
767.1000;0.3842;0.7839;
767.4000;0.3850;0.7791;
767.7000;0.3842;0.7768;
768.0000;0.3883;0.7981;
768.3000;0.3826;0.7886;
768.6000;0.3818;0.7839;
768.9000;0.3834;0.7815;
769.2000;0.3867;0.7839;
769.5000;0.3834;0.7768;
769.8000;0.3785;0.7744;
770.1000;0.3818;0.7744;
770.4000;0.3826;0.7839;
770.7000;0.3834;0.7768;
771.0000;0.3810;0.7673;
771.3000;0.3826;0.7720;
771.6000;0.3810;0.7768;
771.9000;0.3810;0.7720;
772.2000;0.3801;0.7673;
772.5000;0.3826;0.7673;
772.8000;0.3818;0.7649;
773.1000;0.3818;0.7649;
773.4000;0.3769;0.7578;
773.7000;0.3818;0.7744;
774.0000;0.3753;0.7531;
774.3000;0.3810;0.7744;
774.6000;0.3801;0.7673;
774.9000;0.3793;0.7768;
775.2000;0.3801;0.7744;
775.5000;0.3793;0.7720;
775.8000;0.3801;0.7673;
776.1000;0.3801;0.7673;
776.4000;0.3826;0.7768;
776.7000;0.3818;0.7791;
777.0000;0.3826;0.7862;
777.3000;0.3867;0.7957;
777.6000;0.3818;0.7768;
777.9000;0.3826;0.7791;
778.2000;0.3826;0.7839;
778.5000;0.3810;0.7768;
778.8000;0.3810;0.7696;
779.1000;0.3810;0.7625;
779.4000;0.3736;0.7460;
779.7000;0.3810;0.7744;
780.0000;0.3810;0.7768;
780.3000;0.3875;0.7981;
780.6000;0.3769;0.7744;
780.9000;0.3793;0.7768;
781.2000;0.3785;0.7696;
781.5000;0.3810;0.7744;
781.8000;0.3769;0.7744;
782.1000;0.3785;0.7815;
782.4000;0.3810;0.7791;
782.7000;0.3801;0.7696;
783.0000;0.3801;0.7673;
783.3000;0.3793;0.7649;
783.6000;0.3769;0.7649;
783.9000;0.3777;0.7744;
784.2000;0.3785;0.7744;
784.5000;0.3785;0.7791;
784.8000;0.3777;0.7744;
785.1000;0.3801;0.7862;
785.4000;0.3769;0.7839;
785.7000;0.3793;0.7720;
786.0000;0.3826;0.7768;
786.3000;0.3793;0.7673;
786.6000;0.3785;0.7602;
786.9000;0.3785;0.7673;
787.2000;0.3793;0.7791;
787.5000;0.3785;0.7744;
787.8000;0.3793;0.7768;
788.1000;0.3801;0.7862;
788.4000;0.3793;0.7862;
788.7000;0.3785;0.7862;
789.0000;0.3793;0.7910;
789.3000;0.3793;0.7862;
789.6000;0.3793;0.7862;
789.9000;0.3671;0.7507;
790.2000;0.3785;0.7910;
790.5000;0.3818;0.8004;
790.8000;0.3753;0.7933;
791.1000;0.3785;0.7981;
791.4000;0.3761;0.8004;
791.7000;0.3761;0.7981;
792.0000;0.3785;0.7981;
792.3000;0.3777;0.7910;
792.6000;0.3785;0.7981;
792.9000;0.3818;0.8123;
793.2000;0.3834;0.8170;
793.5000;0.3769;0.7910;
793.8000;0.3753;0.7957;
794.1000;0.3785;0.8028;
794.4000;0.3785;0.8099;
794.7000;0.3753;0.8004;
795.0000;0.3867;0.8217;
795.3000;0.3785;0.7981;
795.6000;0.3753;0.7910;
795.9000;0.3793;0.7981;
796.2000;0.3810;0.8075;
796.5000;0.3826;0.8052;
796.8000;0.3777;0.7957;
797.1000;0.3785;0.7862;
797.4000;0.3793;0.7839;
797.7000;0.3818;0.7886;
798.0000;0.3826;0.7839;
798.3000;0.3793;0.7720;
798.6000;0.3810;0.7696;
798.9000;0.3753;0.7602;
799.2000;0.3777;0.7649;
799.5000;0.3793;0.7696;
799.8000;0.3793;0.7768;
800.1000;0.3777;0.7744;
800.4000;0.3801;0.7791;
800.7000;0.3785;0.7744;
801.0000;0.3777;0.7839;
801.3000;0.3899;0.8170;
801.6000;0.3777;0.7933;
801.9000;0.3793;0.7886;
802.2000;0.3777;0.7910;
802.5000;0.3777;0.7886;
802.8000;0.3777;0.7910;
803.1000;0.3785;0.8004;
803.4000;0.3810;0.8052;
803.7000;0.3785;0.7957;
804.0000;0.3777;0.7981;
804.3000;0.3793;0.8052;
804.6000;0.3769;0.7957;
804.9000;0.3785;0.7957;
805.2000;0.3777;0.7910;
805.5000;0.3769;0.7815;
805.8000;0.3761;0.7791;
806.1000;0.3785;0.7768;
806.4000;0.3777;0.7768;
806.7000;0.3777;0.7673;
807.0000;0.3785;0.7696;
807.3000;0.3785;0.7768;
807.6000;0.3753;0.7602;
807.9000;0.3777;0.7578;
808.2000;0.3777;0.7578;
808.5000;0.3761;0.7602;
808.8000;0.3753;0.7602;
809.1000;0.3793;0.7768;
809.4000;0.3769;0.7839;
809.7000;0.3769;0.7886;
810.0000;0.3769;0.7744;
810.3000;0.3744;0.7696;
810.6000;0.3753;0.7673;
810.9000;0.3720;0.7625;
811.2000;0.3785;0.7839;
811.5000;0.3801;0.7862;
811.8000;0.3777;0.7791;
812.1000;0.3736;0.7744;
812.4000;0.3793;0.7839;
812.7000;0.3753;0.7768;
813.0000;0.3753;0.7720;
813.3000;0.3736;0.7720;
813.6000;0.3793;0.7862;
813.9000;0.3777;0.7791;
814.2000;0.3728;0.7720;
814.5000;0.3736;0.7696;
814.8000;0.3801;0.7886;
815.1000;0.3769;0.7768;
815.4000;0.3793;0.7791;
815.7000;0.3753;0.7602;
816.0000;0.3769;0.7696;
816.3000;0.3785;0.7744;
816.6000;0.3842;0.7933;
816.9000;0.3793;0.7839;
817.2000;0.3728;0.7720;
817.5000;0.3753;0.7862;
817.8000;0.3785;0.7839;
818.1000;0.3753;0.7862;
818.4000;0.3687;0.7649;
818.7000;0.3769;0.7815;
819.0000;0.3818;0.7862;
819.3000;0.3801;0.7744;
819.6000;0.3753;0.7744;
819.9000;0.3753;0.7791;
820.2000;0.3744;0.7839;
820.5000;0.3867;0.8170;
820.8000;0.3720;0.7791;
821.1000;0.3753;0.7768;
821.4000;0.3777;0.7862;
821.7000;0.3761;0.7673;
822.0000;0.3744;0.7673;
822.3000;0.3753;0.7791;
822.6000;0.3769;0.7768;
822.9000;0.3761;0.7791;
823.2000;0.3761;0.7791;
823.5000;0.3777;0.7815;
823.8000;0.3777;0.7839;
824.1000;0.3769;0.7862;
824.4000;0.3761;0.7862;
824.7000;0.3728;0.7815;
825.0000;0.3736;0.7886;
825.3000;0.3801;0.7981;
825.6000;0.3753;0.7933;
825.9000;0.3769;0.8004;
826.2000;0.3744;0.7933;
826.5000;0.3744;0.7933;
826.8000;0.3744;0.7839;
827.1000;0.3777;0.7910;
827.4000;0.3744;0.7886;
827.7000;0.3785;0.7886;
828.0000;0.3736;0.7862;
828.3000;0.3761;0.7957;
828.6000;0.3753;0.7933;
828.9000;0.3761;0.7981;
829.2000;0.3744;0.7886;
829.5000;0.3744;0.7910;
829.8000;0.3761;0.7886;
830.1000;0.3736;0.7933;
830.4000;0.3761;0.8004;
830.7000;0.3761;0.8028;
831.0000;0.3753;0.8004;
831.3000;0.3736;0.7981;
831.6000;0.3753;0.7981;
831.9000;0.3769;0.7910;
832.2000;0.3761;0.7886;
832.5000;0.3744;0.7862;
832.8000;0.3744;0.7839;
833.1000;0.3720;0.7839;
833.4000;0.3753;0.7886;
833.7000;0.3728;0.7815;
834.0000;0.3834;0.8075;
834.3000;0.3761;0.7815;
834.6000;0.3744;0.7744;
834.9000;0.3744;0.7696;
835.2000;0.3720;0.7578;
835.5000;0.3736;0.7649;
835.8000;0.3769;0.7720;
836.1000;0.3736;0.7673;
836.4000;0.3728;0.7720;
836.7000;0.3744;0.7791;
837.0000;0.3736;0.7791;
837.3000;0.3753;0.7910;
837.6000;0.3761;0.7957;
837.9000;0.3753;0.8028;
838.2000;0.3744;0.8004;
838.5000;0.3736;0.8099;
838.8000;0.3744;0.7910;
839.1000;0.3736;0.7886;
839.4000;0.3736;0.7910;
839.7000;0.3720;0.7768;
840.0000;0.3761;0.7696;
840.3000;0.3761;0.7649;
840.6000;0.3728;0.7625;
840.9000;0.3769;0.7744;
841.2000;0.3728;0.7720;
841.5000;0.3744;0.7720;
841.8000;0.3761;0.7744;
842.1000;0.3736;0.7625;
842.4000;0.3761;0.7649;
842.7000;0.3753;0.7720;
843.0000;0.3753;0.7744;
843.3000;0.3720;0.7791;
843.6000;0.3728;0.7815;
843.9000;0.3728;0.7815;
844.2000;0.3736;0.7815;
844.5000;0.3720;0.7839;
844.8000;0.3736;0.7957;
845.1000;0.3744;0.7957;
845.4000;0.3679;0.7839;
845.7000;0.3728;0.7981;
846.0000;0.3753;0.7957;
846.3000;0.3720;0.7839;
846.6000;0.3744;0.7815;
846.9000;0.3761;0.7886;
847.2000;0.3736;0.7910;
847.5000;0.3777;0.8004;
847.8000;0.3687;0.7744;
848.1000;0.3744;0.7910;
848.4000;0.3663;0.7720;
848.7000;0.3728;0.7815;
849.0000;0.3720;0.7791;
849.3000;0.3744;0.7910;
849.6000;0.3728;0.7886;
849.9000;0.3736;0.7981;
850.2000;0.3728;0.7910;
850.5000;0.3687;0.7744;
850.8000;0.3736;0.7910;
851.1000;0.3736;0.7886;
851.4000;0.3744;0.7910;
851.7000;0.3720;0.7862;
852.0000;0.3720;0.7839;
852.3000;0.3720;0.7910;
852.6000;0.3728;0.7910;
852.9000;0.3753;0.7910;
853.2000;0.3744;0.7839;
853.5000;0.3728;0.7839;
853.8000;0.3663;0.7625;
854.1000;0.3712;0.7744;
854.4000;0.3736;0.7815;
854.7000;0.3728;0.7815;
855.0000;0.3736;0.7744;
855.3000;0.3826;0.7862;
855.6000;0.3753;0.7673;
855.9000;0.3753;0.7720;
856.2000;0.3720;0.7768;
856.5000;0.3744;0.7696;
856.8000;0.3712;0.7696;
857.1000;0.3696;0.7649;
857.4000;0.3736;0.7649;
857.7000;0.3704;0.7554;
858.0000;0.3712;0.7720;
858.3000;0.3728;0.7673;
858.6000;0.3728;0.7744;
858.9000;0.3712;0.7815;
859.2000;0.3720;0.7862;
859.5000;0.3712;0.7886;
859.8000;0.3736;0.7910;
860.1000;0.3704;0.7862;
860.4000;0.3720;0.7933;
860.7000;0.3761;0.8004;
861.0000;0.3728;0.7981;
861.3000;0.3744;0.7981;
861.6000;0.3720;0.7933;
861.9000;0.3744;0.7910;
862.2000;0.3728;0.7862;
862.5000;0.3720;0.7886;
862.8000;0.3744;0.7886;
863.1000;0.3728;0.7862;
863.4000;0.3704;0.7839;
863.7000;0.3704;0.7839;
864.0000;0.3728;0.7815;
864.3000;0.3744;0.7768;
864.6000;0.3728;0.7839;
864.9000;0.3736;0.7886;
865.2000;0.3736;0.7862;
865.5000;0.3744;0.7886;
865.8000;0.3834;0.8170;
866.1000;0.3736;0.8028;
866.4000;0.3630;0.7791;
866.7000;0.3728;0.8028;
867.0000;0.3736;0.8052;
867.3000;0.3720;0.7981;
867.6000;0.3728;0.7981;
867.9000;0.3720;0.7933;
868.2000;0.3720;0.7862;
868.5000;0.3728;0.7933;
868.8000;0.3712;0.7886;
869.1000;0.3728;0.8004;
869.4000;0.3712;0.8028;
869.7000;0.3704;0.8052;
870.0000;0.3744;0.8075;
870.3000;0.3663;0.7862;
870.6000;0.3736;0.8028;
870.9000;0.3728;0.8004;
871.2000;0.3736;0.8004;
871.5000;0.3720;0.7933;
871.8000;0.3696;0.7886;
872.1000;0.3728;0.7957;
872.4000;0.3728;0.8123;
872.7000;0.3736;0.8075;
873.0000;0.3720;0.8052;
873.3000;0.3712;0.8075;
873.6000;0.3744;0.8004;
873.9000;0.3712;0.7886;
874.2000;0.3728;0.7933;
874.5000;0.3712;0.7886;
874.8000;0.3720;0.7933;
875.1000;0.3736;0.7933;
875.4000;0.3736;0.7886;
875.7000;0.3744;0.7791;
876.0000;0.3736;0.7815;
876.3000;0.3793;0.7910;
876.6000;0.3687;0.7696;
876.9000;0.3720;0.7768;
877.2000;0.3720;0.7862;
877.5000;0.3728;0.7981;
877.8000;0.3728;0.7981;
878.1000;0.3761;0.7957;
878.4000;0.3728;0.7910;
878.7000;0.3777;0.8028;
879.0000;0.3712;0.7839;
879.3000;0.3728;0.7886;
879.6000;0.3777;0.7957;
879.9000;0.3891;0.8289;
880.2000;0.3728;0.7981;
880.5000;0.3704;0.7910;
880.8000;0.3818;0.8123;
881.1000;0.3744;0.7886;
881.4000;0.3753;0.7886;
881.7000;0.3712;0.7839;
882.0000;0.3744;0.7933;
882.3000;0.3728;0.7886;
882.6000;0.3704;0.7862;
882.9000;0.3720;0.7791;
883.2000;0.3736;0.7815;
883.5000;0.3704;0.7815;
883.8000;0.3777;0.7957;
884.1000;0.3704;0.7791;
884.4000;0.3704;0.7791;
884.7000;0.3720;0.7791;
885.0000;0.3712;0.7768;
885.3000;0.3728;0.7720;
885.6000;0.3736;0.7625;
885.9000;0.3679;0.7602;
886.2000;0.3728;0.7649;
886.5000;0.3712;0.7649;
886.8000;0.3728;0.7720;
887.1000;0.3687;0.7602;
887.4000;0.3744;0.7933;
887.7000;0.3793;0.8028;
888.0000;0.3671;0.7649;
888.3000;0.3630;0.7483;
888.6000;0.3622;0.7365;
888.9000;0.3647;0.7460;
889.2000;0.3720;0.7602;
889.5000;0.3687;0.7507;
889.8000;0.3712;0.7673;
890.1000;0.3728;0.7768;
890.4000;0.3753;0.7815;
890.7000;0.3728;0.7768;
891.0000;0.3704;0.7839;
891.3000;0.3720;0.7910;
891.6000;0.3712;0.7862;
891.9000;0.3728;0.7862;
892.2000;0.3720;0.7886;
892.5000;0.3712;0.7886;
892.8000;0.3736;0.7910;
893.1000;0.3720;0.7815;
893.4000;0.3712;0.7673;
893.7000;0.3712;0.7696;
894.0000;0.3736;0.7720;
894.3000;0.3720;0.7744;
894.6000;0.3712;0.7720;
894.9000;0.3655;0.7602;
895.2000;0.3720;0.7696;
895.5000;0.3679;0.7578;
895.8000;0.3704;0.7649;
896.1000;0.3712;0.7673;
896.4000;0.3720;0.7815;
896.7000;0.3728;0.7815;
897.0000;0.3736;0.7768;
897.3000;0.3728;0.7673;
897.6000;0.3720;0.7602;
897.9000;0.3712;0.7578;
898.2000;0.3736;0.7625;
898.5000;0.3704;0.7483;
898.8000;0.3704;0.7602;
899.1000;0.3728;0.7720;
899.4000;0.3704;0.7673;
899.7000;0.3720;0.7696;
900.0000;0.3712;0.7791;
900.3000;0.3696;0.7791;
900.6000;0.3704;0.7791;
900.9000;0.3712;0.7768;
901.2000;0.3712;0.7744;
901.5000;0.3728;0.7696;
901.8000;0.3720;0.7720;
902.1000;0.3671;0.7673;
902.4000;0.3704;0.7791;
902.7000;0.3712;0.7815;
903.0000;0.3712;0.7815;
903.3000;0.3704;0.7886;
903.6000;0.3704;0.7862;
903.9000;0.3696;0.7839;
904.2000;0.3679;0.7839;
904.5000;0.3728;0.7839;
904.8000;0.3720;0.7744;
905.1000;0.3704;0.7673;
905.4000;0.3704;0.7744;
905.7000;0.3679;0.7696;
906.0000;0.3744;0.7886;
906.3000;0.3712;0.7862;
906.6000;0.3671;0.7768;
906.9000;0.3671;0.7673;
907.2000;0.3728;0.7673;
907.5000;0.3720;0.7720;
907.8000;0.3753;0.7791;
908.1000;0.3736;0.7768;
908.4000;0.3704;0.7673;
908.7000;0.3769;0.7815;
909.0000;0.3728;0.7744;
909.3000;0.3647;0.7554;
909.6000;0.3712;0.7673;
909.9000;0.3720;0.7696;
910.2000;0.3720;0.7673;
910.5000;0.3704;0.7696;
910.8000;0.3728;0.7744;
911.1000;0.3679;0.7744;
911.4000;0.3687;0.7815;
911.7000;0.3761;0.7957;
912.0000;0.3679;0.7886;
912.3000;0.3712;0.7910;
912.6000;0.3712;0.7957;
912.9000;0.3720;0.7957;
913.2000;0.3728;0.8004;
913.5000;0.3712;0.8075;
913.8000;0.3696;0.8052;
914.1000;0.3687;0.8004;
914.4000;0.3712;0.8052;
914.7000;0.3687;0.7886;
915.0000;0.3704;0.7862;
915.3000;0.3712;0.7933;
915.6000;0.3712;0.7933;
915.9000;0.3720;0.7957;
916.2000;0.3696;0.7910;
916.5000;0.3696;0.7933;
916.8000;0.3679;0.7957;
917.1000;0.3696;0.7910;
917.4000;0.3712;0.7981;
917.7000;0.3704;0.8028;
918.0000;0.3696;0.8052;
918.3000;0.3671;0.7957;
918.6000;0.3826;0.8407;
918.9000;0.3712;0.8075;
919.2000;0.3696;0.8075;
919.5000;0.3712;0.8028;
919.8000;0.3720;0.7933;
920.1000;0.3720;0.7910;
920.4000;0.3728;0.7839;
920.7000;0.3696;0.7815;
921.0000;0.3744;0.7815;
921.3000;0.3736;0.7839;
921.6000;0.3696;0.7791;
921.9000;0.3736;0.7933;
922.2000;0.3704;0.8028;
922.5000;0.3720;0.7981;
922.8000;0.3704;0.7957;
923.1000;0.3728;0.7839;
923.4000;0.3712;0.7791;
923.7000;0.3696;0.7744;
924.0000;0.3728;0.7815;
924.3000;0.3687;0.7744;
924.6000;0.3712;0.7673;
924.9000;0.3712;0.7720;
925.2000;0.3704;0.7815;
925.5000;0.3696;0.7791;
925.8000;0.3704;0.7862;
926.1000;0.3687;0.7886;
926.4000;0.3704;0.7957;
926.7000;0.3720;0.7957;
927.0000;0.3696;0.7957;
927.3000;0.3704;0.7910;
927.6000;0.3712;0.7910;
927.9000;0.3753;0.8052;
928.2000;0.3671;0.7933;
928.5000;0.3704;0.8075;
928.8000;0.3704;0.8004;
929.1000;0.3696;0.7981;
929.4000;0.3712;0.8004;
929.7000;0.3712;0.8004;
930.0000;0.3687;0.7933;
930.3000;0.3736;0.8075;
930.6000;0.3728;0.7981;
930.9000;0.3647;0.7910;
931.2000;0.3720;0.7957;
931.5000;0.3663;0.7862;
931.8000;0.3696;0.7910;
932.1000;0.3671;0.7791;
932.4000;0.3712;0.7839;
932.7000;0.3712;0.7886;
933.0000;0.3712;0.7981;
933.3000;0.3728;0.8028;
933.6000;0.3704;0.7981;
933.9000;0.3606;0.7862;
934.2000;0.3712;0.8123;
934.5000;0.3687;0.8028;
934.8000;0.3704;0.8075;
935.1000;0.3704;0.8123;
935.4000;0.3573;0.7815;
935.7000;0.3728;0.8146;
936.0000;0.3663;0.7981;
936.3000;0.3687;0.8194;
936.6000;0.3720;0.8194;
936.9000;0.3679;0.8028;
937.2000;0.3687;0.8052;
937.5000;0.3696;0.8099;
937.8000;0.3696;0.8075;
938.1000;0.3696;0.7933;
938.4000;0.3687;0.7910;
938.7000;0.3720;0.8028;
939.0000;0.3687;0.7957;
939.3000;0.3696;0.8028;
939.6000;0.3671;0.7910;
939.9000;0.3712;0.7933;
940.2000;0.3696;0.8052;
940.5000;0.3687;0.8052;
940.8000;0.3696;0.8099;
941.1000;0.3679;0.8099;
941.4000;0.3704;0.8194;
941.7000;0.3704;0.8123;
942.0000;0.3696;0.8099;
942.3000;0.3687;0.8123;
942.6000;0.3720;0.8170;
942.9000;0.3744;0.8217;
943.2000;0.3712;0.8028;
943.5000;0.3704;0.7957;
943.8000;0.3744;0.8028;
944.1000;0.3720;0.8052;
944.4000;0.3720;0.8028;
944.7000;0.3728;0.8052;
945.0000;0.3696;0.7910;
945.3000;0.3712;0.7933;
945.6000;0.3704;0.7957;
945.9000;0.3704;0.7957;
946.2000;0.3720;0.8052;
946.5000;0.3704;0.8075;
946.8000;0.3696;0.8099;
947.1000;0.3696;0.8194;
947.4000;0.3696;0.8241;
947.7000;0.3696;0.8194;
948.0000;0.3622;0.8052;
948.3000;0.3687;0.8241;
948.6000;0.3687;0.8217;
948.9000;0.3753;0.8407;
949.2000;0.3728;0.8241;
949.5000;0.3639;0.8004;
949.8000;0.3598;0.7839;
950.1000;0.3687;0.8170;
950.4000;0.3671;0.8052;
950.7000;0.3671;0.8075;
951.0000;0.3679;0.8099;
951.3000;0.3679;0.8099;
951.6000;0.3679;0.8099;
951.9000;0.3753;0.8099;
952.2000;0.3696;0.7886;
952.5000;0.3687;0.7862;
952.8000;0.3712;0.7981;
953.1000;0.3704;0.8004;
953.4000;0.3712;0.7981;
953.7000;0.3687;0.7957;
954.0000;0.3630;0.7815;
954.3000;0.3704;0.7839;
954.6000;0.3687;0.7768;
954.9000;0.3712;0.7791;
955.2000;0.3704;0.7768;
955.5000;0.3704;0.7839;
955.8000;0.3696;0.7815;
956.1000;0.3704;0.7744;
956.4000;0.3704;0.7791;
956.7000;0.3712;0.7815;
957.0000;0.3720;0.7768;
957.3000;0.3696;0.7791;
957.6000;0.3704;0.7957;
957.9000;0.3696;0.8052;
958.2000;0.3736;0.8099;
958.5000;0.3704;0.8075;
958.8000;0.3647;0.8004;
959.1000;0.3679;0.8075;
959.4000;0.3744;0.8170;
959.7000;0.3704;0.8146;
960.0000;0.3696;0.8194;
960.3000;0.3744;0.8360;
960.6000;0.3696;0.8241;
960.9000;0.3704;0.8241;
961.2000;0.3671;0.8170;
961.5000;0.3679;0.8217;
961.8000;0.3679;0.8123;
962.1000;0.3704;0.8146;
962.4000;0.3704;0.8241;
962.7000;0.3679;0.8241;
963.0000;0.3704;0.8265;
963.3000;0.3736;0.8194;
963.6000;0.3696;0.8075;
963.9000;0.3687;0.8075;
964.2000;0.3696;0.8123;
964.5000;0.3671;0.7957;
964.8000;0.3704;0.7957;
965.1000;0.3687;0.7886;
965.4000;0.3687;0.7886;
965.7000;0.3679;0.7815;
966.0000;0.3696;0.7910;
966.3000;0.3671;0.7933;
966.6000;0.3663;0.8004;
966.9000;0.3696;0.8028;
967.2000;0.3712;0.7933;
967.5000;0.3671;0.7910;
967.8000;0.3704;0.7957;
968.1000;0.3712;0.7933;
968.4000;0.3687;0.7886;
968.7000;0.3696;0.7886;
969.0000;0.3696;0.7815;
969.3000;0.3687;0.7815;
969.6000;0.3622;0.7696;
969.9000;0.3704;0.7886;
970.2000;0.3687;0.7910;
970.5000;0.3704;0.7957;
970.8000;0.3679;0.7886;
971.1000;0.3712;0.7862;
971.4000;0.3687;0.7839;
971.7000;0.3712;0.7933;
972.0000;0.3679;0.7862;
972.3000;0.3622;0.7839;
972.6000;0.3687;0.8075;
972.9000;0.3671;0.8052;
973.2000;0.3720;0.8052;
973.5000;0.3696;0.7957;
973.8000;0.3687;0.8004;
974.1000;0.3687;0.8004;
974.4000;0.3696;0.8004;
974.7000;0.3687;0.7933;
975.0000;0.3679;0.7933;
975.3000;0.3704;0.7981;
975.6000;0.3671;0.7957;
975.9000;0.3801;0.8217;
976.2000;0.3679;0.7862;
976.5000;0.3663;0.7768;
976.8000;0.3671;0.7815;
977.1000;0.3687;0.7839;
977.4000;0.3696;0.7862;
977.7000;0.3687;0.7791;
978.0000;0.3598;0.7554;
978.3000;0.3598;0.7531;
978.6000;0.3696;0.7933;
978.9000;0.3704;0.8004;
979.2000;0.3696;0.7957;
979.5000;0.3712;0.7981;
979.8000;0.3744;0.8075;
980.1000;0.3704;0.8052;
980.4000;0.3720;0.8170;
980.7000;0.3744;0.8123;
981.0000;0.3696;0.8004;
981.3000;0.3696;0.7910;
981.6000;0.3696;0.7910;
981.9000;0.3696;0.8052;
982.2000;0.3687;0.7981;
982.5000;0.3704;0.7957;
982.8000;0.3696;0.7933;
983.1000;0.3744;0.8028;
983.4000;0.3736;0.7957;
983.7000;0.3720;0.7886;
984.0000;0.3647;0.7768;
984.3000;0.3663;0.7910;
984.6000;0.3679;0.8028;
984.9000;0.3687;0.8052;
985.2000;0.3687;0.8099;
985.5000;0.3704;0.8146;
985.8000;0.3696;0.8123;
986.1000;0.3744;0.8289;
986.4000;0.3696;0.8123;
986.7000;0.3671;0.8052;
987.0000;0.3655;0.7910;
987.3000;0.3663;0.7957;
987.6000;0.3679;0.7933;
987.9000;0.3663;0.7886;
988.2000;0.3647;0.7839;
988.5000;0.3663;0.7886;
988.8000;0.3679;0.7933;
989.1000;0.3687;0.7910;
989.4000;0.3687;0.8004;
989.7000;0.3704;0.8075;
990.0000;0.3712;0.7981;
990.3000;0.3655;0.7886;
990.6000;0.3696;0.8052;
990.9000;0.3696;0.8123;
991.2000;0.3671;0.8052;
991.5000;0.3639;0.7933;
991.8000;0.3679;0.8052;
992.1000;0.3671;0.8028;
992.4000;0.3671;0.8146;
992.7000;0.3687;0.8194;
993.0000;0.3679;0.8146;
993.3000;0.3696;0.8217;
993.6000;0.3696;0.8241;
993.9000;0.3687;0.8241;
994.2000;0.3687;0.8217;
994.5000;0.3687;0.8194;
994.8000;0.3704;0.8194;
995.1000;0.3704;0.8099;
995.4000;0.3679;0.8099;
995.7000;0.3687;0.8075;
996.0000;0.3687;0.8146;
996.3000;0.3728;0.8289;
996.6000;0.3696;0.8146;
996.9000;0.3639;0.7910;
997.2000;0.3704;0.8123;
997.5000;0.3671;0.7957;
997.8000;0.3687;0.8075;
998.1000;0.3687;0.8075;
998.4000;0.3663;0.8146;
998.7000;0.3687;0.8194;
999.0000;0.3687;0.8123;
999.3000;0.3639;0.7862;
999.6000;0.3679;0.7957;
999.9000;0.3696;0.8052;
1000.2000;0.3663;0.8028;
1000.5000;0.3655;0.8028;
1000.8000;0.3712;0.8052;
1001.1000;0.3696;0.8123;
1001.4000;0.3687;0.8146;
1001.7000;0.3679;0.8099;
1002.0000;0.3801;0.8336;
1002.3000;0.3777;0.8217;
1002.6000;0.3590;0.7839;
1002.9000;0.3679;0.8075;
1003.2000;0.3736;0.8123;
1003.5000;0.3655;0.8004;
1003.8000;0.3598;0.7933;
1004.1000;0.3630;0.8099;
1004.4000;0.3712;0.8312;
1004.7000;0.3598;0.8004;
1005.0000;0.3647;0.8217;
1005.3000;0.3720;0.8407;
1005.6000;0.3671;0.8265;
1005.9000;0.3687;0.8241;
1006.2000;0.3704;0.8123;
1006.5000;0.3679;0.8052;
1006.8000;0.3712;0.8052;
1007.1000;0.3679;0.8004;
1007.4000;0.3704;0.8028;
1007.7000;0.3687;0.8028;
1008.0000;0.3704;0.8028;
1008.3000;0.3696;0.7957;
1008.6000;0.3655;0.7957;
1008.9000;0.3696;0.8052;
1009.2000;0.3679;0.8075;
1009.5000;0.3679;0.8004;
1009.8000;0.3704;0.8052;
1010.1000;0.3679;0.8028;
1010.4000;0.3687;0.8052;
1010.7000;0.3679;0.8099;
1011.0000;0.3687;0.8099;
1011.3000;0.3671;0.8052;
1011.6000;0.3671;0.8075;
1011.9000;0.3696;0.7957;
1012.2000;0.3671;0.7910;
1012.5000;0.3655;0.7957;
1012.8000;0.3663;0.7981;
1013.1000;0.3679;0.8099;
1013.4000;0.3582;0.7815;
1013.7000;0.3671;0.8004;
1014.0000;0.3663;0.7910;
1014.3000;0.3663;0.7862;
1014.6000;0.3655;0.7839;
1014.9000;0.3687;0.7910;
1015.2000;0.3704;0.7910;
1015.5000;0.3712;0.7933;
1015.8000;0.3679;0.7910;
1016.1000;0.3663;0.7839;
1016.4000;0.3663;0.7886;
1016.7000;0.3663;0.7862;
1017.0000;0.3704;0.7981;
1017.3000;0.3687;0.8004;
1017.6000;0.3761;0.8217;
1017.9000;0.3696;0.8075;
1018.2000;0.3712;0.8123;
1018.5000;0.3671;0.8004;
1018.8000;0.3671;0.8004;
1019.1000;0.3679;0.8052;
1019.4000;0.3687;0.8123;
1019.7000;0.3687;0.8123;
1020.0000;0.3614;0.7933;
1020.3000;0.3614;0.7886;
1020.6000;0.3687;0.8146;
1020.9000;0.3663;0.8075;
1021.2000;0.3696;0.8170;
1021.5000;0.3704;0.8146;
1021.8000;0.3663;0.8075;
1022.1000;0.3744;0.8265;
1022.4000;0.3663;0.8123;
1022.7000;0.3663;0.8194;
1023.0000;0.3655;0.8289;
1023.3000;0.3663;0.8289;
1023.6000;0.3687;0.8194;
1023.9000;0.3687;0.8194;
1024.2000;0.3704;0.8123;
1024.5000;0.3712;0.8241;
1024.8000;0.3679;0.8123;
1025.1000;0.3720;0.8170;
1025.4000;0.3736;0.8075;
1025.7000;0.3663;0.7981;
1026.0000;0.3687;0.8028;
1026.3000;0.3696;0.7981;
1026.6000;0.3720;0.8075;
1026.9000;0.3736;0.8099;
1027.2000;0.3671;0.7981;
1027.5000;0.3663;0.7981;
1027.8000;0.3655;0.8028;
1028.1000;0.3679;0.8194;
1028.4000;0.3704;0.8265;
1028.7000;0.3687;0.8289;
1029.0000;0.3647;0.8123;
1029.3000;0.3736;0.8194;
1029.6000;0.3696;0.8075;
1029.9000;0.3687;0.7981;
1030.2000;0.3704;0.8075;
1030.5000;0.3679;0.8052;
1030.8000;0.3671;0.8004;
1031.1000;0.3687;0.7910;
1031.4000;0.3728;0.8028;
1031.7000;0.3679;0.7957;
1032.0000;0.3671;0.8004;
1032.3000;0.3679;0.8004;
1032.6000;0.3630;0.7933;
1032.9000;0.3687;0.8123;
1033.2000;0.3687;0.8170;
1033.5000;0.3679;0.8099;
1033.8000;0.3655;0.8052;
1034.1000;0.3671;0.8146;
1034.4000;0.3671;0.8146;
1034.7000;0.3696;0.8123;
1035.0000;0.3687;0.8004;
1035.3000;0.3777;0.8170;
1035.6000;0.3671;0.7815;
1035.9000;0.3663;0.7791;
1036.2000;0.3704;0.7862;
1036.5000;0.3679;0.7839;
1036.8000;0.3663;0.7744;
1037.1000;0.3663;0.7720;
1037.4000;0.3679;0.7839;
1037.7000;0.3671;0.7839;
1038.0000;0.3679;0.7815;
1038.3000;0.3744;0.8075;
1038.6000;0.3687;0.7957;
1038.9000;0.3639;0.7839;
1039.2000;0.3679;0.7981;
1039.5000;0.3679;0.7957;
1039.8000;0.3647;0.7839;
1040.1000;0.3687;0.8052;
1040.4000;0.3687;0.8052;
1040.7000;0.3704;0.7981;
1041.0000;0.3679;0.8004;
1041.3000;0.3679;0.7910;
1041.6000;0.3687;0.7886;
1041.9000;0.3663;0.7839;
1042.2000;0.3687;0.7981;
1042.5000;0.3679;0.8004;
1042.8000;0.3728;0.8194;
1043.1000;0.3663;0.8099;
1043.4000;0.3671;0.8075;
1043.7000;0.3687;0.8075;
1044.0000;0.3687;0.8028;
1044.3000;0.3582;0.7696;
1044.6000;0.3696;0.8052;
1044.9000;0.3663;0.8004;
1045.2000;0.3753;0.8312;
1045.5000;0.3687;0.8194;
1045.8000;0.3679;0.8241;
1046.1000;0.3687;0.8265;
1046.4000;0.3687;0.8241;
1046.7000;0.3663;0.8241;
1047.0000;0.3655;0.8170;
1047.3000;0.3671;0.8217;
1047.6000;0.3671;0.8289;
1047.9000;0.3663;0.8241;
1048.2000;0.3655;0.8170;
1048.5000;0.3671;0.8170;
1048.8000;0.3671;0.8241;
1049.1000;0.3663;0.8241;
1049.4000;0.3671;0.8265;
1049.7000;0.3663;0.8123;
1050.0000;0.3687;0.8146;
1050.3000;0.3679;0.8123;
1050.6000;0.3655;0.8146;
1050.9000;0.3663;0.8170;
1051.2000;0.3679;0.8194;
1051.5000;0.3679;0.8194;
1051.8000;0.3663;0.8123;
1052.1000;0.3679;0.8123;
1052.4000;0.3679;0.8123;
1052.7000;0.3671;0.8146;
1053.0000;0.3671;0.8075;
1053.3000;0.3671;0.8075;
1053.6000;0.3663;0.8075;
1053.9000;0.3679;0.8099;
1054.2000;0.3687;0.8099;
1054.5000;0.3647;0.7910;
1054.8000;0.3655;0.8004;
1055.1000;0.3663;0.8075;
1055.4000;0.3606;0.7957;
1055.7000;0.3671;0.8075;
1056.0000;0.3696;0.8099;
1056.3000;0.3655;0.8028;
1056.6000;0.3712;0.8075;
1056.9000;0.3679;0.8075;
1057.2000;0.3687;0.8052;
1057.5000;0.3679;0.8028;
1057.8000;0.3679;0.8123;
1058.1000;0.3655;0.8123;
1058.4000;0.3671;0.8146;
1058.7000;0.3655;0.8099;
1059.0000;0.3655;0.7981;
1059.3000;0.3622;0.7886;
1059.6000;0.3671;0.7981;
1059.9000;0.3671;0.8075;
1060.2000;0.3671;0.8075;
1060.5000;0.3655;0.8028;
1060.8000;0.3663;0.8052;
1061.1000;0.3679;0.8217;
1061.4000;0.3785;0.8407;
1061.7000;0.3696;0.8241;
1062.0000;0.3671;0.8217;
1062.3000;0.3728;0.8407;
1062.6000;0.3663;0.8265;
1062.9000;0.3720;0.8360;
1063.2000;0.3671;0.8123;
1063.5000;0.3679;0.8170;
1063.8000;0.3655;0.8075;
1064.1000;0.3655;0.8052;
1064.4000;0.3630;0.8075;
1064.7000;0.3679;0.8028;
1065.0000;0.3679;0.7981;
1065.3000;0.3671;0.8075;
1065.6000;0.3663;0.8146;
1065.9000;0.3679;0.8265;
1066.2000;0.3696;0.8360;
1066.5000;0.3663;0.8194;
1066.8000;0.3679;0.8217;
1067.1000;0.3753;0.8360;
1067.4000;0.3671;0.8123;
1067.7000;0.3687;0.8099;
1068.0000;0.3663;0.8241;
1068.3000;0.3647;0.8123;
1068.6000;0.3655;0.8123;
1068.9000;0.3647;0.8146;
1069.2000;0.3671;0.8170;
1069.5000;0.3671;0.8170;
1069.8000;0.3671;0.8217;
1070.1000;0.3712;0.8289;
1070.4000;0.3671;0.8265;
1070.7000;0.3679;0.8241;
1071.0000;0.3696;0.8123;
1071.3000;0.3663;0.8099;
1071.6000;0.3687;0.8099;
1071.9000;0.3679;0.8052;
1072.2000;0.3687;0.8028;
1072.5000;0.3679;0.8194;
1072.8000;0.3671;0.8241;
1073.1000;0.3671;0.8194;
1073.4000;0.3728;0.8289;
1073.7000;0.3663;0.8075;
1074.0000;0.3679;0.8028;
1074.3000;0.3687;0.8075;
1074.6000;0.3679;0.8028;
1074.9000;0.3679;0.8052;
1075.2000;0.3679;0.8028;
1075.5000;0.3679;0.8075;
1075.8000;0.3679;0.8052;
1076.1000;0.3679;0.8028;
1076.4000;0.3687;0.7957;
1076.7000;0.3679;0.8052;
1077.0000;0.3671;0.8052;
1077.3000;0.3671;0.8052;
1077.6000;0.3736;0.8217;
1077.9000;0.3630;0.7957;
1078.2000;0.3614;0.7839;
1078.5000;0.3622;0.7933;
1078.8000;0.3671;0.7981;
1079.1000;0.3687;0.8052;
1079.4000;0.3639;0.7910;
1079.7000;0.3655;0.8004;
1080.0000;0.3679;0.8170;
1080.3000;0.3639;0.8004;
1080.6000;0.3679;0.8123;
1080.9000;0.3671;0.8146;
1081.2000;0.3671;0.8075;
1081.5000;0.3598;0.7815;
1081.8000;0.3630;0.7886;
1082.1000;0.3712;0.8028;
1082.4000;0.3663;0.7886;
1082.7000;0.3663;0.7839;
1083.0000;0.3679;0.7886;
1083.3000;0.3712;0.7957;
1083.6000;0.3671;0.7886;
1083.9000;0.3679;0.8004;
1084.2000;0.3696;0.8052;
1084.5000;0.3655;0.8075;
1084.8000;0.3663;0.8052;
1085.1000;0.3655;0.8052;
1085.4000;0.3687;0.8146;
1085.7000;0.3671;0.8052;
1086.0000;0.3663;0.8099;
1086.3000;0.3663;0.8099;
1086.6000;0.3655;0.8004;
1086.9000;0.3614;0.7957;
1087.2000;0.3696;0.8123;
1087.5000;0.3663;0.8052;
1087.8000;0.3663;0.8028;
1088.1000;0.3671;0.7933;
1088.4000;0.3712;0.7981;
1088.7000;0.3647;0.7862;
1089.0000;0.3655;0.7886;
1089.3000;0.3696;0.7981;
1089.6000;0.3655;0.7933;
1089.9000;0.3663;0.7981;
1090.2000;0.3647;0.7981;
1090.5000;0.3647;0.7981;
1090.8000;0.3655;0.7981;
1091.1000;0.3606;0.7839;
1091.4000;0.3663;0.7957;
1091.7000;0.3655;0.7886;
1092.0000;0.3663;0.7886;
1092.3000;0.3639;0.7744;
1092.6000;0.3671;0.7886;
1092.9000;0.3671;0.7957;
1093.2000;0.3671;0.7933;
1093.5000;0.3687;0.7862;
1093.8000;0.3736;0.8004;
1094.1000;0.3590;0.7625;
1094.4000;0.3679;0.7910;
1094.7000;0.3671;0.7910;
1095.0000;0.3704;0.8004;
1095.3000;0.3687;0.7886;
1095.6000;0.3687;0.7839;
1095.9000;0.3671;0.7862;
1096.2000;0.3671;0.7957;
1096.5000;0.3663;0.7981;
1096.8000;0.3671;0.8052;
1097.1000;0.3704;0.8241;
1097.4000;0.3696;0.8289;
1097.7000;0.3679;0.8170;
1098.0000;0.3687;0.8146;
1098.3000;0.3671;0.8004;
1098.6000;0.3679;0.7981;
1098.9000;0.3736;0.8146;
1099.2000;0.3671;0.8004;
1099.5000;0.3663;0.8028;
1099.8000;0.3687;0.8004;
1100.1000;0.3696;0.8028;
1100.4000;0.3679;0.8004;
1100.7000;0.3704;0.8123;
1101.0000;0.3712;0.8123;
1101.3000;0.3671;0.8099;
1101.6000;0.3687;0.8123;
1101.9000;0.3679;0.8052;
1102.2000;0.3622;0.7933;
1102.5000;0.3630;0.7957;
1102.8000;0.3655;0.7933;
1103.1000;0.3671;0.7910;
1103.4000;0.3598;0.7696;
1103.7000;0.3744;0.8075;
1104.0000;0.3671;0.7957;
1104.3000;0.3647;0.7862;
1104.6000;0.3687;0.7957;
1104.9000;0.3704;0.8075;
1105.2000;0.3679;0.8052;
1105.5000;0.3655;0.7957;
1105.8000;0.3671;0.7957;
1106.1000;0.3679;0.7933;
1106.4000;0.3671;0.7981;
1106.7000;0.3655;0.7886;
1107.0000;0.3655;0.7791;
1107.3000;0.3679;0.7910;
1107.6000;0.3679;0.7910;
1107.9000;0.3647;0.7886;
1108.2000;0.3663;0.7957;
1108.5000;0.3663;0.7981;
1108.8000;0.3647;0.7886;
1109.1000;0.3663;0.7933;
1109.4000;0.3679;0.8099;
1109.7000;0.3630;0.8004;
1110.0000;0.3687;0.8123;
1110.3000;0.3671;0.8194;
1110.6000;0.3647;0.8194;
1110.9000;0.3687;0.8312;
1111.2000;0.3671;0.8289;
1111.5000;0.3663;0.8360;
1111.8000;0.3687;0.8360;
1112.1000;0.3663;0.8336;
1112.4000;0.3663;0.8289;
1112.7000;0.3696;0.8289;
1113.0000;0.3671;0.8194;
1113.3000;0.3606;0.8028;
1113.6000;0.3671;0.8194;
1113.9000;0.3614;0.7910;
1114.2000;0.3663;0.7933;
1114.5000;0.3671;0.7933;
1114.8000;0.3679;0.7981;
1115.1000;0.3630;0.7933;
1115.4000;0.3671;0.8052;
1115.7000;0.3655;0.7933;
1116.0000;0.3606;0.7696;
1116.3000;0.3663;0.7910;
1116.6000;0.3671;0.7910;
1116.9000;0.3679;0.7933;
1117.2000;0.3655;0.7933;
1117.5000;0.3671;0.7933;
1117.8000;0.3687;0.8004;
1118.1000;0.3655;0.8028;
1118.4000;0.3663;0.8028;
1118.7000;0.3647;0.8004;
1119.0000;0.3671;0.8146;
1119.3000;0.3647;0.8123;
1119.6000;0.3696;0.8217;
1119.9000;0.3655;0.8123;
1120.2000;0.3639;0.7981;
1120.5000;0.3663;0.8028;
1120.8000;0.3606;0.7886;
1121.1000;0.3671;0.8004;
1121.4000;0.3728;0.8075;
1121.7000;0.3663;0.8004;
1122.0000;0.3671;0.8052;
1122.3000;0.3671;0.7981;
1122.6000;0.3696;0.7981;
1122.9000;0.3761;0.8123;
1123.2000;0.3671;0.7933;
1123.5000;0.3704;0.8028;
1123.8000;0.3696;0.8004;
1124.1000;0.3663;0.7933;
1124.4000;0.3655;0.8004;
1124.7000;0.3663;0.8004;
1125.0000;0.3639;0.7957;
1125.3000;0.3655;0.7933;
1125.6000;0.3655;0.7886;
1125.9000;0.3663;0.7910;
1126.2000;0.3655;0.7862;
1126.5000;0.3622;0.7839;
1126.8000;0.3647;0.7839;
1127.1000;0.3655;0.7910;
1127.4000;0.3736;0.8146;
1127.7000;0.3728;0.8075;
1128.0000;0.3671;0.8052;
1128.3000;0.3671;0.8099;
1128.6000;0.3704;0.8194;
1128.9000;0.3663;0.8099;
1129.2000;0.3687;0.8170;
1129.5000;0.3663;0.8052;
1129.8000;0.3704;0.8099;
1130.1000;0.3679;0.8004;
1130.4000;0.3663;0.7933;
1130.7000;0.3663;0.8075;
1131.0000;0.3655;0.8004;
1131.3000;0.3655;0.7957;
1131.6000;0.3671;0.8028;
1131.9000;0.3663;0.7957;
1132.2000;0.3687;0.7981;
1132.5000;0.3663;0.7957;
1132.8000;0.3696;0.8052;
1133.1000;0.3687;0.7981;
1133.4000;0.3687;0.7933;
1133.7000;0.3720;0.8004;
1134.0000;0.3720;0.7981;
1134.3000;0.3687;0.7981;
1134.6000;0.3671;0.7957;
1134.9000;0.3687;0.8028;
1135.2000;0.3647;0.7933;
1135.5000;0.3655;0.7933;
1135.8000;0.3614;0.7791;
1136.1000;0.3801;0.8312;
1136.4000;0.3655;0.7957;
1136.7000;0.3655;0.8004;
1137.0000;0.3687;0.8004;
1137.3000;0.3663;0.7957;
1137.6000;0.3679;0.7933;
1137.9000;0.3687;0.7957;
1138.2000;0.3696;0.8052;
1138.5000;0.3655;0.7933;
1138.8000;0.3671;0.7910;
1139.1000;0.3565;0.7768;
1139.4000;0.3663;0.7957;
1139.7000;0.3655;0.7862;
1140.0000;0.3663;0.7933;
1140.3000;0.3663;0.7815;
1140.6000;0.3655;0.7768;
1140.9000;0.3671;0.7862;
1141.2000;0.3655;0.7815;
1141.5000;0.3663;0.7957;
1141.8000;0.3622;0.7933;
1142.1000;0.3639;0.8004;
1142.4000;0.3663;0.7957;
1142.7000;0.3655;0.7933;
1143.0000;0.3655;0.7933;
1143.3000;0.3720;0.8146;
1143.6000;0.3639;0.8028;
1143.9000;0.3655;0.8028;
1144.2000;0.3655;0.8028;
1144.5000;0.3687;0.8052;
1144.8000;0.3671;0.8028;
1145.1000;0.3671;0.8052;
1145.4000;0.3655;0.8075;
1145.7000;0.3712;0.8146;
1146.0000;0.3663;0.7957;
1146.3000;0.3655;0.7933;
1146.6000;0.3671;0.7933;
1146.9000;0.3671;0.7886;
1147.2000;0.3679;0.7957;
1147.5000;0.3720;0.8052;
1147.8000;0.3679;0.7933;
1148.1000;0.3696;0.7981;
1148.4000;0.3663;0.7981;
1148.7000;0.3671;0.7957;
1149.0000;0.3647;0.7839;
1149.3000;0.3704;0.7981;
1149.6000;0.3679;0.7981;
1149.9000;0.3679;0.7957;
1150.2000;0.3655;0.7933;
1150.5000;0.3736;0.8123;
1150.8000;0.3647;0.8004;
1151.1000;0.3663;0.8028;
1151.4000;0.3671;0.8099;
1151.7000;0.3639;0.8075;
1152.0000;0.3655;0.8052;
1152.3000;0.3663;0.8099;
1152.6000;0.3671;0.8146;
1152.9000;0.3655;0.8170;
1153.2000;0.3647;0.8170;
1153.5000;0.3590;0.7957;
1153.8000;0.3663;0.8194;
1154.1000;0.3647;0.8241;
1154.4000;0.3663;0.8170;
1154.7000;0.3671;0.8146;
1155.0000;0.3663;0.8052;
1155.3000;0.3647;0.7957;
1155.6000;0.3663;0.8028;
1155.9000;0.3671;0.8075;
1156.2000;0.3679;0.8075;
1156.5000;0.3630;0.7886;
1156.8000;0.3679;0.8028;
1157.1000;0.3679;0.8052;
1157.4000;0.3671;0.8028;
1157.7000;0.3696;0.8028;
1158.0000;0.3647;0.7981;
1158.3000;0.3647;0.7910;
1158.6000;0.3630;0.7910;
1158.9000;0.3647;0.7933;
1159.2000;0.3639;0.7839;
1159.5000;0.3655;0.7933;
1159.8000;0.3777;0.8217;
1160.1000;0.3614;0.7815;
1160.4000;0.3679;0.7981;
1160.7000;0.3712;0.8123;
1161.0000;0.3720;0.8146;
1161.3000;0.3696;0.8075;
1161.6000;0.3647;0.8028;
1161.9000;0.3671;0.8075;
1162.2000;0.3671;0.8146;
1162.5000;0.3590;0.7910;
1162.8000;0.3663;0.8052;
1163.1000;0.3696;0.8123;
1163.4000;0.3679;0.8146;
1163.7000;0.3687;0.8170;
1164.0000;0.3671;0.8099;
1164.3000;0.3630;0.7886;
1164.6000;0.3663;0.7957;
1164.9000;0.3679;0.8004;
1165.2000;0.3655;0.7981;
1165.5000;0.3679;0.8004;
1165.8000;0.3663;0.7981;
1166.1000;0.3606;0.7839;
1166.4000;0.3671;0.7981;
1166.7000;0.3655;0.7957;
1167.0000;0.3565;0.7744;
1167.3000;0.3647;0.7933;
1167.6000;0.3679;0.7981;
1167.9000;0.3663;0.7981;
1168.2000;0.3655;0.8075;
1168.5000;0.3671;0.8123;
1168.8000;0.3679;0.8052;
1169.1000;0.3687;0.8052;
1169.4000;0.3704;0.8217;
1169.7000;0.3687;0.8241;
1170.0000;0.3663;0.8123;
1170.3000;0.3655;0.8146;
1170.6000;0.3663;0.8146;
1170.9000;0.3663;0.8004;
1171.2000;0.3663;0.7981;
1171.5000;0.3655;0.8028;
1171.8000;0.3671;0.8004;
1172.1000;0.3647;0.8075;
1172.4000;0.3630;0.7981;
1172.7000;0.3671;0.8028;
1173.0000;0.3671;0.8075;
1173.3000;0.3655;0.8004;
1173.6000;0.3671;0.8028;
1173.9000;0.3704;0.8099;
1174.2000;0.3728;0.8241;
1174.5000;0.3663;0.8146;
1174.8000;0.3671;0.8146;
1175.1000;0.3687;0.8170;
1175.4000;0.3671;0.8123;
1175.7000;0.3728;0.8217;
1176.0000;0.3663;0.8099;
1176.3000;0.3736;0.8099;
1176.6000;0.3671;0.7957;
1176.9000;0.3647;0.8004;
1177.2000;0.3671;0.8028;
1177.5000;0.3704;0.8052;
1177.8000;0.3663;0.7981;
1178.1000;0.3671;0.8052;
1178.4000;0.3663;0.8004;
1178.7000;0.3663;0.8004;
1179.0000;0.3671;0.8004;
1179.3000;0.3671;0.8052;
1179.6000;0.3663;0.8028;
1179.9000;0.3720;0.8194;
1180.2000;0.3679;0.8052;
1180.5000;0.3679;0.8099;
1180.8000;0.3663;0.8028;
1181.1000;0.3647;0.8004;
1181.4000;0.3647;0.7957;
1181.7000;0.3663;0.7981;
1182.0000;0.3663;0.8004;
1182.3000;0.3655;0.8028;
1182.6000;0.3671;0.8075;
1182.9000;0.3655;0.7981;
1183.2000;0.3663;0.8004;
1183.5000;0.3647;0.8028;
1183.8000;0.3655;0.8075;
1184.1000;0.3655;0.8099;
1184.4000;0.3647;0.8075;
1184.7000;0.3622;0.7981;
1185.0000;0.3663;0.7910;
1185.3000;0.3663;0.7981;
1185.6000;0.3671;0.8004;
1185.9000;0.3671;0.8004;
1186.2000;0.3679;0.8028;
1186.5000;0.3655;0.7981;
1186.8000;0.3671;0.8146;
1187.1000;0.3655;0.8028;
1187.4000;0.3655;0.8075;
1187.7000;0.3663;0.8146;
1188.0000;0.3598;0.8028;
1188.3000;0.3639;0.8194;
1188.6000;0.3647;0.8099;
1188.9000;0.3630;0.8028;
1189.2000;0.3663;0.8052;
1189.5000;0.3679;0.8099;
1189.8000;0.3647;0.7957;
1190.1000;0.3663;0.7981;
1190.4000;0.3671;0.8028;
1190.7000;0.3655;0.8004;
1191.0000;0.3663;0.8028;
1191.3000;0.3598;0.7815;
1191.6000;0.3663;0.8028;
1191.9000;0.3622;0.8052;
1192.2000;0.3671;0.8217;
1192.5000;0.3671;0.8217;
1192.8000;0.3647;0.8146;
1193.1000;0.3679;0.8146;
1193.4000;0.3679;0.8289;
1193.7000;0.3647;0.8217;
1194.0000;0.3655;0.8217;
1194.3000;0.3696;0.8312;
1194.6000;0.3663;0.8241;
1194.9000;0.3647;0.8170;
1195.2000;0.3671;0.8241;
1195.5000;0.3663;0.8217;
1195.8000;0.3712;0.8265;
1196.1000;0.3663;0.8028;
1196.4000;0.3549;0.7744;
1196.7000;0.3647;0.7957;
1197.0000;0.3687;0.8052;
1197.3000;0.3647;0.7910;
1197.6000;0.3663;0.7957;
1197.9000;0.3630;0.7933;
1198.2000;0.3647;0.8052;
1198.5000;0.3639;0.7981;
1198.8000;0.3614;0.7886;
1199.1000;0.3639;0.8004;
1199.4000;0.3655;0.8028;
1199.7000;0.3696;0.8194;
1200.0000;0.3655;0.8241;
1200.3000;0.3679;0.8312;
1200.6000;0.3679;0.8241;
1200.9000;0.3671;0.8123;
1201.2000;0.3671;0.8123;
1201.5000;0.3671;0.8170;
1201.8000;0.3687;0.8146;
1202.1000;0.3720;0.8217;
1202.4000;0.3663;0.8170;
1202.7000;0.3671;0.8170;
1203.0000;0.3655;0.8123;
1203.3000;0.3671;0.8052;
1203.6000;0.3655;0.8075;
1203.9000;0.3647;0.8099;
1204.2000;0.3663;0.8146;
1204.5000;0.3671;0.8241;
1204.8000;0.3639;0.8146;
1205.1000;0.3647;0.8146;
1205.4000;0.3655;0.8075;
1205.7000;0.3639;0.8004;
1206.0000;0.3663;0.8075;
1206.3000;0.3712;0.8194;
1206.6000;0.3679;0.8146;
1206.9000;0.3679;0.8099;
1207.2000;0.3647;0.8004;
1207.5000;0.3655;0.8075;
1207.8000;0.3663;0.7957;
1208.1000;0.3671;0.7981;
1208.4000;0.3557;0.7791;
1208.7000;0.3663;0.7981;
1209.0000;0.3655;0.7957;
1209.3000;0.3663;0.7910;
1209.6000;0.3671;0.7957;
1209.9000;0.3687;0.7933;
1210.2000;0.3663;0.7933;
1210.5000;0.3655;0.7910;
1210.8000;0.3598;0.7815;
1211.1000;0.3687;0.8075;
1211.4000;0.3655;0.8028;
1211.7000;0.3671;0.7981;
1212.0000;0.3671;0.7981;
1212.3000;0.3655;0.8028;
1212.6000;0.3671;0.8028;
1212.9000;0.3679;0.7981;
1213.2000;0.3647;0.7981;
1213.5000;0.3671;0.8075;
1213.8000;0.3639;0.8028;
1214.1000;0.3671;0.8004;
1214.4000;0.3655;0.7910;
1214.7000;0.3639;0.7910;
1215.0000;0.3663;0.7910;
1215.3000;0.3704;0.7981;
1215.6000;0.3671;0.7815;
1215.9000;0.3655;0.7862;
1216.2000;0.3687;0.8052;
1216.5000;0.3655;0.7933;
1216.8000;0.3687;0.8004;
1217.1000;0.3671;0.8075;
1217.4000;0.3622;0.8075;
1217.7000;0.3671;0.8123;
1218.0000;0.3655;0.8099;
1218.3000;0.3769;0.8383;
1218.6000;0.3590;0.7981;
1218.9000;0.3647;0.8170;
1219.2000;0.3663;0.8146;
1219.5000;0.3679;0.8194;
1219.8000;0.3679;0.8170;
1220.1000;0.3647;0.8146;
1220.4000;0.3630;0.8170;
1220.7000;0.3655;0.8217;
1221.0000;0.3671;0.8241;
1221.3000;0.3679;0.8241;
1221.6000;0.3663;0.8241;
1221.9000;0.3655;0.8146;
1222.2000;0.3655;0.8146;
1222.5000;0.3663;0.8265;
1222.8000;0.3655;0.8265;
1223.1000;0.3671;0.8289;
1223.4000;0.3655;0.8241;
1223.7000;0.3647;0.8289;
1224.0000;0.3655;0.8241;
1224.3000;0.3647;0.8194;
1224.6000;0.3663;0.8241;
1224.9000;0.3663;0.8289;
1225.2000;0.3679;0.8336;
1225.5000;0.3663;0.8289;
1225.8000;0.3704;0.8383;
1226.1000;0.3687;0.8336;
1226.4000;0.3663;0.8289;
1226.7000;0.3687;0.8336;
1227.0000;0.3655;0.8289;
1227.3000;0.3663;0.8241;
1227.6000;0.3679;0.8312;
1227.9000;0.3704;0.8312;
1228.2000;0.3679;0.8241;
1228.5000;0.3647;0.8123;
1228.8000;0.3671;0.8194;
1229.1000;0.3671;0.8265;
1229.4000;0.3663;0.8241;
1229.7000;0.3655;0.8265;
1230.0000;0.3663;0.8241;
1230.3000;0.3687;0.8289;
1230.6000;0.3655;0.8146;
1230.9000;0.3622;0.8075;
1231.2000;0.3769;0.8454;
1231.5000;0.3671;0.8241;
1231.8000;0.3663;0.8265;
1232.1000;0.3720;0.8454;
1232.4000;0.3639;0.8146;
1232.7000;0.3663;0.8241;
1233.0000;0.3622;0.8052;
1233.3000;0.3614;0.7981;
1233.6000;0.3647;0.8028;
1233.9000;0.3614;0.7957;
1234.2000;0.3720;0.8217;
1234.5000;0.3671;0.8123;
1234.8000;0.3655;0.8052;
1235.1000;0.3671;0.8099;
1235.4000;0.3704;0.8123;
1235.7000;0.3663;0.8028;
1236.0000;0.3679;0.8146;
1236.3000;0.3655;0.8052;
1236.6000;0.3687;0.8099;
1236.9000;0.3663;0.8052;
1237.2000;0.3663;0.7981;
1237.5000;0.3671;0.7981;
1237.8000;0.3663;0.7957;
1238.1000;0.3744;0.8170;
1238.4000;0.3671;0.7981;
1238.7000;0.3647;0.7862;
1239.0000;0.3663;0.7862;
1239.3000;0.3679;0.7910;
1239.6000;0.3647;0.7886;
1239.9000;0.3639;0.7862;
1240.2000;0.3647;0.7862;
1240.5000;0.3687;0.8075;
1240.8000;0.3679;0.8146;
1241.1000;0.3655;0.8146;
1241.4000;0.3761;0.8336;
1241.7000;0.3671;0.8170;
1242.0000;0.3671;0.8146;
1242.3000;0.3671;0.8075;
1242.6000;0.3639;0.7933;
1242.9000;0.3671;0.8052;
1243.2000;0.3647;0.8028;
1243.5000;0.3630;0.8075;
1243.8000;0.3687;0.8241;
1244.1000;0.3655;0.8265;
1244.4000;0.3704;0.8312;
1244.7000;0.3663;0.8312;
1245.0000;0.3744;0.8383;
1245.3000;0.3622;0.8052;
1245.6000;0.3647;0.8123;
1245.9000;0.3639;0.8052;
1246.2000;0.3663;0.8004;
1246.5000;0.3639;0.8052;
1246.8000;0.3663;0.8170;
1247.1000;0.3590;0.8004;
1247.4000;0.3622;0.8146;
1247.7000;0.3647;0.8241;
1248.0000;0.3663;0.8241;
1248.3000;0.3647;0.8265;
1248.6000;0.3647;0.8194;
1248.9000;0.3647;0.8265;
1249.2000;0.3630;0.8241;
1249.5000;0.3655;0.8241;
1249.8000;0.3744;0.8454;
1250.1000;0.3655;0.8194;
1250.4000;0.3671;0.8360;
1250.7000;0.3679;0.8289;
1251.0000;0.3655;0.8241;
1251.3000;0.3663;0.8265;
1251.6000;0.3647;0.8146;
1251.9000;0.3655;0.8217;
1252.2000;0.3663;0.8265;
1252.5000;0.3655;0.8289;
1252.8000;0.3671;0.8241;
1253.1000;0.3655;0.8289;
1253.4000;0.3671;0.8407;
1253.7000;0.3647;0.8289;
1254.0000;0.3663;0.8360;
1254.3000;0.3639;0.8241;
1254.6000;0.3679;0.8194;
1254.9000;0.3606;0.7886;
1255.2000;0.3647;0.8146;
1255.5000;0.3663;0.8170;
1255.8000;0.3663;0.8265;
1256.1000;0.3671;0.8336;
1256.4000;0.3647;0.8265;
1256.7000;0.3671;0.8289;
1257.0000;0.3712;0.8383;
1257.3000;0.3639;0.8170;
1257.6000;0.3590;0.7957;
1257.9000;0.3720;0.8312;
1258.2000;0.3671;0.8170;
1258.5000;0.3663;0.8123;
1258.8000;0.3663;0.8028;
1259.1000;0.3647;0.7957;
1259.4000;0.3655;0.8028;
1259.7000;0.3647;0.8052;
1260.0000;0.3655;0.8052;
1260.3000;0.3679;0.8123;
1260.6000;0.3655;0.8075;
1260.9000;0.3679;0.8170;
1261.2000;0.3647;0.8123;
1261.5000;0.3655;0.8075;
1261.8000;0.3639;0.8075;
1262.1000;0.3655;0.8217;
1262.4000;0.3704;0.8312;
1262.7000;0.3663;0.8217;
1263.0000;0.3639;0.8146;
1263.3000;0.3679;0.8217;
1263.6000;0.3630;0.8146;
1263.9000;0.3663;0.8265;
1264.2000;0.3663;0.8265;
1264.5000;0.3663;0.8241;
1264.8000;0.3769;0.8431;
1265.1000;0.3647;0.8241;
1265.4000;0.3671;0.8241;
1265.7000;0.3663;0.8146;
1266.0000;0.3671;0.8170;
1266.3000;0.3614;0.7886;
1266.6000;0.3655;0.8052;
1266.9000;0.3647;0.8123;
1267.2000;0.3663;0.8170;
1267.5000;0.3663;0.8123;
1267.8000;0.3663;0.8170;
1268.1000;0.3679;0.8289;
1268.4000;0.3655;0.8123;
1268.7000;0.3663;0.8123;
1269.0000;0.3614;0.8099;
1269.3000;0.3671;0.8194;
1269.6000;0.3679;0.8289;
1269.9000;0.3663;0.8360;
1270.2000;0.3753;0.8525;
1270.5000;0.3614;0.8241;
1270.8000;0.3655;0.8289;
1271.1000;0.3663;0.8360;
1271.4000;0.3728;0.8454;
1271.7000;0.3655;0.8194;
1272.0000;0.3679;0.8170;
1272.3000;0.3736;0.8241;
1272.6000;0.3671;0.8075;
1272.9000;0.3655;0.8099;
1273.2000;0.3720;0.8217;
1273.5000;0.3647;0.8075;
1273.8000;0.3647;0.8028;
1274.1000;0.3630;0.8028;
1274.4000;0.3647;0.8099;
1274.7000;0.3639;0.8099;
1275.0000;0.3655;0.8146;
1275.3000;0.3639;0.8028;
1275.6000;0.3663;0.8028;
1275.9000;0.3647;0.8052;
1276.2000;0.3663;0.8052;
1276.5000;0.3671;0.8052;
1276.8000;0.3671;0.8099;
1277.1000;0.3630;0.7981;
1277.4000;0.3663;0.8052;
1277.7000;0.3671;0.8099;
1278.0000;0.3663;0.8099;
1278.3000;0.3606;0.7957;
1278.6000;0.3655;0.8075;
1278.9000;0.3663;0.8028;
1279.2000;0.3655;0.8052;
1279.5000;0.3655;0.8052;
1279.8000;0.3696;0.8146;
1280.1000;0.3573;0.7933;
1280.4000;0.3663;0.8170;
1280.7000;0.3655;0.8099;
1281.0000;0.3663;0.8241;
1281.3000;0.3663;0.8265;
1281.6000;0.3663;0.8241;
1281.9000;0.3663;0.8289;
1282.2000;0.3671;0.8265;
1282.5000;0.3671;0.8312;
1282.8000;0.3663;0.8217;
1283.1000;0.3647;0.8217;
1283.4000;0.3663;0.8336;
1283.7000;0.3655;0.8289;
1284.0000;0.3679;0.8454;
1284.3000;0.3639;0.8407;
1284.6000;0.3671;0.8525;
1284.9000;0.3663;0.8478;
1285.2000;0.3639;0.8312;
1285.5000;0.3647;0.8336;
1285.8000;0.3639;0.8289;
1286.1000;0.3647;0.8289;
1286.4000;0.3671;0.8360;
1286.7000;0.3655;0.8383;
1287.0000;0.3655;0.8383;
1287.3000;0.3630;0.8289;
1287.6000;0.3671;0.8312;
1287.9000;0.3655;0.8336;
1288.2000;0.3590;0.8241;
1288.5000;0.3679;0.8454;
1288.8000;0.3663;0.8407;
1289.1000;0.3647;0.8360;
1289.4000;0.3663;0.8312;
1289.7000;0.3655;0.8312;
1290.0000;0.3663;0.8241;
1290.3000;0.3639;0.8146;
1290.6000;0.3663;0.8123;
1290.9000;0.3655;0.8146;
1291.2000;0.3630;0.8123;
1291.5000;0.3696;0.8407;
1291.8000;0.3671;0.8383;
1292.1000;0.3622;0.8170;
1292.4000;0.3655;0.8289;
1292.7000;0.3712;0.8454;
1293.0000;0.3687;0.8431;
1293.3000;0.3606;0.8194;
1293.6000;0.3655;0.8312;
1293.9000;0.3679;0.8217;
1294.2000;0.3712;0.8265;
1294.5000;0.3655;0.8170;
1294.8000;0.3728;0.8336;
1295.1000;0.3614;0.8194;
1295.4000;0.3663;0.8336;
1295.7000;0.3671;0.8312;
1296.0000;0.3720;0.8407;
1296.3000;0.3647;0.8241;
1296.6000;0.3663;0.8217;
1296.9000;0.3679;0.8241;
1297.2000;0.3663;0.8146;
1297.5000;0.3720;0.8265;
1297.8000;0.3744;0.8289;
1298.1000;0.3663;0.8123;
1298.4000;0.3639;0.8004;
1298.7000;0.3663;0.8052;
1299.0000;0.3663;0.8146;
1299.3000;0.3663;0.8170;
1299.6000;0.3679;0.8146;
1299.9000;0.3655;0.8170;
1300.2000;0.3647;0.8146;
1300.5000;0.3663;0.8241;
1300.8000;0.3704;0.8289;
1301.1000;0.3655;0.8099;
1301.4000;0.3622;0.8052;
1301.7000;0.3663;0.8146;
1302.0000;0.3671;0.8312;
1302.3000;0.3671;0.8170;
1302.6000;0.3647;0.8146;
1302.9000;0.3647;0.8194;
1303.2000;0.3590;0.8052;
1303.5000;0.3655;0.8170;
1303.8000;0.3704;0.8312;
1304.1000;0.3598;0.8004;
1304.4000;0.3679;0.8217;
1304.7000;0.3647;0.8146;
1305.0000;0.3663;0.8217;
1305.3000;0.3655;0.8146;
1305.6000;0.3655;0.8194;
1305.9000;0.3663;0.8217;
1306.2000;0.3728;0.8360;
1306.5000;0.3590;0.7981;
1306.8000;0.3655;0.8099;
1307.1000;0.3655;0.8052;
1307.4000;0.3647;0.8028;
1307.7000;0.3639;0.8028;
1308.0000;0.3671;0.8099;
1308.3000;0.3663;0.8123;
1308.6000;0.3663;0.8099;
1308.9000;0.3647;0.8075;
1309.2000;0.3671;0.8028;
1309.5000;0.3663;0.8028;
1309.8000;0.3655;0.7981;
1310.1000;0.3671;0.8028;
1310.4000;0.3663;0.8028;
1310.7000;0.3663;0.8028;
1311.0000;0.3630;0.7957;
1311.3000;0.3614;0.7886;
1311.6000;0.3647;0.7957;
1311.9000;0.3663;0.8123;
1312.2000;0.3663;0.8170;
1312.5000;0.3590;0.7957;
1312.8000;0.3647;0.8194;
1313.1000;0.3639;0.8075;
1313.4000;0.3663;0.8194;
1313.7000;0.3663;0.8312;
1314.0000;0.3655;0.8265;
1314.3000;0.3663;0.8241;
1314.6000;0.3663;0.8360;
1314.9000;0.3647;0.8241;
1315.2000;0.3655;0.8194;
1315.5000;0.3704;0.8360;
1315.8000;0.3639;0.8170;
1316.1000;0.3655;0.8265;
1316.4000;0.3687;0.8312;
1316.7000;0.3647;0.8265;
1317.0000;0.3655;0.8312;
1317.3000;0.3704;0.8454;
1317.6000;0.3663;0.8312;
1317.9000;0.3663;0.8265;
1318.2000;0.3647;0.8265;
1318.5000;0.3655;0.8217;
1318.8000;0.3704;0.8407;
1319.1000;0.3655;0.8194;
1319.4000;0.3655;0.8099;
1319.7000;0.3655;0.8146;
1320.0000;0.3671;0.8194;
1320.3000;0.3639;0.8075;
1320.6000;0.3663;0.8194;
1320.9000;0.3663;0.8194;
1321.2000;0.3655;0.8194;
1321.5000;0.3647;0.8360;
1321.8000;0.3622;0.8289;
1322.1000;0.3647;0.8336;
1322.4000;0.3655;0.8336;
1322.7000;0.3671;0.8336;
1323.0000;0.3663;0.8289;
1323.3000;0.3687;0.8336;
1323.6000;0.3744;0.8596;
1323.9000;0.3655;0.8336;
1324.2000;0.3630;0.8289;
1324.5000;0.3663;0.8383;
1324.8000;0.3671;0.8454;
1325.1000;0.3687;0.8312;
1325.4000;0.3671;0.8265;
1325.7000;0.3671;0.8241;
1326.0000;0.3647;0.8170;
1326.3000;0.3687;0.8312;
1326.6000;0.3687;0.8360;
1326.9000;0.3704;0.8431;
1327.2000;0.3590;0.8099;
1327.5000;0.3696;0.8241;
1327.8000;0.3687;0.8289;
1328.1000;0.3655;0.8241;
1328.4000;0.3671;0.8312;
1328.7000;0.3663;0.8265;
1329.0000;0.3663;0.8289;
1329.3000;0.3671;0.8289;
1329.6000;0.3671;0.8241;
1329.9000;0.3647;0.8170;
1330.2000;0.3663;0.8265;
1330.5000;0.3687;0.8336;
1330.8000;0.3655;0.8170;
1331.1000;0.3630;0.8099;
1331.4000;0.3647;0.8146;
1331.7000;0.3769;0.8431;
1332.0000;0.3663;0.8241;
1332.3000;0.3639;0.8170;
1332.6000;0.3647;0.8241;
1332.9000;0.3655;0.8194;
1333.2000;0.3679;0.8336;
1333.5000;0.3663;0.8431;
1333.8000;0.3671;0.8454;
1334.1000;0.3655;0.8407;
1334.4000;0.3639;0.8360;
1334.7000;0.3655;0.8360;
1335.0000;0.3663;0.8360;
1335.3000;0.3679;0.8454;
1335.6000;0.3647;0.8360;
1335.9000;0.3671;0.8360;
1336.2000;0.3696;0.8431;
1336.5000;0.3696;0.8431;
1336.8000;0.3679;0.8289;
1337.1000;0.3671;0.8336;
1337.4000;0.3614;0.8194;
1337.7000;0.3663;0.8360;
1338.0000;0.3655;0.8194;
1338.3000;0.3655;0.8052;
1338.6000;0.3671;0.8099;
1338.9000;0.3655;0.8052;
1339.2000;0.3655;0.8099;
1339.5000;0.3630;0.8123;
1339.8000;0.3647;0.8194;
1340.1000;0.3696;0.8383;
1340.4000;0.3663;0.8360;
1340.7000;0.3647;0.8336;
1341.0000;0.3712;0.8431;
1341.3000;0.3655;0.8241;
1341.6000;0.3655;0.8241;
1341.9000;0.3720;0.8336;
1342.2000;0.3663;0.8194;
1342.5000;0.3655;0.8170;
1342.8000;0.3622;0.8146;
1343.1000;0.3639;0.8146;
1343.4000;0.3655;0.8170;
1343.7000;0.3655;0.8170;
1344.0000;0.3598;0.8123;
1344.3000;0.3663;0.8289;
1344.6000;0.3655;0.8312;
1344.9000;0.3679;0.8407;
1345.2000;0.3647;0.8265;
1345.5000;0.3655;0.8289;
1345.8000;0.3565;0.8099;
1346.1000;0.3671;0.8289;
1346.4000;0.3663;0.8289;
1346.7000;0.3639;0.8265;
1347.0000;0.3655;0.8360;
1347.3000;0.3647;0.8265;
1347.6000;0.3687;0.8360;
1347.9000;0.3687;0.8407;
1348.2000;0.3671;0.8336;
1348.5000;0.3663;0.8431;
1348.8000;0.3671;0.8502;
1349.1000;0.3630;0.8383;
1349.4000;0.3687;0.8573;
1349.7000;0.3671;0.8478;
1350.0000;0.3647;0.8360;
1350.3000;0.3614;0.8265;
1350.6000;0.3663;0.8312;
1350.9000;0.3663;0.8383;
1351.2000;0.3655;0.8383;
1351.5000;0.3671;0.8360;
1351.8000;0.3696;0.8360;
1352.1000;0.3671;0.8336;
1352.4000;0.3655;0.8336;
1352.7000;0.3655;0.8360;
1353.0000;0.3663;0.8336;
1353.3000;0.3655;0.8289;
1353.6000;0.3696;0.8336;
1353.9000;0.3630;0.8265;
1354.2000;0.3639;0.8241;
1354.5000;0.3647;0.8336;
1354.8000;0.3647;0.8336;
1355.1000;0.3647;0.8336;
1355.4000;0.3663;0.8383;
1355.7000;0.3663;0.8431;
1356.0000;0.3671;0.8478;
1356.3000;0.3647;0.8454;
1356.6000;0.3639;0.8431;
1356.9000;0.3663;0.8478;
1357.2000;0.3655;0.8431;
1357.5000;0.3687;0.8478;
1357.8000;0.3712;0.8620;
1358.1000;0.3630;0.8502;
1358.4000;0.3728;0.8786;
1358.7000;0.3663;0.8620;
1359.0000;0.3655;0.8620;
1359.3000;0.3671;0.8620;
1359.6000;0.3655;0.8478;
1359.9000;0.3671;0.8454;
1360.2000;0.3647;0.8383;
1360.5000;0.3663;0.8312;
1360.8000;0.3671;0.8312;
1361.1000;0.3663;0.8265;
1361.4000;0.3647;0.8360;
1361.7000;0.3671;0.8478;
1362.0000;0.3663;0.8478;
1362.3000;0.3679;0.8478;
1362.6000;0.3655;0.8289;
1362.9000;0.3679;0.8312;
1363.2000;0.3647;0.8265;
1363.5000;0.3663;0.8383;
1363.8000;0.3655;0.8383;
1364.1000;0.3679;0.8478;
1364.4000;0.3582;0.8312;
1364.7000;0.3655;0.8502;
1365.0000;0.3647;0.8383;
1365.3000;0.3598;0.8289;
1365.6000;0.3671;0.8431;
1365.9000;0.3655;0.8407;
1366.2000;0.3647;0.8454;
1366.5000;0.3704;0.8454;
1366.8000;0.3679;0.8312;
1367.1000;0.3663;0.8336;
1367.4000;0.3663;0.8265;
1367.7000;0.3639;0.8241;
1368.0000;0.3647;0.8312;
1368.3000;0.3647;0.8360;
1368.6000;0.3573;0.8265;
1368.9000;0.3679;0.8525;
1369.2000;0.3696;0.8573;
1369.5000;0.3639;0.8431;
1369.8000;0.3630;0.8407;
1370.1000;0.3663;0.8549;
1370.4000;0.3647;0.8478;
1370.7000;0.3663;0.8431;
1371.0000;0.3655;0.8478;
1371.3000;0.3679;0.8383;
1371.6000;0.3655;0.8407;
1371.9000;0.3655;0.8431;
1372.2000;0.3647;0.8431;
1372.5000;0.3663;0.8502;
1372.8000;0.3663;0.8431;
1373.1000;0.3655;0.8478;
1373.4000;0.3671;0.8431;
1373.7000;0.3679;0.8407;
1374.0000;0.3663;0.8265;
1374.3000;0.3630;0.8194;
1374.6000;0.3655;0.8383;
1374.9000;0.3647;0.8431;
1375.2000;0.3639;0.8383;
1375.5000;0.3671;0.8383;
1375.8000;0.3671;0.8407;
1376.1000;0.3671;0.8431;
1376.4000;0.3679;0.8383;
1376.7000;0.3663;0.8312;
1377.0000;0.3663;0.8360;
1377.3000;0.3671;0.8383;
1377.6000;0.3679;0.8431;
1377.9000;0.3647;0.8478;
1378.2000;0.3679;0.8573;
1378.5000;0.3639;0.8478;
1378.8000;0.3647;0.8478;
1379.1000;0.3679;0.8478;
1379.4000;0.3687;0.8502;
1379.7000;0.3647;0.8383;
1380.0000;0.3647;0.8407;
1380.3000;0.3598;0.8075;
1380.6000;0.3647;0.8289;
1380.9000;0.3655;0.8289;
1381.2000;0.3655;0.8265;
1381.5000;0.3630;0.8265;
1381.8000;0.3663;0.8431;
1382.1000;0.3663;0.8454;
1382.4000;0.3679;0.8454;
1382.7000;0.3647;0.8431;
1383.0000;0.3687;0.8573;
1383.3000;0.3671;0.8502;
1383.6000;0.3671;0.8596;
1383.9000;0.3663;0.8549;
1384.2000;0.3663;0.8478;
1384.5000;0.3679;0.8431;
1384.8000;0.3671;0.8383;
1385.1000;0.3663;0.8407;
1385.4000;0.3663;0.8431;
1385.7000;0.3671;0.8525;
1386.0000;0.3647;0.8502;
1386.3000;0.3663;0.8525;
1386.6000;0.3647;0.8549;
1386.9000;0.3655;0.8573;
1387.2000;0.3761;0.8786;
1387.5000;0.3663;0.8431;
1387.8000;0.3663;0.8431;
1388.1000;0.3639;0.8336;
1388.4000;0.3663;0.8360;
1388.7000;0.3655;0.8383;
1389.0000;0.3744;0.8644;
1389.3000;0.3687;0.8502;
1389.6000;0.3671;0.8502;
1389.9000;0.3671;0.8502;
1390.2000;0.3744;0.8667;
1390.5000;0.3647;0.8454;
1390.8000;0.3647;0.8383;
1391.1000;0.3696;0.8478;
1391.4000;0.3663;0.8431;
1391.7000;0.3655;0.8502;
1392.0000;0.3679;0.8667;
1392.3000;0.3590;0.8360;
1392.6000;0.3655;0.8525;
1392.9000;0.3647;0.8454;
1393.2000;0.3663;0.8383;
1393.5000;0.3663;0.8360;
1393.8000;0.3671;0.8431;
1394.1000;0.3671;0.8454;
1394.4000;0.3630;0.8478;
1394.7000;0.3655;0.8525;
1395.0000;0.3606;0.8431;
1395.3000;0.3687;0.8715;
1395.6000;0.3655;0.8644;
1395.9000;0.3663;0.8691;
1396.2000;0.3712;0.8667;
1396.5000;0.3679;0.8549;
1396.8000;0.3655;0.8478;
1397.1000;0.3630;0.8360;
1397.4000;0.3663;0.8478;
1397.7000;0.3671;0.8478;
1398.0000;0.3647;0.8431;
1398.3000;0.3655;0.8407;
1398.6000;0.3655;0.8431;
1398.9000;0.3655;0.8478;
1399.2000;0.3639;0.8407;
1399.5000;0.3639;0.8383;
1399.8000;0.3655;0.8360;
