time/ms;Fluo/V;P700 deltaI/I x10³;
-199.8000;0.2133;7.1904;
-199.5000;0.2116;7.1833;
-199.2000;0.2108;7.1833;
-198.9000;0.2125;7.1833;
-198.6000;0.2108;7.1904;
-198.3000;0.2125;7.1904;
-198.0000;0.2108;7.1762;
-197.7000;0.2125;7.1856;
-197.4000;0.2116;7.1715;
-197.1000;0.2116;7.1667;
-196.8000;0.2125;7.1691;
-196.5000;0.2149;7.1738;
-196.2000;0.2108;7.1691;
-195.9000;0.2125;7.1691;
-195.6000;0.2141;7.1786;
-195.3000;0.2116;7.1833;
-195.0000;0.2125;7.1809;
-194.7000;0.2116;7.1762;
-194.4000;0.2141;7.1762;
-194.1000;0.2133;7.1762;
-193.8000;0.2125;7.1738;
-193.5000;0.2108;7.1738;
-193.2000;0.2133;7.1738;
-192.9000;0.2141;7.1738;
-192.6000;0.2133;7.1715;
-192.3000;0.2157;7.1833;
-192.0000;0.2108;7.1762;
-191.7000;0.2133;7.1880;
-191.4000;0.2149;7.1833;
-191.1000;0.2116;7.1786;
-190.8000;0.2125;7.1786;
-190.5000;0.2108;7.1833;
-190.2000;0.2133;7.1975;
-189.9000;0.2133;7.1998;
-189.6000;0.2133;7.1998;
-189.3000;0.2125;7.1927;
-189.0000;0.2133;7.1975;
-188.7000;0.2125;7.1904;
-188.4000;0.2100;7.1904;
-188.1000;0.2108;7.1927;
-187.8000;0.2116;7.1927;
-187.5000;0.2125;7.1833;
-187.2000;0.2100;7.1809;
-186.9000;0.2108;7.1786;
-186.6000;0.2116;7.1786;
-186.3000;0.2108;7.1786;
-186.0000;0.2125;7.1833;
-185.7000;0.2125;7.1833;
-185.4000;0.2125;7.1880;
-185.1000;0.2165;7.1998;
-184.8000;0.2125;7.1904;
-184.5000;0.2116;7.1904;
-184.2000;0.2116;7.1904;
-183.9000;0.2125;7.1975;
-183.6000;0.2125;7.1998;
-183.3000;0.2116;7.1927;
-183.0000;0.2133;7.1880;
-182.7000;0.2116;7.1833;
-182.4000;0.2116;7.1951;
-182.1000;0.2059;7.1715;
-181.8000;0.2116;7.1927;
-181.5000;0.2133;7.1927;
-181.2000;0.2116;7.1927;
-180.9000;0.2125;7.1927;
-180.6000;0.2125;7.1833;
-180.3000;0.2133;7.1738;
-180.0000;0.2133;7.1762;
-179.7000;0.2125;7.1691;
-179.4000;0.2125;7.1596;
-179.1000;0.2108;7.1526;
-178.8000;0.2116;7.1596;
-178.5000;0.2125;7.1644;
-178.2000;0.2108;7.1738;
-177.9000;0.2190;7.1904;
-177.6000;0.2125;7.1738;
-177.3000;0.2133;7.1809;
-177.0000;0.2125;7.1691;
-176.7000;0.2100;7.1549;
-176.4000;0.2133;7.1715;
-176.1000;0.2108;7.1715;
-175.8000;0.2141;7.1762;
-175.5000;0.2125;7.1786;
-175.2000;0.2116;7.1904;
-174.9000;0.2059;7.1667;
-174.6000;0.2133;7.1715;
-174.3000;0.2108;7.1667;
-174.0000;0.2108;7.1644;
-173.7000;0.2125;7.1762;
-173.4000;0.2100;7.1644;
-173.1000;0.2125;7.1644;
-172.8000;0.2133;7.1762;
-172.5000;0.2125;7.1738;
-172.2000;0.2133;7.1691;
-171.9000;0.2141;7.1715;
-171.6000;0.2116;7.1667;
-171.3000;0.2116;7.1738;
-171.0000;0.2157;7.1880;
-170.7000;0.2173;7.1856;
-170.4000;0.2125;7.1786;
-170.1000;0.2116;7.1762;
-169.8000;0.2133;7.1833;
-169.5000;0.2092;7.1738;
-169.2000;0.2125;7.1856;
-168.9000;0.2092;7.1833;
-168.6000;0.2222;7.2187;
-168.3000;0.2116;7.1927;
-168.0000;0.2125;7.1833;
-167.7000;0.2116;7.1856;
-167.4000;0.2141;7.1786;
-167.1000;0.2125;7.1927;
-166.8000;0.2108;7.2022;
-166.5000;0.2116;7.1998;
-166.2000;0.2116;7.1927;
-165.9000;0.2125;7.2022;
-165.6000;0.2100;7.1927;
-165.3000;0.2125;7.1998;
-165.0000;0.2116;7.1927;
-164.7000;0.2084;7.1786;
-164.4000;0.2141;7.1833;
-164.1000;0.2125;7.1833;
-163.8000;0.2133;7.1880;
-163.5000;0.2076;7.1762;
-163.2000;0.2165;7.1975;
-162.9000;0.2108;7.1856;
-162.6000;0.2125;7.1856;
-162.3000;0.2116;7.1904;
-162.0000;0.2141;7.1951;
-161.7000;0.2125;7.1904;
-161.4000;0.2108;7.1786;
-161.1000;0.2100;7.1809;
-160.8000;0.2133;7.1833;
-160.5000;0.2125;7.1786;
-160.2000;0.2092;7.1620;
-159.9000;0.2108;7.1667;
-159.6000;0.2125;7.1738;
-159.3000;0.2100;7.1596;
-159.0000;0.2182;7.1762;
-158.7000;0.2108;7.1573;
-158.4000;0.2116;7.1596;
-158.1000;0.2108;7.1667;
-157.8000;0.2116;7.1691;
-157.5000;0.2011;7.1478;
-157.2000;0.2116;7.1762;
-156.9000;0.2100;7.1691;
-156.6000;0.2108;7.1667;
-156.3000;0.2125;7.1786;
-156.0000;0.2149;7.1809;
-155.7000;0.2116;7.1715;
-155.4000;0.2100;7.1691;
-155.1000;0.2116;7.1762;
-154.8000;0.2125;7.1833;
-154.5000;0.2125;7.1809;
-154.2000;0.2157;7.1927;
-153.9000;0.2125;7.1880;
-153.6000;0.2141;7.1927;
-153.3000;0.2149;7.2046;
-153.0000;0.2116;7.1998;
-152.7000;0.2108;7.1975;
-152.4000;0.2125;7.1951;
-152.1000;0.2133;7.1951;
-151.8000;0.2116;7.1833;
-151.5000;0.2116;7.1833;
-151.2000;0.2125;7.1880;
-150.9000;0.2141;7.1880;
-150.6000;0.2133;7.1880;
-150.3000;0.2108;7.1833;
-150.0000;0.2141;7.1904;
-149.7000;0.2133;7.1904;
-149.4000;0.2100;7.1880;
-149.1000;0.2116;7.1904;
-148.8000;0.2108;7.1975;
-148.5000;0.2133;7.1975;
-148.2000;0.2141;7.1904;
-147.9000;0.2100;7.1856;
-147.6000;0.2027;7.1715;
-147.3000;0.2133;7.1951;
-147.0000;0.2116;7.1951;
-146.7000;0.2116;7.1998;
-146.4000;0.2116;7.1951;
-146.1000;0.2133;7.1951;
-145.8000;0.2125;7.1880;
-145.5000;0.2141;7.1856;
-145.2000;0.2125;7.1762;
-144.9000;0.2133;7.1738;
-144.6000;0.2173;7.1833;
-144.3000;0.2125;7.1738;
-144.0000;0.2100;7.1762;
-143.7000;0.2076;7.1667;
-143.4000;0.2076;7.1644;
-143.1000;0.2133;7.1833;
-142.8000;0.2125;7.1786;
-142.5000;0.2125;7.1691;
-142.2000;0.2108;7.1667;
-141.9000;0.2125;7.1738;
-141.6000;0.2149;7.1786;
-141.3000;0.2084;7.1620;
-141.0000;0.2084;7.1644;
-140.7000;0.2116;7.1786;
-140.4000;0.2125;7.1762;
-140.1000;0.2125;7.1762;
-139.8000;0.2100;7.1786;
-139.5000;0.2157;7.1856;
-139.2000;0.2141;7.1880;
-138.9000;0.2133;7.1856;
-138.6000;0.2125;7.1927;
-138.3000;0.2149;7.1975;
-138.0000;0.2141;7.1904;
-137.7000;0.2133;7.1809;
-137.4000;0.2084;7.1667;
-137.1000;0.2125;7.1738;
-136.8000;0.2092;7.1786;
-136.5000;0.2108;7.1738;
-136.2000;0.2108;7.1738;
-135.9000;0.2214;7.1927;
-135.6000;0.2141;7.1691;
-135.3000;0.2173;7.1691;
-135.0000;0.2084;7.1478;
-134.7000;0.2100;7.1526;
-134.4000;0.2141;7.1620;
-134.1000;0.2133;7.1596;
-133.8000;0.2190;7.1880;
-133.5000;0.2027;7.1384;
-133.2000;0.2100;7.1620;
-132.9000;0.2198;7.1880;
-132.6000;0.2149;7.1691;
-132.3000;0.2173;7.1762;
-132.0000;0.2141;7.1715;
-131.7000;0.2133;7.1667;
-131.4000;0.2125;7.1667;
-131.1000;0.2116;7.1620;
-130.8000;0.2116;7.1762;
-130.5000;0.2165;7.1833;
-130.2000;0.2133;7.1786;
-129.9000;0.2133;7.1715;
-129.6000;0.2133;7.1786;
-129.3000;0.2133;7.1833;
-129.0000;0.2133;7.1833;
-128.7000;0.2125;7.1880;
-128.4000;0.2116;7.1856;
-128.1000;0.2092;7.1715;
-127.8000;0.2141;7.1786;
-127.5000;0.2133;7.1738;
-127.2000;0.2116;7.1691;
-126.9000;0.2141;7.1691;
-126.6000;0.2149;7.1809;
-126.3000;0.2116;7.1738;
-126.0000;0.2051;7.1691;
-125.7000;0.2116;7.1809;
-125.4000;0.2149;7.1833;
-125.1000;0.2125;7.1786;
-124.8000;0.2108;7.1738;
-124.5000;0.2133;7.1809;
-124.2000;0.2125;7.1786;
-123.9000;0.2116;7.1715;
-123.6000;0.2133;7.1667;
-123.3000;0.2116;7.1667;
-123.0000;0.2108;7.1667;
-122.7000;0.2133;7.1667;
-122.4000;0.2116;7.1644;
-122.1000;0.2116;7.1786;
-121.8000;0.2108;7.1738;
-121.5000;0.2116;7.1833;
-121.2000;0.2100;7.1786;
-120.9000;0.2100;7.1667;
-120.6000;0.2108;7.1762;
-120.3000;0.2133;7.1809;
-120.0000;0.2133;7.1809;
-119.7000;0.2092;7.1762;
-119.4000;0.2100;7.1833;
-119.1000;0.2125;7.1904;
-118.8000;0.2125;7.1809;
-118.5000;0.2059;7.1573;
-118.2000;0.2100;7.1738;
-117.9000;0.2133;7.1762;
-117.6000;0.2133;7.1738;
-117.3000;0.2108;7.1667;
-117.0000;0.2116;7.1644;
-116.7000;0.2133;7.1620;
-116.4000;0.2116;7.1549;
-116.1000;0.2190;7.1833;
-115.8000;0.2108;7.1691;
-115.5000;0.2116;7.1715;
-115.2000;0.2108;7.1738;
-114.9000;0.2141;7.1786;
-114.6000;0.2141;7.1762;
-114.3000;0.2149;7.1856;
-114.0000;0.2173;7.1927;
-113.7000;0.2133;7.1880;
-113.4000;0.2076;7.1762;
-113.1000;0.2149;7.1856;
-112.8000;0.2108;7.1738;
-112.5000;0.2108;7.1738;
-112.2000;0.2108;7.1715;
-111.9000;0.2149;7.1809;
-111.6000;0.2100;7.1786;
-111.3000;0.2108;7.1762;
-111.0000;0.2092;7.1715;
-110.7000;0.2100;7.1738;
-110.4000;0.2116;7.1856;
-110.1000;0.2100;7.1880;
-109.8000;0.2133;7.1975;
-109.5000;0.2125;7.1880;
-109.2000;0.2116;7.1880;
-108.9000;0.2116;7.1927;
-108.6000;0.2116;7.1833;
-108.3000;0.2100;7.1809;
-108.0000;0.2116;7.1880;
-107.7000;0.2108;7.1998;
-107.4000;0.2116;7.2022;
-107.1000;0.2125;7.1927;
-106.8000;0.2100;7.1809;
-106.5000;0.2116;7.1762;
-106.2000;0.2125;7.1833;
-105.9000;0.2141;7.1904;
-105.6000;0.2173;7.1975;
-105.3000;0.2116;7.1833;
-105.0000;0.2125;7.1904;
-104.7000;0.2157;7.1998;
-104.4000;0.2141;7.1975;
-104.1000;0.2116;7.1975;
-103.8000;0.2182;7.2116;
-103.5000;0.2133;7.2046;
-103.2000;0.2149;7.1975;
-102.9000;0.2125;7.1975;
-102.6000;0.2133;7.1951;
-102.3000;0.2108;7.1856;
-102.0000;0.2125;7.1833;
-101.7000;0.2125;7.1762;
-101.4000;0.2141;7.1762;
-101.1000;0.2141;7.1786;
-100.8000;0.2100;7.1667;
-100.5000;0.2125;7.1762;
-100.2000;0.2149;7.1833;
-99.9000;0.2116;7.1738;
-99.6000;0.2165;7.1951;
-99.3000;0.2092;7.1786;
-99.0000;0.2149;7.1856;
-98.7000;0.2116;7.1738;
-98.4000;0.2108;7.1738;
-98.1000;0.2068;7.1738;
-97.8000;0.2133;7.1856;
-97.5000;0.2125;7.1762;
-97.2000;0.2141;7.1738;
-96.9000;0.2116;7.1738;
-96.6000;0.2141;7.1786;
-96.3000;0.2157;7.1856;
-96.0000;0.2125;7.1809;
-95.7000;0.2084;7.1738;
-95.4000;0.2125;7.1786;
-95.1000;0.2149;7.1809;
-94.8000;0.2141;7.1856;
-94.5000;0.2125;7.1880;
-94.2000;0.2125;7.1904;
-93.9000;0.2141;7.1880;
-93.6000;0.2141;7.1904;
-93.3000;0.2108;7.1856;
-93.0000;0.2141;7.1856;
-92.7000;0.2100;7.1715;
-92.4000;0.2182;7.1880;
-92.1000;0.2133;7.1833;
-91.8000;0.2108;7.1762;
-91.5000;0.2125;7.1762;
-91.2000;0.2116;7.1667;
-90.9000;0.2125;7.1715;
-90.6000;0.2125;7.1762;
-90.3000;0.2125;7.1691;
-90.0000;0.2133;7.1762;
-89.7000;0.2125;7.1833;
-89.4000;0.2116;7.1786;
-89.1000;0.2133;7.1809;
-88.8000;0.2133;7.1927;
-88.5000;0.2116;7.1927;
-88.2000;0.2116;7.1880;
-87.9000;0.2108;7.1786;
-87.6000;0.2100;7.1762;
-87.3000;0.2125;7.1833;
-87.0000;0.2125;7.1833;
-86.7000;0.2125;7.1856;
-86.4000;0.2116;7.1856;
-86.1000;0.2149;7.1927;
-85.8000;0.2133;7.1833;
-85.5000;0.2125;7.1786;
-85.2000;0.2108;7.1809;
-84.9000;0.2125;7.1809;
-84.6000;0.2133;7.1856;
-84.3000;0.2125;7.1786;
-84.0000;0.2108;7.1738;
-83.7000;0.2125;7.1786;
-83.4000;0.2157;7.1833;
-83.1000;0.2125;7.1738;
-82.8000;0.2125;7.1715;
-82.5000;0.2157;7.1786;
-82.2000;0.2125;7.1833;
-81.9000;0.2116;7.1738;
-81.6000;0.2108;7.1786;
-81.3000;0.2133;7.1904;
-81.0000;0.2125;7.1975;
-80.7000;0.2141;7.1927;
-80.4000;0.2141;7.1880;
-80.1000;0.2149;7.1856;
-79.8000;0.2141;7.1809;
-79.5000;0.2125;7.1786;
-79.2000;0.2165;7.1833;
-78.9000;0.2125;7.1715;
-78.6000;0.2116;7.1691;
-78.3000;0.2173;7.1856;
-78.0000;0.2108;7.1667;
-77.7000;0.2133;7.1667;
-77.4000;0.2116;7.1667;
-77.1000;0.2116;7.1738;
-76.8000;0.2108;7.1644;
-76.5000;0.2108;7.1596;
-76.2000;0.2149;7.1738;
-75.9000;0.2116;7.1667;
-75.6000;0.2133;7.1691;
-75.3000;0.2116;7.1667;
-75.0000;0.2116;7.1715;
-74.7000;0.2125;7.1809;
-74.4000;0.2141;7.1786;
-74.1000;0.2173;7.1809;
-73.8000;0.2141;7.1809;
-73.5000;0.2116;7.1691;
-73.2000;0.2157;7.1738;
-72.9000;0.2149;7.1880;
-72.6000;0.2125;7.1856;
-72.3000;0.2059;7.1596;
-72.0000;0.2141;7.1786;
-71.7000;0.2125;7.1715;
-71.4000;0.2084;7.1573;
-71.1000;0.2125;7.1738;
-70.8000;0.2141;7.1880;
-70.5000;0.2190;7.1951;
-70.2000;0.2125;7.1762;
-69.9000;0.2108;7.1786;
-69.6000;0.2133;7.1809;
-69.3000;0.2141;7.1927;
-69.0000;0.2149;7.1975;
-68.7000;0.2125;7.1998;
-68.4000;0.2141;7.1975;
-68.1000;0.2125;7.1975;
-67.8000;0.2133;7.1975;
-67.5000;0.2116;7.1927;
-67.2000;0.2125;7.1904;
-66.9000;0.2108;7.1927;
-66.6000;0.2173;7.1998;
-66.3000;0.2068;7.1667;
-66.0000;0.2027;7.1620;
-65.7000;0.2133;7.1975;
-65.4000;0.2133;7.1951;
-65.1000;0.2108;7.1880;
-64.8000;0.2116;7.1880;
-64.5000;0.2141;7.1880;
-64.2000;0.2133;7.1904;
-63.9000;0.2133;7.1951;
-63.6000;0.2133;7.1880;
-63.3000;0.2157;7.1975;
-63.0000;0.2141;7.1833;
-62.7000;0.2141;7.1833;
-62.4000;0.2068;7.1738;
-62.1000;0.2149;7.1904;
-61.8000;0.2133;7.1762;
-61.5000;0.2116;7.1691;
-61.2000;0.2108;7.1667;
-60.9000;0.2125;7.1691;
-60.6000;0.2206;7.1927;
-60.3000;0.2125;7.1762;
-60.0000;0.2133;7.1786;
-59.7000;0.2133;7.1786;
-59.4000;0.2141;7.1856;
-59.1000;0.2157;7.1904;
-58.8000;0.2141;7.1809;
-58.5000;0.2125;7.1786;
-58.2000;0.2076;7.1738;
-57.9000;0.2116;7.1904;
-57.6000;0.2125;7.1998;
-57.3000;0.2116;7.1975;
-57.0000;0.2116;7.2046;
-56.7000;0.2125;7.1998;
-56.4000;0.2141;7.1998;
-56.1000;0.2116;7.1927;
-55.8000;0.2133;7.1975;
-55.5000;0.2100;7.1880;
-55.2000;0.2116;7.1904;
-54.9000;0.2125;7.1927;
-54.6000;0.2125;7.2022;
-54.3000;0.2141;7.2116;
-54.0000;0.2116;7.2093;
-53.7000;0.2133;7.2116;
-53.4000;0.2133;7.2022;
-53.1000;0.2125;7.1927;
-52.8000;0.2125;7.1975;
-52.5000;0.2092;7.1904;
-52.2000;0.2108;7.1927;
-51.9000;0.2116;7.1904;
-51.6000;0.2133;7.2022;
-51.3000;0.2125;7.1998;
-51.0000;0.2100;7.1880;
-50.7000;0.2116;7.1880;
-50.4000;0.2165;7.2022;
-50.1000;0.2125;7.1856;
-49.8000;0.2133;7.1904;
-49.5000;0.2125;7.1880;
-49.2000;0.2116;7.1809;
-48.9000;0.2116;7.1856;
-48.6000;0.2173;7.2046;
-48.3000;0.2116;7.1975;
-48.0000;0.2116;7.1880;
-47.7000;0.2116;7.1786;
-47.4000;0.2141;7.1856;
-47.1000;0.2108;7.1786;
-46.8000;0.2100;7.1644;
-46.5000;0.2059;7.1620;
-46.2000;0.2116;7.1856;
-45.9000;0.2092;7.1809;
-45.6000;0.2116;7.1809;
-45.3000;0.2116;7.1762;
-45.0000;0.2133;7.1786;
-44.7000;0.2133;7.1786;
-44.4000;0.2019;7.1573;
-44.1000;0.2092;7.1786;
-43.8000;0.2141;7.1880;
-43.5000;0.2157;7.1951;
-43.2000;0.2133;7.1975;
-42.9000;0.2116;7.1904;
-42.6000;0.2116;7.1856;
-42.3000;0.2116;7.1880;
-42.0000;0.2076;7.1833;
-41.7000;0.2125;7.1904;
-41.4000;0.2182;7.1975;
-41.1000;0.2133;7.1880;
-40.8000;0.2076;7.1856;
-40.5000;0.2157;7.1975;
-40.2000;0.2116;7.1833;
-39.9000;0.2116;7.1762;
-39.6000;0.2116;7.1833;
-39.3000;0.2092;7.1762;
-39.0000;0.2133;7.1833;
-38.7000;0.2165;7.1880;
-38.4000;0.2133;7.1809;
-38.1000;0.2125;7.1762;
-37.8000;0.2133;7.1833;
-37.5000;0.2116;7.1786;
-37.2000;0.2116;7.1786;
-36.9000;0.2125;7.1833;
-36.6000;0.2125;7.1786;
-36.3000;0.2133;7.1644;
-36.0000;0.2133;7.1526;
-35.7000;0.2133;7.1502;
-35.4000;0.2125;7.1455;
-35.1000;0.2125;7.1455;
-34.8000;0.2092;7.1384;
-34.5000;0.2108;7.1431;
-34.2000;0.2092;7.1431;
-33.9000;0.2157;7.1644;
-33.6000;0.2133;7.1667;
-33.3000;0.2133;7.1691;
-33.0000;0.2125;7.1715;
-32.7000;0.2149;7.1833;
-32.4000;0.2108;7.1738;
-32.1000;0.2068;7.1738;
-31.8000;0.2100;7.1809;
-31.5000;0.2133;7.1715;
-31.2000;0.2198;7.1927;
-30.9000;0.2125;7.1715;
-30.6000;0.2125;7.1691;
-30.3000;0.2125;7.1691;
-30.0000;0.2133;7.1786;
-29.7000;0.2141;7.1833;
-29.4000;0.2141;7.1762;
-29.1000;0.2141;7.1809;
-28.8000;0.2116;7.1786;
-28.5000;0.2149;7.1856;
-28.2000;0.2133;7.1833;
-27.9000;0.2116;7.1809;
-27.6000;0.2190;7.1927;
-27.3000;0.2133;7.1880;
-27.0000;0.2092;7.1786;
-26.7000;0.2125;7.1809;
-26.4000;0.2133;7.1715;
-26.1000;0.2133;7.1644;
-25.8000;0.2125;7.1667;
-25.5000;0.2133;7.1644;
-25.2000;0.2116;7.1526;
-24.9000;0.2133;7.1455;
-24.6000;0.2125;7.1502;
-24.3000;0.2141;7.1478;
-24.0000;0.2092;7.1431;
-23.7000;0.2206;7.1762;
-23.4000;0.2125;7.1526;
-23.1000;0.2116;7.1455;
-22.8000;0.2125;7.1502;
-22.5000;0.2157;7.1691;
-22.2000;0.2076;7.1644;
-21.9000;0.2165;7.1880;
-21.6000;0.2149;7.1833;
-21.3000;0.2149;7.1927;
-21.0000;0.2116;7.1833;
-20.7000;0.2133;7.1856;
-20.4000;0.2108;7.1762;
-20.1000;0.2133;7.1738;
-19.8000;0.2068;7.1596;
-19.5000;0.2165;7.1809;
-19.2000;0.2116;7.1691;
-18.9000;0.2214;7.1856;
-18.6000;0.2182;7.1738;
-18.3000;0.2125;7.1644;
-18.0000;0.2043;7.1526;
-17.7000;0.2222;7.2022;
-17.4000;0.2125;7.1786;
-17.1000;0.2100;7.1738;
-16.8000;0.2100;7.1738;
-16.5000;0.2092;7.1644;
-16.2000;0.2100;7.1644;
-15.9000;0.2059;7.1549;
-15.6000;0.2108;7.1691;
-15.3000;0.2116;7.1738;
-15.0000;0.2116;7.1644;
-14.7000;0.2035;7.1336;
-14.4000;0.2125;7.1502;
-14.1000;0.2116;7.1573;
-13.8000;0.2125;7.1644;
-13.5000;0.2100;7.1549;
-13.2000;0.2125;7.1691;
-12.9000;0.2116;7.1715;
-12.6000;0.2133;7.1738;
-12.3000;0.2149;7.1738;
-12.0000;0.2133;7.1786;
-11.7000;0.2149;7.1856;
-11.4000;0.2108;7.1738;
-11.1000;0.2116;7.1786;
-10.8000;0.2116;7.1786;
-10.5000;0.2125;7.1691;
-10.2000;0.2108;7.1620;
-9.9000;0.2108;7.1620;
-9.6000;0.2190;7.1762;
-9.3000;0.2125;7.1715;
-9.0000;0.2116;7.1786;
-8.7000;0.2125;7.1927;
-8.4000;0.2133;7.1904;
-8.1000;0.2092;7.1833;
-7.8000;0.2035;7.1549;
-7.5000;0.2108;7.1738;
-7.2000;0.2108;7.1786;
-6.9000;0.2125;7.1786;
-6.6000;0.2059;7.1667;
-6.3000;0.2125;7.1833;
-6.0000;0.2076;7.1738;
-5.7000;0.2116;7.1856;
-5.4000;0.2100;7.1762;
-5.1000;0.2133;7.1762;
-4.8000;0.2133;7.1809;
-4.5000;0.2149;7.1904;
-4.2000;0.2141;7.1809;
-3.9000;0.2133;7.1715;
-3.6000;0.2165;7.1715;
-3.3000;0.2182;7.1786;
-3.0000;0.2116;7.1667;
-2.7000;0.2133;7.1644;
-2.4000;0.2100;7.1596;
-2.1000;0.2084;7.1478;
-1.8000;0.2133;7.1596;
-1.5000;0.2141;7.1620;
-1.2000;0.2100;7.1549;
-0.9000;0.2133;7.1715;
-0.6000;0.2125;7.1667;
-0.3000;0.2125;7.1691;
0.0000;0.2125;7.1691;
0.3000;0.2206;7.1856;
0.6000;0.2320;7.2046;
0.9000;0.2434;7.2140;
1.2000;0.2507;7.2329;
1.5000;0.2589;7.2566;
1.8000;0.2670;7.2755;
2.1000;0.2637;7.2707;
2.4000;0.2719;7.2920;
2.7000;0.2743;7.3062;
3.0000;0.2776;7.3133;
3.3000;0.2784;7.3180;
3.6000;0.2816;7.3251;
3.9000;0.2857;7.3440;
4.2000;0.2816;7.3346;
4.5000;0.2825;7.3393;
4.8000;0.2816;7.3369;
5.1000;0.2825;7.3417;
5.4000;0.2825;7.3346;
5.7000;0.2849;7.3464;
6.0000;0.2849;7.3464;
6.3000;0.2873;7.3558;
6.6000;0.2865;7.3700;
6.9000;0.2882;7.3747;
7.2000;0.2841;7.3653;
7.5000;0.2873;7.3653;
7.8000;0.2906;7.3653;
8.1000;0.2873;7.3606;
8.4000;0.2873;7.3606;
8.7000;0.2898;7.3582;
9.0000;0.2890;7.3511;
9.3000;0.2906;7.3582;
9.6000;0.2930;7.3582;
9.9000;0.2882;7.3558;
10.2000;0.2873;7.3487;
10.5000;0.2922;7.3511;
10.8000;0.2914;7.3558;
11.1000;0.2914;7.3535;
11.4000;0.2963;7.3629;
11.7000;0.2939;7.3582;
12.0000;0.2987;7.3700;
12.3000;0.2930;7.3606;
12.6000;0.2939;7.3629;
12.9000;0.2930;7.3629;
13.2000;0.3028;7.3842;
13.5000;0.2914;7.3558;
13.8000;0.2914;7.3629;
14.1000;0.2955;7.3724;
14.4000;0.2963;7.3629;
14.7000;0.2963;7.3653;
15.0000;0.2971;7.3771;
15.3000;0.2947;7.3653;
15.6000;0.2955;7.3629;
15.9000;0.3044;7.3889;
16.2000;0.2963;7.3535;
16.5000;0.2930;7.3464;
16.8000;0.2979;7.3606;
17.1000;0.2996;7.3677;
17.4000;0.2979;7.3700;
17.7000;0.2996;7.3724;
18.0000;0.2979;7.3677;
18.3000;0.2979;7.3795;
18.6000;0.3004;7.3818;
18.9000;0.2987;7.3747;
19.2000;0.2996;7.3700;
19.5000;0.2979;7.3582;
19.8000;0.3012;7.3629;
20.1000;0.2987;7.3558;
20.4000;0.3061;7.3747;
20.7000;0.3020;7.3582;
21.0000;0.3028;7.3653;
21.3000;0.3036;7.3700;
21.6000;0.3012;7.3582;
21.9000;0.3044;7.3747;
22.2000;0.3053;7.3747;
22.5000;0.2963;7.3440;
22.8000;0.3053;7.3629;
23.1000;0.3053;7.3629;
23.4000;0.3044;7.3629;
23.7000;0.3109;7.3771;
24.0000;0.3044;7.3535;
24.3000;0.3069;7.3464;
24.6000;0.3020;7.3298;
24.9000;0.3061;7.3393;
25.2000;0.3061;7.3440;
25.5000;0.3036;7.3393;
25.8000;0.3036;7.3417;
26.1000;0.3061;7.3511;
26.4000;0.3004;7.3346;
26.7000;0.3044;7.3464;
27.0000;0.3077;7.3535;
27.3000;0.3077;7.3629;
27.6000;0.3053;7.3582;
27.9000;0.3044;7.3582;
28.2000;0.3061;7.3653;
28.5000;0.3069;7.3558;
28.8000;0.3069;7.3511;
29.1000;0.3077;7.3535;
29.4000;0.3061;7.3535;
29.7000;0.3069;7.3558;
30.0000;0.3101;7.3629;
30.3000;0.3093;7.3724;
30.6000;0.3166;7.3818;
30.9000;0.3077;7.3629;
31.2000;0.3101;7.3582;
31.5000;0.3150;7.3724;
31.8000;0.3093;7.3535;
32.1000;0.3109;7.3629;
32.4000;0.3101;7.3653;
32.7000;0.3118;7.3677;
33.0000;0.3109;7.3700;
33.3000;0.3118;7.3724;
33.6000;0.3118;7.3700;
33.9000;0.3118;7.3724;
34.2000;0.3118;7.3677;
34.5000;0.3126;7.3700;
34.8000;0.3175;7.3747;
35.1000;0.3126;7.3606;
35.4000;0.3126;7.3629;
35.7000;0.3118;7.3653;
36.0000;0.3118;7.3677;
36.3000;0.3118;7.3653;
36.6000;0.3142;7.3653;
36.9000;0.3175;7.3747;
37.2000;0.3142;7.3653;
37.5000;0.3158;7.3700;
37.8000;0.3142;7.3629;
38.1000;0.3142;7.3629;
38.4000;0.3134;7.3653;
38.7000;0.3158;7.3771;
39.0000;0.3166;7.3795;
39.3000;0.3142;7.3677;
39.6000;0.3126;7.3629;
39.9000;0.3142;7.3677;
40.2000;0.3142;7.3677;
40.5000;0.3142;7.3677;
40.8000;0.3175;7.3724;
41.1000;0.3166;7.3653;
41.4000;0.3215;7.3818;
41.7000;0.3126;7.3582;
42.0000;0.3142;7.3535;
42.3000;0.3166;7.3558;
42.6000;0.3158;7.3535;
42.9000;0.3158;7.3535;
43.2000;0.3158;7.3582;
43.5000;0.3158;7.3629;
43.8000;0.3191;7.3629;
44.1000;0.3166;7.3582;
44.4000;0.3101;7.3464;
44.7000;0.3199;7.3677;
45.0000;0.3175;7.3582;
45.3000;0.3166;7.3606;
45.6000;0.3142;7.3511;
45.9000;0.3134;7.3417;
46.2000;0.3191;7.3606;
46.5000;0.3232;7.3747;
46.8000;0.3256;7.3866;
47.1000;0.3150;7.3535;
47.4000;0.3175;7.3629;
47.7000;0.3158;7.3629;
48.0000;0.3199;7.3629;
48.3000;0.3191;7.3606;
48.6000;0.3175;7.3677;
48.9000;0.3199;7.3677;
49.2000;0.3191;7.3511;
49.5000;0.3183;7.3464;
49.8000;0.3199;7.3440;
50.1000;0.3207;7.3582;
50.4000;0.3199;7.3653;
50.7000;0.3207;7.3677;
51.0000;0.3199;7.3724;
51.3000;0.3215;7.3771;
51.6000;0.3150;7.3511;
51.9000;0.3199;7.3629;
52.2000;0.3223;7.3629;
52.5000;0.3199;7.3558;
52.8000;0.3223;7.3629;
53.1000;0.3215;7.3511;
53.4000;0.3215;7.3369;
53.7000;0.3297;7.3440;
54.0000;0.3272;7.3417;
54.3000;0.3207;7.3393;
54.6000;0.3199;7.3275;
54.9000;0.3191;7.3369;
55.2000;0.3280;7.3606;
55.5000;0.3215;7.3558;
55.8000;0.3280;7.3700;
56.1000;0.3175;7.3535;
56.4000;0.3248;7.3700;
56.7000;0.3264;7.3700;
57.0000;0.3248;7.3724;
57.3000;0.3240;7.3677;
57.6000;0.3240;7.3724;
57.9000;0.3191;7.3558;
58.2000;0.3248;7.3724;
58.5000;0.3256;7.3653;
58.8000;0.3313;7.3771;
59.1000;0.3256;7.3653;
59.4000;0.3248;7.3582;
59.7000;0.3272;7.3606;
60.0000;0.3264;7.3629;
60.3000;0.3272;7.3558;
60.6000;0.3272;7.3582;
60.9000;0.3223;7.3487;
61.2000;0.3248;7.3606;
61.5000;0.3256;7.3606;
61.8000;0.3240;7.3558;
62.1000;0.3240;7.3558;
62.4000;0.3256;7.3535;
62.7000;0.3223;7.3346;
63.0000;0.3256;7.3369;
63.3000;0.3232;7.3440;
63.6000;0.3280;7.3558;
63.9000;0.3256;7.3606;
64.2000;0.3280;7.3677;
64.5000;0.3272;7.3677;
64.8000;0.3264;7.3511;
65.1000;0.3272;7.3487;
65.4000;0.3264;7.3440;
65.7000;0.3264;7.3417;
66.0000;0.3280;7.3417;
66.3000;0.3272;7.3393;
66.6000;0.3289;7.3440;
66.9000;0.3280;7.3417;
67.2000;0.3280;7.3417;
67.5000;0.3264;7.3275;
67.8000;0.3264;7.3417;
68.1000;0.3280;7.3629;
68.4000;0.3232;7.3558;
68.7000;0.3256;7.3558;
69.0000;0.3264;7.3535;
69.3000;0.3297;7.3606;
69.6000;0.3272;7.3487;
69.9000;0.3280;7.3535;
70.2000;0.3272;7.3535;
70.5000;0.3337;7.3677;
70.8000;0.3337;7.3724;
71.1000;0.3280;7.3582;
71.4000;0.3272;7.3582;
71.7000;0.3280;7.3440;
72.0000;0.3264;7.3417;
72.3000;0.3280;7.3464;
72.6000;0.3280;7.3369;
72.9000;0.3183;7.3156;
73.2000;0.3289;7.3393;
73.5000;0.3337;7.3582;
73.8000;0.3280;7.3440;
74.1000;0.3297;7.3535;
74.4000;0.3297;7.3558;
74.7000;0.3289;7.3511;
75.0000;0.3272;7.3417;
75.3000;0.3264;7.3393;
75.6000;0.3289;7.3464;
75.9000;0.3289;7.3464;
76.2000;0.3289;7.3440;
76.5000;0.3232;7.3346;
76.8000;0.3289;7.3440;
77.1000;0.3272;7.3369;
77.4000;0.3394;7.3629;
77.7000;0.3272;7.3322;
78.0000;0.3305;7.3440;
78.3000;0.3313;7.3487;
78.6000;0.3313;7.3346;
78.9000;0.3256;7.3180;
79.2000;0.3305;7.3346;
79.5000;0.3289;7.3369;
79.8000;0.3297;7.3346;
80.1000;0.3305;7.3417;
80.4000;0.3305;7.3440;
80.7000;0.3297;7.3558;
81.0000;0.3289;7.3535;
81.3000;0.3289;7.3464;
81.6000;0.3305;7.3582;
81.9000;0.3329;7.3724;
82.2000;0.3337;7.3653;
82.5000;0.3313;7.3606;
82.8000;0.3297;7.3558;
83.1000;0.3321;7.3606;
83.4000;0.3321;7.3582;
83.7000;0.3321;7.3558;
84.0000;0.3305;7.3558;
84.3000;0.3313;7.3629;
84.6000;0.3305;7.3535;
84.9000;0.3297;7.3511;
85.2000;0.3305;7.3440;
85.5000;0.3313;7.3487;
85.8000;0.3329;7.3535;
86.1000;0.3305;7.3511;
86.4000;0.3280;7.3535;
86.7000;0.3313;7.3535;
87.0000;0.3313;7.3464;
87.3000;0.3321;7.3417;
87.6000;0.3337;7.3464;
87.9000;0.3297;7.3393;
88.2000;0.3305;7.3464;
88.5000;0.3305;7.3440;
88.8000;0.3305;7.3440;
89.1000;0.3297;7.3417;
89.4000;0.3305;7.3440;
89.7000;0.3329;7.3511;
90.0000;0.3305;7.3511;
90.3000;0.3313;7.3535;
90.6000;0.3289;7.3582;
90.9000;0.3321;7.3629;
91.2000;0.3313;7.3606;
91.5000;0.3329;7.3653;
91.8000;0.3321;7.3653;
92.1000;0.3362;7.3677;
92.4000;0.3394;7.3795;
92.7000;0.3337;7.3606;
93.0000;0.3297;7.3582;
93.3000;0.3313;7.3818;
93.6000;0.3313;7.3866;
93.9000;0.3248;7.3629;
94.2000;0.3329;7.3700;
94.5000;0.3337;7.3700;
94.8000;0.3313;7.3677;
95.1000;0.3313;7.3700;
95.4000;0.3297;7.3677;
95.7000;0.3346;7.3724;
96.0000;0.3329;7.3653;
96.3000;0.3362;7.3724;
96.6000;0.3297;7.3582;
96.9000;0.3313;7.3653;
97.2000;0.3289;7.3558;
97.5000;0.3337;7.3653;
97.8000;0.3346;7.3582;
98.1000;0.3272;7.3393;
98.4000;0.3386;7.3653;
98.7000;0.3329;7.3440;
99.0000;0.3248;7.3251;
99.3000;0.3362;7.3511;
99.6000;0.3280;7.3298;
99.9000;0.3321;7.3511;
100.2000;0.3329;7.3535;
100.5000;0.3321;7.3511;
100.8000;0.3329;7.3582;
101.1000;0.3337;7.3629;
101.4000;0.3321;7.3558;
101.7000;0.3362;7.3582;
102.0000;0.3337;7.3558;
102.3000;0.3337;7.3558;
102.6000;0.3354;7.3487;
102.9000;0.3337;7.3393;
103.2000;0.3329;7.3251;
103.5000;0.3337;7.3275;
103.8000;0.3329;7.3204;
104.1000;0.3386;7.3298;
104.4000;0.3329;7.3109;
104.7000;0.3321;7.3156;
105.0000;0.3329;7.3204;
105.3000;0.3337;7.3227;
105.6000;0.3329;7.3251;
105.9000;0.3337;7.3251;
106.2000;0.3305;7.3251;
106.5000;0.3354;7.3417;
106.8000;0.3305;7.3275;
107.1000;0.3337;7.3369;
107.4000;0.3346;7.3298;
107.7000;0.3329;7.3275;
108.0000;0.3329;7.3227;
108.3000;0.3272;7.3062;
108.6000;0.3321;7.3322;
108.9000;0.3337;7.3417;
109.2000;0.3305;7.3417;
109.5000;0.3313;7.3464;
109.8000;0.3305;7.3440;
110.1000;0.3321;7.3440;
110.4000;0.3321;7.3417;
110.7000;0.3329;7.3417;
111.0000;0.3329;7.3440;
111.3000;0.3337;7.3440;
111.6000;0.3337;7.3464;
111.9000;0.3329;7.3487;
112.2000;0.3337;7.3464;
112.5000;0.3386;7.3464;
112.8000;0.3362;7.3417;
113.1000;0.3289;7.3204;
113.4000;0.3329;7.3298;
113.7000;0.3329;7.3393;
114.0000;0.3329;7.3393;
114.3000;0.3346;7.3417;
114.6000;0.3337;7.3440;
114.9000;0.3346;7.3440;
115.2000;0.3370;7.3535;
115.5000;0.3362;7.3346;
115.8000;0.3337;7.3180;
116.1000;0.3354;7.3227;
116.4000;0.3476;7.3582;
116.7000;0.3264;7.3015;
117.0000;0.3321;7.3133;
117.3000;0.3313;7.3086;
117.6000;0.3378;7.3180;
117.9000;0.3386;7.3180;
118.2000;0.3321;7.3109;
118.5000;0.3337;7.3275;
118.8000;0.3346;7.3393;
119.1000;0.3346;7.3440;
119.4000;0.3297;7.3346;
119.7000;0.3256;7.3322;
120.0000;0.3337;7.3511;
120.3000;0.3329;7.3417;
120.6000;0.3321;7.3393;
120.9000;0.3321;7.3369;
121.2000;0.3346;7.3464;
121.5000;0.3346;7.3582;
121.8000;0.3321;7.3487;
122.1000;0.3337;7.3558;
122.4000;0.3337;7.3629;
122.7000;0.3297;7.3487;
123.0000;0.3346;7.3629;
123.3000;0.3346;7.3629;
123.6000;0.3346;7.3511;
123.9000;0.3362;7.3464;
124.2000;0.3337;7.3487;
124.5000;0.3354;7.3464;
124.8000;0.3346;7.3440;
125.1000;0.3337;7.3511;
125.4000;0.3321;7.3440;
125.7000;0.3329;7.3464;
126.0000;0.3329;7.3558;
126.3000;0.3329;7.3606;
126.6000;0.3337;7.3629;
126.9000;0.3329;7.3535;
127.2000;0.3337;7.3487;
127.5000;0.3346;7.3464;
127.8000;0.3346;7.3511;
128.1000;0.3370;7.3487;
128.4000;0.3354;7.3417;
128.7000;0.3337;7.3464;
129.0000;0.3346;7.3511;
129.3000;0.3354;7.3558;
129.6000;0.3354;7.3558;
129.9000;0.3354;7.3464;
130.2000;0.3346;7.3417;
130.5000;0.3362;7.3511;
130.8000;0.3354;7.3487;
131.1000;0.3362;7.3487;
131.4000;0.3362;7.3440;
131.7000;0.3354;7.3393;
132.0000;0.3337;7.3369;
132.3000;0.3337;7.3440;
132.6000;0.3337;7.3535;
132.9000;0.3354;7.3464;
133.2000;0.3305;7.3346;
133.5000;0.3305;7.3369;
133.8000;0.3346;7.3417;
134.1000;0.3346;7.3417;
134.4000;0.3337;7.3227;
134.7000;0.3362;7.3322;
135.0000;0.3329;7.3393;
135.3000;0.3346;7.3440;
135.6000;0.3337;7.3487;
135.9000;0.3346;7.3558;
136.2000;0.3337;7.3535;
136.5000;0.3346;7.3440;
136.8000;0.3362;7.3440;
137.1000;0.3337;7.3346;
137.4000;0.3346;7.3393;
137.7000;0.3337;7.3298;
138.0000;0.3354;7.3275;
138.3000;0.3346;7.3227;
138.6000;0.3280;7.3109;
138.9000;0.3337;7.3298;
139.2000;0.3329;7.3251;
139.5000;0.3394;7.3322;
139.8000;0.3386;7.3346;
140.1000;0.3337;7.3346;
140.4000;0.3362;7.3369;
140.7000;0.3289;7.3227;
141.0000;0.3297;7.3204;
141.3000;0.3346;7.3251;
141.6000;0.3362;7.3322;
141.9000;0.3337;7.3322;
142.2000;0.3337;7.3251;
142.5000;0.3321;7.3156;
142.8000;0.3289;7.3086;
143.1000;0.3354;7.3180;
143.4000;0.3346;7.3227;
143.7000;0.3362;7.3322;
144.0000;0.3329;7.3251;
144.3000;0.3354;7.3227;
144.6000;0.3435;7.3535;
144.9000;0.3321;7.3346;
145.2000;0.3321;7.3417;
145.5000;0.3346;7.3535;
145.8000;0.3337;7.3535;
146.1000;0.3305;7.3440;
146.4000;0.3321;7.3464;
146.7000;0.3313;7.3346;
147.0000;0.3346;7.3417;
147.3000;0.3272;7.3180;
147.6000;0.3329;7.3322;
147.9000;0.3378;7.3487;
148.2000;0.3346;7.3487;
148.5000;0.3337;7.3393;
148.8000;0.3313;7.3275;
149.1000;0.3329;7.3346;
149.4000;0.3337;7.3251;
149.7000;0.3346;7.3298;
150.0000;0.3476;7.3677;
150.3000;0.3346;7.3393;
150.6000;0.3394;7.3487;
150.9000;0.3337;7.3275;
151.2000;0.3329;7.3369;
151.5000;0.3329;7.3298;
151.8000;0.3362;7.3346;
152.1000;0.3419;7.3511;
152.4000;0.3346;7.3346;
152.7000;0.3346;7.3393;
153.0000;0.3305;7.3227;
153.3000;0.3370;7.3369;
153.6000;0.3370;7.3393;
153.9000;0.3346;7.3487;
154.2000;0.3362;7.3606;
154.5000;0.3378;7.3582;
154.8000;0.3337;7.3417;
155.1000;0.3329;7.3393;
155.4000;0.3370;7.3511;
155.7000;0.3370;7.3558;
156.0000;0.3337;7.3440;
156.3000;0.3321;7.3369;
156.6000;0.3329;7.3369;
156.9000;0.3370;7.3417;
157.2000;0.3337;7.3393;
157.5000;0.3329;7.3346;
157.8000;0.3346;7.3369;
158.1000;0.3354;7.3440;
158.4000;0.3313;7.3322;
158.7000;0.3362;7.3393;
159.0000;0.3370;7.3369;
159.3000;0.3362;7.3369;
159.6000;0.3370;7.3322;
159.9000;0.3362;7.3322;
160.2000;0.3346;7.3393;
160.5000;0.3354;7.3464;
160.8000;0.3362;7.3511;
161.1000;0.3346;7.3582;
161.4000;0.3346;7.3558;
161.7000;0.3354;7.3558;
162.0000;0.3346;7.3511;
162.3000;0.3378;7.3511;
162.6000;0.3280;7.3322;
162.9000;0.3346;7.3464;
163.2000;0.3337;7.3464;
163.5000;0.3378;7.3629;
163.8000;0.3329;7.3464;
164.1000;0.3362;7.3487;
164.4000;0.3403;7.3535;
164.7000;0.3354;7.3440;
165.0000;0.3394;7.3535;
165.3000;0.3337;7.3369;
165.6000;0.3354;7.3369;
165.9000;0.3346;7.3346;
166.2000;0.3354;7.3393;
166.5000;0.3337;7.3298;
166.8000;0.3362;7.3275;
167.1000;0.3256;7.3062;
167.4000;0.3337;7.3251;
167.7000;0.3370;7.3369;
168.0000;0.3256;7.3038;
168.3000;0.3346;7.3251;
168.6000;0.3386;7.3369;
168.9000;0.3346;7.3322;
169.2000;0.3346;7.3369;
169.5000;0.3305;7.3180;
169.8000;0.3346;7.3298;
170.1000;0.3346;7.3251;
170.4000;0.3354;7.3322;
170.7000;0.3394;7.3440;
171.0000;0.3354;7.3393;
171.3000;0.3354;7.3369;
171.6000;0.3337;7.3322;
171.9000;0.3354;7.3346;
172.2000;0.3362;7.3346;
172.5000;0.3329;7.3346;
172.8000;0.3354;7.3440;
173.1000;0.3362;7.3393;
173.4000;0.3354;7.3393;
173.7000;0.3354;7.3369;
174.0000;0.3394;7.3440;
174.3000;0.3354;7.3322;
174.6000;0.3346;7.3322;
174.9000;0.3337;7.3298;
175.2000;0.3378;7.3393;
175.5000;0.3354;7.3369;
175.8000;0.3370;7.3511;
176.1000;0.3346;7.3440;
176.4000;0.3329;7.3393;
176.7000;0.3354;7.3417;
177.0000;0.3354;7.3535;
177.3000;0.3337;7.3582;
177.6000;0.3354;7.3582;
177.9000;0.3346;7.3393;
178.2000;0.3346;7.3393;
178.5000;0.3346;7.3440;
178.8000;0.3378;7.3606;
179.1000;0.3346;7.3535;
179.4000;0.3346;7.3511;
179.7000;0.3346;7.3535;
180.0000;0.3354;7.3535;
180.3000;0.3329;7.3487;
180.6000;0.3329;7.3558;
180.9000;0.3354;7.3677;
181.2000;0.3297;7.3464;
181.5000;0.3354;7.3629;
181.8000;0.3354;7.3558;
182.1000;0.3346;7.3511;
182.4000;0.3370;7.3535;
182.7000;0.3362;7.3440;
183.0000;0.3354;7.3417;
183.3000;0.3370;7.3535;
183.6000;0.3362;7.3582;
183.9000;0.3354;7.3558;
184.2000;0.3337;7.3606;
184.5000;0.3354;7.3606;
184.8000;0.3354;7.3440;
185.1000;0.3508;7.3747;
185.4000;0.3346;7.3417;
185.7000;0.3346;7.3417;
186.0000;0.3362;7.3464;
186.3000;0.3370;7.3464;
186.6000;0.3427;7.3558;
186.9000;0.3394;7.3511;
187.2000;0.3346;7.3511;
187.5000;0.3354;7.3558;
187.8000;0.3362;7.3511;
188.1000;0.3435;7.3747;
188.4000;0.3362;7.3606;
188.7000;0.3346;7.3558;
189.0000;0.3329;7.3535;
189.3000;0.3362;7.3558;
189.6000;0.3354;7.3535;
189.9000;0.3337;7.3511;
190.2000;0.3346;7.3487;
190.5000;0.3329;7.3417;
190.8000;0.3337;7.3487;
191.1000;0.3370;7.3393;
191.4000;0.3362;7.3346;
191.7000;0.3419;7.3417;
192.0000;0.3362;7.3464;
192.3000;0.3362;7.3511;
192.6000;0.3329;7.3535;
192.9000;0.3354;7.3582;
193.2000;0.3346;7.3487;
193.5000;0.3362;7.3440;
193.8000;0.3354;7.3393;
194.1000;0.3354;7.3298;
194.4000;0.3337;7.3322;
194.7000;0.3354;7.3298;
195.0000;0.3362;7.3298;
195.3000;0.3346;7.3180;
195.6000;0.3346;7.3156;
195.9000;0.3337;7.3227;
196.2000;0.3329;7.3275;
196.5000;0.3346;7.3393;
196.8000;0.3346;7.3464;
197.1000;0.3362;7.3511;
197.4000;0.3370;7.3558;
197.7000;0.3354;7.3582;
198.0000;0.3354;7.3582;
198.3000;0.3378;7.3653;
198.6000;0.3337;7.3677;
198.9000;0.3394;7.3818;
199.2000;0.3394;7.3866;
199.5000;0.3362;7.3771;
199.8000;0.3346;7.3724;
200.1000;0.3346;7.3724;
200.4000;0.3346;7.3724;
200.7000;0.3346;7.3653;
201.0000;0.3321;7.3558;
201.3000;0.3321;7.3558;
201.6000;0.3337;7.3582;
201.9000;0.3354;7.3653;
202.2000;0.3337;7.3535;
202.5000;0.3354;7.3487;
202.8000;0.3346;7.3558;
203.1000;0.3378;7.3558;
203.4000;0.3378;7.3582;
203.7000;0.3346;7.3511;
204.0000;0.3346;7.3464;
204.3000;0.3329;7.3464;
204.6000;0.3362;7.3511;
204.9000;0.3346;7.3464;
205.2000;0.3321;7.3417;
205.5000;0.3362;7.3558;
205.8000;0.3362;7.3511;
206.1000;0.3354;7.3464;
206.4000;0.3329;7.3346;
206.7000;0.3354;7.3535;
207.0000;0.3346;7.3535;
207.3000;0.3329;7.3440;
207.6000;0.3386;7.3558;
207.9000;0.3354;7.3558;
208.2000;0.3362;7.3558;
208.5000;0.3346;7.3558;
208.8000;0.3370;7.3582;
209.1000;0.3321;7.3369;
209.4000;0.3443;7.3558;
209.7000;0.3362;7.3417;
210.0000;0.3362;7.3369;
210.3000;0.3370;7.3369;
210.6000;0.3321;7.3204;
210.9000;0.3346;7.3251;
211.2000;0.3329;7.3133;
211.5000;0.3362;7.3298;
211.8000;0.3321;7.3275;
212.1000;0.3370;7.3322;
212.4000;0.3354;7.3275;
212.7000;0.3411;7.3487;
213.0000;0.3394;7.3440;
213.3000;0.3370;7.3440;
213.6000;0.3362;7.3440;
213.9000;0.3354;7.3487;
214.2000;0.3411;7.3724;
214.5000;0.3394;7.3700;
214.8000;0.3354;7.3582;
215.1000;0.3346;7.3535;
215.4000;0.3346;7.3582;
215.7000;0.3346;7.3606;
216.0000;0.3394;7.3724;
216.3000;0.3289;7.3417;
216.6000;0.3305;7.3511;
216.9000;0.3346;7.3582;
217.2000;0.3313;7.3440;
217.5000;0.3337;7.3487;
217.8000;0.3370;7.3440;
218.1000;0.3337;7.3369;
218.4000;0.3337;7.3322;
218.7000;0.3362;7.3346;
219.0000;0.3354;7.3393;
219.3000;0.3362;7.3464;
219.6000;0.3370;7.3417;
219.9000;0.3362;7.3440;
220.2000;0.3378;7.3535;
220.5000;0.3378;7.3582;
220.8000;0.3346;7.3511;
221.1000;0.3321;7.3369;
221.4000;0.3354;7.3464;
221.7000;0.3362;7.3393;
222.0000;0.3370;7.3393;
222.3000;0.3370;7.3440;
222.6000;0.3354;7.3487;
222.9000;0.3362;7.3487;
223.2000;0.3346;7.3369;
223.5000;0.3370;7.3440;
223.8000;0.3354;7.3393;
224.1000;0.3354;7.3440;
224.4000;0.3346;7.3440;
224.7000;0.3370;7.3535;
225.0000;0.3346;7.3487;
225.3000;0.3354;7.3535;
225.6000;0.3337;7.3487;
225.9000;0.3337;7.3417;
226.2000;0.3346;7.3322;
226.5000;0.3337;7.3275;
226.8000;0.3346;7.3346;
227.1000;0.3321;7.3298;
227.4000;0.3321;7.3227;
227.7000;0.3329;7.3251;
228.0000;0.3370;7.3346;
228.3000;0.3370;7.3346;
228.6000;0.3337;7.3298;
228.9000;0.3370;7.3369;
229.2000;0.3362;7.3440;
229.5000;0.3378;7.3511;
229.8000;0.3354;7.3417;
230.1000;0.3370;7.3393;
230.4000;0.3305;7.3275;
230.7000;0.3362;7.3369;
231.0000;0.3346;7.3275;
231.3000;0.3354;7.3251;
231.6000;0.3305;7.3204;
231.9000;0.3370;7.3180;
232.2000;0.3337;7.3133;
232.5000;0.3289;7.2991;
232.8000;0.3370;7.3180;
233.1000;0.3362;7.3204;
233.4000;0.3370;7.3251;
233.7000;0.3337;7.3275;
234.0000;0.3354;7.3369;
234.3000;0.3362;7.3487;
234.6000;0.3362;7.3487;
234.9000;0.3354;7.3487;
235.2000;0.3411;7.3558;
235.5000;0.3346;7.3298;
235.8000;0.3460;7.3629;
236.1000;0.3386;7.3487;
236.4000;0.3354;7.3464;
236.7000;0.3354;7.3464;
237.0000;0.3370;7.3606;
237.3000;0.3329;7.3464;
237.6000;0.3370;7.3511;
237.9000;0.3354;7.3464;
238.2000;0.3305;7.3393;
238.5000;0.3362;7.3487;
238.8000;0.3354;7.3440;
239.1000;0.3354;7.3417;
239.4000;0.3362;7.3511;
239.7000;0.3386;7.3511;
240.0000;0.3370;7.3464;
240.3000;0.3403;7.3511;
240.6000;0.3403;7.3582;
240.9000;0.3370;7.3582;
241.2000;0.3403;7.3677;
241.5000;0.3337;7.3535;
241.8000;0.3346;7.3582;
242.1000;0.3370;7.3653;
242.4000;0.3329;7.3582;
242.7000;0.3354;7.3606;
243.0000;0.3337;7.3582;
243.3000;0.3354;7.3511;
243.6000;0.3362;7.3464;
243.9000;0.3354;7.3440;
244.2000;0.3346;7.3369;
244.5000;0.3354;7.3369;
244.8000;0.3337;7.3369;
245.1000;0.3346;7.3464;
245.4000;0.3362;7.3535;
245.7000;0.3346;7.3535;
246.0000;0.3362;7.3558;
246.3000;0.3337;7.3440;
246.6000;0.3362;7.3393;
246.9000;0.3354;7.3440;
247.2000;0.3329;7.3511;
247.5000;0.3305;7.3417;
247.8000;0.3289;7.3393;
248.1000;0.3362;7.3558;
248.4000;0.3354;7.3440;
248.7000;0.3370;7.3511;
249.0000;0.3354;7.3440;
249.3000;0.3346;7.3487;
249.6000;0.3354;7.3393;
249.9000;0.3451;7.3653;
250.2000;0.3354;7.3346;
250.5000;0.3386;7.3464;
250.8000;0.3329;7.3322;
251.1000;0.3354;7.3393;
251.4000;0.3362;7.3393;
251.7000;0.3354;7.3322;
252.0000;0.3354;7.3440;
252.3000;0.3362;7.3487;
252.6000;0.3321;7.3298;
252.9000;0.3362;7.3440;
253.2000;0.3362;7.3393;
253.5000;0.3370;7.3393;
253.8000;0.3370;7.3393;
254.1000;0.3362;7.3369;
254.4000;0.3329;7.3369;
254.7000;0.3386;7.3487;
255.0000;0.3394;7.3511;
255.3000;0.3378;7.3487;
255.6000;0.3305;7.3369;
255.9000;0.3337;7.3535;
256.2000;0.3346;7.3535;
256.5000;0.3362;7.3558;
256.8000;0.3378;7.3487;
257.1000;0.3280;7.3227;
257.4000;0.3370;7.3558;
257.7000;0.3354;7.3653;
258.0000;0.3346;7.3582;
258.3000;0.3329;7.3582;
258.6000;0.3354;7.3582;
258.9000;0.3370;7.3653;
259.2000;0.3394;7.3677;
259.5000;0.3370;7.3558;
259.8000;0.3354;7.3535;
260.1000;0.3354;7.3487;
260.4000;0.3346;7.3606;
260.7000;0.3337;7.3606;
261.0000;0.3321;7.3393;
261.3000;0.3354;7.3535;
261.6000;0.3329;7.3393;
261.9000;0.3362;7.3487;
262.2000;0.3346;7.3511;
262.5000;0.3354;7.3558;
262.8000;0.3378;7.3606;
263.1000;0.3354;7.3606;
263.4000;0.3362;7.3582;
263.7000;0.3419;7.3629;
264.0000;0.3386;7.3606;
264.3000;0.3346;7.3487;
264.6000;0.3370;7.3582;
264.9000;0.3362;7.3487;
265.2000;0.3337;7.3440;
265.5000;0.3354;7.3487;
265.8000;0.3346;7.3369;
266.1000;0.3354;7.3440;
266.4000;0.3354;7.3440;
266.7000;0.3337;7.3393;
267.0000;0.3362;7.3535;
267.3000;0.3354;7.3558;
267.6000;0.3354;7.3653;
267.9000;0.3378;7.3700;
268.2000;0.3362;7.3724;
268.5000;0.3362;7.3700;
268.8000;0.3362;7.3653;
269.1000;0.3370;7.3558;
269.4000;0.3362;7.3487;
269.7000;0.3362;7.3487;
270.0000;0.3346;7.3440;
270.3000;0.3346;7.3417;
270.6000;0.3370;7.3487;
270.9000;0.3370;7.3417;
271.2000;0.3370;7.3487;
271.5000;0.3346;7.3464;
271.8000;0.3362;7.3511;
272.1000;0.3362;7.3464;
272.4000;0.3403;7.3558;
272.7000;0.3354;7.3511;
273.0000;0.3370;7.3511;
273.3000;0.3346;7.3487;
273.6000;0.3354;7.3464;
273.9000;0.3378;7.3511;
274.2000;0.3362;7.3464;
274.5000;0.3337;7.3487;
274.8000;0.3346;7.3417;
275.1000;0.3370;7.3535;
275.4000;0.3378;7.3511;
275.7000;0.3362;7.3393;
276.0000;0.3362;7.3417;
276.3000;0.3354;7.3369;
276.6000;0.3321;7.3275;
276.9000;0.3362;7.3369;
277.2000;0.3337;7.3322;
277.5000;0.3329;7.3133;
277.8000;0.3378;7.3180;
278.1000;0.3354;7.3156;
278.4000;0.3313;7.3133;
278.7000;0.3362;7.3227;
279.0000;0.3362;7.3251;
279.3000;0.3370;7.3322;
279.6000;0.3370;7.3393;
279.9000;0.3411;7.3464;
280.2000;0.3354;7.3369;
280.5000;0.3419;7.3558;
280.8000;0.3337;7.3417;
281.1000;0.3329;7.3369;
281.4000;0.3362;7.3417;
281.7000;0.3378;7.3464;
282.0000;0.3346;7.3487;
282.3000;0.3362;7.3487;
282.6000;0.3329;7.3487;
282.9000;0.3362;7.3535;
283.2000;0.3354;7.3511;
283.5000;0.3370;7.3511;
283.8000;0.3354;7.3417;
284.1000;0.3362;7.3440;
284.4000;0.3362;7.3393;
284.7000;0.3370;7.3369;
285.0000;0.3346;7.3298;
285.3000;0.3370;7.3464;
285.6000;0.3362;7.3440;
285.9000;0.3362;7.3417;
286.2000;0.3354;7.3393;
286.5000;0.3280;7.3227;
286.8000;0.3337;7.3346;
287.1000;0.3354;7.3322;
287.4000;0.3362;7.3322;
287.7000;0.3329;7.3275;
288.0000;0.3346;7.3440;
288.3000;0.3321;7.3322;
288.6000;0.3346;7.3417;
288.9000;0.3370;7.3535;
289.2000;0.3362;7.3535;
289.5000;0.3403;7.3629;
289.8000;0.3329;7.3417;
290.1000;0.3346;7.3393;
290.4000;0.3305;7.3251;
290.7000;0.3378;7.3535;
291.0000;0.3362;7.3393;
291.3000;0.3370;7.3417;
291.6000;0.3354;7.3322;
291.9000;0.3370;7.3393;
292.2000;0.3354;7.3346;
292.5000;0.3346;7.3346;
292.8000;0.3362;7.3440;
293.1000;0.3354;7.3511;
293.4000;0.3370;7.3464;
293.7000;0.3362;7.3464;
294.0000;0.3346;7.3393;
294.3000;0.3362;7.3393;
294.6000;0.3386;7.3464;
294.9000;0.3403;7.3487;
295.2000;0.3362;7.3393;
295.5000;0.3370;7.3346;
295.8000;0.3362;7.3298;
296.1000;0.3354;7.3369;
296.4000;0.3313;7.3251;
296.7000;0.3362;7.3369;
297.0000;0.3403;7.3440;
297.3000;0.3370;7.3369;
297.6000;0.3362;7.3275;
297.9000;0.3362;7.3322;
298.2000;0.3362;7.3440;
298.5000;0.3386;7.3511;
298.8000;0.3362;7.3393;
299.1000;0.3354;7.3440;
299.4000;0.3362;7.3417;
299.7000;0.3370;7.3417;
300.0000;0.3378;7.3417;
300.3000;0.3354;7.3322;
300.6000;0.3378;7.3346;
300.9000;0.3370;7.3227;
301.2000;0.3362;7.3227;
301.5000;0.3346;7.3251;
301.8000;0.3370;7.3369;
302.1000;0.3370;7.3393;
302.4000;0.3346;7.3322;
302.7000;0.3354;7.3298;
303.0000;0.3370;7.3275;
303.3000;0.3370;7.3251;
303.6000;0.3378;7.3298;
303.9000;0.3378;7.3346;
304.2000;0.3370;7.3440;
304.5000;0.3378;7.3369;
304.8000;0.3362;7.3393;
305.1000;0.3370;7.3464;
305.4000;0.3354;7.3464;
305.7000;0.3378;7.3558;
306.0000;0.3362;7.3535;
306.3000;0.3354;7.3558;
306.6000;0.3354;7.3558;
306.9000;0.3362;7.3535;
307.2000;0.3337;7.3606;
307.5000;0.3337;7.3606;
307.8000;0.3346;7.3606;
308.1000;0.3362;7.3582;
308.4000;0.3362;7.3440;
308.7000;0.3411;7.3511;
309.0000;0.3289;7.3227;
309.3000;0.3378;7.3535;
309.6000;0.3378;7.3464;
309.9000;0.3362;7.3393;
310.2000;0.3354;7.3275;
310.5000;0.3329;7.3251;
310.8000;0.3346;7.3204;
311.1000;0.3346;7.3156;
311.4000;0.3394;7.3275;
311.7000;0.3346;7.3204;
312.0000;0.3346;7.3133;
312.3000;0.3354;7.3204;
312.6000;0.3337;7.3180;
312.9000;0.3337;7.3227;
313.2000;0.3378;7.3322;
313.5000;0.3435;7.3440;
313.8000;0.3370;7.3251;
314.1000;0.3354;7.3204;
314.4000;0.3346;7.3227;
314.7000;0.3337;7.3204;
315.0000;0.3337;7.3227;
315.3000;0.3329;7.3156;
315.6000;0.3354;7.3109;
315.9000;0.3362;7.3204;
316.2000;0.3427;7.3393;
316.5000;0.3329;7.3275;
316.8000;0.3362;7.3322;
317.1000;0.3362;7.3227;
317.4000;0.3370;7.3109;
317.7000;0.3362;7.3086;
318.0000;0.3305;7.2944;
318.3000;0.3378;7.3062;
318.6000;0.3378;7.3062;
318.9000;0.3362;7.2991;
319.2000;0.3354;7.2991;
319.5000;0.3443;7.3346;
319.8000;0.3346;7.3109;
320.1000;0.3370;7.3180;
320.4000;0.3370;7.3298;
320.7000;0.3354;7.3298;
321.0000;0.3337;7.3346;
321.3000;0.3362;7.3417;
321.6000;0.3362;7.3487;
321.9000;0.3354;7.3511;
322.2000;0.3337;7.3487;
322.5000;0.3394;7.3464;
322.8000;0.3370;7.3346;
323.1000;0.3354;7.3346;
323.4000;0.3370;7.3417;
323.7000;0.3370;7.3369;
324.0000;0.3394;7.3393;
324.3000;0.3354;7.3298;
324.6000;0.3346;7.3227;
324.9000;0.3378;7.3251;
325.2000;0.3354;7.3156;
325.5000;0.3248;7.2849;
325.8000;0.3370;7.3156;
326.1000;0.3370;7.3180;
326.4000;0.3427;7.3393;
326.7000;0.3354;7.3298;
327.0000;0.3346;7.3322;
327.3000;0.3370;7.3464;
327.6000;0.3362;7.3440;
327.9000;0.3354;7.3417;
328.2000;0.3321;7.3346;
328.5000;0.3370;7.3464;
328.8000;0.3419;7.3558;
329.1000;0.3362;7.3511;
329.4000;0.3337;7.3440;
329.7000;0.3443;7.3606;
330.0000;0.3370;7.3417;
330.3000;0.3370;7.3369;
330.6000;0.3354;7.3322;
330.9000;0.3362;7.3298;
331.2000;0.3378;7.3346;
331.5000;0.3321;7.3180;
331.8000;0.3362;7.3180;
332.1000;0.3329;7.3156;
332.4000;0.3354;7.3251;
332.7000;0.3378;7.3298;
333.0000;0.3354;7.3369;
333.3000;0.3297;7.3298;
333.6000;0.3370;7.3417;
333.9000;0.3370;7.3440;
334.2000;0.3313;7.3251;
334.5000;0.3354;7.3322;
334.8000;0.3362;7.3346;
335.1000;0.3362;7.3251;
335.4000;0.3354;7.3346;
335.7000;0.3346;7.3393;
336.0000;0.3362;7.3440;
336.3000;0.3492;7.3700;
336.6000;0.3346;7.3393;
336.9000;0.3354;7.3393;
337.2000;0.3460;7.3653;
337.5000;0.3362;7.3322;
337.8000;0.3362;7.3440;
338.1000;0.3346;7.3346;
338.4000;0.3354;7.3369;
338.7000;0.3354;7.3393;
339.0000;0.3370;7.3369;
339.3000;0.3354;7.3298;
339.6000;0.3378;7.3393;
339.9000;0.3451;7.3677;
340.2000;0.3362;7.3487;
340.5000;0.3370;7.3487;
340.8000;0.3346;7.3440;
341.1000;0.3321;7.3346;
341.4000;0.3427;7.3582;
341.7000;0.3370;7.3417;
342.0000;0.3346;7.3251;
342.3000;0.3354;7.3322;
342.6000;0.3329;7.3251;
342.9000;0.3378;7.3393;
343.2000;0.3394;7.3417;
343.5000;0.3289;7.3204;
343.8000;0.3378;7.3440;
344.1000;0.3346;7.3417;
344.4000;0.3476;7.3771;
344.7000;0.3354;7.3487;
345.0000;0.3394;7.3606;
345.3000;0.3354;7.3558;
345.6000;0.3289;7.3417;
345.9000;0.3297;7.3346;
346.2000;0.3362;7.3629;
346.5000;0.3354;7.3629;
346.8000;0.3346;7.3535;
347.1000;0.3362;7.3535;
347.4000;0.3337;7.3417;
347.7000;0.3346;7.3487;
348.0000;0.3362;7.3417;
348.3000;0.3337;7.3322;
348.6000;0.3305;7.3251;
348.9000;0.3378;7.3417;
349.2000;0.3386;7.3487;
349.5000;0.3386;7.3511;
349.8000;0.3346;7.3440;
350.1000;0.3354;7.3487;
350.4000;0.3297;7.3322;
350.7000;0.3370;7.3511;
351.0000;0.3354;7.3440;
351.3000;0.3419;7.3653;
351.6000;0.3297;7.3275;
351.9000;0.3370;7.3417;
352.2000;0.3394;7.3511;
352.5000;0.3346;7.3487;
352.8000;0.3354;7.3464;
353.1000;0.3354;7.3417;
353.4000;0.3354;7.3440;
353.7000;0.3419;7.3511;
354.0000;0.3370;7.3393;
354.3000;0.3362;7.3440;
354.6000;0.3362;7.3464;
354.9000;0.3362;7.3511;
355.2000;0.3370;7.3464;
355.5000;0.3362;7.3511;
355.8000;0.3386;7.3558;
356.1000;0.3354;7.3535;
356.4000;0.3354;7.3511;
356.7000;0.3362;7.3417;
357.0000;0.3378;7.3440;
357.3000;0.3427;7.3511;
357.6000;0.3451;7.3700;
357.9000;0.3378;7.3558;
358.2000;0.3337;7.3487;
358.5000;0.3362;7.3511;
358.8000;0.3362;7.3535;
359.1000;0.3362;7.3487;
359.4000;0.3370;7.3511;
359.7000;0.3354;7.3464;
360.0000;0.3378;7.3606;
360.3000;0.3443;7.3677;
360.6000;0.3354;7.3487;
360.9000;0.3386;7.3511;
361.2000;0.3321;7.3487;
361.5000;0.3346;7.3464;
361.8000;0.3362;7.3535;
362.1000;0.3362;7.3511;
362.4000;0.3337;7.3346;
362.7000;0.3362;7.3464;
363.0000;0.3370;7.3487;
363.3000;0.3403;7.3535;
363.6000;0.3362;7.3464;
363.9000;0.3354;7.3322;
364.2000;0.3337;7.3298;
364.5000;0.3378;7.3393;
364.8000;0.3378;7.3417;
365.1000;0.3411;7.3582;
365.4000;0.3370;7.3511;
365.7000;0.3362;7.3535;
366.0000;0.3337;7.3487;
366.3000;0.3346;7.3487;
366.6000;0.3354;7.3464;
366.9000;0.3354;7.3393;
367.2000;0.3329;7.3322;
367.5000;0.3362;7.3440;
367.8000;0.3337;7.3464;
368.1000;0.3346;7.3511;
368.4000;0.3362;7.3487;
368.7000;0.3370;7.3346;
369.0000;0.3354;7.3275;
369.3000;0.3362;7.3298;
369.6000;0.3370;7.3298;
369.9000;0.3386;7.3298;
370.2000;0.3378;7.3440;
370.5000;0.3362;7.3440;
370.8000;0.3354;7.3464;
371.1000;0.3362;7.3487;
371.4000;0.3386;7.3535;
371.7000;0.3378;7.3582;
372.0000;0.3362;7.3582;
372.3000;0.3370;7.3582;
372.6000;0.3362;7.3653;
372.9000;0.3370;7.3677;
373.2000;0.3378;7.3700;
373.5000;0.3370;7.3677;
373.8000;0.3370;7.3582;
374.1000;0.3346;7.3369;
374.4000;0.3370;7.3393;
374.7000;0.3346;7.3440;
375.0000;0.3362;7.3487;
375.3000;0.3346;7.3487;
375.6000;0.3313;7.3346;
375.9000;0.3370;7.3417;
376.2000;0.3370;7.3346;
376.5000;0.3346;7.3298;
376.8000;0.3362;7.3204;
377.1000;0.3362;7.3275;
377.4000;0.3378;7.3275;
377.7000;0.3370;7.3204;
378.0000;0.3346;7.3038;
378.3000;0.3378;7.3133;
378.6000;0.3427;7.3275;
378.9000;0.3370;7.3133;
379.2000;0.3337;7.3133;
379.5000;0.3386;7.3298;
379.8000;0.3370;7.3227;
380.1000;0.3337;7.3204;
380.4000;0.3378;7.3393;
380.7000;0.3329;7.3393;
381.0000;0.3362;7.3487;
381.3000;0.3313;7.3275;
381.6000;0.3329;7.3204;
381.9000;0.3370;7.3346;
382.2000;0.3386;7.3322;
382.5000;0.3370;7.3180;
382.8000;0.3354;7.3156;
383.1000;0.3354;7.3204;
383.4000;0.3378;7.3133;
383.7000;0.3370;7.3109;
384.0000;0.3362;7.3038;
384.3000;0.3394;7.3204;
384.6000;0.3378;7.3133;
384.9000;0.3362;7.3062;
385.2000;0.3378;7.3086;
385.5000;0.3370;7.3038;
385.8000;0.3378;7.3180;
386.1000;0.3370;7.3156;
386.4000;0.3354;7.3109;
386.7000;0.3362;7.3062;
387.0000;0.3386;7.3180;
387.3000;0.3386;7.3133;
387.6000;0.3362;7.3109;
387.9000;0.3354;7.3109;
388.2000;0.3354;7.3062;
388.5000;0.3370;7.3133;
388.8000;0.3378;7.3298;
389.1000;0.3354;7.3346;
389.4000;0.3362;7.3369;
389.7000;0.3386;7.3369;
390.0000;0.3370;7.3369;
390.3000;0.3370;7.3369;
390.6000;0.3329;7.3298;
390.9000;0.3370;7.3417;
391.2000;0.3346;7.3275;
391.5000;0.3337;7.3251;
391.8000;0.3354;7.3346;
392.1000;0.3321;7.3227;
392.4000;0.3354;7.3322;
392.7000;0.3354;7.3275;
393.0000;0.3329;7.3298;
393.3000;0.3346;7.3298;
393.6000;0.3378;7.3393;
393.9000;0.3370;7.3440;
394.2000;0.3354;7.3464;
394.5000;0.3370;7.3464;
394.8000;0.3370;7.3511;
395.1000;0.3370;7.3487;
395.4000;0.3386;7.3487;
395.7000;0.3362;7.3487;
396.0000;0.3362;7.3558;
396.3000;0.3370;7.3440;
396.6000;0.3370;7.3322;
396.9000;0.3370;7.3298;
397.2000;0.3362;7.3275;
397.5000;0.3378;7.3346;
397.8000;0.3354;7.3346;
398.1000;0.3362;7.3393;
398.4000;0.3354;7.3369;
398.7000;0.3394;7.3440;
399.0000;0.3337;7.3298;
399.3000;0.3354;7.3298;
399.6000;0.3386;7.3346;
399.9000;0.3370;7.3322;
400.2000;0.3346;7.3346;
400.5000;0.3346;7.3369;
400.8000;0.3354;7.3393;
401.1000;0.3378;7.3417;
401.4000;0.3370;7.3393;
401.7000;0.3354;7.3369;
402.0000;0.3354;7.3298;
402.3000;0.3321;7.3204;
402.6000;0.3370;7.3227;
402.9000;0.3362;7.3180;
403.2000;0.3346;7.3251;
403.5000;0.3386;7.3369;
403.8000;0.3370;7.3346;
404.1000;0.3386;7.3393;
404.4000;0.3370;7.3346;
404.7000;0.3378;7.3298;
405.0000;0.3354;7.3275;
405.3000;0.3378;7.3346;
405.6000;0.3321;7.3156;
405.9000;0.3362;7.3251;
406.2000;0.3354;7.3227;
406.5000;0.3346;7.3062;
406.8000;0.3354;7.3038;
407.1000;0.3354;7.3015;
407.4000;0.3362;7.3109;
407.7000;0.3370;7.3133;
408.0000;0.3354;7.3086;
408.3000;0.3362;7.3109;
408.6000;0.3337;7.3086;
408.9000;0.3354;7.3180;
409.2000;0.3362;7.3180;
409.5000;0.3370;7.3180;
409.8000;0.3386;7.3180;
410.1000;0.3346;7.3109;
410.4000;0.3346;7.3109;
410.7000;0.3362;7.3227;
411.0000;0.3362;7.3204;
411.3000;0.3362;7.3227;
411.6000;0.3354;7.3204;
411.9000;0.3362;7.3227;
412.2000;0.3362;7.3227;
412.5000;0.3451;7.3417;
412.8000;0.3370;7.3227;
413.1000;0.3370;7.3204;
413.4000;0.3378;7.3251;
413.7000;0.3354;7.3275;
414.0000;0.3354;7.3275;
414.3000;0.3362;7.3275;
414.6000;0.3346;7.3251;
414.9000;0.3370;7.3440;
415.2000;0.3362;7.3440;
415.5000;0.3354;7.3417;
415.8000;0.3370;7.3393;
416.1000;0.3370;7.3464;
416.4000;0.3362;7.3417;
416.7000;0.3370;7.3346;
417.0000;0.3354;7.3322;
417.3000;0.3362;7.3275;
417.6000;0.3386;7.3298;
417.9000;0.3362;7.3275;
418.2000;0.3362;7.3180;
418.5000;0.3370;7.3156;
418.8000;0.3370;7.3086;
419.1000;0.3370;7.3156;
419.4000;0.3354;7.3156;
419.7000;0.3378;7.3227;
420.0000;0.3370;7.3298;
420.3000;0.3386;7.3322;
420.6000;0.3394;7.3275;
420.9000;0.3403;7.3322;
421.2000;0.3346;7.3204;
421.5000;0.3354;7.3275;
421.8000;0.3362;7.3322;
422.1000;0.3337;7.3275;
422.4000;0.3378;7.3251;
422.7000;0.3337;7.3275;
423.0000;0.3362;7.3393;
423.3000;0.3362;7.3393;
423.6000;0.3329;7.3204;
423.9000;0.3362;7.3275;
424.2000;0.3370;7.3204;
424.5000;0.3354;7.3109;
424.8000;0.3370;7.3133;
425.1000;0.3378;7.3227;
425.4000;0.3378;7.3251;
425.7000;0.3370;7.3133;
426.0000;0.3378;7.3109;
426.3000;0.3354;7.3038;
426.6000;0.3329;7.2967;
426.9000;0.3346;7.3109;
427.2000;0.3354;7.3227;
427.5000;0.3362;7.3251;
427.8000;0.3362;7.3227;
428.1000;0.3354;7.3251;
428.4000;0.3354;7.3251;
428.7000;0.3346;7.3180;
429.0000;0.3354;7.3180;
429.3000;0.3386;7.3251;
429.6000;0.3362;7.3086;
429.9000;0.3346;7.3086;
430.2000;0.3362;7.3109;
430.5000;0.3378;7.3086;
430.8000;0.3378;7.3133;
431.1000;0.3370;7.3062;
431.4000;0.3346;7.2991;
431.7000;0.3370;7.3062;
432.0000;0.3362;7.3086;
432.3000;0.3313;7.2920;
432.6000;0.3354;7.2967;
432.9000;0.3362;7.3038;
433.2000;0.3362;7.2991;
433.5000;0.3362;7.2991;
433.8000;0.3370;7.2991;
434.1000;0.3370;7.3109;
434.4000;0.3313;7.2991;
434.7000;0.3370;7.3133;
435.0000;0.3403;7.3156;
435.3000;0.3419;7.3156;
435.6000;0.3354;7.3156;
435.9000;0.3337;7.3038;
436.2000;0.3362;7.3109;
436.5000;0.3354;7.3109;
436.8000;0.3362;7.3133;
437.1000;0.3370;7.3133;
437.4000;0.3329;7.3062;
437.7000;0.3354;7.3156;
438.0000;0.3354;7.3109;
438.3000;0.3256;7.2849;
438.6000;0.3354;7.2991;
438.9000;0.3346;7.2967;
439.2000;0.3305;7.2920;
439.5000;0.3362;7.3086;
439.8000;0.3370;7.3133;
440.1000;0.3362;7.3180;
440.4000;0.3362;7.3227;
440.7000;0.3354;7.3227;
441.0000;0.3354;7.3204;
441.3000;0.3346;7.3204;
441.6000;0.3386;7.3322;
441.9000;0.3370;7.3156;
442.2000;0.3346;7.3062;
442.5000;0.3354;7.3038;
442.8000;0.3346;7.3038;
443.1000;0.3370;7.3015;
443.4000;0.3329;7.2944;
443.7000;0.3362;7.3038;
444.0000;0.3378;7.3038;
444.3000;0.3378;7.3062;
444.6000;0.3362;7.3015;
444.9000;0.3354;7.2896;
445.2000;0.3394;7.2991;
445.5000;0.3346;7.2991;
445.8000;0.3354;7.3086;
446.1000;0.3362;7.3038;
446.4000;0.3354;7.3227;
446.7000;0.3354;7.3298;
447.0000;0.3370;7.3464;
447.3000;0.3403;7.3440;
447.6000;0.3346;7.3204;
447.9000;0.3354;7.3227;
448.2000;0.3370;7.3275;
448.5000;0.3370;7.3346;
448.8000;0.3362;7.3275;
449.1000;0.3346;7.3275;
449.4000;0.3394;7.3251;
449.7000;0.3370;7.3251;
450.0000;0.3346;7.3204;
450.3000;0.3362;7.3251;
450.6000;0.3386;7.3251;
450.9000;0.3370;7.3251;
451.2000;0.3427;7.3417;
451.5000;0.3321;7.3133;
451.8000;0.3354;7.3251;
452.1000;0.3313;7.3227;
452.4000;0.3370;7.3393;
452.7000;0.3354;7.3322;
453.0000;0.3329;7.3251;
453.3000;0.3411;7.3440;
453.6000;0.3354;7.3393;
453.9000;0.3354;7.3393;
454.2000;0.3354;7.3417;
454.5000;0.3346;7.3369;
454.8000;0.3354;7.3369;
455.1000;0.3321;7.3298;
455.4000;0.3362;7.3322;
455.7000;0.3378;7.3393;
456.0000;0.3337;7.3322;
456.3000;0.3378;7.3417;
456.6000;0.3346;7.3440;
456.9000;0.3337;7.3464;
457.2000;0.3386;7.3487;
457.5000;0.3354;7.3369;
457.8000;0.3337;7.3298;
458.1000;0.3297;7.3180;
458.4000;0.3451;7.3677;
458.7000;0.3362;7.3417;
459.0000;0.3362;7.3393;
459.3000;0.3305;7.3251;
459.6000;0.3346;7.3346;
459.9000;0.3321;7.3298;
460.2000;0.3370;7.3298;
460.5000;0.3362;7.3251;
460.8000;0.3370;7.3322;
461.1000;0.3403;7.3369;
461.4000;0.3362;7.3298;
461.7000;0.3313;7.3156;
462.0000;0.3362;7.3180;
462.3000;0.3370;7.3204;
462.6000;0.3337;7.3204;
462.9000;0.3354;7.3227;
463.2000;0.3354;7.3204;
463.5000;0.3354;7.3204;
463.8000;0.3419;7.3322;
464.1000;0.3403;7.3322;
464.4000;0.3460;7.3511;
464.7000;0.3321;7.3180;
465.0000;0.3370;7.3204;
465.3000;0.3354;7.3133;
465.6000;0.3337;7.3156;
465.9000;0.3354;7.3109;
466.2000;0.3346;7.3062;
466.5000;0.3370;7.3204;
466.8000;0.3362;7.3275;
467.1000;0.3337;7.3227;
467.4000;0.3419;7.3558;
467.7000;0.3354;7.3464;
468.0000;0.3337;7.3417;
468.3000;0.3378;7.3393;
468.6000;0.3370;7.3369;
468.9000;0.3346;7.3251;
469.2000;0.3394;7.3417;
469.5000;0.3394;7.3440;
469.8000;0.3370;7.3464;
470.1000;0.3370;7.3511;
470.4000;0.3362;7.3464;
470.7000;0.3354;7.3298;
471.0000;0.3362;7.3298;
471.3000;0.3337;7.3275;
471.6000;0.3370;7.3275;
471.9000;0.3346;7.3204;
472.2000;0.3370;7.3227;
472.5000;0.3378;7.3227;
472.8000;0.3354;7.3109;
473.1000;0.3346;7.3109;
473.4000;0.3321;7.3109;
473.7000;0.3362;7.3275;
474.0000;0.3460;7.3558;
474.3000;0.3313;7.3156;
474.6000;0.3354;7.3369;
474.9000;0.3362;7.3322;
475.2000;0.3337;7.3227;
475.5000;0.3337;7.3298;
475.8000;0.3354;7.3393;
476.1000;0.3370;7.3487;
476.4000;0.3362;7.3487;
476.7000;0.3354;7.3440;
477.0000;0.3378;7.3417;
477.3000;0.3354;7.3275;
477.6000;0.3354;7.3346;
477.9000;0.3321;7.3204;
478.2000;0.3329;7.3275;
478.5000;0.3354;7.3322;
478.8000;0.3337;7.3298;
479.1000;0.3313;7.3251;
479.4000;0.3329;7.3393;
479.7000;0.3346;7.3417;
480.0000;0.3354;7.3346;
480.3000;0.3362;7.3275;
480.6000;0.3370;7.3251;
480.9000;0.3346;7.3275;
481.2000;0.3362;7.3251;
481.5000;0.3354;7.3156;
481.8000;0.3337;7.3109;
482.1000;0.3329;7.3086;
482.4000;0.3337;7.3204;
482.7000;0.3346;7.3251;
483.0000;0.3354;7.3346;
483.3000;0.3337;7.3275;
483.6000;0.3321;7.3156;
483.9000;0.3329;7.3156;
484.2000;0.3370;7.3156;
484.5000;0.3354;7.3109;
484.8000;0.3337;7.3062;
485.1000;0.3370;7.3204;
485.4000;0.3403;7.3417;
485.7000;0.3370;7.3346;
486.0000;0.3354;7.3251;
486.3000;0.3362;7.3251;
486.6000;0.3346;7.3204;
486.9000;0.3337;7.3251;
487.2000;0.3362;7.3275;
487.5000;0.3346;7.3251;
487.8000;0.3362;7.3322;
488.1000;0.3329;7.3275;
488.4000;0.3386;7.3464;
488.7000;0.3403;7.3511;
489.0000;0.3370;7.3393;
489.3000;0.3354;7.3204;
489.6000;0.3370;7.3251;
489.9000;0.3362;7.3393;
490.2000;0.3370;7.3369;
490.5000;0.3362;7.3369;
490.8000;0.3362;7.3487;
491.1000;0.3329;7.3369;
491.4000;0.3313;7.3227;
491.7000;0.3354;7.3298;
492.0000;0.3386;7.3275;
492.3000;0.3378;7.3251;
492.6000;0.3362;7.3227;
492.9000;0.3370;7.3204;
493.2000;0.3321;7.3109;
493.5000;0.3313;7.3038;
493.8000;0.3354;7.3227;
494.1000;0.3346;7.3251;
494.4000;0.3346;7.3298;
494.7000;0.3305;7.3156;
495.0000;0.3362;7.3204;
495.3000;0.3394;7.3298;
495.6000;0.3443;7.3558;
495.9000;0.3370;7.3417;
496.2000;0.3329;7.3369;
496.5000;0.3411;7.3535;
496.8000;0.3362;7.3440;
497.1000;0.3354;7.3393;
497.4000;0.3354;7.3417;
497.7000;0.3305;7.3227;
498.0000;0.3362;7.3322;
498.3000;0.3321;7.3227;
498.6000;0.3337;7.3322;
498.9000;0.3329;7.3346;
499.2000;0.3329;7.3275;
499.5000;0.3370;7.3322;
499.8000;0.3370;7.3227;
500.1000;0.3346;7.3133;
500.4000;0.3394;7.3298;
500.7000;0.3354;7.3275;
501.0000;0.3386;7.3322;
501.3000;0.3370;7.3298;
501.6000;0.3386;7.3275;
501.9000;0.3370;7.3227;
502.2000;0.3362;7.3204;
502.5000;0.3362;7.3204;
502.8000;0.3346;7.3109;
503.1000;0.3370;7.3204;
503.4000;0.3362;7.3133;
503.7000;0.3337;7.3109;
504.0000;0.3394;7.3251;
504.3000;0.3362;7.3180;
504.6000;0.3346;7.3180;
504.9000;0.3329;7.3180;
505.2000;0.3378;7.3346;
505.5000;0.3354;7.3251;
505.8000;0.3403;7.3369;
506.1000;0.3354;7.3227;
506.4000;0.3354;7.3204;
506.7000;0.3370;7.3275;
507.0000;0.3370;7.3204;
507.3000;0.3289;7.2920;
507.6000;0.3346;7.3086;
507.9000;0.3378;7.3204;
508.2000;0.3370;7.3227;
508.5000;0.3370;7.3251;
508.8000;0.3346;7.3322;
509.1000;0.3354;7.3369;
509.4000;0.3354;7.3393;
509.7000;0.3354;7.3417;
510.0000;0.3362;7.3417;
510.3000;0.3337;7.3298;
510.6000;0.3403;7.3417;
510.9000;0.3362;7.3298;
511.2000;0.3362;7.3346;
511.5000;0.3370;7.3393;
511.8000;0.3272;7.3109;
512.1000;0.3354;7.3298;
512.4000;0.3289;7.3133;
512.7000;0.3370;7.3346;
513.0000;0.3337;7.3369;
513.3000;0.3370;7.3511;
513.6000;0.3362;7.3511;
513.9000;0.3354;7.3440;
514.2000;0.3354;7.3417;
514.5000;0.3386;7.3417;
514.8000;0.3354;7.3346;
515.1000;0.3378;7.3298;
515.4000;0.3370;7.3275;
515.7000;0.3378;7.3298;
516.0000;0.3370;7.3346;
516.3000;0.3354;7.3346;
516.6000;0.3354;7.3298;
516.9000;0.3370;7.3275;
517.2000;0.3337;7.3275;
517.5000;0.3354;7.3298;
517.8000;0.3362;7.3298;
518.1000;0.3305;7.3204;
518.4000;0.3337;7.3275;
518.7000;0.3362;7.3346;
519.0000;0.3354;7.3275;
519.3000;0.3346;7.3298;
519.6000;0.3362;7.3322;
519.9000;0.3370;7.3275;
520.2000;0.3362;7.3133;
520.5000;0.3305;7.2967;
520.8000;0.3386;7.3180;
521.1000;0.3337;7.3156;
521.4000;0.3354;7.3227;
521.7000;0.3362;7.3298;
522.0000;0.3370;7.3346;
522.3000;0.3346;7.3275;
522.6000;0.3362;7.3156;
522.9000;0.3337;7.3038;
523.2000;0.3362;7.3180;
523.5000;0.3362;7.3180;
523.8000;0.3362;7.3322;
524.1000;0.3337;7.3251;
524.4000;0.3337;7.3251;
524.7000;0.3354;7.3251;
525.0000;0.3362;7.3251;
525.3000;0.3346;7.3180;
525.6000;0.3354;7.3156;
525.9000;0.3362;7.3180;
526.2000;0.3370;7.3133;
526.5000;0.3411;7.3322;
526.8000;0.3394;7.3369;
527.1000;0.3370;7.3322;
527.4000;0.3329;7.3180;
527.7000;0.3378;7.3227;
528.0000;0.3362;7.3204;
528.3000;0.3346;7.3298;
528.6000;0.3362;7.3417;
528.9000;0.3346;7.3393;
529.2000;0.3354;7.3393;
529.5000;0.3362;7.3440;
529.8000;0.3370;7.3440;
530.1000;0.3362;7.3464;
530.4000;0.3354;7.3440;
530.7000;0.3362;7.3369;
531.0000;0.3362;7.3346;
531.3000;0.3272;7.3109;
531.6000;0.3362;7.3275;
531.9000;0.3346;7.3227;
532.2000;0.3362;7.3204;
532.5000;0.3419;7.3322;
532.8000;0.3354;7.3133;
533.1000;0.3362;7.3133;
533.4000;0.3305;7.2967;
533.7000;0.3362;7.3086;
534.0000;0.3354;7.3133;
534.3000;0.3362;7.3109;
534.6000;0.3403;7.3298;
534.9000;0.3346;7.3251;
535.2000;0.3354;7.3298;
535.5000;0.3362;7.3322;
535.8000;0.3370;7.3251;
536.1000;0.3370;7.3227;
536.4000;0.3337;7.3204;
536.7000;0.3354;7.3156;
537.0000;0.3370;7.3204;
537.3000;0.3362;7.3227;
537.6000;0.3435;7.3393;
537.9000;0.3362;7.3227;
538.2000;0.3370;7.3227;
538.5000;0.3354;7.3133;
538.8000;0.3362;7.3156;
539.1000;0.3337;7.3038;
539.4000;0.3321;7.3133;
539.7000;0.3386;7.3251;
540.0000;0.3362;7.3251;
540.3000;0.3354;7.3227;
540.6000;0.3346;7.3180;
540.9000;0.3354;7.3227;
541.2000;0.3378;7.3322;
541.5000;0.3362;7.3275;
541.8000;0.3362;7.3180;
542.1000;0.3370;7.3038;
542.4000;0.3362;7.3062;
542.7000;0.3354;7.3062;
543.0000;0.3362;7.3038;
543.3000;0.3362;7.3156;
543.6000;0.3370;7.3180;
543.9000;0.3354;7.3251;
544.2000;0.3354;7.3346;
544.5000;0.3346;7.3417;
544.8000;0.3362;7.3369;
545.1000;0.3313;7.3156;
545.4000;0.3329;7.3227;
545.7000;0.3337;7.3227;
546.0000;0.3354;7.3275;
546.3000;0.3370;7.3322;
546.6000;0.3354;7.3298;
546.9000;0.3354;7.3251;
547.2000;0.3272;7.3015;
547.5000;0.3354;7.3109;
547.8000;0.3362;7.3086;
548.1000;0.3354;7.3062;
548.4000;0.3321;7.2991;
548.7000;0.3370;7.3180;
549.0000;0.3419;7.3251;
549.3000;0.3443;7.3275;
549.6000;0.3362;7.3086;
549.9000;0.3305;7.2944;
550.2000;0.3386;7.3156;
550.5000;0.3337;7.3133;
550.8000;0.3378;7.3204;
551.1000;0.3354;7.3204;
551.4000;0.3337;7.3204;
551.7000;0.3329;7.3251;
552.0000;0.3403;7.3417;
552.3000;0.3460;7.3629;
552.6000;0.3346;7.3251;
552.9000;0.3346;7.3227;
553.2000;0.3362;7.3322;
553.5000;0.3354;7.3369;
553.8000;0.3362;7.3417;
554.1000;0.3411;7.3582;
554.4000;0.3378;7.3511;
554.7000;0.3362;7.3487;
555.0000;0.3370;7.3511;
555.3000;0.3394;7.3535;
555.6000;0.3394;7.3464;
555.9000;0.3370;7.3440;
556.2000;0.3354;7.3369;
556.5000;0.3378;7.3511;
556.8000;0.3370;7.3393;
557.1000;0.3362;7.3275;
557.4000;0.3354;7.3275;
557.7000;0.3337;7.3393;
558.0000;0.3354;7.3393;
558.3000;0.3362;7.3487;
558.6000;0.3411;7.3511;
558.9000;0.3354;7.3369;
559.2000;0.3411;7.3511;
559.5000;0.3329;7.3322;
559.8000;0.3354;7.3346;
560.1000;0.3451;7.3582;
560.4000;0.3362;7.3322;
560.7000;0.3362;7.3275;
561.0000;0.3370;7.3227;
561.3000;0.3362;7.3275;
561.6000;0.3378;7.3322;
561.9000;0.3362;7.3275;
562.2000;0.3362;7.3227;
562.5000;0.3346;7.3204;
562.8000;0.3362;7.3298;
563.1000;0.3362;7.3322;
563.4000;0.3362;7.3346;
563.7000;0.3378;7.3440;
564.0000;0.3354;7.3440;
564.3000;0.3378;7.3582;
564.6000;0.3337;7.3417;
564.9000;0.3354;7.3393;
565.2000;0.3394;7.3464;
565.5000;0.3362;7.3298;
565.8000;0.3362;7.3251;
566.1000;0.3354;7.3251;
566.4000;0.3354;7.3227;
566.7000;0.3370;7.3251;
567.0000;0.3346;7.3227;
567.3000;0.3346;7.3180;
567.6000;0.3386;7.3322;
567.9000;0.3354;7.3180;
568.2000;0.3370;7.3275;
568.5000;0.3313;7.3156;
568.8000;0.3329;7.3251;
569.1000;0.3329;7.3204;
569.4000;0.3394;7.3393;
569.7000;0.3346;7.3393;
570.0000;0.3321;7.3346;
570.3000;0.3337;7.3369;
570.6000;0.3378;7.3464;
570.9000;0.3362;7.3417;
571.2000;0.3386;7.3511;
571.5000;0.3346;7.3369;
571.8000;0.3354;7.3393;
572.1000;0.3354;7.3346;
572.4000;0.3362;7.3298;
572.7000;0.3346;7.3298;
573.0000;0.3362;7.3346;
573.3000;0.3403;7.3417;
573.6000;0.3346;7.3275;
573.9000;0.3354;7.3275;
574.2000;0.3362;7.3275;
574.5000;0.3329;7.3251;
574.8000;0.3354;7.3393;
575.1000;0.3337;7.3322;
575.4000;0.3346;7.3440;
575.7000;0.3362;7.3464;
576.0000;0.3346;7.3487;
576.3000;0.3362;7.3417;
576.6000;0.3370;7.3369;
576.9000;0.3370;7.3346;
577.2000;0.3394;7.3417;
577.5000;0.3354;7.3346;
577.8000;0.3362;7.3369;
578.1000;0.3403;7.3417;
578.4000;0.3403;7.3417;
578.7000;0.3354;7.3275;
579.0000;0.3370;7.3298;
579.3000;0.3370;7.3275;
579.6000;0.3370;7.3346;
579.9000;0.3370;7.3180;
580.2000;0.3386;7.3251;
580.5000;0.3411;7.3298;
580.8000;0.3337;7.3133;
581.1000;0.3346;7.3204;
581.4000;0.3354;7.3109;
581.7000;0.3354;7.3109;
582.0000;0.3346;7.3038;
582.3000;0.3346;7.2991;
582.6000;0.3346;7.3038;
582.9000;0.3346;7.3109;
583.2000;0.3346;7.3086;
583.5000;0.3337;7.3156;
583.8000;0.3289;7.3015;
584.1000;0.3305;7.3133;
584.4000;0.3370;7.3322;
584.7000;0.3337;7.3227;
585.0000;0.3321;7.3251;
585.3000;0.3346;7.3393;
585.6000;0.3378;7.3417;
585.9000;0.3370;7.3417;
586.2000;0.3370;7.3369;
586.5000;0.3329;7.3251;
586.8000;0.3370;7.3346;
587.1000;0.3370;7.3393;
587.4000;0.3305;7.3227;
587.7000;0.3370;7.3417;
588.0000;0.3354;7.3346;
588.3000;0.3346;7.3204;
588.6000;0.3378;7.3322;
588.9000;0.3337;7.3322;
589.2000;0.3378;7.3393;
589.5000;0.3378;7.3464;
589.8000;0.3346;7.3369;
590.1000;0.3354;7.3322;
590.4000;0.3289;7.3251;
590.7000;0.3280;7.3180;
591.0000;0.3362;7.3417;
591.3000;0.3337;7.3369;
591.6000;0.3313;7.3227;
591.9000;0.3370;7.3369;
592.2000;0.3386;7.3417;
592.5000;0.3370;7.3275;
592.8000;0.3346;7.3227;
593.1000;0.3362;7.3298;
593.4000;0.3346;7.3227;
593.7000;0.3337;7.3227;
594.0000;0.3346;7.3204;
594.3000;0.3297;7.3180;
594.6000;0.3378;7.3298;
594.9000;0.3362;7.3275;
595.2000;0.3362;7.3227;
595.5000;0.3354;7.3251;
595.8000;0.3362;7.3275;
596.1000;0.3386;7.3464;
596.4000;0.3354;7.3440;
596.7000;0.3362;7.3464;
597.0000;0.3370;7.3487;
597.3000;0.3370;7.3511;
597.6000;0.3362;7.3535;
597.9000;0.3346;7.3487;
598.2000;0.3362;7.3487;
598.5000;0.3362;7.3511;
598.8000;0.3354;7.3487;
599.1000;0.3313;7.3298;
599.4000;0.3378;7.3535;
599.7000;0.3362;7.3440;
600.0000;0.3362;7.3487;
600.3000;0.3346;7.3298;
600.6000;0.3337;7.3251;
600.9000;0.3329;7.3251;
601.2000;0.3329;7.3180;
601.5000;0.3297;7.2991;
601.8000;0.3297;7.2967;
602.1000;0.3297;7.2991;
602.4000;0.3256;7.2849;
602.7000;0.3191;7.2636;
603.0000;0.3199;7.2613;
603.3000;0.3175;7.2518;
603.6000;0.3150;7.2518;
603.9000;0.3142;7.2353;
604.2000;0.3134;7.2211;
604.5000;0.3101;7.2093;
604.8000;0.3118;7.2046;
605.1000;0.3085;7.1975;
605.4000;0.3077;7.2046;
605.7000;0.3077;7.2022;
606.0000;0.3044;7.2022;
606.3000;0.3044;7.2022;
606.6000;0.2922;7.1762;
606.9000;0.3012;7.1951;
607.2000;0.3020;7.1856;
607.5000;0.3028;7.1904;
607.8000;0.3012;7.1856;
608.1000;0.2979;7.1809;
608.4000;0.2971;7.1809;
608.7000;0.2963;7.1762;
609.0000;0.2971;7.1738;
609.3000;0.2947;7.1691;
609.6000;0.2963;7.1691;
609.9000;0.2947;7.1691;
610.2000;0.2930;7.1715;
610.5000;0.2873;7.1644;
610.8000;0.2922;7.1786;
611.1000;0.2906;7.1762;
611.4000;0.2914;7.1667;
611.7000;0.2882;7.1596;
612.0000;0.2873;7.1502;
612.3000;0.2873;7.1502;
612.6000;0.2882;7.1502;
612.9000;0.2882;7.1384;
613.2000;0.2890;7.1478;
613.5000;0.2825;7.1360;
613.8000;0.2849;7.1455;
614.1000;0.2808;7.1384;
614.4000;0.2833;7.1431;
614.7000;0.2849;7.1502;
615.0000;0.2849;7.1478;
615.3000;0.2825;7.1360;
615.6000;0.2825;7.1313;
615.9000;0.2808;7.1289;
616.2000;0.2816;7.1336;
616.5000;0.2816;7.1407;
616.8000;0.2808;7.1384;
617.1000;0.2800;7.1455;
617.4000;0.2792;7.1431;
617.7000;0.2784;7.1431;
618.0000;0.2759;7.1431;
618.3000;0.2751;7.1478;
618.6000;0.2751;7.1384;
618.9000;0.2759;7.1336;
619.2000;0.2751;7.1266;
619.5000;0.2743;7.1266;
619.8000;0.2735;7.1266;
620.1000;0.2735;7.1242;
620.4000;0.2743;7.1147;
620.7000;0.2727;7.1100;
621.0000;0.2727;7.1171;
621.3000;0.2711;7.1313;
621.6000;0.2702;7.1266;
621.9000;0.2727;7.1313;
622.2000;0.2759;7.1266;
622.5000;0.2702;7.1195;
622.8000;0.2711;7.1218;
623.1000;0.2694;7.1100;
623.4000;0.2711;7.1171;
623.7000;0.2670;7.1006;
624.0000;0.2735;7.1029;
624.3000;0.2686;7.0911;
624.6000;0.2686;7.0887;
624.9000;0.2702;7.1053;
625.2000;0.2670;7.1029;
625.5000;0.2670;7.1029;
625.8000;0.2670;7.1053;
626.1000;0.2637;7.1053;
626.4000;0.2711;7.1242;
626.7000;0.2678;7.1147;
627.0000;0.2694;7.1171;
627.3000;0.2629;7.0982;
627.6000;0.2654;7.1100;
627.9000;0.2629;7.1053;
628.2000;0.2621;7.1100;
628.5000;0.2629;7.1171;
628.8000;0.2605;7.1147;
629.1000;0.2597;7.1218;
629.4000;0.2523;7.1076;
629.7000;0.2605;7.1313;
630.0000;0.2621;7.1313;
630.3000;0.2613;7.1289;
630.6000;0.2580;7.1242;
630.9000;0.2597;7.1147;
631.2000;0.2605;7.1076;
631.5000;0.2597;7.1124;
631.8000;0.2597;7.1124;
632.1000;0.2548;7.1053;
632.4000;0.2580;7.1195;
632.7000;0.2580;7.1147;
633.0000;0.2580;7.1218;
633.3000;0.2580;7.1218;
633.6000;0.2564;7.1124;
633.9000;0.2580;7.1053;
634.2000;0.2580;7.1029;
634.5000;0.2548;7.1006;
634.8000;0.2548;7.0958;
635.1000;0.2540;7.1100;
635.4000;0.2548;7.1171;
635.7000;0.2540;7.1100;
636.0000;0.2532;7.1147;
636.3000;0.2564;7.1218;
636.6000;0.2556;7.1218;
636.9000;0.2548;7.1147;
637.2000;0.2499;7.0935;
637.5000;0.2515;7.1053;
637.8000;0.2556;7.1100;
638.1000;0.2499;7.0887;
638.4000;0.2499;7.0982;
638.7000;0.2507;7.1053;
639.0000;0.2507;7.1053;
639.3000;0.2499;7.1147;
639.6000;0.2507;7.1076;
639.9000;0.2499;7.1029;
640.2000;0.2507;7.0887;
640.5000;0.2515;7.0769;
640.8000;0.2483;7.0793;
641.1000;0.2426;7.0816;
641.4000;0.2450;7.0982;
641.7000;0.2507;7.1076;
642.0000;0.2483;7.1006;
642.3000;0.2499;7.1076;
642.6000;0.2466;7.1006;
642.9000;0.2499;7.1124;
643.2000;0.2491;7.1100;
643.5000;0.2442;7.0982;
643.8000;0.2458;7.0982;
644.1000;0.2458;7.1006;
644.4000;0.2483;7.1076;
644.7000;0.2418;7.0935;
645.0000;0.2466;7.1006;
645.3000;0.2450;7.1029;
645.6000;0.2466;7.0982;
645.9000;0.2450;7.0958;
646.2000;0.2458;7.0958;
646.5000;0.2442;7.0935;
646.8000;0.2475;7.0982;
647.1000;0.2450;7.1029;
647.4000;0.2483;7.1147;
647.7000;0.2458;7.1171;
648.0000;0.2442;7.1195;
648.3000;0.2458;7.1195;
648.6000;0.2483;7.1171;
648.9000;0.2426;7.1053;
649.2000;0.2434;7.0982;
649.5000;0.2426;7.0982;
649.8000;0.2426;7.1029;
650.1000;0.2426;7.1076;
650.4000;0.2409;7.1100;
650.7000;0.2458;7.1242;
651.0000;0.2418;7.1100;
651.3000;0.2418;7.1053;
651.6000;0.2434;7.1147;
651.9000;0.2426;7.1171;
652.2000;0.2418;7.1053;
652.5000;0.2377;7.1006;
652.8000;0.2393;7.0958;
653.1000;0.2434;7.0982;
653.4000;0.2434;7.1006;
653.7000;0.2418;7.1053;
654.0000;0.2393;7.0982;
654.3000;0.2401;7.1006;
654.6000;0.2418;7.0958;
654.9000;0.2393;7.0864;
655.2000;0.2393;7.0911;
655.5000;0.2401;7.1029;
655.8000;0.2401;7.0982;
656.1000;0.2409;7.1076;
656.4000;0.2393;7.0982;
656.7000;0.2393;7.0911;
657.0000;0.2401;7.0911;
657.3000;0.2401;7.0935;
657.6000;0.2385;7.0887;
657.9000;0.2377;7.0887;
658.2000;0.2385;7.0887;
658.5000;0.2385;7.0935;
658.8000;0.2361;7.0935;
659.1000;0.2369;7.0864;
659.4000;0.2352;7.0864;
659.7000;0.2458;7.1076;
660.0000;0.2361;7.0816;
660.3000;0.2230;7.0462;
660.6000;0.2385;7.0722;
660.9000;0.2434;7.0864;
661.2000;0.2426;7.0816;
661.5000;0.2393;7.0698;
661.8000;0.2377;7.0698;
662.1000;0.2377;7.0627;
662.4000;0.2369;7.0556;
662.7000;0.2377;7.0675;
663.0000;0.2361;7.0627;
663.3000;0.2352;7.0604;
663.6000;0.2361;7.0675;
663.9000;0.2320;7.0627;
664.2000;0.2369;7.0840;
664.5000;0.2369;7.0840;
664.8000;0.2369;7.0864;
665.1000;0.2352;7.0887;
665.4000;0.2344;7.0887;
665.7000;0.2344;7.0887;
666.0000;0.2409;7.1006;
666.3000;0.2401;7.1006;
666.6000;0.2352;7.0840;
666.9000;0.2352;7.0887;
667.2000;0.2312;7.0722;
667.5000;0.2344;7.0840;
667.8000;0.2352;7.0958;
668.1000;0.2336;7.0911;
668.4000;0.2352;7.0982;
668.7000;0.2377;7.1053;
669.0000;0.2328;7.1053;
669.3000;0.2369;7.1076;
669.6000;0.2344;7.1076;
669.9000;0.2336;7.1029;
670.2000;0.2328;7.0958;
670.5000;0.2320;7.0816;
670.8000;0.2295;7.0769;
671.1000;0.2328;7.0793;
671.4000;0.2336;7.0746;
671.7000;0.2352;7.0746;
672.0000;0.2328;7.0722;
672.3000;0.2418;7.0935;
672.6000;0.2352;7.0840;
672.9000;0.2344;7.0793;
673.2000;0.2344;7.0816;
673.5000;0.2320;7.0769;
673.8000;0.2320;7.0746;
674.1000;0.2304;7.0651;
674.4000;0.2312;7.0746;
674.7000;0.2336;7.0769;
675.0000;0.2336;7.0864;
675.3000;0.2409;7.1147;
675.6000;0.2328;7.0935;
675.9000;0.2320;7.0911;
676.2000;0.2418;7.1124;
676.5000;0.2320;7.0911;
676.8000;0.2352;7.1006;
677.1000;0.2312;7.0864;
677.4000;0.2328;7.0887;
677.7000;0.2304;7.0793;
678.0000;0.2247;7.0651;
678.3000;0.2320;7.0864;
678.6000;0.2328;7.0840;
678.9000;0.2304;7.0722;
679.2000;0.2295;7.0675;
679.5000;0.2263;7.0604;
679.8000;0.2287;7.0651;
680.1000;0.2295;7.0580;
680.4000;0.2287;7.0462;
680.7000;0.2304;7.0556;
681.0000;0.2287;7.0556;
681.3000;0.2320;7.0604;
681.6000;0.2230;7.0462;
681.9000;0.2287;7.0722;
682.2000;0.2328;7.0840;
682.5000;0.2287;7.0816;
682.8000;0.2271;7.0746;
683.1000;0.2279;7.0698;
683.4000;0.2279;7.0698;
683.7000;0.2336;7.0793;
684.0000;0.2295;7.0627;
684.3000;0.2271;7.0627;
684.6000;0.2352;7.0769;
684.9000;0.2287;7.0509;
685.2000;0.2304;7.0627;
685.5000;0.2287;7.0675;
685.8000;0.2279;7.0651;
686.1000;0.2279;7.0675;
686.4000;0.2295;7.0722;
686.7000;0.2304;7.0698;
687.0000;0.2279;7.0675;
687.3000;0.2239;7.0722;
687.6000;0.2304;7.0864;
687.9000;0.2287;7.0816;
688.2000;0.2255;7.0793;
688.5000;0.2263;7.0935;
688.8000;0.2271;7.0982;
689.1000;0.2279;7.0958;
689.4000;0.2336;7.0982;
689.7000;0.2271;7.0887;
690.0000;0.2279;7.0935;
690.3000;0.2239;7.0887;
690.6000;0.2271;7.0982;
690.9000;0.2320;7.1053;
691.2000;0.2271;7.0911;
691.5000;0.2279;7.0840;
691.8000;0.2287;7.0793;
692.1000;0.2271;7.0793;
692.4000;0.2263;7.0793;
692.7000;0.2263;7.0793;
693.0000;0.2214;7.0675;
693.3000;0.2247;7.0793;
693.6000;0.2255;7.0816;
693.9000;0.2255;7.0840;
694.2000;0.2247;7.0793;
694.5000;0.2247;7.0816;
694.8000;0.2255;7.0840;
695.1000;0.2247;7.0864;
695.4000;0.2230;7.1006;
695.7000;0.2271;7.1076;
696.0000;0.2271;7.1171;
696.3000;0.2279;7.1100;
696.6000;0.2295;7.1076;
696.9000;0.2255;7.0911;
697.2000;0.2263;7.0887;
697.5000;0.2279;7.0958;
697.8000;0.2263;7.0840;
698.1000;0.2214;7.0793;
698.4000;0.2263;7.0887;
698.7000;0.2247;7.0840;
699.0000;0.2344;7.1006;
699.3000;0.2255;7.0793;
699.6000;0.2230;7.0769;
699.9000;0.2255;7.0746;
700.2000;0.2271;7.0840;
700.5000;0.2263;7.0722;
700.8000;0.2328;7.0887;
701.1000;0.2206;7.0627;
701.4000;0.2247;7.0793;
701.7000;0.2239;7.0840;
702.0000;0.2198;7.0675;
702.3000;0.2230;7.0769;
702.6000;0.2255;7.0887;
702.9000;0.2247;7.0887;
703.2000;0.2206;7.0793;
703.5000;0.2157;7.0769;
703.8000;0.2222;7.0911;
704.1000;0.2214;7.0840;
704.4000;0.2271;7.0864;
704.7000;0.2206;7.0769;
705.0000;0.2263;7.0958;
705.3000;0.2214;7.0887;
705.6000;0.2295;7.1124;
705.9000;0.2247;7.1029;
706.2000;0.2279;7.1147;
706.5000;0.2239;7.0935;
706.8000;0.2239;7.1124;
707.1000;0.2247;7.1147;
707.4000;0.2247;7.1147;
707.7000;0.2239;7.1076;
708.0000;0.2222;7.1053;
708.3000;0.2230;7.1029;
708.6000;0.2230;7.1029;
708.9000;0.2239;7.0958;
709.2000;0.2182;7.0840;
709.5000;0.2230;7.0935;
709.8000;0.2214;7.0887;
710.1000;0.2230;7.0887;
710.4000;0.2263;7.1053;
710.7000;0.2247;7.1006;
711.0000;0.2165;7.0698;
711.3000;0.2230;7.0840;
711.6000;0.2239;7.0935;
711.9000;0.2230;7.0887;
712.2000;0.2222;7.0911;
712.5000;0.2214;7.0864;
712.8000;0.2206;7.0864;
713.1000;0.2230;7.0982;
713.4000;0.2222;7.0935;
713.7000;0.2239;7.0887;
714.0000;0.2222;7.0911;
714.3000;0.2165;7.0722;
714.6000;0.2214;7.0816;
714.9000;0.2206;7.0746;
715.2000;0.2214;7.0816;
715.5000;0.2222;7.0887;
715.8000;0.2198;7.0864;
716.1000;0.2206;7.0864;
716.4000;0.2190;7.0769;
716.7000;0.2230;7.0887;
717.0000;0.2222;7.0864;
717.3000;0.2230;7.0864;
717.6000;0.2206;7.0887;
717.9000;0.2182;7.0887;
718.2000;0.2198;7.0840;
718.5000;0.2198;7.0816;
718.8000;0.2206;7.0840;
719.1000;0.2222;7.0887;
719.4000;0.2352;7.1171;
719.7000;0.2230;7.0864;
720.0000;0.2222;7.0769;
720.3000;0.2222;7.0816;
720.6000;0.2230;7.0816;
720.9000;0.2230;7.0769;
721.2000;0.2206;7.0651;
721.5000;0.2255;7.0840;
721.8000;0.2157;7.0580;
722.1000;0.2230;7.0769;
722.4000;0.2125;7.0675;
722.7000;0.2165;7.0746;
723.0000;0.2239;7.0911;
723.3000;0.2206;7.0793;
723.6000;0.2206;7.0769;
723.9000;0.2149;7.0604;
724.2000;0.2206;7.0746;
724.5000;0.2214;7.0722;
724.8000;0.2206;7.0627;
725.1000;0.2173;7.0675;
725.4000;0.2206;7.0911;
725.7000;0.2198;7.0958;
726.0000;0.2222;7.1147;
726.3000;0.2173;7.1124;
726.6000;0.2206;7.1195;
726.9000;0.2214;7.1218;
727.2000;0.2214;7.1242;
727.5000;0.2222;7.1218;
727.8000;0.2198;7.1124;
728.1000;0.2206;7.1076;
728.4000;0.2190;7.1124;
728.7000;0.2198;7.1124;
729.0000;0.2157;7.1076;
729.3000;0.2214;7.1171;
729.6000;0.2214;7.1100;
729.9000;0.2206;7.1076;
730.2000;0.2198;7.1100;
730.5000;0.2206;7.1100;
730.8000;0.2206;7.1124;
731.1000;0.2198;7.1147;
731.4000;0.2222;7.1218;
731.7000;0.2165;7.1076;
732.0000;0.2206;7.1171;
732.3000;0.2198;7.1124;
732.6000;0.2182;7.1029;
732.9000;0.2198;7.1053;
733.2000;0.2182;7.1006;
733.5000;0.2198;7.0911;
733.8000;0.2190;7.0935;
734.1000;0.2157;7.0935;
734.4000;0.2165;7.0935;
734.7000;0.2190;7.0958;
735.0000;0.2198;7.1053;
735.3000;0.2206;7.1195;
735.6000;0.2182;7.1147;
735.9000;0.2206;7.1171;
736.2000;0.2190;7.1218;
736.5000;0.2255;7.1313;
736.8000;0.2165;7.1124;
737.1000;0.2173;7.1147;
737.4000;0.2173;7.1195;
737.7000;0.2173;7.1053;
738.0000;0.2182;7.1006;
738.3000;0.2190;7.1006;
738.6000;0.2222;7.1029;
738.9000;0.2190;7.1006;
739.2000;0.2182;7.1029;
739.5000;0.2182;7.1100;
739.8000;0.2198;7.1171;
740.1000;0.2149;7.1100;
740.4000;0.2173;7.1076;
740.7000;0.2157;7.1053;
741.0000;0.2157;7.1100;
741.3000;0.2198;7.1171;
741.6000;0.2157;7.0958;
741.9000;0.2116;7.0958;
742.2000;0.2198;7.1195;
742.5000;0.2173;7.1147;
742.8000;0.2133;7.1029;
743.1000;0.2190;7.1076;
743.4000;0.2165;7.0935;
743.7000;0.2198;7.0958;
744.0000;0.2198;7.1006;
744.3000;0.2182;7.1053;
744.6000;0.2173;7.0935;
744.9000;0.2190;7.0840;
745.2000;0.2165;7.0793;
745.5000;0.2157;7.0746;
745.8000;0.2043;7.0509;
746.1000;0.2206;7.0840;
746.4000;0.2133;7.0627;
746.7000;0.2173;7.0840;
747.0000;0.2165;7.0840;
747.3000;0.2165;7.0958;
747.6000;0.2190;7.0911;
747.9000;0.2165;7.0887;
748.2000;0.2182;7.0982;
748.5000;0.2190;7.0935;
748.8000;0.2141;7.0864;
749.1000;0.2149;7.0911;
749.4000;0.2173;7.0958;
749.7000;0.2190;7.1053;
750.0000;0.2157;7.0982;
750.3000;0.2165;7.1006;
750.6000;0.2173;7.1006;
750.9000;0.2182;7.0982;
751.2000;0.2173;7.0911;
751.5000;0.2133;7.0793;
751.8000;0.2165;7.0982;
752.1000;0.2173;7.1029;
752.4000;0.2173;7.1076;
752.7000;0.2182;7.0982;
753.0000;0.2173;7.0911;
753.3000;0.2198;7.1076;
753.6000;0.2165;7.1053;
753.9000;0.2149;7.0982;
754.2000;0.2165;7.1006;
754.5000;0.2182;7.1124;
754.8000;0.2157;7.1100;
755.1000;0.2125;7.1100;
755.4000;0.2141;7.1076;
755.7000;0.2141;7.1124;
756.0000;0.2173;7.1100;
756.3000;0.2157;7.1100;
756.6000;0.2149;7.1124;
756.9000;0.2141;7.1029;
757.2000;0.2125;7.0911;
757.5000;0.2198;7.1053;
757.8000;0.2165;7.1100;
758.1000;0.2141;7.1124;
758.4000;0.2157;7.1195;
758.7000;0.2182;7.1124;
759.0000;0.2173;7.1100;
759.3000;0.2165;7.1029;
759.6000;0.2133;7.1006;
759.9000;0.2149;7.1100;
760.2000;0.2165;7.1147;
760.5000;0.2157;7.1195;
760.8000;0.2149;7.1171;
761.1000;0.2149;7.1195;
761.4000;0.2165;7.1218;
761.7000;0.2157;7.1218;
762.0000;0.2165;7.1289;
762.3000;0.2190;7.1336;
762.6000;0.2149;7.1147;
762.9000;0.2157;7.1076;
763.2000;0.2173;7.1100;
763.5000;0.2157;7.1053;
763.8000;0.2182;7.1029;
764.1000;0.2173;7.1100;
764.4000;0.2157;7.1100;
764.7000;0.2108;7.1100;
765.0000;0.2165;7.1218;
765.3000;0.2157;7.1218;
765.6000;0.2141;7.1100;
765.9000;0.2157;7.1076;
766.2000;0.2157;7.1171;
766.5000;0.2157;7.1171;
766.8000;0.2149;7.1171;
767.1000;0.2149;7.1029;
767.4000;0.2149;7.1029;
767.7000;0.2198;7.1124;
768.0000;0.2157;7.1053;
768.3000;0.2165;7.1124;
768.6000;0.2149;7.1124;
768.9000;0.2149;7.1053;
769.2000;0.2157;7.1029;
769.5000;0.2149;7.0935;
769.8000;0.2141;7.0887;
770.1000;0.2149;7.0887;
770.4000;0.2157;7.0840;
770.7000;0.2149;7.0911;
771.0000;0.2141;7.0887;
771.3000;0.2141;7.0864;
771.6000;0.2149;7.0887;
771.9000;0.2149;7.0793;
772.2000;0.2141;7.0911;
772.5000;0.2141;7.0982;
772.8000;0.2198;7.1029;
773.1000;0.2173;7.1076;
773.4000;0.2149;7.0935;
773.7000;0.2149;7.0911;
774.0000;0.2149;7.0840;
774.3000;0.2173;7.0958;
774.6000;0.2141;7.0793;
774.9000;0.2141;7.0769;
775.2000;0.2141;7.0651;
775.5000;0.2149;7.0698;
775.8000;0.2141;7.0769;
776.1000;0.2157;7.0840;
776.4000;0.2068;7.0722;
776.7000;0.2133;7.0864;
777.0000;0.2141;7.0864;
777.3000;0.2092;7.0793;
777.6000;0.2157;7.0935;
777.9000;0.2157;7.0958;
778.2000;0.2214;7.1147;
778.5000;0.2125;7.0958;
778.8000;0.2173;7.0982;
779.1000;0.2157;7.0887;
779.4000;0.2173;7.1006;
779.7000;0.2149;7.1029;
780.0000;0.2141;7.1006;
780.3000;0.2141;7.1053;
780.6000;0.2149;7.1076;
780.9000;0.2141;7.0935;
781.2000;0.2141;7.0935;
781.5000;0.2141;7.1029;
781.8000;0.2141;7.1124;
782.1000;0.2125;7.1006;
782.4000;0.2116;7.0935;
782.7000;0.2149;7.0935;
783.0000;0.2149;7.0958;
783.3000;0.2133;7.0958;
783.6000;0.2133;7.0982;
783.9000;0.2149;7.1029;
784.2000;0.2125;7.1006;
784.5000;0.2125;7.1029;
784.8000;0.2133;7.0982;
785.1000;0.2125;7.1029;
785.4000;0.2165;7.1076;
785.7000;0.2141;7.0958;
786.0000;0.2125;7.1053;
786.3000;0.2133;7.1100;
786.6000;0.2141;7.1076;
786.9000;0.2100;7.1053;
787.2000;0.2125;7.1053;
787.5000;0.2141;7.1100;
787.8000;0.2165;7.1195;
788.1000;0.2149;7.1171;
788.4000;0.2157;7.1124;
788.7000;0.2141;7.1076;
789.0000;0.2165;7.1076;
789.3000;0.2141;7.1171;
789.6000;0.2116;7.1100;
789.9000;0.2133;7.1029;
790.2000;0.2125;7.1100;
790.5000;0.2182;7.1336;
790.8000;0.2125;7.1242;
791.1000;0.2141;7.1266;
791.4000;0.2149;7.1266;
791.7000;0.2133;7.1242;
792.0000;0.2116;7.1195;
792.3000;0.2133;7.1266;
792.6000;0.2092;7.1147;
792.9000;0.2149;7.1242;
793.2000;0.2084;7.1053;
793.5000;0.2149;7.1266;
793.8000;0.2141;7.1313;
794.1000;0.2165;7.1336;
794.4000;0.2141;7.1313;
794.7000;0.2141;7.1289;
795.0000;0.2149;7.1313;
795.3000;0.2125;7.1242;
795.6000;0.2125;7.1195;
795.9000;0.2116;7.1171;
796.2000;0.2108;7.1100;
796.5000;0.2116;7.1218;
796.8000;0.2133;7.1384;
797.1000;0.2149;7.1360;
797.4000;0.2125;7.1313;
797.7000;0.2116;7.1242;
798.0000;0.2125;7.1336;
798.3000;0.2125;7.1313;
798.6000;0.2133;7.1336;
798.9000;0.2133;7.1242;
799.2000;0.2100;7.1100;
799.5000;0.2133;7.1242;
799.8000;0.2125;7.1171;
800.1000;0.2076;7.1124;
800.4000;0.2100;7.1195;
800.7000;0.2125;7.1289;
801.0000;0.2092;7.1076;
801.3000;0.2084;7.1124;
801.6000;0.2125;7.1266;
801.9000;0.2133;7.1242;
802.2000;0.2125;7.1242;
802.5000;0.2133;7.1100;
802.8000;0.2116;7.1006;
803.1000;0.2133;7.1076;
803.4000;0.2141;7.1124;
803.7000;0.2125;7.1147;
804.0000;0.2157;7.1218;
804.3000;0.2125;7.1171;
804.6000;0.2125;7.1124;
804.9000;0.2108;7.1029;
805.2000;0.2125;7.1053;
805.5000;0.2157;7.1195;
805.8000;0.2100;7.1029;
806.1000;0.2100;7.1076;
806.4000;0.2133;7.1100;
806.7000;0.2100;7.0958;
807.0000;0.2108;7.0887;
807.3000;0.2100;7.0816;
807.6000;0.2141;7.0864;
807.9000;0.2125;7.0793;
808.2000;0.2133;7.0911;
808.5000;0.2125;7.0816;
808.8000;0.2116;7.0769;
809.1000;0.2092;7.0816;
809.4000;0.2108;7.0887;
809.7000;0.2116;7.0958;
810.0000;0.2125;7.1006;
810.3000;0.2092;7.1029;
810.6000;0.2116;7.1147;
810.9000;0.2125;7.1006;
811.2000;0.2182;7.1124;
811.5000;0.2108;7.0935;
811.8000;0.2116;7.1029;
812.1000;0.2125;7.1171;
812.4000;0.2182;7.1384;
812.7000;0.2116;7.1289;
813.0000;0.2133;7.1336;
813.3000;0.2149;7.1360;
813.6000;0.2173;7.1526;
813.9000;0.2116;7.1384;
814.2000;0.2133;7.1384;
814.5000;0.2116;7.1218;
814.8000;0.2165;7.1336;
815.1000;0.2092;7.1242;
815.4000;0.2133;7.1313;
815.7000;0.2108;7.1242;
816.0000;0.2092;7.1266;
816.3000;0.2100;7.1218;
816.6000;0.2157;7.1360;
816.9000;0.2116;7.1266;
817.2000;0.2108;7.1266;
817.5000;0.2125;7.1289;
817.8000;0.2100;7.1336;
818.1000;0.2100;7.1455;
818.4000;0.2141;7.1549;
818.7000;0.2100;7.1455;
819.0000;0.2108;7.1360;
819.3000;0.2092;7.1218;
819.6000;0.2059;7.1124;
819.9000;0.2116;7.1313;
820.2000;0.2059;7.1218;
820.5000;0.2108;7.1360;
820.8000;0.2116;7.1289;
821.1000;0.2125;7.1289;
821.4000;0.2206;7.1502;
821.7000;0.2100;7.1218;
822.0000;0.2125;7.1171;
822.3000;0.2141;7.1242;
822.6000;0.2125;7.1218;
822.9000;0.2133;7.1242;
823.2000;0.2206;7.1478;
823.5000;0.2108;7.1242;
823.8000;0.2116;7.1266;
824.1000;0.2100;7.1313;
824.4000;0.2108;7.1384;
824.7000;0.2125;7.1360;
825.0000;0.2076;7.1242;
825.3000;0.2116;7.1384;
825.6000;0.2092;7.1289;
825.9000;0.2084;7.1266;
826.2000;0.2116;7.1336;
826.5000;0.2092;7.1384;
826.8000;0.2100;7.1313;
827.1000;0.2125;7.1407;
827.4000;0.2149;7.1478;
827.7000;0.2108;7.1360;
828.0000;0.2108;7.1384;
828.3000;0.2100;7.1407;
828.6000;0.2133;7.1502;
828.9000;0.2116;7.1526;
829.2000;0.2100;7.1502;
829.5000;0.2116;7.1478;
829.8000;0.2116;7.1455;
830.1000;0.2108;7.1313;
830.4000;0.2100;7.1195;
830.7000;0.2092;7.1124;
831.0000;0.2100;7.1100;
831.3000;0.2068;7.1147;
831.6000;0.2125;7.1289;
831.9000;0.2100;7.1171;
832.2000;0.2084;7.1218;
832.5000;0.2125;7.1360;
832.8000;0.2108;7.1266;
833.1000;0.2100;7.1242;
833.4000;0.2084;7.1171;
833.7000;0.2100;7.1313;
834.0000;0.2141;7.1360;
834.3000;0.2092;7.1195;
834.6000;0.2133;7.1266;
834.9000;0.2076;7.1171;
835.2000;0.2100;7.1242;
835.5000;0.2173;7.1455;
835.8000;0.2084;7.1242;
836.1000;0.2100;7.1266;
836.4000;0.2076;7.1266;
836.7000;0.2190;7.1455;
837.0000;0.2108;7.1242;
837.3000;0.2100;7.1289;
837.6000;0.1994;7.0982;
837.9000;0.2100;7.1242;
838.2000;0.2116;7.1336;
838.5000;0.2108;7.1336;
838.8000;0.2116;7.1384;
839.1000;0.2125;7.1313;
839.4000;0.2068;7.1218;
839.7000;0.2076;7.1266;
840.0000;0.2100;7.1336;
840.3000;0.2092;7.1360;
840.6000;0.2100;7.1336;
840.9000;0.2100;7.1336;
841.2000;0.2092;7.1313;
841.5000;0.2092;7.1289;
841.8000;0.2076;7.1266;
842.1000;0.2190;7.1549;
842.4000;0.2100;7.1407;
842.7000;0.2108;7.1360;
843.0000;0.2108;7.1266;
843.3000;0.2092;7.1266;
843.6000;0.2027;7.1029;
843.9000;0.2092;7.1124;
844.2000;0.2116;7.1171;
844.5000;0.2100;7.1147;
844.8000;0.2100;7.1147;
845.1000;0.2116;7.1171;
845.4000;0.2116;7.1195;
845.7000;0.2108;7.1076;
846.0000;0.2092;7.1006;
846.3000;0.2125;7.1053;
846.6000;0.2108;7.1076;
846.9000;0.2116;7.1195;
847.2000;0.2092;7.1147;
847.5000;0.2076;7.1029;
847.8000;0.2100;7.1100;
848.1000;0.2108;7.1171;
848.4000;0.2092;7.1100;
848.7000;0.2092;7.1124;
849.0000;0.2190;7.1431;
849.3000;0.1978;7.0982;
849.6000;0.2116;7.1195;
849.9000;0.2116;7.1242;
850.2000;0.2108;7.1242;
850.5000;0.2116;7.1313;
850.8000;0.2092;7.1242;
851.1000;0.2092;7.1266;
851.4000;0.2084;7.1242;
851.7000;0.2108;7.1218;
852.0000;0.2092;7.1171;
852.3000;0.2084;7.1195;
852.6000;0.2068;7.1124;
852.9000;0.2092;7.1242;
853.2000;0.2100;7.1313;
853.5000;0.2084;7.1289;
853.8000;0.2100;7.1407;
854.1000;0.2059;7.1313;
854.4000;0.2068;7.1289;
854.7000;0.2076;7.1289;
855.0000;0.2051;7.1147;
855.3000;0.2068;7.1171;
855.6000;0.2157;7.1313;
855.9000;0.2076;7.1147;
856.2000;0.2108;7.1124;
856.5000;0.2084;7.1124;
856.8000;0.2092;7.1100;
857.1000;0.2092;7.1147;
857.4000;0.2108;7.1242;
857.7000;0.2100;7.1195;
858.0000;0.2092;7.1195;
858.3000;0.2116;7.1313;
858.6000;0.2100;7.1289;
858.9000;0.2084;7.1266;
859.2000;0.2084;7.1336;
859.5000;0.2100;7.1313;
859.8000;0.2059;7.1289;
860.1000;0.2108;7.1384;
860.4000;0.2084;7.1336;
860.7000;0.2133;7.1431;
861.0000;0.2116;7.1455;
861.3000;0.2092;7.1384;
861.6000;0.2100;7.1360;
861.9000;0.2092;7.1360;
862.2000;0.2084;7.1384;
862.5000;0.2011;7.1195;
862.8000;0.2076;7.1336;
863.1000;0.2133;7.1384;
863.4000;0.2084;7.1313;
863.7000;0.2092;7.1384;
864.0000;0.2092;7.1407;
864.3000;0.2100;7.1360;
864.6000;0.2059;7.1195;
864.9000;0.2084;7.1360;
865.2000;0.2068;7.1384;
865.5000;0.2076;7.1407;
865.8000;0.2084;7.1431;
866.1000;0.2084;7.1360;
866.4000;0.2059;7.1360;
866.7000;0.2076;7.1336;
867.0000;0.2076;7.1313;
867.3000;0.2076;7.1478;
867.6000;0.2092;7.1596;
867.9000;0.2100;7.1596;
868.2000;0.2108;7.1691;
868.5000;0.2092;7.1715;
868.8000;0.2100;7.1691;
869.1000;0.2084;7.1620;
869.4000;0.2100;7.1549;
869.7000;0.2100;7.1455;
870.0000;0.2092;7.1455;
870.3000;0.2092;7.1313;
870.6000;0.2100;7.1313;
870.9000;0.2084;7.1336;
871.2000;0.2108;7.1384;
871.5000;0.2092;7.1313;
871.8000;0.2092;7.1336;
872.1000;0.2092;7.1478;
872.4000;0.2051;7.1360;
872.7000;0.2084;7.1431;
873.0000;0.2092;7.1289;
873.3000;0.2125;7.1455;
873.6000;0.2116;7.1455;
873.9000;0.2092;7.1431;
874.2000;0.2059;7.1384;
874.5000;0.2059;7.1336;
874.8000;0.2092;7.1360;
875.1000;0.2084;7.1384;
875.4000;0.2092;7.1455;
875.7000;0.2108;7.1478;
876.0000;0.2092;7.1384;
876.3000;0.2076;7.1384;
876.6000;0.2100;7.1455;
876.9000;0.2059;7.1360;
877.2000;0.2100;7.1407;
877.5000;0.2084;7.1313;
877.8000;0.2092;7.1336;
878.1000;0.2108;7.1313;
878.4000;0.2182;7.1455;
878.7000;0.2084;7.1289;
879.0000;0.2059;7.1242;
879.3000;0.2092;7.1242;
879.6000;0.2068;7.1171;
879.9000;0.2076;7.1242;
880.2000;0.2068;7.1218;
880.5000;0.2068;7.1313;
880.8000;0.2092;7.1313;
881.1000;0.2051;7.1124;
881.4000;0.2084;7.1124;
881.7000;0.2092;7.1124;
882.0000;0.2068;7.1147;
882.3000;0.2108;7.1242;
882.6000;0.2076;7.1147;
882.9000;0.2068;7.1147;
883.2000;0.2084;7.1171;
883.5000;0.2108;7.1195;
883.8000;0.2100;7.1147;
884.1000;0.2100;7.1218;
884.4000;0.2084;7.1266;
884.7000;0.2092;7.1266;
885.0000;0.2100;7.1266;
885.3000;0.2076;7.1289;
885.6000;0.2027;7.1195;
885.9000;0.2084;7.1407;
886.2000;0.2084;7.1384;
886.5000;0.2059;7.1313;
886.8000;0.2149;7.1502;
887.1000;0.2206;7.1644;
887.4000;0.2068;7.1266;
887.7000;0.2076;7.1266;
888.0000;0.2059;7.1195;
888.3000;0.2068;7.1218;
888.6000;0.2100;7.1242;
888.9000;0.2068;7.1242;
889.2000;0.2084;7.1313;
889.5000;0.2076;7.1242;
889.8000;0.2076;7.1266;
890.1000;0.2084;7.1336;
890.4000;0.2059;7.1289;
890.7000;0.2092;7.1336;
891.0000;0.2076;7.1431;
891.3000;0.2076;7.1526;
891.6000;0.2182;7.1856;
891.9000;0.2084;7.1573;
892.2000;0.2084;7.1620;
892.5000;0.2068;7.1573;
892.8000;0.2068;7.1573;
893.1000;0.2084;7.1526;
893.4000;0.2092;7.1455;
893.7000;0.2051;7.1478;
894.0000;0.1994;7.1313;
894.3000;0.2002;7.1502;
894.6000;0.2092;7.1715;
894.9000;0.2092;7.1667;
895.2000;0.2125;7.1715;
895.5000;0.2100;7.1644;
895.8000;0.2092;7.1478;
896.1000;0.2076;7.1431;
896.4000;0.2059;7.1407;
896.7000;0.2076;7.1360;
897.0000;0.2059;7.1266;
897.3000;0.2076;7.1242;
897.6000;0.2035;7.1171;
897.9000;0.2068;7.1218;
898.2000;0.2068;7.1289;
898.5000;0.2116;7.1407;
898.8000;0.2084;7.1336;
899.1000;0.2068;7.1289;
899.4000;0.2076;7.1407;
899.7000;0.2108;7.1360;
900.0000;0.2092;7.1384;
900.3000;0.2068;7.1336;
900.6000;0.2133;7.1478;
900.9000;0.2068;7.1313;
901.2000;0.2084;7.1336;
901.5000;0.2011;7.1171;
901.8000;0.2092;7.1360;
902.1000;0.2068;7.1313;
902.4000;0.2092;7.1336;
902.7000;0.2059;7.1242;
903.0000;0.2068;7.1313;
903.3000;0.2084;7.1313;
903.6000;0.2019;7.1171;
903.9000;0.2051;7.1289;
904.2000;0.2116;7.1478;
904.5000;0.2076;7.1384;
904.8000;0.2084;7.1336;
905.1000;0.2141;7.1360;
905.4000;0.2092;7.1218;
905.7000;0.2068;7.1242;
906.0000;0.2068;7.1218;
906.3000;0.2084;7.1147;
906.6000;0.2019;7.0911;
906.9000;0.2076;7.1124;
907.2000;0.2084;7.1218;
907.5000;0.2084;7.1218;
907.8000;0.2076;7.1289;
908.1000;0.2019;7.1171;
908.4000;0.2051;7.1242;
908.7000;0.2092;7.1360;
909.0000;0.2068;7.1289;
909.3000;0.2051;7.1242;
909.6000;0.2068;7.1313;
909.9000;0.2019;7.1076;
910.2000;0.2165;7.1407;
910.5000;0.2190;7.1455;
910.8000;0.2051;7.1147;
911.1000;0.2068;7.1218;
911.4000;0.2002;7.1124;
911.7000;0.2076;7.1313;
912.0000;0.2059;7.1242;
912.3000;0.2059;7.1360;
912.6000;0.2059;7.1384;
912.9000;0.2002;7.1266;
913.2000;0.2043;7.1336;
913.5000;0.2051;7.1360;
913.8000;0.2076;7.1431;
914.1000;0.2092;7.1478;
914.4000;0.2019;7.1289;
914.7000;0.2068;7.1336;
915.0000;0.2068;7.1360;
915.3000;0.2100;7.1431;
915.6000;0.2059;7.1313;
915.9000;0.2100;7.1526;
916.2000;0.2019;7.1218;
916.5000;0.2084;7.1336;
916.8000;0.2076;7.1218;
917.1000;0.2051;7.1124;
917.4000;0.2059;7.1124;
917.7000;0.2076;7.1336;
918.0000;0.2068;7.1218;
918.3000;0.2084;7.1242;
918.6000;0.2076;7.1242;
918.9000;0.2076;7.1360;
919.2000;0.2116;7.1478;
919.5000;0.2076;7.1360;
919.8000;0.2092;7.1431;
920.1000;0.2076;7.1384;
920.4000;0.2092;7.1478;
920.7000;0.2108;7.1478;
921.0000;0.2068;7.1384;
921.3000;0.2084;7.1502;
921.6000;0.2173;7.1715;
921.9000;0.2059;7.1384;
922.2000;0.2084;7.1502;
922.5000;0.2002;7.1289;
922.8000;0.2068;7.1455;
923.1000;0.2076;7.1526;
923.4000;0.2068;7.1502;
923.7000;0.2051;7.1573;
924.0000;0.2068;7.1620;
924.3000;0.2084;7.1667;
924.6000;0.2084;7.1738;
924.9000;0.2035;7.1691;
925.2000;0.2059;7.1833;
925.5000;0.2011;7.1620;
925.8000;0.2076;7.1762;
926.1000;0.2084;7.1809;
926.4000;0.2043;7.1667;
926.7000;0.2051;7.1620;
927.0000;0.2068;7.1620;
927.3000;0.2068;7.1667;
927.6000;0.2068;7.1667;
927.9000;0.2125;7.1786;
928.2000;0.2059;7.1644;
928.5000;0.2051;7.1596;
928.8000;0.2084;7.1620;
929.1000;0.2068;7.1526;
929.4000;0.2076;7.1502;
929.7000;0.2084;7.1549;
930.0000;0.2068;7.1573;
930.3000;0.2076;7.1596;
930.6000;0.2035;7.1549;
930.9000;0.2059;7.1596;
931.2000;0.2068;7.1596;
931.5000;0.2092;7.1715;
931.8000;0.2051;7.1526;
932.1000;0.2084;7.1667;
932.4000;0.2116;7.1762;
932.7000;0.2027;7.1596;
933.0000;0.2076;7.1738;
933.3000;0.2076;7.1691;
933.6000;0.2043;7.1596;
933.9000;0.2092;7.1738;
934.2000;0.2068;7.1667;
934.5000;0.2068;7.1691;
934.8000;0.2068;7.1644;
935.1000;0.2100;7.1762;
935.4000;0.2059;7.1738;
935.7000;0.2076;7.1738;
936.0000;0.2027;7.1620;
936.3000;0.2043;7.1573;
936.6000;0.2068;7.1573;
936.9000;0.2076;7.1573;
937.2000;0.2076;7.1502;
937.5000;0.2076;7.1526;
937.8000;0.2051;7.1526;
938.1000;0.2059;7.1573;
938.4000;0.2068;7.1549;
938.7000;0.2076;7.1431;
939.0000;0.2068;7.1431;
939.3000;0.2059;7.1360;
939.6000;0.2068;7.1431;
939.9000;0.2068;7.1502;
940.2000;0.2076;7.1526;
940.5000;0.2076;7.1455;
940.8000;0.2059;7.1384;
941.1000;0.2068;7.1407;
941.4000;0.2068;7.1336;
941.7000;0.2027;7.1313;
942.0000;0.2141;7.1596;
942.3000;0.2051;7.1455;
942.6000;0.2059;7.1478;
942.9000;0.2068;7.1526;
943.2000;0.2068;7.1596;
943.5000;0.2051;7.1526;
943.8000;0.2068;7.1549;
944.1000;0.2084;7.1596;
944.4000;0.2068;7.1596;
944.7000;0.2059;7.1549;
945.0000;0.2068;7.1644;
945.3000;0.2019;7.1596;
945.6000;0.2043;7.1596;
945.9000;0.2059;7.1691;
946.2000;0.2043;7.1715;
946.5000;0.2051;7.1809;
946.8000;0.2059;7.1715;
947.1000;0.2035;7.1596;
947.4000;0.2051;7.1549;
947.7000;0.2059;7.1573;
948.0000;0.2068;7.1620;
948.3000;0.2035;7.1620;
948.6000;0.2084;7.1715;
948.9000;0.2068;7.1644;
949.2000;0.2059;7.1549;
949.5000;0.2084;7.1526;
949.8000;0.2051;7.1502;
950.1000;0.2068;7.1526;
950.4000;0.2043;7.1502;
950.7000;0.2035;7.1502;
951.0000;0.2051;7.1502;
951.3000;0.2059;7.1502;
951.6000;0.2059;7.1573;
951.9000;0.2076;7.1502;
952.2000;0.2084;7.1549;
952.5000;0.2059;7.1549;
952.8000;0.2084;7.1596;
953.1000;0.2051;7.1596;
953.4000;0.2076;7.1620;
953.7000;0.2068;7.1596;
954.0000;0.2084;7.1667;
954.3000;0.2068;7.1620;
954.6000;0.2141;7.1715;
954.9000;0.2076;7.1526;
955.2000;0.2059;7.1526;
955.5000;0.2076;7.1573;
955.8000;0.2108;7.1691;
956.1000;0.2059;7.1715;
956.4000;0.2011;7.1715;
956.7000;0.2059;7.1927;
957.0000;0.2068;7.1998;
957.3000;0.2059;7.1975;
957.6000;0.2068;7.1880;
957.9000;0.2043;7.1786;
958.2000;0.2043;7.1786;
958.5000;0.2076;7.1833;
958.8000;0.2076;7.1762;
959.1000;0.2043;7.1715;
959.4000;0.2084;7.1856;
959.7000;0.2068;7.1738;
960.0000;0.2059;7.1667;
960.3000;0.2068;7.1667;
960.6000;0.2059;7.1691;
960.9000;0.2068;7.1691;
961.2000;0.2059;7.1691;
961.5000;0.2035;7.1644;
961.8000;0.2043;7.1715;
962.1000;0.2100;7.1904;
962.4000;0.2059;7.1856;
962.7000;0.2051;7.1786;
963.0000;0.2043;7.1786;
963.3000;0.2051;7.1809;
963.6000;0.2059;7.1856;
963.9000;0.2068;7.1809;
964.2000;0.2084;7.1786;
964.5000;0.2059;7.1762;
964.8000;0.2068;7.1856;
965.1000;0.2076;7.1833;
965.4000;0.2051;7.1715;
965.7000;0.2051;7.1738;
966.0000;0.2084;7.1833;
966.3000;0.2076;7.1786;
966.6000;0.2059;7.1809;
966.9000;0.2059;7.1856;
967.2000;0.2043;7.1786;
967.5000;0.2059;7.1856;
967.8000;0.2059;7.1856;
968.1000;0.2027;7.1762;
968.4000;0.2019;7.1691;
968.7000;0.2076;7.1667;
969.0000;0.2043;7.1620;
969.3000;0.2002;7.1431;
969.6000;0.2076;7.1596;
969.9000;0.2068;7.1715;
970.2000;0.2165;7.2046;
970.5000;0.1986;7.1526;
970.8000;0.2059;7.1715;
971.1000;0.2084;7.1715;
971.4000;0.2068;7.1620;
971.7000;0.2059;7.1573;
972.0000;0.2043;7.1644;
972.3000;0.2027;7.1644;
972.6000;0.2068;7.1691;
972.9000;0.2059;7.1620;
973.2000;0.2068;7.1620;
973.5000;0.2068;7.1644;
973.8000;0.2051;7.1549;
974.1000;0.2092;7.1715;
974.4000;0.2043;7.1526;
974.7000;0.2068;7.1620;
975.0000;0.2059;7.1691;
975.3000;0.2035;7.1573;
975.6000;0.2043;7.1667;
975.9000;0.2051;7.1667;
976.2000;0.2059;7.1762;
976.5000;0.2059;7.1738;
976.8000;0.2027;7.1738;
977.1000;0.2068;7.1809;
977.4000;0.2051;7.1786;
977.7000;0.2059;7.1809;
978.0000;0.2035;7.1715;
978.3000;0.2043;7.1667;
978.6000;0.2068;7.1786;
978.9000;0.2108;7.1880;
979.2000;0.2100;7.1809;
979.5000;0.2059;7.1644;
979.8000;0.2084;7.1715;
980.1000;0.2043;7.1667;
980.4000;0.2076;7.1786;
980.7000;0.2043;7.1786;
981.0000;0.2035;7.1715;
981.3000;0.2059;7.1809;
981.6000;0.2059;7.1786;
981.9000;0.2035;7.1786;
982.2000;0.2027;7.1715;
982.5000;0.2035;7.1809;
982.8000;0.2027;7.1833;
983.1000;0.2043;7.1880;
983.4000;0.2035;7.1880;
983.7000;0.2076;7.1927;
984.0000;0.2051;7.1927;
984.3000;0.2051;7.1880;
984.6000;0.2076;7.1904;
984.9000;0.2059;7.1856;
985.2000;0.2043;7.1786;
985.5000;0.2059;7.1715;
985.8000;0.2059;7.1691;
986.1000;0.2051;7.1738;
986.4000;0.2068;7.1809;
986.7000;0.2051;7.1738;
987.0000;0.2035;7.1667;
987.3000;0.1978;7.1384;
987.6000;0.2051;7.1620;
987.9000;0.2035;7.1573;
988.2000;0.1954;7.1384;
988.5000;0.2051;7.1549;
988.8000;0.2068;7.1502;
989.1000;0.2027;7.1478;
989.4000;0.2051;7.1620;
989.7000;0.2035;7.1667;
990.0000;0.2051;7.1715;
990.3000;0.2084;7.1762;
990.6000;0.2068;7.1715;
990.9000;0.2043;7.1691;
991.2000;0.2011;7.1596;
991.5000;0.2068;7.1620;
991.8000;0.2059;7.1526;
992.1000;0.2084;7.1620;
992.4000;0.2051;7.1549;
992.7000;0.2011;7.1431;
993.0000;0.2051;7.1644;
993.3000;0.2011;7.1596;
993.6000;0.2043;7.1573;
993.9000;0.2051;7.1573;
994.2000;0.2059;7.1573;
994.5000;0.1986;7.1455;
994.8000;0.2051;7.1691;
995.1000;0.2043;7.1738;
995.4000;0.2035;7.1738;
995.7000;0.2133;7.1951;
996.0000;0.2051;7.1738;
996.3000;0.2043;7.1620;
996.6000;0.2051;7.1667;
996.9000;0.2084;7.1786;
997.2000;0.2002;7.1596;
997.5000;0.2035;7.1549;
997.8000;0.2027;7.1667;
998.1000;0.1978;7.1431;
998.4000;0.2043;7.1691;
998.7000;0.2108;7.1715;
999.0000;0.1986;7.1407;
999.3000;0.2043;7.1573;
999.6000;0.2043;7.1644;
999.9000;0.2011;7.1478;
1000.2000;0.1962;7.1455;
1000.5000;0.2059;7.1691;
1000.8000;0.2027;7.1667;
1001.1000;0.2051;7.1667;
1001.4000;0.2051;7.1738;
1001.7000;0.1994;7.1644;
1002.0000;0.2043;7.1691;
1002.3000;0.2011;7.1502;
1002.6000;0.2059;7.1573;
1002.9000;0.2068;7.1573;
1003.2000;0.2043;7.1526;
1003.5000;0.2043;7.1502;
1003.8000;0.2043;7.1360;
1004.1000;0.2051;7.1407;
1004.4000;0.2035;7.1431;
1004.7000;0.2027;7.1384;
1005.0000;0.2043;7.1407;
1005.3000;0.2051;7.1502;
1005.6000;0.2051;7.1573;
1005.9000;0.2051;7.1620;
1006.2000;0.1970;7.1431;
1006.5000;0.2035;7.1644;
1006.8000;0.2051;7.1715;
1007.1000;0.2108;7.1904;
1007.4000;0.2019;7.1620;
1007.7000;0.2051;7.1856;
1008.0000;0.2035;7.1880;
1008.3000;0.2059;7.1880;
1008.6000;0.2035;7.1809;
1008.9000;0.2035;7.1880;
1009.2000;0.2043;7.1927;
1009.5000;0.2059;7.1927;
1009.8000;0.2027;7.1833;
1010.1000;0.2068;7.1951;
1010.4000;0.2051;7.1951;
1010.7000;0.2068;7.1927;
1011.0000;0.2051;7.1856;
1011.3000;0.2059;7.1833;
1011.6000;0.2059;7.1856;
1011.9000;0.2059;7.1762;
1012.2000;0.2051;7.1715;
1012.5000;0.2051;7.1691;
1012.8000;0.2043;7.1715;
1013.1000;0.2076;7.1786;
1013.4000;0.2051;7.1762;
1013.7000;0.2043;7.1762;
1014.0000;0.2027;7.1738;
1014.3000;0.2051;7.1904;
1014.6000;0.2059;7.1880;
1014.9000;0.2068;7.1927;
1015.2000;0.2043;7.1762;
1015.5000;0.2068;7.1738;
1015.8000;0.2035;7.1620;
1016.1000;0.2035;7.1620;
1016.4000;0.2043;7.1762;
1016.7000;0.2043;7.1856;
1017.0000;0.2002;7.1856;
1017.3000;0.2043;7.1833;
1017.6000;0.2027;7.1856;
1017.9000;0.2043;7.1880;
1018.2000;0.2133;7.2093;
1018.5000;0.2043;7.1809;
1018.8000;0.2035;7.1715;
1019.1000;0.2011;7.1691;
1019.4000;0.2035;7.1809;
1019.7000;0.2116;7.2093;
1020.0000;0.2027;7.1904;
1020.3000;0.2043;7.1880;
1020.6000;0.2043;7.1833;
1020.9000;0.2035;7.1738;
1021.2000;0.2059;7.1738;
1021.5000;0.2019;7.1691;
1021.8000;0.2068;7.1786;
1022.1000;0.1994;7.1620;
1022.4000;0.2027;7.1667;
1022.7000;0.2035;7.1738;
1023.0000;0.2051;7.1715;
1023.3000;0.2059;7.1691;
1023.6000;0.2011;7.1549;
1023.9000;0.2051;7.1691;
1024.2000;0.1986;7.1502;
1024.5000;0.1994;7.1526;
1024.8000;0.2068;7.1738;
1025.1000;0.2019;7.1667;
1025.4000;0.2092;7.1809;
1025.7000;0.2043;7.1715;
1026.0000;0.2108;7.1786;
1026.3000;0.2068;7.1691;
1026.6000;0.2100;7.1809;
1026.9000;0.2043;7.1738;
1027.2000;0.2092;7.1927;
1027.5000;0.2027;7.1833;
1027.8000;0.2125;7.2022;
1028.1000;0.2011;7.1738;
1028.4000;0.2059;7.1809;
1028.7000;0.2043;7.1762;
1029.0000;0.2002;7.1644;
1029.3000;0.2035;7.1715;
1029.6000;0.2043;7.1715;
1029.9000;0.2051;7.1833;
1030.2000;0.2035;7.1738;
1030.5000;0.2043;7.1809;
1030.8000;0.2068;7.1856;
1031.1000;0.2051;7.1904;
1031.4000;0.2100;7.1998;
1031.7000;0.2043;7.1927;
1032.0000;0.2059;7.2022;
1032.3000;0.2084;7.1975;
1032.6000;0.2035;7.1786;
1032.9000;0.2035;7.1809;
1033.2000;0.1994;7.1644;
1033.5000;0.2059;7.1762;
1033.8000;0.2043;7.1738;
1034.1000;0.2051;7.1691;
1034.4000;0.2076;7.1715;
1034.7000;0.2051;7.1715;
1035.0000;0.2084;7.1856;
1035.3000;0.2084;7.1880;
1035.6000;0.2051;7.1809;
1035.9000;0.2059;7.1809;
1036.2000;0.2051;7.1856;
1036.5000;0.2027;7.1880;
1036.8000;0.2011;7.1856;
1037.1000;0.2035;7.1856;
1037.4000;0.2051;7.1809;
1037.7000;0.2043;7.1715;
1038.0000;0.2108;7.1833;
1038.3000;0.2027;7.1620;
1038.6000;0.1986;7.1455;
1038.9000;0.2043;7.1620;
1039.2000;0.2051;7.1620;
1039.5000;0.2043;7.1644;
1039.8000;0.2043;7.1691;
1040.1000;0.2019;7.1667;
1040.4000;0.2027;7.1762;
1040.7000;0.2051;7.1833;
1041.0000;0.2068;7.1856;
1041.3000;0.2027;7.1738;
1041.6000;0.2002;7.1715;
1041.9000;0.2019;7.1715;
1042.2000;0.2051;7.1833;
1042.5000;0.2092;7.1927;
1042.8000;0.2035;7.1691;
1043.1000;0.2027;7.1786;
1043.4000;0.2076;7.1833;
1043.7000;0.2051;7.1809;
1044.0000;0.2076;7.1786;
1044.3000;0.2011;7.1715;
1044.6000;0.2059;7.1809;
1044.9000;0.2043;7.1880;
1045.2000;0.2068;7.1927;
1045.5000;0.2092;7.2022;
1045.8000;0.2084;7.1975;
1046.1000;0.1986;7.1715;
1046.4000;0.2002;7.1786;
1046.7000;0.2076;7.1927;
1047.0000;0.2027;7.1762;
1047.3000;0.2043;7.1880;
1047.6000;0.2043;7.1809;
1047.9000;0.2027;7.1691;
1048.2000;0.1962;7.1502;
1048.5000;0.2076;7.1809;
1048.8000;0.1994;7.1644;
1049.1000;0.1954;7.1549;
1049.4000;0.2019;7.1691;
1049.7000;0.2019;7.1738;
1050.0000;0.2035;7.1786;
1050.3000;0.2051;7.1833;
1050.6000;0.2051;7.1904;
1050.9000;0.2043;7.1833;
1051.2000;0.2051;7.1809;
1051.5000;0.2043;7.1762;
1051.8000;0.2035;7.1762;
1052.1000;0.2019;7.1715;
1052.4000;0.2043;7.1738;
1052.7000;0.2027;7.1667;
1053.0000;0.2027;7.1620;
1053.3000;0.2019;7.1691;
1053.6000;0.2035;7.1738;
1053.9000;0.2027;7.1715;
1054.2000;0.2043;7.1715;
1054.5000;0.2043;7.1667;
1054.8000;0.2035;7.1691;
1055.1000;0.2051;7.1762;
1055.4000;0.2035;7.1738;
1055.7000;0.2019;7.1786;
1056.0000;0.2019;7.1715;
1056.3000;0.2035;7.1691;
1056.6000;0.2043;7.1762;
1056.9000;0.2043;7.1833;
1057.2000;0.2059;7.1975;
1057.5000;0.2068;7.1880;
1057.8000;0.2068;7.1786;
1058.1000;0.2035;7.1738;
1058.4000;0.2035;7.1786;
1058.7000;0.2035;7.1786;
1059.0000;0.2027;7.1833;
1059.3000;0.1978;7.1644;
1059.6000;0.2027;7.1715;
1059.9000;0.2002;7.1573;
1060.2000;0.2068;7.1667;
1060.5000;0.2027;7.1549;
1060.8000;0.2035;7.1502;
1061.1000;0.2035;7.1644;
1061.4000;0.2019;7.1596;
1061.7000;0.2027;7.1573;
1062.0000;0.1986;7.1407;
1062.3000;0.2043;7.1596;
1062.6000;0.2043;7.1573;
1062.9000;0.2027;7.1502;
1063.2000;0.2019;7.1455;
1063.5000;0.2059;7.1526;
1063.8000;0.2043;7.1502;
1064.1000;0.2019;7.1455;
1064.4000;0.2035;7.1502;
1064.7000;0.1921;7.1218;
1065.0000;0.1978;7.1407;
1065.3000;0.1986;7.1431;
1065.6000;0.2011;7.1455;
1065.9000;0.2019;7.1526;
1066.2000;0.2035;7.1573;
1066.5000;0.2027;7.1573;
1066.8000;0.2002;7.1573;
1067.1000;0.2051;7.1644;
1067.4000;0.1994;7.1526;
1067.7000;0.2035;7.1644;
1068.0000;0.2059;7.1715;
1068.3000;0.2043;7.1691;
1068.6000;0.2043;7.1691;
1068.9000;0.2027;7.1667;
1069.2000;0.2043;7.1526;
1069.5000;0.2035;7.1455;
1069.8000;0.2043;7.1478;
1070.1000;0.2019;7.1407;
1070.4000;0.2027;7.1549;
1070.7000;0.2035;7.1596;
1071.0000;0.2027;7.1573;
1071.3000;0.2043;7.1644;
1071.6000;0.2043;7.1573;
1071.9000;0.2019;7.1478;
1072.2000;0.2043;7.1620;
1072.5000;0.2019;7.1644;
1072.8000;0.2011;7.1573;
1073.1000;0.2027;7.1573;
1073.4000;0.2011;7.1691;
1073.7000;0.1962;7.1667;
1074.0000;0.2019;7.1715;
1074.3000;0.2027;7.1691;
1074.6000;0.2019;7.1738;
1074.9000;0.2027;7.1715;
1075.2000;0.2043;7.1715;
1075.5000;0.2043;7.1715;
1075.8000;0.2043;7.1786;
1076.1000;0.2043;7.1762;
1076.4000;0.2051;7.1786;
1076.7000;0.2059;7.1809;
1077.0000;0.2051;7.1880;
1077.3000;0.2035;7.1809;
1077.6000;0.2043;7.1856;
1077.9000;0.2035;7.1904;
1078.2000;0.2100;7.1998;
1078.5000;0.2035;7.1762;
1078.8000;0.2019;7.1856;
1079.1000;0.2051;7.1951;
1079.4000;0.2043;7.1833;
1079.7000;0.2051;7.1856;
1080.0000;0.2051;7.1880;
1080.3000;0.2051;7.1833;
1080.6000;0.2035;7.1762;
1080.9000;0.2043;7.1667;
1081.2000;0.2043;7.1691;
1081.5000;0.2027;7.1667;
1081.8000;0.2027;7.1596;
1082.1000;0.2043;7.1596;
1082.4000;0.2035;7.1526;
1082.7000;0.2035;7.1526;
1083.0000;0.2092;7.1667;
1083.3000;0.2027;7.1526;
1083.6000;0.2035;7.1526;
1083.9000;0.2051;7.1573;
1084.2000;0.2043;7.1573;
1084.5000;0.2051;7.1620;
1084.8000;0.2011;7.1526;
1085.1000;0.2027;7.1526;
1085.4000;0.2051;7.1478;
1085.7000;0.2027;7.1407;
1086.0000;0.2027;7.1431;
1086.3000;0.1986;7.1360;
1086.6000;0.2051;7.1502;
1086.9000;0.2027;7.1384;
1087.2000;0.2019;7.1384;
1087.5000;0.2059;7.1502;
1087.8000;0.2027;7.1526;
1088.1000;0.2027;7.1596;
1088.4000;0.2027;7.1620;
1088.7000;0.1994;7.1573;
1089.0000;0.2027;7.1738;
1089.3000;0.2019;7.1715;
1089.6000;0.2035;7.1715;
1089.9000;0.2019;7.1738;
1090.2000;0.2043;7.1762;
1090.5000;0.2002;7.1691;
1090.8000;0.2043;7.1786;
1091.1000;0.2100;7.1927;
1091.4000;0.1929;7.1502;
1091.7000;0.2108;7.1904;
1092.0000;0.2043;7.1691;
1092.3000;0.2027;7.1667;
1092.6000;0.2027;7.1573;
1092.9000;0.2027;7.1549;
1093.2000;0.2027;7.1620;
1093.5000;0.2027;7.1620;
1093.8000;0.2043;7.1667;
1094.1000;0.2043;7.1715;
1094.4000;0.2019;7.1715;
1094.7000;0.2027;7.1809;
1095.0000;0.2043;7.1880;
1095.3000;0.2027;7.1904;
1095.6000;0.2027;7.1833;
1095.9000;0.2019;7.1738;
1096.2000;0.2059;7.1738;
1096.5000;0.2011;7.1691;
1096.8000;0.2108;7.1927;
1097.1000;0.1994;7.1620;
1097.4000;0.2035;7.1738;
1097.7000;0.2043;7.1738;
1098.0000;0.2019;7.1738;
1098.3000;0.2035;7.1738;
1098.6000;0.2043;7.1809;
1098.9000;0.2027;7.1786;
1099.2000;0.2011;7.1762;
1099.5000;0.2035;7.1833;
1099.8000;0.2019;7.1880;
1100.1000;0.2019;7.1904;
1100.4000;0.2011;7.1880;
1100.7000;0.2043;7.1833;
1101.0000;0.2035;7.1833;
1101.3000;0.1994;7.1620;
1101.6000;0.2043;7.1667;
1101.9000;0.2019;7.1644;
1102.2000;0.2043;7.1738;
1102.5000;0.2076;7.1833;
1102.8000;0.2027;7.1786;
1103.1000;0.2035;7.1762;
1103.4000;0.2035;7.1809;
1103.7000;0.2035;7.1951;
1104.0000;0.2027;7.1856;
1104.3000;0.2035;7.1904;
1104.6000;0.2035;7.1951;
1104.9000;0.2027;7.1951;
1105.2000;0.2019;7.1951;
1105.5000;0.2027;7.1951;
1105.8000;0.1970;7.1762;
1106.1000;0.2035;7.1856;
1106.4000;0.2043;7.1880;
1106.7000;0.2027;7.1809;
1107.0000;0.2043;7.1786;
1107.3000;0.2043;7.1856;
1107.6000;0.2076;7.1998;
1107.9000;0.2027;7.1927;
1108.2000;0.2019;7.1880;
1108.5000;0.2027;7.1856;
1108.8000;0.2051;7.2022;
1109.1000;0.2035;7.1904;
1109.4000;0.2043;7.1951;
1109.7000;0.2084;7.1998;
1110.0000;0.2043;7.1833;
1110.3000;0.2019;7.1856;
1110.6000;0.2027;7.1927;
1110.9000;0.2027;7.1904;
1111.2000;0.2051;7.1998;
1111.5000;0.2059;7.1951;
1111.8000;0.2043;7.1904;
1112.1000;0.2035;7.1904;
1112.4000;0.2027;7.1904;
1112.7000;0.2019;7.1904;
1113.0000;0.2027;7.1833;
1113.3000;0.2002;7.1738;
1113.6000;0.2027;7.1856;
1113.9000;0.2019;7.1786;
1114.2000;0.2035;7.1833;
1114.5000;0.2035;7.1715;
1114.8000;0.2027;7.1644;
1115.1000;0.1962;7.1573;
1115.4000;0.2043;7.1667;
1115.7000;0.2027;7.1667;
1116.0000;0.2076;7.1856;
1116.3000;0.2019;7.1786;
1116.6000;0.1986;7.1715;
1116.9000;0.2011;7.1715;
1117.2000;0.2027;7.1762;
1117.5000;0.2027;7.1762;
1117.8000;0.1986;7.1644;
1118.1000;0.2019;7.1809;
1118.4000;0.2019;7.1856;
1118.7000;0.2002;7.1880;
1119.0000;0.2035;7.1880;
1119.3000;0.2043;7.1691;
1119.6000;0.1970;7.1478;
1119.9000;0.2019;7.1526;
1120.2000;0.2035;7.1620;
1120.5000;0.2019;7.1620;
1120.8000;0.2019;7.1620;
1121.1000;0.2027;7.1691;
1121.4000;0.2059;7.1691;
1121.7000;0.2027;7.1573;
1122.0000;0.2027;7.1526;
1122.3000;0.2051;7.1596;
1122.6000;0.2027;7.1596;
1122.9000;0.2027;7.1644;
1123.2000;0.2059;7.1762;
1123.5000;0.2027;7.1715;
1123.8000;0.2043;7.1927;
1124.1000;0.2027;7.1927;
1124.4000;0.2027;7.1833;
1124.7000;0.2011;7.1738;
1125.0000;0.2035;7.1904;
1125.3000;0.2076;7.1998;
1125.6000;0.2035;7.1856;
1125.9000;0.2051;7.1880;
1126.2000;0.2002;7.1738;
1126.5000;0.2043;7.1833;
1126.8000;0.2035;7.1809;
1127.1000;0.2027;7.1786;
1127.4000;0.2043;7.1809;
1127.7000;0.2027;7.1667;
1128.0000;0.2059;7.1762;
1128.3000;0.2027;7.1833;
1128.6000;0.2043;7.1856;
1128.9000;0.2035;7.1762;
1129.2000;0.2027;7.1786;
1129.5000;0.2019;7.1738;
1129.8000;0.2059;7.1809;
1130.1000;0.2059;7.1904;
1130.4000;0.2051;7.1975;
1130.7000;0.2035;7.1927;
1131.0000;0.2019;7.1833;
1131.3000;0.2043;7.1951;
1131.6000;0.2059;7.1927;
1131.9000;0.2035;7.1809;
1132.2000;0.2043;7.1833;
1132.5000;0.2051;7.1856;
1132.8000;0.2027;7.1691;
1133.1000;0.2027;7.1762;
1133.4000;0.2125;7.2046;
1133.7000;0.1970;7.1644;
1134.0000;0.2051;7.1833;
1134.3000;0.2027;7.1786;
1134.6000;0.2019;7.1809;
1134.9000;0.2019;7.1856;
1135.2000;0.2100;7.1998;
1135.5000;0.2051;7.1786;
1135.8000;0.2019;7.1786;
1136.1000;0.2043;7.1738;
1136.4000;0.2035;7.1620;
1136.7000;0.2068;7.1762;
1137.0000;0.2011;7.1596;
1137.3000;0.2035;7.1691;
1137.6000;0.2035;7.1715;
1137.9000;0.2076;7.1809;
1138.2000;0.2027;7.1644;
1138.5000;0.2002;7.1691;
1138.8000;0.2035;7.1786;
1139.1000;0.1954;7.1549;
1139.4000;0.2059;7.1856;
1139.7000;0.2035;7.1762;
1140.0000;0.2092;7.1951;
1140.3000;0.1986;7.1786;
1140.6000;0.2051;7.1880;
1140.9000;0.2051;7.1833;
1141.2000;0.2019;7.1762;
1141.5000;0.2027;7.1762;
1141.8000;0.2035;7.1809;
1142.1000;0.2019;7.1738;
1142.4000;0.2019;7.1667;
1142.7000;0.2002;7.1644;
1143.0000;0.2043;7.1856;
1143.3000;0.2011;7.1762;
1143.6000;0.2011;7.1809;
1143.9000;0.2019;7.1856;
1144.2000;0.2002;7.1833;
1144.5000;0.2059;7.1927;
1144.8000;0.2027;7.1809;
1145.1000;0.2019;7.1715;
1145.4000;0.2043;7.1715;
1145.7000;0.2035;7.1715;
1146.0000;0.2019;7.1667;
1146.3000;0.2043;7.1738;
1146.6000;0.2019;7.1644;
1146.9000;0.2027;7.1620;
1147.2000;0.2002;7.1596;
1147.5000;0.2035;7.1691;
1147.8000;0.2019;7.1786;
1148.1000;0.2027;7.1880;
1148.4000;0.1986;7.1786;
1148.7000;0.1994;7.1738;
1149.0000;0.2019;7.1691;
1149.3000;0.2051;7.1667;
1149.6000;0.1913;7.1407;
1149.9000;0.2011;7.1715;
1150.2000;0.2019;7.1691;
1150.5000;0.2035;7.1833;
1150.8000;0.2027;7.1951;
1151.1000;0.2011;7.1951;
1151.4000;0.2002;7.1975;
1151.7000;0.2019;7.2022;
1152.0000;0.2011;7.1927;
1152.3000;0.2019;7.1904;
1152.6000;0.2043;7.1904;
1152.9000;0.2011;7.1809;
1153.2000;0.2027;7.1786;
1153.5000;0.2068;7.1904;
1153.8000;0.2035;7.1880;
1154.1000;0.2068;7.1951;
1154.4000;0.2059;7.1904;
1154.7000;0.2027;7.1786;
1155.0000;0.2019;7.1880;
1155.3000;0.2027;7.2022;
1155.6000;0.2019;7.1951;
1155.9000;0.2051;7.1975;
1156.2000;0.2035;7.2046;
1156.5000;0.2011;7.1904;
1156.8000;0.2027;7.1951;
1157.1000;0.2027;7.1927;
1157.4000;0.2019;7.1951;
1157.7000;0.2011;7.1904;
1158.0000;0.2051;7.1975;
1158.3000;0.1978;7.1738;
1158.6000;0.2027;7.1880;
1158.9000;0.2019;7.1904;
1159.2000;0.2027;7.1904;
1159.5000;0.2051;7.1904;
1159.8000;0.2002;7.1809;
1160.1000;0.2051;7.1880;
1160.4000;0.2043;7.1856;
1160.7000;0.2043;7.1856;
1161.0000;0.2084;7.1975;
1161.3000;0.2035;7.1927;
1161.6000;0.2002;7.1951;
1161.9000;0.2043;7.2069;
1162.2000;0.2051;7.2140;
1162.5000;0.2027;7.1998;
1162.8000;0.2002;7.1762;
1163.1000;0.2027;7.1809;
1163.4000;0.2027;7.1856;
1163.7000;0.2027;7.1833;
1164.0000;0.1978;7.1738;
1164.3000;0.2027;7.1809;
1164.6000;0.2092;7.1809;
1164.9000;0.2019;7.1644;
1165.2000;0.2059;7.1809;
1165.5000;0.2043;7.1809;
1165.8000;0.2051;7.1880;
1166.1000;0.2043;7.1809;
1166.4000;0.2027;7.1833;
1166.7000;0.2084;7.1833;
1167.0000;0.2035;7.1715;
1167.3000;0.2027;7.1691;
1167.6000;0.2002;7.1644;
1167.9000;0.2035;7.1715;
1168.2000;0.2043;7.1762;
1168.5000;0.2019;7.1738;
1168.8000;0.2027;7.1809;
1169.1000;0.2100;7.1975;
1169.4000;0.2011;7.1738;
1169.7000;0.2068;7.1856;
1170.0000;0.2011;7.1715;
1170.3000;0.2011;7.1738;
1170.6000;0.2011;7.1715;
1170.9000;0.2035;7.1738;
1171.2000;0.2043;7.1715;
1171.5000;0.1994;7.1526;
1171.8000;0.2035;7.1526;
1172.1000;0.2011;7.1596;
1172.4000;0.2019;7.1644;
1172.7000;0.2011;7.1526;
1173.0000;0.2002;7.1502;
1173.3000;0.2027;7.1526;
1173.6000;0.1986;7.1455;
1173.9000;0.2027;7.1667;
1174.2000;0.2011;7.1644;
1174.5000;0.1986;7.1644;
1174.8000;0.2027;7.1856;
1175.1000;0.2027;7.1786;
1175.4000;0.2133;7.2022;
1175.7000;0.2051;7.1809;
1176.0000;0.2076;7.1998;
1176.3000;0.2027;7.1904;
1176.6000;0.2027;7.1927;
1176.9000;0.2084;7.2022;
1177.2000;0.2027;7.1904;
1177.5000;0.2043;7.1951;
1177.8000;0.2019;7.1856;
1178.1000;0.2011;7.1856;
1178.4000;0.2076;7.1975;
1178.7000;0.2019;7.1809;
1179.0000;0.2059;7.1904;
1179.3000;0.2002;7.1856;
1179.6000;0.1994;7.1927;
1179.9000;0.2059;7.2069;
1180.2000;0.2027;7.2022;
1180.5000;0.2011;7.1856;
1180.8000;0.2027;7.1856;
1181.1000;0.2027;7.1786;
1181.4000;0.2019;7.1856;
1181.7000;0.2043;7.1809;
1182.0000;0.2043;7.1880;
1182.3000;0.2116;7.2093;
1182.6000;0.2011;7.1833;
1182.9000;0.2019;7.1856;
1183.2000;0.2035;7.1880;
1183.5000;0.2027;7.1762;
1183.8000;0.2011;7.1809;
1184.1000;0.2011;7.1880;
1184.4000;0.2002;7.1809;
1184.7000;0.2011;7.1833;
1185.0000;0.2019;7.1904;
1185.3000;0.1986;7.1786;
1185.6000;0.2027;7.1975;
1185.9000;0.2027;7.1904;
1186.2000;0.2051;7.1856;
1186.5000;0.2035;7.1904;
1186.8000;0.2019;7.1904;
1187.1000;0.1994;7.1927;
1187.4000;0.2035;7.1975;
1187.7000;0.2019;7.1856;
1188.0000;0.2035;7.1951;
1188.3000;0.2027;7.1880;
1188.6000;0.2027;7.1856;
1188.9000;0.2019;7.1880;
1189.2000;0.2019;7.1975;
1189.5000;0.2019;7.1951;
1189.8000;0.2002;7.1809;
1190.1000;0.2019;7.1927;
1190.4000;0.2019;7.1975;
1190.7000;0.2002;7.1809;
1191.0000;0.1978;7.1786;
1191.3000;0.2035;7.1998;
1191.6000;0.2011;7.1998;
1191.9000;0.2002;7.1998;
1192.2000;0.2002;7.1927;
1192.5000;0.2011;7.1856;
1192.8000;0.1994;7.1786;
1193.1000;0.2035;7.1904;
1193.4000;0.2027;7.1762;
1193.7000;0.2019;7.1667;
1194.0000;0.2011;7.1715;
1194.3000;0.2084;7.1833;
1194.6000;0.2019;7.1762;
1194.9000;0.2027;7.1786;
1195.2000;0.2043;7.1738;
1195.5000;0.2019;7.1667;
1195.8000;0.2027;7.1715;
1196.1000;0.2027;7.1738;
1196.4000;0.2043;7.1715;
1196.7000;0.2027;7.1738;
1197.0000;0.2043;7.1691;
1197.3000;0.2019;7.1691;
1197.6000;0.2076;7.1762;
1197.9000;0.2043;7.1809;
1198.2000;0.2043;7.1786;
1198.5000;0.2035;7.1738;
1198.8000;0.2116;7.1904;
1199.1000;0.2011;7.1762;
1199.4000;0.2011;7.1762;
1199.7000;0.2002;7.1809;
1200.0000;0.2035;7.1856;
1200.3000;0.2035;7.1975;
1200.6000;0.2027;7.1951;
1200.9000;0.2035;7.1975;
1201.2000;0.2002;7.1833;
1201.5000;0.1986;7.1880;
1201.8000;0.2027;7.2069;
1202.1000;0.2035;7.2093;
1202.4000;0.2035;7.2116;
1202.7000;0.2027;7.2046;
1203.0000;0.2035;7.2022;
1203.3000;0.2011;7.1904;
1203.6000;0.2035;7.1998;
1203.9000;0.2035;7.2046;
1204.2000;0.2011;7.1927;
1204.5000;0.2011;7.1809;
1204.8000;0.2002;7.1738;
1205.1000;0.2019;7.1738;
1205.4000;0.1994;7.1667;
1205.7000;0.2002;7.1715;
1206.0000;0.1994;7.1738;
1206.3000;0.2100;7.1975;
1206.6000;0.2019;7.1762;
1206.9000;0.2019;7.1762;
1207.2000;0.2035;7.1809;
1207.5000;0.2011;7.1786;
1207.8000;0.2027;7.1833;
1208.1000;0.1929;7.1596;
1208.4000;0.2019;7.1809;
1208.7000;0.2027;7.1833;
1209.0000;0.2027;7.1809;
1209.3000;0.2027;7.1762;
1209.6000;0.2019;7.1809;
1209.9000;0.2019;7.1880;
1210.2000;0.2019;7.1951;
1210.5000;0.2035;7.1998;
1210.8000;0.2011;7.1904;
1211.1000;0.2011;7.1880;
1211.4000;0.2002;7.1856;
1211.7000;0.2019;7.1856;
1212.0000;0.2019;7.1809;
1212.3000;0.1937;7.1596;
1212.6000;0.1978;7.1738;
1212.9000;0.2002;7.1738;
1213.2000;0.1897;7.1407;
1213.5000;0.1994;7.1573;
1213.8000;0.2043;7.1715;
1214.1000;0.1994;7.1738;
1214.4000;0.2027;7.1786;
1214.7000;0.2019;7.1715;
1215.0000;0.2027;7.1667;
1215.3000;0.2084;7.1809;
1215.6000;0.2019;7.1691;
1215.9000;0.1994;7.1573;
1216.2000;0.2019;7.1715;
1216.5000;0.2059;7.1856;
1216.8000;0.2011;7.1762;
1217.1000;0.2019;7.1738;
1217.4000;0.2035;7.1762;
1217.7000;0.2035;7.1738;
1218.0000;0.2035;7.1738;
1218.3000;0.2116;7.1856;
1218.6000;0.2011;7.1549;
1218.9000;0.2011;7.1596;
1219.2000;0.2019;7.1762;
1219.5000;0.2068;7.1927;
1219.8000;0.2019;7.1809;
1220.1000;0.2035;7.1927;
1220.4000;0.1986;7.1856;
1220.7000;0.2011;7.1904;
1221.0000;0.2011;7.1786;
1221.3000;0.2011;7.1809;
1221.6000;0.2027;7.1738;
1221.9000;0.2043;7.1667;
1222.2000;0.2051;7.1667;
1222.5000;0.2027;7.1526;
1222.8000;0.2076;7.1620;
1223.1000;0.2076;7.1667;
1223.4000;0.2133;7.1951;
1223.7000;0.2019;7.1667;
1224.0000;0.2035;7.1738;
1224.3000;0.2051;7.1833;
1224.6000;0.2043;7.1856;
1224.9000;0.2027;7.1833;
1225.2000;0.2019;7.1856;
1225.5000;0.2027;7.1786;
1225.8000;0.2043;7.1856;
1226.1000;0.2011;7.1809;
1226.4000;0.2019;7.1691;
1226.7000;0.1954;7.1455;
1227.0000;0.2027;7.1620;
1227.3000;0.2043;7.1644;
1227.6000;0.2027;7.1644;
1227.9000;0.2027;7.1691;
1228.2000;0.2035;7.1691;
1228.5000;0.1994;7.1715;
1228.8000;0.2027;7.1715;
1229.1000;0.2035;7.1738;
1229.4000;0.2027;7.1809;
1229.7000;0.2027;7.1762;
1230.0000;0.2100;7.1975;
1230.3000;0.2011;7.1738;
1230.6000;0.2027;7.1762;
1230.9000;0.1970;7.1573;
1231.2000;0.1921;7.1549;
1231.5000;0.2019;7.1738;
1231.8000;0.2084;7.1975;
1232.1000;0.2035;7.1833;
1232.4000;0.2141;7.1927;
1232.7000;0.2027;7.1691;
1233.0000;0.2019;7.1667;
1233.3000;0.2043;7.1786;
1233.6000;0.2051;7.1833;
1233.9000;0.2019;7.1856;
1234.2000;0.1970;7.1715;
1234.5000;0.2043;7.1951;
1234.8000;0.2043;7.1951;
1235.1000;0.2019;7.1856;
1235.4000;0.2011;7.1880;
1235.7000;0.2035;7.1880;
1236.0000;0.2019;7.1998;
1236.3000;0.2002;7.1951;
1236.6000;0.1986;7.1856;
1236.9000;0.2035;7.1856;
1237.2000;0.2035;7.1856;
1237.5000;0.2019;7.1880;
1237.8000;0.2002;7.1809;
1238.1000;0.2027;7.1856;
1238.4000;0.2027;7.1856;
1238.7000;0.2011;7.1809;
1239.0000;0.2027;7.1786;
1239.3000;0.2100;7.1998;
1239.6000;0.2027;7.1762;
1239.9000;0.2035;7.1786;
1240.2000;0.2043;7.1809;
1240.5000;0.2051;7.1951;
1240.8000;0.2051;7.2046;
1241.1000;0.2011;7.1880;
1241.4000;0.2076;7.1998;
1241.7000;0.2019;7.1833;
1242.0000;0.2027;7.1786;
1242.3000;0.2027;7.1786;
1242.6000;0.2035;7.1786;
1242.9000;0.2035;7.1833;
1243.2000;0.2011;7.1762;
1243.5000;0.2059;7.1904;
1243.8000;0.2027;7.1856;
1244.1000;0.2043;7.1833;
1244.4000;0.2027;7.1809;
1244.7000;0.2035;7.1833;
1245.0000;0.2011;7.1809;
1245.3000;0.2011;7.1809;
1245.6000;0.2011;7.1786;
1245.9000;0.2019;7.1809;
1246.2000;0.2027;7.1762;
1246.5000;0.2019;7.1738;
1246.8000;0.2019;7.1786;
1247.1000;0.2027;7.1762;
1247.4000;0.2035;7.1738;
1247.7000;0.2027;7.1691;
1248.0000;0.2002;7.1620;
1248.3000;0.2002;7.1549;
1248.6000;0.2027;7.1620;
1248.9000;0.2011;7.1549;
1249.2000;0.2019;7.1596;
1249.5000;0.2019;7.1715;
1249.8000;0.2019;7.1738;
1250.1000;0.2011;7.1786;
1250.4000;0.1994;7.1715;
1250.7000;0.1945;7.1667;
1251.0000;0.2011;7.1856;
1251.3000;0.2027;7.1927;
1251.6000;0.2002;7.1809;
1251.9000;0.1994;7.1715;
1252.2000;0.2019;7.1856;
1252.5000;0.2084;7.2022;
1252.8000;0.2035;7.1951;
1253.1000;0.1986;7.1904;
1253.4000;0.2011;7.2022;
1253.7000;0.2035;7.2140;
1254.0000;0.2027;7.2093;
1254.3000;0.2011;7.2046;
1254.6000;0.2051;7.2069;
1254.9000;0.2002;7.1927;
1255.2000;0.2011;7.2069;
1255.5000;0.1986;7.1904;
1255.8000;0.2019;7.1975;
1256.1000;0.1945;7.1691;
1256.4000;0.2011;7.1927;
1256.7000;0.2051;7.2069;
1257.0000;0.2076;7.2116;
1257.3000;0.2027;7.2093;
1257.6000;0.2051;7.2069;
1257.9000;0.2027;7.1975;
1258.2000;0.2027;7.1975;
1258.5000;0.2027;7.2022;
1258.8000;0.1986;7.1880;
1259.1000;0.2011;7.1927;
1259.4000;0.2002;7.1880;
1259.7000;0.1994;7.1833;
1260.0000;0.2019;7.1904;
1260.3000;0.2035;7.1904;
1260.6000;0.2027;7.1927;
1260.9000;0.2035;7.2046;
1261.2000;0.2011;7.2046;
1261.5000;0.2027;7.2046;
1261.8000;0.2027;7.1951;
1262.1000;0.1986;7.1833;
1262.4000;0.2019;7.1809;
1262.7000;0.2019;7.1856;
1263.0000;0.2027;7.1833;
1263.3000;0.2027;7.1833;
1263.6000;0.2027;7.1738;
1263.9000;0.2027;7.1715;
1264.2000;0.2035;7.1786;
1264.5000;0.2043;7.1880;
1264.8000;0.2011;7.1786;
1265.1000;0.2051;7.1809;
1265.4000;0.2002;7.1715;
1265.7000;0.2002;7.1691;
1266.0000;0.2027;7.1738;
1266.3000;0.2011;7.1667;
1266.6000;0.2035;7.1786;
1266.9000;0.2019;7.1738;
1267.2000;0.1986;7.1667;
1267.5000;0.2019;7.1667;
1267.8000;0.2019;7.1762;
1268.1000;0.2043;7.1833;
1268.4000;0.2035;7.1904;
1268.7000;0.2043;7.1998;
1269.0000;0.2019;7.1904;
1269.3000;0.2019;7.1904;
1269.6000;0.2019;7.1880;
1269.9000;0.1970;7.1762;
1270.2000;0.2019;7.1975;
1270.5000;0.2019;7.1927;
1270.8000;0.2027;7.1927;
1271.1000;0.1994;7.1856;
1271.4000;0.2043;7.1951;
1271.7000;0.2011;7.1856;
1272.0000;0.1929;7.1644;
1272.3000;0.1986;7.1738;
1272.6000;0.2133;7.2022;
1272.9000;0.1913;7.1478;
1273.2000;0.2043;7.1691;
1273.5000;0.1913;7.1313;
1273.8000;0.2092;7.1833;
1274.1000;0.2027;7.1809;
1274.4000;0.1986;7.1762;
1274.7000;0.2002;7.1786;
1275.0000;0.2011;7.1809;
1275.3000;0.2084;7.1880;
1275.6000;0.2035;7.1667;
1275.9000;0.2011;7.1573;
1276.2000;0.2011;7.1526;
1276.5000;0.2011;7.1502;
1276.8000;0.2019;7.1573;
1277.1000;0.2027;7.1667;
1277.4000;0.2019;7.1620;
1277.7000;0.2035;7.1738;
1278.0000;0.2027;7.1786;
1278.3000;0.2011;7.1762;
1278.6000;0.2019;7.1809;
1278.9000;0.2019;7.1762;
1279.2000;0.2027;7.1691;
1279.5000;0.2092;7.1856;
1279.8000;0.1970;7.1526;
1280.1000;0.2035;7.1691;
1280.4000;0.2019;7.1644;
1280.7000;0.2051;7.1786;
1281.0000;0.2035;7.1762;
1281.3000;0.2027;7.1691;
1281.6000;0.2043;7.1691;
1281.9000;0.2002;7.1644;
1282.2000;0.1978;7.1667;
1282.5000;0.2027;7.1809;
1282.8000;0.2027;7.1809;
1283.1000;0.2027;7.1880;
1283.4000;0.2002;7.1856;
1283.7000;0.2002;7.1880;
1284.0000;0.1970;7.1927;
1284.3000;0.2011;7.1927;
1284.6000;0.2002;7.1975;
1284.9000;0.2035;7.2069;
1285.2000;0.2027;7.1975;
1285.5000;0.2043;7.1951;
1285.8000;0.2011;7.1927;
1286.1000;0.2011;7.1951;
1286.4000;0.2035;7.1951;
1286.7000;0.2027;7.1975;
1287.0000;0.2011;7.1880;
1287.3000;0.2011;7.1880;
1287.6000;0.2027;7.1904;
1287.9000;0.2002;7.1786;
1288.2000;0.2092;7.1998;
1288.5000;0.2035;7.1856;
1288.8000;0.2011;7.1762;
1289.1000;0.2027;7.1856;
1289.4000;0.2011;7.1786;
1289.7000;0.2011;7.1786;
1290.0000;0.2043;7.1833;
1290.3000;0.2002;7.1809;
1290.6000;0.2108;7.2022;
1290.9000;0.2027;7.1762;
1291.2000;0.2035;7.1762;
1291.5000;0.2027;7.1856;
1291.8000;0.2043;7.1927;
1292.1000;0.2011;7.1833;
1292.4000;0.1986;7.1809;
1292.7000;0.2019;7.2022;
1293.0000;0.2011;7.2046;
1293.3000;0.2019;7.2022;
1293.6000;0.2027;7.2093;
1293.9000;0.2051;7.2164;
1294.2000;0.2011;7.2116;
1294.5000;0.2076;7.2211;
1294.8000;0.1994;7.2022;
1295.1000;0.2027;7.1951;
1295.4000;0.1986;7.1856;
1295.7000;0.2019;7.1904;
1296.0000;0.1970;7.1880;
1296.3000;0.2027;7.2093;
1296.6000;0.1937;7.1715;
1296.9000;0.2035;7.1998;
1297.2000;0.2011;7.1975;
1297.5000;0.1986;7.1856;
1297.8000;0.2019;7.1856;
1298.1000;0.2027;7.1904;
1298.4000;0.1978;7.1738;
1298.7000;0.2092;7.1998;
1299.0000;0.2002;7.1691;
1299.3000;0.2019;7.1738;
1299.6000;0.2019;7.1691;
1299.9000;0.2027;7.1644;
1300.2000;0.2011;7.1667;
1300.5000;0.2019;7.1786;
1300.8000;0.2011;7.1715;
1301.1000;0.2011;7.1762;
1301.4000;0.2027;7.1667;
1301.7000;0.1986;7.1596;
1302.0000;0.2011;7.1620;
1302.3000;0.2019;7.1596;
1302.6000;0.2019;7.1620;
1302.9000;0.2011;7.1573;
1303.2000;0.1994;7.1667;
1303.5000;0.2035;7.1809;
1303.8000;0.2027;7.1786;
1304.1000;0.2027;7.1809;
1304.4000;0.2019;7.1856;
1304.7000;0.2043;7.1927;
1305.0000;0.2043;7.1880;
1305.3000;0.2059;7.1856;
1305.6000;0.2043;7.1880;
1305.9000;0.2051;7.1927;
1306.2000;0.2108;7.2022;
1306.5000;0.2035;7.1738;
1306.8000;0.2019;7.1833;
1307.1000;0.2100;7.2069;
1307.4000;0.2051;7.1856;
1307.7000;0.2043;7.1833;
1308.0000;0.2035;7.1738;
1308.3000;0.2019;7.1762;
1308.6000;0.2059;7.1927;
1308.9000;0.2002;7.1904;
1309.2000;0.1994;7.1927;
1309.5000;0.2011;7.1880;
1309.8000;0.2043;7.1927;
1310.1000;0.1986;7.1715;
1310.4000;0.2011;7.1667;
1310.7000;0.2035;7.1715;
1311.0000;0.2002;7.1738;
1311.3000;0.2100;7.2046;
1311.6000;0.2035;7.1833;
1311.9000;0.2035;7.1809;
1312.2000;0.2027;7.1762;
1312.5000;0.2043;7.1833;
1312.8000;0.2035;7.1833;
1313.1000;0.2035;7.1762;
1313.4000;0.2027;7.1738;
1313.7000;0.2027;7.1715;
1314.0000;0.2019;7.1833;
1314.3000;0.2019;7.1880;
1314.6000;0.2043;7.1856;
1314.9000;0.2019;7.1904;
1315.2000;0.1994;7.1927;
1315.5000;0.1954;7.1951;
1315.8000;0.2011;7.1951;
1316.1000;0.2011;7.1951;
1316.4000;0.2027;7.1927;
1316.7000;0.2076;7.1904;
1317.0000;0.2027;7.1833;
1317.3000;0.2019;7.1809;
1317.6000;0.2027;7.1809;
1317.9000;0.2019;7.1809;
1318.2000;0.2027;7.1833;
1318.5000;0.2011;7.1856;
1318.8000;0.2027;7.1880;
1319.1000;0.2043;7.1998;
1319.4000;0.2019;7.1927;
1319.7000;0.2051;7.2046;
1320.0000;0.2019;7.1951;
1320.3000;0.2011;7.1951;
1320.6000;0.2002;7.1833;
1320.9000;0.2059;7.1975;
1321.2000;0.2027;7.1927;
1321.5000;0.2027;7.1856;
1321.8000;0.2027;7.1762;
1322.1000;0.2027;7.1786;
1322.4000;0.2019;7.1738;
1322.7000;0.2027;7.1762;
1323.0000;0.2019;7.1738;
1323.3000;0.2035;7.1856;
1323.6000;0.2051;7.1880;
1323.9000;0.2092;7.1951;
1324.2000;0.2019;7.1786;
1324.5000;0.2019;7.1809;
1324.8000;0.2027;7.1904;
1325.1000;0.1986;7.1809;
1325.4000;0.2027;7.1880;
1325.7000;0.2002;7.1927;
1326.0000;0.1954;7.1809;
1326.3000;0.2002;7.1856;
1326.6000;0.2027;7.1880;
1326.9000;0.2002;7.1833;
1327.2000;0.2011;7.1998;
1327.5000;0.2035;7.2046;
1327.8000;0.2035;7.2046;
1328.1000;0.2019;7.2022;
1328.4000;0.2019;7.1927;
1328.7000;0.2027;7.1880;
1329.0000;0.2027;7.1927;
1329.3000;0.1986;7.1809;
1329.6000;0.2043;7.1880;
1329.9000;0.2051;7.1856;
1330.2000;0.2002;7.1762;
1330.5000;0.2002;7.1762;
1330.8000;0.2011;7.1762;
1331.1000;0.2043;7.1762;
1331.4000;0.2027;7.1691;
1331.7000;0.2043;7.1738;
1332.0000;0.2035;7.1667;
1332.3000;0.2027;7.1620;
1332.6000;0.2035;7.1691;
1332.9000;0.2027;7.1715;
1333.2000;0.2043;7.1786;
1333.5000;0.2043;7.1786;
1333.8000;0.2019;7.1809;
1334.1000;0.2019;7.1833;
1334.4000;0.2035;7.2022;
1334.7000;0.2011;7.2046;
1335.0000;0.2027;7.2069;
1335.3000;0.2027;7.2069;
1335.6000;0.2011;7.2069;
1335.9000;0.2011;7.2116;
1336.2000;0.2011;7.2046;
1336.5000;0.2019;7.1998;
1336.8000;0.1970;7.1880;
1337.1000;0.2019;7.1975;
1337.4000;0.2002;7.1951;
1337.7000;0.2035;7.2022;
1338.0000;0.2035;7.1927;
1338.3000;0.2068;7.1998;
1338.6000;0.2019;7.1880;
1338.9000;0.2035;7.1856;
1339.2000;0.2019;7.1856;
1339.5000;0.2019;7.1786;
1339.8000;0.2011;7.1833;
1340.1000;0.2035;7.1975;
1340.4000;0.2027;7.1927;
1340.7000;0.1978;7.1880;
1341.0000;0.2019;7.2046;
1341.3000;0.2019;7.2022;
1341.6000;0.2092;7.2211;
1341.9000;0.2043;7.2046;
1342.2000;0.2019;7.1951;
1342.5000;0.2035;7.2046;
1342.8000;0.2019;7.2022;
1343.1000;0.1994;7.1975;
1343.4000;0.2035;7.2116;
1343.7000;0.2035;7.2164;
1344.0000;0.2027;7.2140;
1344.3000;0.2019;7.2140;
1344.6000;0.1962;7.1927;
1344.9000;0.2011;7.2022;
1345.2000;0.2011;7.1951;
1345.5000;0.2019;7.1904;
1345.8000;0.1986;7.1762;
1346.1000;0.1994;7.1786;
1346.4000;0.2019;7.1856;
1346.7000;0.2011;7.1809;
1347.0000;0.1986;7.1715;
1347.3000;0.1954;7.1644;
1347.6000;0.2011;7.1809;
1347.9000;0.2092;7.2069;
1348.2000;0.2092;7.2093;
1348.5000;0.2019;7.1880;
1348.8000;0.1994;7.1762;
1349.1000;0.2002;7.1856;
1349.4000;0.2019;7.1809;
1349.7000;0.2027;7.1833;
1350.0000;0.1954;7.1667;
1350.3000;0.1986;7.1809;
1350.6000;0.2011;7.1880;
1350.9000;0.2019;7.1856;
1351.2000;0.2019;7.1975;
1351.5000;0.2019;7.1951;
1351.8000;0.2027;7.2022;
1352.1000;0.2035;7.2046;
1352.4000;0.1970;7.1904;
1352.7000;0.2059;7.2069;
1353.0000;0.2059;7.2069;
1353.3000;0.2011;7.1904;
1353.6000;0.2027;7.1998;
1353.9000;0.1986;7.2022;
1354.2000;0.2011;7.2069;
1354.5000;0.2027;7.2187;
1354.8000;0.2019;7.2116;
1355.1000;0.1913;7.1786;
1355.4000;0.2027;7.2046;
1355.7000;0.1994;7.1904;
1356.0000;0.2019;7.1927;
1356.3000;0.2027;7.1856;
1356.6000;0.2002;7.1833;
1356.9000;0.2011;7.1809;
1357.2000;0.1994;7.1786;
1357.5000;0.2011;7.1786;
1357.8000;0.2035;7.1927;
1358.1000;0.2027;7.1904;
1358.4000;0.2027;7.1904;
1358.7000;0.1994;7.1856;
1359.0000;0.2019;7.1786;
1359.3000;0.2019;7.1833;
1359.6000;0.2027;7.1927;
1359.9000;0.2019;7.1904;
1360.2000;0.2019;7.1904;
1360.5000;0.2011;7.1951;
1360.8000;0.2027;7.1975;
1361.1000;0.2116;7.2187;
1361.4000;0.2011;7.1927;
1361.7000;0.2027;7.2069;
1362.0000;0.2011;7.2022;
1362.3000;0.2027;7.1998;
1362.6000;0.2035;7.2022;
1362.9000;0.2019;7.1927;
1363.2000;0.2051;7.1998;
1363.5000;0.1986;7.1786;
1363.8000;0.2035;7.1951;
1364.1000;0.2043;7.2022;
1364.4000;0.2051;7.2022;
1364.7000;0.2043;7.1951;
1365.0000;0.2011;7.1927;
1365.3000;0.2002;7.1951;
1365.6000;0.2027;7.1927;
1365.9000;0.2035;7.1927;
1366.2000;0.2027;7.1880;
1366.5000;0.1970;7.1762;
1366.8000;0.2019;7.1856;
1367.1000;0.2019;7.1786;
1367.4000;0.2035;7.1856;
1367.7000;0.2027;7.1809;
1368.0000;0.1978;7.1786;
1368.3000;0.1994;7.1786;
1368.6000;0.2125;7.2164;
1368.9000;0.2084;7.2022;
1369.2000;0.2019;7.1951;
1369.5000;0.2019;7.2046;
1369.8000;0.2002;7.1927;
1370.1000;0.2002;7.1880;
1370.4000;0.2027;7.1880;
1370.7000;0.2002;7.1856;
1371.0000;0.2027;7.1951;
1371.3000;0.1986;7.1715;
1371.6000;0.2116;7.1951;
1371.9000;0.2002;7.1596;
1372.2000;0.2011;7.1715;
1372.5000;0.2002;7.1738;
1372.8000;0.2035;7.1786;
1373.1000;0.2019;7.1786;
1373.4000;0.2043;7.1809;
1373.7000;0.2076;7.2022;
1374.0000;0.2059;7.2022;
1374.3000;0.2019;7.1738;
1374.6000;0.1994;7.1620;
1374.9000;0.2027;7.1786;
1375.2000;0.2027;7.1809;
1375.5000;0.2002;7.1809;
1375.8000;0.2027;7.1856;
1376.1000;0.2027;7.1786;
1376.4000;0.2043;7.1809;
1376.7000;0.1986;7.1738;
1377.0000;0.2027;7.1856;
1377.3000;0.2011;7.1904;
1377.6000;0.2027;7.1904;
1377.9000;0.1986;7.1786;
1378.2000;0.2027;7.1927;
1378.5000;0.1986;7.1856;
1378.8000;0.1945;7.1691;
1379.1000;0.2019;7.1904;
1379.4000;0.2019;7.1809;
1379.7000;0.2084;7.1975;
1380.0000;0.2011;7.1786;
1380.3000;0.2002;7.1738;
1380.6000;0.2002;7.1762;
1380.9000;0.2011;7.1786;
1381.2000;0.2019;7.1809;
1381.5000;0.2002;7.1786;
1381.8000;0.2027;7.1856;
1382.1000;0.2011;7.1786;
1382.4000;0.2059;7.1856;
1382.7000;0.2035;7.1927;
1383.0000;0.2035;7.2022;
1383.3000;0.2019;7.1975;
1383.6000;0.2011;7.1951;
1383.9000;0.2002;7.1880;
1384.2000;0.2019;7.1904;
1384.5000;0.2035;7.2022;
1384.8000;0.2002;7.1927;
1385.1000;0.2011;7.1880;
1385.4000;0.2002;7.1762;
1385.7000;0.2027;7.1880;
1386.0000;0.2035;7.1833;
1386.3000;0.1986;7.1809;
1386.6000;0.2002;7.1786;
1386.9000;0.1994;7.1833;
1387.2000;0.1986;7.1856;
1387.5000;0.2076;7.1998;
1387.8000;0.2011;7.1738;
1388.1000;0.2043;7.1904;
1388.4000;0.2027;7.1856;
1388.7000;0.2027;7.1856;
1389.0000;0.1986;7.1786;
1389.3000;0.2019;7.1880;
1389.6000;0.2027;7.1856;
1389.9000;0.2011;7.1880;
1390.2000;0.1986;7.1856;
1390.5000;0.2092;7.2164;
1390.8000;0.2011;7.2022;
1391.1000;0.2019;7.2069;
1391.4000;0.2011;7.2093;
1391.7000;0.2011;7.2046;
1392.0000;0.2051;7.2116;
1392.3000;0.2011;7.2022;
1392.6000;0.2019;7.2069;
1392.9000;0.2027;7.2046;
1393.2000;0.1994;7.1951;
1393.5000;0.2027;7.2046;
1393.8000;0.2035;7.2046;
1394.1000;0.1994;7.2069;
1394.4000;0.2002;7.2093;
1394.7000;0.2027;7.2187;
1395.0000;0.1978;7.2093;
1395.3000;0.2002;7.2116;
1395.6000;0.2002;7.2116;
1395.9000;0.2011;7.2140;
1396.2000;0.2019;7.2140;
1396.5000;0.2019;7.2116;
1396.8000;0.2027;7.2140;
1397.1000;0.2011;7.2164;
1397.4000;0.2019;7.2306;
1397.7000;0.2019;7.2306;
1398.0000;0.2027;7.2235;
1398.3000;0.2035;7.2116;
1398.6000;0.2035;7.2069;
1398.9000;0.2011;7.2022;
1399.2000;0.1986;7.1927;
1399.5000;0.2027;7.1998;
1399.8000;0.2027;7.1998;
