time/ms;Fluo/V;P700 deltaI/I x10³;
-199.8000;0.2955;7.2140;
-199.5000;0.2955;7.2093;
-199.2000;0.2963;7.2116;
-198.9000;0.2955;7.2046;
-198.6000;0.2939;7.2069;
-198.3000;0.2955;7.2022;
-198.0000;0.2947;7.2069;
-197.7000;0.2955;7.1927;
-197.4000;0.2955;7.1927;
-197.1000;0.2955;7.1975;
-196.8000;0.2939;7.1975;
-196.5000;0.2939;7.1998;
-196.2000;0.2939;7.1951;
-195.9000;0.2955;7.1904;
-195.6000;0.2955;7.1998;
-195.3000;0.2939;7.1927;
-195.0000;0.2947;7.1880;
-194.7000;0.2955;7.1927;
-194.4000;0.2955;7.1904;
-194.1000;0.2947;7.1904;
-193.8000;0.2955;7.1904;
-193.5000;0.2963;7.1927;
-193.2000;0.2971;7.1809;
-192.9000;0.2955;7.1667;
-192.6000;0.2955;7.1691;
-192.3000;0.2939;7.1762;
-192.0000;0.2947;7.1833;
-191.7000;0.2922;7.1809;
-191.4000;0.2930;7.1856;
-191.1000;0.2939;7.1904;
-190.8000;0.2955;7.1927;
-190.5000;0.2947;7.1809;
-190.2000;0.2930;7.1809;
-189.9000;0.2939;7.1975;
-189.6000;0.2939;7.1951;
-189.3000;0.2939;7.1880;
-189.0000;0.2939;7.1738;
-188.7000;0.2939;7.1715;
-188.4000;0.2963;7.1809;
-188.1000;0.2963;7.1786;
-187.8000;0.2939;7.1667;
-187.5000;0.2939;7.1596;
-187.2000;0.2963;7.1549;
-186.9000;0.2963;7.1573;
-186.6000;0.2922;7.1526;
-186.3000;0.2939;7.1573;
-186.0000;0.2922;7.1596;
-185.7000;0.2955;7.1715;
-185.4000;0.2947;7.1762;
-185.1000;0.2930;7.1762;
-184.8000;0.2947;7.1904;
-184.5000;0.2947;7.1833;
-184.2000;0.2930;7.1762;
-183.9000;0.2930;7.1715;
-183.6000;0.2947;7.1738;
-183.3000;0.2947;7.1715;
-183.0000;0.2947;7.1786;
-182.7000;0.2939;7.1833;
-182.4000;0.2947;7.1762;
-182.1000;0.2947;7.1762;
-181.8000;0.2930;7.1762;
-181.5000;0.2947;7.1715;
-181.2000;0.2930;7.1715;
-180.9000;0.2939;7.1691;
-180.6000;0.2947;7.1644;
-180.3000;0.2939;7.1738;
-180.0000;0.2930;7.1691;
-179.7000;0.2979;7.1833;
-179.4000;0.2947;7.1809;
-179.1000;0.2955;7.1833;
-178.8000;0.2939;7.1809;
-178.5000;0.2947;7.1880;
-178.2000;0.2955;7.1880;
-177.9000;0.2955;7.1927;
-177.6000;0.2939;7.1904;
-177.3000;0.2939;7.1786;
-177.0000;0.2963;7.1856;
-176.7000;0.2947;7.1833;
-176.4000;0.2939;7.1786;
-176.1000;0.2939;7.1833;
-175.8000;0.2955;7.1927;
-175.5000;0.2947;7.1880;
-175.2000;0.2971;7.1880;
-174.9000;0.2955;7.1927;
-174.6000;0.2971;7.1951;
-174.3000;0.2963;7.1927;
-174.0000;0.2955;7.1880;
-173.7000;0.2947;7.1880;
-173.4000;0.2963;7.1904;
-173.1000;0.2963;7.1904;
-172.8000;0.2963;7.1951;
-172.5000;0.2939;7.1927;
-172.2000;0.2947;7.1880;
-171.9000;0.2898;7.1786;
-171.6000;0.2947;7.1904;
-171.3000;0.2939;7.1856;
-171.0000;0.2947;7.1951;
-170.7000;0.3004;7.2046;
-170.4000;0.2955;7.1951;
-170.1000;0.2947;7.1998;
-169.8000;0.2963;7.2022;
-169.5000;0.2947;7.2069;
-169.2000;0.2955;7.2069;
-168.9000;0.2963;7.2093;
-168.6000;0.2971;7.2022;
-168.3000;0.2955;7.1951;
-168.0000;0.2947;7.1951;
-167.7000;0.2971;7.1951;
-167.4000;0.2979;7.1951;
-167.1000;0.2979;7.1951;
-166.8000;0.2963;7.1927;
-166.5000;0.2955;7.1833;
-166.2000;0.2955;7.1880;
-165.9000;0.2930;7.1951;
-165.6000;0.2930;7.1951;
-165.3000;0.2939;7.1951;
-165.0000;0.2939;7.1975;
-164.7000;0.2947;7.2022;
-164.4000;0.2922;7.1975;
-164.1000;0.2955;7.2046;
-163.8000;0.2987;7.2069;
-163.5000;0.2987;7.2069;
-163.2000;0.3020;7.2211;
-162.9000;0.2768;7.1549;
-162.6000;0.2922;7.1880;
-162.3000;0.2947;7.1927;
-162.0000;0.2882;7.1762;
-161.7000;0.2955;7.1951;
-161.4000;0.2955;7.1927;
-161.1000;0.2939;7.1904;
-160.8000;0.2939;7.1880;
-160.5000;0.2947;7.1856;
-160.2000;0.2963;7.1856;
-159.9000;0.2996;7.1951;
-159.6000;0.2987;7.1975;
-159.3000;0.2947;7.1880;
-159.0000;0.2939;7.1927;
-158.7000;0.2930;7.1998;
-158.4000;0.2922;7.2069;
-158.1000;0.2979;7.2187;
-157.8000;0.2947;7.2069;
-157.5000;0.2873;7.1904;
-157.2000;0.2947;7.2116;
-156.9000;0.2922;7.2116;
-156.6000;0.2930;7.2116;
-156.3000;0.2971;7.2187;
-156.0000;0.2930;7.2140;
-155.7000;0.2939;7.2116;
-155.4000;0.2939;7.2140;
-155.1000;0.2882;7.1975;
-154.8000;0.2939;7.2140;
-154.5000;0.2947;7.2140;
-154.2000;0.2906;7.2022;
-153.9000;0.2930;7.2093;
-153.6000;0.2939;7.1998;
-153.3000;0.2930;7.1975;
-153.0000;0.2947;7.1975;
-152.7000;0.2930;7.1904;
-152.4000;0.2947;7.1951;
-152.1000;0.2979;7.1927;
-151.8000;0.2947;7.1833;
-151.5000;0.2963;7.1880;
-151.2000;0.3004;7.1951;
-150.9000;0.2939;7.1880;
-150.6000;0.2979;7.2069;
-150.3000;0.2841;7.1691;
-150.0000;0.2922;7.1762;
-149.7000;0.2898;7.1691;
-149.4000;0.2955;7.1786;
-149.1000;0.2947;7.1762;
-148.8000;0.2947;7.1856;
-148.5000;0.3004;7.1951;
-148.2000;0.2930;7.1880;
-147.9000;0.2939;7.1975;
-147.6000;0.2996;7.2046;
-147.3000;0.2939;7.1904;
-147.0000;0.2947;7.1880;
-146.7000;0.2963;7.1809;
-146.4000;0.2922;7.1667;
-146.1000;0.2955;7.1762;
-145.8000;0.2930;7.1738;
-145.5000;0.2963;7.1833;
-145.2000;0.2955;7.1856;
-144.9000;0.2947;7.1809;
-144.6000;0.2955;7.1786;
-144.3000;0.2939;7.1667;
-144.0000;0.2955;7.1667;
-143.7000;0.2955;7.1762;
-143.4000;0.2947;7.1809;
-143.1000;0.2955;7.1904;
-142.8000;0.2939;7.1951;
-142.5000;0.2939;7.1880;
-142.2000;0.2971;7.1833;
-141.9000;0.2963;7.1786;
-141.6000;0.2971;7.1833;
-141.3000;0.2996;7.1904;
-141.0000;0.2963;7.1880;
-140.7000;0.2939;7.1786;
-140.4000;0.2906;7.1762;
-140.1000;0.2939;7.1809;
-139.8000;0.2987;7.1927;
-139.5000;0.2955;7.1809;
-139.2000;0.2930;7.1904;
-138.9000;0.2947;7.1927;
-138.6000;0.2955;7.1904;
-138.3000;0.2955;7.1833;
-138.0000;0.2947;7.1833;
-137.7000;0.2971;7.1904;
-137.4000;0.2939;7.1880;
-137.1000;0.2947;7.1856;
-136.8000;0.2947;7.1880;
-136.5000;0.2971;7.1927;
-136.2000;0.2947;7.1833;
-135.9000;0.2947;7.1762;
-135.6000;0.2955;7.1786;
-135.3000;0.2947;7.1786;
-135.0000;0.2947;7.1880;
-134.7000;0.2963;7.1998;
-134.4000;0.2939;7.1786;
-134.1000;0.2914;7.1691;
-133.8000;0.2979;7.1880;
-133.5000;0.3012;7.1927;
-133.2000;0.2930;7.1762;
-132.9000;0.2882;7.1691;
-132.6000;0.2947;7.1998;
-132.3000;0.2939;7.2046;
-132.0000;0.2955;7.1975;
-131.7000;0.2963;7.2093;
-131.4000;0.2963;7.2093;
-131.1000;0.2914;7.1927;
-130.8000;0.2922;7.1927;
-130.5000;0.2971;7.1998;
-130.2000;0.2987;7.2069;
-129.9000;0.2939;7.2022;
-129.6000;0.2955;7.1951;
-129.3000;0.2947;7.1975;
-129.0000;0.2955;7.2116;
-128.7000;0.2971;7.2116;
-128.4000;0.2971;7.2093;
-128.1000;0.2971;7.2046;
-127.8000;0.2947;7.1833;
-127.5000;0.2882;7.1644;
-127.2000;0.2930;7.1809;
-126.9000;0.2955;7.1880;
-126.6000;0.2914;7.1951;
-126.3000;0.2930;7.2069;
-126.0000;0.2971;7.2116;
-125.7000;0.2947;7.2069;
-125.4000;0.3012;7.2187;
-125.1000;0.2947;7.2022;
-124.8000;0.2971;7.2022;
-124.5000;0.2955;7.1998;
-124.2000;0.2939;7.1927;
-123.9000;0.2955;7.1927;
-123.6000;0.2979;7.1927;
-123.3000;0.2955;7.1880;
-123.0000;0.2987;7.1856;
-122.7000;0.2849;7.1573;
-122.4000;0.3020;7.1998;
-122.1000;0.2857;7.1644;
-121.8000;0.2947;7.1880;
-121.5000;0.2939;7.1856;
-121.2000;0.3044;7.2164;
-120.9000;0.2963;7.2140;
-120.6000;0.2955;7.2116;
-120.3000;0.2955;7.2093;
-120.0000;0.2955;7.2046;
-119.7000;0.2955;7.2046;
-119.4000;0.2955;7.1975;
-119.1000;0.2947;7.2022;
-118.8000;0.2939;7.1904;
-118.5000;0.2947;7.1951;
-118.2000;0.2922;7.1904;
-117.9000;0.2930;7.1904;
-117.6000;0.2947;7.1927;
-117.3000;0.2939;7.1856;
-117.0000;0.2979;7.1998;
-116.7000;0.2914;7.1880;
-116.4000;0.2987;7.1975;
-116.1000;0.2963;7.1927;
-115.8000;0.2963;7.1927;
-115.5000;0.2955;7.1880;
-115.2000;0.2922;7.1856;
-114.9000;0.2939;7.1951;
-114.6000;0.2963;7.1975;
-114.3000;0.2955;7.1927;
-114.0000;0.2947;7.1975;
-113.7000;0.2955;7.1927;
-113.4000;0.2955;7.1856;
-113.1000;0.2963;7.1856;
-112.8000;0.2930;7.1856;
-112.5000;0.2930;7.1904;
-112.2000;0.2939;7.1951;
-111.9000;0.2939;7.1975;
-111.6000;0.2971;7.1998;
-111.3000;0.2882;7.1856;
-111.0000;0.2979;7.2116;
-110.7000;0.2963;7.2069;
-110.4000;0.2963;7.1998;
-110.1000;0.2963;7.1975;
-109.8000;0.2955;7.2046;
-109.5000;0.2947;7.2093;
-109.2000;0.2922;7.2093;
-108.9000;0.2930;7.2093;
-108.6000;0.2963;7.2116;
-108.3000;0.2971;7.2140;
-108.0000;0.3036;7.2353;
-107.7000;0.2955;7.2140;
-107.4000;0.2963;7.2022;
-107.1000;0.2963;7.2069;
-106.8000;0.2955;7.2069;
-106.5000;0.2955;7.2046;
-106.2000;0.2955;7.2093;
-105.9000;0.2914;7.1951;
-105.6000;0.2914;7.2022;
-105.3000;0.2963;7.2022;
-105.0000;0.2939;7.1998;
-104.7000;0.2922;7.1975;
-104.4000;0.2955;7.2069;
-104.1000;0.2930;7.2046;
-103.8000;0.2955;7.2069;
-103.5000;0.2947;7.2164;
-103.2000;0.2963;7.2140;
-102.9000;0.2955;7.2116;
-102.6000;0.2939;7.1975;
-102.3000;0.2890;7.1738;
-102.0000;0.2971;7.1975;
-101.7000;0.2914;7.1809;
-101.4000;0.3020;7.1998;
-101.1000;0.2939;7.1786;
-100.8000;0.2979;7.1880;
-100.5000;0.2955;7.1951;
-100.2000;0.2963;7.1927;
-99.9000;0.2930;7.1786;
-99.6000;0.2930;7.1786;
-99.3000;0.2963;7.1904;
-99.0000;0.2947;7.1833;
-98.7000;0.2914;7.1667;
-98.4000;0.2955;7.1786;
-98.1000;0.2947;7.1786;
-97.8000;0.2947;7.1809;
-97.5000;0.2947;7.1762;
-97.2000;0.3020;7.1833;
-96.9000;0.2947;7.1691;
-96.6000;0.2947;7.1762;
-96.3000;0.2947;7.1809;
-96.0000;0.2939;7.1927;
-95.7000;0.2947;7.1904;
-95.4000;0.2955;7.1809;
-95.1000;0.2930;7.1762;
-94.8000;0.2939;7.1786;
-94.5000;0.2947;7.1833;
-94.2000;0.2939;7.1833;
-93.9000;0.2947;7.1786;
-93.6000;0.2971;7.1880;
-93.3000;0.2939;7.1904;
-93.0000;0.2971;7.2022;
-92.7000;0.2963;7.2046;
-92.4000;0.2922;7.1951;
-92.1000;0.2947;7.2069;
-91.8000;0.2963;7.2211;
-91.5000;0.2939;7.2069;
-91.2000;0.2971;7.2140;
-90.9000;0.2955;7.2046;
-90.6000;0.3004;7.2093;
-90.3000;0.2947;7.2116;
-90.0000;0.2906;7.1927;
-89.7000;0.2947;7.1880;
-89.4000;0.2939;7.1927;
-89.1000;0.2955;7.1998;
-88.8000;0.2922;7.1880;
-88.5000;0.2963;7.2046;
-88.2000;0.2947;7.1951;
-87.9000;0.2963;7.1998;
-87.6000;0.2963;7.2046;
-87.3000;0.2939;7.1998;
-87.0000;0.2987;7.2187;
-86.7000;0.2947;7.2093;
-86.4000;0.2930;7.2069;
-86.1000;0.2955;7.2211;
-85.8000;0.2939;7.2140;
-85.5000;0.2996;7.2235;
-85.2000;0.3053;7.2424;
-84.9000;0.2930;7.2046;
-84.6000;0.2914;7.2046;
-84.3000;0.2955;7.2140;
-84.0000;0.2930;7.1975;
-83.7000;0.2914;7.1880;
-83.4000;0.2922;7.1904;
-83.1000;0.2906;7.1951;
-82.8000;0.2955;7.2022;
-82.5000;0.2971;7.2022;
-82.2000;0.2963;7.1975;
-81.9000;0.2979;7.2022;
-81.6000;0.2947;7.1951;
-81.3000;0.2955;7.2046;
-81.0000;0.2979;7.2093;
-80.7000;0.2955;7.2093;
-80.4000;0.2939;7.2022;
-80.1000;0.2930;7.2046;
-79.8000;0.2947;7.2116;
-79.5000;0.2939;7.2164;
-79.2000;0.2857;7.1951;
-78.9000;0.2987;7.2211;
-78.6000;0.2963;7.2235;
-78.3000;0.2955;7.2187;
-78.0000;0.2939;7.2116;
-77.7000;0.2930;7.2211;
-77.4000;0.2955;7.2211;
-77.1000;0.2939;7.2140;
-76.8000;0.2947;7.2140;
-76.5000;0.2939;7.2093;
-76.2000;0.2947;7.2093;
-75.9000;0.2955;7.2069;
-75.6000;0.2939;7.1975;
-75.3000;0.2955;7.2022;
-75.0000;0.2947;7.1975;
-74.7000;0.2914;7.1904;
-74.4000;0.2930;7.1975;
-74.1000;0.2939;7.1975;
-73.8000;0.2939;7.2069;
-73.5000;0.2939;7.2069;
-73.2000;0.2947;7.2093;
-72.9000;0.2930;7.2046;
-72.6000;0.2930;7.2116;
-72.3000;0.2947;7.2093;
-72.0000;0.2947;7.2069;
-71.7000;0.2947;7.2164;
-71.4000;0.2947;7.2140;
-71.1000;0.2947;7.2069;
-70.8000;0.2947;7.2069;
-70.5000;0.2947;7.2093;
-70.2000;0.2963;7.2140;
-69.9000;0.2979;7.2164;
-69.6000;0.2963;7.2187;
-69.3000;0.2963;7.2164;
-69.0000;0.2955;7.2069;
-68.7000;0.2947;7.2093;
-68.4000;0.2947;7.2022;
-68.1000;0.2947;7.2022;
-67.8000;0.2955;7.1951;
-67.5000;0.2955;7.1904;
-67.2000;0.2955;7.1927;
-66.9000;0.2955;7.1904;
-66.6000;0.2971;7.2093;
-66.3000;0.2971;7.2069;
-66.0000;0.2963;7.1998;
-65.7000;0.2947;7.1951;
-65.4000;0.2939;7.1975;
-65.1000;0.2955;7.2046;
-64.8000;0.2955;7.2069;
-64.5000;0.2939;7.2046;
-64.2000;0.2947;7.1998;
-63.9000;0.2947;7.1998;
-63.6000;0.2979;7.1998;
-63.3000;0.2947;7.2022;
-63.0000;0.2939;7.2116;
-62.7000;0.2898;7.2022;
-62.4000;0.2890;7.2069;
-62.1000;0.2955;7.2282;
-61.8000;0.2939;7.2282;
-61.5000;0.2996;7.2400;
-61.2000;0.2947;7.2258;
-60.9000;0.2947;7.2306;
-60.6000;0.2939;7.2353;
-60.3000;0.2939;7.2353;
-60.0000;0.2947;7.2353;
-59.7000;0.2906;7.2187;
-59.4000;0.2930;7.2353;
-59.1000;0.2930;7.2447;
-58.8000;0.2930;7.2518;
-58.5000;0.2939;7.2471;
-58.2000;0.2947;7.2495;
-57.9000;0.2947;7.2495;
-57.6000;0.2947;7.2471;
-57.3000;0.2963;7.2471;
-57.0000;0.2939;7.2447;
-56.7000;0.2955;7.2400;
-56.4000;0.2930;7.2376;
-56.1000;0.2963;7.2447;
-55.8000;0.2979;7.2424;
-55.5000;0.2963;7.2376;
-55.2000;0.2971;7.2400;
-54.9000;0.2971;7.2424;
-54.6000;0.2963;7.2424;
-54.3000;0.2947;7.2400;
-54.0000;0.2947;7.2447;
-53.7000;0.2955;7.2447;
-53.4000;0.2955;7.2424;
-53.1000;0.2939;7.2471;
-52.8000;0.2947;7.2376;
-52.5000;0.3012;7.2589;
-52.2000;0.2963;7.2424;
-51.9000;0.2939;7.2376;
-51.6000;0.2939;7.2211;
-51.3000;0.2930;7.2211;
-51.0000;0.2930;7.2235;
-50.7000;0.2939;7.2282;
-50.4000;0.2947;7.2306;
-50.1000;0.2939;7.2211;
-49.8000;0.2955;7.2235;
-49.5000;0.2996;7.2424;
-49.2000;0.2947;7.2282;
-48.9000;0.2939;7.2140;
-48.6000;0.2955;7.2164;
-48.3000;0.2930;7.1998;
-48.0000;0.2947;7.2046;
-47.7000;0.2955;7.2140;
-47.4000;0.2955;7.2093;
-47.1000;0.2947;7.2140;
-46.8000;0.2939;7.2093;
-46.5000;0.2996;7.2235;
-46.2000;0.2947;7.2164;
-45.9000;0.2971;7.2258;
-45.6000;0.2963;7.2282;
-45.3000;0.2963;7.2235;
-45.0000;0.2947;7.2235;
-44.7000;0.2963;7.2235;
-44.4000;0.2914;7.2187;
-44.1000;0.2939;7.2116;
-43.8000;0.2987;7.2140;
-43.5000;0.3012;7.2258;
-43.2000;0.2882;7.1998;
-42.9000;0.2947;7.2211;
-42.6000;0.2947;7.2164;
-42.3000;0.2955;7.2211;
-42.0000;0.2955;7.2140;
-41.7000;0.2947;7.2187;
-41.4000;0.2947;7.2116;
-41.1000;0.3004;7.2093;
-40.8000;0.2955;7.1998;
-40.5000;0.2947;7.2093;
-40.2000;0.2930;7.2187;
-39.9000;0.2930;7.2187;
-39.6000;0.2955;7.2329;
-39.3000;0.2947;7.2235;
-39.0000;0.2939;7.2164;
-38.7000;0.2947;7.2187;
-38.4000;0.2971;7.2211;
-38.1000;0.2914;7.2093;
-37.8000;0.2947;7.2282;
-37.5000;0.2963;7.2235;
-37.2000;0.3036;7.2400;
-36.9000;0.2955;7.2258;
-36.6000;0.2963;7.2164;
-36.3000;0.2963;7.2093;
-36.0000;0.2963;7.2069;
-35.7000;0.2996;7.2116;
-35.4000;0.2963;7.1951;
-35.1000;0.2947;7.1856;
-34.8000;0.2955;7.1856;
-34.5000;0.2963;7.1998;
-34.2000;0.2947;7.1951;
-33.9000;0.2930;7.1927;
-33.6000;0.2939;7.1975;
-33.3000;0.2955;7.2022;
-33.0000;0.2947;7.2069;
-32.7000;0.2955;7.2140;
-32.4000;0.2898;7.1951;
-32.1000;0.2947;7.2046;
-31.8000;0.2971;7.2069;
-31.5000;0.2939;7.1927;
-31.2000;0.2939;7.1927;
-30.9000;0.2873;7.1738;
-30.6000;0.2939;7.1951;
-30.3000;0.2906;7.1904;
-30.0000;0.2939;7.1998;
-29.7000;0.2939;7.2093;
-29.4000;0.2922;7.2069;
-29.1000;0.2930;7.2046;
-28.8000;0.2947;7.2093;
-28.5000;0.2890;7.1951;
-28.2000;0.2963;7.2069;
-27.9000;0.2947;7.2069;
-27.6000;0.2947;7.2022;
-27.3000;0.2947;7.2116;
-27.0000;0.2947;7.2093;
-26.7000;0.2939;7.2116;
-26.4000;0.2987;7.2211;
-26.1000;0.2930;7.1998;
-25.8000;0.2955;7.2046;
-25.5000;0.2955;7.2046;
-25.2000;0.2963;7.2046;
-24.9000;0.2939;7.2022;
-24.6000;0.2955;7.2187;
-24.3000;0.2963;7.2187;
-24.0000;0.2947;7.2187;
-23.7000;0.2947;7.2116;
-23.4000;0.2939;7.2046;
-23.1000;0.2955;7.2116;
-22.8000;0.2947;7.2116;
-22.5000;0.2947;7.2046;
-22.2000;0.2996;7.2140;
-21.9000;0.2955;7.2046;
-21.6000;0.2963;7.1951;
-21.3000;0.2947;7.1998;
-21.0000;0.2939;7.2046;
-20.7000;0.2955;7.2022;
-20.4000;0.2947;7.2164;
-20.1000;0.2955;7.2235;
-19.8000;0.2930;7.2187;
-19.5000;0.2914;7.2140;
-19.2000;0.2955;7.2187;
-18.9000;0.2947;7.2187;
-18.6000;0.2963;7.2164;
-18.3000;0.2930;7.2164;
-18.0000;0.2971;7.2140;
-17.7000;0.2963;7.2140;
-17.4000;0.2930;7.2069;
-17.1000;0.2939;7.2022;
-16.8000;0.2947;7.2093;
-16.5000;0.2939;7.2235;
-16.2000;0.2971;7.2258;
-15.9000;0.2955;7.2069;
-15.6000;0.2955;7.2022;
-15.3000;0.2987;7.2093;
-15.0000;0.2939;7.2069;
-14.7000;0.2955;7.2116;
-14.4000;0.2955;7.2164;
-14.1000;0.2963;7.2093;
-13.8000;0.2971;7.2164;
-13.5000;0.2849;7.1904;
-13.2000;0.2963;7.2116;
-12.9000;0.2955;7.2140;
-12.6000;0.2963;7.2140;
-12.3000;0.2971;7.2069;
-12.0000;0.2955;7.1998;
-11.7000;0.3012;7.2187;
-11.4000;0.2930;7.2069;
-11.1000;0.2955;7.2164;
-10.8000;0.2947;7.2211;
-10.5000;0.2930;7.2211;
-10.2000;0.2947;7.2258;
-9.9000;0.2963;7.2282;
-9.6000;0.2930;7.2164;
-9.3000;0.2922;7.2140;
-9.0000;0.2947;7.2329;
-8.7000;0.2939;7.2306;
-8.4000;0.2922;7.2235;
-8.1000;0.2947;7.2329;
-7.8000;0.2955;7.2376;
-7.5000;0.2947;7.2353;
-7.2000;0.2947;7.2258;
-6.9000;0.2955;7.2329;
-6.6000;0.3004;7.2566;
-6.3000;0.2939;7.2495;
-6.0000;0.2939;7.2400;
-5.7000;0.2939;7.2329;
-5.4000;0.2930;7.2376;
-5.1000;0.2947;7.2495;
-4.8000;0.2906;7.2424;
-4.5000;0.2906;7.2353;
-4.2000;0.2947;7.2400;
-3.9000;0.2930;7.2306;
-3.6000;0.2939;7.2329;
-3.3000;0.2914;7.2116;
-3.0000;0.2947;7.2164;
-2.7000;0.2955;7.2211;
-2.4000;0.2971;7.2258;
-2.1000;0.2955;7.2258;
-1.8000;0.2890;7.2164;
-1.5000;0.2939;7.2306;
-1.2000;0.2963;7.2329;
-0.9000;0.2930;7.2211;
-0.6000;0.2947;7.2187;
-0.3000;0.2955;7.2187;
0.0000;0.2955;7.2187;
0.3000;0.2955;7.1786;
0.6000;0.2947;7.1927;
0.9000;0.3028;7.2258;
1.2000;0.3053;7.2471;
1.5000;0.3036;7.2447;
1.8000;0.3085;7.2755;
2.1000;0.3085;7.2849;
2.4000;0.3118;7.2944;
2.7000;0.3191;7.3180;
3.0000;0.3126;7.3086;
3.3000;0.3118;7.3109;
3.6000;0.3134;7.3227;
3.9000;0.3101;7.3227;
4.2000;0.3012;7.2944;
4.5000;0.3118;7.3180;
4.8000;0.3134;7.3251;
5.1000;0.3118;7.3204;
5.4000;0.3126;7.3204;
5.7000;0.3142;7.3156;
6.0000;0.3109;7.3015;
6.3000;0.3134;7.3156;
6.6000;0.3118;7.3227;
6.9000;0.3118;7.3204;
7.2000;0.3150;7.3204;
7.5000;0.3126;7.3156;
7.8000;0.3199;7.3369;
8.1000;0.3142;7.3322;
8.4000;0.3191;7.3464;
8.7000;0.3158;7.3606;
9.0000;0.3158;7.3677;
9.3000;0.3142;7.3582;
9.6000;0.3191;7.3582;
9.9000;0.3085;7.3298;
10.2000;0.3150;7.3417;
10.5000;0.3134;7.3275;
10.8000;0.3109;7.3227;
11.1000;0.3150;7.3346;
11.4000;0.3158;7.3298;
11.7000;0.3134;7.3156;
12.0000;0.3183;7.3227;
12.3000;0.3142;7.3109;
12.6000;0.3175;7.3109;
12.9000;0.3191;7.3180;
13.2000;0.3248;7.3346;
13.5000;0.3199;7.3393;
13.8000;0.3158;7.3346;
14.1000;0.3142;7.3251;
14.4000;0.3101;7.3133;
14.7000;0.3166;7.3227;
15.0000;0.3191;7.3227;
15.3000;0.3126;7.3156;
15.6000;0.3166;7.3275;
15.9000;0.3166;7.3227;
16.2000;0.3183;7.3322;
16.5000;0.3199;7.3393;
16.8000;0.3183;7.3417;
17.1000;0.3142;7.3393;
17.4000;0.3158;7.3487;
17.7000;0.3191;7.3558;
18.0000;0.3191;7.3511;
18.3000;0.3191;7.3558;
18.6000;0.3215;7.3558;
18.9000;0.3223;7.3440;
19.2000;0.3264;7.3487;
19.5000;0.3183;7.3417;
19.8000;0.3183;7.3322;
20.1000;0.3207;7.3369;
20.4000;0.3256;7.3298;
20.7000;0.3232;7.3227;
21.0000;0.3191;7.3062;
21.3000;0.3215;7.3109;
21.6000;0.3215;7.3109;
21.9000;0.3199;7.3038;
22.2000;0.3240;7.3086;
22.5000;0.3232;7.3204;
22.8000;0.3223;7.3298;
23.1000;0.3207;7.3393;
23.4000;0.3207;7.3393;
23.7000;0.3215;7.3393;
24.0000;0.3199;7.3417;
24.3000;0.3150;7.3322;
24.6000;0.3207;7.3440;
24.9000;0.3199;7.3464;
25.2000;0.3191;7.3487;
25.5000;0.3207;7.3535;
25.8000;0.3166;7.3440;
26.1000;0.3207;7.3464;
26.4000;0.3199;7.3535;
26.7000;0.3232;7.3700;
27.0000;0.3215;7.3653;
27.3000;0.3240;7.3700;
27.6000;0.3215;7.3629;
27.9000;0.3232;7.3606;
28.2000;0.3232;7.3511;
28.5000;0.3232;7.3487;
28.8000;0.3183;7.3417;
29.1000;0.3248;7.3535;
29.4000;0.3183;7.3393;
29.7000;0.3240;7.3582;
30.0000;0.3191;7.3511;
30.3000;0.3215;7.3558;
30.6000;0.3207;7.3629;
30.9000;0.3264;7.3771;
31.2000;0.3232;7.3724;
31.5000;0.3280;7.3818;
31.8000;0.3337;7.3842;
32.1000;0.3240;7.3606;
32.4000;0.3191;7.3464;
32.7000;0.3232;7.3558;
33.0000;0.3256;7.3606;
33.3000;0.3248;7.3582;
33.6000;0.3183;7.3464;
33.9000;0.3248;7.3629;
34.2000;0.3223;7.3511;
34.5000;0.3256;7.3582;
34.8000;0.3232;7.3487;
35.1000;0.3280;7.3677;
35.4000;0.3240;7.3606;
35.7000;0.3256;7.3535;
36.0000;0.3256;7.3487;
36.3000;0.3199;7.3346;
36.6000;0.3256;7.3487;
36.9000;0.3232;7.3535;
37.2000;0.3272;7.3535;
37.5000;0.3232;7.3417;
37.8000;0.3240;7.3417;
38.1000;0.3256;7.3417;
38.4000;0.3248;7.3464;
38.7000;0.3256;7.3346;
39.0000;0.3248;7.3322;
39.3000;0.3280;7.3275;
39.6000;0.3256;7.3109;
39.9000;0.3248;7.3109;
40.2000;0.3240;7.3204;
40.5000;0.3240;7.3180;
40.8000;0.3256;7.3204;
41.1000;0.3240;7.3251;
41.4000;0.3248;7.3322;
41.7000;0.3264;7.3346;
42.0000;0.3256;7.3346;
42.3000;0.3240;7.3369;
42.6000;0.3248;7.3417;
42.9000;0.3272;7.3440;
43.2000;0.3264;7.3464;
43.5000;0.3297;7.3487;
43.8000;0.3272;7.3511;
44.1000;0.3248;7.3487;
44.4000;0.3346;7.3771;
44.7000;0.3256;7.3464;
45.0000;0.3248;7.3417;
45.3000;0.3264;7.3417;
45.6000;0.3264;7.3369;
45.9000;0.3272;7.3346;
46.2000;0.3272;7.3275;
46.5000;0.3305;7.3346;
46.8000;0.3264;7.3204;
47.1000;0.3256;7.3204;
47.4000;0.3240;7.3133;
47.7000;0.3240;7.3180;
48.0000;0.3264;7.3275;
48.3000;0.3280;7.3346;
48.6000;0.3215;7.3275;
48.9000;0.3264;7.3275;
49.2000;0.3280;7.3204;
49.5000;0.3264;7.3180;
49.8000;0.3199;7.2967;
50.1000;0.3248;7.3062;
50.4000;0.3248;7.3156;
50.7000;0.3264;7.3156;
51.0000;0.3264;7.3180;
51.3000;0.3248;7.3251;
51.6000;0.3248;7.3322;
51.9000;0.3256;7.3393;
52.2000;0.3264;7.3440;
52.5000;0.3272;7.3369;
52.8000;0.3256;7.3298;
53.1000;0.3264;7.3251;
53.4000;0.3289;7.3417;
53.7000;0.3272;7.3393;
54.0000;0.3280;7.3346;
54.3000;0.3272;7.3393;
54.6000;0.3305;7.3393;
54.9000;0.3264;7.3275;
55.2000;0.3272;7.3251;
55.5000;0.3256;7.3204;
55.8000;0.3232;7.3251;
56.1000;0.3256;7.3346;
56.4000;0.3256;7.3251;
56.7000;0.3256;7.3180;
57.0000;0.3158;7.2967;
57.3000;0.3272;7.3298;
57.6000;0.3280;7.3346;
57.9000;0.3232;7.3275;
58.2000;0.3256;7.3369;
58.5000;0.3240;7.3275;
58.8000;0.3248;7.3298;
59.1000;0.3248;7.3251;
59.4000;0.3256;7.3156;
59.7000;0.3272;7.3251;
60.0000;0.3264;7.3251;
60.3000;0.3256;7.3346;
60.6000;0.3305;7.3322;
60.9000;0.3264;7.3275;
61.2000;0.3264;7.3346;
61.5000;0.3240;7.3251;
61.8000;0.3256;7.3369;
62.1000;0.3272;7.3417;
62.4000;0.3272;7.3393;
62.7000;0.3280;7.3369;
63.0000;0.3256;7.3369;
63.3000;0.3256;7.3298;
63.6000;0.3248;7.3204;
63.9000;0.3240;7.3251;
64.2000;0.3264;7.3346;
64.5000;0.3215;7.3275;
64.8000;0.3256;7.3322;
65.1000;0.3256;7.3346;
65.4000;0.3207;7.3275;
65.7000;0.3256;7.3346;
66.0000;0.3264;7.3322;
66.3000;0.3264;7.3251;
66.6000;0.3256;7.3227;
66.9000;0.3240;7.3227;
67.2000;0.3264;7.3322;
67.5000;0.3264;7.3275;
67.8000;0.3297;7.3322;
68.1000;0.3256;7.3251;
68.4000;0.3272;7.3322;
68.7000;0.3280;7.3275;
69.0000;0.3280;7.3322;
69.3000;0.3256;7.3369;
69.6000;0.3264;7.3346;
69.9000;0.3272;7.3393;
70.2000;0.3272;7.3298;
70.5000;0.3321;7.3322;
70.8000;0.3313;7.3298;
71.1000;0.3272;7.3227;
71.4000;0.3272;7.3298;
71.7000;0.3101;7.3015;
72.0000;0.3272;7.3464;
72.3000;0.3232;7.3369;
72.6000;0.3256;7.3393;
72.9000;0.3272;7.3417;
73.2000;0.3256;7.3322;
73.5000;0.3329;7.3582;
73.8000;0.3272;7.3440;
74.1000;0.3280;7.3464;
74.4000;0.3264;7.3464;
74.7000;0.3280;7.3464;
75.0000;0.3240;7.3251;
75.3000;0.3264;7.3322;
75.6000;0.3272;7.3346;
75.9000;0.3264;7.3322;
76.2000;0.3248;7.3369;
76.5000;0.3280;7.3440;
76.8000;0.3272;7.3369;
77.1000;0.3264;7.3440;
77.4000;0.3305;7.3535;
77.7000;0.3256;7.3511;
78.0000;0.3264;7.3393;
78.3000;0.3256;7.3322;
78.6000;0.3272;7.3393;
78.9000;0.3280;7.3346;
79.2000;0.3280;7.3322;
79.5000;0.3280;7.3369;
79.8000;0.3256;7.3322;
80.1000;0.3337;7.3487;
80.4000;0.3264;7.3417;
80.7000;0.3264;7.3464;
81.0000;0.3264;7.3487;
81.3000;0.3248;7.3417;
81.6000;0.3248;7.3369;
81.9000;0.3264;7.3298;
82.2000;0.3256;7.3204;
82.5000;0.3280;7.3227;
82.8000;0.3264;7.3180;
83.1000;0.3289;7.3251;
83.4000;0.3264;7.3180;
83.7000;0.3272;7.3204;
84.0000;0.3264;7.3133;
84.3000;0.3272;7.3109;
84.6000;0.3264;7.3156;
84.9000;0.3280;7.3227;
85.2000;0.3329;7.3393;
85.5000;0.3329;7.3322;
85.8000;0.3256;7.3133;
86.1000;0.3256;7.3156;
86.4000;0.3207;7.2944;
86.7000;0.3280;7.3133;
87.0000;0.3272;7.3227;
87.3000;0.3256;7.3180;
87.6000;0.3248;7.3204;
87.9000;0.3313;7.3393;
88.2000;0.3264;7.3369;
88.5000;0.3256;7.3227;
88.8000;0.3272;7.3204;
89.1000;0.3264;7.3227;
89.4000;0.3264;7.3298;
89.7000;0.3272;7.3393;
90.0000;0.3280;7.3369;
90.3000;0.3280;7.3393;
90.6000;0.3264;7.3298;
90.9000;0.3297;7.3440;
91.2000;0.3256;7.3417;
91.5000;0.3240;7.3393;
91.8000;0.3272;7.3369;
92.1000;0.3272;7.3298;
92.4000;0.3232;7.3204;
92.7000;0.3280;7.3133;
93.0000;0.3272;7.3109;
93.3000;0.3256;7.3062;
93.6000;0.3313;7.3109;
93.9000;0.3280;7.3062;
94.2000;0.3305;7.3156;
94.5000;0.3272;7.3204;
94.8000;0.3272;7.3204;
95.1000;0.3256;7.3298;
95.4000;0.3313;7.3440;
95.7000;0.3272;7.3346;
96.0000;0.3264;7.3275;
96.3000;0.3280;7.3393;
96.6000;0.3272;7.3393;
96.9000;0.3280;7.3298;
97.2000;0.3248;7.3275;
97.5000;0.3272;7.3204;
97.8000;0.3272;7.3180;
98.1000;0.3329;7.3275;
98.4000;0.3272;7.3086;
98.7000;0.3272;7.3086;
99.0000;0.3272;7.3109;
99.3000;0.3207;7.3015;
99.6000;0.3256;7.3156;
99.9000;0.3272;7.3204;
100.2000;0.3280;7.3275;
100.5000;0.3256;7.3227;
100.8000;0.3289;7.3275;
101.1000;0.3264;7.3227;
101.4000;0.3240;7.3251;
101.7000;0.3264;7.3275;
102.0000;0.3264;7.3298;
102.3000;0.3280;7.3322;
102.6000;0.3248;7.3227;
102.9000;0.3264;7.3298;
103.2000;0.3280;7.3298;
103.5000;0.3256;7.3298;
103.8000;0.3272;7.3322;
104.1000;0.3264;7.3275;
104.4000;0.3232;7.3180;
104.7000;0.3280;7.3275;
105.0000;0.3264;7.3298;
105.3000;0.3240;7.3251;
105.6000;0.3256;7.3204;
105.9000;0.3264;7.3251;
106.2000;0.3289;7.3369;
106.5000;0.3272;7.3417;
106.8000;0.3256;7.3369;
107.1000;0.3321;7.3535;
107.4000;0.3248;7.3393;
107.7000;0.3272;7.3440;
108.0000;0.3264;7.3464;
108.3000;0.3256;7.3464;
108.6000;0.3232;7.3322;
108.9000;0.3248;7.3417;
109.2000;0.3313;7.3487;
109.5000;0.3272;7.3417;
109.8000;0.3280;7.3298;
110.1000;0.3280;7.3346;
110.4000;0.3280;7.3346;
110.7000;0.3256;7.3251;
111.0000;0.3240;7.3180;
111.3000;0.3272;7.3251;
111.6000;0.3272;7.3227;
111.9000;0.3272;7.3227;
112.2000;0.3272;7.3180;
112.5000;0.3240;7.3133;
112.8000;0.3248;7.3156;
113.1000;0.3272;7.3275;
113.4000;0.3280;7.3369;
113.7000;0.3256;7.3393;
114.0000;0.3386;7.3771;
114.3000;0.3280;7.3606;
114.6000;0.3256;7.3535;
114.9000;0.3272;7.3582;
115.2000;0.3280;7.3582;
115.5000;0.3264;7.3487;
115.8000;0.3289;7.3440;
116.1000;0.3256;7.3393;
116.4000;0.3289;7.3417;
116.7000;0.3248;7.3346;
117.0000;0.3264;7.3322;
117.3000;0.3256;7.3275;
117.6000;0.3248;7.3298;
117.9000;0.3378;7.3653;
118.2000;0.3272;7.3369;
118.5000;0.3272;7.3440;
118.8000;0.3264;7.3417;
119.1000;0.3289;7.3417;
119.4000;0.3248;7.3322;
119.7000;0.3305;7.3346;
120.0000;0.3264;7.3227;
120.3000;0.3264;7.3227;
120.6000;0.3272;7.3227;
120.9000;0.3264;7.3180;
121.2000;0.3199;7.3038;
121.5000;0.3232;7.3251;
121.8000;0.3264;7.3393;
122.1000;0.3248;7.3464;
122.4000;0.3280;7.3464;
122.7000;0.3305;7.3464;
123.0000;0.3272;7.3440;
123.3000;0.3297;7.3487;
123.6000;0.3256;7.3393;
123.9000;0.3264;7.3417;
124.2000;0.3280;7.3464;
124.5000;0.3264;7.3417;
124.8000;0.3289;7.3417;
125.1000;0.3240;7.3322;
125.4000;0.3264;7.3393;
125.7000;0.3232;7.3346;
126.0000;0.3272;7.3487;
126.3000;0.3297;7.3535;
126.6000;0.3313;7.3629;
126.9000;0.3264;7.3487;
127.2000;0.3256;7.3511;
127.5000;0.3264;7.3464;
127.8000;0.3289;7.3440;
128.1000;0.3272;7.3440;
128.4000;0.3272;7.3440;
128.7000;0.3264;7.3393;
129.0000;0.3256;7.3251;
129.3000;0.3256;7.3298;
129.6000;0.3297;7.3417;
129.9000;0.3280;7.3417;
130.2000;0.3313;7.3464;
130.5000;0.3264;7.3393;
130.8000;0.3223;7.3393;
131.1000;0.3248;7.3440;
131.4000;0.3256;7.3440;
131.7000;0.3256;7.3464;
132.0000;0.3264;7.3393;
132.3000;0.3272;7.3393;
132.6000;0.3248;7.3369;
132.9000;0.3256;7.3275;
133.2000;0.3256;7.3180;
133.5000;0.3248;7.3109;
133.8000;0.3272;7.3133;
134.1000;0.3264;7.3038;
134.4000;0.3280;7.3086;
134.7000;0.3280;7.3133;
135.0000;0.3215;7.2920;
135.3000;0.3289;7.3062;
135.6000;0.3280;7.3156;
135.9000;0.3289;7.3275;
136.2000;0.3264;7.3275;
136.5000;0.3264;7.3204;
136.8000;0.3272;7.3156;
137.1000;0.3272;7.3156;
137.4000;0.3272;7.3109;
137.7000;0.3272;7.3086;
138.0000;0.3264;7.3062;
138.3000;0.3248;7.2991;
138.6000;0.3297;7.3086;
138.9000;0.3289;7.3062;
139.2000;0.3280;7.3133;
139.5000;0.3289;7.3086;
139.8000;0.3248;7.3015;
140.1000;0.3280;7.3086;
140.4000;0.3297;7.3086;
140.7000;0.3289;7.3133;
141.0000;0.3280;7.3180;
141.3000;0.3256;7.3227;
141.6000;0.3223;7.3180;
141.9000;0.3191;7.3156;
142.2000;0.3272;7.3393;
142.5000;0.3158;7.2991;
142.8000;0.3264;7.3251;
143.1000;0.3256;7.3322;
143.4000;0.3240;7.3180;
143.7000;0.3264;7.3086;
144.0000;0.3264;7.3133;
144.3000;0.3264;7.3156;
144.6000;0.3280;7.3156;
144.9000;0.3272;7.3086;
145.2000;0.3256;7.3062;
145.5000;0.3248;7.3086;
145.8000;0.3264;7.3275;
146.1000;0.3280;7.3346;
146.4000;0.3289;7.3298;
146.7000;0.3280;7.3346;
147.0000;0.3264;7.3322;
147.3000;0.3248;7.3251;
147.6000;0.3256;7.3346;
147.9000;0.3264;7.3393;
148.2000;0.3264;7.3369;
148.5000;0.3280;7.3322;
148.8000;0.3297;7.3275;
149.1000;0.3272;7.3204;
149.4000;0.3191;7.3062;
149.7000;0.3272;7.3251;
150.0000;0.3289;7.3251;
150.3000;0.3272;7.3204;
150.6000;0.3272;7.3227;
150.9000;0.3256;7.3204;
151.2000;0.3272;7.3133;
151.5000;0.3280;7.2991;
151.8000;0.3280;7.3015;
152.1000;0.3264;7.3062;
152.4000;0.3240;7.3086;
152.7000;0.3248;7.3204;
153.0000;0.3264;7.3133;
153.3000;0.3256;7.3133;
153.6000;0.3272;7.3109;
153.9000;0.3280;7.3180;
154.2000;0.3289;7.3251;
154.5000;0.3272;7.3275;
154.8000;0.3264;7.3322;
155.1000;0.3280;7.3275;
155.4000;0.3272;7.3275;
155.7000;0.3272;7.3227;
156.0000;0.3232;7.3109;
156.3000;0.3280;7.3251;
156.6000;0.3305;7.3346;
156.9000;0.3272;7.3275;
157.2000;0.3264;7.3251;
157.5000;0.3264;7.3180;
157.8000;0.3240;7.3038;
158.1000;0.3272;7.3133;
158.4000;0.3264;7.3227;
158.7000;0.3280;7.3369;
159.0000;0.3289;7.3298;
159.3000;0.3280;7.3251;
159.6000;0.3256;7.3227;
159.9000;0.3248;7.3251;
160.2000;0.3280;7.3298;
160.5000;0.3256;7.3298;
160.8000;0.3272;7.3204;
161.1000;0.3264;7.3251;
161.4000;0.3280;7.3251;
161.7000;0.3305;7.3298;
162.0000;0.3240;7.3227;
162.3000;0.3240;7.3133;
162.6000;0.3232;7.3038;
162.9000;0.3256;7.3156;
163.2000;0.3264;7.3180;
163.5000;0.3313;7.3298;
163.8000;0.3297;7.3369;
164.1000;0.3272;7.3275;
164.4000;0.3256;7.3346;
164.7000;0.3248;7.3275;
165.0000;0.3272;7.3322;
165.3000;0.3272;7.3204;
165.6000;0.3207;7.3015;
165.9000;0.3264;7.3086;
166.2000;0.3264;7.3086;
166.5000;0.3272;7.3086;
166.8000;0.3321;7.3109;
167.1000;0.3264;7.2920;
167.4000;0.3272;7.3062;
167.7000;0.3272;7.3086;
168.0000;0.3264;7.3180;
168.3000;0.3248;7.3133;
168.6000;0.3223;7.3133;
168.9000;0.3256;7.3109;
169.2000;0.3264;7.3086;
169.5000;0.3248;7.3038;
169.8000;0.3280;7.3109;
170.1000;0.3280;7.3133;
170.4000;0.3256;7.3086;
170.7000;0.3272;7.3133;
171.0000;0.3272;7.3062;
171.3000;0.3272;7.3038;
171.6000;0.3280;7.3109;
171.9000;0.3272;7.3133;
172.2000;0.3240;7.3062;
172.5000;0.3264;7.3180;
172.8000;0.3272;7.3204;
173.1000;0.3272;7.3227;
173.4000;0.3256;7.3156;
173.7000;0.3264;7.3180;
174.0000;0.3280;7.3133;
174.3000;0.3272;7.3133;
174.6000;0.3264;7.3062;
174.9000;0.3280;7.3180;
175.2000;0.3280;7.3204;
175.5000;0.3280;7.3275;
175.8000;0.3256;7.3180;
176.1000;0.3232;7.3180;
176.4000;0.3248;7.3180;
176.7000;0.3272;7.3322;
177.0000;0.3264;7.3180;
177.3000;0.3248;7.3062;
177.6000;0.3264;7.3109;
177.9000;0.3264;7.2944;
178.2000;0.3272;7.2944;
178.5000;0.3248;7.2826;
178.8000;0.3256;7.2944;
179.1000;0.3289;7.2991;
179.4000;0.3240;7.3038;
179.7000;0.3280;7.3251;
180.0000;0.3232;7.3086;
180.3000;0.3264;7.3038;
180.6000;0.3280;7.3156;
180.9000;0.3272;7.3086;
181.2000;0.3280;7.3133;
181.5000;0.3199;7.2944;
181.8000;0.3272;7.3015;
182.1000;0.3272;7.3062;
182.4000;0.3280;7.3109;
182.7000;0.3297;7.3180;
183.0000;0.3272;7.3109;
183.3000;0.3264;7.3109;
183.6000;0.3264;7.3109;
183.9000;0.3256;7.3133;
184.2000;0.3272;7.3109;
184.5000;0.3264;7.3133;
184.8000;0.3264;7.3204;
185.1000;0.3272;7.3227;
185.4000;0.3280;7.3322;
185.7000;0.3264;7.3227;
186.0000;0.3280;7.3322;
186.3000;0.3280;7.3322;
186.6000;0.3329;7.3440;
186.9000;0.3272;7.3227;
187.2000;0.3264;7.3275;
187.5000;0.3248;7.3204;
187.8000;0.3240;7.3275;
188.1000;0.3305;7.3417;
188.4000;0.3264;7.3322;
188.7000;0.3280;7.3227;
189.0000;0.3248;7.3156;
189.3000;0.3256;7.3133;
189.6000;0.3272;7.3038;
189.9000;0.3256;7.3038;
190.2000;0.3272;7.3109;
190.5000;0.3264;7.3086;
190.8000;0.3280;7.3204;
191.1000;0.3280;7.3275;
191.4000;0.3280;7.3251;
191.7000;0.3289;7.3275;
192.0000;0.3337;7.3346;
192.3000;0.3313;7.3251;
192.6000;0.3313;7.3275;
192.9000;0.3264;7.3180;
193.2000;0.3280;7.3180;
193.5000;0.3272;7.3227;
193.8000;0.3272;7.3322;
194.1000;0.3272;7.3251;
194.4000;0.3256;7.3251;
194.7000;0.3280;7.3251;
195.0000;0.3289;7.3180;
195.3000;0.3256;7.3156;
195.6000;0.3256;7.3204;
195.9000;0.3272;7.3298;
196.2000;0.3264;7.3227;
196.5000;0.3256;7.3156;
196.8000;0.3280;7.3156;
197.1000;0.3272;7.3180;
197.4000;0.3256;7.3180;
197.7000;0.3264;7.3180;
198.0000;0.3264;7.3275;
198.3000;0.3280;7.3322;
198.6000;0.3232;7.3275;
198.9000;0.3289;7.3346;
199.2000;0.3248;7.3298;
199.5000;0.3272;7.3369;
199.8000;0.3280;7.3369;
200.1000;0.3223;7.3251;
200.4000;0.3321;7.3440;
200.7000;0.3272;7.3393;
201.0000;0.3223;7.3251;
201.3000;0.3297;7.3346;
201.6000;0.3215;7.3156;
201.9000;0.3223;7.3227;
202.2000;0.3264;7.3227;
202.5000;0.3272;7.3204;
202.8000;0.3280;7.3133;
203.1000;0.3272;7.3156;
203.4000;0.3272;7.3109;
203.7000;0.3289;7.3275;
204.0000;0.3264;7.3204;
204.3000;0.3280;7.3204;
204.6000;0.3280;7.3227;
204.9000;0.3305;7.3298;
205.2000;0.3272;7.3275;
205.5000;0.3280;7.3393;
205.8000;0.3289;7.3487;
206.1000;0.3280;7.3417;
206.4000;0.3248;7.3417;
206.7000;0.3280;7.3535;
207.0000;0.3264;7.3558;
207.3000;0.3272;7.3535;
207.6000;0.3280;7.3440;
207.9000;0.3272;7.3369;
208.2000;0.3289;7.3393;
208.5000;0.3297;7.3346;
208.8000;0.3289;7.3275;
209.1000;0.3272;7.3251;
209.4000;0.3256;7.3227;
209.7000;0.3305;7.3369;
210.0000;0.3280;7.3417;
210.3000;0.3272;7.3417;
210.6000;0.3289;7.3417;
210.9000;0.3305;7.3369;
211.2000;0.3280;7.3322;
211.5000;0.3280;7.3298;
211.8000;0.3272;7.3322;
212.1000;0.3264;7.3227;
212.4000;0.3272;7.3227;
212.7000;0.3264;7.3204;
213.0000;0.3264;7.3133;
213.3000;0.3272;7.3109;
213.6000;0.3313;7.3204;
213.9000;0.3256;7.3015;
214.2000;0.3297;7.3204;
214.5000;0.3264;7.3251;
214.8000;0.3305;7.3227;
215.1000;0.3280;7.3156;
215.4000;0.3248;7.2991;
215.7000;0.3280;7.3086;
216.0000;0.3207;7.2920;
216.3000;0.3264;7.3062;
216.6000;0.3280;7.3133;
216.9000;0.3321;7.3251;
217.2000;0.3175;7.2967;
217.5000;0.3280;7.3109;
217.8000;0.3264;7.3133;
218.1000;0.3280;7.3251;
218.4000;0.3289;7.3275;
218.7000;0.3240;7.3227;
219.0000;0.3256;7.3204;
219.3000;0.3232;7.3156;
219.6000;0.3256;7.3086;
219.9000;0.3280;7.3156;
220.2000;0.3362;7.3346;
220.5000;0.3207;7.3015;
220.8000;0.3272;7.3251;
221.1000;0.3280;7.3417;
221.4000;0.3321;7.3558;
221.7000;0.3248;7.3275;
222.0000;0.3240;7.3298;
222.3000;0.3232;7.3180;
222.6000;0.3297;7.3346;
222.9000;0.3264;7.3275;
223.2000;0.3313;7.3322;
223.5000;0.3280;7.3251;
223.8000;0.3248;7.3156;
224.1000;0.3280;7.3251;
224.4000;0.3248;7.3109;
224.7000;0.3272;7.3180;
225.0000;0.3289;7.3251;
225.3000;0.3240;7.3227;
225.6000;0.3272;7.3251;
225.9000;0.3272;7.3109;
226.2000;0.3289;7.3133;
226.5000;0.3280;7.3204;
226.8000;0.3280;7.3180;
227.1000;0.3321;7.3275;
227.4000;0.3289;7.3180;
227.7000;0.3256;7.3109;
228.0000;0.3272;7.3180;
228.3000;0.3272;7.3109;
228.6000;0.3256;7.3227;
228.9000;0.3280;7.3275;
229.2000;0.3280;7.3298;
229.5000;0.3313;7.3369;
229.8000;0.3248;7.3251;
230.1000;0.3289;7.3393;
230.4000;0.3289;7.3417;
230.7000;0.3272;7.3346;
231.0000;0.3223;7.3251;
231.3000;0.3264;7.3298;
231.6000;0.3280;7.3275;
231.9000;0.3256;7.3298;
232.2000;0.3256;7.3369;
232.5000;0.3248;7.3346;
232.8000;0.3256;7.3346;
233.1000;0.3321;7.3487;
233.4000;0.3272;7.3275;
233.7000;0.3297;7.3487;
234.0000;0.3264;7.3535;
234.3000;0.3248;7.3487;
234.6000;0.3232;7.3558;
234.9000;0.3264;7.3535;
235.2000;0.3240;7.3440;
235.5000;0.3264;7.3393;
235.8000;0.3280;7.3346;
236.1000;0.3240;7.3156;
236.4000;0.3199;7.3038;
236.7000;0.3329;7.3298;
237.0000;0.3272;7.3180;
237.3000;0.3272;7.3086;
237.6000;0.3248;7.3038;
237.9000;0.3232;7.3015;
238.2000;0.3346;7.3464;
238.5000;0.3272;7.3275;
238.8000;0.3297;7.3346;
239.1000;0.3256;7.3346;
239.4000;0.3297;7.3440;
239.7000;0.3256;7.3322;
240.0000;0.3264;7.3322;
240.3000;0.3256;7.3227;
240.6000;0.3256;7.3275;
240.9000;0.3280;7.3298;
241.2000;0.3272;7.3369;
241.5000;0.3337;7.3535;
241.8000;0.3321;7.3464;
242.1000;0.3280;7.3322;
242.4000;0.3305;7.3346;
242.7000;0.3289;7.3227;
243.0000;0.3272;7.3180;
243.3000;0.3297;7.3180;
243.6000;0.3248;7.3156;
243.9000;0.3289;7.3298;
244.2000;0.3272;7.3346;
244.5000;0.3264;7.3369;
244.8000;0.3207;7.3156;
245.1000;0.3264;7.3298;
245.4000;0.3272;7.3275;
245.7000;0.3280;7.3251;
246.0000;0.3215;7.3086;
246.3000;0.3264;7.3227;
246.6000;0.3240;7.3204;
246.9000;0.3272;7.3180;
247.2000;0.3248;7.3038;
247.5000;0.3256;7.2967;
247.8000;0.3280;7.2967;
248.1000;0.3264;7.2920;
248.4000;0.3240;7.2944;
248.7000;0.3337;7.3227;
249.0000;0.3264;7.3251;
249.3000;0.3264;7.3322;
249.6000;0.3272;7.3393;
249.9000;0.3272;7.3440;
250.2000;0.3264;7.3417;
250.5000;0.3191;7.3156;
250.8000;0.3256;7.3251;
251.1000;0.3289;7.3298;
251.4000;0.3272;7.3227;
251.7000;0.3280;7.3180;
252.0000;0.3272;7.3204;
252.3000;0.3280;7.3227;
252.6000;0.3256;7.3204;
252.9000;0.3256;7.3251;
253.2000;0.3248;7.3251;
253.5000;0.3248;7.3251;
253.8000;0.3272;7.3298;
254.1000;0.3232;7.3156;
254.4000;0.3272;7.3227;
254.7000;0.3289;7.3298;
255.0000;0.3256;7.3156;
255.3000;0.3272;7.3227;
255.6000;0.3240;7.3109;
255.9000;0.3248;7.3038;
256.2000;0.3280;7.3133;
256.5000;0.3248;7.3038;
256.8000;0.3240;7.3086;
257.1000;0.3280;7.3251;
257.4000;0.3264;7.3109;
257.7000;0.3215;7.2967;
258.0000;0.3248;7.3086;
258.3000;0.3272;7.3156;
258.6000;0.3256;7.3133;
258.9000;0.3248;7.3086;
259.2000;0.3272;7.3227;
259.5000;0.3256;7.3275;
259.8000;0.3264;7.3227;
260.1000;0.3264;7.3227;
260.4000;0.3321;7.3464;
260.7000;0.3280;7.3369;
261.0000;0.3272;7.3322;
261.3000;0.3280;7.3251;
261.6000;0.3264;7.3251;
261.9000;0.3297;7.3298;
262.2000;0.3215;7.3227;
262.5000;0.3272;7.3369;
262.8000;0.3256;7.3275;
263.1000;0.3280;7.3322;
263.4000;0.3215;7.3156;
263.7000;0.3280;7.3180;
264.0000;0.3272;7.3156;
264.3000;0.3264;7.3109;
264.6000;0.3272;7.3156;
264.9000;0.3297;7.3180;
265.2000;0.3272;7.3227;
265.5000;0.3289;7.3298;
265.8000;0.3289;7.3227;
266.1000;0.3272;7.3109;
266.4000;0.3264;7.3204;
266.7000;0.3264;7.3227;
267.0000;0.3321;7.3369;
267.3000;0.3272;7.3298;
267.6000;0.3256;7.3251;
267.9000;0.3272;7.3275;
268.2000;0.3264;7.3369;
268.5000;0.3256;7.3464;
268.8000;0.3248;7.3298;
269.1000;0.3264;7.3393;
269.4000;0.3240;7.3393;
269.7000;0.3248;7.3322;
270.0000;0.3264;7.3322;
270.3000;0.3248;7.3346;
270.6000;0.3256;7.3417;
270.9000;0.3289;7.3393;
271.2000;0.3280;7.3346;
271.5000;0.3256;7.3227;
271.8000;0.3272;7.3275;
272.1000;0.3280;7.3298;
272.4000;0.3264;7.3298;
272.7000;0.3264;7.3204;
273.0000;0.3264;7.3109;
273.3000;0.3256;7.3133;
273.6000;0.3297;7.3180;
273.9000;0.3256;7.3133;
274.2000;0.3280;7.3204;
274.5000;0.3297;7.3227;
274.8000;0.3272;7.3227;
275.1000;0.3280;7.3298;
275.4000;0.3264;7.3275;
275.7000;0.3256;7.3227;
276.0000;0.3280;7.3275;
276.3000;0.3264;7.3156;
276.6000;0.3264;7.3109;
276.9000;0.3289;7.3204;
277.2000;0.3264;7.3227;
277.5000;0.3305;7.3369;
277.8000;0.3256;7.3369;
278.1000;0.3256;7.3393;
278.4000;0.3272;7.3369;
278.7000;0.3223;7.3251;
279.0000;0.3240;7.3322;
279.3000;0.3264;7.3346;
279.6000;0.3272;7.3346;
279.9000;0.3280;7.3417;
280.2000;0.3272;7.3322;
280.5000;0.3248;7.3251;
280.8000;0.3256;7.3298;
281.1000;0.3264;7.3464;
281.4000;0.3297;7.3417;
281.7000;0.3199;7.3062;
282.0000;0.3264;7.3251;
282.3000;0.3280;7.3251;
282.6000;0.3223;7.3109;
282.9000;0.3256;7.3156;
283.2000;0.3248;7.3156;
283.5000;0.3272;7.3251;
283.8000;0.3280;7.3227;
284.1000;0.3248;7.3227;
284.4000;0.3264;7.3298;
284.7000;0.3232;7.3227;
285.0000;0.3337;7.3440;
285.3000;0.3256;7.3251;
285.6000;0.3248;7.3204;
285.9000;0.3256;7.3251;
286.2000;0.3215;7.3062;
286.5000;0.3232;7.3086;
286.8000;0.3256;7.3156;
287.1000;0.3280;7.3204;
287.4000;0.3272;7.3180;
287.7000;0.3264;7.3227;
288.0000;0.3272;7.3133;
288.3000;0.3256;7.3109;
288.6000;0.3264;7.3086;
288.9000;0.3264;7.3133;
289.2000;0.3264;7.3227;
289.5000;0.3256;7.3275;
289.8000;0.3289;7.3417;
290.1000;0.3264;7.3393;
290.4000;0.3264;7.3369;
290.7000;0.3289;7.3322;
291.0000;0.3264;7.3251;
291.3000;0.3289;7.3346;
291.6000;0.3256;7.3298;
291.9000;0.3289;7.3369;
292.2000;0.3272;7.3369;
292.5000;0.3297;7.3440;
292.8000;0.3272;7.3417;
293.1000;0.3264;7.3369;
293.4000;0.3264;7.3369;
293.7000;0.3264;7.3346;
294.0000;0.3256;7.3275;
294.3000;0.3256;7.3275;
294.6000;0.3264;7.3227;
294.9000;0.3289;7.3133;
295.2000;0.3264;7.3109;
295.5000;0.3264;7.3062;
295.8000;0.3256;7.3038;
296.1000;0.3248;7.3062;
296.4000;0.3264;7.3109;
296.7000;0.3272;7.3133;
297.0000;0.3272;7.3156;
297.3000;0.3264;7.3180;
297.6000;0.3297;7.3251;
297.9000;0.3264;7.3251;
298.2000;0.3272;7.3298;
298.5000;0.3215;7.3180;
298.8000;0.3272;7.3204;
299.1000;0.3264;7.3227;
299.4000;0.3264;7.3156;
299.7000;0.3272;7.3227;
300.0000;0.3264;7.3180;
300.3000;0.3264;7.3180;
300.6000;0.3256;7.3156;
300.9000;0.3207;7.3109;
301.2000;0.3280;7.3275;
301.5000;0.3289;7.3227;
301.8000;0.3264;7.3227;
302.1000;0.3272;7.3204;
302.4000;0.3256;7.3227;
302.7000;0.3280;7.3275;
303.0000;0.3199;7.3180;
303.3000;0.3256;7.3393;
303.6000;0.3280;7.3464;
303.9000;0.3215;7.3275;
304.2000;0.3256;7.3275;
304.5000;0.3272;7.3227;
304.8000;0.3256;7.3180;
305.1000;0.3321;7.3251;
305.4000;0.3280;7.3109;
305.7000;0.3264;7.3038;
306.0000;0.3280;7.3180;
306.3000;0.3297;7.3275;
306.6000;0.3289;7.3204;
306.9000;0.3256;7.3086;
307.2000;0.3264;7.3062;
307.5000;0.3297;7.3109;
307.8000;0.3272;7.3062;
308.1000;0.3264;7.2967;
308.4000;0.3289;7.2967;
308.7000;0.3223;7.2802;
309.0000;0.3280;7.2991;
309.3000;0.3272;7.3038;
309.6000;0.3264;7.3086;
309.9000;0.3272;7.3156;
310.2000;0.3289;7.3180;
310.5000;0.3272;7.3204;
310.8000;0.3256;7.3156;
311.1000;0.3256;7.3204;
311.4000;0.3272;7.3298;
311.7000;0.3272;7.3417;
312.0000;0.3256;7.3417;
312.3000;0.3256;7.3440;
312.6000;0.3264;7.3440;
312.9000;0.3256;7.3440;
313.2000;0.3280;7.3393;
313.5000;0.3264;7.3322;
313.8000;0.3248;7.3251;
314.1000;0.3280;7.3369;
314.4000;0.3215;7.3204;
314.7000;0.3240;7.3369;
315.0000;0.3264;7.3393;
315.3000;0.3272;7.3369;
315.6000;0.3272;7.3298;
315.9000;0.3297;7.3275;
316.2000;0.3256;7.3204;
316.5000;0.3240;7.3180;
316.8000;0.3305;7.3346;
317.1000;0.3256;7.3156;
317.4000;0.3232;7.3109;
317.7000;0.3264;7.3156;
318.0000;0.3248;7.3062;
318.3000;0.3272;7.3062;
318.6000;0.3256;7.3038;
318.9000;0.3264;7.3251;
319.2000;0.3289;7.3298;
319.5000;0.3305;7.3275;
319.8000;0.3297;7.3275;
320.1000;0.3280;7.3275;
320.4000;0.3280;7.3322;
320.7000;0.3289;7.3322;
321.0000;0.3256;7.3204;
321.3000;0.3264;7.3227;
321.6000;0.3232;7.3109;
321.9000;0.3264;7.3204;
322.2000;0.3264;7.3251;
322.5000;0.3329;7.3511;
322.8000;0.3272;7.3417;
323.1000;0.3264;7.3393;
323.4000;0.3272;7.3322;
323.7000;0.3272;7.3322;
324.0000;0.3289;7.3417;
324.3000;0.3248;7.3275;
324.6000;0.3256;7.3298;
324.9000;0.3248;7.3251;
325.2000;0.3256;7.3322;
325.5000;0.3289;7.3251;
325.8000;0.3321;7.3346;
326.1000;0.3272;7.3275;
326.4000;0.3264;7.3369;
326.7000;0.3272;7.3369;
327.0000;0.3354;7.3511;
327.3000;0.3240;7.3251;
327.6000;0.3264;7.3298;
327.9000;0.3223;7.3298;
328.2000;0.3264;7.3511;
328.5000;0.3272;7.3535;
328.8000;0.3272;7.3464;
329.1000;0.3264;7.3393;
329.4000;0.3305;7.3487;
329.7000;0.3272;7.3417;
330.0000;0.3280;7.3417;
330.3000;0.3264;7.3369;
330.6000;0.3305;7.3440;
330.9000;0.3289;7.3369;
331.2000;0.3240;7.3156;
331.5000;0.3264;7.3204;
331.8000;0.3256;7.3133;
332.1000;0.3264;7.3062;
332.4000;0.3280;7.3038;
332.7000;0.3256;7.2920;
333.0000;0.3272;7.2896;
333.3000;0.3240;7.2920;
333.6000;0.3256;7.3015;
333.9000;0.3256;7.3038;
334.2000;0.3207;7.2873;
334.5000;0.3280;7.3109;
334.8000;0.3256;7.3086;
335.1000;0.3240;7.3086;
335.4000;0.3337;7.3393;
335.7000;0.3280;7.3298;
336.0000;0.3272;7.3346;
336.3000;0.3264;7.3393;
336.6000;0.3280;7.3417;
336.9000;0.3305;7.3440;
337.2000;0.3272;7.3369;
337.5000;0.3264;7.3346;
337.8000;0.3272;7.3369;
338.1000;0.3272;7.3322;
338.4000;0.3272;7.3346;
338.7000;0.3264;7.3322;
339.0000;0.3248;7.3227;
339.3000;0.3280;7.3251;
339.6000;0.3264;7.3251;
339.9000;0.3297;7.3346;
340.2000;0.3256;7.3322;
340.5000;0.3354;7.3582;
340.8000;0.3264;7.3298;
341.1000;0.3264;7.3346;
341.4000;0.3264;7.3322;
341.7000;0.3272;7.3275;
342.0000;0.3280;7.3275;
342.3000;0.3289;7.3346;
342.6000;0.3256;7.3322;
342.9000;0.3272;7.3322;
343.2000;0.3289;7.3346;
343.5000;0.3280;7.3298;
343.8000;0.3346;7.3535;
344.1000;0.3256;7.3346;
344.4000;0.3280;7.3369;
344.7000;0.3272;7.3346;
345.0000;0.3305;7.3417;
345.3000;0.3272;7.3369;
345.6000;0.3280;7.3464;
345.9000;0.3256;7.3487;
346.2000;0.3256;7.3464;
346.5000;0.3272;7.3369;
346.8000;0.3248;7.3298;
347.1000;0.3240;7.3298;
347.4000;0.3248;7.3346;
347.7000;0.3264;7.3346;
348.0000;0.3264;7.3275;
348.3000;0.3240;7.3180;
348.6000;0.3329;7.3393;
348.9000;0.3272;7.3251;
349.2000;0.3207;7.3062;
349.5000;0.3256;7.3251;
349.8000;0.3280;7.3346;
350.1000;0.3297;7.3393;
350.4000;0.3256;7.3322;
350.7000;0.3280;7.3464;
351.0000;0.3321;7.3511;
351.3000;0.3272;7.3369;
351.6000;0.3305;7.3440;
351.9000;0.3256;7.3369;
352.2000;0.3280;7.3346;
352.5000;0.3240;7.3251;
352.8000;0.3264;7.3251;
353.1000;0.3289;7.3275;
353.4000;0.3256;7.3227;
353.7000;0.3280;7.3204;
354.0000;0.3248;7.3086;
354.3000;0.3272;7.3062;
354.6000;0.3248;7.3038;
354.9000;0.3272;7.3109;
355.2000;0.3199;7.2944;
355.5000;0.3256;7.3180;
355.8000;0.3272;7.3227;
356.1000;0.3223;7.3086;
356.4000;0.3272;7.3251;
356.7000;0.3264;7.3086;
357.0000;0.3272;7.3038;
357.3000;0.3272;7.3062;
357.6000;0.3272;7.3156;
357.9000;0.3264;7.3038;
358.2000;0.3264;7.3062;
358.5000;0.3305;7.3204;
358.8000;0.3264;7.3086;
359.1000;0.3280;7.3204;
359.4000;0.3248;7.3015;
359.7000;0.3256;7.3133;
360.0000;0.3272;7.3275;
360.3000;0.3329;7.3464;
360.6000;0.3272;7.3369;
360.9000;0.3272;7.3417;
361.2000;0.3272;7.3346;
361.5000;0.3256;7.3227;
361.8000;0.3256;7.3227;
362.1000;0.3329;7.3417;
362.4000;0.3264;7.3204;
362.7000;0.3264;7.3298;
363.0000;0.3321;7.3417;
363.3000;0.3240;7.3251;
363.6000;0.3240;7.3251;
363.9000;0.3264;7.3417;
364.2000;0.3248;7.3393;
364.5000;0.3248;7.3369;
364.8000;0.3248;7.3322;
365.1000;0.3232;7.3298;
365.4000;0.3264;7.3298;
365.7000;0.3215;7.3109;
366.0000;0.3280;7.3251;
366.3000;0.3280;7.3275;
366.6000;0.3280;7.3298;
366.9000;0.3232;7.3180;
367.2000;0.3264;7.3322;
367.5000;0.3305;7.3393;
367.8000;0.3272;7.3346;
368.1000;0.3280;7.3251;
368.4000;0.3272;7.3204;
368.7000;0.3248;7.3180;
369.0000;0.3264;7.3275;
369.3000;0.3289;7.3275;
369.6000;0.3329;7.3369;
369.9000;0.3248;7.3180;
370.2000;0.3280;7.3204;
370.5000;0.3272;7.3180;
370.8000;0.3264;7.3251;
371.1000;0.3346;7.3464;
371.4000;0.3313;7.3393;
371.7000;0.3289;7.3369;
372.0000;0.3321;7.3558;
372.3000;0.3264;7.3417;
372.6000;0.3256;7.3393;
372.9000;0.3272;7.3440;
373.2000;0.3280;7.3487;
373.5000;0.3280;7.3440;
373.8000;0.3264;7.3393;
374.1000;0.3272;7.3535;
374.4000;0.3280;7.3511;
374.7000;0.3264;7.3464;
375.0000;0.3272;7.3511;
375.3000;0.3305;7.3606;
375.6000;0.3215;7.3275;
375.9000;0.3264;7.3346;
376.2000;0.3264;7.3275;
376.5000;0.3264;7.3275;
376.8000;0.3248;7.3275;
377.1000;0.3256;7.3346;
377.4000;0.3240;7.3322;
377.7000;0.3346;7.3606;
378.0000;0.3264;7.3464;
378.3000;0.3305;7.3464;
378.6000;0.3272;7.3417;
378.9000;0.3280;7.3298;
379.2000;0.3256;7.3227;
379.5000;0.3280;7.3275;
379.8000;0.3264;7.3322;
380.1000;0.3272;7.3298;
380.4000;0.3272;7.3346;
380.7000;0.3232;7.3275;
381.0000;0.3256;7.3322;
381.3000;0.3264;7.3393;
381.6000;0.3264;7.3346;
381.9000;0.3297;7.3417;
382.2000;0.3264;7.3322;
382.5000;0.3264;7.3322;
382.8000;0.3272;7.3275;
383.1000;0.3264;7.3275;
383.4000;0.3264;7.3156;
383.7000;0.3256;7.3133;
384.0000;0.3264;7.3204;
384.3000;0.3280;7.3298;
384.6000;0.3248;7.3251;
384.9000;0.3240;7.3275;
385.2000;0.3264;7.3393;
385.5000;0.3313;7.3346;
385.8000;0.3232;7.3133;
386.1000;0.3248;7.3156;
386.4000;0.3256;7.3275;
386.7000;0.3256;7.3204;
387.0000;0.3280;7.3227;
387.3000;0.3289;7.3251;
387.6000;0.3248;7.3227;
387.9000;0.3272;7.3251;
388.2000;0.3223;7.3156;
388.5000;0.3232;7.3180;
388.8000;0.3256;7.3275;
389.1000;0.3256;7.3322;
389.4000;0.3264;7.3369;
389.7000;0.3354;7.3653;
390.0000;0.3280;7.3511;
390.3000;0.3256;7.3535;
390.6000;0.3232;7.3487;
390.9000;0.3256;7.3558;
391.2000;0.3215;7.3369;
391.5000;0.3272;7.3464;
391.8000;0.3272;7.3417;
392.1000;0.3256;7.3393;
392.4000;0.3272;7.3487;
392.7000;0.3256;7.3464;
393.0000;0.3280;7.3487;
393.3000;0.3248;7.3440;
393.6000;0.3256;7.3464;
393.9000;0.3280;7.3511;
394.2000;0.3280;7.3535;
394.5000;0.3297;7.3606;
394.8000;0.3289;7.3582;
395.1000;0.3248;7.3464;
395.4000;0.3264;7.3369;
395.7000;0.3264;7.3298;
396.0000;0.3264;7.3322;
396.3000;0.3256;7.3322;
396.6000;0.3272;7.3322;
396.9000;0.3264;7.3346;
397.2000;0.3264;7.3346;
397.5000;0.3272;7.3251;
397.8000;0.3232;7.3133;
398.1000;0.3272;7.3133;
398.4000;0.3240;7.3086;
398.7000;0.3256;7.3227;
399.0000;0.3256;7.3298;
399.3000;0.3264;7.3251;
399.6000;0.3264;7.3275;
399.9000;0.3272;7.3227;
400.2000;0.3256;7.3227;
400.5000;0.3264;7.3346;
400.8000;0.3248;7.3346;
401.1000;0.3248;7.3275;
401.4000;0.3272;7.3275;
401.7000;0.3280;7.3298;
402.0000;0.3280;7.3346;
402.3000;0.3256;7.3369;
402.6000;0.3256;7.3346;
402.9000;0.3272;7.3369;
403.2000;0.3321;7.3464;
403.5000;0.3256;7.3298;
403.8000;0.3248;7.3204;
404.1000;0.3272;7.3251;
404.4000;0.3256;7.3156;
404.7000;0.3264;7.3180;
405.0000;0.3313;7.3298;
405.3000;0.3264;7.3275;
405.6000;0.3256;7.3251;
405.9000;0.3256;7.3251;
406.2000;0.3248;7.3227;
406.5000;0.3248;7.3251;
406.8000;0.3272;7.3251;
407.1000;0.3272;7.3180;
407.4000;0.3272;7.3204;
407.7000;0.3264;7.3180;
408.0000;0.3297;7.3346;
408.3000;0.3256;7.3346;
408.6000;0.3256;7.3369;
408.9000;0.3240;7.3346;
409.2000;0.3272;7.3346;
409.5000;0.3272;7.3275;
409.8000;0.3248;7.3204;
410.1000;0.3272;7.3204;
410.4000;0.3264;7.3180;
410.7000;0.3256;7.3086;
411.0000;0.3264;7.3109;
411.3000;0.3256;7.3086;
411.6000;0.3215;7.2967;
411.9000;0.3280;7.3086;
412.2000;0.3272;7.3086;
412.5000;0.3280;7.3227;
412.8000;0.3272;7.3298;
413.1000;0.3264;7.3180;
413.4000;0.3321;7.3251;
413.7000;0.3329;7.3322;
414.0000;0.3370;7.3440;
414.3000;0.3264;7.3251;
414.6000;0.3354;7.3582;
414.9000;0.3264;7.3275;
415.2000;0.3272;7.3275;
415.5000;0.3297;7.3322;
415.8000;0.3329;7.3346;
416.1000;0.3272;7.3109;
416.4000;0.3264;7.3133;
416.7000;0.3256;7.3180;
417.0000;0.3280;7.3251;
417.3000;0.3256;7.3180;
417.6000;0.3264;7.3275;
417.9000;0.3223;7.3156;
418.2000;0.3256;7.3275;
418.5000;0.3280;7.3275;
418.8000;0.3264;7.3086;
419.1000;0.3256;7.3086;
419.4000;0.3256;7.3038;
419.7000;0.3256;7.3062;
420.0000;0.3248;7.3109;
420.3000;0.3248;7.3109;
420.6000;0.3272;7.3133;
420.9000;0.3280;7.3109;
421.2000;0.3313;7.3227;
421.5000;0.3264;7.3038;
421.8000;0.3199;7.2826;
422.1000;0.3264;7.2944;
422.4000;0.3264;7.3015;
422.7000;0.3248;7.2991;
423.0000;0.3264;7.2967;
423.3000;0.3256;7.3109;
423.6000;0.3297;7.3204;
423.9000;0.3272;7.3298;
424.2000;0.3264;7.3275;
424.5000;0.3272;7.3251;
424.8000;0.3272;7.3227;
425.1000;0.3256;7.3204;
425.4000;0.3240;7.3086;
425.7000;0.3256;7.3086;
426.0000;0.3264;7.3086;
426.3000;0.3272;7.3109;
426.6000;0.3256;7.3133;
426.9000;0.3280;7.3227;
427.2000;0.3280;7.3275;
427.5000;0.3264;7.3251;
427.8000;0.3289;7.3346;
428.1000;0.3272;7.3275;
428.4000;0.3289;7.3346;
428.7000;0.3272;7.3322;
429.0000;0.3272;7.3251;
429.3000;0.3264;7.3275;
429.6000;0.3272;7.3346;
429.9000;0.3280;7.3417;
430.2000;0.3272;7.3275;
430.5000;0.3175;7.2967;
430.8000;0.3272;7.3133;
431.1000;0.3289;7.3204;
431.4000;0.3280;7.3227;
431.7000;0.3256;7.3156;
432.0000;0.3313;7.3251;
432.3000;0.3240;7.3133;
432.6000;0.3280;7.3156;
432.9000;0.3248;7.3133;
433.2000;0.3264;7.3062;
433.5000;0.3264;7.3086;
433.8000;0.3264;7.3180;
434.1000;0.3264;7.3227;
434.4000;0.3256;7.3227;
434.7000;0.3256;7.3275;
435.0000;0.3191;7.3180;
435.3000;0.3264;7.3346;
435.6000;0.3297;7.3393;
435.9000;0.3264;7.3275;
436.2000;0.3256;7.3180;
436.5000;0.3232;7.3156;
436.8000;0.3256;7.3251;
437.1000;0.3256;7.3227;
437.4000;0.3256;7.3180;
437.7000;0.3240;7.3086;
438.0000;0.3264;7.3156;
438.3000;0.3264;7.3062;
438.6000;0.3256;7.3062;
438.9000;0.3240;7.2967;
439.2000;0.3256;7.2944;
439.5000;0.3256;7.3038;
439.8000;0.3264;7.3086;
440.1000;0.3272;7.3156;
440.4000;0.3264;7.3156;
440.7000;0.3240;7.3062;
441.0000;0.3280;7.3180;
441.3000;0.3289;7.3204;
441.6000;0.3272;7.3227;
441.9000;0.3240;7.3133;
442.2000;0.3256;7.3133;
442.5000;0.3280;7.3180;
442.8000;0.3240;7.3086;
443.1000;0.3280;7.3227;
443.4000;0.3264;7.3180;
443.7000;0.3289;7.3369;
444.0000;0.3248;7.3369;
444.3000;0.3256;7.3322;
444.6000;0.3272;7.3393;
444.9000;0.3272;7.3464;
445.2000;0.3264;7.3369;
445.5000;0.3256;7.3204;
445.8000;0.3256;7.3156;
446.1000;0.3289;7.3298;
446.4000;0.3256;7.3180;
446.7000;0.3378;7.3487;
447.0000;0.3272;7.3180;
447.3000;0.3240;7.3109;
447.6000;0.3256;7.3133;
447.9000;0.3223;7.3062;
448.2000;0.3272;7.3180;
448.5000;0.3223;7.3038;
448.8000;0.3280;7.3180;
449.1000;0.3256;7.3133;
449.4000;0.3264;7.3156;
449.7000;0.3280;7.3109;
450.0000;0.3272;7.3109;
450.3000;0.3256;7.3038;
450.6000;0.3272;7.3062;
450.9000;0.3264;7.3180;
451.2000;0.3240;7.3180;
451.5000;0.3256;7.3227;
451.8000;0.3272;7.3156;
452.1000;0.3280;7.3133;
452.4000;0.3272;7.3062;
452.7000;0.3272;7.3109;
453.0000;0.3272;7.3038;
453.3000;0.3321;7.3133;
453.6000;0.3272;7.3038;
453.9000;0.3272;7.3133;
454.2000;0.3264;7.3156;
454.5000;0.3264;7.3204;
454.8000;0.3272;7.3227;
455.1000;0.3289;7.3204;
455.4000;0.3256;7.3133;
455.7000;0.3264;7.3156;
456.0000;0.3256;7.3133;
456.3000;0.3321;7.3204;
456.6000;0.3264;7.3109;
456.9000;0.3264;7.3015;
457.2000;0.3280;7.2991;
457.5000;0.3256;7.2967;
457.8000;0.3256;7.2991;
458.1000;0.3272;7.3109;
458.4000;0.3280;7.3156;
458.7000;0.3264;7.3062;
459.0000;0.3264;7.3109;
459.3000;0.3280;7.3086;
459.6000;0.3272;7.3062;
459.9000;0.3272;7.3038;
460.2000;0.3272;7.3109;
460.5000;0.3272;7.3062;
460.8000;0.3272;7.3086;
461.1000;0.3256;7.3133;
461.4000;0.3248;7.3086;
461.7000;0.3289;7.3062;
462.0000;0.3272;7.3109;
462.3000;0.3264;7.3156;
462.6000;0.3199;7.3062;
462.9000;0.3280;7.3180;
463.2000;0.3240;7.3227;
463.5000;0.3280;7.3251;
463.8000;0.3272;7.3275;
464.1000;0.3272;7.3298;
464.4000;0.3248;7.3298;
464.7000;0.3223;7.3180;
465.0000;0.3264;7.3204;
465.3000;0.3207;7.3038;
465.6000;0.3289;7.3251;
465.9000;0.3313;7.3251;
466.2000;0.3240;7.3038;
466.5000;0.3272;7.3180;
466.8000;0.3280;7.3369;
467.1000;0.3207;7.3275;
467.4000;0.3264;7.3487;
467.7000;0.3150;7.3204;
468.0000;0.3256;7.3582;
468.3000;0.3289;7.3582;
468.6000;0.3264;7.3535;
468.9000;0.3256;7.3511;
469.2000;0.3191;7.3298;
469.5000;0.3158;7.3133;
469.8000;0.3256;7.3298;
470.1000;0.3215;7.3251;
470.4000;0.3297;7.3322;
470.7000;0.3346;7.3346;
471.0000;0.3248;7.3133;
471.3000;0.3256;7.3133;
471.6000;0.3256;7.3180;
471.9000;0.3272;7.3393;
472.2000;0.3256;7.3440;
472.5000;0.3223;7.3417;
472.8000;0.3248;7.3535;
473.1000;0.3256;7.3440;
473.4000;0.3256;7.3464;
473.7000;0.3264;7.3440;
474.0000;0.3256;7.3369;
474.3000;0.3207;7.3227;
474.6000;0.3232;7.3275;
474.9000;0.3191;7.3156;
475.2000;0.3256;7.3227;
475.5000;0.3264;7.3275;
475.8000;0.3256;7.3180;
476.1000;0.3256;7.3156;
476.4000;0.3240;7.3180;
476.7000;0.3272;7.3180;
477.0000;0.3289;7.3180;
477.3000;0.3280;7.3109;
477.6000;0.3280;7.3086;
477.9000;0.3289;7.3109;
478.2000;0.3264;7.3015;
478.5000;0.3280;7.2991;
478.8000;0.3272;7.2991;
479.1000;0.3264;7.3062;
479.4000;0.3305;7.3204;
479.7000;0.3272;7.3038;
480.0000;0.3256;7.3015;
480.3000;0.3223;7.2991;
480.6000;0.3256;7.3133;
480.9000;0.3272;7.3038;
481.2000;0.3272;7.3038;
481.5000;0.3248;7.2944;
481.8000;0.3272;7.3086;
482.1000;0.3280;7.3133;
482.4000;0.3232;7.3062;
482.7000;0.3297;7.3227;
483.0000;0.3272;7.3156;
483.3000;0.3280;7.3180;
483.6000;0.3346;7.3275;
483.9000;0.3264;7.3180;
484.2000;0.3272;7.3275;
484.5000;0.3256;7.3369;
484.8000;0.3232;7.3275;
485.1000;0.3223;7.3204;
485.4000;0.3264;7.3227;
485.7000;0.3264;7.3180;
486.0000;0.3240;7.3062;
486.3000;0.3272;7.3156;
486.6000;0.3313;7.3180;
486.9000;0.3272;7.3062;
487.2000;0.3256;7.3015;
487.5000;0.3272;7.3086;
487.8000;0.3272;7.3062;
488.1000;0.3272;7.3086;
488.4000;0.3191;7.2944;
488.7000;0.3329;7.3156;
489.0000;0.3264;7.3086;
489.3000;0.3272;7.3204;
489.6000;0.3223;7.3204;
489.9000;0.3362;7.3558;
490.2000;0.3264;7.3393;
490.5000;0.3280;7.3464;
490.8000;0.3346;7.3606;
491.1000;0.3240;7.3298;
491.4000;0.3264;7.3275;
491.7000;0.3272;7.3251;
492.0000;0.3272;7.3180;
492.3000;0.3280;7.3251;
492.6000;0.3264;7.3275;
492.9000;0.3248;7.3204;
493.2000;0.3289;7.3227;
493.5000;0.3289;7.3322;
493.8000;0.3264;7.3204;
494.1000;0.3362;7.3535;
494.4000;0.3264;7.3298;
494.7000;0.3289;7.3251;
495.0000;0.3272;7.3180;
495.3000;0.3248;7.3156;
495.6000;0.3256;7.3204;
495.9000;0.3289;7.3251;
496.2000;0.3272;7.3180;
496.5000;0.3280;7.3204;
496.8000;0.3272;7.3275;
497.1000;0.3264;7.3322;
497.4000;0.3272;7.3346;
497.7000;0.3264;7.3346;
498.0000;0.3232;7.3180;
498.3000;0.3289;7.3346;
498.6000;0.3289;7.3298;
498.9000;0.3264;7.3204;
499.2000;0.3272;7.3204;
499.5000;0.3272;7.3227;
499.8000;0.3280;7.3227;
500.1000;0.3264;7.3133;
500.4000;0.3264;7.3062;
500.7000;0.3264;7.3133;
501.0000;0.3256;7.3109;
501.3000;0.3272;7.3109;
501.6000;0.3248;7.3156;
501.9000;0.3256;7.3156;
502.2000;0.3264;7.3180;
502.5000;0.3248;7.3180;
502.8000;0.3280;7.3275;
503.1000;0.3264;7.3251;
503.4000;0.3264;7.3227;
503.7000;0.3256;7.3156;
504.0000;0.3240;7.3156;
504.3000;0.3248;7.3227;
504.6000;0.3232;7.3180;
504.9000;0.3280;7.3275;
505.2000;0.3256;7.3298;
505.5000;0.3256;7.3251;
505.8000;0.3370;7.3582;
506.1000;0.3248;7.3251;
506.4000;0.3248;7.3227;
506.7000;0.3256;7.3156;
507.0000;0.3240;7.3227;
507.3000;0.3256;7.3275;
507.6000;0.3256;7.3275;
507.9000;0.3256;7.3346;
508.2000;0.3305;7.3393;
508.5000;0.3272;7.3346;
508.8000;0.3280;7.3440;
509.1000;0.3264;7.3322;
509.4000;0.3256;7.3298;
509.7000;0.3346;7.3511;
510.0000;0.3272;7.3227;
510.3000;0.3280;7.3180;
510.6000;0.3272;7.3133;
510.9000;0.3240;7.3133;
511.2000;0.3264;7.3251;
511.5000;0.3264;7.3322;
511.8000;0.3240;7.3227;
512.1000;0.3264;7.3204;
512.4000;0.3256;7.3180;
512.7000;0.3280;7.3180;
513.0000;0.3256;7.3204;
513.3000;0.3264;7.3204;
513.6000;0.3256;7.3156;
513.9000;0.3264;7.3227;
514.2000;0.3248;7.3227;
514.5000;0.3240;7.3204;
514.8000;0.3191;7.3038;
515.1000;0.3256;7.3298;
515.4000;0.3256;7.3298;
515.7000;0.3248;7.3251;
516.0000;0.3248;7.3251;
516.3000;0.3240;7.3204;
516.6000;0.3256;7.3180;
516.9000;0.3256;7.3275;
517.2000;0.3280;7.3298;
517.5000;0.3272;7.3322;
517.8000;0.3378;7.3629;
518.1000;0.3264;7.3369;
518.4000;0.3280;7.3346;
518.7000;0.3280;7.3322;
519.0000;0.3256;7.3322;
519.3000;0.3256;7.3227;
519.6000;0.3248;7.3156;
519.9000;0.3248;7.2991;
520.2000;0.3264;7.3086;
520.5000;0.3256;7.3180;
520.8000;0.3240;7.3180;
521.1000;0.3256;7.3180;
521.4000;0.3313;7.3322;
521.7000;0.3264;7.3251;
522.0000;0.3272;7.3109;
522.3000;0.3297;7.3275;
522.6000;0.3264;7.3251;
522.9000;0.3264;7.3275;
523.2000;0.3264;7.3346;
523.5000;0.3215;7.3204;
523.8000;0.3248;7.3227;
524.1000;0.3264;7.3251;
524.4000;0.3232;7.3204;
524.7000;0.3256;7.3298;
525.0000;0.3248;7.3251;
525.3000;0.3370;7.3582;
525.6000;0.3272;7.3322;
525.9000;0.3248;7.3180;
526.2000;0.3248;7.3204;
526.5000;0.3272;7.3346;
526.8000;0.3264;7.3275;
527.1000;0.3256;7.3251;
527.4000;0.3289;7.3464;
527.7000;0.3280;7.3487;
528.0000;0.3248;7.3322;
528.3000;0.3264;7.3393;
528.6000;0.3264;7.3369;
528.9000;0.3264;7.3346;
529.2000;0.3289;7.3440;
529.5000;0.3329;7.3440;
529.8000;0.3264;7.3322;
530.1000;0.3272;7.3298;
530.4000;0.3280;7.3322;
530.7000;0.3264;7.3298;
531.0000;0.3264;7.3322;
531.3000;0.3272;7.3346;
531.6000;0.3272;7.3227;
531.9000;0.3272;7.3298;
532.2000;0.3280;7.3369;
532.5000;0.3256;7.3275;
532.8000;0.3272;7.3227;
533.1000;0.3289;7.3227;
533.4000;0.3264;7.3133;
533.7000;0.3280;7.3298;
534.0000;0.3199;7.3109;
534.3000;0.3289;7.3417;
534.6000;0.3272;7.3487;
534.9000;0.3280;7.3464;
535.2000;0.3289;7.3417;
535.5000;0.3264;7.3346;
535.8000;0.3256;7.3346;
536.1000;0.3256;7.3322;
536.4000;0.3289;7.3251;
536.7000;0.3272;7.3322;
537.0000;0.3272;7.3251;
537.3000;0.3272;7.3251;
537.6000;0.3272;7.3227;
537.9000;0.3264;7.3251;
538.2000;0.3264;7.3298;
538.5000;0.3240;7.3251;
538.8000;0.3175;7.3062;
539.1000;0.3305;7.3440;
539.4000;0.3280;7.3298;
539.7000;0.3264;7.3204;
540.0000;0.3256;7.3227;
540.3000;0.3313;7.3369;
540.6000;0.3280;7.3346;
540.9000;0.3256;7.3251;
541.2000;0.3256;7.3275;
541.5000;0.3272;7.3417;
541.8000;0.3248;7.3346;
542.1000;0.3272;7.3346;
542.4000;0.3256;7.3322;
542.7000;0.3272;7.3393;
543.0000;0.3264;7.3346;
543.3000;0.3321;7.3440;
543.6000;0.3256;7.3369;
543.9000;0.3264;7.3369;
544.2000;0.3280;7.3393;
544.5000;0.3280;7.3417;
544.8000;0.3264;7.3369;
545.1000;0.3272;7.3417;
545.4000;0.3248;7.3346;
545.7000;0.3272;7.3393;
546.0000;0.3289;7.3393;
546.3000;0.3272;7.3298;
546.6000;0.3272;7.3393;
546.9000;0.3264;7.3535;
547.2000;0.3272;7.3511;
547.5000;0.3207;7.3393;
547.8000;0.3264;7.3464;
548.1000;0.3248;7.3464;
548.4000;0.3272;7.3417;
548.7000;0.3264;7.3322;
549.0000;0.3289;7.3322;
549.3000;0.3272;7.3322;
549.6000;0.3272;7.3440;
549.9000;0.3272;7.3393;
550.2000;0.3256;7.3417;
550.5000;0.3272;7.3464;
550.8000;0.3272;7.3393;
551.1000;0.3248;7.3298;
551.4000;0.3264;7.3227;
551.7000;0.3264;7.3322;
552.0000;0.3256;7.3346;
552.3000;0.3264;7.3369;
552.6000;0.3297;7.3535;
552.9000;0.3313;7.3629;
553.2000;0.3272;7.3487;
553.5000;0.3272;7.3511;
553.8000;0.3240;7.3440;
554.1000;0.3264;7.3558;
554.4000;0.3264;7.3511;
554.7000;0.3248;7.3511;
555.0000;0.3264;7.3511;
555.3000;0.3264;7.3440;
555.6000;0.3248;7.3440;
555.9000;0.3346;7.3606;
556.2000;0.3264;7.3487;
556.5000;0.3272;7.3535;
556.8000;0.3248;7.3606;
557.1000;0.3272;7.3511;
557.4000;0.3248;7.3417;
557.7000;0.3264;7.3464;
558.0000;0.3223;7.3346;
558.3000;0.3256;7.3346;
558.6000;0.3248;7.3322;
558.9000;0.3264;7.3417;
559.2000;0.3232;7.3227;
559.5000;0.3280;7.3417;
559.8000;0.3346;7.3511;
560.1000;0.3289;7.3393;
560.4000;0.3248;7.3251;
560.7000;0.3232;7.3227;
561.0000;0.3272;7.3251;
561.3000;0.3248;7.3086;
561.6000;0.3215;7.2967;
561.9000;0.3248;7.3015;
562.2000;0.3232;7.2944;
562.5000;0.3240;7.2991;
562.8000;0.3305;7.3086;
563.1000;0.3232;7.3015;
563.4000;0.3280;7.3109;
563.7000;0.3394;7.3464;
564.0000;0.3305;7.3275;
564.3000;0.3289;7.3227;
564.6000;0.3313;7.3346;
564.9000;0.3264;7.3204;
565.2000;0.3240;7.3156;
565.5000;0.3256;7.3298;
565.8000;0.3248;7.3346;
566.1000;0.3264;7.3487;
566.4000;0.3305;7.3558;
566.7000;0.3264;7.3417;
567.0000;0.3256;7.3440;
567.3000;0.3118;7.3109;
567.6000;0.3264;7.3487;
567.9000;0.3297;7.3558;
568.2000;0.3256;7.3558;
568.5000;0.3280;7.3629;
568.8000;0.3240;7.3440;
569.1000;0.3264;7.3487;
569.4000;0.3264;7.3322;
569.7000;0.3272;7.3275;
570.0000;0.3280;7.3251;
570.3000;0.3297;7.3298;
570.6000;0.3272;7.3298;
570.9000;0.3305;7.3346;
571.2000;0.3264;7.3180;
571.5000;0.3215;7.3133;
571.8000;0.3256;7.3298;
572.1000;0.3272;7.3369;
572.4000;0.3264;7.3204;
572.7000;0.3289;7.3227;
573.0000;0.3272;7.3227;
573.3000;0.3264;7.3109;
573.6000;0.3280;7.3133;
573.9000;0.3280;7.3180;
574.2000;0.3264;7.3204;
574.5000;0.3280;7.3204;
574.8000;0.3297;7.3275;
575.1000;0.3272;7.3227;
575.4000;0.3256;7.3275;
575.7000;0.3248;7.3204;
576.0000;0.3264;7.3109;
576.3000;0.3256;7.3156;
576.6000;0.3313;7.3322;
576.9000;0.3207;7.3015;
577.2000;0.3248;7.3133;
577.5000;0.3240;7.3109;
577.8000;0.3256;7.3109;
578.1000;0.3264;7.3251;
578.4000;0.3280;7.3393;
578.7000;0.3272;7.3369;
579.0000;0.3289;7.3440;
579.3000;0.3248;7.3369;
579.6000;0.3362;7.3629;
579.9000;0.3264;7.3417;
580.2000;0.3272;7.3440;
580.5000;0.3305;7.3511;
580.8000;0.3240;7.3393;
581.1000;0.3264;7.3393;
581.4000;0.3272;7.3393;
581.7000;0.3248;7.3298;
582.0000;0.3256;7.3251;
582.3000;0.3289;7.3204;
582.6000;0.3240;7.3086;
582.9000;0.3215;7.3015;
583.2000;0.3264;7.3015;
583.5000;0.3232;7.2967;
583.8000;0.3289;7.3062;
584.1000;0.3289;7.3109;
584.4000;0.3264;7.3086;
584.7000;0.3264;7.3038;
585.0000;0.3280;7.3133;
585.3000;0.3272;7.3086;
585.6000;0.3240;7.3038;
585.9000;0.3329;7.3251;
586.2000;0.3248;7.3180;
586.5000;0.3199;7.3133;
586.8000;0.3378;7.3417;
587.1000;0.3256;7.3109;
587.4000;0.3240;7.2991;
587.7000;0.3297;7.3015;
588.0000;0.3248;7.2896;
588.3000;0.3256;7.2991;
588.6000;0.3264;7.3062;
588.9000;0.3297;7.3109;
589.2000;0.3280;7.3062;
589.5000;0.3240;7.2944;
589.8000;0.3240;7.2991;
590.1000;0.3272;7.3062;
590.4000;0.3264;7.3038;
590.7000;0.3280;7.3086;
591.0000;0.3256;7.3015;
591.3000;0.3264;7.3015;
591.6000;0.3280;7.3156;
591.9000;0.3264;7.3086;
592.2000;0.3264;7.3086;
592.5000;0.3280;7.3133;
592.8000;0.3272;7.3180;
593.1000;0.3272;7.3156;
593.4000;0.3232;7.3109;
593.7000;0.3264;7.3204;
594.0000;0.3223;7.3109;
594.3000;0.3264;7.3133;
594.6000;0.3264;7.3133;
594.9000;0.3264;7.3156;
595.2000;0.3289;7.3180;
595.5000;0.3272;7.3322;
595.8000;0.3272;7.3180;
596.1000;0.3256;7.3133;
596.4000;0.3223;7.3086;
596.7000;0.3264;7.3227;
597.0000;0.3248;7.3227;
597.3000;0.3256;7.3275;
597.6000;0.3280;7.3346;
597.9000;0.3191;7.3086;
598.2000;0.3280;7.3346;
598.5000;0.3264;7.3298;
598.8000;0.3240;7.3204;
599.1000;0.3280;7.3369;
599.4000;0.3289;7.3251;
599.7000;0.3248;7.3180;
600.0000;0.3297;7.3298;
600.3000;0.3264;7.3275;
600.6000;0.3240;7.3180;
600.9000;0.3223;7.2967;
601.2000;0.3199;7.2849;
601.5000;0.3223;7.2896;
601.8000;0.3142;7.2566;
602.1000;0.3134;7.2471;
602.4000;0.3150;7.2447;
602.7000;0.3093;7.2306;
603.0000;0.3069;7.2282;
603.3000;0.3069;7.2235;
603.6000;0.3036;7.2046;
603.9000;0.3004;7.1927;
604.2000;0.2971;7.1856;
604.5000;0.2890;7.1691;
604.8000;0.2882;7.1644;
605.1000;0.2922;7.1667;
605.4000;0.2914;7.1691;
605.7000;0.2857;7.1502;
606.0000;0.2890;7.1455;
606.3000;0.2979;7.1738;
606.6000;0.2873;7.1502;
606.9000;0.2857;7.1407;
607.2000;0.2849;7.1313;
607.5000;0.2816;7.1218;
607.8000;0.2825;7.1218;
608.1000;0.2825;7.1218;
608.4000;0.2800;7.1076;
608.7000;0.2792;7.1076;
609.0000;0.2776;7.1124;
609.3000;0.2800;7.1124;
609.6000;0.2759;7.1076;
609.9000;0.2743;7.1076;
610.2000;0.2727;7.1006;
610.5000;0.2727;7.1006;
610.8000;0.2727;7.1006;
611.1000;0.2719;7.0958;
611.4000;0.2678;7.0911;
611.7000;0.2686;7.1029;
612.0000;0.2686;7.1076;
612.3000;0.2694;7.1100;
612.6000;0.2654;7.1029;
612.9000;0.2564;7.0769;
613.2000;0.2694;7.1006;
613.5000;0.2654;7.0793;
613.8000;0.2646;7.0793;
614.1000;0.2621;7.0698;
614.4000;0.2637;7.0864;
614.7000;0.2621;7.0840;
615.0000;0.2621;7.0911;
615.3000;0.2589;7.0958;
615.6000;0.2629;7.1100;
615.9000;0.2597;7.0982;
616.2000;0.2580;7.0982;
616.5000;0.2580;7.0911;
616.8000;0.2564;7.0816;
617.1000;0.2580;7.0864;
617.4000;0.2580;7.0816;
617.7000;0.2556;7.0722;
618.0000;0.2572;7.0746;
618.3000;0.2580;7.0746;
618.6000;0.2548;7.0746;
618.9000;0.2540;7.0675;
619.2000;0.2523;7.0722;
619.5000;0.2515;7.0769;
619.8000;0.2548;7.0840;
620.1000;0.2556;7.0935;
620.4000;0.2532;7.0958;
620.7000;0.2540;7.0958;
621.0000;0.2515;7.0887;
621.3000;0.2507;7.0746;
621.6000;0.2475;7.0722;
621.9000;0.2483;7.0769;
622.2000;0.2434;7.0533;
622.5000;0.2458;7.0580;
622.8000;0.2499;7.0627;
623.1000;0.2515;7.0675;
623.4000;0.2458;7.0486;
623.7000;0.2426;7.0462;
624.0000;0.2426;7.0438;
624.3000;0.2475;7.0580;
624.6000;0.2466;7.0604;
624.9000;0.2458;7.0556;
625.2000;0.2409;7.0438;
625.5000;0.2385;7.0486;
625.8000;0.2418;7.0604;
626.1000;0.2409;7.0580;
626.4000;0.2434;7.0651;
626.7000;0.2434;7.0604;
627.0000;0.2434;7.0556;
627.3000;0.2393;7.0415;
627.6000;0.2377;7.0438;
627.9000;0.2418;7.0627;
628.2000;0.2442;7.0675;
628.5000;0.2401;7.0580;
628.8000;0.2401;7.0627;
629.1000;0.2393;7.0580;
629.4000;0.2409;7.0580;
629.7000;0.2385;7.0627;
630.0000;0.2385;7.0556;
630.3000;0.2377;7.0438;
630.6000;0.2369;7.0509;
630.9000;0.2475;7.0793;
631.2000;0.2369;7.0438;
631.5000;0.2369;7.0415;
631.8000;0.2352;7.0415;
632.1000;0.2361;7.0462;
632.4000;0.2344;7.0486;
632.7000;0.2328;7.0438;
633.0000;0.2279;7.0296;
633.3000;0.2401;7.0462;
633.6000;0.2361;7.0367;
633.9000;0.2377;7.0533;
634.2000;0.2336;7.0486;
634.5000;0.2352;7.0533;
634.8000;0.2352;7.0556;
635.1000;0.2336;7.0604;
635.4000;0.2287;7.0415;
635.7000;0.2320;7.0415;
636.0000;0.2320;7.0509;
636.3000;0.2304;7.0580;
636.6000;0.2295;7.0533;
636.9000;0.2336;7.0675;
637.2000;0.2222;7.0367;
637.5000;0.2304;7.0556;
637.8000;0.2320;7.0651;
638.1000;0.2320;7.0580;
638.4000;0.2401;7.0864;
638.7000;0.2320;7.0722;
639.0000;0.2239;7.0509;
639.3000;0.2295;7.0675;
639.6000;0.2320;7.0675;
639.9000;0.2304;7.0651;
640.2000;0.2312;7.0604;
640.5000;0.2304;7.0556;
640.8000;0.2295;7.0556;
641.1000;0.2279;7.0604;
641.4000;0.2295;7.0580;
641.7000;0.2263;7.0486;
642.0000;0.2279;7.0533;
642.3000;0.2271;7.0627;
642.6000;0.2295;7.0556;
642.9000;0.2271;7.0556;
643.2000;0.2287;7.0556;
643.5000;0.2295;7.0627;
643.8000;0.2263;7.0486;
644.1000;0.2271;7.0556;
644.4000;0.2271;7.0509;
644.7000;0.2255;7.0486;
645.0000;0.2247;7.0438;
645.3000;0.2247;7.0438;
645.6000;0.2239;7.0580;
645.9000;0.2320;7.0840;
646.2000;0.2263;7.0698;
646.5000;0.2255;7.0533;
646.8000;0.2247;7.0462;
647.1000;0.2279;7.0651;
647.4000;0.2239;7.0651;
647.7000;0.2230;7.0627;
648.0000;0.2239;7.0627;
648.3000;0.2247;7.0651;
648.6000;0.2263;7.0675;
648.9000;0.2182;7.0509;
649.2000;0.2230;7.0627;
649.5000;0.2230;7.0675;
649.8000;0.2263;7.0840;
650.1000;0.2320;7.0935;
650.4000;0.2206;7.0651;
650.7000;0.2206;7.0604;
651.0000;0.2230;7.0698;
651.3000;0.2214;7.0604;
651.6000;0.2214;7.0533;
651.9000;0.2206;7.0462;
652.2000;0.2190;7.0415;
652.5000;0.2214;7.0509;
652.8000;0.2222;7.0509;
653.1000;0.2222;7.0533;
653.4000;0.2214;7.0415;
653.7000;0.2255;7.0486;
654.0000;0.2190;7.0415;
654.3000;0.2214;7.0462;
654.6000;0.2206;7.0438;
654.9000;0.2190;7.0367;
655.2000;0.2182;7.0296;
655.5000;0.2198;7.0273;
655.8000;0.2165;7.0226;
656.1000;0.2173;7.0249;
656.4000;0.2182;7.0226;
656.7000;0.2247;7.0415;
657.0000;0.2198;7.0344;
657.3000;0.2173;7.0296;
657.6000;0.2173;7.0320;
657.9000;0.2182;7.0391;
658.2000;0.2190;7.0415;
658.5000;0.2182;7.0344;
658.8000;0.2173;7.0344;
659.1000;0.2182;7.0344;
659.4000;0.2190;7.0415;
659.7000;0.2149;7.0296;
660.0000;0.2173;7.0391;
660.3000;0.2190;7.0415;
660.6000;0.2182;7.0438;
660.9000;0.2157;7.0391;
661.2000;0.2149;7.0438;
661.5000;0.2255;7.0698;
661.8000;0.2165;7.0415;
662.1000;0.2173;7.0296;
662.4000;0.2182;7.0391;
662.7000;0.2173;7.0367;
663.0000;0.2165;7.0438;
663.3000;0.2198;7.0627;
663.6000;0.2165;7.0604;
663.9000;0.2165;7.0556;
664.2000;0.2165;7.0604;
664.5000;0.2222;7.0746;
664.8000;0.2149;7.0580;
665.1000;0.2165;7.0580;
665.4000;0.2165;7.0533;
665.7000;0.2157;7.0391;
666.0000;0.2182;7.0462;
666.3000;0.2149;7.0391;
666.6000;0.2165;7.0486;
666.9000;0.2165;7.0533;
667.2000;0.2157;7.0533;
667.5000;0.2173;7.0486;
667.8000;0.2165;7.0509;
668.1000;0.2165;7.0462;
668.4000;0.2173;7.0462;
668.7000;0.2157;7.0462;
669.0000;0.2125;7.0367;
669.3000;0.2165;7.0462;
669.6000;0.2206;7.0580;
669.9000;0.2157;7.0580;
670.2000;0.2157;7.0604;
670.5000;0.2141;7.0604;
670.8000;0.2133;7.0604;
671.1000;0.2157;7.0651;
671.4000;0.2133;7.0533;
671.7000;0.2239;7.0746;
672.0000;0.2149;7.0438;
672.3000;0.2190;7.0580;
672.6000;0.2157;7.0604;
672.9000;0.2141;7.0486;
673.2000;0.2214;7.0580;
673.5000;0.2133;7.0415;
673.8000;0.2133;7.0391;
674.1000;0.2116;7.0367;
674.4000;0.2133;7.0391;
674.7000;0.2149;7.0438;
675.0000;0.2092;7.0249;
675.3000;0.2141;7.0391;
675.6000;0.2141;7.0438;
675.9000;0.2116;7.0296;
676.2000;0.2157;7.0462;
676.5000;0.2149;7.0367;
676.8000;0.2116;7.0344;
677.1000;0.2206;7.0651;
677.4000;0.2116;7.0391;
677.7000;0.2116;7.0367;
678.0000;0.2133;7.0320;
678.3000;0.2116;7.0226;
678.6000;0.2133;7.0296;
678.9000;0.2116;7.0367;
679.2000;0.2108;7.0320;
679.5000;0.2125;7.0344;
679.8000;0.2059;7.0249;
680.1000;0.2100;7.0391;
680.4000;0.2116;7.0438;
680.7000;0.2059;7.0367;
681.0000;0.2116;7.0415;
681.3000;0.2116;7.0415;
681.6000;0.2084;7.0367;
681.9000;0.2116;7.0438;
682.2000;0.2133;7.0486;
682.5000;0.2092;7.0226;
682.8000;0.2100;7.0131;
683.1000;0.2100;7.0155;
683.4000;0.2108;7.0084;
683.7000;0.2084;7.0060;
684.0000;0.2027;6.9942;
684.3000;0.2100;7.0202;
684.6000;0.2100;7.0202;
684.9000;0.2092;7.0131;
685.2000;0.2108;7.0202;
685.5000;0.2173;7.0273;
685.8000;0.2084;7.0107;
686.1000;0.2084;7.0226;
686.4000;0.2076;7.0296;
686.7000;0.2092;7.0391;
687.0000;0.2100;7.0415;
687.3000;0.2092;7.0344;
687.6000;0.2092;7.0320;
687.9000;0.2092;7.0486;
688.2000;0.2092;7.0509;
688.5000;0.2059;7.0509;
688.8000;0.2076;7.0556;
689.1000;0.2084;7.0556;
689.4000;0.2100;7.0556;
689.7000;0.2051;7.0509;
690.0000;0.2084;7.0627;
690.3000;0.2092;7.0604;
690.6000;0.2076;7.0556;
690.9000;0.2035;7.0462;
691.2000;0.2092;7.0509;
691.5000;0.2059;7.0344;
691.8000;0.2051;7.0273;
692.1000;0.2100;7.0462;
692.4000;0.2092;7.0486;
692.7000;0.2068;7.0438;
693.0000;0.2092;7.0556;
693.3000;0.2076;7.0509;
693.6000;0.2100;7.0415;
693.9000;0.2059;7.0367;
694.2000;0.2019;7.0249;
694.5000;0.2051;7.0344;
694.8000;0.2002;7.0226;
695.1000;0.2076;7.0509;
695.4000;0.2019;7.0438;
695.7000;0.2092;7.0722;
696.0000;0.2051;7.0533;
696.3000;0.2076;7.0698;
696.6000;0.2116;7.0816;
696.9000;0.2059;7.0746;
697.2000;0.2084;7.0769;
697.5000;0.2084;7.0769;
697.8000;0.2068;7.0722;
698.1000;0.2092;7.0746;
698.4000;0.2084;7.0793;
698.7000;0.2092;7.0816;
699.0000;0.2059;7.0698;
699.3000;0.2076;7.0722;
699.6000;0.2084;7.0816;
699.9000;0.2084;7.0793;
700.2000;0.2076;7.0746;
700.5000;0.2059;7.0651;
700.8000;0.2076;7.0698;
701.1000;0.2059;7.0675;
701.4000;0.2084;7.0698;
701.7000;0.2084;7.0698;
702.0000;0.2068;7.0580;
702.3000;0.2059;7.0509;
702.6000;0.2076;7.0580;
702.9000;0.1994;7.0462;
703.2000;0.2068;7.0675;
703.5000;0.2076;7.0675;
703.8000;0.2051;7.0627;
704.1000;0.2059;7.0580;
704.4000;0.2051;7.0556;
704.7000;0.2043;7.0651;
705.0000;0.2076;7.0651;
705.3000;0.2035;7.0604;
705.6000;0.2059;7.0509;
705.9000;0.2059;7.0320;
706.2000;0.2019;7.0226;
706.5000;0.2035;7.0226;
706.8000;0.2059;7.0226;
707.1000;0.2059;7.0249;
707.4000;0.2051;7.0202;
707.7000;0.2027;7.0155;
708.0000;0.2068;7.0320;
708.3000;0.2035;7.0273;
708.6000;0.2019;7.0249;
708.9000;0.1937;7.0131;
709.2000;0.2068;7.0533;
709.5000;0.2059;7.0533;
709.8000;0.2043;7.0533;
710.1000;0.2059;7.0556;
710.4000;0.2059;7.0651;
710.7000;0.2051;7.0722;
711.0000;0.2059;7.0722;
711.3000;0.2068;7.0651;
711.6000;0.2051;7.0580;
711.9000;0.2059;7.0556;
712.2000;0.2084;7.0651;
712.5000;0.1986;7.0344;
712.8000;0.2059;7.0509;
713.1000;0.2059;7.0580;
713.4000;0.2059;7.0627;
713.7000;0.2035;7.0627;
714.0000;0.2027;7.0746;
714.3000;0.2035;7.0675;
714.6000;0.2051;7.0746;
714.9000;0.2027;7.0722;
715.2000;0.2068;7.0816;
715.5000;0.2035;7.0769;
715.8000;0.2043;7.0651;
716.1000;0.2059;7.0675;
716.4000;0.2027;7.0675;
716.7000;0.2019;7.0627;
717.0000;0.2043;7.0793;
717.3000;0.1978;7.0675;
717.6000;0.2076;7.0935;
717.9000;0.2027;7.0864;
718.2000;0.2076;7.0958;
718.5000;0.1986;7.0651;
718.8000;0.2027;7.0793;
719.1000;0.2019;7.0840;
719.4000;0.2051;7.0840;
719.7000;0.2035;7.0722;
720.0000;0.2027;7.0604;
720.3000;0.2059;7.0698;
720.6000;0.2059;7.0698;
720.9000;0.2011;7.0509;
721.2000;0.2027;7.0509;
721.5000;0.2027;7.0438;
721.8000;0.2027;7.0391;
722.1000;0.2019;7.0462;
722.4000;0.2019;7.0533;
722.7000;0.2027;7.0556;
723.0000;0.2027;7.0580;
723.3000;0.2019;7.0533;
723.6000;0.2011;7.0391;
723.9000;0.2035;7.0509;
724.2000;0.2002;7.0533;
724.5000;0.1994;7.0486;
724.8000;0.2011;7.0604;
725.1000;0.2027;7.0627;
725.4000;0.2027;7.0533;
725.7000;0.2027;7.0391;
726.0000;0.2035;7.0415;
726.3000;0.2019;7.0438;
726.6000;0.2027;7.0509;
726.9000;0.2019;7.0486;
727.2000;0.2027;7.0556;
727.5000;0.2011;7.0627;
727.8000;0.2019;7.0651;
728.1000;0.2019;7.0604;
728.4000;0.1994;7.0627;
728.7000;0.2019;7.0746;
729.0000;0.2035;7.0746;
729.3000;0.2035;7.0793;
729.6000;0.2011;7.0675;
729.9000;0.2043;7.0698;
730.2000;0.2019;7.0698;
730.5000;0.1986;7.0627;
730.8000;0.2011;7.0651;
731.1000;0.2035;7.0675;
731.4000;0.1962;7.0509;
731.7000;0.1986;7.0604;
732.0000;0.2019;7.0627;
732.3000;0.2002;7.0604;
732.6000;0.2002;7.0604;
732.9000;0.2002;7.0580;
733.2000;0.2035;7.0651;
733.5000;0.2011;7.0533;
733.8000;0.2011;7.0580;
734.1000;0.2027;7.0604;
734.4000;0.2043;7.0627;
734.7000;0.2027;7.0604;
735.0000;0.2035;7.0651;
735.3000;0.2043;7.0698;
735.6000;0.2027;7.0509;
735.9000;0.2011;7.0438;
736.2000;0.1994;7.0367;
736.5000;0.2019;7.0438;
736.8000;0.2043;7.0556;
737.1000;0.2019;7.0556;
737.4000;0.2027;7.0580;
737.7000;0.2043;7.0604;
738.0000;0.2027;7.0604;
738.3000;0.2035;7.0509;
738.6000;0.2051;7.0509;
738.9000;0.2011;7.0509;
739.2000;0.2019;7.0556;
739.5000;0.2011;7.0533;
739.8000;0.2035;7.0604;
740.1000;0.2011;7.0627;
740.4000;0.1994;7.0580;
740.7000;0.2027;7.0698;
741.0000;0.2019;7.0604;
741.3000;0.2019;7.0556;
741.6000;0.2011;7.0533;
741.9000;0.2002;7.0556;
742.2000;0.1970;7.0580;
742.5000;0.2019;7.0793;
742.8000;0.1994;7.0722;
743.1000;0.2002;7.0769;
743.4000;0.1978;7.0698;
743.7000;0.1978;7.0746;
744.0000;0.2002;7.0769;
744.3000;0.2051;7.0887;
744.6000;0.2011;7.0793;
744.9000;0.2019;7.0769;
745.2000;0.2019;7.0840;
745.5000;0.2011;7.0816;
745.8000;0.1978;7.0675;
746.1000;0.1994;7.0651;
746.4000;0.1978;7.0580;
746.7000;0.1970;7.0462;
747.0000;0.1962;7.0533;
747.3000;0.1978;7.0580;
747.6000;0.1994;7.0651;
747.9000;0.2002;7.0746;
748.2000;0.1994;7.0746;
748.5000;0.1994;7.0769;
748.8000;0.2002;7.0816;
749.1000;0.2011;7.0793;
749.4000;0.1994;7.0722;
749.7000;0.1994;7.0698;
750.0000;0.2002;7.0746;
750.3000;0.2002;7.0746;
750.6000;0.2002;7.0651;
750.9000;0.2019;7.0698;
751.2000;0.1970;7.0580;
751.5000;0.2011;7.0580;
751.8000;0.1986;7.0627;
752.1000;0.1994;7.0698;
752.4000;0.1978;7.0793;
752.7000;0.1994;7.0651;
753.0000;0.1986;7.0604;
753.3000;0.1937;7.0415;
753.6000;0.1978;7.0533;
753.9000;0.1945;7.0556;
754.2000;0.2059;7.0840;
754.5000;0.1970;7.0604;
754.8000;0.2002;7.0675;
755.1000;0.1986;7.0746;
755.4000;0.1970;7.0769;
755.7000;0.1994;7.0864;
756.0000;0.1994;7.0840;
756.3000;0.1994;7.0840;
756.6000;0.2002;7.0840;
756.9000;0.1994;7.0958;
757.2000;0.1994;7.0864;
757.5000;0.1962;7.0746;
757.8000;0.1986;7.0722;
758.1000;0.1986;7.0675;
758.4000;0.1978;7.0627;
758.7000;0.1994;7.0604;
759.0000;0.1978;7.0580;
759.3000;0.2002;7.0651;
759.6000;0.1970;7.0651;
759.9000;0.1962;7.0698;
760.2000;0.1970;7.0698;
760.5000;0.2002;7.0769;
760.8000;0.1978;7.0698;
761.1000;0.2011;7.0816;
761.4000;0.1986;7.0816;
761.7000;0.2002;7.0982;
762.0000;0.1986;7.1076;
762.3000;0.1962;7.0958;
762.6000;0.1962;7.0935;
762.9000;0.2011;7.1006;
763.2000;0.2002;7.1053;
763.5000;0.1978;7.0982;
763.8000;0.2011;7.0982;
764.1000;0.2011;7.1029;
764.4000;0.1994;7.0982;
764.7000;0.2027;7.1053;
765.0000;0.1937;7.0816;
765.3000;0.2002;7.0982;
765.6000;0.1978;7.0887;
765.9000;0.1994;7.0982;
766.2000;0.2011;7.1053;
766.5000;0.1986;7.1076;
766.8000;0.2002;7.1053;
767.1000;0.2011;7.1029;
767.4000;0.1986;7.0958;
767.7000;0.1962;7.0864;
768.0000;0.1994;7.0911;
768.3000;0.1986;7.0887;
768.6000;0.1880;7.0675;
768.9000;0.1864;7.0675;
769.2000;0.1994;7.0911;
769.5000;0.1978;7.0911;
769.8000;0.1978;7.0793;
770.1000;0.1994;7.0746;
770.4000;0.2011;7.0793;
770.7000;0.1994;7.0769;
771.0000;0.1986;7.0769;
771.3000;0.1986;7.0698;
771.6000;0.2002;7.0769;
771.9000;0.2011;7.0887;
772.2000;0.2011;7.0982;
772.5000;0.1970;7.0982;
772.8000;0.1978;7.1006;
773.1000;0.1962;7.0958;
773.4000;0.1962;7.0935;
773.7000;0.1970;7.1006;
774.0000;0.1962;7.0958;
774.3000;0.1929;7.0911;
774.6000;0.1978;7.0982;
774.9000;0.1986;7.0958;
775.2000;0.2027;7.1076;
775.5000;0.1986;7.1006;
775.8000;0.1970;7.1100;
776.1000;0.2002;7.1147;
776.4000;0.1978;7.1076;
776.7000;0.1986;7.0982;
777.0000;0.2043;7.1195;
777.3000;0.1921;7.0958;
777.6000;0.1954;7.1124;
777.9000;0.1970;7.1171;
778.2000;0.1929;7.1124;
778.5000;0.1962;7.1124;
778.8000;0.1970;7.1124;
779.1000;0.1978;7.1171;
779.4000;0.1986;7.1147;
779.7000;0.2027;7.1266;
780.0000;0.1978;7.1195;
780.3000;0.1978;7.1076;
780.6000;0.1994;7.1006;
780.9000;0.1937;7.0958;
781.2000;0.1970;7.1076;
781.5000;0.1962;7.0911;
781.8000;0.1962;7.0935;
782.1000;0.1978;7.0982;
782.4000;0.1970;7.0911;
782.7000;0.1978;7.0911;
783.0000;0.1978;7.0864;
783.3000;0.1994;7.0911;
783.6000;0.1970;7.0816;
783.9000;0.1954;7.0769;
784.2000;0.1970;7.0816;
784.5000;0.1994;7.0982;
784.8000;0.1978;7.1006;
785.1000;0.1994;7.1100;
785.4000;0.1945;7.1006;
785.7000;0.1986;7.1124;
786.0000;0.1970;7.1124;
786.3000;0.1970;7.1147;
786.6000;0.1978;7.1124;
786.9000;0.1970;7.1124;
787.2000;0.1986;7.1195;
787.5000;0.1937;7.1100;
787.8000;0.1978;7.1171;
788.1000;0.1970;7.1076;
788.4000;0.1962;7.1124;
788.7000;0.1962;7.1124;
789.0000;0.1945;7.1053;
789.3000;0.2035;7.1266;
789.6000;0.1856;7.0816;
789.9000;0.1994;7.1171;
790.2000;0.1962;7.0982;
790.5000;0.1978;7.1006;
790.8000;0.1970;7.1029;
791.1000;0.1937;7.1006;
791.4000;0.1970;7.1076;
791.7000;0.1954;7.0982;
792.0000;0.1937;7.0958;
792.3000;0.1954;7.0982;
792.6000;0.1937;7.0982;
792.9000;0.1937;7.1006;
793.2000;0.1954;7.1053;
793.5000;0.1954;7.1053;
793.8000;0.1970;7.1171;
794.1000;0.1945;7.1053;
794.4000;0.1913;7.1006;
794.7000;0.1978;7.1100;
795.0000;0.1986;7.1076;
795.3000;0.1978;7.0982;
795.6000;0.1970;7.0864;
795.9000;0.1962;7.0864;
796.2000;0.1978;7.0840;
796.5000;0.1954;7.0746;
796.8000;0.1970;7.0887;
797.1000;0.1978;7.0935;
797.4000;0.1929;7.0864;
797.7000;0.2002;7.1053;
798.0000;0.1978;7.1006;
798.3000;0.1954;7.1006;
798.6000;0.1962;7.1053;
798.9000;0.1994;7.1171;
799.2000;0.1937;7.0958;
799.5000;0.1945;7.0864;
799.8000;0.1945;7.0769;
800.1000;0.1986;7.0840;
800.4000;0.2027;7.0958;
800.7000;0.1962;7.0840;
801.0000;0.1978;7.0887;
801.3000;0.1962;7.0935;
801.6000;0.1945;7.1006;
801.9000;0.1945;7.1006;
802.2000;0.1945;7.0958;
802.5000;0.1954;7.0958;
802.8000;0.1954;7.1053;
803.1000;0.1962;7.0982;
803.4000;0.1962;7.0958;
803.7000;0.1970;7.1006;
804.0000;0.1897;7.0769;
804.3000;0.1962;7.0935;
804.6000;0.1913;7.0675;
804.9000;0.1978;7.0887;
805.2000;0.1954;7.0935;
805.5000;0.1978;7.1006;
805.8000;0.1978;7.1029;
806.1000;0.1962;7.0982;
806.4000;0.1937;7.0864;
806.7000;0.1954;7.0958;
807.0000;0.1945;7.0958;
807.3000;0.1962;7.0911;
807.6000;0.1978;7.0958;
807.9000;0.1970;7.0887;
808.2000;0.1970;7.0840;
808.5000;0.1921;7.0793;
808.8000;0.1986;7.0982;
809.1000;0.1978;7.1053;
809.4000;0.1970;7.1147;
809.7000;0.1945;7.1100;
810.0000;0.1978;7.1242;
810.3000;0.1970;7.1124;
810.6000;0.1986;7.1053;
810.9000;0.1945;7.0982;
811.2000;0.1929;7.0958;
811.5000;0.1921;7.1029;
811.8000;0.1970;7.1195;
812.1000;0.1929;7.1076;
812.4000;0.1954;7.1006;
812.7000;0.1921;7.0958;
813.0000;0.1945;7.0958;
813.3000;0.1945;7.0958;
813.6000;0.1945;7.0958;
813.9000;0.1945;7.1029;
814.2000;0.1954;7.1124;
814.5000;0.1945;7.1147;
814.8000;0.1954;7.1100;
815.1000;0.1954;7.1124;
815.4000;0.1945;7.1124;
815.7000;0.1962;7.1171;
816.0000;0.1945;7.1171;
816.3000;0.1954;7.1147;
816.6000;0.1954;7.1076;
816.9000;0.1937;7.1100;
817.2000;0.1954;7.1053;
817.5000;0.1945;7.1053;
817.8000;0.1945;7.1171;
818.1000;0.1970;7.1171;
818.4000;0.1970;7.1195;
818.7000;0.1954;7.1076;
819.0000;0.1954;7.1029;
819.3000;0.1994;7.1124;
819.6000;0.1945;7.0958;
819.9000;0.1954;7.0958;
820.2000;0.1970;7.0982;
820.5000;0.1954;7.0935;
820.8000;0.1994;7.1100;
821.1000;0.1970;7.1076;
821.4000;0.1954;7.1100;
821.7000;0.1937;7.1006;
822.0000;0.1929;7.1053;
822.3000;0.1921;7.0958;
822.6000;0.1954;7.1006;
822.9000;0.1945;7.1006;
823.2000;0.1945;7.0982;
823.5000;0.1937;7.0982;
823.8000;0.1954;7.0982;
824.1000;0.1921;7.1029;
824.4000;0.1945;7.1053;
824.7000;0.1970;7.1029;
825.0000;0.1945;7.1006;
825.3000;0.1954;7.1171;
825.6000;0.1970;7.1218;
825.9000;0.1945;7.1218;
826.2000;0.1945;7.1195;
826.5000;0.1897;7.1100;
826.8000;0.1945;7.1076;
827.1000;0.1929;7.1053;
827.4000;0.1905;7.0982;
827.7000;0.1929;7.1006;
828.0000;0.1872;7.0769;
828.3000;0.1897;7.0698;
828.6000;0.2035;7.1029;
828.9000;0.1937;7.0793;
829.2000;0.1945;7.0816;
829.5000;0.1945;7.0769;
829.8000;0.1945;7.0769;
830.1000;0.1937;7.0864;
830.4000;0.1978;7.1006;
830.7000;0.1937;7.0840;
831.0000;0.1954;7.0816;
831.3000;0.1954;7.0935;
831.6000;0.1994;7.1053;
831.9000;0.1962;7.0958;
832.2000;0.1945;7.1006;
832.5000;0.1954;7.1053;
832.8000;0.1978;7.1100;
833.1000;0.1954;7.1029;
833.4000;0.1937;7.1029;
833.7000;0.1913;7.1006;
834.0000;0.1954;7.1006;
834.3000;0.1962;7.1006;
834.6000;0.1937;7.1076;
834.9000;0.1929;7.1100;
835.2000;0.1937;7.1100;
835.5000;0.1921;7.1053;
835.8000;0.1954;7.1076;
836.1000;0.1945;7.0958;
836.4000;0.2019;7.1053;
836.7000;0.1962;7.1053;
837.0000;0.1945;7.1006;
837.3000;0.1937;7.0958;
837.6000;0.1921;7.0958;
837.9000;0.1929;7.1029;
838.2000;0.1962;7.1124;
838.5000;0.1937;7.1029;
838.8000;0.1929;7.1100;
839.1000;0.1937;7.1171;
839.4000;0.1945;7.1195;
839.7000;0.1954;7.1171;
840.0000;0.1937;7.1124;
840.3000;0.1905;7.0982;
840.6000;0.1962;7.1147;
840.9000;0.1962;7.1147;
841.2000;0.1937;7.1053;
841.5000;0.1954;7.1029;
841.8000;0.1954;7.1006;
842.1000;0.1937;7.1029;
842.4000;0.1962;7.1147;
842.7000;0.1954;7.1124;
843.0000;0.1937;7.1100;
843.3000;0.1945;7.1100;
843.6000;0.1937;7.1147;
843.9000;0.1954;7.1100;
844.2000;0.1929;7.1076;
844.5000;0.1978;7.1100;
844.8000;0.1954;7.1076;
845.1000;0.1929;7.1053;
845.4000;0.1929;7.1076;
845.7000;0.1954;7.1124;
846.0000;0.1937;7.1218;
846.3000;0.1945;7.1266;
846.6000;0.1905;7.1076;
846.9000;0.1954;7.1076;
847.2000;0.1937;7.1100;
847.5000;0.1929;7.1053;
847.8000;0.1937;7.1029;
848.1000;0.1937;7.1124;
848.4000;0.1937;7.1147;
848.7000;0.1945;7.1124;
849.0000;0.1929;7.1076;
849.3000;0.1872;7.0864;
849.6000;0.1929;7.1053;
849.9000;0.1954;7.1076;
850.2000;0.1945;7.1076;
850.5000;0.1929;7.1006;
850.8000;0.1954;7.1100;
851.1000;0.1962;7.1218;
851.4000;0.1897;7.1076;
851.7000;0.2059;7.1455;
852.0000;0.1962;7.1360;
852.3000;0.1929;7.1171;
852.6000;0.1954;7.1218;
852.9000;0.1937;7.1124;
853.2000;0.1945;7.1124;
853.5000;0.1954;7.1171;
853.8000;0.1929;7.1029;
854.1000;0.1970;7.1171;
854.4000;0.1945;7.1076;
854.7000;0.1962;7.1100;
855.0000;0.1954;7.1029;
855.3000;0.1945;7.0982;
855.6000;0.1929;7.1029;
855.9000;0.1929;7.1076;
856.2000;0.1945;7.1124;
856.5000;0.1937;7.1053;
856.8000;0.1945;7.1053;
857.1000;0.1954;7.1076;
857.4000;0.1945;7.1006;
857.7000;0.1929;7.0982;
858.0000;0.1921;7.0982;
858.3000;0.2019;7.1266;
858.6000;0.1937;7.1006;
858.9000;0.1929;7.1029;
859.2000;0.1929;7.1053;
859.5000;0.1962;7.1076;
859.8000;0.1962;7.1029;
860.1000;0.1937;7.1006;
860.4000;0.1921;7.1006;
860.7000;0.1929;7.1029;
861.0000;0.1929;7.1076;
861.3000;0.1945;7.1171;
861.6000;0.1954;7.1147;
861.9000;0.1929;7.1029;
862.2000;0.1937;7.1006;
862.5000;0.1962;7.1053;
862.8000;0.1929;7.0982;
863.1000;0.1921;7.0958;
863.4000;0.1913;7.0935;
863.7000;0.1962;7.1006;
864.0000;0.1945;7.0982;
864.3000;0.2002;7.1171;
864.6000;0.1937;7.1124;
864.9000;0.1954;7.1053;
865.2000;0.1937;7.1076;
865.5000;0.1954;7.1147;
865.8000;0.1945;7.1124;
866.1000;0.1937;7.1100;
866.4000;0.1954;7.1124;
866.7000;0.1954;7.1171;
867.0000;0.1937;7.1124;
867.3000;0.1954;7.1171;
867.6000;0.1962;7.1242;
867.9000;0.1945;7.1124;
868.2000;0.1945;7.1053;
868.5000;0.1913;7.1053;
868.8000;0.1937;7.1147;
869.1000;0.1945;7.1100;
869.4000;0.1945;7.1100;
869.7000;0.1970;7.1195;
870.0000;0.1954;7.1171;
870.3000;0.1945;7.1100;
870.6000;0.1905;7.1029;
870.9000;0.1937;7.1124;
871.2000;0.1880;7.1124;
871.5000;0.1970;7.1336;
871.8000;0.1929;7.1313;
872.1000;0.1937;7.1336;
872.4000;0.1921;7.1289;
872.7000;0.1913;7.1195;
873.0000;0.1945;7.1242;
873.3000;0.1929;7.1218;
873.6000;0.1937;7.1266;
873.9000;0.1954;7.1289;
874.2000;0.1929;7.1242;
874.5000;0.1970;7.1336;
874.8000;0.1905;7.1124;
875.1000;0.1954;7.1124;
875.4000;0.1945;7.1100;
875.7000;0.1945;7.1171;
876.0000;0.1962;7.1289;
876.3000;0.1954;7.1242;
876.6000;0.1929;7.1147;
876.9000;0.1937;7.1171;
877.2000;0.1962;7.1336;
877.5000;0.1929;7.1242;
877.8000;0.1962;7.1289;
878.1000;0.1937;7.1195;
878.4000;0.1929;7.1147;
878.7000;0.1929;7.1171;
879.0000;0.1945;7.1218;
879.3000;0.1905;7.1029;
879.6000;0.1929;7.1076;
879.9000;0.1937;7.1171;
880.2000;0.1929;7.1124;
880.5000;0.1945;7.1124;
880.8000;0.1913;7.1147;
881.1000;0.1945;7.1313;
881.4000;0.1937;7.1195;
881.7000;0.1937;7.1053;
882.0000;0.1945;7.1029;
882.3000;0.1929;7.0840;
882.6000;0.1897;7.0722;
882.9000;0.1978;7.1006;
883.2000;0.1905;7.0887;
883.5000;0.1913;7.0982;
883.8000;0.1929;7.0958;
884.1000;0.1929;7.1053;
884.4000;0.1848;7.0864;
884.7000;0.1945;7.1124;
885.0000;0.1880;7.1006;
885.3000;0.1962;7.1242;
885.6000;0.1921;7.1171;
885.9000;0.1962;7.1336;
886.2000;0.1937;7.1266;
886.5000;0.1945;7.1266;
886.8000;0.1921;7.1147;
887.1000;0.1840;7.1006;
887.4000;0.1945;7.1360;
887.7000;0.1954;7.1289;
888.0000;0.1937;7.1195;
888.3000;0.1945;7.1266;
888.6000;0.1937;7.1266;
888.9000;0.1929;7.1171;
889.2000;0.1937;7.1076;
889.5000;0.1937;7.1171;
889.8000;0.1937;7.1242;
890.1000;0.1937;7.1289;
890.4000;0.1954;7.1289;
890.7000;0.1929;7.1171;
891.0000;0.1945;7.1218;
891.3000;0.1929;7.1242;
891.6000;0.1937;7.1171;
891.9000;0.1913;7.1147;
892.2000;0.1937;7.1218;
892.5000;0.1921;7.1313;
892.8000;0.1888;7.1266;
893.1000;0.1929;7.1360;
893.4000;0.1937;7.1336;
893.7000;0.1962;7.1242;
894.0000;0.1954;7.1242;
894.3000;0.1937;7.1313;
894.6000;0.1913;7.1242;
894.9000;0.1921;7.1289;
895.2000;0.1945;7.1407;
895.5000;0.1929;7.1455;
895.8000;0.1937;7.1478;
896.1000;0.1945;7.1549;
896.4000;0.1929;7.1502;
896.7000;0.1905;7.1407;
897.0000;0.1921;7.1455;
897.3000;0.1905;7.1384;
897.6000;0.1937;7.1407;
897.9000;0.1937;7.1455;
898.2000;0.1945;7.1407;
898.5000;0.1945;7.1313;
898.8000;0.1962;7.1336;
899.1000;0.1937;7.1266;
899.4000;0.1929;7.1313;
899.7000;0.1962;7.1455;
900.0000;0.1937;7.1360;
900.3000;0.1848;7.1242;
900.6000;0.1945;7.1384;
900.9000;0.1913;7.1218;
901.2000;0.1921;7.1242;
901.5000;0.1921;7.1171;
901.8000;0.1929;7.1266;
902.1000;0.1921;7.1266;
902.4000;0.1929;7.1384;
902.7000;0.1872;7.1289;
903.0000;0.1921;7.1336;
903.3000;0.1929;7.1360;
903.6000;0.2002;7.1502;
903.9000;0.1978;7.1384;
904.2000;0.1937;7.1266;
904.5000;0.1945;7.1242;
904.8000;0.1954;7.1195;
905.1000;0.1945;7.1195;
905.4000;0.1856;7.1053;
905.7000;0.2059;7.1644;
906.0000;0.1970;7.1407;
906.3000;0.1929;7.1384;
906.6000;0.1954;7.1336;
906.9000;0.1929;7.1242;
907.2000;0.1897;7.1171;
907.5000;0.1921;7.1218;
907.8000;0.1929;7.1242;
908.1000;0.1945;7.1266;
908.4000;0.1929;7.1147;
908.7000;0.1929;7.1100;
909.0000;0.1921;7.1100;
909.3000;0.1937;7.1171;
909.6000;0.1954;7.1171;
909.9000;0.1905;7.1053;
910.2000;0.1954;7.1124;
910.5000;0.1913;7.1053;
910.8000;0.1945;7.1124;
911.1000;0.1970;7.1195;
911.4000;0.1929;7.1195;
911.7000;0.1937;7.1313;
912.0000;0.1929;7.1289;
912.3000;0.1913;7.1171;
912.6000;0.1921;7.1100;
912.9000;0.1913;7.1076;
913.2000;0.1954;7.1195;
913.5000;0.1954;7.1147;
913.8000;0.1954;7.1147;
914.1000;0.1978;7.1266;
914.4000;0.1945;7.1171;
914.7000;0.1913;7.1029;
915.0000;0.1962;7.1147;
915.3000;0.1937;7.1147;
915.6000;0.1913;7.1147;
915.9000;0.1888;7.1053;
916.2000;0.1921;7.0958;
916.5000;0.2027;7.1242;
916.8000;0.1945;7.1053;
917.1000;0.2002;7.1147;
917.4000;0.1864;7.0793;
917.7000;0.1888;7.0935;
918.0000;0.1905;7.0958;
918.3000;0.1929;7.1053;
918.6000;0.1921;7.1100;
918.9000;0.1929;7.1029;
919.2000;0.1921;7.1076;
919.5000;0.1986;7.1195;
919.8000;0.1921;7.1029;
920.1000;0.1929;7.1076;
920.4000;0.1913;7.1076;
920.7000;0.1937;7.1053;
921.0000;0.1921;7.0958;
921.3000;0.1937;7.1029;
921.6000;0.1937;7.1124;
921.9000;0.1937;7.1242;
922.2000;0.1921;7.1218;
922.5000;0.1913;7.1195;
922.8000;0.1921;7.1218;
923.1000;0.1929;7.1266;
923.4000;0.1945;7.1289;
923.7000;0.1945;7.1360;
924.0000;0.1937;7.1336;
924.3000;0.1913;7.1242;
924.6000;0.1929;7.1336;
924.9000;0.1921;7.1313;
925.2000;0.1921;7.1384;
925.5000;0.1921;7.1289;
925.8000;0.1929;7.1289;
926.1000;0.1945;7.1313;
926.4000;0.1929;7.1195;
926.7000;0.1864;7.0958;
927.0000;0.1929;7.1124;
927.3000;0.1986;7.1242;
927.6000;0.1970;7.1266;
927.9000;0.1929;7.1195;
928.2000;0.1929;7.1266;
928.5000;0.1921;7.1218;
928.8000;0.1937;7.1195;
929.1000;0.1929;7.1218;
929.4000;0.1962;7.1289;
929.7000;0.1913;7.1100;
930.0000;0.1929;7.1171;
930.3000;0.1864;7.1076;
930.6000;0.1905;7.1242;
930.9000;0.1921;7.1384;
931.2000;0.1929;7.1384;
931.5000;0.1921;7.1431;
931.8000;0.1921;7.1407;
932.1000;0.1929;7.1360;
932.4000;0.1897;7.1289;
932.7000;0.2002;7.1644;
933.0000;0.1937;7.1384;
933.3000;0.1921;7.1266;
933.6000;0.1913;7.1289;
933.9000;0.1945;7.1431;
934.2000;0.1929;7.1384;
934.5000;0.1945;7.1289;
934.8000;0.1945;7.1218;
935.1000;0.1978;7.1266;
935.4000;0.1937;7.1124;
935.7000;0.1937;7.1147;
936.0000;0.1921;7.1124;
936.3000;0.1954;7.1124;
936.6000;0.1921;7.0958;
936.9000;0.1921;7.0982;
937.2000;0.1913;7.1006;
937.5000;0.1929;7.1076;
937.8000;0.1945;7.1053;
938.1000;0.1921;7.0958;
938.4000;0.1921;7.0982;
938.7000;0.1937;7.1076;
939.0000;0.1929;7.1053;
939.3000;0.1921;7.0958;
939.6000;0.1921;7.0982;
939.9000;0.1921;7.1076;
940.2000;0.1913;7.1006;
940.5000;0.1937;7.1029;
940.8000;0.1954;7.1029;
941.1000;0.1954;7.1147;
941.4000;0.1905;7.1147;
941.7000;0.1929;7.1195;
942.0000;0.1921;7.1242;
942.3000;0.1970;7.1407;
942.6000;0.1929;7.1336;
942.9000;0.1921;7.1289;
943.2000;0.1929;7.1336;
943.5000;0.1937;7.1313;
943.8000;0.1929;7.1266;
944.1000;0.1921;7.1289;
944.4000;0.1905;7.1313;
944.7000;0.1913;7.1336;
945.0000;0.1945;7.1336;
945.3000;0.1937;7.1336;
945.6000;0.1929;7.1218;
945.9000;0.1945;7.1242;
946.2000;0.1929;7.1242;
946.5000;0.1937;7.1266;
946.8000;0.1945;7.1218;
947.1000;0.1929;7.1171;
947.4000;0.1937;7.1124;
947.7000;0.1921;7.1266;
948.0000;0.1913;7.1195;
948.3000;0.1921;7.1100;
948.6000;0.1954;7.1076;
948.9000;0.1937;7.1006;
949.2000;0.1897;7.0958;
949.5000;0.1913;7.0958;
949.8000;0.1945;7.1006;
950.1000;0.1945;7.1124;
950.4000;0.1921;7.1053;
950.7000;0.1905;7.1006;
951.0000;0.1945;7.1053;
951.3000;0.1945;7.1029;
951.6000;0.1864;7.0935;
951.9000;0.1913;7.1076;
952.2000;0.1945;7.1100;
952.5000;0.1937;7.1076;
952.8000;0.1937;7.1171;
953.1000;0.1929;7.1171;
953.4000;0.1921;7.1147;
953.7000;0.1897;7.1100;
954.0000;0.1921;7.1029;
954.3000;0.1905;7.1053;
954.6000;0.1921;7.1171;
954.9000;0.1913;7.1242;
955.2000;0.1937;7.1336;
955.5000;0.1945;7.1289;
955.8000;0.1937;7.1266;
956.1000;0.2002;7.1360;
956.4000;0.1962;7.1289;
956.7000;0.1945;7.1195;
957.0000;0.1937;7.1218;
957.3000;0.1962;7.1289;
957.6000;0.1945;7.1313;
957.9000;0.1929;7.1195;
958.2000;0.1929;7.1124;
958.5000;0.1937;7.1076;
958.8000;0.1929;7.1053;
959.1000;0.1945;7.1029;
959.4000;0.1937;7.1076;
959.7000;0.1921;7.1053;
960.0000;0.1913;7.1076;
960.3000;0.1880;7.1076;
960.6000;0.1937;7.1147;
960.9000;0.1921;7.1124;
961.2000;0.1913;7.1100;
961.5000;0.1945;7.1147;
961.8000;0.1913;7.1147;
962.1000;0.1929;7.1171;
962.4000;0.1978;7.1218;
962.7000;0.1945;7.1147;
963.0000;0.1921;7.1171;
963.3000;0.1921;7.1218;
963.6000;0.1905;7.1218;
963.9000;0.1921;7.1171;
964.2000;0.1929;7.1076;
964.5000;0.1905;7.1006;
964.8000;0.1897;7.0935;
965.1000;0.1929;7.0958;
965.4000;0.1929;7.1076;
965.7000;0.1929;7.1076;
966.0000;0.1921;7.1124;
966.3000;0.1954;7.1195;
966.6000;0.1954;7.1218;
966.9000;0.1913;7.1195;
967.2000;0.1937;7.1076;
967.5000;0.1913;7.0982;
967.8000;0.1929;7.1076;
968.1000;0.1929;7.1124;
968.4000;0.1913;7.1171;
968.7000;0.1929;7.1289;
969.0000;0.1913;7.1242;
969.3000;0.1929;7.1266;
969.6000;0.1929;7.1289;
969.9000;0.1921;7.1266;
970.2000;0.1929;7.1289;
970.5000;0.1937;7.1336;
970.8000;0.2035;7.1620;
971.1000;0.1921;7.1360;
971.4000;0.1945;7.1289;
971.7000;0.1954;7.1171;
972.0000;0.1929;7.1147;
972.3000;0.1921;7.1218;
972.6000;0.1921;7.1242;
972.9000;0.1897;7.1266;
973.2000;0.1905;7.1195;
973.5000;0.1921;7.1171;
973.8000;0.1970;7.1360;
974.1000;0.1905;7.1147;
974.4000;0.1913;7.1147;
974.7000;0.1913;7.1124;
975.0000;0.1929;7.1195;
975.3000;0.1913;7.1171;
975.6000;0.1921;7.1289;
975.9000;0.1937;7.1336;
976.2000;0.2002;7.1549;
976.5000;0.1929;7.1407;
976.8000;0.1913;7.1384;
977.1000;0.1888;7.1336;
977.4000;0.1921;7.1407;
977.7000;0.1921;7.1384;
978.0000;0.1937;7.1384;
978.3000;0.1921;7.1360;
978.6000;0.1921;7.1478;
978.9000;0.1913;7.1478;
979.2000;0.1905;7.1431;
979.5000;0.1937;7.1455;
979.8000;0.1921;7.1455;
980.1000;0.1962;7.1549;
980.4000;0.1921;7.1455;
980.7000;0.1929;7.1502;
981.0000;0.1929;7.1526;
981.3000;0.1945;7.1478;
981.6000;0.1921;7.1431;
981.9000;0.1832;7.1218;
982.2000;0.1937;7.1549;
982.5000;0.1913;7.1431;
982.8000;0.1937;7.1478;
983.1000;0.1929;7.1360;
983.4000;0.1937;7.1407;
983.7000;0.1921;7.1336;
984.0000;0.1929;7.1336;
984.3000;0.1921;7.1313;
984.6000;0.1937;7.1266;
984.9000;0.1937;7.1336;
985.2000;0.1929;7.1313;
985.5000;0.1929;7.1384;
985.8000;0.1921;7.1360;
986.1000;0.1913;7.1313;
986.4000;0.1921;7.1289;
986.7000;0.1986;7.1431;
987.0000;0.1929;7.1313;
987.3000;0.1913;7.1313;
987.6000;0.1888;7.1360;
987.9000;0.1897;7.1313;
988.2000;0.1921;7.1313;
988.5000;0.1921;7.1313;
988.8000;0.1905;7.1266;
989.1000;0.1913;7.1407;
989.4000;0.1921;7.1407;
989.7000;0.1921;7.1407;
990.0000;0.1929;7.1478;
990.3000;0.1929;7.1431;
990.6000;0.1905;7.1384;
990.9000;0.1937;7.1431;
991.2000;0.1937;7.1478;
991.5000;0.1929;7.1431;
991.8000;0.1913;7.1407;
992.1000;0.1897;7.1478;
992.4000;0.1905;7.1478;
992.7000;0.1888;7.1407;
993.0000;0.1921;7.1478;
993.3000;0.1888;7.1384;
993.6000;0.1929;7.1502;
993.9000;0.1929;7.1596;
994.2000;0.1905;7.1596;
994.5000;0.1913;7.1667;
994.8000;0.1937;7.1738;
995.1000;0.1913;7.1715;
995.4000;0.1905;7.1691;
995.7000;0.1962;7.1786;
996.0000;0.1929;7.1715;
996.3000;0.1905;7.1667;
996.6000;0.1929;7.1644;
996.9000;0.1905;7.1620;
997.2000;0.1937;7.1738;
997.5000;0.1905;7.1715;
997.8000;0.1888;7.1762;
998.1000;0.1888;7.1738;
998.4000;0.1897;7.1691;
998.7000;0.1921;7.1715;
999.0000;0.1897;7.1644;
999.3000;0.1888;7.1620;
999.6000;0.1897;7.1596;
999.9000;0.1856;7.1384;
1000.2000;0.1913;7.1596;
1000.5000;0.1905;7.1526;
1000.8000;0.1897;7.1549;
1001.1000;0.1921;7.1549;
1001.4000;0.1880;7.1455;
1001.7000;0.1929;7.1573;
1002.0000;0.1905;7.1596;
1002.3000;0.1937;7.1691;
1002.6000;0.1929;7.1667;
1002.9000;0.1897;7.1502;
1003.2000;0.1929;7.1526;
1003.5000;0.1929;7.1573;
1003.8000;0.1954;7.1549;
1004.1000;0.1921;7.1502;
1004.4000;0.1921;7.1431;
1004.7000;0.1913;7.1289;
1005.0000;0.1921;7.1336;
1005.3000;0.1913;7.1336;
1005.6000;0.1921;7.1407;
1005.9000;0.1945;7.1478;
1006.2000;0.1921;7.1431;
1006.5000;0.1921;7.1289;
1006.8000;0.1937;7.1384;
1007.1000;0.1937;7.1336;
1007.4000;0.1937;7.1384;
1007.7000;0.1986;7.1455;
1008.0000;0.1921;7.1313;
1008.3000;0.1913;7.1289;
1008.6000;0.1962;7.1431;
1008.9000;0.1962;7.1336;
1009.2000;0.1921;7.1289;
1009.5000;0.1921;7.1313;
1009.8000;0.1921;7.1289;
1010.1000;0.1921;7.1384;
1010.4000;0.1913;7.1313;
1010.7000;0.1945;7.1384;
1011.0000;0.1913;7.1384;
1011.3000;0.1897;7.1431;
1011.6000;0.1897;7.1384;
1011.9000;0.1905;7.1407;
1012.2000;0.1921;7.1384;
1012.5000;0.1905;7.1336;
1012.8000;0.1856;7.1218;
1013.1000;0.1913;7.1407;
1013.4000;0.1888;7.1407;
1013.7000;0.1978;7.1596;
1014.0000;0.1897;7.1313;
1014.3000;0.1921;7.1360;
1014.6000;0.1929;7.1478;
1014.9000;0.1905;7.1478;
1015.2000;0.1937;7.1502;
1015.5000;0.1929;7.1360;
1015.8000;0.1937;7.1360;
1016.1000;0.1945;7.1478;
1016.4000;0.1921;7.1431;
1016.7000;0.1905;7.1360;
1017.0000;0.1954;7.1526;
1017.3000;0.1937;7.1549;
1017.6000;0.1929;7.1596;
1017.9000;0.1905;7.1526;
1018.2000;0.1897;7.1384;
1018.5000;0.1929;7.1478;
1018.8000;0.1945;7.1407;
1019.1000;0.1921;7.1384;
1019.4000;0.1929;7.1431;
1019.7000;0.1905;7.1526;
1020.0000;0.1945;7.1573;
1020.3000;0.1929;7.1478;
1020.6000;0.1905;7.1384;
1020.9000;0.1921;7.1431;
1021.2000;0.1954;7.1526;
1021.5000;0.1921;7.1407;
1021.8000;0.1929;7.1407;
1022.1000;0.1929;7.1360;
1022.4000;0.1945;7.1407;
1022.7000;0.1929;7.1478;
1023.0000;0.1929;7.1502;
1023.3000;0.1897;7.1502;
1023.6000;0.1913;7.1596;
1023.9000;0.1921;7.1715;
1024.2000;0.1897;7.1762;
1024.5000;0.1913;7.1762;
1024.8000;0.1905;7.1738;
1025.1000;0.1937;7.1809;
1025.4000;0.1929;7.1738;
1025.7000;0.1913;7.1786;
1026.0000;0.1880;7.1715;
1026.3000;0.1905;7.1762;
1026.6000;0.1921;7.1786;
1026.9000;0.1880;7.1667;
1027.2000;0.1921;7.1809;
1027.5000;0.1872;7.1667;
1027.8000;0.1913;7.1786;
1028.1000;0.1864;7.1596;
1028.4000;0.1897;7.1691;
1028.7000;0.1921;7.1620;
1029.0000;0.1937;7.1620;
1029.3000;0.1921;7.1526;
1029.6000;0.1905;7.1549;
1029.9000;0.1856;7.1431;
1030.2000;0.1921;7.1502;
1030.5000;0.1921;7.1526;
1030.8000;0.1921;7.1549;
1031.1000;0.1921;7.1620;
1031.4000;0.1905;7.1573;
1031.7000;0.1921;7.1573;
1032.0000;0.1913;7.1691;
1032.3000;0.1897;7.1644;
1032.6000;0.1921;7.1738;
1032.9000;0.1929;7.1833;
1033.2000;0.1913;7.1786;
1033.5000;0.1921;7.1856;
1033.8000;0.1913;7.1856;
1034.1000;0.1888;7.1762;
1034.4000;0.1856;7.1644;
1034.7000;0.1905;7.1715;
1035.0000;0.1897;7.1573;
1035.3000;0.1913;7.1502;
1035.6000;0.2011;7.1738;
1035.9000;0.1921;7.1549;
1036.2000;0.1913;7.1526;
1036.5000;0.1897;7.1455;
1036.8000;0.1929;7.1549;
1037.1000;0.1888;7.1431;
1037.4000;0.1815;7.1313;
1037.7000;0.1937;7.1573;
1038.0000;0.1921;7.1596;
1038.3000;0.1986;7.1786;
1038.6000;0.1864;7.1455;
1038.9000;0.1921;7.1620;
1039.2000;0.1905;7.1502;
1039.5000;0.1970;7.1644;
1039.8000;0.1913;7.1384;
1040.1000;0.1913;7.1218;
1040.4000;0.1929;7.1242;
1040.7000;0.1921;7.1242;
1041.0000;0.1921;7.1242;
1041.3000;0.1888;7.1124;
1041.6000;0.1929;7.1171;
1041.9000;0.1929;7.1124;
1042.2000;0.1897;7.1029;
1042.5000;0.1905;7.1006;
1042.8000;0.1913;7.1029;
1043.1000;0.1913;7.1076;
1043.4000;0.1913;7.1100;
1043.7000;0.1929;7.1124;
1044.0000;0.1905;7.1076;
1044.3000;0.1937;7.1171;
1044.6000;0.1945;7.1171;
1044.9000;0.1921;7.1053;
1045.2000;0.1921;7.1076;
1045.5000;0.1929;7.1100;
1045.8000;0.1929;7.1147;
1046.1000;0.1913;7.1171;
1046.4000;0.1937;7.1289;
1046.7000;0.1937;7.1384;
1047.0000;0.1921;7.1384;
1047.3000;0.1986;7.1691;
1047.6000;0.1962;7.1620;
1047.9000;0.1913;7.1431;
1048.2000;0.1937;7.1360;
1048.5000;0.1913;7.1195;
1048.8000;0.1807;7.0911;
1049.1000;0.1913;7.1218;
1049.4000;0.1921;7.1218;
1049.7000;0.1962;7.1266;
1050.0000;0.1921;7.1171;
1050.3000;0.1905;7.1076;
1050.6000;0.1921;7.1076;
1050.9000;0.1913;7.1124;
1051.2000;0.1888;7.1100;
1051.5000;0.1856;7.1053;
1051.8000;0.1929;7.1171;
1052.1000;0.1929;7.1171;
1052.4000;0.1905;7.1053;
1052.7000;0.1921;7.1218;
1053.0000;0.1921;7.1195;
1053.3000;0.1913;7.1147;
1053.6000;0.1913;7.1029;
1053.9000;0.1921;7.1076;
1054.2000;0.1929;7.1076;
1054.5000;0.1913;7.1053;
1054.8000;0.1913;7.1124;
1055.1000;0.1897;7.1100;
1055.4000;0.1945;7.1218;
1055.7000;0.1937;7.1289;
1056.0000;0.1905;7.1289;
1056.3000;0.1897;7.1313;
1056.6000;0.2011;7.1596;
1056.9000;0.1913;7.1360;
1057.2000;0.1945;7.1336;
1057.5000;0.1888;7.1218;
1057.8000;0.1937;7.1289;
1058.1000;0.1913;7.1384;
1058.4000;0.1880;7.1313;
1058.7000;0.1913;7.1266;
1059.0000;0.1897;7.1195;
1059.3000;0.1880;7.1100;
1059.6000;0.1913;7.1266;
1059.9000;0.1897;7.1218;
1060.2000;0.1905;7.1266;
1060.5000;0.1937;7.1360;
1060.8000;0.1905;7.1195;
1061.1000;0.1913;7.1195;
1061.4000;0.1888;7.1029;
1061.7000;0.1929;7.1100;
1062.0000;0.1937;7.1147;
1062.3000;0.1921;7.1147;
1062.6000;0.1913;7.1147;
1062.9000;0.1921;7.1053;
1063.2000;0.1921;7.1218;
1063.5000;0.1913;7.1360;
1063.8000;0.1945;7.1360;
1064.1000;0.1929;7.1313;
1064.4000;0.1897;7.1266;
1064.7000;0.1937;7.1336;
1065.0000;0.1905;7.1266;
1065.3000;0.1929;7.1289;
1065.6000;0.1921;7.1218;
1065.9000;0.1921;7.1313;
1066.2000;0.1921;7.1313;
1066.5000;0.1921;7.1336;
1066.8000;0.1913;7.1289;
1067.1000;0.1937;7.1360;
1067.4000;0.1929;7.1384;
1067.7000;0.1929;7.1431;
1068.0000;0.1905;7.1407;
1068.3000;0.1921;7.1478;
1068.6000;0.1929;7.1384;
1068.9000;0.1897;7.1289;
1069.2000;0.1929;7.1360;
1069.5000;0.1954;7.1384;
1069.8000;0.1929;7.1384;
1070.1000;0.1962;7.1384;
1070.4000;0.1913;7.1384;
1070.7000;0.1954;7.1573;
1071.0000;0.1921;7.1502;
1071.3000;0.1937;7.1526;
1071.6000;0.1945;7.1502;
1071.9000;0.1929;7.1596;
1072.2000;0.1929;7.1620;
1072.5000;0.1913;7.1478;
1072.8000;0.1905;7.1407;
1073.1000;0.1921;7.1455;
1073.4000;0.1913;7.1289;
1073.7000;0.1921;7.1313;
1074.0000;0.1913;7.1336;
1074.3000;0.1913;7.1336;
1074.6000;0.1970;7.1431;
1074.9000;0.1937;7.1360;
1075.2000;0.1913;7.1384;
1075.5000;0.1945;7.1407;
1075.8000;0.1897;7.1336;
1076.1000;0.1897;7.1289;
1076.4000;0.1897;7.1242;
1076.7000;0.1905;7.1266;
1077.0000;0.1913;7.1384;
1077.3000;0.1929;7.1407;
1077.6000;0.1905;7.1384;
1077.9000;0.1921;7.1407;
1078.2000;0.1937;7.1431;
1078.5000;0.1937;7.1384;
1078.8000;0.1905;7.1195;
1079.1000;0.1921;7.1171;
1079.4000;0.1962;7.1124;
1079.7000;0.1929;7.1124;
1080.0000;0.1994;7.1336;
1080.3000;0.1921;7.1242;
1080.6000;0.1897;7.1218;
1080.9000;0.1929;7.1242;
1081.2000;0.1921;7.1171;
1081.5000;0.1962;7.1313;
1081.8000;0.1913;7.1266;
1082.1000;0.1921;7.1313;
1082.4000;0.1929;7.1266;
1082.7000;0.1921;7.1266;
1083.0000;0.1913;7.1384;
1083.3000;0.1913;7.1455;
1083.6000;0.1954;7.1573;
1083.9000;0.1888;7.1455;
1084.2000;0.1905;7.1526;
1084.5000;0.1897;7.1502;
1084.8000;0.1913;7.1455;
1085.1000;0.1864;7.1407;
1085.4000;0.1913;7.1502;
1085.7000;0.1905;7.1407;
1086.0000;0.1913;7.1360;
1086.3000;0.1913;7.1384;
1086.6000;0.1929;7.1384;
1086.9000;0.1913;7.1336;
1087.2000;0.1929;7.1384;
1087.5000;0.1937;7.1336;
1087.8000;0.1913;7.1336;
1088.1000;0.1913;7.1360;
1088.4000;0.1945;7.1431;
1088.7000;0.1945;7.1549;
1089.0000;0.1913;7.1502;
1089.3000;0.1929;7.1526;
1089.6000;0.1913;7.1478;
1089.9000;0.1913;7.1502;
1090.2000;0.1978;7.1644;
1090.5000;0.1905;7.1526;
1090.8000;0.1921;7.1549;
1091.1000;0.1921;7.1549;
1091.4000;0.1905;7.1502;
1091.7000;0.1905;7.1596;
1092.0000;0.1905;7.1573;
1092.3000;0.1937;7.1620;
1092.6000;0.1929;7.1667;
1092.9000;0.1929;7.1573;
1093.2000;0.1905;7.1549;
1093.5000;0.1921;7.1573;
1093.8000;0.1913;7.1384;
1094.1000;0.1913;7.1336;
1094.4000;0.1921;7.1336;
1094.7000;0.1897;7.1266;
1095.0000;0.1929;7.1407;
1095.3000;0.1921;7.1384;
1095.6000;0.1937;7.1407;
1095.9000;0.1913;7.1266;
1096.2000;0.1929;7.1218;
1096.5000;0.1937;7.1195;
1096.8000;0.1945;7.1100;
1097.1000;0.1864;7.0982;
1097.4000;0.1913;7.1076;
1097.7000;0.1954;7.1195;
1098.0000;0.1913;7.1195;
1098.3000;0.1929;7.1289;
1098.6000;0.1929;7.1289;
1098.9000;0.1913;7.1289;
1099.2000;0.1929;7.1313;
1099.5000;0.1921;7.1242;
1099.8000;0.1913;7.1266;
1100.1000;0.1962;7.1384;
1100.4000;0.1913;7.1313;
1100.7000;0.1921;7.1195;
1101.0000;0.1905;7.1266;
1101.3000;0.1897;7.1242;
1101.6000;0.1921;7.1407;
1101.9000;0.1905;7.1431;
1102.2000;0.1905;7.1478;
1102.5000;0.1905;7.1431;
1102.8000;0.1913;7.1455;
1103.1000;0.1905;7.1455;
1103.4000;0.1897;7.1407;
1103.7000;0.1905;7.1384;
1104.0000;0.1921;7.1336;
1104.3000;0.1905;7.1266;
1104.6000;0.1897;7.1242;
1104.9000;0.1905;7.1313;
1105.2000;0.1921;7.1313;
1105.5000;0.1945;7.1360;
1105.8000;0.1905;7.1266;
1106.1000;0.1921;7.1360;
1106.4000;0.1913;7.1336;
1106.7000;0.1921;7.1384;
1107.0000;0.1929;7.1455;
1107.3000;0.1921;7.1360;
1107.6000;0.1937;7.1266;
1107.9000;0.1937;7.1289;
1108.2000;0.1937;7.1218;
1108.5000;0.1986;7.1336;
1108.8000;0.1937;7.1289;
1109.1000;0.1888;7.1171;
1109.4000;0.1921;7.1195;
1109.7000;0.1913;7.1218;
1110.0000;0.1905;7.1124;
1110.3000;0.1897;7.1171;
1110.6000;0.1937;7.1242;
1110.9000;0.1913;7.1218;
1111.2000;0.1921;7.1218;
1111.5000;0.1905;7.1147;
1111.8000;0.2043;7.1455;
1112.1000;0.1913;7.1124;
1112.4000;0.1929;7.1124;
1112.7000;0.1929;7.1171;
1113.0000;0.1937;7.1171;
1113.3000;0.1888;7.1029;
1113.6000;0.1913;7.1076;
1113.9000;0.1929;7.1147;
1114.2000;0.1905;7.1053;
1114.5000;0.1921;7.1171;
1114.8000;0.1929;7.1242;
1115.1000;0.1962;7.1336;
1115.4000;0.1913;7.1242;
1115.7000;0.1921;7.1266;
1116.0000;0.1905;7.1218;
1116.3000;0.1921;7.1289;
1116.6000;0.1921;7.1384;
1116.9000;0.1888;7.1336;
1117.2000;0.1921;7.1455;
1117.5000;0.1913;7.1478;
1117.8000;0.1937;7.1478;
1118.1000;0.2002;7.1596;
1118.4000;0.1913;7.1455;
1118.7000;0.1921;7.1455;
1119.0000;0.1929;7.1478;
1119.3000;0.1897;7.1407;
1119.6000;0.1888;7.1407;
1119.9000;0.1913;7.1407;
1120.2000;0.1913;7.1384;
1120.5000;0.1921;7.1478;
1120.8000;0.1954;7.1549;
1121.1000;0.1897;7.1431;
1121.4000;0.1921;7.1478;
1121.7000;0.1929;7.1407;
1122.0000;0.1929;7.1431;
1122.3000;0.1937;7.1478;
1122.6000;0.1937;7.1407;
1122.9000;0.1921;7.1502;
1123.2000;0.1929;7.1478;
1123.5000;0.1921;7.1266;
1123.8000;0.1807;7.0982;
1124.1000;0.1897;7.1242;
1124.4000;0.1962;7.1455;
1124.7000;0.1921;7.1289;
1125.0000;0.1913;7.1289;
1125.3000;0.1897;7.1266;
1125.6000;0.1921;7.1242;
1125.9000;0.1921;7.1266;
1126.2000;0.1913;7.1195;
1126.5000;0.1921;7.1195;
1126.8000;0.1897;7.1100;
1127.1000;0.1905;7.1218;
1127.4000;0.1954;7.1313;
1127.7000;0.1913;7.1242;
1128.0000;0.1929;7.1266;
1128.3000;0.1913;7.1242;
1128.6000;0.1905;7.1266;
1128.9000;0.1921;7.1384;
1129.2000;0.1905;7.1336;
1129.5000;0.1880;7.1218;
1129.8000;0.1921;7.1336;
1130.1000;0.1929;7.1289;
1130.4000;0.1897;7.1266;
1130.7000;0.1929;7.1360;
1131.0000;0.1954;7.1407;
1131.3000;0.1913;7.1266;
1131.6000;0.1929;7.1384;
1131.9000;0.1929;7.1360;
1132.2000;0.1937;7.1407;
1132.5000;0.1970;7.1455;
1132.8000;0.1905;7.1313;
1133.1000;0.1921;7.1360;
1133.4000;0.1921;7.1384;
1133.7000;0.1905;7.1407;
1134.0000;0.1897;7.1431;
1134.3000;0.1929;7.1478;
1134.6000;0.1937;7.1549;
1134.9000;0.1897;7.1502;
1135.2000;0.1929;7.1478;
1135.5000;0.1905;7.1455;
1135.8000;0.1929;7.1431;
1136.1000;0.1888;7.1407;
1136.4000;0.1913;7.1478;
1136.7000;0.1945;7.1620;
1137.0000;0.1986;7.1738;
1137.3000;0.1921;7.1596;
1137.6000;0.1921;7.1573;
1137.9000;0.1913;7.1502;
1138.2000;0.1913;7.1502;
1138.5000;0.1921;7.1478;
1138.8000;0.1905;7.1407;
1139.1000;0.1897;7.1384;
1139.4000;0.1937;7.1407;
1139.7000;0.1905;7.1313;
1140.0000;0.1897;7.1313;
1140.3000;0.1897;7.1289;
1140.6000;0.1921;7.1336;
1140.9000;0.1921;7.1360;
1141.2000;0.1921;7.1266;
1141.5000;0.1921;7.1289;
1141.8000;0.1937;7.1431;
1142.1000;0.1937;7.1455;
1142.4000;0.1937;7.1384;
1142.7000;0.1913;7.1360;
1143.0000;0.1888;7.1360;
1143.3000;0.1929;7.1384;
1143.6000;0.1929;7.1431;
1143.9000;0.1897;7.1407;
1144.2000;0.1921;7.1407;
1144.5000;0.1905;7.1360;
1144.8000;0.1937;7.1431;
1145.1000;0.1905;7.1478;
1145.4000;0.1880;7.1455;
1145.7000;0.1929;7.1455;
1146.0000;0.1929;7.1455;
1146.3000;0.1888;7.1218;
1146.6000;0.1913;7.1289;
1146.9000;0.1962;7.1478;
1147.2000;0.1921;7.1407;
1147.5000;0.1937;7.1407;
1147.8000;0.1921;7.1289;
1148.1000;0.1897;7.1266;
1148.4000;0.1962;7.1455;
1148.7000;0.1921;7.1407;
1149.0000;0.1970;7.1573;
1149.3000;0.1880;7.1384;
1149.6000;0.1905;7.1384;
1149.9000;0.1913;7.1431;
1150.2000;0.1962;7.1526;
1150.5000;0.1880;7.1384;
1150.8000;0.1905;7.1384;
1151.1000;0.1937;7.1478;
1151.4000;0.1888;7.1336;
1151.7000;0.1913;7.1313;
1152.0000;0.1921;7.1242;
1152.3000;0.1905;7.1313;
1152.6000;0.1905;7.1289;
1152.9000;0.1921;7.1313;
1153.2000;0.1897;7.1289;
1153.5000;0.1962;7.1336;
1153.8000;0.1929;7.1218;
1154.1000;0.1905;7.1195;
1154.4000;0.1905;7.1171;
1154.7000;0.1913;7.1218;
1155.0000;0.1913;7.1147;
1155.3000;0.1905;7.1076;
1155.6000;0.1921;7.1053;
1155.9000;0.1937;7.1124;
1156.2000;0.1929;7.1124;
1156.5000;0.1913;7.1171;
1156.8000;0.1905;7.1171;
1157.1000;0.1913;7.1147;
1157.4000;0.1937;7.1218;
1157.7000;0.1921;7.1124;
1158.0000;0.1913;7.1171;
1158.3000;0.1921;7.1336;
1158.6000;0.1913;7.1384;
1158.9000;0.1962;7.1431;
1159.2000;0.1897;7.1336;
1159.5000;0.1913;7.1313;
1159.8000;0.1921;7.1384;
1160.1000;0.1905;7.1336;
1160.4000;0.1913;7.1360;
1160.7000;0.1905;7.1289;
1161.0000;0.1921;7.1289;
1161.3000;0.1913;7.1242;
1161.6000;0.1905;7.1242;
1161.9000;0.1921;7.1360;
1162.2000;0.1929;7.1478;
1162.5000;0.1913;7.1360;
1162.8000;0.1937;7.1431;
1163.1000;0.1913;7.1431;
1163.4000;0.1913;7.1502;
1163.7000;0.1929;7.1549;
1164.0000;0.1921;7.1431;
1164.3000;0.1905;7.1242;
1164.6000;0.1929;7.1266;
1164.9000;0.1937;7.1242;
1165.2000;0.1954;7.1289;
1165.5000;0.1921;7.1147;
1165.8000;0.1913;7.1147;
1166.1000;0.1913;7.1147;
1166.4000;0.1856;7.1053;
1166.7000;0.1905;7.1100;
1167.0000;0.1921;7.1195;
1167.3000;0.1921;7.1266;
1167.6000;0.1937;7.1266;
1167.9000;0.1921;7.1266;
1168.2000;0.1921;7.1195;
1168.5000;0.1929;7.1313;
1168.8000;0.1921;7.1242;
1169.1000;0.1921;7.1242;
1169.4000;0.1888;7.1171;
1169.7000;0.1929;7.1384;
1170.0000;0.1913;7.1431;
1170.3000;0.1921;7.1431;
1170.6000;0.1897;7.1218;
1170.9000;0.1905;7.1313;
1171.2000;0.1913;7.1242;
1171.5000;0.1888;7.1147;
1171.8000;0.1905;7.1171;
1172.1000;0.1929;7.1218;
1172.4000;0.1905;7.1242;
1172.7000;0.1905;7.1266;
1173.0000;0.1921;7.1431;
1173.3000;0.1888;7.1313;
1173.6000;0.1897;7.1242;
1173.9000;0.1913;7.1289;
1174.2000;0.1913;7.1289;
1174.5000;0.1897;7.1266;
1174.8000;0.1880;7.1124;
1175.1000;0.1921;7.1195;
1175.4000;0.1945;7.1313;
1175.7000;0.1905;7.1313;
1176.0000;0.1897;7.1336;
1176.3000;0.1905;7.1266;
1176.6000;0.1905;7.1336;
1176.9000;0.1913;7.1336;
1177.2000;0.1913;7.1289;
1177.5000;0.1905;7.1218;
1177.8000;0.1905;7.1266;
1178.1000;0.1921;7.1313;
1178.4000;0.1913;7.1266;
1178.7000;0.1929;7.1266;
1179.0000;0.1905;7.1266;
1179.3000;0.1986;7.1478;
1179.6000;0.1905;7.1360;
1179.9000;0.1897;7.1360;
1180.2000;0.1913;7.1360;
1180.5000;0.1905;7.1289;
1180.8000;0.1905;7.1266;
1181.1000;0.1905;7.1336;
1181.4000;0.1921;7.1336;
1181.7000;0.1929;7.1313;
1182.0000;0.1897;7.1384;
1182.3000;0.1880;7.1313;
1182.6000;0.1937;7.1549;
1182.9000;0.1905;7.1549;
1183.2000;0.1921;7.1549;
1183.5000;0.1913;7.1526;
1183.8000;0.1913;7.1573;
1184.1000;0.1929;7.1549;
1184.4000;0.1929;7.1573;
1184.7000;0.1897;7.1431;
1185.0000;0.1929;7.1478;
1185.3000;0.1905;7.1455;
1185.6000;0.1905;7.1431;
1185.9000;0.1913;7.1549;
1186.2000;0.1913;7.1573;
1186.5000;0.1929;7.1644;
1186.8000;0.1913;7.1502;
1187.1000;0.1921;7.1455;
1187.4000;0.1913;7.1478;
1187.7000;0.1905;7.1407;
1188.0000;0.1921;7.1384;
1188.3000;0.1897;7.1242;
1188.6000;0.1921;7.1336;
1188.9000;0.1921;7.1360;
1189.2000;0.1905;7.1384;
1189.5000;0.1962;7.1502;
1189.8000;0.1897;7.1407;
1190.1000;0.2011;7.1620;
1190.4000;0.1970;7.1526;
1190.7000;0.1888;7.1336;
1191.0000;0.1897;7.1289;
1191.3000;0.1905;7.1360;
1191.6000;0.1913;7.1478;
1191.9000;0.1905;7.1526;
1192.2000;0.1897;7.1502;
1192.5000;0.1913;7.1455;
1192.8000;0.1897;7.1407;
1193.1000;0.1897;7.1313;
1193.4000;0.1913;7.1384;
1193.7000;0.1905;7.1407;
1194.0000;0.1913;7.1407;
1194.3000;0.1921;7.1526;
1194.6000;0.1945;7.1526;
1194.9000;0.1913;7.1407;
1195.2000;0.1888;7.1360;
1195.5000;0.1921;7.1336;
1195.8000;0.1905;7.1313;
1196.1000;0.1888;7.1171;
1196.4000;0.1815;7.1006;
1196.7000;0.1921;7.1266;
1197.0000;0.1921;7.1360;
1197.3000;0.1921;7.1384;
1197.6000;0.1921;7.1384;
1197.9000;0.1921;7.1336;
1198.2000;0.1905;7.1289;
1198.5000;0.1913;7.1336;
1198.8000;0.1905;7.1336;
1199.1000;0.1905;7.1313;
1199.4000;0.1913;7.1289;
1199.7000;0.1954;7.1313;
1200.0000;0.1921;7.1171;
1200.3000;0.1921;7.1147;
1200.6000;0.1929;7.1242;
1200.9000;0.1905;7.1218;
1201.2000;0.1897;7.1266;
1201.5000;0.1905;7.1195;
1201.8000;0.1913;7.1195;
1202.1000;0.1921;7.1242;
1202.4000;0.1921;7.1195;
1202.7000;0.1913;7.1100;
1203.0000;0.1905;7.1147;
1203.3000;0.1921;7.1171;
1203.6000;0.1921;7.1195;
1203.9000;0.1937;7.1313;
1204.2000;0.1905;7.1336;
1204.5000;0.1937;7.1455;
1204.8000;0.1913;7.1360;
1205.1000;0.1929;7.1384;
1205.4000;0.1913;7.1384;
1205.7000;0.1921;7.1455;
1206.0000;0.1897;7.1336;
1206.3000;0.1905;7.1407;
1206.6000;0.1970;7.1526;
1206.9000;0.1905;7.1431;
1207.2000;0.1921;7.1478;
1207.5000;0.1905;7.1407;
1207.8000;0.1897;7.1455;
1208.1000;0.1913;7.1549;
1208.4000;0.1905;7.1478;
1208.7000;0.1913;7.1502;
1209.0000;0.1897;7.1502;
1209.3000;0.1921;7.1573;
1209.6000;0.1815;7.1336;
1209.9000;0.1897;7.1644;
1210.2000;0.1888;7.1573;
1210.5000;0.1913;7.1526;
1210.8000;0.1913;7.1549;
1211.1000;0.1905;7.1502;
1211.4000;0.1897;7.1526;
1211.7000;0.1905;7.1644;
1212.0000;0.1888;7.1549;
1212.3000;0.1913;7.1526;
1212.6000;0.1897;7.1478;
1212.9000;0.1921;7.1549;
1213.2000;0.1913;7.1526;
1213.5000;0.1937;7.1549;
1213.8000;0.1929;7.1620;
1214.1000;0.1913;7.1573;
1214.4000;0.1913;7.1478;
1214.7000;0.1921;7.1573;
1215.0000;0.1905;7.1620;
1215.3000;0.1905;7.1573;
1215.6000;0.1929;7.1549;
1215.9000;0.1880;7.1478;
1216.2000;0.1913;7.1549;
1216.5000;0.1897;7.1478;
1216.8000;0.1913;7.1313;
1217.1000;0.1840;7.1147;
1217.4000;0.1905;7.1266;
1217.7000;0.1905;7.1266;
1218.0000;0.1929;7.1360;
1218.3000;0.1921;7.1407;
1218.6000;0.1913;7.1384;
1218.9000;0.1921;7.1407;
1219.2000;0.1913;7.1526;
1219.5000;0.1905;7.1573;
1219.8000;0.1929;7.1573;
1220.1000;0.1888;7.1526;
1220.4000;0.1864;7.1502;
1220.7000;0.1913;7.1573;
1221.0000;0.1897;7.1549;
1221.3000;0.1921;7.1502;
1221.6000;0.1888;7.1407;
1221.9000;0.1913;7.1502;
1222.2000;0.1905;7.1384;
1222.5000;0.1913;7.1360;
1222.8000;0.1962;7.1431;
1223.1000;0.1888;7.1336;
1223.4000;0.1905;7.1336;
1223.7000;0.1929;7.1431;
1224.0000;0.1905;7.1313;
1224.3000;0.1888;7.1289;
1224.6000;0.1929;7.1336;
1224.9000;0.1913;7.1313;
1225.2000;0.1905;7.1266;
1225.5000;0.1921;7.1195;
1225.8000;0.1897;7.1100;
1226.1000;0.1888;7.1100;
1226.4000;0.1897;7.1171;
1226.7000;0.1872;7.1076;
1227.0000;0.1897;7.1076;
1227.3000;0.1937;7.1218;
1227.6000;0.1937;7.1100;
1227.9000;0.1929;7.1076;
1228.2000;0.1913;7.1076;
1228.5000;0.1921;7.1124;
1228.8000;0.1978;7.1313;
1229.1000;0.1937;7.1218;
1229.4000;0.1921;7.1336;
1229.7000;0.1929;7.1336;
1230.0000;0.1937;7.1360;
1230.3000;0.1872;7.1242;
1230.6000;0.1905;7.1360;
1230.9000;0.1929;7.1336;
1231.2000;0.1905;7.1289;
1231.5000;0.1897;7.1266;
1231.8000;0.1954;7.1407;
1232.1000;0.1897;7.1336;
1232.4000;0.1929;7.1455;
1232.7000;0.1937;7.1478;
1233.0000;0.1905;7.1455;
1233.3000;0.1905;7.1455;
1233.6000;0.1913;7.1526;
1233.9000;0.1905;7.1549;
1234.2000;0.1832;7.1336;
1234.5000;0.1905;7.1455;
1234.8000;0.1913;7.1478;
1235.1000;0.1905;7.1336;
1235.4000;0.1905;7.1242;
1235.7000;0.1929;7.1289;
1236.0000;0.1954;7.1360;
1236.3000;0.1897;7.1266;
1236.6000;0.1937;7.1336;
1236.9000;0.1921;7.1218;
1237.2000;0.1921;7.1242;
1237.5000;0.1937;7.1289;
1237.8000;0.1970;7.1384;
1238.1000;0.1970;7.1407;
1238.4000;0.1921;7.1336;
1238.7000;0.1937;7.1313;
1239.0000;0.1921;7.1313;
1239.3000;0.1929;7.1384;
1239.6000;0.1880;7.1384;
1239.9000;0.1994;7.1620;
1240.2000;0.1897;7.1360;
1240.5000;0.1897;7.1360;
1240.8000;0.1913;7.1360;
1241.1000;0.1905;7.1313;
1241.4000;0.1888;7.1242;
1241.7000;0.1913;7.1242;
1242.0000;0.1888;7.1171;
1242.3000;0.1856;7.1053;
1242.6000;0.1937;7.1313;
1242.9000;0.1913;7.1384;
1243.2000;0.1929;7.1384;
1243.5000;0.1864;7.1266;
1243.8000;0.1880;7.1289;
1244.1000;0.1897;7.1242;
1244.4000;0.1921;7.1266;
1244.7000;0.1897;7.1242;
1245.0000;0.1921;7.1336;
1245.3000;0.1807;7.1053;
1245.6000;0.1921;7.1478;
1245.9000;0.1872;7.1384;
1246.2000;0.1897;7.1431;
1246.5000;0.1937;7.1526;
1246.8000;0.1962;7.1620;
1247.1000;0.1897;7.1455;
1247.4000;0.1832;7.1313;
1247.7000;0.1937;7.1478;
1248.0000;0.1791;7.1029;
1248.3000;0.1856;7.1195;
1248.6000;0.1945;7.1407;
1248.9000;0.1888;7.1242;
1249.2000;0.1921;7.1336;
1249.5000;0.1921;7.1313;
1249.8000;0.1913;7.1313;
1250.1000;0.1945;7.1455;
1250.4000;0.1945;7.1431;
1250.7000;0.1897;7.1360;
1251.0000;0.1921;7.1431;
1251.3000;0.1921;7.1431;
1251.6000;0.1913;7.1478;
1251.9000;0.1905;7.1502;
1252.2000;0.1921;7.1667;
1252.5000;0.1937;7.1715;
1252.8000;0.1929;7.1667;
1253.1000;0.1905;7.1526;
1253.4000;0.1913;7.1596;
1253.7000;0.1945;7.1549;
1254.0000;0.1921;7.1549;
1254.3000;0.1954;7.1644;
1254.6000;0.1921;7.1526;
1254.9000;0.1905;7.1549;
1255.2000;0.1929;7.1526;
1255.5000;0.1913;7.1407;
1255.8000;0.1888;7.1336;
1256.1000;0.1921;7.1384;
1256.4000;0.1913;7.1360;
1256.7000;0.1994;7.1526;
1257.0000;0.1929;7.1478;
1257.3000;0.1921;7.1526;
1257.6000;0.1913;7.1502;
1257.9000;0.1921;7.1455;
1258.2000;0.1921;7.1455;
1258.5000;0.1921;7.1455;
1258.8000;0.1913;7.1478;
1259.1000;0.1937;7.1526;
1259.4000;0.1921;7.1455;
1259.7000;0.1921;7.1502;
1260.0000;0.1913;7.1526;
1260.3000;0.1913;7.1455;
1260.6000;0.1905;7.1455;
1260.9000;0.1872;7.1384;
1261.2000;0.1897;7.1407;
1261.5000;0.1888;7.1289;
1261.8000;0.1994;7.1644;
1262.1000;0.1872;7.1289;
1262.4000;0.1897;7.1336;
1262.7000;0.1897;7.1384;
1263.0000;0.1897;7.1384;
1263.3000;0.1921;7.1384;
1263.6000;0.1799;7.1100;
1263.9000;0.1937;7.1360;
1264.2000;0.1937;7.1360;
1264.5000;0.1937;7.1431;
1264.8000;0.1897;7.1336;
1265.1000;0.1905;7.1360;
1265.4000;0.1913;7.1336;
1265.7000;0.1937;7.1455;
1266.0000;0.1905;7.1384;
1266.3000;0.1994;7.1596;
1266.6000;0.1937;7.1455;
1266.9000;0.1937;7.1431;
1267.2000;0.1856;7.1147;
1267.5000;0.1864;7.1336;
1267.8000;0.1880;7.1407;
1268.1000;0.1937;7.1573;
1268.4000;0.1937;7.1502;
1268.7000;0.1905;7.1336;
1269.0000;0.1913;7.1336;
1269.3000;0.1929;7.1289;
1269.6000;0.2019;7.1502;
1269.9000;0.1945;7.1360;
1270.2000;0.1905;7.1313;
1270.5000;0.1815;7.1195;
1270.8000;0.1872;7.1313;
1271.1000;0.1888;7.1384;
1271.4000;0.1921;7.1478;
1271.7000;0.1905;7.1336;
1272.0000;0.1913;7.1266;
1272.3000;0.1905;7.1289;
1272.6000;0.1913;7.1266;
1272.9000;0.1921;7.1313;
1273.2000;0.1921;7.1313;
1273.5000;0.1913;7.1360;
1273.8000;0.1897;7.1407;
1274.1000;0.1913;7.1478;
1274.4000;0.1937;7.1478;
1274.7000;0.1897;7.1502;
1275.0000;0.1913;7.1644;
1275.3000;0.1905;7.1620;
1275.6000;0.1921;7.1573;
1275.9000;0.1897;7.1478;
1276.2000;0.1913;7.1502;
1276.5000;0.1913;7.1502;
1276.8000;0.1905;7.1549;
1277.1000;0.1921;7.1478;
1277.4000;0.1905;7.1455;
1277.7000;0.1880;7.1502;
1278.0000;0.1913;7.1526;
1278.3000;0.1921;7.1644;
1278.6000;0.1921;7.1644;
1278.9000;0.1913;7.1596;
1279.2000;0.1913;7.1478;
1279.5000;0.1921;7.1478;
1279.8000;0.1905;7.1455;
1280.1000;0.1897;7.1313;
1280.4000;0.1905;7.1266;
1280.7000;0.1913;7.1289;
1281.0000;0.1921;7.1384;
1281.3000;0.1905;7.1407;
1281.6000;0.1888;7.1431;
1281.9000;0.1921;7.1431;
1282.2000;0.1905;7.1336;
1282.5000;0.1921;7.1336;
1282.8000;0.1913;7.1360;
1283.1000;0.1905;7.1360;
1283.4000;0.1897;7.1289;
1283.7000;0.1905;7.1407;
1284.0000;0.1913;7.1431;
1284.3000;0.1937;7.1455;
1284.6000;0.1905;7.1336;
1284.9000;0.1937;7.1455;
1285.2000;0.1921;7.1455;
1285.5000;0.1929;7.1502;
1285.8000;0.1929;7.1407;
1286.1000;0.1913;7.1407;
1286.4000;0.1905;7.1384;
1286.7000;0.1929;7.1407;
1287.0000;0.1945;7.1455;
1287.3000;0.1880;7.1360;
1287.6000;0.1929;7.1455;
1287.9000;0.1913;7.1384;
1288.2000;0.1945;7.1407;
1288.5000;0.1929;7.1502;
1288.8000;0.1921;7.1455;
1289.1000;0.1905;7.1455;
1289.4000;0.1962;7.1502;
1289.7000;0.1937;7.1455;
1290.0000;0.1913;7.1384;
1290.3000;0.1913;7.1431;
1290.6000;0.1937;7.1431;
1290.9000;0.1913;7.1526;
1291.2000;0.1856;7.1431;
1291.5000;0.1905;7.1526;
1291.8000;0.1905;7.1431;
1292.1000;0.1888;7.1360;
1292.4000;0.1888;7.1455;
1292.7000;0.1880;7.1431;
1293.0000;0.1897;7.1455;
1293.3000;0.1897;7.1431;
1293.6000;0.1929;7.1455;
1293.9000;0.1905;7.1407;
1294.2000;0.1905;7.1242;
1294.5000;0.1929;7.1266;
1294.8000;0.1888;7.1242;
1295.1000;0.1905;7.1289;
1295.4000;0.1913;7.1336;
1295.7000;0.1921;7.1360;
1296.0000;0.1937;7.1455;
1296.3000;0.1905;7.1431;
1296.6000;0.1888;7.1431;
1296.9000;0.1921;7.1384;
1297.2000;0.1905;7.1431;
1297.5000;0.1913;7.1384;
1297.8000;0.1929;7.1313;
1298.1000;0.1905;7.1360;
1298.4000;0.1913;7.1407;
1298.7000;0.1937;7.1455;
1299.0000;0.1921;7.1384;
1299.3000;0.1913;7.1455;
1299.6000;0.1945;7.1573;
1299.9000;0.1888;7.1526;
1300.2000;0.1929;7.1596;
1300.5000;0.1905;7.1526;
1300.8000;0.1888;7.1526;
1301.1000;0.1913;7.1620;
1301.4000;0.1880;7.1455;
1301.7000;0.1897;7.1455;
1302.0000;0.1880;7.1455;
1302.3000;0.1929;7.1596;
1302.6000;0.1897;7.1526;
1302.9000;0.1897;7.1478;
1303.2000;0.1815;7.1266;
1303.5000;0.1823;7.1266;
1303.8000;0.1913;7.1502;
1304.1000;0.1905;7.1526;
1304.4000;0.1905;7.1502;
1304.7000;0.1913;7.1502;
1305.0000;0.1921;7.1478;
1305.3000;0.1921;7.1455;
1305.6000;0.1897;7.1360;
1305.9000;0.1897;7.1407;
1306.2000;0.1921;7.1360;
1306.5000;0.1994;7.1549;
1306.8000;0.1880;7.1336;
1307.1000;0.1897;7.1336;
1307.4000;0.1913;7.1360;
1307.7000;0.1897;7.1266;
1308.0000;0.1954;7.1384;
1308.3000;0.1921;7.1407;
1308.6000;0.1921;7.1431;
1308.9000;0.1921;7.1502;
1309.2000;0.1921;7.1431;
1309.5000;0.1913;7.1455;
1309.8000;0.1905;7.1407;
1310.1000;0.1929;7.1455;
1310.4000;0.1897;7.1431;
1310.7000;0.1921;7.1431;
1311.0000;0.1913;7.1478;
1311.3000;0.1929;7.1526;
1311.6000;0.1888;7.1502;
1311.9000;0.1905;7.1526;
1312.2000;0.1913;7.1526;
1312.5000;0.1970;7.1620;
1312.8000;0.1929;7.1455;
1313.1000;0.1921;7.1360;
1313.4000;0.1880;7.1360;
1313.7000;0.1823;7.1289;
1314.0000;0.1937;7.1478;
1314.3000;0.1897;7.1360;
1314.6000;0.1905;7.1336;
1314.9000;0.1905;7.1360;
1315.2000;0.1897;7.1360;
1315.5000;0.1905;7.1360;
1315.8000;0.1913;7.1336;
1316.1000;0.1913;7.1478;
1316.4000;0.1905;7.1502;
1316.7000;0.1905;7.1549;
1317.0000;0.1888;7.1549;
1317.3000;0.1897;7.1502;
1317.6000;0.1929;7.1644;
1317.9000;0.1913;7.1596;
1318.2000;0.1929;7.1644;
1318.5000;0.1913;7.1502;
1318.8000;0.1905;7.1455;
1319.1000;0.1937;7.1573;
1319.4000;0.1921;7.1549;
1319.7000;0.1937;7.1620;
1320.0000;0.1913;7.1526;
1320.3000;0.1945;7.1596;
1320.6000;0.1913;7.1596;
1320.9000;0.1897;7.1431;
1321.2000;0.1937;7.1431;
1321.5000;0.1913;7.1384;
1321.8000;0.1905;7.1431;
1322.1000;0.1929;7.1502;
1322.4000;0.1905;7.1502;
1322.7000;0.1913;7.1573;
1323.0000;0.1913;7.1549;
1323.3000;0.1897;7.1502;
1323.6000;0.1897;7.1502;
1323.9000;0.1921;7.1549;
1324.2000;0.1913;7.1526;
1324.5000;0.1913;7.1478;
1324.8000;0.1945;7.1573;
1325.1000;0.1905;7.1502;
1325.4000;0.1937;7.1455;
1325.7000;0.1913;7.1384;
1326.0000;0.1913;7.1384;
1326.3000;0.1905;7.1360;
1326.6000;0.1929;7.1407;
1326.9000;0.1880;7.1266;
1327.2000;0.1872;7.1313;
1327.5000;0.1921;7.1478;
1327.8000;0.1970;7.1596;
1328.1000;0.1921;7.1455;
1328.4000;0.1913;7.1407;
1328.7000;0.1864;7.1242;
1329.0000;0.1921;7.1336;
1329.3000;0.1921;7.1431;
1329.6000;0.1913;7.1384;
1329.9000;0.1880;7.1218;
1330.2000;0.1913;7.1336;
1330.5000;0.1929;7.1360;
1330.8000;0.1864;7.1100;
1331.1000;0.1913;7.1218;
1331.4000;0.1888;7.1171;
1331.7000;0.1913;7.1218;
1332.0000;0.1913;7.1218;
1332.3000;0.1929;7.1218;
1332.6000;0.1929;7.1218;
1332.9000;0.1913;7.1289;
1333.2000;0.1913;7.1242;
1333.5000;0.1905;7.1218;
1333.8000;0.1913;7.1289;
1334.1000;0.1921;7.1289;
1334.4000;0.1921;7.1266;
1334.7000;0.1888;7.1242;
1335.0000;0.1913;7.1289;
1335.3000;0.1921;7.1313;
1335.6000;0.1905;7.1218;
1335.9000;0.1905;7.1100;
1336.2000;0.1840;7.0887;
1336.5000;0.1921;7.0982;
1336.8000;0.1913;7.1006;
1337.1000;0.1913;7.1053;
1337.4000;0.1840;7.0982;
1337.7000;0.1913;7.1124;
1338.0000;0.1913;7.1124;
1338.3000;0.1905;7.1147;
1338.6000;0.1913;7.1242;
1338.9000;0.1897;7.1266;
1339.2000;0.1913;7.1124;
1339.5000;0.1905;7.1195;
1339.8000;0.1888;7.1218;
1340.1000;0.1905;7.1289;
1340.4000;0.1897;7.1313;
1340.7000;0.1913;7.1289;
1341.0000;0.1913;7.1266;
1341.3000;0.1897;7.1242;
1341.6000;0.1897;7.1171;
1341.9000;0.1905;7.1147;
1342.2000;0.1905;7.1124;
1342.5000;0.1913;7.1171;
1342.8000;0.1905;7.1218;
1343.1000;0.1921;7.1313;
1343.4000;0.1937;7.1313;
1343.7000;0.1929;7.1384;
1344.0000;0.1913;7.1478;
1344.3000;0.1929;7.1478;
1344.6000;0.1929;7.1478;
1344.9000;0.1913;7.1455;
1345.2000;0.1897;7.1384;
1345.5000;0.1929;7.1455;
1345.8000;0.1962;7.1549;
1346.1000;0.1905;7.1431;
1346.4000;0.1897;7.1336;
1346.7000;0.1897;7.1289;
1347.0000;0.1913;7.1336;
1347.3000;0.1913;7.1384;
1347.6000;0.1905;7.1431;
1347.9000;0.1954;7.1596;
1348.2000;0.1921;7.1502;
1348.5000;0.1897;7.1502;
1348.8000;0.1970;7.1667;
1349.1000;0.1888;7.1407;
1349.4000;0.1929;7.1360;
1349.7000;0.2019;7.1573;
1350.0000;0.1897;7.1266;
1350.3000;0.1888;7.1313;
1350.6000;0.1929;7.1478;
1350.9000;0.1905;7.1431;
1351.2000;0.1929;7.1502;
1351.5000;0.1897;7.1455;
1351.8000;0.1897;7.1455;
1352.1000;0.1921;7.1431;
1352.4000;0.1929;7.1407;
1352.7000;0.1905;7.1455;
1353.0000;0.1905;7.1431;
1353.3000;0.1921;7.1478;
1353.6000;0.1962;7.1573;
1353.9000;0.1921;7.1478;
1354.2000;0.1937;7.1502;
1354.5000;0.1970;7.1596;
1354.8000;0.1872;7.1360;
1355.1000;0.1897;7.1407;
1355.4000;0.1905;7.1336;
1355.7000;0.1913;7.1336;
1356.0000;0.1921;7.1360;
1356.3000;0.1929;7.1407;
1356.6000;0.1929;7.1407;
1356.9000;0.1905;7.1360;
1357.2000;0.1905;7.1431;
1357.5000;0.1913;7.1360;
1357.8000;0.1888;7.1289;
1358.1000;0.1921;7.1289;
1358.4000;0.1929;7.1360;
1358.7000;0.1897;7.1384;
1359.0000;0.1913;7.1478;
1359.3000;0.1921;7.1455;
1359.6000;0.1905;7.1407;
1359.9000;0.1897;7.1336;
1360.2000;0.1897;7.1313;
1360.5000;0.1897;7.1242;
1360.8000;0.1905;7.1242;
1361.1000;0.1921;7.1384;
1361.4000;0.1913;7.1336;
1361.7000;0.1888;7.1289;
1362.0000;0.1913;7.1289;
1362.3000;0.1880;7.1218;
1362.6000;0.1888;7.1242;
1362.9000;0.1913;7.1171;
1363.2000;0.2002;7.1360;
1363.5000;0.1913;7.1195;
1363.8000;0.1880;7.1076;
1364.1000;0.1913;7.1171;
1364.4000;0.1921;7.1266;
1364.7000;0.1945;7.1407;
1365.0000;0.1921;7.1336;
1365.3000;0.1921;7.1313;
1365.6000;0.1913;7.1218;
1365.9000;0.1921;7.1218;
1366.2000;0.1905;7.1266;
1366.5000;0.1897;7.1218;
1366.8000;0.1880;7.1147;
1367.1000;0.1888;7.1171;
1367.4000;0.1913;7.1218;
1367.7000;0.1921;7.1266;
1368.0000;0.1897;7.1289;
1368.3000;0.1929;7.1407;
1368.6000;0.1929;7.1384;
1368.9000;0.1840;7.1147;
1369.2000;0.1929;7.1313;
1369.5000;0.1905;7.1266;
1369.8000;0.1921;7.1336;
1370.1000;0.1929;7.1384;
1370.4000;0.1913;7.1407;
1370.7000;0.1937;7.1455;
1371.0000;0.1897;7.1289;
1371.3000;0.1905;7.1266;
1371.6000;0.1913;7.1289;
1371.9000;0.1872;7.1266;
1372.2000;0.1921;7.1407;
1372.5000;0.2002;7.1596;
1372.8000;0.1913;7.1336;
1373.1000;0.1897;7.1313;
1373.4000;0.1921;7.1289;
1373.7000;0.1929;7.1242;
1374.0000;0.1905;7.1076;
1374.3000;0.1848;7.0958;
1374.6000;0.1978;7.1360;
1374.9000;0.1905;7.1218;
1375.2000;0.1937;7.1266;
1375.5000;0.1832;7.1029;
1375.8000;0.1872;7.1195;
1376.1000;0.1905;7.1313;
1376.4000;0.1897;7.1313;
1376.7000;0.1864;7.1313;
1377.0000;0.1872;7.1336;
1377.3000;0.1962;7.1502;
1377.6000;0.1913;7.1431;
1377.9000;0.1913;7.1431;
1378.2000;0.1913;7.1431;
1378.5000;0.1929;7.1431;
1378.8000;0.1913;7.1455;
1379.1000;0.1872;7.1242;
1379.4000;0.1913;7.1289;
1379.7000;0.1921;7.1289;
1380.0000;0.1978;7.1360;
1380.3000;0.1905;7.1218;
1380.6000;0.1913;7.1289;
1380.9000;0.2002;7.1573;
1381.2000;0.1905;7.1336;
1381.5000;0.1888;7.1289;
1381.8000;0.1864;7.1195;
1382.1000;0.1945;7.1384;
1382.4000;0.1888;7.1147;
1382.7000;0.1921;7.1313;
1383.0000;0.1905;7.1195;
1383.3000;0.1888;7.1147;
1383.6000;0.1929;7.1266;
1383.9000;0.1937;7.1289;
1384.2000;0.1921;7.1195;
1384.5000;0.1921;7.1076;
1384.8000;0.1937;7.1124;
1385.1000;0.1913;7.1171;
1385.4000;0.1905;7.1218;
1385.7000;0.1913;7.1242;
1386.0000;0.1921;7.1384;
1386.3000;0.1937;7.1336;
1386.6000;0.1921;7.1289;
1386.9000;0.1913;7.1384;
1387.2000;0.1888;7.1289;
1387.5000;0.1905;7.1195;
1387.8000;0.1897;7.1195;
1388.1000;0.1888;7.1218;
1388.4000;0.1921;7.1336;
1388.7000;0.1937;7.1407;
1389.0000;0.1913;7.1336;
1389.3000;0.1872;7.1266;
1389.6000;0.1921;7.1384;
1389.9000;0.1913;7.1407;
1390.2000;0.1945;7.1596;
1390.5000;0.1905;7.1526;
1390.8000;0.1905;7.1502;
1391.1000;0.1897;7.1455;
1391.4000;0.1897;7.1407;
1391.7000;0.1913;7.1549;
1392.0000;0.1888;7.1573;
1392.3000;0.1905;7.1502;
1392.6000;0.1897;7.1455;
1392.9000;0.1913;7.1384;
1393.2000;0.1872;7.1195;
1393.5000;0.1880;7.1100;
1393.8000;0.1913;7.1100;
1394.1000;0.1945;7.1195;
1394.4000;0.1913;7.1147;
1394.7000;0.1880;7.1124;
1395.0000;0.1921;7.1218;
1395.3000;0.1921;7.1289;
1395.6000;0.1897;7.1289;
1395.9000;0.1913;7.1313;
1396.2000;0.1913;7.1336;
1396.5000;0.1888;7.1218;
1396.8000;0.1905;7.1124;
1397.1000;0.1913;7.1171;
1397.4000;0.1905;7.1266;
1397.7000;0.1888;7.1218;
1398.0000;0.1905;7.1289;
1398.3000;0.1897;7.1313;
1398.6000;0.1880;7.1336;
1398.9000;0.1913;7.1360;
1399.2000;0.1905;7.1407;
1399.5000;0.1897;7.1384;
1399.8000;0.1913;7.1384;
