time/ms;Fluo/V;P700 deltaI/I x10³;
-199.8000;0.2621;7.2046;
-199.5000;0.2637;7.2022;
-199.2000;0.2597;7.1904;
-198.9000;0.2613;7.1975;
-198.6000;0.2621;7.2022;
-198.3000;0.2621;7.1975;
-198.0000;0.2613;7.1951;
-197.7000;0.2597;7.1856;
-197.4000;0.2597;7.1951;
-197.1000;0.2637;7.2046;
-196.8000;0.2621;7.1904;
-196.5000;0.2605;7.1880;
-196.2000;0.2629;7.1975;
-195.9000;0.2646;7.1927;
-195.6000;0.2629;7.1951;
-195.3000;0.2621;7.1904;
-195.0000;0.2621;7.1975;
-194.7000;0.2621;7.1927;
-194.4000;0.2629;7.1951;
-194.1000;0.2621;7.1904;
-193.8000;0.2629;7.1880;
-193.5000;0.2572;7.1715;
-193.2000;0.2637;7.1880;
-192.9000;0.2629;7.1927;
-192.6000;0.2646;7.1927;
-192.3000;0.2621;7.1998;
-192.0000;0.2629;7.2046;
-191.7000;0.2613;7.1975;
-191.4000;0.2613;7.1975;
-191.1000;0.2629;7.1998;
-190.8000;0.2613;7.1998;
-190.5000;0.2629;7.2046;
-190.2000;0.2621;7.2022;
-189.9000;0.2629;7.2022;
-189.6000;0.2646;7.2046;
-189.3000;0.2621;7.1998;
-189.0000;0.2621;7.1904;
-188.7000;0.2613;7.1904;
-188.4000;0.2670;7.2046;
-188.1000;0.2621;7.1927;
-187.8000;0.2613;7.1904;
-187.5000;0.2621;7.1856;
-187.2000;0.2621;7.1951;
-186.9000;0.2621;7.1975;
-186.6000;0.2621;7.1951;
-186.3000;0.2621;7.1951;
-186.0000;0.2613;7.1927;
-185.7000;0.2629;7.1927;
-185.4000;0.2621;7.1927;
-185.1000;0.2621;7.1880;
-184.8000;0.2637;7.1880;
-184.5000;0.2646;7.1951;
-184.2000;0.2613;7.2046;
-183.9000;0.2629;7.2116;
-183.6000;0.2613;7.2022;
-183.3000;0.2613;7.1927;
-183.0000;0.2621;7.2022;
-182.7000;0.2613;7.1998;
-182.4000;0.2621;7.2022;
-182.1000;0.2629;7.2046;
-181.8000;0.2629;7.1975;
-181.5000;0.2605;7.1951;
-181.2000;0.2629;7.2046;
-180.9000;0.2621;7.2069;
-180.6000;0.2621;7.2046;
-180.3000;0.2605;7.1998;
-180.0000;0.2613;7.2069;
-179.7000;0.2621;7.2116;
-179.4000;0.2613;7.2046;
-179.1000;0.2621;7.2046;
-178.8000;0.2629;7.1951;
-178.5000;0.2613;7.1927;
-178.2000;0.2637;7.1975;
-177.9000;0.2613;7.2022;
-177.6000;0.2556;7.1880;
-177.3000;0.2621;7.2116;
-177.0000;0.2613;7.2022;
-176.7000;0.2621;7.2022;
-176.4000;0.2613;7.1998;
-176.1000;0.2613;7.2022;
-175.8000;0.2605;7.2046;
-175.5000;0.2605;7.2022;
-175.2000;0.2548;7.1833;
-174.9000;0.2605;7.1975;
-174.6000;0.2613;7.1951;
-174.3000;0.2621;7.1927;
-174.0000;0.2637;7.1927;
-173.7000;0.2629;7.2046;
-173.4000;0.2621;7.1998;
-173.1000;0.2605;7.1856;
-172.8000;0.2621;7.1951;
-172.5000;0.2540;7.1786;
-172.2000;0.2613;7.2022;
-171.9000;0.2621;7.1927;
-171.6000;0.2613;7.2022;
-171.3000;0.2613;7.2116;
-171.0000;0.2629;7.2258;
-170.7000;0.2613;7.2164;
-170.4000;0.2621;7.2187;
-170.1000;0.2646;7.2211;
-169.8000;0.2629;7.2116;
-169.5000;0.2646;7.2116;
-169.2000;0.2605;7.1975;
-168.9000;0.2613;7.1998;
-168.6000;0.2621;7.2069;
-168.3000;0.2613;7.2093;
-168.0000;0.2629;7.2046;
-167.7000;0.2621;7.1998;
-167.4000;0.2605;7.2022;
-167.1000;0.2621;7.2022;
-166.8000;0.2629;7.1998;
-166.5000;0.2629;7.1927;
-166.2000;0.2605;7.1833;
-165.9000;0.2629;7.1880;
-165.6000;0.2646;7.1856;
-165.3000;0.2637;7.1833;
-165.0000;0.2556;7.1738;
-164.7000;0.2621;7.1833;
-164.4000;0.2589;7.1667;
-164.1000;0.2580;7.1644;
-163.8000;0.2613;7.1762;
-163.5000;0.2597;7.1762;
-163.2000;0.2621;7.1880;
-162.9000;0.2621;7.1833;
-162.6000;0.2597;7.1833;
-162.3000;0.2613;7.1880;
-162.0000;0.2605;7.1856;
-161.7000;0.2629;7.1880;
-161.4000;0.2613;7.1833;
-161.1000;0.2646;7.1998;
-160.8000;0.2605;7.1880;
-160.5000;0.2564;7.1786;
-160.2000;0.2605;7.1880;
-159.9000;0.2646;7.1904;
-159.6000;0.2597;7.1762;
-159.3000;0.2629;7.1856;
-159.0000;0.2613;7.1856;
-158.7000;0.2605;7.1738;
-158.4000;0.2629;7.1715;
-158.1000;0.2605;7.1667;
-157.8000;0.2589;7.1667;
-157.5000;0.2613;7.1762;
-157.2000;0.2589;7.1786;
-156.9000;0.2580;7.1786;
-156.6000;0.2654;7.1975;
-156.3000;0.2629;7.1951;
-156.0000;0.2613;7.1975;
-155.7000;0.2613;7.1880;
-155.4000;0.2605;7.1833;
-155.1000;0.2662;7.1904;
-154.8000;0.2523;7.1644;
-154.5000;0.2629;7.1833;
-154.2000;0.2629;7.1809;
-153.9000;0.2646;7.1809;
-153.6000;0.2654;7.1856;
-153.3000;0.2662;7.1927;
-153.0000;0.2637;7.1951;
-152.7000;0.2646;7.2022;
-152.4000;0.2637;7.1975;
-152.1000;0.2646;7.1951;
-151.8000;0.2613;7.1975;
-151.5000;0.2646;7.2046;
-151.2000;0.2613;7.1904;
-150.9000;0.2637;7.1951;
-150.6000;0.2646;7.2069;
-150.3000;0.2629;7.2046;
-150.0000;0.2613;7.2069;
-149.7000;0.2637;7.2046;
-149.4000;0.2621;7.1880;
-149.1000;0.2646;7.1833;
-148.8000;0.2621;7.1951;
-148.5000;0.2637;7.2046;
-148.2000;0.2654;7.2164;
-147.9000;0.2646;7.2046;
-147.6000;0.2605;7.1951;
-147.3000;0.2564;7.1927;
-147.0000;0.2605;7.2022;
-146.7000;0.2613;7.2046;
-146.4000;0.2670;7.2164;
-146.1000;0.2621;7.1975;
-145.8000;0.2613;7.1904;
-145.5000;0.2589;7.1856;
-145.2000;0.2597;7.1833;
-144.9000;0.2629;7.1833;
-144.6000;0.2646;7.1762;
-144.3000;0.2637;7.1833;
-144.0000;0.2597;7.1762;
-143.7000;0.2629;7.1809;
-143.4000;0.2613;7.1880;
-143.1000;0.2605;7.1856;
-142.8000;0.2605;7.1951;
-142.5000;0.2589;7.1927;
-142.2000;0.2597;7.1904;
-141.9000;0.2605;7.1904;
-141.6000;0.2597;7.1904;
-141.3000;0.2637;7.1975;
-141.0000;0.2621;7.1975;
-140.7000;0.2605;7.1927;
-140.4000;0.2605;7.1880;
-140.1000;0.2605;7.1975;
-139.8000;0.2613;7.2046;
-139.5000;0.2621;7.2069;
-139.2000;0.2613;7.2022;
-138.9000;0.2621;7.1975;
-138.6000;0.2613;7.2046;
-138.3000;0.2621;7.1880;
-138.0000;0.2629;7.1927;
-137.7000;0.2621;7.2022;
-137.4000;0.2605;7.2069;
-137.1000;0.2613;7.2164;
-136.8000;0.2605;7.2046;
-136.5000;0.2605;7.2093;
-136.2000;0.2613;7.2140;
-135.9000;0.2613;7.2116;
-135.6000;0.2597;7.2093;
-135.3000;0.2629;7.1998;
-135.0000;0.2637;7.1927;
-134.7000;0.2621;7.1880;
-134.4000;0.2621;7.1833;
-134.1000;0.2646;7.1904;
-133.8000;0.2637;7.1927;
-133.5000;0.2621;7.1856;
-133.2000;0.2629;7.1975;
-132.9000;0.2629;7.2022;
-132.6000;0.2589;7.1833;
-132.3000;0.2605;7.1833;
-132.0000;0.2613;7.1951;
-131.7000;0.2580;7.1904;
-131.4000;0.2613;7.1975;
-131.1000;0.2629;7.1880;
-130.8000;0.2629;7.1809;
-130.5000;0.2580;7.1738;
-130.2000;0.2589;7.1786;
-129.9000;0.2629;7.1951;
-129.6000;0.2637;7.2046;
-129.3000;0.2613;7.1927;
-129.0000;0.2613;7.1927;
-128.7000;0.2654;7.1951;
-128.4000;0.2637;7.1951;
-128.1000;0.2702;7.2046;
-127.8000;0.2556;7.1762;
-127.5000;0.2621;7.1904;
-127.2000;0.2605;7.1927;
-126.9000;0.2613;7.1951;
-126.6000;0.2605;7.1833;
-126.3000;0.2605;7.1833;
-126.0000;0.2629;7.1786;
-125.7000;0.2597;7.1691;
-125.4000;0.2613;7.1715;
-125.1000;0.2548;7.1691;
-124.8000;0.2597;7.1927;
-124.5000;0.2670;7.2164;
-124.2000;0.2613;7.2046;
-123.9000;0.2621;7.2069;
-123.6000;0.2629;7.2093;
-123.3000;0.2637;7.2093;
-123.0000;0.2613;7.1975;
-122.7000;0.2629;7.1927;
-122.4000;0.2605;7.1856;
-122.1000;0.2629;7.1927;
-121.8000;0.2605;7.1927;
-121.5000;0.2605;7.1998;
-121.2000;0.2621;7.2069;
-120.9000;0.2629;7.2069;
-120.6000;0.2621;7.2116;
-120.3000;0.2613;7.2093;
-120.0000;0.2621;7.2046;
-119.7000;0.2613;7.1998;
-119.4000;0.2621;7.1904;
-119.1000;0.2613;7.1904;
-118.8000;0.2629;7.1927;
-118.5000;0.2646;7.1856;
-118.2000;0.2646;7.1927;
-117.9000;0.2621;7.1880;
-117.6000;0.2597;7.1833;
-117.3000;0.2621;7.1833;
-117.0000;0.2646;7.1856;
-116.7000;0.2621;7.1880;
-116.4000;0.2597;7.1927;
-116.1000;0.2637;7.1951;
-115.8000;0.2629;7.1833;
-115.5000;0.2637;7.1927;
-115.2000;0.2637;7.1998;
-114.9000;0.2621;7.1809;
-114.6000;0.2613;7.1951;
-114.3000;0.2621;7.1975;
-114.0000;0.2605;7.1927;
-113.7000;0.2605;7.1856;
-113.4000;0.2646;7.1904;
-113.1000;0.2629;7.1856;
-112.8000;0.2613;7.1809;
-112.5000;0.2637;7.1786;
-112.2000;0.2613;7.1833;
-111.9000;0.2605;7.1809;
-111.6000;0.2597;7.1880;
-111.3000;0.2629;7.1856;
-111.0000;0.2605;7.1786;
-110.7000;0.2556;7.1644;
-110.4000;0.2605;7.1762;
-110.1000;0.2629;7.1833;
-109.8000;0.2613;7.1927;
-109.5000;0.2597;7.1904;
-109.2000;0.2621;7.1880;
-108.9000;0.2621;7.1904;
-108.6000;0.2654;7.1904;
-108.3000;0.2621;7.1880;
-108.0000;0.2597;7.1738;
-107.7000;0.2597;7.1691;
-107.4000;0.2670;7.1738;
-107.1000;0.2580;7.1596;
-106.8000;0.2629;7.1738;
-106.5000;0.2589;7.1691;
-106.2000;0.2556;7.1573;
-105.9000;0.2621;7.1691;
-105.6000;0.2637;7.1786;
-105.3000;0.2613;7.1762;
-105.0000;0.2613;7.1833;
-104.7000;0.2605;7.1762;
-104.4000;0.2613;7.1715;
-104.1000;0.2686;7.1856;
-103.8000;0.2605;7.1691;
-103.5000;0.2605;7.1738;
-103.2000;0.2605;7.1762;
-102.9000;0.2605;7.1691;
-102.6000;0.2637;7.1691;
-102.3000;0.2597;7.1691;
-102.0000;0.2613;7.1644;
-101.7000;0.2597;7.1573;
-101.4000;0.2605;7.1596;
-101.1000;0.2613;7.1526;
-100.8000;0.2613;7.1526;
-100.5000;0.2572;7.1407;
-100.2000;0.2613;7.1549;
-99.9000;0.2629;7.1526;
-99.6000;0.2580;7.1455;
-99.3000;0.2629;7.1549;
-99.0000;0.2621;7.1478;
-98.7000;0.2597;7.1431;
-98.4000;0.2613;7.1526;
-98.1000;0.2613;7.1573;
-97.8000;0.2605;7.1644;
-97.5000;0.2613;7.1644;
-97.2000;0.2613;7.1715;
-96.9000;0.2613;7.1762;
-96.6000;0.2621;7.1809;
-96.3000;0.2613;7.1715;
-96.0000;0.2629;7.1667;
-95.7000;0.2605;7.1644;
-95.4000;0.2621;7.1691;
-95.1000;0.2621;7.1667;
-94.8000;0.2605;7.1620;
-94.5000;0.2629;7.1667;
-94.2000;0.2605;7.1691;
-93.9000;0.2613;7.1644;
-93.6000;0.2621;7.1715;
-93.3000;0.2605;7.1738;
-93.0000;0.2613;7.1620;
-92.7000;0.2613;7.1549;
-92.4000;0.2597;7.1455;
-92.1000;0.2605;7.1573;
-91.8000;0.2605;7.1620;
-91.5000;0.2597;7.1526;
-91.2000;0.2572;7.1431;
-90.9000;0.2605;7.1596;
-90.6000;0.2605;7.1596;
-90.3000;0.2621;7.1596;
-90.0000;0.2621;7.1644;
-89.7000;0.2621;7.1620;
-89.4000;0.2637;7.1738;
-89.1000;0.2580;7.1620;
-88.8000;0.2621;7.1691;
-88.5000;0.2605;7.1715;
-88.2000;0.2629;7.1620;
-87.9000;0.2621;7.1620;
-87.6000;0.2654;7.1667;
-87.3000;0.2613;7.1549;
-87.0000;0.2613;7.1573;
-86.7000;0.2621;7.1596;
-86.4000;0.2629;7.1596;
-86.1000;0.2556;7.1431;
-85.8000;0.2605;7.1526;
-85.5000;0.2613;7.1596;
-85.2000;0.2621;7.1573;
-84.9000;0.2613;7.1549;
-84.6000;0.2678;7.1715;
-84.3000;0.2637;7.1667;
-84.0000;0.2629;7.1667;
-83.7000;0.2629;7.1691;
-83.4000;0.2662;7.1715;
-83.1000;0.2629;7.1762;
-82.8000;0.2629;7.1715;
-82.5000;0.2605;7.1667;
-82.2000;0.2556;7.1526;
-81.9000;0.2613;7.1715;
-81.6000;0.2621;7.1786;
-81.3000;0.2629;7.1809;
-81.0000;0.2613;7.1715;
-80.7000;0.2621;7.1786;
-80.4000;0.2621;7.1809;
-80.1000;0.2621;7.1809;
-79.8000;0.2613;7.1786;
-79.5000;0.2637;7.1762;
-79.2000;0.2605;7.1738;
-78.9000;0.2613;7.1809;
-78.6000;0.2621;7.1833;
-78.3000;0.2621;7.1880;
-78.0000;0.2637;7.1927;
-77.7000;0.2613;7.1856;
-77.4000;0.2621;7.1833;
-77.1000;0.2605;7.1786;
-76.8000;0.2621;7.1786;
-76.5000;0.2597;7.1786;
-76.2000;0.2613;7.1833;
-75.9000;0.2621;7.1809;
-75.6000;0.2597;7.1667;
-75.3000;0.2540;7.1526;
-75.0000;0.2629;7.1786;
-74.7000;0.2621;7.1691;
-74.4000;0.2564;7.1478;
-74.1000;0.2629;7.1644;
-73.8000;0.2613;7.1596;
-73.5000;0.2580;7.1596;
-73.2000;0.2589;7.1644;
-72.9000;0.2613;7.1691;
-72.6000;0.2629;7.1762;
-72.3000;0.2621;7.1738;
-72.0000;0.2597;7.1738;
-71.7000;0.2605;7.1738;
-71.4000;0.2597;7.1691;
-71.1000;0.2613;7.1667;
-70.8000;0.2613;7.1620;
-70.5000;0.2621;7.1644;
-70.2000;0.2613;7.1620;
-69.9000;0.2597;7.1596;
-69.6000;0.2637;7.1715;
-69.3000;0.2613;7.1620;
-69.0000;0.2621;7.1715;
-68.7000;0.2629;7.1738;
-68.4000;0.2629;7.1762;
-68.1000;0.2629;7.1856;
-67.8000;0.2605;7.1809;
-67.5000;0.2621;7.1833;
-67.2000;0.2629;7.1856;
-66.9000;0.2605;7.1809;
-66.6000;0.2621;7.1809;
-66.3000;0.2613;7.1786;
-66.0000;0.2597;7.1667;
-65.7000;0.2605;7.1691;
-65.4000;0.2580;7.1667;
-65.1000;0.2629;7.1833;
-64.8000;0.2613;7.1833;
-64.5000;0.2646;7.1904;
-64.2000;0.2621;7.1856;
-63.9000;0.2646;7.1998;
-63.6000;0.2629;7.1998;
-63.3000;0.2621;7.1904;
-63.0000;0.2613;7.1809;
-62.7000;0.2613;7.1786;
-62.4000;0.2621;7.1715;
-62.1000;0.2605;7.1620;
-61.8000;0.2613;7.1644;
-61.5000;0.2637;7.1762;
-61.2000;0.2629;7.1786;
-60.9000;0.2637;7.1833;
-60.6000;0.2621;7.1786;
-60.3000;0.2613;7.1762;
-60.0000;0.2621;7.1856;
-59.7000;0.2621;7.1833;
-59.4000;0.2629;7.1762;
-59.1000;0.2597;7.1738;
-58.8000;0.2646;7.1738;
-58.5000;0.2621;7.1691;
-58.2000;0.2637;7.1738;
-57.9000;0.2678;7.1762;
-57.6000;0.2597;7.1596;
-57.3000;0.2629;7.1715;
-57.0000;0.2629;7.1691;
-56.7000;0.2621;7.1715;
-56.4000;0.2613;7.1620;
-56.1000;0.2613;7.1596;
-55.8000;0.2605;7.1573;
-55.5000;0.2597;7.1644;
-55.2000;0.2613;7.1620;
-54.9000;0.2532;7.1455;
-54.6000;0.2621;7.1667;
-54.3000;0.2580;7.1596;
-54.0000;0.2646;7.1762;
-53.7000;0.2678;7.1809;
-53.4000;0.2654;7.1667;
-53.1000;0.2597;7.1596;
-52.8000;0.2605;7.1667;
-52.5000;0.2605;7.1644;
-52.2000;0.2629;7.1809;
-51.9000;0.2605;7.1786;
-51.6000;0.2605;7.1715;
-51.3000;0.2605;7.1549;
-51.0000;0.2613;7.1549;
-50.7000;0.2613;7.1549;
-50.4000;0.2605;7.1644;
-50.1000;0.2589;7.1667;
-49.8000;0.2637;7.1809;
-49.5000;0.2605;7.1762;
-49.2000;0.2621;7.1644;
-48.9000;0.2629;7.1620;
-48.6000;0.2629;7.1644;
-48.3000;0.2670;7.1644;
-48.0000;0.2646;7.1549;
-47.7000;0.2629;7.1549;
-47.4000;0.2621;7.1526;
-47.1000;0.2621;7.1549;
-46.8000;0.2613;7.1549;
-46.5000;0.2597;7.1502;
-46.2000;0.2605;7.1455;
-45.9000;0.2637;7.1526;
-45.6000;0.2637;7.1573;
-45.3000;0.2613;7.1573;
-45.0000;0.2613;7.1549;
-44.7000;0.2629;7.1549;
-44.4000;0.2589;7.1431;
-44.1000;0.2613;7.1502;
-43.8000;0.2621;7.1502;
-43.5000;0.2621;7.1573;
-43.2000;0.2523;7.1384;
-42.9000;0.2605;7.1596;
-42.6000;0.2613;7.1667;
-42.3000;0.2597;7.1596;
-42.0000;0.2629;7.1691;
-41.7000;0.2637;7.1691;
-41.4000;0.2572;7.1620;
-41.1000;0.2613;7.1667;
-40.8000;0.2621;7.1715;
-40.5000;0.2646;7.1809;
-40.2000;0.2629;7.1715;
-39.9000;0.2613;7.1620;
-39.6000;0.2564;7.1549;
-39.3000;0.2613;7.1620;
-39.0000;0.2629;7.1620;
-38.7000;0.2654;7.1549;
-38.4000;0.2629;7.1478;
-38.1000;0.2646;7.1573;
-37.8000;0.2637;7.1502;
-37.5000;0.2605;7.1360;
-37.2000;0.2629;7.1478;
-36.9000;0.2613;7.1526;
-36.6000;0.2670;7.1644;
-36.3000;0.2621;7.1573;
-36.0000;0.2613;7.1691;
-35.7000;0.2629;7.1738;
-35.4000;0.2670;7.1856;
-35.1000;0.2613;7.1644;
-34.8000;0.2613;7.1596;
-34.5000;0.2637;7.1596;
-34.2000;0.2621;7.1620;
-33.9000;0.2637;7.1596;
-33.6000;0.2621;7.1573;
-33.3000;0.2597;7.1407;
-33.0000;0.2621;7.1407;
-32.7000;0.2629;7.1549;
-32.4000;0.2613;7.1691;
-32.1000;0.2605;7.1738;
-31.8000;0.2662;7.1856;
-31.5000;0.2621;7.1691;
-31.2000;0.2613;7.1691;
-30.9000;0.2613;7.1644;
-30.6000;0.2515;7.1384;
-30.3000;0.2597;7.1667;
-30.0000;0.2646;7.1667;
-29.7000;0.2621;7.1620;
-29.4000;0.2637;7.1644;
-29.1000;0.2629;7.1715;
-28.8000;0.2621;7.1738;
-28.5000;0.2654;7.1738;
-28.2000;0.2637;7.1667;
-27.9000;0.2621;7.1620;
-27.6000;0.2629;7.1596;
-27.3000;0.2702;7.1715;
-27.0000;0.2621;7.1549;
-26.7000;0.2621;7.1573;
-26.4000;0.2662;7.1667;
-26.1000;0.2621;7.1691;
-25.8000;0.2621;7.1715;
-25.5000;0.2629;7.1762;
-25.2000;0.2589;7.1667;
-24.9000;0.2605;7.1762;
-24.6000;0.2621;7.1762;
-24.3000;0.2613;7.1715;
-24.0000;0.2540;7.1455;
-23.7000;0.2605;7.1691;
-23.4000;0.2613;7.1786;
-23.1000;0.2597;7.1762;
-22.8000;0.2621;7.1856;
-22.5000;0.2613;7.1880;
-22.2000;0.2621;7.1975;
-21.9000;0.2621;7.1998;
-21.6000;0.2629;7.1951;
-21.3000;0.2629;7.1762;
-21.0000;0.2637;7.1715;
-20.7000;0.2589;7.1596;
-20.4000;0.2621;7.1644;
-20.1000;0.2621;7.1573;
-19.8000;0.2637;7.1620;
-19.5000;0.2613;7.1502;
-19.2000;0.2637;7.1596;
-18.9000;0.2637;7.1573;
-18.6000;0.2629;7.1573;
-18.3000;0.2629;7.1667;
-18.0000;0.2621;7.1786;
-17.7000;0.2662;7.1880;
-17.4000;0.2605;7.1738;
-17.1000;0.2621;7.1786;
-16.8000;0.2613;7.1833;
-16.5000;0.2548;7.1715;
-16.2000;0.2605;7.1809;
-15.9000;0.2629;7.1833;
-15.6000;0.2629;7.1880;
-15.3000;0.2694;7.2022;
-15.0000;0.2646;7.1786;
-14.7000;0.2613;7.1667;
-14.4000;0.2637;7.1809;
-14.1000;0.2629;7.1951;
-13.8000;0.2662;7.2069;
-13.5000;0.2597;7.1975;
-13.2000;0.2605;7.1904;
-12.9000;0.2621;7.1904;
-12.6000;0.2637;7.1951;
-12.3000;0.2662;7.2140;
-12.0000;0.2662;7.2069;
-11.7000;0.2629;7.1975;
-11.4000;0.2589;7.1927;
-11.1000;0.2597;7.1904;
-10.8000;0.2564;7.1809;
-10.5000;0.2621;7.1904;
-10.2000;0.2597;7.1927;
-9.9000;0.2646;7.1998;
-9.6000;0.2670;7.1998;
-9.3000;0.2605;7.1786;
-9.0000;0.2532;7.1573;
-8.7000;0.2605;7.1833;
-8.4000;0.2613;7.1809;
-8.1000;0.2613;7.1762;
-7.8000;0.2589;7.1786;
-7.5000;0.2637;7.1927;
-7.2000;0.2637;7.1904;
-6.9000;0.2637;7.1904;
-6.6000;0.2702;7.1975;
-6.3000;0.2646;7.1880;
-6.0000;0.2629;7.1927;
-5.7000;0.2637;7.1927;
-5.4000;0.2613;7.1833;
-5.1000;0.2629;7.1880;
-4.8000;0.2613;7.1856;
-4.5000;0.2580;7.1786;
-4.2000;0.2629;7.1975;
-3.9000;0.2759;7.2376;
-3.6000;0.2605;7.2022;
-3.3000;0.2621;7.2022;
-3.0000;0.2646;7.1998;
-2.7000;0.2637;7.1951;
-2.4000;0.2621;7.1880;
-2.1000;0.2621;7.1856;
-1.8000;0.2613;7.1833;
-1.5000;0.2629;7.1833;
-1.2000;0.2621;7.1833;
-0.9000;0.2605;7.1809;
-0.6000;0.2605;7.1691;
-0.3000;0.2613;7.1691;
0.0000;0.2613;7.1691;
0.3000;0.2646;7.1360;
0.6000;0.2711;7.1620;
0.9000;0.2784;7.1809;
1.2000;0.2800;7.2022;
1.5000;0.2873;7.2211;
1.8000;0.2898;7.2282;
2.1000;0.2922;7.2518;
2.4000;0.2979;7.2684;
2.7000;0.2971;7.2849;
3.0000;0.2955;7.2802;
3.3000;0.2955;7.2778;
3.6000;0.2987;7.2920;
3.9000;0.2996;7.3062;
4.2000;0.2996;7.3086;
4.5000;0.2996;7.3062;
4.8000;0.2996;7.3062;
5.1000;0.3004;7.3109;
5.4000;0.3028;7.3133;
5.7000;0.3044;7.3156;
6.0000;0.3028;7.3133;
6.3000;0.3044;7.3133;
6.6000;0.3175;7.3440;
6.9000;0.3044;7.3109;
7.2000;0.3004;7.2991;
7.5000;0.3093;7.3180;
7.8000;0.3004;7.2967;
8.1000;0.3053;7.3062;
8.4000;0.3085;7.3086;
8.7000;0.3126;7.3227;
9.0000;0.3061;7.3133;
9.3000;0.3069;7.3086;
9.6000;0.3044;7.2920;
9.9000;0.3053;7.2944;
10.2000;0.3061;7.2944;
10.5000;0.3044;7.2944;
10.8000;0.3069;7.3062;
11.1000;0.2996;7.2896;
11.4000;0.3093;7.3062;
11.7000;0.3093;7.3038;
12.0000;0.3077;7.2896;
12.3000;0.3085;7.2991;
12.6000;0.3077;7.2967;
12.9000;0.3085;7.2991;
13.2000;0.3077;7.2920;
13.5000;0.3077;7.2991;
13.8000;0.3109;7.3133;
14.1000;0.3085;7.3109;
14.4000;0.3085;7.3062;
14.7000;0.3118;7.3204;
15.0000;0.3093;7.3251;
15.3000;0.3069;7.3133;
15.6000;0.3109;7.3227;
15.9000;0.3077;7.3204;
16.2000;0.3109;7.3298;
16.5000;0.3126;7.3511;
16.8000;0.3118;7.3440;
17.1000;0.3118;7.3440;
17.4000;0.3118;7.3440;
17.7000;0.3134;7.3417;
18.0000;0.3118;7.3369;
18.3000;0.3134;7.3417;
18.6000;0.3126;7.3417;
18.9000;0.3166;7.3535;
19.2000;0.3150;7.3487;
19.5000;0.3118;7.3417;
19.8000;0.3126;7.3393;
20.1000;0.3134;7.3511;
20.4000;0.3158;7.3558;
20.7000;0.3126;7.3582;
21.0000;0.3142;7.3677;
21.3000;0.3183;7.3842;
21.6000;0.3166;7.3747;
21.9000;0.3142;7.3558;
22.2000;0.3158;7.3440;
22.5000;0.3166;7.3440;
22.8000;0.3175;7.3440;
23.1000;0.3158;7.3369;
23.4000;0.3166;7.3417;
23.7000;0.3207;7.3511;
24.0000;0.3215;7.3535;
24.3000;0.3166;7.3464;
24.6000;0.3191;7.3464;
24.9000;0.3150;7.3322;
25.2000;0.3175;7.3393;
25.5000;0.3175;7.3440;
25.8000;0.3232;7.3558;
26.1000;0.3150;7.3346;
26.4000;0.3232;7.3511;
26.7000;0.3183;7.3417;
27.0000;0.3183;7.3369;
27.3000;0.3240;7.3440;
27.6000;0.3215;7.3322;
27.9000;0.3183;7.3227;
28.2000;0.3191;7.3298;
28.5000;0.3199;7.3298;
28.8000;0.3183;7.3298;
29.1000;0.3183;7.3369;
29.4000;0.3183;7.3417;
29.7000;0.3191;7.3464;
30.0000;0.3191;7.3440;
30.3000;0.3191;7.3464;
30.6000;0.3191;7.3511;
30.9000;0.3183;7.3535;
31.2000;0.3109;7.3346;
31.5000;0.3240;7.3582;
31.8000;0.3191;7.3487;
32.1000;0.3207;7.3440;
32.4000;0.3215;7.3440;
32.7000;0.3207;7.3440;
33.0000;0.3199;7.3417;
33.3000;0.3191;7.3558;
33.6000;0.3150;7.3464;
33.9000;0.3199;7.3511;
34.2000;0.3199;7.3511;
34.5000;0.3215;7.3511;
34.8000;0.3191;7.3440;
35.1000;0.3191;7.3369;
35.4000;0.3191;7.3322;
35.7000;0.3207;7.3369;
36.0000;0.3223;7.3511;
36.3000;0.3199;7.3440;
36.6000;0.3215;7.3464;
36.9000;0.3207;7.3417;
37.2000;0.3215;7.3322;
37.5000;0.3158;7.3156;
37.8000;0.3240;7.3346;
38.1000;0.3223;7.3322;
38.4000;0.3215;7.3251;
38.7000;0.3215;7.3180;
39.0000;0.3223;7.3180;
39.3000;0.3232;7.3227;
39.6000;0.3183;7.3227;
39.9000;0.3207;7.3298;
40.2000;0.3223;7.3251;
40.5000;0.3223;7.3369;
40.8000;0.3240;7.3369;
41.1000;0.3248;7.3393;
41.4000;0.3223;7.3369;
41.7000;0.3223;7.3393;
42.0000;0.3321;7.3582;
42.3000;0.3248;7.3417;
42.6000;0.3248;7.3346;
42.9000;0.3248;7.3322;
43.2000;0.3240;7.3298;
43.5000;0.3191;7.3156;
43.8000;0.3207;7.3133;
44.1000;0.3232;7.3204;
44.4000;0.3248;7.3275;
44.7000;0.3232;7.3204;
45.0000;0.3256;7.3227;
45.3000;0.3240;7.3204;
45.6000;0.3240;7.3275;
45.9000;0.3256;7.3298;
46.2000;0.3240;7.3298;
46.5000;0.3289;7.3346;
46.8000;0.3207;7.3275;
47.1000;0.3248;7.3346;
47.4000;0.3256;7.3369;
47.7000;0.3248;7.3346;
48.0000;0.3232;7.3322;
48.3000;0.3248;7.3251;
48.6000;0.3256;7.3227;
48.9000;0.3232;7.3133;
49.2000;0.3240;7.3180;
49.5000;0.3240;7.3180;
49.8000;0.3191;7.3180;
50.1000;0.3232;7.3275;
50.4000;0.3232;7.3251;
50.7000;0.3256;7.3251;
51.0000;0.3248;7.3204;
51.3000;0.3264;7.3275;
51.6000;0.3223;7.3322;
51.9000;0.3256;7.3417;
52.2000;0.3256;7.3417;
52.5000;0.3248;7.3417;
52.8000;0.3248;7.3393;
53.1000;0.3248;7.3346;
53.4000;0.3248;7.3298;
53.7000;0.3264;7.3251;
54.0000;0.3240;7.3251;
54.3000;0.3256;7.3227;
54.6000;0.3207;7.3275;
54.9000;0.3256;7.3393;
55.2000;0.3256;7.3393;
55.5000;0.3248;7.3440;
55.8000;0.3248;7.3417;
56.1000;0.3264;7.3487;
56.4000;0.3207;7.3298;
56.7000;0.3256;7.3417;
57.0000;0.3223;7.3346;
57.3000;0.3272;7.3440;
57.6000;0.3280;7.3369;
57.9000;0.3264;7.3417;
58.2000;0.3272;7.3487;
58.5000;0.3272;7.3464;
58.8000;0.3272;7.3606;
59.1000;0.3256;7.3606;
59.4000;0.3272;7.3606;
59.7000;0.3289;7.3606;
60.0000;0.3272;7.3582;
60.3000;0.3289;7.3511;
60.6000;0.3297;7.3558;
60.9000;0.3272;7.3558;
61.2000;0.3280;7.3558;
61.5000;0.3297;7.3606;
61.8000;0.3272;7.3558;
62.1000;0.3272;7.3511;
62.4000;0.3280;7.3417;
62.7000;0.3280;7.3464;
63.0000;0.3264;7.3464;
63.3000;0.3289;7.3535;
63.6000;0.3346;7.3629;
63.9000;0.3264;7.3369;
64.2000;0.3280;7.3417;
64.5000;0.3289;7.3369;
64.8000;0.3297;7.3417;
65.1000;0.3264;7.3346;
65.4000;0.3264;7.3369;
65.7000;0.3223;7.3275;
66.0000;0.3280;7.3417;
66.3000;0.3272;7.3393;
66.6000;0.3280;7.3464;
66.9000;0.3272;7.3417;
67.2000;0.3297;7.3417;
67.5000;0.3297;7.3346;
67.8000;0.3297;7.3346;
68.1000;0.3272;7.3275;
68.4000;0.3297;7.3227;
68.7000;0.3280;7.3275;
69.0000;0.3264;7.3109;
69.3000;0.3280;7.3156;
69.6000;0.3272;7.3180;
69.9000;0.3272;7.3251;
70.2000;0.3264;7.3369;
70.5000;0.3354;7.3582;
70.8000;0.3289;7.3464;
71.1000;0.3272;7.3369;
71.4000;0.3289;7.3369;
71.7000;0.3289;7.3369;
72.0000;0.3280;7.3440;
72.3000;0.3313;7.3417;
72.6000;0.3289;7.3275;
72.9000;0.3280;7.3227;
73.2000;0.3280;7.3298;
73.5000;0.3289;7.3511;
73.8000;0.3329;7.3582;
74.1000;0.3272;7.3440;
74.4000;0.3232;7.3322;
74.7000;0.3280;7.3346;
75.0000;0.3280;7.3417;
75.3000;0.3264;7.3393;
75.6000;0.3289;7.3251;
75.9000;0.3264;7.3204;
76.2000;0.3280;7.3156;
76.5000;0.3215;7.3015;
76.8000;0.3280;7.3322;
77.1000;0.3264;7.3322;
77.4000;0.3272;7.3393;
77.7000;0.3280;7.3417;
78.0000;0.3264;7.3369;
78.3000;0.3280;7.3464;
78.6000;0.3280;7.3487;
78.9000;0.3256;7.3464;
79.2000;0.3280;7.3464;
79.5000;0.3264;7.3417;
79.8000;0.3289;7.3417;
80.1000;0.3272;7.3464;
80.4000;0.3280;7.3393;
80.7000;0.3264;7.3322;
81.0000;0.3289;7.3369;
81.3000;0.3280;7.3369;
81.6000;0.3297;7.3275;
81.9000;0.3305;7.3275;
82.2000;0.3297;7.3298;
82.5000;0.3289;7.3227;
82.8000;0.3297;7.3204;
83.1000;0.3297;7.3204;
83.4000;0.3289;7.3298;
83.7000;0.3289;7.3369;
84.0000;0.3297;7.3417;
84.3000;0.3240;7.3298;
84.6000;0.3280;7.3346;
84.9000;0.3232;7.3227;
85.2000;0.3272;7.3417;
85.5000;0.3232;7.3251;
85.8000;0.3280;7.3346;
86.1000;0.3297;7.3417;
86.4000;0.3305;7.3440;
86.7000;0.3305;7.3511;
87.0000;0.3313;7.3511;
87.3000;0.3280;7.3464;
87.6000;0.3297;7.3393;
87.9000;0.3297;7.3417;
88.2000;0.3305;7.3369;
88.5000;0.3297;7.3369;
88.8000;0.3289;7.3369;
89.1000;0.3297;7.3417;
89.4000;0.3256;7.3369;
89.7000;0.3280;7.3417;
90.0000;0.3289;7.3511;
90.3000;0.3280;7.3464;
90.6000;0.3264;7.3440;
90.9000;0.3264;7.3369;
91.2000;0.3297;7.3440;
91.5000;0.3297;7.3393;
91.8000;0.3305;7.3417;
92.1000;0.3280;7.3369;
92.4000;0.3272;7.3440;
92.7000;0.3289;7.3487;
93.0000;0.3305;7.3535;
93.3000;0.3297;7.3464;
93.6000;0.3305;7.3417;
93.9000;0.3289;7.3322;
94.2000;0.3280;7.3227;
94.5000;0.3297;7.3275;
94.8000;0.3264;7.3156;
95.1000;0.3346;7.3393;
95.4000;0.3297;7.3346;
95.7000;0.3297;7.3275;
96.0000;0.3264;7.3275;
96.3000;0.3297;7.3369;
96.6000;0.3289;7.3322;
96.9000;0.3297;7.3417;
97.2000;0.3289;7.3417;
97.5000;0.3264;7.3346;
97.8000;0.3305;7.3393;
98.1000;0.3321;7.3440;
98.4000;0.3305;7.3511;
98.7000;0.3289;7.3487;
99.0000;0.3297;7.3511;
99.3000;0.3272;7.3440;
99.6000;0.3264;7.3322;
99.9000;0.3280;7.3251;
100.2000;0.3264;7.3275;
100.5000;0.3313;7.3346;
100.8000;0.3313;7.3227;
101.1000;0.3313;7.3227;
101.4000;0.3272;7.3109;
101.7000;0.3289;7.3180;
102.0000;0.3305;7.3204;
102.3000;0.3297;7.3322;
102.6000;0.3280;7.3393;
102.9000;0.3289;7.3369;
103.2000;0.3305;7.3369;
103.5000;0.3337;7.3440;
103.8000;0.3289;7.3275;
104.1000;0.3313;7.3440;
104.4000;0.3305;7.3440;
104.7000;0.3289;7.3369;
105.0000;0.3280;7.3275;
105.3000;0.3289;7.3227;
105.6000;0.3346;7.3369;
105.9000;0.3297;7.3204;
106.2000;0.3297;7.3204;
106.5000;0.3305;7.3322;
106.8000;0.3305;7.3322;
107.1000;0.3297;7.3298;
107.4000;0.3297;7.3346;
107.7000;0.3297;7.3346;
108.0000;0.3289;7.3369;
108.3000;0.3313;7.3369;
108.6000;0.3305;7.3298;
108.9000;0.3289;7.3251;
109.2000;0.3305;7.3275;
109.5000;0.3280;7.3204;
109.8000;0.3289;7.3204;
110.1000;0.3297;7.3204;
110.4000;0.3280;7.3133;
110.7000;0.3337;7.3156;
111.0000;0.3297;7.3015;
111.3000;0.3289;7.2991;
111.6000;0.3289;7.3062;
111.9000;0.3297;7.3086;
112.2000;0.3297;7.3109;
112.5000;0.3272;7.3086;
112.8000;0.3297;7.3133;
113.1000;0.3305;7.3156;
113.4000;0.3321;7.3180;
113.7000;0.3305;7.3180;
114.0000;0.3289;7.3109;
114.3000;0.3297;7.3156;
114.6000;0.3321;7.3298;
114.9000;0.3264;7.3204;
115.2000;0.3280;7.3156;
115.5000;0.3297;7.3227;
115.8000;0.3329;7.3322;
116.1000;0.3289;7.3251;
116.4000;0.3289;7.3227;
116.7000;0.3280;7.3251;
117.0000;0.3264;7.3180;
117.3000;0.3305;7.3227;
117.6000;0.3362;7.3417;
117.9000;0.3411;7.3417;
118.2000;0.3305;7.3180;
118.5000;0.3305;7.3156;
118.8000;0.3272;7.3133;
119.1000;0.3264;7.3038;
119.4000;0.3313;7.3180;
119.7000;0.3313;7.3251;
120.0000;0.3256;7.3062;
120.3000;0.3378;7.3322;
120.6000;0.3215;7.2991;
120.9000;0.3305;7.3227;
121.2000;0.3280;7.3180;
121.5000;0.3297;7.3275;
121.8000;0.3305;7.3322;
122.1000;0.3289;7.3346;
122.4000;0.3289;7.3275;
122.7000;0.3248;7.3227;
123.0000;0.3321;7.3393;
123.3000;0.3305;7.3369;
123.6000;0.3289;7.3346;
123.9000;0.3289;7.3275;
124.2000;0.3264;7.3227;
124.5000;0.3264;7.3251;
124.8000;0.3297;7.3346;
125.1000;0.3297;7.3346;
125.4000;0.3346;7.3487;
125.7000;0.3305;7.3464;
126.0000;0.3313;7.3487;
126.3000;0.3289;7.3417;
126.6000;0.3280;7.3417;
126.9000;0.3280;7.3417;
127.2000;0.3248;7.3417;
127.5000;0.3354;7.3700;
127.8000;0.3264;7.3440;
128.1000;0.3289;7.3393;
128.4000;0.3394;7.3747;
128.7000;0.3305;7.3535;
129.0000;0.3313;7.3487;
129.3000;0.3297;7.3417;
129.6000;0.3305;7.3487;
129.9000;0.3305;7.3440;
130.2000;0.3297;7.3393;
130.5000;0.3297;7.3251;
130.8000;0.3289;7.3156;
131.1000;0.3305;7.3204;
131.4000;0.3297;7.3227;
131.7000;0.3289;7.3086;
132.0000;0.3313;7.3156;
132.3000;0.3305;7.3156;
132.6000;0.3289;7.3180;
132.9000;0.3280;7.3180;
133.2000;0.3297;7.3109;
133.5000;0.3297;7.3109;
133.8000;0.3394;7.3393;
134.1000;0.3289;7.3109;
134.4000;0.3305;7.3180;
134.7000;0.3272;7.3109;
135.0000;0.3321;7.3133;
135.3000;0.3329;7.3180;
135.6000;0.3370;7.3322;
135.9000;0.3305;7.3227;
136.2000;0.3305;7.3156;
136.5000;0.3329;7.3298;
136.8000;0.3280;7.3275;
137.1000;0.3248;7.3275;
137.4000;0.3305;7.3369;
137.7000;0.3289;7.3346;
138.0000;0.3272;7.3275;
138.3000;0.3289;7.3227;
138.6000;0.3240;7.3251;
138.9000;0.3329;7.3464;
139.2000;0.3215;7.3251;
139.5000;0.3280;7.3393;
139.8000;0.3256;7.3298;
140.1000;0.3289;7.3251;
140.4000;0.3346;7.3464;
140.7000;0.3305;7.3487;
141.0000;0.3264;7.3346;
141.3000;0.3297;7.3393;
141.6000;0.3297;7.3393;
141.9000;0.3223;7.3180;
142.2000;0.3297;7.3369;
142.5000;0.3289;7.3346;
142.8000;0.3289;7.3393;
143.1000;0.3280;7.3393;
143.4000;0.3305;7.3440;
143.7000;0.3297;7.3440;
144.0000;0.3297;7.3417;
144.3000;0.3321;7.3417;
144.6000;0.3313;7.3417;
144.9000;0.3256;7.3275;
145.2000;0.3297;7.3369;
145.5000;0.3329;7.3369;
145.8000;0.3305;7.3346;
146.1000;0.3305;7.3346;
146.4000;0.3321;7.3346;
146.7000;0.3289;7.3227;
147.0000;0.3362;7.3346;
147.3000;0.3297;7.3251;
147.6000;0.3305;7.3204;
147.9000;0.3297;7.3227;
148.2000;0.3297;7.3369;
148.5000;0.3297;7.3393;
148.8000;0.3289;7.3417;
149.1000;0.3305;7.3346;
149.4000;0.3256;7.3133;
149.7000;0.3289;7.3156;
150.0000;0.3215;7.3062;
150.3000;0.3305;7.3322;
150.6000;0.3297;7.3369;
150.9000;0.3289;7.3322;
151.2000;0.3289;7.3322;
151.5000;0.3313;7.3322;
151.8000;0.3280;7.3346;
152.1000;0.3297;7.3393;
152.4000;0.3280;7.3417;
152.7000;0.3297;7.3417;
153.0000;0.3313;7.3369;
153.3000;0.3280;7.3369;
153.6000;0.3280;7.3369;
153.9000;0.3297;7.3393;
154.2000;0.3272;7.3322;
154.5000;0.3329;7.3440;
154.8000;0.3297;7.3346;
155.1000;0.3305;7.3346;
155.4000;0.3305;7.3298;
155.7000;0.3289;7.3275;
156.0000;0.3329;7.3417;
156.3000;0.3313;7.3346;
156.6000;0.3337;7.3464;
156.9000;0.3289;7.3417;
157.2000;0.3289;7.3417;
157.5000;0.3215;7.3204;
157.8000;0.3313;7.3417;
158.1000;0.3289;7.3417;
158.4000;0.3289;7.3393;
158.7000;0.3240;7.3156;
159.0000;0.3313;7.3322;
159.3000;0.3313;7.3275;
159.6000;0.3313;7.3298;
159.9000;0.3280;7.3251;
160.2000;0.3297;7.3322;
160.5000;0.3313;7.3322;
160.8000;0.3305;7.3322;
161.1000;0.3280;7.3275;
161.4000;0.3297;7.3275;
161.7000;0.3297;7.3369;
162.0000;0.3280;7.3251;
162.3000;0.3280;7.3251;
162.6000;0.3264;7.3204;
162.9000;0.3370;7.3440;
163.2000;0.3297;7.3275;
163.5000;0.3297;7.3369;
163.8000;0.3289;7.3393;
164.1000;0.3313;7.3440;
164.4000;0.3297;7.3464;
164.7000;0.3313;7.3535;
165.0000;0.3313;7.3417;
165.3000;0.3297;7.3369;
165.6000;0.3297;7.3464;
165.9000;0.3297;7.3487;
166.2000;0.3289;7.3440;
166.5000;0.3297;7.3417;
166.8000;0.3280;7.3369;
167.1000;0.3305;7.3346;
167.4000;0.3297;7.3322;
167.7000;0.3305;7.3393;
168.0000;0.3305;7.3369;
168.3000;0.3297;7.3393;
168.6000;0.3289;7.3298;
168.9000;0.3305;7.3417;
169.2000;0.3297;7.3369;
169.5000;0.3297;7.3346;
169.8000;0.3289;7.3322;
170.1000;0.3305;7.3322;
170.4000;0.3329;7.3369;
170.7000;0.3313;7.3227;
171.0000;0.3305;7.3227;
171.3000;0.3289;7.3109;
171.6000;0.3305;7.3133;
171.9000;0.3289;7.3156;
172.2000;0.3280;7.3204;
172.5000;0.3280;7.3251;
172.8000;0.3305;7.3298;
173.1000;0.3289;7.3322;
173.4000;0.3321;7.3440;
173.7000;0.3297;7.3369;
174.0000;0.3297;7.3417;
174.3000;0.3329;7.3393;
174.6000;0.3305;7.3251;
174.9000;0.3272;7.3156;
175.2000;0.3272;7.3204;
175.5000;0.3305;7.3251;
175.8000;0.3321;7.3275;
176.1000;0.3272;7.3204;
176.4000;0.3297;7.3369;
176.7000;0.3346;7.3417;
177.0000;0.3289;7.3298;
177.3000;0.3289;7.3322;
177.6000;0.3297;7.3369;
177.9000;0.3346;7.3440;
178.2000;0.3313;7.3298;
178.5000;0.3280;7.3133;
178.8000;0.3289;7.3227;
179.1000;0.3297;7.3251;
179.4000;0.3313;7.3369;
179.7000;0.3305;7.3369;
180.0000;0.3289;7.3322;
180.3000;0.3297;7.3322;
180.6000;0.3313;7.3369;
180.9000;0.3321;7.3369;
181.2000;0.3297;7.3298;
181.5000;0.3223;7.3086;
181.8000;0.3378;7.3558;
182.1000;0.3272;7.3346;
182.4000;0.3289;7.3417;
182.7000;0.3337;7.3535;
183.0000;0.3289;7.3369;
183.3000;0.3297;7.3346;
183.6000;0.3305;7.3251;
183.9000;0.3313;7.3275;
184.2000;0.3297;7.3227;
184.5000;0.3297;7.3180;
184.8000;0.3297;7.3109;
185.1000;0.3215;7.2967;
185.4000;0.3305;7.3156;
185.7000;0.3305;7.3062;
186.0000;0.3297;7.3133;
186.3000;0.3313;7.3275;
186.6000;0.3289;7.3298;
186.9000;0.3297;7.3440;
187.2000;0.3297;7.3440;
187.5000;0.3297;7.3464;
187.8000;0.3289;7.3298;
188.1000;0.3305;7.3275;
188.4000;0.3264;7.3109;
188.7000;0.3289;7.3204;
189.0000;0.3264;7.3204;
189.3000;0.3305;7.3369;
189.6000;0.3321;7.3440;
189.9000;0.3337;7.3417;
190.2000;0.3354;7.3487;
190.5000;0.3321;7.3393;
190.8000;0.3297;7.3322;
191.1000;0.3256;7.3275;
191.4000;0.3313;7.3417;
191.7000;0.3272;7.3298;
192.0000;0.3297;7.3440;
192.3000;0.3297;7.3393;
192.6000;0.3289;7.3251;
192.9000;0.3297;7.3322;
193.2000;0.3297;7.3369;
193.5000;0.3289;7.3298;
193.8000;0.3289;7.3322;
194.1000;0.3297;7.3393;
194.4000;0.3305;7.3393;
194.7000;0.3272;7.3298;
195.0000;0.3289;7.3369;
195.3000;0.3280;7.3322;
195.6000;0.3272;7.3227;
195.9000;0.3313;7.3298;
196.2000;0.3297;7.3251;
196.5000;0.3313;7.3298;
196.8000;0.3289;7.3251;
197.1000;0.3305;7.3275;
197.4000;0.3289;7.3275;
197.7000;0.3313;7.3298;
198.0000;0.3313;7.3156;
198.3000;0.3280;7.3133;
198.6000;0.3354;7.3251;
198.9000;0.3313;7.3227;
199.2000;0.3297;7.3156;
199.5000;0.3297;7.3204;
199.8000;0.3321;7.3227;
200.1000;0.3297;7.3109;
200.4000;0.3289;7.3086;
200.7000;0.3305;7.3062;
201.0000;0.3289;7.3015;
201.3000;0.3264;7.3015;
201.6000;0.3272;7.3109;
201.9000;0.3289;7.3180;
202.2000;0.3297;7.3204;
202.5000;0.3305;7.3204;
202.8000;0.3321;7.3417;
203.1000;0.3289;7.3393;
203.4000;0.3321;7.3558;
203.7000;0.3313;7.3606;
204.0000;0.3289;7.3535;
204.3000;0.3280;7.3487;
204.6000;0.3280;7.3393;
204.9000;0.3313;7.3393;
205.2000;0.3297;7.3322;
205.5000;0.3297;7.3275;
205.8000;0.3313;7.3298;
206.1000;0.3256;7.3180;
206.4000;0.3329;7.3275;
206.7000;0.3256;7.3109;
207.0000;0.3321;7.3275;
207.3000;0.3329;7.3369;
207.6000;0.3313;7.3393;
207.9000;0.3297;7.3393;
208.2000;0.3313;7.3346;
208.5000;0.3305;7.3275;
208.8000;0.3280;7.3227;
209.1000;0.3305;7.3322;
209.4000;0.3305;7.3298;
209.7000;0.3313;7.3156;
210.0000;0.3346;7.3180;
210.3000;0.3215;7.2896;
210.6000;0.3280;7.3180;
210.9000;0.3297;7.3156;
211.2000;0.3305;7.3086;
211.5000;0.3337;7.3180;
211.8000;0.3264;7.3038;
212.1000;0.3297;7.3086;
212.4000;0.3305;7.3062;
212.7000;0.3232;7.2873;
213.0000;0.3207;7.2755;
213.3000;0.3272;7.2896;
213.6000;0.3223;7.2873;
213.9000;0.3305;7.3086;
214.2000;0.3394;7.3298;
214.5000;0.3354;7.3180;
214.8000;0.3313;7.3156;
215.1000;0.3297;7.3180;
215.4000;0.3313;7.3227;
215.7000;0.3289;7.3109;
216.0000;0.3289;7.3133;
216.3000;0.3264;7.3038;
216.6000;0.3289;7.3204;
216.9000;0.3337;7.3251;
217.2000;0.3289;7.3251;
217.5000;0.3256;7.3156;
217.8000;0.3272;7.3204;
218.1000;0.3297;7.3275;
218.4000;0.3289;7.3298;
218.7000;0.3305;7.3275;
219.0000;0.3305;7.3346;
219.3000;0.3313;7.3322;
219.6000;0.3321;7.3393;
219.9000;0.3313;7.3393;
220.2000;0.3313;7.3417;
220.5000;0.3313;7.3346;
220.8000;0.3289;7.3251;
221.1000;0.3272;7.3369;
221.4000;0.3297;7.3393;
221.7000;0.3280;7.3298;
222.0000;0.3305;7.3275;
222.3000;0.3297;7.3251;
222.6000;0.3272;7.3275;
222.9000;0.3289;7.3298;
223.2000;0.3297;7.3275;
223.5000;0.3289;7.3251;
223.8000;0.3321;7.3275;
224.1000;0.3297;7.3180;
224.4000;0.3305;7.3180;
224.7000;0.3313;7.3180;
225.0000;0.3297;7.3156;
225.3000;0.3419;7.3464;
225.6000;0.3289;7.3180;
225.9000;0.3378;7.3346;
226.2000;0.3289;7.3133;
226.5000;0.3289;7.3204;
226.8000;0.3297;7.3251;
227.1000;0.3337;7.3346;
227.4000;0.3272;7.3156;
227.7000;0.3305;7.3156;
228.0000;0.3313;7.3086;
228.3000;0.3289;7.3062;
228.6000;0.3297;7.3062;
228.9000;0.3280;7.3062;
229.2000;0.3313;7.3227;
229.5000;0.3313;7.3227;
229.8000;0.3313;7.3227;
230.1000;0.3297;7.3156;
230.4000;0.3313;7.3275;
230.7000;0.3215;7.3109;
231.0000;0.3272;7.3180;
231.3000;0.3337;7.3346;
231.6000;0.3280;7.3227;
231.9000;0.3313;7.3227;
232.2000;0.3321;7.3275;
232.5000;0.3305;7.3180;
232.8000;0.3280;7.3062;
233.1000;0.3232;7.2802;
233.4000;0.3321;7.3109;
233.7000;0.3256;7.2991;
234.0000;0.3313;7.3204;
234.3000;0.3313;7.3298;
234.6000;0.3329;7.3275;
234.9000;0.3280;7.3204;
235.2000;0.3199;7.2967;
235.5000;0.3313;7.3275;
235.8000;0.3321;7.3275;
236.1000;0.3264;7.3086;
236.4000;0.3305;7.3156;
236.7000;0.3264;7.2944;
237.0000;0.3297;7.3015;
237.3000;0.3150;7.2636;
237.6000;0.3305;7.3109;
237.9000;0.3313;7.3156;
238.2000;0.3297;7.3109;
238.5000;0.3313;7.3133;
238.8000;0.3321;7.3251;
239.1000;0.3297;7.3180;
239.4000;0.3289;7.3204;
239.7000;0.3305;7.3227;
240.0000;0.3297;7.3180;
240.3000;0.3329;7.3275;
240.6000;0.3280;7.3227;
240.9000;0.3272;7.3275;
241.2000;0.3297;7.3322;
241.5000;0.3199;7.3109;
241.8000;0.3289;7.3275;
242.1000;0.3280;7.3346;
242.4000;0.3289;7.3346;
242.7000;0.3280;7.3393;
243.0000;0.3272;7.3393;
243.3000;0.3280;7.3369;
243.6000;0.3280;7.3322;
243.9000;0.3289;7.3298;
244.2000;0.3289;7.3346;
244.5000;0.3305;7.3346;
244.8000;0.3289;7.3322;
245.1000;0.3280;7.3251;
245.4000;0.3305;7.3251;
245.7000;0.3329;7.3298;
246.0000;0.3289;7.3251;
246.3000;0.3280;7.3204;
246.6000;0.3297;7.3251;
246.9000;0.3272;7.3180;
247.2000;0.3297;7.3227;
247.5000;0.3305;7.3251;
247.8000;0.3280;7.3180;
248.1000;0.3313;7.3251;
248.4000;0.3272;7.3227;
248.7000;0.3289;7.3156;
249.0000;0.3280;7.3180;
249.3000;0.3280;7.3204;
249.6000;0.3313;7.3227;
249.9000;0.3280;7.3251;
250.2000;0.3297;7.3275;
250.5000;0.3321;7.3322;
250.8000;0.3297;7.3298;
251.1000;0.3280;7.3275;
251.4000;0.3305;7.3322;
251.7000;0.3280;7.3251;
252.0000;0.3289;7.3204;
252.3000;0.3289;7.3180;
252.6000;0.3305;7.3251;
252.9000;0.3378;7.3511;
253.2000;0.3321;7.3298;
253.5000;0.3297;7.3275;
253.8000;0.3305;7.3251;
254.1000;0.3297;7.3275;
254.4000;0.3289;7.3275;
254.7000;0.3313;7.3346;
255.0000;0.3313;7.3275;
255.3000;0.3232;7.3086;
255.6000;0.3305;7.3275;
255.9000;0.3297;7.3322;
256.2000;0.3297;7.3298;
256.5000;0.3305;7.3298;
256.8000;0.3232;7.3156;
257.1000;0.3297;7.3180;
257.4000;0.3280;7.3133;
257.7000;0.3297;7.3251;
258.0000;0.3248;7.3156;
258.3000;0.3305;7.3346;
258.6000;0.3297;7.3251;
258.9000;0.3313;7.3322;
259.2000;0.3289;7.3251;
259.5000;0.3321;7.3275;
259.8000;0.3370;7.3322;
260.1000;0.3370;7.3393;
260.4000;0.3321;7.3322;
260.7000;0.3289;7.3275;
261.0000;0.3313;7.3393;
261.3000;0.3272;7.3275;
261.6000;0.3289;7.3322;
261.9000;0.3297;7.3393;
262.2000;0.3289;7.3417;
262.5000;0.3289;7.3440;
262.8000;0.3280;7.3487;
263.1000;0.3337;7.3558;
263.4000;0.3305;7.3440;
263.7000;0.3321;7.3393;
264.0000;0.3264;7.3346;
264.3000;0.3321;7.3535;
264.6000;0.3305;7.3558;
264.9000;0.3297;7.3417;
265.2000;0.3264;7.3322;
265.5000;0.3297;7.3417;
265.8000;0.3280;7.3393;
266.1000;0.3297;7.3464;
266.4000;0.3289;7.3369;
266.7000;0.3280;7.3393;
267.0000;0.3297;7.3417;
267.3000;0.3321;7.3417;
267.6000;0.3223;7.3298;
267.9000;0.3297;7.3417;
268.2000;0.3297;7.3369;
268.5000;0.3289;7.3369;
268.8000;0.3289;7.3417;
269.1000;0.3305;7.3417;
269.4000;0.3289;7.3417;
269.7000;0.3297;7.3440;
270.0000;0.3272;7.3393;
270.3000;0.3313;7.3440;
270.6000;0.3280;7.3464;
270.9000;0.3321;7.3582;
271.2000;0.3321;7.3511;
271.5000;0.3256;7.3464;
271.8000;0.3329;7.3606;
272.1000;0.3297;7.3511;
272.4000;0.3313;7.3582;
272.7000;0.3337;7.3677;
273.0000;0.3305;7.3629;
273.3000;0.3305;7.3511;
273.6000;0.3329;7.3511;
273.9000;0.3272;7.3440;
274.2000;0.3305;7.3582;
274.5000;0.3272;7.3629;
274.8000;0.3297;7.3653;
275.1000;0.3305;7.3606;
275.4000;0.3297;7.3511;
275.7000;0.3175;7.3227;
276.0000;0.3297;7.3511;
276.3000;0.3297;7.3440;
276.6000;0.3354;7.3558;
276.9000;0.3305;7.3393;
277.2000;0.3240;7.3227;
277.5000;0.3297;7.3464;
277.8000;0.3289;7.3558;
278.1000;0.3272;7.3464;
278.4000;0.3297;7.3464;
278.7000;0.3240;7.3346;
279.0000;0.3280;7.3440;
279.3000;0.3297;7.3417;
279.6000;0.3305;7.3417;
279.9000;0.3297;7.3511;
280.2000;0.3305;7.3582;
280.5000;0.3297;7.3535;
280.8000;0.3280;7.3558;
281.1000;0.3289;7.3606;
281.4000;0.3297;7.3535;
281.7000;0.3297;7.3535;
282.0000;0.3329;7.3653;
282.3000;0.3289;7.3417;
282.6000;0.3313;7.3440;
282.9000;0.3321;7.3464;
283.2000;0.3354;7.3606;
283.5000;0.3313;7.3464;
283.8000;0.3362;7.3535;
284.1000;0.3313;7.3298;
284.4000;0.3280;7.3180;
284.7000;0.3305;7.3275;
285.0000;0.3289;7.3275;
285.3000;0.3305;7.3251;
285.6000;0.3272;7.3204;
285.9000;0.3297;7.3180;
286.2000;0.3280;7.3133;
286.5000;0.3232;7.2967;
286.8000;0.3305;7.3180;
287.1000;0.3289;7.3180;
287.4000;0.3394;7.3369;
287.7000;0.3297;7.3156;
288.0000;0.3289;7.3015;
288.3000;0.3321;7.3109;
288.6000;0.3313;7.3156;
288.9000;0.3329;7.3275;
289.2000;0.3297;7.3275;
289.5000;0.3297;7.3275;
289.8000;0.3280;7.3298;
290.1000;0.3289;7.3298;
290.4000;0.3305;7.3393;
290.7000;0.3305;7.3346;
291.0000;0.3329;7.3393;
291.3000;0.3321;7.3417;
291.6000;0.3248;7.3298;
291.9000;0.3289;7.3369;
292.2000;0.3223;7.3275;
292.5000;0.3272;7.3369;
292.8000;0.3289;7.3369;
293.1000;0.3313;7.3346;
293.4000;0.3305;7.3417;
293.7000;0.3321;7.3535;
294.0000;0.3297;7.3393;
294.3000;0.3297;7.3417;
294.6000;0.3280;7.3393;
294.9000;0.3297;7.3369;
295.2000;0.3313;7.3346;
295.5000;0.3256;7.3109;
295.8000;0.3240;7.3062;
296.1000;0.3313;7.3298;
296.4000;0.3289;7.3322;
296.7000;0.3297;7.3369;
297.0000;0.3289;7.3393;
297.3000;0.3289;7.3369;
297.6000;0.3297;7.3322;
297.9000;0.3313;7.3393;
298.2000;0.3305;7.3487;
298.5000;0.3305;7.3487;
298.8000;0.3321;7.3606;
299.1000;0.3305;7.3487;
299.4000;0.3305;7.3487;
299.7000;0.3297;7.3322;
300.0000;0.3321;7.3417;
300.3000;0.3297;7.3275;
300.6000;0.3297;7.3322;
300.9000;0.3256;7.3275;
301.2000;0.3297;7.3417;
301.5000;0.3321;7.3393;
301.8000;0.3313;7.3251;
302.1000;0.3289;7.3133;
302.4000;0.3280;7.3156;
302.7000;0.3207;7.3038;
303.0000;0.3297;7.3322;
303.3000;0.3321;7.3440;
303.6000;0.3280;7.3322;
303.9000;0.3305;7.3393;
304.2000;0.3297;7.3346;
304.5000;0.3313;7.3393;
304.8000;0.3329;7.3393;
305.1000;0.3305;7.3298;
305.4000;0.3280;7.3251;
305.7000;0.3280;7.3180;
306.0000;0.3280;7.3227;
306.3000;0.3289;7.3251;
306.6000;0.3289;7.3227;
306.9000;0.3297;7.3204;
307.2000;0.3264;7.3204;
307.5000;0.3305;7.3298;
307.8000;0.3289;7.3322;
308.1000;0.3394;7.3511;
308.4000;0.3289;7.3298;
308.7000;0.3297;7.3346;
309.0000;0.3313;7.3417;
309.3000;0.3394;7.3629;
309.6000;0.3305;7.3369;
309.9000;0.3297;7.3298;
310.2000;0.3313;7.3251;
310.5000;0.3289;7.3227;
310.8000;0.3272;7.3180;
311.1000;0.3297;7.3109;
311.4000;0.3256;7.2991;
311.7000;0.3280;7.3133;
312.0000;0.3297;7.3086;
312.3000;0.3280;7.3038;
312.6000;0.3321;7.3133;
312.9000;0.3362;7.3227;
313.2000;0.3223;7.2920;
313.5000;0.3289;7.3015;
313.8000;0.3297;7.3038;
314.1000;0.3313;7.3109;
314.4000;0.3305;7.3015;
314.7000;0.3280;7.2944;
315.0000;0.3289;7.2920;
315.3000;0.3297;7.2849;
315.6000;0.3321;7.2873;
315.9000;0.3297;7.2873;
316.2000;0.3305;7.2920;
316.5000;0.3305;7.2967;
316.8000;0.3321;7.3015;
317.1000;0.3297;7.2896;
317.4000;0.3313;7.2873;
317.7000;0.3329;7.2896;
318.0000;0.3289;7.2967;
318.3000;0.3289;7.2991;
318.6000;0.3264;7.2944;
318.9000;0.3289;7.3038;
319.2000;0.3305;7.3133;
319.5000;0.3313;7.3109;
319.8000;0.3313;7.3156;
320.1000;0.3289;7.3156;
320.4000;0.3313;7.3227;
320.7000;0.3256;7.3015;
321.0000;0.3289;7.3156;
321.3000;0.3297;7.3156;
321.6000;0.3289;7.3204;
321.9000;0.3313;7.3227;
322.2000;0.3305;7.3204;
322.5000;0.3313;7.3109;
322.8000;0.3305;7.3204;
323.1000;0.3272;7.3062;
323.4000;0.3272;7.3109;
323.7000;0.3305;7.3204;
324.0000;0.3280;7.3227;
324.3000;0.3305;7.3346;
324.6000;0.3305;7.3464;
324.9000;0.3297;7.3369;
325.2000;0.3215;7.3133;
325.5000;0.3280;7.3275;
325.8000;0.3297;7.3227;
326.1000;0.3272;7.3156;
326.4000;0.3305;7.3251;
326.7000;0.3297;7.3298;
327.0000;0.3305;7.3417;
327.3000;0.3305;7.3417;
327.6000;0.3264;7.3346;
327.9000;0.3256;7.3369;
328.2000;0.3337;7.3511;
328.5000;0.3264;7.3322;
328.8000;0.3280;7.3369;
329.1000;0.3248;7.3275;
329.4000;0.3305;7.3298;
329.7000;0.3248;7.3133;
330.0000;0.3305;7.3275;
330.3000;0.3313;7.3298;
330.6000;0.3354;7.3369;
330.9000;0.3297;7.3346;
331.2000;0.3321;7.3440;
331.5000;0.3305;7.3393;
331.8000;0.3289;7.3322;
332.1000;0.3272;7.3180;
332.4000;0.3289;7.3227;
332.7000;0.3313;7.3298;
333.0000;0.3280;7.3227;
333.3000;0.3207;7.3086;
333.6000;0.3329;7.3440;
333.9000;0.3264;7.3393;
334.2000;0.3264;7.3393;
334.5000;0.3313;7.3440;
334.8000;0.3289;7.3322;
335.1000;0.3313;7.3298;
335.4000;0.3256;7.3251;
335.7000;0.3297;7.3369;
336.0000;0.3305;7.3440;
336.3000;0.3305;7.3298;
336.6000;0.3280;7.3204;
336.9000;0.3305;7.3275;
337.2000;0.3313;7.3369;
337.5000;0.3305;7.3346;
337.8000;0.3272;7.3369;
338.1000;0.3305;7.3487;
338.4000;0.3313;7.3440;
338.7000;0.3305;7.3369;
339.0000;0.3289;7.3369;
339.3000;0.3321;7.3346;
339.6000;0.3297;7.3322;
339.9000;0.3297;7.3369;
340.2000;0.3297;7.3346;
340.5000;0.3313;7.3346;
340.8000;0.3297;7.3298;
341.1000;0.3305;7.3298;
341.4000;0.3329;7.3322;
341.7000;0.3280;7.3298;
342.0000;0.3297;7.3346;
342.3000;0.3289;7.3227;
342.6000;0.3272;7.3227;
342.9000;0.3280;7.3275;
343.2000;0.3289;7.3275;
343.5000;0.3297;7.3204;
343.8000;0.3329;7.3298;
344.1000;0.3297;7.3156;
344.4000;0.3297;7.3133;
344.7000;0.3166;7.2778;
345.0000;0.3305;7.3227;
345.3000;0.3346;7.3369;
345.6000;0.3305;7.3251;
345.9000;0.3346;7.3511;
346.2000;0.3289;7.3369;
346.5000;0.3394;7.3629;
346.8000;0.3297;7.3393;
347.1000;0.3297;7.3417;
347.4000;0.3240;7.3227;
347.7000;0.3297;7.3369;
348.0000;0.3305;7.3346;
348.3000;0.3305;7.3440;
348.6000;0.3305;7.3322;
348.9000;0.3305;7.3417;
349.2000;0.3297;7.3393;
349.5000;0.3289;7.3322;
349.8000;0.3272;7.3346;
350.1000;0.3297;7.3275;
350.4000;0.3297;7.3298;
350.7000;0.3321;7.3298;
351.0000;0.3313;7.3393;
351.3000;0.3297;7.3393;
351.6000;0.3329;7.3487;
351.9000;0.3280;7.3369;
352.2000;0.3272;7.3227;
352.5000;0.3305;7.3322;
352.8000;0.3289;7.3298;
353.1000;0.3280;7.3322;
353.4000;0.3305;7.3322;
353.7000;0.3232;7.3227;
354.0000;0.3305;7.3369;
354.3000;0.3297;7.3393;
354.6000;0.3289;7.3393;
354.9000;0.3313;7.3393;
355.2000;0.3297;7.3369;
355.5000;0.3313;7.3440;
355.8000;0.3305;7.3464;
356.1000;0.3313;7.3417;
356.4000;0.3280;7.3346;
356.7000;0.3297;7.3393;
357.0000;0.3313;7.3487;
357.3000;0.3305;7.3487;
357.6000;0.3280;7.3417;
357.9000;0.3297;7.3393;
358.2000;0.3264;7.3369;
358.5000;0.3297;7.3464;
358.8000;0.3297;7.3417;
359.1000;0.3297;7.3393;
359.4000;0.3297;7.3393;
359.7000;0.3305;7.3369;
360.0000;0.3305;7.3298;
360.3000;0.3329;7.3417;
360.6000;0.3297;7.3298;
360.9000;0.3289;7.3275;
361.2000;0.3289;7.3251;
361.5000;0.3297;7.3440;
361.8000;0.3313;7.3511;
362.1000;0.3280;7.3322;
362.4000;0.3305;7.3298;
362.7000;0.3297;7.3251;
363.0000;0.3280;7.3251;
363.3000;0.3289;7.3369;
363.6000;0.3264;7.3322;
363.9000;0.3321;7.3417;
364.2000;0.3321;7.3346;
364.5000;0.3305;7.3346;
364.8000;0.3321;7.3322;
365.1000;0.3313;7.3322;
365.4000;0.3313;7.3275;
365.7000;0.3354;7.3535;
366.0000;0.3305;7.3440;
366.3000;0.3305;7.3511;
366.6000;0.3305;7.3464;
366.9000;0.3313;7.3464;
367.2000;0.3321;7.3511;
367.5000;0.3321;7.3487;
367.8000;0.3297;7.3464;
368.1000;0.3297;7.3464;
368.4000;0.3321;7.3653;
368.7000;0.3289;7.3511;
369.0000;0.3297;7.3511;
369.3000;0.3305;7.3535;
369.6000;0.3280;7.3417;
369.9000;0.3313;7.3511;
370.2000;0.3313;7.3606;
370.5000;0.3305;7.3511;
370.8000;0.3289;7.3487;
371.1000;0.3305;7.3535;
371.4000;0.3297;7.3582;
371.7000;0.3297;7.3535;
372.0000;0.3362;7.3700;
372.3000;0.3313;7.3606;
372.6000;0.3264;7.3582;
372.9000;0.3305;7.3629;
373.2000;0.3297;7.3653;
373.5000;0.3297;7.3606;
373.8000;0.3403;7.3842;
374.1000;0.3305;7.3629;
374.4000;0.3313;7.3629;
374.7000;0.3313;7.3629;
375.0000;0.3297;7.3464;
375.3000;0.3313;7.3535;
375.6000;0.3337;7.3629;
375.9000;0.3297;7.3511;
376.2000;0.3313;7.3487;
376.5000;0.3321;7.3606;
376.8000;0.3248;7.3464;
377.1000;0.3305;7.3535;
377.4000;0.3297;7.3629;
377.7000;0.3329;7.3771;
378.0000;0.3297;7.3677;
378.3000;0.3305;7.3653;
378.6000;0.3305;7.3677;
378.9000;0.3280;7.3653;
379.2000;0.3305;7.3747;
379.5000;0.3297;7.3677;
379.8000;0.3297;7.3582;
380.1000;0.3297;7.3629;
380.4000;0.3297;7.3629;
380.7000;0.3313;7.3677;
381.0000;0.3297;7.3629;
381.3000;0.3305;7.3606;
381.6000;0.3280;7.3464;
381.9000;0.3313;7.3511;
382.2000;0.3321;7.3440;
382.5000;0.3280;7.3322;
382.8000;0.3313;7.3417;
383.1000;0.3280;7.3346;
383.4000;0.3272;7.3487;
383.7000;0.3280;7.3582;
384.0000;0.3321;7.3582;
384.3000;0.3329;7.3606;
384.6000;0.3272;7.3417;
384.9000;0.3297;7.3417;
385.2000;0.3313;7.3393;
385.5000;0.3313;7.3464;
385.8000;0.3313;7.3440;
386.1000;0.3297;7.3417;
386.4000;0.3240;7.3275;
386.7000;0.3297;7.3487;
387.0000;0.3313;7.3464;
387.3000;0.3313;7.3464;
387.6000;0.3354;7.3677;
387.9000;0.3313;7.3582;
388.2000;0.3297;7.3582;
388.5000;0.3280;7.3511;
388.8000;0.3256;7.3440;
389.1000;0.3354;7.3582;
389.4000;0.3248;7.3322;
389.7000;0.3329;7.3464;
390.0000;0.3305;7.3464;
390.3000;0.3378;7.3582;
390.6000;0.3305;7.3417;
390.9000;0.3313;7.3464;
391.2000;0.3280;7.3298;
391.5000;0.3321;7.3369;
391.8000;0.3337;7.3369;
392.1000;0.3297;7.3251;
392.4000;0.3313;7.3322;
392.7000;0.3264;7.3109;
393.0000;0.3305;7.3204;
393.3000;0.3280;7.3298;
393.6000;0.3378;7.3511;
393.9000;0.3313;7.3369;
394.2000;0.3321;7.3511;
394.5000;0.3256;7.3393;
394.8000;0.3305;7.3535;
395.1000;0.3289;7.3393;
395.4000;0.3313;7.3464;
395.7000;0.3305;7.3487;
396.0000;0.3329;7.3535;
396.3000;0.3313;7.3487;
396.6000;0.3305;7.3464;
396.9000;0.3305;7.3535;
397.2000;0.3289;7.3558;
397.5000;0.3297;7.3558;
397.8000;0.3289;7.3511;
398.1000;0.3305;7.3417;
398.4000;0.3289;7.3369;
398.7000;0.3305;7.3417;
399.0000;0.3313;7.3393;
399.3000;0.3313;7.3417;
399.6000;0.3321;7.3417;
399.9000;0.3329;7.3464;
400.2000;0.3297;7.3417;
400.5000;0.3289;7.3393;
400.8000;0.3313;7.3440;
401.1000;0.3289;7.3417;
401.4000;0.3305;7.3535;
401.7000;0.3305;7.3511;
402.0000;0.3289;7.3417;
402.3000;0.3305;7.3440;
402.6000;0.3289;7.3393;
402.9000;0.3240;7.3322;
403.2000;0.3321;7.3440;
403.5000;0.3337;7.3558;
403.8000;0.3297;7.3440;
404.1000;0.3354;7.3558;
404.4000;0.3321;7.3417;
404.7000;0.3280;7.3369;
405.0000;0.3305;7.3417;
405.3000;0.3297;7.3369;
405.6000;0.3256;7.3204;
405.9000;0.3305;7.3346;
406.2000;0.3289;7.3322;
406.5000;0.3313;7.3298;
406.8000;0.3289;7.3275;
407.1000;0.3289;7.3322;
407.4000;0.3313;7.3298;
407.7000;0.3289;7.3227;
408.0000;0.3305;7.3251;
408.3000;0.3305;7.3227;
408.6000;0.3289;7.3180;
408.9000;0.3264;7.3204;
409.2000;0.3280;7.3275;
409.5000;0.3289;7.3369;
409.8000;0.3297;7.3417;
410.1000;0.3289;7.3535;
410.4000;0.3272;7.3487;
410.7000;0.3305;7.3535;
411.0000;0.3313;7.3606;
411.3000;0.3289;7.3606;
411.6000;0.3289;7.3629;
411.9000;0.3289;7.3653;
412.2000;0.3289;7.3629;
412.5000;0.3280;7.3629;
412.8000;0.3297;7.3653;
413.1000;0.3289;7.3511;
413.4000;0.3313;7.3629;
413.7000;0.3321;7.3700;
414.0000;0.3297;7.3511;
414.3000;0.3313;7.3464;
414.6000;0.3305;7.3393;
414.9000;0.3313;7.3417;
415.2000;0.3305;7.3322;
415.5000;0.3297;7.3369;
415.8000;0.3240;7.3156;
416.1000;0.3346;7.3393;
416.4000;0.3289;7.3227;
416.7000;0.3321;7.3204;
417.0000;0.3362;7.3440;
417.3000;0.3378;7.3487;
417.6000;0.3297;7.3298;
417.9000;0.3313;7.3322;
418.2000;0.3313;7.3298;
418.5000;0.3232;7.3109;
418.8000;0.3305;7.3227;
419.1000;0.3354;7.3346;
419.4000;0.3305;7.3369;
419.7000;0.3297;7.3440;
420.0000;0.3305;7.3417;
420.3000;0.3305;7.3369;
420.6000;0.3305;7.3393;
420.9000;0.3313;7.3417;
421.2000;0.3313;7.3417;
421.5000;0.3313;7.3464;
421.8000;0.3280;7.3393;
422.1000;0.3362;7.3629;
422.4000;0.3256;7.3417;
422.7000;0.3280;7.3487;
423.0000;0.3313;7.3487;
423.3000;0.3272;7.3464;
423.6000;0.3280;7.3535;
423.9000;0.3289;7.3511;
424.2000;0.3297;7.3535;
424.5000;0.3313;7.3653;
424.8000;0.3313;7.3511;
425.1000;0.3272;7.3487;
425.4000;0.3264;7.3464;
425.7000;0.3289;7.3558;
426.0000;0.3313;7.3606;
426.3000;0.3207;7.3251;
426.6000;0.3321;7.3511;
426.9000;0.3297;7.3464;
427.2000;0.3297;7.3417;
427.5000;0.3280;7.3417;
427.8000;0.3305;7.3417;
428.1000;0.3272;7.3322;
428.4000;0.3305;7.3417;
428.7000;0.3305;7.3346;
429.0000;0.3313;7.3464;
429.3000;0.3313;7.3440;
429.6000;0.3297;7.3346;
429.9000;0.3297;7.3322;
430.2000;0.3297;7.3369;
430.5000;0.3289;7.3393;
430.8000;0.3297;7.3369;
431.1000;0.3297;7.3346;
431.4000;0.3313;7.3464;
431.7000;0.3297;7.3369;
432.0000;0.3297;7.3393;
432.3000;0.3289;7.3346;
432.6000;0.3321;7.3440;
432.9000;0.3232;7.3346;
433.2000;0.3280;7.3487;
433.5000;0.3305;7.3511;
433.8000;0.3313;7.3582;
434.1000;0.3272;7.3369;
434.4000;0.3305;7.3440;
434.7000;0.3289;7.3487;
435.0000;0.3297;7.3582;
435.3000;0.3272;7.3511;
435.6000;0.3280;7.3558;
435.9000;0.3297;7.3582;
436.2000;0.3297;7.3511;
436.5000;0.3297;7.3487;
436.8000;0.3280;7.3369;
437.1000;0.3305;7.3346;
437.4000;0.3289;7.3393;
437.7000;0.3321;7.3369;
438.0000;0.3272;7.3251;
438.3000;0.3264;7.3275;
438.6000;0.3297;7.3393;
438.9000;0.3256;7.3298;
439.2000;0.3289;7.3322;
439.5000;0.3297;7.3322;
439.8000;0.3305;7.3369;
440.1000;0.3313;7.3440;
440.4000;0.3305;7.3417;
440.7000;0.3354;7.3487;
441.0000;0.3264;7.3369;
441.3000;0.3297;7.3464;
441.6000;0.3305;7.3440;
441.9000;0.3297;7.3322;
442.2000;0.3289;7.3322;
442.5000;0.3297;7.3369;
442.8000;0.3232;7.3275;
443.1000;0.3280;7.3298;
443.4000;0.3280;7.3346;
443.7000;0.3297;7.3346;
444.0000;0.3305;7.3369;
444.3000;0.3313;7.3322;
444.6000;0.3305;7.3322;
444.9000;0.3297;7.3298;
445.2000;0.3313;7.3346;
445.5000;0.3289;7.3369;
445.8000;0.3289;7.3322;
446.1000;0.3289;7.3369;
446.4000;0.3289;7.3369;
446.7000;0.3297;7.3417;
447.0000;0.3289;7.3346;
447.3000;0.3289;7.3393;
447.6000;0.3305;7.3393;
447.9000;0.3289;7.3204;
448.2000;0.3297;7.3109;
448.5000;0.3321;7.3109;
448.8000;0.3313;7.3109;
449.1000;0.3305;7.3156;
449.4000;0.3313;7.3109;
449.7000;0.3272;7.3015;
450.0000;0.3370;7.3227;
450.3000;0.3313;7.3038;
450.6000;0.3329;7.3086;
450.9000;0.3297;7.3086;
451.2000;0.3305;7.3204;
451.5000;0.3297;7.3180;
451.8000;0.3280;7.3204;
452.1000;0.3280;7.3346;
452.4000;0.3289;7.3346;
452.7000;0.3329;7.3346;
453.0000;0.3305;7.3227;
453.3000;0.3305;7.3322;
453.6000;0.3248;7.3298;
453.9000;0.3305;7.3393;
454.2000;0.3313;7.3440;
454.5000;0.3297;7.3440;
454.8000;0.3297;7.3417;
455.1000;0.3305;7.3393;
455.4000;0.3321;7.3440;
455.7000;0.3305;7.3440;
456.0000;0.3305;7.3369;
456.3000;0.3289;7.3417;
456.6000;0.3272;7.3369;
456.9000;0.3297;7.3440;
457.2000;0.3280;7.3417;
457.5000;0.3289;7.3417;
457.8000;0.3313;7.3511;
458.1000;0.3305;7.3369;
458.4000;0.3272;7.3322;
458.7000;0.3280;7.3417;
459.0000;0.3297;7.3417;
459.3000;0.3264;7.3393;
459.6000;0.3305;7.3464;
459.9000;0.3297;7.3464;
460.2000;0.3297;7.3511;
460.5000;0.3354;7.3629;
460.8000;0.3305;7.3511;
461.1000;0.3264;7.3417;
461.4000;0.3280;7.3511;
461.7000;0.3272;7.3440;
462.0000;0.3289;7.3464;
462.3000;0.3297;7.3393;
462.6000;0.3370;7.3511;
462.9000;0.3240;7.3156;
463.2000;0.3354;7.3369;
463.5000;0.3321;7.3251;
463.8000;0.3297;7.3156;
464.1000;0.3321;7.3251;
464.4000;0.3305;7.3227;
464.7000;0.3313;7.3298;
465.0000;0.3305;7.3275;
465.3000;0.3305;7.3346;
465.6000;0.3289;7.3251;
465.9000;0.3297;7.3298;
466.2000;0.3297;7.3275;
466.5000;0.3280;7.3322;
466.8000;0.3297;7.3346;
467.1000;0.3305;7.3369;
467.4000;0.3297;7.3275;
467.7000;0.3305;7.3393;
468.0000;0.3272;7.3369;
468.3000;0.3289;7.3322;
468.6000;0.3289;7.3322;
468.9000;0.3280;7.3369;
469.2000;0.3321;7.3417;
469.5000;0.3305;7.3346;
469.8000;0.3289;7.3275;
470.1000;0.3305;7.3322;
470.4000;0.3305;7.3322;
470.7000;0.3280;7.3322;
471.0000;0.3289;7.3417;
471.3000;0.3289;7.3346;
471.6000;0.3297;7.3346;
471.9000;0.3305;7.3417;
472.2000;0.3321;7.3511;
472.5000;0.3337;7.3558;
472.8000;0.3305;7.3417;
473.1000;0.3305;7.3487;
473.4000;0.3329;7.3464;
473.7000;0.3346;7.3653;
474.0000;0.3313;7.3606;
474.3000;0.3297;7.3582;
474.6000;0.3297;7.3535;
474.9000;0.3313;7.3558;
475.2000;0.3305;7.3511;
475.5000;0.3305;7.3440;
475.8000;0.3313;7.3417;
476.1000;0.3280;7.3322;
476.4000;0.3297;7.3346;
476.7000;0.3305;7.3393;
477.0000;0.3305;7.3440;
477.3000;0.3297;7.3487;
477.6000;0.3305;7.3464;
477.9000;0.3280;7.3417;
478.2000;0.3289;7.3535;
478.5000;0.3215;7.3298;
478.8000;0.3346;7.3558;
479.1000;0.3272;7.3440;
479.4000;0.3289;7.3511;
479.7000;0.3240;7.3393;
480.0000;0.3280;7.3511;
480.3000;0.3289;7.3606;
480.6000;0.3329;7.3629;
480.9000;0.3313;7.3440;
481.2000;0.3313;7.3346;
481.5000;0.3264;7.3346;
481.8000;0.3329;7.3440;
482.1000;0.3346;7.3464;
482.4000;0.3289;7.3275;
482.7000;0.3272;7.3346;
483.0000;0.3305;7.3393;
483.3000;0.3264;7.3227;
483.6000;0.3313;7.3275;
483.9000;0.3346;7.3322;
484.2000;0.3313;7.3251;
484.5000;0.3329;7.3275;
484.8000;0.3297;7.3227;
485.1000;0.3297;7.3369;
485.4000;0.3272;7.3322;
485.7000;0.3240;7.3298;
486.0000;0.3313;7.3535;
486.3000;0.3305;7.3511;
486.6000;0.3378;7.3582;
486.9000;0.3289;7.3322;
487.2000;0.3289;7.3369;
487.5000;0.3305;7.3417;
487.8000;0.3313;7.3417;
488.1000;0.3297;7.3393;
488.4000;0.3297;7.3464;
488.7000;0.3313;7.3487;
489.0000;0.3297;7.3440;
489.3000;0.3289;7.3393;
489.6000;0.3313;7.3417;
489.9000;0.3305;7.3393;
490.2000;0.3272;7.3298;
490.5000;0.3313;7.3393;
490.8000;0.3321;7.3440;
491.1000;0.3313;7.3369;
491.4000;0.3337;7.3369;
491.7000;0.3321;7.3204;
492.0000;0.3313;7.3156;
492.3000;0.3321;7.3322;
492.6000;0.3280;7.3322;
492.9000;0.3223;7.3275;
493.2000;0.3289;7.3440;
493.5000;0.3297;7.3464;
493.8000;0.3297;7.3440;
494.1000;0.3305;7.3487;
494.4000;0.3346;7.3535;
494.7000;0.3321;7.3606;
495.0000;0.3297;7.3487;
495.3000;0.3289;7.3464;
495.6000;0.3248;7.3346;
495.9000;0.3289;7.3393;
496.2000;0.3305;7.3440;
496.5000;0.3297;7.3417;
496.8000;0.3305;7.3298;
497.1000;0.3305;7.3251;
497.4000;0.3313;7.3227;
497.7000;0.3305;7.3133;
498.0000;0.3305;7.3133;
498.3000;0.3305;7.3204;
498.6000;0.3305;7.3204;
498.9000;0.3313;7.3204;
499.2000;0.3297;7.3156;
499.5000;0.3394;7.3487;
499.8000;0.3215;7.3038;
500.1000;0.3305;7.3275;
500.4000;0.3264;7.3204;
500.7000;0.3297;7.3275;
501.0000;0.3297;7.3251;
501.3000;0.3305;7.3227;
501.6000;0.3305;7.3298;
501.9000;0.3264;7.3227;
502.2000;0.3272;7.3298;
502.5000;0.3232;7.3275;
502.8000;0.3289;7.3369;
503.1000;0.3280;7.3322;
503.4000;0.3280;7.3322;
503.7000;0.3329;7.3487;
504.0000;0.3280;7.3393;
504.3000;0.3280;7.3393;
504.6000;0.3280;7.3417;
504.9000;0.3386;7.3629;
505.2000;0.3305;7.3487;
505.5000;0.3297;7.3487;
505.8000;0.3297;7.3511;
506.1000;0.3305;7.3535;
506.4000;0.3289;7.3417;
506.7000;0.3321;7.3535;
507.0000;0.3297;7.3440;
507.3000;0.3346;7.3511;
507.6000;0.3354;7.3535;
507.9000;0.3297;7.3346;
508.2000;0.3305;7.3227;
508.5000;0.3280;7.3156;
508.8000;0.3337;7.3369;
509.1000;0.3305;7.3298;
509.4000;0.3321;7.3346;
509.7000;0.3280;7.3227;
510.0000;0.3313;7.3298;
510.3000;0.3313;7.3440;
510.6000;0.3313;7.3393;
510.9000;0.3280;7.3298;
511.2000;0.3329;7.3417;
511.5000;0.3305;7.3298;
511.8000;0.3305;7.3227;
512.1000;0.3289;7.3204;
512.4000;0.3297;7.3156;
512.7000;0.3305;7.3227;
513.0000;0.3305;7.3251;
513.3000;0.3289;7.3251;
513.6000;0.3280;7.3322;
513.9000;0.3305;7.3369;
514.2000;0.3272;7.3251;
514.5000;0.3289;7.3346;
514.8000;0.3280;7.3298;
515.1000;0.3297;7.3369;
515.4000;0.3272;7.3346;
515.7000;0.3297;7.3346;
516.0000;0.3305;7.3298;
516.3000;0.3297;7.3204;
516.6000;0.3305;7.3156;
516.9000;0.3297;7.3227;
517.2000;0.3297;7.3251;
517.5000;0.3305;7.3275;
517.8000;0.3289;7.3156;
518.1000;0.3289;7.3086;
518.4000;0.3297;7.3180;
518.7000;0.3297;7.3180;
519.0000;0.3362;7.3393;
519.3000;0.3346;7.3322;
519.6000;0.3321;7.3275;
519.9000;0.3313;7.3298;
520.2000;0.3321;7.3251;
520.5000;0.3321;7.3322;
520.8000;0.3313;7.3346;
521.1000;0.3305;7.3275;
521.4000;0.3289;7.3275;
521.7000;0.3362;7.3369;
522.0000;0.3321;7.3204;
522.3000;0.3305;7.3156;
522.6000;0.3329;7.3180;
522.9000;0.3297;7.3180;
523.2000;0.3329;7.3227;
523.5000;0.3232;7.3015;
523.8000;0.3305;7.3204;
524.1000;0.3305;7.3180;
524.4000;0.3272;7.3109;
524.7000;0.3354;7.3227;
525.0000;0.3321;7.3204;
525.3000;0.3272;7.3015;
525.6000;0.3297;7.3038;
525.9000;0.3289;7.3015;
526.2000;0.3297;7.3180;
526.5000;0.3305;7.3322;
526.8000;0.3346;7.3487;
527.1000;0.3297;7.3369;
527.4000;0.3240;7.3275;
527.7000;0.3297;7.3369;
528.0000;0.3289;7.3417;
528.3000;0.3272;7.3322;
528.6000;0.3289;7.3251;
528.9000;0.3313;7.3275;
529.2000;0.3280;7.3227;
529.5000;0.3297;7.3369;
529.8000;0.3297;7.3346;
530.1000;0.3313;7.3298;
530.4000;0.3337;7.3369;
530.7000;0.3289;7.3346;
531.0000;0.3313;7.3393;
531.3000;0.3256;7.3275;
531.6000;0.3305;7.3322;
531.9000;0.3305;7.3322;
532.2000;0.3289;7.3133;
532.5000;0.3313;7.3109;
532.8000;0.3305;7.3086;
533.1000;0.3411;7.3346;
533.4000;0.3256;7.3038;
533.7000;0.3305;7.3133;
534.0000;0.3289;7.3204;
534.3000;0.3305;7.3251;
534.6000;0.3337;7.3393;
534.9000;0.3305;7.3417;
535.2000;0.3207;7.3156;
535.5000;0.3321;7.3417;
535.8000;0.3289;7.3393;
536.1000;0.3223;7.3133;
536.4000;0.3280;7.3275;
536.7000;0.3305;7.3346;
537.0000;0.3337;7.3511;
537.3000;0.3313;7.3393;
537.6000;0.3297;7.3440;
537.9000;0.3289;7.3417;
538.2000;0.3346;7.3487;
538.5000;0.3297;7.3275;
538.8000;0.3289;7.3227;
539.1000;0.3297;7.3275;
539.4000;0.3305;7.3298;
539.7000;0.3297;7.3275;
540.0000;0.3280;7.3227;
540.3000;0.3280;7.3251;
540.6000;0.3280;7.3275;
540.9000;0.3248;7.3227;
541.2000;0.3321;7.3275;
541.5000;0.3280;7.3156;
541.8000;0.3337;7.3275;
542.1000;0.3321;7.3298;
542.4000;0.3305;7.3298;
542.7000;0.3297;7.3251;
543.0000;0.3280;7.3251;
543.3000;0.3305;7.3322;
543.6000;0.3297;7.3204;
543.9000;0.3280;7.3180;
544.2000;0.3289;7.3251;
544.5000;0.3289;7.3156;
544.8000;0.3321;7.3251;
545.1000;0.3346;7.3251;
545.4000;0.3305;7.3086;
545.7000;0.3370;7.3204;
546.0000;0.3329;7.3133;
546.3000;0.3305;7.3015;
546.6000;0.3297;7.3062;
546.9000;0.3280;7.2991;
547.2000;0.3297;7.3062;
547.5000;0.3272;7.3062;
547.8000;0.3289;7.3086;
548.1000;0.3264;7.3156;
548.4000;0.3289;7.3251;
548.7000;0.3223;7.3109;
549.0000;0.3289;7.3417;
549.3000;0.3305;7.3298;
549.6000;0.3289;7.3204;
549.9000;0.3215;7.3015;
550.2000;0.3297;7.3227;
550.5000;0.3280;7.3251;
550.8000;0.3313;7.3346;
551.1000;0.3272;7.3275;
551.4000;0.3305;7.3417;
551.7000;0.3272;7.3322;
552.0000;0.3305;7.3322;
552.3000;0.3305;7.3227;
552.6000;0.3297;7.3133;
552.9000;0.3297;7.3133;
553.2000;0.3305;7.3204;
553.5000;0.3280;7.3227;
553.8000;0.3297;7.3227;
554.1000;0.3289;7.3298;
554.4000;0.3289;7.3251;
554.7000;0.3321;7.3275;
555.0000;0.3280;7.3156;
555.3000;0.3289;7.3204;
555.6000;0.3289;7.3227;
555.9000;0.3232;7.3086;
556.2000;0.3264;7.3156;
556.5000;0.3305;7.3298;
556.8000;0.3305;7.3275;
557.1000;0.3289;7.3227;
557.4000;0.3297;7.3227;
557.7000;0.3346;7.3393;
558.0000;0.3305;7.3440;
558.3000;0.3305;7.3369;
558.6000;0.3305;7.3369;
558.9000;0.3329;7.3487;
559.2000;0.3305;7.3487;
559.5000;0.3297;7.3582;
559.8000;0.3297;7.3535;
560.1000;0.3264;7.3369;
560.4000;0.3272;7.3369;
560.7000;0.3272;7.3322;
561.0000;0.3289;7.3298;
561.3000;0.3297;7.3369;
561.6000;0.3313;7.3346;
561.9000;0.3272;7.3204;
562.2000;0.3289;7.3227;
562.5000;0.3313;7.3346;
562.8000;0.3297;7.3393;
563.1000;0.3280;7.3440;
563.4000;0.3305;7.3440;
563.7000;0.3289;7.3487;
564.0000;0.3280;7.3346;
564.3000;0.3223;7.3346;
564.6000;0.3289;7.3487;
564.9000;0.3305;7.3464;
565.2000;0.3313;7.3322;
565.5000;0.3297;7.3298;
565.8000;0.3289;7.3369;
566.1000;0.3305;7.3298;
566.4000;0.3305;7.3322;
566.7000;0.3313;7.3298;
567.0000;0.3305;7.3322;
567.3000;0.3313;7.3322;
567.6000;0.3362;7.3440;
567.9000;0.3305;7.3417;
568.2000;0.3305;7.3440;
568.5000;0.3289;7.3227;
568.8000;0.3264;7.3156;
569.1000;0.3297;7.3251;
569.4000;0.3305;7.3346;
569.7000;0.3297;7.3417;
570.0000;0.3256;7.3275;
570.3000;0.3297;7.3346;
570.6000;0.3280;7.3275;
570.9000;0.3321;7.3440;
571.2000;0.3313;7.3393;
571.5000;0.3297;7.3298;
571.8000;0.3280;7.3275;
572.1000;0.3305;7.3346;
572.4000;0.3297;7.3298;
572.7000;0.3297;7.3251;
573.0000;0.3280;7.3156;
573.3000;0.3272;7.3180;
573.6000;0.3321;7.3298;
573.9000;0.3289;7.3133;
574.2000;0.3305;7.3204;
574.5000;0.3289;7.3251;
574.8000;0.3272;7.3180;
575.1000;0.3272;7.3180;
575.4000;0.3289;7.3275;
575.7000;0.3321;7.3251;
576.0000;0.3313;7.3346;
576.3000;0.3321;7.3393;
576.6000;0.3337;7.3487;
576.9000;0.3313;7.3369;
577.2000;0.3321;7.3417;
577.5000;0.3329;7.3487;
577.8000;0.3272;7.3298;
578.1000;0.3297;7.3369;
578.4000;0.3289;7.3369;
578.7000;0.3272;7.3393;
579.0000;0.3305;7.3487;
579.3000;0.3272;7.3346;
579.6000;0.3248;7.3275;
579.9000;0.3207;7.3204;
580.2000;0.3256;7.3275;
580.5000;0.3272;7.3393;
580.8000;0.3305;7.3440;
581.1000;0.3305;7.3535;
581.4000;0.3321;7.3511;
581.7000;0.3321;7.3440;
582.0000;0.3305;7.3440;
582.3000;0.3313;7.3393;
582.6000;0.3313;7.3369;
582.9000;0.3280;7.3322;
583.2000;0.3305;7.3322;
583.5000;0.3305;7.3322;
583.8000;0.3305;7.3322;
584.1000;0.3289;7.3369;
584.4000;0.3280;7.3322;
584.7000;0.3297;7.3393;
585.0000;0.3289;7.3369;
585.3000;0.3289;7.3487;
585.6000;0.3280;7.3440;
585.9000;0.3297;7.3393;
586.2000;0.3297;7.3393;
586.5000;0.3289;7.3440;
586.8000;0.3297;7.3535;
587.1000;0.3289;7.3464;
587.4000;0.3305;7.3393;
587.7000;0.3313;7.3322;
588.0000;0.3256;7.3322;
588.3000;0.3272;7.3369;
588.6000;0.3264;7.3251;
588.9000;0.3305;7.3417;
589.2000;0.3313;7.3440;
589.5000;0.3289;7.3322;
589.8000;0.3321;7.3298;
590.1000;0.3329;7.3298;
590.4000;0.3305;7.3227;
590.7000;0.3305;7.3204;
591.0000;0.3337;7.3251;
591.3000;0.3297;7.3227;
591.6000;0.3272;7.3156;
591.9000;0.3297;7.3251;
592.2000;0.3321;7.3322;
592.5000;0.3354;7.3464;
592.8000;0.3313;7.3346;
593.1000;0.3289;7.3204;
593.4000;0.3280;7.3180;
593.7000;0.3280;7.3204;
594.0000;0.3264;7.3204;
594.3000;0.3289;7.3322;
594.6000;0.3305;7.3393;
594.9000;0.3305;7.3369;
595.2000;0.3337;7.3393;
595.5000;0.3403;7.3535;
595.8000;0.3280;7.3156;
596.1000;0.3272;7.3133;
596.4000;0.3280;7.3251;
596.7000;0.3289;7.3251;
597.0000;0.3305;7.3227;
597.3000;0.3313;7.3322;
597.6000;0.3305;7.3393;
597.9000;0.3321;7.3417;
598.2000;0.3305;7.3275;
598.5000;0.3297;7.3227;
598.8000;0.3313;7.3251;
599.1000;0.3305;7.3275;
599.4000;0.3272;7.3204;
599.7000;0.3346;7.3346;
600.0000;0.3297;7.3180;
600.3000;0.3297;7.3086;
600.6000;0.3297;7.3015;
600.9000;0.3289;7.2944;
601.2000;0.3264;7.2944;
601.5000;0.3232;7.2873;
601.8000;0.3272;7.2826;
602.1000;0.3191;7.2660;
602.4000;0.3150;7.2589;
602.7000;0.3142;7.2518;
603.0000;0.3109;7.2353;
603.3000;0.3101;7.2211;
603.6000;0.3061;7.2069;
603.9000;0.3069;7.1975;
604.2000;0.3093;7.2046;
604.5000;0.3044;7.1904;
604.8000;0.3012;7.1738;
605.1000;0.2987;7.1596;
605.4000;0.2971;7.1596;
605.7000;0.2955;7.1596;
606.0000;0.2955;7.1573;
606.3000;0.2930;7.1596;
606.6000;0.2947;7.1596;
606.9000;0.2914;7.1573;
607.2000;0.2898;7.1431;
607.5000;0.2882;7.1336;
607.8000;0.2865;7.1407;
608.1000;0.2865;7.1431;
608.4000;0.2849;7.1360;
608.7000;0.2833;7.1384;
609.0000;0.2833;7.1336;
609.3000;0.2825;7.1336;
609.6000;0.2816;7.1195;
609.9000;0.2784;7.1053;
610.2000;0.2792;7.1053;
610.5000;0.2784;7.1100;
610.8000;0.2784;7.1124;
611.1000;0.2792;7.1100;
611.4000;0.2759;7.1029;
611.7000;0.2792;7.1171;
612.0000;0.2759;7.1171;
612.3000;0.2751;7.1124;
612.6000;0.2759;7.1147;
612.9000;0.2751;7.1100;
613.2000;0.2735;7.1053;
613.5000;0.2792;7.1171;
613.8000;0.2719;7.1029;
614.1000;0.2711;7.1006;
614.4000;0.2727;7.1029;
614.7000;0.2711;7.0887;
615.0000;0.2686;7.0911;
615.3000;0.2686;7.0935;
615.6000;0.2646;7.0793;
615.9000;0.2670;7.0864;
616.2000;0.2686;7.0911;
616.5000;0.2694;7.0982;
616.8000;0.2654;7.1006;
617.1000;0.2662;7.1029;
617.4000;0.2646;7.0935;
617.7000;0.2564;7.0698;
618.0000;0.2646;7.0911;
618.3000;0.2613;7.0935;
618.6000;0.2605;7.0911;
618.9000;0.2597;7.0887;
619.2000;0.2613;7.1029;
619.5000;0.2572;7.1029;
619.8000;0.2589;7.1053;
620.1000;0.2580;7.1006;
620.4000;0.2564;7.0982;
620.7000;0.2556;7.0911;
621.0000;0.2580;7.0982;
621.3000;0.2589;7.0982;
621.6000;0.2580;7.0935;
621.9000;0.2548;7.0935;
622.2000;0.2564;7.0887;
622.5000;0.2572;7.0935;
622.8000;0.2556;7.0864;
623.1000;0.2548;7.0793;
623.4000;0.2548;7.0911;
623.7000;0.2532;7.0793;
624.0000;0.2523;7.0793;
624.3000;0.2507;7.0722;
624.6000;0.2540;7.0816;
624.9000;0.2499;7.0722;
625.2000;0.2499;7.0746;
625.5000;0.2507;7.0698;
625.8000;0.2507;7.0769;
626.1000;0.2491;7.0746;
626.4000;0.2491;7.0793;
626.7000;0.2483;7.0864;
627.0000;0.2491;7.0887;
627.3000;0.2491;7.0769;
627.6000;0.2458;7.0746;
627.9000;0.2442;7.0746;
628.2000;0.2466;7.0769;
628.5000;0.2466;7.0746;
628.8000;0.2458;7.0722;
629.1000;0.2450;7.0769;
629.4000;0.2434;7.0746;
629.7000;0.2458;7.0746;
630.0000;0.2458;7.0722;
630.3000;0.2442;7.0675;
630.6000;0.2434;7.0675;
630.9000;0.2426;7.0651;
631.2000;0.2434;7.0556;
631.5000;0.2418;7.0438;
631.8000;0.2418;7.0438;
632.1000;0.2426;7.0651;
632.4000;0.2426;7.0651;
632.7000;0.2426;7.0580;
633.0000;0.2418;7.0651;
633.3000;0.2450;7.0580;
633.6000;0.2409;7.0533;
633.9000;0.2393;7.0627;
634.2000;0.2385;7.0698;
634.5000;0.2418;7.0722;
634.8000;0.2418;7.0769;
635.1000;0.2393;7.0722;
635.4000;0.2361;7.0627;
635.7000;0.2377;7.0556;
636.0000;0.2401;7.0556;
636.3000;0.2385;7.0462;
636.6000;0.2393;7.0556;
636.9000;0.2361;7.0486;
637.2000;0.2385;7.0604;
637.5000;0.2393;7.0698;
637.8000;0.2312;7.0486;
638.1000;0.2369;7.0675;
638.4000;0.2385;7.0651;
638.7000;0.2369;7.0698;
639.0000;0.2352;7.0698;
639.3000;0.2442;7.0911;
639.6000;0.2352;7.0604;
639.9000;0.2336;7.0580;
640.2000;0.2352;7.0580;
640.5000;0.2352;7.0580;
640.8000;0.2328;7.0604;
641.1000;0.2344;7.0698;
641.4000;0.2271;7.0438;
641.7000;0.2336;7.0533;
642.0000;0.2344;7.0462;
642.3000;0.2328;7.0486;
642.6000;0.2352;7.0556;
642.9000;0.2336;7.0556;
643.2000;0.2336;7.0604;
643.5000;0.2328;7.0556;
643.8000;0.2344;7.0486;
644.1000;0.2328;7.0533;
644.4000;0.2328;7.0580;
644.7000;0.2336;7.0509;
645.0000;0.2336;7.0556;
645.3000;0.2287;7.0438;
645.6000;0.2312;7.0533;
645.9000;0.2287;7.0556;
646.2000;0.2320;7.0580;
646.5000;0.2304;7.0533;
646.8000;0.2328;7.0556;
647.1000;0.2304;7.0580;
647.4000;0.2320;7.0580;
647.7000;0.2279;7.0462;
648.0000;0.2304;7.0580;
648.3000;0.2255;7.0462;
648.6000;0.2287;7.0533;
648.9000;0.2304;7.0556;
649.2000;0.2287;7.0533;
649.5000;0.2304;7.0486;
649.8000;0.2295;7.0462;
650.1000;0.2295;7.0415;
650.4000;0.2295;7.0391;
650.7000;0.2279;7.0320;
651.0000;0.2279;7.0320;
651.3000;0.2198;7.0226;
651.6000;0.2287;7.0556;
651.9000;0.2287;7.0580;
652.2000;0.2287;7.0580;
652.5000;0.2287;7.0651;
652.8000;0.2263;7.0651;
653.1000;0.2247;7.0627;
653.4000;0.2247;7.0675;
653.7000;0.2247;7.0651;
654.0000;0.2247;7.0627;
654.3000;0.2255;7.0722;
654.6000;0.2206;7.0556;
654.9000;0.2295;7.0698;
655.2000;0.2263;7.0675;
655.5000;0.2287;7.0746;
655.8000;0.2287;7.0722;
656.1000;0.2295;7.0627;
656.4000;0.2255;7.0509;
656.7000;0.2255;7.0486;
657.0000;0.2295;7.0580;
657.3000;0.2239;7.0509;
657.6000;0.2263;7.0486;
657.9000;0.2279;7.0627;
658.2000;0.2230;7.0651;
658.5000;0.2230;7.0675;
658.8000;0.2239;7.0769;
659.1000;0.2304;7.0840;
659.4000;0.2271;7.0769;
659.7000;0.2230;7.0627;
660.0000;0.2141;7.0367;
660.3000;0.2214;7.0627;
660.6000;0.2230;7.0604;
660.9000;0.2239;7.0509;
661.2000;0.2255;7.0627;
661.5000;0.2190;7.0462;
661.8000;0.2247;7.0698;
662.1000;0.2214;7.0604;
662.4000;0.2222;7.0675;
662.7000;0.2247;7.0746;
663.0000;0.2230;7.0675;
663.3000;0.2214;7.0556;
663.6000;0.2230;7.0462;
663.9000;0.2206;7.0486;
664.2000;0.2214;7.0580;
664.5000;0.2214;7.0580;
664.8000;0.2198;7.0556;
665.1000;0.2206;7.0580;
665.4000;0.2198;7.0533;
665.7000;0.2165;7.0509;
666.0000;0.2190;7.0580;
666.3000;0.2230;7.0604;
666.6000;0.2222;7.0627;
666.9000;0.2222;7.0556;
667.2000;0.2214;7.0486;
667.5000;0.2206;7.0556;
667.8000;0.2239;7.0627;
668.1000;0.2214;7.0651;
668.4000;0.2198;7.0604;
668.7000;0.2206;7.0580;
669.0000;0.2230;7.0651;
669.3000;0.2190;7.0604;
669.6000;0.2190;7.0533;
669.9000;0.2230;7.0627;
670.2000;0.2198;7.0438;
670.5000;0.2190;7.0462;
670.8000;0.2173;7.0391;
671.1000;0.2239;7.0604;
671.4000;0.2198;7.0533;
671.7000;0.2149;7.0486;
672.0000;0.2198;7.0651;
672.3000;0.2190;7.0793;
672.6000;0.2247;7.1006;
672.9000;0.2230;7.0958;
673.2000;0.2263;7.1053;
673.5000;0.2304;7.1029;
673.8000;0.2239;7.0840;
674.1000;0.2182;7.0698;
674.4000;0.2214;7.0746;
674.7000;0.2190;7.0746;
675.0000;0.2116;7.0627;
675.3000;0.2173;7.0651;
675.6000;0.2157;7.0675;
675.9000;0.2157;7.0627;
676.2000;0.2157;7.0698;
676.5000;0.2157;7.0651;
676.8000;0.2149;7.0651;
677.1000;0.2157;7.0627;
677.4000;0.2173;7.0698;
677.7000;0.2165;7.0698;
678.0000;0.2182;7.0864;
678.3000;0.2182;7.0911;
678.6000;0.2165;7.0864;
678.9000;0.2165;7.0816;
679.2000;0.2198;7.0864;
679.5000;0.2173;7.0722;
679.8000;0.2173;7.0746;
680.1000;0.2116;7.0722;
680.4000;0.2165;7.0958;
680.7000;0.2165;7.0982;
681.0000;0.2190;7.1147;
681.3000;0.2149;7.1076;
681.6000;0.2149;7.1029;
681.9000;0.2108;7.0911;
682.2000;0.2157;7.1006;
682.5000;0.2149;7.0958;
682.8000;0.2157;7.0958;
683.1000;0.2116;7.0840;
683.4000;0.2157;7.0887;
683.7000;0.2149;7.0746;
684.0000;0.2173;7.0651;
684.3000;0.2230;7.0816;
684.6000;0.2133;7.0627;
684.9000;0.2157;7.0675;
685.2000;0.2149;7.0698;
685.5000;0.2100;7.0675;
685.8000;0.2125;7.0722;
686.1000;0.2133;7.0769;
686.4000;0.2141;7.0793;
686.7000;0.2141;7.0816;
687.0000;0.2157;7.0816;
687.3000;0.2149;7.0911;
687.6000;0.2165;7.0864;
687.9000;0.2157;7.0816;
688.2000;0.2149;7.0840;
688.5000;0.2149;7.0887;
688.8000;0.2222;7.1100;
689.1000;0.2141;7.0887;
689.4000;0.2141;7.0816;
689.7000;0.2092;7.0722;
690.0000;0.2125;7.0816;
690.3000;0.2125;7.0816;
690.6000;0.2133;7.0840;
690.9000;0.2125;7.0769;
691.2000;0.2125;7.0816;
691.5000;0.2149;7.0840;
691.8000;0.2125;7.0793;
692.1000;0.2125;7.0840;
692.4000;0.2116;7.0911;
692.7000;0.2190;7.1006;
693.0000;0.2133;7.0816;
693.3000;0.2149;7.0887;
693.6000;0.2125;7.0816;
693.9000;0.2133;7.0840;
694.2000;0.2125;7.0887;
694.5000;0.2149;7.0911;
694.8000;0.2157;7.0958;
695.1000;0.2125;7.0958;
695.4000;0.2116;7.0816;
695.7000;0.2108;7.0769;
696.0000;0.2125;7.0793;
696.3000;0.2116;7.0651;
696.6000;0.2125;7.0769;
696.9000;0.2125;7.0840;
697.2000;0.2125;7.0840;
697.5000;0.2198;7.1076;
697.8000;0.2116;7.0864;
698.1000;0.2116;7.0793;
698.4000;0.2133;7.0769;
698.7000;0.2157;7.0864;
699.0000;0.2149;7.0840;
699.3000;0.2108;7.0746;
699.6000;0.2116;7.0722;
699.9000;0.2116;7.0769;
700.2000;0.2100;7.0816;
700.5000;0.2084;7.0793;
700.8000;0.2100;7.0864;
701.1000;0.2100;7.0793;
701.4000;0.2100;7.0769;
701.7000;0.2100;7.0793;
702.0000;0.2125;7.0887;
702.3000;0.2092;7.0793;
702.6000;0.2133;7.0864;
702.9000;0.2116;7.0911;
703.2000;0.2125;7.0935;
703.5000;0.2116;7.0887;
703.8000;0.2116;7.1006;
704.1000;0.2116;7.1053;
704.4000;0.2125;7.1006;
704.7000;0.2141;7.1100;
705.0000;0.2125;7.1076;
705.3000;0.2141;7.1076;
705.6000;0.2100;7.0911;
705.9000;0.2108;7.0958;
706.2000;0.2100;7.0982;
706.5000;0.2100;7.0982;
706.8000;0.2084;7.0887;
707.1000;0.2084;7.0958;
707.4000;0.2141;7.1100;
707.7000;0.2084;7.1029;
708.0000;0.2100;7.1053;
708.3000;0.2116;7.1006;
708.6000;0.2059;7.0958;
708.9000;0.2092;7.1029;
709.2000;0.2076;7.1076;
709.5000;0.2116;7.1100;
709.8000;0.2092;7.0958;
710.1000;0.2092;7.1006;
710.4000;0.2092;7.0864;
710.7000;0.2076;7.0793;
711.0000;0.2108;7.0911;
711.3000;0.2108;7.0982;
711.6000;0.2002;7.0675;
711.9000;0.2084;7.0982;
712.2000;0.2076;7.0958;
712.5000;0.2076;7.0935;
712.8000;0.2059;7.0816;
713.1000;0.2108;7.0864;
713.4000;0.2076;7.0793;
713.7000;0.2100;7.0864;
714.0000;0.2084;7.0746;
714.3000;0.2076;7.0722;
714.6000;0.2059;7.0864;
714.9000;0.2084;7.0935;
715.2000;0.2068;7.0793;
715.5000;0.2084;7.0746;
715.8000;0.2076;7.0746;
716.1000;0.2076;7.0722;
716.4000;0.2092;7.0769;
716.7000;0.2068;7.0816;
717.0000;0.2100;7.0864;
717.3000;0.2051;7.0816;
717.6000;0.2092;7.0864;
717.9000;0.2092;7.0746;
718.2000;0.2059;7.0675;
718.5000;0.2092;7.0722;
718.8000;0.2084;7.0746;
719.1000;0.2076;7.0651;
719.4000;0.2076;7.0675;
719.7000;0.2068;7.0580;
720.0000;0.2084;7.0509;
720.3000;0.2068;7.0486;
720.6000;0.2068;7.0556;
720.9000;0.2084;7.0509;
721.2000;0.2084;7.0533;
721.5000;0.2068;7.0604;
721.8000;0.2084;7.0651;
722.1000;0.2084;7.0675;
722.4000;0.2027;7.0509;
722.7000;0.2108;7.0556;
723.0000;0.2100;7.0438;
723.3000;0.2076;7.0391;
723.6000;0.2116;7.0462;
723.9000;0.2133;7.0556;
724.2000;0.2076;7.0533;
724.5000;0.2059;7.0580;
724.8000;0.2076;7.0698;
725.1000;0.2059;7.0722;
725.4000;0.2068;7.0698;
725.7000;0.2076;7.0698;
726.0000;0.2068;7.0675;
726.3000;0.2084;7.0769;
726.6000;0.2084;7.0698;
726.9000;0.2068;7.0580;
727.2000;0.2068;7.0651;
727.5000;0.2084;7.0675;
727.8000;0.2059;7.0722;
728.1000;0.2076;7.0746;
728.4000;0.2019;7.0580;
728.7000;0.2084;7.0769;
729.0000;0.2068;7.0722;
729.3000;0.2051;7.0675;
729.6000;0.2043;7.0604;
729.9000;0.2092;7.0769;
730.2000;0.2076;7.0769;
730.5000;0.2051;7.0698;
730.8000;0.2051;7.0816;
731.1000;0.2051;7.0746;
731.4000;0.2011;7.0580;
731.7000;0.2051;7.0604;
732.0000;0.2043;7.0627;
732.3000;0.2043;7.0627;
732.6000;0.2076;7.0746;
732.9000;0.1978;7.0556;
733.2000;0.2059;7.0793;
733.5000;0.2068;7.0911;
733.8000;0.2092;7.0958;
734.1000;0.2076;7.0864;
734.4000;0.2068;7.0769;
734.7000;0.2035;7.0627;
735.0000;0.2068;7.0698;
735.3000;0.2051;7.0651;
735.6000;0.2051;7.0580;
735.9000;0.2084;7.0722;
736.2000;0.2051;7.0627;
736.5000;0.2059;7.0675;
736.8000;0.2059;7.0722;
737.1000;0.2035;7.0698;
737.4000;0.2068;7.0722;
737.7000;0.2059;7.0722;
738.0000;0.2068;7.0769;
738.3000;0.2035;7.0675;
738.6000;0.2059;7.0675;
738.9000;0.2059;7.0722;
739.2000;0.2068;7.0769;
739.5000;0.2076;7.0793;
739.8000;0.2059;7.0864;
740.1000;0.2043;7.0793;
740.4000;0.2076;7.0840;
740.7000;0.2035;7.0769;
741.0000;0.2035;7.0746;
741.3000;0.2035;7.0722;
741.6000;0.2051;7.0722;
741.9000;0.2059;7.0722;
742.2000;0.2051;7.0769;
742.5000;0.2051;7.0911;
742.8000;0.2035;7.0911;
743.1000;0.2043;7.0935;
743.4000;0.2108;7.1076;
743.7000;0.2059;7.1006;
744.0000;0.2059;7.1029;
744.3000;0.2059;7.1029;
744.6000;0.2051;7.1006;
744.9000;0.1945;7.0769;
745.2000;0.2051;7.1029;
745.5000;0.2019;7.1006;
745.8000;0.2002;7.0887;
746.1000;0.2051;7.0982;
746.4000;0.2043;7.0982;
746.7000;0.2092;7.0982;
747.0000;0.2043;7.0864;
747.3000;0.2068;7.1006;
747.6000;0.2059;7.1124;
747.9000;0.2043;7.1029;
748.2000;0.2035;7.0911;
748.5000;0.2027;7.0793;
748.8000;0.2019;7.0935;
749.1000;0.2043;7.0982;
749.4000;0.2059;7.0982;
749.7000;0.2035;7.1006;
750.0000;0.2043;7.1076;
750.3000;0.2035;7.1100;
750.6000;0.2059;7.1076;
750.9000;0.2019;7.0911;
751.2000;0.2019;7.0769;
751.5000;0.2027;7.0793;
751.8000;0.2051;7.0982;
752.1000;0.2027;7.0911;
752.4000;0.2035;7.0911;
752.7000;0.2027;7.0911;
753.0000;0.2100;7.1006;
753.3000;0.2068;7.0911;
753.6000;0.2043;7.0840;
753.9000;0.2002;7.0769;
754.2000;0.2027;7.0840;
754.5000;0.2027;7.0911;
754.8000;0.2019;7.0887;
755.1000;0.2019;7.1029;
755.4000;0.2125;7.1407;
755.7000;0.2019;7.1100;
756.0000;0.2019;7.1147;
756.3000;0.2084;7.1266;
756.6000;0.2059;7.1171;
756.9000;0.2035;7.1076;
757.2000;0.2027;7.1053;
757.5000;0.2027;7.0958;
757.8000;0.2019;7.0864;
758.1000;0.2011;7.0982;
758.4000;0.2043;7.1076;
758.7000;0.2043;7.1053;
759.0000;0.2035;7.1076;
759.3000;0.2011;7.0935;
759.6000;0.2043;7.1006;
759.9000;0.2019;7.0911;
760.2000;0.2011;7.0935;
760.5000;0.2011;7.0935;
760.8000;0.2027;7.1029;
761.1000;0.2027;7.1006;
761.4000;0.2002;7.0911;
761.7000;0.2027;7.0887;
762.0000;0.2027;7.0911;
762.3000;0.2035;7.1006;
762.6000;0.2027;7.1006;
762.9000;0.2002;7.0887;
763.2000;0.2011;7.0958;
763.5000;0.2035;7.1076;
763.8000;0.2011;7.0958;
764.1000;0.2019;7.0982;
764.4000;0.2027;7.0958;
764.7000;0.2011;7.0887;
765.0000;0.1994;7.0935;
765.3000;0.2027;7.1006;
765.6000;0.2011;7.0982;
765.9000;0.2035;7.0935;
766.2000;0.2019;7.0887;
766.5000;0.2011;7.0864;
766.8000;0.2027;7.0864;
767.1000;0.2019;7.0887;
767.4000;0.2043;7.0982;
767.7000;0.2027;7.0958;
768.0000;0.1970;7.0864;
768.3000;0.1970;7.0887;
768.6000;0.2027;7.0982;
768.9000;0.2011;7.1029;
769.2000;0.2051;7.1053;
769.5000;0.2027;7.0911;
769.8000;0.2019;7.0935;
770.1000;0.2002;7.0958;
770.4000;0.2027;7.1076;
770.7000;0.2002;7.0958;
771.0000;0.2011;7.0982;
771.3000;0.2019;7.1076;
771.6000;0.2011;7.1076;
771.9000;0.1986;7.1006;
772.2000;0.2011;7.1076;
772.5000;0.2002;7.1053;
772.8000;0.2019;7.1076;
773.1000;0.1929;7.0887;
773.4000;0.2011;7.1100;
773.7000;0.2059;7.1218;
774.0000;0.1994;7.0958;
774.3000;0.1994;7.1006;
774.6000;0.2027;7.1076;
774.9000;0.2002;7.1100;
775.2000;0.2002;7.1124;
775.5000;0.1994;7.1124;
775.8000;0.2019;7.1218;
776.1000;0.1994;7.1171;
776.4000;0.2002;7.1124;
776.7000;0.2011;7.1053;
777.0000;0.2027;7.1147;
777.3000;0.1978;7.1029;
777.6000;0.1954;7.1053;
777.9000;0.2027;7.1147;
778.2000;0.2019;7.1171;
778.5000;0.2019;7.1100;
778.8000;0.2027;7.1124;
779.1000;0.1970;7.0958;
779.4000;0.2043;7.1195;
779.7000;0.2019;7.1147;
780.0000;0.1970;7.1029;
780.3000;0.2002;7.1029;
780.6000;0.1978;7.0887;
780.9000;0.1994;7.0864;
781.2000;0.1994;7.0911;
781.5000;0.2002;7.0982;
781.8000;0.2059;7.1100;
782.1000;0.2011;7.0982;
782.4000;0.2011;7.0911;
782.7000;0.1994;7.0911;
783.0000;0.2002;7.0935;
783.3000;0.1994;7.1076;
783.6000;0.2011;7.1147;
783.9000;0.2027;7.1171;
784.2000;0.1994;7.1100;
784.5000;0.1994;7.1147;
784.8000;0.1986;7.1124;
785.1000;0.1945;7.1053;
785.4000;0.1994;7.1147;
785.7000;0.2011;7.1171;
786.0000;0.1994;7.1171;
786.3000;0.2011;7.1124;
786.6000;0.1986;7.1076;
786.9000;0.2002;7.1147;
787.2000;0.2002;7.1124;
787.5000;0.2059;7.1242;
787.8000;0.2019;7.1124;
788.1000;0.2019;7.1076;
788.4000;0.2068;7.1124;
788.7000;0.2011;7.1029;
789.0000;0.2011;7.1147;
789.3000;0.1994;7.1100;
789.6000;0.2011;7.1147;
789.9000;0.1994;7.1053;
790.2000;0.1978;7.0982;
790.5000;0.2002;7.1053;
790.8000;0.1954;7.0887;
791.1000;0.2002;7.0982;
791.4000;0.1994;7.1006;
791.7000;0.2011;7.1076;
792.0000;0.1962;7.1029;
792.3000;0.1994;7.1124;
792.6000;0.1994;7.1076;
792.9000;0.2002;7.1100;
793.2000;0.1994;7.1053;
793.5000;0.2092;7.1336;
793.8000;0.2019;7.1195;
794.1000;0.2043;7.1360;
794.4000;0.2027;7.1171;
794.7000;0.2068;7.1242;
795.0000;0.2019;7.1147;
795.3000;0.1986;7.1242;
795.6000;0.1986;7.1336;
795.9000;0.2068;7.1431;
796.2000;0.1986;7.1218;
796.5000;0.1986;7.1195;
796.8000;0.2002;7.1147;
797.1000;0.2035;7.1266;
797.4000;0.2027;7.1289;
797.7000;0.1978;7.1266;
798.0000;0.2011;7.1171;
798.3000;0.2035;7.1242;
798.6000;0.2043;7.1266;
798.9000;0.2002;7.1124;
799.2000;0.2011;7.1053;
799.5000;0.1945;7.0816;
799.8000;0.2068;7.1171;
800.1000;0.2027;7.1124;
800.4000;0.1937;7.1029;
800.7000;0.1970;7.1124;
801.0000;0.2019;7.1195;
801.3000;0.2002;7.1029;
801.6000;0.1970;7.0958;
801.9000;0.2011;7.0935;
802.2000;0.2002;7.0887;
802.5000;0.2011;7.0982;
802.8000;0.2076;7.1100;
803.1000;0.1994;7.0864;
803.4000;0.2043;7.1006;
803.7000;0.2002;7.1006;
804.0000;0.2002;7.1006;
804.3000;0.1986;7.0982;
804.6000;0.1888;7.0722;
804.9000;0.1994;7.0887;
805.2000;0.1986;7.0887;
805.5000;0.1978;7.0911;
805.8000;0.1970;7.0935;
806.1000;0.1962;7.1006;
806.4000;0.1978;7.0982;
806.7000;0.1954;7.0911;
807.0000;0.1962;7.0911;
807.3000;0.1994;7.0887;
807.6000;0.2011;7.1029;
807.9000;0.2043;7.1171;
808.2000;0.2027;7.1147;
808.5000;0.1994;7.1100;
808.8000;0.1978;7.1076;
809.1000;0.1970;7.1124;
809.4000;0.1962;7.1076;
809.7000;0.1994;7.1147;
810.0000;0.1937;7.1006;
810.3000;0.2002;7.1195;
810.6000;0.1962;7.1100;
810.9000;0.1962;7.1218;
811.2000;0.1929;7.1218;
811.5000;0.1978;7.1336;
811.8000;0.1986;7.1313;
812.1000;0.2002;7.1384;
812.4000;0.2019;7.1360;
812.7000;0.1970;7.1266;
813.0000;0.2002;7.1336;
813.3000;0.2051;7.1478;
813.6000;0.2011;7.1360;
813.9000;0.1978;7.1266;
814.2000;0.1937;7.1053;
814.5000;0.1986;7.1171;
814.8000;0.1970;7.1100;
815.1000;0.1994;7.1076;
815.4000;0.1978;7.1100;
815.7000;0.1962;7.1006;
816.0000;0.1986;7.1053;
816.3000;0.1978;7.1100;
816.6000;0.1978;7.1076;
816.9000;0.1970;7.1147;
817.2000;0.1986;7.1195;
817.5000;0.1978;7.1195;
817.8000;0.2011;7.1336;
818.1000;0.1978;7.1289;
818.4000;0.2019;7.1407;
818.7000;0.1994;7.1336;
819.0000;0.1986;7.1360;
819.3000;0.1978;7.1313;
819.6000;0.1978;7.1195;
819.9000;0.1978;7.1289;
820.2000;0.1978;7.1384;
820.5000;0.1994;7.1455;
820.8000;0.1978;7.1407;
821.1000;0.1978;7.1384;
821.4000;0.1970;7.1526;
821.7000;0.2002;7.1596;
822.0000;0.1994;7.1596;
822.3000;0.1994;7.1549;
822.6000;0.1970;7.1431;
822.9000;0.1970;7.1431;
823.2000;0.2011;7.1360;
823.5000;0.2002;7.1242;
823.8000;0.1986;7.1171;
824.1000;0.1978;7.1147;
824.4000;0.1986;7.1076;
824.7000;0.1978;7.1100;
825.0000;0.1970;7.1100;
825.3000;0.2035;7.1289;
825.6000;0.1937;7.1076;
825.9000;0.1970;7.1195;
826.2000;0.1970;7.1289;
826.5000;0.2011;7.1266;
826.8000;0.1994;7.1171;
827.1000;0.1970;7.1053;
827.4000;0.1978;7.1100;
827.7000;0.1978;7.1053;
828.0000;0.1962;7.1147;
828.3000;0.1962;7.1147;
828.6000;0.1970;7.1124;
828.9000;0.1970;7.1124;
829.2000;0.1986;7.1218;
829.5000;0.1978;7.1266;
829.8000;0.1962;7.1289;
830.1000;0.1978;7.1195;
830.4000;0.2002;7.1195;
830.7000;0.1962;7.1195;
831.0000;0.1986;7.1289;
831.3000;0.1970;7.1360;
831.6000;0.1962;7.1360;
831.9000;0.1970;7.1407;
832.2000;0.1937;7.1313;
832.5000;0.1962;7.1313;
832.8000;0.1970;7.1218;
833.1000;0.1986;7.1289;
833.4000;0.1962;7.1195;
833.7000;0.1954;7.1100;
834.0000;0.1978;7.1124;
834.3000;0.1945;7.0911;
834.6000;0.1978;7.0982;
834.9000;0.1954;7.0958;
835.2000;0.1970;7.0982;
835.5000;0.1994;7.0982;
835.8000;0.1970;7.0864;
836.1000;0.1954;7.0840;
836.4000;0.1945;7.0816;
836.7000;0.1970;7.0816;
837.0000;0.1978;7.0935;
837.3000;0.1954;7.0935;
837.6000;0.1970;7.0935;
837.9000;0.1962;7.0935;
838.2000;0.2035;7.1171;
838.5000;0.2011;7.1124;
838.8000;0.1978;7.1053;
839.1000;0.1970;7.1006;
839.4000;0.1986;7.1029;
839.7000;0.1970;7.0958;
840.0000;0.1978;7.1029;
840.3000;0.1970;7.0958;
840.6000;0.1970;7.0840;
840.9000;0.1970;7.0840;
841.2000;0.1962;7.0816;
841.5000;0.1978;7.0887;
841.8000;0.1970;7.0935;
842.1000;0.2002;7.0935;
842.4000;0.2002;7.1029;
842.7000;0.1929;7.0793;
843.0000;0.1970;7.0864;
843.3000;0.1970;7.0935;
843.6000;0.1897;7.0864;
843.9000;0.1962;7.1100;
844.2000;0.1962;7.1147;
844.5000;0.1962;7.1195;
844.8000;0.1962;7.1171;
845.1000;0.1962;7.1100;
845.4000;0.1994;7.1053;
845.7000;0.1970;7.1076;
846.0000;0.1970;7.1100;
846.3000;0.1929;7.0958;
846.6000;0.1954;7.0982;
846.9000;0.1978;7.0958;
847.2000;0.1962;7.1029;
847.5000;0.2027;7.1124;
847.8000;0.1962;7.0982;
848.1000;0.1962;7.0982;
848.4000;0.1880;7.0911;
848.7000;0.1970;7.1053;
849.0000;0.1954;7.0982;
849.3000;0.1962;7.0982;
849.6000;0.1986;7.1053;
849.9000;0.1962;7.1029;
850.2000;0.1962;7.1029;
850.5000;0.1945;7.1053;
850.8000;0.1978;7.1076;
851.1000;0.1954;7.1053;
851.4000;0.1945;7.1029;
851.7000;0.1856;7.0958;
852.0000;0.1897;7.1100;
852.3000;0.1986;7.1360;
852.6000;0.1945;7.1266;
852.9000;0.1954;7.1266;
853.2000;0.1978;7.1336;
853.5000;0.1978;7.1360;
853.8000;0.1978;7.1360;
854.1000;0.1962;7.1242;
854.4000;0.1954;7.1195;
854.7000;0.1986;7.1242;
855.0000;0.1970;7.1195;
855.3000;0.1970;7.1266;
855.6000;0.1962;7.1384;
855.9000;0.1962;7.1502;
856.2000;0.1945;7.1478;
856.5000;0.1945;7.1455;
856.8000;0.1962;7.1336;
857.1000;0.1962;7.1384;
857.4000;0.2002;7.1502;
857.7000;0.1978;7.1455;
858.0000;0.1962;7.1384;
858.3000;0.1962;7.1431;
858.6000;0.1962;7.1313;
858.9000;0.1986;7.1289;
859.2000;0.1970;7.1242;
859.5000;0.1970;7.1313;
859.8000;0.1962;7.1313;
860.1000;0.1962;7.1195;
860.4000;0.1897;7.1053;
860.7000;0.1970;7.1242;
861.0000;0.1962;7.1266;
861.3000;0.1962;7.1313;
861.6000;0.1962;7.1289;
861.9000;0.1970;7.1336;
862.2000;0.2019;7.1407;
862.5000;0.1970;7.1360;
862.8000;0.1970;7.1289;
863.1000;0.1954;7.1313;
863.4000;0.1962;7.1289;
863.7000;0.1954;7.1218;
864.0000;0.2027;7.1384;
864.3000;0.1970;7.1218;
864.6000;0.1945;7.1242;
864.9000;0.1945;7.1289;
865.2000;0.1954;7.1266;
865.5000;0.1970;7.1218;
865.8000;0.1994;7.1313;
866.1000;0.1954;7.1242;
866.4000;0.1945;7.1195;
866.7000;0.1880;7.1076;
867.0000;0.1945;7.1289;
867.3000;0.1954;7.1360;
867.6000;0.1954;7.1384;
867.9000;0.1970;7.1360;
868.2000;0.1945;7.1336;
868.5000;0.1962;7.1289;
868.8000;0.1986;7.1407;
869.1000;0.1954;7.1336;
869.4000;0.1962;7.1313;
869.7000;0.1945;7.1266;
870.0000;0.1945;7.1313;
870.3000;0.1945;7.1360;
870.6000;0.2002;7.1431;
870.9000;0.1954;7.1124;
871.2000;0.1954;7.1124;
871.5000;0.1970;7.1171;
871.8000;0.1864;7.0911;
872.1000;0.1954;7.1171;
872.4000;0.1970;7.1242;
872.7000;0.1945;7.1171;
873.0000;0.2002;7.1242;
873.3000;0.1954;7.0982;
873.6000;0.1970;7.1100;
873.9000;0.1962;7.1100;
874.2000;0.1962;7.1100;
874.5000;0.1962;7.1171;
874.8000;0.1978;7.1289;
875.1000;0.1970;7.1266;
875.4000;0.1970;7.1218;
875.7000;0.1954;7.1100;
876.0000;0.1962;7.1171;
876.3000;0.1945;7.1076;
876.6000;0.1954;7.1076;
876.9000;0.1848;7.0769;
877.2000;0.1945;7.0982;
877.5000;0.1970;7.1029;
877.8000;0.1954;7.1006;
878.1000;0.1937;7.0982;
878.4000;0.1840;7.0698;
878.7000;0.2068;7.1384;
879.0000;0.1962;7.1147;
879.3000;0.1937;7.1076;
879.6000;0.1954;7.1053;
879.9000;0.1954;7.1076;
880.2000;0.1921;7.1006;
880.5000;0.1962;7.1124;
880.8000;0.1954;7.1053;
881.1000;0.1962;7.1076;
881.4000;0.1954;7.1100;
881.7000;0.1962;7.1124;
882.0000;0.1937;7.1100;
882.3000;0.1945;7.1195;
882.6000;0.1978;7.1360;
882.9000;0.1856;7.1053;
883.2000;0.1872;7.1147;
883.5000;0.1921;7.1289;
883.8000;0.1962;7.1360;
884.1000;0.1962;7.1336;
884.4000;0.1954;7.1360;
884.7000;0.1970;7.1336;
885.0000;0.1994;7.1218;
885.3000;0.1970;7.1053;
885.6000;0.1945;7.0840;
885.9000;0.1970;7.0911;
886.2000;0.1913;7.0769;
886.5000;0.1945;7.0864;
886.8000;0.1945;7.0887;
887.1000;0.1937;7.0816;
887.4000;0.1929;7.0816;
887.7000;0.1954;7.0840;
888.0000;0.1888;7.0722;
888.3000;0.1937;7.0864;
888.6000;0.1913;7.0840;
888.9000;0.2043;7.1242;
889.2000;0.2035;7.1242;
889.5000;0.1962;7.1029;
889.8000;0.1921;7.0982;
890.1000;0.1888;7.0887;
890.4000;0.1945;7.0887;
890.7000;0.1978;7.1076;
891.0000;0.1994;7.1147;
891.3000;0.1945;7.1171;
891.6000;0.1954;7.1171;
891.9000;0.1937;7.1171;
892.2000;0.1970;7.1195;
892.5000;0.1937;7.1195;
892.8000;0.1945;7.1147;
893.1000;0.1945;7.1195;
893.4000;0.2027;7.1573;
893.7000;0.1921;7.1289;
894.0000;0.1929;7.1336;
894.3000;0.1954;7.1360;
894.6000;0.1962;7.1407;
894.9000;0.1937;7.1384;
895.2000;0.1905;7.1218;
895.5000;0.1905;7.1266;
895.8000;0.1945;7.1407;
896.1000;0.1913;7.1289;
896.4000;0.1945;7.1431;
896.7000;0.1945;7.1242;
897.0000;0.1962;7.1336;
897.3000;0.1954;7.1407;
897.6000;0.1945;7.1407;
897.9000;0.1962;7.1384;
898.2000;0.1954;7.1336;
898.5000;0.1954;7.1360;
898.8000;0.1986;7.1384;
899.1000;0.1888;7.1195;
899.4000;0.1978;7.1478;
899.7000;0.1962;7.1478;
900.0000;0.1986;7.1644;
900.3000;0.1962;7.1573;
900.6000;0.1945;7.1526;
900.9000;0.1937;7.1431;
901.2000;0.1888;7.1313;
901.5000;0.1937;7.1384;
901.8000;0.1921;7.1336;
902.1000;0.1945;7.1313;
902.4000;0.1954;7.1360;
902.7000;0.1929;7.1384;
903.0000;0.1905;7.1360;
903.3000;0.1937;7.1455;
903.6000;0.1921;7.1407;
903.9000;0.1945;7.1455;
904.2000;0.1921;7.1502;
904.5000;0.1945;7.1573;
904.8000;0.1937;7.1502;
905.1000;0.1994;7.1620;
905.4000;0.1954;7.1431;
905.7000;0.1954;7.1502;
906.0000;0.1888;7.1289;
906.3000;0.1954;7.1455;
906.6000;0.1945;7.1478;
906.9000;0.1945;7.1478;
907.2000;0.1962;7.1502;
907.5000;0.1937;7.1360;
907.8000;0.1937;7.1289;
908.1000;0.1913;7.1242;
908.4000;0.1962;7.1289;
908.7000;0.1962;7.1336;
909.0000;0.1954;7.1336;
909.3000;0.1962;7.1384;
909.6000;0.1978;7.1478;
909.9000;0.1954;7.1431;
910.2000;0.1937;7.1384;
910.5000;0.1962;7.1502;
910.8000;0.1945;7.1526;
911.1000;0.1897;7.1384;
911.4000;0.1945;7.1455;
911.7000;0.1937;7.1407;
912.0000;0.1945;7.1384;
912.3000;0.1954;7.1384;
912.6000;0.1921;7.1313;
912.9000;0.1937;7.1384;
913.2000;0.1954;7.1455;
913.5000;0.1945;7.1384;
913.8000;0.1954;7.1431;
914.1000;0.1962;7.1549;
914.4000;0.1913;7.1407;
914.7000;0.1954;7.1620;
915.0000;0.1954;7.1738;
915.3000;0.1937;7.1738;
915.6000;0.1978;7.1715;
915.9000;0.1929;7.1596;
916.2000;0.1978;7.1667;
916.5000;0.2011;7.1667;
916.8000;0.1970;7.1596;
917.1000;0.1978;7.1715;
917.4000;0.1970;7.1691;
917.7000;0.1970;7.1596;
918.0000;0.2002;7.1596;
918.3000;0.1962;7.1478;
918.6000;0.1905;7.1266;
918.9000;0.1929;7.1336;
919.2000;0.1937;7.1384;
919.5000;0.1929;7.1336;
919.8000;0.1954;7.1336;
920.1000;0.1897;7.1100;
920.4000;0.1913;7.1076;
920.7000;0.1986;7.1124;
921.0000;0.1962;7.1076;
921.3000;0.1945;7.1171;
921.6000;0.1945;7.1266;
921.9000;0.2019;7.1407;
922.2000;0.1954;7.1171;
922.5000;0.1962;7.1242;
922.8000;0.1921;7.1289;
923.1000;0.1945;7.1384;
923.4000;0.1954;7.1455;
923.7000;0.1945;7.1360;
924.0000;0.1954;7.1431;
924.3000;0.1937;7.1455;
924.6000;0.1929;7.1431;
924.9000;0.1937;7.1431;
925.2000;0.1945;7.1336;
925.5000;0.1929;7.1266;
925.8000;0.1970;7.1384;
926.1000;0.1929;7.1242;
926.4000;0.1897;7.1100;
926.7000;0.1929;7.1195;
927.0000;0.1921;7.1313;
927.3000;0.1994;7.1455;
927.6000;0.1945;7.1313;
927.9000;0.1921;7.1266;
928.2000;0.1945;7.1360;
928.5000;0.1945;7.1431;
928.8000;0.1954;7.1455;
929.1000;0.1945;7.1384;
929.4000;0.1945;7.1313;
929.7000;0.1937;7.1313;
930.0000;0.1945;7.1289;
930.3000;0.2043;7.1502;
930.6000;0.1962;7.1336;
930.9000;0.1962;7.1431;
931.2000;0.1954;7.1431;
931.5000;0.1897;7.1266;
931.8000;0.1929;7.1336;
932.1000;0.1937;7.1336;
932.4000;0.1937;7.1455;
932.7000;0.1921;7.1455;
933.0000;0.1945;7.1478;
933.3000;0.1937;7.1360;
933.6000;0.1937;7.1384;
933.9000;0.1954;7.1360;
934.2000;0.1897;7.1313;
934.5000;0.1929;7.1455;
934.8000;0.1945;7.1549;
935.1000;0.1937;7.1526;
935.4000;0.1929;7.1478;
935.7000;0.1954;7.1526;
936.0000;0.1945;7.1526;
936.3000;0.1937;7.1526;
936.6000;0.1815;7.1171;
936.9000;0.1921;7.1407;
937.2000;0.1921;7.1431;
937.5000;0.1970;7.1407;
937.8000;0.1929;7.1384;
938.1000;0.1913;7.1360;
938.4000;0.1937;7.1360;
938.7000;0.2002;7.1478;
939.0000;0.1921;7.1266;
939.3000;0.1937;7.1266;
939.6000;0.1962;7.1313;
939.9000;0.1929;7.1336;
940.2000;0.1962;7.1360;
940.5000;0.1929;7.1289;
940.8000;0.1954;7.1313;
941.1000;0.1945;7.1266;
941.4000;0.1848;7.1100;
941.7000;0.1921;7.1289;
942.0000;0.1937;7.1313;
942.3000;0.1929;7.1195;
942.6000;0.1945;7.1171;
942.9000;0.1945;7.1289;
943.2000;0.1929;7.1242;
943.5000;0.1962;7.1242;
943.8000;0.1905;7.1100;
944.1000;0.1929;7.1266;
944.4000;0.1921;7.1266;
944.7000;0.1913;7.1289;
945.0000;0.1962;7.1502;
945.3000;0.1954;7.1478;
945.6000;0.1937;7.1431;
945.9000;0.1970;7.1478;
946.2000;0.1954;7.1455;
946.5000;0.1929;7.1360;
946.8000;0.1986;7.1620;
947.1000;0.1929;7.1407;
947.4000;0.1937;7.1360;
947.7000;0.1962;7.1360;
948.0000;0.1937;7.1313;
948.3000;0.1937;7.1384;
948.6000;0.1937;7.1502;
948.9000;0.1945;7.1596;
949.2000;0.1921;7.1407;
949.5000;0.1945;7.1407;
949.8000;0.1929;7.1573;
950.1000;0.1945;7.1549;
950.4000;0.1913;7.1407;
950.7000;0.1937;7.1431;
951.0000;0.1921;7.1313;
951.3000;0.1937;7.1360;
951.6000;0.1945;7.1360;
951.9000;0.1954;7.1313;
952.2000;0.1937;7.1360;
952.5000;0.1954;7.1384;
952.8000;0.1954;7.1336;
953.1000;0.1921;7.1266;
953.4000;0.1937;7.1360;
953.7000;0.1970;7.1407;
954.0000;0.1962;7.1336;
954.3000;0.1945;7.1289;
954.6000;0.1937;7.1266;
954.9000;0.1962;7.1266;
955.2000;0.1978;7.1195;
955.5000;0.1970;7.1242;
955.8000;0.1937;7.1171;
956.1000;0.1954;7.1266;
956.4000;0.1970;7.1336;
956.7000;0.1945;7.1242;
957.0000;0.1945;7.1336;
957.3000;0.1945;7.1478;
957.6000;0.1921;7.1455;
957.9000;0.1921;7.1455;
958.2000;0.1929;7.1431;
958.5000;0.1929;7.1407;
958.8000;0.1937;7.1431;
959.1000;0.1937;7.1455;
959.4000;0.1937;7.1478;
959.7000;0.1929;7.1455;
960.0000;0.1905;7.1313;
960.3000;0.1954;7.1478;
960.6000;0.1929;7.1384;
960.9000;0.1929;7.1360;
961.2000;0.1978;7.1526;
961.5000;0.2019;7.1644;
961.8000;0.1937;7.1455;
962.1000;0.1945;7.1455;
962.4000;0.1921;7.1407;
962.7000;0.1921;7.1407;
963.0000;0.1945;7.1478;
963.3000;0.1913;7.1313;
963.6000;0.1897;7.1218;
963.9000;0.1929;7.1336;
964.2000;0.1945;7.1336;
964.5000;0.1945;7.1313;
964.8000;0.1921;7.1455;
965.1000;0.1954;7.1478;
965.4000;0.1945;7.1526;
965.7000;0.1929;7.1431;
966.0000;0.1929;7.1407;
966.3000;0.1937;7.1455;
966.6000;0.2035;7.1738;
966.9000;0.1945;7.1455;
967.2000;0.1937;7.1455;
967.5000;0.1937;7.1502;
967.8000;0.1945;7.1549;
968.1000;0.1954;7.1549;
968.4000;0.1937;7.1644;
968.7000;0.1888;7.1455;
969.0000;0.1937;7.1596;
969.3000;0.1945;7.1667;
969.6000;0.1954;7.1691;
969.9000;0.1937;7.1620;
970.2000;0.1937;7.1691;
970.5000;0.1880;7.1526;
970.8000;0.1929;7.1596;
971.1000;0.1937;7.1573;
971.4000;0.1929;7.1620;
971.7000;0.1945;7.1620;
972.0000;0.1929;7.1526;
972.3000;0.1937;7.1573;
972.6000;0.1937;7.1478;
972.9000;0.1929;7.1455;
973.2000;0.1945;7.1596;
973.5000;0.1929;7.1596;
973.8000;0.1945;7.1644;
974.1000;0.1954;7.1644;
974.4000;0.1954;7.1667;
974.7000;0.1888;7.1502;
975.0000;0.1929;7.1549;
975.3000;0.1937;7.1573;
975.6000;0.1929;7.1502;
975.9000;0.1937;7.1526;
976.2000;0.1945;7.1549;
976.5000;0.1937;7.1620;
976.8000;0.1929;7.1644;
977.1000;0.1929;7.1549;
977.4000;0.1929;7.1478;
977.7000;0.1954;7.1596;
978.0000;0.1962;7.1644;
978.3000;0.1954;7.1644;
978.6000;0.1929;7.1573;
978.9000;0.1937;7.1502;
979.2000;0.1954;7.1549;
979.5000;0.1945;7.1573;
979.8000;0.1970;7.1620;
980.1000;0.1937;7.1667;
980.4000;0.1929;7.1620;
980.7000;0.1937;7.1644;
981.0000;0.1994;7.1667;
981.3000;0.1929;7.1478;
981.6000;0.1921;7.1407;
981.9000;0.1913;7.1336;
982.2000;0.1913;7.1384;
982.5000;0.1921;7.1313;
982.8000;0.1913;7.1266;
983.1000;0.1929;7.1336;
983.4000;0.1937;7.1407;
983.7000;0.1872;7.1289;
984.0000;0.1921;7.1407;
984.3000;0.1929;7.1431;
984.6000;0.1880;7.1384;
984.9000;0.1921;7.1431;
985.2000;0.1937;7.1502;
985.5000;0.1962;7.1455;
985.8000;0.1929;7.1431;
986.1000;0.1945;7.1384;
986.4000;0.2002;7.1526;
986.7000;0.1897;7.1195;
987.0000;0.1945;7.1455;
987.3000;0.1929;7.1360;
987.6000;0.1929;7.1313;
987.9000;0.1880;7.1313;
988.2000;0.1954;7.1549;
988.5000;0.1937;7.1502;
988.8000;0.1921;7.1526;
989.1000;0.1954;7.1573;
989.4000;0.1937;7.1526;
989.7000;0.1913;7.1478;
990.0000;0.1945;7.1431;
990.3000;0.1945;7.1478;
990.6000;0.1994;7.1620;
990.9000;0.1880;7.1336;
991.2000;0.1945;7.1526;
991.5000;0.1937;7.1549;
991.8000;0.1945;7.1549;
992.1000;0.1954;7.1573;
992.4000;0.1929;7.1573;
992.7000;0.1945;7.1502;
993.0000;0.1937;7.1384;
993.3000;0.1913;7.1313;
993.6000;0.1913;7.1313;
993.9000;0.1921;7.1384;
994.2000;0.1929;7.1431;
994.5000;0.1921;7.1360;
994.8000;0.1929;7.1242;
995.1000;0.1937;7.1242;
995.4000;0.1945;7.1289;
995.7000;0.1929;7.1289;
996.0000;0.1921;7.1384;
996.3000;0.1913;7.1455;
996.6000;0.1945;7.1502;
996.9000;0.1937;7.1478;
997.2000;0.1945;7.1407;
997.5000;0.1945;7.1478;
997.8000;0.1937;7.1384;
998.1000;0.1945;7.1384;
998.4000;0.1945;7.1360;
998.7000;0.1913;7.1384;
999.0000;0.1929;7.1407;
999.3000;0.1954;7.1384;
999.6000;0.1929;7.1431;
999.9000;0.1880;7.1360;
1000.2000;0.1880;7.1431;
1000.5000;0.1929;7.1526;
1000.8000;0.1929;7.1573;
1001.1000;0.1945;7.1667;
1001.4000;0.1921;7.1573;
1001.7000;0.1921;7.1596;
1002.0000;0.1921;7.1573;
1002.3000;0.1929;7.1502;
1002.6000;0.1929;7.1620;
1002.9000;0.1913;7.1644;
1003.2000;0.1929;7.1620;
1003.5000;0.1929;7.1549;
1003.8000;0.1888;7.1360;
1004.1000;0.1937;7.1502;
1004.4000;0.1937;7.1431;
1004.7000;0.1962;7.1455;
1005.0000;0.1986;7.1526;
1005.3000;0.1954;7.1384;
1005.6000;0.1937;7.1313;
1005.9000;0.1929;7.1313;
1006.2000;0.1929;7.1242;
1006.5000;0.1929;7.1171;
1006.8000;0.1954;7.1266;
1007.1000;0.1954;7.1313;
1007.4000;0.1921;7.1242;
1007.7000;0.1937;7.1289;
1008.0000;0.1937;7.1242;
1008.3000;0.1929;7.1218;
1008.6000;0.1945;7.1242;
1008.9000;0.1929;7.1147;
1009.2000;0.1864;7.1053;
1009.5000;0.1962;7.1266;
1009.8000;0.1954;7.1336;
1010.1000;0.1929;7.1266;
1010.4000;0.1929;7.1266;
1010.7000;0.1945;7.1242;
1011.0000;0.1945;7.1218;
1011.3000;0.1937;7.1266;
1011.6000;0.1929;7.1313;
1011.9000;0.1905;7.1289;
1012.2000;0.1864;7.1218;
1012.5000;0.1970;7.1478;
1012.8000;0.1937;7.1289;
1013.1000;0.2035;7.1526;
1013.4000;0.1954;7.1266;
1013.7000;0.1937;7.1218;
1014.0000;0.1921;7.1100;
1014.3000;0.1937;7.1195;
1014.6000;0.1880;7.1195;
1014.9000;0.1929;7.1384;
1015.2000;0.1945;7.1431;
1015.5000;0.1929;7.1360;
1015.8000;0.1994;7.1502;
1016.1000;0.1929;7.1289;
1016.4000;0.1921;7.1242;
1016.7000;0.1913;7.1171;
1017.0000;0.1897;7.1124;
1017.3000;0.1937;7.1266;
1017.6000;0.1945;7.1336;
1017.9000;0.1929;7.1384;
1018.2000;0.1929;7.1407;
1018.5000;0.1945;7.1502;
1018.8000;0.1978;7.1644;
1019.1000;0.1945;7.1573;
1019.4000;0.1962;7.1667;
1019.7000;0.1929;7.1620;
1020.0000;0.1937;7.1526;
1020.3000;0.1945;7.1596;
1020.6000;0.1945;7.1549;
1020.9000;0.2019;7.1762;
1021.2000;0.1937;7.1596;
1021.5000;0.1929;7.1502;
1021.8000;0.1929;7.1431;
1022.1000;0.1929;7.1478;
1022.4000;0.1945;7.1620;
1022.7000;0.1921;7.1526;
1023.0000;0.1921;7.1502;
1023.3000;0.1905;7.1431;
1023.6000;0.1921;7.1455;
1023.9000;0.1921;7.1431;
1024.2000;0.1921;7.1360;
1024.5000;0.1913;7.1431;
1024.8000;0.1921;7.1431;
1025.1000;0.1913;7.1431;
1025.4000;0.1945;7.1526;
1025.7000;0.1929;7.1502;
1026.0000;0.1921;7.1573;
1026.3000;0.1962;7.1691;
1026.6000;0.1945;7.1573;
1026.9000;0.1994;7.1667;
1027.2000;0.1929;7.1384;
1027.5000;0.1962;7.1502;
1027.8000;0.1929;7.1455;
1028.1000;0.1913;7.1502;
1028.4000;0.1929;7.1620;
1028.7000;0.1954;7.1762;
1029.0000;0.1954;7.1762;
1029.3000;0.1970;7.1738;
1029.6000;0.1929;7.1691;
1029.9000;0.1905;7.1596;
1030.2000;0.1929;7.1644;
1030.5000;0.1905;7.1526;
1030.8000;0.1937;7.1596;
1031.1000;0.1897;7.1526;
1031.4000;0.1954;7.1620;
1031.7000;0.1937;7.1478;
1032.0000;0.1905;7.1360;
1032.3000;0.1978;7.1478;
1032.6000;0.1921;7.1313;
1032.9000;0.1921;7.1431;
1033.2000;0.1913;7.1455;
1033.5000;0.1888;7.1407;
1033.8000;0.1929;7.1526;
1034.1000;0.1929;7.1573;
1034.4000;0.1937;7.1573;
1034.7000;0.1929;7.1526;
1035.0000;0.1905;7.1502;
1035.3000;0.1921;7.1431;
1035.6000;0.1888;7.1336;
1035.9000;0.1913;7.1478;
1036.2000;0.1929;7.1478;
1036.5000;0.1970;7.1596;
1036.8000;0.1945;7.1549;
1037.1000;0.1954;7.1502;
1037.4000;0.1913;7.1336;
1037.7000;0.1937;7.1407;
1038.0000;0.1888;7.1289;
1038.3000;0.1913;7.1313;
1038.6000;0.1921;7.1407;
1038.9000;0.1921;7.1478;
1039.2000;0.1929;7.1455;
1039.5000;0.1913;7.1431;
1039.8000;0.1954;7.1526;
1040.1000;0.2002;7.1691;
1040.4000;0.1929;7.1549;
1040.7000;0.1945;7.1502;
1041.0000;0.1929;7.1384;
1041.3000;0.1929;7.1360;
1041.6000;0.1929;7.1431;
1041.9000;0.1945;7.1455;
1042.2000;0.1921;7.1289;
1042.5000;0.1913;7.1336;
1042.8000;0.2035;7.1738;
1043.1000;0.1929;7.1526;
1043.4000;0.1929;7.1573;
1043.7000;0.1913;7.1573;
1044.0000;0.1913;7.1596;
1044.3000;0.1929;7.1549;
1044.6000;0.1937;7.1502;
1044.9000;0.1929;7.1455;
1045.2000;0.1888;7.1360;
1045.5000;0.1937;7.1549;
1045.8000;0.1929;7.1526;
1046.1000;0.1929;7.1502;
1046.4000;0.1945;7.1573;
1046.7000;0.1913;7.1573;
1047.0000;0.1905;7.1502;
1047.3000;0.1913;7.1478;
1047.6000;0.1913;7.1431;
1047.9000;0.1929;7.1455;
1048.2000;0.1937;7.1478;
1048.5000;0.1913;7.1384;
1048.8000;0.1937;7.1384;
1049.1000;0.1921;7.1360;
1049.4000;0.1929;7.1384;
1049.7000;0.1945;7.1478;
1050.0000;0.1945;7.1478;
1050.3000;0.1905;7.1407;
1050.6000;0.1945;7.1526;
1050.9000;0.1913;7.1313;
1051.2000;0.1888;7.1266;
1051.5000;0.1978;7.1478;
1051.8000;0.1954;7.1313;
1052.1000;0.1937;7.1242;
1052.4000;0.1937;7.1336;
1052.7000;0.1880;7.1313;
1053.0000;0.1962;7.1596;
1053.3000;0.1962;7.1620;
1053.6000;0.1945;7.1573;
1053.9000;0.1921;7.1384;
1054.2000;0.1897;7.1289;
1054.5000;0.1913;7.1407;
1054.8000;0.1921;7.1384;
1055.1000;0.1921;7.1431;
1055.4000;0.1929;7.1407;
1055.7000;0.1864;7.1266;
1056.0000;0.1945;7.1549;
1056.3000;0.1978;7.1762;
1056.6000;0.1913;7.1596;
1056.9000;0.1913;7.1644;
1057.2000;0.1913;7.1526;
1057.5000;0.1888;7.1478;
1057.8000;0.1929;7.1573;
1058.1000;0.1913;7.1549;
1058.4000;0.1921;7.1620;
1058.7000;0.1921;7.1691;
1059.0000;0.1897;7.1596;
1059.3000;0.2002;7.1786;
1059.6000;0.1913;7.1573;
1059.9000;0.1921;7.1502;
1060.2000;0.1913;7.1526;
1060.5000;0.1921;7.1407;
1060.8000;0.1929;7.1455;
1061.1000;0.1929;7.1407;
1061.4000;0.1905;7.1407;
1061.7000;0.1937;7.1478;
1062.0000;0.1929;7.1549;
1062.3000;0.1929;7.1478;
1062.6000;0.1921;7.1407;
1062.9000;0.1913;7.1549;
1063.2000;0.1913;7.1549;
1063.5000;0.1921;7.1455;
1063.8000;0.1913;7.1455;
1064.1000;0.1929;7.1431;
1064.4000;0.1937;7.1407;
1064.7000;0.1929;7.1313;
1065.0000;0.1945;7.1289;
1065.3000;0.1945;7.1360;
1065.6000;0.1970;7.1431;
1065.9000;0.1945;7.1384;
1066.2000;0.1929;7.1431;
1066.5000;0.1921;7.1502;
1066.8000;0.1937;7.1526;
1067.1000;0.1921;7.1455;
1067.4000;0.1905;7.1478;
1067.7000;0.1929;7.1549;
1068.0000;0.1913;7.1549;
1068.3000;0.1888;7.1431;
1068.6000;0.1937;7.1407;
1068.9000;0.1929;7.1431;
1069.2000;0.1970;7.1596;
1069.5000;0.1921;7.1455;
1069.8000;0.1921;7.1431;
1070.1000;0.1945;7.1455;
1070.4000;0.1954;7.1407;
1070.7000;0.1929;7.1431;
1071.0000;0.1929;7.1336;
1071.3000;0.1913;7.1289;
1071.6000;0.1921;7.1218;
1071.9000;0.1921;7.1147;
1072.2000;0.1937;7.1171;
1072.5000;0.1962;7.1266;
1072.8000;0.1913;7.1218;
1073.1000;0.1921;7.1242;
1073.4000;0.1929;7.1266;
1073.7000;0.1905;7.1242;
1074.0000;0.1913;7.1195;
1074.3000;0.1913;7.1218;
1074.6000;0.1945;7.1289;
1074.9000;0.1921;7.1360;
1075.2000;0.1913;7.1289;
1075.5000;0.1929;7.1313;
1075.8000;0.1937;7.1336;
1076.1000;0.1945;7.1407;
1076.4000;0.1945;7.1407;
1076.7000;0.1823;7.1147;
1077.0000;0.1921;7.1407;
1077.3000;0.1986;7.1667;
1077.6000;0.1921;7.1526;
1077.9000;0.1921;7.1549;
1078.2000;0.1929;7.1596;
1078.5000;0.1872;7.1455;
1078.8000;0.1921;7.1573;
1079.1000;0.1937;7.1596;
1079.4000;0.1913;7.1526;
1079.7000;0.1937;7.1620;
1080.0000;0.1945;7.1549;
1080.3000;0.1921;7.1478;
1080.6000;0.1929;7.1502;
1080.9000;0.1937;7.1455;
1081.2000;0.1937;7.1478;
1081.5000;0.1929;7.1407;
1081.8000;0.1929;7.1384;
1082.1000;0.1921;7.1384;
1082.4000;0.1921;7.1431;
1082.7000;0.1913;7.1384;
1083.0000;0.1921;7.1455;
1083.3000;0.1921;7.1407;
1083.6000;0.1905;7.1407;
1083.9000;0.1913;7.1360;
1084.2000;0.1929;7.1336;
1084.5000;0.1929;7.1289;
1084.8000;0.1913;7.1336;
1085.1000;0.1929;7.1407;
1085.4000;0.1913;7.1384;
1085.7000;0.1913;7.1360;
1086.0000;0.1921;7.1384;
1086.3000;0.1929;7.1384;
1086.6000;0.1921;7.1407;
1086.9000;0.1905;7.1360;
1087.2000;0.1929;7.1384;
1087.5000;0.1913;7.1384;
1087.8000;0.1913;7.1360;
1088.1000;0.1921;7.1384;
1088.4000;0.1921;7.1431;
1088.7000;0.1929;7.1502;
1089.0000;0.1929;7.1431;
1089.3000;0.1945;7.1455;
1089.6000;0.1905;7.1455;
1089.9000;0.1937;7.1478;
1090.2000;0.1945;7.1455;
1090.5000;0.1929;7.1431;
1090.8000;0.1954;7.1455;
1091.1000;0.1929;7.1502;
1091.4000;0.1888;7.1313;
1091.7000;0.1937;7.1478;
1092.0000;0.1937;7.1431;
1092.3000;0.1929;7.1431;
1092.6000;0.1945;7.1455;
1092.9000;0.1929;7.1336;
1093.2000;0.1905;7.1360;
1093.5000;0.1937;7.1431;
1093.8000;0.1962;7.1431;
1094.1000;0.1913;7.1360;
1094.4000;0.1856;7.1218;
1094.7000;0.1929;7.1431;
1095.0000;0.1929;7.1502;
1095.3000;0.1929;7.1596;
1095.6000;0.1945;7.1596;
1095.9000;0.1913;7.1526;
1096.2000;0.1905;7.1526;
1096.5000;0.1945;7.1667;
1096.8000;0.1994;7.1786;
1097.1000;0.1970;7.1644;
1097.4000;0.1929;7.1478;
1097.7000;0.1929;7.1384;
1098.0000;0.1962;7.1407;
1098.3000;0.1929;7.1407;
1098.6000;0.1921;7.1455;
1098.9000;0.1945;7.1407;
1099.2000;0.1888;7.1289;
1099.5000;0.1929;7.1431;
1099.8000;0.1905;7.1384;
1100.1000;0.1962;7.1573;
1100.4000;0.1929;7.1384;
1100.7000;0.1921;7.1431;
1101.0000;0.1840;7.1124;
1101.3000;0.1937;7.1502;
1101.6000;0.1921;7.1502;
1101.9000;0.1929;7.1526;
1102.2000;0.1888;7.1478;
1102.5000;0.1872;7.1478;
1102.8000;0.1937;7.1691;
1103.1000;0.1913;7.1667;
1103.4000;0.1921;7.1762;
1103.7000;0.1913;7.1644;
1104.0000;0.1929;7.1620;
1104.3000;0.1913;7.1573;
1104.6000;0.1945;7.1573;
1104.9000;0.1929;7.1596;
1105.2000;0.1937;7.1738;
1105.5000;0.1905;7.1644;
1105.8000;0.1905;7.1691;
1106.1000;0.1913;7.1644;
1106.4000;0.1937;7.1762;
1106.7000;0.1913;7.1738;
1107.0000;0.1921;7.1738;
1107.3000;0.1913;7.1691;
1107.6000;0.1929;7.1596;
1107.9000;0.1921;7.1526;
1108.2000;0.1921;7.1549;
1108.5000;0.1897;7.1549;
1108.8000;0.1905;7.1620;
1109.1000;0.1921;7.1573;
1109.4000;0.1913;7.1620;
1109.7000;0.1905;7.1573;
1110.0000;0.1888;7.1596;
1110.3000;0.1937;7.1691;
1110.6000;0.1921;7.1667;
1110.9000;0.1929;7.1573;
1111.2000;0.1921;7.1596;
1111.5000;0.1945;7.1549;
1111.8000;0.1929;7.1526;
1112.1000;0.1937;7.1502;
1112.4000;0.1913;7.1502;
1112.7000;0.1937;7.1620;
1113.0000;0.1954;7.1715;
1113.3000;0.1888;7.1715;
1113.6000;0.1929;7.1809;
1113.9000;0.1929;7.1786;
1114.2000;0.1913;7.1738;
1114.5000;0.1921;7.1762;
1114.8000;0.1929;7.1738;
1115.1000;0.1945;7.1667;
1115.4000;0.1921;7.1573;
1115.7000;0.1945;7.1596;
1116.0000;0.1937;7.1573;
1116.3000;0.1929;7.1478;
1116.6000;0.1913;7.1502;
1116.9000;0.1929;7.1549;
1117.2000;0.1921;7.1526;
1117.5000;0.1913;7.1526;
1117.8000;0.1937;7.1502;
1118.1000;0.1913;7.1573;
1118.4000;0.1807;7.1289;
1118.7000;0.1840;7.1502;
1119.0000;0.1937;7.1691;
1119.3000;0.1929;7.1715;
1119.6000;0.1913;7.1667;
1119.9000;0.1888;7.1526;
1120.2000;0.1905;7.1644;
1120.5000;0.1921;7.1667;
1120.8000;0.1913;7.1738;
1121.1000;0.1897;7.1667;
1121.4000;0.1913;7.1786;
1121.7000;0.1945;7.1927;
1122.0000;0.1913;7.1715;
1122.3000;0.1897;7.1620;
1122.6000;0.1921;7.1715;
1122.9000;0.1888;7.1691;
1123.2000;0.1921;7.1809;
1123.5000;0.1905;7.1809;
1123.8000;0.1905;7.1738;
1124.1000;0.1921;7.1691;
1124.4000;0.1888;7.1620;
1124.7000;0.1929;7.1738;
1125.0000;0.1929;7.1738;
1125.3000;0.1921;7.1691;
1125.6000;0.1921;7.1573;
1125.9000;0.1888;7.1526;
1126.2000;0.1897;7.1455;
1126.5000;0.1897;7.1478;
1126.8000;0.1937;7.1573;
1127.1000;0.1986;7.1620;
1127.4000;0.1921;7.1455;
1127.7000;0.1905;7.1431;
1128.0000;0.1921;7.1407;
1128.3000;0.1888;7.1266;
1128.6000;0.1905;7.1336;
1128.9000;0.1913;7.1313;
1129.2000;0.1937;7.1384;
1129.5000;0.1880;7.1360;
1129.8000;0.1994;7.1549;
1130.1000;0.1905;7.1407;
1130.4000;0.1921;7.1431;
1130.7000;0.1913;7.1455;
1131.0000;0.1913;7.1478;
1131.3000;0.1929;7.1549;
1131.6000;0.1905;7.1478;
1131.9000;0.1945;7.1549;
1132.2000;0.1937;7.1526;
1132.5000;0.1929;7.1502;
1132.8000;0.1897;7.1407;
1133.1000;0.1929;7.1502;
1133.4000;0.1913;7.1549;
1133.7000;0.1905;7.1526;
1134.0000;0.1905;7.1455;
1134.3000;0.1913;7.1407;
1134.6000;0.1913;7.1336;
1134.9000;0.1937;7.1478;
1135.2000;0.1921;7.1455;
1135.5000;0.1921;7.1407;
1135.8000;0.1888;7.1384;
1136.1000;0.1913;7.1478;
1136.4000;0.1921;7.1596;
1136.7000;0.1921;7.1549;
1137.0000;0.1994;7.1644;
1137.3000;0.1937;7.1549;
1137.6000;0.1937;7.1644;
1137.9000;0.1921;7.1573;
1138.2000;0.1929;7.1526;
1138.5000;0.1913;7.1478;
1138.8000;0.1913;7.1478;
1139.1000;0.1921;7.1431;
1139.4000;0.1913;7.1431;
1139.7000;0.1897;7.1526;
1140.0000;0.1905;7.1502;
1140.3000;0.1913;7.1478;
1140.6000;0.1945;7.1526;
1140.9000;0.1897;7.1549;
1141.2000;0.1921;7.1644;
1141.5000;0.1905;7.1573;
1141.8000;0.1929;7.1573;
1142.1000;0.1937;7.1573;
1142.4000;0.1921;7.1502;
1142.7000;0.1905;7.1478;
1143.0000;0.1905;7.1455;
1143.3000;0.1913;7.1478;
1143.6000;0.1921;7.1478;
1143.9000;0.1913;7.1478;
1144.2000;0.1921;7.1336;
1144.5000;0.1823;7.1171;
1144.8000;0.1921;7.1596;
1145.1000;0.1921;7.1573;
1145.4000;0.1905;7.1549;
1145.7000;0.1913;7.1644;
1146.0000;0.1905;7.1667;
1146.3000;0.1937;7.1691;
1146.6000;0.1921;7.1715;
1146.9000;0.1913;7.1786;
1147.2000;0.1905;7.1715;
1147.5000;0.1986;7.1975;
1147.8000;0.1913;7.1880;
1148.1000;0.1913;7.1833;
1148.4000;0.1913;7.1833;
1148.7000;0.1913;7.1880;
1149.0000;0.1905;7.1833;
1149.3000;0.1954;7.2022;
1149.6000;0.1921;7.1856;
1149.9000;0.1921;7.1904;
1150.2000;0.1929;7.1856;
1150.5000;0.1921;7.1809;
1150.8000;0.1921;7.1833;
1151.1000;0.1937;7.1738;
1151.4000;0.1921;7.1644;
1151.7000;0.1913;7.1738;
1152.0000;0.1913;7.1738;
1152.3000;0.1921;7.1786;
1152.6000;0.1929;7.1809;
1152.9000;0.1897;7.1691;
1153.2000;0.1905;7.1620;
1153.5000;0.1921;7.1620;
1153.8000;0.1921;7.1644;
1154.1000;0.2027;7.1880;
1154.4000;0.1897;7.1596;
1154.7000;0.1945;7.1691;
1155.0000;0.1929;7.1596;
1155.3000;0.1921;7.1478;
1155.6000;0.1937;7.1596;
1155.9000;0.1905;7.1549;
1156.2000;0.1921;7.1620;
1156.5000;0.1929;7.1667;
1156.8000;0.1929;7.1620;
1157.1000;0.1929;7.1573;
1157.4000;0.1929;7.1502;
1157.7000;0.1921;7.1596;
1158.0000;0.1945;7.1644;
1158.3000;0.1913;7.1620;
1158.6000;0.1929;7.1691;
1158.9000;0.1905;7.1644;
1159.2000;0.1921;7.1644;
1159.5000;0.1921;7.1715;
1159.8000;0.1913;7.1762;
1160.1000;0.1929;7.1856;
1160.4000;0.1913;7.1809;
1160.7000;0.1913;7.1715;
1161.0000;0.1921;7.1644;
1161.3000;0.1929;7.1644;
1161.6000;0.1945;7.1644;
1161.9000;0.1921;7.1596;
1162.2000;0.1929;7.1620;
1162.5000;0.1888;7.1526;
1162.8000;0.1921;7.1667;
1163.1000;0.1937;7.1667;
1163.4000;0.1954;7.1620;
1163.7000;0.1945;7.1596;
1164.0000;0.1921;7.1526;
1164.3000;0.1872;7.1431;
1164.6000;0.1897;7.1526;
1164.9000;0.1937;7.1596;
1165.2000;0.1945;7.1573;
1165.5000;0.1929;7.1549;
1165.8000;0.1937;7.1478;
1166.1000;0.1913;7.1431;
1166.4000;0.2027;7.1786;
1166.7000;0.1937;7.1620;
1167.0000;0.1937;7.1667;
1167.3000;0.1929;7.1596;
1167.6000;0.1864;7.1289;
1167.9000;0.1872;7.1336;
1168.2000;0.1880;7.1384;
1168.5000;0.1832;7.1289;
1168.8000;0.1921;7.1478;
1169.1000;0.1913;7.1360;
1169.4000;0.1905;7.1336;
1169.7000;0.1913;7.1360;
1170.0000;0.1937;7.1478;
1170.3000;0.1929;7.1526;
1170.6000;0.1929;7.1596;
1170.9000;0.1921;7.1620;
1171.2000;0.1929;7.1738;
1171.5000;0.1929;7.1786;
1171.8000;0.1921;7.1667;
1172.1000;0.1929;7.1644;
1172.4000;0.1929;7.1620;
1172.7000;0.1929;7.1573;
1173.0000;0.1929;7.1596;
1173.3000;0.1913;7.1644;
1173.6000;0.1921;7.1667;
1173.9000;0.1921;7.1691;
1174.2000;0.1929;7.1644;
1174.5000;0.1937;7.1620;
1174.8000;0.1832;7.1289;
1175.1000;0.1937;7.1478;
1175.4000;0.1945;7.1455;
1175.7000;0.1856;7.1171;
1176.0000;0.1929;7.1360;
1176.3000;0.1921;7.1336;
1176.6000;0.1921;7.1360;
1176.9000;0.1929;7.1478;
1177.2000;0.1913;7.1407;
1177.5000;0.1921;7.1455;
1177.8000;0.1929;7.1455;
1178.1000;0.1897;7.1360;
1178.4000;0.1905;7.1431;
1178.7000;0.1905;7.1431;
1179.0000;0.1921;7.1407;
1179.3000;0.1880;7.1289;
1179.6000;0.1897;7.1336;
1179.9000;0.1937;7.1384;
1180.2000;0.1929;7.1478;
1180.5000;0.1945;7.1549;
1180.8000;0.1929;7.1407;
1181.1000;0.1929;7.1384;
1181.4000;0.1897;7.1478;
1181.7000;0.1929;7.1502;
1182.0000;0.1913;7.1455;
1182.3000;0.1929;7.1549;
1182.6000;0.1929;7.1502;
1182.9000;0.1929;7.1620;
1183.2000;0.1872;7.1478;
1183.5000;0.1913;7.1526;
1183.8000;0.1929;7.1478;
1184.1000;0.1897;7.1431;
1184.4000;0.1962;7.1455;
1184.7000;0.1978;7.1573;
1185.0000;0.1921;7.1502;
1185.3000;0.1970;7.1691;
1185.6000;0.1913;7.1620;
1185.9000;0.1913;7.1549;
1186.2000;0.1905;7.1573;
1186.5000;0.1921;7.1644;
1186.8000;0.1921;7.1573;
1187.1000;0.1913;7.1526;
1187.4000;0.1807;7.1313;
1187.7000;0.1913;7.1549;
1188.0000;0.1945;7.1620;
1188.3000;0.1905;7.1502;
1188.6000;0.1872;7.1478;
1188.9000;0.1905;7.1644;
1189.2000;0.1921;7.1644;
1189.5000;0.1929;7.1715;
1189.8000;0.1929;7.1667;
1190.1000;0.1905;7.1644;
1190.4000;0.1929;7.1596;
1190.7000;0.1921;7.1549;
1191.0000;0.1905;7.1502;
1191.3000;0.1929;7.1620;
1191.6000;0.1921;7.1644;
1191.9000;0.1921;7.1691;
1192.2000;0.1970;7.1715;
1192.5000;0.1921;7.1620;
1192.8000;0.1929;7.1573;
1193.1000;0.1856;7.1407;
1193.4000;0.1929;7.1502;
1193.7000;0.1954;7.1549;
1194.0000;0.1913;7.1478;
1194.3000;0.1921;7.1526;
1194.6000;0.1929;7.1526;
1194.9000;0.1872;7.1336;
1195.2000;0.1905;7.1336;
1195.5000;0.1921;7.1407;
1195.8000;0.1929;7.1455;
1196.1000;0.1937;7.1502;
1196.4000;0.1921;7.1573;
1196.7000;0.1840;7.1360;
1197.0000;0.1937;7.1526;
1197.3000;0.1897;7.1478;
1197.6000;0.1913;7.1478;
1197.9000;0.1929;7.1596;
1198.2000;0.1921;7.1620;
1198.5000;0.1978;7.1715;
1198.8000;0.1962;7.1667;
1199.1000;0.1905;7.1573;
1199.4000;0.1937;7.1644;
1199.7000;0.1921;7.1715;
1200.0000;0.1888;7.1691;
1200.3000;0.1937;7.1786;
1200.6000;0.1929;7.1644;
1200.9000;0.1913;7.1549;
1201.2000;0.1921;7.1573;
1201.5000;0.1905;7.1431;
1201.8000;0.1864;7.1313;
1202.1000;0.1929;7.1502;
1202.4000;0.1921;7.1549;
1202.7000;0.1913;7.1644;
1203.0000;0.1921;7.1691;
1203.3000;0.1945;7.1667;
1203.6000;0.1905;7.1620;
1203.9000;0.1913;7.1691;
1204.2000;0.1929;7.1596;
1204.5000;0.1929;7.1644;
1204.8000;0.1929;7.1549;
1205.1000;0.1913;7.1573;
1205.4000;0.1954;7.1715;
1205.7000;0.1937;7.1644;
1206.0000;0.1929;7.1596;
1206.3000;0.1937;7.1620;
1206.6000;0.1921;7.1620;
1206.9000;0.1929;7.1596;
1207.2000;0.1929;7.1667;
1207.5000;0.1945;7.1715;
1207.8000;0.1970;7.1691;
1208.1000;0.1872;7.1502;
1208.4000;0.1921;7.1573;
1208.7000;0.1921;7.1691;
1209.0000;0.1913;7.1715;
1209.3000;0.1937;7.1715;
1209.6000;0.1913;7.1786;
1209.9000;0.1921;7.1738;
1210.2000;0.1905;7.1715;
1210.5000;0.1913;7.1596;
1210.8000;0.1929;7.1526;
1211.1000;0.1929;7.1596;
1211.4000;0.1962;7.1691;
1211.7000;0.1921;7.1573;
1212.0000;0.1929;7.1526;
1212.3000;0.1937;7.1526;
1212.6000;0.1921;7.1549;
1212.9000;0.1905;7.1526;
1213.2000;0.1872;7.1502;
1213.5000;0.1929;7.1573;
1213.8000;0.1921;7.1455;
1214.1000;0.1921;7.1455;
1214.4000;0.1905;7.1384;
1214.7000;0.1929;7.1384;
1215.0000;0.1921;7.1455;
1215.3000;0.1905;7.1407;
1215.6000;0.1929;7.1502;
1215.9000;0.1921;7.1455;
1216.2000;0.1929;7.1502;
1216.5000;0.1905;7.1407;
1216.8000;0.1921;7.1596;
1217.1000;0.1929;7.1667;
1217.4000;0.1929;7.1644;
1217.7000;0.1945;7.1715;
1218.0000;0.1913;7.1620;
1218.3000;0.1913;7.1644;
1218.6000;0.1913;7.1596;
1218.9000;0.1945;7.1715;
1219.2000;0.1986;7.1738;
1219.5000;0.1913;7.1549;
1219.8000;0.1937;7.1738;
1220.1000;0.1913;7.1809;
1220.4000;0.1905;7.1809;
1220.7000;0.1921;7.1880;
1221.0000;0.1937;7.1880;
1221.3000;0.1937;7.1856;
1221.6000;0.1913;7.1809;
1221.9000;0.1913;7.1809;
1222.2000;0.1905;7.1762;
1222.5000;0.1921;7.1786;
1222.8000;0.1888;7.1596;
1223.1000;0.1897;7.1596;
1223.4000;0.1929;7.1644;
1223.7000;0.1897;7.1573;
1224.0000;0.1905;7.1596;
1224.3000;0.1905;7.1644;
1224.6000;0.1913;7.1620;
1224.9000;0.1929;7.1691;
1225.2000;0.1929;7.1644;
1225.5000;0.1897;7.1549;
1225.8000;0.1905;7.1431;
1226.1000;0.1929;7.1526;
1226.4000;0.1945;7.1549;
1226.7000;0.1913;7.1478;
1227.0000;0.1921;7.1620;
1227.3000;0.1929;7.1526;
1227.6000;0.1945;7.1549;
1227.9000;0.1921;7.1526;
1228.2000;0.1945;7.1596;
1228.5000;0.1929;7.1549;
1228.8000;0.1921;7.1455;
1229.1000;0.1897;7.1336;
1229.4000;0.1897;7.1407;
1229.7000;0.1905;7.1455;
1230.0000;0.1913;7.1620;
1230.3000;0.1897;7.1667;
1230.6000;0.1905;7.1786;
1230.9000;0.1872;7.1691;
1231.2000;0.1945;7.1786;
1231.5000;0.1921;7.1786;
1231.8000;0.1921;7.1809;
1232.1000;0.1921;7.1809;
1232.4000;0.1913;7.1762;
1232.7000;0.1913;7.1762;
1233.0000;0.1897;7.1786;
1233.3000;0.1921;7.1691;
1233.6000;0.1921;7.1620;
1233.9000;0.1913;7.1596;
1234.2000;0.1913;7.1573;
1234.5000;0.1815;7.1384;
1234.8000;0.1937;7.1715;
1235.1000;0.1921;7.1620;
1235.4000;0.1929;7.1596;
1235.7000;0.1897;7.1502;
1236.0000;0.1937;7.1573;
1236.3000;0.1921;7.1620;
1236.6000;0.1905;7.1596;
1236.9000;0.1905;7.1549;
1237.2000;0.1929;7.1620;
1237.5000;0.1962;7.1691;
1237.8000;0.1970;7.1667;
1238.1000;0.1913;7.1644;
1238.4000;0.1937;7.1715;
1238.7000;0.1937;7.1667;
1239.0000;0.1962;7.1715;
1239.3000;0.1913;7.1478;
1239.6000;0.1921;7.1526;
1239.9000;0.1937;7.1620;
1240.2000;0.1905;7.1549;
1240.5000;0.1921;7.1620;
1240.8000;0.1921;7.1573;
1241.1000;0.1954;7.1596;
1241.4000;0.1913;7.1455;
1241.7000;0.1929;7.1573;
1242.0000;0.1921;7.1455;
1242.3000;0.1937;7.1526;
1242.6000;0.1921;7.1596;
1242.9000;0.1905;7.1644;
1243.2000;0.1905;7.1644;
1243.5000;0.1856;7.1502;
1243.8000;0.1880;7.1620;
1244.1000;0.1913;7.1738;
1244.4000;0.1880;7.1620;
1244.7000;0.1913;7.1809;
1245.0000;0.1913;7.1833;
1245.3000;0.1937;7.1951;
1245.6000;0.1921;7.1809;
1245.9000;0.1921;7.1715;
1246.2000;0.1913;7.1596;
1246.5000;0.1970;7.1691;
1246.8000;0.1929;7.1573;
1247.1000;0.1929;7.1596;
1247.4000;0.1945;7.1644;
1247.7000;0.1937;7.1786;
1248.0000;0.1929;7.1762;
1248.3000;0.1921;7.1809;
1248.6000;0.1897;7.1715;
1248.9000;0.1913;7.1809;
1249.2000;0.1905;7.1738;
1249.5000;0.1913;7.1738;
1249.8000;0.1913;7.1738;
1250.1000;0.1913;7.1762;
1250.4000;0.1921;7.1667;
1250.7000;0.1937;7.1715;
1251.0000;0.1921;7.1691;
1251.3000;0.1929;7.1762;
1251.6000;0.1921;7.1691;
1251.9000;0.1913;7.1833;
1252.2000;0.1905;7.1762;
1252.5000;0.1905;7.1715;
1252.8000;0.1929;7.1596;
1253.1000;0.1913;7.1620;
1253.4000;0.1929;7.1738;
1253.7000;0.1888;7.1644;
1254.0000;0.1929;7.1691;
1254.3000;0.1921;7.1738;
1254.6000;0.1929;7.1715;
1254.9000;0.1897;7.1620;
1255.2000;0.2019;7.2093;
1255.5000;0.1897;7.1833;
1255.8000;0.1921;7.1809;
1256.1000;0.1905;7.1738;
1256.4000;0.1905;7.1738;
1256.7000;0.1937;7.1762;
1257.0000;0.1921;7.1809;
1257.3000;0.1921;7.1833;
1257.6000;0.1888;7.1762;
1257.9000;0.1840;7.1549;
1258.2000;0.1913;7.1691;
1258.5000;0.1937;7.1715;
1258.8000;0.1913;7.1691;
1259.1000;0.1921;7.1691;
1259.4000;0.1872;7.1549;
1259.7000;0.1913;7.1549;
1260.0000;0.1937;7.1596;
1260.3000;0.1888;7.1549;
1260.6000;0.1905;7.1596;
1260.9000;0.1872;7.1502;
1261.2000;0.1864;7.1502;
1261.5000;0.1921;7.1573;
1261.8000;0.1937;7.1620;
1262.1000;0.1937;7.1596;
1262.4000;0.1929;7.1644;
1262.7000;0.1913;7.1691;
1263.0000;0.1880;7.1549;
1263.3000;0.1929;7.1786;
1263.6000;0.1921;7.1762;
1263.9000;0.1913;7.1738;
1264.2000;0.2019;7.2022;
1264.5000;0.1954;7.1833;
1264.8000;0.1986;7.1809;
1265.1000;0.1913;7.1596;
1265.4000;0.1848;7.1407;
1265.7000;0.1921;7.1573;
1266.0000;0.1913;7.1502;
1266.3000;0.1913;7.1502;
1266.6000;0.1970;7.1667;
1266.9000;0.1913;7.1549;
1267.2000;0.1921;7.1596;
1267.5000;0.1921;7.1596;
1267.8000;0.1954;7.1573;
1268.1000;0.1937;7.1573;
1268.4000;0.1888;7.1431;
1268.7000;0.1921;7.1478;
1269.0000;0.1954;7.1526;
1269.3000;0.1905;7.1502;
1269.6000;0.1921;7.1596;
1269.9000;0.1929;7.1573;
1270.2000;0.1897;7.1502;
1270.5000;0.1888;7.1596;
1270.8000;0.1929;7.1691;
1271.1000;0.1921;7.1667;
1271.4000;0.1913;7.1667;
1271.7000;0.1994;7.1880;
1272.0000;0.1921;7.1667;
1272.3000;0.1913;7.1644;
1272.6000;0.1921;7.1715;
1272.9000;0.1929;7.1691;
1273.2000;0.1945;7.1738;
1273.5000;0.1897;7.1715;
1273.8000;0.1913;7.1786;
1274.1000;0.1945;7.1904;
1274.4000;0.1921;7.1786;
1274.7000;0.1954;7.1833;
1275.0000;0.1897;7.1620;
1275.3000;0.1921;7.1738;
1275.6000;0.1913;7.1644;
1275.9000;0.1929;7.1809;
1276.2000;0.1913;7.1809;
1276.5000;0.1921;7.1809;
1276.8000;0.1913;7.1762;
1277.1000;0.1945;7.1715;
1277.4000;0.1970;7.1762;
1277.7000;0.1921;7.1620;
1278.0000;0.1945;7.1667;
1278.3000;0.1929;7.1691;
1278.6000;0.1913;7.1667;
1278.9000;0.1888;7.1620;
1279.2000;0.1937;7.1715;
1279.5000;0.1905;7.1596;
1279.8000;0.1929;7.1644;
1280.1000;0.1913;7.1596;
1280.4000;0.1913;7.1526;
1280.7000;0.1921;7.1478;
1281.0000;0.1962;7.1549;
1281.3000;0.1945;7.1549;
1281.6000;0.1913;7.1526;
1281.9000;0.1921;7.1502;
1282.2000;0.1913;7.1526;
1282.5000;0.1921;7.1478;
1282.8000;0.1929;7.1431;
1283.1000;0.1913;7.1431;
1283.4000;0.1913;7.1407;
1283.7000;0.1913;7.1384;
1284.0000;0.1954;7.1502;
1284.3000;0.1937;7.1573;
1284.6000;0.1929;7.1667;
1284.9000;0.1921;7.1573;
1285.2000;0.1978;7.1573;
1285.5000;0.1921;7.1431;
1285.8000;0.1897;7.1360;
1286.1000;0.1880;7.1407;
1286.4000;0.1921;7.1478;
1286.7000;0.1921;7.1431;
1287.0000;0.1921;7.1407;
1287.3000;0.1929;7.1336;
1287.6000;0.1913;7.1384;
1287.9000;0.1921;7.1336;
1288.2000;0.1921;7.1407;
1288.5000;0.1897;7.1431;
1288.8000;0.1913;7.1502;
1289.1000;0.1913;7.1596;
1289.4000;0.1913;7.1596;
1289.7000;0.1905;7.1526;
1290.0000;0.1905;7.1455;
1290.3000;0.1897;7.1360;
1290.6000;0.1929;7.1478;
1290.9000;0.1921;7.1502;
1291.2000;0.1921;7.1384;
1291.5000;0.1929;7.1431;
1291.8000;0.1905;7.1336;
1292.1000;0.1929;7.1384;
1292.4000;0.1929;7.1455;
1292.7000;0.1913;7.1431;
1293.0000;0.1929;7.1502;
1293.3000;0.1929;7.1455;
1293.6000;0.1921;7.1336;
1293.9000;0.1913;7.1313;
1294.2000;0.1921;7.1360;
1294.5000;0.1921;7.1502;
1294.8000;0.1905;7.1549;
1295.1000;0.1905;7.1455;
1295.4000;0.1905;7.1478;
1295.7000;0.1921;7.1478;
1296.0000;0.1913;7.1573;
1296.3000;0.1954;7.1549;
1296.6000;0.1913;7.1384;
1296.9000;0.1913;7.1360;
1297.2000;0.1913;7.1455;
1297.5000;0.1913;7.1478;
1297.8000;0.1921;7.1549;
1298.1000;0.1937;7.1573;
1298.4000;0.1921;7.1502;
1298.7000;0.1921;7.1502;
1299.0000;0.1905;7.1336;
1299.3000;0.1897;7.1195;
1299.6000;0.1913;7.1195;
1299.9000;0.1978;7.1407;
1300.2000;0.1945;7.1407;
1300.5000;0.1937;7.1455;
1300.8000;0.1897;7.1431;
1301.1000;0.1921;7.1478;
1301.4000;0.1986;7.1596;
1301.7000;0.1864;7.1266;
1302.0000;0.1945;7.1455;
1302.3000;0.1921;7.1431;
1302.6000;0.1937;7.1478;
1302.9000;0.1970;7.1549;
1303.2000;0.1929;7.1455;
1303.5000;0.1905;7.1407;
1303.8000;0.1913;7.1407;
1304.1000;0.1880;7.1218;
1304.4000;0.1905;7.1218;
1304.7000;0.1897;7.1195;
1305.0000;0.1929;7.1360;
1305.3000;0.1970;7.1526;
1305.6000;0.1921;7.1478;
1305.9000;0.1913;7.1573;
1306.2000;0.1864;7.1407;
1306.5000;0.1978;7.1596;
1306.8000;0.1921;7.1526;
1307.1000;0.1921;7.1478;
1307.4000;0.1986;7.1620;
1307.7000;0.1929;7.1478;
1308.0000;0.1905;7.1336;
1308.3000;0.1897;7.1313;
1308.6000;0.1913;7.1360;
1308.9000;0.1937;7.1336;
1309.2000;0.1905;7.1242;
1309.5000;0.1905;7.1336;
1309.8000;0.1905;7.1502;
1310.1000;0.1921;7.1478;
1310.4000;0.1945;7.1526;
1310.7000;0.1913;7.1478;
1311.0000;0.1921;7.1407;
1311.3000;0.1937;7.1478;
1311.6000;0.1954;7.1549;
1311.9000;0.1913;7.1431;
1312.2000;0.1929;7.1478;
1312.5000;0.1921;7.1549;
1312.8000;0.1905;7.1455;
1313.1000;0.1921;7.1431;
1313.4000;0.1970;7.1549;
1313.7000;0.1832;7.1195;
1314.0000;0.1897;7.1266;
1314.3000;0.1921;7.1313;
1314.6000;0.1921;7.1360;
1314.9000;0.1913;7.1360;
1315.2000;0.1921;7.1502;
1315.5000;0.1921;7.1526;
1315.8000;0.1905;7.1478;
1316.1000;0.1913;7.1502;
1316.4000;0.1921;7.1431;
1316.7000;0.1921;7.1478;
1317.0000;0.1905;7.1384;
1317.3000;0.1929;7.1455;
1317.6000;0.1897;7.1431;
1317.9000;0.1897;7.1549;
1318.2000;0.1905;7.1526;
1318.5000;0.1905;7.1455;
1318.8000;0.1897;7.1407;
1319.1000;0.1905;7.1455;
1319.4000;0.1905;7.1384;
1319.7000;0.1945;7.1478;
1320.0000;0.1929;7.1336;
1320.3000;0.1913;7.1289;
1320.6000;0.1921;7.1266;
1320.9000;0.1905;7.1289;
1321.2000;0.1921;7.1407;
1321.5000;0.1929;7.1478;
1321.8000;0.1888;7.1384;
1322.1000;0.1929;7.1526;
1322.4000;0.1929;7.1573;
1322.7000;0.1840;7.1407;
1323.0000;0.1880;7.1455;
1323.3000;0.1913;7.1526;
1323.6000;0.1937;7.1549;
1323.9000;0.1913;7.1478;
1324.2000;0.1913;7.1549;
1324.5000;0.1913;7.1596;
1324.8000;0.1937;7.1596;
1325.1000;0.1913;7.1667;
1325.4000;0.1913;7.1573;
1325.7000;0.1945;7.1691;
1326.0000;0.1921;7.1573;
1326.3000;0.1937;7.1502;
1326.6000;0.1945;7.1620;
1326.9000;0.1978;7.1691;
1327.2000;0.1897;7.1573;
1327.5000;0.1921;7.1573;
1327.8000;0.1921;7.1502;
1328.1000;0.1929;7.1455;
1328.4000;0.1921;7.1455;
1328.7000;0.1921;7.1526;
1329.0000;0.1921;7.1478;
1329.3000;0.2027;7.1667;
1329.6000;0.1905;7.1313;
1329.9000;0.1905;7.1336;
1330.2000;0.1921;7.1289;
1330.5000;0.1905;7.1124;
1330.8000;0.1905;7.1147;
1331.1000;0.1913;7.1242;
1331.4000;0.1970;7.1407;
1331.7000;0.1888;7.1195;
1332.0000;0.1897;7.1195;
1332.3000;0.1913;7.1218;
1332.6000;0.1929;7.1384;
1332.9000;0.1921;7.1431;
1333.2000;0.1921;7.1596;
1333.5000;0.1945;7.1644;
1333.8000;0.1905;7.1573;
1334.1000;0.1913;7.1502;
1334.4000;0.1913;7.1620;
1334.7000;0.1897;7.1573;
1335.0000;0.2002;7.1833;
1335.3000;0.1913;7.1502;
1335.6000;0.1913;7.1502;
1335.9000;0.1921;7.1502;
1336.2000;0.1921;7.1526;
1336.5000;0.1978;7.1691;
1336.8000;0.1888;7.1596;
1337.1000;0.1913;7.1620;
1337.4000;0.1905;7.1596;
1337.7000;0.1970;7.1809;
1338.0000;0.1929;7.1644;
1338.3000;0.1913;7.1644;
1338.6000;0.1921;7.1549;
1338.9000;0.1848;7.1360;
1339.2000;0.1905;7.1596;
1339.5000;0.1880;7.1478;
1339.8000;0.1954;7.1667;
1340.1000;0.1905;7.1549;
1340.4000;0.1921;7.1526;
1340.7000;0.1897;7.1596;
1341.0000;0.1897;7.1620;
1341.3000;0.1905;7.1549;
1341.6000;0.1913;7.1478;
1341.9000;0.1897;7.1478;
1342.2000;0.1832;7.1313;
1342.5000;0.1921;7.1384;
1342.8000;0.1929;7.1407;
1343.1000;0.1913;7.1455;
1343.4000;0.1929;7.1526;
1343.7000;0.1905;7.1407;
1344.0000;0.1913;7.1360;
1344.3000;0.1921;7.1478;
1344.6000;0.1921;7.1431;
1344.9000;0.1905;7.1407;
1345.2000;0.1913;7.1431;
1345.5000;0.1921;7.1526;
1345.8000;0.1937;7.1526;
1346.1000;0.1921;7.1455;
1346.4000;0.1913;7.1407;
1346.7000;0.1905;7.1431;
1347.0000;0.1921;7.1431;
1347.3000;0.1921;7.1502;
1347.6000;0.1921;7.1502;
1347.9000;0.1929;7.1573;
1348.2000;0.1913;7.1502;
1348.5000;0.1913;7.1502;
1348.8000;0.1913;7.1478;
1349.1000;0.1921;7.1502;
1349.4000;0.1929;7.1573;
1349.7000;0.1929;7.1502;
1350.0000;0.1848;7.1384;
1350.3000;0.1856;7.1336;
1350.6000;0.1913;7.1407;
1350.9000;0.1929;7.1407;
1351.2000;0.1929;7.1407;
1351.5000;0.1905;7.1478;
1351.8000;0.1929;7.1667;
1352.1000;0.2019;7.1904;
1352.4000;0.1913;7.1667;
1352.7000;0.1888;7.1667;
1353.0000;0.1962;7.1738;
1353.3000;0.1913;7.1644;
1353.6000;0.1913;7.1596;
1353.9000;0.1905;7.1596;
1354.2000;0.1937;7.1620;
1354.5000;0.1897;7.1596;
1354.8000;0.1921;7.1691;
1355.1000;0.1880;7.1526;
1355.4000;0.1929;7.1644;
1355.7000;0.1913;7.1549;
1356.0000;0.1929;7.1644;
1356.3000;0.1880;7.1478;
1356.6000;0.1905;7.1596;
1356.9000;0.1742;7.1195;
1357.2000;0.1929;7.1620;
1357.5000;0.1929;7.1620;
1357.8000;0.1856;7.1407;
1358.1000;0.1880;7.1455;
1358.4000;0.1897;7.1478;
1358.7000;0.1921;7.1526;
1359.0000;0.1954;7.1620;
1359.3000;0.1905;7.1478;
1359.6000;0.1929;7.1526;
1359.9000;0.1913;7.1549;
1360.2000;0.1897;7.1431;
1360.5000;0.1962;7.1644;
1360.8000;0.1913;7.1573;
1361.1000;0.1929;7.1596;
1361.4000;0.1945;7.1644;
1361.7000;0.1905;7.1502;
1362.0000;0.1929;7.1455;
1362.3000;0.1888;7.1502;
1362.6000;0.1905;7.1644;
1362.9000;0.1880;7.1667;
1363.2000;0.1913;7.1620;
1363.5000;0.1962;7.1620;
1363.8000;0.1921;7.1596;
1364.1000;0.1921;7.1526;
1364.4000;0.1913;7.1478;
1364.7000;0.1929;7.1502;
1365.0000;0.1921;7.1502;
1365.3000;0.1921;7.1502;
1365.6000;0.1888;7.1455;
1365.9000;0.1913;7.1526;
1366.2000;0.1921;7.1549;
1366.5000;0.1954;7.1620;
1366.8000;0.1864;7.1455;
1367.1000;0.1937;7.1596;
1367.4000;0.1929;7.1620;
1367.7000;0.1913;7.1644;
1368.0000;0.1929;7.1644;
1368.3000;0.1921;7.1596;
1368.6000;0.1921;7.1596;
1368.9000;0.1905;7.1526;
1369.2000;0.1921;7.1573;
1369.5000;0.1921;7.1644;
1369.8000;0.1897;7.1573;
1370.1000;0.1921;7.1596;
1370.4000;0.1905;7.1502;
1370.7000;0.1872;7.1289;
1371.0000;0.1905;7.1384;
1371.3000;0.1929;7.1455;
1371.6000;0.1929;7.1549;
1371.9000;0.1897;7.1478;
1372.2000;0.1929;7.1549;
1372.5000;0.1913;7.1502;
1372.8000;0.1888;7.1502;
1373.1000;0.1913;7.1644;
1373.4000;0.1872;7.1549;
1373.7000;0.1913;7.1644;
1374.0000;0.1929;7.1596;
1374.3000;0.1921;7.1549;
1374.6000;0.1905;7.1502;
1374.9000;0.1986;7.1691;
1375.2000;0.2011;7.1738;
1375.5000;0.1897;7.1502;
1375.8000;0.1937;7.1526;
1376.1000;0.1945;7.1573;
1376.4000;0.1945;7.1596;
1376.7000;0.1905;7.1431;
1377.0000;0.2011;7.1691;
1377.3000;0.1880;7.1431;
1377.6000;0.1929;7.1549;
1377.9000;0.1880;7.1431;
1378.2000;0.1905;7.1502;
1378.5000;0.1905;7.1431;
1378.8000;0.1929;7.1455;
1379.1000;0.1897;7.1384;
1379.4000;0.1921;7.1407;
1379.7000;0.1905;7.1384;
1380.0000;0.1905;7.1478;
1380.3000;0.1905;7.1431;
1380.6000;0.1913;7.1478;
1380.9000;0.1880;7.1431;
1381.2000;0.1807;7.1266;
1381.5000;0.1978;7.1667;
1381.8000;0.1954;7.1620;
1382.1000;0.1905;7.1573;
1382.4000;0.1913;7.1620;
1382.7000;0.1929;7.1644;
1383.0000;0.1970;7.1691;
1383.3000;0.1921;7.1526;
1383.6000;0.1921;7.1573;
1383.9000;0.1921;7.1596;
1384.2000;0.1905;7.1573;
1384.5000;0.1921;7.1667;
1384.8000;0.1913;7.1644;
1385.1000;0.1913;7.1691;
1385.4000;0.1929;7.1620;
1385.7000;0.1913;7.1549;
1386.0000;0.1913;7.1502;
1386.3000;0.1921;7.1573;
1386.6000;0.1921;7.1620;
1386.9000;0.1913;7.1526;
1387.2000;0.1954;7.1596;
1387.5000;0.1929;7.1573;
1387.8000;0.1913;7.1549;
1388.1000;0.1888;7.1526;
1388.4000;0.1897;7.1478;
1388.7000;0.1929;7.1384;
1389.0000;0.1921;7.1455;
1389.3000;0.1913;7.1455;
1389.6000;0.1921;7.1384;
1389.9000;0.1905;7.1407;
1390.2000;0.1921;7.1478;
1390.5000;0.1945;7.1478;
1390.8000;0.1945;7.1526;
1391.1000;0.1905;7.1455;
1391.4000;0.1880;7.1313;
1391.7000;0.1905;7.1360;
1392.0000;0.1913;7.1336;
1392.3000;0.1937;7.1266;
1392.6000;0.1913;7.1147;
1392.9000;0.1937;7.1195;
1393.2000;0.1937;7.1218;
1393.5000;0.1921;7.1195;
1393.8000;0.1929;7.1336;
1394.1000;0.1913;7.1360;
1394.4000;0.1945;7.1431;
1394.7000;0.1913;7.1384;
1395.0000;0.1913;7.1526;
1395.3000;0.1921;7.1526;
1395.6000;0.1905;7.1478;
1395.9000;0.1888;7.1431;
1396.2000;0.1970;7.1715;
1396.5000;0.1929;7.1667;
1396.8000;0.1921;7.1620;
1397.1000;0.1913;7.1596;
1397.4000;0.1929;7.1573;
1397.7000;0.1905;7.1502;
1398.0000;0.1937;7.1478;
1398.3000;0.1913;7.1407;
1398.6000;0.1913;7.1502;
1398.9000;0.1921;7.1502;
1399.2000;0.1921;7.1549;
1399.5000;0.1945;7.1573;
1399.8000;0.1905;7.1573;
