time/ms;Fluo/V;P700 deltaI/I x10³;
-199.8000;0.2841;7.1880;
-199.5000;0.2833;7.1856;
-199.2000;0.2833;7.1833;
-198.9000;0.2784;7.1786;
-198.6000;0.2841;7.1856;
-198.3000;0.2849;7.1856;
-198.0000;0.2841;7.1833;
-197.7000;0.2833;7.1809;
-197.4000;0.2849;7.1927;
-197.1000;0.2841;7.1975;
-196.8000;0.2857;7.2022;
-196.5000;0.2825;7.1951;
-196.2000;0.2841;7.1927;
-195.9000;0.2906;7.2046;
-195.6000;0.2833;7.1904;
-195.3000;0.2825;7.1927;
-195.0000;0.2825;7.2022;
-194.7000;0.2849;7.1998;
-194.4000;0.2873;7.1951;
-194.1000;0.2849;7.1856;
-193.8000;0.2849;7.1833;
-193.5000;0.2841;7.1833;
-193.2000;0.2857;7.1809;
-192.9000;0.2833;7.1715;
-192.6000;0.2841;7.1809;
-192.3000;0.2816;7.1786;
-192.0000;0.2857;7.1904;
-191.7000;0.2833;7.1856;
-191.4000;0.2816;7.1904;
-191.1000;0.2857;7.2022;
-190.8000;0.2841;7.1998;
-190.5000;0.2865;7.2116;
-190.2000;0.2849;7.2116;
-189.9000;0.2857;7.2187;
-189.6000;0.2865;7.2187;
-189.3000;0.2841;7.2093;
-189.0000;0.2841;7.2046;
-188.7000;0.2825;7.2116;
-188.4000;0.2841;7.2069;
-188.1000;0.2825;7.1951;
-187.8000;0.2825;7.1927;
-187.5000;0.2825;7.1927;
-187.2000;0.2833;7.1998;
-186.9000;0.2833;7.2022;
-186.6000;0.2825;7.2022;
-186.3000;0.2808;7.1927;
-186.0000;0.2841;7.1975;
-185.7000;0.2849;7.2046;
-185.4000;0.2825;7.2093;
-185.1000;0.2841;7.2046;
-184.8000;0.2784;7.1856;
-184.5000;0.2825;7.1998;
-184.2000;0.2825;7.1904;
-183.9000;0.2841;7.1927;
-183.6000;0.2833;7.2046;
-183.3000;0.2825;7.2069;
-183.0000;0.2833;7.2116;
-182.7000;0.2816;7.2116;
-182.4000;0.2825;7.2187;
-182.1000;0.2841;7.2164;
-181.8000;0.2857;7.2164;
-181.5000;0.2833;7.2069;
-181.2000;0.2768;7.1927;
-180.9000;0.2833;7.1998;
-180.6000;0.2849;7.1975;
-180.3000;0.2833;7.1927;
-180.0000;0.2841;7.1998;
-179.7000;0.2833;7.2046;
-179.4000;0.2849;7.2046;
-179.1000;0.2833;7.2093;
-178.8000;0.2825;7.2069;
-178.5000;0.2825;7.2116;
-178.2000;0.2825;7.2093;
-177.9000;0.2833;7.2140;
-177.6000;0.2849;7.2258;
-177.3000;0.2849;7.2306;
-177.0000;0.2841;7.2258;
-176.7000;0.2841;7.2211;
-176.4000;0.2833;7.2235;
-176.1000;0.2833;7.2211;
-175.8000;0.2857;7.2306;
-175.5000;0.2849;7.2187;
-175.2000;0.2849;7.2164;
-174.9000;0.2849;7.2069;
-174.6000;0.2857;7.2069;
-174.3000;0.2841;7.1951;
-174.0000;0.2841;7.1975;
-173.7000;0.2849;7.2022;
-173.4000;0.2833;7.2046;
-173.1000;0.2857;7.2116;
-172.8000;0.2841;7.2187;
-172.5000;0.2841;7.2140;
-172.2000;0.2857;7.2164;
-171.9000;0.2857;7.2164;
-171.6000;0.2849;7.2093;
-171.3000;0.2849;7.2093;
-171.0000;0.2849;7.2069;
-170.7000;0.2833;7.2022;
-170.4000;0.2865;7.2093;
-170.1000;0.2849;7.2046;
-169.8000;0.2857;7.2046;
-169.5000;0.2947;7.2353;
-169.2000;0.2841;7.2116;
-168.9000;0.2841;7.2069;
-168.6000;0.2833;7.2093;
-168.3000;0.2833;7.2069;
-168.0000;0.2816;7.2116;
-167.7000;0.2849;7.2211;
-167.4000;0.2816;7.2235;
-167.1000;0.2833;7.2140;
-166.8000;0.2906;7.2211;
-166.5000;0.2825;7.1904;
-166.2000;0.2857;7.1904;
-165.9000;0.2841;7.1904;
-165.6000;0.2841;7.1880;
-165.3000;0.2857;7.1904;
-165.0000;0.2857;7.1951;
-164.7000;0.2833;7.1927;
-164.4000;0.2857;7.2022;
-164.1000;0.2808;7.2046;
-163.8000;0.2906;7.2258;
-163.5000;0.2841;7.2046;
-163.2000;0.2882;7.2187;
-162.9000;0.2776;7.1951;
-162.6000;0.2841;7.2187;
-162.3000;0.2825;7.2164;
-162.0000;0.2841;7.2140;
-161.7000;0.2816;7.2093;
-161.4000;0.2833;7.2093;
-161.1000;0.2841;7.1998;
-160.8000;0.2841;7.1951;
-160.5000;0.2825;7.1904;
-160.2000;0.2849;7.1951;
-159.9000;0.2825;7.1951;
-159.6000;0.2825;7.1904;
-159.3000;0.2857;7.2093;
-159.0000;0.2857;7.2187;
-158.7000;0.2857;7.2282;
-158.4000;0.2849;7.2282;
-158.1000;0.2857;7.2353;
-157.8000;0.2857;7.2282;
-157.5000;0.2841;7.2258;
-157.2000;0.2833;7.2140;
-156.9000;0.2841;7.2093;
-156.6000;0.2841;7.2069;
-156.3000;0.2841;7.2046;
-156.0000;0.2873;7.2116;
-155.7000;0.2906;7.2140;
-155.4000;0.2816;7.1998;
-155.1000;0.2857;7.1975;
-154.8000;0.2849;7.2046;
-154.5000;0.2792;7.1927;
-154.2000;0.2833;7.2022;
-153.9000;0.2849;7.2022;
-153.6000;0.2857;7.1975;
-153.3000;0.2816;7.1904;
-153.0000;0.2816;7.1880;
-152.7000;0.2825;7.1975;
-152.4000;0.2841;7.2093;
-152.1000;0.2865;7.2164;
-151.8000;0.2849;7.2093;
-151.5000;0.2849;7.2187;
-151.2000;0.2841;7.2116;
-150.9000;0.2841;7.2116;
-150.6000;0.2873;7.2093;
-150.3000;0.2857;7.2069;
-150.0000;0.2865;7.2235;
-149.7000;0.2882;7.2211;
-149.4000;0.2841;7.2093;
-149.1000;0.2849;7.2093;
-148.8000;0.2841;7.2046;
-148.5000;0.2882;7.2116;
-148.2000;0.2833;7.1880;
-147.9000;0.2816;7.1856;
-147.6000;0.2825;7.1856;
-147.3000;0.2816;7.1856;
-147.0000;0.2841;7.1998;
-146.7000;0.2833;7.1904;
-146.4000;0.2849;7.1975;
-146.1000;0.2849;7.2046;
-145.8000;0.2808;7.1975;
-145.5000;0.2857;7.2140;
-145.2000;0.2833;7.2140;
-144.9000;0.2841;7.2187;
-144.6000;0.2825;7.2164;
-144.3000;0.2825;7.1998;
-144.0000;0.2833;7.1904;
-143.7000;0.2857;7.1998;
-143.4000;0.2849;7.1998;
-143.1000;0.2833;7.1927;
-142.8000;0.2849;7.1951;
-142.5000;0.2849;7.2046;
-142.2000;0.2890;7.2187;
-141.9000;0.2808;7.1998;
-141.6000;0.2792;7.1904;
-141.3000;0.2865;7.2093;
-141.0000;0.2857;7.1998;
-140.7000;0.2857;7.1975;
-140.4000;0.2857;7.1880;
-140.1000;0.2857;7.1880;
-139.8000;0.2873;7.1975;
-139.5000;0.2857;7.1951;
-139.2000;0.2857;7.1880;
-138.9000;0.2857;7.1809;
-138.6000;0.2857;7.1856;
-138.3000;0.2849;7.1904;
-138.0000;0.2857;7.1880;
-137.7000;0.2833;7.1786;
-137.4000;0.2833;7.1691;
-137.1000;0.2833;7.1738;
-136.8000;0.2841;7.1786;
-136.5000;0.2833;7.1738;
-136.2000;0.2825;7.1644;
-135.9000;0.2841;7.1691;
-135.6000;0.2816;7.1644;
-135.3000;0.2833;7.1738;
-135.0000;0.2833;7.1856;
-134.7000;0.2816;7.1833;
-134.4000;0.2776;7.1738;
-134.1000;0.2841;7.1786;
-133.8000;0.2857;7.1856;
-133.5000;0.2890;7.2069;
-133.2000;0.2833;7.1951;
-132.9000;0.2841;7.1951;
-132.6000;0.2825;7.1951;
-132.3000;0.2865;7.2093;
-132.0000;0.2833;7.2022;
-131.7000;0.2865;7.2069;
-131.4000;0.2857;7.1998;
-131.1000;0.2816;7.1975;
-130.8000;0.2849;7.2022;
-130.5000;0.2825;7.1998;
-130.2000;0.2833;7.2022;
-129.9000;0.2759;7.1880;
-129.6000;0.2825;7.2046;
-129.3000;0.2833;7.2069;
-129.0000;0.2816;7.2116;
-128.7000;0.2816;7.2164;
-128.4000;0.2841;7.2282;
-128.1000;0.2816;7.2140;
-127.8000;0.2865;7.2211;
-127.5000;0.2841;7.2046;
-127.2000;0.2833;7.1904;
-126.9000;0.2808;7.1738;
-126.6000;0.2816;7.1738;
-126.3000;0.2808;7.1738;
-126.0000;0.2857;7.1833;
-125.7000;0.2849;7.1904;
-125.4000;0.2865;7.1951;
-125.1000;0.2841;7.1856;
-124.8000;0.2816;7.1786;
-124.5000;0.2849;7.1951;
-124.2000;0.2816;7.1880;
-123.9000;0.2833;7.1927;
-123.6000;0.2841;7.1998;
-123.3000;0.2865;7.2164;
-123.0000;0.2857;7.2069;
-122.7000;0.2849;7.2022;
-122.4000;0.2833;7.2022;
-122.1000;0.2882;7.2093;
-121.8000;0.2833;7.2022;
-121.5000;0.2833;7.1904;
-121.2000;0.2865;7.1951;
-120.9000;0.2857;7.1927;
-120.6000;0.2841;7.1951;
-120.3000;0.2841;7.1998;
-120.0000;0.2768;7.1738;
-119.7000;0.2825;7.1880;
-119.4000;0.2841;7.1880;
-119.1000;0.2898;7.1951;
-118.8000;0.2841;7.1833;
-118.5000;0.2800;7.1762;
-118.2000;0.2849;7.1927;
-117.9000;0.2751;7.1667;
-117.6000;0.2841;7.1880;
-117.3000;0.2759;7.1644;
-117.0000;0.2922;7.1998;
-116.7000;0.2833;7.1786;
-116.4000;0.2841;7.1738;
-116.1000;0.2776;7.1667;
-115.8000;0.2833;7.1786;
-115.5000;0.2841;7.1833;
-115.2000;0.2833;7.1786;
-114.9000;0.2816;7.1786;
-114.6000;0.2727;7.1573;
-114.3000;0.2825;7.1786;
-114.0000;0.2808;7.1738;
-113.7000;0.2849;7.1856;
-113.4000;0.2849;7.1786;
-113.1000;0.2825;7.1738;
-112.8000;0.2833;7.1880;
-112.5000;0.2816;7.1833;
-112.2000;0.2947;7.2211;
-111.9000;0.2841;7.1975;
-111.6000;0.2898;7.2116;
-111.3000;0.2816;7.1809;
-111.0000;0.2833;7.1927;
-110.7000;0.2873;7.2022;
-110.4000;0.2882;7.1975;
-110.1000;0.2833;7.1856;
-109.8000;0.2841;7.1880;
-109.5000;0.2890;7.1998;
-109.2000;0.2906;7.2022;
-108.9000;0.2857;7.1951;
-108.6000;0.2865;7.1927;
-108.3000;0.2800;7.1762;
-108.0000;0.2849;7.1880;
-107.7000;0.2825;7.1809;
-107.4000;0.2849;7.1833;
-107.1000;0.2849;7.1880;
-106.8000;0.2857;7.1880;
-106.5000;0.2849;7.1904;
-106.2000;0.2833;7.1856;
-105.9000;0.2825;7.1904;
-105.6000;0.2816;7.1856;
-105.3000;0.2857;7.1951;
-105.0000;0.2849;7.1833;
-104.7000;0.2865;7.1904;
-104.4000;0.2841;7.1927;
-104.1000;0.2841;7.1880;
-103.8000;0.2833;7.1833;
-103.5000;0.2857;7.1786;
-103.2000;0.2833;7.1691;
-102.9000;0.2825;7.1620;
-102.6000;0.2825;7.1738;
-102.3000;0.2825;7.1809;
-102.0000;0.2825;7.1738;
-101.7000;0.2816;7.1691;
-101.4000;0.2808;7.1596;
-101.1000;0.2833;7.1596;
-100.8000;0.2768;7.1478;
-100.5000;0.2816;7.1667;
-100.2000;0.2841;7.1738;
-99.9000;0.2849;7.1786;
-99.6000;0.2816;7.1786;
-99.3000;0.2841;7.1786;
-99.0000;0.2825;7.1738;
-98.7000;0.2776;7.1596;
-98.4000;0.2841;7.1691;
-98.1000;0.2857;7.1620;
-97.8000;0.2890;7.1667;
-97.5000;0.2808;7.1573;
-97.2000;0.2825;7.1573;
-96.9000;0.2825;7.1644;
-96.6000;0.2833;7.1667;
-96.3000;0.2857;7.1738;
-96.0000;0.2833;7.1691;
-95.7000;0.2849;7.1644;
-95.4000;0.2784;7.1502;
-95.1000;0.2865;7.1573;
-94.8000;0.2800;7.1526;
-94.5000;0.2808;7.1667;
-94.2000;0.2873;7.1833;
-93.9000;0.2841;7.1738;
-93.6000;0.2841;7.1856;
-93.3000;0.2914;7.2069;
-93.0000;0.2865;7.1975;
-92.7000;0.2825;7.1833;
-92.4000;0.2825;7.1691;
-92.1000;0.2857;7.1786;
-91.8000;0.2792;7.1620;
-91.5000;0.2816;7.1667;
-91.2000;0.2800;7.1762;
-90.9000;0.2825;7.1809;
-90.6000;0.2825;7.1786;
-90.3000;0.2841;7.1833;
-90.0000;0.2825;7.1715;
-89.7000;0.2849;7.1809;
-89.4000;0.2792;7.1762;
-89.1000;0.2825;7.1738;
-88.8000;0.2833;7.1738;
-88.5000;0.2825;7.1644;
-88.2000;0.2857;7.1691;
-87.9000;0.2833;7.1691;
-87.6000;0.2841;7.1762;
-87.3000;0.2882;7.1762;
-87.0000;0.2825;7.1667;
-86.7000;0.2857;7.1620;
-86.4000;0.2841;7.1715;
-86.1000;0.2833;7.1762;
-85.8000;0.2841;7.1809;
-85.5000;0.2792;7.1738;
-85.2000;0.2833;7.1738;
-84.9000;0.2865;7.1786;
-84.6000;0.2833;7.1644;
-84.3000;0.2792;7.1573;
-84.0000;0.2841;7.1809;
-83.7000;0.2849;7.1975;
-83.4000;0.2833;7.1880;
-83.1000;0.2841;7.1927;
-82.8000;0.2857;7.1904;
-82.5000;0.2833;7.1833;
-82.2000;0.2849;7.1809;
-81.9000;0.2841;7.1856;
-81.6000;0.2833;7.1904;
-81.3000;0.2849;7.1951;
-81.0000;0.2816;7.1833;
-80.7000;0.2849;7.1951;
-80.4000;0.2865;7.1951;
-80.1000;0.2849;7.1856;
-79.8000;0.2841;7.1786;
-79.5000;0.2849;7.1856;
-79.2000;0.2825;7.1856;
-78.9000;0.2906;7.1951;
-78.6000;0.2833;7.1951;
-78.3000;0.2841;7.1904;
-78.0000;0.2841;7.1856;
-77.7000;0.2833;7.1833;
-77.4000;0.2849;7.1833;
-77.1000;0.2865;7.1975;
-76.8000;0.2833;7.1904;
-76.5000;0.2849;7.1880;
-76.2000;0.2857;7.1904;
-75.9000;0.2833;7.1880;
-75.6000;0.2841;7.1904;
-75.3000;0.2841;7.1856;
-75.0000;0.2841;7.1856;
-74.7000;0.2906;7.2069;
-74.4000;0.2857;7.1856;
-74.1000;0.2800;7.1644;
-73.8000;0.2857;7.1856;
-73.5000;0.2857;7.1927;
-73.2000;0.2808;7.1809;
-72.9000;0.2849;7.1904;
-72.6000;0.2833;7.1856;
-72.3000;0.2841;7.1856;
-72.0000;0.2825;7.1833;
-71.7000;0.2833;7.1833;
-71.4000;0.2857;7.1880;
-71.1000;0.2833;7.1856;
-70.8000;0.2841;7.1833;
-70.5000;0.2800;7.1738;
-70.2000;0.2849;7.1880;
-69.9000;0.2857;7.1904;
-69.6000;0.2865;7.1833;
-69.3000;0.2800;7.1809;
-69.0000;0.2849;7.2022;
-68.7000;0.2865;7.2093;
-68.4000;0.2857;7.1998;
-68.1000;0.2849;7.1880;
-67.8000;0.2800;7.1856;
-67.5000;0.2841;7.1951;
-67.2000;0.2833;7.1904;
-66.9000;0.2849;7.1856;
-66.6000;0.2841;7.1809;
-66.3000;0.2849;7.1833;
-66.0000;0.2857;7.1786;
-65.7000;0.2857;7.1833;
-65.4000;0.2825;7.1715;
-65.1000;0.2841;7.1904;
-64.8000;0.2849;7.1880;
-64.5000;0.2857;7.1951;
-64.2000;0.2849;7.1998;
-63.9000;0.2825;7.2046;
-63.6000;0.2816;7.2022;
-63.3000;0.2865;7.2140;
-63.0000;0.2857;7.2093;
-62.7000;0.2841;7.2069;
-62.4000;0.2784;7.1856;
-62.1000;0.2873;7.2022;
-61.8000;0.2849;7.2046;
-61.5000;0.2873;7.2164;
-61.2000;0.2849;7.2046;
-60.9000;0.2882;7.2069;
-60.6000;0.2890;7.1998;
-60.3000;0.2857;7.1951;
-60.0000;0.2849;7.1951;
-59.7000;0.2857;7.1998;
-59.4000;0.2841;7.2046;
-59.1000;0.2849;7.1951;
-58.8000;0.2841;7.1856;
-58.5000;0.2857;7.1904;
-58.2000;0.2849;7.1951;
-57.9000;0.2849;7.1975;
-57.6000;0.2849;7.1975;
-57.3000;0.2816;7.2046;
-57.0000;0.2833;7.2046;
-56.7000;0.2833;7.2022;
-56.4000;0.2825;7.1998;
-56.1000;0.2849;7.2069;
-55.8000;0.2800;7.1951;
-55.5000;0.2841;7.2046;
-55.2000;0.2841;7.2093;
-54.9000;0.2833;7.2069;
-54.6000;0.2849;7.2093;
-54.3000;0.2849;7.2046;
-54.0000;0.2849;7.2046;
-53.7000;0.2841;7.2069;
-53.4000;0.2939;7.2424;
-53.1000;0.2816;7.2069;
-52.8000;0.2833;7.2093;
-52.5000;0.2816;7.2069;
-52.2000;0.2849;7.2164;
-51.9000;0.2841;7.2164;
-51.6000;0.2825;7.2164;
-51.3000;0.2857;7.2140;
-51.0000;0.2825;7.2116;
-50.7000;0.2841;7.2069;
-50.4000;0.2857;7.2069;
-50.1000;0.2841;7.1975;
-49.8000;0.2849;7.1975;
-49.5000;0.2841;7.1880;
-49.2000;0.2751;7.1667;
-48.9000;0.2825;7.1856;
-48.6000;0.2857;7.1880;
-48.3000;0.2841;7.1786;
-48.0000;0.2833;7.1809;
-47.7000;0.2816;7.1856;
-47.4000;0.2882;7.2046;
-47.1000;0.2792;7.1927;
-46.8000;0.2833;7.2046;
-46.5000;0.2857;7.2116;
-46.2000;0.2849;7.2069;
-45.9000;0.2825;7.1975;
-45.6000;0.2833;7.2046;
-45.3000;0.2825;7.2069;
-45.0000;0.2857;7.1975;
-44.7000;0.2882;7.2046;
-44.4000;0.2849;7.2022;
-44.1000;0.2849;7.2093;
-43.8000;0.2833;7.2022;
-43.5000;0.2914;7.2187;
-43.2000;0.2825;7.1951;
-42.9000;0.2841;7.1951;
-42.6000;0.2833;7.1927;
-42.3000;0.2816;7.1880;
-42.0000;0.2816;7.1927;
-41.7000;0.2825;7.1927;
-41.4000;0.2841;7.2116;
-41.1000;0.2841;7.2022;
-40.8000;0.2833;7.1998;
-40.5000;0.2841;7.2022;
-40.2000;0.2833;7.2022;
-39.9000;0.2841;7.2022;
-39.6000;0.2849;7.2046;
-39.3000;0.2816;7.2046;
-39.0000;0.2808;7.2022;
-38.7000;0.2800;7.2022;
-38.4000;0.2816;7.2116;
-38.1000;0.2849;7.2164;
-37.8000;0.2825;7.2093;
-37.5000;0.2825;7.2093;
-37.2000;0.2849;7.2093;
-36.9000;0.2833;7.2022;
-36.6000;0.2743;7.1880;
-36.3000;0.2825;7.2046;
-36.0000;0.2841;7.2046;
-35.7000;0.2857;7.2022;
-35.4000;0.2816;7.1951;
-35.1000;0.2833;7.1904;
-34.8000;0.2825;7.1880;
-34.5000;0.2849;7.2046;
-34.2000;0.2841;7.1904;
-33.9000;0.2841;7.1951;
-33.6000;0.2800;7.1975;
-33.3000;0.2865;7.2046;
-33.0000;0.2825;7.1998;
-32.7000;0.2816;7.2069;
-32.4000;0.2825;7.2046;
-32.1000;0.2825;7.2069;
-31.8000;0.2857;7.2187;
-31.5000;0.2849;7.2116;
-31.2000;0.2825;7.1904;
-30.9000;0.2833;7.1833;
-30.6000;0.2865;7.1880;
-30.3000;0.2857;7.1809;
-30.0000;0.2857;7.1904;
-29.7000;0.2857;7.1880;
-29.4000;0.2841;7.1880;
-29.1000;0.2857;7.2022;
-28.8000;0.2857;7.1927;
-28.5000;0.2833;7.1904;
-28.2000;0.2857;7.1904;
-27.9000;0.2849;7.1856;
-27.6000;0.2825;7.1809;
-27.3000;0.2833;7.1833;
-27.0000;0.2898;7.2069;
-26.7000;0.2849;7.1927;
-26.4000;0.2833;7.1809;
-26.1000;0.2841;7.1738;
-25.8000;0.2849;7.1786;
-25.5000;0.2873;7.1880;
-25.2000;0.2857;7.1809;
-24.9000;0.2841;7.1833;
-24.6000;0.2849;7.1927;
-24.3000;0.2849;7.1809;
-24.0000;0.2865;7.1856;
-23.7000;0.2816;7.1833;
-23.4000;0.2816;7.1762;
-23.1000;0.2890;7.1880;
-22.8000;0.2833;7.1762;
-22.5000;0.2841;7.1738;
-22.2000;0.2825;7.1762;
-21.9000;0.2833;7.1667;
-21.6000;0.2825;7.1596;
-21.3000;0.2849;7.1644;
-21.0000;0.2825;7.1691;
-20.7000;0.2833;7.1738;
-20.4000;0.2873;7.1856;
-20.1000;0.2841;7.1786;
-19.8000;0.2816;7.1738;
-19.5000;0.2890;7.1927;
-19.2000;0.2833;7.1880;
-18.9000;0.2825;7.1904;
-18.6000;0.2841;7.1880;
-18.3000;0.2816;7.1809;
-18.0000;0.2841;7.1904;
-17.7000;0.2841;7.1927;
-17.4000;0.2833;7.1880;
-17.1000;0.2841;7.1927;
-16.8000;0.2833;7.1975;
-16.5000;0.2890;7.2093;
-16.2000;0.2849;7.1951;
-15.9000;0.2833;7.1951;
-15.6000;0.2833;7.1880;
-15.3000;0.2849;7.1833;
-15.0000;0.2849;7.1880;
-14.7000;0.2857;7.1809;
-14.4000;0.2873;7.1975;
-14.1000;0.2841;7.2069;
-13.8000;0.2841;7.2069;
-13.5000;0.2833;7.2022;
-13.2000;0.2825;7.2046;
-12.9000;0.2849;7.2116;
-12.6000;0.2841;7.2069;
-12.3000;0.2833;7.1951;
-12.0000;0.2857;7.1998;
-11.7000;0.2800;7.1998;
-11.4000;0.2808;7.2022;
-11.1000;0.2825;7.2046;
-10.8000;0.2882;7.2235;
-10.5000;0.2833;7.2069;
-10.2000;0.2849;7.2046;
-9.9000;0.2857;7.2140;
-9.6000;0.2841;7.2116;
-9.3000;0.2849;7.2164;
-9.0000;0.2849;7.2140;
-8.7000;0.2849;7.2116;
-8.4000;0.2849;7.2140;
-8.1000;0.2825;7.2140;
-7.8000;0.2841;7.2187;
-7.5000;0.2833;7.2140;
-7.2000;0.2849;7.2093;
-6.9000;0.2825;7.2022;
-6.6000;0.2825;7.2140;
-6.3000;0.2841;7.2211;
-6.0000;0.2849;7.2282;
-5.7000;0.2833;7.2211;
-5.4000;0.2857;7.2235;
-5.1000;0.2833;7.2235;
-4.8000;0.2833;7.2211;
-4.5000;0.2857;7.2258;
-4.2000;0.2865;7.2282;
-3.9000;0.2849;7.2235;
-3.6000;0.2849;7.2187;
-3.3000;0.2841;7.2069;
-3.0000;0.2800;7.1951;
-2.7000;0.2833;7.1998;
-2.4000;0.2841;7.2046;
-2.1000;0.2873;7.2116;
-1.8000;0.2841;7.2046;
-1.5000;0.2816;7.2022;
-1.2000;0.2800;7.2022;
-0.9000;0.2833;7.2164;
-0.6000;0.2833;7.2282;
-0.3000;0.2882;7.2329;
0.0000;0.2882;7.2329;
0.3000;0.2849;7.1809;
0.6000;0.2955;7.2235;
0.9000;0.2930;7.2211;
1.2000;0.2979;7.2400;
1.5000;0.2971;7.2518;
1.8000;0.3004;7.2636;
2.1000;0.3069;7.2707;
2.4000;0.3053;7.2826;
2.7000;0.3061;7.2731;
3.0000;0.3069;7.2778;
3.3000;0.3061;7.2920;
3.6000;0.3077;7.2944;
3.9000;0.3077;7.3015;
4.2000;0.3061;7.3133;
4.5000;0.3101;7.3251;
4.8000;0.3053;7.3156;
5.1000;0.3036;7.3227;
5.4000;0.3158;7.3582;
5.7000;0.3118;7.3417;
6.0000;0.3109;7.3464;
6.3000;0.3118;7.3511;
6.6000;0.3142;7.3582;
6.9000;0.3109;7.3464;
7.2000;0.3118;7.3440;
7.5000;0.3118;7.3393;
7.8000;0.3134;7.3346;
8.1000;0.3118;7.3346;
8.4000;0.3109;7.3369;
8.7000;0.3109;7.3298;
9.0000;0.3109;7.3369;
9.3000;0.3134;7.3322;
9.6000;0.3118;7.3322;
9.9000;0.3166;7.3464;
10.2000;0.3109;7.3322;
10.5000;0.3142;7.3369;
10.8000;0.3134;7.3464;
11.1000;0.3142;7.3417;
11.4000;0.3150;7.3275;
11.7000;0.3142;7.3204;
12.0000;0.3134;7.3062;
12.3000;0.3158;7.3180;
12.6000;0.3150;7.3204;
12.9000;0.3109;7.3133;
13.2000;0.3150;7.3275;
13.5000;0.3126;7.3204;
13.8000;0.3158;7.3251;
14.1000;0.3142;7.3322;
14.4000;0.3109;7.3346;
14.7000;0.3191;7.3487;
15.0000;0.3158;7.3417;
15.3000;0.3175;7.3369;
15.6000;0.3150;7.3298;
15.9000;0.3166;7.3204;
16.2000;0.3191;7.3298;
16.5000;0.3175;7.3346;
16.8000;0.3183;7.3393;
17.1000;0.3264;7.3606;
17.4000;0.3191;7.3464;
17.7000;0.3142;7.3298;
18.0000;0.3183;7.3440;
18.3000;0.3183;7.3417;
18.6000;0.3183;7.3393;
18.9000;0.3175;7.3440;
19.2000;0.3215;7.3440;
19.5000;0.3207;7.3369;
19.8000;0.3183;7.3251;
20.1000;0.3191;7.3251;
20.4000;0.3199;7.3346;
20.7000;0.3142;7.3251;
21.0000;0.3199;7.3322;
21.3000;0.3199;7.3369;
21.6000;0.3183;7.3369;
21.9000;0.3191;7.3440;
22.2000;0.3191;7.3511;
22.5000;0.3207;7.3558;
22.8000;0.3175;7.3511;
23.1000;0.3183;7.3511;
23.4000;0.3256;7.3700;
23.7000;0.3207;7.3558;
24.0000;0.3215;7.3653;
24.3000;0.3272;7.3771;
24.6000;0.3199;7.3629;
24.9000;0.3191;7.3582;
25.2000;0.3223;7.3582;
25.5000;0.3199;7.3440;
25.8000;0.3183;7.3487;
26.1000;0.3207;7.3535;
26.4000;0.3191;7.3487;
26.7000;0.3207;7.3417;
27.0000;0.3215;7.3417;
27.3000;0.3207;7.3464;
27.6000;0.3215;7.3535;
27.9000;0.3199;7.3582;
28.2000;0.3223;7.3487;
28.5000;0.3256;7.3582;
28.8000;0.3207;7.3440;
29.1000;0.3240;7.3535;
29.4000;0.3223;7.3487;
29.7000;0.3207;7.3535;
30.0000;0.3223;7.3464;
30.3000;0.3232;7.3487;
30.6000;0.3346;7.3866;
30.9000;0.3223;7.3417;
31.2000;0.3223;7.3393;
31.5000;0.3175;7.3346;
31.8000;0.3232;7.3535;
32.1000;0.3223;7.3487;
32.4000;0.3215;7.3440;
32.7000;0.3215;7.3417;
33.0000;0.3240;7.3440;
33.3000;0.3207;7.3393;
33.6000;0.3207;7.3417;
33.9000;0.3232;7.3487;
34.2000;0.3232;7.3487;
34.5000;0.3232;7.3464;
34.8000;0.3248;7.3487;
35.1000;0.3256;7.3440;
35.4000;0.3264;7.3417;
35.7000;0.3232;7.3369;
36.0000;0.3232;7.3369;
36.3000;0.3223;7.3417;
36.6000;0.3240;7.3298;
36.9000;0.3248;7.3322;
37.2000;0.3240;7.3298;
37.5000;0.3240;7.3346;
37.8000;0.3248;7.3322;
38.1000;0.3256;7.3251;
38.4000;0.3223;7.3180;
38.7000;0.3264;7.3322;
39.0000;0.3248;7.3275;
39.3000;0.3223;7.3251;
39.6000;0.3256;7.3298;
39.9000;0.3223;7.3275;
40.2000;0.3240;7.3417;
40.5000;0.3248;7.3487;
40.8000;0.3264;7.3487;
41.1000;0.3232;7.3487;
41.4000;0.3240;7.3464;
41.7000;0.3256;7.3558;
42.0000;0.3240;7.3487;
42.3000;0.3207;7.3440;
42.6000;0.3240;7.3606;
42.9000;0.3215;7.3558;
43.2000;0.3264;7.3747;
43.5000;0.3280;7.3724;
43.8000;0.3248;7.3677;
44.1000;0.3240;7.3582;
44.4000;0.3248;7.3511;
44.7000;0.3232;7.3417;
45.0000;0.3256;7.3511;
45.3000;0.3256;7.3464;
45.6000;0.3256;7.3440;
45.9000;0.3215;7.3204;
46.2000;0.3248;7.3275;
46.5000;0.3248;7.3227;
46.8000;0.3191;7.3109;
47.1000;0.3240;7.3369;
47.4000;0.3264;7.3440;
47.7000;0.3207;7.3369;
48.0000;0.3289;7.3558;
48.3000;0.3199;7.3322;
48.6000;0.3256;7.3440;
48.9000;0.3256;7.3558;
49.2000;0.3272;7.3558;
49.5000;0.3305;7.3558;
49.8000;0.3248;7.3417;
50.1000;0.3240;7.3464;
50.4000;0.3256;7.3487;
50.7000;0.3264;7.3464;
51.0000;0.3256;7.3369;
51.3000;0.3280;7.3511;
51.6000;0.3272;7.3511;
51.9000;0.3272;7.3558;
52.2000;0.3272;7.3582;
52.5000;0.3207;7.3464;
52.8000;0.3272;7.3558;
53.1000;0.3248;7.3487;
53.4000;0.3240;7.3487;
53.7000;0.3240;7.3487;
54.0000;0.3248;7.3535;
54.3000;0.3264;7.3582;
54.6000;0.3256;7.3511;
54.9000;0.3256;7.3535;
55.2000;0.3280;7.3511;
55.5000;0.3264;7.3440;
55.8000;0.3305;7.3558;
56.1000;0.3280;7.3464;
56.4000;0.3264;7.3440;
56.7000;0.3240;7.3346;
57.0000;0.3280;7.3417;
57.3000;0.3264;7.3369;
57.6000;0.3305;7.3487;
57.9000;0.3264;7.3440;
58.2000;0.3248;7.3417;
58.5000;0.3264;7.3322;
58.8000;0.3248;7.3298;
59.1000;0.3256;7.3369;
59.4000;0.3248;7.3298;
59.7000;0.3207;7.3227;
60.0000;0.3248;7.3227;
60.3000;0.3289;7.3393;
60.6000;0.3289;7.3440;
60.9000;0.3337;7.3582;
61.2000;0.3256;7.3440;
61.5000;0.3248;7.3487;
61.8000;0.3256;7.3535;
62.1000;0.3256;7.3582;
62.4000;0.3272;7.3582;
62.7000;0.3223;7.3440;
63.0000;0.3297;7.3582;
63.3000;0.3223;7.3464;
63.6000;0.3248;7.3417;
63.9000;0.3232;7.3346;
64.2000;0.3272;7.3369;
64.5000;0.3289;7.3417;
64.8000;0.3256;7.3322;
65.1000;0.3264;7.3369;
65.4000;0.3240;7.3346;
65.7000;0.3272;7.3275;
66.0000;0.3272;7.3369;
66.3000;0.3272;7.3369;
66.6000;0.3248;7.3227;
66.9000;0.3272;7.3298;
67.2000;0.3264;7.3251;
67.5000;0.3248;7.3251;
67.8000;0.3280;7.3322;
68.1000;0.3264;7.3298;
68.4000;0.3256;7.3275;
68.7000;0.3272;7.3369;
69.0000;0.3223;7.3275;
69.3000;0.3280;7.3322;
69.6000;0.3256;7.3298;
69.9000;0.3264;7.3346;
70.2000;0.3280;7.3322;
70.5000;0.3272;7.3322;
70.8000;0.3272;7.3346;
71.1000;0.3313;7.3346;
71.4000;0.3280;7.3298;
71.7000;0.3272;7.3227;
72.0000;0.3272;7.3180;
72.3000;0.3313;7.3369;
72.6000;0.3280;7.3275;
72.9000;0.3280;7.3227;
73.2000;0.3370;7.3487;
73.5000;0.3280;7.3346;
73.8000;0.3264;7.3346;
74.1000;0.3264;7.3369;
74.4000;0.3264;7.3346;
74.7000;0.3264;7.3346;
75.0000;0.3280;7.3369;
75.3000;0.3264;7.3440;
75.6000;0.3272;7.3487;
75.9000;0.3289;7.3558;
76.2000;0.3280;7.3558;
76.5000;0.3248;7.3511;
76.8000;0.3256;7.3582;
77.1000;0.3321;7.3653;
77.4000;0.3248;7.3440;
77.7000;0.3248;7.3369;
78.0000;0.3199;7.3133;
78.3000;0.3232;7.3204;
78.6000;0.3264;7.3346;
78.9000;0.3289;7.3369;
79.2000;0.3272;7.3393;
79.5000;0.3256;7.3464;
79.8000;0.3280;7.3511;
80.1000;0.3264;7.3417;
80.4000;0.3264;7.3393;
80.7000;0.3272;7.3369;
81.0000;0.3297;7.3440;
81.3000;0.3280;7.3464;
81.6000;0.3280;7.3440;
81.9000;0.3264;7.3487;
82.2000;0.3272;7.3464;
82.5000;0.3321;7.3535;
82.8000;0.3289;7.3464;
83.1000;0.3264;7.3369;
83.4000;0.3272;7.3417;
83.7000;0.3297;7.3440;
84.0000;0.3272;7.3346;
84.3000;0.3272;7.3298;
84.6000;0.3264;7.3275;
84.9000;0.3346;7.3440;
85.2000;0.3280;7.3227;
85.5000;0.3256;7.3038;
85.8000;0.3289;7.3062;
86.1000;0.3280;7.3109;
86.4000;0.3289;7.3180;
86.7000;0.3272;7.3180;
87.0000;0.3272;7.3227;
87.3000;0.3280;7.3275;
87.6000;0.3280;7.3275;
87.9000;0.3264;7.3275;
88.2000;0.3264;7.3251;
88.5000;0.3264;7.3251;
88.8000;0.3289;7.3393;
89.1000;0.3264;7.3369;
89.4000;0.3256;7.3393;
89.7000;0.3280;7.3417;
90.0000;0.3354;7.3582;
90.3000;0.3280;7.3487;
90.6000;0.3264;7.3393;
90.9000;0.3321;7.3487;
91.2000;0.3337;7.3582;
91.5000;0.3297;7.3535;
91.8000;0.3280;7.3440;
92.1000;0.3272;7.3487;
92.4000;0.3272;7.3558;
92.7000;0.3264;7.3511;
93.0000;0.3329;7.3629;
93.3000;0.3215;7.3298;
93.6000;0.3256;7.3393;
93.9000;0.3264;7.3346;
94.2000;0.3248;7.3322;
94.5000;0.3272;7.3346;
94.8000;0.3272;7.3346;
95.1000;0.3272;7.3275;
95.4000;0.3305;7.3251;
95.7000;0.3280;7.3180;
96.0000;0.3256;7.3062;
96.3000;0.3289;7.3275;
96.6000;0.3280;7.3322;
96.9000;0.3264;7.3275;
97.2000;0.3297;7.3369;
97.5000;0.3313;7.3417;
97.8000;0.3264;7.3346;
98.1000;0.3289;7.3464;
98.4000;0.3289;7.3417;
98.7000;0.3264;7.3369;
99.0000;0.3280;7.3417;
99.3000;0.3280;7.3393;
99.6000;0.3256;7.3227;
99.9000;0.3280;7.3322;
100.2000;0.3280;7.3393;
100.5000;0.3264;7.3393;
100.8000;0.3256;7.3322;
101.1000;0.3264;7.3251;
101.4000;0.3264;7.3298;
101.7000;0.3272;7.3417;
102.0000;0.3289;7.3464;
102.3000;0.3280;7.3487;
102.6000;0.3280;7.3511;
102.9000;0.3280;7.3464;
103.2000;0.3272;7.3440;
103.5000;0.3280;7.3417;
103.8000;0.3272;7.3464;
104.1000;0.3305;7.3487;
104.4000;0.3264;7.3393;
104.7000;0.3321;7.3487;
105.0000;0.3297;7.3322;
105.3000;0.3232;7.3275;
105.6000;0.3280;7.3535;
105.9000;0.3272;7.3464;
106.2000;0.3289;7.3275;
106.5000;0.3370;7.3558;
106.8000;0.3305;7.3322;
107.1000;0.3272;7.3251;
107.4000;0.3272;7.3298;
107.7000;0.3280;7.3322;
108.0000;0.3272;7.3227;
108.3000;0.3264;7.3251;
108.6000;0.3280;7.3298;
108.9000;0.3280;7.3275;
109.2000;0.3280;7.3298;
109.5000;0.3280;7.3369;
109.8000;0.3256;7.3369;
110.1000;0.3280;7.3417;
110.4000;0.3305;7.3487;
110.7000;0.3272;7.3440;
111.0000;0.3256;7.3393;
111.3000;0.3272;7.3369;
111.6000;0.3280;7.3346;
111.9000;0.3297;7.3369;
112.2000;0.3280;7.3180;
112.5000;0.3289;7.3204;
112.8000;0.3264;7.3251;
113.1000;0.3346;7.3440;
113.4000;0.3280;7.3322;
113.7000;0.3280;7.3322;
114.0000;0.3223;7.3227;
114.3000;0.3297;7.3251;
114.6000;0.3232;7.3062;
114.9000;0.3272;7.3227;
115.2000;0.3280;7.3346;
115.5000;0.3289;7.3417;
115.8000;0.3297;7.3511;
116.1000;0.3297;7.3606;
116.4000;0.3280;7.3606;
116.7000;0.3264;7.3582;
117.0000;0.3313;7.3606;
117.3000;0.3297;7.3417;
117.6000;0.3378;7.3558;
117.9000;0.3272;7.3227;
118.2000;0.3321;7.3251;
118.5000;0.3289;7.3251;
118.8000;0.3264;7.3346;
119.1000;0.3272;7.3369;
119.4000;0.3305;7.3511;
119.7000;0.3215;7.3298;
120.0000;0.3256;7.3393;
120.3000;0.3280;7.3346;
120.6000;0.3272;7.3393;
120.9000;0.3272;7.3346;
121.2000;0.3289;7.3417;
121.5000;0.3215;7.3322;
121.8000;0.3256;7.3464;
122.1000;0.3289;7.3511;
122.4000;0.3264;7.3417;
122.7000;0.3289;7.3440;
123.0000;0.3289;7.3417;
123.3000;0.3199;7.3251;
123.6000;0.3280;7.3440;
123.9000;0.3297;7.3393;
124.2000;0.3264;7.3322;
124.5000;0.3337;7.3511;
124.8000;0.3305;7.3440;
125.1000;0.3289;7.3322;
125.4000;0.3305;7.3487;
125.7000;0.3280;7.3511;
126.0000;0.3272;7.3440;
126.3000;0.3289;7.3440;
126.6000;0.3264;7.3440;
126.9000;0.3272;7.3511;
127.2000;0.3289;7.3535;
127.5000;0.3248;7.3322;
127.8000;0.3272;7.3464;
128.1000;0.3272;7.3440;
128.4000;0.3280;7.3393;
128.7000;0.3256;7.3275;
129.0000;0.3280;7.3251;
129.3000;0.3272;7.3346;
129.6000;0.3272;7.3417;
129.9000;0.3272;7.3417;
130.2000;0.3223;7.3346;
130.5000;0.3289;7.3487;
130.8000;0.3280;7.3558;
131.1000;0.3272;7.3535;
131.4000;0.3297;7.3558;
131.7000;0.3280;7.3440;
132.0000;0.3264;7.3440;
132.3000;0.3272;7.3464;
132.6000;0.3289;7.3511;
132.9000;0.3264;7.3417;
133.2000;0.3289;7.3511;
133.5000;0.3256;7.3511;
133.8000;0.3256;7.3487;
134.1000;0.3256;7.3393;
134.4000;0.3280;7.3417;
134.7000;0.3272;7.3440;
135.0000;0.3280;7.3464;
135.3000;0.3280;7.3464;
135.6000;0.3297;7.3487;
135.9000;0.3240;7.3322;
136.2000;0.3280;7.3417;
136.5000;0.3305;7.3417;
136.8000;0.3362;7.3558;
137.1000;0.3337;7.3558;
137.4000;0.3232;7.3251;
137.7000;0.3232;7.3322;
138.0000;0.3280;7.3417;
138.3000;0.3280;7.3440;
138.6000;0.3289;7.3369;
138.9000;0.3248;7.3322;
139.2000;0.3297;7.3369;
139.5000;0.3272;7.3298;
139.8000;0.3272;7.3322;
140.1000;0.3280;7.3275;
140.4000;0.3272;7.3227;
140.7000;0.3175;7.2991;
141.0000;0.3289;7.3369;
141.3000;0.3305;7.3322;
141.6000;0.3289;7.3298;
141.9000;0.3289;7.3322;
142.2000;0.3289;7.3346;
142.5000;0.3297;7.3393;
142.8000;0.3264;7.3440;
143.1000;0.3272;7.3487;
143.4000;0.3289;7.3487;
143.7000;0.3280;7.3440;
144.0000;0.3264;7.3464;
144.3000;0.3305;7.3558;
144.6000;0.3280;7.3535;
144.9000;0.3289;7.3487;
145.2000;0.3313;7.3487;
145.5000;0.3280;7.3464;
145.8000;0.3289;7.3417;
146.1000;0.3313;7.3369;
146.4000;0.3256;7.3251;
146.7000;0.3289;7.3393;
147.0000;0.3289;7.3322;
147.3000;0.3313;7.3440;
147.6000;0.3272;7.3511;
147.9000;0.3289;7.3582;
148.2000;0.3272;7.3440;
148.5000;0.3280;7.3369;
148.8000;0.3272;7.3487;
149.1000;0.3337;7.3653;
149.4000;0.3256;7.3369;
149.7000;0.3272;7.3346;
150.0000;0.3256;7.3346;
150.3000;0.3280;7.3393;
150.6000;0.3272;7.3393;
150.9000;0.3289;7.3393;
151.2000;0.3289;7.3322;
151.5000;0.3297;7.3322;
151.8000;0.3297;7.3275;
152.1000;0.3289;7.3275;
152.4000;0.3272;7.3251;
152.7000;0.3313;7.3322;
153.0000;0.3297;7.3298;
153.3000;0.3289;7.3227;
153.6000;0.3329;7.3322;
153.9000;0.3264;7.3180;
154.2000;0.3280;7.3251;
154.5000;0.3240;7.3109;
154.8000;0.3240;7.3156;
155.1000;0.3289;7.3133;
155.4000;0.3272;7.3109;
155.7000;0.3329;7.3251;
156.0000;0.3256;7.3109;
156.3000;0.3289;7.3133;
156.6000;0.3305;7.3227;
156.9000;0.3305;7.3227;
157.2000;0.3264;7.3227;
157.5000;0.3289;7.3251;
157.8000;0.3354;7.3417;
158.1000;0.3264;7.3227;
158.4000;0.3207;7.3015;
158.7000;0.3272;7.3109;
159.0000;0.3272;7.3156;
159.3000;0.3248;7.3227;
159.6000;0.3272;7.3227;
159.9000;0.3256;7.3086;
160.2000;0.3272;7.3086;
160.5000;0.3280;7.3086;
160.8000;0.3321;7.3133;
161.1000;0.3289;7.3038;
161.4000;0.3280;7.3062;
161.7000;0.3289;7.3180;
162.0000;0.3272;7.3156;
162.3000;0.3264;7.3086;
162.6000;0.3305;7.3156;
162.9000;0.3280;7.3062;
163.2000;0.3272;7.3156;
163.5000;0.3272;7.3133;
163.8000;0.3280;7.3038;
164.1000;0.3289;7.3109;
164.4000;0.3264;7.3038;
164.7000;0.3280;7.3086;
165.0000;0.3289;7.3156;
165.3000;0.3280;7.3109;
165.6000;0.3305;7.3251;
165.9000;0.3305;7.3322;
166.2000;0.3272;7.3275;
166.5000;0.3305;7.3322;
166.8000;0.3289;7.3156;
167.1000;0.3305;7.3180;
167.4000;0.3289;7.3062;
167.7000;0.3280;7.3038;
168.0000;0.3280;7.3180;
168.3000;0.3272;7.3251;
168.6000;0.3264;7.3204;
168.9000;0.3289;7.3275;
169.2000;0.3280;7.3180;
169.5000;0.3289;7.3227;
169.8000;0.3280;7.3180;
170.1000;0.3280;7.3251;
170.4000;0.3321;7.3346;
170.7000;0.3272;7.3204;
171.0000;0.3256;7.3133;
171.3000;0.3272;7.3180;
171.6000;0.3289;7.3204;
171.9000;0.3280;7.3156;
172.2000;0.3272;7.3180;
172.5000;0.3354;7.3417;
172.8000;0.3289;7.3275;
173.1000;0.3289;7.3251;
173.4000;0.3280;7.3156;
173.7000;0.3280;7.3156;
174.0000;0.3297;7.3180;
174.3000;0.3264;7.3133;
174.6000;0.3289;7.3251;
174.9000;0.3297;7.3086;
175.2000;0.3297;7.2967;
175.5000;0.3280;7.2967;
175.8000;0.3272;7.2967;
176.1000;0.3272;7.2991;
176.4000;0.3256;7.2944;
176.7000;0.3297;7.3086;
177.0000;0.3264;7.2920;
177.3000;0.3280;7.3015;
177.6000;0.3215;7.2920;
177.9000;0.3305;7.3156;
178.2000;0.3272;7.3109;
178.5000;0.3240;7.2991;
178.8000;0.3256;7.3062;
179.1000;0.3272;7.3133;
179.4000;0.3264;7.3086;
179.7000;0.3264;7.3086;
180.0000;0.3272;7.3180;
180.3000;0.3264;7.3180;
180.6000;0.3370;7.3535;
180.9000;0.3272;7.3322;
181.2000;0.3280;7.3227;
181.5000;0.3264;7.3180;
181.8000;0.3280;7.3180;
182.1000;0.3280;7.3062;
182.4000;0.3280;7.2967;
182.7000;0.3264;7.2991;
183.0000;0.3264;7.2967;
183.3000;0.3223;7.2896;
183.6000;0.3264;7.3015;
183.9000;0.3232;7.2944;
184.2000;0.3280;7.3015;
184.5000;0.3240;7.2896;
184.8000;0.3280;7.3038;
185.1000;0.3272;7.2920;
185.4000;0.3329;7.3062;
185.7000;0.3289;7.3015;
186.0000;0.3232;7.2944;
186.3000;0.3321;7.3156;
186.6000;0.3280;7.3156;
186.9000;0.3354;7.3275;
187.2000;0.3280;7.3086;
187.5000;0.3256;7.3086;
187.8000;0.3264;7.2991;
188.1000;0.3289;7.2991;
188.4000;0.3272;7.2944;
188.7000;0.3264;7.3038;
189.0000;0.3289;7.3156;
189.3000;0.3297;7.3204;
189.6000;0.3272;7.3204;
189.9000;0.3289;7.3109;
190.2000;0.3280;7.3109;
190.5000;0.3305;7.3227;
190.8000;0.3305;7.3275;
191.1000;0.3313;7.3417;
191.4000;0.3240;7.3346;
191.7000;0.3272;7.3369;
192.0000;0.3305;7.3417;
192.3000;0.3272;7.3251;
192.6000;0.3280;7.3156;
192.9000;0.3305;7.3133;
193.2000;0.3297;7.3180;
193.5000;0.3321;7.3251;
193.8000;0.3280;7.3251;
194.1000;0.3280;7.3369;
194.4000;0.3158;7.3109;
194.7000;0.3264;7.3298;
195.0000;0.3264;7.3298;
195.3000;0.3272;7.3251;
195.6000;0.3289;7.3393;
195.9000;0.3280;7.3417;
196.2000;0.3272;7.3346;
196.5000;0.3280;7.3393;
196.8000;0.3280;7.3417;
197.1000;0.3280;7.3346;
197.4000;0.3280;7.3346;
197.7000;0.3297;7.3275;
198.0000;0.3272;7.3133;
198.3000;0.3337;7.3322;
198.6000;0.3297;7.3180;
198.9000;0.3272;7.3227;
199.2000;0.3289;7.3156;
199.5000;0.3248;7.3038;
199.8000;0.3313;7.3180;
200.1000;0.3272;7.3109;
200.4000;0.3256;7.3133;
200.7000;0.3280;7.3251;
201.0000;0.3280;7.3346;
201.3000;0.3297;7.3369;
201.6000;0.3272;7.3227;
201.9000;0.3264;7.3204;
202.2000;0.3280;7.3251;
202.5000;0.3280;7.3251;
202.8000;0.3313;7.3322;
203.1000;0.3289;7.3227;
203.4000;0.3297;7.3298;
203.7000;0.3272;7.3227;
204.0000;0.3264;7.3109;
204.3000;0.3346;7.3346;
204.6000;0.3305;7.3251;
204.9000;0.3264;7.3204;
205.2000;0.3272;7.3227;
205.5000;0.3272;7.3275;
205.8000;0.3264;7.3227;
206.1000;0.3370;7.3464;
206.4000;0.3264;7.3275;
206.7000;0.3272;7.3369;
207.0000;0.3248;7.3322;
207.3000;0.3305;7.3417;
207.6000;0.3272;7.3275;
207.9000;0.3264;7.3204;
208.2000;0.3354;7.3487;
208.5000;0.3378;7.3582;
208.8000;0.3297;7.3346;
209.1000;0.3289;7.3346;
209.4000;0.3329;7.3440;
209.7000;0.3297;7.3298;
210.0000;0.3280;7.3204;
210.3000;0.3305;7.3204;
210.6000;0.3297;7.3180;
210.9000;0.3305;7.3133;
211.2000;0.3297;7.3156;
211.5000;0.3297;7.3156;
211.8000;0.3403;7.3464;
212.1000;0.3297;7.3251;
212.4000;0.3321;7.3369;
212.7000;0.3280;7.3298;
213.0000;0.3272;7.3322;
213.3000;0.3272;7.3346;
213.6000;0.3272;7.3298;
213.9000;0.3280;7.3275;
214.2000;0.3280;7.3251;
214.5000;0.3337;7.3322;
214.8000;0.3297;7.3227;
215.1000;0.3272;7.3062;
215.4000;0.3297;7.3086;
215.7000;0.3264;7.3015;
216.0000;0.3272;7.2944;
216.3000;0.3280;7.3015;
216.6000;0.3280;7.3015;
216.9000;0.3305;7.3038;
217.2000;0.3297;7.3086;
217.5000;0.3240;7.3062;
217.8000;0.3280;7.3038;
218.1000;0.3280;7.3062;
218.4000;0.3280;7.2944;
218.7000;0.3297;7.2991;
219.0000;0.3289;7.3015;
219.3000;0.3264;7.3038;
219.6000;0.3272;7.3133;
219.9000;0.3272;7.3133;
220.2000;0.3280;7.3180;
220.5000;0.3280;7.3227;
220.8000;0.3280;7.3393;
221.1000;0.3280;7.3346;
221.4000;0.3297;7.3251;
221.7000;0.3280;7.3204;
222.0000;0.3280;7.3227;
222.3000;0.3313;7.3346;
222.6000;0.3289;7.3322;
222.9000;0.3280;7.3275;
223.2000;0.3280;7.3298;
223.5000;0.3305;7.3346;
223.8000;0.3297;7.3275;
224.1000;0.3289;7.3180;
224.4000;0.3289;7.3322;
224.7000;0.3272;7.3369;
225.0000;0.3280;7.3298;
225.3000;0.3280;7.3346;
225.6000;0.3248;7.3346;
225.9000;0.3240;7.3322;
226.2000;0.3289;7.3346;
226.5000;0.3289;7.3393;
226.8000;0.3272;7.3251;
227.1000;0.3272;7.3204;
227.4000;0.3280;7.3322;
227.7000;0.3321;7.3464;
228.0000;0.3264;7.3298;
228.3000;0.3207;7.3298;
228.6000;0.3289;7.3535;
228.9000;0.3272;7.3440;
229.2000;0.3280;7.3464;
229.5000;0.3289;7.3558;
229.8000;0.3264;7.3582;
230.1000;0.3272;7.3677;
230.4000;0.3264;7.3582;
230.7000;0.3256;7.3511;
231.0000;0.3264;7.3464;
231.3000;0.3272;7.3464;
231.6000;0.3289;7.3535;
231.9000;0.3289;7.3535;
232.2000;0.3248;7.3487;
232.5000;0.3280;7.3582;
232.8000;0.3248;7.3464;
233.1000;0.3313;7.3487;
233.4000;0.3346;7.3558;
233.7000;0.3215;7.3227;
234.0000;0.3199;7.3156;
234.3000;0.3346;7.3606;
234.6000;0.3240;7.3393;
234.9000;0.3297;7.3535;
235.2000;0.3289;7.3535;
235.5000;0.3191;7.3298;
235.8000;0.3223;7.3275;
236.1000;0.3215;7.3204;
236.4000;0.3280;7.3464;
236.7000;0.3280;7.3417;
237.0000;0.3272;7.3393;
237.3000;0.3297;7.3417;
237.6000;0.3297;7.3346;
237.9000;0.3289;7.3417;
238.2000;0.3280;7.3487;
238.5000;0.3272;7.3322;
238.8000;0.3289;7.3369;
239.1000;0.3289;7.3322;
239.4000;0.3264;7.3227;
239.7000;0.3264;7.3204;
240.0000;0.3329;7.3464;
240.3000;0.3329;7.3346;
240.6000;0.3191;7.2991;
240.9000;0.3313;7.3251;
241.2000;0.3337;7.3393;
241.5000;0.3272;7.3204;
241.8000;0.3289;7.3180;
242.1000;0.3289;7.3133;
242.4000;0.3256;7.3015;
242.7000;0.3313;7.3227;
243.0000;0.3297;7.3109;
243.3000;0.3272;7.3038;
243.6000;0.3264;7.3109;
243.9000;0.3272;7.3180;
244.2000;0.3248;7.3086;
244.5000;0.3272;7.3086;
244.8000;0.3272;7.3038;
245.1000;0.3264;7.3038;
245.4000;0.3305;7.3227;
245.7000;0.3240;7.3133;
246.0000;0.3272;7.3133;
246.3000;0.3280;7.3133;
246.6000;0.3280;7.3156;
246.9000;0.3305;7.3227;
247.2000;0.3280;7.3227;
247.5000;0.3289;7.3156;
247.8000;0.3232;7.3015;
248.1000;0.3289;7.3109;
248.4000;0.3289;7.3156;
248.7000;0.3207;7.3086;
249.0000;0.3272;7.3251;
249.3000;0.3289;7.3251;
249.6000;0.3223;7.3109;
249.9000;0.3256;7.3180;
250.2000;0.3272;7.3086;
250.5000;0.3272;7.3062;
250.8000;0.3248;7.3180;
251.1000;0.3280;7.3204;
251.4000;0.3272;7.3251;
251.7000;0.3256;7.3275;
252.0000;0.3264;7.3322;
252.3000;0.3346;7.3440;
252.6000;0.3313;7.3322;
252.9000;0.3289;7.3346;
253.2000;0.3272;7.3322;
253.5000;0.3280;7.3346;
253.8000;0.3232;7.3227;
254.1000;0.3289;7.3322;
254.4000;0.3297;7.3393;
254.7000;0.3346;7.3511;
255.0000;0.3264;7.3298;
255.3000;0.3272;7.3346;
255.6000;0.3264;7.3298;
255.9000;0.3280;7.3298;
256.2000;0.3240;7.3180;
256.5000;0.3280;7.3227;
256.8000;0.3256;7.3180;
257.1000;0.3191;7.3015;
257.4000;0.3321;7.3298;
257.7000;0.3289;7.3298;
258.0000;0.3297;7.3204;
258.3000;0.3297;7.3204;
258.6000;0.3329;7.3227;
258.9000;0.3272;7.3156;
259.2000;0.3297;7.3204;
259.5000;0.3305;7.3227;
259.8000;0.3280;7.3086;
260.1000;0.3297;7.3180;
260.4000;0.3297;7.3133;
260.7000;0.3289;7.3109;
261.0000;0.3264;7.3062;
261.3000;0.3289;7.3109;
261.6000;0.3289;7.3133;
261.9000;0.3280;7.3156;
262.2000;0.3280;7.3180;
262.5000;0.3272;7.3109;
262.8000;0.3272;7.3062;
263.1000;0.3264;7.3015;
263.4000;0.3272;7.3062;
263.7000;0.3272;7.3015;
264.0000;0.3280;7.3038;
264.3000;0.3289;7.2991;
264.6000;0.3280;7.2967;
264.9000;0.3264;7.2896;
265.2000;0.3256;7.2944;
265.5000;0.3264;7.3086;
265.8000;0.3272;7.3133;
266.1000;0.3248;7.3133;
266.4000;0.3256;7.3227;
266.7000;0.3289;7.3275;
267.0000;0.3272;7.3180;
267.3000;0.3289;7.3180;
267.6000;0.3240;7.3109;
267.9000;0.3264;7.3298;
268.2000;0.3313;7.3369;
268.5000;0.3280;7.3251;
268.8000;0.3289;7.3275;
269.1000;0.3289;7.3298;
269.4000;0.3313;7.3322;
269.7000;0.3248;7.3180;
270.0000;0.3272;7.3227;
270.3000;0.3272;7.3275;
270.6000;0.3264;7.3275;
270.9000;0.3280;7.3275;
271.2000;0.3232;7.3180;
271.5000;0.3264;7.3251;
271.8000;0.3264;7.3251;
272.1000;0.3297;7.3298;
272.4000;0.3297;7.3275;
272.7000;0.3264;7.3251;
273.0000;0.3272;7.3393;
273.3000;0.3321;7.3487;
273.6000;0.3280;7.3464;
273.9000;0.3346;7.3606;
274.2000;0.3215;7.3227;
274.5000;0.3297;7.3417;
274.8000;0.3280;7.3298;
275.1000;0.3289;7.3322;
275.4000;0.3289;7.3298;
275.7000;0.3232;7.3133;
276.0000;0.3280;7.3275;
276.3000;0.3289;7.3298;
276.6000;0.3297;7.3393;
276.9000;0.3272;7.3298;
277.2000;0.3305;7.3393;
277.5000;0.3297;7.3322;
277.8000;0.3280;7.3275;
278.1000;0.3272;7.3298;
278.4000;0.3305;7.3275;
278.7000;0.3280;7.3204;
279.0000;0.3264;7.3086;
279.3000;0.3272;7.3133;
279.6000;0.3272;7.3204;
279.9000;0.3280;7.3251;
280.2000;0.3272;7.3227;
280.5000;0.3264;7.3204;
280.8000;0.3297;7.3227;
281.1000;0.3272;7.3227;
281.4000;0.3297;7.3180;
281.7000;0.3272;7.3109;
282.0000;0.3199;7.2991;
282.3000;0.3305;7.3346;
282.6000;0.3289;7.3275;
282.9000;0.3289;7.3275;
283.2000;0.3289;7.3251;
283.5000;0.3305;7.3251;
283.8000;0.3289;7.3227;
284.1000;0.3280;7.3275;
284.4000;0.3248;7.3204;
284.7000;0.3280;7.3275;
285.0000;0.3272;7.3298;
285.3000;0.3256;7.3180;
285.6000;0.3272;7.3227;
285.9000;0.3272;7.3156;
286.2000;0.3272;7.3062;
286.5000;0.3248;7.3038;
286.8000;0.3280;7.3180;
287.1000;0.3289;7.3298;
287.4000;0.3264;7.3251;
287.7000;0.3289;7.3322;
288.0000;0.3297;7.3369;
288.3000;0.3297;7.3322;
288.6000;0.3289;7.3227;
288.9000;0.3297;7.3180;
289.2000;0.3329;7.3275;
289.5000;0.3248;7.3109;
289.8000;0.3305;7.3227;
290.1000;0.3289;7.3204;
290.4000;0.3272;7.3204;
290.7000;0.3248;7.3109;
291.0000;0.3289;7.3251;
291.3000;0.3280;7.3275;
291.6000;0.3166;7.2944;
291.9000;0.3289;7.3227;
292.2000;0.3280;7.3204;
292.5000;0.3232;7.3086;
292.8000;0.3207;7.2991;
293.1000;0.3264;7.3062;
293.4000;0.3264;7.3062;
293.7000;0.3272;7.3086;
294.0000;0.3305;7.3109;
294.3000;0.3305;7.3038;
294.6000;0.3289;7.3015;
294.9000;0.3289;7.3109;
295.2000;0.3272;7.3109;
295.5000;0.3264;7.3062;
295.8000;0.3272;7.3086;
296.1000;0.3272;7.3109;
296.4000;0.3264;7.3109;
296.7000;0.3297;7.3204;
297.0000;0.3280;7.3086;
297.3000;0.3272;7.3015;
297.6000;0.3297;7.3086;
297.9000;0.3289;7.3086;
298.2000;0.3272;7.3086;
298.5000;0.3272;7.3133;
298.8000;0.3289;7.3133;
299.1000;0.3272;7.3086;
299.4000;0.3289;7.3015;
299.7000;0.3280;7.3086;
300.0000;0.3272;7.3015;
300.3000;0.3280;7.2991;
300.6000;0.3280;7.3109;
300.9000;0.3272;7.3086;
301.2000;0.3280;7.3038;
301.5000;0.3289;7.3062;
301.8000;0.3289;7.2991;
302.1000;0.3272;7.3062;
302.4000;0.3280;7.3156;
302.7000;0.3289;7.3133;
303.0000;0.3256;7.3180;
303.3000;0.3264;7.3251;
303.6000;0.3264;7.3227;
303.9000;0.3297;7.3298;
304.2000;0.3272;7.3298;
304.5000;0.3264;7.3251;
304.8000;0.3280;7.3133;
305.1000;0.3297;7.3133;
305.4000;0.3305;7.3133;
305.7000;0.3280;7.3038;
306.0000;0.3272;7.3015;
306.3000;0.3280;7.3180;
306.6000;0.3280;7.3227;
306.9000;0.3272;7.3133;
307.2000;0.3264;7.3133;
307.5000;0.3297;7.3204;
307.8000;0.3289;7.3109;
308.1000;0.3280;7.3227;
308.4000;0.3297;7.3298;
308.7000;0.3289;7.3369;
309.0000;0.3297;7.3369;
309.3000;0.3280;7.3298;
309.6000;0.3329;7.3417;
309.9000;0.3280;7.3251;
310.2000;0.3289;7.3298;
310.5000;0.3313;7.3369;
310.8000;0.3297;7.3275;
311.1000;0.3272;7.3275;
311.4000;0.3264;7.3251;
311.7000;0.3289;7.3346;
312.0000;0.3272;7.3275;
312.3000;0.3256;7.3180;
312.6000;0.3297;7.3298;
312.9000;0.3289;7.3156;
313.2000;0.3280;7.3156;
313.5000;0.3248;7.3086;
313.8000;0.3272;7.3156;
314.1000;0.3272;7.3180;
314.4000;0.3248;7.3062;
314.7000;0.3280;7.3180;
315.0000;0.3264;7.3275;
315.3000;0.3272;7.3298;
315.6000;0.3280;7.3251;
315.9000;0.3297;7.3275;
316.2000;0.3272;7.3133;
316.5000;0.3272;7.3227;
316.8000;0.3280;7.3227;
317.1000;0.3280;7.3298;
317.4000;0.3256;7.3298;
317.7000;0.3289;7.3298;
318.0000;0.3297;7.3322;
318.3000;0.3280;7.3204;
318.6000;0.3264;7.3086;
318.9000;0.3240;7.2967;
319.2000;0.3272;7.3062;
319.5000;0.3264;7.3086;
319.8000;0.3280;7.3086;
320.1000;0.3264;7.3015;
320.4000;0.3264;7.3015;
320.7000;0.3346;7.3180;
321.0000;0.3272;7.3062;
321.3000;0.3305;7.3275;
321.6000;0.3272;7.3156;
321.9000;0.3280;7.3062;
322.2000;0.3280;7.3062;
322.5000;0.3297;7.3133;
322.8000;0.3272;7.3133;
323.1000;0.3289;7.3109;
323.4000;0.3280;7.3204;
323.7000;0.3378;7.3464;
324.0000;0.3264;7.3227;
324.3000;0.3264;7.3275;
324.6000;0.3264;7.3275;
324.9000;0.3289;7.3251;
325.2000;0.3272;7.3180;
325.5000;0.3280;7.3180;
325.8000;0.3329;7.3133;
326.1000;0.3272;7.2967;
326.4000;0.3264;7.3015;
326.7000;0.3280;7.3180;
327.0000;0.3272;7.3204;
327.3000;0.3272;7.3156;
327.6000;0.3289;7.3156;
327.9000;0.3272;7.3109;
328.2000;0.3297;7.3109;
328.5000;0.3272;7.3109;
328.8000;0.3280;7.3156;
329.1000;0.3272;7.3180;
329.4000;0.3297;7.3062;
329.7000;0.3289;7.3038;
330.0000;0.3272;7.3086;
330.3000;0.3272;7.3180;
330.6000;0.3313;7.3227;
330.9000;0.3272;7.3227;
331.2000;0.3280;7.3156;
331.5000;0.3280;7.3251;
331.8000;0.3297;7.3251;
332.1000;0.3297;7.3275;
332.4000;0.3280;7.3251;
332.7000;0.3313;7.3322;
333.0000;0.3272;7.3204;
333.3000;0.3289;7.3298;
333.6000;0.3248;7.3204;
333.9000;0.3272;7.3275;
334.2000;0.3289;7.3227;
334.5000;0.3207;7.2991;
334.8000;0.3280;7.3086;
335.1000;0.3256;7.3109;
335.4000;0.3264;7.3156;
335.7000;0.3264;7.3086;
336.0000;0.3305;7.3156;
336.3000;0.3264;7.3204;
336.6000;0.3280;7.3227;
336.9000;0.3297;7.3204;
337.2000;0.3280;7.3156;
337.5000;0.3280;7.3156;
337.8000;0.3272;7.3133;
338.1000;0.3289;7.3156;
338.4000;0.3289;7.3251;
338.7000;0.3289;7.3369;
339.0000;0.3289;7.3322;
339.3000;0.3280;7.3275;
339.6000;0.3297;7.3322;
339.9000;0.3297;7.3417;
340.2000;0.3272;7.3369;
340.5000;0.3289;7.3322;
340.8000;0.3248;7.3204;
341.1000;0.3191;7.3109;
341.4000;0.3289;7.3275;
341.7000;0.3256;7.3086;
342.0000;0.3289;7.3156;
342.3000;0.3264;7.3180;
342.6000;0.3280;7.3227;
342.9000;0.3183;7.3062;
343.2000;0.3305;7.3417;
343.5000;0.3297;7.3322;
343.8000;0.3272;7.3275;
344.1000;0.3256;7.3227;
344.4000;0.3272;7.3251;
344.7000;0.3280;7.3227;
345.0000;0.3280;7.3062;
345.3000;0.3280;7.3109;
345.6000;0.3297;7.3227;
345.9000;0.3297;7.3275;
346.2000;0.3297;7.3251;
346.5000;0.3256;7.3156;
346.8000;0.3248;7.3133;
347.1000;0.3272;7.3204;
347.4000;0.3280;7.3180;
347.7000;0.3297;7.3251;
348.0000;0.3272;7.3204;
348.3000;0.3280;7.3204;
348.6000;0.3289;7.3133;
348.9000;0.3321;7.3180;
349.2000;0.3305;7.3109;
349.5000;0.3272;7.3156;
349.8000;0.3223;7.2991;
350.1000;0.3297;7.3133;
350.4000;0.3313;7.3109;
350.7000;0.3289;7.3038;
351.0000;0.3289;7.3109;
351.3000;0.3305;7.3038;
351.6000;0.3289;7.2967;
351.9000;0.3313;7.2967;
352.2000;0.3289;7.2967;
352.5000;0.3280;7.3062;
352.8000;0.3289;7.3086;
353.1000;0.3289;7.3015;
353.4000;0.3289;7.2944;
353.7000;0.3329;7.3015;
354.0000;0.3280;7.2920;
354.3000;0.3280;7.2873;
354.6000;0.3264;7.2755;
354.9000;0.3297;7.2826;
355.2000;0.3272;7.2802;
355.5000;0.3289;7.2802;
355.8000;0.3297;7.2826;
356.1000;0.3272;7.2755;
356.4000;0.3289;7.2873;
356.7000;0.3264;7.2849;
357.0000;0.3297;7.2873;
357.3000;0.3280;7.2896;
357.6000;0.3289;7.2991;
357.9000;0.3289;7.3038;
358.2000;0.3297;7.3062;
358.5000;0.3297;7.3086;
358.8000;0.3289;7.3062;
359.1000;0.3248;7.2873;
359.4000;0.3289;7.2944;
359.7000;0.3305;7.2991;
360.0000;0.3280;7.3086;
360.3000;0.3289;7.3062;
360.6000;0.3280;7.3062;
360.9000;0.3256;7.3015;
361.2000;0.3297;7.3133;
361.5000;0.3289;7.3180;
361.8000;0.3289;7.3180;
362.1000;0.3289;7.3204;
362.4000;0.3264;7.3133;
362.7000;0.3256;7.3109;
363.0000;0.3280;7.3109;
363.3000;0.3280;7.3133;
363.6000;0.3329;7.3346;
363.9000;0.3305;7.3227;
364.2000;0.3199;7.3109;
364.5000;0.3329;7.3393;
364.8000;0.3280;7.3204;
365.1000;0.3280;7.3227;
365.4000;0.3289;7.3204;
365.7000;0.3272;7.3038;
366.0000;0.3207;7.2967;
366.3000;0.3272;7.3156;
366.6000;0.3264;7.3133;
366.9000;0.3272;7.3227;
367.2000;0.3297;7.3298;
367.5000;0.3305;7.3322;
367.8000;0.3256;7.3133;
368.1000;0.3313;7.3204;
368.4000;0.3272;7.3109;
368.7000;0.3289;7.3109;
369.0000;0.3297;7.3133;
369.3000;0.3191;7.2991;
369.6000;0.3280;7.3227;
369.9000;0.3297;7.3322;
370.2000;0.3289;7.3322;
370.5000;0.3272;7.3322;
370.8000;0.3280;7.3393;
371.1000;0.3272;7.3369;
371.4000;0.3289;7.3369;
371.7000;0.3272;7.3204;
372.0000;0.3272;7.3109;
372.3000;0.3248;7.3062;
372.6000;0.3289;7.3109;
372.9000;0.3313;7.3180;
373.2000;0.3289;7.3227;
373.5000;0.3289;7.3346;
373.8000;0.3289;7.3417;
374.1000;0.3289;7.3440;
374.4000;0.3289;7.3417;
374.7000;0.3297;7.3417;
375.0000;0.3289;7.3417;
375.3000;0.3272;7.3251;
375.6000;0.3272;7.3251;
375.9000;0.3305;7.3346;
376.2000;0.3362;7.3417;
376.5000;0.3305;7.3275;
376.8000;0.3297;7.3251;
377.1000;0.3305;7.3298;
377.4000;0.3289;7.3275;
377.7000;0.3272;7.3180;
378.0000;0.3264;7.3204;
378.3000;0.3280;7.3227;
378.6000;0.3248;7.3204;
378.9000;0.3280;7.3227;
379.2000;0.3264;7.3227;
379.5000;0.3280;7.3204;
379.8000;0.3272;7.3227;
380.1000;0.3289;7.3322;
380.4000;0.3264;7.3275;
380.7000;0.3264;7.3180;
381.0000;0.3264;7.3109;
381.3000;0.3264;7.3156;
381.6000;0.3354;7.3346;
381.9000;0.3256;7.3086;
382.2000;0.3272;7.3133;
382.5000;0.3280;7.3156;
382.8000;0.3297;7.3133;
383.1000;0.3280;7.3086;
383.4000;0.3313;7.3133;
383.7000;0.3329;7.3298;
384.0000;0.3289;7.3298;
384.3000;0.3264;7.3298;
384.6000;0.3289;7.3275;
384.9000;0.3264;7.3298;
385.2000;0.3305;7.3298;
385.5000;0.3297;7.3346;
385.8000;0.3272;7.3346;
386.1000;0.3232;7.3204;
386.4000;0.3280;7.3369;
386.7000;0.3354;7.3487;
387.0000;0.3264;7.3227;
387.3000;0.3272;7.3251;
387.6000;0.3280;7.3322;
387.9000;0.3289;7.3369;
388.2000;0.3264;7.3227;
388.5000;0.3256;7.3086;
388.8000;0.3289;7.3086;
389.1000;0.3240;7.2920;
389.4000;0.3297;7.3062;
389.7000;0.3215;7.2896;
390.0000;0.3280;7.3086;
390.3000;0.3289;7.3180;
390.6000;0.3297;7.3156;
390.9000;0.3297;7.3204;
391.2000;0.3264;7.3109;
391.5000;0.3289;7.3133;
391.8000;0.3223;7.2896;
392.1000;0.3256;7.2967;
392.4000;0.3313;7.3156;
392.7000;0.3280;7.3086;
393.0000;0.3232;7.2967;
393.3000;0.3248;7.3038;
393.6000;0.3272;7.3109;
393.9000;0.3297;7.3133;
394.2000;0.3346;7.3251;
394.5000;0.3297;7.3156;
394.8000;0.3272;7.3204;
395.1000;0.3297;7.3275;
395.4000;0.3297;7.3298;
395.7000;0.3280;7.3227;
396.0000;0.3272;7.3156;
396.3000;0.3191;7.3015;
396.6000;0.3280;7.3251;
396.9000;0.3223;7.3062;
397.2000;0.3289;7.3133;
397.5000;0.3272;7.3062;
397.8000;0.3272;7.3156;
398.1000;0.3280;7.3180;
398.4000;0.3272;7.3180;
398.7000;0.3264;7.3062;
399.0000;0.3272;7.3015;
399.3000;0.3280;7.3086;
399.6000;0.3289;7.3180;
399.9000;0.3280;7.3251;
400.2000;0.3272;7.3275;
400.5000;0.3305;7.3322;
400.8000;0.3313;7.3369;
401.1000;0.3264;7.3322;
401.4000;0.3289;7.3369;
401.7000;0.3280;7.3251;
402.0000;0.3207;7.3086;
402.3000;0.3248;7.3062;
402.6000;0.3354;7.3369;
402.9000;0.3272;7.3133;
403.2000;0.3280;7.3204;
403.5000;0.3264;7.3275;
403.8000;0.3280;7.3251;
404.1000;0.3272;7.3133;
404.4000;0.3297;7.3133;
404.7000;0.3297;7.3156;
405.0000;0.3272;7.3086;
405.3000;0.3289;7.3180;
405.6000;0.3264;7.3156;
405.9000;0.3264;7.3298;
406.2000;0.3280;7.3227;
406.5000;0.3272;7.3204;
406.8000;0.3280;7.3298;
407.1000;0.3256;7.3180;
407.4000;0.3272;7.3227;
407.7000;0.3272;7.3204;
408.0000;0.3272;7.3227;
408.3000;0.3280;7.3251;
408.6000;0.3280;7.3298;
408.9000;0.3289;7.3298;
409.2000;0.3272;7.3275;
409.5000;0.3272;7.3346;
409.8000;0.3289;7.3346;
410.1000;0.3289;7.3275;
410.4000;0.3272;7.3322;
410.7000;0.3256;7.3251;
411.0000;0.3272;7.3204;
411.3000;0.3280;7.3227;
411.6000;0.3272;7.3227;
411.9000;0.3264;7.3251;
412.2000;0.3264;7.3204;
412.5000;0.3207;7.3038;
412.8000;0.3272;7.3156;
413.1000;0.3313;7.3298;
413.4000;0.3256;7.3180;
413.7000;0.3280;7.3086;
414.0000;0.3272;7.3086;
414.3000;0.3289;7.3109;
414.6000;0.3272;7.3086;
414.9000;0.3280;7.3062;
415.2000;0.3272;7.3038;
415.5000;0.3264;7.3038;
415.8000;0.3272;7.3062;
416.1000;0.3272;7.3086;
416.4000;0.3256;7.3015;
416.7000;0.3280;7.3062;
417.0000;0.3280;7.3086;
417.3000;0.3280;7.3015;
417.6000;0.3264;7.3015;
417.9000;0.3305;7.3038;
418.2000;0.3280;7.2967;
418.5000;0.3272;7.3015;
418.8000;0.3280;7.3062;
419.1000;0.3264;7.3086;
419.4000;0.3329;7.3204;
419.7000;0.3272;7.3038;
420.0000;0.3305;7.3038;
420.3000;0.3272;7.2920;
420.6000;0.3256;7.2896;
420.9000;0.3272;7.2967;
421.2000;0.3272;7.3015;
421.5000;0.3272;7.2873;
421.8000;0.3248;7.2826;
422.1000;0.3321;7.3015;
422.4000;0.3280;7.3086;
422.7000;0.3256;7.3180;
423.0000;0.3280;7.3204;
423.3000;0.3272;7.3156;
423.6000;0.3280;7.3204;
423.9000;0.3297;7.3204;
424.2000;0.3297;7.3227;
424.5000;0.3289;7.3180;
424.8000;0.3297;7.3275;
425.1000;0.3280;7.3204;
425.4000;0.3280;7.3062;
425.7000;0.3256;7.2920;
426.0000;0.3272;7.2991;
426.3000;0.3289;7.3015;
426.6000;0.3289;7.2991;
426.9000;0.3264;7.2920;
427.2000;0.3272;7.2920;
427.5000;0.3264;7.2967;
427.8000;0.3280;7.3038;
428.1000;0.3272;7.3038;
428.4000;0.3272;7.3086;
428.7000;0.3232;7.3038;
429.0000;0.3313;7.3204;
429.3000;0.3280;7.3109;
429.6000;0.3289;7.3180;
429.9000;0.3305;7.3275;
430.2000;0.3280;7.3322;
430.5000;0.3272;7.3251;
430.8000;0.3305;7.3204;
431.1000;0.3329;7.3180;
431.4000;0.3297;7.3109;
431.7000;0.3264;7.3062;
432.0000;0.3272;7.3062;
432.3000;0.3240;7.3038;
432.6000;0.3289;7.3109;
432.9000;0.3264;7.3086;
433.2000;0.3280;7.3133;
433.5000;0.3280;7.3204;
433.8000;0.3272;7.3133;
434.1000;0.3280;7.3086;
434.4000;0.3272;7.3133;
434.7000;0.3297;7.3180;
435.0000;0.3289;7.3275;
435.3000;0.3305;7.3369;
435.6000;0.3289;7.3275;
435.9000;0.3256;7.3227;
436.2000;0.3264;7.3227;
436.5000;0.3264;7.3156;
436.8000;0.3256;7.3180;
437.1000;0.3264;7.3251;
437.4000;0.3223;7.3133;
437.7000;0.3272;7.3156;
438.0000;0.3280;7.3133;
438.3000;0.3280;7.3038;
438.6000;0.3272;7.3180;
438.9000;0.3289;7.3204;
439.2000;0.3346;7.3417;
439.5000;0.3329;7.3322;
439.8000;0.3289;7.3109;
440.1000;0.3280;7.3251;
440.4000;0.3272;7.3251;
440.7000;0.3289;7.3417;
441.0000;0.3289;7.3393;
441.3000;0.3313;7.3417;
441.6000;0.3272;7.3322;
441.9000;0.3240;7.3251;
442.2000;0.3289;7.3369;
442.5000;0.3305;7.3369;
442.8000;0.3297;7.3369;
443.1000;0.3289;7.3251;
443.4000;0.3337;7.3417;
443.7000;0.3256;7.3298;
444.0000;0.3289;7.3346;
444.3000;0.3289;7.3369;
444.6000;0.3289;7.3369;
444.9000;0.3272;7.3369;
445.2000;0.3199;7.3086;
445.5000;0.3297;7.3346;
445.8000;0.3264;7.3298;
446.1000;0.3289;7.3275;
446.4000;0.3297;7.3156;
446.7000;0.3280;7.3062;
447.0000;0.3264;7.2967;
447.3000;0.3297;7.3015;
447.6000;0.3256;7.2991;
447.9000;0.3297;7.3086;
448.2000;0.3272;7.3038;
448.5000;0.3289;7.3086;
448.8000;0.3297;7.3156;
449.1000;0.3289;7.3227;
449.4000;0.3289;7.3227;
449.7000;0.3289;7.3298;
450.0000;0.3362;7.3417;
450.3000;0.3297;7.3346;
450.6000;0.3289;7.3369;
450.9000;0.3280;7.3298;
451.2000;0.3321;7.3369;
451.5000;0.3280;7.3204;
451.8000;0.3362;7.3369;
452.1000;0.3215;7.3204;
452.4000;0.3272;7.3275;
452.7000;0.3305;7.3298;
453.0000;0.3272;7.3275;
453.3000;0.3264;7.3251;
453.6000;0.3272;7.3298;
453.9000;0.3289;7.3417;
454.2000;0.3280;7.3369;
454.5000;0.3297;7.3346;
454.8000;0.3280;7.3346;
455.1000;0.3289;7.3393;
455.4000;0.3289;7.3346;
455.7000;0.3289;7.3417;
456.0000;0.3272;7.3322;
456.3000;0.3272;7.3298;
456.6000;0.3272;7.3275;
456.9000;0.3272;7.3156;
457.2000;0.3256;7.3086;
457.5000;0.3264;7.3062;
457.8000;0.3297;7.3086;
458.1000;0.3272;7.3133;
458.4000;0.3280;7.3156;
458.7000;0.3272;7.3204;
459.0000;0.3256;7.3156;
459.3000;0.3297;7.3369;
459.6000;0.3215;7.3062;
459.9000;0.3215;7.3015;
460.2000;0.3272;7.3275;
460.5000;0.3289;7.3393;
460.8000;0.3354;7.3629;
461.1000;0.3280;7.3558;
461.4000;0.3280;7.3582;
461.7000;0.3272;7.3393;
462.0000;0.3272;7.3346;
462.3000;0.3264;7.3369;
462.6000;0.3280;7.3298;
462.9000;0.3264;7.3204;
463.2000;0.3256;7.3180;
463.5000;0.3264;7.3156;
463.8000;0.3280;7.3180;
464.1000;0.3264;7.3204;
464.4000;0.3280;7.3180;
464.7000;0.3305;7.3227;
465.0000;0.3272;7.3227;
465.3000;0.3289;7.3275;
465.6000;0.3321;7.3369;
465.9000;0.3256;7.3251;
466.2000;0.3272;7.3298;
466.5000;0.3175;7.3015;
466.8000;0.3215;7.3109;
467.1000;0.3297;7.3251;
467.4000;0.3264;7.3204;
467.7000;0.3256;7.3156;
468.0000;0.3280;7.3133;
468.3000;0.3313;7.3298;
468.6000;0.3272;7.3204;
468.9000;0.3280;7.3204;
469.2000;0.3297;7.3227;
469.5000;0.3297;7.3251;
469.8000;0.3272;7.3204;
470.1000;0.3280;7.3251;
470.4000;0.3280;7.3251;
470.7000;0.3297;7.3180;
471.0000;0.3223;7.3062;
471.3000;0.3215;7.3062;
471.6000;0.3280;7.3275;
471.9000;0.3305;7.3369;
472.2000;0.3289;7.3346;
472.5000;0.3264;7.3322;
472.8000;0.3256;7.3251;
473.1000;0.3280;7.3322;
473.4000;0.3272;7.3204;
473.7000;0.3272;7.3204;
474.0000;0.3280;7.3227;
474.3000;0.3297;7.3275;
474.6000;0.3280;7.3251;
474.9000;0.3280;7.3180;
475.2000;0.3280;7.3204;
475.5000;0.3272;7.3204;
475.8000;0.3280;7.3156;
476.1000;0.3280;7.3156;
476.4000;0.3264;7.3133;
476.7000;0.3264;7.3180;
477.0000;0.3248;7.3109;
477.3000;0.3264;7.3109;
477.6000;0.3289;7.3275;
477.9000;0.3199;7.3062;
478.2000;0.3215;7.3086;
478.5000;0.3272;7.3251;
478.8000;0.3264;7.3180;
479.1000;0.3272;7.3156;
479.4000;0.3272;7.3086;
479.7000;0.3280;7.3133;
480.0000;0.3248;7.3204;
480.3000;0.3337;7.3393;
480.6000;0.3362;7.3511;
480.9000;0.3297;7.3393;
481.2000;0.3280;7.3275;
481.5000;0.3280;7.3369;
481.8000;0.3289;7.3346;
482.1000;0.3215;7.3204;
482.4000;0.3305;7.3440;
482.7000;0.3272;7.3346;
483.0000;0.3272;7.3393;
483.3000;0.3280;7.3417;
483.6000;0.3289;7.3393;
483.9000;0.3272;7.3275;
484.2000;0.3272;7.3322;
484.5000;0.3280;7.3440;
484.8000;0.3297;7.3487;
485.1000;0.3305;7.3417;
485.4000;0.3223;7.3251;
485.7000;0.3272;7.3369;
486.0000;0.3297;7.3298;
486.3000;0.3272;7.3204;
486.6000;0.3264;7.3204;
486.9000;0.3272;7.3251;
487.2000;0.3297;7.3133;
487.5000;0.3321;7.3109;
487.8000;0.3321;7.3086;
488.1000;0.3297;7.2991;
488.4000;0.3280;7.2991;
488.7000;0.3280;7.2991;
489.0000;0.3280;7.3015;
489.3000;0.3297;7.3062;
489.6000;0.3280;7.3180;
489.9000;0.3297;7.3227;
490.2000;0.3280;7.3133;
490.5000;0.3215;7.2873;
490.8000;0.3280;7.3086;
491.1000;0.3329;7.3346;
491.4000;0.3289;7.3275;
491.7000;0.3305;7.3298;
492.0000;0.3280;7.3227;
492.3000;0.3289;7.3369;
492.6000;0.3240;7.3251;
492.9000;0.3248;7.3251;
493.2000;0.3289;7.3417;
493.5000;0.3264;7.3346;
493.8000;0.3305;7.3346;
494.1000;0.3289;7.3322;
494.4000;0.3272;7.3322;
494.7000;0.3280;7.3393;
495.0000;0.3264;7.3298;
495.3000;0.3289;7.3440;
495.6000;0.3305;7.3511;
495.9000;0.3297;7.3487;
496.2000;0.3240;7.3369;
496.5000;0.3305;7.3464;
496.8000;0.3272;7.3346;
497.1000;0.3280;7.3298;
497.4000;0.3280;7.3298;
497.7000;0.3264;7.3322;
498.0000;0.3264;7.3298;
498.3000;0.3280;7.3298;
498.6000;0.3240;7.3322;
498.9000;0.3280;7.3417;
499.2000;0.3264;7.3393;
499.5000;0.3321;7.3535;
499.8000;0.3329;7.3487;
500.1000;0.3297;7.3417;
500.4000;0.3272;7.3346;
500.7000;0.3280;7.3417;
501.0000;0.3272;7.3417;
501.3000;0.3280;7.3393;
501.6000;0.3305;7.3346;
501.9000;0.3272;7.3298;
502.2000;0.3264;7.3298;
502.5000;0.3264;7.3204;
502.8000;0.3305;7.3346;
503.1000;0.3223;7.3133;
503.4000;0.3289;7.3369;
503.7000;0.3272;7.3393;
504.0000;0.3329;7.3417;
504.3000;0.3272;7.3322;
504.6000;0.3313;7.3417;
504.9000;0.3289;7.3298;
505.2000;0.3256;7.3204;
505.5000;0.3297;7.3346;
505.8000;0.3215;7.3180;
506.1000;0.3297;7.3393;
506.4000;0.3305;7.3417;
506.7000;0.3280;7.3298;
507.0000;0.3264;7.3298;
507.3000;0.3321;7.3535;
507.6000;0.3289;7.3511;
507.9000;0.3264;7.3369;
508.2000;0.3305;7.3369;
508.5000;0.3248;7.3227;
508.8000;0.3272;7.3322;
509.1000;0.3256;7.3180;
509.4000;0.3346;7.3464;
509.7000;0.3272;7.3275;
510.0000;0.3313;7.3275;
510.3000;0.3313;7.3275;
510.6000;0.3272;7.3204;
510.9000;0.3248;7.3180;
511.2000;0.3272;7.3275;
511.5000;0.3297;7.3322;
511.8000;0.3272;7.3322;
512.1000;0.3280;7.3180;
512.4000;0.3297;7.3133;
512.7000;0.3289;7.3062;
513.0000;0.3272;7.3015;
513.3000;0.3313;7.3227;
513.6000;0.3297;7.3227;
513.9000;0.3264;7.3227;
514.2000;0.3280;7.3251;
514.5000;0.3289;7.3275;
514.8000;0.3297;7.3369;
515.1000;0.3272;7.3464;
515.4000;0.3272;7.3464;
515.7000;0.3289;7.3511;
516.0000;0.3280;7.3487;
516.3000;0.3272;7.3440;
516.6000;0.3272;7.3369;
516.9000;0.3264;7.3275;
517.2000;0.3264;7.3251;
517.5000;0.3289;7.3322;
517.8000;0.3223;7.3298;
518.1000;0.3272;7.3322;
518.4000;0.3280;7.3322;
518.7000;0.3272;7.3204;
519.0000;0.3280;7.3346;
519.3000;0.3297;7.3393;
519.6000;0.3272;7.3417;
519.9000;0.3289;7.3487;
520.2000;0.3289;7.3487;
520.5000;0.3272;7.3464;
520.8000;0.3280;7.3487;
521.1000;0.3272;7.3487;
521.4000;0.3264;7.3464;
521.7000;0.3289;7.3606;
522.0000;0.3248;7.3487;
522.3000;0.3272;7.3417;
522.6000;0.3272;7.3511;
522.9000;0.3280;7.3582;
523.2000;0.3272;7.3535;
523.5000;0.3264;7.3440;
523.8000;0.3240;7.3346;
524.1000;0.3297;7.3417;
524.4000;0.3264;7.3275;
524.7000;0.3264;7.3204;
525.0000;0.3289;7.3204;
525.3000;0.3280;7.3133;
525.6000;0.3264;7.3109;
525.9000;0.3280;7.3133;
526.2000;0.3289;7.3204;
526.5000;0.3289;7.3204;
526.8000;0.3289;7.3180;
527.1000;0.3289;7.3204;
527.4000;0.3272;7.3204;
527.7000;0.3272;7.3322;
528.0000;0.3272;7.3369;
528.3000;0.3289;7.3417;
528.6000;0.3280;7.3393;
528.9000;0.3272;7.3417;
529.2000;0.3280;7.3369;
529.5000;0.3264;7.3322;
529.8000;0.3272;7.3346;
530.1000;0.3272;7.3369;
530.4000;0.3280;7.3487;
530.7000;0.3297;7.3440;
531.0000;0.3272;7.3393;
531.3000;0.3280;7.3417;
531.6000;0.3280;7.3322;
531.9000;0.3354;7.3511;
532.2000;0.3329;7.3464;
532.5000;0.3305;7.3393;
532.8000;0.3297;7.3275;
533.1000;0.3280;7.3227;
533.4000;0.3264;7.3275;
533.7000;0.3264;7.3393;
534.0000;0.3248;7.3417;
534.3000;0.3362;7.3629;
534.6000;0.3280;7.3393;
534.9000;0.3248;7.3393;
535.2000;0.3272;7.3369;
535.5000;0.3256;7.3322;
535.8000;0.3280;7.3346;
536.1000;0.3280;7.3487;
536.4000;0.3256;7.3440;
536.7000;0.3272;7.3417;
537.0000;0.3337;7.3511;
537.3000;0.3264;7.3346;
537.6000;0.3280;7.3393;
537.9000;0.3207;7.3109;
538.2000;0.3207;7.3086;
538.5000;0.3280;7.3346;
538.8000;0.3297;7.3346;
539.1000;0.3280;7.3322;
539.4000;0.3272;7.3322;
539.7000;0.3289;7.3346;
540.0000;0.3272;7.3346;
540.3000;0.3280;7.3275;
540.6000;0.3223;7.3227;
540.9000;0.3305;7.3417;
541.2000;0.3354;7.3582;
541.5000;0.3297;7.3322;
541.8000;0.3297;7.3180;
542.1000;0.3289;7.3322;
542.4000;0.3289;7.3227;
542.7000;0.3280;7.3204;
543.0000;0.3280;7.3180;
543.3000;0.3289;7.3086;
543.6000;0.3289;7.3133;
543.9000;0.3289;7.3204;
544.2000;0.3289;7.3251;
544.5000;0.3297;7.3298;
544.8000;0.3337;7.3393;
545.1000;0.3305;7.3298;
545.4000;0.3280;7.3251;
545.7000;0.3280;7.3322;
546.0000;0.3289;7.3369;
546.3000;0.3272;7.3322;
546.6000;0.3289;7.3464;
546.9000;0.3256;7.3393;
547.2000;0.3289;7.3346;
547.5000;0.3272;7.3275;
547.8000;0.3223;7.3156;
548.1000;0.3297;7.3322;
548.4000;0.3264;7.3227;
548.7000;0.3264;7.3180;
549.0000;0.3264;7.3180;
549.3000;0.3280;7.3251;
549.6000;0.3280;7.3251;
549.9000;0.3272;7.3204;
550.2000;0.3289;7.3227;
550.5000;0.3305;7.3251;
550.8000;0.3289;7.3227;
551.1000;0.3313;7.3204;
551.4000;0.3297;7.3204;
551.7000;0.3297;7.3251;
552.0000;0.3289;7.3204;
552.3000;0.3313;7.3251;
552.6000;0.3264;7.3156;
552.9000;0.3280;7.3275;
553.2000;0.3280;7.3275;
553.5000;0.3272;7.3275;
553.8000;0.3264;7.3369;
554.1000;0.3272;7.3487;
554.4000;0.3289;7.3511;
554.7000;0.3403;7.3747;
555.0000;0.3305;7.3511;
555.3000;0.3248;7.3346;
555.6000;0.3272;7.3346;
555.9000;0.3264;7.3251;
556.2000;0.3297;7.3322;
556.5000;0.3272;7.3346;
556.8000;0.3272;7.3417;
557.1000;0.3305;7.3487;
557.4000;0.3264;7.3417;
557.7000;0.3289;7.3464;
558.0000;0.3199;7.3346;
558.3000;0.3329;7.3606;
558.6000;0.3272;7.3393;
558.9000;0.3264;7.3322;
559.2000;0.3289;7.3369;
559.5000;0.3272;7.3251;
559.8000;0.3272;7.3133;
560.1000;0.3289;7.3298;
560.4000;0.3280;7.3346;
560.7000;0.3280;7.3204;
561.0000;0.3362;7.3393;
561.3000;0.3272;7.3156;
561.6000;0.3272;7.3156;
561.9000;0.3305;7.3227;
562.2000;0.3313;7.3298;
562.5000;0.3297;7.3180;
562.8000;0.3272;7.3038;
563.1000;0.3305;7.3156;
563.4000;0.3280;7.3180;
563.7000;0.3272;7.3156;
564.0000;0.3272;7.3180;
564.3000;0.3280;7.3109;
564.6000;0.3272;7.3015;
564.9000;0.3280;7.2991;
565.2000;0.3272;7.2944;
565.5000;0.3248;7.2944;
565.8000;0.3272;7.2920;
566.1000;0.3280;7.3015;
566.4000;0.3289;7.3086;
566.7000;0.3272;7.3133;
567.0000;0.3272;7.3180;
567.3000;0.3280;7.3204;
567.6000;0.3280;7.3227;
567.9000;0.3272;7.3180;
568.2000;0.3272;7.3109;
568.5000;0.3289;7.3133;
568.8000;0.3280;7.3133;
569.1000;0.3264;7.3086;
569.4000;0.3272;7.3109;
569.7000;0.3280;7.3109;
570.0000;0.3256;7.3109;
570.3000;0.3272;7.3133;
570.6000;0.3272;7.3133;
570.9000;0.3272;7.3133;
571.2000;0.3289;7.3133;
571.5000;0.3232;7.3062;
571.8000;0.3297;7.3251;
572.1000;0.3264;7.3204;
572.4000;0.3280;7.3346;
572.7000;0.3280;7.3322;
573.0000;0.3289;7.3275;
573.3000;0.3264;7.3156;
573.6000;0.3256;7.3180;
573.9000;0.3215;7.3062;
574.2000;0.3256;7.3346;
574.5000;0.3272;7.3487;
574.8000;0.3264;7.3464;
575.1000;0.3256;7.3369;
575.4000;0.3264;7.3369;
575.7000;0.3264;7.3322;
576.0000;0.3264;7.3227;
576.3000;0.3264;7.3275;
576.6000;0.3191;7.2991;
576.9000;0.3256;7.3180;
577.2000;0.3305;7.3346;
577.5000;0.3256;7.3180;
577.8000;0.3256;7.3227;
578.1000;0.3297;7.3346;
578.4000;0.3297;7.3369;
578.7000;0.3272;7.3298;
579.0000;0.3280;7.3227;
579.3000;0.3232;7.3086;
579.6000;0.3272;7.3180;
579.9000;0.3305;7.3275;
580.2000;0.3289;7.3227;
580.5000;0.3280;7.3156;
580.8000;0.3272;7.3204;
581.1000;0.3272;7.3275;
581.4000;0.3346;7.3440;
581.7000;0.3280;7.3346;
582.0000;0.3329;7.3440;
582.3000;0.3289;7.3417;
582.6000;0.3297;7.3417;
582.9000;0.3280;7.3369;
583.2000;0.3272;7.3204;
583.5000;0.3264;7.3156;
583.8000;0.3272;7.3086;
584.1000;0.3280;7.3109;
584.4000;0.3240;7.3086;
584.7000;0.3280;7.3133;
585.0000;0.3289;7.3109;
585.3000;0.3297;7.3180;
585.6000;0.3305;7.3156;
585.9000;0.3297;7.3298;
586.2000;0.3280;7.3275;
586.5000;0.3280;7.3275;
586.8000;0.3272;7.3204;
587.1000;0.3240;7.3180;
587.4000;0.3280;7.3322;
587.7000;0.3264;7.3204;
588.0000;0.3280;7.3227;
588.3000;0.3256;7.3133;
588.6000;0.3207;7.3038;
588.9000;0.3264;7.3109;
589.2000;0.3289;7.3133;
589.5000;0.3289;7.3086;
589.8000;0.3272;7.3015;
590.1000;0.3272;7.3086;
590.4000;0.3289;7.3156;
590.7000;0.3280;7.3251;
591.0000;0.3280;7.3275;
591.3000;0.3289;7.3227;
591.6000;0.3280;7.3227;
591.9000;0.3240;7.3180;
592.2000;0.3280;7.3251;
592.5000;0.3264;7.3227;
592.8000;0.3280;7.3204;
593.1000;0.3280;7.3251;
593.4000;0.3346;7.3369;
593.7000;0.3256;7.3204;
594.0000;0.3289;7.3369;
594.3000;0.3354;7.3558;
594.6000;0.3297;7.3487;
594.9000;0.3272;7.3511;
595.2000;0.3289;7.3464;
595.5000;0.3305;7.3535;
595.8000;0.3264;7.3535;
596.1000;0.3272;7.3393;
596.4000;0.3272;7.3322;
596.7000;0.3289;7.3440;
597.0000;0.3297;7.3393;
597.3000;0.3289;7.3464;
597.6000;0.3346;7.3606;
597.9000;0.3272;7.3440;
598.2000;0.3297;7.3417;
598.5000;0.3289;7.3369;
598.8000;0.3215;7.3133;
599.1000;0.3280;7.3298;
599.4000;0.3272;7.3322;
599.7000;0.3297;7.3346;
600.0000;0.3264;7.3251;
600.3000;0.3232;7.3015;
600.6000;0.3313;7.3156;
600.9000;0.3346;7.3156;
601.2000;0.3248;7.2920;
601.5000;0.3232;7.2849;
601.8000;0.3191;7.2731;
602.1000;0.3166;7.2636;
602.4000;0.3109;7.2424;
602.7000;0.3134;7.2447;
603.0000;0.3093;7.2376;
603.3000;0.3101;7.2353;
603.6000;0.3036;7.2164;
603.9000;0.3020;7.2022;
604.2000;0.2947;7.1809;
604.5000;0.2971;7.1833;
604.8000;0.2930;7.1786;
605.1000;0.2939;7.1809;
605.4000;0.2955;7.1762;
605.7000;0.2947;7.1738;
606.0000;0.2898;7.1596;
606.3000;0.2906;7.1596;
606.6000;0.2906;7.1620;
606.9000;0.2784;7.1313;
607.2000;0.2849;7.1431;
607.5000;0.2800;7.1336;
607.8000;0.2825;7.1336;
608.1000;0.2792;7.1171;
608.4000;0.2808;7.1313;
608.7000;0.2816;7.1360;
609.0000;0.2808;7.1313;
609.3000;0.2776;7.1289;
609.6000;0.2800;7.1336;
609.9000;0.2784;7.1242;
610.2000;0.2776;7.1218;
610.5000;0.2768;7.1171;
610.8000;0.2727;7.1124;
611.1000;0.2719;7.1100;
611.4000;0.2727;7.1124;
611.7000;0.2727;7.1147;
612.0000;0.2678;7.1076;
612.3000;0.2686;7.1076;
612.6000;0.2719;7.1053;
612.9000;0.2694;7.1006;
613.2000;0.2694;7.1006;
613.5000;0.2670;7.0958;
613.8000;0.2662;7.0887;
614.1000;0.2735;7.1100;
614.4000;0.2564;7.0651;
614.7000;0.2662;7.0958;
615.0000;0.2613;7.0840;
615.3000;0.2629;7.0864;
615.6000;0.2670;7.0982;
615.9000;0.2613;7.0816;
616.2000;0.2605;7.0675;
616.5000;0.2613;7.0675;
616.8000;0.2621;7.0627;
617.1000;0.2597;7.0580;
617.4000;0.2621;7.0604;
617.7000;0.2597;7.0580;
618.0000;0.2580;7.0580;
618.3000;0.2572;7.0675;
618.6000;0.2572;7.0675;
618.9000;0.2515;7.0509;
619.2000;0.2548;7.0627;
619.5000;0.2564;7.0769;
619.8000;0.2548;7.0746;
620.1000;0.2564;7.0864;
620.4000;0.2515;7.0793;
620.7000;0.2515;7.0769;
621.0000;0.2523;7.0675;
621.3000;0.2507;7.0651;
621.6000;0.2515;7.0627;
621.9000;0.2515;7.0651;
622.2000;0.2532;7.0675;
622.5000;0.2475;7.0509;
622.8000;0.2483;7.0556;
623.1000;0.2499;7.0675;
623.4000;0.2475;7.0580;
623.7000;0.2483;7.0533;
624.0000;0.2483;7.0627;
624.3000;0.2483;7.0627;
624.6000;0.2491;7.0627;
624.9000;0.2491;7.0675;
625.2000;0.2466;7.0556;
625.5000;0.2466;7.0533;
625.8000;0.2475;7.0580;
626.1000;0.2434;7.0415;
626.4000;0.2450;7.0438;
626.7000;0.2442;7.0486;
627.0000;0.2442;7.0438;
627.3000;0.2418;7.0415;
627.6000;0.2442;7.0438;
627.9000;0.2418;7.0462;
628.2000;0.2491;7.0675;
628.5000;0.2361;7.0320;
628.8000;0.2393;7.0415;
629.1000;0.2450;7.0533;
629.4000;0.2418;7.0344;
629.7000;0.2418;7.0344;
630.0000;0.2352;7.0273;
630.3000;0.2369;7.0344;
630.6000;0.2377;7.0391;
630.9000;0.2287;7.0178;
631.2000;0.2418;7.0533;
631.5000;0.2352;7.0509;
631.8000;0.2369;7.0462;
632.1000;0.2401;7.0580;
632.4000;0.2385;7.0580;
632.7000;0.2377;7.0556;
633.0000;0.2377;7.0415;
633.3000;0.2361;7.0320;
633.6000;0.2336;7.0273;
633.9000;0.2369;7.0367;
634.2000;0.2385;7.0438;
634.5000;0.2336;7.0367;
634.8000;0.2369;7.0415;
635.1000;0.2393;7.0486;
635.4000;0.2352;7.0415;
635.7000;0.2361;7.0509;
636.0000;0.2361;7.0486;
636.3000;0.2336;7.0486;
636.6000;0.2352;7.0486;
636.9000;0.2328;7.0415;
637.2000;0.2401;7.0580;
637.5000;0.2328;7.0462;
637.8000;0.2344;7.0509;
638.1000;0.2336;7.0580;
638.4000;0.2279;7.0509;
638.7000;0.2312;7.0627;
639.0000;0.2328;7.0627;
639.3000;0.2304;7.0462;
639.6000;0.2304;7.0533;
639.9000;0.2312;7.0604;
640.2000;0.2320;7.0580;
640.5000;0.2312;7.0462;
640.8000;0.2304;7.0438;
641.1000;0.2304;7.0509;
641.4000;0.2304;7.0604;
641.7000;0.2312;7.0556;
642.0000;0.2320;7.0604;
642.3000;0.2328;7.0580;
642.6000;0.2287;7.0462;
642.9000;0.2287;7.0438;
643.2000;0.2247;7.0296;
643.5000;0.2287;7.0344;
643.8000;0.2279;7.0367;
644.1000;0.2279;7.0438;
644.4000;0.2279;7.0486;
644.7000;0.2279;7.0462;
645.0000;0.2263;7.0320;
645.3000;0.2271;7.0344;
645.6000;0.2271;7.0367;
645.9000;0.2271;7.0486;
646.2000;0.2255;7.0486;
646.5000;0.2255;7.0486;
646.8000;0.2263;7.0273;
647.1000;0.2198;7.0107;
647.4000;0.2263;7.0320;
647.7000;0.2271;7.0296;
648.0000;0.2239;7.0273;
648.3000;0.2255;7.0273;
648.6000;0.2263;7.0367;
648.9000;0.2222;7.0415;
649.2000;0.2304;7.0533;
649.5000;0.2222;7.0462;
649.8000;0.2263;7.0533;
650.1000;0.2247;7.0462;
650.4000;0.2287;7.0486;
650.7000;0.2230;7.0438;
651.0000;0.2263;7.0367;
651.3000;0.2247;7.0344;
651.6000;0.2239;7.0391;
651.9000;0.2239;7.0367;
652.2000;0.2222;7.0415;
652.5000;0.2214;7.0415;
652.8000;0.2222;7.0509;
653.1000;0.2214;7.0556;
653.4000;0.2206;7.0415;
653.7000;0.2239;7.0462;
654.0000;0.2182;7.0367;
654.3000;0.2206;7.0391;
654.6000;0.2206;7.0391;
654.9000;0.2157;7.0367;
655.2000;0.2198;7.0367;
655.5000;0.2214;7.0320;
655.8000;0.2214;7.0367;
656.1000;0.2214;7.0462;
656.4000;0.2198;7.0391;
656.7000;0.2214;7.0367;
657.0000;0.2206;7.0367;
657.3000;0.2182;7.0273;
657.6000;0.2157;7.0202;
657.9000;0.2206;7.0273;
658.2000;0.2206;7.0178;
658.5000;0.2206;7.0226;
658.8000;0.2206;7.0226;
659.1000;0.2222;7.0296;
659.4000;0.2165;7.0202;
659.7000;0.2198;7.0202;
660.0000;0.2198;7.0107;
660.3000;0.2214;7.0155;
660.6000;0.2198;7.0178;
660.9000;0.2182;7.0273;
661.2000;0.2198;7.0344;
661.5000;0.2198;7.0415;
661.8000;0.2182;7.0462;
662.1000;0.2125;7.0296;
662.4000;0.2190;7.0415;
662.7000;0.2173;7.0320;
663.0000;0.2157;7.0249;
663.3000;0.2182;7.0202;
663.6000;0.2198;7.0273;
663.9000;0.2157;7.0202;
664.2000;0.2165;7.0320;
664.5000;0.2182;7.0296;
664.8000;0.2149;7.0320;
665.1000;0.2239;7.0486;
665.4000;0.2173;7.0320;
665.7000;0.2173;7.0296;
666.0000;0.2173;7.0249;
666.3000;0.2190;7.0296;
666.6000;0.2198;7.0273;
666.9000;0.2182;7.0249;
667.2000;0.2165;7.0249;
667.5000;0.2173;7.0344;
667.8000;0.2165;7.0273;
668.1000;0.2182;7.0273;
668.4000;0.2165;7.0107;
668.7000;0.2133;7.0036;
669.0000;0.2157;7.0107;
669.3000;0.2141;7.0036;
669.6000;0.2149;7.0107;
669.9000;0.2133;7.0178;
670.2000;0.2182;7.0509;
670.5000;0.2157;7.0533;
670.8000;0.2125;7.0344;
671.1000;0.2165;7.0367;
671.4000;0.2198;7.0462;
671.7000;0.2173;7.0509;
672.0000;0.2190;7.0533;
672.3000;0.2100;7.0367;
672.6000;0.2149;7.0438;
672.9000;0.2157;7.0462;
673.2000;0.2068;7.0178;
673.5000;0.2133;7.0344;
673.8000;0.2206;7.0580;
674.1000;0.2157;7.0533;
674.4000;0.2141;7.0533;
674.7000;0.2149;7.0509;
675.0000;0.2141;7.0509;
675.3000;0.2141;7.0509;
675.6000;0.2133;7.0486;
675.9000;0.2190;7.0509;
676.2000;0.2141;7.0486;
676.5000;0.2149;7.0509;
676.8000;0.2116;7.0533;
677.1000;0.2108;7.0533;
677.4000;0.2133;7.0580;
677.7000;0.2133;7.0556;
678.0000;0.2133;7.0486;
678.3000;0.2133;7.0462;
678.6000;0.2133;7.0462;
678.9000;0.2198;7.0651;
679.2000;0.2125;7.0486;
679.5000;0.2100;7.0486;
679.8000;0.2125;7.0627;
680.1000;0.2125;7.0675;
680.4000;0.2125;7.0675;
680.7000;0.2116;7.0604;
681.0000;0.2125;7.0580;
681.3000;0.2125;7.0556;
681.6000;0.2125;7.0556;
681.9000;0.2100;7.0438;
682.2000;0.2149;7.0580;
682.5000;0.2173;7.0675;
682.8000;0.2141;7.0604;
683.1000;0.2125;7.0509;
683.4000;0.2125;7.0533;
683.7000;0.2092;7.0533;
684.0000;0.2092;7.0415;
684.3000;0.2108;7.0438;
684.6000;0.2165;7.0580;
684.9000;0.2059;7.0391;
685.2000;0.2125;7.0604;
685.5000;0.2108;7.0604;
685.8000;0.2092;7.0604;
686.1000;0.2051;7.0462;
686.4000;0.2092;7.0580;
686.7000;0.2116;7.0627;
687.0000;0.2092;7.0486;
687.3000;0.2108;7.0604;
687.6000;0.2157;7.0746;
687.9000;0.2108;7.0746;
688.2000;0.2116;7.0746;
688.5000;0.2100;7.0627;
688.8000;0.2100;7.0533;
689.1000;0.2108;7.0675;
689.4000;0.2125;7.0698;
689.7000;0.2092;7.0486;
690.0000;0.2084;7.0509;
690.3000;0.2108;7.0580;
690.6000;0.2125;7.0722;
690.9000;0.2108;7.0604;
691.2000;0.2068;7.0462;
691.5000;0.2116;7.0509;
691.8000;0.2092;7.0486;
692.1000;0.2190;7.0722;
692.4000;0.2084;7.0556;
692.7000;0.2076;7.0462;
693.0000;0.2116;7.0438;
693.3000;0.2108;7.0438;
693.6000;0.2100;7.0391;
693.9000;0.2100;7.0415;
694.2000;0.2092;7.0438;
694.5000;0.2100;7.0627;
694.8000;0.2084;7.0627;
695.1000;0.2027;7.0438;
695.4000;0.2198;7.0840;
695.7000;0.2116;7.0651;
696.0000;0.2092;7.0580;
696.3000;0.2084;7.0556;
696.6000;0.2092;7.0627;
696.9000;0.2076;7.0651;
697.2000;0.2100;7.0698;
697.5000;0.2059;7.0438;
697.8000;0.2076;7.0438;
698.1000;0.2092;7.0462;
698.4000;0.2076;7.0415;
698.7000;0.2100;7.0509;
699.0000;0.2084;7.0509;
699.3000;0.2076;7.0486;
699.6000;0.2108;7.0580;
699.9000;0.2084;7.0627;
700.2000;0.2076;7.0604;
700.5000;0.2076;7.0627;
700.8000;0.2092;7.0651;
701.1000;0.2076;7.0627;
701.4000;0.2084;7.0651;
701.7000;0.2043;7.0604;
702.0000;0.2068;7.0722;
702.3000;0.2076;7.0769;
702.6000;0.2076;7.0675;
702.9000;0.2157;7.0840;
703.2000;0.2076;7.0651;
703.5000;0.2076;7.0769;
703.8000;0.2051;7.0722;
704.1000;0.2068;7.0675;
704.4000;0.2068;7.0651;
704.7000;0.2068;7.0627;
705.0000;0.2051;7.0533;
705.3000;0.2035;7.0391;
705.6000;0.2043;7.0415;
705.9000;0.2068;7.0556;
706.2000;0.2059;7.0556;
706.5000;0.2059;7.0415;
706.8000;0.2051;7.0391;
707.1000;0.2084;7.0533;
707.4000;0.2059;7.0391;
707.7000;0.2035;7.0415;
708.0000;0.2084;7.0486;
708.3000;0.2051;7.0391;
708.6000;0.2108;7.0627;
708.9000;0.2043;7.0509;
709.2000;0.2051;7.0580;
709.5000;0.2035;7.0580;
709.8000;0.2084;7.0793;
710.1000;0.2043;7.0816;
710.4000;0.2035;7.0816;
710.7000;0.2059;7.0793;
711.0000;0.2076;7.0746;
711.3000;0.2059;7.0698;
711.6000;0.2100;7.0864;
711.9000;0.2051;7.0698;
712.2000;0.2076;7.0627;
712.5000;0.2051;7.0675;
712.8000;0.2059;7.0627;
713.1000;0.2068;7.0509;
713.4000;0.2068;7.0533;
713.7000;0.2084;7.0556;
714.0000;0.2043;7.0486;
714.3000;0.2043;7.0556;
714.6000;0.2051;7.0509;
714.9000;0.2043;7.0675;
715.2000;0.2043;7.0651;
715.5000;0.2068;7.0769;
715.8000;0.2076;7.0769;
716.1000;0.2043;7.0675;
716.4000;0.2043;7.0746;
716.7000;0.2059;7.0722;
717.0000;0.2043;7.0604;
717.3000;0.2084;7.0556;
717.6000;0.2027;7.0367;
717.9000;0.2019;7.0391;
718.2000;0.2100;7.0556;
718.5000;0.2059;7.0556;
718.8000;0.2043;7.0556;
719.1000;0.2043;7.0556;
719.4000;0.2027;7.0556;
719.7000;0.2051;7.0675;
720.0000;0.2027;7.0651;
720.3000;0.2043;7.0604;
720.6000;0.2043;7.0556;
720.9000;0.2035;7.0604;
721.2000;0.2051;7.0604;
721.5000;0.2019;7.0509;
721.8000;0.2043;7.0675;
722.1000;0.2043;7.0675;
722.4000;0.2100;7.0675;
722.7000;0.2051;7.0486;
723.0000;0.2027;7.0533;
723.3000;0.2035;7.0675;
723.6000;0.2035;7.0793;
723.9000;0.2051;7.0935;
724.2000;0.2043;7.0958;
724.5000;0.2051;7.0935;
724.8000;0.2027;7.0840;
725.1000;0.2027;7.0864;
725.4000;0.2002;7.0793;
725.7000;0.2051;7.0864;
726.0000;0.2043;7.0935;
726.3000;0.1994;7.0816;
726.6000;0.2059;7.0935;
726.9000;0.2043;7.0864;
727.2000;0.2035;7.0958;
727.5000;0.1954;7.0911;
727.8000;0.2027;7.1100;
728.1000;0.1994;7.0911;
728.4000;0.2068;7.0935;
728.7000;0.2035;7.0816;
729.0000;0.2011;7.0746;
729.3000;0.2019;7.0769;
729.6000;0.2043;7.0887;
729.9000;0.2019;7.0887;
730.2000;0.2035;7.0864;
730.5000;0.1970;7.0698;
730.8000;0.2011;7.0816;
731.1000;0.2019;7.0816;
731.4000;0.2027;7.0769;
731.7000;0.2043;7.0816;
732.0000;0.2027;7.0887;
732.3000;0.2011;7.0793;
732.6000;0.2059;7.0864;
732.9000;0.2043;7.0887;
733.2000;0.2019;7.0840;
733.5000;0.2035;7.0840;
733.8000;0.2027;7.0840;
734.1000;0.2043;7.0816;
734.4000;0.2019;7.0698;
734.7000;0.2011;7.0722;
735.0000;0.2002;7.0816;
735.3000;0.2059;7.0887;
735.6000;0.2059;7.1006;
735.9000;0.2019;7.0864;
736.2000;0.2027;7.0769;
736.5000;0.2043;7.0816;
736.8000;0.2027;7.0793;
737.1000;0.2043;7.0840;
737.4000;0.2035;7.0840;
737.7000;0.2035;7.0864;
738.0000;0.1994;7.0840;
738.3000;0.2035;7.0958;
738.6000;0.2027;7.1029;
738.9000;0.2035;7.1100;
739.2000;0.2027;7.1100;
739.5000;0.2002;7.1006;
739.8000;0.2027;7.0887;
740.1000;0.2035;7.0769;
740.4000;0.2027;7.0746;
740.7000;0.2019;7.0722;
741.0000;0.2011;7.0746;
741.3000;0.2092;7.1053;
741.6000;0.2002;7.0840;
741.9000;0.1994;7.0746;
742.2000;0.2043;7.0816;
742.5000;0.1994;7.0840;
742.8000;0.2002;7.0982;
743.1000;0.2027;7.1076;
743.4000;0.2002;7.1053;
743.7000;0.2011;7.1076;
744.0000;0.2002;7.1076;
744.3000;0.1978;7.1006;
744.6000;0.2019;7.1076;
744.9000;0.2011;7.0911;
745.2000;0.2027;7.0958;
745.5000;0.2011;7.0935;
745.8000;0.2011;7.0935;
746.1000;0.2100;7.1195;
746.4000;0.2092;7.1171;
746.7000;0.2100;7.1124;
747.0000;0.2011;7.1006;
747.3000;0.2019;7.1100;
747.6000;0.1954;7.0911;
747.9000;0.2019;7.1076;
748.2000;0.2019;7.1053;
748.5000;0.2002;7.1006;
748.8000;0.1994;7.1006;
749.1000;0.2011;7.1076;
749.4000;0.2002;7.1053;
749.7000;0.2019;7.1006;
750.0000;0.1994;7.1053;
750.3000;0.1962;7.1029;
750.6000;0.2027;7.1124;
750.9000;0.2002;7.1147;
751.2000;0.2002;7.1124;
751.5000;0.2027;7.1195;
751.8000;0.2002;7.1076;
752.1000;0.2116;7.1242;
752.4000;0.2027;7.0982;
752.7000;0.2035;7.1076;
753.0000;0.2027;7.0864;
753.3000;0.2092;7.1053;
753.6000;0.2027;7.0911;
753.9000;0.1994;7.0840;
754.2000;0.2002;7.0840;
754.5000;0.2019;7.0793;
754.8000;0.1897;7.0415;
755.1000;0.2019;7.0675;
755.4000;0.1994;7.0627;
755.7000;0.2011;7.0627;
756.0000;0.1945;7.0438;
756.3000;0.1986;7.0533;
756.6000;0.2019;7.0627;
756.9000;0.2035;7.0698;
757.2000;0.2019;7.0698;
757.5000;0.2027;7.0722;
757.8000;0.2011;7.0769;
758.1000;0.2002;7.0769;
758.4000;0.2019;7.0816;
758.7000;0.1962;7.0651;
759.0000;0.2011;7.0793;
759.3000;0.1986;7.0746;
759.6000;0.2011;7.0816;
759.9000;0.1994;7.0864;
760.2000;0.2011;7.0816;
760.5000;0.2011;7.0864;
760.8000;0.1945;7.0769;
761.1000;0.2002;7.0911;
761.4000;0.2002;7.0887;
761.7000;0.2002;7.0793;
762.0000;0.2011;7.0840;
762.3000;0.2043;7.0982;
762.6000;0.2035;7.1053;
762.9000;0.1994;7.1006;
763.2000;0.1954;7.1006;
763.5000;0.1978;7.1124;
763.8000;0.1994;7.1076;
764.1000;0.1986;7.1100;
764.4000;0.1962;7.1029;
764.7000;0.1994;7.1195;
765.0000;0.2002;7.1147;
765.3000;0.2011;7.1171;
765.6000;0.2002;7.1147;
765.9000;0.1994;7.1029;
766.2000;0.1986;7.1006;
766.5000;0.2092;7.1171;
766.8000;0.2019;7.1053;
767.1000;0.2011;7.1100;
767.4000;0.2011;7.1124;
767.7000;0.1986;7.1100;
768.0000;0.1994;7.1124;
768.3000;0.1970;7.1195;
768.6000;0.2027;7.1289;
768.9000;0.1986;7.1124;
769.2000;0.2059;7.1242;
769.5000;0.1978;7.1218;
769.8000;0.1994;7.1218;
770.1000;0.1986;7.1195;
770.4000;0.2011;7.1218;
770.7000;0.1994;7.1100;
771.0000;0.2002;7.1124;
771.3000;0.2002;7.1100;
771.6000;0.1994;7.1171;
771.9000;0.1986;7.1124;
772.2000;0.1994;7.1147;
772.5000;0.2027;7.1218;
772.8000;0.2011;7.1171;
773.1000;0.1994;7.1171;
773.4000;0.1986;7.1242;
773.7000;0.1994;7.1313;
774.0000;0.2011;7.1313;
774.3000;0.1994;7.1218;
774.6000;0.2019;7.1289;
774.9000;0.1986;7.1195;
775.2000;0.1978;7.1124;
775.5000;0.2002;7.1076;
775.8000;0.1978;7.0982;
776.1000;0.2019;7.1053;
776.4000;0.1994;7.1029;
776.7000;0.2051;7.1195;
777.0000;0.1937;7.0982;
777.3000;0.2002;7.1171;
777.6000;0.2002;7.1147;
777.9000;0.1986;7.1289;
778.2000;0.1994;7.1289;
778.5000;0.2002;7.1266;
778.8000;0.1986;7.1242;
779.1000;0.1937;7.1076;
779.4000;0.1994;7.1218;
779.7000;0.2002;7.1242;
780.0000;0.1986;7.1266;
780.3000;0.1994;7.1266;
780.6000;0.1994;7.1313;
780.9000;0.1986;7.1242;
781.2000;0.1986;7.1266;
781.5000;0.1986;7.1289;
781.8000;0.1986;7.1289;
782.1000;0.2011;7.1384;
782.4000;0.1978;7.1336;
782.7000;0.1978;7.1242;
783.0000;0.1994;7.1289;
783.3000;0.1994;7.1289;
783.6000;0.1994;7.1242;
783.9000;0.1994;7.1242;
784.2000;0.1994;7.1218;
784.5000;0.1970;7.1053;
784.8000;0.1954;7.1006;
785.1000;0.1986;7.1029;
785.4000;0.1978;7.0982;
785.7000;0.1986;7.0982;
786.0000;0.1994;7.1124;
786.3000;0.1897;7.0935;
786.6000;0.1994;7.1195;
786.9000;0.2035;7.1195;
787.2000;0.2002;7.1147;
787.5000;0.2002;7.1147;
787.8000;0.2011;7.1147;
788.1000;0.1978;7.1076;
788.4000;0.1954;7.1076;
788.7000;0.2027;7.1313;
789.0000;0.1954;7.1171;
789.3000;0.1954;7.1100;
789.6000;0.1970;7.1147;
789.9000;0.1994;7.1171;
790.2000;0.2002;7.1171;
790.5000;0.1978;7.1218;
790.8000;0.1962;7.1171;
791.1000;0.1970;7.1195;
791.4000;0.1970;7.1171;
791.7000;0.1970;7.1100;
792.0000;0.1945;7.0982;
792.3000;0.2027;7.1218;
792.6000;0.2011;7.1242;
792.9000;0.1921;7.1006;
793.2000;0.1978;7.1124;
793.5000;0.1954;7.1124;
793.8000;0.1978;7.1147;
794.1000;0.2011;7.1124;
794.4000;0.1978;7.1076;
794.7000;0.1970;7.1006;
795.0000;0.1970;7.1029;
795.3000;0.1978;7.1053;
795.6000;0.1978;7.1006;
795.9000;0.1986;7.1100;
796.2000;0.1962;7.0958;
796.5000;0.1986;7.1006;
796.8000;0.1978;7.1053;
797.1000;0.1945;7.1029;
797.4000;0.1986;7.1147;
797.7000;0.1970;7.1124;
798.0000;0.1970;7.1100;
798.3000;0.1986;7.1147;
798.6000;0.1937;7.1100;
798.9000;0.1978;7.1171;
799.2000;0.1970;7.1124;
799.5000;0.1954;7.1100;
799.8000;0.1986;7.1195;
800.1000;0.1994;7.1195;
800.4000;0.2035;7.1336;
800.7000;0.1962;7.1195;
801.0000;0.1962;7.1195;
801.3000;0.1986;7.1242;
801.6000;0.1962;7.1266;
801.9000;0.1978;7.1289;
802.2000;0.1970;7.1336;
802.5000;0.1929;7.1266;
802.8000;0.2068;7.1644;
803.1000;0.1970;7.1431;
803.4000;0.1962;7.1289;
803.7000;0.1994;7.1360;
804.0000;0.1978;7.1336;
804.3000;0.1970;7.1313;
804.6000;0.1970;7.1336;
804.9000;0.1978;7.1313;
805.2000;0.1970;7.1289;
805.5000;0.1978;7.1266;
805.8000;0.1970;7.1195;
806.1000;0.1945;7.1124;
806.4000;0.1994;7.1147;
806.7000;0.2027;7.1313;
807.0000;0.1913;7.1124;
807.3000;0.1962;7.1266;
807.6000;0.1970;7.1195;
807.9000;0.1880;7.0887;
808.2000;0.1962;7.1029;
808.5000;0.1970;7.1053;
808.8000;0.1937;7.0911;
809.1000;0.2002;7.1147;
809.4000;0.1970;7.1076;
809.7000;0.1945;7.1029;
810.0000;0.1954;7.1053;
810.3000;0.1970;7.1124;
810.6000;0.1954;7.1006;
810.9000;0.1986;7.1029;
811.2000;0.1954;7.1100;
811.5000;0.1986;7.1336;
811.8000;0.1921;7.1242;
812.1000;0.1937;7.1360;
812.4000;0.1994;7.1407;
812.7000;0.1970;7.1266;
813.0000;0.1856;7.0958;
813.3000;0.1954;7.1289;
813.6000;0.1970;7.1360;
813.9000;0.1962;7.1360;
814.2000;0.1970;7.1384;
814.5000;0.1962;7.1407;
814.8000;0.1970;7.1289;
815.1000;0.2043;7.1526;
815.4000;0.1945;7.1360;
815.7000;0.1962;7.1336;
816.0000;0.1937;7.1266;
816.3000;0.1954;7.1289;
816.6000;0.2019;7.1336;
816.9000;0.1986;7.1266;
817.2000;0.1945;7.1195;
817.5000;0.1962;7.1218;
817.8000;0.1978;7.1195;
818.1000;0.1945;7.1124;
818.4000;0.1970;7.1289;
818.7000;0.1962;7.1313;
819.0000;0.1937;7.1266;
819.3000;0.1962;7.1266;
819.6000;0.1945;7.1242;
819.9000;0.1962;7.1218;
820.2000;0.1954;7.1289;
820.5000;0.1962;7.1336;
820.8000;0.1929;7.1289;
821.1000;0.1962;7.1242;
821.4000;0.1937;7.1242;
821.7000;0.1954;7.1218;
822.0000;0.1945;7.1218;
822.3000;0.1970;7.1266;
822.6000;0.1929;7.1218;
822.9000;0.1978;7.1336;
823.2000;0.1970;7.1289;
823.5000;0.1962;7.1195;
823.8000;0.1970;7.1195;
824.1000;0.1954;7.1171;
824.4000;0.1954;7.1029;
824.7000;0.1970;7.1124;
825.0000;0.1978;7.1195;
825.3000;0.1962;7.1242;
825.6000;0.1848;7.0793;
825.9000;0.1970;7.1147;
826.2000;0.1970;7.1147;
826.5000;0.1970;7.1124;
826.8000;0.1962;7.1218;
827.1000;0.1962;7.1289;
827.4000;0.2011;7.1431;
827.7000;0.1962;7.1266;
828.0000;0.1954;7.1289;
828.3000;0.1962;7.1289;
828.6000;0.1954;7.1218;
828.9000;0.1962;7.1242;
829.2000;0.1954;7.1266;
829.5000;0.1954;7.1242;
829.8000;0.1962;7.1242;
830.1000;0.2002;7.1407;
830.4000;0.1945;7.1242;
830.7000;0.1962;7.1242;
831.0000;0.1945;7.1124;
831.3000;0.1954;7.1195;
831.6000;0.1945;7.1100;
831.9000;0.1970;7.1195;
832.2000;0.1962;7.1195;
832.5000;0.1945;7.1171;
832.8000;0.1970;7.1266;
833.1000;0.1954;7.1313;
833.4000;0.1978;7.1336;
833.7000;0.1970;7.1360;
834.0000;0.1921;7.1266;
834.3000;0.1962;7.1336;
834.6000;0.1962;7.1336;
834.9000;0.1937;7.1289;
835.2000;0.1962;7.1360;
835.5000;0.1921;7.1313;
835.8000;0.1945;7.1218;
836.1000;0.1970;7.1266;
836.4000;0.1954;7.1218;
836.7000;0.1945;7.1218;
837.0000;0.1978;7.1336;
837.3000;0.1954;7.1313;
837.6000;0.1905;7.1266;
837.9000;0.1962;7.1336;
838.2000;0.1986;7.1336;
838.5000;0.1970;7.1313;
838.8000;0.1970;7.1336;
839.1000;0.1962;7.1289;
839.4000;0.1962;7.1147;
839.7000;0.1945;7.1124;
840.0000;0.1962;7.1171;
840.3000;0.1954;7.1266;
840.6000;0.1897;7.1218;
840.9000;0.1954;7.1266;
841.2000;0.1978;7.1289;
841.5000;0.1880;7.1076;
841.8000;0.1945;7.1171;
842.1000;0.1954;7.1218;
842.4000;0.2002;7.1360;
842.7000;0.1954;7.1266;
843.0000;0.1937;7.1242;
843.3000;0.1929;7.1171;
843.6000;0.1954;7.1147;
843.9000;0.1872;7.1029;
844.2000;0.1945;7.1218;
844.5000;0.1970;7.1266;
844.8000;0.1954;7.1266;
845.1000;0.1954;7.1124;
845.4000;0.1937;7.1124;
845.7000;0.1937;7.1053;
846.0000;0.1945;7.1147;
846.3000;0.1929;7.1124;
846.6000;0.1986;7.1336;
846.9000;0.1954;7.1242;
847.2000;0.1970;7.1289;
847.5000;0.1937;7.1147;
847.8000;0.1945;7.1147;
848.1000;0.1945;7.1124;
848.4000;0.1913;7.1100;
848.7000;0.1937;7.1147;
849.0000;0.1937;7.1242;
849.3000;0.1945;7.1313;
849.6000;0.2019;7.1455;
849.9000;0.1945;7.1407;
850.2000;0.1921;7.1313;
850.5000;0.1962;7.1313;
850.8000;0.1921;7.1147;
851.1000;0.1945;7.1195;
851.4000;0.1954;7.1242;
851.7000;0.1945;7.1289;
852.0000;0.1945;7.1289;
852.3000;0.1954;7.1242;
852.6000;0.1937;7.1053;
852.9000;0.1937;7.1100;
853.2000;0.1970;7.1242;
853.5000;0.1929;7.1147;
853.8000;0.1986;7.1266;
854.1000;0.1970;7.1360;
854.4000;0.1954;7.1360;
854.7000;0.1954;7.1478;
855.0000;0.1945;7.1526;
855.3000;0.1921;7.1502;
855.6000;0.1929;7.1526;
855.9000;0.1954;7.1596;
856.2000;0.1962;7.1644;
856.5000;0.1929;7.1644;
856.8000;0.1937;7.1596;
857.1000;0.1945;7.1573;
857.4000;0.1986;7.1644;
857.7000;0.1970;7.1526;
858.0000;0.1945;7.1384;
858.3000;0.1929;7.1384;
858.6000;0.1954;7.1455;
858.9000;0.1954;7.1360;
859.2000;0.1970;7.1407;
859.5000;0.1945;7.1384;
859.8000;0.1945;7.1336;
860.1000;0.1962;7.1360;
860.4000;0.1921;7.1289;
860.7000;0.1913;7.1313;
861.0000;0.1937;7.1407;
861.3000;0.1921;7.1336;
861.6000;0.1945;7.1266;
861.9000;0.1954;7.1336;
862.2000;0.1937;7.1336;
862.5000;0.1970;7.1384;
862.8000;0.1921;7.1289;
863.1000;0.1945;7.1289;
863.4000;0.1945;7.1266;
863.7000;0.2051;7.1478;
864.0000;0.1945;7.1266;
864.3000;0.1937;7.1289;
864.6000;0.1954;7.1407;
864.9000;0.1945;7.1407;
865.2000;0.1954;7.1478;
865.5000;0.1994;7.1573;
865.8000;0.1929;7.1455;
866.1000;0.1945;7.1407;
866.4000;0.1945;7.1478;
866.7000;0.1921;7.1478;
867.0000;0.1937;7.1455;
867.3000;0.1913;7.1455;
867.6000;0.1962;7.1502;
867.9000;0.1986;7.1526;
868.2000;0.2019;7.1667;
868.5000;0.1954;7.1502;
868.8000;0.1945;7.1384;
869.1000;0.1970;7.1384;
869.4000;0.1937;7.1289;
869.7000;0.1913;7.1289;
870.0000;0.1945;7.1336;
870.3000;0.1962;7.1289;
870.6000;0.1905;7.1171;
870.9000;0.1937;7.1147;
871.2000;0.1921;7.1195;
871.5000;0.1929;7.1147;
871.8000;0.1921;7.1053;
872.1000;0.1945;7.1100;
872.4000;0.1945;7.1218;
872.7000;0.1954;7.1289;
873.0000;0.1945;7.1266;
873.3000;0.1945;7.1218;
873.6000;0.1954;7.1289;
873.9000;0.1954;7.1218;
874.2000;0.1945;7.1242;
874.5000;0.1962;7.1336;
874.8000;0.1954;7.1407;
875.1000;0.1937;7.1384;
875.4000;0.1937;7.1384;
875.7000;0.1937;7.1360;
876.0000;0.1929;7.1313;
876.3000;0.1954;7.1407;
876.6000;0.1937;7.1336;
876.9000;0.1945;7.1242;
877.2000;0.1913;7.1289;
877.5000;0.1929;7.1313;
877.8000;0.1945;7.1360;
878.1000;0.1937;7.1360;
878.4000;0.1954;7.1360;
878.7000;0.1986;7.1407;
879.0000;0.1954;7.1218;
879.3000;0.1945;7.1266;
879.6000;0.1945;7.1289;
879.9000;0.1905;7.1124;
880.2000;0.1970;7.1266;
880.5000;0.1921;7.1242;
880.8000;0.1937;7.1266;
881.1000;0.1937;7.1242;
881.4000;0.1954;7.1289;
881.7000;0.1905;7.1289;
882.0000;0.1921;7.1336;
882.3000;0.1954;7.1360;
882.6000;0.1962;7.1242;
882.9000;0.1954;7.1266;
883.2000;0.1937;7.1266;
883.5000;0.1929;7.1313;
883.8000;0.1929;7.1218;
884.1000;0.1945;7.1266;
884.4000;0.1897;7.1171;
884.7000;0.1986;7.1407;
885.0000;0.1937;7.1289;
885.3000;0.1945;7.1384;
885.6000;0.1945;7.1384;
885.9000;0.1937;7.1384;
886.2000;0.1929;7.1478;
886.5000;0.1872;7.1407;
886.8000;0.1929;7.1455;
887.1000;0.1945;7.1455;
887.4000;0.1929;7.1407;
887.7000;0.1921;7.1431;
888.0000;0.1945;7.1384;
888.3000;0.1962;7.1336;
888.6000;0.1954;7.1289;
888.9000;0.1970;7.1384;
889.2000;0.1945;7.1360;
889.5000;0.1937;7.1384;
889.8000;0.1929;7.1336;
890.1000;0.1921;7.1384;
890.4000;0.1945;7.1289;
890.7000;0.1945;7.1336;
891.0000;0.1929;7.1313;
891.3000;0.1954;7.1455;
891.6000;0.1929;7.1384;
891.9000;0.1921;7.1407;
892.2000;0.1921;7.1360;
892.5000;0.1929;7.1360;
892.8000;0.1962;7.1407;
893.1000;0.1937;7.1336;
893.4000;0.1945;7.1289;
893.7000;0.1962;7.1360;
894.0000;0.1929;7.1266;
894.3000;0.1954;7.1266;
894.6000;0.1962;7.1313;
894.9000;0.1937;7.1336;
895.2000;0.1929;7.1218;
895.5000;0.1962;7.1218;
895.8000;0.1937;7.1076;
896.1000;0.1921;7.1029;
896.4000;0.1929;7.1195;
896.7000;0.1905;7.1124;
897.0000;0.1913;7.1147;
897.3000;0.1954;7.1289;
897.6000;0.1921;7.1242;
897.9000;0.1937;7.1336;
898.2000;0.1954;7.1384;
898.5000;0.1937;7.1336;
898.8000;0.1945;7.1289;
899.1000;0.1954;7.1242;
899.4000;0.1929;7.1171;
899.7000;0.2027;7.1455;
900.0000;0.2011;7.1431;
900.3000;0.1929;7.1289;
900.6000;0.1929;7.1336;
900.9000;0.2011;7.1573;
901.2000;0.1945;7.1289;
901.5000;0.1929;7.1266;
901.8000;0.1945;7.1336;
902.1000;0.1929;7.1242;
902.4000;0.1937;7.1266;
902.7000;0.1921;7.1313;
903.0000;0.1937;7.1313;
903.3000;0.1929;7.1218;
903.6000;0.1937;7.1171;
903.9000;0.1929;7.1218;
904.2000;0.1937;7.1266;
904.5000;0.1945;7.1242;
904.8000;0.1945;7.1289;
905.1000;0.1921;7.1195;
905.4000;0.1929;7.1242;
905.7000;0.1929;7.1195;
906.0000;0.1937;7.1313;
906.3000;0.1954;7.1431;
906.6000;0.1929;7.1431;
906.9000;0.1921;7.1407;
907.2000;0.1954;7.1455;
907.5000;0.1945;7.1407;
907.8000;0.1937;7.1455;
908.1000;0.1945;7.1360;
908.4000;0.1954;7.1360;
908.7000;0.1937;7.1242;
909.0000;0.1929;7.1266;
909.3000;0.1905;7.1266;
909.6000;0.1937;7.1336;
909.9000;0.1937;7.1360;
910.2000;0.1945;7.1336;
910.5000;0.1929;7.1289;
910.8000;0.1937;7.1289;
911.1000;0.1913;7.1195;
911.4000;0.1929;7.1124;
911.7000;0.1945;7.1100;
912.0000;0.1945;7.1053;
912.3000;0.1954;7.1124;
912.6000;0.1913;7.1053;
912.9000;0.1913;7.1006;
913.2000;0.1929;7.1053;
913.5000;0.1921;7.1124;
913.8000;0.1897;7.1171;
914.1000;0.1929;7.1336;
914.4000;0.1921;7.1266;
914.7000;0.1954;7.1431;
915.0000;0.1921;7.1384;
915.3000;0.1929;7.1360;
915.6000;0.1986;7.1478;
915.9000;0.1897;7.1289;
916.2000;0.1913;7.1313;
916.5000;0.1856;7.1100;
916.8000;0.1897;7.1147;
917.1000;0.1913;7.1100;
917.4000;0.1905;7.1218;
917.7000;0.1929;7.1218;
918.0000;0.1937;7.1313;
918.3000;0.1913;7.1360;
918.6000;0.1815;7.1124;
918.9000;0.1921;7.1313;
919.2000;0.1921;7.1384;
919.5000;0.1921;7.1384;
919.8000;0.2035;7.1667;
920.1000;0.1945;7.1360;
920.4000;0.1929;7.1336;
920.7000;0.1994;7.1478;
921.0000;0.1937;7.1407;
921.3000;0.1921;7.1360;
921.6000;0.1913;7.1360;
921.9000;0.1937;7.1384;
922.2000;0.1937;7.1384;
922.5000;0.1929;7.1289;
922.8000;0.1937;7.1336;
923.1000;0.1937;7.1384;
923.4000;0.1986;7.1478;
923.7000;0.1954;7.1360;
924.0000;0.1929;7.1242;
924.3000;0.1921;7.1147;
924.6000;0.1937;7.1195;
924.9000;0.1921;7.1124;
925.2000;0.1897;7.0958;
925.5000;0.1921;7.1100;
925.8000;0.1897;7.1100;
926.1000;0.1929;7.1171;
926.4000;0.1921;7.1171;
926.7000;0.1905;7.1124;
927.0000;0.1921;7.1242;
927.3000;0.1954;7.1407;
927.6000;0.1913;7.1242;
927.9000;0.1937;7.1313;
928.2000;0.1929;7.1289;
928.5000;0.1921;7.1242;
928.8000;0.1905;7.1289;
929.1000;0.1929;7.1289;
929.4000;0.1921;7.1289;
929.7000;0.1921;7.1336;
930.0000;0.2035;7.1691;
930.3000;0.1872;7.1336;
930.6000;0.1945;7.1431;
930.9000;0.1921;7.1431;
931.2000;0.1921;7.1336;
931.5000;0.1929;7.1289;
931.8000;0.1921;7.1289;
932.1000;0.1937;7.1384;
932.4000;0.2011;7.1644;
932.7000;0.1905;7.1336;
933.0000;0.1921;7.1266;
933.3000;0.1905;7.1242;
933.6000;0.1937;7.1289;
933.9000;0.1945;7.1384;
934.2000;0.1937;7.1407;
934.5000;0.1994;7.1526;
934.8000;0.1945;7.1455;
935.1000;0.1937;7.1502;
935.4000;0.1978;7.1549;
935.7000;0.1929;7.1336;
936.0000;0.1929;7.1289;
936.3000;0.1945;7.1289;
936.6000;0.1913;7.1242;
936.9000;0.1929;7.1266;
937.2000;0.1921;7.1195;
937.5000;0.1954;7.1218;
937.8000;0.1937;7.1147;
938.1000;0.2002;7.1266;
938.4000;0.1937;7.1100;
938.7000;0.1970;7.1171;
939.0000;0.1954;7.1124;
939.3000;0.1905;7.1147;
939.6000;0.1945;7.1313;
939.9000;0.1945;7.1313;
940.2000;0.1978;7.1384;
940.5000;0.1937;7.1313;
940.8000;0.1937;7.1360;
941.1000;0.1913;7.1360;
941.4000;0.1905;7.1313;
941.7000;0.1929;7.1407;
942.0000;0.1929;7.1407;
942.3000;0.1954;7.1478;
942.6000;0.1897;7.1289;
942.9000;0.1945;7.1336;
943.2000;0.1945;7.1384;
943.5000;0.1921;7.1266;
943.8000;0.1913;7.1218;
944.1000;0.1937;7.1336;
944.4000;0.1905;7.1289;
944.7000;0.1945;7.1360;
945.0000;0.1937;7.1431;
945.3000;0.1921;7.1336;
945.6000;0.1921;7.1336;
945.9000;0.1929;7.1289;
946.2000;0.1905;7.1289;
946.5000;0.1929;7.1431;
946.8000;0.1994;7.1573;
947.1000;0.1921;7.1313;
947.4000;0.1929;7.1313;
947.7000;0.1945;7.1313;
948.0000;0.1929;7.1336;
948.3000;0.1921;7.1360;
948.6000;0.1921;7.1289;
948.9000;0.1945;7.1289;
949.2000;0.1970;7.1360;
949.5000;0.1897;7.1242;
949.8000;0.1921;7.1360;
950.1000;0.1937;7.1478;
950.4000;0.1937;7.1526;
950.7000;0.1929;7.1431;
951.0000;0.1921;7.1455;
951.3000;0.1962;7.1596;
951.6000;0.1937;7.1526;
951.9000;0.1905;7.1360;
952.2000;0.1954;7.1502;
952.5000;0.1888;7.1407;
952.8000;0.1945;7.1502;
953.1000;0.1986;7.1620;
953.4000;0.1921;7.1549;
953.7000;0.1913;7.1478;
954.0000;0.1937;7.1526;
954.3000;0.1945;7.1644;
954.6000;0.1954;7.1644;
954.9000;0.1929;7.1502;
955.2000;0.1929;7.1502;
955.5000;0.1913;7.1407;
955.8000;0.1929;7.1336;
956.1000;0.1921;7.1360;
956.4000;0.1937;7.1384;
956.7000;0.1897;7.1218;
957.0000;0.1921;7.1195;
957.3000;0.1897;7.1218;
957.6000;0.1937;7.1384;
957.9000;0.1929;7.1336;
958.2000;0.1929;7.1218;
958.5000;0.2002;7.1336;
958.8000;0.1921;7.1147;
959.1000;0.1929;7.1147;
959.4000;0.1978;7.1360;
959.7000;0.1937;7.1336;
960.0000;0.1937;7.1384;
960.3000;0.1913;7.1431;
960.6000;0.1921;7.1431;
960.9000;0.1929;7.1407;
961.2000;0.1921;7.1407;
961.5000;0.1929;7.1431;
961.8000;0.1945;7.1478;
962.1000;0.1937;7.1478;
962.4000;0.1921;7.1502;
962.7000;0.1962;7.1573;
963.0000;0.1929;7.1478;
963.3000;0.1921;7.1407;
963.6000;0.1921;7.1384;
963.9000;0.1921;7.1384;
964.2000;0.1929;7.1384;
964.5000;0.1929;7.1313;
964.8000;0.1897;7.1313;
965.1000;0.1929;7.1384;
965.4000;0.1937;7.1526;
965.7000;0.1913;7.1360;
966.0000;0.1929;7.1407;
966.3000;0.1937;7.1455;
966.6000;0.1921;7.1407;
966.9000;0.1937;7.1384;
967.2000;0.1945;7.1384;
967.5000;0.1905;7.1242;
967.8000;0.1929;7.1218;
968.1000;0.1937;7.1336;
968.4000;0.1937;7.1313;
968.7000;0.1929;7.1289;
969.0000;0.1929;7.1289;
969.3000;0.1921;7.1336;
969.6000;0.1921;7.1336;
969.9000;0.1929;7.1313;
970.2000;0.1937;7.1360;
970.5000;0.1913;7.1384;
970.8000;0.1937;7.1384;
971.1000;0.1897;7.1266;
971.4000;0.1970;7.1384;
971.7000;0.1913;7.1289;
972.0000;0.1921;7.1313;
972.3000;0.1954;7.1289;
972.6000;0.1937;7.1313;
972.9000;0.1929;7.1242;
973.2000;0.1929;7.1266;
973.5000;0.1880;7.1100;
973.8000;0.1897;7.1242;
974.1000;0.1905;7.1384;
974.4000;0.1913;7.1455;
974.7000;0.1913;7.1573;
975.0000;0.1913;7.1478;
975.3000;0.1937;7.1526;
975.6000;0.1929;7.1478;
975.9000;0.1905;7.1502;
976.2000;0.1929;7.1596;
976.5000;0.1921;7.1596;
976.8000;0.1929;7.1620;
977.1000;0.1929;7.1596;
977.4000;0.1905;7.1549;
977.7000;0.1905;7.1478;
978.0000;0.1937;7.1549;
978.3000;0.1921;7.1384;
978.6000;0.1913;7.1407;
978.9000;0.1929;7.1407;
979.2000;0.1913;7.1384;
979.5000;0.1872;7.1289;
979.8000;0.1897;7.1266;
980.1000;0.1929;7.1384;
980.4000;0.1945;7.1502;
980.7000;0.1945;7.1478;
981.0000;0.1929;7.1455;
981.3000;0.1880;7.1336;
981.6000;0.1913;7.1455;
981.9000;0.1888;7.1384;
982.2000;0.1913;7.1455;
982.5000;0.1913;7.1455;
982.8000;0.1913;7.1360;
983.1000;0.1929;7.1336;
983.4000;0.1913;7.1313;
983.7000;0.1921;7.1289;
984.0000;0.1913;7.1360;
984.3000;0.1905;7.1384;
984.6000;0.1937;7.1596;
984.9000;0.1929;7.1549;
985.2000;0.1929;7.1526;
985.5000;0.1921;7.1478;
985.8000;0.1856;7.1289;
986.1000;0.1913;7.1526;
986.4000;0.1913;7.1478;
986.7000;0.1929;7.1526;
987.0000;0.1913;7.1549;
987.3000;0.1921;7.1549;
987.6000;0.1905;7.1455;
987.9000;0.1929;7.1549;
988.2000;0.1913;7.1502;
988.5000;0.1913;7.1478;
988.8000;0.1970;7.1644;
989.1000;0.1905;7.1431;
989.4000;0.1929;7.1502;
989.7000;0.1913;7.1478;
990.0000;0.1913;7.1431;
990.3000;0.1823;7.1242;
990.6000;0.1921;7.1549;
990.9000;0.1913;7.1526;
991.2000;0.1913;7.1620;
991.5000;0.1913;7.1526;
991.8000;0.1905;7.1478;
992.1000;0.1921;7.1526;
992.4000;0.1945;7.1549;
992.7000;0.1929;7.1455;
993.0000;0.1913;7.1384;
993.3000;0.1913;7.1407;
993.6000;0.1905;7.1384;
993.9000;0.1848;7.1218;
994.2000;0.1913;7.1313;
994.5000;0.1937;7.1431;
994.8000;0.1945;7.1455;
995.1000;0.1945;7.1431;
995.4000;0.1937;7.1502;
995.7000;0.1937;7.1478;
996.0000;0.1945;7.1384;
996.3000;0.1921;7.1384;
996.6000;0.1913;7.1407;
996.9000;0.1888;7.1360;
997.2000;0.1848;7.1242;
997.5000;0.1905;7.1313;
997.8000;0.1921;7.1313;
998.1000;0.1913;7.1289;
998.4000;0.1880;7.1242;
998.7000;0.1897;7.1242;
999.0000;0.1913;7.1289;
999.3000;0.1905;7.1218;
999.6000;0.1913;7.1218;
999.9000;0.1880;7.1266;
1000.2000;0.1954;7.1478;
1000.5000;0.1872;7.1313;
1000.8000;0.1929;7.1407;
1001.1000;0.1897;7.1360;
1001.4000;0.1856;7.1171;
1001.7000;0.1905;7.1313;
1002.0000;0.1905;7.1313;
1002.3000;0.1913;7.1336;
1002.6000;0.1929;7.1266;
1002.9000;0.1913;7.1195;
1003.2000;0.1897;7.1195;
1003.5000;0.1872;7.1171;
1003.8000;0.1921;7.1336;
1004.1000;0.1913;7.1384;
1004.4000;0.1905;7.1384;
1004.7000;0.1913;7.1407;
1005.0000;0.1921;7.1313;
1005.3000;0.1937;7.1289;
1005.6000;0.2019;7.1384;
1005.9000;0.1929;7.1218;
1006.2000;0.1929;7.1313;
1006.5000;0.1921;7.1360;
1006.8000;0.1913;7.1455;
1007.1000;0.1929;7.1384;
1007.4000;0.1929;7.1313;
1007.7000;0.1921;7.1313;
1008.0000;0.1921;7.1384;
1008.3000;0.1913;7.1478;
1008.6000;0.1913;7.1431;
1008.9000;0.1913;7.1407;
1009.2000;0.1921;7.1384;
1009.5000;0.1913;7.1384;
1009.8000;0.1954;7.1431;
1010.1000;0.1872;7.1313;
1010.4000;0.1945;7.1502;
1010.7000;0.1913;7.1360;
1011.0000;0.1937;7.1384;
1011.3000;0.1913;7.1360;
1011.6000;0.1929;7.1431;
1011.9000;0.1905;7.1455;
1012.2000;0.1888;7.1502;
1012.5000;0.1929;7.1502;
1012.8000;0.1962;7.1502;
1013.1000;0.1913;7.1336;
1013.4000;0.1897;7.1289;
1013.7000;0.1905;7.1407;
1014.0000;0.1921;7.1478;
1014.3000;0.1897;7.1407;
1014.6000;0.1929;7.1502;
1014.9000;0.1913;7.1478;
1015.2000;0.1929;7.1502;
1015.5000;0.1913;7.1431;
1015.8000;0.1921;7.1455;
1016.1000;0.1921;7.1431;
1016.4000;0.1921;7.1360;
1016.7000;0.1945;7.1431;
1017.0000;0.1921;7.1313;
1017.3000;0.1937;7.1313;
1017.6000;0.1921;7.1195;
1017.9000;0.1905;7.1195;
1018.2000;0.1913;7.1313;
1018.5000;0.1913;7.1313;
1018.8000;0.1962;7.1502;
1019.1000;0.1897;7.1407;
1019.4000;0.1888;7.1360;
1019.7000;0.1929;7.1455;
1020.0000;0.1921;7.1526;
1020.3000;0.1905;7.1502;
1020.6000;0.1880;7.1526;
1020.9000;0.1905;7.1526;
1021.2000;0.1913;7.1573;
1021.5000;0.1929;7.1549;
1021.8000;0.1945;7.1526;
1022.1000;0.1905;7.1455;
1022.4000;0.1905;7.1455;
1022.7000;0.1905;7.1478;
1023.0000;0.1913;7.1549;
1023.3000;0.1978;7.1762;
1023.6000;0.1856;7.1431;
1023.9000;0.1929;7.1620;
1024.2000;0.1929;7.1573;
1024.5000;0.1913;7.1502;
1024.8000;0.1848;7.1384;
1025.1000;0.1921;7.1478;
1025.4000;0.1913;7.1360;
1025.7000;0.1986;7.1549;
1026.0000;0.1929;7.1431;
1026.3000;0.1937;7.1407;
1026.6000;0.1921;7.1336;
1026.9000;0.1913;7.1313;
1027.2000;0.1921;7.1336;
1027.5000;0.1921;7.1289;
1027.8000;0.1913;7.1266;
1028.1000;0.1815;7.1029;
1028.4000;0.1954;7.1431;
1028.7000;0.1897;7.1218;
1029.0000;0.1905;7.1195;
1029.3000;0.1921;7.1266;
1029.6000;0.1945;7.1289;
1029.9000;0.1954;7.1289;
1030.2000;0.1913;7.1218;
1030.5000;0.1929;7.1336;
1030.8000;0.1954;7.1313;
1031.1000;0.1913;7.1195;
1031.4000;0.1888;7.1218;
1031.7000;0.2011;7.1431;
1032.0000;0.1937;7.1171;
1032.3000;0.1937;7.1147;
1032.6000;0.1905;7.1147;
1032.9000;0.1929;7.1195;
1033.2000;0.1913;7.1147;
1033.5000;0.1905;7.1124;
1033.8000;0.1905;7.0982;
1034.1000;0.1929;7.1195;
1034.4000;0.1921;7.1242;
1034.7000;0.1913;7.1218;
1035.0000;0.1921;7.1266;
1035.3000;0.1929;7.1313;
1035.6000;0.1905;7.1266;
1035.9000;0.1986;7.1478;
1036.2000;0.1913;7.1336;
1036.5000;0.1913;7.1384;
1036.8000;0.1937;7.1502;
1037.1000;0.1872;7.1407;
1037.4000;0.1913;7.1526;
1037.7000;0.1929;7.1478;
1038.0000;0.1921;7.1407;
1038.3000;0.1929;7.1360;
1038.6000;0.1921;7.1313;
1038.9000;0.1913;7.1266;
1039.2000;0.1962;7.1407;
1039.5000;0.1937;7.1431;
1039.8000;0.1905;7.1407;
1040.1000;0.1929;7.1384;
1040.4000;0.1937;7.1313;
1040.7000;0.1929;7.1313;
1041.0000;0.1921;7.1242;
1041.3000;0.1888;7.1218;
1041.6000;0.1913;7.1242;
1041.9000;0.1937;7.1218;
1042.2000;0.1897;7.1171;
1042.5000;0.1905;7.1289;
1042.8000;0.1921;7.1360;
1043.1000;0.1905;7.1384;
1043.4000;0.1888;7.1218;
1043.7000;0.1921;7.1266;
1044.0000;0.1921;7.1360;
1044.3000;0.1937;7.1407;
1044.6000;0.1937;7.1313;
1044.9000;0.1913;7.1242;
1045.2000;0.1986;7.1384;
1045.5000;0.1929;7.1289;
1045.8000;0.1905;7.1313;
1046.1000;0.1913;7.1313;
1046.4000;0.1897;7.1289;
1046.7000;0.1929;7.1336;
1047.0000;0.1905;7.1266;
1047.3000;0.1872;7.1147;
1047.6000;0.1929;7.1313;
1047.9000;0.1897;7.1313;
1048.2000;0.1921;7.1384;
1048.5000;0.1905;7.1431;
1048.8000;0.1913;7.1478;
1049.1000;0.1888;7.1455;
1049.4000;0.1929;7.1502;
1049.7000;0.1921;7.1431;
1050.0000;0.1905;7.1455;
1050.3000;0.1905;7.1478;
1050.6000;0.1945;7.1596;
1050.9000;0.1937;7.1596;
1051.2000;0.1921;7.1549;
1051.5000;0.1913;7.1502;
1051.8000;0.1905;7.1502;
1052.1000;0.1913;7.1573;
1052.4000;0.1929;7.1526;
1052.7000;0.1905;7.1431;
1053.0000;0.1970;7.1573;
1053.3000;0.1921;7.1384;
1053.6000;0.1954;7.1407;
1053.9000;0.1929;7.1360;
1054.2000;0.1921;7.1360;
1054.5000;0.1929;7.1407;
1054.8000;0.1921;7.1360;
1055.1000;0.1929;7.1455;
1055.4000;0.1921;7.1407;
1055.7000;0.1937;7.1431;
1056.0000;0.1986;7.1549;
1056.3000;0.1921;7.1407;
1056.6000;0.1905;7.1313;
1056.9000;0.1905;7.1313;
1057.2000;0.1913;7.1289;
1057.5000;0.1897;7.1289;
1057.8000;0.1897;7.1289;
1058.1000;0.1905;7.1313;
1058.4000;0.1905;7.1147;
1058.7000;0.1929;7.1053;
1059.0000;0.1905;7.0935;
1059.3000;0.1913;7.0935;
1059.6000;0.1937;7.0887;
1059.9000;0.1929;7.0911;
1060.2000;0.1905;7.0935;
1060.5000;0.1897;7.0935;
1060.8000;0.1937;7.1100;
1061.1000;0.1929;7.1076;
1061.4000;0.1921;7.1006;
1061.7000;0.1921;7.1006;
1062.0000;0.1937;7.1076;
1062.3000;0.1905;7.1029;
1062.6000;0.1937;7.1029;
1062.9000;0.1897;7.0935;
1063.2000;0.1840;7.0982;
1063.5000;0.1921;7.1124;
1063.8000;0.1929;7.1171;
1064.1000;0.1913;7.1171;
1064.4000;0.1897;7.1147;
1064.7000;0.1848;7.1029;
1065.0000;0.1921;7.1266;
1065.3000;0.1929;7.1336;
1065.6000;0.1921;7.1313;
1065.9000;0.1929;7.1407;
1066.2000;0.1921;7.1407;
1066.5000;0.1897;7.1336;
1066.8000;0.1897;7.1360;
1067.1000;0.1905;7.1431;
1067.4000;0.1937;7.1502;
1067.7000;0.1872;7.1313;
1068.0000;0.1880;7.1431;
1068.3000;0.1897;7.1455;
1068.6000;0.1921;7.1526;
1068.9000;0.1913;7.1526;
1069.2000;0.1897;7.1431;
1069.5000;0.1913;7.1455;
1069.8000;0.1921;7.1502;
1070.1000;0.1921;7.1502;
1070.4000;0.1897;7.1384;
1070.7000;0.1945;7.1455;
1071.0000;0.1954;7.1360;
1071.3000;0.1929;7.1266;
1071.6000;0.1937;7.1195;
1071.9000;0.1880;7.1076;
1072.2000;0.1913;7.1147;
1072.5000;0.1962;7.1218;
1072.8000;0.1929;7.1076;
1073.1000;0.1905;7.1147;
1073.4000;0.1929;7.1218;
1073.7000;0.1905;7.1171;
1074.0000;0.1937;7.1195;
1074.3000;0.1840;7.0958;
1074.6000;0.1913;7.1242;
1074.9000;0.1945;7.1455;
1075.2000;0.1937;7.1455;
1075.5000;0.1929;7.1455;
1075.8000;0.1937;7.1478;
1076.1000;0.1929;7.1431;
1076.4000;0.1929;7.1407;
1076.7000;0.1905;7.1384;
1077.0000;0.1921;7.1336;
1077.3000;0.1913;7.1313;
1077.6000;0.1897;7.1313;
1077.9000;0.1905;7.1384;
1078.2000;0.1905;7.1384;
1078.5000;0.1921;7.1431;
1078.8000;0.1921;7.1407;
1079.1000;0.1897;7.1360;
1079.4000;0.1929;7.1478;
1079.7000;0.1937;7.1478;
1080.0000;0.1905;7.1289;
1080.3000;0.1921;7.1313;
1080.6000;0.1954;7.1455;
1080.9000;0.1897;7.1431;
1081.2000;0.1937;7.1478;
1081.5000;0.1913;7.1455;
1081.8000;0.1888;7.1384;
1082.1000;0.1913;7.1431;
1082.4000;0.1913;7.1455;
1082.7000;0.1921;7.1478;
1083.0000;0.1815;7.1266;
1083.3000;0.1913;7.1573;
1083.6000;0.1921;7.1549;
1083.9000;0.1913;7.1502;
1084.2000;0.1929;7.1526;
1084.5000;0.1888;7.1478;
1084.8000;0.1921;7.1549;
1085.1000;0.1937;7.1455;
1085.4000;0.1905;7.1455;
1085.7000;0.1937;7.1502;
1086.0000;0.1921;7.1526;
1086.3000;0.1905;7.1526;
1086.6000;0.1921;7.1549;
1086.9000;0.1921;7.1526;
1087.2000;0.1921;7.1313;
1087.5000;0.1921;7.1242;
1087.8000;0.1905;7.1218;
1088.1000;0.1954;7.1407;
1088.4000;0.1905;7.1336;
1088.7000;0.1978;7.1526;
1089.0000;0.1937;7.1384;
1089.3000;0.1913;7.1266;
1089.6000;0.1856;7.1100;
1089.9000;0.1913;7.1266;
1090.2000;0.1905;7.1218;
1090.5000;0.1897;7.1242;
1090.8000;0.1986;7.1526;
1091.1000;0.1905;7.1384;
1091.4000;0.1913;7.1502;
1091.7000;0.1921;7.1573;
1092.0000;0.1864;7.1384;
1092.3000;0.1880;7.1407;
1092.6000;0.1913;7.1502;
1092.9000;0.1897;7.1549;
1093.2000;0.1897;7.1596;
1093.5000;0.1905;7.1620;
1093.8000;0.1921;7.1715;
1094.1000;0.1921;7.1738;
1094.4000;0.1913;7.1573;
1094.7000;0.1921;7.1596;
1095.0000;0.1937;7.1715;
1095.3000;0.1921;7.1691;
1095.6000;0.1945;7.1667;
1095.9000;0.1978;7.1667;
1096.2000;0.1929;7.1502;
1096.5000;0.1937;7.1573;
1096.8000;0.1897;7.1596;
1097.1000;0.1897;7.1526;
1097.4000;0.1962;7.1715;
1097.7000;0.1913;7.1644;
1098.0000;0.1921;7.1644;
1098.3000;0.1913;7.1573;
1098.6000;0.1905;7.1502;
1098.9000;0.1921;7.1478;
1099.2000;0.1937;7.1455;
1099.5000;0.1913;7.1455;
1099.8000;0.1913;7.1502;
1100.1000;0.1897;7.1384;
1100.4000;0.1905;7.1407;
1100.7000;0.1913;7.1360;
1101.0000;0.1921;7.1431;
1101.3000;0.1897;7.1360;
1101.6000;0.1864;7.1313;
1101.9000;0.1921;7.1407;
1102.2000;0.1897;7.1526;
1102.5000;0.1880;7.1526;
1102.8000;0.1905;7.1573;
1103.1000;0.1905;7.1455;
1103.4000;0.1888;7.1384;
1103.7000;0.1880;7.1455;
1104.0000;0.1897;7.1549;
1104.3000;0.1897;7.1526;
1104.6000;0.1937;7.1667;
1104.9000;0.1897;7.1455;
1105.2000;0.1905;7.1407;
1105.5000;0.1913;7.1407;
1105.8000;0.1897;7.1289;
1106.1000;0.1913;7.1242;
1106.4000;0.1905;7.1195;
1106.7000;0.1913;7.1289;
1107.0000;0.1929;7.1313;
1107.3000;0.1921;7.1313;
1107.6000;0.1921;7.1384;
1107.9000;0.1929;7.1431;
1108.2000;0.1937;7.1455;
1108.5000;0.1913;7.1384;
1108.8000;0.1913;7.1360;
1109.1000;0.1905;7.1360;
1109.4000;0.1905;7.1384;
1109.7000;0.1921;7.1431;
1110.0000;0.1929;7.1384;
1110.3000;0.1929;7.1336;
1110.6000;0.1921;7.1313;
1110.9000;0.1970;7.1455;
1111.2000;0.1921;7.1360;
1111.5000;0.1937;7.1478;
1111.8000;0.1905;7.1384;
1112.1000;0.1913;7.1336;
1112.4000;0.1864;7.1195;
1112.7000;0.1897;7.1360;
1113.0000;0.1913;7.1407;
1113.3000;0.1888;7.1384;
1113.6000;0.1848;7.1289;
1113.9000;0.1905;7.1502;
1114.2000;0.1929;7.1526;
1114.5000;0.2002;7.1762;
1114.8000;0.1888;7.1384;
1115.1000;0.1913;7.1431;
1115.4000;0.1954;7.1573;
1115.7000;0.1905;7.1526;
1116.0000;0.1929;7.1667;
1116.3000;0.1897;7.1596;
1116.6000;0.1905;7.1573;
1116.9000;0.1929;7.1549;
1117.2000;0.1872;7.1360;
1117.5000;0.1897;7.1313;
1117.8000;0.1921;7.1266;
1118.1000;0.1937;7.1124;
1118.4000;0.1913;7.1053;
1118.7000;0.1872;7.0935;
1119.0000;0.1905;7.1100;
1119.3000;0.1913;7.1195;
1119.6000;0.1913;7.1242;
1119.9000;0.1888;7.1289;
1120.2000;0.1905;7.1384;
1120.5000;0.1913;7.1455;
1120.8000;0.1905;7.1407;
1121.1000;0.1921;7.1242;
1121.4000;0.1921;7.1195;
1121.7000;0.1913;7.1218;
1122.0000;0.1978;7.1407;
1122.3000;0.1913;7.1147;
1122.6000;0.1937;7.1147;
1122.9000;0.1905;7.1053;
1123.2000;0.1913;7.1053;
1123.5000;0.1921;7.1100;
1123.8000;0.1905;7.1053;
1124.1000;0.1888;7.1100;
1124.4000;0.1905;7.1124;
1124.7000;0.1921;7.1218;
1125.0000;0.1929;7.1242;
1125.3000;0.1897;7.1242;
1125.6000;0.1872;7.1195;
1125.9000;0.1888;7.1289;
1126.2000;0.1888;7.1218;
1126.5000;0.1921;7.1195;
1126.8000;0.1937;7.1147;
1127.1000;0.1921;7.1100;
1127.4000;0.1913;7.1124;
1127.7000;0.1905;7.1147;
1128.0000;0.1921;7.1242;
1128.3000;0.1888;7.1124;
1128.6000;0.1864;7.0958;
1128.9000;0.1929;7.1124;
1129.2000;0.1921;7.1076;
1129.5000;0.1929;7.1147;
1129.8000;0.1937;7.1147;
1130.1000;0.1905;7.1124;
1130.4000;0.1937;7.1195;
1130.7000;0.1937;7.1147;
1131.0000;0.1929;7.1195;
1131.3000;0.1929;7.1147;
1131.6000;0.1913;7.1195;
1131.9000;0.1905;7.1195;
1132.2000;0.1913;7.1242;
1132.5000;0.1913;7.1218;
1132.8000;0.1905;7.1195;
1133.1000;0.1905;7.1242;
1133.4000;0.1921;7.1313;
1133.7000;0.1921;7.1289;
1134.0000;0.1905;7.1360;
1134.3000;0.1913;7.1360;
1134.6000;0.1921;7.1336;
1134.9000;0.1888;7.1242;
1135.2000;0.1921;7.1289;
1135.5000;0.1945;7.1289;
1135.8000;0.1937;7.1384;
1136.1000;0.1905;7.1289;
1136.4000;0.1921;7.1289;
1136.7000;0.1905;7.1289;
1137.0000;0.1921;7.1289;
1137.3000;0.1905;7.1266;
1137.6000;0.1888;7.1195;
1137.9000;0.1905;7.1171;
1138.2000;0.1913;7.1218;
1138.5000;0.1897;7.1242;
1138.8000;0.1913;7.1266;
1139.1000;0.1921;7.1313;
1139.4000;0.1905;7.1266;
1139.7000;0.1921;7.1242;
1140.0000;0.1913;7.1289;
1140.3000;0.1913;7.1336;
1140.6000;0.1929;7.1407;
1140.9000;0.1954;7.1407;
1141.2000;0.1921;7.1313;
1141.5000;0.1929;7.1313;
1141.8000;0.1929;7.1384;
1142.1000;0.1913;7.1431;
1142.4000;0.1970;7.1549;
1142.7000;0.1913;7.1266;
1143.0000;0.1913;7.1218;
1143.3000;0.1929;7.1266;
1143.6000;0.1913;7.1195;
1143.9000;0.1921;7.1266;
1144.2000;0.1913;7.1289;
1144.5000;0.1913;7.1266;
1144.8000;0.1880;7.1195;
1145.1000;0.1913;7.1242;
1145.4000;0.1945;7.1266;
1145.7000;0.1897;7.1266;
1146.0000;0.1913;7.1313;
1146.3000;0.1905;7.1360;
1146.6000;0.1921;7.1360;
1146.9000;0.1905;7.1360;
1147.2000;0.1921;7.1336;
1147.5000;0.1766;7.0887;
1147.8000;0.1937;7.1289;
1148.1000;0.1888;7.1100;
1148.4000;0.1913;7.1100;
1148.7000;0.1913;7.1242;
1149.0000;0.1897;7.1124;
1149.3000;0.1864;7.1100;
1149.6000;0.1962;7.1384;
1149.9000;0.1905;7.1218;
1150.2000;0.1945;7.1384;
1150.5000;0.1905;7.1242;
1150.8000;0.1913;7.1195;
1151.1000;0.1913;7.1195;
1151.4000;0.1937;7.1195;
1151.7000;0.1921;7.1171;
1152.0000;0.1929;7.1195;
1152.3000;0.1929;7.1218;
1152.6000;0.1905;7.1195;
1152.9000;0.1905;7.1124;
1153.2000;0.1848;7.0911;
1153.5000;0.1921;7.1006;
1153.8000;0.1921;7.1006;
1154.1000;0.1905;7.1076;
1154.4000;0.1945;7.1195;
1154.7000;0.1888;7.1076;
1155.0000;0.1929;7.1076;
1155.3000;0.1929;7.1100;
1155.6000;0.1921;7.1147;
1155.9000;0.1913;7.1171;
1156.2000;0.1913;7.1171;
1156.5000;0.1856;7.0935;
1156.8000;0.1913;7.1100;
1157.1000;0.1921;7.1100;
1157.4000;0.1945;7.1171;
1157.7000;0.1929;7.1124;
1158.0000;0.1905;7.1076;
1158.3000;0.1913;7.1147;
1158.6000;0.1897;7.1195;
1158.9000;0.1905;7.1195;
1159.2000;0.1888;7.1147;
1159.5000;0.1921;7.1218;
1159.8000;0.1937;7.1195;
1160.1000;0.1913;7.1171;
1160.4000;0.1913;7.1289;
1160.7000;0.1921;7.1289;
1161.0000;0.1897;7.1242;
1161.3000;0.1913;7.1171;
1161.6000;0.1905;7.1242;
1161.9000;0.1897;7.1218;
1162.2000;0.1913;7.1218;
1162.5000;0.1880;7.1171;
1162.8000;0.1888;7.1076;
1163.1000;0.1905;7.1100;
1163.4000;0.1905;7.1124;
1163.7000;0.1864;7.0935;
1164.0000;0.1921;7.1076;
1164.3000;0.1921;7.1124;
1164.6000;0.1888;7.1195;
1164.9000;0.1913;7.1171;
1165.2000;0.1872;7.1076;
1165.5000;0.1954;7.1313;
1165.8000;0.1905;7.1218;
1166.1000;0.1905;7.1171;
1166.4000;0.1962;7.1336;
1166.7000;0.1937;7.1360;
1167.0000;0.1921;7.1360;
1167.3000;0.1897;7.1266;
1167.6000;0.1864;7.1242;
1167.9000;0.1913;7.1360;
1168.2000;0.1913;7.1266;
1168.5000;0.1954;7.1407;
1168.8000;0.1823;7.1124;
1169.1000;0.1905;7.1218;
1169.4000;0.1905;7.1195;
1169.7000;0.1856;7.1147;
1170.0000;0.1864;7.1124;
1170.3000;0.1921;7.1147;
1170.6000;0.1897;7.1124;
1170.9000;0.1929;7.1218;
1171.2000;0.1945;7.1336;
1171.5000;0.1921;7.1195;
1171.8000;0.1970;7.1266;
1172.1000;0.1945;7.1195;
1172.4000;0.1905;7.1076;
1172.7000;0.1864;7.0982;
1173.0000;0.1929;7.1147;
1173.3000;0.1921;7.1100;
1173.6000;0.1880;7.0958;
1173.9000;0.1880;7.0982;
1174.2000;0.1905;7.1076;
1174.5000;0.1929;7.1218;
1174.8000;0.1872;7.1076;
1175.1000;0.1905;7.1313;
1175.4000;0.1913;7.1218;
1175.7000;0.1897;7.1218;
1176.0000;0.1897;7.1242;
1176.3000;0.1913;7.1360;
1176.6000;0.1913;7.1384;
1176.9000;0.1913;7.1313;
1177.2000;0.1921;7.1313;
1177.5000;0.1913;7.1242;
1177.8000;0.1913;7.1242;
1178.1000;0.1937;7.1242;
1178.4000;0.1913;7.1147;
1178.7000;0.1921;7.1124;
1179.0000;0.1921;7.1147;
1179.3000;0.1856;7.0982;
1179.6000;0.1888;7.1053;
1179.9000;0.1897;7.1053;
1180.2000;0.1905;7.1100;
1180.5000;0.1921;7.1100;
1180.8000;0.1913;7.1100;
1181.1000;0.1921;7.1195;
1181.4000;0.1929;7.1218;
1181.7000;0.1929;7.1218;
1182.0000;0.1921;7.1266;
1182.3000;0.1897;7.1242;
1182.6000;0.1913;7.1289;
1182.9000;0.1897;7.1313;
1183.2000;0.1929;7.1360;
1183.5000;0.1897;7.1218;
1183.8000;0.1897;7.1242;
1184.1000;0.1905;7.1195;
1184.4000;0.1888;7.1053;
1184.7000;0.1888;7.0958;
1185.0000;0.1913;7.1053;
1185.3000;0.1840;7.0864;
1185.6000;0.1921;7.1076;
1185.9000;0.1913;7.1006;
1186.2000;0.1954;7.1147;
1186.5000;0.1945;7.1124;
1186.8000;0.1937;7.1100;
1187.1000;0.1905;7.1100;
1187.4000;0.1962;7.1242;
1187.7000;0.1913;7.1100;
1188.0000;0.1929;7.1171;
1188.3000;0.1856;7.1076;
1188.6000;0.1921;7.1195;
1188.9000;0.1921;7.1218;
1189.2000;0.1897;7.1100;
1189.5000;0.1905;7.1100;
1189.8000;0.1929;7.1100;
1190.1000;0.1921;7.1100;
1190.4000;0.1937;7.1147;
1190.7000;0.1937;7.1171;
1191.0000;0.1913;7.1100;
1191.3000;0.1913;7.1195;
1191.6000;0.1970;7.1384;
1191.9000;0.1913;7.1266;
1192.2000;0.1921;7.1218;
1192.5000;0.2019;7.1384;
1192.8000;0.1897;7.1029;
1193.1000;0.1921;7.1053;
1193.4000;0.1921;7.1053;
1193.7000;0.1913;7.1029;
1194.0000;0.1921;7.1100;
1194.3000;0.1937;7.1218;
1194.6000;0.1888;7.1171;
1194.9000;0.1913;7.1313;
1195.2000;0.1905;7.1336;
1195.5000;0.1921;7.1336;
1195.8000;0.1929;7.1384;
1196.1000;0.1905;7.1313;
1196.4000;0.1905;7.1289;
1196.7000;0.1937;7.1289;
1197.0000;0.1897;7.1147;
1197.3000;0.1905;7.1147;
1197.6000;0.1880;7.1147;
1197.9000;0.1888;7.1266;
1198.2000;0.1905;7.1336;
1198.5000;0.1905;7.1171;
1198.8000;0.1962;7.1289;
1199.1000;0.1880;7.1124;
1199.4000;0.1913;7.1218;
1199.7000;0.1913;7.1195;
1200.0000;0.1913;7.1147;
1200.3000;0.1897;7.1147;
1200.6000;0.1905;7.1195;
1200.9000;0.1913;7.1289;
1201.2000;0.1913;7.1266;
1201.5000;0.1929;7.1360;
1201.8000;0.1913;7.1289;
1202.1000;0.1921;7.1242;
1202.4000;0.1929;7.1195;
1202.7000;0.1929;7.1171;
1203.0000;0.1913;7.1124;
1203.3000;0.1945;7.1218;
1203.6000;0.1945;7.1242;
1203.9000;0.1897;7.1171;
1204.2000;0.1897;7.1124;
1204.5000;0.1897;7.1147;
1204.8000;0.1913;7.1124;
1205.1000;0.1897;7.1124;
1205.4000;0.1913;7.1124;
1205.7000;0.1913;7.1242;
1206.0000;0.1913;7.1313;
1206.3000;0.1897;7.1266;
1206.6000;0.1913;7.1195;
1206.9000;0.1897;7.1076;
1207.2000;0.1913;7.1147;
1207.5000;0.1970;7.1360;
1207.8000;0.1913;7.1124;
1208.1000;0.1897;7.1124;
1208.4000;0.1921;7.1242;
1208.7000;0.1937;7.1242;
1209.0000;0.1888;7.1100;
1209.3000;0.1905;7.1124;
1209.6000;0.1897;7.1147;
1209.9000;0.1905;7.1266;
1210.2000;0.1897;7.1289;
1210.5000;0.1905;7.1289;
1210.8000;0.1905;7.1360;
1211.1000;0.1888;7.1360;
1211.4000;0.1888;7.1455;
1211.7000;0.1823;7.1313;
1212.0000;0.1913;7.1502;
1212.3000;0.1945;7.1549;
1212.6000;0.1905;7.1431;
1212.9000;0.1905;7.1431;
1213.2000;0.1905;7.1431;
1213.5000;0.1905;7.1336;
1213.8000;0.1905;7.1313;
1214.1000;0.1905;7.1242;
1214.4000;0.1888;7.1289;
1214.7000;0.1913;7.1360;
1215.0000;0.1929;7.1289;
1215.3000;0.1905;7.1218;
1215.6000;0.1913;7.1218;
1215.9000;0.1921;7.1171;
1216.2000;0.1921;7.1100;
1216.5000;0.1913;7.1124;
1216.8000;0.1929;7.1147;
1217.1000;0.1913;7.1147;
1217.4000;0.1921;7.1195;
1217.7000;0.1913;7.1266;
1218.0000;0.1913;7.1360;
1218.3000;0.1913;7.1336;
1218.6000;0.1897;7.1431;
1218.9000;0.1905;7.1431;
1219.2000;0.1888;7.1407;
1219.5000;0.1888;7.1336;
1219.8000;0.1905;7.1266;
1220.1000;0.1921;7.1242;
1220.4000;0.1913;7.1289;
1220.7000;0.1921;7.1218;
1221.0000;0.1888;7.1195;
1221.3000;0.1921;7.1360;
1221.6000;0.1888;7.1360;
1221.9000;0.1913;7.1526;
1222.2000;0.1937;7.1526;
1222.5000;0.1929;7.1549;
1222.8000;0.1897;7.1526;
1223.1000;0.1897;7.1549;
1223.4000;0.1905;7.1596;
1223.7000;0.1913;7.1596;
1224.0000;0.1905;7.1596;
1224.3000;0.1897;7.1549;
1224.6000;0.1888;7.1455;
1224.9000;0.1905;7.1336;
1225.2000;0.1905;7.1336;
1225.5000;0.1880;7.1289;
1225.8000;0.1905;7.1360;
1226.1000;0.1913;7.1384;
1226.4000;0.1921;7.1360;
1226.7000;0.1929;7.1360;
1227.0000;0.1880;7.1266;
1227.3000;0.1913;7.1336;
1227.6000;0.1888;7.1313;
1227.9000;0.1913;7.1242;
1228.2000;0.1913;7.1336;
1228.5000;0.1888;7.1195;
1228.8000;0.1913;7.1242;
1229.1000;0.1921;7.1147;
1229.4000;0.1897;7.1124;
1229.7000;0.1913;7.1242;
1230.0000;0.1905;7.1195;
1230.3000;0.1888;7.1218;
1230.6000;0.1897;7.1313;
1230.9000;0.1897;7.1266;
1231.2000;0.1897;7.1147;
1231.5000;0.1929;7.1336;
1231.8000;0.1913;7.1360;
1232.1000;0.1905;7.1407;
1232.4000;0.1905;7.1431;
1232.7000;0.1913;7.1431;
1233.0000;0.1897;7.1384;
1233.3000;0.1897;7.1360;
1233.6000;0.1905;7.1313;
1233.9000;0.1921;7.1384;
1234.2000;0.1864;7.1289;
1234.5000;0.1880;7.1384;
1234.8000;0.1888;7.1407;
1235.1000;0.1921;7.1431;
1235.4000;0.1937;7.1502;
1235.7000;0.1921;7.1455;
1236.0000;0.1864;7.1407;
1236.3000;0.1921;7.1502;
1236.6000;0.1937;7.1478;
1236.9000;0.1986;7.1667;
1237.2000;0.1921;7.1431;
1237.5000;0.1913;7.1384;
1237.8000;0.1905;7.1360;
1238.1000;0.1856;7.1195;
1238.4000;0.1929;7.1336;
1238.7000;0.1905;7.1218;
1239.0000;0.1921;7.1218;
1239.3000;0.1913;7.1360;
1239.6000;0.1913;7.1313;
1239.9000;0.1921;7.1289;
1240.2000;0.1929;7.1218;
1240.5000;0.1905;7.1124;
1240.8000;0.1929;7.1218;
1241.1000;0.1921;7.1171;
1241.4000;0.1905;7.1100;
1241.7000;0.1921;7.1195;
1242.0000;0.1905;7.1289;
1242.3000;0.1897;7.1266;
1242.6000;0.1888;7.1289;
1242.9000;0.1905;7.1218;
1243.2000;0.1913;7.1266;
1243.5000;0.1905;7.1242;
1243.8000;0.1807;7.1053;
1244.1000;0.1913;7.1242;
1244.4000;0.1897;7.1195;
1244.7000;0.1962;7.1384;
1245.0000;0.1905;7.1289;
1245.3000;0.1913;7.1455;
1245.6000;0.1905;7.1336;
1245.9000;0.1905;7.1336;
1246.2000;0.1799;7.1053;
1246.5000;0.1913;7.1313;
1246.8000;0.1921;7.1360;
1247.1000;0.1905;7.1289;
1247.4000;0.1897;7.1313;
1247.7000;0.1905;7.1313;
1248.0000;0.1905;7.1384;
1248.3000;0.1905;7.1384;
1248.6000;0.1897;7.1384;
1248.9000;0.1929;7.1407;
1249.2000;0.1905;7.1384;
1249.5000;0.1913;7.1313;
1249.8000;0.1913;7.1455;
1250.1000;0.1929;7.1431;
1250.4000;0.1929;7.1431;
1250.7000;0.1913;7.1360;
1251.0000;0.1921;7.1289;
1251.3000;0.1913;7.1218;
1251.6000;0.1929;7.1242;
1251.9000;0.1921;7.1195;
1252.2000;0.1897;7.1218;
1252.5000;0.1913;7.1313;
1252.8000;0.1897;7.1360;
1253.1000;0.1905;7.1455;
1253.4000;0.1921;7.1478;
1253.7000;0.1897;7.1266;
1254.0000;0.1897;7.1218;
1254.3000;0.1913;7.1384;
1254.6000;0.1905;7.1360;
1254.9000;0.1929;7.1407;
1255.2000;0.1929;7.1336;
1255.5000;0.1897;7.1242;
1255.8000;0.1954;7.1478;
1256.1000;0.1913;7.1502;
1256.4000;0.1921;7.1502;
1256.7000;0.1937;7.1526;
1257.0000;0.1913;7.1360;
1257.3000;0.1913;7.1313;
1257.6000;0.1913;7.1407;
1257.9000;0.1880;7.1289;
1258.2000;0.1905;7.1289;
1258.5000;0.1945;7.1407;
1258.8000;0.1864;7.1384;
1259.1000;0.1905;7.1526;
1259.4000;0.1929;7.1549;
1259.7000;0.1897;7.1431;
1260.0000;0.1888;7.1407;
1260.3000;0.1905;7.1360;
1260.6000;0.1937;7.1407;
1260.9000;0.1945;7.1455;
1261.2000;0.1897;7.1289;
1261.5000;0.1913;7.1336;
1261.8000;0.1945;7.1384;
1262.1000;0.1937;7.1384;
1262.4000;0.1913;7.1289;
1262.7000;0.1986;7.1549;
1263.0000;0.1921;7.1336;
1263.3000;0.1945;7.1360;
1263.6000;0.1929;7.1289;
1263.9000;0.1962;7.1431;
1264.2000;0.1945;7.1313;
1264.5000;0.1929;7.1266;
1264.8000;0.1921;7.1313;
1265.1000;0.1929;7.1336;
1265.4000;0.1913;7.1242;
1265.7000;0.1913;7.1195;
1266.0000;0.1921;7.1242;
1266.3000;0.1921;7.1242;
1266.6000;0.1954;7.1289;
1266.9000;0.1929;7.1266;
1267.2000;0.1929;7.1407;
1267.5000;0.1905;7.1407;
1267.8000;0.1905;7.1431;
1268.1000;0.1929;7.1526;
1268.4000;0.1913;7.1596;
1268.7000;0.1888;7.1526;
1269.0000;0.1888;7.1502;
1269.3000;0.1905;7.1526;
1269.6000;0.1880;7.1360;
1269.9000;0.1897;7.1313;
1270.2000;0.1897;7.1266;
1270.5000;0.1929;7.1289;
1270.8000;0.1954;7.1289;
1271.1000;0.1945;7.1266;
1271.4000;0.1905;7.1195;
1271.7000;0.1880;7.1242;
1272.0000;0.1913;7.1289;
1272.3000;0.1929;7.1242;
1272.6000;0.1905;7.1195;
1272.9000;0.1937;7.1171;
1273.2000;0.1921;7.1171;
1273.5000;0.1962;7.1289;
1273.8000;0.1921;7.1218;
1274.1000;0.1880;7.1147;
1274.4000;0.1962;7.1266;
1274.7000;0.1913;7.1147;
1275.0000;0.1880;7.1100;
1275.3000;0.1929;7.1242;
1275.6000;0.1897;7.1195;
1275.9000;0.1905;7.1053;
1276.2000;0.1929;7.1218;
1276.5000;0.1872;7.1124;
1276.8000;0.1897;7.1242;
1277.1000;0.1921;7.1289;
1277.4000;0.1970;7.1336;
1277.7000;0.1905;7.1266;
1278.0000;0.1921;7.1360;
1278.3000;0.1905;7.1242;
1278.6000;0.1897;7.1242;
1278.9000;0.1929;7.1336;
1279.2000;0.1905;7.1289;
1279.5000;0.1905;7.1195;
1279.8000;0.1929;7.1266;
1280.1000;0.1921;7.1195;
1280.4000;0.1986;7.1313;
1280.7000;0.1962;7.1336;
1281.0000;0.1897;7.1242;
1281.3000;0.1962;7.1478;
1281.6000;0.1880;7.1218;
1281.9000;0.1921;7.1242;
1282.2000;0.1913;7.1266;
1282.5000;0.1954;7.1313;
1282.8000;0.1921;7.1171;
1283.1000;0.1921;7.1124;
1283.4000;0.1921;7.1266;
1283.7000;0.1921;7.1360;
1284.0000;0.1897;7.1360;
1284.3000;0.1872;7.1171;
1284.6000;0.1848;7.0911;
1284.9000;0.1897;7.1029;
1285.2000;0.1929;7.1124;
1285.5000;0.2002;7.1313;
1285.8000;0.1921;7.1195;
1286.1000;0.1937;7.1218;
1286.4000;0.1888;7.1147;
1286.7000;0.1937;7.1266;
1287.0000;0.1929;7.1242;
1287.3000;0.1913;7.1289;
1287.6000;0.1929;7.1313;
1287.9000;0.1897;7.1242;
1288.2000;0.1913;7.1336;
1288.5000;0.1929;7.1431;
1288.8000;0.1913;7.1360;
1289.1000;0.1905;7.1336;
1289.4000;0.1872;7.1289;
1289.7000;0.1905;7.1336;
1290.0000;0.1970;7.1455;
1290.3000;0.1888;7.1289;
1290.6000;0.1897;7.1242;
1290.9000;0.1905;7.1147;
1291.2000;0.1921;7.1218;
1291.5000;0.1921;7.1242;
1291.8000;0.1913;7.1313;
1292.1000;0.1897;7.1313;
1292.4000;0.1897;7.1289;
1292.7000;0.1897;7.1195;
1293.0000;0.1921;7.1171;
1293.3000;0.1937;7.1195;
1293.6000;0.1897;7.1171;
1293.9000;0.1913;7.1266;
1294.2000;0.1856;7.1124;
1294.5000;0.1921;7.1313;
1294.8000;0.1937;7.1384;
1295.1000;0.1929;7.1218;
1295.4000;0.1913;7.1124;
1295.7000;0.1872;7.1053;
1296.0000;0.1905;7.1147;
1296.3000;0.1921;7.1218;
1296.6000;0.1905;7.1218;
1296.9000;0.1937;7.1289;
1297.2000;0.1921;7.1360;
1297.5000;0.1888;7.1195;
1297.8000;0.1897;7.1124;
1298.1000;0.1897;7.1053;
1298.4000;0.1970;7.1171;
1298.7000;0.1913;7.1076;
1299.0000;0.1913;7.1124;
1299.3000;0.1905;7.1100;
1299.6000;0.1897;7.1218;
1299.9000;0.1921;7.1266;
1300.2000;0.1905;7.1147;
1300.5000;0.1905;7.1147;
1300.8000;0.1913;7.1242;
1301.1000;0.1921;7.1195;
1301.4000;0.1905;7.1242;
1301.7000;0.1905;7.1242;
1302.0000;0.1905;7.1360;
1302.3000;0.1913;7.1336;
1302.6000;0.1921;7.1289;
1302.9000;0.1913;7.1218;
1303.2000;0.1929;7.1266;
1303.5000;0.1856;7.1053;
1303.8000;0.1921;7.1242;
1304.1000;0.1913;7.1242;
1304.4000;0.1888;7.1100;
1304.7000;0.1945;7.1195;
1305.0000;0.1897;7.1100;
1305.3000;0.1913;7.1195;
1305.6000;0.1913;7.1147;
1305.9000;0.1897;7.1147;
1306.2000;0.1905;7.1195;
1306.5000;0.1888;7.1171;
1306.8000;0.1921;7.1360;
1307.1000;0.1913;7.1384;
1307.4000;0.1913;7.1407;
1307.7000;0.1929;7.1289;
1308.0000;0.1913;7.1171;
1308.3000;0.1913;7.1147;
1308.6000;0.1905;7.1124;
1308.9000;0.1905;7.1147;
1309.2000;0.1913;7.1124;
1309.5000;0.1897;7.1218;
1309.8000;0.1913;7.1266;
1310.1000;0.1913;7.1336;
1310.4000;0.1897;7.1266;
1310.7000;0.1897;7.1313;
1311.0000;0.1929;7.1431;
1311.3000;0.1937;7.1455;
1311.6000;0.1905;7.1549;
1311.9000;0.1880;7.1526;
1312.2000;0.1921;7.1596;
1312.5000;0.1905;7.1667;
1312.8000;0.1921;7.1620;
1313.1000;0.1970;7.1762;
1313.4000;0.1880;7.1596;
1313.7000;0.1945;7.1738;
1314.0000;0.1897;7.1573;
1314.3000;0.2002;7.1786;
1314.6000;0.1921;7.1549;
1314.9000;0.1897;7.1478;
1315.2000;0.1913;7.1431;
1315.5000;0.1913;7.1360;
1315.8000;0.1856;7.1242;
1316.1000;0.1864;7.1266;
1316.4000;0.1954;7.1526;
1316.7000;0.1929;7.1478;
1317.0000;0.1905;7.1289;
1317.3000;0.1978;7.1526;
1317.6000;0.1905;7.1360;
1317.9000;0.1921;7.1313;
1318.2000;0.1913;7.1360;
1318.5000;0.1897;7.1266;
1318.8000;0.1921;7.1336;
1319.1000;0.1913;7.1289;
1319.4000;0.1905;7.1336;
1319.7000;0.1913;7.1313;
1320.0000;0.1897;7.1313;
1320.3000;0.1880;7.1384;
1320.6000;0.1905;7.1478;
1320.9000;0.1913;7.1455;
1321.2000;0.1905;7.1384;
1321.5000;0.1872;7.1313;
1321.8000;0.1929;7.1360;
1322.1000;0.1913;7.1336;
1322.4000;0.1897;7.1289;
1322.7000;0.1905;7.1266;
1323.0000;0.1929;7.1360;
1323.3000;0.1897;7.1360;
1323.6000;0.1905;7.1289;
1323.9000;0.1929;7.1336;
1324.2000;0.1897;7.1336;
1324.5000;0.1840;7.1147;
1324.8000;0.1905;7.1313;
1325.1000;0.1921;7.1360;
1325.4000;0.1905;7.1242;
1325.7000;0.1921;7.1171;
1326.0000;0.1913;7.1218;
1326.3000;0.1905;7.1266;
1326.6000;0.1864;7.1076;
1326.9000;0.1921;7.1147;
1327.2000;0.1897;7.1076;
1327.5000;0.1945;7.1195;
1327.8000;0.1905;7.1195;
1328.1000;0.1929;7.1266;
1328.4000;0.1832;7.1006;
1328.7000;0.1921;7.1147;
1329.0000;0.1929;7.1124;
1329.3000;0.1945;7.1124;
1329.6000;0.1970;7.1171;
1329.9000;0.1937;7.1124;
1330.2000;0.1921;7.1076;
1330.5000;0.1921;7.1100;
1330.8000;0.1921;7.1195;
1331.1000;0.1913;7.1218;
1331.4000;0.1913;7.1289;
1331.7000;0.1929;7.1266;
1332.0000;0.1921;7.1147;
1332.3000;0.1945;7.1195;
1332.6000;0.1921;7.1147;
1332.9000;0.1921;7.1076;
1333.2000;0.1913;7.1147;
1333.5000;0.1929;7.1218;
1333.8000;0.1921;7.1171;
1334.1000;0.1872;7.1124;
1334.4000;0.1905;7.1147;
1334.7000;0.1905;7.1171;
1335.0000;0.1921;7.1242;
1335.3000;0.1897;7.1218;
1335.6000;0.1954;7.1360;
1335.9000;0.1905;7.1242;
1336.2000;0.1888;7.1242;
1336.5000;0.1913;7.1289;
1336.8000;0.1921;7.1266;
1337.1000;0.1913;7.1242;
1337.4000;0.1913;7.1313;
1337.7000;0.1929;7.1313;
1338.0000;0.1799;7.1006;
1338.3000;0.1921;7.1195;
1338.6000;0.1856;7.1100;
1338.9000;0.1888;7.1171;
1339.2000;0.1929;7.1289;
1339.5000;0.1921;7.1313;
1339.8000;0.1905;7.1289;
1340.1000;0.1913;7.1289;
1340.4000;0.1888;7.1171;
1340.7000;0.1937;7.1242;
1341.0000;0.1905;7.1171;
1341.3000;0.1937;7.1195;
1341.6000;0.1872;7.1147;
1341.9000;0.1921;7.1360;
1342.2000;0.1921;7.1384;
1342.5000;0.1929;7.1384;
1342.8000;0.1921;7.1360;
1343.1000;0.1913;7.1336;
1343.4000;0.1913;7.1266;
1343.7000;0.1897;7.1360;
1344.0000;0.1897;7.1313;
1344.3000;0.1913;7.1384;
1344.6000;0.1913;7.1360;
1344.9000;0.1897;7.1336;
1345.2000;0.1897;7.1336;
1345.5000;0.1913;7.1502;
1345.8000;0.1913;7.1526;
1346.1000;0.1921;7.1549;
1346.4000;0.1897;7.1526;
1346.7000;0.1815;7.1313;
1347.0000;0.1888;7.1526;
1347.3000;0.1897;7.1502;
1347.6000;0.1921;7.1549;
1347.9000;0.1905;7.1407;
1348.2000;0.1913;7.1360;
1348.5000;0.1905;7.1336;
1348.8000;0.1897;7.1266;
1349.1000;0.1921;7.1360;
1349.4000;0.1929;7.1384;
1349.7000;0.1791;7.1100;
1350.0000;0.1888;7.1455;
1350.3000;0.1880;7.1407;
1350.6000;0.1897;7.1384;
1350.9000;0.1897;7.1431;
1351.2000;0.1905;7.1313;
1351.5000;0.1970;7.1455;
1351.8000;0.1905;7.1266;
1352.1000;0.1840;7.1076;
1352.4000;0.1897;7.1218;
1352.7000;0.1929;7.1289;
1353.0000;0.1905;7.1266;
1353.3000;0.1937;7.1313;
1353.6000;0.1913;7.1360;
1353.9000;0.1897;7.1289;
1354.2000;0.1905;7.1313;
1354.5000;0.1905;7.1266;
1354.8000;0.1937;7.1360;
1355.1000;0.1905;7.1266;
1355.4000;0.1954;7.1384;
1355.7000;0.1888;7.1242;
1356.0000;0.1913;7.1336;
1356.3000;0.1897;7.1360;
1356.6000;0.1897;7.1384;
1356.9000;0.1888;7.1407;
1357.2000;0.1929;7.1455;
1357.5000;0.1897;7.1336;
1357.8000;0.1905;7.1266;
1358.1000;0.1905;7.1313;
1358.4000;0.1888;7.1289;
1358.7000;0.1880;7.1407;
1359.0000;0.1897;7.1407;
1359.3000;0.1905;7.1360;
1359.6000;0.1913;7.1360;
1359.9000;0.1880;7.1313;
1360.2000;0.1905;7.1384;
1360.5000;0.1897;7.1289;
1360.8000;0.1905;7.1360;
1361.1000;0.1929;7.1455;
1361.4000;0.1921;7.1478;
1361.7000;0.1962;7.1573;
1362.0000;0.1929;7.1502;
1362.3000;0.1921;7.1526;
1362.6000;0.1905;7.1478;
1362.9000;0.1905;7.1478;
1363.2000;0.1897;7.1573;
1363.5000;0.1929;7.1620;
1363.8000;0.1937;7.1738;
1364.1000;0.1970;7.1691;
1364.4000;0.1921;7.1549;
1364.7000;0.1945;7.1596;
1365.0000;0.1913;7.1502;
1365.3000;0.1929;7.1502;
1365.6000;0.1929;7.1502;
1365.9000;0.1929;7.1573;
1366.2000;0.1913;7.1573;
1366.5000;0.1913;7.1478;
1366.8000;0.1823;7.1242;
1367.1000;0.1929;7.1502;
1367.4000;0.1913;7.1478;
1367.7000;0.1913;7.1455;
1368.0000;0.1913;7.1455;
1368.3000;0.1913;7.1478;
1368.6000;0.1929;7.1596;
1368.9000;0.1954;7.1573;
1369.2000;0.1913;7.1502;
1369.5000;0.1913;7.1455;
1369.8000;0.1897;7.1526;
1370.1000;0.1913;7.1667;
1370.4000;0.1897;7.1691;
1370.7000;0.1888;7.1573;
1371.0000;0.1897;7.1667;
1371.3000;0.1945;7.1715;
1371.6000;0.1921;7.1573;
1371.9000;0.1897;7.1526;
1372.2000;0.1970;7.1573;
1372.5000;0.1913;7.1407;
1372.8000;0.1897;7.1313;
1373.1000;0.1921;7.1336;
1373.4000;0.1913;7.1407;
1373.7000;0.1872;7.1289;
1374.0000;0.1897;7.1313;
1374.3000;0.1905;7.1360;
1374.6000;0.1905;7.1384;
1374.9000;0.1897;7.1407;
1375.2000;0.1913;7.1407;
1375.5000;0.1897;7.1336;
1375.8000;0.1888;7.1313;
1376.1000;0.1888;7.1313;
1376.4000;0.1921;7.1360;
1376.7000;0.1840;7.1242;
1377.0000;0.1905;7.1384;
1377.3000;0.1888;7.1455;
1377.6000;0.1945;7.1691;
1377.9000;0.1929;7.1549;
1378.2000;0.1921;7.1502;
1378.5000;0.1921;7.1478;
1378.8000;0.1945;7.1644;
1379.1000;0.1921;7.1526;
1379.4000;0.1897;7.1644;
1379.7000;0.1913;7.1549;
1380.0000;0.1913;7.1478;
1380.3000;0.1913;7.1478;
1380.6000;0.1913;7.1407;
1380.9000;0.1913;7.1384;
1381.2000;0.1905;7.1384;
1381.5000;0.1945;7.1478;
1381.8000;0.1897;7.1384;
1382.1000;0.1913;7.1431;
1382.4000;0.1888;7.1384;
1382.7000;0.1921;7.1431;
1383.0000;0.1897;7.1313;
1383.3000;0.1937;7.1384;
1383.6000;0.1905;7.1431;
1383.9000;0.1888;7.1384;
1384.2000;0.1913;7.1313;
1384.5000;0.1897;7.1336;
1384.8000;0.1913;7.1431;
1385.1000;0.1937;7.1526;
1385.4000;0.1913;7.1502;
1385.7000;0.1880;7.1336;
1386.0000;0.1897;7.1289;
1386.3000;0.1913;7.1289;
1386.6000;0.1913;7.1218;
1386.9000;0.1888;7.1100;
1387.2000;0.1921;7.1218;
1387.5000;0.1864;7.1195;
1387.8000;0.1929;7.1360;
1388.1000;0.1905;7.1384;
1388.4000;0.1897;7.1289;
1388.7000;0.1905;7.1336;
1389.0000;0.1921;7.1289;
1389.3000;0.1864;7.1124;
1389.6000;0.1897;7.1242;
1389.9000;0.1905;7.1266;
1390.2000;0.1913;7.1242;
1390.5000;0.1897;7.1100;
1390.8000;0.1905;7.1147;
1391.1000;0.1888;7.1266;
1391.4000;0.1897;7.1336;
1391.7000;0.1897;7.1360;
1392.0000;0.1888;7.1407;
1392.3000;0.1888;7.1384;
1392.6000;0.1913;7.1455;
1392.9000;0.1921;7.1526;
1393.2000;0.1921;7.1502;
1393.5000;0.1913;7.1431;
1393.8000;0.1905;7.1478;
1394.1000;0.1921;7.1431;
1394.4000;0.1888;7.1360;
1394.7000;0.1897;7.1384;
1395.0000;0.1905;7.1313;
1395.3000;0.1921;7.1360;
1395.6000;0.1905;7.1313;
1395.9000;0.1921;7.1313;
1396.2000;0.1888;7.1171;
1396.5000;0.1905;7.1124;
1396.8000;0.1913;7.1195;
1397.1000;0.1921;7.1242;
1397.4000;0.1937;7.1313;
1397.7000;0.1905;7.1289;
1398.0000;0.1921;7.1266;
1398.3000;0.1929;7.1313;
1398.6000;0.1929;7.1289;
1398.9000;0.1897;7.1195;
1399.2000;0.1913;7.1266;
1399.5000;0.1921;7.1289;
1399.8000;0.1913;7.1313;
