time/ms;Fluo/V;P700 deltaI/I x10³;
-199.8000;0.2116;7.1856;
-199.5000;0.2116;7.1856;
-199.2000;0.2125;7.1880;
-198.9000;0.2133;7.1856;
-198.6000;0.2125;7.1856;
-198.3000;0.2133;7.1975;
-198.0000;0.2116;7.1927;
-197.7000;0.2141;7.1904;
-197.4000;0.2108;7.1856;
-197.1000;0.2116;7.1975;
-196.8000;0.2092;7.1880;
-196.5000;0.2116;7.1856;
-196.2000;0.2149;7.1880;
-195.9000;0.2125;7.1904;
-195.6000;0.2125;7.1856;
-195.3000;0.2125;7.1904;
-195.0000;0.2116;7.1809;
-194.7000;0.2125;7.1880;
-194.4000;0.2108;7.1809;
-194.1000;0.2116;7.1833;
-193.8000;0.2116;7.1856;
-193.5000;0.2108;7.1833;
-193.2000;0.2116;7.1856;
-192.9000;0.2059;7.1786;
-192.6000;0.2141;7.1951;
-192.3000;0.2116;7.1856;
-192.0000;0.2108;7.1833;
-191.7000;0.2116;7.1691;
-191.4000;0.2125;7.1691;
-191.1000;0.2125;7.1691;
-190.8000;0.2068;7.1644;
-190.5000;0.2108;7.1786;
-190.2000;0.2125;7.1762;
-189.9000;0.2100;7.1667;
-189.6000;0.2125;7.1833;
-189.3000;0.2125;7.1833;
-189.0000;0.2116;7.1786;
-188.7000;0.2076;7.1715;
-188.4000;0.2125;7.1738;
-188.1000;0.2100;7.1715;
-187.8000;0.2133;7.1809;
-187.5000;0.2133;7.1833;
-187.2000;0.2116;7.1809;
-186.9000;0.2108;7.1809;
-186.6000;0.2125;7.1809;
-186.3000;0.2100;7.1809;
-186.0000;0.2100;7.1833;
-185.7000;0.2100;7.1738;
-185.4000;0.2108;7.1833;
-185.1000;0.2116;7.1880;
-184.8000;0.2108;7.1786;
-184.5000;0.2108;7.1809;
-184.2000;0.2133;7.1927;
-183.9000;0.2100;7.1833;
-183.6000;0.2125;7.1856;
-183.3000;0.2133;7.1856;
-183.0000;0.2100;7.1809;
-182.7000;0.2141;7.1856;
-182.4000;0.2116;7.1880;
-182.1000;0.2133;7.1833;
-181.8000;0.2100;7.1786;
-181.5000;0.2108;7.1738;
-181.2000;0.2116;7.1715;
-180.9000;0.2116;7.1691;
-180.6000;0.2116;7.1762;
-180.3000;0.2222;7.2046;
-180.0000;0.2149;7.1809;
-179.7000;0.2116;7.1762;
-179.4000;0.2125;7.1715;
-179.1000;0.2100;7.1738;
-178.8000;0.2125;7.1904;
-178.5000;0.2125;7.1975;
-178.2000;0.2125;7.1951;
-177.9000;0.2125;7.1904;
-177.6000;0.2116;7.1880;
-177.3000;0.2149;7.1927;
-177.0000;0.2141;7.1951;
-176.7000;0.2116;7.1927;
-176.4000;0.2092;7.1833;
-176.1000;0.2133;7.1880;
-175.8000;0.2133;7.1833;
-175.5000;0.2133;7.1786;
-175.2000;0.2116;7.1691;
-174.9000;0.2125;7.1738;
-174.6000;0.2133;7.1738;
-174.3000;0.2141;7.1691;
-174.0000;0.2141;7.1667;
-173.7000;0.2125;7.1644;
-173.4000;0.2141;7.1738;
-173.1000;0.2116;7.1762;
-172.8000;0.2125;7.1809;
-172.5000;0.2108;7.1809;
-172.2000;0.2108;7.1856;
-171.9000;0.2116;7.1880;
-171.6000;0.2116;7.1856;
-171.3000;0.2092;7.1809;
-171.0000;0.2108;7.1904;
-170.7000;0.2100;7.1927;
-170.4000;0.2125;7.1927;
-170.1000;0.2108;7.1809;
-169.8000;0.2116;7.1786;
-169.5000;0.2100;7.1715;
-169.2000;0.2108;7.1715;
-168.9000;0.2133;7.1738;
-168.6000;0.2116;7.1620;
-168.3000;0.2116;7.1691;
-168.0000;0.2108;7.1762;
-167.7000;0.2116;7.1809;
-167.4000;0.2116;7.1856;
-167.1000;0.2133;7.1809;
-166.8000;0.2108;7.1786;
-166.5000;0.2125;7.1786;
-166.2000;0.2116;7.1786;
-165.9000;0.2141;7.1880;
-165.6000;0.2133;7.1833;
-165.3000;0.2125;7.1762;
-165.0000;0.2076;7.1691;
-164.7000;0.2116;7.1833;
-164.4000;0.2116;7.1762;
-164.1000;0.2125;7.1762;
-163.8000;0.2116;7.1715;
-163.5000;0.2125;7.1738;
-163.2000;0.2125;7.1786;
-162.9000;0.2125;7.1738;
-162.6000;0.2108;7.1715;
-162.3000;0.2116;7.1644;
-162.0000;0.2116;7.1620;
-161.7000;0.2125;7.1596;
-161.4000;0.2125;7.1667;
-161.1000;0.2108;7.1691;
-160.8000;0.2125;7.1762;
-160.5000;0.2116;7.1809;
-160.2000;0.2116;7.1809;
-159.9000;0.2116;7.1762;
-159.6000;0.2133;7.1762;
-159.3000;0.2116;7.1738;
-159.0000;0.2141;7.1856;
-158.7000;0.2108;7.1809;
-158.4000;0.2133;7.1833;
-158.1000;0.2116;7.1833;
-157.8000;0.2125;7.1833;
-157.5000;0.2116;7.1856;
-157.2000;0.2116;7.1904;
-156.9000;0.2116;7.1856;
-156.6000;0.2141;7.1927;
-156.3000;0.2141;7.1951;
-156.0000;0.2141;7.1975;
-155.7000;0.2133;7.1951;
-155.4000;0.2027;7.1738;
-155.1000;0.2116;7.1998;
-154.8000;0.2108;7.1975;
-154.5000;0.2125;7.1975;
-154.2000;0.2133;7.1927;
-153.9000;0.2239;7.2164;
-153.6000;0.2116;7.1880;
-153.3000;0.2125;7.1951;
-153.0000;0.2116;7.1833;
-152.7000;0.2108;7.1880;
-152.4000;0.2100;7.1738;
-152.1000;0.2108;7.1762;
-151.8000;0.2027;7.1573;
-151.5000;0.2125;7.1833;
-151.2000;0.2043;7.1596;
-150.9000;0.2133;7.1856;
-150.6000;0.2133;7.1904;
-150.3000;0.2116;7.1927;
-150.0000;0.2116;7.1738;
-149.7000;0.2141;7.1738;
-149.4000;0.2125;7.1762;
-149.1000;0.2116;7.1691;
-148.8000;0.2116;7.1691;
-148.5000;0.2092;7.1644;
-148.2000;0.2116;7.1715;
-147.9000;0.2116;7.1715;
-147.6000;0.2108;7.1691;
-147.3000;0.2116;7.1738;
-147.0000;0.2165;7.1880;
-146.7000;0.2092;7.1691;
-146.4000;0.2133;7.1620;
-146.1000;0.2125;7.1667;
-145.8000;0.2125;7.1691;
-145.5000;0.2133;7.1762;
-145.2000;0.2133;7.1715;
-144.9000;0.2108;7.1715;
-144.6000;0.2116;7.1762;
-144.3000;0.2141;7.1691;
-144.0000;0.2108;7.1644;
-143.7000;0.2092;7.1644;
-143.4000;0.2116;7.1691;
-143.1000;0.2116;7.1691;
-142.8000;0.2100;7.1620;
-142.5000;0.2108;7.1644;
-142.2000;0.2108;7.1715;
-141.9000;0.2108;7.1738;
-141.6000;0.2125;7.1809;
-141.3000;0.2157;7.1904;
-141.0000;0.2133;7.1691;
-140.7000;0.2116;7.1715;
-140.4000;0.2125;7.1715;
-140.1000;0.2108;7.1644;
-139.8000;0.2116;7.1644;
-139.5000;0.2108;7.1667;
-139.2000;0.2011;7.1478;
-138.9000;0.2125;7.1715;
-138.6000;0.2116;7.1667;
-138.3000;0.2100;7.1667;
-138.0000;0.2084;7.1762;
-137.7000;0.2125;7.1856;
-137.4000;0.2108;7.1833;
-137.1000;0.2108;7.1762;
-136.8000;0.2141;7.1856;
-136.5000;0.2141;7.1856;
-136.2000;0.2116;7.1786;
-135.9000;0.2116;7.1809;
-135.6000;0.2141;7.1762;
-135.3000;0.2125;7.1809;
-135.0000;0.2149;7.1856;
-134.7000;0.2133;7.1880;
-134.4000;0.2149;7.1975;
-134.1000;0.2133;7.1856;
-133.8000;0.2141;7.1856;
-133.5000;0.2125;7.1833;
-133.2000;0.2116;7.1738;
-132.9000;0.2141;7.1880;
-132.6000;0.2125;7.1880;
-132.3000;0.2125;7.1833;
-132.0000;0.2149;7.1904;
-131.7000;0.2125;7.1833;
-131.4000;0.2084;7.1856;
-131.1000;0.2141;7.1927;
-130.8000;0.2125;7.1880;
-130.5000;0.2116;7.1856;
-130.2000;0.2133;7.1927;
-129.9000;0.2116;7.1904;
-129.6000;0.2116;7.1880;
-129.3000;0.2116;7.1856;
-129.0000;0.2133;7.1762;
-128.7000;0.2133;7.1738;
-128.4000;0.2027;7.1455;
-128.1000;0.2100;7.1762;
-127.8000;0.2108;7.1786;
-127.5000;0.2141;7.1880;
-127.2000;0.2100;7.1809;
-126.9000;0.2100;7.1786;
-126.6000;0.2108;7.1738;
-126.3000;0.2116;7.1596;
-126.0000;0.2141;7.1667;
-125.7000;0.2133;7.1667;
-125.4000;0.2133;7.1715;
-125.1000;0.2125;7.1596;
-124.8000;0.2116;7.1620;
-124.5000;0.2116;7.1715;
-124.2000;0.2125;7.1715;
-123.9000;0.2165;7.1904;
-123.6000;0.2149;7.1809;
-123.3000;0.2133;7.1715;
-123.0000;0.2116;7.1738;
-122.7000;0.2182;7.1809;
-122.4000;0.2100;7.1667;
-122.1000;0.2125;7.1738;
-121.8000;0.2116;7.1620;
-121.5000;0.2108;7.1596;
-121.2000;0.2125;7.1667;
-120.9000;0.2125;7.1738;
-120.6000;0.2116;7.1738;
-120.3000;0.2051;7.1715;
-120.0000;0.2149;7.1975;
-119.7000;0.2116;7.1951;
-119.4000;0.2116;7.1856;
-119.1000;0.2108;7.1856;
-118.8000;0.2125;7.1904;
-118.5000;0.2141;7.1904;
-118.2000;0.2059;7.1715;
-117.9000;0.2108;7.1927;
-117.6000;0.2125;7.1975;
-117.3000;0.2116;7.1975;
-117.0000;0.2100;7.1856;
-116.7000;0.2100;7.1880;
-116.4000;0.2116;7.1927;
-116.1000;0.2133;7.1998;
-115.8000;0.2116;7.1975;
-115.5000;0.2108;7.1927;
-115.2000;0.2165;7.2069;
-114.9000;0.2125;7.1975;
-114.6000;0.2133;7.1975;
-114.3000;0.2133;7.1856;
-114.0000;0.2108;7.1809;
-113.7000;0.2125;7.1880;
-113.4000;0.2116;7.1927;
-113.1000;0.2125;7.1927;
-112.8000;0.2141;7.1927;
-112.5000;0.2116;7.1904;
-112.2000;0.2108;7.1856;
-111.9000;0.2125;7.1904;
-111.6000;0.2133;7.1833;
-111.3000;0.2157;7.1809;
-111.0000;0.2100;7.1596;
-110.7000;0.2182;7.1809;
-110.4000;0.2125;7.1715;
-110.1000;0.2149;7.1809;
-109.8000;0.2141;7.1809;
-109.5000;0.2125;7.1667;
-109.2000;0.2222;7.1880;
-108.9000;0.2100;7.1691;
-108.6000;0.2133;7.1809;
-108.3000;0.2133;7.1856;
-108.0000;0.2108;7.1762;
-107.7000;0.2108;7.1762;
-107.4000;0.2027;7.1644;
-107.1000;0.2190;7.2022;
-106.8000;0.2133;7.2022;
-106.5000;0.2149;7.2069;
-106.2000;0.2125;7.1975;
-105.9000;0.2141;7.2022;
-105.6000;0.2116;7.1975;
-105.3000;0.2084;7.1856;
-105.0000;0.2116;7.1904;
-104.7000;0.2133;7.1927;
-104.4000;0.2230;7.2187;
-104.1000;0.2133;7.1951;
-103.8000;0.2125;7.1927;
-103.5000;0.2133;7.1856;
-103.2000;0.2141;7.1927;
-102.9000;0.2125;7.1951;
-102.6000;0.2100;7.1880;
-102.3000;0.2125;7.1998;
-102.0000;0.2133;7.1998;
-101.7000;0.2116;7.1927;
-101.4000;0.2100;7.1880;
-101.1000;0.2149;7.1998;
-100.8000;0.2125;7.1856;
-100.5000;0.2141;7.1880;
-100.2000;0.2141;7.1809;
-99.9000;0.2133;7.1762;
-99.6000;0.2116;7.1715;
-99.3000;0.2149;7.1833;
-99.0000;0.2116;7.1762;
-98.7000;0.2214;7.2046;
-98.4000;0.2141;7.1975;
-98.1000;0.2165;7.2069;
-97.8000;0.2141;7.1998;
-97.5000;0.2092;7.1904;
-97.2000;0.2108;7.1880;
-96.9000;0.2125;7.1951;
-96.6000;0.2116;7.1927;
-96.3000;0.2051;7.1738;
-96.0000;0.2108;7.1951;
-95.7000;0.2133;7.2069;
-95.4000;0.2108;7.1998;
-95.1000;0.2100;7.1998;
-94.8000;0.2125;7.2093;
-94.5000;0.2116;7.2022;
-94.2000;0.2198;7.2258;
-93.9000;0.2084;7.1904;
-93.6000;0.2076;7.1880;
-93.3000;0.2125;7.1927;
-93.0000;0.2116;7.1904;
-92.7000;0.2100;7.1927;
-92.4000;0.2108;7.1951;
-92.1000;0.2084;7.1880;
-91.8000;0.2051;7.1786;
-91.5000;0.2092;7.1904;
-91.2000;0.2141;7.2046;
-90.9000;0.2125;7.2046;
-90.6000;0.2133;7.2046;
-90.3000;0.2198;7.2187;
-90.0000;0.2092;7.1975;
-89.7000;0.2116;7.1975;
-89.4000;0.2100;7.1880;
-89.1000;0.2133;7.1880;
-88.8000;0.2133;7.1738;
-88.5000;0.2116;7.1833;
-88.2000;0.2108;7.1880;
-87.9000;0.2116;7.1856;
-87.6000;0.2125;7.1809;
-87.3000;0.2116;7.1786;
-87.0000;0.2068;7.1620;
-86.7000;0.2100;7.1644;
-86.4000;0.2125;7.1762;
-86.1000;0.1986;7.1526;
-85.8000;0.2108;7.1904;
-85.5000;0.2125;7.1927;
-85.2000;0.2157;7.1998;
-84.9000;0.2092;7.1880;
-84.6000;0.2108;7.1809;
-84.3000;0.2133;7.1904;
-84.0000;0.2100;7.1927;
-83.7000;0.2076;7.1927;
-83.4000;0.2108;7.1904;
-83.1000;0.2125;7.2022;
-82.8000;0.2100;7.1927;
-82.5000;0.2125;7.2046;
-82.2000;0.2165;7.2235;
-81.9000;0.2141;7.2140;
-81.6000;0.2116;7.2069;
-81.3000;0.2100;7.2093;
-81.0000;0.2108;7.2116;
-80.7000;0.2125;7.2093;
-80.4000;0.2133;7.2187;
-80.1000;0.2141;7.2282;
-79.8000;0.2141;7.2258;
-79.5000;0.2125;7.2140;
-79.2000;0.2133;7.2116;
-78.9000;0.2133;7.2069;
-78.6000;0.2125;7.2022;
-78.3000;0.2116;7.2022;
-78.0000;0.2141;7.1998;
-77.7000;0.2116;7.1951;
-77.4000;0.2125;7.2022;
-77.1000;0.2125;7.2022;
-76.8000;0.2133;7.2022;
-76.5000;0.2125;7.2022;
-76.2000;0.2100;7.1904;
-75.9000;0.2125;7.1904;
-75.6000;0.2133;7.1951;
-75.3000;0.2125;7.1975;
-75.0000;0.2116;7.1880;
-74.7000;0.2108;7.1951;
-74.4000;0.2141;7.1998;
-74.1000;0.2125;7.1927;
-73.8000;0.2108;7.1809;
-73.5000;0.2100;7.1762;
-73.2000;0.2100;7.1715;
-72.9000;0.2027;7.1573;
-72.6000;0.2133;7.1833;
-72.3000;0.2100;7.1809;
-72.0000;0.2108;7.1904;
-71.7000;0.2125;7.1880;
-71.4000;0.2076;7.1738;
-71.1000;0.2149;7.1951;
-70.8000;0.2059;7.1786;
-70.5000;0.2125;7.1975;
-70.2000;0.2182;7.2046;
-69.9000;0.2116;7.1880;
-69.6000;0.2116;7.1809;
-69.3000;0.2157;7.1904;
-69.0000;0.2133;7.1833;
-68.7000;0.2068;7.1667;
-68.4000;0.2125;7.1786;
-68.1000;0.2133;7.1762;
-67.8000;0.2084;7.1667;
-67.5000;0.2116;7.1762;
-67.2000;0.2173;7.1856;
-66.9000;0.2125;7.1833;
-66.6000;0.2133;7.1975;
-66.3000;0.2092;7.1856;
-66.0000;0.2125;7.1904;
-65.7000;0.2116;7.1856;
-65.4000;0.2133;7.1880;
-65.1000;0.2116;7.1786;
-64.8000;0.2133;7.1856;
-64.5000;0.2141;7.1786;
-64.2000;0.2190;7.1975;
-63.9000;0.2157;7.1856;
-63.6000;0.2116;7.1715;
-63.3000;0.2125;7.1715;
-63.0000;0.2108;7.1738;
-62.7000;0.2133;7.1667;
-62.4000;0.2133;7.1596;
-62.1000;0.2116;7.1620;
-61.8000;0.2108;7.1691;
-61.5000;0.2133;7.1738;
-61.2000;0.2125;7.1738;
-60.9000;0.2100;7.1715;
-60.6000;0.2100;7.1762;
-60.3000;0.2051;7.1573;
-60.0000;0.2002;7.1455;
-59.7000;0.2125;7.1809;
-59.4000;0.2100;7.1715;
-59.1000;0.2165;7.1998;
-58.8000;0.2108;7.1786;
-58.5000;0.2116;7.1738;
-58.2000;0.2108;7.1644;
-57.9000;0.2141;7.1715;
-57.6000;0.2133;7.1738;
-57.3000;0.2125;7.1809;
-57.0000;0.2116;7.1786;
-56.7000;0.2116;7.1762;
-56.4000;0.2198;7.2022;
-56.1000;0.2125;7.1904;
-55.8000;0.2116;7.1833;
-55.5000;0.2125;7.1880;
-55.2000;0.2125;7.1833;
-54.9000;0.2133;7.1786;
-54.6000;0.2149;7.1738;
-54.3000;0.2125;7.1715;
-54.0000;0.2141;7.1738;
-53.7000;0.2092;7.1667;
-53.4000;0.2116;7.1762;
-53.1000;0.2125;7.1856;
-52.8000;0.2116;7.1927;
-52.5000;0.2125;7.1880;
-52.2000;0.2165;7.1880;
-51.9000;0.2100;7.1715;
-51.6000;0.2125;7.1667;
-51.3000;0.2157;7.1715;
-51.0000;0.2059;7.1549;
-50.7000;0.2108;7.1644;
-50.4000;0.2108;7.1644;
-50.1000;0.2133;7.1691;
-49.8000;0.2157;7.1880;
-49.5000;0.2108;7.1856;
-49.2000;0.2043;7.1667;
-48.9000;0.2116;7.1856;
-48.6000;0.2084;7.1762;
-48.3000;0.2141;7.1833;
-48.0000;0.2076;7.1715;
-47.7000;0.2125;7.1786;
-47.4000;0.2125;7.1667;
-47.1000;0.2108;7.1644;
-46.8000;0.2133;7.1738;
-46.5000;0.2100;7.1786;
-46.2000;0.2092;7.1856;
-45.9000;0.2116;7.1856;
-45.6000;0.2125;7.1833;
-45.3000;0.2108;7.1762;
-45.0000;0.2116;7.1786;
-44.7000;0.2100;7.1738;
-44.4000;0.2108;7.1691;
-44.1000;0.2116;7.1738;
-43.8000;0.2125;7.1762;
-43.5000;0.2125;7.1809;
-43.2000;0.2116;7.1809;
-42.9000;0.2133;7.1927;
-42.6000;0.2141;7.1856;
-42.3000;0.2125;7.1833;
-42.0000;0.2116;7.1809;
-41.7000;0.2100;7.1738;
-41.4000;0.2116;7.1762;
-41.1000;0.2125;7.1856;
-40.8000;0.2206;7.2069;
-40.5000;0.2116;7.1762;
-40.2000;0.2125;7.1856;
-39.9000;0.2125;7.1904;
-39.6000;0.2125;7.1856;
-39.3000;0.2157;7.1975;
-39.0000;0.2108;7.1904;
-38.7000;0.2149;7.1975;
-38.4000;0.2133;7.1975;
-38.1000;0.2125;7.1927;
-37.8000;0.2116;7.1904;
-37.5000;0.2116;7.1856;
-37.2000;0.2068;7.1620;
-36.9000;0.2116;7.1738;
-36.6000;0.2133;7.1786;
-36.3000;0.2116;7.1856;
-36.0000;0.2125;7.1880;
-35.7000;0.2125;7.1833;
-35.4000;0.2108;7.1762;
-35.1000;0.2108;7.1738;
-34.8000;0.2035;7.1549;
-34.5000;0.2116;7.1833;
-34.2000;0.2125;7.1856;
-33.9000;0.2108;7.1856;
-33.6000;0.2125;7.1927;
-33.3000;0.2125;7.2046;
-33.0000;0.2133;7.1951;
-32.7000;0.2108;7.1856;
-32.4000;0.2116;7.1927;
-32.1000;0.2116;7.1880;
-31.8000;0.2116;7.1904;
-31.5000;0.2116;7.1833;
-31.2000;0.2133;7.1809;
-30.9000;0.2092;7.1762;
-30.6000;0.2125;7.1904;
-30.3000;0.2116;7.1880;
-30.0000;0.2116;7.1927;
-29.7000;0.2116;7.1975;
-29.4000;0.2125;7.1927;
-29.1000;0.2116;7.1856;
-28.8000;0.2108;7.1786;
-28.5000;0.2108;7.1738;
-28.2000;0.2125;7.1856;
-27.9000;0.2116;7.1809;
-27.6000;0.2116;7.1833;
-27.3000;0.2133;7.1951;
-27.0000;0.2116;7.1975;
-26.7000;0.2116;7.1951;
-26.4000;0.2133;7.2069;
-26.1000;0.2116;7.1904;
-25.8000;0.2108;7.1904;
-25.5000;0.2108;7.1904;
-25.2000;0.2068;7.1880;
-24.9000;0.2100;7.1975;
-24.6000;0.2125;7.1904;
-24.3000;0.2116;7.1786;
-24.0000;0.2108;7.1738;
-23.7000;0.2108;7.1762;
-23.4000;0.2100;7.1667;
-23.1000;0.2108;7.1644;
-22.8000;0.2133;7.1715;
-22.5000;0.2100;7.1644;
-22.2000;0.2116;7.1691;
-21.9000;0.2116;7.1644;
-21.6000;0.2100;7.1667;
-21.3000;0.2116;7.1667;
-21.0000;0.2125;7.1738;
-20.7000;0.2108;7.1573;
-20.4000;0.2108;7.1526;
-20.1000;0.2108;7.1478;
-19.8000;0.2100;7.1667;
-19.5000;0.2133;7.1762;
-19.2000;0.2141;7.1809;
-18.9000;0.2133;7.1762;
-18.6000;0.2116;7.1691;
-18.3000;0.2165;7.1809;
-18.0000;0.2076;7.1715;
-17.7000;0.2133;7.1809;
-17.4000;0.2133;7.1762;
-17.1000;0.2125;7.1738;
-16.8000;0.2157;7.1856;
-16.5000;0.2125;7.1856;
-16.2000;0.2125;7.1927;
-15.9000;0.2108;7.1880;
-15.6000;0.2125;7.1927;
-15.3000;0.2222;7.2164;
-15.0000;0.2092;7.1738;
-14.7000;0.2092;7.1644;
-14.4000;0.2100;7.1526;
-14.1000;0.2100;7.1502;
-13.8000;0.2133;7.1620;
-13.5000;0.2051;7.1407;
-13.2000;0.2125;7.1691;
-12.9000;0.2035;7.1573;
-12.6000;0.2116;7.1738;
-12.3000;0.2116;7.1738;
-12.0000;0.2108;7.1715;
-11.7000;0.2116;7.1620;
-11.4000;0.2100;7.1573;
-11.1000;0.2092;7.1478;
-10.8000;0.2141;7.1573;
-10.5000;0.2116;7.1549;
-10.2000;0.2116;7.1620;
-9.9000;0.2116;7.1526;
-9.6000;0.2214;7.1833;
-9.3000;0.2149;7.1691;
-9.0000;0.2133;7.1620;
-8.7000;0.2125;7.1620;
-8.4000;0.2133;7.1667;
-8.1000;0.2133;7.1596;
-7.8000;0.2141;7.1644;
-7.5000;0.2108;7.1620;
-7.2000;0.2100;7.1620;
-6.9000;0.2125;7.1715;
-6.6000;0.2165;7.1833;
-6.3000;0.2100;7.1644;
-6.0000;0.2051;7.1478;
-5.7000;0.2108;7.1762;
-5.4000;0.2133;7.1809;
-5.1000;0.2133;7.1762;
-4.8000;0.2141;7.1715;
-4.5000;0.2141;7.1762;
-4.2000;0.2125;7.1786;
-3.9000;0.2133;7.1786;
-3.6000;0.2116;7.1738;
-3.3000;0.2165;7.1833;
-3.0000;0.2116;7.1809;
-2.7000;0.2116;7.1809;
-2.4000;0.2084;7.1715;
-2.1000;0.2116;7.1786;
-1.8000;0.2108;7.1691;
-1.5000;0.2133;7.1786;
-1.2000;0.2125;7.1738;
-0.9000;0.2141;7.1809;
-0.6000;0.2116;7.1762;
-0.3000;0.2125;7.1762;
0.0000;0.2125;7.1762;
0.3000;0.2222;7.1809;
0.6000;0.2304;7.1880;
0.9000;0.2418;7.2235;
1.2000;0.2540;7.2495;
1.5000;0.2597;7.2613;
1.8000;0.2654;7.2849;
2.1000;0.2686;7.2991;
2.4000;0.2735;7.3156;
2.7000;0.2776;7.3227;
3.0000;0.2776;7.3251;
3.3000;0.2759;7.3322;
3.6000;0.2816;7.3440;
3.9000;0.2922;7.3747;
4.2000;0.2841;7.3511;
4.5000;0.2849;7.3535;
4.8000;0.2849;7.3487;
5.1000;0.2955;7.3795;
5.4000;0.2857;7.3606;
5.7000;0.2873;7.3677;
6.0000;0.2898;7.3795;
6.3000;0.2865;7.3653;
6.6000;0.2865;7.3700;
6.9000;0.2882;7.3700;
7.2000;0.2914;7.3818;
7.5000;0.2873;7.3771;
7.8000;0.2882;7.3771;
8.1000;0.2922;7.3866;
8.4000;0.2890;7.3677;
8.7000;0.2906;7.3700;
9.0000;0.2882;7.3700;
9.3000;0.2890;7.3653;
9.6000;0.2906;7.3700;
9.9000;0.2865;7.3629;
10.2000;0.2914;7.3795;
10.5000;0.3020;7.4078;
10.8000;0.2906;7.3842;
11.1000;0.2873;7.3747;
11.4000;0.2922;7.3724;
11.7000;0.2930;7.3747;
12.0000;0.2930;7.3558;
12.3000;0.2955;7.3582;
12.6000;0.2922;7.3582;
12.9000;0.3028;7.3724;
13.2000;0.2930;7.3417;
13.5000;0.2930;7.3440;
13.8000;0.2939;7.3606;
14.1000;0.2922;7.3653;
14.4000;0.2939;7.3677;
14.7000;0.2955;7.3771;
15.0000;0.2971;7.3795;
15.3000;0.2963;7.3795;
15.6000;0.2971;7.3724;
15.9000;0.2979;7.3653;
16.2000;0.2971;7.3700;
16.5000;0.2971;7.3724;
16.8000;0.2971;7.3677;
17.1000;0.2987;7.3724;
17.4000;0.2979;7.3842;
17.7000;0.2996;7.3866;
18.0000;0.2979;7.3842;
18.3000;0.2979;7.3795;
18.6000;0.2979;7.3747;
18.9000;0.2971;7.3747;
19.2000;0.2987;7.3795;
19.5000;0.2996;7.3747;
19.8000;0.2987;7.3700;
20.1000;0.2996;7.3582;
20.4000;0.2979;7.3440;
20.7000;0.2996;7.3582;
21.0000;0.3020;7.3700;
21.3000;0.2979;7.3629;
21.6000;0.3020;7.3747;
21.9000;0.3012;7.3677;
22.2000;0.3012;7.3724;
22.5000;0.3028;7.3677;
22.8000;0.2996;7.3582;
23.1000;0.3012;7.3747;
23.4000;0.2955;7.3535;
23.7000;0.3126;7.3913;
24.0000;0.3028;7.3700;
24.3000;0.3053;7.3771;
24.6000;0.3044;7.3700;
24.9000;0.3036;7.3724;
25.2000;0.3020;7.3629;
25.5000;0.3044;7.3606;
25.8000;0.3028;7.3582;
26.1000;0.3061;7.3724;
26.4000;0.3077;7.3747;
26.7000;0.3061;7.3629;
27.0000;0.3061;7.3677;
27.3000;0.3053;7.3606;
27.6000;0.3069;7.3629;
27.9000;0.3077;7.3653;
28.2000;0.3077;7.3653;
28.5000;0.3069;7.3653;
28.8000;0.3069;7.3582;
29.1000;0.3077;7.3606;
29.4000;0.3077;7.3606;
29.7000;0.3044;7.3487;
30.0000;0.3093;7.3606;
30.3000;0.3069;7.3440;
30.6000;0.3093;7.3464;
30.9000;0.3118;7.3487;
31.2000;0.3101;7.3417;
31.5000;0.3109;7.3535;
31.8000;0.3101;7.3464;
32.1000;0.3109;7.3417;
32.4000;0.3085;7.3346;
32.7000;0.3101;7.3369;
33.0000;0.3101;7.3393;
33.3000;0.3126;7.3487;
33.6000;0.3093;7.3322;
33.9000;0.3109;7.3487;
34.2000;0.3085;7.3440;
34.5000;0.3077;7.3440;
34.8000;0.3085;7.3440;
35.1000;0.3142;7.3535;
35.4000;0.3175;7.3653;
35.7000;0.3101;7.3653;
36.0000;0.3077;7.3558;
36.3000;0.3142;7.3653;
36.6000;0.3118;7.3606;
36.9000;0.3126;7.3582;
37.2000;0.3166;7.3724;
37.5000;0.3118;7.3700;
37.8000;0.3142;7.3724;
38.1000;0.3093;7.3629;
38.4000;0.3093;7.3558;
38.7000;0.3126;7.3558;
39.0000;0.3134;7.3653;
39.3000;0.3109;7.3487;
39.6000;0.3126;7.3487;
39.9000;0.3134;7.3487;
40.2000;0.3134;7.3464;
40.5000;0.3158;7.3511;
40.8000;0.3207;7.3606;
41.1000;0.3150;7.3511;
41.4000;0.3134;7.3511;
41.7000;0.3150;7.3487;
42.0000;0.3158;7.3487;
42.3000;0.3158;7.3535;
42.6000;0.3158;7.3558;
42.9000;0.3126;7.3393;
43.2000;0.3158;7.3369;
43.5000;0.3150;7.3440;
43.8000;0.3158;7.3440;
44.1000;0.3240;7.3629;
44.4000;0.3191;7.3606;
44.7000;0.3142;7.3582;
45.0000;0.3166;7.3700;
45.3000;0.3175;7.3724;
45.6000;0.3183;7.3700;
45.9000;0.3232;7.3818;
46.2000;0.3232;7.3889;
46.5000;0.3175;7.3724;
46.8000;0.3215;7.3795;
47.1000;0.3150;7.3724;
47.4000;0.3232;7.3913;
47.7000;0.3183;7.3842;
48.0000;0.3175;7.3700;
48.3000;0.3183;7.3653;
48.6000;0.3175;7.3582;
48.9000;0.3215;7.3606;
49.2000;0.3215;7.3582;
49.5000;0.3191;7.3582;
49.8000;0.3199;7.3558;
50.1000;0.3199;7.3511;
50.4000;0.3199;7.3629;
50.7000;0.3199;7.3535;
51.0000;0.3199;7.3440;
51.3000;0.3207;7.3511;
51.6000;0.3223;7.3558;
51.9000;0.3232;7.3535;
52.2000;0.3215;7.3487;
52.5000;0.3191;7.3417;
52.8000;0.3215;7.3535;
53.1000;0.3199;7.3582;
53.4000;0.3191;7.3582;
53.7000;0.3183;7.3487;
54.0000;0.3207;7.3511;
54.3000;0.3207;7.3677;
54.6000;0.3207;7.3700;
54.9000;0.3215;7.3677;
55.2000;0.3223;7.3629;
55.5000;0.3199;7.3535;
55.8000;0.3223;7.3535;
56.1000;0.3223;7.3558;
56.4000;0.3240;7.3629;
56.7000;0.3248;7.3629;
57.0000;0.3240;7.3629;
57.3000;0.3223;7.3606;
57.6000;0.3232;7.3558;
57.9000;0.3232;7.3606;
58.2000;0.3240;7.3677;
58.5000;0.3215;7.3700;
58.8000;0.3248;7.3842;
59.1000;0.3183;7.3629;
59.4000;0.3232;7.3795;
59.7000;0.3256;7.3795;
60.0000;0.3256;7.3724;
60.3000;0.3240;7.3606;
60.6000;0.3256;7.3653;
60.9000;0.3248;7.3606;
61.2000;0.3264;7.3629;
61.5000;0.3264;7.3558;
61.8000;0.3272;7.3464;
62.1000;0.3256;7.3440;
62.4000;0.3297;7.3653;
62.7000;0.3240;7.3606;
63.0000;0.3264;7.3677;
63.3000;0.3223;7.3653;
63.6000;0.3240;7.3677;
63.9000;0.3256;7.3747;
64.2000;0.3232;7.3700;
64.5000;0.3248;7.3842;
64.8000;0.3232;7.3771;
65.1000;0.3280;7.3889;
65.4000;0.3223;7.3724;
65.7000;0.3321;7.3889;
66.0000;0.3256;7.3724;
66.3000;0.3272;7.3677;
66.6000;0.3223;7.3511;
66.9000;0.3240;7.3487;
67.2000;0.3280;7.3535;
67.5000;0.3264;7.3487;
67.8000;0.3313;7.3606;
68.1000;0.3248;7.3535;
68.4000;0.3272;7.3535;
68.7000;0.3264;7.3487;
69.0000;0.3264;7.3393;
69.3000;0.3329;7.3511;
69.6000;0.3321;7.3464;
69.9000;0.3354;7.3535;
70.2000;0.3240;7.3251;
70.5000;0.3297;7.3346;
70.8000;0.3329;7.3417;
71.1000;0.3264;7.3322;
71.4000;0.3289;7.3511;
71.7000;0.3297;7.3535;
72.0000;0.3321;7.3582;
72.3000;0.3280;7.3487;
72.6000;0.3272;7.3393;
72.9000;0.3272;7.3369;
73.2000;0.3297;7.3464;
73.5000;0.3297;7.3582;
73.8000;0.3280;7.3582;
74.1000;0.3337;7.3747;
74.4000;0.3280;7.3606;
74.7000;0.3280;7.3606;
75.0000;0.3289;7.3629;
75.3000;0.3313;7.3700;
75.6000;0.3280;7.3653;
75.9000;0.3305;7.3700;
76.2000;0.3289;7.3629;
76.5000;0.3289;7.3700;
76.8000;0.3305;7.3653;
77.1000;0.3297;7.3606;
77.4000;0.3272;7.3535;
77.7000;0.3289;7.3629;
78.0000;0.3297;7.3724;
78.3000;0.3313;7.3747;
78.6000;0.3346;7.3866;
78.9000;0.3280;7.3653;
79.2000;0.3305;7.3724;
79.5000;0.3297;7.3724;
79.8000;0.3305;7.3700;
80.1000;0.3264;7.3653;
80.4000;0.3297;7.3653;
80.7000;0.3337;7.3866;
81.0000;0.3272;7.3677;
81.3000;0.3280;7.3724;
81.6000;0.3199;7.3393;
81.9000;0.3289;7.3606;
82.2000;0.3321;7.3629;
82.5000;0.3280;7.3582;
82.8000;0.3321;7.3629;
83.1000;0.3305;7.3582;
83.4000;0.3313;7.3582;
83.7000;0.3321;7.3677;
84.0000;0.3313;7.3677;
84.3000;0.3289;7.3629;
84.6000;0.3297;7.3629;
84.9000;0.3313;7.3653;
85.2000;0.3346;7.3653;
85.5000;0.3329;7.3653;
85.8000;0.3346;7.3653;
86.1000;0.3305;7.3677;
86.4000;0.3289;7.3653;
86.7000;0.3313;7.3582;
87.0000;0.3321;7.3606;
87.3000;0.3508;7.4031;
87.6000;0.3321;7.3511;
87.9000;0.3337;7.3440;
88.2000;0.3321;7.3393;
88.5000;0.3354;7.3582;
88.8000;0.3256;7.3417;
89.1000;0.3321;7.3511;
89.4000;0.3313;7.3487;
89.7000;0.3305;7.3511;
90.0000;0.3362;7.3653;
90.3000;0.3329;7.3606;
90.6000;0.3305;7.3440;
90.9000;0.3313;7.3440;
91.2000;0.3313;7.3511;
91.5000;0.3329;7.3558;
91.8000;0.3329;7.3440;
92.1000;0.3329;7.3369;
92.4000;0.3321;7.3369;
92.7000;0.3313;7.3440;
93.0000;0.3329;7.3440;
93.3000;0.3337;7.3487;
93.6000;0.3321;7.3298;
93.9000;0.3313;7.3251;
94.2000;0.3313;7.3322;
94.5000;0.3329;7.3393;
94.8000;0.3337;7.3417;
95.1000;0.3329;7.3464;
95.4000;0.3337;7.3558;
95.7000;0.3329;7.3511;
96.0000;0.3321;7.3464;
96.3000;0.3305;7.3511;
96.6000;0.3337;7.3511;
96.9000;0.3337;7.3511;
97.2000;0.3329;7.3440;
97.5000;0.3313;7.3393;
97.8000;0.3354;7.3558;
98.1000;0.3321;7.3511;
98.4000;0.3329;7.3558;
98.7000;0.3329;7.3606;
99.0000;0.3305;7.3535;
99.3000;0.3329;7.3535;
99.6000;0.3378;7.3582;
99.9000;0.3337;7.3535;
100.2000;0.3337;7.3464;
100.5000;0.3337;7.3346;
100.8000;0.3346;7.3298;
101.1000;0.3346;7.3369;
101.4000;0.3370;7.3417;
101.7000;0.3427;7.3464;
102.0000;0.3394;7.3417;
102.3000;0.3346;7.3393;
102.6000;0.3370;7.3511;
102.9000;0.3354;7.3535;
103.2000;0.3354;7.3582;
103.5000;0.3329;7.3464;
103.8000;0.3378;7.3629;
104.1000;0.3346;7.3700;
104.4000;0.3337;7.3747;
104.7000;0.3321;7.3724;
105.0000;0.3313;7.3771;
105.3000;0.3337;7.3795;
105.6000;0.3313;7.3700;
105.9000;0.3346;7.3771;
106.2000;0.3362;7.3724;
106.5000;0.3337;7.3653;
106.8000;0.3354;7.3795;
107.1000;0.3305;7.3606;
107.4000;0.3403;7.3842;
107.7000;0.3354;7.3913;
108.0000;0.3378;7.3984;
108.3000;0.3329;7.3889;
108.6000;0.3329;7.3984;
108.9000;0.3354;7.3960;
109.2000;0.3346;7.3913;
109.5000;0.3272;7.3653;
109.8000;0.3337;7.3842;
110.1000;0.3362;7.3937;
110.4000;0.3362;7.3866;
110.7000;0.3362;7.3842;
111.0000;0.3362;7.3795;
111.3000;0.3280;7.3629;
111.6000;0.3362;7.3842;
111.9000;0.3346;7.3795;
112.2000;0.3346;7.3818;
112.5000;0.3362;7.3842;
112.8000;0.3337;7.3818;
113.1000;0.3378;7.3913;
113.4000;0.3346;7.3795;
113.7000;0.3329;7.3771;
114.0000;0.3321;7.3771;
114.3000;0.3346;7.3747;
114.6000;0.3337;7.3747;
114.9000;0.3346;7.3842;
115.2000;0.3362;7.3889;
115.5000;0.3386;7.3842;
115.8000;0.3329;7.3724;
116.1000;0.3354;7.3724;
116.4000;0.3411;7.3818;
116.7000;0.3435;7.3795;
117.0000;0.3370;7.3677;
117.3000;0.3313;7.3606;
117.6000;0.3362;7.3818;
117.9000;0.3280;7.3677;
118.2000;0.3354;7.3818;
118.5000;0.3346;7.3724;
118.8000;0.3321;7.3700;
119.1000;0.3354;7.3795;
119.4000;0.3354;7.3747;
119.7000;0.3386;7.3771;
120.0000;0.3337;7.3653;
120.3000;0.3370;7.3724;
120.6000;0.3337;7.3677;
120.9000;0.3346;7.3558;
121.2000;0.3386;7.3653;
121.5000;0.3346;7.3653;
121.8000;0.3370;7.3606;
122.1000;0.3354;7.3606;
122.4000;0.3354;7.3629;
122.7000;0.3386;7.3582;
123.0000;0.3362;7.3369;
123.3000;0.3362;7.3393;
123.6000;0.3337;7.3346;
123.9000;0.3370;7.3440;
124.2000;0.3362;7.3511;
124.5000;0.3370;7.3558;
124.8000;0.3354;7.3440;
125.1000;0.3362;7.3464;
125.4000;0.3354;7.3440;
125.7000;0.3354;7.3369;
126.0000;0.3362;7.3346;
126.3000;0.3321;7.3227;
126.6000;0.3362;7.3393;
126.9000;0.3362;7.3369;
127.2000;0.3346;7.3251;
127.5000;0.3362;7.3227;
127.8000;0.3378;7.3322;
128.1000;0.3451;7.3487;
128.4000;0.3370;7.3298;
128.7000;0.3370;7.3346;
129.0000;0.3362;7.3440;
129.3000;0.3362;7.3558;
129.6000;0.3370;7.3582;
129.9000;0.3354;7.3558;
130.2000;0.3370;7.3582;
130.5000;0.3362;7.3558;
130.8000;0.3378;7.3582;
131.1000;0.3354;7.3511;
131.4000;0.3362;7.3535;
131.7000;0.3378;7.3677;
132.0000;0.3362;7.3629;
132.3000;0.3378;7.3629;
132.6000;0.3370;7.3747;
132.9000;0.3362;7.3700;
133.2000;0.3337;7.3558;
133.5000;0.3362;7.3653;
133.8000;0.3378;7.3677;
134.1000;0.3362;7.3629;
134.4000;0.3362;7.3677;
134.7000;0.3378;7.3700;
135.0000;0.3354;7.3677;
135.3000;0.3362;7.3558;
135.6000;0.3354;7.3535;
135.9000;0.3362;7.3606;
136.2000;0.3403;7.3724;
136.5000;0.3362;7.3700;
136.8000;0.3329;7.3558;
137.1000;0.3313;7.3535;
137.4000;0.3386;7.3653;
137.7000;0.3419;7.3747;
138.0000;0.3370;7.3629;
138.3000;0.3362;7.3724;
138.6000;0.3337;7.3677;
138.9000;0.3354;7.3747;
139.2000;0.3354;7.3771;
139.5000;0.3370;7.3629;
139.8000;0.3362;7.3606;
140.1000;0.3443;7.3795;
140.4000;0.3362;7.3535;
140.7000;0.3419;7.3606;
141.0000;0.3362;7.3464;
141.3000;0.3240;7.3227;
141.6000;0.3354;7.3487;
141.9000;0.3370;7.3487;
142.2000;0.3403;7.3535;
142.5000;0.3362;7.3393;
142.8000;0.3346;7.3322;
143.1000;0.3362;7.3417;
143.4000;0.3370;7.3417;
143.7000;0.3337;7.3322;
144.0000;0.3386;7.3417;
144.3000;0.3346;7.3275;
144.6000;0.3337;7.3322;
144.9000;0.3362;7.3440;
145.2000;0.3370;7.3487;
145.5000;0.3354;7.3487;
145.8000;0.3362;7.3535;
146.1000;0.3411;7.3677;
146.4000;0.3370;7.3440;
146.7000;0.3378;7.3417;
147.0000;0.3378;7.3417;
147.3000;0.3394;7.3511;
147.6000;0.3329;7.3393;
147.9000;0.3378;7.3535;
148.2000;0.3394;7.3582;
148.5000;0.3370;7.3464;
148.8000;0.3370;7.3464;
149.1000;0.3386;7.3558;
149.4000;0.3378;7.3511;
149.7000;0.3370;7.3606;
150.0000;0.3386;7.3629;
150.3000;0.3419;7.3677;
150.6000;0.3386;7.3582;
150.9000;0.3378;7.3535;
151.2000;0.3321;7.3346;
151.5000;0.3297;7.3298;
151.8000;0.3362;7.3417;
152.1000;0.3394;7.3440;
152.4000;0.3394;7.3582;
152.7000;0.3362;7.3558;
153.0000;0.3403;7.3606;
153.3000;0.3435;7.3677;
153.6000;0.3354;7.3464;
153.9000;0.3386;7.3558;
154.2000;0.3386;7.3511;
154.5000;0.3378;7.3464;
154.8000;0.3403;7.3558;
155.1000;0.3370;7.3440;
155.4000;0.3297;7.3322;
155.7000;0.3362;7.3464;
156.0000;0.3403;7.3440;
156.3000;0.3403;7.3417;
156.6000;0.3362;7.3251;
156.9000;0.3386;7.3275;
157.2000;0.3443;7.3487;
157.5000;0.3362;7.3369;
157.8000;0.3403;7.3487;
158.1000;0.3378;7.3464;
158.4000;0.3403;7.3487;
158.7000;0.3362;7.3369;
159.0000;0.3354;7.3346;
159.3000;0.3362;7.3346;
159.6000;0.3403;7.3487;
159.9000;0.3394;7.3440;
160.2000;0.3386;7.3417;
160.5000;0.3394;7.3417;
160.8000;0.3362;7.3322;
161.1000;0.3378;7.3417;
161.4000;0.3362;7.3417;
161.7000;0.3394;7.3417;
162.0000;0.3394;7.3417;
162.3000;0.3394;7.3393;
162.6000;0.3411;7.3487;
162.9000;0.3411;7.3511;
163.2000;0.3419;7.3535;
163.5000;0.3386;7.3417;
163.8000;0.3386;7.3440;
164.1000;0.3394;7.3464;
164.4000;0.3370;7.3487;
164.7000;0.3386;7.3558;
165.0000;0.3378;7.3629;
165.3000;0.3386;7.3747;
165.6000;0.3362;7.3629;
165.9000;0.3346;7.3535;
166.2000;0.3386;7.3629;
166.5000;0.3370;7.3535;
166.8000;0.3386;7.3440;
167.1000;0.3378;7.3322;
167.4000;0.3378;7.3322;
167.7000;0.3394;7.3417;
168.0000;0.3378;7.3417;
168.3000;0.3362;7.3346;
168.6000;0.3394;7.3322;
168.9000;0.3378;7.3251;
169.2000;0.3386;7.3346;
169.5000;0.3378;7.3440;
169.8000;0.3378;7.3440;
170.1000;0.3370;7.3464;
170.4000;0.3370;7.3440;
170.7000;0.3394;7.3440;
171.0000;0.3378;7.3417;
171.3000;0.3394;7.3417;
171.6000;0.3476;7.3606;
171.9000;0.3370;7.3251;
172.2000;0.3370;7.3227;
172.5000;0.3346;7.3109;
172.8000;0.3370;7.3180;
173.1000;0.3403;7.3346;
173.4000;0.3394;7.3346;
173.7000;0.3443;7.3464;
174.0000;0.3386;7.3251;
174.3000;0.3354;7.3227;
174.6000;0.3378;7.3298;
174.9000;0.3362;7.3322;
175.2000;0.3403;7.3369;
175.5000;0.3329;7.3062;
175.8000;0.3378;7.3180;
176.1000;0.3370;7.3251;
176.4000;0.3378;7.3275;
176.7000;0.3378;7.3227;
177.0000;0.3378;7.3227;
177.3000;0.3362;7.3227;
177.6000;0.3362;7.3227;
177.9000;0.3378;7.3298;
178.2000;0.3370;7.3275;
178.5000;0.3435;7.3440;
178.8000;0.3378;7.3346;
179.1000;0.3378;7.3393;
179.4000;0.3394;7.3440;
179.7000;0.3378;7.3346;
180.0000;0.3386;7.3275;
180.3000;0.3362;7.3227;
180.6000;0.3378;7.3227;
180.9000;0.3403;7.3275;
181.2000;0.3435;7.3393;
181.5000;0.3386;7.3275;
181.8000;0.3411;7.3227;
182.1000;0.3370;7.3156;
182.4000;0.3386;7.3275;
182.7000;0.3394;7.3346;
183.0000;0.3386;7.3322;
183.3000;0.3394;7.3346;
183.6000;0.3403;7.3440;
183.9000;0.3394;7.3322;
184.2000;0.3313;7.3180;
184.5000;0.3386;7.3298;
184.8000;0.3427;7.3417;
185.1000;0.3370;7.3298;
185.4000;0.3378;7.3322;
185.7000;0.3370;7.3275;
186.0000;0.3370;7.3322;
186.3000;0.3362;7.3369;
186.6000;0.3354;7.3322;
186.9000;0.3370;7.3393;
187.2000;0.3378;7.3346;
187.5000;0.3370;7.3369;
187.8000;0.3378;7.3322;
188.1000;0.3394;7.3440;
188.4000;0.3378;7.3417;
188.7000;0.3378;7.3417;
189.0000;0.3378;7.3487;
189.3000;0.3370;7.3440;
189.6000;0.3370;7.3440;
189.9000;0.3362;7.3346;
190.2000;0.3346;7.3251;
190.5000;0.3362;7.3322;
190.8000;0.3370;7.3298;
191.1000;0.3362;7.3322;
191.4000;0.3378;7.3440;
191.7000;0.3370;7.3440;
192.0000;0.3378;7.3417;
192.3000;0.3370;7.3487;
192.6000;0.3362;7.3487;
192.9000;0.3484;7.3747;
193.2000;0.3386;7.3511;
193.5000;0.3378;7.3417;
193.8000;0.3378;7.3393;
194.1000;0.3394;7.3440;
194.4000;0.3394;7.3440;
194.7000;0.3362;7.3393;
195.0000;0.3403;7.3393;
195.3000;0.3362;7.3298;
195.6000;0.3386;7.3346;
195.9000;0.3378;7.3275;
196.2000;0.3378;7.3298;
196.5000;0.3378;7.3417;
196.8000;0.3378;7.3417;
197.1000;0.3378;7.3487;
197.4000;0.3378;7.3417;
197.7000;0.3370;7.3322;
198.0000;0.3394;7.3393;
198.3000;0.3370;7.3417;
198.6000;0.3451;7.3606;
198.9000;0.3370;7.3393;
199.2000;0.3419;7.3535;
199.5000;0.3362;7.3440;
199.8000;0.3370;7.3464;
200.1000;0.3370;7.3487;
200.4000;0.3403;7.3511;
200.7000;0.3394;7.3511;
201.0000;0.3337;7.3298;
201.3000;0.3419;7.3535;
201.6000;0.3378;7.3393;
201.9000;0.3370;7.3346;
202.2000;0.3443;7.3440;
202.5000;0.3476;7.3558;
202.8000;0.3378;7.3346;
203.1000;0.3411;7.3369;
203.4000;0.3403;7.3298;
203.7000;0.3386;7.3204;
204.0000;0.3386;7.3133;
204.3000;0.3419;7.3204;
204.6000;0.3378;7.3133;
204.9000;0.3329;7.3133;
205.2000;0.3378;7.3275;
205.5000;0.3378;7.3322;
205.8000;0.3403;7.3346;
206.1000;0.3378;7.3204;
206.4000;0.3370;7.3180;
206.7000;0.3378;7.3227;
207.0000;0.3419;7.3298;
207.3000;0.3378;7.3180;
207.6000;0.3394;7.3180;
207.9000;0.3394;7.3275;
208.2000;0.3378;7.3180;
208.5000;0.3394;7.3156;
208.8000;0.3411;7.3227;
209.1000;0.3370;7.3133;
209.4000;0.3386;7.3227;
209.7000;0.3378;7.3346;
210.0000;0.3362;7.3417;
210.3000;0.3370;7.3440;
210.6000;0.3378;7.3417;
210.9000;0.3370;7.3251;
211.2000;0.3370;7.3275;
211.5000;0.3378;7.3440;
211.8000;0.3394;7.3535;
212.1000;0.3370;7.3535;
212.4000;0.3305;7.3298;
212.7000;0.3354;7.3440;
213.0000;0.3386;7.3511;
213.3000;0.3394;7.3511;
213.6000;0.3386;7.3487;
213.9000;0.3386;7.3511;
214.2000;0.3370;7.3535;
214.5000;0.3394;7.3487;
214.8000;0.3394;7.3369;
215.1000;0.3362;7.3322;
215.4000;0.3362;7.3440;
215.7000;0.3362;7.3440;
216.0000;0.3443;7.3558;
216.3000;0.3386;7.3487;
216.6000;0.3419;7.3606;
216.9000;0.3386;7.3558;
217.2000;0.3386;7.3582;
217.5000;0.3394;7.3582;
217.8000;0.3378;7.3582;
218.1000;0.3386;7.3511;
218.4000;0.3403;7.3606;
218.7000;0.3386;7.3582;
219.0000;0.3370;7.3558;
219.3000;0.3386;7.3606;
219.6000;0.3394;7.3700;
219.9000;0.3394;7.3771;
220.2000;0.3394;7.3653;
220.5000;0.3378;7.3653;
220.8000;0.3378;7.3629;
221.1000;0.3378;7.3653;
221.4000;0.3370;7.3606;
221.7000;0.3378;7.3629;
222.0000;0.3403;7.3724;
222.3000;0.3419;7.3677;
222.6000;0.3362;7.3535;
222.9000;0.3394;7.3629;
223.2000;0.3362;7.3511;
223.5000;0.3386;7.3629;
223.8000;0.3394;7.3700;
224.1000;0.3419;7.3866;
224.4000;0.3443;7.3842;
224.7000;0.3378;7.3818;
225.0000;0.3435;7.3913;
225.3000;0.3386;7.3724;
225.6000;0.3386;7.3677;
225.9000;0.3386;7.3629;
226.2000;0.3329;7.3464;
226.5000;0.3394;7.3606;
226.8000;0.3386;7.3606;
227.1000;0.3378;7.3677;
227.4000;0.3394;7.3700;
227.7000;0.3403;7.3629;
228.0000;0.3394;7.3511;
228.3000;0.3411;7.3582;
228.6000;0.3411;7.3487;
228.9000;0.3386;7.3487;
229.2000;0.3362;7.3464;
229.5000;0.3435;7.3677;
229.8000;0.3394;7.3464;
230.1000;0.3394;7.3346;
230.4000;0.3403;7.3487;
230.7000;0.3313;7.3322;
231.0000;0.3394;7.3606;
231.3000;0.3386;7.3582;
231.6000;0.3378;7.3582;
231.9000;0.3419;7.3653;
232.2000;0.3370;7.3582;
232.5000;0.3394;7.3653;
232.8000;0.3337;7.3440;
233.1000;0.3411;7.3653;
233.4000;0.3476;7.3818;
233.7000;0.3321;7.3369;
234.0000;0.3386;7.3511;
234.3000;0.3427;7.3677;
234.6000;0.3370;7.3606;
234.9000;0.3443;7.3771;
235.2000;0.3451;7.3842;
235.5000;0.3370;7.3558;
235.8000;0.3362;7.3582;
236.1000;0.3280;7.3417;
236.4000;0.3329;7.3582;
236.7000;0.3370;7.3558;
237.0000;0.3394;7.3535;
237.3000;0.3403;7.3558;
237.6000;0.3386;7.3511;
237.9000;0.3378;7.3464;
238.2000;0.3386;7.3417;
238.5000;0.3378;7.3464;
238.8000;0.3411;7.3535;
239.1000;0.3394;7.3487;
239.4000;0.3386;7.3464;
239.7000;0.3378;7.3464;
240.0000;0.3370;7.3346;
240.3000;0.3394;7.3440;
240.6000;0.3370;7.3535;
240.9000;0.3386;7.3464;
241.2000;0.3403;7.3535;
241.5000;0.3435;7.3724;
241.8000;0.3370;7.3582;
242.1000;0.3394;7.3606;
242.4000;0.3411;7.3582;
242.7000;0.3419;7.3606;
243.0000;0.3378;7.3487;
243.3000;0.3435;7.3582;
243.6000;0.3378;7.3535;
243.9000;0.3394;7.3582;
244.2000;0.3394;7.3535;
244.5000;0.3386;7.3487;
244.8000;0.3362;7.3440;
245.1000;0.3378;7.3558;
245.4000;0.3411;7.3653;
245.7000;0.3378;7.3606;
246.0000;0.3378;7.3606;
246.3000;0.3394;7.3653;
246.6000;0.3386;7.3677;
246.9000;0.3378;7.3747;
247.2000;0.3378;7.3724;
247.5000;0.3419;7.3842;
247.8000;0.3386;7.3771;
248.1000;0.3394;7.3606;
248.4000;0.3386;7.3606;
248.7000;0.3394;7.3511;
249.0000;0.3403;7.3511;
249.3000;0.3378;7.3558;
249.6000;0.3370;7.3511;
249.9000;0.3305;7.3369;
250.2000;0.3370;7.3558;
250.5000;0.3500;7.3747;
250.8000;0.3403;7.3558;
251.1000;0.3394;7.3464;
251.4000;0.3411;7.3487;
251.7000;0.3394;7.3487;
252.0000;0.3386;7.3511;
252.3000;0.3411;7.3558;
252.6000;0.3411;7.3582;
252.9000;0.3403;7.3558;
253.2000;0.3411;7.3582;
253.5000;0.3386;7.3558;
253.8000;0.3443;7.3724;
254.1000;0.3394;7.3535;
254.4000;0.3411;7.3653;
254.7000;0.3329;7.3535;
255.0000;0.3386;7.3795;
255.3000;0.3354;7.3795;
255.6000;0.3378;7.3747;
255.9000;0.3386;7.3747;
256.2000;0.3370;7.3677;
256.5000;0.3394;7.3771;
256.8000;0.3427;7.3984;
257.1000;0.3346;7.3747;
257.4000;0.3378;7.3842;
257.7000;0.3435;7.3937;
258.0000;0.3386;7.3771;
258.3000;0.3378;7.3700;
258.6000;0.3378;7.3700;
258.9000;0.3337;7.3535;
259.2000;0.3386;7.3606;
259.5000;0.3378;7.3606;
259.8000;0.3354;7.3511;
260.1000;0.3460;7.3889;
260.4000;0.3386;7.3653;
260.7000;0.3370;7.3606;
261.0000;0.3394;7.3677;
261.3000;0.3394;7.3653;
261.6000;0.3386;7.3700;
261.9000;0.3378;7.3629;
262.2000;0.3386;7.3558;
262.5000;0.3386;7.3487;
262.8000;0.3386;7.3369;
263.1000;0.3394;7.3369;
263.4000;0.3394;7.3417;
263.7000;0.3362;7.3440;
264.0000;0.3403;7.3440;
264.3000;0.3386;7.3369;
264.6000;0.3394;7.3369;
264.9000;0.3386;7.3322;
265.2000;0.3394;7.3393;
265.5000;0.3362;7.3298;
265.8000;0.3394;7.3393;
266.1000;0.3394;7.3417;
266.4000;0.3386;7.3440;
266.7000;0.3394;7.3487;
267.0000;0.3386;7.3369;
267.3000;0.3370;7.3464;
267.6000;0.3386;7.3417;
267.9000;0.3403;7.3440;
268.2000;0.3378;7.3346;
268.5000;0.3378;7.3251;
268.8000;0.3394;7.3251;
269.1000;0.3411;7.3393;
269.4000;0.3394;7.3417;
269.7000;0.3386;7.3487;
270.0000;0.3403;7.3511;
270.3000;0.3403;7.3464;
270.6000;0.3419;7.3487;
270.9000;0.3386;7.3369;
271.2000;0.3337;7.3204;
271.5000;0.3411;7.3369;
271.8000;0.3411;7.3369;
272.1000;0.3394;7.3369;
272.4000;0.3370;7.3322;
272.7000;0.3386;7.3487;
273.0000;0.3378;7.3535;
273.3000;0.3321;7.3322;
273.6000;0.3411;7.3417;
273.9000;0.3370;7.3417;
274.2000;0.3313;7.3275;
274.5000;0.3370;7.3464;
274.8000;0.3337;7.3417;
275.1000;0.3386;7.3464;
275.4000;0.3337;7.3298;
275.7000;0.3403;7.3464;
276.0000;0.3386;7.3417;
276.3000;0.3378;7.3417;
276.6000;0.3411;7.3487;
276.9000;0.3394;7.3440;
277.2000;0.3386;7.3582;
277.5000;0.3386;7.3558;
277.8000;0.3378;7.3464;
278.1000;0.3378;7.3464;
278.4000;0.3411;7.3558;
278.7000;0.3362;7.3487;
279.0000;0.3370;7.3417;
279.3000;0.3394;7.3582;
279.6000;0.3394;7.3606;
279.9000;0.3386;7.3464;
280.2000;0.3378;7.3535;
280.5000;0.3403;7.3629;
280.8000;0.3443;7.3818;
281.1000;0.3370;7.3535;
281.4000;0.3378;7.3511;
281.7000;0.3370;7.3511;
282.0000;0.3354;7.3393;
282.3000;0.3394;7.3558;
282.6000;0.3378;7.3417;
282.9000;0.3386;7.3464;
283.2000;0.3403;7.3511;
283.5000;0.3370;7.3511;
283.8000;0.3403;7.3653;
284.1000;0.3403;7.3629;
284.4000;0.3411;7.3700;
284.7000;0.3411;7.3653;
285.0000;0.3354;7.3606;
285.3000;0.3386;7.3795;
285.6000;0.3394;7.3724;
285.9000;0.3370;7.3629;
286.2000;0.3386;7.3582;
286.5000;0.3386;7.3582;
286.8000;0.3403;7.3677;
287.1000;0.3394;7.3700;
287.4000;0.3386;7.3677;
287.7000;0.3378;7.3511;
288.0000;0.3370;7.3464;
288.3000;0.3403;7.3440;
288.6000;0.3378;7.3417;
288.9000;0.3386;7.3440;
289.2000;0.3386;7.3417;
289.5000;0.3378;7.3464;
289.8000;0.3394;7.3629;
290.1000;0.3354;7.3606;
290.4000;0.3370;7.3582;
290.7000;0.3394;7.3582;
291.0000;0.3403;7.3535;
291.3000;0.3394;7.3511;
291.6000;0.3394;7.3393;
291.9000;0.3386;7.3464;
292.2000;0.3403;7.3487;
292.5000;0.3386;7.3440;
292.8000;0.3386;7.3558;
293.1000;0.3394;7.3582;
293.4000;0.3394;7.3629;
293.7000;0.3403;7.3558;
294.0000;0.3419;7.3677;
294.3000;0.3370;7.3558;
294.6000;0.3386;7.3535;
294.9000;0.3403;7.3653;
295.2000;0.3451;7.3771;
295.5000;0.3346;7.3464;
295.8000;0.3394;7.3606;
296.1000;0.3362;7.3535;
296.4000;0.3394;7.3511;
296.7000;0.3378;7.3511;
297.0000;0.3403;7.3511;
297.3000;0.3354;7.3417;
297.6000;0.3370;7.3511;
297.9000;0.3411;7.3700;
298.2000;0.3419;7.3724;
298.5000;0.3386;7.3558;
298.8000;0.3386;7.3511;
299.1000;0.3394;7.3653;
299.4000;0.3394;7.3582;
299.7000;0.3394;7.3440;
300.0000;0.3394;7.3417;
300.3000;0.3394;7.3464;
300.6000;0.3386;7.3464;
300.9000;0.3484;7.3653;
301.2000;0.3386;7.3417;
301.5000;0.3394;7.3393;
301.8000;0.3378;7.3393;
302.1000;0.3394;7.3417;
302.4000;0.3403;7.3440;
302.7000;0.3403;7.3298;
303.0000;0.3386;7.3346;
303.3000;0.3386;7.3417;
303.6000;0.3403;7.3558;
303.9000;0.3386;7.3464;
304.2000;0.3394;7.3440;
304.5000;0.3394;7.3464;
304.8000;0.3403;7.3487;
305.1000;0.3386;7.3417;
305.4000;0.3394;7.3393;
305.7000;0.3386;7.3440;
306.0000;0.3386;7.3511;
306.3000;0.3378;7.3440;
306.6000;0.3394;7.3393;
306.9000;0.3386;7.3393;
307.2000;0.3386;7.3511;
307.5000;0.3394;7.3558;
307.8000;0.3386;7.3558;
308.1000;0.3394;7.3606;
308.4000;0.3394;7.3606;
308.7000;0.3394;7.3629;
309.0000;0.3394;7.3677;
309.3000;0.3394;7.3629;
309.6000;0.3378;7.3487;
309.9000;0.3394;7.3535;
310.2000;0.3419;7.3582;
310.5000;0.3370;7.3464;
310.8000;0.3394;7.3582;
311.1000;0.3419;7.3653;
311.4000;0.3394;7.3558;
311.7000;0.3394;7.3487;
312.0000;0.3411;7.3535;
312.3000;0.3403;7.3558;
312.6000;0.3435;7.3653;
312.9000;0.3411;7.3558;
313.2000;0.3386;7.3511;
313.5000;0.3378;7.3464;
313.8000;0.3435;7.3653;
314.1000;0.3394;7.3558;
314.4000;0.3386;7.3582;
314.7000;0.3468;7.3747;
315.0000;0.3411;7.3558;
315.3000;0.3403;7.3511;
315.6000;0.3419;7.3535;
315.9000;0.3386;7.3511;
316.2000;0.3394;7.3606;
316.5000;0.3411;7.3582;
316.8000;0.3386;7.3417;
317.1000;0.3386;7.3440;
317.4000;0.3403;7.3535;
317.7000;0.3403;7.3487;
318.0000;0.3427;7.3464;
318.3000;0.3508;7.3629;
318.6000;0.3394;7.3535;
318.9000;0.3386;7.3464;
319.2000;0.3403;7.3487;
319.5000;0.3394;7.3417;
319.8000;0.3378;7.3417;
320.1000;0.3411;7.3417;
320.4000;0.3394;7.3369;
320.7000;0.3378;7.3369;
321.0000;0.3378;7.3440;
321.3000;0.3378;7.3440;
321.6000;0.3378;7.3535;
321.9000;0.3354;7.3464;
322.2000;0.3394;7.3440;
322.5000;0.3386;7.3487;
322.8000;0.3394;7.3535;
323.1000;0.3394;7.3606;
323.4000;0.3378;7.3629;
323.7000;0.3313;7.3393;
324.0000;0.3346;7.3487;
324.3000;0.3370;7.3558;
324.6000;0.3394;7.3629;
324.9000;0.3378;7.3653;
325.2000;0.3378;7.3700;
325.5000;0.3394;7.3629;
325.8000;0.3354;7.3535;
326.1000;0.3386;7.3653;
326.4000;0.3394;7.3606;
326.7000;0.3403;7.3653;
327.0000;0.3362;7.3511;
327.3000;0.3378;7.3558;
327.6000;0.3378;7.3487;
327.9000;0.3394;7.3511;
328.2000;0.3394;7.3535;
328.5000;0.3394;7.3535;
328.8000;0.3394;7.3558;
329.1000;0.3394;7.3487;
329.4000;0.3394;7.3487;
329.7000;0.3427;7.3558;
330.0000;0.3394;7.3487;
330.3000;0.3370;7.3440;
330.6000;0.3362;7.3440;
330.9000;0.3386;7.3487;
331.2000;0.3386;7.3440;
331.5000;0.3378;7.3511;
331.8000;0.3370;7.3440;
332.1000;0.3337;7.3417;
332.4000;0.3378;7.3535;
332.7000;0.3419;7.3606;
333.0000;0.3386;7.3487;
333.3000;0.3370;7.3346;
333.6000;0.3386;7.3346;
333.9000;0.3411;7.3440;
334.2000;0.3435;7.3653;
334.5000;0.3460;7.3677;
334.8000;0.3403;7.3535;
335.1000;0.3386;7.3535;
335.4000;0.3394;7.3558;
335.7000;0.3386;7.3606;
336.0000;0.3403;7.3677;
336.3000;0.3386;7.3558;
336.6000;0.3386;7.3629;
336.9000;0.3378;7.3629;
337.2000;0.3386;7.3677;
337.5000;0.3378;7.3629;
337.8000;0.3354;7.3464;
338.1000;0.3394;7.3606;
338.4000;0.3394;7.3487;
338.7000;0.3378;7.3393;
339.0000;0.3394;7.3440;
339.3000;0.3427;7.3535;
339.6000;0.3403;7.3440;
339.9000;0.3386;7.3511;
340.2000;0.3378;7.3558;
340.5000;0.3403;7.3582;
340.8000;0.3443;7.3700;
341.1000;0.3386;7.3582;
341.4000;0.3403;7.3582;
341.7000;0.3394;7.3558;
342.0000;0.3419;7.3653;
342.3000;0.3305;7.3393;
342.6000;0.3394;7.3582;
342.9000;0.3386;7.3606;
343.2000;0.3403;7.3582;
343.5000;0.3386;7.3487;
343.8000;0.3386;7.3558;
344.1000;0.3354;7.3511;
344.4000;0.3411;7.3629;
344.7000;0.3386;7.3629;
345.0000;0.3378;7.3629;
345.3000;0.3411;7.3677;
345.6000;0.3370;7.3677;
345.9000;0.3378;7.3629;
346.2000;0.3403;7.3653;
346.5000;0.3386;7.3700;
346.8000;0.3378;7.3700;
347.1000;0.3394;7.3700;
347.4000;0.3378;7.3629;
347.7000;0.3386;7.3558;
348.0000;0.3394;7.3653;
348.3000;0.3394;7.3653;
348.6000;0.3354;7.3677;
348.9000;0.3378;7.3653;
349.2000;0.3394;7.3582;
349.5000;0.3370;7.3487;
349.8000;0.3329;7.3417;
350.1000;0.3411;7.3582;
350.4000;0.3370;7.3511;
350.7000;0.3378;7.3511;
351.0000;0.3378;7.3487;
351.3000;0.3370;7.3535;
351.6000;0.3370;7.3606;
351.9000;0.3386;7.3653;
352.2000;0.3394;7.3700;
352.5000;0.3386;7.3700;
352.8000;0.3386;7.3677;
353.1000;0.3394;7.3582;
353.4000;0.3386;7.3582;
353.7000;0.3386;7.3582;
354.0000;0.3411;7.3582;
354.3000;0.3411;7.3487;
354.6000;0.3378;7.3511;
354.9000;0.3468;7.3677;
355.2000;0.3394;7.3535;
355.5000;0.3403;7.3535;
355.8000;0.3386;7.3558;
356.1000;0.3386;7.3417;
356.4000;0.3386;7.3440;
356.7000;0.3394;7.3511;
357.0000;0.3394;7.3606;
357.3000;0.3394;7.3582;
357.6000;0.3394;7.3535;
357.9000;0.3386;7.3464;
358.2000;0.3329;7.3417;
358.5000;0.3378;7.3558;
358.8000;0.3403;7.3582;
359.1000;0.3386;7.3487;
359.4000;0.3403;7.3606;
359.7000;0.3394;7.3606;
360.0000;0.3411;7.3724;
360.3000;0.3394;7.3629;
360.6000;0.3411;7.3582;
360.9000;0.3419;7.3606;
361.2000;0.3394;7.3629;
361.5000;0.3378;7.3582;
361.8000;0.3394;7.3487;
362.1000;0.3378;7.3440;
362.4000;0.3394;7.3582;
362.7000;0.3362;7.3558;
363.0000;0.3386;7.3677;
363.3000;0.3394;7.3677;
363.6000;0.3411;7.3606;
363.9000;0.3403;7.3582;
364.2000;0.3403;7.3558;
364.5000;0.3394;7.3582;
364.8000;0.3411;7.3606;
365.1000;0.3443;7.3677;
365.4000;0.3394;7.3464;
365.7000;0.3386;7.3511;
366.0000;0.3394;7.3582;
366.3000;0.3403;7.3440;
366.6000;0.3386;7.3369;
366.9000;0.3394;7.3417;
367.2000;0.3370;7.3393;
367.5000;0.3468;7.3582;
367.8000;0.3411;7.3558;
368.1000;0.3403;7.3629;
368.4000;0.3394;7.3629;
368.7000;0.3370;7.3606;
369.0000;0.3378;7.3558;
369.3000;0.3394;7.3511;
369.6000;0.3403;7.3464;
369.9000;0.3443;7.3582;
370.2000;0.3394;7.3464;
370.5000;0.3394;7.3464;
370.8000;0.3411;7.3487;
371.1000;0.3386;7.3464;
371.4000;0.3394;7.3487;
371.7000;0.3394;7.3511;
372.0000;0.3386;7.3487;
372.3000;0.3403;7.3558;
372.6000;0.3386;7.3606;
372.9000;0.3403;7.3677;
373.2000;0.3419;7.3606;
373.5000;0.3403;7.3582;
373.8000;0.3403;7.3511;
374.1000;0.3386;7.3487;
374.4000;0.3386;7.3535;
374.7000;0.3386;7.3535;
375.0000;0.3403;7.3535;
375.3000;0.3394;7.3606;
375.6000;0.3378;7.3606;
375.9000;0.3411;7.3653;
376.2000;0.3386;7.3795;
376.5000;0.3394;7.3747;
376.8000;0.3411;7.3724;
377.1000;0.3394;7.3629;
377.4000;0.3411;7.3606;
377.7000;0.3394;7.3535;
378.0000;0.3386;7.3535;
378.3000;0.3386;7.3487;
378.6000;0.3419;7.3558;
378.9000;0.3403;7.3535;
379.2000;0.3386;7.3393;
379.5000;0.3386;7.3487;
379.8000;0.3378;7.3511;
380.1000;0.3386;7.3582;
380.4000;0.3403;7.3629;
380.7000;0.3403;7.3606;
381.0000;0.3386;7.3558;
381.3000;0.3394;7.3535;
381.6000;0.3451;7.3724;
381.9000;0.3394;7.3629;
382.2000;0.3411;7.3677;
382.5000;0.3394;7.3677;
382.8000;0.3394;7.3771;
383.1000;0.3403;7.3724;
383.4000;0.3411;7.3747;
383.7000;0.3419;7.3677;
384.0000;0.3378;7.3487;
384.3000;0.3329;7.3393;
384.6000;0.3500;7.3842;
384.9000;0.3378;7.3440;
385.2000;0.3403;7.3511;
385.5000;0.3403;7.3440;
385.8000;0.3394;7.3417;
386.1000;0.3280;7.3133;
386.4000;0.3386;7.3440;
386.7000;0.3394;7.3511;
387.0000;0.3370;7.3487;
387.3000;0.3386;7.3558;
387.6000;0.3394;7.3511;
387.9000;0.3394;7.3440;
388.2000;0.3362;7.3393;
388.5000;0.3386;7.3464;
388.8000;0.3411;7.3558;
389.1000;0.3378;7.3511;
389.4000;0.3394;7.3487;
389.7000;0.3403;7.3511;
390.0000;0.3394;7.3606;
390.3000;0.3289;7.3298;
390.6000;0.3386;7.3511;
390.9000;0.3443;7.3558;
391.2000;0.3354;7.3369;
391.5000;0.3394;7.3440;
391.8000;0.3378;7.3346;
392.1000;0.3394;7.3369;
392.4000;0.3403;7.3369;
392.7000;0.3394;7.3464;
393.0000;0.3394;7.3464;
393.3000;0.3386;7.3417;
393.6000;0.3394;7.3511;
393.9000;0.3386;7.3464;
394.2000;0.3394;7.3440;
394.5000;0.3378;7.3346;
394.8000;0.3362;7.3369;
395.1000;0.3403;7.3487;
395.4000;0.3378;7.3535;
395.7000;0.3394;7.3511;
396.0000;0.3370;7.3535;
396.3000;0.3378;7.3487;
396.6000;0.3460;7.3629;
396.9000;0.3403;7.3464;
397.2000;0.3394;7.3417;
397.5000;0.3370;7.3322;
397.8000;0.3378;7.3440;
398.1000;0.3370;7.3440;
398.4000;0.3386;7.3464;
398.7000;0.3378;7.3440;
399.0000;0.3362;7.3535;
399.3000;0.3370;7.3511;
399.6000;0.3394;7.3535;
399.9000;0.3386;7.3487;
400.2000;0.3394;7.3511;
400.5000;0.3403;7.3464;
400.8000;0.3403;7.3417;
401.1000;0.3378;7.3322;
401.4000;0.3394;7.3322;
401.7000;0.3362;7.3251;
402.0000;0.3419;7.3393;
402.3000;0.3378;7.3346;
402.6000;0.3427;7.3417;
402.9000;0.3403;7.3369;
403.2000;0.3378;7.3180;
403.5000;0.3419;7.3275;
403.8000;0.3394;7.3227;
404.1000;0.3403;7.3298;
404.4000;0.3403;7.3393;
404.7000;0.3346;7.3204;
405.0000;0.3500;7.3582;
405.3000;0.3394;7.3393;
405.6000;0.3321;7.3275;
405.9000;0.3337;7.3369;
406.2000;0.3484;7.3677;
406.5000;0.3370;7.3487;
406.8000;0.3435;7.3535;
407.1000;0.3386;7.3511;
407.4000;0.3394;7.3558;
407.7000;0.3378;7.3558;
408.0000;0.3411;7.3582;
408.3000;0.3378;7.3487;
408.6000;0.3427;7.3535;
408.9000;0.3476;7.3535;
409.2000;0.3403;7.3393;
409.5000;0.3419;7.3487;
409.8000;0.3427;7.3511;
410.1000;0.3386;7.3346;
410.4000;0.3403;7.3393;
410.7000;0.3362;7.3369;
411.0000;0.3378;7.3487;
411.3000;0.3386;7.3487;
411.6000;0.3386;7.3487;
411.9000;0.3403;7.3487;
412.2000;0.3403;7.3440;
412.5000;0.3386;7.3535;
412.8000;0.3394;7.3606;
413.1000;0.3419;7.3700;
413.4000;0.3378;7.3629;
413.7000;0.3362;7.3535;
414.0000;0.3394;7.3629;
414.3000;0.3378;7.3606;
414.6000;0.3386;7.3511;
414.9000;0.3386;7.3417;
415.2000;0.3378;7.3417;
415.5000;0.3394;7.3487;
415.8000;0.3370;7.3464;
416.1000;0.3394;7.3393;
416.4000;0.3394;7.3322;
416.7000;0.3378;7.3298;
417.0000;0.3378;7.3298;
417.3000;0.3370;7.3417;
417.6000;0.3370;7.3464;
417.9000;0.3394;7.3535;
418.2000;0.3378;7.3464;
418.5000;0.3394;7.3511;
418.8000;0.3394;7.3535;
419.1000;0.3378;7.3511;
419.4000;0.3394;7.3582;
419.7000;0.3394;7.3535;
420.0000;0.3508;7.3700;
420.3000;0.3394;7.3369;
420.6000;0.3386;7.3346;
420.9000;0.3386;7.3464;
421.2000;0.3386;7.3417;
421.5000;0.3370;7.3417;
421.8000;0.3411;7.3511;
422.1000;0.3403;7.3440;
422.4000;0.3386;7.3322;
422.7000;0.3403;7.3346;
423.0000;0.3386;7.3346;
423.3000;0.3403;7.3346;
423.6000;0.3378;7.3275;
423.9000;0.3386;7.3369;
424.2000;0.3362;7.3251;
424.5000;0.3386;7.3346;
424.8000;0.3443;7.3558;
425.1000;0.3386;7.3417;
425.4000;0.3370;7.3417;
425.7000;0.3378;7.3369;
426.0000;0.3362;7.3298;
426.3000;0.3354;7.3227;
426.6000;0.3386;7.3369;
426.9000;0.3443;7.3511;
427.2000;0.3403;7.3440;
427.5000;0.3378;7.3346;
427.8000;0.3378;7.3346;
428.1000;0.3427;7.3393;
428.4000;0.3411;7.3417;
428.7000;0.3354;7.3346;
429.0000;0.3419;7.3511;
429.3000;0.3378;7.3464;
429.6000;0.3354;7.3322;
429.9000;0.3362;7.3393;
430.2000;0.3394;7.3346;
430.5000;0.3329;7.3180;
430.8000;0.3419;7.3346;
431.1000;0.3386;7.3298;
431.4000;0.3394;7.3275;
431.7000;0.3370;7.3346;
432.0000;0.3386;7.3535;
432.3000;0.3346;7.3393;
432.6000;0.3394;7.3487;
432.9000;0.3394;7.3440;
433.2000;0.3403;7.3440;
433.5000;0.3403;7.3393;
433.8000;0.3394;7.3322;
434.1000;0.3394;7.3393;
434.4000;0.3394;7.3606;
434.7000;0.3362;7.3464;
435.0000;0.3419;7.3511;
435.3000;0.3394;7.3511;
435.6000;0.3427;7.3629;
435.9000;0.3411;7.3677;
436.2000;0.3394;7.3629;
436.5000;0.3386;7.3771;
436.8000;0.3386;7.3795;
437.1000;0.3386;7.3747;
437.4000;0.3386;7.3677;
437.7000;0.3386;7.3771;
438.0000;0.3411;7.3795;
438.3000;0.3386;7.3795;
438.6000;0.3394;7.3842;
438.9000;0.3386;7.3818;
439.2000;0.3386;7.3913;
439.5000;0.3386;7.3913;
439.8000;0.3419;7.3889;
440.1000;0.3378;7.3724;
440.4000;0.3386;7.3677;
440.7000;0.3476;7.3866;
441.0000;0.3419;7.3677;
441.3000;0.3386;7.3487;
441.6000;0.3386;7.3440;
441.9000;0.3403;7.3487;
442.2000;0.3370;7.3511;
442.5000;0.3386;7.3582;
442.8000;0.3378;7.3558;
443.1000;0.3386;7.3558;
443.4000;0.3394;7.3582;
443.7000;0.3386;7.3511;
444.0000;0.3386;7.3487;
444.3000;0.3403;7.3487;
444.6000;0.3394;7.3582;
444.9000;0.3403;7.3606;
445.2000;0.3394;7.3629;
445.5000;0.3394;7.3629;
445.8000;0.3386;7.3653;
446.1000;0.3394;7.3700;
446.4000;0.3403;7.3724;
446.7000;0.3394;7.3653;
447.0000;0.3378;7.3724;
447.3000;0.3386;7.3771;
447.6000;0.3403;7.3795;
447.9000;0.3378;7.3677;
448.2000;0.3394;7.3771;
448.5000;0.3394;7.3771;
448.8000;0.3403;7.3771;
449.1000;0.3370;7.3582;
449.4000;0.3403;7.3653;
449.7000;0.3403;7.3582;
450.0000;0.3460;7.3724;
450.3000;0.3394;7.3558;
450.6000;0.3403;7.3606;
450.9000;0.3370;7.3558;
451.2000;0.3346;7.3487;
451.5000;0.3394;7.3558;
451.8000;0.3386;7.3511;
452.1000;0.3403;7.3558;
452.4000;0.3321;7.3511;
452.7000;0.3419;7.3677;
453.0000;0.3370;7.3535;
453.3000;0.3386;7.3535;
453.6000;0.3394;7.3582;
453.9000;0.3443;7.3700;
454.2000;0.3394;7.3558;
454.5000;0.3378;7.3700;
454.8000;0.3403;7.3818;
455.1000;0.3394;7.3771;
455.4000;0.3394;7.3700;
455.7000;0.3386;7.3677;
456.0000;0.3411;7.3677;
456.3000;0.3297;7.3275;
456.6000;0.3386;7.3440;
456.9000;0.3394;7.3511;
457.2000;0.3370;7.3393;
457.5000;0.3419;7.3464;
457.8000;0.3394;7.3464;
458.1000;0.3386;7.3535;
458.4000;0.3403;7.3629;
458.7000;0.3443;7.3747;
459.0000;0.3411;7.3700;
459.3000;0.3394;7.3606;
459.6000;0.3378;7.3511;
459.9000;0.3378;7.3417;
460.2000;0.3403;7.3346;
460.5000;0.3403;7.3393;
460.8000;0.3411;7.3417;
461.1000;0.3297;7.3156;
461.4000;0.3394;7.3346;
461.7000;0.3386;7.3275;
462.0000;0.3411;7.3369;
462.3000;0.3370;7.3298;
462.6000;0.3403;7.3440;
462.9000;0.3354;7.3369;
463.2000;0.3378;7.3393;
463.5000;0.3386;7.3393;
463.8000;0.3297;7.3109;
464.1000;0.3354;7.3322;
464.4000;0.3378;7.3464;
464.7000;0.3378;7.3582;
465.0000;0.3403;7.3653;
465.3000;0.3378;7.3606;
465.6000;0.3362;7.3558;
465.9000;0.3386;7.3535;
466.2000;0.3394;7.3464;
466.5000;0.3403;7.3393;
466.8000;0.3403;7.3393;
467.1000;0.3394;7.3322;
467.4000;0.3386;7.3275;
467.7000;0.3403;7.3298;
468.0000;0.3403;7.3369;
468.3000;0.3386;7.3440;
468.6000;0.3386;7.3440;
468.9000;0.3394;7.3417;
469.2000;0.3394;7.3346;
469.5000;0.3394;7.3346;
469.8000;0.3378;7.3393;
470.1000;0.3394;7.3417;
470.4000;0.3411;7.3440;
470.7000;0.3403;7.3393;
471.0000;0.3386;7.3535;
471.3000;0.3386;7.3487;
471.6000;0.3419;7.3582;
471.9000;0.3443;7.3747;
472.2000;0.3386;7.3724;
472.5000;0.3386;7.3653;
472.8000;0.3411;7.3724;
473.1000;0.3378;7.3653;
473.4000;0.3386;7.3582;
473.7000;0.3386;7.3535;
474.0000;0.3386;7.3558;
474.3000;0.3419;7.3582;
474.6000;0.3403;7.3487;
474.9000;0.3386;7.3369;
475.2000;0.3386;7.3369;
475.5000;0.3443;7.3511;
475.8000;0.3305;7.3086;
476.1000;0.3346;7.3156;
476.4000;0.3386;7.3204;
476.7000;0.3321;7.3156;
477.0000;0.3370;7.3322;
477.3000;0.3386;7.3393;
477.6000;0.3394;7.3440;
477.9000;0.3386;7.3464;
478.2000;0.3386;7.3464;
478.5000;0.3386;7.3464;
478.8000;0.3394;7.3511;
479.1000;0.3419;7.3511;
479.4000;0.3435;7.3558;
479.7000;0.3484;7.3653;
480.0000;0.3394;7.3369;
480.3000;0.3451;7.3393;
480.6000;0.3394;7.3298;
480.9000;0.3403;7.3275;
481.2000;0.3427;7.3298;
481.5000;0.3394;7.3275;
481.8000;0.3411;7.3369;
482.1000;0.3468;7.3511;
482.4000;0.3370;7.3251;
482.7000;0.3394;7.3369;
483.0000;0.3386;7.3275;
483.3000;0.3370;7.3275;
483.6000;0.3378;7.3346;
483.9000;0.3386;7.3417;
484.2000;0.3362;7.3369;
484.5000;0.3362;7.3440;
484.8000;0.3370;7.3464;
485.1000;0.3394;7.3464;
485.4000;0.3403;7.3582;
485.7000;0.3492;7.3913;
486.0000;0.3362;7.3558;
486.3000;0.3500;7.3818;
486.6000;0.3427;7.3629;
486.9000;0.3394;7.3535;
487.2000;0.3403;7.3440;
487.5000;0.3394;7.3487;
487.8000;0.3386;7.3369;
488.1000;0.3451;7.3535;
488.4000;0.3370;7.3346;
488.7000;0.3337;7.3298;
489.0000;0.3378;7.3393;
489.3000;0.3362;7.3393;
489.6000;0.3386;7.3417;
489.9000;0.3403;7.3464;
490.2000;0.3394;7.3440;
490.5000;0.3394;7.3464;
490.8000;0.3394;7.3464;
491.1000;0.3362;7.3369;
491.4000;0.3370;7.3346;
491.7000;0.3411;7.3369;
492.0000;0.3386;7.3275;
492.3000;0.3419;7.3369;
492.6000;0.3378;7.3346;
492.9000;0.3378;7.3369;
493.2000;0.3354;7.3393;
493.5000;0.3378;7.3487;
493.8000;0.3378;7.3487;
494.1000;0.3394;7.3558;
494.4000;0.3378;7.3558;
494.7000;0.3403;7.3582;
495.0000;0.3378;7.3535;
495.3000;0.3403;7.3440;
495.6000;0.3394;7.3393;
495.9000;0.3394;7.3464;
496.2000;0.3403;7.3393;
496.5000;0.3403;7.3369;
496.8000;0.3394;7.3487;
497.1000;0.3435;7.3558;
497.4000;0.3378;7.3393;
497.7000;0.3386;7.3275;
498.0000;0.3386;7.3204;
498.3000;0.3394;7.3322;
498.6000;0.3386;7.3393;
498.9000;0.3386;7.3440;
499.2000;0.3272;7.3156;
499.5000;0.3378;7.3487;
499.8000;0.3386;7.3487;
500.1000;0.3370;7.3464;
500.4000;0.3403;7.3440;
500.7000;0.3346;7.3369;
501.0000;0.3394;7.3417;
501.3000;0.3403;7.3393;
501.6000;0.3386;7.3369;
501.9000;0.3370;7.3346;
502.2000;0.3419;7.3393;
502.5000;0.3403;7.3346;
502.8000;0.3386;7.3346;
503.1000;0.3378;7.3417;
503.4000;0.3378;7.3369;
503.7000;0.3411;7.3346;
504.0000;0.3394;7.3298;
504.3000;0.3386;7.3346;
504.6000;0.3419;7.3393;
504.9000;0.3468;7.3535;
505.2000;0.3394;7.3298;
505.5000;0.3394;7.3346;
505.8000;0.3394;7.3369;
506.1000;0.3419;7.3440;
506.4000;0.3468;7.3558;
506.7000;0.3403;7.3417;
507.0000;0.3394;7.3417;
507.3000;0.3394;7.3322;
507.6000;0.3394;7.3369;
507.9000;0.3386;7.3322;
508.2000;0.3378;7.3298;
508.5000;0.3386;7.3275;
508.8000;0.3394;7.3346;
509.1000;0.3370;7.3275;
509.4000;0.3394;7.3417;
509.7000;0.3378;7.3417;
510.0000;0.3386;7.3511;
510.3000;0.3394;7.3487;
510.6000;0.3378;7.3346;
510.9000;0.3394;7.3251;
511.2000;0.3403;7.3322;
511.5000;0.3394;7.3275;
511.8000;0.3403;7.3322;
512.1000;0.3403;7.3322;
512.4000;0.3370;7.3298;
512.7000;0.3394;7.3346;
513.0000;0.3378;7.3369;
513.3000;0.3386;7.3440;
513.6000;0.3386;7.3417;
513.9000;0.3394;7.3440;
514.2000;0.3354;7.3275;
514.5000;0.3378;7.3393;
514.8000;0.3411;7.3369;
515.1000;0.3394;7.3227;
515.4000;0.3394;7.3204;
515.7000;0.3386;7.3298;
516.0000;0.3427;7.3369;
516.3000;0.3394;7.3275;
516.6000;0.3378;7.3156;
516.9000;0.3460;7.3298;
517.2000;0.3346;7.3109;
517.5000;0.3403;7.3251;
517.8000;0.3403;7.3251;
518.1000;0.3386;7.3227;
518.4000;0.3394;7.3251;
518.7000;0.3386;7.3275;
519.0000;0.3386;7.3322;
519.3000;0.3337;7.3251;
519.6000;0.3378;7.3369;
519.9000;0.3386;7.3440;
520.2000;0.3419;7.3487;
520.5000;0.3403;7.3464;
520.8000;0.3419;7.3487;
521.1000;0.3394;7.3417;
521.4000;0.3386;7.3417;
521.7000;0.3370;7.3275;
522.0000;0.3223;7.2896;
522.3000;0.3411;7.3417;
522.6000;0.3443;7.3487;
522.9000;0.3411;7.3464;
523.2000;0.3313;7.3227;
523.5000;0.3386;7.3346;
523.8000;0.3378;7.3440;
524.1000;0.3403;7.3487;
524.4000;0.3419;7.3464;
524.7000;0.3362;7.3275;
525.0000;0.3378;7.3346;
525.3000;0.3386;7.3346;
525.6000;0.3394;7.3440;
525.9000;0.3435;7.3558;
526.2000;0.3386;7.3393;
526.5000;0.3394;7.3464;
526.8000;0.3394;7.3511;
527.1000;0.3386;7.3535;
527.4000;0.3411;7.3606;
527.7000;0.3394;7.3582;
528.0000;0.3394;7.3558;
528.3000;0.3403;7.3629;
528.6000;0.3411;7.3677;
528.9000;0.3386;7.3582;
529.2000;0.3386;7.3582;
529.5000;0.3386;7.3440;
529.8000;0.3394;7.3487;
530.1000;0.3394;7.3511;
530.4000;0.3386;7.3511;
530.7000;0.3386;7.3511;
531.0000;0.3362;7.3440;
531.3000;0.3411;7.3511;
531.6000;0.3484;7.3818;
531.9000;0.3337;7.3558;
532.2000;0.3394;7.3653;
532.5000;0.3403;7.3582;
532.8000;0.3394;7.3582;
533.1000;0.3378;7.3511;
533.4000;0.3386;7.3558;
533.7000;0.3386;7.3535;
534.0000;0.3394;7.3511;
534.3000;0.3386;7.3464;
534.6000;0.3386;7.3487;
534.9000;0.3337;7.3346;
535.2000;0.3403;7.3487;
535.5000;0.3394;7.3464;
535.8000;0.3378;7.3440;
536.1000;0.3403;7.3582;
536.4000;0.3394;7.3535;
536.7000;0.3427;7.3606;
537.0000;0.3435;7.3653;
537.3000;0.3411;7.3724;
537.6000;0.3370;7.3653;
537.9000;0.3394;7.3558;
538.2000;0.3411;7.3606;
538.5000;0.3394;7.3464;
538.8000;0.3362;7.3440;
539.1000;0.3403;7.3511;
539.4000;0.3394;7.3464;
539.7000;0.3378;7.3369;
540.0000;0.3394;7.3440;
540.3000;0.3386;7.3440;
540.6000;0.3386;7.3369;
540.9000;0.3411;7.3346;
541.2000;0.3370;7.3369;
541.5000;0.3411;7.3653;
541.8000;0.3394;7.3606;
542.1000;0.3394;7.3558;
542.4000;0.3378;7.3464;
542.7000;0.3378;7.3487;
543.0000;0.3403;7.3487;
543.3000;0.3435;7.3606;
543.6000;0.3370;7.3440;
543.9000;0.3386;7.3417;
544.2000;0.3386;7.3369;
544.5000;0.3370;7.3322;
544.8000;0.3378;7.3369;
545.1000;0.3427;7.3558;
545.4000;0.3386;7.3511;
545.7000;0.3386;7.3417;
546.0000;0.3386;7.3393;
546.3000;0.3403;7.3369;
546.6000;0.3386;7.3369;
546.9000;0.3468;7.3582;
547.2000;0.3370;7.3417;
547.5000;0.3272;7.3156;
547.8000;0.3386;7.3440;
548.1000;0.3354;7.3393;
548.4000;0.3427;7.3511;
548.7000;0.3378;7.3369;
549.0000;0.3378;7.3440;
549.3000;0.3394;7.3464;
549.6000;0.3378;7.3417;
549.9000;0.3386;7.3346;
550.2000;0.3403;7.3369;
550.5000;0.3403;7.3298;
550.8000;0.3419;7.3369;
551.1000;0.3411;7.3393;
551.4000;0.3394;7.3346;
551.7000;0.3435;7.3464;
552.0000;0.3403;7.3535;
552.3000;0.3386;7.3464;
552.6000;0.3394;7.3464;
552.9000;0.3386;7.3322;
553.2000;0.3386;7.3298;
553.5000;0.3386;7.3298;
553.8000;0.3451;7.3417;
554.1000;0.3378;7.3086;
554.4000;0.3394;7.3156;
554.7000;0.3378;7.3109;
555.0000;0.3378;7.3133;
555.3000;0.3394;7.3204;
555.6000;0.3419;7.3204;
555.9000;0.3403;7.3156;
556.2000;0.3362;7.3133;
556.5000;0.3403;7.3227;
556.8000;0.3443;7.3204;
557.1000;0.3403;7.3180;
557.4000;0.3394;7.3227;
557.7000;0.3386;7.3322;
558.0000;0.3370;7.3298;
558.3000;0.3403;7.3275;
558.6000;0.3403;7.3251;
558.9000;0.3403;7.3322;
559.2000;0.3378;7.3322;
559.5000;0.3386;7.3275;
559.8000;0.3386;7.3180;
560.1000;0.3378;7.3204;
560.4000;0.3403;7.3298;
560.7000;0.3378;7.3298;
561.0000;0.3394;7.3275;
561.3000;0.3394;7.3346;
561.6000;0.3403;7.3346;
561.9000;0.3403;7.3322;
562.2000;0.3370;7.3251;
562.5000;0.3386;7.3322;
562.8000;0.3386;7.3322;
563.1000;0.3411;7.3369;
563.4000;0.3403;7.3440;
563.7000;0.3394;7.3417;
564.0000;0.3354;7.3298;
564.3000;0.3386;7.3346;
564.6000;0.3386;7.3417;
564.9000;0.3411;7.3440;
565.2000;0.3394;7.3464;
565.5000;0.3394;7.3511;
565.8000;0.3378;7.3417;
566.1000;0.3386;7.3417;
566.4000;0.3435;7.3558;
566.7000;0.3378;7.3464;
567.0000;0.3394;7.3464;
567.3000;0.3346;7.3298;
567.6000;0.3386;7.3369;
567.9000;0.3403;7.3393;
568.2000;0.3394;7.3346;
568.5000;0.3394;7.3393;
568.8000;0.3362;7.3322;
569.1000;0.3370;7.3369;
569.4000;0.3443;7.3606;
569.7000;0.3386;7.3369;
570.0000;0.3394;7.3369;
570.3000;0.3394;7.3251;
570.6000;0.3394;7.3227;
570.9000;0.3354;7.2991;
571.2000;0.3386;7.3156;
571.5000;0.3378;7.3133;
571.8000;0.3460;7.3298;
572.1000;0.3337;7.2967;
572.4000;0.3394;7.3156;
572.7000;0.3403;7.3227;
573.0000;0.3370;7.3156;
573.3000;0.3370;7.3180;
573.6000;0.3394;7.3346;
573.9000;0.3386;7.3275;
574.2000;0.3394;7.3204;
574.5000;0.3394;7.3156;
574.8000;0.3419;7.3251;
575.1000;0.3460;7.3369;
575.4000;0.3427;7.3393;
575.7000;0.3419;7.3298;
576.0000;0.3386;7.3322;
576.3000;0.3419;7.3369;
576.6000;0.3394;7.3298;
576.9000;0.3362;7.3346;
577.2000;0.3354;7.3369;
577.5000;0.3386;7.3464;
577.8000;0.3394;7.3511;
578.1000;0.3411;7.3487;
578.4000;0.3386;7.3393;
578.7000;0.3354;7.3156;
579.0000;0.3370;7.3204;
579.3000;0.3378;7.3227;
579.6000;0.3386;7.3227;
579.9000;0.3378;7.3204;
580.2000;0.3386;7.3275;
580.5000;0.3370;7.3298;
580.8000;0.3435;7.3487;
581.1000;0.3378;7.3393;
581.4000;0.3378;7.3393;
581.7000;0.3370;7.3298;
582.0000;0.3386;7.3275;
582.3000;0.3411;7.3393;
582.6000;0.3386;7.3322;
582.9000;0.3329;7.3227;
583.2000;0.3403;7.3464;
583.5000;0.3378;7.3440;
583.8000;0.3378;7.3440;
584.1000;0.3370;7.3487;
584.4000;0.3378;7.3558;
584.7000;0.3378;7.3582;
585.0000;0.3386;7.3606;
585.3000;0.3370;7.3629;
585.6000;0.3403;7.3582;
585.9000;0.3394;7.3511;
586.2000;0.3403;7.3487;
586.5000;0.3394;7.3464;
586.8000;0.3394;7.3440;
587.1000;0.3386;7.3369;
587.4000;0.3386;7.3417;
587.7000;0.3394;7.3464;
588.0000;0.3394;7.3464;
588.3000;0.3362;7.3393;
588.6000;0.3394;7.3487;
588.9000;0.3346;7.3369;
589.2000;0.3354;7.3464;
589.5000;0.3394;7.3535;
589.8000;0.3394;7.3535;
590.1000;0.3443;7.3724;
590.4000;0.3411;7.3629;
590.7000;0.3419;7.3535;
591.0000;0.3386;7.3417;
591.3000;0.3346;7.3275;
591.6000;0.3386;7.3369;
591.9000;0.3411;7.3487;
592.2000;0.3394;7.3464;
592.5000;0.3411;7.3440;
592.8000;0.3378;7.3346;
593.1000;0.3468;7.3653;
593.4000;0.3435;7.3535;
593.7000;0.3394;7.3464;
594.0000;0.3346;7.3275;
594.3000;0.3378;7.3346;
594.6000;0.3411;7.3417;
594.9000;0.3411;7.3393;
595.2000;0.3386;7.3464;
595.5000;0.3386;7.3464;
595.8000;0.3394;7.3511;
596.1000;0.3329;7.3464;
596.4000;0.3394;7.3629;
596.7000;0.3386;7.3629;
597.0000;0.3386;7.3558;
597.3000;0.3354;7.3464;
597.6000;0.3386;7.3511;
597.9000;0.3370;7.3511;
598.2000;0.3386;7.3535;
598.5000;0.3394;7.3511;
598.8000;0.3386;7.3511;
599.1000;0.3386;7.3511;
599.4000;0.3346;7.3369;
599.7000;0.3378;7.3393;
600.0000;0.3378;7.3440;
600.3000;0.3460;7.3653;
600.6000;0.3370;7.3417;
600.9000;0.3362;7.3204;
601.2000;0.3321;7.3062;
601.5000;0.3354;7.3086;
601.8000;0.3313;7.2849;
602.1000;0.3362;7.2826;
602.4000;0.3280;7.2613;
602.7000;0.3207;7.2400;
603.0000;0.3232;7.2424;
603.3000;0.3207;7.2329;
603.6000;0.3207;7.2306;
603.9000;0.3223;7.2235;
604.2000;0.3183;7.2116;
604.5000;0.3158;7.2046;
604.8000;0.3142;7.2022;
605.1000;0.3134;7.1998;
605.4000;0.3150;7.2069;
605.7000;0.3126;7.1998;
606.0000;0.3093;7.1951;
606.3000;0.3101;7.2046;
606.6000;0.3101;7.2093;
606.9000;0.3077;7.1951;
607.2000;0.3085;7.1880;
607.5000;0.3069;7.1927;
607.8000;0.3061;7.1904;
608.1000;0.3069;7.1809;
608.4000;0.3053;7.1809;
608.7000;0.3020;7.1809;
609.0000;0.3028;7.1762;
609.3000;0.3036;7.1738;
609.6000;0.3004;7.1667;
609.9000;0.2996;7.1620;
610.2000;0.2963;7.1526;
610.5000;0.2987;7.1596;
610.8000;0.2979;7.1644;
611.1000;0.2987;7.1715;
611.4000;0.2996;7.1691;
611.7000;0.2979;7.1644;
612.0000;0.2996;7.1644;
612.3000;0.2979;7.1573;
612.6000;0.2979;7.1620;
612.9000;0.2955;7.1549;
613.2000;0.2947;7.1502;
613.5000;0.2922;7.1478;
613.8000;0.2955;7.1502;
614.1000;0.2947;7.1502;
614.4000;0.2873;7.1336;
614.7000;0.2890;7.1478;
615.0000;0.2882;7.1502;
615.3000;0.2882;7.1596;
615.6000;0.2906;7.1573;
615.9000;0.2930;7.1667;
616.2000;0.2857;7.1644;
616.5000;0.2882;7.1596;
616.8000;0.2792;7.1407;
617.1000;0.2987;7.1904;
617.4000;0.2890;7.1526;
617.7000;0.2825;7.1360;
618.0000;0.2873;7.1431;
618.3000;0.2857;7.1478;
618.6000;0.2873;7.1502;
618.9000;0.2865;7.1431;
619.2000;0.2841;7.1478;
619.5000;0.2792;7.1407;
619.8000;0.2849;7.1478;
620.1000;0.2857;7.1549;
620.4000;0.2833;7.1455;
620.7000;0.2857;7.1478;
621.0000;0.2841;7.1384;
621.3000;0.2816;7.1336;
621.6000;0.2833;7.1431;
621.9000;0.2816;7.1431;
622.2000;0.2800;7.1407;
622.5000;0.2808;7.1407;
622.8000;0.2833;7.1407;
623.1000;0.2825;7.1455;
623.4000;0.2800;7.1384;
623.7000;0.2784;7.1289;
624.0000;0.2800;7.1336;
624.3000;0.2784;7.1407;
624.6000;0.2768;7.1360;
624.9000;0.2800;7.1455;
625.2000;0.2792;7.1431;
625.5000;0.2768;7.1360;
625.8000;0.2776;7.1407;
626.1000;0.2784;7.1360;
626.4000;0.2768;7.1289;
626.7000;0.2776;7.1195;
627.0000;0.2768;7.1266;
627.3000;0.2751;7.1195;
627.6000;0.2751;7.1171;
627.9000;0.2735;7.1195;
628.2000;0.2751;7.1218;
628.5000;0.2719;7.1100;
628.8000;0.2719;7.1124;
629.1000;0.2727;7.1195;
629.4000;0.2719;7.1266;
629.7000;0.2711;7.1336;
630.0000;0.2735;7.1455;
630.3000;0.2735;7.1431;
630.6000;0.2735;7.1384;
630.9000;0.2637;7.1266;
631.2000;0.2670;7.1336;
631.5000;0.2735;7.1407;
631.8000;0.2702;7.1384;
632.1000;0.2711;7.1407;
632.4000;0.2678;7.1336;
632.7000;0.2711;7.1407;
633.0000;0.2686;7.1384;
633.3000;0.2678;7.1313;
633.6000;0.2678;7.1336;
633.9000;0.2702;7.1455;
634.2000;0.2662;7.1289;
634.5000;0.2686;7.1289;
634.8000;0.2686;7.1242;
635.1000;0.2662;7.1195;
635.4000;0.2646;7.1076;
635.7000;0.2702;7.1147;
636.0000;0.2678;7.1171;
636.3000;0.2678;7.1242;
636.6000;0.2646;7.1195;
636.9000;0.2670;7.1218;
637.2000;0.2646;7.1147;
637.5000;0.2670;7.1266;
637.8000;0.2646;7.1147;
638.1000;0.2702;7.1313;
638.4000;0.2637;7.1218;
638.7000;0.2629;7.1266;
639.0000;0.2629;7.1242;
639.3000;0.2597;7.1218;
639.6000;0.2621;7.1360;
639.9000;0.2637;7.1431;
640.2000;0.2621;7.1526;
640.5000;0.2523;7.1289;
640.8000;0.2629;7.1596;
641.1000;0.2621;7.1549;
641.4000;0.2637;7.1526;
641.7000;0.2621;7.1431;
642.0000;0.2605;7.1455;
642.3000;0.2621;7.1478;
642.6000;0.2727;7.1691;
642.9000;0.2613;7.1431;
643.2000;0.2613;7.1289;
643.5000;0.2548;7.1242;
643.8000;0.2597;7.1313;
644.1000;0.2589;7.1266;
644.4000;0.2491;7.1124;
644.7000;0.2605;7.1384;
645.0000;0.2597;7.1313;
645.3000;0.2605;7.1407;
645.6000;0.2572;7.1407;
645.9000;0.2589;7.1336;
646.2000;0.2597;7.1218;
646.5000;0.2532;7.1053;
646.8000;0.2580;7.1195;
647.1000;0.2589;7.1218;
647.4000;0.2637;7.1289;
647.7000;0.2580;7.1171;
648.0000;0.2589;7.1100;
648.3000;0.2572;7.1171;
648.6000;0.2580;7.1218;
648.9000;0.2556;7.1266;
649.2000;0.2556;7.1266;
649.5000;0.2572;7.1336;
649.8000;0.2564;7.1336;
650.1000;0.2548;7.1289;
650.4000;0.2556;7.1242;
650.7000;0.2515;7.1218;
651.0000;0.2556;7.1313;
651.3000;0.2564;7.1313;
651.6000;0.2491;7.1124;
651.9000;0.2507;7.1266;
652.2000;0.2548;7.1336;
652.5000;0.2556;7.1407;
652.8000;0.2532;7.1360;
653.1000;0.2572;7.1526;
653.4000;0.2540;7.1336;
653.7000;0.2540;7.1336;
654.0000;0.2532;7.1313;
654.3000;0.2523;7.1313;
654.6000;0.2532;7.1431;
654.9000;0.2532;7.1384;
655.2000;0.2532;7.1360;
655.5000;0.2507;7.1266;
655.8000;0.2629;7.1573;
656.1000;0.2523;7.1336;
656.4000;0.2499;7.1289;
656.7000;0.2532;7.1313;
657.0000;0.2515;7.1195;
657.3000;0.2532;7.1266;
657.6000;0.2532;7.1289;
657.9000;0.2507;7.1242;
658.2000;0.2499;7.1242;
658.5000;0.2523;7.1313;
658.8000;0.2507;7.1266;
659.1000;0.2507;7.1266;
659.4000;0.2450;7.1147;
659.7000;0.2507;7.1313;
660.0000;0.2572;7.1526;
660.3000;0.2507;7.1266;
660.6000;0.2523;7.1336;
660.9000;0.2491;7.1336;
661.2000;0.2532;7.1407;
661.5000;0.2483;7.1313;
661.8000;0.2499;7.1313;
662.1000;0.2507;7.1242;
662.4000;0.2523;7.1313;
662.7000;0.2491;7.1171;
663.0000;0.2475;7.1171;
663.3000;0.2458;7.1053;
663.6000;0.2515;7.1171;
663.9000;0.2483;7.1195;
664.2000;0.2466;7.1076;
664.5000;0.2499;7.1100;
664.8000;0.2466;7.1053;
665.1000;0.2483;7.1124;
665.4000;0.2458;7.1076;
665.7000;0.2475;7.1053;
666.0000;0.2466;7.1076;
666.3000;0.2483;7.1100;
666.6000;0.2475;7.1100;
666.9000;0.2475;7.1124;
667.2000;0.2466;7.1076;
667.5000;0.2483;7.1100;
667.8000;0.2483;7.1100;
668.1000;0.2475;7.1053;
668.4000;0.2466;7.1053;
668.7000;0.2458;7.1076;
669.0000;0.2483;7.1242;
669.3000;0.2442;7.1195;
669.6000;0.2450;7.1147;
669.9000;0.2458;7.1124;
670.2000;0.2466;7.1218;
670.5000;0.2458;7.1289;
670.8000;0.2442;7.1313;
671.1000;0.2466;7.1242;
671.4000;0.2475;7.1336;
671.7000;0.2466;7.1242;
672.0000;0.2475;7.1242;
672.3000;0.2442;7.1266;
672.6000;0.2458;7.1289;
672.9000;0.2434;7.1195;
673.2000;0.2442;7.1195;
673.5000;0.2450;7.1218;
673.8000;0.2442;7.1147;
674.1000;0.2458;7.1195;
674.4000;0.2426;7.1124;
674.7000;0.2426;7.1147;
675.0000;0.2401;7.1076;
675.3000;0.2377;7.1100;
675.6000;0.2434;7.1313;
675.9000;0.2426;7.1313;
676.2000;0.2426;7.1313;
676.5000;0.2442;7.1384;
676.8000;0.2434;7.1336;
677.1000;0.2409;7.1266;
677.4000;0.2426;7.1336;
677.7000;0.2418;7.1384;
678.0000;0.2475;7.1573;
678.3000;0.2352;7.1171;
678.6000;0.2426;7.1431;
678.9000;0.2377;7.1478;
679.2000;0.2426;7.1502;
679.5000;0.2426;7.1431;
679.8000;0.2393;7.1313;
680.1000;0.2515;7.1644;
680.4000;0.2426;7.1407;
680.7000;0.2426;7.1384;
681.0000;0.2369;7.1171;
681.3000;0.2418;7.1360;
681.6000;0.2418;7.1360;
681.9000;0.2409;7.1336;
682.2000;0.2409;7.1313;
682.5000;0.2409;7.1313;
682.8000;0.2434;7.1431;
683.1000;0.2401;7.1360;
683.4000;0.2401;7.1431;
683.7000;0.2418;7.1455;
684.0000;0.2426;7.1455;
684.3000;0.2401;7.1266;
684.6000;0.2369;7.1195;
684.9000;0.2401;7.1384;
685.2000;0.2377;7.1384;
685.5000;0.2393;7.1313;
685.8000;0.2352;7.1266;
686.1000;0.2385;7.1289;
686.4000;0.2385;7.1266;
686.7000;0.2385;7.1171;
687.0000;0.2393;7.1242;
687.3000;0.2466;7.1431;
687.6000;0.2393;7.1242;
687.9000;0.2377;7.1266;
688.2000;0.2369;7.1218;
688.5000;0.2401;7.1313;
688.8000;0.2393;7.1242;
689.1000;0.2385;7.1242;
689.4000;0.2377;7.1218;
689.7000;0.2385;7.1266;
690.0000;0.2385;7.1266;
690.3000;0.2377;7.1171;
690.6000;0.2385;7.1171;
690.9000;0.2385;7.1195;
691.2000;0.2369;7.1195;
691.5000;0.2401;7.1313;
691.8000;0.2377;7.1266;
692.1000;0.2377;7.1147;
692.4000;0.2393;7.1195;
692.7000;0.2393;7.1124;
693.0000;0.2393;7.1100;
693.3000;0.2393;7.1195;
693.6000;0.2377;7.1124;
693.9000;0.2361;7.1029;
694.2000;0.2377;7.1147;
694.5000;0.2369;7.1100;
694.8000;0.2385;7.1100;
695.1000;0.2369;7.1100;
695.4000;0.2385;7.1147;
695.7000;0.2369;7.1053;
696.0000;0.2352;7.1053;
696.3000;0.2369;7.1006;
696.6000;0.2361;7.0982;
696.9000;0.2483;7.1289;
697.2000;0.2377;7.1029;
697.5000;0.2385;7.0982;
697.8000;0.2361;7.0935;
698.1000;0.2361;7.0911;
698.4000;0.2336;7.0911;
698.7000;0.2361;7.0935;
699.0000;0.2361;7.1076;
699.3000;0.2361;7.1006;
699.6000;0.2369;7.0982;
699.9000;0.2320;7.0911;
700.2000;0.2393;7.1053;
700.5000;0.2361;7.0911;
700.8000;0.2336;7.0816;
701.1000;0.2361;7.0887;
701.4000;0.2361;7.0958;
701.7000;0.2336;7.1029;
702.0000;0.2352;7.1076;
702.3000;0.2361;7.1124;
702.6000;0.2344;7.1171;
702.9000;0.2336;7.1171;
703.2000;0.2361;7.1266;
703.5000;0.2344;7.1336;
703.8000;0.2442;7.1620;
704.1000;0.2328;7.1360;
704.4000;0.2344;7.1266;
704.7000;0.2344;7.1147;
705.0000;0.2352;7.1218;
705.3000;0.2320;7.1147;
705.6000;0.2344;7.1171;
705.9000;0.2352;7.1242;
706.2000;0.2344;7.1100;
706.5000;0.2336;7.1053;
706.8000;0.2344;7.1100;
707.1000;0.2401;7.1100;
707.4000;0.2336;7.0887;
707.7000;0.2369;7.1006;
708.0000;0.2385;7.1076;
708.3000;0.2361;7.1100;
708.6000;0.2426;7.1313;
708.9000;0.2287;7.1006;
709.2000;0.2344;7.1100;
709.5000;0.2393;7.1147;
709.8000;0.2312;7.1006;
710.1000;0.2385;7.1195;
710.4000;0.2352;7.1195;
710.7000;0.2304;7.1124;
711.0000;0.2352;7.1171;
711.3000;0.2344;7.1195;
711.6000;0.2328;7.1100;
711.9000;0.2336;7.1124;
712.2000;0.2352;7.1076;
712.5000;0.2352;7.1053;
712.8000;0.2336;7.1076;
713.1000;0.2328;7.1029;
713.4000;0.2344;7.0958;
713.7000;0.2352;7.0958;
714.0000;0.2352;7.1006;
714.3000;0.2279;7.0769;
714.6000;0.2328;7.0911;
714.9000;0.2361;7.0887;
715.2000;0.2320;7.0793;
715.5000;0.2287;7.0675;
715.8000;0.2336;7.0911;
716.1000;0.2320;7.0911;
716.4000;0.2336;7.0887;
716.7000;0.2247;7.0675;
717.0000;0.2352;7.1006;
717.3000;0.2295;7.0911;
717.6000;0.2336;7.1006;
717.9000;0.2336;7.1006;
718.2000;0.2361;7.1053;
718.5000;0.2336;7.0958;
718.8000;0.2344;7.0982;
719.1000;0.2320;7.0935;
719.4000;0.2328;7.0935;
719.7000;0.2344;7.0982;
720.0000;0.2320;7.0911;
720.3000;0.2279;7.0769;
720.6000;0.2312;7.0816;
720.9000;0.2344;7.1076;
721.2000;0.2328;7.1076;
721.5000;0.2328;7.1029;
721.8000;0.2312;7.1053;
722.1000;0.2287;7.0911;
722.4000;0.2320;7.0958;
722.7000;0.2304;7.1029;
723.0000;0.2369;7.1195;
723.3000;0.2328;7.1076;
723.6000;0.2320;7.1124;
723.9000;0.2336;7.1218;
724.2000;0.2287;7.1100;
724.5000;0.2312;7.1029;
724.8000;0.2352;7.1124;
725.1000;0.2263;7.1006;
725.4000;0.2295;7.1124;
725.7000;0.2263;7.1053;
726.0000;0.2320;7.1242;
726.3000;0.2295;7.1147;
726.6000;0.2320;7.1124;
726.9000;0.2255;7.1006;
727.2000;0.2295;7.1053;
727.5000;0.2312;7.1029;
727.8000;0.2320;7.1100;
728.1000;0.2328;7.1006;
728.4000;0.2287;7.0911;
728.7000;0.2271;7.0982;
729.0000;0.2295;7.1006;
729.3000;0.2304;7.0958;
729.6000;0.2336;7.0982;
729.9000;0.2320;7.0958;
730.2000;0.2271;7.0816;
730.5000;0.2255;7.0769;
730.8000;0.2287;7.1006;
731.1000;0.2295;7.1006;
731.4000;0.2320;7.1147;
731.7000;0.2279;7.1100;
732.0000;0.2287;7.1100;
732.3000;0.2320;7.1266;
732.6000;0.2304;7.1171;
732.9000;0.2295;7.1100;
733.2000;0.2295;7.1147;
733.5000;0.2295;7.1242;
733.8000;0.2304;7.1242;
734.1000;0.2287;7.1266;
734.4000;0.2287;7.1289;
734.7000;0.2312;7.1266;
735.0000;0.2336;7.1313;
735.3000;0.2295;7.1195;
735.6000;0.2279;7.1100;
735.9000;0.2287;7.1147;
736.2000;0.2247;7.1029;
736.5000;0.2344;7.1124;
736.8000;0.2320;7.1029;
737.1000;0.2312;7.1076;
737.4000;0.2304;7.1053;
737.7000;0.2271;7.0958;
738.0000;0.2295;7.1053;
738.3000;0.2295;7.1147;
738.6000;0.2304;7.1124;
738.9000;0.2287;7.1124;
739.2000;0.2320;7.1076;
739.5000;0.2255;7.0911;
739.8000;0.2287;7.0982;
740.1000;0.2295;7.1076;
740.4000;0.2287;7.1076;
740.7000;0.2263;7.1076;
741.0000;0.2304;7.1147;
741.3000;0.2295;7.1147;
741.6000;0.2320;7.1147;
741.9000;0.2287;7.1124;
742.2000;0.2279;7.1076;
742.5000;0.2287;7.1053;
742.8000;0.2295;7.1076;
743.1000;0.2295;7.1006;
743.4000;0.2287;7.0958;
743.7000;0.2287;7.0935;
744.0000;0.2263;7.0911;
744.3000;0.2295;7.0982;
744.6000;0.2279;7.0935;
744.9000;0.2279;7.0887;
745.2000;0.2295;7.0958;
745.5000;0.2279;7.0911;
745.8000;0.2287;7.0982;
746.1000;0.2304;7.1006;
746.4000;0.2295;7.1124;
746.7000;0.2287;7.1124;
747.0000;0.2320;7.1147;
747.3000;0.2263;7.1076;
747.6000;0.2279;7.1147;
747.9000;0.2304;7.1218;
748.2000;0.2263;7.1124;
748.5000;0.2271;7.1124;
748.8000;0.2287;7.1147;
749.1000;0.2190;7.0982;
749.4000;0.2295;7.1218;
749.7000;0.2255;7.1147;
750.0000;0.2279;7.1266;
750.3000;0.2320;7.1289;
750.6000;0.2295;7.1266;
750.9000;0.2304;7.1336;
751.2000;0.2295;7.1266;
751.5000;0.2295;7.1242;
751.8000;0.2271;7.1242;
752.1000;0.2295;7.1336;
752.4000;0.2263;7.1195;
752.7000;0.2304;7.1218;
753.0000;0.2287;7.1124;
753.3000;0.2295;7.1171;
753.6000;0.2287;7.1171;
753.9000;0.2295;7.1100;
754.2000;0.2344;7.1124;
754.5000;0.2271;7.1029;
754.8000;0.2279;7.1076;
755.1000;0.2279;7.1124;
755.4000;0.2271;7.1218;
755.7000;0.2271;7.1218;
756.0000;0.2271;7.1195;
756.3000;0.2263;7.1076;
756.6000;0.2255;7.1006;
756.9000;0.2263;7.1006;
757.2000;0.2255;7.0911;
757.5000;0.2304;7.0982;
757.8000;0.2279;7.0935;
758.1000;0.2279;7.0935;
758.4000;0.2214;7.0746;
758.7000;0.2247;7.0958;
759.0000;0.2263;7.1100;
759.3000;0.2255;7.1076;
759.6000;0.2271;7.1147;
759.9000;0.2271;7.1171;
760.2000;0.2222;7.1076;
760.5000;0.2271;7.1242;
760.8000;0.2239;7.1195;
761.1000;0.2239;7.1195;
761.4000;0.2263;7.1218;
761.7000;0.2263;7.1218;
762.0000;0.2295;7.1242;
762.3000;0.2287;7.1100;
762.6000;0.2255;7.1100;
762.9000;0.2295;7.1218;
763.2000;0.2263;7.1029;
763.5000;0.2304;7.1124;
763.8000;0.2239;7.0958;
764.1000;0.2263;7.0958;
764.4000;0.2271;7.0911;
764.7000;0.2263;7.0887;
765.0000;0.2255;7.0816;
765.3000;0.2247;7.0793;
765.6000;0.2271;7.0887;
765.9000;0.2230;7.0887;
766.2000;0.2247;7.0935;
766.5000;0.2279;7.1029;
766.8000;0.2271;7.1053;
767.1000;0.2263;7.1006;
767.4000;0.2263;7.1006;
767.7000;0.2255;7.1053;
768.0000;0.2263;7.1171;
768.3000;0.2271;7.1218;
768.6000;0.2263;7.1100;
768.9000;0.2230;7.1053;
769.2000;0.2239;7.1053;
769.5000;0.2263;7.1029;
769.8000;0.2255;7.1076;
770.1000;0.2295;7.1171;
770.4000;0.2255;7.1124;
770.7000;0.2271;7.1124;
771.0000;0.2271;7.1076;
771.3000;0.2190;7.1006;
771.6000;0.2320;7.1289;
771.9000;0.2279;7.1218;
772.2000;0.2263;7.1218;
772.5000;0.2247;7.1218;
772.8000;0.2255;7.1171;
773.1000;0.2263;7.1147;
773.4000;0.2255;7.1124;
773.7000;0.2279;7.1076;
774.0000;0.2271;7.1029;
774.3000;0.2222;7.0887;
774.6000;0.2230;7.0982;
774.9000;0.2255;7.1029;
775.2000;0.2255;7.1100;
775.5000;0.2247;7.1147;
775.8000;0.2247;7.1053;
776.1000;0.2182;7.0864;
776.4000;0.2214;7.0911;
776.7000;0.2279;7.1076;
777.0000;0.2255;7.1100;
777.3000;0.2247;7.1124;
777.6000;0.2247;7.1171;
777.9000;0.2239;7.1171;
778.2000;0.2247;7.1147;
778.5000;0.2255;7.1147;
778.8000;0.2247;7.1171;
779.1000;0.2247;7.1171;
779.4000;0.2239;7.1147;
779.7000;0.2157;7.0864;
780.0000;0.2230;7.1053;
780.3000;0.2239;7.1029;
780.6000;0.2255;7.1029;
780.9000;0.2239;7.0911;
781.2000;0.2230;7.0864;
781.5000;0.2230;7.0935;
781.8000;0.2304;7.1218;
782.1000;0.2247;7.1006;
782.4000;0.2165;7.0864;
782.7000;0.2247;7.1053;
783.0000;0.2247;7.1029;
783.3000;0.2271;7.1076;
783.6000;0.2255;7.1053;
783.9000;0.2239;7.1076;
784.2000;0.2255;7.1171;
784.5000;0.2247;7.1218;
784.8000;0.2255;7.1242;
785.1000;0.2247;7.1171;
785.4000;0.2222;7.1053;
785.7000;0.2239;7.1147;
786.0000;0.2263;7.1124;
786.3000;0.2295;7.1171;
786.6000;0.2271;7.1124;
786.9000;0.2247;7.1029;
787.2000;0.2239;7.1100;
787.5000;0.2149;7.0958;
787.8000;0.2255;7.1195;
788.1000;0.2263;7.1195;
788.4000;0.2165;7.0982;
788.7000;0.2255;7.1242;
789.0000;0.2190;7.1053;
789.3000;0.2271;7.1195;
789.6000;0.2271;7.1124;
789.9000;0.2255;7.1124;
790.2000;0.2239;7.1006;
790.5000;0.2230;7.1006;
790.8000;0.2214;7.1029;
791.1000;0.2247;7.1147;
791.4000;0.2206;7.1100;
791.7000;0.2214;7.1147;
792.0000;0.2255;7.1147;
792.3000;0.2239;7.1100;
792.6000;0.2222;7.1124;
792.9000;0.2190;7.1147;
793.2000;0.2255;7.1313;
793.5000;0.2239;7.1384;
793.8000;0.2239;7.1478;
794.1000;0.2239;7.1478;
794.4000;0.2214;7.1407;
794.7000;0.2239;7.1384;
795.0000;0.2222;7.1218;
795.3000;0.2239;7.1171;
795.6000;0.2239;7.1171;
795.9000;0.2214;7.1195;
796.2000;0.2182;7.1006;
796.5000;0.2214;7.1147;
796.8000;0.2214;7.1124;
797.1000;0.2222;7.1195;
797.4000;0.2239;7.1195;
797.7000;0.2239;7.1124;
798.0000;0.2222;7.1124;
798.3000;0.2255;7.1266;
798.6000;0.2247;7.1218;
798.9000;0.2239;7.1266;
799.2000;0.2206;7.1242;
799.5000;0.2247;7.1407;
799.8000;0.2239;7.1478;
800.1000;0.2214;7.1336;
800.4000;0.2214;7.1407;
800.7000;0.2230;7.1407;
801.0000;0.2239;7.1384;
801.3000;0.2255;7.1360;
801.6000;0.2206;7.1242;
801.9000;0.2198;7.1218;
802.2000;0.2141;7.1124;
802.5000;0.2214;7.1289;
802.8000;0.2239;7.1266;
803.1000;0.2239;7.1336;
803.4000;0.2222;7.1195;
803.7000;0.2247;7.1147;
804.0000;0.2247;7.1195;
804.3000;0.2230;7.1171;
804.6000;0.2247;7.1289;
804.9000;0.2206;7.1242;
805.2000;0.2247;7.1313;
805.5000;0.2214;7.1242;
805.8000;0.2239;7.1313;
806.1000;0.2239;7.1360;
806.4000;0.2239;7.1336;
806.7000;0.2255;7.1431;
807.0000;0.2206;7.1313;
807.3000;0.2247;7.1384;
807.6000;0.2222;7.1384;
807.9000;0.2239;7.1360;
808.2000;0.2214;7.1266;
808.5000;0.2214;7.1218;
808.8000;0.2239;7.1313;
809.1000;0.2239;7.1289;
809.4000;0.2230;7.1171;
809.7000;0.2239;7.1124;
810.0000;0.2230;7.1218;
810.3000;0.2247;7.1266;
810.6000;0.2222;7.1171;
810.9000;0.2222;7.1171;
811.2000;0.2222;7.1218;
811.5000;0.2239;7.1242;
811.8000;0.2263;7.1313;
812.1000;0.2255;7.1266;
812.4000;0.2336;7.1502;
812.7000;0.2247;7.1266;
813.0000;0.2214;7.1218;
813.3000;0.2214;7.1313;
813.6000;0.2222;7.1336;
813.9000;0.2182;7.1147;
814.2000;0.2230;7.1171;
814.5000;0.2206;7.1195;
814.8000;0.2230;7.1313;
815.1000;0.2190;7.1313;
815.4000;0.2214;7.1360;
815.7000;0.2198;7.1266;
816.0000;0.2222;7.1336;
816.3000;0.2214;7.1266;
816.6000;0.2230;7.1336;
816.9000;0.2206;7.1313;
817.2000;0.2190;7.1336;
817.5000;0.2230;7.1407;
817.8000;0.2190;7.1336;
818.1000;0.2206;7.1336;
818.4000;0.2214;7.1218;
818.7000;0.2206;7.1195;
819.0000;0.2198;7.1218;
819.3000;0.2230;7.1242;
819.6000;0.2263;7.1242;
819.9000;0.2255;7.1242;
820.2000;0.2255;7.1147;
820.5000;0.2222;7.1076;
820.8000;0.2149;7.0958;
821.1000;0.2206;7.1053;
821.4000;0.2198;7.1171;
821.7000;0.2198;7.1195;
822.0000;0.2206;7.1195;
822.3000;0.2206;7.1171;
822.6000;0.2287;7.1360;
822.9000;0.2214;7.1100;
823.2000;0.2214;7.1076;
823.5000;0.2239;7.1147;
823.8000;0.2255;7.1171;
824.1000;0.2230;7.1171;
824.4000;0.2214;7.1218;
824.7000;0.2173;7.1195;
825.0000;0.2214;7.1360;
825.3000;0.2239;7.1407;
825.6000;0.2182;7.1218;
825.9000;0.2255;7.1407;
826.2000;0.2230;7.1336;
826.5000;0.2198;7.1336;
826.8000;0.2239;7.1384;
827.1000;0.2198;7.1313;
827.4000;0.2190;7.1360;
827.7000;0.2198;7.1336;
828.0000;0.2239;7.1455;
828.3000;0.2214;7.1431;
828.6000;0.2165;7.1289;
828.9000;0.2214;7.1431;
829.2000;0.2222;7.1360;
829.5000;0.2222;7.1313;
829.8000;0.2214;7.1289;
830.1000;0.2214;7.1313;
830.4000;0.2198;7.1313;
830.7000;0.2214;7.1360;
831.0000;0.2206;7.1360;
831.3000;0.2214;7.1384;
831.6000;0.2230;7.1407;
831.9000;0.2247;7.1384;
832.2000;0.2214;7.1266;
832.5000;0.2222;7.1384;
832.8000;0.2239;7.1455;
833.1000;0.2247;7.1549;
833.4000;0.2222;7.1455;
833.7000;0.2230;7.1478;
834.0000;0.2206;7.1360;
834.3000;0.2222;7.1384;
834.6000;0.2206;7.1336;
834.9000;0.2230;7.1360;
835.2000;0.2222;7.1384;
835.5000;0.2295;7.1549;
835.8000;0.2247;7.1407;
836.1000;0.2214;7.1455;
836.4000;0.2198;7.1478;
836.7000;0.2198;7.1431;
837.0000;0.2214;7.1431;
837.3000;0.2206;7.1360;
837.6000;0.2198;7.1336;
837.9000;0.2222;7.1384;
838.2000;0.2214;7.1313;
838.5000;0.2206;7.1266;
838.8000;0.2206;7.1218;
839.1000;0.2149;7.1124;
839.4000;0.2214;7.1242;
839.7000;0.2182;7.1242;
840.0000;0.2182;7.1266;
840.3000;0.2198;7.1336;
840.6000;0.2230;7.1407;
840.9000;0.2182;7.1266;
841.2000;0.2206;7.1289;
841.5000;0.2190;7.1266;
841.8000;0.2165;7.1171;
842.1000;0.2206;7.1289;
842.4000;0.2222;7.1242;
842.7000;0.2247;7.1384;
843.0000;0.2214;7.1336;
843.3000;0.2206;7.1266;
843.6000;0.2198;7.1195;
843.9000;0.2214;7.1289;
844.2000;0.2206;7.1289;
844.5000;0.2239;7.1289;
844.8000;0.2149;7.1100;
845.1000;0.2198;7.1195;
845.4000;0.2239;7.1171;
845.7000;0.2198;7.1100;
846.0000;0.2206;7.1076;
846.3000;0.2190;7.1100;
846.6000;0.2198;7.1124;
846.9000;0.2190;7.1195;
847.2000;0.2149;7.1171;
847.5000;0.2198;7.1336;
847.8000;0.2239;7.1455;
848.1000;0.2206;7.1431;
848.4000;0.2222;7.1502;
848.7000;0.2173;7.1360;
849.0000;0.2190;7.1384;
849.3000;0.2190;7.1384;
849.6000;0.2141;7.1313;
849.9000;0.2190;7.1360;
850.2000;0.2116;7.1171;
850.5000;0.2230;7.1336;
850.8000;0.2230;7.1336;
851.1000;0.2190;7.1313;
851.4000;0.2182;7.1313;
851.7000;0.2182;7.1313;
852.0000;0.2173;7.1242;
852.3000;0.2206;7.1384;
852.6000;0.2165;7.1266;
852.9000;0.2198;7.1336;
853.2000;0.2198;7.1384;
853.5000;0.2198;7.1384;
853.8000;0.2198;7.1431;
854.1000;0.2206;7.1549;
854.4000;0.2239;7.1573;
854.7000;0.2214;7.1478;
855.0000;0.2206;7.1431;
855.3000;0.2206;7.1384;
855.6000;0.2198;7.1289;
855.9000;0.2190;7.1336;
856.2000;0.2198;7.1407;
856.5000;0.2198;7.1313;
856.8000;0.2190;7.1289;
857.1000;0.2190;7.1336;
857.4000;0.2182;7.1360;
857.7000;0.2141;7.1266;
858.0000;0.2198;7.1384;
858.3000;0.2182;7.1360;
858.6000;0.2263;7.1455;
858.9000;0.2182;7.1289;
859.2000;0.2190;7.1266;
859.5000;0.2198;7.1266;
859.8000;0.2222;7.1266;
860.1000;0.2198;7.1195;
860.4000;0.2190;7.1242;
860.7000;0.2206;7.1195;
861.0000;0.2239;7.1266;
861.3000;0.2190;7.1195;
861.6000;0.2173;7.1242;
861.9000;0.2198;7.1289;
862.2000;0.2247;7.1360;
862.5000;0.2214;7.1218;
862.8000;0.2206;7.1218;
863.1000;0.2182;7.1242;
863.4000;0.2190;7.1266;
863.7000;0.2206;7.1289;
864.0000;0.2190;7.1171;
864.3000;0.2182;7.1218;
864.6000;0.2190;7.1195;
864.9000;0.2182;7.1147;
865.2000;0.2133;7.1029;
865.5000;0.2165;7.1100;
865.8000;0.2190;7.1171;
866.1000;0.2271;7.1407;
866.4000;0.2206;7.1147;
866.7000;0.2173;7.1100;
867.0000;0.2206;7.1171;
867.3000;0.2206;7.1171;
867.6000;0.2190;7.1218;
867.9000;0.2190;7.1266;
868.2000;0.2190;7.1289;
868.5000;0.2214;7.1336;
868.8000;0.2198;7.1360;
869.1000;0.2214;7.1407;
869.4000;0.2206;7.1336;
869.7000;0.2198;7.1360;
870.0000;0.2287;7.1549;
870.3000;0.2206;7.1431;
870.6000;0.2182;7.1526;
870.9000;0.2190;7.1526;
871.2000;0.2173;7.1384;
871.5000;0.2173;7.1360;
871.8000;0.2182;7.1360;
872.1000;0.2190;7.1407;
872.4000;0.2230;7.1478;
872.7000;0.2190;7.1360;
873.0000;0.2182;7.1407;
873.3000;0.2190;7.1455;
873.6000;0.2206;7.1455;
873.9000;0.2157;7.1407;
874.2000;0.2182;7.1478;
874.5000;0.2182;7.1455;
874.8000;0.2198;7.1478;
875.1000;0.2173;7.1478;
875.4000;0.2190;7.1549;
875.7000;0.2165;7.1478;
876.0000;0.2182;7.1526;
876.3000;0.2157;7.1384;
876.6000;0.2108;7.1147;
876.9000;0.2173;7.1336;
877.2000;0.2173;7.1289;
877.5000;0.2230;7.1478;
877.8000;0.2190;7.1431;
878.1000;0.2206;7.1455;
878.4000;0.2206;7.1478;
878.7000;0.2165;7.1431;
879.0000;0.2206;7.1455;
879.3000;0.2206;7.1455;
879.6000;0.2190;7.1502;
879.9000;0.2198;7.1478;
880.2000;0.2214;7.1478;
880.5000;0.2173;7.1407;
880.8000;0.2190;7.1384;
881.1000;0.2214;7.1478;
881.4000;0.2182;7.1431;
881.7000;0.2173;7.1407;
882.0000;0.2173;7.1407;
882.3000;0.2182;7.1431;
882.6000;0.2190;7.1502;
882.9000;0.2198;7.1549;
883.2000;0.2214;7.1620;
883.5000;0.2214;7.1573;
883.8000;0.2173;7.1526;
884.1000;0.2173;7.1620;
884.4000;0.2198;7.1620;
884.7000;0.2190;7.1644;
885.0000;0.2206;7.1620;
885.3000;0.2190;7.1549;
885.6000;0.2173;7.1549;
885.9000;0.2206;7.1526;
886.2000;0.2190;7.1478;
886.5000;0.2182;7.1502;
886.8000;0.2173;7.1478;
887.1000;0.2222;7.1549;
887.4000;0.2182;7.1455;
887.7000;0.2182;7.1336;
888.0000;0.2125;7.1147;
888.3000;0.2206;7.1289;
888.6000;0.2198;7.1266;
888.9000;0.2182;7.1218;
889.2000;0.2173;7.1171;
889.5000;0.2182;7.1218;
889.8000;0.2182;7.1242;
890.1000;0.2182;7.1266;
890.4000;0.2165;7.1360;
890.7000;0.2165;7.1407;
891.0000;0.2247;7.1549;
891.3000;0.2182;7.1313;
891.6000;0.2173;7.1289;
891.9000;0.2165;7.1171;
892.2000;0.2157;7.1171;
892.5000;0.2198;7.1171;
892.8000;0.2182;7.1195;
893.1000;0.2165;7.1195;
893.4000;0.2214;7.1431;
893.7000;0.2214;7.1360;
894.0000;0.2173;7.1313;
894.3000;0.2198;7.1266;
894.6000;0.2149;7.1124;
894.9000;0.2190;7.1171;
895.2000;0.2198;7.1289;
895.5000;0.2165;7.1336;
895.8000;0.2165;7.1360;
896.1000;0.2173;7.1336;
896.4000;0.2165;7.1336;
896.7000;0.2165;7.1407;
897.0000;0.2173;7.1336;
897.3000;0.2165;7.1336;
897.6000;0.2165;7.1455;
897.9000;0.2157;7.1360;
898.2000;0.2190;7.1478;
898.5000;0.2165;7.1478;
898.8000;0.2190;7.1478;
899.1000;0.2182;7.1502;
899.4000;0.2206;7.1644;
899.7000;0.2173;7.1455;
900.0000;0.2133;7.1195;
900.3000;0.2133;7.1313;
900.6000;0.2165;7.1360;
900.9000;0.2165;7.1313;
901.2000;0.2165;7.1384;
901.5000;0.2198;7.1596;
901.8000;0.2149;7.1407;
902.1000;0.2173;7.1502;
902.4000;0.2165;7.1549;
902.7000;0.2165;7.1549;
903.0000;0.2182;7.1573;
903.3000;0.2182;7.1526;
903.6000;0.2190;7.1573;
903.9000;0.2173;7.1596;
904.2000;0.2173;7.1620;
904.5000;0.2149;7.1549;
904.8000;0.2165;7.1502;
905.1000;0.2157;7.1455;
905.4000;0.2190;7.1407;
905.7000;0.2165;7.1360;
906.0000;0.2157;7.1313;
906.3000;0.2173;7.1360;
906.6000;0.2165;7.1336;
906.9000;0.2157;7.1313;
907.2000;0.2173;7.1313;
907.5000;0.2173;7.1242;
907.8000;0.2133;7.1124;
908.1000;0.2173;7.1336;
908.4000;0.2198;7.1384;
908.7000;0.2165;7.1336;
909.0000;0.2190;7.1478;
909.3000;0.2173;7.1502;
909.6000;0.2165;7.1478;
909.9000;0.2100;7.1218;
910.2000;0.2173;7.1384;
910.5000;0.2173;7.1431;
910.8000;0.2182;7.1455;
911.1000;0.2092;7.1218;
911.4000;0.2149;7.1407;
911.7000;0.2173;7.1360;
912.0000;0.2149;7.1360;
912.3000;0.2141;7.1313;
912.6000;0.2165;7.1478;
912.9000;0.2182;7.1549;
913.2000;0.2165;7.1526;
913.5000;0.2157;7.1431;
913.8000;0.2165;7.1431;
914.1000;0.2165;7.1431;
914.4000;0.2165;7.1289;
914.7000;0.2173;7.1313;
915.0000;0.2173;7.1336;
915.3000;0.2157;7.1360;
915.6000;0.2182;7.1384;
915.9000;0.2182;7.1407;
916.2000;0.2173;7.1455;
916.5000;0.2165;7.1431;
916.8000;0.2190;7.1455;
917.1000;0.2214;7.1478;
917.4000;0.2108;7.1336;
917.7000;0.2198;7.1667;
918.0000;0.2173;7.1573;
918.3000;0.2165;7.1526;
918.6000;0.2182;7.1549;
918.9000;0.2165;7.1549;
919.2000;0.2116;7.1384;
919.5000;0.2182;7.1596;
919.8000;0.2173;7.1526;
920.1000;0.2198;7.1502;
920.4000;0.2190;7.1431;
920.7000;0.2214;7.1478;
921.0000;0.2125;7.1289;
921.3000;0.2149;7.1289;
921.6000;0.2214;7.1549;
921.9000;0.2141;7.1313;
922.2000;0.2182;7.1431;
922.5000;0.2190;7.1502;
922.8000;0.2190;7.1502;
923.1000;0.2190;7.1478;
923.4000;0.2173;7.1549;
923.7000;0.2230;7.1644;
924.0000;0.2165;7.1478;
924.3000;0.2173;7.1502;
924.6000;0.2084;7.1289;
924.9000;0.2149;7.1502;
925.2000;0.2173;7.1502;
925.5000;0.2206;7.1549;
925.8000;0.2255;7.1667;
926.1000;0.2173;7.1407;
926.4000;0.2157;7.1336;
926.7000;0.2173;7.1431;
927.0000;0.2173;7.1478;
927.3000;0.2141;7.1360;
927.6000;0.2157;7.1407;
927.9000;0.2165;7.1384;
928.2000;0.2165;7.1266;
928.5000;0.2149;7.1289;
928.8000;0.2198;7.1407;
929.1000;0.2173;7.1455;
929.4000;0.2165;7.1502;
929.7000;0.2182;7.1455;
930.0000;0.2157;7.1360;
930.3000;0.2190;7.1407;
930.6000;0.2173;7.1266;
930.9000;0.2165;7.1266;
931.2000;0.2157;7.1218;
931.5000;0.2165;7.1289;
931.8000;0.2165;7.1313;
932.1000;0.2165;7.1407;
932.4000;0.2165;7.1455;
932.7000;0.2182;7.1455;
933.0000;0.2173;7.1502;
933.3000;0.2165;7.1431;
933.6000;0.2149;7.1478;
933.9000;0.2133;7.1407;
934.2000;0.2173;7.1455;
934.5000;0.2165;7.1502;
934.8000;0.2165;7.1478;
935.1000;0.2157;7.1526;
935.4000;0.2141;7.1455;
935.7000;0.2149;7.1549;
936.0000;0.1994;7.1171;
936.3000;0.2157;7.1620;
936.6000;0.2141;7.1620;
936.9000;0.2157;7.1667;
937.2000;0.2125;7.1596;
937.5000;0.2149;7.1691;
937.8000;0.2157;7.1786;
938.1000;0.2149;7.1833;
938.4000;0.2190;7.1833;
938.7000;0.2141;7.1620;
939.0000;0.2182;7.1691;
939.3000;0.2190;7.1667;
939.6000;0.2173;7.1667;
939.9000;0.2157;7.1620;
940.2000;0.2165;7.1715;
940.5000;0.2141;7.1667;
940.8000;0.2157;7.1762;
941.1000;0.2206;7.1856;
941.4000;0.2116;7.1644;
941.7000;0.2149;7.1691;
942.0000;0.2173;7.1715;
942.3000;0.2222;7.1833;
942.6000;0.2173;7.1856;
942.9000;0.2173;7.1904;
943.2000;0.2116;7.1691;
943.5000;0.2149;7.1762;
943.8000;0.2165;7.1856;
944.1000;0.2165;7.1833;
944.4000;0.2214;7.1927;
944.7000;0.2157;7.1715;
945.0000;0.2165;7.1667;
945.3000;0.2149;7.1596;
945.6000;0.2141;7.1502;
945.9000;0.2182;7.1620;
946.2000;0.2173;7.1573;
946.5000;0.2141;7.1455;
946.8000;0.2157;7.1573;
947.1000;0.2182;7.1644;
947.4000;0.2157;7.1573;
947.7000;0.2173;7.1667;
948.0000;0.2125;7.1502;
948.3000;0.2141;7.1502;
948.6000;0.2157;7.1620;
948.9000;0.2173;7.1667;
949.2000;0.2182;7.1573;
949.5000;0.2173;7.1502;
949.8000;0.2149;7.1384;
950.1000;0.2165;7.1313;
950.4000;0.2157;7.1336;
950.7000;0.2149;7.1266;
951.0000;0.2165;7.1336;
951.3000;0.2173;7.1336;
951.6000;0.2157;7.1289;
951.9000;0.2173;7.1431;
952.2000;0.2165;7.1502;
952.5000;0.2149;7.1502;
952.8000;0.2157;7.1549;
953.1000;0.2182;7.1502;
953.4000;0.2149;7.1384;
953.7000;0.2182;7.1431;
954.0000;0.2173;7.1384;
954.3000;0.2149;7.1336;
954.6000;0.2149;7.1455;
954.9000;0.2190;7.1573;
955.2000;0.2173;7.1502;
955.5000;0.2165;7.1455;
955.8000;0.2165;7.1502;
956.1000;0.2182;7.1738;
956.4000;0.2173;7.1715;
956.7000;0.2190;7.1715;
957.0000;0.2173;7.1620;
957.3000;0.2182;7.1691;
957.6000;0.2149;7.1549;
957.9000;0.2068;7.1431;
958.2000;0.2116;7.1644;
958.5000;0.2173;7.1667;
958.8000;0.2157;7.1691;
959.1000;0.2157;7.1691;
959.4000;0.2165;7.1762;
959.7000;0.2182;7.1833;
960.0000;0.2141;7.1691;
960.3000;0.2165;7.1786;
960.6000;0.2125;7.1715;
960.9000;0.2141;7.1644;
961.2000;0.2157;7.1573;
961.5000;0.2157;7.1455;
961.8000;0.2133;7.1407;
962.1000;0.2149;7.1455;
962.4000;0.2141;7.1431;
962.7000;0.2157;7.1455;
963.0000;0.2173;7.1478;
963.3000;0.2141;7.1384;
963.6000;0.2157;7.1431;
963.9000;0.2165;7.1526;
964.2000;0.2190;7.1596;
964.5000;0.2157;7.1573;
964.8000;0.2149;7.1526;
965.1000;0.2165;7.1502;
965.4000;0.2165;7.1596;
965.7000;0.2157;7.1620;
966.0000;0.2190;7.1667;
966.3000;0.2182;7.1596;
966.6000;0.2133;7.1478;
966.9000;0.2157;7.1502;
967.2000;0.2141;7.1502;
967.5000;0.2157;7.1455;
967.8000;0.2157;7.1384;
968.1000;0.2165;7.1407;
968.4000;0.2116;7.1360;
968.7000;0.2149;7.1431;
969.0000;0.2165;7.1549;
969.3000;0.2173;7.1502;
969.6000;0.2149;7.1455;
969.9000;0.2084;7.1431;
970.2000;0.2157;7.1644;
970.5000;0.2141;7.1526;
970.8000;0.2230;7.1786;
971.1000;0.2157;7.1620;
971.4000;0.2157;7.1526;
971.7000;0.2157;7.1384;
972.0000;0.2149;7.1407;
972.3000;0.2133;7.1502;
972.6000;0.2149;7.1667;
972.9000;0.2173;7.1644;
973.2000;0.2182;7.1620;
973.5000;0.2214;7.1762;
973.8000;0.2141;7.1644;
974.1000;0.2149;7.1691;
974.4000;0.2182;7.1762;
974.7000;0.2190;7.1809;
975.0000;0.2149;7.1762;
975.3000;0.2222;7.1951;
975.6000;0.2141;7.1833;
975.9000;0.2165;7.1833;
976.2000;0.2149;7.1786;
976.5000;0.2149;7.1786;
976.8000;0.2157;7.1738;
977.1000;0.2133;7.1620;
977.4000;0.2141;7.1549;
977.7000;0.2165;7.1596;
978.0000;0.2149;7.1573;
978.3000;0.2182;7.1596;
978.6000;0.2108;7.1502;
978.9000;0.2198;7.1738;
979.2000;0.2165;7.1596;
979.5000;0.2182;7.1620;
979.8000;0.2149;7.1620;
980.1000;0.2133;7.1667;
980.4000;0.2165;7.1715;
980.7000;0.2190;7.1738;
981.0000;0.2157;7.1715;
981.3000;0.2125;7.1596;
981.6000;0.2116;7.1620;
981.9000;0.2059;7.1455;
982.2000;0.2108;7.1573;
982.5000;0.2149;7.1715;
982.8000;0.2165;7.1762;
983.1000;0.2190;7.1856;
983.4000;0.2165;7.1738;
983.7000;0.2116;7.1573;
984.0000;0.2157;7.1667;
984.3000;0.2165;7.1667;
984.6000;0.2149;7.1715;
984.9000;0.2149;7.1691;
985.2000;0.2165;7.1667;
985.5000;0.2165;7.1596;
985.8000;0.2149;7.1667;
986.1000;0.2173;7.1738;
986.4000;0.2149;7.1715;
986.7000;0.2157;7.1715;
987.0000;0.2149;7.1644;
987.3000;0.2141;7.1596;
987.6000;0.2157;7.1502;
987.9000;0.2125;7.1407;
988.2000;0.2149;7.1455;
988.5000;0.2182;7.1478;
988.8000;0.2173;7.1384;
989.1000;0.2173;7.1502;
989.4000;0.2182;7.1384;
989.7000;0.2165;7.1336;
990.0000;0.2157;7.1384;
990.3000;0.2173;7.1478;
990.6000;0.2173;7.1549;
990.9000;0.2165;7.1549;
991.2000;0.2157;7.1502;
991.5000;0.2182;7.1573;
991.8000;0.2173;7.1549;
992.1000;0.2165;7.1502;
992.4000;0.2157;7.1526;
992.7000;0.2149;7.1549;
993.0000;0.2165;7.1596;
993.3000;0.2190;7.1620;
993.6000;0.2157;7.1549;
993.9000;0.2141;7.1502;
994.2000;0.2165;7.1596;
994.5000;0.2165;7.1573;
994.8000;0.2149;7.1573;
995.1000;0.2173;7.1596;
995.4000;0.2165;7.1644;
995.7000;0.2157;7.1738;
996.0000;0.2165;7.1762;
996.3000;0.2182;7.1809;
996.6000;0.2133;7.1620;
996.9000;0.2133;7.1596;
997.2000;0.2125;7.1644;
997.5000;0.2149;7.1691;
997.8000;0.2133;7.1715;
998.1000;0.2157;7.1786;
998.4000;0.2149;7.1715;
998.7000;0.2157;7.1715;
999.0000;0.2157;7.1715;
999.3000;0.2165;7.1667;
999.6000;0.2173;7.1644;
999.9000;0.2141;7.1478;
1000.2000;0.2149;7.1502;
1000.5000;0.2157;7.1573;
1000.8000;0.2173;7.1596;
1001.1000;0.2157;7.1573;
1001.4000;0.2133;7.1620;
1001.7000;0.2149;7.1738;
1002.0000;0.2149;7.1715;
1002.3000;0.2125;7.1644;
1002.6000;0.2133;7.1691;
1002.9000;0.2125;7.1715;
1003.2000;0.2157;7.1833;
1003.5000;0.2149;7.1691;
1003.8000;0.2141;7.1691;
1004.1000;0.2133;7.1596;
1004.4000;0.2149;7.1644;
1004.7000;0.2133;7.1667;
1005.0000;0.2133;7.1502;
1005.3000;0.2149;7.1526;
1005.6000;0.2125;7.1526;
1005.9000;0.2149;7.1596;
1006.2000;0.2149;7.1526;
1006.5000;0.2149;7.1573;
1006.8000;0.2133;7.1715;
1007.1000;0.2149;7.1738;
1007.4000;0.2149;7.1691;
1007.7000;0.2133;7.1691;
1008.0000;0.2141;7.1738;
1008.3000;0.2149;7.1856;
1008.6000;0.2149;7.1856;
1008.9000;0.2157;7.1927;
1009.2000;0.2125;7.1833;
1009.5000;0.2157;7.1856;
1009.8000;0.2157;7.1833;
1010.1000;0.2141;7.1738;
1010.4000;0.2165;7.1762;
1010.7000;0.2133;7.1691;
1011.0000;0.2149;7.1738;
1011.3000;0.2141;7.1667;
1011.6000;0.2157;7.1549;
1011.9000;0.2141;7.1549;
1012.2000;0.2149;7.1573;
1012.5000;0.2141;7.1431;
1012.8000;0.2149;7.1596;
1013.1000;0.2133;7.1620;
1013.4000;0.2149;7.1667;
1013.7000;0.2141;7.1644;
1014.0000;0.2149;7.1573;
1014.3000;0.2141;7.1549;
1014.6000;0.2149;7.1549;
1014.9000;0.2165;7.1549;
1015.2000;0.2149;7.1502;
1015.5000;0.2165;7.1549;
1015.8000;0.2157;7.1620;
1016.1000;0.2157;7.1620;
1016.4000;0.2011;7.1242;
1016.7000;0.2157;7.1691;
1017.0000;0.2149;7.1667;
1017.3000;0.2116;7.1596;
1017.6000;0.2141;7.1549;
1017.9000;0.2149;7.1526;
1018.2000;0.2157;7.1596;
1018.5000;0.2190;7.1715;
1018.8000;0.2173;7.1667;
1019.1000;0.2035;7.1431;
1019.4000;0.2141;7.1691;
1019.7000;0.2157;7.1738;
1020.0000;0.2149;7.1738;
1020.3000;0.2149;7.1786;
1020.6000;0.2157;7.1715;
1020.9000;0.2165;7.1738;
1021.2000;0.2133;7.1738;
1021.5000;0.2141;7.1667;
1021.8000;0.2108;7.1549;
1022.1000;0.2141;7.1573;
1022.4000;0.2149;7.1549;
1022.7000;0.2141;7.1573;
1023.0000;0.2116;7.1549;
1023.3000;0.2141;7.1573;
1023.6000;0.2149;7.1691;
1023.9000;0.2141;7.1715;
1024.2000;0.2173;7.1809;
1024.5000;0.2157;7.1691;
1024.8000;0.2133;7.1691;
1025.1000;0.2157;7.1738;
1025.4000;0.2133;7.1691;
1025.7000;0.2149;7.1715;
1026.0000;0.2198;7.1833;
1026.3000;0.2165;7.1786;
1026.6000;0.2157;7.1833;
1026.9000;0.2157;7.1856;
1027.2000;0.2141;7.1856;
1027.5000;0.2157;7.1809;
1027.8000;0.2141;7.1738;
1028.1000;0.2133;7.1738;
1028.4000;0.2149;7.1762;
1028.7000;0.2190;7.1880;
1029.0000;0.2149;7.1927;
1029.3000;0.2165;7.2046;
1029.6000;0.2133;7.1904;
1029.9000;0.2108;7.1856;
1030.2000;0.2157;7.1951;
1030.5000;0.2157;7.1975;
1030.8000;0.2157;7.1998;
1031.1000;0.2149;7.2046;
1031.4000;0.2165;7.1998;
1031.7000;0.2108;7.1786;
1032.0000;0.2051;7.1549;
1032.3000;0.2141;7.1691;
1032.6000;0.2165;7.1715;
1032.9000;0.2133;7.1691;
1033.2000;0.2133;7.1738;
1033.5000;0.2182;7.1833;
1033.8000;0.2157;7.1809;
1034.1000;0.2149;7.1786;
1034.4000;0.2206;7.1975;
1034.7000;0.2149;7.1880;
1035.0000;0.2141;7.1833;
1035.3000;0.2149;7.1880;
1035.6000;0.2149;7.1880;
1035.9000;0.2157;7.1833;
1036.2000;0.2149;7.1880;
1036.5000;0.2149;7.1904;
1036.8000;0.2198;7.2022;
1037.1000;0.2157;7.2022;
1037.4000;0.2173;7.2069;
1037.7000;0.2149;7.1856;
1038.0000;0.2157;7.1880;
1038.3000;0.2149;7.1809;
1038.6000;0.2141;7.1904;
1038.9000;0.2125;7.1833;
1039.2000;0.2157;7.1880;
1039.5000;0.2141;7.1856;
1039.8000;0.2157;7.1833;
1040.1000;0.2149;7.1856;
1040.4000;0.2165;7.1904;
1040.7000;0.2149;7.1927;
1041.0000;0.2157;7.1833;
1041.3000;0.2141;7.1762;
1041.6000;0.2149;7.1738;
1041.9000;0.2116;7.1644;
1042.2000;0.2116;7.1667;
1042.5000;0.2141;7.1691;
1042.8000;0.2198;7.1809;
1043.1000;0.2141;7.1573;
1043.4000;0.2157;7.1691;
1043.7000;0.2133;7.1667;
1044.0000;0.2133;7.1691;
1044.3000;0.2149;7.1667;
1044.6000;0.2157;7.1644;
1044.9000;0.2157;7.1620;
1045.2000;0.2141;7.1526;
1045.5000;0.2247;7.1786;
1045.8000;0.2125;7.1573;
1046.1000;0.2141;7.1667;
1046.4000;0.2149;7.1762;
1046.7000;0.2149;7.1738;
1047.0000;0.2108;7.1691;
1047.3000;0.2116;7.1644;
1047.6000;0.2125;7.1667;
1047.9000;0.2157;7.1691;
1048.2000;0.2157;7.1620;
1048.5000;0.2157;7.1596;
1048.8000;0.2149;7.1502;
1049.1000;0.2116;7.1407;
1049.4000;0.2157;7.1478;
1049.7000;0.2141;7.1573;
1050.0000;0.2125;7.1620;
1050.3000;0.2100;7.1502;
1050.6000;0.2149;7.1620;
1050.9000;0.2125;7.1596;
1051.2000;0.2076;7.1431;
1051.5000;0.2157;7.1667;
1051.8000;0.2133;7.1691;
1052.1000;0.2051;7.1549;
1052.4000;0.2173;7.1809;
1052.7000;0.2133;7.1644;
1053.0000;0.2239;7.1856;
1053.3000;0.2141;7.1667;
1053.6000;0.2125;7.1596;
1053.9000;0.2141;7.1667;
1054.2000;0.2149;7.1762;
1054.5000;0.2157;7.1762;
1054.8000;0.2149;7.1809;
1055.1000;0.2133;7.1715;
1055.4000;0.2133;7.1667;
1055.7000;0.2084;7.1478;
1056.0000;0.2141;7.1549;
1056.3000;0.2100;7.1502;
1056.6000;0.2141;7.1620;
1056.9000;0.2100;7.1502;
1057.2000;0.2133;7.1573;
1057.5000;0.2157;7.1738;
1057.8000;0.2141;7.1762;
1058.1000;0.2157;7.1833;
1058.4000;0.2149;7.1738;
1058.7000;0.2149;7.1856;
1059.0000;0.2165;7.1951;
1059.3000;0.2165;7.1998;
1059.6000;0.2133;7.1904;
1059.9000;0.2125;7.1880;
1060.2000;0.2116;7.1927;
1060.5000;0.2190;7.2069;
1060.8000;0.2165;7.1975;
1061.1000;0.2157;7.1951;
1061.4000;0.2173;7.1904;
1061.7000;0.2133;7.1856;
1062.0000;0.2149;7.1880;
1062.3000;0.2125;7.1762;
1062.6000;0.2149;7.1762;
1062.9000;0.2141;7.1738;
1063.2000;0.2190;7.1856;
1063.5000;0.2182;7.1809;
1063.8000;0.2133;7.1762;
1064.1000;0.2141;7.1762;
1064.4000;0.2157;7.1715;
1064.7000;0.2157;7.1762;
1065.0000;0.2116;7.1691;
1065.3000;0.2149;7.1762;
1065.6000;0.2165;7.1715;
1065.9000;0.2133;7.1715;
1066.2000;0.2141;7.1738;
1066.5000;0.2133;7.1833;
1066.8000;0.2068;7.1715;
1067.1000;0.2141;7.2022;
1067.4000;0.2157;7.1998;
1067.7000;0.2141;7.1927;
1068.0000;0.2125;7.1927;
1068.3000;0.2125;7.1927;
1068.6000;0.2133;7.1951;
1068.9000;0.2141;7.1927;
1069.2000;0.2165;7.1951;
1069.5000;0.2141;7.1951;
1069.8000;0.2165;7.1975;
1070.1000;0.2141;7.1975;
1070.4000;0.2125;7.1904;
1070.7000;0.2149;7.1927;
1071.0000;0.2173;7.1975;
1071.3000;0.2133;7.1856;
1071.6000;0.2133;7.1762;
1071.9000;0.2084;7.1549;
1072.2000;0.2133;7.1691;
1072.5000;0.2125;7.1715;
1072.8000;0.2141;7.1715;
1073.1000;0.2182;7.1809;
1073.4000;0.2165;7.1762;
1073.7000;0.2133;7.1738;
1074.0000;0.2214;7.1975;
1074.3000;0.2141;7.1738;
1074.6000;0.2149;7.1786;
1074.9000;0.2108;7.1762;
1075.2000;0.2157;7.1904;
1075.5000;0.2125;7.1927;
1075.8000;0.2125;7.1856;
1076.1000;0.2125;7.1833;
1076.4000;0.2141;7.1880;
1076.7000;0.2141;7.1904;
1077.0000;0.2125;7.1809;
1077.3000;0.2133;7.1786;
1077.6000;0.2125;7.1786;
1077.9000;0.2133;7.1833;
1078.2000;0.2125;7.1786;
1078.5000;0.2165;7.1833;
1078.8000;0.2149;7.1786;
1079.1000;0.2133;7.1715;
1079.4000;0.2149;7.1738;
1079.7000;0.2157;7.1738;
1080.0000;0.2125;7.1738;
1080.3000;0.2125;7.1667;
1080.6000;0.2149;7.1809;
1080.9000;0.2149;7.1880;
1081.2000;0.2149;7.1951;
1081.5000;0.2125;7.1904;
1081.8000;0.2141;7.1951;
1082.1000;0.2133;7.1975;
1082.4000;0.2068;7.1786;
1082.7000;0.2165;7.1998;
1083.0000;0.2141;7.1856;
1083.3000;0.2149;7.1904;
1083.6000;0.2141;7.1833;
1083.9000;0.2133;7.1856;
1084.2000;0.2116;7.1856;
1084.5000;0.2149;7.1998;
1084.8000;0.2141;7.1975;
1085.1000;0.2141;7.1975;
1085.4000;0.2133;7.1975;
1085.7000;0.2125;7.2046;
1086.0000;0.2157;7.2116;
1086.3000;0.2206;7.2140;
1086.6000;0.2116;7.1951;
1086.9000;0.2141;7.2022;
1087.2000;0.2165;7.2046;
1087.5000;0.2133;7.1927;
1087.8000;0.2125;7.1880;
1088.1000;0.2116;7.1856;
1088.4000;0.2100;7.1856;
1088.7000;0.2133;7.1975;
1089.0000;0.2108;7.1833;
1089.3000;0.2190;7.2093;
1089.6000;0.2133;7.2093;
1089.9000;0.2092;7.2093;
1090.2000;0.2059;7.1998;
1090.5000;0.2035;7.1951;
1090.8000;0.2125;7.2140;
1091.1000;0.2214;7.2282;
1091.4000;0.2157;7.2093;
1091.7000;0.2133;7.2046;
1092.0000;0.2108;7.1975;
1092.3000;0.2035;7.1786;
1092.6000;0.2141;7.2069;
1092.9000;0.2141;7.2069;
1093.2000;0.2125;7.1951;
1093.5000;0.2133;7.2093;
1093.8000;0.2141;7.2093;
1094.1000;0.2141;7.2046;
1094.4000;0.2149;7.2046;
1094.7000;0.2149;7.2046;
1095.0000;0.2133;7.1975;
1095.3000;0.2141;7.2069;
1095.6000;0.2141;7.2022;
1095.9000;0.2125;7.1951;
1096.2000;0.2149;7.1904;
1096.5000;0.2125;7.1809;
1096.8000;0.2125;7.1833;
1097.1000;0.2182;7.1880;
1097.4000;0.2149;7.1715;
1097.7000;0.2141;7.1786;
1098.0000;0.2133;7.1786;
1098.3000;0.2133;7.1809;
1098.6000;0.2116;7.1951;
1098.9000;0.2116;7.1927;
1099.2000;0.2125;7.1856;
1099.5000;0.2141;7.1762;
1099.8000;0.2133;7.1833;
1100.1000;0.2141;7.1904;
1100.4000;0.2165;7.1904;
1100.7000;0.2157;7.1998;
1101.0000;0.2165;7.1975;
1101.3000;0.2149;7.1951;
1101.6000;0.2141;7.1951;
1101.9000;0.2149;7.1904;
1102.2000;0.2165;7.2046;
1102.5000;0.2149;7.2069;
1102.8000;0.2125;7.1975;
1103.1000;0.2100;7.2022;
1103.4000;0.2133;7.2211;
1103.7000;0.2133;7.2164;
1104.0000;0.2125;7.2093;
1104.3000;0.2116;7.2046;
1104.6000;0.2125;7.2116;
1104.9000;0.2173;7.2235;
1105.2000;0.2149;7.2211;
1105.5000;0.2149;7.2093;
1105.8000;0.2125;7.1927;
1106.1000;0.2100;7.1856;
1106.4000;0.2141;7.1975;
1106.7000;0.2141;7.1927;
1107.0000;0.2133;7.1927;
1107.3000;0.2149;7.1951;
1107.6000;0.2133;7.1951;
1107.9000;0.2133;7.1880;
1108.2000;0.2149;7.1975;
1108.5000;0.2125;7.1951;
1108.8000;0.2125;7.2022;
1109.1000;0.2125;7.2046;
1109.4000;0.2141;7.2069;
1109.7000;0.2133;7.2046;
1110.0000;0.2165;7.2093;
1110.3000;0.2108;7.2022;
1110.6000;0.2133;7.1951;
1110.9000;0.2092;7.1880;
1111.2000;0.2133;7.2022;
1111.5000;0.2230;7.2376;
1111.8000;0.2149;7.2306;
1112.1000;0.2149;7.2140;
1112.4000;0.2149;7.2140;
1112.7000;0.2149;7.2140;
1113.0000;0.2165;7.2069;
1113.3000;0.2125;7.2022;
1113.6000;0.2116;7.1951;
1113.9000;0.2116;7.1856;
1114.2000;0.2108;7.1856;
1114.5000;0.2125;7.1904;
1114.8000;0.2190;7.2046;
1115.1000;0.2157;7.2046;
1115.4000;0.2214;7.2187;
1115.7000;0.2133;7.1951;
1116.0000;0.2108;7.1880;
1116.3000;0.2149;7.1904;
1116.6000;0.2133;7.1880;
1116.9000;0.2116;7.2022;
1117.2000;0.2141;7.2140;
1117.5000;0.2133;7.2116;
1117.8000;0.2149;7.2116;
1118.1000;0.2133;7.2093;
1118.4000;0.2133;7.2116;
1118.7000;0.2125;7.2022;
1119.0000;0.2116;7.2046;
1119.3000;0.2125;7.2164;
1119.6000;0.2125;7.2164;
1119.9000;0.2116;7.2211;
1120.2000;0.2141;7.2282;
1120.5000;0.2149;7.2282;
1120.8000;0.2141;7.2282;
1121.1000;0.2149;7.2306;
1121.4000;0.2125;7.2353;
1121.7000;0.2141;7.2306;
1122.0000;0.2141;7.2211;
1122.3000;0.2116;7.2116;
1122.6000;0.2165;7.2164;
1122.9000;0.2198;7.2235;
1123.2000;0.2141;7.2093;
1123.5000;0.2141;7.1998;
1123.8000;0.2141;7.2022;
1124.1000;0.2084;7.1998;
1124.4000;0.2133;7.2187;
1124.7000;0.2133;7.2282;
1125.0000;0.2108;7.2187;
1125.3000;0.2141;7.2235;
1125.6000;0.2125;7.2211;
1125.9000;0.2149;7.2164;
1126.2000;0.2100;7.1951;
1126.5000;0.2133;7.1975;
1126.8000;0.2149;7.1975;
1127.1000;0.2125;7.1880;
1127.4000;0.2125;7.1904;
1127.7000;0.2149;7.1904;
1128.0000;0.2116;7.1904;
1128.3000;0.2092;7.1856;
1128.6000;0.2116;7.1975;
1128.9000;0.2165;7.2069;
1129.2000;0.2198;7.2164;
1129.5000;0.2141;7.2069;
1129.8000;0.2133;7.1998;
1130.1000;0.2149;7.2093;
1130.4000;0.2214;7.2282;
1130.7000;0.2141;7.2116;
1131.0000;0.2133;7.2116;
1131.3000;0.2125;7.2069;
1131.6000;0.2133;7.2093;
1131.9000;0.2141;7.2069;
1132.2000;0.2190;7.2211;
1132.5000;0.2125;7.2116;
1132.8000;0.2141;7.2164;
1133.1000;0.2125;7.2116;
1133.4000;0.2116;7.2116;
1133.7000;0.2108;7.2046;
1134.0000;0.2051;7.1856;
1134.3000;0.2133;7.1998;
1134.6000;0.2141;7.2069;
1134.9000;0.2133;7.2069;
1135.2000;0.2133;7.2069;
1135.5000;0.2125;7.2046;
1135.8000;0.2116;7.2022;
1136.1000;0.2116;7.1951;
1136.4000;0.2116;7.1833;
1136.7000;0.2133;7.1880;
1137.0000;0.2141;7.1904;
1137.3000;0.2108;7.1975;
1137.6000;0.2125;7.1975;
1137.9000;0.2100;7.1951;
1138.2000;0.2133;7.2022;
1138.5000;0.2116;7.1975;
1138.8000;0.2141;7.2093;
1139.1000;0.2108;7.2093;
1139.4000;0.2133;7.2046;
1139.7000;0.2149;7.2046;
1140.0000;0.2125;7.1998;
1140.3000;0.2125;7.1975;
1140.6000;0.2108;7.1951;
1140.9000;0.2133;7.1998;
1141.2000;0.2165;7.2069;
1141.5000;0.2141;7.2046;
1141.8000;0.2125;7.2046;
1142.1000;0.2133;7.2046;
1142.4000;0.2133;7.2046;
1142.7000;0.2149;7.2164;
1143.0000;0.2133;7.2187;
1143.3000;0.2133;7.2140;
1143.6000;0.2116;7.2022;
1143.9000;0.2133;7.2116;
1144.2000;0.2084;7.2069;
1144.5000;0.2133;7.2069;
1144.8000;0.2133;7.2022;
1145.1000;0.2133;7.2093;
1145.4000;0.2125;7.2069;
1145.7000;0.2108;7.2022;
1146.0000;0.2247;7.2329;
1146.3000;0.2108;7.2093;
1146.6000;0.2125;7.2093;
1146.9000;0.2108;7.1975;
1147.2000;0.2125;7.2069;
1147.5000;0.2116;7.2116;
1147.8000;0.2108;7.1951;
1148.1000;0.2002;7.1691;
1148.4000;0.2116;7.1951;
1148.7000;0.2100;7.1880;
1149.0000;0.2125;7.1998;
1149.3000;0.2141;7.2069;
1149.6000;0.2133;7.2093;
1149.9000;0.2125;7.2046;
1150.2000;0.2157;7.1998;
1150.5000;0.2125;7.1856;
1150.8000;0.2149;7.1880;
1151.1000;0.2141;7.1904;
1151.4000;0.2157;7.1833;
1151.7000;0.2149;7.1927;
1152.0000;0.2133;7.2069;
1152.3000;0.2165;7.2211;
1152.6000;0.2108;7.2069;
1152.9000;0.2116;7.2140;
1153.2000;0.2084;7.1927;
1153.5000;0.2092;7.1880;
1153.8000;0.2149;7.2046;
1154.1000;0.2149;7.2069;
1154.4000;0.2084;7.1975;
1154.7000;0.2116;7.2022;
1155.0000;0.2157;7.2069;
1155.3000;0.2116;7.1951;
1155.6000;0.2141;7.1998;
1155.9000;0.2125;7.1998;
1156.2000;0.2133;7.1951;
1156.5000;0.2092;7.1904;
1156.8000;0.2100;7.1951;
1157.1000;0.2141;7.2046;
1157.4000;0.2133;7.1975;
1157.7000;0.2141;7.1975;
1158.0000;0.2133;7.1880;
1158.3000;0.2182;7.1975;
1158.6000;0.2125;7.1880;
1158.9000;0.2149;7.1856;
1159.2000;0.2051;7.1691;
1159.5000;0.2116;7.1904;
1159.8000;0.2108;7.1833;
1160.1000;0.2141;7.1975;
1160.4000;0.2206;7.2116;
1160.7000;0.2133;7.1998;
1161.0000;0.2019;7.1738;
1161.3000;0.2133;7.2022;
1161.6000;0.2141;7.2022;
1161.9000;0.2125;7.1975;
1162.2000;0.2125;7.1856;
1162.5000;0.2149;7.1833;
1162.8000;0.2157;7.1951;
1163.1000;0.2173;7.1975;
1163.4000;0.2116;7.1880;
1163.7000;0.2133;7.1975;
1164.0000;0.2116;7.1975;
1164.3000;0.2125;7.1927;
1164.6000;0.2108;7.1951;
1164.9000;0.2100;7.1998;
1165.2000;0.2108;7.1951;
1165.5000;0.2116;7.1951;
1165.8000;0.2141;7.1927;
1166.1000;0.2165;7.2022;
1166.4000;0.2125;7.1951;
1166.7000;0.2125;7.1927;
1167.0000;0.2149;7.2022;
1167.3000;0.2157;7.2022;
1167.6000;0.2141;7.1975;
1167.9000;0.2157;7.2022;
1168.2000;0.2141;7.1927;
1168.5000;0.2125;7.1904;
1168.8000;0.2157;7.1927;
1169.1000;0.2100;7.1809;
1169.4000;0.2141;7.1904;
1169.7000;0.2125;7.1833;
1170.0000;0.2182;7.1927;
1170.3000;0.2100;7.1738;
1170.6000;0.2125;7.1715;
1170.9000;0.2051;7.1620;
1171.2000;0.2125;7.1904;
1171.5000;0.2116;7.1786;
1171.8000;0.2125;7.1715;
1172.1000;0.2125;7.1715;
1172.4000;0.2100;7.1691;
1172.7000;0.2149;7.1786;
1173.0000;0.2133;7.1809;
1173.3000;0.2108;7.1738;
1173.6000;0.2141;7.1856;
1173.9000;0.2149;7.1833;
1174.2000;0.2141;7.1762;
1174.5000;0.2141;7.1786;
1174.8000;0.2133;7.1786;
1175.1000;0.2116;7.1738;
1175.4000;0.2149;7.1880;
1175.7000;0.2100;7.1762;
1176.0000;0.2116;7.1762;
1176.3000;0.2068;7.1667;
1176.6000;0.2116;7.1738;
1176.9000;0.2108;7.1715;
1177.2000;0.2141;7.1762;
1177.5000;0.2133;7.1715;
1177.8000;0.2133;7.1738;
1178.1000;0.2133;7.1667;
1178.4000;0.2141;7.1596;
1178.7000;0.2133;7.1549;
1179.0000;0.2133;7.1620;
1179.3000;0.2108;7.1526;
1179.6000;0.2100;7.1478;
1179.9000;0.2108;7.1573;
1180.2000;0.2198;7.1762;
1180.5000;0.2182;7.1715;
1180.8000;0.2157;7.1644;
1181.1000;0.2125;7.1573;
1181.4000;0.2173;7.1667;
1181.7000;0.2133;7.1667;
1182.0000;0.2108;7.1667;
1182.3000;0.2141;7.1691;
1182.6000;0.2116;7.1738;
1182.9000;0.2059;7.1526;
1183.2000;0.2133;7.1667;
1183.5000;0.2141;7.1691;
1183.8000;0.2239;7.2022;
1184.1000;0.2141;7.1880;
1184.4000;0.2116;7.1904;
1184.7000;0.2133;7.1880;
1185.0000;0.2043;7.1526;
1185.3000;0.2157;7.1927;
1185.6000;0.2133;7.1927;
1185.9000;0.2084;7.1833;
1186.2000;0.2149;7.1998;
1186.5000;0.2092;7.1880;
1186.8000;0.2149;7.2046;
1187.1000;0.2141;7.1975;
1187.4000;0.2133;7.1998;
1187.7000;0.2149;7.1975;
1188.0000;0.2173;7.2069;
1188.3000;0.2125;7.1975;
1188.6000;0.2141;7.1951;
1188.9000;0.2133;7.1833;
1189.2000;0.2076;7.1715;
1189.5000;0.2116;7.1762;
1189.8000;0.2116;7.1762;
1190.1000;0.2149;7.1927;
1190.4000;0.2133;7.1880;
1190.7000;0.2125;7.1880;
1191.0000;0.2100;7.1880;
1191.3000;0.2182;7.2046;
1191.6000;0.2125;7.1927;
1191.9000;0.2141;7.1927;
1192.2000;0.2116;7.1927;
1192.5000;0.2116;7.1904;
1192.8000;0.2125;7.1927;
1193.1000;0.2116;7.1856;
1193.4000;0.2125;7.1904;
1193.7000;0.2108;7.1880;
1194.0000;0.2125;7.1856;
1194.3000;0.2108;7.1809;
1194.6000;0.2116;7.1809;
1194.9000;0.2116;7.1738;
1195.2000;0.2084;7.1715;
1195.5000;0.2116;7.1786;
1195.8000;0.2100;7.1786;
1196.1000;0.2133;7.1880;
1196.4000;0.2116;7.1833;
1196.7000;0.2116;7.1809;
1197.0000;0.2125;7.1762;
1197.3000;0.2165;7.1786;
1197.6000;0.2125;7.1762;
1197.9000;0.2141;7.1856;
1198.2000;0.2141;7.1833;
1198.5000;0.2100;7.1667;
1198.8000;0.2125;7.1691;
1199.1000;0.2149;7.1715;
1199.4000;0.2133;7.1738;
1199.7000;0.2125;7.1833;
1200.0000;0.2116;7.1833;
1200.3000;0.2108;7.1786;
1200.6000;0.2141;7.1833;
1200.9000;0.2149;7.1880;
1201.2000;0.2141;7.1786;
1201.5000;0.2149;7.1809;
1201.8000;0.2133;7.1786;
1202.1000;0.2133;7.1809;
1202.4000;0.2125;7.1715;
1202.7000;0.2116;7.1691;
1203.0000;0.2125;7.1715;
1203.3000;0.2116;7.1809;
1203.6000;0.2108;7.1762;
1203.9000;0.2116;7.1833;
1204.2000;0.2141;7.1809;
1204.5000;0.2116;7.1667;
1204.8000;0.2116;7.1644;
1205.1000;0.2116;7.1620;
1205.4000;0.2068;7.1549;
1205.7000;0.2141;7.1762;
1206.0000;0.2084;7.1549;
1206.3000;0.2125;7.1715;
1206.6000;0.2133;7.1715;
1206.9000;0.2084;7.1738;
1207.2000;0.2059;7.1667;
1207.5000;0.2068;7.1667;
1207.8000;0.2108;7.1762;
1208.1000;0.2116;7.1762;
1208.4000;0.2116;7.1738;
1208.7000;0.2133;7.1786;
1209.0000;0.2108;7.1691;
1209.3000;0.2206;7.1951;
1209.6000;0.2222;7.2046;
1209.9000;0.2141;7.1809;
1210.2000;0.2125;7.1833;
1210.5000;0.2141;7.1809;
1210.8000;0.2116;7.1786;
1211.1000;0.2133;7.1880;
1211.4000;0.2108;7.1951;
1211.7000;0.2149;7.2022;
1212.0000;0.2125;7.2069;
1212.3000;0.2149;7.2069;
1212.6000;0.2133;7.1998;
1212.9000;0.2133;7.1998;
1213.2000;0.2108;7.1998;
1213.5000;0.2133;7.1998;
1213.8000;0.2133;7.1927;
1214.1000;0.2116;7.1809;
1214.4000;0.2108;7.1856;
1214.7000;0.2141;7.1904;
1215.0000;0.2108;7.1880;
1215.3000;0.2141;7.1904;
1215.6000;0.2133;7.1833;
1215.9000;0.2125;7.1856;
1216.2000;0.2141;7.1998;
1216.5000;0.2076;7.1833;
1216.8000;0.2141;7.1975;
1217.1000;0.2149;7.1975;
1217.4000;0.2108;7.1809;
1217.7000;0.2149;7.1880;
1218.0000;0.2116;7.1880;
1218.3000;0.2116;7.1951;
1218.6000;0.2157;7.2022;
1218.9000;0.2157;7.1975;
1219.2000;0.2092;7.1856;
1219.5000;0.2108;7.1880;
1219.8000;0.2133;7.1856;
1220.1000;0.2116;7.1904;
1220.4000;0.2125;7.1904;
1220.7000;0.2108;7.1904;
1221.0000;0.2116;7.2140;
1221.3000;0.2141;7.2140;
1221.6000;0.2116;7.2022;
1221.9000;0.2116;7.2046;
1222.2000;0.2141;7.2116;
1222.5000;0.2133;7.2046;
1222.8000;0.2125;7.2022;
1223.1000;0.2133;7.2069;
1223.4000;0.2068;7.1904;
1223.7000;0.2125;7.2069;
1224.0000;0.2116;7.2022;
1224.3000;0.2133;7.2022;
1224.6000;0.2141;7.1951;
1224.9000;0.2133;7.1951;
1225.2000;0.2165;7.2093;
1225.5000;0.2141;7.2164;
1225.8000;0.2133;7.2211;
1226.1000;0.2125;7.2140;
1226.4000;0.2125;7.2140;
1226.7000;0.2141;7.2282;
1227.0000;0.2084;7.2235;
1227.3000;0.2084;7.2211;
1227.6000;0.2108;7.2235;
1227.9000;0.2100;7.2211;
1228.2000;0.2108;7.2140;
1228.5000;0.2125;7.2140;
1228.8000;0.2149;7.2211;
1229.1000;0.2125;7.2187;
1229.4000;0.2173;7.2306;
1229.7000;0.2125;7.2140;
1230.0000;0.2116;7.2093;
1230.3000;0.2084;7.2046;
1230.6000;0.2108;7.2046;
1230.9000;0.2116;7.2069;
1231.2000;0.2141;7.2164;
1231.5000;0.2125;7.2093;
1231.8000;0.2133;7.2093;
1232.1000;0.2141;7.2116;
1232.4000;0.2125;7.2069;
1232.7000;0.2141;7.2093;
1233.0000;0.2141;7.2164;
1233.3000;0.2125;7.2093;
1233.6000;0.2133;7.2093;
1233.9000;0.2141;7.2116;
1234.2000;0.2125;7.2140;
1234.5000;0.2125;7.2187;
1234.8000;0.2125;7.2211;
1235.1000;0.2133;7.2306;
1235.4000;0.2125;7.2376;
1235.7000;0.2125;7.2424;
1236.0000;0.2125;7.2424;
1236.3000;0.2141;7.2353;
1236.6000;0.2116;7.2353;
1236.9000;0.2133;7.2400;
1237.2000;0.2133;7.2424;
1237.5000;0.2133;7.2400;
1237.8000;0.2125;7.2282;
1238.1000;0.2149;7.2211;
1238.4000;0.2108;7.2140;
1238.7000;0.2133;7.2116;
1239.0000;0.2133;7.2164;
1239.3000;0.2108;7.2140;
1239.6000;0.2019;7.1951;
1239.9000;0.2214;7.2495;
1240.2000;0.2043;7.2046;
1240.5000;0.2100;7.2093;
1240.8000;0.2100;7.2022;
1241.1000;0.2116;7.2093;
1241.4000;0.2141;7.2211;
1241.7000;0.2108;7.2140;
1242.0000;0.2100;7.2164;
1242.3000;0.2125;7.2258;
1242.6000;0.2116;7.2187;
1242.9000;0.2125;7.2187;
1243.2000;0.2084;7.2140;
1243.5000;0.2116;7.2046;
1243.8000;0.2116;7.2022;
1244.1000;0.2141;7.2093;
1244.4000;0.2133;7.1951;
1244.7000;0.2108;7.1975;
1245.0000;0.2125;7.2022;
1245.3000;0.2100;7.1998;
1245.6000;0.2125;7.2211;
1245.9000;0.2133;7.2211;
1246.2000;0.2206;7.2400;
1246.5000;0.2133;7.2140;
1246.8000;0.2133;7.2093;
1247.1000;0.2100;7.1951;
1247.4000;0.2116;7.1975;
1247.7000;0.2141;7.2046;
1248.0000;0.2125;7.1951;
1248.3000;0.2125;7.1880;
1248.6000;0.2108;7.1880;
1248.9000;0.2133;7.2046;
1249.2000;0.2133;7.2069;
1249.5000;0.2125;7.2140;
1249.8000;0.2125;7.2116;
1250.1000;0.2133;7.2093;
1250.4000;0.2133;7.2258;
1250.7000;0.2125;7.2306;
1251.0000;0.2084;7.2093;
1251.3000;0.2133;7.2116;
1251.6000;0.2133;7.2093;
1251.9000;0.2149;7.2164;
1252.2000;0.2116;7.2164;
1252.5000;0.2116;7.2235;
1252.8000;0.2133;7.2282;
1253.1000;0.2125;7.2376;
1253.4000;0.2133;7.2306;
1253.7000;0.2125;7.2235;
1254.0000;0.2141;7.2187;
1254.3000;0.2125;7.2164;
1254.6000;0.2116;7.2093;
1254.9000;0.2125;7.2116;
1255.2000;0.2157;7.2258;
1255.5000;0.2125;7.2235;
1255.8000;0.2019;7.1927;
1256.1000;0.2116;7.2235;
1256.4000;0.2247;7.2589;
1256.7000;0.2141;7.2282;
1257.0000;0.2133;7.2258;
1257.3000;0.2116;7.2164;
1257.6000;0.2149;7.2329;
1257.9000;0.2100;7.2353;
1258.2000;0.2125;7.2353;
1258.5000;0.2133;7.2329;
1258.8000;0.2133;7.2258;
1259.1000;0.2051;7.2046;
1259.4000;0.2125;7.2258;
1259.7000;0.2108;7.2258;
1260.0000;0.2141;7.2353;
1260.3000;0.2125;7.2424;
1260.6000;0.2125;7.2471;
1260.9000;0.2157;7.2518;
1261.2000;0.2125;7.2400;
1261.5000;0.2125;7.2306;
1261.8000;0.2125;7.2235;
1262.1000;0.2068;7.2164;
1262.4000;0.2108;7.2306;
1262.7000;0.2133;7.2400;
1263.0000;0.2230;7.2636;
1263.3000;0.2125;7.2329;
1263.6000;0.2133;7.2447;
1263.9000;0.2149;7.2471;
1264.2000;0.2141;7.2400;
1264.5000;0.2141;7.2447;
1264.8000;0.2149;7.2518;
1265.1000;0.2108;7.2447;
1265.4000;0.2116;7.2424;
1265.7000;0.2125;7.2376;
1266.0000;0.2108;7.2353;
1266.3000;0.2092;7.2306;
1266.6000;0.2125;7.2447;
1266.9000;0.2116;7.2424;
1267.2000;0.2108;7.2400;
1267.5000;0.2125;7.2376;
1267.8000;0.2125;7.2329;
1268.1000;0.2125;7.2353;
1268.4000;0.2125;7.2447;
1268.7000;0.2108;7.2376;
1269.0000;0.2116;7.2424;
1269.3000;0.2125;7.2400;
1269.6000;0.2125;7.2329;
1269.9000;0.2108;7.2282;
1270.2000;0.2108;7.2211;
1270.5000;0.2222;7.2589;
1270.8000;0.2108;7.2282;
1271.1000;0.2141;7.2306;
1271.4000;0.2108;7.2235;
1271.7000;0.2141;7.2376;
1272.0000;0.2125;7.2306;
1272.3000;0.2125;7.2187;
1272.6000;0.2116;7.2093;
1272.9000;0.2116;7.2116;
1273.2000;0.2125;7.2140;
1273.5000;0.2108;7.2093;
1273.8000;0.2149;7.2282;
1274.1000;0.2108;7.2211;
1274.4000;0.2125;7.2258;
1274.7000;0.2125;7.2235;
1275.0000;0.2116;7.2140;
1275.3000;0.2133;7.2069;
1275.6000;0.2116;7.2211;
1275.9000;0.2116;7.2211;
1276.2000;0.2116;7.2235;
1276.5000;0.2125;7.2187;
1276.8000;0.2133;7.2187;
1277.1000;0.2100;7.2187;
1277.4000;0.2173;7.2353;
1277.7000;0.2108;7.2140;
1278.0000;0.2141;7.2235;
1278.3000;0.2125;7.2046;
1278.6000;0.2108;7.1927;
1278.9000;0.2100;7.1951;
1279.2000;0.2100;7.1975;
1279.5000;0.2125;7.2069;
1279.8000;0.2027;7.1856;
1280.1000;0.2011;7.1762;
1280.4000;0.2108;7.2046;
1280.7000;0.2125;7.2164;
1281.0000;0.2149;7.2140;
1281.3000;0.2133;7.1998;
1281.6000;0.2116;7.2022;
1281.9000;0.2125;7.1927;
1282.2000;0.2133;7.1998;
1282.5000;0.2125;7.1927;
1282.8000;0.2133;7.1975;
1283.1000;0.2125;7.1951;
1283.4000;0.2141;7.1975;
1283.7000;0.2141;7.1951;
1284.0000;0.2108;7.1880;
1284.3000;0.2116;7.1904;
1284.6000;0.2149;7.1951;
1284.9000;0.2108;7.1927;
1285.2000;0.2076;7.1738;
1285.5000;0.2092;7.1856;
1285.8000;0.2116;7.2046;
1286.1000;0.2084;7.1833;
1286.4000;0.2100;7.1809;
1286.7000;0.2133;7.1856;
1287.0000;0.2100;7.1738;
1287.3000;0.2116;7.1833;
1287.6000;0.2125;7.1856;
1287.9000;0.2076;7.1738;
1288.2000;0.2125;7.1833;
1288.5000;0.2125;7.1951;
1288.8000;0.2092;7.1998;
1289.1000;0.2116;7.1998;
1289.4000;0.2084;7.1927;
1289.7000;0.2108;7.1998;
1290.0000;0.2125;7.2046;
1290.3000;0.2125;7.2093;
1290.6000;0.2116;7.2069;
1290.9000;0.2133;7.2069;
1291.2000;0.2100;7.1998;
1291.5000;0.2133;7.2093;
1291.8000;0.2149;7.2211;
1292.1000;0.2133;7.2187;
1292.4000;0.2133;7.2116;
1292.7000;0.2133;7.2046;
1293.0000;0.2116;7.2022;
1293.3000;0.2133;7.2093;
1293.6000;0.2108;7.2093;
1293.9000;0.2149;7.2164;
1294.2000;0.2100;7.2022;
1294.5000;0.2125;7.1975;
1294.8000;0.2125;7.1998;
1295.1000;0.2108;7.1951;
1295.4000;0.2100;7.1975;
1295.7000;0.2084;7.1927;
1296.0000;0.2125;7.2093;
1296.3000;0.2108;7.1998;
1296.6000;0.2141;7.2116;
1296.9000;0.2116;7.2140;
1297.2000;0.2157;7.2282;
1297.5000;0.2100;7.2258;
1297.8000;0.2206;7.2471;
1298.1000;0.2108;7.2235;
1298.4000;0.2125;7.2235;
1298.7000;0.2116;7.2282;
1299.0000;0.2157;7.2424;
1299.3000;0.2100;7.2258;
1299.6000;0.2116;7.2164;
1299.9000;0.2157;7.2282;
1300.2000;0.2100;7.2116;
1300.5000;0.2149;7.2187;
1300.8000;0.2116;7.2046;
1301.1000;0.2149;7.2022;
1301.4000;0.2157;7.2164;
1301.7000;0.2116;7.2140;
1302.0000;0.2125;7.2116;
1302.3000;0.2116;7.2046;
1302.6000;0.2125;7.2116;
1302.9000;0.2141;7.2116;
1303.2000;0.2125;7.2116;
1303.5000;0.2116;7.1975;
1303.8000;0.2059;7.1904;
1304.1000;0.2068;7.1927;
1304.4000;0.2125;7.1927;
1304.7000;0.2116;7.1927;
1305.0000;0.2149;7.1951;
1305.3000;0.2084;7.1715;
1305.6000;0.2116;7.1904;
1305.9000;0.2125;7.1998;
1306.2000;0.2100;7.1998;
1306.5000;0.2133;7.2046;
1306.8000;0.2141;7.2069;
1307.1000;0.2190;7.2187;
1307.4000;0.2133;7.2093;
1307.7000;0.2116;7.2069;
1308.0000;0.2125;7.1927;
1308.3000;0.2149;7.1951;
1308.6000;0.2116;7.1880;
1308.9000;0.2108;7.1833;
1309.2000;0.2133;7.1951;
1309.5000;0.2116;7.1927;
1309.8000;0.2133;7.2022;
1310.1000;0.2100;7.1927;
1310.4000;0.2108;7.2046;
1310.7000;0.2108;7.2069;
1311.0000;0.2108;7.1975;
1311.3000;0.2141;7.2046;
1311.6000;0.2116;7.2022;
1311.9000;0.2141;7.1975;
1312.2000;0.2182;7.1951;
1312.5000;0.2125;7.1833;
1312.8000;0.2125;7.1904;
1313.1000;0.2141;7.1927;
1313.4000;0.2141;7.1904;
1313.7000;0.2125;7.1951;
1314.0000;0.2149;7.2069;
1314.3000;0.2125;7.2069;
1314.6000;0.2116;7.2093;
1314.9000;0.2149;7.2164;
1315.2000;0.2108;7.2211;
1315.5000;0.2108;7.2187;
1315.8000;0.2076;7.2093;
1316.1000;0.2133;7.2164;
1316.4000;0.2125;7.2211;
1316.7000;0.2125;7.2258;
1317.0000;0.2125;7.2211;
1317.3000;0.2100;7.2211;
1317.6000;0.2149;7.2235;
1317.9000;0.2116;7.2187;
1318.2000;0.2133;7.2164;
1318.5000;0.2149;7.2187;
1318.8000;0.2125;7.2140;
1319.1000;0.2149;7.2211;
1319.4000;0.2125;7.2164;
1319.7000;0.2092;7.2046;
1320.0000;0.2116;7.2069;
1320.3000;0.2165;7.2164;
1320.6000;0.2133;7.2022;
1320.9000;0.2084;7.1951;
1321.2000;0.2133;7.1975;
1321.5000;0.2133;7.1975;
1321.8000;0.2149;7.2022;
1322.1000;0.2076;7.1856;
1322.4000;0.2149;7.2069;
1322.7000;0.2125;7.1998;
1323.0000;0.2141;7.1998;
1323.3000;0.2125;7.1927;
1323.6000;0.2125;7.1927;
1323.9000;0.2108;7.1809;
1324.2000;0.2141;7.1927;
1324.5000;0.2125;7.1975;
1324.8000;0.2116;7.1927;
1325.1000;0.2125;7.1975;
1325.4000;0.2133;7.1951;
1325.7000;0.2108;7.1880;
1326.0000;0.2108;7.1856;
1326.3000;0.2125;7.1904;
1326.6000;0.2141;7.1856;
1326.9000;0.2133;7.1856;
1327.2000;0.2141;7.1951;
1327.5000;0.2125;7.1904;
1327.8000;0.2125;7.1856;
1328.1000;0.2141;7.1904;
1328.4000;0.2125;7.1927;
1328.7000;0.2108;7.1904;
1329.0000;0.2133;7.1951;
1329.3000;0.2190;7.2187;
1329.6000;0.2116;7.2022;
1329.9000;0.2116;7.2022;
1330.2000;0.2133;7.2046;
1330.5000;0.2133;7.2140;
1330.8000;0.2108;7.2116;
1331.1000;0.2043;7.1975;
1331.4000;0.2100;7.2187;
1331.7000;0.2100;7.2140;
1332.0000;0.2125;7.2116;
1332.3000;0.2108;7.2093;
1332.6000;0.2108;7.2022;
1332.9000;0.2125;7.2069;
1333.2000;0.2125;7.1951;
1333.5000;0.2116;7.1927;
1333.8000;0.2125;7.1998;
1334.1000;0.2141;7.2069;
1334.4000;0.2125;7.2046;
1334.7000;0.2125;7.1998;
1335.0000;0.2108;7.1904;
1335.3000;0.2116;7.1904;
1335.6000;0.2125;7.1927;
1335.9000;0.2100;7.1975;
1336.2000;0.2108;7.2022;
1336.5000;0.2133;7.2069;
1336.8000;0.2125;7.1975;
1337.1000;0.2190;7.2116;
1337.4000;0.2116;7.2046;
1337.7000;0.2125;7.1975;
1338.0000;0.2125;7.2046;
1338.3000;0.2116;7.2093;
1338.6000;0.2116;7.2093;
1338.9000;0.2133;7.2140;
1339.2000;0.2141;7.2258;
1339.5000;0.2108;7.2258;
1339.8000;0.2100;7.2187;
1340.1000;0.2125;7.2211;
1340.4000;0.2108;7.2164;
1340.7000;0.2125;7.2140;
1341.0000;0.2092;7.1998;
1341.3000;0.2198;7.2187;
1341.6000;0.2084;7.1975;
1341.9000;0.2116;7.2093;
1342.2000;0.2133;7.2069;
1342.5000;0.2108;7.2046;
1342.8000;0.2133;7.2116;
1343.1000;0.2100;7.2164;
1343.4000;0.2116;7.2211;
1343.7000;0.2108;7.2211;
1344.0000;0.2116;7.2211;
1344.3000;0.2092;7.2093;
1344.6000;0.2100;7.2235;
1344.9000;0.2116;7.2187;
1345.2000;0.2092;7.2046;
1345.5000;0.2116;7.2093;
1345.8000;0.2108;7.2022;
1346.1000;0.2076;7.1927;
1346.4000;0.2108;7.2069;
1346.7000;0.2133;7.2093;
1347.0000;0.2051;7.1927;
1347.3000;0.2116;7.2022;
1347.6000;0.2116;7.2093;
1347.9000;0.2116;7.2093;
1348.2000;0.2011;7.1809;
1348.5000;0.2116;7.2164;
1348.8000;0.2190;7.2447;
1349.1000;0.2116;7.2282;
1349.4000;0.2125;7.2282;
1349.7000;0.2125;7.2211;
1350.0000;0.2108;7.2046;
1350.3000;0.2092;7.1951;
1350.6000;0.2133;7.2116;
1350.9000;0.2125;7.2093;
1351.2000;0.2108;7.2046;
1351.5000;0.2222;7.2329;
1351.8000;0.2116;7.1927;
1352.1000;0.2116;7.1975;
1352.4000;0.2133;7.2116;
1352.7000;0.2149;7.2235;
1353.0000;0.2116;7.2116;
1353.3000;0.2100;7.2046;
1353.6000;0.2133;7.2140;
1353.9000;0.2092;7.2187;
1354.2000;0.2084;7.2258;
1354.5000;0.2133;7.2282;
1354.8000;0.2116;7.2093;
1355.1000;0.2084;7.2140;
1355.4000;0.2108;7.2116;
1355.7000;0.2108;7.2164;
1356.0000;0.2108;7.2093;
1356.3000;0.2076;7.1951;
1356.6000;0.2149;7.2164;
1356.9000;0.2092;7.2022;
1357.2000;0.2092;7.2046;
1357.5000;0.2116;7.2140;
1357.8000;0.2133;7.2282;
1358.1000;0.2116;7.2164;
1358.4000;0.2157;7.2187;
1358.7000;0.2100;7.1998;
1359.0000;0.2092;7.2022;
1359.3000;0.2092;7.1998;
1359.6000;0.2108;7.2093;
1359.9000;0.2125;7.2140;
1360.2000;0.2125;7.2116;
1360.5000;0.2092;7.2140;
1360.8000;0.2059;7.1998;
1361.1000;0.2116;7.2022;
1361.4000;0.2125;7.1927;
1361.7000;0.2108;7.1927;
1362.0000;0.2108;7.1927;
1362.3000;0.2125;7.1975;
1362.6000;0.2116;7.2069;
1362.9000;0.2116;7.2022;
1363.2000;0.2011;7.1786;
1363.5000;0.2125;7.2069;
1363.8000;0.2125;7.2140;
1364.1000;0.2108;7.2069;
1364.4000;0.2141;7.2046;
1364.7000;0.2182;7.2164;
1365.0000;0.2133;7.2046;
1365.3000;0.2116;7.1975;
1365.6000;0.2100;7.1951;
1365.9000;0.2125;7.1998;
1366.2000;0.2100;7.2022;
1366.5000;0.2125;7.2069;
1366.8000;0.2076;7.1951;
1367.1000;0.2092;7.2022;
1367.4000;0.2125;7.2140;
1367.7000;0.2100;7.2116;
1368.0000;0.2116;7.2046;
1368.3000;0.2100;7.2069;
1368.6000;0.2116;7.2093;
1368.9000;0.2141;7.2093;
1369.2000;0.2076;7.2022;
1369.5000;0.2116;7.2164;
1369.8000;0.2084;7.2211;
1370.1000;0.2125;7.2211;
1370.4000;0.2116;7.2258;
1370.7000;0.2116;7.2282;
1371.0000;0.2125;7.2140;
1371.3000;0.2141;7.2235;
1371.6000;0.2116;7.2116;
1371.9000;0.2125;7.2140;
1372.2000;0.2076;7.2046;
1372.5000;0.2141;7.2282;
1372.8000;0.2141;7.2282;
1373.1000;0.2125;7.2235;
1373.4000;0.2116;7.2187;
1373.7000;0.2116;7.2140;
1374.0000;0.2108;7.2140;
1374.3000;0.2100;7.2187;
1374.6000;0.2108;7.2235;
1374.9000;0.2133;7.2258;
1375.2000;0.2116;7.2187;
1375.5000;0.2125;7.2187;
1375.8000;0.2108;7.2140;
1376.1000;0.2157;7.2046;
1376.4000;0.2116;7.1998;
1376.7000;0.2108;7.2116;
1377.0000;0.2116;7.2140;
1377.3000;0.2116;7.2187;
1377.6000;0.2108;7.2164;
1377.9000;0.2125;7.2211;
1378.2000;0.2108;7.2164;
1378.5000;0.2084;7.2164;
1378.8000;0.2108;7.2235;
1379.1000;0.2108;7.2211;
1379.4000;0.2100;7.2140;
1379.7000;0.2108;7.2093;
1380.0000;0.2125;7.2187;
1380.3000;0.2108;7.2187;
1380.6000;0.2116;7.2164;
1380.9000;0.2108;7.2046;
1381.2000;0.2125;7.2022;
1381.5000;0.2092;7.1927;
1381.8000;0.2116;7.2069;
1382.1000;0.2092;7.1998;
1382.4000;0.2149;7.2116;
1382.7000;0.2068;7.1998;
1383.0000;0.2149;7.2187;
1383.3000;0.2116;7.2116;
1383.6000;0.2141;7.2116;
1383.9000;0.2084;7.1975;
1384.2000;0.2116;7.1998;
1384.5000;0.2100;7.2069;
1384.8000;0.2125;7.2187;
1385.1000;0.2092;7.2046;
1385.4000;0.2116;7.1975;
1385.7000;0.2141;7.2046;
1386.0000;0.2100;7.1951;
1386.3000;0.2068;7.1856;
1386.6000;0.2116;7.1927;
1386.9000;0.2116;7.1927;
1387.2000;0.2019;7.1644;
1387.5000;0.2141;7.1880;
1387.8000;0.2141;7.1833;
1388.1000;0.2116;7.1786;
1388.4000;0.2116;7.1738;
1388.7000;0.2141;7.1856;
1389.0000;0.2116;7.1809;
1389.3000;0.2092;7.1691;
1389.6000;0.2116;7.1738;
1389.9000;0.2133;7.1786;
1390.2000;0.2116;7.1762;
1390.5000;0.2092;7.1620;
1390.8000;0.2149;7.1762;
1391.1000;0.2100;7.1620;
1391.4000;0.2116;7.1667;
1391.7000;0.2059;7.1667;
1392.0000;0.2133;7.1927;
1392.3000;0.2051;7.1786;
1392.6000;0.2108;7.1998;
1392.9000;0.2092;7.2069;
1393.2000;0.2116;7.2093;
1393.5000;0.2125;7.2140;
1393.8000;0.2068;7.2022;
1394.1000;0.2116;7.2116;
1394.4000;0.2100;7.2069;
1394.7000;0.2084;7.2116;
1395.0000;0.2100;7.2140;
1395.3000;0.2108;7.2116;
1395.6000;0.2108;7.2164;
1395.9000;0.2108;7.2164;
1396.2000;0.2100;7.2187;
1396.5000;0.2149;7.2282;
1396.8000;0.2092;7.2116;
1397.1000;0.2108;7.2140;
1397.4000;0.2084;7.2164;
1397.7000;0.2116;7.2164;
1398.0000;0.2125;7.2140;
1398.3000;0.2108;7.1998;
1398.6000;0.2116;7.1951;
1398.9000;0.2116;7.1951;
1399.2000;0.2125;7.1951;
1399.5000;0.2116;7.1904;
1399.8000;0.2133;7.1786;
