time/ms;Fluo/V;P700 deltaI/I x10³;
-199.8000;0.1986;7.1053;
-199.5000;0.1962;7.0958;
-199.2000;0.1937;7.0958;
-198.9000;0.1986;7.1029;
-198.6000;0.1970;7.0840;
-198.3000;0.2011;7.0864;
-198.0000;0.1962;7.0887;
-197.7000;0.1970;7.0911;
-197.4000;0.1970;7.0911;
-197.1000;0.1962;7.0911;
-196.8000;0.1970;7.0958;
-196.5000;0.1986;7.0982;
-196.2000;0.2043;7.1147;
-195.9000;0.1986;7.1076;
-195.6000;0.1962;7.1100;
-195.3000;0.1978;7.1076;
-195.0000;0.1970;7.0887;
-194.7000;0.1962;7.0864;
-194.4000;0.1962;7.0793;
-194.1000;0.1986;7.0816;
-193.8000;0.1962;7.0722;
-193.5000;0.1970;7.0769;
-193.2000;0.1954;7.0793;
-192.9000;0.1970;7.0793;
-192.6000;0.1978;7.0816;
-192.3000;0.1986;7.0935;
-192.0000;0.2019;7.0911;
-191.7000;0.1954;7.0887;
-191.4000;0.1978;7.0958;
-191.1000;0.2043;7.1100;
-190.8000;0.1978;7.0935;
-190.5000;0.1978;7.0864;
-190.2000;0.1962;7.0793;
-189.9000;0.1986;7.0911;
-189.6000;0.1970;7.0887;
-189.3000;0.1970;7.0816;
-189.0000;0.1970;7.0793;
-188.7000;0.1978;7.0840;
-188.4000;0.1978;7.0864;
-188.1000;0.1978;7.0982;
-187.8000;0.1986;7.0887;
-187.5000;0.1994;7.0887;
-187.2000;0.1962;7.0816;
-186.9000;0.1978;7.0840;
-186.6000;0.1986;7.0864;
-186.3000;0.1970;7.0840;
-186.0000;0.1986;7.0746;
-185.7000;0.1970;7.0604;
-185.4000;0.1970;7.0604;
-185.1000;0.2011;7.0746;
-184.8000;0.1978;7.0698;
-184.5000;0.1970;7.0675;
-184.2000;0.1986;7.0722;
-183.9000;0.1986;7.0698;
-183.6000;0.2002;7.0698;
-183.3000;0.1954;7.0627;
-183.0000;0.1994;7.0698;
-182.7000;0.1986;7.0698;
-182.4000;0.1986;7.0722;
-182.1000;0.1970;7.0675;
-181.8000;0.1954;7.0675;
-181.5000;0.1962;7.0746;
-181.2000;0.1970;7.0698;
-180.9000;0.1978;7.0746;
-180.6000;0.1978;7.0698;
-180.3000;0.1962;7.0604;
-180.0000;0.1970;7.0722;
-179.7000;0.2002;7.0864;
-179.4000;0.1978;7.0722;
-179.1000;0.1986;7.0722;
-178.8000;0.1994;7.0651;
-178.5000;0.2002;7.0627;
-178.2000;0.1954;7.0556;
-177.9000;0.1978;7.0651;
-177.6000;0.1986;7.0651;
-177.3000;0.2059;7.0816;
-177.0000;0.1978;7.0580;
-176.7000;0.1986;7.0533;
-176.4000;0.1994;7.0604;
-176.1000;0.1978;7.0580;
-175.8000;0.1994;7.0675;
-175.5000;0.1962;7.0651;
-175.2000;0.1954;7.0580;
-174.9000;0.2002;7.0627;
-174.6000;0.1994;7.0698;
-174.3000;0.1970;7.0675;
-174.0000;0.1994;7.0675;
-173.7000;0.1978;7.0722;
-173.4000;0.1986;7.0793;
-173.1000;0.1986;7.0698;
-172.8000;0.1986;7.0722;
-172.5000;0.1970;7.0769;
-172.2000;0.1986;7.0722;
-171.9000;0.1970;7.0675;
-171.6000;0.1954;7.0651;
-171.3000;0.1978;7.0769;
-171.0000;0.1994;7.0769;
-170.7000;0.1986;7.0793;
-170.4000;0.1978;7.0698;
-170.1000;0.1986;7.0769;
-169.8000;0.2011;7.0722;
-169.5000;0.2002;7.0651;
-169.2000;0.2051;7.0722;
-168.9000;0.1994;7.0627;
-168.6000;0.1970;7.0509;
-168.3000;0.1986;7.0698;
-168.0000;0.1994;7.0769;
-167.7000;0.2019;7.0840;
-167.4000;0.2002;7.0769;
-167.1000;0.2002;7.0769;
-166.8000;0.2002;7.0816;
-166.5000;0.1994;7.0887;
-166.2000;0.1986;7.0911;
-165.9000;0.2011;7.0935;
-165.6000;0.1994;7.0816;
-165.3000;0.1978;7.0864;
-165.0000;0.1986;7.0864;
-164.7000;0.2011;7.0864;
-164.4000;0.2011;7.0746;
-164.1000;0.1994;7.0675;
-163.8000;0.1994;7.0651;
-163.5000;0.2059;7.0769;
-163.2000;0.1994;7.0651;
-162.9000;0.1986;7.0675;
-162.6000;0.1986;7.0722;
-162.3000;0.2002;7.0793;
-162.0000;0.2011;7.0864;
-161.7000;0.2011;7.0911;
-161.4000;0.2011;7.0816;
-161.1000;0.1986;7.0722;
-160.8000;0.2019;7.0722;
-160.5000;0.1978;7.0651;
-160.2000;0.2011;7.0722;
-159.9000;0.2019;7.0746;
-159.6000;0.2019;7.0746;
-159.3000;0.2149;7.1006;
-159.0000;0.2011;7.0698;
-158.7000;0.2011;7.0722;
-158.4000;0.2027;7.0816;
-158.1000;0.2027;7.0793;
-157.8000;0.2011;7.0746;
-157.5000;0.2019;7.0698;
-157.2000;0.2002;7.0627;
-156.9000;0.2011;7.0627;
-156.6000;0.2011;7.0580;
-156.3000;0.2019;7.0627;
-156.0000;0.2011;7.0556;
-155.7000;0.2035;7.0604;
-155.4000;0.2002;7.0604;
-155.1000;0.2019;7.0675;
-154.8000;0.2011;7.0675;
-154.5000;0.2059;7.0816;
-154.2000;0.2011;7.0627;
-153.9000;0.2027;7.0698;
-153.6000;0.2019;7.0627;
-153.3000;0.2019;7.0627;
-153.0000;0.2011;7.0509;
-152.7000;0.2027;7.0556;
-152.4000;0.2027;7.0604;
-152.1000;0.2027;7.0675;
-151.8000;0.2002;7.0651;
-151.5000;0.2043;7.0722;
-151.2000;0.2011;7.0651;
-150.9000;0.2011;7.0675;
-150.6000;0.2019;7.0627;
-150.3000;0.2011;7.0533;
-150.0000;0.2011;7.0533;
-149.7000;0.2027;7.0604;
-149.4000;0.2019;7.0651;
-149.1000;0.2002;7.0698;
-148.8000;0.2043;7.0793;
-148.5000;0.2019;7.0627;
-148.2000;0.2043;7.0769;
-147.9000;0.2002;7.0746;
-147.6000;0.2019;7.0816;
-147.3000;0.2019;7.0793;
-147.0000;0.2043;7.0864;
-146.7000;0.2019;7.0746;
-146.4000;0.1994;7.0604;
-146.1000;0.2002;7.0651;
-145.8000;0.2002;7.0556;
-145.5000;0.2002;7.0627;
-145.2000;0.2092;7.0864;
-144.9000;0.1994;7.0627;
-144.6000;0.2027;7.0769;
-144.3000;0.2027;7.0769;
-144.0000;0.2019;7.0746;
-143.7000;0.2019;7.0793;
-143.4000;0.2027;7.0722;
-143.1000;0.2043;7.0793;
-142.8000;0.2035;7.0840;
-142.5000;0.1913;7.0533;
-142.2000;0.2027;7.0887;
-141.9000;0.2043;7.0840;
-141.6000;0.2027;7.0746;
-141.3000;0.2027;7.0793;
-141.0000;0.1962;7.0627;
-140.7000;0.2027;7.0769;
-140.4000;0.2027;7.0769;
-140.1000;0.2019;7.0746;
-139.8000;0.2116;7.0958;
-139.5000;0.2035;7.0698;
-139.2000;0.2027;7.0769;
-138.9000;0.2035;7.0675;
-138.6000;0.2035;7.0746;
-138.3000;0.2076;7.0887;
-138.0000;0.2068;7.0887;
-137.7000;0.2043;7.0769;
-137.4000;0.2059;7.0769;
-137.1000;0.2043;7.0698;
-136.8000;0.2100;7.0840;
-136.5000;0.2027;7.0627;
-136.2000;0.2027;7.0627;
-135.9000;0.2035;7.0675;
-135.6000;0.2035;7.0816;
-135.3000;0.2019;7.0816;
-135.0000;0.2002;7.0816;
-134.7000;0.2035;7.0793;
-134.4000;0.2019;7.0675;
-134.1000;0.2019;7.0746;
-133.8000;0.2051;7.0769;
-133.5000;0.2035;7.0769;
-133.2000;0.1986;7.0675;
-132.9000;0.2043;7.0840;
-132.6000;0.2035;7.0911;
-132.3000;0.2027;7.0911;
-132.0000;0.2051;7.0958;
-131.7000;0.2027;7.0887;
-131.4000;0.2019;7.0816;
-131.1000;0.1962;7.0675;
-130.8000;0.2027;7.0816;
-130.5000;0.2035;7.0746;
-130.2000;0.2027;7.0698;
-129.9000;0.2035;7.0746;
-129.6000;0.2011;7.0675;
-129.3000;0.2019;7.0722;
-129.0000;0.2043;7.0698;
-128.7000;0.2043;7.0769;
-128.4000;0.2027;7.0698;
-128.1000;0.2043;7.0769;
-127.8000;0.2084;7.0816;
-127.5000;0.2011;7.0604;
-127.2000;0.2051;7.0769;
-126.9000;0.2035;7.0746;
-126.6000;0.2051;7.0651;
-126.3000;0.2076;7.0675;
-126.0000;0.2043;7.0651;
-125.7000;0.2043;7.0604;
-125.4000;0.2043;7.0556;
-125.1000;0.2051;7.0556;
-124.8000;0.2035;7.0604;
-124.5000;0.2051;7.0698;
-124.2000;0.2051;7.0746;
-123.9000;0.2084;7.0793;
-123.6000;0.2051;7.0604;
-123.3000;0.2051;7.0627;
-123.0000;0.2059;7.0698;
-122.7000;0.2051;7.0698;
-122.4000;0.2043;7.0627;
-122.1000;0.2051;7.0627;
-121.8000;0.2051;7.0604;
-121.5000;0.2076;7.0651;
-121.2000;0.2051;7.0580;
-120.9000;0.2035;7.0533;
-120.6000;0.2035;7.0509;
-120.3000;0.2051;7.0556;
-120.0000;0.2027;7.0415;
-119.7000;0.2027;7.0415;
-119.4000;0.2035;7.0509;
-119.1000;0.2059;7.0651;
-118.8000;0.2133;7.0935;
-118.5000;0.2027;7.0651;
-118.2000;0.2076;7.0816;
-117.9000;0.2084;7.0864;
-117.6000;0.2068;7.0769;
-117.3000;0.2076;7.0793;
-117.0000;0.2084;7.0911;
-116.7000;0.2059;7.0840;
-116.4000;0.2059;7.0722;
-116.1000;0.2076;7.0675;
-115.8000;0.2019;7.0604;
-115.5000;0.2027;7.0675;
-115.2000;0.2125;7.0935;
-114.9000;0.2068;7.0769;
-114.6000;0.2027;7.0698;
-114.3000;0.2043;7.0698;
-114.0000;0.2068;7.0722;
-113.7000;0.2051;7.0746;
-113.4000;0.2035;7.0793;
-113.1000;0.2043;7.0746;
-112.8000;0.2011;7.0556;
-112.5000;0.2076;7.0698;
-112.2000;0.2068;7.0675;
-111.9000;0.2051;7.0651;
-111.6000;0.2002;7.0556;
-111.3000;0.2043;7.0580;
-111.0000;0.2076;7.0556;
-110.7000;0.2043;7.0486;
-110.4000;0.2027;7.0533;
-110.1000;0.2019;7.0486;
-109.8000;0.2125;7.0675;
-109.5000;0.2043;7.0367;
-109.2000;0.2002;7.0249;
-108.9000;0.2084;7.0533;
-108.6000;0.2043;7.0438;
-108.3000;0.2076;7.0556;
-108.0000;0.2059;7.0580;
-107.7000;0.2068;7.0675;
-107.4000;0.2076;7.0627;
-107.1000;0.2059;7.0651;
-106.8000;0.2068;7.0675;
-106.5000;0.2043;7.0604;
-106.2000;0.2092;7.0651;
-105.9000;0.2059;7.0556;
-105.6000;0.2043;7.0486;
-105.3000;0.2068;7.0580;
-105.0000;0.2068;7.0604;
-104.7000;0.2076;7.0627;
-104.4000;0.2059;7.0556;
-104.1000;0.2068;7.0627;
-103.8000;0.2076;7.0746;
-103.5000;0.2051;7.0698;
-103.2000;0.2076;7.0627;
-102.9000;0.2076;7.0651;
-102.6000;0.2051;7.0580;
-102.3000;0.2068;7.0556;
-102.0000;0.2076;7.0556;
-101.7000;0.2051;7.0533;
-101.4000;0.2035;7.0438;
-101.1000;0.2059;7.0533;
-100.8000;0.2068;7.0533;
-100.5000;0.2084;7.0580;
-100.2000;0.2051;7.0556;
-99.9000;0.2092;7.0604;
-99.6000;0.2092;7.0675;
-99.3000;0.2068;7.0604;
-99.0000;0.2068;7.0651;
-98.7000;0.2108;7.0793;
-98.4000;0.2068;7.0746;
-98.1000;0.2059;7.0651;
-97.8000;0.2035;7.0509;
-97.5000;0.2051;7.0415;
-97.2000;0.2076;7.0320;
-96.9000;0.2100;7.0296;
-96.6000;0.2043;7.0155;
-96.3000;0.2068;7.0107;
-96.0000;0.2076;7.0296;
-95.7000;0.2027;7.0226;
-95.4000;0.2076;7.0344;
-95.1000;0.2076;7.0415;
-94.8000;0.2002;7.0155;
-94.5000;0.2076;7.0344;
-94.2000;0.2059;7.0486;
-93.9000;0.1994;7.0226;
-93.6000;0.2068;7.0367;
-93.3000;0.2092;7.0556;
-93.0000;0.2084;7.0533;
-92.7000;0.2019;7.0391;
-92.4000;0.2116;7.0627;
-92.1000;0.2068;7.0462;
-91.8000;0.2084;7.0415;
-91.5000;0.2059;7.0367;
-91.2000;0.2043;7.0367;
-90.9000;0.2068;7.0415;
-90.6000;0.2051;7.0415;
-90.3000;0.2011;7.0320;
-90.0000;0.2125;7.0556;
-89.7000;0.2059;7.0320;
-89.4000;0.2084;7.0367;
-89.1000;0.2011;7.0202;
-88.8000;0.2035;7.0296;
-88.5000;0.2092;7.0438;
-88.2000;0.2059;7.0415;
-87.9000;0.2068;7.0344;
-87.6000;0.2076;7.0391;
-87.3000;0.2076;7.0320;
-87.0000;0.2076;7.0320;
-86.7000;0.2051;7.0155;
-86.4000;0.2059;7.0155;
-86.1000;0.2125;7.0273;
-85.8000;0.2084;7.0202;
-85.5000;0.2059;7.0178;
-85.2000;0.2059;7.0131;
-84.9000;0.2157;7.0438;
-84.6000;0.2076;7.0296;
-84.3000;0.2100;7.0509;
-84.0000;0.2068;7.0462;
-83.7000;0.2084;7.0486;
-83.4000;0.2076;7.0391;
-83.1000;0.2100;7.0415;
-82.8000;0.2084;7.0415;
-82.5000;0.2076;7.0367;
-82.2000;0.2100;7.0415;
-81.9000;0.2084;7.0438;
-81.6000;0.2059;7.0415;
-81.3000;0.2043;7.0415;
-81.0000;0.2059;7.0533;
-80.7000;0.2092;7.0533;
-80.4000;0.2084;7.0580;
-80.1000;0.2092;7.0533;
-79.8000;0.2092;7.0509;
-79.5000;0.2068;7.0367;
-79.2000;0.2092;7.0391;
-78.9000;0.2116;7.0391;
-78.6000;0.2092;7.0296;
-78.3000;0.2108;7.0367;
-78.0000;0.2100;7.0320;
-77.7000;0.2092;7.0415;
-77.4000;0.2100;7.0391;
-77.1000;0.2043;7.0249;
-76.8000;0.2092;7.0273;
-76.5000;0.2100;7.0273;
-76.2000;0.2076;7.0178;
-75.9000;0.2108;7.0273;
-75.6000;0.2100;7.0273;
-75.3000;0.2092;7.0107;
-75.0000;0.2084;7.0013;
-74.7000;0.2068;7.0013;
-74.4000;0.2157;7.0249;
-74.1000;0.2084;7.0013;
-73.8000;0.2198;7.0296;
-73.5000;0.2108;7.0107;
-73.2000;0.2116;7.0155;
-72.9000;0.2092;7.0178;
-72.6000;0.2051;7.0084;
-72.3000;0.2125;7.0249;
-72.0000;0.2076;7.0107;
-71.7000;0.2068;7.0107;
-71.4000;0.2116;7.0296;
-71.1000;0.2092;7.0178;
-70.8000;0.2116;7.0202;
-70.5000;0.2100;7.0202;
-70.2000;0.2084;7.0131;
-69.9000;0.2092;7.0155;
-69.6000;0.2149;7.0249;
-69.3000;0.2092;7.0202;
-69.0000;0.2100;7.0178;
-68.7000;0.2092;7.0226;
-68.4000;0.2108;7.0226;
-68.1000;0.2092;7.0155;
-67.8000;0.2116;7.0202;
-67.5000;0.2076;7.0202;
-67.2000;0.2092;7.0226;
-66.9000;0.2092;7.0155;
-66.6000;0.2116;7.0084;
-66.3000;0.2100;7.0107;
-66.0000;0.2116;7.0202;
-65.7000;0.2100;7.0155;
-65.4000;0.2092;7.0131;
-65.1000;0.2092;7.0107;
-64.8000;0.2100;7.0131;
-64.5000;0.2108;7.0060;
-64.2000;0.2116;7.0060;
-63.9000;0.2108;7.0107;
-63.6000;0.2108;7.0131;
-63.3000;0.2100;7.0131;
-63.0000;0.2116;7.0202;
-62.7000;0.2125;7.0296;
-62.4000;0.2092;7.0155;
-62.1000;0.2108;7.0178;
-61.8000;0.2100;7.0155;
-61.5000;0.2125;7.0226;
-61.2000;0.2084;7.0084;
-60.9000;0.2141;7.0273;
-60.6000;0.2116;7.0226;
-60.3000;0.2092;7.0155;
-60.0000;0.2116;7.0107;
-59.7000;0.2108;7.0202;
-59.4000;0.2116;7.0202;
-59.1000;0.2141;7.0226;
-58.8000;0.2125;7.0178;
-58.5000;0.2116;7.0202;
-58.2000;0.2149;7.0273;
-57.9000;0.2108;7.0202;
-57.6000;0.2116;7.0178;
-57.3000;0.2116;7.0202;
-57.0000;0.2116;7.0178;
-56.7000;0.2092;7.0131;
-56.4000;0.2100;7.0202;
-56.1000;0.2092;7.0178;
-55.8000;0.2100;7.0178;
-55.5000;0.2076;7.0131;
-55.2000;0.2116;7.0178;
-54.9000;0.2084;7.0155;
-54.6000;0.2116;7.0273;
-54.3000;0.2133;7.0296;
-54.0000;0.2116;7.0273;
-53.7000;0.2133;7.0273;
-53.4000;0.2125;7.0202;
-53.1000;0.2116;7.0178;
-52.8000;0.2108;7.0202;
-52.5000;0.2108;7.0155;
-52.2000;0.2100;7.0013;
-51.9000;0.2068;6.9966;
-51.6000;0.2084;6.9989;
-51.3000;0.2116;7.0036;
-51.0000;0.2100;6.9989;
-50.7000;0.2051;6.9871;
-50.4000;0.2116;6.9989;
-50.1000;0.2141;7.0036;
-49.8000;0.2165;7.0013;
-49.5000;0.2125;6.9895;
-49.2000;0.2125;6.9918;
-48.9000;0.2133;6.9989;
-48.6000;0.2173;6.9989;
-48.3000;0.2116;6.9871;
-48.0000;0.2133;6.9895;
-47.7000;0.2149;6.9895;
-47.4000;0.2141;6.9871;
-47.1000;0.2165;7.0060;
-46.8000;0.2141;7.0013;
-46.5000;0.2141;7.0084;
-46.2000;0.2125;7.0036;
-45.9000;0.2116;7.0013;
-45.6000;0.2125;7.0036;
-45.3000;0.2133;7.0131;
-45.0000;0.2149;7.0107;
-44.7000;0.2125;7.0060;
-44.4000;0.2125;7.0036;
-44.1000;0.2076;6.9918;
-43.8000;0.2141;7.0155;
-43.5000;0.2125;7.0155;
-43.2000;0.2116;7.0202;
-42.9000;0.2141;7.0226;
-42.6000;0.2133;7.0202;
-42.3000;0.2149;7.0249;
-42.0000;0.2149;7.0226;
-41.7000;0.2133;7.0296;
-41.4000;0.2149;7.0296;
-41.1000;0.2182;7.0415;
-40.8000;0.2125;7.0202;
-40.5000;0.2141;7.0226;
-40.2000;0.2125;7.0249;
-39.9000;0.2190;7.0367;
-39.6000;0.2125;7.0202;
-39.3000;0.2141;7.0202;
-39.0000;0.2125;7.0084;
-38.7000;0.2141;6.9989;
-38.4000;0.2133;6.9966;
-38.1000;0.2141;7.0036;
-37.8000;0.2157;7.0131;
-37.5000;0.2165;7.0202;
-37.2000;0.2149;7.0178;
-36.9000;0.2157;7.0155;
-36.6000;0.2133;7.0131;
-36.3000;0.2133;7.0202;
-36.0000;0.2149;7.0202;
-35.7000;0.2133;7.0155;
-35.4000;0.2125;7.0155;
-35.1000;0.2149;7.0226;
-34.8000;0.2092;7.0084;
-34.5000;0.2141;7.0202;
-34.2000;0.2116;7.0249;
-33.9000;0.2149;7.0273;
-33.6000;0.2141;7.0273;
-33.3000;0.2141;7.0296;
-33.0000;0.2084;7.0155;
-32.7000;0.2157;7.0296;
-32.4000;0.2108;7.0178;
-32.1000;0.2173;7.0391;
-31.8000;0.2116;7.0273;
-31.5000;0.2149;7.0273;
-31.2000;0.2165;7.0296;
-30.9000;0.2182;7.0320;
-30.6000;0.2149;7.0273;
-30.3000;0.2165;7.0367;
-30.0000;0.2051;7.0155;
-29.7000;0.2108;7.0226;
-29.4000;0.2206;7.0415;
-29.1000;0.2092;7.0155;
-28.8000;0.2125;7.0226;
-28.5000;0.2141;7.0320;
-28.2000;0.2190;7.0509;
-27.9000;0.2165;7.0462;
-27.6000;0.2173;7.0533;
-27.3000;0.2149;7.0438;
-27.0000;0.2157;7.0462;
-26.7000;0.2141;7.0486;
-26.4000;0.2149;7.0367;
-26.1000;0.2173;7.0438;
-25.8000;0.2173;7.0438;
-25.5000;0.2092;7.0226;
-25.2000;0.2149;7.0391;
-24.9000;0.2157;7.0462;
-24.6000;0.2141;7.0367;
-24.3000;0.2157;7.0415;
-24.0000;0.2149;7.0415;
-23.7000;0.2165;7.0415;
-23.4000;0.2125;7.0391;
-23.1000;0.2141;7.0486;
-22.8000;0.2157;7.0462;
-22.5000;0.2149;7.0509;
-22.2000;0.2141;7.0509;
-21.9000;0.2173;7.0556;
-21.6000;0.2173;7.0344;
-21.3000;0.2149;7.0249;
-21.0000;0.2157;7.0178;
-20.7000;0.2149;7.0155;
-20.4000;0.2157;7.0107;
-20.1000;0.2141;7.0060;
-19.8000;0.2149;6.9966;
-19.5000;0.2149;6.9942;
-19.2000;0.2116;6.9800;
-18.9000;0.2165;6.9989;
-18.6000;0.2165;7.0013;
-18.3000;0.2157;7.0036;
-18.0000;0.2149;6.9989;
-17.7000;0.2149;7.0084;
-17.4000;0.2165;7.0155;
-17.1000;0.2149;7.0107;
-16.8000;0.2149;7.0155;
-16.5000;0.2157;7.0155;
-16.2000;0.2165;7.0155;
-15.9000;0.2173;7.0155;
-15.6000;0.2165;7.0155;
-15.3000;0.2157;7.0178;
-15.0000;0.2182;7.0249;
-14.7000;0.2157;7.0226;
-14.4000;0.2182;7.0273;
-14.1000;0.2157;7.0273;
-13.8000;0.2165;7.0202;
-13.5000;0.2206;7.0273;
-13.2000;0.2190;7.0178;
-12.9000;0.2100;6.9918;
-12.6000;0.2165;7.0084;
-12.3000;0.2165;6.9989;
-12.0000;0.2287;7.0273;
-11.7000;0.2206;7.0084;
-11.4000;0.2206;7.0036;
-11.1000;0.2173;7.0107;
-10.8000;0.2214;7.0226;
-10.5000;0.2222;7.0273;
-10.2000;0.2157;7.0131;
-9.9000;0.2076;6.9966;
-9.6000;0.2279;7.0509;
-9.3000;0.2141;7.0178;
-9.0000;0.2165;7.0155;
-8.7000;0.2157;7.0178;
-8.4000;0.2190;7.0155;
-8.1000;0.2173;7.0084;
-7.8000;0.2165;7.0084;
-7.5000;0.2173;7.0155;
-7.2000;0.2165;7.0107;
-6.9000;0.2198;7.0178;
-6.6000;0.2190;7.0155;
-6.3000;0.2182;7.0107;
-6.0000;0.2141;6.9918;
-5.7000;0.2165;7.0060;
-5.4000;0.2165;7.0060;
-5.1000;0.2190;7.0084;
-4.8000;0.2173;7.0013;
-4.5000;0.2214;7.0036;
-4.2000;0.2182;7.0060;
-3.9000;0.2173;7.0084;
-3.6000;0.2165;6.9989;
-3.3000;0.2173;7.0107;
-3.0000;0.2182;7.0107;
-2.7000;0.2190;7.0060;
-2.4000;0.2198;7.0131;
-2.1000;0.2182;7.0155;
-1.8000;0.2198;7.0107;
-1.5000;0.2255;7.0320;
-1.2000;0.2182;7.0155;
-0.9000;0.2182;7.0013;
-0.6000;0.2190;6.9966;
-0.3000;0.2173;6.9918;
0.0000;0.2173;6.9918;
0.3000;0.2230;6.9918;
0.6000;0.2304;7.0013;
0.9000;0.2491;7.0415;
1.2000;0.2597;7.0746;
1.5000;0.2670;7.0793;
1.8000;0.2751;7.0982;
2.1000;0.2800;7.1124;
2.4000;0.2841;7.1266;
2.7000;0.2865;7.1455;
3.0000;0.2898;7.1478;
3.3000;0.2930;7.1644;
3.6000;0.2841;7.1455;
3.9000;0.2939;7.1738;
4.2000;0.2947;7.1738;
4.5000;0.2930;7.1691;
4.8000;0.2971;7.1738;
5.1000;0.2955;7.1691;
5.4000;0.2979;7.1596;
5.7000;0.2987;7.1596;
6.0000;0.3004;7.1596;
6.3000;0.3004;7.1549;
6.6000;0.3004;7.1596;
6.9000;0.3012;7.1715;
7.2000;0.3020;7.1762;
7.5000;0.3004;7.1738;
7.8000;0.3028;7.1762;
8.1000;0.3028;7.1738;
8.4000;0.3044;7.1786;
8.7000;0.3044;7.1833;
9.0000;0.2971;7.1691;
9.3000;0.3053;7.1880;
9.6000;0.3044;7.1880;
9.9000;0.3069;7.1927;
10.2000;0.3061;7.1975;
10.5000;0.3053;7.2022;
10.8000;0.3093;7.2140;
11.1000;0.3053;7.2093;
11.4000;0.3077;7.2093;
11.7000;0.3061;7.2022;
12.0000;0.3085;7.2022;
12.3000;0.3126;7.2116;
12.6000;0.3085;7.1975;
12.9000;0.3142;7.2069;
13.2000;0.3044;7.1833;
13.5000;0.3118;7.1998;
13.8000;0.3093;7.1904;
14.1000;0.3093;7.1927;
14.4000;0.3093;7.1880;
14.7000;0.3118;7.1880;
15.0000;0.3109;7.1809;
15.3000;0.3044;7.1644;
15.6000;0.3134;7.1927;
15.9000;0.3044;7.1762;
16.2000;0.3150;7.1927;
16.5000;0.3142;7.1880;
16.8000;0.3118;7.1833;
17.1000;0.3142;7.1809;
17.4000;0.3158;7.1738;
17.7000;0.3150;7.1762;
18.0000;0.3142;7.1809;
18.3000;0.3166;7.1904;
18.6000;0.3158;7.1880;
18.9000;0.3175;7.1809;
19.2000;0.3199;7.1809;
19.5000;0.3199;7.1833;
19.8000;0.3175;7.1762;
20.1000;0.3191;7.1762;
20.4000;0.3183;7.1738;
20.7000;0.3215;7.1880;
21.0000;0.3191;7.1809;
21.3000;0.3199;7.1880;
21.6000;0.3207;7.1951;
21.9000;0.3183;7.1880;
22.2000;0.3207;7.1880;
22.5000;0.3183;7.1715;
22.8000;0.3191;7.1809;
23.1000;0.3199;7.1786;
23.4000;0.3207;7.1786;
23.7000;0.3166;7.1667;
24.0000;0.3183;7.1715;
24.3000;0.3207;7.1738;
24.6000;0.3232;7.1762;
24.9000;0.3240;7.1762;
25.2000;0.3215;7.1667;
25.5000;0.3223;7.1691;
25.8000;0.3232;7.1762;
26.1000;0.3207;7.1715;
26.4000;0.3240;7.1691;
26.7000;0.3240;7.1738;
27.0000;0.3240;7.1715;
27.3000;0.3240;7.1667;
27.6000;0.3232;7.1549;
27.9000;0.3215;7.1549;
28.2000;0.3223;7.1620;
28.5000;0.3240;7.1715;
28.8000;0.3264;7.1762;
29.1000;0.3248;7.1667;
29.4000;0.3264;7.1715;
29.7000;0.3248;7.1691;
30.0000;0.3256;7.1738;
30.3000;0.3248;7.1738;
30.6000;0.3248;7.1833;
30.9000;0.3256;7.1856;
31.2000;0.3248;7.1856;
31.5000;0.3256;7.1880;
31.8000;0.3272;7.1856;
32.1000;0.3256;7.1786;
32.4000;0.3321;7.1809;
32.7000;0.3272;7.1762;
33.0000;0.3289;7.1809;
33.3000;0.3289;7.1856;
33.6000;0.3280;7.1833;
33.9000;0.3280;7.1786;
34.2000;0.3280;7.1691;
34.5000;0.3289;7.1715;
34.8000;0.3272;7.1738;
35.1000;0.3329;7.1880;
35.4000;0.3289;7.1833;
35.7000;0.3280;7.1715;
36.0000;0.3378;7.1904;
36.3000;0.3297;7.1596;
36.6000;0.3256;7.1478;
36.9000;0.3256;7.1478;
37.2000;0.3297;7.1502;
37.5000;0.3305;7.1620;
37.8000;0.3289;7.1573;
38.1000;0.3346;7.1715;
38.4000;0.3313;7.1644;
38.7000;0.3313;7.1667;
39.0000;0.3305;7.1620;
39.3000;0.3337;7.1620;
39.6000;0.3305;7.1478;
39.9000;0.3297;7.1502;
40.2000;0.3321;7.1502;
40.5000;0.3329;7.1573;
40.8000;0.3272;7.1431;
41.1000;0.3321;7.1526;
41.4000;0.3272;7.1407;
41.7000;0.3321;7.1384;
42.0000;0.3321;7.1407;
42.3000;0.3321;7.1313;
42.6000;0.3321;7.1384;
42.9000;0.3329;7.1526;
43.2000;0.3329;7.1549;
43.5000;0.3329;7.1596;
43.8000;0.3337;7.1667;
44.1000;0.3280;7.1596;
44.4000;0.3329;7.1526;
44.7000;0.3337;7.1573;
45.0000;0.3337;7.1549;
45.3000;0.3280;7.1455;
45.6000;0.3321;7.1455;
45.9000;0.3346;7.1455;
46.2000;0.3321;7.1336;
46.5000;0.3346;7.1336;
46.8000;0.3337;7.1336;
47.1000;0.3354;7.1455;
47.4000;0.3321;7.1478;
47.7000;0.3354;7.1526;
48.0000;0.3329;7.1502;
48.3000;0.3354;7.1526;
48.6000;0.3321;7.1455;
48.9000;0.3346;7.1526;
49.2000;0.3346;7.1573;
49.5000;0.3337;7.1502;
49.8000;0.3337;7.1478;
50.1000;0.3256;7.1289;
50.4000;0.3362;7.1573;
50.7000;0.3337;7.1455;
51.0000;0.3329;7.1549;
51.3000;0.3329;7.1549;
51.6000;0.3378;7.1573;
51.9000;0.3305;7.1384;
52.2000;0.3362;7.1478;
52.5000;0.3354;7.1502;
52.8000;0.3354;7.1455;
53.1000;0.3362;7.1478;
53.4000;0.3386;7.1526;
53.7000;0.3378;7.1526;
54.0000;0.3370;7.1549;
54.3000;0.3354;7.1478;
54.6000;0.3362;7.1526;
54.9000;0.3354;7.1526;
55.2000;0.3386;7.1620;
55.5000;0.3362;7.1573;
55.8000;0.3321;7.1455;
56.1000;0.3394;7.1596;
56.4000;0.3362;7.1526;
56.7000;0.3378;7.1549;
57.0000;0.3378;7.1573;
57.3000;0.3370;7.1431;
57.6000;0.3346;7.1360;
57.9000;0.3362;7.1431;
58.2000;0.3321;7.1407;
58.5000;0.3370;7.1455;
58.8000;0.3362;7.1431;
59.1000;0.3354;7.1478;
59.4000;0.3386;7.1526;
59.7000;0.3419;7.1620;
60.0000;0.3346;7.1455;
60.3000;0.3386;7.1455;
60.6000;0.3394;7.1455;
60.9000;0.3370;7.1526;
61.2000;0.3289;7.1336;
61.5000;0.3394;7.1573;
61.8000;0.3394;7.1573;
62.1000;0.3370;7.1502;
62.4000;0.3403;7.1573;
62.7000;0.3386;7.1549;
63.0000;0.3451;7.1762;
63.3000;0.3370;7.1573;
63.6000;0.3386;7.1691;
63.9000;0.3394;7.1667;
64.2000;0.3378;7.1691;
64.5000;0.3386;7.1691;
64.8000;0.3394;7.1738;
65.1000;0.3403;7.1762;
65.4000;0.3354;7.1620;
65.7000;0.3394;7.1786;
66.0000;0.3403;7.1738;
66.3000;0.3403;7.1715;
66.6000;0.3427;7.1762;
66.9000;0.3394;7.1738;
67.2000;0.3386;7.1691;
67.5000;0.3378;7.1596;
67.8000;0.3403;7.1691;
68.1000;0.3354;7.1455;
68.4000;0.3346;7.1431;
68.7000;0.3403;7.1526;
69.0000;0.3411;7.1478;
69.3000;0.3419;7.1573;
69.6000;0.3394;7.1431;
69.9000;0.3386;7.1360;
70.2000;0.3394;7.1384;
70.5000;0.3394;7.1431;
70.8000;0.3394;7.1360;
71.1000;0.3378;7.1407;
71.4000;0.3411;7.1431;
71.7000;0.3386;7.1431;
72.0000;0.3419;7.1549;
72.3000;0.3411;7.1596;
72.6000;0.3419;7.1526;
72.9000;0.3419;7.1549;
73.2000;0.3403;7.1549;
73.5000;0.3394;7.1573;
73.8000;0.3403;7.1620;
74.1000;0.3419;7.1644;
74.4000;0.3411;7.1738;
74.7000;0.3403;7.1738;
75.0000;0.3419;7.1620;
75.3000;0.3403;7.1620;
75.6000;0.3411;7.1691;
75.9000;0.3386;7.1596;
76.2000;0.3394;7.1667;
76.5000;0.3394;7.1620;
76.8000;0.3419;7.1620;
77.1000;0.3427;7.1620;
77.4000;0.3411;7.1573;
77.7000;0.3403;7.1502;
78.0000;0.3419;7.1526;
78.3000;0.3403;7.1431;
78.6000;0.3427;7.1336;
78.9000;0.3435;7.1360;
79.2000;0.3468;7.1478;
79.5000;0.3419;7.1384;
79.8000;0.3427;7.1336;
80.1000;0.3403;7.1336;
80.4000;0.3362;7.1218;
80.7000;0.3403;7.1360;
81.0000;0.3411;7.1407;
81.3000;0.3403;7.1384;
81.6000;0.3403;7.1455;
81.9000;0.3362;7.1242;
82.2000;0.3443;7.1384;
82.5000;0.3386;7.1171;
82.8000;0.3411;7.1266;
83.1000;0.3435;7.1407;
83.4000;0.3411;7.1360;
83.7000;0.3386;7.1313;
84.0000;0.3419;7.1360;
84.3000;0.3443;7.1266;
84.6000;0.3403;7.1171;
84.9000;0.3427;7.1242;
85.2000;0.3460;7.1218;
85.5000;0.3411;7.1053;
85.8000;0.3427;7.1100;
86.1000;0.3419;7.1171;
86.4000;0.3419;7.1171;
86.7000;0.3411;7.1242;
87.0000;0.3451;7.1336;
87.3000;0.3460;7.1242;
87.6000;0.3427;7.1313;
87.9000;0.3427;7.1384;
88.2000;0.3435;7.1336;
88.5000;0.3451;7.1384;
88.8000;0.3451;7.1431;
89.1000;0.3435;7.1407;
89.4000;0.3460;7.1478;
89.7000;0.3435;7.1407;
90.0000;0.3443;7.1407;
90.3000;0.3435;7.1360;
90.6000;0.3443;7.1336;
90.9000;0.3427;7.1360;
91.2000;0.3435;7.1407;
91.5000;0.3435;7.1431;
91.8000;0.3435;7.1431;
92.1000;0.3427;7.1360;
92.4000;0.3557;7.1691;
92.7000;0.3443;7.1242;
93.0000;0.3427;7.1171;
93.3000;0.3435;7.1124;
93.6000;0.3443;7.1171;
93.9000;0.3484;7.1195;
94.2000;0.3435;7.1124;
94.5000;0.3492;7.1384;
94.8000;0.3451;7.1384;
95.1000;0.3443;7.1289;
95.4000;0.3443;7.1384;
95.7000;0.3435;7.1407;
96.0000;0.3451;7.1431;
96.3000;0.3427;7.1431;
96.6000;0.3419;7.1455;
96.9000;0.3451;7.1549;
97.2000;0.3435;7.1502;
97.5000;0.3443;7.1526;
97.8000;0.3451;7.1455;
98.1000;0.3451;7.1431;
98.4000;0.3419;7.1431;
98.7000;0.3451;7.1407;
99.0000;0.3451;7.1313;
99.3000;0.3443;7.1313;
99.6000;0.3435;7.1242;
99.9000;0.3435;7.1242;
100.2000;0.3443;7.1218;
100.5000;0.3451;7.1218;
100.8000;0.3443;7.1266;
101.1000;0.3443;7.1242;
101.4000;0.3419;7.1289;
101.7000;0.3443;7.1384;
102.0000;0.3435;7.1360;
102.3000;0.3427;7.1336;
102.6000;0.3443;7.1289;
102.9000;0.3435;7.1313;
103.2000;0.3451;7.1384;
103.5000;0.3435;7.1360;
103.8000;0.3460;7.1407;
104.1000;0.3443;7.1384;
104.4000;0.3443;7.1431;
104.7000;0.3435;7.1431;
105.0000;0.3419;7.1266;
105.3000;0.3435;7.1360;
105.6000;0.3427;7.1336;
105.9000;0.3443;7.1289;
106.2000;0.3484;7.1336;
106.5000;0.3443;7.1218;
106.8000;0.3411;7.1195;
107.1000;0.3435;7.1195;
107.4000;0.3427;7.1313;
107.7000;0.3443;7.1336;
108.0000;0.3435;7.1242;
108.3000;0.3411;7.1147;
108.6000;0.3435;7.1100;
108.9000;0.3435;7.1124;
109.2000;0.3435;7.1171;
109.5000;0.3443;7.1289;
109.8000;0.3443;7.1218;
110.1000;0.3468;7.1195;
110.4000;0.3443;7.1147;
110.7000;0.3508;7.1360;
111.0000;0.3427;7.1076;
111.3000;0.3476;7.1242;
111.6000;0.3451;7.1218;
111.9000;0.3443;7.1147;
112.2000;0.3508;7.1336;
112.5000;0.3435;7.1218;
112.8000;0.3468;7.1266;
113.1000;0.3419;7.1171;
113.4000;0.3443;7.1313;
113.7000;0.3460;7.1431;
114.0000;0.3468;7.1360;
114.3000;0.3411;7.1242;
114.6000;0.3451;7.1336;
114.9000;0.3427;7.1195;
115.2000;0.3435;7.1266;
115.5000;0.3443;7.1336;
115.8000;0.3435;7.1336;
116.1000;0.3565;7.1573;
116.4000;0.3443;7.1289;
116.7000;0.3443;7.1360;
117.0000;0.3451;7.1242;
117.3000;0.3451;7.1124;
117.6000;0.3443;7.1006;
117.9000;0.3460;7.1100;
118.2000;0.3451;7.1124;
118.5000;0.3460;7.1147;
118.8000;0.3468;7.1266;
119.1000;0.3337;7.0887;
119.4000;0.3460;7.1171;
119.7000;0.3435;7.1289;
120.0000;0.3451;7.1218;
120.3000;0.3443;7.1124;
120.6000;0.3460;7.1218;
120.9000;0.3460;7.1171;
121.2000;0.3435;7.1076;
121.5000;0.3460;7.1147;
121.8000;0.3533;7.1266;
122.1000;0.3435;7.0982;
122.4000;0.3460;7.1029;
122.7000;0.3460;7.1147;
123.0000;0.3476;7.1242;
123.3000;0.3468;7.1289;
123.6000;0.3468;7.1313;
123.9000;0.3435;7.1242;
124.2000;0.3500;7.1313;
124.5000;0.3460;7.1171;
124.8000;0.3451;7.1242;
125.1000;0.3443;7.1266;
125.4000;0.3468;7.1266;
125.7000;0.3460;7.1171;
126.0000;0.3468;7.1147;
126.3000;0.3500;7.1171;
126.6000;0.3451;7.1100;
126.9000;0.3443;7.1006;
127.2000;0.3460;7.1124;
127.5000;0.3443;7.1053;
127.8000;0.3460;7.1100;
128.1000;0.3460;7.1124;
128.4000;0.3460;7.1171;
128.7000;0.3451;7.1218;
129.0000;0.3427;7.1076;
129.3000;0.3492;7.1360;
129.6000;0.3443;7.1289;
129.9000;0.3451;7.1384;
130.2000;0.3451;7.1313;
130.5000;0.3484;7.1360;
130.8000;0.3443;7.1313;
131.1000;0.3492;7.1407;
131.4000;0.3468;7.1313;
131.7000;0.3476;7.1360;
132.0000;0.3451;7.1242;
132.3000;0.3460;7.1266;
132.6000;0.3460;7.1100;
132.9000;0.3484;7.1218;
133.2000;0.3451;7.1171;
133.5000;0.3484;7.1195;
133.8000;0.3451;7.1100;
134.1000;0.3451;7.1218;
134.4000;0.3484;7.1266;
134.7000;0.3468;7.1242;
135.0000;0.3468;7.1266;
135.3000;0.3460;7.1313;
135.6000;0.3460;7.1336;
135.9000;0.3460;7.1313;
136.2000;0.3451;7.1171;
136.5000;0.3525;7.1266;
136.8000;0.3484;7.1171;
137.1000;0.3508;7.1195;
137.4000;0.3508;7.1147;
137.7000;0.3419;7.0816;
138.0000;0.3468;7.0982;
138.3000;0.3492;7.1006;
138.6000;0.3460;7.0887;
138.9000;0.3460;7.0816;
139.2000;0.3533;7.1029;
139.5000;0.3443;7.0864;
139.8000;0.3435;7.0793;
140.1000;0.3492;7.0840;
140.4000;0.3476;7.0840;
140.7000;0.3460;7.0816;
141.0000;0.3460;7.0982;
141.3000;0.3460;7.1006;
141.6000;0.3476;7.1171;
141.9000;0.3476;7.1147;
142.2000;0.3468;7.1100;
142.5000;0.3468;7.1029;
142.8000;0.3419;7.0935;
143.1000;0.3435;7.1053;
143.4000;0.3476;7.1195;
143.7000;0.3476;7.1171;
144.0000;0.3460;7.1100;
144.3000;0.3468;7.1006;
144.6000;0.3468;7.1006;
144.9000;0.3451;7.1006;
145.2000;0.3460;7.0958;
145.5000;0.3476;7.1006;
145.8000;0.3451;7.0982;
146.1000;0.3451;7.0958;
146.4000;0.3460;7.0958;
146.7000;0.3468;7.0958;
147.0000;0.3500;7.1076;
147.3000;0.3460;7.1006;
147.6000;0.3468;7.0982;
147.9000;0.3451;7.1006;
148.2000;0.3468;7.0982;
148.5000;0.3460;7.1029;
148.8000;0.3460;7.1053;
149.1000;0.3476;7.1147;
149.4000;0.3476;7.1076;
149.7000;0.3468;7.1029;
150.0000;0.3468;7.1029;
150.3000;0.3460;7.0982;
150.6000;0.3451;7.1100;
150.9000;0.3500;7.1313;
151.2000;0.3427;7.1218;
151.5000;0.3435;7.1171;
151.8000;0.3476;7.1100;
152.1000;0.3516;7.1195;
152.4000;0.3516;7.1124;
152.7000;0.3516;7.1029;
153.0000;0.3476;7.0864;
153.3000;0.3419;7.0793;
153.6000;0.3476;7.0958;
153.9000;0.3484;7.1076;
154.2000;0.3500;7.1029;
154.5000;0.3468;7.1006;
154.8000;0.3443;7.0887;
155.1000;0.3484;7.0982;
155.4000;0.3451;7.0840;
155.7000;0.3516;7.0958;
156.0000;0.3484;7.0864;
156.3000;0.3476;7.0816;
156.6000;0.3476;7.0793;
156.9000;0.3484;7.0887;
157.2000;0.3492;7.0935;
157.5000;0.3484;7.0864;
157.8000;0.3484;7.0935;
158.1000;0.3484;7.0958;
158.4000;0.3476;7.0982;
158.7000;0.3492;7.1029;
159.0000;0.3565;7.1195;
159.3000;0.3484;7.1147;
159.6000;0.3468;7.1147;
159.9000;0.3492;7.1100;
160.2000;0.3492;7.1053;
160.5000;0.3419;7.0769;
160.8000;0.3500;7.0935;
161.1000;0.3451;7.0840;
161.4000;0.3476;7.0982;
161.7000;0.3468;7.1053;
162.0000;0.3443;7.1006;
162.3000;0.3476;7.1006;
162.6000;0.3484;7.0982;
162.9000;0.3468;7.0958;
163.2000;0.3500;7.1006;
163.5000;0.3492;7.1053;
163.8000;0.3484;7.0982;
164.1000;0.3468;7.1053;
164.4000;0.3484;7.1124;
164.7000;0.3508;7.1124;
165.0000;0.3484;7.1100;
165.3000;0.3492;7.1147;
165.6000;0.3476;7.1076;
165.9000;0.3476;7.1053;
166.2000;0.3476;7.1100;
166.5000;0.3468;7.1124;
166.8000;0.3460;7.1171;
167.1000;0.3508;7.1171;
167.4000;0.3468;7.1006;
167.7000;0.3476;7.0958;
168.0000;0.3460;7.0958;
168.3000;0.3476;7.0982;
168.6000;0.3484;7.1053;
168.9000;0.3476;7.1053;
169.2000;0.3484;7.1124;
169.5000;0.3468;7.1100;
169.8000;0.3443;7.1053;
170.1000;0.3443;7.1006;
170.4000;0.3468;7.1006;
170.7000;0.3476;7.0958;
171.0000;0.3508;7.0982;
171.3000;0.3460;7.0958;
171.6000;0.3492;7.0982;
171.9000;0.3492;7.1029;
172.2000;0.3460;7.0864;
172.5000;0.3508;7.1029;
172.8000;0.3451;7.0887;
173.1000;0.3476;7.0958;
173.4000;0.3476;7.0911;
173.7000;0.3516;7.1029;
174.0000;0.3451;7.0958;
174.3000;0.3468;7.1006;
174.6000;0.3476;7.1124;
174.9000;0.3476;7.1076;
175.2000;0.3500;7.1076;
175.5000;0.3500;7.1076;
175.8000;0.3573;7.1242;
176.1000;0.3508;7.1076;
176.4000;0.3468;7.1053;
176.7000;0.3533;7.1124;
177.0000;0.3484;7.0958;
177.3000;0.3460;7.0864;
177.6000;0.3492;7.0887;
177.9000;0.3557;7.1029;
178.2000;0.3419;7.0746;
178.5000;0.3492;7.0864;
178.8000;0.3492;7.0911;
179.1000;0.3484;7.0887;
179.4000;0.3378;7.0627;
179.7000;0.3476;7.0958;
180.0000;0.3549;7.1218;
180.3000;0.3476;7.1053;
180.6000;0.3403;7.0840;
180.9000;0.3484;7.1006;
181.2000;0.3508;7.1100;
181.5000;0.3500;7.1029;
181.8000;0.3476;7.1006;
182.1000;0.3468;7.1006;
182.4000;0.3516;7.1029;
182.7000;0.3500;7.0982;
183.0000;0.3492;7.1006;
183.3000;0.3500;7.0958;
183.6000;0.3476;7.0887;
183.9000;0.3492;7.0887;
184.2000;0.3492;7.0911;
184.5000;0.3492;7.0911;
184.8000;0.3492;7.0935;
185.1000;0.3500;7.1006;
185.4000;0.3411;7.0935;
185.7000;0.3492;7.1147;
186.0000;0.3614;7.1502;
186.3000;0.3573;7.1384;
186.6000;0.3500;7.1053;
186.9000;0.3500;7.1076;
187.2000;0.3492;7.1100;
187.5000;0.3484;7.0958;
187.8000;0.3492;7.0911;
188.1000;0.3468;7.0816;
188.4000;0.3476;7.0887;
188.7000;0.3484;7.0911;
189.0000;0.3484;7.1006;
189.3000;0.3492;7.1076;
189.6000;0.3500;7.1029;
189.9000;0.3500;7.1171;
190.2000;0.3460;7.1171;
190.5000;0.3492;7.1195;
190.8000;0.3500;7.1147;
191.1000;0.3492;7.1053;
191.4000;0.3500;7.1029;
191.7000;0.3476;7.1076;
192.0000;0.3500;7.1266;
192.3000;0.3476;7.1124;
192.6000;0.3484;7.1124;
192.9000;0.3492;7.1171;
193.2000;0.3484;7.1171;
193.5000;0.3484;7.1029;
193.8000;0.3476;7.1029;
194.1000;0.3492;7.1100;
194.4000;0.3460;7.0982;
194.7000;0.3492;7.1076;
195.0000;0.3500;7.1147;
195.3000;0.3492;7.1076;
195.6000;0.3500;7.1076;
195.9000;0.3500;7.1076;
196.2000;0.3468;7.0982;
196.5000;0.3500;7.1076;
196.8000;0.3484;7.1029;
197.1000;0.3492;7.1029;
197.4000;0.3468;7.1053;
197.7000;0.3500;7.1124;
198.0000;0.3484;7.1053;
198.3000;0.3468;7.1124;
198.6000;0.3435;7.1006;
198.9000;0.3468;7.1053;
199.2000;0.3492;7.1100;
199.5000;0.3484;7.0958;
199.8000;0.3476;7.0958;
200.1000;0.3484;7.0935;
200.4000;0.3541;7.1029;
200.7000;0.3476;7.0746;
201.0000;0.3427;7.0580;
201.3000;0.3484;7.0722;
201.6000;0.3492;7.0769;
201.9000;0.3541;7.0793;
202.2000;0.3484;7.0604;
202.5000;0.3590;7.0911;
202.8000;0.3476;7.0698;
203.1000;0.3484;7.0722;
203.4000;0.3484;7.0816;
203.7000;0.3492;7.0887;
204.0000;0.3492;7.0958;
204.3000;0.3484;7.0958;
204.6000;0.3468;7.0911;
204.9000;0.3508;7.1006;
205.2000;0.3492;7.0958;
205.5000;0.3508;7.0958;
205.8000;0.3484;7.0911;
206.1000;0.3386;7.0698;
206.4000;0.3484;7.0935;
206.7000;0.3516;7.0935;
207.0000;0.3484;7.0958;
207.3000;0.3460;7.0864;
207.6000;0.3492;7.0958;
207.9000;0.3533;7.0911;
208.2000;0.3500;7.0864;
208.5000;0.3500;7.0935;
208.8000;0.3484;7.0982;
209.1000;0.3484;7.0935;
209.4000;0.3419;7.0746;
209.7000;0.3484;7.0816;
210.0000;0.3492;7.0793;
210.3000;0.3557;7.1006;
210.6000;0.3435;7.0627;
210.9000;0.3484;7.0722;
211.2000;0.3443;7.0675;
211.5000;0.3451;7.0651;
211.8000;0.3492;7.0769;
212.1000;0.3500;7.0769;
212.4000;0.3516;7.0793;
212.7000;0.3492;7.0722;
213.0000;0.3468;7.0698;
213.3000;0.3492;7.0746;
213.6000;0.3492;7.0746;
213.9000;0.3435;7.0651;
214.2000;0.3492;7.0840;
214.5000;0.3484;7.0982;
214.8000;0.3500;7.1006;
215.1000;0.3468;7.0911;
215.4000;0.3492;7.0935;
215.7000;0.3492;7.0864;
216.0000;0.3476;7.0840;
216.3000;0.3476;7.0958;
216.6000;0.3484;7.0958;
216.9000;0.3492;7.1029;
217.2000;0.3484;7.0911;
217.5000;0.3476;7.0935;
217.8000;0.3492;7.0958;
218.1000;0.3492;7.0982;
218.4000;0.3476;7.0864;
218.7000;0.3484;7.0840;
219.0000;0.3492;7.0816;
219.3000;0.3500;7.0769;
219.6000;0.3508;7.0769;
219.9000;0.3500;7.0746;
220.2000;0.3476;7.0698;
220.5000;0.3500;7.0675;
220.8000;0.3508;7.0651;
221.1000;0.3492;7.0580;
221.4000;0.3508;7.0627;
221.7000;0.3484;7.0604;
222.0000;0.3500;7.0604;
222.3000;0.3557;7.0675;
222.6000;0.3484;7.0509;
222.9000;0.3484;7.0462;
223.2000;0.3541;7.0580;
223.5000;0.3484;7.0509;
223.8000;0.3484;7.0415;
224.1000;0.3582;7.0698;
224.4000;0.3508;7.0509;
224.7000;0.3500;7.0509;
225.0000;0.3468;7.0486;
225.3000;0.3492;7.0509;
225.6000;0.3500;7.0533;
225.9000;0.3492;7.0509;
226.2000;0.3484;7.0556;
226.5000;0.3500;7.0509;
226.8000;0.3492;7.0580;
227.1000;0.3468;7.0580;
227.4000;0.3451;7.0509;
227.7000;0.3476;7.0580;
228.0000;0.3476;7.0580;
228.3000;0.3468;7.0462;
228.6000;0.3500;7.0580;
228.9000;0.3500;7.0627;
229.2000;0.3549;7.0816;
229.5000;0.3500;7.0793;
229.8000;0.3508;7.0911;
230.1000;0.3492;7.0864;
230.4000;0.3500;7.0982;
230.7000;0.3500;7.0911;
231.0000;0.3492;7.0958;
231.3000;0.3525;7.0911;
231.6000;0.3484;7.0816;
231.9000;0.3500;7.0746;
232.2000;0.3403;7.0415;
232.5000;0.3500;7.0627;
232.8000;0.3484;7.0627;
233.1000;0.3451;7.0556;
233.4000;0.3484;7.0580;
233.7000;0.3484;7.0533;
234.0000;0.3476;7.0462;
234.3000;0.3500;7.0533;
234.6000;0.3492;7.0580;
234.9000;0.3500;7.0746;
235.2000;0.3468;7.0769;
235.5000;0.3484;7.0935;
235.8000;0.3492;7.0911;
236.1000;0.3492;7.0911;
236.4000;0.3476;7.0793;
236.7000;0.3492;7.0793;
237.0000;0.3500;7.0769;
237.3000;0.3492;7.0746;
237.6000;0.3525;7.0793;
237.9000;0.3500;7.0840;
238.2000;0.3492;7.0911;
238.5000;0.3508;7.0958;
238.8000;0.3516;7.0911;
239.1000;0.3508;7.0935;
239.4000;0.3492;7.0840;
239.7000;0.3468;7.0769;
240.0000;0.3500;7.0887;
240.3000;0.3525;7.0935;
240.6000;0.3500;7.0793;
240.9000;0.3508;7.0864;
241.2000;0.3500;7.0911;
241.5000;0.3484;7.0840;
241.8000;0.3492;7.0864;
242.1000;0.3484;7.0911;
242.4000;0.3500;7.0887;
242.7000;0.3500;7.0911;
243.0000;0.3492;7.0935;
243.3000;0.3484;7.1029;
243.6000;0.3516;7.1100;
243.9000;0.3500;7.0911;
244.2000;0.3533;7.0911;
244.5000;0.3508;7.0793;
244.8000;0.3508;7.0675;
245.1000;0.3525;7.0675;
245.4000;0.3508;7.0698;
245.7000;0.3484;7.0651;
246.0000;0.3533;7.0651;
246.3000;0.3508;7.0627;
246.6000;0.3508;7.0604;
246.9000;0.3590;7.0793;
247.2000;0.3476;7.0509;
247.5000;0.3598;7.0793;
247.8000;0.3500;7.0462;
248.1000;0.3533;7.0533;
248.4000;0.3484;7.0533;
248.7000;0.3500;7.0533;
249.0000;0.3500;7.0604;
249.3000;0.3476;7.0627;
249.6000;0.3614;7.0935;
249.9000;0.3492;7.0651;
250.2000;0.3516;7.0651;
250.5000;0.3516;7.0627;
250.8000;0.3476;7.0604;
251.1000;0.3525;7.0793;
251.4000;0.3500;7.0769;
251.7000;0.3476;7.0722;
252.0000;0.3492;7.0793;
252.3000;0.3565;7.0887;
252.6000;0.3508;7.0746;
252.9000;0.3516;7.0722;
253.2000;0.3484;7.0722;
253.5000;0.3516;7.0769;
253.8000;0.3508;7.0840;
254.1000;0.3525;7.0935;
254.4000;0.3533;7.0935;
254.7000;0.3500;7.0864;
255.0000;0.3508;7.0864;
255.3000;0.3525;7.0864;
255.6000;0.3492;7.0887;
255.9000;0.3492;7.0887;
256.2000;0.3516;7.0935;
256.5000;0.3557;7.1029;
256.8000;0.3460;7.0722;
257.1000;0.3468;7.0698;
257.4000;0.3484;7.0722;
257.7000;0.3508;7.0746;
258.0000;0.3516;7.0675;
258.3000;0.3484;7.0604;
258.6000;0.3500;7.0627;
258.9000;0.3508;7.0722;
259.2000;0.3492;7.0746;
259.5000;0.3508;7.0698;
259.8000;0.3492;7.0675;
260.1000;0.3500;7.0580;
260.4000;0.3500;7.0533;
260.7000;0.3500;7.0627;
261.0000;0.3484;7.0675;
261.3000;0.3508;7.0816;
261.6000;0.3500;7.0769;
261.9000;0.3468;7.0651;
262.2000;0.3492;7.0675;
262.5000;0.3500;7.0698;
262.8000;0.3500;7.0627;
263.1000;0.3484;7.0651;
263.4000;0.3508;7.0746;
263.7000;0.3484;7.0793;
264.0000;0.3508;7.0769;
264.3000;0.3508;7.0769;
264.6000;0.3525;7.0887;
264.9000;0.3525;7.0911;
265.2000;0.3533;7.0864;
265.5000;0.3468;7.0675;
265.8000;0.3508;7.0698;
266.1000;0.3492;7.0627;
266.4000;0.3460;7.0486;
266.7000;0.3476;7.0604;
267.0000;0.3435;7.0415;
267.3000;0.3500;7.0722;
267.6000;0.3476;7.0722;
267.9000;0.3508;7.0698;
268.2000;0.3460;7.0556;
268.5000;0.3468;7.0627;
268.8000;0.3516;7.0675;
269.1000;0.3525;7.0627;
269.4000;0.3525;7.0651;
269.7000;0.3508;7.0746;
270.0000;0.3516;7.0746;
270.3000;0.3500;7.0816;
270.6000;0.3508;7.0746;
270.9000;0.3525;7.0793;
271.2000;0.3516;7.0722;
271.5000;0.3557;7.0769;
271.8000;0.3492;7.0533;
272.1000;0.3500;7.0556;
272.4000;0.3484;7.0556;
272.7000;0.3598;7.0816;
273.0000;0.3500;7.0580;
273.3000;0.3484;7.0533;
273.6000;0.3541;7.0627;
273.9000;0.3533;7.0604;
274.2000;0.3508;7.0556;
274.5000;0.3468;7.0486;
274.8000;0.3508;7.0556;
275.1000;0.3492;7.0533;
275.4000;0.3516;7.0604;
275.7000;0.3484;7.0580;
276.0000;0.3484;7.0509;
276.3000;0.3484;7.0533;
276.6000;0.3516;7.0580;
276.9000;0.3492;7.0556;
277.2000;0.3492;7.0556;
277.5000;0.3525;7.0651;
277.8000;0.3500;7.0533;
278.1000;0.3508;7.0438;
278.4000;0.3533;7.0580;
278.7000;0.3492;7.0438;
279.0000;0.3484;7.0462;
279.3000;0.3508;7.0556;
279.6000;0.3508;7.0533;
279.9000;0.3476;7.0415;
280.2000;0.3484;7.0486;
280.5000;0.3508;7.0509;
280.8000;0.3500;7.0509;
281.1000;0.3541;7.0675;
281.4000;0.3508;7.0675;
281.7000;0.3500;7.0580;
282.0000;0.3549;7.0675;
282.3000;0.3508;7.0675;
282.6000;0.3500;7.0722;
282.9000;0.3500;7.0722;
283.2000;0.3516;7.0793;
283.5000;0.3484;7.0651;
283.8000;0.3500;7.0627;
284.1000;0.3500;7.0675;
284.4000;0.3508;7.0746;
284.7000;0.3460;7.0580;
285.0000;0.3435;7.0556;
285.3000;0.3492;7.0604;
285.6000;0.3492;7.0627;
285.9000;0.3516;7.0698;
286.2000;0.3476;7.0722;
286.5000;0.3476;7.0675;
286.8000;0.3508;7.0722;
287.1000;0.3516;7.0675;
287.4000;0.3516;7.0675;
287.7000;0.3484;7.0604;
288.0000;0.3468;7.0675;
288.3000;0.3492;7.0722;
288.6000;0.3500;7.0698;
288.9000;0.3508;7.0769;
289.2000;0.3484;7.0698;
289.5000;0.3516;7.0746;
289.8000;0.3492;7.0675;
290.1000;0.3508;7.0651;
290.4000;0.3460;7.0556;
290.7000;0.3516;7.0698;
291.0000;0.3508;7.0769;
291.3000;0.3508;7.0793;
291.6000;0.3508;7.0722;
291.9000;0.3492;7.0675;
292.2000;0.3565;7.0840;
292.5000;0.3500;7.0698;
292.8000;0.3500;7.0675;
293.1000;0.3411;7.0438;
293.4000;0.3468;7.0580;
293.7000;0.3508;7.0675;
294.0000;0.3476;7.0580;
294.3000;0.3516;7.0675;
294.6000;0.3525;7.0722;
294.9000;0.3525;7.0675;
295.2000;0.3508;7.0627;
295.5000;0.3541;7.0675;
295.8000;0.3508;7.0580;
296.1000;0.3500;7.0604;
296.4000;0.3508;7.0509;
296.7000;0.3492;7.0344;
297.0000;0.3492;7.0296;
297.3000;0.3508;7.0391;
297.6000;0.3492;7.0462;
297.9000;0.3508;7.0509;
298.2000;0.3492;7.0556;
298.5000;0.3541;7.0698;
298.8000;0.3508;7.0698;
299.1000;0.3492;7.0722;
299.4000;0.3508;7.0793;
299.7000;0.3508;7.0746;
300.0000;0.3525;7.0746;
300.3000;0.3549;7.0793;
300.6000;0.3500;7.0698;
300.9000;0.3516;7.0746;
301.2000;0.3508;7.0698;
301.5000;0.3516;7.0698;
301.8000;0.3533;7.0698;
302.1000;0.3516;7.0722;
302.4000;0.3516;7.0651;
302.7000;0.3500;7.0627;
303.0000;0.3516;7.0675;
303.3000;0.3443;7.0415;
303.6000;0.3500;7.0486;
303.9000;0.3508;7.0533;
304.2000;0.3508;7.0604;
304.5000;0.3508;7.0627;
304.8000;0.3557;7.0793;
305.1000;0.3492;7.0651;
305.4000;0.3508;7.0746;
305.7000;0.3525;7.0864;
306.0000;0.3476;7.0722;
306.3000;0.3516;7.0816;
306.6000;0.3516;7.0840;
306.9000;0.3508;7.0816;
307.2000;0.3500;7.0816;
307.5000;0.3516;7.0840;
307.8000;0.3525;7.0793;
308.1000;0.3533;7.0793;
308.4000;0.3508;7.0887;
308.7000;0.3508;7.0840;
309.0000;0.3533;7.0887;
309.3000;0.3500;7.0864;
309.6000;0.3516;7.0911;
309.9000;0.3508;7.0864;
310.2000;0.3525;7.0864;
310.5000;0.3492;7.0698;
310.8000;0.3508;7.0651;
311.1000;0.3508;7.0675;
311.4000;0.3508;7.0675;
311.7000;0.3582;7.0840;
312.0000;0.3549;7.0769;
312.3000;0.3508;7.0627;
312.6000;0.3516;7.0627;
312.9000;0.3500;7.0651;
313.2000;0.3516;7.0675;
313.5000;0.3516;7.0675;
313.8000;0.3500;7.0627;
314.1000;0.3500;7.0698;
314.4000;0.3492;7.0698;
314.7000;0.3508;7.0816;
315.0000;0.3516;7.0864;
315.3000;0.3516;7.0816;
315.6000;0.3508;7.0722;
315.9000;0.3516;7.0722;
316.2000;0.3508;7.0627;
316.5000;0.3500;7.0533;
316.8000;0.3492;7.0509;
317.1000;0.3500;7.0415;
317.4000;0.3516;7.0367;
317.7000;0.3525;7.0367;
318.0000;0.3573;7.0462;
318.3000;0.3500;7.0273;
318.6000;0.3516;7.0320;
318.9000;0.3525;7.0415;
319.2000;0.3508;7.0391;
319.5000;0.3492;7.0438;
319.8000;0.3541;7.0486;
320.1000;0.3427;7.0178;
320.4000;0.3451;7.0155;
320.7000;0.3508;7.0320;
321.0000;0.3476;7.0391;
321.3000;0.3492;7.0391;
321.6000;0.3508;7.0391;
321.9000;0.3541;7.0486;
322.2000;0.3500;7.0296;
322.5000;0.3557;7.0415;
322.8000;0.3500;7.0367;
323.1000;0.3492;7.0344;
323.4000;0.3451;7.0202;
323.7000;0.3500;7.0249;
324.0000;0.3500;7.0226;
324.3000;0.3516;7.0344;
324.6000;0.3516;7.0249;
324.9000;0.3492;7.0296;
325.2000;0.3484;7.0320;
325.5000;0.3508;7.0415;
325.8000;0.3500;7.0509;
326.1000;0.3508;7.0533;
326.4000;0.3582;7.0675;
326.7000;0.3508;7.0462;
327.0000;0.3508;7.0415;
327.3000;0.3516;7.0415;
327.6000;0.3508;7.0391;
327.9000;0.3508;7.0438;
328.2000;0.3525;7.0344;
328.5000;0.3500;7.0296;
328.8000;0.3525;7.0367;
329.1000;0.3516;7.0320;
329.4000;0.3525;7.0320;
329.7000;0.3516;7.0344;
330.0000;0.3525;7.0344;
330.3000;0.3533;7.0320;
330.6000;0.3476;7.0320;
330.9000;0.3533;7.0509;
331.2000;0.3525;7.0509;
331.5000;0.3525;7.0556;
331.8000;0.3508;7.0462;
332.1000;0.3508;7.0462;
332.4000;0.3508;7.0486;
332.7000;0.3508;7.0509;
333.0000;0.3500;7.0462;
333.3000;0.3516;7.0415;
333.6000;0.3508;7.0320;
333.9000;0.3500;7.0249;
334.2000;0.3508;7.0249;
334.5000;0.3508;7.0273;
334.8000;0.3508;7.0344;
335.1000;0.3516;7.0391;
335.4000;0.3516;7.0462;
335.7000;0.3500;7.0367;
336.0000;0.3525;7.0391;
336.3000;0.3533;7.0344;
336.6000;0.3525;7.0367;
336.9000;0.3525;7.0486;
337.2000;0.3525;7.0533;
337.5000;0.3516;7.0391;
337.8000;0.3516;7.0462;
338.1000;0.3516;7.0486;
338.4000;0.3541;7.0509;
338.7000;0.3500;7.0438;
339.0000;0.3468;7.0320;
339.3000;0.3516;7.0438;
339.6000;0.3468;7.0486;
339.9000;0.3500;7.0556;
340.2000;0.3476;7.0462;
340.5000;0.3516;7.0627;
340.8000;0.3516;7.0580;
341.1000;0.3525;7.0604;
341.4000;0.3573;7.0816;
341.7000;0.3541;7.0746;
342.0000;0.3516;7.0698;
342.3000;0.3492;7.0627;
342.6000;0.3533;7.0698;
342.9000;0.3508;7.0604;
343.2000;0.3443;7.0391;
343.5000;0.3468;7.0462;
343.8000;0.3525;7.0486;
344.1000;0.3516;7.0438;
344.4000;0.3500;7.0320;
344.7000;0.3500;7.0320;
345.0000;0.3630;7.0604;
345.3000;0.3590;7.0556;
345.6000;0.3516;7.0462;
345.9000;0.3525;7.0438;
346.2000;0.3508;7.0415;
346.5000;0.3500;7.0415;
346.8000;0.3516;7.0391;
347.1000;0.3500;7.0367;
347.4000;0.3557;7.0486;
347.7000;0.3500;7.0296;
348.0000;0.3500;7.0320;
348.3000;0.3549;7.0415;
348.6000;0.3508;7.0320;
348.9000;0.3516;7.0367;
349.2000;0.3492;7.0273;
349.5000;0.3468;7.0273;
349.8000;0.3500;7.0320;
350.1000;0.3492;7.0462;
350.4000;0.3516;7.0604;
350.7000;0.3508;7.0556;
351.0000;0.3492;7.0486;
351.3000;0.3484;7.0391;
351.6000;0.3516;7.0367;
351.9000;0.3476;7.0249;
352.2000;0.3516;7.0320;
352.5000;0.3500;7.0296;
352.8000;0.3500;7.0273;
353.1000;0.3508;7.0320;
353.4000;0.3500;7.0344;
353.7000;0.3500;7.0391;
354.0000;0.3451;7.0391;
354.3000;0.3614;7.0864;
354.6000;0.3549;7.0698;
354.9000;0.3484;7.0509;
355.2000;0.3516;7.0627;
355.5000;0.3508;7.0604;
355.8000;0.3508;7.0627;
356.1000;0.3500;7.0556;
356.4000;0.3516;7.0604;
356.7000;0.3508;7.0604;
357.0000;0.3516;7.0533;
357.3000;0.3508;7.0556;
357.6000;0.3492;7.0509;
357.9000;0.3557;7.0627;
358.2000;0.3533;7.0604;
358.5000;0.3492;7.0438;
358.8000;0.3541;7.0533;
359.1000;0.3516;7.0533;
359.4000;0.3516;7.0533;
359.7000;0.3525;7.0486;
360.0000;0.3508;7.0367;
360.3000;0.3492;7.0273;
360.6000;0.3508;7.0344;
360.9000;0.3500;7.0320;
361.2000;0.3451;7.0296;
361.5000;0.3549;7.0604;
361.8000;0.3622;7.0675;
362.1000;0.3516;7.0415;
362.4000;0.3508;7.0367;
362.7000;0.3516;7.0391;
363.0000;0.3508;7.0296;
363.3000;0.3500;7.0344;
363.6000;0.3508;7.0509;
363.9000;0.3500;7.0438;
364.2000;0.3443;7.0226;
364.5000;0.3565;7.0509;
364.8000;0.3557;7.0509;
365.1000;0.3598;7.0675;
365.4000;0.3500;7.0462;
365.7000;0.3435;7.0226;
366.0000;0.3516;7.0438;
366.3000;0.3525;7.0556;
366.6000;0.3582;7.0722;
366.9000;0.3500;7.0486;
367.2000;0.3508;7.0415;
367.5000;0.3525;7.0509;
367.8000;0.3516;7.0415;
368.1000;0.3508;7.0486;
368.4000;0.3508;7.0367;
368.7000;0.3476;7.0273;
369.0000;0.3508;7.0391;
369.3000;0.3549;7.0486;
369.6000;0.3508;7.0320;
369.9000;0.3516;7.0249;
370.2000;0.3508;7.0226;
370.5000;0.3516;7.0296;
370.8000;0.3533;7.0367;
371.1000;0.3541;7.0391;
371.4000;0.3516;7.0249;
371.7000;0.3508;7.0226;
372.0000;0.3516;7.0273;
372.3000;0.3606;7.0509;
372.6000;0.3525;7.0438;
372.9000;0.3516;7.0438;
373.2000;0.3516;7.0462;
373.5000;0.3500;7.0391;
373.8000;0.3516;7.0391;
374.1000;0.3525;7.0415;
374.4000;0.3508;7.0320;
374.7000;0.3516;7.0391;
375.0000;0.3500;7.0344;
375.3000;0.3516;7.0367;
375.6000;0.3476;7.0296;
375.9000;0.3533;7.0462;
376.2000;0.3516;7.0391;
376.5000;0.3516;7.0391;
376.8000;0.3541;7.0509;
377.1000;0.3500;7.0486;
377.4000;0.3516;7.0604;
377.7000;0.3525;7.0651;
378.0000;0.3549;7.0698;
378.3000;0.3549;7.0675;
378.6000;0.3525;7.0627;
378.9000;0.3525;7.0533;
379.2000;0.3516;7.0415;
379.5000;0.3492;7.0415;
379.8000;0.3516;7.0556;
380.1000;0.3582;7.0769;
380.4000;0.3508;7.0604;
380.7000;0.3525;7.0580;
381.0000;0.3484;7.0509;
381.3000;0.3516;7.0580;
381.6000;0.3516;7.0556;
381.9000;0.3484;7.0509;
382.2000;0.3508;7.0533;
382.5000;0.3516;7.0486;
382.8000;0.3484;7.0367;
383.1000;0.3590;7.0604;
383.4000;0.3500;7.0438;
383.7000;0.3541;7.0556;
384.0000;0.3508;7.0556;
384.3000;0.3468;7.0344;
384.6000;0.3484;7.0438;
384.9000;0.3516;7.0533;
385.2000;0.3606;7.0722;
385.5000;0.3533;7.0580;
385.8000;0.3516;7.0580;
386.1000;0.3533;7.0604;
386.4000;0.3598;7.0793;
386.7000;0.3541;7.0746;
387.0000;0.3500;7.0651;
387.3000;0.3451;7.0438;
387.6000;0.3484;7.0509;
387.9000;0.3492;7.0556;
388.2000;0.3476;7.0438;
388.5000;0.3525;7.0675;
388.8000;0.3508;7.0675;
389.1000;0.3508;7.0698;
389.4000;0.3508;7.0746;
389.7000;0.3500;7.0769;
390.0000;0.3500;7.0864;
390.3000;0.3525;7.0887;
390.6000;0.3492;7.0698;
390.9000;0.3476;7.0698;
391.2000;0.3451;7.0580;
391.5000;0.3492;7.0604;
391.8000;0.3492;7.0580;
392.1000;0.3500;7.0604;
392.4000;0.3557;7.0722;
392.7000;0.3533;7.0698;
393.0000;0.3492;7.0533;
393.3000;0.3492;7.0556;
393.6000;0.3508;7.0627;
393.9000;0.3500;7.0604;
394.2000;0.3484;7.0627;
394.5000;0.3500;7.0604;
394.8000;0.3533;7.0627;
395.1000;0.3500;7.0533;
395.4000;0.3451;7.0462;
395.7000;0.3508;7.0627;
396.0000;0.3516;7.0627;
396.3000;0.3525;7.0651;
396.6000;0.3525;7.0722;
396.9000;0.3525;7.0722;
397.2000;0.3484;7.0627;
397.5000;0.3549;7.0722;
397.8000;0.3508;7.0675;
398.1000;0.3500;7.0698;
398.4000;0.3565;7.0769;
398.7000;0.3516;7.0722;
399.0000;0.3533;7.0698;
399.3000;0.3533;7.0698;
399.6000;0.3484;7.0580;
399.9000;0.3557;7.0816;
400.2000;0.3525;7.0746;
400.5000;0.3525;7.0746;
400.8000;0.3516;7.0746;
401.1000;0.3582;7.0864;
401.4000;0.3533;7.0746;
401.7000;0.3516;7.0675;
402.0000;0.3508;7.0675;
402.3000;0.3525;7.0627;
402.6000;0.3533;7.0533;
402.9000;0.3460;7.0415;
403.2000;0.3435;7.0344;
403.5000;0.3508;7.0509;
403.8000;0.3508;7.0509;
404.1000;0.3460;7.0320;
404.4000;0.3516;7.0462;
404.7000;0.3533;7.0509;
405.0000;0.3525;7.0556;
405.3000;0.3565;7.0604;
405.6000;0.3525;7.0533;
405.9000;0.3525;7.0533;
406.2000;0.3516;7.0580;
406.5000;0.3533;7.0651;
406.8000;0.3508;7.0509;
407.1000;0.3460;7.0367;
407.4000;0.3492;7.0462;
407.7000;0.3565;7.0651;
408.0000;0.3516;7.0580;
408.3000;0.3500;7.0509;
408.6000;0.3541;7.0604;
408.9000;0.3516;7.0604;
409.2000;0.3516;7.0627;
409.5000;0.3451;7.0438;
409.8000;0.3516;7.0651;
410.1000;0.3476;7.0533;
410.4000;0.3525;7.0698;
410.7000;0.3525;7.0627;
411.0000;0.3516;7.0533;
411.3000;0.3492;7.0556;
411.6000;0.3500;7.0651;
411.9000;0.3541;7.0675;
412.2000;0.3516;7.0627;
412.5000;0.3508;7.0746;
412.8000;0.3508;7.0746;
413.1000;0.3516;7.0746;
413.4000;0.3525;7.0793;
413.7000;0.3516;7.0746;
414.0000;0.3516;7.0746;
414.3000;0.3516;7.0769;
414.6000;0.3492;7.0651;
414.9000;0.3525;7.0769;
415.2000;0.3500;7.0746;
415.5000;0.3516;7.0840;
415.8000;0.3443;7.0651;
416.1000;0.3508;7.0840;
416.4000;0.3508;7.0816;
416.7000;0.3533;7.0887;
417.0000;0.3508;7.0816;
417.3000;0.3549;7.0816;
417.6000;0.3533;7.0722;
417.9000;0.3508;7.0651;
418.2000;0.3500;7.0675;
418.5000;0.3508;7.0769;
418.8000;0.3508;7.0722;
419.1000;0.3525;7.0698;
419.4000;0.3443;7.0462;
419.7000;0.3492;7.0533;
420.0000;0.3516;7.0580;
420.3000;0.3516;7.0675;
420.6000;0.3541;7.0722;
420.9000;0.3525;7.0627;
421.2000;0.3541;7.0722;
421.5000;0.3525;7.0793;
421.8000;0.3508;7.0675;
422.1000;0.3557;7.0722;
422.4000;0.3516;7.0651;
422.7000;0.3508;7.0627;
423.0000;0.3500;7.0627;
423.3000;0.3508;7.0533;
423.6000;0.3516;7.0438;
423.9000;0.3492;7.0367;
424.2000;0.3500;7.0415;
424.5000;0.3508;7.0391;
424.8000;0.3500;7.0391;
425.1000;0.3549;7.0438;
425.4000;0.3500;7.0226;
425.7000;0.3516;7.0202;
426.0000;0.3443;7.0178;
426.3000;0.3525;7.0415;
426.6000;0.3508;7.0391;
426.9000;0.3492;7.0438;
427.2000;0.3451;7.0296;
427.5000;0.3492;7.0344;
427.8000;0.3525;7.0438;
428.1000;0.3516;7.0367;
428.4000;0.3500;7.0391;
428.7000;0.3508;7.0391;
429.0000;0.3500;7.0415;
429.3000;0.3533;7.0462;
429.6000;0.3533;7.0462;
429.9000;0.3533;7.0509;
430.2000;0.3525;7.0533;
430.5000;0.3525;7.0556;
430.8000;0.3516;7.0580;
431.1000;0.3525;7.0604;
431.4000;0.3541;7.0651;
431.7000;0.3516;7.0533;
432.0000;0.3525;7.0486;
432.3000;0.3516;7.0438;
432.6000;0.3500;7.0367;
432.9000;0.3500;7.0391;
433.2000;0.3508;7.0415;
433.5000;0.3500;7.0391;
433.8000;0.3508;7.0438;
434.1000;0.3500;7.0438;
434.4000;0.3508;7.0344;
434.7000;0.3533;7.0320;
435.0000;0.3427;7.0131;
435.3000;0.3508;7.0296;
435.6000;0.3516;7.0344;
435.9000;0.3500;7.0344;
436.2000;0.3500;7.0320;
436.5000;0.3484;7.0249;
436.8000;0.3516;7.0226;
437.1000;0.3516;7.0178;
437.4000;0.3533;7.0178;
437.7000;0.3508;7.0178;
438.0000;0.3508;7.0367;
438.3000;0.3549;7.0462;
438.6000;0.3508;7.0249;
438.9000;0.3476;7.0273;
439.2000;0.3500;7.0391;
439.5000;0.3492;7.0367;
439.8000;0.3508;7.0415;
440.1000;0.3533;7.0486;
440.4000;0.3492;7.0391;
440.7000;0.3516;7.0415;
441.0000;0.3508;7.0367;
441.3000;0.3525;7.0415;
441.6000;0.3516;7.0462;
441.9000;0.3460;7.0296;
442.2000;0.3516;7.0415;
442.5000;0.3525;7.0486;
442.8000;0.3492;7.0415;
443.1000;0.3508;7.0344;
443.4000;0.3525;7.0367;
443.7000;0.3492;7.0320;
444.0000;0.3468;7.0367;
444.3000;0.3492;7.0391;
444.6000;0.3516;7.0438;
444.9000;0.3508;7.0462;
445.2000;0.3525;7.0391;
445.5000;0.3516;7.0367;
445.8000;0.3508;7.0296;
446.1000;0.3533;7.0391;
446.4000;0.3492;7.0367;
446.7000;0.3500;7.0462;
447.0000;0.3500;7.0344;
447.3000;0.3484;7.0249;
447.6000;0.3500;7.0296;
447.9000;0.3508;7.0367;
448.2000;0.3484;7.0367;
448.5000;0.3508;7.0415;
448.8000;0.3492;7.0486;
449.1000;0.3500;7.0580;
449.4000;0.3508;7.0580;
449.7000;0.3508;7.0604;
450.0000;0.3508;7.0627;
450.3000;0.3460;7.0533;
450.6000;0.3525;7.0627;
450.9000;0.3500;7.0627;
451.2000;0.3508;7.0604;
451.5000;0.3508;7.0556;
451.8000;0.3525;7.0556;
452.1000;0.3549;7.0604;
452.4000;0.3525;7.0533;
452.7000;0.3516;7.0415;
453.0000;0.3573;7.0580;
453.3000;0.3516;7.0438;
453.6000;0.3516;7.0344;
453.9000;0.3508;7.0202;
454.2000;0.3533;7.0202;
454.5000;0.3508;7.0036;
454.8000;0.3516;7.0036;
455.1000;0.3525;7.0084;
455.4000;0.3516;7.0178;
455.7000;0.3533;7.0320;
456.0000;0.3533;7.0344;
456.3000;0.3525;7.0344;
456.6000;0.3525;7.0415;
456.9000;0.3508;7.0486;
457.2000;0.3492;7.0438;
457.5000;0.3500;7.0391;
457.8000;0.3476;7.0367;
458.1000;0.3500;7.0391;
458.4000;0.3492;7.0391;
458.7000;0.3500;7.0486;
459.0000;0.3492;7.0509;
459.3000;0.3557;7.0604;
459.6000;0.3508;7.0415;
459.9000;0.3484;7.0438;
460.2000;0.3525;7.0556;
460.5000;0.3500;7.0344;
460.8000;0.3533;7.0367;
461.1000;0.3492;7.0273;
461.4000;0.3525;7.0344;
461.7000;0.3500;7.0344;
462.0000;0.3500;7.0273;
462.3000;0.3516;7.0344;
462.6000;0.3516;7.0438;
462.9000;0.3516;7.0438;
463.2000;0.3508;7.0320;
463.5000;0.3541;7.0462;
463.8000;0.3525;7.0462;
464.1000;0.3525;7.0367;
464.4000;0.3500;7.0391;
464.7000;0.3508;7.0462;
465.0000;0.3508;7.0415;
465.3000;0.3516;7.0391;
465.6000;0.3525;7.0320;
465.9000;0.3500;7.0249;
466.2000;0.3500;7.0367;
466.5000;0.3508;7.0462;
466.8000;0.3508;7.0415;
467.1000;0.3508;7.0367;
467.4000;0.3525;7.0391;
467.7000;0.3516;7.0320;
468.0000;0.3525;7.0296;
468.3000;0.3492;7.0155;
468.6000;0.3492;7.0084;
468.9000;0.3500;7.0178;
469.2000;0.3516;7.0273;
469.5000;0.3516;7.0367;
469.8000;0.3525;7.0415;
470.1000;0.3525;7.0462;
470.4000;0.3516;7.0533;
470.7000;0.3516;7.0438;
471.0000;0.3525;7.0462;
471.3000;0.3516;7.0462;
471.6000;0.3508;7.0509;
471.9000;0.3573;7.0627;
472.2000;0.3500;7.0415;
472.5000;0.3508;7.0509;
472.8000;0.3525;7.0509;
473.1000;0.3525;7.0391;
473.4000;0.3525;7.0509;
473.7000;0.3508;7.0486;
474.0000;0.3565;7.0651;
474.3000;0.3500;7.0438;
474.6000;0.3468;7.0273;
474.9000;0.3443;7.0438;
475.2000;0.3419;7.0249;
475.5000;0.3460;7.0391;
475.8000;0.3500;7.0509;
476.1000;0.3525;7.0509;
476.4000;0.3533;7.0509;
476.7000;0.3516;7.0509;
477.0000;0.3525;7.0391;
477.3000;0.3565;7.0367;
477.6000;0.3492;7.0202;
477.9000;0.3525;7.0296;
478.2000;0.3533;7.0296;
478.5000;0.3565;7.0415;
478.8000;0.3476;7.0226;
479.1000;0.3508;7.0273;
479.4000;0.3516;7.0273;
479.7000;0.3500;7.0273;
480.0000;0.3500;7.0367;
480.3000;0.3525;7.0296;
480.6000;0.3508;7.0273;
480.9000;0.3516;7.0367;
481.2000;0.3500;7.0415;
481.5000;0.3492;7.0367;
481.8000;0.3622;7.0746;
482.1000;0.3525;7.0580;
482.4000;0.3541;7.0675;
482.7000;0.3565;7.0604;
483.0000;0.3533;7.0462;
483.3000;0.3508;7.0367;
483.6000;0.3476;7.0249;
483.9000;0.3500;7.0415;
484.2000;0.3508;7.0580;
484.5000;0.3606;7.0982;
484.8000;0.3557;7.0769;
485.1000;0.3500;7.0698;
485.4000;0.3525;7.0769;
485.7000;0.3533;7.0675;
486.0000;0.3516;7.0627;
486.3000;0.3516;7.0533;
486.6000;0.3500;7.0415;
486.9000;0.3533;7.0556;
487.2000;0.3516;7.0556;
487.5000;0.3508;7.0627;
487.8000;0.3484;7.0604;
488.1000;0.3508;7.0698;
488.4000;0.3411;7.0438;
488.7000;0.3508;7.0651;
489.0000;0.3525;7.0746;
489.3000;0.3500;7.0580;
489.6000;0.3500;7.0580;
489.9000;0.3508;7.0486;
490.2000;0.3516;7.0556;
490.5000;0.3525;7.0556;
490.8000;0.3484;7.0438;
491.1000;0.3525;7.0604;
491.4000;0.3516;7.0746;
491.7000;0.3525;7.0722;
492.0000;0.3516;7.0698;
492.3000;0.3533;7.0793;
492.6000;0.3500;7.0675;
492.9000;0.3484;7.0675;
493.2000;0.3614;7.0982;
493.5000;0.3516;7.0580;
493.8000;0.3525;7.0580;
494.1000;0.3451;7.0344;
494.4000;0.3525;7.0580;
494.7000;0.3508;7.0509;
495.0000;0.3492;7.0438;
495.3000;0.3492;7.0462;
495.6000;0.3525;7.0509;
495.9000;0.3476;7.0462;
496.2000;0.3516;7.0556;
496.5000;0.3460;7.0438;
496.8000;0.3516;7.0556;
497.1000;0.3476;7.0462;
497.4000;0.3492;7.0509;
497.7000;0.3541;7.0533;
498.0000;0.3476;7.0367;
498.3000;0.3500;7.0367;
498.6000;0.3460;7.0249;
498.9000;0.3541;7.0509;
499.2000;0.3533;7.0604;
499.5000;0.3484;7.0580;
499.8000;0.3516;7.0698;
500.1000;0.3476;7.0627;
500.4000;0.3541;7.0722;
500.7000;0.3492;7.0580;
501.0000;0.3468;7.0486;
501.3000;0.3508;7.0556;
501.6000;0.3565;7.0556;
501.9000;0.3516;7.0391;
502.2000;0.3582;7.0509;
502.5000;0.3508;7.0415;
502.8000;0.3516;7.0486;
503.1000;0.3516;7.0415;
503.4000;0.3451;7.0226;
503.7000;0.3533;7.0391;
504.0000;0.3508;7.0344;
504.3000;0.3516;7.0344;
504.6000;0.3525;7.0438;
504.9000;0.3492;7.0391;
505.2000;0.3468;7.0367;
505.5000;0.3525;7.0509;
505.8000;0.3411;7.0107;
506.1000;0.3525;7.0367;
506.4000;0.3476;7.0226;
506.7000;0.3525;7.0320;
507.0000;0.3508;7.0273;
507.3000;0.3525;7.0273;
507.6000;0.3525;7.0367;
507.9000;0.3508;7.0367;
508.2000;0.3508;7.0438;
508.5000;0.3525;7.0462;
508.8000;0.3508;7.0320;
509.1000;0.3516;7.0296;
509.4000;0.3516;7.0320;
509.7000;0.3500;7.0462;
510.0000;0.3500;7.0509;
510.3000;0.3508;7.0580;
510.6000;0.3525;7.0580;
510.9000;0.3508;7.0486;
511.2000;0.3525;7.0462;
511.5000;0.3549;7.0509;
511.8000;0.3525;7.0509;
512.1000;0.3492;7.0533;
512.4000;0.3516;7.0486;
512.7000;0.3443;7.0249;
513.0000;0.3533;7.0438;
513.3000;0.3500;7.0462;
513.6000;0.3516;7.0462;
513.9000;0.3533;7.0556;
514.2000;0.3484;7.0556;
514.5000;0.3508;7.0604;
514.8000;0.3525;7.0580;
515.1000;0.3508;7.0486;
515.4000;0.3508;7.0604;
515.7000;0.3508;7.0627;
516.0000;0.3492;7.0438;
516.3000;0.3525;7.0438;
516.6000;0.3525;7.0367;
516.9000;0.3508;7.0344;
517.2000;0.3525;7.0320;
517.5000;0.3508;7.0367;
517.8000;0.3516;7.0415;
518.1000;0.3516;7.0367;
518.4000;0.3500;7.0320;
518.7000;0.3508;7.0296;
519.0000;0.3500;7.0344;
519.3000;0.3451;7.0131;
519.6000;0.3516;7.0391;
519.9000;0.3484;7.0296;
520.2000;0.3476;7.0296;
520.5000;0.3516;7.0486;
520.8000;0.3492;7.0462;
521.1000;0.3508;7.0509;
521.4000;0.3500;7.0438;
521.7000;0.3500;7.0438;
522.0000;0.3508;7.0509;
522.3000;0.3533;7.0509;
522.6000;0.3525;7.0438;
522.9000;0.3516;7.0556;
523.2000;0.3508;7.0509;
523.5000;0.3508;7.0344;
523.8000;0.3500;7.0226;
524.1000;0.3500;7.0249;
524.4000;0.3525;7.0202;
524.7000;0.3516;7.0273;
525.0000;0.3508;7.0462;
525.3000;0.3516;7.0533;
525.6000;0.3516;7.0604;
525.9000;0.3492;7.0533;
526.2000;0.3508;7.0627;
526.5000;0.3516;7.0462;
526.8000;0.3476;7.0367;
527.1000;0.3508;7.0320;
527.4000;0.3525;7.0296;
527.7000;0.3516;7.0273;
528.0000;0.3516;7.0273;
528.3000;0.3508;7.0320;
528.6000;0.3525;7.0415;
528.9000;0.3508;7.0415;
529.2000;0.3508;7.0391;
529.5000;0.3468;7.0273;
529.8000;0.3500;7.0391;
530.1000;0.3516;7.0486;
530.4000;0.3500;7.0462;
530.7000;0.3525;7.0533;
531.0000;0.3516;7.0533;
531.3000;0.3516;7.0509;
531.6000;0.3516;7.0556;
531.9000;0.3492;7.0486;
532.2000;0.3533;7.0533;
532.5000;0.3500;7.0415;
532.8000;0.3516;7.0391;
533.1000;0.3516;7.0415;
533.4000;0.3525;7.0486;
533.7000;0.3541;7.0438;
534.0000;0.3525;7.0509;
534.3000;0.3508;7.0533;
534.6000;0.3508;7.0580;
534.9000;0.3525;7.0604;
535.2000;0.3508;7.0580;
535.5000;0.3508;7.0556;
535.8000;0.3557;7.0698;
536.1000;0.3492;7.0627;
536.4000;0.3500;7.0556;
536.7000;0.3492;7.0533;
537.0000;0.3500;7.0486;
537.3000;0.3484;7.0462;
537.6000;0.3516;7.0627;
537.9000;0.3565;7.0722;
538.2000;0.3541;7.0675;
538.5000;0.3525;7.0651;
538.8000;0.3525;7.0556;
539.1000;0.3516;7.0509;
539.4000;0.3516;7.0415;
539.7000;0.3516;7.0415;
540.0000;0.3435;7.0202;
540.3000;0.3492;7.0344;
540.6000;0.3492;7.0249;
540.9000;0.3476;7.0249;
541.2000;0.3549;7.0556;
541.5000;0.3541;7.0533;
541.8000;0.3500;7.0438;
542.1000;0.3443;7.0344;
542.4000;0.3557;7.0604;
542.7000;0.3525;7.0533;
543.0000;0.3525;7.0580;
543.3000;0.3516;7.0556;
543.6000;0.3500;7.0509;
543.9000;0.3590;7.0769;
544.2000;0.3476;7.0509;
544.5000;0.3492;7.0509;
544.8000;0.3508;7.0533;
545.1000;0.3525;7.0509;
545.4000;0.3508;7.0415;
545.7000;0.3541;7.0462;
546.0000;0.3525;7.0486;
546.3000;0.3525;7.0415;
546.6000;0.3500;7.0391;
546.9000;0.3525;7.0415;
547.2000;0.3516;7.0415;
547.5000;0.3516;7.0486;
547.8000;0.3508;7.0438;
548.1000;0.3500;7.0391;
548.4000;0.3516;7.0438;
548.7000;0.3508;7.0391;
549.0000;0.3525;7.0415;
549.3000;0.3508;7.0486;
549.6000;0.3500;7.0509;
549.9000;0.3500;7.0604;
550.2000;0.3435;7.0438;
550.5000;0.3508;7.0651;
550.8000;0.3492;7.0604;
551.1000;0.3565;7.0816;
551.4000;0.3508;7.0746;
551.7000;0.3516;7.0864;
552.0000;0.3468;7.0722;
552.3000;0.3516;7.0816;
552.6000;0.3516;7.0816;
552.9000;0.3508;7.0816;
553.2000;0.3516;7.0816;
553.5000;0.3508;7.0816;
553.8000;0.3516;7.0769;
554.1000;0.3533;7.0769;
554.4000;0.3565;7.0816;
554.7000;0.3500;7.0651;
555.0000;0.3492;7.0627;
555.3000;0.3492;7.0722;
555.6000;0.3516;7.0698;
555.9000;0.3500;7.0627;
556.2000;0.3508;7.0580;
556.5000;0.3492;7.0556;
556.8000;0.3508;7.0675;
557.1000;0.3500;7.0651;
557.4000;0.3468;7.0486;
557.7000;0.3516;7.0627;
558.0000;0.3533;7.0746;
558.3000;0.3525;7.0722;
558.6000;0.3516;7.0627;
558.9000;0.3468;7.0509;
559.2000;0.3516;7.0675;
559.5000;0.3516;7.0604;
559.8000;0.3508;7.0556;
560.1000;0.3516;7.0746;
560.4000;0.3500;7.0793;
560.7000;0.3516;7.0864;
561.0000;0.3516;7.0911;
561.3000;0.3508;7.0864;
561.6000;0.3516;7.0840;
561.9000;0.3492;7.0722;
562.2000;0.3508;7.0675;
562.5000;0.3500;7.0722;
562.8000;0.3516;7.0675;
563.1000;0.3525;7.0675;
563.4000;0.3525;7.0627;
563.7000;0.3508;7.0580;
564.0000;0.3565;7.0675;
564.3000;0.3508;7.0509;
564.6000;0.3500;7.0391;
564.9000;0.3500;7.0509;
565.2000;0.3508;7.0604;
565.5000;0.3508;7.0604;
565.8000;0.3492;7.0604;
566.1000;0.3500;7.0556;
566.4000;0.3508;7.0509;
566.7000;0.3516;7.0509;
567.0000;0.3476;7.0438;
567.3000;0.3508;7.0556;
567.6000;0.3500;7.0486;
567.9000;0.3492;7.0391;
568.2000;0.3508;7.0415;
568.5000;0.3516;7.0486;
568.8000;0.3508;7.0604;
569.1000;0.3533;7.0675;
569.4000;0.3516;7.0556;
569.7000;0.3492;7.0604;
570.0000;0.3516;7.0698;
570.3000;0.3508;7.0793;
570.6000;0.3476;7.0746;
570.9000;0.3451;7.0675;
571.2000;0.3508;7.0864;
571.5000;0.3533;7.0887;
571.8000;0.3484;7.0840;
572.1000;0.3500;7.0840;
572.4000;0.3557;7.0911;
572.7000;0.3508;7.0722;
573.0000;0.3492;7.0675;
573.3000;0.3468;7.0580;
573.6000;0.3468;7.0627;
573.9000;0.3492;7.0675;
574.2000;0.3549;7.0816;
574.5000;0.3508;7.0698;
574.8000;0.3508;7.0627;
575.1000;0.3516;7.0698;
575.4000;0.3508;7.0793;
575.7000;0.3492;7.0698;
576.0000;0.3516;7.0627;
576.3000;0.3500;7.0556;
576.6000;0.3460;7.0391;
576.9000;0.3508;7.0580;
577.2000;0.3500;7.0580;
577.5000;0.3378;7.0296;
577.8000;0.3484;7.0675;
578.1000;0.3492;7.0746;
578.4000;0.3492;7.0651;
578.7000;0.3525;7.0627;
579.0000;0.3508;7.0533;
579.3000;0.3525;7.0486;
579.6000;0.3525;7.0462;
579.9000;0.3508;7.0415;
580.2000;0.3508;7.0438;
580.5000;0.3484;7.0273;
580.8000;0.3492;7.0367;
581.1000;0.3516;7.0320;
581.4000;0.3508;7.0367;
581.7000;0.3484;7.0367;
582.0000;0.3516;7.0486;
582.3000;0.3508;7.0486;
582.6000;0.3516;7.0509;
582.9000;0.3508;7.0651;
583.2000;0.3533;7.0675;
583.5000;0.3516;7.0627;
583.8000;0.3525;7.0580;
584.1000;0.3508;7.0580;
584.4000;0.3516;7.0580;
584.7000;0.3525;7.0604;
585.0000;0.3533;7.0651;
585.3000;0.3508;7.0533;
585.6000;0.3516;7.0438;
585.9000;0.3516;7.0462;
586.2000;0.3476;7.0367;
586.5000;0.3516;7.0533;
586.8000;0.3598;7.0746;
587.1000;0.3508;7.0509;
587.4000;0.3525;7.0580;
587.7000;0.3516;7.0556;
588.0000;0.3630;7.1006;
588.3000;0.3549;7.0793;
588.6000;0.3508;7.0769;
588.9000;0.3573;7.0911;
589.2000;0.3533;7.0864;
589.5000;0.3500;7.0816;
589.8000;0.3508;7.0840;
590.1000;0.3557;7.1053;
590.4000;0.3508;7.0935;
590.7000;0.3516;7.0864;
591.0000;0.3606;7.1053;
591.3000;0.3443;7.0793;
591.6000;0.3500;7.0935;
591.9000;0.3500;7.0958;
592.2000;0.3525;7.1029;
592.5000;0.3516;7.0982;
592.8000;0.3565;7.1076;
593.1000;0.3508;7.0958;
593.4000;0.3525;7.0935;
593.7000;0.3508;7.0887;
594.0000;0.3476;7.0793;
594.3000;0.3508;7.0864;
594.6000;0.3508;7.1006;
594.9000;0.3557;7.1006;
595.2000;0.3492;7.0911;
595.5000;0.3516;7.0816;
595.8000;0.3525;7.0816;
596.1000;0.3557;7.0816;
596.4000;0.3590;7.0935;
596.7000;0.3541;7.0793;
597.0000;0.3468;7.0580;
597.3000;0.3525;7.0769;
597.6000;0.3484;7.0675;
597.9000;0.3500;7.0746;
598.2000;0.3468;7.0746;
598.5000;0.3500;7.0935;
598.8000;0.3541;7.1006;
599.1000;0.3573;7.1124;
599.4000;0.3516;7.0935;
599.7000;0.3508;7.0982;
600.0000;0.3516;7.0935;
600.3000;0.3484;7.0840;
600.6000;0.3476;7.0840;
600.9000;0.3484;7.0793;
601.2000;0.3492;7.0793;
601.5000;0.3460;7.0651;
601.8000;0.3525;7.0746;
602.1000;0.3427;7.0415;
602.4000;0.3419;7.0249;
602.7000;0.3411;7.0202;
603.0000;0.3394;7.0155;
603.3000;0.3394;7.0107;
603.6000;0.3362;7.0084;
603.9000;0.3362;6.9989;
604.2000;0.3346;6.9942;
604.5000;0.3329;6.9824;
604.8000;0.3321;6.9847;
605.1000;0.3297;6.9800;
605.4000;0.3297;6.9682;
605.7000;0.3280;6.9658;
606.0000;0.3248;6.9635;
606.3000;0.3264;6.9682;
606.6000;0.3280;6.9800;
606.9000;0.3264;6.9753;
607.2000;0.3248;6.9705;
607.5000;0.3264;6.9658;
607.8000;0.3223;6.9658;
608.1000;0.3215;6.9682;
608.4000;0.3232;6.9658;
608.7000;0.3215;6.9611;
609.0000;0.3215;6.9540;
609.3000;0.3223;6.9516;
609.6000;0.3215;6.9587;
609.9000;0.3272;6.9871;
610.2000;0.3183;6.9753;
610.5000;0.3191;6.9705;
610.8000;0.3069;6.9398;
611.1000;0.3175;6.9611;
611.4000;0.3199;6.9682;
611.7000;0.3166;6.9682;
612.0000;0.3175;6.9682;
612.3000;0.3166;6.9753;
612.6000;0.3166;6.9729;
612.9000;0.3134;6.9635;
613.2000;0.3142;6.9658;
613.5000;0.3158;6.9658;
613.8000;0.3158;6.9682;
614.1000;0.3264;6.9847;
614.4000;0.3142;6.9516;
614.7000;0.3118;6.9398;
615.0000;0.3150;6.9422;
615.3000;0.3142;6.9445;
615.6000;0.3118;6.9327;
615.9000;0.3109;6.9398;
616.2000;0.3101;6.9398;
616.5000;0.3118;6.9564;
616.8000;0.3142;6.9540;
617.1000;0.3109;6.9469;
617.4000;0.3069;6.9375;
617.7000;0.3118;6.9469;
618.0000;0.3126;6.9493;
618.3000;0.3077;6.9398;
618.6000;0.3069;6.9422;
618.9000;0.3093;6.9564;
619.2000;0.3101;6.9516;
619.5000;0.3077;6.9398;
619.8000;0.3044;6.9256;
620.1000;0.3093;6.9564;
620.4000;0.3069;6.9469;
620.7000;0.3077;6.9540;
621.0000;0.3061;6.9540;
621.3000;0.3061;6.9493;
621.6000;0.3142;6.9540;
621.9000;0.3077;6.9304;
622.2000;0.3044;6.9256;
622.5000;0.3077;6.9422;
622.8000;0.3093;6.9351;
623.1000;0.3069;6.9304;
623.4000;0.3061;6.9375;
623.7000;0.3069;6.9493;
624.0000;0.3069;6.9540;
624.3000;0.3077;6.9516;
624.6000;0.3069;6.9445;
624.9000;0.3028;6.9422;
625.2000;0.3044;6.9469;
625.5000;0.3069;6.9422;
625.8000;0.3093;6.9469;
626.1000;0.3036;6.9256;
626.4000;0.3044;6.9304;
626.7000;0.3053;6.9398;
627.0000;0.3036;6.9351;
627.3000;0.3028;6.9327;
627.6000;0.3028;6.9422;
627.9000;0.3036;6.9469;
628.2000;0.3053;6.9422;
628.5000;0.3036;6.9422;
628.8000;0.3077;6.9564;
629.1000;0.3036;6.9422;
629.4000;0.3028;6.9445;
629.7000;0.3020;6.9469;
630.0000;0.3134;6.9776;
630.3000;0.3134;6.9729;
630.6000;0.3044;6.9469;
630.9000;0.2996;6.9375;
631.2000;0.3020;6.9493;
631.5000;0.3036;6.9611;
631.8000;0.3012;6.9564;
632.1000;0.3012;6.9445;
632.4000;0.3004;6.9398;
632.7000;0.3004;6.9327;
633.0000;0.3020;6.9304;
633.3000;0.2996;6.9209;
633.6000;0.2979;6.9138;
633.9000;0.3012;6.9209;
634.2000;0.3012;6.9162;
634.5000;0.3061;6.9351;
634.8000;0.2996;6.9233;
635.1000;0.2987;6.9327;
635.4000;0.2987;6.9256;
635.7000;0.2963;6.9138;
636.0000;0.2963;6.9115;
636.3000;0.2987;6.9209;
636.6000;0.2922;6.9115;
636.9000;0.2987;6.9209;
637.2000;0.2955;6.9115;
637.5000;0.2987;6.9209;
637.8000;0.2971;6.9233;
638.1000;0.2979;6.9304;
638.4000;0.2996;6.9280;
638.7000;0.2979;6.9280;
639.0000;0.2947;6.9233;
639.3000;0.3012;6.9516;
639.6000;0.2996;6.9469;
639.9000;0.2922;6.9304;
640.2000;0.2906;6.9233;
640.5000;0.2979;6.9375;
640.8000;0.2947;6.9304;
641.1000;0.2955;6.9304;
641.4000;0.2971;6.9351;
641.7000;0.2955;6.9327;
642.0000;0.2963;6.9398;
642.3000;0.2996;6.9493;
642.6000;0.2947;6.9327;
642.9000;0.2947;6.9280;
643.2000;0.2979;6.9304;
643.5000;0.2906;6.9162;
643.8000;0.2955;6.9280;
644.1000;0.2939;6.9115;
644.4000;0.2955;6.9138;
644.7000;0.2947;6.9091;
645.0000;0.2963;6.9209;
645.3000;0.2939;6.9233;
645.6000;0.2922;6.9256;
645.9000;0.2922;6.9280;
646.2000;0.2947;6.9304;
646.5000;0.2930;6.9233;
646.8000;0.2947;6.9185;
647.1000;0.2939;6.9185;
647.4000;0.2947;6.9162;
647.7000;0.2930;6.9020;
648.0000;0.2939;6.9020;
648.3000;0.2947;6.9067;
648.6000;0.2987;6.9209;
648.9000;0.2898;6.9020;
649.2000;0.2947;6.9138;
649.5000;0.2947;6.9280;
649.8000;0.2939;6.9304;
650.1000;0.2930;6.9233;
650.4000;0.2930;6.9256;
650.7000;0.2914;6.9304;
651.0000;0.2939;6.9445;
651.3000;0.2914;6.9375;
651.6000;0.2922;6.9280;
651.9000;0.2947;6.9445;
652.2000;0.2914;6.9398;
652.5000;0.2906;6.9445;
652.8000;0.2922;6.9445;
653.1000;0.2882;6.9327;
653.4000;0.2922;6.9375;
653.7000;0.2890;6.9256;
654.0000;0.2906;6.9185;
654.3000;0.2906;6.9233;
654.6000;0.2914;6.9304;
654.9000;0.2898;6.9280;
655.2000;0.2906;6.9280;
655.5000;0.2898;6.9327;
655.8000;0.2898;6.9422;
656.1000;0.2873;6.9304;
656.4000;0.2906;6.9422;
656.7000;0.2898;6.9398;
657.0000;0.2898;6.9493;
657.3000;0.2873;6.9375;
657.6000;0.2865;6.9304;
657.9000;0.2882;6.9256;
658.2000;0.2890;6.9304;
658.5000;0.2890;6.9422;
658.8000;0.2882;6.9304;
659.1000;0.2873;6.9398;
659.4000;0.2865;6.9398;
659.7000;0.2882;6.9375;
660.0000;0.2865;6.9233;
660.3000;0.2939;6.9351;
660.6000;0.2890;6.9185;
660.9000;0.2939;6.9375;
661.2000;0.2882;6.9280;
661.5000;0.2873;6.9304;
661.8000;0.2873;6.9351;
662.1000;0.2882;6.9327;
662.4000;0.2841;6.9233;
662.7000;0.2873;6.9304;
663.0000;0.2882;6.9351;
663.3000;0.2890;6.9256;
663.6000;0.2898;6.9280;
663.9000;0.2890;6.9351;
664.2000;0.2873;6.9351;
664.5000;0.2890;6.9398;
664.8000;0.2865;6.9351;
665.1000;0.2873;6.9375;
665.4000;0.2865;6.9304;
665.7000;0.2882;6.9327;
666.0000;0.2873;6.9351;
666.3000;0.2808;6.9185;
666.6000;0.2857;6.9280;
666.9000;0.2841;6.9256;
667.2000;0.2857;6.9375;
667.5000;0.2849;6.9375;
667.8000;0.2857;6.9422;
668.1000;0.2857;6.9516;
668.4000;0.2914;6.9587;
668.7000;0.2873;6.9493;
669.0000;0.2841;6.9375;
669.3000;0.2841;6.9375;
669.6000;0.2841;6.9233;
669.9000;0.2849;6.9209;
670.2000;0.2873;6.9304;
670.5000;0.2849;6.9280;
670.8000;0.2800;6.9304;
671.1000;0.2865;6.9540;
671.4000;0.2873;6.9587;
671.7000;0.2833;6.9516;
672.0000;0.2792;6.9422;
672.3000;0.2857;6.9540;
672.6000;0.2849;6.9493;
672.9000;0.2841;6.9445;
673.2000;0.2857;6.9516;
673.5000;0.2841;6.9469;
673.8000;0.2833;6.9351;
674.1000;0.2792;6.9138;
674.4000;0.2841;6.9256;
674.7000;0.2849;6.9327;
675.0000;0.2857;6.9422;
675.3000;0.2849;6.9351;
675.6000;0.2825;6.9256;
675.9000;0.2833;6.9304;
676.2000;0.2873;6.9375;
676.5000;0.2825;6.9280;
676.8000;0.2800;6.9280;
677.1000;0.2816;6.9398;
677.4000;0.2816;6.9445;
677.7000;0.2841;6.9422;
678.0000;0.2816;6.9351;
678.3000;0.2849;6.9398;
678.6000;0.2792;6.9138;
678.9000;0.2849;6.9280;
679.2000;0.2849;6.9351;
679.5000;0.2816;6.9233;
679.8000;0.2833;6.9304;
680.1000;0.2833;6.9280;
680.4000;0.2808;6.9280;
680.7000;0.2825;6.9327;
681.0000;0.2816;6.9327;
681.3000;0.2792;6.9304;
681.6000;0.2849;6.9422;
681.9000;0.2800;6.9398;
682.2000;0.2800;6.9469;
682.5000;0.2816;6.9469;
682.8000;0.2841;6.9493;
683.1000;0.2841;6.9398;
683.4000;0.2800;6.9375;
683.7000;0.2808;6.9398;
684.0000;0.2816;6.9469;
684.3000;0.2792;6.9327;
684.6000;0.2800;6.9256;
684.9000;0.2825;6.9398;
685.2000;0.2792;6.9256;
685.5000;0.2800;6.9327;
685.8000;0.2833;6.9398;
686.1000;0.2792;6.9304;
686.4000;0.2825;6.9351;
686.7000;0.2735;6.9091;
687.0000;0.2808;6.9209;
687.3000;0.2825;6.9256;
687.6000;0.2841;6.9256;
687.9000;0.2808;6.9185;
688.2000;0.2890;6.9422;
688.5000;0.2800;6.9185;
688.8000;0.2857;6.9327;
689.1000;0.2800;6.9233;
689.4000;0.2784;6.9162;
689.7000;0.2792;6.9185;
690.0000;0.2808;6.9280;
690.3000;0.2784;6.9233;
690.6000;0.2784;6.9209;
690.9000;0.2792;6.9209;
691.2000;0.2759;6.9233;
691.5000;0.2800;6.9304;
691.8000;0.2784;6.9233;
692.1000;0.2784;6.9209;
692.4000;0.2816;6.9280;
692.7000;0.2800;6.9327;
693.0000;0.2792;6.9327;
693.3000;0.2800;6.9398;
693.6000;0.2800;6.9351;
693.9000;0.2784;6.9422;
694.2000;0.2768;6.9375;
694.5000;0.2808;6.9493;
694.8000;0.2768;6.9516;
695.1000;0.2776;6.9422;
695.4000;0.2808;6.9469;
695.7000;0.2719;6.9209;
696.0000;0.2759;6.9256;
696.3000;0.2792;6.9327;
696.6000;0.2808;6.9280;
696.9000;0.2784;6.9209;
697.2000;0.2768;6.9209;
697.5000;0.2784;6.9209;
697.8000;0.2784;6.9209;
698.1000;0.2800;6.9327;
698.4000;0.2776;6.9304;
698.7000;0.2800;6.9280;
699.0000;0.2792;6.9398;
699.3000;0.2784;6.9375;
699.6000;0.2776;6.9375;
699.9000;0.2784;6.9422;
700.2000;0.2800;6.9398;
700.5000;0.2784;6.9256;
700.8000;0.2719;6.9020;
701.1000;0.2792;6.9185;
701.4000;0.2768;6.9138;
701.7000;0.2727;6.9067;
702.0000;0.2776;6.9209;
702.3000;0.2759;6.9256;
702.6000;0.2759;6.9185;
702.9000;0.2776;6.9256;
703.2000;0.2825;6.9351;
703.5000;0.2784;6.9304;
703.8000;0.2784;6.9209;
704.1000;0.2849;6.9375;
704.4000;0.2800;6.9304;
704.7000;0.2735;6.9185;
705.0000;0.2784;6.9209;
705.3000;0.2768;6.9185;
705.6000;0.2768;6.9233;
705.9000;0.2808;6.9327;
706.2000;0.2776;6.9209;
706.5000;0.2751;6.9115;
706.8000;0.2784;6.9209;
707.1000;0.2816;6.9280;
707.4000;0.2751;6.9044;
707.7000;0.2768;6.9233;
708.0000;0.2776;6.9256;
708.3000;0.2768;6.9209;
708.6000;0.2743;6.9091;
708.9000;0.2719;6.9162;
709.2000;0.2751;6.9233;
709.5000;0.2792;6.9327;
709.8000;0.2727;6.9256;
710.1000;0.2743;6.9256;
710.4000;0.2776;6.9398;
710.7000;0.2751;6.9375;
711.0000;0.2743;6.9280;
711.3000;0.2743;6.9280;
711.6000;0.2678;6.9138;
711.9000;0.2735;6.9162;
712.2000;0.2759;6.9233;
712.5000;0.2743;6.9185;
712.8000;0.2759;6.9304;
713.1000;0.2751;6.9280;
713.4000;0.2702;6.9209;
713.7000;0.2759;6.9280;
714.0000;0.2743;6.9256;
714.3000;0.2727;6.9256;
714.6000;0.2751;6.9375;
714.9000;0.2735;6.9256;
715.2000;0.2727;6.9351;
715.5000;0.2776;6.9493;
715.8000;0.2751;6.9375;
716.1000;0.2751;6.9422;
716.4000;0.2743;6.9398;
716.7000;0.2751;6.9422;
717.0000;0.2719;6.9375;
717.3000;0.2735;6.9327;
717.6000;0.2727;6.9398;
717.9000;0.2727;6.9398;
718.2000;0.2743;6.9375;
718.5000;0.2751;6.9540;
718.8000;0.2711;6.9469;
719.1000;0.2694;6.9422;
719.4000;0.2743;6.9493;
719.7000;0.2727;6.9445;
720.0000;0.2686;6.9375;
720.3000;0.2727;6.9516;
720.6000;0.2751;6.9516;
720.9000;0.2711;6.9422;
721.2000;0.2719;6.9493;
721.5000;0.2727;6.9469;
721.8000;0.2751;6.9493;
722.1000;0.2735;6.9493;
722.4000;0.2816;6.9611;
722.7000;0.2727;6.9516;
723.0000;0.2784;6.9682;
723.3000;0.2678;6.9422;
723.6000;0.2727;6.9445;
723.9000;0.2686;6.9327;
724.2000;0.2727;6.9445;
724.5000;0.2727;6.9445;
724.8000;0.2759;6.9493;
725.1000;0.2694;6.9398;
725.4000;0.2743;6.9445;
725.7000;0.2743;6.9516;
726.0000;0.2719;6.9445;
726.3000;0.2702;6.9280;
726.6000;0.2727;6.9304;
726.9000;0.2727;6.9327;
727.2000;0.2719;6.9304;
727.5000;0.2694;6.9233;
727.8000;0.2735;6.9280;
728.1000;0.2735;6.9327;
728.4000;0.2743;6.9327;
728.7000;0.2751;6.9351;
729.0000;0.2735;6.9375;
729.3000;0.2727;6.9422;
729.6000;0.2735;6.9351;
729.9000;0.2678;6.9256;
730.2000;0.2702;6.9327;
730.5000;0.2694;6.9256;
730.8000;0.2792;6.9422;
731.1000;0.2768;6.9304;
731.4000;0.2719;6.9209;
731.7000;0.2711;6.9209;
732.0000;0.2727;6.9256;
732.3000;0.2694;6.9115;
732.6000;0.2711;6.9115;
732.9000;0.2719;6.9233;
733.2000;0.2735;6.9280;
733.5000;0.2727;6.9351;
733.8000;0.2735;6.9351;
734.1000;0.2727;6.9256;
734.4000;0.2711;6.9280;
734.7000;0.2711;6.9304;
735.0000;0.2702;6.9280;
735.3000;0.2702;6.9209;
735.6000;0.2727;6.9256;
735.9000;0.2719;6.9209;
736.2000;0.2654;6.9020;
736.5000;0.2694;6.9209;
736.8000;0.2694;6.9233;
737.1000;0.2702;6.9280;
737.4000;0.2719;6.9304;
737.7000;0.2711;6.9351;
738.0000;0.2719;6.9445;
738.3000;0.2727;6.9516;
738.6000;0.2711;6.9540;
738.9000;0.2719;6.9516;
739.2000;0.2702;6.9445;
739.5000;0.2719;6.9422;
739.8000;0.2694;6.9445;
740.1000;0.2694;6.9398;
740.4000;0.2702;6.9422;
740.7000;0.2711;6.9445;
741.0000;0.2702;6.9422;
741.3000;0.2727;6.9516;
741.6000;0.2719;6.9422;
741.9000;0.2694;6.9445;
742.2000;0.2702;6.9398;
742.5000;0.2719;6.9375;
742.8000;0.2670;6.9375;
743.1000;0.2694;6.9587;
743.4000;0.2678;6.9493;
743.7000;0.2702;6.9587;
744.0000;0.2662;6.9422;
744.3000;0.2711;6.9564;
744.6000;0.2686;6.9493;
744.9000;0.2702;6.9493;
745.2000;0.2711;6.9493;
745.5000;0.2711;6.9516;
745.8000;0.2662;6.9351;
746.1000;0.2694;6.9280;
746.4000;0.2743;6.9351;
746.7000;0.2694;6.9256;
747.0000;0.2727;6.9469;
747.3000;0.2702;6.9398;
747.6000;0.2670;6.9351;
747.9000;0.2711;6.9398;
748.2000;0.2719;6.9351;
748.5000;0.2694;6.9375;
748.8000;0.2702;6.9493;
749.1000;0.2686;6.9398;
749.4000;0.2686;6.9351;
749.7000;0.2702;6.9398;
750.0000;0.2686;6.9493;
750.3000;0.2646;6.9304;
750.6000;0.2686;6.9327;
750.9000;0.2694;6.9304;
751.2000;0.2686;6.9280;
751.5000;0.2702;6.9280;
751.8000;0.2686;6.9351;
752.1000;0.2694;6.9493;
752.4000;0.2711;6.9635;
752.7000;0.2702;6.9587;
753.0000;0.2694;6.9422;
753.3000;0.2637;6.9185;
753.6000;0.2711;6.9398;
753.9000;0.2694;6.9327;
754.2000;0.2702;6.9327;
754.5000;0.2686;6.9304;
754.8000;0.2646;6.9185;
755.1000;0.2694;6.9256;
755.4000;0.2686;6.9209;
755.7000;0.2678;6.9162;
756.0000;0.2694;6.9185;
756.3000;0.2678;6.9138;
756.6000;0.2678;6.9115;
756.9000;0.2711;6.9209;
757.2000;0.2678;6.9185;
757.5000;0.2694;6.9304;
757.8000;0.2686;6.9327;
758.1000;0.2670;6.9304;
758.4000;0.2678;6.9375;
758.7000;0.2702;6.9422;
759.0000;0.2686;6.9280;
759.3000;0.2711;6.9256;
759.6000;0.2678;6.9115;
759.9000;0.2694;6.9185;
760.2000;0.2662;6.9138;
760.5000;0.2678;6.9304;
760.8000;0.2670;6.9327;
761.1000;0.2670;6.9256;
761.4000;0.2694;6.9280;
761.7000;0.2678;6.9280;
762.0000;0.2711;6.9304;
762.3000;0.2678;6.9233;
762.6000;0.2686;6.9162;
762.9000;0.2694;6.9067;
763.2000;0.2670;6.9044;
763.5000;0.2702;6.9280;
763.8000;0.2662;6.9209;
764.1000;0.2670;6.9138;
764.4000;0.2662;6.9115;
764.7000;0.2678;6.9091;
765.0000;0.2662;6.9091;
765.3000;0.2686;6.9185;
765.6000;0.2694;6.9280;
765.9000;0.2662;6.9138;
766.2000;0.2662;6.9091;
766.5000;0.2670;6.9044;
766.8000;0.2678;6.9115;
767.1000;0.2711;6.9185;
767.4000;0.2662;6.9067;
767.7000;0.2702;6.9280;
768.0000;0.2507;6.8925;
768.3000;0.2629;6.9209;
768.6000;0.2646;6.9185;
768.9000;0.2686;6.9280;
769.2000;0.2702;6.9327;
769.5000;0.2637;6.9162;
769.8000;0.2678;6.9209;
770.1000;0.2678;6.9209;
770.4000;0.2694;6.9304;
770.7000;0.2670;6.9304;
771.0000;0.2589;6.9091;
771.3000;0.2654;6.9185;
771.6000;0.2670;6.9185;
771.9000;0.2646;6.9115;
772.2000;0.2662;6.9138;
772.5000;0.2751;6.9398;
772.8000;0.2678;6.9375;
773.1000;0.2670;6.9327;
773.4000;0.2751;6.9540;
773.7000;0.2670;6.9375;
774.0000;0.2670;6.9398;
774.3000;0.2662;6.9422;
774.6000;0.2621;6.9233;
774.9000;0.2654;6.9138;
775.2000;0.2678;6.9185;
775.5000;0.2678;6.9209;
775.8000;0.2637;6.9138;
776.1000;0.2670;6.9209;
776.4000;0.2670;6.9209;
776.7000;0.2670;6.9256;
777.0000;0.2670;6.9327;
777.3000;0.2540;6.9091;
777.6000;0.2662;6.9422;
777.9000;0.2654;6.9327;
778.2000;0.2662;6.9304;
778.5000;0.2646;6.9256;
778.8000;0.2670;6.9327;
779.1000;0.2654;6.9327;
779.4000;0.2662;6.9304;
779.7000;0.2670;6.9280;
780.0000;0.2662;6.9256;
780.3000;0.2646;6.9185;
780.6000;0.2662;6.9375;
780.9000;0.2654;6.9256;
781.2000;0.2646;6.9327;
781.5000;0.2654;6.9351;
781.8000;0.2621;6.9280;
782.1000;0.2646;6.9398;
782.4000;0.2646;6.9445;
782.7000;0.2637;6.9375;
783.0000;0.2646;6.9422;
783.3000;0.2637;6.9280;
783.6000;0.2646;6.9233;
783.9000;0.2621;6.9067;
784.2000;0.2654;6.9185;
784.5000;0.2646;6.9185;
784.8000;0.2654;6.9115;
785.1000;0.2646;6.9138;
785.4000;0.2662;6.9209;
785.7000;0.2637;6.9162;
786.0000;0.2637;6.9209;
786.3000;0.2702;6.9398;
786.6000;0.2646;6.9280;
786.9000;0.2646;6.9398;
787.2000;0.2654;6.9469;
787.5000;0.2637;6.9398;
787.8000;0.2662;6.9493;
788.1000;0.2654;6.9493;
788.4000;0.2605;6.9469;
788.7000;0.2654;6.9587;
789.0000;0.2646;6.9564;
789.3000;0.2637;6.9422;
789.6000;0.2629;6.9398;
789.9000;0.2662;6.9493;
790.2000;0.2637;6.9493;
790.5000;0.2646;6.9540;
790.8000;0.2662;6.9516;
791.1000;0.2629;6.9445;
791.4000;0.2686;6.9587;
791.7000;0.2646;6.9493;
792.0000;0.2686;6.9516;
792.3000;0.2564;6.9162;
792.6000;0.2629;6.9375;
792.9000;0.2646;6.9375;
793.2000;0.2646;6.9398;
793.5000;0.2629;6.9351;
793.8000;0.2629;6.9304;
794.1000;0.2613;6.9327;
794.4000;0.2613;6.9327;
794.7000;0.2629;6.9375;
795.0000;0.2629;6.9351;
795.3000;0.2621;6.9351;
795.6000;0.2637;6.9422;
795.9000;0.2613;6.9351;
796.2000;0.2621;6.9445;
796.5000;0.2629;6.9422;
796.8000;0.2637;6.9398;
797.1000;0.2580;6.9351;
797.4000;0.2637;6.9422;
797.7000;0.2637;6.9445;
798.0000;0.2564;6.9280;
798.3000;0.2743;6.9753;
798.6000;0.2637;6.9445;
798.9000;0.2621;6.9398;
799.2000;0.2662;6.9469;
799.5000;0.2662;6.9422;
799.8000;0.2662;6.9398;
800.1000;0.2613;6.9304;
800.4000;0.2621;6.9375;
800.7000;0.2646;6.9422;
801.0000;0.2637;6.9304;
801.3000;0.2597;6.9138;
801.6000;0.2613;6.9185;
801.9000;0.2662;6.9256;
802.2000;0.2637;6.9209;
802.5000;0.2637;6.9138;
802.8000;0.2613;6.9138;
803.1000;0.2629;6.9233;
803.4000;0.2621;6.9209;
803.7000;0.2597;6.9138;
804.0000;0.2605;6.9162;
804.3000;0.2597;6.9138;
804.6000;0.2662;6.9304;
804.9000;0.2629;6.9209;
805.2000;0.2646;6.9280;
805.5000;0.2621;6.9233;
805.8000;0.2621;6.9304;
806.1000;0.2629;6.9445;
806.4000;0.2613;6.9375;
806.7000;0.2621;6.9445;
807.0000;0.2646;6.9587;
807.3000;0.2613;6.9540;
807.6000;0.2621;6.9469;
807.9000;0.2580;6.9351;
808.2000;0.2605;6.9398;
808.5000;0.2613;6.9493;
808.8000;0.2646;6.9540;
809.1000;0.2637;6.9493;
809.4000;0.2621;6.9422;
809.7000;0.2646;6.9469;
810.0000;0.2646;6.9469;
810.3000;0.2621;6.9351;
810.6000;0.2621;6.9233;
810.9000;0.2629;6.9233;
811.2000;0.2621;6.9233;
811.5000;0.2613;6.9280;
811.8000;0.2589;6.9185;
812.1000;0.2637;6.9327;
812.4000;0.2637;6.9304;
812.7000;0.2654;6.9445;
813.0000;0.2694;6.9611;
813.3000;0.2589;6.9375;
813.6000;0.2646;6.9540;
813.9000;0.2605;6.9611;
814.2000;0.2613;6.9658;
814.5000;0.2662;6.9658;
814.8000;0.2589;6.9493;
815.1000;0.2613;6.9445;
815.4000;0.2613;6.9469;
815.7000;0.2556;6.9375;
816.0000;0.2556;6.9327;
816.3000;0.2589;6.9422;
816.6000;0.2564;6.9375;
816.9000;0.2621;6.9445;
817.2000;0.2613;6.9375;
817.5000;0.2605;6.9422;
817.8000;0.2597;6.9422;
818.1000;0.2613;6.9493;
818.4000;0.2621;6.9469;
818.7000;0.2613;6.9445;
819.0000;0.2597;6.9375;
819.3000;0.2637;6.9375;
819.6000;0.2621;6.9422;
819.9000;0.2556;6.9327;
820.2000;0.2589;6.9375;
820.5000;0.2613;6.9469;
820.8000;0.2637;6.9422;
821.1000;0.2597;6.9280;
821.4000;0.2613;6.9375;
821.7000;0.2629;6.9375;
822.0000;0.2564;6.9280;
822.3000;0.2580;6.9493;
822.6000;0.2613;6.9516;
822.9000;0.2637;6.9587;
823.2000;0.2548;6.9280;
823.5000;0.2613;6.9445;
823.8000;0.2597;6.9398;
824.1000;0.2654;6.9493;
824.4000;0.2597;6.9375;
824.7000;0.2605;6.9398;
825.0000;0.2694;6.9587;
825.3000;0.2621;6.9375;
825.6000;0.2629;6.9469;
825.9000;0.2613;6.9398;
826.2000;0.2613;6.9469;
826.5000;0.2613;6.9587;
826.8000;0.2621;6.9564;
827.1000;0.2719;6.9847;
827.4000;0.2605;6.9564;
827.7000;0.2605;6.9516;
828.0000;0.2580;6.9516;
828.3000;0.2580;6.9398;
828.6000;0.2589;6.9469;
828.9000;0.2597;6.9469;
829.2000;0.2621;6.9422;
829.5000;0.2589;6.9398;
829.8000;0.2605;6.9445;
830.1000;0.2613;6.9351;
830.4000;0.2613;6.9304;
830.7000;0.2613;6.9351;
831.0000;0.2621;6.9469;
831.3000;0.2605;6.9398;
831.6000;0.2605;6.9493;
831.9000;0.2621;6.9564;
832.2000;0.2580;6.9540;
832.5000;0.2597;6.9564;
832.8000;0.2580;6.9587;
833.1000;0.2613;6.9611;
833.4000;0.2515;6.9304;
833.7000;0.2548;6.9375;
834.0000;0.2597;6.9587;
834.3000;0.2580;6.9516;
834.6000;0.2597;6.9516;
834.9000;0.2613;6.9540;
835.2000;0.2629;6.9611;
835.5000;0.2605;6.9564;
835.8000;0.2621;6.9682;
836.1000;0.2605;6.9587;
836.4000;0.2613;6.9611;
836.7000;0.2540;6.9327;
837.0000;0.2670;6.9611;
837.3000;0.2629;6.9469;
837.6000;0.2629;6.9469;
837.9000;0.2507;6.9256;
838.2000;0.2483;6.9304;
838.5000;0.2556;6.9516;
838.8000;0.2556;6.9516;
839.1000;0.2572;6.9564;
839.4000;0.2507;6.9422;
839.7000;0.2580;6.9587;
840.0000;0.2629;6.9658;
840.3000;0.2580;6.9398;
840.6000;0.2589;6.9469;
840.9000;0.2580;6.9445;
841.2000;0.2580;6.9422;
841.5000;0.2613;6.9682;
841.8000;0.2589;6.9587;
842.1000;0.2589;6.9516;
842.4000;0.2589;6.9493;
842.7000;0.2605;6.9540;
843.0000;0.2589;6.9516;
843.3000;0.2589;6.9493;
843.6000;0.2572;6.9375;
843.9000;0.2580;6.9422;
844.2000;0.2540;6.9351;
844.5000;0.2572;6.9422;
844.8000;0.2605;6.9516;
845.1000;0.2597;6.9587;
845.4000;0.2580;6.9540;
845.7000;0.2564;6.9564;
846.0000;0.2572;6.9516;
846.3000;0.2597;6.9587;
846.6000;0.2597;6.9564;
846.9000;0.2589;6.9540;
847.2000;0.2556;6.9469;
847.5000;0.2589;6.9564;
847.8000;0.2597;6.9564;
848.1000;0.2662;6.9658;
848.4000;0.2556;6.9469;
848.7000;0.2589;6.9587;
849.0000;0.2580;6.9540;
849.3000;0.2572;6.9564;
849.6000;0.2572;6.9493;
849.9000;0.2597;6.9516;
850.2000;0.2556;6.9445;
850.5000;0.2589;6.9493;
850.8000;0.2589;6.9540;
851.1000;0.2580;6.9635;
851.4000;0.2572;6.9611;
851.7000;0.2597;6.9635;
852.0000;0.2597;6.9658;
852.3000;0.2597;6.9587;
852.6000;0.2589;6.9540;
852.9000;0.2580;6.9469;
853.2000;0.2589;6.9469;
853.5000;0.2580;6.9422;
853.8000;0.2580;6.9375;
854.1000;0.2564;6.9351;
854.4000;0.2605;6.9422;
854.7000;0.2597;6.9422;
855.0000;0.2572;6.9445;
855.3000;0.2597;6.9564;
855.6000;0.2564;6.9587;
855.9000;0.2572;6.9635;
856.2000;0.2564;6.9587;
856.5000;0.2572;6.9611;
856.8000;0.2637;6.9753;
857.1000;0.2556;6.9564;
857.4000;0.2556;6.9493;
857.7000;0.2597;6.9611;
858.0000;0.2605;6.9705;
858.3000;0.2613;6.9753;
858.6000;0.2564;6.9635;
858.9000;0.2548;6.9564;
859.2000;0.2580;6.9540;
859.5000;0.2589;6.9564;
859.8000;0.2670;6.9753;
860.1000;0.2564;6.9493;
860.4000;0.2564;6.9516;
860.7000;0.2589;6.9540;
861.0000;0.2572;6.9516;
861.3000;0.2580;6.9587;
861.6000;0.2613;6.9705;
861.9000;0.2564;6.9540;
862.2000;0.2646;6.9682;
862.5000;0.2597;6.9564;
862.8000;0.2646;6.9682;
863.1000;0.2564;6.9564;
863.4000;0.2548;6.9540;
863.7000;0.2540;6.9611;
864.0000;0.2589;6.9611;
864.3000;0.2572;6.9635;
864.6000;0.2564;6.9611;
864.9000;0.2548;6.9540;
865.2000;0.2589;6.9516;
865.5000;0.2572;6.9493;
865.8000;0.2646;6.9682;
866.1000;0.2597;6.9540;
866.4000;0.2564;6.9540;
866.7000;0.2564;6.9564;
867.0000;0.2662;6.9800;
867.3000;0.2589;6.9682;
867.6000;0.2572;6.9658;
867.9000;0.2564;6.9658;
868.2000;0.2564;6.9658;
868.5000;0.2572;6.9611;
868.8000;0.2572;6.9611;
869.1000;0.2564;6.9658;
869.4000;0.2589;6.9753;
869.7000;0.2580;6.9753;
870.0000;0.2572;6.9635;
870.3000;0.2564;6.9729;
870.6000;0.2572;6.9800;
870.9000;0.2564;6.9800;
871.2000;0.2556;6.9729;
871.5000;0.2564;6.9635;
871.8000;0.2548;6.9635;
872.1000;0.2580;6.9729;
872.4000;0.2540;6.9658;
872.7000;0.2532;6.9611;
873.0000;0.2540;6.9635;
873.3000;0.2580;6.9658;
873.6000;0.2548;6.9611;
873.9000;0.2572;6.9753;
874.2000;0.2532;6.9705;
874.5000;0.2556;6.9635;
874.8000;0.2556;6.9658;
875.1000;0.2637;6.9824;
875.4000;0.2499;6.9445;
875.7000;0.2556;6.9564;
876.0000;0.2572;6.9611;
876.3000;0.2548;6.9493;
876.6000;0.2564;6.9422;
876.9000;0.2564;6.9422;
877.2000;0.2613;6.9587;
877.5000;0.2564;6.9422;
877.8000;0.2572;6.9469;
878.1000;0.2548;6.9564;
878.4000;0.2548;6.9587;
878.7000;0.2621;6.9800;
879.0000;0.2572;6.9658;
879.3000;0.2556;6.9635;
879.6000;0.2572;6.9658;
879.9000;0.2572;6.9469;
880.2000;0.2548;6.9375;
880.5000;0.2572;6.9327;
880.8000;0.2564;6.9304;
881.1000;0.2580;6.9422;
881.4000;0.2572;6.9445;
881.7000;0.2564;6.9469;
882.0000;0.2532;6.9351;
882.3000;0.2548;6.9351;
882.6000;0.2548;6.9422;
882.9000;0.2548;6.9422;
883.2000;0.2580;6.9516;
883.5000;0.2548;6.9398;
883.8000;0.2580;6.9469;
884.1000;0.2523;6.9233;
884.4000;0.2540;6.9233;
884.7000;0.2564;6.9327;
885.0000;0.2515;6.9280;
885.3000;0.2548;6.9375;
885.6000;0.2540;6.9398;
885.9000;0.2564;6.9375;
886.2000;0.2466;6.9115;
886.5000;0.2523;6.9375;
886.8000;0.2540;6.9375;
887.1000;0.2532;6.9516;
887.4000;0.2548;6.9540;
887.7000;0.2532;6.9469;
888.0000;0.2532;6.9493;
888.3000;0.2556;6.9564;
888.6000;0.2556;6.9540;
888.9000;0.2556;6.9587;
889.2000;0.2572;6.9753;
889.5000;0.2540;6.9776;
889.8000;0.2572;6.9800;
890.1000;0.2605;6.9824;
890.4000;0.2556;6.9753;
890.7000;0.2523;6.9705;
891.0000;0.2580;6.9800;
891.3000;0.2532;6.9611;
891.6000;0.2532;6.9611;
891.9000;0.2540;6.9705;
892.2000;0.2540;6.9682;
892.5000;0.2540;6.9729;
892.8000;0.2540;6.9753;
893.1000;0.2540;6.9753;
893.4000;0.2564;6.9729;
893.7000;0.2556;6.9682;
894.0000;0.2540;6.9705;
894.3000;0.2548;6.9635;
894.6000;0.2532;6.9540;
894.9000;0.2507;6.9516;
895.2000;0.2532;6.9493;
895.5000;0.2548;6.9493;
895.8000;0.2548;6.9469;
896.1000;0.2548;6.9445;
896.4000;0.2548;6.9422;
896.7000;0.2540;6.9516;
897.0000;0.2532;6.9493;
897.3000;0.2556;6.9658;
897.6000;0.2540;6.9587;
897.9000;0.2540;6.9540;
898.2000;0.2466;6.9469;
898.5000;0.2523;6.9635;
898.8000;0.2580;6.9682;
899.1000;0.2507;6.9469;
899.4000;0.2540;6.9445;
899.7000;0.2523;6.9351;
900.0000;0.2515;6.9422;
900.3000;0.2564;6.9611;
900.6000;0.2556;6.9611;
900.9000;0.2532;6.9540;
901.2000;0.2491;6.9375;
901.5000;0.2548;6.9469;
901.8000;0.2540;6.9445;
902.1000;0.2540;6.9398;
902.4000;0.2548;6.9398;
902.7000;0.2532;6.9469;
903.0000;0.2556;6.9493;
903.3000;0.2523;6.9587;
903.6000;0.2540;6.9587;
903.9000;0.2540;6.9540;
904.2000;0.2548;6.9635;
904.5000;0.2540;6.9540;
904.8000;0.2523;6.9516;
905.1000;0.2564;6.9635;
905.4000;0.2548;6.9611;
905.7000;0.2532;6.9729;
906.0000;0.2532;6.9753;
906.3000;0.2515;6.9635;
906.6000;0.2540;6.9705;
906.9000;0.2532;6.9564;
907.2000;0.2507;6.9540;
907.5000;0.2523;6.9564;
907.8000;0.2532;6.9540;
908.1000;0.2507;6.9469;
908.4000;0.2507;6.9445;
908.7000;0.2540;6.9493;
909.0000;0.2458;6.9256;
909.3000;0.2540;6.9422;
909.6000;0.2515;6.9469;
909.9000;0.2515;6.9516;
910.2000;0.2523;6.9493;
910.5000;0.2532;6.9469;
910.8000;0.2532;6.9351;
911.1000;0.2523;6.9422;
911.4000;0.2572;6.9540;
911.7000;0.2540;6.9398;
912.0000;0.2564;6.9445;
912.3000;0.2548;6.9445;
912.6000;0.2540;6.9469;
912.9000;0.2523;6.9540;
913.2000;0.2532;6.9564;
913.5000;0.2540;6.9493;
913.8000;0.2532;6.9540;
914.1000;0.2654;6.9918;
914.4000;0.2540;6.9587;
914.7000;0.2532;6.9493;
915.0000;0.2548;6.9587;
915.3000;0.2556;6.9564;
915.6000;0.2548;6.9516;
915.9000;0.2589;6.9611;
916.2000;0.2442;6.9209;
916.5000;0.2532;6.9516;
916.8000;0.2532;6.9469;
917.1000;0.2515;6.9375;
917.4000;0.2515;6.9445;
917.7000;0.2523;6.9493;
918.0000;0.2523;6.9493;
918.3000;0.2499;6.9422;
918.6000;0.2515;6.9398;
918.9000;0.2515;6.9422;
919.2000;0.2442;6.9256;
919.5000;0.2515;6.9469;
919.8000;0.2532;6.9564;
920.1000;0.2515;6.9540;
920.4000;0.2491;6.9493;
920.7000;0.2540;6.9587;
921.0000;0.2556;6.9587;
921.3000;0.2523;6.9422;
921.6000;0.2491;6.9375;
921.9000;0.2532;6.9493;
922.2000;0.2515;6.9422;
922.5000;0.2507;6.9516;
922.8000;0.2507;6.9587;
923.1000;0.2523;6.9705;
923.4000;0.2515;6.9705;
923.7000;0.2523;6.9682;
924.0000;0.2515;6.9635;
924.3000;0.2507;6.9516;
924.6000;0.2507;6.9445;
924.9000;0.2532;6.9564;
925.2000;0.2532;6.9611;
925.5000;0.2540;6.9729;
925.8000;0.2540;6.9776;
926.1000;0.2532;6.9753;
926.4000;0.2515;6.9682;
926.7000;0.2523;6.9729;
927.0000;0.2515;6.9658;
927.3000;0.2532;6.9635;
927.6000;0.2515;6.9564;
927.9000;0.2548;6.9611;
928.2000;0.2523;6.9729;
928.5000;0.2491;6.9729;
928.8000;0.2466;6.9682;
929.1000;0.2507;6.9658;
929.4000;0.2523;6.9776;
929.7000;0.2507;6.9705;
930.0000;0.2580;6.9776;
930.3000;0.2450;6.9445;
930.6000;0.2499;6.9635;
930.9000;0.2532;6.9729;
931.2000;0.2507;6.9729;
931.5000;0.2515;6.9729;
931.8000;0.2499;6.9729;
932.1000;0.2483;6.9682;
932.4000;0.2515;6.9658;
932.7000;0.2507;6.9705;
933.0000;0.2540;6.9800;
933.3000;0.2523;6.9682;
933.6000;0.2507;6.9611;
933.9000;0.2483;6.9564;
934.2000;0.2499;6.9516;
934.5000;0.2523;6.9611;
934.8000;0.2483;6.9564;
935.1000;0.2532;6.9611;
935.4000;0.2499;6.9469;
935.7000;0.2499;6.9493;
936.0000;0.2548;6.9611;
936.3000;0.2507;6.9635;
936.6000;0.2499;6.9682;
936.9000;0.2466;6.9682;
937.2000;0.2466;6.9587;
937.5000;0.2515;6.9753;
937.8000;0.2491;6.9682;
938.1000;0.2548;6.9753;
938.4000;0.2507;6.9635;
938.7000;0.2523;6.9564;
939.0000;0.2507;6.9611;
939.3000;0.2523;6.9611;
939.6000;0.2548;6.9682;
939.9000;0.2507;6.9564;
940.2000;0.2507;6.9587;
940.5000;0.2515;6.9658;
940.8000;0.2532;6.9776;
941.1000;0.2475;6.9682;
941.4000;0.2483;6.9658;
941.7000;0.2507;6.9658;
942.0000;0.2491;6.9682;
942.3000;0.2507;6.9682;
942.6000;0.2491;6.9658;
942.9000;0.2483;6.9658;
943.2000;0.2507;6.9705;
943.5000;0.2491;6.9635;
943.8000;0.2507;6.9705;
944.1000;0.2507;6.9729;
944.4000;0.2507;6.9824;
944.7000;0.2556;6.9966;
945.0000;0.2499;6.9824;
945.3000;0.2491;6.9776;
945.6000;0.2499;6.9658;
945.9000;0.2523;6.9682;
946.2000;0.2523;6.9540;
946.5000;0.2499;6.9516;
946.8000;0.2507;6.9469;
947.1000;0.2491;6.9493;
947.4000;0.2442;6.9375;
947.7000;0.2507;6.9469;
948.0000;0.2507;6.9493;
948.3000;0.2564;6.9729;
948.6000;0.2515;6.9729;
948.9000;0.2491;6.9776;
949.2000;0.2515;6.9753;
949.5000;0.2499;6.9729;
949.8000;0.2515;6.9753;
950.1000;0.2515;6.9776;
950.4000;0.2499;6.9705;
950.7000;0.2515;6.9729;
951.0000;0.2532;6.9729;
951.3000;0.2523;6.9776;
951.6000;0.2483;6.9611;
951.9000;0.2483;6.9705;
952.2000;0.2523;6.9776;
952.5000;0.2507;6.9658;
952.8000;0.2450;6.9540;
953.1000;0.2548;6.9847;
953.4000;0.2499;6.9682;
953.7000;0.2499;6.9611;
954.0000;0.2466;6.9682;
954.3000;0.2491;6.9658;
954.6000;0.2491;6.9611;
954.9000;0.2491;6.9635;
955.2000;0.2499;6.9705;
955.5000;0.2434;6.9587;
955.8000;0.2458;6.9611;
956.1000;0.2475;6.9753;
956.4000;0.2499;6.9800;
956.7000;0.2491;6.9729;
957.0000;0.2572;6.9942;
957.3000;0.2499;6.9800;
957.6000;0.2507;6.9847;
957.9000;0.2483;6.9824;
958.2000;0.2499;6.9824;
958.5000;0.2515;6.9847;
958.8000;0.2466;6.9800;
959.1000;0.2458;6.9871;
959.4000;0.2491;7.0013;
959.7000;0.2499;6.9966;
960.0000;0.2523;7.0013;
960.3000;0.2515;6.9989;
960.6000;0.2507;6.9895;
960.9000;0.2499;6.9871;
961.2000;0.2491;6.9800;
961.5000;0.2515;6.9824;
961.8000;0.2507;6.9729;
962.1000;0.2540;6.9776;
962.4000;0.2499;6.9658;
962.7000;0.2499;6.9753;
963.0000;0.2491;6.9705;
963.3000;0.2483;6.9658;
963.6000;0.2475;6.9682;
963.9000;0.2491;6.9658;
964.2000;0.2475;6.9635;
964.5000;0.2491;6.9776;
964.8000;0.2491;6.9847;
965.1000;0.2499;6.9871;
965.4000;0.2483;6.9871;
965.7000;0.2475;6.9824;
966.0000;0.2491;6.9776;
966.3000;0.2515;6.9776;
966.6000;0.2491;6.9753;
966.9000;0.2499;6.9776;
967.2000;0.2418;6.9705;
967.5000;0.2499;6.9824;
967.8000;0.2491;6.9729;
968.1000;0.2507;6.9776;
968.4000;0.2499;6.9776;
968.7000;0.2499;6.9753;
969.0000;0.2483;6.9753;
969.3000;0.2580;6.9942;
969.6000;0.2499;6.9753;
969.9000;0.2491;6.9753;
970.2000;0.2491;6.9705;
970.5000;0.2491;6.9705;
970.8000;0.2483;6.9776;
971.1000;0.2458;6.9753;
971.4000;0.2466;6.9800;
971.7000;0.2475;6.9800;
972.0000;0.2499;6.9776;
972.3000;0.2540;6.9918;
972.6000;0.2475;6.9776;
972.9000;0.2507;6.9942;
973.2000;0.2523;7.0060;
973.5000;0.2491;6.9895;
973.8000;0.2483;6.9895;
974.1000;0.2466;6.9847;
974.4000;0.2515;6.9966;
974.7000;0.2475;6.9989;
975.0000;0.2515;7.0013;
975.3000;0.2491;6.9895;
975.6000;0.2491;6.9847;
975.9000;0.2475;6.9824;
976.2000;0.2483;6.9776;
976.5000;0.2483;6.9776;
976.8000;0.2426;6.9682;
977.1000;0.2532;6.9966;
977.4000;0.2540;6.9966;
977.7000;0.2507;6.9871;
978.0000;0.2475;6.9824;
978.3000;0.2540;7.0013;
978.6000;0.2466;6.9942;
978.9000;0.2475;6.9918;
979.2000;0.2499;6.9966;
979.5000;0.2475;6.9800;
979.8000;0.2466;6.9895;
980.1000;0.2499;7.0036;
980.4000;0.2491;6.9847;
980.7000;0.2491;6.9824;
981.0000;0.2475;6.9729;
981.3000;0.2466;6.9635;
981.6000;0.2475;6.9658;
981.9000;0.2483;6.9658;
982.2000;0.2475;6.9753;
982.5000;0.2491;6.9776;
982.8000;0.2507;6.9800;
983.1000;0.2466;6.9729;
983.4000;0.2475;6.9776;
983.7000;0.2466;6.9824;
984.0000;0.2483;6.9942;
984.3000;0.2507;6.9895;
984.6000;0.2475;6.9753;
984.9000;0.2475;6.9776;
985.2000;0.2483;6.9753;
985.5000;0.2475;6.9753;
985.8000;0.2475;6.9776;
986.1000;0.2385;6.9587;
986.4000;0.2491;6.9942;
986.7000;0.2491;6.9847;
987.0000;0.2483;6.9753;
987.3000;0.2483;6.9776;
987.6000;0.2475;6.9753;
987.9000;0.2483;6.9753;
988.2000;0.2466;6.9753;
988.5000;0.2483;6.9729;
988.8000;0.2466;6.9635;
989.1000;0.2393;6.9516;
989.4000;0.2466;6.9800;
989.7000;0.2458;6.9776;
990.0000;0.2483;6.9918;
990.3000;0.2499;7.0013;
990.6000;0.2491;7.0036;
990.9000;0.2450;6.9966;
991.2000;0.2483;7.0060;
991.5000;0.2483;7.0178;
991.8000;0.2483;7.0131;
992.1000;0.2483;7.0060;
992.4000;0.2458;6.9918;
992.7000;0.2475;6.9847;
993.0000;0.2483;6.9847;
993.3000;0.2450;6.9800;
993.6000;0.2466;6.9800;
993.9000;0.2475;6.9800;
994.2000;0.2442;6.9658;
994.5000;0.2483;6.9729;
994.8000;0.2475;6.9611;
995.1000;0.2491;6.9753;
995.4000;0.2491;6.9682;
995.7000;0.2466;6.9658;
996.0000;0.2450;6.9540;
996.3000;0.2458;6.9493;
996.6000;0.2483;6.9540;
996.9000;0.2491;6.9611;
997.2000;0.2466;6.9540;
997.5000;0.2475;6.9587;
997.8000;0.2499;6.9682;
998.1000;0.2466;6.9398;
998.4000;0.2483;6.9469;
998.7000;0.2393;6.9398;
999.0000;0.2458;6.9611;
999.3000;0.2434;6.9587;
999.6000;0.2458;6.9587;
999.9000;0.2369;6.9493;
1000.2000;0.2499;6.9871;
1000.5000;0.2458;6.9753;
1000.8000;0.2401;6.9635;
1001.1000;0.2450;6.9847;
1001.4000;0.2475;6.9989;
1001.7000;0.2475;6.9942;
1002.0000;0.2466;6.9847;
1002.3000;0.2450;6.9776;
1002.6000;0.2475;6.9824;
1002.9000;0.2475;6.9895;
1003.2000;0.2458;6.9824;
1003.5000;0.2475;6.9847;
1003.8000;0.2442;6.9800;
1004.1000;0.2466;6.9942;
1004.4000;0.2450;6.9871;
1004.7000;0.2458;6.9800;
1005.0000;0.2442;6.9705;
1005.3000;0.2458;6.9776;
1005.6000;0.2458;6.9682;
1005.9000;0.2466;6.9611;
1006.2000;0.2450;6.9540;
1006.5000;0.2466;6.9611;
1006.8000;0.2450;6.9682;
1007.1000;0.2491;6.9705;
1007.4000;0.2458;6.9516;
1007.7000;0.2458;6.9516;
1008.0000;0.2458;6.9587;
1008.3000;0.2458;6.9564;
1008.6000;0.2458;6.9587;
1008.9000;0.2466;6.9705;
1009.2000;0.2499;6.9847;
1009.5000;0.2475;6.9658;
1009.8000;0.2466;6.9564;
1010.1000;0.2434;6.9445;
1010.4000;0.2442;6.9540;
1010.7000;0.2515;6.9658;
1011.0000;0.2458;6.9516;
1011.3000;0.2466;6.9516;
1011.6000;0.2450;6.9540;
1011.9000;0.2442;6.9587;
1012.2000;0.2483;6.9682;
1012.5000;0.2458;6.9705;
1012.8000;0.2442;6.9682;
1013.1000;0.2458;6.9682;
1013.4000;0.2483;6.9753;
1013.7000;0.2442;6.9658;
1014.0000;0.2442;6.9658;
1014.3000;0.2450;6.9776;
1014.6000;0.2475;6.9824;
1014.9000;0.2426;6.9824;
1015.2000;0.2458;6.9895;
1015.5000;0.2466;6.9942;
1015.8000;0.2458;6.9989;
1016.1000;0.2507;7.0084;
1016.4000;0.2458;6.9895;
1016.7000;0.2426;6.9705;
1017.0000;0.2475;6.9800;
1017.3000;0.2401;6.9705;
1017.6000;0.2450;6.9847;
1017.9000;0.2442;6.9824;
1018.2000;0.2466;6.9847;
1018.5000;0.2418;6.9729;
1018.8000;0.2377;6.9635;
1019.1000;0.2491;6.9918;
1019.4000;0.2450;6.9729;
1019.7000;0.2442;6.9776;
1020.0000;0.2442;6.9776;
1020.3000;0.2442;6.9776;
1020.6000;0.2450;6.9871;
1020.9000;0.2475;7.0013;
1021.2000;0.2450;6.9989;
1021.5000;0.2458;7.0131;
1021.8000;0.2450;7.0131;
1022.1000;0.2450;7.0107;
1022.4000;0.2458;7.0155;
1022.7000;0.2458;7.0084;
1023.0000;0.2458;6.9989;
1023.3000;0.2458;6.9942;
1023.6000;0.2466;6.9989;
1023.9000;0.2499;7.0084;
1024.2000;0.2442;6.9966;
1024.5000;0.2442;6.9942;
1024.8000;0.2458;6.9942;
1025.1000;0.2434;6.9918;
1025.4000;0.2442;6.9847;
1025.7000;0.2466;6.9847;
1026.0000;0.2409;6.9705;
1026.3000;0.2434;6.9800;
1026.6000;0.2442;6.9824;
1026.9000;0.2483;6.9847;
1027.2000;0.2442;6.9753;
1027.5000;0.2418;6.9753;
1027.8000;0.2450;6.9824;
1028.1000;0.2434;6.9824;
1028.4000;0.2491;6.9942;
1028.7000;0.2450;6.9753;
1029.0000;0.2434;6.9635;
1029.3000;0.2450;6.9682;
1029.6000;0.2442;6.9635;
1029.9000;0.2458;6.9705;
1030.2000;0.2426;6.9682;
1030.5000;0.2450;6.9682;
1030.8000;0.2450;6.9729;
1031.1000;0.2426;6.9682;
1031.4000;0.2434;6.9658;
1031.7000;0.2434;6.9635;
1032.0000;0.2458;6.9753;
1032.3000;0.2450;6.9753;
1032.6000;0.2458;6.9682;
1032.9000;0.2450;6.9658;
1033.2000;0.2442;6.9753;
1033.5000;0.2426;6.9705;
1033.8000;0.2434;6.9753;
1034.1000;0.2450;6.9800;
1034.4000;0.2442;6.9824;
1034.7000;0.2434;6.9776;
1035.0000;0.2466;6.9824;
1035.3000;0.2466;6.9800;
1035.6000;0.2426;6.9705;
1035.9000;0.2426;6.9682;
1036.2000;0.2426;6.9611;
1036.5000;0.2442;6.9658;
1036.8000;0.2434;6.9800;
1037.1000;0.2426;6.9729;
1037.4000;0.2450;6.9800;
1037.7000;0.2442;6.9847;
1038.0000;0.2466;6.9895;
1038.3000;0.2434;6.9729;
1038.6000;0.2442;6.9753;
1038.9000;0.2434;6.9682;
1039.2000;0.2426;6.9682;
1039.5000;0.2442;6.9658;
1039.8000;0.2442;6.9682;
1040.1000;0.2393;6.9658;
1040.4000;0.2409;6.9776;
1040.7000;0.2418;6.9800;
1041.0000;0.2426;6.9824;
1041.3000;0.2442;6.9776;
1041.6000;0.2434;6.9705;
1041.9000;0.2434;6.9753;
1042.2000;0.2442;6.9753;
1042.5000;0.2450;6.9800;
1042.8000;0.2418;6.9705;
1043.1000;0.2450;6.9776;
1043.4000;0.2475;6.9800;
1043.7000;0.2475;6.9871;
1044.0000;0.2442;6.9918;
1044.3000;0.2458;6.9824;
1044.6000;0.2434;6.9776;
1044.9000;0.2426;6.9753;
1045.2000;0.2450;6.9847;
1045.5000;0.2418;6.9753;
1045.8000;0.2507;7.0013;
1046.1000;0.2491;6.9942;
1046.4000;0.2401;6.9753;
1046.7000;0.2434;6.9800;
1047.0000;0.2426;6.9753;
1047.3000;0.2409;6.9776;
1047.6000;0.2442;6.9729;
1047.9000;0.2483;6.9871;
1048.2000;0.2393;6.9753;
1048.5000;0.2409;6.9895;
1048.8000;0.2418;6.9871;
1049.1000;0.2409;6.9895;
1049.4000;0.2418;6.9800;
1049.7000;0.2426;6.9800;
1050.0000;0.2491;6.9989;
1050.3000;0.2426;6.9800;
1050.6000;0.2426;6.9895;
1050.9000;0.2434;6.9989;
1051.2000;0.2434;7.0084;
1051.5000;0.2418;6.9918;
1051.8000;0.2442;6.9966;
1052.1000;0.2434;6.9942;
1052.4000;0.2426;6.9966;
1052.7000;0.2409;7.0036;
1053.0000;0.2426;7.0060;
1053.3000;0.2434;7.0036;
1053.6000;0.2401;6.9918;
1053.9000;0.2426;6.9989;
1054.2000;0.2426;6.9966;
1054.5000;0.2442;6.9918;
1054.8000;0.2458;6.9989;
1055.1000;0.2426;6.9871;
1055.4000;0.2434;6.9847;
1055.7000;0.2426;6.9895;
1056.0000;0.2426;6.9871;
1056.3000;0.2369;6.9753;
1056.6000;0.2418;6.9895;
1056.9000;0.2434;6.9776;
1057.2000;0.2499;6.9989;
1057.5000;0.2418;6.9895;
1057.8000;0.2426;6.9895;
1058.1000;0.2434;6.9918;
1058.4000;0.2418;6.9847;
1058.7000;0.2418;6.9847;
1059.0000;0.2401;6.9847;
1059.3000;0.2401;6.9918;
1059.6000;0.2409;6.9847;
1059.9000;0.2401;6.9871;
1060.2000;0.2426;6.9918;
1060.5000;0.2418;6.9966;
1060.8000;0.2401;6.9871;
1061.1000;0.2418;6.9847;
1061.4000;0.2409;6.9847;
1061.7000;0.2418;6.9895;
1062.0000;0.2450;6.9824;
1062.3000;0.2515;7.0013;
1062.6000;0.2418;6.9800;
1062.9000;0.2434;6.9918;
1063.2000;0.2418;6.9895;
1063.5000;0.2401;6.9824;
1063.8000;0.2409;6.9729;
1064.1000;0.2409;6.9753;
1064.4000;0.2458;6.9918;
1064.7000;0.2442;6.9824;
1065.0000;0.2409;6.9800;
1065.3000;0.2418;6.9847;
1065.6000;0.2426;6.9871;
1065.9000;0.2409;6.9824;
1066.2000;0.2434;6.9824;
1066.5000;0.2409;6.9824;
1066.8000;0.2393;6.9800;
1067.1000;0.2385;6.9800;
1067.4000;0.2361;6.9729;
1067.7000;0.2434;6.9895;
1068.0000;0.2401;6.9895;
1068.3000;0.2426;7.0013;
1068.6000;0.2418;6.9918;
1068.9000;0.2434;6.9918;
1069.2000;0.2418;6.9918;
1069.5000;0.2393;6.9942;
1069.8000;0.2409;7.0013;
1070.1000;0.2361;7.0036;
1070.4000;0.2336;6.9918;
1070.7000;0.2401;7.0107;
1071.0000;0.2409;7.0131;
1071.3000;0.2409;7.0131;
1071.6000;0.2418;7.0202;
1071.9000;0.2499;7.0391;
1072.2000;0.2393;7.0155;
1072.5000;0.2393;7.0131;
1072.8000;0.2458;7.0249;
1073.1000;0.2385;7.0084;
1073.4000;0.2409;7.0084;
1073.7000;0.2401;7.0107;
1074.0000;0.2491;7.0296;
1074.3000;0.2434;7.0202;
1074.6000;0.2401;7.0107;
1074.9000;0.2361;7.0036;
1075.2000;0.2434;7.0155;
1075.5000;0.2401;7.0036;
1075.8000;0.2434;7.0084;
1076.1000;0.2409;7.0131;
1076.4000;0.2418;7.0155;
1076.7000;0.2418;7.0155;
1077.0000;0.2418;7.0202;
1077.3000;0.2418;7.0155;
1077.6000;0.2409;7.0060;
1077.9000;0.2426;7.0084;
1078.2000;0.2409;7.0013;
1078.5000;0.2418;7.0013;
1078.8000;0.2418;6.9895;
1079.1000;0.2401;6.9871;
1079.4000;0.2442;7.0036;
1079.7000;0.2418;7.0013;
1080.0000;0.2418;7.0013;
1080.3000;0.2483;7.0178;
1080.6000;0.2442;7.0060;
1080.9000;0.2434;7.0107;
1081.2000;0.2442;7.0107;
1081.5000;0.2418;7.0013;
1081.8000;0.2409;6.9966;
1082.1000;0.2418;6.9966;
1082.4000;0.2418;6.9966;
1082.7000;0.2426;6.9966;
1083.0000;0.2442;7.0107;
1083.3000;0.2418;7.0060;
1083.6000;0.2401;6.9918;
1083.9000;0.2385;6.9753;
1084.2000;0.2385;6.9776;
1084.5000;0.2442;6.9942;
1084.8000;0.2442;6.9895;
1085.1000;0.2418;6.9871;
1085.4000;0.2352;6.9824;
1085.7000;0.2385;6.9942;
1086.0000;0.2377;6.9918;
1086.3000;0.2426;7.0036;
1086.6000;0.2385;7.0013;
1086.9000;0.2385;7.0013;
1087.2000;0.2450;7.0060;
1087.5000;0.2418;7.0084;
1087.8000;0.2418;7.0131;
1088.1000;0.2385;7.0107;
1088.4000;0.2320;6.9942;
1088.7000;0.2409;7.0131;
1089.0000;0.2450;7.0178;
1089.3000;0.2401;7.0036;
1089.6000;0.2426;7.0013;
1089.9000;0.2418;6.9989;
1090.2000;0.2409;6.9989;
1090.5000;0.2418;7.0013;
1090.8000;0.2385;6.9966;
1091.1000;0.2401;7.0084;
1091.4000;0.2377;7.0226;
1091.7000;0.2369;7.0178;
1092.0000;0.2418;7.0296;
1092.3000;0.2369;7.0131;
1092.6000;0.2401;7.0226;
1092.9000;0.2515;7.0509;
1093.2000;0.2450;7.0367;
1093.5000;0.2418;7.0202;
1093.8000;0.2450;7.0273;
1094.1000;0.2401;7.0107;
1094.4000;0.2401;7.0036;
1094.7000;0.2393;7.0036;
1095.0000;0.2418;6.9895;
1095.3000;0.2401;6.9800;
1095.6000;0.2409;6.9871;
1095.9000;0.2344;6.9729;
1096.2000;0.2393;6.9824;
1096.5000;0.2409;6.9918;
1096.8000;0.2409;7.0013;
1097.1000;0.2393;7.0013;
1097.4000;0.2409;6.9989;
1097.7000;0.2409;7.0013;
1098.0000;0.2401;7.0013;
1098.3000;0.2409;7.0036;
1098.6000;0.2418;6.9989;
1098.9000;0.2418;6.9942;
1099.2000;0.2295;6.9635;
1099.5000;0.2409;6.9824;
1099.8000;0.2426;6.9942;
1100.1000;0.2401;6.9895;
1100.4000;0.2401;6.9871;
1100.7000;0.2409;6.9966;
1101.0000;0.2401;6.9942;
1101.3000;0.2401;7.0084;
1101.6000;0.2401;7.0131;
1101.9000;0.2409;7.0131;
1102.2000;0.2401;7.0226;
1102.5000;0.2385;7.0131;
1102.8000;0.2352;7.0036;
1103.1000;0.2426;7.0131;
1103.4000;0.2434;7.0273;
1103.7000;0.2409;7.0249;
1104.0000;0.2401;7.0249;
1104.3000;0.2393;7.0296;
1104.6000;0.2409;7.0344;
1104.9000;0.2385;7.0178;
1105.2000;0.2401;7.0131;
1105.5000;0.2377;7.0084;
1105.8000;0.2418;7.0226;
1106.1000;0.2393;7.0155;
1106.4000;0.2401;7.0107;
1106.7000;0.2409;7.0131;
1107.0000;0.2426;7.0178;
1107.3000;0.2426;7.0107;
1107.6000;0.2369;6.9918;
1107.9000;0.2418;6.9942;
1108.2000;0.2393;6.9824;
1108.5000;0.2409;6.9847;
1108.8000;0.2336;6.9705;
1109.1000;0.2352;6.9824;
1109.4000;0.2385;6.9895;
1109.7000;0.2393;7.0060;
1110.0000;0.2409;7.0107;
1110.3000;0.2401;7.0107;
1110.6000;0.2418;7.0131;
1110.9000;0.2385;7.0107;
1111.2000;0.2393;7.0107;
1111.5000;0.2377;7.0084;
1111.8000;0.2409;7.0155;
1112.1000;0.2401;7.0131;
1112.4000;0.2491;7.0273;
1112.7000;0.2409;7.0084;
1113.0000;0.2418;7.0107;
1113.3000;0.2385;7.0036;
1113.6000;0.2336;6.9989;
1113.9000;0.2409;7.0202;
1114.2000;0.2369;7.0060;
1114.5000;0.2385;7.0060;
1114.8000;0.2385;7.0107;
1115.1000;0.2377;7.0155;
1115.4000;0.2377;7.0178;
1115.7000;0.2393;7.0131;
1116.0000;0.2409;7.0107;
1116.3000;0.2385;7.0036;
1116.6000;0.2401;7.0036;
1116.9000;0.2401;6.9942;
1117.2000;0.2401;6.9918;
1117.5000;0.2393;6.9942;
1117.8000;0.2401;7.0013;
1118.1000;0.2295;6.9682;
1118.4000;0.2377;6.9824;
1118.7000;0.2393;6.9847;
1119.0000;0.2393;6.9871;
1119.3000;0.2393;6.9918;
1119.6000;0.2393;6.9918;
1119.9000;0.2393;6.9966;
1120.2000;0.2393;6.9895;
1120.5000;0.2385;6.9847;
1120.8000;0.2369;6.9824;
1121.1000;0.2377;6.9800;
1121.4000;0.2385;6.9800;
1121.7000;0.2401;6.9800;
1122.0000;0.2393;6.9847;
1122.3000;0.2393;6.9895;
1122.6000;0.2418;6.9989;
1122.9000;0.2491;7.0273;
1123.2000;0.2361;6.9895;
1123.5000;0.2377;6.9966;
1123.8000;0.2393;6.9942;
1124.1000;0.2377;6.9918;
1124.4000;0.2401;6.9942;
1124.7000;0.2385;6.9966;
1125.0000;0.2401;7.0036;
1125.3000;0.2344;6.9918;
1125.6000;0.2377;6.9966;
1125.9000;0.2393;6.9989;
1126.2000;0.2393;7.0013;
1126.5000;0.2401;7.0013;
1126.8000;0.2401;6.9942;
1127.1000;0.2426;6.9942;
1127.4000;0.2385;6.9776;
1127.7000;0.2385;6.9729;
1128.0000;0.2393;6.9753;
1128.3000;0.2409;6.9753;
1128.6000;0.2344;6.9516;
1128.9000;0.2369;6.9611;
1129.2000;0.2385;6.9753;
1129.5000;0.2385;6.9824;
1129.8000;0.2377;6.9871;
1130.1000;0.2385;6.9942;
1130.4000;0.2377;6.9942;
1130.7000;0.2385;6.9966;
1131.0000;0.2352;6.9871;
1131.3000;0.2369;6.9776;
1131.6000;0.2434;7.0013;
1131.9000;0.2401;6.9989;
1132.2000;0.2385;6.9942;
1132.5000;0.2385;6.9918;
1132.8000;0.2361;6.9800;
1133.1000;0.2401;6.9847;
1133.4000;0.2377;6.9895;
1133.7000;0.2377;6.9918;
1134.0000;0.2385;6.9989;
1134.3000;0.2393;7.0060;
1134.6000;0.2369;7.0036;
1134.9000;0.2287;6.9824;
1135.2000;0.2369;6.9918;
1135.5000;0.2377;6.9895;
1135.8000;0.2393;6.9966;
1136.1000;0.2369;6.9824;
1136.4000;0.2393;6.9847;
1136.7000;0.2393;6.9918;
1137.0000;0.2377;6.9800;
1137.3000;0.2418;6.9847;
1137.6000;0.2401;6.9942;
1137.9000;0.2385;6.9942;
1138.2000;0.2401;6.9895;
1138.5000;0.2377;6.9871;
1138.8000;0.2385;6.9966;
1139.1000;0.2385;6.9942;
1139.4000;0.2377;6.9989;
1139.7000;0.2393;7.0013;
1140.0000;0.2393;7.0013;
1140.3000;0.2491;7.0320;
1140.6000;0.2385;7.0013;
1140.9000;0.2377;7.0084;
1141.2000;0.2361;6.9989;
1141.5000;0.2385;7.0013;
1141.8000;0.2295;6.9729;
1142.1000;0.2369;6.9942;
1142.4000;0.2279;6.9824;
1142.7000;0.2377;7.0131;
1143.0000;0.2393;7.0060;
1143.3000;0.2312;6.9918;
1143.6000;0.2385;7.0131;
1143.9000;0.2352;7.0107;
1144.2000;0.2352;6.9989;
1144.5000;0.2393;7.0013;
1144.8000;0.2377;7.0013;
1145.1000;0.2361;6.9942;
1145.4000;0.2369;6.9989;
1145.7000;0.2401;6.9918;
1146.0000;0.2369;6.9895;
1146.3000;0.2352;6.9800;
1146.6000;0.2369;6.9847;
1146.9000;0.2369;6.9895;
1147.2000;0.2361;6.9871;
1147.5000;0.2393;6.9942;
1147.8000;0.2385;6.9918;
1148.1000;0.2442;7.0013;
1148.4000;0.2401;6.9847;
1148.7000;0.2369;6.9847;
1149.0000;0.2385;6.9871;
1149.3000;0.2450;7.0060;
1149.6000;0.2385;6.9800;
1149.9000;0.2393;6.9847;
1150.2000;0.2385;6.9753;
1150.5000;0.2377;6.9824;
1150.8000;0.2369;6.9824;
1151.1000;0.2385;6.9871;
1151.4000;0.2369;6.9871;
1151.7000;0.2377;6.9824;
1152.0000;0.2369;6.9895;
1152.3000;0.2352;6.9871;
1152.6000;0.2361;6.9824;
1152.9000;0.2377;6.9871;
1153.2000;0.2369;6.9918;
1153.5000;0.2369;6.9966;
1153.8000;0.2426;7.0155;
1154.1000;0.2352;6.9942;
1154.4000;0.2385;7.0060;
1154.7000;0.2377;7.0060;
1155.0000;0.2352;7.0036;
1155.3000;0.2385;7.0107;
1155.6000;0.2336;6.9989;
1155.9000;0.2336;6.9966;
1156.2000;0.2361;6.9966;
1156.5000;0.2369;6.9989;
1156.8000;0.2393;7.0060;
1157.1000;0.2385;7.0155;
1157.4000;0.2336;6.9966;
1157.7000;0.2369;6.9966;
1158.0000;0.2377;6.9895;
1158.3000;0.2385;6.9895;
1158.6000;0.2361;6.9966;
1158.9000;0.2336;6.9895;
1159.2000;0.2361;6.9966;
1159.5000;0.2369;6.9989;
1159.8000;0.2361;6.9918;
1160.1000;0.2369;6.9895;
1160.4000;0.2369;6.9942;
1160.7000;0.2328;6.9871;
1161.0000;0.2377;7.0013;
1161.3000;0.2336;6.9871;
1161.6000;0.2344;6.9847;
1161.9000;0.2434;7.0131;
1162.2000;0.2426;7.0036;
1162.5000;0.2409;7.0036;
1162.8000;0.2336;6.9918;
1163.1000;0.2377;7.0131;
1163.4000;0.2352;7.0036;
1163.7000;0.2369;7.0036;
1164.0000;0.2328;6.9895;
1164.3000;0.2409;7.0107;
1164.6000;0.2377;7.0155;
1164.9000;0.2361;7.0060;
1165.2000;0.2352;7.0036;
1165.5000;0.2361;6.9989;
1165.8000;0.2255;6.9776;
1166.1000;0.2352;6.9942;
1166.4000;0.2344;6.9895;
1166.7000;0.2352;6.9966;
1167.0000;0.2377;7.0013;
1167.3000;0.2385;6.9918;
1167.6000;0.2377;6.9847;
1167.9000;0.2377;6.9871;
1168.2000;0.2352;6.9800;
1168.5000;0.2385;6.9824;
1168.8000;0.2385;6.9824;
1169.1000;0.2361;6.9753;
1169.4000;0.2369;6.9776;
1169.7000;0.2369;6.9729;
1170.0000;0.2377;6.9871;
1170.3000;0.2352;6.9847;
1170.6000;0.2344;6.9776;
1170.9000;0.2369;6.9942;
1171.2000;0.2361;6.9918;
1171.5000;0.2369;6.9942;
1171.8000;0.2336;6.9895;
1172.1000;0.2361;6.9966;
1172.4000;0.2369;6.9847;
1172.7000;0.2336;6.9800;
1173.0000;0.2361;6.9800;
1173.3000;0.2385;6.9871;
1173.6000;0.2369;6.9895;
1173.9000;0.2385;7.0060;
1174.2000;0.2344;6.9989;
1174.5000;0.2369;6.9871;
1174.8000;0.2377;6.9942;
1175.1000;0.2369;6.9918;
1175.4000;0.2377;6.9942;
1175.7000;0.2344;6.9895;
1176.0000;0.2352;6.9847;
1176.3000;0.2344;6.9871;
1176.6000;0.2352;6.9918;
1176.9000;0.2352;6.9966;
1177.2000;0.2352;6.9966;
1177.5000;0.2377;6.9942;
1177.8000;0.2344;6.9800;
1178.1000;0.2369;6.9895;
1178.4000;0.2369;6.9895;
1178.7000;0.2369;6.9989;
1179.0000;0.2393;7.0107;
1179.3000;0.2344;7.0013;
1179.6000;0.2352;6.9966;
1179.9000;0.2336;6.9729;
1180.2000;0.2361;6.9753;
1180.5000;0.2336;6.9705;
1180.8000;0.2344;6.9705;
1181.1000;0.2369;6.9824;
1181.4000;0.2409;6.9966;
1181.7000;0.2385;6.9918;
1182.0000;0.2361;6.9871;
1182.3000;0.2361;6.9753;
1182.6000;0.2369;6.9753;
1182.9000;0.2328;6.9682;
1183.2000;0.2352;6.9871;
1183.5000;0.2369;7.0036;
1183.8000;0.2312;6.9895;
1184.1000;0.2336;6.9871;
1184.4000;0.2385;6.9895;
1184.7000;0.2336;6.9705;
1185.0000;0.2369;6.9871;
1185.3000;0.2352;6.9824;
1185.6000;0.2344;6.9824;
1185.9000;0.2344;6.9847;
1186.2000;0.2344;6.9966;
1186.5000;0.2344;6.9989;
1186.8000;0.2352;7.0013;
1187.1000;0.2352;7.0060;
1187.4000;0.2377;7.0084;
1187.7000;0.2377;7.0178;
1188.0000;0.2377;7.0178;
1188.3000;0.2361;7.0131;
1188.6000;0.2377;7.0178;
1188.9000;0.2320;7.0060;
1189.2000;0.2328;7.0084;
1189.5000;0.2352;7.0155;
1189.8000;0.2336;7.0226;
1190.1000;0.2328;7.0202;
1190.4000;0.2409;7.0367;
1190.7000;0.2352;7.0226;
1191.0000;0.2352;7.0131;
1191.3000;0.2361;7.0107;
1191.6000;0.2344;7.0084;
1191.9000;0.2352;7.0036;
1192.2000;0.2352;7.0084;
1192.5000;0.2352;7.0155;
1192.8000;0.2377;7.0202;
1193.1000;0.2352;7.0202;
1193.4000;0.2352;7.0202;
1193.7000;0.2385;7.0202;
1194.0000;0.2377;7.0107;
1194.3000;0.2369;7.0060;
1194.6000;0.2344;7.0013;
1194.9000;0.2369;7.0060;
1195.2000;0.2369;7.0013;
1195.5000;0.2369;7.0013;
1195.8000;0.2344;6.9989;
1196.1000;0.2361;6.9989;
1196.4000;0.2369;6.9966;
1196.7000;0.2352;6.9895;
1197.0000;0.2385;6.9847;
1197.3000;0.2369;6.9776;
1197.6000;0.2369;6.9800;
1197.9000;0.2385;6.9871;
1198.2000;0.2336;6.9847;
1198.5000;0.2377;6.9871;
1198.8000;0.2352;6.9918;
1199.1000;0.2385;7.0036;
1199.4000;0.2361;7.0060;
1199.7000;0.2304;6.9895;
1200.0000;0.2344;6.9942;
1200.3000;0.2344;7.0013;
1200.6000;0.2344;6.9942;
1200.9000;0.2279;6.9847;
1201.2000;0.2385;7.0036;
1201.5000;0.2344;6.9800;
1201.8000;0.2401;6.9918;
1202.1000;0.2328;6.9824;
1202.4000;0.2361;6.9847;
1202.7000;0.2369;6.9871;
1203.0000;0.2377;6.9918;
1203.3000;0.2271;6.9682;
1203.6000;0.2328;6.9824;
1203.9000;0.2369;6.9871;
1204.2000;0.2312;6.9682;
1204.5000;0.2336;6.9824;
1204.8000;0.2369;6.9966;
1205.1000;0.2401;7.0013;
1205.4000;0.2369;6.9918;
1205.7000;0.2312;6.9800;
1206.0000;0.2377;6.9942;
1206.3000;0.2361;6.9989;
1206.6000;0.2352;6.9918;
1206.9000;0.2320;6.9824;
1207.2000;0.2320;6.9776;
1207.5000;0.2344;6.9800;
1207.8000;0.2320;6.9847;
1208.1000;0.2352;7.0013;
1208.4000;0.2344;7.0013;
1208.7000;0.2344;6.9918;
1209.0000;0.2336;6.9918;
1209.3000;0.2336;6.9942;
1209.6000;0.2336;6.9918;
1209.9000;0.2344;6.9895;
1210.2000;0.2320;6.9824;
1210.5000;0.2344;6.9847;
1210.8000;0.2344;6.9824;
1211.1000;0.2328;6.9918;
1211.4000;0.2369;7.0084;
1211.7000;0.2361;7.0060;
1212.0000;0.2352;7.0036;
1212.3000;0.2352;7.0036;
1212.6000;0.2352;7.0060;
1212.9000;0.2344;7.0084;
1213.2000;0.2352;7.0131;
1213.5000;0.2328;7.0202;
1213.8000;0.2344;7.0226;
1214.1000;0.2352;7.0249;
1214.4000;0.2344;7.0155;
1214.7000;0.2320;7.0060;
1215.0000;0.2320;7.0107;
1215.3000;0.2361;7.0131;
1215.6000;0.2361;7.0178;
1215.9000;0.2352;7.0202;
1216.2000;0.2336;7.0060;
1216.5000;0.2361;7.0084;
1216.8000;0.2352;7.0131;
1217.1000;0.2320;7.0036;
1217.4000;0.2336;7.0131;
1217.7000;0.2336;7.0036;
1218.0000;0.2352;7.0060;
1218.3000;0.2344;7.0036;
1218.6000;0.2344;7.0036;
1218.9000;0.2336;7.0131;
1219.2000;0.2336;7.0107;
1219.5000;0.2352;7.0060;
1219.8000;0.2344;7.0013;
1220.1000;0.2336;6.9942;
1220.4000;0.2336;6.9871;
1220.7000;0.2352;6.9847;
1221.0000;0.2336;6.9729;
1221.3000;0.2393;6.9824;
1221.6000;0.2361;6.9729;
1221.9000;0.2361;6.9800;
1222.2000;0.2352;6.9847;
1222.5000;0.2352;6.9729;
1222.8000;0.2361;6.9753;
1223.1000;0.2352;6.9824;
1223.4000;0.2344;6.9753;
1223.7000;0.2352;6.9800;
1224.0000;0.2369;6.9800;
1224.3000;0.2344;6.9800;
1224.6000;0.2352;6.9847;
1224.9000;0.2344;6.9753;
1225.2000;0.2418;6.9966;
1225.5000;0.2320;6.9729;
1225.8000;0.2328;6.9800;
1226.1000;0.2336;6.9800;
1226.4000;0.2328;6.9800;
1226.7000;0.2328;6.9847;
1227.0000;0.2336;6.9847;
1227.3000;0.2336;6.9824;
1227.6000;0.2336;6.9942;
1227.9000;0.2344;6.9942;
1228.2000;0.2361;6.9895;
1228.5000;0.2352;6.9776;
1228.8000;0.2344;6.9776;
1229.1000;0.2352;6.9729;
1229.4000;0.2344;6.9776;
1229.7000;0.2361;6.9776;
1230.0000;0.2352;6.9776;
1230.3000;0.2344;6.9800;
1230.6000;0.2344;6.9895;
1230.9000;0.2344;6.9847;
1231.2000;0.2361;6.9847;
1231.5000;0.2328;6.9776;
1231.8000;0.2361;6.9918;
1232.1000;0.2352;6.9942;
1232.4000;0.2328;6.9895;
1232.7000;0.2393;7.0013;
1233.0000;0.2336;6.9918;
1233.3000;0.2344;6.9895;
1233.6000;0.2239;6.9729;
1233.9000;0.2328;6.9989;
1234.2000;0.2352;7.0131;
1234.5000;0.2344;7.0178;
1234.8000;0.2344;7.0249;
1235.1000;0.2304;7.0296;
1235.4000;0.2336;7.0249;
1235.7000;0.2344;7.0226;
1236.0000;0.2385;7.0320;
1236.3000;0.2304;7.0060;
1236.6000;0.2312;7.0131;
1236.9000;0.2328;7.0249;
1237.2000;0.2320;7.0320;
1237.5000;0.2304;7.0202;
1237.8000;0.2352;7.0320;
1238.1000;0.2352;7.0226;
1238.4000;0.2361;7.0273;
1238.7000;0.2361;7.0296;
1239.0000;0.2320;7.0273;
1239.3000;0.2344;7.0296;
1239.6000;0.2418;7.0415;
1239.9000;0.2328;7.0155;
1240.2000;0.2312;7.0107;
1240.5000;0.2344;7.0131;
1240.8000;0.2352;7.0131;
1241.1000;0.2352;7.0178;
1241.4000;0.2328;7.0036;
1241.7000;0.2344;7.0084;
1242.0000;0.2336;7.0107;
1242.3000;0.2336;7.0226;
1242.6000;0.2344;7.0178;
1242.9000;0.2336;7.0202;
1243.2000;0.2344;7.0155;
1243.5000;0.2344;7.0131;
1243.8000;0.2361;7.0131;
1244.1000;0.2312;6.9966;
1244.4000;0.2328;6.9918;
1244.7000;0.2336;6.9918;
1245.0000;0.2320;7.0013;
1245.3000;0.2352;7.0013;
1245.6000;0.2328;6.9871;
1245.9000;0.2304;6.9942;
1246.2000;0.2361;7.0084;
1246.5000;0.2320;7.0013;
1246.8000;0.2352;7.0155;
1247.1000;0.2336;7.0226;
1247.4000;0.2328;7.0273;
1247.7000;0.2336;7.0249;
1248.0000;0.2336;7.0249;
1248.3000;0.2320;7.0226;
1248.6000;0.2361;7.0367;
1248.9000;0.2336;7.0296;
1249.2000;0.2336;7.0367;
1249.5000;0.2336;7.0486;
1249.8000;0.2328;7.0486;
1250.1000;0.2385;7.0627;
1250.4000;0.2328;7.0462;
1250.7000;0.2320;7.0391;
1251.0000;0.2295;7.0273;
1251.3000;0.2312;7.0273;
1251.6000;0.2320;7.0273;
1251.9000;0.2418;7.0509;
1252.2000;0.2328;7.0320;
1252.5000;0.2336;7.0296;
1252.8000;0.2295;7.0155;
1253.1000;0.2320;7.0178;
1253.4000;0.2344;7.0226;
1253.7000;0.2393;7.0344;
1254.0000;0.2336;7.0131;
1254.3000;0.2312;6.9989;
1254.6000;0.2336;7.0013;
1254.9000;0.2336;6.9942;
1255.2000;0.2295;6.9918;
1255.5000;0.2361;7.0084;
1255.8000;0.2295;7.0036;
1256.1000;0.2328;7.0155;
1256.4000;0.2393;7.0296;
1256.7000;0.2304;7.0036;
1257.0000;0.2401;7.0273;
1257.3000;0.2279;6.9895;
1257.6000;0.2320;6.9989;
1257.9000;0.2369;7.0036;
1258.2000;0.2361;7.0131;
1258.5000;0.2418;7.0344;
1258.8000;0.2312;7.0013;
1259.1000;0.2352;7.0060;
1259.4000;0.2304;7.0013;
1259.7000;0.2304;7.0084;
1260.0000;0.2409;7.0391;
1260.3000;0.2295;7.0060;
1260.6000;0.2312;7.0060;
1260.9000;0.2336;7.0060;
1261.2000;0.2344;7.0131;
1261.5000;0.2271;6.9989;
1261.8000;0.2328;7.0084;
1262.1000;0.2304;7.0084;
1262.4000;0.2336;7.0107;
1262.7000;0.2336;7.0155;
1263.0000;0.2336;7.0107;
1263.3000;0.2328;7.0060;
1263.6000;0.2352;7.0131;
1263.9000;0.2344;7.0107;
1264.2000;0.2369;7.0202;
1264.5000;0.2328;7.0131;
1264.8000;0.2328;7.0178;
1265.1000;0.2328;7.0249;
1265.4000;0.2328;7.0131;
1265.7000;0.2328;7.0131;
1266.0000;0.2336;7.0226;
1266.3000;0.2320;7.0202;
1266.6000;0.2336;7.0178;
1266.9000;0.2287;7.0131;
1267.2000;0.2320;7.0178;
1267.5000;0.2361;7.0249;
1267.8000;0.2336;7.0226;
1268.1000;0.2320;7.0273;
1268.4000;0.2312;7.0296;
1268.7000;0.2336;7.0320;
1269.0000;0.2312;7.0344;
1269.3000;0.2312;7.0320;
1269.6000;0.2352;7.0344;
1269.9000;0.2336;7.0273;
1270.2000;0.2336;7.0344;
1270.5000;0.2336;7.0273;
1270.8000;0.2263;7.0131;
1271.1000;0.2312;7.0226;
1271.4000;0.2344;7.0391;
1271.7000;0.2328;7.0367;
1272.0000;0.2312;7.0273;
1272.3000;0.2377;7.0462;
1272.6000;0.2295;7.0226;
1272.9000;0.2295;7.0178;
1273.2000;0.2304;7.0131;
1273.5000;0.2295;7.0107;
1273.8000;0.2222;6.9895;
1274.1000;0.2304;7.0036;
1274.4000;0.2336;7.0084;
1274.7000;0.2312;7.0060;
1275.0000;0.2320;7.0155;
1275.3000;0.2295;7.0155;
1275.6000;0.2336;7.0202;
1275.9000;0.2295;7.0084;
1276.2000;0.2295;7.0155;
1276.5000;0.2295;7.0036;
1276.8000;0.2336;7.0131;
1277.1000;0.2304;7.0084;
1277.4000;0.2344;7.0155;
1277.7000;0.2295;7.0060;
1278.0000;0.2361;7.0273;
1278.3000;0.2328;7.0273;
1278.6000;0.2328;7.0296;
1278.9000;0.2312;7.0296;
1279.2000;0.2336;7.0273;
1279.5000;0.2304;7.0131;
1279.8000;0.2304;7.0226;
1280.1000;0.2344;7.0391;
1280.4000;0.2344;7.0344;
1280.7000;0.2320;7.0296;
1281.0000;0.2247;7.0155;
1281.3000;0.2287;7.0273;
1281.6000;0.2320;7.0367;
1281.9000;0.2352;7.0438;
1282.2000;0.2279;7.0155;
1282.5000;0.2271;7.0178;
1282.8000;0.2304;7.0107;
1283.1000;0.2328;7.0107;
1283.4000;0.2336;7.0107;
1283.7000;0.2295;7.0131;
1284.0000;0.2320;7.0178;
1284.3000;0.2336;7.0273;
1284.6000;0.2312;7.0155;
1284.9000;0.2328;7.0226;
1285.2000;0.2304;7.0060;
1285.5000;0.2328;7.0131;
1285.8000;0.2328;7.0131;
1286.1000;0.2328;7.0084;
1286.4000;0.2312;7.0013;
1286.7000;0.2328;7.0084;
1287.0000;0.2336;7.0202;
1287.3000;0.2312;7.0226;
1287.6000;0.2312;7.0226;
1287.9000;0.2344;7.0320;
1288.2000;0.2328;7.0296;
1288.5000;0.2344;7.0202;
1288.8000;0.2312;7.0131;
1289.1000;0.2320;7.0202;
1289.4000;0.2336;7.0226;
1289.7000;0.2344;7.0273;
1290.0000;0.2320;7.0273;
1290.3000;0.2369;7.0344;
1290.6000;0.2336;7.0273;
1290.9000;0.2328;7.0202;
1291.2000;0.2312;7.0107;
1291.5000;0.2295;7.0155;
1291.8000;0.2328;7.0155;
1292.1000;0.2312;7.0060;
1292.4000;0.2312;7.0060;
1292.7000;0.2336;7.0178;
1293.0000;0.2312;7.0296;
1293.3000;0.2336;7.0296;
1293.6000;0.2312;7.0249;
1293.9000;0.2287;7.0202;
1294.2000;0.2320;7.0296;
1294.5000;0.2320;7.0320;
1294.8000;0.2385;7.0556;
1295.1000;0.2352;7.0651;
1295.4000;0.2304;7.0604;
1295.7000;0.2312;7.0627;
1296.0000;0.2320;7.0509;
1296.3000;0.2271;7.0320;
1296.6000;0.2312;7.0273;
1296.9000;0.2385;7.0391;
1297.2000;0.2279;7.0084;
1297.5000;0.2312;7.0107;
1297.8000;0.2328;7.0131;
1298.1000;0.2304;7.0131;
1298.4000;0.2352;7.0367;
1298.7000;0.2344;7.0249;
1299.0000;0.2361;7.0249;
1299.3000;0.2320;7.0202;
1299.6000;0.2336;7.0273;
1299.9000;0.2312;7.0202;
1300.2000;0.2352;7.0438;
1300.5000;0.2312;7.0391;
1300.8000;0.2279;7.0367;
1301.1000;0.2304;7.0486;
1301.4000;0.2295;7.0438;
1301.7000;0.2287;7.0580;
1302.0000;0.2320;7.0675;
1302.3000;0.2312;7.0533;
1302.6000;0.2312;7.0415;
1302.9000;0.2312;7.0415;
1303.2000;0.2320;7.0367;
1303.5000;0.2328;7.0367;
1303.8000;0.2385;7.0533;
1304.1000;0.2336;7.0367;
1304.4000;0.2328;7.0438;
1304.7000;0.2312;7.0438;
1305.0000;0.2304;7.0415;
1305.3000;0.2287;7.0415;
1305.6000;0.2271;7.0462;
1305.9000;0.2304;7.0462;
1306.2000;0.2304;7.0486;
1306.5000;0.2287;7.0438;
1306.8000;0.2279;7.0367;
1307.1000;0.2361;7.0580;
1307.4000;0.2279;7.0344;
1307.7000;0.2295;7.0415;
1308.0000;0.2304;7.0415;
1308.3000;0.2304;7.0415;
1308.6000;0.2328;7.0415;
1308.9000;0.2312;7.0367;
1309.2000;0.2295;7.0344;
1309.5000;0.2304;7.0415;
1309.8000;0.2312;7.0367;
1310.1000;0.2304;7.0344;
1310.4000;0.2263;7.0249;
1310.7000;0.2320;7.0438;
1311.0000;0.2312;7.0391;
1311.3000;0.2320;7.0273;
1311.6000;0.2304;7.0155;
1311.9000;0.2295;7.0107;
1312.2000;0.2328;7.0131;
1312.5000;0.2295;7.0036;
1312.8000;0.2287;7.0036;
1313.1000;0.2369;7.0296;
1313.4000;0.2320;7.0178;
1313.7000;0.2312;7.0249;
1314.0000;0.2312;7.0273;
1314.3000;0.2295;7.0344;
1314.6000;0.2287;7.0367;
1314.9000;0.2287;7.0320;
1315.2000;0.2239;7.0107;
1315.5000;0.2312;7.0296;
1315.8000;0.2239;7.0131;
1316.1000;0.2312;7.0296;
1316.4000;0.2287;7.0344;
1316.7000;0.2287;7.0273;
1317.0000;0.2320;7.0296;
1317.3000;0.2279;7.0226;
1317.6000;0.2295;7.0296;
1317.9000;0.2287;7.0249;
1318.2000;0.2287;7.0202;
1318.5000;0.2312;7.0178;
1318.8000;0.2287;7.0036;
1319.1000;0.2304;7.0013;
1319.4000;0.2295;7.0107;
1319.7000;0.2295;7.0107;
1320.0000;0.2320;7.0226;
1320.3000;0.2198;7.0036;
1320.6000;0.2304;7.0226;
1320.9000;0.2385;7.0391;
1321.2000;0.2320;7.0202;
1321.5000;0.2287;7.0155;
1321.8000;0.2271;7.0107;
1322.1000;0.2369;7.0296;
1322.4000;0.2295;7.0202;
1322.7000;0.2287;7.0249;
1323.0000;0.2304;7.0273;
1323.3000;0.2312;7.0344;
1323.6000;0.2320;7.0415;
1323.9000;0.2304;7.0391;
1324.2000;0.2304;7.0320;
1324.5000;0.2304;7.0249;
1324.8000;0.2320;7.0273;
1325.1000;0.2304;7.0344;
1325.4000;0.2312;7.0344;
1325.7000;0.2304;7.0320;
1326.0000;0.2255;7.0320;
1326.3000;0.2295;7.0391;
1326.6000;0.2287;7.0320;
1326.9000;0.2279;7.0367;
1327.2000;0.2295;7.0344;
1327.5000;0.2312;7.0367;
1327.8000;0.2320;7.0462;
1328.1000;0.2279;7.0367;
1328.4000;0.2295;7.0367;
1328.7000;0.2304;7.0438;
1329.0000;0.2304;7.0438;
1329.3000;0.2336;7.0438;
1329.6000;0.2344;7.0462;
1329.9000;0.2295;7.0486;
1330.2000;0.2304;7.0556;
1330.5000;0.2295;7.0556;
1330.8000;0.2304;7.0675;
1331.1000;0.2279;7.0580;
1331.4000;0.2287;7.0580;
1331.7000;0.2247;7.0438;
1332.0000;0.2304;7.0509;
1332.3000;0.2295;7.0580;
1332.6000;0.2271;7.0462;
1332.9000;0.2279;7.0391;
1333.2000;0.2263;7.0367;
1333.5000;0.2295;7.0391;
1333.8000;0.2271;7.0391;
1334.1000;0.2304;7.0533;
1334.4000;0.2287;7.0438;
1334.7000;0.2295;7.0462;
1335.0000;0.2295;7.0438;
1335.3000;0.2328;7.0556;
1335.6000;0.2295;7.0438;
1335.9000;0.2295;7.0367;
1336.2000;0.2255;7.0249;
1336.5000;0.2271;7.0320;
1336.8000;0.2304;7.0367;
1337.1000;0.2271;7.0296;
1337.4000;0.2295;7.0415;
1337.7000;0.2304;7.0486;
1338.0000;0.2320;7.0415;
1338.3000;0.2287;7.0367;
1338.6000;0.2304;7.0533;
1338.9000;0.2320;7.0604;
1339.2000;0.2295;7.0604;
1339.5000;0.2295;7.0415;
1339.8000;0.2304;7.0438;
1340.1000;0.2287;7.0391;
1340.4000;0.2287;7.0438;
1340.7000;0.2287;7.0391;
1341.0000;0.2287;7.0391;
1341.3000;0.2279;7.0344;
1341.6000;0.2304;7.0296;
1341.9000;0.2287;7.0273;
1342.2000;0.2336;7.0438;
1342.5000;0.2295;7.0367;
1342.8000;0.2295;7.0415;
1343.1000;0.2279;7.0320;
1343.4000;0.2271;7.0296;
1343.7000;0.2304;7.0462;
1344.0000;0.2312;7.0415;
1344.3000;0.2312;7.0438;
1344.6000;0.2328;7.0486;
1344.9000;0.2279;7.0391;
1345.2000;0.2304;7.0462;
1345.5000;0.2312;7.0438;
1345.8000;0.2255;7.0320;
1346.1000;0.2279;7.0344;
1346.4000;0.2295;7.0296;
1346.7000;0.2295;7.0296;
1347.0000;0.2279;7.0226;
1347.3000;0.2271;7.0178;
1347.6000;0.2255;7.0178;
1347.9000;0.2287;7.0391;
1348.2000;0.2320;7.0462;
1348.5000;0.2287;7.0367;
1348.8000;0.2312;7.0486;
1349.1000;0.2304;7.0462;
1349.4000;0.2214;7.0249;
1349.7000;0.2287;7.0391;
1350.0000;0.2295;7.0415;
1350.3000;0.2287;7.0344;
1350.6000;0.2271;7.0320;
1350.9000;0.2279;7.0367;
1351.2000;0.2271;7.0415;
1351.5000;0.2279;7.0462;
1351.8000;0.2279;7.0391;
1352.1000;0.2279;7.0296;
1352.4000;0.2255;7.0296;
1352.7000;0.2295;7.0462;
1353.0000;0.2320;7.0509;
1353.3000;0.2287;7.0486;
1353.6000;0.2271;7.0486;
1353.9000;0.2295;7.0509;
1354.2000;0.2263;7.0438;
1354.5000;0.2295;7.0391;
1354.8000;0.2279;7.0344;
1355.1000;0.2304;7.0438;
1355.4000;0.2287;7.0533;
1355.7000;0.2312;7.0556;
1356.0000;0.2230;7.0344;
1356.3000;0.2271;7.0486;
1356.6000;0.2287;7.0509;
1356.9000;0.2287;7.0438;
1357.2000;0.2279;7.0367;
1357.5000;0.2295;7.0344;
1357.8000;0.2295;7.0344;
1358.1000;0.2271;7.0202;
1358.4000;0.2328;7.0273;
1358.7000;0.2287;7.0249;
1359.0000;0.2304;7.0462;
1359.3000;0.2287;7.0509;
1359.6000;0.2287;7.0462;
1359.9000;0.2287;7.0367;
1360.2000;0.2263;7.0296;
1360.5000;0.2287;7.0320;
1360.8000;0.2271;7.0367;
1361.1000;0.2271;7.0415;
1361.4000;0.2279;7.0344;
1361.7000;0.2279;7.0391;
1362.0000;0.2304;7.0415;
1362.3000;0.2279;7.0344;
1362.6000;0.2271;7.0249;
1362.9000;0.2295;7.0367;
1363.2000;0.2393;7.0627;
1363.5000;0.2287;7.0391;
1363.8000;0.2287;7.0415;
1364.1000;0.2287;7.0486;
1364.4000;0.2295;7.0580;
1364.7000;0.2304;7.0580;
1365.0000;0.2295;7.0533;
1365.3000;0.2295;7.0486;
1365.6000;0.2295;7.0462;
1365.9000;0.2352;7.0604;
1366.2000;0.2287;7.0462;
1366.5000;0.2263;7.0509;
1366.8000;0.2279;7.0580;
1367.1000;0.2247;7.0391;
1367.4000;0.2279;7.0486;
1367.7000;0.2287;7.0391;
1368.0000;0.2239;7.0344;
1368.3000;0.2304;7.0367;
1368.6000;0.2304;7.0438;
1368.9000;0.2255;7.0367;
1369.2000;0.2328;7.0580;
1369.5000;0.2287;7.0486;
1369.8000;0.2304;7.0509;
1370.1000;0.2295;7.0509;
1370.4000;0.2287;7.0533;
1370.7000;0.2239;7.0438;
1371.0000;0.2287;7.0580;
1371.3000;0.2287;7.0533;
1371.6000;0.2344;7.0651;
1371.9000;0.2287;7.0533;
1372.2000;0.2279;7.0462;
1372.5000;0.2279;7.0486;
1372.8000;0.2304;7.0462;
1373.1000;0.2287;7.0296;
1373.4000;0.2295;7.0367;
1373.7000;0.2279;7.0344;
1374.0000;0.2295;7.0438;
1374.3000;0.2263;7.0391;
1374.6000;0.2287;7.0486;
1374.9000;0.2287;7.0533;
1375.2000;0.2287;7.0509;
1375.5000;0.2247;7.0344;
1375.8000;0.2295;7.0580;
1376.1000;0.2165;7.0178;
1376.4000;0.2271;7.0367;
1376.7000;0.2287;7.0367;
1377.0000;0.2271;7.0344;
1377.3000;0.2279;7.0296;
1377.6000;0.2271;7.0296;
1377.9000;0.2271;7.0367;
1378.2000;0.2287;7.0296;
1378.5000;0.2263;7.0344;
1378.8000;0.2279;7.0438;
1379.1000;0.2247;7.0533;
1379.4000;0.2279;7.0698;
1379.7000;0.2295;7.0769;
1380.0000;0.2271;7.0675;
1380.3000;0.2271;7.0604;
1380.6000;0.2247;7.0509;
1380.9000;0.2295;7.0533;
1381.2000;0.2320;7.0580;
1381.5000;0.2279;7.0367;
1381.8000;0.2304;7.0486;
1382.1000;0.2279;7.0509;
1382.4000;0.2263;7.0486;
1382.7000;0.2279;7.0415;
1383.0000;0.2263;7.0296;
1383.3000;0.2255;7.0296;
1383.6000;0.2287;7.0296;
1383.9000;0.2263;7.0296;
1384.2000;0.2287;7.0296;
1384.5000;0.2279;7.0226;
1384.8000;0.2304;7.0249;
1385.1000;0.2271;7.0178;
1385.4000;0.2279;7.0084;
1385.7000;0.2279;7.0107;
1386.0000;0.2312;7.0155;
1386.3000;0.2304;7.0155;
1386.6000;0.2279;7.0202;
1386.9000;0.2247;7.0202;
1387.2000;0.2295;7.0273;
1387.5000;0.2287;7.0226;
1387.8000;0.2239;7.0178;
1388.1000;0.2279;7.0273;
1388.4000;0.2279;7.0226;
1388.7000;0.2255;7.0155;
1389.0000;0.2255;7.0202;
1389.3000;0.2279;7.0344;
1389.6000;0.2295;7.0344;
1389.9000;0.2287;7.0273;
1390.2000;0.2295;7.0344;
1390.5000;0.2271;7.0296;
1390.8000;0.2279;7.0344;
1391.1000;0.2304;7.0344;
1391.4000;0.2295;7.0367;
1391.7000;0.2295;7.0462;
1392.0000;0.2279;7.0391;
1392.3000;0.2287;7.0509;
1392.6000;0.2247;7.0462;
1392.9000;0.2263;7.0486;
1393.2000;0.2263;7.0415;
1393.5000;0.2263;7.0462;
1393.8000;0.2263;7.0415;
1394.1000;0.2271;7.0438;
1394.4000;0.2271;7.0556;
1394.7000;0.2279;7.0604;
1395.0000;0.2263;7.0462;
1395.3000;0.2263;7.0438;
1395.6000;0.2263;7.0415;
1395.9000;0.2263;7.0367;
1396.2000;0.2287;7.0391;
1396.5000;0.2271;7.0391;
1396.8000;0.2271;7.0391;
1397.1000;0.2304;7.0438;
1397.4000;0.2255;7.0391;
1397.7000;0.2312;7.0415;
1398.0000;0.2279;7.0296;
1398.3000;0.2230;7.0202;
1398.6000;0.2279;7.0296;
1398.9000;0.2287;7.0344;
1399.2000;0.2279;7.0296;
1399.5000;0.2239;7.0249;
1399.8000;0.2287;7.0367;
