time/ms;Fluo/V;P700 deltaI/I x10³;
-199.8000;0.2979;7.2164;
-199.5000;0.3004;7.2211;
-199.2000;0.3012;7.2211;
-198.9000;0.2987;7.2140;
-198.6000;0.3004;7.2187;
-198.3000;0.3109;7.2518;
-198.0000;0.3020;7.2306;
-197.7000;0.3036;7.2353;
-197.4000;0.3004;7.2353;
-197.1000;0.3004;7.2424;
-196.8000;0.2979;7.2424;
-196.5000;0.3004;7.2447;
-196.2000;0.3004;7.2353;
-195.9000;0.3020;7.2329;
-195.6000;0.3012;7.2211;
-195.3000;0.2996;7.2164;
-195.0000;0.3020;7.2164;
-194.7000;0.3044;7.2093;
-194.4000;0.3012;7.2046;
-194.1000;0.3020;7.2164;
-193.8000;0.3004;7.2164;
-193.5000;0.3020;7.2187;
-193.2000;0.3020;7.2164;
-192.9000;0.3069;7.2353;
-192.6000;0.3012;7.2235;
-192.3000;0.3012;7.2235;
-192.0000;0.3012;7.2211;
-191.7000;0.3012;7.2258;
-191.4000;0.3004;7.2282;
-191.1000;0.3004;7.2258;
-190.8000;0.3004;7.2282;
-190.5000;0.3004;7.2306;
-190.2000;0.2987;7.2329;
-189.9000;0.2996;7.2329;
-189.6000;0.3004;7.2400;
-189.3000;0.3012;7.2376;
-189.0000;0.2979;7.2258;
-188.7000;0.3020;7.2306;
-188.4000;0.3020;7.2306;
-188.1000;0.3020;7.2329;
-187.8000;0.2996;7.2329;
-187.5000;0.3012;7.2329;
-187.2000;0.2971;7.2306;
-186.9000;0.3150;7.2707;
-186.6000;0.3004;7.2447;
-186.3000;0.3028;7.2447;
-186.0000;0.3012;7.2447;
-185.7000;0.3028;7.2566;
-185.4000;0.3020;7.2471;
-185.1000;0.3012;7.2376;
-184.8000;0.3020;7.2400;
-184.5000;0.3012;7.2376;
-184.2000;0.3028;7.2471;
-183.9000;0.2987;7.2353;
-183.6000;0.3012;7.2376;
-183.3000;0.2996;7.2306;
-183.0000;0.2979;7.2306;
-182.7000;0.3028;7.2447;
-182.4000;0.3020;7.2447;
-182.1000;0.3020;7.2376;
-181.8000;0.3012;7.2353;
-181.5000;0.3020;7.2353;
-181.2000;0.3020;7.2376;
-180.9000;0.3012;7.2376;
-180.6000;0.2996;7.2282;
-180.3000;0.2996;7.2306;
-180.0000;0.3126;7.2613;
-179.7000;0.3012;7.2329;
-179.4000;0.3004;7.2282;
-179.1000;0.2996;7.2282;
-178.8000;0.2898;7.1998;
-178.5000;0.3020;7.2258;
-178.2000;0.2987;7.2116;
-177.9000;0.2987;7.2022;
-177.6000;0.3020;7.2164;
-177.3000;0.3053;7.2258;
-177.0000;0.2939;7.2140;
-176.7000;0.2996;7.2353;
-176.4000;0.3020;7.2424;
-176.1000;0.2987;7.2329;
-175.8000;0.2979;7.2235;
-175.5000;0.2996;7.2282;
-175.2000;0.3020;7.2258;
-174.9000;0.3028;7.2353;
-174.6000;0.3012;7.2329;
-174.3000;0.2930;7.2211;
-174.0000;0.3004;7.2424;
-173.7000;0.3004;7.2447;
-173.4000;0.3012;7.2495;
-173.1000;0.2898;7.2306;
-172.8000;0.3036;7.2424;
-172.5000;0.3020;7.2400;
-172.2000;0.3020;7.2424;
-171.9000;0.3020;7.2447;
-171.6000;0.3044;7.2518;
-171.3000;0.3020;7.2424;
-171.0000;0.2979;7.2376;
-170.7000;0.3012;7.2447;
-170.4000;0.3012;7.2447;
-170.1000;0.3004;7.2518;
-169.8000;0.3061;7.2566;
-169.5000;0.3004;7.2353;
-169.2000;0.3020;7.2329;
-168.9000;0.2947;7.2046;
-168.6000;0.3142;7.2447;
-168.3000;0.2963;7.2022;
-168.0000;0.3004;7.2140;
-167.7000;0.2971;7.2022;
-167.4000;0.2955;7.2069;
-167.1000;0.2930;7.1975;
-166.8000;0.3020;7.2211;
-166.5000;0.3012;7.2164;
-166.2000;0.3044;7.2282;
-165.9000;0.3036;7.2258;
-165.6000;0.2971;7.2164;
-165.3000;0.3012;7.2258;
-165.0000;0.2987;7.2187;
-164.7000;0.3142;7.2589;
-164.4000;0.3012;7.2353;
-164.1000;0.3044;7.2376;
-163.8000;0.3028;7.2376;
-163.5000;0.3004;7.2329;
-163.2000;0.2987;7.2258;
-162.9000;0.3036;7.2400;
-162.6000;0.3012;7.2400;
-162.3000;0.3028;7.2424;
-162.0000;0.3020;7.2282;
-161.7000;0.3020;7.2258;
-161.4000;0.3012;7.2282;
-161.1000;0.3020;7.2187;
-160.8000;0.3053;7.2235;
-160.5000;0.3020;7.2164;
-160.2000;0.2898;7.1880;
-159.9000;0.3028;7.2282;
-159.6000;0.3012;7.2140;
-159.3000;0.3020;7.2140;
-159.0000;0.3028;7.2211;
-158.7000;0.3036;7.2235;
-158.4000;0.3028;7.2116;
-158.1000;0.3053;7.2211;
-157.8000;0.3036;7.2164;
-157.5000;0.3028;7.2093;
-157.2000;0.3004;7.2116;
-156.9000;0.3020;7.2187;
-156.6000;0.3004;7.2140;
-156.3000;0.2996;7.2140;
-156.0000;0.3044;7.2282;
-155.7000;0.3004;7.2140;
-155.4000;0.3004;7.2116;
-155.1000;0.2987;7.2116;
-154.8000;0.3020;7.2258;
-154.5000;0.2979;7.2187;
-154.2000;0.3036;7.2329;
-153.9000;0.2971;7.2187;
-153.6000;0.2971;7.2187;
-153.3000;0.3012;7.2306;
-153.0000;0.3028;7.2329;
-152.7000;0.2955;7.2164;
-152.4000;0.3085;7.2589;
-152.1000;0.3004;7.2400;
-151.8000;0.3012;7.2471;
-151.5000;0.3012;7.2518;
-151.2000;0.3020;7.2495;
-150.9000;0.3004;7.2471;
-150.6000;0.2987;7.2471;
-150.3000;0.2979;7.2471;
-150.0000;0.2987;7.2376;
-149.7000;0.3044;7.2495;
-149.4000;0.3004;7.2329;
-149.1000;0.3036;7.2353;
-148.8000;0.3036;7.2353;
-148.5000;0.2979;7.2282;
-148.2000;0.2996;7.2353;
-147.9000;0.3036;7.2400;
-147.6000;0.2963;7.2258;
-147.3000;0.3036;7.2400;
-147.0000;0.3028;7.2376;
-146.7000;0.2996;7.2258;
-146.4000;0.3020;7.2282;
-146.1000;0.3028;7.2187;
-145.8000;0.3020;7.2211;
-145.5000;0.3069;7.2353;
-145.2000;0.2996;7.2258;
-144.9000;0.3004;7.2447;
-144.6000;0.2963;7.2306;
-144.3000;0.3036;7.2566;
-144.0000;0.2987;7.2376;
-143.7000;0.3077;7.2471;
-143.4000;0.3012;7.2258;
-143.1000;0.3061;7.2447;
-142.8000;0.3020;7.2424;
-142.5000;0.2971;7.2306;
-142.2000;0.3020;7.2471;
-141.9000;0.3028;7.2471;
-141.6000;0.3012;7.2400;
-141.3000;0.3004;7.2306;
-141.0000;0.2963;7.2187;
-140.7000;0.3004;7.2329;
-140.4000;0.3020;7.2235;
-140.1000;0.3020;7.2235;
-139.8000;0.2996;7.2235;
-139.5000;0.3044;7.2258;
-139.2000;0.3012;7.2164;
-138.9000;0.3012;7.2140;
-138.6000;0.2996;7.2093;
-138.3000;0.3012;7.2046;
-138.0000;0.3036;7.2211;
-137.7000;0.3028;7.2187;
-137.4000;0.3020;7.2235;
-137.1000;0.2979;7.2140;
-136.8000;0.3012;7.2258;
-136.5000;0.3004;7.2211;
-136.2000;0.3004;7.2235;
-135.9000;0.3004;7.2116;
-135.6000;0.2922;7.1951;
-135.3000;0.3053;7.2282;
-135.0000;0.3020;7.2164;
-134.7000;0.3109;7.2353;
-134.4000;0.3012;7.2282;
-134.1000;0.3020;7.2211;
-133.8000;0.3004;7.2187;
-133.5000;0.3004;7.2187;
-133.2000;0.2996;7.2211;
-132.9000;0.3020;7.2376;
-132.6000;0.3012;7.2353;
-132.3000;0.2996;7.2282;
-132.0000;0.3004;7.2282;
-131.7000;0.3012;7.2258;
-131.4000;0.3012;7.2282;
-131.1000;0.3012;7.2306;
-130.8000;0.2987;7.2140;
-130.5000;0.3004;7.2069;
-130.2000;0.3012;7.2046;
-129.9000;0.3004;7.2022;
-129.6000;0.3012;7.2069;
-129.3000;0.3020;7.2116;
-129.0000;0.3036;7.2235;
-128.7000;0.3028;7.2258;
-128.4000;0.3020;7.2235;
-128.1000;0.3036;7.2235;
-127.8000;0.3028;7.2258;
-127.5000;0.3004;7.2140;
-127.2000;0.3020;7.2282;
-126.9000;0.3020;7.2306;
-126.6000;0.3036;7.2376;
-126.3000;0.3012;7.2376;
-126.0000;0.3012;7.2306;
-125.7000;0.2947;7.2069;
-125.4000;0.3012;7.2235;
-125.1000;0.3020;7.2282;
-124.8000;0.3012;7.2235;
-124.5000;0.2963;7.2093;
-124.2000;0.3028;7.2258;
-123.9000;0.3020;7.2258;
-123.6000;0.3020;7.2258;
-123.3000;0.3004;7.2235;
-123.0000;0.2971;7.2211;
-122.7000;0.3020;7.2424;
-122.4000;0.3020;7.2329;
-122.1000;0.2922;7.2140;
-121.8000;0.3004;7.2376;
-121.5000;0.3012;7.2306;
-121.2000;0.3044;7.2306;
-120.9000;0.3020;7.2235;
-120.6000;0.3004;7.2235;
-120.3000;0.3020;7.2306;
-120.0000;0.3012;7.2306;
-119.7000;0.2996;7.2187;
-119.4000;0.3004;7.2140;
-119.1000;0.3020;7.2093;
-118.8000;0.3004;7.2116;
-118.5000;0.2996;7.2258;
-118.2000;0.2996;7.2282;
-117.9000;0.3012;7.2306;
-117.6000;0.3020;7.2306;
-117.3000;0.2987;7.2235;
-117.0000;0.3012;7.2471;
-116.7000;0.3012;7.2447;
-116.4000;0.3028;7.2495;
-116.1000;0.3036;7.2424;
-115.8000;0.2996;7.2376;
-115.5000;0.2996;7.2376;
-115.2000;0.3020;7.2353;
-114.9000;0.3004;7.2376;
-114.6000;0.2996;7.2258;
-114.3000;0.3036;7.2258;
-114.0000;0.3036;7.2258;
-113.7000;0.3036;7.2282;
-113.4000;0.3004;7.2282;
-113.1000;0.2987;7.2329;
-112.8000;0.3004;7.2329;
-112.5000;0.3012;7.2400;
-112.2000;0.2979;7.2187;
-111.9000;0.3028;7.2164;
-111.6000;0.3020;7.2164;
-111.3000;0.3004;7.2164;
-111.0000;0.3012;7.2140;
-110.7000;0.3004;7.2140;
-110.4000;0.3004;7.2235;
-110.1000;0.2979;7.2140;
-109.8000;0.3004;7.2211;
-109.5000;0.2987;7.2211;
-109.2000;0.2987;7.2164;
-108.9000;0.3004;7.2235;
-108.6000;0.3012;7.2306;
-108.3000;0.3061;7.2471;
-108.0000;0.3036;7.2542;
-107.7000;0.2987;7.2400;
-107.4000;0.3020;7.2447;
-107.1000;0.2963;7.2282;
-106.8000;0.3020;7.2353;
-106.5000;0.3012;7.2258;
-106.2000;0.3004;7.2211;
-105.9000;0.3020;7.2282;
-105.6000;0.3004;7.2282;
-105.3000;0.3053;7.2376;
-105.0000;0.3012;7.2329;
-104.7000;0.2955;7.2164;
-104.4000;0.3012;7.2211;
-104.1000;0.3036;7.2164;
-103.8000;0.3020;7.2093;
-103.5000;0.3020;7.2187;
-103.2000;0.3028;7.2187;
-102.9000;0.3028;7.2235;
-102.6000;0.3020;7.2235;
-102.3000;0.2987;7.2187;
-102.0000;0.3053;7.2376;
-101.7000;0.2922;7.2093;
-101.4000;0.3036;7.2306;
-101.1000;0.3028;7.2306;
-100.8000;0.3004;7.2258;
-100.5000;0.3053;7.2376;
-100.2000;0.3020;7.2258;
-99.9000;0.3012;7.2211;
-99.6000;0.3012;7.2187;
-99.3000;0.2906;7.1927;
-99.0000;0.2947;7.2069;
-98.7000;0.3004;7.2140;
-98.4000;0.3012;7.2046;
-98.1000;0.3012;7.2116;
-97.8000;0.3004;7.2116;
-97.5000;0.2996;7.2069;
-97.2000;0.3020;7.2093;
-96.9000;0.3004;7.2069;
-96.6000;0.3020;7.1975;
-96.3000;0.3020;7.2140;
-96.0000;0.3036;7.2258;
-95.7000;0.3004;7.2140;
-95.4000;0.2987;7.2093;
-95.1000;0.3020;7.2235;
-94.8000;0.3012;7.2235;
-94.5000;0.2987;7.2258;
-94.2000;0.3004;7.2258;
-93.9000;0.2996;7.2282;
-93.6000;0.3004;7.2329;
-93.3000;0.3028;7.2353;
-93.0000;0.2996;7.2211;
-92.7000;0.2996;7.2258;
-92.4000;0.3004;7.2187;
-92.1000;0.3020;7.2187;
-91.8000;0.3012;7.2235;
-91.5000;0.3012;7.2235;
-91.2000;0.3020;7.2164;
-90.9000;0.3028;7.2140;
-90.6000;0.3036;7.2211;
-90.3000;0.3004;7.2187;
-90.0000;0.3036;7.2306;
-89.7000;0.3036;7.2306;
-89.4000;0.3028;7.2164;
-89.1000;0.3028;7.2140;
-88.8000;0.3020;7.2140;
-88.5000;0.2971;7.2022;
-88.2000;0.3061;7.2164;
-87.9000;0.3004;7.2093;
-87.6000;0.3012;7.2235;
-87.3000;0.3085;7.2447;
-87.0000;0.3012;7.2329;
-86.7000;0.3028;7.2306;
-86.4000;0.2971;7.2235;
-86.1000;0.3020;7.2329;
-85.8000;0.3004;7.2306;
-85.5000;0.2996;7.2258;
-85.2000;0.3004;7.2211;
-84.9000;0.3012;7.2116;
-84.6000;0.3012;7.2116;
-84.3000;0.3004;7.2116;
-84.0000;0.3069;7.2282;
-83.7000;0.3004;7.2187;
-83.4000;0.3028;7.2187;
-83.1000;0.2971;7.2069;
-82.8000;0.2987;7.2022;
-82.5000;0.3004;7.2069;
-82.2000;0.3020;7.2116;
-81.9000;0.3012;7.2093;
-81.6000;0.3020;7.2235;
-81.3000;0.2987;7.2140;
-81.0000;0.2963;7.2140;
-80.7000;0.3012;7.2235;
-80.4000;0.3012;7.2187;
-80.1000;0.3044;7.2282;
-79.8000;0.3077;7.2258;
-79.5000;0.2979;7.2046;
-79.2000;0.3020;7.2093;
-78.9000;0.3004;7.1998;
-78.6000;0.3012;7.2069;
-78.3000;0.3020;7.2164;
-78.0000;0.3004;7.2187;
-77.7000;0.3004;7.2282;
-77.4000;0.2996;7.2258;
-77.1000;0.3028;7.2471;
-76.8000;0.2987;7.2376;
-76.5000;0.3012;7.2447;
-76.2000;0.3012;7.2447;
-75.9000;0.3020;7.2495;
-75.6000;0.3004;7.2495;
-75.3000;0.3004;7.2566;
-75.0000;0.3012;7.2684;
-74.7000;0.3004;7.2495;
-74.4000;0.3004;7.2376;
-74.1000;0.2996;7.2376;
-73.8000;0.3004;7.2353;
-73.5000;0.3012;7.2400;
-73.2000;0.3012;7.2329;
-72.9000;0.3044;7.2353;
-72.6000;0.3004;7.2353;
-72.3000;0.3004;7.2400;
-72.0000;0.3069;7.2589;
-71.7000;0.3028;7.2518;
-71.4000;0.3028;7.2566;
-71.1000;0.3012;7.2424;
-70.8000;0.3004;7.2400;
-70.5000;0.3020;7.2471;
-70.2000;0.3020;7.2376;
-69.9000;0.2987;7.2282;
-69.6000;0.2996;7.2306;
-69.3000;0.2987;7.2282;
-69.0000;0.3020;7.2329;
-68.7000;0.3004;7.2235;
-68.4000;0.3012;7.2306;
-68.1000;0.2996;7.2211;
-67.8000;0.3036;7.2282;
-67.5000;0.3004;7.2282;
-67.2000;0.3020;7.2306;
-66.9000;0.3044;7.2400;
-66.6000;0.3028;7.2400;
-66.3000;0.2979;7.2306;
-66.0000;0.3004;7.2400;
-65.7000;0.3012;7.2376;
-65.4000;0.3028;7.2424;
-65.1000;0.3036;7.2495;
-64.8000;0.3012;7.2400;
-64.5000;0.3004;7.2353;
-64.2000;0.3061;7.2424;
-63.9000;0.2963;7.2116;
-63.6000;0.3012;7.2187;
-63.3000;0.2979;7.2235;
-63.0000;0.2971;7.2116;
-62.7000;0.2955;7.1998;
-62.4000;0.2996;7.2022;
-62.1000;0.3004;7.2069;
-61.8000;0.2987;7.2046;
-61.5000;0.3012;7.1998;
-61.2000;0.3004;7.2069;
-60.9000;0.3020;7.2116;
-60.6000;0.3020;7.2140;
-60.3000;0.2996;7.2187;
-60.0000;0.3004;7.2306;
-59.7000;0.3012;7.2282;
-59.4000;0.3004;7.2329;
-59.1000;0.3012;7.2424;
-58.8000;0.3004;7.2400;
-58.5000;0.2996;7.2424;
-58.2000;0.2987;7.2376;
-57.9000;0.2987;7.2353;
-57.6000;0.3012;7.2424;
-57.3000;0.3028;7.2447;
-57.0000;0.3077;7.2542;
-56.7000;0.3036;7.2495;
-56.4000;0.3004;7.2376;
-56.1000;0.3020;7.2329;
-55.8000;0.3012;7.2353;
-55.5000;0.3028;7.2353;
-55.2000;0.3004;7.2353;
-54.9000;0.3012;7.2424;
-54.6000;0.3004;7.2424;
-54.3000;0.3004;7.2400;
-54.0000;0.3118;7.2636;
-53.7000;0.3028;7.2353;
-53.4000;0.3012;7.2282;
-53.1000;0.3004;7.2235;
-52.8000;0.3044;7.2258;
-52.5000;0.3028;7.2164;
-52.2000;0.3036;7.2235;
-51.9000;0.3020;7.2329;
-51.6000;0.3012;7.2447;
-51.3000;0.3004;7.2306;
-51.0000;0.2996;7.2329;
-50.7000;0.3004;7.2329;
-50.4000;0.2996;7.2329;
-50.1000;0.3020;7.2329;
-49.8000;0.2996;7.2282;
-49.5000;0.2996;7.2282;
-49.2000;0.3004;7.2306;
-48.9000;0.3004;7.2235;
-48.6000;0.2996;7.2282;
-48.3000;0.3004;7.2282;
-48.0000;0.3028;7.2258;
-47.7000;0.2996;7.2235;
-47.4000;0.3012;7.2282;
-47.1000;0.3004;7.2258;
-46.8000;0.2955;7.2164;
-46.5000;0.3044;7.2424;
-46.2000;0.3036;7.2424;
-45.9000;0.3004;7.2376;
-45.6000;0.3004;7.2353;
-45.3000;0.3020;7.2447;
-45.0000;0.3004;7.2424;
-44.7000;0.3004;7.2400;
-44.4000;0.3028;7.2400;
-44.1000;0.3028;7.2400;
-43.8000;0.3020;7.2400;
-43.5000;0.3126;7.2613;
-43.2000;0.2996;7.2329;
-42.9000;0.3012;7.2329;
-42.6000;0.3012;7.2329;
-42.3000;0.3004;7.2329;
-42.0000;0.3036;7.2400;
-41.7000;0.3020;7.2306;
-41.4000;0.3044;7.2306;
-41.1000;0.3036;7.2471;
-40.8000;0.2930;7.2235;
-40.5000;0.3012;7.2400;
-40.2000;0.2987;7.2306;
-39.9000;0.3004;7.2282;
-39.6000;0.3036;7.2353;
-39.3000;0.3004;7.2306;
-39.0000;0.3028;7.2447;
-38.7000;0.2979;7.2306;
-38.4000;0.3004;7.2376;
-38.1000;0.2996;7.2353;
-37.8000;0.3142;7.2684;
-37.5000;0.3004;7.2306;
-37.2000;0.2987;7.2235;
-36.9000;0.2971;7.2211;
-36.6000;0.3004;7.2211;
-36.3000;0.3036;7.2235;
-36.0000;0.3020;7.2258;
-35.7000;0.3004;7.2282;
-35.4000;0.3012;7.2329;
-35.1000;0.3012;7.2353;
-34.8000;0.3012;7.2329;
-34.5000;0.2996;7.2353;
-34.2000;0.2987;7.2376;
-33.9000;0.3004;7.2424;
-33.6000;0.2996;7.2424;
-33.3000;0.2955;7.2376;
-33.0000;0.3012;7.2518;
-32.7000;0.3134;7.2826;
-32.4000;0.3012;7.2447;
-32.1000;0.3036;7.2424;
-31.8000;0.3044;7.2400;
-31.5000;0.3069;7.2518;
-31.2000;0.2987;7.2306;
-30.9000;0.2947;7.2235;
-30.6000;0.3028;7.2376;
-30.3000;0.3020;7.2353;
-30.0000;0.3020;7.2518;
-29.7000;0.3077;7.2684;
-29.4000;0.3020;7.2471;
-29.1000;0.3158;7.2778;
-28.8000;0.3012;7.2353;
-28.5000;0.2890;7.2046;
-28.2000;0.3053;7.2329;
-27.9000;0.3004;7.2282;
-27.6000;0.3036;7.2329;
-27.3000;0.3077;7.2376;
-27.0000;0.3012;7.2235;
-26.7000;0.2963;7.2164;
-26.4000;0.3004;7.2235;
-26.1000;0.3020;7.2282;
-25.8000;0.3004;7.2353;
-25.5000;0.3004;7.2282;
-25.2000;0.2971;7.2211;
-24.9000;0.3028;7.2424;
-24.6000;0.2979;7.2329;
-24.3000;0.2996;7.2306;
-24.0000;0.3012;7.2353;
-23.7000;0.3053;7.2424;
-23.4000;0.3028;7.2376;
-23.1000;0.2987;7.2306;
-22.8000;0.3028;7.2400;
-22.5000;0.3036;7.2495;
-22.2000;0.3012;7.2400;
-21.9000;0.3028;7.2471;
-21.6000;0.3012;7.2424;
-21.3000;0.2939;7.2211;
-21.0000;0.3044;7.2424;
-20.7000;0.3069;7.2495;
-20.4000;0.3004;7.2258;
-20.1000;0.3028;7.2329;
-19.8000;0.3020;7.2400;
-19.5000;0.3028;7.2471;
-19.2000;0.3012;7.2471;
-18.9000;0.3012;7.2424;
-18.6000;0.2971;7.2376;
-18.3000;0.3028;7.2495;
-18.0000;0.3012;7.2495;
-17.7000;0.3028;7.2542;
-17.4000;0.3020;7.2471;
-17.1000;0.3004;7.2376;
-16.8000;0.3004;7.2400;
-16.5000;0.3004;7.2447;
-16.2000;0.3012;7.2542;
-15.9000;0.2996;7.2518;
-15.6000;0.3004;7.2518;
-15.3000;0.3012;7.2542;
-15.0000;0.3012;7.2542;
-14.7000;0.3044;7.2660;
-14.4000;0.3012;7.2613;
-14.1000;0.3012;7.2636;
-13.8000;0.2963;7.2400;
-13.5000;0.2996;7.2495;
-13.2000;0.3028;7.2518;
-12.9000;0.3012;7.2471;
-12.6000;0.2987;7.2329;
-12.3000;0.3004;7.2495;
-12.0000;0.3004;7.2424;
-11.7000;0.3012;7.2471;
-11.4000;0.3004;7.2518;
-11.1000;0.3004;7.2518;
-10.8000;0.3036;7.2613;
-10.5000;0.3004;7.2542;
-10.2000;0.3036;7.2589;
-9.9000;0.3004;7.2447;
-9.6000;0.3020;7.2424;
-9.3000;0.3012;7.2447;
-9.0000;0.3028;7.2400;
-8.7000;0.3020;7.2424;
-8.4000;0.3012;7.2447;
-8.1000;0.3012;7.2471;
-7.8000;0.3012;7.2353;
-7.5000;0.3020;7.2306;
-7.2000;0.3044;7.2376;
-6.9000;0.3020;7.2329;
-6.6000;0.3020;7.2376;
-6.3000;0.3004;7.2306;
-6.0000;0.2890;7.2022;
-5.7000;0.3020;7.2329;
-5.4000;0.2947;7.2046;
-5.1000;0.3012;7.2140;
-4.8000;0.3012;7.2211;
-4.5000;0.3012;7.2306;
-4.2000;0.3101;7.2518;
-3.9000;0.2987;7.2282;
-3.6000;0.3004;7.2329;
-3.3000;0.2979;7.2235;
-3.0000;0.3012;7.2353;
-2.7000;0.3004;7.2235;
-2.4000;0.3020;7.2258;
-2.1000;0.3012;7.2211;
-1.8000;0.2996;7.2211;
-1.5000;0.3004;7.2329;
-1.2000;0.2996;7.2353;
-0.9000;0.3004;7.2282;
-0.6000;0.3012;7.2400;
-0.3000;0.3004;7.2400;
0.0000;0.3004;7.2400;
0.3000;0.3020;7.2376;
0.6000;0.3036;7.2518;
0.9000;0.3061;7.2542;
1.2000;0.3085;7.2636;
1.5000;0.3101;7.2802;
1.8000;0.3069;7.2707;
2.1000;0.3118;7.2896;
2.4000;0.3109;7.3038;
2.7000;0.3199;7.3275;
3.0000;0.3101;7.3062;
3.3000;0.3126;7.3133;
3.6000;0.3101;7.3086;
3.9000;0.3126;7.3204;
4.2000;0.3158;7.3369;
4.5000;0.3166;7.3417;
4.8000;0.3142;7.3346;
5.1000;0.3150;7.3227;
5.4000;0.3158;7.3322;
5.7000;0.3150;7.3322;
6.0000;0.3150;7.3322;
6.3000;0.3183;7.3393;
6.6000;0.3142;7.3369;
6.9000;0.3175;7.3487;
7.2000;0.3077;7.3298;
7.5000;0.3142;7.3393;
7.8000;0.3240;7.3724;
8.1000;0.3175;7.3582;
8.4000;0.3118;7.3417;
8.7000;0.3223;7.3677;
9.0000;0.3166;7.3464;
9.3000;0.3175;7.3440;
9.6000;0.3191;7.3464;
9.9000;0.3207;7.3440;
10.2000;0.3142;7.3275;
10.5000;0.3183;7.3417;
10.8000;0.3175;7.3417;
11.1000;0.3175;7.3417;
11.4000;0.3191;7.3369;
11.7000;0.3199;7.3322;
12.0000;0.3166;7.3322;
12.3000;0.3199;7.3511;
12.6000;0.3183;7.3417;
12.9000;0.3166;7.3393;
13.2000;0.3191;7.3535;
13.5000;0.3183;7.3535;
13.8000;0.3183;7.3487;
14.1000;0.3183;7.3464;
14.4000;0.3199;7.3487;
14.7000;0.3215;7.3487;
15.0000;0.3191;7.3369;
15.3000;0.3191;7.3322;
15.6000;0.3191;7.3487;
15.9000;0.3207;7.3464;
16.2000;0.3199;7.3393;
16.5000;0.3199;7.3298;
16.8000;0.3207;7.3346;
17.1000;0.3199;7.3487;
17.4000;0.3199;7.3558;
17.7000;0.3183;7.3629;
18.0000;0.3191;7.3653;
18.3000;0.3223;7.3677;
18.6000;0.3207;7.3653;
18.9000;0.3207;7.3629;
19.2000;0.3199;7.3511;
19.5000;0.3207;7.3464;
19.8000;0.3223;7.3511;
20.1000;0.3207;7.3558;
20.4000;0.3207;7.3582;
20.7000;0.3191;7.3535;
21.0000;0.3313;7.3842;
21.3000;0.3183;7.3535;
21.6000;0.3199;7.3440;
21.9000;0.3215;7.3464;
22.2000;0.3207;7.3535;
22.5000;0.3240;7.3558;
22.8000;0.3199;7.3464;
23.1000;0.3223;7.3464;
23.4000;0.3207;7.3393;
23.7000;0.3240;7.3369;
24.0000;0.3223;7.3393;
24.3000;0.3215;7.3369;
24.6000;0.3207;7.3417;
24.9000;0.3223;7.3487;
25.2000;0.3207;7.3440;
25.5000;0.3207;7.3535;
25.8000;0.3207;7.3487;
26.1000;0.3215;7.3487;
26.4000;0.3223;7.3464;
26.7000;0.3264;7.3582;
27.0000;0.3232;7.3511;
27.3000;0.3215;7.3511;
27.6000;0.3232;7.3511;
27.9000;0.3191;7.3511;
28.2000;0.3215;7.3629;
28.5000;0.3215;7.3582;
28.8000;0.3272;7.3653;
29.1000;0.3215;7.3582;
29.4000;0.3223;7.3487;
29.7000;0.3215;7.3511;
30.0000;0.3232;7.3440;
30.3000;0.3223;7.3511;
30.6000;0.3215;7.3464;
30.9000;0.3215;7.3677;
31.2000;0.3223;7.3677;
31.5000;0.3215;7.3582;
31.8000;0.3223;7.3653;
32.1000;0.3232;7.3677;
32.4000;0.3183;7.3606;
32.7000;0.3223;7.3653;
33.0000;0.3215;7.3582;
33.3000;0.3183;7.3606;
33.6000;0.3240;7.3700;
33.9000;0.3223;7.3629;
34.2000;0.3256;7.3724;
34.5000;0.3215;7.3629;
34.8000;0.3223;7.3653;
35.1000;0.3248;7.3700;
35.4000;0.3232;7.3582;
35.7000;0.3215;7.3440;
36.0000;0.3175;7.3440;
36.3000;0.3223;7.3558;
36.6000;0.3240;7.3558;
36.9000;0.3215;7.3487;
37.2000;0.3240;7.3558;
37.5000;0.3223;7.3511;
37.8000;0.3248;7.3487;
38.1000;0.3191;7.3417;
38.4000;0.3223;7.3511;
38.7000;0.3248;7.3464;
39.0000;0.3248;7.3346;
39.3000;0.3240;7.3275;
39.6000;0.3183;7.3156;
39.9000;0.3256;7.3346;
40.2000;0.3191;7.3251;
40.5000;0.3240;7.3346;
40.8000;0.3223;7.3393;
41.1000;0.3256;7.3487;
41.4000;0.3232;7.3511;
41.7000;0.3215;7.3535;
42.0000;0.3223;7.3606;
42.3000;0.3223;7.3582;
42.6000;0.3280;7.3653;
42.9000;0.3223;7.3582;
43.2000;0.3223;7.3700;
43.5000;0.3240;7.3724;
43.8000;0.3240;7.3795;
44.1000;0.3207;7.3700;
44.4000;0.3240;7.3795;
44.7000;0.3223;7.3747;
45.0000;0.3264;7.3795;
45.3000;0.3240;7.3771;
45.6000;0.3223;7.3795;
45.9000;0.3232;7.3747;
46.2000;0.3199;7.3653;
46.5000;0.3248;7.3747;
46.8000;0.3223;7.3700;
47.1000;0.3248;7.3747;
47.4000;0.3223;7.3724;
47.7000;0.3232;7.3677;
48.0000;0.3256;7.3771;
48.3000;0.3256;7.3771;
48.6000;0.3272;7.3724;
48.9000;0.3256;7.3747;
49.2000;0.3248;7.3700;
49.5000;0.3232;7.3724;
49.8000;0.3215;7.3653;
50.1000;0.3248;7.3582;
50.4000;0.3248;7.3558;
50.7000;0.3232;7.3511;
51.0000;0.3240;7.3535;
51.3000;0.3240;7.3606;
51.6000;0.3232;7.3582;
51.9000;0.3256;7.3558;
52.2000;0.3215;7.3393;
52.5000;0.3240;7.3369;
52.8000;0.3248;7.3464;
53.1000;0.3256;7.3582;
53.4000;0.3232;7.3535;
53.7000;0.3248;7.3606;
54.0000;0.3248;7.3511;
54.3000;0.3248;7.3511;
54.6000;0.3240;7.3487;
54.9000;0.3248;7.3606;
55.2000;0.3248;7.3677;
55.5000;0.3264;7.3700;
55.8000;0.3207;7.3606;
56.1000;0.3223;7.3535;
56.4000;0.3248;7.3535;
56.7000;0.3232;7.3558;
57.0000;0.3232;7.3558;
57.3000;0.3264;7.3653;
57.6000;0.3256;7.3747;
57.9000;0.3240;7.3653;
58.2000;0.3248;7.3677;
58.5000;0.3215;7.3558;
58.8000;0.3223;7.3558;
59.1000;0.3223;7.3464;
59.4000;0.3256;7.3487;
59.7000;0.3240;7.3535;
60.0000;0.3232;7.3440;
60.3000;0.3305;7.3677;
60.6000;0.3248;7.3511;
60.9000;0.3207;7.3417;
61.2000;0.3256;7.3535;
61.5000;0.3223;7.3393;
61.8000;0.3232;7.3535;
62.1000;0.3232;7.3629;
62.4000;0.3240;7.3606;
62.7000;0.3183;7.3440;
63.0000;0.3248;7.3558;
63.3000;0.3264;7.3511;
63.6000;0.3240;7.3440;
63.9000;0.3256;7.3582;
64.2000;0.3223;7.3558;
64.5000;0.3280;7.3677;
64.8000;0.3240;7.3629;
65.1000;0.3232;7.3535;
65.4000;0.3256;7.3558;
65.7000;0.3199;7.3440;
66.0000;0.3264;7.3535;
66.3000;0.3248;7.3606;
66.6000;0.3256;7.3677;
66.9000;0.3264;7.3677;
67.2000;0.3223;7.3629;
67.5000;0.3207;7.3653;
67.8000;0.3248;7.3582;
68.1000;0.3256;7.3677;
68.4000;0.3248;7.3724;
68.7000;0.3240;7.3629;
69.0000;0.3240;7.3558;
69.3000;0.3256;7.3558;
69.6000;0.3248;7.3558;
69.9000;0.3248;7.3558;
70.2000;0.3240;7.3558;
70.5000;0.3256;7.3606;
70.8000;0.3256;7.3700;
71.1000;0.3256;7.3700;
71.4000;0.3264;7.3629;
71.7000;0.3256;7.3511;
72.0000;0.3240;7.3464;
72.3000;0.3289;7.3606;
72.6000;0.3248;7.3558;
72.9000;0.3248;7.3464;
73.2000;0.3280;7.3535;
73.5000;0.3280;7.3487;
73.8000;0.3248;7.3393;
74.1000;0.3256;7.3464;
74.4000;0.3264;7.3535;
74.7000;0.3313;7.3677;
75.0000;0.3232;7.3417;
75.3000;0.3232;7.3440;
75.6000;0.3248;7.3464;
75.9000;0.3223;7.3417;
76.2000;0.3248;7.3417;
76.5000;0.3248;7.3393;
76.8000;0.3256;7.3487;
77.1000;0.3305;7.3629;
77.4000;0.3248;7.3535;
77.7000;0.3232;7.3535;
78.0000;0.3240;7.3511;
78.3000;0.3256;7.3558;
78.6000;0.3232;7.3535;
78.9000;0.3248;7.3629;
79.2000;0.3297;7.3889;
79.5000;0.3256;7.3653;
79.8000;0.3248;7.3700;
80.1000;0.3248;7.3582;
80.4000;0.3272;7.3653;
80.7000;0.3256;7.3771;
81.0000;0.3248;7.3747;
81.3000;0.3248;7.3771;
81.6000;0.3256;7.3724;
81.9000;0.3223;7.3653;
82.2000;0.3248;7.3653;
82.5000;0.3240;7.3700;
82.8000;0.3223;7.3724;
83.1000;0.3240;7.3700;
83.4000;0.3264;7.3700;
83.7000;0.3248;7.3677;
84.0000;0.3264;7.3653;
84.3000;0.3264;7.3629;
84.6000;0.3248;7.3606;
84.9000;0.3248;7.3677;
85.2000;0.3215;7.3558;
85.5000;0.3248;7.3629;
85.8000;0.3256;7.3653;
86.1000;0.3248;7.3535;
86.4000;0.3256;7.3464;
86.7000;0.3248;7.3464;
87.0000;0.3248;7.3487;
87.3000;0.3248;7.3417;
87.6000;0.3248;7.3511;
87.9000;0.3240;7.3511;
88.2000;0.3289;7.3582;
88.5000;0.3232;7.3417;
88.8000;0.3248;7.3487;
89.1000;0.3248;7.3440;
89.4000;0.3256;7.3487;
89.7000;0.3256;7.3606;
90.0000;0.3248;7.3558;
90.3000;0.3248;7.3535;
90.6000;0.3248;7.3487;
90.9000;0.3223;7.3417;
91.2000;0.3280;7.3440;
91.5000;0.3256;7.3417;
91.8000;0.3272;7.3558;
92.1000;0.3256;7.3464;
92.4000;0.3240;7.3417;
92.7000;0.3248;7.3464;
93.0000;0.3199;7.3322;
93.3000;0.3248;7.3346;
93.6000;0.3240;7.3369;
93.9000;0.3313;7.3487;
94.2000;0.3248;7.3369;
94.5000;0.3297;7.3535;
94.8000;0.3248;7.3464;
95.1000;0.3248;7.3606;
95.4000;0.3191;7.3346;
95.7000;0.3240;7.3417;
96.0000;0.3248;7.3440;
96.3000;0.3223;7.3369;
96.6000;0.3240;7.3487;
96.9000;0.3240;7.3487;
97.2000;0.3207;7.3393;
97.5000;0.3280;7.3582;
97.8000;0.3232;7.3417;
98.1000;0.3223;7.3204;
98.4000;0.3256;7.3251;
98.7000;0.3264;7.3369;
99.0000;0.3264;7.3369;
99.3000;0.3280;7.3511;
99.6000;0.3248;7.3511;
99.9000;0.3256;7.3606;
100.2000;0.3240;7.3558;
100.5000;0.3256;7.3558;
100.8000;0.3232;7.3487;
101.1000;0.3199;7.3393;
101.4000;0.3264;7.3511;
101.7000;0.3215;7.3346;
102.0000;0.3240;7.3440;
102.3000;0.3272;7.3440;
102.6000;0.3264;7.3393;
102.9000;0.3248;7.3346;
103.2000;0.3240;7.3440;
103.5000;0.3240;7.3440;
103.8000;0.3240;7.3440;
104.1000;0.3240;7.3440;
104.4000;0.3240;7.3369;
104.7000;0.3264;7.3464;
105.0000;0.3248;7.3369;
105.3000;0.3248;7.3393;
105.6000;0.3240;7.3322;
105.9000;0.3232;7.3369;
106.2000;0.3240;7.3440;
106.5000;0.3248;7.3558;
106.8000;0.3183;7.3464;
107.1000;0.3289;7.3724;
107.4000;0.3232;7.3724;
107.7000;0.3256;7.3795;
108.0000;0.3248;7.3818;
108.3000;0.3240;7.3795;
108.6000;0.3240;7.3818;
108.9000;0.3248;7.3795;
109.2000;0.3272;7.3818;
109.5000;0.3297;7.3771;
109.8000;0.3248;7.3606;
110.1000;0.3256;7.3606;
110.4000;0.3248;7.3558;
110.7000;0.3240;7.3464;
111.0000;0.3264;7.3558;
111.3000;0.3207;7.3440;
111.6000;0.3264;7.3558;
111.9000;0.3256;7.3511;
112.2000;0.3248;7.3464;
112.5000;0.3272;7.3558;
112.8000;0.3264;7.3558;
113.1000;0.3248;7.3558;
113.4000;0.3256;7.3558;
113.7000;0.3256;7.3700;
114.0000;0.3272;7.3842;
114.3000;0.3264;7.3795;
114.6000;0.3232;7.3795;
114.9000;0.3272;7.3866;
115.2000;0.3264;7.3795;
115.5000;0.3280;7.3724;
115.8000;0.3256;7.3606;
116.1000;0.3240;7.3582;
116.4000;0.3297;7.3747;
116.7000;0.3264;7.3677;
117.0000;0.3191;7.3440;
117.3000;0.3223;7.3535;
117.6000;0.3248;7.3606;
117.9000;0.3256;7.3629;
118.2000;0.3240;7.3582;
118.5000;0.3158;7.3275;
118.8000;0.3272;7.3535;
119.1000;0.3207;7.3487;
119.4000;0.3240;7.3606;
119.7000;0.3223;7.3606;
120.0000;0.3248;7.3677;
120.3000;0.3256;7.3700;
120.6000;0.3264;7.3653;
120.9000;0.3248;7.3629;
121.2000;0.3240;7.3629;
121.5000;0.3248;7.3629;
121.8000;0.3256;7.3677;
122.1000;0.3248;7.3747;
122.4000;0.3264;7.3818;
122.7000;0.3232;7.3866;
123.0000;0.3240;7.3889;
123.3000;0.3240;7.3818;
123.6000;0.3215;7.3700;
123.9000;0.3256;7.3842;
124.2000;0.3362;7.3960;
124.5000;0.3240;7.3677;
124.8000;0.3175;7.3511;
125.1000;0.3264;7.3653;
125.4000;0.3223;7.3487;
125.7000;0.3240;7.3606;
126.0000;0.3248;7.3677;
126.3000;0.3232;7.3653;
126.6000;0.3232;7.3535;
126.9000;0.3280;7.3653;
127.2000;0.3248;7.3653;
127.5000;0.3264;7.3724;
127.8000;0.3240;7.3700;
128.1000;0.3175;7.3487;
128.4000;0.3264;7.3606;
128.7000;0.3264;7.3606;
129.0000;0.3337;7.3818;
129.3000;0.3232;7.3511;
129.6000;0.3256;7.3535;
129.9000;0.3248;7.3487;
130.2000;0.3240;7.3582;
130.5000;0.3248;7.3629;
130.8000;0.3232;7.3653;
131.1000;0.3256;7.3653;
131.4000;0.3256;7.3582;
131.7000;0.3223;7.3582;
132.0000;0.3223;7.3464;
132.3000;0.3248;7.3535;
132.6000;0.3248;7.3535;
132.9000;0.3280;7.3629;
133.2000;0.3256;7.3606;
133.5000;0.3223;7.3535;
133.8000;0.3248;7.3606;
134.1000;0.3256;7.3511;
134.4000;0.3240;7.3440;
134.7000;0.3240;7.3440;
135.0000;0.3240;7.3440;
135.3000;0.3232;7.3369;
135.6000;0.3248;7.3369;
135.9000;0.3215;7.3369;
136.2000;0.3248;7.3464;
136.5000;0.3240;7.3535;
136.8000;0.3248;7.3582;
137.1000;0.3232;7.3606;
137.4000;0.3232;7.3535;
137.7000;0.3248;7.3558;
138.0000;0.3256;7.3629;
138.3000;0.3248;7.3606;
138.6000;0.3240;7.3606;
138.9000;0.3240;7.3606;
139.2000;0.3248;7.3653;
139.5000;0.3264;7.3747;
139.8000;0.3264;7.3700;
140.1000;0.3256;7.3629;
140.4000;0.3256;7.3677;
140.7000;0.3248;7.3677;
141.0000;0.3215;7.3558;
141.3000;0.3240;7.3629;
141.6000;0.3256;7.3700;
141.9000;0.3199;7.3629;
142.2000;0.3232;7.3653;
142.5000;0.3207;7.3558;
142.8000;0.3232;7.3487;
143.1000;0.3223;7.3440;
143.4000;0.3191;7.3369;
143.7000;0.3240;7.3464;
144.0000;0.3240;7.3417;
144.3000;0.3256;7.3417;
144.6000;0.3248;7.3417;
144.9000;0.3248;7.3369;
145.2000;0.3256;7.3440;
145.5000;0.3264;7.3535;
145.8000;0.3264;7.3511;
146.1000;0.3158;7.3369;
146.4000;0.3215;7.3511;
146.7000;0.3256;7.3535;
147.0000;0.3264;7.3440;
147.3000;0.3248;7.3322;
147.6000;0.3240;7.3298;
147.9000;0.3248;7.3322;
148.2000;0.3256;7.3346;
148.5000;0.3256;7.3417;
148.8000;0.3264;7.3417;
149.1000;0.3256;7.3322;
149.4000;0.3264;7.3298;
149.7000;0.3321;7.3511;
150.0000;0.3256;7.3393;
150.3000;0.3215;7.3322;
150.6000;0.3256;7.3393;
150.9000;0.3248;7.3417;
151.2000;0.3264;7.3464;
151.5000;0.3240;7.3487;
151.8000;0.3240;7.3511;
152.1000;0.3240;7.3582;
152.4000;0.3232;7.3606;
152.7000;0.3240;7.3653;
153.0000;0.3232;7.3629;
153.3000;0.3215;7.3606;
153.6000;0.3248;7.3747;
153.9000;0.3256;7.3677;
154.2000;0.3240;7.3606;
154.5000;0.3280;7.3677;
154.8000;0.3240;7.3677;
155.1000;0.3264;7.3629;
155.4000;0.3248;7.3487;
155.7000;0.3240;7.3369;
156.0000;0.3297;7.3558;
156.3000;0.3248;7.3440;
156.6000;0.3232;7.3535;
156.9000;0.3207;7.3487;
157.2000;0.3232;7.3487;
157.5000;0.3158;7.3417;
157.8000;0.3248;7.3535;
158.1000;0.3183;7.3322;
158.4000;0.3248;7.3487;
158.7000;0.3240;7.3417;
159.0000;0.3240;7.3346;
159.3000;0.3240;7.3393;
159.6000;0.3256;7.3535;
159.9000;0.3248;7.3511;
160.2000;0.3354;7.3700;
160.5000;0.3240;7.3558;
160.8000;0.3264;7.3535;
161.1000;0.3264;7.3535;
161.4000;0.3264;7.3558;
161.7000;0.3240;7.3464;
162.0000;0.3264;7.3511;
162.3000;0.3264;7.3558;
162.6000;0.3240;7.3535;
162.9000;0.3248;7.3511;
163.2000;0.3272;7.3700;
163.5000;0.3248;7.3653;
163.8000;0.3232;7.3653;
164.1000;0.3232;7.3677;
164.4000;0.3232;7.3653;
164.7000;0.3256;7.3653;
165.0000;0.3248;7.3606;
165.3000;0.3248;7.3606;
165.6000;0.3248;7.3606;
165.9000;0.3264;7.3582;
166.2000;0.3264;7.3629;
166.5000;0.3313;7.3700;
166.8000;0.3158;7.3417;
167.1000;0.3240;7.3558;
167.4000;0.3240;7.3629;
167.7000;0.3175;7.3487;
168.0000;0.3313;7.3984;
168.3000;0.3248;7.3747;
168.6000;0.3256;7.3795;
168.9000;0.3215;7.3724;
169.2000;0.3248;7.3795;
169.5000;0.3256;7.3771;
169.8000;0.3264;7.3700;
170.1000;0.3264;7.3653;
170.4000;0.3264;7.3582;
170.7000;0.3248;7.3558;
171.0000;0.3272;7.3582;
171.3000;0.3240;7.3511;
171.6000;0.3256;7.3487;
171.9000;0.3240;7.3487;
172.2000;0.3199;7.3322;
172.5000;0.3240;7.3440;
172.8000;0.3240;7.3440;
173.1000;0.3240;7.3346;
173.4000;0.3240;7.3393;
173.7000;0.3240;7.3417;
174.0000;0.3248;7.3440;
174.3000;0.3232;7.3393;
174.6000;0.3248;7.3440;
174.9000;0.3256;7.3487;
175.2000;0.3346;7.3771;
175.5000;0.3248;7.3487;
175.8000;0.3256;7.3393;
176.1000;0.3248;7.3417;
176.4000;0.3256;7.3440;
176.7000;0.3256;7.3440;
177.0000;0.3248;7.3511;
177.3000;0.3256;7.3511;
177.6000;0.3264;7.3558;
177.9000;0.3248;7.3511;
178.2000;0.3248;7.3558;
178.5000;0.3248;7.3606;
178.8000;0.3256;7.3629;
179.1000;0.3223;7.3558;
179.4000;0.3248;7.3653;
179.7000;0.3248;7.3629;
180.0000;0.3256;7.3653;
180.3000;0.3256;7.3487;
180.6000;0.3280;7.3582;
180.9000;0.3240;7.3535;
181.2000;0.3232;7.3511;
181.5000;0.3207;7.3487;
181.8000;0.3248;7.3511;
182.1000;0.3264;7.3558;
182.4000;0.3240;7.3606;
182.7000;0.3248;7.3653;
183.0000;0.3240;7.3606;
183.3000;0.3232;7.3606;
183.6000;0.3272;7.3677;
183.9000;0.3248;7.3606;
184.2000;0.3240;7.3487;
184.5000;0.3240;7.3535;
184.8000;0.3248;7.3558;
185.1000;0.3272;7.3606;
185.4000;0.3215;7.3558;
185.7000;0.3248;7.3677;
186.0000;0.3256;7.3724;
186.3000;0.3240;7.3747;
186.6000;0.3248;7.3747;
186.9000;0.3289;7.3771;
187.2000;0.3240;7.3653;
187.5000;0.3264;7.3795;
187.8000;0.3199;7.3629;
188.1000;0.3240;7.3558;
188.4000;0.3199;7.3487;
188.7000;0.3232;7.3653;
189.0000;0.3321;7.3795;
189.3000;0.3248;7.3582;
189.6000;0.3240;7.3558;
189.9000;0.3248;7.3487;
190.2000;0.3264;7.3511;
190.5000;0.3232;7.3369;
190.8000;0.3280;7.3487;
191.1000;0.3264;7.3440;
191.4000;0.3264;7.3417;
191.7000;0.3280;7.3511;
192.0000;0.3248;7.3464;
192.3000;0.3337;7.3724;
192.6000;0.3256;7.3511;
192.9000;0.3272;7.3511;
193.2000;0.3256;7.3511;
193.5000;0.3223;7.3464;
193.8000;0.3240;7.3464;
194.1000;0.3223;7.3464;
194.4000;0.3199;7.3346;
194.7000;0.3240;7.3440;
195.0000;0.3248;7.3511;
195.3000;0.3240;7.3582;
195.6000;0.3256;7.3535;
195.9000;0.3248;7.3417;
196.2000;0.3256;7.3417;
196.5000;0.3199;7.3298;
196.8000;0.3248;7.3393;
197.1000;0.3256;7.3393;
197.4000;0.3248;7.3440;
197.7000;0.3337;7.3606;
198.0000;0.3256;7.3417;
198.3000;0.3256;7.3346;
198.6000;0.3256;7.3322;
198.9000;0.3289;7.3298;
199.2000;0.3280;7.3369;
199.5000;0.3248;7.3393;
199.8000;0.3232;7.3346;
200.1000;0.3313;7.3487;
200.4000;0.3256;7.3393;
200.7000;0.3248;7.3464;
201.0000;0.3232;7.3346;
201.3000;0.3272;7.3346;
201.6000;0.3232;7.3275;
201.9000;0.3256;7.3322;
202.2000;0.3248;7.3417;
202.5000;0.3207;7.3322;
202.8000;0.3248;7.3346;
203.1000;0.3240;7.3322;
203.4000;0.3240;7.3346;
203.7000;0.3175;7.3275;
204.0000;0.3256;7.3511;
204.3000;0.3256;7.3629;
204.6000;0.3248;7.3629;
204.9000;0.3248;7.3677;
205.2000;0.3248;7.3747;
205.5000;0.3272;7.3842;
205.8000;0.3240;7.3629;
206.1000;0.3248;7.3558;
206.4000;0.3264;7.3511;
206.7000;0.3256;7.3487;
207.0000;0.3280;7.3558;
207.3000;0.3215;7.3511;
207.6000;0.3240;7.3606;
207.9000;0.3232;7.3558;
208.2000;0.3223;7.3487;
208.5000;0.3223;7.3440;
208.8000;0.3240;7.3440;
209.1000;0.3240;7.3417;
209.4000;0.3248;7.3393;
209.7000;0.3248;7.3440;
210.0000;0.3240;7.3417;
210.3000;0.3248;7.3511;
210.6000;0.3272;7.3535;
210.9000;0.3175;7.3275;
211.2000;0.3215;7.3346;
211.5000;0.3223;7.3298;
211.8000;0.3207;7.3156;
212.1000;0.3240;7.3251;
212.4000;0.3232;7.3156;
212.7000;0.3256;7.3227;
213.0000;0.3207;7.3086;
213.3000;0.3240;7.3204;
213.6000;0.3191;7.3180;
213.9000;0.3248;7.3322;
214.2000;0.3240;7.3393;
214.5000;0.3248;7.3322;
214.8000;0.3199;7.3204;
215.1000;0.3240;7.3275;
215.4000;0.3256;7.3322;
215.7000;0.3240;7.3322;
216.0000;0.3248;7.3464;
216.3000;0.3240;7.3440;
216.6000;0.3272;7.3511;
216.9000;0.3232;7.3464;
217.2000;0.3232;7.3558;
217.5000;0.3264;7.3535;
217.8000;0.3256;7.3440;
218.1000;0.3272;7.3417;
218.4000;0.3289;7.3464;
218.7000;0.3297;7.3346;
219.0000;0.3272;7.3322;
219.3000;0.3289;7.3322;
219.6000;0.3256;7.3227;
219.9000;0.3191;7.3062;
220.2000;0.3150;7.3015;
220.5000;0.3248;7.3251;
220.8000;0.3362;7.3487;
221.1000;0.3256;7.3204;
221.4000;0.3248;7.3298;
221.7000;0.3240;7.3369;
222.0000;0.3248;7.3393;
222.3000;0.3240;7.3464;
222.6000;0.3240;7.3440;
222.9000;0.3256;7.3393;
223.2000;0.3240;7.3464;
223.5000;0.3248;7.3464;
223.8000;0.3215;7.3511;
224.1000;0.3223;7.3558;
224.4000;0.3248;7.3606;
224.7000;0.3264;7.3629;
225.0000;0.3256;7.3653;
225.3000;0.3248;7.3606;
225.6000;0.3264;7.3582;
225.9000;0.3256;7.3511;
226.2000;0.3272;7.3511;
226.5000;0.3248;7.3511;
226.8000;0.3256;7.3464;
227.1000;0.3240;7.3464;
227.4000;0.3240;7.3535;
227.7000;0.3256;7.3653;
228.0000;0.3248;7.3582;
228.3000;0.3256;7.3582;
228.6000;0.3248;7.3677;
228.9000;0.3232;7.3629;
229.2000;0.3256;7.3653;
229.5000;0.3248;7.3747;
229.8000;0.3248;7.3653;
230.1000;0.3248;7.3629;
230.4000;0.3256;7.3606;
230.7000;0.3297;7.3771;
231.0000;0.3280;7.3629;
231.3000;0.3297;7.3724;
231.6000;0.3264;7.3558;
231.9000;0.3223;7.3369;
232.2000;0.3223;7.3393;
232.5000;0.3264;7.3511;
232.8000;0.3248;7.3440;
233.1000;0.3223;7.3346;
233.4000;0.3248;7.3393;
233.7000;0.3232;7.3346;
234.0000;0.3240;7.3369;
234.3000;0.3264;7.3440;
234.6000;0.3223;7.3440;
234.9000;0.3264;7.3558;
235.2000;0.3280;7.3558;
235.5000;0.3240;7.3393;
235.8000;0.3240;7.3369;
236.1000;0.3329;7.3558;
236.4000;0.3248;7.3322;
236.7000;0.3240;7.3322;
237.0000;0.3256;7.3393;
237.3000;0.3215;7.3346;
237.6000;0.3280;7.3582;
237.9000;0.3232;7.3511;
238.2000;0.3240;7.3464;
238.5000;0.3248;7.3511;
238.8000;0.3248;7.3535;
239.1000;0.3223;7.3487;
239.4000;0.3232;7.3511;
239.7000;0.3264;7.3558;
240.0000;0.3232;7.3417;
240.3000;0.3240;7.3369;
240.6000;0.3248;7.3417;
240.9000;0.3272;7.3417;
241.2000;0.3256;7.3369;
241.5000;0.3248;7.3322;
241.8000;0.3248;7.3322;
242.1000;0.3256;7.3298;
242.4000;0.3256;7.3369;
242.7000;0.3240;7.3393;
243.0000;0.3248;7.3440;
243.3000;0.3272;7.3535;
243.6000;0.3248;7.3464;
243.9000;0.3248;7.3464;
244.2000;0.3232;7.3511;
244.5000;0.3256;7.3606;
244.8000;0.3248;7.3511;
245.1000;0.3248;7.3535;
245.4000;0.3248;7.3582;
245.7000;0.3248;7.3582;
246.0000;0.3256;7.3582;
246.3000;0.3248;7.3629;
246.6000;0.3240;7.3653;
246.9000;0.3297;7.3747;
247.2000;0.3264;7.3724;
247.5000;0.3264;7.3747;
247.8000;0.3264;7.3653;
248.1000;0.3256;7.3558;
248.4000;0.3256;7.3511;
248.7000;0.3240;7.3440;
249.0000;0.3248;7.3582;
249.3000;0.3232;7.3535;
249.6000;0.3232;7.3535;
249.9000;0.3223;7.3487;
250.2000;0.3256;7.3653;
250.5000;0.3280;7.3724;
250.8000;0.3232;7.3700;
251.1000;0.3256;7.3700;
251.4000;0.3232;7.3558;
251.7000;0.3240;7.3487;
252.0000;0.3142;7.3322;
252.3000;0.3256;7.3629;
252.6000;0.3248;7.3582;
252.9000;0.3232;7.3558;
253.2000;0.3199;7.3440;
253.5000;0.3264;7.3582;
253.8000;0.3240;7.3535;
254.1000;0.3240;7.3511;
254.4000;0.3240;7.3535;
254.7000;0.3248;7.3582;
255.0000;0.3264;7.3606;
255.3000;0.3289;7.3795;
255.6000;0.3256;7.3818;
255.9000;0.3191;7.3653;
256.2000;0.3248;7.3606;
256.5000;0.3264;7.3606;
256.8000;0.3232;7.3558;
257.1000;0.3289;7.3606;
257.4000;0.3248;7.3558;
257.7000;0.3248;7.3487;
258.0000;0.3248;7.3511;
258.3000;0.3240;7.3558;
258.6000;0.3240;7.3535;
258.9000;0.3264;7.3558;
259.2000;0.3207;7.3464;
259.5000;0.3248;7.3535;
259.8000;0.3264;7.3535;
260.1000;0.3248;7.3582;
260.4000;0.3256;7.3582;
260.7000;0.3256;7.3582;
261.0000;0.3256;7.3629;
261.3000;0.3264;7.3629;
261.6000;0.3256;7.3582;
261.9000;0.3240;7.3677;
262.2000;0.3248;7.3653;
262.5000;0.3264;7.3629;
262.8000;0.3248;7.3558;
263.1000;0.3223;7.3440;
263.4000;0.3256;7.3440;
263.7000;0.3175;7.3369;
264.0000;0.3264;7.3511;
264.3000;0.3232;7.3464;
264.6000;0.3305;7.3582;
264.9000;0.3215;7.3535;
265.2000;0.3264;7.3582;
265.5000;0.3248;7.3582;
265.8000;0.3240;7.3606;
266.1000;0.3166;7.3417;
266.4000;0.3256;7.3629;
266.7000;0.3272;7.3724;
267.0000;0.3248;7.3653;
267.3000;0.3232;7.3629;
267.6000;0.3264;7.3677;
267.9000;0.3256;7.3677;
268.2000;0.3256;7.3700;
268.5000;0.3256;7.3795;
268.8000;0.3232;7.3842;
269.1000;0.3256;7.3889;
269.4000;0.3232;7.3937;
269.7000;0.3232;7.3937;
270.0000;0.3248;7.3889;
270.3000;0.3248;7.3866;
270.6000;0.3248;7.3747;
270.9000;0.3240;7.3677;
271.2000;0.3232;7.3606;
271.5000;0.3248;7.3629;
271.8000;0.3272;7.3653;
272.1000;0.3207;7.3440;
272.4000;0.3256;7.3511;
272.7000;0.3240;7.3464;
273.0000;0.3256;7.3511;
273.3000;0.3248;7.3440;
273.6000;0.3297;7.3535;
273.9000;0.3256;7.3464;
274.2000;0.3248;7.3440;
274.5000;0.3240;7.3487;
274.8000;0.3248;7.3487;
275.1000;0.3248;7.3487;
275.4000;0.3240;7.3393;
275.7000;0.3289;7.3487;
276.0000;0.3232;7.3417;
276.3000;0.3256;7.3535;
276.6000;0.3256;7.3535;
276.9000;0.3256;7.3511;
277.2000;0.3223;7.3440;
277.5000;0.3240;7.3464;
277.8000;0.3256;7.3511;
278.1000;0.3264;7.3535;
278.4000;0.3240;7.3582;
278.7000;0.3248;7.3535;
279.0000;0.3248;7.3535;
279.3000;0.3248;7.3440;
279.6000;0.3248;7.3369;
279.9000;0.3232;7.3322;
280.2000;0.3232;7.3369;
280.5000;0.3248;7.3393;
280.8000;0.3289;7.3417;
281.1000;0.3223;7.3204;
281.4000;0.3248;7.3227;
281.7000;0.3240;7.3227;
282.0000;0.3240;7.3298;
282.3000;0.3272;7.3487;
282.6000;0.3240;7.3346;
282.9000;0.3272;7.3393;
283.2000;0.3256;7.3440;
283.5000;0.3256;7.3440;
283.8000;0.3256;7.3487;
284.1000;0.3289;7.3677;
284.4000;0.3264;7.3606;
284.7000;0.3248;7.3629;
285.0000;0.3240;7.3606;
285.3000;0.3232;7.3558;
285.6000;0.3240;7.3582;
285.9000;0.3256;7.3558;
286.2000;0.3264;7.3558;
286.5000;0.3248;7.3582;
286.8000;0.3256;7.3629;
287.1000;0.3256;7.3511;
287.4000;0.3232;7.3464;
287.7000;0.3256;7.3558;
288.0000;0.3240;7.3487;
288.3000;0.3264;7.3606;
288.6000;0.3232;7.3535;
288.9000;0.3118;7.3227;
289.2000;0.3240;7.3535;
289.5000;0.3248;7.3582;
289.8000;0.3232;7.3440;
290.1000;0.3207;7.3393;
290.4000;0.3240;7.3487;
290.7000;0.3150;7.3369;
291.0000;0.3256;7.3653;
291.3000;0.3256;7.3582;
291.6000;0.3240;7.3582;
291.9000;0.3183;7.3393;
292.2000;0.3248;7.3511;
292.5000;0.3215;7.3464;
292.8000;0.3256;7.3535;
293.1000;0.3264;7.3558;
293.4000;0.3240;7.3440;
293.7000;0.3232;7.3346;
294.0000;0.3240;7.3346;
294.3000;0.3248;7.3393;
294.6000;0.3256;7.3322;
294.9000;0.3240;7.3251;
295.2000;0.3232;7.3275;
295.5000;0.3240;7.3417;
295.8000;0.3240;7.3440;
296.1000;0.3256;7.3393;
296.4000;0.3240;7.3275;
296.7000;0.3240;7.3322;
297.0000;0.3248;7.3440;
297.3000;0.3256;7.3440;
297.6000;0.3272;7.3487;
297.9000;0.3240;7.3393;
298.2000;0.3223;7.3322;
298.5000;0.3223;7.3298;
298.8000;0.3248;7.3369;
299.1000;0.3232;7.3346;
299.4000;0.3248;7.3393;
299.7000;0.3199;7.3298;
300.0000;0.3248;7.3440;
300.3000;0.3256;7.3417;
300.6000;0.3289;7.3511;
300.9000;0.3232;7.3487;
301.2000;0.3248;7.3487;
301.5000;0.3264;7.3487;
301.8000;0.3240;7.3464;
302.1000;0.3240;7.3369;
302.4000;0.3248;7.3369;
302.7000;0.3248;7.3346;
303.0000;0.3240;7.3369;
303.3000;0.3256;7.3487;
303.6000;0.3223;7.3393;
303.9000;0.3248;7.3417;
304.2000;0.3232;7.3440;
304.5000;0.3248;7.3535;
304.8000;0.3248;7.3511;
305.1000;0.3289;7.3582;
305.4000;0.3199;7.3369;
305.7000;0.3248;7.3511;
306.0000;0.3248;7.3511;
306.3000;0.3256;7.3511;
306.6000;0.3207;7.3298;
306.9000;0.3272;7.3464;
307.2000;0.3256;7.3511;
307.5000;0.3248;7.3535;
307.8000;0.3240;7.3535;
308.1000;0.3248;7.3535;
308.4000;0.3264;7.3487;
308.7000;0.3256;7.3464;
309.0000;0.3248;7.3440;
309.3000;0.3232;7.3346;
309.6000;0.3248;7.3487;
309.9000;0.3215;7.3535;
310.2000;0.3223;7.3629;
310.5000;0.3240;7.3653;
310.8000;0.3199;7.3535;
311.1000;0.3248;7.3629;
311.4000;0.3232;7.3582;
311.7000;0.3289;7.3724;
312.0000;0.3264;7.3606;
312.3000;0.3232;7.3535;
312.6000;0.3289;7.3747;
312.9000;0.3264;7.3724;
313.2000;0.3264;7.3724;
313.5000;0.3232;7.3677;
313.8000;0.3248;7.3629;
314.1000;0.3248;7.3653;
314.4000;0.3232;7.3582;
314.7000;0.3183;7.3535;
315.0000;0.3280;7.3677;
315.3000;0.3191;7.3417;
315.6000;0.3240;7.3511;
315.9000;0.3232;7.3535;
316.2000;0.3256;7.3417;
316.5000;0.3272;7.3464;
316.8000;0.3272;7.3464;
317.1000;0.3248;7.3487;
317.4000;0.3264;7.3487;
317.7000;0.3256;7.3464;
318.0000;0.3240;7.3393;
318.3000;0.3280;7.3629;
318.6000;0.3248;7.3606;
318.9000;0.3183;7.3417;
319.2000;0.3264;7.3535;
319.5000;0.3240;7.3440;
319.8000;0.3256;7.3440;
320.1000;0.3240;7.3440;
320.4000;0.3232;7.3417;
320.7000;0.3183;7.3322;
321.0000;0.3232;7.3487;
321.3000;0.3240;7.3606;
321.6000;0.3215;7.3558;
321.9000;0.3256;7.3629;
322.2000;0.3215;7.3629;
322.5000;0.3240;7.3677;
322.8000;0.3223;7.3582;
323.1000;0.3232;7.3535;
323.4000;0.3240;7.3535;
323.7000;0.3199;7.3393;
324.0000;0.3240;7.3511;
324.3000;0.3264;7.3629;
324.6000;0.3223;7.3629;
324.9000;0.3256;7.3700;
325.2000;0.3256;7.3606;
325.5000;0.3232;7.3464;
325.8000;0.3232;7.3440;
326.1000;0.3240;7.3417;
326.4000;0.3232;7.3464;
326.7000;0.3207;7.3346;
327.0000;0.3248;7.3511;
327.3000;0.3272;7.3535;
327.6000;0.3256;7.3558;
327.9000;0.3256;7.3582;
328.2000;0.3215;7.3487;
328.5000;0.3248;7.3558;
328.8000;0.3232;7.3440;
329.1000;0.3256;7.3417;
329.4000;0.3272;7.3464;
329.7000;0.3256;7.3464;
330.0000;0.3272;7.3440;
330.3000;0.3240;7.3417;
330.6000;0.3337;7.3677;
330.9000;0.3215;7.3346;
331.2000;0.3321;7.3582;
331.5000;0.3248;7.3440;
331.8000;0.3240;7.3417;
332.1000;0.3223;7.3298;
332.4000;0.3272;7.3393;
332.7000;0.3240;7.3346;
333.0000;0.3232;7.3298;
333.3000;0.3223;7.3322;
333.6000;0.3166;7.3275;
333.9000;0.3199;7.3251;
334.2000;0.3248;7.3298;
334.5000;0.3215;7.3417;
334.8000;0.3240;7.3487;
335.1000;0.3248;7.3464;
335.4000;0.3240;7.3511;
335.7000;0.3403;7.3889;
336.0000;0.3248;7.3511;
336.3000;0.3215;7.3393;
336.6000;0.3248;7.3440;
336.9000;0.3223;7.3346;
337.2000;0.3256;7.3464;
337.5000;0.3240;7.3440;
337.8000;0.3256;7.3511;
338.1000;0.3256;7.3487;
338.4000;0.3215;7.3464;
338.7000;0.3223;7.3535;
339.0000;0.3223;7.3440;
339.3000;0.3264;7.3487;
339.6000;0.3240;7.3417;
339.9000;0.3232;7.3322;
340.2000;0.3248;7.3417;
340.5000;0.3240;7.3440;
340.8000;0.3289;7.3511;
341.1000;0.3240;7.3417;
341.4000;0.3256;7.3464;
341.7000;0.3240;7.3417;
342.0000;0.3248;7.3487;
342.3000;0.3256;7.3511;
342.6000;0.3240;7.3582;
342.9000;0.3329;7.3747;
343.2000;0.3232;7.3440;
343.5000;0.3240;7.3369;
343.8000;0.3256;7.3369;
344.1000;0.3248;7.3417;
344.4000;0.3223;7.3369;
344.7000;0.3240;7.3417;
345.0000;0.3256;7.3487;
345.3000;0.3256;7.3487;
345.6000;0.3248;7.3487;
345.9000;0.3256;7.3440;
346.2000;0.3240;7.3440;
346.5000;0.3256;7.3464;
346.8000;0.3256;7.3417;
347.1000;0.3248;7.3440;
347.4000;0.3256;7.3464;
347.7000;0.3248;7.3393;
348.0000;0.3354;7.3700;
348.3000;0.3264;7.3511;
348.6000;0.3232;7.3464;
348.9000;0.3232;7.3511;
349.2000;0.3232;7.3511;
349.5000;0.3305;7.3677;
349.8000;0.3240;7.3511;
350.1000;0.3199;7.3417;
350.4000;0.3232;7.3487;
350.7000;0.3240;7.3558;
351.0000;0.3248;7.3535;
351.3000;0.3280;7.3511;
351.6000;0.3248;7.3369;
351.9000;0.3248;7.3346;
352.2000;0.3240;7.3346;
352.5000;0.3248;7.3346;
352.8000;0.3240;7.3298;
353.1000;0.3256;7.3275;
353.4000;0.3215;7.3133;
353.7000;0.3223;7.3156;
354.0000;0.3256;7.3227;
354.3000;0.3191;7.3251;
354.6000;0.3240;7.3393;
354.9000;0.3248;7.3393;
355.2000;0.3199;7.3511;
355.5000;0.3240;7.3629;
355.8000;0.3272;7.3677;
356.1000;0.3240;7.3535;
356.4000;0.3232;7.3535;
356.7000;0.3232;7.3464;
357.0000;0.3256;7.3464;
357.3000;0.3232;7.3440;
357.6000;0.3142;7.3109;
357.9000;0.3240;7.3298;
358.2000;0.3232;7.3275;
358.5000;0.3232;7.3251;
358.8000;0.3248;7.3298;
359.1000;0.3240;7.3251;
359.4000;0.3248;7.3275;
359.7000;0.3256;7.3322;
360.0000;0.3232;7.3251;
360.3000;0.3248;7.3322;
360.6000;0.3256;7.3440;
360.9000;0.3240;7.3464;
361.2000;0.3256;7.3535;
361.5000;0.3256;7.3487;
361.8000;0.3240;7.3558;
362.1000;0.3256;7.3700;
362.4000;0.3256;7.3795;
362.7000;0.3289;7.3889;
363.0000;0.3232;7.3653;
363.3000;0.3256;7.3724;
363.6000;0.3240;7.3724;
363.9000;0.3248;7.3747;
364.2000;0.3256;7.3747;
364.5000;0.3232;7.3700;
364.8000;0.3248;7.3724;
365.1000;0.3264;7.3724;
365.4000;0.3240;7.3629;
365.7000;0.3240;7.3653;
366.0000;0.3272;7.3582;
366.3000;0.3248;7.3487;
366.6000;0.3264;7.3464;
366.9000;0.3305;7.3487;
367.2000;0.3264;7.3487;
367.5000;0.3240;7.3511;
367.8000;0.3256;7.3535;
368.1000;0.3248;7.3464;
368.4000;0.3248;7.3440;
368.7000;0.3199;7.3322;
369.0000;0.3232;7.3346;
369.3000;0.3272;7.3440;
369.6000;0.3240;7.3393;
369.9000;0.3248;7.3440;
370.2000;0.3248;7.3487;
370.5000;0.3264;7.3440;
370.8000;0.3264;7.3487;
371.1000;0.3248;7.3464;
371.4000;0.3272;7.3582;
371.7000;0.3240;7.3511;
372.0000;0.3256;7.3511;
372.3000;0.3256;7.3440;
372.6000;0.3248;7.3369;
372.9000;0.3248;7.3417;
373.2000;0.3248;7.3535;
373.5000;0.3248;7.3511;
373.8000;0.3215;7.3440;
374.1000;0.3337;7.3747;
374.4000;0.3280;7.3677;
374.7000;0.3297;7.3653;
375.0000;0.3232;7.3487;
375.3000;0.3256;7.3582;
375.6000;0.3272;7.3535;
375.9000;0.3248;7.3511;
376.2000;0.3199;7.3346;
376.5000;0.3240;7.3440;
376.8000;0.3256;7.3582;
377.1000;0.3248;7.3629;
377.4000;0.3240;7.3582;
377.7000;0.3264;7.3606;
378.0000;0.3305;7.3606;
378.3000;0.3248;7.3511;
378.6000;0.3248;7.3535;
378.9000;0.3256;7.3464;
379.2000;0.3248;7.3464;
379.5000;0.3232;7.3393;
379.8000;0.3248;7.3511;
380.1000;0.3248;7.3511;
380.4000;0.3256;7.3511;
380.7000;0.3248;7.3464;
381.0000;0.3248;7.3535;
381.3000;0.3240;7.3629;
381.6000;0.3240;7.3700;
381.9000;0.3223;7.3677;
382.2000;0.3248;7.3677;
382.5000;0.3248;7.3677;
382.8000;0.3256;7.3653;
383.1000;0.3207;7.3511;
383.4000;0.3248;7.3629;
383.7000;0.3240;7.3535;
384.0000;0.3248;7.3582;
384.3000;0.3256;7.3582;
384.6000;0.3248;7.3582;
384.9000;0.3215;7.3558;
385.2000;0.3232;7.3606;
385.5000;0.3232;7.3511;
385.8000;0.3240;7.3535;
386.1000;0.3248;7.3629;
386.4000;0.3232;7.3558;
386.7000;0.3248;7.3582;
387.0000;0.3240;7.3582;
387.3000;0.3248;7.3606;
387.6000;0.3240;7.3629;
387.9000;0.3240;7.3558;
388.2000;0.3248;7.3535;
388.5000;0.3305;7.3677;
388.8000;0.3256;7.3535;
389.1000;0.3256;7.3582;
389.4000;0.3240;7.3653;
389.7000;0.3191;7.3535;
390.0000;0.3264;7.3700;
390.3000;0.3272;7.3771;
390.6000;0.3232;7.3795;
390.9000;0.3232;7.3795;
391.2000;0.3264;7.3795;
391.5000;0.3158;7.3511;
391.8000;0.3223;7.3606;
392.1000;0.3248;7.3677;
392.4000;0.3264;7.3677;
392.7000;0.3240;7.3677;
393.0000;0.3248;7.3558;
393.3000;0.3240;7.3487;
393.6000;0.3248;7.3606;
393.9000;0.3264;7.3724;
394.2000;0.3240;7.3653;
394.5000;0.3183;7.3511;
394.8000;0.3248;7.3653;
395.1000;0.3240;7.3629;
395.4000;0.3223;7.3606;
395.7000;0.3215;7.3606;
396.0000;0.3256;7.3677;
396.3000;0.3256;7.3677;
396.6000;0.3248;7.3582;
396.9000;0.3240;7.3606;
397.2000;0.3240;7.3653;
397.5000;0.3232;7.3653;
397.8000;0.3248;7.3724;
398.1000;0.3264;7.3771;
398.4000;0.3183;7.3606;
398.7000;0.3264;7.3747;
399.0000;0.3248;7.3606;
399.3000;0.3232;7.3558;
399.6000;0.3223;7.3606;
399.9000;0.3240;7.3629;
400.2000;0.3256;7.3724;
400.5000;0.3248;7.3747;
400.8000;0.3248;7.3795;
401.1000;0.3248;7.3771;
401.4000;0.3256;7.3771;
401.7000;0.3248;7.3747;
402.0000;0.3248;7.3724;
402.3000;0.3256;7.3677;
402.6000;0.3264;7.3724;
402.9000;0.3272;7.3747;
403.2000;0.3191;7.3558;
403.5000;0.3256;7.3653;
403.8000;0.3248;7.3629;
404.1000;0.3215;7.3677;
404.4000;0.3248;7.3724;
404.7000;0.3248;7.3629;
405.0000;0.3256;7.3606;
405.3000;0.3240;7.3629;
405.6000;0.3240;7.3771;
405.9000;0.3215;7.3677;
406.2000;0.3240;7.3606;
406.5000;0.3248;7.3724;
406.8000;0.3248;7.3724;
407.1000;0.3248;7.3700;
407.4000;0.3248;7.3677;
407.7000;0.3264;7.3629;
408.0000;0.3191;7.3393;
408.3000;0.3248;7.3558;
408.6000;0.3248;7.3535;
408.9000;0.3305;7.3747;
409.2000;0.3240;7.3653;
409.5000;0.3248;7.3677;
409.8000;0.3256;7.3700;
410.1000;0.3248;7.3653;
410.4000;0.3240;7.3677;
410.7000;0.3215;7.3653;
411.0000;0.3240;7.3629;
411.3000;0.3248;7.3606;
411.6000;0.3280;7.3677;
411.9000;0.3248;7.3606;
412.2000;0.3240;7.3606;
412.5000;0.3240;7.3724;
412.8000;0.3248;7.3724;
413.1000;0.3256;7.3724;
413.4000;0.3248;7.3606;
413.7000;0.3280;7.3724;
414.0000;0.3240;7.3606;
414.3000;0.3240;7.3629;
414.6000;0.3240;7.3653;
414.9000;0.3232;7.3629;
415.2000;0.3223;7.3629;
415.5000;0.3207;7.3606;
415.8000;0.3240;7.3629;
416.1000;0.3240;7.3511;
416.4000;0.3240;7.3511;
416.7000;0.3191;7.3322;
417.0000;0.3248;7.3558;
417.3000;0.3256;7.3629;
417.6000;0.3256;7.3653;
417.9000;0.3256;7.3677;
418.2000;0.3240;7.3677;
418.5000;0.3215;7.3582;
418.8000;0.3248;7.3700;
419.1000;0.3264;7.3771;
419.4000;0.3232;7.3582;
419.7000;0.3240;7.3582;
420.0000;0.3223;7.3511;
420.3000;0.3223;7.3582;
420.6000;0.3248;7.3629;
420.9000;0.3248;7.3606;
421.2000;0.3240;7.3535;
421.5000;0.3256;7.3511;
421.8000;0.3256;7.3700;
422.1000;0.3280;7.3700;
422.4000;0.3240;7.3582;
422.7000;0.3280;7.3677;
423.0000;0.3240;7.3582;
423.3000;0.3240;7.3558;
423.6000;0.3248;7.3535;
423.9000;0.3248;7.3700;
424.2000;0.3240;7.3700;
424.5000;0.3232;7.3606;
424.8000;0.3183;7.3535;
425.1000;0.3264;7.3724;
425.4000;0.3232;7.3677;
425.7000;0.3183;7.3558;
426.0000;0.3289;7.3747;
426.3000;0.3248;7.3582;
426.6000;0.3232;7.3582;
426.9000;0.3215;7.3487;
427.2000;0.3199;7.3393;
427.5000;0.3256;7.3417;
427.8000;0.3272;7.3511;
428.1000;0.3256;7.3535;
428.4000;0.3248;7.3606;
428.7000;0.3256;7.3700;
429.0000;0.3256;7.3724;
429.3000;0.3264;7.3724;
429.6000;0.3264;7.3700;
429.9000;0.3240;7.3629;
430.2000;0.3232;7.3535;
430.5000;0.3256;7.3511;
430.8000;0.3248;7.3558;
431.1000;0.3264;7.3653;
431.4000;0.3248;7.3558;
431.7000;0.3240;7.3535;
432.0000;0.3248;7.3558;
432.3000;0.3248;7.3582;
432.6000;0.3232;7.3535;
432.9000;0.3248;7.3535;
433.2000;0.3199;7.3393;
433.5000;0.3232;7.3346;
433.8000;0.3215;7.3417;
434.1000;0.3248;7.3535;
434.4000;0.3215;7.3487;
434.7000;0.3248;7.3511;
435.0000;0.3207;7.3417;
435.3000;0.3232;7.3487;
435.6000;0.3240;7.3440;
435.9000;0.3248;7.3464;
436.2000;0.3256;7.3582;
436.5000;0.3248;7.3487;
436.8000;0.3264;7.3558;
437.1000;0.3248;7.3511;
437.4000;0.3199;7.3464;
437.7000;0.3248;7.3487;
438.0000;0.3248;7.3535;
438.3000;0.3232;7.3487;
438.6000;0.3215;7.3417;
438.9000;0.3207;7.3346;
439.2000;0.3223;7.3464;
439.5000;0.3248;7.3464;
439.8000;0.3240;7.3487;
440.1000;0.3240;7.3558;
440.4000;0.3223;7.3606;
440.7000;0.3223;7.3535;
441.0000;0.3297;7.3700;
441.3000;0.3264;7.3653;
441.6000;0.3223;7.3558;
441.9000;0.3191;7.3464;
442.2000;0.3199;7.3369;
442.5000;0.3240;7.3417;
442.8000;0.3240;7.3417;
443.1000;0.3248;7.3487;
443.4000;0.3280;7.3582;
443.7000;0.3240;7.3393;
444.0000;0.3264;7.3440;
444.3000;0.3248;7.3464;
444.6000;0.3256;7.3487;
444.9000;0.3240;7.3393;
445.2000;0.3223;7.3417;
445.5000;0.3289;7.3582;
445.8000;0.3240;7.3464;
446.1000;0.3305;7.3582;
446.4000;0.3183;7.3322;
446.7000;0.3232;7.3464;
447.0000;0.3240;7.3511;
447.3000;0.3223;7.3440;
447.6000;0.3240;7.3440;
447.9000;0.3248;7.3346;
448.2000;0.3272;7.3346;
448.5000;0.3256;7.3251;
448.8000;0.3223;7.3180;
449.1000;0.3272;7.3275;
449.4000;0.3232;7.3298;
449.7000;0.3280;7.3417;
450.0000;0.3240;7.3298;
450.3000;0.3232;7.3346;
450.6000;0.3248;7.3440;
450.9000;0.3248;7.3417;
451.2000;0.3362;7.3677;
451.5000;0.3240;7.3417;
451.8000;0.3240;7.3487;
452.1000;0.3248;7.3464;
452.4000;0.3256;7.3440;
452.7000;0.3272;7.3487;
453.0000;0.3264;7.3487;
453.3000;0.3248;7.3464;
453.6000;0.3248;7.3393;
453.9000;0.3248;7.3417;
454.2000;0.3256;7.3582;
454.5000;0.3256;7.3582;
454.8000;0.3256;7.3582;
455.1000;0.3207;7.3440;
455.4000;0.3240;7.3535;
455.7000;0.3264;7.3653;
456.0000;0.3248;7.3606;
456.3000;0.3248;7.3582;
456.6000;0.3240;7.3535;
456.9000;0.3248;7.3511;
457.2000;0.3232;7.3606;
457.5000;0.3256;7.3582;
457.8000;0.3248;7.3653;
458.1000;0.3264;7.3724;
458.4000;0.3223;7.3606;
458.7000;0.3248;7.3653;
459.0000;0.3207;7.3511;
459.3000;0.3248;7.3700;
459.6000;0.3248;7.3653;
459.9000;0.3264;7.3700;
460.2000;0.3248;7.3606;
460.5000;0.3256;7.3629;
460.8000;0.3289;7.3700;
461.1000;0.3223;7.3606;
461.4000;0.3248;7.3677;
461.7000;0.3215;7.3582;
462.0000;0.3232;7.3629;
462.3000;0.3223;7.3629;
462.6000;0.3191;7.3487;
462.9000;0.3240;7.3558;
463.2000;0.3223;7.3440;
463.5000;0.3256;7.3487;
463.8000;0.3240;7.3417;
464.1000;0.3240;7.3440;
464.4000;0.3223;7.3511;
464.7000;0.3207;7.3535;
465.0000;0.3240;7.3511;
465.3000;0.3240;7.3535;
465.6000;0.3215;7.3582;
465.9000;0.3232;7.3558;
466.2000;0.3215;7.3582;
466.5000;0.3248;7.3582;
466.8000;0.3232;7.3558;
467.1000;0.3272;7.3629;
467.4000;0.3321;7.3818;
467.7000;0.3280;7.3700;
468.0000;0.3248;7.3653;
468.3000;0.3248;7.3629;
468.6000;0.3232;7.3558;
468.9000;0.3256;7.3629;
469.2000;0.3321;7.3818;
469.5000;0.3126;7.3346;
469.8000;0.3248;7.3629;
470.1000;0.3264;7.3653;
470.4000;0.3248;7.3724;
470.7000;0.3248;7.3724;
471.0000;0.3256;7.3677;
471.3000;0.3264;7.3653;
471.6000;0.3248;7.3582;
471.9000;0.3240;7.3558;
472.2000;0.3256;7.3558;
472.5000;0.3240;7.3558;
472.8000;0.3264;7.3653;
473.1000;0.3256;7.3629;
473.4000;0.3240;7.3629;
473.7000;0.3264;7.3558;
474.0000;0.3240;7.3464;
474.3000;0.3240;7.3558;
474.6000;0.3240;7.3629;
474.9000;0.3240;7.3700;
475.2000;0.3232;7.3582;
475.5000;0.3232;7.3535;
475.8000;0.3215;7.3417;
476.1000;0.3248;7.3487;
476.4000;0.3256;7.3487;
476.7000;0.3240;7.3511;
477.0000;0.3240;7.3558;
477.3000;0.3240;7.3535;
477.6000;0.3256;7.3535;
477.9000;0.3297;7.3653;
478.2000;0.3248;7.3535;
478.5000;0.3256;7.3558;
478.8000;0.3215;7.3487;
479.1000;0.3240;7.3535;
479.4000;0.3223;7.3511;
479.7000;0.3240;7.3582;
480.0000;0.3215;7.3582;
480.3000;0.3223;7.3582;
480.6000;0.3240;7.3582;
480.9000;0.3248;7.3629;
481.2000;0.3240;7.3653;
481.5000;0.3215;7.3487;
481.8000;0.3240;7.3464;
482.1000;0.3232;7.3464;
482.4000;0.3289;7.3629;
482.7000;0.3305;7.3771;
483.0000;0.3264;7.3535;
483.3000;0.3232;7.3511;
483.6000;0.3256;7.3535;
483.9000;0.3256;7.3606;
484.2000;0.3240;7.3535;
484.5000;0.3232;7.3558;
484.8000;0.3248;7.3606;
485.1000;0.3248;7.3582;
485.4000;0.3248;7.3606;
485.7000;0.3248;7.3558;
486.0000;0.3232;7.3464;
486.3000;0.3272;7.3535;
486.6000;0.3240;7.3369;
486.9000;0.3207;7.3369;
487.2000;0.3232;7.3417;
487.5000;0.3256;7.3369;
487.8000;0.3297;7.3511;
488.1000;0.3264;7.3511;
488.4000;0.3240;7.3558;
488.7000;0.3248;7.3606;
489.0000;0.3256;7.3629;
489.3000;0.3280;7.3700;
489.6000;0.3256;7.3535;
489.9000;0.3223;7.3535;
490.2000;0.3223;7.3464;
490.5000;0.3256;7.3511;
490.8000;0.3223;7.3487;
491.1000;0.3256;7.3558;
491.4000;0.3256;7.3582;
491.7000;0.3248;7.3606;
492.0000;0.3240;7.3653;
492.3000;0.3337;7.3937;
492.6000;0.3232;7.3653;
492.9000;0.3256;7.3724;
493.2000;0.3264;7.3747;
493.5000;0.3150;7.3558;
493.8000;0.3256;7.3795;
494.1000;0.3248;7.3795;
494.4000;0.3223;7.3795;
494.7000;0.3232;7.3724;
495.0000;0.3240;7.3582;
495.3000;0.3240;7.3606;
495.6000;0.3248;7.3629;
495.9000;0.3248;7.3653;
496.2000;0.3215;7.3582;
496.5000;0.3232;7.3511;
496.8000;0.3248;7.3535;
497.1000;0.3207;7.3487;
497.4000;0.3240;7.3535;
497.7000;0.3150;7.3322;
498.0000;0.3297;7.3724;
498.3000;0.3223;7.3558;
498.6000;0.3232;7.3582;
498.9000;0.3248;7.3511;
499.2000;0.3240;7.3393;
499.5000;0.3264;7.3393;
499.8000;0.3223;7.3346;
500.1000;0.3215;7.3322;
500.4000;0.3264;7.3369;
500.7000;0.3223;7.3298;
501.0000;0.3215;7.3322;
501.3000;0.3232;7.3346;
501.6000;0.3256;7.3369;
501.9000;0.3248;7.3369;
502.2000;0.3256;7.3393;
502.5000;0.3240;7.3393;
502.8000;0.3240;7.3417;
503.1000;0.3264;7.3487;
503.4000;0.3256;7.3464;
503.7000;0.3256;7.3393;
504.0000;0.3248;7.3369;
504.3000;0.3264;7.3535;
504.6000;0.3289;7.3629;
504.9000;0.3240;7.3629;
505.2000;0.3191;7.3464;
505.5000;0.3232;7.3606;
505.8000;0.3346;7.3866;
506.1000;0.3223;7.3558;
506.4000;0.3280;7.3677;
506.7000;0.3232;7.3535;
507.0000;0.3207;7.3535;
507.3000;0.3215;7.3487;
507.6000;0.3223;7.3535;
507.9000;0.3215;7.3487;
508.2000;0.3215;7.3487;
508.5000;0.3207;7.3582;
508.8000;0.3232;7.3606;
509.1000;0.3297;7.3677;
509.4000;0.3248;7.3582;
509.7000;0.3215;7.3511;
510.0000;0.3240;7.3629;
510.3000;0.3240;7.3653;
510.6000;0.3232;7.3629;
510.9000;0.3248;7.3653;
511.2000;0.3191;7.3582;
511.5000;0.3232;7.3700;
511.8000;0.3264;7.3771;
512.1000;0.3240;7.3629;
512.4000;0.3248;7.3558;
512.7000;0.3256;7.3582;
513.0000;0.3248;7.3535;
513.3000;0.3264;7.3558;
513.6000;0.3256;7.3606;
513.9000;0.3215;7.3558;
514.2000;0.3240;7.3606;
514.5000;0.3248;7.3629;
514.8000;0.3223;7.3535;
515.1000;0.3256;7.3535;
515.4000;0.3248;7.3464;
515.7000;0.3232;7.3440;
516.0000;0.3248;7.3487;
516.3000;0.3240;7.3487;
516.6000;0.3223;7.3487;
516.9000;0.3297;7.3629;
517.2000;0.3240;7.3558;
517.5000;0.3256;7.3582;
517.8000;0.3346;7.3842;
518.1000;0.3256;7.3629;
518.4000;0.3248;7.3724;
518.7000;0.3313;7.3889;
519.0000;0.3199;7.3747;
519.3000;0.3248;7.3842;
519.6000;0.3248;7.3818;
519.9000;0.3232;7.3842;
520.2000;0.3232;7.3747;
520.5000;0.3240;7.3606;
520.8000;0.3248;7.3582;
521.1000;0.3264;7.3558;
521.4000;0.3248;7.3535;
521.7000;0.3207;7.3393;
522.0000;0.3280;7.3582;
522.3000;0.3248;7.3440;
522.6000;0.3232;7.3417;
522.9000;0.3240;7.3511;
523.2000;0.3240;7.3653;
523.5000;0.3256;7.3653;
523.8000;0.3256;7.3535;
524.1000;0.3223;7.3417;
524.4000;0.3256;7.3558;
524.7000;0.3248;7.3535;
525.0000;0.3232;7.3487;
525.3000;0.3240;7.3511;
525.6000;0.3240;7.3535;
525.9000;0.3240;7.3535;
526.2000;0.3215;7.3535;
526.5000;0.3256;7.3511;
526.8000;0.3256;7.3511;
527.1000;0.3305;7.3677;
527.4000;0.3256;7.3511;
527.7000;0.3289;7.3535;
528.0000;0.3256;7.3487;
528.3000;0.3289;7.3535;
528.6000;0.3256;7.3511;
528.9000;0.3297;7.3653;
529.2000;0.3305;7.3724;
529.5000;0.3240;7.3629;
529.8000;0.3248;7.3606;
530.1000;0.3305;7.3653;
530.4000;0.3264;7.3582;
530.7000;0.3313;7.3653;
531.0000;0.3248;7.3582;
531.3000;0.3240;7.3582;
531.6000;0.3248;7.3558;
531.9000;0.3240;7.3464;
532.2000;0.3321;7.3582;
532.5000;0.3232;7.3393;
532.8000;0.3248;7.3393;
533.1000;0.3232;7.3393;
533.4000;0.3232;7.3464;
533.7000;0.3248;7.3535;
534.0000;0.3207;7.3464;
534.3000;0.3256;7.3700;
534.6000;0.3240;7.3724;
534.9000;0.3166;7.3440;
535.2000;0.3175;7.3417;
535.5000;0.3232;7.3440;
535.8000;0.3232;7.3322;
536.1000;0.3256;7.3393;
536.4000;0.3248;7.3487;
536.7000;0.3370;7.3771;
537.0000;0.3289;7.3582;
537.3000;0.3248;7.3417;
537.6000;0.3248;7.3487;
537.9000;0.3240;7.3464;
538.2000;0.3272;7.3606;
538.5000;0.3280;7.3677;
538.8000;0.3272;7.3677;
539.1000;0.3256;7.3558;
539.4000;0.3248;7.3487;
539.7000;0.3240;7.3558;
540.0000;0.3240;7.3700;
540.3000;0.3232;7.3606;
540.6000;0.3256;7.3700;
540.9000;0.3232;7.3629;
541.2000;0.3256;7.3724;
541.5000;0.3264;7.3700;
541.8000;0.3232;7.3677;
542.1000;0.3232;7.3629;
542.4000;0.3248;7.3629;
542.7000;0.3240;7.3511;
543.0000;0.3183;7.3393;
543.3000;0.3297;7.3606;
543.6000;0.3223;7.3369;
543.9000;0.3248;7.3440;
544.2000;0.3256;7.3535;
544.5000;0.3248;7.3558;
544.8000;0.3329;7.3842;
545.1000;0.3232;7.3629;
545.4000;0.3240;7.3629;
545.7000;0.3240;7.3582;
546.0000;0.3248;7.3582;
546.3000;0.3232;7.3535;
546.6000;0.3256;7.3511;
546.9000;0.3248;7.3487;
547.2000;0.3248;7.3511;
547.5000;0.3240;7.3393;
547.8000;0.3240;7.3417;
548.1000;0.3264;7.3487;
548.4000;0.3256;7.3606;
548.7000;0.3240;7.3582;
549.0000;0.3264;7.3582;
549.3000;0.3240;7.3511;
549.6000;0.3240;7.3535;
549.9000;0.3232;7.3558;
550.2000;0.3289;7.3653;
550.5000;0.3240;7.3511;
550.8000;0.3175;7.3369;
551.1000;0.3232;7.3487;
551.4000;0.3240;7.3464;
551.7000;0.3215;7.3369;
552.0000;0.3240;7.3464;
552.3000;0.3256;7.3487;
552.6000;0.3223;7.3464;
552.9000;0.3223;7.3464;
553.2000;0.3256;7.3535;
553.5000;0.3232;7.3487;
553.8000;0.3232;7.3393;
554.1000;0.3207;7.3369;
554.4000;0.3240;7.3440;
554.7000;0.3256;7.3440;
555.0000;0.3223;7.3417;
555.3000;0.3248;7.3393;
555.6000;0.3240;7.3393;
555.9000;0.3256;7.3393;
556.2000;0.3223;7.3275;
556.5000;0.3232;7.3346;
556.8000;0.3248;7.3393;
557.1000;0.3256;7.3440;
557.4000;0.3256;7.3369;
557.7000;0.3240;7.3346;
558.0000;0.3321;7.3558;
558.3000;0.3280;7.3464;
558.6000;0.3240;7.3369;
558.9000;0.3223;7.3251;
559.2000;0.3223;7.3275;
559.5000;0.3232;7.3346;
559.8000;0.3215;7.3275;
560.1000;0.3166;7.3204;
560.4000;0.3223;7.3322;
560.7000;0.3207;7.3227;
561.0000;0.3240;7.3393;
561.3000;0.3191;7.3298;
561.6000;0.3240;7.3464;
561.9000;0.3289;7.3606;
562.2000;0.3150;7.3227;
562.5000;0.3207;7.3298;
562.8000;0.3240;7.3369;
563.1000;0.3183;7.3298;
563.4000;0.3223;7.3369;
563.7000;0.3199;7.3369;
564.0000;0.3297;7.3535;
564.3000;0.3240;7.3417;
564.6000;0.3248;7.3440;
564.9000;0.3215;7.3440;
565.2000;0.3256;7.3440;
565.5000;0.3240;7.3464;
565.8000;0.3240;7.3440;
566.1000;0.3248;7.3417;
566.4000;0.3240;7.3346;
566.7000;0.3240;7.3275;
567.0000;0.3199;7.3180;
567.3000;0.3240;7.3251;
567.6000;0.3183;7.3227;
567.9000;0.3248;7.3369;
568.2000;0.3240;7.3298;
568.5000;0.3248;7.3298;
568.8000;0.3240;7.3322;
569.1000;0.3256;7.3251;
569.4000;0.3248;7.3298;
569.7000;0.3248;7.3298;
570.0000;0.3240;7.3322;
570.3000;0.3240;7.3393;
570.6000;0.3256;7.3369;
570.9000;0.3248;7.3369;
571.2000;0.3264;7.3346;
571.5000;0.3248;7.3322;
571.8000;0.3256;7.3298;
572.1000;0.3264;7.3369;
572.4000;0.3232;7.3369;
572.7000;0.3264;7.3511;
573.0000;0.3240;7.3487;
573.3000;0.3248;7.3558;
573.6000;0.3240;7.3511;
573.9000;0.3223;7.3511;
574.2000;0.3289;7.3629;
574.5000;0.3248;7.3464;
574.8000;0.3321;7.3511;
575.1000;0.3232;7.3346;
575.4000;0.3232;7.3346;
575.7000;0.3232;7.3298;
576.0000;0.3256;7.3322;
576.3000;0.3248;7.3298;
576.6000;0.3248;7.3275;
576.9000;0.3240;7.3322;
577.2000;0.3248;7.3298;
577.5000;0.3248;7.3251;
577.8000;0.3248;7.3251;
578.1000;0.3280;7.3464;
578.4000;0.3240;7.3417;
578.7000;0.3248;7.3393;
579.0000;0.3248;7.3369;
579.3000;0.3223;7.3204;
579.6000;0.3175;7.3109;
579.9000;0.3207;7.3251;
580.2000;0.3240;7.3298;
580.5000;0.3248;7.3298;
580.8000;0.3329;7.3558;
581.1000;0.3256;7.3393;
581.4000;0.3223;7.3346;
581.7000;0.3248;7.3417;
582.0000;0.3248;7.3440;
582.3000;0.3248;7.3369;
582.6000;0.3248;7.3298;
582.9000;0.3232;7.3393;
583.2000;0.3264;7.3440;
583.5000;0.3232;7.3322;
583.8000;0.3264;7.3393;
584.1000;0.3313;7.3582;
584.4000;0.3272;7.3535;
584.7000;0.3256;7.3511;
585.0000;0.3240;7.3440;
585.3000;0.3215;7.3346;
585.6000;0.3256;7.3440;
585.9000;0.3272;7.3369;
586.2000;0.3240;7.3251;
586.5000;0.3256;7.3298;
586.8000;0.3248;7.3298;
587.1000;0.3240;7.3346;
587.4000;0.3248;7.3322;
587.7000;0.3248;7.3204;
588.0000;0.3240;7.3251;
588.3000;0.3256;7.3227;
588.6000;0.3248;7.3275;
588.9000;0.3215;7.3204;
589.2000;0.3248;7.3298;
589.5000;0.3256;7.3275;
589.8000;0.3240;7.3251;
590.1000;0.3264;7.3275;
590.4000;0.3223;7.3275;
590.7000;0.3240;7.3322;
591.0000;0.3248;7.3346;
591.3000;0.3232;7.3322;
591.6000;0.3232;7.3251;
591.9000;0.3223;7.3251;
592.2000;0.3256;7.3369;
592.5000;0.3232;7.3393;
592.8000;0.3142;7.3227;
593.1000;0.3232;7.3417;
593.4000;0.3248;7.3393;
593.7000;0.3256;7.3298;
594.0000;0.3256;7.3322;
594.3000;0.3232;7.3298;
594.6000;0.3248;7.3393;
594.9000;0.3256;7.3487;
595.2000;0.3232;7.3393;
595.5000;0.3223;7.3393;
595.8000;0.3264;7.3369;
596.1000;0.3248;7.3298;
596.4000;0.3264;7.3298;
596.7000;0.3248;7.3275;
597.0000;0.3321;7.3440;
597.3000;0.3248;7.3251;
597.6000;0.3223;7.3204;
597.9000;0.3240;7.3346;
598.2000;0.3191;7.3275;
598.5000;0.3232;7.3369;
598.8000;0.3256;7.3417;
599.1000;0.3248;7.3346;
599.4000;0.3232;7.3369;
599.7000;0.3232;7.3369;
600.0000;0.3223;7.3369;
600.3000;0.3207;7.3393;
600.6000;0.3223;7.3369;
600.9000;0.3199;7.3346;
601.2000;0.3191;7.3180;
601.5000;0.3134;7.2920;
601.8000;0.3061;7.2802;
602.1000;0.3077;7.2802;
602.4000;0.3077;7.2849;
602.7000;0.3028;7.2731;
603.0000;0.3044;7.2636;
603.3000;0.2996;7.2518;
603.6000;0.2939;7.2376;
603.9000;0.2963;7.2495;
604.2000;0.2947;7.2400;
604.5000;0.2857;7.2093;
604.8000;0.2906;7.2187;
605.1000;0.2890;7.2187;
605.4000;0.2882;7.2164;
605.7000;0.2841;7.2116;
606.0000;0.2898;7.2258;
606.3000;0.2825;7.1975;
606.6000;0.2808;7.1880;
606.9000;0.2800;7.1762;
607.2000;0.2816;7.1762;
607.5000;0.2759;7.1691;
607.8000;0.2768;7.1691;
608.1000;0.2784;7.1738;
608.4000;0.2735;7.1620;
608.7000;0.2751;7.1691;
609.0000;0.2629;7.1384;
609.3000;0.2743;7.1644;
609.6000;0.2727;7.1644;
609.9000;0.2727;7.1644;
610.2000;0.2719;7.1596;
610.5000;0.2702;7.1573;
610.8000;0.2686;7.1526;
611.1000;0.2678;7.1502;
611.4000;0.2662;7.1384;
611.7000;0.2662;7.1289;
612.0000;0.2629;7.1100;
612.3000;0.2646;7.1171;
612.6000;0.2621;7.1289;
612.9000;0.2621;7.1336;
613.2000;0.2621;7.1431;
613.5000;0.2597;7.1313;
613.8000;0.2662;7.1478;
614.1000;0.2597;7.1360;
614.4000;0.2597;7.1360;
614.7000;0.2580;7.1266;
615.0000;0.2572;7.1195;
615.3000;0.2580;7.1147;
615.6000;0.2564;7.1076;
615.9000;0.2597;7.1147;
616.2000;0.2572;7.1124;
616.5000;0.2548;7.1029;
616.8000;0.2548;7.0982;
617.1000;0.2540;7.0982;
617.4000;0.2523;7.0958;
617.7000;0.2532;7.0958;
618.0000;0.2507;7.0887;
618.3000;0.2532;7.0982;
618.6000;0.2548;7.1100;
618.9000;0.2499;7.0958;
619.2000;0.2507;7.0935;
619.5000;0.2499;7.1006;
619.8000;0.2499;7.1029;
620.1000;0.2499;7.1171;
620.4000;0.2499;7.1124;
620.7000;0.2499;7.1029;
621.0000;0.2442;7.0887;
621.3000;0.2548;7.1053;
621.6000;0.2475;7.0816;
621.9000;0.2409;7.0651;
622.2000;0.2507;7.0911;
622.5000;0.2466;7.0769;
622.8000;0.2450;7.0816;
623.1000;0.2434;7.0722;
623.4000;0.2442;7.0840;
623.7000;0.2458;7.0816;
624.0000;0.2475;7.0816;
624.3000;0.2434;7.0816;
624.6000;0.2466;7.0958;
624.9000;0.2426;7.0911;
625.2000;0.2401;7.0840;
625.5000;0.2458;7.1076;
625.8000;0.2426;7.0982;
626.1000;0.2401;7.0864;
626.4000;0.2466;7.0982;
626.7000;0.2426;7.0887;
627.0000;0.2393;7.0887;
627.3000;0.2369;7.0793;
627.6000;0.2336;7.0698;
627.9000;0.2352;7.0722;
628.2000;0.2361;7.0793;
628.5000;0.2385;7.0769;
628.8000;0.2361;7.0769;
629.1000;0.2369;7.0816;
629.4000;0.2377;7.0864;
629.7000;0.2377;7.0793;
630.0000;0.2377;7.0793;
630.3000;0.2369;7.0769;
630.6000;0.2361;7.0722;
630.9000;0.2328;7.0698;
631.2000;0.2344;7.0769;
631.5000;0.2336;7.0816;
631.8000;0.2352;7.0793;
632.1000;0.2352;7.0793;
632.4000;0.2320;7.0746;
632.7000;0.2361;7.0864;
633.0000;0.2304;7.0816;
633.3000;0.2312;7.0840;
633.6000;0.2279;7.0864;
633.9000;0.2320;7.0958;
634.2000;0.2352;7.1053;
634.5000;0.2369;7.1100;
634.8000;0.2328;7.1006;
635.1000;0.2239;7.0675;
635.4000;0.2320;7.0816;
635.7000;0.2279;7.0627;
636.0000;0.2312;7.0746;
636.3000;0.2295;7.0675;
636.6000;0.2344;7.0746;
636.9000;0.2295;7.0509;
637.2000;0.2279;7.0462;
637.5000;0.2271;7.0462;
637.8000;0.2198;7.0296;
638.1000;0.2304;7.0556;
638.4000;0.2271;7.0486;
638.7000;0.2263;7.0462;
639.0000;0.2271;7.0509;
639.3000;0.2295;7.0604;
639.6000;0.2295;7.0556;
639.9000;0.2271;7.0486;
640.2000;0.2263;7.0462;
640.5000;0.2263;7.0509;
640.8000;0.2271;7.0509;
641.1000;0.2263;7.0556;
641.4000;0.2255;7.0604;
641.7000;0.2247;7.0580;
642.0000;0.2247;7.0627;
642.3000;0.2247;7.0651;
642.6000;0.2239;7.0627;
642.9000;0.2222;7.0627;
643.2000;0.2230;7.0698;
643.5000;0.2230;7.0722;
643.8000;0.2255;7.0769;
644.1000;0.2247;7.0698;
644.4000;0.2239;7.0698;
644.7000;0.2255;7.0769;
645.0000;0.2255;7.0722;
645.3000;0.2222;7.0698;
645.6000;0.2230;7.0698;
645.9000;0.2230;7.0651;
646.2000;0.2206;7.0627;
646.5000;0.2230;7.0698;
646.8000;0.2222;7.0722;
647.1000;0.2222;7.0698;
647.4000;0.2230;7.0698;
647.7000;0.2206;7.0533;
648.0000;0.2190;7.0509;
648.3000;0.2222;7.0556;
648.6000;0.2190;7.0509;
648.9000;0.2206;7.0533;
649.2000;0.2312;7.0816;
649.5000;0.2206;7.0698;
649.8000;0.2198;7.0651;
650.1000;0.2190;7.0627;
650.4000;0.2222;7.0769;
650.7000;0.2198;7.0769;
651.0000;0.2206;7.0698;
651.3000;0.2116;7.0604;
651.6000;0.2198;7.0816;
651.9000;0.2182;7.0769;
652.2000;0.2182;7.0698;
652.5000;0.2222;7.0769;
652.8000;0.2165;7.0627;
653.1000;0.2108;7.0438;
653.4000;0.2182;7.0627;
653.7000;0.2206;7.0675;
654.0000;0.2157;7.0627;
654.3000;0.2182;7.0604;
654.6000;0.2198;7.0722;
654.9000;0.2198;7.0746;
655.2000;0.2206;7.0746;
655.5000;0.2206;7.0793;
655.8000;0.2182;7.0722;
656.1000;0.2222;7.0864;
656.4000;0.2068;7.0462;
656.7000;0.2157;7.0698;
657.0000;0.2133;7.0580;
657.3000;0.2141;7.0486;
657.6000;0.2157;7.0533;
657.9000;0.2157;7.0627;
658.2000;0.2173;7.0698;
658.5000;0.2173;7.0675;
658.8000;0.2157;7.0675;
659.1000;0.2108;7.0556;
659.4000;0.2165;7.0627;
659.7000;0.2214;7.0722;
660.0000;0.2182;7.0604;
660.3000;0.2149;7.0580;
660.6000;0.2125;7.0533;
660.9000;0.2165;7.0651;
661.2000;0.2157;7.0675;
661.5000;0.2149;7.0627;
661.8000;0.2149;7.0675;
662.1000;0.2149;7.0627;
662.4000;0.2141;7.0627;
662.7000;0.2157;7.0722;
663.0000;0.2157;7.0675;
663.3000;0.2133;7.0722;
663.6000;0.2149;7.0769;
663.9000;0.2149;7.0769;
664.2000;0.2165;7.0816;
664.5000;0.2157;7.0887;
664.8000;0.2165;7.0911;
665.1000;0.2141;7.0793;
665.4000;0.2149;7.0816;
665.7000;0.2165;7.0816;
666.0000;0.2165;7.0793;
666.3000;0.2141;7.0769;
666.6000;0.2157;7.0722;
666.9000;0.2182;7.0793;
667.2000;0.2125;7.0675;
667.5000;0.2149;7.0698;
667.8000;0.2100;7.0580;
668.1000;0.2133;7.0604;
668.4000;0.2141;7.0651;
668.7000;0.2230;7.0864;
669.0000;0.2125;7.0509;
669.3000;0.2116;7.0509;
669.6000;0.2108;7.0509;
669.9000;0.2116;7.0604;
670.2000;0.2125;7.0509;
670.5000;0.2125;7.0509;
670.8000;0.2116;7.0604;
671.1000;0.2125;7.0627;
671.4000;0.2141;7.0698;
671.7000;0.2108;7.0604;
672.0000;0.2190;7.0816;
672.3000;0.2198;7.0746;
672.6000;0.2108;7.0580;
672.9000;0.2084;7.0556;
673.2000;0.2100;7.0627;
673.5000;0.2100;7.0651;
673.8000;0.2116;7.0722;
674.1000;0.2108;7.0746;
674.4000;0.2068;7.0509;
674.7000;0.2116;7.0627;
675.0000;0.2092;7.0509;
675.3000;0.2051;7.0486;
675.6000;0.2059;7.0580;
675.9000;0.2125;7.0722;
676.2000;0.2108;7.0675;
676.5000;0.2084;7.0604;
676.8000;0.2116;7.0556;
677.1000;0.2068;7.0438;
677.4000;0.2043;7.0391;
677.7000;0.2100;7.0533;
678.0000;0.2092;7.0509;
678.3000;0.2141;7.0580;
678.6000;0.2108;7.0533;
678.9000;0.2100;7.0556;
679.2000;0.2092;7.0580;
679.5000;0.2165;7.0746;
679.8000;0.2141;7.0793;
680.1000;0.2149;7.0793;
680.4000;0.2092;7.0627;
680.7000;0.2076;7.0533;
681.0000;0.2068;7.0651;
681.3000;0.2165;7.0816;
681.6000;0.2100;7.0722;
681.9000;0.2076;7.0698;
682.2000;0.2084;7.0746;
682.5000;0.2068;7.0746;
682.8000;0.2092;7.0746;
683.1000;0.2092;7.0698;
683.4000;0.2068;7.0651;
683.7000;0.2092;7.0746;
684.0000;0.2076;7.0769;
684.3000;0.2092;7.0698;
684.6000;0.2035;7.0627;
684.9000;0.2084;7.0746;
685.2000;0.2092;7.0864;
685.5000;0.2051;7.0793;
685.8000;0.2076;7.0816;
686.1000;0.2076;7.0816;
686.4000;0.2100;7.0911;
686.7000;0.2068;7.0816;
687.0000;0.2076;7.0746;
687.3000;0.2076;7.0840;
687.6000;0.2076;7.0816;
687.9000;0.2092;7.0840;
688.2000;0.2092;7.0840;
688.5000;0.2100;7.0958;
688.8000;0.2108;7.1053;
689.1000;0.2027;7.0840;
689.4000;0.2076;7.0958;
689.7000;0.2084;7.1053;
690.0000;0.2076;7.0958;
690.3000;0.2076;7.1029;
690.6000;0.2084;7.1124;
690.9000;0.2068;7.1006;
691.2000;0.2076;7.1076;
691.5000;0.2116;7.1053;
691.8000;0.2068;7.1006;
692.1000;0.2100;7.1076;
692.4000;0.2051;7.0935;
692.7000;0.2051;7.0982;
693.0000;0.2068;7.0982;
693.3000;0.2059;7.1029;
693.6000;0.2076;7.1029;
693.9000;0.2108;7.1124;
694.2000;0.2125;7.1006;
694.5000;0.2035;7.0769;
694.8000;0.2076;7.0816;
695.1000;0.2051;7.0864;
695.4000;0.2035;7.0816;
695.7000;0.2100;7.0840;
696.0000;0.2027;7.0651;
696.3000;0.2068;7.0675;
696.6000;0.2100;7.0722;
696.9000;0.2043;7.0722;
697.2000;0.2043;7.0793;
697.5000;0.2027;7.0840;
697.8000;0.1970;7.0698;
698.1000;0.2035;7.0935;
698.4000;0.2043;7.0887;
698.7000;0.2035;7.0793;
699.0000;0.2182;7.1100;
699.3000;0.2108;7.0864;
699.6000;0.2068;7.0698;
699.9000;0.2059;7.0698;
700.2000;0.2059;7.0722;
700.5000;0.2076;7.0793;
700.8000;0.2076;7.0769;
701.1000;0.2051;7.0722;
701.4000;0.2076;7.0722;
701.7000;0.2051;7.0769;
702.0000;0.2068;7.0816;
702.3000;0.2027;7.0769;
702.6000;0.2068;7.0840;
702.9000;0.2051;7.0793;
703.2000;0.2043;7.0816;
703.5000;0.2027;7.0746;
703.8000;0.2068;7.0769;
704.1000;0.2059;7.0864;
704.4000;0.2068;7.0911;
704.7000;0.2059;7.0864;
705.0000;0.2051;7.0887;
705.3000;0.2068;7.1006;
705.6000;0.2027;7.0911;
705.9000;0.2027;7.0840;
706.2000;0.2051;7.0746;
706.5000;0.2035;7.0722;
706.8000;0.2051;7.0793;
707.1000;0.2035;7.0793;
707.4000;0.2051;7.0935;
707.7000;0.2035;7.0911;
708.0000;0.2059;7.0958;
708.3000;0.2059;7.0840;
708.6000;0.2043;7.0769;
708.9000;0.2027;7.0769;
709.2000;0.2051;7.0793;
709.5000;0.2051;7.0769;
709.8000;0.2035;7.0651;
710.1000;0.2019;7.0604;
710.4000;0.2051;7.0651;
710.7000;0.2051;7.0698;
711.0000;0.2035;7.0627;
711.3000;0.2035;7.0627;
711.6000;0.2043;7.0746;
711.9000;0.2051;7.0769;
712.2000;0.2019;7.0746;
712.5000;0.2019;7.0769;
712.8000;0.2043;7.0840;
713.1000;0.2027;7.0746;
713.4000;0.2027;7.0816;
713.7000;0.1986;7.0698;
714.0000;0.2027;7.0675;
714.3000;0.2051;7.0793;
714.6000;0.2019;7.0675;
714.9000;0.2027;7.0746;
715.2000;0.2043;7.0816;
715.5000;0.2019;7.0769;
715.8000;0.2019;7.0887;
716.1000;0.2027;7.0840;
716.4000;0.2027;7.0864;
716.7000;0.2051;7.0911;
717.0000;0.2019;7.0911;
717.3000;0.2027;7.0911;
717.6000;0.2011;7.0746;
717.9000;0.2002;7.0840;
718.2000;0.2019;7.0816;
718.5000;0.1986;7.0746;
718.8000;0.2011;7.0840;
719.1000;0.2011;7.0864;
719.4000;0.2116;7.1195;
719.7000;0.2027;7.1006;
720.0000;0.2011;7.1053;
720.3000;0.2019;7.1029;
720.6000;0.1970;7.0887;
720.9000;0.2011;7.0958;
721.2000;0.2019;7.1006;
721.5000;0.2035;7.0935;
721.8000;0.2019;7.0840;
722.1000;0.2035;7.1053;
722.4000;0.2035;7.1006;
722.7000;0.2027;7.0911;
723.0000;0.2019;7.0935;
723.3000;0.2002;7.0840;
723.6000;0.1978;7.0722;
723.9000;0.2084;7.0911;
724.2000;0.2019;7.0816;
724.5000;0.2002;7.0698;
724.8000;0.2011;7.0769;
725.1000;0.2002;7.0816;
725.4000;0.2019;7.0864;
725.7000;0.2027;7.0958;
726.0000;0.2019;7.1076;
726.3000;0.2019;7.1124;
726.6000;0.2002;7.1100;
726.9000;0.2002;7.1195;
727.2000;0.2002;7.1147;
727.5000;0.2092;7.1266;
727.8000;0.1929;7.0816;
728.1000;0.2019;7.1053;
728.4000;0.2100;7.1289;
728.7000;0.2011;7.1124;
729.0000;0.2035;7.1195;
729.3000;0.2011;7.1218;
729.6000;0.2002;7.1218;
729.9000;0.2002;7.1053;
730.2000;0.2019;7.1100;
730.5000;0.2035;7.1124;
730.8000;0.2019;7.1076;
731.1000;0.2011;7.1029;
731.4000;0.2002;7.1006;
731.7000;0.2019;7.1053;
732.0000;0.2043;7.1076;
732.3000;0.2019;7.1006;
732.6000;0.1994;7.1006;
732.9000;0.2035;7.1124;
733.2000;0.2011;7.1029;
733.5000;0.2002;7.1053;
733.8000;0.1978;7.1006;
734.1000;0.1986;7.1100;
734.4000;0.1978;7.1053;
734.7000;0.2011;7.1100;
735.0000;0.2002;7.1006;
735.3000;0.1986;7.0935;
735.6000;0.2011;7.1029;
735.9000;0.2002;7.1029;
736.2000;0.1970;7.1006;
736.5000;0.1986;7.1053;
736.8000;0.1978;7.1006;
737.1000;0.2011;7.1124;
737.4000;0.1978;7.0982;
737.7000;0.1986;7.0982;
738.0000;0.1970;7.0816;
738.3000;0.1994;7.0864;
738.6000;0.2027;7.0887;
738.9000;0.1994;7.0935;
739.2000;0.1994;7.0887;
739.5000;0.1978;7.0864;
739.8000;0.2059;7.1076;
740.1000;0.1994;7.0911;
740.4000;0.2035;7.0958;
740.7000;0.1986;7.0887;
741.0000;0.1994;7.0982;
741.3000;0.1962;7.0958;
741.6000;0.1994;7.1029;
741.9000;0.2035;7.1124;
742.2000;0.1986;7.0911;
742.5000;0.1978;7.0982;
742.8000;0.1994;7.1029;
743.1000;0.1897;7.0675;
743.4000;0.2068;7.1100;
743.7000;0.1986;7.0982;
744.0000;0.1970;7.0958;
744.3000;0.1962;7.1006;
744.6000;0.1937;7.1006;
744.9000;0.1986;7.1147;
745.2000;0.1978;7.1147;
745.5000;0.1978;7.1100;
745.8000;0.1986;7.1100;
746.1000;0.1986;7.1006;
746.4000;0.1994;7.0911;
746.7000;0.1978;7.0793;
747.0000;0.1962;7.0793;
747.3000;0.1970;7.0769;
747.6000;0.1986;7.0840;
747.9000;0.2019;7.0935;
748.2000;0.1970;7.0864;
748.5000;0.2002;7.0958;
748.8000;0.1986;7.0911;
749.1000;0.1986;7.0958;
749.4000;0.2035;7.1029;
749.7000;0.1994;7.0887;
750.0000;0.1978;7.0864;
750.3000;0.2011;7.0840;
750.6000;0.1970;7.0840;
750.9000;0.1978;7.0911;
751.2000;0.2002;7.0864;
751.5000;0.2002;7.0769;
751.8000;0.1994;7.0769;
752.1000;0.1994;7.0864;
752.4000;0.2011;7.0887;
752.7000;0.1978;7.0769;
753.0000;0.1986;7.0816;
753.3000;0.1994;7.0840;
753.6000;0.1994;7.0816;
753.9000;0.1994;7.0816;
754.2000;0.2011;7.0911;
754.5000;0.1994;7.0864;
754.8000;0.1994;7.0911;
755.1000;0.2011;7.1006;
755.4000;0.1986;7.1006;
755.7000;0.1962;7.0982;
756.0000;0.1986;7.1100;
756.3000;0.1970;7.1053;
756.6000;0.1978;7.1053;
756.9000;0.1994;7.1053;
757.2000;0.1962;7.1053;
757.5000;0.1994;7.1124;
757.8000;0.1905;7.0864;
758.1000;0.1978;7.1124;
758.4000;0.1954;7.1147;
758.7000;0.1986;7.1242;
759.0000;0.1970;7.1147;
759.3000;0.1994;7.1242;
759.6000;0.1978;7.1195;
759.9000;0.1978;7.1242;
760.2000;0.1970;7.1195;
760.5000;0.1970;7.1171;
760.8000;0.1970;7.1124;
761.1000;0.1978;7.1195;
761.4000;0.1962;7.1147;
761.7000;0.1986;7.1147;
762.0000;0.2019;7.1195;
762.3000;0.1962;7.1053;
762.6000;0.1978;7.1147;
762.9000;0.1954;7.1029;
763.2000;0.1962;7.1076;
763.5000;0.1970;7.1195;
763.8000;0.1986;7.1242;
764.1000;0.1986;7.1218;
764.4000;0.1986;7.1242;
764.7000;0.1962;7.1289;
765.0000;0.1962;7.1171;
765.3000;0.2011;7.1218;
765.6000;0.1970;7.1100;
765.9000;0.1962;7.1029;
766.2000;0.1970;7.1029;
766.5000;0.1970;7.0958;
766.8000;0.1962;7.0911;
767.1000;0.2002;7.0982;
767.4000;0.1954;7.0935;
767.7000;0.1978;7.0982;
768.0000;0.1962;7.1006;
768.3000;0.2002;7.1100;
768.6000;0.1962;7.1147;
768.9000;0.1994;7.1171;
769.2000;0.1978;7.1147;
769.5000;0.1945;7.1147;
769.8000;0.1962;7.1171;
770.1000;0.1978;7.1242;
770.4000;0.1937;7.1147;
770.7000;0.2027;7.1407;
771.0000;0.1954;7.1242;
771.3000;0.2019;7.1384;
771.6000;0.1954;7.1218;
771.9000;0.1986;7.1336;
772.2000;0.1954;7.1171;
772.5000;0.1937;7.1147;
772.8000;0.1945;7.1147;
773.1000;0.1937;7.1195;
773.4000;0.2043;7.1431;
773.7000;0.1970;7.1242;
774.0000;0.1954;7.1100;
774.3000;0.1986;7.1147;
774.6000;0.1970;7.1076;
774.9000;0.1962;7.1124;
775.2000;0.1978;7.1171;
775.5000;0.1994;7.1147;
775.8000;0.1962;7.1171;
776.1000;0.1954;7.1147;
776.4000;0.1970;7.1195;
776.7000;0.1970;7.1195;
777.0000;0.1970;7.1195;
777.3000;0.1970;7.1171;
777.6000;0.1945;7.1147;
777.9000;0.1954;7.1171;
778.2000;0.1954;7.1218;
778.5000;0.1962;7.1289;
778.8000;0.1945;7.1242;
779.1000;0.1978;7.1313;
779.4000;0.1970;7.1242;
779.7000;0.1978;7.1171;
780.0000;0.1962;7.1171;
780.3000;0.1978;7.1124;
780.6000;0.1970;7.1053;
780.9000;0.1954;7.1053;
781.2000;0.1986;7.1147;
781.5000;0.1970;7.1124;
781.8000;0.1994;7.1218;
782.1000;0.1978;7.1147;
782.4000;0.1970;7.1171;
782.7000;0.1970;7.1195;
783.0000;0.1978;7.1171;
783.3000;0.1937;7.0911;
783.6000;0.1929;7.0935;
783.9000;0.1954;7.0982;
784.2000;0.1986;7.1076;
784.5000;0.1994;7.1076;
784.8000;0.1962;7.0911;
785.1000;0.1962;7.0935;
785.4000;0.1929;7.0911;
785.7000;0.1937;7.0911;
786.0000;0.1970;7.1124;
786.3000;0.1897;7.0958;
786.6000;0.1970;7.1124;
786.9000;0.1986;7.0982;
787.2000;0.1978;7.0982;
787.5000;0.1970;7.0911;
787.8000;0.1986;7.1006;
788.1000;0.1913;7.0935;
788.4000;0.1962;7.1006;
788.7000;0.1897;7.0864;
789.0000;0.2068;7.1289;
789.3000;0.1970;7.0982;
789.6000;0.1807;7.0533;
789.9000;0.1945;7.0982;
790.2000;0.1945;7.1053;
790.5000;0.1945;7.1147;
790.8000;0.1978;7.1266;
791.1000;0.1978;7.1313;
791.4000;0.2019;7.1384;
791.7000;0.1970;7.1289;
792.0000;0.1962;7.1242;
792.3000;0.1954;7.1195;
792.6000;0.2019;7.1313;
792.9000;0.1954;7.1147;
793.2000;0.1962;7.1171;
793.5000;0.1945;7.1100;
793.8000;0.1929;7.1100;
794.1000;0.1937;7.1171;
794.4000;0.2011;7.1384;
794.7000;0.1962;7.1195;
795.0000;0.1954;7.1266;
795.3000;0.1945;7.1289;
795.6000;0.1978;7.1336;
795.9000;0.1962;7.1195;
796.2000;0.1986;7.1171;
796.5000;0.1945;7.1076;
796.8000;0.1954;7.1171;
797.1000;0.1970;7.1289;
797.4000;0.1962;7.1313;
797.7000;0.1954;7.1289;
798.0000;0.1945;7.1124;
798.3000;0.1937;7.1076;
798.6000;0.1945;7.1053;
798.9000;0.1937;7.0935;
799.2000;0.1962;7.0887;
799.5000;0.1962;7.0958;
799.8000;0.1945;7.1029;
800.1000;0.1897;7.0982;
800.4000;0.1962;7.1266;
800.7000;0.1978;7.1360;
801.0000;0.1962;7.1407;
801.3000;0.1937;7.1266;
801.6000;0.1937;7.1313;
801.9000;0.1954;7.1289;
802.2000;0.1913;7.1124;
802.5000;0.1888;7.1100;
802.8000;0.1929;7.1171;
803.1000;0.1945;7.1195;
803.4000;0.1962;7.1313;
803.7000;0.1937;7.1242;
804.0000;0.1921;7.1218;
804.3000;0.1954;7.1336;
804.6000;0.1937;7.1218;
804.9000;0.1888;7.1171;
805.2000;0.1921;7.1289;
805.5000;0.1954;7.1313;
805.8000;0.1913;7.1147;
806.1000;0.1937;7.1218;
806.4000;0.1929;7.1218;
806.7000;0.1921;7.1266;
807.0000;0.1962;7.1384;
807.3000;0.1945;7.1407;
807.6000;0.1962;7.1384;
807.9000;0.1945;7.1336;
808.2000;0.1937;7.1266;
808.5000;0.1929;7.1242;
808.8000;0.1929;7.1336;
809.1000;0.1880;7.1242;
809.4000;0.1929;7.1360;
809.7000;0.1905;7.1242;
810.0000;0.1864;7.1076;
810.3000;0.1937;7.1266;
810.6000;0.1954;7.1336;
810.9000;0.1945;7.1266;
811.2000;0.1905;7.1289;
811.5000;0.1962;7.1313;
811.8000;0.1970;7.1313;
812.1000;0.1913;7.1147;
812.4000;0.1913;7.1171;
812.7000;0.1913;7.1171;
813.0000;0.2092;7.1526;
813.3000;0.1929;7.1124;
813.6000;0.1937;7.1147;
813.9000;0.1929;7.1242;
814.2000;0.1913;7.1289;
814.5000;0.1929;7.1289;
814.8000;0.1937;7.1336;
815.1000;0.1929;7.1266;
815.4000;0.1880;7.1218;
815.7000;0.1945;7.1526;
816.0000;0.1937;7.1502;
816.3000;0.1970;7.1596;
816.6000;0.1872;7.1313;
816.9000;0.1954;7.1407;
817.2000;0.1929;7.1313;
817.5000;0.1945;7.1313;
817.8000;0.1945;7.1266;
818.1000;0.1954;7.1289;
818.4000;0.1913;7.1313;
818.7000;0.1937;7.1384;
819.0000;0.1929;7.1289;
819.3000;0.1929;7.1313;
819.6000;0.1937;7.1336;
819.9000;0.1913;7.1218;
820.2000;0.1954;7.1266;
820.5000;0.1840;7.0958;
820.8000;0.1945;7.1242;
821.1000;0.1945;7.1289;
821.4000;0.1945;7.1313;
821.7000;0.1954;7.1336;
822.0000;0.1978;7.1384;
822.3000;0.1945;7.1313;
822.6000;0.1954;7.1313;
822.9000;0.1962;7.1360;
823.2000;0.1945;7.1289;
823.5000;0.1954;7.1242;
823.8000;0.1937;7.1195;
824.1000;0.1937;7.1289;
824.4000;0.1929;7.1289;
824.7000;0.1978;7.1289;
825.0000;0.1994;7.1313;
825.3000;0.1954;7.1218;
825.6000;0.1945;7.1313;
825.9000;0.1929;7.1313;
826.2000;0.1945;7.1384;
826.5000;0.1897;7.1266;
826.8000;0.1888;7.1266;
827.1000;0.1905;7.1266;
827.4000;0.1954;7.1384;
827.7000;0.1962;7.1431;
828.0000;0.1978;7.1549;
828.3000;0.1937;7.1384;
828.6000;0.1937;7.1407;
828.9000;0.1954;7.1502;
829.2000;0.1897;7.1407;
829.5000;0.1937;7.1455;
829.8000;0.1954;7.1502;
830.1000;0.1978;7.1526;
830.4000;0.1945;7.1384;
830.7000;0.1945;7.1431;
831.0000;0.1945;7.1313;
831.3000;0.1945;7.1360;
831.6000;0.1945;7.1289;
831.9000;0.1888;7.1266;
832.2000;0.1880;7.1289;
832.5000;0.1945;7.1313;
832.8000;0.1929;7.1313;
833.1000;0.1978;7.1360;
833.4000;0.1921;7.1195;
833.7000;0.1954;7.1171;
834.0000;0.1937;7.1147;
834.3000;0.1905;7.1124;
834.6000;0.1954;7.1266;
834.9000;0.1945;7.1218;
835.2000;0.1962;7.1289;
835.5000;0.1945;7.1218;
835.8000;0.1921;7.1171;
836.1000;0.1937;7.1289;
836.4000;0.1970;7.1431;
836.7000;0.1994;7.1526;
837.0000;0.1929;7.1384;
837.3000;0.1937;7.1242;
837.6000;0.1921;7.1195;
837.9000;0.1962;7.1313;
838.2000;0.1937;7.1313;
838.5000;0.1954;7.1313;
838.8000;0.1954;7.1360;
839.1000;0.1962;7.1407;
839.4000;0.1929;7.1407;
839.7000;0.1937;7.1360;
840.0000;0.1937;7.1431;
840.3000;0.1945;7.1384;
840.6000;0.1937;7.1455;
840.9000;0.1937;7.1620;
841.2000;0.1954;7.1573;
841.5000;0.1937;7.1431;
841.8000;0.1929;7.1407;
842.1000;0.1929;7.1336;
842.4000;0.1962;7.1336;
842.7000;0.1962;7.1384;
843.0000;0.1937;7.1384;
843.3000;0.1945;7.1407;
843.6000;0.1921;7.1289;
843.9000;0.1929;7.1336;
844.2000;0.1937;7.1336;
844.5000;0.1937;7.1242;
844.8000;0.1929;7.1218;
845.1000;0.1937;7.1195;
845.4000;0.1937;7.1147;
845.7000;0.1945;7.1171;
846.0000;0.1929;7.1218;
846.3000;0.1929;7.1242;
846.6000;0.1913;7.1147;
846.9000;0.1929;7.1195;
847.2000;0.1945;7.1266;
847.5000;0.1962;7.1289;
847.8000;0.1970;7.1336;
848.1000;0.1929;7.1313;
848.4000;0.1954;7.1313;
848.7000;0.1937;7.1266;
849.0000;0.1994;7.1336;
849.3000;0.1945;7.1195;
849.6000;0.1929;7.1147;
849.9000;0.1937;7.1171;
850.2000;0.1897;7.1147;
850.5000;0.1905;7.1195;
850.8000;0.1929;7.1124;
851.1000;0.1929;7.1124;
851.4000;0.1962;7.1266;
851.7000;0.1945;7.1218;
852.0000;0.1937;7.1218;
852.3000;0.1929;7.1289;
852.6000;0.1945;7.1313;
852.9000;0.1929;7.1242;
853.2000;0.1921;7.1218;
853.5000;0.1921;7.1147;
853.8000;0.1937;7.1218;
854.1000;0.1937;7.1289;
854.4000;0.1937;7.1289;
854.7000;0.1921;7.1289;
855.0000;0.1905;7.1266;
855.3000;0.1937;7.1384;
855.6000;0.1921;7.1313;
855.9000;0.1864;7.1100;
856.2000;0.1921;7.1171;
856.5000;0.1937;7.1171;
856.8000;0.1921;7.1171;
857.1000;0.1929;7.1195;
857.4000;0.1913;7.1100;
857.7000;0.1913;7.1100;
858.0000;0.1929;7.1124;
858.3000;0.1937;7.1124;
858.6000;0.1921;7.1053;
858.9000;0.1937;7.1124;
859.2000;0.1945;7.1147;
859.5000;0.1945;7.1147;
859.8000;0.1913;7.1100;
860.1000;0.1921;7.1100;
860.4000;0.1897;7.1195;
860.7000;0.1929;7.1195;
861.0000;0.1921;7.1147;
861.3000;0.1921;7.1289;
861.6000;0.2011;7.1478;
861.9000;0.1888;7.1218;
862.2000;0.1929;7.1336;
862.5000;0.1929;7.1384;
862.8000;0.1937;7.1384;
863.1000;0.2011;7.1478;
863.4000;0.1954;7.1336;
863.7000;0.1929;7.1266;
864.0000;0.1921;7.1195;
864.3000;0.1937;7.1289;
864.6000;0.1937;7.1289;
864.9000;0.1905;7.1171;
865.2000;0.1945;7.1289;
865.5000;0.1994;7.1431;
865.8000;0.1945;7.1289;
866.1000;0.1945;7.1242;
866.4000;0.1921;7.1171;
866.7000;0.1945;7.1242;
867.0000;0.1937;7.1171;
867.3000;0.1962;7.1266;
867.6000;0.1945;7.1313;
867.9000;0.1945;7.1384;
868.2000;0.1954;7.1336;
868.5000;0.1921;7.1242;
868.8000;0.1937;7.1218;
869.1000;0.1913;7.1266;
869.4000;0.1937;7.1384;
869.7000;0.1945;7.1478;
870.0000;0.1921;7.1384;
870.3000;0.1937;7.1431;
870.6000;0.1929;7.1407;
870.9000;0.1929;7.1384;
871.2000;0.1978;7.1407;
871.5000;0.1929;7.1313;
871.8000;0.1937;7.1336;
872.1000;0.1954;7.1384;
872.4000;0.1937;7.1336;
872.7000;0.1929;7.1313;
873.0000;0.1937;7.1336;
873.3000;0.1929;7.1313;
873.6000;0.1921;7.1266;
873.9000;0.1913;7.1218;
874.2000;0.1897;7.1242;
874.5000;0.1921;7.1407;
874.8000;0.1897;7.1407;
875.1000;0.1970;7.1455;
875.4000;0.1905;7.1266;
875.7000;0.1937;7.1407;
876.0000;0.1897;7.1360;
876.3000;0.1921;7.1455;
876.6000;0.1897;7.1384;
876.9000;0.1921;7.1455;
877.2000;0.1929;7.1431;
877.5000;0.1929;7.1431;
877.8000;0.1937;7.1407;
878.1000;0.1921;7.1313;
878.4000;0.1888;7.1266;
878.7000;0.1937;7.1455;
879.0000;0.1962;7.1478;
879.3000;0.1897;7.1266;
879.6000;0.1929;7.1242;
879.9000;0.1929;7.1242;
880.2000;0.1929;7.1289;
880.5000;0.1897;7.1195;
880.8000;0.1929;7.1147;
881.1000;0.1913;7.1147;
881.4000;0.1872;7.1053;
881.7000;0.1921;7.1218;
882.0000;0.1921;7.1218;
882.3000;0.1921;7.1195;
882.6000;0.1929;7.1218;
882.9000;0.1929;7.1218;
883.2000;0.1962;7.1289;
883.5000;0.1970;7.1360;
883.8000;0.1978;7.1360;
884.1000;0.1897;7.1100;
884.4000;0.1905;7.1147;
884.7000;0.1929;7.1266;
885.0000;0.1929;7.1195;
885.3000;0.1888;7.1124;
885.6000;0.1913;7.1171;
885.9000;0.1929;7.1100;
886.2000;0.1897;7.1171;
886.5000;0.1913;7.1124;
886.8000;0.1921;7.1195;
887.1000;0.1913;7.1336;
887.4000;0.1905;7.1289;
887.7000;0.1880;7.1218;
888.0000;0.1905;7.1360;
888.3000;0.1929;7.1384;
888.6000;0.1929;7.1336;
888.9000;0.1913;7.1313;
889.2000;0.1905;7.1313;
889.5000;0.1929;7.1384;
889.8000;0.1929;7.1455;
890.1000;0.1929;7.1478;
890.4000;0.1929;7.1526;
890.7000;0.1937;7.1549;
891.0000;0.1913;7.1455;
891.3000;0.1921;7.1502;
891.6000;0.1929;7.1407;
891.9000;0.2027;7.1715;
892.2000;0.1929;7.1478;
892.5000;0.1945;7.1644;
892.8000;0.1945;7.1502;
893.1000;0.1905;7.1455;
893.4000;0.1929;7.1431;
893.7000;0.1937;7.1478;
894.0000;0.1929;7.1455;
894.3000;0.1905;7.1336;
894.6000;0.1905;7.1313;
894.9000;0.1880;7.1242;
895.2000;0.1913;7.1360;
895.5000;0.1929;7.1431;
895.8000;0.1921;7.1407;
896.1000;0.1937;7.1407;
896.4000;0.1921;7.1407;
896.7000;0.1929;7.1407;
897.0000;0.1897;7.1313;
897.3000;0.1921;7.1431;
897.6000;0.1945;7.1431;
897.9000;0.1921;7.1360;
898.2000;0.1937;7.1407;
898.5000;0.1905;7.1313;
898.8000;0.1945;7.1336;
899.1000;0.1929;7.1336;
899.4000;0.1929;7.1407;
899.7000;0.1929;7.1384;
900.0000;0.1913;7.1336;
900.3000;0.1905;7.1313;
900.6000;0.1888;7.1266;
900.9000;0.1945;7.1384;
901.2000;0.1945;7.1336;
901.5000;0.1970;7.1455;
901.8000;0.1888;7.1289;
902.1000;0.1929;7.1455;
902.4000;0.1986;7.1596;
902.7000;0.1937;7.1384;
903.0000;0.1945;7.1407;
903.3000;0.1929;7.1431;
903.6000;0.1970;7.1478;
903.9000;0.1945;7.1455;
904.2000;0.1978;7.1526;
904.5000;0.1945;7.1407;
904.8000;0.1856;7.1195;
905.1000;0.1921;7.1526;
905.4000;0.1913;7.1502;
905.7000;0.1913;7.1455;
906.0000;0.1913;7.1502;
906.3000;0.1970;7.1691;
906.6000;0.1937;7.1620;
906.9000;0.1937;7.1549;
907.2000;0.1970;7.1644;
907.5000;0.1929;7.1526;
907.8000;0.1945;7.1502;
908.1000;0.1937;7.1549;
908.4000;0.1929;7.1478;
908.7000;0.1921;7.1384;
909.0000;0.1905;7.1384;
909.3000;0.1929;7.1407;
909.6000;0.1905;7.1407;
909.9000;0.1913;7.1384;
910.2000;0.1905;7.1266;
910.5000;0.1921;7.1195;
910.8000;0.1913;7.1242;
911.1000;0.1929;7.1242;
911.4000;0.1945;7.1266;
911.7000;0.1937;7.1266;
912.0000;0.1913;7.1195;
912.3000;0.1913;7.1124;
912.6000;0.1929;7.1124;
912.9000;0.1921;7.1076;
913.2000;0.1937;7.1076;
913.5000;0.1945;7.1171;
913.8000;0.1921;7.1218;
914.1000;0.1937;7.1266;
914.4000;0.1937;7.1242;
914.7000;0.1905;7.1147;
915.0000;0.1913;7.1100;
915.3000;0.1921;7.1195;
915.6000;0.1913;7.1218;
915.9000;0.1921;7.1242;
916.2000;0.1962;7.1360;
916.5000;0.1913;7.1124;
916.8000;0.1954;7.1218;
917.1000;0.1921;7.1195;
917.4000;0.1921;7.1124;
917.7000;0.1945;7.1218;
918.0000;0.1929;7.1124;
918.3000;0.1929;7.1076;
918.6000;0.1888;7.0982;
918.9000;0.1832;7.0911;
919.2000;0.1840;7.0982;
919.5000;0.1913;7.1124;
919.8000;0.1921;7.1100;
920.1000;0.1905;7.1053;
920.4000;0.1945;7.1147;
920.7000;0.1905;7.1076;
921.0000;0.1913;7.1076;
921.3000;0.1921;7.1147;
921.6000;0.1929;7.1242;
921.9000;0.1937;7.1289;
922.2000;0.1929;7.1289;
922.5000;0.1913;7.1289;
922.8000;0.1905;7.1289;
923.1000;0.1921;7.1360;
923.4000;0.1913;7.1336;
923.7000;0.1872;7.1195;
924.0000;0.1921;7.1313;
924.3000;0.1913;7.1289;
924.6000;0.1921;7.1407;
924.9000;0.1905;7.1384;
925.2000;0.1905;7.1360;
925.5000;0.1994;7.1573;
925.8000;0.1937;7.1407;
926.1000;0.1921;7.1360;
926.4000;0.1954;7.1384;
926.7000;0.1929;7.1360;
927.0000;0.1897;7.1218;
927.3000;0.1937;7.1313;
927.6000;0.1994;7.1431;
927.9000;0.1929;7.1266;
928.2000;0.1945;7.1384;
928.5000;0.1929;7.1407;
928.8000;0.1832;7.1195;
929.1000;0.1921;7.1407;
929.4000;0.1905;7.1313;
929.7000;0.1905;7.1313;
930.0000;0.1929;7.1336;
930.3000;0.1921;7.1360;
930.6000;0.1921;7.1336;
930.9000;0.1929;7.1384;
931.2000;0.1921;7.1407;
931.5000;0.1929;7.1360;
931.8000;0.1937;7.1360;
932.1000;0.1921;7.1336;
932.4000;0.1921;7.1313;
932.7000;0.1937;7.1384;
933.0000;0.1929;7.1407;
933.3000;0.1913;7.1455;
933.6000;0.1921;7.1360;
933.9000;0.1929;7.1431;
934.2000;0.1929;7.1431;
934.5000;0.1921;7.1384;
934.8000;0.1913;7.1289;
935.1000;0.1921;7.1195;
935.4000;0.1945;7.1289;
935.7000;0.1929;7.1242;
936.0000;0.1921;7.1218;
936.3000;0.1937;7.1218;
936.6000;0.1937;7.1171;
936.9000;0.1945;7.1313;
937.2000;0.1945;7.1242;
937.5000;0.1823;7.0958;
937.8000;0.1921;7.1171;
938.1000;0.1945;7.1218;
938.4000;0.1921;7.1171;
938.7000;0.1921;7.1147;
939.0000;0.1945;7.1218;
939.3000;0.1929;7.1147;
939.6000;0.1913;7.1171;
939.9000;0.1905;7.1171;
940.2000;0.1921;7.1266;
940.5000;0.1929;7.1289;
940.8000;0.1970;7.1360;
941.1000;0.1945;7.1242;
941.4000;0.1921;7.1242;
941.7000;0.1880;7.1124;
942.0000;0.1921;7.1289;
942.3000;0.1921;7.1242;
942.6000;0.1929;7.1218;
942.9000;0.1962;7.1242;
943.2000;0.1921;7.1171;
943.5000;0.1905;7.1171;
943.8000;0.1929;7.1242;
944.1000;0.1897;7.1147;
944.4000;0.1921;7.1313;
944.7000;0.1945;7.1313;
945.0000;0.1921;7.1218;
945.3000;0.1864;7.1029;
945.6000;0.1905;7.1124;
945.9000;0.1937;7.1336;
946.2000;0.1913;7.1218;
946.5000;0.1897;7.1218;
946.8000;0.1954;7.1407;
947.1000;0.1929;7.1407;
947.4000;0.1921;7.1407;
947.7000;0.1937;7.1431;
948.0000;0.1921;7.1384;
948.3000;0.1921;7.1384;
948.6000;0.1994;7.1620;
948.9000;0.1913;7.1407;
949.2000;0.1954;7.1644;
949.5000;0.1954;7.1667;
949.8000;0.1986;7.1715;
950.1000;0.1913;7.1478;
950.4000;0.1913;7.1360;
950.7000;0.1913;7.1455;
951.0000;0.1921;7.1455;
951.3000;0.1921;7.1384;
951.6000;0.1897;7.1218;
951.9000;0.1913;7.1313;
952.2000;0.1921;7.1313;
952.5000;0.1864;7.1266;
952.8000;0.1921;7.1384;
953.1000;0.1921;7.1384;
953.4000;0.1913;7.1407;
953.7000;0.1888;7.1336;
954.0000;0.1913;7.1336;
954.3000;0.1913;7.1289;
954.6000;0.1905;7.1313;
954.9000;0.1913;7.1384;
955.2000;0.1921;7.1336;
955.5000;0.1921;7.1407;
955.8000;0.1921;7.1407;
956.1000;0.1929;7.1360;
956.4000;0.1937;7.1384;
956.7000;0.1913;7.1360;
957.0000;0.1921;7.1431;
957.3000;0.1929;7.1360;
957.6000;0.1913;7.1384;
957.9000;0.1954;7.1526;
958.2000;0.1937;7.1573;
958.5000;0.1905;7.1502;
958.8000;0.1929;7.1549;
959.1000;0.1913;7.1620;
959.4000;0.1905;7.1478;
959.7000;0.1954;7.1549;
960.0000;0.1954;7.1455;
960.3000;0.1897;7.1384;
960.6000;0.1929;7.1502;
960.9000;0.1937;7.1549;
961.2000;0.1929;7.1478;
961.5000;0.1937;7.1455;
961.8000;0.1913;7.1431;
962.1000;0.1897;7.1431;
962.4000;0.1937;7.1502;
962.7000;0.1913;7.1407;
963.0000;0.1913;7.1384;
963.3000;0.1937;7.1573;
963.6000;0.1921;7.1478;
963.9000;0.1880;7.1266;
964.2000;0.1872;7.1289;
964.5000;0.1921;7.1502;
964.8000;0.1921;7.1478;
965.1000;0.1864;7.1336;
965.4000;0.1905;7.1431;
965.7000;0.1897;7.1455;
966.0000;0.1954;7.1526;
966.3000;0.1905;7.1407;
966.6000;0.1905;7.1455;
966.9000;0.1921;7.1549;
967.2000;0.1929;7.1596;
967.5000;0.1905;7.1573;
967.8000;0.1888;7.1573;
968.1000;0.1864;7.1502;
968.4000;0.1913;7.1644;
968.7000;0.1921;7.1596;
969.0000;0.1897;7.1478;
969.3000;0.1880;7.1431;
969.6000;0.1905;7.1526;
969.9000;0.1921;7.1478;
970.2000;0.1905;7.1384;
970.5000;0.1913;7.1336;
970.8000;0.1905;7.1313;
971.1000;0.1929;7.1336;
971.4000;0.1913;7.1289;
971.7000;0.1921;7.1289;
972.0000;0.1921;7.1360;
972.3000;0.1913;7.1313;
972.6000;0.1945;7.1407;
972.9000;0.1929;7.1360;
973.2000;0.1913;7.1360;
973.5000;0.1929;7.1478;
973.8000;0.1929;7.1360;
974.1000;0.1897;7.1289;
974.4000;0.1913;7.1313;
974.7000;0.1921;7.1407;
975.0000;0.1897;7.1384;
975.3000;0.1897;7.1242;
975.6000;0.1913;7.1313;
975.9000;0.1913;7.1384;
976.2000;0.1937;7.1431;
976.5000;0.1921;7.1455;
976.8000;0.1921;7.1478;
977.1000;0.1905;7.1478;
977.4000;0.1937;7.1502;
977.7000;0.1913;7.1455;
978.0000;0.1905;7.1526;
978.3000;0.1913;7.1644;
978.6000;0.1913;7.1596;
978.9000;0.1913;7.1455;
979.2000;0.1962;7.1549;
979.5000;0.1913;7.1360;
979.8000;0.1921;7.1384;
980.1000;0.1913;7.1502;
980.4000;0.1921;7.1455;
980.7000;0.1913;7.1455;
981.0000;0.1913;7.1455;
981.3000;0.1945;7.1549;
981.6000;0.1929;7.1502;
981.9000;0.1921;7.1384;
982.2000;0.1921;7.1431;
982.5000;0.1897;7.1478;
982.8000;0.1929;7.1455;
983.1000;0.1929;7.1407;
983.4000;0.1970;7.1596;
983.7000;0.1921;7.1407;
984.0000;0.1921;7.1360;
984.3000;0.1962;7.1455;
984.6000;0.1913;7.1431;
984.9000;0.1905;7.1360;
985.2000;0.1913;7.1336;
985.5000;0.1897;7.1266;
985.8000;0.1888;7.1195;
986.1000;0.1937;7.1242;
986.4000;0.1929;7.1313;
986.7000;0.1937;7.1407;
987.0000;0.1905;7.1478;
987.3000;0.1937;7.1478;
987.6000;0.1815;7.1242;
987.9000;0.1913;7.1549;
988.2000;0.1897;7.1667;
988.5000;0.1921;7.1691;
988.8000;0.1929;7.1691;
989.1000;0.1994;7.1833;
989.4000;0.1921;7.1644;
989.7000;0.1905;7.1549;
990.0000;0.1848;7.1384;
990.3000;0.1897;7.1360;
990.6000;0.1905;7.1360;
990.9000;0.1888;7.1360;
991.2000;0.1840;7.1195;
991.5000;0.1929;7.1478;
991.8000;0.1905;7.1407;
992.1000;0.1921;7.1384;
992.4000;0.1913;7.1313;
992.7000;0.1921;7.1289;
993.0000;0.1954;7.1360;
993.3000;0.1897;7.1289;
993.6000;0.1913;7.1336;
993.9000;0.1921;7.1384;
994.2000;0.1945;7.1455;
994.5000;0.1921;7.1431;
994.8000;0.1880;7.1360;
995.1000;0.1905;7.1407;
995.4000;0.1897;7.1431;
995.7000;0.1913;7.1360;
996.0000;0.1970;7.1407;
996.3000;0.1880;7.1266;
996.6000;0.1945;7.1478;
996.9000;0.1905;7.1336;
997.2000;0.2027;7.1620;
997.5000;0.1880;7.1266;
997.8000;0.2035;7.1644;
998.1000;0.1937;7.1526;
998.4000;0.1945;7.1526;
998.7000;0.1913;7.1455;
999.0000;0.1888;7.1431;
999.3000;0.1921;7.1407;
999.6000;0.2019;7.1715;
999.9000;0.1929;7.1502;
1000.2000;0.1897;7.1431;
1000.5000;0.1897;7.1407;
1000.8000;0.1905;7.1431;
1001.1000;0.1921;7.1526;
1001.4000;0.1905;7.1502;
1001.7000;0.1905;7.1478;
1002.0000;0.1937;7.1644;
1002.3000;0.1888;7.1573;
1002.6000;0.1962;7.1715;
1002.9000;0.1945;7.1596;
1003.2000;0.2011;7.1786;
1003.5000;0.1929;7.1644;
1003.8000;0.1905;7.1573;
1004.1000;0.1905;7.1573;
1004.4000;0.1945;7.1644;
1004.7000;0.1888;7.1407;
1005.0000;0.1921;7.1549;
1005.3000;0.1872;7.1384;
1005.6000;0.1905;7.1502;
1005.9000;0.1905;7.1455;
1006.2000;0.1905;7.1407;
1006.5000;0.1929;7.1384;
1006.8000;0.1937;7.1407;
1007.1000;0.1929;7.1431;
1007.4000;0.1913;7.1336;
1007.7000;0.1913;7.1289;
1008.0000;0.1872;7.1218;
1008.3000;0.1905;7.1384;
1008.6000;0.1921;7.1431;
1008.9000;0.1921;7.1478;
1009.2000;0.1929;7.1384;
1009.5000;0.1945;7.1336;
1009.8000;0.1929;7.1384;
1010.1000;0.1913;7.1455;
1010.4000;0.1929;7.1455;
1010.7000;0.1921;7.1407;
1011.0000;0.1913;7.1336;
1011.3000;0.1913;7.1313;
1011.6000;0.1929;7.1360;
1011.9000;0.1888;7.1384;
1012.2000;0.1937;7.1549;
1012.5000;0.1897;7.1526;
1012.8000;0.2011;7.1809;
1013.1000;0.1905;7.1573;
1013.4000;0.1905;7.1526;
1013.7000;0.1913;7.1455;
1014.0000;0.1913;7.1455;
1014.3000;0.1945;7.1478;
1014.6000;0.1937;7.1502;
1014.9000;0.1929;7.1502;
1015.2000;0.1929;7.1573;
1015.5000;0.1929;7.1596;
1015.8000;0.1905;7.1573;
1016.1000;0.1880;7.1573;
1016.4000;0.1913;7.1667;
1016.7000;0.1905;7.1596;
1017.0000;0.1921;7.1620;
1017.3000;0.1929;7.1596;
1017.6000;0.1921;7.1573;
1017.9000;0.1921;7.1573;
1018.2000;0.1978;7.1738;
1018.5000;0.1937;7.1644;
1018.8000;0.1905;7.1596;
1019.1000;0.1880;7.1549;
1019.4000;0.1913;7.1573;
1019.7000;0.1921;7.1596;
1020.0000;0.1962;7.1620;
1020.3000;0.1856;7.1266;
1020.6000;0.1937;7.1455;
1020.9000;0.1913;7.1336;
1021.2000;0.1905;7.1242;
1021.5000;0.1913;7.1336;
1021.8000;0.1954;7.1455;
1022.1000;0.1905;7.1336;
1022.4000;0.1848;7.1218;
1022.7000;0.1905;7.1384;
1023.0000;0.1905;7.1407;
1023.3000;0.1913;7.1549;
1023.6000;0.1905;7.1549;
1023.9000;0.1905;7.1502;
1024.2000;0.1880;7.1407;
1024.5000;0.1921;7.1526;
1024.8000;0.1888;7.1431;
1025.1000;0.1872;7.1455;
1025.4000;0.1864;7.1384;
1025.7000;0.1897;7.1526;
1026.0000;0.1897;7.1620;
1026.3000;0.1913;7.1667;
1026.6000;0.1888;7.1478;
1026.9000;0.1945;7.1620;
1027.2000;0.1913;7.1455;
1027.5000;0.1880;7.1407;
1027.8000;0.1880;7.1431;
1028.1000;0.1921;7.1478;
1028.4000;0.1921;7.1455;
1028.7000;0.1913;7.1431;
1029.0000;0.1913;7.1431;
1029.3000;0.1905;7.1407;
1029.6000;0.1921;7.1360;
1029.9000;0.1929;7.1384;
1030.2000;0.1897;7.1313;
1030.5000;0.1929;7.1407;
1030.8000;0.1905;7.1266;
1031.1000;0.1905;7.1336;
1031.4000;0.2011;7.1667;
1031.7000;0.1921;7.1336;
1032.0000;0.1905;7.1336;
1032.3000;0.1905;7.1407;
1032.6000;0.1921;7.1502;
1032.9000;0.1905;7.1502;
1033.2000;0.1897;7.1384;
1033.5000;0.1937;7.1384;
1033.8000;0.1929;7.1431;
1034.1000;0.1929;7.1360;
1034.4000;0.1872;7.1336;
1034.7000;0.1897;7.1407;
1035.0000;0.1872;7.1289;
1035.3000;0.1913;7.1360;
1035.6000;0.1921;7.1407;
1035.9000;0.1897;7.1407;
1036.2000;0.1913;7.1455;
1036.5000;0.1921;7.1455;
1036.8000;0.1905;7.1384;
1037.1000;0.1888;7.1384;
1037.4000;0.1921;7.1502;
1037.7000;0.1897;7.1384;
1038.0000;0.1986;7.1644;
1038.3000;0.2011;7.1691;
1038.6000;0.1937;7.1549;
1038.9000;0.1888;7.1384;
1039.2000;0.1913;7.1455;
1039.5000;0.1929;7.1478;
1039.8000;0.1913;7.1478;
1040.1000;0.1921;7.1455;
1040.4000;0.1921;7.1407;
1040.7000;0.1921;7.1336;
1041.0000;0.1913;7.1289;
1041.3000;0.1913;7.1218;
1041.6000;0.1937;7.1266;
1041.9000;0.1864;7.1218;
1042.2000;0.1913;7.1360;
1042.5000;0.1937;7.1384;
1042.8000;0.1921;7.1431;
1043.1000;0.1937;7.1455;
1043.4000;0.1945;7.1455;
1043.7000;0.1897;7.1313;
1044.0000;0.1913;7.1478;
1044.3000;0.1921;7.1596;
1044.6000;0.1888;7.1596;
1044.9000;0.1913;7.1667;
1045.2000;0.1921;7.1762;
1045.5000;0.1954;7.1856;
1045.8000;0.1905;7.1715;
1046.1000;0.1929;7.1762;
1046.4000;0.1929;7.1786;
1046.7000;0.1913;7.1738;
1047.0000;0.1905;7.1715;
1047.3000;0.1848;7.1526;
1047.6000;0.1897;7.1644;
1047.9000;0.1897;7.1620;
1048.2000;0.1905;7.1667;
1048.5000;0.1929;7.1644;
1048.8000;0.1921;7.1620;
1049.1000;0.1937;7.1715;
1049.4000;0.1929;7.1549;
1049.7000;0.1954;7.1644;
1050.0000;0.1913;7.1549;
1050.3000;0.1937;7.1549;
1050.6000;0.1913;7.1455;
1050.9000;0.1905;7.1478;
1051.2000;0.1913;7.1526;
1051.5000;0.1897;7.1526;
1051.8000;0.1905;7.1502;
1052.1000;0.1913;7.1478;
1052.4000;0.1921;7.1502;
1052.7000;0.1897;7.1526;
1053.0000;0.1905;7.1526;
1053.3000;0.1905;7.1573;
1053.6000;0.1880;7.1407;
1053.9000;0.1921;7.1455;
1054.2000;0.1921;7.1502;
1054.5000;0.1880;7.1384;
1054.8000;0.1921;7.1526;
1055.1000;0.1913;7.1478;
1055.4000;0.1913;7.1384;
1055.7000;0.1937;7.1407;
1056.0000;0.1897;7.1360;
1056.3000;0.1921;7.1407;
1056.6000;0.1840;7.1147;
1056.9000;0.1905;7.1289;
1057.2000;0.1913;7.1266;
1057.5000;0.1880;7.1171;
1057.8000;0.1921;7.1266;
1058.1000;0.1921;7.1147;
1058.4000;0.1905;7.1124;
1058.7000;0.1945;7.1336;
1059.0000;0.1929;7.1336;
1059.3000;0.1905;7.1360;
1059.6000;0.1954;7.1478;
1059.9000;0.1921;7.1384;
1060.2000;0.1929;7.1384;
1060.5000;0.1888;7.1266;
1060.8000;0.1913;7.1384;
1061.1000;0.1905;7.1313;
1061.4000;0.1897;7.1360;
1061.7000;0.1929;7.1455;
1062.0000;0.1905;7.1478;
1062.3000;0.1913;7.1573;
1062.6000;0.1888;7.1596;
1062.9000;0.1978;7.1786;
1063.2000;0.2019;7.1833;
1063.5000;0.1921;7.1573;
1063.8000;0.1929;7.1596;
1064.1000;0.1913;7.1526;
1064.4000;0.1913;7.1455;
1064.7000;0.1897;7.1384;
1065.0000;0.1921;7.1336;
1065.3000;0.1897;7.1218;
1065.6000;0.1913;7.1147;
1065.9000;0.1913;7.1218;
1066.2000;0.1864;7.1147;
1066.5000;0.1929;7.1313;
1066.8000;0.1905;7.1336;
1067.1000;0.1937;7.1407;
1067.4000;0.1913;7.1266;
1067.7000;0.1921;7.1289;
1068.0000;0.1921;7.1313;
1068.3000;0.1897;7.1289;
1068.6000;0.1905;7.1360;
1068.9000;0.1921;7.1478;
1069.2000;0.1929;7.1596;
1069.5000;0.1970;7.1762;
1069.8000;0.1880;7.1573;
1070.1000;0.1913;7.1667;
1070.4000;0.1921;7.1620;
1070.7000;0.1905;7.1526;
1071.0000;0.1905;7.1549;
1071.3000;0.1913;7.1596;
1071.6000;0.1929;7.1644;
1071.9000;0.1913;7.1644;
1072.2000;0.1929;7.1573;
1072.5000;0.1872;7.1431;
1072.8000;0.1929;7.1573;
1073.1000;0.1929;7.1691;
1073.4000;0.1897;7.1573;
1073.7000;0.1897;7.1549;
1074.0000;0.1905;7.1596;
1074.3000;0.1897;7.1573;
1074.6000;0.1897;7.1644;
1074.9000;0.1905;7.1667;
1075.2000;0.1897;7.1620;
1075.5000;0.1897;7.1620;
1075.8000;0.1905;7.1644;
1076.1000;0.1905;7.1549;
1076.4000;0.1888;7.1478;
1076.7000;0.1913;7.1573;
1077.0000;0.1929;7.1667;
1077.3000;0.1880;7.1644;
1077.6000;0.1905;7.1738;
1077.9000;0.1929;7.1715;
1078.2000;0.1913;7.1644;
1078.5000;0.1937;7.1644;
1078.8000;0.1905;7.1596;
1079.1000;0.1913;7.1644;
1079.4000;0.1921;7.1667;
1079.7000;0.1921;7.1596;
1080.0000;0.1913;7.1644;
1080.3000;0.1888;7.1620;
1080.6000;0.1913;7.1573;
1080.9000;0.1897;7.1478;
1081.2000;0.1888;7.1431;
1081.5000;0.1913;7.1478;
1081.8000;0.1897;7.1478;
1082.1000;0.1921;7.1502;
1082.4000;0.1905;7.1407;
1082.7000;0.1888;7.1407;
1083.0000;0.1905;7.1526;
1083.3000;0.1897;7.1455;
1083.6000;0.1905;7.1478;
1083.9000;0.1897;7.1526;
1084.2000;0.1913;7.1526;
1084.5000;0.1897;7.1573;
1084.8000;0.1888;7.1526;
1085.1000;0.1954;7.1620;
1085.4000;0.1921;7.1478;
1085.7000;0.1905;7.1384;
1086.0000;0.1888;7.1336;
1086.3000;0.1888;7.1360;
1086.6000;0.1888;7.1407;
1086.9000;0.1921;7.1502;
1087.2000;0.1921;7.1384;
1087.5000;0.1913;7.1313;
1087.8000;0.1897;7.1336;
1088.1000;0.1921;7.1431;
1088.4000;0.1913;7.1431;
1088.7000;0.1905;7.1384;
1089.0000;0.1913;7.1407;
1089.3000;0.1921;7.1407;
1089.6000;0.1897;7.1407;
1089.9000;0.1905;7.1313;
1090.2000;0.1840;7.1171;
1090.5000;0.1913;7.1431;
1090.8000;0.1897;7.1431;
1091.1000;0.1888;7.1455;
1091.4000;0.1888;7.1407;
1091.7000;0.1905;7.1289;
1092.0000;0.1905;7.1336;
1092.3000;0.1888;7.1313;
1092.6000;0.1921;7.1384;
1092.9000;0.1897;7.1407;
1093.2000;0.1905;7.1407;
1093.5000;0.1913;7.1478;
1093.8000;0.1929;7.1502;
1094.1000;0.1905;7.1384;
1094.4000;0.1970;7.1644;
1094.7000;0.1929;7.1478;
1095.0000;0.1888;7.1455;
1095.3000;0.1848;7.1360;
1095.6000;0.1921;7.1407;
1095.9000;0.1913;7.1384;
1096.2000;0.1913;7.1407;
1096.5000;0.1840;7.1313;
1096.8000;0.1921;7.1526;
1097.1000;0.1905;7.1573;
1097.4000;0.1937;7.1620;
1097.7000;0.1905;7.1596;
1098.0000;0.1913;7.1502;
1098.3000;0.1913;7.1431;
1098.6000;0.1888;7.1526;
1098.9000;0.1888;7.1502;
1099.2000;0.1897;7.1620;
1099.5000;0.1897;7.1715;
1099.8000;0.1897;7.1691;
1100.1000;0.1888;7.1573;
1100.4000;0.1897;7.1478;
1100.7000;0.1897;7.1431;
1101.0000;0.1905;7.1336;
1101.3000;0.1905;7.1336;
1101.6000;0.1913;7.1360;
1101.9000;0.1921;7.1384;
1102.2000;0.1913;7.1407;
1102.5000;0.1913;7.1455;
1102.8000;0.1897;7.1431;
1103.1000;0.1913;7.1526;
1103.4000;0.1913;7.1455;
1103.7000;0.1913;7.1502;
1104.0000;0.1880;7.1455;
1104.3000;0.1897;7.1478;
1104.6000;0.1921;7.1478;
1104.9000;0.1913;7.1478;
1105.2000;0.1962;7.1644;
1105.5000;0.1897;7.1549;
1105.8000;0.1872;7.1526;
1106.1000;0.1962;7.1667;
1106.4000;0.1888;7.1478;
1106.7000;0.1905;7.1526;
1107.0000;0.1888;7.1360;
1107.3000;0.1888;7.1360;
1107.6000;0.1897;7.1455;
1107.9000;0.1905;7.1502;
1108.2000;0.1897;7.1455;
1108.5000;0.1913;7.1526;
1108.8000;0.1905;7.1431;
1109.1000;0.1905;7.1431;
1109.4000;0.1880;7.1478;
1109.7000;0.1897;7.1596;
1110.0000;0.1913;7.1667;
1110.3000;0.1888;7.1596;
1110.6000;0.1905;7.1596;
1110.9000;0.1970;7.1809;
1111.2000;0.1929;7.1596;
1111.5000;0.1913;7.1526;
1111.8000;0.1897;7.1502;
1112.1000;0.1905;7.1455;
1112.4000;0.1905;7.1360;
1112.7000;0.1897;7.1384;
1113.0000;0.1888;7.1360;
1113.3000;0.1897;7.1407;
1113.6000;0.1921;7.1431;
1113.9000;0.1897;7.1313;
1114.2000;0.1905;7.1289;
1114.5000;0.1897;7.1242;
1114.8000;0.1921;7.1336;
1115.1000;0.1913;7.1313;
1115.4000;0.1888;7.1218;
1115.7000;0.1880;7.1195;
1116.0000;0.1913;7.1218;
1116.3000;0.1913;7.1266;
1116.6000;0.1864;7.1171;
1116.9000;0.1888;7.1266;
1117.2000;0.1921;7.1289;
1117.5000;0.1880;7.1076;
1117.8000;0.1921;7.1076;
1118.1000;0.1905;7.1100;
1118.4000;0.1921;7.1100;
1118.7000;0.1921;7.1100;
1119.0000;0.1897;7.1100;
1119.3000;0.1913;7.1147;
1119.6000;0.1929;7.1124;
1119.9000;0.1856;7.1076;
1120.2000;0.1954;7.1336;
1120.5000;0.1897;7.1266;
1120.8000;0.1905;7.1360;
1121.1000;0.1921;7.1502;
1121.4000;0.1913;7.1526;
1121.7000;0.1897;7.1526;
1122.0000;0.1897;7.1502;
1122.3000;0.1962;7.1644;
1122.6000;0.1921;7.1620;
1122.9000;0.1888;7.1691;
1123.2000;0.1872;7.1549;
1123.5000;0.1913;7.1644;
1123.8000;0.1929;7.1809;
1124.1000;0.1864;7.1691;
1124.4000;0.1913;7.1762;
1124.7000;0.1888;7.1691;
1125.0000;0.1905;7.1644;
1125.3000;0.1888;7.1526;
1125.6000;0.1905;7.1667;
1125.9000;0.1921;7.1762;
1126.2000;0.1905;7.1738;
1126.5000;0.1913;7.1715;
1126.8000;0.1897;7.1691;
1127.1000;0.1856;7.1573;
1127.4000;0.1913;7.1667;
1127.7000;0.1905;7.1691;
1128.0000;0.1921;7.1644;
1128.3000;0.1897;7.1455;
1128.6000;0.1897;7.1478;
1128.9000;0.1840;7.1336;
1129.2000;0.1929;7.1667;
1129.5000;0.1929;7.1644;
1129.8000;0.1848;7.1431;
1130.1000;0.1872;7.1431;
1130.4000;0.1888;7.1549;
1130.7000;0.1897;7.1478;
1131.0000;0.1864;7.1431;
1131.3000;0.1905;7.1502;
1131.6000;0.1905;7.1526;
1131.9000;0.1897;7.1502;
1132.2000;0.1872;7.1266;
1132.5000;0.1897;7.1384;
1132.8000;0.1905;7.1384;
1133.1000;0.1913;7.1407;
1133.4000;0.1921;7.1336;
1133.7000;0.1913;7.1313;
1134.0000;0.1888;7.1313;
1134.3000;0.1937;7.1526;
1134.6000;0.1897;7.1384;
1134.9000;0.1905;7.1478;
1135.2000;0.1905;7.1502;
1135.5000;0.1913;7.1360;
1135.8000;0.1905;7.1289;
1136.1000;0.1913;7.1289;
1136.4000;0.1921;7.1384;
1136.7000;0.1897;7.1407;
1137.0000;0.1921;7.1455;
1137.3000;0.1888;7.1384;
1137.6000;0.1929;7.1478;
1137.9000;0.1905;7.1502;
1138.2000;0.1888;7.1407;
1138.5000;0.1897;7.1360;
1138.8000;0.1905;7.1360;
1139.1000;0.1921;7.1336;
1139.4000;0.1913;7.1384;
1139.7000;0.1897;7.1289;
1140.0000;0.1929;7.1407;
1140.3000;0.1921;7.1384;
1140.6000;0.1937;7.1455;
1140.9000;0.1880;7.1266;
1141.2000;0.1888;7.1195;
1141.5000;0.1913;7.1218;
1141.8000;0.1921;7.1266;
1142.1000;0.1897;7.1147;
1142.4000;0.1905;7.1218;
1142.7000;0.1921;7.1336;
1143.0000;0.1921;7.1360;
1143.3000;0.1913;7.1360;
1143.6000;0.1913;7.1336;
1143.9000;0.1929;7.1313;
1144.2000;0.1962;7.1384;
1144.5000;0.1897;7.1313;
1144.8000;0.1905;7.1242;
1145.1000;0.1913;7.1195;
1145.4000;0.1897;7.1218;
1145.7000;0.1905;7.1360;
1146.0000;0.1929;7.1455;
1146.3000;0.1840;7.1289;
1146.6000;0.1905;7.1431;
1146.9000;0.1905;7.1384;
1147.2000;0.1905;7.1384;
1147.5000;0.1929;7.1407;
1147.8000;0.1905;7.1360;
1148.1000;0.1856;7.1266;
1148.4000;0.1897;7.1313;
1148.7000;0.1905;7.1360;
1149.0000;0.1913;7.1502;
1149.3000;0.1913;7.1526;
1149.6000;0.1864;7.1313;
1149.9000;0.1897;7.1455;
1150.2000;0.1872;7.1431;
1150.5000;0.1921;7.1573;
1150.8000;0.1905;7.1573;
1151.1000;0.1897;7.1478;
1151.4000;0.1897;7.1502;
1151.7000;0.1929;7.1502;
1152.0000;0.1897;7.1384;
1152.3000;0.1880;7.1336;
1152.6000;0.1921;7.1455;
1152.9000;0.1945;7.1478;
1153.2000;0.1921;7.1431;
1153.5000;0.1929;7.1455;
1153.8000;0.1888;7.1478;
1154.1000;0.1897;7.1431;
1154.4000;0.1929;7.1502;
1154.7000;0.1929;7.1478;
1155.0000;0.1913;7.1478;
1155.3000;0.1937;7.1596;
1155.6000;0.1921;7.1644;
1155.9000;0.1929;7.1596;
1156.2000;0.1897;7.1502;
1156.5000;0.1888;7.1549;
1156.8000;0.1905;7.1526;
1157.1000;0.1913;7.1478;
1157.4000;0.1905;7.1573;
1157.7000;0.1832;7.1431;
1158.0000;0.1905;7.1620;
1158.3000;0.1913;7.1549;
1158.6000;0.1905;7.1573;
1158.9000;0.1937;7.1620;
1159.2000;0.1913;7.1502;
1159.5000;0.1929;7.1549;
1159.8000;0.1905;7.1455;
1160.1000;0.1888;7.1407;
1160.4000;0.1840;7.1266;
1160.7000;0.1921;7.1502;
1161.0000;0.1888;7.1478;
1161.3000;0.1864;7.1384;
1161.6000;0.1905;7.1384;
1161.9000;0.1913;7.1407;
1162.2000;0.1913;7.1313;
1162.5000;0.1905;7.1266;
1162.8000;0.1905;7.1289;
1163.1000;0.1929;7.1360;
1163.4000;0.1929;7.1407;
1163.7000;0.1921;7.1455;
1164.0000;0.1913;7.1407;
1164.3000;0.1888;7.1360;
1164.6000;0.1905;7.1336;
1164.9000;0.1921;7.1384;
1165.2000;0.1905;7.1336;
1165.5000;0.1978;7.1455;
1165.8000;0.1905;7.1384;
1166.1000;0.1913;7.1360;
1166.4000;0.1929;7.1360;
1166.7000;0.1897;7.1289;
1167.0000;0.1897;7.1218;
1167.3000;0.1962;7.1384;
1167.6000;0.1905;7.1147;
1167.9000;0.1872;7.1147;
1168.2000;0.1962;7.1360;
1168.5000;0.1897;7.1313;
1168.8000;0.1880;7.1289;
1169.1000;0.1897;7.1313;
1169.4000;0.1823;7.1076;
1169.7000;0.1929;7.1336;
1170.0000;0.1897;7.1336;
1170.3000;0.1856;7.1289;
1170.6000;0.1897;7.1431;
1170.9000;0.1921;7.1478;
1171.2000;0.1888;7.1336;
1171.5000;0.1880;7.1242;
1171.8000;0.1905;7.1407;
1172.1000;0.1921;7.1502;
1172.4000;0.1888;7.1313;
1172.7000;0.1921;7.1360;
1173.0000;0.1929;7.1360;
1173.3000;0.1897;7.1407;
1173.6000;0.1929;7.1502;
1173.9000;0.1856;7.1313;
1174.2000;0.1848;7.1147;
1174.5000;0.1921;7.1313;
1174.8000;0.1929;7.1336;
1175.1000;0.1897;7.1266;
1175.4000;0.1913;7.1313;
1175.7000;0.1913;7.1360;
1176.0000;0.1913;7.1360;
1176.3000;0.1913;7.1242;
1176.6000;0.1905;7.1289;
1176.9000;0.1897;7.1266;
1177.2000;0.1856;7.1266;
1177.5000;0.1913;7.1478;
1177.8000;0.1905;7.1455;
1178.1000;0.1905;7.1502;
1178.4000;0.1921;7.1596;
1178.7000;0.1913;7.1573;
1179.0000;0.1913;7.1526;
1179.3000;0.1905;7.1478;
1179.6000;0.1897;7.1478;
1179.9000;0.1913;7.1431;
1180.2000;0.1913;7.1455;
1180.5000;0.1897;7.1431;
1180.8000;0.1905;7.1431;
1181.1000;0.1905;7.1502;
1181.4000;0.1913;7.1526;
1181.7000;0.1905;7.1407;
1182.0000;0.1905;7.1478;
1182.3000;0.1888;7.1478;
1182.6000;0.1913;7.1502;
1182.9000;0.1897;7.1431;
1183.2000;0.1888;7.1431;
1183.5000;0.1897;7.1455;
1183.8000;0.1905;7.1455;
1184.1000;0.1921;7.1596;
1184.4000;0.1832;7.1431;
1184.7000;0.1905;7.1596;
1185.0000;0.1929;7.1549;
1185.3000;0.1913;7.1431;
1185.6000;0.1945;7.1431;
1185.9000;0.1913;7.1431;
1186.2000;0.1929;7.1478;
1186.5000;0.1897;7.1384;
1186.8000;0.1937;7.1478;
1187.1000;0.1921;7.1384;
1187.4000;0.1994;7.1549;
1187.7000;0.1929;7.1431;
1188.0000;0.1905;7.1360;
1188.3000;0.1905;7.1407;
1188.6000;0.1929;7.1431;
1188.9000;0.1937;7.1431;
1189.2000;0.1888;7.1360;
1189.5000;0.1897;7.1384;
1189.8000;0.1945;7.1549;
1190.1000;0.1905;7.1526;
1190.4000;0.1913;7.1549;
1190.7000;0.1921;7.1573;
1191.0000;0.1905;7.1526;
1191.3000;0.1905;7.1549;
1191.6000;0.1905;7.1549;
1191.9000;0.1929;7.1596;
1192.2000;0.1888;7.1478;
1192.5000;0.1913;7.1573;
1192.8000;0.1921;7.1573;
1193.1000;0.1888;7.1502;
1193.4000;0.1856;7.1526;
1193.7000;0.2002;7.1904;
1194.0000;0.1905;7.1667;
1194.3000;0.1905;7.1691;
1194.6000;0.1897;7.1667;
1194.9000;0.1929;7.1738;
1195.2000;0.1905;7.1644;
1195.5000;0.1872;7.1502;
1195.8000;0.1921;7.1526;
1196.1000;0.1897;7.1407;
1196.4000;0.1905;7.1384;
1196.7000;0.1888;7.1336;
1197.0000;0.1913;7.1313;
1197.3000;0.1913;7.1289;
1197.6000;0.1921;7.1336;
1197.9000;0.1905;7.1384;
1198.2000;0.1986;7.1549;
1198.5000;0.1888;7.1289;
1198.8000;0.1929;7.1407;
1199.1000;0.1937;7.1478;
1199.4000;0.1880;7.1336;
1199.7000;0.1897;7.1384;
1200.0000;0.1921;7.1549;
1200.3000;0.1880;7.1431;
1200.6000;0.1921;7.1502;
1200.9000;0.1921;7.1384;
1201.2000;0.1864;7.1242;
1201.5000;0.1913;7.1455;
1201.8000;0.1921;7.1502;
1202.1000;0.1913;7.1360;
1202.4000;0.1905;7.1455;
1202.7000;0.1921;7.1526;
1203.0000;0.1864;7.1360;
1203.3000;0.1905;7.1502;
1203.6000;0.1897;7.1502;
1203.9000;0.1929;7.1478;
1204.2000;0.1913;7.1407;
1204.5000;0.1921;7.1407;
1204.8000;0.1913;7.1455;
1205.1000;0.1913;7.1526;
1205.4000;0.1905;7.1549;
1205.7000;0.1897;7.1573;
1206.0000;0.1897;7.1478;
1206.3000;0.1897;7.1549;
1206.6000;0.1913;7.1549;
1206.9000;0.1913;7.1526;
1207.2000;0.1905;7.1526;
1207.5000;0.1897;7.1549;
1207.8000;0.1921;7.1573;
1208.1000;0.1897;7.1526;
1208.4000;0.1913;7.1478;
1208.7000;0.1913;7.1455;
1209.0000;0.1929;7.1526;
1209.3000;0.1888;7.1502;
1209.6000;0.1905;7.1573;
1209.9000;0.1905;7.1526;
1210.2000;0.1921;7.1549;
1210.5000;0.1913;7.1407;
1210.8000;0.1888;7.1336;
1211.1000;0.1913;7.1336;
1211.4000;0.1897;7.1360;
1211.7000;0.1888;7.1242;
1212.0000;0.1921;7.1313;
1212.3000;0.1880;7.1336;
1212.6000;0.1897;7.1360;
1212.9000;0.1913;7.1502;
1213.2000;0.1848;7.1407;
1213.5000;0.1897;7.1573;
1213.8000;0.1897;7.1620;
1214.1000;0.1897;7.1573;
1214.4000;0.1913;7.1620;
1214.7000;0.1970;7.1786;
1215.0000;0.1929;7.1762;
1215.3000;0.1921;7.1738;
1215.6000;0.1913;7.1596;
1215.9000;0.1905;7.1502;
1216.2000;0.1897;7.1455;
1216.5000;0.1888;7.1549;
1216.8000;0.1880;7.1478;
1217.1000;0.2035;7.1786;
1217.4000;0.1905;7.1502;
1217.7000;0.1897;7.1620;
1218.0000;0.1921;7.1691;
1218.3000;0.1913;7.1833;
1218.6000;0.1880;7.1691;
1218.9000;0.1905;7.1644;
1219.2000;0.1921;7.1526;
1219.5000;0.1888;7.1478;
1219.8000;0.1897;7.1526;
1220.1000;0.1897;7.1526;
1220.4000;0.1937;7.1549;
1220.7000;0.1913;7.1526;
1221.0000;0.1905;7.1549;
1221.3000;0.1872;7.1455;
1221.6000;0.1905;7.1526;
1221.9000;0.1897;7.1596;
1222.2000;0.1970;7.1762;
1222.5000;0.1929;7.1573;
1222.8000;0.1937;7.1596;
1223.1000;0.1897;7.1478;
1223.4000;0.1913;7.1502;
1223.7000;0.1897;7.1478;
1224.0000;0.1840;7.1455;
1224.3000;0.1921;7.1549;
1224.6000;0.1929;7.1502;
1224.9000;0.1848;7.1242;
1225.2000;0.1913;7.1407;
1225.5000;0.1937;7.1502;
1225.8000;0.1897;7.1431;
1226.1000;0.1913;7.1384;
1226.4000;0.1905;7.1336;
1226.7000;0.1897;7.1455;
1227.0000;0.1962;7.1596;
1227.3000;0.1921;7.1573;
1227.6000;0.1962;7.1667;
1227.9000;0.1888;7.1455;
1228.2000;0.1913;7.1384;
1228.5000;0.1905;7.1431;
1228.8000;0.1921;7.1455;
1229.1000;0.1905;7.1502;
1229.4000;0.1970;7.1691;
1229.7000;0.1929;7.1596;
1230.0000;0.1921;7.1596;
1230.3000;0.1921;7.1573;
1230.6000;0.1905;7.1573;
1230.9000;0.1880;7.1502;
1231.2000;0.1921;7.1573;
1231.5000;0.1880;7.1549;
1231.8000;0.1897;7.1596;
1232.1000;0.1888;7.1596;
1232.4000;0.1970;7.1762;
1232.7000;0.1872;7.1526;
1233.0000;0.1913;7.1620;
1233.3000;0.1921;7.1620;
1233.6000;0.1962;7.1667;
1233.9000;0.1913;7.1526;
1234.2000;0.1913;7.1502;
1234.5000;0.1913;7.1360;
1234.8000;0.1929;7.1384;
1235.1000;0.1897;7.1336;
1235.4000;0.1807;7.1171;
1235.7000;0.1905;7.1360;
1236.0000;0.1888;7.1336;
1236.3000;0.1888;7.1384;
1236.6000;0.1954;7.1384;
1236.9000;0.1913;7.1313;
1237.2000;0.1897;7.1336;
1237.5000;0.1888;7.1407;
1237.8000;0.1962;7.1620;
1238.1000;0.1905;7.1478;
1238.4000;0.1897;7.1455;
1238.7000;0.1905;7.1526;
1239.0000;0.1905;7.1502;
1239.3000;0.1913;7.1526;
1239.6000;0.1913;7.1573;
1239.9000;0.1921;7.1573;
1240.2000;0.1897;7.1502;
1240.5000;0.1905;7.1573;
1240.8000;0.1905;7.1502;
1241.1000;0.1929;7.1620;
1241.4000;0.1897;7.1691;
1241.7000;0.1913;7.1738;
1242.0000;0.1880;7.1644;
1242.3000;0.1888;7.1644;
1242.6000;0.1905;7.1644;
1242.9000;0.1954;7.1738;
1243.2000;0.2002;7.1880;
1243.5000;0.1921;7.1691;
1243.8000;0.1921;7.1644;
1244.1000;0.1897;7.1478;
1244.4000;0.1913;7.1431;
1244.7000;0.1848;7.1218;
1245.0000;0.1880;7.1218;
1245.3000;0.2002;7.1620;
1245.6000;0.1937;7.1431;
1245.9000;0.2002;7.1573;
1246.2000;0.1897;7.1384;
1246.5000;0.1913;7.1360;
1246.8000;0.1905;7.1289;
1247.1000;0.1905;7.1289;
1247.4000;0.1913;7.1360;
1247.7000;0.1913;7.1407;
1248.0000;0.1905;7.1360;
1248.3000;0.2019;7.1620;
1248.6000;0.1921;7.1478;
1248.9000;0.1905;7.1407;
1249.2000;0.1913;7.1455;
1249.5000;0.1905;7.1384;
1249.8000;0.1937;7.1478;
1250.1000;0.1905;7.1360;
1250.4000;0.1905;7.1360;
1250.7000;0.1888;7.1478;
1251.0000;0.1913;7.1526;
1251.3000;0.1905;7.1549;
1251.6000;0.1888;7.1407;
1251.9000;0.1905;7.1431;
1252.2000;0.1888;7.1384;
1252.5000;0.1897;7.1407;
1252.8000;0.1864;7.1289;
1253.1000;0.1880;7.1313;
1253.4000;0.1888;7.1289;
1253.7000;0.1905;7.1360;
1254.0000;0.1913;7.1407;
1254.3000;0.1913;7.1336;
1254.6000;0.1913;7.1313;
1254.9000;0.1905;7.1313;
1255.2000;0.1929;7.1502;
1255.5000;0.1905;7.1502;
1255.8000;0.1905;7.1478;
1256.1000;0.1921;7.1455;
1256.4000;0.1921;7.1360;
1256.7000;0.1897;7.1195;
1257.0000;0.1913;7.1266;
1257.3000;0.1929;7.1289;
1257.6000;0.1872;7.1195;
1257.9000;0.1913;7.1313;
1258.2000;0.1913;7.1336;
1258.5000;0.1905;7.1360;
1258.8000;0.1913;7.1289;
1259.1000;0.1929;7.1360;
1259.4000;0.1921;7.1360;
1259.7000;0.1929;7.1431;
1260.0000;0.1888;7.1336;
1260.3000;0.1913;7.1384;
1260.6000;0.1913;7.1313;
1260.9000;0.1937;7.1407;
1261.2000;0.1929;7.1360;
1261.5000;0.1994;7.1526;
1261.8000;0.1954;7.1266;
1262.1000;0.1945;7.1218;
1262.4000;0.1897;7.1195;
1262.7000;0.1840;7.1195;
1263.0000;0.1872;7.1266;
1263.3000;0.1897;7.1360;
1263.6000;0.1905;7.1360;
1263.9000;0.1905;7.1336;
1264.2000;0.1897;7.1266;
1264.5000;0.1913;7.1266;
1264.8000;0.1913;7.1336;
1265.1000;0.1921;7.1313;
1265.4000;0.1905;7.1384;
1265.7000;0.1913;7.1455;
1266.0000;0.1921;7.1313;
1266.3000;0.1929;7.1336;
1266.6000;0.1954;7.1407;
1266.9000;0.1921;7.1218;
1267.2000;0.1888;7.1124;
1267.5000;0.1897;7.1147;
1267.8000;0.1913;7.1242;
1268.1000;0.1945;7.1336;
1268.4000;0.1905;7.1266;
1268.7000;0.1913;7.1384;
1269.0000;0.1978;7.1478;
1269.3000;0.1913;7.1266;
1269.6000;0.1913;7.1313;
1269.9000;0.1929;7.1360;
1270.2000;0.1888;7.1171;
1270.5000;0.1888;7.1171;
1270.8000;0.1905;7.1218;
1271.1000;0.1913;7.1360;
1271.4000;0.1905;7.1336;
1271.7000;0.1864;7.1266;
1272.0000;0.1913;7.1336;
1272.3000;0.1929;7.1384;
1272.6000;0.1905;7.1313;
1272.9000;0.1888;7.1336;
1273.2000;0.1921;7.1407;
1273.5000;0.1897;7.1360;
1273.8000;0.1913;7.1336;
1274.1000;0.1888;7.1242;
1274.4000;0.1913;7.1289;
1274.7000;0.1905;7.1266;
1275.0000;0.1905;7.1336;
1275.3000;0.1897;7.1336;
1275.6000;0.1888;7.1266;
1275.9000;0.1888;7.1407;
1276.2000;0.1905;7.1431;
1276.5000;0.1897;7.1384;
1276.8000;0.1913;7.1455;
1277.1000;0.1897;7.1455;
1277.4000;0.1888;7.1384;
1277.7000;0.1905;7.1431;
1278.0000;0.1897;7.1360;
1278.3000;0.1970;7.1455;
1278.6000;0.1888;7.1171;
1278.9000;0.1905;7.1195;
1279.2000;0.1897;7.1195;
1279.5000;0.1897;7.1218;
1279.8000;0.1864;7.1147;
1280.1000;0.1921;7.1289;
1280.4000;0.1921;7.1218;
1280.7000;0.1905;7.1171;
1281.0000;0.1897;7.1147;
1281.3000;0.1905;7.1242;
1281.6000;0.1913;7.1289;
1281.9000;0.1888;7.1195;
1282.2000;0.1888;7.1289;
1282.5000;0.1929;7.1431;
1282.8000;0.1921;7.1384;
1283.1000;0.1937;7.1313;
1283.4000;0.1897;7.1195;
1283.7000;0.1913;7.1313;
1284.0000;0.2019;7.1526;
1284.3000;0.2019;7.1573;
1284.6000;0.1905;7.1266;
1284.9000;0.1832;7.1124;
1285.2000;0.1962;7.1549;
1285.5000;0.1880;7.1455;
1285.8000;0.1888;7.1526;
1286.1000;0.1888;7.1455;
1286.4000;0.1880;7.1455;
1286.7000;0.1913;7.1526;
1287.0000;0.1815;7.1195;
1287.3000;0.1913;7.1455;
1287.6000;0.1905;7.1384;
1287.9000;0.1913;7.1384;
1288.2000;0.1897;7.1336;
1288.5000;0.1905;7.1336;
1288.8000;0.1897;7.1313;
1289.1000;0.1905;7.1313;
1289.4000;0.1897;7.1336;
1289.7000;0.1905;7.1336;
1290.0000;0.1913;7.1384;
1290.3000;0.1897;7.1313;
1290.6000;0.1905;7.1242;
1290.9000;0.1888;7.1171;
1291.2000;0.1913;7.1242;
1291.5000;0.1905;7.1195;
1291.8000;0.1913;7.1171;
1292.1000;0.1937;7.1218;
1292.4000;0.1905;7.1218;
1292.7000;0.1905;7.1313;
1293.0000;0.1929;7.1384;
1293.3000;0.1856;7.1218;
1293.6000;0.1913;7.1431;
1293.9000;0.1913;7.1526;
1294.2000;0.1888;7.1549;
1294.5000;0.1921;7.1596;
1294.8000;0.1913;7.1549;
1295.1000;0.1929;7.1573;
1295.4000;0.1905;7.1549;
1295.7000;0.1913;7.1478;
1296.0000;0.1905;7.1431;
1296.3000;0.1897;7.1407;
1296.6000;0.1905;7.1431;
1296.9000;0.1913;7.1360;
1297.2000;0.1897;7.1266;
1297.5000;0.1888;7.1289;
1297.8000;0.1913;7.1289;
1298.1000;0.1913;7.1242;
1298.4000;0.1872;7.1100;
1298.7000;0.1888;7.1195;
1299.0000;0.1905;7.1289;
1299.3000;0.1921;7.1336;
1299.6000;0.1913;7.1407;
1299.9000;0.1888;7.1360;
1300.2000;0.1905;7.1431;
1300.5000;0.1913;7.1549;
1300.8000;0.1897;7.1502;
1301.1000;0.1913;7.1384;
1301.4000;0.1856;7.1242;
1301.7000;0.1897;7.1289;
1302.0000;0.1921;7.1478;
1302.3000;0.1832;7.1360;
1302.6000;0.1897;7.1573;
1302.9000;0.1929;7.1691;
1303.2000;0.1929;7.1620;
1303.5000;0.1905;7.1502;
1303.8000;0.1905;7.1549;
1304.1000;0.1913;7.1431;
1304.4000;0.1921;7.1384;
1304.7000;0.1905;7.1360;
1305.0000;0.1929;7.1502;
1305.3000;0.1905;7.1549;
1305.6000;0.1929;7.1502;
1305.9000;0.1921;7.1478;
1306.2000;0.1897;7.1360;
1306.5000;0.1905;7.1313;
1306.8000;0.1880;7.1242;
1307.1000;0.1905;7.1266;
1307.4000;0.1913;7.1266;
1307.7000;0.1905;7.1195;
1308.0000;0.1905;7.1171;
1308.3000;0.1929;7.1289;
1308.6000;0.1905;7.1266;
1308.9000;0.1888;7.1147;
1309.2000;0.1864;7.1242;
1309.5000;0.1929;7.1455;
1309.8000;0.1905;7.1336;
1310.1000;0.1905;7.1336;
1310.4000;0.1905;7.1242;
1310.7000;0.1921;7.1242;
1311.0000;0.1913;7.1266;
1311.3000;0.1913;7.1289;
1311.6000;0.1897;7.1336;
1311.9000;0.1905;7.1313;
1312.2000;0.1897;7.1360;
1312.5000;0.1880;7.1242;
1312.8000;0.1897;7.1384;
1313.1000;0.1937;7.1384;
1313.4000;0.1905;7.1313;
1313.7000;0.1913;7.1431;
1314.0000;0.1921;7.1526;
1314.3000;0.1897;7.1573;
1314.6000;0.1913;7.1573;
1314.9000;0.1905;7.1526;
1315.2000;0.1905;7.1596;
1315.5000;0.1905;7.1549;
1315.8000;0.1897;7.1478;
1316.1000;0.1905;7.1573;
1316.4000;0.1905;7.1526;
1316.7000;0.1880;7.1502;
1317.0000;0.1848;7.1407;
1317.3000;0.1905;7.1407;
1317.6000;0.1897;7.1384;
1317.9000;0.1905;7.1289;
1318.2000;0.1880;7.1313;
1318.5000;0.1897;7.1242;
1318.8000;0.1897;7.1195;
1319.1000;0.1905;7.1218;
1319.4000;0.1888;7.1147;
1319.7000;0.1986;7.1336;
1320.0000;0.1913;7.1124;
1320.3000;0.1888;7.1100;
1320.6000;0.1978;7.1407;
1320.9000;0.1897;7.1100;
1321.2000;0.1913;7.1218;
1321.5000;0.1807;7.1006;
1321.8000;0.1832;7.1006;
1322.1000;0.1913;7.1242;
1322.4000;0.1913;7.1289;
1322.7000;0.1897;7.1336;
1323.0000;0.1921;7.1384;
1323.3000;0.1905;7.1407;
1323.6000;0.1888;7.1336;
1323.9000;0.1945;7.1455;
1324.2000;0.1880;7.1336;
1324.5000;0.1897;7.1384;
1324.8000;0.1905;7.1360;
1325.1000;0.1921;7.1407;
1325.4000;0.1905;7.1384;
1325.7000;0.1913;7.1384;
1326.0000;0.1897;7.1336;
1326.3000;0.1962;7.1502;
1326.6000;0.1913;7.1384;
1326.9000;0.1921;7.1407;
1327.2000;0.1945;7.1526;
1327.5000;0.1888;7.1478;
1327.8000;0.1905;7.1573;
1328.1000;0.1897;7.1526;
1328.4000;0.1913;7.1596;
1328.7000;0.1921;7.1573;
1329.0000;0.1929;7.1620;
1329.3000;0.1921;7.1478;
1329.6000;0.1905;7.1478;
1329.9000;0.1937;7.1549;
1330.2000;0.1921;7.1502;
1330.5000;0.1913;7.1407;
1330.8000;0.1921;7.1526;
1331.1000;0.1921;7.1573;
1331.4000;0.1888;7.1478;
1331.7000;0.1913;7.1431;
1332.0000;0.1864;7.1266;
1332.3000;0.1848;7.1195;
1332.6000;0.1888;7.1266;
1332.9000;0.1888;7.1313;
1333.2000;0.1888;7.1289;
1333.5000;0.1905;7.1289;
1333.8000;0.1888;7.1242;
1334.1000;0.1848;7.1147;
1334.4000;0.1921;7.1218;
1334.7000;0.1913;7.1218;
1335.0000;0.1945;7.1336;
1335.3000;0.1913;7.1313;
1335.6000;0.1888;7.1313;
1335.9000;0.1921;7.1289;
1336.2000;0.1897;7.1195;
1336.5000;0.1929;7.1242;
1336.8000;0.1897;7.1195;
1337.1000;0.1897;7.1242;
1337.4000;0.1913;7.1360;
1337.7000;0.1880;7.1289;
1338.0000;0.1880;7.1195;
1338.3000;0.1897;7.1195;
1338.6000;0.1921;7.1171;
1338.9000;0.1913;7.1242;
1339.2000;0.1921;7.1336;
1339.5000;0.1913;7.1313;
1339.8000;0.1945;7.1431;
1340.1000;0.1848;7.1147;
1340.4000;0.1872;7.1218;
1340.7000;0.1880;7.1266;
1341.0000;0.1856;7.1124;
1341.3000;0.1921;7.1218;
1341.6000;0.1897;7.1124;
1341.9000;0.1986;7.1478;
1342.2000;0.1880;7.1313;
1342.5000;0.1905;7.1407;
1342.8000;0.1913;7.1478;
1343.1000;0.1970;7.1502;
1343.4000;0.1913;7.1407;
1343.7000;0.1905;7.1431;
1344.0000;0.1921;7.1313;
1344.3000;0.1913;7.1266;
1344.6000;0.1921;7.1336;
1344.9000;0.1897;7.1336;
1345.2000;0.1880;7.1336;
1345.5000;0.1888;7.1431;
1345.8000;0.1913;7.1526;
1346.1000;0.1897;7.1549;
1346.4000;0.1888;7.1502;
1346.7000;0.1913;7.1526;
1347.0000;0.1913;7.1691;
1347.3000;0.1888;7.1549;
1347.6000;0.1954;7.1715;
1347.9000;0.1913;7.1549;
1348.2000;0.1840;7.1360;
1348.5000;0.1856;7.1360;
1348.8000;0.1913;7.1526;
1349.1000;0.1905;7.1502;
1349.4000;0.1888;7.1526;
1349.7000;0.1937;7.1596;
1350.0000;0.1897;7.1526;
1350.3000;0.1929;7.1549;
1350.6000;0.1905;7.1455;
1350.9000;0.1888;7.1407;
1351.2000;0.1872;7.1336;
1351.5000;0.1880;7.1242;
1351.8000;0.1929;7.1266;
1352.1000;0.1921;7.1171;
1352.4000;0.1880;7.1053;
1352.7000;0.1913;7.1266;
1353.0000;0.1945;7.1431;
1353.3000;0.1921;7.1360;
1353.6000;0.1945;7.1431;
1353.9000;0.1905;7.1336;
1354.2000;0.1913;7.1431;
1354.5000;0.1848;7.1242;
1354.8000;0.1978;7.1549;
1355.1000;0.1945;7.1549;
1355.4000;0.1921;7.1384;
1355.7000;0.1929;7.1313;
1356.0000;0.2002;7.1549;
1356.3000;0.1888;7.1336;
1356.6000;0.1905;7.1336;
1356.9000;0.1970;7.1596;
1357.2000;0.1913;7.1407;
1357.5000;0.1905;7.1336;
1357.8000;0.1872;7.1313;
1358.1000;0.1905;7.1360;
1358.4000;0.1897;7.1171;
1358.7000;0.1897;7.1171;
1359.0000;0.1929;7.1289;
1359.3000;0.1913;7.1266;
1359.6000;0.1913;7.1195;
1359.9000;0.1937;7.1360;
1360.2000;0.1921;7.1289;
1360.5000;0.1905;7.1171;
1360.8000;0.1897;7.1147;
1361.1000;0.1897;7.1147;
1361.4000;0.1921;7.1124;
1361.7000;0.1905;7.1218;
1362.0000;0.1913;7.1195;
1362.3000;0.1888;7.1147;
1362.6000;0.1905;7.1218;
1362.9000;0.1921;7.1336;
1363.2000;0.1937;7.1407;
1363.5000;0.1913;7.1313;
1363.8000;0.1897;7.1242;
1364.1000;0.1921;7.1195;
1364.4000;0.1921;7.1147;
1364.7000;0.1913;7.1124;
1365.0000;0.1840;7.0958;
1365.3000;0.1921;7.1171;
1365.6000;0.1929;7.1147;
1365.9000;0.1954;7.1195;
1366.2000;0.1970;7.1313;
1366.5000;0.1913;7.1171;
1366.8000;0.1905;7.1289;
1367.1000;0.1905;7.1266;
1367.4000;0.1921;7.1313;
1367.7000;0.1913;7.1289;
1368.0000;0.1921;7.1336;
1368.3000;0.1929;7.1384;
1368.6000;0.1897;7.1313;
1368.9000;0.1888;7.1289;
1369.2000;0.1921;7.1360;
1369.5000;0.1913;7.1407;
1369.8000;0.1921;7.1502;
1370.1000;0.1913;7.1549;
1370.4000;0.1905;7.1573;
1370.7000;0.1962;7.1573;
1371.0000;0.1921;7.1455;
1371.3000;0.1921;7.1384;
1371.6000;0.1929;7.1360;
1371.9000;0.1921;7.1336;
1372.2000;0.1905;7.1266;
1372.5000;0.1905;7.1218;
1372.8000;0.1905;7.1195;
1373.1000;0.1905;7.1171;
1373.4000;0.1929;7.1336;
1373.7000;0.1897;7.1289;
1374.0000;0.1864;7.1195;
1374.3000;0.1913;7.1313;
1374.6000;0.1929;7.1407;
1374.9000;0.1905;7.1360;
1375.2000;0.1970;7.1549;
1375.5000;0.1913;7.1336;
1375.8000;0.1978;7.1526;
1376.1000;0.1921;7.1407;
1376.4000;0.1929;7.1384;
1376.7000;0.1905;7.1407;
1377.0000;0.1913;7.1313;
1377.3000;0.1880;7.1218;
1377.6000;0.1913;7.1336;
1377.9000;0.1913;7.1455;
1378.2000;0.1913;7.1455;
1378.5000;0.1913;7.1384;
1378.8000;0.1905;7.1313;
1379.1000;0.1913;7.1360;
1379.4000;0.1913;7.1478;
1379.7000;0.1905;7.1360;
1380.0000;0.1970;7.1549;
1380.3000;0.1856;7.1266;
1380.6000;0.1888;7.1407;
1380.9000;0.1864;7.1289;
1381.2000;0.1905;7.1384;
1381.5000;0.1913;7.1336;
1381.8000;0.1913;7.1336;
1382.1000;0.1929;7.1478;
1382.4000;0.1921;7.1526;
1382.7000;0.1897;7.1478;
1383.0000;0.1913;7.1455;
1383.3000;0.1929;7.1502;
1383.6000;0.1929;7.1478;
1383.9000;0.1905;7.1455;
1384.2000;0.1937;7.1573;
1384.5000;0.1905;7.1431;
1384.8000;0.1913;7.1431;
1385.1000;0.1913;7.1478;
1385.4000;0.1897;7.1431;
1385.7000;0.1880;7.1360;
1386.0000;0.1913;7.1478;
1386.3000;0.1929;7.1573;
1386.6000;0.1913;7.1549;
1386.9000;0.1905;7.1620;
1387.2000;0.1888;7.1478;
1387.5000;0.1897;7.1455;
1387.8000;0.1897;7.1526;
1388.1000;0.1905;7.1502;
1388.4000;0.1905;7.1502;
1388.7000;0.1905;7.1549;
1389.0000;0.1913;7.1644;
1389.3000;0.1913;7.1667;
1389.6000;0.1905;7.1644;
1389.9000;0.1897;7.1620;
1390.2000;0.1897;7.1620;
1390.5000;0.1888;7.1667;
1390.8000;0.1921;7.1644;
1391.1000;0.1945;7.1667;
1391.4000;0.1880;7.1407;
1391.7000;0.1937;7.1455;
1392.0000;0.1937;7.1502;
1392.3000;0.1880;7.1384;
1392.6000;0.1913;7.1455;
1392.9000;0.1905;7.1455;
1393.2000;0.1840;7.1360;
1393.5000;0.1929;7.1502;
1393.8000;0.1905;7.1478;
1394.1000;0.1897;7.1407;
1394.4000;0.1937;7.1455;
1394.7000;0.1840;7.1171;
1395.0000;0.1913;7.1336;
1395.3000;0.1905;7.1266;
1395.6000;0.1913;7.1313;
1395.9000;0.1905;7.1313;
1396.2000;0.1970;7.1455;
1396.5000;0.1929;7.1289;
1396.8000;0.1905;7.1218;
1397.1000;0.1905;7.1147;
1397.4000;0.1913;7.1100;
1397.7000;0.1905;7.1076;
1398.0000;0.1913;7.1100;
1398.3000;0.1905;7.1171;
1398.6000;0.1913;7.1171;
1398.9000;0.1905;7.1147;
1399.2000;0.1897;7.1171;
1399.5000;0.1913;7.1313;
1399.8000;0.1905;7.1384;
