time/ms;Fluo/V;P700 deltaI/I x10³;
-199.8000;0.2198;7.1786;
-199.5000;0.2173;7.1667;
-199.2000;0.2173;7.1738;
-198.9000;0.2141;7.1620;
-198.6000;0.2190;7.1762;
-198.3000;0.2214;7.1809;
-198.0000;0.2165;7.1667;
-197.7000;0.2141;7.1549;
-197.4000;0.2173;7.1691;
-197.1000;0.2173;7.1620;
-196.8000;0.2182;7.1691;
-196.5000;0.2214;7.1738;
-196.2000;0.2198;7.1667;
-195.9000;0.2198;7.1738;
-195.6000;0.2255;7.1975;
-195.3000;0.2214;7.1856;
-195.0000;0.2165;7.1809;
-194.7000;0.2190;7.1762;
-194.4000;0.2165;7.1715;
-194.1000;0.2182;7.1691;
-193.8000;0.2182;7.1715;
-193.5000;0.2182;7.1620;
-193.2000;0.2198;7.1715;
-192.9000;0.2190;7.1738;
-192.6000;0.2190;7.1620;
-192.3000;0.2182;7.1596;
-192.0000;0.2190;7.1644;
-191.7000;0.2190;7.1691;
-191.4000;0.2157;7.1691;
-191.1000;0.2182;7.1786;
-190.8000;0.2149;7.1667;
-190.5000;0.2198;7.1786;
-190.2000;0.2198;7.1786;
-189.9000;0.2173;7.1762;
-189.6000;0.2198;7.1880;
-189.3000;0.2190;7.1738;
-189.0000;0.2133;7.1549;
-188.7000;0.2190;7.1644;
-188.4000;0.2190;7.1573;
-188.1000;0.2206;7.1573;
-187.8000;0.2173;7.1620;
-187.5000;0.2222;7.1691;
-187.2000;0.2206;7.1691;
-186.9000;0.2165;7.1667;
-186.6000;0.2165;7.1691;
-186.3000;0.2198;7.1786;
-186.0000;0.2182;7.1833;
-185.7000;0.2198;7.1786;
-185.4000;0.2157;7.1715;
-185.1000;0.2247;7.1880;
-184.8000;0.2230;7.1762;
-184.5000;0.2165;7.1620;
-184.2000;0.2206;7.1644;
-183.9000;0.2092;7.1478;
-183.6000;0.2173;7.1762;
-183.3000;0.2190;7.1762;
-183.0000;0.2165;7.1715;
-182.7000;0.2100;7.1526;
-182.4000;0.2173;7.1715;
-182.1000;0.2173;7.1762;
-181.8000;0.2173;7.1833;
-181.5000;0.2165;7.1809;
-181.2000;0.2182;7.1833;
-180.9000;0.2173;7.1691;
-180.6000;0.2190;7.1738;
-180.3000;0.2198;7.1738;
-180.0000;0.2190;7.1738;
-179.7000;0.2198;7.1809;
-179.4000;0.2198;7.1786;
-179.1000;0.2190;7.1856;
-178.8000;0.2173;7.1904;
-178.5000;0.2182;7.1904;
-178.2000;0.2133;7.1786;
-177.9000;0.2157;7.1809;
-177.6000;0.2173;7.1880;
-177.3000;0.2165;7.1880;
-177.0000;0.2165;7.1904;
-176.7000;0.2255;7.2093;
-176.4000;0.2173;7.1833;
-176.1000;0.2214;7.1833;
-175.8000;0.2182;7.1880;
-175.5000;0.2165;7.1856;
-175.2000;0.2182;7.1927;
-174.9000;0.2190;7.1951;
-174.6000;0.2173;7.1927;
-174.3000;0.2182;7.2022;
-174.0000;0.2182;7.2022;
-173.7000;0.2190;7.2022;
-173.4000;0.2182;7.1927;
-173.1000;0.2190;7.1975;
-172.8000;0.2182;7.2022;
-172.5000;0.2182;7.1998;
-172.2000;0.2198;7.1998;
-171.9000;0.2182;7.1951;
-171.6000;0.2190;7.1904;
-171.3000;0.2182;7.1927;
-171.0000;0.2206;7.1927;
-170.7000;0.2206;7.1904;
-170.4000;0.2198;7.1833;
-170.1000;0.2198;7.1904;
-169.8000;0.2190;7.1904;
-169.5000;0.2190;7.1927;
-169.2000;0.2157;7.1833;
-168.9000;0.2149;7.1809;
-168.6000;0.2182;7.1809;
-168.3000;0.2182;7.1809;
-168.0000;0.2190;7.1786;
-167.7000;0.2173;7.1809;
-167.4000;0.2173;7.1786;
-167.1000;0.2190;7.1786;
-166.8000;0.2190;7.1738;
-166.5000;0.2190;7.1667;
-166.2000;0.2198;7.1620;
-165.9000;0.2173;7.1596;
-165.6000;0.2190;7.1667;
-165.3000;0.2173;7.1856;
-165.0000;0.2173;7.1856;
-164.7000;0.2182;7.1904;
-164.4000;0.2198;7.1975;
-164.1000;0.2206;7.1927;
-163.8000;0.2173;7.1904;
-163.5000;0.2190;7.1904;
-163.2000;0.2133;7.1833;
-162.9000;0.2182;7.1927;
-162.6000;0.2173;7.1975;
-162.3000;0.2198;7.1856;
-162.0000;0.2165;7.1786;
-161.7000;0.2198;7.1880;
-161.4000;0.2173;7.1738;
-161.1000;0.2165;7.1667;
-160.8000;0.2173;7.1715;
-160.5000;0.2173;7.1786;
-160.2000;0.2165;7.1809;
-159.9000;0.2190;7.1786;
-159.6000;0.2173;7.1786;
-159.3000;0.2165;7.1738;
-159.0000;0.2206;7.1786;
-158.7000;0.2182;7.1809;
-158.4000;0.2173;7.1809;
-158.1000;0.2198;7.1833;
-157.8000;0.2206;7.1786;
-157.5000;0.2230;7.1833;
-157.2000;0.2125;7.1526;
-156.9000;0.2198;7.1738;
-156.6000;0.2182;7.1715;
-156.3000;0.2182;7.1691;
-156.0000;0.2206;7.1667;
-155.7000;0.2206;7.1620;
-155.4000;0.2165;7.1573;
-155.1000;0.2182;7.1620;
-154.8000;0.2182;7.1573;
-154.5000;0.2173;7.1407;
-154.2000;0.2214;7.1478;
-153.9000;0.2182;7.1455;
-153.6000;0.2206;7.1478;
-153.3000;0.2190;7.1526;
-153.0000;0.2190;7.1596;
-152.7000;0.2190;7.1549;
-152.4000;0.2239;7.1738;
-152.1000;0.2182;7.1573;
-151.8000;0.2190;7.1596;
-151.5000;0.2198;7.1549;
-151.2000;0.2165;7.1455;
-150.9000;0.2141;7.1478;
-150.6000;0.2190;7.1549;
-150.3000;0.2198;7.1549;
-150.0000;0.2198;7.1549;
-149.7000;0.2182;7.1526;
-149.4000;0.2173;7.1573;
-149.1000;0.2198;7.1667;
-148.8000;0.2287;7.2022;
-148.5000;0.2182;7.1786;
-148.2000;0.2182;7.1738;
-147.9000;0.2198;7.1762;
-147.6000;0.2173;7.1691;
-147.3000;0.2182;7.1715;
-147.0000;0.2190;7.1738;
-146.7000;0.2190;7.1762;
-146.4000;0.2190;7.1738;
-146.1000;0.2165;7.1644;
-145.8000;0.2198;7.1691;
-145.5000;0.2198;7.1691;
-145.2000;0.2239;7.1786;
-144.9000;0.2190;7.1691;
-144.6000;0.2165;7.1715;
-144.3000;0.2190;7.1786;
-144.0000;0.2214;7.1833;
-143.7000;0.2190;7.1691;
-143.4000;0.2190;7.1667;
-143.1000;0.2182;7.1620;
-142.8000;0.2149;7.1620;
-142.5000;0.2157;7.1738;
-142.2000;0.2222;7.1786;
-141.9000;0.2198;7.1738;
-141.6000;0.2198;7.1762;
-141.3000;0.2198;7.1762;
-141.0000;0.2157;7.1762;
-140.7000;0.2247;7.1951;
-140.4000;0.2182;7.1786;
-140.1000;0.2190;7.1786;
-139.8000;0.2173;7.1715;
-139.5000;0.2165;7.1738;
-139.2000;0.2198;7.1691;
-138.9000;0.2214;7.1786;
-138.6000;0.2214;7.1833;
-138.3000;0.2173;7.1738;
-138.0000;0.2190;7.1738;
-137.7000;0.2190;7.1691;
-137.4000;0.2173;7.1596;
-137.1000;0.2198;7.1573;
-136.8000;0.2165;7.1478;
-136.5000;0.2173;7.1549;
-136.2000;0.2157;7.1573;
-135.9000;0.2190;7.1596;
-135.6000;0.2320;7.1927;
-135.3000;0.2206;7.1596;
-135.0000;0.2206;7.1526;
-134.7000;0.2173;7.1313;
-134.4000;0.2279;7.1526;
-134.1000;0.2239;7.1455;
-133.8000;0.2206;7.1407;
-133.5000;0.2214;7.1407;
-133.2000;0.2133;7.1313;
-132.9000;0.2230;7.1478;
-132.6000;0.2198;7.1455;
-132.3000;0.2182;7.1455;
-132.0000;0.2190;7.1478;
-131.7000;0.2190;7.1573;
-131.4000;0.2190;7.1573;
-131.1000;0.2206;7.1573;
-130.8000;0.2141;7.1526;
-130.5000;0.2206;7.1738;
-130.2000;0.2190;7.1667;
-129.9000;0.2198;7.1620;
-129.6000;0.2182;7.1549;
-129.3000;0.2263;7.1833;
-129.0000;0.2206;7.1620;
-128.7000;0.2198;7.1573;
-128.4000;0.2076;7.1289;
-128.1000;0.2173;7.1526;
-127.8000;0.2165;7.1596;
-127.5000;0.2182;7.1596;
-127.2000;0.2165;7.1596;
-126.9000;0.2173;7.1620;
-126.6000;0.2173;7.1620;
-126.3000;0.2190;7.1620;
-126.0000;0.2165;7.1644;
-125.7000;0.2165;7.1644;
-125.4000;0.2173;7.1715;
-125.1000;0.2198;7.1667;
-124.8000;0.2190;7.1667;
-124.5000;0.2182;7.1502;
-124.2000;0.2182;7.1502;
-123.9000;0.2182;7.1573;
-123.6000;0.2190;7.1620;
-123.3000;0.2198;7.1549;
-123.0000;0.2173;7.1478;
-122.7000;0.2239;7.1667;
-122.4000;0.2190;7.1573;
-122.1000;0.2230;7.1691;
-121.8000;0.2190;7.1644;
-121.5000;0.2173;7.1620;
-121.2000;0.2173;7.1667;
-120.9000;0.2198;7.1762;
-120.6000;0.2190;7.1762;
-120.3000;0.2173;7.1809;
-120.0000;0.2198;7.1691;
-119.7000;0.2182;7.1620;
-119.4000;0.2190;7.1667;
-119.1000;0.2108;7.1360;
-118.8000;0.2182;7.1549;
-118.5000;0.2198;7.1620;
-118.2000;0.2263;7.1738;
-117.9000;0.2173;7.1596;
-117.6000;0.2165;7.1549;
-117.3000;0.2190;7.1502;
-117.0000;0.2165;7.1360;
-116.7000;0.2149;7.1289;
-116.4000;0.2206;7.1360;
-116.1000;0.2157;7.1218;
-115.8000;0.2108;7.1147;
-115.5000;0.2165;7.1289;
-115.2000;0.2173;7.1360;
-114.9000;0.2182;7.1526;
-114.6000;0.2173;7.1526;
-114.3000;0.2190;7.1526;
-114.0000;0.2198;7.1620;
-113.7000;0.2173;7.1620;
-113.4000;0.2141;7.1431;
-113.1000;0.2198;7.1596;
-112.8000;0.2230;7.1644;
-112.5000;0.2133;7.1360;
-112.2000;0.2182;7.1455;
-111.9000;0.2165;7.1384;
-111.6000;0.2182;7.1360;
-111.3000;0.2157;7.1384;
-111.0000;0.2157;7.1407;
-110.7000;0.2198;7.1478;
-110.4000;0.2214;7.1478;
-110.1000;0.2165;7.1407;
-109.8000;0.2182;7.1360;
-109.5000;0.2190;7.1407;
-109.2000;0.2190;7.1431;
-108.9000;0.2206;7.1526;
-108.6000;0.2190;7.1478;
-108.3000;0.2206;7.1502;
-108.0000;0.2133;7.1384;
-107.7000;0.2190;7.1478;
-107.4000;0.2271;7.1738;
-107.1000;0.2198;7.1549;
-106.8000;0.2182;7.1502;
-106.5000;0.2173;7.1455;
-106.2000;0.2190;7.1502;
-105.9000;0.2173;7.1549;
-105.6000;0.2190;7.1596;
-105.3000;0.2190;7.1620;
-105.0000;0.2190;7.1549;
-104.7000;0.2092;7.1360;
-104.4000;0.2295;7.1880;
-104.1000;0.2182;7.1573;
-103.8000;0.2182;7.1596;
-103.5000;0.2173;7.1526;
-103.2000;0.2198;7.1620;
-102.9000;0.2190;7.1549;
-102.6000;0.2198;7.1455;
-102.3000;0.2173;7.1526;
-102.0000;0.2182;7.1455;
-101.7000;0.2198;7.1478;
-101.4000;0.2173;7.1478;
-101.1000;0.2173;7.1455;
-100.8000;0.2198;7.1526;
-100.5000;0.2198;7.1502;
-100.2000;0.2182;7.1455;
-99.9000;0.2198;7.1502;
-99.6000;0.2182;7.1502;
-99.3000;0.2173;7.1526;
-99.0000;0.2182;7.1526;
-98.7000;0.2173;7.1573;
-98.4000;0.2190;7.1526;
-98.1000;0.2279;7.1856;
-97.8000;0.2173;7.1526;
-97.5000;0.2182;7.1455;
-97.2000;0.2198;7.1455;
-96.9000;0.2190;7.1455;
-96.6000;0.2214;7.1384;
-96.3000;0.2198;7.1407;
-96.0000;0.2182;7.1502;
-95.7000;0.2198;7.1502;
-95.4000;0.2190;7.1573;
-95.1000;0.2190;7.1596;
-94.8000;0.2190;7.1644;
-94.5000;0.2198;7.1596;
-94.2000;0.2182;7.1502;
-93.9000;0.2173;7.1431;
-93.6000;0.2190;7.1502;
-93.3000;0.2173;7.1478;
-93.0000;0.2149;7.1455;
-92.7000;0.2165;7.1431;
-92.4000;0.2198;7.1502;
-92.1000;0.2190;7.1573;
-91.8000;0.2190;7.1691;
-91.5000;0.2230;7.1786;
-91.2000;0.2190;7.1715;
-90.9000;0.2190;7.1738;
-90.6000;0.2198;7.1786;
-90.3000;0.2198;7.1786;
-90.0000;0.2125;7.1620;
-89.7000;0.2190;7.1715;
-89.4000;0.2287;7.1856;
-89.1000;0.2222;7.1691;
-88.8000;0.2116;7.1431;
-88.5000;0.2182;7.1715;
-88.2000;0.2198;7.1715;
-87.9000;0.2141;7.1526;
-87.6000;0.2190;7.1596;
-87.3000;0.2182;7.1620;
-87.0000;0.2173;7.1667;
-86.7000;0.2190;7.1715;
-86.4000;0.2182;7.1809;
-86.1000;0.2182;7.1809;
-85.8000;0.2206;7.1833;
-85.5000;0.2173;7.1786;
-85.2000;0.2190;7.1880;
-84.9000;0.2182;7.1833;
-84.6000;0.2190;7.1880;
-84.3000;0.2190;7.1880;
-84.0000;0.2182;7.1856;
-83.7000;0.2279;7.2211;
-83.4000;0.2173;7.1927;
-83.1000;0.2182;7.2022;
-82.8000;0.2173;7.1975;
-82.5000;0.2157;7.1809;
-82.2000;0.2157;7.1809;
-81.9000;0.2198;7.1880;
-81.6000;0.2157;7.1786;
-81.3000;0.2133;7.1786;
-81.0000;0.2173;7.1927;
-80.7000;0.2287;7.2211;
-80.4000;0.2190;7.1927;
-80.1000;0.2182;7.1904;
-79.8000;0.2141;7.1904;
-79.5000;0.2173;7.2022;
-79.2000;0.2182;7.1951;
-78.9000;0.2198;7.1951;
-78.6000;0.2190;7.1880;
-78.3000;0.2182;7.1880;
-78.0000;0.2198;7.1998;
-77.7000;0.2214;7.2116;
-77.4000;0.2173;7.2093;
-77.1000;0.2206;7.2116;
-76.8000;0.2214;7.2187;
-76.5000;0.2133;7.1856;
-76.2000;0.2149;7.1856;
-75.9000;0.2165;7.1856;
-75.6000;0.2165;7.1833;
-75.3000;0.2190;7.1951;
-75.0000;0.2198;7.1927;
-74.7000;0.2173;7.1904;
-74.4000;0.2206;7.1951;
-74.1000;0.2157;7.1856;
-73.8000;0.2271;7.2022;
-73.5000;0.2198;7.1833;
-73.2000;0.2182;7.1856;
-72.9000;0.2165;7.1856;
-72.6000;0.2198;7.1856;
-72.3000;0.2173;7.1786;
-72.0000;0.2141;7.1762;
-71.7000;0.2182;7.1833;
-71.4000;0.2173;7.1856;
-71.1000;0.2165;7.1809;
-70.8000;0.2190;7.1762;
-70.5000;0.2149;7.1691;
-70.2000;0.2182;7.1809;
-69.9000;0.2173;7.1738;
-69.6000;0.2157;7.1786;
-69.3000;0.2190;7.1809;
-69.0000;0.2173;7.1927;
-68.7000;0.2182;7.2022;
-68.4000;0.2190;7.1975;
-68.1000;0.2173;7.1927;
-67.8000;0.2198;7.1927;
-67.5000;0.2239;7.1998;
-67.2000;0.2165;7.1856;
-66.9000;0.2149;7.1809;
-66.6000;0.2206;7.1998;
-66.3000;0.2173;7.1904;
-66.0000;0.2230;7.1975;
-65.7000;0.2182;7.1833;
-65.4000;0.2165;7.1786;
-65.1000;0.2198;7.1856;
-64.8000;0.2198;7.1833;
-64.5000;0.2198;7.1833;
-64.2000;0.2190;7.1904;
-63.9000;0.2165;7.1809;
-63.6000;0.2182;7.1904;
-63.3000;0.2157;7.1833;
-63.0000;0.2182;7.1856;
-62.7000;0.2173;7.1738;
-62.4000;0.2141;7.1644;
-62.1000;0.2149;7.1667;
-61.8000;0.2182;7.1691;
-61.5000;0.2190;7.1738;
-61.2000;0.2190;7.1786;
-60.9000;0.2239;7.1904;
-60.6000;0.2182;7.1809;
-60.3000;0.2165;7.1738;
-60.0000;0.2198;7.1762;
-59.7000;0.2214;7.1833;
-59.4000;0.2157;7.1856;
-59.1000;0.2190;7.1951;
-58.8000;0.2182;7.1856;
-58.5000;0.2157;7.1667;
-58.2000;0.2173;7.1644;
-57.9000;0.2214;7.1762;
-57.6000;0.2157;7.1715;
-57.3000;0.2190;7.1762;
-57.0000;0.2182;7.1762;
-56.7000;0.2173;7.1833;
-56.4000;0.2165;7.1809;
-56.1000;0.2157;7.1667;
-55.8000;0.2173;7.1691;
-55.5000;0.2165;7.1667;
-55.2000;0.2182;7.1715;
-54.9000;0.2198;7.1691;
-54.6000;0.2190;7.1596;
-54.3000;0.2173;7.1596;
-54.0000;0.2198;7.1667;
-53.7000;0.2190;7.1667;
-53.4000;0.2182;7.1620;
-53.1000;0.2206;7.1715;
-52.8000;0.2173;7.1549;
-52.5000;0.2239;7.1786;
-52.2000;0.2206;7.1880;
-51.9000;0.2173;7.1809;
-51.6000;0.2206;7.1856;
-51.3000;0.2190;7.1856;
-51.0000;0.2182;7.1833;
-50.7000;0.2173;7.1738;
-50.4000;0.2165;7.1715;
-50.1000;0.2182;7.1738;
-49.8000;0.2198;7.1809;
-49.5000;0.2165;7.1833;
-49.2000;0.2141;7.1786;
-48.9000;0.2198;7.1856;
-48.6000;0.2182;7.1715;
-48.3000;0.2165;7.1549;
-48.0000;0.2182;7.1596;
-47.7000;0.2149;7.1620;
-47.4000;0.2149;7.1667;
-47.1000;0.2173;7.1786;
-46.8000;0.2165;7.1786;
-46.5000;0.2165;7.1856;
-46.2000;0.2173;7.1975;
-45.9000;0.2198;7.2022;
-45.6000;0.2141;7.1927;
-45.3000;0.2165;7.2022;
-45.0000;0.2182;7.1951;
-44.7000;0.2222;7.1951;
-44.4000;0.2190;7.1880;
-44.1000;0.2182;7.1927;
-43.8000;0.2206;7.1975;
-43.5000;0.2198;7.1951;
-43.2000;0.2190;7.1833;
-42.9000;0.2173;7.1880;
-42.6000;0.2157;7.1833;
-42.3000;0.2230;7.1927;
-42.0000;0.2157;7.1738;
-41.7000;0.2190;7.1809;
-41.4000;0.2214;7.1927;
-41.1000;0.2206;7.1809;
-40.8000;0.2190;7.1786;
-40.5000;0.2222;7.1762;
-40.2000;0.2214;7.1786;
-39.9000;0.2190;7.1738;
-39.6000;0.2190;7.1715;
-39.3000;0.2198;7.1762;
-39.0000;0.2182;7.1833;
-38.7000;0.2182;7.1833;
-38.4000;0.2214;7.1856;
-38.1000;0.2182;7.1809;
-37.8000;0.2182;7.1809;
-37.5000;0.2214;7.1856;
-37.2000;0.2214;7.1833;
-36.9000;0.2173;7.1856;
-36.6000;0.2198;7.1951;
-36.3000;0.2214;7.2046;
-36.0000;0.2263;7.2140;
-35.7000;0.2190;7.2069;
-35.4000;0.2190;7.2093;
-35.1000;0.2182;7.2069;
-34.8000;0.2165;7.2069;
-34.5000;0.2198;7.2116;
-34.2000;0.2190;7.2093;
-33.9000;0.2165;7.2069;
-33.6000;0.2206;7.2140;
-33.3000;0.2190;7.2069;
-33.0000;0.2206;7.2140;
-32.7000;0.2206;7.2093;
-32.4000;0.2198;7.2046;
-32.1000;0.2198;7.2022;
-31.8000;0.2198;7.2046;
-31.5000;0.2198;7.1975;
-31.2000;0.2190;7.1975;
-30.9000;0.2198;7.2046;
-30.6000;0.2182;7.1998;
-30.3000;0.2173;7.1904;
-30.0000;0.2165;7.1880;
-29.7000;0.2214;7.1951;
-29.4000;0.2198;7.1927;
-29.1000;0.2165;7.1786;
-28.8000;0.2190;7.1762;
-28.5000;0.2149;7.1620;
-28.2000;0.2206;7.1644;
-27.9000;0.2182;7.1644;
-27.6000;0.2173;7.1738;
-27.3000;0.2190;7.1880;
-27.0000;0.2190;7.1856;
-26.7000;0.2173;7.1762;
-26.4000;0.2157;7.1691;
-26.1000;0.2206;7.1715;
-25.8000;0.2157;7.1502;
-25.5000;0.2263;7.1738;
-25.2000;0.2206;7.1573;
-24.9000;0.2173;7.1549;
-24.6000;0.2198;7.1644;
-24.3000;0.2190;7.1715;
-24.0000;0.2190;7.1738;
-23.7000;0.2198;7.1786;
-23.4000;0.2198;7.1856;
-23.1000;0.2190;7.1762;
-22.8000;0.2182;7.1762;
-22.5000;0.2182;7.1762;
-22.2000;0.2173;7.1738;
-21.9000;0.2173;7.1715;
-21.6000;0.2100;7.1478;
-21.3000;0.2173;7.1691;
-21.0000;0.2206;7.1786;
-20.7000;0.2206;7.1762;
-20.4000;0.2190;7.1833;
-20.1000;0.2190;7.1904;
-19.8000;0.2173;7.1833;
-19.5000;0.2239;7.1927;
-19.2000;0.2214;7.1786;
-18.9000;0.2271;7.1951;
-18.6000;0.2165;7.1596;
-18.3000;0.2173;7.1596;
-18.0000;0.2165;7.1573;
-17.7000;0.2165;7.1644;
-17.4000;0.2173;7.1691;
-17.1000;0.2182;7.1715;
-16.8000;0.2165;7.1715;
-16.5000;0.2190;7.1738;
-16.2000;0.2165;7.1691;
-15.9000;0.2190;7.1715;
-15.6000;0.2157;7.1667;
-15.3000;0.2182;7.1691;
-15.0000;0.2182;7.1691;
-14.7000;0.2182;7.1715;
-14.4000;0.2165;7.1762;
-14.1000;0.2198;7.1786;
-13.8000;0.2198;7.1738;
-13.5000;0.2206;7.1738;
-13.2000;0.2190;7.1691;
-12.9000;0.2198;7.1691;
-12.6000;0.2182;7.1691;
-12.3000;0.2222;7.1856;
-12.0000;0.2190;7.1904;
-11.7000;0.2190;7.1975;
-11.4000;0.2230;7.2140;
-11.1000;0.2182;7.1951;
-10.8000;0.2182;7.1904;
-10.5000;0.2173;7.1904;
-10.2000;0.2190;7.1927;
-9.9000;0.2173;7.1833;
-9.6000;0.2182;7.1786;
-9.3000;0.2190;7.1809;
-9.0000;0.2198;7.1762;
-8.7000;0.2149;7.1667;
-8.4000;0.2182;7.1691;
-8.1000;0.2190;7.1715;
-7.8000;0.2182;7.1667;
-7.5000;0.2182;7.1738;
-7.2000;0.2173;7.1715;
-6.9000;0.2173;7.1715;
-6.6000;0.2206;7.1880;
-6.3000;0.2173;7.1880;
-6.0000;0.2182;7.1809;
-5.7000;0.2190;7.1715;
-5.4000;0.2198;7.1833;
-5.1000;0.2182;7.1786;
-4.8000;0.2173;7.1833;
-4.5000;0.2198;7.1856;
-4.2000;0.2173;7.1786;
-3.9000;0.2165;7.1880;
-3.6000;0.2190;7.1951;
-3.3000;0.2173;7.1880;
-3.0000;0.2173;7.1904;
-2.7000;0.2165;7.1880;
-2.4000;0.2190;7.1975;
-2.1000;0.2173;7.1904;
-1.8000;0.2230;7.2116;
-1.5000;0.2206;7.1998;
-1.2000;0.2173;7.1856;
-0.9000;0.2182;7.1904;
-0.6000;0.2182;7.1904;
-0.3000;0.2149;7.1833;
0.0000;0.2149;7.1833;
0.3000;0.2230;7.1596;
0.6000;0.2336;7.1715;
0.9000;0.2466;7.1975;
1.2000;0.2564;7.2211;
1.5000;0.2621;7.2424;
1.8000;0.2670;7.2589;
2.1000;0.2702;7.2613;
2.4000;0.2743;7.2707;
2.7000;0.2784;7.2826;
3.0000;0.2776;7.2920;
3.3000;0.2808;7.2991;
3.6000;0.2833;7.3133;
3.9000;0.2841;7.3298;
4.2000;0.2857;7.3393;
4.5000;0.2939;7.3582;
4.8000;0.2873;7.3393;
5.1000;0.2882;7.3346;
5.4000;0.2890;7.3393;
5.7000;0.2898;7.3440;
6.0000;0.2906;7.3487;
6.3000;0.2922;7.3606;
6.6000;0.2922;7.3653;
6.9000;0.2914;7.3558;
7.2000;0.2939;7.3511;
7.5000;0.2939;7.3535;
7.8000;0.2947;7.3487;
8.1000;0.2882;7.3487;
8.4000;0.2914;7.3606;
8.7000;0.2930;7.3606;
9.0000;0.2922;7.3511;
9.3000;0.2939;7.3558;
9.6000;0.2947;7.3511;
9.9000;0.2947;7.3511;
10.2000;0.2947;7.3535;
10.5000;0.2898;7.3440;
10.8000;0.2939;7.3606;
11.1000;0.2939;7.3606;
11.4000;0.2947;7.3606;
11.7000;0.2947;7.3535;
12.0000;0.2963;7.3582;
12.3000;0.2979;7.3606;
12.6000;0.2963;7.3535;
12.9000;0.2979;7.3511;
13.2000;0.2971;7.3487;
13.5000;0.2979;7.3440;
13.8000;0.2987;7.3440;
14.1000;0.2971;7.3440;
14.4000;0.2979;7.3487;
14.7000;0.2971;7.3487;
15.0000;0.2955;7.3440;
15.3000;0.2947;7.3393;
15.6000;0.3004;7.3535;
15.9000;0.2996;7.3511;
16.2000;0.3020;7.3535;
16.5000;0.2996;7.3440;
16.8000;0.3012;7.3487;
17.1000;0.3028;7.3511;
17.4000;0.2996;7.3464;
17.7000;0.3028;7.3558;
18.0000;0.3004;7.3464;
18.3000;0.3012;7.3322;
18.6000;0.2996;7.3204;
18.9000;0.3012;7.3322;
19.2000;0.3012;7.3275;
19.5000;0.2996;7.3227;
19.8000;0.3020;7.3417;
20.1000;0.3036;7.3417;
20.4000;0.3036;7.3417;
20.7000;0.3053;7.3558;
21.0000;0.3012;7.3393;
21.3000;0.3044;7.3487;
21.6000;0.3053;7.3535;
21.9000;0.3044;7.3511;
22.2000;0.3069;7.3558;
22.5000;0.3053;7.3511;
22.8000;0.3069;7.3535;
23.1000;0.3061;7.3606;
23.4000;0.3109;7.3582;
23.7000;0.3053;7.3558;
24.0000;0.3069;7.3677;
24.3000;0.3053;7.3606;
24.6000;0.3061;7.3606;
24.9000;0.3077;7.3653;
25.2000;0.3109;7.3677;
25.5000;0.3085;7.3653;
25.8000;0.3085;7.3653;
26.1000;0.3085;7.3511;
26.4000;0.3109;7.3629;
26.7000;0.3069;7.3535;
27.0000;0.3093;7.3582;
27.3000;0.3077;7.3582;
27.6000;0.3093;7.3558;
27.9000;0.3085;7.3511;
28.2000;0.3101;7.3606;
28.5000;0.3101;7.3606;
28.8000;0.3101;7.3558;
29.1000;0.3118;7.3511;
29.4000;0.3101;7.3440;
29.7000;0.3061;7.3464;
30.0000;0.3166;7.3677;
30.3000;0.3126;7.3629;
30.6000;0.3061;7.3464;
30.9000;0.3101;7.3535;
31.2000;0.3126;7.3606;
31.5000;0.3093;7.3582;
31.8000;0.3085;7.3606;
32.1000;0.3126;7.3606;
32.4000;0.3150;7.3582;
32.7000;0.3126;7.3535;
33.0000;0.3126;7.3511;
33.3000;0.3126;7.3464;
33.6000;0.3134;7.3440;
33.9000;0.3134;7.3322;
34.2000;0.3183;7.3417;
34.5000;0.3126;7.3180;
34.8000;0.3150;7.3346;
35.1000;0.3183;7.3629;
35.4000;0.3166;7.3558;
35.7000;0.3150;7.3511;
36.0000;0.3142;7.3582;
36.3000;0.3126;7.3606;
36.6000;0.3166;7.3653;
36.9000;0.3158;7.3558;
37.2000;0.3158;7.3558;
37.5000;0.3158;7.3606;
37.8000;0.3142;7.3535;
38.1000;0.3207;7.3747;
38.4000;0.3142;7.3558;
38.7000;0.3158;7.3535;
39.0000;0.3183;7.3511;
39.3000;0.3175;7.3558;
39.6000;0.3183;7.3558;
39.9000;0.3158;7.3487;
40.2000;0.3207;7.3582;
40.5000;0.3142;7.3369;
40.8000;0.3175;7.3487;
41.1000;0.3199;7.3511;
41.4000;0.3158;7.3417;
41.7000;0.3191;7.3487;
42.0000;0.3150;7.3346;
42.3000;0.3207;7.3464;
42.6000;0.3166;7.3393;
42.9000;0.3118;7.3251;
43.2000;0.3232;7.3511;
43.5000;0.3191;7.3417;
43.8000;0.3280;7.3558;
44.1000;0.3207;7.3322;
44.4000;0.3207;7.3298;
44.7000;0.3199;7.3204;
45.0000;0.3215;7.3298;
45.3000;0.3085;7.3086;
45.6000;0.3215;7.3346;
45.9000;0.3223;7.3298;
46.2000;0.3166;7.3227;
46.5000;0.3215;7.3369;
46.8000;0.3240;7.3558;
47.1000;0.3215;7.3558;
47.4000;0.3215;7.3629;
47.7000;0.3191;7.3582;
48.0000;0.3191;7.3653;
48.3000;0.3215;7.3677;
48.6000;0.3207;7.3724;
48.9000;0.3175;7.3677;
49.2000;0.3289;7.3818;
49.5000;0.3248;7.3771;
49.8000;0.3183;7.3700;
50.1000;0.3223;7.3700;
50.4000;0.3223;7.3606;
50.7000;0.3191;7.3535;
51.0000;0.3248;7.3606;
51.3000;0.3223;7.3511;
51.6000;0.3215;7.3606;
51.9000;0.3248;7.3677;
52.2000;0.3240;7.3582;
52.5000;0.3264;7.3677;
52.8000;0.3240;7.3606;
53.1000;0.3280;7.3629;
53.4000;0.3256;7.3511;
53.7000;0.3232;7.3464;
54.0000;0.3248;7.3393;
54.3000;0.3256;7.3393;
54.6000;0.3207;7.3322;
54.9000;0.3232;7.3417;
55.2000;0.3223;7.3487;
55.5000;0.3248;7.3582;
55.8000;0.3248;7.3606;
56.1000;0.3289;7.3700;
56.4000;0.3248;7.3535;
56.7000;0.3256;7.3629;
57.0000;0.3256;7.3700;
57.3000;0.3256;7.3653;
57.6000;0.3215;7.3535;
57.9000;0.3248;7.3606;
58.2000;0.3280;7.3700;
58.5000;0.3215;7.3582;
58.8000;0.3256;7.3700;
59.1000;0.3264;7.3724;
59.4000;0.3256;7.3653;
59.7000;0.3248;7.3606;
60.0000;0.3248;7.3582;
60.3000;0.3248;7.3582;
60.6000;0.3280;7.3677;
60.9000;0.3264;7.3629;
61.2000;0.3289;7.3629;
61.5000;0.3272;7.3582;
61.8000;0.3264;7.3558;
62.1000;0.3297;7.3677;
62.4000;0.3289;7.3677;
62.7000;0.3280;7.3677;
63.0000;0.3289;7.3677;
63.3000;0.3289;7.3700;
63.6000;0.3280;7.3653;
63.9000;0.3272;7.3606;
64.2000;0.3272;7.3653;
64.5000;0.3280;7.3629;
64.8000;0.3329;7.3795;
65.1000;0.3272;7.3700;
65.4000;0.3313;7.3771;
65.7000;0.3272;7.3629;
66.0000;0.3280;7.3629;
66.3000;0.3297;7.3653;
66.6000;0.3289;7.3747;
66.9000;0.3289;7.3700;
67.2000;0.3289;7.3653;
67.5000;0.3297;7.3606;
67.8000;0.3289;7.3558;
68.1000;0.3264;7.3487;
68.4000;0.3362;7.3747;
68.7000;0.3272;7.3558;
69.0000;0.3321;7.3629;
69.3000;0.3280;7.3582;
69.6000;0.3280;7.3677;
69.9000;0.3313;7.3653;
70.2000;0.3289;7.3511;
70.5000;0.3289;7.3535;
70.8000;0.3280;7.3511;
71.1000;0.3305;7.3582;
71.4000;0.3256;7.3464;
71.7000;0.3297;7.3582;
72.0000;0.3313;7.3653;
72.3000;0.3313;7.3724;
72.6000;0.3305;7.3653;
72.9000;0.3289;7.3558;
73.2000;0.3305;7.3606;
73.5000;0.3248;7.3417;
73.8000;0.3297;7.3487;
74.1000;0.3297;7.3487;
74.4000;0.3313;7.3558;
74.7000;0.3305;7.3511;
75.0000;0.3305;7.3511;
75.3000;0.3313;7.3582;
75.6000;0.3215;7.3369;
75.9000;0.3313;7.3558;
76.2000;0.3305;7.3487;
76.5000;0.3313;7.3440;
76.8000;0.3305;7.3322;
77.1000;0.3297;7.3417;
77.4000;0.3329;7.3511;
77.7000;0.3313;7.3393;
78.0000;0.3289;7.3417;
78.3000;0.3297;7.3440;
78.6000;0.3297;7.3440;
78.9000;0.3305;7.3369;
79.2000;0.3289;7.3369;
79.5000;0.3362;7.3606;
79.8000;0.3329;7.3606;
80.1000;0.3354;7.3677;
80.4000;0.3305;7.3677;
80.7000;0.3354;7.3724;
81.0000;0.3313;7.3558;
81.3000;0.3329;7.3606;
81.6000;0.3362;7.3724;
81.9000;0.3313;7.3606;
82.2000;0.3346;7.3558;
82.5000;0.3321;7.3629;
82.8000;0.3346;7.3653;
83.1000;0.3297;7.3606;
83.4000;0.3321;7.3535;
83.7000;0.3321;7.3558;
84.0000;0.3305;7.3440;
84.3000;0.3329;7.3558;
84.6000;0.3313;7.3582;
84.9000;0.3329;7.3558;
85.2000;0.3297;7.3417;
85.5000;0.3305;7.3393;
85.8000;0.3321;7.3346;
86.1000;0.3329;7.3440;
86.4000;0.3305;7.3417;
86.7000;0.3313;7.3440;
87.0000;0.3264;7.3298;
87.3000;0.3378;7.3511;
87.6000;0.3329;7.3393;
87.9000;0.3313;7.3369;
88.2000;0.3313;7.3440;
88.5000;0.3313;7.3393;
88.8000;0.3362;7.3417;
89.1000;0.3329;7.3322;
89.4000;0.3337;7.3393;
89.7000;0.3313;7.3393;
90.0000;0.3329;7.3393;
90.3000;0.3248;7.3180;
90.6000;0.3329;7.3346;
90.9000;0.3337;7.3322;
91.2000;0.3329;7.3369;
91.5000;0.3329;7.3511;
91.8000;0.3329;7.3487;
92.1000;0.3305;7.3487;
92.4000;0.3289;7.3511;
92.7000;0.3329;7.3582;
93.0000;0.3313;7.3511;
93.3000;0.3313;7.3558;
93.6000;0.3337;7.3724;
93.9000;0.3305;7.3629;
94.2000;0.3313;7.3677;
94.5000;0.3305;7.3629;
94.8000;0.3313;7.3747;
95.1000;0.3329;7.3747;
95.4000;0.3321;7.3795;
95.7000;0.3321;7.3606;
96.0000;0.3297;7.3511;
96.3000;0.3329;7.3629;
96.6000;0.3321;7.3653;
96.9000;0.3321;7.3700;
97.2000;0.3337;7.3795;
97.5000;0.3329;7.3818;
97.8000;0.3321;7.3818;
98.1000;0.3313;7.3866;
98.4000;0.3256;7.3700;
98.7000;0.3313;7.3818;
99.0000;0.3337;7.3724;
99.3000;0.3321;7.3629;
99.6000;0.3403;7.3889;
99.9000;0.3321;7.3582;
100.2000;0.3354;7.3629;
100.5000;0.3337;7.3535;
100.8000;0.3321;7.3464;
101.1000;0.3337;7.3535;
101.4000;0.3337;7.3606;
101.7000;0.3346;7.3558;
102.0000;0.3386;7.3629;
102.3000;0.3329;7.3487;
102.6000;0.3297;7.3487;
102.9000;0.3272;7.3511;
103.2000;0.3329;7.3771;
103.5000;0.3321;7.3747;
103.8000;0.3329;7.3700;
104.1000;0.3297;7.3535;
104.4000;0.3313;7.3487;
104.7000;0.3321;7.3440;
105.0000;0.3329;7.3393;
105.3000;0.3346;7.3369;
105.6000;0.3305;7.3393;
105.9000;0.3329;7.3369;
106.2000;0.3329;7.3393;
106.5000;0.3313;7.3393;
106.8000;0.3346;7.3322;
107.1000;0.3337;7.3227;
107.4000;0.3337;7.3275;
107.7000;0.3337;7.3322;
108.0000;0.3337;7.3393;
108.3000;0.3321;7.3298;
108.6000;0.3337;7.3346;
108.9000;0.3337;7.3275;
109.2000;0.3354;7.3346;
109.5000;0.3362;7.3464;
109.8000;0.3346;7.3393;
110.1000;0.3321;7.3275;
110.4000;0.3403;7.3417;
110.7000;0.3346;7.3275;
111.0000;0.3321;7.3251;
111.3000;0.3370;7.3275;
111.6000;0.3329;7.3298;
111.9000;0.3346;7.3322;
112.2000;0.3329;7.3346;
112.5000;0.3321;7.3369;
112.8000;0.3329;7.3417;
113.1000;0.3346;7.3440;
113.4000;0.3321;7.3393;
113.7000;0.3321;7.3417;
114.0000;0.3346;7.3487;
114.3000;0.3264;7.3251;
114.6000;0.3337;7.3535;
114.9000;0.3337;7.3487;
115.2000;0.3354;7.3629;
115.5000;0.3337;7.3629;
115.8000;0.3337;7.3535;
116.1000;0.3321;7.3511;
116.4000;0.3370;7.3582;
116.7000;0.3354;7.3606;
117.0000;0.3337;7.3582;
117.3000;0.3403;7.3724;
117.6000;0.3346;7.3653;
117.9000;0.3337;7.3700;
118.2000;0.3394;7.3771;
118.5000;0.3289;7.3558;
118.8000;0.3321;7.3606;
119.1000;0.3346;7.3606;
119.4000;0.3264;7.3417;
119.7000;0.3329;7.3606;
120.0000;0.3240;7.3393;
120.3000;0.3305;7.3558;
120.6000;0.3354;7.3606;
120.9000;0.3346;7.3464;
121.2000;0.3346;7.3417;
121.5000;0.3346;7.3440;
121.8000;0.3346;7.3464;
122.1000;0.3337;7.3440;
122.4000;0.3370;7.3440;
122.7000;0.3354;7.3393;
123.0000;0.3370;7.3464;
123.3000;0.3337;7.3393;
123.6000;0.3362;7.3487;
123.9000;0.3329;7.3417;
124.2000;0.3394;7.3558;
124.5000;0.3337;7.3346;
124.8000;0.3346;7.3322;
125.1000;0.3329;7.3204;
125.4000;0.3337;7.3180;
125.7000;0.3329;7.3251;
126.0000;0.3329;7.3180;
126.3000;0.3337;7.3346;
126.6000;0.3394;7.3558;
126.9000;0.3321;7.3440;
127.2000;0.3337;7.3558;
127.5000;0.3337;7.3582;
127.8000;0.3321;7.3487;
128.1000;0.3394;7.3677;
128.4000;0.3346;7.3511;
128.7000;0.3329;7.3535;
129.0000;0.3337;7.3653;
129.3000;0.3354;7.3606;
129.6000;0.3346;7.3558;
129.9000;0.3337;7.3464;
130.2000;0.3313;7.3322;
130.5000;0.3346;7.3369;
130.8000;0.3346;7.3417;
131.1000;0.3329;7.3417;
131.4000;0.3337;7.3487;
131.7000;0.3337;7.3487;
132.0000;0.3354;7.3511;
132.3000;0.3321;7.3464;
132.6000;0.3337;7.3558;
132.9000;0.3346;7.3464;
133.2000;0.3354;7.3487;
133.5000;0.3297;7.3417;
133.8000;0.3313;7.3440;
134.1000;0.3354;7.3535;
134.4000;0.3329;7.3464;
134.7000;0.3354;7.3535;
135.0000;0.3337;7.3558;
135.3000;0.3313;7.3487;
135.6000;0.3370;7.3558;
135.9000;0.3354;7.3606;
136.2000;0.3346;7.3582;
136.5000;0.3248;7.3393;
136.8000;0.3346;7.3558;
137.1000;0.3337;7.3558;
137.4000;0.3321;7.3606;
137.7000;0.3337;7.3606;
138.0000;0.3354;7.3582;
138.3000;0.3362;7.3558;
138.6000;0.3354;7.3535;
138.9000;0.3297;7.3369;
139.2000;0.3354;7.3535;
139.5000;0.3346;7.3511;
139.8000;0.3329;7.3417;
140.1000;0.3297;7.3322;
140.4000;0.3329;7.3417;
140.7000;0.3329;7.3487;
141.0000;0.3321;7.3417;
141.3000;0.3378;7.3606;
141.6000;0.3337;7.3511;
141.9000;0.3346;7.3582;
142.2000;0.3354;7.3558;
142.5000;0.3337;7.3606;
142.8000;0.3346;7.3629;
143.1000;0.3329;7.3535;
143.4000;0.3313;7.3535;
143.7000;0.3256;7.3346;
144.0000;0.3362;7.3511;
144.3000;0.3435;7.3677;
144.6000;0.3329;7.3511;
144.9000;0.3346;7.3558;
145.2000;0.3411;7.3677;
145.5000;0.3346;7.3535;
145.8000;0.3337;7.3369;
146.1000;0.3337;7.3346;
146.4000;0.3321;7.3298;
146.7000;0.3346;7.3322;
147.0000;0.3321;7.3227;
147.3000;0.3354;7.3393;
147.6000;0.3346;7.3346;
147.9000;0.3346;7.3417;
148.2000;0.3354;7.3393;
148.5000;0.3329;7.3440;
148.8000;0.3354;7.3535;
149.1000;0.3346;7.3464;
149.4000;0.3346;7.3511;
149.7000;0.3313;7.3393;
150.0000;0.3329;7.3487;
150.3000;0.3346;7.3558;
150.6000;0.3346;7.3606;
150.9000;0.3354;7.3700;
151.2000;0.3354;7.3606;
151.5000;0.3329;7.3511;
151.8000;0.3321;7.3464;
152.1000;0.3305;7.3464;
152.4000;0.3354;7.3511;
152.7000;0.3346;7.3511;
153.0000;0.3346;7.3535;
153.3000;0.3329;7.3606;
153.6000;0.3337;7.3653;
153.9000;0.3346;7.3606;
154.2000;0.3321;7.3487;
154.5000;0.3329;7.3393;
154.8000;0.3329;7.3393;
155.1000;0.3321;7.3298;
155.4000;0.3386;7.3511;
155.7000;0.3346;7.3417;
156.0000;0.3354;7.3417;
156.3000;0.3346;7.3464;
156.6000;0.3346;7.3511;
156.9000;0.3337;7.3393;
157.2000;0.3362;7.3417;
157.5000;0.3354;7.3487;
157.8000;0.3419;7.3677;
158.1000;0.3337;7.3440;
158.4000;0.3394;7.3606;
158.7000;0.3346;7.3440;
159.0000;0.3346;7.3417;
159.3000;0.3337;7.3369;
159.6000;0.3337;7.3369;
159.9000;0.3313;7.3369;
160.2000;0.3313;7.3346;
160.5000;0.3337;7.3322;
160.8000;0.3362;7.3440;
161.1000;0.3337;7.3417;
161.4000;0.3354;7.3417;
161.7000;0.3386;7.3369;
162.0000;0.3346;7.3393;
162.3000;0.3329;7.3346;
162.6000;0.3321;7.3440;
162.9000;0.3362;7.3558;
163.2000;0.3280;7.3393;
163.5000;0.3289;7.3417;
163.8000;0.3346;7.3440;
164.1000;0.3346;7.3393;
164.4000;0.3329;7.3511;
164.7000;0.3329;7.3558;
165.0000;0.3337;7.3582;
165.3000;0.3329;7.3558;
165.6000;0.3346;7.3535;
165.9000;0.3354;7.3558;
166.2000;0.3362;7.3535;
166.5000;0.3362;7.3582;
166.8000;0.3354;7.3487;
167.1000;0.3321;7.3322;
167.4000;0.3362;7.3417;
167.7000;0.3248;7.3156;
168.0000;0.3346;7.3369;
168.3000;0.3240;7.3109;
168.6000;0.3354;7.3417;
168.9000;0.3346;7.3369;
169.2000;0.3386;7.3511;
169.5000;0.3354;7.3393;
169.8000;0.3354;7.3487;
170.1000;0.3362;7.3464;
170.4000;0.3370;7.3535;
170.7000;0.3370;7.3677;
171.0000;0.3354;7.3677;
171.3000;0.3337;7.3629;
171.6000;0.3370;7.3653;
171.9000;0.3337;7.3582;
172.2000;0.3346;7.3535;
172.5000;0.3354;7.3582;
172.8000;0.3370;7.3582;
173.1000;0.3370;7.3606;
173.4000;0.3362;7.3606;
173.7000;0.3346;7.3582;
174.0000;0.3362;7.3653;
174.3000;0.3346;7.3558;
174.6000;0.3394;7.3606;
174.9000;0.3337;7.3535;
175.2000;0.3337;7.3464;
175.5000;0.3337;7.3393;
175.8000;0.3346;7.3417;
176.1000;0.3378;7.3487;
176.4000;0.3337;7.3487;
176.7000;0.3346;7.3417;
177.0000;0.3362;7.3464;
177.3000;0.3362;7.3440;
177.6000;0.3354;7.3346;
177.9000;0.3289;7.3180;
178.2000;0.3354;7.3369;
178.5000;0.3378;7.3393;
178.8000;0.3362;7.3346;
179.1000;0.3370;7.3417;
179.4000;0.3362;7.3346;
179.7000;0.3354;7.3298;
180.0000;0.3362;7.3346;
180.3000;0.3337;7.3417;
180.6000;0.3378;7.3558;
180.9000;0.3337;7.3582;
181.2000;0.3354;7.3606;
181.5000;0.3354;7.3629;
181.8000;0.3362;7.3582;
182.1000;0.3240;7.3251;
182.4000;0.3346;7.3440;
182.7000;0.3346;7.3464;
183.0000;0.3362;7.3535;
183.3000;0.3297;7.3464;
183.6000;0.3346;7.3511;
183.9000;0.3362;7.3417;
184.2000;0.3354;7.3417;
184.5000;0.3362;7.3464;
184.8000;0.3337;7.3440;
185.1000;0.3394;7.3677;
185.4000;0.3305;7.3511;
185.7000;0.3346;7.3535;
186.0000;0.3329;7.3535;
186.3000;0.3362;7.3558;
186.6000;0.3354;7.3487;
186.9000;0.3321;7.3369;
187.2000;0.3411;7.3629;
187.5000;0.3346;7.3393;
187.8000;0.3297;7.3180;
188.1000;0.3354;7.3251;
188.4000;0.3354;7.3275;
188.7000;0.3337;7.3369;
189.0000;0.3346;7.3417;
189.3000;0.3354;7.3487;
189.6000;0.3337;7.3487;
189.9000;0.3329;7.3511;
190.2000;0.3346;7.3535;
190.5000;0.3378;7.3511;
190.8000;0.3337;7.3487;
191.1000;0.3337;7.3558;
191.4000;0.3346;7.3511;
191.7000;0.3354;7.3582;
192.0000;0.3346;7.3535;
192.3000;0.3346;7.3535;
192.6000;0.3313;7.3369;
192.9000;0.3370;7.3487;
193.2000;0.3354;7.3440;
193.5000;0.3386;7.3535;
193.8000;0.3346;7.3464;
194.1000;0.3403;7.3582;
194.4000;0.3394;7.3487;
194.7000;0.3337;7.3346;
195.0000;0.3337;7.3393;
195.3000;0.3337;7.3417;
195.6000;0.3362;7.3511;
195.9000;0.3354;7.3511;
196.2000;0.3337;7.3511;
196.5000;0.3394;7.3582;
196.8000;0.3354;7.3393;
197.1000;0.3394;7.3535;
197.4000;0.3362;7.3535;
197.7000;0.3346;7.3535;
198.0000;0.3346;7.3606;
198.3000;0.3354;7.3629;
198.6000;0.3346;7.3606;
198.9000;0.3354;7.3558;
199.2000;0.3329;7.3558;
199.5000;0.3337;7.3535;
199.8000;0.3329;7.3464;
200.1000;0.3313;7.3464;
200.4000;0.3337;7.3464;
200.7000;0.3354;7.3511;
201.0000;0.3346;7.3487;
201.3000;0.3337;7.3464;
201.6000;0.3337;7.3487;
201.9000;0.3378;7.3487;
202.2000;0.3362;7.3393;
202.5000;0.3321;7.3322;
202.8000;0.3329;7.3440;
203.1000;0.3354;7.3535;
203.4000;0.3329;7.3582;
203.7000;0.3362;7.3606;
204.0000;0.3362;7.3629;
204.3000;0.3378;7.3606;
204.6000;0.3337;7.3511;
204.9000;0.3354;7.3535;
205.2000;0.3329;7.3487;
205.5000;0.3337;7.3558;
205.8000;0.3346;7.3558;
206.1000;0.3346;7.3511;
206.4000;0.3354;7.3464;
206.7000;0.3346;7.3464;
207.0000;0.3354;7.3487;
207.3000;0.3362;7.3511;
207.6000;0.3354;7.3464;
207.9000;0.3354;7.3393;
208.2000;0.3354;7.3393;
208.5000;0.3362;7.3487;
208.8000;0.3354;7.3487;
209.1000;0.3370;7.3535;
209.4000;0.3394;7.3606;
209.7000;0.3354;7.3558;
210.0000;0.3346;7.3535;
210.3000;0.3321;7.3511;
210.6000;0.3394;7.3700;
210.9000;0.3354;7.3606;
211.2000;0.3337;7.3653;
211.5000;0.3329;7.3629;
211.8000;0.3354;7.3558;
212.1000;0.3362;7.3629;
212.4000;0.3346;7.3653;
212.7000;0.3337;7.3582;
213.0000;0.3329;7.3558;
213.3000;0.3354;7.3511;
213.6000;0.3329;7.3511;
213.9000;0.3337;7.3464;
214.2000;0.3337;7.3417;
214.5000;0.3362;7.3487;
214.8000;0.3337;7.3511;
215.1000;0.3329;7.3417;
215.4000;0.3313;7.3322;
215.7000;0.3337;7.3227;
216.0000;0.3354;7.3322;
216.3000;0.3346;7.3251;
216.6000;0.3346;7.3227;
216.9000;0.3337;7.3298;
217.2000;0.3354;7.3322;
217.5000;0.3378;7.3322;
217.8000;0.3370;7.3275;
218.1000;0.3346;7.3227;
218.4000;0.3337;7.3133;
218.7000;0.3354;7.3251;
219.0000;0.3362;7.3298;
219.3000;0.3362;7.3227;
219.6000;0.3354;7.3227;
219.9000;0.3362;7.3298;
220.2000;0.3321;7.3298;
220.5000;0.3394;7.3346;
220.8000;0.3346;7.3251;
221.1000;0.3346;7.3322;
221.4000;0.3362;7.3346;
221.7000;0.3337;7.3369;
222.0000;0.3329;7.3346;
222.3000;0.3346;7.3417;
222.6000;0.3346;7.3393;
222.9000;0.3346;7.3393;
223.2000;0.3362;7.3464;
223.5000;0.3411;7.3724;
223.8000;0.3370;7.3582;
224.1000;0.3321;7.3487;
224.4000;0.3354;7.3582;
224.7000;0.3346;7.3558;
225.0000;0.3346;7.3629;
225.3000;0.3370;7.3653;
225.6000;0.3329;7.3535;
225.9000;0.3362;7.3677;
226.2000;0.3370;7.3629;
226.5000;0.3354;7.3511;
226.8000;0.3346;7.3535;
227.1000;0.3354;7.3629;
227.4000;0.3354;7.3653;
227.7000;0.3337;7.3582;
228.0000;0.3346;7.3511;
228.3000;0.3337;7.3582;
228.6000;0.3362;7.3653;
228.9000;0.3378;7.3677;
229.2000;0.3354;7.3653;
229.5000;0.3321;7.3558;
229.8000;0.3337;7.3629;
230.1000;0.3329;7.3606;
230.4000;0.3329;7.3535;
230.7000;0.3337;7.3535;
231.0000;0.3264;7.3369;
231.3000;0.3346;7.3629;
231.6000;0.3337;7.3511;
231.9000;0.3354;7.3417;
232.2000;0.3370;7.3487;
232.5000;0.3354;7.3417;
232.8000;0.3354;7.3464;
233.1000;0.3354;7.3464;
233.4000;0.3354;7.3464;
233.7000;0.3354;7.3464;
234.0000;0.3354;7.3417;
234.3000;0.3346;7.3417;
234.6000;0.3378;7.3606;
234.9000;0.3337;7.3558;
235.2000;0.3354;7.3558;
235.5000;0.3386;7.3677;
235.8000;0.3346;7.3606;
236.1000;0.3346;7.3606;
236.4000;0.3297;7.3558;
236.7000;0.3419;7.3842;
237.0000;0.3337;7.3606;
237.3000;0.3346;7.3653;
237.6000;0.3362;7.3535;
237.9000;0.3346;7.3464;
238.2000;0.3337;7.3464;
238.5000;0.3297;7.3393;
238.8000;0.3362;7.3511;
239.1000;0.3362;7.3417;
239.4000;0.3354;7.3393;
239.7000;0.3354;7.3227;
240.0000;0.3346;7.3275;
240.3000;0.3403;7.3393;
240.6000;0.3329;7.3180;
240.9000;0.3329;7.3251;
241.2000;0.3443;7.3535;
241.5000;0.3346;7.3369;
241.8000;0.3354;7.3369;
242.1000;0.3337;7.3369;
242.4000;0.3346;7.3464;
242.7000;0.3362;7.3558;
243.0000;0.3370;7.3582;
243.3000;0.3362;7.3606;
243.6000;0.3362;7.3606;
243.9000;0.3354;7.3487;
244.2000;0.3370;7.3464;
244.5000;0.3346;7.3346;
244.8000;0.3337;7.3298;
245.1000;0.3346;7.3298;
245.4000;0.3370;7.3298;
245.7000;0.3354;7.3156;
246.0000;0.3329;7.3204;
246.3000;0.3435;7.3487;
246.6000;0.3370;7.3322;
246.9000;0.3346;7.3322;
247.2000;0.3354;7.3322;
247.5000;0.3337;7.3322;
247.8000;0.3362;7.3298;
248.1000;0.3354;7.3204;
248.4000;0.3337;7.3156;
248.7000;0.3337;7.3204;
249.0000;0.3329;7.3204;
249.3000;0.3362;7.3322;
249.6000;0.3346;7.3227;
249.9000;0.3337;7.3227;
250.2000;0.3354;7.3346;
250.5000;0.3346;7.3487;
250.8000;0.3346;7.3582;
251.1000;0.3346;7.3582;
251.4000;0.3386;7.3700;
251.7000;0.3346;7.3582;
252.0000;0.3337;7.3440;
252.3000;0.3362;7.3606;
252.6000;0.3362;7.3700;
252.9000;0.3370;7.3677;
253.2000;0.3264;7.3393;
253.5000;0.3435;7.3795;
253.8000;0.3362;7.3677;
254.1000;0.3321;7.3511;
254.4000;0.3337;7.3487;
254.7000;0.3354;7.3417;
255.0000;0.3362;7.3369;
255.3000;0.3403;7.3511;
255.6000;0.3362;7.3440;
255.9000;0.3370;7.3393;
256.2000;0.3346;7.3322;
256.5000;0.3354;7.3417;
256.8000;0.3346;7.3440;
257.1000;0.3362;7.3464;
257.4000;0.3370;7.3511;
257.7000;0.3354;7.3629;
258.0000;0.3378;7.3677;
258.3000;0.3346;7.3558;
258.6000;0.3346;7.3606;
258.9000;0.3362;7.3653;
259.2000;0.3354;7.3724;
259.5000;0.3403;7.3818;
259.8000;0.3354;7.3653;
260.1000;0.3354;7.3582;
260.4000;0.3305;7.3535;
260.7000;0.3337;7.3629;
261.0000;0.3354;7.3629;
261.3000;0.3280;7.3558;
261.6000;0.3378;7.3818;
261.9000;0.3346;7.3724;
262.2000;0.3394;7.3842;
262.5000;0.3305;7.3558;
262.8000;0.3337;7.3582;
263.1000;0.3362;7.3606;
263.4000;0.3354;7.3606;
263.7000;0.3362;7.3677;
264.0000;0.3337;7.3724;
264.3000;0.3362;7.3724;
264.6000;0.3362;7.3747;
264.9000;0.3346;7.3653;
265.2000;0.3329;7.3606;
265.5000;0.3362;7.3653;
265.8000;0.3394;7.3747;
266.1000;0.3354;7.3724;
266.4000;0.3403;7.3842;
266.7000;0.3362;7.3606;
267.0000;0.3346;7.3558;
267.3000;0.3370;7.3606;
267.6000;0.3354;7.3582;
267.9000;0.3354;7.3582;
268.2000;0.3354;7.3558;
268.5000;0.3346;7.3606;
268.8000;0.3346;7.3606;
269.1000;0.3394;7.3653;
269.4000;0.3378;7.3629;
269.7000;0.3403;7.3653;
270.0000;0.3378;7.3582;
270.3000;0.3289;7.3298;
270.6000;0.3362;7.3417;
270.9000;0.3386;7.3535;
271.2000;0.3337;7.3440;
271.5000;0.3346;7.3582;
271.8000;0.3346;7.3582;
272.1000;0.3346;7.3535;
272.4000;0.3346;7.3487;
272.7000;0.3346;7.3487;
273.0000;0.3411;7.3558;
273.3000;0.3362;7.3369;
273.6000;0.3354;7.3393;
273.9000;0.3370;7.3464;
274.2000;0.3362;7.3511;
274.5000;0.3427;7.3629;
274.8000;0.3378;7.3464;
275.1000;0.3362;7.3464;
275.4000;0.3354;7.3417;
275.7000;0.3354;7.3417;
276.0000;0.3305;7.3251;
276.3000;0.3329;7.3369;
276.6000;0.3346;7.3417;
276.9000;0.3370;7.3393;
277.2000;0.3305;7.3275;
277.5000;0.3346;7.3346;
277.8000;0.3354;7.3369;
278.1000;0.3337;7.3346;
278.4000;0.3354;7.3393;
278.7000;0.3362;7.3298;
279.0000;0.3329;7.3322;
279.3000;0.3346;7.3275;
279.6000;0.3362;7.3298;
279.9000;0.3386;7.3369;
280.2000;0.3354;7.3322;
280.5000;0.3378;7.3393;
280.8000;0.3337;7.3275;
281.1000;0.3346;7.3369;
281.4000;0.3337;7.3346;
281.7000;0.3354;7.3440;
282.0000;0.3394;7.3393;
282.3000;0.3354;7.3346;
282.6000;0.3305;7.3275;
282.9000;0.3329;7.3369;
283.2000;0.3313;7.3275;
283.5000;0.3362;7.3369;
283.8000;0.3370;7.3369;
284.1000;0.3297;7.3133;
284.4000;0.3329;7.3251;
284.7000;0.3346;7.3275;
285.0000;0.3370;7.3346;
285.3000;0.3346;7.3298;
285.6000;0.3354;7.3346;
285.9000;0.3337;7.3204;
286.2000;0.3386;7.3322;
286.5000;0.3337;7.3204;
286.8000;0.3354;7.3275;
287.1000;0.3370;7.3369;
287.4000;0.3370;7.3275;
287.7000;0.3346;7.3322;
288.0000;0.3362;7.3440;
288.3000;0.3321;7.3369;
288.6000;0.3346;7.3369;
288.9000;0.3362;7.3393;
289.2000;0.3370;7.3440;
289.5000;0.3346;7.3369;
289.8000;0.3386;7.3535;
290.1000;0.3354;7.3511;
290.4000;0.3362;7.3511;
290.7000;0.3403;7.3629;
291.0000;0.3419;7.3700;
291.3000;0.3370;7.3606;
291.6000;0.3337;7.3606;
291.9000;0.3354;7.3724;
292.2000;0.3370;7.3818;
292.5000;0.3346;7.3747;
292.8000;0.3362;7.3747;
293.1000;0.3329;7.3677;
293.4000;0.3337;7.3582;
293.7000;0.3248;7.3298;
294.0000;0.3346;7.3535;
294.3000;0.3370;7.3417;
294.6000;0.3337;7.3346;
294.9000;0.3362;7.3393;
295.2000;0.3329;7.3346;
295.5000;0.3362;7.3346;
295.8000;0.3362;7.3393;
296.1000;0.3370;7.3440;
296.4000;0.3321;7.3417;
296.7000;0.3329;7.3440;
297.0000;0.3337;7.3464;
297.3000;0.3337;7.3535;
297.6000;0.3354;7.3582;
297.9000;0.3337;7.3629;
298.2000;0.3354;7.3629;
298.5000;0.3337;7.3487;
298.8000;0.3354;7.3535;
299.1000;0.3378;7.3606;
299.4000;0.3362;7.3606;
299.7000;0.3354;7.3558;
300.0000;0.3346;7.3487;
300.3000;0.3394;7.3606;
300.6000;0.3386;7.3535;
300.9000;0.3451;7.3629;
301.2000;0.3354;7.3346;
301.5000;0.3354;7.3417;
301.8000;0.3386;7.3417;
302.1000;0.3419;7.3440;
302.4000;0.3362;7.3393;
302.7000;0.3354;7.3393;
303.0000;0.3346;7.3464;
303.3000;0.3346;7.3511;
303.6000;0.3346;7.3606;
303.9000;0.3370;7.3700;
304.2000;0.3370;7.3700;
304.5000;0.3346;7.3558;
304.8000;0.3362;7.3558;
305.1000;0.3346;7.3606;
305.4000;0.3346;7.3535;
305.7000;0.3354;7.3511;
306.0000;0.3354;7.3511;
306.3000;0.3362;7.3629;
306.6000;0.3289;7.3346;
306.9000;0.3337;7.3393;
307.2000;0.3346;7.3393;
307.5000;0.3362;7.3487;
307.8000;0.3419;7.3700;
308.1000;0.3362;7.3558;
308.4000;0.3354;7.3535;
308.7000;0.3354;7.3535;
309.0000;0.3370;7.3535;
309.3000;0.3378;7.3558;
309.6000;0.3362;7.3487;
309.9000;0.3370;7.3535;
310.2000;0.3362;7.3464;
310.5000;0.3403;7.3558;
310.8000;0.3337;7.3464;
311.1000;0.3354;7.3487;
311.4000;0.3354;7.3511;
311.7000;0.3378;7.3582;
312.0000;0.3362;7.3511;
312.3000;0.3321;7.3464;
312.6000;0.3362;7.3629;
312.9000;0.3362;7.3606;
313.2000;0.3411;7.3771;
313.5000;0.3419;7.3653;
313.8000;0.3337;7.3393;
314.1000;0.3370;7.3393;
314.4000;0.3362;7.3298;
314.7000;0.3370;7.3298;
315.0000;0.3362;7.3275;
315.3000;0.3370;7.3369;
315.6000;0.3337;7.3440;
315.9000;0.3362;7.3417;
316.2000;0.3362;7.3393;
316.5000;0.3354;7.3369;
316.8000;0.3378;7.3511;
317.1000;0.3346;7.3464;
317.4000;0.3321;7.3346;
317.7000;0.3337;7.3393;
318.0000;0.3362;7.3346;
318.3000;0.3313;7.3251;
318.6000;0.3346;7.3227;
318.9000;0.3370;7.3275;
319.2000;0.3362;7.3251;
319.5000;0.3354;7.3204;
319.8000;0.3378;7.3298;
320.1000;0.3329;7.3133;
320.4000;0.3346;7.3109;
320.7000;0.3354;7.3180;
321.0000;0.3362;7.3204;
321.3000;0.3354;7.3204;
321.6000;0.3354;7.3156;
321.9000;0.3354;7.3204;
322.2000;0.3354;7.3251;
322.5000;0.3337;7.3298;
322.8000;0.3370;7.3369;
323.1000;0.3346;7.3322;
323.4000;0.3362;7.3275;
323.7000;0.3354;7.3133;
324.0000;0.3370;7.3180;
324.3000;0.3329;7.3204;
324.6000;0.3394;7.3369;
324.9000;0.3362;7.3298;
325.2000;0.3346;7.3393;
325.5000;0.3354;7.3440;
325.8000;0.3354;7.3369;
326.1000;0.3370;7.3393;
326.4000;0.3346;7.3298;
326.7000;0.3321;7.3298;
327.0000;0.3313;7.3204;
327.3000;0.3346;7.3298;
327.6000;0.3321;7.3251;
327.9000;0.3354;7.3393;
328.2000;0.3362;7.3346;
328.5000;0.3337;7.3417;
328.8000;0.3394;7.3606;
329.1000;0.3378;7.3487;
329.4000;0.3354;7.3487;
329.7000;0.3337;7.3487;
330.0000;0.3313;7.3393;
330.3000;0.3297;7.3346;
330.6000;0.3346;7.3535;
330.9000;0.3346;7.3464;
331.2000;0.3354;7.3417;
331.5000;0.3337;7.3298;
331.8000;0.3362;7.3393;
332.1000;0.3370;7.3393;
332.4000;0.3427;7.3511;
332.7000;0.3354;7.3393;
333.0000;0.3362;7.3464;
333.3000;0.3370;7.3511;
333.6000;0.3346;7.3393;
333.9000;0.3362;7.3417;
334.2000;0.3354;7.3487;
334.5000;0.3346;7.3582;
334.8000;0.3354;7.3558;
335.1000;0.3354;7.3558;
335.4000;0.3337;7.3511;
335.7000;0.3362;7.3464;
336.0000;0.3354;7.3417;
336.3000;0.3378;7.3440;
336.6000;0.3337;7.3298;
336.9000;0.3346;7.3393;
337.2000;0.3354;7.3369;
337.5000;0.3362;7.3346;
337.8000;0.3370;7.3346;
338.1000;0.3354;7.3322;
338.4000;0.3346;7.3298;
338.7000;0.3354;7.3298;
339.0000;0.3370;7.3275;
339.3000;0.3362;7.3204;
339.6000;0.3362;7.3251;
339.9000;0.3362;7.3204;
340.2000;0.3362;7.3251;
340.5000;0.3386;7.3322;
340.8000;0.3354;7.3204;
341.1000;0.3329;7.3156;
341.4000;0.3354;7.3227;
341.7000;0.3354;7.3227;
342.0000;0.3378;7.3251;
342.3000;0.3362;7.3251;
342.6000;0.3354;7.3275;
342.9000;0.3354;7.3322;
343.2000;0.3378;7.3440;
343.5000;0.3370;7.3464;
343.8000;0.3362;7.3511;
344.1000;0.3354;7.3440;
344.4000;0.3378;7.3487;
344.7000;0.3362;7.3511;
345.0000;0.3354;7.3322;
345.3000;0.3346;7.3204;
345.6000;0.3370;7.3346;
345.9000;0.3354;7.3322;
346.2000;0.3337;7.3275;
346.5000;0.3305;7.3227;
346.8000;0.3370;7.3369;
347.1000;0.3370;7.3346;
347.4000;0.3354;7.3251;
347.7000;0.3362;7.3204;
348.0000;0.3362;7.3251;
348.3000;0.3394;7.3251;
348.6000;0.3337;7.3180;
348.9000;0.3370;7.3227;
349.2000;0.3337;7.3322;
349.5000;0.3394;7.3558;
349.8000;0.3386;7.3511;
350.1000;0.3329;7.3369;
350.4000;0.3346;7.3417;
350.7000;0.3354;7.3464;
351.0000;0.3362;7.3440;
351.3000;0.3337;7.3346;
351.6000;0.3354;7.3346;
351.9000;0.3362;7.3417;
352.2000;0.3378;7.3464;
352.5000;0.3362;7.3464;
352.8000;0.3354;7.3464;
353.1000;0.3386;7.3582;
353.4000;0.3411;7.3606;
353.7000;0.3329;7.3322;
354.0000;0.3362;7.3346;
354.3000;0.3346;7.3417;
354.6000;0.3337;7.3393;
354.9000;0.3354;7.3440;
355.2000;0.3354;7.3440;
355.5000;0.3370;7.3558;
355.8000;0.3362;7.3558;
356.1000;0.3354;7.3535;
356.4000;0.3354;7.3535;
356.7000;0.3346;7.3606;
357.0000;0.3370;7.3677;
357.3000;0.3378;7.3582;
357.6000;0.3354;7.3440;
357.9000;0.3362;7.3535;
358.2000;0.3354;7.3582;
358.5000;0.3370;7.3582;
358.8000;0.3386;7.3511;
359.1000;0.3354;7.3440;
359.4000;0.3362;7.3464;
359.7000;0.3370;7.3487;
360.0000;0.3354;7.3487;
360.3000;0.3264;7.3251;
360.6000;0.3329;7.3464;
360.9000;0.3346;7.3558;
361.2000;0.3337;7.3487;
361.5000;0.3443;7.3771;
361.8000;0.3346;7.3511;
362.1000;0.3354;7.3653;
362.4000;0.3354;7.3606;
362.7000;0.3346;7.3558;
363.0000;0.3354;7.3606;
363.3000;0.3394;7.3677;
363.6000;0.3370;7.3606;
363.9000;0.3386;7.3629;
364.2000;0.3346;7.3606;
364.5000;0.3354;7.3700;
364.8000;0.3362;7.3771;
365.1000;0.3354;7.3724;
365.4000;0.3354;7.3724;
365.7000;0.3362;7.3771;
366.0000;0.3329;7.3747;
366.3000;0.3346;7.3700;
366.6000;0.3346;7.3677;
366.9000;0.3321;7.3582;
367.2000;0.3354;7.3535;
367.5000;0.3354;7.3535;
367.8000;0.3346;7.3629;
368.1000;0.3354;7.3677;
368.4000;0.3297;7.3653;
368.7000;0.3354;7.3842;
369.0000;0.3297;7.3724;
369.3000;0.3354;7.3889;
369.6000;0.3354;7.3913;
369.9000;0.3378;7.3866;
370.2000;0.3354;7.3795;
370.5000;0.3297;7.3653;
370.8000;0.3370;7.3818;
371.1000;0.3305;7.3700;
371.4000;0.3354;7.3724;
371.7000;0.3346;7.3724;
372.0000;0.3378;7.3795;
372.3000;0.3362;7.3700;
372.6000;0.3337;7.3582;
372.9000;0.3354;7.3677;
373.2000;0.3346;7.3700;
373.5000;0.3346;7.3724;
373.8000;0.3305;7.3653;
374.1000;0.3427;7.3795;
374.4000;0.3354;7.3629;
374.7000;0.3354;7.3653;
375.0000;0.3362;7.3747;
375.3000;0.3346;7.3677;
375.6000;0.3289;7.3511;
375.9000;0.3362;7.3629;
376.2000;0.3362;7.3606;
376.5000;0.3354;7.3606;
376.8000;0.3403;7.3700;
377.1000;0.3297;7.3440;
377.4000;0.3337;7.3582;
377.7000;0.3378;7.3700;
378.0000;0.3346;7.3582;
378.3000;0.3354;7.3606;
378.6000;0.3370;7.3582;
378.9000;0.3370;7.3582;
379.2000;0.3362;7.3487;
379.5000;0.3362;7.3511;
379.8000;0.3370;7.3464;
380.1000;0.3329;7.3298;
380.4000;0.3378;7.3369;
380.7000;0.3337;7.3417;
381.0000;0.3346;7.3464;
381.3000;0.3346;7.3440;
381.6000;0.3337;7.3440;
381.9000;0.3346;7.3440;
382.2000;0.3362;7.3511;
382.5000;0.3362;7.3487;
382.8000;0.3370;7.3535;
383.1000;0.3362;7.3535;
383.4000;0.3297;7.3393;
383.7000;0.3362;7.3653;
384.0000;0.3378;7.3582;
384.3000;0.3378;7.3535;
384.6000;0.3337;7.3487;
384.9000;0.3362;7.3511;
385.2000;0.3321;7.3393;
385.5000;0.3362;7.3464;
385.8000;0.3354;7.3417;
386.1000;0.3346;7.3417;
386.4000;0.3370;7.3440;
386.7000;0.3451;7.3747;
387.0000;0.3386;7.3487;
387.3000;0.3362;7.3440;
387.6000;0.3346;7.3417;
387.9000;0.3394;7.3511;
388.2000;0.3354;7.3511;
388.5000;0.3362;7.3464;
388.8000;0.3370;7.3440;
389.1000;0.3370;7.3440;
389.4000;0.3354;7.3464;
389.7000;0.3362;7.3511;
390.0000;0.3354;7.3558;
390.3000;0.3386;7.3582;
390.6000;0.3346;7.3511;
390.9000;0.3337;7.3487;
391.2000;0.3362;7.3558;
391.5000;0.3354;7.3487;
391.8000;0.3354;7.3511;
392.1000;0.3354;7.3487;
392.4000;0.3313;7.3393;
392.7000;0.3362;7.3535;
393.0000;0.3346;7.3511;
393.3000;0.3378;7.3582;
393.6000;0.3370;7.3487;
393.9000;0.3378;7.3487;
394.2000;0.3354;7.3440;
394.5000;0.3362;7.3487;
394.8000;0.3362;7.3440;
395.1000;0.3337;7.3393;
395.4000;0.3362;7.3606;
395.7000;0.3378;7.3606;
396.0000;0.3386;7.3606;
396.3000;0.3370;7.3582;
396.6000;0.3411;7.3771;
396.9000;0.3370;7.3747;
397.2000;0.3354;7.3653;
397.5000;0.3346;7.3653;
397.8000;0.3370;7.3818;
398.1000;0.3346;7.3724;
398.4000;0.3354;7.3747;
398.7000;0.3329;7.3629;
399.0000;0.3378;7.3724;
399.3000;0.3370;7.3724;
399.6000;0.3386;7.3842;
399.9000;0.3346;7.3747;
400.2000;0.3329;7.3606;
400.5000;0.3378;7.3653;
400.8000;0.3354;7.3535;
401.1000;0.3370;7.3535;
401.4000;0.3354;7.3487;
401.7000;0.3313;7.3417;
402.0000;0.3403;7.3535;
402.3000;0.3362;7.3417;
402.6000;0.3394;7.3653;
402.9000;0.3370;7.3511;
403.2000;0.3297;7.3440;
403.5000;0.3321;7.3511;
403.8000;0.3362;7.3700;
404.1000;0.3362;7.3747;
404.4000;0.3370;7.3653;
404.7000;0.3378;7.3629;
405.0000;0.3370;7.3582;
405.3000;0.3362;7.3535;
405.6000;0.3370;7.3487;
405.9000;0.3362;7.3487;
406.2000;0.3386;7.3535;
406.5000;0.3370;7.3558;
406.8000;0.3394;7.3582;
407.1000;0.3354;7.3487;
407.4000;0.3337;7.3393;
407.7000;0.3394;7.3535;
408.0000;0.3378;7.3487;
408.3000;0.3256;7.3156;
408.6000;0.3354;7.3369;
408.9000;0.3362;7.3369;
409.2000;0.3346;7.3298;
409.5000;0.3370;7.3417;
409.8000;0.3362;7.3393;
410.1000;0.3354;7.3417;
410.4000;0.3370;7.3369;
410.7000;0.3403;7.3535;
411.0000;0.3346;7.3440;
411.3000;0.3346;7.3487;
411.6000;0.3362;7.3511;
411.9000;0.3370;7.3629;
412.2000;0.3354;7.3700;
412.5000;0.3378;7.3724;
412.8000;0.3354;7.3606;
413.1000;0.3362;7.3677;
413.4000;0.3370;7.3653;
413.7000;0.3354;7.3535;
414.0000;0.3329;7.3417;
414.3000;0.3362;7.3417;
414.6000;0.3378;7.3440;
414.9000;0.3362;7.3417;
415.2000;0.3337;7.3417;
415.5000;0.3321;7.3393;
415.8000;0.3362;7.3606;
416.1000;0.3354;7.3558;
416.4000;0.3313;7.3511;
416.7000;0.3354;7.3558;
417.0000;0.3280;7.3487;
417.3000;0.3346;7.3629;
417.6000;0.3346;7.3606;
417.9000;0.3346;7.3629;
418.2000;0.3354;7.3653;
418.5000;0.3337;7.3558;
418.8000;0.3354;7.3629;
419.1000;0.3354;7.3558;
419.4000;0.3354;7.3535;
419.7000;0.3354;7.3653;
420.0000;0.3378;7.3700;
420.3000;0.3346;7.3629;
420.6000;0.3354;7.3535;
420.9000;0.3354;7.3464;
421.2000;0.3346;7.3417;
421.5000;0.3443;7.3653;
421.8000;0.3362;7.3440;
422.1000;0.3337;7.3464;
422.4000;0.3386;7.3653;
422.7000;0.3362;7.3606;
423.0000;0.3346;7.3582;
423.3000;0.3354;7.3582;
423.6000;0.3329;7.3558;
423.9000;0.3337;7.3606;
424.2000;0.3329;7.3700;
424.5000;0.3337;7.3771;
424.8000;0.3337;7.3771;
425.1000;0.3313;7.3629;
425.4000;0.3337;7.3606;
425.7000;0.3354;7.3629;
426.0000;0.3370;7.3653;
426.3000;0.3362;7.3629;
426.6000;0.3370;7.3629;
426.9000;0.3337;7.3535;
427.2000;0.3362;7.3582;
427.5000;0.3346;7.3511;
427.8000;0.3346;7.3464;
428.1000;0.3370;7.3606;
428.4000;0.3354;7.3700;
428.7000;0.3346;7.3629;
429.0000;0.3362;7.3653;
429.3000;0.3370;7.3700;
429.6000;0.3435;7.3984;
429.9000;0.3403;7.3913;
430.2000;0.3329;7.3700;
430.5000;0.3370;7.3677;
430.8000;0.3354;7.3606;
431.1000;0.3378;7.3629;
431.4000;0.3346;7.3535;
431.7000;0.3370;7.3606;
432.0000;0.3370;7.3606;
432.3000;0.3362;7.3606;
432.6000;0.3354;7.3558;
432.9000;0.3354;7.3629;
433.2000;0.3362;7.3629;
433.5000;0.3346;7.3558;
433.8000;0.3346;7.3511;
434.1000;0.3337;7.3582;
434.4000;0.3329;7.3535;
434.7000;0.3370;7.3606;
435.0000;0.3370;7.3606;
435.3000;0.3362;7.3629;
435.6000;0.3354;7.3629;
435.9000;0.3362;7.3606;
436.2000;0.3370;7.3558;
436.5000;0.3346;7.3606;
436.8000;0.3362;7.3558;
437.1000;0.3378;7.3629;
437.4000;0.3354;7.3606;
437.7000;0.3362;7.3677;
438.0000;0.3386;7.3771;
438.3000;0.3394;7.3724;
438.6000;0.3370;7.3606;
438.9000;0.3378;7.3535;
439.2000;0.3354;7.3606;
439.5000;0.3370;7.3606;
439.8000;0.3370;7.3606;
440.1000;0.3354;7.3511;
440.4000;0.3354;7.3464;
440.7000;0.3337;7.3558;
441.0000;0.3337;7.3558;
441.3000;0.3362;7.3724;
441.6000;0.3362;7.3771;
441.9000;0.3313;7.3677;
442.2000;0.3346;7.3747;
442.5000;0.3313;7.3629;
442.8000;0.3354;7.3653;
443.1000;0.3346;7.3653;
443.4000;0.3346;7.3653;
443.7000;0.3362;7.3606;
444.0000;0.3362;7.3606;
444.3000;0.3354;7.3606;
444.6000;0.3394;7.3724;
444.9000;0.3346;7.3582;
445.2000;0.3362;7.3606;
445.5000;0.3435;7.3747;
445.8000;0.3346;7.3464;
446.1000;0.3378;7.3487;
446.4000;0.3354;7.3417;
446.7000;0.3354;7.3440;
447.0000;0.3354;7.3393;
447.3000;0.3337;7.3440;
447.6000;0.3321;7.3464;
447.9000;0.3346;7.3535;
448.2000;0.3337;7.3535;
448.5000;0.3321;7.3511;
448.8000;0.3354;7.3606;
449.1000;0.3362;7.3582;
449.4000;0.3337;7.3487;
449.7000;0.3362;7.3535;
450.0000;0.3378;7.3558;
450.3000;0.3346;7.3464;
450.6000;0.3362;7.3535;
450.9000;0.3362;7.3535;
451.2000;0.3354;7.3487;
451.5000;0.3354;7.3535;
451.8000;0.3362;7.3535;
452.1000;0.3346;7.3558;
452.4000;0.3354;7.3606;
452.7000;0.3362;7.3582;
453.0000;0.3370;7.3629;
453.3000;0.3321;7.3440;
453.6000;0.3362;7.3582;
453.9000;0.3354;7.3558;
454.2000;0.3313;7.3417;
454.5000;0.3362;7.3511;
454.8000;0.3362;7.3558;
455.1000;0.3370;7.3606;
455.4000;0.3362;7.3677;
455.7000;0.3354;7.3606;
456.0000;0.3337;7.3535;
456.3000;0.3354;7.3440;
456.6000;0.3386;7.3582;
456.9000;0.3354;7.3582;
457.2000;0.3354;7.3629;
457.5000;0.3346;7.3606;
457.8000;0.3370;7.3677;
458.1000;0.3346;7.3535;
458.4000;0.3337;7.3487;
458.7000;0.3354;7.3511;
459.0000;0.3370;7.3558;
459.3000;0.3435;7.3700;
459.6000;0.3362;7.3487;
459.9000;0.3329;7.3440;
460.2000;0.3378;7.3535;
460.5000;0.3370;7.3487;
460.8000;0.3346;7.3487;
461.1000;0.3329;7.3511;
461.4000;0.3362;7.3535;
461.7000;0.3346;7.3440;
462.0000;0.3337;7.3464;
462.3000;0.3329;7.3464;
462.6000;0.3329;7.3511;
462.9000;0.3346;7.3629;
463.2000;0.3346;7.3629;
463.5000;0.3337;7.3629;
463.8000;0.3354;7.3653;
464.1000;0.3354;7.3629;
464.4000;0.3362;7.3700;
464.7000;0.3354;7.3629;
465.0000;0.3354;7.3653;
465.3000;0.3403;7.3747;
465.6000;0.3354;7.3677;
465.9000;0.3403;7.3818;
466.2000;0.3329;7.3700;
466.5000;0.3354;7.3771;
466.8000;0.3370;7.3724;
467.1000;0.3337;7.3677;
467.4000;0.3329;7.3700;
467.7000;0.3346;7.3724;
468.0000;0.3354;7.3724;
468.3000;0.3378;7.3700;
468.6000;0.3337;7.3606;
468.9000;0.3354;7.3606;
469.2000;0.3370;7.3677;
469.5000;0.3354;7.3582;
469.8000;0.3403;7.3747;
470.1000;0.3386;7.3724;
470.4000;0.3362;7.3724;
470.7000;0.3321;7.3582;
471.0000;0.3354;7.3629;
471.3000;0.3337;7.3558;
471.6000;0.3354;7.3629;
471.9000;0.3370;7.3582;
472.2000;0.3346;7.3322;
472.5000;0.3354;7.3393;
472.8000;0.3354;7.3393;
473.1000;0.3362;7.3393;
473.4000;0.3346;7.3487;
473.7000;0.3346;7.3558;
474.0000;0.3362;7.3487;
474.3000;0.3305;7.3393;
474.6000;0.3354;7.3464;
474.9000;0.3337;7.3440;
475.2000;0.3362;7.3511;
475.5000;0.3362;7.3558;
475.8000;0.3346;7.3511;
476.1000;0.3321;7.3440;
476.4000;0.3313;7.3464;
476.7000;0.3362;7.3629;
477.0000;0.3378;7.3700;
477.3000;0.3329;7.3558;
477.6000;0.3337;7.3487;
477.9000;0.3370;7.3487;
478.2000;0.3394;7.3464;
478.5000;0.3337;7.3275;
478.8000;0.3370;7.3227;
479.1000;0.3354;7.3227;
479.4000;0.3370;7.3298;
479.7000;0.3362;7.3251;
480.0000;0.3370;7.3369;
480.3000;0.3354;7.3464;
480.6000;0.3354;7.3511;
480.9000;0.3378;7.3487;
481.2000;0.3362;7.3511;
481.5000;0.3337;7.3511;
481.8000;0.3354;7.3535;
482.1000;0.3362;7.3511;
482.4000;0.3329;7.3417;
482.7000;0.3337;7.3346;
483.0000;0.3313;7.3275;
483.3000;0.3411;7.3535;
483.6000;0.3362;7.3369;
483.9000;0.3451;7.3629;
484.2000;0.3346;7.3417;
484.5000;0.3297;7.3322;
484.8000;0.3370;7.3535;
485.1000;0.3321;7.3558;
485.4000;0.3370;7.3700;
485.7000;0.3370;7.3653;
486.0000;0.3354;7.3606;
486.3000;0.3386;7.3606;
486.6000;0.3435;7.3747;
486.9000;0.3354;7.3440;
487.2000;0.3362;7.3417;
487.5000;0.3460;7.3747;
487.8000;0.3370;7.3511;
488.1000;0.3354;7.3582;
488.4000;0.3370;7.3606;
488.7000;0.3370;7.3511;
489.0000;0.3362;7.3487;
489.3000;0.3346;7.3393;
489.6000;0.3337;7.3346;
489.9000;0.3362;7.3417;
490.2000;0.3370;7.3464;
490.5000;0.3354;7.3464;
490.8000;0.3354;7.3393;
491.1000;0.3370;7.3369;
491.4000;0.3354;7.3298;
491.7000;0.3354;7.3298;
492.0000;0.3354;7.3322;
492.3000;0.3370;7.3440;
492.6000;0.3321;7.3298;
492.9000;0.3337;7.3298;
493.2000;0.3362;7.3298;
493.5000;0.3354;7.3227;
493.8000;0.3346;7.3275;
494.1000;0.3354;7.3346;
494.4000;0.3337;7.3393;
494.7000;0.3362;7.3369;
495.0000;0.3386;7.3369;
495.3000;0.3378;7.3298;
495.6000;0.3370;7.3346;
495.9000;0.3370;7.3275;
496.2000;0.3313;7.3227;
496.5000;0.3362;7.3346;
496.8000;0.3354;7.3275;
497.1000;0.3435;7.3535;
497.4000;0.3403;7.3440;
497.7000;0.3354;7.3275;
498.0000;0.3337;7.3204;
498.3000;0.3370;7.3346;
498.6000;0.3354;7.3393;
498.9000;0.3354;7.3464;
499.2000;0.3337;7.3511;
499.5000;0.3362;7.3629;
499.8000;0.3370;7.3677;
500.1000;0.3362;7.3629;
500.4000;0.3354;7.3558;
500.7000;0.3346;7.3535;
501.0000;0.3362;7.3487;
501.3000;0.3337;7.3464;
501.6000;0.3337;7.3487;
501.9000;0.3354;7.3511;
502.2000;0.3386;7.3606;
502.5000;0.3354;7.3535;
502.8000;0.3329;7.3606;
503.1000;0.3337;7.3535;
503.4000;0.3354;7.3487;
503.7000;0.3362;7.3417;
504.0000;0.3370;7.3464;
504.3000;0.3370;7.3464;
504.6000;0.3378;7.3417;
504.9000;0.3386;7.3535;
505.2000;0.3337;7.3393;
505.5000;0.3362;7.3369;
505.8000;0.3354;7.3369;
506.1000;0.3337;7.3275;
506.4000;0.3346;7.3322;
506.7000;0.3346;7.3393;
507.0000;0.3354;7.3464;
507.3000;0.3362;7.3464;
507.6000;0.3354;7.3558;
507.9000;0.3329;7.3653;
508.2000;0.3337;7.3677;
508.5000;0.3346;7.3629;
508.8000;0.3346;7.3700;
509.1000;0.3370;7.3724;
509.4000;0.3354;7.3653;
509.7000;0.3346;7.3606;
510.0000;0.3378;7.3653;
510.3000;0.3354;7.3582;
510.6000;0.3289;7.3393;
510.9000;0.3362;7.3487;
511.2000;0.3346;7.3393;
511.5000;0.3346;7.3369;
511.8000;0.3346;7.3346;
512.1000;0.3321;7.3275;
512.4000;0.3378;7.3440;
512.7000;0.3362;7.3393;
513.0000;0.3362;7.3346;
513.3000;0.3411;7.3440;
513.6000;0.3313;7.3180;
513.9000;0.3337;7.3251;
514.2000;0.3362;7.3440;
514.5000;0.3378;7.3511;
514.8000;0.3337;7.3417;
515.1000;0.3370;7.3440;
515.4000;0.3329;7.3322;
515.7000;0.3370;7.3322;
516.0000;0.3354;7.3393;
516.3000;0.3354;7.3393;
516.6000;0.3516;7.3747;
516.9000;0.3370;7.3393;
517.2000;0.3386;7.3417;
517.5000;0.3337;7.3322;
517.8000;0.3346;7.3393;
518.1000;0.3354;7.3417;
518.4000;0.3427;7.3653;
518.7000;0.3321;7.3393;
519.0000;0.3362;7.3440;
519.3000;0.3346;7.3464;
519.6000;0.3419;7.3629;
519.9000;0.3354;7.3558;
520.2000;0.3362;7.3582;
520.5000;0.3378;7.3535;
520.8000;0.3362;7.3511;
521.1000;0.3378;7.3464;
521.4000;0.3354;7.3369;
521.7000;0.3346;7.3346;
522.0000;0.3354;7.3298;
522.3000;0.3346;7.3275;
522.6000;0.3346;7.3275;
522.9000;0.3354;7.3275;
523.2000;0.3394;7.3393;
523.5000;0.3337;7.3204;
523.8000;0.3354;7.3227;
524.1000;0.3337;7.3180;
524.4000;0.3386;7.3251;
524.7000;0.3362;7.3251;
525.0000;0.3346;7.3251;
525.3000;0.3394;7.3393;
525.6000;0.3337;7.3393;
525.9000;0.3337;7.3417;
526.2000;0.3411;7.3606;
526.5000;0.3370;7.3464;
526.8000;0.3354;7.3487;
527.1000;0.3337;7.3535;
527.4000;0.3354;7.3558;
527.7000;0.3354;7.3558;
528.0000;0.3346;7.3535;
528.3000;0.3362;7.3582;
528.6000;0.3362;7.3558;
528.9000;0.3337;7.3487;
529.2000;0.3329;7.3440;
529.5000;0.3354;7.3393;
529.8000;0.3362;7.3298;
530.1000;0.3370;7.3298;
530.4000;0.3394;7.3393;
530.7000;0.3354;7.3393;
531.0000;0.3337;7.3322;
531.3000;0.3362;7.3369;
531.6000;0.3354;7.3440;
531.9000;0.3370;7.3417;
532.2000;0.3362;7.3417;
532.5000;0.3337;7.3393;
532.8000;0.3362;7.3464;
533.1000;0.3386;7.3535;
533.4000;0.3354;7.3369;
533.7000;0.3313;7.3322;
534.0000;0.3337;7.3369;
534.3000;0.3256;7.3062;
534.6000;0.3346;7.3251;
534.9000;0.3354;7.3156;
535.2000;0.3370;7.3156;
535.5000;0.3427;7.3251;
535.8000;0.3386;7.3204;
536.1000;0.3337;7.3109;
536.4000;0.3346;7.3227;
536.7000;0.3362;7.3251;
537.0000;0.3370;7.3298;
537.3000;0.3394;7.3346;
537.6000;0.3370;7.3322;
537.9000;0.3362;7.3251;
538.2000;0.3354;7.3227;
538.5000;0.3337;7.3227;
538.8000;0.3329;7.3156;
539.1000;0.3362;7.3322;
539.4000;0.3346;7.3393;
539.7000;0.3370;7.3393;
540.0000;0.3354;7.3393;
540.3000;0.3329;7.3369;
540.6000;0.3354;7.3464;
540.9000;0.3354;7.3417;
541.2000;0.3337;7.3369;
541.5000;0.3378;7.3511;
541.8000;0.3354;7.3393;
542.1000;0.3451;7.3629;
542.4000;0.3337;7.3440;
542.7000;0.3354;7.3417;
543.0000;0.3354;7.3346;
543.3000;0.3329;7.3298;
543.6000;0.3346;7.3275;
543.9000;0.3337;7.3298;
544.2000;0.3354;7.3251;
544.5000;0.3354;7.3227;
544.8000;0.3354;7.3180;
545.1000;0.3354;7.3180;
545.4000;0.3362;7.3156;
545.7000;0.3378;7.3275;
546.0000;0.3370;7.3298;
546.3000;0.3403;7.3393;
546.6000;0.3337;7.3251;
546.9000;0.3354;7.3298;
547.2000;0.3354;7.3322;
547.5000;0.3354;7.3251;
547.8000;0.3321;7.3109;
548.1000;0.3354;7.3109;
548.4000;0.3297;7.2920;
548.7000;0.3329;7.3038;
549.0000;0.3354;7.3156;
549.3000;0.3313;7.3062;
549.6000;0.3362;7.3133;
549.9000;0.3346;7.3086;
550.2000;0.3354;7.3204;
550.5000;0.3354;7.3156;
550.8000;0.3346;7.3156;
551.1000;0.3346;7.3133;
551.4000;0.3362;7.3204;
551.7000;0.3362;7.3251;
552.0000;0.3370;7.3275;
552.3000;0.3354;7.3251;
552.6000;0.3362;7.3204;
552.9000;0.3362;7.3180;
553.2000;0.3378;7.3227;
553.5000;0.3354;7.3227;
553.8000;0.3346;7.3227;
554.1000;0.3378;7.3275;
554.4000;0.3370;7.3227;
554.7000;0.3305;7.3062;
555.0000;0.3378;7.3180;
555.3000;0.3354;7.3086;
555.6000;0.3297;7.3038;
555.9000;0.3329;7.3227;
556.2000;0.3362;7.3369;
556.5000;0.3329;7.3275;
556.8000;0.3370;7.3346;
557.1000;0.3297;7.3133;
557.4000;0.3346;7.3322;
557.7000;0.3329;7.3393;
558.0000;0.3321;7.3440;
558.3000;0.3362;7.3464;
558.6000;0.3329;7.3417;
558.9000;0.3337;7.3322;
559.2000;0.3354;7.3298;
559.5000;0.3378;7.3251;
559.8000;0.3346;7.3227;
560.1000;0.3346;7.3180;
560.4000;0.3370;7.3227;
560.7000;0.3354;7.3180;
561.0000;0.3362;7.3180;
561.3000;0.3362;7.3133;
561.6000;0.3264;7.2920;
561.9000;0.3378;7.3133;
562.2000;0.3346;7.3062;
562.5000;0.3329;7.3015;
562.8000;0.3386;7.3133;
563.1000;0.3362;7.3133;
563.4000;0.3394;7.3180;
563.7000;0.3321;7.2991;
564.0000;0.3354;7.3086;
564.3000;0.3346;7.3086;
564.6000;0.3362;7.3156;
564.9000;0.3370;7.3156;
565.2000;0.3370;7.3251;
565.5000;0.3346;7.3251;
565.8000;0.3313;7.3156;
566.1000;0.3362;7.3275;
566.4000;0.3329;7.3251;
566.7000;0.3346;7.3298;
567.0000;0.3329;7.3227;
567.3000;0.3337;7.3227;
567.6000;0.3354;7.3204;
567.9000;0.3321;7.3180;
568.2000;0.3346;7.3227;
568.5000;0.3354;7.3204;
568.8000;0.3346;7.3180;
569.1000;0.3394;7.3251;
569.4000;0.3354;7.3251;
569.7000;0.3362;7.3298;
570.0000;0.3370;7.3322;
570.3000;0.3346;7.3298;
570.6000;0.3346;7.3393;
570.9000;0.3362;7.3440;
571.2000;0.3370;7.3464;
571.5000;0.3354;7.3393;
571.8000;0.3354;7.3298;
572.1000;0.3370;7.3369;
572.4000;0.3394;7.3346;
572.7000;0.3354;7.3180;
573.0000;0.3346;7.3156;
573.3000;0.3370;7.3204;
573.6000;0.3362;7.3156;
573.9000;0.3346;7.3109;
574.2000;0.3370;7.3133;
574.5000;0.3337;7.3086;
574.8000;0.3346;7.3133;
575.1000;0.3337;7.3086;
575.4000;0.3370;7.3133;
575.7000;0.3354;7.3156;
576.0000;0.3346;7.3086;
576.3000;0.3394;7.3251;
576.6000;0.3362;7.3038;
576.9000;0.3370;7.3015;
577.2000;0.3370;7.3038;
577.5000;0.3354;7.2944;
577.8000;0.3362;7.2920;
578.1000;0.3346;7.2920;
578.4000;0.3346;7.2896;
578.7000;0.3346;7.2944;
579.0000;0.3386;7.3038;
579.3000;0.3370;7.3062;
579.6000;0.3321;7.2991;
579.9000;0.3329;7.2896;
580.2000;0.3362;7.3109;
580.5000;0.3354;7.3086;
580.8000;0.3346;7.3062;
581.1000;0.3362;7.3109;
581.4000;0.3346;7.3109;
581.7000;0.3362;7.3109;
582.0000;0.3272;7.2802;
582.3000;0.3313;7.2944;
582.6000;0.3354;7.3038;
582.9000;0.3337;7.2991;
583.2000;0.3321;7.2967;
583.5000;0.3354;7.3038;
583.8000;0.3370;7.3062;
584.1000;0.3321;7.3038;
584.4000;0.3362;7.3180;
584.7000;0.3354;7.3227;
585.0000;0.3362;7.3275;
585.3000;0.3378;7.3204;
585.6000;0.3354;7.3086;
585.9000;0.3362;7.3156;
586.2000;0.3362;7.3180;
586.5000;0.3370;7.3062;
586.8000;0.3419;7.3227;
587.1000;0.3370;7.3204;
587.4000;0.3378;7.3251;
587.7000;0.3354;7.3251;
588.0000;0.3362;7.3298;
588.3000;0.3378;7.3298;
588.6000;0.3419;7.3369;
588.9000;0.3362;7.3251;
589.2000;0.3346;7.3322;
589.5000;0.3386;7.3487;
589.8000;0.3362;7.3393;
590.1000;0.3346;7.3369;
590.4000;0.3337;7.3298;
590.7000;0.3337;7.3227;
591.0000;0.3354;7.3227;
591.3000;0.3354;7.3227;
591.6000;0.3354;7.3204;
591.9000;0.3297;7.3109;
592.2000;0.3346;7.3298;
592.5000;0.3346;7.3251;
592.8000;0.3354;7.3251;
593.1000;0.3362;7.3322;
593.4000;0.3329;7.3275;
593.7000;0.3346;7.3322;
594.0000;0.3362;7.3487;
594.3000;0.3289;7.3346;
594.6000;0.3337;7.3487;
594.9000;0.3321;7.3393;
595.2000;0.3354;7.3487;
595.5000;0.3337;7.3511;
595.8000;0.3297;7.3535;
596.1000;0.3370;7.3724;
596.4000;0.3362;7.3653;
596.7000;0.3354;7.3606;
597.0000;0.3329;7.3582;
597.3000;0.3516;7.4031;
597.6000;0.3354;7.3653;
597.9000;0.3362;7.3677;
598.2000;0.3346;7.3582;
598.5000;0.3346;7.3582;
598.8000;0.3313;7.3487;
599.1000;0.3305;7.3487;
599.4000;0.3346;7.3487;
599.7000;0.3362;7.3511;
600.0000;0.3354;7.3511;
600.3000;0.3329;7.3464;
600.6000;0.3329;7.3417;
600.9000;0.3329;7.3369;
601.2000;0.3264;7.3156;
601.5000;0.3289;7.3180;
601.8000;0.3272;7.3086;
602.1000;0.3232;7.2873;
602.4000;0.3256;7.2778;
602.7000;0.3158;7.2566;
603.0000;0.3215;7.2636;
603.3000;0.3150;7.2447;
603.6000;0.3142;7.2376;
603.9000;0.3126;7.2376;
604.2000;0.3142;7.2376;
604.5000;0.3118;7.2235;
604.8000;0.3077;7.2069;
605.1000;0.3069;7.2046;
605.4000;0.3085;7.2046;
605.7000;0.3118;7.2093;
606.0000;0.3028;7.1880;
606.3000;0.3028;7.1856;
606.6000;0.3036;7.1809;
606.9000;0.3012;7.1809;
607.2000;0.2996;7.1715;
607.5000;0.2987;7.1644;
607.8000;0.2971;7.1667;
608.1000;0.2987;7.1809;
608.4000;0.2922;7.1667;
608.7000;0.2963;7.1715;
609.0000;0.2939;7.1691;
609.3000;0.2947;7.1762;
609.6000;0.2922;7.1738;
609.9000;0.2857;7.1549;
610.2000;0.2906;7.1596;
610.5000;0.2922;7.1715;
610.8000;0.2849;7.1596;
611.1000;0.2857;7.1786;
611.4000;0.2865;7.1738;
611.7000;0.2873;7.1715;
612.0000;0.2849;7.1573;
612.3000;0.2849;7.1715;
612.6000;0.2825;7.1644;
612.9000;0.2841;7.1620;
613.2000;0.2890;7.1667;
613.5000;0.2776;7.1407;
613.8000;0.2784;7.1455;
614.1000;0.2816;7.1478;
614.4000;0.2825;7.1502;
614.7000;0.2873;7.1573;
615.0000;0.2792;7.1384;
615.3000;0.2816;7.1360;
615.6000;0.2792;7.1384;
615.9000;0.2768;7.1313;
616.2000;0.2776;7.1313;
616.5000;0.2751;7.1289;
616.8000;0.2759;7.1289;
617.1000;0.2776;7.1313;
617.4000;0.2751;7.1289;
617.7000;0.2719;7.1124;
618.0000;0.2751;7.1147;
618.3000;0.2711;7.1100;
618.6000;0.2735;7.1147;
618.9000;0.2711;7.1006;
619.2000;0.2662;7.0935;
619.5000;0.2719;7.1053;
619.8000;0.2702;7.1053;
620.1000;0.2702;7.1076;
620.4000;0.2702;7.1076;
620.7000;0.2702;7.1076;
621.0000;0.2686;7.1076;
621.3000;0.2702;7.1171;
621.6000;0.2711;7.1171;
621.9000;0.2686;7.1053;
622.2000;0.2678;7.0982;
622.5000;0.2678;7.1006;
622.8000;0.2646;7.0982;
623.1000;0.2670;7.1006;
623.4000;0.2662;7.1100;
623.7000;0.2670;7.1029;
624.0000;0.2662;7.1100;
624.3000;0.2637;7.1147;
624.6000;0.2621;7.1100;
624.9000;0.2605;7.1100;
625.2000;0.2629;7.1147;
625.5000;0.2637;7.1266;
625.8000;0.2678;7.1336;
626.1000;0.2637;7.1266;
626.4000;0.2597;7.1171;
626.7000;0.2613;7.1313;
627.0000;0.2621;7.1384;
627.3000;0.2621;7.1242;
627.6000;0.2605;7.1218;
627.9000;0.2605;7.1195;
628.2000;0.2597;7.1124;
628.5000;0.2597;7.1242;
628.8000;0.2580;7.1053;
629.1000;0.2564;7.1029;
629.4000;0.2580;7.1171;
629.7000;0.2572;7.1171;
630.0000;0.2540;7.1053;
630.3000;0.2548;7.0982;
630.6000;0.2572;7.1029;
630.9000;0.2540;7.0958;
631.2000;0.2613;7.1076;
631.5000;0.2580;7.0958;
631.8000;0.2466;7.0675;
632.1000;0.2548;7.0840;
632.4000;0.2548;7.0793;
632.7000;0.2580;7.0911;
633.0000;0.2548;7.0887;
633.3000;0.2548;7.0887;
633.6000;0.2532;7.0887;
633.9000;0.2572;7.1029;
634.2000;0.2540;7.0935;
634.5000;0.2532;7.0840;
634.8000;0.2532;7.0769;
635.1000;0.2532;7.0722;
635.4000;0.2580;7.0887;
635.7000;0.2540;7.0793;
636.0000;0.2532;7.0793;
636.3000;0.2507;7.0675;
636.6000;0.2491;7.0627;
636.9000;0.2499;7.0675;
637.2000;0.2523;7.0746;
637.5000;0.2507;7.0816;
637.8000;0.2491;7.0793;
638.1000;0.2491;7.0746;
638.4000;0.2483;7.0675;
638.7000;0.2475;7.0651;
639.0000;0.2475;7.0698;
639.3000;0.2458;7.0698;
639.6000;0.2475;7.0651;
639.9000;0.2483;7.0580;
640.2000;0.2466;7.0627;
640.5000;0.2483;7.0698;
640.8000;0.2483;7.0722;
641.1000;0.2450;7.0698;
641.4000;0.2483;7.0722;
641.7000;0.2450;7.0722;
642.0000;0.2466;7.0769;
642.3000;0.2458;7.0722;
642.6000;0.2434;7.0698;
642.9000;0.2434;7.0698;
643.2000;0.2466;7.0675;
643.5000;0.2466;7.0604;
643.8000;0.2434;7.0533;
644.1000;0.2434;7.0556;
644.4000;0.2434;7.0604;
644.7000;0.2458;7.0675;
645.0000;0.2418;7.0533;
645.3000;0.2458;7.0556;
645.6000;0.2426;7.0438;
645.9000;0.2442;7.0580;
646.2000;0.2442;7.0604;
646.5000;0.2434;7.0580;
646.8000;0.2409;7.0486;
647.1000;0.2434;7.0533;
647.4000;0.2401;7.0533;
647.7000;0.2466;7.0675;
648.0000;0.2418;7.0604;
648.3000;0.2336;7.0533;
648.6000;0.2385;7.0675;
648.9000;0.2409;7.0746;
649.2000;0.2409;7.0722;
649.5000;0.2361;7.0580;
649.8000;0.2418;7.0627;
650.1000;0.2401;7.0580;
650.4000;0.2385;7.0509;
650.7000;0.2336;7.0391;
651.0000;0.2418;7.0651;
651.3000;0.2434;7.0698;
651.6000;0.2393;7.0627;
651.9000;0.2393;7.0580;
652.2000;0.2369;7.0533;
652.5000;0.2401;7.0651;
652.8000;0.2361;7.0580;
653.1000;0.2377;7.0627;
653.4000;0.2304;7.0486;
653.7000;0.2426;7.0769;
654.0000;0.2377;7.0675;
654.3000;0.2369;7.0698;
654.6000;0.2352;7.0675;
654.9000;0.2361;7.0698;
655.2000;0.2385;7.0769;
655.5000;0.2352;7.0769;
655.8000;0.2385;7.0816;
656.1000;0.2409;7.0816;
656.4000;0.2401;7.0793;
656.7000;0.2369;7.0722;
657.0000;0.2361;7.0627;
657.3000;0.2377;7.0675;
657.6000;0.2369;7.0627;
657.9000;0.2361;7.0533;
658.2000;0.2344;7.0580;
658.5000;0.2352;7.0604;
658.8000;0.2328;7.0580;
659.1000;0.2401;7.0746;
659.4000;0.2320;7.0627;
659.7000;0.2352;7.0793;
660.0000;0.2352;7.0746;
660.3000;0.2336;7.0698;
660.6000;0.2320;7.0627;
660.9000;0.2328;7.0698;
661.2000;0.2328;7.0675;
661.5000;0.2336;7.0746;
661.8000;0.2344;7.0746;
662.1000;0.2287;7.0675;
662.4000;0.2336;7.0769;
662.7000;0.2328;7.0793;
663.0000;0.2312;7.0746;
663.3000;0.2320;7.0722;
663.6000;0.2328;7.0769;
663.9000;0.2304;7.0746;
664.2000;0.2409;7.1029;
664.5000;0.2304;7.0651;
664.8000;0.2320;7.0533;
665.1000;0.2328;7.0438;
665.4000;0.2328;7.0438;
665.7000;0.2320;7.0415;
666.0000;0.2320;7.0509;
666.3000;0.2295;7.0367;
666.6000;0.2312;7.0486;
666.9000;0.2304;7.0486;
667.2000;0.2320;7.0486;
667.5000;0.2352;7.0533;
667.8000;0.2328;7.0509;
668.1000;0.2295;7.0438;
668.4000;0.2287;7.0391;
668.7000;0.2312;7.0533;
669.0000;0.2295;7.0556;
669.3000;0.2287;7.0509;
669.6000;0.2295;7.0509;
669.9000;0.2304;7.0486;
670.2000;0.2304;7.0415;
670.5000;0.2312;7.0438;
670.8000;0.2304;7.0391;
671.1000;0.2304;7.0296;
671.4000;0.2312;7.0344;
671.7000;0.2304;7.0249;
672.0000;0.2279;7.0202;
672.3000;0.2295;7.0320;
672.6000;0.2336;7.0533;
672.9000;0.2287;7.0438;
673.2000;0.2287;7.0509;
673.5000;0.2336;7.0675;
673.8000;0.2279;7.0509;
674.1000;0.2304;7.0627;
674.4000;0.2304;7.0698;
674.7000;0.2279;7.0793;
675.0000;0.2279;7.0793;
675.3000;0.2271;7.0746;
675.6000;0.2304;7.0793;
675.9000;0.2279;7.0746;
676.2000;0.2287;7.0722;
676.5000;0.2295;7.0651;
676.8000;0.2279;7.0627;
677.1000;0.2304;7.0722;
677.4000;0.2287;7.0627;
677.7000;0.2247;7.0627;
678.0000;0.2279;7.0675;
678.3000;0.2279;7.0698;
678.6000;0.2304;7.0746;
678.9000;0.2279;7.0746;
679.2000;0.2279;7.0651;
679.5000;0.2271;7.0627;
679.8000;0.2279;7.0651;
680.1000;0.2214;7.0533;
680.4000;0.2279;7.0604;
680.7000;0.2263;7.0675;
681.0000;0.2279;7.0651;
681.3000;0.2230;7.0580;
681.6000;0.2279;7.0769;
681.9000;0.2263;7.0793;
682.2000;0.2247;7.0840;
682.5000;0.2263;7.0864;
682.8000;0.2255;7.0816;
683.1000;0.2255;7.0769;
683.4000;0.2239;7.0627;
683.7000;0.2239;7.0651;
684.0000;0.2263;7.0840;
684.3000;0.2271;7.0911;
684.6000;0.2222;7.0864;
684.9000;0.2222;7.0769;
685.2000;0.2247;7.0840;
685.5000;0.2255;7.0840;
685.8000;0.2255;7.0793;
686.1000;0.2247;7.0816;
686.4000;0.2230;7.0816;
686.7000;0.2247;7.0722;
687.0000;0.2222;7.0556;
687.3000;0.2255;7.0627;
687.6000;0.2239;7.0627;
687.9000;0.2247;7.0627;
688.2000;0.2320;7.0840;
688.5000;0.2230;7.0509;
688.8000;0.2239;7.0462;
689.1000;0.2239;7.0533;
689.4000;0.2230;7.0651;
689.7000;0.2230;7.0698;
690.0000;0.2255;7.0769;
690.3000;0.2222;7.0722;
690.6000;0.2247;7.0746;
690.9000;0.2239;7.0698;
691.2000;0.2239;7.0698;
691.5000;0.2222;7.0698;
691.8000;0.2263;7.0769;
692.1000;0.2247;7.0769;
692.4000;0.2214;7.0722;
692.7000;0.2222;7.0746;
693.0000;0.2230;7.0698;
693.3000;0.2230;7.0651;
693.6000;0.2222;7.0698;
693.9000;0.2222;7.0722;
694.2000;0.2222;7.0746;
694.5000;0.2222;7.0769;
694.8000;0.2230;7.0722;
695.1000;0.2239;7.0722;
695.4000;0.2247;7.0816;
695.7000;0.2271;7.0864;
696.0000;0.2222;7.0793;
696.3000;0.2198;7.0793;
696.6000;0.2173;7.0746;
696.9000;0.2222;7.0840;
697.2000;0.2214;7.0840;
697.5000;0.2206;7.0840;
697.8000;0.2206;7.0769;
698.1000;0.2312;7.1053;
698.4000;0.2222;7.0746;
698.7000;0.2206;7.0769;
699.0000;0.2214;7.0769;
699.3000;0.2173;7.0793;
699.6000;0.2222;7.0958;
699.9000;0.2222;7.1006;
700.2000;0.2222;7.0864;
700.5000;0.2214;7.0864;
700.8000;0.2214;7.0769;
701.1000;0.2198;7.0698;
701.4000;0.2206;7.0675;
701.7000;0.2222;7.0675;
702.0000;0.2214;7.0604;
702.3000;0.2206;7.0533;
702.6000;0.2198;7.0509;
702.9000;0.2116;7.0344;
703.2000;0.2182;7.0391;
703.5000;0.2222;7.0651;
703.8000;0.2206;7.0627;
704.1000;0.2092;7.0273;
704.4000;0.2198;7.0580;
704.7000;0.2190;7.0627;
705.0000;0.2206;7.0627;
705.3000;0.2157;7.0486;
705.6000;0.2125;7.0438;
705.9000;0.2222;7.0651;
706.2000;0.2214;7.0698;
706.5000;0.2214;7.0769;
706.8000;0.2279;7.1006;
707.1000;0.2230;7.0864;
707.4000;0.2206;7.0840;
707.7000;0.2190;7.0746;
708.0000;0.2198;7.0675;
708.3000;0.2214;7.0675;
708.6000;0.2190;7.0604;
708.9000;0.2182;7.0698;
709.2000;0.2165;7.0627;
709.5000;0.2295;7.0958;
709.8000;0.2198;7.0722;
710.1000;0.2206;7.0746;
710.4000;0.2182;7.0793;
710.7000;0.2206;7.0864;
711.0000;0.2214;7.0840;
711.3000;0.2206;7.0816;
711.6000;0.2190;7.0746;
711.9000;0.2214;7.0793;
712.2000;0.2206;7.0793;
712.5000;0.2206;7.0769;
712.8000;0.2206;7.0746;
713.1000;0.2198;7.0698;
713.4000;0.2182;7.0698;
713.7000;0.2198;7.0722;
714.0000;0.2198;7.0698;
714.3000;0.2271;7.0887;
714.6000;0.2182;7.0651;
714.9000;0.2173;7.0627;
715.2000;0.2247;7.0816;
715.5000;0.2190;7.0675;
715.8000;0.2198;7.0722;
716.1000;0.2182;7.0769;
716.4000;0.2182;7.0840;
716.7000;0.2173;7.0769;
717.0000;0.2182;7.0793;
717.3000;0.2149;7.0675;
717.6000;0.2182;7.0746;
717.9000;0.2157;7.0675;
718.2000;0.2165;7.0604;
718.5000;0.2157;7.0580;
718.8000;0.2182;7.0604;
719.1000;0.2190;7.0651;
719.4000;0.2173;7.0675;
719.7000;0.2173;7.0533;
720.0000;0.2198;7.0533;
720.3000;0.2165;7.0391;
720.6000;0.2157;7.0391;
720.9000;0.2214;7.0580;
721.2000;0.2239;7.0604;
721.5000;0.2222;7.0604;
721.8000;0.2222;7.0651;
722.1000;0.2190;7.0627;
722.4000;0.2173;7.0651;
722.7000;0.2173;7.0580;
723.0000;0.2157;7.0651;
723.3000;0.2173;7.0722;
723.6000;0.2182;7.0746;
723.9000;0.2141;7.0769;
724.2000;0.2141;7.0746;
724.5000;0.2165;7.0698;
724.8000;0.2206;7.0746;
725.1000;0.2173;7.0722;
725.4000;0.2173;7.0722;
725.7000;0.2157;7.0627;
726.0000;0.2190;7.0722;
726.3000;0.2157;7.0769;
726.6000;0.2239;7.0958;
726.9000;0.2173;7.0651;
727.2000;0.2182;7.0627;
727.5000;0.2198;7.0698;
727.8000;0.2157;7.0651;
728.1000;0.2141;7.0675;
728.4000;0.2222;7.0840;
728.7000;0.2173;7.0746;
729.0000;0.2173;7.0746;
729.3000;0.2182;7.0698;
729.6000;0.2157;7.0604;
729.9000;0.2173;7.0722;
730.2000;0.2239;7.0816;
730.5000;0.2165;7.0651;
730.8000;0.2149;7.0627;
731.1000;0.2198;7.0722;
731.4000;0.2141;7.0675;
731.7000;0.2149;7.0769;
732.0000;0.2092;7.0556;
732.3000;0.2165;7.0675;
732.6000;0.2165;7.0580;
732.9000;0.2157;7.0604;
733.2000;0.2149;7.0580;
733.5000;0.2230;7.0746;
733.8000;0.2149;7.0604;
734.1000;0.2149;7.0533;
734.4000;0.2173;7.0627;
734.7000;0.2165;7.0556;
735.0000;0.2149;7.0604;
735.3000;0.2141;7.0722;
735.6000;0.2133;7.0722;
735.9000;0.2173;7.0746;
736.2000;0.2141;7.0651;
736.5000;0.2173;7.0675;
736.8000;0.2141;7.0651;
737.1000;0.2157;7.0722;
737.4000;0.2157;7.0722;
737.7000;0.2157;7.0580;
738.0000;0.2165;7.0675;
738.3000;0.2141;7.0651;
738.6000;0.2125;7.0556;
738.9000;0.2149;7.0556;
739.2000;0.2133;7.0509;
739.5000;0.2133;7.0509;
739.8000;0.2125;7.0438;
740.1000;0.2141;7.0533;
740.4000;0.2100;7.0438;
740.7000;0.2165;7.0627;
741.0000;0.2141;7.0580;
741.3000;0.2263;7.0887;
741.6000;0.2165;7.0722;
741.9000;0.2141;7.0722;
742.2000;0.2141;7.0746;
742.5000;0.2173;7.0864;
742.8000;0.2149;7.0816;
743.1000;0.2133;7.0769;
743.4000;0.2133;7.0816;
743.7000;0.2133;7.0746;
744.0000;0.2125;7.0793;
744.3000;0.2157;7.0911;
744.6000;0.2165;7.0911;
744.9000;0.2141;7.0864;
745.2000;0.2165;7.0911;
745.5000;0.2157;7.0958;
745.8000;0.2190;7.0911;
746.1000;0.2141;7.0769;
746.4000;0.2141;7.0769;
746.7000;0.2149;7.0769;
747.0000;0.2141;7.0698;
747.3000;0.2133;7.0746;
747.6000;0.2165;7.0864;
747.9000;0.2141;7.0722;
748.2000;0.2125;7.0816;
748.5000;0.2125;7.0887;
748.8000;0.2141;7.0887;
749.1000;0.2149;7.0935;
749.4000;0.2173;7.0911;
749.7000;0.2149;7.0864;
750.0000;0.2125;7.0911;
750.3000;0.2084;7.0675;
750.6000;0.2173;7.0887;
750.9000;0.2133;7.0793;
751.2000;0.2100;7.0746;
751.5000;0.2100;7.0746;
751.8000;0.2157;7.0935;
752.1000;0.2165;7.0911;
752.4000;0.2068;7.0627;
752.7000;0.2133;7.0722;
753.0000;0.2141;7.0840;
753.3000;0.2133;7.0935;
753.6000;0.2173;7.1006;
753.9000;0.2149;7.0958;
754.2000;0.2198;7.1029;
754.5000;0.2141;7.0935;
754.8000;0.2116;7.0769;
755.1000;0.2157;7.0911;
755.4000;0.2141;7.0864;
755.7000;0.2149;7.0816;
756.0000;0.2076;7.0580;
756.3000;0.2141;7.0698;
756.6000;0.2116;7.0651;
756.9000;0.2125;7.0675;
757.2000;0.2084;7.0604;
757.5000;0.2116;7.0722;
757.8000;0.2182;7.0982;
758.1000;0.2141;7.0840;
758.4000;0.2108;7.0769;
758.7000;0.2125;7.0816;
759.0000;0.2133;7.0793;
759.3000;0.2133;7.0746;
759.6000;0.2141;7.0746;
759.9000;0.2100;7.0651;
760.2000;0.2125;7.0793;
760.5000;0.2116;7.0769;
760.8000;0.2125;7.0793;
761.1000;0.2125;7.0651;
761.4000;0.2141;7.0651;
761.7000;0.2108;7.0509;
762.0000;0.2116;7.0556;
762.3000;0.2133;7.0722;
762.6000;0.2125;7.0651;
762.9000;0.2157;7.0698;
763.2000;0.2125;7.0675;
763.5000;0.2125;7.0793;
763.8000;0.2125;7.0769;
764.1000;0.2149;7.0793;
764.4000;0.2084;7.0698;
764.7000;0.2108;7.0769;
765.0000;0.2108;7.0887;
765.3000;0.2108;7.0935;
765.6000;0.2092;7.0911;
765.9000;0.2100;7.0982;
766.2000;0.2100;7.0958;
766.5000;0.2116;7.0982;
766.8000;0.2125;7.1053;
767.1000;0.2125;7.1006;
767.4000;0.2002;7.0722;
767.7000;0.2100;7.0935;
768.0000;0.2116;7.0864;
768.3000;0.2059;7.0698;
768.6000;0.2116;7.0769;
768.9000;0.2108;7.0816;
769.2000;0.2165;7.0982;
769.5000;0.2149;7.0911;
769.8000;0.2100;7.0935;
770.1000;0.2092;7.0887;
770.4000;0.2100;7.0958;
770.7000;0.2092;7.0864;
771.0000;0.2108;7.0864;
771.3000;0.2116;7.0793;
771.6000;0.2116;7.0840;
771.9000;0.2100;7.0722;
772.2000;0.2100;7.0675;
772.5000;0.2116;7.0675;
772.8000;0.2108;7.0746;
773.1000;0.2149;7.0816;
773.4000;0.2116;7.0722;
773.7000;0.2076;7.0722;
774.0000;0.2100;7.0887;
774.3000;0.2092;7.0935;
774.6000;0.2100;7.1006;
774.9000;0.2092;7.0911;
775.2000;0.2100;7.0958;
775.5000;0.2116;7.1053;
775.8000;0.2116;7.1053;
776.1000;0.2182;7.1266;
776.4000;0.2092;7.1006;
776.7000;0.2100;7.1076;
777.0000;0.2108;7.1195;
777.3000;0.2076;7.1053;
777.6000;0.2076;7.1076;
777.9000;0.2116;7.1029;
778.2000;0.2092;7.1053;
778.5000;0.2116;7.1100;
778.8000;0.2092;7.1076;
779.1000;0.2100;7.1076;
779.4000;0.2108;7.1100;
779.7000;0.2100;7.1053;
780.0000;0.2108;7.1124;
780.3000;0.2076;7.1029;
780.6000;0.2100;7.1100;
780.9000;0.2108;7.1195;
781.2000;0.2108;7.1100;
781.5000;0.2116;7.1006;
781.8000;0.2108;7.1029;
782.1000;0.2141;7.1124;
782.4000;0.2116;7.0958;
782.7000;0.2100;7.0840;
783.0000;0.2108;7.0746;
783.3000;0.2141;7.0887;
783.6000;0.2133;7.0982;
783.9000;0.2100;7.0887;
784.2000;0.2068;7.0864;
784.5000;0.2092;7.0982;
784.8000;0.1986;7.0627;
785.1000;0.2100;7.0935;
785.4000;0.2108;7.1006;
785.7000;0.2133;7.1006;
786.0000;0.2125;7.1006;
786.3000;0.2108;7.0935;
786.6000;0.2051;7.0816;
786.9000;0.2100;7.1006;
787.2000;0.2190;7.1242;
787.5000;0.2068;7.1029;
787.8000;0.2092;7.1171;
788.1000;0.2076;7.1100;
788.4000;0.2051;7.1053;
788.7000;0.2116;7.1266;
789.0000;0.2100;7.1242;
789.3000;0.2108;7.1218;
789.6000;0.2133;7.1242;
789.9000;0.2100;7.1124;
790.2000;0.2149;7.1218;
790.5000;0.2092;7.1124;
790.8000;0.2133;7.1195;
791.1000;0.2133;7.1147;
791.4000;0.2116;7.1218;
791.7000;0.2092;7.1006;
792.0000;0.2100;7.1076;
792.3000;0.2100;7.1029;
792.6000;0.2100;7.0958;
792.9000;0.2011;7.0651;
793.2000;0.2019;7.0698;
793.5000;0.2125;7.0982;
793.8000;0.2116;7.0864;
794.1000;0.2108;7.0958;
794.4000;0.2100;7.1100;
794.7000;0.2084;7.1006;
795.0000;0.2043;7.0887;
795.3000;0.2068;7.0958;
795.6000;0.2092;7.1053;
795.9000;0.2084;7.1029;
796.2000;0.2019;7.0911;
796.5000;0.2092;7.1076;
796.8000;0.2100;7.1124;
797.1000;0.2076;7.1076;
797.4000;0.2108;7.1124;
797.7000;0.2116;7.1171;
798.0000;0.2100;7.1242;
798.3000;0.2100;7.1313;
798.6000;0.2116;7.1289;
798.9000;0.2108;7.1195;
799.2000;0.2092;7.1195;
799.5000;0.2092;7.1242;
799.8000;0.2092;7.1242;
800.1000;0.2092;7.1218;
800.4000;0.2100;7.1218;
800.7000;0.2092;7.1195;
801.0000;0.2068;7.1171;
801.3000;0.2100;7.1124;
801.6000;0.2100;7.1029;
801.9000;0.2092;7.1076;
802.2000;0.2141;7.1100;
802.5000;0.2116;7.1053;
802.8000;0.2092;7.0958;
803.1000;0.2100;7.1006;
803.4000;0.2165;7.1218;
803.7000;0.2092;7.1124;
804.0000;0.2092;7.1171;
804.3000;0.2108;7.1218;
804.6000;0.2092;7.1171;
804.9000;0.2076;7.1266;
805.2000;0.2068;7.1313;
805.5000;0.2116;7.1384;
805.8000;0.2084;7.1242;
806.1000;0.2092;7.1171;
806.4000;0.2108;7.1218;
806.7000;0.2084;7.1171;
807.0000;0.2092;7.1266;
807.3000;0.2076;7.1266;
807.6000;0.2100;7.1336;
807.9000;0.2100;7.1313;
808.2000;0.2076;7.1242;
808.5000;0.2092;7.1266;
808.8000;0.2108;7.1266;
809.1000;0.2068;7.1147;
809.4000;0.2182;7.1431;
809.7000;0.2051;7.1100;
810.0000;0.2108;7.1195;
810.3000;0.2084;7.1124;
810.6000;0.2076;7.1053;
810.9000;0.2092;7.1029;
811.2000;0.2084;7.1076;
811.5000;0.2108;7.1195;
811.8000;0.2076;7.1195;
812.1000;0.2068;7.1171;
812.4000;0.2059;7.1147;
812.7000;0.2092;7.1289;
813.0000;0.2092;7.1313;
813.3000;0.2100;7.1195;
813.6000;0.2084;7.1029;
813.9000;0.2076;7.1076;
814.2000;0.2076;7.1076;
814.5000;0.2084;7.0958;
814.8000;0.2084;7.0935;
815.1000;0.2076;7.0816;
815.4000;0.2076;7.0793;
815.7000;0.2068;7.0840;
816.0000;0.2141;7.1100;
816.3000;0.2059;7.1006;
816.6000;0.2076;7.1171;
816.9000;0.2068;7.1266;
817.2000;0.2068;7.1242;
817.5000;0.2068;7.1313;
817.8000;0.2076;7.1336;
818.1000;0.2035;7.1171;
818.4000;0.2084;7.1289;
818.7000;0.2100;7.1218;
819.0000;0.2100;7.1242;
819.3000;0.2035;7.1195;
819.6000;0.2100;7.1478;
819.9000;0.2084;7.1455;
820.2000;0.2092;7.1455;
820.5000;0.2076;7.1478;
820.8000;0.2051;7.1266;
821.1000;0.2076;7.1218;
821.4000;0.2068;7.1147;
821.7000;0.2084;7.1171;
822.0000;0.2084;7.1171;
822.3000;0.2019;7.1006;
822.6000;0.2076;7.1195;
822.9000;0.2084;7.1147;
823.2000;0.2076;7.1100;
823.5000;0.2068;7.1029;
823.8000;0.2141;7.1242;
824.1000;0.2092;7.1171;
824.4000;0.2116;7.1147;
824.7000;0.2133;7.1171;
825.0000;0.1978;7.0864;
825.3000;0.2051;7.1006;
825.6000;0.2100;7.1029;
825.9000;0.2076;7.0958;
826.2000;0.2043;7.1006;
826.5000;0.2100;7.1195;
826.8000;0.2076;7.1171;
827.1000;0.2068;7.1147;
827.4000;0.2100;7.1266;
827.7000;0.2051;7.1124;
828.0000;0.2076;7.1218;
828.3000;0.2173;7.1455;
828.6000;0.2043;7.1218;
828.9000;0.2076;7.1218;
829.2000;0.2011;7.1147;
829.5000;0.2076;7.1195;
829.8000;0.2059;7.1218;
830.1000;0.2068;7.1242;
830.4000;0.2084;7.1289;
830.7000;0.2076;7.1266;
831.0000;0.2076;7.1266;
831.3000;0.2068;7.1336;
831.6000;0.2092;7.1336;
831.9000;0.2084;7.1289;
832.2000;0.2092;7.1336;
832.5000;0.2059;7.1313;
832.8000;0.2125;7.1384;
833.1000;0.2076;7.1289;
833.4000;0.2108;7.1289;
833.7000;0.2076;7.1195;
834.0000;0.2068;7.1171;
834.3000;0.2059;7.1147;
834.6000;0.2035;7.1053;
834.9000;0.2051;7.1171;
835.2000;0.2068;7.1266;
835.5000;0.2165;7.1526;
835.8000;0.2051;7.1242;
836.1000;0.2051;7.1266;
836.4000;0.2051;7.1266;
836.7000;0.2051;7.1360;
837.0000;0.2084;7.1431;
837.3000;0.2068;7.1407;
837.6000;0.2043;7.1384;
837.9000;0.2059;7.1478;
838.2000;0.2133;7.1620;
838.5000;0.2076;7.1478;
838.8000;0.2076;7.1384;
839.1000;0.2076;7.1313;
839.4000;0.2076;7.1266;
839.7000;0.2092;7.1266;
840.0000;0.2092;7.1289;
840.3000;0.2076;7.1242;
840.6000;0.2068;7.1195;
840.9000;0.2068;7.1218;
841.2000;0.2059;7.1171;
841.5000;0.2068;7.1100;
841.8000;0.2043;7.1242;
842.1000;0.2173;7.1596;
842.4000;0.2068;7.1336;
842.7000;0.2059;7.1360;
843.0000;0.2051;7.1289;
843.3000;0.2108;7.1478;
843.6000;0.2068;7.1431;
843.9000;0.2092;7.1431;
844.2000;0.2100;7.1407;
844.5000;0.2076;7.1360;
844.8000;0.2043;7.1242;
845.1000;0.2084;7.1360;
845.4000;0.2059;7.1336;
845.7000;0.1945;7.1124;
846.0000;0.2068;7.1384;
846.3000;0.2059;7.1407;
846.6000;0.2084;7.1360;
846.9000;0.2051;7.1266;
847.2000;0.2051;7.1313;
847.5000;0.2076;7.1360;
847.8000;0.2068;7.1336;
848.1000;0.2059;7.1360;
848.4000;0.2092;7.1431;
848.7000;0.2076;7.1407;
849.0000;0.2068;7.1266;
849.3000;0.2084;7.1336;
849.6000;0.2059;7.1218;
849.9000;0.2059;7.1195;
850.2000;0.2076;7.1218;
850.5000;0.2043;7.1147;
850.8000;0.2059;7.1171;
851.1000;0.2059;7.1218;
851.4000;0.2027;7.1171;
851.7000;0.2035;7.1289;
852.0000;0.2076;7.1336;
852.3000;0.2002;7.1218;
852.6000;0.2068;7.1360;
852.9000;0.2100;7.1384;
853.2000;0.2051;7.1336;
853.5000;0.1978;7.1147;
853.8000;0.2068;7.1431;
854.1000;0.2035;7.1360;
854.4000;0.1962;7.1124;
854.7000;0.2084;7.1360;
855.0000;0.1978;7.1171;
855.3000;0.2043;7.1336;
855.6000;0.2059;7.1407;
855.9000;0.2051;7.1313;
856.2000;0.2084;7.1336;
856.5000;0.2100;7.1384;
856.8000;0.2051;7.1360;
857.1000;0.2043;7.1336;
857.4000;0.2043;7.1455;
857.7000;0.2043;7.1431;
858.0000;0.2027;7.1431;
858.3000;0.2051;7.1502;
858.6000;0.2068;7.1526;
858.9000;0.2011;7.1360;
859.2000;0.2027;7.1455;
859.5000;0.2059;7.1502;
859.8000;0.2011;7.1384;
860.1000;0.2043;7.1502;
860.4000;0.2059;7.1502;
860.7000;0.2092;7.1620;
861.0000;0.2068;7.1573;
861.3000;0.2051;7.1549;
861.6000;0.2051;7.1549;
861.9000;0.2125;7.1691;
862.2000;0.2100;7.1573;
862.5000;0.2068;7.1478;
862.8000;0.2076;7.1502;
863.1000;0.2108;7.1573;
863.4000;0.2059;7.1502;
863.7000;0.2068;7.1620;
864.0000;0.2076;7.1573;
864.3000;0.2043;7.1502;
864.6000;0.2051;7.1431;
864.9000;0.2125;7.1549;
865.2000;0.2059;7.1360;
865.5000;0.2076;7.1336;
865.8000;0.2035;7.1336;
866.1000;0.2019;7.1336;
866.4000;0.2051;7.1313;
866.7000;0.2051;7.1384;
867.0000;0.2051;7.1384;
867.3000;0.2059;7.1384;
867.6000;0.2059;7.1455;
867.9000;0.2011;7.1407;
868.2000;0.2019;7.1478;
868.5000;0.2059;7.1667;
868.8000;0.2051;7.1715;
869.1000;0.1986;7.1573;
869.4000;0.2068;7.1667;
869.7000;0.2043;7.1644;
870.0000;0.2059;7.1667;
870.3000;0.2068;7.1715;
870.6000;0.2051;7.1644;
870.9000;0.2027;7.1526;
871.2000;0.2076;7.1644;
871.5000;0.2035;7.1455;
871.8000;0.2043;7.1502;
872.1000;0.2035;7.1478;
872.4000;0.2076;7.1502;
872.7000;0.2051;7.1620;
873.0000;0.2068;7.1620;
873.3000;0.2068;7.1667;
873.6000;0.2051;7.1667;
873.9000;0.2076;7.1715;
874.2000;0.2068;7.1691;
874.5000;0.2076;7.1667;
874.8000;0.2027;7.1644;
875.1000;0.2076;7.1715;
875.4000;0.2068;7.1691;
875.7000;0.2027;7.1596;
876.0000;0.2035;7.1596;
876.3000;0.2092;7.1786;
876.6000;0.2059;7.1667;
876.9000;0.2019;7.1526;
877.2000;0.2108;7.1596;
877.5000;0.2027;7.1502;
877.8000;0.2011;7.1384;
878.1000;0.2068;7.1526;
878.4000;0.2076;7.1596;
878.7000;0.2035;7.1573;
879.0000;0.2059;7.1596;
879.3000;0.2035;7.1549;
879.6000;0.2035;7.1549;
879.9000;0.2068;7.1573;
880.2000;0.2084;7.1620;
880.5000;0.2002;7.1384;
880.8000;0.2035;7.1502;
881.1000;0.2035;7.1573;
881.4000;0.2059;7.1620;
881.7000;0.2051;7.1667;
882.0000;0.2051;7.1620;
882.3000;0.2035;7.1549;
882.6000;0.2051;7.1526;
882.9000;0.2035;7.1549;
883.2000;0.2035;7.1596;
883.5000;0.2035;7.1620;
883.8000;0.2035;7.1715;
884.1000;0.2027;7.1667;
884.4000;0.2019;7.1691;
884.7000;0.2076;7.1856;
885.0000;0.2068;7.1856;
885.3000;0.1994;7.1667;
885.6000;0.2068;7.1762;
885.9000;0.2059;7.1715;
886.2000;0.2051;7.1620;
886.5000;0.2043;7.1644;
886.8000;0.2011;7.1431;
887.1000;0.2051;7.1573;
887.4000;0.2043;7.1478;
887.7000;0.2043;7.1431;
888.0000;0.2035;7.1502;
888.3000;0.2051;7.1526;
888.6000;0.2019;7.1549;
888.9000;0.2035;7.1596;
889.2000;0.2051;7.1691;
889.5000;0.2043;7.1715;
889.8000;0.2011;7.1667;
890.1000;0.2059;7.1856;
890.4000;0.2059;7.1856;
890.7000;0.2027;7.1762;
891.0000;0.2027;7.1856;
891.3000;0.2002;7.1786;
891.6000;0.2043;7.1715;
891.9000;0.2051;7.1691;
892.2000;0.2043;7.1691;
892.5000;0.2051;7.1691;
892.8000;0.2059;7.1762;
893.1000;0.2035;7.1691;
893.4000;0.2035;7.1715;
893.7000;0.2051;7.1691;
894.0000;0.2035;7.1644;
894.3000;0.2019;7.1549;
894.6000;0.2068;7.1691;
894.9000;0.2035;7.1596;
895.2000;0.2051;7.1596;
895.5000;0.2043;7.1526;
895.8000;0.2051;7.1620;
896.1000;0.2051;7.1620;
896.4000;0.2027;7.1573;
896.7000;0.2035;7.1620;
897.0000;0.2027;7.1620;
897.3000;0.2035;7.1738;
897.6000;0.2043;7.1762;
897.9000;0.2051;7.1762;
898.2000;0.2035;7.1762;
898.5000;0.2043;7.1927;
898.8000;0.2059;7.2046;
899.1000;0.2027;7.2022;
899.4000;0.1921;7.1620;
899.7000;0.2059;7.1833;
900.0000;0.2027;7.1738;
900.3000;0.2051;7.1809;
900.6000;0.2043;7.1762;
900.9000;0.2027;7.1644;
901.2000;0.2035;7.1596;
901.5000;0.2019;7.1549;
901.8000;0.2043;7.1549;
902.1000;0.2035;7.1384;
902.4000;0.2011;7.1336;
902.7000;0.2027;7.1384;
903.0000;0.2051;7.1431;
903.3000;0.2043;7.1455;
903.6000;0.2027;7.1455;
903.9000;0.2035;7.1455;
904.2000;0.2035;7.1478;
904.5000;0.2035;7.1573;
904.8000;0.2051;7.1644;
905.1000;0.2051;7.1691;
905.4000;0.2043;7.1596;
905.7000;0.2059;7.1573;
906.0000;0.2059;7.1644;
906.3000;0.2019;7.1715;
906.6000;0.2011;7.1644;
906.9000;0.2027;7.1644;
907.2000;0.2051;7.1620;
907.5000;0.2002;7.1502;
907.8000;0.2043;7.1526;
908.1000;0.2027;7.1526;
908.4000;0.2059;7.1526;
908.7000;0.2051;7.1549;
909.0000;0.2068;7.1620;
909.3000;0.2043;7.1691;
909.6000;0.2043;7.1691;
909.9000;0.2035;7.1644;
910.2000;0.2125;7.1880;
910.5000;0.2035;7.1667;
910.8000;0.2051;7.1738;
911.1000;0.2011;7.1644;
911.4000;0.2035;7.1691;
911.7000;0.2051;7.1620;
912.0000;0.2035;7.1526;
912.3000;0.2019;7.1526;
912.6000;0.2019;7.1573;
912.9000;0.2019;7.1596;
913.2000;0.2035;7.1596;
913.5000;0.2027;7.1596;
913.8000;0.2084;7.1596;
914.1000;0.1986;7.1336;
914.4000;0.2011;7.1431;
914.7000;0.2019;7.1431;
915.0000;0.2027;7.1431;
915.3000;0.2059;7.1620;
915.6000;0.2027;7.1644;
915.9000;0.2027;7.1644;
916.2000;0.2011;7.1596;
916.5000;0.2059;7.1620;
916.8000;0.2027;7.1502;
917.1000;0.1970;7.1384;
917.4000;0.2019;7.1478;
917.7000;0.2035;7.1549;
918.0000;0.2027;7.1573;
918.3000;0.2051;7.1691;
918.6000;0.2019;7.1667;
918.9000;0.2027;7.1691;
919.2000;0.2027;7.1738;
919.5000;0.2011;7.1644;
919.8000;0.2043;7.1691;
920.1000;0.2035;7.1691;
920.4000;0.2027;7.1738;
920.7000;0.2019;7.1715;
921.0000;0.2019;7.1620;
921.3000;0.2002;7.1526;
921.6000;0.2019;7.1526;
921.9000;0.2035;7.1596;
922.2000;0.2092;7.1738;
922.5000;0.1962;7.1431;
922.8000;0.2027;7.1596;
923.1000;0.2027;7.1596;
923.4000;0.2035;7.1691;
923.7000;0.2035;7.1715;
924.0000;0.2027;7.1667;
924.3000;0.2051;7.1644;
924.6000;0.1986;7.1596;
924.9000;0.2059;7.1833;
925.2000;0.1978;7.1644;
925.5000;0.2019;7.1738;
925.8000;0.2035;7.1644;
926.1000;0.2068;7.1691;
926.4000;0.2043;7.1573;
926.7000;0.2027;7.1502;
927.0000;0.2019;7.1502;
927.3000;0.2019;7.1455;
927.6000;0.2068;7.1573;
927.9000;0.2043;7.1478;
928.2000;0.2019;7.1455;
928.5000;0.2084;7.1715;
928.8000;0.2059;7.1691;
929.1000;0.2076;7.1644;
929.4000;0.2027;7.1573;
929.7000;0.2051;7.1549;
930.0000;0.2027;7.1526;
930.3000;0.2027;7.1526;
930.6000;0.1994;7.1502;
930.9000;0.2002;7.1596;
931.2000;0.2027;7.1596;
931.5000;0.2076;7.1620;
931.8000;0.2051;7.1620;
932.1000;0.1978;7.1573;
932.4000;0.2027;7.1762;
932.7000;0.2002;7.1762;
933.0000;0.2011;7.1667;
933.3000;0.2027;7.1715;
933.6000;0.2019;7.1644;
933.9000;0.1856;7.1266;
934.2000;0.2035;7.1644;
934.5000;0.2027;7.1644;
934.8000;0.2051;7.1691;
935.1000;0.2068;7.1620;
935.4000;0.2002;7.1478;
935.7000;0.1978;7.1407;
936.0000;0.2027;7.1620;
936.3000;0.2059;7.1644;
936.6000;0.2011;7.1526;
936.9000;0.2035;7.1667;
937.2000;0.2011;7.1667;
937.5000;0.2035;7.1715;
937.8000;0.2076;7.1833;
938.1000;0.2051;7.1762;
938.4000;0.2027;7.1715;
938.7000;0.2011;7.1691;
939.0000;0.2035;7.1691;
939.3000;0.2076;7.1738;
939.6000;0.2002;7.1455;
939.9000;0.2035;7.1549;
940.2000;0.2035;7.1596;
940.5000;0.2035;7.1526;
940.8000;0.2035;7.1620;
941.1000;0.1929;7.1407;
941.4000;0.2043;7.1762;
941.7000;0.2019;7.1691;
942.0000;0.2027;7.1762;
942.3000;0.1986;7.1715;
942.6000;0.2011;7.1738;
942.9000;0.1994;7.1667;
943.2000;0.2002;7.1667;
943.5000;0.2027;7.1762;
943.8000;0.2019;7.1715;
944.1000;0.2019;7.1738;
944.4000;0.2084;7.1856;
944.7000;0.2043;7.1715;
945.0000;0.2027;7.1691;
945.3000;0.2035;7.1762;
945.6000;0.2019;7.1762;
945.9000;0.2035;7.1880;
946.2000;0.1970;7.1691;
946.5000;0.2035;7.1880;
946.8000;0.2019;7.1904;
947.1000;0.2035;7.1856;
947.4000;0.2027;7.1738;
947.7000;0.2011;7.1691;
948.0000;0.2011;7.1620;
948.3000;0.2027;7.1691;
948.6000;0.2011;7.1644;
948.9000;0.2043;7.1667;
949.2000;0.2011;7.1549;
949.5000;0.2019;7.1596;
949.8000;0.2035;7.1667;
950.1000;0.2019;7.1596;
950.4000;0.2019;7.1667;
950.7000;0.2011;7.1691;
951.0000;0.2035;7.1667;
951.3000;0.2043;7.1738;
951.6000;0.2100;7.1880;
951.9000;0.2027;7.1738;
952.2000;0.2002;7.1786;
952.5000;0.2116;7.2187;
952.8000;0.2027;7.1927;
953.1000;0.2019;7.1833;
953.4000;0.2019;7.1880;
953.7000;0.2019;7.1786;
954.0000;0.2019;7.1786;
954.3000;0.2035;7.1856;
954.6000;0.1986;7.1715;
954.9000;0.2019;7.1833;
955.2000;0.2035;7.1786;
955.5000;0.2043;7.1738;
955.8000;0.2068;7.1856;
956.1000;0.2051;7.1880;
956.4000;0.2051;7.1833;
956.7000;0.2092;7.1904;
957.0000;0.2035;7.1738;
957.3000;0.2019;7.1667;
957.6000;0.2043;7.1738;
957.9000;0.2043;7.1715;
958.2000;0.1970;7.1549;
958.5000;0.2011;7.1667;
958.8000;0.2043;7.1691;
959.1000;0.1978;7.1573;
959.4000;0.2035;7.1667;
959.7000;0.2035;7.1809;
960.0000;0.2043;7.1809;
960.3000;0.2035;7.1786;
960.6000;0.2035;7.1833;
960.9000;0.2027;7.1786;
961.2000;0.2019;7.1833;
961.5000;0.2035;7.1809;
961.8000;0.2019;7.1620;
962.1000;0.2019;7.1596;
962.4000;0.2019;7.1526;
962.7000;0.2011;7.1526;
963.0000;0.2027;7.1549;
963.3000;0.2035;7.1738;
963.6000;0.2019;7.1738;
963.9000;0.2027;7.1786;
964.2000;0.2051;7.1691;
964.5000;0.2011;7.1502;
964.8000;0.2011;7.1455;
965.1000;0.2019;7.1549;
965.4000;0.2043;7.1691;
965.7000;0.2011;7.1715;
966.0000;0.2027;7.1644;
966.3000;0.2019;7.1715;
966.6000;0.2011;7.1644;
966.9000;0.2019;7.1691;
967.2000;0.2035;7.1738;
967.5000;0.2027;7.1762;
967.8000;0.2011;7.1691;
968.1000;0.2027;7.1691;
968.4000;0.1994;7.1573;
968.7000;0.2002;7.1620;
969.0000;0.2043;7.1596;
969.3000;0.2027;7.1549;
969.6000;0.2027;7.1596;
969.9000;0.2035;7.1715;
970.2000;0.2019;7.1715;
970.5000;0.2084;7.1809;
970.8000;0.2019;7.1715;
971.1000;0.2019;7.1691;
971.4000;0.2002;7.1715;
971.7000;0.2035;7.1833;
972.0000;0.2011;7.1809;
972.3000;0.2011;7.1786;
972.6000;0.1986;7.1715;
972.9000;0.2011;7.1691;
973.2000;0.2076;7.1762;
973.5000;0.2043;7.1620;
973.8000;0.2027;7.1502;
974.1000;0.2027;7.1478;
974.4000;0.2019;7.1360;
974.7000;0.2027;7.1407;
975.0000;0.1978;7.1360;
975.3000;0.2068;7.1502;
975.6000;0.1986;7.1289;
975.9000;0.2092;7.1596;
976.2000;0.2035;7.1431;
976.5000;0.2059;7.1596;
976.8000;0.2019;7.1620;
977.1000;0.2019;7.1644;
977.4000;0.1962;7.1526;
977.7000;0.2011;7.1596;
978.0000;0.2133;7.2022;
978.3000;0.2035;7.1856;
978.6000;0.2043;7.1833;
978.9000;0.2084;7.1904;
979.2000;0.2035;7.1856;
979.5000;0.2084;7.1951;
979.8000;0.2011;7.1715;
980.1000;0.2002;7.1667;
980.4000;0.2043;7.1833;
980.7000;0.2051;7.1809;
981.0000;0.2043;7.1833;
981.3000;0.2027;7.1856;
981.6000;0.2027;7.1809;
981.9000;0.2035;7.1738;
982.2000;0.2133;7.2116;
982.5000;0.2011;7.1904;
982.8000;0.2019;7.1856;
983.1000;0.2133;7.2069;
983.4000;0.2043;7.1809;
983.7000;0.2076;7.1951;
984.0000;0.2027;7.1833;
984.3000;0.1994;7.1738;
984.6000;0.2068;7.1951;
984.9000;0.2035;7.1809;
985.2000;0.2019;7.1715;
985.5000;0.2027;7.1762;
985.8000;0.2011;7.1715;
986.1000;0.2019;7.1762;
986.4000;0.2027;7.1904;
986.7000;0.2076;7.1998;
987.0000;0.2019;7.1833;
987.3000;0.2019;7.1809;
987.6000;0.2035;7.1833;
987.9000;0.2011;7.1786;
988.2000;0.2043;7.1856;
988.5000;0.2043;7.1880;
988.8000;0.2019;7.1762;
989.1000;0.2027;7.1786;
989.4000;0.2027;7.1880;
989.7000;0.2019;7.1856;
990.0000;0.1994;7.1762;
990.3000;0.2027;7.1644;
990.6000;0.2019;7.1549;
990.9000;0.2011;7.1573;
991.2000;0.1945;7.1407;
991.5000;0.1986;7.1502;
991.8000;0.2011;7.1526;
992.1000;0.2011;7.1573;
992.4000;0.1994;7.1573;
992.7000;0.2019;7.1644;
993.0000;0.2011;7.1573;
993.3000;0.2011;7.1596;
993.6000;0.2035;7.1762;
993.9000;0.2035;7.1762;
994.2000;0.2084;7.1762;
994.5000;0.2019;7.1620;
994.8000;0.2051;7.1620;
995.1000;0.2019;7.1549;
995.4000;0.2035;7.1667;
995.7000;0.2059;7.1880;
996.0000;0.2019;7.1809;
996.3000;0.1986;7.1715;
996.6000;0.2019;7.1738;
996.9000;0.2011;7.1786;
997.2000;0.2019;7.1833;
997.5000;0.2027;7.1975;
997.8000;0.2068;7.1998;
998.1000;0.2027;7.1833;
998.4000;0.2043;7.1833;
998.7000;0.2019;7.1715;
999.0000;0.1978;7.1691;
999.3000;0.2076;7.1880;
999.6000;0.1994;7.1715;
999.9000;0.1937;7.1620;
1000.2000;0.2011;7.1715;
1000.5000;0.1937;7.1549;
1000.8000;0.2019;7.1786;
1001.1000;0.2027;7.1762;
1001.4000;0.2019;7.1762;
1001.7000;0.2019;7.1856;
1002.0000;0.2002;7.1809;
1002.3000;0.2011;7.1880;
1002.6000;0.2019;7.1856;
1002.9000;0.1994;7.1809;
1003.2000;0.2043;7.1927;
1003.5000;0.2043;7.1880;
1003.8000;0.2019;7.1880;
1004.1000;0.2019;7.1904;
1004.4000;0.2035;7.1927;
1004.7000;0.2043;7.1880;
1005.0000;0.2019;7.1833;
1005.3000;0.2059;7.1975;
1005.6000;0.2011;7.1904;
1005.9000;0.2011;7.1880;
1006.2000;0.2019;7.1998;
1006.5000;0.2002;7.1975;
1006.8000;0.2011;7.2022;
1007.1000;0.1994;7.1904;
1007.4000;0.1994;7.1904;
1007.7000;0.1994;7.1786;
1008.0000;0.2011;7.1738;
1008.3000;0.2027;7.1738;
1008.6000;0.2027;7.1644;
1008.9000;0.2051;7.1667;
1009.2000;0.2011;7.1573;
1009.5000;0.2011;7.1573;
1009.8000;0.2076;7.1644;
1010.1000;0.2019;7.1644;
1010.4000;0.2011;7.1762;
1010.7000;0.1986;7.1786;
1011.0000;0.2002;7.1762;
1011.3000;0.2011;7.1809;
1011.6000;0.2002;7.1762;
1011.9000;0.1986;7.1691;
1012.2000;0.2002;7.1856;
1012.5000;0.2019;7.1856;
1012.8000;0.2002;7.1738;
1013.1000;0.1929;7.1526;
1013.4000;0.2019;7.1691;
1013.7000;0.2027;7.1691;
1014.0000;0.2027;7.1738;
1014.3000;0.2027;7.1762;
1014.6000;0.2059;7.1809;
1014.9000;0.2019;7.1738;
1015.2000;0.1962;7.1644;
1015.5000;0.2011;7.1715;
1015.8000;0.2011;7.1738;
1016.1000;0.2002;7.1691;
1016.4000;0.1994;7.1667;
1016.7000;0.1994;7.1738;
1017.0000;0.2019;7.1762;
1017.3000;0.2019;7.1715;
1017.6000;0.1986;7.1596;
1017.9000;0.2011;7.1644;
1018.2000;0.1994;7.1596;
1018.5000;0.2002;7.1573;
1018.8000;0.2035;7.1738;
1019.1000;0.1994;7.1573;
1019.4000;0.2002;7.1526;
1019.7000;0.1994;7.1596;
1020.0000;0.2019;7.1596;
1020.3000;0.2011;7.1691;
1020.6000;0.2002;7.1691;
1020.9000;0.1962;7.1596;
1021.2000;0.2027;7.1833;
1021.5000;0.2011;7.1667;
1021.8000;0.2002;7.1526;
1022.1000;0.2027;7.1667;
1022.4000;0.2011;7.1644;
1022.7000;0.1986;7.1526;
1023.0000;0.2002;7.1502;
1023.3000;0.2019;7.1573;
1023.6000;0.1994;7.1573;
1023.9000;0.2011;7.1620;
1024.2000;0.1994;7.1526;
1024.5000;0.2084;7.1715;
1024.8000;0.2019;7.1644;
1025.1000;0.2019;7.1762;
1025.4000;0.2019;7.1833;
1025.7000;0.2019;7.1833;
1026.0000;0.2027;7.1880;
1026.3000;0.2019;7.1927;
1026.6000;0.2002;7.1927;
1026.9000;0.1994;7.1856;
1027.2000;0.2002;7.1762;
1027.5000;0.2011;7.1809;
1027.8000;0.2002;7.1786;
1028.1000;0.2011;7.1880;
1028.4000;0.2002;7.1833;
1028.7000;0.2002;7.1833;
1029.0000;0.2100;7.2022;
1029.3000;0.2019;7.1762;
1029.6000;0.2019;7.1762;
1029.9000;0.2059;7.1786;
1030.2000;0.2002;7.1596;
1030.5000;0.2035;7.1620;
1030.8000;0.1994;7.1549;
1031.1000;0.1994;7.1596;
1031.4000;0.1978;7.1596;
1031.7000;0.2011;7.1620;
1032.0000;0.1994;7.1667;
1032.3000;0.1994;7.1620;
1032.6000;0.2011;7.1691;
1032.9000;0.2011;7.1715;
1033.2000;0.2068;7.1738;
1033.5000;0.2011;7.1502;
1033.8000;0.2011;7.1526;
1034.1000;0.2027;7.1549;
1034.4000;0.2027;7.1596;
1034.7000;0.1994;7.1596;
1035.0000;0.2035;7.1691;
1035.3000;0.2019;7.1738;
1035.6000;0.1994;7.1715;
1035.9000;0.2002;7.1809;
1036.2000;0.2027;7.1904;
1036.5000;0.2011;7.1880;
1036.8000;0.2027;7.1809;
1037.1000;0.2002;7.1809;
1037.4000;0.2002;7.1809;
1037.7000;0.1970;7.1762;
1038.0000;0.2027;7.1809;
1038.3000;0.2011;7.1762;
1038.6000;0.2011;7.1667;
1038.9000;0.2002;7.1786;
1039.2000;0.1954;7.1667;
1039.5000;0.2019;7.1833;
1039.8000;0.2019;7.1809;
1040.1000;0.2035;7.1880;
1040.4000;0.2002;7.1880;
1040.7000;0.2011;7.1856;
1041.0000;0.2002;7.1856;
1041.3000;0.1962;7.1691;
1041.6000;0.2019;7.1809;
1041.9000;0.2002;7.1691;
1042.2000;0.2002;7.1620;
1042.5000;0.1994;7.1573;
1042.8000;0.2002;7.1644;
1043.1000;0.1994;7.1596;
1043.4000;0.2027;7.1667;
1043.7000;0.1986;7.1549;
1044.0000;0.1986;7.1573;
1044.3000;0.2002;7.1526;
1044.6000;0.2011;7.1596;
1044.9000;0.2027;7.1691;
1045.2000;0.2019;7.1715;
1045.5000;0.2027;7.1691;
1045.8000;0.1994;7.1691;
1046.1000;0.2027;7.1809;
1046.4000;0.2002;7.1833;
1046.7000;0.1978;7.1620;
1047.0000;0.2116;7.1951;
1047.3000;0.2035;7.1786;
1047.6000;0.2011;7.1667;
1047.9000;0.2011;7.1691;
1048.2000;0.2011;7.1691;
1048.5000;0.2027;7.1691;
1048.8000;0.2019;7.1667;
1049.1000;0.1945;7.1549;
1049.4000;0.1986;7.1738;
1049.7000;0.1994;7.1762;
1050.0000;0.1945;7.1596;
1050.3000;0.2002;7.1691;
1050.6000;0.2002;7.1715;
1050.9000;0.1945;7.1644;
1051.2000;0.1954;7.1620;
1051.5000;0.2011;7.1786;
1051.8000;0.1986;7.1738;
1052.1000;0.1994;7.1786;
1052.4000;0.1970;7.1762;
1052.7000;0.2076;7.2069;
1053.0000;0.1994;7.1833;
1053.3000;0.2011;7.1904;
1053.6000;0.1978;7.1927;
1053.9000;0.1994;7.1951;
1054.2000;0.2002;7.1927;
1054.5000;0.1978;7.1856;
1054.8000;0.2011;7.1951;
1055.1000;0.1994;7.1809;
1055.4000;0.2011;7.1809;
1055.7000;0.1970;7.1715;
1056.0000;0.2011;7.1809;
1056.3000;0.1970;7.1667;
1056.6000;0.2011;7.1667;
1056.9000;0.2002;7.1738;
1057.2000;0.2002;7.1644;
1057.5000;0.2011;7.1691;
1057.8000;0.2002;7.1715;
1058.1000;0.1994;7.1691;
1058.4000;0.1970;7.1596;
1058.7000;0.1986;7.1573;
1059.0000;0.2011;7.1620;
1059.3000;0.2002;7.1691;
1059.6000;0.1978;7.1738;
1059.9000;0.1994;7.1809;
1060.2000;0.1994;7.1786;
1060.5000;0.1986;7.1762;
1060.8000;0.1986;7.1809;
1061.1000;0.2011;7.1880;
1061.4000;0.2002;7.1880;
1061.7000;0.2002;7.1880;
1062.0000;0.2027;7.1904;
1062.3000;0.2011;7.1786;
1062.6000;0.2002;7.1833;
1062.9000;0.1994;7.1880;
1063.2000;0.2027;7.1975;
1063.5000;0.2011;7.2022;
1063.8000;0.2019;7.1975;
1064.1000;0.1986;7.1951;
1064.4000;0.1978;7.1904;
1064.7000;0.2019;7.1904;
1065.0000;0.2002;7.1786;
1065.3000;0.1986;7.1691;
1065.6000;0.1970;7.1715;
1065.9000;0.2019;7.1786;
1066.2000;0.2002;7.1786;
1066.5000;0.1970;7.1738;
1066.8000;0.1986;7.1856;
1067.1000;0.2002;7.1833;
1067.4000;0.2002;7.1809;
1067.7000;0.1962;7.1738;
1068.0000;0.2035;7.1833;
1068.3000;0.1962;7.1738;
1068.6000;0.2002;7.1927;
1068.9000;0.2002;7.1951;
1069.2000;0.1986;7.1951;
1069.5000;0.2011;7.1951;
1069.8000;0.1970;7.1880;
1070.1000;0.2019;7.1951;
1070.4000;0.2002;7.1904;
1070.7000;0.1880;7.1596;
1071.0000;0.2059;7.2046;
1071.3000;0.1945;7.1833;
1071.6000;0.2002;7.1998;
1071.9000;0.2019;7.1975;
1072.2000;0.1962;7.1833;
1072.5000;0.1994;7.1904;
1072.8000;0.1978;7.1786;
1073.1000;0.1978;7.1809;
1073.4000;0.1994;7.1880;
1073.7000;0.1994;7.1833;
1074.0000;0.1954;7.1738;
1074.3000;0.1978;7.1856;
1074.6000;0.2011;7.1904;
1074.9000;0.1962;7.1833;
1075.2000;0.2051;7.1998;
1075.5000;0.2011;7.1880;
1075.8000;0.2076;7.2069;
1076.1000;0.1994;7.1833;
1076.4000;0.2011;7.1880;
1076.7000;0.1978;7.1667;
1077.0000;0.2011;7.1715;
1077.3000;0.2002;7.1809;
1077.6000;0.1978;7.1833;
1077.9000;0.2019;7.1880;
1078.2000;0.1954;7.1715;
1078.5000;0.1986;7.1856;
1078.8000;0.1994;7.1927;
1079.1000;0.2068;7.2046;
1079.4000;0.1986;7.1809;
1079.7000;0.1986;7.1762;
1080.0000;0.2002;7.1786;
1080.3000;0.1994;7.1738;
1080.6000;0.1986;7.1809;
1080.9000;0.2011;7.1833;
1081.2000;0.2002;7.1786;
1081.5000;0.2019;7.1880;
1081.8000;0.2011;7.1715;
1082.1000;0.2002;7.1715;
1082.4000;0.1994;7.1715;
1082.7000;0.2002;7.1715;
1083.0000;0.1986;7.1762;
1083.3000;0.1962;7.1667;
1083.6000;0.2027;7.1762;
1083.9000;0.2002;7.1715;
1084.2000;0.1986;7.1762;
1084.5000;0.2002;7.1809;
1084.8000;0.2002;7.1762;
1085.1000;0.2002;7.1644;
1085.4000;0.1994;7.1667;
1085.7000;0.1937;7.1573;
1086.0000;0.2019;7.1691;
1086.3000;0.2002;7.1691;
1086.6000;0.2019;7.1762;
1086.9000;0.1986;7.1667;
1087.2000;0.1978;7.1691;
1087.5000;0.2002;7.1691;
1087.8000;0.1994;7.1620;
1088.1000;0.2019;7.1856;
1088.4000;0.2002;7.1786;
1088.7000;0.1994;7.1786;
1089.0000;0.1954;7.1596;
1089.3000;0.1986;7.1691;
1089.6000;0.1945;7.1596;
1089.9000;0.1994;7.1762;
1090.2000;0.1986;7.1738;
1090.5000;0.1970;7.1644;
1090.8000;0.2011;7.1691;
1091.1000;0.2043;7.1786;
1091.4000;0.1978;7.1620;
1091.7000;0.2011;7.1738;
1092.0000;0.2002;7.1715;
1092.3000;0.2051;7.1904;
1092.6000;0.2043;7.1880;
1092.9000;0.2011;7.1762;
1093.2000;0.1994;7.1786;
1093.5000;0.2002;7.1809;
1093.8000;0.1986;7.1762;
1094.1000;0.2011;7.1856;
1094.4000;0.1929;7.1573;
1094.7000;0.2059;7.1833;
1095.0000;0.1945;7.1644;
1095.3000;0.2076;7.1951;
1095.6000;0.1994;7.1833;
1095.9000;0.1994;7.1856;
1096.2000;0.2011;7.1856;
1096.5000;0.2002;7.1809;
1096.8000;0.2002;7.1833;
1097.1000;0.2002;7.1786;
1097.4000;0.1986;7.1715;
1097.7000;0.1994;7.1786;
1098.0000;0.2027;7.1809;
1098.3000;0.2027;7.1762;
1098.6000;0.2011;7.1667;
1098.9000;0.2011;7.1620;
1099.2000;0.2002;7.1644;
1099.5000;0.2011;7.1667;
1099.8000;0.2002;7.1809;
1100.1000;0.2011;7.1856;
1100.4000;0.2043;7.1998;
1100.7000;0.1962;7.1809;
1101.0000;0.2076;7.2069;
1101.3000;0.2002;7.1856;
1101.6000;0.2019;7.1833;
1101.9000;0.1994;7.1738;
1102.2000;0.1978;7.1691;
1102.5000;0.2035;7.1691;
1102.8000;0.2011;7.1738;
1103.1000;0.2011;7.1786;
1103.4000;0.2011;7.1833;
1103.7000;0.1994;7.1786;
1104.0000;0.2011;7.1856;
1104.3000;0.2002;7.1904;
1104.6000;0.2035;7.1951;
1104.9000;0.2002;7.1927;
1105.2000;0.2011;7.1998;
1105.5000;0.2002;7.2022;
1105.8000;0.1986;7.1975;
1106.1000;0.2019;7.2093;
1106.4000;0.2027;7.2022;
1106.7000;0.2100;7.2187;
1107.0000;0.2076;7.2093;
1107.3000;0.2068;7.2093;
1107.6000;0.2011;7.1951;
1107.9000;0.2011;7.1904;
1108.2000;0.1994;7.1880;
1108.5000;0.1986;7.1904;
1108.8000;0.1978;7.1833;
1109.1000;0.1994;7.1856;
1109.4000;0.1978;7.1786;
1109.7000;0.1970;7.1738;
1110.0000;0.1994;7.1762;
1110.3000;0.2100;7.2046;
1110.6000;0.2002;7.1809;
1110.9000;0.1986;7.1809;
1111.2000;0.1994;7.1786;
1111.5000;0.2019;7.1738;
1111.8000;0.1994;7.1786;
1112.1000;0.2011;7.1762;
1112.4000;0.1970;7.1667;
1112.7000;0.1994;7.1715;
1113.0000;0.2002;7.1715;
1113.3000;0.1970;7.1620;
1113.6000;0.1978;7.1644;
1113.9000;0.1986;7.1715;
1114.2000;0.1970;7.1667;
1114.5000;0.1962;7.1620;
1114.8000;0.2011;7.1691;
1115.1000;0.2002;7.1715;
1115.4000;0.2002;7.1715;
1115.7000;0.2002;7.1738;
1116.0000;0.1986;7.1738;
1116.3000;0.1994;7.1667;
1116.6000;0.2011;7.1691;
1116.9000;0.1978;7.1644;
1117.2000;0.1929;7.1431;
1117.5000;0.1978;7.1644;
1117.8000;0.1986;7.1691;
1118.1000;0.2002;7.1738;
1118.4000;0.2011;7.1715;
1118.7000;0.2011;7.1738;
1119.0000;0.2002;7.1738;
1119.3000;0.2002;7.1738;
1119.6000;0.1986;7.1762;
1119.9000;0.1986;7.1786;
1120.2000;0.1986;7.1738;
1120.5000;0.1994;7.1715;
1120.8000;0.2002;7.1738;
1121.1000;0.2011;7.1762;
1121.4000;0.1986;7.1644;
1121.7000;0.1986;7.1715;
1122.0000;0.1978;7.1644;
1122.3000;0.1986;7.1573;
1122.6000;0.1978;7.1644;
1122.9000;0.2002;7.1738;
1123.2000;0.1905;7.1549;
1123.5000;0.1986;7.1833;
1123.8000;0.1978;7.1809;
1124.1000;0.1945;7.1691;
1124.4000;0.1978;7.1738;
1124.7000;0.2011;7.1786;
1125.0000;0.2002;7.1786;
1125.3000;0.1945;7.1667;
1125.6000;0.2019;7.1809;
1125.9000;0.1994;7.1738;
1126.2000;0.1986;7.1715;
1126.5000;0.2019;7.1856;
1126.8000;0.2011;7.1738;
1127.1000;0.2027;7.1809;
1127.4000;0.2002;7.1762;
1127.7000;0.2051;7.1762;
1128.0000;0.1978;7.1596;
1128.3000;0.2035;7.1715;
1128.6000;0.2019;7.1644;
1128.9000;0.2035;7.1596;
1129.2000;0.2002;7.1573;
1129.5000;0.1978;7.1549;
1129.8000;0.1954;7.1455;
1130.1000;0.1986;7.1549;
1130.4000;0.2011;7.1573;
1130.7000;0.1994;7.1455;
1131.0000;0.2059;7.1502;
1131.3000;0.2035;7.1384;
1131.6000;0.2019;7.1336;
1131.9000;0.1978;7.1100;
1132.2000;0.2027;7.1218;
1132.5000;0.2068;7.1336;
1132.8000;0.1962;7.1242;
1133.1000;0.2002;7.1407;
1133.4000;0.2002;7.1360;
1133.7000;0.1994;7.1407;
1134.0000;0.1994;7.1502;
1134.3000;0.2002;7.1478;
1134.6000;0.2002;7.1431;
1134.9000;0.2002;7.1502;
1135.2000;0.1986;7.1526;
1135.5000;0.2002;7.1691;
1135.8000;0.2011;7.1809;
1136.1000;0.2019;7.1786;
1136.4000;0.1994;7.1691;
1136.7000;0.2002;7.1762;
1137.0000;0.2011;7.1738;
1137.3000;0.2019;7.1596;
1137.6000;0.2002;7.1526;
1137.9000;0.1994;7.1526;
1138.2000;0.1986;7.1691;
1138.5000;0.2002;7.1738;
1138.8000;0.1986;7.1786;
1139.1000;0.1986;7.1833;
1139.4000;0.1994;7.1856;
1139.7000;0.2019;7.1809;
1140.0000;0.2002;7.1786;
1140.3000;0.1994;7.1809;
1140.6000;0.1994;7.1738;
1140.9000;0.2011;7.1762;
1141.2000;0.2076;7.1927;
1141.5000;0.1994;7.1762;
1141.8000;0.1994;7.1809;
1142.1000;0.2043;7.1951;
1142.4000;0.2019;7.1904;
1142.7000;0.2027;7.1904;
1143.0000;0.1994;7.1762;
1143.3000;0.2011;7.1786;
1143.6000;0.2011;7.1833;
1143.9000;0.1986;7.1856;
1144.2000;0.2035;7.1975;
1144.5000;0.1986;7.1786;
1144.8000;0.1994;7.1809;
1145.1000;0.1994;7.1738;
1145.4000;0.1978;7.1738;
1145.7000;0.1986;7.1738;
1146.0000;0.1978;7.1691;
1146.3000;0.1986;7.1738;
1146.6000;0.1994;7.1809;
1146.9000;0.2002;7.1880;
1147.2000;0.1962;7.1691;
1147.5000;0.1994;7.1809;
1147.8000;0.1978;7.1786;
1148.1000;0.2084;7.2022;
1148.4000;0.1978;7.1809;
1148.7000;0.1986;7.1927;
1149.0000;0.1970;7.1927;
1149.3000;0.2035;7.2093;
1149.6000;0.2019;7.1998;
1149.9000;0.2011;7.1998;
1150.2000;0.1994;7.1927;
1150.5000;0.2002;7.1927;
1150.8000;0.1986;7.1809;
1151.1000;0.1986;7.1856;
1151.4000;0.2027;7.1951;
1151.7000;0.1994;7.1880;
1152.0000;0.2002;7.1833;
1152.3000;0.2011;7.1880;
1152.6000;0.2002;7.1809;
1152.9000;0.2019;7.1809;
1153.2000;0.2059;7.1856;
1153.5000;0.2002;7.1715;
1153.8000;0.2011;7.1715;
1154.1000;0.2035;7.1809;
1154.4000;0.1986;7.1691;
1154.7000;0.2002;7.1738;
1155.0000;0.2002;7.1715;
1155.3000;0.1994;7.1620;
1155.6000;0.1962;7.1596;
1155.9000;0.1986;7.1715;
1156.2000;0.1994;7.1762;
1156.5000;0.2002;7.1667;
1156.8000;0.1986;7.1715;
1157.1000;0.1978;7.1738;
1157.4000;0.1962;7.1762;
1157.7000;0.2002;7.1833;
1158.0000;0.1978;7.1833;
1158.3000;0.1978;7.1715;
1158.6000;0.2019;7.1809;
1158.9000;0.1994;7.1833;
1159.2000;0.2002;7.1856;
1159.5000;0.2002;7.1927;
1159.8000;0.2011;7.1786;
1160.1000;0.2011;7.1833;
1160.4000;0.1994;7.1762;
1160.7000;0.2011;7.1715;
1161.0000;0.1962;7.1691;
1161.3000;0.1994;7.1833;
1161.6000;0.2011;7.1856;
1161.9000;0.1978;7.1738;
1162.2000;0.1962;7.1762;
1162.5000;0.1986;7.1738;
1162.8000;0.1986;7.1738;
1163.1000;0.1945;7.1596;
1163.4000;0.1970;7.1762;
1163.7000;0.1962;7.1738;
1164.0000;0.1954;7.1738;
1164.3000;0.2002;7.1856;
1164.6000;0.2002;7.1833;
1164.9000;0.2011;7.1833;
1165.2000;0.2035;7.1856;
1165.5000;0.1994;7.1786;
1165.8000;0.1986;7.1809;
1166.1000;0.2019;7.1975;
1166.4000;0.2011;7.1856;
1166.7000;0.1994;7.1809;
1167.0000;0.1994;7.1786;
1167.3000;0.2002;7.1786;
1167.6000;0.2002;7.1762;
1167.9000;0.1921;7.1526;
1168.2000;0.1978;7.1715;
1168.5000;0.2002;7.1762;
1168.8000;0.1986;7.1786;
1169.1000;0.1986;7.1809;
1169.4000;0.1994;7.1833;
1169.7000;0.1970;7.1738;
1170.0000;0.1986;7.1762;
1170.3000;0.2051;7.1856;
1170.6000;0.1945;7.1667;
1170.9000;0.1994;7.1762;
1171.2000;0.2002;7.1738;
1171.5000;0.2059;7.1880;
1171.8000;0.2002;7.1762;
1172.1000;0.1994;7.1786;
1172.4000;0.2002;7.1809;
1172.7000;0.2002;7.1833;
1173.0000;0.2002;7.1809;
1173.3000;0.1970;7.1762;
1173.6000;0.1994;7.1786;
1173.9000;0.2011;7.1809;
1174.2000;0.1994;7.1786;
1174.5000;0.1994;7.1715;
1174.8000;0.1978;7.1762;
1175.1000;0.2002;7.1833;
1175.4000;0.2019;7.1975;
1175.7000;0.1945;7.1809;
1176.0000;0.1986;7.1927;
1176.3000;0.2011;7.1975;
1176.6000;0.2002;7.1927;
1176.9000;0.1994;7.1975;
1177.2000;0.2002;7.2022;
1177.5000;0.2002;7.2069;
1177.8000;0.2035;7.1998;
1178.1000;0.1986;7.1904;
1178.4000;0.2011;7.1880;
1178.7000;0.1994;7.1904;
1179.0000;0.2002;7.1927;
1179.3000;0.1994;7.1856;
1179.6000;0.1986;7.1738;
1179.9000;0.1994;7.1738;
1180.2000;0.1897;7.1455;
1180.5000;0.1994;7.1738;
1180.8000;0.2002;7.1833;
1181.1000;0.1978;7.1762;
1181.4000;0.2035;7.1762;
1181.7000;0.2019;7.1667;
1182.0000;0.2027;7.1715;
1182.3000;0.1970;7.1644;
1182.6000;0.2011;7.1691;
1182.9000;0.2011;7.1667;
1183.2000;0.1994;7.1620;
1183.5000;0.2035;7.1644;
1183.8000;0.1978;7.1502;
1184.1000;0.1986;7.1502;
1184.4000;0.1978;7.1573;
1184.7000;0.1986;7.1667;
1185.0000;0.1970;7.1644;
1185.3000;0.2051;7.1786;
1185.6000;0.2027;7.1762;
1185.9000;0.1994;7.1809;
1186.2000;0.2011;7.1880;
1186.5000;0.1962;7.1786;
1186.8000;0.2011;7.1951;
1187.1000;0.2002;7.1809;
1187.4000;0.1994;7.1738;
1187.7000;0.2027;7.1786;
1188.0000;0.2011;7.1833;
1188.3000;0.1994;7.1975;
1188.6000;0.2002;7.1951;
1188.9000;0.1986;7.1880;
1189.2000;0.1986;7.1856;
1189.5000;0.2011;7.1856;
1189.8000;0.1978;7.1786;
1190.1000;0.1986;7.1738;
1190.4000;0.1986;7.1667;
1190.7000;0.1986;7.1667;
1191.0000;0.1978;7.1667;
1191.3000;0.2011;7.1762;
1191.6000;0.1994;7.1762;
1191.9000;0.1994;7.1738;
1192.2000;0.1986;7.1667;
1192.5000;0.2051;7.1904;
1192.8000;0.1986;7.1809;
1193.1000;0.2035;7.1975;
1193.4000;0.1994;7.1880;
1193.7000;0.1913;7.1691;
1194.0000;0.2011;7.1833;
1194.3000;0.1937;7.1691;
1194.6000;0.1986;7.1786;
1194.9000;0.1986;7.1762;
1195.2000;0.1962;7.1738;
1195.5000;0.2002;7.1833;
1195.8000;0.2002;7.1762;
1196.1000;0.1994;7.1762;
1196.4000;0.2043;7.1975;
1196.7000;0.2011;7.1809;
1197.0000;0.2011;7.1904;
1197.3000;0.1986;7.1927;
1197.6000;0.1986;7.1856;
1197.9000;0.2035;7.2022;
1198.2000;0.2011;7.2069;
1198.5000;0.2002;7.1998;
1198.8000;0.1994;7.1904;
1199.1000;0.1978;7.1786;
1199.4000;0.1945;7.1644;
1199.7000;0.2002;7.1715;
1200.0000;0.2011;7.1809;
1200.3000;0.2068;7.1809;
1200.6000;0.2002;7.1762;
1200.9000;0.1994;7.1738;
1201.2000;0.1970;7.1715;
1201.5000;0.1994;7.1833;
1201.8000;0.1994;7.1927;
1202.1000;0.1986;7.1975;
1202.4000;0.1986;7.1998;
1202.7000;0.1994;7.1951;
1203.0000;0.1978;7.1951;
1203.3000;0.1929;7.1809;
1203.6000;0.1929;7.1620;
1203.9000;0.2002;7.1715;
1204.2000;0.1986;7.1667;
1204.5000;0.1970;7.1667;
1204.8000;0.2002;7.1691;
1205.1000;0.1986;7.1573;
1205.4000;0.1970;7.1526;
1205.7000;0.1986;7.1526;
1206.0000;0.2002;7.1526;
1206.3000;0.2011;7.1478;
1206.6000;0.1978;7.1526;
1206.9000;0.1986;7.1573;
1207.2000;0.2011;7.1715;
1207.5000;0.1994;7.1691;
1207.8000;0.1986;7.1667;
1208.1000;0.1978;7.1667;
1208.4000;0.1986;7.1596;
1208.7000;0.1978;7.1431;
1209.0000;0.2019;7.1431;
1209.3000;0.1986;7.1384;
1209.6000;0.2002;7.1431;
1209.9000;0.1986;7.1455;
1210.2000;0.1978;7.1549;
1210.5000;0.1994;7.1502;
1210.8000;0.2043;7.1573;
1211.1000;0.2002;7.1502;
1211.4000;0.2019;7.1596;
1211.7000;0.1986;7.1502;
1212.0000;0.2027;7.1644;
1212.3000;0.2011;7.1644;
1212.6000;0.1994;7.1573;
1212.9000;0.2002;7.1596;
1213.2000;0.2002;7.1596;
1213.5000;0.1970;7.1573;
1213.8000;0.1986;7.1644;
1214.1000;0.2027;7.1809;
1214.4000;0.2002;7.1715;
1214.7000;0.2011;7.1833;
1215.0000;0.1994;7.1904;
1215.3000;0.1986;7.1927;
1215.6000;0.1970;7.1951;
1215.9000;0.1962;7.1809;
1216.2000;0.2043;7.1951;
1216.5000;0.1978;7.1833;
1216.8000;0.2011;7.1809;
1217.1000;0.1994;7.1762;
1217.4000;0.1994;7.1786;
1217.7000;0.1986;7.1738;
1218.0000;0.1994;7.1762;
1218.3000;0.1994;7.1833;
1218.6000;0.2002;7.1833;
1218.9000;0.2027;7.1833;
1219.2000;0.2002;7.1809;
1219.5000;0.1994;7.1762;
1219.8000;0.1994;7.1715;
1220.1000;0.2019;7.1738;
1220.4000;0.1978;7.1526;
1220.7000;0.1986;7.1549;
1221.0000;0.1994;7.1549;
1221.3000;0.2002;7.1644;
1221.6000;0.2116;7.1880;
1221.9000;0.2084;7.1833;
1222.2000;0.2019;7.1667;
1222.5000;0.1994;7.1644;
1222.8000;0.1994;7.1644;
1223.1000;0.1970;7.1549;
1223.4000;0.2002;7.1620;
1223.7000;0.1978;7.1526;
1224.0000;0.2011;7.1526;
1224.3000;0.1994;7.1549;
1224.6000;0.1986;7.1502;
1224.9000;0.2002;7.1478;
1225.2000;0.2002;7.1596;
1225.5000;0.1978;7.1549;
1225.8000;0.1986;7.1620;
1226.1000;0.1986;7.1644;
1226.4000;0.2051;7.1786;
1226.7000;0.1978;7.1573;
1227.0000;0.1994;7.1620;
1227.3000;0.1986;7.1667;
1227.6000;0.1994;7.1762;
1227.9000;0.1986;7.1667;
1228.2000;0.1970;7.1644;
1228.5000;0.1994;7.1644;
1228.8000;0.1970;7.1596;
1229.1000;0.1970;7.1715;
1229.4000;0.1970;7.1667;
1229.7000;0.1962;7.1644;
1230.0000;0.1962;7.1691;
1230.3000;0.1978;7.1715;
1230.6000;0.1978;7.1644;
1230.9000;0.1962;7.1644;
1231.2000;0.1970;7.1762;
1231.5000;0.1978;7.1762;
1231.8000;0.1994;7.1762;
1232.1000;0.1994;7.1715;
1232.4000;0.2011;7.1762;
1232.7000;0.1937;7.1549;
1233.0000;0.1962;7.1644;
1233.3000;0.1962;7.1667;
1233.6000;0.1962;7.1573;
1233.9000;0.1994;7.1620;
1234.2000;0.1970;7.1644;
1234.5000;0.1994;7.1644;
1234.8000;0.1994;7.1667;
1235.1000;0.1970;7.1644;
1235.4000;0.1994;7.1738;
1235.7000;0.1986;7.1644;
1236.0000;0.2019;7.1715;
1236.3000;0.2002;7.1809;
1236.6000;0.1986;7.1833;
1236.9000;0.1986;7.1786;
1237.2000;0.1954;7.1691;
1237.5000;0.2019;7.1786;
1237.8000;0.1986;7.1667;
1238.1000;0.1921;7.1620;
1238.4000;0.1945;7.1644;
1238.7000;0.1994;7.1904;
1239.0000;0.1994;7.1951;
1239.3000;0.1994;7.1951;
1239.6000;0.1986;7.1880;
1239.9000;0.1994;7.1927;
1240.2000;0.2043;7.1975;
1240.5000;0.1978;7.1809;
1240.8000;0.1978;7.1833;
1241.1000;0.1970;7.1809;
1241.4000;0.1962;7.1833;
1241.7000;0.2011;7.1856;
1242.0000;0.1978;7.1809;
1242.3000;0.1954;7.1762;
1242.6000;0.2002;7.1856;
1242.9000;0.1978;7.1833;
1243.2000;0.1945;7.1738;
1243.5000;0.1986;7.1762;
1243.8000;0.2002;7.1833;
1244.1000;0.1962;7.1856;
1244.4000;0.1994;7.1904;
1244.7000;0.1962;7.1809;
1245.0000;0.2019;7.1975;
1245.3000;0.2035;7.1998;
1245.6000;0.1994;7.1833;
1245.9000;0.1970;7.1786;
1246.2000;0.1962;7.1738;
1246.5000;0.2027;7.1975;
1246.8000;0.2002;7.1927;
1247.1000;0.1994;7.1951;
1247.4000;0.2035;7.2069;
1247.7000;0.2011;7.2046;
1248.0000;0.1994;7.1975;
1248.3000;0.2051;7.2164;
1248.6000;0.2002;7.2116;
1248.9000;0.2011;7.2116;
1249.2000;0.1978;7.2093;
1249.5000;0.2002;7.2093;
1249.8000;0.1986;7.1998;
1250.1000;0.1986;7.1927;
1250.4000;0.1970;7.1833;
1250.7000;0.1994;7.1809;
1251.0000;0.2011;7.1809;
1251.3000;0.1970;7.1691;
1251.6000;0.1994;7.1786;
1251.9000;0.1994;7.1880;
1252.2000;0.2002;7.1904;
1252.5000;0.1994;7.1880;
1252.8000;0.1994;7.1975;
1253.1000;0.2019;7.2046;
1253.4000;0.1970;7.1904;
1253.7000;0.2002;7.2069;
1254.0000;0.1986;7.2022;
1254.3000;0.1970;7.1856;
1254.6000;0.1970;7.1809;
1254.9000;0.1986;7.1762;
1255.2000;0.1986;7.1833;
1255.5000;0.1994;7.1904;
1255.8000;0.1970;7.1809;
1256.1000;0.1970;7.1786;
1256.4000;0.1978;7.1904;
1256.7000;0.1962;7.1809;
1257.0000;0.1921;7.1691;
1257.3000;0.1978;7.1762;
1257.6000;0.1962;7.1762;
1257.9000;0.1986;7.1762;
1258.2000;0.1994;7.1833;
1258.5000;0.2002;7.1904;
1258.8000;0.1986;7.1951;
1259.1000;0.1978;7.1880;
1259.4000;0.1986;7.1880;
1259.7000;0.1986;7.1809;
1260.0000;0.2002;7.1833;
1260.3000;0.1970;7.1904;
1260.6000;0.2027;7.2046;
1260.9000;0.1986;7.1951;
1261.2000;0.1994;7.1927;
1261.5000;0.1994;7.1998;
1261.8000;0.1986;7.1998;
1262.1000;0.2059;7.2022;
1262.4000;0.2084;7.2140;
1262.7000;0.2084;7.2093;
1263.0000;0.1978;7.1833;
1263.3000;0.1954;7.1738;
1263.6000;0.1986;7.1786;
1263.9000;0.1986;7.1762;
1264.2000;0.2035;7.1833;
1264.5000;0.2011;7.1833;
1264.8000;0.2011;7.1738;
1265.1000;0.1945;7.1596;
1265.4000;0.2051;7.1833;
1265.7000;0.2011;7.1786;
1266.0000;0.2002;7.1762;
1266.3000;0.1986;7.1738;
1266.6000;0.1962;7.1691;
1266.9000;0.2019;7.1904;
1267.2000;0.2002;7.1927;
1267.5000;0.2011;7.1951;
1267.8000;0.2043;7.1927;
1268.1000;0.2002;7.1833;
1268.4000;0.1978;7.1715;
1268.7000;0.2011;7.1833;
1269.0000;0.2002;7.1809;
1269.3000;0.1978;7.1833;
1269.6000;0.1994;7.1856;
1269.9000;0.1994;7.1856;
1270.2000;0.1970;7.1856;
1270.5000;0.1986;7.1856;
1270.8000;0.1994;7.1951;
1271.1000;0.1986;7.1904;
1271.4000;0.1986;7.1856;
1271.7000;0.2011;7.1880;
1272.0000;0.2011;7.1904;
1272.3000;0.2002;7.1975;
1272.6000;0.1921;7.1762;
1272.9000;0.1994;7.1975;
1273.2000;0.1986;7.1951;
1273.5000;0.2002;7.1927;
1273.8000;0.1962;7.1880;
1274.1000;0.2002;7.1998;
1274.4000;0.2002;7.1951;
1274.7000;0.1978;7.1856;
1275.0000;0.1978;7.1667;
1275.3000;0.1962;7.1715;
1275.6000;0.1994;7.1715;
1275.9000;0.2002;7.1715;
1276.2000;0.1994;7.1667;
1276.5000;0.1986;7.1738;
1276.8000;0.2035;7.1833;
1277.1000;0.2002;7.1786;
1277.4000;0.2011;7.1738;
1277.7000;0.1986;7.1809;
1278.0000;0.2019;7.1833;
1278.3000;0.2011;7.1880;
1278.6000;0.2019;7.1927;
1278.9000;0.1994;7.1880;
1279.2000;0.1994;7.1951;
1279.5000;0.1994;7.1927;
1279.8000;0.2011;7.1927;
1280.1000;0.1954;7.1762;
1280.4000;0.1994;7.1856;
1280.7000;0.1994;7.1880;
1281.0000;0.1986;7.1856;
1281.3000;0.1986;7.1786;
1281.6000;0.1986;7.1786;
1281.9000;0.1978;7.1786;
1282.2000;0.1954;7.1715;
1282.5000;0.2019;7.1809;
1282.8000;0.1986;7.1762;
1283.1000;0.2059;7.1880;
1283.4000;0.2019;7.1738;
1283.7000;0.1937;7.1502;
1284.0000;0.1970;7.1620;
1284.3000;0.2011;7.1762;
1284.6000;0.1970;7.1596;
1284.9000;0.1978;7.1644;
1285.2000;0.1978;7.1667;
1285.5000;0.1970;7.1691;
1285.8000;0.2002;7.1715;
1286.1000;0.1994;7.1856;
1286.4000;0.1970;7.1904;
1286.7000;0.1978;7.1927;
1287.0000;0.1986;7.1904;
1287.3000;0.1978;7.1880;
1287.6000;0.1970;7.1762;
1287.9000;0.1986;7.1786;
1288.2000;0.1954;7.1715;
1288.5000;0.1986;7.1880;
1288.8000;0.2002;7.1904;
1289.1000;0.1921;7.1762;
1289.4000;0.1986;7.1856;
1289.7000;0.2019;7.1951;
1290.0000;0.1994;7.1998;
1290.3000;0.2002;7.1927;
1290.6000;0.1994;7.1927;
1290.9000;0.2019;7.1856;
1291.2000;0.1986;7.1786;
1291.5000;0.2019;7.1856;
1291.8000;0.1986;7.1762;
1292.1000;0.2002;7.1809;
1292.4000;0.2002;7.1833;
1292.7000;0.2019;7.1856;
1293.0000;0.2002;7.1786;
1293.3000;0.1994;7.1786;
1293.6000;0.1994;7.1762;
1293.9000;0.1994;7.1738;
1294.2000;0.2011;7.1809;
1294.5000;0.1970;7.1786;
1294.8000;0.2002;7.1927;
1295.1000;0.2002;7.1951;
1295.4000;0.1929;7.1927;
1295.7000;0.1978;7.2046;
1296.0000;0.2002;7.2069;
1296.3000;0.1994;7.2069;
1296.6000;0.1970;7.1951;
1296.9000;0.1994;7.1951;
1297.2000;0.2011;7.1975;
1297.5000;0.1937;7.1833;
1297.8000;0.2002;7.2069;
1298.1000;0.1986;7.2093;
1298.4000;0.1986;7.2164;
1298.7000;0.2035;7.2187;
1299.0000;0.1986;7.2093;
1299.3000;0.1986;7.2022;
1299.6000;0.2002;7.1998;
1299.9000;0.1986;7.1880;
1300.2000;0.2002;7.1786;
1300.5000;0.1994;7.1809;
1300.8000;0.1978;7.1786;
1301.1000;0.1994;7.1809;
1301.4000;0.2011;7.1715;
1301.7000;0.1978;7.1762;
1302.0000;0.1994;7.1809;
1302.3000;0.2002;7.1904;
1302.6000;0.1962;7.1809;
1302.9000;0.1994;7.1856;
1303.2000;0.1986;7.1762;
1303.5000;0.1962;7.1667;
1303.8000;0.1970;7.1715;
1304.1000;0.1962;7.1691;
1304.4000;0.1986;7.1738;
1304.7000;0.1970;7.1691;
1305.0000;0.1994;7.1762;
1305.3000;0.1978;7.1786;
1305.6000;0.2059;7.1880;
1305.9000;0.1978;7.1667;
1306.2000;0.1994;7.1809;
1306.5000;0.1994;7.1809;
1306.8000;0.1986;7.1691;
1307.1000;0.1994;7.1738;
1307.4000;0.2002;7.1809;
1307.7000;0.1986;7.1738;
1308.0000;0.2002;7.1809;
1308.3000;0.1986;7.1715;
1308.6000;0.1978;7.1691;
1308.9000;0.1986;7.1715;
1309.2000;0.2002;7.1762;
1309.5000;0.2051;7.1809;
1309.8000;0.1970;7.1596;
1310.1000;0.1994;7.1715;
1310.4000;0.1994;7.1809;
1310.7000;0.1986;7.1809;
1311.0000;0.1986;7.1880;
1311.3000;0.1994;7.1856;
1311.6000;0.2011;7.1809;
1311.9000;0.1994;7.1786;
1312.2000;0.1994;7.1786;
1312.5000;0.1937;7.1573;
1312.8000;0.2002;7.1856;
1313.1000;0.1945;7.1715;
1313.4000;0.2019;7.2022;
1313.7000;0.2019;7.2069;
1314.0000;0.2002;7.2140;
1314.3000;0.1994;7.2069;
1314.6000;0.1970;7.2022;
1314.9000;0.2002;7.2046;
1315.2000;0.2002;7.2022;
1315.5000;0.1962;7.1904;
1315.8000;0.1994;7.1975;
1316.1000;0.2011;7.1880;
1316.4000;0.1970;7.1856;
1316.7000;0.2011;7.1880;
1317.0000;0.1994;7.1809;
1317.3000;0.1962;7.1786;
1317.6000;0.1978;7.1951;
1317.9000;0.2002;7.1998;
1318.2000;0.1945;7.1856;
1318.5000;0.1994;7.1998;
1318.8000;0.1986;7.1998;
1319.1000;0.1962;7.1927;
1319.4000;0.1970;7.1927;
1319.7000;0.1970;7.1904;
1320.0000;0.1970;7.1904;
1320.3000;0.1954;7.1856;
1320.6000;0.2002;7.1927;
1320.9000;0.1986;7.1927;
1321.2000;0.1978;7.1927;
1321.5000;0.2011;7.1998;
1321.8000;0.2002;7.1927;
1322.1000;0.1986;7.1809;
1322.4000;0.1994;7.1762;
1322.7000;0.2019;7.1809;
1323.0000;0.2002;7.1786;
1323.3000;0.2011;7.1786;
1323.6000;0.1978;7.1762;
1323.9000;0.1954;7.1644;
1324.2000;0.1986;7.1738;
1324.5000;0.1986;7.1786;
1324.8000;0.1978;7.1738;
1325.1000;0.2002;7.1715;
1325.4000;0.1970;7.1644;
1325.7000;0.1994;7.1786;
1326.0000;0.2051;7.1927;
1326.3000;0.2011;7.1856;
1326.6000;0.2002;7.1833;
1326.9000;0.2108;7.2164;
1327.2000;0.1970;7.1927;
1327.5000;0.1970;7.1951;
1327.8000;0.1994;7.2116;
1328.1000;0.1897;7.1880;
1328.4000;0.1978;7.2022;
1328.7000;0.1994;7.2116;
1329.0000;0.1978;7.2046;
1329.3000;0.1986;7.2046;
1329.6000;0.1994;7.2046;
1329.9000;0.1994;7.2093;
1330.2000;0.1994;7.1927;
1330.5000;0.2011;7.1880;
1330.8000;0.1986;7.1880;
1331.1000;0.2002;7.1856;
1331.4000;0.2002;7.1715;
1331.7000;0.1994;7.1667;
1332.0000;0.1978;7.1596;
1332.3000;0.1978;7.1549;
1332.6000;0.1978;7.1644;
1332.9000;0.2035;7.1786;
1333.2000;0.1986;7.1738;
1333.5000;0.1994;7.1738;
1333.8000;0.2002;7.1596;
1334.1000;0.2002;7.1644;
1334.4000;0.2011;7.1738;
1334.7000;0.1978;7.1786;
1335.0000;0.1986;7.1904;
1335.3000;0.1986;7.1880;
1335.6000;0.2002;7.1904;
1335.9000;0.1994;7.1880;
1336.2000;0.1986;7.1809;
1336.5000;0.2002;7.1904;
1336.8000;0.1978;7.1833;
1337.1000;0.2019;7.2046;
1337.4000;0.2002;7.2046;
1337.7000;0.1978;7.1975;
1338.0000;0.1986;7.2046;
1338.3000;0.1994;7.2069;
1338.6000;0.1921;7.1880;
1338.9000;0.1978;7.1998;
1339.2000;0.1962;7.1975;
1339.5000;0.2019;7.2116;
1339.8000;0.2002;7.1904;
1340.1000;0.1986;7.1809;
1340.4000;0.2002;7.1880;
1340.7000;0.1978;7.1856;
1341.0000;0.1986;7.1904;
1341.3000;0.1954;7.1786;
1341.6000;0.1970;7.1786;
1341.9000;0.2002;7.1904;
1342.2000;0.1986;7.1762;
1342.5000;0.2027;7.1904;
1342.8000;0.1994;7.1880;
1343.1000;0.1994;7.1833;
1343.4000;0.2051;7.1880;
1343.7000;0.2002;7.1809;
1344.0000;0.2011;7.1904;
1344.3000;0.2068;7.2022;
1344.6000;0.1994;7.1786;
1344.9000;0.1994;7.1691;
1345.2000;0.1986;7.1762;
1345.5000;0.1994;7.1833;
1345.8000;0.1994;7.1856;
1346.1000;0.1994;7.1856;
1346.4000;0.2002;7.1880;
1346.7000;0.2011;7.1833;
1347.0000;0.1986;7.1856;
1347.3000;0.2019;7.1880;
1347.6000;0.1937;7.1762;
1347.9000;0.2002;7.1786;
1348.2000;0.1986;7.1809;
1348.5000;0.2035;7.1880;
1348.8000;0.1994;7.1738;
1349.1000;0.1978;7.1786;
1349.4000;0.2002;7.1833;
1349.7000;0.1986;7.1809;
1350.0000;0.1994;7.1786;
1350.3000;0.1937;7.1667;
1350.6000;0.1986;7.1691;
1350.9000;0.2002;7.1738;
1351.2000;0.2002;7.1667;
1351.5000;0.1994;7.1620;
1351.8000;0.1986;7.1691;
1352.1000;0.1994;7.1667;
1352.4000;0.1994;7.1667;
1352.7000;0.1986;7.1691;
1353.0000;0.1986;7.1667;
1353.3000;0.1986;7.1762;
1353.6000;0.1913;7.1596;
1353.9000;0.2011;7.1762;
1354.2000;0.1978;7.1738;
1354.5000;0.2002;7.1880;
1354.8000;0.1937;7.1762;
1355.1000;0.1986;7.1880;
1355.4000;0.1978;7.1809;
1355.7000;0.2019;7.1856;
1356.0000;0.2002;7.1880;
1356.3000;0.1945;7.1809;
1356.6000;0.1954;7.1927;
1356.9000;0.1986;7.1975;
1357.2000;0.1994;7.1998;
1357.5000;0.1962;7.1927;
1357.8000;0.2002;7.1975;
1358.1000;0.1905;7.1856;
1358.4000;0.1978;7.2022;
1358.7000;0.2019;7.2116;
1359.0000;0.1970;7.1927;
1359.3000;0.1962;7.1880;
1359.6000;0.1986;7.1856;
1359.9000;0.1994;7.1880;
1360.2000;0.1986;7.1904;
1360.5000;0.1986;7.1904;
1360.8000;0.2002;7.1998;
1361.1000;0.2002;7.2069;
1361.4000;0.1986;7.2022;
1361.7000;0.1937;7.1904;
1362.0000;0.1986;7.2022;
1362.3000;0.1978;7.1998;
1362.6000;0.1937;7.1856;
1362.9000;0.1986;7.1904;
1363.2000;0.1986;7.2046;
1363.5000;0.1970;7.2022;
1363.8000;0.1970;7.1998;
1364.1000;0.1978;7.1998;
1364.4000;0.1986;7.1975;
1364.7000;0.1994;7.2022;
1365.0000;0.2100;7.2282;
1365.3000;0.1970;7.1833;
1365.6000;0.1986;7.1786;
1365.9000;0.1970;7.1691;
1366.2000;0.1986;7.1667;
1366.5000;0.2051;7.1880;
1366.8000;0.2002;7.1809;
1367.1000;0.1994;7.1856;
1367.4000;0.1994;7.1809;
1367.7000;0.1994;7.1786;
1368.0000;0.1986;7.1809;
1368.3000;0.2002;7.1809;
1368.6000;0.1986;7.1738;
1368.9000;0.1986;7.1786;
1369.2000;0.2011;7.1762;
1369.5000;0.1994;7.1691;
1369.8000;0.2002;7.1644;
1370.1000;0.1986;7.1573;
1370.4000;0.1986;7.1573;
1370.7000;0.2011;7.1573;
1371.0000;0.2002;7.1620;
1371.3000;0.1954;7.1455;
1371.6000;0.1994;7.1596;
1371.9000;0.1978;7.1573;
1372.2000;0.1986;7.1573;
1372.5000;0.2043;7.1644;
1372.8000;0.2002;7.1526;
1373.1000;0.2019;7.1596;
1373.4000;0.1994;7.1407;
1373.7000;0.2002;7.1336;
1374.0000;0.1994;7.1431;
1374.3000;0.1994;7.1478;
1374.6000;0.2002;7.1455;
1374.9000;0.1970;7.1502;
1375.2000;0.1994;7.1667;
1375.5000;0.1986;7.1596;
1375.8000;0.1978;7.1644;
1376.1000;0.1986;7.1526;
1376.4000;0.2002;7.1526;
1376.7000;0.1986;7.1549;
1377.0000;0.1994;7.1620;
1377.3000;0.1954;7.1644;
1377.6000;0.1986;7.1715;
1377.9000;0.1986;7.1620;
1378.2000;0.1970;7.1502;
1378.5000;0.1986;7.1502;
1378.8000;0.1978;7.1407;
1379.1000;0.2059;7.1644;
1379.4000;0.2002;7.1573;
1379.7000;0.1978;7.1620;
1380.0000;0.1970;7.1691;
1380.3000;0.1986;7.1691;
1380.6000;0.2011;7.1715;
1380.9000;0.1986;7.1715;
1381.2000;0.1978;7.1691;
1381.5000;0.2068;7.1809;
1381.8000;0.2051;7.1738;
1382.1000;0.1994;7.1573;
1382.4000;0.1994;7.1762;
1382.7000;0.2002;7.1809;
1383.0000;0.1970;7.1691;
1383.3000;0.1954;7.1573;
1383.6000;0.1978;7.1691;
1383.9000;0.1978;7.1738;
1384.2000;0.1986;7.1762;
1384.5000;0.1954;7.1715;
1384.8000;0.1978;7.1833;
1385.1000;0.2027;7.1927;
1385.4000;0.1994;7.1738;
1385.7000;0.1978;7.1667;
1386.0000;0.1970;7.1715;
1386.3000;0.1994;7.1833;
1386.6000;0.1978;7.1809;
1386.9000;0.1978;7.1762;
1387.2000;0.1978;7.1762;
1387.5000;0.1970;7.1738;
1387.8000;0.1945;7.1667;
1388.1000;0.1962;7.1667;
1388.4000;0.2076;7.1904;
1388.7000;0.2084;7.1951;
1389.0000;0.1978;7.1715;
1389.3000;0.1986;7.1691;
1389.6000;0.2002;7.1667;
1389.9000;0.1986;7.1596;
1390.2000;0.1994;7.1715;
1390.5000;0.2002;7.1738;
1390.8000;0.1970;7.1833;
1391.1000;0.2011;7.1856;
1391.4000;0.2011;7.1904;
1391.7000;0.1929;7.1762;
1392.0000;0.1986;7.1904;
1392.3000;0.1962;7.1951;
1392.6000;0.2019;7.1998;
1392.9000;0.1986;7.1904;
1393.2000;0.2011;7.1880;
1393.5000;0.1986;7.1786;
1393.8000;0.1945;7.1738;
1394.1000;0.2051;7.2022;
1394.4000;0.2011;7.1927;
1394.7000;0.2076;7.2046;
1395.0000;0.1962;7.1738;
1395.3000;0.1994;7.1715;
1395.6000;0.1937;7.1431;
1395.9000;0.1970;7.1502;
1396.2000;0.2092;7.1904;
1396.5000;0.1986;7.1762;
1396.8000;0.2035;7.1904;
1397.1000;0.1994;7.1667;
1397.4000;0.1921;7.1455;
1397.7000;0.1970;7.1620;
1398.0000;0.1921;7.1526;
1398.3000;0.1978;7.1691;
1398.6000;0.2002;7.1762;
1398.9000;0.1994;7.1644;
1399.2000;0.1978;7.1573;
1399.5000;0.1954;7.1478;
1399.8000;0.1994;7.1667;
