time/ms;Fluo/V;P700 deltaI/I x10³;
-199.8000;0.4387;1.4425;
-199.5000;0.4412;1.4473;
-199.2000;0.4379;1.4283;
-198.9000;0.4371;1.4259;
-198.6000;0.4412;1.4378;
-198.3000;0.4387;1.4425;
-198.0000;0.4396;1.4425;
-197.7000;0.4387;1.4402;
-197.4000;0.4387;1.4402;
-197.1000;0.4379;1.4520;
-196.8000;0.4387;1.4520;
-196.5000;0.4396;1.4663;
-196.2000;0.4387;1.4663;
-195.9000;0.4379;1.4711;
-195.6000;0.4404;1.4639;
-195.3000;0.4387;1.4544;
-195.0000;0.4396;1.4520;
-194.7000;0.4396;1.4497;
-194.4000;0.4396;1.4544;
-194.1000;0.4404;1.4544;
-193.8000;0.4412;1.4544;
-193.5000;0.4412;1.4592;
-193.2000;0.4404;1.4615;
-192.9000;0.4387;1.4639;
-192.6000;0.4396;1.4734;
-192.3000;0.4469;1.4924;
-192.0000;0.4347;1.4615;
-191.7000;0.4404;1.4782;
-191.4000;0.4404;1.4711;
-191.1000;0.4387;1.4734;
-190.8000;0.4396;1.4758;
-190.5000;0.4379;1.4639;
-190.2000;0.4387;1.4639;
-189.9000;0.4379;1.4449;
-189.6000;0.4404;1.4520;
-189.3000;0.4469;1.4829;
-189.0000;0.4379;1.4592;
-188.7000;0.4412;1.4711;
-188.4000;0.4396;1.4711;
-188.1000;0.4396;1.4734;
-187.8000;0.4371;1.4615;
-187.5000;0.4387;1.4639;
-187.2000;0.4428;1.4806;
-186.9000;0.4379;1.4758;
-186.6000;0.4396;1.4758;
-186.3000;0.4387;1.4663;
-186.0000;0.4371;1.4663;
-185.7000;0.4396;1.4711;
-185.4000;0.4387;1.4687;
-185.1000;0.4412;1.4734;
-184.8000;0.4412;1.4734;
-184.5000;0.4387;1.4592;
-184.2000;0.4404;1.4663;
-183.9000;0.4396;1.4544;
-183.6000;0.4396;1.4449;
-183.3000;0.4379;1.4449;
-183.0000;0.4396;1.4568;
-182.7000;0.4396;1.4592;
-182.4000;0.4371;1.4615;
-182.1000;0.4371;1.4663;
-181.8000;0.4355;1.4592;
-181.5000;0.4387;1.4568;
-181.2000;0.4396;1.4568;
-180.9000;0.4379;1.4473;
-180.6000;0.4387;1.4473;
-180.3000;0.4404;1.4449;
-180.0000;0.4396;1.4520;
-179.7000;0.4387;1.4520;
-179.4000;0.4371;1.4520;
-179.1000;0.4412;1.4687;
-178.8000;0.4404;1.4592;
-178.5000;0.4396;1.4497;
-178.2000;0.4396;1.4449;
-177.9000;0.4387;1.4473;
-177.6000;0.4436;1.4615;
-177.3000;0.4379;1.4520;
-177.0000;0.4379;1.4544;
-176.7000;0.4404;1.4520;
-176.4000;0.4396;1.4544;
-176.1000;0.4453;1.4639;
-175.8000;0.4396;1.4544;
-175.5000;0.4379;1.4497;
-175.2000;0.4396;1.4544;
-174.9000;0.4387;1.4520;
-174.6000;0.4387;1.4497;
-174.3000;0.4404;1.4497;
-174.0000;0.4396;1.4473;
-173.7000;0.4396;1.4497;
-173.4000;0.4371;1.4378;
-173.1000;0.4396;1.4330;
-172.8000;0.4396;1.4354;
-172.5000;0.4428;1.4497;
-172.2000;0.4396;1.4497;
-171.9000;0.4412;1.4497;
-171.6000;0.4379;1.4497;
-171.3000;0.4412;1.4568;
-171.0000;0.4453;1.4544;
-170.7000;0.4387;1.4402;
-170.4000;0.4396;1.4473;
-170.1000;0.4396;1.4568;
-169.8000;0.4379;1.4520;
-169.5000;0.4396;1.4568;
-169.2000;0.4396;1.4568;
-168.9000;0.4387;1.4568;
-168.6000;0.4387;1.4544;
-168.3000;0.4396;1.4544;
-168.0000;0.4396;1.4568;
-167.7000;0.4371;1.4568;
-167.4000;0.4371;1.4497;
-167.1000;0.4396;1.4568;
-166.8000;0.4379;1.4568;
-166.5000;0.4396;1.4615;
-166.2000;0.4396;1.4687;
-165.9000;0.4404;1.4663;
-165.6000;0.4379;1.4615;
-165.3000;0.4396;1.4734;
-165.0000;0.4396;1.4711;
-164.7000;0.4387;1.4734;
-164.4000;0.4379;1.4734;
-164.1000;0.4420;1.4782;
-163.8000;0.4396;1.4758;
-163.5000;0.4396;1.4734;
-163.2000;0.4396;1.4711;
-162.9000;0.4396;1.4829;
-162.6000;0.4396;1.4901;
-162.3000;0.4404;1.4924;
-162.0000;0.4420;1.4972;
-161.7000;0.4396;1.4877;
-161.4000;0.4396;1.4877;
-161.1000;0.4396;1.4877;
-160.8000;0.4412;1.4829;
-160.5000;0.4444;1.4901;
-160.2000;0.4396;1.4782;
-159.9000;0.4412;1.4782;
-159.6000;0.4404;1.4734;
-159.3000;0.4371;1.4663;
-159.0000;0.4444;1.4758;
-158.7000;0.4412;1.4639;
-158.4000;0.4493;1.4853;
-158.1000;0.4404;1.4615;
-157.8000;0.4396;1.4687;
-157.5000;0.4396;1.4734;
-157.2000;0.4379;1.4758;
-156.9000;0.4387;1.4806;
-156.6000;0.4396;1.4829;
-156.3000;0.4379;1.4734;
-156.0000;0.4396;1.4734;
-155.7000;0.4387;1.4758;
-155.4000;0.4396;1.4758;
-155.1000;0.4396;1.4782;
-154.8000;0.4396;1.4711;
-154.5000;0.4387;1.4639;
-154.2000;0.4396;1.4615;
-153.9000;0.4387;1.4687;
-153.6000;0.4404;1.4853;
-153.3000;0.4420;1.4901;
-153.0000;0.4404;1.4829;
-152.7000;0.4396;1.4829;
-152.4000;0.4396;1.4758;
-152.1000;0.4404;1.4782;
-151.8000;0.4412;1.4758;
-151.5000;0.4387;1.4782;
-151.2000;0.4412;1.4782;
-150.9000;0.4387;1.4758;
-150.6000;0.4404;1.4829;
-150.3000;0.4436;1.4948;
-150.0000;0.4387;1.4806;
-149.7000;0.4461;1.4901;
-149.4000;0.4420;1.4734;
-149.1000;0.4412;1.4758;
-148.8000;0.4396;1.4687;
-148.5000;0.4396;1.4639;
-148.2000;0.4428;1.4711;
-147.9000;0.4387;1.4639;
-147.6000;0.4379;1.4639;
-147.3000;0.4379;1.4592;
-147.0000;0.4387;1.4687;
-146.7000;0.4404;1.4687;
-146.4000;0.4396;1.4687;
-146.1000;0.4396;1.4758;
-145.8000;0.4404;1.4806;
-145.5000;0.4371;1.4734;
-145.2000;0.4355;1.4758;
-144.9000;0.4379;1.4806;
-144.6000;0.4379;1.4782;
-144.3000;0.4387;1.4734;
-144.0000;0.4387;1.4734;
-143.7000;0.4387;1.4758;
-143.4000;0.4510;1.5043;
-143.1000;0.4404;1.4806;
-142.8000;0.4371;1.4734;
-142.5000;0.4371;1.4734;
-142.2000;0.4387;1.4687;
-141.9000;0.4396;1.4711;
-141.6000;0.4371;1.4687;
-141.3000;0.4404;1.4829;
-141.0000;0.4444;1.5019;
-140.7000;0.4404;1.4853;
-140.4000;0.4396;1.4877;
-140.1000;0.4363;1.4829;
-139.8000;0.4371;1.4829;
-139.5000;0.4412;1.4829;
-139.2000;0.4420;1.4924;
-138.9000;0.4404;1.4782;
-138.6000;0.4396;1.4782;
-138.3000;0.4396;1.4829;
-138.0000;0.4379;1.4687;
-137.7000;0.4387;1.4687;
-137.4000;0.4428;1.4711;
-137.1000;0.4355;1.4568;
-136.8000;0.4396;1.4615;
-136.5000;0.4363;1.4663;
-136.2000;0.4347;1.4592;
-135.9000;0.4404;1.4687;
-135.6000;0.4387;1.4711;
-135.3000;0.4355;1.4639;
-135.0000;0.4387;1.4734;
-134.7000;0.4404;1.4782;
-134.4000;0.4436;1.4877;
-134.1000;0.4396;1.4758;
-133.8000;0.4379;1.4758;
-133.5000;0.4387;1.4711;
-133.2000;0.4404;1.4687;
-132.9000;0.4379;1.4687;
-132.6000;0.4387;1.4711;
-132.3000;0.4387;1.4663;
-132.0000;0.4387;1.4711;
-131.7000;0.4396;1.4734;
-131.4000;0.4404;1.4806;
-131.1000;0.4396;1.4782;
-130.8000;0.4404;1.4734;
-130.5000;0.4396;1.4687;
-130.2000;0.4387;1.4663;
-129.9000;0.4396;1.4758;
-129.6000;0.4404;1.4877;
-129.3000;0.4396;1.4901;
-129.0000;0.4404;1.4877;
-128.7000;0.4387;1.4806;
-128.4000;0.4396;1.4901;
-128.1000;0.4404;1.4901;
-127.8000;0.4387;1.4806;
-127.5000;0.4404;1.4853;
-127.2000;0.4396;1.4853;
-126.9000;0.4396;1.4806;
-126.6000;0.4396;1.4734;
-126.3000;0.4396;1.4734;
-126.0000;0.4387;1.4758;
-125.7000;0.4396;1.4782;
-125.4000;0.4387;1.4758;
-125.1000;0.4404;1.4806;
-124.8000;0.4396;1.4615;
-124.5000;0.4420;1.4639;
-124.2000;0.4396;1.4568;
-123.9000;0.4396;1.4592;
-123.6000;0.4371;1.4568;
-123.3000;0.4396;1.4568;
-123.0000;0.4420;1.4639;
-122.7000;0.4396;1.4568;
-122.4000;0.4396;1.4615;
-122.1000;0.4404;1.4734;
-121.8000;0.4412;1.4782;
-121.5000;0.4404;1.4829;
-121.2000;0.4379;1.4711;
-120.9000;0.4387;1.4639;
-120.6000;0.4387;1.4568;
-120.3000;0.4396;1.4520;
-120.0000;0.4387;1.4544;
-119.7000;0.4387;1.4497;
-119.4000;0.4477;1.4758;
-119.1000;0.4355;1.4425;
-118.8000;0.4387;1.4520;
-118.5000;0.4387;1.4520;
-118.2000;0.4404;1.4568;
-117.9000;0.4412;1.4592;
-117.6000;0.4396;1.4711;
-117.3000;0.4396;1.4806;
-117.0000;0.4387;1.4711;
-116.7000;0.4396;1.4687;
-116.4000;0.4363;1.4615;
-116.1000;0.4404;1.4711;
-115.8000;0.4404;1.4711;
-115.5000;0.4396;1.4758;
-115.2000;0.4396;1.4687;
-114.9000;0.4379;1.4615;
-114.6000;0.4412;1.4639;
-114.3000;0.4396;1.4568;
-114.0000;0.4387;1.4568;
-113.7000;0.4428;1.4615;
-113.4000;0.4396;1.4544;
-113.1000;0.4290;1.4330;
-112.8000;0.4347;1.4425;
-112.5000;0.4436;1.4568;
-112.2000;0.4387;1.4473;
-111.9000;0.4420;1.4592;
-111.6000;0.4387;1.4520;
-111.3000;0.4387;1.4592;
-111.0000;0.4379;1.4592;
-110.7000;0.4387;1.4592;
-110.4000;0.4428;1.4758;
-110.1000;0.4363;1.4544;
-109.8000;0.4404;1.4592;
-109.5000;0.4396;1.4520;
-109.2000;0.4412;1.4592;
-108.9000;0.4396;1.4568;
-108.6000;0.4387;1.4544;
-108.3000;0.4387;1.4568;
-108.0000;0.4396;1.4544;
-107.7000;0.4396;1.4449;
-107.4000;0.4387;1.4449;
-107.1000;0.4396;1.4473;
-106.8000;0.4387;1.4402;
-106.5000;0.4379;1.4425;
-106.2000;0.4412;1.4402;
-105.9000;0.4396;1.4330;
-105.6000;0.4404;1.4402;
-105.3000;0.4387;1.4425;
-105.0000;0.4404;1.4425;
-104.7000;0.4428;1.4497;
-104.4000;0.4387;1.4473;
-104.1000;0.4396;1.4473;
-103.8000;0.4404;1.4473;
-103.5000;0.4404;1.4497;
-103.2000;0.4379;1.4402;
-102.9000;0.4387;1.4473;
-102.6000;0.4387;1.4473;
-102.3000;0.4404;1.4378;
-102.0000;0.4387;1.4307;
-101.7000;0.4420;1.4449;
-101.4000;0.4396;1.4402;
-101.1000;0.4387;1.4425;
-100.8000;0.4387;1.4473;
-100.5000;0.4387;1.4473;
-100.2000;0.4379;1.4354;
-99.9000;0.4379;1.4425;
-99.6000;0.4477;1.4663;
-99.3000;0.4387;1.4425;
-99.0000;0.4387;1.4544;
-98.7000;0.4396;1.4520;
-98.4000;0.4387;1.4544;
-98.1000;0.4387;1.4544;
-97.8000;0.4387;1.4568;
-97.5000;0.4379;1.4568;
-97.2000;0.4355;1.4497;
-96.9000;0.4379;1.4568;
-96.6000;0.4404;1.4592;
-96.3000;0.4396;1.4615;
-96.0000;0.4396;1.4568;
-95.7000;0.4387;1.4544;
-95.4000;0.4396;1.4497;
-95.1000;0.4412;1.4497;
-94.8000;0.4396;1.4378;
-94.5000;0.4387;1.4378;
-94.2000;0.4387;1.4449;
-93.9000;0.4477;1.4711;
-93.6000;0.4404;1.4425;
-93.3000;0.4396;1.4425;
-93.0000;0.4387;1.4425;
-92.7000;0.4396;1.4497;
-92.4000;0.4396;1.4425;
-92.1000;0.4404;1.4449;
-91.8000;0.4396;1.4520;
-91.5000;0.4404;1.4544;
-91.2000;0.4371;1.4544;
-90.9000;0.4404;1.4568;
-90.6000;0.4396;1.4497;
-90.3000;0.4412;1.4425;
-90.0000;0.4404;1.4354;
-89.7000;0.4396;1.4378;
-89.4000;0.4396;1.4307;
-89.1000;0.4420;1.4259;
-88.8000;0.4396;1.4235;
-88.5000;0.4404;1.4330;
-88.2000;0.4387;1.4378;
-87.9000;0.4396;1.4449;
-87.6000;0.4404;1.4544;
-87.3000;0.4387;1.4520;
-87.0000;0.4387;1.4568;
-86.7000;0.4379;1.4544;
-86.4000;0.4387;1.4497;
-86.1000;0.4436;1.4568;
-85.8000;0.4404;1.4449;
-85.5000;0.4379;1.4449;
-85.2000;0.4396;1.4520;
-84.9000;0.4330;1.4330;
-84.6000;0.4396;1.4520;
-84.3000;0.4387;1.4425;
-84.0000;0.4412;1.4425;
-83.7000;0.4396;1.4354;
-83.4000;0.4420;1.4425;
-83.1000;0.4396;1.4354;
-82.8000;0.4396;1.4520;
-82.5000;0.4412;1.4639;
-82.2000;0.4396;1.4615;
-81.9000;0.4379;1.4402;
-81.6000;0.4387;1.4402;
-81.3000;0.4404;1.4520;
-81.0000;0.4469;1.4711;
-80.7000;0.4387;1.4449;
-80.4000;0.4404;1.4449;
-80.1000;0.4404;1.4449;
-79.8000;0.4396;1.4425;
-79.5000;0.4396;1.4449;
-79.2000;0.4379;1.4473;
-78.9000;0.4396;1.4520;
-78.6000;0.4396;1.4544;
-78.3000;0.4396;1.4592;
-78.0000;0.4404;1.4544;
-77.7000;0.4396;1.4520;
-77.4000;0.4412;1.4592;
-77.1000;0.4396;1.4568;
-76.8000;0.4396;1.4592;
-76.5000;0.4428;1.4687;
-76.2000;0.4387;1.4568;
-75.9000;0.4396;1.4544;
-75.6000;0.4396;1.4568;
-75.3000;0.4404;1.4592;
-75.0000;0.4404;1.4615;
-74.7000;0.4396;1.4568;
-74.4000;0.4396;1.4544;
-74.1000;0.4396;1.4449;
-73.8000;0.4387;1.4378;
-73.5000;0.4428;1.4425;
-73.2000;0.4396;1.4378;
-72.9000;0.4330;1.4283;
-72.6000;0.4387;1.4544;
-72.3000;0.4396;1.4568;
-72.0000;0.4330;1.4497;
-71.7000;0.4396;1.4592;
-71.4000;0.4396;1.4568;
-71.1000;0.4396;1.4497;
-70.8000;0.4404;1.4544;
-70.5000;0.4347;1.4449;
-70.2000;0.4412;1.4663;
-69.9000;0.4412;1.4639;
-69.6000;0.4404;1.4592;
-69.3000;0.4396;1.4544;
-69.0000;0.4428;1.4615;
-68.7000;0.4387;1.4615;
-68.4000;0.4396;1.4592;
-68.1000;0.4436;1.4687;
-67.8000;0.4404;1.4520;
-67.5000;0.4347;1.4402;
-67.2000;0.4322;1.4402;
-66.9000;0.4396;1.4615;
-66.6000;0.4387;1.4663;
-66.3000;0.4371;1.4592;
-66.0000;0.4412;1.4592;
-65.7000;0.4371;1.4449;
-65.4000;0.4485;1.4639;
-65.1000;0.4412;1.4378;
-64.8000;0.4501;1.4615;
-64.5000;0.4412;1.4449;
-64.2000;0.4379;1.4449;
-63.9000;0.4387;1.4473;
-63.6000;0.4404;1.4520;
-63.3000;0.4404;1.4592;
-63.0000;0.4371;1.4639;
-62.7000;0.4379;1.4734;
-62.4000;0.4396;1.4782;
-62.1000;0.4412;1.4829;
-61.8000;0.4379;1.4758;
-61.5000;0.4387;1.4687;
-61.2000;0.4396;1.4639;
-60.9000;0.4404;1.4592;
-60.6000;0.4387;1.4544;
-60.3000;0.4404;1.4568;
-60.0000;0.4379;1.4520;
-59.7000;0.4412;1.4520;
-59.4000;0.4404;1.4544;
-59.1000;0.4420;1.4615;
-58.8000;0.4387;1.4592;
-58.5000;0.4379;1.4592;
-58.2000;0.4404;1.4592;
-57.9000;0.4387;1.4592;
-57.6000;0.4379;1.4639;
-57.3000;0.4396;1.4615;
-57.0000;0.4428;1.4711;
-56.7000;0.4379;1.4639;
-56.4000;0.4412;1.4639;
-56.1000;0.4412;1.4568;
-55.8000;0.4461;1.4782;
-55.5000;0.4396;1.4639;
-55.2000;0.4404;1.4663;
-54.9000;0.4387;1.4687;
-54.6000;0.4485;1.4806;
-54.3000;0.4396;1.4544;
-54.0000;0.4363;1.4449;
-53.7000;0.4396;1.4497;
-53.4000;0.4396;1.4497;
-53.1000;0.4396;1.4520;
-52.8000;0.4387;1.4425;
-52.5000;0.4379;1.4425;
-52.2000;0.4371;1.4354;
-51.9000;0.4396;1.4354;
-51.6000;0.4371;1.4307;
-51.3000;0.4387;1.4283;
-51.0000;0.4404;1.4330;
-50.7000;0.4396;1.4330;
-50.4000;0.4371;1.4283;
-50.1000;0.4396;1.4354;
-49.8000;0.4396;1.4354;
-49.5000;0.4404;1.4402;
-49.2000;0.4387;1.4307;
-48.9000;0.4396;1.4330;
-48.6000;0.4396;1.4425;
-48.3000;0.4404;1.4402;
-48.0000;0.4396;1.4354;
-47.7000;0.4412;1.4473;
-47.4000;0.4404;1.4449;
-47.1000;0.4387;1.4425;
-46.8000;0.4404;1.4449;
-46.5000;0.4412;1.4378;
-46.2000;0.4396;1.4402;
-45.9000;0.4396;1.4473;
-45.6000;0.4453;1.4687;
-45.3000;0.4428;1.4615;
-45.0000;0.4404;1.4520;
-44.7000;0.4371;1.4497;
-44.4000;0.4330;1.4307;
-44.1000;0.4396;1.4425;
-43.8000;0.4404;1.4425;
-43.5000;0.4404;1.4354;
-43.2000;0.4396;1.4330;
-42.9000;0.4412;1.4425;
-42.6000;0.4379;1.4330;
-42.3000;0.4396;1.4307;
-42.0000;0.4404;1.4354;
-41.7000;0.4363;1.4330;
-41.4000;0.4387;1.4330;
-41.1000;0.4404;1.4402;
-40.8000;0.4396;1.4354;
-40.5000;0.4387;1.4378;
-40.2000;0.4420;1.4425;
-39.9000;0.4379;1.4354;
-39.6000;0.4404;1.4378;
-39.3000;0.4412;1.4473;
-39.0000;0.4387;1.4425;
-38.7000;0.4387;1.4425;
-38.4000;0.4396;1.4473;
-38.1000;0.4420;1.4639;
-37.8000;0.4404;1.4711;
-37.5000;0.4387;1.4639;
-37.2000;0.4396;1.4615;
-36.9000;0.4387;1.4544;
-36.6000;0.4461;1.4639;
-36.3000;0.4428;1.4473;
-36.0000;0.4371;1.4425;
-35.7000;0.4420;1.4592;
-35.4000;0.4396;1.4544;
-35.1000;0.4453;1.4687;
-34.8000;0.4396;1.4497;
-34.5000;0.4396;1.4449;
-34.2000;0.4379;1.4402;
-33.9000;0.4396;1.4307;
-33.6000;0.4387;1.4402;
-33.3000;0.4396;1.4425;
-33.0000;0.4404;1.4425;
-32.7000;0.4379;1.4449;
-32.4000;0.4404;1.4497;
-32.1000;0.4396;1.4520;
-31.8000;0.4412;1.4520;
-31.5000;0.4420;1.4544;
-31.2000;0.4387;1.4663;
-30.9000;0.4396;1.4687;
-30.6000;0.4444;1.4782;
-30.3000;0.4396;1.4639;
-30.0000;0.4412;1.4663;
-29.7000;0.4396;1.4544;
-29.4000;0.4404;1.4568;
-29.1000;0.4404;1.4568;
-28.8000;0.4404;1.4592;
-28.5000;0.4404;1.4615;
-28.2000;0.4379;1.4615;
-27.9000;0.4371;1.4615;
-27.6000;0.4363;1.4568;
-27.3000;0.4379;1.4497;
-27.0000;0.4428;1.4520;
-26.7000;0.4396;1.4473;
-26.4000;0.4404;1.4568;
-26.1000;0.4404;1.4568;
-25.8000;0.4404;1.4592;
-25.5000;0.4404;1.4639;
-25.2000;0.4412;1.4687;
-24.9000;0.4396;1.4592;
-24.6000;0.4412;1.4711;
-24.3000;0.4404;1.4639;
-24.0000;0.4396;1.4568;
-23.7000;0.4396;1.4568;
-23.4000;0.4396;1.4544;
-23.1000;0.4404;1.4544;
-22.8000;0.4453;1.4592;
-22.5000;0.4518;1.4782;
-22.2000;0.4396;1.4425;
-21.9000;0.4387;1.4568;
-21.6000;0.4387;1.4544;
-21.3000;0.4412;1.4663;
-21.0000;0.4396;1.4687;
-20.7000;0.4404;1.4663;
-20.4000;0.4396;1.4687;
-20.1000;0.4396;1.4663;
-19.8000;0.4387;1.4734;
-19.5000;0.4404;1.4663;
-19.2000;0.4363;1.4544;
-18.9000;0.4387;1.4544;
-18.6000;0.4387;1.4520;
-18.3000;0.4379;1.4473;
-18.0000;0.4412;1.4473;
-17.7000;0.4453;1.4663;
-17.4000;0.4387;1.4497;
-17.1000;0.4396;1.4473;
-16.8000;0.4387;1.4497;
-16.5000;0.4396;1.4520;
-16.2000;0.4396;1.4473;
-15.9000;0.4387;1.4449;
-15.6000;0.4396;1.4425;
-15.3000;0.4396;1.4330;
-15.0000;0.4396;1.4402;
-14.7000;0.4371;1.4425;
-14.4000;0.4371;1.4497;
-14.1000;0.4461;1.4782;
-13.8000;0.4396;1.4615;
-13.5000;0.4387;1.4568;
-13.2000;0.4396;1.4568;
-12.9000;0.4387;1.4592;
-12.6000;0.4387;1.4473;
-12.3000;0.4396;1.4449;
-12.0000;0.4387;1.4497;
-11.7000;0.4387;1.4497;
-11.4000;0.4428;1.4520;
-11.1000;0.4396;1.4402;
-10.8000;0.4404;1.4402;
-10.5000;0.4387;1.4473;
-10.2000;0.4396;1.4497;
-9.9000;0.4396;1.4473;
-9.6000;0.4355;1.4378;
-9.3000;0.4396;1.4425;
-9.0000;0.4387;1.4354;
-8.7000;0.4387;1.4473;
-8.4000;0.4396;1.4497;
-8.1000;0.4387;1.4544;
-7.8000;0.4387;1.4568;
-7.5000;0.4428;1.4592;
-7.2000;0.4404;1.4520;
-6.9000;0.4404;1.4592;
-6.6000;0.4412;1.4734;
-6.3000;0.4396;1.4639;
-6.0000;0.4404;1.4615;
-5.7000;0.4461;1.4806;
-5.4000;0.4493;1.4853;
-5.1000;0.4387;1.4592;
-4.8000;0.4396;1.4592;
-4.5000;0.4436;1.4734;
-4.2000;0.4371;1.4592;
-3.9000;0.4387;1.4687;
-3.6000;0.4387;1.4639;
-3.3000;0.4371;1.4544;
-3.0000;0.4387;1.4592;
-2.7000;0.4396;1.4568;
-2.4000;0.4501;1.4948;
-2.1000;0.4387;1.4663;
-1.8000;0.4387;1.4663;
-1.5000;0.4404;1.4663;
-1.2000;0.4396;1.4711;
-0.9000;0.4396;1.4687;
-0.6000;0.4396;1.4687;
-0.3000;0.4396;1.4687;
0.0000;0.4396;1.4687;
0.3000;0.4396;1.4639;
0.6000;0.4428;1.4806;
0.9000;0.4436;1.4901;
1.2000;0.4469;1.5067;
1.5000;0.4485;1.5115;
1.8000;0.4469;1.5138;
2.1000;0.4477;1.5423;
2.4000;0.4485;1.5519;
2.7000;0.4493;1.5566;
3.0000;0.4501;1.5661;
3.3000;0.4485;1.5661;
3.6000;0.4510;1.5827;
3.9000;0.4501;1.5946;
4.2000;0.4493;1.6089;
4.5000;0.4501;1.6113;
4.8000;0.4518;1.6136;
5.1000;0.4526;1.6208;
5.4000;0.4477;1.5970;
5.7000;0.4550;1.6231;
6.0000;0.4518;1.6255;
6.3000;0.4534;1.6374;
6.6000;0.4518;1.6350;
6.9000;0.4526;1.6374;
7.2000;0.4534;1.6422;
7.5000;0.4526;1.6469;
7.8000;0.4526;1.6469;
8.1000;0.4542;1.6588;
8.4000;0.4534;1.6612;
8.7000;0.4534;1.6540;
9.0000;0.4518;1.6564;
9.3000;0.4518;1.6445;
9.6000;0.4526;1.6493;
9.9000;0.4526;1.6540;
10.2000;0.4534;1.6540;
10.5000;0.4542;1.6517;
10.8000;0.4518;1.6493;
11.1000;0.4534;1.6445;
11.4000;0.4550;1.6493;
11.7000;0.4542;1.6469;
12.0000;0.4550;1.6350;
12.3000;0.4558;1.6374;
12.6000;0.4575;1.6469;
12.9000;0.4575;1.6445;
13.2000;0.4583;1.6422;
13.5000;0.4493;1.6136;
13.8000;0.4583;1.6398;
14.1000;0.4575;1.6350;
14.4000;0.4558;1.6327;
14.7000;0.4575;1.6327;
15.0000;0.4567;1.6303;
15.3000;0.4493;1.6136;
15.6000;0.4567;1.6303;
15.9000;0.4567;1.6303;
16.2000;0.4575;1.6303;
16.5000;0.4542;1.6231;
16.8000;0.4607;1.6350;
17.1000;0.4558;1.6255;
17.4000;0.4575;1.6231;
17.7000;0.4575;1.6160;
18.0000;0.4583;1.6208;
18.3000;0.4583;1.6231;
18.6000;0.4591;1.6255;
18.9000;0.4591;1.6255;
19.2000;0.4591;1.6231;
19.5000;0.4567;1.6231;
19.8000;0.4558;1.6303;
20.1000;0.4591;1.6445;
20.4000;0.4567;1.6398;
20.7000;0.4599;1.6422;
21.0000;0.4575;1.6303;
21.3000;0.4575;1.6350;
21.6000;0.4591;1.6350;
21.9000;0.4607;1.6398;
22.2000;0.4591;1.6350;
22.5000;0.4591;1.6303;
22.8000;0.4599;1.6350;
23.1000;0.4591;1.6374;
23.4000;0.4591;1.6398;
23.7000;0.4591;1.6469;
24.0000;0.4607;1.6398;
24.3000;0.4591;1.6422;
24.6000;0.4599;1.6398;
24.9000;0.4640;1.6493;
25.2000;0.4599;1.6445;
25.5000;0.4607;1.6469;
25.8000;0.4591;1.6469;
26.1000;0.4689;1.6778;
26.4000;0.4599;1.6493;
26.7000;0.4607;1.6517;
27.0000;0.4648;1.6635;
27.3000;0.4518;1.6350;
27.6000;0.4615;1.6564;
27.9000;0.4607;1.6493;
28.2000;0.4591;1.6517;
28.5000;0.4583;1.6469;
28.8000;0.4575;1.6493;
29.1000;0.4599;1.6564;
29.4000;0.4591;1.6493;
29.7000;0.4599;1.6540;
30.0000;0.4607;1.6493;
30.3000;0.4599;1.6469;
30.6000;0.4599;1.6422;
30.9000;0.4615;1.6374;
31.2000;0.4599;1.6327;
31.5000;0.4599;1.6327;
31.8000;0.4607;1.6160;
32.1000;0.4567;1.6113;
32.4000;0.4615;1.6160;
32.7000;0.4624;1.6184;
33.0000;0.4599;1.6136;
33.3000;0.4615;1.6184;
33.6000;0.4599;1.6208;
33.9000;0.4615;1.6160;
34.2000;0.4624;1.6160;
34.5000;0.4624;1.6255;
34.8000;0.4615;1.6374;
35.1000;0.4713;1.6588;
35.4000;0.4607;1.6279;
35.7000;0.4615;1.6303;
36.0000;0.4615;1.6231;
36.3000;0.4615;1.6208;
36.6000;0.4615;1.6208;
36.9000;0.4599;1.6136;
37.2000;0.4615;1.6208;
37.5000;0.4615;1.6208;
37.8000;0.4615;1.6136;
38.1000;0.4632;1.6231;
38.4000;0.4615;1.6208;
38.7000;0.4607;1.6160;
39.0000;0.4632;1.6184;
39.3000;0.4689;1.6350;
39.6000;0.4615;1.6231;
39.9000;0.4632;1.6279;
40.2000;0.4632;1.6303;
40.5000;0.4624;1.6327;
40.8000;0.4632;1.6398;
41.1000;0.4607;1.6350;
41.4000;0.4615;1.6327;
41.7000;0.4632;1.6303;
42.0000;0.4632;1.6303;
42.3000;0.4624;1.6350;
42.6000;0.4607;1.6445;
42.9000;0.4640;1.6540;
43.2000;0.4632;1.6540;
43.5000;0.4624;1.6540;
43.8000;0.4607;1.6469;
44.1000;0.4648;1.6612;
44.4000;0.4640;1.6588;
44.7000;0.4624;1.6635;
45.0000;0.4607;1.6612;
45.3000;0.4624;1.6683;
45.6000;0.4640;1.6659;
45.9000;0.4599;1.6588;
46.2000;0.4632;1.6564;
46.5000;0.4607;1.6493;
46.8000;0.4640;1.6612;
47.1000;0.4615;1.6540;
47.4000;0.4599;1.6517;
47.7000;0.4599;1.6517;
48.0000;0.4583;1.6469;
48.3000;0.4632;1.6540;
48.6000;0.4575;1.6350;
48.9000;0.4624;1.6564;
49.2000;0.4624;1.6540;
49.5000;0.4615;1.6564;
49.8000;0.4615;1.6493;
50.1000;0.4615;1.6398;
50.4000;0.4575;1.6327;
50.7000;0.4689;1.6564;
51.0000;0.4615;1.6422;
51.3000;0.4640;1.6469;
51.6000;0.4615;1.6422;
51.9000;0.4624;1.6445;
52.2000;0.4648;1.6564;
52.5000;0.4624;1.6540;
52.8000;0.4632;1.6564;
53.1000;0.4648;1.6517;
53.4000;0.4567;1.6231;
53.7000;0.4591;1.6350;
54.0000;0.4599;1.6327;
54.3000;0.4632;1.6422;
54.6000;0.4615;1.6374;
54.9000;0.4607;1.6422;
55.2000;0.4615;1.6469;
55.5000;0.4615;1.6469;
55.8000;0.4624;1.6422;
56.1000;0.4632;1.6327;
56.4000;0.4632;1.6350;
56.7000;0.4558;1.6065;
57.0000;0.4632;1.6279;
57.3000;0.4648;1.6255;
57.6000;0.4632;1.6231;
57.9000;0.4640;1.6184;
58.2000;0.4640;1.6184;
58.5000;0.4640;1.6208;
58.8000;0.4672;1.6398;
59.1000;0.4664;1.6374;
59.4000;0.4615;1.6303;
59.7000;0.4640;1.6303;
60.0000;0.4615;1.6303;
60.3000;0.4624;1.6327;
60.6000;0.4632;1.6445;
60.9000;0.4640;1.6350;
61.2000;0.4632;1.6374;
61.5000;0.4632;1.6350;
61.8000;0.4615;1.6350;
62.1000;0.4624;1.6398;
62.4000;0.4632;1.6374;
62.7000;0.4632;1.6374;
63.0000;0.4632;1.6374;
63.3000;0.4615;1.6279;
63.6000;0.4624;1.6303;
63.9000;0.4624;1.6231;
64.2000;0.4632;1.6255;
64.5000;0.4624;1.6255;
64.8000;0.4624;1.6327;
65.1000;0.4624;1.6279;
65.4000;0.4624;1.6279;
65.7000;0.4632;1.6327;
66.0000;0.4640;1.6231;
66.3000;0.4624;1.6208;
66.6000;0.4721;1.6445;
66.9000;0.4656;1.6231;
67.2000;0.4640;1.6136;
67.5000;0.4575;1.6018;
67.8000;0.4632;1.6136;
68.1000;0.4640;1.6113;
68.4000;0.4632;1.6113;
68.7000;0.4640;1.6113;
69.0000;0.4632;1.6089;
69.3000;0.4615;1.6041;
69.6000;0.4640;1.6018;
69.9000;0.4632;1.6089;
70.2000;0.4624;1.6113;
70.5000;0.4607;1.6089;
70.8000;0.4632;1.6184;
71.1000;0.4632;1.6208;
71.4000;0.4615;1.6136;
71.7000;0.4615;1.6184;
72.0000;0.4656;1.6279;
72.3000;0.4632;1.6231;
72.6000;0.4615;1.6184;
72.9000;0.4624;1.6160;
73.2000;0.4640;1.6160;
73.5000;0.4632;1.6089;
73.8000;0.4542;1.5732;
74.1000;0.4632;1.5970;
74.4000;0.4632;1.5994;
74.7000;0.4664;1.6089;
75.0000;0.4640;1.6113;
75.3000;0.4632;1.6089;
75.6000;0.4632;1.6160;
75.9000;0.4632;1.6136;
76.2000;0.4632;1.6136;
76.5000;0.4648;1.6160;
76.8000;0.4632;1.6113;
77.1000;0.4648;1.6089;
77.4000;0.4672;1.6184;
77.7000;0.4640;1.6018;
78.0000;0.4567;1.5780;
78.3000;0.4640;1.6089;
78.6000;0.4624;1.6113;
78.9000;0.4640;1.6136;
79.2000;0.4640;1.6208;
79.5000;0.4640;1.6160;
79.8000;0.4640;1.6113;
80.1000;0.4640;1.6113;
80.4000;0.4632;1.6089;
80.7000;0.4624;1.6184;
81.0000;0.4640;1.6160;
81.3000;0.4624;1.6184;
81.6000;0.4624;1.6184;
81.9000;0.4648;1.6279;
82.2000;0.4681;1.6374;
82.5000;0.4648;1.6327;
82.8000;0.4640;1.6255;
83.1000;0.4648;1.6350;
83.4000;0.4607;1.6279;
83.7000;0.4656;1.6445;
84.0000;0.4648;1.6469;
84.3000;0.4648;1.6493;
84.6000;0.4640;1.6469;
84.9000;0.4648;1.6469;
85.2000;0.4640;1.6398;
85.5000;0.4656;1.6469;
85.8000;0.4640;1.6445;
86.1000;0.4632;1.6350;
86.4000;0.4615;1.6374;
86.7000;0.4615;1.6350;
87.0000;0.4640;1.6374;
87.3000;0.4624;1.6327;
87.6000;0.4672;1.6445;
87.9000;0.4640;1.6469;
88.2000;0.4648;1.6469;
88.5000;0.4632;1.6327;
88.8000;0.4632;1.6303;
89.1000;0.4640;1.6279;
89.4000;0.4632;1.6303;
89.7000;0.4632;1.6327;
90.0000;0.4648;1.6445;
90.3000;0.4632;1.6469;
90.6000;0.4615;1.6398;
90.9000;0.4640;1.6493;
91.2000;0.4632;1.6493;
91.5000;0.4640;1.6422;
91.8000;0.4624;1.6445;
92.1000;0.4624;1.6469;
92.4000;0.4648;1.6564;
92.7000;0.4632;1.6564;
93.0000;0.4640;1.6588;
93.3000;0.4632;1.6540;
93.6000;0.4640;1.6517;
93.9000;0.4656;1.6445;
94.2000;0.4632;1.6327;
94.5000;0.4632;1.6279;
94.8000;0.4648;1.6374;
95.1000;0.4624;1.6327;
95.4000;0.4632;1.6374;
95.7000;0.4632;1.6422;
96.0000;0.4632;1.6398;
96.3000;0.4640;1.6445;
96.6000;0.4640;1.6422;
96.9000;0.4640;1.6445;
97.2000;0.4640;1.6445;
97.5000;0.4640;1.6445;
97.8000;0.4640;1.6327;
98.1000;0.4648;1.6279;
98.4000;0.4624;1.6160;
98.7000;0.4624;1.6089;
99.0000;0.4632;1.6113;
99.3000;0.4632;1.6184;
99.6000;0.4632;1.6208;
99.9000;0.4624;1.6184;
100.2000;0.4632;1.6160;
100.5000;0.4615;1.6113;
100.8000;0.4632;1.6136;
101.1000;0.4640;1.6089;
101.4000;0.4664;1.6136;
101.7000;0.4632;1.6041;
102.0000;0.4632;1.6041;
102.3000;0.4640;1.6065;
102.6000;0.4640;1.6184;
102.9000;0.4648;1.6303;
103.2000;0.4632;1.6374;
103.5000;0.4632;1.6445;
103.8000;0.4624;1.6422;
104.1000;0.4632;1.6422;
104.4000;0.4632;1.6350;
104.7000;0.4624;1.6255;
105.0000;0.4632;1.6255;
105.3000;0.4640;1.6208;
105.6000;0.4632;1.6065;
105.9000;0.4583;1.5899;
106.2000;0.4648;1.6113;
106.5000;0.4689;1.6231;
106.8000;0.4648;1.6231;
107.1000;0.4632;1.6255;
107.4000;0.4656;1.6279;
107.7000;0.4656;1.6255;
108.0000;0.4664;1.6231;
108.3000;0.4672;1.6231;
108.6000;0.4640;1.6160;
108.9000;0.4656;1.6255;
109.2000;0.4656;1.6303;
109.5000;0.4648;1.6279;
109.8000;0.4640;1.6255;
110.1000;0.4640;1.6350;
110.4000;0.4681;1.6422;
110.7000;0.4656;1.6374;
111.0000;0.4640;1.6327;
111.3000;0.4640;1.6327;
111.6000;0.4615;1.6279;
111.9000;0.4648;1.6327;
112.2000;0.4648;1.6255;
112.5000;0.4599;1.6160;
112.8000;0.4689;1.6374;
113.1000;0.4648;1.6279;
113.4000;0.4648;1.6279;
113.7000;0.4583;1.6160;
114.0000;0.4664;1.6422;
114.3000;0.4648;1.6374;
114.6000;0.4615;1.6279;
114.9000;0.4640;1.6327;
115.2000;0.4640;1.6350;
115.5000;0.4624;1.6303;
115.8000;0.4648;1.6279;
116.1000;0.4624;1.6303;
116.4000;0.4640;1.6350;
116.7000;0.4640;1.6303;
117.0000;0.4632;1.6327;
117.3000;0.4640;1.6303;
117.6000;0.4640;1.6231;
117.9000;0.4640;1.6303;
118.2000;0.4632;1.6279;
118.5000;0.4632;1.6160;
118.8000;0.4632;1.6208;
119.1000;0.4640;1.6208;
119.4000;0.4640;1.6255;
119.7000;0.4640;1.6279;
120.0000;0.4575;1.6113;
120.3000;0.4648;1.6327;
120.6000;0.4656;1.6327;
120.9000;0.4640;1.6255;
121.2000;0.4632;1.6208;
121.5000;0.4640;1.6255;
121.8000;0.4640;1.6255;
122.1000;0.4640;1.6350;
122.4000;0.4575;1.6255;
122.7000;0.4632;1.6422;
123.0000;0.4648;1.6398;
123.3000;0.4640;1.6374;
123.6000;0.4648;1.6327;
123.9000;0.4648;1.6327;
124.2000;0.4640;1.6184;
124.5000;0.4640;1.6160;
124.8000;0.4632;1.6231;
125.1000;0.4648;1.6279;
125.4000;0.4640;1.6374;
125.7000;0.4640;1.6445;
126.0000;0.4632;1.6398;
126.3000;0.4648;1.6398;
126.6000;0.4648;1.6469;
126.9000;0.4640;1.6422;
127.2000;0.4640;1.6350;
127.5000;0.4640;1.6350;
127.8000;0.4640;1.6374;
128.1000;0.4640;1.6374;
128.4000;0.4632;1.6374;
128.7000;0.4648;1.6422;
129.0000;0.4640;1.6350;
129.3000;0.4640;1.6327;
129.6000;0.4640;1.6327;
129.9000;0.4632;1.6327;
130.2000;0.4640;1.6279;
130.5000;0.4632;1.6374;
130.8000;0.4558;1.6255;
131.1000;0.4632;1.6469;
131.4000;0.4591;1.6231;
131.7000;0.4624;1.6422;
132.0000;0.4640;1.6445;
132.3000;0.4624;1.6445;
132.6000;0.4648;1.6445;
132.9000;0.4689;1.6588;
133.2000;0.4672;1.6564;
133.5000;0.4632;1.6493;
133.8000;0.4648;1.6374;
134.1000;0.4648;1.6327;
134.4000;0.4607;1.6279;
134.7000;0.4656;1.6422;
135.0000;0.4632;1.6398;
135.3000;0.4640;1.6327;
135.6000;0.4648;1.6398;
135.9000;0.4656;1.6398;
136.2000;0.4640;1.6350;
136.5000;0.4640;1.6303;
136.8000;0.4648;1.6374;
137.1000;0.4656;1.6303;
137.4000;0.4648;1.6303;
137.7000;0.4648;1.6327;
138.0000;0.4729;1.6517;
138.3000;0.4640;1.6255;
138.6000;0.4632;1.6231;
138.9000;0.4640;1.6303;
139.2000;0.4640;1.6327;
139.5000;0.4640;1.6398;
139.8000;0.4632;1.6445;
140.1000;0.4632;1.6422;
140.4000;0.4648;1.6422;
140.7000;0.4640;1.6469;
141.0000;0.4648;1.6469;
141.3000;0.4624;1.6422;
141.6000;0.4640;1.6540;
141.9000;0.4705;1.6659;
142.2000;0.4664;1.6445;
142.5000;0.4640;1.6469;
142.8000;0.4591;1.6255;
143.1000;0.4648;1.6445;
143.4000;0.4681;1.6540;
143.7000;0.4640;1.6422;
144.0000;0.4567;1.6184;
144.3000;0.4664;1.6422;
144.6000;0.4648;1.6469;
144.9000;0.4640;1.6469;
145.2000;0.4632;1.6445;
145.5000;0.4640;1.6350;
145.8000;0.4640;1.6303;
146.1000;0.4624;1.6303;
146.4000;0.4624;1.6303;
146.7000;0.4632;1.6422;
147.0000;0.4656;1.6422;
147.3000;0.4632;1.6374;
147.6000;0.4648;1.6374;
147.9000;0.4648;1.6303;
148.2000;0.4640;1.6303;
148.5000;0.4737;1.6517;
148.8000;0.4648;1.6303;
149.1000;0.4648;1.6279;
149.4000;0.4656;1.6398;
149.7000;0.4656;1.6350;
150.0000;0.4632;1.6303;
150.3000;0.4632;1.6327;
150.6000;0.4648;1.6422;
150.9000;0.4648;1.6540;
151.2000;0.4640;1.6493;
151.5000;0.4632;1.6493;
151.8000;0.4640;1.6540;
152.1000;0.4558;1.6208;
152.4000;0.4615;1.6422;
152.7000;0.4640;1.6540;
153.0000;0.4648;1.6517;
153.3000;0.4648;1.6540;
153.6000;0.4640;1.6517;
153.9000;0.4648;1.6540;
154.2000;0.4648;1.6517;
154.5000;0.4664;1.6517;
154.8000;0.4648;1.6422;
155.1000;0.4640;1.6374;
155.4000;0.4624;1.6255;
155.7000;0.4640;1.6231;
156.0000;0.4640;1.6184;
156.3000;0.4632;1.6184;
156.6000;0.4624;1.6065;
156.9000;0.4648;1.6136;
157.2000;0.4664;1.6327;
157.5000;0.4640;1.6327;
157.8000;0.4640;1.6327;
158.1000;0.4640;1.6303;
158.4000;0.4648;1.6327;
158.7000;0.4640;1.6350;
159.0000;0.4648;1.6279;
159.3000;0.4640;1.6327;
159.6000;0.4640;1.6279;
159.9000;0.4640;1.6208;
160.2000;0.4640;1.6231;
160.5000;0.4624;1.6231;
160.8000;0.4640;1.6231;
161.1000;0.4640;1.6231;
161.4000;0.4632;1.6255;
161.7000;0.4640;1.6160;
162.0000;0.4648;1.6136;
162.3000;0.4624;1.6065;
162.6000;0.4648;1.6089;
162.9000;0.4648;1.6065;
163.2000;0.4664;1.6041;
163.5000;0.4648;1.6065;
163.8000;0.4689;1.6065;
164.1000;0.4648;1.5994;
164.4000;0.4697;1.6113;
164.7000;0.4656;1.6018;
165.0000;0.4656;1.6018;
165.3000;0.4632;1.5970;
165.6000;0.4640;1.6089;
165.9000;0.4640;1.6041;
166.2000;0.4672;1.6089;
166.5000;0.4632;1.6065;
166.8000;0.4615;1.6065;
167.1000;0.4656;1.6160;
167.4000;0.4632;1.6208;
167.7000;0.4640;1.6231;
168.0000;0.4648;1.6303;
168.3000;0.4624;1.6327;
168.6000;0.4640;1.6327;
168.9000;0.4575;1.6184;
169.2000;0.4640;1.6303;
169.5000;0.4648;1.6255;
169.8000;0.4648;1.6327;
170.1000;0.4640;1.6303;
170.4000;0.4640;1.6398;
170.7000;0.4591;1.6374;
171.0000;0.4729;1.6778;
171.3000;0.4640;1.6517;
171.6000;0.4624;1.6517;
171.9000;0.4624;1.6540;
172.2000;0.4648;1.6612;
172.5000;0.4640;1.6612;
172.8000;0.4648;1.6540;
173.1000;0.4648;1.6445;
173.4000;0.4640;1.6398;
173.7000;0.4640;1.6374;
174.0000;0.4624;1.6374;
174.3000;0.4640;1.6469;
174.6000;0.4640;1.6445;
174.9000;0.4648;1.6469;
175.2000;0.4648;1.6469;
175.5000;0.4640;1.6493;
175.8000;0.4632;1.6493;
176.1000;0.4640;1.6517;
176.4000;0.4640;1.6517;
176.7000;0.4640;1.6540;
177.0000;0.4648;1.6540;
177.3000;0.4607;1.6445;
177.6000;0.4632;1.6493;
177.9000;0.4632;1.6422;
178.2000;0.4648;1.6327;
178.5000;0.4648;1.6303;
178.8000;0.4640;1.6303;
179.1000;0.4624;1.6350;
179.4000;0.4729;1.6612;
179.7000;0.4656;1.6445;
180.0000;0.4648;1.6469;
180.3000;0.4632;1.6445;
180.6000;0.4648;1.6445;
180.9000;0.4640;1.6398;
181.2000;0.4648;1.6445;
181.5000;0.4632;1.6374;
181.8000;0.4640;1.6350;
182.1000;0.4656;1.6422;
182.4000;0.4681;1.6422;
182.7000;0.4583;1.6160;
183.0000;0.4648;1.6255;
183.3000;0.4640;1.6231;
183.6000;0.4664;1.6303;
183.9000;0.4656;1.6303;
184.2000;0.4640;1.6208;
184.5000;0.4648;1.6231;
184.8000;0.4664;1.6255;
185.1000;0.4648;1.6255;
185.4000;0.4656;1.6279;
185.7000;0.4640;1.6279;
186.0000;0.4640;1.6327;
186.3000;0.4640;1.6303;
186.6000;0.4656;1.6398;
186.9000;0.4640;1.6398;
187.2000;0.4632;1.6327;
187.5000;0.4640;1.6327;
187.8000;0.4640;1.6279;
188.1000;0.4648;1.6327;
188.4000;0.4632;1.6303;
188.7000;0.4664;1.6445;
189.0000;0.4632;1.6422;
189.3000;0.4632;1.6374;
189.6000;0.4713;1.6588;
189.9000;0.4640;1.6493;
190.2000;0.4632;1.6517;
190.5000;0.4648;1.6469;
190.8000;0.4648;1.6564;
191.1000;0.4640;1.6517;
191.4000;0.4640;1.6445;
191.7000;0.4648;1.6398;
192.0000;0.4640;1.6374;
192.3000;0.4648;1.6445;
192.6000;0.4656;1.6540;
192.9000;0.4648;1.6469;
193.2000;0.4624;1.6255;
193.5000;0.4648;1.6303;
193.8000;0.4648;1.6303;
194.1000;0.4632;1.6303;
194.4000;0.4640;1.6303;
194.7000;0.4656;1.6303;
195.0000;0.4648;1.6303;
195.3000;0.4648;1.6350;
195.6000;0.4624;1.6303;
195.9000;0.4624;1.6350;
196.2000;0.4624;1.6303;
196.5000;0.4640;1.6422;
196.8000;0.4632;1.6445;
197.1000;0.4632;1.6517;
197.4000;0.4615;1.6469;
197.7000;0.4632;1.6469;
198.0000;0.4624;1.6398;
198.3000;0.4632;1.6374;
198.6000;0.4624;1.6350;
198.9000;0.4624;1.6255;
199.2000;0.4648;1.6279;
199.5000;0.4632;1.6327;
199.8000;0.4632;1.6303;
200.1000;0.4648;1.6327;
200.4000;0.4632;1.6279;
200.7000;0.4632;1.6303;
201.0000;0.4640;1.6255;
201.3000;0.4558;1.6018;
201.6000;0.4648;1.6255;
201.9000;0.4640;1.6303;
202.2000;0.4640;1.6279;
202.5000;0.4624;1.6208;
202.8000;0.4640;1.6255;
203.1000;0.4640;1.6303;
203.4000;0.4640;1.6303;
203.7000;0.4632;1.6255;
204.0000;0.4656;1.6374;
204.3000;0.4648;1.6398;
204.6000;0.4664;1.6422;
204.9000;0.4648;1.6398;
205.2000;0.4648;1.6398;
205.5000;0.4648;1.6445;
205.8000;0.4632;1.6350;
206.1000;0.4640;1.6398;
206.4000;0.4632;1.6398;
206.7000;0.4640;1.6398;
207.0000;0.4632;1.6279;
207.3000;0.4640;1.6255;
207.6000;0.4640;1.6231;
207.9000;0.4656;1.6303;
208.2000;0.4648;1.6279;
208.5000;0.4640;1.6303;
208.8000;0.4632;1.6303;
209.1000;0.4648;1.6350;
209.4000;0.4648;1.6350;
209.7000;0.4640;1.6327;
210.0000;0.4632;1.6279;
210.3000;0.4648;1.6255;
210.6000;0.4656;1.6303;
210.9000;0.4648;1.6303;
211.2000;0.4632;1.6231;
211.5000;0.4632;1.6255;
211.8000;0.4648;1.6350;
212.1000;0.4648;1.6398;
212.4000;0.4640;1.6398;
212.7000;0.4656;1.6398;
213.0000;0.4640;1.6422;
213.3000;0.4648;1.6398;
213.6000;0.4632;1.6422;
213.9000;0.4640;1.6469;
214.2000;0.4664;1.6493;
214.5000;0.4656;1.6517;
214.8000;0.4583;1.6231;
215.1000;0.4632;1.6398;
215.4000;0.4624;1.6445;
215.7000;0.4681;1.6612;
216.0000;0.4648;1.6422;
216.3000;0.4640;1.6303;
216.6000;0.4656;1.6350;
216.9000;0.4640;1.6303;
217.2000;0.4713;1.6493;
217.5000;0.4632;1.6350;
217.8000;0.4656;1.6422;
218.1000;0.4640;1.6469;
218.4000;0.4656;1.6493;
218.7000;0.4640;1.6445;
219.0000;0.4624;1.6398;
219.3000;0.4640;1.6398;
219.6000;0.4648;1.6469;
219.9000;0.4632;1.6445;
220.2000;0.4640;1.6445;
220.5000;0.4648;1.6445;
220.8000;0.4640;1.6398;
221.1000;0.4607;1.6350;
221.4000;0.4632;1.6398;
221.7000;0.4624;1.6303;
222.0000;0.4648;1.6493;
222.3000;0.4640;1.6517;
222.6000;0.4656;1.6493;
222.9000;0.4624;1.6445;
223.2000;0.4648;1.6469;
223.5000;0.4656;1.6469;
223.8000;0.4640;1.6469;
224.1000;0.4640;1.6469;
224.4000;0.4672;1.6517;
224.7000;0.4632;1.6469;
225.0000;0.4681;1.6493;
225.3000;0.4648;1.6469;
225.6000;0.4664;1.6564;
225.9000;0.4648;1.6517;
226.2000;0.4640;1.6588;
226.5000;0.4681;1.6731;
226.8000;0.4632;1.6517;
227.1000;0.4656;1.6517;
227.4000;0.4632;1.6517;
227.7000;0.4648;1.6493;
228.0000;0.4640;1.6445;
228.3000;0.4672;1.6564;
228.6000;0.4640;1.6469;
228.9000;0.4640;1.6493;
229.2000;0.4640;1.6469;
229.5000;0.4648;1.6469;
229.8000;0.4640;1.6445;
230.1000;0.4607;1.6445;
230.4000;0.4664;1.6588;
230.7000;0.4640;1.6540;
231.0000;0.4632;1.6564;
231.3000;0.4624;1.6612;
231.6000;0.4648;1.6612;
231.9000;0.4632;1.6540;
232.2000;0.4648;1.6540;
232.5000;0.4640;1.6445;
232.8000;0.4632;1.6327;
233.1000;0.4640;1.6350;
233.4000;0.4640;1.6303;
233.7000;0.4640;1.6327;
234.0000;0.4632;1.6350;
234.3000;0.4632;1.6398;
234.6000;0.4648;1.6445;
234.9000;0.4648;1.6422;
235.2000;0.4632;1.6422;
235.5000;0.4640;1.6422;
235.8000;0.4640;1.6422;
236.1000;0.4640;1.6374;
236.4000;0.4640;1.6398;
236.7000;0.4648;1.6374;
237.0000;0.4632;1.6398;
237.3000;0.4632;1.6469;
237.6000;0.4640;1.6445;
237.9000;0.4648;1.6422;
238.2000;0.4681;1.6493;
238.5000;0.4640;1.6469;
238.8000;0.4713;1.6588;
239.1000;0.4632;1.6350;
239.4000;0.4648;1.6422;
239.7000;0.4640;1.6422;
240.0000;0.4624;1.6374;
240.3000;0.4624;1.6327;
240.6000;0.4632;1.6350;
240.9000;0.4640;1.6279;
241.2000;0.4615;1.6208;
241.5000;0.4615;1.6279;
241.8000;0.4615;1.6279;
242.1000;0.4640;1.6279;
242.4000;0.4632;1.6255;
242.7000;0.4640;1.6303;
243.0000;0.4607;1.6184;
243.3000;0.4640;1.6231;
243.6000;0.4640;1.6231;
243.9000;0.4640;1.6279;
244.2000;0.4591;1.6136;
244.5000;0.4624;1.6255;
244.8000;0.4632;1.6374;
245.1000;0.4632;1.6398;
245.4000;0.4624;1.6350;
245.7000;0.4632;1.6398;
246.0000;0.4640;1.6493;
246.3000;0.4640;1.6493;
246.6000;0.4632;1.6445;
246.9000;0.4640;1.6493;
247.2000;0.4640;1.6469;
247.5000;0.4632;1.6422;
247.8000;0.4640;1.6422;
248.1000;0.4648;1.6469;
248.4000;0.4664;1.6588;
248.7000;0.4640;1.6540;
249.0000;0.4632;1.6540;
249.3000;0.4640;1.6540;
249.6000;0.4624;1.6540;
249.9000;0.4640;1.6635;
250.2000;0.4640;1.6564;
250.5000;0.4591;1.6398;
250.8000;0.4640;1.6517;
251.1000;0.4656;1.6469;
251.4000;0.4648;1.6398;
251.7000;0.4648;1.6493;
252.0000;0.4648;1.6445;
252.3000;0.4648;1.6398;
252.6000;0.4615;1.6303;
252.9000;0.4624;1.6279;
253.2000;0.4648;1.6279;
253.5000;0.4648;1.6398;
253.8000;0.4632;1.6445;
254.1000;0.4672;1.6540;
254.4000;0.4632;1.6422;
254.7000;0.4648;1.6445;
255.0000;0.4632;1.6398;
255.3000;0.4632;1.6350;
255.6000;0.4567;1.6255;
255.9000;0.4672;1.6517;
256.2000;0.4640;1.6493;
256.5000;0.4632;1.6350;
256.8000;0.4624;1.6422;
257.1000;0.4640;1.6445;
257.4000;0.4640;1.6445;
257.7000;0.4615;1.6422;
258.0000;0.4632;1.6517;
258.3000;0.4640;1.6493;
258.6000;0.4632;1.6469;
258.9000;0.4624;1.6398;
259.2000;0.4632;1.6350;
259.5000;0.4624;1.6374;
259.8000;0.4632;1.6374;
260.1000;0.4640;1.6327;
260.4000;0.4640;1.6279;
260.7000;0.4632;1.6279;
261.0000;0.4632;1.6208;
261.3000;0.4558;1.5970;
261.6000;0.4640;1.6208;
261.9000;0.4648;1.6184;
262.2000;0.4640;1.6160;
262.5000;0.4640;1.6279;
262.8000;0.4648;1.6374;
263.1000;0.4640;1.6303;
263.4000;0.4672;1.6469;
263.7000;0.4640;1.6469;
264.0000;0.4640;1.6398;
264.3000;0.4632;1.6445;
264.6000;0.4624;1.6445;
264.9000;0.4640;1.6445;
265.2000;0.4632;1.6422;
265.5000;0.4624;1.6398;
265.8000;0.4632;1.6398;
266.1000;0.4672;1.6493;
266.4000;0.4648;1.6493;
266.7000;0.4615;1.6350;
267.0000;0.4640;1.6303;
267.3000;0.4632;1.6303;
267.6000;0.4689;1.6445;
267.9000;0.4640;1.6303;
268.2000;0.4689;1.6445;
268.5000;0.4648;1.6374;
268.8000;0.4640;1.6398;
269.1000;0.4615;1.6303;
269.4000;0.4591;1.6208;
269.7000;0.4583;1.6113;
270.0000;0.4640;1.6327;
270.3000;0.4640;1.6327;
270.6000;0.4615;1.6279;
270.9000;0.4624;1.6327;
271.2000;0.4632;1.6303;
271.5000;0.4583;1.6160;
271.8000;0.4632;1.6303;
272.1000;0.4640;1.6327;
272.4000;0.4640;1.6255;
272.7000;0.4648;1.6303;
273.0000;0.4640;1.6350;
273.3000;0.4640;1.6374;
273.6000;0.4640;1.6374;
273.9000;0.4607;1.6279;
274.2000;0.4640;1.6327;
274.5000;0.4624;1.6303;
274.8000;0.4607;1.6184;
275.1000;0.4648;1.6231;
275.4000;0.4624;1.6208;
275.7000;0.4640;1.6303;
276.0000;0.4681;1.6517;
276.3000;0.4640;1.6422;
276.6000;0.4640;1.6374;
276.9000;0.4648;1.6374;
277.2000;0.4648;1.6374;
277.5000;0.4632;1.6303;
277.8000;0.4656;1.6350;
278.1000;0.4624;1.6279;
278.4000;0.4632;1.6303;
278.7000;0.4648;1.6255;
279.0000;0.4632;1.6231;
279.3000;0.4615;1.6231;
279.6000;0.4615;1.6303;
279.9000;0.4615;1.6279;
280.2000;0.4632;1.6303;
280.5000;0.4632;1.6303;
280.8000;0.4615;1.6279;
281.1000;0.4632;1.6374;
281.4000;0.4632;1.6422;
281.7000;0.4624;1.6398;
282.0000;0.4632;1.6469;
282.3000;0.4640;1.6540;
282.6000;0.4632;1.6588;
282.9000;0.4632;1.6493;
283.2000;0.4599;1.6398;
283.5000;0.4624;1.6445;
283.8000;0.4632;1.6540;
284.1000;0.4648;1.6469;
284.4000;0.4624;1.6469;
284.7000;0.4599;1.6350;
285.0000;0.4640;1.6517;
285.3000;0.4575;1.6398;
285.6000;0.4640;1.6517;
285.9000;0.4664;1.6635;
286.2000;0.4640;1.6635;
286.5000;0.4632;1.6612;
286.8000;0.4632;1.6588;
287.1000;0.4664;1.6564;
287.4000;0.4632;1.6493;
287.7000;0.4656;1.6659;
288.0000;0.4640;1.6612;
288.3000;0.4624;1.6540;
288.6000;0.4640;1.6469;
288.9000;0.4624;1.6469;
289.2000;0.4624;1.6540;
289.5000;0.4607;1.6469;
289.8000;0.4624;1.6493;
290.1000;0.4607;1.6493;
290.4000;0.4632;1.6422;
290.7000;0.4632;1.6350;
291.0000;0.4648;1.6493;
291.3000;0.4624;1.6374;
291.6000;0.4640;1.6398;
291.9000;0.4648;1.6398;
292.2000;0.4632;1.6374;
292.5000;0.4624;1.6445;
292.8000;0.4648;1.6540;
293.1000;0.4672;1.6612;
293.4000;0.4575;1.6445;
293.7000;0.4632;1.6564;
294.0000;0.4632;1.6517;
294.3000;0.4656;1.6540;
294.6000;0.4624;1.6422;
294.9000;0.4615;1.6398;
295.2000;0.4624;1.6469;
295.5000;0.4648;1.6493;
295.8000;0.4583;1.6327;
296.1000;0.4656;1.6398;
296.4000;0.4632;1.6374;
296.7000;0.4632;1.6374;
297.0000;0.4697;1.6540;
297.3000;0.4640;1.6422;
297.6000;0.4648;1.6469;
297.9000;0.4640;1.6422;
298.2000;0.4640;1.6422;
298.5000;0.4615;1.6255;
298.8000;0.4640;1.6279;
299.1000;0.4632;1.6136;
299.4000;0.4640;1.6279;
299.7000;0.4624;1.6255;
300.0000;0.4640;1.6327;
300.3000;0.4624;1.6374;
300.6000;0.4624;1.6350;
300.9000;0.4632;1.6422;
301.2000;0.4632;1.6398;
301.5000;0.4656;1.6469;
301.8000;0.4632;1.6422;
302.1000;0.4640;1.6445;
302.4000;0.4632;1.6422;
302.7000;0.4632;1.6398;
303.0000;0.4640;1.6445;
303.3000;0.4632;1.6422;
303.6000;0.4624;1.6327;
303.9000;0.4632;1.6374;
304.2000;0.4640;1.6422;
304.5000;0.4632;1.6493;
304.8000;0.4624;1.6588;
305.1000;0.4632;1.6540;
305.4000;0.4729;1.6873;
305.7000;0.4640;1.6588;
306.0000;0.4632;1.6588;
306.3000;0.4632;1.6612;
306.6000;0.4624;1.6517;
306.9000;0.4624;1.6374;
307.2000;0.4632;1.6422;
307.5000;0.4632;1.6469;
307.8000;0.4632;1.6445;
308.1000;0.4648;1.6493;
308.4000;0.4640;1.6540;
308.7000;0.4624;1.6517;
309.0000;0.4632;1.6493;
309.3000;0.4624;1.6469;
309.6000;0.4632;1.6540;
309.9000;0.4615;1.6493;
310.2000;0.4624;1.6564;
310.5000;0.4599;1.6564;
310.8000;0.4624;1.6540;
311.1000;0.4632;1.6588;
311.4000;0.4624;1.6588;
311.7000;0.4632;1.6683;
312.0000;0.4656;1.6731;
312.3000;0.4640;1.6635;
312.6000;0.4632;1.6659;
312.9000;0.4632;1.6635;
313.2000;0.4624;1.6659;
313.5000;0.4615;1.6588;
313.8000;0.4624;1.6517;
314.1000;0.4632;1.6517;
314.4000;0.4640;1.6564;
314.7000;0.4640;1.6540;
315.0000;0.4681;1.6612;
315.3000;0.4607;1.6493;
315.6000;0.4640;1.6588;
315.9000;0.4640;1.6517;
316.2000;0.4607;1.6422;
316.5000;0.4615;1.6445;
316.8000;0.4624;1.6445;
317.1000;0.4624;1.6493;
317.4000;0.4640;1.6493;
317.7000;0.4624;1.6398;
318.0000;0.4640;1.6422;
318.3000;0.4648;1.6422;
318.6000;0.4632;1.6350;
318.9000;0.4640;1.6445;
319.2000;0.4632;1.6422;
319.5000;0.4615;1.6398;
319.8000;0.4632;1.6493;
320.1000;0.4607;1.6398;
320.4000;0.4632;1.6422;
320.7000;0.4640;1.6445;
321.0000;0.4640;1.6445;
321.3000;0.4632;1.6303;
321.6000;0.4656;1.6231;
321.9000;0.4640;1.6208;
322.2000;0.4648;1.6303;
322.5000;0.4607;1.6255;
322.8000;0.4624;1.6350;
323.1000;0.4632;1.6374;
323.4000;0.4583;1.6279;
323.7000;0.4607;1.6303;
324.0000;0.4615;1.6279;
324.3000;0.4624;1.6303;
324.6000;0.4607;1.6303;
324.9000;0.4615;1.6350;
325.2000;0.4632;1.6422;
325.5000;0.4624;1.6445;
325.8000;0.4640;1.6564;
326.1000;0.4632;1.6493;
326.4000;0.4624;1.6350;
326.7000;0.4624;1.6350;
327.0000;0.4632;1.6374;
327.3000;0.4632;1.6350;
327.6000;0.4632;1.6374;
327.9000;0.4632;1.6445;
328.2000;0.4624;1.6469;
328.5000;0.4632;1.6588;
328.8000;0.4632;1.6493;
329.1000;0.4624;1.6422;
329.4000;0.4632;1.6327;
329.7000;0.4624;1.6350;
330.0000;0.4607;1.6398;
330.3000;0.4550;1.6160;
330.6000;0.4624;1.6350;
330.9000;0.4624;1.6350;
331.2000;0.4624;1.6374;
331.5000;0.4632;1.6445;
331.8000;0.4624;1.6327;
332.1000;0.4640;1.6327;
332.4000;0.4615;1.6303;
332.7000;0.4648;1.6303;
333.0000;0.4624;1.6303;
333.3000;0.4624;1.6231;
333.6000;0.4624;1.6350;
333.9000;0.4624;1.6398;
334.2000;0.4615;1.6422;
334.5000;0.4615;1.6422;
334.8000;0.4640;1.6422;
335.1000;0.4624;1.6327;
335.4000;0.4607;1.6350;
335.7000;0.4615;1.6350;
336.0000;0.4664;1.6398;
336.3000;0.4632;1.6327;
336.6000;0.4640;1.6279;
336.9000;0.4640;1.6303;
337.2000;0.4640;1.6327;
337.5000;0.4648;1.6398;
337.8000;0.4640;1.6398;
338.1000;0.4632;1.6493;
338.4000;0.4640;1.6493;
338.7000;0.4640;1.6612;
339.0000;0.4672;1.6635;
339.3000;0.4632;1.6540;
339.6000;0.4640;1.6517;
339.9000;0.4632;1.6469;
340.2000;0.4632;1.6350;
340.5000;0.4656;1.6422;
340.8000;0.4640;1.6398;
341.1000;0.4640;1.6422;
341.4000;0.4640;1.6469;
341.7000;0.4632;1.6422;
342.0000;0.4640;1.6398;
342.3000;0.4640;1.6422;
342.6000;0.4640;1.6398;
342.9000;0.4632;1.6374;
343.2000;0.4624;1.6398;
343.5000;0.4640;1.6303;
343.8000;0.4632;1.6279;
344.1000;0.4624;1.6255;
344.4000;0.4615;1.6279;
344.7000;0.4632;1.6350;
345.0000;0.4640;1.6398;
345.3000;0.4632;1.6398;
345.6000;0.4624;1.6350;
345.9000;0.4640;1.6374;
346.2000;0.4624;1.6469;
346.5000;0.4632;1.6517;
346.8000;0.4632;1.6564;
347.1000;0.4640;1.6612;
347.4000;0.4632;1.6659;
347.7000;0.4632;1.6588;
348.0000;0.4681;1.6588;
348.3000;0.4624;1.6350;
348.6000;0.4640;1.6469;
348.9000;0.4640;1.6469;
349.2000;0.4615;1.6469;
349.5000;0.4632;1.6493;
349.8000;0.4599;1.6445;
350.1000;0.4624;1.6445;
350.4000;0.4624;1.6469;
350.7000;0.4624;1.6469;
351.0000;0.4624;1.6540;
351.3000;0.4632;1.6612;
351.6000;0.4615;1.6540;
351.9000;0.4607;1.6588;
352.2000;0.4689;1.6754;
352.5000;0.4624;1.6588;
352.8000;0.4632;1.6659;
353.1000;0.4615;1.6635;
353.4000;0.4632;1.6659;
353.7000;0.4697;1.6826;
354.0000;0.4624;1.6707;
354.3000;0.4567;1.6445;
354.6000;0.4615;1.6659;
354.9000;0.4624;1.6635;
355.2000;0.4672;1.6683;
355.5000;0.4624;1.6493;
355.8000;0.4575;1.6350;
356.1000;0.4624;1.6517;
356.4000;0.4632;1.6493;
356.7000;0.4624;1.6469;
357.0000;0.4632;1.6564;
357.3000;0.4632;1.6517;
357.6000;0.4632;1.6540;
357.9000;0.4632;1.6469;
358.2000;0.4615;1.6350;
358.5000;0.4599;1.6255;
358.8000;0.4640;1.6208;
359.1000;0.4615;1.6279;
359.4000;0.4607;1.6255;
359.7000;0.4607;1.6303;
360.0000;0.4664;1.6422;
360.3000;0.4624;1.6445;
360.6000;0.4615;1.6398;
360.9000;0.4599;1.6255;
361.2000;0.4607;1.6422;
361.5000;0.4624;1.6469;
361.8000;0.4607;1.6517;
362.1000;0.4713;1.6778;
362.4000;0.4640;1.6564;
362.7000;0.4624;1.6540;
363.0000;0.4599;1.6374;
363.3000;0.4624;1.6469;
363.6000;0.4607;1.6540;
363.9000;0.4599;1.6493;
364.2000;0.4624;1.6540;
364.5000;0.4624;1.6540;
364.8000;0.4607;1.6540;
365.1000;0.4632;1.6517;
365.4000;0.4632;1.6469;
365.7000;0.4624;1.6374;
366.0000;0.4624;1.6350;
366.3000;0.4640;1.6374;
366.6000;0.4632;1.6374;
366.9000;0.4640;1.6374;
367.2000;0.4624;1.6350;
367.5000;0.4640;1.6398;
367.8000;0.4599;1.6398;
368.1000;0.4624;1.6422;
368.4000;0.4615;1.6422;
368.7000;0.4607;1.6493;
369.0000;0.4615;1.6540;
369.3000;0.4632;1.6540;
369.6000;0.4583;1.6350;
369.9000;0.4624;1.6422;
370.2000;0.4632;1.6422;
370.5000;0.4615;1.6422;
370.8000;0.4632;1.6422;
371.1000;0.4624;1.6493;
371.4000;0.4632;1.6517;
371.7000;0.4632;1.6517;
372.0000;0.4624;1.6540;
372.3000;0.4624;1.6469;
372.6000;0.4640;1.6469;
372.9000;0.4624;1.6398;
373.2000;0.4615;1.6350;
373.5000;0.4648;1.6445;
373.8000;0.4599;1.6350;
374.1000;0.4615;1.6540;
374.4000;0.4624;1.6469;
374.7000;0.4615;1.6445;
375.0000;0.4705;1.6707;
375.3000;0.4656;1.6517;
375.6000;0.4632;1.6422;
375.9000;0.4632;1.6398;
376.2000;0.4624;1.6422;
376.5000;0.4615;1.6469;
376.8000;0.4640;1.6588;
377.1000;0.4624;1.6517;
377.4000;0.4615;1.6517;
377.7000;0.4615;1.6588;
378.0000;0.4615;1.6540;
378.3000;0.4624;1.6588;
378.6000;0.4615;1.6588;
378.9000;0.4607;1.6517;
379.2000;0.4624;1.6445;
379.5000;0.4632;1.6493;
379.8000;0.4624;1.6493;
380.1000;0.4624;1.6445;
380.4000;0.4624;1.6469;
380.7000;0.4664;1.6540;
381.0000;0.4591;1.6445;
381.3000;0.4615;1.6469;
381.6000;0.4607;1.6493;
381.9000;0.4640;1.6659;
382.2000;0.4615;1.6517;
382.5000;0.4624;1.6540;
382.8000;0.4632;1.6493;
383.1000;0.4640;1.6493;
383.4000;0.4640;1.6374;
383.7000;0.4681;1.6493;
384.0000;0.4607;1.6445;
384.3000;0.4632;1.6540;
384.6000;0.4615;1.6564;
384.9000;0.4632;1.6612;
385.2000;0.4632;1.6588;
385.5000;0.4656;1.6659;
385.8000;0.4632;1.6564;
386.1000;0.4624;1.6588;
386.4000;0.4615;1.6517;
386.7000;0.4648;1.6540;
387.0000;0.4615;1.6493;
387.3000;0.4624;1.6493;
387.6000;0.4624;1.6564;
387.9000;0.4615;1.6493;
388.2000;0.4624;1.6493;
388.5000;0.4607;1.6350;
388.8000;0.4615;1.6398;
389.1000;0.4615;1.6469;
389.4000;0.4624;1.6540;
389.7000;0.4615;1.6540;
390.0000;0.4599;1.6422;
390.3000;0.4632;1.6398;
390.6000;0.4624;1.6422;
390.9000;0.4567;1.6327;
391.2000;0.4624;1.6422;
391.5000;0.4607;1.6303;
391.8000;0.4640;1.6445;
392.1000;0.4583;1.6398;
392.4000;0.4632;1.6493;
392.7000;0.4624;1.6493;
393.0000;0.4640;1.6564;
393.3000;0.4632;1.6469;
393.6000;0.4624;1.6469;
393.9000;0.4615;1.6493;
394.2000;0.4632;1.6517;
394.5000;0.4599;1.6374;
394.8000;0.4632;1.6422;
395.1000;0.4615;1.6303;
395.4000;0.4632;1.6255;
395.7000;0.4624;1.6208;
396.0000;0.4624;1.6255;
396.3000;0.4632;1.6279;
396.6000;0.4624;1.6303;
396.9000;0.4640;1.6445;
397.2000;0.4624;1.6469;
397.5000;0.4615;1.6517;
397.8000;0.4615;1.6564;
398.1000;0.4624;1.6540;
398.4000;0.4632;1.6588;
398.7000;0.4615;1.6659;
399.0000;0.4615;1.6659;
399.3000;0.4656;1.6826;
399.6000;0.4624;1.6683;
399.9000;0.4591;1.6635;
400.2000;0.4615;1.6635;
400.5000;0.4632;1.6612;
400.8000;0.4721;1.6778;
401.1000;0.4632;1.6564;
401.4000;0.4624;1.6588;
401.7000;0.4615;1.6493;
402.0000;0.4632;1.6517;
402.3000;0.4632;1.6493;
402.6000;0.4624;1.6469;
402.9000;0.4648;1.6659;
403.2000;0.4607;1.6635;
403.5000;0.4615;1.6612;
403.8000;0.4510;1.6350;
404.1000;0.4624;1.6588;
404.4000;0.4624;1.6612;
404.7000;0.4624;1.6635;
405.0000;0.4640;1.6659;
405.3000;0.4615;1.6517;
405.6000;0.4640;1.6493;
405.9000;0.4640;1.6469;
406.2000;0.4615;1.6469;
406.5000;0.4624;1.6540;
406.8000;0.4632;1.6564;
407.1000;0.4632;1.6517;
407.4000;0.4632;1.6469;
407.7000;0.4615;1.6445;
408.0000;0.4607;1.6517;
408.3000;0.4632;1.6564;
408.6000;0.4664;1.6707;
408.9000;0.4615;1.6540;
409.2000;0.4607;1.6659;
409.5000;0.4550;1.6445;
409.8000;0.4607;1.6612;
410.1000;0.4607;1.6635;
410.4000;0.4607;1.6635;
410.7000;0.4599;1.6540;
411.0000;0.4615;1.6588;
411.3000;0.4599;1.6517;
411.6000;0.4632;1.6540;
411.9000;0.4607;1.6398;
412.2000;0.4615;1.6469;
412.5000;0.4615;1.6469;
412.8000;0.4607;1.6564;
413.1000;0.4599;1.6588;
413.4000;0.4607;1.6612;
413.7000;0.4615;1.6778;
414.0000;0.4624;1.6731;
414.3000;0.4591;1.6540;
414.6000;0.4640;1.6683;
414.9000;0.4615;1.6612;
415.2000;0.4599;1.6540;
415.5000;0.4567;1.6422;
415.8000;0.4632;1.6588;
416.1000;0.4615;1.6564;
416.4000;0.4591;1.6493;
416.7000;0.4624;1.6588;
417.0000;0.4624;1.6540;
417.3000;0.4632;1.6612;
417.6000;0.4624;1.6612;
417.9000;0.4599;1.6540;
418.2000;0.4624;1.6564;
418.5000;0.4624;1.6612;
418.8000;0.4615;1.6588;
419.1000;0.4607;1.6564;
419.4000;0.4615;1.6517;
419.7000;0.4632;1.6493;
420.0000;0.4632;1.6564;
420.3000;0.4632;1.6612;
420.6000;0.4615;1.6540;
420.9000;0.4624;1.6540;
421.2000;0.4632;1.6588;
421.5000;0.4615;1.6659;
421.8000;0.4607;1.6707;
422.1000;0.4615;1.6754;
422.4000;0.4656;1.6849;
422.7000;0.4632;1.6873;
423.0000;0.4624;1.6802;
423.3000;0.4615;1.6754;
423.6000;0.4615;1.6778;
423.9000;0.4640;1.6588;
424.2000;0.4632;1.6612;
424.5000;0.4615;1.6564;
424.8000;0.4615;1.6588;
425.1000;0.4632;1.6659;
425.4000;0.4648;1.6707;
425.7000;0.4624;1.6564;
426.0000;0.4624;1.6540;
426.3000;0.4648;1.6564;
426.6000;0.4615;1.6540;
426.9000;0.4607;1.6422;
427.2000;0.4632;1.6445;
427.5000;0.4615;1.6493;
427.8000;0.4615;1.6588;
428.1000;0.4624;1.6493;
428.4000;0.4615;1.6422;
428.7000;0.4624;1.6469;
429.0000;0.4607;1.6517;
429.3000;0.4624;1.6564;
429.6000;0.4624;1.6517;
429.9000;0.4615;1.6517;
430.2000;0.4624;1.6564;
430.5000;0.4583;1.6469;
430.8000;0.4632;1.6493;
431.1000;0.4599;1.6493;
431.4000;0.4607;1.6683;
431.7000;0.4624;1.6778;
432.0000;0.4591;1.6707;
432.3000;0.4607;1.6826;
432.6000;0.4615;1.6897;
432.9000;0.4624;1.6849;
433.2000;0.4607;1.6754;
433.5000;0.4624;1.6897;
433.8000;0.4624;1.6921;
434.1000;0.4615;1.6849;
434.4000;0.4607;1.6826;
434.7000;0.4624;1.6826;
435.0000;0.4607;1.6731;
435.3000;0.4599;1.6707;
435.6000;0.4624;1.6802;
435.9000;0.4607;1.6778;
436.2000;0.4615;1.6778;
436.5000;0.4640;1.6921;
436.8000;0.4607;1.6802;
437.1000;0.4624;1.6849;
437.4000;0.4607;1.6826;
437.7000;0.4591;1.6778;
438.0000;0.4599;1.6826;
438.3000;0.4615;1.6849;
438.6000;0.4624;1.6897;
438.9000;0.4632;1.6873;
439.2000;0.4607;1.6731;
439.5000;0.4632;1.6683;
439.8000;0.4599;1.6754;
440.1000;0.4599;1.6683;
440.4000;0.4591;1.6564;
440.7000;0.4607;1.6612;
441.0000;0.4583;1.6588;
441.3000;0.4632;1.6683;
441.6000;0.4615;1.6612;
441.9000;0.4615;1.6683;
442.2000;0.4615;1.6635;
442.5000;0.4615;1.6683;
442.8000;0.4624;1.6683;
443.1000;0.4607;1.6635;
443.4000;0.4599;1.6564;
443.7000;0.4664;1.6754;
444.0000;0.4624;1.6612;
444.3000;0.4624;1.6588;
444.6000;0.4607;1.6612;
444.9000;0.4599;1.6588;
445.2000;0.4624;1.6540;
445.5000;0.4632;1.6517;
445.8000;0.4615;1.6469;
446.1000;0.4615;1.6469;
446.4000;0.4648;1.6540;
446.7000;0.4624;1.6493;
447.0000;0.4624;1.6564;
447.3000;0.4607;1.6588;
447.6000;0.4615;1.6517;
447.9000;0.4615;1.6564;
448.2000;0.4550;1.6327;
448.5000;0.4632;1.6493;
448.8000;0.4656;1.6517;
449.1000;0.4624;1.6493;
449.4000;0.4615;1.6493;
449.7000;0.4624;1.6540;
450.0000;0.4624;1.6612;
450.3000;0.4624;1.6612;
450.6000;0.4599;1.6517;
450.9000;0.4615;1.6517;
451.2000;0.4624;1.6588;
451.5000;0.4648;1.6659;
451.8000;0.4624;1.6588;
452.1000;0.4632;1.6612;
452.4000;0.4599;1.6588;
452.7000;0.4624;1.6564;
453.0000;0.4632;1.6635;
453.3000;0.4624;1.6659;
453.6000;0.4648;1.6683;
453.9000;0.4632;1.6659;
454.2000;0.4624;1.6635;
454.5000;0.4632;1.6517;
454.8000;0.4583;1.6469;
455.1000;0.4534;1.6350;
455.4000;0.4640;1.6540;
455.7000;0.4615;1.6588;
456.0000;0.4607;1.6588;
456.3000;0.4624;1.6635;
456.6000;0.4672;1.6802;
456.9000;0.4615;1.6635;
457.2000;0.4599;1.6635;
457.5000;0.4591;1.6683;
457.8000;0.4615;1.6707;
458.1000;0.4615;1.6564;
458.4000;0.4624;1.6635;
458.7000;0.4615;1.6659;
459.0000;0.4607;1.6588;
459.3000;0.4599;1.6493;
459.6000;0.4615;1.6635;
459.9000;0.4607;1.6517;
460.2000;0.4624;1.6540;
460.5000;0.4607;1.6517;
460.8000;0.4624;1.6540;
461.1000;0.4542;1.6350;
461.4000;0.4607;1.6612;
461.7000;0.4624;1.6707;
462.0000;0.4615;1.6683;
462.3000;0.4615;1.6588;
462.6000;0.4615;1.6517;
462.9000;0.4607;1.6469;
463.2000;0.4607;1.6469;
463.5000;0.4599;1.6422;
463.8000;0.4624;1.6517;
464.1000;0.4501;1.6279;
464.4000;0.4607;1.6612;
464.7000;0.4591;1.6540;
465.0000;0.4607;1.6564;
465.3000;0.4632;1.6659;
465.6000;0.4632;1.6635;
465.9000;0.4624;1.6635;
466.2000;0.4591;1.6469;
466.5000;0.4607;1.6588;
466.8000;0.4632;1.6588;
467.1000;0.4624;1.6588;
467.4000;0.4632;1.6540;
467.7000;0.4624;1.6635;
468.0000;0.4599;1.6588;
468.3000;0.4607;1.6612;
468.6000;0.4607;1.6612;
468.9000;0.4607;1.6540;
469.2000;0.4607;1.6493;
469.5000;0.4615;1.6493;
469.8000;0.4583;1.6374;
470.1000;0.4599;1.6422;
470.4000;0.4624;1.6445;
470.7000;0.4615;1.6469;
471.0000;0.4624;1.6540;
471.3000;0.4615;1.6517;
471.6000;0.4607;1.6469;
471.9000;0.4615;1.6469;
472.2000;0.4599;1.6327;
472.5000;0.4615;1.6422;
472.8000;0.4607;1.6374;
473.1000;0.4632;1.6398;
473.4000;0.4615;1.6422;
473.7000;0.4615;1.6398;
474.0000;0.4624;1.6350;
474.3000;0.4615;1.6398;
474.6000;0.4640;1.6445;
474.9000;0.4624;1.6398;
475.2000;0.4615;1.6327;
475.5000;0.4624;1.6327;
475.8000;0.4624;1.6255;
476.1000;0.4624;1.6279;
476.4000;0.4624;1.6279;
476.7000;0.4615;1.6231;
477.0000;0.4591;1.6136;
477.3000;0.4615;1.6255;
477.6000;0.4607;1.6303;
477.9000;0.4615;1.6374;
478.2000;0.4615;1.6398;
478.5000;0.4615;1.6445;
478.8000;0.4558;1.6255;
479.1000;0.4607;1.6469;
479.4000;0.4624;1.6493;
479.7000;0.4648;1.6540;
480.0000;0.4615;1.6445;
480.3000;0.4599;1.6374;
480.6000;0.4624;1.6279;
480.9000;0.4591;1.6184;
481.2000;0.4615;1.6231;
481.5000;0.4656;1.6374;
481.8000;0.4615;1.6303;
482.1000;0.4632;1.6303;
482.4000;0.4615;1.6327;
482.7000;0.4599;1.6374;
483.0000;0.4615;1.6469;
483.3000;0.4607;1.6469;
483.6000;0.4615;1.6445;
483.9000;0.4615;1.6445;
484.2000;0.4607;1.6517;
484.5000;0.4599;1.6540;
484.8000;0.4607;1.6493;
485.1000;0.4615;1.6445;
485.4000;0.4567;1.6374;
485.7000;0.4656;1.6612;
486.0000;0.4615;1.6469;
486.3000;0.4599;1.6469;
486.6000;0.4591;1.6612;
486.9000;0.4607;1.6659;
487.2000;0.4607;1.6683;
487.5000;0.4599;1.6635;
487.8000;0.4607;1.6564;
488.1000;0.4607;1.6588;
488.4000;0.4599;1.6517;
488.7000;0.4689;1.6683;
489.0000;0.4599;1.6564;
489.3000;0.4632;1.6612;
489.6000;0.4615;1.6588;
489.9000;0.4624;1.6517;
490.2000;0.4656;1.6707;
490.5000;0.4624;1.6612;
490.8000;0.4632;1.6659;
491.1000;0.4624;1.6588;
491.4000;0.4615;1.6540;
491.7000;0.4640;1.6612;
492.0000;0.4615;1.6540;
492.3000;0.4615;1.6422;
492.6000;0.4624;1.6374;
492.9000;0.4607;1.6350;
493.2000;0.4615;1.6350;
493.5000;0.4615;1.6398;
493.8000;0.4599;1.6422;
494.1000;0.4599;1.6493;
494.4000;0.4542;1.6398;
494.7000;0.4615;1.6635;
495.0000;0.4607;1.6683;
495.3000;0.4599;1.6731;
495.6000;0.4640;1.6778;
495.9000;0.4599;1.6731;
496.2000;0.4615;1.6873;
496.5000;0.4624;1.6992;
496.8000;0.4624;1.6968;
497.1000;0.4615;1.6921;
497.4000;0.4729;1.7135;
497.7000;0.4640;1.6873;
498.0000;0.4583;1.6778;
498.3000;0.4615;1.6826;
498.6000;0.4615;1.6826;
498.9000;0.4591;1.6754;
499.2000;0.4599;1.6754;
499.5000;0.4607;1.6778;
499.8000;0.4615;1.6802;
500.1000;0.4607;1.6707;
500.4000;0.4599;1.6683;
500.7000;0.4615;1.6659;
501.0000;0.4624;1.6659;
501.3000;0.4599;1.6635;
501.6000;0.4615;1.6635;
501.9000;0.4624;1.6683;
502.2000;0.4624;1.6731;
502.5000;0.4615;1.6612;
502.8000;0.4591;1.6612;
503.1000;0.4615;1.6707;
503.4000;0.4583;1.6564;
503.7000;0.4599;1.6659;
504.0000;0.4640;1.6707;
504.3000;0.4607;1.6493;
504.6000;0.4607;1.6493;
504.9000;0.4599;1.6540;
505.2000;0.4599;1.6588;
505.5000;0.4583;1.6517;
505.8000;0.4493;1.6208;
506.1000;0.4615;1.6493;
506.4000;0.4664;1.6683;
506.7000;0.4591;1.6445;
507.0000;0.4599;1.6612;
507.3000;0.4534;1.6445;
507.6000;0.4615;1.6635;
507.9000;0.4591;1.6635;
508.2000;0.4599;1.6635;
508.5000;0.4607;1.6707;
508.8000;0.4607;1.6635;
509.1000;0.4607;1.6564;
509.4000;0.4615;1.6612;
509.7000;0.4607;1.6635;
510.0000;0.4615;1.6635;
510.3000;0.4591;1.6588;
510.6000;0.4607;1.6564;
510.9000;0.4607;1.6517;
511.2000;0.4607;1.6564;
511.5000;0.4599;1.6683;
511.8000;0.4591;1.6683;
512.1000;0.4624;1.6826;
512.4000;0.4624;1.6826;
512.7000;0.4615;1.6826;
513.0000;0.4607;1.6754;
513.3000;0.4607;1.6778;
513.6000;0.4575;1.6588;
513.9000;0.4591;1.6612;
514.2000;0.4599;1.6612;
514.5000;0.4607;1.6659;
514.8000;0.4632;1.6707;
515.1000;0.4615;1.6754;
515.4000;0.4615;1.6731;
515.7000;0.4607;1.6731;
516.0000;0.4615;1.6707;
516.3000;0.4607;1.6683;
516.6000;0.4615;1.6731;
516.9000;0.4615;1.6754;
517.2000;0.4624;1.6754;
517.5000;0.4615;1.6635;
517.8000;0.4615;1.6564;
518.1000;0.4607;1.6540;
518.4000;0.4591;1.6517;
518.7000;0.4607;1.6517;
519.0000;0.4607;1.6517;
519.3000;0.4599;1.6540;
519.6000;0.4607;1.6683;
519.9000;0.4615;1.6707;
520.2000;0.4599;1.6683;
520.5000;0.4615;1.6754;
520.8000;0.4624;1.6707;
521.1000;0.4607;1.6588;
521.4000;0.4640;1.6683;
521.7000;0.4624;1.6659;
522.0000;0.4615;1.6635;
522.3000;0.4632;1.6659;
522.6000;0.4624;1.6540;
522.9000;0.4567;1.6350;
523.2000;0.4615;1.6422;
523.5000;0.4599;1.6445;
523.8000;0.4664;1.6659;
524.1000;0.4632;1.6540;
524.4000;0.4607;1.6493;
524.7000;0.4599;1.6493;
525.0000;0.4640;1.6588;
525.3000;0.4599;1.6469;
525.6000;0.4599;1.6374;
525.9000;0.4607;1.6350;
526.2000;0.4624;1.6398;
526.5000;0.4607;1.6469;
526.8000;0.4607;1.6588;
527.1000;0.4583;1.6445;
527.4000;0.4615;1.6540;
527.7000;0.4599;1.6398;
528.0000;0.4591;1.6374;
528.3000;0.4689;1.6683;
528.6000;0.4615;1.6493;
528.9000;0.4615;1.6517;
529.2000;0.4624;1.6540;
529.5000;0.4607;1.6564;
529.8000;0.4624;1.6588;
530.1000;0.4615;1.6612;
530.4000;0.4575;1.6469;
530.7000;0.4615;1.6635;
531.0000;0.4599;1.6517;
531.3000;0.4607;1.6540;
531.6000;0.4607;1.6588;
531.9000;0.4615;1.6612;
532.2000;0.4599;1.6612;
532.5000;0.4591;1.6493;
532.8000;0.4607;1.6588;
533.1000;0.4615;1.6588;
533.4000;0.4599;1.6564;
533.7000;0.4615;1.6540;
534.0000;0.4599;1.6635;
534.3000;0.4607;1.6683;
534.6000;0.4599;1.6659;
534.9000;0.4591;1.6683;
535.2000;0.4599;1.6778;
535.5000;0.4615;1.6849;
535.8000;0.4607;1.6849;
536.1000;0.4624;1.6849;
536.4000;0.4615;1.6754;
536.7000;0.4624;1.6754;
537.0000;0.4607;1.6707;
537.3000;0.4599;1.6659;
537.6000;0.4583;1.6564;
537.9000;0.4624;1.6659;
538.2000;0.4575;1.6469;
538.5000;0.4599;1.6612;
538.8000;0.4624;1.6683;
539.1000;0.4607;1.6707;
539.4000;0.4607;1.6635;
539.7000;0.4599;1.6612;
540.0000;0.4599;1.6588;
540.3000;0.4615;1.6659;
540.6000;0.4615;1.6683;
540.9000;0.4599;1.6707;
541.2000;0.4591;1.6612;
541.5000;0.4615;1.6683;
541.8000;0.4591;1.6635;
542.1000;0.4599;1.6659;
542.4000;0.4607;1.6659;
542.7000;0.4607;1.6635;
543.0000;0.4624;1.6659;
543.3000;0.4599;1.6612;
543.6000;0.4632;1.6683;
543.9000;0.4607;1.6612;
544.2000;0.4615;1.6635;
544.5000;0.4583;1.6635;
544.8000;0.4583;1.6659;
545.1000;0.4607;1.6754;
545.4000;0.4599;1.6778;
545.7000;0.4607;1.6707;
546.0000;0.4583;1.6612;
546.3000;0.4615;1.6588;
546.6000;0.4550;1.6422;
546.9000;0.4591;1.6469;
547.2000;0.4615;1.6588;
547.5000;0.4624;1.6659;
547.8000;0.4591;1.6517;
548.1000;0.4575;1.6635;
548.4000;0.4599;1.6731;
548.7000;0.4607;1.6659;
549.0000;0.4567;1.6540;
549.3000;0.4599;1.6659;
549.6000;0.4599;1.6659;
549.9000;0.4607;1.6683;
550.2000;0.4615;1.6659;
550.5000;0.4632;1.6826;
550.8000;0.4656;1.6873;
551.1000;0.4591;1.6683;
551.4000;0.4599;1.6707;
551.7000;0.4607;1.6707;
552.0000;0.4607;1.6707;
552.3000;0.4624;1.6707;
552.6000;0.4607;1.6826;
552.9000;0.4615;1.6849;
553.2000;0.4599;1.6849;
553.5000;0.4615;1.6873;
553.8000;0.4575;1.6802;
554.1000;0.4607;1.6944;
554.4000;0.4607;1.6944;
554.7000;0.4591;1.6944;
555.0000;0.4599;1.6944;
555.3000;0.4624;1.6897;
555.6000;0.4607;1.6826;
555.9000;0.4591;1.6754;
556.2000;0.4599;1.6826;
556.5000;0.4607;1.6802;
556.8000;0.4599;1.6802;
557.1000;0.4615;1.6826;
557.4000;0.4583;1.6683;
557.7000;0.4607;1.6659;
558.0000;0.4599;1.6707;
558.3000;0.4599;1.6683;
558.6000;0.4607;1.6635;
558.9000;0.4599;1.6635;
559.2000;0.4591;1.6659;
559.5000;0.4599;1.6731;
559.8000;0.4615;1.6778;
560.1000;0.4591;1.6754;
560.4000;0.4591;1.6802;
560.7000;0.4615;1.6754;
561.0000;0.4615;1.6754;
561.3000;0.4624;1.6731;
561.6000;0.4607;1.6659;
561.9000;0.4607;1.6778;
562.2000;0.4583;1.6707;
562.5000;0.4599;1.6707;
562.8000;0.4607;1.6707;
563.1000;0.4607;1.6731;
563.4000;0.4640;1.6731;
563.7000;0.4599;1.6659;
564.0000;0.4599;1.6731;
564.3000;0.4607;1.6707;
564.6000;0.4615;1.6612;
564.9000;0.4607;1.6588;
565.2000;0.4599;1.6588;
565.5000;0.4624;1.6612;
565.8000;0.4607;1.6635;
566.1000;0.4599;1.6564;
566.4000;0.4558;1.6469;
566.7000;0.4607;1.6659;
567.0000;0.4607;1.6731;
567.3000;0.4615;1.6635;
567.6000;0.4615;1.6612;
567.9000;0.4607;1.6683;
568.2000;0.4599;1.6731;
568.5000;0.4607;1.6659;
568.8000;0.4591;1.6588;
569.1000;0.4591;1.6469;
569.4000;0.4599;1.6540;
569.7000;0.4599;1.6540;
570.0000;0.4599;1.6493;
570.3000;0.4591;1.6517;
570.6000;0.4526;1.6255;
570.9000;0.4607;1.6493;
571.2000;0.4615;1.6635;
571.5000;0.4615;1.6659;
571.8000;0.4615;1.6754;
572.1000;0.4558;1.6612;
572.4000;0.4607;1.6778;
572.7000;0.4689;1.6968;
573.0000;0.4615;1.6683;
573.3000;0.4607;1.6612;
573.6000;0.4615;1.6707;
573.9000;0.4599;1.6683;
574.2000;0.4705;1.6992;
574.5000;0.4624;1.6754;
574.8000;0.4615;1.6707;
575.1000;0.4607;1.6612;
575.4000;0.4607;1.6659;
575.7000;0.4624;1.6731;
576.0000;0.4624;1.6778;
576.3000;0.4607;1.6778;
576.6000;0.4558;1.6612;
576.9000;0.4599;1.6707;
577.2000;0.4607;1.6707;
577.5000;0.4599;1.6659;
577.8000;0.4624;1.6683;
578.1000;0.4624;1.6659;
578.4000;0.4599;1.6540;
578.7000;0.4681;1.6778;
579.0000;0.4599;1.6493;
579.3000;0.4591;1.6422;
579.6000;0.4607;1.6398;
579.9000;0.4591;1.6422;
580.2000;0.4591;1.6350;
580.5000;0.4583;1.6327;
580.8000;0.4607;1.6445;
581.1000;0.4615;1.6422;
581.4000;0.4615;1.6422;
581.7000;0.4624;1.6374;
582.0000;0.4615;1.6255;
582.3000;0.4615;1.6350;
582.6000;0.4591;1.6398;
582.9000;0.4591;1.6445;
583.2000;0.4607;1.6422;
583.5000;0.4615;1.6517;
583.8000;0.4591;1.6493;
584.1000;0.4591;1.6540;
584.4000;0.4607;1.6540;
584.7000;0.4607;1.6517;
585.0000;0.4607;1.6493;
585.3000;0.4599;1.6469;
585.6000;0.4607;1.6445;
585.9000;0.4607;1.6422;
586.2000;0.4599;1.6517;
586.5000;0.4599;1.6398;
586.8000;0.4624;1.6517;
587.1000;0.4615;1.6493;
587.4000;0.4640;1.6445;
587.7000;0.4615;1.6327;
588.0000;0.4599;1.6327;
588.3000;0.4599;1.6350;
588.6000;0.4615;1.6445;
588.9000;0.4599;1.6398;
589.2000;0.4510;1.6065;
589.5000;0.4615;1.6374;
589.8000;0.4599;1.6327;
590.1000;0.4599;1.6350;
590.4000;0.4591;1.6422;
590.7000;0.4591;1.6422;
591.0000;0.4599;1.6398;
591.3000;0.4615;1.6327;
591.6000;0.4583;1.6160;
591.9000;0.4599;1.6184;
592.2000;0.4591;1.6279;
592.5000;0.4607;1.6184;
592.8000;0.4607;1.6208;
593.1000;0.4607;1.6208;
593.4000;0.4607;1.6231;
593.7000;0.4599;1.6303;
594.0000;0.4591;1.6350;
594.3000;0.4607;1.6445;
594.6000;0.4607;1.6493;
594.9000;0.4583;1.6374;
595.2000;0.4615;1.6445;
595.5000;0.4607;1.6422;
595.8000;0.4591;1.6422;
596.1000;0.4672;1.6612;
596.4000;0.4591;1.6422;
596.7000;0.4607;1.6422;
597.0000;0.4599;1.6398;
597.3000;0.4615;1.6398;
597.6000;0.4583;1.6422;
597.9000;0.4599;1.6540;
598.2000;0.4599;1.6517;
598.5000;0.4591;1.6445;
598.8000;0.4599;1.6398;
599.1000;0.4599;1.6374;
599.4000;0.4575;1.6350;
599.7000;0.4567;1.6255;
600.0000;0.4583;1.6279;
600.3000;0.4615;1.6208;
600.6000;0.4591;1.6041;
600.9000;0.4583;1.5923;
601.2000;0.4542;1.5875;
601.5000;0.4493;1.5709;
601.8000;0.4453;1.5637;
602.1000;0.4404;1.5495;
602.4000;0.4371;1.5328;
602.7000;0.4314;1.5210;
603.0000;0.4274;1.4996;
603.3000;0.4225;1.4758;
603.6000;0.4200;1.4758;
603.9000;0.4184;1.4615;
604.2000;0.4160;1.4544;
604.5000;0.4119;1.4449;
604.8000;0.4094;1.4402;
605.1000;0.4078;1.4354;
605.4000;0.4062;1.4307;
605.7000;0.4021;1.4211;
606.0000;0.4054;1.4259;
606.3000;0.4005;1.4140;
606.6000;0.4005;1.4140;
606.9000;0.3980;1.4021;
607.2000;0.3964;1.4021;
607.5000;0.3964;1.3998;
607.8000;0.3956;1.3998;
608.1000;0.3964;1.3926;
608.4000;0.3915;1.3807;
608.7000;0.3899;1.3760;
609.0000;0.3899;1.3831;
609.3000;0.3891;1.3879;
609.6000;0.3858;1.3807;
609.9000;0.3867;1.3784;
610.2000;0.3867;1.3760;
610.5000;0.3850;1.3807;
610.8000;0.3842;1.3807;
611.1000;0.3842;1.3736;
611.4000;0.3850;1.3736;
611.7000;0.3842;1.3689;
612.0000;0.3810;1.3641;
612.3000;0.3850;1.3807;
612.6000;0.3818;1.3760;
612.9000;0.3801;1.3736;
613.2000;0.3793;1.3665;
613.5000;0.3793;1.3665;
613.8000;0.3810;1.3617;
614.1000;0.3793;1.3570;
614.4000;0.3753;1.3475;
614.7000;0.3777;1.3617;
615.0000;0.3777;1.3665;
615.3000;0.3785;1.3665;
615.6000;0.3753;1.3665;
615.9000;0.3769;1.3689;
616.2000;0.3744;1.3736;
616.5000;0.3777;1.3712;
616.8000;0.3728;1.3570;
617.1000;0.3801;1.3712;
617.4000;0.3753;1.3617;
617.7000;0.3744;1.3617;
618.0000;0.3753;1.3665;
618.3000;0.3728;1.3617;
618.6000;0.3728;1.3594;
618.9000;0.3736;1.3665;
619.2000;0.3720;1.3665;
619.5000;0.3704;1.3712;
619.8000;0.3712;1.3546;
620.1000;0.3712;1.3594;
620.4000;0.3704;1.3546;
620.7000;0.3687;1.3594;
621.0000;0.3687;1.3665;
621.3000;0.3687;1.3712;
621.6000;0.3736;1.3879;
621.9000;0.3728;1.3807;
622.2000;0.3671;1.3641;
622.5000;0.3704;1.3641;
622.8000;0.3704;1.3617;
623.1000;0.3671;1.3617;
623.4000;0.3655;1.3546;
623.7000;0.3671;1.3617;
624.0000;0.3663;1.3475;
624.3000;0.3647;1.3332;
624.6000;0.3679;1.3427;
624.9000;0.3679;1.3475;
625.2000;0.3679;1.3475;
625.5000;0.3679;1.3594;
625.8000;0.3639;1.3546;
626.1000;0.3655;1.3641;
626.4000;0.3639;1.3594;
626.7000;0.3663;1.3522;
627.0000;0.3647;1.3594;
627.3000;0.3655;1.3570;
627.6000;0.3647;1.3570;
627.9000;0.3663;1.3594;
628.2000;0.3639;1.3594;
628.5000;0.3630;1.3665;
628.8000;0.3639;1.3594;
629.1000;0.3647;1.3641;
629.4000;0.3647;1.3594;
629.7000;0.3606;1.3594;
630.0000;0.3622;1.3499;
630.3000;0.3647;1.3546;
630.6000;0.3639;1.3427;
630.9000;0.3639;1.3427;
631.2000;0.3639;1.3427;
631.5000;0.3639;1.3403;
631.8000;0.3614;1.3451;
632.1000;0.3606;1.3475;
632.4000;0.3630;1.3570;
632.7000;0.3606;1.3546;
633.0000;0.3598;1.3522;
633.3000;0.3598;1.3522;
633.6000;0.3598;1.3499;
633.9000;0.3614;1.3594;
634.2000;0.3630;1.3594;
634.5000;0.3606;1.3570;
634.8000;0.3622;1.3617;
635.1000;0.3614;1.3594;
635.4000;0.3639;1.3641;
635.7000;0.3606;1.3641;
636.0000;0.3622;1.3617;
636.3000;0.3655;1.3760;
636.6000;0.3614;1.3689;
636.9000;0.3590;1.3665;
637.2000;0.3606;1.3689;
637.5000;0.3590;1.3689;
637.8000;0.3590;1.3689;
638.1000;0.3590;1.3689;
638.4000;0.3549;1.3594;
638.7000;0.3582;1.3594;
639.0000;0.3582;1.3570;
639.3000;0.3590;1.3570;
639.6000;0.3565;1.3475;
639.9000;0.3582;1.3570;
640.2000;0.3598;1.3570;
640.5000;0.3598;1.3617;
640.8000;0.3525;1.3332;
641.1000;0.3614;1.3594;
641.4000;0.3590;1.3475;
641.7000;0.3614;1.3475;
642.0000;0.3606;1.3427;
642.3000;0.3582;1.3403;
642.6000;0.3573;1.3427;
642.9000;0.3557;1.3451;
643.2000;0.3590;1.3522;
643.5000;0.3573;1.3499;
643.8000;0.3582;1.3451;
644.1000;0.3557;1.3356;
644.4000;0.3614;1.3475;
644.7000;0.3565;1.3380;
645.0000;0.3582;1.3522;
645.3000;0.3582;1.3475;
645.6000;0.3590;1.3451;
645.9000;0.3541;1.3427;
646.2000;0.3573;1.3451;
646.5000;0.3565;1.3475;
646.8000;0.3573;1.3522;
647.1000;0.3549;1.3522;
647.4000;0.3565;1.3594;
647.7000;0.3557;1.3451;
648.0000;0.3565;1.3522;
648.3000;0.3614;1.3570;
648.6000;0.3549;1.3403;
648.9000;0.3557;1.3308;
649.2000;0.3557;1.3380;
649.5000;0.3557;1.3475;
649.8000;0.3557;1.3427;
650.1000;0.3565;1.3451;
650.4000;0.3565;1.3546;
650.7000;0.3573;1.3617;
651.0000;0.3557;1.3689;
651.3000;0.3565;1.3617;
651.6000;0.3541;1.3641;
651.9000;0.3541;1.3594;
652.2000;0.3565;1.3594;
652.5000;0.3557;1.3594;
652.8000;0.3541;1.3546;
653.1000;0.3533;1.3499;
653.4000;0.3549;1.3499;
653.7000;0.3533;1.3403;
654.0000;0.3541;1.3403;
654.3000;0.3557;1.3475;
654.6000;0.3549;1.3546;
654.9000;0.3549;1.3451;
655.2000;0.3533;1.3451;
655.5000;0.3541;1.3475;
655.8000;0.3541;1.3522;
656.1000;0.3533;1.3499;
656.4000;0.3549;1.3546;
656.7000;0.3541;1.3522;
657.0000;0.3533;1.3427;
657.3000;0.3525;1.3475;
657.6000;0.3541;1.3570;
657.9000;0.3508;1.3475;
658.2000;0.3541;1.3594;
658.5000;0.3541;1.3570;
658.8000;0.3516;1.3499;
659.1000;0.3525;1.3475;
659.4000;0.3516;1.3451;
659.7000;0.3525;1.3427;
660.0000;0.3516;1.3451;
660.3000;0.3533;1.3475;
660.6000;0.3565;1.3522;
660.9000;0.3533;1.3475;
661.2000;0.3525;1.3451;
661.5000;0.3492;1.3403;
661.8000;0.3508;1.3427;
662.1000;0.3533;1.3499;
662.4000;0.3525;1.3546;
662.7000;0.3508;1.3403;
663.0000;0.3533;1.3499;
663.3000;0.3541;1.3499;
663.6000;0.3492;1.3451;
663.9000;0.3541;1.3594;
664.2000;0.3516;1.3594;
664.5000;0.3508;1.3546;
664.8000;0.3525;1.3594;
665.1000;0.3525;1.3546;
665.4000;0.3500;1.3570;
665.7000;0.3508;1.3499;
666.0000;0.3508;1.3380;
666.3000;0.3516;1.3356;
666.6000;0.3508;1.3261;
666.9000;0.3508;1.3237;
667.2000;0.3549;1.3356;
667.5000;0.3492;1.3237;
667.8000;0.3500;1.3261;
668.1000;0.3492;1.3190;
668.4000;0.3516;1.3190;
668.7000;0.3500;1.3166;
669.0000;0.3500;1.3142;
669.3000;0.3500;1.3118;
669.6000;0.3525;1.3285;
669.9000;0.3508;1.3261;
670.2000;0.3516;1.3285;
670.5000;0.3492;1.3285;
670.8000;0.3516;1.3285;
671.1000;0.3516;1.3261;
671.4000;0.3492;1.3285;
671.7000;0.3484;1.3285;
672.0000;0.3484;1.3332;
672.3000;0.3492;1.3285;
672.6000;0.3492;1.3332;
672.9000;0.3484;1.3285;
673.2000;0.3492;1.3356;
673.5000;0.3557;1.3427;
673.8000;0.3500;1.3356;
674.1000;0.3500;1.3380;
674.4000;0.3484;1.3427;
674.7000;0.3484;1.3451;
675.0000;0.3525;1.3570;
675.3000;0.3508;1.3451;
675.6000;0.3492;1.3403;
675.9000;0.3500;1.3475;
676.2000;0.3492;1.3570;
676.5000;0.3484;1.3570;
676.8000;0.3492;1.3570;
677.1000;0.3484;1.3594;
677.4000;0.3492;1.3546;
677.7000;0.3492;1.3499;
678.0000;0.3500;1.3522;
678.3000;0.3492;1.3475;
678.6000;0.3549;1.3665;
678.9000;0.3460;1.3499;
679.2000;0.3492;1.3570;
679.5000;0.3492;1.3522;
679.8000;0.3492;1.3475;
680.1000;0.3484;1.3499;
680.4000;0.3484;1.3522;
680.7000;0.3500;1.3451;
681.0000;0.3484;1.3451;
681.3000;0.3484;1.3427;
681.6000;0.3484;1.3594;
681.9000;0.3484;1.3617;
682.2000;0.3394;1.3427;
682.5000;0.3476;1.3665;
682.8000;0.3484;1.3641;
683.1000;0.3476;1.3617;
683.4000;0.3541;1.3736;
683.7000;0.3411;1.3451;
684.0000;0.3484;1.3594;
684.3000;0.3484;1.3641;
684.6000;0.3492;1.3665;
684.9000;0.3476;1.3617;
685.2000;0.3492;1.3641;
685.5000;0.3508;1.3641;
685.8000;0.3460;1.3475;
686.1000;0.3549;1.3712;
686.4000;0.3468;1.3451;
686.7000;0.3476;1.3475;
687.0000;0.3419;1.3356;
687.3000;0.3476;1.3475;
687.6000;0.3411;1.3356;
687.9000;0.3500;1.3617;
688.2000;0.3468;1.3522;
688.5000;0.3468;1.3546;
688.8000;0.3468;1.3617;
689.1000;0.3468;1.3522;
689.4000;0.3468;1.3475;
689.7000;0.3484;1.3451;
690.0000;0.3451;1.3403;
690.3000;0.3468;1.3451;
690.6000;0.3468;1.3522;
690.9000;0.3484;1.3427;
691.2000;0.3484;1.3332;
691.5000;0.3460;1.3237;
691.8000;0.3468;1.3237;
692.1000;0.3468;1.3308;
692.4000;0.3476;1.3380;
692.7000;0.3468;1.3332;
693.0000;0.3460;1.3308;
693.3000;0.3451;1.3356;
693.6000;0.3468;1.3451;
693.9000;0.3468;1.3522;
694.2000;0.3468;1.3594;
694.5000;0.3451;1.3617;
694.8000;0.3468;1.3689;
695.1000;0.3468;1.3760;
695.4000;0.3460;1.3831;
695.7000;0.3443;1.3760;
696.0000;0.3451;1.3760;
696.3000;0.3468;1.3665;
696.6000;0.3460;1.3617;
696.9000;0.3443;1.3594;
697.2000;0.3451;1.3617;
697.5000;0.3460;1.3784;
697.8000;0.3443;1.3689;
698.1000;0.3443;1.3641;
698.4000;0.3460;1.3689;
698.7000;0.3451;1.3665;
699.0000;0.3443;1.3641;
699.3000;0.3451;1.3617;
699.6000;0.3460;1.3594;
699.9000;0.3460;1.3594;
700.2000;0.3468;1.3594;
700.5000;0.3451;1.3570;
700.8000;0.3451;1.3499;
701.1000;0.3427;1.3285;
701.4000;0.3484;1.3403;
701.7000;0.3451;1.3380;
702.0000;0.3443;1.3380;
702.3000;0.3460;1.3380;
702.6000;0.3549;1.3617;
702.9000;0.3460;1.3427;
703.2000;0.3443;1.3380;
703.5000;0.3468;1.3403;
703.8000;0.3443;1.3356;
704.1000;0.3435;1.3308;
704.4000;0.3435;1.3356;
704.7000;0.3435;1.3427;
705.0000;0.3451;1.3499;
705.3000;0.3443;1.3522;
705.6000;0.3451;1.3546;
705.9000;0.3451;1.3499;
706.2000;0.3484;1.3546;
706.5000;0.3435;1.3427;
706.8000;0.3443;1.3403;
707.1000;0.3362;1.3142;
707.4000;0.3354;1.3190;
707.7000;0.3443;1.3451;
708.0000;0.3443;1.3356;
708.3000;0.3435;1.3380;
708.6000;0.3460;1.3403;
708.9000;0.3451;1.3380;
709.2000;0.3419;1.3332;
709.5000;0.3443;1.3380;
709.8000;0.3443;1.3356;
710.1000;0.3435;1.3356;
710.4000;0.3460;1.3427;
710.7000;0.3476;1.3499;
711.0000;0.3443;1.3451;
711.3000;0.3435;1.3451;
711.6000;0.3460;1.3475;
711.9000;0.3435;1.3451;
712.2000;0.3476;1.3499;
712.5000;0.3451;1.3475;
712.8000;0.3451;1.3475;
713.1000;0.3427;1.3522;
713.4000;0.3386;1.3451;
713.7000;0.3419;1.3451;
714.0000;0.3451;1.3594;
714.3000;0.3500;1.3855;
714.6000;0.3435;1.3665;
714.9000;0.3443;1.3689;
715.2000;0.3460;1.3689;
715.5000;0.3378;1.3451;
715.8000;0.3460;1.3665;
716.1000;0.3451;1.3617;
716.4000;0.3370;1.3427;
716.7000;0.3435;1.3594;
717.0000;0.3443;1.3594;
717.3000;0.3427;1.3641;
717.6000;0.3443;1.3689;
717.9000;0.3427;1.3689;
718.2000;0.3419;1.3641;
718.5000;0.3468;1.3712;
718.8000;0.3443;1.3689;
719.1000;0.3435;1.3617;
719.4000;0.3435;1.3641;
719.7000;0.3411;1.3570;
720.0000;0.3427;1.3665;
720.3000;0.3435;1.3689;
720.6000;0.3451;1.3712;
720.9000;0.3443;1.3665;
721.2000;0.3427;1.3689;
721.5000;0.3435;1.3665;
721.8000;0.3443;1.3736;
722.1000;0.3435;1.3689;
722.4000;0.3435;1.3689;
722.7000;0.3419;1.3594;
723.0000;0.3435;1.3617;
723.3000;0.3451;1.3617;
723.6000;0.3435;1.3594;
723.9000;0.3443;1.3617;
724.2000;0.3435;1.3641;
724.5000;0.3435;1.3641;
724.8000;0.3460;1.3760;
725.1000;0.3419;1.3760;
725.4000;0.3443;1.3831;
725.7000;0.3435;1.3760;
726.0000;0.3419;1.3712;
726.3000;0.3419;1.3665;
726.6000;0.3435;1.3665;
726.9000;0.3427;1.3641;
727.2000;0.3435;1.3641;
727.5000;0.3427;1.3570;
727.8000;0.3435;1.3641;
728.1000;0.3419;1.3641;
728.4000;0.3427;1.3689;
728.7000;0.3337;1.3403;
729.0000;0.3427;1.3641;
729.3000;0.3427;1.3665;
729.6000;0.3451;1.3665;
729.9000;0.3411;1.3451;
730.2000;0.3427;1.3522;
730.5000;0.3419;1.3546;
730.8000;0.3419;1.3617;
731.1000;0.3435;1.3665;
731.4000;0.3313;1.3499;
731.7000;0.3394;1.3594;
732.0000;0.3427;1.3594;
732.3000;0.3419;1.3594;
732.6000;0.3427;1.3665;
732.9000;0.3468;1.3807;
733.2000;0.3435;1.3736;
733.5000;0.3427;1.3712;
733.8000;0.3419;1.3784;
734.1000;0.3419;1.3784;
734.4000;0.3427;1.3831;
734.7000;0.3411;1.3831;
735.0000;0.3378;1.3736;
735.3000;0.3435;1.3903;
735.6000;0.3427;1.3807;
735.9000;0.3362;1.3570;
736.2000;0.3411;1.3736;
736.5000;0.3427;1.3760;
736.8000;0.3394;1.3594;
737.1000;0.3435;1.3641;
737.4000;0.3419;1.3712;
737.7000;0.3411;1.3736;
738.0000;0.3443;1.3831;
738.3000;0.3460;1.3903;
738.6000;0.3411;1.3736;
738.9000;0.3411;1.3712;
739.2000;0.3427;1.3784;
739.5000;0.3403;1.3736;
739.8000;0.3427;1.3903;
740.1000;0.3419;1.3855;
740.4000;0.3394;1.3760;
740.7000;0.3411;1.3831;
741.0000;0.3411;1.3712;
741.3000;0.3403;1.3689;
741.6000;0.3411;1.3736;
741.9000;0.3411;1.3689;
742.2000;0.3403;1.3641;
742.5000;0.3411;1.3617;
742.8000;0.3419;1.3641;
743.1000;0.3419;1.3760;
743.4000;0.3411;1.3736;
743.7000;0.3419;1.3689;
744.0000;0.3403;1.3641;
744.3000;0.3403;1.3617;
744.6000;0.3427;1.3570;
744.9000;0.3411;1.3546;
745.2000;0.3403;1.3617;
745.5000;0.3394;1.3689;
745.8000;0.3419;1.3712;
746.1000;0.3427;1.3831;
746.4000;0.3419;1.3807;
746.7000;0.3427;1.3879;
747.0000;0.3411;1.3855;
747.3000;0.3419;1.3831;
747.6000;0.3419;1.3879;
747.9000;0.3427;1.3879;
748.2000;0.3435;1.3974;
748.5000;0.3403;1.3926;
748.8000;0.3435;1.3950;
749.1000;0.3419;1.3831;
749.4000;0.3435;1.3879;
749.7000;0.3419;1.3926;
750.0000;0.3419;1.3807;
750.3000;0.3468;1.3903;
750.6000;0.3394;1.3855;
750.9000;0.3411;1.3926;
751.2000;0.3427;1.3950;
751.5000;0.3329;1.3641;
751.8000;0.3403;1.3855;
752.1000;0.3427;1.3855;
752.4000;0.3411;1.3807;
752.7000;0.3427;1.3807;
753.0000;0.3403;1.3689;
753.3000;0.3427;1.3760;
753.6000;0.3411;1.3736;
753.9000;0.3394;1.3736;
754.2000;0.3419;1.3831;
754.5000;0.3435;1.3855;
754.8000;0.3451;1.3855;
755.1000;0.3411;1.3736;
755.4000;0.3419;1.3807;
755.7000;0.3419;1.3903;
756.0000;0.3394;1.3831;
756.3000;0.3411;1.3807;
756.6000;0.3403;1.3665;
756.9000;0.3386;1.3665;
757.2000;0.3427;1.3760;
757.5000;0.3411;1.3784;
757.8000;0.3411;1.3760;
758.1000;0.3411;1.3807;
758.4000;0.3411;1.3831;
758.7000;0.3419;1.3784;
759.0000;0.3403;1.3736;
759.3000;0.3394;1.3784;
759.6000;0.3419;1.3831;
759.9000;0.3394;1.3784;
760.2000;0.3427;1.3807;
760.5000;0.3435;1.3831;
760.8000;0.3403;1.3807;
761.1000;0.3394;1.3855;
761.4000;0.3403;1.3903;
761.7000;0.3394;1.3831;
762.0000;0.3394;1.3903;
762.3000;0.3403;1.3903;
762.6000;0.3419;1.3950;
762.9000;0.3419;1.3831;
763.2000;0.3419;1.3760;
763.5000;0.3419;1.3855;
763.8000;0.3394;1.3807;
764.1000;0.3403;1.3807;
764.4000;0.3394;1.3807;
764.7000;0.3411;1.3784;
765.0000;0.3411;1.3831;
765.3000;0.3386;1.3760;
765.6000;0.3411;1.3665;
765.9000;0.3411;1.3665;
766.2000;0.3419;1.3712;
766.5000;0.3411;1.3665;
766.8000;0.3403;1.3736;
767.1000;0.3386;1.3689;
767.4000;0.3394;1.3736;
767.7000;0.3403;1.3689;
768.0000;0.3386;1.3594;
768.3000;0.3411;1.3712;
768.6000;0.3403;1.3665;
768.9000;0.3386;1.3617;
769.2000;0.3386;1.3665;
769.5000;0.3411;1.3617;
769.8000;0.3403;1.3594;
770.1000;0.3411;1.3641;
770.4000;0.3411;1.3617;
770.7000;0.3403;1.3546;
771.0000;0.3435;1.3522;
771.3000;0.3394;1.3332;
771.6000;0.3394;1.3332;
771.9000;0.3386;1.3427;
772.2000;0.3386;1.3475;
772.5000;0.3403;1.3499;
772.8000;0.3460;1.3736;
773.1000;0.3378;1.3570;
773.4000;0.3394;1.3641;
773.7000;0.3394;1.3665;
774.0000;0.3411;1.3736;
774.3000;0.3394;1.3641;
774.6000;0.3394;1.3617;
774.9000;0.3533;1.4021;
775.2000;0.3435;1.3712;
775.5000;0.3411;1.3641;
775.8000;0.3419;1.3641;
776.1000;0.3386;1.3617;
776.4000;0.3313;1.3451;
776.7000;0.3403;1.3736;
777.0000;0.3427;1.3712;
777.3000;0.3435;1.3760;
777.6000;0.3394;1.3712;
777.9000;0.3329;1.3594;
778.2000;0.3394;1.3736;
778.5000;0.3394;1.3736;
778.8000;0.3394;1.3712;
779.1000;0.3403;1.3712;
779.4000;0.3386;1.3760;
779.7000;0.3378;1.3712;
780.0000;0.3411;1.3784;
780.3000;0.3394;1.3760;
780.6000;0.3394;1.3665;
780.9000;0.3419;1.3712;
781.2000;0.3394;1.3736;
781.5000;0.3403;1.3665;
781.8000;0.3403;1.3689;
782.1000;0.3403;1.3641;
782.4000;0.3394;1.3641;
782.7000;0.3403;1.3736;
783.0000;0.3427;1.3807;
783.3000;0.3378;1.3712;
783.6000;0.3403;1.3784;
783.9000;0.3403;1.3784;
784.2000;0.3394;1.3689;
784.5000;0.3403;1.3689;
784.8000;0.3386;1.3760;
785.1000;0.3411;1.3903;
785.4000;0.3403;1.3831;
785.7000;0.3451;1.3950;
786.0000;0.3386;1.3712;
786.3000;0.3386;1.3689;
786.6000;0.3394;1.3689;
786.9000;0.3394;1.3784;
787.2000;0.3386;1.3807;
787.5000;0.3386;1.3831;
787.8000;0.3394;1.3784;
788.1000;0.3394;1.3760;
788.4000;0.3394;1.3807;
788.7000;0.3394;1.3784;
789.0000;0.3394;1.3831;
789.3000;0.3394;1.3831;
789.6000;0.3378;1.3689;
789.9000;0.3403;1.3784;
790.2000;0.3394;1.3784;
790.5000;0.3386;1.3736;
790.8000;0.3362;1.3712;
791.1000;0.3378;1.3665;
791.4000;0.3386;1.3665;
791.7000;0.3370;1.3594;
792.0000;0.3362;1.3617;
792.3000;0.3370;1.3760;
792.6000;0.3403;1.3831;
792.9000;0.3403;1.3879;
793.2000;0.3362;1.3807;
793.5000;0.3394;1.3879;
793.8000;0.3378;1.3879;
794.1000;0.3378;1.3831;
794.4000;0.3378;1.3879;
794.7000;0.3378;1.3903;
795.0000;0.3362;1.3807;
795.3000;0.3378;1.3831;
795.6000;0.3386;1.3831;
795.9000;0.3378;1.3831;
796.2000;0.3370;1.3712;
796.5000;0.3403;1.3760;
796.8000;0.3403;1.3736;
797.1000;0.3403;1.3712;
797.4000;0.3370;1.3689;
797.7000;0.3411;1.3665;
798.0000;0.3386;1.3665;
798.3000;0.3476;1.3926;
798.6000;0.3378;1.3736;
798.9000;0.3386;1.3784;
799.2000;0.3346;1.3760;
799.5000;0.3378;1.3760;
799.8000;0.3427;1.3784;
800.1000;0.3386;1.3784;
800.4000;0.3370;1.3736;
800.7000;0.3386;1.3736;
801.0000;0.3394;1.3784;
801.3000;0.3378;1.3689;
801.6000;0.3403;1.3807;
801.9000;0.3362;1.3641;
802.2000;0.3378;1.3617;
802.5000;0.3378;1.3546;
802.8000;0.3394;1.3570;
803.1000;0.3362;1.3546;
803.4000;0.3378;1.3594;
803.7000;0.3378;1.3594;
804.0000;0.3370;1.3546;
804.3000;0.3386;1.3546;
804.6000;0.3500;1.3831;
804.9000;0.3394;1.3570;
805.2000;0.3378;1.3570;
805.5000;0.3313;1.3403;
805.8000;0.3378;1.3641;
806.1000;0.3411;1.3784;
806.4000;0.3378;1.3594;
806.7000;0.3370;1.3689;
807.0000;0.3386;1.3712;
807.3000;0.3394;1.3689;
807.6000;0.3403;1.3665;
807.9000;0.3386;1.3641;
808.2000;0.3370;1.3736;
808.5000;0.3386;1.3736;
808.8000;0.3378;1.3879;
809.1000;0.3403;1.4021;
809.4000;0.3403;1.3950;
809.7000;0.3386;1.3807;
810.0000;0.3394;1.3831;
810.3000;0.3394;1.3831;
810.6000;0.3394;1.3831;
810.9000;0.3386;1.3760;
811.2000;0.3370;1.3760;
811.5000;0.3370;1.3807;
811.8000;0.3378;1.3784;
812.1000;0.3362;1.3736;
812.4000;0.3394;1.3784;
812.7000;0.3378;1.3784;
813.0000;0.3378;1.3736;
813.3000;0.3378;1.3641;
813.6000;0.3354;1.3499;
813.9000;0.3370;1.3546;
814.2000;0.3386;1.3546;
814.5000;0.3354;1.3499;
814.8000;0.3370;1.3570;
815.1000;0.3362;1.3522;
815.4000;0.3403;1.3641;
815.7000;0.3411;1.3546;
816.0000;0.3386;1.3475;
816.3000;0.3378;1.3546;
816.6000;0.3394;1.3499;
816.9000;0.3386;1.3499;
817.2000;0.3378;1.3546;
817.5000;0.3378;1.3641;
817.8000;0.3362;1.3665;
818.1000;0.3394;1.3712;
818.4000;0.3346;1.3570;
818.7000;0.3362;1.3712;
819.0000;0.3378;1.3807;
819.3000;0.3370;1.3807;
819.6000;0.3362;1.3807;
819.9000;0.3378;1.3807;
820.2000;0.3419;1.3831;
820.5000;0.3419;1.3784;
820.8000;0.3370;1.3665;
821.1000;0.3386;1.3760;
821.4000;0.3354;1.3641;
821.7000;0.3378;1.3689;
822.0000;0.3394;1.3760;
822.3000;0.3370;1.3712;
822.6000;0.3378;1.3784;
822.9000;0.3370;1.3784;
823.2000;0.3419;1.3903;
823.5000;0.3468;1.4069;
823.8000;0.3386;1.3855;
824.1000;0.3362;1.3855;
824.4000;0.3378;1.3879;
824.7000;0.3370;1.3903;
825.0000;0.3362;1.3807;
825.3000;0.3378;1.3760;
825.6000;0.3378;1.3903;
825.9000;0.3386;1.3879;
826.2000;0.3378;1.3831;
826.5000;0.3394;1.3736;
826.8000;0.3378;1.3641;
827.1000;0.3370;1.3617;
827.4000;0.3370;1.3736;
827.7000;0.3378;1.3831;
828.0000;0.3370;1.3807;
828.3000;0.3394;1.3855;
828.6000;0.3378;1.3903;
828.9000;0.3378;1.3855;
829.2000;0.3386;1.3831;
829.5000;0.3394;1.3807;
829.8000;0.3394;1.3855;
830.1000;0.3394;1.3903;
830.4000;0.3378;1.3831;
830.7000;0.3378;1.3784;
831.0000;0.3468;1.3998;
831.3000;0.3370;1.3784;
831.6000;0.3386;1.3855;
831.9000;0.3362;1.3903;
832.2000;0.3362;1.3879;
832.5000;0.3386;1.3831;
832.8000;0.3386;1.3855;
833.1000;0.3370;1.3760;
833.4000;0.3386;1.3760;
833.7000;0.3386;1.3736;
834.0000;0.3370;1.3641;
834.3000;0.3370;1.3641;
834.6000;0.3370;1.3736;
834.9000;0.3386;1.3760;
835.2000;0.3386;1.3831;
835.5000;0.3362;1.3736;
835.8000;0.3378;1.3807;
836.1000;0.3362;1.3807;
836.4000;0.3354;1.3831;
836.7000;0.3378;1.3926;
837.0000;0.3370;1.3903;
837.3000;0.3370;1.3903;
837.6000;0.3370;1.3926;
837.9000;0.3362;1.3831;
838.2000;0.3370;1.3831;
838.5000;0.3337;1.3736;
838.8000;0.3370;1.3855;
839.1000;0.3378;1.3855;
839.4000;0.3378;1.3926;
839.7000;0.3378;1.3926;
840.0000;0.3378;1.3855;
840.3000;0.3394;1.3879;
840.6000;0.3386;1.3784;
840.9000;0.3411;1.3831;
841.2000;0.3370;1.3784;
841.5000;0.3378;1.3807;
841.8000;0.3370;1.3760;
842.1000;0.3378;1.3784;
842.4000;0.3370;1.3784;
842.7000;0.3370;1.3831;
843.0000;0.3378;1.3855;
843.3000;0.3362;1.3831;
843.6000;0.3354;1.3879;
843.9000;0.3305;1.3665;
844.2000;0.3370;1.3831;
844.5000;0.3386;1.3807;
844.8000;0.3272;1.3594;
845.1000;0.3378;1.3903;
845.4000;0.3386;1.3831;
845.7000;0.3297;1.3594;
846.0000;0.3411;1.3926;
846.3000;0.3370;1.3784;
846.6000;0.3370;1.3736;
846.9000;0.3362;1.3807;
847.2000;0.3346;1.3760;
847.5000;0.3370;1.3784;
847.8000;0.3378;1.3879;
848.1000;0.3370;1.3879;
848.4000;0.3362;1.3903;
848.7000;0.3346;1.3807;
849.0000;0.3362;1.3807;
849.3000;0.3386;1.3831;
849.6000;0.3370;1.3736;
849.9000;0.3362;1.3784;
850.2000;0.3378;1.3784;
850.5000;0.3362;1.3736;
850.8000;0.3435;1.3926;
851.1000;0.3394;1.3879;
851.4000;0.3354;1.3831;
851.7000;0.3362;1.3879;
852.0000;0.3394;1.3974;
852.3000;0.3394;1.3998;
852.6000;0.3354;1.3903;
852.9000;0.3386;1.3879;
853.2000;0.3362;1.3831;
853.5000;0.3362;1.3903;
853.8000;0.3386;1.3974;
854.1000;0.3362;1.4021;
854.4000;0.3378;1.4045;
854.7000;0.3362;1.3998;
855.0000;0.3386;1.3950;
855.3000;0.3386;1.3903;
855.6000;0.3411;1.3879;
855.9000;0.3403;1.3926;
856.2000;0.3386;1.3855;
856.5000;0.3427;1.3950;
856.8000;0.3386;1.3855;
857.1000;0.3394;1.3784;
857.4000;0.3346;1.3689;
857.7000;0.3354;1.3784;
858.0000;0.3378;1.3831;
858.3000;0.3403;1.3807;
858.6000;0.3378;1.3712;
858.9000;0.3378;1.3712;
859.2000;0.3370;1.3689;
859.5000;0.3468;1.3974;
859.8000;0.3370;1.3831;
860.1000;0.3337;1.3807;
860.4000;0.3305;1.3712;
860.7000;0.3362;1.3903;
861.0000;0.3460;1.4093;
861.3000;0.3362;1.3831;
861.6000;0.3394;1.3807;
861.9000;0.3378;1.3760;
862.2000;0.3378;1.3760;
862.5000;0.3337;1.3736;
862.8000;0.3362;1.3807;
863.1000;0.3362;1.3807;
863.4000;0.3370;1.3689;
863.7000;0.3370;1.3712;
864.0000;0.3354;1.3736;
864.3000;0.3370;1.3784;
864.6000;0.3362;1.3855;
864.9000;0.3386;1.3903;
865.2000;0.3370;1.3879;
865.5000;0.3427;1.4069;
865.8000;0.3354;1.3903;
866.1000;0.3362;1.3903;
866.4000;0.3346;1.3831;
866.7000;0.3329;1.3736;
867.0000;0.3354;1.3855;
867.3000;0.3346;1.3855;
867.6000;0.3378;1.3903;
867.9000;0.3362;1.3974;
868.2000;0.3240;1.3689;
868.5000;0.3386;1.3950;
868.8000;0.3378;1.3903;
869.1000;0.3354;1.3926;
869.4000;0.3362;1.3950;
869.7000;0.3386;1.3974;
870.0000;0.3370;1.3903;
870.3000;0.3370;1.3903;
870.6000;0.3370;1.3831;
870.9000;0.3362;1.3736;
871.2000;0.3411;1.3855;
871.5000;0.3362;1.3712;
871.8000;0.3346;1.3617;
872.1000;0.3346;1.3665;
872.4000;0.3346;1.3807;
872.7000;0.3362;1.3903;
873.0000;0.3362;1.3855;
873.3000;0.3362;1.3831;
873.6000;0.3354;1.3784;
873.9000;0.3362;1.3855;
874.2000;0.3378;1.3831;
874.5000;0.3411;1.3974;
874.8000;0.3362;1.3831;
875.1000;0.3362;1.3903;
875.4000;0.3370;1.3950;
875.7000;0.3362;1.3879;
876.0000;0.3370;1.3950;
876.3000;0.3362;1.3974;
876.6000;0.3362;1.3903;
876.9000;0.3370;1.3831;
877.2000;0.3362;1.3760;
877.5000;0.3378;1.3855;
877.8000;0.3378;1.3760;
878.1000;0.3378;1.3736;
878.4000;0.3346;1.3665;
878.7000;0.3370;1.3736;
879.0000;0.3370;1.3760;
879.3000;0.3362;1.3760;
879.6000;0.3362;1.3736;
879.9000;0.3370;1.3760;
880.2000;0.3362;1.3736;
880.5000;0.3378;1.3689;
880.8000;0.3321;1.3546;
881.1000;0.3346;1.3665;
881.4000;0.3362;1.3689;
881.7000;0.3354;1.3689;
882.0000;0.3362;1.3712;
882.3000;0.3337;1.3712;
882.6000;0.3346;1.3784;
882.9000;0.3354;1.3831;
883.2000;0.3337;1.3784;
883.5000;0.3354;1.3831;
883.8000;0.3337;1.3831;
884.1000;0.3370;1.3879;
884.4000;0.3264;1.3617;
884.7000;0.3370;1.3784;
885.0000;0.3362;1.3831;
885.3000;0.3370;1.3760;
885.6000;0.3394;1.3879;
885.9000;0.3272;1.3594;
886.2000;0.3337;1.3736;
886.5000;0.3354;1.3712;
886.8000;0.3362;1.3760;
887.1000;0.3354;1.3736;
887.4000;0.3354;1.3712;
887.7000;0.3346;1.3712;
888.0000;0.3346;1.3665;
888.3000;0.3337;1.3617;
888.6000;0.3362;1.3712;
888.9000;0.3370;1.3807;
889.2000;0.3370;1.3784;
889.5000;0.3346;1.3641;
889.8000;0.3378;1.3736;
890.1000;0.3354;1.3712;
890.4000;0.3378;1.3855;
890.7000;0.3329;1.3760;
891.0000;0.3354;1.3784;
891.3000;0.3378;1.3855;
891.6000;0.3370;1.3831;
891.9000;0.3362;1.3879;
892.2000;0.3329;1.3807;
892.5000;0.3362;1.3855;
892.8000;0.3354;1.3879;
893.1000;0.3370;1.3855;
893.4000;0.3362;1.3831;
893.7000;0.3378;1.3784;
894.0000;0.3419;1.3855;
894.3000;0.3305;1.3594;
894.6000;0.3370;1.3807;
894.9000;0.3370;1.3831;
895.2000;0.3337;1.3689;
895.5000;0.3386;1.3760;
895.8000;0.3362;1.3760;
896.1000;0.3337;1.3879;
896.4000;0.3378;1.3974;
896.7000;0.3354;1.3879;
897.0000;0.3354;1.3807;
897.3000;0.3354;1.3831;
897.6000;0.3362;1.3807;
897.9000;0.3346;1.3831;
898.2000;0.3354;1.3903;
898.5000;0.3370;1.3879;
898.8000;0.3370;1.3903;
899.1000;0.3354;1.3807;
899.4000;0.3370;1.3879;
899.7000;0.3370;1.3831;
900.0000;0.3354;1.3736;
900.3000;0.3370;1.3736;
900.6000;0.3362;1.3712;
900.9000;0.3362;1.3712;
901.2000;0.3354;1.3736;
901.5000;0.3346;1.3784;
901.8000;0.3378;1.3831;
902.1000;0.3362;1.3784;
902.4000;0.3329;1.3712;
902.7000;0.3370;1.3760;
903.0000;0.3337;1.3760;
903.3000;0.3337;1.3784;
903.6000;0.3354;1.3807;
903.9000;0.3337;1.3784;
904.2000;0.3362;1.3831;
904.5000;0.3370;1.3784;
904.8000;0.3370;1.3784;
905.1000;0.3419;1.3879;
905.4000;0.3370;1.3760;
905.7000;0.3362;1.3784;
906.0000;0.3370;1.3831;
906.3000;0.3346;1.3807;
906.6000;0.3378;1.3903;
906.9000;0.3313;1.3689;
907.2000;0.3354;1.3760;
907.5000;0.3313;1.3665;
907.8000;0.3346;1.3712;
908.1000;0.3362;1.3712;
908.4000;0.3362;1.3712;
908.7000;0.3354;1.3736;
909.0000;0.3370;1.3760;
909.3000;0.3370;1.3760;
909.6000;0.3346;1.3784;
909.9000;0.3354;1.3879;
910.2000;0.3346;1.3903;
910.5000;0.3248;1.3617;
910.8000;0.3346;1.3855;
911.1000;0.3337;1.3855;
911.4000;0.3346;1.3879;
911.7000;0.3362;1.3879;
912.0000;0.3419;1.3950;
912.3000;0.3354;1.3807;
912.6000;0.3346;1.3689;
912.9000;0.3394;1.3807;
913.2000;0.3378;1.3807;
913.5000;0.3354;1.3760;
913.8000;0.3337;1.3784;
914.1000;0.3362;1.3807;
914.4000;0.3370;1.3784;
914.7000;0.3378;1.3784;
915.0000;0.3403;1.3807;
915.3000;0.3346;1.3689;
915.6000;0.3370;1.3736;
915.9000;0.3321;1.3712;
916.2000;0.3280;1.3522;
916.5000;0.3394;1.3760;
916.8000;0.3451;1.3950;
917.1000;0.3346;1.3712;
917.4000;0.3346;1.3736;
917.7000;0.3346;1.3712;
918.0000;0.3354;1.3736;
918.3000;0.3321;1.3689;
918.6000;0.3378;1.3855;
918.9000;0.3362;1.3807;
919.2000;0.3370;1.3831;
919.5000;0.3354;1.3831;
919.8000;0.3370;1.3784;
920.1000;0.3346;1.3760;
920.4000;0.3354;1.3736;
920.7000;0.3337;1.3712;
921.0000;0.3362;1.3760;
921.3000;0.3346;1.3641;
921.6000;0.3329;1.3689;
921.9000;0.3370;1.3760;
922.2000;0.3362;1.3689;
922.5000;0.3362;1.3641;
922.8000;0.3362;1.3712;
923.1000;0.3354;1.3784;
923.4000;0.3346;1.3736;
923.7000;0.3362;1.3784;
924.0000;0.3370;1.3784;
924.3000;0.3370;1.3760;
924.6000;0.3354;1.3784;
924.9000;0.3354;1.3760;
925.2000;0.3362;1.3641;
925.5000;0.3346;1.3665;
925.8000;0.3362;1.3689;
926.1000;0.3354;1.3712;
926.4000;0.3362;1.3665;
926.7000;0.3354;1.3665;
927.0000;0.3370;1.3760;
927.3000;0.3346;1.3736;
927.6000;0.3354;1.3760;
927.9000;0.3443;1.3998;
928.2000;0.3337;1.3665;
928.5000;0.3362;1.3689;
928.8000;0.3394;1.3784;
929.1000;0.3346;1.3665;
929.4000;0.3362;1.3665;
929.7000;0.3354;1.3712;
930.0000;0.3346;1.3784;
930.3000;0.3346;1.3760;
930.6000;0.3354;1.3760;
930.9000;0.3337;1.3784;
931.2000;0.3354;1.3760;
931.5000;0.3337;1.3712;
931.8000;0.3354;1.3712;
932.1000;0.3394;1.3903;
932.4000;0.3354;1.3784;
932.7000;0.3346;1.3760;
933.0000;0.3346;1.3831;
933.3000;0.3394;1.3998;
933.6000;0.3370;1.3974;
933.9000;0.3427;1.4140;
934.2000;0.3337;1.3950;
934.5000;0.3346;1.3974;
934.8000;0.3370;1.3950;
935.1000;0.3354;1.3950;
935.4000;0.3346;1.3879;
935.7000;0.3370;1.3784;
936.0000;0.3362;1.3712;
936.3000;0.3354;1.3689;
936.6000;0.3337;1.3641;
936.9000;0.3337;1.3689;
937.2000;0.3354;1.3784;
937.5000;0.3354;1.3855;
937.8000;0.3394;1.3998;
938.1000;0.3329;1.3879;
938.4000;0.3354;1.3950;
938.7000;0.3337;1.3903;
939.0000;0.3354;1.4021;
939.3000;0.3321;1.3974;
939.6000;0.3370;1.4069;
939.9000;0.3354;1.4045;
940.2000;0.3337;1.3998;
940.5000;0.3337;1.4021;
940.8000;0.3354;1.3998;
941.1000;0.3280;1.3784;
941.4000;0.3346;1.3974;
941.7000;0.3354;1.3974;
942.0000;0.3411;1.4116;
942.3000;0.3362;1.3903;
942.6000;0.3346;1.3831;
942.9000;0.3346;1.3807;
943.2000;0.3362;1.3855;
943.5000;0.3378;1.3926;
943.8000;0.3354;1.3926;
944.1000;0.3394;1.3950;
944.4000;0.3354;1.3855;
944.7000;0.3346;1.3855;
945.0000;0.3419;1.4045;
945.3000;0.3354;1.3855;
945.6000;0.3346;1.3903;
945.9000;0.3337;1.3974;
946.2000;0.3354;1.4069;
946.5000;0.3346;1.4021;
946.8000;0.3346;1.3998;
947.1000;0.3337;1.3998;
947.4000;0.3346;1.3998;
947.7000;0.3313;1.3855;
948.0000;0.3329;1.3807;
948.3000;0.3354;1.3807;
948.6000;0.3362;1.3807;
948.9000;0.3346;1.3760;
949.2000;0.3329;1.3736;
949.5000;0.3362;1.3855;
949.8000;0.3354;1.3903;
950.1000;0.3346;1.3879;
950.4000;0.3346;1.3855;
950.7000;0.3337;1.3784;
951.0000;0.3362;1.3712;
951.3000;0.3329;1.3617;
951.6000;0.3346;1.3594;
951.9000;0.3346;1.3475;
952.2000;0.3346;1.3475;
952.5000;0.3354;1.3617;
952.8000;0.3362;1.3617;
953.1000;0.3346;1.3665;
953.4000;0.3329;1.3736;
953.7000;0.3370;1.3807;
954.0000;0.3337;1.3712;
954.3000;0.3346;1.3760;
954.6000;0.3362;1.3760;
954.9000;0.3337;1.3784;
955.2000;0.3346;1.3784;
955.5000;0.3337;1.3784;
955.8000;0.3337;1.3831;
956.1000;0.3346;1.3831;
956.4000;0.3346;1.3736;
956.7000;0.3362;1.3807;
957.0000;0.3362;1.3736;
957.3000;0.3354;1.3712;
957.6000;0.3362;1.3736;
957.9000;0.3337;1.3641;
958.2000;0.3354;1.3617;
958.5000;0.3354;1.3665;
958.8000;0.3378;1.3736;
959.1000;0.3370;1.3689;
959.4000;0.3354;1.3641;
959.7000;0.3337;1.3546;
960.0000;0.3362;1.3689;
960.3000;0.3329;1.3641;
960.6000;0.3337;1.3689;
960.9000;0.3346;1.3665;
961.2000;0.3346;1.3712;
961.5000;0.3337;1.3641;
961.8000;0.3297;1.3522;
962.1000;0.3321;1.3594;
962.4000;0.3329;1.3570;
962.7000;0.3370;1.3712;
963.0000;0.3346;1.3736;
963.3000;0.3337;1.3807;
963.6000;0.3346;1.3831;
963.9000;0.3337;1.3831;
964.2000;0.3346;1.3950;
964.5000;0.3337;1.3926;
964.8000;0.3329;1.3903;
965.1000;0.3329;1.3831;
965.4000;0.3362;1.3926;
965.7000;0.3329;1.3831;
966.0000;0.3337;1.3974;
966.3000;0.3329;1.3998;
966.6000;0.3337;1.4045;
966.9000;0.3337;1.3998;
967.2000;0.3346;1.3903;
967.5000;0.3329;1.3903;
967.8000;0.3394;1.3950;
968.1000;0.3329;1.3689;
968.4000;0.3346;1.3736;
968.7000;0.3378;1.3879;
969.0000;0.3354;1.3807;
969.3000;0.3346;1.3760;
969.6000;0.3337;1.3736;
969.9000;0.3362;1.3760;
970.2000;0.3346;1.3665;
970.5000;0.3354;1.3760;
970.8000;0.3337;1.3760;
971.1000;0.3337;1.3760;
971.4000;0.3370;1.3855;
971.7000;0.3337;1.3760;
972.0000;0.3346;1.3760;
972.3000;0.3346;1.3831;
972.6000;0.3370;1.3926;
972.9000;0.3354;1.3926;
973.2000;0.3354;1.3855;
973.5000;0.3346;1.3807;
973.8000;0.3346;1.3760;
974.1000;0.3354;1.3760;
974.4000;0.3370;1.3760;
974.7000;0.3354;1.3760;
975.0000;0.3354;1.3712;
975.3000;0.3362;1.3712;
975.6000;0.3337;1.3712;
975.9000;0.3337;1.3712;
976.2000;0.3346;1.3712;
976.5000;0.3354;1.3807;
976.8000;0.3264;1.3570;
977.1000;0.3346;1.3736;
977.4000;0.3289;1.3570;
977.7000;0.3362;1.3736;
978.0000;0.3362;1.3736;
978.3000;0.3354;1.3855;
978.6000;0.3313;1.3855;
978.9000;0.3329;1.3903;
979.2000;0.3321;1.3855;
979.5000;0.3337;1.3926;
979.8000;0.3354;1.3926;
980.1000;0.3354;1.3926;
980.4000;0.3419;1.4188;
980.7000;0.3337;1.3950;
981.0000;0.3354;1.4045;
981.3000;0.3346;1.4093;
981.6000;0.3394;1.4283;
981.9000;0.3346;1.4093;
982.2000;0.3411;1.4211;
982.5000;0.3337;1.3950;
982.8000;0.3305;1.3689;
983.1000;0.3354;1.3831;
983.4000;0.3346;1.3831;
983.7000;0.3321;1.3689;
984.0000;0.3329;1.3712;
984.3000;0.3321;1.3712;
984.6000;0.3354;1.3712;
984.9000;0.3305;1.3617;
985.2000;0.3321;1.3689;
985.5000;0.3362;1.3831;
985.8000;0.3378;1.3974;
986.1000;0.3362;1.3926;
986.4000;0.3346;1.3831;
986.7000;0.3346;1.3807;
987.0000;0.3354;1.3855;
987.3000;0.3378;1.3950;
987.6000;0.3337;1.3760;
987.9000;0.3354;1.3760;
988.2000;0.3272;1.3594;
988.5000;0.3337;1.3712;
988.8000;0.3354;1.3736;
989.1000;0.3354;1.3712;
989.4000;0.3354;1.3760;
989.7000;0.3354;1.3736;
990.0000;0.3329;1.3712;
990.3000;0.3329;1.3689;
990.6000;0.3337;1.3665;
990.9000;0.3346;1.3641;
991.2000;0.3346;1.3594;
991.5000;0.3346;1.3665;
991.8000;0.3337;1.3665;
992.1000;0.3346;1.3641;
992.4000;0.3337;1.3712;
992.7000;0.3337;1.3760;
993.0000;0.3362;1.3760;
993.3000;0.3362;1.3760;
993.6000;0.3329;1.3736;
993.9000;0.3354;1.3831;
994.2000;0.3354;1.3807;
994.5000;0.3370;1.3879;
994.8000;0.3346;1.3807;
995.1000;0.3337;1.3760;
995.4000;0.3354;1.3855;
995.7000;0.3354;1.4021;
996.0000;0.3337;1.4021;
996.3000;0.3337;1.4021;
996.6000;0.3346;1.4021;
996.9000;0.3321;1.3926;
997.2000;0.3354;1.4021;
997.5000;0.3362;1.3974;
997.8000;0.3354;1.3998;
998.1000;0.3329;1.3974;
998.4000;0.3346;1.3974;
998.7000;0.3346;1.3974;
999.0000;0.3337;1.3974;
999.3000;0.3313;1.3974;
999.6000;0.3337;1.4021;
999.9000;0.3346;1.3998;
1000.2000;0.3329;1.3950;
1000.5000;0.3346;1.3998;
1000.8000;0.3337;1.3831;
1001.1000;0.3329;1.3712;
1001.4000;0.3337;1.3641;
1001.7000;0.3346;1.3617;
1002.0000;0.3346;1.3712;
1002.3000;0.3321;1.3570;
1002.6000;0.3337;1.3617;
1002.9000;0.3337;1.3641;
1003.2000;0.3329;1.3689;
1003.5000;0.3337;1.3760;
1003.8000;0.3329;1.3665;
1004.1000;0.3362;1.3712;
1004.4000;0.3329;1.3617;
1004.7000;0.3346;1.3665;
1005.0000;0.3354;1.3807;
1005.3000;0.3329;1.3760;
1005.6000;0.3354;1.3641;
1005.9000;0.3329;1.3617;
1006.2000;0.3305;1.3499;
1006.5000;0.3346;1.3617;
1006.8000;0.3337;1.3665;
1007.1000;0.3321;1.3665;
1007.4000;0.3337;1.3736;
1007.7000;0.3297;1.3617;
1008.0000;0.3346;1.3712;
1008.3000;0.3435;1.3926;
1008.6000;0.3362;1.3855;
1008.9000;0.3362;1.3950;
1009.2000;0.3346;1.3855;
1009.5000;0.3354;1.3926;
1009.8000;0.3394;1.3974;
1010.1000;0.3272;1.3665;
1010.4000;0.3346;1.3784;
1010.7000;0.3289;1.3665;
1011.0000;0.3354;1.3760;
1011.3000;0.3346;1.3712;
1011.6000;0.3346;1.3736;
1011.9000;0.3346;1.3807;
1012.2000;0.3443;1.4021;
1012.5000;0.3337;1.3689;
1012.8000;0.3346;1.3665;
1013.1000;0.3329;1.3712;
1013.4000;0.3362;1.3712;
1013.7000;0.3346;1.3641;
1014.0000;0.3346;1.3641;
1014.3000;0.3346;1.3712;
1014.6000;0.3337;1.3760;
1014.9000;0.3321;1.3712;
1015.2000;0.3337;1.3665;
1015.5000;0.3346;1.3689;
1015.8000;0.3321;1.3641;
1016.1000;0.3354;1.3665;
1016.4000;0.3354;1.3736;
1016.7000;0.3329;1.3784;
1017.0000;0.3411;1.3950;
1017.3000;0.3337;1.3831;
1017.6000;0.3289;1.3641;
1017.9000;0.3354;1.3831;
1018.2000;0.3354;1.3879;
1018.5000;0.3346;1.3879;
1018.8000;0.3370;1.3926;
1019.1000;0.3354;1.3926;
1019.4000;0.3354;1.3950;
1019.7000;0.3354;1.3950;
1020.0000;0.3329;1.3855;
1020.3000;0.3346;1.3855;
1020.6000;0.3362;1.3903;
1020.9000;0.3337;1.3807;
1021.2000;0.3346;1.3736;
1021.5000;0.3337;1.3760;
1021.8000;0.3329;1.3712;
1022.1000;0.3354;1.3760;
1022.4000;0.3411;1.3903;
1022.7000;0.3362;1.3807;
1023.0000;0.3321;1.3807;
1023.3000;0.3337;1.3879;
1023.6000;0.3305;1.3784;
1023.9000;0.3313;1.3855;
1024.2000;0.3337;1.3903;
1024.5000;0.3337;1.3950;
1024.8000;0.3337;1.3974;
1025.1000;0.3346;1.3903;
1025.4000;0.3354;1.3831;
1025.7000;0.3337;1.3736;
1026.0000;0.3337;1.3617;
1026.3000;0.3346;1.3736;
1026.6000;0.3346;1.3689;
1026.9000;0.3337;1.3665;
1027.2000;0.3354;1.3760;
1027.5000;0.3337;1.3855;
1027.8000;0.3346;1.3855;
1028.1000;0.3313;1.3760;
1028.4000;0.3346;1.3926;
1028.7000;0.3354;1.3903;
1029.0000;0.3321;1.3807;
1029.3000;0.3329;1.3736;
1029.6000;0.3337;1.3807;
1029.9000;0.3337;1.3831;
1030.2000;0.3329;1.3784;
1030.5000;0.3329;1.3784;
1030.8000;0.3321;1.3712;
1031.1000;0.3354;1.3736;
1031.4000;0.3337;1.3760;
1031.7000;0.3337;1.3831;
1032.0000;0.3354;1.3903;
1032.3000;0.3354;1.3831;
1032.6000;0.3337;1.3760;
1032.9000;0.3362;1.3760;
1033.2000;0.3337;1.3712;
1033.5000;0.3346;1.3903;
1033.8000;0.3337;1.3926;
1034.1000;0.3354;1.3974;
1034.4000;0.3346;1.3926;
1034.7000;0.3362;1.3760;
1035.0000;0.3337;1.3689;
1035.3000;0.3313;1.3689;
1035.6000;0.3329;1.3807;
1035.9000;0.3337;1.3855;
1036.2000;0.3354;1.3879;
1036.5000;0.3337;1.3807;
1036.8000;0.3337;1.3831;
1037.1000;0.3337;1.3807;
1037.4000;0.3346;1.3784;
1037.7000;0.3362;1.3831;
1038.0000;0.3386;1.3831;
1038.3000;0.3329;1.3760;
1038.6000;0.3346;1.3760;
1038.9000;0.3329;1.3736;
1039.2000;0.3329;1.3760;
1039.5000;0.3321;1.3665;
1039.8000;0.3329;1.3689;
1040.1000;0.3362;1.3570;
1040.4000;0.3346;1.3594;
1040.7000;0.3346;1.3594;
1041.0000;0.3346;1.3689;
1041.3000;0.3354;1.3736;
1041.6000;0.3337;1.3760;
1041.9000;0.3321;1.3784;
1042.2000;0.3337;1.3807;
1042.5000;0.3346;1.3784;
1042.8000;0.3346;1.3712;
1043.1000;0.3337;1.3665;
1043.4000;0.3346;1.3641;
1043.7000;0.3346;1.3641;
1044.0000;0.3354;1.3784;
1044.3000;0.3329;1.3736;
1044.6000;0.3362;1.3855;
1044.9000;0.3370;1.3926;
1045.2000;0.3346;1.3760;
1045.5000;0.3354;1.3712;
1045.8000;0.3329;1.3641;
1046.1000;0.3346;1.3570;
1046.4000;0.3337;1.3546;
1046.7000;0.3337;1.3546;
1047.0000;0.3337;1.3522;
1047.3000;0.3329;1.3499;
1047.6000;0.3362;1.3546;
1047.9000;0.3337;1.3570;
1048.2000;0.3329;1.3546;
1048.5000;0.3346;1.3594;
1048.8000;0.3354;1.3712;
1049.1000;0.3329;1.3712;
1049.4000;0.3346;1.3736;
1049.7000;0.3337;1.3689;
1050.0000;0.3321;1.3594;
1050.3000;0.3337;1.3689;
1050.6000;0.3329;1.3689;
1050.9000;0.3346;1.3736;
1051.2000;0.3362;1.3807;
1051.5000;0.3337;1.3784;
1051.8000;0.3346;1.3712;
1052.1000;0.3321;1.3665;
1052.4000;0.3346;1.3831;
1052.7000;0.3346;1.3831;
1053.0000;0.3346;1.3760;
1053.3000;0.3346;1.3712;
1053.6000;0.3346;1.3594;
1053.9000;0.3337;1.3546;
1054.2000;0.3362;1.3570;
1054.5000;0.3337;1.3570;
1054.8000;0.3337;1.3641;
1055.1000;0.3329;1.3641;
1055.4000;0.3337;1.3594;
1055.7000;0.3329;1.3594;
1056.0000;0.3321;1.3570;
1056.3000;0.3346;1.3594;
1056.6000;0.3394;1.3712;
1056.9000;0.3337;1.3594;
1057.2000;0.3337;1.3665;
1057.5000;0.3337;1.3570;
1057.8000;0.3337;1.3689;
1058.1000;0.3346;1.3689;
1058.4000;0.3362;1.3712;
1058.7000;0.3329;1.3594;
1059.0000;0.3297;1.3475;
1059.3000;0.3346;1.3617;
1059.6000;0.3329;1.3499;
1059.9000;0.3329;1.3546;
1060.2000;0.3329;1.3522;
1060.5000;0.3305;1.3499;
1060.8000;0.3337;1.3617;
1061.1000;0.3329;1.3570;
1061.4000;0.3337;1.3665;
1061.7000;0.3289;1.3546;
1062.0000;0.3329;1.3641;
1062.3000;0.3346;1.3617;
1062.6000;0.3337;1.3617;
1062.9000;0.3337;1.3617;
1063.2000;0.3370;1.3665;
1063.5000;0.3329;1.3570;
1063.8000;0.3337;1.3665;
1064.1000;0.3346;1.3641;
1064.4000;0.3346;1.3689;
1064.7000;0.3313;1.3594;
1065.0000;0.3346;1.3641;
1065.3000;0.3354;1.3665;
1065.6000;0.3329;1.3546;
1065.9000;0.3313;1.3475;
1066.2000;0.3313;1.3499;
1066.5000;0.3346;1.3689;
1066.8000;0.3337;1.3665;
1067.1000;0.3329;1.3665;
1067.4000;0.3329;1.3641;
1067.7000;0.3337;1.3641;
1068.0000;0.3329;1.3665;
1068.3000;0.3370;1.3689;
1068.6000;0.3329;1.3594;
1068.9000;0.3346;1.3665;
1069.2000;0.3346;1.3689;
1069.5000;0.3297;1.3594;
1069.8000;0.3378;1.3784;
1070.1000;0.3394;1.3807;
1070.4000;0.3354;1.3712;
1070.7000;0.3264;1.3522;
1071.0000;0.3329;1.3807;
1071.3000;0.3337;1.3831;
1071.6000;0.3289;1.3760;
1071.9000;0.3240;1.3617;
1072.2000;0.3386;1.3926;
1072.5000;0.3321;1.3736;
1072.8000;0.3321;1.3641;
1073.1000;0.3346;1.3641;
1073.4000;0.3321;1.3665;
1073.7000;0.3346;1.3736;
1074.0000;0.3346;1.3712;
1074.3000;0.3337;1.3712;
1074.6000;0.3346;1.3712;
1074.9000;0.3346;1.3807;
1075.2000;0.3346;1.3760;
1075.5000;0.3346;1.3712;
1075.8000;0.3394;1.3831;
1076.1000;0.3337;1.3689;
1076.4000;0.3354;1.3760;
1076.7000;0.3272;1.3522;
1077.0000;0.3337;1.3736;
1077.3000;0.3313;1.3736;
1077.6000;0.3346;1.3807;
1077.9000;0.3354;1.3831;
1078.2000;0.3386;1.3974;
1078.5000;0.3337;1.3903;
1078.8000;0.3427;1.4188;
1079.1000;0.3419;1.4116;
1079.4000;0.3337;1.3903;
1079.7000;0.3337;1.3926;
1080.0000;0.3337;1.3879;
1080.3000;0.3337;1.3855;
1080.6000;0.3305;1.3736;
1080.9000;0.3337;1.3807;
1081.2000;0.3329;1.3736;
1081.5000;0.3321;1.3712;
1081.8000;0.3346;1.3807;
1082.1000;0.3329;1.3855;
1082.4000;0.3346;1.3926;
1082.7000;0.3337;1.3950;
1083.0000;0.3346;1.3950;
1083.3000;0.3337;1.3950;
1083.6000;0.3346;1.4021;
1083.9000;0.3337;1.3998;
1084.2000;0.3346;1.3950;
1084.5000;0.3321;1.3903;
1084.8000;0.3337;1.3998;
1085.1000;0.3329;1.3974;
1085.4000;0.3329;1.4045;
1085.7000;0.3337;1.3879;
1086.0000;0.3329;1.3855;
1086.3000;0.3346;1.3855;
1086.6000;0.3337;1.3855;
1086.9000;0.3321;1.3831;
1087.2000;0.3232;1.3617;
1087.5000;0.3337;1.3879;
1087.8000;0.3337;1.3807;
1088.1000;0.3329;1.3855;
1088.4000;0.3354;1.3855;
1088.7000;0.3321;1.3831;
1089.0000;0.3337;1.3760;
1089.3000;0.3337;1.3831;
1089.6000;0.3329;1.3807;
1089.9000;0.3337;1.3855;
1090.2000;0.3321;1.3760;
1090.5000;0.3346;1.3784;
1090.8000;0.3280;1.3570;
1091.1000;0.3354;1.3831;
1091.4000;0.3378;1.3903;
1091.7000;0.3370;1.3831;
1092.0000;0.3337;1.3784;
1092.3000;0.3346;1.3831;
1092.6000;0.3305;1.3736;
1092.9000;0.3346;1.3855;
1093.2000;0.3370;1.3950;
1093.5000;0.3305;1.3760;
1093.8000;0.3305;1.3831;
1094.1000;0.3321;1.3855;
1094.4000;0.3313;1.3926;
1094.7000;0.3321;1.3950;
1095.0000;0.3329;1.4021;
1095.3000;0.3313;1.4021;
1095.6000;0.3321;1.4116;
1095.9000;0.3313;1.4021;
1096.2000;0.3313;1.3855;
1096.5000;0.3313;1.3879;
1096.8000;0.3329;1.3831;
1097.1000;0.3321;1.3855;
1097.4000;0.3337;1.3903;
1097.7000;0.3313;1.3903;
1098.0000;0.3403;1.4116;
1098.3000;0.3346;1.3974;
1098.6000;0.3337;1.4021;
1098.9000;0.3313;1.3950;
1099.2000;0.3329;1.3950;
1099.5000;0.3321;1.3903;
1099.8000;0.3337;1.3998;
1100.1000;0.3337;1.3903;
1100.4000;0.3337;1.3831;
1100.7000;0.3305;1.3784;
1101.0000;0.3394;1.3998;
1101.3000;0.3329;1.3831;
1101.6000;0.3313;1.3807;
1101.9000;0.3329;1.3926;
1102.2000;0.3346;1.3926;
1102.5000;0.3370;1.3998;
1102.8000;0.3394;1.3855;
1103.1000;0.3272;1.3546;
1103.4000;0.3329;1.3760;
1103.7000;0.3329;1.3807;
1104.0000;0.3329;1.3807;
1104.3000;0.3386;1.3950;
1104.6000;0.3329;1.3760;
1104.9000;0.3321;1.3784;
1105.2000;0.3329;1.3807;
1105.5000;0.3362;1.3879;
1105.8000;0.3346;1.3926;
1106.1000;0.3337;1.3998;
1106.4000;0.3305;1.3974;
1106.7000;0.3272;1.3879;
1107.0000;0.3362;1.4045;
1107.3000;0.3411;1.4140;
1107.6000;0.3329;1.3926;
1107.9000;0.3329;1.3950;
1108.2000;0.3337;1.4021;
1108.5000;0.3337;1.4045;
1108.8000;0.3305;1.3974;
1109.1000;0.3321;1.3950;
1109.4000;0.3337;1.3974;
1109.7000;0.3329;1.3855;
1110.0000;0.3313;1.3855;
1110.3000;0.3337;1.3926;
1110.6000;0.3329;1.3879;
1110.9000;0.3354;1.3926;
1111.2000;0.3354;1.3926;
1111.5000;0.3346;1.3926;
1111.8000;0.3337;1.3855;
1112.1000;0.3337;1.3855;
1112.4000;0.3337;1.3784;
1112.7000;0.3337;1.3807;
1113.0000;0.3313;1.3665;
1113.3000;0.3337;1.3665;
1113.6000;0.3337;1.3712;
1113.9000;0.3321;1.3665;
1114.2000;0.3329;1.3712;
1114.5000;0.3337;1.3736;
1114.8000;0.3305;1.3641;
1115.1000;0.3337;1.3736;
1115.4000;0.3411;1.3879;
1115.7000;0.3378;1.3903;
1116.0000;0.3337;1.3736;
1116.3000;0.3321;1.3689;
1116.6000;0.3329;1.3617;
1116.9000;0.3394;1.3831;
1117.2000;0.3337;1.3736;
1117.5000;0.3346;1.3736;
1117.8000;0.3321;1.3665;
1118.1000;0.3329;1.3712;
1118.4000;0.3337;1.3712;
1118.7000;0.3346;1.3736;
1119.0000;0.3329;1.3665;
1119.3000;0.3305;1.3665;
1119.6000;0.3297;1.3665;
1119.9000;0.3329;1.3760;
1120.2000;0.3337;1.3760;
1120.5000;0.3329;1.3736;
1120.8000;0.3337;1.3617;
1121.1000;0.3321;1.3594;
1121.4000;0.3329;1.3570;
1121.7000;0.3313;1.3641;
1122.0000;0.3378;1.3807;
1122.3000;0.3337;1.3594;
1122.6000;0.3337;1.3522;
1122.9000;0.3321;1.3475;
1123.2000;0.3337;1.3499;
1123.5000;0.3297;1.3403;
1123.8000;0.3329;1.3570;
1124.1000;0.3321;1.3665;
1124.4000;0.3329;1.3641;
1124.7000;0.3329;1.3736;
1125.0000;0.3321;1.3712;
1125.3000;0.3346;1.3665;
1125.6000;0.3346;1.3712;
1125.9000;0.3346;1.3760;
1126.2000;0.3346;1.3712;
1126.5000;0.3329;1.3617;
1126.8000;0.3329;1.3641;
1127.1000;0.3289;1.3570;
1127.4000;0.3346;1.3760;
1127.7000;0.3337;1.3784;
1128.0000;0.3346;1.3784;
1128.3000;0.3329;1.3736;
1128.6000;0.3337;1.3712;
1128.9000;0.3313;1.3570;
1129.2000;0.3337;1.3665;
1129.5000;0.3346;1.3689;
1129.8000;0.3329;1.3594;
1130.1000;0.3329;1.3665;
1130.4000;0.3329;1.3712;
1130.7000;0.3337;1.3760;
1131.0000;0.3329;1.3879;
1131.3000;0.3354;1.3831;
1131.6000;0.3329;1.3760;
1131.9000;0.3337;1.3807;
1132.2000;0.3280;1.3712;
1132.5000;0.3354;1.3855;
1132.8000;0.3337;1.3807;
1133.1000;0.3354;1.3712;
1133.4000;0.3337;1.3689;
1133.7000;0.3329;1.3760;
1134.0000;0.3419;1.3926;
1134.3000;0.3337;1.3641;
1134.6000;0.3321;1.3689;
1134.9000;0.3321;1.3689;
1135.2000;0.3354;1.3712;
1135.5000;0.3329;1.3712;
1135.8000;0.3346;1.3712;
1136.1000;0.3346;1.3736;
1136.4000;0.3337;1.3736;
1136.7000;0.3329;1.3855;
1137.0000;0.3337;1.3807;
1137.3000;0.3329;1.3831;
1137.6000;0.3346;1.3879;
1137.9000;0.3329;1.3831;
1138.2000;0.3346;1.3903;
1138.5000;0.3313;1.3879;
1138.8000;0.3346;1.4021;
1139.1000;0.3337;1.3926;
1139.4000;0.3305;1.3712;
1139.7000;0.3289;1.3712;
1140.0000;0.3313;1.3855;
1140.3000;0.3289;1.3784;
1140.6000;0.3378;1.3974;
1140.9000;0.3321;1.3926;
1141.2000;0.3346;1.3926;
1141.5000;0.3321;1.3831;
1141.8000;0.3329;1.3831;
1142.1000;0.3313;1.3831;
1142.4000;0.3337;1.3903;
1142.7000;0.3346;1.3926;
1143.0000;0.3321;1.3855;
1143.3000;0.3313;1.3784;
1143.6000;0.3321;1.3831;
1143.9000;0.3329;1.3855;
1144.2000;0.3346;1.3784;
1144.5000;0.3337;1.3784;
1144.8000;0.3337;1.3831;
1145.1000;0.3321;1.3903;
1145.4000;0.3346;1.3903;
1145.7000;0.3321;1.3784;
1146.0000;0.3321;1.3807;
1146.3000;0.3362;1.3903;
1146.6000;0.3337;1.3926;
1146.9000;0.3346;1.3926;
1147.2000;0.3313;1.3879;
1147.5000;0.3346;1.3974;
1147.8000;0.3337;1.4021;
1148.1000;0.3337;1.4093;
1148.4000;0.3321;1.4045;
1148.7000;0.3321;1.4045;
1149.0000;0.3321;1.4045;
1149.3000;0.3321;1.4021;
1149.6000;0.3329;1.4045;
1149.9000;0.3329;1.4140;
1150.2000;0.3346;1.4164;
1150.5000;0.3362;1.4093;
1150.8000;0.3337;1.4021;
1151.1000;0.3346;1.4045;
1151.4000;0.3337;1.4069;
1151.7000;0.3346;1.4116;
1152.0000;0.3321;1.4021;
1152.3000;0.3346;1.4069;
1152.6000;0.3337;1.4021;
1152.9000;0.3329;1.3950;
1153.2000;0.3337;1.4021;
1153.5000;0.3337;1.3950;
1153.8000;0.3313;1.3855;
1154.1000;0.3321;1.3855;
1154.4000;0.3329;1.3974;
1154.7000;0.3321;1.3974;
1155.0000;0.3346;1.4021;
1155.3000;0.3321;1.4021;
1155.6000;0.3313;1.3998;
1155.9000;0.3329;1.3974;
1156.2000;0.3248;1.3665;
1156.5000;0.3329;1.3903;
1156.8000;0.3337;1.3855;
1157.1000;0.3329;1.3855;
1157.4000;0.3329;1.3879;
1157.7000;0.3346;1.3974;
1158.0000;0.3346;1.4021;
1158.3000;0.3329;1.3926;
1158.6000;0.3329;1.3903;
1158.9000;0.3321;1.3926;
1159.2000;0.3337;1.4045;
1159.5000;0.3329;1.3998;
1159.8000;0.3337;1.3974;
1160.1000;0.3329;1.3879;
1160.4000;0.3337;1.3926;
1160.7000;0.3321;1.3974;
1161.0000;0.3321;1.3950;
1161.3000;0.3321;1.3879;
1161.6000;0.3346;1.3879;
1161.9000;0.3354;1.3879;
1162.2000;0.3337;1.3831;
1162.5000;0.3305;1.3784;
1162.8000;0.3337;1.3855;
1163.1000;0.3329;1.3879;
1163.4000;0.3305;1.3926;
1163.7000;0.3313;1.3855;
1164.0000;0.3329;1.3926;
1164.3000;0.3346;1.3926;
1164.6000;0.3321;1.3903;
1164.9000;0.3321;1.3879;
1165.2000;0.3337;1.3926;
1165.5000;0.3321;1.3831;
1165.8000;0.3305;1.3807;
1166.1000;0.3329;1.3879;
1166.4000;0.3329;1.3807;
1166.7000;0.3337;1.3926;
1167.0000;0.3321;1.3903;
1167.3000;0.3337;1.3855;
1167.6000;0.3346;1.3926;
1167.9000;0.3346;1.3903;
1168.2000;0.3329;1.3903;
1168.5000;0.3337;1.3831;
1168.8000;0.3321;1.3855;
1169.1000;0.3346;1.3879;
1169.4000;0.3321;1.3760;
1169.7000;0.3329;1.3784;
1170.0000;0.3313;1.3903;
1170.3000;0.3329;1.3998;
1170.6000;0.3337;1.4021;
1170.9000;0.3337;1.3998;
1171.2000;0.3321;1.3974;
1171.5000;0.3337;1.4140;
1171.8000;0.3337;1.4140;
1172.1000;0.3337;1.4069;
1172.4000;0.3337;1.4069;
1172.7000;0.3362;1.4116;
1173.0000;0.3337;1.4069;
1173.3000;0.3337;1.3998;
1173.6000;0.3313;1.3879;
1173.9000;0.3329;1.3926;
1174.2000;0.3321;1.3974;
1174.5000;0.3337;1.3950;
1174.8000;0.3346;1.3950;
1175.1000;0.3223;1.3594;
1175.4000;0.3321;1.3784;
1175.7000;0.3337;1.3831;
1176.0000;0.3329;1.3831;
1176.3000;0.3346;1.3926;
1176.6000;0.3337;1.3903;
1176.9000;0.3329;1.3903;
1177.2000;0.3337;1.3974;
1177.5000;0.3362;1.4045;
1177.8000;0.3378;1.3998;
1178.1000;0.3354;1.4021;
1178.4000;0.3337;1.4045;
1178.7000;0.3272;1.3831;
1179.0000;0.3272;1.3903;
1179.3000;0.3321;1.4045;
1179.6000;0.3321;1.4021;
1179.9000;0.3329;1.4116;
1180.2000;0.3305;1.4021;
1180.5000;0.3370;1.4164;
1180.8000;0.3329;1.3998;
1181.1000;0.3305;1.3950;
1181.4000;0.3305;1.3974;
1181.7000;0.3321;1.3974;
1182.0000;0.3321;1.3926;
1182.3000;0.3321;1.3926;
1182.6000;0.3329;1.3855;
1182.9000;0.3321;1.3831;
1183.2000;0.3329;1.3879;
1183.5000;0.3329;1.3855;
1183.8000;0.3305;1.3736;
1184.1000;0.3329;1.3760;
1184.4000;0.3403;1.3926;
1184.7000;0.3321;1.3760;
1185.0000;0.3329;1.3807;
1185.3000;0.3346;1.3831;
1185.6000;0.3337;1.3784;
1185.9000;0.3354;1.3879;
1186.2000;0.3346;1.3879;
1186.5000;0.3321;1.3831;
1186.8000;0.3394;1.3998;
1187.1000;0.3346;1.3831;
1187.4000;0.3337;1.3784;
1187.7000;0.3329;1.3855;
1188.0000;0.3337;1.3807;
1188.3000;0.3337;1.3831;
1188.6000;0.3419;1.4069;
1188.9000;0.3370;1.3950;
1189.2000;0.3321;1.3879;
1189.5000;0.3313;1.3855;
1189.8000;0.3280;1.3689;
1190.1000;0.3329;1.3807;
1190.4000;0.3321;1.3831;
1190.7000;0.3337;1.3974;
1191.0000;0.3313;1.3950;
1191.3000;0.3321;1.4021;
1191.6000;0.3337;1.4069;
1191.9000;0.3297;1.3903;
1192.2000;0.3337;1.4021;
1192.5000;0.3321;1.3974;
1192.8000;0.3329;1.3926;
1193.1000;0.3337;1.3974;
1193.4000;0.3354;1.3974;
1193.7000;0.3337;1.3879;
1194.0000;0.3305;1.3903;
1194.3000;0.3321;1.3903;
1194.6000;0.3321;1.3855;
1194.9000;0.3329;1.3879;
1195.2000;0.3305;1.3831;
1195.5000;0.3346;1.3950;
1195.8000;0.3346;1.3926;
1196.1000;0.3354;1.3831;
1196.4000;0.3329;1.3760;
1196.7000;0.3337;1.3903;
1197.0000;0.3329;1.3831;
1197.3000;0.3362;1.3926;
1197.6000;0.3329;1.3855;
1197.9000;0.3411;1.4045;
1198.2000;0.3337;1.3855;
1198.5000;0.3313;1.3855;
1198.8000;0.3362;1.3998;
1199.1000;0.3337;1.3926;
1199.4000;0.3256;1.3712;
1199.7000;0.3321;1.3879;
1200.0000;0.3313;1.3784;
1200.3000;0.3313;1.3784;
1200.6000;0.3337;1.3855;
1200.9000;0.3337;1.3926;
1201.2000;0.3321;1.3831;
1201.5000;0.3411;1.4069;
1201.8000;0.3337;1.3879;
1202.1000;0.3321;1.3855;
1202.4000;0.3321;1.3807;
1202.7000;0.3329;1.3879;
1203.0000;0.3321;1.3807;
1203.3000;0.3321;1.3831;
1203.6000;0.3321;1.3831;
1203.9000;0.3297;1.3784;
1204.2000;0.3321;1.3712;
1204.5000;0.3337;1.3689;
1204.8000;0.3321;1.3570;
1205.1000;0.3313;1.3594;
1205.4000;0.3223;1.3451;
1205.7000;0.3297;1.3641;
1206.0000;0.3329;1.3689;
1206.3000;0.3329;1.3641;
1206.6000;0.3354;1.3641;
1206.9000;0.3297;1.3451;
1207.2000;0.3329;1.3499;
1207.5000;0.3346;1.3617;
1207.8000;0.3264;1.3380;
1208.1000;0.3329;1.3617;
1208.4000;0.3329;1.3617;
1208.7000;0.3256;1.3451;
1209.0000;0.3297;1.3546;
1209.3000;0.3313;1.3665;
1209.6000;0.3329;1.3712;
1209.9000;0.3321;1.3641;
1210.2000;0.3313;1.3617;
1210.5000;0.3313;1.3665;
1210.8000;0.3289;1.3594;
1211.1000;0.3313;1.3641;
1211.4000;0.3321;1.3736;
1211.7000;0.3305;1.3665;
1212.0000;0.3321;1.3689;
1212.3000;0.3313;1.3712;
1212.6000;0.3362;1.3831;
1212.9000;0.3305;1.3760;
1213.2000;0.3305;1.3807;
1213.5000;0.3313;1.3879;
1213.8000;0.3313;1.3903;
1214.1000;0.3337;1.3998;
1214.4000;0.3313;1.3998;
1214.7000;0.3329;1.4045;
1215.0000;0.3362;1.4140;
1215.3000;0.3313;1.3998;
1215.6000;0.3232;1.3736;
1215.9000;0.3329;1.3974;
1216.2000;0.3329;1.3926;
1216.5000;0.3329;1.3950;
1216.8000;0.3346;1.3950;
1217.1000;0.3329;1.3998;
1217.4000;0.3346;1.4021;
1217.7000;0.3346;1.3974;
1218.0000;0.3346;1.4021;
1218.3000;0.3329;1.3998;
1218.6000;0.3329;1.4045;
1218.9000;0.3378;1.4188;
1219.2000;0.3337;1.3974;
1219.5000;0.3346;1.4045;
1219.8000;0.3321;1.4093;
1220.1000;0.3305;1.3950;
1220.4000;0.3321;1.4045;
1220.7000;0.3321;1.3974;
1221.0000;0.3321;1.3950;
1221.3000;0.3329;1.4021;
1221.6000;0.3321;1.4021;
1221.9000;0.3329;1.4069;
1222.2000;0.3329;1.4116;
1222.5000;0.3329;1.4069;
1222.8000;0.3346;1.4045;
1223.1000;0.3313;1.3903;
1223.4000;0.3337;1.3974;
1223.7000;0.3313;1.3950;
1224.0000;0.3313;1.3998;
1224.3000;0.3313;1.4045;
1224.6000;0.3321;1.4045;
1224.9000;0.3329;1.4021;
1225.2000;0.3329;1.3950;
1225.5000;0.3297;1.3807;
1225.8000;0.3272;1.3784;
1226.1000;0.3305;1.3879;
1226.4000;0.3337;1.3879;
1226.7000;0.3329;1.3879;
1227.0000;0.3337;1.3831;
1227.3000;0.3321;1.3926;
1227.6000;0.3329;1.3926;
1227.9000;0.3346;1.3879;
1228.2000;0.3329;1.3760;
1228.5000;0.3321;1.3736;
1228.8000;0.3354;1.3784;
1229.1000;0.3313;1.3689;
1229.4000;0.3313;1.3831;
1229.7000;0.3313;1.3831;
1230.0000;0.3321;1.3903;
1230.3000;0.3329;1.3831;
1230.6000;0.3297;1.3760;
1230.9000;0.3289;1.3689;
1231.2000;0.3321;1.3712;
1231.5000;0.3329;1.3689;
1231.8000;0.3329;1.3665;
1232.1000;0.3321;1.3760;
1232.4000;0.3337;1.3784;
1232.7000;0.3329;1.3784;
1233.0000;0.3215;1.3594;
1233.3000;0.3313;1.3784;
1233.6000;0.3321;1.3807;
1233.9000;0.3289;1.3736;
1234.2000;0.3313;1.3736;
1234.5000;0.3321;1.3712;
1234.8000;0.3321;1.3760;
1235.1000;0.3329;1.3712;
1235.4000;0.3305;1.3784;
1235.7000;0.3313;1.3807;
1236.0000;0.3321;1.3807;
1236.3000;0.3321;1.3903;
1236.6000;0.3329;1.3950;
1236.9000;0.3329;1.3998;
1237.2000;0.3321;1.4045;
1237.5000;0.3329;1.4069;
1237.8000;0.3378;1.4140;
1238.1000;0.3337;1.3926;
1238.4000;0.3305;1.3855;
1238.7000;0.3329;1.3879;
1239.0000;0.3329;1.3950;
1239.3000;0.3305;1.3974;
1239.6000;0.3321;1.3879;
1239.9000;0.3329;1.3855;
1240.2000;0.3346;1.3926;
1240.5000;0.3329;1.3950;
1240.8000;0.3337;1.3974;
1241.1000;0.3329;1.3998;
1241.4000;0.3337;1.4045;
1241.7000;0.3346;1.4045;
1242.0000;0.3329;1.3974;
1242.3000;0.3321;1.4021;
1242.6000;0.3321;1.4069;
1242.9000;0.3329;1.4045;
1243.2000;0.3321;1.3998;
1243.5000;0.3321;1.3926;
1243.8000;0.3329;1.3974;
1244.1000;0.3313;1.3998;
1244.4000;0.3321;1.3926;
1244.7000;0.3346;1.3926;
1245.0000;0.3329;1.3974;
1245.3000;0.3321;1.3974;
1245.6000;0.3329;1.3998;
1245.9000;0.3329;1.4021;
1246.2000;0.3305;1.3926;
1246.5000;0.3370;1.4045;
1246.8000;0.3321;1.4021;
1247.1000;0.3321;1.4069;
1247.4000;0.3321;1.3998;
1247.7000;0.3264;1.3807;
1248.0000;0.3313;1.3855;
1248.3000;0.3256;1.3712;
1248.6000;0.3305;1.3879;
1248.9000;0.3321;1.3903;
1249.2000;0.3329;1.3831;
1249.5000;0.3313;1.3807;
1249.8000;0.3297;1.3736;
1250.1000;0.3297;1.3712;
1250.4000;0.3321;1.3760;
1250.7000;0.3321;1.3831;
1251.0000;0.3329;1.3760;
1251.3000;0.3337;1.3736;
1251.6000;0.3337;1.3736;
1251.9000;0.3321;1.3760;
1252.2000;0.3329;1.3831;
1252.5000;0.3321;1.3855;
1252.8000;0.3337;1.3879;
1253.1000;0.3329;1.3807;
1253.4000;0.3329;1.3807;
1253.7000;0.3329;1.3831;
1254.0000;0.3329;1.3807;
1254.3000;0.3321;1.3665;
1254.6000;0.3329;1.3617;
1254.9000;0.3313;1.3665;
1255.2000;0.3321;1.3736;
1255.5000;0.3329;1.3784;
1255.8000;0.3337;1.3831;
1256.1000;0.3337;1.3831;
1256.4000;0.3329;1.3879;
1256.7000;0.3321;1.3879;
1257.0000;0.3280;1.3736;
1257.3000;0.3329;1.3784;
1257.6000;0.3329;1.3831;
1257.9000;0.3313;1.3926;
1258.2000;0.3337;1.3974;
1258.5000;0.3313;1.3998;
1258.8000;0.3321;1.4045;
1259.1000;0.3313;1.4021;
1259.4000;0.3321;1.3950;
1259.7000;0.3346;1.3950;
1260.0000;0.3313;1.3926;
1260.3000;0.3321;1.3879;
1260.6000;0.3321;1.3831;
1260.9000;0.3329;1.3903;
1261.2000;0.3321;1.3903;
1261.5000;0.3313;1.3879;
1261.8000;0.3305;1.3807;
1262.1000;0.3321;1.3855;
1262.4000;0.3321;1.3784;
1262.7000;0.3321;1.3689;
1263.0000;0.3329;1.3689;
1263.3000;0.3313;1.3712;
1263.6000;0.3313;1.3760;
1263.9000;0.3297;1.3665;
1264.2000;0.3313;1.3665;
1264.5000;0.3313;1.3807;
1264.8000;0.3313;1.3831;
1265.1000;0.3329;1.3950;
1265.4000;0.3329;1.3950;
1265.7000;0.3297;1.3903;
1266.0000;0.3264;1.3712;
1266.3000;0.3329;1.3807;
1266.6000;0.3321;1.3831;
1266.9000;0.3329;1.3807;
1267.2000;0.3346;1.3807;
1267.5000;0.3329;1.3807;
1267.8000;0.3354;1.3760;
1268.1000;0.3305;1.3760;
1268.4000;0.3305;1.3760;
1268.7000;0.3329;1.3784;
1269.0000;0.3329;1.3807;
1269.3000;0.3329;1.3879;
1269.6000;0.3321;1.3831;
1269.9000;0.3329;1.3665;
1270.2000;0.3313;1.3665;
1270.5000;0.3329;1.3760;
1270.8000;0.3354;1.3831;
1271.1000;0.3329;1.3760;
1271.4000;0.3337;1.3760;
1271.7000;0.3329;1.3736;
1272.0000;0.3329;1.3736;
1272.3000;0.3313;1.3736;
1272.6000;0.3321;1.3712;
1272.9000;0.3329;1.3617;
1273.2000;0.3313;1.3570;
1273.5000;0.3313;1.3570;
1273.8000;0.3313;1.3594;
1274.1000;0.3248;1.3522;
1274.4000;0.3329;1.3641;
1274.7000;0.3321;1.3594;
1275.0000;0.3313;1.3499;
1275.3000;0.3329;1.3546;
1275.6000;0.3321;1.3522;
1275.9000;0.3346;1.3594;
1276.2000;0.3329;1.3546;
1276.5000;0.3256;1.3427;
1276.8000;0.3329;1.3594;
1277.1000;0.3346;1.3546;
1277.4000;0.3337;1.3546;
1277.7000;0.3329;1.3499;
1278.0000;0.3346;1.3499;
1278.3000;0.3337;1.3451;
1278.6000;0.3346;1.3403;
1278.9000;0.3329;1.3356;
1279.2000;0.3313;1.3475;
1279.5000;0.3329;1.3522;
1279.8000;0.3370;1.3617;
1280.1000;0.3321;1.3427;
1280.4000;0.3289;1.3451;
1280.7000;0.3354;1.3641;
1281.0000;0.3313;1.3475;
1281.3000;0.3394;1.3807;
1281.6000;0.3337;1.3641;
1281.9000;0.3289;1.3546;
1282.2000;0.3321;1.3617;
1282.5000;0.3223;1.3261;
1282.8000;0.3313;1.3522;
1283.1000;0.3313;1.3546;
1283.4000;0.3329;1.3499;
1283.7000;0.3321;1.3475;
1284.0000;0.3313;1.3475;
1284.3000;0.3313;1.3499;
1284.6000;0.3321;1.3475;
1284.9000;0.3297;1.3380;
1285.2000;0.3329;1.3451;
1285.5000;0.3346;1.3451;
1285.8000;0.3305;1.3403;
1286.1000;0.3337;1.3546;
1286.4000;0.3305;1.3570;
1286.7000;0.3329;1.3712;
1287.0000;0.3337;1.3760;
1287.3000;0.3354;1.3807;
1287.6000;0.3321;1.3736;
1287.9000;0.3313;1.3689;
1288.2000;0.3313;1.3712;
1288.5000;0.3305;1.3712;
1288.8000;0.3321;1.3712;
1289.1000;0.3329;1.3665;
1289.4000;0.3337;1.3641;
1289.7000;0.3346;1.3641;
1290.0000;0.3329;1.3641;
1290.3000;0.3321;1.3712;
1290.6000;0.3321;1.3689;
1290.9000;0.3329;1.3760;
1291.2000;0.3256;1.3499;
1291.5000;0.3321;1.3712;
1291.8000;0.3321;1.3665;
1292.1000;0.3313;1.3617;
1292.4000;0.3329;1.3546;
1292.7000;0.3321;1.3546;
1293.0000;0.3329;1.3546;
1293.3000;0.3329;1.3546;
1293.6000;0.3313;1.3475;
1293.9000;0.3321;1.3475;
1294.2000;0.3354;1.3451;
1294.5000;0.3321;1.3403;
1294.8000;0.3321;1.3475;
1295.1000;0.3321;1.3594;
1295.4000;0.3313;1.3475;
1295.7000;0.3329;1.3499;
1296.0000;0.3337;1.3499;
1296.3000;0.3329;1.3522;
1296.6000;0.3329;1.3522;
1296.9000;0.3321;1.3617;
1297.2000;0.3272;1.3427;
1297.5000;0.3313;1.3570;
1297.8000;0.3297;1.3594;
1298.1000;0.3264;1.3570;
1298.4000;0.3313;1.3665;
1298.7000;0.3337;1.3760;
1299.0000;0.3321;1.3641;
1299.3000;0.3305;1.3594;
1299.6000;0.3321;1.3499;
1299.9000;0.3346;1.3617;
1300.2000;0.3313;1.3522;
1300.5000;0.3321;1.3546;
1300.8000;0.3321;1.3499;
1301.1000;0.3329;1.3499;
1301.4000;0.3313;1.3522;
1301.7000;0.3289;1.3451;
1302.0000;0.3321;1.3475;
1302.3000;0.3321;1.3475;
1302.6000;0.3337;1.3522;
1302.9000;0.3329;1.3427;
1303.2000;0.3321;1.3403;
1303.5000;0.3313;1.3403;
1303.8000;0.3272;1.3237;
1304.1000;0.3329;1.3356;
1304.4000;0.3321;1.3356;
1304.7000;0.3313;1.3380;
1305.0000;0.3386;1.3570;
1305.3000;0.3289;1.3403;
1305.6000;0.3297;1.3427;
1305.9000;0.3362;1.3617;
1306.2000;0.3321;1.3427;
1306.5000;0.3321;1.3451;
1306.8000;0.3329;1.3427;
1307.1000;0.3321;1.3427;
1307.4000;0.3321;1.3475;
1307.7000;0.3313;1.3522;
1308.0000;0.3305;1.3475;
1308.3000;0.3313;1.3451;
1308.6000;0.3329;1.3427;
1308.9000;0.3321;1.3380;
1309.2000;0.3337;1.3356;
1309.5000;0.3329;1.3403;
1309.8000;0.3313;1.3403;
1310.1000;0.3313;1.3356;
1310.4000;0.3313;1.3261;
1310.7000;0.3321;1.3285;
1311.0000;0.3329;1.3285;
1311.3000;0.3362;1.3308;
1311.6000;0.3337;1.3261;
1311.9000;0.3337;1.3308;
1312.2000;0.3297;1.3237;
1312.5000;0.3337;1.3356;
1312.8000;0.3329;1.3403;
1313.1000;0.3403;1.3570;
1313.4000;0.3321;1.3403;
1313.7000;0.3321;1.3403;
1314.0000;0.3378;1.3570;
1314.3000;0.3329;1.3403;
1314.6000;0.3289;1.3285;
1314.9000;0.3337;1.3403;
1315.2000;0.3313;1.3261;
1315.5000;0.3346;1.3308;
1315.8000;0.3297;1.3237;
1316.1000;0.3305;1.3332;
1316.4000;0.3289;1.3285;
1316.7000;0.3329;1.3475;
1317.0000;0.3313;1.3641;
1317.3000;0.3280;1.3594;
1317.6000;0.3313;1.3570;
1317.9000;0.3321;1.3475;
1318.2000;0.3280;1.3356;
1318.5000;0.3289;1.3427;
1318.8000;0.3313;1.3451;
1319.1000;0.3329;1.3546;
1319.4000;0.3337;1.3594;
1319.7000;0.3321;1.3522;
1320.0000;0.3346;1.3617;
1320.3000;0.3321;1.3594;
1320.6000;0.3329;1.3499;
1320.9000;0.3232;1.3261;
1321.2000;0.3337;1.3522;
1321.5000;0.3329;1.3522;
1321.8000;0.3346;1.3522;
1322.1000;0.3321;1.3403;
1322.4000;0.3337;1.3475;
1322.7000;0.3329;1.3499;
1323.0000;0.3346;1.3546;
1323.3000;0.3321;1.3594;
1323.6000;0.3297;1.3594;
1323.9000;0.3329;1.3546;
1324.2000;0.3313;1.3451;
1324.5000;0.3313;1.3522;
1324.8000;0.3354;1.3665;
1325.1000;0.3329;1.3594;
1325.4000;0.3329;1.3522;
1325.7000;0.3329;1.3546;
1326.0000;0.3280;1.3332;
1326.3000;0.3329;1.3427;
1326.6000;0.3337;1.3451;
1326.9000;0.3329;1.3451;
1327.2000;0.3337;1.3570;
1327.5000;0.3321;1.3546;
1327.8000;0.3362;1.3665;
1328.1000;0.3305;1.3522;
1328.4000;0.3297;1.3475;
1328.7000;0.3305;1.3570;
1329.0000;0.3313;1.3641;
1329.3000;0.3313;1.3522;
1329.6000;0.3321;1.3522;
1329.9000;0.3337;1.3570;
1330.2000;0.3321;1.3594;
1330.5000;0.3321;1.3594;
1330.8000;0.3321;1.3546;
1331.1000;0.3305;1.3570;
1331.4000;0.3321;1.3522;
1331.7000;0.3321;1.3475;
1332.0000;0.3321;1.3475;
1332.3000;0.3305;1.3380;
1332.6000;0.3313;1.3380;
1332.9000;0.3337;1.3332;
1333.2000;0.3329;1.3427;
1333.5000;0.3329;1.3499;
1333.8000;0.3329;1.3594;
1334.1000;0.3297;1.3475;
1334.4000;0.3329;1.3570;
1334.7000;0.3321;1.3499;
1335.0000;0.3321;1.3522;
1335.3000;0.3305;1.3522;
1335.6000;0.3346;1.3594;
1335.9000;0.3305;1.3522;
1336.2000;0.3337;1.3736;
1336.5000;0.3337;1.3736;
1336.8000;0.3321;1.3760;
1337.1000;0.3289;1.3641;
1337.4000;0.3321;1.3807;
1337.7000;0.3321;1.3831;
1338.0000;0.3329;1.3784;
1338.3000;0.3321;1.3689;
1338.6000;0.3321;1.3641;
1338.9000;0.3354;1.3760;
1339.2000;0.3313;1.3736;
1339.5000;0.3329;1.3807;
1339.8000;0.3305;1.3736;
1340.1000;0.3346;1.3784;
1340.4000;0.3329;1.3689;
1340.7000;0.3321;1.3665;
1341.0000;0.3313;1.3570;
1341.3000;0.3337;1.3546;
1341.6000;0.3313;1.3546;
1341.9000;0.3370;1.3641;
1342.2000;0.3354;1.3594;
1342.5000;0.3313;1.3522;
1342.8000;0.3313;1.3475;
1343.1000;0.3419;1.3712;
1343.4000;0.3321;1.3546;
1343.7000;0.3329;1.3617;
1344.0000;0.3329;1.3594;
1344.3000;0.3321;1.3570;
1344.6000;0.3313;1.3546;
1344.9000;0.3321;1.3570;
1345.2000;0.3313;1.3546;
1345.5000;0.3329;1.3617;
1345.8000;0.3337;1.3594;
1346.1000;0.3313;1.3594;
1346.4000;0.3321;1.3641;
1346.7000;0.3313;1.3617;
1347.0000;0.3321;1.3570;
1347.3000;0.3313;1.3594;
1347.6000;0.3305;1.3570;
1347.9000;0.3305;1.3594;
1348.2000;0.3321;1.3641;
1348.5000;0.3305;1.3594;
1348.8000;0.3240;1.3380;
1349.1000;0.3305;1.3522;
1349.4000;0.3305;1.3451;
1349.7000;0.3313;1.3499;
1350.0000;0.3321;1.3546;
1350.3000;0.3329;1.3617;
1350.6000;0.3305;1.3522;
1350.9000;0.3321;1.3546;
1351.2000;0.3337;1.3641;
1351.5000;0.3313;1.3546;
1351.8000;0.3394;1.3641;
1352.1000;0.3321;1.3451;
1352.4000;0.3305;1.3427;
1352.7000;0.3321;1.3427;
1353.0000;0.3321;1.3403;
1353.3000;0.3305;1.3403;
1353.6000;0.3321;1.3522;
1353.9000;0.3362;1.3641;
1354.2000;0.3313;1.3546;
1354.5000;0.3329;1.3641;
1354.8000;0.3329;1.3689;
1355.1000;0.3297;1.3546;
1355.4000;0.3297;1.3570;
1355.7000;0.3321;1.3570;
1356.0000;0.3346;1.3594;
1356.3000;0.3321;1.3594;
1356.6000;0.3329;1.3546;
1356.9000;0.3362;1.3570;
1357.2000;0.3321;1.3499;
1357.5000;0.3321;1.3570;
1357.8000;0.3337;1.3641;
1358.1000;0.3329;1.3594;
1358.4000;0.3289;1.3522;
1358.7000;0.3321;1.3546;
1359.0000;0.3297;1.3546;
1359.3000;0.3329;1.3594;
1359.6000;0.3313;1.3546;
1359.9000;0.3313;1.3475;
1360.2000;0.3321;1.3403;
1360.5000;0.3321;1.3403;
1360.8000;0.3346;1.3475;
1361.1000;0.3329;1.3522;
1361.4000;0.3321;1.3427;
1361.7000;0.3313;1.3451;
1362.0000;0.3321;1.3427;
1362.3000;0.3313;1.3403;
1362.6000;0.3313;1.3403;
1362.9000;0.3321;1.3522;
1363.2000;0.3313;1.3617;
1363.5000;0.3313;1.3594;
1363.8000;0.3411;1.3736;
1364.1000;0.3321;1.3570;
1364.4000;0.3321;1.3546;
1364.7000;0.3313;1.3522;
1365.0000;0.3280;1.3451;
1365.3000;0.3321;1.3570;
1365.6000;0.3321;1.3617;
1365.9000;0.3321;1.3522;
1366.2000;0.3321;1.3451;
1366.5000;0.3321;1.3475;
1366.8000;0.3329;1.3475;
1367.1000;0.3337;1.3475;
1367.4000;0.3329;1.3499;
1367.7000;0.3370;1.3617;
1368.0000;0.3305;1.3570;
1368.3000;0.3313;1.3641;
1368.6000;0.3321;1.3712;
1368.9000;0.3313;1.3760;
1369.2000;0.3297;1.3689;
1369.5000;0.3289;1.3641;
1369.8000;0.3378;1.3926;
1370.1000;0.3313;1.3784;
1370.4000;0.3264;1.3736;
1370.7000;0.3321;1.3926;
1371.0000;0.3329;1.3903;
1371.3000;0.3321;1.3879;
1371.6000;0.3313;1.3903;
1371.9000;0.3321;1.3855;
1372.2000;0.3321;1.3784;
1372.5000;0.3313;1.3736;
1372.8000;0.3297;1.3712;
1373.1000;0.3305;1.3641;
1373.4000;0.3321;1.3736;
1373.7000;0.3313;1.3641;
1374.0000;0.3305;1.3665;
1374.3000;0.3297;1.3617;
1374.6000;0.3337;1.3689;
1374.9000;0.3321;1.3689;
1375.2000;0.3313;1.3665;
1375.5000;0.3321;1.3689;
1375.8000;0.3313;1.3712;
1376.1000;0.3346;1.3807;
1376.4000;0.3337;1.3760;
1376.7000;0.3321;1.3831;
1377.0000;0.3321;1.3784;
1377.3000;0.3313;1.3760;
1377.6000;0.3329;1.3784;
1377.9000;0.3378;1.3903;
1378.2000;0.3313;1.3689;
1378.5000;0.3321;1.3689;
1378.8000;0.3329;1.3617;
1379.1000;0.3313;1.3546;
1379.4000;0.3313;1.3499;
1379.7000;0.3321;1.3617;
1380.0000;0.3313;1.3570;
1380.3000;0.3313;1.3641;
1380.6000;0.3297;1.3570;
1380.9000;0.3272;1.3427;
1381.2000;0.3321;1.3427;
1381.5000;0.3313;1.3451;
1381.8000;0.3305;1.3403;
1382.1000;0.3337;1.3475;
1382.4000;0.3321;1.3546;
1382.7000;0.3321;1.3546;
1383.0000;0.3313;1.3403;
1383.3000;0.3305;1.3356;
1383.6000;0.3313;1.3427;
1383.9000;0.3354;1.3475;
1384.2000;0.3305;1.3475;
1384.5000;0.3313;1.3546;
1384.8000;0.3329;1.3570;
1385.1000;0.3313;1.3475;
1385.4000;0.3329;1.3522;
1385.7000;0.3305;1.3570;
1386.0000;0.3321;1.3546;
1386.3000;0.3329;1.3475;
1386.6000;0.3305;1.3475;
1386.9000;0.3329;1.3522;
1387.2000;0.3321;1.3475;
1387.5000;0.3305;1.3427;
1387.8000;0.3313;1.3403;
1388.1000;0.3321;1.3427;
1388.4000;0.3305;1.3427;
1388.7000;0.3321;1.3570;
1389.0000;0.3313;1.3522;
1389.3000;0.3305;1.3546;
1389.6000;0.3289;1.3499;
1389.9000;0.3289;1.3451;
1390.2000;0.3305;1.3451;
1390.5000;0.3297;1.3380;
1390.8000;0.3297;1.3332;
1391.1000;0.3329;1.3356;
1391.4000;0.3313;1.3427;
1391.7000;0.3289;1.3475;
1392.0000;0.3329;1.3641;
1392.3000;0.3321;1.3499;
1392.6000;0.3297;1.3475;
1392.9000;0.3443;1.3855;
1393.2000;0.3313;1.3475;
1393.5000;0.3297;1.3403;
1393.8000;0.3297;1.3308;
1394.1000;0.3321;1.3403;
1394.4000;0.3289;1.3356;
1394.7000;0.3337;1.3403;
1395.0000;0.3305;1.3213;
1395.3000;0.3313;1.3308;
1395.6000;0.3199;1.3118;
1395.9000;0.3313;1.3380;
1396.2000;0.3329;1.3403;
1396.5000;0.3321;1.3427;
1396.8000;0.3321;1.3475;
1397.1000;0.3313;1.3475;
1397.4000;0.3329;1.3499;
1397.7000;0.3313;1.3451;
1398.0000;0.3321;1.3308;
1398.3000;0.3337;1.3380;
1398.6000;0.3305;1.3308;
1398.9000;0.3337;1.3427;
1399.2000;0.3362;1.3451;
1399.5000;0.3321;1.3332;
1399.8000;0.3321;1.3237;
