time/ms;Fluo/V;P700 deltaI/I x10³;
-199.8000;0.6772;-0.2891;
-199.5000;0.6797;-0.2867;
-199.2000;0.6797;-0.2772;
-198.9000;0.6781;-0.2725;
-198.6000;0.6789;-0.2654;
-198.3000;0.6797;-0.2677;
-198.0000;0.6805;-0.2677;
-197.7000;0.6772;-0.2772;
-197.4000;0.6797;-0.2701;
-197.1000;0.6789;-0.2772;
-196.8000;0.6683;-0.3056;
-196.5000;0.6781;-0.2772;
-196.2000;0.6772;-0.2748;
-195.9000;0.6748;-0.2772;
-195.6000;0.6797;-0.2725;
-195.3000;0.6756;-0.2914;
-195.0000;0.6797;-0.2748;
-194.7000;0.6789;-0.2748;
-194.4000;0.6781;-0.2843;
-194.1000;0.6789;-0.2819;
-193.8000;0.6797;-0.2867;
-193.5000;0.6797;-0.2843;
-193.2000;0.6772;-0.2843;
-192.9000;0.6805;-0.2701;
-192.6000;0.6813;-0.2796;
-192.3000;0.6772;-0.2819;
-192.0000;0.6781;-0.2772;
-191.7000;0.6797;-0.2725;
-191.4000;0.6781;-0.2701;
-191.1000;0.6813;-0.2654;
-190.8000;0.6805;-0.2772;
-190.5000;0.6781;-0.2772;
-190.2000;0.6838;-0.2606;
-189.9000;0.6756;-0.2796;
-189.6000;0.6797;-0.2701;
-189.3000;0.6716;-0.2843;
-189.0000;0.6724;-0.2938;
-188.7000;0.6813;-0.2654;
-188.4000;0.6756;-0.2914;
-188.1000;0.6781;-0.2796;
-187.8000;0.6772;-0.2867;
-187.5000;0.6732;-0.2914;
-187.2000;0.6781;-0.2819;
-186.9000;0.6797;-0.2819;
-186.6000;0.6781;-0.2843;
-186.3000;0.6756;-0.2891;
-186.0000;0.6772;-0.2843;
-185.7000;0.6772;-0.2867;
-185.4000;0.6772;-0.2772;
-185.1000;0.6772;-0.2748;
-184.8000;0.6781;-0.2725;
-184.5000;0.6764;-0.2843;
-184.2000;0.6797;-0.2772;
-183.9000;0.6781;-0.2772;
-183.6000;0.6716;-0.2819;
-183.3000;0.6764;-0.2772;
-183.0000;0.6781;-0.2819;
-182.7000;0.6781;-0.2819;
-182.4000;0.6772;-0.2796;
-182.1000;0.6764;-0.2867;
-181.8000;0.6740;-0.2914;
-181.5000;0.6813;-0.2867;
-181.2000;0.6813;-0.2819;
-180.9000;0.6772;-0.2772;
-180.6000;0.6772;-0.2843;
-180.3000;0.6789;-0.2891;
-180.0000;0.6772;-0.2914;
-179.7000;0.6789;-0.2891;
-179.4000;0.6781;-0.2891;
-179.1000;0.6764;-0.2867;
-178.8000;0.6821;-0.2725;
-178.5000;0.6781;-0.2701;
-178.2000;0.6740;-0.2796;
-177.9000;0.6772;-0.2867;
-177.6000;0.6781;-0.2891;
-177.3000;0.6748;-0.2962;
-177.0000;0.6789;-0.2796;
-176.7000;0.6789;-0.2819;
-176.4000;0.6781;-0.2891;
-176.1000;0.6805;-0.2867;
-175.8000;0.6781;-0.2843;
-175.5000;0.6781;-0.2843;
-175.2000;0.6797;-0.2725;
-174.9000;0.6781;-0.2796;
-174.6000;0.6756;-0.2796;
-174.3000;0.6781;-0.2772;
-174.0000;0.6789;-0.2701;
-173.7000;0.6805;-0.2606;
-173.4000;0.6724;-0.2819;
-173.1000;0.6797;-0.2677;
-172.8000;0.6838;-0.2559;
-172.5000;0.6789;-0.2677;
-172.2000;0.6789;-0.2677;
-171.9000;0.6781;-0.2725;
-171.6000;0.6789;-0.2654;
-171.3000;0.6764;-0.2606;
-171.0000;0.6805;-0.2488;
-170.7000;0.6781;-0.2559;
-170.4000;0.6772;-0.2630;
-170.1000;0.6756;-0.2725;
-169.8000;0.6772;-0.2630;
-169.5000;0.6805;-0.2583;
-169.2000;0.6797;-0.2654;
-168.9000;0.6789;-0.2796;
-168.6000;0.6813;-0.2725;
-168.3000;0.6797;-0.2725;
-168.0000;0.6805;-0.2677;
-167.7000;0.6789;-0.2725;
-167.4000;0.6781;-0.2725;
-167.1000;0.6805;-0.2677;
-166.8000;0.6789;-0.2748;
-166.5000;0.6797;-0.2701;
-166.2000;0.6805;-0.2677;
-165.9000;0.6789;-0.2701;
-165.6000;0.6789;-0.2654;
-165.3000;0.6781;-0.2630;
-165.0000;0.6789;-0.2583;
-164.7000;0.6781;-0.2654;
-164.4000;0.6772;-0.2701;
-164.1000;0.6781;-0.2772;
-163.8000;0.6781;-0.2701;
-163.5000;0.6805;-0.2701;
-163.2000;0.6789;-0.2843;
-162.9000;0.6789;-0.2914;
-162.6000;0.6781;-0.2819;
-162.3000;0.6781;-0.2748;
-162.0000;0.6797;-0.2748;
-161.7000;0.6789;-0.2772;
-161.4000;0.6797;-0.2796;
-161.1000;0.6789;-0.2772;
-160.8000;0.6789;-0.2772;
-160.5000;0.6789;-0.2819;
-160.2000;0.6764;-0.2891;
-159.9000;0.6781;-0.2914;
-159.6000;0.6781;-0.2891;
-159.3000;0.6781;-0.2843;
-159.0000;0.6781;-0.2819;
-158.7000;0.6781;-0.2725;
-158.4000;0.6781;-0.2819;
-158.1000;0.6781;-0.2843;
-157.8000;0.6781;-0.2843;
-157.5000;0.6789;-0.2843;
-157.2000;0.6797;-0.2819;
-156.9000;0.6797;-0.2843;
-156.6000;0.6789;-0.2819;
-156.3000;0.6772;-0.2843;
-156.0000;0.6772;-0.2772;
-155.7000;0.6772;-0.2701;
-155.4000;0.6756;-0.2748;
-155.1000;0.6772;-0.2677;
-154.8000;0.6772;-0.2630;
-154.5000;0.6789;-0.2606;
-154.2000;0.6797;-0.2701;
-153.9000;0.6789;-0.2772;
-153.6000;0.6772;-0.2772;
-153.3000;0.6781;-0.2654;
-153.0000;0.6797;-0.2606;
-152.7000;0.6789;-0.2559;
-152.4000;0.6797;-0.2488;
-152.1000;0.6772;-0.2535;
-151.8000;0.6789;-0.2511;
-151.5000;0.6772;-0.2464;
-151.2000;0.6789;-0.2440;
-150.9000;0.6781;-0.2488;
-150.6000;0.6821;-0.2369;
-150.3000;0.6789;-0.2393;
-150.0000;0.6764;-0.2393;
-149.7000;0.6772;-0.2393;
-149.4000;0.6781;-0.2440;
-149.1000;0.6789;-0.2440;
-148.8000;0.6772;-0.2559;
-148.5000;0.6756;-0.2630;
-148.2000;0.6781;-0.2535;
-147.9000;0.6789;-0.2535;
-147.6000;0.6772;-0.2511;
-147.3000;0.6756;-0.2535;
-147.0000;0.6756;-0.2583;
-146.7000;0.6764;-0.2511;
-146.4000;0.6772;-0.2511;
-146.1000;0.6781;-0.2511;
-145.8000;0.6805;-0.2488;
-145.5000;0.6772;-0.2583;
-145.2000;0.6789;-0.2464;
-144.9000;0.6789;-0.2369;
-144.6000;0.6764;-0.2464;
-144.3000;0.6756;-0.2464;
-144.0000;0.6781;-0.2393;
-143.7000;0.6772;-0.2440;
-143.4000;0.6764;-0.2583;
-143.1000;0.6789;-0.2535;
-142.8000;0.6724;-0.2654;
-142.5000;0.6781;-0.2535;
-142.2000;0.6772;-0.2630;
-141.9000;0.6789;-0.2654;
-141.6000;0.6797;-0.2511;
-141.3000;0.6797;-0.2606;
-141.0000;0.6789;-0.2606;
-140.7000;0.6789;-0.2654;
-140.4000;0.6789;-0.2677;
-140.1000;0.6821;-0.2630;
-139.8000;0.6781;-0.2748;
-139.5000;0.6764;-0.2867;
-139.2000;0.6781;-0.2772;
-138.9000;0.6772;-0.2677;
-138.6000;0.6781;-0.2677;
-138.3000;0.6772;-0.2701;
-138.0000;0.6813;-0.2630;
-137.7000;0.6789;-0.2748;
-137.4000;0.6789;-0.2748;
-137.1000;0.6772;-0.2701;
-136.8000;0.6764;-0.2654;
-136.5000;0.6764;-0.2654;
-136.2000;0.6732;-0.2796;
-135.9000;0.6789;-0.2583;
-135.6000;0.6781;-0.2654;
-135.3000;0.6772;-0.2701;
-135.0000;0.6772;-0.2748;
-134.7000;0.6764;-0.2748;
-134.4000;0.6756;-0.2843;
-134.1000;0.6756;-0.2891;
-133.8000;0.6772;-0.2843;
-133.5000;0.6789;-0.2843;
-133.2000;0.6781;-0.2819;
-132.9000;0.6772;-0.2819;
-132.6000;0.6781;-0.2796;
-132.3000;0.6789;-0.2796;
-132.0000;0.6764;-0.2843;
-131.7000;0.6781;-0.2819;
-131.4000;0.6772;-0.2796;
-131.1000;0.6789;-0.2748;
-130.8000;0.6781;-0.2748;
-130.5000;0.6781;-0.2796;
-130.2000;0.6797;-0.2654;
-129.9000;0.6789;-0.2654;
-129.6000;0.6772;-0.2748;
-129.3000;0.6797;-0.2725;
-129.0000;0.6781;-0.2725;
-128.7000;0.6772;-0.2772;
-128.4000;0.6789;-0.2819;
-128.1000;0.6772;-0.2867;
-127.8000;0.6764;-0.2843;
-127.5000;0.6764;-0.2867;
-127.2000;0.6813;-0.2819;
-126.9000;0.6781;-0.2891;
-126.6000;0.6789;-0.2938;
-126.3000;0.6805;-0.2962;
-126.0000;0.6789;-0.2985;
-125.7000;0.6805;-0.2891;
-125.4000;0.6772;-0.2938;
-125.1000;0.6805;-0.2867;
-124.8000;0.6805;-0.2748;
-124.5000;0.6797;-0.2606;
-124.2000;0.6846;-0.2440;
-123.9000;0.6772;-0.2559;
-123.6000;0.6813;-0.2511;
-123.3000;0.6740;-0.2677;
-123.0000;0.6764;-0.2654;
-122.7000;0.6756;-0.2701;
-122.4000;0.6756;-0.2654;
-122.1000;0.6846;-0.2417;
-121.8000;0.6805;-0.2511;
-121.5000;0.6772;-0.2630;
-121.2000;0.6781;-0.2583;
-120.9000;0.6813;-0.2535;
-120.6000;0.6805;-0.2583;
-120.3000;0.6772;-0.2654;
-120.0000;0.6772;-0.2701;
-119.7000;0.6740;-0.2867;
-119.4000;0.6772;-0.2748;
-119.1000;0.6772;-0.2677;
-118.8000;0.6805;-0.2630;
-118.5000;0.6781;-0.2701;
-118.2000;0.6756;-0.2796;
-117.9000;0.6789;-0.2725;
-117.6000;0.6764;-0.2748;
-117.3000;0.6797;-0.2701;
-117.0000;0.6789;-0.2748;
-116.7000;0.6789;-0.2725;
-116.4000;0.6781;-0.2677;
-116.1000;0.6797;-0.2677;
-115.8000;0.6797;-0.2630;
-115.5000;0.6781;-0.2583;
-115.2000;0.6789;-0.2583;
-114.9000;0.6781;-0.2654;
-114.6000;0.6789;-0.2630;
-114.3000;0.6805;-0.2677;
-114.0000;0.6772;-0.2796;
-113.7000;0.6772;-0.2725;
-113.4000;0.6789;-0.2630;
-113.1000;0.6797;-0.2701;
-112.8000;0.6789;-0.2748;
-112.5000;0.6740;-0.2843;
-112.2000;0.6838;-0.2583;
-111.9000;0.6789;-0.2725;
-111.6000;0.6789;-0.2725;
-111.3000;0.6772;-0.2701;
-111.0000;0.6772;-0.2677;
-110.7000;0.6781;-0.2654;
-110.4000;0.6854;-0.2464;
-110.1000;0.6781;-0.2606;
-109.8000;0.6797;-0.2583;
-109.5000;0.6789;-0.2583;
-109.2000;0.6764;-0.2606;
-108.9000;0.6781;-0.2511;
-108.6000;0.6781;-0.2488;
-108.3000;0.6789;-0.2511;
-108.0000;0.6797;-0.2369;
-107.7000;0.6781;-0.2298;
-107.4000;0.6781;-0.2322;
-107.1000;0.6781;-0.2440;
-106.8000;0.6870;-0.2156;
-106.5000;0.6789;-0.2275;
-106.2000;0.6813;-0.2298;
-105.9000;0.6764;-0.2464;
-105.6000;0.6772;-0.2511;
-105.3000;0.6805;-0.2393;
-105.0000;0.6789;-0.2464;
-104.7000;0.6756;-0.2606;
-104.4000;0.6797;-0.2606;
-104.1000;0.6789;-0.2630;
-103.8000;0.6781;-0.2677;
-103.5000;0.6781;-0.2819;
-103.2000;0.6813;-0.2677;
-102.9000;0.6781;-0.2677;
-102.6000;0.6797;-0.2630;
-102.3000;0.6789;-0.2606;
-102.0000;0.6781;-0.2677;
-101.7000;0.6772;-0.2654;
-101.4000;0.6789;-0.2630;
-101.1000;0.6772;-0.2677;
-100.8000;0.6772;-0.2559;
-100.5000;0.6789;-0.2535;
-100.2000;0.6781;-0.2559;
-99.9000;0.6781;-0.2535;
-99.6000;0.6781;-0.2511;
-99.3000;0.6781;-0.2417;
-99.0000;0.6756;-0.2417;
-98.7000;0.6789;-0.2417;
-98.4000;0.6772;-0.2488;
-98.1000;0.6797;-0.2464;
-97.8000;0.6740;-0.2606;
-97.5000;0.6781;-0.2606;
-97.2000;0.6781;-0.2583;
-96.9000;0.6772;-0.2654;
-96.6000;0.6772;-0.2606;
-96.3000;0.6789;-0.2606;
-96.0000;0.6781;-0.2677;
-95.7000;0.6716;-0.2867;
-95.4000;0.6789;-0.2654;
-95.1000;0.6756;-0.2677;
-94.8000;0.6764;-0.2677;
-94.5000;0.6772;-0.2654;
-94.2000;0.6781;-0.2819;
-93.9000;0.6805;-0.2772;
-93.6000;0.6781;-0.2630;
-93.3000;0.6789;-0.2511;
-93.0000;0.6813;-0.2440;
-92.7000;0.6797;-0.2464;
-92.4000;0.6789;-0.2511;
-92.1000;0.6813;-0.2488;
-91.8000;0.6789;-0.2535;
-91.5000;0.6813;-0.2488;
-91.2000;0.6805;-0.2511;
-90.9000;0.6797;-0.2583;
-90.6000;0.6781;-0.2630;
-90.3000;0.6781;-0.2559;
-90.0000;0.6781;-0.2559;
-89.7000;0.6764;-0.2654;
-89.4000;0.6772;-0.2748;
-89.1000;0.6772;-0.2796;
-88.8000;0.6772;-0.2796;
-88.5000;0.6764;-0.2796;
-88.2000;0.6716;-0.2938;
-87.9000;0.6764;-0.2748;
-87.6000;0.6789;-0.2630;
-87.3000;0.6772;-0.2677;
-87.0000;0.6781;-0.2748;
-86.7000;0.6772;-0.2701;
-86.4000;0.6781;-0.2583;
-86.1000;0.6789;-0.2559;
-85.8000;0.6772;-0.2772;
-85.5000;0.6772;-0.2725;
-85.2000;0.6781;-0.2654;
-84.9000;0.6772;-0.2677;
-84.6000;0.6772;-0.2630;
-84.3000;0.6781;-0.2511;
-84.0000;0.6789;-0.2559;
-83.7000;0.6781;-0.2488;
-83.4000;0.6781;-0.2559;
-83.1000;0.6781;-0.2559;
-82.8000;0.6805;-0.2535;
-82.5000;0.6781;-0.2606;
-82.2000;0.6789;-0.2583;
-81.9000;0.6772;-0.2654;
-81.6000;0.6789;-0.2630;
-81.3000;0.6772;-0.2654;
-81.0000;0.6789;-0.2583;
-80.7000;0.6756;-0.2630;
-80.4000;0.6789;-0.2606;
-80.1000;0.6781;-0.2701;
-79.8000;0.6764;-0.2748;
-79.5000;0.6829;-0.2488;
-79.2000;0.6789;-0.2606;
-78.9000;0.6805;-0.2511;
-78.6000;0.6699;-0.2725;
-78.3000;0.6789;-0.2464;
-78.0000;0.6772;-0.2606;
-77.7000;0.6772;-0.2654;
-77.4000;0.6789;-0.2559;
-77.1000;0.6789;-0.2488;
-76.8000;0.6797;-0.2393;
-76.5000;0.6781;-0.2417;
-76.2000;0.6781;-0.2488;
-75.9000;0.6781;-0.2417;
-75.6000;0.6781;-0.2417;
-75.3000;0.6797;-0.2440;
-75.0000;0.6821;-0.2346;
-74.7000;0.6781;-0.2440;
-74.4000;0.6772;-0.2511;
-74.1000;0.6789;-0.2559;
-73.8000;0.6781;-0.2488;
-73.5000;0.6789;-0.2393;
-73.2000;0.6781;-0.2417;
-72.9000;0.6789;-0.2464;
-72.6000;0.6781;-0.2511;
-72.3000;0.6789;-0.2488;
-72.0000;0.6789;-0.2583;
-71.7000;0.6772;-0.2606;
-71.4000;0.6764;-0.2606;
-71.1000;0.6772;-0.2701;
-70.8000;0.6805;-0.2630;
-70.5000;0.6789;-0.2583;
-70.2000;0.6764;-0.2654;
-69.9000;0.6781;-0.2701;
-69.6000;0.6789;-0.2701;
-69.3000;0.6756;-0.2748;
-69.0000;0.6781;-0.2606;
-68.7000;0.6781;-0.2654;
-68.4000;0.6781;-0.2630;
-68.1000;0.6813;-0.2583;
-67.8000;0.6756;-0.2654;
-67.5000;0.6781;-0.2606;
-67.2000;0.6748;-0.2748;
-66.9000;0.6797;-0.2677;
-66.6000;0.6789;-0.2701;
-66.3000;0.6838;-0.2511;
-66.0000;0.6772;-0.2654;
-65.7000;0.6797;-0.2488;
-65.4000;0.6756;-0.2511;
-65.1000;0.6821;-0.2417;
-64.8000;0.6781;-0.2488;
-64.5000;0.6772;-0.2464;
-64.2000;0.6797;-0.2417;
-63.9000;0.6724;-0.2654;
-63.6000;0.6781;-0.2701;
-63.3000;0.6781;-0.2725;
-63.0000;0.6772;-0.2772;
-62.7000;0.6789;-0.2725;
-62.4000;0.6772;-0.2725;
-62.1000;0.6789;-0.2654;
-61.8000;0.6781;-0.2772;
-61.5000;0.6756;-0.2796;
-61.2000;0.6772;-0.2748;
-60.9000;0.6789;-0.2748;
-60.6000;0.6781;-0.2677;
-60.3000;0.6789;-0.2677;
-60.0000;0.6764;-0.2725;
-59.7000;0.6797;-0.2583;
-59.4000;0.6781;-0.2630;
-59.1000;0.6781;-0.2677;
-58.8000;0.6797;-0.2654;
-58.5000;0.6740;-0.2796;
-58.2000;0.6781;-0.2772;
-57.9000;0.6789;-0.2654;
-57.6000;0.6789;-0.2630;
-57.3000;0.6805;-0.2583;
-57.0000;0.6805;-0.2725;
-56.7000;0.6797;-0.2725;
-56.4000;0.6789;-0.2677;
-56.1000;0.6756;-0.2867;
-55.8000;0.6797;-0.2819;
-55.5000;0.6772;-0.2796;
-55.2000;0.6813;-0.2606;
-54.9000;0.6781;-0.2606;
-54.6000;0.6764;-0.2583;
-54.3000;0.6797;-0.2440;
-54.0000;0.6772;-0.2535;
-53.7000;0.6772;-0.2511;
-53.4000;0.6781;-0.2488;
-53.1000;0.6764;-0.2488;
-52.8000;0.6781;-0.2417;
-52.5000;0.6764;-0.2440;
-52.2000;0.6772;-0.2511;
-51.9000;0.6764;-0.2464;
-51.6000;0.6772;-0.2464;
-51.3000;0.6772;-0.2440;
-51.0000;0.6756;-0.2464;
-50.7000;0.6748;-0.2511;
-50.4000;0.6772;-0.2511;
-50.1000;0.6781;-0.2464;
-49.8000;0.6829;-0.2393;
-49.5000;0.6764;-0.2559;
-49.2000;0.6756;-0.2654;
-48.9000;0.6764;-0.2583;
-48.6000;0.6805;-0.2606;
-48.3000;0.6789;-0.2677;
-48.0000;0.6772;-0.2701;
-47.7000;0.6797;-0.2583;
-47.4000;0.6789;-0.2677;
-47.1000;0.6797;-0.2559;
-46.8000;0.6781;-0.2559;
-46.5000;0.6764;-0.2535;
-46.2000;0.6789;-0.2535;
-45.9000;0.6789;-0.2511;
-45.6000;0.6789;-0.2511;
-45.3000;0.6789;-0.2488;
-45.0000;0.6805;-0.2417;
-44.7000;0.6781;-0.2511;
-44.4000;0.6781;-0.2559;
-44.1000;0.6789;-0.2583;
-43.8000;0.6797;-0.2606;
-43.5000;0.6813;-0.2535;
-43.2000;0.6732;-0.2748;
-42.9000;0.6772;-0.2559;
-42.6000;0.6772;-0.2583;
-42.3000;0.6772;-0.2464;
-42.0000;0.6838;-0.2298;
-41.7000;0.6789;-0.2488;
-41.4000;0.6772;-0.2583;
-41.1000;0.6838;-0.2322;
-40.8000;0.6772;-0.2464;
-40.5000;0.6764;-0.2511;
-40.2000;0.6781;-0.2559;
-39.9000;0.6772;-0.2606;
-39.6000;0.6764;-0.2654;
-39.3000;0.6772;-0.2701;
-39.0000;0.6764;-0.2725;
-38.7000;0.6781;-0.2583;
-38.4000;0.6781;-0.2535;
-38.1000;0.6772;-0.2654;
-37.8000;0.6683;-0.2843;
-37.5000;0.6789;-0.2654;
-37.2000;0.6781;-0.2559;
-36.9000;0.6772;-0.2583;
-36.6000;0.6772;-0.2630;
-36.3000;0.6829;-0.2535;
-36.0000;0.6740;-0.2748;
-35.7000;0.6797;-0.2606;
-35.4000;0.6781;-0.2677;
-35.1000;0.6789;-0.2654;
-34.8000;0.6756;-0.2701;
-34.5000;0.6789;-0.2725;
-34.2000;0.6789;-0.2748;
-33.9000;0.6781;-0.2796;
-33.6000;0.6797;-0.2748;
-33.3000;0.6772;-0.2772;
-33.0000;0.6789;-0.2748;
-32.7000;0.6797;-0.2725;
-32.4000;0.6732;-0.2819;
-32.1000;0.6781;-0.2654;
-31.8000;0.6789;-0.2630;
-31.5000;0.6781;-0.2606;
-31.2000;0.6813;-0.2606;
-30.9000;0.6781;-0.2748;
-30.6000;0.6772;-0.2725;
-30.3000;0.6707;-0.2891;
-30.0000;0.6781;-0.2701;
-29.7000;0.6789;-0.2748;
-29.4000;0.6781;-0.2748;
-29.1000;0.6772;-0.2772;
-28.8000;0.6813;-0.2654;
-28.5000;0.6781;-0.2606;
-28.2000;0.6781;-0.2606;
-27.9000;0.6756;-0.2630;
-27.6000;0.6781;-0.2606;
-27.3000;0.6732;-0.2725;
-27.0000;0.6772;-0.2630;
-26.7000;0.6748;-0.2725;
-26.4000;0.6764;-0.2677;
-26.1000;0.6748;-0.2725;
-25.8000;0.6781;-0.2701;
-25.5000;0.6781;-0.2606;
-25.2000;0.6764;-0.2748;
-24.9000;0.6772;-0.2725;
-24.6000;0.6789;-0.2677;
-24.3000;0.6805;-0.2630;
-24.0000;0.6781;-0.2654;
-23.7000;0.6781;-0.2654;
-23.4000;0.6789;-0.2606;
-23.1000;0.6789;-0.2535;
-22.8000;0.6797;-0.2440;
-22.5000;0.6764;-0.2583;
-22.2000;0.6772;-0.2630;
-21.9000;0.6797;-0.2606;
-21.6000;0.6764;-0.2725;
-21.3000;0.6781;-0.2654;
-21.0000;0.6789;-0.2630;
-20.7000;0.6797;-0.2559;
-20.4000;0.6781;-0.2559;
-20.1000;0.6789;-0.2488;
-19.8000;0.6797;-0.2488;
-19.5000;0.6748;-0.2630;
-19.2000;0.6772;-0.2559;
-18.9000;0.6781;-0.2488;
-18.6000;0.6781;-0.2511;
-18.3000;0.6781;-0.2535;
-18.0000;0.6764;-0.2535;
-17.7000;0.6781;-0.2511;
-17.4000;0.6764;-0.2606;
-17.1000;0.6748;-0.2630;
-16.8000;0.6756;-0.2630;
-16.5000;0.6813;-0.2511;
-16.2000;0.6748;-0.2725;
-15.9000;0.6756;-0.2630;
-15.6000;0.6772;-0.2725;
-15.3000;0.6772;-0.2701;
-15.0000;0.6772;-0.2725;
-14.7000;0.6789;-0.2701;
-14.4000;0.6781;-0.2654;
-14.1000;0.6772;-0.2725;
-13.8000;0.6772;-0.2606;
-13.5000;0.6789;-0.2464;
-13.2000;0.6781;-0.2440;
-12.9000;0.6781;-0.2511;
-12.6000;0.6772;-0.2583;
-12.3000;0.6716;-0.2725;
-12.0000;0.6797;-0.2701;
-11.7000;0.6781;-0.2677;
-11.4000;0.6789;-0.2630;
-11.1000;0.6756;-0.2677;
-10.8000;0.6764;-0.2677;
-10.5000;0.6772;-0.2630;
-10.2000;0.6789;-0.2701;
-9.9000;0.6789;-0.2819;
-9.6000;0.6764;-0.2843;
-9.3000;0.6781;-0.2843;
-9.0000;0.6764;-0.2796;
-8.7000;0.6781;-0.2843;
-8.4000;0.6781;-0.2867;
-8.1000;0.6781;-0.2819;
-7.8000;0.6789;-0.2772;
-7.5000;0.6772;-0.2677;
-7.2000;0.6707;-0.2867;
-6.9000;0.6772;-0.2725;
-6.6000;0.6764;-0.2819;
-6.3000;0.6716;-0.2985;
-6.0000;0.6764;-0.2843;
-5.7000;0.6781;-0.2796;
-5.4000;0.6829;-0.2606;
-5.1000;0.6781;-0.2677;
-4.8000;0.6821;-0.2606;
-4.5000;0.6789;-0.2796;
-4.2000;0.6781;-0.2772;
-3.9000;0.6781;-0.2796;
-3.6000;0.6781;-0.2772;
-3.3000;0.6724;-0.2843;
-3.0000;0.6781;-0.2772;
-2.7000;0.6813;-0.2701;
-2.4000;0.6772;-0.2772;
-2.1000;0.6772;-0.2725;
-1.8000;0.6829;-0.2583;
-1.5000;0.6772;-0.2725;
-1.2000;0.6756;-0.2772;
-0.9000;0.6756;-0.2796;
-0.6000;0.6772;-0.2630;
-0.3000;0.6789;-0.2630;
0.0000;0.6789;-0.2630;
0.3000;0.7017;-0.2511;
0.6000;0.7530;-0.1611;
0.9000;0.7937;-0.0829;
1.2000;0.8221;-0.0142;
1.5000;0.8466;0.0379;
1.8000;0.8661;0.0806;
2.1000;0.8807;0.1114;
2.4000;0.8938;0.1422;
2.7000;0.9035;0.1659;
3.0000;0.9125;0.1730;
3.3000;0.9190;0.1824;
3.6000;0.9263;0.1943;
3.9000;0.9320;0.2014;
4.2000;0.9328;0.2085;
4.5000;0.9418;0.2180;
4.8000;0.9467;0.2203;
5.1000;0.9499;0.2203;
5.4000;0.9548;0.2298;
5.7000;0.9565;0.2251;
6.0000;0.9556;0.2203;
6.3000;0.9670;0.2511;
6.6000;0.9687;0.2511;
6.9000;0.9703;0.2559;
7.2000;0.9752;0.2559;
7.5000;0.9784;0.2583;
7.8000;0.9809;0.2630;
8.1000;0.9874;0.2725;
8.4000;0.9866;0.2654;
8.7000;0.9890;0.2654;
9.0000;0.9931;0.2701;
9.3000;0.9939;0.2701;
9.6000;0.9963;0.2677;
9.9000;0.9988;0.2606;
10.2000;1.0004;0.2559;
10.5000;1.0037;0.2535;
10.8000;1.0053;0.2511;
11.1000;1.0069;0.2511;
11.4000;1.0118;0.2583;
11.7000;1.0134;0.2559;
12.0000;1.0134;0.2606;
12.3000;1.0159;0.2677;
12.6000;1.0224;0.2701;
12.9000;1.0240;0.2630;
13.2000;1.0224;0.2535;
13.5000;1.0256;0.2559;
13.8000;1.0297;0.2701;
14.1000;1.0305;0.2701;
14.4000;1.0313;0.2654;
14.7000;1.0330;0.2677;
15.0000;1.0346;0.2630;
15.3000;1.0362;0.2654;
15.6000;1.0387;0.2677;
15.9000;1.0419;0.2583;
16.2000;1.0419;0.2559;
16.5000;1.0444;0.2677;
16.8000;1.0411;0.2535;
17.1000;1.0460;0.2654;
17.4000;1.0476;0.2630;
17.7000;1.0509;0.2654;
18.0000;1.0509;0.2583;
18.3000;1.0533;0.2535;
18.6000;1.0558;0.2464;
18.9000;1.0549;0.2417;
19.2000;1.0566;0.2369;
19.5000;1.0582;0.2346;
19.8000;1.0598;0.2346;
20.1000;1.0623;0.2369;
20.4000;1.0623;0.2369;
20.7000;1.0647;0.2440;
21.0000;1.0672;0.2488;
21.3000;1.0680;0.2535;
21.6000;1.0688;0.2559;
21.9000;1.0696;0.2606;
22.2000;1.0786;0.2819;
22.5000;1.0712;0.2606;
22.8000;1.0720;0.2677;
23.1000;1.0704;0.2606;
23.4000;1.0745;0.2654;
23.7000;1.0753;0.2677;
24.0000;1.0761;0.2630;
24.3000;1.0794;0.2535;
24.6000;1.0802;0.2511;
24.9000;1.0802;0.2535;
25.2000;1.0834;0.2677;
25.5000;1.0810;0.2559;
25.8000;1.0810;0.2606;
26.1000;1.0842;0.2606;
26.4000;1.0826;0.2535;
26.7000;1.0851;0.2511;
27.0000;1.0859;0.2559;
27.3000;1.0842;0.2488;
27.6000;1.0867;0.2440;
27.9000;1.0818;0.2393;
28.2000;1.0859;0.2417;
28.5000;1.0826;0.2417;
28.8000;1.0883;0.2583;
29.1000;1.0908;0.2606;
29.4000;1.0908;0.2630;
29.7000;1.0899;0.2630;
30.0000;1.0916;0.2654;
30.3000;1.0916;0.2654;
30.6000;1.0924;0.2559;
30.9000;1.0940;0.2583;
31.2000;1.0867;0.2322;
31.5000;1.0932;0.2488;
31.8000;1.0948;0.2440;
32.1000;1.0948;0.2511;
32.4000;1.0956;0.2464;
32.7000;1.0956;0.2393;
33.0000;1.0997;0.2346;
33.3000;1.0997;0.2393;
33.6000;1.1005;0.2346;
33.9000;1.1030;0.2298;
34.2000;1.1013;0.2227;
34.5000;1.0997;0.2180;
34.8000;1.1038;0.2275;
35.1000;1.1013;0.2275;
35.4000;1.1022;0.2346;
35.7000;1.1013;0.2322;
36.0000;1.1013;0.2346;
36.3000;1.0973;0.2132;
36.6000;1.1013;0.2227;
36.9000;1.1046;0.2322;
37.2000;1.1046;0.2369;
37.5000;1.1046;0.2369;
37.8000;1.1038;0.2322;
38.1000;1.1079;0.2393;
38.4000;1.1070;0.2369;
38.7000;1.1062;0.2203;
39.0000;1.1111;0.2346;
39.3000;1.1070;0.2227;
39.6000;1.1095;0.2203;
39.9000;1.1062;0.2180;
40.2000;1.1079;0.2251;
40.5000;1.1062;0.2180;
40.8000;1.1079;0.2156;
41.1000;1.1079;0.2109;
41.4000;1.1111;0.2156;
41.7000;1.1079;0.2109;
42.0000;1.1062;0.2132;
42.3000;1.1038;0.2061;
42.6000;1.1095;0.2227;
42.9000;1.1095;0.2251;
43.2000;1.1136;0.2298;
43.5000;1.1095;0.2251;
43.8000;1.1095;0.2203;
44.1000;1.1095;0.2156;
44.4000;1.1111;0.2156;
44.7000;1.1136;0.2061;
45.0000;1.1111;0.1990;
45.3000;1.1087;0.1919;
45.6000;1.1087;0.1895;
45.9000;1.1119;0.1919;
46.2000;1.1119;0.1943;
46.5000;1.1111;0.1919;
46.8000;1.1095;0.1919;
47.1000;1.1119;0.1919;
47.4000;1.1119;0.1990;
47.7000;1.1127;0.1967;
48.0000;1.1127;0.1895;
48.3000;1.1127;0.1801;
48.6000;1.1144;0.1824;
48.9000;1.1144;0.1801;
49.2000;1.1136;0.1872;
49.5000;1.1184;0.2014;
49.8000;1.1136;0.1895;
50.1000;1.1136;0.1943;
50.4000;1.1144;0.1943;
50.7000;1.1193;0.2038;
51.0000;1.1152;0.1872;
51.3000;1.1152;0.1824;
51.6000;1.1152;0.1801;
51.9000;1.1152;0.1824;
52.2000;1.1152;0.1801;
52.5000;1.1160;0.1801;
52.8000;1.1152;0.1777;
53.1000;1.1168;0.1801;
53.4000;1.1160;0.1801;
53.7000;1.1160;0.1824;
54.0000;1.1168;0.1824;
54.3000;1.1176;0.1895;
54.6000;1.1176;0.1919;
54.9000;1.1184;0.1872;
55.2000;1.1201;0.1919;
55.5000;1.1168;0.1943;
55.8000;1.1168;0.1895;
56.1000;1.1193;0.1895;
56.4000;1.1184;0.1872;
56.7000;1.1201;0.1943;
57.0000;1.1184;0.1848;
57.3000;1.1184;0.1848;
57.6000;1.1201;0.1848;
57.9000;1.1193;0.1824;
58.2000;1.1184;0.1943;
58.5000;1.1136;0.1753;
58.8000;1.1233;0.2038;
59.1000;1.1201;0.1919;
59.4000;1.1176;0.1824;
59.7000;1.1266;0.2014;
60.0000;1.1217;0.1824;
60.3000;1.1217;0.1824;
60.6000;1.1217;0.1824;
60.9000;1.1184;0.1777;
61.2000;1.1184;0.1753;
61.5000;1.1201;0.1801;
61.8000;1.1201;0.1706;
62.1000;1.1201;0.1635;
62.4000;1.1217;0.1659;
62.7000;1.1209;0.1753;
63.0000;1.1193;0.1706;
63.3000;1.1209;0.1777;
63.6000;1.1201;0.1824;
63.9000;1.1217;0.1895;
64.2000;1.1217;0.1895;
64.5000;1.1217;0.1824;
64.8000;1.1258;0.1824;
65.1000;1.1225;0.1730;
65.4000;1.1306;0.1895;
65.7000;1.1184;0.1635;
66.0000;1.1241;0.1730;
66.3000;1.1225;0.1801;
66.6000;1.1233;0.1848;
66.9000;1.1184;0.1611;
67.2000;1.1233;0.1730;
67.5000;1.1225;0.1682;
67.8000;1.1201;0.1564;
68.1000;1.1233;0.1611;
68.4000;1.1241;0.1635;
68.7000;1.1217;0.1706;
69.0000;1.1225;0.1801;
69.3000;1.1225;0.1895;
69.6000;1.1233;0.1943;
69.9000;1.1241;0.1967;
70.2000;1.1241;0.1990;
70.5000;1.1233;0.1943;
70.8000;1.1241;0.1967;
71.1000;1.1184;0.1848;
71.4000;1.1233;0.1943;
71.7000;1.1258;0.2085;
72.0000;1.1241;0.2038;
72.3000;1.1225;0.1990;
72.6000;1.1233;0.1919;
72.9000;1.1258;0.1943;
73.2000;1.1225;0.1943;
73.5000;1.1258;0.1990;
73.8000;1.1249;0.2014;
74.1000;1.1266;0.2085;
74.4000;1.1258;0.2014;
74.7000;1.1266;0.1919;
75.0000;1.1258;0.1824;
75.3000;1.1266;0.1824;
75.6000;1.1315;0.2038;
75.9000;1.1266;0.1990;
76.2000;1.1249;0.1895;
76.5000;1.1298;0.1990;
76.8000;1.1241;0.1753;
77.1000;1.1258;0.1801;
77.4000;1.1258;0.1753;
77.7000;1.1258;0.1706;
78.0000;1.1258;0.1635;
78.3000;1.1258;0.1587;
78.6000;1.1258;0.1540;
78.9000;1.1249;0.1540;
79.2000;1.1266;0.1611;
79.5000;1.1274;0.1540;
79.8000;1.1266;0.1540;
80.1000;1.1249;0.1540;
80.4000;1.1266;0.1587;
80.7000;1.1274;0.1659;
81.0000;1.1282;0.1587;
81.3000;1.1274;0.1469;
81.6000;1.1274;0.1469;
81.9000;1.1274;0.1493;
82.2000;1.1266;0.1516;
82.5000;1.1274;0.1493;
82.8000;1.1282;0.1516;
83.1000;1.1290;0.1540;
83.4000;1.1290;0.1611;
83.7000;1.1266;0.1564;
84.0000;1.1282;0.1516;
84.3000;1.1274;0.1445;
84.6000;1.1323;0.1564;
84.9000;1.1274;0.1516;
85.2000;1.1266;0.1516;
85.5000;1.1282;0.1659;
85.8000;1.1298;0.1659;
86.1000;1.1290;0.1587;
86.4000;1.1282;0.1564;
86.7000;1.1298;0.1635;
87.0000;1.1290;0.1564;
87.3000;1.1258;0.1516;
87.6000;1.1290;0.1564;
87.9000;1.1266;0.1469;
88.2000;1.1274;0.1398;
88.5000;1.1298;0.1493;
88.8000;1.1331;0.1659;
89.1000;1.1266;0.1516;
89.4000;1.1258;0.1469;
89.7000;1.1339;0.1659;
90.0000;1.1282;0.1635;
90.3000;1.1249;0.1587;
90.6000;1.1290;0.1611;
90.9000;1.1290;0.1540;
91.2000;1.1323;0.1682;
91.5000;1.1282;0.1540;
91.8000;1.1298;0.1564;
92.1000;1.1298;0.1587;
92.4000;1.1298;0.1587;
92.7000;1.1282;0.1706;
93.0000;1.1298;0.1753;
93.3000;1.1290;0.1682;
93.6000;1.1290;0.1611;
93.9000;1.1282;0.1564;
94.2000;1.1282;0.1564;
94.5000;1.1306;0.1706;
94.8000;1.1298;0.1682;
95.1000;1.1298;0.1730;
95.4000;1.1290;0.1659;
95.7000;1.1298;0.1706;
96.0000;1.1306;0.1753;
96.3000;1.1315;0.1753;
96.6000;1.1339;0.1682;
96.9000;1.1315;0.1635;
97.2000;1.1290;0.1540;
97.5000;1.1315;0.1540;
97.8000;1.1290;0.1469;
98.1000;1.1306;0.1469;
98.4000;1.1306;0.1540;
98.7000;1.1315;0.1611;
99.0000;1.1298;0.1564;
99.3000;1.1298;0.1445;
99.6000;1.1315;0.1469;
99.9000;1.1298;0.1516;
100.2000;1.1274;0.1540;
100.5000;1.1315;0.1635;
100.8000;1.1258;0.1493;
101.1000;1.1315;0.1587;
101.4000;1.1331;0.1587;
101.7000;1.1323;0.1611;
102.0000;1.1315;0.1587;
102.3000;1.1306;0.1564;
102.6000;1.1323;0.1564;
102.9000;1.1306;0.1469;
103.2000;1.1274;0.1351;
103.5000;1.1396;0.1635;
103.8000;1.1372;0.1635;
104.1000;1.1306;0.1445;
104.4000;1.1290;0.1374;
104.7000;1.1282;0.1398;
105.0000;1.1249;0.1327;
105.3000;1.1306;0.1493;
105.6000;1.1315;0.1564;
105.9000;1.1282;0.1564;
106.2000;1.1298;0.1540;
106.5000;1.1339;0.1587;
106.8000;1.1298;0.1540;
107.1000;1.1258;0.1422;
107.4000;1.1331;0.1516;
107.7000;1.1306;0.1445;
108.0000;1.1306;0.1422;
108.3000;1.1315;0.1540;
108.6000;1.1315;0.1516;
108.9000;1.1339;0.1540;
109.2000;1.1339;0.1493;
109.5000;1.1323;0.1493;
109.8000;1.1298;0.1445;
110.1000;1.1323;0.1351;
110.4000;1.1290;0.1374;
110.7000;1.1258;0.1232;
111.0000;1.1266;0.1256;
111.3000;1.1347;0.1422;
111.6000;1.1323;0.1398;
111.9000;1.1274;0.1303;
112.2000;1.1315;0.1374;
112.5000;1.1315;0.1374;
112.8000;1.1290;0.1137;
113.1000;1.1331;0.1208;
113.4000;1.1315;0.1208;
113.7000;1.1306;0.1327;
114.0000;1.1372;0.1516;
114.3000;1.1323;0.1422;
114.6000;1.1306;0.1327;
114.9000;1.1306;0.1232;
115.2000;1.1306;0.1232;
115.5000;1.1315;0.1303;
115.8000;1.1323;0.1208;
116.1000;1.1298;0.1161;
116.4000;1.1298;0.1279;
116.7000;1.1339;0.1422;
117.0000;1.1298;0.1303;
117.3000;1.1315;0.1469;
117.6000;1.1315;0.1445;
117.9000;1.1331;0.1422;
118.2000;1.1323;0.1279;
118.5000;1.1331;0.1185;
118.8000;1.1339;0.1327;
119.1000;1.1323;0.1208;
119.4000;1.1323;0.1303;
119.7000;1.1315;0.1374;
120.0000;1.1323;0.1327;
120.3000;1.1331;0.1374;
120.6000;1.1363;0.1398;
120.9000;1.1339;0.1374;
121.2000;1.1323;0.1279;
121.5000;1.1339;0.1374;
121.8000;1.1331;0.1327;
122.1000;1.1355;0.1327;
122.4000;1.1331;0.1232;
122.7000;1.1323;0.1208;
123.0000;1.1347;0.1185;
123.3000;1.1339;0.1185;
123.6000;1.1331;0.1161;
123.9000;1.1298;0.1042;
124.2000;1.1355;0.1114;
124.5000;1.1347;0.1208;
124.8000;1.1323;0.1185;
125.1000;1.1372;0.1327;
125.4000;1.1306;0.1303;
125.7000;1.1323;0.1422;
126.0000;1.1266;0.1256;
126.3000;1.1363;0.1469;
126.6000;1.1315;0.1422;
126.9000;1.1323;0.1374;
127.2000;1.1290;0.1279;
127.5000;1.1339;0.1422;
127.8000;1.1323;0.1351;
128.1000;1.1315;0.1327;
128.4000;1.1331;0.1351;
128.7000;1.1339;0.1351;
129.0000;1.1315;0.1327;
129.3000;1.1266;0.1256;
129.6000;1.1339;0.1398;
129.9000;1.1339;0.1445;
130.2000;1.1331;0.1374;
130.5000;1.1323;0.1351;
130.8000;1.1331;0.1351;
131.1000;1.1298;0.1256;
131.4000;1.1331;0.1232;
131.7000;1.1315;0.1185;
132.0000;1.1298;0.1066;
132.3000;1.1331;0.1279;
132.6000;1.1347;0.1327;
132.9000;1.1363;0.1303;
133.2000;1.1306;0.1232;
133.5000;1.1339;0.1327;
133.8000;1.1355;0.1351;
134.1000;1.1331;0.1161;
134.4000;1.1355;0.1185;
134.7000;1.1355;0.1161;
135.0000;1.1355;0.1185;
135.3000;1.1339;0.1090;
135.6000;1.1355;0.1066;
135.9000;1.1331;0.1114;
136.2000;1.1298;0.1066;
136.5000;1.1331;0.1114;
136.8000;1.1323;0.1090;
137.1000;1.1323;0.1090;
137.4000;1.1339;0.1066;
137.7000;1.1331;0.0971;
138.0000;1.1290;0.0900;
138.3000;1.1339;0.1066;
138.6000;1.1323;0.1019;
138.9000;1.1347;0.1019;
139.2000;1.1347;0.0995;
139.5000;1.1339;0.1066;
139.8000;1.1363;0.0995;
140.1000;1.1339;0.1042;
140.4000;1.1347;0.1114;
140.7000;1.1339;0.1066;
141.0000;1.1331;0.1066;
141.3000;1.1355;0.1114;
141.6000;1.1339;0.1161;
141.9000;1.1347;0.1208;
142.2000;1.1355;0.1137;
142.5000;1.1396;0.1114;
142.8000;1.1347;0.1042;
143.1000;1.1355;0.1042;
143.4000;1.1363;0.1066;
143.7000;1.1372;0.1114;
144.0000;1.1347;0.1042;
144.3000;1.1363;0.1066;
144.6000;1.1315;0.0971;
144.9000;1.1347;0.1090;
145.2000;1.1355;0.1042;
145.5000;1.1331;0.1090;
145.8000;1.1347;0.1066;
146.1000;1.1355;0.1042;
146.4000;1.1347;0.0995;
146.7000;1.1339;0.0877;
147.0000;1.1347;0.0900;
147.3000;1.1331;0.0924;
147.6000;1.1372;0.1019;
147.9000;1.1339;0.0995;
148.2000;1.1355;0.0995;
148.5000;1.1355;0.0995;
148.8000;1.1363;0.1042;
149.1000;1.1363;0.1019;
149.4000;1.1372;0.0995;
149.7000;1.1363;0.1019;
150.0000;1.1372;0.1019;
150.3000;1.1420;0.1019;
150.6000;1.1347;0.0948;
150.9000;1.1298;0.0806;
151.2000;1.1388;0.0995;
151.5000;1.1347;0.0900;
151.8000;1.1331;0.0924;
152.1000;1.1331;0.1019;
152.4000;1.1380;0.1208;
152.7000;1.1355;0.1161;
153.0000;1.1355;0.1114;
153.3000;1.1363;0.1137;
153.6000;1.1363;0.1090;
153.9000;1.1363;0.1161;
154.2000;1.1363;0.1137;
154.5000;1.1355;0.1137;
154.8000;1.1347;0.1185;
155.1000;1.1363;0.1185;
155.4000;1.1347;0.1137;
155.7000;1.1339;0.1042;
156.0000;1.1380;0.1137;
156.3000;1.1363;0.1090;
156.6000;1.1363;0.1090;
156.9000;1.1347;0.1114;
157.2000;1.1347;0.1185;
157.5000;1.1355;0.1114;
157.8000;1.1363;0.1185;
158.1000;1.1347;0.1090;
158.4000;1.1347;0.1019;
158.7000;1.1355;0.1019;
159.0000;1.1363;0.1042;
159.3000;1.1347;0.0948;
159.6000;1.1372;0.0995;
159.9000;1.1339;0.0995;
160.2000;1.1323;0.0948;
160.5000;1.1363;0.1042;
160.8000;1.1363;0.1066;
161.1000;1.1363;0.1114;
161.4000;1.1388;0.1232;
161.7000;1.1355;0.1137;
162.0000;1.1355;0.1042;
162.3000;1.1347;0.1042;
162.6000;1.1355;0.1090;
162.9000;1.1363;0.1137;
163.2000;1.1355;0.1090;
163.5000;1.1347;0.0995;
163.8000;1.1355;0.0971;
164.1000;1.1380;0.0948;
164.4000;1.1347;0.0971;
164.7000;1.1363;0.0924;
165.0000;1.1363;0.0877;
165.3000;1.1355;0.0806;
165.6000;1.1372;0.0900;
165.9000;1.1372;0.0877;
166.2000;1.1372;0.0853;
166.5000;1.1372;0.0853;
166.8000;1.1363;0.0853;
167.1000;1.1380;0.0900;
167.4000;1.1372;0.0924;
167.7000;1.1355;0.0971;
168.0000;1.1363;0.0877;
168.3000;1.1355;0.0900;
168.6000;1.1331;0.0782;
168.9000;1.1339;0.0806;
169.2000;1.1355;0.0877;
169.5000;1.1355;0.0853;
169.8000;1.1323;0.0758;
170.1000;1.1339;0.0734;
170.4000;1.1339;0.0734;
170.7000;1.1331;0.0806;
171.0000;1.1331;0.0829;
171.3000;1.1355;0.0853;
171.6000;1.1355;0.0877;
171.9000;1.1363;0.0995;
172.2000;1.1347;0.0900;
172.5000;1.1372;0.0900;
172.8000;1.1347;0.0829;
173.1000;1.1355;0.0971;
173.4000;1.1306;0.0853;
173.7000;1.1372;0.1019;
174.0000;1.1315;0.0853;
174.3000;1.1347;0.0924;
174.6000;1.1355;0.0900;
174.9000;1.1363;0.0900;
175.2000;1.1380;0.0924;
175.5000;1.1380;0.0900;
175.8000;1.1396;0.0948;
176.1000;1.1388;0.0971;
176.4000;1.1380;0.0877;
176.7000;1.1355;0.0829;
177.0000;1.1363;0.0877;
177.3000;1.1372;0.1019;
177.6000;1.1372;0.0995;
177.9000;1.1331;0.0900;
178.2000;1.1372;0.1066;
178.5000;1.1363;0.1042;
178.8000;1.1290;0.0948;
179.1000;1.1355;0.1090;
179.4000;1.1380;0.0995;
179.7000;1.1372;0.0900;
180.0000;1.1363;0.0829;
180.3000;1.1355;0.0758;
180.6000;1.1380;0.0829;
180.9000;1.1372;0.0829;
181.2000;1.1347;0.0758;
181.5000;1.1380;0.0877;
181.8000;1.1298;0.0782;
182.1000;1.1363;0.0948;
182.4000;1.1315;0.0758;
182.7000;1.1372;0.0948;
183.0000;1.1372;0.0948;
183.3000;1.1404;0.0971;
183.6000;1.1355;0.0924;
183.9000;1.1355;0.0900;
184.2000;1.1355;0.0877;
184.5000;1.1355;0.0900;
184.8000;1.1347;0.0877;
185.1000;1.1347;0.0829;
185.4000;1.1363;0.0853;
185.7000;1.1347;0.0829;
186.0000;1.1380;0.0924;
186.3000;1.1372;0.0877;
186.6000;1.1363;0.0829;
186.9000;1.1363;0.0924;
187.2000;1.1347;0.0877;
187.5000;1.1372;0.0853;
187.8000;1.1363;0.0877;
188.1000;1.1372;0.0924;
188.4000;1.1355;0.0829;
188.7000;1.1380;0.0853;
189.0000;1.1363;0.0829;
189.3000;1.1347;0.0782;
189.6000;1.1363;0.0877;
189.9000;1.1372;0.0948;
190.2000;1.1363;0.0900;
190.5000;1.1363;0.0900;
190.8000;1.1372;0.0900;
191.1000;1.1363;0.0924;
191.4000;1.1396;0.0995;
191.7000;1.1355;0.0877;
192.0000;1.1380;0.0853;
192.3000;1.1388;0.0900;
192.6000;1.1380;0.0829;
192.9000;1.1388;0.0829;
193.2000;1.1363;0.0687;
193.5000;1.1380;0.0829;
193.8000;1.1380;0.0782;
194.1000;1.1372;0.0758;
194.4000;1.1363;0.0711;
194.7000;1.1355;0.0782;
195.0000;1.1363;0.0782;
195.3000;1.1355;0.0829;
195.6000;1.1274;0.0640;
195.9000;1.1363;0.0782;
196.2000;1.1372;0.0758;
196.5000;1.1372;0.0758;
196.8000;1.1372;0.0806;
197.1000;1.1347;0.0758;
197.4000;1.1363;0.0877;
197.7000;1.1380;0.1042;
198.0000;1.1355;0.1090;
198.3000;1.1380;0.1161;
198.6000;1.1347;0.1066;
198.9000;1.1347;0.1042;
199.2000;1.1355;0.0924;
199.5000;1.1347;0.0877;
199.8000;1.1355;0.0782;
200.1000;1.1306;0.0663;
200.4000;1.1363;0.0806;
200.7000;1.1347;0.0782;
201.0000;1.1363;0.0782;
201.3000;1.1331;0.0711;
201.6000;1.1372;0.0829;
201.9000;1.1388;0.0877;
202.2000;1.1372;0.0924;
202.5000;1.1380;0.0853;
202.8000;1.1363;0.0829;
203.1000;1.1372;0.0806;
203.4000;1.1339;0.0687;
203.7000;1.1363;0.0782;
204.0000;1.1380;0.0829;
204.3000;1.1380;0.0829;
204.6000;1.1355;0.0782;
204.9000;1.1355;0.0687;
205.2000;1.1412;0.0829;
205.5000;1.1372;0.0829;
205.8000;1.1372;0.0853;
206.1000;1.1380;0.0782;
206.4000;1.1388;0.0924;
206.7000;1.1339;0.0687;
207.0000;1.1380;0.0900;
207.3000;1.1380;0.0900;
207.6000;1.1363;0.0877;
207.9000;1.1380;0.0971;
208.2000;1.1380;0.0995;
208.5000;1.1404;0.1019;
208.8000;1.1396;0.0924;
209.1000;1.1388;0.0924;
209.4000;1.1380;0.0829;
209.7000;1.1363;0.0829;
210.0000;1.1412;0.0995;
210.3000;1.1380;0.0829;
210.6000;1.1372;0.0782;
210.9000;1.1372;0.0734;
211.2000;1.1355;0.0711;
211.5000;1.1372;0.0663;
211.8000;1.1388;0.0734;
212.1000;1.1372;0.0758;
212.4000;1.1380;0.0806;
212.7000;1.1388;0.0782;
213.0000;1.1380;0.0758;
213.3000;1.1388;0.0806;
213.6000;1.1363;0.0829;
213.9000;1.1445;0.0995;
214.2000;1.1396;0.0877;
214.5000;1.1372;0.0877;
214.8000;1.1380;0.0924;
215.1000;1.1339;0.0829;
215.4000;1.1372;0.0877;
215.7000;1.1315;0.0758;
216.0000;1.1380;0.0853;
216.3000;1.1363;0.0806;
216.6000;1.1372;0.0758;
216.9000;1.1388;0.0782;
217.2000;1.1363;0.0687;
217.5000;1.1380;0.0663;
217.8000;1.1372;0.0640;
218.1000;1.1372;0.0640;
218.4000;1.1355;0.0616;
218.7000;1.1372;0.0758;
219.0000;1.1355;0.0663;
219.3000;1.1363;0.0687;
219.6000;1.1380;0.0640;
219.9000;1.1363;0.0569;
220.2000;1.1372;0.0569;
220.5000;1.1323;0.0426;
220.8000;1.1388;0.0545;
221.1000;1.1355;0.0521;
221.4000;1.1306;0.0474;
221.7000;1.1388;0.0616;
222.0000;1.1396;0.0687;
222.3000;1.1355;0.0545;
222.6000;1.1372;0.0545;
222.9000;1.1404;0.0640;
223.2000;1.1363;0.0569;
223.5000;1.1453;0.0782;
223.8000;1.1372;0.0545;
224.1000;1.1363;0.0474;
224.4000;1.1388;0.0569;
224.7000;1.1372;0.0545;
225.0000;1.1363;0.0498;
225.3000;1.1372;0.0545;
225.6000;1.1363;0.0569;
225.9000;1.1355;0.0545;
226.2000;1.1380;0.0711;
226.5000;1.1363;0.0569;
226.8000;1.1339;0.0569;
227.1000;1.1372;0.0758;
227.4000;1.1372;0.0711;
227.7000;1.1372;0.0782;
228.0000;1.1372;0.0900;
228.3000;1.1380;0.0853;
228.6000;1.1363;0.0806;
228.9000;1.1363;0.0782;
229.2000;1.1347;0.0663;
229.5000;1.1372;0.0592;
229.8000;1.1412;0.0758;
230.1000;1.1363;0.0734;
230.4000;1.1363;0.0782;
230.7000;1.1372;0.0758;
231.0000;1.1388;0.0877;
231.3000;1.1372;0.0877;
231.6000;1.1388;0.0948;
231.9000;1.1380;0.0924;
232.2000;1.1380;0.0877;
232.5000;1.1380;0.0853;
232.8000;1.1388;0.0995;
233.1000;1.1372;0.0924;
233.4000;1.1372;0.0948;
233.7000;1.1363;0.0900;
234.0000;1.1372;0.0877;
234.3000;1.1363;0.0877;
234.6000;1.1396;0.0877;
234.9000;1.1380;0.0877;
235.2000;1.1380;0.0900;
235.5000;1.1372;0.0948;
235.8000;1.1380;0.0924;
236.1000;1.1429;0.1137;
236.4000;1.1380;0.0948;
236.7000;1.1380;0.0924;
237.0000;1.1372;0.0782;
237.3000;1.1355;0.0829;
237.6000;1.1355;0.0806;
237.9000;1.1363;0.0806;
238.2000;1.1363;0.0758;
238.5000;1.1331;0.0663;
238.8000;1.1372;0.0806;
239.1000;1.1355;0.0877;
239.4000;1.1388;0.0971;
239.7000;1.1388;0.1019;
240.0000;1.1315;0.0900;
240.3000;1.1355;0.0971;
240.6000;1.1380;0.1019;
240.9000;1.1388;0.0900;
241.2000;1.1388;0.0924;
241.5000;1.1363;0.0924;
241.8000;1.1331;0.0924;
242.1000;1.1331;0.0877;
242.4000;1.1339;0.0877;
242.7000;1.1347;0.0924;
243.0000;1.1380;0.0995;
243.3000;1.1355;0.0877;
243.6000;1.1363;0.0924;
243.9000;1.1372;0.0829;
244.2000;1.1380;0.0948;
244.5000;1.1363;0.0971;
244.8000;1.1380;0.0971;
245.1000;1.1380;0.0971;
245.4000;1.1412;0.0995;
245.7000;1.1363;0.0853;
246.0000;1.1372;0.0687;
246.3000;1.1380;0.0711;
246.6000;1.1372;0.0640;
246.9000;1.1347;0.0616;
247.2000;1.1388;0.0734;
247.5000;1.1355;0.0734;
247.8000;1.1380;0.0829;
248.1000;1.1372;0.0829;
248.4000;1.1363;0.0758;
248.7000;1.1355;0.0758;
249.0000;1.1363;0.0687;
249.3000;1.1372;0.0687;
249.6000;1.1420;0.0829;
249.9000;1.1380;0.0829;
250.2000;1.1372;0.0853;
250.5000;1.1396;0.0853;
250.8000;1.1388;0.0758;
251.1000;1.1355;0.0687;
251.4000;1.1396;0.0877;
251.7000;1.1380;0.0853;
252.0000;1.1372;0.0900;
252.3000;1.1429;0.0948;
252.6000;1.1388;0.0900;
252.9000;1.1380;0.0924;
253.2000;1.1372;0.0900;
253.5000;1.1339;0.0829;
253.8000;1.1355;0.0734;
254.1000;1.1380;0.0711;
254.4000;1.1380;0.0734;
254.7000;1.1372;0.0711;
255.0000;1.1363;0.0640;
255.3000;1.1363;0.0687;
255.6000;1.1372;0.0734;
255.9000;1.1453;0.0971;
256.2000;1.1380;0.0640;
256.5000;1.1380;0.0616;
256.8000;1.1388;0.0640;
257.1000;1.1404;0.0734;
257.4000;1.1396;0.0782;
257.7000;1.1363;0.0782;
258.0000;1.1388;0.0853;
258.3000;1.1372;0.0853;
258.6000;1.1396;0.0948;
258.9000;1.1396;0.0853;
259.2000;1.1396;0.0806;
259.5000;1.1388;0.0829;
259.8000;1.1380;0.0829;
260.1000;1.1388;0.0806;
260.4000;1.1396;0.0782;
260.7000;1.1396;0.0782;
261.0000;1.1372;0.0734;
261.3000;1.1372;0.0758;
261.6000;1.1363;0.0853;
261.9000;1.1380;0.0877;
262.2000;1.1380;0.1019;
262.5000;1.1347;0.0900;
262.8000;1.1372;0.0900;
263.1000;1.1380;0.0877;
263.4000;1.1380;0.0877;
263.7000;1.1298;0.0711;
264.0000;1.1355;0.0853;
264.3000;1.1363;0.0853;
264.6000;1.1380;0.0853;
264.9000;1.1404;0.0924;
265.2000;1.1363;0.0877;
265.5000;1.1363;0.0900;
265.8000;1.1388;0.0924;
266.1000;1.1372;0.0971;
266.4000;1.1372;0.0877;
266.7000;1.1372;0.0924;
267.0000;1.1372;0.0948;
267.3000;1.1363;0.0877;
267.6000;1.1363;0.0853;
267.9000;1.1388;0.0948;
268.2000;1.1380;0.0900;
268.5000;1.1372;0.0900;
268.8000;1.1355;0.0782;
269.1000;1.1363;0.0806;
269.4000;1.1380;0.0877;
269.7000;1.1372;0.0829;
270.0000;1.1372;0.0853;
270.3000;1.1372;0.0829;
270.6000;1.1355;0.0829;
270.9000;1.1388;0.0900;
271.2000;1.1388;0.0948;
271.5000;1.1388;0.0995;
271.8000;1.1347;0.0853;
272.1000;1.1388;0.0948;
272.4000;1.1380;0.0924;
272.7000;1.1445;0.1090;
273.0000;1.1331;0.0829;
273.3000;1.1363;0.0995;
273.6000;1.1380;0.0995;
273.9000;1.1355;0.0900;
274.2000;1.1363;0.0948;
274.5000;1.1380;0.0900;
274.8000;1.1363;0.0806;
275.1000;1.1380;0.0948;
275.4000;1.1331;0.0829;
275.7000;1.1388;0.0948;
276.0000;1.1372;0.0948;
276.3000;1.1380;0.0900;
276.6000;1.1388;0.0971;
276.9000;1.1412;0.1019;
277.2000;1.1437;0.1042;
277.5000;1.1380;0.0853;
277.8000;1.1420;0.0971;
278.1000;1.1412;0.0948;
278.4000;1.1355;0.0758;
278.7000;1.1396;0.0806;
279.0000;1.1380;0.0829;
279.3000;1.1363;0.0758;
279.6000;1.1388;0.0758;
279.9000;1.1331;0.0640;
280.2000;1.1372;0.0734;
280.5000;1.1372;0.0758;
280.8000;1.1388;0.0829;
281.1000;1.1306;0.0663;
281.4000;1.1380;0.0853;
281.7000;1.1404;0.0900;
282.0000;1.1380;0.0924;
282.3000;1.1396;0.0948;
282.6000;1.1388;0.0900;
282.9000;1.1388;0.0877;
283.2000;1.1396;0.0877;
283.5000;1.1380;0.0853;
283.8000;1.1388;0.0877;
284.1000;1.1412;0.0877;
284.4000;1.1372;0.0853;
284.7000;1.1396;0.0853;
285.0000;1.1355;0.0782;
285.3000;1.1388;0.0900;
285.6000;1.1363;0.0829;
285.9000;1.1380;0.0734;
286.2000;1.1388;0.0806;
286.5000;1.1363;0.0758;
286.8000;1.1380;0.0782;
287.1000;1.1363;0.0782;
287.4000;1.1363;0.0853;
287.7000;1.1363;0.0782;
288.0000;1.1372;0.0806;
288.3000;1.1363;0.0853;
288.6000;1.1372;0.0900;
288.9000;1.1404;0.0995;
289.2000;1.1372;0.0853;
289.5000;1.1372;0.0806;
289.8000;1.1380;0.0829;
290.1000;1.1363;0.0853;
290.4000;1.1355;0.0853;
290.7000;1.1339;0.0853;
291.0000;1.1380;0.0971;
291.3000;1.1355;0.0948;
291.6000;1.1372;0.0971;
291.9000;1.1372;0.1042;
292.2000;1.1412;0.1090;
292.5000;1.1372;0.0971;
292.8000;1.1396;0.0948;
293.1000;1.1355;0.0782;
293.4000;1.1404;0.1019;
293.7000;1.1380;0.0971;
294.0000;1.1388;0.1019;
294.3000;1.1372;0.0924;
294.6000;1.1363;0.0877;
294.9000;1.1347;0.0900;
295.2000;1.1363;0.0924;
295.5000;1.1363;0.0971;
295.8000;1.1331;0.0948;
296.1000;1.1380;0.1042;
296.4000;1.1380;0.0924;
296.7000;1.1412;0.1042;
297.0000;1.1372;0.0995;
297.3000;1.1355;0.0971;
297.6000;1.1372;0.1042;
297.9000;1.1323;0.0877;
298.2000;1.1380;0.0924;
298.5000;1.1372;0.0853;
298.8000;1.1412;0.0971;
299.1000;1.1380;0.0924;
299.4000;1.1396;0.0995;
299.7000;1.1355;0.0948;
300.0000;1.1372;0.0995;
300.3000;1.1396;0.0995;
300.6000;1.1355;0.0971;
300.9000;1.1274;0.0663;
301.2000;1.1306;0.0734;
301.5000;1.1355;0.0853;
301.8000;1.1372;0.0877;
302.1000;1.1380;0.0924;
302.4000;1.1420;0.1019;
302.7000;1.1380;0.0971;
303.0000;1.1388;0.1042;
303.3000;1.1363;0.1090;
303.6000;1.1380;0.1161;
303.9000;1.1372;0.1114;
304.2000;1.1363;0.1090;
304.5000;1.1388;0.1161;
304.8000;1.1396;0.1161;
305.1000;1.1388;0.1161;
305.4000;1.1388;0.1042;
305.7000;1.1396;0.1137;
306.0000;1.1380;0.1066;
306.3000;1.1396;0.1019;
306.6000;1.1396;0.0971;
306.9000;1.1396;0.0924;
307.2000;1.1380;0.0995;
307.5000;1.1396;0.0948;
307.8000;1.1372;0.0853;
308.1000;1.1388;0.0877;
308.4000;1.1380;0.0877;
308.7000;1.1380;0.0877;
309.0000;1.1388;0.0900;
309.3000;1.1429;0.0948;
309.6000;1.1396;0.0924;
309.9000;1.1396;0.0948;
310.2000;1.1388;0.0900;
310.5000;1.1380;0.0924;
310.8000;1.1388;0.0829;
311.1000;1.1363;0.0758;
311.4000;1.1355;0.0734;
311.7000;1.1355;0.0687;
312.0000;1.1363;0.0806;
312.3000;1.1363;0.0924;
312.6000;1.1363;0.0877;
312.9000;1.1363;0.0877;
313.2000;1.1380;0.0877;
313.5000;1.1380;0.0806;
313.8000;1.1380;0.0806;
314.1000;1.1380;0.0900;
314.4000;1.1388;0.1019;
314.7000;1.1388;0.0924;
315.0000;1.1372;0.0853;
315.3000;1.1404;0.0971;
315.6000;1.1404;0.0924;
315.9000;1.1380;0.0806;
316.2000;1.1355;0.0734;
316.5000;1.1372;0.0877;
316.8000;1.1347;0.0711;
317.1000;1.1388;0.0782;
317.4000;1.1388;0.0616;
317.7000;1.1380;0.0545;
318.0000;1.1388;0.0711;
318.3000;1.1380;0.0640;
318.6000;1.1380;0.0616;
318.9000;1.1404;0.0663;
319.2000;1.1380;0.0711;
319.5000;1.1396;0.0782;
319.8000;1.1404;0.0806;
320.1000;1.1388;0.0711;
320.4000;1.1372;0.0758;
320.7000;1.1388;0.0829;
321.0000;1.1380;0.0877;
321.3000;1.1363;0.0853;
321.6000;1.1372;0.0782;
321.9000;1.1363;0.0806;
322.2000;1.1388;0.0782;
322.5000;1.1380;0.0782;
322.8000;1.1445;0.0948;
323.1000;1.1388;0.0948;
323.4000;1.1396;0.0924;
323.7000;1.1380;0.0900;
324.0000;1.1372;0.0877;
324.3000;1.1363;0.0829;
324.6000;1.1380;0.0924;
324.9000;1.1380;0.0924;
325.2000;1.1363;0.0877;
325.5000;1.1355;0.0782;
325.8000;1.1388;0.0806;
326.1000;1.1355;0.0877;
326.4000;1.1380;0.0948;
326.7000;1.1363;0.0924;
327.0000;1.1355;0.0924;
327.3000;1.1372;0.0877;
327.6000;1.1355;0.0900;
327.9000;1.1363;0.0829;
328.2000;1.1363;0.0782;
328.5000;1.1355;0.0829;
328.8000;1.1404;0.0829;
329.1000;1.1380;0.0734;
329.4000;1.1372;0.0734;
329.7000;1.1380;0.0734;
330.0000;1.1388;0.0782;
330.3000;1.1388;0.0782;
330.6000;1.1380;0.0853;
330.9000;1.1388;0.0948;
331.2000;1.1388;0.0948;
331.5000;1.1380;0.0948;
331.8000;1.1380;0.0971;
332.1000;1.1372;0.0995;
332.4000;1.1388;0.1090;
332.7000;1.1412;0.1185;
333.0000;1.1388;0.1114;
333.3000;1.1372;0.1066;
333.6000;1.1396;0.1090;
333.9000;1.1380;0.1019;
334.2000;1.1372;0.0971;
334.5000;1.1396;0.1042;
334.8000;1.1380;0.0971;
335.1000;1.1388;0.0995;
335.4000;1.1388;0.1042;
335.7000;1.1380;0.0995;
336.0000;1.1380;0.0971;
336.3000;1.1396;0.1066;
336.6000;1.1372;0.0971;
336.9000;1.1355;0.0948;
337.2000;1.1347;0.0877;
337.5000;1.1363;0.0877;
337.8000;1.1355;0.0900;
338.1000;1.1437;0.1137;
338.4000;1.1372;0.0924;
338.7000;1.1372;0.0829;
339.0000;1.1372;0.0853;
339.3000;1.1339;0.0829;
339.6000;1.1363;0.0829;
339.9000;1.1380;0.0829;
340.2000;1.1372;0.0806;
340.5000;1.1388;0.0806;
340.8000;1.1363;0.0758;
341.1000;1.1429;0.0924;
341.4000;1.1363;0.0734;
341.7000;1.1363;0.0734;
342.0000;1.1339;0.0592;
342.3000;1.1372;0.0853;
342.6000;1.1388;0.1019;
342.9000;1.1380;0.0948;
343.2000;1.1355;0.0877;
343.5000;1.1372;0.0853;
343.8000;1.1363;0.0806;
344.1000;1.1453;0.0900;
344.4000;1.1355;0.0663;
344.7000;1.1347;0.0616;
345.0000;1.1347;0.0545;
345.3000;1.1347;0.0592;
345.6000;1.1347;0.0592;
345.9000;1.1380;0.0663;
346.2000;1.1372;0.0711;
346.5000;1.1380;0.0734;
346.8000;1.1380;0.0806;
347.1000;1.1380;0.0782;
347.4000;1.1388;0.0829;
347.7000;1.1372;0.0687;
348.0000;1.1372;0.0758;
348.3000;1.1380;0.0782;
348.6000;1.1380;0.0806;
348.9000;1.1372;0.0829;
349.2000;1.1363;0.0758;
349.5000;1.1355;0.0782;
349.8000;1.1372;0.0806;
350.1000;1.1380;0.0853;
350.4000;1.1380;0.0948;
350.7000;1.1363;0.1019;
351.0000;1.1372;0.1042;
351.3000;1.1372;0.1066;
351.6000;1.1388;0.1042;
351.9000;1.1380;0.0971;
352.2000;1.1388;0.0900;
352.5000;1.1363;0.0924;
352.8000;1.1363;0.0900;
353.1000;1.1380;0.0829;
353.4000;1.1372;0.0711;
353.7000;1.1388;0.0711;
354.0000;1.1363;0.0687;
354.3000;1.1388;0.0758;
354.6000;1.1396;0.0853;
354.9000;1.1429;0.0948;
355.2000;1.1380;0.0806;
355.5000;1.1396;0.0853;
355.8000;1.1396;0.0924;
356.1000;1.1380;0.0853;
356.4000;1.1380;0.0900;
356.7000;1.1355;0.0853;
357.0000;1.1429;0.1042;
357.3000;1.1388;0.0971;
357.6000;1.1396;0.0995;
357.9000;1.1372;0.0924;
358.2000;1.1412;0.1066;
358.5000;1.1363;0.0995;
358.8000;1.1372;0.0995;
359.1000;1.1347;0.0948;
359.4000;1.1363;0.0971;
359.7000;1.1380;0.0924;
360.0000;1.1372;0.0853;
360.3000;1.1380;0.0877;
360.6000;1.1372;0.0806;
360.9000;1.1404;0.0924;
361.2000;1.1396;0.0971;
361.5000;1.1420;0.1066;
361.8000;1.1396;0.1042;
362.1000;1.1404;0.0971;
362.4000;1.1339;0.0782;
362.7000;1.1388;0.0924;
363.0000;1.1380;0.0924;
363.3000;1.1363;0.0924;
363.6000;1.1372;0.0971;
363.9000;1.1380;0.0900;
364.2000;1.1388;0.0924;
364.5000;1.1380;0.0853;
364.8000;1.1380;0.0829;
365.1000;1.1388;0.0853;
365.4000;1.1355;0.0806;
365.7000;1.1363;0.0782;
366.0000;1.1331;0.0640;
366.3000;1.1380;0.0734;
366.6000;1.1372;0.0782;
366.9000;1.1363;0.0782;
367.2000;1.1380;0.0782;
367.5000;1.1372;0.0734;
367.8000;1.1372;0.0640;
368.1000;1.1372;0.0711;
368.4000;1.1388;0.0782;
368.7000;1.1372;0.0806;
369.0000;1.1347;0.0734;
369.3000;1.1355;0.0877;
369.6000;1.1380;0.0948;
369.9000;1.1347;0.0924;
370.2000;1.1363;0.0853;
370.5000;1.1372;0.0829;
370.8000;1.1372;0.0782;
371.1000;1.1388;0.0734;
371.4000;1.1380;0.0616;
371.7000;1.1388;0.0616;
372.0000;1.1388;0.0663;
372.3000;1.1396;0.0663;
372.6000;1.1380;0.0545;
372.9000;1.1404;0.0616;
373.2000;1.1396;0.0734;
373.5000;1.1388;0.0734;
373.8000;1.1404;0.0711;
374.1000;1.1388;0.0687;
374.4000;1.1388;0.0711;
374.7000;1.1380;0.0782;
375.0000;1.1404;0.0853;
375.3000;1.1380;0.0758;
375.6000;1.1372;0.0782;
375.9000;1.1404;0.0782;
376.2000;1.1388;0.0829;
376.5000;1.1363;0.0853;
376.8000;1.1372;0.0829;
377.1000;1.1396;0.0877;
377.4000;1.1388;0.0877;
377.7000;1.1404;0.0971;
378.0000;1.1396;0.0877;
378.3000;1.1380;0.0853;
378.6000;1.1380;0.0853;
378.9000;1.1380;0.0829;
379.2000;1.1363;0.0734;
379.5000;1.1372;0.0877;
379.8000;1.1388;0.0829;
380.1000;1.1380;0.0829;
380.4000;1.1355;0.0853;
380.7000;1.1363;0.0829;
381.0000;1.1363;0.0806;
381.3000;1.1380;0.0782;
381.6000;1.1388;0.0758;
381.9000;1.1363;0.0687;
382.2000;1.1372;0.0782;
382.5000;1.1404;0.0877;
382.8000;1.1380;0.0853;
383.1000;1.1404;0.0900;
383.4000;1.1388;0.0782;
383.7000;1.1363;0.0758;
384.0000;1.1396;0.0877;
384.3000;1.1388;0.0734;
384.6000;1.1363;0.0663;
384.9000;1.1388;0.0758;
385.2000;1.1380;0.0663;
385.5000;1.1372;0.0616;
385.8000;1.1380;0.0663;
386.1000;1.1388;0.0711;
386.4000;1.1380;0.0640;
386.7000;1.1363;0.0687;
387.0000;1.1363;0.0640;
387.3000;1.1363;0.0711;
387.6000;1.1380;0.0640;
387.9000;1.1323;0.0474;
388.2000;1.1420;0.0663;
388.5000;1.1315;0.0545;
388.8000;1.1396;0.0711;
389.1000;1.1347;0.0734;
389.4000;1.1363;0.0806;
389.7000;1.1298;0.0711;
390.0000;1.1380;0.0971;
390.3000;1.1355;0.0924;
390.6000;1.1347;0.0900;
390.9000;1.1363;0.0948;
391.2000;1.1363;0.0877;
391.5000;1.1363;0.0924;
391.8000;1.1372;0.0971;
392.1000;1.1388;0.0900;
392.4000;1.1355;0.0877;
392.7000;1.1420;0.1090;
393.0000;1.1380;0.0924;
393.3000;1.1372;0.0924;
393.6000;1.1388;0.0995;
393.9000;1.1372;0.1019;
394.2000;1.1372;0.0995;
394.5000;1.1363;0.0853;
394.8000;1.1429;0.0924;
395.1000;1.1380;0.0663;
395.4000;1.1388;0.0711;
395.7000;1.1380;0.0687;
396.0000;1.1388;0.0711;
396.3000;1.1372;0.0592;
396.6000;1.1380;0.0616;
396.9000;1.1380;0.0711;
397.2000;1.1372;0.0758;
397.5000;1.1388;0.0687;
397.8000;1.1388;0.0687;
398.1000;1.1372;0.0711;
398.4000;1.1323;0.0592;
398.7000;1.1380;0.0663;
399.0000;1.1380;0.0734;
399.3000;1.1420;0.0829;
399.6000;1.1388;0.0758;
399.9000;1.1372;0.0782;
400.2000;1.1380;0.0806;
400.5000;1.1372;0.0758;
400.8000;1.1388;0.0711;
401.1000;1.1372;0.0640;
401.4000;1.1363;0.0687;
401.7000;1.1380;0.0758;
402.0000;1.1347;0.0711;
402.3000;1.1363;0.0782;
402.6000;1.1363;0.0829;
402.9000;1.1380;0.0971;
403.2000;1.1388;0.0924;
403.5000;1.1372;0.0924;
403.8000;1.1355;0.0853;
404.1000;1.1355;0.0877;
404.4000;1.1339;0.0806;
404.7000;1.1380;0.0924;
405.0000;1.1372;0.0924;
405.3000;1.1396;0.0995;
405.6000;1.1372;0.1019;
405.9000;1.1347;0.0971;
406.2000;1.1339;0.0924;
406.5000;1.1372;0.0900;
406.8000;1.1380;0.0948;
407.1000;1.1298;0.0758;
407.4000;1.1380;0.0877;
407.7000;1.1388;0.0900;
408.0000;1.1372;0.0853;
408.3000;1.1363;0.0806;
408.6000;1.1372;0.0782;
408.9000;1.1388;0.0782;
409.2000;1.1372;0.0640;
409.5000;1.1388;0.0616;
409.8000;1.1355;0.0687;
410.1000;1.1347;0.0640;
410.4000;1.1347;0.0758;
410.7000;1.1355;0.0853;
411.0000;1.1380;0.0853;
411.3000;1.1412;0.0877;
411.6000;1.1355;0.0711;
411.9000;1.1363;0.0711;
412.2000;1.1290;0.0640;
412.5000;1.1420;0.0995;
412.8000;1.1429;0.0948;
413.1000;1.1388;0.0782;
413.4000;1.1388;0.0758;
413.7000;1.1347;0.0734;
414.0000;1.1380;0.0853;
414.3000;1.1372;0.0853;
414.6000;1.1380;0.0734;
414.9000;1.1380;0.0829;
415.2000;1.1355;0.0782;
415.5000;1.1363;0.0782;
415.8000;1.1372;0.0806;
416.1000;1.1355;0.0853;
416.4000;1.1355;0.0900;
416.7000;1.1372;0.0900;
417.0000;1.1380;0.0877;
417.3000;1.1388;0.1019;
417.6000;1.1372;0.0971;
417.9000;1.1355;0.1019;
418.2000;1.1372;0.1066;
418.5000;1.1388;0.1114;
418.8000;1.1380;0.1114;
419.1000;1.1372;0.0971;
419.4000;1.1380;0.0995;
419.7000;1.1404;0.0995;
420.0000;1.1404;0.1019;
420.3000;1.1380;0.0900;
420.6000;1.1388;0.0948;
420.9000;1.1363;0.0877;
421.2000;1.1388;0.0948;
421.5000;1.1372;0.0924;
421.8000;1.1380;0.0995;
422.1000;1.1380;0.1090;
422.4000;1.1388;0.1137;
422.7000;1.1380;0.1090;
423.0000;1.1323;0.0829;
423.3000;1.1412;0.0971;
423.6000;1.1396;0.0900;
423.9000;1.1396;0.1019;
424.2000;1.1372;0.1066;
424.5000;1.1380;0.1114;
424.8000;1.1380;0.1137;
425.1000;1.1388;0.1161;
425.4000;1.1380;0.1114;
425.7000;1.1380;0.1066;
426.0000;1.1363;0.1042;
426.3000;1.1380;0.1066;
426.6000;1.1339;0.1042;
426.9000;1.1372;0.0995;
427.2000;1.1355;0.1042;
427.5000;1.1372;0.1161;
427.8000;1.1437;0.1351;
428.1000;1.1445;0.1327;
428.4000;1.1339;0.1042;
428.7000;1.1363;0.0995;
429.0000;1.1372;0.0948;
429.3000;1.1372;0.0948;
429.6000;1.1380;0.0924;
429.9000;1.1388;0.0971;
430.2000;1.1372;0.0948;
430.5000;1.1363;0.0853;
430.8000;1.1372;0.0948;
431.1000;1.1372;0.1066;
431.4000;1.1372;0.1114;
431.7000;1.1363;0.1185;
432.0000;1.1355;0.1114;
432.3000;1.1339;0.0995;
432.6000;1.1388;0.1114;
432.9000;1.1380;0.1161;
433.2000;1.1355;0.1137;
433.5000;1.1355;0.1185;
433.8000;1.1363;0.1137;
434.1000;1.1372;0.1066;
434.4000;1.1355;0.1090;
434.7000;1.1355;0.1090;
435.0000;1.1306;0.0900;
435.3000;1.1380;0.1090;
435.6000;1.1331;0.0900;
435.9000;1.1363;0.0995;
436.2000;1.1372;0.0971;
436.5000;1.1363;0.0924;
436.8000;1.1372;0.0924;
437.1000;1.1404;0.1019;
437.4000;1.1363;0.0853;
437.7000;1.1363;0.0877;
438.0000;1.1355;0.0877;
438.3000;1.1363;0.0877;
438.6000;1.1355;0.0853;
438.9000;1.1363;0.0853;
439.2000;1.1355;0.0853;
439.5000;1.1372;0.0829;
439.8000;1.1347;0.0734;
440.1000;1.1347;0.0829;
440.4000;1.1372;0.0853;
440.7000;1.1363;0.0853;
441.0000;1.1363;0.0758;
441.3000;1.1363;0.0711;
441.6000;1.1363;0.0687;
441.9000;1.1355;0.0687;
442.2000;1.1380;0.0758;
442.5000;1.1355;0.0734;
442.8000;1.1372;0.0734;
443.1000;1.1380;0.0829;
443.4000;1.1363;0.0782;
443.7000;1.1363;0.0782;
444.0000;1.1372;0.0758;
444.3000;1.1355;0.0734;
444.6000;1.1355;0.0829;
444.9000;1.1355;0.0782;
445.2000;1.1372;0.0782;
445.5000;1.1363;0.0758;
445.8000;1.1388;0.0853;
446.1000;1.1380;0.0900;
446.4000;1.1339;0.0806;
446.7000;1.1363;0.0924;
447.0000;1.1315;0.0734;
447.3000;1.1363;0.0948;
447.6000;1.1339;0.0900;
447.9000;1.1355;0.0829;
448.2000;1.1380;0.0782;
448.5000;1.1331;0.0663;
448.8000;1.1323;0.0711;
449.1000;1.1412;0.0995;
449.4000;1.1363;0.0877;
449.7000;1.1339;0.0829;
450.0000;1.1404;0.1019;
450.3000;1.1412;0.0995;
450.6000;1.1380;0.0877;
450.9000;1.1331;0.0829;
451.2000;1.1372;0.0924;
451.5000;1.1363;0.0971;
451.8000;1.1363;0.0948;
452.1000;1.1363;0.0900;
452.4000;1.1372;0.0877;
452.7000;1.1372;0.0853;
453.0000;1.1388;0.0853;
453.3000;1.1331;0.0711;
453.6000;1.1380;0.0806;
453.9000;1.1331;0.0640;
454.2000;1.1380;0.0877;
454.5000;1.1380;0.0948;
454.8000;1.1372;0.0971;
455.1000;1.1372;0.1066;
455.4000;1.1339;0.0995;
455.7000;1.1388;0.1161;
456.0000;1.1380;0.1208;
456.3000;1.1380;0.1161;
456.6000;1.1355;0.1232;
456.9000;1.1388;0.1327;
457.2000;1.1380;0.1208;
457.5000;1.1372;0.1185;
457.8000;1.1388;0.1185;
458.1000;1.1429;0.1256;
458.4000;1.1372;0.1090;
458.7000;1.1355;0.0995;
459.0000;1.1331;0.0877;
459.3000;1.1363;0.0948;
459.6000;1.1347;0.0948;
459.9000;1.1347;0.0900;
460.2000;1.1380;0.0948;
460.5000;1.1347;0.0900;
460.8000;1.1372;0.0971;
461.1000;1.1380;0.0995;
461.4000;1.1363;0.0995;
461.7000;1.1347;0.1019;
462.0000;1.1355;0.1066;
462.3000;1.1355;0.1019;
462.6000;1.1347;0.1185;
462.9000;1.1347;0.1090;
463.2000;1.1347;0.1019;
463.5000;1.1363;0.1066;
463.8000;1.1372;0.1042;
464.1000;1.1355;0.0924;
464.4000;1.1380;0.0853;
464.7000;1.1380;0.0900;
465.0000;1.1372;0.0877;
465.3000;1.1372;0.0806;
465.6000;1.1363;0.0782;
465.9000;1.1388;0.0782;
466.2000;1.1372;0.0782;
466.5000;1.1380;0.0853;
466.8000;1.1380;0.0829;
467.1000;1.1396;0.0948;
467.4000;1.1388;0.0995;
467.7000;1.1404;0.0877;
468.0000;1.1396;0.0924;
468.3000;1.1388;0.0877;
468.6000;1.1388;0.0877;
468.9000;1.1388;0.0853;
469.2000;1.1372;0.0758;
469.5000;1.1396;0.0806;
469.8000;1.1372;0.0782;
470.1000;1.1363;0.0853;
470.4000;1.1331;0.0687;
470.7000;1.1396;0.0900;
471.0000;1.1404;0.0971;
471.3000;1.1380;0.0948;
471.6000;1.1380;0.0853;
471.9000;1.1372;0.0853;
472.2000;1.1404;0.0924;
472.5000;1.1388;0.0829;
472.8000;1.1388;0.0900;
473.1000;1.1355;0.0829;
473.4000;1.1355;0.0806;
473.7000;1.1380;0.0782;
474.0000;1.1347;0.0758;
474.3000;1.1355;0.0782;
474.6000;1.1355;0.0853;
474.9000;1.1363;0.0948;
475.2000;1.1363;0.0948;
475.5000;1.1363;0.0948;
475.8000;1.1372;0.1019;
476.1000;1.1363;0.1019;
476.4000;1.1355;0.1042;
476.7000;1.1380;0.1090;
477.0000;1.1363;0.1019;
477.3000;1.1372;0.0900;
477.6000;1.1388;0.0924;
477.9000;1.1372;0.0924;
478.2000;1.1372;0.0924;
478.5000;1.1363;0.0924;
478.8000;1.1372;0.0924;
479.1000;1.1372;0.0971;
479.4000;1.1363;0.0971;
479.7000;1.1372;0.0924;
480.0000;1.1380;0.0877;
480.3000;1.1404;0.0853;
480.6000;1.1363;0.0758;
480.9000;1.1355;0.0734;
481.2000;1.1363;0.0782;
481.5000;1.1388;0.0806;
481.8000;1.1355;0.0711;
482.1000;1.1363;0.0734;
482.4000;1.1363;0.0734;
482.7000;1.1363;0.0782;
483.0000;1.1380;0.0829;
483.3000;1.1363;0.0829;
483.6000;1.1429;0.1019;
483.9000;1.1355;0.0853;
484.2000;1.1453;0.1066;
484.5000;1.1372;0.0782;
484.8000;1.1429;0.0924;
485.1000;1.1355;0.0806;
485.4000;1.1363;0.0782;
485.7000;1.1339;0.0711;
486.0000;1.1372;0.0782;
486.3000;1.1363;0.0782;
486.6000;1.1355;0.0782;
486.9000;1.1396;0.0877;
487.2000;1.1355;0.0853;
487.5000;1.1355;0.0924;
487.8000;1.1331;0.0971;
488.1000;1.1347;0.1066;
488.4000;1.1355;0.1066;
488.7000;1.1388;0.1161;
489.0000;1.1339;0.1066;
489.3000;1.1363;0.1161;
489.6000;1.1363;0.1090;
489.9000;1.1355;0.1090;
490.2000;1.1363;0.1066;
490.5000;1.1363;0.0995;
490.8000;1.1372;0.1019;
491.1000;1.1339;0.0971;
491.4000;1.1355;0.0948;
491.7000;1.1388;0.0995;
492.0000;1.1380;0.0853;
492.3000;1.1347;0.0924;
492.6000;1.1331;0.0806;
492.9000;1.1363;0.0900;
493.2000;1.1372;0.0924;
493.5000;1.1347;0.0900;
493.8000;1.1363;0.0806;
494.1000;1.1355;0.0758;
494.4000;1.1347;0.0711;
494.7000;1.1388;0.0877;
495.0000;1.1306;0.0687;
495.3000;1.1331;0.0806;
495.6000;1.1355;0.0924;
495.9000;1.1363;0.0900;
496.2000;1.1404;0.0924;
496.5000;1.1355;0.0877;
496.8000;1.1347;0.0829;
497.1000;1.1363;0.0758;
497.4000;1.1347;0.0758;
497.7000;1.1249;0.0569;
498.0000;1.1355;0.0853;
498.3000;1.1363;0.0829;
498.6000;1.1363;0.0711;
498.9000;1.1363;0.0663;
499.2000;1.1355;0.0734;
499.5000;1.1372;0.0782;
499.8000;1.1355;0.0640;
500.1000;1.1380;0.0782;
500.4000;1.1363;0.0806;
500.7000;1.1372;0.0853;
501.0000;1.1363;0.0782;
501.3000;1.1355;0.0687;
501.6000;1.1347;0.0592;
501.9000;1.1355;0.0687;
502.2000;1.1315;0.0569;
502.5000;1.1372;0.0758;
502.8000;1.1372;0.0734;
503.1000;1.1323;0.0734;
503.4000;1.1355;0.0829;
503.7000;1.1380;0.0853;
504.0000;1.1372;0.0782;
504.3000;1.1331;0.0711;
504.6000;1.1396;0.0829;
504.9000;1.1380;0.0782;
505.2000;1.1363;0.0758;
505.5000;1.1372;0.0806;
505.8000;1.1412;0.0948;
506.1000;1.1380;0.0877;
506.4000;1.1355;0.0829;
506.7000;1.1347;0.0758;
507.0000;1.1363;0.0829;
507.3000;1.1388;0.0853;
507.6000;1.1404;0.0995;
507.9000;1.1331;0.0758;
508.2000;1.1363;0.0853;
508.5000;1.1380;0.0829;
508.8000;1.1412;0.0877;
509.1000;1.1339;0.0640;
509.4000;1.1372;0.0711;
509.7000;1.1380;0.0758;
510.0000;1.1355;0.0640;
510.3000;1.1355;0.0734;
510.6000;1.1388;0.0687;
510.9000;1.1372;0.0711;
511.2000;1.1363;0.0782;
511.5000;1.1355;0.0782;
511.8000;1.1347;0.0829;
512.1000;1.1347;0.0758;
512.4000;1.1363;0.0758;
512.7000;1.1355;0.0758;
513.0000;1.1355;0.0687;
513.3000;1.1363;0.0663;
513.6000;1.1363;0.0687;
513.9000;1.1363;0.0640;
514.2000;1.1363;0.0663;
514.5000;1.1363;0.0687;
514.8000;1.1372;0.0758;
515.1000;1.1388;0.0853;
515.4000;1.1372;0.0877;
515.7000;1.1372;0.0877;
516.0000;1.1372;0.0924;
516.3000;1.1363;0.0853;
516.6000;1.1372;0.0853;
516.9000;1.1355;0.0806;
517.2000;1.1363;0.0806;
517.5000;1.1355;0.0782;
517.8000;1.1380;0.0734;
518.1000;1.1355;0.0663;
518.4000;1.1339;0.0663;
518.7000;1.1380;0.0782;
519.0000;1.1298;0.0758;
519.3000;1.1347;0.0900;
519.6000;1.1372;0.0995;
519.9000;1.1347;0.1019;
520.2000;1.1363;0.1019;
520.5000;1.1355;0.0995;
520.8000;1.1355;0.0948;
521.1000;1.1363;0.0995;
521.4000;1.1380;0.0995;
521.7000;1.1355;0.0948;
522.0000;1.1355;0.0877;
522.3000;1.1355;0.0829;
522.6000;1.1372;0.0900;
522.9000;1.1363;0.0853;
523.2000;1.1347;0.0782;
523.5000;1.1372;0.0877;
523.8000;1.1355;0.0900;
524.1000;1.1347;0.0853;
524.4000;1.1323;0.0758;
524.7000;1.1298;0.0640;
525.0000;1.1363;0.0806;
525.3000;1.1404;0.0877;
525.6000;1.1363;0.0734;
525.9000;1.1347;0.0829;
526.2000;1.1347;0.0782;
526.5000;1.1347;0.0734;
526.8000;1.1355;0.0782;
527.1000;1.1282;0.0687;
527.4000;1.1315;0.0806;
527.7000;1.1347;0.0900;
528.0000;1.1355;0.0900;
528.3000;1.1347;0.0924;
528.6000;1.1355;0.0924;
528.9000;1.1347;0.0853;
529.2000;1.1339;0.0900;
529.5000;1.1355;0.0853;
529.8000;1.1339;0.0829;
530.1000;1.1347;0.0806;
530.4000;1.1388;0.0853;
530.7000;1.1380;0.0829;
531.0000;1.1363;0.0877;
531.3000;1.1363;0.0877;
531.6000;1.1355;0.0900;
531.9000;1.1363;0.0853;
532.2000;1.1323;0.0734;
532.5000;1.1347;0.0758;
532.8000;1.1404;0.0900;
533.1000;1.1355;0.0758;
533.4000;1.1355;0.0758;
533.7000;1.1355;0.0711;
534.0000;1.1355;0.0782;
534.3000;1.1347;0.0806;
534.6000;1.1355;0.0829;
534.9000;1.1420;0.0971;
535.2000;1.1372;0.0853;
535.5000;1.1372;0.0877;
535.8000;1.1372;0.0853;
536.1000;1.1372;0.0829;
536.4000;1.1372;0.0782;
536.7000;1.1347;0.0734;
537.0000;1.1420;0.0900;
537.3000;1.1339;0.0711;
537.6000;1.1347;0.0758;
537.9000;1.1363;0.0782;
538.2000;1.1355;0.0758;
538.5000;1.1355;0.0806;
538.8000;1.1355;0.0829;
539.1000;1.1363;0.0782;
539.4000;1.1363;0.0734;
539.7000;1.1355;0.0734;
540.0000;1.1347;0.0711;
540.3000;1.1355;0.0758;
540.6000;1.1355;0.0806;
540.9000;1.1355;0.0758;
541.2000;1.1323;0.0711;
541.5000;1.1363;0.0806;
541.8000;1.1347;0.0806;
542.1000;1.1347;0.0853;
542.4000;1.1380;0.0829;
542.7000;1.1323;0.0687;
543.0000;1.1420;0.0900;
543.3000;1.1363;0.0711;
543.6000;1.1331;0.0640;
543.9000;1.1355;0.0592;
544.2000;1.1290;0.0332;
544.5000;1.1396;0.0616;
544.8000;1.1339;0.0450;
545.1000;1.1363;0.0521;
545.4000;1.1347;0.0498;
545.7000;1.1363;0.0450;
546.0000;1.1355;0.0450;
546.3000;1.1355;0.0521;
546.6000;1.1363;0.0545;
546.9000;1.1363;0.0592;
547.2000;1.1347;0.0545;
547.5000;1.1347;0.0663;
547.8000;1.1355;0.0640;
548.1000;1.1347;0.0545;
548.4000;1.1363;0.0640;
548.7000;1.1363;0.0640;
549.0000;1.1347;0.0592;
549.3000;1.1363;0.0569;
549.6000;1.1372;0.0545;
549.9000;1.1363;0.0545;
550.2000;1.1355;0.0474;
550.5000;1.1323;0.0450;
550.8000;1.1372;0.0545;
551.1000;1.1355;0.0545;
551.4000;1.1355;0.0616;
551.7000;1.1347;0.0616;
552.0000;1.1380;0.0734;
552.3000;1.1396;0.0711;
552.6000;1.1363;0.0616;
552.9000;1.1347;0.0545;
553.2000;1.1372;0.0545;
553.5000;1.1372;0.0569;
553.8000;1.1347;0.0616;
554.1000;1.1355;0.0663;
554.4000;1.1355;0.0663;
554.7000;1.1372;0.0663;
555.0000;1.1363;0.0687;
555.3000;1.1355;0.0592;
555.6000;1.1363;0.0592;
555.9000;1.1372;0.0687;
556.2000;1.1363;0.0663;
556.5000;1.1347;0.0640;
556.8000;1.1355;0.0687;
557.1000;1.1372;0.0758;
557.4000;1.1363;0.0711;
557.7000;1.1347;0.0640;
558.0000;1.1347;0.0640;
558.3000;1.1372;0.0758;
558.6000;1.1388;0.0758;
558.9000;1.1372;0.0663;
559.2000;1.1396;0.0687;
559.5000;1.1363;0.0616;
559.8000;1.1347;0.0592;
560.1000;1.1363;0.0640;
560.4000;1.1363;0.0616;
560.7000;1.1355;0.0592;
561.0000;1.1363;0.0498;
561.3000;1.1380;0.0498;
561.6000;1.1372;0.0498;
561.9000;1.1347;0.0521;
562.2000;1.1363;0.0592;
562.5000;1.1331;0.0592;
562.8000;1.1372;0.0663;
563.1000;1.1363;0.0616;
563.4000;1.1380;0.0592;
563.7000;1.1372;0.0569;
564.0000;1.1363;0.0498;
564.3000;1.1347;0.0545;
564.6000;1.1396;0.0711;
564.9000;1.1363;0.0616;
565.2000;1.1306;0.0474;
565.5000;1.1347;0.0663;
565.8000;1.1363;0.0616;
566.1000;1.1429;0.0829;
566.4000;1.1534;0.1090;
566.7000;1.1347;0.0687;
567.0000;1.1429;0.0924;
567.3000;1.1355;0.0782;
567.6000;1.1315;0.0616;
567.9000;1.1380;0.0782;
568.2000;1.1355;0.0734;
568.5000;1.1355;0.0711;
568.8000;1.1380;0.0806;
569.1000;1.1363;0.0806;
569.4000;1.1347;0.0734;
569.7000;1.1355;0.0711;
570.0000;1.1372;0.0758;
570.3000;1.1355;0.0734;
570.6000;1.1372;0.0734;
570.9000;1.1339;0.0782;
571.2000;1.1347;0.0782;
571.5000;1.1372;0.0877;
571.8000;1.1347;0.0806;
572.1000;1.1355;0.0877;
572.4000;1.1363;0.0900;
572.7000;1.1363;0.0900;
573.0000;1.1363;0.0924;
573.3000;1.1380;0.0900;
573.6000;1.1363;0.0782;
573.9000;1.1380;0.0853;
574.2000;1.1355;0.0758;
574.5000;1.1355;0.0758;
574.8000;1.1363;0.0782;
575.1000;1.1363;0.0758;
575.4000;1.1339;0.0616;
575.7000;1.1404;0.0758;
576.0000;1.1339;0.0663;
576.3000;1.1355;0.0640;
576.6000;1.1355;0.0545;
576.9000;1.1396;0.0758;
577.2000;1.1355;0.0616;
577.5000;1.1372;0.0663;
577.8000;1.1355;0.0663;
578.1000;1.1347;0.0711;
578.4000;1.1372;0.0663;
578.7000;1.1347;0.0616;
579.0000;1.1347;0.0663;
579.3000;1.1355;0.0640;
579.6000;1.1339;0.0498;
579.9000;1.1347;0.0474;
580.2000;1.1355;0.0592;
580.5000;1.1355;0.0640;
580.8000;1.1339;0.0663;
581.1000;1.1323;0.0640;
581.4000;1.1347;0.0640;
581.7000;1.1347;0.0663;
582.0000;1.1339;0.0663;
582.3000;1.1347;0.0663;
582.6000;1.1347;0.0687;
582.9000;1.1347;0.0711;
583.2000;1.1347;0.0782;
583.5000;1.1355;0.0853;
583.8000;1.1347;0.0853;
584.1000;1.1347;0.0853;
584.4000;1.1363;0.0877;
584.7000;1.1347;0.0853;
585.0000;1.1347;0.0877;
585.3000;1.1355;0.0900;
585.6000;1.1363;0.0782;
585.9000;1.1363;0.0782;
586.2000;1.1347;0.0758;
586.5000;1.1347;0.0687;
586.8000;1.1355;0.0758;
587.1000;1.1380;0.0853;
587.4000;1.1315;0.0616;
587.7000;1.1347;0.0734;
588.0000;1.1355;0.0663;
588.3000;1.1347;0.0687;
588.6000;1.1380;0.0734;
588.9000;1.1372;0.0758;
589.2000;1.1347;0.0687;
589.5000;1.1323;0.0616;
589.8000;1.1315;0.0616;
590.1000;1.1363;0.0734;
590.4000;1.1372;0.0758;
590.7000;1.1363;0.0853;
591.0000;1.1339;0.0900;
591.3000;1.1347;0.0924;
591.6000;1.1380;0.1042;
591.9000;1.1347;0.0948;
592.2000;1.1339;0.0924;
592.5000;1.1380;0.1066;
592.8000;1.1347;0.0877;
593.1000;1.1355;0.0877;
593.4000;1.1339;0.0877;
593.7000;1.1396;0.0971;
594.0000;1.1355;0.0877;
594.3000;1.1355;0.0900;
594.6000;1.1372;0.0853;
594.9000;1.1404;0.0971;
595.2000;1.1355;0.0829;
595.5000;1.1323;0.0758;
595.8000;1.1372;0.0829;
596.1000;1.1339;0.0687;
596.4000;1.1347;0.0758;
596.7000;1.1347;0.0687;
597.0000;1.1363;0.0734;
597.3000;1.1372;0.0734;
597.6000;1.1339;0.0592;
597.9000;1.1363;0.0687;
598.2000;1.1363;0.0734;
598.5000;1.1380;0.0782;
598.8000;1.1388;0.0806;
599.1000;1.1347;0.0877;
599.4000;1.1347;0.0806;
599.7000;1.1298;0.0640;
600.0000;1.1331;0.0734;
600.3000;1.1306;0.0403;
600.6000;1.1363;0.0308;
600.9000;1.1306;-0.0071;
601.2000;1.1241;-0.0450;
601.5000;1.1168;-0.0782;
601.8000;1.1005;-0.1232;
602.1000;1.1095;-0.0924;
602.4000;1.0932;-0.1279;
602.7000;1.0777;-0.1659;
603.0000;1.0794;-0.1611;
603.3000;1.0729;-0.1824;
603.6000;1.0647;-0.1943;
603.9000;1.0582;-0.2132;
604.2000;1.0525;-0.2227;
604.5000;1.0484;-0.2346;
604.8000;1.0435;-0.2322;
605.1000;1.0379;-0.2393;
605.4000;1.0346;-0.2417;
605.7000;1.0273;-0.2488;
606.0000;1.0248;-0.2535;
606.3000;1.0199;-0.2630;
606.6000;1.0159;-0.2606;
606.9000;1.0118;-0.2630;
607.2000;1.0069;-0.2748;
607.5000;1.0037;-0.2819;
607.8000;1.0004;-0.2819;
608.1000;0.9980;-0.2796;
608.4000;0.9939;-0.2891;
608.7000;0.9923;-0.2938;
609.0000;0.9890;-0.2962;
609.3000;0.9849;-0.3009;
609.6000;0.9817;-0.2938;
609.9000;0.9817;-0.2962;
610.2000;0.9776;-0.3056;
610.5000;0.9727;-0.3222;
610.8000;0.9678;-0.3199;
611.1000;0.9646;-0.3222;
611.4000;0.9646;-0.3080;
611.7000;0.9630;-0.3104;
612.0000;0.9573;-0.3151;
612.3000;0.9573;-0.3151;
612.6000;0.9556;-0.3151;
612.9000;0.9524;-0.3175;
613.2000;0.9499;-0.3175;
613.5000;0.9467;-0.3127;
613.8000;0.9491;-0.3056;
614.1000;0.9410;-0.3175;
614.4000;0.9385;-0.3246;
614.7000;0.9402;-0.3199;
615.0000;0.9288;-0.3412;
615.3000;0.9337;-0.3270;
615.6000;0.9296;-0.3412;
615.9000;0.9361;-0.3293;
616.2000;0.9353;-0.3222;
616.5000;0.9271;-0.3341;
616.8000;0.9255;-0.3270;
617.1000;0.9231;-0.3293;
617.4000;0.9206;-0.3364;
617.7000;0.9198;-0.3459;
618.0000;0.9166;-0.3459;
618.3000;0.9101;-0.3578;
618.6000;0.9141;-0.3341;
618.9000;0.9125;-0.3270;
619.2000;0.9084;-0.3364;
619.5000;0.9101;-0.3317;
619.8000;0.9076;-0.3364;
620.1000;0.9068;-0.3246;
620.4000;0.9060;-0.3293;
620.7000;0.9052;-0.3246;
621.0000;0.9035;-0.3222;
621.3000;0.8978;-0.3364;
621.6000;0.8978;-0.3293;
621.9000;0.8987;-0.3270;
622.2000;0.8970;-0.3293;
622.5000;0.8954;-0.3270;
622.8000;0.8954;-0.3270;
623.1000;0.8954;-0.3246;
623.4000;0.8913;-0.3364;
623.7000;0.8889;-0.3364;
624.0000;0.8881;-0.3364;
624.3000;0.8840;-0.3483;
624.6000;0.8864;-0.3435;
624.9000;0.8848;-0.3554;
625.2000;0.8848;-0.3507;
625.5000;0.8816;-0.3554;
625.8000;0.8791;-0.3649;
626.1000;0.8783;-0.3649;
626.4000;0.8799;-0.3601;
626.7000;0.8759;-0.3649;
627.0000;0.8775;-0.3435;
627.3000;0.8759;-0.3459;
627.6000;0.8759;-0.3435;
627.9000;0.8734;-0.3530;
628.2000;0.8710;-0.3530;
628.5000;0.8718;-0.3507;
628.8000;0.8702;-0.3435;
629.1000;0.8685;-0.3507;
629.4000;0.8694;-0.3507;
629.7000;0.8669;-0.3459;
630.0000;0.8669;-0.3459;
630.3000;0.8669;-0.3412;
630.6000;0.8645;-0.3459;
630.9000;0.8628;-0.3578;
631.2000;0.8628;-0.3507;
631.5000;0.8637;-0.3507;
631.8000;0.8645;-0.3435;
632.1000;0.8580;-0.3578;
632.4000;0.8604;-0.3530;
632.7000;0.8588;-0.3625;
633.0000;0.8612;-0.3459;
633.3000;0.8571;-0.3554;
633.6000;0.8555;-0.3530;
633.9000;0.8563;-0.3483;
634.2000;0.8547;-0.3530;
634.5000;0.8523;-0.3530;
634.8000;0.8514;-0.3483;
635.1000;0.8514;-0.3459;
635.4000;0.8523;-0.3435;
635.7000;0.8490;-0.3483;
636.0000;0.8482;-0.3578;
636.3000;0.8490;-0.3649;
636.6000;0.8490;-0.3720;
636.9000;0.8466;-0.3672;
637.2000;0.8523;-0.3554;
637.5000;0.8457;-0.3862;
637.8000;0.8433;-0.3838;
638.1000;0.8457;-0.3696;
638.4000;0.8400;-0.3815;
638.7000;0.8392;-0.3886;
639.0000;0.8400;-0.3791;
639.3000;0.8400;-0.3672;
639.6000;0.8360;-0.3720;
639.9000;0.8368;-0.3625;
640.2000;0.8433;-0.3483;
640.5000;0.8384;-0.3578;
640.8000;0.8384;-0.3483;
641.1000;0.8384;-0.3435;
641.4000;0.8319;-0.3601;
641.7000;0.8376;-0.3530;
642.0000;0.8384;-0.3459;
642.3000;0.8392;-0.3412;
642.6000;0.8352;-0.3483;
642.9000;0.8327;-0.3554;
643.2000;0.8311;-0.3601;
643.5000;0.8360;-0.3483;
643.8000;0.8319;-0.3601;
644.1000;0.8303;-0.3578;
644.4000;0.8295;-0.3625;
644.7000;0.8287;-0.3696;
645.0000;0.8287;-0.3696;
645.3000;0.8311;-0.3720;
645.6000;0.8278;-0.3720;
645.9000;0.8278;-0.3649;
646.2000;0.8270;-0.3625;
646.5000;0.8270;-0.3578;
646.8000;0.8270;-0.3578;
647.1000;0.8278;-0.3483;
647.4000;0.8246;-0.3483;
647.7000;0.8246;-0.3507;
648.0000;0.8246;-0.3459;
648.3000;0.8221;-0.3507;
648.6000;0.8221;-0.3507;
648.9000;0.8205;-0.3601;
649.2000;0.8221;-0.3578;
649.5000;0.8197;-0.3554;
649.8000;0.8205;-0.3554;
650.1000;0.8197;-0.3554;
650.4000;0.8181;-0.3601;
650.7000;0.8246;-0.3435;
651.0000;0.8164;-0.3625;
651.3000;0.8164;-0.3672;
651.6000;0.8164;-0.3649;
651.9000;0.8164;-0.3578;
652.2000;0.8156;-0.3530;
652.5000;0.8140;-0.3649;
652.8000;0.8148;-0.3507;
653.1000;0.8148;-0.3483;
653.4000;0.8132;-0.3530;
653.7000;0.8132;-0.3507;
654.0000;0.8140;-0.3459;
654.3000;0.8124;-0.3530;
654.6000;0.8107;-0.3578;
654.9000;0.8107;-0.3601;
655.2000;0.8107;-0.3625;
655.5000;0.8099;-0.3601;
655.8000;0.8099;-0.3578;
656.1000;0.8091;-0.3601;
656.4000;0.8099;-0.3530;
656.7000;0.8059;-0.3578;
657.0000;0.8124;-0.3364;
657.3000;0.8091;-0.3459;
657.6000;0.8132;-0.3388;
657.9000;0.8067;-0.3507;
658.2000;0.8018;-0.3720;
658.5000;0.8067;-0.3649;
658.8000;0.8059;-0.3744;
659.1000;0.8042;-0.3791;
659.4000;0.7961;-0.3957;
659.7000;0.8018;-0.3838;
660.0000;0.8034;-0.3744;
660.3000;0.8083;-0.3507;
660.6000;0.7993;-0.3696;
660.9000;0.8010;-0.3672;
661.2000;0.8010;-0.3625;
661.5000;0.8002;-0.3578;
661.8000;0.7985;-0.3720;
662.1000;0.7985;-0.3672;
662.4000;0.8059;-0.3483;
662.7000;0.8010;-0.3578;
663.0000;0.7985;-0.3672;
663.3000;0.7993;-0.3672;
663.6000;0.7985;-0.3791;
663.9000;0.7945;-0.3886;
664.2000;0.7961;-0.3744;
664.5000;0.7937;-0.3767;
664.8000;0.7953;-0.3791;
665.1000;0.7945;-0.3838;
665.4000;0.7961;-0.3838;
665.7000;0.7945;-0.3815;
666.0000;0.7953;-0.3838;
666.3000;0.7920;-0.3838;
666.6000;0.7953;-0.3838;
666.9000;0.7928;-0.3886;
667.2000;0.7928;-0.3933;
667.5000;0.7888;-0.3957;
667.8000;0.7904;-0.3909;
668.1000;0.7912;-0.3815;
668.4000;0.7912;-0.3838;
668.7000;0.7920;-0.3838;
669.0000;0.7912;-0.3909;
669.3000;0.7888;-0.3909;
669.6000;0.7896;-0.3957;
669.9000;0.7896;-0.3933;
670.2000;0.7888;-0.3957;
670.5000;0.7880;-0.3980;
670.8000;0.7888;-0.4004;
671.1000;0.7871;-0.4052;
671.4000;0.7880;-0.3933;
671.7000;0.7863;-0.3886;
672.0000;0.7863;-0.3909;
672.3000;0.7855;-0.3980;
672.6000;0.7863;-0.4028;
672.9000;0.7871;-0.4028;
673.2000;0.7855;-0.3909;
673.5000;0.7855;-0.3886;
673.8000;0.7839;-0.3838;
674.1000;0.7863;-0.3815;
674.4000;0.7847;-0.3815;
674.7000;0.7831;-0.3720;
675.0000;0.7863;-0.3672;
675.3000;0.7823;-0.3696;
675.6000;0.7823;-0.3672;
675.9000;0.7823;-0.3720;
676.2000;0.7839;-0.3720;
676.5000;0.7814;-0.3672;
676.8000;0.7863;-0.3578;
677.1000;0.7790;-0.3767;
677.4000;0.7806;-0.3744;
677.7000;0.7806;-0.3767;
678.0000;0.7806;-0.3720;
678.3000;0.7806;-0.3744;
678.6000;0.7798;-0.3791;
678.9000;0.7725;-0.3957;
679.2000;0.7798;-0.3744;
679.5000;0.7782;-0.3838;
679.8000;0.7790;-0.3815;
680.1000;0.7806;-0.3767;
680.4000;0.7806;-0.3767;
680.7000;0.7741;-0.3957;
681.0000;0.7766;-0.3791;
681.3000;0.7749;-0.3886;
681.6000;0.7790;-0.3862;
681.9000;0.7757;-0.3957;
682.2000;0.7676;-0.4099;
682.5000;0.7749;-0.4004;
682.8000;0.7733;-0.4028;
683.1000;0.7725;-0.4028;
683.4000;0.7733;-0.3957;
683.7000;0.7757;-0.3909;
684.0000;0.7741;-0.3886;
684.3000;0.7733;-0.3886;
684.6000;0.7725;-0.3767;
684.9000;0.7692;-0.3838;
685.2000;0.7741;-0.3720;
685.5000;0.7733;-0.3625;
685.8000;0.7709;-0.3649;
686.1000;0.7709;-0.3625;
686.4000;0.7790;-0.3459;
686.7000;0.7700;-0.3601;
687.0000;0.7709;-0.3483;
687.3000;0.7700;-0.3530;
687.6000;0.7700;-0.3341;
687.9000;0.7709;-0.3341;
688.2000;0.7692;-0.3388;
688.5000;0.7709;-0.3341;
688.8000;0.7684;-0.3293;
689.1000;0.7676;-0.3317;
689.4000;0.7668;-0.3341;
689.7000;0.7668;-0.3317;
690.0000;0.7684;-0.3293;
690.3000;0.7660;-0.3317;
690.6000;0.7676;-0.3222;
690.9000;0.7595;-0.3388;
691.2000;0.7668;-0.3270;
691.5000;0.7652;-0.3364;
691.8000;0.7652;-0.3341;
692.1000;0.7652;-0.3341;
692.4000;0.7660;-0.3317;
692.7000;0.7635;-0.3388;
693.0000;0.7652;-0.3435;
693.3000;0.7643;-0.3435;
693.6000;0.7635;-0.3412;
693.9000;0.7643;-0.3341;
694.2000;0.7643;-0.3388;
694.5000;0.7660;-0.3364;
694.8000;0.7643;-0.3459;
695.1000;0.7635;-0.3483;
695.4000;0.7652;-0.3507;
695.7000;0.7700;-0.3435;
696.0000;0.7643;-0.3507;
696.3000;0.7619;-0.3554;
696.6000;0.7611;-0.3578;
696.9000;0.7611;-0.3530;
697.2000;0.7627;-0.3530;
697.5000;0.7619;-0.3483;
697.8000;0.7652;-0.3364;
698.1000;0.7611;-0.3507;
698.4000;0.7619;-0.3507;
698.7000;0.7603;-0.3530;
699.0000;0.7603;-0.3530;
699.3000;0.7586;-0.3554;
699.6000;0.7595;-0.3507;
699.9000;0.7578;-0.3554;
700.2000;0.7586;-0.3554;
700.5000;0.7578;-0.3507;
700.8000;0.7595;-0.3459;
701.1000;0.7595;-0.3459;
701.4000;0.7578;-0.3388;
701.7000;0.7578;-0.3341;
702.0000;0.7578;-0.3388;
702.3000;0.7578;-0.3388;
702.6000;0.7570;-0.3435;
702.9000;0.7570;-0.3459;
703.2000;0.7546;-0.3459;
703.5000;0.7578;-0.3317;
703.8000;0.7546;-0.3293;
704.1000;0.7570;-0.3317;
704.4000;0.7546;-0.3364;
704.7000;0.7562;-0.3388;
705.0000;0.7554;-0.3412;
705.3000;0.7546;-0.3435;
705.6000;0.7530;-0.3483;
705.9000;0.7538;-0.3530;
706.2000;0.7554;-0.3483;
706.5000;0.7546;-0.3388;
706.8000;0.7530;-0.3507;
707.1000;0.7521;-0.3578;
707.4000;0.7456;-0.3696;
707.7000;0.7538;-0.3507;
708.0000;0.7513;-0.3578;
708.3000;0.7554;-0.3507;
708.6000;0.7513;-0.3578;
708.9000;0.7513;-0.3672;
709.2000;0.7513;-0.3625;
709.5000;0.7497;-0.3696;
709.8000;0.7513;-0.3578;
710.1000;0.7538;-0.3483;
710.4000;0.7497;-0.3459;
710.7000;0.7505;-0.3435;
711.0000;0.7513;-0.3388;
711.3000;0.7505;-0.3388;
711.6000;0.7521;-0.3459;
711.9000;0.7505;-0.3578;
712.2000;0.7489;-0.3554;
712.5000;0.7497;-0.3530;
712.8000;0.7497;-0.3507;
713.1000;0.7481;-0.3507;
713.4000;0.7456;-0.3530;
713.7000;0.7497;-0.3459;
714.0000;0.7497;-0.3459;
714.3000;0.7489;-0.3388;
714.6000;0.7473;-0.3388;
714.9000;0.7481;-0.3435;
715.2000;0.7497;-0.3435;
715.5000;0.7489;-0.3554;
715.8000;0.7473;-0.3625;
716.1000;0.7464;-0.3625;
716.4000;0.7473;-0.3649;
716.7000;0.7473;-0.3720;
717.0000;0.7481;-0.3791;
717.3000;0.7464;-0.3767;
717.6000;0.7464;-0.3696;
717.9000;0.7456;-0.3696;
718.2000;0.7456;-0.3625;
718.5000;0.7448;-0.3578;
718.8000;0.7456;-0.3530;
719.1000;0.7424;-0.3625;
719.4000;0.7440;-0.3483;
719.7000;0.7456;-0.3530;
720.0000;0.7440;-0.3578;
720.3000;0.7448;-0.3554;
720.6000;0.7448;-0.3649;
720.9000;0.7505;-0.3625;
721.2000;0.7440;-0.3767;
721.5000;0.7440;-0.3862;
721.8000;0.7432;-0.3886;
722.1000;0.7407;-0.3862;
722.4000;0.7424;-0.3815;
722.7000;0.7440;-0.3744;
723.0000;0.7497;-0.3554;
723.3000;0.7432;-0.3767;
723.6000;0.7432;-0.3720;
723.9000;0.7440;-0.3720;
724.2000;0.7407;-0.3815;
724.5000;0.7407;-0.3815;
724.8000;0.7416;-0.3838;
725.1000;0.7416;-0.3838;
725.4000;0.7416;-0.3862;
725.7000;0.7440;-0.3767;
726.0000;0.7424;-0.3791;
726.3000;0.7399;-0.3815;
726.6000;0.7432;-0.3767;
726.9000;0.7399;-0.3862;
727.2000;0.7456;-0.3767;
727.5000;0.7407;-0.3838;
727.8000;0.7416;-0.3815;
728.1000;0.7416;-0.3909;
728.4000;0.7407;-0.3909;
728.7000;0.7383;-0.3957;
729.0000;0.7399;-0.3933;
729.3000;0.7399;-0.3909;
729.6000;0.7391;-0.3957;
729.9000;0.7424;-0.3957;
730.2000;0.7391;-0.3957;
730.5000;0.7399;-0.3957;
730.8000;0.7399;-0.3933;
731.1000;0.7473;-0.3744;
731.4000;0.7383;-0.3909;
731.7000;0.7407;-0.3767;
732.0000;0.7448;-0.3649;
732.3000;0.7391;-0.3720;
732.6000;0.7399;-0.3696;
732.9000;0.7456;-0.3459;
733.2000;0.7383;-0.3649;
733.5000;0.7375;-0.3578;
733.8000;0.7334;-0.3720;
734.1000;0.7350;-0.3672;
734.4000;0.7367;-0.3720;
734.7000;0.7367;-0.3791;
735.0000;0.7359;-0.3815;
735.3000;0.7310;-0.3957;
735.6000;0.7367;-0.3767;
735.9000;0.7367;-0.3767;
736.2000;0.7359;-0.3886;
736.5000;0.7359;-0.3815;
736.8000;0.7359;-0.3909;
737.1000;0.7383;-0.3862;
737.4000;0.7342;-0.3933;
737.7000;0.7293;-0.4004;
738.0000;0.7310;-0.3909;
738.3000;0.7359;-0.3720;
738.6000;0.7424;-0.3625;
738.9000;0.7367;-0.3767;
739.2000;0.7350;-0.3744;
739.5000;0.7359;-0.3672;
739.8000;0.7359;-0.3696;
740.1000;0.7367;-0.3625;
740.4000;0.7359;-0.3649;
740.7000;0.7342;-0.3649;
741.0000;0.7334;-0.3720;
741.3000;0.7342;-0.3672;
741.6000;0.7334;-0.3815;
741.9000;0.7367;-0.3767;
742.2000;0.7334;-0.3862;
742.5000;0.7334;-0.3815;
742.8000;0.7318;-0.3886;
743.1000;0.7359;-0.3838;
743.4000;0.7334;-0.3886;
743.7000;0.7318;-0.3909;
744.0000;0.7318;-0.3838;
744.3000;0.7318;-0.3767;
744.6000;0.7318;-0.3815;
744.9000;0.7326;-0.3791;
745.2000;0.7318;-0.3744;
745.5000;0.7310;-0.3672;
745.8000;0.7302;-0.3625;
746.1000;0.7391;-0.3507;
746.4000;0.7310;-0.3649;
746.7000;0.7310;-0.3672;
747.0000;0.7302;-0.3767;
747.3000;0.7293;-0.3696;
747.6000;0.7302;-0.3625;
747.9000;0.7326;-0.3625;
748.2000;0.7302;-0.3696;
748.5000;0.7293;-0.3744;
748.8000;0.7302;-0.3696;
749.1000;0.7302;-0.3720;
749.4000;0.7261;-0.3838;
749.7000;0.7302;-0.3815;
750.0000;0.7310;-0.3744;
750.3000;0.7261;-0.3815;
750.6000;0.7302;-0.3696;
750.9000;0.7285;-0.3744;
751.2000;0.7334;-0.3696;
751.5000;0.7293;-0.3767;
751.8000;0.7220;-0.3957;
752.1000;0.7318;-0.3696;
752.4000;0.7310;-0.3744;
752.7000;0.7236;-0.3815;
753.0000;0.7285;-0.3649;
753.3000;0.7269;-0.3720;
753.6000;0.7375;-0.3554;
753.9000;0.7318;-0.3744;
754.2000;0.7269;-0.3886;
754.5000;0.7269;-0.3838;
754.8000;0.7318;-0.3767;
755.1000;0.7261;-0.3838;
755.4000;0.7204;-0.3862;
755.7000;0.7253;-0.3720;
756.0000;0.7269;-0.3744;
756.3000;0.7261;-0.3767;
756.6000;0.7269;-0.3791;
756.9000;0.7253;-0.3744;
757.2000;0.7245;-0.3672;
757.5000;0.7277;-0.3649;
757.8000;0.7253;-0.3744;
758.1000;0.7253;-0.3649;
758.4000;0.7277;-0.3696;
758.7000;0.7261;-0.3744;
759.0000;0.7310;-0.3649;
759.3000;0.7212;-0.3933;
759.6000;0.7261;-0.3815;
759.9000;0.7261;-0.3720;
760.2000;0.7261;-0.3767;
760.5000;0.7253;-0.3815;
760.8000;0.7253;-0.3909;
761.1000;0.7253;-0.3791;
761.4000;0.7261;-0.3767;
761.7000;0.7253;-0.3791;
762.0000;0.7253;-0.3720;
762.3000;0.7245;-0.3720;
762.6000;0.7261;-0.3720;
762.9000;0.7245;-0.3815;
763.2000;0.7261;-0.3815;
763.5000;0.7245;-0.3862;
763.8000;0.7245;-0.3838;
764.1000;0.7269;-0.3744;
764.4000;0.7245;-0.3744;
764.7000;0.7236;-0.3649;
765.0000;0.7236;-0.3625;
765.3000;0.7228;-0.3601;
765.6000;0.7228;-0.3578;
765.9000;0.7220;-0.3625;
766.2000;0.7212;-0.3696;
766.5000;0.7228;-0.3625;
766.8000;0.7228;-0.3578;
767.1000;0.7204;-0.3530;
767.4000;0.7220;-0.3507;
767.7000;0.7220;-0.3435;
768.0000;0.7196;-0.3530;
768.3000;0.7220;-0.3507;
768.6000;0.7212;-0.3483;
768.9000;0.7228;-0.3459;
769.2000;0.7228;-0.3530;
769.5000;0.7236;-0.3483;
769.8000;0.7212;-0.3530;
770.1000;0.7253;-0.3388;
770.4000;0.7212;-0.3507;
770.7000;0.7220;-0.3578;
771.0000;0.7220;-0.3601;
771.3000;0.7228;-0.3601;
771.6000;0.7212;-0.3578;
771.9000;0.7220;-0.3578;
772.2000;0.7212;-0.3625;
772.5000;0.7220;-0.3625;
772.8000;0.7220;-0.3578;
773.1000;0.7212;-0.3578;
773.4000;0.7253;-0.3435;
773.7000;0.7236;-0.3483;
774.0000;0.7212;-0.3554;
774.3000;0.7228;-0.3530;
774.6000;0.7228;-0.3649;
774.9000;0.7220;-0.3696;
775.2000;0.7188;-0.3672;
775.5000;0.7212;-0.3554;
775.8000;0.7196;-0.3601;
776.1000;0.7212;-0.3625;
776.4000;0.7204;-0.3625;
776.7000;0.7131;-0.3767;
777.0000;0.7261;-0.3507;
777.3000;0.7188;-0.3649;
777.6000;0.7131;-0.3862;
777.9000;0.7212;-0.3720;
778.2000;0.7253;-0.3578;
778.5000;0.7147;-0.3767;
778.8000;0.7188;-0.3696;
779.1000;0.7188;-0.3720;
779.4000;0.7171;-0.3720;
779.7000;0.7188;-0.3767;
780.0000;0.7220;-0.3744;
780.3000;0.7212;-0.3744;
780.6000;0.7179;-0.3744;
780.9000;0.7163;-0.3720;
781.2000;0.7171;-0.3767;
781.5000;0.7188;-0.3791;
781.8000;0.7204;-0.3696;
782.1000;0.7171;-0.3672;
782.4000;0.7179;-0.3720;
782.7000;0.7171;-0.3720;
783.0000;0.7179;-0.3649;
783.3000;0.7188;-0.3649;
783.6000;0.7188;-0.3672;
783.9000;0.7171;-0.3578;
784.2000;0.7179;-0.3507;
784.5000;0.7196;-0.3435;
784.8000;0.7196;-0.3530;
785.1000;0.7179;-0.3649;
785.4000;0.7139;-0.3815;
785.7000;0.7196;-0.3578;
786.0000;0.7204;-0.3554;
786.3000;0.7179;-0.3601;
786.6000;0.7171;-0.3578;
786.9000;0.7163;-0.3649;
787.2000;0.7204;-0.3601;
787.5000;0.7179;-0.3767;
787.8000;0.7155;-0.3815;
788.1000;0.7171;-0.3838;
788.4000;0.7188;-0.3791;
788.7000;0.7171;-0.3744;
789.0000;0.7155;-0.3791;
789.3000;0.7147;-0.3791;
789.6000;0.7163;-0.3815;
789.9000;0.7179;-0.3862;
790.2000;0.7147;-0.3909;
790.5000;0.7155;-0.3862;
790.8000;0.7171;-0.3720;
791.1000;0.7139;-0.3838;
791.4000;0.7171;-0.3767;
791.7000;0.7196;-0.3672;
792.0000;0.7163;-0.3767;
792.3000;0.7155;-0.3862;
792.6000;0.7147;-0.3886;
792.9000;0.7090;-0.4004;
793.2000;0.7155;-0.3862;
793.5000;0.7163;-0.3933;
793.8000;0.7163;-0.3862;
794.1000;0.7163;-0.3744;
794.4000;0.7171;-0.3649;
794.7000;0.7155;-0.3649;
795.0000;0.7155;-0.3696;
795.3000;0.7147;-0.3720;
795.6000;0.7147;-0.3791;
795.9000;0.7171;-0.3672;
796.2000;0.7123;-0.3696;
796.5000;0.7147;-0.3601;
796.8000;0.7139;-0.3554;
797.1000;0.7155;-0.3507;
797.4000;0.7188;-0.3412;
797.7000;0.7147;-0.3578;
798.0000;0.7163;-0.3554;
798.3000;0.7155;-0.3625;
798.6000;0.7139;-0.3672;
798.9000;0.7139;-0.3696;
799.2000;0.7147;-0.3625;
799.5000;0.7139;-0.3601;
799.8000;0.7155;-0.3530;
800.1000;0.7155;-0.3459;
800.4000;0.7171;-0.3435;
800.7000;0.7147;-0.3459;
801.0000;0.7139;-0.3435;
801.3000;0.7139;-0.3483;
801.6000;0.7147;-0.3530;
801.9000;0.7147;-0.3578;
802.2000;0.7123;-0.3578;
802.5000;0.7123;-0.3578;
802.8000;0.7090;-0.3696;
803.1000;0.7123;-0.3672;
803.4000;0.7098;-0.3696;
803.7000;0.7114;-0.3649;
804.0000;0.7131;-0.3578;
804.3000;0.7114;-0.3696;
804.6000;0.7131;-0.3601;
804.9000;0.7098;-0.3672;
805.2000;0.7123;-0.3601;
805.5000;0.7114;-0.3696;
805.8000;0.7106;-0.3649;
806.1000;0.7131;-0.3649;
806.4000;0.7139;-0.3649;
806.7000;0.7155;-0.3530;
807.0000;0.7114;-0.3530;
807.3000;0.7090;-0.3530;
807.6000;0.7139;-0.3435;
807.9000;0.7106;-0.3459;
808.2000;0.7098;-0.3435;
808.5000;0.7041;-0.3601;
808.8000;0.7106;-0.3554;
809.1000;0.7090;-0.3554;
809.4000;0.7098;-0.3554;
809.7000;0.7106;-0.3507;
810.0000;0.7114;-0.3578;
810.3000;0.7147;-0.3364;
810.6000;0.7106;-0.3459;
810.9000;0.7114;-0.3459;
811.2000;0.7106;-0.3435;
811.5000;0.7082;-0.3601;
811.8000;0.7114;-0.3578;
812.1000;0.7090;-0.3649;
812.4000;0.7106;-0.3649;
812.7000;0.7106;-0.3578;
813.0000;0.7098;-0.3554;
813.3000;0.7106;-0.3625;
813.6000;0.7098;-0.3672;
813.9000;0.7066;-0.3744;
814.2000;0.7139;-0.3601;
814.5000;0.7090;-0.3696;
814.8000;0.7074;-0.3649;
815.1000;0.7082;-0.3601;
815.4000;0.7106;-0.3483;
815.7000;0.7106;-0.3388;
816.0000;0.7098;-0.3483;
816.3000;0.7123;-0.3483;
816.6000;0.7098;-0.3507;
816.9000;0.7179;-0.3246;
817.2000;0.7082;-0.3554;
817.5000;0.7090;-0.3554;
817.8000;0.7098;-0.3483;
818.1000;0.7098;-0.3483;
818.4000;0.7106;-0.3530;
818.7000;0.7098;-0.3601;
819.0000;0.7123;-0.3601;
819.3000;0.7098;-0.3696;
819.6000;0.7106;-0.3625;
819.9000;0.7098;-0.3672;
820.2000;0.7098;-0.3696;
820.5000;0.7098;-0.3696;
820.8000;0.7106;-0.3554;
821.1000;0.7090;-0.3530;
821.4000;0.7074;-0.3507;
821.7000;0.7090;-0.3483;
822.0000;0.7131;-0.3483;
822.3000;0.7090;-0.3554;
822.6000;0.7098;-0.3507;
822.9000;0.7082;-0.3483;
823.2000;0.7082;-0.3530;
823.5000;0.7090;-0.3459;
823.8000;0.7090;-0.3412;
824.1000;0.7090;-0.3388;
824.4000;0.7106;-0.3412;
824.7000;0.7082;-0.3483;
825.0000;0.7066;-0.3483;
825.3000;0.7074;-0.3435;
825.6000;0.7098;-0.3459;
825.9000;0.7066;-0.3507;
826.2000;0.7074;-0.3483;
826.5000;0.7090;-0.3412;
826.8000;0.7074;-0.3459;
827.1000;0.7057;-0.3601;
827.4000;0.7082;-0.3554;
827.7000;0.7057;-0.3625;
828.0000;0.7066;-0.3578;
828.3000;0.7066;-0.3578;
828.6000;0.7074;-0.3601;
828.9000;0.7057;-0.3601;
829.2000;0.7066;-0.3625;
829.5000;0.7082;-0.3578;
829.8000;0.7131;-0.3364;
830.1000;0.7074;-0.3483;
830.4000;0.7074;-0.3483;
830.7000;0.7082;-0.3388;
831.0000;0.7082;-0.3459;
831.3000;0.7090;-0.3507;
831.6000;0.7066;-0.3578;
831.9000;0.7090;-0.3530;
832.2000;0.7049;-0.3578;
832.5000;0.7049;-0.3530;
832.8000;0.7074;-0.3601;
833.1000;0.7082;-0.3601;
833.4000;0.7066;-0.3554;
833.7000;0.7057;-0.3578;
834.0000;0.7041;-0.3720;
834.3000;0.7066;-0.3625;
834.6000;0.7057;-0.3578;
834.9000;0.7057;-0.3601;
835.2000;0.7057;-0.3625;
835.5000;0.7049;-0.3554;
835.8000;0.7066;-0.3625;
836.1000;0.7082;-0.3578;
836.4000;0.7074;-0.3578;
836.7000;0.7049;-0.3601;
837.0000;0.7049;-0.3720;
837.3000;0.7041;-0.3815;
837.6000;0.7057;-0.3744;
837.9000;0.7033;-0.3791;
838.2000;0.7057;-0.3720;
838.5000;0.7049;-0.3744;
838.8000;0.7049;-0.3767;
839.1000;0.7082;-0.3744;
839.4000;0.7049;-0.3862;
839.7000;0.7057;-0.3838;
840.0000;0.7123;-0.3554;
840.3000;0.7041;-0.3767;
840.6000;0.7033;-0.3767;
840.9000;0.7041;-0.3744;
841.2000;0.7049;-0.3672;
841.5000;0.7041;-0.3720;
841.8000;0.7057;-0.3720;
842.1000;0.7033;-0.3767;
842.4000;0.7049;-0.3767;
842.7000;0.7049;-0.3720;
843.0000;0.7049;-0.3720;
843.3000;0.7041;-0.3838;
843.6000;0.7041;-0.3838;
843.9000;0.7066;-0.3696;
844.2000;0.7041;-0.3791;
844.5000;0.7041;-0.3791;
844.8000;0.7033;-0.3767;
845.1000;0.7017;-0.3862;
845.4000;0.7074;-0.3672;
845.7000;0.7025;-0.3767;
846.0000;0.7041;-0.3744;
846.3000;0.7025;-0.3744;
846.6000;0.7017;-0.3696;
846.9000;0.7025;-0.3696;
847.2000;0.7049;-0.3625;
847.5000;0.7041;-0.3744;
847.8000;0.7057;-0.3649;
848.1000;0.7000;-0.3815;
848.4000;0.7025;-0.3720;
848.7000;0.7049;-0.3696;
849.0000;0.7041;-0.3767;
849.3000;0.7025;-0.3649;
849.6000;0.7025;-0.3672;
849.9000;0.7033;-0.3649;
850.2000;0.7017;-0.3672;
850.5000;0.7033;-0.3672;
850.8000;0.7025;-0.3696;
851.1000;0.7033;-0.3625;
851.4000;0.7017;-0.3601;
851.7000;0.7000;-0.3696;
852.0000;0.7017;-0.3672;
852.3000;0.7025;-0.3649;
852.6000;0.7041;-0.3578;
852.9000;0.7090;-0.3341;
853.2000;0.7025;-0.3554;
853.5000;0.7033;-0.3483;
853.8000;0.7057;-0.3530;
854.1000;0.7049;-0.3483;
854.4000;0.7041;-0.3530;
854.7000;0.7033;-0.3554;
855.0000;0.7025;-0.3530;
855.3000;0.7057;-0.3364;
855.6000;0.7017;-0.3435;
855.9000;0.7009;-0.3388;
856.2000;0.7025;-0.3483;
856.5000;0.7049;-0.3530;
856.8000;0.7074;-0.3435;
857.1000;0.7025;-0.3530;
857.4000;0.7033;-0.3601;
857.7000;0.7025;-0.3696;
858.0000;0.7041;-0.3720;
858.3000;0.7041;-0.3696;
858.6000;0.6992;-0.3791;
858.9000;0.7033;-0.3720;
859.2000;0.7041;-0.3696;
859.5000;0.7017;-0.3696;
859.8000;0.7017;-0.3696;
860.1000;0.7017;-0.3720;
860.4000;0.7033;-0.3720;
860.7000;0.7033;-0.3744;
861.0000;0.7025;-0.3767;
861.3000;0.7017;-0.3767;
861.6000;0.7009;-0.3744;
861.9000;0.7000;-0.3767;
862.2000;0.7041;-0.3649;
862.5000;0.7017;-0.3696;
862.8000;0.7017;-0.3696;
863.1000;0.7000;-0.3625;
863.4000;0.7009;-0.3625;
863.7000;0.6992;-0.3649;
864.0000;0.7033;-0.3554;
864.3000;0.7000;-0.3720;
864.6000;0.6976;-0.3791;
864.9000;0.7009;-0.3767;
865.2000;0.7000;-0.3696;
865.5000;0.7009;-0.3649;
865.8000;0.7049;-0.3578;
866.1000;0.7009;-0.3720;
866.4000;0.7041;-0.3649;
866.7000;0.7098;-0.3483;
867.0000;0.7033;-0.3672;
867.3000;0.7017;-0.3672;
867.6000;0.7066;-0.3578;
867.9000;0.7025;-0.3601;
868.2000;0.7041;-0.3483;
868.5000;0.7066;-0.3483;
868.8000;0.7017;-0.3507;
869.1000;0.6992;-0.3625;
869.4000;0.6952;-0.3696;
869.7000;0.7009;-0.3507;
870.0000;0.7000;-0.3554;
870.3000;0.6992;-0.3578;
870.6000;0.7025;-0.3459;
870.9000;0.6992;-0.3554;
871.2000;0.6976;-0.3601;
871.5000;0.6960;-0.3720;
871.8000;0.7000;-0.3625;
872.1000;0.6984;-0.3601;
872.4000;0.6992;-0.3625;
872.7000;0.7025;-0.3578;
873.0000;0.7049;-0.3507;
873.3000;0.7025;-0.3530;
873.6000;0.6984;-0.3601;
873.9000;0.6992;-0.3672;
874.2000;0.7009;-0.3649;
874.5000;0.6984;-0.3672;
874.8000;0.6992;-0.3601;
875.1000;0.6992;-0.3672;
875.4000;0.6992;-0.3649;
875.7000;0.7017;-0.3554;
876.0000;0.6935;-0.3720;
876.3000;0.7017;-0.3578;
876.6000;0.7000;-0.3649;
876.9000;0.6960;-0.3791;
877.2000;0.6992;-0.3696;
877.5000;0.6992;-0.3696;
877.8000;0.6984;-0.3767;
878.1000;0.6984;-0.3696;
878.4000;0.7000;-0.3507;
878.7000;0.6984;-0.3507;
879.0000;0.7000;-0.3388;
879.3000;0.7009;-0.3412;
879.6000;0.7000;-0.3341;
879.9000;0.7000;-0.3412;
880.2000;0.6984;-0.3507;
880.5000;0.7000;-0.3459;
880.8000;0.7000;-0.3412;
881.1000;0.7000;-0.3435;
881.4000;0.6992;-0.3483;
881.7000;0.7009;-0.3507;
882.0000;0.6976;-0.3578;
882.3000;0.6976;-0.3625;
882.6000;0.6992;-0.3554;
882.9000;0.6943;-0.3601;
883.2000;0.7017;-0.3412;
883.5000;0.6976;-0.3507;
883.8000;0.6976;-0.3459;
884.1000;0.6952;-0.3412;
884.4000;0.6976;-0.3341;
884.7000;0.6992;-0.3293;
885.0000;0.6976;-0.3388;
885.3000;0.6976;-0.3412;
885.6000;0.6960;-0.3507;
885.9000;0.6992;-0.3483;
886.2000;0.6992;-0.3459;
886.5000;0.6976;-0.3554;
886.8000;0.7000;-0.3388;
887.1000;0.6952;-0.3483;
887.4000;0.6984;-0.3483;
887.7000;0.6943;-0.3672;
888.0000;0.7009;-0.3530;
888.3000;0.6984;-0.3649;
888.6000;0.6968;-0.3696;
888.9000;0.6968;-0.3744;
889.2000;0.6960;-0.3767;
889.5000;0.7000;-0.3672;
889.8000;0.6984;-0.3649;
890.1000;0.6952;-0.3672;
890.4000;0.6952;-0.3649;
890.7000;0.6992;-0.3530;
891.0000;0.7000;-0.3507;
891.3000;0.6984;-0.3530;
891.6000;0.6960;-0.3649;
891.9000;0.6968;-0.3578;
892.2000;0.6976;-0.3578;
892.5000;0.6911;-0.3601;
892.8000;0.6968;-0.3530;
893.1000;0.6935;-0.3649;
893.4000;0.6992;-0.3435;
893.7000;0.6984;-0.3507;
894.0000;0.6919;-0.3696;
894.3000;0.6960;-0.3483;
894.6000;0.7009;-0.3459;
894.9000;0.7017;-0.3412;
895.2000;0.6992;-0.3483;
895.5000;0.7009;-0.3483;
895.8000;0.6935;-0.3649;
896.1000;0.6976;-0.3483;
896.4000;0.6886;-0.3696;
896.7000;0.6968;-0.3530;
897.0000;0.6960;-0.3507;
897.3000;0.6992;-0.3459;
897.6000;0.6992;-0.3554;
897.9000;0.6968;-0.3578;
898.2000;0.6952;-0.3530;
898.5000;0.6976;-0.3530;
898.8000;0.6992;-0.3507;
899.1000;0.6935;-0.3601;
899.4000;0.7025;-0.3364;
899.7000;0.6976;-0.3483;
900.0000;0.6968;-0.3388;
900.3000;0.7009;-0.3246;
900.6000;0.6960;-0.3364;
900.9000;0.6968;-0.3364;
901.2000;0.6984;-0.3388;
901.5000;0.6976;-0.3459;
901.8000;0.6976;-0.3435;
902.1000;0.6992;-0.3364;
902.4000;0.6984;-0.3412;
902.7000;0.6968;-0.3435;
903.0000;0.6960;-0.3530;
903.3000;0.6952;-0.3672;
903.6000;0.6960;-0.3696;
903.9000;0.6952;-0.3672;
904.2000;0.6968;-0.3625;
904.5000;0.6943;-0.3649;
904.8000;0.6968;-0.3578;
905.1000;0.6968;-0.3649;
905.4000;0.6968;-0.3672;
905.7000;0.6976;-0.3672;
906.0000;0.6935;-0.3720;
906.3000;0.6984;-0.3554;
906.6000;0.6960;-0.3507;
906.9000;0.6976;-0.3483;
907.2000;0.6943;-0.3530;
907.5000;0.6952;-0.3459;
907.8000;0.6960;-0.3388;
908.1000;0.6943;-0.3388;
908.4000;0.6943;-0.3507;
908.7000;0.6935;-0.3554;
909.0000;0.6870;-0.3649;
909.3000;0.6960;-0.3364;
909.6000;0.6952;-0.3435;
909.9000;0.6968;-0.3364;
910.2000;0.6992;-0.3317;
910.5000;0.6968;-0.3412;
910.8000;0.6976;-0.3459;
911.1000;0.6960;-0.3483;
911.4000;0.6952;-0.3530;
911.7000;0.6952;-0.3483;
912.0000;0.6895;-0.3507;
912.3000;0.6952;-0.3435;
912.6000;0.6943;-0.3483;
912.9000;0.6960;-0.3507;
913.2000;0.6960;-0.3507;
913.5000;0.6935;-0.3578;
913.8000;0.6935;-0.3483;
914.1000;0.6968;-0.3388;
914.4000;0.6943;-0.3578;
914.7000;0.6952;-0.3554;
915.0000;0.6952;-0.3554;
915.3000;0.6952;-0.3672;
915.6000;0.6943;-0.3672;
915.9000;0.6935;-0.3744;
916.2000;0.6919;-0.3744;
916.5000;0.6952;-0.3625;
916.8000;0.6952;-0.3601;
917.1000;0.6927;-0.3601;
917.4000;0.6992;-0.3364;
917.7000;0.6952;-0.3317;
918.0000;0.6927;-0.3364;
918.3000;0.6927;-0.3388;
918.6000;0.6935;-0.3412;
918.9000;0.6952;-0.3435;
919.2000;0.6935;-0.3435;
919.5000;0.6968;-0.3459;
919.8000;0.6870;-0.3720;
920.1000;0.6935;-0.3625;
920.4000;0.6927;-0.3767;
920.7000;0.6943;-0.3791;
921.0000;0.6943;-0.3815;
921.3000;0.6935;-0.3933;
921.6000;0.6927;-0.3957;
921.9000;0.6976;-0.3862;
922.2000;0.6943;-0.3862;
922.5000;0.6927;-0.3909;
922.8000;0.6968;-0.3744;
923.1000;0.6943;-0.3672;
923.4000;0.6927;-0.3696;
923.7000;0.6927;-0.3625;
924.0000;0.6919;-0.3696;
924.3000;0.6870;-0.3838;
924.6000;0.6976;-0.3578;
924.9000;0.6935;-0.3530;
925.2000;0.6960;-0.3483;
925.5000;0.6935;-0.3412;
925.8000;0.6968;-0.3364;
926.1000;0.6935;-0.3459;
926.4000;0.6935;-0.3388;
926.7000;0.7009;-0.3246;
927.0000;0.6952;-0.3412;
927.3000;0.6943;-0.3435;
927.6000;0.6952;-0.3364;
927.9000;0.6943;-0.3412;
928.2000;0.6935;-0.3435;
928.5000;0.6952;-0.3364;
928.8000;0.6919;-0.3459;
929.1000;0.6935;-0.3435;
929.4000;0.6935;-0.3364;
929.7000;0.6952;-0.3388;
930.0000;0.6943;-0.3364;
930.3000;0.6935;-0.3388;
930.6000;0.6952;-0.3364;
930.9000;0.6943;-0.3412;
931.2000;0.6952;-0.3459;
931.5000;0.6935;-0.3483;
931.8000;0.6935;-0.3459;
932.1000;0.6943;-0.3459;
932.4000;0.6935;-0.3435;
932.7000;0.6935;-0.3507;
933.0000;0.6935;-0.3507;
933.3000;0.6960;-0.3412;
933.6000;0.6935;-0.3388;
933.9000;0.6935;-0.3412;
934.2000;0.6943;-0.3412;
934.5000;0.6943;-0.3364;
934.8000;0.6943;-0.3341;
935.1000;0.6935;-0.3388;
935.4000;0.6935;-0.3364;
935.7000;0.6935;-0.3341;
936.0000;0.6935;-0.3388;
936.3000;0.6927;-0.3507;
936.6000;0.6919;-0.3578;
936.9000;0.6935;-0.3507;
937.2000;0.6935;-0.3483;
937.5000;0.6935;-0.3507;
937.8000;0.6943;-0.3483;
938.1000;0.6927;-0.3578;
938.4000;0.6943;-0.3578;
938.7000;0.6935;-0.3696;
939.0000;0.6935;-0.3625;
939.3000;0.6935;-0.3625;
939.6000;0.6935;-0.3625;
939.9000;0.6935;-0.3554;
940.2000;0.6968;-0.3554;
940.5000;0.6943;-0.3649;
940.8000;0.6927;-0.3625;
941.1000;0.6952;-0.3530;
941.4000;0.6935;-0.3483;
941.7000;0.6935;-0.3554;
942.0000;0.6903;-0.3554;
942.3000;0.6911;-0.3672;
942.6000;0.6919;-0.3696;
942.9000;0.6919;-0.3649;
943.2000;0.6919;-0.3649;
943.5000;0.6911;-0.3578;
943.8000;0.6935;-0.3601;
944.1000;0.6992;-0.3459;
944.4000;0.6919;-0.3578;
944.7000;0.6927;-0.3530;
945.0000;0.6927;-0.3625;
945.3000;0.6911;-0.3649;
945.6000;0.6911;-0.3696;
945.9000;0.6919;-0.3720;
946.2000;0.6919;-0.3672;
946.5000;0.6927;-0.3672;
946.8000;0.6895;-0.3672;
947.1000;0.6903;-0.3672;
947.4000;0.6919;-0.3578;
947.7000;0.6919;-0.3554;
948.0000;0.6935;-0.3578;
948.3000;0.6911;-0.3601;
948.6000;0.6919;-0.3459;
948.9000;0.6992;-0.3317;
949.2000;0.6927;-0.3412;
949.5000;0.6935;-0.3459;
949.8000;0.6903;-0.3412;
950.1000;0.6927;-0.3341;
950.4000;0.6919;-0.3270;
950.7000;0.6911;-0.3317;
951.0000;0.6903;-0.3293;
951.3000;0.6911;-0.3293;
951.6000;0.6927;-0.3317;
951.9000;0.6943;-0.3270;
952.2000;0.6927;-0.3293;
952.5000;0.6927;-0.3412;
952.8000;0.6927;-0.3435;
953.1000;0.6935;-0.3412;
953.4000;0.6919;-0.3435;
953.7000;0.6919;-0.3341;
954.0000;0.6927;-0.3246;
954.3000;0.6911;-0.3341;
954.6000;0.6911;-0.3341;
954.9000;0.6878;-0.3388;
955.2000;0.6903;-0.3270;
955.5000;0.6911;-0.3293;
955.8000;0.6838;-0.3483;
956.1000;0.6903;-0.3317;
956.4000;0.6919;-0.3246;
956.7000;0.6919;-0.3341;
957.0000;0.6911;-0.3388;
957.3000;0.6927;-0.3293;
957.6000;0.6911;-0.3270;
957.9000;0.6919;-0.3222;
958.2000;0.6935;-0.3199;
958.5000;0.6927;-0.3199;
958.8000;0.6903;-0.3270;
959.1000;0.6911;-0.3199;
959.4000;0.6919;-0.3222;
959.7000;0.6919;-0.3293;
960.0000;0.6895;-0.3270;
960.3000;0.6927;-0.3175;
960.6000;0.6903;-0.3246;
960.9000;0.6903;-0.3293;
961.2000;0.6984;-0.3270;
961.5000;0.6919;-0.3412;
961.8000;0.6976;-0.3293;
962.1000;0.6862;-0.3578;
962.4000;0.6911;-0.3412;
962.7000;0.6878;-0.3459;
963.0000;0.6943;-0.3270;
963.3000;0.6870;-0.3483;
963.6000;0.6903;-0.3388;
963.9000;0.6919;-0.3412;
964.2000;0.6829;-0.3649;
964.5000;0.6919;-0.3388;
964.8000;0.6886;-0.3412;
965.1000;0.6919;-0.3435;
965.4000;0.6829;-0.3601;
965.7000;0.6862;-0.3530;
966.0000;0.6903;-0.3435;
966.3000;0.6903;-0.3459;
966.6000;0.6919;-0.3388;
966.9000;0.6911;-0.3435;
967.2000;0.6903;-0.3388;
967.5000;0.6862;-0.3412;
967.8000;0.6903;-0.3317;
968.1000;0.6919;-0.3293;
968.4000;0.6903;-0.3293;
968.7000;0.6895;-0.3364;
969.0000;0.6927;-0.3317;
969.3000;0.6952;-0.3341;
969.6000;0.6919;-0.3412;
969.9000;0.6911;-0.3388;
970.2000;0.6919;-0.3293;
970.5000;0.6919;-0.3317;
970.8000;0.6968;-0.3246;
971.1000;0.6903;-0.3341;
971.4000;0.6903;-0.3293;
971.7000;0.6895;-0.3341;
972.0000;0.6895;-0.3270;
972.3000;0.6854;-0.3364;
972.6000;0.6895;-0.3151;
972.9000;0.6895;-0.3080;
973.2000;0.6886;-0.3056;
973.5000;0.6911;-0.3104;
973.8000;0.6886;-0.3104;
974.1000;0.6903;-0.3127;
974.4000;0.6919;-0.3127;
974.7000;0.6927;-0.3151;
975.0000;0.6911;-0.3151;
975.3000;0.6886;-0.3199;
975.6000;0.6903;-0.3222;
975.9000;0.6911;-0.3127;
976.2000;0.6886;-0.3199;
976.5000;0.6886;-0.3175;
976.8000;0.6895;-0.3199;
977.1000;0.6870;-0.3341;
977.4000;0.6895;-0.3317;
977.7000;0.6895;-0.3317;
978.0000;0.6870;-0.3388;
978.3000;0.6903;-0.3364;
978.6000;0.6886;-0.3293;
978.9000;0.6895;-0.3246;
979.2000;0.6886;-0.3317;
979.5000;0.6895;-0.3270;
979.8000;0.6911;-0.3127;
980.1000;0.6943;-0.3080;
980.4000;0.6878;-0.3175;
980.7000;0.6903;-0.3199;
981.0000;0.6886;-0.3199;
981.3000;0.6895;-0.3222;
981.6000;0.6895;-0.3222;
981.9000;0.6862;-0.3317;
982.2000;0.6911;-0.3270;
982.5000;0.6895;-0.3293;
982.8000;0.6870;-0.3364;
983.1000;0.6895;-0.3459;
983.4000;0.6886;-0.3507;
983.7000;0.6911;-0.3364;
984.0000;0.6911;-0.3364;
984.3000;0.6886;-0.3293;
984.6000;0.6886;-0.3293;
984.9000;0.6903;-0.3199;
985.2000;0.6935;-0.3104;
985.5000;0.6895;-0.3222;
985.8000;0.6911;-0.3246;
986.1000;0.6895;-0.3364;
986.4000;0.6903;-0.3364;
986.7000;0.6886;-0.3435;
987.0000;0.6870;-0.3388;
987.3000;0.6903;-0.3246;
987.6000;0.6911;-0.3199;
987.9000;0.6886;-0.3270;
988.2000;0.6895;-0.3341;
988.5000;0.6903;-0.3317;
988.8000;0.6952;-0.3317;
989.1000;0.6886;-0.3507;
989.4000;0.6895;-0.3530;
989.7000;0.6895;-0.3530;
990.0000;0.6903;-0.3459;
990.3000;0.6911;-0.3293;
990.6000;0.6903;-0.3341;
990.9000;0.6870;-0.3317;
991.2000;0.6911;-0.3317;
991.5000;0.6870;-0.3388;
991.8000;0.6895;-0.3293;
992.1000;0.6886;-0.3341;
992.4000;0.6878;-0.3341;
992.7000;0.6919;-0.3270;
993.0000;0.6895;-0.3341;
993.3000;0.6886;-0.3388;
993.6000;0.6895;-0.3270;
993.9000;0.6895;-0.3246;
994.2000;0.6870;-0.3388;
994.5000;0.6878;-0.3483;
994.8000;0.6878;-0.3435;
995.1000;0.6903;-0.3270;
995.4000;0.6903;-0.3341;
995.7000;0.6862;-0.3412;
996.0000;0.6895;-0.3175;
996.3000;0.6878;-0.3199;
996.6000;0.6886;-0.3222;
996.9000;0.6878;-0.3222;
997.2000;0.6878;-0.3222;
997.5000;0.6886;-0.3246;
997.8000;0.6895;-0.3246;
998.1000;0.6895;-0.3270;
998.4000;0.6903;-0.3246;
998.7000;0.6903;-0.3246;
999.0000;0.6919;-0.3199;
999.3000;0.6870;-0.3246;
999.6000;0.6821;-0.3388;
999.9000;0.6846;-0.3270;
1000.2000;0.6903;-0.3104;
1000.5000;0.6903;-0.3127;
1000.8000;0.6878;-0.3222;
1001.1000;0.6895;-0.3199;
1001.4000;0.6886;-0.3246;
1001.7000;0.6886;-0.3199;
1002.0000;0.6878;-0.3199;
1002.3000;0.6870;-0.3199;
1002.6000;0.6862;-0.3199;
1002.9000;0.6813;-0.3364;
1003.2000;0.6862;-0.3270;
1003.5000;0.6862;-0.3317;
1003.8000;0.6854;-0.3246;
1004.1000;0.6895;-0.3151;
1004.4000;0.6870;-0.3151;
1004.7000;0.6862;-0.3175;
1005.0000;0.6862;-0.3175;
1005.3000;0.6870;-0.3104;
1005.6000;0.6878;-0.3151;
1005.9000;0.6870;-0.3222;
1006.2000;0.6886;-0.3151;
1006.5000;0.6878;-0.3080;
1006.8000;0.6878;-0.3127;
1007.1000;0.6870;-0.3151;
1007.4000;0.6886;-0.3175;
1007.7000;0.6862;-0.3199;
1008.0000;0.6886;-0.3222;
1008.3000;0.6895;-0.3222;
1008.6000;0.6886;-0.3246;
1008.9000;0.6870;-0.3175;
1009.2000;0.6878;-0.3175;
1009.5000;0.6854;-0.3222;
1009.8000;0.6862;-0.3222;
1010.1000;0.6854;-0.3246;
1010.4000;0.6805;-0.3507;
1010.7000;0.6886;-0.3317;
1011.0000;0.6870;-0.3341;
1011.3000;0.6870;-0.3317;
1011.6000;0.6943;-0.3175;
1011.9000;0.6878;-0.3293;
1012.2000;0.6870;-0.3293;
1012.5000;0.6870;-0.3293;
1012.8000;0.6895;-0.3246;
1013.1000;0.6870;-0.3317;
1013.4000;0.6952;-0.3033;
1013.7000;0.6870;-0.3175;
1014.0000;0.6895;-0.3151;
1014.3000;0.6862;-0.3175;
1014.6000;0.6870;-0.3151;
1014.9000;0.6854;-0.3175;
1015.2000;0.6862;-0.3199;
1015.5000;0.6903;-0.2962;
1015.8000;0.6878;-0.3056;
1016.1000;0.6846;-0.3151;
1016.4000;0.6870;-0.3104;
1016.7000;0.6886;-0.3009;
1017.0000;0.6870;-0.3033;
1017.3000;0.6862;-0.3104;
1017.6000;0.6854;-0.3127;
1017.9000;0.6854;-0.3009;
1018.2000;0.6870;-0.3009;
1018.5000;0.6805;-0.3222;
1018.8000;0.6862;-0.3080;
1019.1000;0.6886;-0.2985;
1019.4000;0.6870;-0.3009;
1019.7000;0.6862;-0.3056;
1020.0000;0.6854;-0.3151;
1020.3000;0.6862;-0.3127;
1020.6000;0.6878;-0.3104;
1020.9000;0.6870;-0.3127;
1021.2000;0.6878;-0.3104;
1021.5000;0.6903;-0.3009;
1021.8000;0.6862;-0.3104;
1022.1000;0.6854;-0.3199;
1022.4000;0.6886;-0.3175;
1022.7000;0.6903;-0.3127;
1023.0000;0.6878;-0.3199;
1023.3000;0.6870;-0.3222;
1023.6000;0.6862;-0.3246;
1023.9000;0.6886;-0.3199;
1024.2000;0.6862;-0.3199;
1024.5000;0.6895;-0.3175;
1024.8000;0.6862;-0.3222;
1025.1000;0.6870;-0.3175;
1025.4000;0.6854;-0.3199;
1025.7000;0.6846;-0.3270;
1026.0000;0.6846;-0.3293;
1026.3000;0.6854;-0.3317;
1026.6000;0.6870;-0.3341;
1026.9000;0.6862;-0.3341;
1027.2000;0.6862;-0.3293;
1027.5000;0.6878;-0.3246;
1027.8000;0.6854;-0.3175;
1028.1000;0.6846;-0.3080;
1028.4000;0.6854;-0.3104;
1028.7000;0.6862;-0.3080;
1029.0000;0.6870;-0.3056;
1029.3000;0.6862;-0.3033;
1029.6000;0.6862;-0.3175;
1029.9000;0.6886;-0.3222;
1030.2000;0.6862;-0.3341;
1030.5000;0.6878;-0.3222;
1030.8000;0.6838;-0.3246;
1031.1000;0.6854;-0.3033;
1031.4000;0.6846;-0.3009;
1031.7000;0.6862;-0.2985;
1032.0000;0.6870;-0.3033;
1032.3000;0.6862;-0.3104;
1032.6000;0.6813;-0.3222;
1032.9000;0.6903;-0.2938;
1033.2000;0.6870;-0.3009;
1033.5000;0.6870;-0.3056;
1033.8000;0.6870;-0.3033;
1034.1000;0.6862;-0.3056;
1034.4000;0.6862;-0.3127;
1034.7000;0.6878;-0.3127;
1035.0000;0.6878;-0.3104;
1035.3000;0.6846;-0.3151;
1035.6000;0.6846;-0.3151;
1035.9000;0.6870;-0.3104;
1036.2000;0.6870;-0.3127;
1036.5000;0.6870;-0.3127;
1036.8000;0.6838;-0.3175;
1037.1000;0.6854;-0.3104;
1037.4000;0.6911;-0.3033;
1037.7000;0.6862;-0.3151;
1038.0000;0.6854;-0.3246;
1038.3000;0.6846;-0.3388;
1038.6000;0.6862;-0.3364;
1038.9000;0.6862;-0.3222;
1039.2000;0.6862;-0.3317;
1039.5000;0.6878;-0.3199;
1039.8000;0.6854;-0.3151;
1040.1000;0.6862;-0.3175;
1040.4000;0.6854;-0.3199;
1040.7000;0.6838;-0.3151;
1041.0000;0.6846;-0.3151;
1041.3000;0.6854;-0.3104;
1041.6000;0.6846;-0.3127;
1041.9000;0.6846;-0.3056;
1042.2000;0.6870;-0.3033;
1042.5000;0.6862;-0.3033;
1042.8000;0.6854;-0.2985;
1043.1000;0.6838;-0.3033;
1043.4000;0.6870;-0.2962;
1043.7000;0.6870;-0.3080;
1044.0000;0.6870;-0.3009;
1044.3000;0.6862;-0.3033;
1044.6000;0.6838;-0.3056;
1044.9000;0.6846;-0.2962;
1045.2000;0.6854;-0.2962;
1045.5000;0.6862;-0.3033;
1045.8000;0.6846;-0.3080;
1046.1000;0.6846;-0.3104;
1046.4000;0.6854;-0.3127;
1046.7000;0.6846;-0.3104;
1047.0000;0.6846;-0.3127;
1047.3000;0.6846;-0.3127;
1047.6000;0.6838;-0.3033;
1047.9000;0.6862;-0.3104;
1048.2000;0.6846;-0.3151;
1048.5000;0.6854;-0.3104;
1048.8000;0.6854;-0.3104;
1049.1000;0.6813;-0.3246;
1049.4000;0.6854;-0.3151;
1049.7000;0.6846;-0.3199;
1050.0000;0.6862;-0.3151;
1050.3000;0.6878;-0.3104;
1050.6000;0.6838;-0.3175;
1050.9000;0.6854;-0.3104;
1051.2000;0.6854;-0.3033;
1051.5000;0.6854;-0.3056;
1051.8000;0.6870;-0.3033;
1052.1000;0.6805;-0.3270;
1052.4000;0.6829;-0.3246;
1052.7000;0.6854;-0.3175;
1053.0000;0.6862;-0.3033;
1053.3000;0.6838;-0.3009;
1053.6000;0.6862;-0.3080;
1053.9000;0.6854;-0.3127;
1054.2000;0.6846;-0.3056;
1054.5000;0.6854;-0.3104;
1054.8000;0.6878;-0.3056;
1055.1000;0.6846;-0.3033;
1055.4000;0.6789;-0.3127;
1055.7000;0.6854;-0.2985;
1056.0000;0.6846;-0.3009;
1056.3000;0.6838;-0.3009;
1056.6000;0.6854;-0.3056;
1056.9000;0.6846;-0.3009;
1057.2000;0.6870;-0.2891;
1057.5000;0.6854;-0.2962;
1057.8000;0.6878;-0.2985;
1058.1000;0.6862;-0.2985;
1058.4000;0.6854;-0.3104;
1058.7000;0.6862;-0.3080;
1059.0000;0.6870;-0.3033;
1059.3000;0.6862;-0.2985;
1059.6000;0.6862;-0.2985;
1059.9000;0.6846;-0.3080;
1060.2000;0.6838;-0.3151;
1060.5000;0.6927;-0.3033;
1060.8000;0.6854;-0.3199;
1061.1000;0.6846;-0.3151;
1061.4000;0.6805;-0.3104;
1061.7000;0.6797;-0.3080;
1062.0000;0.6838;-0.2985;
1062.3000;0.6886;-0.2962;
1062.6000;0.6829;-0.3104;
1062.9000;0.6846;-0.3080;
1063.2000;0.6854;-0.3127;
1063.5000;0.6829;-0.3104;
1063.8000;0.6829;-0.3127;
1064.1000;0.6829;-0.3127;
1064.4000;0.6838;-0.3080;
1064.7000;0.6846;-0.3080;
1065.0000;0.6813;-0.3033;
1065.3000;0.6838;-0.2938;
1065.6000;0.6846;-0.2985;
1065.9000;0.6838;-0.3009;
1066.2000;0.6829;-0.2962;
1066.5000;0.6829;-0.2962;
1066.8000;0.6838;-0.2938;
1067.1000;0.6846;-0.2938;
1067.4000;0.6838;-0.2867;
1067.7000;0.6821;-0.2843;
1068.0000;0.6838;-0.2867;
1068.3000;0.6838;-0.2843;
1068.6000;0.6862;-0.2772;
1068.9000;0.6862;-0.2772;
1069.2000;0.6886;-0.2819;
1069.5000;0.6862;-0.2914;
1069.8000;0.6829;-0.2843;
1070.1000;0.6911;-0.2748;
1070.4000;0.6854;-0.2914;
1070.7000;0.6829;-0.3033;
1071.0000;0.6862;-0.3080;
1071.3000;0.6846;-0.3080;
1071.6000;0.6846;-0.3033;
1071.9000;0.6813;-0.3080;
1072.2000;0.6854;-0.3033;
1072.5000;0.6846;-0.3033;
1072.8000;0.6838;-0.3009;
1073.1000;0.6821;-0.3104;
1073.4000;0.6846;-0.3009;
1073.7000;0.6854;-0.3033;
1074.0000;0.6829;-0.3080;
1074.3000;0.6838;-0.3056;
1074.6000;0.6838;-0.3104;
1074.9000;0.6846;-0.3033;
1075.2000;0.6846;-0.3033;
1075.5000;0.6821;-0.3009;
1075.8000;0.6838;-0.2985;
1076.1000;0.6846;-0.2891;
1076.4000;0.6846;-0.2867;
1076.7000;0.6829;-0.2914;
1077.0000;0.6789;-0.3056;
1077.3000;0.6838;-0.2985;
1077.6000;0.6838;-0.2962;
1077.9000;0.6821;-0.3009;
1078.2000;0.6886;-0.2843;
1078.5000;0.6846;-0.2914;
1078.8000;0.6846;-0.3033;
1079.1000;0.6838;-0.3056;
1079.4000;0.6886;-0.2914;
1079.7000;0.6821;-0.3009;
1080.0000;0.6846;-0.2985;
1080.3000;0.6829;-0.3056;
1080.6000;0.6846;-0.3080;
1080.9000;0.6838;-0.3033;
1081.2000;0.6870;-0.2891;
1081.5000;0.6846;-0.2914;
1081.8000;0.6838;-0.3009;
1082.1000;0.6805;-0.3056;
1082.4000;0.6846;-0.3009;
1082.7000;0.6846;-0.2962;
1083.0000;0.6829;-0.3080;
1083.3000;0.6838;-0.3127;
1083.6000;0.6829;-0.3127;
1083.9000;0.6895;-0.2914;
1084.2000;0.6789;-0.3080;
1084.5000;0.6829;-0.2938;
1084.8000;0.6878;-0.2772;
1085.1000;0.6781;-0.3009;
1085.4000;0.6854;-0.2843;
1085.7000;0.6748;-0.3175;
1086.0000;0.6886;-0.2843;
1086.3000;0.6846;-0.3033;
1086.6000;0.6821;-0.3056;
1086.9000;0.6813;-0.3056;
1087.2000;0.6789;-0.3080;
1087.5000;0.6813;-0.3009;
1087.8000;0.6821;-0.2985;
1088.1000;0.6813;-0.3056;
1088.4000;0.6821;-0.3056;
1088.7000;0.6911;-0.2938;
1089.0000;0.6829;-0.3151;
1089.3000;0.6838;-0.3104;
1089.6000;0.6805;-0.3151;
1089.9000;0.6821;-0.3127;
1090.2000;0.6829;-0.3033;
1090.5000;0.6821;-0.3104;
1090.8000;0.6829;-0.3009;
1091.1000;0.6838;-0.2985;
1091.4000;0.6838;-0.3009;
1091.7000;0.6829;-0.3080;
1092.0000;0.6846;-0.3056;
1092.3000;0.6838;-0.3151;
1092.6000;0.6838;-0.3151;
1092.9000;0.6846;-0.3056;
1093.2000;0.6829;-0.3080;
1093.5000;0.6813;-0.3033;
1093.8000;0.6838;-0.3033;
1094.1000;0.6813;-0.3056;
1094.4000;0.6829;-0.2891;
1094.7000;0.6756;-0.3033;
1095.0000;0.6813;-0.2914;
1095.3000;0.6829;-0.2819;
1095.6000;0.6870;-0.2677;
1095.9000;0.6878;-0.2654;
1096.2000;0.6862;-0.2677;
1096.5000;0.6838;-0.2748;
1096.8000;0.6821;-0.2891;
1097.1000;0.6838;-0.2938;
1097.4000;0.6829;-0.2985;
1097.7000;0.6829;-0.2985;
1098.0000;0.6838;-0.3009;
1098.3000;0.6821;-0.3033;
1098.6000;0.6813;-0.3056;
1098.9000;0.6821;-0.2985;
1099.2000;0.6813;-0.2938;
1099.5000;0.6813;-0.2938;
1099.8000;0.6838;-0.2914;
1100.1000;0.6829;-0.2914;
1100.4000;0.6846;-0.2796;
1100.7000;0.6829;-0.2843;
1101.0000;0.6829;-0.2867;
1101.3000;0.6829;-0.2819;
1101.6000;0.6821;-0.2867;
1101.9000;0.6813;-0.2891;
1102.2000;0.6838;-0.2962;
1102.5000;0.6829;-0.3009;
1102.8000;0.6821;-0.3009;
1103.1000;0.6829;-0.3104;
1103.4000;0.6878;-0.2867;
1103.7000;0.6821;-0.2938;
1104.0000;0.6813;-0.2914;
1104.3000;0.6781;-0.2938;
1104.6000;0.6805;-0.2938;
1104.9000;0.6789;-0.2962;
1105.2000;0.6821;-0.2867;
1105.5000;0.6838;-0.2891;
1105.8000;0.6838;-0.2891;
1106.1000;0.6813;-0.2867;
1106.4000;0.6748;-0.3009;
1106.7000;0.6854;-0.2772;
1107.0000;0.6781;-0.2962;
1107.3000;0.6829;-0.2891;
1107.6000;0.6764;-0.2962;
1107.9000;0.6813;-0.2843;
1108.2000;0.6821;-0.2891;
1108.5000;0.6829;-0.2891;
1108.8000;0.6821;-0.2914;
1109.1000;0.6821;-0.2914;
1109.4000;0.6829;-0.2891;
1109.7000;0.6781;-0.3009;
1110.0000;0.6805;-0.2914;
1110.3000;0.6789;-0.2985;
1110.6000;0.6829;-0.2891;
1110.9000;0.6829;-0.2962;
1111.2000;0.6829;-0.2938;
1111.5000;0.6813;-0.2914;
1111.8000;0.6870;-0.2772;
1112.1000;0.6813;-0.2914;
1112.4000;0.6805;-0.3056;
1112.7000;0.6829;-0.2962;
1113.0000;0.6813;-0.2891;
1113.3000;0.6821;-0.2843;
1113.6000;0.6821;-0.2867;
1113.9000;0.6821;-0.2938;
1114.2000;0.6829;-0.2985;
1114.5000;0.6846;-0.2985;
1114.8000;0.6821;-0.3009;
1115.1000;0.6829;-0.2985;
1115.4000;0.6821;-0.2985;
1115.7000;0.6838;-0.2938;
1116.0000;0.6829;-0.2891;
1116.3000;0.6821;-0.2962;
1116.6000;0.6821;-0.3056;
1116.9000;0.6838;-0.2985;
1117.2000;0.6846;-0.3009;
1117.5000;0.6854;-0.2962;
1117.8000;0.6805;-0.2962;
1118.1000;0.6846;-0.2914;
1118.4000;0.6838;-0.2867;
1118.7000;0.6813;-0.2843;
1119.0000;0.6805;-0.2867;
1119.3000;0.6748;-0.3009;
1119.6000;0.6829;-0.2819;
1119.9000;0.6813;-0.2891;
1120.2000;0.6813;-0.2843;
1120.5000;0.6821;-0.2843;
1120.8000;0.6797;-0.2938;
1121.1000;0.6829;-0.2914;
1121.4000;0.6805;-0.3009;
1121.7000;0.6821;-0.3009;
1122.0000;0.6813;-0.2962;
1122.3000;0.6821;-0.2914;
1122.6000;0.6821;-0.2891;
1122.9000;0.6821;-0.2867;
1123.2000;0.6797;-0.2962;
1123.5000;0.6813;-0.2985;
1123.8000;0.6813;-0.2891;
1124.1000;0.6805;-0.2914;
1124.4000;0.6813;-0.2891;
1124.7000;0.6821;-0.2938;
1125.0000;0.6821;-0.2962;
1125.3000;0.6813;-0.2985;
1125.6000;0.6789;-0.2985;
1125.9000;0.6805;-0.2962;
1126.2000;0.6870;-0.2725;
1126.5000;0.6805;-0.2891;
1126.8000;0.6813;-0.2819;
1127.1000;0.6813;-0.2938;
1127.4000;0.6829;-0.2962;
1127.7000;0.6813;-0.3009;
1128.0000;0.6829;-0.3009;
1128.3000;0.6838;-0.2914;
1128.6000;0.6838;-0.2819;
1128.9000;0.6838;-0.2772;
1129.2000;0.6781;-0.2772;
1129.5000;0.6805;-0.2772;
1129.8000;0.6805;-0.2843;
1130.1000;0.6838;-0.2796;
1130.4000;0.6797;-0.2796;
1130.7000;0.6789;-0.2819;
1131.0000;0.6813;-0.2772;
1131.3000;0.6772;-0.2819;
1131.6000;0.6805;-0.2891;
1131.9000;0.6781;-0.2938;
1132.2000;0.6813;-0.2914;
1132.5000;0.6813;-0.2867;
1132.8000;0.6813;-0.2867;
1133.1000;0.6821;-0.2819;
1133.4000;0.6813;-0.2891;
1133.7000;0.6740;-0.2985;
1134.0000;0.6805;-0.2843;
1134.3000;0.6797;-0.2891;
1134.6000;0.6805;-0.2914;
1134.9000;0.6772;-0.3104;
1135.2000;0.6821;-0.2985;
1135.5000;0.6805;-0.3033;
1135.8000;0.6797;-0.3056;
1136.1000;0.6813;-0.2938;
1136.4000;0.6829;-0.2843;
1136.7000;0.6821;-0.2843;
1137.0000;0.6740;-0.3009;
1137.3000;0.6813;-0.2819;
1137.6000;0.6805;-0.2796;
1137.9000;0.6805;-0.2748;
1138.2000;0.6813;-0.2701;
1138.5000;0.6797;-0.2630;
1138.8000;0.6813;-0.2772;
1139.1000;0.6821;-0.2938;
1139.4000;0.6813;-0.2962;
1139.7000;0.6813;-0.2891;
1140.0000;0.6813;-0.2867;
1140.3000;0.6821;-0.2891;
1140.6000;0.6821;-0.2985;
1140.9000;0.6862;-0.2914;
1141.2000;0.6797;-0.3033;
1141.5000;0.6838;-0.2891;
1141.8000;0.6829;-0.2843;
1142.1000;0.6797;-0.2914;
1142.4000;0.6797;-0.2891;
1142.7000;0.6805;-0.2843;
1143.0000;0.6813;-0.2819;
1143.3000;0.6813;-0.2819;
1143.6000;0.6797;-0.2914;
1143.9000;0.6813;-0.2962;
1144.2000;0.6764;-0.3080;
1144.5000;0.6829;-0.2891;
1144.8000;0.6781;-0.2938;
1145.1000;0.6797;-0.2843;
1145.4000;0.6813;-0.2843;
1145.7000;0.6813;-0.2962;
1146.0000;0.6821;-0.2985;
1146.3000;0.6813;-0.2962;
1146.6000;0.6805;-0.3056;
1146.9000;0.6813;-0.3080;
1147.2000;0.6805;-0.3104;
1147.5000;0.6797;-0.3175;
1147.8000;0.6821;-0.3080;
1148.1000;0.6805;-0.3080;
1148.4000;0.6805;-0.3127;
1148.7000;0.6805;-0.3056;
1149.0000;0.6805;-0.3151;
1149.3000;0.6821;-0.3199;
1149.6000;0.6797;-0.3270;
1149.9000;0.6813;-0.3246;
1150.2000;0.6821;-0.3222;
1150.5000;0.6797;-0.3222;
1150.8000;0.6829;-0.3104;
1151.1000;0.6821;-0.3080;
1151.4000;0.6748;-0.3199;
1151.7000;0.6797;-0.3080;
1152.0000;0.6797;-0.3009;
1152.3000;0.6789;-0.3009;
1152.6000;0.6789;-0.2985;
1152.9000;0.6813;-0.3056;
1153.2000;0.6821;-0.3009;
1153.5000;0.6789;-0.3056;
1153.8000;0.6797;-0.3080;
1154.1000;0.6805;-0.3127;
1154.4000;0.6797;-0.3080;
1154.7000;0.6805;-0.2985;
1155.0000;0.6797;-0.2962;
1155.3000;0.6764;-0.3104;
1155.6000;0.6805;-0.3033;
1155.9000;0.6805;-0.3080;
1156.2000;0.6789;-0.3056;
1156.5000;0.6764;-0.3104;
1156.8000;0.6789;-0.3033;
1157.1000;0.6756;-0.3151;
1157.4000;0.6772;-0.3151;
1157.7000;0.6707;-0.3293;
1158.0000;0.6748;-0.3080;
1158.3000;0.6862;-0.2796;
1158.6000;0.6797;-0.2962;
1158.9000;0.6854;-0.2843;
1159.2000;0.6797;-0.3033;
1159.5000;0.6789;-0.3009;
1159.8000;0.6805;-0.2985;
1160.1000;0.6797;-0.3009;
1160.4000;0.6772;-0.3127;
1160.7000;0.6813;-0.2985;
1161.0000;0.6805;-0.2938;
1161.3000;0.6797;-0.3033;
1161.6000;0.6805;-0.2985;
1161.9000;0.6797;-0.3056;
1162.2000;0.6805;-0.3033;
1162.5000;0.6797;-0.3033;
1162.8000;0.6805;-0.3009;
1163.1000;0.6821;-0.2985;
1163.4000;0.6813;-0.2938;
1163.7000;0.6805;-0.2843;
1164.0000;0.6805;-0.2796;
1164.3000;0.6789;-0.2843;
1164.6000;0.6805;-0.2891;
1164.9000;0.6805;-0.2962;
1165.2000;0.6797;-0.2962;
1165.5000;0.6789;-0.3009;
1165.8000;0.6797;-0.2962;
1166.1000;0.6813;-0.2867;
1166.4000;0.6821;-0.2819;
1166.7000;0.6805;-0.2843;
1167.0000;0.6813;-0.2819;
1167.3000;0.6805;-0.2796;
1167.6000;0.6797;-0.2938;
1167.9000;0.6781;-0.2985;
1168.2000;0.6805;-0.2914;
1168.5000;0.6789;-0.2891;
1168.8000;0.6813;-0.2867;
1169.1000;0.6797;-0.2843;
1169.4000;0.6813;-0.2748;
1169.7000;0.6805;-0.2701;
1170.0000;0.6789;-0.2725;
1170.3000;0.6797;-0.2796;
1170.6000;0.6805;-0.2748;
1170.9000;0.6805;-0.2819;
1171.2000;0.6805;-0.2701;
1171.5000;0.6813;-0.2583;
1171.8000;0.6797;-0.2630;
1172.1000;0.6797;-0.2654;
1172.4000;0.6789;-0.2606;
1172.7000;0.6797;-0.2654;
1173.0000;0.6797;-0.2725;
1173.3000;0.6838;-0.2677;
1173.6000;0.6797;-0.2748;
1173.9000;0.6781;-0.2867;
1174.2000;0.6854;-0.2583;
1174.5000;0.6805;-0.2630;
1174.8000;0.6821;-0.2583;
1175.1000;0.6821;-0.2630;
1175.4000;0.6805;-0.2701;
1175.7000;0.6748;-0.2819;
1176.0000;0.6813;-0.2772;
1176.3000;0.6732;-0.2985;
1176.6000;0.6789;-0.2843;
1176.9000;0.6797;-0.2796;
1177.2000;0.6789;-0.2796;
1177.5000;0.6789;-0.2867;
1177.8000;0.6789;-0.2914;
1178.1000;0.6789;-0.2914;
1178.4000;0.6797;-0.2891;
1178.7000;0.6797;-0.2962;
1179.0000;0.6797;-0.2938;
1179.3000;0.6789;-0.3033;
1179.6000;0.6781;-0.2962;
1179.9000;0.6789;-0.2962;
1180.2000;0.6805;-0.2962;
1180.5000;0.6789;-0.3009;
1180.8000;0.6846;-0.2891;
1181.1000;0.6781;-0.3009;
1181.4000;0.6797;-0.2985;
1181.7000;0.6789;-0.2938;
1182.0000;0.6781;-0.2914;
1182.3000;0.6772;-0.2891;
1182.6000;0.6789;-0.2796;
1182.9000;0.6781;-0.2819;
1183.2000;0.6764;-0.2843;
1183.5000;0.6781;-0.2843;
1183.8000;0.6789;-0.2891;
1184.1000;0.6789;-0.2914;
1184.4000;0.6781;-0.2938;
1184.7000;0.6772;-0.3009;
1185.0000;0.6781;-0.2985;
1185.3000;0.6781;-0.2985;
1185.6000;0.6781;-0.3009;
1185.9000;0.6789;-0.3009;
1186.2000;0.6797;-0.3009;
1186.5000;0.6805;-0.2938;
1186.8000;0.6805;-0.2938;
1187.1000;0.6789;-0.2843;
1187.4000;0.6813;-0.2748;
1187.7000;0.6797;-0.2843;
1188.0000;0.6772;-0.2796;
1188.3000;0.6789;-0.2772;
1188.6000;0.6789;-0.2914;
1188.9000;0.6797;-0.2891;
1189.2000;0.6805;-0.2962;
1189.5000;0.6789;-0.2985;
1189.8000;0.6789;-0.2938;
1190.1000;0.6732;-0.3056;
1190.4000;0.6797;-0.2867;
1190.7000;0.6781;-0.2891;
1191.0000;0.6797;-0.2938;
1191.3000;0.6772;-0.3056;
1191.6000;0.6789;-0.2891;
1191.9000;0.6716;-0.2985;
1192.2000;0.6707;-0.2985;
1192.5000;0.6781;-0.2867;
1192.8000;0.6797;-0.2701;
1193.1000;0.6805;-0.2725;
1193.4000;0.6772;-0.2748;
1193.7000;0.6772;-0.2843;
1194.0000;0.6781;-0.2843;
1194.3000;0.6781;-0.2962;
1194.6000;0.6756;-0.3033;
1194.9000;0.6772;-0.3009;
1195.2000;0.6789;-0.2985;
1195.5000;0.6789;-0.2938;
1195.8000;0.6789;-0.2914;
1196.1000;0.6772;-0.2938;
1196.4000;0.6829;-0.2748;
1196.7000;0.6797;-0.2772;
1197.0000;0.6789;-0.2867;
1197.3000;0.6699;-0.3151;
1197.6000;0.6797;-0.2962;
1197.9000;0.6797;-0.2914;
1198.2000;0.6781;-0.2962;
1198.5000;0.6813;-0.2914;
1198.8000;0.6789;-0.3033;
1199.1000;0.6789;-0.3056;
1199.4000;0.6781;-0.3127;
1199.7000;0.6789;-0.3175;
1200.0000;0.6772;-0.3127;
1200.3000;0.6748;-0.3175;
1200.6000;0.6716;-0.3246;
1200.9000;0.6805;-0.2985;
1201.2000;0.6748;-0.3056;
1201.5000;0.6805;-0.2938;
1201.8000;0.6797;-0.2962;
1202.1000;0.6781;-0.2938;
1202.4000;0.6789;-0.2938;
1202.7000;0.6813;-0.2985;
1203.0000;0.6789;-0.3033;
1203.3000;0.6789;-0.3127;
1203.6000;0.6781;-0.3175;
1203.9000;0.6764;-0.3151;
1204.2000;0.6797;-0.3009;
1204.5000;0.6862;-0.2796;
1204.8000;0.6805;-0.2914;
1205.1000;0.6772;-0.2962;
1205.4000;0.6772;-0.2962;
1205.7000;0.6813;-0.2867;
1206.0000;0.6805;-0.2867;
1206.3000;0.6748;-0.3009;
1206.6000;0.6764;-0.3009;
1206.9000;0.6781;-0.2867;
1207.2000;0.6781;-0.2843;
1207.5000;0.6789;-0.2819;
1207.8000;0.6781;-0.2914;
1208.1000;0.6805;-0.2843;
1208.4000;0.6781;-0.2867;
1208.7000;0.6813;-0.2748;
1209.0000;0.6748;-0.2985;
1209.3000;0.6789;-0.2914;
1209.6000;0.6764;-0.2962;
1209.9000;0.6781;-0.2985;
1210.2000;0.6781;-0.2962;
1210.5000;0.6772;-0.2985;
1210.8000;0.6789;-0.2938;
1211.1000;0.6813;-0.2819;
1211.4000;0.6764;-0.2891;
1211.7000;0.6781;-0.2914;
1212.0000;0.6789;-0.2867;
1212.3000;0.6781;-0.2843;
1212.6000;0.6805;-0.2891;
1212.9000;0.6740;-0.2985;
1213.2000;0.6756;-0.3009;
1213.5000;0.6789;-0.2962;
1213.8000;0.6789;-0.3104;
1214.1000;0.6789;-0.3151;
1214.4000;0.6781;-0.3009;
1214.7000;0.6805;-0.2938;
1215.0000;0.6781;-0.2985;
1215.3000;0.6764;-0.3056;
1215.6000;0.6764;-0.3056;
1215.9000;0.6716;-0.3175;
1216.2000;0.6805;-0.3009;
1216.5000;0.6789;-0.3033;
1216.8000;0.6781;-0.3056;
1217.1000;0.6781;-0.3080;
1217.4000;0.6716;-0.3199;
1217.7000;0.6772;-0.3127;
1218.0000;0.6764;-0.3056;
1218.3000;0.6772;-0.3033;
1218.6000;0.6781;-0.3033;
1218.9000;0.6789;-0.2938;
1219.2000;0.6838;-0.2796;
1219.5000;0.6772;-0.2962;
1219.8000;0.6781;-0.2867;
1220.1000;0.6781;-0.2843;
1220.4000;0.6789;-0.2843;
1220.7000;0.6772;-0.2914;
1221.0000;0.6781;-0.2891;
1221.3000;0.6781;-0.2843;
1221.6000;0.6748;-0.2914;
1221.9000;0.6781;-0.2867;
1222.2000;0.6789;-0.2819;
1222.5000;0.6781;-0.2843;
1222.8000;0.6789;-0.2867;
1223.1000;0.6789;-0.2796;
1223.4000;0.6772;-0.2867;
1223.7000;0.6789;-0.2891;
1224.0000;0.6781;-0.2867;
1224.3000;0.6821;-0.2772;
1224.6000;0.6789;-0.2985;
1224.9000;0.6781;-0.3080;
1225.2000;0.6781;-0.3104;
1225.5000;0.6772;-0.3104;
1225.8000;0.6716;-0.3222;
1226.1000;0.6756;-0.3033;
1226.4000;0.6781;-0.2985;
1226.7000;0.6772;-0.2962;
1227.0000;0.6797;-0.2914;
1227.3000;0.6772;-0.2962;
1227.6000;0.6789;-0.3009;
1227.9000;0.6772;-0.2914;
1228.2000;0.6764;-0.2962;
1228.5000;0.6764;-0.2985;
1228.8000;0.6772;-0.2985;
1229.1000;0.6797;-0.2938;
1229.4000;0.6716;-0.3080;
1229.7000;0.6748;-0.2891;
1230.0000;0.6781;-0.2772;
1230.3000;0.6781;-0.2748;
1230.6000;0.6756;-0.2819;
1230.9000;0.6805;-0.2748;
1231.2000;0.6789;-0.2772;
1231.5000;0.6789;-0.2796;
1231.8000;0.6772;-0.2796;
1232.1000;0.6781;-0.2891;
1232.4000;0.6772;-0.2891;
1232.7000;0.6781;-0.2938;
1233.0000;0.6748;-0.3033;
1233.3000;0.6781;-0.2938;
1233.6000;0.6764;-0.2985;
1233.9000;0.6772;-0.2985;
1234.2000;0.6781;-0.2891;
1234.5000;0.6781;-0.2938;
1234.8000;0.6772;-0.3033;
1235.1000;0.6805;-0.3033;
1235.4000;0.6772;-0.3033;
1235.7000;0.6748;-0.3104;
1236.0000;0.6772;-0.2985;
1236.3000;0.6772;-0.2985;
1236.6000;0.6789;-0.2914;
1236.9000;0.6764;-0.2962;
1237.2000;0.6748;-0.2962;
1237.5000;0.6781;-0.2962;
1237.8000;0.6748;-0.3056;
1238.1000;0.6756;-0.3104;
1238.4000;0.6772;-0.3080;
1238.7000;0.6756;-0.3056;
1239.0000;0.6772;-0.2985;
1239.3000;0.6781;-0.2914;
1239.6000;0.6772;-0.2914;
1239.9000;0.6781;-0.2867;
1240.2000;0.6862;-0.2606;
1240.5000;0.6756;-0.2891;
1240.8000;0.6789;-0.2796;
1241.1000;0.6764;-0.2891;
1241.4000;0.6772;-0.2867;
1241.7000;0.6781;-0.2843;
1242.0000;0.6764;-0.2891;
1242.3000;0.6764;-0.2914;
1242.6000;0.6772;-0.2867;
1242.9000;0.6789;-0.2819;
1243.2000;0.6772;-0.2938;
1243.5000;0.6772;-0.2985;
1243.8000;0.6756;-0.2985;
1244.1000;0.6772;-0.2914;
1244.4000;0.6789;-0.2914;
1244.7000;0.6781;-0.2891;
1245.0000;0.6772;-0.2914;
1245.3000;0.6797;-0.2819;
1245.6000;0.6772;-0.2796;
1245.9000;0.6772;-0.2891;
1246.2000;0.6789;-0.2891;
1246.5000;0.6781;-0.2867;
1246.8000;0.6764;-0.2914;
1247.1000;0.6740;-0.2914;
1247.4000;0.6764;-0.2938;
1247.7000;0.6740;-0.3009;
1248.0000;0.6756;-0.2985;
1248.3000;0.6789;-0.3033;
1248.6000;0.6756;-0.3104;
1248.9000;0.6699;-0.3151;
1249.2000;0.6772;-0.2938;
1249.5000;0.6781;-0.2938;
1249.8000;0.6772;-0.2985;
1250.1000;0.6805;-0.2867;
1250.4000;0.6797;-0.2938;
1250.7000;0.6772;-0.2938;
1251.0000;0.6781;-0.2843;
1251.3000;0.6772;-0.2819;
1251.6000;0.6789;-0.2796;
1251.9000;0.6781;-0.2867;
1252.2000;0.6781;-0.2891;
1252.5000;0.6772;-0.2819;
1252.8000;0.6772;-0.2796;
1253.1000;0.6772;-0.2843;
1253.4000;0.6764;-0.2843;
1253.7000;0.6764;-0.2772;
1254.0000;0.6756;-0.2772;
1254.3000;0.6846;-0.2630;
1254.6000;0.6781;-0.2891;
1254.9000;0.6789;-0.2843;
1255.2000;0.6772;-0.2891;
1255.5000;0.6789;-0.2843;
1255.8000;0.6781;-0.2819;
1256.1000;0.6781;-0.2843;
1256.4000;0.6789;-0.2867;
1256.7000;0.6764;-0.2819;
1257.0000;0.6781;-0.2819;
1257.3000;0.6805;-0.2701;
1257.6000;0.6764;-0.2867;
1257.9000;0.6756;-0.2914;
1258.2000;0.6756;-0.2891;
1258.5000;0.6789;-0.2891;
1258.8000;0.6781;-0.2867;
1259.1000;0.6756;-0.2867;
1259.4000;0.6797;-0.2772;
1259.7000;0.6781;-0.2914;
1260.0000;0.6781;-0.2843;
1260.3000;0.6829;-0.2630;
1260.6000;0.6781;-0.2843;
1260.9000;0.6772;-0.2796;
1261.2000;0.6764;-0.2796;
1261.5000;0.6781;-0.2819;
1261.8000;0.6764;-0.2914;
1262.1000;0.6772;-0.2819;
1262.4000;0.6772;-0.2796;
1262.7000;0.6764;-0.2843;
1263.0000;0.6772;-0.2867;
1263.3000;0.6764;-0.2843;
1263.6000;0.6781;-0.2843;
1263.9000;0.6772;-0.2867;
1264.2000;0.6748;-0.2938;
1264.5000;0.6772;-0.2867;
1264.8000;0.6772;-0.2772;
1265.1000;0.6772;-0.2748;
1265.4000;0.6829;-0.2701;
1265.7000;0.6772;-0.2891;
1266.0000;0.6772;-0.2867;
1266.3000;0.6732;-0.3080;
1266.6000;0.6764;-0.2867;
1266.9000;0.6756;-0.2914;
1267.2000;0.6789;-0.2796;
1267.5000;0.6772;-0.2891;
1267.8000;0.6756;-0.2938;
1268.1000;0.6756;-0.2843;
1268.4000;0.6772;-0.2843;
1268.7000;0.6781;-0.2891;
1269.0000;0.6764;-0.2891;
1269.3000;0.6732;-0.2985;
1269.6000;0.6764;-0.2819;
1269.9000;0.6781;-0.2819;
1270.2000;0.6772;-0.2843;
1270.5000;0.6748;-0.2843;
1270.8000;0.6772;-0.2867;
1271.1000;0.6748;-0.2819;
1271.4000;0.6772;-0.2867;
1271.7000;0.6764;-0.2867;
1272.0000;0.6781;-0.2819;
1272.3000;0.6813;-0.2677;
1272.6000;0.6772;-0.2748;
1272.9000;0.6772;-0.2772;
1273.2000;0.6756;-0.2796;
1273.5000;0.6756;-0.2819;
1273.8000;0.6772;-0.2843;
1274.1000;0.6724;-0.2962;
1274.4000;0.6756;-0.2843;
1274.7000;0.6748;-0.2843;
1275.0000;0.6740;-0.2914;
1275.3000;0.6707;-0.2985;
1275.6000;0.6764;-0.2962;
1275.9000;0.6756;-0.2962;
1276.2000;0.6764;-0.2867;
1276.5000;0.6764;-0.2891;
1276.8000;0.6748;-0.2938;
1277.1000;0.6772;-0.2891;
1277.4000;0.6772;-0.2867;
1277.7000;0.6756;-0.2772;
1278.0000;0.6756;-0.2772;
1278.3000;0.6732;-0.2772;
1278.6000;0.6748;-0.2819;
1278.9000;0.6756;-0.2796;
1279.2000;0.6772;-0.2843;
1279.5000;0.6748;-0.2796;
1279.8000;0.6764;-0.2843;
1280.1000;0.6756;-0.2867;
1280.4000;0.6772;-0.2938;
1280.7000;0.6764;-0.3033;
1281.0000;0.6764;-0.3080;
1281.3000;0.6764;-0.3056;
1281.6000;0.6764;-0.3009;
1281.9000;0.6764;-0.3056;
1282.2000;0.6756;-0.3009;
1282.5000;0.6756;-0.2985;
1282.8000;0.6772;-0.2938;
1283.1000;0.6781;-0.2867;
1283.4000;0.6756;-0.2914;
1283.7000;0.6781;-0.2819;
1284.0000;0.6846;-0.2630;
1284.3000;0.6781;-0.2843;
1284.6000;0.6756;-0.2891;
1284.9000;0.6764;-0.2891;
1285.2000;0.6764;-0.2867;
1285.5000;0.6756;-0.2843;
1285.8000;0.6756;-0.2867;
1286.1000;0.6764;-0.2796;
1286.4000;0.6764;-0.2796;
1286.7000;0.6756;-0.2914;
1287.0000;0.6740;-0.3009;
1287.3000;0.6756;-0.3056;
1287.6000;0.6748;-0.2962;
1287.9000;0.6748;-0.2985;
1288.2000;0.6756;-0.3009;
1288.5000;0.6756;-0.3033;
1288.8000;0.6740;-0.3009;
1289.1000;0.6764;-0.2891;
1289.4000;0.6748;-0.2819;
1289.7000;0.6740;-0.2819;
1290.0000;0.6756;-0.2796;
1290.3000;0.6748;-0.2772;
1290.6000;0.6756;-0.2772;
1290.9000;0.6772;-0.2701;
1291.2000;0.6764;-0.2772;
1291.5000;0.6764;-0.2819;
1291.8000;0.6764;-0.2938;
1292.1000;0.6764;-0.3033;
1292.4000;0.6772;-0.3104;
1292.7000;0.6764;-0.3080;
1293.0000;0.6789;-0.2914;
1293.3000;0.6764;-0.2867;
1293.6000;0.6764;-0.2891;
1293.9000;0.6748;-0.2796;
1294.2000;0.6756;-0.2796;
1294.5000;0.6764;-0.2796;
1294.8000;0.6764;-0.2748;
1295.1000;0.6748;-0.2796;
1295.4000;0.6756;-0.2677;
1295.7000;0.6781;-0.2606;
1296.0000;0.6789;-0.2535;
1296.3000;0.6748;-0.2559;
1296.6000;0.6740;-0.2606;
1296.9000;0.6781;-0.2464;
1297.2000;0.6764;-0.2535;
1297.5000;0.6740;-0.2654;
1297.8000;0.6756;-0.2677;
1298.1000;0.6764;-0.2701;
1298.4000;0.6748;-0.2725;
1298.7000;0.6764;-0.2677;
1299.0000;0.6740;-0.2796;
1299.3000;0.6748;-0.2796;
1299.6000;0.6748;-0.2748;
1299.9000;0.6748;-0.2701;
1300.2000;0.6732;-0.2748;
1300.5000;0.6748;-0.2725;
1300.8000;0.6740;-0.2725;
1301.1000;0.6732;-0.2772;
1301.4000;0.6724;-0.2748;
1301.7000;0.6764;-0.2606;
1302.0000;0.6756;-0.2701;
1302.3000;0.6740;-0.2748;
1302.6000;0.6764;-0.2701;
1302.9000;0.6789;-0.2559;
1303.2000;0.6772;-0.2630;
1303.5000;0.6772;-0.2583;
1303.8000;0.6748;-0.2535;
1304.1000;0.6732;-0.2559;
1304.4000;0.6772;-0.2440;
1304.7000;0.6772;-0.2464;
1305.0000;0.6716;-0.2654;
1305.3000;0.6732;-0.2583;
1305.6000;0.6748;-0.2654;
1305.9000;0.6683;-0.2748;
1306.2000;0.6764;-0.2654;
1306.5000;0.6724;-0.2748;
1306.8000;0.6756;-0.2701;
1307.1000;0.6764;-0.2654;
1307.4000;0.6748;-0.2748;
1307.7000;0.6748;-0.2748;
1308.0000;0.6772;-0.2748;
1308.3000;0.6740;-0.2891;
1308.6000;0.6748;-0.2867;
1308.9000;0.6756;-0.2819;
1309.2000;0.6732;-0.2891;
1309.5000;0.6764;-0.2843;
1309.8000;0.6732;-0.2962;
1310.1000;0.6756;-0.2819;
1310.4000;0.6716;-0.2796;
1310.7000;0.6724;-0.2891;
1311.0000;0.6724;-0.2843;
1311.3000;0.6748;-0.2748;
1311.6000;0.6748;-0.2725;
1311.9000;0.6707;-0.2891;
1312.2000;0.6756;-0.2819;
1312.5000;0.6748;-0.2867;
1312.8000;0.6732;-0.2748;
1313.1000;0.6732;-0.2772;
1313.4000;0.6740;-0.2748;
1313.7000;0.6756;-0.2701;
1314.0000;0.6789;-0.2511;
1314.3000;0.6707;-0.2701;
1314.6000;0.6756;-0.2606;
1314.9000;0.6748;-0.2606;
1315.2000;0.6764;-0.2559;
1315.5000;0.6740;-0.2606;
1315.8000;0.6805;-0.2417;
1316.1000;0.6789;-0.2440;
1316.4000;0.6764;-0.2559;
1316.7000;0.6748;-0.2701;
1317.0000;0.6764;-0.2677;
1317.3000;0.6740;-0.2701;
1317.6000;0.6781;-0.2583;
1317.9000;0.6805;-0.2559;
1318.2000;0.6756;-0.2677;
1318.5000;0.6740;-0.2677;
1318.8000;0.6748;-0.2701;
1319.1000;0.6748;-0.2796;
1319.4000;0.6732;-0.2796;
1319.7000;0.6748;-0.2796;
1320.0000;0.6748;-0.2748;
1320.3000;0.6756;-0.2748;
1320.6000;0.6756;-0.2677;
1320.9000;0.6748;-0.2725;
1321.2000;0.6732;-0.2819;
1321.5000;0.6756;-0.2725;
1321.8000;0.6732;-0.2772;
1322.1000;0.6756;-0.2748;
1322.4000;0.6756;-0.2891;
1322.7000;0.6748;-0.2867;
1323.0000;0.6805;-0.2772;
1323.3000;0.6772;-0.2843;
1323.6000;0.6748;-0.2891;
1323.9000;0.6772;-0.2701;
1324.2000;0.6740;-0.2725;
1324.5000;0.6748;-0.2701;
1324.8000;0.6756;-0.2677;
1325.1000;0.6789;-0.2559;
1325.4000;0.6748;-0.2654;
1325.7000;0.6756;-0.2772;
1326.0000;0.6724;-0.2819;
1326.3000;0.6740;-0.2796;
1326.6000;0.6764;-0.2725;
1326.9000;0.6716;-0.2796;
1327.2000;0.6789;-0.2606;
1327.5000;0.6764;-0.2725;
1327.8000;0.6764;-0.2654;
1328.1000;0.6797;-0.2606;
1328.4000;0.6764;-0.2701;
1328.7000;0.6756;-0.2725;
1329.0000;0.6748;-0.2677;
1329.3000;0.6756;-0.2583;
1329.6000;0.6772;-0.2583;
1329.9000;0.6732;-0.2725;
1330.2000;0.6764;-0.2772;
1330.5000;0.6748;-0.2701;
1330.8000;0.6756;-0.2677;
1331.1000;0.6781;-0.2559;
1331.4000;0.6740;-0.2535;
1331.7000;0.6748;-0.2606;
1332.0000;0.6756;-0.2677;
1332.3000;0.6781;-0.2583;
1332.6000;0.6732;-0.2701;
1332.9000;0.6740;-0.2630;
1333.2000;0.6764;-0.2606;
1333.5000;0.6764;-0.2606;
1333.8000;0.6740;-0.2559;
1334.1000;0.6740;-0.2488;
1334.4000;0.6740;-0.2511;
1334.7000;0.6756;-0.2583;
1335.0000;0.6748;-0.2606;
1335.3000;0.6764;-0.2606;
1335.6000;0.6756;-0.2654;
1335.9000;0.6740;-0.2654;
1336.2000;0.6764;-0.2583;
1336.5000;0.6748;-0.2630;
1336.8000;0.6764;-0.2583;
1337.1000;0.6740;-0.2630;
1337.4000;0.6732;-0.2654;
1337.7000;0.6756;-0.2583;
1338.0000;0.6764;-0.2559;
1338.3000;0.6781;-0.2535;
1338.6000;0.6716;-0.2630;
1338.9000;0.6748;-0.2630;
1339.2000;0.6740;-0.2606;
1339.5000;0.6732;-0.2630;
1339.8000;0.6748;-0.2583;
1340.1000;0.6740;-0.2606;
1340.4000;0.6740;-0.2677;
1340.7000;0.6756;-0.2677;
1341.0000;0.6748;-0.2725;
1341.3000;0.6764;-0.2725;
1341.6000;0.6716;-0.2914;
1341.9000;0.6789;-0.2796;
1342.2000;0.6764;-0.2867;
1342.5000;0.6716;-0.3033;
1342.8000;0.6740;-0.2985;
1343.1000;0.6748;-0.2985;
1343.4000;0.6724;-0.3009;
1343.7000;0.6732;-0.3033;
1344.0000;0.6748;-0.2985;
1344.3000;0.6724;-0.3104;
1344.6000;0.6772;-0.2938;
1344.9000;0.6764;-0.2891;
1345.2000;0.6756;-0.2867;
1345.5000;0.6813;-0.2725;
1345.8000;0.6707;-0.2985;
1346.1000;0.6740;-0.2914;
1346.4000;0.6813;-0.2796;
1346.7000;0.6748;-0.2985;
1347.0000;0.6764;-0.2938;
1347.3000;0.6756;-0.2891;
1347.6000;0.6748;-0.2867;
1347.9000;0.6707;-0.2867;
1348.2000;0.6756;-0.2819;
1348.5000;0.6756;-0.2772;
1348.8000;0.6748;-0.2701;
1349.1000;0.6724;-0.2725;
1349.4000;0.6740;-0.2606;
1349.7000;0.6756;-0.2606;
1350.0000;0.6756;-0.2630;
1350.3000;0.6756;-0.2701;
1350.6000;0.6756;-0.2701;
1350.9000;0.6740;-0.2772;
1351.2000;0.6748;-0.2796;
1351.5000;0.6748;-0.2772;
1351.8000;0.6748;-0.2748;
1352.1000;0.6764;-0.2701;
1352.4000;0.6732;-0.2819;
1352.7000;0.6756;-0.2867;
1353.0000;0.6740;-0.2985;
1353.3000;0.6740;-0.2914;
1353.6000;0.6748;-0.2819;
1353.9000;0.6732;-0.2796;
1354.2000;0.6740;-0.2772;
1354.5000;0.6748;-0.2772;
1354.8000;0.6748;-0.2725;
1355.1000;0.6740;-0.2796;
1355.4000;0.6724;-0.2891;
1355.7000;0.6732;-0.2796;
1356.0000;0.6724;-0.2891;
1356.3000;0.6740;-0.2796;
1356.6000;0.6740;-0.2725;
1356.9000;0.6732;-0.2819;
1357.2000;0.6756;-0.2772;
1357.5000;0.6748;-0.2748;
1357.8000;0.6732;-0.2772;
1358.1000;0.6716;-0.2867;
1358.4000;0.6772;-0.2701;
1358.7000;0.6756;-0.2748;
1359.0000;0.6748;-0.2677;
1359.3000;0.6740;-0.2772;
1359.6000;0.6740;-0.2772;
1359.9000;0.6764;-0.2772;
1360.2000;0.6724;-0.2914;
1360.5000;0.6748;-0.2867;
1360.8000;0.6740;-0.2891;
1361.1000;0.6756;-0.2914;
1361.4000;0.6764;-0.3009;
1361.7000;0.6748;-0.3033;
1362.0000;0.6748;-0.2985;
1362.3000;0.6740;-0.3033;
1362.6000;0.6732;-0.3009;
1362.9000;0.6683;-0.3080;
1363.2000;0.6732;-0.2867;
1363.5000;0.6740;-0.2772;
1363.8000;0.6740;-0.2796;
1364.1000;0.6740;-0.2843;
1364.4000;0.6732;-0.2843;
1364.7000;0.6732;-0.2772;
1365.0000;0.6699;-0.2891;
1365.3000;0.6732;-0.2843;
1365.6000;0.6716;-0.2891;
1365.9000;0.6748;-0.2796;
1366.2000;0.6732;-0.2985;
1366.5000;0.6732;-0.2962;
1366.8000;0.6740;-0.2914;
1367.1000;0.6732;-0.2843;
1367.4000;0.6764;-0.2819;
1367.7000;0.6748;-0.2796;
1368.0000;0.6748;-0.2796;
1368.3000;0.6732;-0.2843;
1368.6000;0.6740;-0.2843;
1368.9000;0.6691;-0.2867;
1369.2000;0.6740;-0.2748;
1369.5000;0.6732;-0.2725;
1369.8000;0.6740;-0.2748;
1370.1000;0.6740;-0.2677;
1370.4000;0.6740;-0.2725;
1370.7000;0.6732;-0.2772;
1371.0000;0.6724;-0.2819;
1371.3000;0.6740;-0.2701;
1371.6000;0.6756;-0.2677;
1371.9000;0.6748;-0.2701;
1372.2000;0.6740;-0.2819;
1372.5000;0.6740;-0.2938;
1372.8000;0.6740;-0.2985;
1373.1000;0.6724;-0.2914;
1373.4000;0.6732;-0.2796;
1373.7000;0.6748;-0.2748;
1374.0000;0.6748;-0.2606;
1374.3000;0.6732;-0.2606;
1374.6000;0.6740;-0.2583;
1374.9000;0.6740;-0.2677;
1375.2000;0.6764;-0.2654;
1375.5000;0.6732;-0.2796;
1375.8000;0.6740;-0.2819;
1376.1000;0.6756;-0.2843;
1376.4000;0.6724;-0.2819;
1376.7000;0.6764;-0.2606;
1377.0000;0.6748;-0.2654;
1377.3000;0.6675;-0.2819;
1377.6000;0.6748;-0.2701;
1377.9000;0.6740;-0.2606;
1378.2000;0.6740;-0.2677;
1378.5000;0.6732;-0.2677;
1378.8000;0.6756;-0.2701;
1379.1000;0.6732;-0.2772;
1379.4000;0.6740;-0.2725;
1379.7000;0.6724;-0.2772;
1380.0000;0.6732;-0.2748;
1380.3000;0.6740;-0.2819;
1380.6000;0.6740;-0.2772;
1380.9000;0.6716;-0.2867;
1381.2000;0.6764;-0.2725;
1381.5000;0.6740;-0.2725;
1381.8000;0.6740;-0.2772;
1382.1000;0.6740;-0.2796;
1382.4000;0.6748;-0.2819;
1382.7000;0.6724;-0.2796;
1383.0000;0.6748;-0.2701;
1383.3000;0.6756;-0.2701;
1383.6000;0.6748;-0.2701;
1383.9000;0.6740;-0.2725;
1384.2000;0.6756;-0.2748;
1384.5000;0.6740;-0.2748;
1384.8000;0.6724;-0.2867;
1385.1000;0.6716;-0.2985;
1385.4000;0.6732;-0.2867;
1385.7000;0.6748;-0.2772;
1386.0000;0.6748;-0.2796;
1386.3000;0.6667;-0.2867;
1386.6000;0.6732;-0.2606;
1386.9000;0.6748;-0.2583;
1387.2000;0.6789;-0.2583;
1387.5000;0.6732;-0.2819;
1387.8000;0.6740;-0.2843;
1388.1000;0.6724;-0.2867;
1388.4000;0.6805;-0.2606;
1388.7000;0.6740;-0.2796;
1389.0000;0.6716;-0.2819;
1389.3000;0.6740;-0.2796;
1389.6000;0.6732;-0.2772;
1389.9000;0.6707;-0.2796;
1390.2000;0.6740;-0.2772;
1390.5000;0.6740;-0.2725;
1390.8000;0.6716;-0.2654;
1391.1000;0.6748;-0.2559;
1391.4000;0.6724;-0.2677;
1391.7000;0.6740;-0.2701;
1392.0000;0.6740;-0.2748;
1392.3000;0.6740;-0.2819;
1392.6000;0.6724;-0.2843;
1392.9000;0.6724;-0.2843;
1393.2000;0.6748;-0.2748;
1393.5000;0.6740;-0.2772;
1393.8000;0.6724;-0.2819;
1394.1000;0.6732;-0.2867;
1394.4000;0.6740;-0.2843;
1394.7000;0.6756;-0.2819;
1395.0000;0.6732;-0.2819;
1395.3000;0.6724;-0.2891;
1395.6000;0.6740;-0.2867;
1395.9000;0.6748;-0.2938;
1396.2000;0.6748;-0.2938;
1396.5000;0.6764;-0.2914;
1396.8000;0.6748;-0.2867;
1397.1000;0.6740;-0.2867;
1397.4000;0.6756;-0.2796;
1397.7000;0.6659;-0.3009;
1398.0000;0.6732;-0.2819;
1398.3000;0.6732;-0.2867;
1398.6000;0.6748;-0.2843;
1398.9000;0.6772;-0.2819;
1399.2000;0.6716;-0.2914;
1399.5000;0.6740;-0.2938;
1399.8000;0.6675;-0.3175;
